time (ms)	lx (deg)	ly (deg)	rx (deg)	ry (deg)
0.000	0.75912	0.45951	0.45272	0.48142
1.000	0.75122	0.51918	0.45668	0.49534
2.000	0.77494	0.44558	0.43889	0.58486
3.000	0.75912	0.49134	0.43889	0.53911
4.000	0.75912	0.53510	0.46261	0.50927
5.000	0.75912	0.46747	0.47645	0.51523
6.000	0.77691	0.48934	0.42307	0.56099
7.000	0.78284	0.51918	0.41121	0.56696
8.000	0.78877	0.49531	0.39935	0.51524
9.000	0.78087	0.48735	0.41516	0.53115
10.000	0.75122	0.49929	0.46656	0.53513
11.000	0.77098	0.43763	0.48238	0.52319
12.000	0.79273	0.49531	0.46854	0.54507
13.000	0.75319	0.52714	0.44679	0.54308
14.000	0.73936	0.48338	0.47447	0.53314
15.000	0.78087	0.50128	0.47052	0.52717
16.000	0.76703	0.50725	0.46854	0.51523
17.000	0.76110	0.49531	0.44679	0.58088
18.000	0.78087	0.55498	0.47249	0.51523
19.000	0.75517	0.50128	0.45075	0.59480
20.000	0.72354	0.51720	0.42307	0.57889
21.000	0.76703	0.48537	0.47645	0.53910
22.000	0.76703	0.52316	0.48040	0.50529
23.000	0.73145	0.46349	0.45075	0.53712
24.000	0.79075	0.51321	0.45272	0.54706
25.000	0.76703	0.53112	0.43889	0.55104
26.000	0.76901	0.48139	0.49622	0.52916
27.000	0.79273	0.50327	0.42900	0.49733
28.000	0.78087	0.49730	0.49819	0.53910
29.000	0.74726	0.51123	0.43691	0.57690
30.000	0.74133	0.52316	0.42702	0.56298
31.000	0.74133	0.53709	0.40330	0.55900
32.000	0.68994	0.61268	0.42505	0.62464
33.000	0.64843	0.57290	0.38156	0.62862
34.000	0.61285	0.63258	0.37167	0.70421
35.000	0.64448	0.71611	0.35388	0.81958
36.000	0.57529	0.72607	0.30248	0.82157
37.000	0.52587	0.74795	0.31829	0.84743
38.000	0.48633	0.79768	0.32225	0.83748
39.000	0.47249	0.70619	0.29259	0.89317
40.000	0.52587	0.84342	0.30643	0.88522
41.000	0.53575	0.78972	0.26294	0.94489
42.000	0.46261	0.79968	0.31434	0.96477
43.000	0.49028	0.78376	0.29852	0.94290
44.000	0.46656	0.77183	0.31236	0.92102
45.000	0.56738	0.78375	0.36772	0.91902
46.000	0.53971	0.76585	0.31039	0.90312
47.000	0.65634	0.75589	0.35388	0.89715
48.000	0.57133	0.76187	0.36179	0.87527
49.000	0.63855	0.76385	0.35388	0.93891
50.000	0.65831	0.67434	0.39144	0.85140
51.000	0.66820	0.70617	0.39144	0.86930
52.000	0.65436	0.74595	0.38946	0.85935
53.000	0.69982	0.77180	0.34795	0.87129
54.000	0.59901	0.72805	0.33213	0.88521
55.000	0.64448	0.68230	0.40133	0.82355
56.000	0.61087	0.76386	0.36376	0.82355
57.000	0.59703	0.73999	0.35190	0.82355
58.000	0.60099	0.69424	0.39342	0.84742
59.000	0.62075	0.71612	0.36574	0.83151
60.000	0.58517	0.70021	0.36969	0.86333
61.000	0.61482	0.74595	0.36179	0.80764
62.000	0.55947	0.75392	0.38946	0.79372
63.000	0.54366	0.69624	0.34004	0.83947
64.000	0.54959	0.72408	0.37958	0.81162
65.000	0.63262	0.71811	0.35586	0.81560
66.000	0.59901	0.67236	0.36376	0.80565
67.000	0.58320	0.68629	0.37167	0.79770
68.000	0.61285	0.77977	0.34795	0.78377
69.000	0.62471	0.69424	0.32818	0.83549
70.000	0.63459	0.69821	0.34993	0.79770
71.000	0.61482	0.75192	0.34202	0.78974
72.000	0.60889	0.75789	0.34795	0.74598
73.000	0.59308	0.80165	0.39144	0.82554
74.000	0.65831	0.71412	0.34399	0.87527
75.000	0.63459	0.73203	0.36969	0.77184
76.000	0.52191	0.66441	0.34795	0.83947
77.000	0.59110	0.74397	0.32620	0.74797
78.000	0.56145	0.69822	0.33411	0.77582
79.000	0.58320	0.73203	0.33213	0.77184
80.000	0.58517	0.71811	0.38551	0.74200
81.000	0.56738	0.69822	0.42307	0.76587
82.000	0.56343	0.70021	0.35981	0.76587
83.000	0.53180	0.65248	0.37760	0.77979
84.000	0.61878	0.71214	0.36376	0.78377
85.000	0.61680	0.72805	0.37760	0.76985
86.000	0.60296	0.72607	0.36969	0.77582
87.000	0.65238	0.73401	0.34795	0.75394
88.000	0.65831	0.73401	0.37167	0.76189
89.000	0.62866	0.66639	0.37958	0.82156
90.000	0.58715	0.68828	0.34399	0.74002
91.000	0.60296	0.68827	0.33213	0.78378
92.000	0.58913	0.67037	0.33806	0.79770
93.000	0.67215	0.70815	0.30248	0.75991
94.000	0.60692	0.71413	0.34597	0.74200
95.000	0.59110	0.70419	0.38749	0.76786
96.000	0.59703	0.69623	0.34202	0.76587
97.000	0.58913	0.68430	0.32620	0.75593
98.000	0.57727	0.69027	0.32027	0.76985
99.000	0.58122	0.73005	0.32422	0.77781
100.000	0.60889	0.73601	0.38946	0.80963
101.000	0.61087	0.74198	0.34993	0.81759
102.000	0.65634	0.71213	0.35388	0.83748
103.000	0.58122	0.70817	0.37167	0.82554
104.000	0.61878	0.70220	0.35981	0.80963
105.000	0.59308	0.74198	0.32027	0.82356
106.000	0.61285	0.72606	0.36969	0.78178
107.000	0.61285	0.69822	0.38156	0.80764
108.000	0.59703	0.77380	0.36376	0.83350
109.000	0.58517	0.72010	0.31632	0.74599
110.000	0.59506	0.71015	0.34399	0.78775
111.000	0.59901	0.68827	0.30643	0.77582
112.000	0.65041	0.70418	0.36574	0.78377
113.000	0.61878	0.71811	0.33609	0.83549
114.000	0.60494	0.75192	0.29062	0.81958
115.000	0.59703	0.71214	0.34004	0.74996
116.000	0.56145	0.72010	0.34202	0.81958
117.000	0.59703	0.74993	0.33016	0.81759
118.000	0.59901	0.67435	0.35783	0.84941
119.000	0.57727	0.78773	0.32620	0.80168
120.000	0.57133	0.71612	0.32620	0.82753
121.000	0.57331	0.75392	0.38353	0.80167
122.000	0.57133	0.64452	0.35783	0.77383
123.000	0.62075	0.78374	0.34202	0.83151
124.000	0.57924	0.70220	0.38353	0.80764
125.000	0.58715	0.70618	0.39539	0.81957
126.000	0.61680	0.70816	0.35388	0.79372
127.000	0.60692	0.73601	0.34004	0.85538
128.000	0.60099	0.74198	0.37563	0.79173
129.000	0.63064	0.71015	0.35388	0.82157
130.000	0.60889	0.73999	0.32225	0.80566
131.000	0.57133	0.74198	0.38551	0.89118
132.000	0.56343	0.72408	0.35388	0.86731
133.000	0.63459	0.70816	0.35586	0.85140
134.000	0.60494	0.72805	0.33411	0.82356
135.000	0.63855	0.74197	0.37760	0.82554
136.000	0.64843	0.73600	0.34202	0.91306
137.000	0.63064	0.66838	0.36179	0.84543
138.000	0.59901	0.76585	0.36574	0.84344
139.000	0.56936	0.73800	0.37958	0.92499
140.000	0.56145	0.69425	0.37365	0.83350
141.000	0.61087	0.67236	0.36179	0.78178
142.000	0.60692	0.70021	0.39737	0.83350
143.000	0.58517	0.72209	0.34795	0.82952
144.000	0.59901	0.70816	0.40330	0.79769
145.000	0.64052	0.68827	0.38551	0.85935
146.000	0.57924	0.73005	0.42109	0.84940
147.000	0.57133	0.66839	0.40133	0.81559
148.000	0.53773	0.67834	0.43691	0.88520
149.000	0.58913	0.66043	0.41121	0.79173
150.000	0.58320	0.69424	0.35783	0.86731
151.000	0.59506	0.71214	0.39144	0.84742
152.000	0.54761	0.69624	0.35981	0.84543
153.000	0.56145	0.67833	0.34597	0.87129
154.000	0.59506	0.65247	0.35190	0.84941
155.000	0.61680	0.71811	0.33806	0.83748
156.000	0.58913	0.74397	0.34597	0.81759
157.000	0.58122	0.72010	0.38156	0.86930
158.000	0.63855	0.70219	0.36772	0.86731
159.000	0.58913	0.73601	0.32620	0.85936
160.000	0.59506	0.69026	0.35783	0.86134
161.000	0.61680	0.73203	0.33806	0.83549
162.000	0.63262	0.74595	0.34399	0.78378
163.000	0.61680	0.71811	0.38749	0.85935
164.000	0.54168	0.66839	0.35783	0.85936
165.000	0.57924	0.71811	0.35981	0.86731
166.000	0.52587	0.66640	0.35783	0.85936
167.000	0.60692	0.73999	0.34597	0.87129
168.000	0.57331	0.72010	0.33213	0.91903
169.000	0.57133	0.75392	0.37760	0.83549
170.000	0.53575	0.74994	0.35783	0.90112
171.000	0.58517	0.70618	0.30446	0.92301
172.000	0.62273	0.69822	0.35981	0.90112
173.000	0.58517	0.74795	0.35586	0.86333
174.000	0.61087	0.73601	0.31829	0.80168
175.000	0.55157	0.70021	0.33411	0.85936
176.000	0.55157	0.70419	0.37167	0.87924
177.000	0.62273	0.70219	0.34993	0.84742
178.000	0.55750	0.68430	0.32620	0.86731
179.000	0.59901	0.70220	0.37167	0.85737
180.000	0.59110	0.72010	0.32422	0.81361
181.000	0.58122	0.64054	0.39935	0.89714
182.000	0.63064	0.64451	0.39144	0.83350
183.000	0.57924	0.66640	0.36179	0.85737
184.000	0.60296	0.66441	0.39539	0.92499
185.000	0.52587	0.71016	0.34202	0.88720
186.000	0.55750	0.69822	0.32225	0.84345
187.000	0.55354	0.71414	0.37760	0.85140
188.000	0.58715	0.72209	0.34795	0.88919
189.000	0.53378	0.71414	0.33806	0.85339
190.000	0.60296	0.70419	0.35190	0.92300
191.000	0.60099	0.74993	0.30841	0.84345
192.000	0.55157	0.70817	0.36969	0.86134
193.000	0.60099	0.73402	0.35190	0.87129
194.000	0.61482	0.73402	0.34993	0.88720
195.000	0.64843	0.70617	0.35783	0.86731
196.000	0.59703	0.74795	0.29655	0.90312
197.000	0.62273	0.74396	0.35388	0.88521
198.000	0.62668	0.71214	0.33806	0.86532
199.000	0.62668	0.76982	0.39144	0.86333
200.000	0.64645	0.68031	0.32225	0.82356
201.000	0.63459	0.72805	0.31632	0.92698
202.000	0.63459	0.72009	0.40133	0.85935
203.000	0.60296	0.72607	0.34795	0.88521
204.000	0.65041	0.68429	0.37365	0.87129
205.000	0.62866	0.69225	0.32422	0.87328
206.000	0.61878	0.72606	0.34202	0.80168
207.000	0.60296	0.72010	0.35981	0.82952
208.000	0.64250	0.69225	0.37563	0.82952
209.000	0.59506	0.70220	0.33016	0.84544
210.000	0.64250	0.72009	0.34795	0.85538
211.000	0.64843	0.66042	0.32620	0.84742
212.000	0.62471	0.74197	0.29457	0.84146
213.000	0.69785	0.70815	0.36772	0.85140
214.000	0.63459	0.71214	0.37760	0.90709
215.000	0.61680	0.70418	0.36574	0.80565
216.000	0.61878	0.66838	0.35783	0.80366
217.000	0.58913	0.73999	0.36969	0.78775
218.000	0.64250	0.75788	0.35783	0.84941
219.000	0.56738	0.70618	0.33609	0.80764
220.000	0.64250	0.68429	0.34202	0.86333
221.000	0.62471	0.69225	0.32620	0.84345
222.000	0.66227	0.71810	0.33213	0.87129
223.000	0.64448	0.69026	0.37365	0.83350
224.000	0.63064	0.72208	0.37167	0.88720
225.000	0.64448	0.70020	0.35190	0.90311
226.000	0.62668	0.71214	0.38551	0.90709
227.000	0.62866	0.71612	0.40330	0.86333
228.000	0.58517	0.69027	0.38749	0.88720
229.000	0.63262	0.66042	0.36376	0.88123
230.000	0.65634	0.70816	0.35783	0.79770
231.000	0.63459	0.72805	0.36376	0.87527
232.000	0.66820	0.77578	0.38946	0.87526
233.000	0.60889	0.69225	0.35190	0.93891
234.000	0.65436	0.70418	0.37167	0.86333
235.000	0.63064	0.74595	0.36969	0.90311
236.000	0.59308	0.74198	0.36772	0.90709
237.000	0.65436	0.75788	0.33609	0.89317
238.000	0.62471	0.71811	0.40133	0.88322
239.000	0.56145	0.68430	0.33213	0.91903
240.000	0.58122	0.76585	0.32620	0.88521
241.000	0.58122	0.70021	0.38551	0.92101
242.000	0.62866	0.75391	0.30050	0.91903
243.000	0.60692	0.68032	0.35388	0.91107
244.000	0.59901	0.70220	0.33609	0.88124
245.000	0.60692	0.74397	0.35388	0.89317
246.000	0.57529	0.73800	0.34795	0.89516
247.000	0.64843	0.74197	0.35981	0.89516
248.000	0.59703	0.73203	0.40330	0.92896
249.000	0.57133	0.67038	0.40330	0.93294
250.000	0.66424	0.65843	0.32818	0.87925
251.000	0.61680	0.70816	0.34004	0.86135
252.000	0.54761	0.71414	0.36772	0.92101
253.000	0.58913	0.69623	0.36179	0.83947
254.000	0.54959	0.69823	0.38156	0.90510
255.000	0.54366	0.74000	0.37958	0.89317
256.000	0.57529	0.68231	0.34399	0.88124
257.000	0.59110	0.74198	0.38353	0.93891
258.000	0.60692	0.68628	0.34597	0.90908
259.000	0.52784	0.69823	0.27085	0.89715
260.000	0.56936	0.71811	0.33411	0.87925
261.000	0.61680	0.70418	0.33806	0.91902
262.000	0.53180	0.72607	0.34795	0.86731
263.000	0.61482	0.71413	0.41121	0.90311
264.000	0.59110	0.74198	0.34993	0.92300
265.000	0.60889	0.76584	0.33016	0.87129
266.000	0.63855	0.73203	0.37958	0.95681
267.000	0.62668	0.70816	0.34202	0.92499
268.000	0.63064	0.74595	0.32422	0.88720
269.000	0.60296	0.70618	0.34202	0.88919
270.000	0.52784	0.67834	0.29259	0.82555
271.000	0.49622	0.64850	0.28271	0.79969
272.000	0.49622	0.61071	0.23131	0.72610
273.000	0.42109	0.54905	0.22142	0.64455
274.000	0.34597	0.47347	0.22142	0.63659
275.000	0.29852	0.36804	0.15223	0.49734
276.000	0.29259	0.35411	0.11862	0.34815
277.000	0.20758	0.16512	0.09292	0.25266
278.000	0.10280	0.08754	0.09292	0.13130
279.000	0.08501	-0.00597	0.03954	0.07759
280.000	0.04745	-0.08356	0.00198	-0.00398
281.000	-0.02768	-0.14722	-0.03361	-0.07958
282.000	-0.02966	-0.19099	0.02175	-0.07759
283.000	-0.02768	-0.24868	-0.03756	-0.06963
284.000	-0.06129	-0.23475	0.00000	-0.07361
285.000	0.00989	-0.22481	0.00395	-0.04974
286.000	-0.01779	-0.23674	0.00000	-0.06167
287.000	0.00791	-0.18303	-0.01779	0.03979
288.000	0.06722	-0.12931	0.03559	0.06764
289.000	0.03361	-0.10942	0.02768	0.00995
290.000	0.13246	-0.04974	0.01384	0.06167
291.000	0.13048	-0.03979	-0.00395	0.10146
292.000	0.22340	0.01989	-0.02372	0.08754
293.000	0.16409	-0.02785	-0.00198	0.03581
294.000	0.23724	-0.02785	-0.01977	0.03979
295.000	0.18979	-0.07560	-0.05536	0.02785
296.000	0.20561	-0.06565	-0.10083	0.02387
297.000	0.17595	-0.04775	-0.07513	0.04178
298.000	0.22933	-0.09748	-0.04547	0.01989
299.000	0.17200	-0.11539	-0.07908	-0.04377
300.000	0.18584	-0.09350	-0.00791	0.00597
301.000	0.17200	-0.10942	-0.03559	0.03780
302.000	0.13641	-0.12334	-0.03559	0.00000
303.000	0.19177	-0.11937	0.01582	0.06366
304.000	0.15816	-0.11738	0.02768	0.03979
305.000	0.11071	-0.07759	0.00000	0.02785
306.000	0.10676	-0.09350	0.02768	0.08555
307.000	0.18386	-0.02387	0.03756	0.14324
308.000	0.11862	-0.04576	0.01384	0.11937
309.000	0.14234	-0.04178	-0.00395	0.16711
310.000	0.20165	0.00199	0.03559	0.17507
311.000	0.15816	0.03581	-0.01582	0.22481
312.000	0.18386	0.02188	-0.01977	0.20889
313.000	0.13444	0.00995	0.04152	0.13130
314.000	0.13839	0.01194	0.03559	0.14125
315.000	0.15618	-0.03183	0.00000	0.10942
316.000	0.16211	-0.00398	0.02768	0.13329
317.000	0.17793	-0.04576	0.01582	0.14125
318.000	0.17991	0.04974	-0.02175	0.10345
319.000	0.16409	-0.03979	0.05140	0.10942
320.000	0.14827	-0.05173	0.02372	0.11539
321.000	0.08897	-0.03183	0.02372	0.11141
322.000	0.13839	0.01393	0.00198	0.06167
323.000	0.15816	0.03382	-0.01582	0.08157
324.000	0.12850	0.01592	0.01977	0.11937
325.000	0.17200	-0.05173	0.02966	0.09748
326.000	0.08501	0.05570	0.01582	0.13130
327.000	0.17200	0.00398	-0.00198	0.09947
328.000	0.07315	0.01393	0.04349	0.16313
329.000	0.14827	-0.01393	0.02966	0.16910
330.000	0.16211	0.03979	0.01186	0.12334
331.000	0.13641	0.00597	0.03756	0.08356
332.000	0.13641	0.00796	0.00198	0.05173
333.000	0.18188	0.04178	0.04745	0.11340
334.000	0.13246	0.03382	0.03361	0.12136
335.000	0.17595	0.01393	0.01779	0.10146
336.000	0.12850	0.02785	-0.01186	0.11141
337.000	0.11467	0.01989	-0.00593	0.12334
338.000	0.12653	0.05173	0.00395	0.10146
339.000	0.11664	-0.00398	0.00000	0.10345
340.000	0.19572	0.06167	0.02966	0.15717
341.000	0.13048	0.02188	0.00791	0.08157
342.000	0.20363	0.03382	0.02372	0.13130
343.000	0.14037	0.01592	-0.01384	0.10146
344.000	0.15025	0.05769	0.05931	0.16711
345.000	0.10874	0.05173	0.00791	0.10146
346.000	0.13246	0.02984	-0.02372	0.12136
347.000	0.11071	0.04775	0.01779	0.12334
348.000	0.15025	0.05968	0.01186	0.12334
349.000	0.11467	0.08157	0.04152	0.10743
350.000	0.18386	0.04178	-0.01582	0.11141
351.000	0.13048	0.03183	-0.02966	0.13528
352.000	0.18188	0.06565	-0.02966	0.09947
353.000	0.14432	0.06366	-0.03361	0.10345
354.000	0.15025	0.05371	-0.01582	0.11340
355.000	0.13444	0.04377	0.04745	0.06963
356.000	0.09490	0.00398	0.00395	0.10942
357.000	0.10874	0.05371	0.01384	0.08356
358.000	0.17002	0.04775	-0.01977	0.14523
359.000	0.15421	0.09151	-0.03361	0.11539
360.000	0.15618	0.05173	0.00198	0.11539
361.000	0.10676	0.03780	-0.00989	0.09151
362.000	0.06920	0.04775	0.00791	0.06963
363.000	0.08897	0.04377	-0.02175	0.15120
364.000	0.11071	0.06764	0.00593	0.11539
365.000	0.09094	0.10743	-0.00989	0.12136
366.000	0.11862	0.06167	0.00791	0.10345
367.000	0.16607	0.08555	0.00395	0.11539
368.000	0.12653	0.05769	-0.00198	0.16313
369.000	0.10874	0.05173	-0.03756	0.13130
370.000	0.12060	0.02586	0.00395	0.12533
371.000	0.12257	0.04377	0.02570	0.19496
372.000	0.09292	0.03780	-0.01186	0.13727
373.000	0.06920	0.03382	0.00198	0.19099
374.000	0.09687	0.03183	0.04349	0.16910
375.000	0.10083	0.05769	-0.00593	0.21088
376.000	0.12850	0.07560	-0.00198	0.12732
377.000	0.11071	0.11141	0.00198	0.14125
378.000	0.11862	0.08157	-0.02175	0.14324
379.000	0.06129	0.03183	0.02175	0.18303
380.000	0.08303	0.03581	0.01186	0.10345
381.000	0.08106	0.04576	0.02768	0.12136
382.000	0.09687	0.05769	0.01977	0.15915
383.000	0.14037	0.09350	0.02966	0.14722
384.000	0.16804	0.07958	-0.02966	0.16313
385.000	0.12850	0.03979	0.01977	0.15915
386.000	0.09094	0.01592	-0.01582	0.21884
387.000	0.08897	0.13130	0.01582	0.14324
388.000	0.11269	0.05173	0.01779	0.12931
389.000	0.12850	0.07560	0.06722	0.18104
390.000	0.10280	0.02785	0.01186	0.12334
391.000	0.11269	0.11141	-0.00989	0.15319
392.000	0.10083	0.03581	0.03559	0.16114
393.000	0.09292	0.10544	0.00395	0.15518
394.000	0.15618	0.06366	0.03163	0.17109
395.000	0.08699	0.08356	0.01977	0.16512
396.000	0.08699	0.06963	-0.01977	0.17109
397.000	0.13246	0.04178	-0.01582	0.14523
398.000	0.08699	0.05968	-0.03559	0.10544
399.000	0.10280	0.12533	0.02372	0.12533
400.000	0.10676	0.09549	0.05140	0.14125
401.000	0.09885	0.07759	0.03756	0.13727
402.000	0.11269	0.05371	0.00198	0.09947
403.000	0.10280	0.04576	-0.00791	0.08754
404.000	0.10083	0.09151	-0.00198	0.08555
405.000	0.11862	0.09350	0.04745	0.15717
406.000	0.07710	0.04377	0.03559	0.18701
407.000	0.11467	0.04178	0.05931	0.06565
408.000	0.11467	0.09350	0.05338	0.11738
409.000	0.07908	0.05173	0.03756	0.11141
410.000	0.08501	0.07162	0.00593	0.12931
411.000	0.09292	0.06167	0.02570	0.14125
412.000	0.10280	0.03780	0.05536	0.19099
413.000	0.09490	0.09350	0.04152	0.16114
414.000	0.09094	0.07958	0.02175	0.11340
415.000	0.06722	0.09151	0.03361	0.17706
416.000	0.08897	0.12931	0.04943	0.13727
417.000	0.10874	0.08753	-0.00198	0.08952
418.000	0.12455	0.08952	0.00989	0.12732
419.000	0.09094	0.10544	0.01384	0.08356
420.000	0.11269	0.10544	0.00989	0.10544
421.000	0.16607	0.08555	0.04349	0.09947
422.000	0.08106	0.09549	0.03361	0.11937
423.000	0.11467	0.08555	0.06722	0.12136
424.000	0.10478	0.08754	-0.00791	0.07162
425.000	0.10083	0.14523	0.04349	0.16114
426.000	0.10280	0.07162	0.04745	0.19297
427.000	0.07710	0.12136	0.03163	0.14722
428.000	0.14234	0.12931	0.01779	0.13926
429.000	0.13048	0.05968	0.01384	0.16711
430.000	0.10083	0.15915	0.05338	0.14324
431.000	0.12850	0.13528	0.05931	0.09748
432.000	0.10676	0.15716	0.04152	0.18502
433.000	0.10874	0.11539	-0.00198	0.11937
434.000	0.07710	0.09151	0.01384	0.14722
435.000	0.08699	0.14523	0.02570	0.14324
436.000	0.10478	0.14523	0.01977	0.19894
437.000	0.07117	0.11539	0.04547	0.20093
438.000	0.12455	0.06764	0.01582	0.14125
439.000	0.12455	0.10544	0.02570	0.17905
440.000	0.10083	0.11738	0.02175	0.13130
441.000	0.12455	0.16313	0.02570	0.11340
442.000	0.09094	0.14324	0.05140	0.09151
443.000	0.12850	0.11937	0.01582	0.18104
444.000	0.09885	0.07958	0.06920	0.11340
445.000	0.10083	0.14921	0.04152	0.10146
446.000	0.09292	0.11340	-0.00198	0.16114
447.000	0.09687	0.13727	0.05140	0.12533
448.000	0.07908	0.13528	0.00989	0.11738
449.000	0.06920	0.08754	0.00791	0.16711
450.000	0.06722	0.08754	0.03756	0.14722
451.000	0.04152	0.09350	0.05733	0.13727
452.000	0.07513	0.17308	0.06326	0.17109
453.000	0.11664	0.10942	-0.02768	0.14722
454.000	0.08699	0.10345	0.02570	0.15915
455.000	0.06524	0.14921	0.02570	0.11539
456.000	0.03954	0.13926	0.06326	0.15319
457.000	0.09292	0.10544	-0.01582	0.16114
458.000	0.07117	0.13130	0.05931	0.12533
459.000	0.02570	0.16313	0.07710	0.10345
460.000	0.07315	0.09151	0.03954	0.16114
461.000	0.09490	0.16313	0.07513	0.14125
462.000	0.13444	0.14324	0.04152	0.10345
463.000	0.12060	0.18303	0.03954	0.15717
464.000	0.07908	0.21088	0.00791	0.12931
465.000	0.08897	0.14523	0.08897	0.16313
466.000	0.04943	0.12334	0.03361	0.09947
467.000	0.05733	0.15518	0.05338	0.12732
468.000	0.01384	0.13528	0.01977	0.15319
469.000	0.07117	0.16114	0.01977	0.09748
470.000	0.10874	0.19695	0.00989	0.14523
471.000	0.06722	0.14722	0.01384	0.11738
472.000	0.07513	0.08754	0.00395	0.10942
473.000	0.14630	0.15319	0.02372	0.12533
474.000	0.10478	0.13926	0.02768	0.13528
475.000	0.10874	0.20292	0.01779	0.08356
476.000	0.09687	0.14722	0.02966	0.13926
477.000	0.08699	0.10942	-0.02175	0.10942
478.000	0.04745	0.15518	0.04152	0.13528
479.000	0.06524	0.17109	0.05338	0.06167
480.000	0.08699	0.16711	-0.00395	0.12533
481.000	0.11071	0.14324	0.00791	0.14722
482.000	0.06524	0.14921	0.02372	0.11141
483.000	0.09490	0.19496	0.00198	0.08952
484.000	0.03954	0.13329	0.03361	0.09151
485.000	0.10280	0.16313	0.07908	0.12732
486.000	0.07513	0.13329	0.07908	0.12533
487.000	0.12455	0.15319	0.03361	0.16114
488.000	0.07315	0.17905	0.08106	0.09748
489.000	0.13048	0.17507	0.05536	0.14125
490.000	0.09687	0.14722	0.03559	0.10345
491.000	0.10280	0.17507	0.02966	0.12334
492.000	0.06129	0.19894	0.05733	0.15319
493.000	0.10280	0.19098	0.03361	0.15717
494.000	0.10280	0.10942	0.00198	0.10345
495.000	0.10478	0.17706	0.04547	0.11937
496.000	0.07117	0.13130	0.05338	0.13926
497.000	0.08303	0.17507	0.02768	0.17706
498.000	0.08897	0.17905	0.03361	0.18104
499.000	0.07908	0.12334	0.06129	0.10544
500.000	0.09292	0.20292	0.02175	0.18701
501.000	0.04349	0.13130	0.04745	0.15915
502.000	0.06920	0.13926	0.00791	0.12931
503.000	0.12060	0.19297	0.03559	0.16114
504.000	0.06129	0.14722	0.05140	0.17905
505.000	0.07710	0.13130	0.05536	0.12533
506.000	0.08897	0.16114	0.00989	0.14523
507.000	0.08699	0.23077	0.03954	0.16114
508.000	0.10676	0.18303	0.02966	0.10146
509.000	0.05931	0.18104	0.02372	0.09748
510.000	0.08699	0.14921	0.01384	0.12931
511.000	0.08699	0.19297	0.09490	0.09748
512.000	0.09885	0.20093	0.05733	0.08952
513.000	0.05536	0.18900	0.06129	0.09947
514.000	0.08897	0.16512	0.06920	0.10345
515.000	0.03756	0.19297	0.06920	0.12136
516.000	0.09094	0.17109	0.00791	0.13926
517.000	0.10478	0.18701	0.06524	0.12136
518.000	0.07315	0.11539	0.01779	0.17109
519.000	0.08699	0.19894	0.00989	0.14921
520.000	0.06722	0.17109	0.00593	0.10544
521.000	0.07513	0.19695	0.02570	0.13727
522.000	0.07117	0.16313	0.06524	0.13130
523.000	0.05733	0.12732	0.02768	0.13329
524.000	0.05931	0.14523	0.05338	0.14324
525.000	0.06129	0.20491	0.06722	0.09748
526.000	0.08303	0.18701	0.02175	0.09748
527.000	0.01582	0.16910	0.03361	0.04974
528.000	0.01977	0.16313	-0.01977	0.07958
529.000	0.10874	0.20889	0.04152	0.05173
530.000	0.05733	0.17706	0.00989	0.08952
531.000	0.01186	0.18502	-0.00989	0.09947
532.000	0.08699	0.14324	0.04547	0.10743
533.000	0.08303	0.22679	0.08303	0.08157
534.000	0.09292	0.17109	0.00989	0.11141
535.000	0.09687	0.19695	0.05338	0.04377
536.000	0.04152	0.23873	0.01779	0.14523
537.000	0.06326	0.20889	-0.01977	0.09549
538.000	0.04349	0.16114	-0.00791	0.07361
539.000	0.09885	0.19695	0.06524	0.10146
540.000	0.05733	0.19099	0.03163	0.14523
541.000	0.04349	0.16910	0.00593	0.13329
542.000	0.05536	0.19099	0.06524	0.15915
543.000	0.07710	0.16114	0.02966	0.08754
544.000	0.12060	0.23674	0.02570	0.12136
545.000	0.09094	0.19098	0.04745	0.06167
546.000	0.02966	0.19297	-0.02372	0.13329
547.000	-0.00593	0.22083	-0.01186	0.11937
548.000	0.02175	0.19894	-0.00198	0.08952
549.000	0.07315	0.16114	0.02372	0.08754
550.000	0.01977	0.20889	-0.02768	0.12732
551.000	0.02768	0.16512	0.03163	0.10345
552.000	0.03361	0.16512	-0.00395	0.10544
553.000	0.06524	0.14324	0.02175	0.15915
554.000	-0.00395	0.12732	0.01186	0.16512
555.000	0.05536	0.14125	0.00989	0.15518
556.000	0.05338	0.18900	0.03163	0.14722
557.000	0.10478	0.19894	-0.01384	0.11340
558.000	0.00593	0.19894	-0.01186	0.14324
559.000	0.02570	0.16313	-0.00395	0.14523
560.000	0.03163	0.16114	0.01977	0.12732
561.000	0.01186	0.16512	-0.03361	0.11539
562.000	0.01977	0.14921	0.06129	0.14324
563.000	0.04349	0.17706	0.01186	0.17308
564.000	0.02372	0.15915	0.00395	0.14921
565.000	0.04152	0.11340	0.00395	0.16910
566.000	-0.02372	0.08555	0.01384	0.09748
567.000	0.01582	0.14921	0.00198	0.16114
568.000	-0.02966	0.12533	-0.00395	0.12136
569.000	0.00000	0.20491	0.04547	0.16313
570.000	-0.02768	0.18701	-0.00593	0.08555
571.000	0.03756	0.16910	0.01779	0.10942
572.000	0.03954	0.19297	0.05931	0.08952
573.000	0.04943	0.16512	0.03756	0.06167
574.000	0.03559	0.14125	-0.00989	0.14722
575.000	0.03756	0.20491	-0.01977	0.09748
576.000	0.02372	0.18900	0.05536	0.16114
577.000	-0.00395	0.15518	0.04349	0.16313
578.000	0.04349	0.19695	-0.01384	0.12334
579.000	0.01582	0.18303	0.00000	0.19695
580.000	0.05733	0.20491	0.00000	0.13329
581.000	0.03361	0.16910	0.02768	0.10743
582.000	0.02768	0.15319	0.03756	0.17507
583.000	0.06129	0.20690	0.03361	0.14324
584.000	0.01977	0.18303	0.00198	0.14722
585.000	0.03756	0.17109	0.02570	0.12533
586.000	0.04943	0.19894	0.01582	0.12136
587.000	0.05140	0.17308	-0.00791	0.11141
588.000	-0.00791	0.14523	0.00593	0.15518
589.000	0.03954	0.21685	0.00000	0.11340
590.000	0.06326	0.14125	0.04943	0.11937
591.000	0.04943	0.21287	0.01977	0.14125
592.000	0.02768	0.20093	0.00791	0.13130
593.000	0.00791	0.18104	0.02570	0.18502
594.000	0.01186	0.19496	0.02175	0.07560
595.000	0.02372	0.15915	0.02768	0.14324
596.000	0.04943	0.18502	0.01977	0.15120
597.000	0.08699	0.17308	-0.00198	0.15717
598.000	0.07908	0.15716	0.03163	0.12931
599.000	0.05140	0.17706	0.02570	0.19695
600.000	0.02570	0.17109	-0.00395	0.12533
601.000	-0.00989	0.19099	-0.08106	0.16910
602.000	0.03954	0.22282	0.00791	0.14324
603.000	-0.02372	0.12533	0.05140	0.20093
604.000	0.00198	0.13727	0.01384	0.23674
605.000	0.01779	0.15717	0.05536	0.21486
606.000	0.00198	0.18502	0.01384	0.20889
607.000	0.03361	0.14722	0.00198	0.20491
608.000	0.04547	0.18303	0.02966	0.15120
609.000	-0.03559	0.13329	0.02175	0.13926
610.000	-0.03559	0.16711	0.03163	0.15717
611.000	-0.02570	0.10743	0.00989	0.13727
612.000	0.02768	0.14324	0.00000	0.14921
613.000	-0.00593	0.15518	0.02372	0.15319
614.000	-0.02570	0.15319	-0.00593	0.20690
615.000	0.03163	0.17706	-0.00791	0.12931
616.000	-0.01186	0.16910	-0.00593	0.16512
617.000	-0.00198	0.15319	-0.02768	0.17507
618.000	-0.02570	0.17905	0.00000	0.14523
619.000	0.01977	0.13727	0.00000	0.14722
620.000	-0.01384	0.18104	0.02372	0.18104
621.000	-0.02372	0.11340	-0.01186	0.12732
622.000	-0.00395	0.15319	0.01977	0.11738
623.000	0.00593	0.10345	0.00593	0.14523
624.000	-0.04349	0.12136	-0.01977	0.16910
625.000	-0.05733	0.13926	-0.03163	0.11937
626.000	-0.04745	0.18900	-0.02372	0.11539
627.000	-0.01977	0.11539	-0.00395	0.14722
628.000	-0.05338	0.16910	-0.01186	0.12533
629.000	0.00395	0.18502	0.00791	0.16313
630.000	-0.05140	0.15120	0.02966	0.12533
631.000	-0.04152	0.13329	0.01779	0.13130
632.000	0.00000	0.17308	-0.00395	0.20491
633.000	0.03361	0.16313	-0.03361	0.19496
634.000	0.03954	0.20093	0.00791	0.16114
635.000	-0.01186	0.18701	-0.01582	0.16313
636.000	-0.04943	0.18701	-0.00791	0.14523
637.000	0.02570	0.15717	-0.00791	0.18104
638.000	-0.00198	0.23475	-0.00593	0.17905
639.000	-0.04745	0.20292	-0.00198	0.13130
640.000	-0.03954	0.15915	-0.04547	0.13130
641.000	-0.07315	0.15915	-0.00791	0.15915
642.000	-0.06326	0.20093	0.00989	0.14921
643.000	-0.01779	0.23475	-0.01779	0.16114
644.000	-0.04745	0.16512	-0.03163	0.17706
645.000	0.03559	0.21088	0.01582	0.14523
646.000	-0.00989	0.19695	-0.03163	0.12931
647.000	-0.04152	0.15120	0.02372	0.12334
648.000	-0.02372	0.14921	0.00989	0.14125
649.000	-0.00791	0.13130	0.00198	0.20292
650.000	-0.03559	0.15518	-0.05733	0.16711
651.000	-0.05140	0.14324	0.04152	0.13329
652.000	-0.02175	0.15717	0.00395	0.09151
653.000	-0.05140	0.17308	-0.01384	0.11141
654.000	-0.05931	0.18701	-0.02372	0.07958
655.000	-0.03954	0.17706	-0.02966	0.01592
656.000	-0.04349	0.13130	-0.02372	0.10544
657.000	-0.04152	0.13926	-0.06722	0.08952
658.000	-0.09885	0.14324	-0.04349	0.14125
659.000	-0.06722	0.19297	-0.07315	0.06565
660.000	-0.05733	0.17706	-0.00791	0.10544
661.000	-0.04547	0.16910	-0.01384	0.08157
662.000	-0.04152	0.17507	-0.05338	0.08157
663.000	-0.07513	0.14523	-0.00791	0.06366
664.000	0.01779	0.21486	-0.00395	0.08952
665.000	-0.05140	0.13926	-0.03163	0.09350
666.000	-0.03163	0.13528	-0.01582	0.06963
667.000	-0.02372	0.15915	-0.06129	0.08555
668.000	-0.00989	0.19496	-0.00395	0.11340
669.000	-0.00989	0.24271	-0.01582	0.06366
670.000	0.00593	0.14125	-0.00989	0.10942
671.000	-0.07513	0.21088	-0.05536	0.06764
672.000	-0.05931	0.17905	-0.05733	0.15319
673.000	-0.08897	0.15120	-0.00791	0.11738
674.000	-0.00593	0.14921	-0.00791	0.08754
675.000	-0.02372	0.16313	0.01186	0.09748
676.000	0.04349	0.20093	-0.01977	0.14722
677.000	-0.07117	0.19695	0.00395	0.15319
678.000	-0.07117	0.18900	-0.02175	0.10345
679.000	0.03756	0.12732	-0.02570	0.09350
680.000	-0.01384	0.19099	0.00000	0.09947
681.000	-0.02966	0.20292	-0.03756	0.07560
682.000	-0.02175	0.18303	-0.05733	0.06963
683.000	-0.05338	0.17507	0.01186	0.07162
684.000	-0.03756	0.19695	0.00198	0.08952
685.000	-0.09292	0.16910	0.01582	0.10544
686.000	-0.10083	0.14324	-0.04349	0.08356
687.000	-0.04152	0.18104	-0.03559	0.06167
688.000	-0.07117	0.13130	-0.00989	0.14722
689.000	-0.03756	0.15717	-0.06326	0.07162
690.000	-0.08897	0.13727	0.00791	0.07361
691.000	-0.04152	0.20093	-0.01779	0.09947
692.000	-0.06920	0.14722	-0.03954	0.07759
693.000	-0.08501	0.15319	-0.00989	0.15120
694.000	-0.05931	0.19297	-0.01779	0.12334
695.000	-0.09885	0.15915	-0.02570	0.17507
696.000	-0.12455	0.14921	-0.03756	0.15120
697.000	-0.06524	0.16910	0.00989	0.07560
698.000	-0.11862	0.14324	-0.06920	0.14125
699.000	-0.11467	0.16910	-0.01977	0.14921
700.000	-0.09885	0.12732	-0.03954	0.11539
701.000	-0.06722	0.16711	-0.01384	0.16114
702.000	-0.06326	0.10146	-0.00395	0.15717
703.000	-0.05733	0.14324	-0.01977	0.15915
704.000	-0.07117	0.18104	-0.01186	0.18502
705.000	-0.06129	0.16512	-0.01186	0.19695
706.000	-0.06722	0.11340	-0.06326	0.13329
707.000	-0.10280	0.15518	-0.00989	0.15120
708.000	-0.08501	0.17507	-0.09885	0.07560
709.000	-0.10676	0.16313	-0.03163	0.12136
710.000	-0.06326	0.17308	-0.03954	0.13329
711.000	-0.07117	0.19297	-0.06326	0.16313
712.000	-0.13444	0.16114	-0.05733	0.09549
713.000	-0.10874	0.16711	-0.01779	0.16711
714.000	-0.07117	0.16114	-0.02768	0.10146
715.000	-0.05931	0.19496	-0.06920	0.10743
716.000	-0.03163	0.16313	-0.04745	0.09947
717.000	-0.09687	0.15716	-0.03954	0.14523
718.000	-0.06722	0.15120	-0.03361	0.08555
719.000	-0.03954	0.14324	-0.04152	0.06764
720.000	-0.06920	0.17507	-0.03756	0.16711
721.000	-0.07710	0.14125	-0.01977	0.12533
722.000	-0.03559	0.19496	-0.05338	0.11937
723.000	-0.01582	0.13528	-0.02570	0.13528
724.000	-0.06326	0.15319	-0.03163	0.08555
725.000	-0.10676	0.14921	-0.04547	0.13727
726.000	-0.04745	0.18303	-0.04152	0.13130
727.000	-0.11269	0.22083	-0.03954	0.12136
728.000	-0.04943	0.20491	-0.03361	0.10743
729.000	-0.12060	0.16910	-0.04745	0.09549
730.000	-0.13641	0.19297	-0.06129	0.14125
731.000	-0.09490	0.15120	-0.03756	0.14324
732.000	-0.03163	0.20093	-0.02372	0.10743
733.000	-0.09490	0.18701	-0.05338	0.14324
734.000	-0.07315	0.15716	-0.09094	0.14125
735.000	-0.06129	0.15915	-0.04547	0.12136
736.000	-0.12257	0.19894	-0.04547	0.08555
737.000	-0.12850	0.15120	-0.04745	0.13528
738.000	-0.12653	0.12533	-0.05733	0.13329
739.000	-0.11467	0.16910	-0.02768	0.11141
740.000	-0.13048	0.16711	-0.06129	0.13528
741.000	-0.05931	0.15518	-0.04349	0.14722
742.000	-0.08699	0.17706	-0.02768	0.19496
743.000	-0.09885	0.16512	-0.07117	0.18900
744.000	-0.11862	0.14324	-0.00989	0.19496
745.000	-0.11862	0.09549	-0.05536	0.19099
746.000	-0.11467	0.15915	-0.05140	0.17706
747.000	-0.08303	0.14921	-0.04745	0.23674
748.000	-0.05536	0.14324	-0.05338	0.18303
749.000	-0.10280	0.13727	-0.01384	0.26459
750.000	-0.06722	0.15518	-0.02966	0.27056
751.000	-0.07908	0.15518	-0.02570	0.21884
752.000	-0.10874	0.18900	-0.03361	0.22679
753.000	-0.06524	0.17706	-0.04349	0.22481
754.000	-0.12257	0.17109	-0.01384	0.21685
755.000	-0.11467	0.11738	-0.05536	0.20690
756.000	-0.07315	0.10743	-0.06326	0.23077
757.000	-0.15223	0.11340	-0.06129	0.25067
758.000	-0.13444	0.16512	0.00000	0.20690
759.000	-0.10676	0.13528	-0.02175	0.24271
760.000	-0.09885	0.13926	0.01582	0.23276
761.000	-0.07117	0.13528	-0.06129	0.22083
762.000	-0.10280	0.11937	-0.01779	0.23276
763.000	-0.08699	0.19496	-0.03954	0.21486
764.000	-0.11862	0.18502	-0.06722	0.24470
765.000	-0.06326	0.14921	-0.00395	0.22282
766.000	-0.13048	0.11937	-0.12060	0.23674
767.000	-0.12060	0.13727	-0.01779	0.22083
768.000	-0.11071	0.14921	-0.01779	0.24669
769.000	-0.08106	0.10743	-0.03954	0.24072
770.000	-0.07513	0.08555	-0.02768	0.26260
771.000	-0.07908	0.17905	-0.01384	0.25664
772.000	-0.14827	0.08157	-0.00593	0.25863
773.000	-0.11467	0.14722	-0.05931	0.25266
774.000	-0.06326	0.13528	-0.03163	0.22878
775.000	-0.14827	0.13528	-0.08106	0.22878
776.000	-0.13641	0.11141	-0.08106	0.24271
777.000	-0.10280	0.10942	0.00989	0.21685
778.000	-0.16014	0.10345	-0.05931	0.24669
779.000	-0.13246	0.10942	-0.07315	0.21884
780.000	-0.12455	0.11539	-0.01779	0.23276
781.000	-0.12850	0.12334	-0.03756	0.27255
782.000	-0.12257	0.10743	-0.01977	0.26061
783.000	-0.10478	0.15518	-0.04745	0.28847
784.000	-0.12850	0.13329	-0.04152	0.28648
785.000	-0.05140	0.14324	-0.08106	0.24271
786.000	-0.13246	0.17109	-0.03559	0.26061
787.000	-0.10676	0.11937	-0.05140	0.23873
788.000	-0.14037	0.19297	-0.07513	0.24470
789.000	-0.13641	0.10345	-0.11071	0.22679
790.000	-0.07908	0.12732	-0.09292	0.23873
791.000	-0.10874	0.18701	-0.07513	0.20292
792.000	-0.10478	0.12533	-0.04745	0.20292
793.000	-0.06722	0.16313	-0.03163	0.15120
794.000	-0.10083	0.15716	-0.05338	0.17308
795.000	-0.09094	0.15120	-0.01186	0.22083
796.000	-0.11467	0.16910	-0.02372	0.16512
797.000	-0.11269	0.17109	-0.03756	0.20292
798.000	-0.10676	0.17507	-0.07513	0.17706
799.000	-0.05140	0.16711	-0.04547	0.17507
800.000	-0.10874	0.16512	-0.07908	0.17308
801.000	-0.10280	0.15915	-0.07710	0.20093
802.000	-0.12257	0.12931	-0.05140	0.17706
803.000	-0.03559	0.19099	-0.08699	0.18701
804.000	-0.03756	0.18303	-0.05140	0.17905
805.000	-0.09687	0.13329	-0.05536	0.20690
806.000	-0.07513	0.16910	-0.07908	0.19496
807.000	-0.11071	0.17706	-0.05931	0.21685
808.000	-0.11664	0.17109	-0.06129	0.16512
809.000	-0.07513	0.17706	-0.04745	0.16910
810.000	-0.11269	0.22282	-0.07315	0.20889
811.000	-0.03163	0.18701	-0.07315	0.19297
812.000	-0.13839	0.11141	-0.03361	0.18502
813.000	-0.14630	0.15716	-0.05536	0.19297
814.000	-0.09687	0.17308	-0.05140	0.21088
815.000	-0.13246	0.14722	-0.10478	0.17905
816.000	-0.06722	0.11141	-0.12653	0.17905
817.000	-0.10083	0.20292	-0.04349	0.16114
818.000	-0.12850	0.19496	-0.04547	0.20690
819.000	-0.12060	0.15915	-0.08106	0.13528
820.000	-0.06722	0.16313	-0.04547	0.18900
821.000	-0.11269	0.11937	-0.07117	0.20491
822.000	-0.05338	0.15717	-0.12257	0.20690
823.000	-0.07908	0.14921	-0.09687	0.13130
824.000	-0.10083	0.16512	-0.02966	0.14523
825.000	-0.07908	0.12334	-0.05536	0.25067
826.000	-0.08106	0.15319	-0.07710	0.21884
827.000	-0.11467	0.19695	-0.07513	0.18701
828.000	-0.12257	0.16512	-0.06722	0.28449
829.000	-0.08106	0.14921	-0.05338	0.18701
830.000	-0.09885	0.16711	-0.03559	0.22481
831.000	-0.11269	0.15319	-0.06326	0.17507
832.000	-0.12850	0.12334	-0.05140	0.20292
833.000	-0.10280	0.11340	-0.08106	0.19496
834.000	-0.09885	0.09748	-0.03756	0.14921
835.000	-0.13641	0.14921	-0.05536	0.18104
836.000	-0.10874	0.19695	-0.05140	0.17109
837.000	-0.12850	0.10544	-0.10280	0.19894
838.000	-0.08501	0.09549	-0.07117	0.19297
839.000	-0.10676	0.12533	-0.08699	0.17507
840.000	-0.14234	0.12931	-0.06326	0.15717
841.000	-0.13444	0.12533	-0.10280	0.20491
842.000	-0.09094	0.12334	-0.04152	0.21088
843.000	-0.14037	0.12533	-0.09292	0.15716
844.000	-0.15223	0.16512	-0.05140	0.18701
845.000	-0.07908	0.15518	-0.07513	0.15915
846.000	-0.11467	0.16114	-0.08106	0.16910
847.000	-0.14827	0.11937	-0.10874	0.15120
848.000	-0.11269	0.13727	-0.06524	0.14722
849.000	-0.17595	0.12135	-0.06326	0.20292
850.000	-0.13444	0.11539	-0.06722	0.13329
851.000	-0.10280	0.14125	-0.05536	0.17706
852.000	-0.16804	0.13727	-0.05536	0.15717
853.000	-0.13444	0.14523	-0.02372	0.21287
854.000	-0.10083	0.13329	-0.06722	0.13727
855.000	-0.07908	0.14921	-0.09292	0.11539
856.000	-0.12455	0.12136	-0.06326	0.14324
857.000	-0.14827	0.17905	-0.04745	0.12931
858.000	-0.09292	0.15915	-0.07315	0.17308
859.000	-0.08897	0.10942	-0.10280	0.16114
860.000	-0.10083	0.14125	-0.07513	0.18303
861.000	-0.09292	0.16313	-0.08303	0.11539
862.000	-0.08303	0.10146	-0.05733	0.13528
863.000	-0.09687	0.14324	-0.08106	0.19695
864.000	-0.16804	0.13329	-0.04547	0.11937
865.000	-0.09490	0.09350	-0.02966	0.19099
866.000	-0.11862	0.13926	-0.00791	0.13926
867.000	-0.05140	0.14722	-0.04349	0.16711
868.000	-0.19177	0.11340	-0.06326	0.15915
869.000	-0.16607	0.12533	-0.06326	0.16512
870.000	-0.09687	0.10146	-0.06920	0.14125
871.000	-0.16607	0.17308	-0.09490	0.16114
872.000	-0.12257	0.05570	-0.06326	0.12334
873.000	-0.11862	0.15120	-0.02175	0.16711
874.000	-0.12060	0.07958	-0.07315	0.13727
875.000	-0.12850	0.11738	-0.07710	0.14722
876.000	-0.09687	0.10743	-0.09094	0.17308
877.000	-0.11862	0.18701	-0.05733	0.16711
878.000	-0.08303	0.10544	-0.07908	0.18502
879.000	-0.07513	0.12533	-0.07513	0.15120
880.000	-0.17595	0.13727	-0.07513	0.18502
881.000	-0.11664	0.08952	-0.10083	0.11539
882.000	-0.11071	0.07361	-0.05733	0.18502
883.000	-0.09490	0.12732	-0.05338	0.20292
884.000	-0.16211	0.09549	-0.08897	0.15319
885.000	-0.16014	0.09748	-0.02372	0.16512
886.000	-0.15421	0.11937	-0.01977	0.24271
887.000	-0.16804	0.08952	-0.05536	0.21088
888.000	-0.15618	0.10345	-0.05536	0.18104
889.000	-0.08303	0.07162	-0.05338	0.15915
890.000	-0.12060	0.10743	-0.05338	0.16114
891.000	-0.09885	0.09947	-0.02966	0.18701
892.000	-0.08501	0.10743	-0.08106	0.22878
893.000	-0.17793	0.10146	-0.02966	0.18303
894.000	-0.16014	0.14523	-0.02966	0.16910
895.000	-0.09687	0.09151	-0.03954	0.16313
896.000	-0.13444	0.07958	-0.04745	0.16910
897.000	-0.18584	0.08555	-0.07117	0.15518
898.000	-0.16607	0.01592	-0.09490	0.15120
899.000	-0.19375	0.11340	-0.08897	0.16711
900.000	-0.18584	0.11937	-0.05338	0.18701
901.000	-0.14037	0.08753	-0.10280	0.12136
902.000	-0.15421	0.11738	-0.06326	0.11738
903.000	-0.12850	0.13727	-0.04152	0.12533
904.000	-0.22142	0.10345	-0.06326	0.18701
905.000	-0.16607	0.06565	-0.06920	0.17905
906.000	-0.14630	0.10942	-0.07908	0.18104
907.000	-0.15618	0.09748	-0.07315	0.17308
908.000	-0.11269	0.01989	-0.05338	0.18701
909.000	-0.11071	0.09350	-0.02768	0.22481
910.000	-0.14432	0.02984	-0.08699	0.13926
911.000	-0.19770	0.06764	-0.07908	0.16910
912.000	-0.15816	0.03581	-0.06326	0.08356
913.000	-0.14630	0.07560	-0.07513	0.17507
914.000	-0.14037	0.05173	-0.08106	0.12136
915.000	-0.16607	0.04576	-0.09687	0.12533
916.000	-0.17595	0.06366	-0.03756	0.15319
917.000	-0.17398	0.06565	-0.04349	0.13727
918.000	-0.12653	0.04974	-0.03756	0.11539
919.000	-0.18584	0.02785	-0.06524	0.12931
920.000	-0.14037	0.07560	-0.04152	0.13926
921.000	-0.13048	0.09748	-0.10280	0.14125
922.000	-0.15421	0.07560	-0.06129	0.12732
923.000	-0.14037	0.08555	-0.07908	0.13329
924.000	-0.12060	0.06764	-0.10874	0.12931
925.000	-0.20758	0.14921	-0.08897	0.15319
926.000	-0.15421	0.06565	-0.02768	0.15319
927.000	-0.11269	0.07759	-0.04547	0.09748
928.000	-0.12257	0.08356	-0.07513	0.12732
929.000	-0.15816	0.05371	-0.08501	0.11937
930.000	-0.09885	0.07958	-0.07513	0.18502
931.000	-0.12060	0.09350	-0.05140	0.15717
932.000	-0.11862	0.05570	-0.06920	0.17109
933.000	-0.15618	0.07162	-0.07908	0.12533
934.000	-0.15223	0.11340	-0.03361	0.14523
935.000	-0.14234	0.14921	-0.00395	0.16313
936.000	-0.15816	0.09549	0.01582	0.13329
937.000	-0.10676	0.13130	-0.04152	0.12732
938.000	-0.10676	0.09748	-0.05931	0.14125
939.000	-0.13839	0.10345	-0.07513	0.19496
940.000	-0.13839	0.08555	-0.03559	0.16512
941.000	-0.14234	0.09151	-0.11862	0.16711
942.000	-0.09490	0.12334	-0.08897	0.16114
943.000	-0.11664	0.09151	-0.07117	0.12533
944.000	-0.09094	0.17905	-0.04547	0.11937
945.000	-0.15816	0.13727	-0.10478	0.10146
946.000	-0.17793	0.14722	-0.03361	0.14125
947.000	-0.15618	0.14921	-0.02768	0.13727
948.000	-0.08897	0.08754	-0.03361	0.16910
949.000	-0.15816	0.10743	-0.08897	0.11937
950.000	-0.16211	0.17109	-0.07117	0.19099
951.000	-0.12257	0.12533	-0.04349	0.20491
952.000	-0.09094	0.11141	-0.08303	0.16512
953.000	-0.07710	0.06764	-0.08501	0.13727
954.000	-0.10874	0.04576	-0.13246	0.19098
955.000	-0.09292	0.09151	-0.12455	0.16512
956.000	-0.12653	0.05968	-0.09292	0.14523
957.000	-0.16804	0.03979	-0.05536	0.19894
958.000	-0.12653	0.09350	-0.04349	0.17507
959.000	-0.15025	0.04974	-0.05931	0.23475
960.000	-0.15223	0.07361	-0.10280	0.17308
961.000	-0.12257	0.07759	-0.11071	0.16512
962.000	-0.13839	0.04377	-0.11467	0.17507
963.000	-0.09687	0.07361	-0.08106	0.21884
964.000	-0.12060	0.07759	-0.07710	0.22282
965.000	-0.11071	0.05769	-0.07117	0.21884
966.000	-0.11862	0.07162	-0.08303	0.17507
967.000	-0.13246	0.08753	-0.08699	0.12533
968.000	-0.15816	0.05968	-0.04745	0.17109
969.000	-0.10676	0.07958	-0.07513	0.20889
970.000	-0.12455	0.10544	-0.05140	0.15915
971.000	-0.14630	0.11141	-0.07710	0.21884
972.000	-0.15025	0.08555	-0.07710	0.19894
973.000	-0.17200	0.10146	-0.07513	0.18900
974.000	-0.10676	0.07361	-0.11664	0.19297
975.000	-0.13641	0.11738	-0.09885	0.27454
976.000	-0.15223	0.10146	-0.04152	0.21884
977.000	-0.14432	0.10743	-0.10676	0.25067
978.000	-0.15618	0.06565	-0.10874	0.16910
979.000	-0.15816	0.10146	-0.06524	0.19297
980.000	-0.13048	0.04775	-0.07908	0.18104
981.000	-0.13839	0.09748	-0.11071	0.23873
982.000	-0.11269	0.05968	-0.07513	0.18104
983.000	-0.14234	0.06565	-0.06326	0.20292
984.000	-0.14630	0.13926	-0.07117	0.13329
985.000	-0.08897	0.06565	-0.09687	0.19894
986.000	-0.12455	0.09549	-0.08501	0.18104
987.000	-0.10676	0.05173	-0.03361	0.16910
988.000	-0.14827	0.09549	-0.05140	0.17308
989.000	-0.12850	0.11539	-0.08897	0.15518
990.000	-0.16804	0.08952	-0.04943	0.14324
991.000	-0.20758	0.02785	-0.06722	0.16512
992.000	-0.16804	0.09549	-0.05733	0.16711
993.000	-0.18584	0.03780	-0.10874	0.15120
994.000	-0.17200	0.12135	-0.09490	0.17706
995.000	-0.15816	0.06764	-0.07315	0.18104
996.000	-0.12060	0.10146	-0.06326	0.12732
997.000	-0.11862	0.12533	-0.08699	0.16313
998.000	-0.12653	0.17109	-0.04152	0.16512
999.000	-0.13444	0.08952	-0.09292	0.08952
1000.000	-0.11664	0.11738	-0.08699	0.13329
1001.000	-0.16211	0.06565	-0.10478	0.12136
1002.000	-0.10083	0.11738	-0.07710	0.10942
1003.000	-0.22340	0.10146	-0.06920	0.11937
1004.000	-0.15421	0.09549	-0.05931	0.10345
1005.000	-0.10083	0.07560	-0.08303	0.09151
1006.000	-0.10280	0.09748	-0.08501	0.11141
1007.000	-0.17200	0.09151	-0.11269	0.10345
1008.000	-0.12060	0.09748	-0.08897	0.14722
1009.000	-0.14432	0.09549	-0.03756	0.14722
1010.000	-0.15025	0.08952	-0.07117	0.15120
1011.000	-0.14827	0.14125	-0.04152	0.08754
1012.000	-0.20956	0.17109	-0.08303	0.11937
1013.000	-0.18188	0.09748	-0.08303	0.13528
1014.000	-0.10083	0.10146	-0.09687	0.06167
1015.000	-0.18979	0.09549	-0.08303	0.14722
1016.000	-0.12455	0.12533	-0.08699	0.11539
1017.000	-0.14037	0.11738	-0.06920	0.12931
1018.000	-0.15618	0.09350	-0.08106	0.10544
1019.000	-0.11862	0.09350	-0.07315	0.18900
1020.000	-0.11071	0.14722	-0.07908	0.16910
1021.000	-0.20363	0.10345	-0.07315	0.18104
1022.000	-0.13839	0.05570	-0.04943	0.17706
1023.000	-0.17200	0.13130	-0.06129	0.18303
1024.000	-0.14827	0.03382	-0.08699	0.19099
1025.000	-0.21549	0.07361	-0.08699	0.21685
1026.000	-0.17595	0.08157	-0.09094	0.22480
1027.000	-0.18386	0.08555	-0.10083	0.16910
1028.000	-0.16211	0.09350	-0.07513	0.19496
1029.000	-0.14432	0.09151	-0.07117	0.15319
1030.000	-0.14827	0.11141	-0.08106	0.18502
1031.000	-0.14432	0.09549	-0.05931	0.18900
1032.000	-0.16409	0.11539	-0.05931	0.23475
1033.000	-0.22142	0.10544	-0.11269	0.16512
1034.000	-0.17002	0.09947	-0.07710	0.20292
1035.000	-0.15223	0.12732	-0.07513	0.17706
1036.000	-0.15816	0.13528	-0.04349	0.15120
1037.000	-0.14432	0.12334	-0.06129	0.18900
1038.000	-0.16607	0.08753	-0.02175	0.19297
1039.000	-0.17002	0.14523	-0.08303	0.18303
1040.000	-0.13641	0.11937	-0.08303	0.21685
1041.000	-0.18584	0.12732	-0.06524	0.16711
1042.000	-0.14037	0.12931	-0.02175	0.24470
1043.000	-0.14037	0.14921	-0.04349	0.18104
1044.000	-0.12257	0.12334	-0.08106	0.16711
1045.000	-0.16804	0.15319	-0.06920	0.15716
1046.000	-0.16804	0.12533	-0.04943	0.17109
1047.000	-0.14234	0.13329	-0.07117	0.14722
1048.000	-0.17991	0.19894	-0.10478	0.20093
1049.000	-0.12060	0.15518	-0.06524	0.13727
1050.000	-0.15421	0.07361	-0.09490	0.13926
1051.000	-0.16014	0.10942	-0.08106	0.06366
1052.000	-0.17398	0.10544	-0.07908	0.13329
1053.000	-0.15025	0.17706	-0.09094	0.17308
1054.000	-0.17002	0.12533	-0.09687	0.19098
1055.000	-0.14630	0.18900	-0.08897	0.11937
1056.000	-0.12455	0.15716	-0.09292	0.14523
1057.000	-0.12455	0.16114	-0.05931	0.12334
1058.000	-0.20165	0.16114	-0.05338	0.18701
1059.000	-0.15025	0.18104	-0.08106	0.17905
1060.000	-0.14234	0.14722	-0.07908	0.17507
1061.000	-0.14234	0.13329	-0.08106	0.13727
1062.000	-0.16014	0.14324	-0.05733	0.17706
1063.000	-0.19572	0.11141	-0.08501	0.18701
1064.000	-0.22142	0.16711	-0.05733	0.19297
1065.000	-0.16804	0.13329	-0.10478	0.18701
1066.000	-0.08303	0.16910	-0.05338	0.18303
1067.000	-0.18979	0.14125	-0.03954	0.20889
1068.000	-0.17002	0.12135	-0.10083	0.18701
1069.000	-0.14037	0.15120	-0.06524	0.18502
1070.000	-0.11467	0.13130	-0.00593	0.15717
1071.000	-0.02372	0.17706	0.05338	0.30836
1072.000	0.05140	0.18900	0.19572	0.22281
1073.000	0.16211	0.18900	0.30248	0.31233
1074.000	0.24910	0.21088	0.47645	0.31432
1075.000	0.35783	0.15915	0.66227	0.33022
1076.000	0.47052	0.20490	0.93899	0.35208
1077.000	0.74529	0.19296	1.16825	0.45150
1078.000	1.00026	0.25262	1.43698	0.50912
1079.000	1.24927	0.23669	1.69182	0.60251
1080.000	1.42710	0.19888	2.01176	0.53879
1081.000	1.67602	0.25255	2.23880	0.53076
1082.000	1.89130	0.27638	2.45196	0.56844
1083.000	2.09469	0.26839	2.69662	0.56436
1084.000	2.39671	0.31008	2.95892	0.58807
1085.000	2.57825	0.29215	3.21518	0.59388
1086.000	2.74790	0.24839	3.43192	0.60765
1087.000	3.10283	0.21256	3.60524	0.61151
1088.000	3.24474	0.29198	3.86510	0.62125
1089.000	3.41222	0.19660	4.00677	0.64298
1090.000	3.68794	0.25610	4.35484	0.62682
1091.000	3.93988	0.26397	4.48258	0.65646
1092.000	4.10119	0.26392	4.68295	0.62257
1093.000	4.26834	0.26386	4.88320	0.66996
1094.000	4.50027	0.24989	5.11079	0.68558
1095.000	4.73400	0.23990	5.31078	0.69724
1096.000	4.88713	0.27751	5.49302	0.65743
1097.000	5.07353	0.32300	5.57724	0.67120
1098.000	5.25002	0.35263	5.75147	0.74026
1099.000	5.42053	0.36639	5.84540	0.78565
1100.000	5.50281	0.30694	5.96472	0.73404
1101.000	5.64968	0.30884	6.02730	0.74583
1102.000	5.74560	0.28108	6.03316	0.78143
1103.000	5.75343	0.33254	6.02730	0.77352
1104.000	5.80431	0.39980	6.00188	0.72608
1105.000	5.72212	0.36027	5.92170	0.67870
1106.000	5.72407	0.33256	5.90018	0.64707
1107.000	5.67905	0.35436	5.80823	0.62739
1108.000	5.65947	0.29102	5.69275	0.60574
1109.000	5.57919	0.34848	5.65360	0.61568
1110.000	5.48910	0.34061	5.59486	0.62564
1111.000	5.43816	0.34064	5.46951	0.61389
1112.000	5.39701	0.34858	5.44992	0.62382
1113.000	5.42249	0.36045	5.38134	0.62191
1114.000	5.28922	0.30110	5.44208	0.60006
1115.000	5.37546	0.34860	5.37938	0.65756
1116.000	5.31078	0.32883	5.44600	0.61986
1117.000	5.35978	0.33276	5.38722	0.62784
1118.000	5.34214	0.36644	5.41465	0.63573
1119.000	5.27942	0.39619	5.49302	0.64951
1120.000	5.34802	0.34465	5.49889	0.68514
1121.000	5.32450	0.40607	5.48518	0.65150
1122.000	5.31078	0.41598	5.46951	0.67726
1123.000	5.32058	0.38428	5.51652	0.62771
1124.000	5.35390	0.35059	5.56549	0.65141
1125.000	5.31470	0.36844	5.43032	0.64364
1126.000	5.30294	0.38825	5.49302	0.61387
1127.000	5.33626	0.34664	5.43816	0.66343
1128.000	5.25198	0.37046	5.44012	0.64957
1129.000	5.35978	0.35059	5.43620	0.67334
1130.000	5.32450	0.37636	5.47538	0.69705
1131.000	5.26766	0.38431	5.47734	0.68715
1132.000	5.27354	0.34073	5.48322	0.68912
1133.000	5.34214	0.39813	5.43816	0.70304
1134.000	5.33626	0.35852	5.49106	0.69901
1135.000	5.32450	0.34466	5.45384	0.69114
1136.000	5.36566	0.39416	5.45971	0.69311
1137.000	5.36174	0.37237	5.48518	0.67328
1138.000	5.39310	0.32482	5.43620	0.66541
1139.000	5.42249	0.37234	5.50085	0.65742
1140.000	5.36958	0.35652	5.49302	0.64951
1141.000	5.41465	0.31094	5.46559	0.65944
1142.000	5.39701	0.32482	5.54394	0.68509
1143.000	5.41465	0.35254	5.50281	0.63960
1144.000	5.38134	0.33869	5.55569	0.65736
1145.000	5.43620	0.32282	5.46559	0.65944
1146.000	5.43228	0.34658	5.50477	0.67128
1147.000	5.44404	0.35450	5.51848	0.62968
1148.000	5.46755	0.37429	5.50477	0.65940
1149.000	5.42641	0.38025	5.52436	0.60988
1150.000	5.43816	0.41391	5.49693	0.73465
1151.000	5.43228	0.42382	5.49889	0.64554
1152.000	5.48126	0.48319	5.54786	0.64945
1153.000	5.44796	0.34459	5.51652	0.60593
1154.000	5.51848	0.38218	5.57332	0.61181
1155.000	5.49889	0.42179	5.55569	0.61974
1156.000	5.42837	0.40006	5.55178	0.68310
1157.000	5.46951	0.34656	5.54198	0.63560
1158.000	5.53807	0.39404	5.55569	0.66132
1159.000	5.44404	0.39411	5.47930	0.62774
1160.000	5.49497	0.35645	5.52044	0.60592
1161.000	5.49106	0.38021	5.52631	0.64947
1162.000	5.51652	0.37228	5.52044	0.58414
1163.000	5.46167	0.38023	5.52240	0.64156
1164.000	5.50673	0.38416	5.51260	0.63563
1165.000	5.47930	0.34458	5.55373	0.61183
1166.000	5.48910	0.37823	5.57332	0.62962
1167.000	5.47930	0.32477	5.53807	0.61382
1168.000	5.50477	0.34654	5.54198	0.61580
1169.000	5.50673	0.36040	5.52436	0.63166
1170.000	5.53219	0.36039	5.55373	0.64548
1171.000	5.59290	0.39203	5.53611	0.64946
1172.000	5.58115	0.38412	5.56353	0.60192
1173.000	5.59878	0.36629	5.57332	0.64942
1174.000	5.54786	0.37226	5.55178	0.59401
1175.000	5.54003	0.34454	5.51652	0.66137
1176.000	5.57724	0.35244	5.53023	0.64551
1177.000	5.58899	0.34847	5.55569	0.61183
1178.000	5.62227	0.39399	5.48910	0.60595
1179.000	5.59682	0.38015	5.53415	0.65541
1180.000	5.55765	0.37621	5.47147	0.65349
1181.000	5.58311	0.38609	5.48322	0.64952
1182.000	5.60465	0.36034	5.51456	0.70889
1183.000	5.65556	0.33655	5.52436	0.65542
1184.000	5.58899	0.40985	5.47930	0.67725
1185.000	5.60857	0.38608	5.51456	0.66335
1186.000	5.62032	0.37419	5.48518	0.64556
1187.000	5.66143	0.38010	5.51260	0.67919
1188.000	5.62227	0.39201	5.50869	0.62771
1189.000	5.65752	0.39594	5.50869	0.60197
1190.000	5.68492	0.37019	5.53023	0.66135
1191.000	5.64968	0.38209	5.56940	0.62369
1192.000	5.63598	0.41180	5.48910	0.67526
1193.000	5.68688	0.44541	5.46951	0.71884
1194.000	5.68297	0.41572	5.54198	0.65342
1195.000	5.71233	0.38997	5.49302	0.65743
1196.000	5.63794	0.42961	5.49889	0.69306
1197.000	5.66730	0.40979	5.47343	0.64359
1198.000	5.67905	0.42760	5.53415	0.66333
1199.000	5.72407	0.44142	5.47734	0.66141
1200.000	5.67709	0.45730	5.46363	0.66142
1201.000	5.73190	0.40381	5.51456	0.64355
1202.000	5.71820	0.39788	5.52631	0.67917
1203.000	5.70254	0.42560	5.49889	0.57030
1204.000	5.73777	0.45131	5.48910	0.68318
1205.000	5.73777	0.40776	5.49889	0.62970
1206.000	5.71037	0.46717	5.50281	0.66138
1207.000	5.71624	0.44935	5.51456	0.65741
1208.000	5.71624	0.41570	5.48714	0.64358
1209.000	5.70841	0.39393	5.49693	0.66139
1210.000	5.71820	0.40778	5.51064	0.65147
1211.000	5.73190	0.41569	5.49302	0.64951
1212.000	5.73973	0.42360	5.47930	0.67329
1213.000	5.77300	0.44534	5.50085	0.66930
1214.000	5.70841	0.38799	5.51064	0.60395
1215.000	5.70841	0.42956	5.51652	0.67522
1216.000	5.81801	0.41364	5.51652	0.63563
1217.000	5.76713	0.37607	5.45384	0.67332
1218.000	5.77300	0.45722	5.47734	0.67131
1219.000	5.79649	0.42158	5.48910	0.68516
1220.000	5.71820	0.44143	5.48322	0.67922
1221.000	5.77496	0.45722	5.48714	0.67724
1222.000	5.76713	0.47108	5.45384	0.62975
1223.000	5.78670	0.49085	5.47734	0.67725
1224.000	5.77105	0.41764	5.45775	0.56440
1225.000	5.74560	0.44339	5.51064	0.67127
1226.000	5.76713	0.38795	5.46167	0.63370
1227.000	5.81605	0.47500	5.47538	0.70497
1228.000	5.82388	0.44728	5.48910	0.62179
1229.000	5.72995	0.45527	5.48126	0.65942
1230.000	5.79257	0.48887	5.53415	0.60393
1231.000	5.78474	0.49679	5.48322	0.62972
1232.000	5.82975	0.45519	5.54003	0.69896
1233.000	5.82975	0.45915	5.51456	0.60791
1234.000	5.73190	0.44538	5.51260	0.65741
1235.000	5.81214	0.48292	5.53415	0.64749
1236.000	5.81214	0.46312	5.51456	0.61979
1237.000	5.80431	0.47896	5.44796	0.61590
1238.000	5.81801	0.51853	5.53415	0.63759
1239.000	5.78866	0.43148	5.49889	0.60990
1240.000	5.81214	0.47104	5.49106	0.63367
1241.000	5.83758	0.44727	5.49693	0.64753
1242.000	5.80823	0.50271	5.45579	0.61985
1243.000	5.79257	0.40575	5.50673	0.65148
1244.000	5.80236	0.45917	5.46363	0.59212
1245.000	5.87475	0.52244	5.50477	0.62970
1246.000	5.82584	0.49082	5.46363	0.58816
1247.000	5.84932	0.46705	5.47147	0.59607
1248.000	5.82975	0.47498	5.48126	0.58616
1249.000	5.87670	0.44922	5.45971	0.59410
1250.000	5.90213	0.46107	5.47930	0.57428
1251.000	5.85127	0.45122	5.48518	0.59804
1252.000	5.86692	0.49870	5.47930	0.63369
1253.000	5.89431	0.47691	5.50477	0.60990
1254.000	5.84736	0.46310	5.45579	0.59807
1255.000	5.90800	0.46305	5.48910	0.63565
1256.000	5.83758	0.48487	5.47147	0.58023
1257.000	5.88062	0.46703	5.52631	0.63363
1258.000	5.88844	0.49077	5.47538	0.61191
1259.000	5.89431	0.45910	5.46755	0.60202
1260.000	5.86301	0.46110	5.45384	0.58421
1261.000	5.87279	0.47495	5.42445	0.61790
1262.000	5.89040	0.46306	5.46559	0.60004
1263.000	5.90213	0.45514	5.48518	0.59210
1264.000	5.83758	0.40571	5.48518	0.56041
1265.000	5.90800	0.49668	5.47147	0.58221
1266.000	5.88844	0.43932	5.42837	0.60205
1267.000	5.89822	0.48284	5.50085	0.57624
1268.000	5.88844	0.46702	5.44992	0.58223
1269.000	5.90605	0.44722	5.47147	0.61191
1270.000	5.91778	0.48085	5.45971	0.56638
1271.000	5.91778	0.43138	5.46167	0.59014
1272.000	5.88453	0.49670	5.42445	0.59414
1273.000	5.88844	0.42744	5.43816	0.59214
1274.000	5.91974	0.45512	5.43228	0.58621
1275.000	5.90409	0.42743	5.49302	0.62377
1276.000	5.90605	0.48481	5.48322	0.58616
1277.000	5.90605	0.42347	5.45775	0.57232
1278.000	5.92756	0.43533	5.45775	0.60004
1279.000	5.91778	0.42544	5.45775	0.58420
1280.000	5.92170	0.42940	5.43032	0.57433
1281.000	5.94517	0.48082	5.48910	0.56635
1282.000	5.93343	0.47292	5.37938	0.59022
1283.000	5.92952	0.43137	5.46363	0.61192
1284.000	5.92952	0.44522	5.42641	0.60800
1285.000	5.95690	0.42937	5.42837	0.60800
1286.000	5.90996	0.51449	5.47538	0.58419
1287.000	5.90018	0.42150	5.42445	0.57829
1288.000	5.94712	0.46103	5.46559	0.61390
1289.000	5.96081	0.48279	5.43620	0.57036
1290.000	5.96081	0.43332	5.39114	0.67339
1291.000	5.95494	0.47092	5.44404	0.60402
1292.000	5.97059	0.47289	5.42053	0.61196
1293.000	5.98232	0.49068	5.40093	0.60010
1294.000	5.95299	0.45114	5.40289	0.57435
1295.000	5.95299	0.46103	5.45971	0.61786
1296.000	5.96668	0.45508	5.42249	0.60206
1297.000	5.95886	0.45113	5.39506	0.59615
1298.000	5.99797	0.52628	5.41073	0.58227
1299.000	5.98428	0.48474	5.39506	0.60209
1300.000	5.94908	0.48280	5.42249	0.62978
1301.000	5.98623	0.45902	5.43228	0.62185
1302.000	6.01361	0.46889	5.44404	0.62976
1303.000	6.03121	0.41546	5.40681	0.60208
1304.000	5.96277	0.49070	5.43620	0.57036
1305.000	5.94321	0.48874	5.38918	0.59615
1306.000	5.90996	0.43930	5.32646	0.60216
1307.000	5.86301	0.46506	5.33822	0.63779
1308.000	5.74756	0.43745	5.22845	0.62998
1309.000	5.64185	0.37418	5.12256	0.63405
1310.000	5.50673	0.46733	4.99309	0.56086
1311.000	5.31274	0.51304	4.83217	0.55901
1312.000	5.03822	0.44787	4.70651	0.42231
1313.000	4.80861	0.45000	4.46883	0.40064
1314.000	4.64956	0.42037	4.33322	0.35310
1315.000	4.44525	0.42842	4.17199	0.35516
1316.000	4.19559	0.35912	3.99497	0.35524
1317.000	4.03825	0.32347	3.84542	0.22430
1318.000	3.92020	0.31161	3.67022	0.26405
1319.000	3.68597	0.30375	3.56192	0.18863
1320.000	3.67416	0.27398	3.49692	0.17276
1321.000	3.55404	0.23827	3.45950	0.17475
1322.000	3.52450	0.16282	3.40237	0.11916
1323.000	3.49692	0.16879	3.36100	0.12909
1324.000	3.55404	0.21047	3.30977	0.13903
1325.000	3.54025	0.20253	3.30189	0.14499
1326.000	3.54025	0.19658	3.32356	0.09335
1327.000	3.51859	0.15488	3.28218	0.06952
1328.000	3.60721	0.18465	3.25657	0.10130
1329.000	3.63281	0.19060	3.25263	0.12712
1330.000	3.59540	0.23826	3.28415	0.10129
1331.000	3.63478	0.19656	3.28612	0.08143
1332.000	3.66431	0.19854	3.22109	0.10130
1333.000	3.65447	0.15685	3.23883	0.13507
1334.000	3.70566	0.19853	3.30386	0.17279
1335.000	3.76078	0.19851	3.26642	0.17479
1336.000	3.79227	0.23225	3.23489	0.16486
1337.000	3.74306	0.23227	3.26248	0.15691
1338.000	3.79227	0.19255	3.25460	0.18869
1339.000	3.79621	0.22233	3.26445	0.18869
1340.000	3.82180	0.17071	3.21912	0.17479
1341.000	3.81196	0.17667	3.21912	0.22644
1342.000	3.82574	0.19254	3.22898	0.19863
1343.000	3.90052	0.18657	3.26248	0.24033
1344.000	3.86903	0.17864	3.27824	0.24628
1345.000	3.91430	0.21634	3.32356	0.25620
1346.000	3.90839	0.18856	3.31174	0.25621
1347.000	3.93201	0.23221	3.28810	0.27012
1348.000	3.89659	0.20047	3.30386	0.24032
1349.000	3.89659	0.21238	3.32750	0.21648
1350.000	3.91823	0.22825	3.29401	0.18868
1351.000	3.89265	0.20444	3.29598	0.23834
1352.000	3.92807	0.22229	3.34918	0.23634
1353.000	3.91823	0.22229	3.31568	0.20060
1354.000	3.90446	0.18657	3.33538	0.20456
1355.000	3.89462	0.19451	3.24080	0.21253
1356.000	3.92610	0.23619	3.27036	0.19465
1357.000	3.85329	0.25209	3.29401	0.19266
1358.000	3.85132	0.20048	3.29795	0.20854
1359.000	3.84345	0.22430	3.24671	0.20855
1360.000	3.92217	0.25008	3.33144	0.26017
1361.000	3.88871	0.20841	3.24080	0.21253
1362.000	3.90446	0.24016	3.29204	0.19663
1363.000	3.86510	0.23025	3.19744	0.17281
1364.000	3.87691	0.27193	3.24671	0.26417
1365.000	3.87494	0.24612	3.23686	0.17876
1366.000	3.82967	0.24614	3.28415	0.23635
1367.000	3.81983	0.25011	3.23489	0.18274
1368.000	3.86707	0.25804	3.24868	0.19465
1369.000	3.89462	0.26001	3.26839	0.17479
1370.000	3.87297	0.24811	3.21321	0.22644
1371.000	3.78834	0.23424	3.21912	0.23240
1372.000	3.85132	0.24613	3.23292	0.20061
1373.000	3.87100	0.25010	3.20533	0.18473
1374.000	3.88478	0.25605	3.24671	0.21054
1375.000	3.82967	0.26599	3.26642	0.21054
1376.000	3.85723	0.23621	3.21715	0.21253
1377.000	3.85919	0.24811	3.27233	0.23834
1378.000	3.85723	0.23422	3.25460	0.22246
1379.000	3.85526	0.19254	3.23095	0.16883
1380.000	3.82180	0.25805	3.19153	0.21254
1381.000	3.85132	0.24018	3.24277	0.18472
1382.000	3.86510	0.24216	3.20533	0.21849
1383.000	3.79424	0.24416	3.23489	0.15294
1384.000	3.84542	0.21239	3.20533	0.16288
1385.000	3.86707	0.23223	3.18759	0.25227
1386.000	3.84148	0.26598	3.21912	0.19466
1387.000	3.82574	0.24415	3.21518	0.25623
1388.000	3.86707	0.25010	3.20336	0.24829
1389.000	3.86903	0.26201	3.22109	0.20657
1390.000	3.85329	0.20048	3.17774	0.20460
1391.000	3.84148	0.23819	3.14423	0.10528
1392.000	3.80802	0.24813	3.16591	0.18473
1393.000	3.87494	0.24612	3.20336	0.23041
1394.000	3.84148	0.24216	3.19744	0.15096
1395.000	3.84935	0.24812	3.20336	0.18076
1396.000	3.82770	0.20842	3.21124	0.14699
1397.000	3.82180	0.20644	3.12846	0.18077
1398.000	3.79031	0.25607	3.21321	0.16685
1399.000	3.84739	0.22231	3.18168	0.19864
1400.000	3.86707	0.25605	3.17971	0.14898
1401.000	3.81589	0.27195	3.11072	0.08939
1402.000	3.84739	0.24018	3.14423	0.16885
1403.000	3.86707	0.23819	3.14029	0.15097
1404.000	3.86707	0.29575	3.14817	0.15494
1405.000	3.84739	0.28782	3.12846	0.16488
1406.000	3.84345	0.23422	3.15211	0.05165
1407.000	3.86116	0.20842	3.12255	0.11323
1408.000	3.85723	0.24414	3.19153	0.13507
1409.000	3.83558	0.25805	3.08312	0.07946
1410.000	3.86903	0.20841	3.11663	0.11323
1411.000	3.80605	0.26202	3.13437	0.07350
1412.000	3.84148	0.19850	3.12255	0.12912
1413.000	3.82377	0.25011	3.12452	0.10131
1414.000	3.84739	0.27392	3.12255	0.14303
1415.000	3.78243	0.25608	3.18365	0.10726
1416.000	3.86116	0.23620	3.12058	0.07946
1417.000	3.80999	0.26798	3.11072	0.13508
1418.000	3.85329	0.22231	3.09692	0.12316
1419.000	3.80999	0.19850	3.11072	0.12118
1420.000	3.88675	0.26200	3.10678	0.09933
1421.000	3.86510	0.27392	3.09298	0.09734
1422.000	3.80605	0.24416	3.14817	0.12912
1423.000	3.88281	0.26002	3.10086	0.11522
1424.000	3.88478	0.27589	3.08312	0.08940
1425.000	3.82180	0.23423	3.05749	0.11522
1426.000	3.83951	0.18857	3.09298	0.13508
1427.000	3.81983	0.28187	3.13240	0.06953
1428.000	3.85919	0.20643	3.06144	0.09734
1429.000	3.83558	0.22232	3.11269	0.11720
1430.000	3.85723	0.23819	3.07721	0.13310
1431.000	3.85329	0.23621	3.12649	0.14700
1432.000	3.80999	0.26202	3.09101	0.08542
1433.000	3.88478	0.22230	3.08904	0.09535
1434.000	3.83361	0.19651	3.11269	0.15495
1435.000	3.90446	0.23222	3.08509	0.16488
1436.000	3.85329	0.24613	3.10481	0.18276
1437.000	3.83558	0.22629	3.07918	0.16687
1438.000	3.85132	0.23819	3.10283	0.17680
1439.000	3.83951	0.21636	3.10283	0.10727
1440.000	3.89265	0.21833	3.08115	0.16687
1441.000	3.90052	0.20841	3.09495	0.19667
1442.000	3.88871	0.24811	3.08509	0.17482
1443.000	3.83951	0.22232	3.08706	0.14502
1444.000	3.85329	0.23422	3.13043	0.13309
1445.000	3.88871	0.19253	3.12452	0.18673
1446.000	3.88675	0.24811	3.08509	0.13310
1447.000	3.88675	0.28582	3.08312	0.17084
1448.000	3.90839	0.27787	3.02398	0.18476
1449.000	3.85526	0.17070	3.03975	0.16886
1450.000	3.83558	0.23621	3.05552	0.14105
1451.000	3.88281	0.25406	3.05749	0.19270
1452.000	3.84935	0.24812	3.02595	0.06556
1453.000	3.84345	0.22033	3.06932	0.07350
1454.000	3.89068	0.21833	3.08509	0.12515
1455.000	3.86116	0.17467	3.08312	0.21455
1456.000	3.82377	0.17468	3.05355	0.09536
1457.000	3.84148	0.20842	3.04567	0.14900
1458.000	3.88084	0.26994	3.03975	0.13906
1459.000	3.88281	0.18459	3.03187	0.10331
1460.000	3.86903	0.27788	3.00426	0.09735
1461.000	3.93397	0.24611	3.06341	0.16489
1462.000	3.91233	0.26993	3.08312	0.13310
1463.000	3.88281	0.18261	3.02792	0.11324
1464.000	3.88281	0.20643	3.06538	0.14502
1465.000	3.85919	0.26201	3.06932	0.07549
1466.000	3.88281	0.19055	3.06735	0.10132
1467.000	3.89068	0.14489	3.04172	0.16092
1468.000	3.91036	0.20642	3.02792	0.14105
1469.000	3.93791	0.21237	3.04764	0.13112
1470.000	3.90446	0.18260	3.05355	0.13509
1471.000	3.88281	0.19055	3.01807	0.12317
1472.000	3.89659	0.18459	3.05749	0.12118
1473.000	3.89068	0.21039	2.99835	0.13510
1474.000	3.89855	0.19253	3.08115	0.10926
1475.000	3.93594	0.20046	3.03975	0.14502
1476.000	3.95955	0.21633	3.09298	0.12714
1477.000	3.90642	0.17863	3.05947	0.13906
1478.000	3.90446	0.20047	3.02201	0.14900
1479.000	3.92413	0.19848	3.02398	0.11324
1480.000	3.89659	0.19848	3.01215	0.15695
1481.000	3.90052	0.23818	3.00426	0.11126
1482.000	3.94184	0.20443	3.00229	0.11523
1483.000	3.93594	0.20046	3.02201	0.06755
1484.000	3.91430	0.23024	2.96089	0.12318
1485.000	3.88871	0.20047	3.01018	0.15695
1486.000	3.92020	0.27985	3.00032	0.09139
1487.000	3.89462	0.25604	2.95300	0.14901
1488.000	3.85723	0.23819	2.97863	0.11722
1489.000	3.85329	0.27789	2.92342	0.09934
1490.000	3.78243	0.24814	2.84849	0.05365
1491.000	3.65250	0.20052	2.81891	0.13114
1492.000	3.51465	0.23431	2.70253	0.03180
1493.000	3.44965	0.25021	2.59600	-0.01987
1494.000	3.20730	0.19069	2.43815	-0.00795
1495.000	2.94117	0.23643	2.26841	-0.06560
1496.000	2.75776	0.24839	2.06705	-0.05169
1497.000	2.46775	0.19478	1.83601	-0.11135
1498.000	2.22893	0.24253	1.68392	-0.15710
1499.000	2.03151	0.13917	1.51206	-0.26848
1500.000	1.85576	0.11732	1.31052	-0.19889
1501.000	1.56737	0.12926	1.07932	-0.27250
1502.000	1.31250	0.09348	0.90144	-0.16709
1503.000	1.18998	0.01392	0.70971	-0.30436
1504.000	1.06746	0.06564	0.57331	-0.32227
1505.000	0.94887	0.00199	0.48831	-0.32426
1506.000	0.81645	-0.07161	0.31829	-0.24867
1507.000	0.68599	-0.06963	0.24910	-0.27255
1508.000	0.60099	-0.05172	0.09687	-0.36804
1509.000	0.54168	-0.08753	0.10083	-0.32626
1510.000	0.47052	-0.15716	0.03361	-0.32427
1511.000	0.41319	-0.12533	-0.01384	-0.28051
1512.000	0.36574	-0.14920	-0.12850	-0.33422
1513.000	0.26294	-0.13926	-0.21945	-0.33621
1514.000	0.26096	-0.09549	-0.25899	-0.30040
1515.000	0.17793	-0.12931	-0.36969	-0.39190
1516.000	0.18584	-0.12334	-0.34597	-0.40384
1517.000	0.15223	-0.03183	-0.36376	-0.40384
1518.000	0.19770	-0.02387	-0.40923	-0.42970
1519.000	0.22142	-0.02785	-0.41714	-0.34615
1520.000	0.21747	-0.01393	-0.40726	-0.31233
1521.000	0.21945	-0.07759	-0.38156	-0.34814
1522.000	0.29457	0.02387	-0.39539	-0.33222
1523.000	0.37365	-0.02785	-0.35981	-0.27851
1524.000	0.42109	-0.03581	-0.33806	-0.22480
1525.000	0.39539	-0.02586	-0.32818	-0.24271
1526.000	0.46459	-0.02785	-0.30643	-0.25265
1527.000	0.42900	-0.07759	-0.28864	-0.29443
1528.000	0.49028	-0.07361	-0.26689	-0.19695
1529.000	0.48435	-0.09350	-0.27480	-0.20690
1530.000	0.43296	-0.06963	-0.29655	-0.22679
1531.000	0.55354	-0.01591	-0.34004	-0.24271
1532.000	0.47249	-0.07560	-0.30050	-0.27852
1533.000	0.48435	-0.02785	-0.32620	-0.26260
1534.000	0.45272	-0.08753	-0.25305	-0.26857
1535.000	0.47052	-0.03581	-0.28271	-0.25464
1536.000	0.47645	-0.08355	-0.27678	-0.23674
1537.000	0.37958	-0.10743	-0.34004	-0.25066
1538.000	0.49028	-0.10345	-0.30446	-0.24271
1539.000	0.43493	-0.05968	-0.32818	-0.22082
1540.000	0.45668	-0.06963	-0.34795	-0.23475
1541.000	0.51796	-0.07361	-0.33411	-0.27851
1542.000	0.42109	-0.04775	-0.34795	-0.29642
1543.000	0.50215	-0.01790	-0.25899	-0.26260
1544.000	0.51796	-0.03979	-0.34597	-0.27056
1545.000	0.49622	-0.08355	-0.33411	-0.32427
1546.000	0.49622	-0.03979	-0.38551	-0.28050
1547.000	0.51203	-0.04973	-0.32422	-0.22082
1548.000	0.50412	-0.00995	-0.29655	-0.34416
1549.000	0.44877	-0.04775	-0.34597	-0.28846
1550.000	0.45668	-0.03382	-0.38551	-0.34416
1551.000	0.43889	-0.06963	-0.37365	-0.27652
1552.000	0.42307	-0.05968	-0.36969	-0.24867
1553.000	0.47447	-0.02984	-0.39539	-0.25862
1554.000	0.48040	0.03581	-0.38946	-0.26857
1555.000	0.45865	0.00398	-0.40330	-0.21286
1556.000	0.44284	-0.07361	-0.38551	-0.31631
1557.000	0.48633	-0.10544	-0.40133	-0.25265
1558.000	0.49028	-0.03382	-0.40726	-0.29244
1559.000	0.40330	-0.00995	-0.41516	-0.32824
1560.000	0.44877	-0.03183	-0.45865	-0.31432
1561.000	0.45075	0.00995	-0.43296	-0.30835
1562.000	0.49226	-0.06167	-0.41319	-0.27652
1563.000	0.42702	-0.04576	-0.41319	-0.31631
1564.000	0.46261	-0.05769	-0.44679	-0.25265
1565.000	0.51005	-0.01194	-0.42900	-0.27851
1566.000	0.47249	-0.04774	-0.44877	-0.24668
1567.000	0.42307	-0.03382	-0.40923	-0.26061
1568.000	0.44482	-0.05968	-0.45470	-0.26260
1569.000	0.43098	-0.06565	-0.47645	-0.26458
1570.000	0.40528	-0.02188	-0.48633	-0.24469
1571.000	0.44482	0.00199	-0.43296	-0.20491
1572.000	0.47052	-0.04178	-0.47645	-0.25066
1573.000	0.37167	-0.07162	-0.48435	-0.33421
1574.000	0.42307	-0.07361	-0.51401	-0.29840
1575.000	0.45668	-0.04774	-0.46854	-0.27254
1576.000	0.41714	-0.02188	-0.46261	-0.27254
1577.000	0.47842	-0.01989	-0.45668	-0.24668
1578.000	0.42900	-0.01989	-0.47447	-0.25066
1579.000	0.44482	-0.02387	-0.48435	-0.25663
1580.000	0.41912	-0.07162	-0.43493	-0.30039
1581.000	0.43493	-0.02586	-0.48040	-0.32426
1582.000	0.42702	-0.03581	-0.51203	-0.27652
1583.000	0.44877	-0.02984	-0.46854	-0.29442
1584.000	0.41714	-0.07958	-0.47052	-0.31830
1585.000	0.44877	0.01790	-0.53773	-0.27254
1586.000	0.41319	-0.03979	-0.47052	-0.28050
1587.000	0.46656	-0.07957	-0.52389	-0.27055
1588.000	0.40330	-0.02785	-0.49819	-0.34018
1589.000	0.48633	-0.04774	-0.51994	-0.27453
1590.000	0.51005	-0.01790	-0.49622	-0.27254
1591.000	0.51401	-0.00995	-0.53378	-0.29840
1592.000	0.46261	-0.03780	-0.50610	-0.29044
1593.000	0.42505	0.00796	-0.52982	-0.30039
1594.000	0.52389	-0.05570	-0.53971	-0.26657
1595.000	0.45272	0.00000	-0.50412	-0.26458
1596.000	0.47447	-0.02188	-0.51401	-0.27652
1597.000	0.48633	-0.07759	-0.57924	-0.26060
1598.000	0.49819	-0.03382	-0.53180	-0.29641
1599.000	0.46459	0.00199	-0.55947	-0.26657
1600.000	0.43889	-0.00995	-0.52587	-0.29044
1601.000	0.41912	-0.04973	-0.56343	-0.34614
1602.000	0.47249	0.00796	-0.51401	-0.35808
1603.000	0.41912	-0.01393	-0.49622	-0.34416
1604.000	0.41912	-0.01393	-0.59308	-0.32824
1605.000	0.44284	0.00199	-0.50808	-0.32824
1606.000	0.41912	-0.07759	-0.55750	-0.35211
1607.000	0.46656	-0.04178	-0.58122	-0.36603
1608.000	0.41714	-0.06565	-0.54168	-0.33620
1609.000	0.46261	-0.06764	-0.62075	-0.32227
1610.000	0.41714	-0.09748	-0.54761	-0.36007
1611.000	0.41121	-0.00398	-0.56145	-0.38990
1612.000	0.47645	-0.03382	-0.54959	-0.37797
1613.000	0.45865	-0.11538	-0.53971	-0.38792
1614.000	0.44679	-0.10146	-0.58320	-0.34216
1615.000	0.47645	-0.07957	-0.54761	-0.36603
1616.000	0.42307	-0.06764	-0.57924	-0.33619
1617.000	0.38353	-0.10743	-0.54761	-0.33620
1618.000	0.46063	-0.07957	-0.57529	-0.33222
1619.000	0.45668	-0.06565	-0.57924	-0.32824
1620.000	0.43493	-0.09151	-0.58122	-0.42173
1621.000	0.45470	-0.01790	-0.57529	-0.35808
1622.000	0.37563	-0.14324	-0.59703	-0.32625
1623.000	0.40726	-0.07560	-0.54366	-0.32227
1624.000	0.43493	-0.08952	-0.56936	-0.35609
1625.000	0.44877	-0.09549	-0.58517	-0.32028
1626.000	0.49028	-0.06963	-0.60099	-0.35012
1627.000	0.42307	-0.03382	-0.55750	-0.37001
1628.000	0.42505	-0.09151	-0.59901	-0.37996
1629.000	0.45865	-0.05769	-0.58122	-0.33420
1630.000	0.41714	-0.04576	-0.56343	-0.29442
1631.000	0.41319	-0.14125	-0.59110	-0.36802
1632.000	0.41319	-0.14721	-0.56738	-0.28049
1633.000	0.40923	-0.04775	-0.58715	-0.41178
1634.000	0.48435	-0.05371	-0.61878	-0.35409
1635.000	0.44482	-0.13329	-0.59703	-0.37200
1636.000	0.45272	-0.07560	-0.61482	-0.37598
1637.000	0.44482	-0.15119	-0.62471	-0.37598
1638.000	0.40726	-0.09151	-0.59110	-0.34614
1639.000	0.44086	-0.07560	-0.59703	-0.37797
1640.000	0.51203	-0.04774	-0.63459	-0.40979
1641.000	0.46063	-0.05371	-0.56738	-0.33619
1642.000	0.42900	-0.10345	-0.60889	-0.36404
1643.000	0.42505	-0.12533	-0.62075	-0.40581
1644.000	0.41912	-0.10743	-0.62471	-0.36205
1645.000	0.44679	-0.10743	-0.61087	-0.32625
1646.000	0.43098	-0.13528	-0.68599	-0.37000
1647.000	0.42307	-0.14721	-0.63855	-0.41576
1648.000	0.39144	-0.14125	-0.59901	-0.36205
1649.000	0.45272	-0.10544	-0.62471	-0.43565
1650.000	0.47447	-0.10345	-0.62668	-0.39786
1651.000	0.42505	-0.13130	-0.65634	-0.40979
1652.000	0.48435	-0.08554	-0.60889	-0.40582
1653.000	0.50215	-0.12334	-0.60889	-0.42173
1654.000	0.44877	-0.08554	-0.61680	-0.33818
1655.000	0.45272	-0.11936	-0.62668	-0.41576
1656.000	0.51005	-0.14323	-0.63855	-0.36006
1657.000	0.49819	-0.15915	-0.62273	-0.40780
1658.000	0.47052	-0.12334	-0.64052	-0.30834
1659.000	0.42109	-0.17109	-0.65634	-0.35807
1660.000	0.48040	-0.07957	-0.63657	-0.40979
1661.000	0.40330	-0.14522	-0.63459	-0.36802
1662.000	0.46459	-0.11140	-0.64250	-0.32425
1663.000	0.48238	-0.10942	-0.65634	-0.37796
1664.000	0.46063	-0.05570	-0.60889	-0.34017
1665.000	0.49226	-0.02785	-0.68203	-0.39189
1666.000	0.49819	-0.13130	-0.56738	-0.34216
1667.000	0.56540	-0.09549	-0.66029	-0.36802
1668.000	0.46261	-0.06366	-0.62668	-0.36404
1669.000	0.46854	-0.08952	-0.64448	-0.37597
1670.000	0.49226	-0.05570	-0.69192	-0.35011
1671.000	0.44679	-0.10942	-0.69389	-0.34613
1672.000	0.48435	-0.10743	-0.66622	-0.38592
1673.000	0.45668	-0.09549	-0.67808	-0.34414
1674.000	0.45470	-0.05968	-0.68599	-0.38393
1675.000	0.46261	-0.12732	-0.70773	-0.41376
1676.000	0.45865	-0.10743	-0.66424	-0.37199
1677.000	0.45470	-0.09947	-0.66820	-0.39586
1678.000	0.49028	-0.12135	-0.68401	-0.41973
1679.000	0.44877	-0.15318	-0.70773	-0.41575
1680.000	0.49819	-0.11737	-0.64645	-0.42372
1681.000	0.49819	-0.09748	-0.61087	-0.37598
1682.000	0.43296	-0.13528	-0.68796	-0.45753
1683.000	0.50808	-0.08355	-0.66029	-0.35409
1684.000	0.48633	-0.10544	-0.66029	-0.40183
1685.000	0.52389	-0.11936	-0.65436	-0.41775
1686.000	0.51598	-0.11538	-0.70971	-0.36602
1687.000	0.43493	-0.07560	-0.70773	-0.41376
1688.000	0.47447	-0.13727	-0.72947	-0.42968
1689.000	0.48831	-0.13528	-0.68599	-0.40780
1690.000	0.52191	-0.12135	-0.71366	-0.40780
1691.000	0.50215	-0.10146	-0.71168	-0.37199
1692.000	0.54761	-0.10742	-0.71761	-0.40183
1693.000	0.48435	-0.08753	-0.70971	-0.36006
1694.000	0.52982	-0.14522	-0.66820	-0.41974
1695.000	0.51994	-0.10743	-0.70971	-0.37000
1696.000	0.51796	-0.13727	-0.71761	-0.38989
1697.000	0.46459	-0.11140	-0.68203	-0.37597
1698.000	0.55354	-0.16114	-0.69587	-0.42769
1699.000	0.45865	-0.14522	-0.70971	-0.39586
1700.000	0.45272	-0.12931	-0.68006	-0.41178
1701.000	0.51598	-0.10544	-0.69785	-0.41575
1702.000	0.47249	-0.09151	-0.65634	-0.39587
1703.000	0.51598	-0.07758	-0.66622	-0.41775
1704.000	0.50610	-0.12135	-0.72552	-0.44161
1705.000	0.49226	-0.10345	-0.67215	-0.43167
1706.000	0.54168	-0.14522	-0.71168	-0.43564
1707.000	0.51401	-0.13925	-0.71168	-0.40979
1708.000	0.51005	-0.14323	-0.68203	-0.45952
1709.000	0.47645	-0.11936	-0.66029	-0.36603
1710.000	0.54366	-0.11737	-0.65634	-0.39984
1711.000	0.47842	-0.13727	-0.68401	-0.42769
1712.000	0.48831	-0.16910	-0.69982	-0.38989
1713.000	0.55750	-0.05172	-0.66029	-0.38393
1714.000	0.47447	-0.14124	-0.73343	-0.40382
1715.000	0.51796	-0.10743	-0.73540	-0.45752
1716.000	0.51401	-0.07361	-0.72157	-0.45156
1717.000	0.54959	-0.13130	-0.72750	-0.39586
1718.000	0.50610	-0.13925	-0.71959	-0.43365
1719.000	0.54959	-0.10941	-0.72552	-0.43763
1720.000	0.45668	-0.16711	-0.69192	-0.42570
1721.000	0.47842	-0.14124	-0.73540	-0.40382
1722.000	0.52784	-0.15517	-0.69192	-0.42570
1723.000	0.46854	-0.15318	-0.68401	-0.40183
1724.000	0.46656	-0.16711	-0.73343	-0.41177
1725.000	0.51401	-0.19695	-0.76703	-0.44757
1726.000	0.52191	-0.11140	-0.77691	-0.38591
1727.000	0.57133	-0.14522	-0.75715	-0.42569
1728.000	0.47447	-0.13329	-0.71564	-0.39984
1729.000	0.52191	-0.17108	-0.71761	-0.40382
1730.000	0.50412	-0.13130	-0.74133	-0.42967
1731.000	0.46656	-0.11339	-0.74133	-0.40978
1732.000	0.50808	-0.09748	-0.76703	-0.41973
1733.000	0.49819	-0.10941	-0.78482	-0.39585
1734.000	0.52587	-0.08554	-0.75912	-0.38591
1735.000	0.51796	-0.13130	-0.79075	-0.38790
1736.000	0.51598	-0.13130	-0.75715	-0.41774
1737.000	0.52191	-0.13727	-0.76110	-0.37398
1738.000	0.45668	-0.12334	-0.74331	-0.46747
1739.000	0.51994	-0.09151	-0.80459	-0.33220
1740.000	0.55157	-0.14721	-0.75715	-0.39387
1741.000	0.52784	-0.15119	-0.79470	-0.39784
1742.000	0.52982	-0.12931	-0.85005	-0.36999
1743.000	0.49819	-0.19297	-0.79470	-0.39983
1744.000	0.53180	-0.11339	-0.78680	-0.38193
1745.000	0.53180	-0.10544	-0.80063	-0.38989
1746.000	0.51598	-0.11339	-0.76703	-0.41575
1747.000	0.47447	-0.21684	-0.78877	-0.36204
1748.000	0.49424	-0.18700	-0.82831	-0.34015
1749.000	0.46459	-0.16512	-0.78877	-0.30037
1750.000	0.49424	-0.17904	-0.82435	-0.36800
1751.000	0.50017	-0.13528	-0.78087	-0.32424
1752.000	0.55354	-0.10544	-0.79668	-0.24070
1753.000	0.52784	-0.20092	-0.71564	-0.27651
1754.000	0.57727	-0.14124	-0.63064	-0.26657
1755.000	0.65831	-0.23872	-0.56936	-0.27652
1756.000	0.73540	-0.19296	-0.42109	-0.20888
1757.000	0.80063	-0.32225	-0.32818	-0.29443
1758.000	0.95283	-0.28843	-0.13641	-0.34218
1759.000	1.00817	-0.33019	0.01779	-0.39589
1760.000	1.19394	-0.32619	0.13246	-0.43767
1761.000	1.23544	-0.47734	0.26294	-0.61073
1762.000	1.35795	-0.51709	0.41121	-0.64652
1763.000	1.48637	-0.58468	0.54366	-0.74199
1764.000	1.53971	-0.69801	0.73738	-0.73798
1765.000	1.70960	-0.77946	0.75912	-0.81554
1766.000	1.83008	-0.80128	0.96073	-0.89903
1767.000	1.97424	-0.85687	1.09513	-0.87512
1768.000	2.15589	-0.90249	1.14453	-1.00635
1769.000	2.27631	-0.94216	1.28484	-1.02618
1770.000	2.33552	-0.96398	1.39351	-1.06590
1771.000	2.39473	-0.96792	1.45871	-1.12154
1772.000	2.42631	-1.00168	1.50613	-1.15729
1773.000	2.53681	-1.03338	1.53774	-1.17716
1774.000	2.56641	-1.07309	1.55947	-1.27455
1775.000	2.66308	-1.05116	1.58120	-1.14334
1776.000	2.74987	-1.16629	1.60293	-1.22681
1777.000	2.75776	-1.12259	1.61281	-1.23078
1778.000	2.78932	-1.21194	1.62664	-1.19301
1779.000	2.78932	-1.13845	1.59700	-1.23676
1780.000	2.78735	-1.17023	1.70565	-1.18501
1781.000	2.82680	-1.08279	1.65034	-1.15920
1782.000	2.79129	-1.09276	1.61676	-1.14531
1783.000	2.72423	-1.15837	1.60688	-1.22681
1784.000	2.76960	-1.09477	1.55354	-1.17715
1785.000	2.71042	-1.05310	1.51798	-1.15331
1786.000	2.64533	-1.04521	1.46069	-1.24677
1787.000	2.68675	-1.05908	1.44686	-1.20106
1788.000	2.68873	-1.04319	1.32436	-1.17925
1789.000	2.63349	-1.11078	1.34609	-1.17129
1790.000	2.69070	-1.01736	1.30064	-1.14149
1791.000	2.68675	-0.97366	1.31250	-1.16336
1792.000	2.67886	-1.03326	1.21963	-1.18328
1793.000	2.68873	-1.01736	1.25322	-1.15344
1794.000	2.66308	-0.97368	1.25520	-1.13356
1795.000	2.63743	-1.00549	1.24729	-1.16736
1796.000	2.63546	-0.91410	1.23148	-1.10375
1797.000	2.58811	-1.00552	1.28879	-1.19319
1798.000	2.62362	-0.97172	1.27100	-1.15940
1799.000	2.62757	-0.97371	1.23741	-1.17333
1800.000	2.63941	-0.95979	1.26112	-1.17531
1801.000	2.58219	-0.97771	1.24729	-1.14350
1802.000	2.62757	-1.03529	1.26903	-1.15145
1803.000	2.66111	-1.02136	1.25717	-1.16139
1804.000	2.62757	-0.98165	1.20579	-1.20515
1805.000	2.63743	-1.01939	1.24334	-1.14350
1806.000	2.61771	-0.99159	1.20975	-1.22106
1807.000	2.57035	-1.00355	1.24136	-1.11169
1808.000	2.59600	-1.05121	1.27496	-1.16337
1809.000	2.56641	-0.91812	1.21765	-1.14749
1810.000	2.64335	-0.94985	1.24729	-1.17730
1811.000	2.62362	-0.97172	1.27496	-1.15542
1812.000	2.63941	-1.00946	1.31448	-1.15739
1813.000	2.60784	-0.99756	1.30064	-1.15938
1814.000	2.67097	-1.01738	1.31843	-1.17329
1815.000	2.66111	-0.98957	1.25322	-1.15742
1816.000	2.63152	-1.04125	1.32633	-1.16136
1817.000	2.67294	-1.05314	1.29274	-1.22897
1818.000	2.63546	-1.01939	1.28088	-1.19518
1819.000	2.66111	-1.04719	1.33028	-1.17528
1820.000	2.64533	-1.02932	1.31645	-1.13552
1821.000	2.60981	-1.01345	1.33819	-1.19515
1822.000	2.63152	-1.07105	1.31645	-1.20510
1823.000	2.58811	-1.05122	1.30657	-1.25878
1824.000	2.63941	-1.07104	1.32633	-1.22895
1825.000	2.64138	-1.01542	1.30460	-1.23095
1826.000	2.65716	-1.04123	1.26508	-1.27073
1827.000	2.61179	-1.06312	1.30657	-1.24487
1828.000	2.57825	-1.06315	1.26903	-1.20513
1829.000	2.66703	-1.06903	1.28681	-1.24885
1830.000	2.66505	-1.02533	1.31843	-1.23095
1831.000	2.72029	-1.04118	1.30460	-1.21902
1832.000	2.61179	-1.08696	1.35597	-1.24087
1833.000	2.59008	-1.05519	1.29274	-1.26078
1834.000	2.59206	-1.05718	1.33028	-1.27269
1835.000	2.59600	-1.06909	1.34609	-1.22894
1836.000	2.67492	-1.02135	1.35004	-1.30448
1837.000	2.63743	-1.03727	1.33819	-1.27666
1838.000	2.61771	-1.04325	1.32238	-1.25480
1839.000	2.66703	-1.06109	1.33424	-1.28660
1840.000	2.68675	-1.07299	1.30657	-1.28065
1841.000	2.64533	-1.03727	1.34016	-1.24883
1842.000	2.65124	-1.07302	1.31250	-1.22697
1843.000	2.59403	-1.05519	1.34412	-1.24087
1844.000	2.60784	-1.06710	1.29669	-1.25481
1845.000	2.64927	-1.00548	1.32238	-1.30450
1846.000	2.61968	-1.04523	1.34412	-1.24684
1847.000	2.62560	-1.04920	1.34016	-1.34623
1848.000	2.61771	-1.14059	1.28681	-1.28066
1849.000	2.68873	-1.04915	1.29274	-1.23096
1850.000	2.64927	-1.04918	1.30460	-1.22698
1851.000	2.62757	-1.05715	1.34609	-1.26274
1852.000	2.63941	-1.04720	1.31250	-1.22697
1853.000	2.68873	-1.05710	1.37771	-1.24682
1854.000	2.68873	-1.03922	1.32436	-1.19317
1855.000	2.68083	-1.10279	1.29669	-1.23891
1856.000	2.64533	-1.08495	1.27298	-1.21904
1857.000	2.67689	-1.08889	1.29274	-1.24487
1858.000	2.72818	-1.05905	1.32040	-1.23293
1859.000	2.68478	-1.07696	1.28681	-1.26873
1860.000	2.66703	-1.03129	1.29669	-1.19318
1861.000	2.68478	-1.09087	1.31843	-1.20311
1862.000	2.64730	-1.13659	1.31250	-1.22697
1863.000	2.67886	-1.08293	1.29076	-1.20313
1864.000	2.67689	-1.06704	1.33028	-1.15738
1865.000	2.65913	-1.08096	1.28681	-1.22500
1866.000	2.65716	-1.10281	1.30460	-1.24487
1867.000	2.65322	-1.09288	1.26310	-1.22700
1868.000	2.67492	-1.06108	1.26508	-1.16934
1869.000	2.65124	-1.07302	1.33621	-1.19515
1870.000	2.63152	-1.06310	1.31250	-1.19119
1871.000	2.63546	-1.06707	1.26903	-1.24687
1872.000	2.64138	-1.06707	1.27891	-1.19717
1873.000	2.59600	-1.12273	1.27298	-1.26278
1874.000	2.65322	-1.04521	1.31250	-1.22101
1875.000	2.66900	-1.10082	1.29669	-1.24090
1876.000	2.70845	-1.09681	1.30657	-1.20113
1877.000	2.70253	-1.05708	1.27891	-1.22103
1878.000	2.71042	-1.05509	1.28879	-1.19716
1879.000	2.66111	-1.04520	1.31448	-1.19516
1880.000	2.71042	-1.07496	1.29867	-1.22300
1881.000	2.71042	-1.08886	1.26310	-1.22302
1882.000	2.70451	-1.09483	1.26310	-1.22700
1883.000	2.69070	-1.07696	1.29472	-1.27469
1884.000	2.68281	-1.02333	1.26112	-1.20115
1885.000	2.67886	-1.03922	1.28088	-1.18524
1886.000	2.68083	-1.08094	1.25322	-1.17531
1887.000	2.68083	-1.07895	1.26903	-1.23296
1888.000	2.72423	-1.09282	1.35004	-1.19713
1889.000	2.72226	-1.07097	1.32633	-1.16732
1890.000	2.71634	-1.10872	1.28088	-1.11764
1891.000	2.71831	-1.04316	1.28484	-1.08185
1892.000	2.72226	-1.05309	1.25717	-1.15742
1893.000	2.72029	-1.10276	1.28879	-1.10372
1894.000	2.71831	-1.07693	1.29076	-1.14945
1895.000	2.68873	-1.09285	1.29076	-1.17132
1896.000	2.69070	-1.12861	1.25322	-1.13952
1897.000	2.69267	-1.05709	1.27100	-1.10373
1898.000	2.68083	-1.08889	1.26903	-1.11765
1899.000	2.70253	-1.07099	1.27693	-1.10770
1900.000	2.71042	-1.11667	1.27496	-1.12162
1901.000	2.67886	-1.12465	1.28088	-1.09776
1902.000	2.69464	-1.09682	1.27100	-1.13554
1903.000	2.68873	-1.08292	1.27891	-1.10174
1904.000	2.71634	-1.12858	1.25915	-1.10175
1905.000	2.72029	-1.03323	1.25717	-1.11566
1906.000	2.67689	-1.09882	1.23939	-1.10573
1907.000	2.68083	-1.20609	1.27891	-1.05800
1908.000	2.65716	-1.08692	1.27891	-1.13355
1909.000	2.68083	-1.10081	1.26310	-1.10373
1910.000	2.71831	-1.05906	1.26112	-1.09976
1911.000	2.69070	-1.10278	1.30460	-1.08980
1912.000	2.74987	-1.09081	1.24927	-1.11368
1913.000	2.70451	-1.11270	1.30460	-1.14348
1914.000	2.69859	-1.13257	1.26112	-1.12560
1915.000	2.72029	-1.13057	1.23741	-1.10772
1916.000	2.67689	-1.12465	1.22358	-1.12960
1917.000	2.77552	-1.09079	1.25915	-1.14946
1918.000	2.71437	-1.16037	1.24136	-1.13158
1919.000	2.71831	-1.12660	1.29076	-1.13951
1920.000	2.68083	-1.08690	1.33028	-1.15341
1921.000	2.65913	-1.10281	1.23346	-1.18924
1922.000	2.61179	-1.06709	1.19196	-1.12563
1923.000	2.53879	-1.05325	1.15441	-1.17933
1924.000	2.46183	-1.01953	1.11884	-1.21314
1925.000	2.23683	-1.04354	1.02200	-1.23306
1926.000	2.05915	-1.03770	0.85400	-1.12376
1927.000	1.73923	-0.98820	0.64843	-1.08206
1928.000	1.57132	-0.91671	0.35388	-1.13779
1929.000	1.18010	-0.98844	0.16014	-1.12786
1930.000	0.85203	-0.96866	-0.03559	-1.10798
1931.000	0.41121	-0.92101	-0.36376	-0.98068
1932.000	0.17595	-0.92898	-0.68006	-1.01046
1933.000	-0.26887	-0.93295	-0.98840	-1.13764
1934.000	-0.72157	-0.86726	-1.28088	-1.02817
1935.000	-0.90737	-0.72403	-1.64046	-0.94650
1936.000	-1.20777	-0.73191	-1.95450	-0.97814
1937.000	-1.62466	-0.77950	-2.21906	-0.85277
1938.000	-1.83601	-0.71579	-2.55260	-0.76711
1939.000	-2.17563	-0.71564	-2.83666	-0.77488
1940.000	-2.47564	-0.66978	-3.08115	-0.62177
1941.000	-2.66900	-0.54450	-3.32356	-0.50644
1942.000	-2.98061	-0.58011	-3.61706	-0.43878
1943.000	-3.24671	-0.51244	-3.89265	-0.28185
1944.000	-3.54222	-0.37131	-4.20346	-0.24801
1945.000	-3.86116	-0.34934	-4.50223	-0.13883
1946.000	-4.25458	-0.22815	-4.83806	-0.02775
1947.000	-4.52384	-0.18047	-5.13825	0.02378
1948.000	-4.91853	-0.14073	-5.45775	0.12279
1949.000	-5.16571	-0.12086	-5.77496	0.27117
1950.000	-5.49106	-0.00198	-6.01361	0.39173
1951.000	-5.83366	0.02771	-6.39267	0.39936
1952.000	-6.08008	0.07913	-6.66977	0.45842
1953.000	-6.32432	0.22541	-6.90175	0.57076
1954.000	-6.53711	0.28264	-7.20356	0.57236
1955.000	-6.84719	0.35356	-7.42529	0.64506
1956.000	-6.93682	0.37522	-7.57298	0.79273
1957.000	-6.99915	0.46797	-7.80403	0.81003
1958.000	-7.12182	0.47377	-7.99024	0.82542
1959.000	-7.32223	0.51105	-8.08328	0.87053
1960.000	-7.30862	0.51896	-8.16660	0.86444
1961.000	-7.26193	0.53677	-8.17435	0.84080
1962.000	-7.31251	0.52487	-8.14723	0.91370
1963.000	-7.22886	0.58812	-8.09491	0.87247
1964.000	-7.03810	0.61008	-8.04452	0.95135
1965.000	-6.94461	0.60230	-7.98055	0.94560
1966.000	-6.80236	0.61631	-7.90686	0.87681
1967.000	-6.79066	0.61238	-7.74775	0.92642
1968.000	-6.69902	0.63422	-7.75551	0.85348
1969.000	-6.65222	0.62836	-7.67980	0.81816
1970.000	-6.63271	0.57108	-7.70893	0.77868
1971.000	-6.57809	0.53360	-7.61183	0.80646
1972.000	-6.62881	0.53749	-7.59435	0.74340
1973.000	-6.66782	0.52955	-7.64873	0.70782
1974.000	-6.72437	0.52158	-7.68563	0.72550
1975.000	-6.67172	0.50781	-7.69728	0.66437
1976.000	-6.69707	0.48012	-7.68369	0.66636
1977.000	-6.77507	0.48005	-7.67786	0.66637
1978.000	-6.83939	0.45430	-7.78657	0.54992
1979.000	-6.88421	0.49376	-7.76910	0.59133
1980.000	-6.86083	0.49576	-7.78075	0.60314
1981.000	-6.87252	0.43057	-7.79821	0.68392
1982.000	-6.87837	0.41674	-7.84866	0.64640
1983.000	-6.85303	0.40294	-7.87582	0.64241
1984.000	-6.85498	0.48787	-7.88164	0.61679
1985.000	-6.80431	0.50372	-7.93207	0.62656
1986.000	-6.83939	0.54319	-7.94371	0.69550
1987.000	-6.93292	0.54110	-7.97085	0.68166
1988.000	-6.80820	0.52544	-8.00188	0.68949
1989.000	-6.85303	0.47602	-7.99412	0.68753
1990.000	-6.84719	0.49775	-8.03677	0.70519
1991.000	-6.85108	0.54120	-8.05809	0.67955
1992.000	-6.88421	0.49574	-8.06778	0.70710
1993.000	-6.89396	0.51745	-8.05809	0.75636
1994.000	-6.85693	0.50761	-8.10460	0.72476
1995.000	-6.95825	0.48776	-8.05034	0.80167
1996.000	-6.90175	0.53916	-8.08716	0.77993
1997.000	-6.90565	0.52336	-8.11816	0.72868
1998.000	-7.02057	0.54890	-8.07359	0.75436
1999.000	-6.94851	0.57071	-8.12979	0.77985
2000.000	-6.92513	0.51742	-8.09685	0.76613
2001.000	-6.96020	0.51738	-8.14723	0.80738
2002.000	-6.99526	0.58052	-8.13366	0.78575
2003.000	-6.93097	0.58652	-8.11816	0.77987
2004.000	-6.96214	0.57464	-8.18790	0.74036
2005.000	-7.01473	0.53903	-8.10072	0.81929
2006.000	-7.02642	0.50151	-8.13173	0.85861
2007.000	-6.99526	0.55485	-8.14916	0.86054
2008.000	-6.97773	0.59239	-8.16466	0.83688
2009.000	-6.93292	0.61022	-8.12979	0.81529
2010.000	-7.07315	0.48369	-8.12785	0.81136
2011.000	-6.95630	0.51541	-8.13560	0.79165
2012.000	-6.95630	0.59637	-8.13173	0.87436
2013.000	-7.01084	0.54496	-8.16853	0.83884
2014.000	-7.03226	0.54494	-8.16660	0.79750
2015.000	-7.02642	0.61207	-8.10848	0.93348
2016.000	-7.08678	0.56659	-8.16660	0.90382
2017.000	-6.98357	0.56474	-8.20146	0.92539
2018.000	-7.04200	0.58639	-8.14335	0.91174
2019.000	-6.98747	0.58843	-8.18403	0.89590
2020.000	-6.98747	0.55091	-8.15691	0.94125
2021.000	-6.93097	0.54900	-8.18790	0.89589
2022.000	-6.89785	0.55102	-8.14335	0.88024
2023.000	-6.95046	0.56083	-8.18790	0.89786
2024.000	-7.00110	0.52523	-8.19372	0.96872
2025.000	-6.99526	0.54103	-8.20340	0.84664
2026.000	-6.94461	0.54307	-8.19565	0.92147
2027.000	-6.98162	0.60423	-8.14141	0.93734
2028.000	-7.01278	0.56470	-8.18790	0.90771
2029.000	-6.97383	0.53908	-8.19759	0.88997
2030.000	-6.95630	0.60031	-8.20921	0.89978
2031.000	-6.88811	0.59645	-8.23632	0.91547
2032.000	-6.98162	0.61805	-8.21308	0.87812
2033.000	-6.96604	0.60820	-8.24600	0.91348
2034.000	-6.96799	0.59438	-8.22083	0.88598
2035.000	-6.95435	0.64968	-8.20921	0.93718
2036.000	-7.05952	0.59229	-8.21115	0.87222
2037.000	-6.94266	0.54504	-8.23245	0.90760
2038.000	-6.94461	0.57861	-8.23051	0.92336
2039.000	-6.96409	0.61018	-8.21696	0.92929
2040.000	-6.91928	0.65763	-8.23438	0.99027
2041.000	-6.98747	0.62989	-8.22664	0.92533
2042.000	-6.99526	0.54893	-8.19759	0.91950
2043.000	-6.97773	0.62793	-8.27117	0.90555
2044.000	-7.04394	0.58441	-8.20146	0.96476
2045.000	-7.03615	0.64759	-8.17822	0.97073
2046.000	-7.02642	0.60615	-8.19565	0.96675
2047.000	-7.02642	0.60812	-8.24407	0.94498
2048.000	-7.04005	0.59823	-8.20921	0.99821
2049.000	-7.01278	0.61999	-8.22858	0.90761
2050.000	-7.01668	0.61208	-8.24213	0.92530
2051.000	-7.05173	0.61204	-8.24019	0.91349
2052.000	-6.93097	0.61022	-8.23245	0.96075
2053.000	-6.98357	0.65359	-8.24600	0.97450
2054.000	-7.07510	0.63964	-8.28085	0.89175
2055.000	-7.08873	0.66529	-8.28085	0.96654
2056.000	-7.05757	0.64559	-8.26924	0.96263
2057.000	-7.00889	0.65948	-8.22470	0.97061
2058.000	-7.04978	0.62388	-8.26149	1.01382
2059.000	-7.06147	0.65348	-8.23826	0.97648
2060.000	-7.03421	0.60219	-8.26537	0.91737
2061.000	-7.02447	0.66340	-8.27698	0.92915
2062.000	-7.05563	0.64954	-8.24407	0.97056
2063.000	-7.01473	0.69895	-8.26537	0.98035
2064.000	-7.01473	0.66934	-8.27117	0.95475
2065.000	-7.01278	0.63973	-8.26343	0.93509
2066.000	-7.03810	0.66536	-8.25762	0.98234
2067.000	-7.00110	0.67528	-8.28085	0.97441
2068.000	-6.99331	0.69701	-8.28279	0.95669
2069.000	-7.08678	0.58633	-8.28473	0.93701
2070.000	-7.04784	0.66337	-8.28666	0.98424
2071.000	-7.07510	0.61793	-8.24600	0.96465
2072.000	-7.10625	0.63763	-8.29247	0.98225
2073.000	-7.05173	0.60217	-8.30021	0.93894
2074.000	-6.98552	0.66543	-8.25956	0.95281
2075.000	-7.08678	0.55474	-8.28279	0.98621
2076.000	-7.04589	0.67719	-8.29634	0.95272
2077.000	-7.03031	0.66734	-8.28279	0.97637
2078.000	-7.04200	0.66140	-8.29634	0.93895
2079.000	-7.11014	0.62775	-8.32538	0.97627
2080.000	-7.13739	0.59021	-8.31957	0.99006
2081.000	-7.03421	0.63378	-8.33312	0.94870
2082.000	-7.14129	0.65337	-8.30602	1.01764
2083.000	-7.06536	0.61399	-8.32925	0.98019
2084.000	-7.10430	0.68500	-8.30602	0.98812
2085.000	-6.99331	0.69306	-8.26924	0.99412
2086.000	-7.02642	0.67130	-8.32538	0.97233
2087.000	-7.05368	0.64165	-8.25956	0.97840
2088.000	-7.01084	0.72857	-8.36602	0.96436
2089.000	-7.14323	0.62376	-8.30796	0.97434
2090.000	-7.05173	0.65942	-8.28860	0.97833
2091.000	-7.10235	0.71856	-8.33118	0.92509
2092.000	-7.02057	0.68513	-8.30408	0.90153
2093.000	-7.01863	0.69697	-8.29828	1.00192
2094.000	-7.04978	0.70482	-8.30796	0.94876
2095.000	-7.09846	0.64158	-8.30602	0.95664
2096.000	-7.03810	0.66338	-8.28279	1.01180
2097.000	-7.03226	0.69893	-8.33312	0.96641
2098.000	-7.08483	0.68700	-8.34667	1.03328
2099.000	-7.11014	0.70078	-8.33699	1.00772
2100.000	-7.06147	0.65743	-8.29634	1.00783
2101.000	-7.08289	0.64358	-8.27311	1.02166
2102.000	-7.04005	0.64561	-8.26924	0.98822
2103.000	-7.03226	0.67129	-8.33505	1.00379
2104.000	-7.00499	0.72069	-8.31570	0.97826
2105.000	-7.03031	0.68116	-8.33893	0.91326
2106.000	-7.05173	0.63968	-8.31183	0.92710
2107.000	-7.09651	0.69686	-8.32344	0.96643
2108.000	-7.06926	0.70479	-8.38924	0.93676
2109.000	-7.03810	0.70287	-8.31183	0.96646
2110.000	-7.08678	0.72845	-8.33312	0.93099
2111.000	-7.01863	0.72067	-8.34086	0.97623
2112.000	-7.12766	0.68102	-8.32344	0.93888
2113.000	-7.03031	0.76210	-8.34473	0.99786
2114.000	-7.10430	0.75211	-8.31957	0.96447
2115.000	-7.04394	0.70088	-8.36021	0.90928
2116.000	-7.10235	0.72053	-8.35828	0.92699
2117.000	-7.00889	0.71081	-8.36215	0.96634
2118.000	-7.09067	0.64752	-8.34667	0.98015
2119.000	-7.08678	0.70477	-8.39891	0.94854
2120.000	-7.04200	0.65153	-8.35247	0.95259
2121.000	-7.10625	0.68697	-8.43374	0.95042
2122.000	-7.08483	0.68108	-8.33505	0.96444
2123.000	-7.07899	0.73044	-8.34280	0.93884
2124.000	-7.10625	0.65539	-8.31183	0.97040
2125.000	-7.02836	0.73447	-8.32151	0.97037
2126.000	-7.06731	0.73243	-8.33312	0.98215
2127.000	-7.04394	0.76603	-8.31957	0.95463
2128.000	-7.04200	0.77393	-8.39311	0.97216
2129.000	-7.08483	0.70674	-8.35247	1.01949
2130.000	-7.04978	0.71667	-8.36602	0.96633
2131.000	-7.09846	0.66922	-8.38924	0.95250
2132.000	-7.13739	0.73035	-8.36602	1.01945
2133.000	-7.06147	0.78574	-8.35247	0.98801
2134.000	-7.17048	0.72635	-8.35634	0.95848
2135.000	-7.13155	0.74023	-8.35634	1.00767
2136.000	-7.05757	0.75416	-8.36989	0.99190
2137.000	-7.10430	0.76198	-8.33505	1.01166
2138.000	-7.08678	0.67318	-8.33118	1.03332
2139.000	-7.12571	0.71260	-8.36602	1.04503
2140.000	-7.06147	0.78771	-8.35441	0.98407
2141.000	-7.07120	0.73243	-8.38150	0.97613
2142.000	-7.05368	0.71666	-8.38150	0.99384
2143.000	-7.02836	0.67524	-8.42020	0.92488
2144.000	-7.07899	0.70281	-8.40665	0.95245
2145.000	-7.08289	0.70872	-8.32925	1.00184
2146.000	-7.08678	0.67911	-8.37569	1.03123
2147.000	-7.05563	0.73048	-8.39311	0.98397
2148.000	-7.05563	0.74232	-8.40859	0.95638
2149.000	-7.06342	0.71073	-8.35441	1.00965
2150.000	-7.12571	0.69681	-8.34860	0.96834
2151.000	-7.08873	0.73437	-8.36602	0.99191
2152.000	-7.05563	0.69889	-8.32925	0.99397
2153.000	-7.10819	0.72842	-8.37569	0.96237
2154.000	-7.11014	0.73039	-8.37376	0.99582
2155.000	-7.05368	0.71271	-8.36021	0.93879
2156.000	-7.11403	0.75604	-8.40278	0.97411
2157.000	-7.07704	0.70873	-8.38730	0.94463
2158.000	-7.05368	0.72258	-8.35247	1.01752
2159.000	-7.00110	0.77005	-8.36021	0.97618
2160.000	-7.03810	0.77788	-8.39698	0.95838
2161.000	-7.02447	0.76409	-8.39504	0.99970
2162.000	-7.15296	0.75401	-8.37376	0.98992
2163.000	-7.10041	0.72449	-8.36021	0.97815
2164.000	-7.07315	0.71466	-8.41633	1.02326
2165.000	-7.10430	0.74224	-8.37956	0.98794
2166.000	-7.14518	0.71060	-8.40472	0.98591
2167.000	-7.12766	0.66918	-8.41633	0.93472
2168.000	-7.05368	0.74035	-8.40859	0.98196
2169.000	-7.08094	0.69885	-8.40472	1.01542
2170.000	-7.09067	0.80346	-8.38343	1.08630
2171.000	-7.02252	0.78581	-8.43567	0.95238
2172.000	-7.12182	0.69879	-8.40859	1.01738
2173.000	-7.09846	0.71659	-8.44341	0.99564
2174.000	-6.99720	0.71083	-8.42987	0.95043
2175.000	-7.06147	0.75416	-8.42213	1.00554
2176.000	-7.04784	0.77984	-8.42987	1.00945
2177.000	-7.07510	0.74229	-8.38343	0.98793
2178.000	-6.94656	0.72473	-8.33699	1.02347
2179.000	-6.96214	0.80368	-8.27505	1.07086
2180.000	-6.83549	0.77229	-8.21696	1.02575
2181.000	-6.75752	0.74081	-8.11623	0.95906
2182.000	-6.73997	0.71714	-7.95728	1.01459
2183.000	-6.54492	0.80239	-7.74387	1.06043
2184.000	-6.39462	0.77891	-7.50303	1.09061
2185.000	-6.13481	0.79117	-7.29695	1.07731
2186.000	-5.95103	0.83496	-7.05368	1.04236
2187.000	-5.67905	0.74234	-6.70487	1.11225
2188.000	-5.46951	0.84160	-6.34971	1.17234
2189.000	-5.17747	0.87171	-5.92756	1.11392
2190.000	-4.90283	0.82848	-5.60073	1.08290
2191.000	-4.47079	0.83098	-5.24413	1.12711
2192.000	-4.25655	0.83717	-4.82824	1.07432
2193.000	-3.87297	0.88321	-4.49044	1.04906
2194.000	-3.56389	0.81205	-4.09923	1.04365
2195.000	-3.27627	0.91555	-3.71747	0.97268
2196.000	-2.95695	0.82049	-3.39646	0.90949
2197.000	-2.67689	0.85049	-3.02989	0.96940
2198.000	-2.36118	0.87255	-2.64927	0.96773
2199.000	-1.98807	0.90855	-2.32368	0.95604
2200.000	-1.73330	0.88284	-2.00781	0.86680
2201.000	-1.40339	0.87701	-1.69577	0.87291
2202.000	-1.09908	0.88904	-1.37178	0.90884
2203.000	-0.74924	0.88714	-1.00817	0.90299
2204.000	-0.49226	0.85138	-0.68006	0.78373
2205.000	-0.15421	0.82158	-0.32422	0.89715
2206.000	0.23526	0.84942	0.05338	0.80169
2207.000	0.53378	0.79370	0.45075	0.93095
2208.000	0.90934	0.82546	0.79866	0.91100
2209.000	1.20975	0.88503	1.12675	0.84727
2210.000	1.54564	0.84713	1.46859	0.86108
2211.000	1.93080	0.85292	1.80243	0.89075
2212.000	2.18550	0.81303	2.10259	0.85681
2213.000	2.55852	0.86646	2.33158	0.91431
2214.000	2.80116	0.86828	2.73409	1.00342
2215.000	3.15211	0.84616	3.00229	0.94360
2216.000	3.39055	0.89162	3.28021	1.05454
2217.000	3.77062	0.91110	3.59933	1.06014
2218.000	4.10119	0.90082	3.82770	1.04995
2219.000	4.32142	0.93428	4.10513	1.16663
2220.000	4.71830	1.00909	4.32929	1.22974
2221.000	4.99309	0.95518	4.58278	1.23527
2222.000	5.19904	0.97468	4.70259	1.17560
2223.000	5.41661	1.01592	4.82824	1.25266
2224.000	5.55765	0.96421	4.90675	1.30205
2225.000	5.64577	0.90073	5.00094	1.33355
2226.000	5.76322	1.00938	5.07549	1.37103
2227.000	5.86888	0.94588	5.06372	1.31758
2228.000	5.92952	0.98139	5.07353	1.29577
2229.000	5.96668	1.01099	5.05195	1.23045
2230.000	5.90018	1.00122	4.93423	1.26435
2231.000	5.76517	0.99948	4.88320	1.32983
2232.000	5.80040	0.96974	4.81843	1.31609
2233.000	5.68688	0.98181	4.80272	1.27649
2234.000	5.65164	0.90270	4.67706	1.33617
2235.000	5.57528	1.02554	4.64563	1.34020
2236.000	5.56549	0.95826	4.56314	1.31855
2237.000	5.49693	1.03558	4.53367	1.31860
2238.000	5.44992	0.93667	4.53170	1.27500
2239.000	5.46951	1.05542	4.49044	1.33256
2240.000	5.47147	1.03166	4.50813	1.32460
2241.000	5.49302	1.06528	4.52974	1.31663
2242.000	5.52827	1.00979	4.47079	1.34250
2243.000	5.47147	1.06730	4.58867	1.33436
2244.000	5.56157	1.04536	4.55921	1.35423
2245.000	5.58507	0.99584	4.63385	1.30455
2246.000	5.63011	1.05909	4.70062	1.29848
2247.000	5.63598	1.03533	4.65153	1.30055
2248.000	5.62619	1.01754	4.70455	1.31036
2249.000	5.67122	1.05704	4.74579	1.29641
2250.000	5.65752	1.01748	4.73990	1.23103
2251.000	5.75930	1.03709	4.72811	1.28852
2252.000	5.70058	1.03720	4.73597	1.27067
2253.000	5.73973	1.04306	4.73597	1.24490
2254.000	5.70254	1.01542	4.73204	1.24689
2255.000	5.71624	1.05102	4.76738	1.29241
2256.000	5.71624	1.00353	4.71241	1.28062
2257.000	5.75735	1.03116	4.78505	1.25671
2258.000	5.76126	0.99157	4.70062	1.29848
2259.000	5.77496	1.02915	4.70259	1.30640
2260.000	5.76322	0.96189	4.73008	1.32616
2261.000	5.77692	1.03508	4.75168	1.37962
2262.000	5.79844	0.97172	4.79291	1.38945
2263.000	5.80040	0.98359	4.75364	1.34593
2264.000	5.79844	0.98755	4.79880	1.38349
2265.000	5.77105	1.00343	4.79683	1.39538
2266.000	5.82779	0.97761	4.85965	1.35761
2267.000	5.78083	0.97967	4.81450	1.36166
2268.000	5.83366	1.02310	4.78505	1.39144
2269.000	5.81605	0.97763	4.81057	1.36762
2270.000	5.82388	0.99542	4.84002	1.34180
2271.000	5.76322	0.95595	4.84787	1.34971
2272.000	5.83171	0.98156	4.77720	1.33796
2273.000	5.80627	1.03700	4.78505	1.38748
2274.000	5.80627	0.99743	4.81646	1.26854
2275.000	5.81410	0.97367	4.81646	1.31411
2276.000	5.81997	1.02313	4.78898	1.35775
2277.000	5.81018	1.05480	4.79880	1.36764
2278.000	5.79649	0.98953	4.80468	1.32998
2279.000	5.83562	0.99540	4.77524	1.29834
2280.000	5.81997	1.00532	4.79880	1.32603
2281.000	5.85910	1.05273	4.77720	1.32211
2282.000	5.84736	0.98549	4.79683	1.34585
2283.000	5.77887	1.02518	4.78113	1.37956
2284.000	5.80236	0.97172	4.72615	1.31824
2285.000	5.83366	1.04289	4.77916	1.32607
2286.000	5.81997	0.99147	4.71830	1.28061
2287.000	5.81410	1.03303	4.73793	1.32615
2288.000	5.83562	1.01123	4.77916	1.34985
2289.000	5.80040	0.99744	4.73990	1.34596
2290.000	5.82388	1.02708	4.74579	1.33208
2291.000	5.79061	0.99350	4.76542	1.29835
2292.000	5.81605	1.04886	4.80272	1.30621
2293.000	5.84932	1.01714	4.74971	1.36576
2294.000	5.82192	0.98355	4.69866	1.35199
2295.000	5.84932	1.00329	4.75953	1.28251
2296.000	5.81018	1.03304	4.75757	1.30828
2297.000	5.82975	1.00926	4.75953	1.37168
2298.000	5.82975	0.99343	4.75168	1.34197
2299.000	5.79453	1.01526	4.73793	1.33407
2300.000	5.84736	1.02704	4.76738	1.35185
2301.000	5.81997	1.01324	4.75364	1.35584
2302.000	5.80236	0.96974	4.80076	1.39736
2303.000	5.79061	1.01725	4.79683	1.33594
2304.000	5.81605	1.03501	4.80468	1.32602
2305.000	5.86497	0.99337	4.77131	1.37562
2306.000	5.84736	0.99340	4.77524	1.33995
2307.000	5.79844	1.00932	4.80272	1.41716
2308.000	5.82975	0.99343	4.77131	1.30627
2309.000	5.86888	1.00919	4.75757	1.30630
2310.000	5.83953	1.04683	4.78898	1.35973
2311.000	5.87866	1.01313	4.78505	1.33200
2312.000	5.83562	0.99144	4.79487	1.33396
2313.000	5.88257	1.02697	4.80665	1.32007
2314.000	5.84345	1.05474	4.83806	1.35369
2315.000	5.83758	1.02705	4.84002	1.35765
2316.000	5.86692	1.02304	4.79094	1.37756
2317.000	5.88257	1.01510	4.82628	1.35173
2318.000	5.85323	1.05868	4.81843	1.39732
2319.000	5.88453	0.98146	4.80272	1.34584
2320.000	5.87084	0.97753	4.83413	1.39531
2321.000	5.82192	0.98949	4.75168	1.37170
2322.000	5.88257	1.07247	4.79880	1.39142
2323.000	5.85323	1.01911	4.79291	1.35774
2324.000	5.84345	1.01715	4.83020	1.36560
2325.000	5.85714	0.93996	4.84395	1.34774
2326.000	5.84149	1.04485	4.82039	1.39930
2327.000	5.86888	1.01908	4.82432	1.34579
2328.000	5.92365	1.04865	4.79683	1.36962
2329.000	5.84540	1.01319	4.80665	1.34781
2330.000	5.85910	1.07054	4.82039	1.35571
2331.000	5.84345	1.00132	4.81254	1.36563
2332.000	5.85518	0.97360	4.82235	1.29626
2333.000	5.89040	1.01904	4.79683	1.32802
2334.000	5.86105	1.07449	4.83020	1.34578
2335.000	5.84736	0.96372	4.82628	1.38938
2336.000	5.87279	0.97159	4.81843	1.35769
2337.000	5.88453	1.01708	4.84787	1.37547
2338.000	5.86888	0.97951	4.81057	1.38743
2339.000	5.90996	1.01703	4.87142	1.30806
2340.000	5.86301	1.00129	4.84198	1.35963
2341.000	5.84149	0.98154	4.82432	1.32400
2342.000	5.89040	0.99332	4.86750	1.35363
2343.000	5.89822	1.01309	4.83609	1.29822
2344.000	5.91583	1.01108	4.88124	1.36549
2345.000	5.86105	1.06856	4.83020	1.35371
2346.000	5.87279	0.99533	4.85572	1.33583
2347.000	5.83562	1.00925	4.82432	1.33787
2348.000	5.89822	1.00518	4.85376	1.37545
2349.000	5.89235	1.02695	4.84591	1.36556
2350.000	5.87670	0.99335	4.82039	1.35175
2351.000	5.86692	0.99732	4.83806	1.31803
2352.000	5.93539	1.03676	4.83413	1.31407
2353.000	5.93930	1.10994	4.82432	1.35570
2354.000	5.85714	0.98349	4.86357	1.34968
2355.000	5.94712	0.96553	4.90086	1.34762
2356.000	5.92756	0.96161	4.89301	1.32783
2357.000	5.91583	0.99526	4.86554	1.37543
2358.000	5.91387	1.00120	4.86554	1.35562
2359.000	5.91192	0.97548	4.84787	1.29820
2360.000	5.86497	1.03689	4.86357	1.34572
2361.000	5.89040	1.03289	4.86161	1.32393
2362.000	5.84149	1.00528	4.84983	1.34772
2363.000	5.88062	1.06061	4.86357	1.33383
2364.000	5.91387	0.98735	4.84591	1.34575
2365.000	5.92170	1.02294	4.84198	1.32000
2366.000	5.89235	0.98541	4.84198	1.28830
2367.000	5.93147	1.02292	4.91068	1.29609
2368.000	5.89431	0.98145	4.85965	1.35365
2369.000	5.93539	0.97742	4.88909	1.34765
2370.000	5.89627	1.02695	4.90283	1.33969
2371.000	5.88649	0.92409	4.88124	1.34964
2372.000	5.89822	0.97353	4.88516	1.35756
2373.000	5.84932	0.93404	4.89694	1.34961
2374.000	5.92756	1.01502	4.84591	1.36556
2375.000	5.90605	1.03286	4.87339	1.36155
2376.000	5.88062	0.99136	4.84983	1.37744
2377.000	5.89235	1.01113	4.85572	1.33384
2378.000	5.92561	0.98535	4.89890	1.38923
2379.000	5.84540	0.99143	4.82235	1.34778
2380.000	5.82388	0.99740	4.89694	1.34763
2381.000	5.88844	0.94189	4.86357	1.34770
2382.000	5.89822	1.03881	4.90086	1.37536
2383.000	5.92561	1.00117	4.91853	1.30004
2384.000	5.85127	1.02307	4.89498	1.36745
2385.000	5.86497	1.03492	4.88713	1.30010
2386.000	5.86888	1.01710	4.87142	1.34372
2387.000	5.91192	1.00120	4.88516	1.39718
2388.000	5.92561	0.98139	4.91853	1.34164
2389.000	5.88453	1.03488	4.91068	1.33968
2390.000	5.93343	1.01896	4.84198	1.35170
2391.000	5.87279	0.98149	4.87731	1.33380
2392.000	5.90409	0.92010	4.85769	1.29818
2393.000	5.84149	0.99737	4.86554	1.27637
2394.000	5.92952	1.01897	4.90871	1.32582
2395.000	5.91778	1.00317	4.86946	1.33778
2396.000	5.93147	0.94577	4.84983	1.34574
2397.000	5.89040	0.98343	4.90283	1.30800
2398.000	5.90213	1.00320	4.87928	1.32984
2399.000	5.86692	0.96171	4.86357	1.33383
2400.000	5.88453	1.02895	4.89890	1.36348
2401.000	5.86692	1.03491	4.86161	1.32393
2402.000	5.89822	1.00122	4.84395	1.27443
2403.000	5.89431	1.08630	4.86750	1.32590
2404.000	5.88453	1.01905	4.87142	1.35363
2405.000	5.88844	1.01905	4.88124	1.30011
2406.000	5.90605	0.94186	4.91068	1.33770
2407.000	5.89822	1.00122	4.91264	1.31392
2408.000	5.88257	0.98345	4.83806	1.29425
2409.000	5.88257	0.98543	4.89105	1.34368
2410.000	5.86497	1.04679	4.89105	1.33774
2411.000	5.88257	0.98543	4.84591	1.35170
2412.000	5.86301	1.02503	4.87731	1.33380
2413.000	5.86301	0.97557	4.85376	1.37545
2414.000	5.92952	1.00512	4.87535	1.36352
2415.000	5.90018	0.98737	4.87339	1.31202
2416.000	5.88062	1.01115	4.85769	1.30610
2417.000	5.85323	1.02109	4.86750	1.31401
2418.000	5.85714	0.99536	4.88124	1.35361
2419.000	5.84149	1.03892	4.84983	1.29819
2420.000	5.95690	0.99321	4.84787	1.34377
2421.000	5.93539	1.08424	4.84198	1.36557
2422.000	5.89822	1.03288	4.88320	1.35360
2423.000	5.91778	1.03482	4.89498	1.33773
2424.000	5.92365	0.99129	4.84002	1.35171
2425.000	5.88062	1.03884	4.83806	1.34180
2426.000	5.88453	1.02499	4.90283	1.34564
2427.000	5.91387	1.00120	4.82824	1.32003
2428.000	5.86105	1.02107	4.84983	1.25857
2429.000	5.87670	1.04874	4.91853	1.34362
2430.000	5.89431	0.98145	4.85769	1.33186
2431.000	5.89627	1.04079	4.84787	1.33188
2432.000	5.92170	0.99722	4.84983	1.36357
2433.000	5.88453	1.00718	4.82432	1.34381
2434.000	5.87866	1.06061	4.81646	1.33987
2435.000	5.86497	0.98546	4.80272	1.32404
2436.000	5.89627	1.01508	4.82824	1.32795
2437.000	5.89235	1.01310	4.80468	1.32404
2438.000	5.88649	1.02498	4.82628	1.31013
2439.000	5.90605	0.98341	4.84983	1.34772
2440.000	5.91583	0.97547	4.84787	1.29423
2441.000	5.89822	0.96957	4.81646	1.32203
2442.000	5.88062	1.00126	4.80665	1.29828
2443.000	5.86692	0.98347	4.83609	1.34973
2444.000	5.85714	1.00525	4.84002	1.35171
2445.000	5.90996	0.93988	4.83020	1.37748
2446.000	5.86301	0.93600	4.78505	1.35578
2447.000	5.90213	1.03287	4.78898	1.32605
2448.000	5.86497	1.02107	4.85769	1.31007
2449.000	5.89235	1.06652	4.76935	1.37959
2450.000	5.88257	1.05269	4.81843	1.36364
2451.000	5.93343	0.98336	4.84787	1.29027
2452.000	5.88062	1.04874	4.82235	1.29825
2453.000	5.89040	0.97948	4.82039	1.32203
2454.000	5.92561	0.97941	4.80468	1.32404
2455.000	5.85127	1.06066	4.78702	1.28246
2456.000	5.94517	0.93982	4.83020	1.29823
2457.000	5.88453	1.00521	4.82235	1.35769
2458.000	5.91192	1.03681	4.82235	1.34382
2459.000	5.88649	0.98344	4.81057	1.29827
2460.000	5.87084	1.00325	4.82235	1.30419
2461.000	5.86301	0.97161	4.79291	1.32406
2462.000	5.85518	1.01713	4.81843	1.29429
2463.000	5.85127	0.97757	4.79094	1.30425
2464.000	5.89627	1.05266	4.78702	1.30822
2465.000	5.92365	0.95568	4.83020	1.25662
2466.000	5.91583	0.98537	4.83413	1.31209
2467.000	5.92561	0.98535	4.80272	1.31413
2468.000	5.91778	0.98536	4.81057	1.27647
2469.000	5.83953	1.00529	4.78898	1.30029
2470.000	5.90996	0.97153	4.75560	1.31423
2471.000	5.92561	1.03480	4.76542	1.31223
2472.000	5.84345	1.02111	4.80665	1.30422
2473.000	5.90996	0.98933	4.80272	1.31612
2474.000	5.82584	0.99740	4.80272	1.29036
2475.000	5.88844	0.99135	4.76346	1.30628
2476.000	5.91387	0.98339	4.82432	1.31806
2477.000	5.90018	1.01705	4.80861	1.31214
2478.000	5.86692	0.98150	4.78113	1.31418
2479.000	5.83953	1.05079	4.70651	1.30441
2480.000	5.75539	0.97378	4.68491	1.28860
2481.000	5.67905	0.96995	4.60242	1.33433
2482.000	5.56157	0.95431	4.45900	1.31279
2483.000	5.37938	0.92687	4.36074	1.28917
2484.000	5.18139	0.90538	4.27817	1.16637
2485.000	5.02056	0.93533	4.14446	1.10905
2486.000	4.82824	0.95938	4.00874	1.20644
2487.000	4.63189	0.85458	3.89068	1.04590
2488.000	4.40005	0.78346	3.68006	1.12951
2489.000	4.17199	0.68649	3.53631	1.02846
2490.000	4.10906	0.68654	3.39843	0.96706
2491.000	3.99103	0.66878	3.26051	0.89372
2492.000	3.84148	0.58753	3.14423	0.82432
2493.000	3.73519	0.51813	3.12846	0.80844
2494.000	3.59933	0.46857	3.06144	0.76877
2495.000	3.54813	0.46860	3.01807	0.74893
2496.000	3.51465	0.40110	2.93526	0.75296
2497.000	3.58752	0.44872	2.90371	0.73312
2498.000	3.51859	0.40110	2.91948	0.72516
2499.000	3.53828	0.39514	2.85638	0.69342
2500.000	3.53238	0.40705	2.85441	0.65170
2501.000	3.54813	0.43087	2.83468	0.62588
2502.000	3.59540	0.40901	2.80905	0.74311
2503.000	3.56192	0.47653	2.81102	0.61397
2504.000	3.59146	0.42291	2.81693	0.65371
2505.000	3.58358	0.44674	2.76960	0.62989
2506.000	3.62690	0.47650	2.76763	0.71334
2507.000	3.61903	0.42290	2.76565	0.66963
2508.000	3.64659	0.47252	2.78735	0.61200
2509.000	3.69975	0.46852	2.76960	0.68155
2510.000	3.66628	0.46655	2.79918	0.66961
2511.000	3.77062	0.53001	2.76763	0.67161
2512.000	3.73716	0.50621	2.83074	0.72721
2513.000	3.77259	0.50421	2.85046	0.74905
2514.000	3.79818	0.44068	2.80905	0.77291
2515.000	3.79031	0.48435	2.82285	0.73317
2516.000	3.86116	0.48629	2.82680	0.81462
2517.000	3.83164	0.45257	2.82285	0.83846
2518.000	3.82574	0.50815	2.82877	0.81462
2519.000	3.83558	0.45257	2.76565	0.81665
2520.000	3.87297	0.49423	2.88793	0.84040
2521.000	3.79424	0.48236	2.84060	0.91394
2522.000	3.84935	0.51607	2.82482	0.81661
2523.000	3.83754	0.48829	2.84652	0.77488
2524.000	3.83951	0.44065	2.87018	0.79870
2525.000	3.84542	0.51409	2.81496	0.83847
2526.000	3.88675	0.47636	2.85046	0.83447
2527.000	3.77062	0.50818	2.84257	0.79276
2528.000	3.75684	0.46650	2.84060	0.77885
2529.000	3.80015	0.47839	2.86229	0.78082
2530.000	3.82574	0.47441	2.86427	0.80466
2531.000	3.85919	0.47042	2.77552	0.81267
2532.000	3.80212	0.49030	2.84257	0.81858
2533.000	3.85723	0.48233	2.84652	0.76097
2534.000	3.81589	0.49426	2.83666	0.79872
2535.000	3.82770	0.53990	2.80707	0.81662
2536.000	3.81589	0.49029	2.79129	0.81663
2537.000	3.82967	0.57166	2.78341	0.79478
2538.000	3.79227	0.50817	2.79721	0.72921
2539.000	3.78440	0.48435	2.80707	0.80272
2540.000	3.82967	0.54189	2.78538	0.74512
2541.000	3.80605	0.49823	2.80707	0.72921
2542.000	3.82180	0.51013	2.75185	0.79282
2543.000	3.78046	0.54986	2.76763	0.73917
2544.000	3.81393	0.50815	2.72620	0.72330
2545.000	3.82574	0.50219	2.74593	0.76302
2546.000	3.85329	0.49424	2.73804	0.75905
2547.000	3.80999	0.49029	2.72423	0.73323
2548.000	3.78834	0.50817	2.73015	0.71535
2549.000	3.79227	0.58756	2.74001	0.76104
2550.000	3.76078	0.52804	2.73409	0.74713
2551.000	3.83361	0.52799	2.74198	0.76501
2552.000	3.78243	0.57169	2.74790	0.81865
2553.000	3.77062	0.53597	2.74001	0.78687
2554.000	3.82967	0.52402	2.75185	0.77295
2555.000	3.76472	0.54987	2.74593	0.81269
2556.000	3.77259	0.49825	2.77552	0.75903
2557.000	3.81196	0.52403	2.72226	0.78887
2558.000	3.80212	0.50419	2.74593	0.76700
2559.000	3.78243	0.52802	2.74987	0.79679
2560.000	3.75684	0.52208	2.75776	0.78089
2561.000	3.80605	0.53793	2.73212	0.80277
2562.000	3.76078	0.50025	2.74198	0.77494
2563.000	3.80408	0.51015	2.72620	0.80873
2564.000	3.70960	0.53998	2.76763	0.81268
2565.000	3.79227	0.53000	2.73409	0.78687
2566.000	3.76865	0.51612	2.72620	0.85244
2567.000	3.75094	0.53003	2.76763	0.76499
2568.000	3.73322	0.51019	2.77749	0.84843
2569.000	3.74897	0.50621	2.71831	0.79085
2570.000	3.78637	0.50619	2.68083	0.81273
2571.000	3.76275	0.49826	2.69859	0.82464
2572.000	3.72731	0.53203	2.70451	0.80875
2573.000	3.68006	0.46257	2.71240	0.80079
2574.000	3.72338	0.47843	2.73015	0.82264
2575.000	3.74700	0.48636	2.74790	0.80276
2576.000	3.74700	0.47643	2.72818	0.88423
2577.000	3.74109	0.45262	2.71240	0.74913
2578.000	3.76472	0.50620	2.70845	0.79682
2579.000	3.74700	0.45460	2.75382	0.75308
2580.000	3.70960	0.46454	2.74396	0.76302
2581.000	3.74503	0.43673	2.75579	0.79282
2582.000	3.74306	0.43673	2.74001	0.81468
2583.000	3.77850	0.48039	2.75974	0.83056
2584.000	3.70763	0.49631	2.68478	0.80280
2585.000	3.70763	0.50226	2.71240	0.77099
2586.000	3.71550	0.37521	2.67886	0.82267
2587.000	3.72928	0.50622	2.75974	0.76897
2588.000	3.73716	0.49232	2.74198	0.78687
2589.000	3.74306	0.45658	2.74198	0.81468
2590.000	3.64856	0.52413	2.70845	0.78490
2591.000	3.68203	0.45265	2.67886	0.83658
2592.000	3.73519	0.44865	2.73212	0.81866
2593.000	3.75684	0.45062	2.71831	0.81072
2594.000	3.69385	0.43874	2.70648	0.80278
2595.000	3.65841	0.52810	2.71634	0.82066
2596.000	3.68006	0.50426	2.71831	0.83655
2597.000	3.73519	0.49034	2.64730	0.81673
2598.000	3.70369	0.47249	2.71831	0.75310
2599.000	3.72535	0.51019	2.72620	0.82264
2600.000	3.75487	0.49826	2.70845	0.85047
2601.000	3.68991	0.53602	2.70451	0.82265
2602.000	3.74700	0.52209	2.71042	0.87232
2603.000	3.65644	0.49633	2.69070	0.79882
2604.000	3.69975	0.50822	2.71042	0.83656
2605.000	3.66038	0.52413	2.70648	0.79682
2606.000	3.66628	0.48640	2.74001	0.86236
2607.000	3.70960	0.42087	2.66703	0.80678
2608.000	3.69188	0.44073	2.72226	0.87430
2609.000	3.75291	0.47246	2.68281	0.82267
2610.000	3.75487	0.50620	2.69267	0.85246
2611.000	3.75094	0.44070	2.69464	0.84054
2612.000	3.75094	0.51018	2.70451	0.82464
2613.000	3.71156	0.46851	2.69464	0.84253
2614.000	3.72141	0.53798	2.68873	0.88227
2615.000	3.68597	0.51220	2.73409	0.83853
2616.000	3.70763	0.50623	2.71240	0.83059
2617.000	3.72141	0.42682	2.74593	0.89613
2618.000	3.71747	0.53203	2.70253	0.85842
2619.000	3.67613	0.50426	2.71831	0.88026
2620.000	3.77259	0.50222	2.74593	0.83455
2621.000	3.68006	0.47448	2.68873	0.84253
2622.000	3.73125	0.49232	2.72226	0.71336
2623.000	3.74109	0.45659	2.70648	0.78292
2624.000	3.71156	0.46256	2.69267	0.76703
2625.000	3.74109	0.50820	2.70056	0.85246
2626.000	3.67613	0.47846	2.72423	0.77496
2627.000	3.72928	0.50423	2.73015	0.75707
2628.000	3.73913	0.43674	2.71437	0.78490
2629.000	3.73322	0.46453	2.70451	0.79086
2630.000	3.75487	0.53002	2.69859	0.73523
2631.000	3.75881	0.48635	2.69070	0.77299
2632.000	3.78637	0.50420	2.69464	0.77498
2633.000	3.72535	0.49630	2.72818	0.76303
2634.000	3.69975	0.47844	2.70056	0.77497
2635.000	3.72535	0.51615	2.70253	0.74715
2636.000	3.74109	0.47842	2.68083	0.73723
2637.000	3.72338	0.47248	2.69070	0.83061
2638.000	3.79227	0.51809	2.67689	0.81472
2639.000	3.74700	0.44467	2.75776	0.77692
2640.000	3.72928	0.47644	2.70648	0.79285
2641.000	3.72338	0.48836	2.70056	0.81272
2642.000	3.69778	0.45264	2.73015	0.78886
2643.000	3.72535	0.47049	2.75776	0.73719
2644.000	3.74306	0.41490	2.77157	0.76499
2645.000	3.73125	0.43674	2.69859	0.75113
2646.000	3.67810	0.43677	2.75185	0.79679
2647.000	3.63281	0.45664	2.69464	0.76703
2648.000	3.72928	0.42483	2.67886	0.76704
2649.000	3.69778	0.47844	2.74593	0.75905
2650.000	3.74109	0.44865	2.68675	0.77498
2651.000	3.69975	0.43477	2.73804	0.82064
2652.000	3.68400	0.40301	2.70253	0.80279
2653.000	3.71353	0.45263	2.68675	0.80081
2654.000	3.70172	0.42484	2.73212	0.80277
2655.000	3.72928	0.47644	2.66111	0.79288
2656.000	3.70369	0.48440	2.67689	0.78691
2657.000	3.73716	0.46453	2.74001	0.76899
2658.000	3.69188	0.45463	2.70451	0.80477
2659.000	3.71156	0.48439	2.72029	0.77893
2660.000	3.73125	0.42284	2.72226	0.74515
2661.000	3.66628	0.47648	2.69859	0.76305
2662.000	3.69778	0.44470	2.74593	0.76302
2663.000	3.69581	0.48837	2.68281	0.79684
2664.000	3.73913	0.39703	2.67689	0.69153
2665.000	3.71156	0.49035	2.68083	0.77697
2666.000	3.69581	0.45859	2.73212	0.75111
2667.000	3.68597	0.46853	2.74987	0.73918
2668.000	3.74306	0.44070	2.68478	0.73922
2669.000	3.72338	0.46454	2.74790	0.72924
2670.000	3.70369	0.46852	2.70253	0.78490
2671.000	3.71156	0.45859	2.66111	0.77698
2672.000	3.72535	0.38910	2.72620	0.76303
2673.000	3.68991	0.44272	2.72620	0.73124
2674.000	3.69385	0.42683	2.69267	0.71736
2675.000	3.71353	0.43079	2.70451	0.81471
2676.000	3.67810	0.44669	2.72226	0.80277
2677.000	3.72928	0.46255	2.70845	0.75907
2678.000	3.70566	0.48043	2.71042	0.77099
2679.000	3.68794	0.48838	2.67294	0.76903
2680.000	3.72535	0.50027	2.72620	0.76701
2681.000	3.70172	0.42683	2.74396	0.80475
2682.000	3.69975	0.43279	2.69070	0.77696
2683.000	3.67810	0.47846	2.68083	0.74915
2684.000	3.74109	0.42681	2.71042	0.80675
2685.000	3.72141	0.51615	2.72226	0.80277
2686.000	3.75094	0.45063	2.74790	0.80673
2687.000	3.63872	0.46855	2.72029	0.82463
2688.000	3.71747	0.47843	2.72029	0.77695
2689.000	3.68203	0.50823	2.75382	0.81269
2690.000	3.67810	0.45265	2.71042	0.75510
2691.000	3.70763	0.44072	2.64927	0.77898
2692.000	3.67810	0.46456	2.69859	0.77895
2693.000	3.63478	0.44473	2.69859	0.76504
2694.000	3.70172	0.46455	2.67294	0.79883
2695.000	3.72338	0.48836	2.68281	0.82664
2696.000	3.70960	0.50027	2.68675	0.81273
2697.000	3.68400	0.46853	2.67294	0.80678
2698.000	3.71944	0.47645	2.74987	0.77295
2699.000	3.63872	0.46458	2.67294	0.78294
2700.000	3.69385	0.51418	2.71042	0.72728
2701.000	3.63675	0.48642	2.70056	0.77100
2702.000	3.69778	0.48242	2.69267	0.82663
2703.000	3.68006	0.43677	2.74198	0.81071
2704.000	3.69188	0.50426	2.71042	0.74318
2705.000	3.70960	0.48042	2.69070	0.80279
2706.000	3.70172	0.49035	2.70253	0.75113
2707.000	3.67810	0.51617	2.70056	0.74517
2708.000	3.68400	0.48639	2.72423	0.80873
2709.000	3.71353	0.52012	2.71240	0.70940
2710.000	3.71747	0.52211	2.72226	0.76701
2711.000	3.76078	0.47841	2.68873	0.78491
2712.000	3.71550	0.55982	2.69464	0.78491
2713.000	3.74306	0.50423	2.70648	0.73722
2714.000	3.69581	0.48440	2.68083	0.75710
2715.000	3.72535	0.48637	2.70648	0.77497
2716.000	3.72928	0.46850	2.71240	0.81073
2717.000	3.76078	0.49032	2.74198	0.79283
2718.000	3.69188	0.48242	2.70648	0.71337
2719.000	3.65250	0.48443	2.75185	0.75507
2720.000	3.69385	0.52014	2.72818	0.75509
2721.000	3.70566	0.50822	2.67689	0.72531
2722.000	3.73125	0.53004	2.66111	0.77102
2723.000	3.65250	0.46854	2.68083	0.75909
2724.000	3.70172	0.48638	2.69267	0.77498
2725.000	3.77259	0.50421	2.75579	0.79480
2726.000	3.64659	0.49237	2.72226	0.74317
2727.000	3.68597	0.55389	2.70253	0.78292
2728.000	3.72535	0.46850	2.66111	0.80281
2729.000	3.71353	0.46057	2.76763	0.72923
2730.000	3.70369	0.49234	2.74396	0.74912
2731.000	3.68400	0.52411	2.69464	0.75511
2732.000	3.68203	0.48838	2.70451	0.75113
2733.000	3.65250	0.54200	2.72029	0.74913
2734.000	3.66234	0.50427	2.75382	0.71533
2735.000	3.69975	0.41492	2.77552	0.75903
2736.000	3.66628	0.48442	2.73409	0.76700
2737.000	3.68203	0.49433	2.75579	0.73719
2738.000	3.66825	0.53603	2.75579	0.79878
2739.000	3.67613	0.46059	2.76565	0.70340
2740.000	3.69385	0.48242	2.73212	0.75707
2741.000	3.67219	0.48441	2.74198	0.74117
2742.000	3.67416	0.46655	2.75974	0.75904
2743.000	3.71747	0.50623	2.70845	0.79881
2744.000	3.71747	0.51814	2.76171	0.74910
2745.000	3.67613	0.52213	2.76565	0.73718
2746.000	3.70369	0.55189	2.73015	0.77297
2747.000	3.74503	0.49430	2.72423	0.76105
2748.000	3.71747	0.49233	2.74593	0.80872
2749.000	3.74109	0.53996	2.69464	0.80080
2750.000	3.75291	0.54392	2.73409	0.73720
2751.000	3.70172	0.49432	2.73015	0.79085
2752.000	3.64856	0.49237	2.75974	0.82262
2753.000	3.68400	0.52411	2.75382	0.78686
2754.000	3.69975	0.51815	2.77157	0.78089
2755.000	3.69778	0.48440	2.71437	0.82066
2756.000	3.69581	0.52212	2.76171	0.78487
2757.000	3.69778	0.47050	2.76368	0.74910
2758.000	3.69581	0.47646	2.73607	0.76899
2759.000	3.64659	0.49237	2.70648	0.77497
2760.000	3.69778	0.48043	2.76171	0.85043
2761.000	3.73716	0.49827	2.73607	0.82859
2762.000	3.67613	0.47449	2.67886	0.77697
2763.000	3.72141	0.48637	2.76171	0.79877
2764.000	3.67219	0.51816	2.74396	0.79680
2765.000	3.72535	0.52012	2.74987	0.78289
2766.000	3.71944	0.48042	2.71042	0.79682
2767.000	3.70763	0.46851	2.75974	0.81665
2768.000	3.70566	0.53402	2.78735	0.82061
2769.000	3.68597	0.49235	2.73804	0.78885
2770.000	3.67613	0.52610	2.78143	0.82260
2771.000	3.69778	0.50822	2.77157	0.80671
2772.000	3.71156	0.49630	2.78735	0.80273
2773.000	3.64069	0.51024	2.77157	0.79082
2774.000	3.67810	0.49632	2.73804	0.83256
2775.000	3.67022	0.51618	2.74198	0.75905
2776.000	3.72338	0.48240	2.75382	0.79878
2777.000	3.71156	0.44866	2.78735	0.75703
2778.000	3.73125	0.50423	2.74396	0.79878
2779.000	3.64856	0.46457	2.72423	0.78489
2780.000	3.68203	0.49235	2.73409	0.76104
2781.000	3.65644	0.50428	2.77552	0.86035
2782.000	3.72141	0.51416	2.71240	0.79483
2783.000	3.74109	0.51217	2.74987	0.80474
2784.000	3.67416	0.49632	2.76565	0.76500
2785.000	3.72928	0.51019	2.76565	0.78884
2786.000	3.67416	0.49632	2.76368	0.77692
2787.000	3.66825	0.47449	2.78932	0.78485
2788.000	3.64265	0.49237	2.75185	0.78090
2789.000	3.70763	0.42881	2.76368	0.75506
2790.000	3.67219	0.52610	2.74198	0.77296
2791.000	3.70172	0.51219	2.79918	0.76497
2792.000	3.70960	0.51814	2.76960	0.68552
2793.000	3.64462	0.52413	2.78735	0.72922
2794.000	3.68794	0.47845	2.82088	0.79675
2795.000	3.69778	0.54395	2.80510	0.82457
2796.000	3.64069	0.50825	2.74790	0.76699
2797.000	3.68597	0.52411	2.79129	0.78286
2798.000	3.68597	0.54595	2.78143	0.78287
2799.000	3.68203	0.48242	2.76565	0.74711
2800.000	3.66825	0.53206	2.81299	0.74311
2801.000	3.71550	0.54990	2.73015	0.83257
2802.000	3.69975	0.55586	2.75974	0.72924
2803.000	3.65447	0.50825	2.78538	0.77293
2804.000	3.72535	0.55188	2.76763	0.73718
2805.000	3.65250	0.56780	2.73409	0.75508
2806.000	3.71747	0.55585	2.76171	0.81467
2807.000	3.65250	0.55589	2.78341	0.82061
2808.000	3.65644	0.57177	2.76960	0.77095
2809.000	3.67022	0.51816	2.73212	0.77098
2810.000	3.66825	0.53802	2.76368	0.76500
2811.000	3.67810	0.48243	2.79327	0.80471
2812.000	3.71156	0.48241	2.75382	0.73123
2813.000	3.73125	0.51019	2.78735	0.74710
2814.000	3.71944	0.50821	2.81102	0.71927
2815.000	3.69778	0.45065	2.78735	0.75306
2816.000	3.66431	0.48243	2.78341	0.72922
2817.000	3.70960	0.55387	2.79918	0.79080
2818.000	3.60524	0.49636	2.78932	0.77889
2819.000	3.70566	0.53799	2.78735	0.75306
2820.000	3.67219	0.49831	2.77157	0.83055
2821.000	3.68203	0.56977	2.75579	0.82659
2822.000	3.66825	0.52214	2.77552	0.76499
2823.000	3.67219	0.52213	2.80905	0.81662
2824.000	3.74109	0.49629	2.79721	0.76696
2825.000	3.68991	0.55984	2.77946	0.84247
2826.000	3.75094	0.47048	2.79524	0.75703
2827.000	3.67810	0.52411	2.80707	0.76696
2828.000	3.66431	0.56184	2.79918	0.75901
2829.000	3.65250	0.41296	2.80116	0.76497
2830.000	3.71156	0.53005	2.77749	0.85240
2831.000	3.66825	0.51022	2.79524	0.82060
2832.000	3.70172	0.50623	2.80313	0.83053
2833.000	3.67022	0.50030	2.77354	0.83850
2834.000	3.65644	0.53405	2.82088	0.78880
2835.000	3.66038	0.43677	2.77552	0.79876
2836.000	3.64856	0.49237	2.77946	0.79479
2837.000	3.68597	0.45860	2.80116	0.78881
2838.000	3.66431	0.54000	2.78143	0.77293
2839.000	3.70960	0.47645	2.81102	0.75503
2840.000	3.65644	0.44075	2.82285	0.82654
2841.000	3.68597	0.48441	2.76368	0.76698
2842.000	3.69975	0.50227	2.79918	0.78484
2843.000	3.68203	0.50426	2.75974	0.78487
2844.000	3.66825	0.52214	2.74790	0.72726
2845.000	3.74503	0.52408	2.77157	0.79479
2846.000	3.70960	0.51814	2.77157	0.82062
2847.000	3.64856	0.53406	2.78143	0.85041
2848.000	3.66038	0.50030	2.83666	0.80270
2849.000	3.62099	0.54599	2.82482	0.78284
2850.000	3.66825	0.56581	2.79721	0.78683
2851.000	3.63872	0.50230	2.80116	0.81464
2852.000	3.67613	0.48640	2.79129	0.72524
2853.000	3.65053	0.54398	2.80707	0.77490
2854.000	3.65053	0.56781	2.81102	0.74113
2855.000	3.69188	0.51220	2.81693	0.75702
2856.000	3.70763	0.52211	2.79918	0.78881
2857.000	3.64659	0.55590	2.81891	0.81661
2858.000	3.66628	0.50824	2.78341	0.75505
2859.000	3.72338	0.52806	2.80905	0.73517
2860.000	3.62493	0.53209	2.80707	0.76894
2861.000	3.69581	0.51616	2.79327	0.73915
2862.000	3.66431	0.51618	2.79327	0.76895
2863.000	3.68400	0.50823	2.78538	0.70339
2864.000	3.65841	0.55589	2.78932	0.72922
2865.000	3.66628	0.48640	2.81693	0.78284
2866.000	3.70172	0.53006	2.81496	0.68748
2867.000	3.64462	0.57377	2.77552	0.72724
2868.000	3.64069	0.58369	2.78341	0.71730
2869.000	3.64659	0.58369	2.82680	0.73516
2870.000	3.67810	0.57771	2.85835	0.73116
2871.000	3.68597	0.56183	2.80510	0.65570
2872.000	3.69581	0.56579	2.82088	0.71529
2873.000	3.65841	0.53604	2.85441	0.78282
2874.000	3.70369	0.59358	2.83468	0.71926
2875.000	3.65644	0.50229	2.83863	0.74707
2876.000	3.69581	0.52609	2.80116	0.74709
2877.000	3.71353	0.51615	2.81496	0.72722
2878.000	3.60918	0.56188	2.79918	0.76895
2879.000	3.70369	0.54395	2.83863	0.73912
2880.000	3.65447	0.53207	2.78538	0.79677
2881.000	3.73519	0.55981	2.80313	0.78086
2882.000	3.67613	0.55588	2.78735	0.76697
2883.000	3.66825	0.55985	2.86624	0.74904
2884.000	3.72731	0.52806	2.83074	0.76694
2885.000	3.65053	0.53207	2.83666	0.78084
2886.000	3.64069	0.51620	2.82285	0.74509
2887.000	3.70566	0.53601	2.85243	0.76891
2888.000	3.68597	0.55587	2.76960	0.71135
2889.000	3.67416	0.52610	2.80313	0.84841
2890.000	3.69385	0.49830	2.76565	0.76698
2891.000	3.69778	0.53006	2.80707	0.77093
2892.000	3.65841	0.53604	2.76171	0.81069
2893.000	3.69385	0.53205	2.80313	0.79676
2894.000	3.64856	0.56979	2.85243	0.74309
2895.000	3.69385	0.53602	2.76368	0.82261
2896.000	3.64856	0.52810	2.84060	0.71925
2897.000	3.64856	0.53604	2.78735	0.70737
2898.000	3.67022	0.56978	2.80313	0.78484
2899.000	3.66234	0.54596	2.81299	0.77092
2900.000	3.67613	0.52213	2.82680	0.80072
2901.000	3.67416	0.56978	2.85835	0.80864
2902.000	3.69385	0.58564	2.76763	0.76499
2903.000	3.65841	0.58567	2.79721	0.76895
2904.000	3.72338	0.59555	2.82482	0.73118
2905.000	3.66628	0.57971	2.82285	0.74708
2906.000	3.78637	0.63123	2.79918	0.78087
2907.000	3.66628	0.57772	2.80707	0.78484
2908.000	3.72338	0.54195	2.82680	0.79277
2909.000	3.69385	0.57572	2.84849	0.75501
2910.000	3.67416	0.58367	2.83074	0.71727
2911.000	3.63675	0.54995	2.81102	0.76099
2912.000	3.71944	0.53600	2.85638	0.75898
2913.000	3.71353	0.53005	2.79918	0.79676
2914.000	3.69188	0.56182	2.78735	0.70737
2915.000	3.63084	0.57377	2.79327	0.80074
2916.000	3.69385	0.55984	2.85441	0.77090
2917.000	3.70763	0.56975	2.83074	0.77489
2918.000	3.66628	0.53405	2.80313	0.74709
2919.000	3.68794	0.54992	2.79524	0.66961
2920.000	3.71747	0.55784	2.79129	0.67756
2921.000	3.65447	0.51420	2.82680	0.74509
2922.000	3.73322	0.56974	2.81299	0.75900
2923.000	3.70566	0.56182	2.84849	0.70733
2924.000	3.66234	0.55787	2.79327	0.72524
2925.000	3.71944	0.54990	2.83468	0.68747
2926.000	3.69581	0.57770	2.80707	0.73119
2927.000	3.70566	0.52211	2.79918	0.74709
2928.000	3.71747	0.52012	2.80905	0.73517
2929.000	3.68597	0.58565	2.81693	0.72721
2930.000	3.69778	0.52807	2.82482	0.69145
2931.000	3.65447	0.55788	2.85441	0.70335
2932.000	3.67613	0.52610	2.78143	0.74114
2933.000	3.69188	0.57373	2.76171	0.73917
2934.000	3.67022	0.57375	2.79524	0.75107
2935.000	3.68794	0.58168	2.79327	0.73716
2936.000	3.69581	0.56381	2.83271	0.71528
2937.000	3.75094	0.55782	2.83271	0.75303
2938.000	3.69385	0.54594	2.80313	0.74510
2939.000	3.67022	0.56779	2.80905	0.74907
2940.000	3.71944	0.55585	2.79129	0.74909
2941.000	3.73322	0.52210	2.81891	0.69741
2942.000	3.66431	0.57177	2.80313	0.71928
2943.000	3.73125	0.55386	2.81102	0.71331
2944.000	3.66628	0.54397	2.82285	0.74310
2945.000	3.65053	0.54001	2.83666	0.80071
2946.000	3.71944	0.60945	2.84060	0.72323
2947.000	3.74897	0.55186	2.85638	0.79275
2948.000	3.63281	0.54399	2.80905	0.82059
2949.000	3.71353	0.53402	2.75579	0.84248
2950.000	3.66628	0.57971	2.81891	0.78284
2951.000	3.70763	0.59358	2.76960	0.77691
2952.000	3.69975	0.56182	2.82680	0.75304
2953.000	3.70960	0.62930	2.83468	0.83051
2954.000	3.68991	0.60748	2.83468	0.81462
2955.000	3.73519	0.54592	2.78341	0.76697
2956.000	3.62690	0.60951	2.77157	0.78089
2957.000	3.72928	0.55982	2.77946	0.74115
2958.000	3.70369	0.62931	2.78735	0.77094
2959.000	3.66825	0.55390	2.82088	0.80271
2960.000	3.69778	0.58763	2.81891	0.74112
2961.000	3.70960	0.50027	2.78143	0.83055
2962.000	3.67810	0.55786	2.79327	0.84643
2963.000	3.72141	0.52806	2.79129	0.83451
2964.000	3.71550	0.58761	2.79327	0.77888
2965.000	3.72928	0.61540	2.80116	0.83053
2966.000	3.69581	0.58763	2.79721	0.79676
2967.000	3.65053	0.51818	2.84849	0.80865
2968.000	3.68794	0.60153	2.78143	0.75108
2969.000	3.64462	0.54200	2.73015	0.82065
2970.000	3.69581	0.60152	2.83271	0.77290
2971.000	3.69975	0.60152	2.75974	0.81864
2972.000	3.70369	0.61144	2.77552	0.77492
2973.000	3.73716	0.52408	2.79918	0.83649
2974.000	3.70369	0.58762	2.78735	0.81664
2975.000	3.72338	0.54592	2.79327	0.80670
2976.000	3.70172	0.56380	2.79918	0.79875
2977.000	3.69778	0.58564	2.75185	0.81865
2978.000	3.67022	0.55787	2.78932	0.77889
2979.000	3.76275	0.54391	2.79918	0.76299
2980.000	3.66038	0.54199	2.75974	0.79480
2981.000	3.63478	0.61546	2.78341	0.79677
2982.000	3.64265	0.58171	2.76763	0.79877
2983.000	3.73322	0.53599	2.72620	0.76899
2984.000	3.73125	0.59753	2.75382	0.71335
2985.000	3.62887	0.57775	2.73409	0.68157
2986.000	3.61903	0.58768	2.68675	0.72133
2987.000	3.50480	0.55995	2.58614	0.66973
2988.000	3.43783	0.48454	2.62165	0.72336
2989.000	3.30189	0.52035	2.53287	0.57834
2990.000	3.14226	0.37742	2.52497	0.53661
2991.000	3.01609	0.37945	2.44407	0.46907
2992.000	2.86229	0.35963	2.31776	0.39159
2993.000	2.75776	0.25236	2.20722	0.28030
2994.000	2.61968	0.21265	2.07889	0.25249
2995.000	2.53681	0.11726	2.06902	0.15110
2996.000	2.38289	0.05963	1.90710	0.11333
2997.000	2.25460	0.00000	1.75305	0.00795
2998.000	2.13023	-0.00994	1.65824	-0.09943
2999.000	1.95647	-0.13719	1.56540	-0.19489
3000.000	1.92883	-0.17099	1.51798	-0.21876
3001.000	1.85576	-0.22469	1.38166	-0.32219
3002.000	1.73133	-0.32810	1.27298	-0.24663
3003.000	1.67009	-0.36987	1.16627	-0.36001
3004.000	1.63849	-0.34403	1.03781	-0.45947
3005.000	1.52984	-0.49717	0.99038	-0.48534
3006.000	1.49823	-0.58070	0.88563	-0.49928
3007.000	1.30460	-0.55290	0.74726	-0.49333
3008.000	1.22555	-0.58076	0.67017	-0.55500
3009.000	1.06351	-0.61660	0.57133	-0.57888
3010.000	0.97062	-0.63650	0.43296	-0.60674
3011.000	0.84214	-0.70614	0.36574	-0.66642
3012.000	0.77296	-0.76582	0.21549	-0.78975
3013.000	0.71366	-0.78174	0.21352	-0.74599
3014.000	0.63459	-0.84142	0.11664	-0.87926
3015.000	0.60099	-0.86131	0.07315	-0.82357
3016.000	0.52982	-0.87127	-0.02768	-0.82357
3017.000	0.50215	-0.88718	-0.05338	-0.91506
3018.000	0.49424	-0.83348	-0.12850	-0.79174
3019.000	0.49028	-0.87724	-0.13641	-0.80368
3020.000	0.53180	-0.86132	-0.10083	-0.79970
3021.000	0.51994	-0.88519	-0.11071	-0.75196
3022.000	0.56343	-0.83149	-0.06524	-0.71815
3023.000	0.63855	-0.81556	-0.02372	-0.70820
3024.000	0.65634	-0.87125	-0.05338	-0.71218
3025.000	0.74133	-0.82947	-0.00989	-0.65847
3026.000	0.78284	-0.76383	0.00000	-0.64057
3027.000	0.82831	-0.74990	0.05733	-0.58288
3028.000	0.85203	-0.71608	0.02570	-0.59880
3029.000	0.87970	-0.67033	0.02768	-0.58885
3030.000	0.96469	-0.69219	0.02570	-0.61670
3031.000	0.91725	-0.69021	0.03954	-0.59681
3032.000	0.87377	-0.63652	0.00593	-0.64057
3033.000	0.91330	-0.71806	-0.03163	-0.67240
3034.000	0.87772	-0.74193	0.03756	-0.65052
3035.000	0.91132	-0.68027	-0.00791	-0.59681
3036.000	0.84412	-0.67829	-0.00989	-0.63063
3037.000	0.83028	-0.71410	-0.00593	-0.64654
3038.000	0.87574	-0.63652	-0.02570	-0.62665
3039.000	0.89946	-0.71408	0.01582	-0.66245
3040.000	0.84807	-0.73796	0.02570	-0.70820
3041.000	0.85993	-0.68426	0.00000	-0.68433
3042.000	0.83226	-0.69222	0.03559	-0.65847
3043.000	0.95085	-0.72203	0.02570	-0.70820
3044.000	0.89353	-0.73397	0.06722	-0.81959
3045.000	0.88563	-0.64646	0.05931	-0.70621
3046.000	0.87179	-0.70812	0.03361	-0.73207
3047.000	0.91527	-0.72601	-0.01582	-0.67240
3048.000	0.90539	-0.73397	0.01186	-0.74600
3049.000	0.88760	-0.75187	-0.00395	-0.71417
3050.000	0.87970	-0.67232	-0.03361	-0.76390
3051.000	0.83028	-0.78172	-0.03361	-0.74401
3052.000	0.81447	-0.73200	-0.01384	-0.72412
3053.000	0.89946	-0.71209	-0.04152	-0.74600
3054.000	0.87377	-0.67431	-0.09094	-0.67041
3055.000	0.84807	-0.75188	-0.03163	-0.74401
3056.000	0.85400	-0.71807	-0.04349	-0.74600
3057.000	0.85993	-0.72801	-0.04152	-0.73406
3058.000	0.82831	-0.73995	-0.01582	-0.78976
3059.000	0.79866	-0.67233	-0.05140	-0.72213
3060.000	0.82633	-0.68227	-0.07117	-0.79970
3061.000	0.83621	-0.72802	-0.05140	-0.80965
3062.000	0.85598	-0.71011	-0.07315	-0.76191
3063.000	0.81052	-0.72802	-0.08897	-0.74401
3064.000	0.87772	-0.73795	-0.11071	-0.78777
3065.000	0.89551	-0.70613	-0.07710	-0.76788
3066.000	0.84412	-0.68426	-0.12257	-0.74599
3067.000	0.84807	-0.69619	-0.03163	-0.75196
3068.000	0.86981	-0.65044	-0.07117	-0.74401
3069.000	0.85598	-0.69221	-0.10280	-0.82556
3070.000	0.80854	-0.62659	-0.06920	-0.75395
3071.000	0.87179	-0.71011	-0.07513	-0.82556
3072.000	0.81447	-0.66636	-0.12653	-0.81760
3073.000	0.88563	-0.70414	-0.07908	-0.79970
3074.000	0.81052	-0.65642	-0.03163	-0.83352
3075.000	0.84807	-0.77177	-0.10083	-0.81163
3076.000	0.85400	-0.68426	-0.11071	-0.80368
3077.000	0.82831	-0.68625	-0.05536	-0.82556
3078.000	0.82040	-0.64846	-0.07710	-0.76589
3079.000	0.79470	-0.70615	-0.10083	-0.76986
3080.000	0.83621	-0.75984	-0.11664	-0.84943
3081.000	0.77691	-0.68427	-0.09885	-0.74003
3082.000	0.80656	-0.70217	-0.10280	-0.78578
3083.000	0.78482	-0.70217	-0.05338	-0.83153
3084.000	0.83424	-0.68625	-0.10083	-0.77185
3085.000	0.84610	-0.74393	-0.12060	-0.79970
3086.000	0.84412	-0.73597	-0.08106	-0.79771
3087.000	0.82435	-0.73399	-0.10478	-0.78379
3088.000	0.84214	-0.75387	-0.15618	-0.81163
3089.000	0.79866	-0.66438	-0.14037	-0.83152
3090.000	0.79668	-0.73996	-0.13048	-0.77583
3091.000	0.84412	-0.71210	-0.10874	-0.77782
3092.000	0.81447	-0.68824	-0.12850	-0.74997
3093.000	0.79470	-0.72007	-0.12455	-0.76787
3094.000	0.83424	-0.74990	-0.13048	-0.78180
3095.000	0.81249	-0.77575	-0.11071	-0.81163
3096.000	0.82633	-0.70614	-0.14037	-0.82953
3097.000	0.79866	-0.73996	-0.13048	-0.80766
3098.000	0.79273	-0.76383	-0.13839	-0.70820
3099.000	0.87970	-0.74591	-0.13048	-0.83948
3100.000	0.83819	-0.72205	-0.14630	-0.80368
3101.000	0.83621	-0.73398	-0.14234	-0.78180
3102.000	0.79668	-0.78570	-0.14630	-0.79174
3103.000	0.82435	-0.73001	-0.16409	-0.75992
3104.000	0.83621	-0.65840	-0.13444	-0.82158
3105.000	0.78877	-0.71410	-0.15421	-0.79572
3106.000	0.76110	-0.69422	-0.10874	-0.81362
3107.000	0.77691	-0.76582	-0.16804	-0.76390
3108.000	0.88365	-0.73596	-0.10280	-0.80169
3109.000	0.84807	-0.68028	-0.13246	-0.81959
3110.000	0.83424	-0.73796	-0.15618	-0.79572
3111.000	0.82040	-0.71609	-0.17200	-0.81959
3112.000	0.81645	-0.68824	-0.17398	-0.78577
3113.000	0.80459	-0.74592	-0.11862	-0.77185
3114.000	0.77494	-0.69819	-0.13641	-0.78777
3115.000	0.76703	-0.72007	-0.14432	-0.80964
3116.000	0.79470	-0.73200	-0.13048	-0.77782
3117.000	0.81052	-0.71808	-0.11862	-0.78975
3118.000	0.79470	-0.71012	-0.14827	-0.82953
3119.000	0.77296	-0.74792	-0.13641	-0.78180
3120.000	0.82831	-0.73001	-0.16804	-0.84743
3121.000	0.78680	-0.76582	-0.16607	-0.81362
3122.000	0.77494	-0.72803	-0.14432	-0.85340
3123.000	0.86191	-0.75387	-0.14630	-0.81163
3124.000	0.80261	-0.71410	-0.14037	-0.76787
3125.000	0.80854	-0.71609	-0.16804	-0.81959
3126.000	0.81249	-0.75786	-0.18584	-0.78379
3127.000	0.80063	-0.81951	-0.17200	-0.76390
3128.000	0.85400	-0.79166	-0.19177	-0.78776
3129.000	0.79470	-0.72802	-0.16607	-0.75793
3130.000	0.84017	-0.73001	-0.16409	-0.79970
3131.000	0.77691	-0.79963	-0.18979	-0.77583
3132.000	0.76703	-0.77179	-0.18386	-0.80964
3133.000	0.83819	-0.72802	-0.11269	-0.74003
3134.000	0.76505	-0.71610	-0.19177	-0.76986
3135.000	0.84412	-0.78370	-0.12850	-0.72610
3136.000	0.76308	-0.78173	-0.20956	-0.77782
3137.000	0.80656	-0.78968	-0.09490	-0.74401
3138.000	0.78284	-0.78570	-0.21549	-0.78975
3139.000	0.79075	-0.79565	-0.16211	-0.77981
3140.000	0.82040	-0.81354	-0.15816	-0.81362
3141.000	0.84017	-0.75984	-0.14827	-0.72212
3142.000	0.81249	-0.75786	-0.14432	-0.77782
3143.000	0.74529	-0.76980	-0.15816	-0.75992
3144.000	0.80261	-0.79366	-0.11467	-0.74003
3145.000	0.79470	-0.81355	-0.18188	-0.81760
3146.000	0.83819	-0.75387	-0.15421	-0.82755
3147.000	0.80656	-0.79564	-0.19375	-0.80964
3148.000	0.78680	-0.74792	-0.17002	-0.81561
3149.000	0.79668	-0.75587	-0.13444	-0.74401
3150.000	0.77889	-0.73002	-0.17595	-0.76389
3151.000	0.81249	-0.75189	-0.15223	-0.80169
3152.000	0.78482	-0.71609	-0.12850	-0.78578
3153.000	0.78284	-0.72604	-0.13839	-0.79572
3154.000	0.76901	-0.80361	-0.19375	-0.80765
3155.000	0.74133	-0.77378	-0.11862	-0.74798
3156.000	0.78877	-0.82349	-0.11664	-0.86136
3157.000	0.78482	-0.77974	-0.15618	-0.77782
3158.000	0.76308	-0.76781	-0.12653	-0.76191
3159.000	0.81249	-0.74791	-0.16804	-0.79970
3160.000	0.75319	-0.73201	-0.22142	-0.78975
3161.000	0.80854	-0.77377	-0.13246	-0.77782
3162.000	0.79273	-0.79764	-0.13444	-0.78578
3163.000	0.77889	-0.77178	-0.19177	-0.83152
3164.000	0.80656	-0.76979	-0.16607	-0.81760
3165.000	0.79470	-0.79366	-0.17398	-0.82556
3166.000	0.80459	-0.78570	-0.19572	-0.81959
3167.000	0.84017	-0.76978	-0.18188	-0.81760
3168.000	0.79273	-0.73797	-0.17991	-0.84545
3169.000	0.81447	-0.74592	-0.14827	-0.77583
3170.000	0.83621	-0.72404	-0.13048	-0.85539
3171.000	0.77889	-0.80758	-0.18386	-0.82158
3172.000	0.81249	-0.71211	-0.16211	-0.79572
3173.000	0.77889	-0.76582	-0.18386	-0.75793
3174.000	0.80459	-0.74592	-0.18386	-0.77384
3175.000	0.79273	-0.73598	-0.17793	-0.80765
3176.000	0.80854	-0.72404	-0.17398	-0.77384
3177.000	0.79866	-0.77974	-0.15816	-0.76390
3178.000	0.86191	-0.72006	-0.15025	-0.73406
3179.000	0.85005	-0.68227	-0.20758	-0.78776
3180.000	0.77494	-0.74991	-0.15421	-0.80765
3181.000	0.79470	-0.74195	-0.16211	-0.78776
3182.000	0.79075	-0.76780	-0.16607	-0.76986
3183.000	0.78087	-0.80361	-0.15223	-0.82755
3184.000	0.80063	-0.78968	-0.15816	-0.82357
3185.000	0.76901	-0.72206	-0.12060	-0.78180
3186.000	0.81447	-0.73598	-0.12060	-0.77981
3187.000	0.84017	-0.75387	-0.16804	-0.83152
3188.000	0.82633	-0.78967	-0.17002	-0.78975
3189.000	0.85796	-0.69420	-0.11467	-0.78180
3190.000	0.82238	-0.79365	-0.13839	-0.75395
3191.000	0.82238	-0.69620	-0.18979	-0.79771
3192.000	0.81249	-0.73399	-0.15421	-0.77384
3193.000	0.81842	-0.72802	-0.16014	-0.75793
3194.000	0.77691	-0.80758	-0.16211	-0.76588
3195.000	0.81052	-0.74194	-0.19177	-0.72212
3196.000	0.79668	-0.76184	-0.15025	-0.74997
3197.000	0.86191	-0.73000	-0.13048	-0.83749
3198.000	0.83028	-0.71807	-0.16607	-0.79572
3199.000	0.77889	-0.72604	-0.20758	-0.83351
3200.000	0.78087	-0.78571	-0.18188	-0.76588
3201.000	0.77494	-0.73201	-0.13246	-0.76787
3202.000	0.80459	-0.75587	-0.14827	-0.75793
3203.000	0.82831	-0.75785	-0.18386	-0.79174
3204.000	0.79470	-0.72206	-0.14630	-0.76390
3205.000	0.85796	-0.67630	-0.16409	-0.78379
3206.000	0.83621	-0.71409	-0.18386	-0.76389
3207.000	0.77691	-0.74593	-0.17398	-0.79373
3208.000	0.76308	-0.71013	-0.17793	-0.75196
3209.000	0.85993	-0.72403	-0.19177	-0.78378
3210.000	0.81249	-0.75189	-0.17991	-0.75594
3211.000	0.77098	-0.68427	-0.14037	-0.73804
3212.000	0.82238	-0.67631	-0.17200	-0.78577
3213.000	0.82633	-0.77973	-0.18386	-0.78776
3214.000	0.79668	-0.73598	-0.13839	-0.80169
3215.000	0.86191	-0.71608	-0.15421	-0.81959
3216.000	0.79075	-0.75985	-0.14630	-0.79174
3217.000	0.82831	-0.73597	-0.19177	-0.81760
3218.000	0.81249	-0.74990	-0.17200	-0.80169
3219.000	0.80063	-0.73598	-0.15816	-0.77583
3220.000	0.80854	-0.78968	-0.13444	-0.77384
3221.000	0.81842	-0.71410	-0.12850	-0.78180
3222.000	0.80261	-0.73598	-0.16607	-0.79572
3223.000	0.84807	-0.67233	-0.20561	-0.82555
3224.000	0.77494	-0.71808	-0.18781	-0.82953
3225.000	0.81645	-0.71808	-0.15618	-0.82953
3226.000	0.75715	-0.73400	-0.16211	-0.79771
3227.000	0.79668	-0.75587	-0.19177	-0.83152
3228.000	0.77098	-0.81554	-0.17595	-0.85738
3229.000	0.83424	-0.67233	-0.20758	-0.83152
3230.000	0.84412	-0.75188	-0.18188	-0.79771
3231.000	0.82633	-0.75189	-0.20165	-0.87130
3232.000	0.77494	-0.74195	-0.17200	-0.83152
3233.000	0.78087	-0.80559	-0.16014	-0.78975
3234.000	0.80656	-0.77178	-0.16409	-0.83351
3235.000	0.77691	-0.78372	-0.19770	-0.81959
3236.000	0.80656	-0.73797	-0.17398	-0.79771
3237.000	0.85005	-0.73796	-0.16409	-0.77981
3238.000	0.80854	-0.79564	-0.15223	-0.81760
3239.000	0.75517	-0.78372	-0.18781	-0.79572
3240.000	0.76703	-0.78173	-0.19572	-0.81163
3241.000	0.76505	-0.72007	-0.20165	-0.84942
3242.000	0.81645	-0.75587	-0.14234	-0.83749
3243.000	0.77691	-0.72405	-0.20758	-0.84147
3244.000	0.74133	-0.77577	-0.20956	-0.82754
3245.000	0.83424	-0.73796	-0.16211	-0.82556
3246.000	0.76110	-0.74394	-0.14037	-0.85738
3247.000	0.77494	-0.74593	-0.17991	-0.83550
3248.000	0.74133	-0.77975	-0.15223	-0.80964
3249.000	0.80459	-0.73598	-0.20956	-0.79771
3250.000	0.82238	-0.75984	-0.12060	-0.76589
3251.000	0.81052	-0.73598	-0.19177	-0.80765
3252.000	0.75122	-0.73798	-0.16607	-0.79771
3253.000	0.78680	-0.73996	-0.16607	-0.78776
3254.000	0.75122	-0.74991	-0.13839	-0.79572
3255.000	0.80656	-0.77178	-0.20758	-0.77981
3256.000	0.76110	-0.75190	-0.17002	-0.84545
3257.000	0.77889	-0.71808	-0.18584	-0.77583
3258.000	0.81249	-0.70217	-0.16211	-0.77185
3259.000	0.79273	-0.69421	-0.16607	-0.76986
3260.000	0.80063	-0.73001	-0.15421	-0.80567
3261.000	0.76703	-0.70416	-0.19177	-0.79771
3262.000	0.82831	-0.67631	-0.17398	-0.77782
3263.000	0.80854	-0.69620	-0.17002	-0.82158
3264.000	0.83424	-0.71211	-0.18781	-0.83749
3265.000	0.81447	-0.71609	-0.19177	-0.80566
3266.000	0.81447	-0.69819	-0.15223	-0.80567
3267.000	0.79273	-0.72802	-0.14234	-0.82755
3268.000	0.78482	-0.72803	-0.15025	-0.80567
3269.000	0.82633	-0.73200	-0.16607	-0.78180
3270.000	0.86981	-0.74989	-0.18979	-0.81362
3271.000	0.80459	-0.77775	-0.16607	-0.78577
3272.000	0.79273	-0.76184	-0.17991	-0.79572
3273.000	0.85203	-0.76779	-0.16607	-0.79174
3274.000	0.76110	-0.76582	-0.19375	-0.78180
3275.000	0.77494	-0.77775	-0.15223	-0.80169
3276.000	0.79668	-0.76780	-0.19968	-0.79373
3277.000	0.80459	-0.77377	-0.16211	-0.84545
3278.000	0.75122	-0.74195	-0.17793	-0.79373
3279.000	0.70575	-0.79566	-0.17991	-0.81959
3280.000	0.79273	-0.75985	-0.22538	-0.82157
3281.000	0.79273	-0.75388	-0.19968	-0.79771
3282.000	0.76505	-0.80759	-0.19770	-0.82555
3283.000	0.82831	-0.70813	-0.20363	-0.87329
3284.000	0.78087	-0.74792	-0.17595	-0.82357
3285.000	0.84214	-0.73199	-0.16409	-0.80169
3286.000	0.83819	-0.72802	-0.16014	-0.87329
3287.000	0.74924	-0.78173	-0.13246	-0.81163
3288.000	0.79273	-0.68228	-0.17200	-0.78180
3289.000	0.84610	-0.74989	-0.22142	-0.79373
3290.000	0.79668	-0.76780	-0.14234	-0.80766
3291.000	0.80854	-0.76581	-0.16014	-0.81163
3292.000	0.84017	-0.74791	-0.16607	-0.73605
3293.000	0.80854	-0.73200	-0.14432	-0.78776
3294.000	0.78087	-0.72007	-0.17991	-0.85738
3295.000	0.82040	-0.76581	-0.17200	-0.87528
3296.000	0.79470	-0.71211	-0.14432	-0.76787
3297.000	0.80063	-0.74990	-0.17595	-0.77782
3298.000	0.76703	-0.76781	-0.12257	-0.79970
3299.000	0.82435	-0.69421	-0.14827	-0.84147
3300.000	0.76308	-0.73400	-0.15816	-0.82755
3301.000	0.77691	-0.73996	-0.20561	-0.85141
3302.000	0.78877	-0.72206	-0.17793	-0.84346
3303.000	0.83819	-0.75785	-0.20165	-0.87528
3304.000	0.81052	-0.73001	-0.11664	-0.84545
3305.000	0.85598	-0.73199	-0.21549	-0.82555
3306.000	0.83621	-0.73796	-0.16211	-0.82754
3307.000	0.81052	-0.74592	-0.18584	-0.83749
3308.000	0.86388	-0.72403	-0.15421	-0.85340
3309.000	0.77691	-0.73996	-0.22340	-0.79373
3310.000	0.86981	-0.70414	-0.18584	-0.79572
3311.000	0.82040	-0.73399	-0.18781	-0.81760
3312.000	0.73343	-0.73400	-0.19572	-0.88721
3313.000	0.82435	-0.73200	-0.18188	-0.78975
3314.000	0.79273	-0.80360	-0.18979	-0.81163
3315.000	0.76901	-0.75389	-0.17793	-0.77185
3316.000	0.83226	-0.69421	-0.20363	-0.81959
3317.000	0.82040	-0.73995	-0.19770	-0.83351
3318.000	0.83028	-0.69818	-0.21154	-0.82158
3319.000	0.84214	-0.72006	-0.19572	-0.79970
3320.000	0.85598	-0.71807	-0.19375	-0.79970
3321.000	0.86191	-0.71409	-0.15025	-0.82357
3322.000	0.84412	-0.72205	-0.18386	-0.83550
3323.000	0.80459	-0.73996	-0.20165	-0.82555
3324.000	0.80063	-0.77576	-0.19375	-0.85141
3325.000	0.77098	-0.75190	-0.19572	-0.79174
3326.000	0.79273	-0.74791	-0.20956	-0.83351
3327.000	0.81052	-0.68029	-0.21945	-0.80566
3328.000	0.81842	-0.77376	-0.17595	-0.80566
3329.000	0.82040	-0.75388	-0.16607	-0.81163
3330.000	0.85005	-0.73597	-0.15618	-0.84942
3331.000	0.78087	-0.69819	-0.21352	-0.82953
3332.000	0.84214	-0.62857	-0.16211	-0.75793
3333.000	0.84017	-0.73001	-0.16211	-0.81760
3334.000	0.82040	-0.72802	-0.20165	-0.83550
3335.000	0.78482	-0.75587	-0.15223	-0.85539
3336.000	0.81842	-0.72006	-0.19572	-0.79572
3337.000	0.79668	-0.74791	-0.21154	-0.88920
3338.000	0.80854	-0.73996	-0.20758	-0.83351
3339.000	0.80656	-0.76581	-0.20561	-0.82555
3340.000	0.79866	-0.68626	-0.20363	-0.81163
3341.000	0.76901	-0.74991	-0.19177	-0.84743
3342.000	0.75122	-0.73599	-0.21352	-0.87727
3343.000	0.80854	-0.73797	-0.15223	-0.79572
3344.000	0.84214	-0.69023	-0.20561	-0.87926
3345.000	0.84214	-0.73199	-0.15025	-0.79970
3346.000	0.80063	-0.74393	-0.15816	-0.83948
3347.000	0.85203	-0.72801	-0.21352	-0.86136
3348.000	0.81645	-0.74592	-0.20165	-0.85937
3349.000	0.82040	-0.72404	-0.14432	-0.85937
3350.000	0.84807	-0.74989	-0.21747	-0.83948
3351.000	0.76505	-0.75587	-0.20561	-0.88125
3352.000	0.82435	-0.72006	-0.20956	-0.82158
3353.000	0.83819	-0.74791	-0.22933	-0.80168
3354.000	0.78284	-0.74990	-0.18188	-0.81959
3355.000	0.85203	-0.79762	-0.21747	-0.82953
3356.000	0.72750	-0.80958	-0.21747	-0.85141
3357.000	0.76901	-0.70416	-0.21352	-0.82555
3358.000	0.82238	-0.71808	-0.17793	-0.85937
3359.000	0.74331	-0.74394	-0.17398	-0.84346
3360.000	0.84412	-0.71210	-0.27876	-0.86931
3361.000	0.81249	-0.75587	-0.22538	-0.86135
3362.000	0.79866	-0.78570	-0.19572	-0.79373
3363.000	0.79668	-0.77974	-0.17002	-0.86534
3364.000	0.79866	-0.77377	-0.17991	-0.89119
3365.000	0.86784	-0.73000	-0.17793	-0.82754
3366.000	0.83621	-0.75785	-0.21352	-0.84147
3367.000	0.79075	-0.76383	-0.23131	-0.84942
3368.000	0.77098	-0.72007	-0.22933	-0.84345
3369.000	0.86586	-0.75387	-0.23724	-0.84544
3370.000	0.79668	-0.77974	-0.23922	-0.84544
3371.000	0.81842	-0.75984	-0.15223	-0.79572
3372.000	0.75122	-0.69422	-0.16409	-0.81760
3373.000	0.81645	-0.72205	-0.23329	-0.83152
3374.000	0.80656	-0.76581	-0.20956	-0.83749
3375.000	0.79866	-0.74592	-0.19770	-0.82357
3376.000	0.82238	-0.72205	-0.17793	-0.83550
3377.000	0.79866	-0.77775	-0.25305	-0.86533
3378.000	0.78680	-0.69024	-0.21154	-0.82754
3379.000	0.83028	-0.74791	-0.23329	-0.87727
3380.000	0.84412	-0.75387	-0.24515	-0.88124
3381.000	0.81842	-0.75189	-0.22933	-0.85141
3382.000	0.84017	-0.76779	-0.19572	-0.92500
3383.000	0.84214	-0.78768	-0.24910	-0.85738
3384.000	0.84610	-0.74393	-0.20363	-0.86533
3385.000	0.80261	-0.71808	-0.24910	-0.86135
3386.000	0.84610	-0.72802	-0.21154	-0.82953
3387.000	0.83621	-0.76978	-0.23724	-0.90511
3388.000	0.85400	-0.75387	-0.21747	-0.89318
3389.000	0.81052	-0.86923	-0.21549	-0.89517
3390.000	0.80063	-0.76780	-0.23526	-0.90312
3391.000	0.78680	-0.81753	-0.26492	-0.88124
3392.000	0.79075	-0.74791	-0.26294	-0.93295
3393.000	0.82238	-0.78769	-0.27282	-0.89516
3394.000	0.80459	-0.77377	-0.27282	-0.92500
3395.000	0.85598	-0.75188	-0.24712	-0.91505
3396.000	0.88760	-0.71607	-0.25305	-0.89516
3397.000	0.80261	-0.76183	-0.20165	-0.88721
3398.000	0.83028	-0.71807	-0.23724	-0.85340
3399.000	0.86784	-0.78768	-0.25108	-0.89119
3400.000	0.85796	-0.75387	-0.25701	-0.91108
3401.000	0.94492	-0.67827	-0.23724	-0.91704
3402.000	0.90144	-0.71607	-0.24515	-0.91505
3403.000	0.89156	-0.71011	-0.21945	-0.91307
3404.000	0.81052	-0.78172	-0.25108	-0.92500
3405.000	0.89551	-0.74988	-0.31039	-0.91306
3406.000	0.92911	-0.80755	-0.26689	-0.88920
3407.000	0.79866	-0.72007	-0.28073	-0.90113
3408.000	0.87179	-0.77177	-0.26492	-0.92699
3409.000	0.85598	-0.80757	-0.29852	-0.88919
3410.000	0.85796	-0.74194	-0.26492	-0.88721
3411.000	0.83028	-0.74791	-0.30248	-0.89516
3412.000	0.86981	-0.73398	-0.25701	-0.87329
3413.000	0.82435	-0.81752	-0.17200	-0.86931
3414.000	0.82435	-0.80559	-0.26689	-0.88323
3415.000	0.84214	-0.79564	-0.26887	-0.90511
3416.000	0.84214	-0.71012	-0.29655	-0.87726
3417.000	0.87377	-0.73398	-0.27480	-0.83351
3418.000	0.80261	-0.77775	-0.24119	-0.91506
3419.000	0.86388	-0.77574	-0.27282	-0.83152
3420.000	0.81645	-0.76979	-0.20956	-0.88920
3421.000	0.86784	-0.72204	-0.25305	-0.84146
3422.000	0.79470	-0.78570	-0.24317	-0.87925
3423.000	0.86388	-0.72403	-0.24515	-0.88124
3424.000	0.83424	-0.74990	-0.30643	-0.88522
3425.000	0.82238	-0.76979	-0.28864	-0.90908
3426.000	0.87772	-0.82148	-0.29259	-0.87129
3427.000	0.79866	-0.85531	-0.24910	-0.91307
3428.000	0.88760	-0.74392	-0.25503	-0.87130
3429.000	0.84214	-0.74393	-0.24910	-0.83351
3430.000	0.85993	-0.75586	-0.26492	-0.83748
3431.000	0.84412	-0.77774	-0.30841	-0.84146
3432.000	0.84807	-0.72205	-0.28073	-0.80367
3433.000	0.81052	-0.77973	-0.25503	-0.85141
3434.000	0.87179	-0.82944	-0.21549	-0.82953
3435.000	0.80261	-0.73797	-0.23922	-0.83749
3436.000	0.84610	-0.78768	-0.25701	-0.84544
3437.000	0.87970	-0.70414	-0.24712	-0.84345
3438.000	0.88958	-0.80955	-0.23724	-0.86334
3439.000	0.81645	-0.73598	-0.24910	-0.85141
3440.000	0.88563	-0.75585	-0.27085	-0.86334
3441.000	0.83424	-0.79564	-0.24515	-0.88522
3442.000	0.80656	-0.72802	-0.23329	-0.80964
3443.000	0.82633	-0.72603	-0.26096	-0.86135
3444.000	0.85203	-0.73597	-0.23131	-0.89318
3445.000	0.85203	-0.78967	-0.21352	-0.84743
3446.000	0.89353	-0.70812	-0.25108	-0.89715
3447.000	0.85993	-0.73000	-0.24910	-0.91307
3448.000	0.85993	-0.71210	-0.25305	-0.91704
3449.000	0.80063	-0.73598	-0.30841	-0.86930
3450.000	0.82831	-0.80757	-0.23329	-0.86533
3451.000	0.87772	-0.73199	-0.23922	-0.90909
3452.000	0.83226	-0.76382	-0.24712	-0.86931
3453.000	0.89353	-0.75187	-0.26294	-0.86732
3454.000	0.82435	-0.74791	-0.27085	-0.83351
3455.000	0.87772	-0.73596	-0.26096	-0.89516
3456.000	0.80459	-0.75388	-0.24712	-0.92898
3457.000	0.80063	-0.75786	-0.25899	-0.95085
3458.000	0.82040	-0.75388	-0.22735	-0.84942
3459.000	0.82238	-0.71609	-0.23724	-0.90710
3460.000	0.77098	-0.74991	-0.24712	-0.89318
3461.000	0.82633	-0.72404	-0.20561	-0.87528
3462.000	0.81645	-0.75785	-0.26492	-0.89318
3463.000	0.81842	-0.75388	-0.25108	-0.90312
3464.000	0.77296	-0.75190	-0.21747	-0.87130
3465.000	0.80656	-0.73797	-0.25305	-0.84942
3466.000	0.75715	-0.78571	-0.24515	-0.84544
3467.000	0.82040	-0.72802	-0.24317	-0.86931
3468.000	0.81052	-0.76979	-0.21945	-0.86732
3469.000	0.87179	-0.74989	-0.27876	-0.88721
3470.000	0.78680	-0.72604	-0.23329	-0.91108
3471.000	0.87970	-0.73000	-0.18386	-0.89119
3472.000	0.80459	-0.80161	-0.20956	-0.81959
3473.000	0.84412	-0.76183	-0.26294	-0.90312
3474.000	0.80854	-0.72404	-0.23922	-0.96279
3475.000	0.77098	-0.74195	-0.20758	-0.94489
3476.000	0.77296	-0.76383	-0.21747	-0.88721
3477.000	0.81842	-0.77973	-0.23329	-0.92500
3478.000	0.84017	-0.75785	-0.23329	-0.84146
3479.000	0.80854	-0.79962	-0.23922	-0.87130
3480.000	0.76703	-0.74991	-0.25305	-0.84146
3481.000	0.84807	-0.79365	-0.21352	-0.79572
3482.000	0.78284	-0.74394	-0.24317	-0.85738
3483.000	0.80854	-0.73996	-0.22340	-0.81959
3484.000	0.87970	-0.72801	-0.19177	-0.83152
3485.000	0.85598	-0.74989	-0.27480	-0.76588
3486.000	0.81842	-0.73200	-0.26096	-0.80964
3487.000	0.78680	-0.73001	-0.24712	-0.85539
3488.000	0.77296	-0.76781	-0.26096	-0.83947
3489.000	0.85005	-0.74393	-0.22735	-0.89914
3490.000	0.82633	-0.71012	-0.25305	-0.80168
3491.000	0.81249	-0.72802	-0.25108	-0.91903
3492.000	0.84610	-0.74393	-0.21549	-0.84147
3493.000	0.80459	-0.69819	-0.26492	-0.85539
3494.000	0.82633	-0.74592	-0.24712	-0.81760
3495.000	0.80261	-0.76979	-0.23526	-0.81561
3496.000	0.80261	-0.71609	-0.26887	-0.81362
3497.000	0.82238	-0.72802	-0.23724	-0.82356
3498.000	0.81052	-0.78769	-0.25305	-0.78577
3499.000	0.81249	-0.74592	-0.21352	-0.89318
3500.000	0.81645	-0.76382	-0.23329	-0.86135
3501.000	0.83226	-0.77774	-0.24910	-0.87528
3502.000	0.84610	-0.69619	-0.21549	-0.87130
3503.000	0.85400	-0.72602	-0.21945	-0.86135
3504.000	0.84017	-0.73597	-0.21154	-0.87528
3505.000	0.78284	-0.70615	-0.20561	-0.85539
3506.000	0.82831	-0.68227	-0.22142	-0.88124
3507.000	0.83028	-0.75586	-0.23329	-0.89716
3508.000	0.84412	-0.76978	-0.26294	-0.89119
3509.000	0.83028	-0.72404	-0.23131	-0.85141
3510.000	0.85005	-0.74989	-0.26887	-0.83351
3511.000	0.80459	-0.75189	-0.27678	-0.87130
3512.000	0.79273	-0.74394	-0.23724	-0.91903
3513.000	0.82831	-0.71807	-0.27876	-0.85340
3514.000	0.79668	-0.77178	-0.25503	-0.91307
3515.000	0.84807	-0.78768	-0.18979	-0.83550
3516.000	0.87377	-0.78569	-0.20561	-0.84544
3517.000	0.81645	-0.76979	-0.23329	-0.84743
3518.000	0.79273	-0.74195	-0.21549	-0.80367
3519.000	0.78482	-0.79167	-0.24119	-0.84743
3520.000	0.83424	-0.73995	-0.30050	-0.87129
3521.000	0.76110	-0.73996	-0.23922	-0.85340
3522.000	0.78877	-0.75786	-0.22735	-0.83749
3523.000	0.77296	-0.70615	-0.24119	-0.84345
3524.000	0.86191	-0.78768	-0.25305	-0.77980
3525.000	0.83226	-0.78172	-0.26096	-0.78577
3526.000	0.76308	-0.72206	-0.21352	-0.83550
3527.000	0.80459	-0.70018	-0.23922	-0.83749
3528.000	0.78680	-0.76780	-0.22933	-0.76389
3529.000	0.84412	-0.77376	-0.23526	-0.77782
3530.000	0.74924	-0.77776	-0.21549	-0.77583
3531.000	0.83226	-0.73796	-0.25108	-0.76389
3532.000	0.81645	-0.77178	-0.24119	-0.75792
3533.000	0.78482	-0.77377	-0.21945	-0.81760
3534.000	0.86388	-0.82547	-0.25899	-0.75792
3535.000	0.80854	-0.77178	-0.22933	-0.77384
3536.000	0.83819	-0.74989	-0.21945	-0.76787
3537.000	0.77889	-0.76582	-0.24910	-0.79174
3538.000	0.87179	-0.76182	-0.18188	-0.74997
3539.000	0.78482	-0.80957	-0.26887	-0.71416
3540.000	0.82633	-0.76780	-0.24515	-0.76588
3541.000	0.77691	-0.80758	-0.25108	-0.77781
3542.000	0.80261	-0.78769	-0.23922	-0.78378
3543.000	0.89749	-0.74193	-0.25899	-0.75991
3544.000	0.82238	-0.78570	-0.23922	-0.75395
3545.000	0.80063	-0.75985	-0.24317	-0.82953
3546.000	0.88167	-0.75386	-0.27876	-0.75991
3547.000	0.78482	-0.68626	-0.21747	-0.78378
3548.000	0.80459	-0.73797	-0.24910	-0.77384
3549.000	0.73738	-0.78969	-0.27282	-0.73803
3550.000	0.81249	-0.74791	-0.23131	-0.77583
3551.000	0.85598	-0.73597	-0.23526	-0.79174
3552.000	0.79668	-0.74592	-0.24515	-0.77185
3553.000	0.81052	-0.76183	-0.28271	-0.76588
3554.000	0.79866	-0.77178	-0.27876	-0.76588
3555.000	0.82633	-0.73995	-0.24119	-0.83351
3556.000	0.84214	-0.77376	-0.26689	-0.76787
3557.000	0.79273	-0.72206	-0.28469	-0.77383
3558.000	0.81842	-0.78371	-0.25701	-0.79572
3559.000	0.77494	-0.77178	-0.24119	-0.75196
3560.000	0.80261	-0.77973	-0.28271	-0.74400
3561.000	0.78680	-0.76780	-0.31236	-0.82754
3562.000	0.80854	-0.79366	-0.22933	-0.77583
3563.000	0.80854	-0.76382	-0.26492	-0.81958
3564.000	0.81645	-0.76183	-0.28666	-0.78179
3565.000	0.83226	-0.68227	-0.28073	-0.76389
3566.000	0.92911	-0.73198	-0.26887	-0.79174
3567.000	0.85005	-0.74790	-0.24712	-0.79771
3568.000	0.78482	-0.75189	-0.26492	-0.76787
3569.000	0.80656	-0.72404	-0.28666	-0.78975
3570.000	0.81842	-0.78371	-0.27480	-0.81958
3571.000	0.82633	-0.70415	-0.28469	-0.81361
3572.000	0.76703	-0.77179	-0.31236	-0.78179
3573.000	0.84017	-0.68426	-0.24910	-0.74997
3574.000	0.81052	-0.72802	-0.28271	-0.79969
3575.000	0.84017	-0.79962	-0.32422	-0.79770
3576.000	0.83621	-0.69421	-0.25305	-0.76190
3577.000	0.83226	-0.74393	-0.27678	-0.76588
3578.000	0.85400	-0.70812	-0.28864	-0.77781
3579.000	0.86586	-0.77972	-0.33609	-0.80367
3580.000	0.82633	-0.73597	-0.31632	-0.77582
3581.000	0.77494	-0.75388	-0.30248	-0.77781
3582.000	0.81249	-0.72802	-0.26294	-0.84345
3583.000	0.88760	-0.75386	-0.29655	-0.81958
3584.000	0.82435	-0.69620	-0.30841	-0.87726
3585.000	0.82238	-0.75785	-0.30050	-0.80168
3586.000	0.79668	-0.70615	-0.34202	-0.81361
3587.000	0.82435	-0.75984	-0.27678	-0.78776
3588.000	0.85005	-0.78768	-0.25899	-0.82157
3589.000	0.83028	-0.71807	-0.31829	-0.82952
3590.000	0.85400	-0.77774	-0.28469	-0.81361
3591.000	0.85993	-0.75983	-0.32027	-0.81759
3592.000	0.82831	-0.70614	-0.26689	-0.88522
3593.000	0.85005	-0.76978	-0.34597	-0.81759
3594.000	0.86784	-0.75784	-0.27876	-0.88522
3595.000	0.87574	-0.77176	-0.29062	-0.82754
3596.000	0.82831	-0.75984	-0.31829	-0.79173
3597.000	0.86191	-0.69619	-0.31434	-0.72411
3598.000	0.87772	-0.72204	-0.31829	-0.76588
3599.000	0.89551	-0.72204	-0.15816	-0.74599
3600.000	0.96073	-0.71606	-0.16409	-0.71218
3601.000	1.10303	-0.73393	0.03361	-0.75992
3602.000	1.15441	-0.68221	0.14234	-0.78379
3603.000	1.28681	-0.74979	0.28864	-0.74997
3604.000	1.37375	-0.69408	0.51203	-0.75790
3605.000	1.51798	-0.69404	0.70971	-0.70616
3606.000	1.77676	-0.64822	0.87574	-0.67829
3607.000	1.89723	-0.60245	0.99236	-0.56092
3608.000	2.06902	-0.55865	1.17813	-0.57282
3609.000	2.24275	-0.51684	1.37771	-0.53698
3610.000	2.46183	-0.49490	1.56145	-0.55682
3611.000	2.49735	-0.53861	1.71158	-0.52297
3612.000	2.62560	-0.56439	1.81823	-0.55873
3613.000	2.69267	-0.53455	1.91698	-0.53882
3614.000	2.77354	-0.47689	2.03546	-0.52288
3615.000	2.85046	-0.49474	2.06310	-0.49901
3616.000	2.97666	-0.44900	2.07495	-0.44732
3617.000	2.98061	-0.46489	2.15194	-0.39561
3618.000	3.08904	-0.40326	2.19143	-0.39958
3619.000	3.14423	-0.35755	2.24078	-0.38167
3620.000	3.17774	-0.50453	2.27828	-0.37769
3621.000	3.20927	-0.46479	2.36908	-0.33195
3622.000	3.30583	-0.44290	2.39671	-0.32995
3623.000	3.36297	-0.40315	2.50919	-0.27626
3624.000	3.44571	-0.35745	2.51905	-0.23254
3625.000	3.46147	-0.31773	2.58614	-0.22458
3626.000	3.52253	-0.35345	2.60587	-0.27227
3627.000	3.56979	-0.42093	2.62954	-0.30406
3628.000	3.49889	-0.39515	2.62165	-0.32990
3629.000	3.57767	-0.31173	2.63152	-0.33188
3630.000	3.52056	-0.37529	2.58417	-0.31401
3631.000	3.43980	-0.38724	2.49143	-0.31006
3632.000	3.41813	-0.38129	2.45788	-0.33789
3633.000	3.35903	-0.38727	2.42433	-0.41541
3634.000	3.36888	-0.40712	2.31776	-0.40948
3635.000	3.32553	-0.35153	2.27828	-0.32402
3636.000	3.28415	-0.31381	2.22104	-0.40752
3637.000	3.27036	-0.37539	2.18156	-0.38567
3638.000	3.24868	-0.39923	2.20722	-0.40355
3639.000	3.20336	-0.44294	2.12825	-0.35586
3640.000	3.26051	-0.44093	2.19143	-0.42144
3641.000	3.25263	-0.39525	2.14997	-0.40158
3642.000	3.21321	-0.41116	2.19143	-0.33994
3643.000	3.21321	-0.37143	2.21117	-0.35186
3644.000	3.21912	-0.47273	2.15392	-0.36778
3645.000	3.20533	-0.38733	2.18550	-0.38368
3646.000	3.20336	-0.43500	2.23288	-0.39360
3647.000	3.25460	-0.40121	2.23486	-0.30415
3648.000	3.26248	-0.41114	2.19932	-0.36379
3649.000	3.20533	-0.40719	2.20919	-0.41945
3650.000	3.17774	-0.38734	2.24078	-0.39758
3651.000	3.22898	-0.35355	2.19735	-0.35584
3652.000	3.19153	-0.36548	2.17563	-0.37374
3653.000	3.17971	-0.44494	2.21512	-0.36578
3654.000	3.22109	-0.37143	2.22893	-0.30813
3655.000	3.15803	-0.39728	2.17169	-0.32007
3656.000	3.20927	-0.37144	2.21906	-0.33000
3657.000	3.21124	-0.39328	2.18550	-0.31211
3658.000	3.23686	-0.39923	2.20525	-0.30416
3659.000	3.22898	-0.43101	2.20327	-0.32404
3660.000	3.29204	-0.42106	2.18550	-0.36579
3661.000	3.24868	-0.41114	2.26249	-0.34986
3662.000	3.25263	-0.41710	2.26841	-0.36179
3663.000	3.27430	-0.37737	2.26644	-0.37173
3664.000	3.27036	-0.39723	2.23288	-0.37770
3665.000	3.24474	-0.43895	2.20722	-0.33994
3666.000	3.28810	-0.33764	2.21314	-0.36379
3667.000	3.24671	-0.44888	2.28815	-0.32600
3668.000	3.21321	-0.44492	2.25262	-0.32800
3669.000	3.28218	-0.36545	2.26249	-0.35781
3670.000	3.20927	-0.44095	2.21314	-0.40951
3671.000	3.24671	-0.40320	2.24670	-0.35186
3672.000	3.20533	-0.45486	2.24670	-0.39360
3673.000	3.21715	-0.42109	2.23880	-0.36975
3674.000	3.26642	-0.41908	2.24473	-0.32800
3675.000	3.25065	-0.42107	2.23683	-0.31210
3676.000	3.25854	-0.44490	2.21709	-0.32403
3677.000	3.25065	-0.45285	2.24473	-0.37372
3678.000	3.22898	-0.44492	2.22301	-0.32999
3679.000	3.25263	-0.39128	2.20722	-0.36379
3680.000	3.22306	-0.42704	2.21117	-0.38367
3681.000	3.23489	-0.41711	2.21512	-0.34789
3682.000	3.27036	-0.43298	2.17563	-0.36976
3683.000	3.26839	-0.42703	2.26644	-0.36179
3684.000	3.28612	-0.42503	2.21906	-0.35981
3685.000	3.29992	-0.40914	2.24078	-0.39559
3686.000	3.23686	-0.36745	2.20722	-0.38367
3687.000	3.25460	-0.40121	2.29802	-0.37768
3688.000	3.27036	-0.40716	2.24275	-0.35186
3689.000	3.24277	-0.41313	2.21117	-0.32006
3690.000	3.26248	-0.38929	2.25262	-0.36974
3691.000	3.35115	-0.35351	2.25854	-0.35185
3692.000	3.26248	-0.41511	2.25262	-0.32402
3693.000	3.25854	-0.43299	2.23880	-0.33595
3694.000	3.24671	-0.42703	2.24867	-0.33794
3695.000	3.29598	-0.40318	2.22893	-0.32999
3696.000	3.30386	-0.39921	2.24078	-0.36180
3697.000	3.31174	-0.37537	2.24275	-0.29421
3698.000	3.31568	-0.42899	2.27039	-0.28029
3699.000	3.27824	-0.39127	2.25065	-0.32204
3700.000	3.24277	-0.37937	2.25854	-0.33396
3701.000	3.27233	-0.36148	2.23486	-0.37571
3702.000	3.24080	-0.39327	2.27039	-0.34191
3703.000	3.29598	-0.39921	2.22893	-0.30216
3704.000	3.23095	-0.33568	2.30789	-0.29221
3705.000	3.23883	-0.35951	2.25065	-0.30812
3706.000	3.29795	-0.42304	2.28815	-0.33197
3707.000	3.23489	-0.43697	2.25262	-0.29421
3708.000	3.31765	-0.40913	2.26447	-0.26439
3709.000	3.30583	-0.38133	2.23091	-0.39360
3710.000	3.30386	-0.38332	2.20919	-0.31012
3711.000	3.29598	-0.39126	2.26644	-0.35384
3712.000	3.26642	-0.38730	2.26447	-0.31011
3713.000	3.23489	-0.41909	2.26447	-0.35980
3714.000	3.28415	-0.38928	2.27039	-0.28824
3715.000	3.28810	-0.40716	2.25262	-0.39757
3716.000	3.27430	-0.41511	2.23880	-0.33397
3717.000	3.28415	-0.37339	2.28618	-0.31010
3718.000	3.25460	-0.41710	2.23880	-0.29819
3719.000	3.26445	-0.35950	2.27039	-0.33992
3720.000	3.26839	-0.37141	2.25065	-0.26041
3721.000	3.25657	-0.40518	2.22893	-0.32204
3722.000	3.29401	-0.37339	2.29407	-0.30016
3723.000	3.26839	-0.41511	2.26249	-0.25644
3724.000	3.29795	-0.44091	2.26841	-0.29420
3725.000	3.30780	-0.38530	2.22104	-0.27632
3726.000	3.27824	-0.37936	2.26841	-0.30414
3727.000	3.28612	-0.37935	2.32763	-0.29817
3728.000	3.33933	-0.30188	2.27433	-0.27830
3729.000	3.28612	-0.34360	2.27631	-0.33992
3730.000	3.32159	-0.43097	2.26644	-0.31408
3731.000	3.22504	-0.36547	2.32763	-0.33196
3732.000	3.32750	-0.39522	2.24473	-0.29620
3733.000	3.23292	-0.42505	2.29210	-0.33793
3734.000	3.21715	-0.39725	2.28815	-0.26239
3735.000	3.29204	-0.39524	2.21512	-0.28030
3736.000	3.25263	-0.41313	2.25262	-0.31011
3737.000	3.21715	-0.42705	2.27236	-0.30017
3738.000	3.23095	-0.35554	2.22696	-0.32999
3739.000	3.21715	-0.40123	2.27039	-0.37968
3740.000	3.22898	-0.40917	2.21906	-0.35385
3741.000	3.21124	-0.43897	2.29210	-0.32799
3742.000	3.28810	-0.44688	2.27039	-0.39161
3743.000	3.24474	-0.47272	2.29605	-0.36973
3744.000	3.22701	-0.42704	2.31381	-0.34190
3745.000	3.25854	-0.46278	2.24867	-0.39956
3746.000	3.25460	-0.44888	2.29605	-0.42141
3747.000	3.29007	-0.43496	2.30592	-0.35780
3748.000	3.31765	-0.43098	2.31381	-0.37172
3749.000	3.24474	-0.44690	2.31381	-0.33991
3750.000	3.22701	-0.45286	2.30592	-0.37371
3751.000	3.29401	-0.44290	2.32960	-0.39358
3752.000	3.25657	-0.39128	2.32171	-0.36575
3753.000	3.27233	-0.42107	2.27433	-0.34986
3754.000	3.21518	-0.45088	2.29013	-0.38166
3755.000	3.30780	-0.41509	2.29605	-0.39160
3756.000	3.27627	-0.42305	2.32960	-0.39159
3757.000	3.27233	-0.38532	2.31184	-0.40153
3758.000	3.27036	-0.43497	2.27631	-0.40949
3759.000	3.24277	-0.44888	2.27433	-0.33396
3760.000	3.24080	-0.41711	2.30000	-0.35582
3761.000	3.21321	-0.41315	2.29605	-0.39756
3762.000	3.26248	-0.44689	2.28618	-0.39756
3763.000	3.27430	-0.45681	2.26841	-0.37372
3764.000	3.23292	-0.41314	2.25854	-0.42143
3765.000	3.28021	-0.40716	2.27631	-0.42937
3766.000	3.27036	-0.39922	2.31184	-0.40551
3767.000	3.26445	-0.42504	2.26249	-0.38564
3768.000	3.29007	-0.42900	2.31776	-0.35780
3769.000	3.25657	-0.39327	2.32960	-0.45122
3770.000	3.26839	-0.43100	2.28618	-0.42937
3771.000	3.28415	-0.40517	2.25460	-0.36776
3772.000	3.25460	-0.39327	2.32565	-0.36575
3773.000	3.26248	-0.44887	2.28815	-0.33396
3774.000	3.25854	-0.41313	2.31973	-0.32401
3775.000	3.25854	-0.41710	2.31776	-0.38960
3776.000	3.27627	-0.41709	2.29013	-0.32203
3777.000	3.25854	-0.43895	2.29013	-0.33992
3778.000	3.29598	-0.40318	2.30986	-0.34985
3779.000	3.29795	-0.38729	2.27828	-0.36775
3780.000	3.23686	-0.42704	2.29013	-0.36576
3781.000	3.25263	-0.38731	2.29210	-0.33197
3782.000	3.29007	-0.39723	2.30394	-0.36576
3783.000	3.30189	-0.44687	2.28026	-0.31010
3784.000	3.25263	-0.42902	2.22893	-0.33993
3785.000	3.24277	-0.44690	2.31579	-0.34588
3786.000	3.27824	-0.40319	2.25854	-0.40354
3787.000	3.22306	-0.47273	2.28420	-0.41943
3788.000	3.20927	-0.46280	2.27433	-0.38763
3789.000	3.30189	-0.43893	2.29210	-0.33395
3790.000	3.27036	-0.43100	2.27828	-0.37968
3791.000	3.24868	-0.44888	2.32368	-0.37569
3792.000	3.27627	-0.43497	2.29407	-0.37570
3793.000	3.24671	-0.48860	2.33355	-0.39159
3794.000	3.29598	-0.42900	2.29605	-0.40750
3795.000	3.28810	-0.43893	2.25065	-0.38366
3796.000	3.26445	-0.42703	2.26841	-0.38962
3797.000	3.29598	-0.38928	2.27433	-0.41745
3798.000	3.29007	-0.49057	2.29605	-0.40750
3799.000	3.25065	-0.43299	2.32171	-0.41346
3800.000	3.26839	-0.50448	2.30592	-0.41346
3801.000	3.21912	-0.45485	2.29407	-0.41943
3802.000	3.21518	-0.48067	2.29407	-0.43533
3803.000	3.22701	-0.46081	2.25854	-0.42341
3804.000	3.25854	-0.47867	2.30197	-0.44129
3805.000	3.27036	-0.46476	2.26841	-0.37372
3806.000	3.21715	-0.53033	2.29210	-0.38961
3807.000	3.22504	-0.42704	2.29605	-0.35383
3808.000	3.27824	-0.45483	2.26052	-0.42938
3809.000	3.26248	-0.50250	2.25460	-0.40950
3810.000	3.23095	-0.45088	2.29605	-0.38365
3811.000	3.23095	-0.49258	2.29210	-0.34986
3812.000	3.22701	-0.47670	2.26249	-0.36974
3813.000	3.21912	-0.43499	2.28026	-0.33594
3814.000	3.24080	-0.41512	2.26644	-0.34986
3815.000	3.25460	-0.45285	2.28223	-0.32799
3816.000	3.20927	-0.42109	2.30197	-0.39557
3817.000	3.30189	-0.39325	2.27433	-0.42540
3818.000	3.27430	-0.42106	2.28026	-0.31607
3819.000	3.26248	-0.44292	2.30197	-0.39557
3820.000	3.29007	-0.42304	2.29605	-0.31606
3821.000	3.29992	-0.38332	2.25854	-0.33396
3822.000	3.24671	-0.38334	2.32565	-0.31009
3823.000	3.29598	-0.43496	2.33355	-0.39556
3824.000	3.25854	-0.42902	2.28420	-0.35383
3825.000	3.21518	-0.45883	2.26249	-0.35781
3826.000	3.28612	-0.47071	2.31973	-0.37171
3827.000	3.24474	-0.43101	2.28223	-0.35185
3828.000	3.30977	-0.46474	2.26052	-0.35782
3829.000	3.21912	-0.45485	2.26052	-0.37968
3830.000	3.26642	-0.42901	2.29605	-0.36775
3831.000	3.22701	-0.40321	2.28420	-0.31408
3832.000	3.28810	-0.42702	2.31579	-0.37370
3833.000	3.22701	-0.44095	2.30000	-0.37967
3834.000	3.27233	-0.44291	2.32368	-0.32401
3835.000	3.29598	-0.46475	2.30197	-0.36973
3836.000	3.26642	-0.42504	2.28420	-0.38763
3837.000	3.20927	-0.41712	2.31776	-0.37370
3838.000	3.24671	-0.39526	2.26841	-0.36775
3839.000	3.24080	-0.41909	2.26052	-0.38366
3840.000	3.22109	-0.41314	2.28618	-0.35781
3841.000	3.22701	-0.46279	2.31973	-0.37967
3842.000	3.28612	-0.46277	2.31184	-0.36973
3843.000	3.25263	-0.44491	2.31579	-0.36575
3844.000	3.27430	-0.46873	2.30394	-0.33793
3845.000	3.23489	-0.44293	2.28815	-0.36377
3846.000	3.22898	-0.48067	2.35329	-0.35779
3847.000	3.16197	-0.47275	2.27433	-0.35582
3848.000	3.29204	-0.49454	2.30394	-0.37569
3849.000	3.24868	-0.45285	2.30986	-0.34190
3850.000	3.20139	-0.48465	2.29802	-0.34985
3851.000	3.23686	-0.43498	2.26447	-0.30812
3852.000	3.20336	-0.54821	2.28223	-0.32004
3853.000	3.24080	-0.49059	2.29802	-0.35582
3854.000	3.19153	-0.44096	2.30592	-0.30215
3855.000	3.21715	-0.53430	2.32763	-0.36177
3856.000	3.22701	-0.46677	2.34144	-0.37171
3857.000	3.24671	-0.52634	2.23683	-0.37770
3858.000	3.21124	-0.50252	2.27433	-0.38365
3859.000	3.17774	-0.52439	2.30000	-0.35781
3860.000	3.24868	-0.53230	2.32171	-0.43135
3861.000	3.17379	-0.52042	2.34539	-0.42935
3862.000	3.27233	-0.42305	2.29407	-0.41346
3863.000	3.26445	-0.44887	2.31973	-0.40551
3864.000	3.19547	-0.50452	2.30000	-0.41545
3865.000	3.19744	-0.46082	2.30592	-0.34389
3866.000	3.21518	-0.47074	2.33750	-0.41941
3867.000	3.25065	-0.48463	2.32763	-0.39358
3868.000	3.22898	-0.45088	2.27236	-0.37173
3869.000	3.25065	-0.46080	2.30197	-0.40750
3870.000	3.26248	-0.46675	2.31184	-0.34786
3871.000	3.23489	-0.42505	2.30986	-0.36575
3872.000	3.29598	-0.43496	2.33355	-0.33991
3873.000	3.22898	-0.45286	2.32763	-0.35184
3874.000	3.27430	-0.44291	2.30394	-0.35979
3875.000	3.27824	-0.37936	2.29802	-0.31606
3876.000	3.22504	-0.45684	2.30197	-0.36774
3877.000	3.20533	-0.42705	2.30000	-0.35383
3878.000	3.22701	-0.43896	2.29013	-0.32799
3879.000	3.22898	-0.44690	2.31381	-0.39954
3880.000	3.17774	-0.46282	2.35921	-0.35580
3881.000	3.22701	-0.44690	2.33947	-0.38761
3882.000	3.26248	-0.53626	2.31579	-0.30811
3883.000	3.16197	-0.50652	2.33355	-0.36376
3884.000	3.17774	-0.47871	2.31381	-0.32799
3885.000	3.12649	-0.48072	2.32368	-0.34389
3886.000	3.20730	-0.48664	2.30592	-0.32998
3887.000	3.19547	-0.48466	2.30394	-0.32600
3888.000	3.18365	-0.44494	2.27828	-0.32402
3889.000	3.20139	-0.49856	2.31579	-0.25245
3890.000	3.15014	-0.46084	2.33750	-0.31009
3891.000	3.21912	-0.53033	2.35131	-0.34189
3892.000	3.25263	-0.46874	2.31973	-0.32202
3893.000	3.15803	-0.46680	2.30394	-0.32202
3894.000	3.21715	-0.44889	2.30592	-0.35979
3895.000	3.21518	-0.50054	2.35526	-0.30015
3896.000	3.18365	-0.52240	2.39276	-0.31604
3897.000	3.17576	-0.49857	2.31579	-0.33196
3898.000	3.18562	-0.49658	2.33158	-0.31407
3899.000	3.16788	-0.47672	2.32171	-0.28624
3900.000	3.16000	-0.52837	2.34737	-0.29419
3901.000	3.24671	-0.50052	2.36315	-0.32002
3902.000	3.18168	-0.54028	2.30000	-0.28426
3903.000	3.19547	-0.47473	2.30592	-0.32799
3904.000	3.18759	-0.45487	2.33158	-0.33394
3905.000	3.19350	-0.54226	2.29802	-0.33395
3906.000	3.15408	-0.51646	2.30789	-0.35582
3907.000	3.20730	-0.45287	2.32368	-0.33593
3908.000	3.11466	-0.42709	2.31579	-0.23257
3909.000	3.20730	-0.45684	2.33355	-0.30810
3910.000	3.23095	-0.43101	2.30394	-0.33793
3911.000	3.21321	-0.50252	2.34934	-0.31009
3912.000	3.14029	-0.49660	2.35131	-0.29220
3913.000	3.18168	-0.43302	2.33158	-0.31009
3914.000	3.18168	-0.47870	2.30394	-0.29817
3915.000	3.22109	-0.49855	2.30000	-0.32401
3916.000	3.18168	-0.47870	2.30000	-0.30414
3917.000	3.18562	-0.43898	2.31579	-0.29221
3918.000	3.18365	-0.46877	2.32763	-0.33991
3919.000	3.20336	-0.49856	2.30789	-0.30811
3920.000	3.16000	-0.43104	2.33750	-0.26835
3921.000	3.18365	-0.48069	2.35921	-0.30015
3922.000	3.14817	-0.45687	2.32960	-0.32997
3923.000	3.19744	-0.46082	2.33355	-0.29817
3924.000	3.20336	-0.47075	2.31184	-0.25841
3925.000	3.21912	-0.42307	2.32960	-0.25841
3926.000	3.21124	-0.46081	2.30000	-0.28823
3927.000	3.18168	-0.46877	2.31579	-0.32401
3928.000	3.16394	-0.47077	2.31381	-0.28028
3929.000	3.20336	-0.46876	2.28618	-0.34588
3930.000	3.13634	-0.41318	2.31381	-0.29022
3931.000	3.16985	-0.46083	2.30394	-0.31209
3932.000	3.20927	-0.44890	2.33552	-0.31009
3933.000	3.22109	-0.42705	2.29802	-0.28625
3934.000	3.20533	-0.46479	2.27039	-0.25047
3935.000	3.15211	-0.41317	2.33552	-0.29220
3936.000	3.21124	-0.45088	2.29210	-0.31408
3937.000	3.18562	-0.48665	2.24275	-0.32005
3938.000	3.19547	-0.45884	2.30197	-0.28426
3939.000	3.20139	-0.41514	2.31184	-0.31606
3940.000	3.22306	-0.43300	2.31579	-0.31805
3941.000	3.23686	-0.38533	2.27828	-0.25444
3942.000	3.23686	-0.45484	2.32368	-0.31208
3943.000	3.25065	-0.48264	2.35329	-0.29021
3944.000	3.35903	-0.45876	2.43420	-0.39355
3945.000	3.38464	-0.52825	2.52497	-0.35377
3946.000	3.52647	-0.55001	2.66703	-0.36565
3947.000	3.68597	-0.63726	2.83468	-0.35170
3948.000	3.77653	-0.79797	2.99046	-0.39138
3949.000	3.89265	-0.78198	3.18365	-0.45685
3950.000	4.04612	-0.83541	3.46541	-0.54012
3951.000	4.19363	-0.93840	3.66234	-0.57772
3952.000	4.34501	-0.97986	3.82770	-0.69869
3953.000	4.47276	-1.04116	4.00874	-0.78584
3954.000	4.60832	-1.07665	4.09923	-0.84725
3955.000	4.80076	-1.13976	4.28604	-0.89465
3956.000	4.92245	-1.12965	4.27228	-0.94227
3957.000	4.99309	-1.19689	4.40594	-0.90641
3958.000	5.05587	-1.24827	4.46883	-1.05703
3959.000	5.11079	-1.31748	4.54938	-1.11044
3960.000	5.11864	-1.36104	4.59653	-1.15199
3961.000	5.19120	-1.35692	4.63778	-1.18165
3962.000	5.27158	-1.36269	4.62010	-1.19159
3963.000	5.29902	-1.48339	4.68295	-1.23509
3964.000	5.35782	-1.51492	4.74579	-1.27461
3965.000	5.39897	-1.55044	4.79880	-1.29631
3966.000	5.51652	-1.57784	4.88909	-1.28227
3967.000	5.57919	-1.58559	4.89694	-1.18913
3968.000	5.70058	-1.59317	4.99113	-1.20283
3969.000	5.75735	-1.65630	5.13041	-1.19267
3970.000	5.87670	-1.59860	5.21669	-1.23211
3971.000	5.92952	-1.60636	5.35782	-1.24173
3972.000	6.04294	-1.65149	5.43032	-1.23367
3973.000	6.11331	-1.67697	5.54003	-1.22156
3974.000	6.17390	-1.68468	5.53415	-1.25918
3975.000	6.21688	-1.66281	5.58115	-1.29866
3976.000	6.21102	-1.64702	5.54590	-1.34822
3977.000	6.24228	-1.62123	5.56353	-1.28089
3978.000	6.22665	-1.66080	5.51456	-1.25131
3979.000	6.19344	-1.54628	5.45188	-1.26727
3980.000	6.17976	-1.54039	5.38918	-1.23573
3981.000	6.13872	-1.56028	5.32646	-1.22398
3982.000	6.10745	-1.50502	5.21277	-1.17469
3983.000	6.04880	-1.44587	5.16178	-1.19459
3984.000	6.03121	-1.41626	5.15786	-1.16885
3985.000	6.03121	-1.42417	5.08922	-1.07588
3986.000	6.01948	-1.33325	5.02056	-1.06609
3987.000	5.94125	-1.36903	5.01860	-1.01062
3988.000	5.97646	-1.33731	4.98917	-0.99481
3989.000	6.00188	-1.29374	4.99505	-0.95122
3990.000	6.01557	-1.25020	5.04606	-0.95907
3991.000	6.05858	-1.23626	5.01467	-0.96902
3992.000	6.03316	-1.15722	5.03233	-0.97890
3993.000	6.03707	-1.16710	5.02252	-0.90164
3994.000	6.08399	-1.21247	5.03822	-0.92738
3995.000	6.01557	-1.16912	5.05587	-0.92537
3996.000	5.99406	-1.16521	4.99702	-0.90366
3997.000	5.99210	-1.20675	4.98328	-0.92349
3998.000	5.99015	-1.14544	5.02645	-0.98089
3999.000	5.99015	-1.11973	5.04018	-0.92738
4000.000	6.00774	-1.16320	4.96759	-0.93144
4001.000	6.00774	-1.16914	4.96366	-0.90371
4002.000	5.97841	-1.17118	4.95974	-0.87795
4003.000	6.00579	-1.19287	4.92441	-0.84827
4004.000	6.02339	-1.11966	4.95385	-0.87994
4005.000	6.02143	-1.13747	4.97347	-0.82443
4006.000	6.05858	-1.10772	4.95189	-0.81059
4007.000	6.11918	-1.07992	4.98132	-0.81650
4008.000	6.09767	-1.11358	4.96562	-0.71347
4009.000	6.11527	-1.15902	4.96759	-0.72338
4010.000	6.20321	-1.12719	4.97347	-0.66987
4011.000	6.21298	-1.13113	5.01664	-0.66784
4012.000	6.25791	-1.13498	5.09706	-0.70540
4013.000	6.28526	-1.21399	5.10099	-0.68360
4014.000	6.33213	-1.17830	5.20884	-0.63198
4015.000	6.38681	-1.16830	5.24413	-0.65176
4016.000	6.51174	-1.20555	5.33822	-0.59620
4017.000	6.62296	-1.15590	5.45775	-0.62579
4018.000	6.71267	-1.19913	5.57724	-0.63358
4019.000	6.78481	-1.20488	5.71624	-0.60374
4020.000	6.91149	-1.22825	5.85518	-0.59765
4021.000	7.06731	-1.28507	6.03707	-0.58163
4022.000	7.18605	-1.27882	6.24228	-0.61502
4023.000	7.33974	-1.32571	6.34580	-0.63862
4024.000	7.47000	-1.32138	6.48442	-0.69379
4025.000	7.56133	-1.37432	6.65807	-0.74689
4026.000	7.60795	-1.49241	6.73802	-0.80010
4027.000	7.64485	-1.52184	6.78286	-0.80201
4028.000	7.62543	-1.53964	6.79456	-0.83556
4029.000	7.67592	-1.54340	6.88616	-0.92426
4030.000	7.69145	-1.58077	6.89590	-0.96176
4031.000	7.70310	-1.57285	6.89785	-0.98742
4032.000	7.68174	-1.66158	6.86083	-1.07438
4033.000	7.74193	-1.65543	6.87447	-1.04473
4034.000	7.78269	-1.69466	6.83939	-1.01716
4035.000	7.78851	-1.73206	6.86667	-1.05659
4036.000	7.82732	-1.80672	6.87837	-1.03287
4037.000	7.84090	-1.82044	6.81990	-1.04682
4038.000	7.87388	-1.82423	6.90954	-1.11178
4039.000	7.90880	-1.83589	6.91734	-1.04858
4040.000	7.97473	-1.86709	6.94851	-1.08208
4041.000	7.98249	-1.88280	6.91344	-1.04464
4042.000	8.04258	-1.88252	6.96020	-1.09587
4043.000	8.03677	-1.89238	7.00110	-1.12143
4044.000	8.01932	-1.92592	6.95825	-1.16496
4045.000	8.04452	-1.88841	7.02057	-1.19639
4046.000	8.00769	-1.90039	6.94656	-1.18078
4047.000	8.03483	-1.90223	6.95630	-1.20247
4048.000	8.01157	-1.90234	6.88811	-1.20462
4049.000	8.00381	-1.90631	6.91734	-1.24600
4050.000	7.97861	-2.00089	6.86862	-1.29548
4051.000	7.95534	-1.97148	6.91149	-1.26576
4052.000	7.95728	-2.01870	6.87642	-1.32507
4053.000	7.98830	-2.01461	6.85303	-1.34685
4054.000	7.96310	-2.04032	6.83744	-1.33703
4055.000	7.99994	-2.04210	6.86278	-1.35077
4056.000	8.00188	-2.12079	6.86667	-1.37248
4057.000	8.02126	-2.09905	6.92903	-1.36638
4058.000	8.01738	-2.03218	6.91928	-1.34469
4059.000	8.03289	-2.05374	6.94266	-1.32686
4060.000	8.06197	-2.04966	6.97773	-1.33466
4061.000	8.08328	-2.05742	6.96409	-1.35641
4062.000	8.06972	-2.02208	6.98747	-1.41160
4063.000	8.09491	-2.02982	6.96604	-1.30706
4064.000	8.09297	-1.96491	7.02642	-1.33649
4065.000	8.08328	-2.08496	7.00889	-1.33654
4066.000	8.12591	-1.97459	6.99331	-1.36422
4067.000	8.11235	-1.99039	7.02836	-1.35622
4068.000	8.04840	-2.00055	6.98162	-1.39977
4069.000	8.05034	-1.97102	6.97188	-1.34849
4070.000	8.09491	-1.96884	6.97578	-1.37019
4071.000	8.11235	-1.96088	6.96020	-1.36431
4072.000	8.12979	-1.96080	6.98162	-1.38201
4073.000	8.04065	-1.98681	6.98357	-1.35635
4074.000	8.09491	-2.02982	6.97188	-1.41559
4075.000	8.07166	-2.02404	6.94851	-1.38014
4076.000	8.08135	-1.99448	7.00110	-1.36617
4077.000	8.11041	-1.97073	7.02057	-1.45491
4078.000	8.10460	-1.95109	6.99331	-1.40369
4079.000	8.08135	-2.00235	6.97578	-1.35637
4080.000	8.06972	-1.99847	7.03421	-1.40554
4081.000	8.08716	-1.95511	6.94461	-1.37225
4082.000	8.08716	-1.94724	6.98162	-1.40372
4083.000	8.07553	-2.04172	7.02252	-1.40162
4084.000	8.06778	-1.99061	7.00694	-1.45692
4085.000	8.11235	-1.94515	7.01473	-1.47663
4086.000	8.05228	-2.05364	6.99915	-1.47866
4087.000	8.10266	-2.01798	6.97578	-1.48465
4088.000	8.08716	-1.99642	6.98552	-1.43726
4089.000	8.10266	-2.02192	6.98941	-1.46685
4090.000	8.06197	-2.03392	6.98357	-1.46094
4091.000	8.11429	-2.05726	7.01863	-1.44702
4092.000	8.04452	-2.04188	7.02836	-1.44896
4093.000	8.05421	-2.01822	7.01278	-1.50624
4094.000	8.11429	-2.06316	7.00110	-1.46089
4095.000	8.08135	-2.11251	7.00889	-1.44113
4096.000	8.05809	-2.00246	7.01863	-1.45886
4097.000	8.06390	-2.05949	7.01278	-1.46480
4098.000	8.09879	-2.09078	6.96214	-1.39194
4099.000	8.12785	-2.12013	7.01084	-1.45691
4100.000	8.06584	-2.10866	7.02252	-1.46872
4101.000	8.09104	-2.03968	6.98747	-1.46685
4102.000	8.06584	-2.08308	7.04200	-1.52390
4103.000	8.05421	-2.06150	7.02057	-1.49635
4104.000	8.09491	-2.00622	7.04005	-1.47063
4105.000	8.09685	-2.08882	7.04589	-1.44299
4106.000	8.10654	-2.06320	7.03615	-1.48840
4107.000	8.15304	-2.09443	7.02642	-1.49435
4108.000	8.10848	-2.07893	7.06926	-1.45278
4109.000	8.09685	-2.11046	7.08289	-1.44288
4110.000	8.15304	-2.07870	7.01668	-1.49439
4111.000	8.12398	-2.07492	7.03421	-1.54563
4112.000	8.05809	-2.07329	7.03615	-1.49630
4113.000	8.15885	-2.07474	7.03031	-1.46474
4114.000	8.12204	-2.10246	7.03615	-1.52392
4115.000	8.13173	-2.05717	7.05173	-1.60673
4116.000	8.09879	-2.08291	7.07315	-1.53169
4117.000	8.13560	-2.07682	7.07899	-1.54943
4118.000	8.12591	-2.10244	7.04005	-1.55745
4119.000	8.14529	-2.09447	7.01668	-1.55161
4120.000	8.10460	-2.08092	7.06147	-1.57908
4121.000	8.12398	-2.11032	7.05952	-1.56922
4122.000	8.11623	-2.07102	7.06342	-1.54553
4123.000	8.11235	-2.08874	7.06342	-1.58893
4124.000	8.13948	-2.10237	7.08678	-1.64409
4125.000	8.06197	-2.06933	7.05173	-1.61068
4126.000	8.17241	-2.03140	7.06147	-1.58894
4127.000	8.18984	-2.12570	7.07704	-1.58297
4128.000	8.13560	-2.09452	7.11793	-1.61439
4129.000	8.14141	-2.10629	7.09846	-1.60460
4130.000	8.14723	-2.12003	7.10235	-1.61444
4131.000	8.13560	-2.09452	7.09457	-1.58488
4132.000	8.14529	-2.12201	7.03421	-1.64033
4133.000	8.10654	-2.02583	7.08094	-1.61452
4134.000	8.12591	-2.11621	7.05563	-1.61658
4135.000	8.11041	-2.07302	7.02836	-1.58905
4136.000	8.17047	-2.09434	7.11014	-1.59272
4137.000	8.11816	-2.10052	7.14518	-1.61232
4138.000	8.14529	-2.11217	7.08678	-1.59872
4139.000	8.15885	-2.09244	7.07510	-1.61059
4140.000	8.15110	-2.10821	7.11793	-1.66173
4141.000	8.16660	-2.05896	7.04005	-1.60874
4142.000	8.10848	-2.14187	7.08873	-1.62830
4143.000	8.12204	-2.06509	7.08483	-1.61056
4144.000	8.12785	-2.15160	7.13739	-1.59854
4145.000	8.15885	-2.10424	7.11598	-1.66568
4146.000	8.12398	-2.09458	7.14518	-1.56893
4147.000	8.18016	-2.09822	7.07704	-1.59678
4148.000	8.15304	-2.10230	7.10041	-1.57500
4149.000	8.14529	-2.10431	7.10625	-1.64599
4150.000	8.08716	-2.04953	7.18021	-1.59642
4151.000	8.13948	-2.11614	7.10819	-1.63612
4152.000	8.13173	-2.07881	7.16270	-1.56492
4153.000	8.14529	-2.05514	7.07899	-1.63623
4154.000	8.13948	-2.05713	7.09067	-1.58292
4155.000	8.17628	-2.08054	7.10625	-1.64402
4156.000	8.17822	-2.05890	7.12182	-1.58282
4157.000	8.13754	-2.09451	7.11014	-1.58680
4158.000	8.12591	-2.12211	7.05563	-1.63434
4159.000	8.15497	-2.06099	7.12571	-1.60647
4160.000	8.13560	-2.06699	7.08678	-1.55926
4161.000	8.13560	-2.06305	7.10625	-1.59668
4162.000	8.11041	-2.11826	7.11987	-1.62030
4163.000	8.19759	-2.07060	7.12182	-1.56901
4164.000	8.17241	-2.04320	7.07704	-1.58100
4165.000	8.13173	-2.09061	7.12182	-1.61438
4166.000	8.12591	-2.04540	7.08094	-1.63030
4167.000	8.10072	-2.12028	7.11209	-1.61836
4168.000	8.16853	-2.07075	7.11793	-1.55916
4169.000	8.12591	-2.07687	7.11598	-1.61045
4170.000	8.10848	-2.14187	7.09262	-1.59278
4171.000	8.13754	-2.08861	7.09457	-1.57305
4172.000	8.10460	-2.06125	7.08289	-1.52771
4173.000	8.11041	-2.07499	7.09457	-1.60264
4174.000	8.15110	-2.04724	7.09262	-1.57897
4175.000	8.13948	-2.08074	7.13934	-1.62023
4176.000	8.14529	-2.08071	7.11598	-1.60848
4177.000	8.14141	-2.03942	7.13155	-1.56108
4178.000	8.16660	-2.03143	7.11014	-1.59075
4179.000	8.15497	-2.04525	7.08873	-1.57109
4180.000	8.14916	-2.07872	7.09262	-1.60659
4181.000	8.13173	-2.06504	7.13350	-1.65181
4182.000	8.15110	-2.08068	7.09457	-1.57107
4183.000	8.17822	-2.06873	7.05563	-1.62447
4184.000	8.17435	-2.03925	7.10430	-1.56709
4185.000	8.18984	-2.05884	7.10235	-1.58486
4186.000	8.16272	-2.04718	7.10430	-1.58485
4187.000	8.15497	-2.10426	7.12961	-1.57884
4188.000	8.13560	-2.02962	7.12961	-1.59068
4189.000	8.12979	-2.04932	7.09262	-1.55924
4190.000	8.14916	-2.02365	7.08873	-1.56912
4191.000	8.13173	-2.00210	7.09457	-1.59869
4192.000	8.14335	-2.06301	7.11598	-1.56705
4193.000	8.16079	-2.03932	7.11598	-1.60848
4194.000	8.14529	-2.03154	7.10235	-1.56513
4195.000	8.12204	-2.02772	7.10430	-1.59668
4196.000	8.16272	-2.00784	7.07315	-1.55142
4197.000	8.16079	-2.05899	7.07120	-1.54551
4198.000	8.17241	-2.03730	7.10041	-1.55922
4199.000	8.17822	-2.10020	7.14518	-1.57879
4200.000	8.16853	-2.07862	7.11987	-1.51378
4201.000	8.19372	-2.05292	7.08483	-1.49811
4202.000	8.16272	-2.01965	7.06731	-1.56130
4203.000	8.19178	-2.04900	7.05563	-1.54950
4204.000	8.06972	-2.00634	7.04200	-1.55350
4205.000	8.07359	-2.01419	7.03615	-1.54168
4206.000	7.95534	-2.03642	6.97967	-1.54778
4207.000	7.85642	-1.99164	6.86667	-1.57776
4208.000	7.63320	-2.02617	6.79261	-1.61156
4209.000	7.55744	-1.99501	6.61906	-1.61213
4210.000	7.36307	-1.98211	6.49613	-1.67178
4211.000	7.06536	-1.94397	6.31846	-1.65656
4212.000	6.76337	-1.94916	6.07813	-1.62766
4213.000	6.47661	-1.89500	5.84932	-1.59473
4214.000	6.21102	-1.83276	5.54394	-1.67076
4215.000	5.86497	-1.90312	5.27942	-1.66357
4216.000	5.51848	-1.84295	5.11668	-1.79664
4217.000	5.25786	-1.89321	4.87535	-1.65867
4218.000	4.98721	-1.85837	4.59457	-1.69501
4219.000	4.75560	-1.87090	4.34305	-1.69559
4220.000	4.51009	-1.79626	4.10513	-1.66042
4221.000	4.36074	-1.86598	3.94775	-1.69049
4222.000	4.10513	-1.84083	3.78637	-1.63131
4223.000	3.91233	-1.86505	3.50677	-1.64372
4224.000	3.72731	-1.90512	3.35509	-1.64795
4225.000	3.58358	-1.89749	3.23095	-1.64220
4226.000	3.47920	-1.80447	3.08115	-1.56502
4227.000	3.29795	-1.81473	3.00624	-1.42020
4228.000	3.22109	-1.72954	2.91554	-1.53548
4229.000	3.11269	-1.80910	2.78735	-1.48402
4230.000	2.96878	-1.68231	2.65519	-1.46234
4231.000	2.85046	-1.60903	2.62362	-1.47628
4232.000	2.76565	-1.57340	2.52103	-1.41681
4233.000	2.60784	-1.60339	2.36908	-1.29777
4234.000	2.56838	-1.51606	2.23288	-1.30982
4235.000	2.52695	-1.51214	2.09469	-1.22449
4236.000	2.51313	-1.45257	2.00781	-1.19077
4237.000	2.39868	-1.43084	1.95845	-1.18683
4238.000	2.48156	-1.39897	1.93475	-1.15306
4239.000	2.51905	-1.46647	1.94660	-1.14908
4240.000	2.58219	-1.47434	1.94265	-1.13517
4241.000	2.68478	-1.51393	1.94067	-1.16896
4242.000	2.70056	-1.52782	1.98017	-1.07949
4243.000	2.84060	-1.51771	2.05520	-1.16887
4244.000	2.90568	-1.54145	2.12233	-1.16684
4245.000	3.00821	-1.56116	2.28618	-1.17466
4246.000	3.13437	-1.54509	2.32960	-1.21436
4247.000	3.16000	-1.53314	2.33355	-1.19846
4248.000	3.22701	-1.58068	2.42433	-1.22818
4249.000	3.26248	-1.57070	2.38881	-1.26000
4250.000	3.22898	-1.54297	2.40657	-1.29575
4251.000	3.28810	-1.59845	2.45788	-1.32550
4252.000	3.29795	-1.61431	2.45196	-1.26590
4253.000	3.25460	-1.61041	2.43618	-1.28976
4254.000	3.20533	-1.58667	2.45788	-1.24802
4255.000	3.16197	-1.62246	2.46578	-1.29966
4256.000	3.14620	-1.54904	2.43815	-1.25797
4257.000	3.08904	-1.60272	2.40065	-1.33946
4258.000	3.16197	-1.57879	2.46183	-1.31357
4259.000	3.04172	-1.62463	2.38289	-1.26796
4260.000	3.09889	-1.60668	2.40657	-1.32356
4261.000	3.12452	-1.63244	2.39078	-1.30967
4262.000	3.06144	-1.58292	2.38486	-1.30372
4263.000	3.09495	-1.57890	2.38881	-1.29179
4264.000	3.09298	-1.55706	2.35131	-1.22825
4265.000	3.07721	-1.60671	2.33552	-1.30376
4266.000	3.09692	-1.53522	2.35921	-1.32162
4267.000	3.10086	-1.56896	2.34737	-1.31170
4268.000	3.08312	-1.59678	2.36315	-1.26996
4269.000	3.08706	-1.58486	2.32763	-1.28589
4270.000	3.11072	-1.53123	2.32763	-1.29781
4271.000	3.01215	-1.56711	2.25854	-1.28992
4272.000	3.00426	-1.54925	2.24867	-1.27404
4273.000	2.99046	-1.50758	2.23486	-1.30584
4274.000	2.99638	-1.51750	2.21709	-1.31976
4275.000	3.00821	-1.56513	2.21314	-1.25817
4276.000	2.96878	-1.53739	2.21906	-1.25022
4277.000	2.93920	-1.47191	2.20722	-1.23036
4278.000	2.94314	-1.44212	2.21117	-1.24228
4279.000	2.93328	-1.50369	2.20722	-1.31381
4280.000	2.97666	-1.52547	2.14997	-1.21650
4281.000	2.91357	-1.46797	2.22893	-1.22835
4282.000	2.94314	-1.43815	2.17366	-1.20257
4283.000	2.94906	-1.49374	2.17366	-1.21052
4284.000	2.92737	-1.46597	2.19735	-1.25222
4285.000	2.94709	-1.48977	2.19538	-1.22441
4286.000	2.90173	-1.44615	2.15392	-1.24630
4287.000	2.89976	-1.42828	2.18945	-1.21448
4288.000	2.88793	-1.43425	2.22696	-1.23630
4289.000	2.90765	-1.43422	2.21117	-1.19260
4290.000	2.88201	-1.38461	2.18156	-1.23435
4291.000	2.89385	-1.42034	2.21906	-1.23830
4292.000	2.93131	-1.45802	2.17761	-1.20455
4293.000	2.94314	-1.45006	2.17366	-1.26417
4294.000	2.93328	-1.46000	2.19538	-1.22043
4295.000	2.94709	-1.40836	2.19735	-1.25620
4296.000	2.90568	-1.45210	2.20327	-1.24228
4297.000	2.88793	-1.46999	2.21117	-1.22439
4298.000	2.92145	-1.43222	2.19143	-1.18864
4299.000	2.94117	-1.49176	2.18353	-1.24826
4300.000	2.88201	-1.46404	2.21117	-1.24625
4301.000	2.90568	-1.47990	2.19932	-1.22043
4302.000	2.92342	-1.49377	2.21906	-1.21445
4303.000	2.92934	-1.41831	2.21314	-1.24426
4304.000	2.88990	-1.39652	2.18748	-1.22441
4305.000	2.90568	-1.45805	2.19538	-1.23236
4306.000	2.85835	-1.46804	2.19143	-1.21646
4307.000	2.87018	-1.43427	2.18945	-1.22839
4308.000	2.92145	-1.40839	2.21117	-1.18267
4309.000	2.87413	-1.43427	2.17366	-1.21052
4310.000	2.85046	-1.42437	2.16576	-1.20257
4311.000	2.87610	-1.47199	2.17169	-1.17276
4312.000	2.90371	-1.45806	2.18550	-1.17076
4313.000	2.81891	-1.49391	2.19143	-1.19659
4314.000	2.85638	-1.46407	2.15589	-1.18072
4315.000	2.88596	-1.44021	2.24473	-1.18065
4316.000	2.85046	-1.39458	2.15787	-1.19264
4317.000	2.90568	-1.48387	2.18353	-1.18666
4318.000	2.89582	-1.46005	2.19340	-1.15685
4319.000	2.86229	-1.45612	2.18550	-1.16480
4320.000	2.85243	-1.49784	2.22499	-1.18663
4321.000	2.85835	-1.42634	2.19932	-1.17870
4322.000	2.90173	-1.51167	2.21512	-1.25221
4323.000	2.87018	-1.44420	2.18353	-1.23237
4324.000	2.88596	-1.50573	2.20130	-1.16678
4325.000	2.80707	-1.47009	2.17958	-1.15884
4326.000	2.82877	-1.45617	2.18156	-1.15288
4327.000	2.83271	-1.49985	2.19932	-1.15684
4328.000	2.85835	-1.47797	2.15984	-1.17476
4329.000	2.80905	-1.44428	2.15194	-1.16483
4330.000	2.84849	-1.43430	2.20130	-1.17870
4331.000	2.86624	-1.47796	2.15194	-1.15092
4332.000	2.81891	-1.40455	2.23486	-1.17470
4333.000	2.88201	-1.45808	2.17169	-1.15090
4334.000	2.83863	-1.41445	2.17366	-1.19661
4335.000	2.87807	-1.44419	2.18748	-1.16083
4336.000	2.86427	-1.42435	2.17169	-1.12904
4337.000	2.87215	-1.45611	2.21314	-1.19856
4338.000	2.80313	-1.45024	2.20130	-1.19062
4339.000	2.92737	-1.44413	2.16576	-1.13302
4340.000	2.89582	-1.43424	2.15392	-1.20656
4341.000	2.91948	-1.46201	2.23288	-1.18265
4342.000	2.86229	-1.43428	2.16379	-1.11514
4343.000	2.88004	-1.44816	2.19340	-1.15486
4344.000	2.84849	-1.42636	2.15194	-1.15290
4345.000	2.79524	-1.46018	2.17563	-1.16680
4346.000	2.81496	-1.41845	2.14602	-1.14496
4347.000	2.83666	-1.45020	2.16181	-1.21251
4348.000	2.83074	-1.41446	2.23486	-1.13496
4349.000	2.84257	-1.41643	2.18550	-1.12506
4350.000	2.83271	-1.45616	2.16774	-1.16680
4351.000	2.84454	-1.39657	2.19735	-1.17473
4352.000	2.79129	-1.44827	2.17366	-1.12904
4353.000	2.80905	-1.46016	2.15589	-1.17079
4354.000	2.84060	-1.41048	2.16379	-1.20655
4355.000	2.90173	-1.40643	2.18550	-1.13897
4356.000	2.82680	-1.45021	2.18156	-1.21647
4357.000	2.83666	-1.41843	2.18353	-1.13698
4358.000	2.84060	-1.45019	2.17761	-1.14692
4359.000	2.88990	-1.44219	2.17366	-1.19263
4360.000	2.85835	-1.39060	2.15589	-1.19662
4361.000	2.83271	-1.38070	2.21709	-1.19061
4362.000	2.85243	-1.50379	2.20722	-1.19260
4363.000	2.80510	-1.38272	2.23880	-1.23828
4364.000	2.84257	-1.37870	2.16181	-1.19463
4365.000	2.85835	-1.41840	2.23091	-1.21842
4366.000	2.86229	-1.44421	2.16576	-1.24629
4367.000	2.83666	-1.43829	2.17169	-1.18866
4368.000	2.82680	-1.45220	2.23486	-1.15483
4369.000	2.83468	-1.46609	2.17366	-1.20455
4370.000	2.83271	-1.40453	2.20722	-1.20651
4371.000	2.86821	-1.47200	2.14010	-1.18670
4372.000	2.79918	-1.43436	2.19538	-1.20851
4373.000	2.79129	-1.49394	2.18550	-1.19660
4374.000	2.83863	-1.48395	2.14997	-1.26021
4375.000	2.79918	-1.41450	2.17169	-1.21847
4376.000	2.85243	-1.45217	2.17761	-1.22641
4377.000	2.82088	-1.52965	2.16379	-1.21052
4378.000	2.84257	-1.48593	2.16181	-1.26219
4379.000	2.84652	-1.45217	2.14602	-1.22246
4380.000	2.83074	-1.46808	2.15392	-1.22842
4381.000	2.79327	-1.48004	2.18353	-1.20653
4382.000	2.80313	-1.40060	2.19538	-1.21050
4383.000	2.85243	-1.44621	2.17366	-1.25026
4384.000	2.85835	-1.51371	2.15392	-1.25822
4385.000	2.79721	-1.52968	2.18550	-1.15487
4386.000	2.80707	-1.49789	2.16576	-1.19661
4387.000	2.84060	-1.45019	2.19340	-1.16678
4388.000	2.80313	-1.45620	2.14997	-1.15688
4389.000	2.79721	-1.48004	2.16379	-1.20655
4390.000	2.75974	-1.49398	2.25460	-1.18660
4391.000	2.80707	-1.50981	2.12036	-1.20857
4392.000	2.78341	-1.47807	2.18353	-1.21846
4393.000	2.82285	-1.48000	2.15589	-1.13502
4394.000	2.83666	-1.47006	2.17366	-1.21648
4395.000	2.85835	-1.48989	2.22301	-1.14490
4396.000	2.82482	-1.45617	2.17366	-1.20853
4397.000	2.85441	-1.44025	2.19538	-1.25223
4398.000	2.83468	-1.50382	2.15589	-1.19463
4399.000	2.79721	-1.51379	2.17958	-1.14295
4400.000	2.82877	-1.49588	2.17958	-1.20455
4401.000	2.82285	-1.46809	2.20327	-1.18466
4402.000	2.78735	-1.54160	2.19340	-1.19262
4403.000	2.85638	-1.49187	2.20919	-1.20254
4404.000	2.84257	-1.47402	2.15984	-1.17476
4405.000	2.83863	-1.46211	2.14405	-1.20656
4406.000	2.85835	-1.48393	2.18748	-1.20454
4407.000	2.78538	-1.49991	2.19538	-1.17473
4408.000	2.83271	-1.48198	2.17958	-1.20852
4409.000	2.83271	-1.44425	2.18550	-1.17474
4410.000	2.85441	-1.45613	2.20722	-1.15882
4411.000	2.85046	-1.45614	2.18550	-1.17474
4412.000	2.80116	-1.44230	2.20130	-1.18863
4413.000	2.81891	-1.46809	2.17563	-1.20257
4414.000	2.78143	-1.44431	2.23091	-1.20848
4415.000	2.83666	-1.47601	2.18945	-1.20057
4416.000	2.81693	-1.48597	2.13812	-1.17875
4417.000	2.78341	-1.45622	2.18748	-1.21249
4418.000	2.83863	-1.51970	2.17169	-1.22840
4419.000	2.78143	-1.51580	2.16774	-1.18071
4420.000	2.82877	-1.46411	2.13220	-1.18670
4421.000	2.84060	-1.45814	2.14997	-1.21053
4422.000	2.84849	-1.45813	2.17761	-1.16282
4423.000	2.75776	-1.52576	2.19538	-1.21050
4424.000	2.76565	-1.49795	2.14602	-1.18272
4425.000	2.75579	-1.45824	2.19143	-1.19460
4426.000	2.80313	-1.47010	2.21117	-1.15087
4427.000	2.78932	-1.50785	2.17563	-1.21647
4428.000	2.83666	-1.46211	2.22104	-1.20849
4429.000	2.73212	-1.48210	2.20525	-1.22042
4430.000	2.76368	-1.48603	2.17761	-1.21250
4431.000	2.79327	-1.48004	2.16971	-1.19661
4432.000	2.81102	-1.47207	2.14997	-1.21053
4433.000	2.75974	-1.50193	2.20525	-1.18863
4434.000	2.78538	-1.47608	2.21117	-1.21843
4435.000	2.79129	-1.48600	2.14207	-1.22842
4436.000	2.80116	-1.48003	2.18550	-1.16480
4437.000	2.78538	-1.50189	2.21314	-1.19061
4438.000	2.76565	-1.47015	2.19932	-1.19062
4439.000	2.80510	-1.51775	2.20919	-1.20254
4440.000	2.80905	-1.48995	2.17563	-1.19263
4441.000	2.74593	-1.45230	2.18748	-1.19659
4442.000	2.78735	-1.46813	2.14800	-1.17675
4443.000	2.78538	-1.46416	2.14602	-1.19265
4444.000	2.78735	-1.45423	2.12628	-1.20459
4445.000	2.79327	-1.42642	2.17761	-1.11513
4446.000	2.80313	-1.49393	2.17366	-1.19859
4447.000	2.79129	-1.44628	2.21512	-1.17074
4448.000	2.81891	-1.45419	2.17169	-1.14295
4449.000	2.77157	-1.51780	2.14800	-1.17874
4450.000	2.79129	-1.42643	2.18353	-1.16878
4451.000	2.74790	-1.49003	2.16181	-1.15091
4452.000	2.73015	-1.48608	2.18353	-1.15884
4453.000	2.79129	-1.42643	2.17958	-1.19064
4454.000	2.72423	-1.47615	2.14010	-1.19464
4455.000	2.79129	-1.46416	2.16971	-1.15289
4456.000	2.78538	-1.55948	2.14800	-1.18669
4457.000	2.76960	-1.53368	2.16181	-1.18072
4458.000	2.83863	-1.44821	2.11641	-1.14299
4459.000	2.75776	-1.41058	2.14997	-1.17079
4460.000	2.78341	-1.47807	2.14405	-1.12906
4461.000	2.75776	-1.45427	2.17761	-1.13699
4462.000	2.83074	-1.41248	2.13023	-1.13503
4463.000	2.78143	-1.44630	2.13812	-1.19266
4464.000	2.76763	-1.39865	2.13023	-1.16484
4465.000	2.74593	-1.44435	2.06705	-1.12117
4466.000	2.70648	-1.38879	2.07495	-1.14700
4467.000	2.63152	-1.32333	2.02756	-1.12716
4468.000	2.60390	-1.32336	2.00386	-1.14705
4469.000	2.45394	-1.36126	1.96832	-1.14707
4470.000	2.31184	-1.35345	1.83798	-1.08753
4471.000	2.22893	-1.26412	1.69775	-1.10749
4472.000	1.96635	-1.23055	1.52193	-0.97240
4473.000	1.86761	-1.20677	1.36980	-0.98042
4474.000	1.61873	-1.13537	1.22358	-0.91684
4475.000	1.35795	-1.08779	0.97062	-0.86720
4476.000	1.16034	-1.05407	0.80656	-0.84338
4477.000	1.01410	-0.98452	0.66424	-0.70418
4478.000	0.84214	-0.90701	0.55552	-0.63259
4479.000	0.74133	-0.88118	0.47447	-0.60673
4480.000	0.67808	-0.85335	0.37760	-0.52121
4481.000	0.61087	-0.81159	0.25108	-0.46153
4482.000	0.68994	-0.75987	0.22142	-0.41777
4483.000	0.67808	-0.66837	0.22340	-0.37600
4484.000	0.65436	-0.64650	0.21154	-0.32626
4485.000	0.72750	-0.58682	0.21352	-0.25067
4486.000	0.82831	-0.57487	0.30446	-0.20093
4487.000	0.87377	-0.58083	0.31632	-0.16313
4488.000	0.96666	-0.58678	0.45865	-0.21883
4489.000	1.04374	-0.58080	0.51005	-0.29044
4490.000	1.07536	-0.53903	0.53378	-0.27851
4491.000	1.11884	-0.51913	0.55354	-0.24071
4492.000	1.13663	-0.56089	0.63459	-0.27452
4493.000	1.18010	-0.53702	0.66029	-0.32027
4494.000	1.20184	-0.59270	0.64843	-0.24866
4495.000	1.17418	-0.52310	0.60889	-0.29442
4496.000	1.22753	-0.61059	0.66424	-0.32425
4497.000	1.18998	-0.59469	0.62075	-0.35012
4498.000	1.15837	-0.61856	0.66227	-0.28646
4499.000	1.23148	-0.62451	0.63855	-0.37399
4500.000	1.20382	-0.69413	0.63459	-0.33420
4501.000	1.24334	-0.65235	0.69785	-0.37995
4502.000	1.23346	-0.69213	0.66622	-0.35807
4503.000	1.20579	-0.68219	0.68599	-0.40979
4504.000	1.21567	-0.71202	0.72354	-0.40978
4505.000	1.20975	-0.67026	0.74726	-0.36403
4506.000	1.26705	-0.65831	0.79668	-0.37994
4507.000	1.24136	-0.72395	0.74331	-0.38392
4508.000	1.27496	-0.64439	0.79866	-0.41177
4509.000	1.23148	-0.65633	0.79470	-0.36204
4510.000	1.20579	-0.69015	0.78087	-0.38989
4511.000	1.18208	-0.65833	0.76308	-0.45553
4512.000	1.18010	-0.65635	0.73936	-0.46548
4513.000	1.23939	-0.67224	0.74924	-0.38989
4514.000	1.18801	-0.63049	0.76110	-0.45752
4515.000	1.17615	-0.68817	0.77296	-0.44956
4516.000	1.20777	-0.71998	0.69389	-0.43167
4517.000	1.15441	-0.65635	0.69982	-0.42968
4518.000	1.21963	-0.73191	0.72947	-0.46548
4519.000	1.19591	-0.69015	0.71366	-0.47145
4520.000	1.17813	-0.64243	0.70773	-0.43962
4521.000	1.17615	-0.69214	0.72354	-0.40978
4522.000	1.15046	-0.71999	0.68796	-0.43366
4523.000	1.18010	-0.64441	0.71564	-0.41774
4524.000	1.14256	-0.66232	0.69587	-0.43366
4525.000	1.20184	-0.67225	0.71959	-0.40581
4526.000	1.18998	-0.69214	0.65831	-0.40979
4527.000	1.16825	-0.66232	0.67413	-0.41973
4528.000	1.17022	-0.68220	0.65831	-0.43565
4529.000	1.16825	-0.66232	0.69982	-0.43962
4530.000	1.16825	-0.63049	0.68401	-0.43366
4531.000	1.17022	-0.67425	0.67413	-0.43366
4532.000	1.14848	-0.62652	0.66424	-0.44758
4533.000	1.17022	-0.67822	0.67017	-0.44162
4534.000	1.16232	-0.63249	0.69587	-0.47344
4535.000	1.17813	-0.66629	0.68203	-0.47344
4536.000	1.18603	-0.73390	0.68796	-0.43366
4537.000	1.17813	-0.67226	0.69982	-0.42769
4538.000	1.18208	-0.62055	0.71959	-0.44161
4539.000	1.17220	-0.67226	0.65634	-0.40183
4540.000	1.16825	-0.67823	0.71564	-0.40780
4541.000	1.16627	-0.66033	0.68401	-0.39785
4542.000	1.13465	-0.66829	0.67610	-0.39189
4543.000	1.16627	-0.70806	0.69587	-0.40183
4544.000	1.16034	-0.63447	0.69785	-0.39586
4545.000	1.15046	-0.68221	0.67610	-0.36802
4546.000	1.16429	-0.69811	0.67017	-0.40382
4547.000	1.15441	-0.68022	0.66820	-0.38990
4548.000	1.11489	-0.62454	0.65238	-0.40183
4549.000	1.13465	-0.64840	0.66227	-0.40382
4550.000	1.12477	-0.64641	0.65238	-0.38592
4551.000	1.12477	-0.67028	0.66029	-0.37597
4552.000	1.15046	-0.68022	0.66029	-0.34017
4553.000	1.14256	-0.64840	0.62668	-0.34216
4554.000	1.14848	-0.62652	0.68401	-0.37796
4555.000	1.15837	-0.62851	0.66424	-0.36802
4556.000	1.11291	-0.68023	0.62471	-0.33420
4557.000	1.16232	-0.70607	0.68401	-0.39387
4558.000	1.17615	-0.66629	0.66029	-0.34216
4559.000	1.13860	-0.64442	0.67610	-0.32823
4560.000	1.10303	-0.63846	0.62273	-0.34813
4561.000	1.13268	-0.65437	0.65831	-0.31033
4562.000	1.10698	-0.64244	0.66622	-0.31232
4563.000	1.13070	-0.68420	0.65041	-0.34614
4564.000	1.16825	-0.67823	0.64645	-0.26657
4565.000	1.12477	-0.67426	0.63262	-0.28049
4566.000	1.09908	-0.64841	0.62866	-0.26657
4567.000	1.09710	-0.65239	0.65041	-0.27054
4568.000	1.09710	-0.63847	0.63855	-0.28049
4569.000	1.05955	-0.65836	0.60889	-0.27055
4570.000	1.04967	-0.66831	0.61482	-0.29442
4571.000	1.09908	-0.69614	0.67017	-0.32027
4572.000	1.13070	-0.67028	0.63459	-0.32028
4573.000	1.09117	-0.63250	0.63657	-0.33221
4574.000	1.10106	-0.62653	0.63855	-0.24468
4575.000	1.11687	-0.64443	0.67610	-0.32425
4576.000	1.11884	-0.62255	0.68006	-0.27452
4577.000	1.12279	-0.67426	0.66424	-0.25065
4578.000	1.04177	-0.65439	0.61285	-0.18103
4579.000	1.14848	-0.62453	0.65238	-0.28248
4580.000	1.13070	-0.65039	0.61878	-0.28049
4581.000	1.12872	-0.62653	0.64052	-0.29044
4582.000	1.10698	-0.65437	0.60889	-0.20689
4583.000	1.10896	-0.65040	0.63657	-0.23872
4584.000	1.08920	-0.66034	0.62668	-0.31232
4585.000	1.11094	-0.72796	0.63459	-0.26856
4586.000	1.09513	-0.63051	0.62866	-0.28646
4587.000	1.11687	-0.61658	0.66029	-0.27850
4588.000	1.12082	-0.67824	0.61680	-0.27850
4589.000	1.09908	-0.66034	0.60692	-0.25065
4590.000	1.13465	-0.66630	0.63855	-0.28248
4591.000	1.13465	-0.67227	0.61285	-0.23474
4592.000	1.15639	-0.61061	0.59308	-0.22678
4593.000	1.12082	-0.63249	0.58913	-0.25264
4594.000	1.13860	-0.62652	0.58913	-0.28248
4595.000	1.11094	-0.62056	0.62273	-0.27452
4596.000	1.05758	-0.63450	0.59703	-0.24668
4597.000	1.13268	-0.64641	0.62471	-0.25264
4598.000	1.11094	-0.63449	0.61285	-0.25264
4599.000	1.10501	-0.65239	0.60099	-0.31829
4600.000	1.07339	-0.64245	0.61482	-0.23076
4601.000	1.06351	-0.66632	0.59110	-0.29641
4602.000	1.11489	-0.62454	0.57727	-0.26259
4603.000	1.07734	-0.61858	0.64052	-0.24667
4604.000	1.07932	-0.65637	0.59506	-0.27055
4605.000	1.04374	-0.65041	0.65436	-0.26458
4606.000	1.06351	-0.63251	0.62075	-0.24071
4607.000	1.10501	-0.62255	0.58715	-0.26657
4608.000	1.04769	-0.65041	0.61878	-0.25662
4609.000	1.06548	-0.62853	0.60296	-0.19296
4610.000	1.06548	-0.68819	0.59506	-0.31033
4611.000	1.06746	-0.66234	0.61285	-0.24270
4612.000	1.06943	-0.67228	0.63064	-0.28447
4613.000	1.06548	-0.66035	0.62866	-0.25463
4614.000	1.08920	-0.66432	0.63262	-0.25264
4615.000	1.06746	-0.65040	0.60099	-0.25264
4616.000	1.06943	-0.67228	0.63262	-0.22678
4617.000	1.08327	-0.64841	0.60692	-0.26657
4618.000	1.04769	-0.71206	0.60494	-0.23076
4619.000	1.06351	-0.68819	0.61087	-0.28049
4620.000	1.06548	-0.69416	0.59703	-0.22479
4621.000	1.02398	-0.63251	0.60889	-0.24667
4622.000	1.02200	-0.67030	0.65436	-0.22280
4623.000	1.04374	-0.66433	0.63262	-0.24468
4624.000	1.10106	-0.63051	0.63459	-0.24468
4625.000	1.05362	-0.62654	0.62075	-0.20490
4626.000	1.11687	-0.66432	0.60889	-0.24866
4627.000	1.08722	-0.65836	0.64448	-0.21882
4628.000	1.06351	-0.67427	0.60296	-0.20490
4629.000	1.10698	-0.65636	0.63064	-0.26657
4630.000	1.10896	-0.66432	0.62668	-0.20092
4631.000	1.04177	-0.68621	0.63262	-0.22678
4632.000	1.01805	-0.66434	0.61285	-0.22081
4633.000	1.12477	-0.65238	0.63657	-0.23275
4634.000	1.05165	-0.62853	0.64645	-0.27054
4635.000	1.06351	-0.62853	0.59506	-0.25065
4636.000	1.10501	-0.64841	0.55354	-0.22281
4637.000	1.09710	-0.64045	0.55947	-0.21286
4638.000	1.09315	-0.63250	0.61680	-0.19097
4639.000	1.06548	-0.68422	0.59506	-0.20888
4640.000	1.08129	-0.60068	0.61680	-0.20092
4641.000	1.09710	-0.68023	0.56540	-0.16511
4642.000	1.13070	-0.63249	0.61680	-0.18302
4643.000	1.05758	-0.66632	0.59703	-0.19694
4644.000	1.07932	-0.66631	0.63262	-0.22678
4645.000	1.07932	-0.59471	0.58913	-0.20092
4646.000	1.07141	-0.63449	0.60889	-0.15915
4647.000	1.06548	-0.65637	0.59506	-0.23076
4648.000	1.08327	-0.61858	0.59110	-0.23076
4649.000	1.02398	-0.62655	0.61680	-0.18501
4650.000	1.10698	-0.68023	0.61087	-0.16909
4651.000	1.05560	-0.71007	0.58913	-0.19098
4652.000	1.10303	-0.63051	0.60296	-0.18501
4653.000	1.05955	-0.68024	0.60099	-0.23673
4654.000	1.07141	-0.64444	0.60494	-0.20689
4655.000	1.04967	-0.67626	0.61285	-0.26657
4656.000	1.06746	-0.65040	0.59506	-0.20092
4657.000	1.08327	-0.66631	0.60889	-0.13328
4658.000	1.10106	-0.65835	0.61878	-0.17705
4659.000	1.11687	-0.65636	0.62668	-0.17108
4660.000	1.07141	-0.63449	0.56936	-0.20092
4661.000	1.03781	-0.61859	0.61285	-0.25662
4662.000	1.06548	-0.64444	0.57331	-0.18302
4663.000	1.15639	-0.65635	0.60692	-0.19893
