time (ms)	lx (deg)	ly (deg)	rx (deg)	ry (deg)
0.000	-0.29457	0.91107	-0.69389	2.11167
1.000	-0.34795	0.96477	-0.71959	2.03219
2.000	-0.33806	0.99062	-0.71168	2.00041
3.000	-0.34004	0.96079	-0.66820	2.04215
4.000	-0.30841	0.92499	-0.62866	2.11964
5.000	-0.25701	0.85936	-0.80063	2.02619
6.000	-0.22933	0.80765	-0.68796	2.03618
7.000	-0.34795	0.93692	-0.72947	2.13748
8.000	-0.33411	0.89317	-0.74331	2.12754
9.000	-0.38353	0.82355	-0.65041	2.08785
10.000	-0.34597	0.99062	-0.74331	2.08979
11.000	-0.42307	0.95283	-0.74133	2.00635
12.000	-0.34993	0.79770	-0.71959	2.15735
13.000	-0.36179	0.90510	-0.74726	2.15932
14.000	-0.32818	0.84345	-0.68599	2.11167
15.000	-0.39342	0.92697	-0.74924	2.12158
16.000	-0.30446	0.91306	-0.69192	2.01830
17.000	-0.33806	0.85737	-0.69982	2.04213
18.000	-0.28864	0.82754	-0.81052	2.09572
19.000	-0.35783	0.97869	-0.76901	2.05800
20.000	-0.31236	0.85140	-0.79075	2.08580
21.000	-0.29852	0.98267	-0.74529	1.97655
22.000	-0.34004	0.92499	-0.74529	2.13548
23.000	-0.28864	0.93295	-0.77296	1.96859
24.000	-0.39144	0.91703	-0.59110	1.93290
25.000	-0.32818	0.89118	-0.67215	1.96466
26.000	-0.30248	0.94687	-0.69389	2.13154
27.000	-0.29852	1.00455	-0.77098	2.18116
28.000	-0.24515	0.83749	-0.71366	2.12159
29.000	-0.41912	0.88918	-0.83621	2.13147
30.000	-0.28073	0.93494	-0.79470	1.99043
31.000	-0.24712	0.97870	-0.86586	2.11754
32.000	-0.16409	0.92103	-0.79668	2.12553
33.000	-0.30050	0.91107	-0.68006	2.02029
34.000	-0.29852	0.87925	-0.73540	2.06199
35.000	-0.23131	1.05626	-0.78284	1.96461
36.000	-0.23526	0.95284	-0.69192	2.12756
37.000	-0.27282	1.01648	-0.73343	1.94675
38.000	-0.26294	0.95284	-0.78482	1.97057
39.000	-0.26689	0.88721	-0.77691	2.03614
40.000	-0.31632	0.86135	-0.72750	1.97854
41.000	-0.28271	0.99858	-0.74726	2.04013
42.000	-0.23922	1.03637	-0.81052	2.08182
43.000	-0.17398	0.86534	-0.69785	1.97458
44.000	-0.28469	0.74798	-0.73738	2.00834
45.000	-0.24712	1.02245	-0.71168	2.06597
46.000	-0.21352	1.00257	-0.73738	1.98251
47.000	-0.34004	0.79969	-0.76308	2.08780
48.000	-0.21945	0.91506	-0.73936	2.11364
49.000	-0.27876	0.98466	-0.62273	2.10375
50.000	-0.34004	0.81958	-0.61878	2.11766
51.000	-0.17002	0.94688	-0.74133	2.02423
52.000	-0.16409	0.96478	-0.75912	2.11561
53.000	-0.18781	0.88125	-0.68203	2.12360
54.000	-0.28864	0.85538	-0.74529	2.11959
55.000	-0.15816	0.94290	-0.81249	2.14538
56.000	-0.30050	0.94091	-0.67808	2.01035
57.000	-0.31039	0.99659	-0.71761	2.01431
58.000	-0.19968	0.93694	-0.76703	2.01826
59.000	-0.26887	0.97671	-0.65041	2.02626
60.000	-0.29457	0.96875	-0.73540	2.11562
61.000	-0.27678	0.86533	-0.63855	2.13752
62.000	-0.29852	0.90312	-0.63855	2.16930
63.000	-0.40528	0.86134	-0.73936	2.09774
64.000	-0.31829	0.94289	-0.62075	1.96468
65.000	-0.37760	0.78576	-0.74924	2.03615
66.000	-0.32620	0.98068	-0.77296	2.07190
67.000	-0.27282	1.02842	-0.72750	2.00040
68.000	-0.30841	0.89914	-0.76703	2.04210
69.000	-0.33411	0.96875	-0.72354	2.05404
70.000	-0.25503	0.95284	-0.67808	2.17922
71.000	-0.20363	0.94489	-0.70971	2.09180
72.000	-0.37167	0.92499	-0.68401	1.99247
73.000	-0.25503	0.85936	-0.67610	2.13949
74.000	-0.30050	0.84544	-0.86191	2.07583
75.000	-0.30248	0.84942	-0.78284	2.06991
76.000	-0.31434	0.89118	-0.74924	2.07986
77.000	-0.31039	0.92698	-0.75715	2.00436
78.000	-0.38156	0.78576	-0.73145	2.09973
79.000	-0.36772	0.75394	-0.75912	2.06197
80.000	-0.28271	0.88721	-0.80459	2.09572
81.000	-0.37958	0.98465	-0.73540	2.02821
82.000	-0.26492	0.86135	-0.57133	2.09185
83.000	-0.34399	0.90709	-0.83424	2.04207
84.000	-0.21945	1.00853	-0.72157	2.14940
85.000	-0.30841	0.86732	-0.57727	2.02430
86.000	-0.26689	0.92102	-0.66227	2.09182
87.000	-0.32422	0.74002	-0.78284	2.03614
88.000	-0.25108	0.91903	-0.61482	2.08985
89.000	-0.29062	0.87726	-0.82238	2.13346
90.000	-0.31236	0.98267	-0.72750	2.12159
91.000	-0.20956	1.03041	-0.58517	2.07993
92.000	-0.34399	0.97073	-0.77296	2.14540
93.000	-0.27876	1.00853	-0.68203	2.24477
94.000	-0.26294	0.84942	-0.74133	2.09178
95.000	-0.28271	0.94290	-0.70971	2.15338
96.000	-0.21945	1.03836	-0.75122	2.09972
97.000	-0.17991	1.08212	-0.70971	2.20105
98.000	-0.28073	0.96676	-0.70378	2.16530
99.000	-0.17595	1.13184	-0.70180	2.21099
100.000	-0.20165	1.02047	-0.72157	2.15139
101.000	-0.27876	1.03836	-0.75122	1.97853
102.000	-0.23131	1.07217	-0.73540	2.12158
103.000	-0.27678	0.75593	-0.69785	2.28845
104.000	-0.23724	0.80367	-0.66227	2.08387
105.000	-0.12257	0.86733	-0.55552	2.09782
106.000	-0.17398	0.78577	-0.54959	1.93490
107.000	-0.13246	0.64654	-0.60494	1.83353
108.000	-0.13641	0.80368	-0.48040	1.87729
109.000	-0.18386	0.61471	-0.42900	1.67061
110.000	-0.14037	0.56299	-0.45272	1.48374
111.000	-0.02372	0.53116	-0.36179	1.44400
112.000	-0.14234	0.43767	-0.34399	1.40424
113.000	-0.09094	0.36804	-0.34399	1.25312
114.000	-0.08897	0.18303	-0.34004	1.14574
115.000	-0.15223	0.17308	-0.29259	0.99461
116.000	-0.09292	0.10942	-0.32620	0.76389
117.000	-0.09292	0.08555	-0.25701	0.69626
118.000	-0.13839	0.06565	-0.42307	0.79570
119.000	-0.01582	-0.03979	-0.33609	0.69626
120.000	0.04547	-0.05371	-0.21549	0.59482
121.000	-0.06722	-0.08952	-0.22538	0.55105
122.000	-0.09885	-0.25266	-0.24910	0.53713
123.000	-0.07513	-0.20491	-0.29457	0.38594
124.000	-0.04349	-0.21088	-0.16804	0.52321
125.000	-0.07117	-0.23674	-0.19375	0.56100
126.000	-0.05536	-0.18900	-0.17595	0.50331
127.000	-0.05536	-0.25862	-0.21154	0.49933
128.000	-0.04943	-0.13130	-0.28666	0.58487
129.000	0.04349	-0.18701	-0.21945	0.57492
130.000	0.06524	-0.00398	-0.30050	0.66841
131.000	0.01384	-0.08157	-0.24712	0.63460
132.000	0.00989	-0.14324	-0.35190	0.69029
133.000	-0.02768	0.07361	-0.36772	0.78377
134.000	-0.08106	0.11141	-0.37167	0.95880
135.000	-0.02372	0.07162	-0.36376	0.99659
136.000	0.08303	0.13727	-0.30841	0.98466
137.000	0.05733	0.05968	-0.27678	0.87726
138.000	-0.03361	0.04178	-0.35586	0.96477
139.000	0.01582	-0.00796	-0.37563	1.01051
140.000	0.01977	-0.03183	-0.32225	0.97471
141.000	0.08501	0.03581	-0.38946	0.98067
142.000	0.06326	-0.03382	-0.21945	0.92699
143.000	-0.01582	0.05173	-0.26887	0.93295
144.000	-0.03163	-0.01790	-0.30248	0.89317
145.000	-0.09687	-0.08555	-0.26294	0.96478
146.000	-0.00395	-0.01989	-0.31236	0.99063
147.000	-0.15618	-0.09748	-0.36969	0.97073
148.000	0.02175	-0.06167	-0.34597	0.98665
149.000	-0.04547	-0.04377	-0.32620	0.99858
150.000	-0.08303	-0.00398	-0.29852	1.10995
151.000	0.00000	-0.11539	-0.26887	1.08808
152.000	-0.14432	-0.11539	-0.39935	1.04829
153.000	-0.07513	-0.01592	-0.41121	0.98266
154.000	0.00000	0.03581	-0.34202	1.06421
155.000	-0.10280	-0.07759	-0.28864	0.99461
156.000	-0.02175	-0.09549	-0.26294	0.97870
157.000	-0.17793	-0.02387	-0.36772	1.02443
158.000	-0.01186	-0.10345	-0.33213	1.10597
159.000	-0.08303	-0.09350	-0.35586	1.08409
160.000	-0.06722	0.06565	-0.37958	1.03835
161.000	-0.08699	-0.04576	-0.40726	1.04431
162.000	0.00395	0.07759	-0.40133	1.04630
163.000	-0.05733	0.01989	-0.37365	1.05426
164.000	-0.05733	-0.00199	-0.40133	1.05625
165.000	-0.18584	-0.09748	-0.29062	1.00853
166.000	0.03163	-0.00995	-0.39342	1.08608
167.000	0.05140	0.06366	-0.39737	1.02244
168.000	-0.02372	-0.00199	-0.39342	1.05028
169.000	-0.10280	0.06366	-0.33411	0.98665
170.000	0.02768	-0.01592	-0.25701	1.00853
171.000	0.08897	0.02188	-0.39342	1.06221
172.000	-0.01186	-0.04775	-0.32422	1.01847
173.000	0.00593	-0.06963	-0.40726	0.96874
174.000	-0.03163	0.00796	-0.37958	1.06420
175.000	0.00791	0.10345	-0.31829	0.84941
176.000	-0.07513	-0.01393	-0.39737	1.00454
177.000	-0.07315	0.12136	-0.39342	0.96476
178.000	0.04745	0.11340	-0.41714	0.95283
179.000	-0.02768	-0.00796	-0.28864	0.92500
180.000	0.04349	-0.03382	-0.28271	0.85339
181.000	-0.00791	-0.00597	-0.40923	0.94288
182.000	0.09885	-0.02188	-0.27678	0.88323
183.000	0.05536	0.03382	-0.40330	0.79173
184.000	-0.07315	-0.08157	-0.32225	0.85936
185.000	0.09094	-0.07361	-0.32818	0.92897
186.000	-0.03756	0.02984	-0.37958	0.88123
187.000	0.00395	0.02387	-0.40726	0.95879
188.000	0.12455	-0.04377	-0.38156	0.85140
189.000	0.00791	0.05371	-0.37760	0.86731
190.000	0.02175	-0.08754	-0.46459	0.89514
191.000	0.03163	0.12334	-0.29457	0.87726
192.000	0.05338	0.13130	-0.42505	0.76984
193.000	-0.03756	0.01989	-0.32818	0.87527
194.000	0.08106	0.05173	-0.33806	0.89516
195.000	0.00000	0.06167	-0.31434	0.81361
196.000	0.09490	0.14523	-0.41714	0.83548
197.000	0.00000	0.08754	-0.38551	0.84543
198.000	0.09687	0.01989	-0.35586	0.84146
199.000	-0.03954	0.04178	-0.34202	0.89118
200.000	0.09490	0.03382	-0.33213	0.84544
201.000	0.01186	0.04377	-0.41319	0.83747
202.000	0.12455	0.00000	-0.33609	0.90311
203.000	0.04547	0.12334	-0.39539	0.85736
204.000	0.05536	0.02984	-0.32422	0.80168
205.000	0.01384	0.05968	-0.32620	0.85737
206.000	0.18188	0.14324	-0.35388	0.95283
207.000	0.08897	0.06366	-0.33016	0.75991
208.000	0.00791	0.07361	-0.34795	1.00653
209.000	0.00395	0.01989	-0.30841	0.94687
210.000	0.02175	0.09151	-0.38749	0.92300
211.000	0.04745	0.10942	-0.43691	0.80962
212.000	0.00791	0.09947	-0.32225	0.87726
213.000	0.04745	0.06167	-0.27085	0.85340
214.000	0.05733	0.11738	-0.27876	0.79969
215.000	0.03559	0.02984	-0.36179	0.80764
216.000	-0.05733	0.00398	-0.39737	0.82753
217.000	-0.04349	0.17706	-0.35388	0.87726
218.000	-0.04745	0.04576	-0.50610	0.88917
219.000	0.05140	0.00000	-0.37365	0.78178
220.000	-0.10874	-0.02984	-0.29259	0.86533
221.000	0.02768	-0.00597	-0.27876	0.77980
222.000	0.01186	0.05968	-0.35981	0.95283
223.000	-0.08897	0.12931	-0.36574	0.74797
224.000	-0.14630	0.04775	-0.36772	0.75195
225.000	-0.16409	0.12135	-0.41912	0.91902
226.000	-0.03163	0.00796	-0.40923	0.84742
227.000	-0.17002	0.06565	-0.42505	0.89117
228.000	-0.14630	0.07759	-0.32225	0.86731
229.000	-0.00198	0.15717	-0.37958	0.85736
230.000	-0.05338	0.13727	-0.40133	0.82952
231.000	-0.08303	0.05968	-0.41714	0.83548
232.000	-0.01384	-0.00398	-0.36376	0.79372
233.000	-0.05931	-0.03581	-0.35388	0.93692
234.000	-0.14827	-0.02188	-0.38156	0.79372
235.000	-0.04547	0.08356	-0.35783	0.87328
236.000	-0.05338	0.04178	-0.45668	0.82354
237.000	-0.04349	-0.04178	-0.33411	0.83151
238.000	-0.10676	0.09350	-0.38749	0.74001
239.000	-0.18188	-0.00796	-0.34399	0.84345
240.000	-0.11664	0.08356	-0.35586	0.83947
241.000	-0.05733	-0.06167	-0.33806	0.77781
242.000	-0.00395	0.02387	-0.41714	0.82554
243.000	-0.03361	0.03581	-0.35586	0.86930
244.000	-0.03954	0.16114	-0.40330	0.87924
245.000	-0.16211	-0.07958	-0.33411	0.82753
246.000	-0.00791	-0.01989	-0.47447	0.64851
247.000	-0.12850	-0.01790	-0.33016	0.79571
248.000	-0.05733	0.00000	-0.30050	0.81162
249.000	-0.11467	-0.03780	-0.34597	0.80367
250.000	-0.18386	-0.02984	-0.32225	0.88323
251.000	-0.13048	0.03183	-0.34202	0.90908
252.000	-0.19968	0.03183	-0.39737	0.86333
253.000	-0.23922	-0.06366	-0.34004	0.86532
254.000	-0.09885	-0.00199	-0.35190	0.79770
255.000	-0.09885	0.15518	-0.32818	0.87129
256.000	-0.12257	-0.04377	-0.27678	0.82953
257.000	-0.10280	0.08356	-0.31434	0.87726
258.000	-0.16211	0.03780	-0.38946	0.91504
259.000	-0.21945	-0.09350	-0.27480	0.87130
260.000	-0.12850	0.02785	-0.26689	0.87726
261.000	-0.15421	0.07958	-0.38156	0.86134
262.000	-0.03954	0.01989	-0.31829	0.85936
263.000	-0.14037	0.03979	-0.37167	1.01051
264.000	-0.14234	0.05968	-0.31434	0.94090
265.000	-0.14234	-0.06167	-0.30643	0.82754
266.000	-0.12060	0.10544	-0.26689	0.95085
267.000	-0.08897	0.10345	-0.23922	0.83152
268.000	0.01186	0.09748	-0.34399	1.03438
269.000	-0.07315	0.17706	-0.24712	0.87726
270.000	-0.15223	-0.01989	-0.42900	0.73802
271.000	-0.11071	0.00199	-0.32620	0.83549
272.000	-0.13048	0.02188	-0.31632	0.79372
273.000	-0.07315	0.19695	-0.45865	0.95083
274.000	-0.19375	0.06167	-0.33213	0.84146
275.000	-0.08501	-0.02387	-0.30841	0.84743
276.000	-0.05733	0.06764	-0.37760	0.85140
277.000	-0.13246	-0.03183	-0.35388	0.88919
278.000	-0.10874	0.06963	-0.27282	0.78975
279.000	-0.10874	0.12334	-0.31236	0.75991
280.000	-0.08699	-0.02984	-0.32620	0.99062
281.000	-0.17595	0.09151	-0.38946	0.83747
282.000	-0.14827	-0.00995	-0.19770	0.72809
283.000	-0.04547	0.06167	-0.34202	0.75991
284.000	-0.04349	0.00796	-0.36574	0.80764
285.000	-0.11664	-0.02785	-0.25899	0.86135
286.000	-0.09490	-0.01194	-0.30248	0.74798
287.000	-0.03954	0.09947	-0.31632	0.89118
288.000	-0.09292	0.07759	-0.32027	0.72609
289.000	-0.04349	0.00796	-0.42505	0.84940
290.000	-0.07117	0.13329	-0.36969	0.85935
291.000	-0.06326	0.05371	-0.34795	0.72609
292.000	-0.09094	-0.02785	-0.31632	0.70421
293.000	-0.15421	0.01393	-0.35586	0.81560
294.000	-0.13246	0.07759	-0.39539	0.84742
295.000	-0.05733	0.08157	-0.31829	0.81162
296.000	-0.15223	0.05968	-0.31236	0.77980
297.000	-0.12060	-0.02586	-0.34399	0.75195
298.000	-0.04349	0.05769	-0.38156	0.88919
299.000	-0.10083	0.13329	-0.39539	0.81559
300.000	-0.14037	-0.02785	-0.41121	0.75393
301.000	-0.11862	0.07759	-0.35783	0.87129
302.000	-0.22538	0.07361	-0.34202	0.76587
303.000	-0.18979	0.02586	-0.41319	0.76587
304.000	-0.22142	0.00000	-0.43296	0.79968
305.000	-0.24515	0.01592	-0.31434	0.78179
306.000	-0.21549	-0.01989	-0.27085	0.65847
307.000	-0.30248	0.01790	-0.33213	0.58089
308.000	-0.16607	0.02387	-0.27480	0.79373
309.000	-0.32225	-0.05570	-0.40528	0.78178
310.000	-0.23329	0.06167	-0.45075	0.77979
311.000	-0.18979	0.00597	-0.36179	0.75593
312.000	-0.29259	-0.08157	-0.32422	0.69228
313.000	-0.18584	-0.02785	-0.19770	0.64852
314.000	-0.19968	-0.04377	-0.19572	0.66245
315.000	-0.19177	-0.07560	-0.27876	0.71018
316.000	-0.10083	-0.07958	-0.25899	0.73604
317.000	-0.31236	0.07958	-0.29457	0.71615
318.000	-0.12850	-0.00398	-0.22538	0.74599
319.000	-0.20758	-0.05371	-0.29062	0.66244
320.000	-0.26096	-0.00398	-0.13246	0.67836
321.000	-0.10478	0.16114	-0.23131	0.57293
322.000	-0.25108	-0.10743	-0.29062	0.58089
323.000	-0.07710	0.04974	-0.39144	0.66045
324.000	-0.19968	-0.10544	-0.25899	0.66245
325.000	-0.16607	-0.05769	-0.20758	0.67637
326.000	-0.28469	-0.04178	-0.28864	0.60078
327.000	-0.10478	0.04775	-0.23922	0.58686
328.000	-0.26492	-0.07958	-0.28864	0.63460
329.000	-0.23526	-0.10942	-0.21352	0.79771
330.000	-0.16014	-0.02586	-0.34399	0.67040
331.000	-0.15816	-0.14722	-0.30841	0.64255
332.000	-0.12850	-0.06963	-0.16607	0.60675
333.000	-0.21945	-0.10345	-0.21945	0.53713
334.000	-0.16409	-0.03382	-0.29852	0.44363
335.000	-0.19177	-0.09947	-0.29259	0.62266
336.000	-0.11269	-0.06565	-0.14432	0.51326
337.000	-0.08897	-0.00796	-0.19968	0.63858
338.000	-0.03954	-0.12334	-0.24317	0.48939
339.000	-0.14432	-0.11539	-0.22142	0.60675
340.000	-0.10874	-0.13329	-0.26294	0.78179
341.000	-0.15618	-0.22281	-0.22735	0.58885
342.000	-0.14827	-0.12136	-0.21352	0.52718
343.000	-0.13048	-0.12136	-0.22933	0.55105
344.000	-0.15223	-0.07958	-0.30248	0.50530
345.000	-0.19572	-0.10942	-0.20956	0.65648
346.000	-0.05536	-0.05570	-0.15223	0.58089
347.000	-0.16211	-0.16512	-0.15025	0.57095
348.000	-0.22538	-0.10146	-0.23724	0.58089
349.000	-0.11071	-0.12931	-0.21154	0.54310
350.000	-0.12850	-0.07361	-0.25108	0.59084
351.000	-0.15223	-0.29244	-0.27876	0.62266
352.000	-0.06722	-0.16512	-0.19770	0.47148
353.000	-0.15025	-0.23674	-0.26294	0.52917
354.000	-0.17002	-0.01592	-0.24119	0.46551
355.000	-0.15421	-0.13528	-0.27876	0.64852
356.000	-0.10083	-0.07560	-0.31039	0.68233
357.000	-0.20363	-0.08555	-0.17991	0.54310
358.000	-0.12060	-0.03183	-0.23922	0.54707
359.000	-0.18188	-0.04576	-0.27085	0.55105
360.000	-0.25305	-0.21287	-0.25701	0.61868
361.000	-0.14630	-0.14921	-0.25503	0.66245
362.000	-0.15421	-0.12136	-0.13444	0.68433
363.000	-0.16607	-0.10544	-0.26096	0.64255
364.000	-0.24317	-0.04775	-0.20363	0.56100
365.000	-0.17991	-0.12533	-0.25701	0.66046
366.000	-0.19770	-0.05769	-0.18584	0.60675
367.000	-0.19375	-0.04775	-0.25108	0.63261
368.000	-0.26294	-0.13329	-0.16409	0.55503
369.000	-0.09885	-0.09947	-0.26294	0.63062
370.000	-0.21945	-0.10743	-0.21154	0.65648
371.000	-0.06326	0.01194	-0.19968	0.59084
372.000	-0.13839	-0.13727	-0.26096	0.62863
373.000	-0.21945	-0.08952	-0.26887	0.58686
374.000	-0.17793	-0.06167	-0.30050	0.65648
375.000	-0.18584	-0.17109	-0.26096	0.52718
376.000	-0.17200	-0.01790	-0.27678	0.54309
377.000	-0.21352	-0.10146	-0.30643	0.50928
378.000	-0.11071	-0.15319	-0.34399	0.63260
379.000	-0.17595	-0.15915	-0.21352	0.50729
380.000	-0.17398	-0.07162	-0.27282	0.64255
381.000	-0.21154	-0.11141	-0.15618	0.58288
382.000	-0.22933	-0.08952	-0.21945	0.61073
383.000	-0.18188	-0.16711	-0.18386	0.53116
384.000	-0.26887	-0.07958	-0.28271	0.63659
385.000	-0.24712	-0.12931	-0.24515	0.53315
386.000	-0.34004	-0.15716	-0.17991	0.58686
387.000	-0.29062	-0.06963	-0.29852	0.56298
388.000	-0.35783	-0.26658	-0.15421	0.63659
389.000	-0.11467	-0.12931	-0.31039	0.55503
390.000	-0.19770	-0.09947	-0.28271	0.49336
391.000	-0.25305	-0.16910	-0.21747	0.56498
392.000	-0.27085	-0.12732	-0.28469	0.63857
393.000	-0.24515	-0.10544	-0.22340	0.57691
394.000	-0.26887	-0.09947	-0.23329	0.51127
395.000	-0.10874	-0.01592	-0.35783	0.54110
396.000	-0.25503	-0.07560	-0.21747	0.61471
397.000	-0.21549	-0.08356	-0.28864	0.45358
398.000	-0.23329	-0.15915	-0.39342	0.64851
399.000	-0.31434	-0.16711	-0.30643	0.57691
400.000	-0.23329	-0.08555	-0.24119	0.53514
401.000	-0.31236	-0.16313	-0.28864	0.49535
402.000	-0.23526	-0.26459	-0.20165	0.62863
403.000	-0.19770	-0.16313	-0.31829	0.56099
404.000	-0.23329	-0.14125	-0.30446	0.54508
405.000	-0.28073	-0.11141	-0.17200	0.61272
406.000	-0.26096	-0.19098	-0.28666	0.60476
407.000	-0.30643	-0.19894	-0.23526	0.65847
408.000	-0.26492	-0.10743	-0.18188	0.50132
409.000	-0.16211	-0.15319	-0.33609	0.61669
410.000	-0.33411	-0.28249	-0.18979	0.68831
411.000	-0.30841	-0.14722	-0.26689	0.57293
412.000	-0.27678	-0.13926	-0.30643	0.63460
413.000	-0.22340	-0.19496	-0.30841	0.53116
414.000	-0.32818	-0.25066	-0.20363	0.52718
415.000	-0.31039	-0.25066	-0.26096	0.54707
416.000	-0.32422	-0.20292	-0.33411	0.69427
417.000	-0.12455	-0.18701	-0.19375	0.55105
418.000	-0.26492	-0.07361	-0.19572	0.56299
419.000	-0.22538	-0.02785	-0.30643	0.62266
420.000	-0.16804	-0.10146	-0.20758	0.63858
421.000	-0.22933	-0.08753	-0.20165	0.52320
422.000	-0.19968	-0.12135	-0.23131	0.55105
423.000	-0.11862	-0.06764	-0.20363	0.56498
424.000	-0.24119	-0.12334	-0.17398	0.51724
425.000	-0.17793	-0.21685	-0.27480	0.58885
426.000	-0.19177	-0.16313	-0.15223	0.51724
427.000	-0.14432	-0.11539	-0.24910	0.54707
428.000	-0.24712	-0.03979	-0.21549	0.43766
429.000	-0.20758	-0.09748	-0.18188	0.59681
430.000	-0.19375	-0.11738	-0.32225	0.50530
431.000	-0.06920	-0.02188	-0.18979	0.48740
432.000	-0.18781	-0.07759	-0.21945	0.53514
433.000	-0.16211	-0.05968	-0.15816	0.61869
434.000	-0.20758	-0.02586	-0.23131	0.52917
435.000	-0.33609	-0.14523	-0.22340	0.42175
436.000	-0.22142	-0.08952	-0.17398	0.54509
437.000	-0.15816	-0.18303	-0.17398	0.48143
438.000	-0.25503	-0.12732	-0.13048	0.50530
439.000	-0.25305	-0.14722	-0.21747	0.57095
440.000	-0.17793	-0.21884	-0.25108	0.66444
441.000	-0.30446	-0.14125	-0.14630	0.60278
442.000	-0.19572	-0.16512	-0.18386	0.49535
443.000	-0.33609	-0.08952	-0.26096	0.69427
444.000	-0.21945	-0.14324	-0.14827	0.60278
445.000	-0.27085	-0.15120	-0.24712	0.59283
446.000	-0.28073	-0.14722	-0.22735	0.59283
447.000	-0.25503	-0.20690	-0.18188	0.60078
448.000	-0.27678	-0.04576	-0.28073	0.48739
449.000	-0.35190	-0.18302	-0.17398	0.44562
450.000	-0.19375	-0.15517	-0.16409	0.44761
451.000	-0.09885	-0.08555	-0.24317	0.45159
452.000	-0.14234	-0.06764	-0.22735	0.48740
453.000	-0.30050	-0.15318	-0.15816	0.49933
454.000	-0.29457	-0.18501	-0.24910	0.48143
455.000	-0.25305	-0.11340	-0.19968	0.64455
456.000	-0.31632	-0.13528	-0.22340	0.48342
457.000	-0.10676	-0.09549	-0.29259	0.63857
458.000	-0.23526	-0.14324	-0.27480	0.65449
459.000	-0.28864	-0.05769	-0.18386	0.55503
460.000	-0.22340	-0.16512	-0.15618	0.41180
461.000	-0.24317	-0.11539	-0.18188	0.55304
462.000	-0.21352	-0.06167	-0.20956	0.46154
463.000	-0.16804	-0.14722	-0.23922	0.56299
464.000	-0.20165	-0.28250	-0.22142	0.51326
465.000	-0.22142	-0.03979	-0.25503	0.52320
466.000	-0.26887	-0.17706	-0.18781	0.49933
467.000	-0.24910	-0.22082	-0.31434	0.64653
468.000	-0.19177	-0.09748	-0.23131	0.53315
469.000	-0.19968	-0.18303	-0.19770	0.51326
470.000	-0.20561	-0.20292	-0.13641	0.47745
471.000	-0.19375	-0.22083	-0.22142	0.50928
472.000	-0.22538	-0.10146	-0.24119	0.53514
473.000	-0.15618	-0.16114	-0.14432	0.44164
474.000	-0.23526	-0.21486	-0.13641	0.48143
475.000	-0.20363	-0.24470	-0.13444	0.47148
476.000	-0.17793	-0.15716	-0.15025	0.47347
477.000	-0.26096	-0.25663	-0.13444	0.53514
478.000	-0.23922	-0.16910	-0.08106	0.51326
479.000	-0.16607	-0.24669	-0.20363	0.47944
480.000	-0.20956	-0.24669	-0.24515	0.44960
481.000	-0.23329	-0.19894	-0.14432	0.42971
482.000	-0.34202	-0.23674	-0.23922	0.52718
483.000	-0.25305	-0.29443	-0.14037	0.39788
484.000	-0.23724	-0.19695	-0.05733	0.45159
485.000	-0.34399	-0.21684	-0.08699	0.43170
486.000	-0.22933	-0.26459	-0.20165	0.48740
487.000	-0.33411	-0.18899	-0.15421	0.43369
488.000	-0.33411	-0.21485	-0.14037	0.33024
489.000	-0.26096	-0.08952	-0.16211	0.53713
490.000	-0.23922	-0.19098	-0.19968	0.42374
491.000	-0.26096	-0.26857	-0.15421	0.50331
492.000	-0.33016	-0.10942	-0.12653	0.35213
493.000	-0.28073	-0.17109	-0.26492	0.41379
494.000	-0.25503	-0.19297	-0.17595	0.37998
495.000	-0.26096	-0.25265	-0.15223	0.54509
496.000	-0.34202	-0.16711	-0.21352	0.44363
497.000	-0.36376	-0.26459	-0.21945	0.39589
498.000	-0.32225	-0.24271	-0.12653	0.37600
499.000	-0.30050	-0.19297	-0.13246	0.34019
500.000	-0.34795	-0.20292	0.02570	0.39788
501.000	-0.32422	-0.15119	-0.10874	0.43966
502.000	-0.32620	-0.35013	0.05536	0.46552
503.000	-0.24119	-0.14125	0.10478	0.53912
504.000	-0.10280	-0.28847	0.39539	0.39389
505.000	0.13641	-0.35610	0.42900	0.67039
506.000	0.34795	-0.38992	0.74133	0.54703
507.000	0.61087	-0.50329	0.97654	0.69219
508.000	0.56540	-0.38593	1.37573	0.66425
509.000	0.77296	-0.38989	1.53774	0.72187
510.000	0.99236	-0.56490	1.80243	0.66809
511.000	1.09513	-0.43958	2.24867	0.55858
512.000	1.57923	-0.60454	2.32565	0.45122
513.000	1.75305	-0.61045	2.70253	0.49481
514.000	1.79453	-0.58459	2.95497	0.54436
515.000	2.00781	-0.52090	3.10678	0.45292
516.000	2.18945	-0.55861	3.33144	0.42700
517.000	2.37697	-0.51481	3.39252	0.27803
518.000	2.40657	-0.57243	3.48708	0.26013
519.000	2.70845	-0.53653	3.43192	0.36341
520.000	2.83271	-0.47290	3.58358	0.37129
521.000	2.82482	-0.50072	3.55404	0.27600
522.000	2.76368	-0.53651	3.49889	0.40508
523.000	2.74790	-0.57625	3.50480	0.29984
524.000	2.92737	-0.46491	3.34327	0.51040
525.000	2.82088	-0.50072	3.45162	0.35943
526.000	2.70451	-0.58025	3.28810	0.43099
527.000	2.84849	-0.45103	3.23883	0.37540
528.000	2.64927	-0.49284	3.21715	0.38136
529.000	2.69070	-0.53257	3.12649	0.36948
530.000	2.68281	-0.53456	2.93526	0.45497
531.000	2.72029	-0.57031	2.93328	0.34769
532.000	2.65124	-0.44912	2.91357	0.34372
533.000	2.56444	-0.52070	2.95497	0.43311
534.000	2.65124	-0.50476	2.91948	0.34173
535.000	2.66308	-0.38950	2.87018	0.39142
536.000	2.55457	-0.36768	2.81891	0.48482
537.000	2.66111	-0.38553	2.86821	0.42520
538.000	2.63152	-0.45509	2.89187	0.48877
539.000	2.58614	-0.38158	2.82877	0.37554
540.000	2.56246	-0.45710	2.91948	0.31789
541.000	2.54076	-0.41736	2.90173	0.29207
542.000	2.54865	-0.43326	2.71831	0.46102
543.000	2.63941	-0.43919	2.82482	0.52058
544.000	2.64730	-0.39547	2.75776	0.41530
545.000	2.58219	-0.47299	2.75185	0.41332
546.000	2.49538	-0.41937	2.74987	0.49876
547.000	2.61376	-0.50279	2.79327	0.42324
548.000	2.55062	-0.46704	2.73607	0.43717
549.000	2.55260	-0.42928	2.66703	0.46899
550.000	2.59206	-0.54652	2.73015	0.48883
551.000	2.50130	-0.52668	2.72818	0.41134
552.000	2.51708	-0.44321	2.68281	0.43123
553.000	2.51708	-0.51277	2.78538	0.39542
554.000	2.63349	-0.52265	2.82088	0.45303
555.000	2.51905	-0.44122	2.81891	0.45502
556.000	2.50722	-0.50681	2.72620	0.55043
557.000	2.52497	-0.39749	2.76171	0.50869
558.000	2.59798	-0.43722	2.79721	0.59809
559.000	2.58417	-0.48690	2.77552	0.56631
560.000	2.61376	-0.36766	2.72620	0.51467
561.000	2.66111	-0.40143	2.72029	0.52460
562.000	2.57825	-0.41139	2.82680	0.51462
563.000	2.66900	-0.33982	2.66900	0.56636
564.000	2.51708	-0.51873	2.77946	0.50868
565.000	2.64730	-0.44316	2.68478	0.54449
566.000	2.59798	-0.45113	2.80510	0.43714
567.000	2.55062	-0.43127	2.75579	0.56632
568.000	2.62165	-0.41932	2.78538	0.51265
569.000	2.68083	-0.48289	2.69267	0.46898
570.000	2.61179	-0.43721	2.71042	0.69350
571.000	2.58417	-0.42927	2.72423	0.63190
572.000	2.48946	-0.43527	2.79129	0.51067
573.000	2.61771	-0.42529	2.86821	0.58811
574.000	2.59008	-0.42331	2.79327	0.61796
575.000	2.59995	-0.43126	2.74790	0.62195
576.000	2.53879	-0.31799	2.77157	0.61399
577.000	2.63743	-0.34182	2.78143	0.54246
578.000	2.65913	-0.42726	2.80707	0.63782
579.000	2.56444	-0.31799	2.85835	0.67554
580.000	2.61179	-0.31400	2.83271	0.73118
581.000	2.64533	-0.36367	2.81693	0.69741
582.000	2.50327	-0.42533	2.79524	0.68749
583.000	2.64138	-0.33585	2.77354	0.77294
584.000	2.60784	-0.30208	2.76763	0.62592
585.000	2.58219	-0.43722	2.85046	0.72918
586.000	2.58614	-0.37363	2.78143	0.60803
587.000	2.58811	-0.34580	2.80116	0.69544
588.000	2.59995	-0.31400	2.72226	0.73323
589.000	2.57825	-0.39350	2.78932	0.62392
590.000	2.58022	-0.38158	2.89187	0.67353
591.000	2.65716	-0.32989	2.75776	0.74116
592.000	2.64138	-0.26232	2.73607	0.56632
593.000	2.58811	-0.40145	2.89385	0.64969
594.000	2.67097	-0.26629	2.76960	0.62194
595.000	2.59995	-0.48094	2.86032	0.71725
596.000	2.67294	-0.25238	2.80510	0.75901
597.000	2.56246	-0.34382	2.86032	0.66560
598.000	2.60192	-0.30208	2.85835	0.65964
599.000	2.67492	-0.23052	2.78341	0.77094
600.000	2.56641	-0.39549	2.77157	0.72128
601.000	2.62954	-0.20072	2.82680	0.68946
602.000	2.59600	-0.33984	2.85046	0.69541
603.000	2.60390	-0.29413	2.79524	0.74114
604.000	2.58811	-0.31401	2.76368	0.85043
605.000	2.60192	-0.27028	2.83271	0.90401
606.000	2.61376	-0.31201	2.71634	0.70145
607.000	2.57825	-0.29414	2.81102	0.69146
608.000	2.55654	-0.29613	2.86624	0.75301
609.000	2.62954	-0.17091	2.82285	0.76893
610.000	2.64927	-0.30207	2.83271	0.78680
611.000	2.69267	-0.25039	2.88399	0.75300
612.000	2.59008	-0.27426	2.86624	0.77089
613.000	2.61179	-0.34779	2.84849	0.79673
614.000	2.54273	-0.32197	2.77749	0.85240
615.000	2.58417	-0.31997	2.79327	0.80272
616.000	2.63941	-0.31797	2.78932	0.79478
617.000	2.59798	-0.25836	2.72818	0.80674
618.000	2.71042	-0.30801	2.80510	0.75702
619.000	2.57627	-0.24048	2.78538	0.90405
620.000	2.59403	-0.36170	2.78143	0.90207
621.000	2.67097	-0.30802	2.83468	0.74906
622.000	2.55654	-0.27228	2.87413	0.73314
623.000	2.65124	-0.31995	2.74790	0.86832
624.000	2.53879	-0.32396	2.84257	0.70336
625.000	2.51116	-0.29614	2.87807	0.83644
626.000	2.61376	-0.19277	2.93328	0.82646
627.000	2.66111	-0.26828	2.74593	0.88421
628.000	2.56246	-0.35376	2.81693	0.89409
629.000	2.52300	-0.39551	2.81102	0.91595
630.000	2.64138	-0.26232	2.82482	0.82853
631.000	2.54668	-0.21266	2.87807	0.82650
632.000	2.67886	-0.27623	2.79129	0.89610
633.000	2.58811	-0.28420	2.81693	1.04904
634.000	2.58811	-0.31599	2.81102	0.81066
635.000	2.60981	-0.32593	2.86821	0.87419
636.000	2.56838	-0.23054	2.80905	0.92986
637.000	2.60981	-0.26233	2.83666	0.90004
638.000	2.61573	-0.26432	2.88201	0.89404
639.000	2.63349	-0.28220	2.76960	0.91201
640.000	2.54076	-0.42134	2.86032	0.91988
641.000	2.60981	-0.35375	2.83863	0.95566
642.000	2.62954	-0.27425	2.87413	1.10658
643.000	2.61968	-0.33387	2.87215	1.03508
644.000	2.57825	-0.32196	2.89385	0.90595
645.000	2.59798	-0.29016	2.78143	0.93584
646.000	2.64533	-0.22059	2.78735	0.94974
647.000	2.60587	-0.28221	2.77946	1.00139
648.000	2.59403	-0.32196	2.76171	0.99744
649.000	2.55852	-0.27029	2.72029	1.02926
650.000	2.68281	-0.29212	2.84454	1.05894
651.000	2.68083	-0.17090	2.78143	0.98749
652.000	2.62954	-0.35374	2.85046	1.08675
653.000	2.63546	-0.26630	2.76565	1.11066
654.000	2.67097	-0.18084	2.80313	1.11261
655.000	2.57627	-0.32196	2.80905	1.09473
656.000	2.58811	-0.24246	2.71042	0.98159
657.000	2.63349	-0.19476	2.89582	1.11054
658.000	2.61968	-0.23252	2.82877	1.02718
659.000	2.62757	-0.16495	2.76565	1.07491
660.000	2.68083	-0.19078	2.79918	1.00336
661.000	2.66900	-0.17091	2.82877	1.08081
662.000	2.61179	-0.31599	2.80707	1.09076
663.000	2.64730	-0.14507	2.85441	1.20194
664.000	2.67492	-0.17885	2.83666	1.14436
665.000	2.67097	-0.16494	2.81891	1.03910
666.000	2.69859	-0.19077	2.74001	1.14445
667.000	2.64730	-0.19277	2.78538	1.13845
668.000	2.62954	-0.17687	2.85638	1.15030
669.000	2.68281	-0.22655	2.83666	1.17415
670.000	2.65913	-0.02782	2.91554	1.18599
671.000	2.66703	-0.20270	2.81891	1.16225
672.000	2.60587	-0.20271	2.82877	1.14437
673.000	2.77749	-0.17884	2.91159	1.17606
674.000	2.66111	-0.09539	2.87215	1.04303
675.000	2.67294	-0.20866	2.81891	1.31320
676.000	2.66505	-0.09340	2.69267	1.08490
677.000	2.68083	-0.25238	2.88990	1.16019
678.000	2.69859	-0.22654	2.84849	1.26351
679.000	2.61771	-0.21861	2.81102	1.11856
680.000	2.62757	-0.22059	2.83863	1.24366
681.000	2.71042	-0.06160	2.70845	1.28353
682.000	2.62954	-0.23649	2.84060	1.31317
683.000	2.66703	-0.09340	2.82877	1.29730
684.000	2.73607	-0.25833	2.83666	1.24764
685.000	2.58219	-0.17688	2.78538	1.24571
686.000	2.70451	-0.12718	2.79524	1.33706
687.000	2.69267	-0.07154	2.80707	1.27746
688.000	2.79721	-0.08147	2.83666	1.39857
689.000	2.67294	-0.12917	2.71240	1.30934
690.000	2.65913	-0.10533	2.83666	1.16422
691.000	2.78341	-0.13910	2.73409	1.21398
692.000	2.76368	-0.07948	2.90962	1.12641
693.000	2.86624	-0.15697	2.74790	0.98354
694.000	2.96286	-0.12119	2.91948	0.99134
695.000	2.90371	-0.32386	2.85046	0.67951
696.000	2.89582	-0.47287	2.88004	0.51063
697.000	2.93723	-0.58212	2.89385	0.55830
698.000	2.91554	-0.78277	2.94314	0.35166
699.000	2.93723	-0.83441	3.01807	0.36952
700.000	2.79327	-0.96761	3.05749	0.15098
701.000	2.99244	-0.96347	3.09889	0.03973
702.000	2.97272	-1.08464	3.06735	0.14701
703.000	2.99244	-1.01908	2.96680	0.14106
704.000	3.04764	-1.08258	3.05158	0.04371
705.000	3.01412	-1.12035	2.94511	0.22451
706.000	3.03581	-0.97535	2.96286	-0.01391
707.000	3.08115	-0.90182	2.86032	0.09339
708.000	2.98258	-0.89992	2.93920	0.22848
709.000	3.07721	-0.87204	2.89582	0.29207
710.000	3.14423	-0.82829	2.99638	0.30396
711.000	3.02004	-0.89393	2.95695	0.29802
712.000	3.10283	-0.81640	3.02989	0.39137
713.000	3.13240	-0.72701	2.97272	0.32384
714.000	3.13240	-0.87199	2.98455	0.48078
715.000	3.04961	-0.81843	2.85638	0.41726
716.000	3.14226	-0.78460	3.08312	0.45888
717.000	3.12846	-0.75283	3.00426	0.42117
718.000	3.11269	-0.86208	3.03384	0.54433
719.000	3.15408	-0.80643	2.97075	0.59799
720.000	3.01018	-0.86216	2.95695	0.43907
721.000	2.98849	-0.72512	3.01215	0.51255
722.000	3.17379	-0.70513	2.89582	0.69339
723.000	3.02595	-0.74297	2.94511	0.51656
724.000	3.14620	-0.82233	2.95300	0.51655
725.000	3.08904	-0.72704	3.08115	0.58403
726.000	3.06538	-0.81842	2.97272	0.58210
727.000	3.06144	-0.80849	2.90765	0.57220
728.000	3.10481	-0.82236	2.86032	0.55236
729.000	3.10283	-0.79058	2.93131	0.61788
730.000	3.09101	-0.83032	3.01609	0.78270
731.000	3.04172	-0.81049	2.94906	0.58609
732.000	3.10875	-0.75682	2.98652	0.54038
733.000	3.06735	-0.96340	2.96680	0.54833
734.000	3.02792	-0.76879	3.01412	0.57811
735.000	3.19153	-0.76271	2.95300	0.50861
736.000	3.25065	-0.78054	2.98849	0.58607
737.000	3.20336	-0.72299	2.94314	0.50464
738.000	3.28021	-0.74080	2.86821	0.56626
739.000	3.24868	-0.78253	2.90568	0.51856
740.000	3.20533	-0.78455	2.86229	0.64971
741.000	3.24868	-0.73487	2.78932	0.52656
742.000	3.21912	-0.67531	2.89385	0.62386
743.000	3.20927	-0.72099	2.89582	0.50665
744.000	3.10678	-0.74490	2.93723	0.48477
745.000	3.16000	-0.79451	2.82088	0.59211
746.000	3.10678	-0.79455	2.86624	0.68745
747.000	3.14620	-0.76275	2.84257	0.69939
748.000	3.29007	-0.72689	2.85638	0.61395
749.000	3.31568	-0.69113	2.99244	0.62579
750.000	3.15211	-0.73097	2.80905	0.67358
751.000	3.14226	-0.70515	2.90962	0.58213
752.000	3.19350	-0.66142	2.84849	0.51263
753.000	3.23489	-0.64352	2.95103	0.48874
754.000	3.09692	-0.74093	2.96680	0.55429
755.000	3.10875	-0.73100	2.93131	0.48676
756.000	3.30780	-0.70305	2.91159	0.62187
757.000	3.23292	-0.75275	2.88793	0.48479
758.000	3.20533	-0.73490	2.83666	0.60204
759.000	3.21124	-0.68922	2.77157	0.58618
760.000	3.18168	-0.68129	2.87018	0.61593
761.000	3.18956	-0.65547	3.00624	0.62777
762.000	3.29992	-0.69909	2.82680	0.60006
763.000	3.06932	-0.80650	2.84454	0.66164
764.000	3.10283	-0.64162	2.82088	0.68549
765.000	3.24474	-0.62366	2.81299	0.60205
766.000	3.13634	-0.68529	2.84257	0.68349
767.000	3.15803	-0.65350	2.89582	0.72915
768.000	3.17182	-0.65945	2.77946	0.70936
769.000	3.18365	-0.62369	2.90765	0.77086
770.000	3.17774	-0.66739	2.97272	0.70924
771.000	3.07524	-0.64164	2.87413	0.66957
772.000	3.16394	-0.68925	2.87215	0.72519
773.000	3.11072	-0.70319	2.91948	0.64967
774.000	3.18562	-0.56808	2.81299	0.75106
775.000	3.19350	-0.43699	2.87610	0.68347
776.000	3.31765	-0.62361	2.83863	0.75104
777.000	3.19350	-0.57404	2.92342	0.80263
778.000	3.18365	-0.64753	2.77157	0.59015
779.000	3.19941	-0.61773	2.86427	0.65765
780.000	3.10283	-0.61977	2.87215	0.74903
781.000	3.09101	-0.58402	2.78538	0.61796
782.000	3.22898	-0.54224	2.85243	0.61395
783.000	3.23095	-0.51840	2.81693	0.61993
784.000	3.19153	-0.55219	2.98061	0.66752
785.000	3.17774	-0.49460	2.89187	0.70929
786.000	3.25065	-0.53825	2.82285	0.68748
787.000	3.14817	-0.46283	2.88399	0.79670
788.000	3.28021	-0.48859	2.90962	0.60597
789.000	3.19153	-0.63163	2.89187	0.82649
790.000	3.18759	-0.40918	2.85638	0.73514
791.000	3.23489	-0.52635	2.91159	0.64372
792.000	3.25854	-0.48860	2.85243	0.75302
793.000	3.26051	-0.44888	2.83863	0.70137
794.000	3.18759	-0.65944	2.92145	0.85428
795.000	3.12846	-0.43702	2.88399	0.79472
796.000	3.29007	-0.54618	2.81299	0.82854
797.000	3.16000	-0.54823	2.88596	0.70333
798.000	3.22701	-0.52238	2.80905	0.72722
799.000	3.14423	-0.49263	2.88990	0.57618
800.000	3.24080	-0.49854	2.86821	0.83446
801.000	3.28218	-0.55214	2.82877	0.80667
802.000	3.20533	-0.60183	3.07129	0.70520
803.000	3.27036	-0.51044	2.82877	0.85435
804.000	3.26642	-0.47072	2.95300	0.79467
805.000	3.19547	-0.52835	2.92145	0.77880
806.000	3.17379	-0.36549	2.89187	0.75299
807.000	3.26642	-0.46079	2.90962	0.80264
808.000	3.29795	-0.33764	2.86821	0.74904
809.000	3.30583	-0.31976	2.84060	0.86428
810.000	3.21321	-0.43897	2.85441	0.78083
811.000	3.32750	-0.41707	2.93920	0.75097
812.000	3.25854	-0.47072	2.83271	0.74707
813.000	3.37479	-0.51634	2.88793	0.85232
814.000	3.35312	-0.33564	2.88399	0.77088
815.000	3.27430	-0.44887	2.86427	0.86426
816.000	3.30583	-0.50446	2.88399	0.89205
817.000	3.27233	-0.46476	2.83863	0.79276
818.000	3.30189	-0.44489	2.84849	0.68547
819.000	3.29992	-0.51638	2.81891	0.83251
820.000	3.29204	-0.48858	2.75776	0.80672
821.000	3.42601	-0.35944	2.93131	0.74105
822.000	3.27233	-0.41908	2.82877	0.66959
823.000	3.17774	-0.45487	2.81102	0.82854
824.000	3.36888	-0.29393	2.88793	0.80862
825.000	3.15605	-0.46481	2.85638	0.85235
826.000	3.25460	-0.38532	2.88596	0.86424
827.000	3.21715	-0.35356	2.72818	0.82065
828.000	3.18562	-0.37542	2.80905	0.82258
829.000	3.24671	-0.36745	2.84060	0.78283
830.000	3.19547	-0.34761	2.93131	0.87613
831.000	3.30977	-0.32373	2.89779	0.82252
832.000	3.26248	-0.48661	2.96089	0.79466
833.000	3.17576	-0.48268	2.88990	0.79074
834.000	3.31568	-0.35948	2.91159	0.81059
835.000	3.28415	-0.54419	2.82088	0.84045
836.000	3.18956	-0.29398	2.88793	0.81061
837.000	3.26051	-0.39326	2.90371	0.94766
838.000	3.21321	-0.37143	2.95892	0.86220
839.000	3.19941	-0.39925	2.82877	0.89408
840.000	3.22701	-0.40122	2.92145	0.95161
841.000	3.17774	-0.38337	2.94906	0.78275
842.000	3.27627	-0.37936	2.92145	0.89798
843.000	3.28021	-0.48263	2.97075	0.73308
844.000	3.27036	-0.50448	2.88990	0.76293
845.000	3.30780	-0.37537	2.83074	0.84640
846.000	3.28810	-0.30785	2.94906	0.81652
847.000	3.33341	-0.26812	2.96483	0.85028
848.000	3.20533	-0.34164	2.93131	0.96154
849.000	3.23686	-0.36348	2.79129	0.82657
850.000	3.33736	-0.33961	2.83863	0.79673
851.000	3.17379	-0.53234	2.91357	0.67948
852.000	3.20927	-0.43500	2.87413	0.86425
853.000	3.27824	-0.30587	2.94709	0.83043
854.000	3.35115	-0.39124	2.80707	0.81066
855.000	3.24080	-0.43300	2.93328	0.81653
856.000	3.32750	-0.37338	2.93920	0.87016
857.000	3.20927	-0.41116	2.92540	0.86620
858.000	3.25657	-0.37539	2.99244	0.79067
859.000	3.30583	-0.28004	2.86624	0.82850
860.000	3.20730	-0.33171	3.01609	0.85421
861.000	3.26839	-0.39723	2.89779	0.81854
862.000	3.35706	-0.36940	2.90568	0.87416
863.000	3.16197	-0.39728	2.96483	0.79069
864.000	3.32750	-0.38728	2.82285	0.74509
865.000	3.17182	-0.45487	2.82482	0.84840
866.000	3.27627	-0.36148	2.91159	0.82449
867.000	3.27824	-0.37141	2.92342	0.82448
868.000	3.18168	-0.32377	2.92145	0.94566
869.000	3.31568	-0.32373	3.03581	0.83036
870.000	3.13437	-0.36550	2.83863	0.75303
871.000	3.20139	-0.39726	2.89187	0.79471
872.000	3.17182	-0.39131	2.91948	0.89203
873.000	3.33144	-0.43097	2.87610	0.76890
874.000	3.33933	-0.40912	2.88004	0.78876
875.000	3.29795	-0.42304	2.88793	0.73114
876.000	3.25263	-0.33964	2.87610	0.75102
877.000	3.28218	-0.28601	2.88596	0.74505
878.000	3.11663	-0.39332	2.86821	0.83247
879.000	3.24474	-0.31581	2.82088	0.93581
880.000	3.29992	-0.34558	2.97075	0.90390
881.000	3.16000	-0.42310	2.82285	0.79674
882.000	3.21715	-0.37342	2.86821	0.86028
883.000	3.24868	-0.34362	2.85243	0.84440
884.000	3.28810	-0.38134	2.93920	0.78673
885.000	3.30386	-0.32771	2.88399	0.87418
886.000	3.28612	-0.36545	2.81891	0.80469
887.000	3.25657	-0.29793	2.80510	0.86430
888.000	3.29007	-0.35949	2.88201	0.70532
889.000	3.28612	-0.41709	2.87413	0.87021
890.000	3.23686	-0.35355	2.90765	0.85628
891.000	3.31371	-0.31579	2.82877	0.81263
892.000	3.26839	-0.36943	2.87807	0.94966
893.000	3.18562	-0.27412	2.88793	0.85629
894.000	3.28021	-0.22841	2.82088	0.84045
895.000	3.20730	-0.42308	2.87807	0.80863
896.000	3.29598	-0.43694	2.83863	0.89010
897.000	3.30780	-0.28203	2.78932	0.76101
898.000	3.36100	-0.23435	2.90371	0.85231
899.000	3.20139	-0.27411	2.82680	0.79476
900.000	3.29598	-0.28203	2.90173	0.82649
901.000	3.14226	-0.33769	2.91554	0.83045
902.000	3.34918	-0.35152	2.89582	0.88807
903.000	3.39449	-0.41704	2.90568	0.99334
904.000	3.32356	-0.39523	2.70056	0.85444
905.000	3.16985	-0.32179	2.81496	0.86827
906.000	3.28021	-0.38531	2.87018	0.87220
907.000	3.36888	-0.26016	2.89385	0.80266
908.000	3.21715	-0.37541	2.77749	0.87426
909.000	3.22898	-0.37143	2.89779	0.93773
910.000	3.30189	-0.41509	2.89187	0.81656
911.000	3.26839	-0.27807	2.98258	0.76286
912.000	3.45950	-0.26014	2.83666	0.82455
913.000	3.27233	-0.29594	2.92934	0.82051
914.000	3.30977	-0.30983	2.91554	0.81257
915.000	3.33341	-0.24627	2.86032	0.91392
916.000	3.34721	-0.16881	2.91357	0.81059
917.000	3.25854	-0.36347	2.82482	0.86429
918.000	3.35312	-0.27606	2.94314	0.93372
919.000	3.29007	-0.26813	2.89779	1.00526
920.000	3.21715	-0.41513	2.85835	0.82652
921.000	3.30780	-0.26812	2.91357	0.83442
922.000	3.16985	-0.40323	2.87018	0.86028
923.000	3.17971	-0.39727	2.95300	0.74103
924.000	3.30780	-0.32572	2.83074	0.98546
925.000	3.31765	-0.25819	2.89187	0.82252
926.000	3.21518	-0.36746	2.84454	0.84838
927.000	3.27430	-0.23238	2.83863	0.93976
928.000	3.31568	-0.31976	2.90371	0.95957
929.000	3.38464	-0.28995	2.74790	0.87229
930.000	3.27824	-0.45085	2.82482	0.97156
931.000	3.35706	-0.31379	2.83863	0.95764
932.000	3.38464	-0.26413	2.86821	0.89604
933.000	3.33341	-0.36742	2.80905	0.86231
934.000	3.37873	-0.27208	2.85835	1.02119
935.000	3.30977	-0.43495	2.86229	0.71725
936.000	3.34130	-0.21449	2.79129	0.76697
937.000	3.26642	-0.37142	2.78932	0.82855
938.000	3.30977	-0.37934	2.85638	0.74706
939.000	3.35706	-0.34358	2.95497	0.74500
940.000	3.38464	-0.42896	2.90371	0.88012
941.000	3.37676	-0.26612	2.80510	0.82060
942.000	3.31568	-0.32373	2.96089	0.91781
943.000	3.39843	-0.33165	2.86427	1.02516
944.000	3.27036	-0.37737	2.72226	1.05309
945.000	3.24277	-0.38135	2.88596	0.79670
946.000	3.33341	-0.37536	2.86821	1.05296
947.000	3.32750	-0.38927	2.78735	0.93583
948.000	3.34327	-0.40713	2.83074	0.96162
949.000	3.23292	-0.34759	2.74593	0.88223
950.000	3.38661	-0.41109	2.73607	1.00342
951.000	3.24671	-0.41313	2.84652	0.95366
952.000	3.28415	-0.27806	2.89779	0.81656
953.000	3.21518	-0.29794	2.78735	0.96364
954.000	3.21715	-0.35554	2.86624	0.86426
955.000	3.33144	-0.34160	2.86229	0.86625
956.000	3.34130	-0.38529	2.76763	0.82460
957.000	3.22109	-0.43896	2.79721	0.75305
958.000	3.38661	-0.25420	2.77749	0.93584
959.000	3.35509	-0.41309	2.84652	0.88612
960.000	3.35115	-0.34755	2.91554	0.91984
961.000	3.28218	-0.26416	2.79918	0.99343
962.000	3.36297	-0.41705	2.94117	0.83838
963.000	3.33538	-0.39721	2.85046	0.92982
964.000	3.23095	-0.35554	2.80707	0.91794
965.000	3.35509	-0.27606	2.98258	0.92177
966.000	3.28612	-0.35353	2.89582	0.84040
967.000	3.35312	-0.35152	2.80510	0.73318
968.000	3.32159	-0.39125	2.89582	0.91985
969.000	3.29992	-0.39325	2.97469	0.86815
970.000	3.30583	-0.34360	2.84257	0.90003
971.000	3.31765	-0.43495	2.77946	1.01133
972.000	3.23883	-0.23835	2.77354	0.93187
973.000	3.26248	-0.39724	2.94314	0.99132
974.000	3.29007	-0.36545	2.88004	0.90398
975.000	3.27430	-0.34758	2.88990	0.86424
976.000	3.36691	-0.33960	2.99046	0.88204
977.000	3.36297	-0.29988	2.83666	0.83647
978.000	3.32750	-0.39324	2.89779	0.88211
979.000	3.31765	-0.38331	2.87807	0.69539
980.000	3.28612	-0.35552	2.86624	0.76692
981.000	3.16985	-0.49460	2.93723	0.87612
982.000	3.37085	-0.43095	2.93328	0.82050
983.000	3.35706	-0.44685	2.70253	0.83060
984.000	3.24080	-0.39724	2.83074	0.89607
985.000	3.42207	-0.48057	2.93328	0.92380
986.000	3.34327	-0.32174	2.90173	0.79470
987.000	3.34918	-0.45479	2.79327	0.72922
988.000	3.31174	-0.54815	2.85835	0.80268
989.000	3.28415	-0.26614	2.84849	0.84043
990.000	3.17379	-0.50453	2.88990	0.72320
991.000	3.23095	-0.41910	2.83666	0.90202
992.000	3.27430	-0.34758	2.86229	0.76692
993.000	3.28218	-0.42503	2.90371	0.86026
994.000	3.30977	-0.49850	2.85243	0.90002
995.000	3.20927	-0.30192	3.04172	0.93364
996.000	3.40040	-0.47066	2.91357	0.85230
997.000	3.27430	-0.32375	2.89779	0.88410
998.000	3.30189	-0.43893	2.87610	0.83445
999.000	3.39055	-0.42300	2.67689	0.90214
1000.000	3.36494	-0.47862	2.95103	0.87611
1001.000	3.48117	-0.37332	2.86032	0.84241
1002.000	3.30780	-0.55014	2.85835	1.00530
1003.000	3.37873	-0.51237	2.93723	0.86222
1004.000	3.40237	-0.50441	2.79721	0.82656
1005.000	3.30386	-0.54220	2.81102	0.87622
1006.000	3.30583	-0.51638	3.00426	0.92771
1007.000	3.31371	-0.54219	2.92737	0.73906
1008.000	3.31962	-0.59581	2.91357	0.94765
1009.000	3.30977	-0.53226	2.95103	0.95953
1010.000	3.33736	-0.53225	2.93920	0.79070
1011.000	3.35706	-0.49252	2.91751	0.97148
1012.000	3.31568	-0.50049	2.96878	0.74102
1013.000	3.26248	-0.57797	2.86624	0.76692
1014.000	3.21912	-0.54026	2.80116	0.88814
1015.000	3.27824	-0.52831	2.82877	0.76495
1016.000	3.32750	-0.63949	2.79327	0.93781
1017.000	3.20139	-0.56013	2.95695	0.82446
1018.000	3.42207	-0.51830	2.96286	0.79466
1019.000	3.36100	-0.45479	2.84060	0.86428
1020.000	3.33736	-0.60573	2.92540	0.90394
1021.000	3.40828	-0.65135	2.92540	0.77879
1022.000	3.33538	-0.44288	2.89385	0.97150
1023.000	3.31765	-0.56602	2.81496	0.75503
1024.000	3.33736	-0.59381	3.02989	0.88201
1025.000	3.33933	-0.56998	2.81891	0.97752
1026.000	3.29401	-0.63554	2.89385	0.89403
1027.000	3.40237	-0.50044	2.93131	0.86421
1028.000	3.35312	-0.58784	2.82088	0.96759
1029.000	3.19547	-0.46281	2.82877	0.86428
1030.000	3.18562	-0.66739	2.87018	0.92583
1031.000	3.27233	-0.57200	2.98455	0.81252
1032.000	3.33341	-0.54218	2.88399	0.93575
1033.000	3.27036	-0.63556	2.87413	0.89603
1034.000	3.34918	-0.57593	2.90568	0.98937
1035.000	3.26642	-0.68521	2.96483	0.80062
1036.000	3.27036	-0.53229	2.85638	0.93379
1037.000	3.32947	-0.50445	3.03384	0.85618
1038.000	3.30189	-0.43893	2.89582	0.83046
1039.000	3.20730	-0.57601	2.93328	1.12043
1040.000	3.36691	-0.51436	2.99638	0.90984
1041.000	3.29204	-0.56206	2.89976	0.98739
1042.000	3.30977	-0.50645	2.96483	0.91781
1043.000	3.43586	-0.67516	2.88399	0.97548
1044.000	3.38070	-0.54215	2.86032	0.89406
1045.000	3.34130	-0.47267	2.84849	0.99140
1046.000	3.25065	-0.54818	2.87215	0.91987
1047.000	3.45359	-0.55601	2.96286	0.83637
1048.000	3.25460	-0.53031	2.91554	0.90395
1049.000	3.44965	-0.49843	2.94709	0.91385
1050.000	3.30977	-0.57993	2.90173	0.78676
1051.000	3.35706	-0.56600	2.89187	0.77882
1052.000	3.45556	-0.56197	2.90568	0.86224
1053.000	3.45162	-0.43290	2.98455	0.86615
1054.000	3.44571	-0.51630	2.88990	0.85828
1055.000	3.40828	-0.64937	2.93723	0.86420
1056.000	3.30977	-0.47269	2.81102	0.80470
1057.000	3.46541	-0.50637	2.85638	0.82255
1058.000	3.27824	-0.57399	2.83074	0.93381
1059.000	3.34721	-0.45082	2.80116	0.83848
1060.000	3.48511	-0.40509	2.91948	0.83045
1061.000	3.34130	-0.55211	2.93723	0.99530
1062.000	3.37282	-0.45677	2.79129	0.85637
1063.000	3.33144	-0.47069	2.93328	0.87215
1064.000	3.26051	-0.52435	2.83271	0.90401
1065.000	3.34327	-0.51636	2.94906	0.79070
1066.000	3.40828	-0.45874	2.96680	1.00123
1067.000	3.39646	-0.44087	2.85243	0.77090
1068.000	3.37479	-0.45081	2.80707	0.73119
1069.000	3.43980	-0.41305	2.85638	0.94968
1070.000	3.44965	-0.47262	2.77749	1.08880
1071.000	3.39252	-0.34952	2.84060	1.01326
1072.000	3.37479	-0.32967	2.78932	0.94974
1073.000	3.37085	-0.56798	2.93526	0.90393
1074.000	3.43783	-0.42298	2.88793	0.80862
1075.000	3.42995	-0.32965	2.95103	0.86816
1076.000	3.40434	-0.48257	2.83666	1.02915
1077.000	3.42010	-0.47065	2.84652	0.91791
1078.000	3.48904	-0.32963	2.91357	0.88607
1079.000	3.44768	-0.43092	2.88004	0.96158
1080.000	3.42601	-0.37731	2.85441	1.01722
1081.000	3.42601	-0.46667	2.85243	0.87817
1082.000	3.35903	-0.48061	2.93328	0.81455
1083.000	3.40237	-0.44285	2.89385	0.82848
1084.000	3.29401	-0.35949	2.93920	0.81851
1085.000	3.45556	-0.48651	2.88201	1.03507
1086.000	3.49692	-0.28991	2.87610	0.94172
1087.000	3.46738	-0.44679	2.91751	0.97148
1088.000	3.39252	-0.37534	2.87215	1.03111
1089.000	3.46147	-0.43290	2.80116	0.94377
1090.000	3.33736	-0.33961	2.81299	1.00534
1091.000	3.45556	-0.35347	2.84652	0.96757
1092.000	3.32947	-0.30188	2.94117	0.93968
1093.000	3.55404	-0.34748	2.85835	1.00530
1094.000	3.43192	-0.35348	2.88596	0.93377
1095.000	3.41813	-0.39519	2.79918	1.08083
1096.000	3.39449	-0.40513	2.86624	1.10858
1097.000	3.44374	-0.29787	2.88793	1.07678
1098.000	3.41222	-0.43689	2.85638	1.11852
1099.000	3.34130	-0.36742	2.77749	1.12853
1100.000	3.39055	-0.25023	2.84060	1.00333
1101.000	3.38661	-0.38130	2.91159	1.17407
1102.000	3.46738	-0.38921	2.82482	1.23772
1103.000	3.36888	-0.43095	2.80510	1.07288
1104.000	3.50874	-0.42692	2.95103	1.07076
1105.000	3.38464	-0.32570	2.87413	0.91987
1106.000	3.41419	-0.41306	2.78932	1.11064
1107.000	3.39252	-0.44286	2.97666	1.13230
1108.000	3.30386	-0.42105	2.78538	1.05304
1109.000	3.44177	-0.28993	2.92342	1.03305
1110.000	3.40828	-0.36143	2.87807	1.00925
1111.000	3.54616	-0.35939	2.79918	1.14440
1112.000	3.38267	-0.39719	2.78143	0.99146
1113.000	3.49889	-0.29786	2.86821	1.13241
1114.000	3.45359	-0.32766	2.92145	1.08668
1115.000	3.46738	-0.32765	2.88399	1.01124
1116.000	3.41616	-0.28597	2.86032	1.16817
1117.000	3.39843	-0.37137	2.83271	1.19005
1118.000	3.47920	-0.22241	2.85243	1.04305
1119.000	3.48117	-0.38126	2.77157	1.06100
1120.000	3.46541	-0.31177	2.89187	1.11848
1121.000	3.55798	-0.32166	2.81891	1.02123
1122.000	3.50677	-0.34750	2.84849	1.04702
1123.000	3.45359	-0.37134	2.83074	1.07882
1124.000	3.53041	-0.38521	2.81496	1.09870
1125.000	3.42404	-0.29987	2.84454	1.04702
1126.000	3.38858	-0.36343	2.85441	1.00133
1127.000	3.42798	-0.26412	2.74790	1.14643
1128.000	3.45359	-0.25021	2.84454	1.12250
1129.000	3.40434	-0.24030	2.84060	1.01326
1130.000	3.50283	-0.36140	2.81299	1.12253
1131.000	3.36888	-0.39918	2.74790	1.07691
1132.000	3.53435	-0.39117	2.84257	0.98744
1133.000	3.39843	-0.27803	2.76763	1.04511
1134.000	3.37282	-0.40712	2.80313	1.05898
1135.000	3.50677	-0.22836	2.94906	1.11048
1136.000	3.48314	-0.33758	2.79327	1.01727
1137.000	3.46541	-0.34155	2.80905	1.11459
1138.000	3.33933	-0.27407	2.77749	1.06496
1139.000	3.36100	-0.42103	2.80116	0.98350
1140.000	3.41616	-0.32767	2.87610	1.05693
1141.000	3.42601	-0.21845	2.71634	1.11865
1142.000	3.42798	-0.45277	2.86821	1.11255
1143.000	3.38661	-0.41903	2.69662	1.12463
1144.000	3.44177	-0.39121	2.77354	0.97160
1145.000	3.64069	-0.27597	2.74198	0.94978
1146.000	3.42798	-0.30979	2.77157	1.14244
1147.000	3.42995	-0.25220	2.80905	1.01130
1148.000	3.48314	-0.41105	2.80510	0.97952
1149.000	3.51859	-0.22240	2.78932	0.97755
1150.000	3.43586	-0.34752	2.83271	1.14635
1151.000	3.49101	-0.36934	2.76171	1.10272
1152.000	3.46541	-0.37332	2.81693	1.08082
1153.000	3.44965	-0.32766	2.65322	0.97369
1154.000	3.46147	-0.39716	2.79918	0.99939
1155.000	3.38858	-0.42499	2.74790	1.03718
1156.000	3.38267	-0.31974	2.71240	1.05707
1157.000	3.49101	-0.41700	2.73015	0.94184
1158.000	3.56586	-0.32166	2.84257	1.05497
1159.000	3.48708	-0.31375	2.65519	1.05315
1160.000	3.43586	-0.45078	2.80707	1.00932
1161.000	3.47132	-0.32765	2.65913	1.06308
1162.000	3.40434	-0.48058	2.76565	1.00339
1163.000	3.45753	-0.34156	2.75776	1.01135
1164.000	3.53631	-0.37528	2.80905	1.01925
1165.000	3.33341	-0.39125	2.81891	1.10068
1166.000	3.40434	-0.53420	2.77749	0.97557
1167.000	3.37676	-0.38527	2.82285	1.01924
1168.000	3.41025	-0.37136	2.82877	0.98546
1169.000	3.43192	-0.49844	2.76368	1.04511
1170.000	3.39843	-0.43094	2.82285	1.13841
1171.000	3.44374	-0.34553	2.81496	1.06692
1172.000	3.45950	-0.39120	2.81299	1.09075
1173.000	3.41222	-0.46668	2.86229	0.98941
1174.000	3.45162	-0.39914	2.87610	1.00727
1175.000	3.48314	-0.46863	2.79524	1.01926
1176.000	3.38070	-0.41506	2.82285	0.99937
1177.000	3.47526	-0.46466	2.76171	0.98154
1178.000	3.49889	-0.36934	2.90962	0.94567
1179.000	3.38464	-0.47861	2.85243	1.05695
1180.000	3.36100	-0.46472	2.83074	0.97155
1181.000	3.37479	-0.38925	2.77946	1.03516
1182.000	3.43586	-0.44880	2.95103	1.14822
1183.000	3.33144	-0.48459	2.75579	0.99545
1184.000	3.36494	-0.51635	2.84454	1.19003
1185.000	3.35903	-0.41904	2.87413	0.92980
1186.000	3.29007	-0.57398	2.87215	1.00529
1187.000	3.33933	-0.54416	2.91159	1.04498
1188.000	3.32947	-0.53821	2.78932	1.11461
1189.000	3.30977	-0.37140	2.88793	1.01520
1190.000	3.33144	-0.38728	2.81496	1.09870
1191.000	3.18956	-0.57602	2.88201	1.05891
1192.000	3.32553	-0.49651	2.79524	1.09276
1193.000	3.31765	-0.55808	2.89779	1.11053
1194.000	3.26248	-0.55414	2.85243	0.93578
1195.000	3.31962	-0.54616	2.87215	1.12843
1196.000	3.31962	-0.59779	2.86032	1.16420
1197.000	3.33144	-0.54020	2.80510	1.06097
1198.000	3.38858	-0.51236	2.91751	1.10654
1199.000	3.28415	-0.64151	2.98061	1.08861
1200.000	3.41025	-0.49647	2.78143	1.07290
1201.000	3.41813	-0.51433	2.77946	1.02722
1202.000	3.36888	-0.53223	2.92342	1.00921
1203.000	3.45162	-0.48652	2.89976	1.01321
1204.000	3.37873	-0.44088	2.81891	1.07883
1205.000	3.35312	-0.48259	2.75185	1.01334
1206.000	3.35115	-0.58983	2.75776	0.99148
1207.000	3.30189	-0.62362	2.89582	0.93972
1208.000	3.34327	-0.61764	2.93723	1.09461
1209.000	3.40237	-0.42101	2.90765	1.07875
1210.000	3.37282	-0.60769	2.93723	1.03701
1211.000	3.38267	-0.67123	2.96483	1.05486
1212.000	3.52844	-0.55994	2.85638	0.91790
1213.000	3.42798	-0.41107	2.80116	0.95767
1214.000	3.40434	-0.55207	2.92145	0.92182
1215.000	3.47526	-0.53416	2.87018	1.06488
1216.000	3.38858	-0.53024	2.91357	0.99135
1217.000	3.42601	-0.43291	2.74987	1.04115
1218.000	3.42010	-0.38129	2.80116	1.06693
1219.000	3.42010	-0.63149	2.86427	1.05297
1220.000	3.35115	-0.44089	2.86229	1.15426
1221.000	3.48314	-0.50636	2.83666	1.13046
1222.000	3.44768	-0.49248	2.82877	1.12053
1223.000	3.46935	-0.57983	2.79129	1.08680
1224.000	3.38464	-0.57988	2.82482	1.04506
1225.000	3.21912	-0.54026	2.76763	1.01928
1226.000	3.36691	-0.43691	2.91751	0.88607
1227.000	3.27036	-0.60180	2.93723	1.18795
1228.000	3.37282	-0.49251	2.82877	1.02122
1229.000	3.35312	-0.48259	2.95497	1.12438
1230.000	3.42601	-0.42696	2.78735	1.02125
1231.000	3.40828	-0.45278	2.80313	1.04110
1232.000	3.49101	-0.51032	2.88201	1.18006
1233.000	3.32947	-0.56800	2.85638	1.05893
1234.000	3.43586	-0.46270	2.90568	0.97745
1235.000	3.44965	-0.55403	2.76960	1.02921
1236.000	3.49101	-0.50437	2.86032	1.04502
1237.000	3.48314	-0.42693	2.89582	1.14430
1238.000	3.42207	-0.41902	2.81102	1.07884
1239.000	3.49298	-0.45075	2.87413	0.94967
1240.000	3.42601	-0.50440	2.84060	1.06689
1241.000	3.61312	-0.50827	2.84060	1.06491
1242.000	3.36297	-0.43096	2.79327	1.14639
1243.000	3.33933	-0.48260	2.84257	1.06689
1244.000	3.45162	-0.51630	2.81299	0.95369
1245.000	3.47329	-0.49842	2.82482	1.12649
1246.000	3.45359	-0.50240	2.84849	1.12051
1247.000	3.46344	-0.54409	2.87215	1.01323
1248.000	3.47920	-0.55997	2.83468	1.00333
1249.000	3.56192	-0.46462	2.89779	1.24956
1250.000	3.57570	-0.53410	2.79918	1.03713
1251.000	3.55404	-0.42888	2.84849	0.93976
1252.000	3.52056	-0.57186	2.83074	0.95566
1253.000	3.34918	-0.62756	2.77157	1.10072
1254.000	3.55207	-0.52220	2.80707	1.03315
1255.000	3.49298	-0.41303	2.87018	0.95960
1256.000	3.52844	-0.49243	2.90371	0.98142
1257.000	3.57964	-0.56388	2.86821	0.96159
1258.000	3.56783	-0.56984	2.74593	1.08088
1259.000	3.58161	-0.52219	2.82285	0.95368
1260.000	3.61509	-0.43680	2.86624	0.99536
1261.000	3.58358	-0.56189	2.71831	0.99549
1262.000	3.55010	-0.52022	2.87610	1.00926
1263.000	3.50677	-0.43486	2.90568	0.88409
1264.000	3.55207	-0.50235	2.78735	1.11263
1265.000	3.54419	-0.50434	2.77354	0.98551
1266.000	3.42207	-0.53220	2.87215	1.15425
1267.000	3.41616	-0.59178	2.91948	1.05291
1268.000	3.47329	-0.48055	2.74593	0.96169
1269.000	3.49298	-0.52025	2.76960	0.97161
1270.000	3.55010	-0.31372	2.84849	0.97353
1271.000	3.50086	-0.56988	2.89582	1.01917
1272.000	3.55010	-0.46462	2.87018	0.89008
1273.000	3.41222	-0.49249	2.69070	1.06305
1274.000	3.52056	-0.46265	2.84652	1.03511
1275.000	3.56192	-0.57183	2.84849	0.99538
1276.000	3.47329	-0.50040	2.92145	1.05490
1277.000	3.40828	-0.46469	2.93920	0.98735
1278.000	3.40434	-0.47264	2.88201	0.94767
1279.000	3.55404	-0.52220	2.97666	0.93170
1280.000	3.42207	-0.48455	2.82680	1.02718
1281.000	3.55404	-0.47058	2.84652	1.11257
1282.000	3.43586	-0.35348	2.87018	0.98741
1283.000	3.56586	-0.48844	2.85243	1.07085
1284.000	3.49889	-0.40508	2.90173	0.99732
1285.000	3.53828	-0.46066	2.86229	0.96954
1286.000	3.55798	-0.43087	2.80905	0.94575
1287.000	3.54025	-0.28792	2.90371	0.99533
1288.000	3.50283	-0.35345	2.86624	0.84638
1289.000	3.35903	-0.46869	2.81102	0.91595
1290.000	3.44768	-0.35546	2.71240	1.00145
1291.000	3.49298	-0.34353	2.90962	1.01916
1292.000	3.52056	-0.29984	2.73409	0.85641
1293.000	3.45162	-0.40709	2.80707	1.03514
1294.000	3.46147	-0.49048	2.95103	1.02309
1295.000	3.65644	-0.40700	2.89976	1.01321
1296.000	3.44374	-0.46071	2.86624	1.02714
1297.000	3.55404	-0.36336	2.87413	0.98344
1298.000	3.48708	-0.38523	2.80707	0.98349
1299.000	3.51662	-0.28991	2.90765	1.03306
1300.000	3.45556	-0.37730	2.91751	1.03107
1301.000	3.45753	-0.36737	2.91554	1.08668
1302.000	3.60130	-0.43085	2.91159	0.86025
1303.000	3.47329	-0.36736	2.91159	0.95957
1304.000	3.50874	-0.44876	2.95892	1.10054
1305.000	3.40040	-0.24824	2.84454	0.96558
1306.000	3.53041	-0.41500	2.86821	1.02714
1307.000	3.56783	-0.39314	2.78932	0.88418
1308.000	3.42601	-0.32965	2.78341	1.05105
1309.000	3.47526	-0.39516	2.86427	0.93577
1310.000	3.43980	-0.42894	2.84849	1.04901
1311.000	3.48708	-0.38126	2.81102	1.07089
1312.000	3.42995	-0.35348	2.85441	1.04304
1313.000	3.52056	-0.38919	2.79524	1.02522
1314.000	3.57570	-0.36534	2.89779	1.01122
1315.000	3.53631	-0.29189	2.89385	1.22374
1316.000	3.51859	-0.44280	2.92540	1.05092
1317.000	3.57767	-0.43681	2.87610	1.00926
1318.000	3.44571	-0.40709	2.69662	1.17032
1319.000	3.50086	-0.30778	2.87610	0.94172
1320.000	3.52647	-0.40110	2.84849	0.98147
1321.000	3.51268	-0.37132	2.84454	1.12449
1322.000	3.47723	-0.35743	2.89582	1.02513
1323.000	3.49889	-0.36537	2.79524	1.19207
1324.000	3.50283	-0.42891	2.87215	1.16617
1325.000	3.41419	-0.51235	2.93131	1.04694
1326.000	3.45359	-0.27206	2.87413	1.14829
1327.000	3.46541	-0.51232	2.89779	0.93574
1328.000	3.44768	-0.35745	2.91357	1.10257
1329.000	3.51268	-0.41500	2.87018	1.16419
1330.000	3.49889	-0.53415	2.81299	1.12452
1331.000	3.34524	-0.45281	2.94709	1.08864
1332.000	3.43192	-0.35149	2.72620	1.06501
1333.000	3.62296	-0.42290	2.85835	1.23570
1334.000	3.52450	-0.30778	2.91948	1.20981
1335.000	3.46935	-0.49842	2.78932	1.07687
1336.000	3.51268	-0.31572	2.96483	1.04294
1337.000	3.46541	-0.52424	2.86229	1.08475
1338.000	3.46738	-0.44282	2.82482	1.00930
1339.000	3.35706	-0.57196	2.90765	1.06683
1340.000	3.59540	-0.48048	2.82680	1.07088
1341.000	3.52450	-0.43287	2.85046	0.92784
1342.000	3.49692	-0.43288	2.79524	1.02919
1343.000	3.55207	-0.41697	2.84060	1.08080
1344.000	3.46935	-0.41899	2.77946	1.13250
1345.000	3.51268	-0.52421	2.78932	1.07290
1346.000	3.50874	-0.52223	2.83271	1.00334
1347.000	3.50283	-0.40508	2.99244	1.07469
1348.000	3.59933	-0.47254	2.86032	1.10064
1349.000	3.59343	-0.37923	2.74790	0.98354
1350.000	3.39449	-0.41307	2.82680	1.01923
1351.000	3.52647	-0.38720	2.76565	1.14046
1352.000	3.57767	-0.40306	2.76565	1.10470
1353.000	3.47920	-0.49246	2.77552	1.04907
1354.000	3.58752	-0.46262	2.79524	1.10269
1355.000	3.45162	-0.46269	2.82088	1.10664
1356.000	3.50283	-0.43089	2.80905	1.05302
1357.000	3.56586	-0.33755	2.91751	1.09463
1358.000	3.55207	-0.34351	2.72620	1.15241
1359.000	3.58949	-0.29187	2.81299	1.09473
1360.000	3.47132	-0.52423	2.76565	1.13648
1361.000	3.55404	-0.42690	2.86032	1.02119
1362.000	3.64265	-0.50825	2.75579	0.95771
1363.000	3.46147	-0.48453	2.81693	0.92786
1364.000	3.60130	-0.60159	2.71634	0.93589
1365.000	3.43586	-0.43887	2.81891	1.02321
1366.000	3.58752	-0.44475	2.69859	1.14648
1367.000	3.47723	-0.49047	2.76368	1.08087
1368.000	3.47723	-0.45473	2.80510	1.06692
1369.000	3.47723	-0.48253	2.79524	1.01529
1370.000	3.61115	-0.50232	2.78341	1.12058
1371.000	3.57767	-0.47255	2.73607	0.95971
1372.000	3.54419	-0.60560	2.90765	1.04895
1373.000	3.53041	-0.42492	2.77749	1.09476
1374.000	3.59736	-0.38320	2.89385	1.04698
1375.000	3.46541	-0.64536	2.97075	1.07868
1376.000	3.47526	-0.47459	2.90568	0.80861
1377.000	3.62493	-0.53804	2.75579	0.94380
1378.000	3.51071	-0.50634	2.85441	1.03113
1379.000	3.56389	-0.51822	2.80707	1.06096
1380.000	3.52056	-0.53016	2.87215	1.01125
1381.000	3.58752	-0.52417	2.75185	1.03916
1382.000	3.41813	-0.60568	2.78538	1.02920
1383.000	3.54616	-0.45470	2.73015	1.11864
1384.000	3.53631	-0.46463	2.89187	0.99534
1385.000	3.58752	-0.49439	2.84652	0.98942
1386.000	3.51268	-0.60562	2.87610	1.09069
1387.000	3.42995	-0.69304	2.78932	1.06098
1388.000	3.50677	-0.44082	2.88990	1.02513
1389.000	3.48314	-0.38722	2.83666	1.00929
1390.000	3.59736	-0.54799	2.75579	1.05704
1391.000	3.50677	-0.47656	2.86821	0.95762
1392.000	3.57373	-0.49439	2.80707	1.06891
1393.000	3.63675	-0.59759	2.81891	1.07684
1394.000	3.51465	-0.47258	2.93131	1.13036
1395.000	3.60130	-0.43085	2.98455	1.09059
1396.000	3.50874	-0.51031	2.94314	1.00522
1397.000	3.56389	-0.45469	2.86821	1.02714
1398.000	3.46147	-0.63940	2.86229	1.02715
1399.000	3.45950	-0.55800	2.85243	1.13839
1400.000	3.59343	-0.47453	2.92934	1.10256
1401.000	3.53238	-0.51030	2.88793	1.02712
1402.000	3.60130	-0.53607	2.76171	0.99346
1403.000	3.42404	-0.52624	2.90568	1.12840
1404.000	3.44768	-0.41305	2.86032	1.11454
1405.000	3.57176	-0.54006	2.78143	1.07290
1406.000	3.60130	-0.54203	2.92342	1.13434
1407.000	3.56586	-0.45270	2.74593	1.03519
1408.000	3.42601	-0.49249	2.86427	1.05892
1409.000	3.51465	-0.54804	2.77946	1.08085
1410.000	3.52056	-0.46067	2.84257	1.09271
1411.000	3.48117	-0.35942	2.85441	1.14633
1412.000	3.62887	-0.43282	2.86821	1.00529
1413.000	3.57373	-0.46064	2.88990	1.04102
1414.000	3.55404	-0.49242	2.90962	1.17606
1415.000	3.51465	-0.51825	2.83863	1.20394
1416.000	3.46738	-0.45275	2.87807	1.14432
1417.000	3.47526	-0.46665	2.89976	1.04102
1418.000	3.54616	-0.41300	2.73804	1.05904
1419.000	3.50677	-0.46663	2.91554	1.09066
1420.000	3.45950	-0.42297	2.84060	1.13244
1421.000	3.50677	-0.43883	2.86821	1.13837
1422.000	3.56586	-0.49440	2.82285	1.10663
1423.000	3.56192	-0.36733	2.85046	0.99537
1424.000	3.62887	-0.31767	2.77354	1.12853
1425.000	3.56192	-0.44675	2.87413	1.17014
1426.000	3.53041	-0.37727	2.89187	1.02315
1427.000	3.49298	-0.35743	2.85638	1.22776
1428.000	3.50677	-0.54804	2.83074	1.00930
1429.000	3.37479	-0.39719	2.88990	1.12643
1430.000	3.55601	-0.37130	2.89385	1.18204
1431.000	3.56192	-0.42888	2.71437	1.18818
1432.000	3.47920	-0.34552	2.86032	1.23172
1433.000	3.48511	-0.31772	2.84849	1.22776
1434.000	3.36100	-0.29591	2.83863	1.16025
1435.000	3.40434	-0.35349	2.74987	1.23979
1436.000	3.32947	-0.26812	2.65716	1.19618
1437.000	3.33341	-0.47466	2.66308	1.06506
1438.000	3.31962	-0.44885	2.59206	1.13267
1439.000	3.12846	-0.38338	2.66703	1.13459
1440.000	3.24671	-0.35355	2.62560	1.19422
1441.000	3.24277	-0.43895	2.67689	1.15047
1442.000	3.16985	-0.46878	2.60192	1.00551
1443.000	3.20139	-0.39130	2.55062	1.10887
1444.000	3.23686	-0.45484	2.65124	1.01739
1445.000	3.26445	-0.34957	2.67097	1.02334
1446.000	3.31568	-0.40714	2.66505	1.20412
1447.000	3.27824	-0.47071	2.55062	1.12675
1448.000	3.38464	-0.50244	2.74790	1.10869
1449.000	3.39055	-0.37931	2.78143	1.07688
1450.000	3.34918	-0.60572	2.83863	1.13244
1451.000	3.33341	-0.57594	2.72818	1.15241
1452.000	3.40828	-0.42895	2.71240	1.07098
1453.000	3.38858	-0.56598	2.73015	1.11864
1454.000	3.37479	-0.39719	2.69464	1.05709
1455.000	3.34327	-0.48458	2.70648	1.03721
1456.000	3.42207	-0.41306	2.61179	1.11875
1457.000	3.33144	-0.55013	2.62362	0.96179
1458.000	3.37085	-0.36542	2.77157	1.08881
1459.000	3.46541	-0.49445	2.68083	1.10875
1460.000	3.34524	-0.42302	2.71240	1.18421
1461.000	3.42010	-0.37930	2.62362	1.10284
1462.000	3.41616	-0.46072	2.66505	1.08294
1463.000	3.47132	-0.46466	2.70451	1.09681
1464.000	3.46738	-0.40708	2.67689	1.06505
1465.000	3.25854	-0.49654	2.66900	1.12466
1466.000	3.26642	-0.47866	2.73409	1.06302
1467.000	3.34130	-0.47863	2.71634	1.06700
1468.000	3.37676	-0.54216	2.84257	1.02319
1469.000	3.31765	-0.44289	2.73409	1.07891
1470.000	3.31174	-0.46275	2.55852	1.18038
1471.000	3.30780	-0.59979	2.88596	0.97548
1472.000	3.26839	-0.57796	2.71437	1.02132
1473.000	3.31371	-0.49056	2.80707	1.03713
1474.000	3.29598	-0.53823	2.69859	0.98557
1475.000	3.17379	-0.54823	2.76763	1.07490
1476.000	3.29598	-0.57993	2.65322	1.12864
1477.000	3.34130	-0.46075	2.72029	1.09084
1478.000	3.29007	-0.47071	2.69267	1.04915
1479.000	3.31174	-0.49652	2.75974	1.09478
1480.000	3.30583	-0.41708	2.78341	1.06694
1481.000	3.39055	-0.49846	2.70648	1.12661
1482.000	3.30583	-0.57397	2.73015	1.09480
1483.000	3.29204	-0.57199	2.72620	1.13056
1484.000	3.23095	-0.52833	2.78341	0.97159
1485.000	3.27233	-0.56009	2.79524	1.02720
1486.000	3.19744	-0.53630	2.70451	1.06304
1487.000	3.34130	-0.42898	2.76960	1.01531
1488.000	3.26642	-0.45285	2.64730	1.12468
1489.000	3.22306	-0.54025	2.74001	1.16034
1490.000	3.34918	-0.39919	2.78538	0.98550
1491.000	3.16197	-0.50255	2.66703	1.12068
1492.000	3.23686	-0.58791	2.81102	1.07288
1493.000	3.31174	-0.47070	2.74593	1.15438
1494.000	3.26445	-0.49654	2.73212	0.97958
1495.000	3.29204	-0.50844	2.67886	1.07697
1496.000	3.34721	-0.61962	2.73015	1.08686
1497.000	3.39843	-0.43888	2.75776	1.10670
1498.000	3.29992	-0.49652	2.73607	1.01931
1499.000	3.28415	-0.48461	2.73212	1.09281
1500.000	3.23292	-0.58394	2.73212	1.10871
1501.000	3.23686	-0.45484	2.77354	1.05901
1502.000	3.31765	-0.52233	2.76171	1.12258
1503.000	3.26248	-0.40121	2.78143	0.99146
1504.000	3.28415	-0.43298	2.77552	1.10867
1505.000	3.33538	-0.42501	2.68478	1.17430
1506.000	3.26051	-0.43696	2.83468	1.10066
1507.000	3.24868	-0.43101	2.73804	1.03520
1508.000	3.29007	-0.43893	2.83074	1.11854
1509.000	3.24474	-0.39327	2.75579	1.13649
1510.000	3.22898	-0.47868	2.79129	1.18413
1511.000	3.22504	-0.32575	2.73607	1.19610
1512.000	3.25460	-0.36745	2.74790	1.10472
1513.000	3.34130	-0.45678	2.74593	1.11664
1514.000	3.33341	-0.40714	2.77157	1.05702
1515.000	3.42995	-0.33561	2.73015	1.00144
1516.000	3.33736	-0.40316	2.71240	1.11270
1517.000	3.19547	-0.53232	2.73804	1.00143
1518.000	3.27430	-0.41709	2.80116	1.11261
1519.000	3.27036	-0.42901	2.75185	1.16431
1520.000	3.34721	-0.41508	2.78932	1.08879
1521.000	3.30583	-0.37140	2.75579	1.15834
1522.000	3.29204	-0.33367	2.84652	1.16223
1523.000	3.32356	-0.32572	2.82285	1.04307
1524.000	3.33341	-0.27408	2.86032	1.07085
1525.000	3.47920	-0.24822	2.81102	1.13247
1526.000	3.34130	-0.38132	2.70253	1.27559
1527.000	3.16000	-0.45091	2.74396	1.17822
1528.000	3.37282	-0.44485	2.69859	1.16634
1529.000	3.44374	-0.30780	2.69859	1.16833
1530.000	3.21124	-0.35952	2.85638	1.12051
1531.000	3.29598	-0.33963	2.77157	1.18812
1532.000	3.29598	-0.47468	2.71437	1.21003
1533.000	3.36691	-0.30981	2.92342	1.07277
1534.000	3.39843	-0.36342	2.79129	1.18810
1535.000	3.35115	-0.40713	2.81102	1.13644
1536.000	3.31962	-0.36147	2.77157	1.16429
1537.000	3.31765	-0.29394	2.88793	1.19396
1538.000	3.23883	-0.44690	2.91357	1.15024
1539.000	3.26051	-0.35354	2.79918	1.06494
1540.000	3.36691	-0.44883	2.83468	1.08676
1541.000	3.29795	-0.30586	2.86821	1.16618
1542.000	3.30780	-0.37140	2.78341	1.20003
1543.000	3.38858	-0.42697	2.79524	1.15036
1544.000	3.36100	-0.27605	2.87413	1.23767
1545.000	3.47329	-0.34949	2.81891	1.13246
1546.000	3.42207	-0.29788	2.93328	1.23760
1547.000	3.30780	-0.26018	2.77354	1.15237
1548.000	3.25657	-0.47867	2.80510	1.10268
1549.000	3.42404	-0.28199	2.86624	1.26747
1550.000	3.24868	-0.35950	2.84849	1.13839
1551.000	3.37873	-0.20654	2.80116	1.15035
1552.000	3.29795	-0.29196	2.67886	1.18623
1553.000	3.36100	-0.43294	2.79918	1.22186
1554.000	3.42207	-0.35746	2.81102	1.14240
1555.000	3.32159	-0.36544	2.79721	1.14440
1556.000	3.36100	-0.28598	2.85243	1.11256
1557.000	3.32356	-0.24826	2.76960	1.12258
1558.000	3.35115	-0.30585	2.79129	1.18612
1559.000	3.21912	-0.32376	2.85046	1.26153
1560.000	3.27627	-0.37141	2.87413	1.15028
1561.000	3.39055	-0.39718	2.72423	1.12460
1562.000	3.34918	-0.25223	2.80313	1.12254
1563.000	3.37282	-0.35152	2.90173	1.23168
1564.000	3.31568	-0.26018	2.84060	1.12251
1565.000	3.36100	-0.25619	2.95497	1.23361
1566.000	3.40631	-0.28994	2.77157	1.20997
1567.000	3.35706	-0.26613	2.80905	1.07685
1568.000	3.43586	-0.32568	2.78932	1.08680
1569.000	3.41616	-0.31178	2.85243	1.14236
1570.000	3.23292	-0.21849	2.80313	1.17617
1571.000	3.26248	-0.40717	2.81299	1.09671
1572.000	3.38464	-0.39322	2.77552	1.12058
1573.000	3.27233	-0.36744	2.81693	1.17814
1574.000	3.33736	-0.17676	2.82482	1.21587
1575.000	3.26839	-0.25225	2.71437	1.21996
1576.000	3.28612	-0.42900	2.84849	1.04305
1577.000	3.24671	-0.33567	2.82877	1.07286
1578.000	3.35115	-0.23634	2.73409	1.14049
1579.000	3.38267	-0.32768	2.79129	1.06495
1580.000	3.31962	-0.27805	2.91159	1.10456
1581.000	3.25854	-0.36745	2.84652	0.98942
1582.000	3.33538	-0.38926	2.80313	1.12056
1583.000	3.29598	-0.35949	2.82877	1.18210
1584.000	3.24277	-0.27609	2.77157	0.98948
1585.000	3.29007	-0.37736	2.89976	1.07875
1586.000	3.32947	-0.35550	2.81496	1.15828
1587.000	3.26051	-0.29992	2.77749	1.10072
1588.000	3.32553	-0.37139	2.98652	1.10846
1589.000	3.37479	-0.25420	2.84257	1.01525
1590.000	3.29795	-0.37935	2.77354	1.13250
1591.000	3.23095	-0.36944	2.84060	1.12648
1592.000	3.21715	-0.34958	2.85243	1.11256
1593.000	3.04369	-0.39732	2.86427	1.08276
1594.000	3.29007	-0.36942	2.95892	1.12636
1595.000	3.24080	-0.42306	2.90371	1.12443
1596.000	3.22701	-0.42704	2.87807	1.11055
1597.000	3.23686	-0.26218	2.84849	0.96558
1598.000	3.23489	-0.39129	2.79524	1.07289
1599.000	3.15014	-0.43303	2.83074	1.15231
1600.000	3.29401	-0.29991	2.88990	1.08472
1601.000	3.36494	-0.48855	2.79721	1.08481
1602.000	3.13437	-0.44297	2.86821	1.13241
1603.000	3.24868	-0.42703	2.81496	1.00136
1604.000	3.17774	-0.25425	2.91554	1.10059
1605.000	3.16985	-0.38535	2.79524	1.11659
1606.000	3.30386	-0.39126	2.81102	1.13843
1607.000	3.16000	-0.29995	2.87807	1.18007
1608.000	3.29598	-0.32771	2.82877	1.07485
1609.000	3.25657	-0.37142	2.84060	1.08080
1610.000	3.26445	-0.48860	2.92540	1.09263
1611.000	3.16591	-0.42111	2.86032	1.11852
1612.000	3.15211	-0.37146	2.88399	1.17013
1613.000	3.24277	-0.35156	2.80510	1.15631
1614.000	3.21715	-0.41910	2.89582	1.13437
1615.000	3.31174	-0.44885	2.89976	1.19196
1616.000	3.28415	-0.25026	2.77552	1.18017
1617.000	3.20927	-0.47472	2.81891	1.05499
1618.000	3.26445	-0.37340	2.83074	1.18012
1619.000	3.27627	-0.37936	2.83863	1.16422
1620.000	3.14029	-0.38735	2.88201	1.11849
1621.000	3.20730	-0.39329	2.80510	1.12056
1622.000	3.30583	-0.39523	2.79327	1.16625
1623.000	3.28021	-0.39127	2.87807	1.27142
1624.000	3.24080	-0.25424	2.76171	1.08683
1625.000	3.30780	-0.24826	2.80116	1.11460
1626.000	3.17971	-0.36152	2.93920	0.99927
1627.000	3.21912	-0.35356	2.80905	1.17418
1628.000	3.21321	-0.46479	2.88201	1.12247
1629.000	3.14226	-0.47078	2.88990	1.07280
1630.000	3.26642	-0.32176	2.87610	1.16021
1631.000	3.25657	-0.52236	2.84849	1.17613
1632.000	3.20336	-0.38733	2.78538	1.00934
1633.000	3.21124	-0.42904	2.89385	1.08273
1634.000	3.24080	-0.41512	2.92342	1.11051
1635.000	3.12058	-0.35359	2.80510	1.19802
1636.000	3.31371	-0.29791	2.76368	1.08683
1637.000	3.18168	-0.23439	2.92145	1.24159
1638.000	3.19744	-0.42706	2.80905	1.03514
1639.000	3.10678	-0.26818	2.93131	1.19789
1640.000	3.20139	-0.30986	2.85835	1.01722
1641.000	3.17379	-0.37344	2.82877	1.06690
1642.000	3.25065	-0.44888	2.80510	1.21788
1643.000	3.24868	-0.40916	2.83468	1.22977
1644.000	3.16985	-0.37344	2.82285	1.09670
1645.000	3.14029	-0.52441	2.82482	1.07684
1646.000	3.18168	-0.37542	2.82285	1.13444
1647.000	3.22898	-0.38930	2.86229	1.20789
1648.000	3.19153	-0.46480	2.74001	1.08883
1649.000	3.12058	-0.45688	2.82285	1.00732
1650.000	3.17971	-0.41713	2.86821	1.15624
1651.000	3.10481	-0.39928	2.87413	1.07878
1652.000	3.11466	-0.41716	2.85441	1.05099
1653.000	3.24080	-0.29595	2.87018	1.15426
1654.000	3.13634	-0.46482	2.83468	1.09471
1655.000	3.15803	-0.42310	2.80510	1.13843
1656.000	3.10283	-0.42113	2.78341	1.20201
1657.000	3.14817	-0.31385	2.89385	0.98143
1658.000	3.24474	-0.48463	2.82285	1.17615
1659.000	3.16788	-0.43700	2.89779	1.15621
1660.000	3.12846	-0.40722	2.91357	1.09066
1661.000	3.17182	-0.47275	2.84849	0.98942
1662.000	3.33933	-0.39919	2.86624	1.05892
1663.000	3.19153	-0.61972	2.83074	1.14437
1664.000	3.21518	-0.50252	2.84652	1.06887
1665.000	3.13043	-0.42311	2.87413	1.24958
1666.000	3.17774	-0.52638	2.84849	0.99736
1667.000	3.09889	-0.39929	2.83468	1.14238
1668.000	3.17774	-0.51049	2.78143	1.10866
1669.000	3.19153	-0.43898	2.86427	1.14235
1670.000	3.19547	-0.33966	2.78538	1.05701
1671.000	3.21321	-0.48266	2.83863	0.98545
1672.000	3.20730	-0.42904	2.82482	0.96361
1673.000	3.24080	-0.38930	3.01412	0.96544
1674.000	3.12452	-0.46284	2.87215	0.97152
1675.000	3.19153	-0.50253	2.87215	1.03905
1676.000	3.16985	-0.45289	2.85638	0.97551
1677.000	3.25854	-0.38135	2.82088	0.94177
1678.000	3.22306	-0.32376	2.87610	1.10658
1679.000	3.18956	-0.44493	2.78538	0.93385
1680.000	3.24868	-0.42902	2.83074	1.13046
1681.000	3.12452	-0.35756	2.89385	1.04897
1682.000	3.07327	-0.46088	2.89976	0.99930
1683.000	3.12255	-0.49462	2.92342	1.02510
1684.000	3.19350	-0.41315	2.85441	1.11653
1685.000	3.20533	-0.46479	2.83074	1.05896
1686.000	3.24277	-0.41313	2.81299	1.06692
1687.000	3.16394	-0.44892	2.95497	0.98337
1688.000	3.22306	-0.49855	2.93723	1.06680
1689.000	3.14029	-0.47078	2.85441	1.06489
1690.000	3.05749	-0.48273	3.00032	0.98928
1691.000	3.25065	-0.41313	2.82680	1.11060
1692.000	3.32159	-0.42899	2.95892	1.11842
1693.000	3.12846	-0.44099	2.94511	1.03700
1694.000	3.19153	-0.48664	2.88004	0.96754
1695.000	3.19744	-0.45089	2.96286	0.93768
1696.000	3.13437	-0.44099	2.86032	1.10660
1697.000	3.15211	-0.43502	2.89385	0.90992
1698.000	3.21321	-0.43698	2.79524	0.98549
1699.000	3.21124	-0.35157	2.87215	1.11255
1700.000	3.18168	-0.36350	2.87807	1.11453
1701.000	3.25657	-0.35354	2.95103	1.02111
1702.000	3.12058	-0.50853	2.86821	1.12645
1703.000	3.17774	-0.54822	2.92342	1.07079
1704.000	3.32159	-0.40913	2.81102	1.17815
1705.000	3.11072	-0.53435	2.86032	1.03112
1706.000	3.27036	-0.38532	2.81891	1.05698
1707.000	3.30977	-0.44687	2.94709	1.05885
1708.000	3.30977	-0.51439	2.83666	1.08279
1709.000	3.25854	-0.43299	2.81496	1.07486
1710.000	3.26445	-0.50448	2.90568	1.04498
1711.000	3.23686	-0.41115	2.92540	0.95558
1712.000	3.23292	-0.48265	2.80313	1.05699
1713.000	3.14029	-0.52242	2.93526	1.17604
1714.000	3.20336	-0.50849	2.95300	1.05686
1715.000	3.10283	-0.40524	2.89385	1.06088
1716.000	3.18365	-0.44692	2.88399	1.03308
1717.000	3.22109	-0.32178	2.89976	1.00526
1718.000	3.18956	-0.47870	2.93723	1.06481
1719.000	3.16394	-0.39132	2.84257	0.97552
1720.000	3.12846	-0.40921	2.88399	1.15226
1721.000	3.24671	-0.51840	2.91357	1.02511
1722.000	3.16000	-0.45687	2.92145	0.97942
1723.000	3.28218	-0.47468	2.80313	1.02521
1724.000	3.18168	-0.55219	2.87413	1.01124
1725.000	3.14423	-0.45091	2.90371	1.03704
1726.000	3.23292	-0.46279	2.78341	1.00934
1727.000	3.00821	-0.61982	2.87610	1.00330
1728.000	3.13634	-0.50653	2.89976	1.00328
1729.000	3.11072	-0.49065	2.93526	0.98736
1730.000	3.19153	-0.42706	2.97666	1.08861
1731.000	3.16788	-0.47474	2.69662	0.96968
1732.000	3.18365	-0.47870	3.00032	0.92573
1733.000	3.09889	-0.49265	2.89385	0.95760
1734.000	3.29007	-0.34757	3.03187	0.85618
1735.000	3.16000	-0.51447	2.82680	0.97950
1736.000	3.21715	-0.42506	2.88004	1.04699
1737.000	3.17379	-0.43898	2.78538	1.11064
1738.000	3.12452	-0.46880	2.89187	0.95958
1739.000	3.13634	-0.53831	2.89187	0.94171
1740.000	3.22109	-0.45485	2.95892	1.12636
1741.000	3.22898	-0.50450	2.79129	1.06892
1742.000	3.20730	-0.50650	2.93920	1.00523
1743.000	3.13832	-0.58598	2.96089	0.96151
1744.000	3.25657	-0.53428	2.83666	1.09669
1745.000	3.23095	-0.51840	2.89385	1.00328
1746.000	3.20730	-0.39329	2.83074	1.03909
1747.000	3.11860	-0.54825	2.86624	1.14036
1748.000	3.27233	-0.42305	2.93328	0.95558
1749.000	3.22504	-0.46677	2.93920	1.07673
1750.000	3.15014	-0.50057	2.79524	1.04111
1751.000	3.22504	-0.50848	2.88004	1.11850
1752.000	3.25263	-0.46080	2.83666	1.08676
1753.000	3.23489	-0.43697	2.91948	0.96949
1754.000	3.06932	-0.54033	2.86427	0.98344
1755.000	3.16394	-0.48666	2.85243	1.08674
1756.000	3.19547	-0.60383	2.89976	1.01718
1757.000	3.27824	-0.42702	2.87215	0.98741
1758.000	3.15211	-0.45091	2.83666	1.05498
1759.000	3.21321	-0.52437	3.01215	0.96941
1760.000	3.16197	-0.50453	2.90962	1.08470
1761.000	3.15803	-0.47077	2.93526	1.11646
1762.000	3.13043	-0.47476	2.89187	1.02712
1763.000	3.18562	-0.53829	2.85638	1.01921
1764.000	3.16985	-0.50850	2.82680	1.15033
1765.000	3.20336	-0.49061	2.98652	1.01909
1766.000	3.10283	-0.48669	2.82088	1.03314
1767.000	3.06932	-0.54232	2.86032	0.94769
1768.000	3.22109	-0.46280	2.82088	1.00335
1769.000	3.21321	-0.48465	2.87807	0.93179
1770.000	3.19153	-0.46877	2.92737	1.09859
1771.000	3.10481	-0.54628	2.93328	1.06482
1772.000	3.23095	-0.47272	3.03384	0.92768
1773.000	3.10283	-0.61778	2.84652	1.04504
1774.000	3.11072	-0.40723	2.92145	1.07476
1775.000	3.10678	-0.49463	2.87610	1.02713
1776.000	3.12452	-0.44496	2.85243	1.14633
1777.000	3.14226	-0.40324	2.98061	1.03300
1778.000	3.16394	-0.59193	2.93920	1.02708
1779.000	3.21124	-0.44890	2.79721	1.13049
1780.000	3.23292	-0.46279	2.85638	1.16023
1781.000	3.22898	-0.47272	2.92737	1.01716
1782.000	3.26445	-0.43696	2.84257	1.23373
1783.000	3.25657	-0.52832	2.92540	1.03503
1784.000	3.11072	-0.48668	2.90962	1.14230
1785.000	3.12452	-0.53037	2.78341	1.10866
1786.000	3.26839	-0.51441	2.75776	1.06299
1787.000	3.20336	-0.42507	2.88399	1.07678
1788.000	3.23686	-0.37937	2.91357	0.99532
1789.000	3.05947	-0.51650	2.88596	1.05096
1790.000	3.16197	-0.45289	2.98849	1.00916
1791.000	3.08904	-0.52841	2.87018	0.95762
1792.000	3.28415	-0.33963	2.88990	1.12246
1793.000	3.12255	-0.36948	2.90568	1.11450
1794.000	3.15211	-0.52440	2.96483	1.04890
1795.000	3.18956	-0.40322	2.98652	1.07867
1796.000	3.14029	-0.36749	2.80510	1.06692
1797.000	3.22898	-0.55018	2.91554	1.20585
1798.000	3.11072	-0.40524	2.98849	1.21371
1799.000	3.11072	-0.54230	2.90173	1.18997
1800.000	3.16985	-0.51645	2.90765	1.06882
1801.000	3.22701	-0.55614	2.89582	1.15423
1802.000	3.12255	-0.54825	2.81496	0.93382
1803.000	3.19941	-0.65348	2.86427	1.14830
1804.000	3.13043	-0.44297	2.91159	1.04895
1805.000	3.22306	-0.53032	2.99835	0.98134
1806.000	3.18365	-0.53432	2.85638	0.97948
1807.000	3.18562	-0.44494	2.90765	1.23167
1808.000	3.15605	-0.38536	2.91554	1.08072
1809.000	3.16000	-0.48467	2.87610	1.17411
1810.000	3.13437	-0.50058	2.77157	1.18812
1811.000	3.24868	-0.42306	2.84060	1.31913
1812.000	3.26248	-0.47668	2.76171	1.03518
1813.000	3.05947	-0.61185	2.82680	1.11855
1814.000	3.28415	-0.44489	2.90371	1.16217
1815.000	3.26248	-0.46079	2.88596	0.99932
1816.000	3.19350	-0.44891	2.88399	1.13240
1817.000	3.23686	-0.54621	2.92145	1.20584
1818.000	3.21912	-0.39924	2.88201	0.99733
1819.000	3.25263	-0.45682	2.96680	1.03102
1820.000	3.24474	-0.41512	2.89976	1.08074
1821.000	3.19153	-0.53431	2.87413	1.10063
1822.000	3.31962	-0.56801	2.78932	1.03516
1823.000	3.33538	-0.52431	2.82088	1.06095
1824.000	3.20730	-0.49855	2.76368	1.03319
1825.000	3.21321	-0.53033	2.84060	1.00531
1826.000	3.29007	-0.57795	2.78735	1.12653
1827.000	3.15014	-0.56611	2.87610	1.02912
1828.000	3.19350	-0.47473	2.85243	1.11455
1829.000	3.17774	-0.48665	2.92342	1.02510
1830.000	3.19744	-0.63759	2.88793	1.07876
1831.000	3.17182	-0.63165	2.92145	1.07277
1832.000	3.22504	-0.40321	2.83863	1.11854
1833.000	3.22109	-0.61970	2.75974	1.06895
1834.000	3.31765	-0.35352	2.82285	1.06095
1835.000	3.30977	-0.56205	2.83271	0.94573
1836.000	3.25065	-0.56407	2.80905	1.04110
1837.000	3.29204	-0.43695	2.88793	1.06089
1838.000	3.36691	-0.59181	2.82482	0.97355
1839.000	3.31765	-0.39523	2.87807	0.99336
1840.000	3.37085	-0.54216	2.70451	1.03126
1841.000	3.27627	-0.40716	2.81496	1.02321
1842.000	3.34524	-0.41110	2.78341	1.04509
1843.000	3.37085	-0.54613	2.76565	1.01730
1844.000	3.37085	-0.52230	2.81693	1.12452
1845.000	3.19547	-0.57602	2.77749	0.95372
1846.000	3.29401	-0.39524	2.75974	1.03121
1847.000	3.29992	-0.60774	2.78735	1.10865
1848.000	3.22504	-0.54621	2.67492	1.06505
1849.000	3.27430	-0.46079	2.81693	0.94376
1850.000	3.30386	-0.52234	2.78143	1.14243
1851.000	3.37085	-0.52627	2.88399	1.03507
1852.000	3.41025	-0.46867	2.79129	1.05700
1853.000	3.28021	-0.44887	2.78932	1.04112
1854.000	3.39449	-0.42896	2.74001	1.05904
1855.000	3.44374	-0.38525	2.71042	1.02728
1856.000	3.34327	-0.40118	2.79918	1.07885
1857.000	3.28612	-0.47667	2.80707	1.01925
1858.000	3.23686	-0.57202	2.80510	1.03713
1859.000	3.34721	-0.43494	2.83271	1.05697
1860.000	3.32159	-0.51041	2.75579	1.07094
1861.000	3.36297	-0.56004	2.80313	0.99144
1862.000	3.30386	-0.55014	2.83863	0.99737
1863.000	3.38267	-0.43691	2.71240	1.14647
1864.000	3.30189	-0.48858	2.78143	1.15633
1865.000	3.23883	-0.51641	2.70451	1.22593
1866.000	3.27430	-0.50051	2.81891	0.94177
1867.000	3.38267	-0.56598	2.73212	1.00739
1868.000	3.34918	-0.54217	2.81693	0.91594
1869.000	3.36888	-0.52230	2.82877	1.12848
1870.000	3.29992	-0.50049	2.75776	1.00936
1871.000	3.32947	-0.53821	2.71042	0.99549
1872.000	3.26839	-0.51044	2.81496	1.10664
1873.000	3.36100	-0.43294	2.81496	1.01527
1874.000	3.24474	-0.40916	2.81693	0.97753
1875.000	3.41025	-0.51434	2.84652	1.14634
1876.000	3.43586	-0.41504	2.81496	1.02520
1877.000	3.31371	-0.44289	2.91751	1.06682
1878.000	3.35312	-0.44288	2.82877	1.08081
1879.000	3.24671	-0.53627	2.76960	1.15833
1880.000	3.32159	-0.55410	2.85441	1.19598
1881.000	3.36100	-0.48259	2.87807	1.14432
1882.000	3.32553	-0.46672	2.82680	1.10266
1883.000	3.37282	-0.33563	2.81102	0.99739
1884.000	3.41616	-0.43292	2.77946	1.04112
1885.000	3.32356	-0.53027	2.94511	0.96947
1886.000	3.38267	-0.31775	2.84454	1.06887
1887.000	3.42601	-0.47461	2.80905	1.12254
1888.000	3.35903	-0.50245	2.80510	1.01130
1889.000	3.37282	-0.44088	2.84652	1.16024
1890.000	3.31568	-0.28004	2.86229	1.16817
1891.000	3.34918	-0.31578	2.69267	1.17628
1892.000	3.23489	-0.39129	2.78538	1.18811
1893.000	3.22701	-0.16883	2.84652	1.24366
1894.000	3.17971	-0.09137	2.69859	1.21600
1895.000	3.18365	-0.01589	2.78143	1.39864
1896.000	3.11466	-0.13508	2.84454	1.35090
1897.000	3.10086	-0.07151	2.75776	1.65681
1898.000	3.07721	-0.05960	2.62757	1.56961
1899.000	3.16394	0.09932	2.81102	1.46016
1900.000	3.19153	0.08343	2.79327	1.54557
1901.000	3.23095	-0.01390	2.71831	1.52581
1902.000	3.27824	0.05164	2.78341	1.60713
1903.000	3.27627	0.09732	2.83468	1.48793
1904.000	3.37479	0.05759	2.95695	1.62674
1905.000	3.18562	0.05165	2.85441	1.52960
1906.000	3.28810	0.16286	3.11269	1.68010
1907.000	3.24277	0.06555	2.97666	1.60885
1908.000	3.34524	0.10725	3.02595	1.74177
1909.000	3.35706	0.03575	3.00821	1.61674
1910.000	3.44571	0.02184	2.91554	1.62680
1911.000	3.36691	0.18271	2.97469	1.63863
1912.000	3.36100	0.23633	2.89582	1.61095
1913.000	3.37479	0.22044	2.91357	1.69827
1914.000	3.30386	0.21251	3.06144	1.74369
1915.000	3.35312	0.20059	2.93131	1.65060
1916.000	3.42010	0.20455	2.91554	1.60496
1917.000	3.36297	0.23435	2.82285	1.69047
1918.000	3.36691	0.06355	2.88990	1.66456
1919.000	3.39055	0.17874	2.88596	1.63677
1920.000	3.43192	0.19660	2.88793	1.64471
1921.000	3.30780	0.13506	2.90962	1.51364
1922.000	3.34130	0.10923	2.91554	1.46400
1923.000	3.30977	0.13108	2.92934	1.51163
1924.000	3.25263	0.13308	2.82482	1.56340
1925.000	3.33933	0.10526	2.94314	1.57912
1926.000	3.31962	0.16286	2.91948	1.69429
1927.000	3.34918	0.32372	3.02398	1.45790
1928.000	3.23686	0.14500	2.89582	1.53749
1929.000	3.40631	0.28796	2.91948	1.64665
1930.000	3.40828	0.16284	2.98455	1.60685
1931.000	3.36691	0.23435	2.91751	1.61886
1932.000	3.37085	0.23633	2.96483	1.60489
1933.000	3.42010	0.24029	2.97075	1.52349
1934.000	3.36297	0.20853	2.88596	1.46007
1935.000	3.22109	0.13904	2.89187	1.53154
1936.000	3.35312	0.03376	2.87215	1.59708
1937.000	3.27627	0.25224	3.02004	1.46783
1938.000	3.37085	0.10526	2.82285	1.53957
1939.000	3.40631	0.21845	2.92934	1.55134
1940.000	3.42798	0.23235	2.93328	1.54935
1941.000	3.19547	0.06952	2.85638	1.50974
1942.000	3.27824	0.08143	2.95497	1.47785
1943.000	3.24474	0.21650	2.90173	1.51763
1944.000	3.29992	0.09335	2.88793	1.59905
1945.000	3.34721	0.13902	2.93723	1.51758
1946.000	3.38661	0.12313	2.89976	1.52160
1947.000	3.27430	0.12712	3.00426	1.27128
1948.000	3.45950	0.08142	2.87413	1.53553
1949.000	3.29598	0.14102	3.04172	1.40427
1950.000	3.38661	0.17675	2.90962	1.48188
1951.000	3.20336	0.04569	2.79524	1.45422
1952.000	3.27233	0.15095	2.89779	1.48785
1953.000	3.29598	0.05363	2.88399	1.43823
1954.000	3.31371	0.05561	2.95300	1.41431
1955.000	3.32159	0.01390	3.07721	1.51143
1956.000	3.21518	0.13308	2.91751	1.58709
1957.000	3.25263	0.04568	2.98455	1.54531
1958.000	3.22701	0.11123	2.93131	1.45206
1959.000	3.31962	0.02979	2.98258	1.50759
1960.000	3.20927	0.06356	2.96680	1.45599
1961.000	3.23489	-0.01788	2.96286	1.49769
1962.000	3.15408	-0.04966	2.90962	1.60100
1963.000	3.17379	0.00199	3.05947	1.49160
1964.000	3.30386	0.06356	3.10086	1.57690
1965.000	3.23489	-0.05760	2.86624	1.64474
1966.000	3.24474	-0.01788	3.00426	1.48572
1967.000	3.23095	0.05164	2.96483	1.53739
1968.000	3.20336	-0.03178	3.01609	1.49762
1969.000	3.14226	0.03377	2.91554	1.54342
1970.000	3.19350	0.00000	2.95300	1.61881
1971.000	3.19153	-0.11124	3.07129	1.56305
1972.000	3.23489	-0.05363	2.99638	1.60286
1973.000	3.16985	-0.02582	3.02792	1.54922
1974.000	3.28612	0.04965	2.97075	1.51158
1975.000	3.14226	-0.08542	2.96680	1.44805
1976.000	3.17576	0.00199	3.00229	1.53139
1977.000	3.24671	0.00199	2.85046	1.63087
1978.000	3.19744	-0.01986	2.95497	1.53542
1979.000	3.23095	-0.11918	3.02398	1.53731
1980.000	3.28810	-0.05561	2.90568	1.59108
1981.000	3.26642	-0.17280	3.06538	1.65635
1982.000	3.19153	-0.06754	2.98652	1.49170
1983.000	3.23489	-0.03178	2.85638	1.63681
1984.000	3.22504	0.01589	2.90568	1.59902
1985.000	3.35903	-0.06157	2.90371	1.56924
1986.000	3.21518	-0.01390	2.95497	1.54932
1987.000	3.24080	-0.07945	2.92145	1.65856
1988.000	3.38661	0.02979	3.00624	1.62071
1989.000	3.27233	0.13307	2.97272	1.55922
1990.000	3.35509	0.10923	2.91554	1.60298
1991.000	3.37282	0.05561	2.92540	1.70818
1992.000	3.24474	0.06952	2.90765	1.64270
1993.000	3.34327	-0.03972	2.95497	1.64858
1994.000	3.42207	0.12710	2.92737	1.62083
1995.000	3.33933	0.21052	3.07918	1.58884
1996.000	3.33933	0.08341	2.91159	1.63673
1997.000	3.20533	-0.11521	2.87215	1.61297
1998.000	3.39055	0.02582	2.95892	1.64262
1999.000	3.28415	-0.04568	2.95695	1.66446
2000.000	3.34130	0.07348	2.87413	1.70230
2001.000	3.29598	0.04171	2.93328	1.57317
2002.000	3.31568	-0.02979	2.90962	1.64071
2003.000	3.40828	0.20653	2.95300	1.56123
2004.000	3.40040	0.16483	2.86032	1.65865
2005.000	3.36888	0.05561	2.86427	1.60107
2006.000	3.34918	-0.03178	2.90765	1.57917
2007.000	3.32553	0.00000	3.02201	1.57305
2008.000	3.35509	-0.01192	2.97666	1.72795
2009.000	3.45753	0.00000	2.99046	1.49567
2010.000	3.42995	0.00596	2.97469	1.62473
2011.000	3.47723	0.10723	2.93526	1.54339
2012.000	3.40631	0.12908	2.92934	1.53744
2013.000	3.42207	0.05163	2.96878	1.55724
2014.000	3.42601	0.00993	2.88399	1.65067
2015.000	3.43980	0.00993	2.88201	1.54942
2016.000	3.43980	0.14497	2.83074	1.57530
2017.000	3.40434	0.04766	2.99441	1.48970
2018.000	3.41419	0.13306	2.97469	1.57709
2019.000	3.48117	0.06752	2.91751	1.55334
2020.000	3.51071	0.08539	2.86032	1.69041
2021.000	3.37282	0.12115	2.97469	1.61878
2022.000	3.43783	0.11518	2.91357	1.71018
2023.000	3.43586	0.10525	2.90371	1.61292
2024.000	3.41616	0.10922	2.93131	1.48979
2025.000	3.41813	0.07745	2.86229	1.62092
2026.000	3.48708	0.14893	3.00229	1.68424
2027.000	3.40040	0.05958	2.89779	1.64470
2028.000	3.37282	-0.02780	2.88004	1.59906
2029.000	3.30977	0.01788	2.91554	1.59702
2030.000	3.44965	0.06156	3.01412	1.56909
2031.000	3.49101	-0.00596	2.92540	1.59899
2032.000	3.49692	0.16084	2.93723	1.54339
2033.000	3.50283	0.16879	2.95695	1.54932
2034.000	3.39055	0.11121	2.92145	1.54937
2035.000	3.29007	0.08739	2.93920	1.50963
2036.000	3.39646	0.06752	2.91554	1.45407
2037.000	3.32750	-0.05958	2.99638	1.59889
2038.000	3.44177	-0.02184	2.90371	1.41437
2039.000	3.42798	0.05163	2.99046	1.51155
2040.000	3.32159	0.04171	2.93131	1.57913
2041.000	3.39646	0.12909	2.86032	1.58717
2042.000	3.38464	0.07149	2.92934	1.59899
2043.000	3.39646	0.03575	2.97272	1.57312
2044.000	3.46147	0.01986	3.00426	1.46785
2045.000	3.47723	0.19659	2.97469	1.54929
2046.000	3.33341	0.03774	3.00426	1.41424
2047.000	3.38267	-0.04965	2.89582	1.53153
2048.000	3.44768	0.16284	2.77354	1.62105
2049.000	3.35509	0.13505	2.92934	1.47192
2050.000	3.31765	-0.09335	2.91159	1.51364
2051.000	3.35509	0.06157	2.90962	1.53151
2052.000	3.32159	0.18073	3.05552	1.47969
2053.000	3.46541	0.07546	2.97272	1.45598
2054.000	3.35509	0.17874	2.98258	1.47185
2055.000	3.42010	0.06553	3.01215	1.55122
2056.000	3.44965	0.08936	2.97666	1.50958
2057.000	3.36297	0.01787	2.97863	1.58899
2058.000	3.26839	0.07349	2.96878	1.59496
2059.000	3.34721	0.02780	3.06144	1.62063
2060.000	3.36691	0.17080	2.97666	1.52944
2061.000	3.34130	0.06157	2.92342	1.48781
2062.000	3.31371	0.08540	2.99638	1.60088
2063.000	3.35509	0.24229	2.96089	1.45997
2064.000	3.38070	0.24229	2.96286	1.49967
2065.000	3.32947	-0.03376	2.96286	1.59100
2066.000	3.44768	0.13106	2.87610	1.56134
2067.000	3.30977	0.08938	2.92737	1.52752
2068.000	3.36888	0.06752	2.98455	1.38052
2069.000	3.32159	-0.06753	2.98061	1.41030
2070.000	3.30583	0.00397	2.92342	1.54936
2071.000	3.36297	-0.02185	2.98061	1.46590
2072.000	3.37479	0.09731	3.03975	1.43802
2073.000	3.27430	0.03178	3.02792	1.50157
2074.000	3.24277	-0.06157	2.97863	1.41428
2075.000	3.28415	0.00596	2.96286	1.52548
2076.000	3.34918	0.03575	3.00426	1.45594
2077.000	3.23095	0.03575	2.98849	1.47184
2078.000	3.26248	0.08143	2.94709	1.45800
2079.000	3.15211	0.03377	3.05158	1.39830
2080.000	3.34918	0.10129	2.96286	1.49173
2081.000	3.26839	0.13109	2.83468	1.54551
2082.000	3.12255	-0.01192	2.98652	1.59494
2083.000	3.25657	0.08342	2.93723	1.50567
2084.000	3.26051	-0.07945	3.16000	1.38624
2085.000	3.27036	0.06554	2.94709	1.52749
2086.000	3.36691	0.09334	2.92737	1.33690
2087.000	3.27824	0.00794	2.89779	1.47593
2088.000	3.25263	0.20657	2.99441	1.55323
2089.000	3.16591	-0.05165	2.99046	1.49368
2090.000	3.25065	-0.09931	2.87807	1.51567
2091.000	3.34721	0.08540	2.96286	1.58901
2092.000	3.27233	0.06952	3.04567	1.51346
2093.000	3.30583	0.00397	2.89976	1.56329
2094.000	3.32159	0.02781	2.90962	1.42429
2095.000	3.22504	0.13507	2.90962	1.50769
2096.000	3.30977	0.16882	2.95103	1.48182
2097.000	3.16000	-0.03178	2.92342	1.30910
2098.000	3.27233	0.06952	2.94314	1.47389
2099.000	3.15408	0.03178	2.92934	1.43023
2100.000	3.34918	0.16683	2.84257	1.57926
2101.000	3.18956	0.10329	2.92540	1.51362
2102.000	3.20533	0.06754	2.95497	1.39644
2103.000	3.21124	0.08541	2.93920	1.60493
2104.000	3.26248	0.03972	2.92145	1.47987
2105.000	3.30386	0.07150	2.89187	1.55139
2106.000	3.19941	0.10726	2.98849	1.52148
2107.000	3.22109	0.06158	2.97272	1.58503
2108.000	3.23686	0.15691	2.85835	1.62291
2109.000	3.25065	0.05164	3.00032	1.43410
2110.000	3.16788	0.01986	2.91751	1.47392
2111.000	3.16197	0.01192	2.89385	1.48190
2112.000	3.28810	0.12910	2.95695	1.61285
2113.000	3.33341	0.17676	3.02989	1.47774
2114.000	3.29598	0.19067	2.96089	1.47784
2115.000	3.30583	0.11520	2.97863	1.41626
2116.000	3.15803	0.08343	2.89779	1.50373
2117.000	3.23095	0.07349	2.82088	1.40653
2118.000	3.26839	0.01390	2.94709	1.37461
2119.000	3.30977	0.19662	2.96878	1.42223
2120.000	3.20927	0.13110	2.90173	1.40048
2121.000	3.31765	0.15094	2.88596	1.52956
2122.000	3.30780	0.07944	2.88793	1.37071
2123.000	3.28218	0.02185	3.03581	1.48766
2124.000	3.26051	0.20657	2.97469	1.38053
2125.000	3.35115	0.16087	2.93723	1.51559
2126.000	3.32553	0.11321	2.93526	1.58707
2127.000	3.22701	0.06555	2.95103	1.48976
2128.000	3.41616	0.06951	2.94906	1.54139
2129.000	3.36494	0.14101	2.82482	1.60906
2130.000	3.32553	-0.06157	2.92934	1.55531
2131.000	3.36100	0.13108	2.88793	1.49977
2132.000	3.28415	0.07150	2.86821	1.50576
2133.000	3.42010	0.04369	2.93526	1.50567
2134.000	3.47723	0.16283	2.95300	1.50167
2135.000	3.42207	0.26809	2.92540	1.48781
2136.000	3.32750	0.19066	2.99835	1.52742
2137.000	3.43980	0.15291	2.89385	1.57124
2138.000	3.37873	0.16682	2.91357	1.53746
2139.000	3.41419	0.24426	2.91751	1.55533
2140.000	3.42995	0.10327	2.78735	1.63691
2141.000	3.42207	0.13504	2.82877	1.65274
2142.000	3.38464	0.24427	2.87413	1.35285
2143.000	3.43980	0.11915	2.80905	1.51179
2144.000	3.45556	0.10723	2.83666	1.56338
2145.000	3.41222	0.17079	2.98061	1.48178
2146.000	3.41616	0.05362	2.91554	1.59107
2147.000	3.51465	0.05759	2.90568	1.53152
2148.000	3.41813	0.05759	3.00032	1.54330
2149.000	3.43980	0.12114	2.82680	1.60112
2150.000	3.36297	-0.04568	2.88399	1.50772
2151.000	3.24080	0.12116	2.85638	1.53556
2152.000	3.41813	0.14894	2.92145	1.57915
2153.000	3.33933	0.17676	2.89779	1.47792
2154.000	3.37479	0.05362	2.89976	1.50373
2155.000	3.28415	0.00794	2.80510	1.48995
2156.000	3.38858	0.17675	2.76565	1.52178
2157.000	3.41419	0.20256	2.90371	1.44813
2158.000	3.40434	0.19859	2.83666	1.38467
2159.000	3.40828	0.02383	2.93131	1.46001
2160.000	3.45753	0.10128	2.93723	1.35476
2161.000	3.34524	0.18470	2.95695	1.51557
2162.000	3.43783	0.00397	2.85046	1.46011
2163.000	3.38661	0.06156	3.03975	1.45391
2164.000	3.32947	-0.00993	2.93328	1.53545
2165.000	3.38070	0.18072	2.85835	1.52761
2166.000	3.29598	0.09136	2.84060	1.52366
2167.000	3.32356	0.07150	2.90765	1.48982
2168.000	3.35312	-0.00794	2.91357	1.53151
2169.000	3.39646	0.09135	2.89385	1.45013
2170.000	3.27627	0.09732	2.97666	1.51554
2171.000	3.46738	0.02582	2.88201	1.42631
2172.000	3.35312	0.06554	2.81891	1.62098
2173.000	3.35312	0.08143	2.98849	1.49170
2174.000	3.41222	0.10922	2.91554	1.55335
2175.000	3.33736	0.23038	2.90568	1.50571
2176.000	3.27233	0.09335	2.92737	1.40044
2177.000	3.25065	0.09733	2.88399	1.45014
2178.000	3.24671	0.09335	2.94709	1.52154
2179.000	3.42207	0.20057	2.97075	1.43216
2180.000	3.29007	0.08342	2.92934	1.51362
2181.000	3.24671	0.16684	2.86821	1.58915
2182.000	3.22306	0.05562	2.95300	1.26935
2183.000	3.25460	0.06952	2.97469	1.47385
2184.000	3.35903	0.20655	2.95497	1.50961
2185.000	3.38661	0.25222	3.08312	1.56899
2186.000	3.30780	0.06951	2.92342	1.40243
2187.000	3.29795	0.10924	3.02004	1.64451
2188.000	3.17379	0.09535	2.99046	1.46390
2189.000	3.29401	0.05363	2.94709	1.56521
2190.000	3.31371	0.39126	2.92342	1.61091
2191.000	3.28612	0.16088	2.95497	1.53344
2192.000	3.09495	0.09734	2.88596	1.56728
2193.000	3.22701	0.11322	2.83468	1.47204
2194.000	3.23686	0.23239	2.99441	1.55125
2195.000	3.30189	0.11718	2.93920	1.57515
2196.000	3.09889	0.07549	3.11269	1.55703
2197.000	3.26839	0.20259	2.96286	1.66247
2198.000	3.11072	0.14899	2.98849	1.62471
2199.000	3.21912	0.16089	2.88399	1.61891
2200.000	3.27627	0.07746	2.94314	1.66448
2201.000	3.16000	0.19268	2.94906	1.53742
2202.000	3.26445	0.08342	3.03975	1.55913
2203.000	3.18956	0.21055	2.94906	1.60095
2204.000	3.21124	0.13904	2.94906	1.61881
2205.000	3.13240	0.10727	3.00821	1.49763
2206.000	3.22898	0.11520	2.85441	1.55144
2207.000	3.17182	0.14501	2.95695	1.55329
2208.000	3.03581	0.11721	3.05355	1.65042
2209.000	3.19153	0.11918	2.97469	1.61282
2210.000	3.17379	0.16884	2.96089	1.53938
2211.000	3.17379	0.17282	2.94117	1.57118
2212.000	3.24474	0.04568	2.95695	1.45799
2213.000	3.13437	0.15892	2.93920	1.43021
2214.000	3.21912	0.08144	2.90568	1.42628
2215.000	3.26051	0.10924	3.02398	1.20374
2216.000	3.26051	-0.10328	2.98061	1.17996
2217.000	3.29204	-0.22046	2.96286	1.08266
2218.000	3.09101	-0.32579	2.82680	0.97354
2219.000	3.34524	-0.35748	3.01609	0.93167
2220.000	3.11466	-0.35756	2.96878	0.81651
2221.000	3.21912	-0.33568	2.97666	0.89992
2222.000	3.14226	-0.43900	3.08312	0.91970
2223.000	3.38858	-0.38924	3.04567	0.70522
2224.000	3.35509	-0.39521	3.01018	0.79065
2225.000	3.31962	-0.49055	2.94709	0.88207
2226.000	3.40828	-0.44484	2.87018	0.83446
2227.000	3.22109	-0.52437	2.89385	0.83245
2228.000	3.39055	-0.45080	3.07918	0.71314
2229.000	3.32356	-0.45083	2.98849	0.73902
2230.000	3.27824	-0.55214	3.00821	0.77476
2231.000	3.31962	-0.59581	2.92934	0.77482
2232.000	3.30977	-0.55808	2.90568	0.69339
2233.000	3.25065	-0.76466	2.85638	0.70136
2234.000	3.23883	-0.59586	2.84060	0.79276
2235.000	3.29992	-0.79838	2.89779	0.54439
2236.000	3.33933	-0.60771	2.91948	0.67749
2237.000	3.26051	-0.69514	2.93328	0.76091
2238.000	3.32947	-0.64148	2.85638	0.66560
2239.000	3.40828	-0.56001	2.90568	0.78278
2240.000	3.32553	-0.60971	2.93526	0.77084
2241.000	3.25263	-0.65741	2.93131	0.83242
2242.000	3.26445	-0.58790	2.89187	0.96753
2243.000	3.27233	-0.49654	2.88990	0.91986
2244.000	3.28218	-0.47468	2.92540	0.86024
2245.000	3.24671	-0.48463	2.93920	0.75296
2246.000	3.36494	-0.37336	2.96286	0.77877
2247.000	3.29598	-0.40715	2.79327	0.93384
2248.000	3.34721	-0.52827	2.92540	0.92182
2249.000	3.26839	-0.53626	2.81496	0.84642
2250.000	3.45753	-0.50637	2.85243	0.89605
2251.000	3.30583	-0.53624	2.99441	0.88601
2252.000	3.23489	-0.46279	2.93131	0.86023
2253.000	3.32553	-0.39522	2.93723	0.92975
2254.000	3.38267	-0.45478	2.93723	0.85030
2255.000	3.33933	-0.48459	2.98258	0.88006
2256.000	3.28415	-0.45482	2.97469	0.81253
2257.000	3.33341	-0.53821	2.89779	0.84040
2258.000	3.27430	-0.39723	2.90371	0.86621
2259.000	3.30780	-0.40318	3.00624	0.86216
2260.000	3.40237	-0.52824	2.98652	0.77478
2261.000	3.32356	-0.44885	2.99441	0.90388
2262.000	3.32947	-0.56999	2.97075	0.83835
2263.000	3.31174	-0.49056	2.91357	0.87614
2264.000	3.28218	-0.42901	2.90173	0.81655
2265.000	3.34524	-0.47863	3.04369	0.82241
2266.000	3.41813	-0.49050	2.90568	0.91985
2267.000	3.32159	-0.38132	2.91357	0.74305
2268.000	3.30189	-0.43694	2.93723	0.92578
2269.000	3.41616	-0.41107	2.94117	0.76885
2270.000	3.31962	-0.48857	2.92737	0.85229
2271.000	3.41419	-0.39320	2.94906	0.96748
2272.000	3.30386	-0.55014	2.85441	0.87420
2273.000	3.32750	-0.40714	3.00821	0.78668
2274.000	3.43980	-0.33362	2.96286	0.88603
2275.000	3.37873	-0.28598	2.96089	0.88802
2276.000	3.45556	-0.31971	2.97666	0.79664
2277.000	3.39055	-0.42101	3.00229	0.89990
2278.000	3.32750	-0.47069	3.02595	0.86413
2279.000	3.30583	-0.41708	2.88201	0.82253
2280.000	3.38267	-0.52031	2.91159	0.88806
2281.000	3.32750	-0.38529	2.85835	0.79672
2282.000	3.39449	-0.25221	2.87610	0.94371
2283.000	3.43586	-0.20454	2.93526	0.89599
2284.000	3.23686	-0.43498	2.91159	0.67749
2285.000	3.34524	-0.41309	2.92934	0.73310
2286.000	3.38858	-0.28995	2.87215	0.76095
2287.000	3.26445	-0.39326	2.88990	0.80464
2288.000	3.42995	-0.32369	2.90568	0.90793
2289.000	3.36297	-0.35549	2.97666	0.88403
2290.000	3.44571	-0.32965	2.81891	0.90204
2291.000	3.34130	-0.31181	2.87610	0.90994
2292.000	3.35706	-0.41706	3.01018	0.77278
2293.000	3.29598	-0.43893	2.92342	0.89600
2294.000	3.37282	-0.38726	2.92342	0.81654
2295.000	3.42995	-0.35547	2.88201	0.90199
2296.000	3.46935	-0.36737	2.92540	0.86421
2297.000	3.54025	-0.24423	2.98652	0.88999
2298.000	3.32947	-0.28798	2.89385	0.91986
2299.000	3.38464	-0.36938	2.84849	1.00332
2300.000	3.42207	-0.35348	2.87610	0.99535
2301.000	3.41419	-0.31774	2.95497	0.80857
2302.000	3.34327	-0.40515	2.96878	0.92973
2303.000	3.48511	-0.40310	2.95892	0.79268
2304.000	3.38070	-0.44485	2.90962	0.98142
2305.000	3.35706	-0.42897	2.87610	0.88014
2306.000	3.38464	-0.35548	2.84849	1.01524
2307.000	3.40237	-0.36541	2.90765	0.90793
2308.000	3.33736	-0.35550	2.90765	0.92779
2309.000	3.44374	-0.29589	2.72029	0.91006
2310.000	3.34327	-0.35351	2.95695	0.98734
2311.000	3.39843	-0.49250	2.84652	0.94770
2312.000	3.39449	-0.39718	2.89976	0.91191
2313.000	3.40237	-0.29987	2.97272	0.68739
2314.000	3.44374	-0.32766	2.93328	1.04098
2315.000	3.42207	-0.33164	2.84652	0.96955
2316.000	3.32553	-0.38331	2.85243	0.86427
2317.000	3.39449	-0.21448	2.88596	0.87219
2318.000	3.53041	-0.27600	2.90173	0.90793
2319.000	3.38661	-0.43492	2.93328	0.79667
2320.000	3.39843	-0.36342	2.86427	0.93974
2321.000	3.44571	-0.33759	2.89385	0.91191
2322.000	3.34130	-0.40118	2.88596	0.76293
2323.000	3.45556	-0.28000	2.89582	0.96753
2324.000	3.27627	-0.39922	2.92342	0.78476
2325.000	3.42995	-0.35348	2.78341	0.94378
2326.000	3.35509	-0.33166	2.87018	0.87021
2327.000	3.47920	-0.45870	2.84060	0.88811
2328.000	3.45359	-0.39120	2.89582	0.91787
2329.000	3.32356	-0.39324	2.99244	0.93964
2330.000	3.42995	-0.32171	2.87413	0.95364
2331.000	3.36691	-0.39322	2.79327	0.90404
2332.000	3.34130	-0.49452	2.95695	0.85028
2333.000	3.50874	-0.30182	2.93131	0.88010
2334.000	3.48904	-0.25616	2.97666	0.84828
2335.000	3.41419	-0.36143	2.83074	0.85634
2336.000	3.44571	-0.25419	2.84454	0.94373
2337.000	3.55601	-0.27401	2.85046	0.94770
2338.000	3.41419	-0.48852	2.85638	1.05099
2339.000	3.50283	-0.39118	2.98258	0.80458
2340.000	3.39449	-0.40115	2.73409	0.99349
2341.000	3.36691	-0.35549	2.95695	0.91980
2342.000	3.48117	-0.34155	2.88004	0.87219
2343.000	3.44965	-0.28397	2.88990	0.83047
2344.000	3.49495	-0.46465	2.92934	0.79667
2345.000	3.43192	-0.35547	2.93328	1.05489
2346.000	3.43389	-0.23632	2.81299	0.98945
2347.000	3.41813	-0.45476	2.83074	0.93183
2348.000	3.40237	-0.48853	2.85441	0.97153
2349.000	3.36297	-0.42897	2.87215	0.92186
2350.000	3.57176	-0.33754	2.88596	1.08671
2351.000	3.40828	-0.35945	2.89582	0.93972
2352.000	3.47132	-0.42098	2.87807	0.88809
2353.000	3.43192	-0.37334	2.96286	0.88603
2354.000	3.44571	-0.33759	2.93920	0.94961
2355.000	3.40828	-0.40909	2.95695	0.90391
2356.000	3.50874	-0.32565	2.88004	0.90596
2357.000	3.48904	-0.31573	2.91159	0.96553
2358.000	3.47526	-0.45076	2.87413	0.91590
2359.000	3.43192	-0.48653	2.87413	0.86822
2360.000	3.44177	-0.38525	2.88004	0.88411
2361.000	3.35903	-0.33563	2.87413	0.80863
2362.000	3.44374	-0.39915	2.88399	1.04898
2363.000	3.43389	-0.40312	2.88596	0.90198
2364.000	3.44374	-0.37730	2.86821	0.98543
2365.000	3.37676	-0.42896	2.90371	0.90992
2366.000	3.46738	-0.28198	2.88201	0.88808
2367.000	3.54222	-0.38918	2.90371	0.99136
2368.000	3.47920	-0.38325	2.97666	0.96944
2369.000	3.47526	-0.43289	2.88004	0.94370
2370.000	3.39843	-0.36739	2.95695	0.90789
2371.000	3.43192	-0.34355	2.91357	0.97347
2372.000	3.43389	-0.30582	2.93526	0.82249
2373.000	3.41025	-0.43689	2.89385	0.98541
2374.000	3.45556	-0.44680	2.80510	0.95171
2375.000	3.43783	-0.43092	2.97075	0.86418
2376.000	3.54813	-0.32365	2.98258	0.90389
2377.000	3.45950	-0.44283	2.97272	0.93965
2378.000	3.55207	-0.37130	2.92934	0.95757
2379.000	3.43980	-0.31178	2.85835	1.02119
2380.000	3.45359	-0.40907	2.77552	0.99544
2381.000	3.37085	-0.37932	2.97272	0.96547
2382.000	3.43192	-0.32568	2.92737	0.90990
2383.000	3.45556	-0.34354	2.89976	1.01321
2384.000	3.42404	-0.34355	2.98652	0.93567
2385.000	3.43980	-0.30185	3.01609	0.94756
2386.000	3.39252	-0.53023	2.87413	0.88412
2387.000	3.46344	-0.45275	3.01412	0.97140
2388.000	3.49495	-0.28197	2.86229	1.12050
2389.000	3.38661	-0.42499	2.80905	0.92191
2390.000	3.47723	-0.39516	2.88793	0.82252
2391.000	3.46344	-0.29390	2.92342	0.85627
2392.000	3.44571	-0.36539	3.00032	0.91580
2393.000	3.42207	-0.30185	2.87215	0.91789
2394.000	3.41616	-0.35944	2.89385	0.84238
2395.000	3.45359	-0.29191	2.93131	0.94366
2396.000	3.43192	-0.36937	2.86229	0.91988
2397.000	3.33144	-0.33366	2.89187	0.91787
2398.000	3.43192	-0.35944	2.92540	0.98339
2399.000	3.39843	-0.30782	2.87807	1.04699
2400.000	3.43192	-0.23235	2.98061	0.97341
2401.000	3.44965	-0.39517	2.84257	0.89407
2402.000	3.46738	-0.30382	2.89976	0.89800
2403.000	3.38661	-0.29392	2.77946	0.86233
2404.000	3.56389	-0.34152	2.89582	0.79272
2405.000	3.47723	-0.32368	2.98849	0.73902
2406.000	3.38070	-0.28201	2.88201	0.91192
2407.000	3.46344	-0.51232	2.92934	0.94565
2408.000	3.43389	-0.27206	2.96680	0.99924
2409.000	3.40631	-0.40314	2.89976	1.04300
2410.000	3.40434	-0.39321	2.88004	1.02316
2411.000	3.50086	-0.35147	2.81693	1.03116
2412.000	3.43192	-0.42298	2.97863	0.89595
2413.000	3.44177	-0.38128	2.83863	0.88414
2414.000	3.46935	-0.44679	2.86821	0.86028
2415.000	3.43586	-0.37532	2.85243	0.83447
2416.000	3.43783	-0.39716	2.85046	0.96359
2417.000	3.38267	-0.49251	2.90568	0.93176
2418.000	3.46738	-0.35744	2.95892	0.95953
2419.000	3.48904	-0.43487	2.90568	0.92779
2420.000	3.42995	-0.35944	2.82877	0.97354
2421.000	3.44177	-0.39915	2.83666	0.95169
2422.000	3.36691	-0.40911	2.94117	1.00324
2423.000	3.34721	-0.37734	2.98652	0.99327
2424.000	3.40434	-0.38725	2.96483	0.89000
2425.000	3.36100	-0.36939	2.95300	0.91981
2426.000	3.43980	-0.34156	2.83271	0.81263
2427.000	3.41813	-0.29192	2.90568	0.89998
2428.000	3.55404	-0.44874	2.86821	1.01522
2429.000	3.38661	-0.46868	2.91554	0.94566
2430.000	3.29795	-0.49454	2.89385	0.96356
2431.000	3.31174	-0.32572	2.95892	0.94562
2432.000	3.34524	-0.35947	2.80905	0.80867
2433.000	3.44177	-0.37532	2.93131	0.83242
2434.000	3.46738	-0.29390	2.88596	0.98740
2435.000	3.40828	-0.29789	2.92145	0.86024
2436.000	3.44768	-0.42496	2.94117	0.88605
2437.000	3.47526	-0.41502	2.99441	0.90190
2438.000	3.41813	-0.33363	2.89976	1.04697
2439.000	3.51071	-0.43288	2.94709	0.94166
2440.000	3.44374	-0.35348	3.02398	0.86215
2441.000	3.50874	-0.35941	2.91357	0.94765
2442.000	3.53435	-0.34550	2.90568	0.89601
2443.000	3.41025	-0.44682	2.93526	0.87612
2444.000	3.48904	-0.31573	2.93131	0.82051
2445.000	3.29992	-0.38729	2.86032	1.04502
2446.000	3.42995	-0.47263	2.97075	0.87609
2447.000	3.45162	-0.39716	2.98652	0.99128
2448.000	3.48117	-0.38325	2.93920	1.01119
2449.000	3.52844	-0.39911	3.02004	0.80256
2450.000	3.50283	-0.45472	2.86624	0.99139
2451.000	3.45753	-0.29986	2.85046	0.87023
2452.000	3.55404	-0.33755	2.83863	0.87421
2453.000	3.42601	-0.43689	2.97666	0.88205
2454.000	3.41025	-0.38129	2.87610	0.91192
2455.000	3.43783	-0.45078	2.79129	0.94378
2456.000	3.41813	-0.44285	2.95892	0.96747
2457.000	3.42601	-0.38526	2.91159	0.85429
2458.000	3.32750	-0.51240	2.96680	1.00917
2459.000	3.43980	-0.41305	2.87413	0.93378
2460.000	3.42995	-0.33362	2.98258	0.98731
2461.000	3.35115	-0.27804	2.82680	0.91991
2462.000	3.40828	-0.45477	2.89187	0.87020
2463.000	3.37282	-0.35152	2.89976	0.98937
2464.000	3.41222	-0.32370	2.97469	0.81849
2465.000	3.35312	-0.31379	2.83271	0.92586
2466.000	3.35706	-0.33563	2.87215	0.84836
2467.000	3.37282	-0.39918	2.94511	1.06481
2468.000	3.37282	-0.28201	2.89385	0.96356
2469.000	3.49495	-0.47657	2.86624	0.90200
2470.000	3.40237	-0.28994	2.89976	0.91985
2471.000	3.41222	-0.37335	2.88004	0.96953
2472.000	3.29007	-0.31977	2.94511	0.97940
2473.000	3.41222	-0.31178	2.94511	0.99331
2474.000	3.39449	-0.47662	2.90173	0.99533
2475.000	3.48708	-0.40707	2.93920	0.87016
2476.000	3.41616	-0.37334	2.89385	0.84238
2477.000	3.31371	-0.39523	2.90173	0.94170
2478.000	3.43980	-0.28795	2.88399	0.97548
2479.000	3.39449	-0.45080	2.80905	0.83649
2480.000	3.42798	-0.34554	2.95300	1.01515
2481.000	3.40828	-0.37732	2.98849	0.88601
2482.000	3.37479	-0.33761	3.01807	0.84229
2483.000	3.41616	-0.38724	2.95497	0.91385
2484.000	3.41813	-0.37334	2.94511	0.95557
2485.000	3.47920	-0.36736	2.88990	0.89404
2486.000	3.30780	-0.35551	2.86624	0.93974
2487.000	3.41616	-0.31377	3.00032	0.78271
2488.000	3.38070	-0.33165	2.96089	0.89199
2489.000	3.47329	-0.33758	2.92934	0.87613
2490.000	3.49298	-0.31374	2.95300	0.88803
2491.000	3.36691	-0.38925	2.94906	1.04693
2492.000	3.36297	-0.36145	2.91357	0.86819
2493.000	3.33341	-0.38529	2.92737	0.97544
2494.000	3.31765	-0.35551	2.87413	0.89007
2495.000	3.27430	-0.36148	2.80510	0.91595
2496.000	3.35509	-0.24627	2.97863	0.90390
2497.000	3.38464	-0.43293	2.91948	0.91189
2498.000	3.35509	-0.40713	2.97272	0.94363
2499.000	3.30583	-0.32771	2.86229	0.83446
2500.000	3.34721	-0.34954	2.89385	0.98739
2501.000	3.44768	-0.34553	2.95103	1.06083
2502.000	3.37676	-0.23236	2.85441	1.08476
2503.000	3.38464	-0.40513	2.97863	0.83438
2504.000	3.53435	-0.29189	2.89582	0.91787
2505.000	3.38267	-0.29392	2.85638	0.89605
2506.000	3.42404	-0.33561	2.89582	0.95958
2507.000	3.38858	-0.41307	2.89385	0.99732
2508.000	3.53238	-0.24225	2.99638	0.84429
2509.000	3.32947	-0.31976	2.90765	0.91786
2510.000	3.44768	-0.35745	2.92342	1.04497
2511.000	3.46541	-0.44680	2.86624	0.93180
2512.000	3.36691	-0.33960	2.86821	0.92782
2513.000	3.36888	-0.36542	2.92737	0.90592
2514.000	3.38070	-0.44088	2.93526	0.93770
2515.000	3.40237	-0.32966	2.92342	0.87812
2516.000	3.43980	-0.27206	2.85046	0.90599
2517.000	3.39449	-0.28995	2.99638	0.91580
2518.000	3.50874	-0.29785	2.97272	0.95157
2519.000	3.50283	-0.26807	2.96878	0.88801
2520.000	3.41025	-0.32767	2.91357	0.87813
2521.000	3.48511	-0.26410	2.84652	0.87818
2522.000	3.40237	-0.28001	2.88793	1.02116
2523.000	3.41025	-0.32569	2.85638	0.86029
2524.000	3.39843	-0.34356	2.95103	0.84433
2525.000	3.41222	-0.32569	2.92145	0.99531
2526.000	3.44177	-0.41702	2.95103	0.80460
2527.000	3.39646	-0.37732	2.91357	1.00922
2528.000	3.51071	-0.40706	2.95497	0.92775
2529.000	3.40631	-0.33959	2.98652	0.80259
2530.000	3.37282	-0.46670	2.95103	0.91186
2531.000	3.40040	-0.44484	2.89779	1.02314
2532.000	3.33538	-0.33167	2.88793	0.96157
2533.000	3.35312	-0.33762	2.99046	0.95553
2534.000	3.42995	-0.35944	2.92934	0.95359
2535.000	3.36888	-0.33762	2.89385	0.91787
2536.000	3.42798	-0.38327	2.94709	1.02310
2537.000	3.51071	-0.37728	2.85441	0.83248
2538.000	3.47526	-0.31375	2.95497	0.89200
2539.000	3.39055	-0.26214	2.99835	0.92573
2540.000	3.44374	-0.33958	2.85638	0.95961
2541.000	3.39449	-0.32966	2.82285	0.77489
2542.000	3.46147	-0.31574	3.05158	0.90582
2543.000	3.45753	-0.31177	3.02004	0.95947
2544.000	3.37085	-0.26215	2.94314	0.95954
2545.000	3.38267	-0.34754	2.90371	0.81854
2546.000	3.45950	-0.33758	2.96286	0.80261
2547.000	3.35115	-0.32372	2.97863	0.85821
2548.000	3.31371	-0.25223	2.98258	0.85026
2549.000	3.39055	-0.36144	3.02201	0.82640
2550.000	3.42995	-0.44880	2.93723	0.84235
2551.000	3.39843	-0.34555	2.94511	0.83241
2552.000	3.50874	-0.32168	2.94709	0.92180
2553.000	3.28612	-0.26813	2.81496	0.98945
2554.000	3.36888	-0.37336	2.97272	0.89596
2555.000	3.22109	-0.34561	3.06932	1.00114
2556.000	3.36888	-0.25023	2.91948	0.81257
2557.000	3.36494	-0.35549	3.03975	0.72310
2558.000	3.35115	-0.31975	2.89187	0.83841
2559.000	3.42995	-0.28398	2.91357	0.87018
2560.000	3.46344	-0.30383	2.91751	0.81853
2561.000	3.35509	-0.20853	3.02595	0.83831
2562.000	3.39843	-0.29193	2.97863	0.87410
2563.000	3.36888	-0.27009	3.00032	0.87607
2564.000	3.53238	-0.49442	2.93328	0.90393
2565.000	3.42995	-0.35547	2.92540	0.96551
2566.000	3.39252	-0.37335	2.96483	0.73507
2567.000	3.36297	-0.25421	2.90568	0.94567
2568.000	3.39449	-0.28200	2.90568	0.75100
2569.000	3.41222	-0.29193	2.99046	0.80457
2570.000	3.37085	-0.30187	2.95300	0.93172
2571.000	3.45162	-0.29390	2.91751	0.87216
2572.000	3.41419	-0.27008	3.02989	0.95549
2573.000	3.36691	-0.37932	2.97272	0.80458
2574.000	3.37085	-0.37336	2.97863	0.93170
2575.000	3.56979	-0.36137	2.97469	0.84630
2576.000	3.45753	-0.28596	2.99244	0.95751
2577.000	3.25263	-0.26218	2.96286	0.84631
2578.000	3.30189	-0.31976	2.95300	0.81453
2579.000	3.48314	-0.36935	2.95892	0.87610
2580.000	3.39252	-0.36342	2.98455	0.89793
2581.000	3.35115	-0.26811	2.91357	0.87217
2582.000	3.34918	-0.35351	2.94709	0.85228
2583.000	3.36691	-0.36741	2.95892	0.77679
2584.000	3.41419	-0.32171	2.97075	0.80061
2585.000	3.36297	-0.25421	2.99638	0.84827
2586.000	3.41813	-0.41107	2.93920	0.72714
2587.000	3.33144	-0.39324	3.02398	0.82242
2588.000	3.32947	-0.30784	2.93328	0.87414
2589.000	3.41419	-0.27008	2.93131	0.88208
2590.000	3.34918	-0.29195	3.00624	0.74696
2591.000	3.33341	-0.41111	2.95103	0.89200
2592.000	3.36888	-0.27208	3.02792	0.90386
2593.000	3.34327	-0.42302	3.03581	0.84228
2594.000	3.34721	-0.33167	3.02004	0.90783
2595.000	3.35115	-0.27208	2.95695	0.94761
2596.000	3.40040	-0.33165	3.06341	0.78466
2597.000	3.43192	-0.21646	2.89187	0.86424
2598.000	3.35706	-0.33365	2.91554	0.90792
2599.000	3.42995	-0.31774	2.91948	0.88209
2600.000	3.43783	-0.31575	2.89976	0.88410
2601.000	3.35509	-0.31180	3.00426	0.92771
2602.000	3.32356	-0.34359	2.94906	0.92974
2603.000	3.45162	-0.23631	2.97272	0.88404
2604.000	3.39252	-0.33761	2.92540	0.88408
2605.000	3.41813	-0.31774	2.87413	0.99734
2606.000	3.35903	-0.33961	2.94906	0.84433
2607.000	3.40631	-0.33760	3.04567	0.81645
2608.000	3.32356	-0.24627	2.94117	0.80262
2609.000	3.27627	-0.25622	2.95892	0.87610
2610.000	3.51662	-0.23232	2.99638	0.84628
2611.000	3.39843	-0.35548	3.01412	0.86017
2612.000	3.48511	-0.27999	2.94314	0.81454
2613.000	3.42601	-0.24823	2.96878	0.72513
2614.000	3.49101	-0.27403	2.95300	0.84433
2615.000	3.34721	-0.34954	2.92737	0.78475
2616.000	3.36100	-0.28003	3.08706	0.81443
2617.000	3.25065	-0.30191	2.98455	0.85026
2618.000	3.41222	-0.26214	2.93723	0.83441
2619.000	3.34524	-0.25421	2.99046	0.73306
2620.000	3.41813	-0.23235	3.00426	0.82244
2621.000	3.30977	-0.37537	3.00624	0.84627
2622.000	3.30583	-0.31182	2.93131	0.86222
2623.000	3.38267	-0.31974	3.11466	0.87201
2624.000	3.43389	-0.32369	3.01807	0.80058
2625.000	3.49495	-0.28793	3.14817	0.85212
2626.000	3.30780	-0.30785	2.96680	0.74500
2627.000	3.35509	-0.29194	3.03384	1.00911
2628.000	3.38267	-0.28796	2.91357	0.86422
2629.000	3.37085	-0.27407	3.09298	0.91373
2630.000	3.36100	-0.29393	2.91554	0.85627
2631.000	3.49889	-0.30778	3.07327	0.86012
2632.000	3.50677	-0.36537	3.01609	0.81051
2633.000	3.35509	-0.19066	2.97666	0.92575
2634.000	3.34524	-0.32174	2.96089	0.90192
2635.000	3.35903	-0.28598	2.97272	0.78075
2636.000	3.35903	-0.34953	2.97075	0.86815
2637.000	3.30780	-0.32175	2.96483	0.81452
2638.000	3.32159	-0.38728	2.97863	0.89595
2639.000	3.38858	-0.26214	3.05158	0.78268
2640.000	3.35903	-0.12909	2.86624	0.94967
2641.000	3.39843	-0.23235	3.04961	0.86809
2642.000	3.39449	-0.23235	3.03975	0.77276
2643.000	3.29204	-0.30984	3.04961	0.84425
2644.000	3.41616	-0.30781	2.98061	0.88999
2645.000	3.38267	-0.31378	2.94117	0.88406
2646.000	3.34327	-0.32769	2.89779	0.98143
2647.000	3.39055	-0.44286	2.95103	0.90988
2648.000	3.44571	-0.17475	2.96878	0.66156
2649.000	3.29795	-0.16485	2.86229	0.88611
2650.000	3.38661	-0.23633	2.97666	0.91383
2651.000	3.46541	-0.30382	2.96878	0.89000
2652.000	3.38070	-0.29392	3.00426	0.83038
2653.000	3.31765	-0.25621	2.92145	0.86421
2654.000	3.37676	-0.27406	2.95892	0.91384
2655.000	3.28612	-0.29991	2.98258	0.89396
2656.000	3.31174	-0.28203	3.04172	1.20372
2657.000	3.46935	-0.19659	3.14817	1.06262
2658.000	3.33341	-0.15293	3.02004	1.15807
2659.000	3.15605	-0.06952	2.92342	1.58907
2660.000	3.32947	-0.01390	2.82877	1.61104
2661.000	3.18168	0.21254	2.82285	1.70833
2662.000	3.12649	0.41119	2.90568	1.77173
2663.000	3.12649	0.61380	2.79327	1.81558
2664.000	2.98652	0.75293	2.96089	2.11496
2665.000	3.10086	0.84620	2.77354	2.27801
2666.000	3.02792	0.87406	2.79524	2.60722
2667.000	3.02201	0.80256	2.76368	2.54185
2668.000	3.15211	0.86999	2.80313	2.73212
2669.000	3.13634	1.05270	2.87215	2.67644
2670.000	3.22701	1.03474	2.90371	2.72395
2671.000	3.21715	1.27897	2.99638	2.87435
2672.000	3.36691	1.35023	3.09101	2.85825
2673.000	3.38267	1.45143	3.03975	2.92576
2674.000	3.34130	1.49318	3.17971	2.94914
2675.000	3.30386	1.54483	3.12846	3.10578
2676.000	3.46344	1.74498	3.17379	3.19279
2677.000	3.41419	1.78078	3.24868	3.42219
2678.000	3.40040	1.83239	3.22701	3.35694
2679.000	3.41222	1.85618	3.32947	3.47138
2680.000	3.52450	1.82620	3.37479	3.57015
2681.000	3.51859	1.98291	3.28415	3.47352
2682.000	3.47920	1.99093	3.35115	3.63947
2683.000	3.50480	1.97897	3.34524	3.59400
2684.000	3.55207	2.03440	3.23489	3.60231
2685.000	3.49298	2.13765	3.25460	3.64180
2686.000	3.50677	2.04045	3.29204	3.61397
2687.000	3.52056	2.10784	3.24474	3.63788
2688.000	3.48904	2.00280	3.31371	3.55454
2689.000	3.48117	1.99489	3.17576	3.53524
2690.000	3.40828	2.01686	3.18759	3.48573
2691.000	3.47920	1.94927	3.16788	3.53724
2692.000	3.42207	1.97914	3.04172	3.37337
2693.000	3.44177	1.96324	3.12255	3.27809
2694.000	3.42404	2.00493	3.00426	3.29231
2695.000	3.41419	1.92164	3.15803	3.40270
2696.000	3.37282	1.86022	3.09495	3.19104
2697.000	3.39843	1.99506	3.11466	3.30781
2698.000	3.53435	1.86189	3.12846	3.28995
2699.000	3.47329	1.99292	3.19153	3.32737
2700.000	3.45162	2.00685	3.11860	3.25830
2701.000	3.42010	2.02278	3.03581	3.16745
2702.000	3.42601	2.00690	3.22701	3.25598
2703.000	3.42995	1.88193	3.24474	3.27968
2704.000	3.39646	2.03077	3.21518	3.35896
2705.000	3.35903	1.80469	3.18956	3.33925
2706.000	3.47329	1.91358	3.21518	3.25008
2707.000	3.29401	1.92584	3.23489	3.30347
2708.000	3.40828	1.94744	3.13043	3.18302
2709.000	3.42010	1.99105	3.22306	3.14115
2710.000	3.38858	1.89391	3.23292	3.34109
2711.000	3.31568	1.93373	3.10481	3.23062
2712.000	3.38267	1.94154	3.16788	3.19676
2713.000	3.44177	1.98505	3.14029	3.26219
2714.000	3.41419	2.05651	3.19153	3.20461
2715.000	3.41813	1.90973	3.14817	3.33542
2716.000	3.38267	1.98319	3.02989	3.18728
2717.000	3.48904	2.07817	3.10481	3.17121
2718.000	3.36691	1.93165	3.11269	3.29594
2719.000	3.48117	2.07819	3.16985	3.19676
2720.000	3.39252	1.99111	3.16394	3.22054
2721.000	3.24080	2.00331	3.15803	3.12946
2722.000	3.39252	1.99507	3.17576	3.20862
2723.000	3.29992	1.90004	3.08312	3.31583
2724.000	3.50480	2.12374	3.07129	3.14160
2725.000	3.44965	1.96520	3.05947	3.28224
2726.000	3.36494	1.91975	3.18956	3.26600
2727.000	3.42798	1.97715	3.18168	3.06403
2728.000	3.30977	2.03690	3.19744	3.13330
2729.000	3.34918	1.96739	3.20927	3.35898
2730.000	3.35509	1.99713	3.23292	3.18864
2731.000	3.45753	2.09014	3.19744	3.17489
2732.000	3.35706	2.07250	3.31568	3.20422
2733.000	3.39646	2.24297	3.11860	3.20484
2734.000	3.29401	2.00321	3.15408	3.16710
2735.000	3.51268	2.02457	3.24868	3.11730
2736.000	3.49495	2.01073	3.15408	3.22453
2737.000	3.42995	1.86408	3.16985	3.23240
2738.000	3.36494	1.95546	3.21321	3.20256
2739.000	3.35706	2.04870	3.28021	3.17661
2740.000	3.35903	1.98522	3.16394	3.24826
2741.000	3.52844	2.00074	3.21715	3.21245
2742.000	3.42995	1.93351	3.17576	3.15317
2743.000	3.41025	2.11800	3.22109	3.18868
2744.000	3.26051	2.00129	3.12846	3.07805
2745.000	3.35312	2.03483	3.22306	3.12728
2746.000	3.46935	2.03855	3.21715	3.22631
2747.000	3.39449	1.99309	3.18956	3.15115
2748.000	3.44768	1.97512	3.17576	3.29178
2749.000	3.40434	2.04464	3.15211	3.23444
2750.000	3.46935	1.96715	3.19547	3.37288
2751.000	3.36494	1.88206	3.18956	3.29372
2752.000	3.40631	2.03075	3.15605	3.11560
2753.000	3.47920	2.06034	3.28612	3.17263
2754.000	3.44768	1.97909	3.10678	3.29200
2755.000	3.39843	2.05457	3.09889	3.25440
2756.000	3.37282	1.98321	3.12649	3.27610
2757.000	3.34524	1.98128	3.15605	3.27204
2758.000	3.36888	1.93363	3.18562	3.25611
2759.000	3.40631	1.94744	3.29401	3.23993
2760.000	3.39843	1.96134	3.24868	3.20245
2761.000	3.39843	1.91572	3.24080	3.18070
2762.000	3.36888	1.99512	3.23489	3.10744
2763.000	3.50283	1.95319	3.11663	3.36324
2764.000	3.39449	1.99507	3.18759	3.32738
2765.000	3.31962	1.90992	3.30583	3.24187
2766.000	3.34721	1.96343	3.24277	3.03018
2767.000	3.31765	2.00713	3.27233	3.17862
2768.000	3.41025	1.91768	3.21124	3.20059
2769.000	3.42010	1.93948	3.22109	3.13521
2770.000	3.38267	1.96336	3.18562	3.22839
2771.000	3.37873	1.95543	3.17576	3.27396
2772.000	3.23292	1.89223	3.29598	3.20626
2773.000	3.34524	1.98128	3.26051	3.29349
2774.000	3.31568	1.99325	3.13832	3.24240
2775.000	3.44571	1.93546	3.24671	3.21434
2776.000	3.38267	1.88004	3.23292	3.16488
2777.000	3.32947	1.95553	3.19153	3.31747
2778.000	3.34327	1.96542	3.17971	3.24821
2779.000	3.29795	1.95956	3.23883	3.29158
2780.000	3.35509	1.92969	3.12255	3.18700
2781.000	3.28021	1.87825	3.27430	3.15089
2782.000	3.29598	1.95559	3.20533	3.20061
2783.000	3.41813	1.94146	3.21912	3.28768
2784.000	3.32947	1.94164	3.12452	3.26422
2785.000	3.36691	1.91975	3.29401	3.31911
2786.000	3.28612	2.00124	3.25065	3.38458
2787.000	3.38464	1.95938	3.19153	3.25015
2788.000	3.25854	2.04891	3.29992	3.22209
2789.000	3.31174	1.94564	3.25263	3.30737
2790.000	3.38858	2.07045	3.18759	3.25808
2791.000	3.35115	1.95350	3.28810	3.24192
2792.000	3.36100	1.92174	3.20927	3.23822
2793.000	3.42010	2.00890	3.16197	3.08786
2794.000	3.45950	2.04848	3.26642	3.24199
2795.000	3.39449	1.95738	3.25460	3.35091
2796.000	3.37085	1.98322	3.32356	3.20815
2797.000	3.39843	1.84827	3.19153	3.23629
2798.000	3.38070	1.91972	3.25263	3.07570
2799.000	3.30583	2.00120	3.31371	3.26362
2800.000	3.29795	1.97940	3.27036	3.06971
2801.000	3.34130	1.93765	3.32553	3.12498
2802.000	3.28415	1.89412	3.32750	3.17646
2803.000	3.27233	2.02309	3.24080	3.35294
2804.000	3.23883	1.93388	3.10875	3.42067
2805.000	3.36494	1.87214	3.29401	3.22013
2806.000	3.30386	1.91193	3.24080	3.24406
2807.000	3.26839	2.05484	3.22701	3.31537
2808.000	3.27627	2.09052	3.16394	3.22252
2809.000	3.35706	2.01101	3.24474	3.30542
2810.000	3.23095	1.92993	3.28612	3.21817
2811.000	3.30189	1.97344	3.32159	3.12896
2812.000	3.38267	2.08435	3.26445	3.17468
2813.000	3.34130	2.07254	3.29795	3.27159
2814.000	3.33144	1.92973	3.27824	3.27957
2815.000	3.20927	2.05694	3.38464	3.19607
2816.000	3.31371	1.98333	3.22504	3.34111
2817.000	3.36297	2.03084	3.26248	3.23013
2818.000	3.29007	1.93378	3.30583	3.25572
2819.000	3.27233	1.92588	3.30583	3.21811
2820.000	3.31962	1.96745	3.23489	3.20646
2821.000	3.29795	1.95559	3.23489	3.25991
2822.000	3.28218	2.02902	3.32159	3.25567
2823.000	3.25460	2.05090	3.17182	3.15913
2824.000	3.25854	1.93781	3.33736	3.15267
2825.000	3.36691	2.05860	3.23489	3.25199
2826.000	3.26642	1.93184	3.15014	3.25226
2827.000	3.26642	2.05682	3.26248	3.38058
2828.000	3.27627	2.05284	3.28810	3.31913
2829.000	3.26839	1.96160	3.29795	3.30128
2830.000	3.29992	2.01113	3.23489	3.21042
2831.000	3.24080	2.06679	3.26051	3.26775
2832.000	3.23489	2.02912	3.24277	3.26187
2833.000	3.38267	2.09625	3.29598	3.30327
2834.000	3.25854	2.01915	3.32356	3.33089
2835.000	3.24474	2.07869	3.29598	3.34682
2836.000	3.28218	1.94967	3.21124	3.26989
2837.000	3.25854	2.01717	3.19547	3.17490
2838.000	3.27233	1.96953	3.35312	3.27338
2839.000	3.26445	1.98740	3.27233	3.23208
2840.000	3.33933	2.02890	3.27627	3.30531
2841.000	3.33933	2.01899	3.18956	3.15313
2842.000	3.22898	2.04103	3.29007	3.29933
2843.000	3.32750	1.97339	3.27233	3.28751
2844.000	3.27233	1.99333	3.15803	3.37498
2845.000	3.38858	1.96334	3.28810	3.32903
2846.000	3.44177	2.01877	3.35706	3.28723
2847.000	3.39449	2.00895	3.20139	3.34317
2848.000	3.35115	1.98921	3.27627	3.30333
2849.000	3.31371	1.94366	3.33341	3.23188
2850.000	3.29007	1.96949	3.35115	3.23974
2851.000	3.28810	1.99330	3.17971	3.45211
2852.000	3.24277	2.00926	3.32356	3.28536
2853.000	3.28612	1.99926	3.27627	3.34094
2854.000	3.33736	1.98725	3.27430	3.20237
2855.000	3.31568	1.94365	3.32750	3.23388
2856.000	3.24868	2.11240	3.20336	3.37286
2857.000	3.32947	1.96941	3.27627	3.24592
2858.000	3.28021	2.04688	3.25065	3.35884
2859.000	3.31962	2.01109	3.28218	3.37457
2860.000	3.46344	1.96319	3.19350	3.22441
2861.000	3.40237	2.04067	3.36297	3.35055
2862.000	3.37085	2.00305	3.19547	3.33725
2863.000	3.39055	2.06053	3.19547	3.30954
2864.000	3.34524	2.03484	3.26642	3.30337
2865.000	3.35509	2.03681	3.30386	3.36065
2866.000	3.39252	1.98714	3.29007	3.30131
2867.000	3.38858	2.12004	3.13832	3.34337
2868.000	3.25065	2.05884	3.25263	3.32321
2869.000	3.28810	2.04091	3.26248	3.20835
2870.000	3.33538	2.02098	3.29992	3.30128
2871.000	3.30977	2.09442	3.21715	3.24611
2872.000	3.34327	2.06460	3.26445	3.27764
2873.000	3.29992	2.03494	3.19547	3.25410
2874.000	3.30977	2.05673	3.19350	3.44414
2875.000	3.41813	2.05651	3.20927	3.31147
2876.000	3.28612	2.02306	3.20533	3.35899
2877.000	3.33736	2.16180	3.30583	3.29136
2878.000	3.35903	2.15580	3.17971	3.39273
2879.000	3.37676	2.09428	3.20336	3.32139
2880.000	3.37676	2.01097	3.23292	3.31733
2881.000	3.34524	1.97930	3.28810	3.33497
2882.000	3.40434	2.11008	3.34130	3.29916
2883.000	3.33144	2.11223	3.27430	3.34491
2884.000	3.38661	2.09426	3.25263	3.27174
2885.000	3.29401	2.07264	3.39843	3.25146
2886.000	3.34130	2.06262	3.25460	3.27767
2887.000	3.28021	2.12027	3.30583	3.24583
2888.000	3.50677	2.00872	3.23883	3.32919
2889.000	3.40828	2.05256	3.29598	3.25774
2890.000	3.53828	2.08202	3.22109	3.25798
2891.000	3.35115	2.11615	3.27430	3.13505
2892.000	3.43389	2.11597	3.33933	3.23384
2893.000	3.49692	2.17333	3.30977	3.27353
2894.000	3.47329	2.07027	3.12452	3.30382
2895.000	3.29007	2.03496	3.32159	3.14480
2896.000	3.42798	2.14375	3.18168	3.30364
2897.000	3.47723	2.06828	3.32159	3.26359
2898.000	3.46541	2.07624	3.19350	3.30756
2899.000	3.47329	2.02465	3.29007	3.16668
2900.000	3.44965	2.07429	3.28218	3.15284
2901.000	3.42207	1.93749	3.29795	3.32108
2902.000	3.44177	2.06042	3.26248	3.27170
2903.000	3.32947	1.99719	3.30386	3.12109
2904.000	3.43586	2.00887	3.23095	3.16092
2905.000	3.32356	1.94364	3.29007	3.23796
2906.000	3.49692	1.99684	3.21518	3.16097
2907.000	3.41419	1.93949	3.20336	3.20061
2908.000	3.42995	2.08028	3.28612	3.32310
2909.000	3.37479	1.94949	3.31568	3.18442
2910.000	3.47329	2.03060	3.28612	3.17263
2911.000	3.47132	1.96317	3.27824	3.26175
2912.000	3.44177	2.08422	3.29795	3.26367
2913.000	3.42404	1.95534	3.32159	3.24181
2914.000	3.56192	2.01851	3.34327	3.15859
2915.000	3.48904	1.95719	3.19547	3.25608
2916.000	3.42798	1.95335	3.28612	3.21817
2917.000	3.37282	2.06454	3.29598	3.28941
2918.000	3.40631	1.96926	3.26248	3.30932
2919.000	3.41222	1.98115	3.34918	3.22193
2920.000	3.48511	2.01670	3.31174	3.31113
2921.000	3.37085	2.00504	3.36494	3.29116
2922.000	3.46738	1.92550	3.26445	3.24200
2923.000	3.55207	2.07803	3.33736	3.17643
2924.000	3.44374	2.03265	3.33736	3.37043
2925.000	3.43389	2.03466	3.27036	3.21426
2926.000	3.47132	2.08812	3.19547	3.30360
2927.000	3.51465	1.94325	3.25065	3.22225
2928.000	3.48314	2.06430	3.35115	3.25558
2929.000	3.56389	1.92728	3.27627	3.16474
2930.000	3.40040	2.05456	3.37873	3.30497
2931.000	3.59933	2.00653	3.32750	3.27941
2932.000	3.50874	2.07614	3.40237	3.21779
2933.000	3.44374	2.03662	3.40631	3.16432
2934.000	3.48314	1.93141	3.31174	3.25966
2935.000	3.44768	1.91959	3.20730	3.32138
2936.000	3.43783	2.04258	3.36494	3.23375
2937.000	3.52844	2.07213	3.33736	3.06950
2938.000	3.52647	2.03644	3.29992	3.30128
2939.000	3.48511	1.98893	3.27430	3.31720
2940.000	3.51071	2.07019	3.38464	3.29307
2941.000	3.50086	1.97898	3.25854	3.24598
2942.000	3.47132	1.92350	3.25657	3.28558
2943.000	3.45359	2.10403	3.37676	3.21194
2944.000	3.51071	2.04441	3.37873	3.33466
2945.000	3.50283	1.93732	3.24080	3.21238
2946.000	3.49692	2.02857	3.21518	3.20850
2947.000	3.46147	2.00683	3.29795	3.19041
2948.000	3.47723	1.98300	3.19153	3.29965
2949.000	3.36297	2.03679	3.22701	3.28568
2950.000	3.41025	1.95537	3.36297	3.18822
2951.000	3.41813	1.95535	3.38070	3.28121
2952.000	3.41025	1.95140	3.22504	3.20649
2953.000	3.41813	2.17153	3.38267	3.28714
2954.000	3.49692	2.05435	3.30977	3.27551
2955.000	3.41419	1.97321	3.19350	3.32340
2956.000	3.47526	2.09803	3.22898	3.15499
2957.000	3.46935	2.06433	3.44374	3.19786
2958.000	3.47920	2.00679	3.27430	3.26573
2959.000	3.47723	1.92349	3.27627	3.28156
2960.000	3.49101	2.08411	3.36100	3.27732
2961.000	3.44374	1.99695	3.30386	3.23791
2962.000	3.48511	2.15552	3.27233	3.42211
2963.000	3.36100	2.09828	3.34524	3.34467
2964.000	3.55207	2.03242	3.36888	3.21790
2965.000	3.34918	2.05665	3.34130	3.26551
2966.000	3.54025	2.12763	3.29795	3.24981
2967.000	3.42207	2.02476	3.25657	3.28558
2968.000	3.55207	2.13553	3.35706	3.26347
2969.000	3.39055	2.14780	3.28612	3.27955
2970.000	3.42010	2.11203	3.30780	3.25572
2971.000	3.46344	2.06236	3.29598	3.27555
2972.000	3.40237	2.02084	3.33933	3.19820
2973.000	3.48314	2.07818	3.31371	3.24778
2974.000	3.48708	2.03652	3.25460	3.28163
2975.000	3.44571	2.06835	3.33736	3.27938
2976.000	3.41616	2.16955	3.23095	3.30942
2977.000	3.43192	2.07234	3.26248	3.20637
2978.000	3.44374	2.21113	3.28415	3.40821
2979.000	3.45753	2.13376	3.32553	3.27744
2980.000	3.44374	2.09612	3.23883	3.15100
2981.000	3.41222	2.06842	3.33736	3.30313
2982.000	3.43586	2.00887	3.24080	3.31533
2983.000	3.50677	2.14753	3.22109	3.32529
2984.000	3.41813	2.07436	3.29007	3.22608
2985.000	3.39252	2.11408	3.26051	3.28755
2986.000	3.45359	2.06833	3.24080	3.19852
2987.000	3.38464	2.11806	3.33144	3.24772
2988.000	3.49495	2.09005	3.34721	3.29914
2989.000	3.44768	2.15758	3.18956	3.37290
2990.000	3.49692	2.13169	3.24671	3.38459
2991.000	3.48708	2.22888	3.24671	3.41032
2992.000	3.48314	1.98100	3.23686	3.29950
2993.000	3.59146	2.07397	3.22504	3.26787
2994.000	3.46541	1.94732	3.34327	3.22987
2995.000	3.47132	2.02466	3.29007	3.15876
2996.000	3.50677	1.82227	3.34918	3.03580
2997.000	3.58358	1.81418	3.54222	2.96785
2998.000	3.42995	1.64782	3.37282	2.93075
2999.000	3.47526	1.49098	3.34918	2.88724
3000.000	3.45359	1.46522	3.41222	2.76423
3001.000	3.48314	1.44136	3.29401	2.62385
3002.000	3.53631	1.30038	3.32159	2.59009
3003.000	3.42404	1.29855	3.29401	2.45735
3004.000	3.47329	1.28459	3.26445	2.30673
3005.000	3.43980	1.26875	3.28612	2.08455
3006.000	3.42798	1.28266	3.24277	2.17588
3007.000	3.52056	1.30238	3.18956	2.24740
3008.000	3.42798	1.16158	3.16394	1.94791
3009.000	3.42404	1.10005	3.27627	1.99134
3010.000	3.43192	1.13974	3.13240	1.91225
3011.000	3.44177	1.07422	3.16788	1.97171
3012.000	3.48314	1.00866	3.09692	1.87065
3013.000	3.48117	0.97095	3.18759	1.78119
3014.000	3.41616	0.96903	3.14620	1.84079
3015.000	3.56389	0.94505	3.31765	1.83255
3016.000	3.40040	0.96904	3.16788	1.83679
3017.000	3.45556	0.87965	3.18365	1.90621
3018.000	3.49298	0.82800	3.16985	1.79511
3019.000	3.34327	0.91748	3.08706	1.81311
3020.000	3.42207	0.83004	3.09495	1.97582
3021.000	3.42207	0.94520	3.26445	1.99137
3022.000	3.46344	0.88361	3.21321	1.97956
3023.000	3.57373	1.01452	3.12649	2.06901
3024.000	3.41813	1.10601	3.21518	1.96567
3025.000	3.46541	1.12580	3.11663	2.11862
3026.000	3.55995	1.16539	3.15211	2.09871
3027.000	3.63872	1.03826	3.20533	2.10852
3028.000	3.59933	1.11572	3.20533	2.13431
3029.000	3.59343	1.09588	3.26445	2.19964
3030.000	3.54616	1.15349	3.18759	2.20575
3031.000	3.64462	1.12955	3.34721	2.10228
3032.000	3.58161	1.09788	3.17379	2.17008
3033.000	3.55404	1.08600	3.20139	2.16606
3034.000	3.59933	1.04228	3.16394	2.12646
3035.000	3.54419	1.14754	3.23292	2.15607
3036.000	3.51662	0.99672	3.19941	2.12441
3037.000	3.59933	0.97082	3.20533	2.09464
3038.000	3.40040	1.02066	3.19153	2.06293
3039.000	3.46541	0.97493	3.19547	2.05895
3040.000	3.54813	0.89941	3.27036	2.13021
3041.000	3.46344	1.08809	3.15211	2.06499
3042.000	3.52844	1.02846	3.19153	2.13037
3043.000	3.55601	1.08203	3.19350	2.08474
3044.000	3.54419	1.00066	3.29401	2.17577
3045.000	3.57373	0.97283	3.27036	2.22541
3046.000	3.46147	0.98089	3.30583	2.08253
3047.000	3.56389	1.02445	3.21715	2.05692
3048.000	3.45753	0.92134	3.13437	2.14834
3049.000	3.50480	0.92129	3.33736	2.13601
3050.000	3.47526	0.98088	3.26051	2.18775
3051.000	3.59933	0.91723	3.20533	2.02917
3052.000	3.42010	1.05042	3.32947	2.07256
3053.000	3.47723	0.92926	3.17379	2.14826
3054.000	3.52056	0.96297	3.13240	2.13843
3055.000	3.41419	1.02263	3.24868	2.11835
3056.000	3.49101	0.96300	3.16788	2.26728
3057.000	3.48904	0.97888	3.19744	2.26920
3058.000	3.52647	1.02847	3.20927	2.27909
3059.000	3.59343	0.93510	3.20533	2.23348
3060.000	3.66628	1.01640	3.14817	2.14038
3061.000	3.60524	1.00059	3.11663	2.33284
3062.000	3.58555	1.01054	3.29204	2.09843
3063.000	3.58752	0.97878	3.13832	2.13247
3064.000	3.47526	0.85581	3.16788	2.32281
3065.000	3.52844	0.93120	3.15605	2.23359
3066.000	3.50283	0.95901	3.29204	2.16388
3067.000	3.63478	1.13354	3.18759	2.20179
3068.000	3.52056	0.88951	3.23686	2.23540
3069.000	3.59146	0.99465	3.20336	2.33265
3070.000	3.51071	0.98084	3.21912	2.28105
3071.000	3.43586	0.96305	3.21321	2.28106
3072.000	3.64069	0.99261	3.27036	2.21549
3073.000	3.52844	0.89149	3.27233	2.22937
3074.000	3.57176	0.86366	3.29992	2.11031
3075.000	3.62690	0.89537	3.17576	2.19586
3076.000	3.58358	0.94305	3.25854	2.18378
3077.000	3.52647	0.86767	3.19350	2.20574
3078.000	3.64659	0.88145	3.25065	2.17190
3079.000	3.62887	0.86559	3.13832	2.21776
3080.000	3.65053	0.92512	3.24671	2.17984
3081.000	3.47132	0.88162	3.29204	2.29873
3082.000	3.64856	0.85962	3.34327	2.24904
3083.000	3.55601	0.86169	3.29598	2.20552
3084.000	3.51268	0.84982	3.25263	2.14215
3085.000	3.55207	0.92323	3.17774	2.37633
3086.000	3.54222	0.77634	3.21518	2.33659
3087.000	3.57964	0.87953	3.15014	2.34863
3088.000	3.67613	0.95883	3.19744	2.31878
3089.000	3.63478	0.97078	3.26642	2.21352
3090.000	3.61706	0.93111	3.36100	2.17563
3091.000	3.57176	0.89939	3.28021	2.14209
3092.000	3.63084	0.92315	3.21912	2.24535
3093.000	3.57570	0.90931	3.27627	2.24523
3094.000	3.62493	0.92911	3.24474	2.17588
3095.000	3.57373	0.83984	3.20927	2.19182
3096.000	3.57570	0.93115	3.22306	2.29096
3097.000	3.67022	0.85364	3.19153	2.17996
3098.000	3.56979	0.94902	3.17379	2.28313
3099.000	3.57176	0.97879	3.22109	2.23543
3100.000	3.62296	0.83979	3.26642	2.22542
3101.000	3.56783	0.92123	3.22701	2.21757
3102.000	3.58949	0.92716	3.17971	2.25139
3103.000	3.50874	0.86173	3.21715	2.23742
3104.000	3.57964	0.90335	3.15014	2.37838
3105.000	3.62887	0.87551	3.30583	2.11030
3106.000	3.65447	0.95885	3.18168	2.34459
3107.000	3.50283	0.90541	3.23292	2.25920
3108.000	3.50283	1.09003	3.28021	2.23133
3109.000	3.57373	1.07010	3.24277	2.22348
3110.000	3.59146	1.00656	3.24080	2.23539
3111.000	3.59343	0.99068	3.19547	2.37629
3112.000	3.57373	0.93909	3.23292	2.27904
3113.000	3.64462	0.99658	3.26248	2.16989
3114.000	3.52253	0.90539	3.29598	2.23725
3115.000	3.63281	0.92712	3.46147	2.17143
3116.000	3.57964	0.99863	3.26642	2.18773
3117.000	3.43980	0.98489	3.22701	2.30681
3118.000	3.39252	0.87971	3.22109	2.19577
3119.000	3.52647	1.00465	3.37873	2.16369
3120.000	3.56586	1.00857	3.24277	2.23538
3121.000	3.46344	0.97494	3.19153	2.26525
3122.000	3.50677	0.91136	3.21321	2.35840
3123.000	3.61903	0.96683	3.14620	2.26534
3124.000	3.52844	0.90539	3.27430	2.38007
3125.000	3.58949	0.86563	3.18168	2.21767
3126.000	3.64265	0.99062	3.26839	2.32060
3127.000	3.59343	0.96686	3.30189	2.23724
3128.000	3.60721	0.93112	3.29007	2.19958
3129.000	3.66038	1.02832	3.17182	2.24942
3130.000	3.54025	0.79222	3.16985	2.22166
3131.000	3.67022	0.98662	3.24474	2.35436
3132.000	3.60918	0.99860	3.26248	2.23931
3133.000	3.55995	1.02247	3.16197	2.42594
3134.000	3.55010	1.02050	3.19153	2.34061
3135.000	3.60327	1.00853	3.26642	2.23930
3136.000	3.62099	0.86957	3.25263	2.14016
3137.000	3.58752	1.00458	3.28415	2.22736
3138.000	3.65841	0.85564	3.22701	2.19575
3139.000	3.61115	0.90531	3.32553	2.26494
3140.000	3.56586	0.89741	3.18956	2.21567
3141.000	3.65053	1.02436	3.25657	2.32856
3142.000	3.56389	0.99667	3.22109	2.28303
3143.000	3.56783	0.93314	3.27430	2.22342
3144.000	3.57176	1.00063	3.37676	2.25491
3145.000	3.65447	0.92313	3.31371	2.21738
3146.000	3.51268	0.87563	3.18168	2.36442
3147.000	3.58949	0.97679	3.11269	2.16029
3148.000	3.54419	1.09792	3.24671	2.24331
3149.000	3.56979	1.00658	3.30189	2.31457
3150.000	3.56192	0.98079	3.27627	2.31067
3151.000	3.62887	1.06209	3.24277	2.27703
3152.000	3.59933	0.95693	3.26839	2.12624
3153.000	3.63084	0.96682	3.31962	2.34427
3154.000	3.63084	1.02239	3.31765	2.14002
3155.000	3.57176	0.90932	3.18562	2.28112
3156.000	3.56586	0.97086	3.17379	2.26528
3157.000	3.63675	1.06804	3.24474	2.18778
3158.000	3.54025	1.06021	3.43783	2.11398
3159.000	3.59933	1.02442	3.21321	2.15215
3160.000	3.51071	1.01856	3.26051	2.26906
3161.000	3.58752	1.08000	3.27824	2.16391
3162.000	3.58949	0.99068	3.26248	2.08064
3163.000	3.50086	0.87167	3.22701	2.36829
3164.000	3.66431	0.94297	3.25854	2.21155
3165.000	3.64069	0.99063	3.27627	2.17780
3166.000	3.59343	0.96884	3.30386	2.15394
3167.000	3.59736	0.97082	3.30583	2.14203
3168.000	3.64659	1.14344	3.33144	2.16181
3169.000	3.62887	0.94102	3.27430	2.21747
3170.000	3.60918	1.09983	3.40828	2.21915
3171.000	3.59933	1.00655	3.29204	2.14206
3172.000	3.61706	0.97477	3.26445	2.14212
3173.000	3.79424	0.94878	3.38464	2.21920
3174.000	3.61903	0.97279	3.34524	2.21532
3175.000	3.57964	1.01650	3.38267	2.24895
3176.000	3.65841	1.04817	3.21715	2.16999
3177.000	3.67219	1.03426	3.29007	2.28882
3178.000	3.57570	0.94306	3.26051	2.32458
3179.000	3.57570	1.11376	3.31962	2.16183
3180.000	3.52450	1.11779	3.31371	2.06863
3181.000	3.72731	0.96275	3.33144	2.20147
3182.000	3.72928	1.07983	3.28810	2.16389
3183.000	3.59343	0.95495	3.27627	2.30472
3184.000	3.56192	1.03240	3.31174	2.05078
3185.000	3.67613	0.95685	3.32947	2.09240
3186.000	3.73913	1.00838	3.30977	2.26101
3187.000	3.55601	1.10783	3.27627	2.15003
3188.000	3.53631	0.92126	3.27233	2.15599
3189.000	3.72731	1.11357	3.28021	2.09250
3190.000	3.76669	1.00835	3.25460	2.25321
3191.000	3.64069	0.97673	3.30977	2.22532
3192.000	3.67810	0.95486	3.40434	2.12000
3193.000	3.56783	0.94704	3.36297	2.17364
3194.000	3.63872	0.97078	3.29992	2.08849
3195.000	3.67613	1.02631	3.27233	2.23928
3196.000	3.68991	1.06797	3.26839	2.36621
3197.000	3.56389	1.04430	3.31174	2.11227
3198.000	3.61312	0.97081	3.41616	2.14377
3199.000	3.71353	1.01039	3.33144	2.22329
3200.000	3.55798	0.90139	3.34524	2.08641
3201.000	3.67416	1.11166	3.27036	2.23532
3202.000	3.71353	1.05008	3.35115	2.16573
3203.000	3.68006	0.99257	3.37479	2.16171
3204.000	3.66234	1.02633	3.25854	2.23535
3205.000	3.60721	1.07403	3.26248	2.21154
3206.000	3.63478	1.06209	3.36100	2.11216
3207.000	3.54419	1.05624	3.32159	2.18563
3208.000	3.72731	1.07190	3.30386	2.06666
3209.000	3.60524	1.06212	3.31371	2.21539
3210.000	3.68203	1.03424	3.30386	2.17377
3211.000	3.60524	0.98074	3.31174	2.10632
3212.000	3.61706	1.01447	3.24080	2.20961
3213.000	3.63084	0.97079	3.30583	2.23921
3214.000	3.56192	1.04828	3.40237	2.17157
3215.000	3.63478	1.12560	3.28810	2.12422
3216.000	3.62099	0.97675	3.31371	2.29075
3217.000	3.69975	0.95881	3.32356	2.11026
3218.000	3.60327	1.04823	3.33933	2.17567
3219.000	3.58161	1.06810	3.37676	2.08635
3220.000	3.52056	1.03443	3.23489	2.22350
3221.000	3.58555	1.08001	3.21124	2.19380
3222.000	3.59343	1.07404	3.32356	2.04480
3223.000	3.51662	1.05428	3.17379	1.97170
3224.000	3.61706	1.07005	3.22306	2.10055
3225.000	3.58358	1.02245	3.34721	2.03682
3226.000	3.70172	0.99254	3.35903	2.17563
3227.000	3.62296	1.00454	3.31765	2.13804
3228.000	3.57570	0.98871	3.34918	2.00310
3229.000	3.69778	1.08583	3.18168	2.09270
3230.000	3.62493	1.04820	3.30977	2.12021
3231.000	3.59343	1.05816	3.30583	2.10831
3232.000	3.65447	1.07993	3.21518	2.12636
3233.000	3.61903	1.12165	3.22504	2.04501
3234.000	3.62493	1.03233	3.07129	2.25956
3235.000	3.60918	1.14548	3.29007	2.02900
3236.000	3.57373	1.06216	3.33933	2.06461
3237.000	3.59146	1.08794	3.19350	2.20574
3238.000	3.51071	1.08208	3.30189	2.21542
3239.000	3.59146	1.09191	3.29795	2.10040
3240.000	3.64069	1.00849	3.29992	2.07262
3241.000	3.62690	1.09584	3.26839	2.19170
3242.000	3.55995	1.12569	3.23095	2.18781
3243.000	3.60918	1.18517	3.32356	2.07059
3244.000	3.56389	1.09790	3.25065	2.12033
3245.000	3.60327	0.98074	3.15211	2.21376
3246.000	3.64659	1.09978	3.36888	2.10620
3247.000	3.58358	1.02840	3.29204	2.12421
3248.000	3.61115	1.11967	3.25460	2.22148
3249.000	3.65053	1.03825	3.23883	2.12036
3250.000	3.69778	1.01041	3.28612	2.12819
3251.000	3.67022	0.96479	3.27233	2.15400
3252.000	3.56979	1.16140	3.34327	2.07452
3253.000	3.55404	1.08401	3.26642	2.15997
3254.000	3.64856	1.08192	3.22109	2.13428
3255.000	3.55404	1.13761	3.22109	2.10651
3256.000	3.68991	1.02431	3.28415	2.13018
3257.000	3.67416	1.17715	3.23686	2.04300
3258.000	3.63675	1.28634	3.12058	2.33680
3259.000	3.61903	1.04424	3.40040	2.12794
3260.000	3.59343	1.10977	3.28612	2.25314
3261.000	3.61312	1.08196	3.34918	2.23515
3262.000	3.59540	1.11572	3.28612	2.19959
3263.000	3.65841	1.18312	3.29007	2.10835
3264.000	3.57767	1.00261	3.37282	2.15378
3265.000	3.55404	1.16936	3.37085	2.09231
3266.000	3.59146	1.07405	3.29007	2.13612
3267.000	3.60918	1.11570	3.20139	2.02720
3268.000	3.64265	1.11963	3.33736	2.15981
3269.000	3.60721	1.27646	3.28218	2.11233
3270.000	3.65644	1.09183	3.36888	2.26286
3271.000	3.64856	1.15535	3.17971	2.22561
3272.000	3.61312	1.08196	3.20927	2.29892
3273.000	3.67810	1.13943	3.24868	2.23140
3274.000	3.68991	1.16125	3.29007	2.21743
3275.000	3.61706	1.13951	3.26642	2.25715
3276.000	3.61115	0.98867	3.33538	2.19750
3277.000	3.56979	1.09392	3.23686	2.20565
3278.000	3.63675	1.18513	3.40631	2.27665
3279.000	3.71156	1.06199	3.29401	2.29674
3280.000	3.66628	1.09182	3.19350	2.31085
3281.000	3.70369	1.16123	3.29204	2.25312
3282.000	3.54419	1.24083	3.34524	2.30257
3283.000	3.67022	1.15135	3.39055	2.17754
3284.000	3.62493	1.09385	3.28218	2.25116
3285.000	3.61903	1.22485	3.04567	2.36275
3286.000	3.66431	1.21883	3.33933	2.27483
3287.000	3.60524	1.11571	3.20533	2.33264
3288.000	3.55207	1.13165	3.29007	2.29874
3289.000	3.63084	1.14743	3.29992	2.35423
3290.000	3.59736	1.18122	3.12846	2.18604
3291.000	3.59540	1.29831	3.15211	2.37639
3292.000	3.62887	1.12362	3.26642	2.35431
3293.000	3.70566	1.29815	3.32553	2.27684
3294.000	3.81786	1.25433	3.20730	2.28306
3295.000	3.68203	1.15531	3.30583	2.36612
3296.000	3.71747	1.25448	3.24080	2.34842
3297.000	3.58752	1.31420	3.30189	2.38199
3298.000	3.73716	1.20881	3.29992	2.39191
3299.000	3.72141	1.14732	3.34524	2.33232
3300.000	3.67219	1.32796	3.15803	2.52112
3301.000	3.75487	1.35363	3.27824	2.43954
3302.000	3.64265	1.29824	3.17774	2.46754
3303.000	3.67022	1.21883	3.27036	2.52282
3304.000	3.68794	1.29024	3.22504	2.37820
3305.000	3.77653	1.27622	3.34524	2.30257
3306.000	3.71353	1.21281	3.28021	2.27695
3307.000	3.61312	1.14746	3.34721	2.18161
3308.000	3.61115	1.13952	3.39055	2.09227
3309.000	3.72928	1.04014	3.22898	2.00532
3310.000	3.50874	1.00069	3.26248	1.97153
3311.000	3.45753	0.88163	3.07524	1.89450
3312.000	3.31765	0.71297	2.97666	1.70413
3313.000	3.28021	0.60775	2.86821	1.66062
3314.000	3.11663	0.48072	2.76368	1.49795
3315.000	2.93920	0.15298	2.78735	1.34104
3316.000	2.91357	0.22849	2.70253	1.35901
3317.000	2.87807	-0.02583	2.59008	1.29159
3318.000	2.84454	0.01590	2.71634	1.21003
3319.000	2.71437	0.02385	2.59600	1.21213
3320.000	2.62954	-0.10930	2.68083	1.13855
3321.000	2.93723	-0.12517	2.74593	1.11465
3322.000	2.70056	-0.14507	2.72620	1.15440
3323.000	2.78538	-0.01391	2.67492	1.13458
3324.000	2.84257	-0.01788	2.72226	1.02727
3325.000	2.81693	-0.01590	2.64335	1.08892
3326.000	2.87018	0.09140	2.66900	1.18822
3327.000	2.98849	-0.10331	2.64927	1.11673
3328.000	2.94511	0.04172	2.66111	1.20213
3329.000	2.92145	-0.18080	2.62165	1.03530
3330.000	2.93920	-0.23643	2.63941	0.95582
3331.000	2.91357	-0.23445	2.64927	1.10083
3332.000	2.93131	-0.08345	2.66111	1.10480
3333.000	2.91159	-0.24438	2.58614	1.13069
3334.000	2.94511	-0.19073	2.70648	1.10873
3335.000	2.97075	-0.24040	2.67294	1.04519
3336.000	2.93328	-0.16689	2.71437	0.96768
3337.000	2.88990	-0.27022	2.63743	1.10680
3338.000	2.91357	-0.20663	2.71240	1.10872
3339.000	2.80905	-0.28415	2.66505	1.15446
3340.000	2.87215	-0.33778	2.72226	1.14248
3341.000	2.83863	-0.37156	2.65519	1.21207
3342.000	2.86624	-0.22850	2.67097	1.22398
3343.000	2.78538	-0.17486	2.70845	1.17229
3344.000	3.03384	-0.14900	2.76565	1.21196
3345.000	2.97272	-0.10927	2.57430	1.17242
3346.000	2.98849	-0.14900	2.77354	1.29140
3347.000	2.84454	-0.15896	2.66111	1.20015
3348.000	2.90962	-0.17286	2.70253	1.30935
3349.000	2.99835	-0.08742	2.69070	1.27957
3350.000	2.85046	-0.18081	2.76171	1.20998
3351.000	2.84652	-0.06954	2.74593	1.35896
3352.000	2.91357	-0.09934	2.78143	1.18017
3353.000	2.92145	-0.11325	2.70648	1.27956
3354.000	2.81299	-0.19274	2.74593	1.23383
3355.000	3.00624	-0.17086	2.81102	1.18212
3356.000	2.93920	-0.07153	2.80905	1.16425
3357.000	2.95103	-0.09934	2.69267	1.14251
3358.000	2.91357	-0.11722	2.71437	1.19016
3359.000	2.88399	-0.17286	2.70451	1.21798
3360.000	2.84454	-0.26625	2.86427	1.13241
3361.000	2.96878	-0.04570	2.70648	1.29545
3362.000	3.01609	-0.15496	2.69267	1.20608
3363.000	2.89779	-0.18875	2.77552	1.13449
3364.000	3.00229	-0.05960	2.70648	1.26367
3365.000	2.99046	-0.15099	2.74001	1.24973
3366.000	3.14029	-0.04767	2.72423	1.15241
3367.000	2.90173	-0.08345	2.68281	1.18424
3368.000	2.96089	-0.17682	2.53484	1.35323
3369.000	2.99046	-0.07152	2.64730	1.18626
3370.000	2.98061	-0.17483	2.70845	1.20010
3371.000	3.02004	-0.10927	2.84652	1.23968
3372.000	2.94906	-0.17484	2.75776	1.10074
3373.000	2.99835	0.00993	2.73607	1.23583
3374.000	3.02004	-0.17880	2.74593	1.14246
3375.000	3.00426	-0.13112	2.69464	1.22197
3376.000	2.89385	-0.21856	2.69859	1.19018
3377.000	2.99046	-0.37151	2.63941	1.26969
3378.000	3.01018	-0.11523	2.74593	1.28349
3379.000	2.96483	-0.15298	2.76368	1.25765
3380.000	2.98455	-0.15497	2.63349	1.23792
3381.000	2.87018	-0.19869	2.67492	1.25178
3382.000	3.00229	-0.14503	2.68281	1.21999
3383.000	2.94906	-0.12517	2.66111	1.23789
3384.000	3.02201	-0.02980	2.84060	1.26749
3385.000	2.92934	-0.15299	2.75185	1.27752
3386.000	3.02398	-0.15297	2.77552	1.19010
3387.000	2.95103	-0.27418	2.68281	1.23985
3388.000	3.01018	-0.12913	2.65913	1.26371
3389.000	3.06932	-0.07350	2.81693	1.32313
3390.000	2.92145	-0.15100	2.72029	1.16235
3391.000	2.97075	-0.07748	2.66308	1.32131
3392.000	2.86624	-0.25035	2.67689	1.41266
3393.000	3.01609	-0.17681	2.67294	1.35507
3394.000	3.03384	-0.12317	2.74001	1.10671
3395.000	2.96483	-0.11126	2.75579	1.20800
3396.000	3.00821	-0.06556	2.73212	1.26960
3397.000	3.00426	-0.12119	2.62954	1.25183
3398.000	2.95497	-0.16888	2.56246	1.18634
3399.000	3.02201	-0.18277	2.67492	1.33123
3400.000	2.85638	-0.10928	2.73607	1.37883
3401.000	2.88201	-0.20664	2.61573	1.26376
3402.000	3.11466	-0.14104	2.77749	1.17620
3403.000	2.90962	-0.22650	2.65519	1.33920
3404.000	2.98258	-0.17086	2.67492	1.28157
3405.000	2.89582	-0.13113	2.78735	1.20797
3406.000	2.97666	-0.24040	2.61573	1.33725
3407.000	3.01215	-0.24436	2.76171	1.17820
3408.000	2.91751	-0.01788	2.66900	1.30144
3409.000	3.06735	-0.05165	2.63546	1.23593
3410.000	3.00624	-0.07351	2.81693	1.24369
3411.000	2.91948	0.07550	2.70056	1.12661
3412.000	3.07918	-0.12913	2.78932	1.16824
3413.000	2.99638	-0.09934	2.84849	1.20195
3414.000	2.90765	-0.04172	2.73804	1.37088
3415.000	3.03778	0.02384	2.70451	1.15045
3416.000	2.92934	-0.04371	2.80905	1.13048
3417.000	3.09495	0.04370	2.74790	1.14246
3418.000	2.94314	0.00199	2.74001	1.21795
3419.000	2.87215	-0.06358	2.79721	1.19803
3420.000	2.98455	0.06159	2.76368	1.22388
3421.000	2.92342	-0.13511	2.77354	1.18415
3422.000	2.89976	-0.03179	2.64533	1.21407
3423.000	2.83863	-0.03775	2.71831	1.12262
3424.000	2.92145	0.04371	2.73015	1.23583
3425.000	2.80313	-0.03775	2.77552	1.15236
3426.000	2.97469	-0.03974	2.74987	1.15040
3427.000	3.01807	-0.01192	2.77354	1.10867
3428.000	2.83271	-0.22652	2.75776	1.24772
3429.000	2.87413	-0.05961	2.77946	1.17222
3430.000	2.84652	-0.08941	2.72423	1.22988
3431.000	2.93526	-0.08345	2.69464	1.17032
3432.000	2.95892	-0.10331	2.69267	1.10477
3433.000	2.89976	0.00993	2.80313	1.16624
3434.000	2.93526	-0.02186	2.74198	1.19610
3435.000	2.84652	-0.10332	2.69070	1.18423
3436.000	2.89187	-0.12319	2.66900	1.25179
3437.000	2.88004	-0.11922	2.71634	1.27756
3438.000	2.98258	-0.10331	2.72620	1.18419
3439.000	2.87610	-0.09339	2.74001	1.13055
3440.000	2.89976	-0.22650	2.78735	1.16824
3441.000	2.92934	-0.10729	2.78341	1.16626
3442.000	2.98455	0.00993	2.62362	1.32334
3443.000	2.82088	-0.23645	2.57430	1.27969
3444.000	2.97272	-0.10331	2.69267	1.30539
3445.000	2.79327	-0.01590	2.81496	1.19205
3446.000	2.97075	-0.15298	2.72818	1.16433
3447.000	3.05355	-0.07350	2.69859	1.11072
3448.000	2.92145	-0.06358	2.76763	1.34702
3449.000	3.02595	-0.01987	2.71634	1.34112
3450.000	2.99638	-0.20463	2.62362	1.23991
3451.000	2.91751	-0.22253	2.78735	1.23379
3452.000	3.09298	-0.20660	2.66900	1.28754
3453.000	3.01807	-0.17681	2.65913	1.28954
3454.000	3.01215	-0.12715	2.64730	1.20215
3455.000	3.04961	-0.08542	2.68281	1.10875
3456.000	2.92934	-0.24835	2.74001	1.10870
3457.000	2.92540	-0.21259	2.80313	1.19603
3458.000	2.96483	-0.15894	2.62362	1.16244
3459.000	2.99244	-0.23642	2.71042	1.22394
3460.000	2.97075	-0.16291	2.64335	1.07899
3461.000	2.96680	-0.14901	2.72620	1.16632
3462.000	3.00821	-0.07947	2.61968	1.32533
3463.000	3.05749	-0.09933	2.67689	1.37890
3464.000	2.82680	-0.13909	2.75382	1.20403
3465.000	3.04764	-0.12714	2.75776	1.29340
3466.000	3.02004	-0.13907	2.80510	1.04110
3467.000	2.92540	-0.09537	2.75974	1.29340
3468.000	3.01215	0.05563	2.60981	1.23397
3469.000	2.97863	-0.17682	2.73804	1.17624
3470.000	2.82680	-0.17088	2.78932	1.26358
3471.000	2.87807	-0.05166	2.65913	1.25776
3472.000	2.85441	-0.17287	2.83863	1.11059
3473.000	2.89976	-0.26028	2.64927	1.26372
3474.000	2.81693	-0.13512	2.75579	1.26560
3475.000	2.88201	-0.06159	2.77946	1.10270
3476.000	2.99835	-0.10132	2.72226	1.23584
3477.000	2.82088	-0.19473	2.82877	1.27744
3478.000	2.80707	-0.13512	2.62362	1.30149
3479.000	2.92540	-0.10729	2.66703	1.24782
3480.000	2.80510	-0.18678	2.64335	1.22599
3481.000	2.86032	-0.10332	2.70253	1.19415
3482.000	2.94511	-0.07749	2.72818	1.22988
3483.000	2.87610	0.00000	2.85835	1.14632
3484.000	2.90173	-0.12716	2.68675	1.19814
3485.000	2.74001	-0.06955	2.70056	1.27162
3486.000	2.80905	-0.10531	2.69267	1.28950
3487.000	2.90371	-0.06557	2.73607	1.06500
3488.000	2.74790	-0.15102	2.73804	1.13651
3489.000	2.75579	-0.05961	2.69464	1.06901
3490.000	2.83271	-0.23645	2.70648	1.11866
3491.000	2.91948	0.00795	2.76368	1.23183
3492.000	2.81891	-0.15101	2.77552	1.15038
3493.000	2.76565	-0.06955	2.70056	1.17429
3494.000	2.86821	-0.08941	2.77946	1.21989
3495.000	2.98061	-0.06755	2.75776	1.22587
3496.000	3.04961	0.10728	2.70845	1.29147
3497.000	2.94709	0.03378	2.82285	1.31121
3498.000	2.96878	0.05960	2.80707	1.16028
3499.000	2.93920	0.11722	2.74001	1.18418
3500.000	3.06341	0.01589	2.63152	1.19422
3501.000	3.00229	-0.01589	2.80905	1.15432
3502.000	2.95300	0.00397	2.70253	1.15045
3503.000	3.02595	0.12317	2.79129	1.23577
3504.000	3.09495	0.15892	2.66703	1.18028
3505.000	3.01609	0.16092	2.73409	1.37685
3506.000	3.10086	0.16687	2.59206	1.16048
3507.000	3.12452	0.05761	2.65716	1.20810
3508.000	2.99638	0.16688	2.61771	1.14258
3509.000	3.03187	0.10728	2.67492	1.22000
3510.000	3.06538	0.12714	2.66505	1.19816
3511.000	3.16394	0.20063	2.68083	1.23191
3512.000	3.14226	0.08343	2.68675	1.13258
3513.000	3.23095	0.13705	2.72029	1.14249
3514.000	3.13043	0.14898	2.54076	0.92211
3515.000	3.14029	0.19268	2.54076	1.07907
3516.000	3.17182	0.16686	2.56049	0.92210
3517.000	3.14226	0.21056	2.53089	0.85853
3518.000	3.09889	0.13508	2.45986	0.89634
3519.000	2.92145	0.11126	2.49735	1.16653
3520.000	2.81693	0.33779	2.34539	1.48453
3521.000	2.83468	0.22056	2.08284	2.05087
3522.000	2.74396	0.51267	1.73330	2.93052
3523.000	2.54668	0.41736	1.45081	3.70988
3524.000	2.59206	0.58626	1.32831	4.66952
3525.000	2.55062	0.88833	1.00421	5.75305
3526.000	2.80116	1.20994	0.81645	6.84209
3527.000	2.97863	1.42619	0.75122	8.05476
3528.000	3.04567	2.09893	0.40923	9.11720
3529.000	3.29795	2.89333	0.23329	10.31369
3530.000	3.29598	3.43192	NaN	NaN
3531.000	3.42207	4.35065	NaN	NaN
3532.000	3.60918	5.16413	NaN	NaN
3533.000	3.73519	6.13457	NaN	NaN
3534.000	-0.31236	8.70567	NaN	NaN
3535.000	-0.28469	10.13061	NaN	NaN
3536.000	-0.38353	11.40339	NaN	NaN
3537.000	-0.27480	12.63289	NaN	NaN
3538.000	-0.31632	13.85427	NaN	NaN
3539.000	NaN	NaN	NaN	NaN
3540.000	NaN	NaN	NaN	NaN
3541.000	NaN	NaN	NaN	NaN
3542.000	NaN	NaN	NaN	NaN
3543.000	NaN	NaN	NaN	NaN
3544.000	NaN	NaN	NaN	NaN
3545.000	NaN	NaN	NaN	NaN
3546.000	NaN	NaN	NaN	NaN
3547.000	NaN	NaN	NaN	NaN
3548.000	NaN	NaN	NaN	NaN
3549.000	NaN	NaN	NaN	NaN
3550.000	NaN	NaN	NaN	NaN
3551.000	NaN	NaN	NaN	NaN
3552.000	NaN	NaN	NaN	NaN
3553.000	NaN	NaN	NaN	NaN
3554.000	NaN	NaN	NaN	NaN
3555.000	NaN	NaN	NaN	NaN
3556.000	NaN	NaN	NaN	NaN
3557.000	NaN	NaN	NaN	NaN
3558.000	NaN	NaN	NaN	NaN
3559.000	NaN	NaN	NaN	NaN
3560.000	NaN	NaN	NaN	NaN
3561.000	NaN	NaN	NaN	NaN
3562.000	NaN	NaN	NaN	NaN
3563.000	NaN	NaN	NaN	NaN
3564.000	NaN	NaN	NaN	NaN
3565.000	NaN	NaN	NaN	NaN
3566.000	NaN	NaN	NaN	NaN
3567.000	NaN	NaN	NaN	NaN
3568.000	NaN	NaN	NaN	NaN
3569.000	NaN	NaN	NaN	NaN
3570.000	NaN	NaN	NaN	NaN
3571.000	NaN	NaN	NaN	NaN
3572.000	NaN	NaN	NaN	NaN
3573.000	NaN	NaN	NaN	NaN
3574.000	NaN	NaN	NaN	NaN
3575.000	NaN	NaN	NaN	NaN
3576.000	NaN	NaN	NaN	NaN
3577.000	NaN	NaN	NaN	NaN
3578.000	NaN	NaN	NaN	NaN
3579.000	NaN	NaN	NaN	NaN
3580.000	NaN	NaN	NaN	NaN
3581.000	NaN	NaN	NaN	NaN
3582.000	NaN	NaN	NaN	NaN
3583.000	NaN	NaN	NaN	NaN
3584.000	NaN	NaN	NaN	NaN
3585.000	NaN	NaN	NaN	NaN
3586.000	NaN	NaN	NaN	NaN
3587.000	NaN	NaN	NaN	NaN
3588.000	NaN	NaN	NaN	NaN
3589.000	NaN	NaN	NaN	NaN
3590.000	NaN	NaN	NaN	NaN
3591.000	NaN	NaN	NaN	NaN
3592.000	NaN	NaN	NaN	NaN
3593.000	NaN	NaN	NaN	NaN
3594.000	NaN	NaN	NaN	NaN
3595.000	NaN	NaN	NaN	NaN
3596.000	NaN	NaN	NaN	NaN
3597.000	NaN	NaN	NaN	NaN
3598.000	NaN	NaN	NaN	NaN
3599.000	NaN	NaN	NaN	NaN
3600.000	NaN	NaN	NaN	NaN
3601.000	NaN	NaN	NaN	NaN
3602.000	NaN	NaN	NaN	NaN
3603.000	NaN	NaN	NaN	NaN
3604.000	NaN	NaN	NaN	NaN
3605.000	NaN	NaN	NaN	NaN
3606.000	NaN	NaN	NaN	NaN
3607.000	NaN	NaN	NaN	NaN
3608.000	NaN	NaN	NaN	NaN
3609.000	NaN	NaN	NaN	NaN
3610.000	NaN	NaN	NaN	NaN
3611.000	NaN	NaN	NaN	NaN
3612.000	NaN	NaN	NaN	NaN
3613.000	NaN	NaN	NaN	NaN
3614.000	NaN	NaN	NaN	NaN
3615.000	NaN	NaN	NaN	NaN
3616.000	NaN	NaN	NaN	NaN
3617.000	NaN	NaN	NaN	NaN
3618.000	NaN	NaN	NaN	NaN
3619.000	NaN	NaN	NaN	NaN
3620.000	NaN	NaN	NaN	NaN
3621.000	NaN	NaN	NaN	NaN
3622.000	NaN	NaN	NaN	NaN
3623.000	NaN	NaN	NaN	NaN
3624.000	NaN	NaN	NaN	NaN
3625.000	NaN	NaN	NaN	NaN
3626.000	NaN	NaN	NaN	NaN
3627.000	NaN	NaN	NaN	NaN
3628.000	NaN	NaN	NaN	NaN
3629.000	NaN	NaN	NaN	NaN
3630.000	NaN	NaN	NaN	NaN
3631.000	NaN	NaN	NaN	NaN
3632.000	NaN	NaN	NaN	NaN
3633.000	NaN	NaN	NaN	NaN
3634.000	NaN	NaN	NaN	NaN
3635.000	NaN	NaN	NaN	NaN
3636.000	NaN	NaN	NaN	NaN
3637.000	NaN	NaN	NaN	NaN
3638.000	NaN	NaN	NaN	NaN
3639.000	NaN	NaN	NaN	NaN
3640.000	NaN	NaN	NaN	NaN
3641.000	NaN	NaN	NaN	NaN
3642.000	NaN	NaN	NaN	NaN
3643.000	NaN	NaN	NaN	NaN
3644.000	NaN	NaN	NaN	NaN
3645.000	NaN	NaN	NaN	NaN
3646.000	NaN	NaN	NaN	NaN
3647.000	NaN	NaN	NaN	NaN
3648.000	NaN	NaN	NaN	NaN
3649.000	NaN	NaN	NaN	NaN
3650.000	NaN	NaN	NaN	NaN
3651.000	NaN	NaN	NaN	NaN
3652.000	NaN	NaN	NaN	NaN
3653.000	NaN	NaN	NaN	NaN
3654.000	NaN	NaN	NaN	NaN
3655.000	NaN	NaN	NaN	NaN
3656.000	NaN	NaN	NaN	NaN
3657.000	NaN	NaN	NaN	NaN
3658.000	NaN	NaN	NaN	NaN
3659.000	NaN	NaN	NaN	NaN
3660.000	NaN	NaN	NaN	NaN
3661.000	NaN	NaN	NaN	NaN
3662.000	NaN	NaN	NaN	NaN
3663.000	NaN	NaN	NaN	NaN
3664.000	NaN	NaN	NaN	NaN
3665.000	NaN	NaN	NaN	NaN
3666.000	NaN	NaN	NaN	NaN
3667.000	NaN	NaN	NaN	NaN
3668.000	NaN	NaN	NaN	NaN
3669.000	NaN	NaN	NaN	NaN
3670.000	NaN	NaN	NaN	NaN
3671.000	NaN	NaN	NaN	NaN
3672.000	NaN	NaN	NaN	NaN
3673.000	NaN	NaN	NaN	NaN
3674.000	NaN	NaN	NaN	NaN
3675.000	NaN	NaN	NaN	NaN
3676.000	NaN	NaN	NaN	NaN
3677.000	NaN	NaN	NaN	NaN
3678.000	NaN	NaN	NaN	NaN
3679.000	NaN	NaN	NaN	NaN
3680.000	NaN	NaN	NaN	NaN
3681.000	NaN	NaN	NaN	NaN
3682.000	NaN	NaN	NaN	NaN
3683.000	NaN	NaN	NaN	NaN
3684.000	NaN	NaN	NaN	NaN
3685.000	NaN	NaN	NaN	NaN
3686.000	NaN	NaN	NaN	NaN
3687.000	NaN	NaN	NaN	NaN
3688.000	NaN	NaN	NaN	NaN
3689.000	NaN	NaN	NaN	NaN
3690.000	NaN	NaN	NaN	NaN
3691.000	NaN	NaN	NaN	NaN
3692.000	NaN	NaN	NaN	NaN
3693.000	NaN	NaN	NaN	NaN
3694.000	NaN	NaN	NaN	NaN
3695.000	NaN	NaN	NaN	NaN
3696.000	NaN	NaN	NaN	NaN
3697.000	NaN	NaN	NaN	NaN
3698.000	NaN	NaN	NaN	NaN
3699.000	NaN	NaN	NaN	NaN
3700.000	NaN	NaN	NaN	NaN
3701.000	NaN	NaN	NaN	NaN
3702.000	NaN	NaN	NaN	NaN
3703.000	NaN	NaN	NaN	NaN
3704.000	NaN	NaN	NaN	NaN
3705.000	NaN	NaN	NaN	NaN
3706.000	NaN	NaN	NaN	NaN
3707.000	NaN	NaN	NaN	NaN
3708.000	NaN	NaN	NaN	NaN
3709.000	NaN	NaN	NaN	NaN
3710.000	NaN	NaN	NaN	NaN
3711.000	NaN	NaN	NaN	NaN
3712.000	NaN	NaN	NaN	NaN
3713.000	NaN	NaN	NaN	NaN
3714.000	NaN	NaN	NaN	NaN
3715.000	NaN	NaN	NaN	NaN
3716.000	NaN	NaN	NaN	NaN
3717.000	NaN	NaN	NaN	NaN
3718.000	NaN	NaN	NaN	NaN
3719.000	NaN	NaN	NaN	NaN
3720.000	NaN	NaN	NaN	NaN
3721.000	NaN	NaN	NaN	NaN
3722.000	NaN	NaN	NaN	NaN
3723.000	NaN	NaN	NaN	NaN
3724.000	NaN	NaN	NaN	NaN
3725.000	NaN	NaN	NaN	NaN
3726.000	NaN	NaN	NaN	NaN
3727.000	NaN	NaN	NaN	NaN
3728.000	NaN	NaN	NaN	NaN
3729.000	NaN	NaN	NaN	NaN
3730.000	NaN	NaN	NaN	NaN
3731.000	NaN	NaN	NaN	NaN
3732.000	NaN	NaN	NaN	NaN
3733.000	NaN	NaN	NaN	NaN
3734.000	NaN	NaN	NaN	NaN
3735.000	NaN	NaN	NaN	NaN
3736.000	NaN	NaN	NaN	NaN
3737.000	NaN	NaN	NaN	NaN
3738.000	NaN	NaN	NaN	NaN
3739.000	NaN	NaN	NaN	NaN
3740.000	NaN	NaN	NaN	NaN
3741.000	NaN	NaN	NaN	NaN
3742.000	NaN	NaN	NaN	NaN
3743.000	NaN	NaN	NaN	NaN
3744.000	NaN	NaN	NaN	NaN
3745.000	NaN	NaN	NaN	NaN
3746.000	NaN	NaN	NaN	NaN
3747.000	NaN	NaN	NaN	NaN
3748.000	NaN	NaN	NaN	NaN
3749.000	NaN	NaN	NaN	NaN
3750.000	NaN	NaN	NaN	NaN
3751.000	NaN	NaN	NaN	NaN
3752.000	NaN	NaN	NaN	NaN
3753.000	NaN	NaN	NaN	NaN
3754.000	NaN	NaN	NaN	NaN
3755.000	-3.39646	14.91749	NaN	NaN
3756.000	-2.86427	15.64393	NaN	NaN
3757.000	-2.39078	16.22114	NaN	NaN
3758.000	-2.39473	16.06888	NaN	NaN
3759.000	-2.72423	15.78749	NaN	NaN
3760.000	-2.91948	15.55104	NaN	NaN
3761.000	-2.90173	15.00400	NaN	NaN
3762.000	-3.02792	14.78899	NaN	NaN
3763.000	-3.12255	14.34113	NaN	NaN
3764.000	-3.30780	13.91090	NaN	NaN
3765.000	-3.29204	13.78567	NaN	NaN
3766.000	-3.03778	13.21792	NaN	NaN
3767.000	-3.56586	12.92476	NaN	NaN
3768.000	-3.37479	12.53426	NaN	NaN
3769.000	-3.46541	12.18636	NaN	NaN
3770.000	-3.44965	11.92827	NaN	NaN
3771.000	-3.42010	11.63175	NaN	NaN
3772.000	1.87353	8.54961	NaN	NaN
3773.000	1.76886	8.18613	NaN	NaN
3774.000	1.78861	7.87019	NaN	NaN
3775.000	1.67800	7.50153	-7.97085	15.95478
3776.000	1.76293	7.17649	-4.28211	13.99860
3777.000	1.68392	6.86337	-0.97852	11.55485
3778.000	1.43105	6.51105	-0.78482	10.96994
3779.000	1.42117	6.31075	-0.76110	10.51493
3780.000	1.23148	5.81167	-0.79668	10.07772
3781.000	1.12279	5.62087	-0.90539	9.69906
3782.000	1.24927	5.22835	-0.97654	9.29639
3783.000	1.01410	4.87745	-0.98247	8.94344
3784.000	0.93306	4.60494	-0.98643	8.60537
3785.000	0.92120	4.32618	-0.89551	8.07592
3786.000	0.84610	4.08291	-0.95480	7.74209
3787.000	0.64645	3.76234	-1.10303	7.36252
3788.000	0.76703	3.45314	-0.97259	7.00450
3789.000	0.61285	3.19155	-0.89353	6.67128
3790.000	0.41912	2.84844	-0.91132	6.43762
3791.000	0.42702	2.60032	-0.96271	6.22138
3792.000	0.25108	2.40578	-1.03188	5.82978
3793.000	0.13246	2.08997	-0.94690	5.56601
3794.000	0.10280	2.01248	-0.86586	5.17770
3795.000	0.00395	1.75016	-1.00026	4.96435
3796.000	-0.02372	1.47782	-0.98643	4.79059
3797.000	-0.17595	1.34461	-0.88167	4.47652
3798.000	-0.24119	1.18354	-0.80063	4.09087
3799.000	-0.22933	1.01848	-1.11884	3.96778
3800.000	-0.40133	0.85338	-1.05362	3.65894
3801.000	-0.46854	0.78177	-0.94295	3.37568
3802.000	-0.38749	0.67238	-0.93109	3.08620
3803.000	-0.52587	0.60275	-0.85796	2.80454
3804.000	-0.59703	0.54904	-0.90934	2.54448
3805.000	-0.59901	0.40582	-0.95678	2.28235
3806.000	-0.76110	0.35209	-1.10106	2.30409
3807.000	-0.58517	0.34813	-1.06746	1.97439
3808.000	-0.75319	0.14721	-1.03386	1.73795
3809.000	-0.66424	0.15517	-1.03584	1.68230
3810.000	-0.75715	0.11936	-0.97062	1.40008
3811.000	-0.84017	0.03780	-0.89156	1.14562
3812.000	-0.88365	-0.00796	-0.83621	0.86127
3813.000	-0.88760	-0.09150	-0.82633	0.78172
3814.000	-0.94492	0.08752	-1.00817	0.80753
3815.000	-0.81249	-0.06167	-0.71168	0.46150
3816.000	-0.95480	-0.09946	-0.64448	0.32226
3817.000	-0.89749	-0.13725	-0.87377	0.30832
3818.000	-0.92318	-0.04774	-0.85203	0.07161
3819.000	-0.97852	-0.05172	-0.90737	0.04376
3820.000	-0.91725	-0.18101	-0.77494	-0.12930
3821.000	-1.00026	-0.23273	-0.77494	-0.30236
3822.000	-1.04374	-0.31229	-1.10106	-0.04376
3823.000	-0.94887	-0.27052	-0.93504	-0.24467
3824.000	-1.02793	-0.33019	-1.07536	-0.12730
3825.000	-1.02398	-0.35605	-0.77296	-0.72007
3826.000	-1.02595	-0.24864	-1.05758	-0.50920
3827.000	-0.96271	-0.34412	-1.17022	-0.46940
3828.000	-0.98643	-0.22676	-1.28681	-0.48728
3829.000	-1.02595	-0.20488	-1.19987	-0.65634
3830.000	-0.98840	-0.29240	-1.34016	-0.78556
3831.000	-1.01607	-0.18300	-1.25322	-0.74980
3832.000	-1.01805	-0.27052	-1.31052	-0.83330
3833.000	-1.03386	-0.27052	-1.29076	-0.81740
3834.000	-1.02793	-0.17703	-1.32436	-0.75972
3835.000	-1.05165	-0.24267	-1.33226	-0.86908
3836.000	-1.08327	-0.26057	-1.43698	-0.83524
3837.000	-1.10698	-0.14122	-1.42908	-0.73980
3838.000	-1.21370	-0.19691	-1.40339	-0.71197
3839.000	-1.15244	-0.26255	-1.38758	-0.54493
3840.000	-1.27496	-0.21480	-1.51601	-0.62643
3841.000	-1.10501	-0.20885	-1.51403	-0.67018
3842.000	-1.27496	-0.21282	-1.43500	-0.53299
3843.000	-1.22555	-0.16111	-1.39944	-0.58072
3844.000	-1.23544	-0.20089	-1.45476	-0.47531
3845.000	-1.17022	-0.23669	-1.51601	-0.28638
3846.000	-1.29076	-0.23469	-1.57330	-0.17302
3847.000	-1.35795	-0.25457	-1.43698	-0.24860
3848.000	-1.25322	-0.20287	-1.57923	-0.17898
3849.000	-1.29669	-0.30629	-1.61281	-0.15511
3850.000	-1.31843	-0.31027	-1.63849	-0.16903
3851.000	-1.37178	-0.21281	-1.63651	0.00597
3852.000	-1.30262	-0.28441	-1.50613	-0.02585
3853.000	-1.25322	-0.22674	-1.52193	0.09944
3854.000	-1.33226	-0.20684	-1.58515	0.08154
3855.000	-1.46859	-0.27047	-1.62269	0.07557
3856.000	-1.32040	-0.27845	-1.57330	0.16307
3857.000	-1.14058	-0.18697	-1.63651	0.19886
3858.000	-1.22951	-0.15713	-1.57527	0.20881
3859.000	-1.14848	-0.16509	-1.63651	0.22471
3860.000	-1.27100	-0.14320	-1.66417	0.39970
3861.000	-1.33621	-0.20486	-1.65429	0.36192
3862.000	-1.32040	-0.15513	-1.66614	0.43947
3863.000	-1.28879	-0.23270	-1.60688	0.36193
3864.000	-1.14651	-0.21084	-1.67404	0.37186
3865.000	-1.28879	-0.13724	-1.70367	0.54883
3866.000	-1.29076	-0.35005	-1.72738	0.31816
3867.000	-1.27693	-0.18696	-1.63849	0.47129
3868.000	-1.29274	-0.22475	-1.74713	0.46729
3869.000	-1.21963	-0.17901	-1.61873	0.33011
3870.000	-1.27496	-0.09746	-1.74713	0.52495
3871.000	-1.28484	-0.26055	-1.63651	0.39175
3872.000	-1.22160	-0.14321	-1.74120	0.46331
3873.000	-1.20579	-0.19094	-1.74120	0.43945
3874.000	-1.22753	-0.20884	-1.62664	0.44743
3875.000	-1.30064	-0.11735	-1.68392	0.45537
3876.000	-1.30064	-0.23668	-1.74515	0.42752
3877.000	-1.40734	-0.35997	-1.66812	0.43549
3878.000	-1.18208	-0.28443	-1.74120	0.59057
3879.000	-1.30262	-0.16508	-1.80836	0.53289
3880.000	-1.30855	-0.26452	-1.78071	0.45933
3881.000	-1.19789	-0.06365	-1.70367	0.42554
3882.000	-1.20184	-0.27647	-1.81033	0.46926
3883.000	-1.22555	-0.19094	-1.79848	0.54482
3884.000	-1.29669	-0.35005	-1.68985	0.57468
3885.000	-1.25124	-0.23271	-1.74713	0.54881
3886.000	-1.30657	-0.23071	-1.80243	0.51698
3887.000	-1.27891	-0.24265	-1.71553	0.47923
3888.000	-1.32831	-0.22673	-1.70170	0.60649
3889.000	-1.31250	-0.23668	-1.83008	0.52095
3890.000	-1.36585	-0.15115	-1.78663	0.53488
3891.000	-1.36190	-0.16110	-1.75898	0.43547
3892.000	-1.34807	-0.26253	-1.81626	0.52493
3893.000	-1.27693	-0.23668	-1.82218	0.51897
3894.000	-1.31052	-0.13525	-1.76688	0.57267
3895.000	-1.36783	-0.18496	-1.81033	0.59850
3896.000	-1.42513	-0.14518	-1.81033	0.66610
3897.000	-1.29669	-0.17900	-1.84786	0.62235
3898.000	-1.24927	-0.17702	-1.71158	0.59455
3899.000	-1.33226	-0.15513	-1.74713	0.65022
3900.000	-1.31052	-0.14718	-1.75108	0.45138
3901.000	-1.29274	-0.19690	-1.83601	0.58457
3902.000	-1.33028	-0.04972	-1.86761	0.60842
3903.000	-1.36585	-0.05370	-1.76095	0.68003
3904.000	-1.32436	-0.20685	-1.82218	0.78339
3905.000	-1.38363	-0.19093	-1.82613	0.62434
3906.000	-1.26705	-0.18696	-1.84983	0.68398
3907.000	-1.40932	-0.21877	-1.78861	0.64622
3908.000	-1.36980	-0.13723	-1.76886	0.62834
3909.000	-1.34412	-0.16707	-1.69182	0.45935
3910.000	-1.33424	-0.24066	-1.93080	0.51496
3911.000	-1.34609	-0.22872	-1.90908	0.58455
3912.000	-1.50415	-0.22473	-1.74318	0.58659
3913.000	-1.41525	-0.11933	-1.82811	0.58855
3914.000	-1.40932	-0.29236	-1.82416	0.50704
3915.000	-1.45279	-0.22076	-1.75503	0.58460
3916.000	-1.28879	-0.24066	-1.78861	0.60050
3917.000	-1.12279	-0.14520	-1.63849	0.55083
3918.000	-1.14651	0.01193	-1.65824	0.70990
3919.000	-0.99829	-0.12730	-1.58713	0.86103
3920.000	-0.80854	0.08554	-1.45279	0.99629
3921.000	-0.79470	0.06565	-1.34214	0.93072
3922.000	-0.87179	0.10941	-1.09710	0.97057
3923.000	-0.48238	0.16711	-0.78680	1.12179
3924.000	-0.34597	0.30636	-0.49028	1.18748
3925.000	-0.01582	0.39390	-0.19375	1.27899
3926.000	0.13839	0.37600	-0.15223	1.37244
3927.000	0.13246	0.34218	0.16409	1.34858
3928.000	0.38946	0.46352	0.15223	1.39829
3929.000	0.30841	0.33024	0.16607	1.43607
3930.000	0.36574	0.46949	0.24119	1.42612
3931.000	0.55157	0.59280	0.28271	1.46389
3932.000	0.68599	0.73600	0.34004	1.55135
3933.000	0.64843	0.76186	0.29852	1.60106
3934.000	0.85993	0.70415	0.39342	1.63483
3935.000	0.84807	0.70614	0.43493	1.65073
3936.000	1.02398	0.73196	0.49819	1.59307
3937.000	1.16825	0.78164	0.61285	1.62285
3938.000	1.10106	0.86120	0.63262	1.73813
3939.000	1.24729	0.88303	0.78680	1.68242
3940.000	1.22358	0.91287	0.76110	1.82751
3941.000	1.31448	0.93073	0.79866	1.84339
3942.000	1.22358	1.01229	0.85993	1.84734
3943.000	1.22160	0.99042	0.82435	1.88710
3944.000	1.28088	1.05601	0.92120	1.85923
3945.000	1.27891	0.98244	0.81645	1.88511
3946.000	1.30064	1.14944	0.75517	1.89905
3947.000	1.38166	0.99433	0.71366	1.90900
3948.000	1.32040	0.96652	0.69587	1.79574
3949.000	1.38166	1.02813	0.53378	1.79182
3950.000	1.38956	1.01818	0.53575	1.81368
3951.000	1.37375	1.01620	0.53378	1.83753
3952.000	1.31843	1.10172	0.42900	1.71831
3953.000	1.32238	1.01821	0.42702	1.78589
3954.000	1.28286	1.10571	0.32818	1.85745
3955.000	1.21765	0.96854	0.40330	1.79583
3956.000	1.16825	0.93078	0.32027	1.75212
3957.000	1.34214	0.99037	0.36179	1.75410
3958.000	1.36387	1.04603	0.42109	1.74216
3959.000	1.32633	1.05400	0.32027	1.75610
3960.000	1.25124	1.04011	0.50808	1.83555
3961.000	1.31052	1.10371	0.33609	1.75808
3962.000	1.31645	0.99634	0.39539	1.76403
3963.000	1.31250	1.06395	0.32027	1.66864
3964.000	1.40142	1.10168	0.36179	1.84950
3965.000	1.35597	0.96452	0.46656	1.76799
3966.000	1.40734	1.18120	0.37958	1.71236
3967.000	1.22358	1.08585	0.48435	1.70836
3968.000	1.22555	1.14749	0.37563	1.74813
3969.000	1.16034	1.17336	0.43296	1.75210
3970.000	1.25915	1.06198	0.35981	1.67857
3971.000	1.25520	1.05403	0.43098	1.65073
3972.000	1.29867	1.05401	0.42109	1.67856
3973.000	1.31843	1.04605	0.45272	1.70837
3974.000	1.24927	1.12362	0.37760	1.70640
3975.000	1.22753	1.14152	0.44679	1.75011
3976.000	1.22160	1.05205	0.45272	1.73023
3977.000	1.25124	1.06795	0.51994	1.76003
3978.000	1.23148	1.14947	0.43493	1.74613
3979.000	1.28484	1.20909	0.32620	1.78591
3980.000	1.26310	1.02818	0.42702	1.72825
3981.000	1.27298	1.14548	0.43691	1.72030
3982.000	1.27496	1.03016	0.34202	1.84950
3983.000	1.19987	1.12961	0.37365	1.72031
3984.000	1.22555	1.16141	0.46063	1.85742
3985.000	1.09117	1.00438	0.40528	1.80179
3986.000	1.16825	0.96657	0.39737	1.66664
3987.000	1.30262	1.05003	0.27678	1.83163
3988.000	1.14453	1.12565	0.46459	1.70041
3989.000	1.17220	1.13757	0.34597	1.82963
3990.000	1.20184	1.17136	0.35783	1.79584
3991.000	1.29669	1.07986	0.43098	1.82961
3992.000	1.27891	1.03215	0.47645	1.80376
3993.000	1.19591	1.04809	0.33016	1.73622
3994.000	1.30855	1.03413	0.46656	1.77991
3995.000	1.29472	1.11565	0.39935	1.75012
3996.000	1.28286	0.99039	0.41516	1.78589
3997.000	1.23544	1.07591	0.27085	1.88131
3998.000	1.15837	1.02424	0.35783	1.89123
3999.000	1.15441	0.94272	0.39342	1.81570
4000.000	1.19591	1.04809	0.34597	1.83559
4001.000	1.14848	0.98845	0.42702	1.87333
4002.000	1.20382	1.04610	0.39342	1.87334
4003.000	1.20777	1.02422	0.31434	1.82566
4004.000	1.18208	1.07394	0.48238	1.88524
4005.000	1.18603	1.01429	0.36179	1.86937
4006.000	1.06943	1.06404	0.47052	1.89319
4007.000	1.15837	1.06003	0.44482	1.84153
4008.000	1.16627	1.11173	0.44877	1.79383
4009.000	1.08524	0.98649	0.44482	1.82563
4010.000	1.23741	1.04211	0.45470	1.87531
4011.000	1.11687	1.20718	0.43493	1.83756
4012.000	1.02793	1.04019	0.38551	1.92302
4013.000	1.17813	1.07195	0.38551	1.84750
4014.000	1.08722	1.15351	0.44086	1.92102
4015.000	1.15837	1.00038	0.40528	1.82564
4016.000	1.13663	0.98448	0.37563	1.85347
4017.000	1.16627	1.07196	0.59308	1.88520
4018.000	1.13663	1.09185	0.41912	1.85346
4019.000	1.06548	1.05609	0.42900	2.04422
4020.000	1.05955	0.97854	0.46063	1.79184
4021.000	1.08524	1.06602	0.33016	1.91508
4022.000	1.09315	1.05608	0.40726	1.85147
4023.000	1.12675	1.11771	0.44679	1.98659
4024.000	1.03386	1.06206	0.40330	2.02237
4025.000	1.10106	1.13163	0.34597	1.82366
4026.000	1.12279	1.00039	0.34004	1.92104
4027.000	1.09117	1.03222	0.41516	1.81173
4028.000	1.13465	1.06799	0.36376	1.96475
4029.000	1.08129	1.03222	0.34004	1.92700
4030.000	1.04572	1.07996	0.41714	1.89122
4031.000	1.12279	0.99045	0.40133	1.92898
4032.000	1.08722	1.06403	0.54761	1.91701
4033.000	1.04177	0.99445	0.43296	1.97070
4034.000	1.10106	1.05011	0.44679	1.93095
4035.000	0.99829	1.04617	0.28864	1.91112
4036.000	0.99631	0.90498	0.46261	1.87531
4037.000	0.98840	1.00839	0.43098	1.91506
4038.000	1.05955	0.94474	0.34399	2.05218
4039.000	1.00026	0.99248	0.34004	1.93694
4040.000	0.99038	1.01634	0.39539	1.91904
4041.000	1.13465	1.03817	0.39342	1.88725
4042.000	1.00421	1.00640	0.51203	1.83157
4043.000	0.99829	1.09389	0.43493	2.01242
4044.000	1.05955	1.03621	0.39737	1.91507
4045.000	1.02200	1.00838	0.34993	1.91309
4046.000	1.02991	0.94474	0.23922	1.97074
4047.000	1.03584	1.08791	0.39342	1.92302
4048.000	0.97259	0.97459	0.34399	1.93495
4049.000	0.93702	0.93085	0.35981	1.84950
4050.000	1.00224	1.13565	0.40133	1.93891
4051.000	1.00026	1.09389	0.38551	1.92103
4052.000	0.97062	0.97658	0.39737	1.94686
4053.000	1.03188	1.12967	0.37365	1.92501
4054.000	0.88760	1.01439	0.39539	2.01045
4055.000	0.94097	1.05414	0.36574	2.06013
4056.000	0.86784	0.95672	0.36179	1.85148
4057.000	0.99631	0.98651	0.26096	1.96477
4058.000	0.99038	1.10781	0.29457	1.92105
4059.000	1.04769	1.02826	0.31039	1.86342
4060.000	0.99038	0.98850	0.24119	1.94689
4061.000	0.98643	1.07799	0.37563	1.95879
4062.000	0.98643	1.02032	0.28864	1.95086
4063.000	1.03386	1.01832	0.36969	1.94886
4064.000	1.02200	1.01633	0.30050	1.90118
4065.000	1.07932	0.99842	0.40923	1.81769
4066.000	0.96864	0.98453	0.29259	1.91310
4067.000	1.00817	0.95072	0.38946	1.84949
4068.000	0.96271	1.01238	0.33411	1.79187
4069.000	0.96073	1.03027	0.30446	1.98662
4070.000	0.93702	0.92091	0.25701	1.94689
4071.000	0.97062	0.94675	0.32620	1.99854
4072.000	0.98247	0.90300	0.38353	1.97270
4073.000	1.03584	0.92486	0.38551	1.92699
4074.000	0.97457	0.96266	0.43889	1.86935
4075.000	0.95678	1.02431	0.37760	1.80378
4076.000	1.04572	1.08592	0.37958	1.78192
4077.000	0.83424	0.98656	0.32422	1.81572
4078.000	0.96073	0.93084	0.29655	1.90317
4079.000	0.99829	0.99248	0.33016	1.80379
4080.000	0.94097	0.92091	0.27480	1.91708
4081.000	0.94295	0.91494	0.50610	1.82760
4082.000	0.97852	0.95470	0.29655	1.84355
4083.000	0.96469	0.97857	0.34399	1.76205
4084.000	0.93306	1.04221	0.23131	1.83362
4085.000	0.99433	1.03623	0.40133	1.85346
4086.000	0.98050	0.98453	0.40133	1.83756
4087.000	0.99433	0.86720	0.32818	1.97668
4088.000	1.04572	0.92088	0.39342	1.94289
4089.000	0.99631	0.99447	0.39737	1.90712
4090.000	1.02200	0.90696	0.31632	1.86540
4091.000	0.99236	0.86521	0.41319	1.76005
4092.000	0.94690	0.92488	0.33806	1.81770
4093.000	0.87970	0.99052	0.30248	1.92502
4094.000	0.92318	0.96864	0.34202	1.82565
4095.000	1.03781	0.92486	0.29259	1.94291
4096.000	0.97259	0.88311	0.40528	1.87731
4097.000	1.01212	0.95072	0.35586	1.86341
4098.000	0.88365	0.94280	0.17595	1.89921
4099.000	1.01410	0.94276	0.38946	1.92302
4100.000	1.03979	0.89900	0.39539	1.75012
4101.000	0.88958	0.96069	0.37365	1.86937
4102.000	0.86784	0.97064	0.39737	1.88327
4103.000	0.90342	0.92887	0.41516	1.96077
4104.000	0.85796	0.96269	0.33411	1.86938
4105.000	0.90539	0.89904	0.39737	1.97071
4106.000	0.98050	1.11975	0.24515	1.88529
4107.000	0.88167	0.82546	0.33016	1.87335
4108.000	0.96666	0.94277	0.38551	1.91507
4109.000	0.92713	0.86920	0.34399	1.90912
4110.000	0.95678	0.91891	0.47052	1.86537
4111.000	0.94097	0.97062	0.30841	1.92304
4112.000	1.01607	0.91890	0.31632	1.89521
4113.000	0.91923	0.98256	0.40923	1.88128
4114.000	0.90144	0.95671	0.38353	2.09588
4115.000	0.88958	1.09790	0.49028	1.88524
4116.000	0.90144	0.84932	0.37563	2.01641
4117.000	0.98247	0.91095	0.34993	1.90117
4118.000	0.85796	0.96865	0.45668	1.92698
4119.000	0.95283	1.06408	0.43098	1.88525
4120.000	0.96073	0.94079	0.37167	1.89321
4121.000	0.98445	0.93680	0.37167	1.96873
4122.000	0.85993	0.95672	0.38353	1.96674
4123.000	0.90342	0.98853	0.31829	1.90117
4124.000	0.92120	0.92489	0.33411	1.88329
4125.000	0.92318	0.88313	0.39935	1.95680
4126.000	0.89749	0.98455	0.44284	1.85743
4127.000	0.94690	0.90301	0.31039	1.88528
4128.000	0.94295	0.91693	0.38749	1.94289
4129.000	0.94492	0.89903	0.30841	1.83361
4130.000	0.94690	0.86323	0.48040	2.02831
4131.000	0.82633	0.84536	0.44284	1.93890
4132.000	0.91132	0.89904	0.36179	1.89918
4133.000	0.93306	0.94477	0.40133	1.87731
4134.000	0.91527	0.79960	0.35586	1.83956
4135.000	0.87179	0.93484	0.40528	1.87333
4136.000	1.03979	0.83537	0.33213	1.85348
4137.000	0.96271	0.79561	0.48040	1.97267
4138.000	0.86388	0.86126	0.40923	1.83558
4139.000	0.91725	0.86523	0.50215	1.85145
4140.000	0.96469	0.94476	0.45865	1.83159
4141.000	1.09513	0.97853	0.52784	1.99849
4142.000	0.95283	0.86920	0.41319	1.90115
4143.000	0.97062	0.87118	0.41912	1.88724
4144.000	0.96666	0.95868	0.46261	1.88723
4145.000	0.96469	0.85328	0.43889	1.89717
4146.000	0.91132	0.96665	0.41912	1.87532
4147.000	1.02398	0.89105	0.39737	1.85744
4148.000	0.95480	0.92090	0.39935	1.85943
4149.000	0.96864	0.85129	0.50610	1.88126
4150.000	0.98247	0.84930	0.47645	1.83556
4151.000	1.00026	0.72798	0.43889	1.88724
4152.000	0.92516	0.90102	0.52389	1.90510
4153.000	0.90934	1.00046	0.52587	1.88125
4154.000	0.97457	0.78566	0.49226	1.94088
4155.000	0.88365	0.87120	0.50610	1.87331
4156.000	0.94690	0.83340	0.49028	1.84947
4157.000	0.94492	0.79164	0.51598	2.05810
4158.000	0.89749	0.82148	0.45668	1.83159
4159.000	0.95876	0.77572	0.47842	1.87729
4160.000	0.86586	0.86524	0.49819	1.79581
4161.000	0.97062	0.79760	0.40528	1.88526
4162.000	0.97062	0.83737	0.48633	1.85543
4163.000	1.01805	0.86321	0.44482	1.92301
4164.000	0.80854	0.84338	0.40133	1.89520
4165.000	0.87377	0.81154	0.37563	1.82962
4166.000	0.93306	0.89704	0.53378	1.86734
4167.000	0.84412	0.73000	0.40330	1.96276
4168.000	0.96073	0.78965	0.40726	1.92699
4169.000	0.99236	0.72401	0.50017	1.84748
4170.000	0.98840	0.86123	0.42505	1.93692
4171.000	1.01607	0.82543	0.50610	1.80971
4172.000	0.88958	0.87319	0.45470	1.85345
4173.000	0.88760	0.78370	0.49028	1.86139
4174.000	0.87772	0.81353	0.45470	1.99851
4175.000	0.92911	0.84932	0.42900	1.85743
4176.000	0.94887	0.75385	0.53773	1.97663
4177.000	0.90539	0.82744	0.52982	1.94683
4178.000	0.87574	0.83740	0.43296	1.82762
4179.000	0.99038	0.85129	0.52982	1.88721
4180.000	0.89353	0.80557	0.47249	1.88127
4181.000	0.95876	0.77572	0.48633	1.85543
4182.000	0.99236	0.84532	0.52191	1.86933
4183.000	1.00224	0.71406	0.51005	1.83157
4184.000	0.94690	0.87119	0.53378	1.89317
4185.000	0.87970	0.86524	0.39342	1.91308
4186.000	0.88365	0.79563	0.46261	1.95877
4187.000	0.96469	0.77771	0.52389	1.88125
4188.000	1.01014	0.81946	0.47249	1.96473
4189.000	0.89353	0.81154	0.42505	1.94288
4190.000	1.02200	0.70809	0.51203	1.82164
4191.000	0.91132	0.85131	0.49028	1.86139
4192.000	0.96271	0.93482	0.61680	1.94481
4193.000	0.94492	0.85329	0.49622	1.88921
4194.000	0.83819	0.72006	0.53971	1.86734
4195.000	0.94492	0.82545	0.50610	1.94882
4196.000	0.93702	0.87119	0.51203	1.92696
4197.000	0.93899	0.63651	0.60296	1.89712
4198.000	0.88760	0.89109	0.57727	1.83950
4199.000	0.87574	0.79762	0.55354	1.95278
4200.000	0.99829	0.94475	0.45668	1.93492
4201.000	0.95480	0.87914	0.54366	1.79778
4202.000	0.90737	0.83938	0.48238	1.89716
4203.000	0.96469	0.90101	0.49424	1.82760
4204.000	0.97852	0.84731	0.45668	1.92698
4205.000	0.93702	0.88909	0.51796	1.84946
4206.000	0.92713	0.86324	0.50215	1.82363
4207.000	1.01014	0.81748	0.54761	1.88124
4208.000	0.89156	0.83143	0.45272	1.83954
4209.000	0.90539	0.70414	0.49622	1.96075
4210.000	0.91923	0.92688	0.56738	2.03225
4211.000	0.93109	0.83937	0.60494	1.83949
4212.000	0.97259	0.80754	0.53773	2.03624
4213.000	1.00619	0.74389	0.47842	1.95876
4214.000	0.98247	0.87714	0.43691	1.92897
4215.000	0.96666	0.90300	0.50412	1.83158
4216.000	0.87377	0.87916	0.51994	1.79779
4217.000	0.85993	0.79762	0.53575	2.02233
4218.000	0.95876	0.79362	0.54366	1.85939
4219.000	0.92516	0.76579	0.48435	1.80575
4220.000	0.94097	0.90699	0.58122	1.83155
4221.000	0.92713	0.83539	0.50610	1.92696
4222.000	0.92120	0.76977	0.54168	1.97464
4223.000	0.94887	0.86323	0.45272	2.00646
4224.000	0.81645	0.91696	0.55354	1.87329
4225.000	0.85005	0.79166	0.54564	2.04219
4226.000	0.92120	0.83540	0.48633	2.00844
4227.000	0.90539	0.82943	0.54366	1.83554
4228.000	0.90737	0.82347	0.57529	1.88720
4229.000	0.93109	0.72203	0.55157	1.86733
4230.000	0.93702	0.89108	0.56936	1.81566
4231.000	0.84610	0.83939	0.59703	1.90309
4232.000	0.96073	0.89704	0.54168	1.90509
4233.000	0.87574	0.85132	0.63657	1.91102
4234.000	0.79668	0.88315	0.57331	1.81168
4235.000	0.87574	0.80160	0.46459	1.79780
4236.000	0.82435	0.81752	0.53773	1.68449
4237.000	0.87179	0.83740	0.40923	1.85744
4238.000	0.90934	0.78568	0.57727	1.91104
4239.000	0.86981	0.81353	0.39737	1.92898
4240.000	0.93504	0.89903	0.56936	1.93290
4241.000	0.76901	0.74394	0.49424	1.96671
4242.000	0.86784	0.77376	0.51796	1.92100
4243.000	0.88563	0.80557	0.49819	1.83754
4244.000	0.98247	0.78964	0.48831	1.92101
4245.000	0.81052	0.74791	0.58320	1.86732
4246.000	0.83819	0.79962	0.55157	1.90310
4247.000	0.79866	0.77576	0.46854	1.92101
4248.000	0.80854	0.85332	0.46261	1.79581
4249.000	0.82633	0.87320	0.43098	1.95083
4250.000	0.80854	0.85133	0.47842	1.97267
4251.000	0.82435	0.77575	0.46459	1.91903
4252.000	0.90934	0.69419	0.57529	1.83752
4253.000	0.82435	0.78769	0.56540	1.99450
4254.000	0.84017	0.81752	0.55947	1.78983
4255.000	0.77691	0.69223	0.54168	2.00047
4256.000	0.83028	0.78570	0.54168	1.80772
4257.000	0.71168	0.68229	0.58320	1.95873
4258.000	0.82040	0.77575	0.52982	1.89119
4259.000	0.78087	0.76979	0.54168	1.91503
4260.000	0.75319	0.80361	0.52784	1.88721
4261.000	0.76703	0.83941	0.52191	1.76002
4262.000	0.76110	0.72604	0.47842	1.94287
4263.000	0.81249	0.72603	0.53773	1.84746
4264.000	0.79273	0.72206	0.51994	2.02432
4265.000	0.85005	0.72603	0.59308	1.96866
4266.000	0.77098	0.75786	0.41121	1.91904
4267.000	0.74726	0.76781	0.47447	1.76600
4268.000	0.80854	0.67034	0.54168	1.98458
4269.000	0.82040	0.65244	0.57924	1.85540
4270.000	0.78482	0.67830	0.44482	1.88326
4271.000	0.91330	0.78369	0.53180	1.85343
4272.000	0.89551	0.78568	0.54959	1.95874
4273.000	0.81249	0.62857	0.56738	1.77392
4274.000	0.76110	0.73002	0.56936	1.99251
4275.000	0.77494	0.69024	0.53971	1.81964
4276.000	0.82435	0.70813	0.50215	1.77792
4277.000	0.72354	0.70417	0.54564	1.80374
4278.000	0.73145	0.65643	0.52784	1.77990
4279.000	0.80063	0.73001	0.58517	1.87925
4280.000	0.73145	0.71411	0.41516	1.89519
4281.000	0.81645	0.61863	0.59901	1.81764
4282.000	0.71959	0.55897	0.53180	1.78387
4283.000	0.82238	0.66040	0.55552	1.74412
4284.000	0.72947	0.74594	0.44086	1.91108
4285.000	0.87574	0.61663	0.51598	1.80375
4286.000	0.74726	0.71610	0.52982	1.76400
4287.000	0.77889	0.65841	0.54366	1.89317
4288.000	0.68401	0.75589	0.50412	1.70835
4289.000	0.77098	0.62659	0.45470	1.84153
4290.000	0.76703	0.64051	0.43098	2.01640
4291.000	0.76505	0.65444	0.59703	1.81366
4292.000	0.78680	0.68825	0.45075	1.89916
4293.000	0.83028	0.69620	0.44679	1.86538
4294.000	0.71168	0.77975	0.47842	1.88325
4295.000	0.74133	0.59278	0.49622	1.85741
4296.000	0.73540	0.71013	0.51796	1.84548
4297.000	0.78087	0.73399	0.46656	1.87531
4298.000	0.78680	0.66438	0.38551	1.86539
4299.000	0.77691	0.75786	0.50808	1.77195
4300.000	0.74924	0.68626	0.39539	1.87731
4301.000	0.81447	0.79763	0.59110	1.97661
4302.000	0.79866	0.76979	0.48435	1.86934
4303.000	0.70180	0.75787	0.51203	1.95875
4304.000	0.72354	0.71610	0.46854	1.76998
4305.000	0.69389	0.79964	0.46656	1.83954
4306.000	0.66029	0.65644	0.43098	1.83358
4307.000	0.78877	0.78570	0.34993	1.86341
4308.000	0.69389	0.64450	0.51401	1.90113
4309.000	0.73738	0.93487	0.46656	1.87332
4310.000	0.78680	0.70217	0.45668	1.88723
4311.000	0.69389	0.75986	0.42702	1.87929
4312.000	0.73936	0.78571	0.49819	1.81965
4313.000	0.74133	0.72008	0.55750	1.76200
4314.000	0.66622	0.71213	0.45470	1.98460
4315.000	0.78284	0.72803	0.54168	1.82362
4316.000	0.79075	0.83145	0.54366	1.80374
4317.000	0.64645	0.94285	0.43098	1.82762
4318.000	0.68203	0.74992	0.41121	1.79384
4319.000	0.70773	0.65445	0.52389	1.87728
4320.000	0.60889	0.82153	0.35981	1.98860
4321.000	0.72157	0.81555	0.47249	1.83357
4322.000	0.60099	0.79966	0.49622	1.86139
4323.000	0.76308	0.83742	0.49424	1.81171
4324.000	0.64448	0.79368	0.44679	1.89717
4325.000	0.66227	0.78573	0.52191	1.87927
4326.000	0.70180	0.79169	0.43493	1.82563
4327.000	0.79273	0.89111	0.31632	1.88528
4328.000	0.62471	0.83148	0.42505	1.83557
4329.000	0.68006	0.92892	0.55947	1.84746
4330.000	0.66424	0.86329	0.58122	1.88720
4331.000	0.58517	0.72607	0.37365	1.85744
4332.000	0.60494	0.81358	0.46261	1.89518
4333.000	0.60494	0.84142	0.50808	1.86735
4334.000	0.71959	0.83544	0.43889	1.90512
4335.000	0.53180	0.83746	0.48040	1.81966
4336.000	0.56936	0.72806	0.43691	1.90314
4337.000	0.58320	0.79170	0.49226	1.81369
4338.000	0.57331	0.71414	0.50808	1.88126
4339.000	0.62471	0.83744	0.49819	1.90113
4340.000	0.69587	0.73997	0.57727	1.89117
4341.000	0.63459	0.79766	0.52784	1.87728
4342.000	0.71564	0.83345	0.53971	1.88920
4343.000	0.52389	0.79967	0.47645	1.97863
4344.000	0.58913	0.77380	0.47842	1.92697
4345.000	0.55750	0.79767	0.60889	1.87526
4346.000	0.60296	0.69822	0.48040	1.79581
4347.000	0.56145	0.75789	0.45272	1.76799
4348.000	0.62471	0.84540	0.52784	1.89715
4349.000	0.63855	0.90506	0.43493	1.94487
4350.000	0.58320	0.80563	0.46854	1.80774
4351.000	0.58517	0.72806	0.37958	1.91706
4352.000	0.69389	0.85931	0.54168	1.78983
4353.000	0.68401	0.78572	0.43296	1.80973
4354.000	0.69192	0.84340	0.36574	1.91110
4355.000	0.69785	0.92693	0.47249	1.81569
4356.000	0.79470	0.75587	0.39342	1.92500
4357.000	0.68006	0.86329	0.48633	1.87928
4358.000	0.58517	0.77977	0.58517	1.80770
4359.000	0.68599	0.85931	0.47249	1.77793
4360.000	0.66424	0.76783	0.45470	1.83159
4361.000	0.67808	0.87125	0.44679	1.76203
4362.000	0.62273	0.89910	0.49819	1.87530
4363.000	0.59308	0.72806	0.51598	1.78189
4364.000	0.86191	0.85729	0.46063	1.78389
4365.000	0.65436	0.78772	0.49819	1.78189
4366.000	0.68796	0.73401	0.58320	1.78783
4367.000	0.68599	0.76185	0.49226	1.81767
4368.000	0.66424	0.75788	0.55354	1.85143
4369.000	0.67413	0.85931	0.44284	1.82166
4370.000	0.78680	0.80162	0.38551	1.82763
4371.000	0.76901	0.78372	0.42505	1.71036
4372.000	0.75319	0.77775	0.52587	1.80375
4373.000	0.65831	0.76981	0.43296	1.84551
4374.000	0.76505	0.78372	0.48435	1.71233
4375.000	0.73343	0.82947	0.51401	1.69444
4376.000	0.77691	0.84139	0.43889	1.81967
4377.000	0.85203	0.83740	0.43296	1.80973
4378.000	0.81249	0.69222	0.44284	1.73222
4379.000	0.64250	0.73799	0.55750	1.68250
4380.000	0.79075	0.82747	0.41121	1.69049
4381.000	0.78284	0.76979	0.44877	1.75408
4382.000	0.78087	0.82150	0.49424	1.66065
4383.000	0.66227	0.74595	0.58122	1.74212
4384.000	0.78087	0.62858	0.59308	1.68646
4385.000	0.67610	0.71810	0.52982	1.70238
4386.000	0.60099	0.76386	0.60889	1.73615
4387.000	0.85203	0.71409	0.55354	1.80374
4388.000	0.81645	0.75785	0.55354	1.69641
4389.000	0.83226	0.73398	0.61878	1.59105
4390.000	0.75715	0.67831	0.56343	1.65268
4391.000	0.74726	0.56692	0.63459	1.71825
4392.000	0.71761	0.66041	0.59703	1.82360
4393.000	0.80261	0.57885	0.59901	1.77789
4394.000	0.86191	0.61663	0.57924	1.69839
4395.000	0.89749	0.68027	0.65831	1.80172
4396.000	0.74133	0.62262	0.71168	1.68046
4397.000	0.75912	0.71411	0.56343	1.62088
4398.000	0.82633	0.69421	0.67808	1.73613
4399.000	0.80459	0.71808	0.56936	1.75802
4400.000	0.70971	0.63456	0.65238	1.71626
4401.000	0.74924	0.57090	0.56540	1.80771
4402.000	0.79668	0.71012	0.68796	1.60096
4403.000	0.80459	0.60670	0.53773	1.66263
4404.000	0.77098	0.64648	0.63064	1.73018
4405.000	0.79075	0.70018	0.56343	1.75405
4406.000	0.73145	0.69621	0.63855	1.63080
4407.000	0.75517	0.63057	0.60692	1.87328
4408.000	0.74924	0.57687	0.48238	1.75407
4409.000	0.82831	0.65443	0.62668	1.67453
4410.000	0.77889	0.67631	0.59110	1.81963
4411.000	0.71366	0.67036	0.64843	1.70235
4412.000	0.82040	0.63454	0.56343	1.57914
4413.000	0.73738	0.76781	0.61680	1.62882
4414.000	0.79866	0.58681	0.67017	1.62284
4415.000	0.78087	0.70814	0.66622	1.77389
4416.000	0.67413	0.77777	0.53575	1.70039
4417.000	0.83819	0.75188	0.57331	1.79777
4418.000	0.83621	0.65840	0.54168	1.74412
4419.000	0.78482	0.69819	0.60494	1.75801
4420.000	0.78284	0.66239	0.64052	1.75204
4421.000	0.83424	0.74592	0.62471	1.74608
4422.000	0.79866	0.69819	0.67215	1.74010
4423.000	0.81249	0.63056	0.68203	1.62879
4424.000	0.85598	0.60072	0.62866	1.81365
4425.000	0.80854	0.63255	0.52191	1.84548
4426.000	0.76901	0.65643	0.74529	1.83149
4427.000	0.87574	0.69022	0.53773	1.72027
4428.000	0.81645	0.74791	0.57924	1.64870
4429.000	0.76505	0.70416	0.64052	1.68446
4430.000	0.84610	0.73000	0.65436	1.71427
4431.000	0.74726	0.70814	0.63657	1.74806
4432.000	0.89353	0.74789	0.59110	1.75802
4433.000	0.81249	0.79763	0.66424	1.71427
4434.000	0.76901	0.73201	0.52389	1.75009
4435.000	0.74133	0.76582	0.65436	1.73613
4436.000	0.73145	0.79367	0.67017	1.80569
4437.000	0.79866	0.79167	0.65634	1.83153
4438.000	0.84214	0.77973	0.67215	1.77190
4439.000	0.70971	0.77180	0.60296	1.82757
4440.000	0.73936	0.81753	0.57727	1.80771
4441.000	0.69192	0.72406	0.55552	1.67256
4442.000	0.75319	0.86328	0.60099	1.72224
4443.000	0.78680	0.77775	0.64052	1.69042
4444.000	0.74924	0.73400	0.63064	1.85141
4445.000	0.83028	0.89707	0.68994	1.75401
4446.000	0.71761	0.79367	0.63262	1.67651
4447.000	0.79273	0.95674	0.62668	1.72819
4448.000	0.81447	0.82746	0.62866	1.85936
4449.000	0.68006	0.82550	0.59308	1.80770
4450.000	0.78680	0.83344	0.55354	1.82759
4451.000	0.73540	0.83146	0.55354	1.80573
4452.000	0.86586	0.81950	0.61285	1.70037
4453.000	0.83621	0.82149	0.62866	1.73018
4454.000	0.75517	0.91697	0.58913	1.59503
4455.000	0.72552	0.80759	0.62273	1.83353
4456.000	0.63855	0.80562	0.60296	1.75205
4457.000	0.76110	0.87322	0.55947	1.77591
4458.000	0.69587	0.78771	0.64448	1.75204
4459.000	0.67610	0.76583	0.60494	1.78186
4460.000	0.74331	0.75986	0.56343	1.74610
4461.000	0.71366	0.92494	0.59901	1.77193
4462.000	0.78877	0.80957	0.67610	1.86729
4463.000	0.78284	0.76582	0.58122	1.83354
4464.000	0.80063	0.91299	0.59506	1.75007
4465.000	0.75715	0.86327	0.58517	1.84149
4466.000	0.77296	0.90504	0.49622	1.77792
4467.000	0.66029	0.79965	0.62075	1.90705
4468.000	0.69192	0.84738	0.50412	1.89318
4469.000	0.80261	0.73200	0.58715	1.74609
4470.000	0.77296	0.83941	0.58517	1.77789
4471.000	0.71761	0.77975	0.57727	1.71430
4472.000	0.70971	0.68826	0.59110	1.74410
4473.000	0.72947	0.82549	0.55947	1.69641
4474.000	0.65238	0.89512	0.61680	1.84148
4475.000	0.70180	0.88715	0.71564	1.76394
4476.000	0.72750	0.78770	0.63855	1.77191
4477.000	0.74529	0.90504	0.56145	1.85342
4478.000	0.85796	0.92093	0.60296	1.69839
4479.000	0.75122	0.88714	0.59901	1.86732
4480.000	0.81249	0.91895	0.44877	1.93890
4481.000	0.75517	0.77577	0.65041	1.75601
4482.000	0.83028	0.81155	0.56738	1.91303
4483.000	0.83819	0.80160	0.59901	1.83950
4484.000	0.72157	0.73400	0.57727	1.70635
4485.000	0.77296	0.87918	0.63064	1.76993
4486.000	0.74331	0.75190	0.56738	1.82758
4487.000	0.82238	0.87917	0.55947	1.66859
4488.000	0.73738	0.74395	0.58715	1.90309
4489.000	0.67413	0.79567	0.52191	1.87728
4490.000	0.66029	0.73600	0.57924	1.88918
4491.000	0.77098	0.86725	0.56343	1.90310
4492.000	0.78877	0.75985	0.58517	1.83553
4493.000	0.77494	0.84736	0.49424	1.81171
4494.000	0.82831	0.72802	0.53180	1.82561
4495.000	0.80459	0.79763	0.47052	1.82165
4496.000	0.78482	0.79167	0.57727	1.80969
4497.000	0.73738	0.73002	0.66029	1.78383
4498.000	0.80459	0.85929	0.65634	1.78781
4499.000	0.78877	0.78173	0.57727	1.76001
4500.000	0.71959	0.83345	0.53971	1.80573
4501.000	0.66029	0.80760	0.54761	1.73617
4502.000	0.64448	0.67037	0.53971	1.73617
4503.000	0.87377	0.89109	0.50412	1.80972
4504.000	0.71366	0.78771	0.52587	1.82561
4505.000	0.76308	0.78571	0.56145	1.77989
4506.000	0.69389	0.73998	0.44482	1.87531
4507.000	0.70773	0.76185	0.49424	1.71432
4508.000	0.71564	0.75389	0.52587	1.82958
4509.000	0.76901	0.76781	0.50412	1.78587
4510.000	0.69785	0.69821	0.48633	1.86735
4511.000	0.71168	0.72207	0.58913	1.80373
4512.000	0.87574	0.76779	0.52191	1.86138
4513.000	0.82633	0.76780	0.59308	1.87129
4514.000	0.72552	0.74594	0.58122	1.76001
4515.000	0.71168	0.71610	0.61482	1.90109
4516.000	0.78482	0.77576	0.59506	1.86136
4517.000	0.77296	0.71609	0.50610	1.92498
4518.000	0.67413	0.74992	0.49819	1.79382
4519.000	0.77691	0.73002	0.42702	1.81172
4520.000	0.80063	0.75786	0.46459	1.84351
4521.000	0.76110	0.78173	0.40133	1.77794
4522.000	0.74726	0.77577	0.53575	1.78387
4523.000	0.72552	0.69025	0.60692	1.76994
4524.000	0.73145	0.68826	0.56145	1.73020
4525.000	0.75517	0.71013	0.51598	1.76003
4526.000	0.74924	0.90106	0.55552	1.76796
4527.000	0.91527	0.73596	0.57924	1.82758
4528.000	0.72552	0.76980	0.61087	1.79975
4529.000	0.70180	0.77975	0.62075	1.82160
4530.000	0.68994	0.66042	0.55750	1.85541
4531.000	0.70378	0.85533	0.55157	1.70238
4532.000	0.79668	0.72206	0.47842	1.86537
4533.000	0.80459	0.78371	0.56145	1.81964
4534.000	0.70378	0.78373	0.49028	1.93094
4535.000	0.79668	0.78968	0.53575	1.84747
4536.000	0.66820	0.79766	0.48435	1.90312
4537.000	0.78877	0.79764	0.48238	1.91505
4538.000	0.78877	0.83940	0.41121	1.80576
4539.000	0.82435	0.87519	0.51401	1.78984
4540.000	0.81249	0.78769	0.49622	1.86139
4541.000	0.79273	0.89310	0.45075	1.89121
4542.000	0.85400	0.83541	0.44086	1.85147
4543.000	0.80656	0.77774	0.43493	1.90711
4544.000	0.90737	0.86523	0.50017	1.89914
4545.000	0.84214	0.73199	0.51203	1.90510
4546.000	0.91725	0.74590	0.51598	1.76599
4547.000	0.90737	0.57883	0.61087	1.75801
4548.000	0.96469	0.53706	0.70180	1.72618
4549.000	1.05165	0.55494	0.74133	1.70231
4550.000	1.05560	0.37991	0.76901	1.59895
4551.000	1.24136	0.31028	0.85203	1.41007
4552.000	1.25717	0.16309	0.88760	1.38421
4553.000	1.26112	0.15514	1.05165	1.27480
4554.000	1.25124	0.13724	1.12872	1.20320
4555.000	1.31052	0.01989	1.03584	1.21914
4556.000	1.30460	-0.02586	0.93109	1.22514
4557.000	1.18208	0.04774	0.99038	0.99248
4558.000	1.18406	-0.10741	1.00817	0.97458
4559.000	1.27100	-0.03978	1.00817	0.89106
4560.000	1.35795	0.00199	0.94097	0.92886
4561.000	1.32238	0.10143	0.86388	1.05615
4562.000	1.28484	-0.00994	0.85400	0.86127
4563.000	1.33424	-0.06563	0.86388	0.84933
4564.000	1.31052	-0.06166	0.89156	0.79762
4565.000	1.37771	0.00398	0.92318	0.73397
4566.000	1.38956	-0.07757	0.97457	0.66832
4567.000	1.30262	-0.18497	0.99433	0.60666
4568.000	1.39351	-0.18695	0.88958	0.78966
4569.000	1.35399	-0.18099	0.92120	0.56093
4570.000	1.28286	-0.31624	0.79470	0.52912
4571.000	1.32238	-0.35999	0.90737	0.56093
4572.000	1.29472	-0.39579	0.93702	0.47142
4573.000	1.43105	-0.20485	0.93306	0.53308
4574.000	1.40932	-0.34009	0.86586	0.54901
4575.000	1.30064	-0.21083	0.91923	0.56889
4576.000	1.37178	-0.10342	0.90342	0.73397
4577.000	1.36190	-0.12530	0.81645	0.74592
4578.000	1.25322	-0.26055	0.92911	0.68225
4579.000	1.38956	-0.10939	1.01805	0.82742
4580.000	1.25520	-0.14122	0.93899	0.86721
4581.000	1.43303	-0.09347	0.85203	0.84734
4582.000	1.28879	-0.04972	0.80063	0.90702
4583.000	1.33226	-0.03580	0.94492	0.88113
4584.000	1.24136	-0.13724	0.98643	0.85726
4585.000	1.39351	-0.15911	0.78680	0.92094
4586.000	1.31448	-0.09547	0.91132	0.97461
4587.000	1.48637	-0.10739	0.91527	0.83341
4588.000	1.39549	-0.13325	0.95085	0.92090
4589.000	1.37178	-0.00994	0.83424	0.79166
4590.000	1.28286	-0.15713	0.90539	0.80557
4591.000	1.28681	-0.08950	0.92911	0.85926
4592.000	1.32633	-0.21878	0.94690	0.78965
4593.000	1.22753	-0.17901	0.94295	0.90102
4594.000	1.34016	-0.20287	0.91132	0.74789
4595.000	1.31448	-0.20287	0.92318	0.84534
4596.000	1.18406	-0.02188	0.95480	0.73396
4597.000	1.33424	-0.12331	0.99433	0.91890
4598.000	1.45279	-0.14717	0.91330	0.86523
4599.000	1.34412	-0.15314	0.95283	0.83539
4600.000	1.27100	-0.20685	0.91330	0.83739
4601.000	1.31843	-0.13127	0.92120	0.96466
4602.000	1.31843	-0.13922	0.92318	0.87716
4603.000	1.31250	-0.25856	0.96271	0.86919
4604.000	1.35202	-0.16905	0.91725	0.89904
4605.000	1.31843	-0.21679	0.87772	0.85132
4606.000	1.33819	-0.17900	0.92911	0.96068
4607.000	1.31448	-0.00796	0.85598	0.95275
4608.000	1.30657	-0.08751	0.89946	0.77176
4609.000	1.29669	-0.21878	0.87377	0.78768
4610.000	1.35004	-0.09746	0.94295	0.91693
4611.000	1.26112	-0.12530	0.88760	0.93086
4612.000	1.31645	-0.10541	0.79470	0.83145
4613.000	1.23939	-0.10542	0.97457	1.04419
4614.000	1.35202	-0.16905	0.81447	1.00645
4615.000	1.23741	-0.10740	0.90144	0.80557
4616.000	1.28484	-0.09945	0.83819	0.85530
4617.000	1.32238	-0.09348	0.84610	0.80558
4618.000	1.30262	-0.15911	0.79075	0.84139
4619.000	1.23346	-0.17702	0.92318	0.83937
4620.000	1.22160	-0.10741	0.84412	0.91298
4621.000	1.20184	-0.10542	0.87970	0.76580
4622.000	1.34609	-0.18298	0.89156	0.94677
4623.000	1.18801	-0.22476	0.98445	0.93283
4624.000	1.33621	-0.06166	1.00026	0.87913
4625.000	1.36585	-0.02784	0.92911	0.88312
4626.000	1.37375	-0.07955	0.95480	0.92886
4627.000	1.33621	-0.02387	0.85203	0.93087
4628.000	1.29274	-0.11337	1.00224	0.92089
4629.000	1.32633	-0.05768	0.87970	0.87518
4630.000	1.29076	-0.15116	0.86784	0.97860
4631.000	1.24532	-0.08354	0.89551	0.89109
4632.000	1.28286	-0.06166	0.78680	1.01839
4633.000	1.37178	-0.04177	0.82633	0.99849
4634.000	1.20184	-0.17105	0.86586	0.95473
4635.000	1.27496	0.03182	0.79273	0.89509
4636.000	1.32633	-0.15315	0.90342	0.92688
4637.000	1.31645	-0.05768	0.93109	0.96665
4638.000	1.15639	-0.14520	0.96073	0.92090
4639.000	1.30657	-0.05370	0.95678	0.98653
4640.000	1.31645	-0.03779	0.86191	0.75785
4641.000	1.30460	-0.02387	0.86981	0.83740
4642.000	1.37771	-0.00796	0.92516	0.89108
4643.000	1.26508	-0.10144	0.89551	0.96865
4644.000	1.25520	-0.10343	0.88365	0.85529
4645.000	1.27298	0.00597	0.79075	0.94680
4646.000	1.24927	-0.15315	0.78482	0.95475
4647.000	1.33621	-0.08353	0.84807	0.86723
4648.000	1.22160	-0.09945	0.79866	0.90304
4649.000	1.25915	-0.20088	0.85400	0.92093
4650.000	1.22555	-0.13724	0.79075	1.04822
4651.000	1.32436	-0.11337	0.91330	0.93284
4652.000	1.23148	-0.10939	0.88167	0.98456
4653.000	1.29867	-0.04773	0.81249	0.88514
4654.000	1.21172	-0.08354	0.80459	0.91497
4655.000	1.31052	-0.13326	0.79273	1.01043
4656.000	1.24334	-0.04177	0.83819	1.02036
4657.000	1.30460	-0.08552	0.90144	0.89307
4658.000	1.25322	-0.18895	0.86784	0.78370
4659.000	1.28286	-0.05569	0.85796	0.85132
4660.000	1.30460	-0.09348	0.90737	0.87716
4661.000	1.19394	-0.11934	0.84017	0.97264
4662.000	1.25520	0.03580	0.90934	0.94279
4663.000	1.27496	0.03381	0.86388	0.93087
4664.000	1.26508	-0.09746	0.88167	0.96268
4665.000	1.32633	-0.04574	0.77889	0.98458
4666.000	1.16232	-0.16708	0.83621	0.81950
4667.000	1.22555	-0.17304	0.89156	0.89705
4668.000	1.25520	-0.10144	0.84412	0.97860
4669.000	1.31052	-0.04773	0.89156	0.92688
4670.000	1.33819	-0.05569	0.88760	0.86325
4671.000	1.27298	-0.10343	0.79470	0.90304
4672.000	1.26705	-0.18497	0.90539	0.83540
4673.000	1.26508	-0.06365	0.81052	0.88912
4674.000	1.28484	-0.15514	0.89551	0.84733
4675.000	1.18603	-0.08951	0.85993	0.79762
4676.000	1.29472	-0.08552	0.87179	0.89109
4677.000	1.31250	-0.16309	0.79866	0.87321
4678.000	1.26112	-0.11138	0.88365	0.95871
4679.000	1.32831	-0.01392	0.83621	0.90900
4680.000	1.24532	-0.06365	0.83819	0.89110
4681.000	1.26112	-0.11536	0.79273	0.92492
4682.000	1.22753	-0.16111	0.83226	0.89707
4683.000	1.19591	-0.11934	0.81842	0.84337
4684.000	1.22358	-0.07558	0.90144	0.95472
4685.000	1.13663	-0.06365	0.82238	0.84536
4686.000	1.26903	-0.16707	0.93109	0.81352
4687.000	1.19789	-0.03978	0.82238	0.84934
4688.000	1.31645	-0.04972	0.78680	0.95873
4689.000	1.32436	-0.17701	0.86388	0.77972
4690.000	1.17220	-0.08553	0.84807	0.97263
4691.000	1.25322	-0.13127	0.93702	0.86721
4692.000	1.37178	-0.03381	0.82831	0.86923
4693.000	1.23939	-0.08354	0.77494	0.86526
4694.000	1.20579	-0.12332	0.81447	0.79763
4695.000	1.26310	-0.13127	0.81249	0.84338
4696.000	1.16627	-0.13128	0.90737	0.84932
4697.000	1.19591	-0.07160	0.80854	0.86326
4698.000	1.34412	-0.07558	0.78680	0.91895
4699.000	1.23939	-0.08751	0.78284	0.84736
4700.000	1.25322	-0.02983	0.86784	0.84137
4701.000	1.30657	-0.08353	0.83028	0.68227
4702.000	1.19789	-0.07757	0.79866	0.92094
4703.000	1.23939	-0.08950	0.79273	0.82150
4704.000	1.22358	-0.03779	0.78482	0.90304
4705.000	1.29076	-0.04575	0.71564	0.76185
4706.000	1.23544	-0.17304	0.92318	0.89506
4707.000	1.16429	-0.13326	0.85400	0.90104
4708.000	1.26705	-0.19094	0.91330	0.81352
4709.000	1.18801	-0.12332	0.78482	0.88912
4710.000	1.20975	0.01193	0.77494	0.80162
4711.000	1.18603	-0.07558	0.82040	0.69421
4712.000	1.25322	-0.04972	0.80063	1.00248
4713.000	1.28681	-0.12729	0.88760	0.90302
4714.000	1.31448	-0.02983	0.85993	0.90899
4715.000	1.20777	-0.10144	0.86981	0.82944
4716.000	1.23939	-0.10144	0.77494	0.86924
4717.000	1.23346	-0.18100	0.77889	0.89310
4718.000	1.24532	-0.11735	0.77296	0.83941
4719.000	1.31250	-0.06762	0.85993	0.80757
4720.000	1.19789	-0.19890	0.73738	0.81356
4721.000	1.34609	-0.05370	0.83226	0.80359
4722.000	1.17813	-0.05768	0.81842	0.85928
4723.000	1.22160	-0.20288	0.81052	0.84338
4724.000	1.24136	-0.10343	0.83819	0.85928
4725.000	1.19789	-0.19890	0.91132	0.82943
4726.000	1.28088	-0.13525	0.83028	0.80161
4727.000	1.34807	-0.18695	0.93109	0.89108
4728.000	1.25322	-0.13525	0.90144	0.87319
4729.000	1.28879	-0.11138	0.85005	0.83939
4730.000	1.27496	-0.14320	0.79866	0.80559
4731.000	1.27100	-0.21083	0.72947	0.94084
4732.000	1.12675	-0.27051	0.89749	0.91694
4733.000	1.24729	-0.16309	0.79273	0.72604
4734.000	1.25915	-0.24066	0.81447	0.85730
4735.000	1.34807	-0.25855	0.80063	0.90901
4736.000	1.23741	-0.15713	0.81249	0.87917
4737.000	1.29867	-0.27049	0.80459	0.93486
4738.000	1.28484	-0.16906	0.88167	0.93882
4739.000	1.28681	-0.07956	0.79273	0.77775
4740.000	1.23346	-0.17503	0.84807	0.96269
4741.000	1.23346	-0.20287	0.78680	0.88316
4742.000	1.29274	-0.16309	0.70180	0.86726
4743.000	1.19987	-0.18498	0.81842	0.87122
4744.000	1.20184	-0.19691	0.79470	0.91299
4745.000	1.27693	-0.07558	0.91132	0.96268
4746.000	1.38956	-0.27247	0.81447	0.90105
4747.000	1.26112	-0.19293	0.72552	0.89112
4748.000	1.21765	-0.20486	0.85796	0.94877
4749.000	1.31645	-0.03381	0.78087	0.87719
4750.000	1.26705	-0.14718	0.83424	0.84138
4751.000	1.24334	-0.14122	0.87377	0.83541
4752.000	1.21765	-0.16906	0.88167	0.91495
4753.000	1.22160	-0.13923	0.90342	0.85529
4754.000	1.21765	-0.13326	0.82633	0.92690
4755.000	1.17418	-0.10144	0.76901	0.85134
4756.000	1.19789	-0.06564	0.82633	0.79962
4757.000	1.21765	-0.19691	0.84412	0.75586
4758.000	1.23939	-0.07956	0.73540	0.92095
4759.000	1.27891	-0.07757	0.87377	0.83938
4760.000	1.19196	-0.22078	0.91527	0.82744
4761.000	1.23148	-0.08950	0.74924	0.87322
4762.000	1.24136	-0.17105	0.88365	0.83342
4763.000	1.23346	-0.05370	0.79470	0.80758
4764.000	1.29472	-0.00199	0.81842	0.84735
4765.000	1.19987	-0.16111	0.77494	0.93089
4766.000	1.23148	-0.06564	0.79668	0.78371
4767.000	1.35004	-0.13723	0.76703	0.95674
4768.000	1.20975	-0.22277	0.78877	0.88316
4769.000	1.16627	-0.17901	0.86191	0.97462
4770.000	1.16034	-0.09348	0.81052	0.75587
4771.000	1.24729	0.03580	0.83621	0.82348
4772.000	1.30460	-0.01193	0.78680	0.92293
4773.000	1.27891	-0.11735	0.78482	0.94282
4774.000	1.19789	-0.10741	0.74331	0.80560
4775.000	1.33424	-0.12530	0.89946	0.93285
4776.000	1.29669	-0.08552	0.86981	0.95075
4777.000	1.29076	-0.09945	0.94097	0.86920
4778.000	1.17418	-0.21282	0.80063	0.97861
4779.000	1.11291	-0.17703	0.94295	0.78766
4780.000	1.20184	-0.10542	0.85400	0.96269
4781.000	1.32040	-0.02387	0.78877	0.81753
4782.000	1.19591	-0.15116	0.82040	0.94480
4783.000	1.19196	-0.09149	0.80854	0.86923
4784.000	1.21963	-0.12133	0.84214	0.92491
4785.000	1.19196	-0.22277	0.88760	1.02830
4786.000	1.24136	-0.13923	0.94295	0.87715
4787.000	1.20975	-0.15315	0.85005	0.91695
4788.000	1.20382	-0.16310	0.87377	0.85529
4789.000	1.20184	-0.18498	0.84610	0.86524
4790.000	1.22951	-0.17702	0.81645	0.88912
4791.000	1.16825	-0.07757	0.83226	0.86724
4792.000	1.26508	-0.04972	0.91725	0.92688
4793.000	1.28088	0.03779	0.90934	0.95671
4794.000	1.20777	-0.13724	0.84214	0.84934
4795.000	1.28286	-0.11337	0.85203	0.91098
4796.000	1.19789	-0.08553	0.92516	0.82943
4797.000	1.17418	-0.18299	0.80063	0.92094
4798.000	1.25717	-0.14917	0.91923	0.88512
4799.000	1.19987	-0.00199	0.94295	0.94079
4800.000	1.34214	-0.15116	0.80854	0.83741
4801.000	1.15639	-0.24664	0.87377	0.91098
4802.000	1.27298	-0.07359	0.91923	0.96864
4803.000	1.23148	-0.13326	0.96073	0.88510
4804.000	1.15441	-0.08155	0.92120	0.85329
4805.000	1.17813	-0.08951	0.87179	0.94280
4806.000	1.26705	-0.14519	0.95678	0.92886
4807.000	1.30657	-0.14121	0.84412	0.93684
4808.000	1.12082	-0.13128	0.88563	0.97859
4809.000	1.14848	-0.17901	0.97852	0.84731
4810.000	1.21963	-0.12729	0.85993	0.83541
4811.000	1.14058	-0.12332	0.87772	0.88513
4812.000	1.16034	-0.15912	0.84412	1.00247
4813.000	1.11291	-0.21681	0.83028	0.86127
4814.000	1.21963	-0.10343	0.91132	0.87318
4815.000	1.23148	-0.09149	0.91330	0.89705
4816.000	1.14058	-0.06166	0.78877	0.86526
4817.000	1.24136	-0.16707	0.89749	0.89308
4818.000	1.14651	-0.16111	0.89353	0.86921
4819.000	1.20975	-0.21879	0.88167	0.81353
4820.000	1.17418	-0.10144	0.86388	0.84734
4821.000	1.22951	-0.27249	0.89156	0.80955
4822.000	1.14058	-0.24664	0.85203	0.85530
4823.000	1.17615	-0.18896	0.87574	0.92689
4824.000	1.07734	-0.19891	0.84610	0.92093
4825.000	1.15441	-0.24664	0.88365	0.90700
4826.000	1.18208	-0.08951	0.85796	0.86325
4827.000	1.10501	-0.13327	0.82040	0.85531
4828.000	1.23939	-0.17105	0.91330	0.94279
4829.000	1.19987	-0.23868	0.76505	1.00646
