time (ms)	lx (deg)	ly (deg)	rx (deg)	ry (deg)
0.000	-1.34412	1.34225	-2.28618	1.05941
1.000	-1.30657	1.19517	-2.29407	0.95010
2.000	-1.33424	1.17925	-2.28815	1.06338
3.000	-1.22160	1.23099	-2.30986	0.90240
4.000	-1.30064	1.15541	-2.17366	0.84087
5.000	-1.27100	1.18723	-2.28026	0.81497
6.000	-1.41525	1.27264	-2.27828	0.91831
7.000	-1.25717	1.27670	-2.30789	0.91631
8.000	-1.32040	1.27468	-2.22893	0.95611
9.000	-1.27298	1.25284	-2.28420	0.89248
10.000	-1.40142	1.14741	-2.28026	0.88850
11.000	-1.41327	1.09770	-2.29013	0.95805
12.000	-1.35202	1.16731	-2.23880	0.95411
13.000	-1.32633	1.17727	-2.31973	1.06137
14.000	-1.32831	1.16534	-2.23683	0.94418
15.000	-1.27891	1.13554	-2.29013	1.05940
16.000	-1.30262	1.19318	-2.22893	0.98194
17.000	-1.30855	1.13552	-2.43420	0.96590
18.000	-1.32633	1.22100	-2.30789	0.86265
19.000	-1.24136	1.22303	-2.31776	1.04547
20.000	-1.25322	1.14549	-2.22499	0.99387
21.000	-1.32633	1.07985	-2.31579	1.05938
22.000	-1.36190	1.05796	-2.26644	0.90839
23.000	-1.19394	1.21709	-2.41447	0.95002
24.000	-1.30657	1.09377	-2.18353	0.99986
25.000	-1.30855	1.19914	-2.32960	0.95803
26.000	-1.26508	1.20115	-2.26249	0.97000
27.000	-1.33819	1.11165	-2.26644	1.00378
28.000	-1.47847	1.04399	-2.36908	0.96396
29.000	-1.38758	1.10368	-2.34144	1.02161
30.000	-1.38561	1.08578	-2.31579	1.02958
31.000	-1.47452	1.07381	-2.41644	1.03944
32.000	-1.28879	1.17728	-2.29605	0.89247
33.000	-1.29867	1.10372	-2.31381	1.10111
34.000	-1.47254	1.03803	-2.23683	1.01572
35.000	-1.39549	1.05397	-2.25065	1.08328
36.000	-1.19987	1.17732	-2.21709	0.96406
37.000	-1.37968	1.13748	-2.32368	0.92425
38.000	-1.25915	1.12958	-2.33750	1.05937
39.000	-1.38166	1.17525	-2.32368	1.01963
40.000	-1.40339	1.15934	-2.35723	1.05736
41.000	-1.37178	1.05597	-2.28815	1.06537
42.000	-1.32238	1.09973	-2.28026	0.89645
43.000	-1.35992	1.14544	-2.41447	1.01559
44.000	-1.36783	1.29453	-2.38684	0.92619
45.000	-1.36190	1.24086	-2.41841	0.96989
46.000	-1.36783	1.15339	-2.27433	1.01172
47.000	-1.30460	1.14745	-2.22301	1.08330
48.000	-1.29867	1.12956	-2.19538	0.92632
49.000	-1.18801	1.04809	-2.04928	1.06951
50.000	-1.13860	1.19127	-1.89723	0.99606
51.000	-1.03386	0.99048	-1.77083	1.02396
52.000	-1.10303	0.98051	-1.66417	1.06577
53.000	-0.72354	1.06613	-1.28681	0.99039
54.000	-0.59308	1.06417	-1.11884	0.74784
55.000	-0.40330	0.94288	-0.92318	0.63850
56.000	-0.37760	0.91504	-0.79668	0.70217
57.000	-0.15223	0.88920	-0.54168	0.69624
58.000	-0.20165	0.76986	-0.49622	0.58684
59.000	-0.00791	0.75992	-0.29457	0.61272
60.000	0.01977	0.60079	-0.21352	0.40584
61.000	0.08897	0.58089	-0.22735	0.35212
62.000	0.09490	0.68433	-0.22735	0.40385
63.000	0.17595	0.74997	-0.20561	0.23674
64.000	0.11467	0.61670	-0.28864	0.37798
65.000	0.11467	0.61272	-0.31434	0.26459
66.000	0.22538	0.78179	-0.52784	0.36604
67.000	0.09490	0.76788	-0.41912	0.42174
68.000	0.13839	0.68831	-0.48435	0.30636
69.000	0.14234	0.74599	-0.56936	0.25264
70.000	0.02768	0.66643	-0.63064	0.39786
71.000	0.13839	0.70024	-0.63262	0.45952
72.000	0.04745	0.78180	-0.53180	0.44561
73.000	0.03954	0.75793	-0.56738	0.40781
74.000	0.05338	0.73605	-0.71959	0.55101
75.000	0.02372	0.79373	-0.56343	0.43765
76.000	0.03954	0.73406	-0.62075	0.37200
77.000	0.10083	0.68234	-0.68203	0.49333
78.000	0.02570	0.83153	-0.62668	0.38194
79.000	0.08699	0.75196	-0.70773	0.46349
80.000	0.01977	0.72611	-0.59703	0.54904
81.000	-0.15223	0.88125	-0.74726	0.45155
82.000	-0.11269	0.93893	-0.59506	0.27850
83.000	-0.02966	0.86534	-0.63657	0.45156
84.000	-0.02768	0.73008	-0.57133	0.50528
85.000	-0.10676	0.79373	-0.71168	0.52118
86.000	-0.04745	0.86335	-0.61878	0.49931
87.000	-0.12455	0.71218	-0.69982	0.47941
88.000	-0.05931	0.75992	-0.78877	0.54305
89.000	-0.06524	0.82556	-0.84807	0.43961
90.000	-0.10874	0.69030	-0.71761	0.47543
91.000	-0.02175	0.67041	-0.72157	0.52714
92.000	0.05733	0.77384	-0.71959	0.43962
93.000	-0.08501	0.72809	-0.72947	0.49930
94.000	-0.05140	0.60278	-0.74133	0.48935
95.000	-0.00989	0.76589	-0.70378	0.44360
96.000	-0.00593	0.73406	-0.76308	0.54703
97.000	-0.08501	0.85340	-0.69192	0.62262
98.000	-0.09292	0.72014	-0.77296	0.49133
99.000	-0.06524	0.79572	-0.72157	0.48338
100.000	-0.07908	0.81760	-0.90737	0.52115
101.000	-0.04943	0.70820	-0.82040	0.55697
102.000	-0.02175	0.77185	-0.83028	0.52713
103.000	-0.02570	0.79771	-0.79866	0.61465
104.000	-0.16409	0.73804	-0.80459	0.41773
105.000	-0.12257	0.65449	-0.70971	0.49731
106.000	-0.03954	0.76191	-0.78482	0.56294
107.000	-0.10083	0.82755	-0.81052	0.46547
108.000	-0.16211	0.76787	-0.82831	0.40381
109.000	-0.14037	0.69826	-0.74529	0.58482
110.000	-0.08501	0.75196	-0.68796	0.43366
111.000	-0.23526	0.61073	-0.83226	0.39187
112.000	0.03361	0.72809	-0.72157	0.55897
113.000	0.08106	0.78379	-0.68599	0.58682
114.000	-0.05140	0.60477	-0.80656	0.56294
115.000	-0.08106	0.71019	-0.76308	0.59676
116.000	0.01582	0.73207	-0.82238	0.54702
117.000	-0.05931	0.78976	-0.80063	0.49730
118.000	-0.11071	0.69030	-0.81447	0.48934
119.000	0.00000	0.58885	-0.84610	0.41773
120.000	0.03559	0.79373	-0.75122	0.44559
121.000	-0.02570	0.72412	-0.75715	0.42371
122.000	-0.05140	0.73207	-0.79075	0.52912
123.000	-0.06524	0.70820	-0.74924	0.37994
124.000	-0.13048	0.58686	-0.77691	0.39784
125.000	-0.05536	0.63659	-0.79668	0.51520
126.000	-0.11862	0.59283	-0.67610	0.47145
127.000	-0.02966	0.67638	-0.78680	0.37994
128.000	-0.06129	0.75196	-0.80854	0.45155
129.000	0.04547	0.62068	-0.75912	0.43962
130.000	-0.10478	0.70621	-0.66424	0.47543
131.000	-0.01186	0.59880	-0.75319	0.39188
132.000	0.01977	0.69826	-0.79668	0.29639
133.000	-0.03559	0.61869	-0.75912	0.38591
134.000	-0.04349	0.64654	-0.75122	0.33419
135.000	-0.16607	0.67637	-0.83621	0.41176
136.000	-0.10676	0.60477	-0.70378	0.43763
137.000	-0.05733	0.53713	-0.81842	0.44160
138.000	-0.04152	0.72213	-0.80261	0.47144
139.000	-0.06920	0.55504	-0.73936	0.35011
140.000	-0.05931	0.59283	-0.75122	0.35408
141.000	-0.15816	0.52917	-0.79273	0.29043
142.000	-0.12257	0.58288	-0.79866	0.53509
143.000	-0.12850	0.67041	-0.70378	0.45952
144.000	-0.09292	0.70025	-0.78284	0.37795
145.000	-0.05733	0.71616	-0.78284	0.32424
146.000	-0.07710	0.60874	-0.75319	0.42768
147.000	-0.10083	0.73207	-0.72947	0.44360
148.000	-0.10478	0.58089	-0.70971	0.43763
149.000	-0.21747	0.50530	-0.66820	0.43366
150.000	-0.08501	0.55503	-0.79273	0.44757
151.000	-0.13048	0.53116	-0.76505	0.37398
152.000	-0.07117	0.72213	-0.92911	0.34412
153.000	0.00000	0.48939	-0.80063	0.46149
154.000	-0.06722	0.56896	-0.81842	0.30634
155.000	-0.03559	0.55305	-0.67610	0.42570
156.000	-0.13048	0.73008	-0.74726	0.28844
157.000	0.01977	0.67837	-0.82040	0.44160
158.000	0.01779	0.64455	-0.79866	0.42967
159.000	-0.10280	0.69428	-0.72157	0.40183
160.000	-0.04547	0.61272	-0.76703	0.45951
161.000	-0.08303	0.67439	-0.78087	0.47144
162.000	-0.07513	0.67041	-0.78087	0.38989
163.000	-0.12060	0.75992	-0.75912	0.45155
164.000	-0.13839	0.59283	-0.79668	0.42569
165.000	-0.14234	0.67240	-0.71564	0.39586
166.000	-0.24119	0.59481	-0.77494	0.37397
167.000	-0.12455	0.60079	-0.82040	0.26854
168.000	-0.09885	0.60079	-0.70180	0.34016
169.000	-0.03954	0.66444	-0.88760	0.36402
170.000	-0.08106	0.69627	-0.80261	0.33817
171.000	-0.10083	0.57095	-0.82435	0.36601
172.000	-0.21352	0.64256	-0.78680	0.30037
173.000	-0.16211	0.68035	-0.78680	0.31430
174.000	-0.15223	0.66444	-0.82435	0.29639
175.000	-0.05931	0.74997	-0.71168	0.33221
176.000	-0.15816	0.66046	-0.73936	0.36801
177.000	-0.23724	0.64256	-0.77098	0.33419
178.000	-0.15816	0.69627	-0.68994	0.39387
179.000	-0.13246	0.73008	-0.76703	0.31231
180.000	-0.07315	0.73207	-0.84610	0.38789
181.000	-0.16211	0.63858	-0.66029	0.31431
182.000	-0.04152	0.74600	-0.86388	0.32822
183.000	-0.11862	0.53315	-0.85598	0.29241
184.000	-0.11664	0.74798	-0.87772	0.35407
185.000	-0.11269	0.60477	-0.81645	0.37198
186.000	-0.15816	0.66046	-0.80261	0.36999
187.000	-0.08897	0.73207	-0.75715	0.38989
188.000	-0.12257	0.53514	-0.78877	0.36801
189.000	-0.11269	0.75793	-0.80261	0.27252
190.000	-0.11071	0.72610	-0.76110	0.31231
191.000	-0.20363	0.71417	-0.78877	0.18301
192.000	-0.17991	0.71417	-0.63262	0.36205
193.000	-0.14037	0.73008	-0.80063	0.38193
194.000	-0.09885	0.65648	-0.70971	0.31430
195.000	-0.14234	0.61073	-0.70575	0.32624
196.000	-0.11071	0.65450	-0.67808	0.23474
197.000	-0.04943	0.66245	-0.83424	0.22279
198.000	-0.10676	0.61869	-0.74726	0.34215
199.000	-0.22735	0.72212	-0.73738	0.28247
200.000	-0.16804	0.63858	-0.71366	0.21086
201.000	-0.13641	0.71417	-0.74726	0.37597
202.000	-0.18781	0.63460	-0.86191	0.30435
203.000	-0.18584	0.81362	-0.66029	0.34017
204.000	-0.13641	0.67836	-0.78284	0.37994
205.000	-0.03163	0.71019	-0.84412	0.20290
206.000	-0.15223	0.63261	-0.73936	0.31629
207.000	-0.18386	0.67240	-0.62668	0.40382
208.000	-0.18188	0.66643	-0.80459	0.19693
209.000	-0.09094	0.73605	-0.71761	0.32425
210.000	-0.14827	0.69030	-0.79866	0.35806
211.000	-0.10280	0.66643	-0.74133	0.20092
212.000	-0.18584	0.70820	-0.77494	0.31430
213.000	-0.16211	0.69825	-0.86784	0.31031
214.000	-0.13839	0.68632	-0.67215	0.23076
215.000	-0.16804	0.70223	-0.78087	0.38790
216.000	-0.08699	0.65052	-0.74133	0.27253
217.000	-0.01977	0.65649	-0.71168	0.31629
218.000	-0.07117	0.66046	-0.65831	0.29839
219.000	-0.10676	0.68234	-0.73936	0.25065
220.000	-0.08501	0.64455	-0.71564	0.20887
221.000	-0.12455	0.69627	-0.71564	0.29441
222.000	-0.02570	0.71019	-0.64843	0.37001
223.000	-0.19177	0.71616	-0.75715	0.28048
224.000	-0.09292	0.70621	-0.77296	0.18699
225.000	-0.20363	0.64057	-0.74924	0.27651
226.000	-0.17002	0.70820	-0.76505	0.23871
227.000	-0.17398	0.58885	-0.74726	0.37597
228.000	-0.23922	0.73207	-0.70575	0.20887
229.000	-0.27480	0.67836	-0.61482	0.34813
230.000	-0.23131	0.62664	-0.68796	0.36404
231.000	-0.16211	0.61272	-0.64448	0.36205
232.000	-0.16804	0.64654	-0.72552	0.14124
233.000	-0.10280	0.63858	-0.75517	0.28446
234.000	-0.01977	0.67837	-0.76505	0.27849
235.000	-0.20956	0.57492	-0.77296	0.29640
236.000	-0.13246	0.66842	-0.76110	0.37000
237.000	-0.20363	0.66444	-0.72157	0.11737
238.000	-0.17793	0.35013	-0.74331	0.26656
239.000	-0.06524	0.64057	-0.80261	0.29441
240.000	-0.19375	0.62068	-0.77296	0.28247
241.000	-0.16211	0.57493	-0.86784	0.13726
242.000	-0.23922	0.66643	-0.81842	0.27053
243.000	-0.15223	0.55304	-0.75912	0.24667
244.000	-0.15618	0.68035	-0.75912	0.21086
245.000	-0.13641	0.48342	-0.70575	0.25264
246.000	-0.23526	0.68831	-0.85598	0.28446
247.000	-0.13444	0.53116	-0.77494	0.21683
248.000	-0.15816	0.51923	-0.73145	0.22280
249.000	-0.13444	0.51326	-0.78877	0.22677
250.000	-0.13444	0.56896	-0.70773	0.27054
251.000	-0.12850	0.52122	-0.76505	0.28645
252.000	-0.08501	0.49735	-0.69982	0.29441
253.000	-0.11071	0.43568	-0.71761	0.27054
254.000	-0.17200	0.46751	-0.72354	0.24866
255.000	-0.24119	0.56697	-0.56738	0.19098
256.000	-0.09094	0.59880	-0.88958	0.27053
257.000	-0.20561	0.36406	-0.63657	0.21087
258.000	-0.18979	0.57492	-0.72157	0.24070
259.000	-0.16607	0.56697	-0.73540	0.25860
260.000	-0.17002	0.42175	-0.74331	0.28048
261.000	-0.20956	0.52718	-0.78482	0.26258
262.000	-0.15618	0.50530	-0.77494	0.32425
263.000	-0.17398	0.44761	-0.72947	0.14522
264.000	-0.23131	0.37600	-0.69192	0.14124
265.000	-0.22933	0.47546	-0.76308	0.22081
266.000	-0.24712	0.44164	-0.83424	0.37994
267.000	-0.11269	0.42374	-0.76110	0.30038
268.000	-0.22735	0.44562	-0.72157	0.34812
269.000	-0.16607	0.38992	-0.77691	0.22478
270.000	-0.26096	0.36406	-0.70180	0.20887
271.000	-0.21747	0.42175	-0.69587	0.17705
272.000	-0.18188	0.46949	-0.80261	0.25462
273.000	-0.23131	0.52519	-0.77296	0.24070
274.000	-0.11862	0.41777	-0.69982	0.23076
275.000	-0.12060	0.39788	-0.72157	0.08554
276.000	-0.16409	0.53116	-0.79668	0.17903
277.000	-0.21352	0.40782	-0.80459	0.29838
278.000	-0.24119	0.47944	-0.73343	0.15118
279.000	-0.15421	0.50729	-0.75517	0.17903
280.000	-0.15025	0.54907	-0.75715	0.17108
281.000	-0.25701	0.38594	-0.77296	0.19892
282.000	-0.17398	0.39788	-0.73540	0.30833
283.000	-0.29062	0.36605	-0.72157	0.23076
284.000	-0.23329	0.50331	-0.81249	0.26258
285.000	-0.28073	0.30239	-0.67610	0.15914
286.000	-0.14827	0.38395	-0.83028	0.19892
287.000	-0.28864	0.48540	-0.70773	0.15516
288.000	-0.17793	0.34616	-0.69982	0.23672
289.000	-0.22933	0.47148	-0.73738	0.19097
290.000	-0.20363	0.51923	-0.87970	0.14720
291.000	-0.16211	0.41578	-0.77889	0.15715
292.000	-0.08897	0.42175	-0.83028	0.21086
293.000	-0.13048	0.49536	-0.81447	0.16710
294.000	-0.10478	0.27852	-0.75122	0.21683
295.000	-0.20363	0.31035	-0.64843	0.15914
296.000	-0.20561	0.43369	-0.71564	0.18301
297.000	-0.12653	0.36605	-0.79866	0.23075
298.000	-0.18584	0.31632	-0.78482	0.29043
299.000	-0.19968	0.26260	-0.84017	0.19494
300.000	-0.22735	0.32228	-0.70575	0.21086
301.000	-0.17200	0.39191	-0.67017	0.23673
302.000	-0.21352	0.35212	-0.88563	0.24268
303.000	-0.18979	0.41777	-0.80261	0.24865
304.000	-0.20758	0.33024	-0.83621	0.26457
305.000	-0.21154	0.31830	-0.71959	0.19893
306.000	-0.20561	0.40584	-0.74529	0.30634
307.000	-0.24119	0.38793	-0.83028	0.20688
308.000	-0.21945	0.28250	-0.79075	0.19693
309.000	-0.17991	0.37799	-0.67610	0.20888
310.000	-0.20363	0.38395	-0.81052	0.16511
311.000	-0.09687	0.29045	-0.77098	0.23075
312.000	-0.23922	0.36804	-0.74331	0.20887
313.000	-0.18781	0.34218	-0.93899	0.22875
314.000	-0.10676	0.33422	-0.76505	0.13925
315.000	-0.18781	0.29841	-0.73738	0.16511
316.000	-0.13641	0.32228	-0.82633	0.20887
317.000	-0.18584	0.44164	-0.73343	0.15516
318.000	-0.07908	0.32427	-0.82238	0.26457
319.000	-0.12060	0.47546	-0.72750	0.35210
320.000	-0.10083	0.38594	-0.85796	0.17306
321.000	-0.11467	0.45557	-0.72552	0.20291
322.000	-0.22538	0.33820	-0.68006	0.21484
323.000	-0.21549	0.39191	-0.69192	0.18898
324.000	-0.13641	0.37799	-0.68796	0.18699
325.000	-0.24119	0.37401	-0.89551	0.21284
326.000	-0.11467	0.33422	-0.77691	0.16710
327.000	-0.16211	0.24868	-0.70575	0.24667
328.000	-0.07908	0.20690	-0.71761	0.24667
329.000	-0.12455	0.41379	-0.73343	0.04973
330.000	-0.20165	0.31234	-0.85796	0.26456
331.000	-0.11862	0.35610	-0.74726	0.16909
332.000	-0.28469	0.41578	-0.91132	0.19693
333.000	-0.19572	0.38196	-0.82040	0.16908
334.000	-0.15223	0.34019	-0.72354	0.20688
335.000	-0.09292	0.46353	-0.78087	0.06366
336.000	-0.11071	0.42374	-0.83621	0.19295
337.000	-0.16211	0.28449	-0.86586	0.14919
338.000	-0.11269	0.34417	-0.80459	0.20688
339.000	-0.12850	0.45955	-0.75517	0.13328
340.000	-0.15618	0.35014	-0.82040	0.16710
341.000	-0.16409	0.30637	-0.85796	0.20489
342.000	-0.22142	0.46949	-0.88167	0.15715
343.000	-0.11862	0.42374	-0.77889	0.22478
344.000	-0.17200	0.31234	-0.79075	0.14323
345.000	-0.17002	0.37799	-0.84214	0.12731
346.000	-0.21352	0.32825	-0.73936	0.18301
347.000	-0.17200	0.41578	-0.79866	0.29043
348.000	-0.22142	0.42772	-0.83819	0.28645
349.000	-0.34004	0.46949	-0.74331	0.20290
350.000	-0.24317	0.37798	-0.68006	0.09350
351.000	-0.18188	0.43767	-0.71564	0.35807
352.000	-0.26492	0.45955	-0.68796	0.32226
353.000	-0.19177	0.50132	-0.58320	0.31232
354.000	-0.11467	0.44761	-0.42109	0.33421
355.000	-0.09292	0.38396	-0.45865	0.42174
356.000	-0.04943	0.23873	-0.17002	0.23077
357.000	0.09094	0.30438	-0.05931	0.45159
358.000	0.11664	0.32825	0.00593	0.26061
359.000	0.18979	0.32825	0.11664	0.09947
360.000	0.40726	0.35610	0.19572	0.20491
361.000	0.29852	0.20690	0.18188	0.09549
362.000	0.31632	0.22281	0.27678	0.04974
363.000	0.43493	0.33023	0.35190	-0.02586
364.000	0.42900	0.34416	0.33609	-0.09549
365.000	0.35783	0.20491	0.29062	-0.07361
366.000	0.40330	0.23674	0.21154	-0.18899
367.000	0.41121	0.36803	0.09292	0.06963
368.000	0.31236	0.22082	0.16607	-0.14921
369.000	0.31039	0.44562	-0.04943	-0.08555
370.000	0.28073	0.26459	0.03756	0.00398
371.000	0.33411	0.20491	-0.05140	-0.03382
372.000	0.22735	0.27255	-0.12850	0.05968
373.000	0.30446	0.31830	-0.06129	0.04775
374.000	0.40330	0.28448	0.01779	0.03979
375.000	0.49622	0.28448	-0.03954	0.04775
376.000	0.36179	0.27453	-0.10280	0.05968
377.000	0.31236	0.29045	-0.12850	-0.01194
378.000	0.26689	0.27653	-0.07117	0.11340
379.000	0.27480	0.31035	-0.12653	0.02586
380.000	0.33213	0.34615	-0.01582	0.14523
381.000	0.21945	0.26459	-0.13246	0.02586
382.000	0.19177	0.26459	-0.05733	-0.02188
383.000	0.19177	0.23475	-0.06722	0.08952
384.000	0.27282	0.25464	-0.10676	-0.00995
385.000	0.21945	0.32427	-0.15816	0.08952
386.000	0.23922	0.36406	-0.05338	0.15120
387.000	0.21747	0.24072	-0.01779	-0.09947
388.000	0.26096	0.26459	-0.07710	0.11937
389.000	0.19177	0.25464	-0.07908	0.22083
390.000	0.32027	0.37599	-0.05536	-0.00398
391.000	0.35190	0.30438	-0.04152	0.05769
392.000	0.31829	0.37599	-0.17002	-0.01989
393.000	0.27678	0.36804	-0.02372	-0.01592
394.000	0.22142	0.30239	-0.02768	0.09350
395.000	0.27876	0.42573	-0.12455	-0.00398
396.000	0.21154	0.33223	-0.20956	0.11539
397.000	0.29852	0.31830	-0.11664	0.06167
398.000	0.27876	0.35013	-0.10676	0.06167
399.000	0.36772	0.31631	-0.13641	0.08952
400.000	0.29259	0.26061	-0.15223	0.01194
401.000	0.28666	0.39191	-0.11269	0.05173
402.000	0.32027	0.31631	-0.14630	0.02586
403.000	0.20165	0.25067	-0.15421	-0.05173
404.000	0.30248	0.31631	-0.22340	0.14125
405.000	0.33609	0.26260	-0.17002	0.08157
406.000	0.33213	0.31830	-0.15618	0.03979
407.000	0.37563	0.46750	-0.23131	0.11539
408.000	0.22735	0.24669	-0.24910	0.07560
409.000	0.28666	0.22480	-0.25108	-0.04377
410.000	0.28271	0.40981	-0.20165	0.09350
411.000	0.31434	0.36804	-0.18979	0.12732
412.000	0.33411	0.34416	-0.20165	-0.00398
413.000	0.26689	0.34218	-0.17002	0.05570
414.000	0.41121	0.33620	-0.16014	0.00000
415.000	0.34399	0.35809	-0.20165	0.08157
416.000	0.33609	0.35411	-0.22340	0.02586
417.000	0.30841	0.17905	-0.12653	0.00796
418.000	0.38156	0.40981	-0.25108	0.06764
419.000	0.25503	0.27255	-0.22340	0.02387
420.000	0.29655	0.44761	-0.22538	0.09549
421.000	0.31236	0.31830	-0.25701	-0.00398
422.000	0.34993	0.31432	-0.20561	0.11937
423.000	0.37167	0.34217	-0.18979	0.08753
424.000	0.30446	0.26658	-0.20758	0.16512
425.000	0.27480	0.35013	-0.23131	-0.01989
426.000	0.30446	0.36008	-0.14432	0.05173
427.000	0.27282	0.37202	-0.22735	0.13528
428.000	0.35586	0.35013	-0.33411	0.06565
429.000	0.20758	0.31830	-0.30841	0.15119
430.000	0.25701	0.36605	-0.14234	0.11340
431.000	0.32027	0.30438	-0.18386	-0.03382
432.000	0.33016	0.39787	-0.23329	0.00995
433.000	0.20363	0.29841	-0.16409	-0.09748
434.000	0.24317	0.46949	-0.20956	0.04775
435.000	0.27480	0.30040	-0.18979	0.07560
436.000	0.30643	0.34018	-0.22538	0.06764
437.000	0.22735	0.37997	-0.15223	0.17109
438.000	0.30643	0.22480	-0.16804	0.01790
439.000	0.27282	0.29841	-0.19770	0.16114
440.000	0.37958	0.37997	-0.18386	0.06167
441.000	0.22142	0.37401	-0.17200	0.15517
442.000	0.21945	0.35013	-0.17991	-0.00199
443.000	0.32027	0.33223	-0.27678	0.02188
444.000	0.30446	0.33422	-0.15816	0.05769
445.000	0.28469	0.40981	-0.22142	0.15319
446.000	0.32422	0.55105	-0.16409	0.02188
447.000	0.29062	0.32029	-0.22340	-0.02984
448.000	0.24515	0.30637	-0.16804	0.12135
449.000	0.25108	0.27255	-0.20363	0.08356
450.000	0.26689	0.43169	-0.19375	0.04974
451.000	0.32225	0.30040	-0.27876	0.04974
452.000	0.21154	0.32029	-0.15421	0.10942
453.000	0.19375	0.47546	-0.21945	-0.02188
454.000	0.25503	0.42573	-0.14432	0.04974
455.000	0.33213	0.42572	-0.23329	0.15716
456.000	0.28864	0.37798	-0.16607	0.11539
457.000	0.26294	0.41578	-0.28864	0.08952
458.000	0.23131	0.31433	-0.21352	0.04775
459.000	0.20165	0.41777	-0.24515	0.14722
460.000	0.19968	0.30040	-0.18188	0.12334
461.000	0.23922	0.42573	-0.15223	0.05570
462.000	0.22735	0.36804	-0.11269	0.04775
463.000	0.28469	0.28846	-0.24119	0.08554
464.000	0.30050	0.32825	-0.14037	0.03979
465.000	0.21154	0.36008	-0.22933	0.00995
466.000	0.18386	0.33223	-0.20758	0.18502
467.000	0.27282	0.34814	-0.27282	0.10146
468.000	0.22735	0.18700	-0.11071	0.02785
469.000	0.18386	0.30637	-0.28073	0.05968
470.000	0.24712	0.31432	-0.22735	0.08555
471.000	0.12850	0.28250	-0.18386	0.14722
472.000	0.16014	0.34616	-0.21352	0.16711
473.000	0.20758	0.33223	-0.22340	0.17507
474.000	0.16607	0.28648	-0.30050	0.11340
475.000	0.19375	0.14523	-0.17200	0.06366
476.000	0.26492	0.29045	-0.30643	0.20690
477.000	0.26492	0.31830	-0.29852	-0.02188
478.000	0.17793	0.29841	-0.30446	0.01393
479.000	0.18188	0.30239	-0.28469	0.06366
480.000	0.20561	0.39788	-0.25503	0.09947
481.000	0.18188	0.32029	-0.14827	0.01393
482.000	0.25305	0.35411	-0.24119	0.16711
483.000	0.09885	0.27852	-0.23131	-0.04974
484.000	0.19770	0.27255	-0.22735	0.05968
485.000	0.23526	0.25464	-0.15223	0.09151
486.000	0.18386	0.36406	-0.21154	0.01592
487.000	0.22142	0.36406	-0.12455	0.06764
488.000	0.21154	0.38395	-0.23922	0.10743
489.000	0.19177	0.38992	-0.22142	0.07759
490.000	0.21352	0.39788	-0.23922	0.15517
491.000	0.18584	0.40981	-0.12257	0.12732
492.000	0.12257	0.30239	-0.23329	0.11141
493.000	0.23724	0.37003	-0.16014	0.02387
494.000	0.11664	0.29841	-0.20363	0.05968
495.000	0.16409	0.27653	-0.19177	0.06167
496.000	0.24712	0.36207	-0.13839	-0.06963
497.000	0.25701	0.46153	-0.23526	0.14921
498.000	0.19177	0.36008	-0.27282	0.09947
499.000	0.13444	0.31831	-0.15618	0.13926
500.000	0.15816	0.37600	-0.14827	0.12334
501.000	0.09094	0.34616	-0.21352	0.08157
502.000	0.18584	0.41777	-0.31039	0.13727
503.000	0.14037	0.35610	-0.17793	-0.02586
504.000	0.24317	0.19297	-0.22142	0.04974
505.000	0.16014	0.19297	-0.17002	0.07958
506.000	0.11269	0.33024	-0.23724	0.08356
507.000	0.16211	0.34417	-0.19572	0.08952
508.000	0.10083	0.34616	-0.20758	0.14523
509.000	0.07315	0.30040	-0.20363	0.13130
510.000	0.21154	0.33223	-0.27876	0.01393
511.000	0.08699	0.43170	-0.23724	0.28846
512.000	0.15421	0.26260	-0.29062	0.16114
513.000	0.09885	0.23475	-0.22538	0.07759
514.000	0.21945	0.23077	-0.25899	0.09350
515.000	0.08501	0.18303	-0.22933	0.18502
516.000	0.13246	0.27852	-0.25701	0.22878
517.000	0.18979	0.19894	-0.21352	0.04178
518.000	0.16014	0.20889	-0.23131	0.11738
519.000	0.19770	0.24868	-0.21154	0.08356
520.000	0.15421	0.26260	-0.22538	0.05172
521.000	0.17002	0.18701	-0.27876	0.13528
522.000	0.29655	0.28647	-0.16211	0.06565
523.000	0.14432	0.16313	-0.31236	0.08356
524.000	0.14630	0.27454	-0.26096	0.02188
525.000	0.19375	0.30836	-0.25503	0.04576
526.000	0.23922	0.23873	-0.22933	0.12135
527.000	0.26096	0.21685	-0.25503	0.04775
528.000	0.07513	0.22481	-0.31039	0.06963
529.000	0.15618	0.23475	-0.26294	0.05968
530.000	0.12455	0.26658	-0.33016	0.09350
531.000	0.02768	0.13329	-0.31632	0.09549
532.000	0.15223	0.22083	-0.27678	0.05570
533.000	0.14037	0.09151	-0.19770	0.10942
534.000	0.19375	0.28846	-0.28864	0.04775
535.000	0.12257	0.15319	-0.35388	0.17706
536.000	0.19572	0.21685	-0.26492	0.10743
537.000	0.13641	0.33223	-0.24119	0.05570
538.000	0.12257	0.22083	-0.26492	-0.03382
539.000	0.13839	0.29841	-0.27282	0.10146
540.000	0.13444	0.24271	-0.25305	0.13926
541.000	-0.01186	0.20889	-0.25701	0.13130
542.000	0.14234	0.21685	-0.30643	0.12732
543.000	0.11467	0.37600	-0.25305	0.10146
544.000	0.08106	0.16711	-0.23329	0.00796
545.000	0.13444	0.26658	-0.28271	0.33820
546.000	0.15618	0.24072	-0.20956	0.02188
547.000	0.15816	0.36406	-0.27876	0.08157
548.000	0.15421	0.29244	-0.24317	-0.02387
549.000	0.08303	0.29045	-0.28469	0.13329
550.000	0.14827	0.26658	-0.26294	0.11340
551.000	0.11071	0.26857	-0.07315	0.00199
552.000	0.05140	0.28051	-0.21549	0.13926
553.000	0.16211	0.22480	-0.23724	0.15318
554.000	0.11467	0.31831	-0.21154	0.12533
555.000	0.08897	0.30836	-0.38353	0.17904
556.000	0.13444	0.31234	-0.29457	0.06366
557.000	0.20956	0.22082	-0.32422	0.18899
558.000	0.06722	0.26260	-0.20165	0.00000
559.000	0.14037	0.28051	-0.31236	0.18700
560.000	0.15421	0.25663	-0.33213	0.19098
561.000	0.13048	0.23674	-0.24910	0.17507
562.000	0.15421	0.29642	-0.31632	0.14523
563.000	0.08106	0.29045	-0.20956	0.06167
564.000	0.13641	0.24072	-0.25503	0.17109
565.000	-0.00989	0.26658	-0.18386	0.24072
566.000	0.16804	0.37202	-0.20165	0.03382
567.000	0.07710	0.16711	-0.33806	0.23674
568.000	0.18386	0.26260	-0.27480	0.16711
569.000	0.01186	0.23873	-0.28864	0.19297
570.000	0.13048	0.30239	-0.23329	0.03183
571.000	0.05140	0.24470	-0.23329	0.16711
572.000	0.08303	0.14324	-0.32422	0.20093
573.000	0.09687	0.28051	-0.22142	0.20690
574.000	0.13246	0.30040	-0.31829	-0.07361
575.000	0.10478	0.29841	-0.23724	0.11340
576.000	0.08106	0.27255	-0.24910	0.31234
577.000	0.08501	0.27056	-0.24712	0.10345
578.000	0.23526	0.22281	-0.27282	0.09748
579.000	0.13246	0.33820	-0.34795	0.25265
580.000	0.11269	0.17905	-0.27678	0.17905
581.000	0.16211	0.25465	-0.22933	0.20093
582.000	0.09687	0.26061	-0.31434	0.10743
583.000	0.13444	0.30239	-0.27085	0.12931
584.000	0.14234	0.29045	-0.27480	0.15517
585.000	0.11269	0.23873	-0.25503	0.19695
586.000	0.14432	0.21486	-0.23724	0.20491
587.000	0.16211	0.35809	-0.29655	0.13727
588.000	0.05931	0.18701	-0.30841	0.22082
589.000	0.13444	0.23873	-0.23922	0.18104
590.000	0.09687	0.18701	-0.27678	0.23475
591.000	0.15816	0.25663	-0.29259	0.37997
592.000	0.06920	0.34815	-0.34202	0.14722
593.000	0.14234	0.28051	-0.29457	0.19496
594.000	0.09687	0.14523	-0.26096	0.26260
595.000	0.11862	0.10942	-0.25305	0.20690
596.000	0.16014	0.31632	-0.25503	0.13528
597.000	0.18584	0.18303	-0.30050	0.13528
598.000	0.07117	0.24669	-0.23724	0.11141
599.000	0.06524	0.19496	-0.42505	0.30238
600.000	0.13048	0.26061	-0.37563	0.24668
601.000	0.13048	0.23873	-0.28666	0.15318
602.000	0.00791	0.19894	-0.31039	0.24669
603.000	0.18781	0.19894	-0.27876	0.25464
604.000	0.04943	0.10146	-0.27876	0.13329
605.000	0.04943	0.18701	-0.18979	0.30836
606.000	0.00395	0.15518	-0.25899	0.15915
607.000	0.10874	0.34019	-0.46459	0.22878
608.000	0.05140	0.24470	-0.36969	0.12334
609.000	0.10280	0.21088	-0.18781	0.07361
610.000	0.14432	0.34616	-0.26294	0.10544
611.000	0.14234	0.24470	-0.28469	0.21883
612.000	0.06129	0.17109	-0.34597	0.13329
613.000	0.06524	0.19099	-0.33016	0.28249
614.000	0.06722	0.27255	-0.32027	0.16512
615.000	0.07117	0.17109	-0.39737	0.16910
616.000	0.14037	0.15120	-0.28271	0.16313
617.000	0.06129	0.03979	-0.34597	0.25862
618.000	0.01779	0.22481	-0.32818	0.11936
619.000	0.00989	0.15717	-0.27282	0.16114
620.000	0.02372	0.21685	-0.37167	0.22878
621.000	0.07117	0.07560	-0.35783	0.21883
622.000	0.02372	0.21685	-0.20956	0.16910
623.000	0.08897	0.15518	-0.34795	0.15517
624.000	0.04547	0.19099	-0.26294	0.17507
625.000	0.01779	0.14722	-0.25108	-0.00995
626.000	0.03954	0.22481	-0.41516	0.17308
627.000	0.04943	0.22282	-0.39737	0.17308
628.000	0.03954	0.21088	-0.40528	0.18899
629.000	0.06920	0.21486	-0.33213	0.03979
630.000	0.06722	0.15319	-0.34202	0.22281
631.000	0.12060	0.04974	-0.26689	0.17507
632.000	0.12257	0.14722	-0.34202	0.12732
633.000	0.23922	0.16711	-0.36376	0.18700
634.000	0.07315	0.17109	-0.39935	0.25066
635.000	0.07908	0.22878	-0.36969	0.20093
636.000	0.00989	0.16512	-0.32225	0.16711
637.000	-0.03559	0.09151	-0.30841	0.17507
638.000	0.09885	0.31035	-0.28073	0.23475
639.000	0.07117	0.28648	-0.24712	0.12931
640.000	0.00593	0.20292	-0.35190	0.25663
641.000	0.00000	0.21685	-0.26689	0.21088
642.000	-0.03163	0.10345	-0.31039	0.19496
643.000	-0.01977	0.12533	-0.36574	0.19695
644.000	0.08501	0.11539	-0.38749	0.15119
645.000	0.06722	0.12931	-0.37563	0.25862
646.000	-0.09885	0.12732	-0.26689	0.16711
647.000	-0.02768	0.17308	-0.34795	0.23077
648.000	0.15816	0.11539	-0.32027	0.20889
649.000	0.06524	0.13727	-0.36376	0.19297
650.000	-0.00395	0.10345	-0.26887	0.16711
651.000	0.00593	0.07958	-0.35388	0.14920
652.000	0.02570	0.22282	-0.35190	0.17507
653.000	-0.01779	0.04576	-0.36574	0.16711
654.000	0.02966	0.11539	-0.22142	0.01393
655.000	0.01384	0.10544	-0.28271	0.13528
656.000	0.02966	0.13130	-0.38156	0.25464
657.000	-0.04349	0.08157	-0.28864	0.18303
658.000	0.00000	0.11340	-0.29655	0.25265
659.000	-0.01977	-0.01790	-0.29457	0.24867
660.000	-0.03361	0.00199	-0.36772	0.27652
661.000	-0.00989	0.06565	-0.29852	0.17706
662.000	-0.10676	-0.04377	-0.29457	0.20093
663.000	-0.09490	0.11340	-0.39935	0.12732
664.000	-0.01779	0.02387	-0.28469	0.10146
665.000	-0.03559	0.02188	-0.21945	0.07361
666.000	-0.05733	0.00398	-0.30050	0.17905
667.000	0.02175	0.03979	-0.34795	0.21883
668.000	-0.00395	0.01989	-0.25108	0.10743
669.000	-0.02372	0.13130	-0.52389	0.21087
670.000	0.05140	0.03979	-0.46063	0.14323
671.000	-0.07908	0.04775	-0.31434	0.11737
672.000	-0.09094	0.05968	-0.36969	0.07361
673.000	-0.16804	0.03183	-0.30446	0.13329
674.000	-0.02768	-0.06764	-0.21352	0.20889
675.000	-0.13444	-0.10146	-0.21549	0.01592
676.000	0.01186	0.11141	-0.36772	0.14721
677.000	-0.00989	0.03979	-0.30446	0.14921
678.000	-0.05140	0.04974	-0.29655	0.08952
679.000	-0.11862	0.11738	-0.33016	0.12334
680.000	-0.02966	0.02984	-0.29852	0.22679
681.000	-0.14630	0.02387	-0.33016	0.26459
682.000	-0.11269	0.10345	-0.32620	0.21684
683.000	-0.13839	-0.03581	-0.23329	0.03780
684.000	-0.01186	0.05769	-0.35981	0.07162
685.000	-0.04745	0.12931	-0.31039	0.02984
686.000	-0.18386	0.01194	-0.28073	0.20292
687.000	-0.02966	0.12732	-0.36574	0.01592
688.000	-0.19572	0.02188	-0.33016	0.22082
689.000	-0.09490	0.06963	-0.46854	0.27055
690.000	-0.14827	0.00597	-0.37760	0.10942
691.000	-0.12060	-0.06963	-0.34399	0.11340
692.000	-0.06920	0.09947	-0.30446	0.17706
693.000	-0.10083	0.08754	-0.31236	0.15716
694.000	-0.12653	0.06167	-0.40133	0.20491
695.000	-0.09292	0.06565	-0.35981	0.16114
696.000	-0.26096	0.00199	-0.25108	0.08554
697.000	-0.01977	0.12136	-0.31236	0.13130
698.000	-0.15223	-0.10345	-0.42307	0.07361
699.000	-0.13641	0.05371	-0.23922	0.07560
700.000	-0.12060	0.01989	-0.31632	0.08157
701.000	-0.15816	0.01790	-0.25503	0.10544
702.000	-0.20165	-0.04775	-0.31829	0.09947
703.000	-0.13641	0.01194	-0.36179	-0.01393
704.000	-0.12850	-0.14523	-0.34597	-0.01989
705.000	-0.16211	-0.06366	-0.31039	0.10942
706.000	-0.17200	-0.06963	-0.27085	0.03979
707.000	-0.16607	-0.01592	-0.39342	0.16910
708.000	-0.15421	-0.05769	-0.30050	0.05172
709.000	-0.14432	-0.12136	-0.30248	0.07958
710.000	-0.14234	-0.06167	-0.34597	0.01393
711.000	-0.08303	0.00796	-0.26887	-0.03979
712.000	-0.11862	0.00398	-0.20165	0.07560
713.000	-0.19770	-0.03183	-0.24317	0.16313
714.000	-0.09490	-0.09549	-0.36179	0.17706
715.000	-0.15025	0.01989	-0.30050	0.10345
716.000	-0.13246	-0.00597	-0.34004	0.14523
717.000	-0.24712	-0.14523	-0.25899	0.27255
718.000	-0.20363	-0.00398	-0.31829	0.03780
719.000	-0.18386	-0.14921	-0.34597	0.10942
720.000	-0.17200	-0.13528	-0.30050	0.05570
721.000	-0.21352	0.00995	-0.26887	0.20889
722.000	-0.29457	-0.19695	-0.34993	0.18700
723.000	-0.25108	-0.10942	-0.32620	0.18302
724.000	-0.31236	-0.18104	-0.40923	0.20690
725.000	-0.21154	-0.16711	-0.31434	0.14921
726.000	-0.27876	-0.05968	-0.33016	0.25066
727.000	-0.30050	-0.16910	-0.39935	0.23475
728.000	-0.11071	-0.16711	-0.31829	0.24072
729.000	-0.23724	-0.09549	-0.26689	0.15120
730.000	-0.14630	-0.04178	-0.32620	0.27851
731.000	-0.28864	-0.23077	-0.29259	0.00796
732.000	-0.25701	-0.21486	-0.33411	0.11340
733.000	-0.27282	-0.09549	-0.27678	0.14722
734.000	-0.20561	-0.24669	-0.28864	0.19297
735.000	-0.25701	-0.04775	-0.39737	0.20491
736.000	-0.20758	-0.17109	-0.41714	0.16313
737.000	-0.20363	-0.09151	-0.39144	0.08753
738.000	-0.16804	-0.05173	-0.34597	0.10743
739.000	-0.24317	-0.27255	-0.32818	0.18104
740.000	-0.33411	-0.14324	-0.36969	0.10544
741.000	-0.18781	-0.21685	-0.37760	0.16910
742.000	-0.20561	-0.19496	-0.27085	0.16910
743.000	-0.24317	-0.20889	-0.42109	0.20689
744.000	-0.16804	-0.13329	-0.22538	0.16711
745.000	-0.21747	-0.12135	-0.37563	0.19695
746.000	-0.22933	-0.10146	-0.37958	0.06963
747.000	-0.32225	-0.21684	-0.39342	0.05570
748.000	-0.20363	-0.10942	-0.29457	0.18501
749.000	-0.24119	-0.22480	-0.33411	0.17109
750.000	-0.29852	-0.18104	-0.33016	0.15716
751.000	-0.33213	-0.05371	-0.36969	0.21883
752.000	-0.20758	-0.17507	-0.39144	0.19098
753.000	-0.28271	-0.15716	-0.25503	0.18899
754.000	-0.23724	-0.08554	-0.32027	0.05570
755.000	-0.22933	-0.18104	-0.20561	0.14324
756.000	-0.25701	-0.17109	-0.35783	0.10146
757.000	-0.21549	-0.20292	-0.28864	0.13727
758.000	-0.21747	-0.23674	-0.34004	0.09350
759.000	-0.22735	-0.22082	-0.36574	0.23674
760.000	-0.22340	-0.20093	-0.27480	0.17905
761.000	-0.28864	-0.17308	-0.36376	0.21883
762.000	-0.17002	-0.14324	-0.39539	0.15915
763.000	-0.22735	-0.20889	-0.28666	0.16711
764.000	-0.25503	-0.29443	-0.37760	0.11141
765.000	-0.25701	-0.11141	-0.44284	0.14522
766.000	-0.19572	-0.23276	-0.31632	0.20292
767.000	-0.12455	-0.11937	-0.36574	0.15716
768.000	-0.19572	-0.10942	-0.30446	0.11737
769.000	-0.10874	-0.21685	-0.27678	0.25862
770.000	-0.19375	0.00796	-0.32422	0.25663
771.000	-0.12850	-0.20889	-0.37167	0.26857
772.000	-0.09490	-0.20292	-0.34597	0.17109
773.000	-0.15223	-0.04178	-0.36772	0.20690
774.000	-0.20561	-0.15120	-0.29062	0.29045
775.000	-0.18386	-0.00398	-0.44284	0.28249
776.000	-0.22538	-0.27454	-0.33411	0.21684
777.000	-0.09687	-0.11539	-0.33609	0.12135
778.000	-0.12850	-0.17706	-0.24317	0.06565
779.000	-0.08501	0.02188	-0.27876	0.15716
780.000	-0.11862	-0.11738	-0.38353	0.34416
781.000	-0.14827	-0.08157	-0.35388	0.27056
782.000	-0.18584	-0.13329	-0.23131	0.17109
783.000	-0.17200	-0.15319	-0.37563	0.07560
784.000	-0.23131	-0.11340	-0.36772	0.13528
785.000	-0.12850	-0.12334	-0.24712	0.20491
786.000	-0.19375	-0.05769	-0.25503	0.14125
787.000	-0.19968	-0.16313	-0.35981	0.21684
788.000	-0.13839	0.07361	-0.31829	0.16711
789.000	-0.16607	-0.02785	-0.31236	0.27851
790.000	-0.12257	0.00000	-0.36772	0.26857
791.000	-0.06722	-0.04178	-0.36179	0.27652
792.000	-0.06920	-0.07759	-0.37167	0.37201
793.000	-0.07908	-0.05769	-0.25701	0.19496
794.000	-0.21549	-0.10345	-0.20956	0.28449
795.000	-0.10874	-0.00995	-0.33016	0.18104
796.000	-0.14234	-0.00796	-0.25503	0.32427
797.000	-0.11862	-0.04775	-0.23526	0.25265
798.000	-0.19572	-0.01592	-0.24317	0.15120
799.000	-0.28271	-0.02387	-0.29259	0.23475
800.000	-0.22340	-0.03382	-0.33213	0.20292
801.000	-0.13246	-0.09549	-0.40528	0.30636
802.000	-0.14432	-0.01393	-0.23131	0.22082
803.000	-0.24712	0.03780	-0.37365	0.33024
804.000	-0.24317	-0.15120	-0.28469	0.36008
805.000	-0.25503	-0.05172	-0.27282	0.25066
806.000	-0.27876	-0.13727	-0.21747	0.29642
807.000	-0.25701	0.03581	-0.24515	0.33223
808.000	-0.15421	0.04974	-0.21747	0.27255
809.000	-0.14037	-0.02785	-0.27678	0.27653
810.000	-0.28073	-0.02785	-0.35783	0.40384
811.000	-0.14630	0.00597	-0.24910	0.30040
812.000	-0.15025	0.01194	-0.38156	0.25066
813.000	-0.10083	-0.09947	-0.36772	0.32427
814.000	-0.25899	0.02785	-0.28666	0.46750
815.000	0.01582	0.00000	-0.17793	0.37202
816.000	-0.09094	0.09947	-0.29852	0.33820
817.000	0.01582	0.14722	-0.18584	0.45955
818.000	-0.09490	0.07361	-0.23329	0.35411
819.000	-0.19968	0.06565	-0.23526	0.46352
820.000	-0.23922	0.11936	-0.33806	0.52320
821.000	-0.28469	0.14722	-0.48633	0.39389
822.000	-0.46656	0.26260	-0.57727	0.41377
823.000	-0.70575	0.26258	-0.72552	0.39586
824.000	-0.91330	0.29837	-1.04374	0.25063
825.000	-1.21172	0.14321	-1.37968	0.28838
826.000	-1.49625	0.17103	-1.57923	0.17103
827.000	-1.84786	0.09743	-1.91105	-0.03380
828.000	-2.31973	-0.10138	-2.36118	0.08349
829.000	-2.72029	-0.02186	-2.65322	-0.25636
830.000	-2.95300	-0.06755	-2.95300	-0.29802
831.000	-3.49692	-0.22439	-3.41025	-0.43292
832.000	-3.58752	-0.30577	-3.71550	-0.37521
833.000	-3.94381	-0.30168	-4.07562	-0.36116
834.000	-4.08546	-0.36115	-4.23492	-0.48409
835.000	-4.30963	-0.31344	-4.63778	-0.34502
836.000	-4.69866	-0.37870	-4.85180	-0.46583
837.000	-4.97740	-0.50736	-4.98524	-0.49943
838.000	-5.19512	-0.47153	-5.34998	-0.58827
839.000	-5.34606	-0.73285	-5.39310	-0.66744
840.000	-5.52240	-0.74055	-5.61640	-0.72856
841.000	-5.63990	-0.76416	-5.68101	-0.72452
842.000	-5.60465	-0.72857	-5.68884	-0.64138
843.000	-5.86888	-0.89246	-5.71624	-0.85312
844.000	-5.91192	-0.82513	-5.83953	-0.88657
845.000	-5.92365	-1.09019	-5.90018	-0.69654
846.000	-5.98232	-0.93382	-5.84345	-0.88459
847.000	-6.14654	-1.15895	-5.93930	-0.88048
848.000	-6.16413	-1.23206	-5.81410	-0.94993
849.000	-6.10940	-1.08587	-5.98623	-1.04260
850.000	-6.16217	-1.21427	-5.93930	-0.99324
851.000	-6.29698	-1.15467	-6.15826	-1.00865
852.000	-6.42195	-1.23738	-6.15240	-1.06205
853.000	-6.45709	-1.18790	-6.27159	-1.11914
854.000	-6.58979	-1.19351	-6.29503	-1.00641
855.000	-6.62101	-1.34355	-6.22275	-0.96306
856.000	-6.49027	-1.27475	-6.30089	-0.90558
857.000	-6.53711	-1.20746	-6.21298	-0.96505
858.000	-6.60930	-1.27642	-6.19735	-0.92356
859.000	-6.55858	-1.27655	-6.16803	-0.79705
860.000	-6.40243	-1.21569	-6.16413	-0.97503
861.000	-6.41415	-1.18009	-5.98037	-0.89228
862.000	-6.25791	-1.18836	-5.98819	-0.69049
863.000	-6.28331	-1.23771	-6.02143	-0.90013
864.000	-6.20125	-1.20035	-5.84736	-0.88458
865.000	-6.08204	-1.15909	-5.87475	-0.76187
866.000	-6.12113	-1.05025	-5.86888	-0.71439
867.000	-6.04489	-1.16708	-5.75539	-0.72442
868.000	-6.24228	-0.99268	-5.82779	-0.65111
869.000	-6.07422	-1.09187	-5.93930	-0.71825
870.000	-6.15826	-0.98888	-5.84149	-0.65308
871.000	-6.16608	-1.08180	-5.85323	-0.63327
872.000	-6.29112	-1.13293	-5.90800	-0.74401
873.000	-6.16803	-0.85638	-5.86888	-0.65304
874.000	-6.21884	-1.00458	-5.83366	-0.77182
875.000	-6.20321	-1.06591	-6.03316	-0.56977
876.000	-6.25987	-0.97880	-5.91192	-0.59364
877.000	-6.23642	-0.90767	-5.98819	-0.62521
878.000	-6.18171	-0.96709	-5.95103	-0.72219
879.000	-6.18562	-0.88008	-5.88062	-0.73416
880.000	-6.21493	-0.94725	-5.94712	-0.74990
881.000	-6.25400	-0.99068	-6.00579	-0.66673
882.000	-6.15240	-0.91573	-5.97841	-0.62324
883.000	-6.17781	-0.92359	-5.94712	-0.62130
884.000	-6.16999	-0.88406	-6.04489	-0.64690
885.000	-6.22079	-0.85629	-5.94908	-0.65097
886.000	-6.23642	-0.92151	-6.04098	-0.68845
887.000	-6.23447	-0.85429	-5.99210	-0.64301
888.000	-6.23056	-0.99665	-6.00579	-0.64497
889.000	-6.30870	-0.89173	-6.15826	-0.57557
890.000	-6.23056	-0.99665	-5.98819	-0.62916
891.000	-6.14849	-0.89991	-6.14849	-0.54789
892.000	-6.20125	-0.90971	-6.24228	-0.64271
893.000	-6.35947	-0.93315	-6.13090	-0.52615
894.000	-6.16608	-0.77530	-6.13677	-0.48461
895.000	-6.19148	-0.85041	-6.02730	-0.60934
896.000	-6.09572	-0.81298	-6.07031	-0.59544
897.000	-6.18562	-0.92358	-6.13090	-0.58944
898.000	-6.31846	-0.87985	-6.09767	-0.64684
899.000	-6.21493	-0.86421	-6.02143	-0.63110
900.000	-6.15631	-0.92363	-6.10745	-0.49057
901.000	-6.13090	-0.86237	-6.11331	-0.44507
902.000	-6.21688	-0.93341	-6.14067	-0.54394
903.000	-6.03707	-0.87241	-6.26182	-0.54579
904.000	-6.16217	-0.78717	-6.09377	-0.61520
905.000	-6.08986	-0.74772	-6.08399	-0.47476
906.000	-6.17390	-0.78320	-6.07813	-0.47675
907.000	-6.09181	-0.96132	-6.05271	-0.44314
908.000	-6.14654	-0.86828	-6.02534	-0.53219
909.000	-6.15240	-0.81092	-6.12113	-0.40352
910.000	-6.11918	-0.81888	-6.07617	-0.57565
911.000	-6.06249	-0.73787	-6.11918	-0.45891
912.000	-6.09767	-0.75167	-6.10745	-0.53606
913.000	-5.99601	-0.82104	-6.16413	-0.47074
914.000	-6.17976	-0.74364	-6.12308	-0.45693
915.000	-6.16803	-0.72388	-6.11527	-0.37584
916.000	-6.06249	-0.81501	-6.18953	-0.53598
917.000	-6.14263	-0.77138	-6.12699	-0.44308
918.000	-6.05076	-0.71019	-6.02143	-0.38579
919.000	-6.08790	-0.73783	-6.10158	-0.38574
920.000	-6.11331	-0.81295	-6.09572	-0.35409
921.000	-6.07813	-0.81103	-6.12308	-0.22352
922.000	-6.03903	-0.77944	-6.06249	-0.37192
923.000	-6.09572	-0.74376	-6.27354	-0.27487
924.000	-6.10354	-0.63892	-6.05858	-0.37192
925.000	-6.11918	-0.62506	-6.14458	-0.34219
926.000	-6.23642	-0.88790	-6.11527	-0.33825
927.000	-6.19148	-0.70803	-6.11331	-0.26111
928.000	-6.19539	-0.70605	-6.02730	-0.32050
929.000	-6.07813	-0.59148	-6.01948	-0.47680
930.000	-6.12113	-0.63494	-6.12699	-0.32440
931.000	-6.20712	-0.72185	-6.06249	-0.35213
932.000	-6.18367	-0.72781	-6.12895	-0.26506
933.000	-6.20321	-0.78316	-6.08790	-0.24925
934.000	-6.15435	-0.75554	-6.24619	-0.38761
935.000	-6.10158	-0.62508	-6.10940	-0.38771
936.000	-6.14849	-0.67842	-6.11918	-0.31056
937.000	-6.13286	-0.60526	-6.28917	-0.23927
938.000	-6.16999	-0.52018	-6.13872	-0.26703
939.000	-6.23251	-0.72972	-6.19539	-0.23931
940.000	-6.25791	-0.57941	-6.17194	-0.09494
941.000	-6.15826	-0.80893	-6.15240	-0.24527
942.000	-6.24033	-0.51417	-6.16217	-0.12857
943.000	-6.19344	-0.64870	-6.20125	-0.32831
944.000	-6.15435	-0.70412	-6.29698	-0.27486
945.000	-6.21102	-0.68625	-6.17194	-0.37184
946.000	-6.14849	-0.53206	-6.17976	-0.25712
947.000	-6.20125	-0.74361	-6.24814	-0.24522
948.000	-6.23838	-0.64864	-6.20712	-0.29864
949.000	-6.18367	-0.58740	-6.32823	-0.22739
950.000	-6.11918	-0.71010	-6.15826	-0.27691
951.000	-6.27159	-0.73362	-6.17390	-0.33031
952.000	-6.24228	-0.74948	-6.19344	-0.20174
953.000	-6.12699	-0.57362	-6.32823	-0.25112
954.000	-6.12699	-0.65076	-6.17976	-0.26701
955.000	-6.16413	-0.56567	-6.24228	-0.26896
956.000	-6.23447	-0.65458	-6.26377	-0.12261
957.000	-6.21688	-0.61110	-6.16803	-0.24526
958.000	-6.15045	-0.62502	-6.20125	-0.25513
959.000	-6.13286	-0.63295	-6.35752	-0.20365
960.000	-6.22665	-0.65459	-6.24228	-0.23929
961.000	-6.16217	-0.52612	-6.25596	-0.21358
962.000	-6.19930	-0.70208	-6.21298	-0.17602
963.000	-6.15631	-0.60523	-6.29112	-0.21159
964.000	-6.10158	-0.53013	-6.23251	-0.15624
965.000	-6.22470	-0.53397	-6.34971	-0.23924
966.000	-6.09767	-0.55190	-6.37314	-0.17399
967.000	-6.13481	-0.68635	-6.35752	-0.12852
968.000	-6.18171	-0.61905	-6.32042	-0.20169
969.000	-6.20321	-0.64078	-6.33995	-0.17795
970.000	-6.14849	-0.63689	-6.22665	-0.13646
971.000	-6.05662	-0.49061	-6.25205	-0.18194
972.000	-6.19735	-0.68033	-6.33213	-0.07514
973.000	-6.20516	-0.70603	-6.22861	-0.14239
974.000	-6.04489	-0.57371	-6.37705	-0.14038
975.000	-6.11136	-0.61122	-6.31260	-0.13446
976.000	-6.18171	-0.71793	-6.26963	-0.12063
977.000	-6.20321	-0.67242	-6.27549	-0.28674
978.000	-6.20125	-0.63485	-6.22275	-0.28281
979.000	-6.18562	-0.65464	-6.42391	-0.21153
980.000	-6.23251	-0.64865	-6.36729	-0.16213
981.000	-6.15826	-0.60721	-6.37314	-0.14433
982.000	-6.17390	-0.62895	-6.29112	-0.11469
983.000	-6.03121	-0.61527	-6.29307	-0.11469
984.000	-6.18171	-0.57356	-6.33799	-0.08898
985.000	-6.11527	-0.57759	-6.35166	-0.22343
986.000	-6.18953	-0.70803	-6.34580	-0.19575
987.000	-6.20516	-0.64868	-6.41805	-0.11664
988.000	-6.19930	-0.65067	-6.27159	-0.25708
989.000	-6.21102	-0.65461	-6.34580	-0.06920
990.000	-6.21298	-0.57551	-6.42195	-0.08501
991.000	-6.18758	-0.56565	-6.28917	-0.04746
992.000	-6.07617	-0.56972	-6.27745	-0.10481
993.000	-6.18171	-0.56763	-6.33409	-0.09689
994.000	-6.12504	-0.45495	-6.30870	-0.04350
995.000	-6.07422	-0.63302	-6.30284	0.08503
996.000	-6.12699	-0.66460	-6.29503	-0.15226
997.000	-6.13090	-0.60131	-6.38681	-0.06129
998.000	-6.20321	-0.60518	-6.39267	-0.04350
999.000	-6.05271	-0.49457	-6.37510	-0.06722
1000.000	-6.24228	-0.50231	-6.36924	-0.15817
1001.000	-6.12699	-0.67449	-6.39267	0.07117
1002.000	-6.16999	-0.46084	-6.28526	-0.27487
1003.000	-6.11136	-0.42925	-6.28331	-0.11865
1004.000	-6.16413	-0.47469	-6.37510	-0.04152
1005.000	-6.17976	-0.45886	-6.42586	0.03163
1006.000	-6.21493	-0.52804	-6.41610	-0.18188
1007.000	-6.23056	-0.43904	-6.32628	-0.03559
1008.000	-6.17585	-0.38371	-6.37314	-0.06920
1009.000	-6.14849	-0.59931	-6.41024	-0.01384
1010.000	-6.22470	-0.48650	-6.39072	-0.06129
1011.000	-6.02730	-0.63110	-6.41219	-0.03756
1012.000	-6.28526	-0.54181	-6.28135	-0.21159
1013.000	-6.24814	-0.65259	-6.46685	-0.12454
1014.000	-6.18171	-0.39161	-6.39853	0.00791
1015.000	-6.18367	-0.58740	-6.41805	-0.05338
1016.000	-6.06640	-0.53610	-6.37510	-0.30448
1017.000	-6.10549	-0.39365	-6.41805	-0.04745
1018.000	-6.18758	-0.45490	-6.47271	-0.01977
1019.000	-6.23447	-0.39948	-6.42976	-0.00988
1020.000	-6.09572	-0.33233	-6.39853	-0.14630
1021.000	-6.17585	-0.49644	-6.48832	-0.22534
1022.000	-6.16217	-0.50238	-6.57419	-0.31424
1023.000	-6.13481	-0.54592	-6.35166	-0.10282
1024.000	-6.10158	-0.57365	-6.41805	-0.02768
1025.000	-6.07422	-0.47280	-6.47466	-0.30837
1026.000	-5.93930	-0.54018	-6.51174	-0.30242
1027.000	-6.10940	-0.41936	-6.60150	-0.40315
1028.000	-6.05076	-0.55392	-6.61711	-0.22331
1029.000	-6.15240	-0.52811	-6.43172	-0.16804
1030.000	-6.10549	-0.55584	-6.46880	-0.15616
1031.000	-6.15240	-0.49053	-6.54297	-0.25299
1032.000	-6.09181	-0.62509	-6.39657	-0.25108
1033.000	-5.96277	-0.43134	-6.62296	-0.32013
1034.000	-6.08399	-0.54400	-6.61125	-0.13043
1035.000	-6.07031	-0.52027	-6.54492	-0.17195
1036.000	-5.99210	-0.46100	-6.52931	-0.22335
1037.000	-6.08790	-0.50443	-6.49418	-0.27476
1038.000	-6.20516	-0.35995	-6.47076	-0.24512
1039.000	-6.14458	-0.62700	-6.59370	-0.26284
1040.000	-6.25205	-0.56162	-6.48052	-0.08105
1041.000	-6.07422	-0.61917	-6.49027	-0.24115
1042.000	-6.12308	-0.40748	-6.60540	-0.16403
1043.000	-6.08986	-0.41542	-6.43172	-0.17792
1044.000	-6.09767	-0.60332	-6.44733	-0.29653
1045.000	-6.08595	-0.56773	-6.46295	-0.20361
1046.000	-6.07813	-0.59939	-6.37900	-0.22341
1047.000	-6.01557	-0.52626	-6.46685	-0.13837
1048.000	-6.07031	-0.56973	-6.47076	-0.31628
1049.000	-6.06640	-0.61325	-6.59955	-0.21541
1050.000	-5.98232	-0.48870	-6.52150	-0.11069
1051.000	-6.13872	-0.65865	-6.54492	-0.18381
1052.000	-6.01361	-0.43724	-6.50199	-0.31428
1053.000	-6.16999	-0.47469	-6.59955	-0.11462
1054.000	-6.06444	-0.57369	-6.46685	-0.23128
1055.000	-6.03316	-0.70230	-6.53516	-0.17986
1056.000	-6.07617	-0.46686	-6.43562	-0.16804
1057.000	-6.02534	-0.56582	-6.35557	-0.18981
1058.000	-6.17976	-0.44699	-6.44928	-0.10873
1059.000	-6.09181	-0.65476	-6.47856	-0.09093
1060.000	-6.08986	-0.52223	-6.41805	-0.08501
1061.000	-6.03903	-0.62317	-6.59760	-0.11265
1062.000	-6.13481	-0.47076	-6.43757	-0.13047
1063.000	-6.11331	-0.68638	-6.50199	-0.10476
1064.000	-6.01948	-0.55198	-6.59565	-0.18774
1065.000	-6.08790	-0.61125	-6.51565	-0.15022
1066.000	-6.10354	-0.54398	-6.45319	-0.03558
1067.000	-6.03707	-0.55394	-6.53516	-0.13836
1068.000	-5.95103	-0.53622	-6.53906	-0.10475
1069.000	-6.08986	-0.47476	-6.59370	-0.19367
1070.000	-6.01557	-0.47285	-6.52931	-0.19963
1071.000	-6.04880	-0.38775	-6.48832	-0.08104
1072.000	-5.87475	-0.50463	-6.54882	-0.25694
1073.000	-5.87866	-0.44724	-6.52931	-0.11859
1074.000	-6.04098	-0.41941	-6.56638	-0.01383
1075.000	-6.08399	-0.53015	-6.55467	-0.23717
1076.000	-5.80823	-0.37011	-6.53126	-0.29252
1077.000	-5.98037	-0.50651	-6.47856	-0.22337
1078.000	-6.05076	-0.30269	-6.46295	-0.06721
1079.000	-6.03316	-0.20773	-6.56833	-0.05731
1080.000	-6.05076	-0.35016	-6.39462	-0.05338
1081.000	-5.94125	-0.27307	-6.49808	-0.08302
1082.000	-5.94908	-0.35617	-6.47661	-0.03360
1083.000	-5.95886	-0.30274	-6.59174	0.00593
1084.000	-5.96472	-0.33439	-6.48637	0.01977
1085.000	-5.96472	-0.26514	-6.61711	-0.00988
1086.000	-5.87475	-0.25727	-6.58784	0.12451
1087.000	-5.90409	0.00989	-6.60540	0.19960
1088.000	-5.85323	0.11281	-6.53906	0.23520
1089.000	-5.77300	0.17022	-6.28135	0.58532
1090.000	-5.81997	0.43145	-6.45709	0.80254
1091.000	-5.98428	0.68060	-6.53321	0.86960
1092.000	-5.92170	0.84490	-6.35947	1.34820
1093.000	-5.99015	1.16324	-6.43757	1.61667
1094.000	-5.95494	1.59047	-6.46685	1.80223
1095.000	-6.00188	1.76232	-6.45124	2.37875
1096.000	-6.15240	2.02856	-6.32823	2.71282
1097.000	-6.23447	2.09935	-6.28721	2.98525
1098.000	-6.35362	2.36736	-6.41219	3.28808
1099.000	-6.03316	2.79921	-6.29112	3.57061
1100.000	-5.90409	2.95383	-6.36729	3.73943
1101.000	-5.73777	3.28627	-6.11918	4.06607
1102.000	-5.82779	3.12594	-6.25987	4.28137
1103.000	-5.64773	3.40911	-6.13677	4.50261
1104.000	-5.51456	3.80042	-6.29698	4.77235
1105.000	-5.50869	4.01333	-6.29307	4.84503
1106.000	-5.48126	4.21644	-6.45319	5.06721
1107.000	-5.48714	4.19276	-6.28721	5.33752
1108.000	-5.55765	4.41869	-6.42000	5.54970
1109.000	-5.62032	4.83325	-6.25205	5.64160
1110.000	-5.69080	4.92307	-6.44538	5.65320
1111.000	-5.73973	4.94623	-6.46490	5.85455
1112.000	-5.73777	5.19175	-6.43172	5.95273
1113.000	-5.80431	5.26573	-6.48832	5.95793
1114.000	-5.69667	5.35308	-6.54492	5.99246
1115.000	-5.71624	5.40391	-6.54492	6.22304
1116.000	-5.67318	5.54359	-6.47271	6.24737
1117.000	-5.70841	5.48049	-6.49613	6.28810
1118.000	-5.76909	5.54463	-6.52736	6.28380
1119.000	-5.69667	5.51199	-6.48442	6.21011
1120.000	-5.67514	5.54554	-6.58979	6.17951
1121.000	-5.84149	5.52431	-6.61125	6.00144
1122.000	-5.68884	5.44144	-6.49418	6.03216
1123.000	-5.77692	5.46022	-6.54687	5.91618
1124.000	-5.76517	5.39756	-6.57809	5.84737
1125.000	-5.67709	5.25905	-6.45514	5.85857
1126.000	-5.72995	5.25268	-6.46880	5.69209
1127.000	-5.80823	5.29709	-6.53126	5.66986
1128.000	-5.87475	5.11983	-6.48832	5.58812
1129.000	-5.70254	5.24900	-6.46685	5.49044
1130.000	-5.82975	5.33221	-6.44343	5.61798
1131.000	-5.93343	5.42145	-6.60735	5.70031
1132.000	-5.87670	5.33569	-6.44733	5.65709
1133.000	-5.80431	5.25788	-6.40634	5.51263
1134.000	-5.78866	5.31886	-6.45124	5.72556
1135.000	-5.74560	5.47818	-6.38486	5.80654
1136.000	-5.90800	5.33539	-6.38486	5.73022
1137.000	-5.77300	5.34452	-6.42391	5.72195
1138.000	-5.85518	5.41828	-6.32042	5.80335
1139.000	-5.96863	5.46228	-6.42976	5.79625
1140.000	-5.87670	5.38865	-6.42976	5.88821
1141.000	-5.86497	5.45545	-6.44343	5.93890
1142.000	-5.87084	5.48285	-6.42586	5.87651
1143.000	-5.88062	5.46903	-6.50589	5.76799
1144.000	-5.74169	5.50763	-6.39657	5.83576
1145.000	-5.92952	5.47051	-6.33213	5.82475
1146.000	-5.83171	5.44401	-6.44148	5.92523
1147.000	-5.73582	5.63906	-6.40634	5.93933
1148.000	-5.91778	5.58041	-6.41415	5.74750
1149.000	-5.87084	5.54755	-6.44733	5.80975
1150.000	-5.93343	5.40968	-6.51369	5.90875
1151.000	-5.91583	5.32550	-6.38876	5.79084
1152.000	-5.94321	5.44684	-6.51174	5.90095
1153.000	-5.91778	5.56865	-6.42781	5.84323
1154.000	-5.83953	5.50669	-6.39657	5.93358
1155.000	-5.93734	5.48808	-6.49808	5.85416
1156.000	-5.84149	5.54000	-6.52931	5.89096
1157.000	-5.93734	5.44494	-6.48832	5.98140
1158.000	-5.93343	5.39791	-6.46100	5.88589
1159.000	-5.86497	5.54565	-6.52540	5.88123
1160.000	-5.96668	5.48975	-6.42586	5.76694
1161.000	-5.86888	5.50640	-6.54297	5.82039
1162.000	-6.01557	5.54610	-6.52736	5.87338
1163.000	-5.83953	5.50080	-6.48637	5.91884
1164.000	-5.83758	5.45768	-6.44733	5.92908
1165.000	-5.85323	5.49479	-6.42976	5.90972
1166.000	-5.90213	5.50019	-6.40634	5.97062
1167.000	-5.91583	5.42358	-6.50589	5.94990
1168.000	-5.84149	5.50667	-6.41024	5.94515
1169.000	-5.84345	5.39486	-6.50979	5.94595
1170.000	-5.90018	5.52374	-6.45319	6.02287
1171.000	-5.81018	5.57756	-6.52736	5.90859
1172.000	-6.01165	5.43048	-6.54102	6.01401
1173.000	-6.02143	5.44607	-6.51565	5.94588
1174.000	-5.97841	5.31117	-6.47856	5.97956
1175.000	-5.88649	5.53367	-6.47466	5.86617
1176.000	-6.04880	5.35167	-6.44928	5.98772
1177.000	-5.89431	5.57477	-6.48832	5.95598
1178.000	-5.88453	5.46703	-6.58979	5.94109
1179.000	-6.06640	5.24558	-6.50589	5.87559
1180.000	-6.00774	5.47757	-6.40243	5.92960
1181.000	-6.07813	5.33374	-6.43562	5.94095
1182.000	-5.98037	5.47589	-6.45905	5.91721
1183.000	-6.06444	5.39466	-6.43952	5.98001
1184.000	-5.98819	5.47777	-6.49223	5.90509
1185.000	-5.90605	5.41191	-6.53711	5.99646
1186.000	-5.89627	5.43161	-6.52345	6.02985
1187.000	-6.03121	5.53223	-6.50589	6.01442
1188.000	-5.93930	5.30959	-6.52540	6.00051
1189.000	-6.02339	5.35192	-6.66587	6.06526
1190.000	-6.08008	5.45528	-6.39853	5.92377
1191.000	-5.95494	5.37809	-6.43952	6.02303
1192.000	-5.95299	5.40164	-6.47076	5.91707
1193.000	-5.92952	5.55285	-6.55663	6.04509
1194.000	-6.05076	5.51047	-6.49808	5.93240
1195.000	-6.09181	5.41400	-6.54102	6.03746
1196.000	-5.81801	5.36567	-6.57419	5.90021
1197.000	-6.04489	5.44779	-6.60150	6.02696
1198.000	-5.89627	5.43358	-6.52540	6.01028
1199.000	-6.05076	5.47322	-6.49613	6.03604
1200.000	-5.91192	5.36478	-6.57614	5.95298
1201.000	-5.79061	5.42086	-6.56053	6.00986
1202.000	-5.90213	5.50019	-6.53516	5.93196
1203.000	-5.75539	5.55261	-6.57809	6.04874
1204.000	-5.93930	5.40962	-6.52931	6.02392
1205.000	-5.75735	5.45649	-6.49613	6.04191
1206.000	-5.79453	5.46398	-6.54492	5.97486
1207.000	-5.90800	5.49425	-6.48247	5.97364
1208.000	-5.89627	5.38650	-6.46100	5.96607
1209.000	-5.82388	5.41074	-6.63661	6.02458
1210.000	-5.77496	5.54065	-6.44928	6.06201
1211.000	-5.71233	5.58440	-6.48637	5.93840
1212.000	-5.80040	5.53844	-6.46685	6.04421
1213.000	-5.81018	5.53050	-6.56833	6.07036
1214.000	-5.86888	5.38481	-6.44733	5.96623
1215.000	-5.62032	5.49506	-6.47661	6.05973
1216.000	-5.77300	5.59753	-6.47271	5.88967
1217.000	-5.89822	5.48062	-6.51174	5.99676
1218.000	-5.90996	5.57265	-6.50003	5.96953
1219.000	-5.77105	5.50343	-6.53516	6.02776
1220.000	-5.76517	5.42895	-6.48052	5.94238
1221.000	-5.88649	5.51015	-6.53516	6.00821
1222.000	-5.84932	5.61638	-6.60150	6.03869
1223.000	-5.84540	5.60858	-6.39267	6.08614
1224.000	-5.85518	5.52026	-6.50784	5.96748
1225.000	-5.73777	5.55082	-6.50003	5.99103
1226.000	-5.76517	5.60545	-6.56443	5.86904
1227.000	-5.78279	5.59939	-6.47661	5.97567
1228.000	-5.80627	5.54623	-6.60930	5.93695
1229.000	-5.81214	5.57166	-6.48247	5.94822
1230.000	-5.69471	5.62770	-6.50979	5.93226
1231.000	-5.88844	5.62579	-6.56638	5.96483
1232.000	-5.79061	5.56403	-6.54297	5.91232
1233.000	-5.81801	5.75779	-6.54492	5.98268
1234.000	-5.86301	5.48685	-6.56053	5.87300
1235.000	-5.85323	5.56341	-6.68342	5.92238
1236.000	-5.86497	5.58682	-6.50199	5.97537
1237.000	-5.71429	5.53143	-6.44343	5.90565
1238.000	-5.84149	5.56353	-6.47856	5.85048
1239.000	-5.85518	5.62808	-6.55858	5.98252
1240.000	-5.73777	5.63120	-6.58979	6.03688
1241.000	-5.77692	5.56220	-6.54297	5.98075
1242.000	-5.70058	5.75897	-6.48247	5.93845
1243.000	-5.70646	5.64915	-6.51955	6.04749
1244.000	-5.74756	5.64679	-6.53906	5.98275
1245.000	-5.71037	5.79219	-6.54687	6.01980
1246.000	-5.63794	5.67531	-6.54102	6.01401
1247.000	-5.84932	5.65362	-6.56833	5.94917
1248.000	-5.70646	5.55896	-6.53321	5.89678
1249.000	-5.89040	5.55324	-6.44148	5.86460
1250.000	-5.79649	5.65415	-6.54687	5.94356
1251.000	-5.82975	5.63225	-6.43757	6.03674
1252.000	-5.68492	5.61211	-6.47661	5.93069
1253.000	-5.73190	5.64106	-6.51565	6.07295
1254.000	-5.83171	5.59107	-6.48247	5.90520
1255.000	-5.89822	5.53552	-6.57419	6.03706
1256.000	-5.78279	5.64056	-6.59760	5.88234
1257.000	-5.78866	5.69538	-6.52736	6.04349
1258.000	-5.78670	5.60328	-6.58004	6.07022
1259.000	-5.72407	5.61565	-6.50784	5.99681
1260.000	-5.76713	5.71324	-6.48442	6.00881
1261.000	-5.72407	5.64506	-6.43952	6.04845
1262.000	-5.77887	5.59747	-6.44928	6.03856
1263.000	-5.71233	5.75886	-6.52736	6.05913
1264.000	-5.71233	5.62557	-6.42976	6.01923
1265.000	-5.85518	5.60260	-6.48442	5.95211
1266.000	-5.77692	5.62690	-6.62101	6.02477
1267.000	-5.85714	5.64766	-6.45905	5.94654
1268.000	-5.70646	5.64719	-6.60735	6.12264
1269.000	-5.82975	5.70281	-6.47271	5.84859
1270.000	-5.71429	5.63143	-6.56248	6.17008
1271.000	-5.82779	5.59503	-6.50003	5.98712
1272.000	-5.74756	5.54484	-6.37314	6.01012
1273.000	-5.78083	5.62294	-6.50003	6.05359
1274.000	-5.75147	5.64675	-6.34776	5.91458
1275.000	-5.81801	5.60297	-6.52736	6.13339
1276.000	-5.87475	5.57692	-6.48442	6.09287
1277.000	-5.85714	5.68686	-6.56833	6.01954
1278.000	-5.80627	5.48348	-6.48052	5.98149
1279.000	-5.90213	5.65113	-6.56833	6.00586
1280.000	-5.80236	5.59528	-6.43367	5.99573
1281.000	-5.81605	5.67747	-6.49808	6.04775
1282.000	-5.86888	5.52797	-6.50784	6.10040
1283.000	-5.76126	5.53686	-6.51369	6.05147
1284.000	-5.80431	5.61879	-6.48052	6.02646
1285.000	-5.81214	5.63439	-6.51760	6.07293
1286.000	-5.80431	5.71482	-6.42781	6.01144
1287.000	-5.72995	5.68813	-6.38291	5.85548
1288.000	-5.75735	5.55847	-6.49027	6.05371
1289.000	-5.77496	5.62300	-6.43562	6.07195
1290.000	-5.85518	5.53202	-6.47856	5.96391
1291.000	-5.85323	5.69277	-6.54492	5.95922
1292.000	-5.83953	5.57727	-6.59955	6.12078
1293.000	-5.82975	5.71653	-6.50589	6.14537
1294.000	-5.88062	5.59450	-6.48442	6.07919
1295.000	-5.74169	5.59392	-6.45319	5.96030
1296.000	-5.98037	5.58762	-6.57809	6.11323
1297.000	-5.84149	5.65958	-6.65807	5.97937
1298.000	-5.86497	5.68286	-6.52345	6.06895
1299.000	-5.92952	5.47835	-6.47466	5.97960
1300.000	-5.94712	5.55071	-6.48637	6.01270
1301.000	-5.80040	5.44039	-6.49808	5.96955
1302.000	-6.05662	5.57900	-6.55077	6.10575
1303.000	-5.93930	5.58411	-6.56833	6.11140
1304.000	-5.85714	5.51828	-6.57223	6.04686
1305.000	-5.79061	5.53658	-6.51955	6.20186
1306.000	-5.97059	5.60536	-6.42586	5.95671
1307.000	-5.79453	5.57379	-6.47856	6.08708
1308.000	-5.85518	5.77896	-6.51565	6.06318
1309.000	-5.75930	5.55257	-6.53321	5.95545
1310.000	-5.79061	5.59148	-6.46100	6.08533
1311.000	-5.80431	5.63839	-6.40634	6.12703
1312.000	-5.79844	5.51493	-6.43172	5.99184
1313.000	-5.87866	5.69448	-6.42781	5.96646
1314.000	-5.84736	5.61444	-6.48247	6.14761
1315.000	-5.85323	5.64182	-6.53516	6.22511
1316.000	-6.01948	5.52646	-6.51955	6.02990
1317.000	-5.84345	5.56155	-6.51955	6.15498
1318.000	-5.73190	5.55087	-6.56053	6.14080
1319.000	-5.89822	5.62373	-6.46685	6.05203
1320.000	-5.69863	5.57080	-6.52150	6.14714
1321.000	-5.94712	5.46249	-6.44928	6.01509
1322.000	-5.98232	5.50331	-6.49613	6.20020
1323.000	-5.84149	5.60666	-6.46490	6.11851
1324.000	-5.79061	5.56011	-6.41805	5.97831
1325.000	-6.02534	5.47740	-6.50394	6.02422
1326.000	-5.75343	5.50556	-6.49418	6.20804
1327.000	-5.82584	5.44406	-6.50784	6.12581
1328.000	-5.89627	5.45319	-6.54882	6.12336
1329.000	-5.78279	5.59351	-6.53516	6.23488
1330.000	-5.80040	5.49334	-6.51955	6.20382
1331.000	-5.72995	5.55089	-6.58784	6.17758
1332.000	-5.79453	5.50124	-6.47271	6.12232
1333.000	-5.80823	5.55993	-6.39462	6.12912
1334.000	-5.71429	5.54124	-6.47271	6.23760
1335.000	-5.73190	5.46262	-6.56248	6.00789
1336.000	-5.88453	5.66110	-6.55272	6.11940
1337.000	-5.81997	5.47746	-6.52736	6.01417
1338.000	-5.64577	5.61053	-6.46685	6.05594
1339.000	-5.71820	5.46863	-6.58004	6.14838
1340.000	-5.76713	5.49366	-6.60540	6.19299
1341.000	-5.78083	5.73466	-6.53321	6.11768
1342.000	-5.68492	5.70621	-6.46880	5.96794
1343.000	-5.68492	5.56309	-6.58979	6.16584
1344.000	-5.73582	5.57437	-6.43757	6.24780
1345.000	-5.74169	5.35462	-6.35947	6.10217
1346.000	-5.69471	5.47670	-6.50979	6.13751
1347.000	-5.76713	5.49562	-6.52931	6.20370
1348.000	-5.75930	5.56629	-6.61711	6.14596
1349.000	-5.73582	5.60378	-6.55467	6.24245
1350.000	-5.68884	5.46499	-6.45124	6.11867
1351.000	-5.71820	5.54904	-6.55077	6.08816
1352.000	-5.69275	5.65125	-6.62101	6.11661
1353.000	-5.63206	5.56164	-6.53711	6.19774
1354.000	-5.87084	5.57304	-6.48052	6.13591
1355.000	-5.74365	5.55664	-6.52931	6.27401
1356.000	-5.80627	5.68737	-6.29112	6.18312
1357.000	-5.77887	5.59551	-6.32628	6.16121
1358.000	-5.71624	5.68826	-6.26377	6.26162
1359.000	-5.61444	5.80490	-6.10745	6.26736
1360.000	-5.47147	5.74161	-5.85518	6.17244
1361.000	-5.33626	5.54279	-5.46363	6.17659
1362.000	-5.29314	5.44896	-5.26570	6.22753
1363.000	-4.78505	5.27830	-4.86554	6.12359
1364.000	-4.45900	5.28661	-4.44721	6.18798
1365.000	-4.14643	5.15693	-4.03431	6.00290
1366.000	-3.74109	5.07081	-3.63478	5.91927
1367.000	-3.31174	4.90757	-3.10678	5.81631
1368.000	-3.07129	4.83377	-2.67492	5.73786
1369.000	-2.48156	4.88353	-2.24078	5.66098
1370.000	-2.11443	4.63008	-1.70170	5.40472
1371.000	-1.48242	4.53287	-1.27298	5.25197
1372.000	-1.29669	4.46009	-0.91923	5.15197
1373.000	-1.14848	4.44056	-0.39935	4.91562
1374.000	-0.66029	4.14444	-0.24515	4.77743
1375.000	-0.67017	4.07516	0.11269	4.65890
1376.000	-0.30050	4.11101	0.53773	4.39182
1377.000	0.20758	4.07541	0.76505	4.26701
1378.000	0.39342	4.00210	1.04177	4.31218
1379.000	0.74133	3.81178	1.22555	4.23675
1380.000	0.94492	3.69472	1.47649	4.06617
1381.000	1.45081	3.52170	1.72540	4.12701
1382.000	1.83206	3.49330	1.98609	3.98595
1383.000	2.00781	3.43351	2.09074	3.63931
1384.000	2.34342	3.43473	2.19538	3.59946
1385.000	2.64533	3.17645	2.49932	3.58086
1386.000	2.83666	2.99169	2.47762	3.29772
1387.000	3.07129	2.84047	2.69464	3.26348
1388.000	3.16000	2.72529	2.72818	3.18020
1389.000	3.06932	2.32501	2.79918	2.96404
1390.000	3.21518	2.30486	2.82482	3.01351
1391.000	3.20336	2.28902	2.83666	2.79547
1392.000	3.28810	2.23528	2.88201	2.60504
1393.000	3.29992	2.14601	2.82482	2.48222
1394.000	3.36100	2.02092	2.90568	2.40271
1395.000	3.33736	2.14791	2.86229	2.42661
1396.000	3.40828	1.85817	2.88399	2.17265
1397.000	3.42207	1.82045	2.78341	2.26014
1398.000	3.37873	1.85426	2.99441	2.09704
1399.000	3.54222	1.89757	2.97272	2.24786
1400.000	3.66628	1.94094	3.09298	2.29521
1401.000	3.66431	1.86757	3.14029	2.23957
1402.000	3.81983	1.80775	3.09298	2.36859
1403.000	3.72338	1.67506	3.03187	2.31914
1404.000	3.71156	1.72666	3.23883	2.25919
1405.000	3.78637	1.84352	3.12255	2.43198
1406.000	3.88675	1.71243	3.17182	2.39816
1407.000	3.77062	1.74439	3.03384	2.32310
1408.000	3.70566	1.83179	3.00229	2.42035
1409.000	3.64462	1.75456	3.09298	2.48162
1410.000	3.71747	1.77821	2.91357	2.36700
1411.000	3.71944	1.84366	2.94117	2.34909
1412.000	3.70369	1.79807	2.90371	2.52568
1413.000	3.69385	1.95675	2.74396	2.40900
1414.000	3.58752	1.89748	2.86032	2.43454
1415.000	3.63675	1.95092	2.82680	2.50403
1416.000	3.66628	1.90921	2.72029	2.50227
1417.000	3.73322	1.91899	2.86821	2.43453
1418.000	3.77259	1.90304	2.77749	2.51604
1419.000	3.76078	1.84159	2.86427	2.52775
1420.000	3.77653	1.90699	2.86821	2.55947
1421.000	3.74109	1.92888	2.90371	2.59905
1422.000	3.71156	1.92300	2.98455	2.48584
1423.000	3.74897	1.85946	2.86821	2.62292
1424.000	3.65250	1.77438	2.85441	2.54958
1425.000	3.59146	1.94904	2.91554	2.51574
1426.000	3.69778	1.85759	2.99638	2.47788
1427.000	3.64462	1.79026	2.90568	2.51972
1428.000	3.72731	1.83174	2.80905	2.67262
1429.000	3.68597	1.87348	2.94906	2.45022
1430.000	3.78440	1.75230	3.00426	2.50562
1431.000	3.75684	1.68690	2.98652	2.53144
1432.000	3.74306	1.92888	2.87807	2.56143
1433.000	3.73519	1.97450	2.94314	2.51567
1434.000	3.72535	1.80200	2.90765	2.47609
1435.000	3.70960	1.80798	2.90173	2.47610
1436.000	3.73519	1.78611	2.88399	2.57331
1437.000	3.61903	1.82205	3.05552	2.55705
1438.000	3.72141	1.90513	2.88793	2.55149
1439.000	3.62690	1.82203	2.88990	2.54157
1440.000	3.79031	1.79195	2.86229	2.62492
1441.000	3.76865	1.95658	2.86624	2.55947
1442.000	3.67219	1.82194	2.90568	2.47610
1443.000	3.80605	1.88313	2.84257	2.65272
1444.000	3.73125	1.91899	2.96680	2.57907
1445.000	3.67022	1.90326	2.85243	2.41473
1446.000	3.68400	1.93892	2.87413	2.42460
1447.000	3.69975	1.84568	2.92342	2.50184
1448.000	3.68991	1.78819	3.05947	2.30123
1449.000	3.64462	1.99850	2.92145	2.53357
1450.000	3.71747	1.80201	2.87018	2.56145
1451.000	3.65644	1.79024	2.92540	2.59305
1452.000	3.66825	1.82591	2.82482	2.48817
1453.000	3.70960	1.87144	2.85835	2.47025
1454.000	3.75094	1.88920	2.81891	2.45447
1455.000	3.72535	1.89719	2.79327	2.49220
1456.000	3.62887	1.99457	2.87807	2.48805
1457.000	3.71156	2.00430	2.91159	2.42254
1458.000	3.69188	1.91114	2.81496	2.65477
1459.000	3.71550	1.91704	2.86427	2.58327
1460.000	3.61115	1.90140	2.76171	2.60333
1461.000	3.69778	2.00433	2.90173	2.41066
1462.000	3.71156	1.94481	2.88399	2.56935
1463.000	3.70172	1.88137	2.81299	2.42671
1464.000	3.64856	1.93702	2.87018	2.42262
1465.000	3.65841	1.90725	2.86427	2.49800
1466.000	3.63281	1.99654	2.96483	2.55727
1467.000	3.62887	1.90731	2.84454	2.58530
1468.000	3.74109	1.93681	2.78538	2.54577
1469.000	3.69385	1.97063	2.89187	2.49992
1470.000	3.64069	2.02230	2.83468	2.50203
1471.000	3.70566	2.02216	2.95892	2.68615
1472.000	3.64462	1.89538	2.94511	2.57317
1473.000	3.62887	1.83988	2.91357	2.52764
1474.000	3.65250	1.98064	2.99046	2.58100
1475.000	3.69778	1.82387	2.98849	2.38469
1476.000	3.70960	1.94283	2.90765	2.58516
1477.000	3.59736	1.83201	3.02201	2.57299
1478.000	3.63675	1.94696	2.95103	2.53945
1479.000	3.68597	1.81993	3.09889	2.45186
1480.000	3.62296	1.75063	2.81496	2.61313
1481.000	3.74897	2.04188	3.02989	2.52142
1482.000	3.70369	1.98052	2.98455	2.68212
1483.000	3.68006	1.88935	2.94906	2.58110
1484.000	3.58358	1.88361	3.00426	2.58890
1485.000	3.72141	1.89720	3.00032	2.68803
1486.000	3.62493	1.86170	2.93920	2.71792
1487.000	3.69975	1.94682	3.05158	2.55904
1488.000	3.67810	2.02024	2.95300	2.54540
1489.000	3.63084	1.83194	2.99244	2.62065
1490.000	3.78637	1.93870	3.05749	2.50550
1491.000	3.66628	1.86360	2.94314	2.51171
1492.000	3.67416	1.88342	2.99441	2.70985
1493.000	3.74503	1.87533	2.99441	2.51754
1494.000	3.77259	1.82371	3.06538	2.46582
1495.000	3.73519	1.81784	3.00821	2.59087
1496.000	3.66431	1.86955	2.93131	2.52363
1497.000	3.65447	1.92312	2.95695	2.61478
1498.000	3.79031	1.86929	2.98652	2.59092
1499.000	3.76275	1.92090	2.98258	2.52153
1500.000	3.79818	1.91091	2.92737	2.76948
1501.000	3.73519	1.83767	2.94117	2.53154
1502.000	3.74897	1.86144	3.00624	2.50760
1503.000	3.75487	1.88126	2.98455	2.50368
1504.000	3.72928	1.86347	3.01609	2.59085
1505.000	3.60918	1.78041	3.03975	2.59278
1506.000	3.70566	1.84964	2.94511	2.55334
1507.000	3.69581	1.75247	3.01215	2.59879
1508.000	3.67022	1.71880	3.04567	2.52932
1509.000	3.73322	1.77025	2.80313	2.60126
1510.000	3.65447	1.87751	2.99244	2.72571
1511.000	3.62493	1.76055	3.00624	2.57105
1512.000	3.69778	1.82982	2.92342	2.53753
1513.000	3.70960	1.59178	2.96286	2.68019
1514.000	3.57373	1.81817	2.98258	2.57110
1515.000	3.80999	1.73043	3.12846	2.54300
1516.000	3.58358	1.80427	2.96089	2.50175
1517.000	3.67613	1.86755	2.89582	2.57725
1518.000	3.69581	1.85957	3.03384	2.58684
1519.000	3.71944	1.85357	2.95695	2.57513
1520.000	3.64659	1.74265	2.93328	2.54346
1521.000	3.70369	1.78022	2.91554	2.58910
1522.000	3.54813	1.73292	2.97666	2.63060
1523.000	3.67810	1.76838	2.87807	2.59514
1524.000	3.66628	1.69897	2.97469	2.65043
1525.000	3.61115	1.68519	2.89385	2.54950
1526.000	3.71353	1.68698	2.96089	2.52753
1527.000	3.64462	1.78034	3.06341	2.61849
1528.000	3.76472	1.74044	2.91357	2.58514
1529.000	3.59343	1.81218	2.89582	2.63872
1530.000	3.74306	1.82774	2.95300	2.59298
1531.000	3.68006	1.76639	2.94314	2.54740
1532.000	3.68006	1.88935	2.93723	2.64457
1533.000	3.73913	1.85948	2.97469	2.49776
1534.000	3.72731	1.81191	2.94511	2.55533
1535.000	3.61509	1.87561	2.89582	2.72000
1536.000	3.73716	1.85354	2.90371	2.58120
1537.000	3.60918	1.87760	3.02792	2.63047
1538.000	3.67219	1.69698	2.85638	2.54760
1539.000	3.60721	1.79628	2.85638	2.70424
1540.000	3.73125	1.91106	2.90173	2.67836
1541.000	3.69385	1.78619	2.97863	2.61870
1542.000	3.66038	1.72477	2.89582	2.58915
1543.000	3.51071	1.77465	2.95892	2.48589
1544.000	3.74897	1.83566	2.91554	2.60100
1545.000	3.60524	1.79629	2.96286	2.60684
1546.000	3.68203	1.83184	2.98258	2.52352
1547.000	3.59736	1.66340	2.97272	2.54535
1548.000	3.61903	1.65145	2.95892	2.48986
1549.000	3.69581	1.74454	2.93920	2.55534
1550.000	3.57570	1.76461	3.02989	2.56504
1551.000	3.56979	1.84793	2.92934	2.69019
1552.000	3.60524	1.87761	3.02989	2.59875
1553.000	3.59343	1.82408	3.01807	2.50361
1554.000	3.58752	1.74276	2.77749	2.58346
1555.000	3.62887	1.90929	2.92934	2.64657
1556.000	3.53828	1.82221	2.96089	2.64848
1557.000	3.69581	1.86552	2.91357	2.68428
1558.000	3.61903	1.83196	2.89582	2.72991
1559.000	3.64659	1.74662	3.04172	2.51148
1560.000	3.60721	1.77645	2.87215	2.55153
1561.000	3.62296	1.82402	2.99244	2.52944
1562.000	3.61509	1.76652	3.06735	2.42219
1563.000	3.57176	1.78842	2.88399	2.55348
1564.000	3.61312	1.77049	2.98849	2.48384
1565.000	3.64265	1.75456	2.91948	2.48201
1566.000	3.66628	1.77237	2.93526	2.50974
1567.000	3.75094	1.83962	2.91751	2.54548
1568.000	3.62887	1.87954	3.00624	2.45802
1569.000	3.56192	1.80629	2.98455	2.47394
1570.000	3.63478	1.70499	2.94117	2.60689
1571.000	3.57767	1.75469	3.06932	2.44400
1572.000	3.68203	1.71878	3.02989	2.53134
1573.000	3.61706	1.79031	2.94906	2.63661
1574.000	3.64659	1.79422	3.01018	2.59483
1575.000	3.50283	1.66952	2.94906	2.60885
1576.000	3.68400	1.73266	2.89385	2.62484
1577.000	3.60721	1.70107	2.93723	2.51965
1578.000	3.57570	1.71700	2.99441	2.68606
1579.000	3.63872	1.78432	2.98455	2.61868
1580.000	3.73125	1.79207	2.98652	2.51954
1581.000	3.72338	1.82183	2.86032	2.74388
1582.000	3.61312	1.83594	3.11466	2.61440
1583.000	3.71156	1.70682	3.03384	2.54917
1584.000	3.60130	1.73877	2.95892	2.50771
1585.000	3.66038	1.72279	3.10086	2.56487
1586.000	3.61903	1.70303	2.88399	2.54555
1587.000	3.64462	1.68711	3.02004	2.58291
1588.000	3.64265	1.78431	2.88990	2.60304
1589.000	3.57373	1.77453	3.00229	2.61071
1590.000	3.64659	1.77637	2.89976	2.62880
1591.000	3.67219	1.81797	3.09298	2.50740
1592.000	3.69385	1.75843	3.02201	2.60868
1593.000	3.70566	1.68303	2.87413	2.60704
1594.000	3.67810	1.76838	3.02004	2.62851
1595.000	3.55601	1.77258	3.03778	2.64829
1596.000	3.63084	1.67325	2.85441	2.57536
1597.000	3.58949	1.68722	3.01018	2.61267
1598.000	3.58949	1.73284	2.97863	2.49576
1599.000	3.52450	1.57424	2.84652	2.59521
1600.000	3.52844	1.62582	2.91948	2.57323
1601.000	3.49101	1.59017	3.06735	2.52728
1602.000	3.63478	1.70102	3.00229	2.69199
1603.000	3.53435	1.71311	2.98849	2.74951
1604.000	3.53828	1.76270	2.98652	2.65436
1605.000	3.61903	1.73080	2.98652	2.55523
1606.000	3.67810	1.76242	2.89187	2.64071
1607.000	3.57176	1.75668	3.03778	2.60666
1608.000	3.57176	1.76065	3.06144	2.63832
1609.000	3.55404	1.76663	2.96680	2.61476
1610.000	3.57373	1.67336	2.88201	2.64272
1611.000	3.59343	1.76061	2.99244	2.51556
1612.000	3.58555	1.77649	2.79721	2.60523
1613.000	3.66234	1.72874	3.03778	2.53727
1614.000	3.56192	1.81224	2.94511	2.56921
1615.000	3.64069	1.77440	2.98455	2.52748
1616.000	3.66628	1.87153	2.99638	2.57900
1617.000	3.57176	1.63170	2.95300	2.66237
1618.000	3.51859	1.76472	2.99244	2.48383
1619.000	3.61903	1.76651	2.92737	2.47208
1620.000	3.56192	1.67536	2.97469	2.46999
1621.000	3.53631	1.83808	3.00821	2.50958
1622.000	3.73913	1.70875	2.94709	2.60688
1623.000	3.59146	1.83400	2.96483	2.51364
1624.000	3.61312	1.70503	2.89385	2.58915
1625.000	3.62493	1.91724	2.95497	2.49582
1626.000	3.52253	1.74090	2.92342	2.70209
1627.000	3.65053	1.70496	3.01018	2.55518
1628.000	3.68400	1.68506	2.92145	2.62081
1629.000	3.59736	1.72291	2.94314	2.66835
1630.000	3.64462	1.66331	3.10283	2.55892
1631.000	3.62493	1.80418	3.07918	2.49157
1632.000	3.67022	1.84971	2.96089	2.64253
1633.000	3.62887	1.77046	2.94906	2.57515
1634.000	3.62099	1.75460	2.93920	2.51767
1635.000	3.64659	1.89339	3.06538	2.48168
1636.000	3.49889	1.81038	2.85441	2.64278
1637.000	3.59736	1.83399	2.80707	2.58340
1638.000	3.70763	1.89128	3.01018	2.46396
1639.000	3.57570	1.70113	2.95103	2.43435
1640.000	3.57964	1.87568	2.95695	2.58703
1641.000	3.67219	1.81401	3.00229	2.47786
1642.000	3.64659	1.88347	2.89779	2.54750
1643.000	3.72731	1.84562	3.06538	2.47375
1644.000	3.62296	1.81807	2.91948	2.53556
1645.000	3.55601	1.70712	2.76763	2.52597
1646.000	3.60524	1.75463	3.00229	2.45407
1647.000	3.69581	1.85362	2.93328	2.54346
1648.000	3.57767	1.72295	2.97469	2.60483
1649.000	3.61509	1.77842	2.97666	2.53146
1650.000	3.62493	1.88749	2.99244	2.57306
1651.000	3.66628	1.77633	3.02595	2.53730
1652.000	3.65053	1.80017	2.98455	2.48385
1653.000	3.73519	1.73851	2.90568	2.59706
1654.000	3.54616	1.78847	2.84454	2.60116
1655.000	3.62296	1.86964	2.93131	2.66243
1656.000	3.74306	1.83369	2.99638	2.52348
1657.000	3.72535	1.93685	2.92737	2.62477
1658.000	3.69975	1.82982	2.87018	2.57731
1659.000	3.77850	1.76817	2.94906	2.65842
1660.000	3.65053	1.81008	3.01609	2.61266
1661.000	3.78046	1.90500	2.84849	2.60909
1662.000	3.72141	1.81787	2.90765	2.62679
1663.000	3.64265	1.84778	2.94117	2.64456
1664.000	3.68006	1.81796	2.82482	2.69836
1665.000	3.68597	1.88934	2.92145	2.51969
1666.000	3.67219	1.85962	3.04764	2.63241
1667.000	3.65250	1.78033	3.02792	2.66814
1668.000	3.73519	1.80198	2.94709	2.63067
1669.000	3.60918	1.84983	3.06144	2.53523
1670.000	3.70369	1.83774	2.93526	2.69810
1671.000	3.74503	1.87533	2.95103	2.63859
1672.000	3.58949	1.89153	2.97469	2.55724
1673.000	3.67810	1.90324	2.97666	2.63654
1674.000	3.66825	1.73468	2.94511	2.59300
1675.000	3.69778	1.83974	3.05158	2.63240
1676.000	3.72141	1.93289	3.00624	2.62061
1677.000	3.64069	1.76647	2.96483	2.69605
1678.000	3.67613	1.85961	3.05947	2.60661
1679.000	3.79031	1.86929	2.98258	2.68609
1680.000	3.69975	1.83180	3.05947	2.68590
1681.000	3.71353	1.91903	2.92342	2.55736
1682.000	3.59146	1.80623	2.77552	2.67072
1683.000	3.40631	1.91967	2.86032	2.66259
1684.000	3.46935	1.82631	2.68675	2.63125
1685.000	3.33341	1.91783	2.31973	2.48320
1686.000	3.17774	1.92209	2.28026	2.36818
1687.000	2.77749	1.94859	2.20722	2.23532
1688.000	2.72423	1.90104	1.80441	2.20212
1689.000	2.42828	1.98685	1.64441	2.05138
1690.000	2.14800	1.93164	1.45871	2.02375
1691.000	1.94857	1.73524	1.27100	1.92259
1692.000	1.88143	1.75120	1.13070	1.69815
1693.000	1.80638	1.62611	1.06548	1.74986
1694.000	1.64639	1.50106	0.93899	1.63068
1695.000	1.53181	1.48922	0.88167	1.65456
1696.000	1.50415	1.37595	0.78284	1.80763
1697.000	1.40142	1.39589	0.74331	1.75597
1698.000	1.30657	1.17131	0.79075	1.70229
1699.000	1.45476	1.33424	0.58715	1.76001
1700.000	1.29274	1.14945	0.55354	1.67256
1701.000	1.33621	1.23889	0.49819	1.57319
1702.000	1.31250	1.13751	0.60099	1.60497
1703.000	1.16825	1.11570	0.47249	1.50958
1704.000	1.24334	0.95064	0.46459	1.46187
1705.000	1.02200	0.90100	0.44679	1.58910
1706.000	1.18010	0.91288	0.41516	1.53743
1707.000	1.03979	1.02031	0.39935	1.49170
1708.000	1.10501	0.99443	0.35388	1.48177
1709.000	1.05560	0.82343	0.40528	1.55929
1710.000	1.06746	0.92087	0.38946	1.47978
1711.000	1.06548	0.85724	0.35190	1.54738
1712.000	0.98050	0.90101	0.42505	1.49766
1713.000	0.99829	1.01833	0.50808	1.56524
1714.000	1.19591	0.92878	0.47052	1.55530
1715.000	1.17418	0.91686	0.51994	1.55132
1716.000	1.11687	1.09186	0.55750	1.55926
1717.000	1.18010	1.00037	0.49226	1.57915
1718.000	1.28484	0.88898	0.58913	1.48172
1719.000	1.21567	0.90690	0.55750	1.56125
1720.000	1.21567	0.96258	0.48633	1.60500
1721.000	1.26508	1.04210	0.49028	1.72227
1722.000	1.24334	0.93871	0.56936	1.49564
1723.000	1.28681	0.97051	0.53378	1.64474
1724.000	1.28088	0.85319	0.54564	1.74412
1725.000	1.26705	1.00432	0.56738	1.58709
1726.000	1.32238	0.94862	0.52784	1.71232
1727.000	1.17615	1.01032	0.47645	1.70041
1728.000	1.25717	1.07789	0.46854	1.66265
1729.000	1.22951	1.02024	0.64843	1.76793
1730.000	1.25124	1.05403	0.51401	1.54337
1731.000	1.03979	1.00241	0.53971	1.60300
1732.000	1.20184	1.09580	0.46656	1.75010
1733.000	1.19196	0.86316	0.61285	1.59502
1734.000	1.27496	1.02420	0.48238	1.50759
1735.000	1.23148	1.02421	0.55354	1.56324
1736.000	1.17418	1.01032	0.65831	1.54730
1737.000	1.19789	1.02820	0.51203	1.54536
1738.000	1.18010	0.99640	0.54366	1.60101
1739.000	1.27100	0.92478	0.53575	1.60300
1740.000	1.22951	0.97848	0.53971	1.56920
1741.000	1.14651	1.05009	0.46261	1.46784
1742.000	1.30064	0.91284	0.55552	1.60299
1743.000	1.19196	1.06002	0.52191	1.67853
1744.000	1.17615	1.09383	0.59506	1.48371
1745.000	1.20184	0.93674	0.43691	1.60700
1746.000	1.21765	0.99042	0.41516	1.68651
1747.000	1.21370	1.08387	0.50017	1.84151
1748.000	1.10698	1.09783	0.51598	1.54337
1749.000	1.20184	0.91685	0.51005	1.54138
1750.000	1.27298	0.91683	0.44284	1.58513
1751.000	1.24334	0.96655	0.57331	1.55528
1752.000	1.20975	0.99639	0.55157	1.64474
1753.000	1.07141	1.07995	0.47842	1.48374
1754.000	1.23544	1.03217	0.58517	1.65466
1755.000	1.29076	1.09776	0.57529	1.57913
1756.000	1.16429	0.95067	0.45075	1.70042
1757.000	1.22753	0.96854	0.50610	1.55331
1758.000	1.29669	1.01624	0.50808	1.68251
1759.000	1.21765	0.86912	0.54168	1.55330
1760.000	1.26310	1.03216	0.40923	1.73620
1761.000	1.23939	0.92678	0.57727	1.66858
1762.000	1.22555	1.06995	0.41516	1.75210
1763.000	1.29867	0.96454	0.51203	1.71431
1764.000	1.19789	1.01031	0.49622	1.67854
1765.000	1.25124	1.09380	0.50215	1.68450
1766.000	1.16232	1.01827	0.54168	1.57517
1767.000	1.28088	1.05402	0.43889	1.56724
1768.000	1.24927	0.95461	0.48040	1.66861
1769.000	1.25322	1.10970	0.37365	1.66465
1770.000	1.31645	1.13751	0.44679	1.70042
1771.000	1.27298	1.00630	0.49819	1.54138
1772.000	1.25520	1.07192	0.44284	1.72626
1773.000	1.18406	0.98446	0.48238	1.75606
1774.000	1.31052	1.03214	0.43098	1.79980
1775.000	1.23346	1.12562	0.44086	1.63085
1776.000	1.34412	0.96054	0.42505	1.67061
1777.000	1.23741	0.95064	0.45075	1.63283
1778.000	1.30460	1.06793	0.52389	1.62288
1779.000	1.20184	0.98843	0.47447	1.53741
1780.000	1.19591	0.99440	0.49028	1.75407
1781.000	1.16825	0.99043	0.48238	1.77395
1782.000	1.18998	1.07195	0.43691	1.58314
1783.000	1.18208	0.94867	0.46261	1.65072
1784.000	1.27100	1.07589	0.38156	1.67459
1785.000	1.30460	1.08184	0.48435	1.64078
1786.000	1.31052	0.96851	0.38946	1.69248
1787.000	1.16825	0.94669	0.51994	1.50162
1788.000	1.27693	1.02817	0.39539	1.56327
1789.000	1.26508	1.09578	0.52389	1.52349
1790.000	1.19987	0.89100	0.48040	1.59506
1791.000	1.23544	1.02024	0.53575	1.66462
1792.000	1.18208	0.92680	0.42702	1.70042
1793.000	1.28286	1.10770	0.37760	1.63683
1794.000	1.21567	1.05802	0.51796	1.54933
1795.000	1.14058	1.07595	0.43889	1.72427
1796.000	1.23939	1.02222	0.44284	1.71036
1797.000	1.18406	0.93674	0.40726	1.80974
1798.000	1.26112	1.02023	0.46261	1.70041
1799.000	1.19789	0.88702	0.50808	1.66661
1800.000	1.29867	0.99834	0.46656	1.71631
1801.000	1.18801	0.92481	0.45075	1.67656
1802.000	1.19196	1.00832	0.53180	1.58908
1803.000	1.03781	0.91491	0.51994	1.63083
1804.000	1.26508	0.91484	0.34795	1.78590
1805.000	1.16034	0.93874	0.42900	1.58314
1806.000	1.19591	1.00434	0.32027	1.74814
1807.000	1.16627	0.98248	0.38749	1.70838
1808.000	1.16232	0.88902	0.52389	1.59306
1809.000	1.20579	1.01428	0.36969	1.63683
1810.000	1.17220	0.87112	0.54761	1.66461
1811.000	1.17220	0.98646	0.46854	1.64078
1812.000	1.24729	0.92877	0.46261	1.65072
1813.000	1.17022	0.89499	0.28271	1.62094
1814.000	1.14256	0.96658	0.44679	1.84550
1815.000	1.13268	0.96460	0.45075	1.69247
1816.000	1.20579	1.05405	0.35190	1.75211
1817.000	1.11489	0.84728	0.32422	1.63683
1818.000	1.14453	0.94471	0.45470	1.66663
1819.000	1.14256	1.19126	0.53971	1.70636
1820.000	1.16429	0.91686	0.43889	1.66862
1821.000	1.22358	0.97451	0.39935	1.67658
1822.000	1.18998	0.97054	0.47052	1.70240
1823.000	1.18801	0.95662	0.48435	1.63084
1824.000	1.16627	1.06599	0.42900	1.67061
1825.000	1.16627	0.89499	0.58122	1.78982
1826.000	1.16232	0.97055	0.52389	1.66462
1827.000	1.19789	1.00434	0.53773	1.72623
1828.000	1.21765	0.95860	0.46656	1.76203
1829.000	1.16627	0.97055	0.50215	1.65668
1830.000	1.27891	0.91881	0.45470	1.64277
1831.000	1.20579	0.96258	0.46854	1.67457
1832.000	1.27891	1.01028	0.59308	1.69044
1833.000	1.17220	0.93078	0.51598	1.59903
1834.000	1.18998	0.85123	0.50215	1.71829
1835.000	1.02595	0.88509	0.38156	1.77596
1836.000	1.12675	1.06203	0.52784	1.69841
1837.000	1.24927	0.89496	0.55354	1.69443
1838.000	1.11884	0.88705	0.59506	1.61093
1839.000	1.26508	0.93870	0.43691	1.63681
1840.000	1.15244	1.03021	0.43296	1.69446
1841.000	1.21370	1.04013	0.55354	1.76797
1842.000	1.20975	0.92480	0.50412	1.70438
1843.000	1.21172	0.94270	0.50017	1.75208
1844.000	1.10896	1.01233	0.44679	1.62488
1845.000	1.20184	0.93276	0.50017	1.74413
1846.000	1.15837	1.04413	0.42307	1.54140
1847.000	1.16627	0.95464	0.38946	1.62291
1848.000	1.26310	1.04607	0.39737	1.78788
1849.000	1.26508	1.07987	0.46854	1.76600
1850.000	1.28286	1.04209	0.41516	1.69844
1851.000	1.15441	0.96260	0.42900	1.48772
1852.000	1.27298	1.19717	0.44284	1.64476
1853.000	1.27298	0.95858	0.35388	1.61298
1854.000	1.21765	1.02621	0.44482	1.76998
1855.000	1.20777	0.97253	0.37167	1.66664
1856.000	1.16627	1.07395	0.43493	1.76203
1857.000	1.22753	1.05205	0.47249	1.71432
1858.000	1.26112	0.98046	0.51401	1.56325
1859.000	1.28681	1.11168	0.48435	1.58313
1860.000	1.13465	0.90693	0.54959	1.57715
1861.000	1.15244	1.00237	0.38749	1.62291
1862.000	1.25322	1.04807	0.29655	1.65274
1863.000	1.24532	0.90490	0.33806	1.68653
1864.000	1.25717	1.06397	0.43296	1.70638
1865.000	1.22160	1.07591	0.47249	1.73221
1866.000	1.25915	0.99438	0.45865	1.59506
1867.000	1.20777	1.00633	0.48040	1.68650
1868.000	1.27891	1.15939	0.58320	1.70634
1869.000	1.14651	1.11770	0.43098	1.58116
1870.000	1.27891	1.13752	0.50412	1.55132
1871.000	1.21963	0.88702	0.45668	1.64874
1872.000	1.10698	0.95665	0.55947	1.64076
1873.000	1.11489	1.04016	0.39539	1.69645
1874.000	1.16825	1.03418	0.38749	1.63086
1875.000	1.12872	1.02624	0.53971	1.52547
1876.000	1.12675	1.06203	0.61482	1.62087
1877.000	1.18998	1.01628	0.42307	1.75607
1878.000	1.06153	1.03621	0.47645	1.67258
1879.000	1.24927	1.01427	0.38749	1.70838
1880.000	1.20975	0.99042	0.41516	1.57917
1881.000	1.27891	1.14150	0.51203	1.67655
1882.000	1.14651	1.05606	0.50412	1.59307
1883.000	1.18603	1.07394	0.58122	1.57714
1884.000	1.17813	0.96458	0.55750	1.64275
1885.000	1.22951	1.02421	0.50215	1.64077
1886.000	1.13268	1.02425	0.42900	1.75011
1887.000	1.20579	0.96656	0.36969	1.68851
1888.000	1.22358	0.98843	0.34993	1.76603
1889.000	1.26508	1.12958	0.48633	1.62885
1890.000	1.17418	1.06798	0.41121	1.60501
1891.000	1.20975	0.99440	0.43691	1.47182
1892.000	1.20579	1.07194	0.42702	1.66266
1893.000	1.24927	1.13555	0.51994	1.57517
1894.000	1.24532	1.03813	0.51401	1.59108
1895.000	1.14651	1.16343	0.56540	1.60498
1896.000	1.23346	1.10573	0.38156	1.64478
1897.000	1.28088	1.07191	0.47052	1.44596
1898.000	1.33028	1.05797	0.42109	1.62091
1899.000	1.19789	1.05803	0.47249	1.61693
1900.000	1.21765	1.05007	0.50412	1.56325
1901.000	1.10896	1.02426	0.44284	1.60700
1902.000	1.23939	1.07790	0.49819	1.59307
1903.000	1.24334	1.13158	0.52587	1.56921
1904.000	1.26508	0.99835	0.37563	1.78391
1905.000	1.21765	1.03217	0.37167	1.69447
1906.000	1.14256	1.06401	0.40133	1.73620
1907.000	1.24136	1.20514	0.44679	1.65470
1908.000	1.26508	1.15344	0.52389	1.52547
1909.000	1.18010	0.96458	0.46063	1.75209
1910.000	1.26310	1.11169	0.49226	1.61494
1911.000	1.17615	0.94669	0.50808	1.75208
1912.000	1.21567	1.08188	0.44284	1.63681
1913.000	1.24729	1.02023	0.49424	1.74612
1914.000	1.20184	1.08586	0.51401	1.68052
1915.000	1.29076	1.08583	0.44482	1.59109
1916.000	1.21765	1.05007	0.47645	1.64277
1917.000	1.17813	1.10973	0.34993	1.62490
1918.000	1.20579	1.11171	0.41714	1.68055
1919.000	1.30064	1.11763	0.46261	1.70041
1920.000	1.23741	1.20514	0.43098	1.69645
1921.000	1.15441	1.07793	0.50610	1.55927
1922.000	1.23544	1.15941	0.44877	1.52549
1923.000	1.20777	1.07791	0.46656	1.70439
1924.000	1.23939	1.06597	0.44086	1.69446
1925.000	1.24532	0.98444	0.36574	1.62490
1926.000	1.23544	1.07790	0.52784	1.66263
1927.000	1.28879	1.02022	0.47645	1.56326
1928.000	1.28088	1.13554	0.35586	1.68652
1929.000	1.26112	1.01426	0.43691	1.70042
1930.000	1.26903	1.11765	0.40923	1.70838
1931.000	1.32633	1.15540	0.45272	1.65271
1932.000	1.25520	1.07789	0.41912	1.61694
1933.000	1.25717	1.17730	0.44086	1.66067
1934.000	1.21172	1.02025	0.43691	1.58911
1935.000	1.26705	1.10572	0.60692	1.50358
1936.000	1.36190	1.02416	0.53971	1.66859
1937.000	1.35202	1.18123	0.46854	1.65271
1938.000	1.31052	1.16733	0.44086	1.66464
1939.000	1.13860	1.05407	0.47052	1.73619
1940.000	1.20975	1.09978	0.50017	1.58909
1941.000	1.22358	1.18129	0.49424	1.64276
1942.000	1.21765	1.10773	0.48831	1.62488
1943.000	1.18603	1.09780	0.42702	1.50164
1944.000	1.35202	1.01422	0.34202	1.65870
1945.000	1.34609	1.15340	0.42505	1.73819
1946.000	1.22358	1.09182	0.45668	1.60103
1947.000	1.28286	1.12162	0.46063	1.73818
1948.000	1.25520	1.15742	0.40923	1.67459
1949.000	1.23346	1.20117	0.39342	1.66465
1950.000	1.24532	1.08187	0.40528	1.61893
1951.000	1.22555	1.09381	0.34597	1.61497
1952.000	1.21370	1.09779	0.41319	1.66862
1953.000	1.24334	1.19122	0.35586	1.79186
1954.000	1.21172	1.18726	0.39144	1.68055
1955.000	1.29076	0.99834	0.42900	1.61097
1956.000	1.34016	1.08183	0.45470	1.61097
1957.000	1.25915	0.98841	0.64052	1.66260
1958.000	1.38956	1.16133	0.76505	1.71224
1959.000	1.44291	1.16727	1.01014	1.73200
1960.000	1.67602	1.14925	1.18010	1.78953
1961.000	1.89328	1.13122	1.54762	1.92038
1962.000	2.23486	1.08726	1.89525	1.74920
1963.000	2.54076	1.07311	2.28618	1.92749
1964.000	2.80313	1.16823	2.73015	2.04195
1965.000	3.26051	1.16376	3.03187	1.92037
1966.000	3.50283	1.15950	3.46738	2.01872
1967.000	3.73716	1.21278	3.67219	2.13128
1968.000	3.87691	1.17290	4.19559	2.09230
1969.000	4.20936	1.23588	4.46097	2.01630
1970.000	4.40201	1.14635	4.72026	1.97200
1971.000	4.65742	1.16378	5.06568	1.90368
1972.000	4.94993	1.12168	5.51260	1.96560
1973.000	5.34214	1.07545	5.82388	1.68379
1974.000	5.65164	0.95416	6.27159	1.85230
1975.000	6.06640	0.90005	6.42781	1.75694
1976.000	6.30284	0.95302	6.57028	1.76829
1977.000	6.62296	0.95835	6.84719	1.68637
1978.000	6.55663	0.82806	6.95046	1.79847
1979.000	6.75557	0.83563	7.03031	1.70939
1980.000	6.84719	0.89076	7.20746	1.61802
1981.000	7.10625	0.76198	7.27361	1.58031
1982.000	7.30862	0.84845	7.27555	1.64144
1983.000	7.37280	0.73588	7.25415	1.61588
1984.000	7.45250	0.64108	7.34168	1.55839
1985.000	7.56521	0.75725	7.36113	1.51691
1986.000	7.57104	0.71978	7.39224	1.57398
1987.000	7.69922	0.76884	7.44084	1.73149
1988.000	7.73610	0.85746	7.43890	1.58367
1989.000	7.74387	0.73525	7.47777	1.57959
1990.000	7.73804	0.77074	7.38057	1.47544
1991.000	7.77492	0.81797	7.35529	1.45581
1992.000	7.71863	0.77866	7.35724	1.31777
1993.000	7.70116	0.83980	7.21719	1.47598
1994.000	7.74581	0.82394	7.23470	1.46212
1995.000	7.50692	0.82046	7.08094	1.32252
1996.000	7.46805	0.80870	7.06926	1.40148
1997.000	7.47000	0.76333	7.00499	1.36813
1998.000	7.41751	0.72200	6.98747	1.54776
1999.000	7.47194	0.75544	6.86083	1.48698
2000.000	7.43890	0.77917	6.95630	1.52418
2001.000	7.42529	0.69043	6.85303	1.44556
2002.000	7.53218	0.87759	6.97773	1.67604
2003.000	7.46805	0.76728	6.99331	1.54182
2004.000	7.44862	0.71012	7.03615	1.58311
2005.000	7.44084	0.59967	6.96020	1.61691
2006.000	7.54967	0.71784	7.01084	1.56346
2007.000	7.44667	0.71209	7.08873	1.62041
2008.000	7.54190	0.77504	7.04784	1.53966
2009.000	7.47777	0.77910	7.09846	1.68744
2010.000	7.49526	0.80076	7.01473	1.62462
2011.000	7.50109	0.74947	7.07315	1.56325
2012.000	7.65067	0.78864	7.11014	1.66570
2013.000	7.59435	0.65270	7.16075	1.53140
2014.000	7.62931	0.73939	7.17827	1.59445
2015.000	7.60600	0.77887	7.09457	1.48230
2016.000	7.70310	0.76292	7.04784	1.59293
2017.000	7.62737	0.76700	7.10041	1.58486
2018.000	7.56521	0.65669	7.10819	1.52763
2019.000	7.59629	0.76114	7.05563	1.47058
2020.000	7.59824	0.77099	7.10430	1.49410
2021.000	7.66038	0.85170	7.15491	1.55706
2022.000	7.63320	0.67038	7.10235	1.59275
2023.000	7.55355	0.76910	7.13739	1.50386
2024.000	7.56327	0.84795	7.15491	1.67343
2025.000	7.52635	0.77507	6.98162	1.52212
2026.000	7.54773	0.72376	7.09262	1.43890
2027.000	7.55550	0.81642	7.09067	1.53952
2028.000	7.67980	0.82013	7.09457	1.63025
2029.000	7.60406	0.85773	7.10430	1.52764
2030.000	7.65067	0.86158	7.10819	1.42109
2031.000	7.55161	0.86967	7.11793	1.48814
2032.000	7.52635	0.79478	7.11209	1.49605
2033.000	7.54773	0.83024	7.05173	1.52190
2034.000	7.56715	0.73161	7.11598	1.48223
2035.000	7.60600	0.84787	7.04200	1.46865
2036.000	7.59435	0.83212	7.12571	1.53349
2037.000	7.66427	0.86747	7.08678	1.54348
2038.000	7.59047	0.77298	7.03421	1.53971
2039.000	7.51858	0.75536	7.11793	1.59861
2040.000	7.55355	0.78882	7.16270	1.42092
2041.000	7.54967	0.95840	7.10625	1.49607
2042.000	7.53413	0.85984	7.07704	1.48630
2043.000	7.65844	0.85565	7.09067	1.53360
2044.000	7.55938	0.84599	7.09067	1.53558
2045.000	7.51275	0.87369	7.08678	1.51586
2046.000	7.55938	0.77106	7.03615	1.54365
2047.000	7.56910	0.75527	7.09846	1.44480
2048.000	7.57881	0.86567	7.09067	1.50993
2049.000	7.58852	0.85185	7.06731	1.43503
2050.000	7.62349	0.74335	7.04784	1.52980
2051.000	7.54773	0.92882	7.10235	1.53159
2052.000	7.60989	0.83012	7.10430	1.53159
2053.000	7.58270	0.89523	7.04005	1.44893
2054.000	7.53218	0.83421	6.97578	1.60107
2055.000	7.50109	0.85596	7.04978	1.57320
2056.000	7.60795	0.83604	7.16464	1.37555
2057.000	7.63708	0.80444	7.18410	1.42678
2058.000	7.55550	0.81445	7.09457	1.53556
2059.000	7.52830	0.83422	7.08678	1.57307
2060.000	7.47000	0.82841	7.02836	1.54959
2061.000	7.50303	0.87371	7.17437	1.54121
2062.000	7.52052	0.79282	7.10041	1.60853
2063.000	7.54190	0.82631	7.07899	1.45670
2064.000	7.59629	0.88535	7.04978	1.54755
2065.000	7.49720	0.91907	7.06731	1.64021
2066.000	7.52441	0.79282	7.14713	1.59259
2067.000	7.48554	0.76922	7.07315	1.47053
2068.000	7.52247	0.82437	7.18605	1.59048
2069.000	7.57104	0.92089	7.11014	1.58483
2070.000	7.58270	0.77891	7.07899	1.56521
2071.000	7.52247	0.84803	7.04978	1.61266
2072.000	7.46028	0.86985	7.06342	1.52580
2073.000	7.62737	0.83403	7.23664	1.48578
2074.000	7.57881	0.79863	7.16659	1.51757
2075.000	7.47194	0.87574	7.03421	1.59890
2076.000	7.56327	0.88542	7.11987	1.53942
2077.000	7.48360	0.76725	7.01863	1.53582
2078.000	7.43112	0.70620	7.16464	1.51560
2079.000	7.59435	0.77100	7.06926	1.57116
2080.000	7.45639	0.92902	7.09457	1.53556
2081.000	7.43501	0.72000	7.11598	1.45461
2082.000	7.51275	0.77509	7.17437	1.53332
2083.000	7.54773	0.85390	7.18410	1.57471
2084.000	7.53413	0.85393	7.17437	1.49782
2085.000	7.42335	0.81075	7.10819	1.47239
2086.000	7.49720	0.81259	7.04784	1.51993
2087.000	7.54773	0.84404	7.01473	1.54964
2088.000	7.49915	0.76723	7.10235	1.36981
2089.000	7.53413	0.74547	7.15491	1.51958
2090.000	7.57104	0.71780	7.15296	1.46435
2091.000	7.48749	0.71794	7.26972	1.47975
2092.000	7.57104	0.83808	7.05173	1.46862
2093.000	7.53413	0.81843	7.12182	1.48813
2094.000	7.48166	0.81262	7.08483	1.49417
2095.000	7.45445	0.89747	7.16464	1.54125
2096.000	7.57492	0.67245	7.12766	1.51178
2097.000	7.56715	0.68823	7.11403	1.52761
2098.000	7.53413	0.82829	7.22886	1.49172
2099.000	7.47971	0.73176	7.16270	1.60043
2100.000	7.44084	0.72788	7.02642	1.52790
2101.000	7.48943	0.73569	7.10235	1.50989
2102.000	7.46222	0.80082	7.05368	1.59489
2103.000	7.47388	0.71797	7.00499	1.44114
2104.000	7.47194	0.69825	7.01084	1.43521
2105.000	7.57298	0.77695	7.17437	1.47809
2106.000	7.47583	0.74557	7.07899	1.50405
2107.000	7.50886	0.73566	7.21719	1.49965
2108.000	7.50692	0.78890	6.98747	1.55170
2109.000	7.48943	0.83232	7.18605	1.42677
2110.000	7.45445	0.82253	7.05368	1.42126
2111.000	7.45250	0.78900	7.13934	1.55317
2112.000	7.45250	0.79886	7.02252	1.51607
2113.000	7.53024	0.82436	7.17243	1.46429
2114.000	7.44278	0.75549	7.20356	1.55295
2115.000	7.55355	0.75333	7.23275	1.60018
2116.000	7.49526	0.73173	7.27166	1.51327
2117.000	7.53024	0.90717	7.13934	1.46637
2118.000	7.46028	0.65487	7.11793	1.46644
2119.000	7.54190	0.70997	7.01278	1.52400
2120.000	7.55355	0.72178	7.19967	1.48787
2121.000	7.50692	0.69227	7.11987	1.57493
2122.000	7.48749	0.74753	7.07120	1.54353
2123.000	7.43695	0.78706	7.11598	1.58481
2124.000	7.58464	0.76707	7.01668	1.43716
2125.000	7.54384	0.79870	7.18410	1.47806
2126.000	7.47000	0.75939	7.12377	1.48812
2127.000	7.45056	0.86395	7.07899	1.47643
2128.000	7.36502	0.73984	7.07510	1.53760
2129.000	7.45639	0.80280	7.12766	1.31647
2130.000	7.60989	0.70788	7.18800	1.34983
2131.000	7.47000	0.74361	7.14713	1.61231
2132.000	7.51858	0.73958	7.12182	1.56309
2133.000	7.49137	0.72385	7.01084	1.50822
2134.000	7.57104	0.74344	7.17048	1.37947
2135.000	7.56910	0.62513	7.13155	1.39537
2136.000	7.59629	0.72959	7.09651	1.58488
2137.000	7.55161	0.88544	7.11793	1.56508
2138.000	7.47000	0.77319	7.04394	1.53179
2139.000	7.45056	0.69434	7.19383	1.53720
2140.000	7.48360	0.66864	7.04978	1.52782
2141.000	7.50109	0.76919	7.18605	1.49778
2142.000	7.45833	0.74363	7.09651	1.54345
2143.000	7.45445	0.72391	7.10625	1.51580
2144.000	7.55744	0.72571	7.11403	1.52761
2145.000	7.46805	0.77911	7.17632	1.46428
2146.000	7.52052	0.69422	7.10235	1.50595
2147.000	7.46417	0.81068	7.03421	1.54563
2148.000	7.41751	0.71214	7.14713	1.45648
2149.000	7.47583	0.74163	7.05952	1.52976
2150.000	7.51081	0.74551	7.12961	1.51177
2151.000	7.40002	0.74570	7.03031	1.50223
2152.000	7.45639	0.70616	7.06342	1.50213
2153.000	7.40974	0.78119	7.06926	1.47449
2154.000	7.46805	0.72981	7.13934	1.52358
2155.000	7.57104	0.76513	7.09067	1.39747
2156.000	7.55744	0.71191	7.10819	1.45266
2157.000	7.57104	0.72175	7.06536	1.68165
2158.000	7.43501	0.72000	7.01473	1.48255
2159.000	7.44667	0.64503	7.05173	1.57714
2160.000	7.56910	0.69612	7.02836	1.51605
2161.000	7.54190	0.78293	7.09457	1.53359
2162.000	7.45639	0.76730	7.05173	1.51203
2163.000	7.54967	0.72178	7.15880	1.44658
2164.000	7.47000	0.67655	7.11403	1.48618
2165.000	7.56910	0.62119	7.18216	1.41100
2166.000	7.54384	0.70010	7.16270	1.38147
2167.000	7.46222	0.69629	7.17048	1.47022
2168.000	7.52441	0.85592	7.10625	1.51777
2169.000	7.56133	0.66852	7.17632	1.61813
2170.000	7.57492	0.72371	7.13739	1.44270
2171.000	7.52247	0.58576	7.15686	1.51760
2172.000	7.50303	0.68242	7.06536	1.57709
2173.000	7.45639	0.59176	7.07120	1.49618
2174.000	7.42723	0.72988	7.10041	1.40533
2175.000	7.44278	0.59770	7.05563	1.38179
2176.000	7.52052	0.79874	7.04005	1.47853
2177.000	7.46611	0.68248	7.12961	1.38157
2178.000	7.45833	0.65093	7.02447	1.53185
2179.000	7.45056	0.62727	7.12961	1.40722
2180.000	7.47971	0.59765	7.19383	1.50564
2181.000	7.48166	0.73570	7.04200	1.38183
2182.000	7.59241	0.63101	7.16075	1.52942
2183.000	7.54190	0.66067	7.13739	1.47427
2184.000	7.43695	0.68647	7.11403	1.35991
2185.000	7.63125	0.63687	7.20551	1.55294
2186.000	7.41751	0.64507	7.01863	1.47267
2187.000	7.54578	0.73559	7.15296	1.45646
2188.000	7.46417	0.68248	7.06147	1.39756
2189.000	7.49137	0.72385	7.04978	1.53769
2190.000	7.44667	0.54641	7.09846	1.45269
2191.000	7.44473	0.81071	7.12571	1.48417
2192.000	7.46222	0.69432	7.05173	1.43311
2193.000	7.44278	0.55430	6.97578	1.42545
2194.000	7.40196	0.63129	7.11793	1.43487
2195.000	7.54773	0.69221	7.10430	1.60655
2196.000	7.48749	0.70019	7.01668	1.33455
2197.000	7.44084	0.76338	7.05757	1.43506
2198.000	7.55938	0.78487	7.14713	1.48607
2199.000	7.44473	0.69434	6.99720	1.52799
2200.000	7.40390	0.72991	7.17827	1.44849
2201.000	7.40974	0.74371	7.09262	1.41917
2202.000	7.52052	0.61140	7.11793	1.54732
2203.000	7.44862	0.70617	7.02447	1.50225
2204.000	7.53801	0.65673	7.11598	1.55325
2205.000	7.47583	0.68049	7.05563	1.47058
2206.000	7.39613	0.69837	7.04005	1.51404
2207.000	7.56133	0.71388	6.98747	1.54578
2208.000	7.53607	0.75927	7.15102	1.52157
2209.000	7.53024	0.72970	7.11598	1.67357
2210.000	7.51664	0.66268	7.04978	1.46863
2211.000	7.50498	0.69228	7.04978	1.42917
2212.000	7.56910	0.70992	7.03810	1.65807
2213.000	7.52635	0.78295	7.08873	1.50599
2214.000	7.43306	0.59377	7.06731	1.45871
2215.000	7.49332	0.72779	7.15686	1.55705
2216.000	7.35918	0.69448	7.00110	1.46484
2217.000	7.47971	0.69626	7.07120	1.59285
2218.000	7.49137	0.66666	7.16464	1.50771
2219.000	7.51081	0.76326	7.15686	1.47618
2220.000	7.51469	0.69818	7.13934	1.54725
2221.000	7.43112	0.74368	7.07315	1.54747
2222.000	7.50692	0.74355	7.11209	1.58877
2223.000	7.39029	0.70824	7.19189	1.57074
2224.000	7.44473	0.72590	7.08678	1.60266
2225.000	7.43112	0.62138	7.13155	1.56503
2226.000	7.49332	0.86978	7.02642	1.54171
2227.000	7.42529	0.71213	7.20162	1.55690
2228.000	7.41557	0.72595	7.05563	1.51004
2229.000	7.43501	0.76931	7.04394	1.49824
2230.000	7.49915	0.74159	7.13545	1.55318
2231.000	7.47971	0.80670	7.13545	1.57291
2232.000	7.45250	0.79886	7.07510	1.53563
2233.000	7.46028	0.76729	7.01863	1.45097
2234.000	7.53995	0.79870	6.98357	1.59710
2235.000	7.53995	0.83025	7.13155	1.56108
2236.000	7.45250	0.83831	7.07120	1.57115
2237.000	7.48943	0.66075	7.08483	1.54546
2238.000	7.40196	0.64510	7.07315	1.58496
2239.000	7.40002	0.79501	7.01278	1.53781
2240.000	7.40585	0.72991	7.11793	1.53549
2241.000	7.48943	0.69822	7.01084	1.71144
2242.000	7.38641	0.80687	6.98941	1.56748
2243.000	7.47777	0.87179	7.04200	1.51995
2244.000	7.35335	0.76156	6.94266	1.63473
2245.000	7.48360	0.76528	7.15491	1.60637
2246.000	7.45639	0.70419	7.07704	1.68358
2247.000	7.50303	0.77116	7.15102	1.64978
2248.000	7.50498	0.81849	7.35918	1.64113
2249.000	7.67398	0.80437	7.39418	1.60946
2250.000	7.79821	0.78245	7.68563	1.65368
2251.000	7.86030	0.63061	7.93401	1.47156
2252.000	8.05228	0.58699	8.15885	1.40580
2253.000	8.23632	0.58475	8.34860	1.12772
2254.000	8.52077	0.45448	8.60583	1.29409
2255.000	8.70244	0.40313	8.83375	1.07519
2256.000	8.94182	0.28693	9.13464	1.03699
2257.000	9.10573	0.25733	9.32918	0.71454
2258.000	9.28875	0.09424	9.67534	0.61185
2259.000	9.43887	-0.07065	9.76753	0.51366
2260.000	9.51966	-0.30215	9.97094	0.11560
2261.000	9.67534	-0.47262	10.23728	-0.01175
2262.000	9.80017	-0.49009	10.32916	0.01370
2263.000	9.97094	-0.46436	10.33298	-0.19180
2264.000	10.05338	-0.54260	10.45539	-0.37758
2265.000	10.11087	-0.56796	10.77626	-0.42018
2266.000	10.25834	-0.68122	10.64646	-0.48683
2267.000	10.30236	-0.65569	10.66747	-0.59627
2268.000	10.36933	-0.82186	10.63692	-0.52204
2269.000	10.29280	-0.97666	10.80678	-0.61553
2270.000	10.34064	-0.90020	10.83730	-0.75028
2271.000	10.21239	-1.03758	10.79724	-0.98287
2272.000	10.27748	-1.00802	10.93453	-1.25383
2273.000	10.32150	-1.11353	10.85446	-1.19167
2274.000	10.24303	-1.06488	10.78007	-0.92822
2275.000	10.27748	-1.10390	10.78770	-1.22124
2276.000	10.35403	-1.23470	10.88497	-1.42782
2277.000	10.31767	-1.19963	10.85255	-1.37525
2278.000	10.26600	-1.16852	10.90784	-1.44137
2279.000	10.29280	-1.23299	10.88687	-1.34580
2280.000	10.33872	-1.42255	10.76672	-1.44401
2281.000	10.29854	-1.41490	10.77244	-1.44593
2282.000	10.30236	-1.32881	10.69992	-1.42870
2283.000	10.33681	-1.40104	10.81059	-1.51019
2284.000	10.25451	-1.46205	10.67510	-1.37801
2285.000	10.28514	-1.44039	10.78961	-1.57084
2286.000	10.32533	-1.45586	10.69038	-1.37794
2287.000	10.38846	-1.43210	10.71901	-1.39930
2288.000	10.26600	-1.43657	10.71519	-1.53606
2289.000	10.27940	-1.49519	10.65028	-1.26870
2290.000	10.32533	-1.41283	10.75527	-1.23895
2291.000	10.31576	-1.45003	10.77053	-1.34828
2292.000	10.31385	-1.31507	10.52420	-1.06197
2293.000	10.35211	-1.34034	10.62164	-1.29031
2294.000	10.36933	-1.27767	10.66556	-1.11620
2295.000	10.31767	-1.20746	10.52994	-0.84295
2296.000	10.36359	-1.20141	10.48789	-1.01712
2297.000	10.29280	-1.27994	10.53185	-1.22031
2298.000	10.38081	-1.36368	10.64646	-1.13582
2299.000	10.29280	-1.28385	10.64073	-1.04788
2300.000	10.33490	-1.32476	10.73046	-1.11010
2301.000	10.32341	-1.31698	10.64455	-0.94623
2302.000	10.29280	-1.31907	10.66556	-1.25495
2303.000	10.33298	-1.33846	10.61973	-1.04209
2304.000	10.35211	-1.37946	10.75145	-1.22139
2305.000	10.27174	-1.31329	10.71901	-0.86783
2306.000	10.36168	-1.24445	10.58917	-1.06175
2307.000	10.43053	-1.28133	10.58917	-1.04415
2308.000	10.35785	-1.35596	10.53185	-0.88792
2309.000	10.37890	-1.38912	10.58153	-0.85649
2310.000	10.39611	-1.29517	10.60445	-1.13402
2311.000	10.34255	-1.36972	10.72473	-1.09058
2312.000	10.31385	-1.34050	10.74954	-0.99085
2313.000	10.25643	-1.30944	10.57962	-0.88778
2314.000	10.42862	-1.44560	10.67510	-0.87187
2315.000	10.29088	-1.34060	10.56242	-1.03447
2316.000	10.35785	-1.38139	10.60636	-0.79386
2317.000	10.39802	-1.37143	10.60445	-0.85643
2318.000	10.32533	-1.35806	10.57388	-1.15173
2319.000	10.24494	-1.37014	10.57006	-1.07159
2320.000	10.33872	-1.41668	10.50892	-0.86060
2321.000	10.31576	-1.36397	10.77435	-1.06305
2322.000	10.42862	-1.33610	10.68656	-1.24900
2323.000	10.25643	-1.46791	10.58535	-1.23183
2324.000	10.30619	-1.29358	10.57962	-0.92297
2325.000	10.31385	-1.28181	10.59299	-0.97767
2326.000	10.27557	-1.36218	10.71710	-0.98118
2327.000	10.38655	-1.31868	10.69038	-1.07312
2328.000	10.24686	-1.35252	10.69992	-0.90306
2329.000	10.29280	-1.41102	10.61973	-1.03036
2330.000	10.36359	-1.44199	10.65601	-1.14946
2331.000	10.27557	-1.37001	10.60636	-1.08319
2332.000	10.32341	-1.39914	10.74382	-1.27221
2333.000	10.33298	-1.41475	10.61400	-1.11639
2334.000	10.20090	-1.37229	10.62164	-0.98344
2335.000	10.35211	-1.33838	10.61209	-1.22976
2336.000	10.33490	-1.32281	10.59108	-0.90730
2337.000	10.33107	-1.32673	10.75527	-1.03186
2338.000	10.28323	-1.26433	10.52994	-0.93290
2339.000	10.35785	-1.26990	10.62546	-1.16717
2340.000	10.31002	-1.41485	10.68274	-1.08292
2341.000	10.29854	-1.34839	10.54714	-0.85268
2342.000	10.33107	-1.40302	10.66174	-1.21393
2343.000	10.25451	-1.54422	10.58917	-0.93076
2344.000	10.37698	-1.37152	10.68274	-1.13373
2345.000	10.27557	-1.35436	10.66365	-1.15725
2346.000	10.33107	-1.43823	10.53376	-1.06976
2347.000	10.20090	-1.38403	10.61018	-1.11054
2348.000	10.31193	-1.30334	10.74573	-1.20773
2349.000	10.31576	-1.40504	10.61400	-1.01475
2350.000	10.32724	-1.29936	10.70374	-1.04962
2351.000	10.37890	-1.38716	10.82394	-1.18203
2352.000	10.31959	-1.26418	10.77435	-1.19394
2353.000	10.42289	-1.35372	10.65601	-0.77809
2354.000	10.38655	-1.44384	10.61400	-0.97956
2355.000	10.37890	-1.38520	10.75718	-0.98691
2356.000	10.34064	-1.33061	10.70756	-1.15904
2357.000	10.36168	-1.37355	10.70374	-1.03594
2358.000	10.34638	-1.32471	10.61591	-0.92286
2359.000	10.42097	-1.34395	10.78007	-1.16853
2360.000	10.37507	-1.38522	10.72855	-1.14919
2361.000	10.40950	-1.23057	10.69992	-1.19619
2362.000	10.42671	-1.31068	10.75336	-1.25459
2363.000	10.32150	-1.45392	10.60445	-1.23957
2364.000	10.29854	-1.36795	10.74763	-1.23117
2365.000	10.40567	-1.35966	10.64264	-1.06156
2366.000	10.40376	-1.31274	10.70374	-1.00272
2367.000	10.34255	-1.38732	10.57579	-1.16345
2368.000	10.37507	-1.38522	10.63692	-0.82897
2369.000	10.32341	-1.34633	10.65028	-1.04981
2370.000	10.45539	-1.40051	10.65219	-1.10257
2371.000	10.36359	-1.31486	10.68847	-1.01059
2372.000	10.38081	-1.43213	10.61782	-1.17892
2373.000	10.37507	-1.41651	10.70756	-1.20007
2374.000	10.37507	-1.31872	10.65410	-1.03807
2375.000	10.35211	-1.39901	10.69038	-0.87964
2376.000	10.39229	-1.30887	10.60254	-1.04215
2377.000	10.35403	-1.32664	10.75145	-1.21162
2378.000	10.40950	-1.40658	10.70946	-1.23914
2379.000	10.46495	-1.33203	10.72282	-1.24495
2380.000	10.40950	-1.45156	10.68465	-1.36039
2381.000	10.35977	-1.38333	10.55478	-1.14593
2382.000	10.28514	-1.33280	10.53567	-1.13232
2383.000	10.33490	-1.48515	10.66556	-1.27059
2384.000	10.43818	-1.43383	10.76481	-1.16272
2385.000	10.36551	-1.39309	10.70183	-1.35445
2386.000	10.35785	-1.33836	10.65792	-0.88560
2387.000	10.38846	-1.34996	10.73809	-1.13743
2388.000	10.31385	-1.45396	10.51083	-1.06593
2389.000	10.33107	-1.36194	10.45730	-0.88422
2390.000	10.34829	-1.44011	10.62164	-1.12614
2391.000	10.41906	-1.40849	10.65601	-1.08106
2392.000	10.39229	-1.35777	10.50318	-1.05618
2393.000	10.40567	-1.41051	10.76481	-1.22133
2394.000	10.42097	-1.41631	10.70756	-1.20984
2395.000	10.53185	-1.41775	10.69419	-1.13955
2396.000	10.49362	-1.47267	10.65601	-1.10647
2397.000	10.30045	-1.46575	10.71137	-1.10822
2398.000	10.37890	-1.38912	10.72092	-1.07692
2399.000	10.35020	-1.48899	10.65219	-1.33513
2400.000	10.41141	-1.42417	10.77244	-1.06697
2401.000	10.38081	-1.37933	10.70183	-1.09848
2402.000	10.44583	-1.42206	10.73809	-1.18627
2403.000	10.48980	-1.40035	10.72855	-1.18045
2404.000	10.37316	-1.38719	10.71901	-1.37586
2405.000	10.34638	-1.42056	10.67701	-1.29985
2406.000	10.33298	-1.40301	10.63119	-1.15737
2407.000	10.41332	-1.38505	10.52994	-1.16753
2408.000	10.41906	-1.40458	10.71519	-1.10820
2409.000	10.38272	-1.48297	10.63310	-1.12023
2410.000	10.45348	-1.30079	10.65601	-0.99311
2411.000	10.39611	-1.43793	10.65028	-1.34295
2412.000	10.34829	-1.44597	10.60445	-1.28843
2413.000	10.39994	-1.48680	10.73809	-1.22925
2414.000	10.38655	-1.42820	10.66365	-1.14162
2415.000	10.41906	-1.41436	10.63119	-0.97755
2416.000	10.44774	-1.35557	10.67128	-1.18458
2417.000	10.36359	-1.37158	10.68656	-1.20211
2418.000	10.39611	-1.48095	10.72855	-1.03195
2419.000	10.42480	-1.46126	10.70565	-1.12778
2420.000	10.34064	-1.48512	10.64073	-1.23356
2421.000	10.41524	-1.38113	10.58535	-0.95424
2422.000	10.40185	-1.40661	10.72282	-1.18633
2423.000	10.37890	-1.48103	10.53185	-1.06585
2424.000	10.46304	-1.44153	10.62546	-1.07335
2425.000	10.45922	-1.41027	10.55287	-1.14398
2426.000	10.40376	-1.35967	10.67319	-1.07904
2427.000	10.38081	-1.38520	10.65792	-1.06542
2428.000	10.36551	-1.44198	10.60827	-1.09491
2429.000	10.42671	-1.35371	10.73428	-1.15893
2430.000	10.37125	-1.54756	10.64455	-1.13973
2431.000	10.43818	-1.45729	10.65983	-1.21003
2432.000	10.40567	-1.46331	10.65601	-1.20027
2433.000	10.38846	-1.42428	10.55478	-1.10292
2434.000	10.37698	-1.49473	10.52420	-1.01895
2435.000	10.37125	-1.47911	10.57006	-1.19670
2436.000	10.39802	-1.53374	10.77435	-1.22520
2437.000	10.42480	-1.51992	10.66938	-1.06538
2438.000	10.47069	-1.45909	10.61018	-1.10077
2439.000	10.41332	-1.45545	10.58535	-1.22792
2440.000	10.43436	-1.48859	10.65410	-1.11234
2441.000	10.38081	-1.50253	10.69801	-1.24310
2442.000	10.35977	-1.44983	10.54140	-0.89376
2443.000	10.44201	-1.47291	10.67892	-1.26467
2444.000	10.39229	-1.39492	10.63119	-1.05574
2445.000	10.41141	-1.38897	10.74191	-1.23119
2446.000	10.46113	-1.47087	10.65028	-1.29410
2447.000	10.40950	-1.49849	10.50509	-0.93884
2448.000	10.41906	-1.48084	10.59299	-1.18097
2449.000	10.38464	-1.42820	10.60063	-0.96787
2450.000	10.43627	-1.49640	10.59299	-0.97376
2451.000	10.32341	-1.54388	10.69038	-1.10439
2452.000	10.38272	-1.53968	10.67128	-1.21389
2453.000	10.41715	-1.52387	10.66556	-1.14943
2454.000	10.40950	-1.56692	10.60636	-0.96785
2455.000	10.44774	-1.54522	10.66556	-1.10448
2456.000	10.42097	-1.47692	10.58917	-0.96009
2457.000	10.45348	-1.53933	10.53567	-1.03651
2458.000	10.41524	-1.42806	10.60827	-1.20242
2459.000	10.33490	-1.50862	10.62928	-1.24533
2460.000	10.49745	-1.54302	10.71519	-1.12384
2461.000	10.39611	-1.41446	10.57770	-1.32177
2462.000	10.44966	-1.51784	10.51656	-1.00725
2463.000	10.37316	-1.59252	10.45922	-1.07588
2464.000	10.43436	-1.51205	10.72664	-1.14138
2465.000	10.40567	-1.43984	10.58535	-1.08326
2466.000	10.45157	-1.49828	10.61400	-1.22194
2467.000	10.49171	-1.48441	10.60063	-1.09103
2468.000	10.44966	-1.51589	10.46686	-1.12084
2469.000	10.41524	-1.40460	10.57388	-1.05984
2470.000	10.42862	-1.48862	10.47833	-1.12471
2471.000	10.55287	-1.45088	10.61591	-1.11052
2472.000	10.39611	-1.43793	10.61973	-0.92285
2473.000	10.40567	-1.50828	10.55096	-1.19678
2474.000	10.38081	-1.53773	10.66365	-1.12794
2475.000	10.40759	-1.49654	10.51274	-1.00139
2476.000	10.45539	-1.49044	10.58917	-0.98159
2477.000	10.42289	-1.56881	10.47069	-1.30268
2478.000	10.39037	-1.50053	10.58726	-0.99724
2479.000	10.45348	-1.50023	10.44774	-0.88425
2480.000	10.58535	-1.47614	10.60636	-1.24738
2481.000	10.55096	-1.47630	10.70183	-1.04181
2482.000	10.46495	-1.52168	10.58535	-1.07153
2483.000	10.58726	-1.56602	10.71519	-1.12774
2484.000	10.57388	-1.55241	10.71137	-1.15511
2485.000	10.56433	-1.46842	10.67319	-1.25101
2486.000	10.53376	-1.24376	10.48980	-0.73549
2487.000	10.41715	-1.25792	10.27366	-1.08826
2488.000	10.24303	-1.31536	10.15302	-1.08672
2489.000	9.99203	-1.25177	9.89421	-0.74470
2490.000	9.67534	-1.05497	9.56772	-0.53358
2491.000	9.30415	-0.99724	9.02090	-0.55799
2492.000	8.67733	-1.02256	8.56717	-0.57245
2493.000	8.44341	-0.87367	8.13948	-0.34070
2494.000	8.00769	-0.75251	7.47777	-0.51284
2495.000	7.79045	-0.76276	7.11793	-0.51128
2496.000	7.10625	-0.66921	6.60345	-0.36362
2497.000	6.81795	-0.61827	6.10745	-0.50046
2498.000	6.08204	-0.56180	5.63794	-0.51276
2499.000	5.49693	-0.59209	5.04802	-0.47164
2500.000	5.04802	-0.66187	4.62207	-0.38072
2501.000	4.51402	-0.67428	4.05989	-0.56753
2502.000	4.00677	-0.67869	3.60721	-0.46062
2503.000	3.55601	-0.71478	3.10086	-0.46881
2504.000	2.86821	-0.56229	2.52300	-0.46705
2505.000	2.37697	-0.80895	1.97424	-0.47717
2506.000	2.05718	-0.60636	1.52589	-0.47331
2507.000	1.47057	-0.91874	1.17022	-0.37393
2508.000	1.11489	-0.69415	0.59901	-0.35211
2509.000	0.53378	-0.89911	0.35783	-0.31233
2510.000	0.19968	-0.88125	-0.19572	-0.39589
2511.000	-0.15421	-0.98666	-0.45668	-0.30636
2512.000	-0.46459	-0.84741	-0.93899	-0.26854
2513.000	-0.85400	-0.80757	-1.14058	-0.07558
2514.000	-1.26705	-0.86115	-1.40339	-0.08552
2515.000	-1.38758	-0.97047	-1.79848	-0.29429
2516.000	-1.59108	-0.85904	-2.13812	-0.19682
2517.000	-1.74318	-0.72975	-2.31776	-0.01789
2518.000	-1.97819	-0.89464	-2.67886	-0.06359
2519.000	-2.49538	-0.85657	-2.85835	-0.12319
2520.000	-2.50722	-0.74131	-3.21124	-0.06158
2521.000	-2.97469	-0.76486	-3.59736	0.00596
2522.000	-3.37085	-0.84200	-3.85723	-0.09329
2523.000	-3.44571	-0.66324	-4.24475	-0.01984
2524.000	-3.90249	-0.63115	-4.37056	0.02777
2525.000	-4.12283	-0.67661	-4.69277	0.10112
2526.000	-4.36663	-0.64070	-4.99702	-0.10702
2527.000	-4.70062	-0.68401	-5.12844	-0.01783
2528.000	-5.11079	-0.43791	-5.47930	0.04159
2529.000	-5.35978	-0.41991	-5.75343	0.04355
2530.000	-5.41857	-0.52879	-6.02925	0.20576
2531.000	-5.73582	-0.34640	-6.29503	-0.07910
2532.000	-5.92365	-0.51052	-6.60150	-0.11462
2533.000	-6.09963	-0.28090	-6.96020	-0.01580
2534.000	-6.25010	-0.17798	-7.14129	0.05132
2535.000	-6.60345	-0.18774	-7.30862	0.06709
2536.000	-6.70487	-0.09286	-7.34752	0.10260
2537.000	-6.82770	-0.30420	-7.43695	0.17162
2538.000	-6.98747	-0.25473	-7.55161	0.14791
2539.000	-6.94266	-0.09677	-7.55161	0.23666
2540.000	-7.11403	-0.17372	-7.48360	0.27220
2541.000	-6.91149	-0.14417	-7.46028	0.22093
2542.000	-6.89396	-0.16590	-7.28333	0.21707
2543.000	-6.83549	-0.09086	-7.24832	0.27827
2544.000	-6.76922	-0.14817	-7.19773	0.19935
2545.000	-6.71657	-0.05137	-6.87837	0.23899
2546.000	-6.77896	-0.04149	-6.97383	0.35347
2547.000	-6.66002	-0.18377	-6.77896	0.16594
2548.000	-6.64051	-0.18180	-6.83939	0.26864
2549.000	-6.62686	-0.22133	-6.84329	0.17975
2550.000	-6.72437	-0.20745	-6.82185	0.12642
2551.000	-6.64832	-0.14228	-6.79456	0.16001
2552.000	-6.76922	-0.20743	-6.91344	0.13825
2553.000	-6.59174	0.00000	-6.78286	0.14224
2554.000	-6.72632	-0.27265	-6.87447	0.04543
2555.000	-6.71267	-0.20943	-7.00499	0.02172
2556.000	-6.63856	0.02371	-6.97188	0.00000
2557.000	-6.72827	-0.15016	-7.15102	-0.01382
2558.000	-6.74192	-0.08100	-7.05952	0.12241
2559.000	-6.63076	-0.06719	-7.02057	0.31395
2560.000	-6.64246	-0.22330	-7.07315	0.14017
2561.000	-6.77117	-0.17780	-7.09846	0.09476
2562.000	-6.61906	-0.11067	-7.16464	0.14212
2563.000	-6.68147	-0.24897	-7.17632	0.18554
2564.000	-6.56053	-0.10277	-7.12961	0.03356
2565.000	-6.62491	-0.02767	-7.19189	0.10066
2566.000	-6.60735	-0.29643	-7.10041	0.15201
2567.000	-6.63466	0.05138	-7.09262	-0.15201
2568.000	-6.56443	-0.13637	-7.09067	0.11845
2569.000	-6.58199	-0.15811	-7.21524	0.15987
2570.000	-6.61906	-0.02371	-6.97967	-0.01975
2571.000	-6.60540	-0.09486	-7.19189	0.14803
2572.000	-6.63856	0.01778	-7.26582	0.06907
2573.000	-6.60930	-0.13636	-7.13350	0.14016
2574.000	-6.51174	-0.07906	-7.18021	0.04935
2575.000	-6.67757	0.00395	-7.25026	0.07894
2576.000	-6.56053	-0.13637	-7.27361	-0.01381
2577.000	-6.51565	0.01384	-7.18216	0.01579
2578.000	-6.49027	-0.09883	-7.12766	0.16779
2579.000	-6.51174	-0.01384	-7.27944	0.11248
2580.000	-6.48637	-0.11860	-7.08678	0.08884
2581.000	-6.59760	-0.08696	-7.16464	0.03356
2582.000	-6.41219	-0.05733	-7.19967	0.03948
2583.000	-6.43562	-0.11268	-7.08678	0.03554
2584.000	-6.44733	-0.00593	-7.17827	0.24673
2585.000	-6.54102	-0.12057	-7.10041	0.09871
2586.000	-6.38681	-0.07711	-7.26582	0.27431
2587.000	-6.54492	-0.16405	-7.15880	0.09475
2588.000	-6.53321	-0.08499	-7.13934	0.18556
2589.000	-6.56443	-0.01383	-7.25610	0.02566
2590.000	-6.64246	-0.07904	-7.18605	0.23093
2591.000	-6.51760	-0.14429	-7.18216	0.04145
2592.000	-6.51565	-0.22138	-7.06342	0.21125
2593.000	-6.61125	-0.11857	-7.15686	0.03750
2594.000	-6.54297	-0.06522	-7.24248	0.21709
2595.000	-6.64051	-0.10671	-7.15102	0.17963
2596.000	-6.53906	-0.09092	-7.08873	0.20729
2597.000	-6.52345	-0.07116	-7.08289	0.32575
2598.000	-6.52931	-0.02174	-7.24637	0.18157
2599.000	-6.51955	-0.12255	-7.12766	0.09278
2600.000	-6.35752	0.03361	-7.19189	0.22106
2601.000	-6.55663	-0.03558	-7.08289	0.05923
2602.000	-6.60150	-0.17391	-7.16075	0.25266
2603.000	-6.60930	-0.09683	-7.17827	0.07106
2604.000	-6.57028	0.05336	-7.24442	0.19933
2605.000	-6.49027	0.07116	-7.23859	0.15789
2606.000	-6.53126	-0.05337	-7.21135	0.27237
2607.000	-6.53711	-0.03162	-7.21329	0.19539
2608.000	-6.40438	-0.21945	-7.19189	0.15001
2609.000	-6.29893	-0.04944	-7.07899	0.18361
2610.000	-6.49613	-0.13244	-7.21135	0.14605
2611.000	-6.55272	-0.01581	-7.29306	0.11840
2612.000	-6.63466	-0.02371	-7.29695	0.15589
2613.000	-6.52150	-0.24509	-7.16270	0.17765
2614.000	-6.45905	-0.01581	-7.36307	0.18744
2615.000	-6.43562	-0.07117	-7.18994	0.14606
2616.000	-6.37510	0.02768	-7.17827	0.01776
2617.000	-6.54102	-0.18974	-7.21135	0.13224
2618.000	-6.51369	-0.09290	-7.21913	0.14802
2619.000	-6.56053	-0.05336	-7.17827	0.16778
2620.000	-6.57223	-0.15416	-7.24637	0.18946
2621.000	-6.57614	-0.13439	-7.17048	0.13817
2622.000	-6.53711	-0.03558	-7.30084	0.00000
2623.000	-6.58784	-0.06719	-7.22886	0.05724
2624.000	-6.46490	-0.00988	-7.12571	0.11252
2625.000	-6.45709	-0.08303	-7.20746	0.09079
2626.000	-6.45124	-0.04942	-7.37474	0.03157
2627.000	-6.37510	-0.02570	-7.20162	0.22895
2628.000	-6.42391	0.17002	-7.20940	-0.01579
2629.000	-6.66002	-0.22131	-7.28917	0.16971
2630.000	-6.56443	-0.05732	-7.22302	-0.01579
2631.000	-6.37510	-0.08502	-7.14518	0.10265
2632.000	-6.55663	0.05139	-7.25804	0.08881
2633.000	-6.50394	-0.22336	-7.27361	0.10656
2634.000	-6.54102	-0.08301	-7.30278	0.16773
2635.000	-6.50394	-0.08104	-7.21524	0.17171
2636.000	-6.40048	0.06327	-7.23081	0.08289
2637.000	-6.40438	-0.09490	-7.33390	0.07498
2638.000	-6.44733	0.02175	-7.30084	0.23482
2639.000	-6.46685	-0.14826	-7.18216	0.17370
2640.000	-6.40048	-0.04349	-7.31056	0.17759
2641.000	-6.40634	-0.04547	-7.21524	0.15000
2642.000	-6.51955	-0.07116	-7.18605	0.15001
2643.000	-6.58004	0.00791	-7.20356	0.19737
2644.000	-6.43172	-0.04152	-7.33001	0.29203
2645.000	-6.42195	-0.05931	-7.23275	0.15591
2646.000	-6.41415	0.03559	-7.30278	0.15194
2647.000	-6.54882	-0.10673	-7.15880	0.24279
2648.000	-6.46685	-0.26291	-7.19967	0.25856
2649.000	-6.56443	-0.12056	-7.16853	0.27832
2650.000	-6.60735	-0.15217	-7.33001	0.17759
2651.000	-6.56833	-0.26286	-7.24637	0.12039
2652.000	-6.57419	-0.08103	-7.39029	0.17756
2653.000	-6.63466	-0.11264	-7.09067	0.17373
2654.000	-6.53711	0.05139	-7.21524	0.31973
2655.000	-6.43172	-0.10478	-7.26972	0.16577
2656.000	-6.53711	-0.04941	-7.23081	0.19736
2657.000	-6.42586	-0.05733	-7.23664	0.22894
2658.000	-6.63076	-0.02964	-7.15880	0.23292
2659.000	-6.49418	-0.14825	-7.22691	0.33946
2660.000	-6.47076	-0.07709	-7.24053	0.30985
2661.000	-6.37900	-0.05338	-7.11598	0.22505
2662.000	-6.60930	-0.34583	-7.15491	0.17765
2663.000	-6.39267	-0.00989	-7.17827	0.27041
2664.000	-6.55858	-0.23124	-7.12377	0.22899
2665.000	-6.49808	0.02372	-7.12377	0.29808
2666.000	-6.51565	-0.00395	-7.19967	0.38290
2667.000	-6.50003	-0.06918	-7.30473	0.15392
2668.000	-6.45514	-0.09291	-7.21719	0.32368
2669.000	-6.46880	-0.08500	-7.25221	0.15591
2670.000	-6.57614	-0.23321	-7.10819	0.18162
2671.000	-6.55077	-0.04151	-7.12961	0.24281
2672.000	-6.28917	-0.25905	-7.23859	0.13618
2673.000	-6.63661	-0.20749	-7.25804	0.36312
2674.000	-6.48052	-0.20163	-7.26972	0.25852
2675.000	-6.60150	-0.36165	-7.18800	0.24278
2676.000	-6.43367	-0.13838	-7.22108	0.31381
2677.000	-6.50979	-0.15220	-7.15686	0.28424
2678.000	-6.50199	-0.23917	-7.39807	0.22491
2679.000	-6.52931	-0.20754	-7.20940	0.31974
2680.000	-6.51955	-0.22335	-7.26777	0.19537
2681.000	-6.59565	-0.15810	-7.21135	0.33750
2682.000	-6.57809	-0.19566	-7.18216	0.23094
2683.000	-6.51369	-0.11860	-7.29111	0.17957
2684.000	-6.62491	-0.24109	-7.28722	0.12630
2685.000	-6.60735	-0.25098	-7.24832	0.18749
2686.000	-6.58589	-0.22135	-7.18216	0.17172
2687.000	-6.53126	-0.19370	-7.24637	0.18354
2688.000	-6.54297	-0.16602	-7.28139	0.12038
2689.000	-6.43172	-0.22141	-7.24248	0.21709
2690.000	-6.43172	-0.12455	-7.32223	0.33150
2691.000	-6.54687	-0.12254	-7.21329	0.32763
2692.000	-6.38876	-0.14630	-7.11014	0.17767
2693.000	-6.56053	-0.29251	-7.14907	0.24280
2694.000	-6.51760	-0.19766	-7.28139	0.21510
2695.000	-6.47661	-0.07709	-7.26193	0.14406
2696.000	-6.62491	-0.32409	-7.18800	0.29607
2697.000	-6.52931	-0.28857	-7.22108	0.29210
2698.000	-6.36729	-0.23133	-7.25026	0.32563
2699.000	-6.54687	-0.13638	-7.18410	0.27041
2700.000	-6.52736	-0.35775	-7.14907	0.24674
2701.000	-6.43172	-0.35782	-7.11987	0.32967
2702.000	-6.45905	-0.18582	-7.27361	0.28614
2703.000	-6.58589	-0.20949	-7.23664	0.25854
2704.000	-6.37510	-0.20364	-7.24053	0.30393
2705.000	-6.59760	-0.13241	-7.23664	0.33748
2706.000	-6.48442	-0.21744	-7.26388	0.22103
2707.000	-6.52150	-0.26288	-7.23664	0.27433
2708.000	-6.55858	-0.30239	-7.19967	0.20330
2709.000	-6.52345	-0.22137	-7.26388	0.25852
2710.000	-6.41610	-0.09292	-7.21719	0.21710
2711.000	-6.67757	-0.18969	-7.25415	0.15393
2712.000	-6.58784	-0.22925	-7.23081	0.23091
2713.000	-6.41610	-0.18386	-7.12961	0.15003
2714.000	-6.56833	-0.08894	-7.29695	0.29008
2715.000	-6.45319	-0.20757	-7.18216	0.29212
2716.000	-6.43172	-0.10280	-7.20162	0.14408
2717.000	-6.52150	-0.17591	-7.22691	0.19144
2718.000	-6.51565	-0.28265	-7.15491	0.23095
2719.000	-6.56638	-0.19566	-7.12766	0.22899
2720.000	-6.35166	-0.20563	-7.33974	0.21507
2721.000	-6.56053	-0.22333	-7.26582	0.16182
2722.000	-6.43562	-0.23525	-7.18021	0.14014
2723.000	-6.42976	-0.15025	-7.24832	0.09473
2724.000	-6.48247	-0.11860	-7.29889	0.09472
2725.000	-6.45124	-0.07314	-7.22691	0.20723
2726.000	-6.51565	-0.23521	-7.29889	0.12235
2727.000	-6.49613	-0.15418	-7.24832	0.09078
2728.000	-6.51369	-0.18975	-7.17437	0.09869
2729.000	-6.47466	-0.16605	-7.29695	0.16971
2730.000	-6.45709	-0.06721	-7.29111	0.20128
2731.000	-6.36533	-0.06525	-7.31251	0.09472
2732.000	-6.46100	-0.18582	-7.31251	0.15391
2733.000	-6.38681	-0.18387	-7.25221	0.19735
2734.000	-6.45319	-0.19768	-7.23081	0.35722
2735.000	-6.32823	-0.16807	-7.35724	0.03157
2736.000	-6.28721	-0.08503	-7.23664	0.08486
2737.000	-6.40048	-0.07710	-7.26582	0.09275
2738.000	-6.43172	-0.24909	-7.30084	0.12432
2739.000	-6.54297	-0.19962	-7.30278	0.22298
2740.000	-6.49418	-0.21348	-7.28917	-0.06117
2741.000	-6.32823	-0.08305	-7.27944	0.05328
2742.000	-6.57223	-0.28262	-7.24637	0.16578
2743.000	-6.37510	-0.14631	-7.33390	0.08287
2744.000	-6.54882	-0.18183	-7.18800	0.28225
2745.000	-6.38486	-0.13840	-7.27361	0.09867
2746.000	-6.49027	-0.00198	-7.32029	0.25257
2747.000	-6.41024	-0.03361	-7.40779	0.11640
2748.000	-6.45514	-0.06919	-7.40779	0.19334
2749.000	-6.43367	-0.25107	-7.33974	0.14404
2750.000	-6.32432	-0.01384	-7.27166	0.10657
2751.000	-6.45514	-0.16210	-7.19773	0.12632
2752.000	-6.48442	-0.11663	-7.34752	0.11839
2753.000	-6.44538	-0.27676	-7.31834	0.23481
2754.000	-6.42586	-0.12652	-7.23470	0.11447
2755.000	-6.46880	-0.21547	-7.18410	0.11646
2756.000	-6.48247	-0.20360	-7.23664	0.03355
2757.000	-6.40048	-0.17200	-7.27555	0.25852
2758.000	-6.40438	-0.29457	-7.28722	0.17760
2759.000	-6.54687	-0.26089	-7.24053	0.05723
2760.000	-6.60930	-0.34386	-7.17243	0.03158
2761.000	-6.49223	-0.06523	-7.26582	0.09670
2762.000	-6.29112	-0.13249	-7.33974	0.08682
2763.000	-6.33018	-0.13248	-7.18994	0.22699
2764.000	-6.39657	-0.27283	-7.19578	0.23290
2765.000	-6.40634	-0.13246	-7.24442	0.20525
2766.000	-6.38486	-0.17201	-7.23859	0.08684
2767.000	-6.22861	-0.15228	-7.39807	0.15388
2768.000	-6.35752	-0.20167	-7.20746	0.11053
2769.000	-6.41610	-0.19177	-7.20746	0.15987
2770.000	-6.36143	-0.25308	-7.30667	0.05525
2771.000	-6.37314	-0.08304	-7.36113	0.27820
2772.000	-6.33995	-0.06723	-7.19578	0.16580
2773.000	-6.33995	-0.19575	-7.30862	0.15194
2774.000	-6.42586	-0.19967	-7.25221	0.09670
2775.000	-6.58784	-0.37154	-7.25026	0.18551
2776.000	-6.53321	-0.09685	-7.24637	0.12828
2777.000	-6.40243	-0.00395	-7.15686	0.23292
2778.000	-6.45514	-0.08500	-7.25999	0.18748
2779.000	-6.47466	-0.19174	-7.30473	0.22693
2780.000	-6.45319	-0.13047	-7.22497	0.13223
2781.000	-6.35947	-0.06920	-7.23470	0.15591
2782.000	-6.36143	-0.00198	-7.27750	0.15590
2783.000	-6.33995	-0.20761	-7.35918	0.16179
2784.000	-6.45514	-0.11466	-7.28917	0.27035
2785.000	-6.31065	-0.20367	-7.37280	0.16573
2786.000	-6.41415	-0.09885	-7.20940	0.27040
2787.000	-6.45905	-0.34791	-7.27555	0.05723
2788.000	-6.48442	-0.11663	-7.28333	0.33350
2789.000	-6.50199	-0.25498	-7.31640	0.06117
2790.000	-6.52736	-0.16998	-7.25026	0.12631
2791.000	-6.49027	-0.18383	-7.18410	0.25659
2792.000	-6.42000	-0.14629	-7.37085	0.16376
2793.000	-6.49613	-0.22534	-7.24637	0.09078
2794.000	-6.48442	-0.21348	-7.32807	0.11050
2795.000	-6.37900	0.04745	-7.25026	0.21314
2796.000	-6.53711	-0.16010	-7.24248	0.22301
2797.000	-6.32432	-0.12259	-7.21913	0.29999
2798.000	-6.37510	-0.14038	-7.34168	0.22296
2799.000	-6.48832	-0.08697	-7.30084	0.28810
2800.000	-6.48832	-0.19372	-7.28722	0.26640
2801.000	-6.46685	-0.06326	-7.29500	0.19536
2802.000	-6.44928	-0.02372	-7.31056	0.18351
2803.000	-6.44928	-0.18187	-7.27944	0.10459
2804.000	-6.46880	-0.18384	-7.22108	0.18947
2805.000	-6.42391	-0.18583	-7.33196	0.25651
2806.000	-6.51760	-0.18382	-7.21719	0.25066
2807.000	-6.37119	-0.14433	-7.33585	0.31176
2808.000	-6.36533	-0.13247	-7.25610	0.13815
2809.000	-6.50003	-0.18185	-7.33196	-0.03157
2810.000	-6.54687	-0.26089	-7.26388	0.07499
2811.000	-6.41024	-0.08303	-7.22886	0.29407
2812.000	-6.52540	-0.14429	-7.18605	0.16580
2813.000	-6.50003	-0.12848	-7.18216	0.14014
2814.000	-6.35166	-0.30251	-7.23859	0.19538
2815.000	-6.48247	-0.04942	-7.18800	0.18751
2816.000	-6.52540	-0.13836	-7.18021	0.20330
2817.000	-6.48637	-0.22337	-7.26388	0.06118
2818.000	-6.28526	0.09887	-7.24248	0.20328
2819.000	-6.44538	-0.31629	-7.25221	0.11249
2820.000	-6.39267	-0.04152	-7.27944	0.15590
2821.000	-6.22275	-0.09295	-7.25999	0.15985
2822.000	-6.54687	-0.12254	-7.26777	0.24076
2823.000	-6.29698	-0.10876	-7.17437	0.27042
2824.000	-6.53906	-0.13045	-7.24442	0.08289
2825.000	-6.42781	-0.14234	-7.18605	0.30199
2826.000	-6.40634	-0.11071	-7.32029	0.21311
2827.000	-6.44733	-0.17001	-7.35724	0.23085
2828.000	-6.48052	-0.09686	-7.35529	0.23282
2829.000	-6.48247	-0.08500	-7.22691	0.05526
2830.000	-6.42391	-0.05535	-7.25999	0.21314
2831.000	-6.37705	-0.15817	-7.20162	0.18553
2832.000	-6.47661	-0.23721	-7.25221	0.11644
2833.000	-6.45514	-0.13838	-7.24832	0.08684
2834.000	-6.41415	-0.17002	-7.19189	0.15593
2835.000	-6.39267	-0.20561	-7.29889	0.16181
2836.000	-6.38876	-0.14630	-7.32612	0.46764
2837.000	-6.47856	-0.17988	-7.21524	0.22895
2838.000	-6.40438	-0.03954	-7.28333	0.31969
2839.000	-6.37510	-0.12654	-7.31640	0.30980
2840.000	-6.46685	-0.13837	-7.20162	0.19737
2841.000	-6.35557	-0.19377	-7.26777	0.19932
2842.000	-6.33018	-0.10677	-7.30473	0.26837
2843.000	-6.35362	-0.21354	-7.34363	0.24664
2844.000	-6.33409	-0.09293	-7.34752	0.15982
2845.000	-6.25987	-0.17007	-7.33196	0.20126
2846.000	-6.42195	-0.15816	-7.21524	0.23881
2847.000	-6.49418	-0.04349	-7.24637	0.14802
2848.000	-6.42781	-0.09489	-7.33585	0.05130
2849.000	-6.39853	-0.07908	-7.29695	0.26442
2850.000	-6.53321	-0.10080	-7.15102	0.14805
2851.000	-6.36143	-0.25901	-7.33974	0.25848
2852.000	-6.43172	-0.12059	-7.25999	0.21511
2853.000	-6.31456	0.04152	-7.35529	0.31371
2854.000	-6.44148	-0.02965	-7.27166	0.38679
2855.000	-6.63076	-0.08695	-7.33001	0.31176
2856.000	-6.46490	-0.16803	-7.34752	0.33345
2857.000	-6.43172	-0.11861	-7.32612	0.41239
2858.000	-6.61906	-0.27864	-7.33779	0.32557
2859.000	-6.40048	-0.06327	-7.12182	0.57049
2860.000	-6.22665	0.32038	-6.98747	0.80561
2861.000	-6.27940	0.32826	-6.80431	0.87504
2862.000	-6.11331	0.42529	-6.62686	0.99193
2863.000	-5.94712	0.49665	-6.29112	1.31082
2864.000	-6.06053	0.56776	-5.89627	1.71718
2865.000	-5.60269	0.77411	-5.47734	2.11406
2866.000	-5.39506	1.00209	-5.17159	2.23184
2867.000	-5.20100	1.13511	-4.99702	2.43030
2868.000	-4.95777	1.23657	-4.83609	2.63467
2869.000	-4.81057	1.30025	-4.64760	2.72047
2870.000	-4.56903	1.64157	-4.47079	2.80820
2871.000	-4.27621	1.63032	-4.34698	3.04214
2872.000	-4.18576	1.92983	-4.19166	3.27617
2873.000	-4.12283	2.05088	-4.10709	3.32201
2874.000	-3.76078	2.30352	-3.87494	3.44755
2875.000	-3.61509	2.41886	-3.74700	3.51334
2876.000	-3.29992	2.39389	-3.51465	3.52017
2877.000	-3.23489	2.54868	-3.38464	3.70857
2878.000	-2.82088	2.64286	-3.19744	3.82793
2879.000	-2.75776	2.59937	-3.18365	3.81414
2880.000	-2.78932	2.76387	-3.04764	4.00841
2881.000	-2.72029	2.91469	-2.85046	4.13565
2882.000	-2.51905	3.11137	-2.82877	4.23455
2883.000	-2.54273	3.31934	-3.01609	4.27533
2884.000	-2.67097	3.47149	-2.94906	4.40597
2885.000	-2.61573	3.53104	-3.04764	4.51023
2886.000	-2.60587	3.57858	-3.20336	4.41874
2887.000	-2.59206	3.74093	-3.26839	4.55862
2888.000	-2.69267	3.83560	-3.35706	4.69041
2889.000	-2.67886	3.82575	-3.25657	4.55078
2890.000	-2.80707	3.74027	-3.47723	4.69574
2891.000	-2.61376	3.76461	-3.44768	4.68603
2892.000	-2.67689	3.72880	-3.55010	4.67171
2893.000	-2.77749	3.85511	-3.47920	4.85744
2894.000	-2.72423	3.88495	-3.55798	4.73084
2895.000	-2.71240	3.77618	-3.55404	4.70522
2896.000	-2.67492	3.74068	-3.57570	4.69130
2897.000	-2.78932	3.76604	-3.35706	4.63714
2898.000	-2.84849	3.70056	-3.52253	4.52585
2899.000	-2.84257	3.61549	-3.39843	4.50671
2900.000	-2.91159	3.61725	-3.47329	4.38990
2901.000	-2.90962	3.54403	-3.47132	4.40175
2902.000	-2.78538	3.55826	-3.41025	4.48099
2903.000	-2.80313	3.59780	-3.42995	4.48287
2904.000	-2.76763	3.43161	-3.36494	4.42395
2905.000	-2.75382	3.62961	-3.55010	4.36980
2906.000	-2.84454	3.53235	-3.37873	4.48114
2907.000	-2.68873	3.52094	-3.42798	4.47696
2908.000	-2.78341	3.65525	-3.41419	4.54610
2909.000	-2.70451	3.65945	-3.36297	4.47726
2910.000	-2.62560	3.59832	-3.39252	4.48700
2911.000	-2.76565	3.58010	-3.29007	4.51312
2912.000	-2.68083	3.62390	-3.39252	4.54621
2913.000	-2.80313	3.70862	-3.31371	4.70443
2914.000	-2.68873	3.70502	-3.40828	4.71581
2915.000	-2.71831	3.71086	-3.29795	4.60782
2916.000	-2.73409	3.68311	-3.42404	4.79068
2917.000	-2.76565	3.74040	-3.40237	4.64087
2918.000	-2.70845	3.71683	-3.39646	4.63893
2919.000	-2.67689	3.57640	-3.27627	4.65330
2920.000	-2.65716	3.81592	-3.36297	4.59370
2921.000	-2.54471	3.62033	-3.31174	4.74389
2922.000	-2.51708	3.74114	-3.37873	4.71792
2923.000	-2.73804	3.71872	-3.34918	4.62731
2924.000	-2.61771	3.43996	-3.32159	4.63139
2925.000	-2.67886	3.64172	-3.40434	4.65665
2926.000	-2.65716	3.71896	-3.32750	4.56822
2927.000	-2.70056	3.66738	-3.29795	4.57230
2928.000	-2.73015	3.49508	-3.34524	4.61155
2929.000	-2.66703	3.67342	-3.35706	4.66871
2930.000	-2.71831	3.56440	-3.34327	4.53854
2931.000	-2.73212	3.71676	-3.23095	4.71665
2932.000	-2.64138	3.68537	-3.44768	4.75112
2933.000	-2.82482	3.61158	-3.37085	4.61735
2934.000	-2.79524	3.57605	-3.35115	4.63125
2935.000	-2.67294	3.61798	-3.36691	4.59763
2936.000	-2.56838	3.64797	-3.33538	4.57410
2937.000	-2.68675	3.70898	-3.25854	4.64747
2938.000	-2.65519	3.59824	-3.33341	4.65501
2939.000	-2.79327	3.56418	-3.26445	4.57245
2940.000	-2.71437	3.65348	-3.34524	4.62931
2941.000	-2.73409	3.55248	-3.38661	4.66068
2942.000	-2.69070	3.63574	-3.31371	4.65313
2943.000	-2.68675	3.52688	-3.35903	4.61148
2944.000	-2.73607	3.68508	-3.30386	4.67488
2945.000	-2.59206	3.64791	-3.30977	4.67880
2946.000	-2.81496	3.61161	-3.28415	4.59210
2947.000	-2.88201	3.70639	-3.40040	4.67837
2948.000	-2.75776	3.63158	-3.31962	4.63140
2949.000	-2.77749	3.61173	-3.26839	4.60006
2950.000	-2.78735	3.60576	-3.26445	4.61981
2951.000	-2.74198	3.63163	-3.26051	4.76977
2952.000	-2.69070	3.73272	-3.29795	4.59993
2953.000	-2.77946	3.63349	-3.37085	4.67851
2954.000	-2.73409	3.56238	-3.34327	4.62931
2955.000	-2.82088	3.63732	-3.31765	4.65903
2956.000	-2.76763	3.65134	-3.30189	4.79325
2957.000	-2.74198	3.66725	-3.34130	4.56618
2958.000	-2.70451	3.65945	-3.30386	4.63542
2959.000	-2.69267	3.70105	-3.35312	4.63913
2960.000	-2.65322	3.68137	-3.41616	4.57175
2961.000	-2.58811	3.70334	-3.33341	4.40040
2962.000	-2.80116	3.65520	-3.38267	4.57783
2963.000	-2.76763	3.47319	-3.31765	4.62549
2964.000	-2.72226	3.60398	-3.42404	4.62696
2965.000	-2.76960	3.70477	-3.37676	4.57391
2966.000	-2.76368	3.60188	-3.29007	4.65127
2967.000	-2.75185	3.70284	-3.41222	4.54611
2968.000	-2.68478	3.65951	-3.24080	4.71463
2969.000	-2.79129	3.64137	-3.32159	4.60771
2970.000	-2.65124	3.59627	-3.21321	4.57466
2971.000	-2.67492	3.65954	-3.27036	4.67701
2972.000	-2.72226	3.68513	-3.41419	4.55794
2973.000	-2.64138	3.74870	-3.35903	4.64108
2974.000	-2.77157	3.53059	-3.39646	4.72573
2975.000	-2.79918	3.71061	-3.26839	4.55072
2976.000	-2.66900	3.64570	-3.41813	4.65461
2977.000	-2.72423	3.62575	-3.30977	4.61171
2978.000	-2.61376	3.73493	-3.36691	4.58185
2979.000	-2.62362	3.69730	-3.40828	4.68227
2980.000	-2.79327	3.64731	-3.35706	4.61741
2981.000	-2.69859	3.71488	-3.38661	4.64884
2982.000	-2.80313	3.63144	-3.40237	4.73556
2983.000	-2.67886	3.76639	-3.41616	4.69802
2984.000	-2.73212	3.75237	-3.23883	4.62388
2985.000	-2.71042	3.74651	-3.29007	4.63351
2986.000	-2.67886	3.71890	-3.28218	4.63355
2987.000	-2.61968	3.69137	-3.45950	4.60311
2988.000	-2.70451	3.77818	-3.34130	4.71021
2989.000	-2.77552	3.79774	-3.31174	4.66695
2990.000	-2.66703	3.77434	-3.38070	4.74158
2991.000	-2.83666	3.76194	-3.31962	4.55641
2992.000	-2.70648	3.80192	-3.39252	4.44554
2993.000	-2.63941	3.61016	-3.37479	4.61733
2994.000	-2.79524	3.66511	-3.44571	4.64855
2995.000	-2.71437	3.72473	-3.35509	4.57796
2996.000	-2.66308	3.76050	-3.35903	4.68448
2997.000	-2.72226	3.70887	-3.31765	4.54853
2998.000	-2.69070	3.69314	-3.37085	4.68837
2999.000	-2.80707	3.60570	-3.44571	4.69195
3000.000	-2.62757	3.73488	-3.31371	4.47749
3001.000	-2.61573	3.70128	-3.34130	4.65300
3002.000	-2.69662	3.61989	-3.41813	4.59739
3003.000	-2.71042	3.63172	-3.36691	4.57198
3004.000	-2.65716	3.62792	-3.26445	4.63363
3005.000	-2.69070	3.63970	-3.31174	4.62749
3006.000	-2.75974	3.69293	-3.37085	4.58380
3007.000	-2.71831	3.79595	-3.31174	4.48144
3008.000	-2.75185	3.62170	-3.31765	4.68073
3009.000	-2.76565	3.66322	-3.34918	4.77329
3010.000	-2.60587	3.56671	-3.42798	4.61707
3011.000	-2.74001	3.79984	-3.31568	4.62155
3012.000	-2.64335	3.67547	-3.43192	4.81430
3013.000	-2.69267	3.55260	-3.33538	4.65895
3014.000	-2.57233	3.65588	-3.41222	4.73354
3015.000	-2.62165	3.68345	-3.29598	4.71043
3016.000	-2.70056	3.71290	-3.32159	4.59982
3017.000	-2.61968	3.73491	-3.38858	4.70407
3018.000	-2.75382	3.73252	-3.39843	4.68824
3019.000	-2.62362	3.73094	-3.36297	4.67657
3020.000	-2.71240	3.84938	-3.30189	4.68475
3021.000	-2.71240	3.69901	-3.30189	4.63345
3022.000	-2.57430	3.70733	-3.20533	4.52732
3023.000	-2.77749	3.68100	-3.09101	4.57716
3024.000	-2.64335	3.55274	-3.26839	4.64150
3025.000	-2.58022	3.56084	-3.43783	4.58348
3026.000	-2.68478	3.78022	-3.41222	4.64477
3027.000	-2.65913	3.88120	-3.34327	4.51486
3028.000	-2.56641	3.78652	-3.24671	4.65147
3029.000	-2.70056	3.81974	-3.26642	4.44414
3030.000	-2.74396	3.80378	-3.26445	4.59416
3031.000	-2.62165	3.84373	-3.36494	4.69826
3032.000	-2.57035	3.73703	-3.24474	4.57057
3033.000	-2.64533	3.70317	-3.42404	4.64866
3034.000	-2.61376	3.76857	-3.35706	4.64109
3035.000	-2.45591	3.77694	-3.32947	4.56623
3036.000	-2.62757	3.82590	-3.24277	4.71265
3037.000	-2.62560	3.73885	-3.28218	4.57632
3038.000	-2.53484	3.56492	-3.30189	4.71632
3039.000	-2.58811	3.67563	-3.42601	4.58354
3040.000	-2.64533	3.63983	-3.29992	4.64530
3041.000	-2.73212	3.62770	-3.40631	4.65861
3042.000	-2.59600	3.78049	-3.27627	4.69474
3043.000	-2.54668	3.75293	-3.33736	4.58790
3044.000	-2.65716	3.80603	-3.38464	4.65279
3045.000	-2.52497	3.68175	-3.28021	4.52896
3046.000	-2.60587	3.80025	-3.33144	4.51491
3047.000	-2.58219	3.62616	-3.42798	4.66442
3048.000	-2.63152	3.72894	-3.28218	4.76573
3049.000	-2.58022	3.73898	-3.42404	4.64077
3050.000	-2.58811	3.76073	-3.41813	4.68617
3051.000	-2.51511	3.73323	-3.41813	4.65263
3052.000	-2.67492	3.68527	-3.34918	4.53654
3053.000	-2.64730	3.78429	-3.47132	4.62278
3054.000	-2.63546	3.64778	-3.36494	4.60159
3055.000	-2.68478	3.73669	-3.31568	4.77148
3056.000	-2.66111	3.64968	-3.42404	4.67628
3057.000	-2.67886	3.71494	-3.37676	4.57983
3058.000	-2.68083	3.83168	-3.29401	4.63744
3059.000	-2.58022	3.86364	-3.32356	4.76750
3060.000	-2.67492	3.85741	-3.24671	4.59227
3061.000	-2.72620	3.81175	-3.32553	4.72607
3062.000	-2.64335	3.73088	-3.39055	4.58963
3063.000	-2.65519	3.78625	-3.29795	4.59203
3064.000	-2.65322	3.75855	-3.31371	4.75374
3065.000	-2.59798	3.80423	-3.42995	4.65850
3066.000	-2.59403	3.84975	-3.29204	4.57627
3067.000	-2.67294	3.77432	-3.38661	4.76325
3068.000	-2.61771	3.90507	-3.28218	4.69274
3069.000	-2.64335	3.90697	-3.26248	4.73820
3070.000	-2.59206	3.92295	-3.13634	4.69538
3071.000	-2.57430	4.00608	-3.32750	4.66885
3072.000	-2.65124	3.96628	-3.32750	4.65307
3073.000	-2.64927	3.97024	-3.23686	4.52126
3074.000	-2.59995	3.94271	-3.31174	4.60184
3075.000	-2.57430	4.03377	-3.34130	4.62340
3076.000	-2.60784	4.00993	-3.31371	4.69653
3077.000	-2.55062	4.08921	-3.22109	4.64369
3078.000	-2.53287	3.98050	-3.20336	4.61417
3079.000	-2.45196	4.03612	-3.25263	4.76192
3080.000	-2.47367	4.11911	-3.34918	4.85415
3081.000	-2.61573	4.11273	-3.31174	4.73008
3082.000	-2.42828	4.11134	-3.29007	4.74794
3083.000	-2.53484	4.07740	-3.25065	4.68499
3084.000	-2.46972	4.19228	-3.28021	4.80518
3085.000	-2.48551	3.97866	-3.23883	4.84680
3086.000	-2.53879	3.99630	-3.27824	4.76377
3087.000	-2.42631	4.18450	-3.24671	4.86451
3088.000	-2.41052	4.19246	-3.28218	4.80320
3089.000	-2.31776	4.30345	-3.38661	4.86382
3090.000	-2.44802	4.15478	-3.34721	4.79105
3091.000	-2.37302	4.11151	-3.25854	4.72047
3092.000	-2.27039	4.14345	-3.41813	4.81437
3093.000	-2.27039	4.29964	-3.32947	4.70632
3094.000	-2.23091	4.24440	-3.32947	4.86805
3095.000	-2.18156	4.35722	-3.25460	4.75994
3096.000	-2.14010	4.34943	-3.32947	4.72408
3097.000	-2.24078	4.36890	-3.43389	4.84978
3098.000	-2.14997	4.46205	-3.48708	4.93428
3099.000	-2.17761	4.61409	-3.55207	5.32001
3100.000	-2.23091	4.76597	-3.62493	6.06466
3101.000	-2.14405	4.99519	-3.91823	7.06358
3102.000	-2.05520	5.24990	-4.35484	8.25215
3103.000	-2.00584	5.34271	-4.67902	9.57216
3104.000	-2.14997	5.68298	-5.15002	11.04611
3105.000	-2.06902	6.21234	-5.72603	12.57390
3106.000	-1.99004	7.17557	-6.53906	13.94664
3107.000	-1.78663	8.53251	-7.39807	15.43954
3108.000	-1.51798	10.19662	-8.90902	16.87487
3109.000	-0.99829	12.21192	NaN	NaN
3110.000	-0.40726	14.08083	NaN	NaN
3111.000	0.12257	16.11706	NaN	NaN
3112.000	0.40528	17.54372	NaN	NaN
3113.000	NaN	NaN	NaN	NaN
3114.000	NaN	NaN	NaN	NaN
3115.000	NaN	NaN	NaN	NaN
3116.000	NaN	NaN	NaN	NaN
3117.000	NaN	NaN	NaN	NaN
3118.000	NaN	NaN	NaN	NaN
3119.000	NaN	NaN	NaN	NaN
3120.000	NaN	NaN	NaN	NaN
3121.000	NaN	NaN	NaN	NaN
3122.000	NaN	NaN	NaN	NaN
3123.000	NaN	NaN	NaN	NaN
3124.000	NaN	NaN	NaN	NaN
3125.000	NaN	NaN	NaN	NaN
3126.000	NaN	NaN	NaN	NaN
3127.000	NaN	NaN	NaN	NaN
3128.000	NaN	NaN	NaN	NaN
3129.000	NaN	NaN	NaN	NaN
3130.000	NaN	NaN	NaN	NaN
3131.000	NaN	NaN	NaN	NaN
3132.000	NaN	NaN	NaN	NaN
3133.000	NaN	NaN	NaN	NaN
3134.000	NaN	NaN	NaN	NaN
3135.000	NaN	NaN	NaN	NaN
3136.000	NaN	NaN	NaN	NaN
3137.000	NaN	NaN	NaN	NaN
3138.000	NaN	NaN	NaN	NaN
3139.000	NaN	NaN	NaN	NaN
3140.000	NaN	NaN	NaN	NaN
3141.000	NaN	NaN	NaN	NaN
3142.000	NaN	NaN	NaN	NaN
3143.000	NaN	NaN	NaN	NaN
3144.000	NaN	NaN	NaN	NaN
3145.000	NaN	NaN	NaN	NaN
3146.000	NaN	NaN	NaN	NaN
3147.000	NaN	NaN	NaN	NaN
3148.000	NaN	NaN	NaN	NaN
3149.000	NaN	NaN	NaN	NaN
3150.000	NaN	NaN	NaN	NaN
3151.000	NaN	NaN	NaN	NaN
3152.000	NaN	NaN	NaN	NaN
3153.000	NaN	NaN	NaN	NaN
3154.000	NaN	NaN	NaN	NaN
3155.000	NaN	NaN	NaN	NaN
3156.000	NaN	NaN	NaN	NaN
3157.000	NaN	NaN	NaN	NaN
3158.000	NaN	NaN	NaN	NaN
3159.000	NaN	NaN	NaN	NaN
3160.000	NaN	NaN	NaN	NaN
3161.000	NaN	NaN	NaN	NaN
3162.000	NaN	NaN	NaN	NaN
3163.000	NaN	NaN	NaN	NaN
3164.000	NaN	NaN	NaN	NaN
3165.000	NaN	NaN	NaN	NaN
3166.000	NaN	NaN	NaN	NaN
3167.000	NaN	NaN	NaN	NaN
3168.000	NaN	NaN	NaN	NaN
3169.000	NaN	NaN	NaN	NaN
3170.000	NaN	NaN	NaN	NaN
3171.000	NaN	NaN	NaN	NaN
3172.000	NaN	NaN	NaN	NaN
3173.000	NaN	NaN	NaN	NaN
3174.000	NaN	NaN	NaN	NaN
3175.000	NaN	NaN	NaN	NaN
3176.000	NaN	NaN	NaN	NaN
3177.000	NaN	NaN	NaN	NaN
3178.000	NaN	NaN	NaN	NaN
3179.000	NaN	NaN	NaN	NaN
3180.000	NaN	NaN	NaN	NaN
3181.000	NaN	NaN	NaN	NaN
3182.000	NaN	NaN	NaN	NaN
3183.000	NaN	NaN	NaN	NaN
3184.000	NaN	NaN	NaN	NaN
3185.000	NaN	NaN	NaN	NaN
3186.000	NaN	NaN	NaN	NaN
3187.000	NaN	NaN	NaN	NaN
3188.000	NaN	NaN	NaN	NaN
3189.000	NaN	NaN	NaN	NaN
3190.000	NaN	NaN	NaN	NaN
3191.000	NaN	NaN	NaN	NaN
3192.000	NaN	NaN	NaN	NaN
3193.000	NaN	NaN	NaN	NaN
3194.000	NaN	NaN	NaN	NaN
3195.000	NaN	NaN	NaN	NaN
3196.000	NaN	NaN	NaN	NaN
3197.000	NaN	NaN	NaN	NaN
3198.000	NaN	NaN	NaN	NaN
3199.000	NaN	NaN	NaN	NaN
3200.000	NaN	NaN	NaN	NaN
3201.000	NaN	NaN	NaN	NaN
3202.000	NaN	NaN	NaN	NaN
3203.000	NaN	NaN	NaN	NaN
3204.000	NaN	NaN	NaN	NaN
3205.000	NaN	NaN	NaN	NaN
3206.000	NaN	NaN	NaN	NaN
3207.000	NaN	NaN	NaN	NaN
3208.000	NaN	NaN	NaN	NaN
3209.000	NaN	NaN	NaN	NaN
3210.000	NaN	NaN	NaN	NaN
3211.000	NaN	NaN	NaN	NaN
3212.000	NaN	NaN	NaN	NaN
3213.000	NaN	NaN	NaN	NaN
3214.000	NaN	NaN	NaN	NaN
3215.000	NaN	NaN	NaN	NaN
3216.000	NaN	NaN	NaN	NaN
3217.000	NaN	NaN	NaN	NaN
3218.000	NaN	NaN	NaN	NaN
3219.000	NaN	NaN	NaN	NaN
3220.000	NaN	NaN	NaN	NaN
3221.000	NaN	NaN	NaN	NaN
3222.000	NaN	NaN	NaN	NaN
3223.000	NaN	NaN	NaN	NaN
3224.000	NaN	NaN	NaN	NaN
3225.000	NaN	NaN	NaN	NaN
3226.000	NaN	NaN	NaN	NaN
3227.000	NaN	NaN	NaN	NaN
3228.000	NaN	NaN	NaN	NaN
3229.000	NaN	NaN	NaN	NaN
3230.000	NaN	NaN	NaN	NaN
3231.000	NaN	NaN	NaN	NaN
3232.000	NaN	NaN	NaN	NaN
3233.000	NaN	NaN	NaN	NaN
3234.000	NaN	NaN	NaN	NaN
3235.000	NaN	NaN	NaN	NaN
3236.000	NaN	NaN	NaN	NaN
3237.000	NaN	NaN	NaN	NaN
3238.000	NaN	NaN	NaN	NaN
3239.000	NaN	NaN	NaN	NaN
3240.000	NaN	NaN	NaN	NaN
3241.000	NaN	NaN	NaN	NaN
3242.000	NaN	NaN	NaN	NaN
3243.000	NaN	NaN	NaN	NaN
3244.000	NaN	NaN	NaN	NaN
3245.000	NaN	NaN	NaN	NaN
3246.000	NaN	NaN	NaN	NaN
3247.000	NaN	NaN	NaN	NaN
3248.000	NaN	NaN	NaN	NaN
3249.000	NaN	NaN	NaN	NaN
3250.000	NaN	NaN	NaN	NaN
3251.000	NaN	NaN	NaN	NaN
3252.000	NaN	NaN	NaN	NaN
3253.000	NaN	NaN	NaN	NaN
3254.000	NaN	NaN	NaN	NaN
3255.000	NaN	NaN	NaN	NaN
3256.000	NaN	NaN	NaN	NaN
3257.000	NaN	NaN	NaN	NaN
3258.000	NaN	NaN	NaN	NaN
3259.000	NaN	NaN	NaN	NaN
3260.000	NaN	NaN	NaN	NaN
3261.000	NaN	NaN	NaN	NaN
3262.000	NaN	NaN	NaN	NaN
3263.000	NaN	NaN	NaN	NaN
3264.000	NaN	NaN	NaN	NaN
3265.000	NaN	NaN	NaN	NaN
3266.000	NaN	NaN	NaN	NaN
3267.000	NaN	NaN	NaN	NaN
3268.000	-6.48247	12.47006	NaN	NaN
3269.000	-7.06342	13.01152	NaN	NaN
3270.000	-7.57104	13.05152	NaN	NaN
3271.000	-7.50109	12.48324	NaN	NaN
3272.000	-7.42723	11.89535	NaN	NaN
3273.000	-7.45639	11.15978	NaN	NaN
3274.000	-4.41577	9.20296	NaN	NaN
3275.000	-4.67902	8.51827	NaN	NaN
3276.000	-4.68884	7.94522	NaN	NaN
3277.000	-4.66920	7.30263	NaN	NaN
3278.000	-4.74579	6.65724	NaN	NaN
3279.000	-4.74382	6.08547	NaN	NaN
3280.000	-4.83020	5.53141	NaN	NaN
3281.000	-4.92441	4.98818	NaN	NaN
3282.000	-5.03429	4.51499	NaN	NaN
3283.000	-5.09510	3.97460	-8.10266	10.44365
3284.000	-5.18924	3.42354	-7.51275	9.39215
3285.000	-5.40289	2.94058	-6.87447	7.93629
3286.000	-5.33038	2.59114	-7.04394	7.19814
3287.000	-5.43424	2.18541	-7.04784	6.53249
3288.000	-5.38526	1.88688	-7.76522	6.25330
3289.000	-5.51456	1.47099	-6.81795	5.53156
3290.000	-5.64381	1.11844	-6.56053	4.95433
3291.000	-5.62032	0.97796	-6.55467	4.51272
3292.000	-5.35194	0.83384	-6.78481	4.08434
3293.000	-5.47147	0.64953	-6.86862	3.62549
3294.000	-5.45579	0.40598	-6.84329	3.22024
3295.000	-5.49106	0.07525	-6.69512	2.73647
3296.000	-5.48714	-0.14456	-6.72437	2.25909
3297.000	-5.64185	-0.40585	-7.56910	2.03435
3298.000	-5.73777	-0.55225	-7.54967	1.62859
3299.000	-5.68492	-0.85910	-7.78269	1.20417
3300.000	-5.76322	-1.10040	-7.53413	0.88548
3301.000	-5.91583	-1.23065	-7.52635	0.39445
3302.000	-5.99797	-1.39064	-7.52441	0.16567
3303.000	-6.14654	-1.62153	-7.44667	-0.22883
3304.000	-6.00579	-1.74254	-7.40196	-0.55041
3305.000	-6.22665	-1.87222	-7.33585	-0.87996
3306.000	-6.26377	-1.89184	-7.40779	-1.17959
3307.000	-6.25791	-1.89778	-7.37668	-1.41630
3308.000	-6.22470	-1.79912	-7.38835	-1.70410
3309.000	-6.25987	-1.79110	-7.35335	-1.84419
3310.000	-6.20907	-1.87425	-7.29889	-2.23857
3311.000	-6.19930	-1.75376	-7.21135	-2.30404
3312.000	-6.18562	-1.74195	-7.47971	-2.30856
3313.000	-6.30284	-1.57955	-7.13350	-2.52907
3314.000	-6.19539	-1.68066	-7.24442	-2.45754
3315.000	-6.27745	-1.53023	-7.35724	-2.56917
3316.000	-6.27354	-1.68041	-7.18216	-2.89905
3317.000	-6.36729	-1.64652	-7.28722	-2.80192
3318.000	-6.33213	-1.62886	-7.19383	-2.83400
3319.000	-6.35947	-1.67618	-7.30278	-3.13245
3320.000	-6.26963	-1.71994	-7.20746	-3.05439
3321.000	-6.36729	-1.66826	-7.27750	-3.01653
3322.000	-6.23056	-1.68450	-7.21135	-3.00122
3323.000	-6.31260	-1.65658	-7.30667	-2.92974
3324.000	-6.38876	-1.49038	-7.40196	-3.01175
3325.000	-6.38486	-1.57535	-7.36891	-2.90768
3326.000	-6.44148	-1.65814	-7.42723	-2.76168
3327.000	-6.25010	-1.70420	-7.39029	-2.90164
3328.000	-6.48052	-1.74096	-7.17632	-2.90696
3329.000	-6.33213	-1.52414	-7.32223	-2.78989
3330.000	-6.41805	-1.60488	-7.40585	-2.54920
3331.000	-6.30089	-1.62698	-7.44473	-2.57654
3332.000	-6.38291	-1.64845	-7.43695	-2.53327
3333.000	-6.43172	-1.68187	-7.52830	-2.47565
3334.000	-6.41805	-1.66216	-7.49526	-2.26318
3335.000	-6.27354	-1.65868	-7.54190	-2.27278
3336.000	-6.39267	-1.62076	-7.55550	-2.24515
3337.000	-6.39072	-1.61287	-7.54773	-2.28063
3338.000	-6.39853	-1.65630	-7.59629	-2.03423
3339.000	-6.28135	-1.63889	-7.52441	-2.03653
3340.000	-6.43367	-1.71347	-7.51081	-2.06418
3341.000	-6.32823	-1.64467	-7.51275	-1.91839
3342.000	-6.39072	-1.54767	-7.60212	-1.91208
3343.000	-6.37705	-1.65044	-7.57104	-1.99495
3344.000	-6.35752	-1.66631	-7.50303	-2.07406
3345.000	-6.31846	-1.58938	-7.66233	-1.86257
3346.000	-6.34190	-1.64661	-7.59047	-1.90425
3347.000	-6.41805	-1.78463	-7.60795	-2.05386
3348.000	-6.42586	-1.74115	-7.58464	-1.99489
3349.000	-6.38486	-1.79264	-7.53607	-1.99511
3350.000	-6.53126	-1.71511	-7.56133	-1.97530
3351.000	-6.36143	-1.69593	-7.59241	-1.87667
3352.000	-6.50784	-1.66779	-7.44084	-1.88915
3353.000	-6.50003	-1.55919	-7.57687	-1.85704
3354.000	-6.33213	-1.66244	-7.57687	-1.79793
3355.000	-6.46685	-1.62645	-7.51081	-1.99129
3356.000	-6.35947	-1.74137	-7.52247	-1.95184
3357.000	-6.49027	-1.64810	-7.52441	-1.97350
3358.000	-6.38291	-1.60499	-7.48749	-1.86333
3359.000	-6.45905	-1.68376	-7.51664	-1.80804
3360.000	-6.36143	-1.62679	-7.63320	-1.73269
3361.000	-6.37119	-1.67417	-7.66815	-1.93936
3362.000	-6.49808	-1.74485	-7.59435	-1.85105
3363.000	-6.40438	-1.52985	-7.61183	-1.81355
3364.000	-6.52931	-1.63415	-7.50109	-1.80613
3365.000	-6.41219	-1.64836	-7.58075	-1.81565
3366.000	-6.44928	-1.61466	-7.44278	-1.78075
3367.000	-6.45319	-1.67785	-7.58658	-1.77031
3368.000	-6.39657	-1.56346	-7.52830	-1.86513
3369.000	-6.57223	-1.82949	-7.50886	-1.70166
3370.000	-6.60735	-1.74447	-7.61960	-1.73866
3371.000	-6.52540	-1.82769	-7.54967	-1.64041
3372.000	-6.38095	-1.78278	-7.51081	-1.58932
3373.000	-6.45709	-1.79041	-7.57881	-1.77428
3374.000	-6.54492	-1.74074	-7.46028	-1.71170
3375.000	-6.43757	-1.61272	-7.51081	-1.63465
3376.000	-6.55077	-1.87893	-7.48943	-1.75494
3377.000	-6.54297	-1.98359	-7.59824	-1.74859
3378.000	-6.48832	-1.65403	-7.45445	-1.68413
3379.000	-6.47856	-1.81798	-7.52830	-1.70158
3380.000	-6.47271	-1.74889	-7.58658	-1.74470
3381.000	-6.43172	-1.70557	-7.53218	-1.67792
3382.000	-6.45905	-1.95036	-7.64291	-1.60066
3383.000	-6.50784	-1.91266	-7.53801	-1.79416
3384.000	-6.57223	-1.83344	-7.53413	-1.67397
3385.000	-6.43757	-1.77073	-7.47583	-1.65646
3386.000	-6.47661	-1.96608	-7.64679	-1.73067
3387.000	-6.45905	-2.05105	-7.50109	-1.77263
3388.000	-6.44538	-1.84575	-7.49332	-1.67807
3389.000	-6.38095	-1.87956	-7.52247	-1.65234
3390.000	-6.48247	-1.94039	-7.40974	-1.73358
3391.000	-6.40634	-2.00387	-7.52247	-1.79422
3392.000	-6.42195	-1.84189	-7.51858	-1.74103
3393.000	-6.39462	-1.84593	-7.44473	-1.64869
3394.000	-6.47076	-1.90292	-7.41168	-1.62911
3395.000	-6.58394	-1.81563	-7.29889	-1.67684
3396.000	-6.49613	-1.84754	-7.51081	-1.60509
3397.000	-6.50003	-1.84753	-7.50886	-1.65436
3398.000	-6.49223	-1.84755	-7.53413	-1.64441
3399.000	-6.46100	-1.81805	-7.51858	-1.60309
3400.000	-6.58979	-1.89655	-7.48749	-1.71751
3401.000	-6.59955	-1.97350	-7.54190	-1.76458
3402.000	-6.49223	-1.94036	-7.45639	-1.71763
3403.000	-6.64051	-1.91017	-7.41168	-1.73752
3404.000	-6.51760	-1.99159	-7.56133	-1.79997
3405.000	-6.48832	-1.96406	-7.43112	-1.68817
3406.000	-6.56053	-1.87494	-7.54384	-1.71532
3407.000	-6.42000	-1.89324	-7.39613	-1.63902
3408.000	-6.53906	-1.90661	-7.41168	-1.70401
3409.000	-6.38876	-1.90323	-7.48554	-1.66431
3410.000	-6.49808	-1.89295	-7.38446	-1.75339
3411.000	-6.38486	-1.68400	-7.33974	-1.69049
3412.000	-6.40048	-1.77086	-7.44862	-1.70190
3413.000	-6.50003	-1.90874	-7.52830	-1.87892
3414.000	-6.39072	-1.87360	-7.52635	-1.78632
3415.000	-6.35557	-1.91520	-7.44473	-1.59745
3416.000	-6.48442	-1.88313	-7.62543	-1.77015
3417.000	-6.55272	-1.96579	-7.51275	-1.83367
3418.000	-6.52931	-2.02115	-7.42140	-1.72368
3419.000	-6.48637	-1.84758	-7.37863	-1.77904
3420.000	-6.25791	-1.93729	-7.32418	-1.71815
3421.000	-6.12504	-1.83305	-7.10041	-1.50398
3422.000	-5.82779	-1.64225	-6.76142	-1.33526
3423.000	-5.78279	-1.59096	-6.39853	-1.10108
3424.000	-5.61248	-1.75958	-6.04294	-1.12555
3425.000	-5.31862	-1.51105	-5.53611	-1.10875
3426.000	-4.92638	-1.51990	-5.35782	-1.01998
3427.000	-4.70848	-1.48473	-4.85769	-0.74926
3428.000	-4.34501	-1.62027	-4.33125	-0.95806
3429.000	-4.10906	-1.61085	-4.11103	-0.99206
3430.000	-4.09333	-1.63071	-3.83754	-0.94079
3431.000	-3.79818	-1.46069	-3.44571	-0.96701
3432.000	-3.61509	-1.30026	-2.97075	-0.99130
3433.000	-3.21912	-1.42785	-2.76763	-0.89612
3434.000	-2.92737	-1.23562	-2.60981	-0.91610
3435.000	-2.55457	-1.18237	-2.28223	-0.70764
3436.000	-2.35921	-1.03749	-1.88538	-0.67800
3437.000	-2.16379	-1.05751	-1.56540	-0.63039
3438.000	-1.73330	-0.83115	-1.50020	-0.65228
3439.000	-1.39746	-0.74776	-1.27298	-0.36596
3440.000	-1.38166	-0.73385	-1.15441	-0.21283
3441.000	-0.99433	-0.55097	-0.82435	-0.14124
3442.000	-0.82435	-0.51321	-0.90342	-0.10941
3443.000	-0.58517	-0.44162	-1.01607	-0.21284
3444.000	-0.59506	-0.39587	-0.96864	-0.00995
3445.000	-0.50610	-0.37996	-1.09117	0.09150
3446.000	-0.54564	-0.48141	-1.29669	0.03779
3447.000	-0.65436	-0.33619	-1.22753	0.13326
3448.000	-0.54959	-0.28248	-1.37573	0.14121
3449.000	-0.50017	-0.34217	-1.10698	0.07558
3450.000	-0.33609	-0.20889	-0.99631	0.08354
3451.000	-0.32620	-0.18899	-0.79273	0.15118
3452.000	-0.18781	-0.17507	-0.76901	0.00000
3453.000	0.05536	-0.08356	-0.63064	0.00995
3454.000	0.40133	0.07560	-0.45272	0.09748
3455.000	0.36179	0.14920	-0.20758	0.20889
3456.000	0.47645	0.12334	-0.19770	0.17905
3457.000	0.59110	0.17108	-0.09094	0.20491
3458.000	0.64843	0.36404	-0.07117	0.24271
3459.000	0.76308	0.34812	0.07315	0.30438
3460.000	0.81447	0.50326	0.00000	0.36406
3461.000	0.72947	0.46548	0.07513	0.44960
3462.000	0.96271	0.64844	0.08501	0.30438
3463.000	0.87179	0.61464	-0.01977	0.41777
3464.000	0.90934	0.67430	-0.10676	0.46552
3465.000	0.91923	0.80159	0.00593	0.46950
3466.000	0.84610	0.80160	-0.15421	0.53713
3467.000	0.95480	0.83340	-0.17398	0.57890
3468.000	0.71761	0.79367	-0.27282	0.58089
3469.000	0.83424	0.74592	-0.43296	0.74796
3470.000	0.76308	0.74394	-0.45075	0.77382
3471.000	0.71564	0.70218	-0.55354	0.70419
3472.000	0.69982	0.63854	-0.47052	0.71017
3473.000	0.67017	0.63854	-0.61680	0.62064
3474.000	0.71959	0.64450	-0.72354	0.61466
3475.000	0.76703	0.62858	-0.63064	0.54307
3476.000	0.76901	0.53708	-0.64052	0.50328
3477.000	0.76308	0.53510	-0.59703	0.47942
3478.000	0.87179	0.66238	-0.51005	0.45953
3479.000	0.87377	0.64050	-0.55750	0.35211
3480.000	0.62866	0.63059	-0.52191	0.47544
3481.000	0.76505	0.61267	-0.51203	0.47743
3482.000	0.76901	0.71013	-0.62668	0.35608
3483.000	0.78877	0.52117	-0.47249	0.47545
3484.000	0.85400	0.65243	-0.60099	0.47942
3485.000	0.83226	0.67829	-0.41121	0.50728
3486.000	0.79075	0.46547	-0.39539	0.48540
3487.000	0.79866	0.64051	-0.47645	0.59281
3488.000	0.78680	0.62062	-0.41319	0.36206
3489.000	0.70378	0.77180	-0.44679	0.38394
3490.000	0.82831	0.75984	-0.46459	0.46152
3491.000	0.78087	0.83742	-0.41516	0.46948
3492.000	0.78482	0.79167	-0.46261	0.65845
3493.000	0.71564	0.77577	-0.51994	0.53313
3494.000	0.60099	0.77977	-0.43296	0.51722
3495.000	0.74331	0.89908	-0.50610	0.67834
3496.000	0.70180	0.80959	-0.43691	0.50131
3497.000	0.70575	0.77776	-0.39342	0.40583
3498.000	0.77889	0.91896	-0.54366	0.70618
3499.000	0.72947	0.85930	-0.51994	0.71016
3500.000	0.85400	0.80757	-0.54366	0.60872
3501.000	0.82435	0.88116	-0.46854	0.51523
3502.000	0.74924	0.88316	-0.47842	0.59281
3503.000	0.70773	0.91102	-0.46854	0.52120
3504.000	0.80063	0.86128	-0.40726	0.50529
3505.000	0.78284	0.81156	-0.40133	0.63459
3506.000	0.76110	0.87918	-0.44877	0.60873
3507.000	0.72750	0.79566	-0.41516	0.48938
3508.000	0.79470	0.93486	-0.51994	0.57093
3509.000	0.80261	1.00446	-0.51203	0.53313
3510.000	0.83226	0.88315	-0.45668	0.52916
3511.000	0.82831	0.86923	-0.44482	0.52120
3512.000	0.81842	0.93287	-0.44482	0.59281
3513.000	0.84017	0.93286	-0.52389	0.67038
3514.000	0.84214	0.92889	-0.45075	0.55303
3515.000	1.00421	0.97856	-0.42900	0.57292
3516.000	0.84412	0.96269	-0.38749	0.60873
3517.000	0.98445	0.95470	-0.39539	0.54309
3518.000	0.84214	0.72802	-0.49028	0.51722
3519.000	0.83028	0.84735	-0.46854	0.57690
3520.000	0.95085	1.01039	-0.40133	0.56497
3521.000	0.79273	0.87520	-0.51598	0.63458
3522.000	0.81249	0.88116	-0.44877	0.46948
3523.000	0.82831	0.80161	-0.51598	0.60076
3524.000	0.71959	0.74992	-0.32620	0.54110
3525.000	0.89749	0.70812	-0.37365	0.55502
3526.000	0.76110	0.63853	-0.47842	0.68630
3527.000	0.69587	0.65644	-0.41121	0.66244
3528.000	0.72354	0.68627	-0.41516	0.44561
3529.000	0.84610	0.70017	-0.35981	0.62664
3530.000	0.78284	0.65642	-0.36376	0.67239
3531.000	0.65238	0.69423	-0.41319	0.56895
3532.000	0.84610	0.59873	-0.38749	0.62464
3533.000	0.69587	0.60273	-0.45668	0.46550
3534.000	0.66424	0.56693	-0.41912	0.65846
3535.000	0.64448	0.57290	-0.44086	0.48540
3536.000	0.77889	0.58283	-0.37365	0.62067
3537.000	0.63657	0.65247	-0.40330	0.53513
3538.000	0.74726	0.63057	-0.46459	0.59082
3539.000	0.78680	0.63852	-0.44284	0.64254
3540.000	0.68599	0.68627	-0.35981	0.62465
3541.000	0.70575	0.65644	-0.46656	0.39389
3542.000	0.70180	0.68428	-0.31434	0.48143
3543.000	0.65436	0.64451	-0.43493	0.62464
3544.000	0.81249	0.62658	-0.47842	0.58883
3545.000	0.69389	0.79964	-0.40528	0.56298
3546.000	0.72947	0.67831	-0.43691	0.61469
3547.000	0.80459	0.75587	-0.30841	0.61470
3548.000	0.77889	0.76383	-0.35981	0.59282
3549.000	0.80261	0.69819	-0.35586	0.45158
3550.000	0.81052	0.67631	-0.43493	0.51524
3551.000	0.72157	0.79964	-0.42900	0.61072
3552.000	0.83621	0.73796	-0.33411	0.42771
3553.000	0.76308	0.69024	-0.31632	0.49336
3554.000	0.71366	0.75787	-0.37365	0.41379
3555.000	0.78680	0.72803	-0.47645	0.53711
3556.000	0.83028	0.73001	-0.46459	0.41577
3557.000	0.87970	0.70812	-0.41912	0.50529
3558.000	0.82435	0.74791	-0.39737	0.52121
3559.000	0.84807	0.77774	-0.51994	0.57093
3560.000	0.81447	0.63056	-0.36376	0.65249
3561.000	0.86388	0.72205	-0.34004	0.57094
3562.000	0.80063	0.70813	-0.37760	0.48341
3563.000	0.86981	0.62061	-0.37958	0.65448
3564.000	0.88760	0.69420	-0.42702	0.53712
3565.000	0.81842	0.65841	-0.33016	0.62067
3566.000	0.89749	0.71806	-0.34399	0.52519
3567.000	0.84610	0.73398	-0.28073	0.50530
3568.000	0.86388	0.58680	-0.39737	0.66840
3569.000	0.82633	0.72802	-0.35388	0.64056
3570.000	0.77691	0.73996	-0.29457	0.55503
3571.000	0.84214	0.61465	-0.29852	0.64653
3572.000	0.80261	0.76183	-0.27678	0.59680
3573.000	0.88563	0.71210	-0.32620	0.66642
3574.000	0.86191	0.66636	-0.37167	0.54309
3575.000	0.89946	0.67430	-0.32818	0.58089
3576.000	0.82633	0.70216	-0.43098	0.65846
3577.000	0.88563	0.84336	-0.33609	0.71814
3578.000	0.86586	0.72204	-0.38749	0.65846
3579.000	0.90144	0.61861	-0.30841	0.62266
3580.000	0.86981	0.66635	-0.33411	0.71416
3581.000	0.85993	0.74591	-0.35586	0.75792
3582.000	0.86981	0.57685	-0.33609	0.66443
3583.000	0.77494	0.74792	-0.34202	0.54906
3584.000	0.64843	0.60075	-0.37563	0.61470
3585.000	0.72354	0.62461	-0.32225	0.57094
3586.000	0.76308	0.63455	-0.49028	0.60276
3587.000	0.79866	0.55896	-0.39144	0.69625
3588.000	0.74529	0.57488	-0.46063	0.69227
3589.000	0.69982	0.58682	-0.30248	0.66642
3590.000	0.77098	0.69819	-0.29655	0.67239
3591.000	0.66820	0.61268	-0.38156	0.70023
3592.000	0.71959	0.56892	-0.39539	0.54905
3593.000	0.73936	0.59676	-0.33806	0.60476
3594.000	0.79075	0.68029	-0.31829	0.62465
3595.000	0.80854	0.57885	-0.43098	0.70818
3596.000	0.72157	0.59875	-0.40133	0.73603
3597.000	0.74133	0.56295	-0.39144	0.64851
3598.000	0.69192	0.61467	-0.29852	0.65847
3599.000	0.75715	0.68030	-0.37958	0.62663
3600.000	0.66622	0.64451	-0.50412	0.59082
3601.000	0.61680	0.58285	-0.32818	0.67239
3602.000	0.63657	0.49533	-0.45470	0.65845
3603.000	0.75122	0.74991	-0.38353	0.58088
3604.000	0.72750	0.60671	-0.36376	0.62862
3605.000	0.73540	0.58085	-0.37760	0.60077
3606.000	0.78482	0.63256	-0.44679	0.65249
3607.000	0.67413	0.62859	-0.42900	0.55104
3608.000	0.84412	0.67233	-0.38551	0.63459
3609.000	0.78087	0.65245	-0.46063	0.55701
3610.000	0.76110	0.49332	-0.44679	0.55303
3611.000	0.70971	0.57289	-0.36574	0.70819
3612.000	0.69192	0.45156	-0.41121	0.66840
3613.000	0.77494	0.62261	-0.31039	0.56298
3614.000	0.75319	0.62262	-0.33213	0.55503
3615.000	0.77494	0.59874	-0.49424	0.58485
3616.000	0.77691	0.50924	-0.37760	0.67040
3617.000	0.77889	0.48537	-0.43889	0.65647
3618.000	0.79866	0.70813	-0.35981	0.56497
3619.000	0.80656	0.49133	-0.40330	0.54309
3620.000	0.73738	0.62858	-0.37760	0.58884
3621.000	0.74726	0.61267	-0.35388	0.65249
3622.000	0.71366	0.51919	-0.41121	0.55701
3623.000	0.84412	0.52514	-0.31236	0.61669
3624.000	0.87574	0.57884	-0.29852	0.50331
3625.000	0.72354	0.57090	-0.32027	0.66642
3626.000	0.81842	0.44558	-0.39342	0.63658
3627.000	0.76505	0.47144	-0.34202	0.65846
3628.000	0.76110	0.56692	-0.35783	0.52121
3629.000	0.86191	0.46745	-0.41319	0.65249
3630.000	0.76308	0.54305	-0.34399	0.63857
3631.000	0.79470	0.37994	-0.39737	0.73206
3632.000	0.65831	0.42371	-0.38749	0.65846
3633.000	0.72947	0.41774	-0.38156	0.57293
3634.000	0.66029	0.37398	-0.29259	0.55105
3635.000	0.73540	0.40779	-0.32620	0.63459
3636.000	0.72552	0.49333	-0.30841	0.56696
3637.000	0.79075	0.51918	-0.33411	0.70421
3638.000	0.92120	0.43164	-0.41319	0.69028
3639.000	0.84412	0.41176	-0.24910	0.66444
3640.000	0.82435	0.60271	-0.24910	0.45159
3641.000	0.71366	0.41774	-0.27480	0.57293
3642.000	0.82435	0.58879	-0.28073	0.49137
3643.000	0.85005	0.56293	-0.40726	0.60873
3644.000	0.76901	0.57090	-0.38353	0.55303
3645.000	0.79075	0.52714	-0.31434	0.67637
3646.000	0.84214	0.50923	-0.43493	0.62862
3647.000	0.77889	0.64250	-0.31039	0.59680
3648.000	0.71168	0.52913	-0.28864	0.59879
3649.000	0.76308	0.59477	-0.30446	0.64454
3650.000	0.83226	0.54105	-0.28073	0.58089
3651.000	0.67017	0.61467	-0.36179	0.64056
3652.000	0.76505	0.70217	-0.32620	0.57094
3653.000	0.74726	0.63654	-0.40726	0.52120
3654.000	0.74924	0.64847	-0.28271	0.61272
3655.000	0.76110	0.61466	-0.34399	0.63260
3656.000	0.70180	0.67832	-0.27678	0.48739
3657.000	0.67808	0.58284	-0.32422	0.56497
3658.000	0.64052	0.50328	-0.29457	0.49137
3659.000	0.78877	0.65443	-0.39737	0.64255
3660.000	0.74331	0.58681	-0.28469	0.57691
3661.000	0.75122	0.55897	-0.29852	0.60476
3662.000	0.68401	0.51124	-0.31039	0.68830
3663.000	0.73738	0.57289	-0.32225	0.59282
3664.000	0.78877	0.61664	-0.22142	0.53514
3665.000	0.84214	0.56293	-0.32027	0.63261
3666.000	0.74726	0.53510	-0.29062	0.49336
3667.000	0.78877	0.64847	-0.27480	0.59680
3668.000	0.81842	0.55498	-0.29655	0.64852
3669.000	0.82633	0.58481	-0.25108	0.54508
3670.000	0.70378	0.57687	-0.25503	0.64255
3671.000	0.79866	0.65642	-0.27480	0.56895
3672.000	0.76703	0.54504	-0.26492	0.56299
3673.000	0.84412	0.55100	-0.28073	0.57293
3674.000	0.78680	0.57288	-0.31434	0.56696
3675.000	0.91527	0.46745	-0.29457	0.42970
3676.000	0.68006	0.65445	-0.20165	0.59084
3677.000	0.87179	0.61862	-0.24119	0.51525
3678.000	0.78680	0.60869	-0.24712	0.40186
3679.000	0.75319	0.63455	-0.32818	0.55503
3680.000	0.74331	0.55698	-0.34597	0.50927
3681.000	0.71366	0.42769	-0.43691	0.56695
3682.000	0.78680	0.43564	-0.22735	0.65250
3683.000	0.74924	0.62063	-0.30050	0.52519
3684.000	0.68994	0.38791	-0.37563	0.58486
3685.000	0.78680	0.39983	-0.37760	0.52916
3686.000	0.67413	0.44758	-0.34399	0.44960
3687.000	0.67215	0.38990	-0.23724	0.55105
3688.000	0.72750	0.38194	-0.35388	0.45556
3689.000	0.75122	0.41774	-0.29852	0.63857
3690.000	0.70378	0.35807	-0.17200	0.42772
3691.000	0.77296	0.39188	-0.16607	0.58487
3692.000	0.58122	0.38593	-0.17398	0.46949
3693.000	0.73936	0.39188	-0.22142	0.55702
3694.000	0.67413	0.38791	-0.18979	0.52519
3695.000	0.73343	0.40382	-0.29259	0.62465
3696.000	0.87377	0.52712	-0.27480	0.56299
3697.000	0.81249	0.36005	-0.29852	0.44363
3698.000	0.79273	0.37198	-0.16804	0.55702
3699.000	0.88760	0.44159	-0.30841	0.60078
3700.000	0.82831	0.45751	-0.34202	0.64454
3701.000	0.75122	0.38392	-0.29852	0.55105
3702.000	0.65436	0.30834	-0.26294	0.54309
3703.000	0.71168	0.54107	-0.26294	0.51326
3704.000	0.79668	0.45553	-0.28864	0.62067
3705.000	0.71564	0.44758	-0.25701	0.59481
3706.000	0.78087	0.40978	-0.12257	0.50331
3707.000	0.73738	0.47145	-0.23131	0.64057
3708.000	0.70378	0.44957	-0.22933	0.53315
3709.000	0.77296	0.46150	-0.27876	0.66642
3710.000	0.64645	0.32226	-0.19375	0.51923
3711.000	0.63064	0.48737	-0.22735	0.69228
3712.000	0.74529	0.48537	-0.20561	0.59879
3713.000	0.73936	0.44758	-0.11467	0.53514
3714.000	0.64448	0.50925	-0.17200	0.52320
3715.000	0.69389	0.45156	-0.23329	0.73406
3716.000	0.68994	0.37597	-0.23329	0.61272
3717.000	0.64843	0.37200	-0.26294	0.54111
3718.000	0.58122	0.41179	-0.22340	0.57890
3719.000	0.70180	0.39785	-0.33213	0.62266
3720.000	0.70575	0.26258	-0.17595	0.61471
3721.000	0.64645	0.40382	-0.24712	0.53116
3722.000	0.71168	0.35011	-0.13246	0.60476
3723.000	0.57133	0.40980	-0.26689	0.51723
3724.000	0.57727	0.42770	-0.14432	0.43966
3725.000	0.69192	0.33818	-0.23329	0.55503
3726.000	0.59703	0.32227	-0.25701	0.46551
3727.000	0.53180	0.27055	-0.26294	0.64653
3728.000	0.60296	0.38592	-0.14827	0.52519
3729.000	0.60494	0.31431	-0.13641	0.61471
3730.000	0.59506	0.28049	-0.17991	0.59482
3731.000	0.51796	0.27851	-0.16409	0.59482
3732.000	0.59901	0.28646	-0.17793	0.50530
3733.000	0.61680	0.27055	-0.12850	0.41976
3734.000	0.57529	0.31431	-0.11467	0.37799
3735.000	0.47842	0.27652	-0.15618	0.44363
3736.000	0.62273	0.55500	-0.18584	0.44164
3737.000	0.29259	0.50729	-0.33806	0.45755
3738.000	0.14827	0.64256	-0.49226	0.48141
3739.000	0.13246	0.65449	-0.77296	0.54305
3740.000	-0.02570	0.71019	-1.00421	0.57882
3741.000	-0.22340	0.82356	-1.08129	0.44952
3742.000	-0.53180	0.80365	-1.32436	0.47534
3743.000	-0.86191	0.86723	-1.61873	0.62640
3744.000	-1.06351	0.86320	-1.87748	0.51299
3745.000	-1.22555	0.80151	-2.08482	0.54672
3746.000	-1.46464	0.87500	-2.25460	0.71958
3747.000	-1.63651	0.98030	-2.60192	0.70747
3748.000	-1.87156	0.90066	-2.83074	0.88216
3749.000	-1.94067	0.99604	-2.88399	0.79869
3750.000	-1.91500	0.86684	-2.83271	0.86230
3751.000	-2.11246	0.97407	-2.96680	0.87014
3752.000	-1.99202	0.86680	-2.88793	0.98342
3753.000	-2.04138	0.74950	-3.02398	0.95153
3754.000	-2.00584	1.00395	-2.91554	1.01319
3755.000	-2.00979	0.95425	-2.89976	1.04896
3756.000	-1.97819	1.03378	-2.95695	0.99528
3757.000	-1.96240	0.98410	-2.96286	0.98932
3758.000	-1.99004	1.04570	-2.93526	1.10652
3759.000	-1.95450	1.09740	-2.85046	1.06092
3760.000	-2.11838	1.09132	-2.83468	1.05895
3761.000	-2.00979	1.11723	-2.91751	1.14229
3762.000	-2.09074	1.02774	-2.90371	1.12642
3763.000	-1.94462	1.07355	-2.97075	1.10053
3764.000	-1.94857	1.08349	-2.80313	1.14638
3765.000	-1.93672	1.11530	-2.80707	1.18411
3766.000	-1.99202	1.05961	-2.77552	1.19408
3767.000	-1.78861	1.04582	-2.87215	1.18007
3768.000	-1.80638	1.01400	-2.74198	1.16630
3769.000	-1.79453	1.05973	-2.61376	1.24390
3770.000	-1.77281	0.86691	-2.58614	1.12274
3771.000	-1.74713	0.90271	-2.46578	1.15066
3772.000	-1.74318	0.97030	-2.54076	1.05722
3773.000	-1.69380	1.04388	-2.52300	0.99763
3774.000	-1.73725	1.01802	-2.55457	1.07112
3775.000	-1.72540	0.86892	-2.46775	1.07913
3776.000	-1.75503	1.04186	-2.57233	1.04726
3777.000	-1.67997	0.77749	-2.45788	0.91223
3778.000	-1.65429	0.92462	-2.59995	0.90419
3779.000	-1.72343	0.94646	-2.59206	0.98367
3780.000	-1.79256	0.93449	-2.49735	1.00162
3781.000	-1.83798	0.97423	-2.62362	1.07702
3782.000	-1.80243	0.93051	-2.58219	1.06116
3783.000	-1.88143	0.77939	-2.60390	1.06909
3784.000	-1.68392	1.00214	-2.58022	1.02540
3785.000	-1.73923	0.93651	-2.61771	1.04921
3786.000	-1.73133	0.80928	-2.52497	1.04730
3787.000	-1.68787	1.08961	-2.55062	0.90422
3788.000	-1.74515	0.87289	-2.58022	1.01745
3789.000	-1.86168	0.96030	-2.54471	0.96980
3790.000	-1.71750	0.89477	-2.54865	0.93800
3791.000	-1.74910	0.85500	-2.45591	0.96589
3792.000	-1.80836	0.86093	-2.50327	1.00162
3793.000	-1.83996	0.90266	-2.48156	0.97580
3794.000	-1.71355	1.00411	-2.55852	0.95190
3795.000	-1.92883	0.94039	-2.55457	1.03535
3796.000	-1.92290	0.95232	-2.49340	0.83273
3797.000	-1.84588	0.93049	-2.52695	0.90225
3798.000	-1.89723	1.00998	-2.49735	0.97977
3799.000	-1.85181	1.01994	-2.48946	0.97182
3800.000	-1.80441	0.69394	-2.56838	0.92805
3801.000	-1.85378	0.95235	-2.52300	0.86251
3802.000	-1.80441	0.83111	-2.46380	0.92614
3803.000	-1.85576	0.86290	-2.45394	0.85262
3804.000	-1.82218	0.82514	-2.52695	1.02743
3805.000	-1.89920	0.85095	-2.51708	0.92610
3806.000	-1.91303	0.84498	-2.50919	0.93604
3807.000	-1.80441	0.88877	-2.45986	0.98774
3808.000	-1.90315	0.89667	-2.50919	1.00161
3809.000	-1.80046	0.84304	-2.45591	0.94800
3810.000	-1.84588	0.82314	-2.46380	0.95595
3811.000	-1.89328	0.72969	-2.52892	0.93603
3812.000	-1.87353	0.87482	-2.44407	0.84667
3813.000	-1.86958	0.85096	-2.54471	1.05324
3814.000	-1.86168	0.92452	-2.53089	0.94199
3815.000	-1.86366	0.85295	-2.54471	0.89230
3816.000	-1.86761	0.70783	-2.49143	0.87644
3817.000	-1.81626	0.89472	-2.54471	0.85852
3818.000	-1.94857	0.84098	-2.54076	0.92609
3819.000	-1.79256	0.80527	-2.62757	0.85847
3820.000	-1.80441	0.95834	-2.52695	0.99961
3821.000	-1.79256	0.89474	-2.47564	0.89434
3822.000	-1.81626	0.82912	-2.45986	0.88640
3823.000	-1.82218	0.93846	-2.52892	0.94994
3824.000	-1.88933	0.88077	-2.58811	0.95784
3825.000	-1.84983	0.80127	-2.45394	0.84070
3826.000	-1.93672	0.77539	-2.56444	0.92011
3827.000	-1.92093	0.82708	-2.57233	0.83864
3828.000	-1.91895	0.83504	-2.58219	0.83267
3829.000	-1.82021	0.89671	-2.53089	0.97378
3830.000	-2.08482	0.79122	-2.48748	0.85658
3831.000	-1.87748	0.90463	-2.43025	0.92616
3832.000	-1.95845	0.92646	-2.38684	0.89042
3833.000	-1.86958	0.87681	-2.62165	0.85251
3834.000	-1.89920	0.90462	-2.62362	1.06708
3835.000	-1.91303	0.78733	-2.51313	0.94200
3836.000	-1.87353	0.84301	-2.51511	0.95392
3837.000	-1.92290	0.89865	-2.53287	0.94993
3838.000	-1.79058	0.84901	-2.62362	0.92404
3839.000	-2.00189	0.87674	-2.45986	0.89236
3840.000	-2.02163	0.81511	-2.55457	0.92806
3841.000	-1.96240	0.95229	-2.54668	0.79494
3842.000	-2.00781	0.84095	-2.59008	0.98168
3843.000	-1.98807	0.93837	-2.61179	0.94590
3844.000	-2.00386	0.77735	-2.51313	0.90425
3845.000	-2.00781	0.88866	-2.62165	0.94987
3846.000	-1.94265	0.91056	-2.44604	1.00365
3847.000	-2.08087	0.81706	-2.54273	0.87045
3848.000	-1.96832	0.76345	-2.51708	0.86649
3849.000	-1.92093	0.86088	-2.54471	0.89628
3850.000	-1.96240	0.84893	-2.56838	0.99759
3851.000	-1.96832	0.81712	-2.46972	0.91223
3852.000	-1.92093	0.96226	-2.51708	0.93802
3853.000	-1.89525	0.76746	-2.63941	0.98363
3854.000	-1.87156	0.90861	-2.52300	0.91815
3855.000	-1.92685	0.86087	-2.53681	0.89231
3856.000	-1.87353	0.94439	-2.48551	0.98971
3857.000	-1.87946	1.04576	-2.50524	0.86650
3858.000	-1.92290	0.94436	-2.57233	0.90023
3859.000	-1.94067	0.89665	-2.63743	0.89025
3860.000	-1.87946	0.89072	-2.52892	0.77905
3861.000	-1.95845	0.97217	-2.49143	0.87843
3862.000	-1.89525	1.00799	-2.51905	0.79495
3863.000	-1.86366	0.95831	-2.68083	0.82664
3864.000	-1.94067	0.82906	-2.56246	0.88434
3865.000	-1.90118	0.90064	-2.54865	0.85057
3866.000	-1.88933	1.16104	-2.49538	0.80292
3867.000	-1.93672	0.90261	-2.58614	0.88035
3868.000	-1.88341	1.02589	-2.56049	0.94594
3869.000	-2.00386	1.00395	-2.58219	0.86843
3870.000	-2.00386	0.85885	-2.45788	0.88044
3871.000	-1.98609	1.00595	-2.50327	0.87246
3872.000	-1.91500	0.95033	-2.44802	0.81884
3873.000	-1.99202	0.96420	-2.52300	0.87444
3874.000	-1.99794	0.93240	-2.50919	0.76714
3875.000	-1.96240	1.00795	-2.55260	0.90223
3876.000	-1.93870	0.95827	-2.51905	0.76117
3877.000	-1.93278	1.08548	-2.54471	0.86051
3878.000	-2.07889	1.00390	-2.56246	0.85653
3879.000	-2.02953	1.16492	-2.56444	0.77307
3880.000	-2.03743	1.08343	-2.58022	0.76511
3881.000	-2.01176	0.96817	-2.42631	0.81886
3882.000	-1.86958	0.96427	-2.52892	0.78700
3883.000	-1.98412	1.00595	-2.45986	0.87448
3884.000	-2.02756	0.98605	-2.39276	0.79503
3885.000	-2.02361	1.05561	-2.54668	0.93999
3886.000	-2.02558	0.99797	-2.50130	0.88240
3887.000	-1.98807	1.02980	-2.42433	0.93213
3888.000	-2.03151	0.98604	-2.48946	0.86651
3889.000	-2.07495	1.00788	-2.50130	0.90823
3890.000	-1.96437	1.20670	-2.39078	0.90036
3891.000	-2.00386	1.06954	-2.50130	0.84862
3892.000	-2.02756	1.13511	-2.56838	0.79890
3893.000	-2.04138	1.09535	-2.50722	0.92214
3894.000	-2.14602	1.15688	-2.51116	0.86451
3895.000	-2.02361	1.02381	-2.57035	0.97176
3896.000	-2.06902	1.14700	-2.52103	0.87642
3897.000	-2.01769	1.25038	-2.50722	0.71349
3898.000	-1.96240	1.00994	-2.48354	0.88638
3899.000	-1.97622	1.24246	-2.55260	0.81679
3900.000	-1.96240	1.08944	-2.46578	0.88441
3901.000	-2.11641	1.07741	-2.54471	0.91813
3902.000	-2.14207	1.08137	-2.42039	0.85861
3903.000	-2.08482	1.03371	-2.51116	0.88040
3904.000	-2.02756	1.04965	-2.54865	0.82276
3905.000	-2.18748	1.01377	-2.51313	0.81086
3906.000	-1.94462	1.17094	-2.55062	0.98569
3907.000	-2.09271	1.05358	-2.51708	0.78899
3908.000	-2.00979	1.16891	-2.49932	0.88439
3909.000	-2.01966	1.17884	-2.39276	0.95798
3910.000	-2.10654	1.18871	-2.51116	0.93405
3911.000	-1.93870	1.04772	-2.45591	0.85660
3912.000	-2.06507	1.09335	-2.41841	0.87848
3913.000	-1.97227	1.15105	-2.56838	0.91017
3914.000	-2.09469	1.19667	-2.54273	0.73533
3915.000	-2.09074	1.05358	-2.45394	0.83871
3916.000	-2.01966	1.15698	-2.55062	0.83865
3917.000	-2.02756	1.12915	-2.46578	0.79101
3918.000	-1.98214	1.18483	-2.38092	0.82087
3919.000	-2.00979	1.24244	-2.49735	0.82080
3920.000	-1.85378	1.13920	-2.52892	0.85257
3921.000	-2.02558	1.04567	-2.45196	0.90628
3922.000	-1.96635	1.05167	-2.50919	0.88637
3923.000	-1.94462	0.98411	-2.43618	0.82481
3924.000	-1.98412	1.00197	-2.42433	0.79501
3925.000	-1.99597	1.08544	-2.49932	0.77311
3926.000	-2.02953	0.96617	-2.46183	0.98774
3927.000	-2.08482	1.04563	-2.37697	0.91626
3928.000	-2.04730	1.09535	-2.50130	0.94598
3929.000	-1.99794	1.14507	-2.58614	1.00950
3930.000	-1.98807	1.08545	-2.43618	0.87847
3931.000	-1.94462	1.02982	-2.45986	0.95794
3932.000	-1.98017	1.01390	-2.43420	0.76520
3933.000	-1.99399	1.15501	-2.54668	0.91416
3934.000	-1.92488	1.10537	-2.51313	0.73137
3935.000	-1.93870	0.97815	-2.43420	0.80693
3936.000	-1.94265	1.12523	-2.56049	0.79890
3937.000	-1.99794	1.01588	-2.49143	0.83074
3938.000	-1.96240	1.04571	-2.51708	0.76714
3939.000	-1.95055	0.99007	-2.42039	0.86854
3940.000	-2.00189	1.00395	-2.55062	0.86846
3941.000	-2.04928	1.01187	-2.43815	0.80693
3942.000	-1.86958	1.09745	-2.50130	0.83868
3943.000	-1.91500	1.00003	-2.50919	0.81682
3944.000	-1.90513	1.01196	-2.48946	0.81286
3945.000	-1.94857	0.92845	-2.49932	0.90426
3946.000	-1.94265	1.04374	-2.43025	0.74533
3947.000	-1.96042	0.98609	-2.34342	0.89840
3948.000	-1.91698	0.92847	-2.62954	0.79489
3949.000	-1.92883	0.98213	-2.48354	0.90626
3950.000	-1.99597	0.88270	-2.39078	0.84869
3951.000	-1.94067	0.94038	-2.44802	0.79500
3952.000	-2.01966	0.90058	-2.36513	0.80697
3953.000	-1.98412	0.98210	-2.49143	0.95394
3954.000	-1.96042	0.87278	-2.44999	0.82480
3955.000	-2.04533	0.90852	-2.39276	0.85465
3956.000	-1.93080	1.09145	-2.48748	0.88241
3957.000	-2.00979	0.86679	-2.41841	0.77514
3958.000	-1.98412	0.92445	-2.47564	0.94998
3959.000	-2.08087	0.77532	-2.48748	0.80292
3960.000	-2.05718	0.78726	-2.40065	0.81092
3961.000	-1.98214	0.91650	-2.42631	0.78110
3962.000	-2.06507	0.87670	-2.54076	0.86449
3963.000	-2.01176	0.79722	-2.46578	0.77710
3964.000	-2.01571	0.79324	-2.52103	0.79893
3965.000	-1.90315	0.66209	-2.39868	0.92420
3966.000	-1.94265	0.88273	-2.46183	0.92614
3967.000	-1.97622	0.68393	-2.47762	0.91421
3968.000	-1.95647	0.89863	-2.45394	0.77313
3969.000	-1.94857	0.97417	-2.44407	0.88641
3970.000	-1.96240	0.83303	-2.53484	0.89032
3971.000	-1.99794	0.91053	-2.42433	0.85065
3972.000	-1.95647	0.87875	-2.40657	0.86656
3973.000	-1.88933	0.90264	-2.38092	0.85863
3974.000	-2.01769	1.03375	-2.37894	0.84870
3975.000	-2.08679	0.84886	-2.44407	0.84468
3976.000	-2.08087	0.89061	-2.45986	0.92018
3977.000	-1.93870	0.87478	-2.40657	0.90035
3978.000	-1.98017	0.76145	-2.36315	0.79306
3979.000	-1.94857	0.88472	-2.39276	0.78708
3980.000	-2.01176	0.76144	-2.36315	0.72748
3981.000	-1.89723	0.97420	-2.43223	0.70359
3982.000	-1.95647	0.84496	-2.41052	0.71751
3983.000	-2.01966	0.95822	-2.51708	0.87047
3984.000	-1.98609	0.84097	-2.42433	0.85065
3985.000	-2.09271	0.80911	-2.47564	0.97382
3986.000	-1.99004	0.87476	-2.46972	0.79101
3987.000	-1.98017	0.86681	-2.46183	0.84069
3988.000	-2.01769	1.07748	-2.39276	0.94209
3989.000	-1.99991	0.95625	-2.47564	0.89235
3990.000	-2.04138	0.85286	-2.43618	0.83872
3991.000	-2.06112	0.97410	-2.44407	0.87648
3992.000	-1.96042	0.95031	-2.42236	0.99572
3993.000	-1.96437	0.99801	-2.28815	0.87459
3994.000	-1.91500	0.85094	-2.44012	0.82084
3995.000	-1.95450	1.04174	-2.40460	0.87849
3996.000	-1.91105	0.99804	-2.36710	0.70959
3997.000	-1.94462	1.08349	-2.46972	0.74729
3998.000	-1.93278	0.97219	-2.37302	0.89242
3999.000	-1.98412	1.04968	-2.38486	0.93812
4000.000	-1.97227	0.92844	-2.36908	0.85665
4001.000	-1.95647	0.98211	-2.37105	0.86460
4002.000	-2.02953	0.94232	-2.43618	0.88642
4003.000	-1.92093	0.94238	-2.38684	0.86061
4004.000	-1.93475	1.02188	-2.40657	0.92618
4005.000	-2.03348	0.99598	-2.44210	0.98775
4006.000	-1.98214	0.99601	-2.43420	0.91424
4007.000	-1.96635	0.95627	-2.54076	0.95589
4008.000	-1.98609	1.08545	-2.47959	1.02747
4009.000	-2.02756	0.98406	-2.35329	0.86461
4010.000	-1.93475	0.84696	-2.41841	0.86457
4011.000	-1.98017	0.91650	-2.47762	0.89434
4012.000	-1.97029	1.05962	-2.36315	0.93217
4013.000	-1.90513	0.98015	-2.44210	0.88244
4014.000	-1.99202	0.93041	-2.38486	0.94010
4015.000	-2.05915	0.99795	-2.44210	0.99372
4016.000	-1.94660	0.97616	-2.47170	1.03145
4017.000	-1.95055	0.91255	-2.42039	0.91226
4018.000	-1.84983	0.96627	-2.48354	0.87247
4019.000	-1.92883	0.98412	-2.49932	0.90227
4020.000	-2.01571	0.90655	-2.43618	0.91225
4021.000	-1.85971	0.85494	-2.33355	0.79904
4022.000	-2.00386	0.87475	-2.34934	0.87057
4023.000	-1.98807	0.70977	-2.43025	0.85065
4024.000	-1.89920	0.82908	-2.45394	0.93807
4025.000	-2.00386	0.92842	-2.33158	0.84077
4026.000	-1.92685	0.96623	-2.50722	0.88438
4027.000	-1.99991	0.93240	-2.45986	0.86057
4028.000	-1.96635	0.85290	-2.47762	0.89036
4029.000	-1.90513	0.99804	-2.46578	0.93409
4030.000	-1.99399	0.92644	-2.41841	0.79700
4031.000	-1.91895	0.86883	-2.40855	0.81489
4032.000	-1.93672	0.91255	-2.48354	0.91222
4033.000	-1.86366	0.93048	-2.48354	0.95196
4034.000	-1.94067	0.93044	-2.42828	0.81687
4035.000	-2.04533	0.94231	-2.42828	0.92815
4036.000	-1.96240	0.83899	-2.48156	0.90228
4037.000	-1.92093	0.86883	-2.42236	0.87649
4038.000	-1.89525	0.97022	-2.38684	0.93414
4039.000	-2.06112	0.80912	-2.39473	0.72746
4040.000	-2.05125	0.82503	-2.37894	0.79106
4041.000	-1.85576	0.73964	-2.42039	0.82482
4042.000	-1.92685	1.02188	-2.37697	0.69169
4043.000	-1.97622	0.96620	-2.44210	0.80692
4044.000	-1.99794	0.86481	-2.35526	0.68574
4045.000	-1.92685	0.85889	-2.40263	0.85067
4046.000	-1.91698	0.85094	-2.46380	0.89037
4047.000	-1.92093	0.89467	-2.42433	0.84072
4048.000	-1.90513	0.80522	-2.44604	0.84070
4049.000	-1.91698	0.88473	-2.47170	0.82678
4050.000	-1.89328	1.00203	-2.43815	0.74333
4051.000	-1.98412	0.95029	-2.37500	0.70760
4052.000	-1.95647	0.96820	-2.32960	0.74538
4053.000	-1.85576	0.88874	-2.35329	0.74139
4054.000	-1.91500	0.95630	-2.39276	0.67181
4055.000	-1.87946	0.86487	-2.38289	0.80696
4056.000	-1.86366	0.81319	-2.36118	0.79107
4057.000	-1.97622	0.99005	-2.39276	0.77516
4058.000	-1.93475	0.81714	-2.47367	0.82678
4059.000	-1.97227	0.92844	-2.39276	0.77118
4060.000	-1.91895	0.90262	-2.36710	0.82684
4061.000	-1.95845	1.11131	-2.32171	0.77321
4062.000	-1.98807	0.98806	-2.40657	0.66783
4063.000	-1.94067	0.91255	-2.41447	0.82284
4064.000	-1.94857	0.86086	-2.40657	0.69764
4065.000	-1.87156	0.96030	-2.45196	0.81288
4066.000	-1.84391	0.92453	-2.37697	0.82087
4067.000	-1.93870	0.92249	-2.29210	0.92029
4068.000	-1.92290	0.89666	-2.46578	0.78306
4069.000	-1.86958	0.90662	-2.39868	0.71553
4070.000	-1.91698	0.90262	-2.33750	0.75929
4071.000	-1.94462	0.96025	-2.39078	0.66784
4072.000	-1.87748	0.94837	-2.40657	0.82483
4073.000	-1.89130	0.98613	-2.40657	0.75528
4074.000	-1.84786	0.91459	-2.34737	0.70363
4075.000	-1.96635	0.90657	-2.47367	0.72742
4076.000	-1.83996	1.07362	-2.42631	0.88841
4077.000	-1.82416	0.96231	-2.36710	0.84274
4078.000	-1.87353	0.91259	-2.30394	0.86464
4079.000	-1.91698	1.02785	-2.30394	0.86067
4080.000	-1.92290	0.96424	-2.40065	0.80695
4081.000	-1.84983	0.95832	-2.38092	0.69169
4082.000	-1.85576	0.92055	-2.39868	0.75528
4083.000	-1.94462	0.95628	-2.30592	0.74937
4084.000	-1.94265	0.96423	-2.43618	0.73539
4085.000	-1.93278	0.99008	-2.33947	0.80102
4086.000	-1.92685	0.99008	-2.33947	0.73743
4087.000	-1.78071	0.97426	-2.45986	0.78307
4088.000	-1.84193	0.98019	-2.30000	0.70565
4089.000	-1.76886	1.01402	-2.41447	0.71155
4090.000	-1.84193	0.97025	-2.40065	0.67777
4091.000	-1.93870	1.01790	-2.39473	0.73541
4092.000	-1.94660	0.97814	-2.35723	0.75530
4093.000	-1.80441	0.97822	-2.38092	0.77914
4094.000	-1.94067	0.96821	-2.37894	0.71554
4095.000	-1.92685	1.03580	-2.37697	0.62611
4096.000	-1.91303	0.95431	-2.31776	0.79309
4097.000	-1.89130	1.08750	-2.40855	0.69367
4098.000	-1.91895	1.00797	-2.41841	0.81489
4099.000	-1.76095	0.97626	-2.49538	0.72343
4100.000	-1.92290	0.91455	-2.38092	0.70362
4101.000	-1.96832	1.14310	-2.33750	0.76128
4102.000	-1.92685	1.04971	-2.34342	0.76525
4103.000	-1.89130	0.91258	-2.26841	0.78516
4104.000	-1.90315	0.99208	-2.40460	0.71155
4105.000	-1.87551	0.99607	-2.36908	0.70561
4106.000	-1.93278	1.17294	-2.38092	0.91229
4107.000	-1.94265	0.93640	-2.41052	0.84470
4108.000	-1.88933	0.93643	-2.31579	0.81296
4109.000	-1.86168	0.98018	-2.37894	0.75330
4110.000	-1.88933	1.01793	-2.39276	0.79702
4111.000	-1.93278	0.92647	-2.34144	0.76525
4112.000	-1.89723	0.98612	-2.35329	0.72152
4113.000	-1.83206	0.97622	-2.36315	0.87851
4114.000	-1.90315	1.05966	-2.37894	0.80299
4115.000	-1.81428	1.01201	-2.38684	0.90632
4116.000	-1.90315	0.93841	-2.34737	0.74537
4117.000	-1.90710	0.88673	-2.36513	0.80498
4118.000	-1.96240	0.92645	-2.34539	0.82884
4119.000	-1.94265	0.71972	-2.36710	0.80498
4120.000	-2.02163	0.92046	-2.42631	0.73340
4121.000	-1.88538	0.98414	-2.36118	0.84672
4122.000	-1.99202	0.88469	-2.34342	0.73345
4123.000	-1.90118	0.94040	-2.35723	0.76921
4124.000	-1.83996	0.96628	-2.35526	0.61419
4125.000	-1.89130	0.95233	-2.47367	0.73139
4126.000	-1.91895	0.80323	-2.30197	0.82887
4127.000	-1.97622	0.91253	-2.40460	0.81092
4128.000	-1.95055	0.85689	-2.39276	0.85465
4129.000	-1.87946	0.90463	-2.30592	0.73744
4130.000	-1.92093	0.87280	-2.35723	0.75530
4131.000	-1.89525	0.91854	-2.43815	0.86257
4132.000	-1.87353	1.03583	-2.48354	0.74331
4133.000	-1.92883	1.03182	-2.36118	0.74536
4134.000	-1.93080	0.99207	-2.37697	0.79504
4135.000	-1.91500	1.10140	-2.41644	0.76123
4136.000	-1.83403	0.96230	-2.40460	0.81688
4137.000	-1.94462	0.84496	-2.40657	0.71950
4138.000	-1.93080	0.92647	-2.50722	0.81682
4139.000	-1.93870	0.90261	-2.42236	0.83674
4140.000	-1.87551	0.98017	-2.37105	0.76324
4141.000	-1.97424	0.86085	-2.38486	0.77119
4142.000	-1.99991	0.97811	-2.29605	0.79310
4143.000	-1.93870	0.98014	-2.31776	0.76526
4144.000	-1.84193	0.85296	-2.40065	0.78111
4145.000	-1.87353	0.98812	-2.41644	0.81688
4146.000	-1.88933	1.05371	-2.41644	0.82880
4147.000	-1.93080	0.93840	-2.44012	0.80693
4148.000	-1.87946	0.90662	-2.50327	0.88637
4149.000	-1.87551	0.93445	-2.34144	0.75531
4150.000	-1.91500	0.90461	-2.50722	0.78105
4151.000	-1.96832	0.95428	-2.43223	0.92417
4152.000	-1.92883	0.93442	-2.39276	0.77913
4153.000	-1.95450	1.04572	-2.49340	0.82875
4154.000	-1.90118	0.83902	-2.43420	0.85860
4155.000	-1.92093	0.98611	-2.41052	0.80496
4156.000	-1.95055	0.96820	-2.38289	0.85664
4157.000	-1.96832	0.93639	-2.40263	0.81092
4158.000	-1.96832	0.83501	-2.49143	0.79895
4159.000	-1.93080	0.96424	-2.42433	0.66981
4160.000	-1.87551	0.93445	-2.34934	0.85070
4161.000	-1.90118	1.00600	-2.46380	0.78704
4162.000	-1.90513	0.96425	-2.47564	0.74133
4163.000	-1.89920	0.93444	-2.37302	0.76523
4164.000	-1.91303	0.87877	-2.38881	0.85664
4165.000	-1.92883	0.95231	-2.50130	0.80888
4166.000	-1.84391	0.86688	-2.43618	0.83674
4167.000	-1.87156	0.97421	-2.40855	0.86855
4168.000	-1.76095	1.02794	-2.48946	0.86055
4169.000	-1.84193	0.85296	-2.39473	0.67380
4170.000	-1.91105	0.93443	-2.37302	0.80299
4171.000	-1.92290	0.92449	-2.42039	0.90232
4172.000	-1.83996	0.93049	-2.38092	0.79305
4173.000	-1.80836	0.99214	-2.34737	0.74338
4174.000	-1.96635	0.93241	-2.43025	0.78507
4175.000	-1.86563	0.97024	-2.36315	0.87057
4176.000	-1.83403	0.90863	-2.41841	0.87450
4177.000	-1.85378	0.90663	-2.47959	0.86055
4178.000	-1.90315	0.88474	-2.40065	0.78509
4179.000	-1.82613	0.95038	-2.44802	0.70954
4180.000	-1.74318	0.96036	-2.41841	0.79104
4181.000	-1.84193	1.03784	-2.37697	0.71952
4182.000	-1.77083	0.93848	-2.36710	0.79902
4183.000	-1.80441	1.00406	-2.38881	0.73740
4184.000	-1.83996	0.95832	-2.36908	0.66586
4185.000	-1.86761	0.83904	-2.45986	0.75326
4186.000	-1.85971	0.95036	-2.43223	0.81488
4187.000	-1.74910	0.89873	-2.45394	0.65787
4188.000	-1.85773	0.86488	-2.37500	0.73741
4189.000	-1.82613	1.03785	-2.38684	0.73939
4190.000	-1.84786	0.88874	-2.53681	0.73136
4191.000	-1.84786	0.89868	-2.44999	0.80692
4192.000	-1.87946	0.89668	-2.40855	0.75726
4193.000	-1.91303	0.97021	-2.36315	0.64201
4194.000	-1.88933	0.93246	-2.35526	0.75530
4195.000	-1.80441	0.94244	-2.40263	0.69764
4196.000	-1.81823	0.99809	-2.43815	0.79302
4197.000	-1.77478	0.89872	-2.36710	0.84075
4198.000	-1.91500	1.00003	-2.44210	0.70955
4199.000	-1.80638	0.95238	-2.48156	0.75126
4200.000	-1.89723	1.05967	-2.45788	0.64396
4201.000	-1.85971	1.02192	-2.39276	0.74733
4202.000	-1.88143	0.80722	-2.38289	0.79901
4203.000	-1.92488	0.90461	-2.42631	0.76719
4204.000	-1.89525	0.95034	-2.47170	0.71351
4205.000	-1.84193	0.97621	-2.42236	0.71751
4206.000	-1.90118	0.95034	-2.39473	0.85862
4207.000	-1.81231	0.91461	-2.47170	0.75126
4208.000	-1.97424	1.00397	-2.46380	0.74729
4209.000	-1.85378	0.79531	-2.33552	0.74736
4210.000	-1.92290	0.92846	-2.35921	0.80697
4211.000	-1.88143	1.02191	-2.43420	0.73340
4212.000	-1.95647	0.84694	-2.41249	0.83675
4213.000	-1.89130	0.83704	-2.34934	0.81095
4214.000	-1.93080	1.02983	-2.45394	0.79499
4215.000	-1.82416	0.96430	-2.43025	0.82680
4216.000	-1.86168	1.00801	-2.35723	0.81890
4217.000	-1.86563	1.07559	-2.46183	0.73338
4218.000	-1.89130	1.05371	-2.41841	0.74931
4219.000	-1.78663	0.86293	-2.37500	0.71753
4220.000	-1.95845	0.84496	-2.44999	0.78307
4221.000	-1.87946	0.84897	-2.43420	0.85462
4222.000	-1.93475	0.92647	-2.40657	0.76124
4223.000	-1.85773	0.87482	-2.34737	0.74736
4224.000	-1.87946	0.95035	-2.49538	0.66977
4225.000	-1.95252	0.89465	-2.43815	0.71750
4226.000	-1.91105	0.87281	-2.46775	0.79896
4227.000	-1.85971	0.80127	-2.36513	0.73542
4228.000	-1.87551	0.92451	-2.33158	0.72550
4229.000	-1.91105	0.93841	-2.44407	0.62608
4230.000	-1.98017	0.90657	-2.44604	0.77910
4231.000	-1.97227	0.85688	-2.37105	0.74735
4232.000	-1.90118	0.84697	-2.43223	0.69564
4233.000	-1.86168	0.87880	-2.41841	0.71552
4234.000	-1.91500	0.81317	-2.37697	0.76722
4235.000	-1.97227	0.93639	-2.46775	0.81883
4236.000	-1.98807	0.90855	-2.39078	0.79304
4237.000	-1.98214	0.79525	-2.44604	0.83276
4238.000	-2.02953	0.84691	-2.39276	0.79702
4239.000	-1.94462	1.03380	-2.47564	0.73934
4240.000	-1.92883	0.81316	-2.39276	0.72547
4241.000	-1.94462	0.82508	-2.40263	0.84471
4242.000	-1.95845	0.83899	-2.51116	0.69361
4243.000	-1.86563	0.99409	-2.39078	0.81093
4244.000	-1.92883	0.96225	-2.47367	0.68171
4245.000	-1.97227	0.79923	-2.41841	0.73540
4246.000	-1.95450	0.83502	-2.54471	0.74725
4247.000	-2.00979	0.94233	-2.42631	0.83078
4248.000	-2.00189	0.82108	-2.42631	0.76918
4249.000	-1.96240	0.89067	-2.49932	0.82676
4250.000	-1.99004	0.75747	-2.42631	0.65192
4251.000	-1.96240	0.92248	-2.45591	0.72544
4252.000	-1.94462	0.81514	-2.46578	0.70556
4253.000	-2.01374	0.67795	-2.46380	0.77710
4254.000	-1.99794	0.67597	-2.50919	0.77310
4255.000	-1.89525	0.77342	-2.47170	0.77312
4256.000	-1.98017	0.61037	-2.48551	0.82677
4257.000	-2.02953	0.75746	-2.46183	0.67377
4258.000	-2.03348	0.67396	-2.39671	0.76323
4259.000	-1.96240	0.72170	-2.50327	0.77112
4260.000	-1.92290	0.94834	-2.48748	0.82478
4261.000	-2.02361	0.67596	-2.53681	0.75123
4262.000	-1.97819	0.84693	-2.47564	0.80094
4263.000	-2.12036	0.82499	-2.44999	0.79301
4264.000	-1.92290	0.78534	-2.45788	0.76121
4265.000	-1.90315	0.81516	-2.51511	0.80092
4266.000	-1.89130	0.65016	-2.52497	0.78303
4267.000	-1.89525	0.71179	-2.46380	0.77512
4268.000	-1.96042	0.81116	-2.36118	0.75331
4269.000	-1.99202	0.80319	-2.46183	0.73338
4270.000	-1.97819	0.69983	-2.48748	0.74132
4271.000	-1.99202	0.79922	-2.52892	0.75918
4272.000	-1.99004	0.77735	-2.54865	0.74327
4273.000	-1.88341	0.64221	-2.49735	0.81683
4274.000	-2.02756	0.62427	-2.38486	0.90831
4275.000	-1.96832	0.71574	-2.46578	0.88441
4276.000	-2.04335	0.77335	-2.59008	0.80087
4277.000	-2.00386	0.69584	-2.53681	0.80289
4278.000	-1.95252	0.69984	-2.45394	0.84865
4279.000	-1.94462	0.80520	-2.44210	0.77712
4280.000	-1.92488	0.68395	-2.44407	0.82083
4281.000	-1.95450	0.78333	-2.51905	0.93405
4282.000	-1.95647	0.73761	-2.54273	0.79891
4283.000	-1.98017	0.64615	-2.49735	0.87048
4284.000	-1.92093	0.67202	-2.58811	0.73530
4285.000	-1.95845	0.69586	-2.49735	0.84663
4286.000	-2.03743	0.74751	-2.49735	0.83471
4287.000	-1.96240	0.79526	-2.44802	0.70358
4288.000	-1.85181	0.79332	-2.40460	0.71553
4289.000	-1.80441	0.80925	-2.55062	0.86846
4290.000	-1.96042	0.65411	-2.63546	0.81873
4291.000	-1.95647	0.91254	-2.43618	0.77513
4292.000	-1.92685	0.77539	-2.49932	0.81683
4293.000	-1.97819	0.67200	-2.59995	0.85451
4294.000	-1.86563	0.73168	-2.52497	0.99564
4295.000	-1.93870	0.69587	-2.57825	1.14063
4296.000	-1.85576	0.80525	-2.54076	0.90025
4297.000	-2.02756	0.73559	-2.50919	0.83669
4298.000	-1.97622	0.86085	-2.54865	0.90224
4299.000	-1.92488	0.78533	-2.49143	0.80491
4300.000	-1.90118	0.78535	-2.51313	0.90226
4301.000	-2.08284	0.79122	-2.47959	0.97382
4302.000	-1.96437	0.88670	-2.47762	0.98773
4303.000	-1.91500	0.81118	-2.54471	0.84462
4304.000	-1.96240	0.83700	-2.54273	0.85257
4305.000	-2.01374	0.91052	-2.56444	0.96382
4306.000	-1.98412	0.85886	-2.64533	0.95978
4307.000	-1.88341	0.88276	-2.50919	0.94796
4308.000	-1.94660	0.85888	-2.50722	0.95989
4309.000	-1.94857	0.83105	-2.45196	0.99570
4310.000	-2.03151	0.73956	-2.59995	0.84855
4311.000	-1.94067	0.82707	-2.60390	0.93399
4312.000	-1.94660	0.90658	-2.48748	0.94599
4313.000	-1.96635	0.92844	-2.52695	0.88834
4314.000	-1.93672	0.85093	-2.45986	1.03145
4315.000	-2.03743	0.78727	-2.55457	0.96581
4316.000	-1.86761	0.92849	-2.44999	1.00364
4317.000	-2.04928	0.78329	-2.44999	0.88045
4318.000	-1.93475	0.85689	-2.52300	0.92809
4319.000	-2.01176	0.90854	-2.46972	0.92017
4320.000	-1.81823	0.81322	-2.51116	0.96386
4321.000	-1.90315	0.77739	-2.51511	0.81682
4322.000	-1.91500	0.81317	-2.52695	1.00359
4323.000	-1.90315	0.84896	-2.54668	0.91615
4324.000	-1.90710	0.91654	-2.54273	1.02940
4325.000	-1.94857	0.82906	-2.61179	0.91411
4326.000	-2.01571	0.98407	-2.46578	0.91620
4327.000	-1.86761	0.94837	-2.55654	0.86249
4328.000	-1.92290	0.94039	-2.57233	0.85255
4329.000	-1.96240	0.92645	-2.53287	0.88238
4330.000	-1.94462	0.96224	-2.54273	0.91019
4331.000	-1.94660	0.78532	-2.51708	0.87643
4332.000	-1.99597	0.87873	-2.47762	0.76716
4333.000	-2.00781	0.82903	-2.49340	0.88042
4334.000	-1.99991	0.93438	-2.45394	0.86455
4335.000	-1.95252	0.91254	-2.44999	0.88839
4336.000	-1.96437	0.88272	-2.57430	0.90619
4337.000	-1.87156	0.92054	-2.52300	0.79694
4338.000	-1.97029	0.94831	-2.52497	0.96385
4339.000	-1.91698	0.95232	-2.56838	0.91216
4340.000	-1.92883	0.94237	-2.56246	0.87044
4341.000	-2.01374	0.84095	-2.47564	0.84665
4342.000	-2.01374	0.90853	-2.50327	0.88041
4343.000	-2.04138	0.80913	-2.54471	0.90224
4344.000	-1.88341	0.79331	-2.59008	0.83465
4345.000	-1.99597	0.83699	-2.55654	0.87044
4346.000	-1.91895	0.79329	-2.49538	0.96784
4347.000	-1.94265	0.71972	-2.59008	0.79690
4348.000	-1.92290	0.88473	-2.58219	0.74524
4349.000	-1.88538	0.76945	-2.56444	0.85851
4350.000	-1.95055	0.92248	-2.53484	0.80289
4351.000	-1.86563	0.91259	-2.54865	0.85654
4352.000	-1.93672	0.82906	-2.53879	0.82475
4353.000	-2.01571	0.97810	-2.50524	0.85855
4354.000	-1.90710	0.92251	-2.55260	0.95588
4355.000	-2.01176	0.97810	-2.59008	0.85651
4356.000	-1.80836	1.01997	-2.61179	0.90219
4357.000	-2.02163	0.96021	-2.57627	0.81280
4358.000	-2.06310	0.84291	-2.55457	0.90819
4359.000	-1.86958	0.88078	-2.51511	0.90822
4360.000	-1.98214	0.95427	-2.59600	0.84458
4361.000	-1.90710	0.88673	-2.47367	0.78306
4362.000	-1.83206	0.92652	-2.59403	0.90618
4363.000	-1.89723	0.96227	-2.51313	0.89829
4364.000	-1.84391	0.98615	-2.54668	0.80686
4365.000	-1.95450	0.76544	-2.72818	0.75509
4366.000	-1.94067	0.87279	-2.51511	0.75323
4367.000	-1.82416	0.92056	-2.61968	0.81476
4368.000	-1.85773	0.92651	-2.62165	0.84258
4369.000	-1.88538	1.03582	-2.60390	0.83464
4370.000	-1.89525	1.09743	-2.51708	0.83271
4371.000	-1.91105	0.95630	-2.56246	0.90620
4372.000	-1.96042	0.92248	-2.55852	0.84063
4373.000	-1.92290	0.94436	-2.60784	0.90617
4374.000	-1.93278	1.00002	-2.61968	0.85649
4375.000	-1.94660	0.92845	-2.49932	0.78304
4376.000	-1.96240	0.94633	-2.56838	0.88633
4377.000	-1.92093	0.95629	-2.53089	0.73931
4378.000	-1.98807	0.99004	-2.53287	0.92410
4379.000	-1.93475	0.99604	-2.52497	0.88040
4380.000	-1.93870	1.07157	-2.57825	0.78498
4381.000	-1.87353	1.03981	-2.58811	0.82670
4382.000	-1.87946	0.89668	-2.66111	0.79487
4383.000	-1.93475	0.93243	-2.72620	0.95177
4384.000	-1.94857	0.96622	-2.66900	0.98758
4385.000	-1.97227	0.93241	-2.61179	0.87438
4386.000	-1.98412	1.13116	-2.56444	0.93998
4387.000	-1.97227	0.86880	-2.45788	1.02351
4388.000	-1.93870	1.05169	-2.38486	0.89241
4389.000	-1.85773	0.95633	-2.21512	1.00977
4390.000	-1.81626	0.97623	-2.19340	0.91241
4391.000	-1.66022	0.95444	-1.98214	1.11129
4392.000	-1.65824	0.91070	-1.70762	0.95442
4393.000	-1.47254	0.79347	-1.51798	1.00421
4394.000	-1.14256	0.78761	-1.32238	1.07985
4395.000	-1.20184	0.71998	-1.13268	1.09186
4396.000	-0.93899	0.65242	-0.74726	1.10987
4397.000	-0.68006	0.57091	-0.56540	1.06020
4398.000	-0.67017	0.40979	-0.27480	1.04632
4399.000	-0.40528	0.37002	-0.14827	1.08013
4400.000	-0.12455	0.47148	0.01186	0.95882
4401.000	-0.04943	0.29841	0.07710	0.79572
4402.000	0.09292	0.28449	0.24910	0.78179
4403.000	0.15618	0.29045	0.30248	0.76787
4404.000	0.25701	0.35013	0.29852	0.56497
4405.000	0.20956	0.40981	0.24317	0.66046
4406.000	0.19572	0.24669	0.25305	0.51326
4407.000	0.30050	0.28647	0.19572	0.32825
4408.000	0.28073	0.25066	0.03163	0.41380
4409.000	0.13246	0.30438	0.00989	0.31234
4410.000	0.25899	0.28846	-0.03756	0.33621
4411.000	0.05536	0.20690	-0.16211	0.32029
4412.000	0.01779	0.22878	-0.22735	0.27056
4413.000	-0.05733	0.15915	-0.22340	0.28250
4414.000	0.13246	0.28449	-0.28073	0.34217
4415.000	0.01779	0.22083	-0.40528	0.24668
4416.000	-0.01384	0.15717	-0.38156	0.44164
4417.000	-0.08897	0.16910	-0.35586	0.29841
4418.000	0.02372	0.22878	-0.31236	0.36207
4419.000	-0.06129	0.24271	-0.36574	0.38395
4420.000	0.02570	0.26459	-0.26689	0.25663
