time (ms)	lx (deg)	ly (deg)	rx (deg)	ry (deg)
0.000	1.97227	12.20100	-4.62992	16.59133
1.000	1.75305	11.82391	-4.31553	16.11039
2.000	1.68392	11.28796	-4.02841	15.62021
3.000	1.57725	10.88062	-3.78637	15.16690
4.000	1.43500	10.49531	-3.55010	14.70731
5.000	1.31843	10.15894	-3.40237	14.36340
6.000	1.23939	9.82745	-3.16000	13.80050
7.000	1.13860	9.36563	-2.98455	13.54571
8.000	1.02595	9.07915	-2.85441	13.16728
9.000	0.82040	8.84481	-2.65322	12.75800
10.000	0.84610	8.47731	-2.52497	12.39764
11.000	0.66820	8.09001	-2.27236	12.10562
12.000	0.57529	7.76425	-2.23288	11.64714
13.000	0.55947	7.49653	-2.15984	11.20458
14.000	0.34993	7.21497	-1.96240	10.89183
15.000	0.39737	6.94653	-1.99202	10.44234
16.000	0.30643	6.53850	-1.86761	10.22756
17.000	0.14432	6.25959	-1.86366	9.80337
18.000	0.15025	5.98817	-1.68392	9.46218
19.000	0.12060	5.69876	-1.50020	9.11630
20.000	0.07908	5.51552	-1.53576	8.73963
21.000	0.04349	5.17434	-1.43105	8.35301
22.000	-0.03756	4.81896	-1.34016	8.06107
23.000	-0.18781	4.59762	-1.28681	7.81346
24.000	-0.07710	4.38607	-1.17418	7.42689
25.000	-0.29852	4.13476	-1.11884	7.14717
26.000	-0.20165	3.88337	-1.07734	6.70231
27.000	-0.31829	3.74667	-0.95678	6.39826
28.000	-0.30248	3.40781	-0.88365	6.00716
29.000	-0.47249	3.24318	-0.87772	5.54444
30.000	-0.35388	3.00124	-0.95480	5.38663
31.000	-0.51796	2.70550	-0.72947	4.99432
32.000	-0.54761	2.58440	-0.74726	4.65654
33.000	-0.48633	2.48912	-0.78087	4.41336
34.000	-0.53180	2.23092	-0.70773	4.13846
35.000	-0.58715	1.97065	-0.71564	3.85339
36.000	-0.58320	1.80969	-0.61878	3.47704
37.000	-0.65436	1.52345	-0.57331	3.25305
38.000	-0.65634	1.26102	-0.60296	2.90590
39.000	-0.72947	1.25304	-0.47842	2.73132
40.000	-0.72750	1.10789	-0.53575	2.30441
41.000	-0.74331	1.02635	-0.51401	2.23093
42.000	-0.79075	0.83940	-0.51401	1.96074
43.000	-0.93306	0.78170	-0.55157	1.69244
44.000	-0.78680	0.75985	-0.62866	1.61092
45.000	-0.89353	0.61265	-0.53575	1.45589
46.000	-0.85005	0.57486	-0.47842	1.13379
47.000	-0.83226	0.56890	-0.42307	0.88520
48.000	-0.91330	0.56690	-0.53773	0.86132
49.000	-0.94295	0.52115	-0.45075	0.59082
50.000	-0.86981	0.68028	-0.58320	0.47942
51.000	-0.90737	0.62657	-0.45668	0.18302
52.000	-0.84214	0.75387	-0.60296	0.21485
53.000	-0.90737	0.67231	-0.41319	-0.07958
54.000	-0.92516	0.77374	-0.54366	-0.10941
55.000	-0.93504	0.77175	-0.51401	-0.10941
56.000	-0.85400	0.73398	-0.41319	-0.34416
57.000	-0.93306	0.75186	-0.54564	-0.38593
58.000	-0.90342	0.89705	-0.48040	-0.54905
59.000	-0.90737	0.68027	-0.66029	-0.44758
60.000	-0.81842	0.66835	-0.52389	-0.61866
61.000	-0.80854	0.76979	-0.54761	-0.71812
62.000	-0.75122	0.70814	-0.59308	-0.55302
63.000	-0.76703	0.82350	-0.47249	-0.69426
64.000	-0.85203	0.68824	-0.56343	-0.69822
65.000	-0.84807	0.72603	-0.56540	-0.60474
66.000	-0.94887	0.75982	-0.64645	-0.53511
67.000	-0.84412	0.73597	-0.55354	-0.65049
68.000	-0.87574	0.61265	-0.58320	-0.50329
69.000	-0.80261	0.72405	-0.54959	-0.54109
70.000	-0.84807	0.65045	-0.61878	-0.39985
71.000	-0.88760	0.65044	-0.58320	-0.32625
72.000	-0.85400	0.56094	-0.60494	-0.29442
73.000	-0.94295	0.61065	-0.54959	-0.18899
74.000	-0.84017	0.53509	-0.59901	-0.16114
75.000	-0.93109	0.52911	-0.61680	0.04973
76.000	-0.87772	0.58282	-0.63262	0.19694
77.000	-0.82831	0.57089	-0.58517	0.02387
78.000	-0.91923	0.52314	-0.71366	0.24866
79.000	-0.96666	0.40578	-0.60889	0.18501
80.000	-0.92713	0.48734	-0.64250	0.31033
81.000	-0.93702	0.56292	-0.64448	0.37001
82.000	-0.90737	0.53706	-0.65831	0.40183
83.000	-0.98247	0.45749	-0.62668	0.29243
84.000	-0.96073	0.50722	-0.61285	0.32823
85.000	-0.96271	0.43959	-0.62075	0.27253
86.000	-0.99038	0.47340	-0.66424	0.38393
87.000	-1.00026	0.49727	-0.64052	0.27850
88.000	-1.08722	0.39781	-0.60889	0.26458
89.000	-1.02991	0.63649	-0.62075	0.32624
90.000	-1.07734	0.37593	-0.66820	0.31828
91.000	-1.00817	0.48732	-0.68006	0.32226
92.000	-1.15441	0.43957	-0.59110	0.32625
93.000	-1.04572	0.44157	-0.65436	0.27054
94.000	-1.09513	0.42963	-0.63459	0.18103
95.000	-1.01014	0.46545	-0.61878	0.24866
96.000	-1.07932	0.49129	-0.71168	0.34215
97.000	-1.01410	0.42964	-0.59703	0.27453
98.000	-1.08129	0.46941	-0.57924	0.16313
99.000	-1.01014	0.43760	-0.59506	0.31829
100.000	-1.05560	0.54699	-0.70773	0.30834
101.000	-1.04374	0.44754	-0.66820	0.24866
102.000	-1.05362	0.45748	-0.73343	0.27850
103.000	-1.05758	0.54897	-0.70575	0.23871
104.000	-1.00421	0.47937	-0.68006	0.32226
105.000	-1.04572	0.51715	-0.70971	0.23076
106.000	-1.10698	0.57283	-0.61482	0.33818
107.000	-1.07734	0.57682	-0.68006	0.31629
108.000	-1.07536	0.57682	-0.68006	0.39189
109.000	-1.08129	0.61261	-0.64250	0.28248
110.000	-1.09710	0.56090	-0.66622	0.29441
111.000	-1.01410	0.51915	-0.68401	0.36801
112.000	-1.09710	0.48333	-0.66227	0.32027
113.000	-1.10106	0.50521	-0.63657	0.25861
114.000	-1.17813	0.51713	-0.65041	0.23076
115.000	-1.04374	0.49925	-0.71761	0.38393
116.000	-1.03386	0.55892	-0.56738	0.27055
117.000	-0.97457	0.48932	-0.59901	0.30834
118.000	-0.99433	0.48335	-0.66820	0.34812
119.000	-0.99038	0.55694	-0.66820	0.28845
120.000	-1.02991	0.57086	-0.54168	0.31034
121.000	-1.02793	0.52511	-0.65436	0.39984
122.000	-1.02003	0.52710	-0.64052	0.18898
123.000	-0.95283	0.52313	-0.64250	0.31630
124.000	-1.04967	0.59472	-0.64645	0.24866
125.000	-0.94690	0.53706	-0.56343	0.18501
126.000	-1.03386	0.53506	-0.64052	0.20689
127.000	-1.02793	0.51716	-0.57529	0.20092
128.000	-1.09513	0.51516	-0.61680	0.15517
129.000	-1.09908	0.61858	-0.66029	0.26458
130.000	-1.23346	0.56684	-0.59308	0.23872
131.000	-1.09908	0.56886	-0.58913	0.17506
132.000	-1.13268	0.52112	-0.64448	0.07559
133.000	-1.12477	0.49725	-0.62471	0.11339
134.000	-1.05560	0.53903	-0.64250	0.05570
135.000	-1.08327	0.52311	-0.63459	0.16511
136.000	-1.05758	0.54500	-0.68401	0.15119
137.000	-1.08722	0.57880	-0.60889	0.12533
138.000	-1.05560	0.68024	-0.61680	0.20291
139.000	-1.03386	0.60069	-0.60692	0.12135
140.000	-1.08327	0.52112	-0.66029	0.13527
141.000	-1.06153	0.53505	-0.68401	0.17904
142.000	-1.13268	0.48731	-0.70773	0.11936
143.000	-1.10303	0.59869	-0.62668	0.07162
144.000	-1.18801	0.56884	-0.65041	0.01790
145.000	-1.08722	0.66233	-0.76308	0.15118
146.000	-1.22753	0.56485	-0.68401	0.14721
147.000	-1.18603	0.55889	-0.71564	0.09946
148.000	-1.06548	0.59074	-0.72157	0.23473
149.000	-1.18801	0.59867	-0.65831	0.13328
150.000	-1.16825	0.60464	-0.69389	0.17705
151.000	-1.17418	0.49326	-0.65634	0.19296
152.000	-1.12675	0.56686	-0.67413	0.13726
153.000	-1.14453	0.57680	-0.68401	0.19097
154.000	-1.12872	0.63050	-0.71761	0.17307
155.000	-1.21963	0.56883	-0.63657	0.20490
156.000	-1.23148	0.62054	-0.71168	0.12930
157.000	-1.20777	0.56883	-0.65041	0.21087
158.000	-1.25915	0.68019	-0.72750	0.17307
159.000	-1.29472	0.59268	-0.68203	0.17705
160.000	-1.22753	0.50519	-0.63657	0.09748
161.000	-1.14848	0.55890	-0.66622	0.18898
162.000	-1.29472	0.58075	-0.60692	0.13726
163.000	-1.22160	0.56684	-0.62471	0.12533
164.000	-1.15639	0.57680	-0.71564	0.06167
165.000	-1.14256	0.48333	-0.67017	0.07957
166.000	-1.26508	0.59666	-0.64448	0.06167
167.000	-1.15244	0.61658	-0.61087	0.04973
168.000	-1.18603	0.50520	-0.59703	-0.02387
169.000	-1.17813	0.53304	-0.53971	-0.03581
170.000	-1.17615	0.58873	-0.60889	-0.08355
171.000	-1.27891	0.45944	-0.62075	0.04973
172.000	-1.22753	0.50121	-0.55354	0.01989
173.000	-1.17022	0.64044	-0.63064	0.04774
174.000	-1.21172	0.60463	-0.57331	0.09350
175.000	-1.25915	0.52905	-0.75122	0.00398
176.000	-1.17220	0.48730	-0.66424	0.05371
177.000	-1.23346	0.51513	-0.59506	-0.12931
178.000	-1.20579	0.51911	-0.62471	0.07162
179.000	-1.25520	0.48529	-0.65238	0.08355
180.000	-1.17813	0.47338	-0.60889	-0.06764
181.000	-1.12082	0.44952	-0.63262	0.09350
182.000	-1.21172	0.48530	-0.63064	0.06963
183.000	-1.13663	0.36399	-0.63855	-0.01194
184.000	-1.16825	0.40774	-0.60692	0.06366
185.000	-1.20184	0.43956	-0.66029	0.13129
186.000	-1.15244	0.33813	-0.65634	0.08952
187.000	-1.10303	0.40179	-0.59506	0.10742
188.000	-1.22160	0.46939	-0.58320	0.05570
189.000	-1.15837	0.23868	-0.55750	0.06366
190.000	-1.17813	0.35603	-0.64250	0.09549
191.000	-1.18801	0.39581	-0.63064	0.11737
192.000	-1.14453	0.35802	-0.65238	0.17307
193.000	-1.16627	0.40973	-0.60889	0.08355
194.000	-1.13860	0.30034	-0.63855	0.09947
195.000	-1.17615	0.37393	-0.63262	-0.00398
196.000	-1.22951	0.32619	-0.65238	0.09947
197.000	-1.09315	0.33217	-0.66622	0.12334
198.000	-1.17418	0.39979	-0.67017	0.12135
199.000	-1.27100	0.38585	-0.60889	-0.01393
200.000	-1.14651	0.37393	-0.58913	0.04178
201.000	-1.19591	0.31625	-0.69192	0.08554
202.000	-1.22951	0.28243	-0.63855	0.07758
203.000	-1.36783	0.29833	-0.64052	0.02785
204.000	-1.19196	0.36199	-0.63064	0.04575
205.000	-1.16627	0.24465	-0.63657	0.01790
206.000	-1.17615	0.26852	-0.64250	0.02188
207.000	-1.17418	0.28244	-0.61680	0.04973
208.000	-1.24334	0.31028	-0.66227	0.04575
209.000	-1.09513	0.22476	-0.70378	0.03183
210.000	-1.13860	0.26852	-0.66820	0.13527
211.000	-1.14058	0.30034	-0.64448	0.07360
212.000	-1.22555	0.24464	-0.65634	-0.01393
213.000	-1.19789	0.27050	-0.64448	0.08554
214.000	-1.15639	0.32620	-0.60692	-0.07162
215.000	-1.24532	0.36596	-0.58913	0.10543
216.000	-1.18406	0.34211	-0.71959	0.00597
217.000	-1.19591	0.33216	-0.69982	-0.03581
218.000	-1.16429	0.23073	-0.58122	0.01393
219.000	-1.25322	0.38983	-0.59506	0.03979
220.000	-1.25322	0.35602	-0.54761	-0.00199
221.000	-1.22753	0.27448	-0.70575	-0.12731
222.000	-1.25915	0.28641	-0.54564	-0.09947
223.000	-1.24334	0.27249	-0.65041	-0.02984
224.000	-1.24729	0.29436	-0.63262	-0.02785
225.000	-1.26705	0.28044	-0.61680	-0.06963
226.000	-1.20777	0.34011	-0.53378	-0.07957
227.000	-1.18406	0.32619	-0.57529	-0.04377
228.000	-1.31448	0.35203	-0.51005	-0.15119
229.000	-1.26508	0.43159	-0.60099	0.01591
230.000	-1.25322	0.41569	-0.57727	0.00199
231.000	-1.21172	0.50718	-0.64250	-0.02188
232.000	-1.22753	0.41967	-0.60099	-0.09549
233.000	-1.17813	0.34012	-0.56145	-0.10146
234.000	-1.16232	0.38785	-0.60494	-0.07758
235.000	-1.23544	0.43359	-0.72157	0.02387
236.000	-1.38363	0.44351	-0.59506	-0.09748
237.000	-1.15441	0.42962	-0.61285	-0.00995
238.000	-1.18998	0.41967	-0.58517	-0.02984
239.000	-1.16232	0.41172	-0.55354	-0.00995
240.000	-1.27100	0.44750	-0.57924	-0.04575
241.000	-1.29472	0.56285	-0.68599	-0.00199
242.000	-1.09908	0.58477	-0.68006	0.06963
243.000	-1.21765	0.54894	-0.63657	0.04973
244.000	-1.15244	0.54697	-0.61285	0.05172
245.000	-1.18801	0.49724	-0.72157	-0.05570
246.000	-1.16429	0.60265	-0.67215	0.02785
247.000	-1.22753	0.48729	-0.70971	0.02586
248.000	-1.27496	0.47734	-0.60296	-0.02188
249.000	-1.16429	0.56884	-0.57727	0.02785
250.000	-1.19394	0.49127	-0.66227	0.08355
251.000	-1.23741	0.38188	-0.66227	0.03183
252.000	-1.23939	0.47535	-0.63064	0.00199
253.000	-1.13268	0.47935	-0.64448	-0.02984
254.000	-1.18406	0.51713	-0.66029	-0.01989
255.000	-1.16627	0.39581	-0.61680	-0.07162
256.000	-1.16429	0.45349	-0.56738	-0.07559
257.000	-1.27693	0.41966	-0.65041	0.06167
258.000	-1.19196	0.38387	-0.58715	-0.04377
259.000	-1.17022	0.35006	-0.61087	-0.04575
260.000	-1.28879	0.41966	-0.59110	0.00995
261.000	-1.24532	0.35801	-0.54564	0.01989
262.000	-1.18603	0.38188	-0.63657	0.04376
263.000	-1.26508	0.34806	-0.68203	0.03183
264.000	-1.21963	0.34807	-0.54761	-0.00199
265.000	-1.28286	0.41966	-0.60494	-0.06366
266.000	-1.23148	0.25857	-0.60692	-0.07162
267.000	-1.22160	0.43359	-0.59308	-0.03382
268.000	-1.20579	0.28641	-0.59110	-0.18899
269.000	-1.20579	0.32818	-0.59703	-0.03979
270.000	-1.19394	0.29238	-0.55354	-0.05570
271.000	-1.26508	0.27050	-0.57133	-0.00199
272.000	-1.20975	0.28442	-0.56145	-0.09947
273.000	-1.25717	0.31624	-0.56145	-0.11140
274.000	-1.23741	0.35801	-0.61680	-0.02387
275.000	-1.26903	0.34011	-0.58320	-0.14522
276.000	-1.22160	0.38785	-0.55947	-0.06366
277.000	-1.21567	0.31625	-0.61878	-0.07559
278.000	-1.27100	0.33414	-0.51401	-0.06764
279.000	-1.21172	0.33415	-0.64448	0.05968
280.000	-1.19196	0.33614	-0.59901	0.00000
281.000	-1.23346	0.38586	-0.50610	-0.03382
282.000	-1.21370	0.31625	-0.59110	-0.01194
283.000	-1.23346	0.28044	-0.57331	-0.10543
284.000	-1.24729	0.39580	-0.60099	-0.03979
285.000	-1.26508	0.40176	-0.62075	-0.09350
286.000	-1.25124	0.32420	-0.56936	-0.08952
287.000	-1.21370	0.35602	-0.49622	-0.03581
288.000	-1.24136	0.29039	-0.55354	0.00796
289.000	-1.33424	0.34805	-0.58913	-0.06764
290.000	-1.32831	0.38385	-0.56540	0.03183
291.000	-1.34807	0.39379	-0.58517	0.00398
292.000	-1.34807	0.48130	-0.49819	-0.13727
293.000	-1.35992	0.36396	-0.41319	0.04775
294.000	-1.28681	0.27248	-0.43493	0.00398
295.000	-1.25520	0.31624	-0.25108	-0.06565
296.000	-1.14453	0.30432	-0.17398	-0.11539
297.000	-1.04572	0.24068	-0.08699	-0.20889
298.000	-1.04769	0.12134	0.01779	-0.18303
299.000	-0.87377	0.21284	0.07513	-0.36804
300.000	-0.78680	0.10344	0.10874	-0.26857
301.000	-0.78482	0.01591	0.07513	-0.50729
302.000	-0.75715	0.01194	0.24119	-0.56697
303.000	-0.65831	0.00000	0.29457	-0.62465
304.000	-0.72947	-0.05371	0.27678	-0.60078
305.000	-0.64843	-0.07957	0.28271	-0.74201
306.000	-0.61680	-0.24866	0.19572	-0.71218
307.000	-0.66227	0.03581	0.36376	-0.67239
308.000	-0.55354	0.02387	0.29852	-0.81560
309.000	-0.66424	-0.05371	0.21154	-0.73406
310.000	-0.66424	0.02188	0.29457	-0.73206
311.000	-0.64645	-0.00199	0.19968	-0.74798
312.000	-0.62075	0.06963	0.28666	-0.76588
313.000	-0.56540	0.02188	0.20758	-0.69427
314.000	-0.64250	0.04178	0.20363	-0.79373
315.000	-0.66227	0.02984	0.18781	-0.82754
316.000	-0.62668	0.06963	0.18584	-0.64455
317.000	-0.53773	0.01591	0.25305	-0.77980
318.000	-0.57133	-0.05570	0.26096	-0.65847
319.000	-0.54761	-0.02586	0.24317	-0.59283
320.000	-0.53575	0.08952	0.20165	-0.73008
321.000	-0.64448	0.14522	0.17991	-0.69627
322.000	-0.51598	-0.02387	0.27085	-0.68433
323.000	-0.64843	0.07162	0.23329	-0.68632
324.000	-0.61087	-0.06167	0.30446	-0.78378
325.000	-0.70378	0.01194	0.22340	-0.60277
326.000	-0.63064	0.13328	0.16804	-0.65250
327.000	-0.62471	0.00000	0.26689	-0.72809
328.000	-0.53378	0.04576	0.20165	-0.58885
329.000	-0.58320	-0.00199	0.24712	-0.54707
330.000	-0.57133	-0.02785	0.20758	-0.68831
331.000	-0.59506	-0.07162	0.15816	-0.61272
332.000	-0.59110	-0.03780	0.17002	-0.59880
333.000	-0.64448	-0.10145	0.23724	-0.58089
334.000	-0.52587	-0.15915	0.31632	-0.47148
335.000	-0.54959	-0.07361	0.17595	-0.55702
336.000	-0.54366	-0.01194	0.26887	-0.66046
337.000	-0.60889	-0.16710	0.29062	-0.60874
338.000	-0.63657	-0.14124	0.38749	-0.53712
339.000	-0.51401	-0.11140	0.22340	-0.54111
340.000	-0.50610	-0.19098	0.24515	-0.59481
341.000	-0.51203	-0.16512	0.20758	-0.64654
342.000	-0.65436	-0.05371	0.27085	-0.60874
343.000	-0.53378	-0.04178	0.23526	-0.55304
344.000	-0.54168	-0.25861	0.31434	-0.53315
345.000	-0.50412	-0.22082	0.29259	-0.53514
346.000	-0.51994	-0.17108	0.33016	-0.58288
347.000	-0.51005	-0.11140	0.24515	-0.54111
348.000	-0.51203	-0.10941	0.33609	-0.57492
349.000	-0.50215	-0.08753	0.31434	-0.63857
350.000	-0.55750	-0.22281	0.27282	-0.49734
351.000	-0.50215	-0.19496	0.32620	-0.60873
352.000	-0.50610	-0.28647	0.31632	-0.58288
353.000	-0.61878	-0.23872	0.24119	-0.65449
354.000	-0.59703	-0.20888	0.21549	-0.61869
355.000	-0.55947	-0.14522	0.28073	-0.58885
356.000	-0.61680	-0.16710	0.27678	-0.49734
357.000	-0.54168	-0.28447	0.31434	-0.40981
358.000	-0.56145	-0.19297	0.38353	-0.55502
359.000	-0.54366	-0.21286	0.31434	-0.55901
360.000	-0.54761	-0.09748	0.32422	-0.54110
361.000	-0.55157	-0.25861	0.24515	-0.63858
362.000	-0.66029	-0.18699	0.31632	-0.67239
363.000	-0.63262	-0.17307	0.35586	-0.51325
364.000	-0.61482	-0.23872	0.32027	-0.54906
365.000	-0.61680	-0.15318	0.28666	-0.53911
366.000	-0.56936	-0.17506	0.23329	-0.55304
367.000	-0.61087	-0.18103	0.29852	-0.53911
368.000	-0.56145	-0.17307	0.26887	-0.54110
369.000	-0.64448	-0.18103	0.30050	-0.54707
370.000	-0.67017	-0.23474	0.26096	-0.59879
371.000	-0.54564	-0.18700	0.32422	-0.56099
372.000	-0.67610	-0.21882	0.33411	-0.70421
373.000	-0.65041	-0.16710	0.36969	-0.64454
374.000	-0.61680	-0.10543	0.38749	-0.54707
375.000	-0.56145	-0.07361	0.31039	-0.61470
376.000	-0.66029	-0.19893	0.31434	-0.53315
377.000	-0.74726	-0.13925	0.33806	-0.61669
378.000	-0.69389	-0.25463	0.35783	-0.59282
379.000	-0.68599	-0.25463	0.26294	-0.48342
380.000	-0.63459	-0.16312	0.33411	-0.50132
381.000	-0.60099	-0.22678	0.34004	-0.55304
382.000	-0.56145	-0.24867	0.33609	-0.61072
383.000	-0.65041	-0.24269	0.19375	-0.50729
384.000	-0.67413	-0.16312	0.40133	-0.54508
385.000	-0.60494	-0.06764	0.26096	-0.60078
386.000	-0.48238	-0.13130	0.26887	-0.49933
387.000	-0.69785	-0.25065	0.25503	-0.48143
388.000	-0.57924	-0.18899	0.27678	-0.53713
389.000	-0.61285	-0.29442	0.22735	-0.53912
390.000	-0.59901	-0.28049	0.38156	-0.54309
391.000	-0.59308	-0.22877	0.38156	-0.48739
392.000	-0.59703	-0.18302	0.37563	-0.60873
393.000	-0.60099	-0.19893	0.34399	-0.55105
394.000	-0.59110	-0.18899	0.34004	-0.56298
395.000	-0.72552	-0.24667	0.35586	-0.60277
396.000	-0.60692	-0.31431	0.27282	-0.61868
397.000	-0.66227	-0.11737	0.38946	-0.61868
398.000	-0.71959	-0.15317	0.42307	-0.58287
399.000	-0.62866	-0.08554	0.32225	-0.61669
400.000	-0.69587	-0.23473	0.34795	-0.53115
401.000	-0.68006	-0.20092	0.34202	-0.49535
402.000	-0.69785	-0.14920	0.33411	-0.53911
403.000	-0.62668	-0.25264	0.35981	-0.53712
404.000	-0.67017	-0.16909	0.29655	-0.62863
405.000	-0.65634	-0.17307	0.31236	-0.54707
406.000	-0.69587	-0.15119	0.34004	-0.64255
407.000	-0.63855	-0.28447	0.21945	-0.42772
408.000	-0.64645	-0.17904	0.45865	-0.53115
409.000	-0.66424	-0.24070	0.31039	-0.54508
410.000	-0.72354	-0.12135	0.25305	-0.52320
411.000	-0.73540	-0.14522	0.32225	-0.57691
412.000	-0.61285	-0.19893	0.38749	-0.65050
413.000	-0.75122	-0.17108	0.37563	-0.58884
414.000	-0.73145	-0.18102	0.29457	-0.59481
415.000	-0.73343	-0.20291	0.31039	-0.57890
416.000	-0.67017	-0.15119	0.34795	-0.58088
417.000	-0.69389	-0.21683	0.24119	-0.65250
418.000	-0.76901	-0.20489	0.31039	-0.57492
419.000	-0.68006	-0.10742	0.28073	-0.56696
420.000	-0.67413	-0.14721	0.35981	-0.53314
421.000	-0.69389	-0.07758	0.36772	-0.56298
422.000	-0.76505	-0.19893	0.28864	-0.52320
423.000	-0.69389	-0.11140	0.30841	-0.51524
424.000	-0.74726	-0.15914	0.23329	-0.58487
425.000	-0.73936	-0.19893	0.32027	-0.60675
426.000	-0.62273	-0.09549	0.26294	-0.53116
427.000	-0.75912	-0.12930	0.40330	-0.59282
428.000	-0.79668	-0.11737	0.27282	-0.56100
429.000	-0.78284	-0.20887	0.45865	-0.65249
430.000	-0.66820	-0.14920	0.33016	-0.61669
431.000	-0.80656	-0.22478	0.26689	-0.53315
432.000	-0.79075	-0.12930	0.34399	-0.55503
433.000	-0.64843	-0.05371	0.30841	-0.53315
434.000	-0.67413	-0.14323	0.24119	-0.42573
435.000	-0.72552	-0.08156	0.31434	-0.56895
436.000	-0.70575	-0.18500	0.41516	-0.58486
437.000	-0.67017	0.00199	0.32620	-0.58288
438.000	-0.76703	-0.05570	0.24910	-0.59680
439.000	-0.69982	-0.01194	0.24515	-0.61073
440.000	-0.72552	0.01989	0.25108	-0.53116
441.000	-0.85203	0.01790	0.33213	-0.62465
442.000	-0.67610	0.01790	0.29655	-0.59680
443.000	-0.76703	0.05769	0.36376	-0.55502
444.000	-0.79470	-0.00796	0.29852	-0.55901
445.000	-0.67610	-0.07360	0.31236	-0.55304
446.000	-0.70575	-0.05371	0.38353	-0.59680
447.000	-0.74331	-0.07161	0.34795	-0.69228
448.000	-0.75715	-0.03979	0.38156	-0.71813
449.000	-0.75517	-0.01194	0.43098	-0.57889
450.000	-0.67215	-0.00796	0.37365	-0.57492
451.000	-0.74529	0.00597	0.30050	-0.64255
452.000	-0.79470	-0.06565	0.40923	-0.62464
453.000	-0.85400	-0.04973	0.35783	-0.54309
454.000	-0.74726	0.08554	0.41121	-0.65647
455.000	-0.76308	0.10742	0.38156	-0.50529
456.000	-0.74924	-0.00796	0.31236	-0.62664
457.000	-0.80261	0.03581	0.40726	-0.60077
458.000	-0.79866	-0.02188	0.34795	-0.55701
459.000	-0.75715	-0.06167	0.35388	-0.56895
460.000	-0.75517	-0.03382	0.38749	-0.63459
461.000	-0.77889	-0.07559	0.25108	-0.57890
462.000	-0.83424	-0.08952	0.28271	-0.59879
463.000	-0.78284	-0.06366	0.29062	-0.59879
464.000	-0.86784	-0.06167	0.32027	-0.66841
465.000	-0.75319	-0.05371	0.24712	-0.70223
466.000	-0.72354	0.05371	0.26294	-0.63659
467.000	-0.77691	0.02188	0.34795	-0.61669
468.000	-0.74529	-0.10941	0.28864	-0.60675
469.000	-0.79273	-0.08156	0.30841	-0.78378
470.000	-0.78482	-0.08952	0.41714	-0.63857
471.000	-0.89551	-0.17107	0.27876	-0.67637
472.000	-0.77494	-0.06763	0.27876	-0.52718
473.000	-0.86388	-0.12731	0.40726	-0.49336
474.000	-0.74331	-0.08355	0.22933	-0.58686
475.000	-0.81645	-0.04973	0.26887	-0.67040
476.000	-0.69785	-0.00995	0.31632	-0.65449
477.000	-0.80459	-0.06167	0.29062	-0.65449
478.000	-0.83226	-0.15118	0.34004	-0.60277
479.000	-0.75912	-0.08355	0.27282	-0.67438
480.000	-0.72354	-0.13527	0.30248	-0.65847
481.000	-0.81052	-0.05968	0.28073	-0.71814
482.000	-0.85993	-0.05371	0.28271	-0.74400
483.000	-0.87179	-0.12532	0.36772	-0.62067
484.000	-0.85993	-0.08951	0.30446	-0.67040
485.000	-0.77098	-0.09349	0.34597	-0.68830
486.000	-0.69982	-0.01194	0.39737	-0.56099
487.000	-0.79470	-0.09151	0.33806	-0.65051
488.000	-0.74924	0.03979	0.36969	-0.70421
489.000	-0.67413	-0.04973	0.35783	-0.67239
490.000	-0.76505	0.00199	0.38353	-0.60077
491.000	-0.86191	-0.10145	0.33411	-0.70023
492.000	-0.72157	0.01392	0.29062	-0.71217
493.000	-0.71761	-0.06962	0.32422	-0.63459
494.000	-0.82040	-0.08952	0.25899	-0.60675
495.000	-0.75912	-0.06167	0.34202	-0.65250
496.000	-0.80261	0.00796	0.30841	-0.55901
497.000	-0.84412	-0.02586	0.34597	-0.59282
498.000	-0.80261	-0.07360	0.36179	-0.61271
499.000	-0.68401	0.03780	0.36574	-0.54309
500.000	-0.74726	-0.01194	0.37167	-0.62067
501.000	-0.76505	-0.07957	0.39539	-0.55701
502.000	-0.78482	-0.06167	0.34795	-0.64653
503.000	-0.78482	-0.08753	0.35783	-0.57094
504.000	-0.81447	-0.10543	0.40330	-0.54508
505.000	-0.73145	-0.16909	0.35981	-0.51723
506.000	-0.79668	-0.07758	0.39539	-0.61271
507.000	-0.71761	-0.04973	0.35783	-0.66841
508.000	-0.85400	-0.06564	0.39342	-0.58088
509.000	-0.80854	-0.06962	0.36969	-0.61669
510.000	-0.79273	-0.07360	0.24712	-0.52320
511.000	-0.79470	-0.09548	0.41714	-0.52319
512.000	-0.71366	-0.05371	0.41319	-0.53314
513.000	-0.73343	0.05172	0.38551	-0.48142
514.000	-0.79866	-0.10941	0.40726	-0.48142
515.000	-0.75122	-0.03780	0.37167	-0.54110
516.000	-0.67215	-0.03382	0.28864	-0.48342
517.000	-0.85993	-0.21086	0.31434	-0.55702
518.000	-0.76110	-0.10543	0.31434	-0.50729
519.000	-0.73936	-0.03382	0.26689	-0.45159
520.000	-0.67215	-0.12930	0.32818	-0.41976
521.000	-0.65238	-0.01790	0.37958	-0.49734
522.000	-0.69389	-0.10941	0.33609	-0.48142
523.000	-0.75319	-0.00597	0.29655	-0.39191
524.000	-0.72354	-0.01392	0.36376	-0.41976
525.000	-0.79075	-0.15118	0.49622	-0.47147
526.000	-0.74924	-0.12333	0.44679	-0.47943
527.000	-0.72552	-0.02188	0.34993	-0.45954
528.000	-0.75912	-0.20091	0.47447	-0.49335
529.000	-0.84610	-0.09747	0.36969	-0.45158
530.000	-0.74133	-0.14522	0.43691	-0.50927
531.000	-0.73145	-0.11538	0.36179	-0.62862
532.000	-0.76703	-0.04177	0.38551	-0.37997
533.000	-0.75319	-0.19296	0.33609	-0.54110
534.000	-0.73936	-0.11936	0.43691	-0.51722
535.000	-0.71959	-0.06565	0.30446	-0.42970
536.000	-0.69587	-0.07360	0.36969	-0.48142
537.000	-0.67610	0.00995	0.38551	-0.44760
538.000	-0.76110	-0.06565	0.38551	-0.49932
539.000	-0.68796	-0.05968	0.33806	-0.40384
540.000	-0.61680	-0.07559	0.38946	-0.44561
541.000	-0.68006	0.00199	0.36574	-0.37997
542.000	-0.85993	-0.10145	0.46063	-0.50529
543.000	-0.78284	-0.02387	0.33411	-0.40384
544.000	-0.75517	-0.12333	0.35190	-0.44562
545.000	-0.68401	0.01591	0.42109	-0.41975
546.000	-0.75912	-0.09350	0.37958	-0.49535
547.000	-0.67808	0.02387	0.34993	-0.34615
548.000	-0.61482	0.00597	0.29655	-0.47347
549.000	-0.80459	-0.04575	0.33016	-0.49933
550.000	-0.62075	-0.07360	0.32027	-0.48739
551.000	-0.74529	-0.11339	0.34399	-0.34416
552.000	-0.64645	0.03183	0.35783	-0.47347
553.000	-0.68203	0.03979	0.29259	-0.52519
554.000	-0.63459	0.00000	0.32027	-0.42374
555.000	-0.73540	-0.06167	0.46063	-0.41577
556.000	-0.73540	-0.07758	0.44877	-0.54905
557.000	-0.76308	-0.06167	0.32620	-0.51126
558.000	-0.69982	0.14323	0.38749	-0.57293
559.000	-0.78284	0.02984	0.32422	-0.48142
560.000	-0.69785	-0.01989	0.39737	-0.50529
561.000	-0.76308	0.04774	0.31632	-0.44164
562.000	-0.64052	0.00199	0.36574	-0.48540
563.000	-0.62273	0.05968	0.34202	-0.49933
564.000	-0.69192	0.08952	0.31236	-0.56099
565.000	-0.68994	0.09549	0.39737	-0.54309
566.000	-0.72354	-0.01194	0.24119	-0.37401
567.000	-0.65041	0.02785	0.35783	-0.41976
568.000	-0.69389	-0.01393	0.34004	-0.46949
569.000	-0.72947	-0.01790	0.32818	-0.54110
570.000	-0.70773	0.07758	0.32225	-0.51126
571.000	-0.73738	0.10941	0.24910	-0.49933
572.000	-0.74726	0.02387	0.32818	-0.58685
573.000	-0.67017	-0.00796	0.29852	-0.54309
574.000	-0.63657	-0.01790	0.35190	-0.54309
575.000	-0.65831	0.03780	0.29457	-0.54110
576.000	-0.74726	0.03382	0.38156	-0.44561
577.000	-0.65634	0.00995	0.29852	-0.49336
578.000	-0.63855	0.03780	0.25899	-0.44761
579.000	-0.66424	0.12334	0.24317	-0.56100
580.000	-0.63657	0.15119	0.34004	-0.45357
581.000	-0.62273	0.10543	0.31632	-0.52917
582.000	-0.64448	0.09151	0.36969	-0.45755
583.000	-0.65041	0.06167	0.29259	-0.40185
584.000	-0.55354	0.09151	0.30446	-0.42771
585.000	-0.72354	-0.01194	0.21945	-0.51326
586.000	-0.70773	0.02785	0.26689	-0.45756
587.000	-0.63657	0.23673	0.25701	-0.47148
588.000	-0.70378	0.19296	0.21154	-0.46353
589.000	-0.75319	0.17307	0.32818	-0.53513
590.000	-0.63459	0.07360	0.19375	-0.49734
591.000	-0.63657	0.09151	0.29457	-0.47148
592.000	-0.65238	0.16113	0.31632	-0.43567
593.000	-0.63459	0.15914	0.22933	-0.37003
594.000	-0.57727	0.13329	0.33411	-0.52718
595.000	-0.66622	0.19495	0.35981	-0.49535
596.000	-0.54564	0.14522	0.23329	-0.42971
597.000	-0.73343	0.13129	0.25503	-0.45358
598.000	-0.70378	0.12135	0.28271	-0.48541
599.000	-0.70378	0.04973	0.34993	-0.45158
600.000	-0.68994	0.10941	0.34202	-0.45556
601.000	-0.60692	0.04774	0.23329	-0.36406
602.000	-0.67215	0.09946	0.19177	-0.46353
603.000	-0.65041	0.19495	0.24317	-0.35411
604.000	-0.56540	0.15517	0.23329	-0.40981
605.000	-0.55157	0.19694	0.25305	-0.51326
606.000	-0.61878	0.09947	0.18584	-0.40385
607.000	-0.61285	0.03183	0.23724	-0.37202
608.000	-0.62075	0.16312	0.25503	-0.53912
609.000	-0.64843	0.14522	0.23922	-0.47347
610.000	-0.72947	0.04376	0.23724	-0.44761
611.000	-0.70773	0.09946	0.29062	-0.46352
612.000	-0.59703	0.04575	0.19572	-0.41180
613.000	-0.68203	0.02586	0.28864	-0.42772
614.000	-0.59703	0.11339	0.14234	-0.41379
615.000	-0.72157	0.13527	0.16014	-0.29443
616.000	-0.65831	0.10742	0.32225	-0.24072
617.000	-0.59506	0.21087	0.26492	-0.36406
618.000	-0.65436	0.06366	0.27282	-0.33223
619.000	-0.61878	0.11737	0.21154	-0.27255
620.000	-0.64250	0.10941	0.27085	-0.43567
621.000	-0.61878	0.11737	0.29655	-0.30637
622.000	-0.56738	0.17705	0.24712	-0.39191
623.000	-0.55947	0.18899	0.27282	-0.25066
624.000	-0.49424	0.03979	0.24119	-0.36207
625.000	-0.53378	0.14323	0.27876	-0.40384
626.000	-0.52191	0.16512	0.24515	-0.25067
627.000	-0.67413	0.30834	0.30643	-0.41180
628.000	-0.63262	0.14522	0.20758	-0.46353
629.000	-0.59703	0.27055	0.26096	-0.31830
630.000	-0.52784	0.13528	0.23922	-0.33820
631.000	-0.57331	0.19296	0.26096	-0.38793
632.000	-0.53773	0.21485	0.27480	-0.32029
633.000	-0.62668	0.19694	0.26689	-0.37202
634.000	-0.56343	0.15119	0.24515	-0.40385
635.000	-0.60296	0.17307	0.28073	-0.25862
636.000	-0.64250	0.17705	0.26887	-0.34019
637.000	-0.68401	0.15318	0.22735	-0.34218
638.000	-0.60692	0.20092	0.29457	-0.27852
639.000	-0.56343	0.21286	0.18584	-0.26061
640.000	-0.59110	0.20888	0.24119	-0.35013
641.000	-0.46459	0.28647	0.31632	-0.33422
642.000	-0.57133	0.11538	0.25305	-0.34417
643.000	-0.67413	0.17108	0.23526	-0.29244
644.000	-0.55947	0.08355	0.24910	-0.36406
645.000	-0.53575	0.28447	0.30446	-0.34217
646.000	-0.64052	0.16113	0.22933	-0.31234
647.000	-0.62866	0.27850	0.32818	-0.26459
648.000	-0.63064	0.13527	0.26689	-0.30040
649.000	-0.64250	0.27054	0.27876	-0.42573
650.000	-0.70971	0.21484	0.26887	-0.32029
651.000	-0.51203	0.33222	0.26294	-0.27653
652.000	-0.57727	0.17506	0.29655	-0.29642
653.000	-0.55947	0.14920	0.23724	-0.24868
654.000	-0.58517	0.17904	0.24712	-0.35610
655.000	-0.61482	0.22678	0.30446	-0.37400
656.000	-0.49424	0.19894	0.27085	-0.22480
657.000	-0.51203	0.18899	0.18386	-0.26260
658.000	-0.59506	0.23673	0.16409	-0.33024
659.000	-0.53180	0.19098	0.23131	-0.25265
660.000	-0.49622	0.12135	0.24712	-0.28051
661.000	-0.51796	0.14721	0.26887	-0.28647
662.000	-0.57924	0.13130	0.31236	-0.21088
663.000	-0.49622	0.22878	0.26492	-0.22082
664.000	-0.52389	0.17904	0.26689	-0.26459
665.000	-0.46854	0.05769	0.25108	-0.24470
666.000	-0.43691	0.19496	0.24317	-0.25265
667.000	-0.54168	0.20888	0.15618	-0.21884
668.000	-0.54168	0.01989	0.26096	-0.31035
669.000	-0.55947	0.16710	0.24119	-0.35013
670.000	-0.47249	0.18302	0.30446	-0.33820
671.000	-0.51005	0.14522	0.22538	-0.25265
672.000	-0.62471	0.03979	0.31236	-0.42374
673.000	-0.54168	0.10146	0.21945	-0.25265
674.000	-0.55354	0.22678	0.22933	-0.27255
675.000	-0.46656	0.15716	0.25108	-0.40186
676.000	-0.55157	0.15119	0.17398	-0.31831
677.000	-0.50215	0.04774	0.26096	-0.22480
678.000	-0.46063	0.09748	0.24317	-0.34615
679.000	-0.51994	0.15119	0.25899	-0.33422
680.000	-0.53378	0.15517	0.26096	-0.23674
681.000	-0.44679	0.18501	0.25899	-0.24072
682.000	-0.63064	0.08952	0.29062	-0.26061
683.000	-0.58517	0.05769	0.22735	-0.23674
684.000	-0.49819	0.23275	0.31039	-0.36008
685.000	-0.58122	0.09947	0.22340	-0.21685
686.000	-0.44679	0.18302	0.27480	-0.21883
687.000	-0.47447	0.26061	0.28864	-0.29244
688.000	-0.39342	0.22281	0.23724	-0.23873
689.000	-0.52982	0.23474	0.23922	-0.21486
690.000	-0.56936	0.13527	0.28469	-0.23873
691.000	-0.54564	0.22281	0.22142	-0.31830
692.000	-0.59506	0.31232	0.13839	-0.16512
693.000	-0.54564	0.21087	0.23131	-0.26658
694.000	-0.45668	0.19496	0.19375	-0.16711
695.000	-0.61482	0.28049	0.25305	-0.21088
696.000	-0.57529	0.35410	0.24119	-0.20292
697.000	-0.51994	0.23673	0.27876	-0.25066
698.000	-0.53971	0.33620	0.30248	-0.22878
699.000	-0.50610	0.34018	0.31236	-0.29642
700.000	-0.45075	0.42572	0.25503	-0.14722
701.000	-0.57331	0.44759	0.18979	-0.18303
702.000	-0.48040	0.35808	0.19770	-0.19098
703.000	-0.46063	0.36604	0.18188	-0.14921
704.000	-0.59110	0.31033	0.19375	-0.23276
705.000	-0.51994	0.40781	0.30841	-0.25663
706.000	-0.53971	0.41179	0.26294	-0.21088
707.000	-0.54564	0.27254	0.23131	-0.24669
708.000	-0.51796	0.38792	0.29457	-0.28050
709.000	-0.50610	0.37598	0.21154	-0.19496
710.000	-0.41121	0.39588	0.17002	-0.17109
711.000	-0.43098	0.33620	0.19572	-0.10146
712.000	-0.35190	0.39191	0.15618	-0.09350
713.000	-0.50610	0.40781	0.16409	-0.26061
714.000	-0.42505	0.40782	0.09687	-0.13528
715.000	-0.44086	0.29641	0.11664	-0.12334
716.000	-0.33213	0.37599	0.24317	-0.09748
717.000	-0.44284	0.42373	0.19968	-0.14125
718.000	-0.37167	0.38395	0.17200	-0.09151
719.000	-0.39342	0.42174	0.24910	-0.16711
720.000	-0.30446	0.31034	0.17398	-0.02984
721.000	-0.44284	0.36803	0.18979	-0.12533
722.000	-0.40330	0.33023	0.11467	-0.06167
723.000	-0.44482	0.40782	0.16804	-0.11738
724.000	-0.45075	0.40185	0.19770	-0.20093
725.000	-0.44679	0.41378	0.17595	-0.16313
726.000	-0.43691	0.37201	0.17991	-0.13727
727.000	-0.37958	0.45158	0.21154	-0.10743
728.000	-0.40528	0.30238	0.18781	-0.02188
729.000	-0.41121	0.29443	0.17002	-0.11738
730.000	-0.46063	0.39588	0.19572	-0.11738
731.000	-0.59506	0.36006	0.17398	-0.12135
732.000	-0.44284	0.39787	0.18979	-0.20093
733.000	-0.36574	0.37002	0.09094	-0.17507
734.000	-0.42307	0.51126	0.15223	-0.13727
735.000	-0.50017	0.50727	0.13839	-0.17109
736.000	-0.44284	0.58287	0.13444	-0.21884
737.000	-0.33016	0.58486	0.12850	-0.12931
738.000	-0.46459	0.53711	0.14630	-0.23077
739.000	-0.38156	0.52518	0.21154	-0.14125
740.000	-0.44284	0.39389	0.25701	-0.15517
741.000	-0.49819	0.42969	0.11862	-0.10345
742.000	-0.45470	0.26458	0.17002	-0.18303
743.000	-0.43691	0.47943	0.20956	-0.24868
744.000	-0.38946	0.39190	0.22142	-0.19496
745.000	-0.31434	0.39390	0.20363	-0.15517
746.000	-0.35586	0.41578	0.17200	-0.21685
747.000	-0.37563	0.35610	0.14827	-0.06565
748.000	-0.40528	0.35809	0.14234	-0.12136
749.000	-0.35586	0.23873	0.18979	-0.11738
750.000	-0.37167	0.37798	0.11664	-0.12136
751.000	-0.28864	0.31432	0.19968	-0.03780
752.000	-0.47249	0.32426	0.07315	-0.18104
753.000	-0.41121	0.30238	0.18386	-0.18701
754.000	-0.31039	0.28647	0.19572	-0.11340
755.000	-0.37760	0.28846	0.10676	-0.09549
756.000	-0.32027	0.37002	0.15223	-0.14921
757.000	-0.27678	0.37798	0.14630	-0.03780
758.000	-0.28469	0.40981	0.17991	-0.23674
759.000	-0.28469	0.35809	0.27480	-0.14523
760.000	-0.39737	0.32626	0.20561	-0.10743
761.000	-0.32225	0.44761	0.21747	-0.14523
762.000	-0.34597	0.31830	0.29259	-0.13926
763.000	-0.40528	0.41975	0.18584	-0.15120
764.000	-0.34399	0.46949	0.23724	-0.25862
765.000	-0.42900	0.39389	0.15025	-0.17905
766.000	-0.37365	0.37599	0.20165	-0.16313
767.000	-0.28666	0.62863	0.27282	-0.20292
768.000	-0.29852	0.48540	0.19770	-0.25663
769.000	-0.25899	0.53912	0.17200	-0.23475
770.000	-0.28271	0.51922	0.23724	-0.29244
771.000	-0.23131	0.59084	0.25899	-0.19496
772.000	-0.23329	0.62266	0.20165	-0.18701
773.000	-0.28469	0.61073	0.14630	-0.15319
774.000	-0.33806	0.58089	0.19177	-0.26857
775.000	-0.34795	0.55105	0.18188	-0.17507
776.000	-0.27085	0.53116	0.14630	-0.11539
777.000	-0.24712	0.46949	0.15223	-0.22878
778.000	-0.39737	0.42572	0.06326	-0.16313
779.000	-0.35783	0.43567	0.19770	-0.10345
780.000	-0.30841	0.38196	0.25899	-0.27852
781.000	-0.37167	0.57094	0.18188	-0.13329
782.000	-0.37167	0.47943	0.20758	-0.15716
783.000	-0.31632	0.52519	0.23724	-0.21088
784.000	-0.31039	0.46750	0.18584	-0.14125
785.000	-0.43296	0.45357	0.18188	-0.22281
786.000	-0.42702	0.40782	0.29457	-0.24669
787.000	-0.31829	0.47745	0.21549	-0.07958
788.000	-0.29655	0.38196	0.23724	-0.22679
789.000	-0.42900	0.41577	0.14827	-0.22878
790.000	-0.34399	0.45158	0.19968	-0.12135
791.000	-0.27282	0.49137	0.15816	-0.09947
792.000	-0.34597	0.51922	0.21549	-0.10544
793.000	-0.31434	0.51126	0.21154	-0.15915
794.000	-0.33213	0.52320	0.13048	-0.07958
795.000	-0.43098	0.53712	0.10676	-0.21685
796.000	-0.35783	0.48739	0.26492	-0.15318
797.000	-0.29457	0.41578	0.18781	-0.19297
798.000	-0.32818	0.56298	0.19572	-0.08157
799.000	-0.39935	0.49932	0.18979	-0.15517
800.000	-0.37365	0.50131	0.23329	-0.15517
801.000	-0.35783	0.50132	0.16409	-0.19695
802.000	-0.29259	0.53911	0.16607	-0.28648
803.000	-0.38551	0.54110	0.14432	-0.10743
804.000	-0.34202	0.51524	0.17398	-0.10544
805.000	-0.17398	0.51923	0.21154	-0.13130
806.000	-0.24515	0.51922	0.13444	-0.16114
807.000	-0.26492	0.45955	0.23724	-0.18104
808.000	-0.27085	0.49933	0.15618	-0.15518
809.000	-0.30050	0.51325	0.16607	-0.23276
810.000	-0.26096	0.53912	0.31829	-0.15119
811.000	-0.34202	0.44363	0.08501	0.00398
812.000	-0.30248	0.54110	0.16014	-0.08157
813.000	-0.17002	0.41777	0.10874	-0.12732
814.000	-0.27085	0.44164	0.14630	-0.21088
815.000	-0.25503	0.50331	0.15421	-0.15319
816.000	-0.17991	0.54111	0.05536	-0.11937
817.000	-0.26294	0.46352	0.20561	-0.11539
818.000	-0.31434	0.50530	0.14037	-0.08952
819.000	-0.26492	0.46750	0.25108	-0.18700
820.000	-0.24910	0.46949	0.21352	-0.17905
821.000	-0.32422	0.47944	0.18781	-0.07958
822.000	-0.23724	0.46154	0.10874	-0.25266
823.000	-0.25899	0.47745	0.23526	-0.15915
824.000	-0.32422	0.45954	0.22340	-0.14125
825.000	-0.26689	0.54110	0.12455	-0.19297
826.000	-0.20758	0.56896	0.27480	-0.26857
827.000	-0.33213	0.45954	0.29457	-0.30040
828.000	-0.31829	0.52917	0.20363	-0.14125
829.000	-0.20956	0.47546	0.24515	-0.12931
830.000	-0.26689	0.55702	0.20956	-0.29045
831.000	-0.26096	0.44363	0.24712	-0.20690
832.000	-0.30050	0.57094	0.19770	-0.20292
833.000	-0.34597	0.50728	0.15421	-0.13130
834.000	-0.27085	0.45756	0.23724	-0.21486
835.000	-0.34202	0.43965	0.20363	-0.14921
836.000	-0.26294	0.59680	0.21549	-0.15915
837.000	-0.33213	0.50927	0.23922	-0.09350
838.000	-0.29852	0.53315	0.22142	-0.14324
839.000	-0.23922	0.40186	0.26492	-0.19496
840.000	-0.30248	0.45358	0.25701	-0.14324
841.000	-0.34993	0.31233	0.27678	-0.14125
842.000	-0.32818	0.45159	0.20956	-0.08157
843.000	-0.32225	0.36406	0.23526	-0.05371
844.000	-0.42307	0.50131	0.21549	-0.08356
845.000	-0.38946	0.44363	0.18188	-0.08952
846.000	-0.25503	0.55105	0.21352	-0.07162
847.000	-0.25899	0.51127	0.20956	-0.00398
848.000	-0.35190	0.44164	0.14037	-0.13727
849.000	-0.38156	0.56497	0.20165	-0.09549
850.000	-0.34399	0.61669	0.27876	-0.19695
851.000	-0.34399	0.65250	0.17991	-0.08356
852.000	-0.34795	0.42572	0.15025	-0.12732
853.000	-0.38749	0.56696	0.19572	-0.17507
854.000	-0.38946	0.66045	0.18781	-0.11937
855.000	-0.36376	0.60475	0.15223	-0.13727
856.000	-0.34597	0.64056	0.22340	-0.10146
857.000	-0.38946	0.51723	0.18584	-0.17507
858.000	-0.36179	0.55900	0.14827	-0.15120
859.000	-0.39539	0.63459	0.24712	-0.08753
860.000	-0.44086	0.60276	0.11664	-0.10743
861.000	-0.36179	0.62067	0.25108	-0.18700
862.000	-0.36179	0.70222	0.21352	-0.23077
863.000	-0.38156	0.56895	0.15816	-0.07162
864.000	-0.38551	0.58287	0.16804	-0.08555
865.000	-0.36179	0.57492	0.24119	-0.20491
866.000	-0.33609	0.51723	0.26096	-0.17905
867.000	-0.45865	0.59679	0.23922	-0.12135
868.000	-0.43296	0.51722	0.17991	-0.08753
869.000	-0.33411	0.66642	0.17200	0.04178
870.000	-0.29852	0.60874	0.24317	-0.20093
871.000	-0.37167	0.65249	0.08303	-0.12136
872.000	-0.32225	0.60874	0.19375	-0.15915
873.000	-0.35388	0.54110	0.26294	-0.05172
874.000	-0.33213	0.59481	0.18979	-0.16711
875.000	-0.40726	0.48739	0.25305	-0.04377
876.000	-0.32027	0.49137	0.21549	0.07361
877.000	-0.32422	0.54707	0.15618	-0.04377
878.000	-0.34795	0.40981	0.18188	-0.04178
879.000	-0.27085	0.52519	0.09292	-0.04178
880.000	-0.28073	0.43965	0.12653	-0.08952
881.000	-0.28666	0.55503	0.13048	-0.14722
882.000	-0.27480	0.48541	0.13839	-0.06366
883.000	-0.26689	0.41777	0.21154	-0.03382
884.000	-0.25503	0.39987	0.19375	-0.15120
885.000	-0.33213	0.38594	0.08699	-0.10544
886.000	-0.32225	0.39589	0.14432	-0.10743
887.000	-0.31829	0.45755	0.21549	-0.11539
888.000	-0.34993	0.37997	0.22142	-0.10544
889.000	-0.27480	0.44164	0.19177	-0.10743
890.000	-0.41319	0.39389	0.15025	-0.20690
891.000	-0.30248	0.30836	0.22933	-0.03979
892.000	-0.38749	0.53115	0.17398	-0.00995
893.000	-0.28073	0.47347	0.07513	-0.05570
894.000	-0.31829	0.53116	0.24712	-0.14921
895.000	-0.32620	0.47347	0.08501	-0.08356
896.000	-0.33806	0.41578	0.10083	0.02984
897.000	-0.27480	0.57492	0.17991	-0.14722
898.000	-0.32225	0.42970	0.19375	-0.11738
899.000	-0.38551	0.46551	0.16804	0.01393
900.000	-0.33213	0.37201	0.16804	-0.02586
901.000	-0.25108	0.45756	0.16607	-0.04377
902.000	-0.31434	0.43368	0.14630	-0.13329
903.000	-0.37760	0.44760	0.20363	-0.05173
904.000	-0.27085	0.40583	0.19968	-0.11141
905.000	-0.25701	0.37997	0.22735	-0.01592
906.000	-0.19770	0.49734	0.26096	-0.07361
907.000	-0.33411	0.48142	0.20165	-0.07759
908.000	-0.28864	0.39191	0.18188	-0.10743
909.000	-0.19375	0.40981	0.22340	0.03581
910.000	-0.35783	0.37997	0.27876	-0.03780
911.000	-0.27282	0.37798	0.21549	-0.02387
912.000	-0.27678	0.41180	0.10478	-0.10544
913.000	-0.30841	0.35212	0.14630	0.03382
914.000	-0.29655	0.44761	0.21747	0.03780
915.000	-0.27282	0.33820	0.21154	0.00796
916.000	-0.25305	0.35809	0.18386	-0.11738
917.000	-0.36376	0.35212	0.17200	-0.04576
918.000	-0.30841	0.33422	0.13641	-0.05968
919.000	-0.26492	0.38594	0.18386	0.01592
920.000	-0.25899	0.36605	0.21747	-0.01592
921.000	-0.25108	0.42374	0.18188	-0.09151
922.000	-0.22142	0.25464	0.17595	0.03780
923.000	-0.24515	0.46750	0.09885	0.05769
924.000	-0.19770	0.41180	0.12455	0.08157
925.000	-0.25305	0.29443	0.10083	0.08356
926.000	-0.27678	0.32825	0.20165	0.04775
927.000	-0.25899	0.33223	0.14037	0.05371
928.000	-0.29457	0.37997	0.16409	0.02984
929.000	-0.30643	0.39390	0.18979	-0.05173
930.000	-0.33806	0.39787	0.05536	0.01194
931.000	-0.24119	0.41180	0.22735	-0.02586
932.000	-0.29457	0.37400	0.09687	0.02188
933.000	-0.28073	0.49933	0.14432	0.05968
934.000	-0.19968	0.39788	0.11467	0.07361
935.000	-0.35981	0.37997	0.13048	0.04178
936.000	-0.14827	0.44164	0.15618	0.04576
937.000	-0.24317	0.41180	0.14234	0.02785
938.000	-0.28271	0.40583	0.16607	-0.06565
939.000	-0.37760	0.32825	0.23526	-0.09748
940.000	-0.25503	0.33024	0.14630	0.05173
941.000	-0.29852	0.41777	0.20363	0.04974
942.000	-0.30050	0.24072	0.09687	0.05371
943.000	-0.39935	0.35610	0.17200	0.03382
944.000	-0.28864	0.34814	0.08303	0.14324
945.000	-0.25108	0.36804	0.13839	0.04178
946.000	-0.23131	0.33621	0.10280	0.00000
947.000	-0.12455	0.38992	0.18188	0.04377
948.000	-0.25899	0.31631	0.11664	0.07162
949.000	-0.21154	0.30637	0.24317	-0.00398
950.000	-0.38551	0.43169	0.17002	0.10146
951.000	-0.26887	0.29841	0.21154	0.07759
952.000	-0.22142	0.28647	0.13048	-0.00199
953.000	-0.24712	0.29244	0.11664	0.03780
954.000	-0.25503	0.32029	0.16409	0.01592
955.000	-0.33411	0.36406	0.15618	0.01194
956.000	-0.29259	0.31432	0.19968	0.12931
957.000	-0.20758	0.21685	0.20165	-0.05570
958.000	-0.23131	0.29244	0.14234	0.00000
959.000	-0.17595	0.33422	0.19770	0.07361
960.000	-0.26887	0.34615	0.16014	0.00796
961.000	-0.26492	0.30040	0.21154	0.03979
962.000	-0.31039	0.38196	0.25503	0.11141
963.000	-0.20561	0.29642	0.15223	0.08157
964.000	-0.13444	0.46353	0.12455	0.03183
965.000	-0.21945	0.33820	0.10478	0.11539
966.000	-0.18781	0.30438	0.13444	0.12931
967.000	-0.30841	0.29841	0.07513	0.06366
968.000	-0.22538	0.22480	0.14827	0.13130
969.000	-0.19770	0.27056	0.13444	0.09549
970.000	-0.27085	0.33223	0.13641	0.00000
971.000	-0.34993	0.27851	0.22735	0.11340
972.000	-0.18188	0.26260	0.16014	0.11340
973.000	-0.26492	0.39788	0.15421	0.06366
974.000	-0.30248	0.22082	0.24910	-0.03979
975.000	-0.36772	0.25663	0.17200	0.00199
976.000	-0.33213	0.21684	0.18781	0.15319
977.000	-0.28864	0.33422	0.11071	0.16313
978.000	-0.25305	0.22679	0.08699	0.17905
979.000	-0.23724	0.34218	0.13246	-0.02785
980.000	-0.28666	0.32228	0.13444	0.04377
981.000	-0.24910	0.23674	0.15618	0.02586
982.000	-0.16211	0.37998	0.10083	0.05769
983.000	-0.27085	0.35610	0.03361	0.11937
984.000	-0.32422	0.33024	0.11269	0.13130
985.000	-0.21154	0.32029	0.07513	0.06565
986.000	-0.34399	0.30835	0.15223	0.13727
987.000	-0.30841	0.29244	0.06722	0.05173
988.000	-0.22538	0.41379	0.13641	0.11738
989.000	-0.29655	0.29443	0.21352	-0.03183
990.000	-0.14037	0.35411	0.14630	0.03382
991.000	-0.15816	0.42573	0.17595	0.08753
992.000	-0.25701	0.34019	0.04943	0.06565
993.000	-0.29062	0.33223	0.08699	0.06167
994.000	-0.21352	0.38196	0.07908	0.09748
995.000	-0.24910	0.31830	0.11071	0.00597
996.000	-0.27876	0.31233	0.11664	0.01194
997.000	-0.28469	0.34416	0.16607	0.16512
998.000	-0.25305	0.41180	0.13048	0.09350
999.000	-0.24515	0.31432	0.12060	0.05173
1000.000	-0.20758	0.35212	0.14630	0.04576
1001.000	-0.23329	0.24072	0.14827	0.12732
1002.000	-0.15618	0.36008	0.08897	0.00398
1003.000	-0.20956	0.34218	0.13839	-0.00398
1004.000	-0.23329	0.25464	0.17002	0.02188
1005.000	-0.22933	0.32228	0.15223	0.01989
1006.000	-0.21549	0.27852	0.16409	-0.05968
1007.000	-0.09687	0.34417	0.16804	-0.00199
1008.000	-0.17595	0.35212	0.12653	0.02387
1009.000	-0.17793	0.33223	0.15421	0.09549
1010.000	-0.15421	0.30040	0.10280	0.18104
1011.000	-0.17595	0.31831	0.07513	0.12533
1012.000	-0.23329	0.29045	0.11269	0.17308
1013.000	-0.09687	0.26459	0.13048	0.10345
1014.000	-0.17002	0.36406	0.07710	0.14125
1015.000	-0.14827	0.24669	0.14037	0.23674
1016.000	-0.17398	0.33422	0.14037	0.16114
1017.000	-0.10874	0.32626	0.16014	0.09549
1018.000	-0.21945	0.38395	0.17002	0.11937
1019.000	-0.15816	0.33820	0.13246	0.23475
1020.000	-0.13246	0.27852	0.08501	0.17109
1021.000	-0.17793	0.35411	0.23526	0.21088
1022.000	-0.15618	0.33024	0.12653	0.21685
1023.000	-0.17991	0.40584	0.11071	0.17905
1024.000	-0.19572	0.16114	0.15421	-0.02984
1025.000	-0.16607	0.35610	0.10478	0.10942
1026.000	-0.21945	0.34019	0.17793	0.12334
1027.000	-0.19968	0.20889	0.08303	0.14921
1028.000	-0.20363	0.29244	0.11269	0.08753
1029.000	-0.17595	0.37998	0.16409	0.27454
1030.000	-0.24119	0.38395	0.15025	0.10544
1031.000	-0.14037	0.32030	0.07315	0.15915
1032.000	-0.13839	0.34417	0.09490	0.12931
1033.000	-0.09094	0.48740	0.06524	0.03979
1034.000	-0.17002	0.38196	0.07117	0.16910
1035.000	-0.30446	0.27653	0.10676	0.17507
1036.000	-0.22340	0.35411	0.05931	0.11340
1037.000	-0.14037	0.35610	0.05536	0.13528
1038.000	-0.20956	0.28449	0.12653	0.10345
1039.000	-0.19177	0.27056	0.06722	0.07759
1040.000	-0.11071	0.35809	0.19177	0.19695
1041.000	-0.17793	0.34019	0.00000	0.10146
1042.000	-0.21549	0.45557	0.17793	0.13926
1043.000	-0.20363	0.34616	0.03163	0.16114
1044.000	-0.08897	0.41578	0.15816	0.16711
1045.000	-0.12850	0.43568	-0.00791	0.28847
1046.000	-0.16607	0.32029	0.01384	0.15915
1047.000	-0.27282	0.29642	0.06722	0.21486
1048.000	-0.15618	0.37003	0.09490	0.15518
1049.000	-0.21747	0.43965	0.08501	0.20093
1050.000	-0.17002	0.40385	0.02372	0.10544
1051.000	-0.25305	0.41976	0.04349	0.18900
1052.000	-0.12850	0.46751	0.11862	0.06963
1053.000	-0.17793	0.40982	0.04547	0.11340
1054.000	-0.18979	0.54111	0.08501	0.16910
1055.000	-0.28271	0.32029	0.13444	0.10544
1056.000	-0.26689	0.41180	0.13246	0.18502
1057.000	-0.14630	0.45159	0.05140	0.19894
1058.000	-0.08699	0.48740	0.07315	0.17109
1059.000	-0.09687	0.50729	0.11664	0.12136
1060.000	-0.21549	0.44164	0.13444	0.20690
1061.000	-0.17200	0.44562	0.15025	0.06963
1062.000	-0.20561	0.37401	0.10874	0.14125
1063.000	-0.11467	0.45955	0.11269	0.20292
1064.000	-0.20165	0.53315	0.12455	0.17905
1065.000	-0.17200	0.45955	0.08303	0.04178
1066.000	-0.10280	0.46154	0.10280	0.16711
1067.000	-0.13444	0.47347	-0.02175	0.18502
1068.000	-0.07315	0.48541	0.09687	0.16313
1069.000	-0.07710	0.53514	0.04943	0.18104
1070.000	-0.08106	0.48740	0.05931	0.23475
1071.000	-0.00791	0.56896	0.00989	0.22878
1072.000	-0.04745	0.49536	0.17398	0.24072
1073.000	-0.02768	0.60477	0.13641	0.26857
1074.000	0.02966	0.58885	-0.02966	0.25266
1075.000	-0.04152	0.53912	0.08106	0.31433
1076.000	-0.15816	0.47347	-0.00395	0.19099
1077.000	0.00000	0.61272	0.05536	0.30836
1078.000	-0.09094	0.52122	0.10280	0.16512
1079.000	-0.05733	0.50331	0.10083	0.31234
1080.000	-0.13839	0.55304	0.06524	0.30637
1081.000	-0.19177	0.42175	0.03756	0.34218
1082.000	-0.00989	0.54907	0.08699	0.27255
1083.000	-0.13048	0.54111	0.10083	0.30239
1084.000	-0.07710	0.60675	0.12455	0.26459
1085.000	-0.06129	0.52719	0.09094	0.24271
1086.000	0.00395	0.68433	0.14630	0.29244
1087.000	-0.00395	0.61073	0.06129	0.39191
1088.000	0.00395	0.56896	0.10874	0.28250
1089.000	0.04547	0.55901	0.18979	0.32427
1090.000	-0.00989	0.55504	0.04349	0.32427
1091.000	-0.07710	0.57294	0.10280	0.21486
1092.000	-0.09094	0.61471	0.05733	0.33422
1093.000	-0.05931	0.45955	0.11467	0.32626
1094.000	0.02372	0.64057	0.11664	0.30836
1095.000	-0.04547	0.60676	0.03559	0.28250
1096.000	0.07117	0.63063	0.10676	0.38594
1097.000	0.03954	0.69627	0.13444	0.36207
1098.000	0.00198	0.60676	0.07315	0.46353
1099.000	-0.03361	0.56498	0.11467	0.24669
1100.000	0.01186	0.59482	0.14037	0.29244
1101.000	0.07710	0.54708	0.05733	0.35014
1102.000	0.04943	0.61073	0.09094	0.43369
1103.000	-0.12850	0.52917	0.12653	0.34218
1104.000	0.04349	0.59681	0.04547	0.47546
1105.000	0.08106	0.57493	0.14037	0.32030
1106.000	0.15223	0.62863	0.13444	0.38793
1107.000	0.11664	0.55702	0.05733	0.51326
1108.000	0.06129	0.59482	0.11269	0.38992
1109.000	0.15223	0.64057	0.19177	0.50928
1110.000	0.00593	0.67837	0.07315	0.41777
1111.000	-0.02966	0.86932	0.10676	0.46154
1112.000	-0.02768	0.81760	-0.02175	0.41777
1113.000	-0.19177	0.84147	-0.01582	0.37600
1114.000	-0.34795	0.85339	-0.19968	0.36804
1115.000	-0.37958	0.86333	-0.43098	0.28050
1116.000	-0.61482	0.78971	-0.56343	0.14920
1117.000	-0.84610	0.62459	-0.63657	0.10742
1118.000	-1.10106	0.78364	-0.80854	0.06167
1119.000	-1.25915	0.71798	-0.96864	-0.03779
1120.000	-1.45476	0.68809	-1.25322	-0.26453
1121.000	-1.67800	0.60848	-1.49823	-0.17302
1122.000	-1.82021	0.56867	-1.64244	-0.11534
1123.000	-1.85576	0.44141	-1.93672	-0.33602
1124.000	-2.20525	0.35584	-2.06310	-0.36581
1125.000	-2.36710	0.35779	-2.44604	-0.47304
1126.000	-2.71437	0.24840	-2.63349	-0.52663
1127.000	-2.89976	0.31790	-2.85046	-0.55236
1128.000	-3.17971	0.42905	-3.11860	-0.55620
1129.000	-3.39646	0.30186	-3.43192	-0.62155
1130.000	-3.61312	0.30378	-3.54813	-0.76839
1131.000	-3.89659	0.21635	-3.83754	-0.66295
1132.000	-4.19953	0.08333	-4.11103	-0.98412
1133.000	-4.33715	-0.08728	-4.32535	-0.96799
1134.000	-4.53760	-0.19832	-4.68295	-1.13203
1135.000	-4.73400	-0.31326	-4.85769	-1.18920
1136.000	-5.10883	-0.59246	-5.08137	-1.39478
1137.000	-5.20688	-0.79244	-5.20884	-1.37074
1138.000	-5.20296	-0.84989	-5.34998	-1.40606
1139.000	-5.41465	-0.94266	-5.34606	-1.48921
1140.000	-5.47734	-0.99206	-5.44600	-1.54636
1141.000	-5.39701	-0.98823	-5.55373	-1.54015
1142.000	-5.54982	-0.92859	-5.59878	-1.65477
1143.000	-5.52044	-1.04939	-5.54982	-1.73405
1144.000	-5.68297	-1.07483	-5.65752	-1.72582
1145.000	-5.72799	-1.16972	-5.67905	-1.77124
1146.000	-5.80823	-1.27441	-5.70841	-1.80477
1147.000	-5.93539	-1.23852	-5.78279	-1.92317
1148.000	-5.97255	-1.33336	-5.93539	-1.90486
1149.000	-6.11722	-1.56430	-5.95299	-2.09057
1150.000	-6.18758	-1.53049	-5.92561	-2.04917
1151.000	-6.16217	-1.71041	-6.01361	-2.10021
1152.000	-6.21884	-1.78729	-6.05271	-2.19094
1153.000	-6.15045	-1.76973	-6.04489	-2.10404
1154.000	-6.30674	-2.01611	-5.99601	-2.15165
1155.000	-6.32237	-1.79483	-5.89627	-2.25084
1156.000	-6.34580	-1.87771	-5.96277	-2.11424
1157.000	-6.28331	-1.88782	-5.83562	-2.14437
1158.000	-6.18171	-1.99091	-5.85323	-2.18778
1159.000	-6.18562	-1.85063	-5.83366	-2.09299
1160.000	-6.20907	-1.88413	-5.82975	-2.09301
1161.000	-6.19930	-1.85453	-5.79061	-1.96268
1162.000	-6.09181	-1.80155	-5.79844	-1.96661
1163.000	-6.16413	-1.81118	-5.81801	-1.97840
1164.000	-6.08986	-1.81737	-5.75735	-1.88173
1165.000	-6.11527	-1.76787	-5.76517	-1.89753
1166.000	-6.07031	-1.84708	-5.78083	-2.00028
1167.000	-6.08595	-1.93990	-5.83953	-1.89925
1168.000	-6.03707	-1.79580	-5.85910	-1.75486
1169.000	-6.06249	-1.84315	-5.77692	-1.99832
1170.000	-6.01948	-1.82551	-5.84345	-1.93482
1171.000	-6.03316	-1.83139	-5.79453	-2.02000
1172.000	-5.96081	-1.84349	-5.77692	-1.92517
1173.000	-5.99015	-1.76433	-5.81997	-1.90723
1174.000	-5.92952	-1.90685	-5.84540	-1.89330
1175.000	-5.89431	-1.76661	-5.86497	-2.07311
1176.000	-5.91778	-1.81596	-5.83366	-1.87159
1177.000	-5.89627	-1.73300	-5.83758	-2.07914
1178.000	-5.93930	-1.80996	-5.90605	-1.89112
1179.000	-5.97059	-1.84939	-5.85910	-1.90314
1180.000	-5.81605	-1.73325	-5.77300	-1.86982
1181.000	-5.82779	-1.80835	-5.81997	-1.93886
1182.000	-5.77300	-1.72942	-5.86301	-1.87347
1183.000	-5.83171	-1.66992	-5.71429	-1.89770
1184.000	-5.87866	-1.65001	-5.88062	-1.82992
1185.000	-5.73973	-1.63855	-5.75539	-1.82637
1186.000	-5.74169	-1.63854	-5.92170	-1.78234
1187.000	-5.68884	-1.55759	-5.78279	-1.80454
1188.000	-5.78866	-1.71356	-5.74169	-1.88179
1189.000	-5.77105	-1.55737	-5.72407	-1.98664
1190.000	-5.63206	-1.72985	-5.82584	-1.95663
1191.000	-5.63598	-1.60126	-5.81018	-1.83213
1192.000	-5.72603	-1.53771	-5.79061	-1.94291
1193.000	-5.76322	-1.54948	-5.72407	-1.90162
1194.000	-5.70058	-1.65053	-5.81801	-1.87362
1195.000	-5.78866	-1.52567	-5.77300	-1.91727
1196.000	-5.57919	-1.66472	-5.82584	-1.93488
1197.000	-5.56940	-1.55395	-5.77105	-1.84412
1198.000	-5.63011	-1.58347	-5.73973	-1.91738
1199.000	-5.77105	-1.62461	-5.75147	-1.84814
1200.000	-5.56549	-1.48273	-5.81018	-1.85981
1201.000	-5.60857	-1.60529	-5.71624	-1.78893
1202.000	-5.62227	-1.47863	-5.85323	-1.78454
1203.000	-5.68492	-1.53584	-5.74756	-1.86793
1204.000	-5.62619	-1.61711	-5.77496	-1.86388
1205.000	-5.60073	-1.47671	-5.77496	-1.85399
1206.000	-5.54786	-1.55599	-5.70646	-1.79885
1207.000	-5.56353	-1.55001	-5.73777	-1.79281
1208.000	-5.51652	-1.47692	-5.69080	-1.84240
1209.000	-5.62619	-1.52017	-5.71820	-1.78892
1210.000	-5.51456	-1.59961	-5.81997	-1.74708
1211.000	-5.62032	-1.63097	-5.84345	-1.84586
1212.000	-5.59682	-1.61324	-5.60465	-1.77147
1213.000	-5.45579	-1.44540	-5.74756	-1.76312
1214.000	-5.57332	-1.52624	-5.84345	-1.74107
1215.000	-5.58703	-1.54797	-5.75930	-1.81845
1216.000	-5.53415	-1.50656	-5.76126	-1.75121
1217.000	-5.52240	-1.63718	-5.72407	-1.79286
1218.000	-5.46951	-1.49287	-5.73777	-1.72755
1219.000	-5.54590	-1.46497	-5.74365	-1.72951
1220.000	-5.63598	-1.50630	-5.84932	-1.76873
1221.000	-5.48322	-1.57199	-5.81410	-1.71941
1222.000	-5.46167	-1.47112	-5.83953	-1.71736
1223.000	-5.41857	-1.46924	-5.78279	-1.78081
1224.000	-5.45579	-1.49488	-5.75539	-1.72948
1225.000	-5.51456	-1.54420	-5.64577	-1.73179
1226.000	-5.40681	-1.49500	-5.79453	-1.71552
1227.000	-5.53807	-1.48082	-5.81605	-1.67590
1228.000	-5.56549	-1.65487	-5.75343	-1.76112
1229.000	-5.57332	-1.53218	-5.72407	-1.68211
1230.000	-5.48910	-1.46907	-5.82975	-1.75298
1231.000	-5.46167	-1.56215	-5.68297	-1.73365
1232.000	-5.37938	-1.41787	-5.82975	-1.79450
1233.000	-5.51260	-1.54619	-5.76517	-1.64441
1234.000	-5.49889	-1.61548	-5.63598	-1.69423
1235.000	-5.48714	-1.54230	-5.78670	-1.78870
1236.000	-5.42837	-1.45339	-5.81605	-1.66206
1237.000	-5.49106	-1.45917	-5.80823	-1.79852
1238.000	-5.50673	-1.53037	-5.80236	-1.68978
1239.000	-5.48714	-1.45720	-5.73190	-1.81656
1240.000	-5.44404	-1.41376	-5.83758	-1.65606
1241.000	-5.53219	-1.47490	-5.78474	-1.70566
1242.000	-5.47930	-1.45524	-5.72603	-1.75132
1243.000	-5.51260	-1.41558	-5.79649	-1.75901
1244.000	-5.49889	-1.50863	-5.76517	-1.60881
1245.000	-5.54198	-1.40562	-5.68688	-1.76924
1246.000	-5.48910	-1.49084	-5.79061	-1.57314
1247.000	-5.49693	-1.51259	-5.76126	-1.73144
1248.000	-5.51456	-1.50463	-5.78670	-1.64830
1249.000	-5.57528	-1.52624	-5.73973	-1.73546
1250.000	-5.52240	-1.36806	-5.83758	-1.72132
1251.000	-5.54394	-1.49070	-5.82388	-1.64028
1252.000	-5.46363	-1.42559	-5.74756	-1.61084
1253.000	-5.50477	-1.33841	-5.79257	-1.74321
1254.000	-5.58115	-1.54601	-5.67709	-1.61301
1255.000	-5.61053	-1.43909	-5.75930	-1.63256
1256.000	-5.44600	-1.31083	-5.77692	-1.68195
1257.000	-5.50869	-1.40174	-5.82779	-1.56908
1258.000	-5.46755	-1.47506	-5.71820	-1.70783
1259.000	-5.55373	-1.52234	-5.82192	-1.63040
1260.000	-5.61836	-1.70220	-5.82192	-1.68577
1261.000	-5.54394	-1.55798	-5.69667	-1.75339
1262.000	-5.44992	-1.45333	-5.79844	-1.61662
1263.000	-5.50477	-1.52246	-5.77300	-1.68196
1264.000	-5.49497	-1.42354	-5.76126	-1.60091
1265.000	-5.43228	-1.43952	-5.87279	-1.51160
1266.000	-5.52436	-1.45711	-5.75147	-1.66423
1267.000	-5.37350	-1.30505	-5.69471	-1.55955
1268.000	-5.44208	-1.47512	-5.73973	-1.50009
1269.000	-5.43032	-1.53849	-5.77887	-1.57317
1270.000	-5.44600	-1.28312	-5.77300	-1.57714
1271.000	-5.38526	-1.43567	-5.72995	-1.62869
1272.000	-5.39506	-1.42971	-5.69080	-1.60704
1273.000	-5.56549	-1.51241	-5.73582	-1.66229
1274.000	-5.40681	-1.52469	-5.82388	-1.57304
1275.000	-5.46755	-1.40381	-5.66143	-1.56756
1276.000	-5.39897	-1.54252	-5.79453	-1.56126
1277.000	-5.35586	-1.48325	-5.81410	-1.65218
1278.000	-5.43424	-1.38212	-5.78866	-1.58699
1279.000	-5.44012	-1.53846	-5.68688	-1.66639
1280.000	-5.58507	-1.50841	-5.81801	-1.70358
1281.000	-5.48518	-1.51460	-5.75147	-1.64247
1282.000	-5.45971	-1.49487	-5.84540	-1.50179
1283.000	-5.43816	-1.37221	-5.79257	-1.60082
1284.000	-5.42837	-1.51276	-5.77300	-1.64241
1285.000	-5.40093	-1.54846	-5.80040	-1.50982
1286.000	-5.46755	-1.42360	-5.79061	-1.55929
1287.000	-5.49302	-1.43542	-5.88062	-1.58673
1288.000	-5.44600	-1.40782	-5.78083	-1.55536
1289.000	-5.45188	-1.43552	-5.76713	-1.52771
1290.000	-5.46559	-1.44934	-5.91387	-1.59652
1291.000	-5.36958	-1.48124	-5.75147	-1.47632
1292.000	-5.37154	-1.46738	-5.83562	-1.45237
1293.000	-5.57919	-1.44115	-5.79844	-1.52367
1294.000	-5.57919	-1.51634	-5.90018	-1.56492
1295.000	-5.71037	-1.47247	-5.93930	-1.43825
1296.000	-5.59290	-1.56972	-5.81018	-1.35353
1297.000	-5.37350	-1.28525	-5.74952	-1.28246
1298.000	-5.46559	-1.30485	-5.62032	-1.14421
1299.000	-5.46363	-1.42361	-5.52827	-1.24336
1300.000	-5.40289	-1.38021	-5.20884	-1.09152
1301.000	-5.11472	-1.20260	-4.94993	-0.91760
1302.000	-4.94208	-1.10980	-4.73400	-0.53332
1303.000	-4.65938	-0.86843	-4.63189	-0.36486
1304.000	-4.48258	-0.61482	-4.24475	-0.32537
1305.000	-4.26245	-0.47018	-4.04415	0.08136
1306.000	-4.05989	-0.25599	-3.80212	0.15285
1307.000	-3.88871	-0.20444	-3.58949	0.09729
1308.000	-3.54222	0.08340	-3.27430	0.23636
1309.000	-3.33144	0.23038	-3.15605	0.34563
1310.000	-3.20927	0.08938	-3.02792	0.36355
1311.000	-3.10283	0.18872	-2.81496	0.51860
1312.000	-2.71831	0.17885	-2.70451	0.74119
1313.000	-2.57825	0.38357	-2.55852	0.91812
1314.000	-2.39473	0.69566	-2.49143	1.00163
1315.000	-2.14602	0.91243	-2.35329	1.00769
1316.000	-1.91303	1.26238	-2.23288	1.16874
1317.000	-1.87946	1.28824	-2.10259	1.35166
1318.000	-1.68985	1.45135	-1.99597	1.48090
1319.000	-1.64244	1.45337	-1.95647	1.78291
1320.000	-1.40734	1.40781	-1.76688	1.85859
1321.000	-1.30855	1.62650	-1.66614	2.06923
1322.000	-1.21172	1.71996	-1.70565	2.25783
1323.000	-1.01410	2.14328	-1.79848	2.32919
1324.000	-1.15837	1.98227	-1.72738	2.34317
1325.000	-1.09710	2.32792	-1.81626	2.46216
1326.000	-1.06153	2.44113	-1.79453	2.57333
1327.000	-0.95085	2.56431	-1.77676	2.56541
1328.000	-0.95876	2.49084	-1.84391	2.82324
1329.000	-0.95283	2.63378	-1.78861	2.65072
1330.000	-0.87970	2.76483	-1.81231	2.59910
1331.000	-0.94492	2.67944	-1.90908	2.57117
1332.000	-0.97654	2.66949	-1.88538	2.47397
1333.000	-0.96073	2.61393	-1.82811	2.60304
1334.000	-1.03584	2.47887	-1.84391	2.36288
1335.000	-0.86586	2.54650	-1.74910	2.34910
1336.000	-0.93504	2.58814	-1.83008	2.38671
1337.000	-0.96271	2.62782	-1.78466	2.31531
1338.000	-0.93306	2.64571	-1.86761	2.47598
1339.000	-1.00421	2.66749	-1.80638	2.60109
1340.000	-1.02793	2.72502	-1.85181	2.50180
1341.000	-0.95480	2.71913	-1.77281	2.51779
1342.000	-1.03781	2.67540	-1.88933	2.58708
1343.000	-0.94295	2.67150	-1.82416	2.64472
1344.000	-0.96666	2.70126	-1.84391	2.56333
1345.000	-1.03188	2.71907	-1.91105	2.71998
1346.000	-0.95480	2.75088	-1.99794	2.58493
1347.000	-0.98247	2.73895	-1.81626	2.77171
1348.000	-1.08129	2.75871	-1.90908	2.66046
1349.000	-1.06943	2.80436	-1.94067	2.67232
1350.000	-1.04177	2.74287	-1.82416	2.54749
1351.000	-1.04177	2.79248	-1.93475	2.59892
1352.000	-1.07141	2.76071	-1.87946	2.53153
1353.000	-1.03781	2.77264	-1.94462	2.59890
1354.000	-1.07734	2.80436	-1.96042	2.75164
1355.000	-1.09117	2.67337	-1.88341	2.61288
1356.000	-1.11291	2.72495	-2.00781	2.68213
1357.000	-1.13268	2.68524	-1.94857	2.66635
1358.000	-1.14453	2.76461	-2.08877	2.71968
1359.000	-1.12082	2.59593	-1.97622	2.63060
1360.000	-1.09315	2.65352	-1.82811	2.66059
1361.000	-1.06548	2.65156	-2.01176	2.74957
1362.000	-1.16825	2.56611	-1.98017	2.70003
1363.000	-1.10501	2.60388	-1.89130	2.59898
1364.000	-1.13860	2.66737	-1.95647	2.66833
1365.000	-1.14848	2.57010	-1.92093	2.63862
1366.000	-1.17022	2.57604	-1.96635	2.59688
1367.000	-1.15046	2.58201	-1.93870	2.68423
1368.000	-1.18010	2.60977	-1.99202	2.66430
1369.000	-1.24729	2.49457	-1.94265	2.67232
1370.000	-1.17022	2.52045	-1.94857	2.64453
1371.000	-1.27298	2.51837	-2.02163	2.63846
1372.000	-1.20777	2.54225	-2.04335	2.64239
1373.000	-1.32633	2.50045	-2.00584	2.58293
1374.000	-1.14256	2.60385	-1.99991	2.51548
1375.000	-1.12477	2.52248	-1.95252	2.62468
1376.000	-1.31448	2.60170	-2.04928	2.72967
1377.000	-1.14453	2.56812	-2.05323	2.72173
1378.000	-1.23148	2.51841	-2.02756	2.69003
1379.000	-1.23741	2.46282	-2.04335	2.65430
1380.000	-1.22753	2.54819	-2.02953	2.61266
1381.000	-1.22753	2.55216	-2.12628	2.64027
1382.000	-1.27100	2.53624	-2.03743	2.65431
1383.000	-1.15244	2.52444	-2.03743	2.60272
1384.000	-1.23148	2.55811	-1.94857	2.71794
1385.000	-1.21765	2.47475	-1.98214	2.64844
1386.000	-1.17615	2.50060	-2.08679	2.73952
1387.000	-1.29867	2.49651	-2.06705	2.66418
1388.000	-1.15441	2.48870	-1.97227	2.66632
1389.000	-1.19394	2.41124	-2.07889	2.65622
1390.000	-1.16429	2.43310	-1.97622	2.63060
1391.000	-1.24136	2.39531	-2.01176	2.59880
1392.000	-1.30262	2.64934	-2.03348	2.66027
1393.000	-1.18010	2.52243	-2.04928	2.63842
1394.000	-1.12279	2.40336	-2.02558	2.56306
1395.000	-1.11884	2.49866	-1.96437	2.58498
1396.000	-1.26112	2.45486	-2.03348	2.63249
1397.000	-1.24532	2.37942	-2.08482	2.59868
1398.000	-1.13860	2.56812	-1.99004	2.51549
1399.000	-1.11687	2.52248	-2.01769	2.59680
1400.000	-1.18406	2.36558	-2.02361	2.69401
1401.000	-1.18801	2.47875	-2.00584	2.65237
1402.000	-1.21370	2.40328	-1.98412	2.58297
1403.000	-1.16429	2.46487	-2.06310	2.51141
1404.000	-1.11094	2.58800	-1.96635	2.58696
1405.000	-1.21370	2.45093	-1.97227	2.61275
1406.000	-1.11489	2.47484	-1.93672	2.68621
1407.000	-1.17813	2.45890	-2.06112	2.49157
1408.000	-1.08722	2.62970	-2.01571	2.58292
1409.000	-1.18406	2.46684	-2.04928	2.64834
1410.000	-1.14058	2.52445	-1.97029	2.68219
1411.000	-1.15441	2.43708	-2.06310	2.58284
1412.000	-1.25124	2.43700	-2.05323	2.62254
1413.000	-1.22951	2.48466	-2.09864	2.63635
1414.000	-1.10896	2.50859	-2.09469	2.57088
1415.000	-1.16825	2.42913	-2.03941	2.57296
1416.000	-1.13860	2.47085	-1.99399	2.56509
1417.000	-1.11687	2.34776	-2.01176	2.68807
1418.000	-1.07141	2.46693	-1.97424	2.65639
1419.000	-1.15244	2.38149	-2.07692	2.71971
1420.000	-1.20382	2.44101	-2.05520	2.61261
1421.000	-1.06746	2.43914	-2.01176	2.74164
1422.000	-1.19394	2.44499	-2.05323	2.66817
1423.000	-1.09315	2.37558	-1.98807	2.72779
1424.000	-1.10106	2.49272	-2.04335	2.73762
1425.000	-1.12675	2.45895	-2.02756	2.69202
1426.000	-1.10106	2.45897	-1.90710	2.77156
1427.000	-0.96864	2.41340	-2.00189	2.82099
1428.000	-1.03584	2.53049	-2.02558	2.69004
1429.000	-1.06943	2.42326	-1.96635	2.60879
1430.000	-1.12279	2.50064	-1.96832	2.69211
1431.000	-1.09315	2.36565	-2.04138	2.75547
1432.000	-1.12872	2.39144	-2.03743	2.70589
1433.000	-1.14651	2.46290	-2.01176	2.75552
1434.000	-1.10698	2.41727	-2.04928	2.81298
1435.000	-1.07932	2.37162	-1.97227	2.76947
1436.000	-1.08722	2.40934	-1.93080	2.67432
1437.000	-1.13860	2.28817	-2.04138	2.70588
1438.000	-1.06548	2.42921	-2.02361	2.72376
1439.000	-1.01014	2.37565	-2.02953	2.66821
1440.000	-1.00619	2.41338	-2.05125	2.73562
1441.000	-1.07536	2.48877	-2.04138	2.66422
1442.000	-0.96469	2.56033	-2.03151	2.73764
1443.000	-0.91527	2.48293	-2.01374	2.74362
1444.000	-1.06746	2.46694	-1.97424	2.80914
1445.000	-1.01014	2.44316	-2.11246	2.80890
1446.000	-1.02200	2.60197	-2.07692	2.73161
1447.000	-0.97259	2.36971	-1.98214	2.76351
1448.000	-0.96469	2.40943	-2.09864	2.76529
1449.000	-0.96666	2.52658	-1.96042	2.82503
1450.000	-1.04967	2.49078	-2.04533	2.70786
1451.000	-0.99631	2.45508	-2.00386	2.82892
1452.000	-1.00421	2.44117	-2.03743	2.87051
1453.000	-1.03188	2.43123	-2.00584	2.74760
1454.000	-1.00224	2.39352	-1.95055	2.73380
1455.000	-0.92713	2.43527	-2.06705	2.72567
1456.000	-1.01805	2.42329	-2.08087	2.77127
1457.000	-1.00224	2.43721	-2.06507	2.77527
1458.000	-1.03781	2.37562	-1.95252	2.63262
1459.000	-1.07932	2.32595	-1.98609	2.71192
1460.000	-1.01607	2.55433	-2.00584	2.68213
1461.000	-0.99433	2.43125	-2.00386	2.74958
1462.000	-1.10106	2.44507	-1.92290	2.82509
1463.000	-1.00817	2.45110	-1.99004	2.80515
1464.000	-1.02595	2.61586	-2.06902	2.86253
1465.000	-1.03584	2.49873	-2.00979	2.80511
1466.000	-1.03386	2.46101	-1.95450	2.74371
1467.000	-0.98445	2.55038	-2.00781	2.69403
1468.000	-1.07734	2.57612	-1.99597	2.72183
1469.000	-0.97457	2.44120	-1.97029	2.72584
1470.000	-1.00619	2.51662	-2.02163	2.81303
1471.000	-1.05955	2.53643	-1.99794	2.84083
1472.000	-0.99236	2.48486	-1.89920	2.77753
1473.000	-0.99631	2.50670	-2.04335	2.71183
1474.000	-1.03584	2.47093	-2.05125	2.84074
1475.000	-1.06153	2.56422	-1.97029	2.80320
1476.000	-0.96666	2.52658	-1.94660	2.94008
1477.000	-1.02200	2.51859	-1.98807	2.72581
1478.000	-1.03584	2.49873	-1.97424	2.74963
1479.000	-1.03386	2.52454	-1.95845	2.84487
1480.000	-1.06153	2.47290	-2.00781	2.87453
1481.000	-1.08722	2.56221	-1.90908	2.87470
1482.000	-0.98445	2.55038	-1.89920	2.84497
1483.000	-0.94690	2.46107	-2.00189	2.85868
1484.000	-1.06943	2.38950	-1.87946	2.72995
1485.000	-0.99829	2.56229	-1.97424	2.80121
1486.000	-0.98445	2.58016	-1.92488	2.71996
1487.000	-0.96666	2.52459	-1.91303	2.69022
1488.000	-1.05560	2.54437	-1.94462	2.75365
1489.000	-0.94097	2.45909	-2.06705	2.71972
1490.000	-1.07536	2.46097	-2.02361	2.78129
1491.000	-1.07536	2.44906	-1.96042	2.75362
1492.000	-0.94492	2.47100	-1.93672	2.84887
1493.000	-1.09710	2.66344	-2.02953	2.85070
1494.000	-1.07734	2.47686	-2.02361	2.90822
1495.000	-1.02003	2.51661	-1.95647	2.88057
1496.000	-1.03188	2.45505	-2.00584	2.81900
1497.000	-1.08129	2.56222	-2.04138	2.76539
1498.000	-1.06351	2.55826	-2.05718	2.80305
1499.000	-1.09315	2.57412	-1.97622	2.78732
1500.000	-1.18010	2.52441	-2.05323	2.81297
1501.000	-1.13663	2.37158	-2.01769	2.78328
1502.000	-1.03979	2.57019	-2.01571	2.91220
1503.000	-1.18208	2.46088	-2.00386	2.73768
1504.000	-1.06351	2.43517	-2.05125	2.82289
1505.000	-1.16627	2.63360	-1.99794	2.88248
1506.000	-1.00817	2.61786	-2.07495	2.70186
1507.000	-0.96666	2.51665	-1.96240	2.78337
1508.000	-1.02991	2.49278	-2.03546	2.77730
1509.000	-0.96666	2.64568	-2.00584	2.84875
1510.000	-1.05560	2.61782	-2.08877	2.69191
1511.000	-1.16232	2.55619	-2.03743	2.79713
1512.000	-0.98247	2.54245	-1.97424	2.87063
1513.000	-1.00224	2.59603	-2.08877	2.87042
1514.000	-1.02595	2.53844	-1.94660	2.77348
1515.000	-1.07734	2.61780	-2.02163	2.87649
1516.000	-1.02200	2.65556	-2.05915	2.77924
1517.000	-1.03188	2.65555	-2.08284	2.84069
1518.000	-1.13465	2.57408	-2.05915	2.81296
1519.000	-1.03781	2.53049	-2.10061	3.05678
1520.000	-1.03584	2.71311	-1.99399	2.76349
1521.000	-1.10501	2.58800	-2.14997	2.78900
1522.000	-1.04769	2.60195	-1.99399	2.87059
1523.000	-1.06153	2.67736	-2.00979	2.88048
1524.000	-1.06153	2.68728	-2.13220	2.89810
1525.000	-0.94492	2.67944	-2.01571	2.76345
1526.000	-1.03188	2.59799	-1.98214	2.87061
1527.000	-1.06351	2.60789	-2.05520	2.87247
1528.000	-0.98247	2.56230	-2.01374	2.89237
1529.000	-1.01212	2.64366	-2.01176	2.80313
1530.000	-0.94887	2.72112	-2.03546	2.94389
1531.000	-1.05165	2.65355	-2.12430	2.80888
1532.000	-1.11687	2.62968	-2.02953	2.90821
1533.000	-0.99631	2.58015	-2.01571	2.85667
1534.000	-1.04572	2.59004	-1.98609	2.87854
1535.000	-1.05560	2.63370	-1.98807	2.96976
1536.000	-1.04769	2.60989	-1.96635	2.84089
1537.000	-1.05362	2.62576	-1.98214	2.89838
1538.000	-0.96666	2.58613	-2.05323	2.94782
1539.000	-0.99829	2.66749	-2.02361	2.91813
1540.000	-0.99236	2.49281	-2.15392	2.82469
1541.000	-1.08920	2.45699	-2.07297	2.87442
1542.000	-1.07932	2.54832	-2.09864	2.79107
1543.000	-1.07932	2.42126	-2.13220	3.07853
1544.000	-1.14848	2.66736	-2.14997	3.13597
1545.000	-1.23148	2.72682	-2.09864	3.15788
1546.000	-1.10106	2.83608	-2.02361	3.32252
1547.000	-0.99829	2.80443	-1.91105	3.43371
1548.000	-0.81447	2.85021	-1.69972	3.68370
1549.000	-0.73145	3.12999	-1.51996	3.79294
1550.000	-0.80063	3.23306	-1.59305	4.23213
1551.000	-0.54366	3.53852	-1.36387	4.38879
1552.000	-0.38156	3.66542	-1.20777	4.58081
1553.000	-0.10478	3.82199	-0.82040	4.87574
1554.000	-0.01977	3.84972	-0.69192	4.99239
1555.000	0.12455	4.17636	-0.56936	5.26484
1556.000	0.33411	4.33656	-0.39342	5.39119
1557.000	0.44284	4.57576	-0.17793	5.48987
1558.000	0.70575	4.78304	-0.07315	5.78740
1559.000	0.84412	5.04551	0.00791	5.79725
1560.000	0.90342	5.16383	0.04745	5.91143
1561.000	1.02793	5.13010	0.02966	5.97835
1562.000	1.16627	5.40795	0.12850	6.04917
1563.000	1.19591	5.56753	0.04547	6.33036
1564.000	1.19394	5.63649	-0.02175	6.51110
1565.000	1.07339	5.84742	-0.05536	6.63283
1566.000	1.09117	5.98711	-0.09687	6.69759
1567.000	1.14453	6.12469	-0.11467	6.88198
1568.000	1.24532	6.34657	-0.06326	6.92120
1569.000	1.13663	6.30555	-0.19968	6.99370
1570.000	1.24334	6.51548	-0.21549	7.25421
1571.000	1.28088	6.65081	-0.25305	7.16804
1572.000	1.35202	6.72518	-0.17002	7.21703
1573.000	1.35992	6.88203	-0.18386	7.20724
1574.000	1.22358	6.79809	-0.13444	7.18180
1575.000	1.32436	6.83116	-0.18584	7.17003
1576.000	1.31843	6.88215	-0.14432	7.14066
1577.000	1.30657	6.93707	-0.16014	7.02703
1578.000	1.30262	6.78219	-0.21549	7.05248
1579.000	1.29867	6.91553	-0.14432	6.98980
1580.000	1.37771	6.79571	-0.21747	6.95841
1581.000	1.17813	6.90212	-0.16211	6.96823
1582.000	1.31052	6.87237	-0.11862	6.95648
1583.000	1.28879	6.88615	-0.15223	7.01723
1584.000	1.18010	7.01382	-0.24317	7.09949
1585.000	1.17615	6.98640	-0.05536	7.06036
1586.000	1.26508	6.96657	-0.17595	7.12694
1587.000	1.12477	7.03551	-0.20165	7.16610
1588.000	1.28286	7.07624	-0.17595	7.20724
1589.000	1.26310	7.03124	-0.16211	7.12695
1590.000	1.21567	7.02745	-0.26689	7.12298
1591.000	1.17418	7.10003	-0.19968	7.23073
1592.000	1.16034	6.97076	-0.17793	7.12890
1593.000	1.19394	6.92560	-0.25503	7.17587
1594.000	1.28088	6.90773	-0.16409	7.07209
1595.000	1.25717	6.99795	-0.28864	7.14843
1596.000	1.17220	7.02952	-0.18979	7.20136
1597.000	1.22358	6.91965	-0.19375	7.26009
1598.000	1.17418	6.98640	-0.21549	7.20722
1599.000	1.23741	6.91569	-0.26492	7.31095
1600.000	1.13465	6.86497	-0.25305	7.17000
1601.000	1.05165	6.88085	-0.33411	7.26393
1602.000	1.01212	6.82603	-0.17793	7.07993
1603.000	1.13070	6.71397	-0.22735	7.17980
1604.000	1.06746	6.75727	-0.20956	7.20527
1605.000	1.14058	6.70806	-0.24119	7.15825
1606.000	1.18208	6.77269	-0.35388	7.21888
1607.000	1.10698	6.73560	-0.26887	7.18174
1608.000	1.04967	6.85340	-0.17595	7.25814
1609.000	1.10896	6.82582	-0.26492	7.18761
1610.000	1.07141	6.76706	-0.35783	7.16993
1611.000	1.22160	6.82947	-0.28864	7.16802
1612.000	1.10501	6.71599	-0.29259	7.14451
1613.000	1.10698	6.75522	-0.32225	7.09356
1614.000	1.14651	6.77474	-0.33213	7.19540
1615.000	1.12082	6.73753	-0.25305	7.14062
1616.000	1.12279	6.73949	-0.23922	7.07990
1617.000	1.14848	6.74139	-0.30050	7.18368
1618.000	1.14848	6.68842	-0.31236	7.18758
1619.000	1.06351	6.65329	-0.35981	7.07982
1620.000	1.03386	6.64550	-0.41319	7.15813
1621.000	1.14848	6.64329	-0.40528	7.08370
1622.000	1.07932	6.63363	-0.34993	7.12880
1623.000	1.19789	6.63532	-0.41714	7.11895
1624.000	1.22160	6.71767	-0.27876	7.07204
1625.000	1.17615	6.65696	-0.33806	7.10335
1626.000	1.22951	6.71177	-0.37167	7.12095
1627.000	1.30262	6.62721	-0.27480	7.17194
1628.000	1.12477	6.62764	-0.25899	7.25027
1629.000	1.06153	6.54337	-0.25503	7.18958
1630.000	1.09315	6.62968	-0.32225	7.07985
1631.000	1.15837	6.66878	-0.17398	7.10344
1632.000	1.17220	6.59024	-0.31039	7.13079
1633.000	1.15244	6.55888	-0.30248	7.14059
1634.000	1.16825	6.68837	-0.29852	7.14059
1635.000	1.19196	6.63337	-0.30841	7.13079
1636.000	1.16232	6.54708	-0.40528	7.17968
1637.000	1.08129	6.68072	-0.30248	7.15822
1638.000	1.17220	6.62361	-0.26689	7.06029
1639.000	1.18406	6.61180	-0.24712	7.13474
1640.000	1.25322	6.73721	-0.25701	7.21699
1641.000	1.10106	6.59237	-0.26887	7.13082
1642.000	1.09315	6.52367	-0.20165	7.12497
1643.000	1.22951	6.66076	-0.32422	7.14253
1644.000	1.06746	6.52962	-0.24317	7.17000
1645.000	1.12872	6.63156	-0.25899	7.18566
1646.000	1.14453	6.60012	-0.26887	7.06813
1647.000	1.18801	6.66478	-0.34597	7.15818
1648.000	1.12082	6.56092	-0.32620	7.03870
1649.000	1.13268	6.58248	-0.25305	7.06814
1650.000	1.18801	6.68244	-0.24515	7.19937
1651.000	1.20579	6.53127	-0.25305	7.08969
1652.000	1.18801	6.59609	-0.26294	7.21699
1653.000	1.16825	6.64324	-0.26294	7.08380
1654.000	1.24729	6.52136	-0.33411	7.02302
1655.000	1.15441	6.69625	-0.30446	7.13667
1656.000	1.15244	6.62365	-0.34004	7.20323
1657.000	1.23346	6.68233	-0.25701	7.11907
1658.000	1.11094	6.66692	-0.28864	7.04460
1659.000	1.12675	6.54520	-0.23131	7.14455
1660.000	1.12279	6.61980	-0.29655	7.17976
1661.000	1.22951	6.66272	-0.24910	7.08185
1662.000	1.21370	6.52340	-0.30643	7.09553
1663.000	1.16034	6.59616	-0.28864	7.24634
1664.000	1.07734	6.63952	-0.22538	7.10929
1665.000	1.21963	6.59602	-0.28271	7.10534
1666.000	1.16825	6.62558	-0.24910	7.20720
1667.000	1.20579	6.61568	-0.21154	7.13476
1668.000	1.24136	6.54297	-0.22933	7.01916
1669.000	1.21172	6.49395	-0.25305	7.07989
1670.000	1.17615	6.68051	-0.24119	7.09165
1671.000	1.25124	6.72545	-0.26887	7.08184
1672.000	1.11094	6.75913	-0.26492	7.07792
1673.000	1.19789	6.58626	-0.17595	7.11911
1674.000	1.27298	6.67831	-0.23922	7.13279
1675.000	1.24334	6.62344	-0.18386	7.01330
1676.000	1.24729	6.60773	-0.26492	7.19741
1677.000	1.21172	6.56856	-0.35388	7.14251
1678.000	1.17418	6.67462	-0.26294	7.09556
1679.000	1.22951	6.48213	-0.18584	7.03486
1680.000	1.29867	6.63507	-0.20758	7.07208
1681.000	1.15639	6.73352	-0.29259	7.15822
1682.000	1.19394	6.68243	-0.25108	7.06226
1683.000	1.22753	6.66861	-0.33016	7.11511
1684.000	1.18998	6.65104	-0.32225	7.18562
1685.000	1.13465	6.66687	-0.29259	7.07791
1686.000	1.21567	6.65687	-0.26689	7.14844
1687.000	1.17220	6.71779	-0.30248	7.16409
1688.000	1.14848	6.56282	-0.23724	7.06227
1689.000	1.16232	6.59223	-0.22735	7.14455
1690.000	1.05165	6.70041	-0.37958	7.16403
1691.000	1.16429	6.67465	-0.32422	7.14645
1692.000	1.18406	6.59414	-0.26096	7.11123
1693.000	1.21370	6.62351	-0.18584	7.19549
1694.000	1.22951	6.63328	-0.27678	7.17586
1695.000	1.20777	6.61371	-0.26096	7.12103
1696.000	1.09710	6.68657	-0.21352	7.08187
1697.000	1.16825	6.76292	-0.21549	7.10146
1698.000	1.09315	6.64341	-0.33016	7.13273
1699.000	1.07932	6.65325	-0.31829	7.11120
1700.000	1.30064	6.75278	-0.22340	7.12300
1701.000	1.13268	6.66883	-0.17002	7.20137
1702.000	1.14651	6.61582	-0.22933	7.08186
1703.000	1.14651	6.73943	-0.29655	7.10533
1704.000	1.12082	6.76891	-0.30050	7.16997
1705.000	1.05758	6.63956	-0.17991	7.08776
1706.000	1.14651	6.67273	-0.15421	7.10932
1707.000	1.10698	6.66301	-0.27480	7.16607
1708.000	1.15639	6.70606	-0.26887	7.25810
1709.000	1.18010	6.71581	-0.34795	7.09158
1710.000	1.06746	6.63954	-0.13444	7.06035
1711.000	1.18208	6.64321	-0.20561	7.06424
1712.000	1.10501	6.66890	-0.30841	7.23850
1713.000	1.04769	6.64155	-0.24910	7.14650
1714.000	1.05560	6.66704	-0.19177	7.12302
1715.000	1.07339	6.64346	-0.18584	7.13869
1716.000	1.08327	6.68072	-0.24515	7.21112
1717.000	1.08327	6.77685	-0.27085	7.24439
1718.000	1.28088	6.81559	-0.18386	7.11714
1719.000	1.16034	6.67270	-0.15421	7.10932
1720.000	1.11884	6.78461	-0.29655	7.11513
1721.000	1.13268	6.75320	-0.26887	7.09947
1722.000	1.12082	6.77676	-0.29062	7.12884
1723.000	1.14256	6.63741	-0.26294	7.16216
1724.000	1.16034	6.78647	-0.19375	7.10147
1725.000	1.14453	6.83750	-0.22340	7.08970
1726.000	1.17022	6.73545	-0.22933	7.22092
1727.000	1.20382	6.73733	-0.21154	7.15827
1728.000	1.14256	6.81986	-0.29062	7.15039
1729.000	1.01212	6.82211	-0.12850	7.14263
1730.000	1.19591	6.77658	-0.17991	7.19549
1731.000	1.11489	6.82972	-0.28666	7.06616
1732.000	1.16627	6.83549	-0.18781	7.11127
1733.000	1.23741	6.73921	-0.28469	7.18956
1734.000	1.10501	6.73953	-0.32225	7.11119
1735.000	1.12082	6.75911	-0.18781	7.19549
1736.000	1.18603	6.72561	-0.11664	7.18180
1737.000	1.20579	6.76675	-0.14432	7.20138
1738.000	1.12477	6.74144	-0.26492	7.08772
1739.000	1.18208	6.93151	-0.25899	7.21307
1740.000	1.17813	6.76878	-0.22142	7.13084
1741.000	1.09710	6.73955	-0.21549	7.12693
1742.000	1.04374	6.74947	-0.21945	7.14063
1743.000	1.15244	6.84532	-0.24515	7.19937
1744.000	1.15441	6.76099	-0.34597	7.10922
1745.000	1.13663	6.84340	-0.30248	7.11708
1746.000	1.17615	6.88056	-0.27282	7.08968
1747.000	1.08920	6.77095	-0.28271	7.16410
1748.000	1.07932	6.81608	-0.14432	7.06426
1749.000	1.11094	6.83562	-0.20758	7.02309
1750.000	1.16825	6.79038	-0.31632	7.16212
1751.000	1.07339	6.83766	-0.33806	7.16407
1752.000	1.18208	6.85310	-0.25108	7.17783
1753.000	1.07339	6.78275	-0.43493	7.16594
1754.000	1.18801	6.83151	-0.30248	7.24633
1755.000	1.24136	6.82354	-0.26492	7.17586
1756.000	1.17220	6.75506	-0.29852	7.31093
1757.000	1.24927	6.81175	-0.13839	7.23662
1758.000	1.22160	6.81966	-0.25701	7.21503
1759.000	1.18603	6.78053	-0.22538	7.19155
1760.000	1.12872	6.80420	-0.33411	7.26001
1761.000	1.21765	6.82948	-0.21154	7.15631
1762.000	1.09513	6.75132	-0.27876	7.28354
1763.000	1.26508	6.83328	-0.29852	7.21892
1764.000	1.21172	6.90595	-0.21549	7.22289
1765.000	1.28088	6.83128	-0.21549	7.27183
1766.000	1.25322	6.77056	-0.25899	7.13670
1767.000	1.15441	6.71391	-0.29457	7.15039
1768.000	1.35992	6.80753	-0.27282	7.16215
1769.000	1.11884	6.74930	-0.30841	7.23850
1770.000	1.12082	6.84736	-0.17002	7.17003
1771.000	1.18208	6.80996	-0.21549	7.28162
1772.000	1.14651	6.80416	-0.34004	7.23064
1773.000	1.20382	6.79029	-0.21747	7.25617
1774.000	1.16429	6.84530	-0.17991	7.32469
1775.000	1.18801	6.75895	-0.13839	7.20334
1776.000	1.24334	6.83922	-0.31632	7.23458
1777.000	1.18998	6.83543	-0.21154	7.30707
1778.000	1.20579	6.80401	-0.18979	7.17003
1779.000	1.15046	6.84141	-0.26294	7.17391
1780.000	1.20579	6.74910	-0.23131	7.15238
1781.000	1.24927	6.70976	-0.24317	7.25811
1782.000	1.24729	6.83529	-0.17398	7.20724
1783.000	1.14453	6.89436	-0.32225	7.18562
1784.000	1.25717	6.72347	-0.34993	7.21889
1785.000	1.21765	6.78045	-0.21747	7.21701
1786.000	1.20777	6.79813	-0.27085	7.25222
1787.000	1.25322	6.83919	-0.22538	7.13084
1788.000	1.24532	6.92155	-0.21154	7.13476
1789.000	1.32831	6.85272	-0.24910	7.16216
1790.000	1.12872	6.83950	-0.22933	7.25029
1791.000	1.19591	6.84130	-0.20956	7.24247
1792.000	1.26508	6.85485	-0.36772	7.23062
1793.000	1.07734	6.79255	-0.30248	7.12296
1794.000	1.19987	6.84129	-0.27282	7.30116
1795.000	1.18010	6.87467	-0.23724	7.32662
1796.000	1.25124	6.90389	-0.35388	7.26196
1797.000	1.18010	6.87075	-0.27876	7.30311
1798.000	1.27100	6.79797	-0.25305	7.33444
1799.000	1.35004	6.76638	-0.03559	7.18769
1800.000	1.40142	6.55825	0.14432	7.11128
1801.000	1.54959	6.44984	0.37167	7.12095
1802.000	1.62664	6.29837	0.46459	7.12283
1803.000	1.83008	6.17784	0.62471	6.96197
1804.000	1.80441	6.03244	0.86586	6.80082
1805.000	1.84983	5.89657	1.13663	6.52162
1806.000	1.93278	5.77232	1.40932	6.38544
1807.000	1.94660	5.67188	1.36980	6.26962
1808.000	2.16181	5.66522	1.46662	6.25168
1809.000	2.36908	5.62307	1.68590	6.11737
1810.000	2.51511	5.49252	1.76886	5.99912
1811.000	2.57825	5.33270	1.83601	5.94186
1812.000	2.71437	5.34000	1.90908	5.85309
1813.000	2.92737	5.21295	1.89723	5.85510
1814.000	3.00229	4.96621	2.09271	5.78554
1815.000	3.21518	4.99873	2.31973	5.63508
1816.000	3.16788	5.08174	2.27631	5.52105
1817.000	3.33341	5.01785	2.52892	5.43338
1818.000	3.52844	4.91238	2.64927	5.15701
1819.000	3.67810	4.74402	2.73409	5.06991
1820.000	3.67416	4.56851	2.77354	4.98101
1821.000	3.74700	4.39253	2.88793	4.66881
1822.000	3.74700	4.15760	2.82680	4.39261
1823.000	3.78637	3.94805	2.94117	4.10171
1824.000	3.78834	3.83146	2.94906	3.98109
1825.000	3.83361	3.60394	2.91357	3.85663
1826.000	3.89068	3.48111	2.94906	3.69430
1827.000	3.88478	3.42378	3.02201	3.55356
1828.000	3.87297	3.16863	3.14029	3.41265
1829.000	3.95562	3.22965	3.20730	3.32929
1830.000	4.03431	3.09480	3.04172	2.96538
1831.000	4.12086	3.04896	3.20927	2.80244
1832.000	4.14250	2.89057	3.25460	2.72702
1833.000	4.06185	2.51267	3.20533	2.57255
1834.000	4.11889	2.31838	3.11663	2.60250
1835.000	4.18183	2.06658	3.25460	2.45149
1836.000	4.27228	1.99104	3.24868	2.24925
1837.000	4.16610	1.71977	3.23489	2.15805
1838.000	4.11889	1.71590	3.25263	2.07669
1839.000	4.25655	1.69182	3.14029	1.98565
1840.000	4.21722	1.57494	3.20139	1.74743
1841.000	4.25458	1.50944	3.11860	1.54313
1842.000	4.31159	1.35469	3.13240	1.59670
1843.000	4.29980	1.31704	3.12255	1.41806
1844.000	4.27031	1.08705	3.09692	1.38633
1845.000	4.35091	1.03141	3.08115	1.21162
1846.000	4.40201	0.93616	3.14029	1.22942
1847.000	4.34501	0.95210	3.16788	1.14798
1848.000	4.31159	0.97792	3.07327	1.29503
1849.000	4.31356	0.91247	3.08509	1.40421
1850.000	4.35681	0.90449	3.07918	1.35061
1851.000	4.38432	0.98973	3.09692	1.40420
1852.000	4.33125	0.97591	3.11072	1.28902
1853.000	4.38825	0.94014	3.08904	1.40222
1854.000	4.30570	0.84108	3.02201	1.55320
1855.000	4.29587	0.92439	3.07129	1.58092
1856.000	4.35287	0.85491	3.09692	1.62455
1857.000	4.22312	0.81538	3.05552	1.61667
1858.000	4.22312	0.72017	3.09495	1.59478
1859.000	4.28211	0.71019	3.10481	1.59476
1860.000	4.24475	0.68444	3.11860	1.52328
1861.000	4.22509	0.72413	3.06932	1.51938
1862.000	4.25655	0.68840	3.08904	1.54119
1863.000	4.21526	0.61107	3.09889	1.48360
1864.000	4.14840	0.61310	3.08706	1.56501
1865.000	4.25851	0.80741	3.02792	1.59091
1866.000	4.16610	0.63690	3.16394	1.69589
1867.000	4.15430	0.62302	3.09692	1.68211
1868.000	4.19559	0.70631	3.05552	1.54124
1869.000	4.20149	0.70630	3.10481	1.63446
1870.000	4.07562	0.80165	3.03975	1.67823
1871.000	4.16806	0.77775	2.89582	1.70028
1872.000	4.12873	0.72621	3.07129	1.58092
1873.000	3.98513	0.74419	3.01018	1.57902
1874.000	3.97136	0.80175	3.07327	1.52533
1875.000	4.14250	0.78373	3.01807	1.65444
1876.000	4.12873	0.81747	2.97863	1.69222
1877.000	4.11693	0.84525	3.02792	1.76558
1878.000	4.11693	0.91865	3.01018	1.59887
1879.000	4.11496	0.83930	2.95103	1.66447
1880.000	4.07169	0.88299	2.97469	1.67039
1881.000	4.10906	0.79169	3.04764	1.66829
1882.000	4.05595	0.92071	2.94906	1.67440
1883.000	4.09136	0.86115	2.96878	1.81331
1884.000	4.16413	0.95034	3.00229	1.76761
1885.000	4.04021	0.85922	2.97075	1.74185
1886.000	4.10316	0.96033	2.93920	1.69823
1887.000	4.10513	0.96429	2.96483	1.68231
1888.000	4.08152	0.93457	2.95892	1.80340
1889.000	3.98316	0.95254	2.87807	1.75192
1890.000	4.05005	1.01793	2.95300	1.71211
1891.000	4.11693	0.98809	3.01412	1.76759
1892.000	4.03235	0.95843	2.97272	1.71803
1893.000	4.07956	0.96036	2.93723	1.78955
1894.000	4.05202	0.90484	2.90173	1.68241
1895.000	3.99693	0.86919	2.95497	1.68431
1896.000	4.06579	0.98220	2.84849	1.73807
1897.000	4.05595	1.08933	2.87413	1.67252
1898.000	4.03038	1.02390	2.94117	1.78557
1899.000	4.07956	1.03574	2.86427	1.76386
1900.000	3.98906	1.00213	2.87215	1.63878
1901.000	3.97333	1.00810	2.88596	1.65662
1902.000	3.97726	0.97040	2.91948	1.71017
1903.000	3.89462	1.08359	2.90962	1.68240
1904.000	4.08546	1.00003	2.89385	1.70029
1905.000	3.99890	1.09139	2.89385	1.68441
1906.000	4.07366	1.05162	2.90173	1.69233
1907.000	4.05989	1.05957	2.84454	1.79565
1908.000	3.96742	1.06168	2.77946	1.83942
1909.000	4.05792	1.03974	2.95300	1.80143
1910.000	4.01661	0.99614	2.95497	1.75974
1911.000	3.97333	1.05572	2.89385	1.74197
1912.000	3.90642	1.07763	2.86229	1.74401
1913.000	3.95758	1.14502	2.85638	1.68843
1914.000	3.96939	1.05771	2.88793	1.72015
1915.000	4.02448	1.08739	2.89187	1.76977
1916.000	3.96545	1.07755	2.83468	1.82147
1917.000	4.01661	1.20048	3.00426	1.75371
1918.000	4.02448	1.13699	2.92145	1.69032
1919.000	4.10119	1.19837	2.97075	1.63466
1920.000	4.11496	1.15273	2.89779	1.68043
1921.000	4.04415	1.08340	2.89187	1.73999
1922.000	3.98316	1.19854	2.86229	1.80356
1923.000	4.02448	1.13699	2.83666	1.78176
1924.000	4.13856	1.18443	2.91948	1.67047
1925.000	3.84935	1.13921	3.00229	1.67035
1926.000	4.11496	1.11107	2.88399	1.71023
1927.000	4.00480	1.05568	2.91751	1.73797
1928.000	3.99693	1.07156	2.80510	1.73417
1929.000	4.05005	1.17067	2.91357	1.85111
1930.000	4.08546	1.10318	2.94314	1.73793
1931.000	3.95562	1.08352	2.94709	1.74586
1932.000	3.89659	1.09550	2.87018	1.74797
1933.000	3.93397	1.05775	2.89582	1.78564
1934.000	3.93201	1.02799	2.91159	1.75783
1935.000	3.98316	1.04380	2.92145	1.73796
1936.000	3.94971	1.05773	2.97666	1.79147
1937.000	3.94775	1.06964	2.84652	1.70433
1938.000	3.98513	1.07356	2.89779	1.58315
1939.000	3.99693	1.08743	2.90765	1.86899
1940.000	3.98119	1.04380	2.84652	1.84130
1941.000	4.05399	1.20241	2.98652	1.76366
1942.000	3.93594	1.07759	2.96286	1.68033
1943.000	3.93201	1.08751	2.82482	1.83339
1944.000	3.96545	1.01406	2.92737	1.73994
1945.000	3.98316	1.01801	2.91554	1.73400
1946.000	3.98710	1.03983	2.92145	1.76377
1947.000	4.01661	1.08542	2.92934	1.74390
1948.000	3.93004	1.06966	2.90173	1.83129
1949.000	4.02251	1.06161	2.88201	1.68641
1950.000	4.04415	1.04967	2.90568	1.75784
1951.000	3.96545	1.02200	2.92737	1.76971
1952.000	4.00087	1.07155	2.88399	1.75191
1953.000	3.99693	1.07156	2.86032	1.78371
1954.000	3.98316	1.09538	2.93723	1.81535
1955.000	3.96349	0.93073	2.94906	1.72799
1956.000	4.02448	1.08739	2.86032	1.86509
1957.000	4.08546	1.03970	2.89582	1.93053
1958.000	3.95562	1.02796	2.86624	1.83134
1959.000	4.00677	1.02592	2.76763	1.89899
1960.000	3.98513	1.01602	2.83271	1.76589
1961.000	4.08546	1.05756	2.88004	1.74795
1962.000	3.98119	1.00412	2.88201	1.85910
1963.000	4.08939	1.13293	2.87413	1.87698
1964.000	4.11889	1.05751	2.85046	1.80953
1965.000	4.11299	1.09719	2.88596	1.72412
1966.000	4.06382	1.13495	2.93131	1.71214
1967.000	4.14250	1.18641	2.85835	1.67453
1968.000	4.11299	0.96230	2.81496	1.62099
1969.000	4.09726	1.07738	2.83271	1.85323
1970.000	4.05792	1.07743	2.89976	1.77770
1971.000	3.98513	1.12117	2.76960	1.79378
1972.000	4.17199	1.09116	2.90962	1.77569
1973.000	4.05792	1.06553	2.95300	1.78952
1974.000	4.11693	1.04561	2.91751	1.81935
1975.000	4.02054	0.99019	2.92145	1.86499
1976.000	4.12086	1.09321	2.89385	1.79755
1977.000	4.13266	1.08725	2.86032	1.69835
1978.000	4.08939	1.08334	2.81102	1.74210
1979.000	4.02448	1.09136	2.85638	1.63284
1980.000	4.03825	1.02984	2.84849	1.84923
1981.000	4.01071	1.13701	2.88201	1.74795
1982.000	4.04612	1.11315	2.84652	1.77182
1983.000	4.07169	1.04567	2.89385	1.71815
1984.000	4.04415	1.05563	2.81693	1.71430
1985.000	4.02841	0.99415	2.81693	1.72224
1986.000	4.05399	1.06355	2.84652	1.70830
1987.000	4.12086	0.99601	2.82088	1.67459
1988.000	4.12480	1.07536	2.82088	1.88699
1989.000	3.96742	1.04779	2.75185	1.70248
1990.000	4.13660	1.05749	2.84652	1.82145
1991.000	4.05202	1.09529	2.96089	1.71408
1992.000	4.02251	1.06161	2.82680	1.79369
1993.000	3.97726	1.13110	2.70451	1.82365
1994.000	3.94381	1.16091	2.70845	1.87923
1995.000	3.95168	1.15891	2.71240	1.85540
1996.000	3.89659	1.09947	2.70451	1.90703
1997.000	3.94184	1.23034	2.74790	1.93673
1998.000	3.94578	1.24422	2.88596	1.87101
1999.000	3.96349	1.24023	2.92540	1.77170
2000.000	4.09136	1.25590	3.07918	1.88655
2001.000	4.18379	1.04354	3.14620	1.74157
2002.000	4.23099	0.89075	3.38070	1.50899
2003.000	4.26834	0.77368	3.63281	1.52843
2004.000	4.40594	0.42844	3.76078	1.26632
2005.000	4.55528	0.29945	4.02644	1.05366
2006.000	4.68099	0.19431	4.25655	1.02163
2007.000	4.97347	0.26162	4.32535	1.12267
2008.000	5.15786	0.21003	4.78898	0.77114
2009.000	5.13237	0.05746	5.09706	0.60634
2010.000	5.46167	-0.08318	5.28530	0.19612
2011.000	5.54394	-0.14257	5.47734	0.06337
2012.000	5.72212	-0.31474	5.51064	-0.04753
2013.000	5.93147	-0.53030	5.59486	-0.09306
2014.000	6.01752	-0.56187	5.73973	-0.17419
2015.000	6.20125	-0.66451	5.64381	-0.15640
2016.000	6.26963	-0.62290	5.82192	-0.19792
2017.000	6.47076	-0.55941	5.90018	-0.19591
2018.000	6.65612	-0.59279	5.91974	-0.15237
2019.000	6.81015	-0.69333	6.15826	-0.35405
2020.000	6.95046	-0.83726	6.20712	-0.37775
2021.000	7.09651	-0.77976	6.31065	-0.60703
2022.000	7.07704	-1.13309	6.37119	-0.81058
2023.000	7.17048	-1.14864	6.61906	-0.81215
2024.000	7.17243	-1.23940	6.50979	-1.15023
2025.000	7.22886	-1.30829	6.64051	-1.13215
2026.000	7.24248	-1.36545	6.61906	-1.19739
2027.000	7.34557	-1.56232	6.60150	-1.46605
2028.000	7.29111	-1.72813	6.59565	-1.69317
2029.000	7.34752	-1.84027	6.61906	-1.67532
2030.000	7.40974	-1.92869	6.51760	-1.78427
2031.000	7.59047	-2.15242	6.65222	-2.05026
2032.000	7.55744	-2.34555	6.53516	-2.08232
2033.000	7.56521	-2.47150	6.47076	-2.24445
2034.000	7.58852	-2.44972	6.42391	-2.21703
2035.000	7.57492	-2.62890	6.31846	-2.33791
2036.000	7.59629	-2.66419	6.30870	-2.33598
2037.000	7.52635	-2.76105	6.20321	-2.30486
2038.000	7.55550	-2.74906	6.16803	-2.42348
2039.000	7.45445	-2.83825	6.22275	-2.51009
2040.000	7.48943	-2.73767	6.14849	-2.33274
2041.000	7.41946	-3.06081	6.15045	-2.52030
2042.000	7.52635	-2.95975	6.14458	-2.61509
2043.000	7.54190	-2.98129	6.18562	-2.47868
2044.000	7.59047	-2.92981	6.02339	-2.50115
2045.000	7.50109	-3.05631	6.23642	-2.50608
2046.000	7.50886	-2.95594	6.22861	-2.54559
2047.000	7.49526	-3.04455	6.11136	-2.41782
2048.000	7.60600	-2.98281	6.18367	-2.43526
2049.000	7.48166	-2.92465	6.11136	-2.33488
2050.000	7.49137	-2.94229	6.24033	-2.36393
2051.000	7.47971	-2.95614	6.06640	-2.29360
2052.000	7.51858	-2.93227	6.16999	-2.30698
2053.000	7.53413	-3.02264	6.12504	-2.30915
2054.000	7.42918	-3.07058	6.20516	-2.35619
2055.000	7.42529	-2.99782	6.16217	-2.33071
2056.000	7.56133	-3.06178	6.18758	-2.42142
2057.000	7.55355	-3.03824	6.18367	-2.31679
2058.000	7.38641	-3.14760	6.12308	-2.39802
2059.000	7.29111	-3.09318	6.07031	-2.38838
2060.000	7.27750	-3.18968	6.14654	-2.35842
2061.000	7.44473	-3.12948	6.10354	-2.35664
2062.000	7.36891	-3.15165	6.16022	-2.35046
2063.000	7.36113	-3.01006	6.07031	-2.44367
2064.000	7.30278	-3.14622	6.13090	-2.35849
2065.000	7.37863	-3.12208	6.23056	-2.55348
2066.000	7.37863	-3.03158	6.00188	-2.34128
2067.000	7.30862	-3.05567	6.05076	-2.45364
2068.000	7.32612	-3.05359	5.95690	-2.36912
2069.000	7.29889	-3.03606	5.98819	-2.31961
2070.000	7.28528	-3.07944	6.04685	-2.28973
2071.000	7.31056	-3.08517	6.04880	-2.36873
2072.000	7.29111	-3.03021	6.06053	-2.28770
2073.000	7.26777	-2.98117	5.99406	-2.26230
2074.000	7.31834	-2.88440	5.97059	-2.38289
2075.000	7.27555	-2.94372	5.95299	-2.12811
2076.000	7.27555	-2.81774	5.96472	-2.26637
2077.000	7.32612	-2.92371	6.06249	-2.25806
2078.000	7.30473	-3.01241	6.05271	-2.32328
2079.000	7.31445	-2.92969	6.04685	-2.26998
2080.000	7.31251	-2.88247	6.01948	-2.25231
2081.000	7.25804	-2.98320	6.00774	-2.37088
2082.000	7.22497	-2.95193	5.95886	-2.07276
2083.000	7.25026	-2.86121	5.89627	-2.30419
2084.000	7.31251	-2.90805	6.05271	-2.14550
2085.000	7.19383	-2.93835	5.99797	-2.36500
2086.000	7.26193	-2.93003	6.05662	-2.19092
2087.000	7.14518	-2.90322	5.99210	-2.25440
2088.000	7.22108	-2.95589	5.98232	-2.16751
2089.000	7.21524	-2.82009	5.96472	-2.21698
2090.000	7.25999	-2.94579	5.91778	-2.23297
2091.000	7.27166	-2.83548	5.98037	-2.18728
2092.000	7.25221	-2.75292	5.98037	-2.24062
2093.000	7.22302	-2.84563	5.93734	-2.25265
2094.000	7.14129	-2.88356	5.94908	-2.07872
2095.000	7.25804	-2.78635	5.90800	-2.22116
2096.000	7.27166	-2.84533	5.96081	-2.09054
2097.000	7.29889	-2.91405	6.04098	-2.27790
2098.000	7.25999	-2.85918	6.00383	-2.17928
2099.000	7.24637	-2.85730	5.89235	-2.25876
2100.000	7.19578	-2.88912	5.90213	-2.11052
2101.000	7.23470	-2.71955	5.89431	-2.17576
2102.000	7.22497	-2.82593	6.02339	-2.31748
2103.000	7.20356	-2.79850	6.06249	-2.15337
2104.000	7.14518	-2.84612	5.99015	-2.29590
2105.000	7.15296	-2.82047	5.93930	-2.20918
2106.000	7.23470	-2.76287	5.83953	-2.26490
2107.000	7.20551	-2.80046	5.96668	-2.19129
2108.000	7.19189	-2.83795	5.93734	-2.19140
2109.000	7.22691	-2.65855	5.98623	-2.14774
2110.000	7.23859	-2.64666	5.94125	-2.22498
2111.000	7.22302	-2.84563	5.93930	-2.11433
2112.000	7.29889	-2.64434	5.93539	-2.18351
2113.000	7.26972	-2.71540	5.93147	-2.20526
2114.000	7.29500	-2.73297	5.92170	-2.14206
2115.000	7.27166	-2.75083	5.98428	-2.30382
2116.000	7.21524	-2.73936	5.89627	-2.20342
2117.000	7.25999	-2.75877	5.93539	-2.21512
2118.000	7.28722	-2.67591	5.89235	-2.21924
2119.000	7.26777	-2.76266	5.96668	-2.17745
2120.000	7.23470	-2.78846	6.00970	-2.17333
2121.000	7.19773	-2.77491	6.04098	-2.27790
2122.000	7.31445	-2.76631	5.98232	-2.11614
2123.000	7.28333	-2.70153	6.00774	-2.22668
2124.000	7.28333	-2.79998	5.99406	-2.03508
2125.000	7.24248	-2.68406	5.94517	-2.23286
2126.000	7.26777	-2.69375	5.90213	-2.26267
2127.000	7.17243	-2.71007	5.91387	-2.06107
2128.000	7.25804	-2.70365	6.04685	-2.22455
2129.000	7.22302	-2.74128	5.95494	-2.26246
2130.000	7.28722	-2.67394	5.94517	-2.15185
2131.000	7.21719	-2.71178	5.88453	-2.13628
2132.000	7.22302	-2.77278	6.00188	-2.16151
2133.000	7.18410	-2.79074	6.03512	-2.12582
2134.000	7.21524	-2.69800	6.02339	-2.17525
2135.000	7.12766	-2.69458	5.96668	-2.33155
2136.000	7.20746	-2.82407	5.97841	-2.14777
2137.000	7.19383	-2.70798	6.03707	-2.20286
2138.000	7.09067	-2.72041	5.98232	-2.24456
2139.000	7.12377	-2.76354	5.95494	-2.25258
2140.000	7.16075	-2.74953	5.95494	-2.21899
2141.000	7.12182	-2.82066	6.06053	-2.23832
2142.000	7.21524	-2.73542	6.03903	-2.25223
2143.000	7.24442	-2.79628	6.03316	-2.16138
2144.000	7.17243	-2.66674	6.02143	-2.24835
2145.000	7.15296	-2.75155	6.09767	-2.12162
2146.000	7.19773	-2.73159	5.95494	-2.09649
2147.000	7.08094	-2.77562	6.08008	-2.24416
2148.000	7.16659	-2.76919	5.95103	-2.18542
2149.000	7.17437	-2.72976	6.05858	-2.26005
2150.000	7.18605	-2.71590	6.13090	-2.17877
2151.000	7.08483	-2.80120	6.05662	-2.20870
2152.000	7.22691	-2.77670	6.05271	-2.18699
2153.000	7.24053	-2.79827	6.00579	-2.06468
2154.000	7.16270	-2.71407	6.06640	-2.20274
2155.000	7.17243	-2.79475	6.10549	-2.19270
2156.000	7.23664	-2.60138	5.96668	-2.12213
2157.000	7.23081	-2.67625	5.95886	-2.11821
2158.000	7.18216	-2.75334	6.03512	-2.32731
2159.000	7.26193	-2.68197	6.01752	-2.18120
2160.000	7.14907	-2.79293	6.10354	-2.12357
2161.000	7.19189	-2.79660	6.02143	-2.13772
2162.000	7.11793	-2.75176	6.04098	-2.22654
2163.000	7.19773	-2.82217	6.07031	-2.17111
2164.000	7.22302	-2.73734	5.99601	-2.13782
2165.000	7.19967	-2.69416	5.97059	-2.27030
2166.000	7.25026	-2.77065	6.09377	-2.19670
2167.000	7.25610	-2.86314	6.10745	-2.14133
2168.000	7.20940	-2.77090	6.07031	-2.08419
2169.000	7.15880	-2.67273	5.99406	-2.18920
2170.000	7.17632	-2.72581	6.07226	-2.16320
2171.000	7.21913	-2.67041	6.06640	-2.16520
2172.000	7.18216	-2.75728	6.11527	-2.07809
2173.000	7.14907	-2.84413	5.99406	-2.21093
2174.000	7.33585	-2.76224	6.05076	-2.11588
2175.000	7.20746	-2.80241	6.09963	-2.23025
2176.000	7.27555	-2.71536	6.09181	-2.27176
2177.000	7.14129	-2.78313	6.08986	-2.18289
2178.000	7.27944	-2.64642	5.99797	-2.14374
2179.000	7.25415	-2.80016	6.00970	-2.15555
2180.000	7.41751	-2.73418	5.98428	-2.08847
2181.000	7.18800	-2.75921	6.07422	-2.03478
2182.000	7.14518	-2.68660	5.96277	-2.17945
2183.000	7.19773	-2.72371	5.99406	-2.08843
2184.000	7.28722	-2.74876	5.96668	-2.04111
2185.000	7.24637	-2.81005	6.09377	-2.13546
2186.000	7.19967	-2.74930	6.04294	-2.10998
2187.000	7.23275	-2.68805	6.01361	-2.03896
2188.000	7.12961	-2.76351	6.08595	-2.12166
2189.000	7.25610	-2.76274	6.15435	-2.04830
2190.000	7.19189	-2.70996	6.07422	-2.02688
2191.000	7.19773	-2.57796	5.85323	-2.07711
2192.000	7.29111	-2.58728	6.14263	-1.95550
2193.000	7.21329	-2.58181	6.09767	-2.07223
2194.000	7.21135	-2.62713	6.01361	-2.15158
2195.000	7.23275	-2.70578	6.01948	-2.08636
2196.000	7.25610	-2.71154	6.10745	-2.13541
2197.000	7.23859	-2.67423	6.06835	-2.21656
2198.000	7.17437	-2.62340	6.01948	-2.18712
2199.000	7.18994	-2.62922	6.04880	-2.09020
2200.000	7.03810	-2.75420	5.97059	-2.01541
2201.000	7.07315	-2.75400	5.98232	-2.10033
2202.000	7.14907	-2.77520	5.97450	-2.10036
2203.000	7.18410	-2.80453	5.96863	-2.14979
2204.000	7.10235	-2.76170	6.01752	-2.14169
2205.000	7.11987	-2.74190	5.91974	-2.08279
2206.000	7.20746	-2.77682	6.01557	-2.16145
2207.000	7.12961	-2.73199	5.99797	-2.11806
2208.000	7.15880	-2.82438	5.91387	-2.06305
2209.000	7.09067	-2.67904	6.07031	-2.18889
2210.000	7.11209	-2.68088	5.99601	-2.17734
2211.000	7.04978	-2.74428	5.97646	-2.17149
2212.000	7.10625	-2.73213	5.99797	-2.10225
2213.000	7.12766	-2.70049	6.08008	-2.09798
2214.000	7.15686	-2.73183	6.04489	-2.14356
2215.000	7.25026	-2.76474	6.14849	-2.10759
2216.000	7.25026	-2.79034	5.99406	-2.21883
2217.000	7.21135	-2.72756	6.12113	-2.14325
2218.000	7.23081	-2.81605	6.03707	-2.12581
2219.000	7.18800	-2.78481	6.01557	-2.20492
2220.000	7.27361	-2.81972	6.03316	-2.23250
2221.000	7.19189	-2.76313	5.98037	-2.11615
2222.000	7.25415	-2.69186	6.00970	-2.14567
2223.000	7.03421	-2.76999	5.96081	-2.08066
2224.000	7.19773	-2.75522	6.00188	-2.25239
2225.000	7.18216	-2.79273	6.03121	-2.14361
2226.000	7.25610	-2.75486	5.99992	-2.07458
2227.000	7.16464	-2.73572	5.93147	-2.28824
2228.000	7.26582	-2.73314	6.00579	-2.08839
2229.000	7.14129	-2.73783	6.03316	-2.26608
2230.000	7.16659	-2.67860	5.98623	-2.10822
2231.000	7.14907	-2.72597	6.01165	-2.14962
2232.000	7.28139	-2.75471	6.01361	-2.27209
2233.000	7.04005	-2.59461	6.09767	-2.19076
2234.000	7.17437	-2.71006	6.01361	-2.05872
2235.000	7.20746	-2.65472	6.01948	-2.05672
2236.000	7.22691	-2.62901	5.95886	-1.97197
2237.000	7.02252	-2.68928	5.99992	-2.07260
2238.000	7.25221	-2.71157	6.03903	-2.12580
2239.000	7.16853	-2.61555	6.08008	-2.03476
2240.000	7.11403	-2.64739	5.98037	-2.08849
2241.000	7.23470	-2.68607	5.92561	-1.92663
2242.000	7.09846	-2.72627	5.92756	-2.07288
2243.000	7.19967	-2.73748	6.04880	-2.13169
2244.000	7.20162	-2.68430	6.09181	-2.02484
2245.000	7.23275	-2.67427	5.94125	-2.08666
2246.000	7.25026	-2.71158	6.05467	-2.16130
2247.000	7.15880	-2.71015	6.09767	-2.12952
2248.000	7.22497	-2.69991	6.03707	-1.94995
2249.000	7.16464	-2.74754	5.98232	-2.17344
2250.000	7.08094	-2.75986	5.97450	-1.96796
2251.000	7.10235	-2.77352	6.15240	-2.09770
2252.000	7.16464	-2.73966	6.06249	-2.16324
2253.000	7.10235	-2.75776	6.00188	-2.08248
2254.000	7.12377	-2.83050	6.03903	-2.11395
2255.000	7.16464	-2.72391	6.09572	-2.10385
2256.000	7.15880	-2.67667	5.99992	-2.21091
2257.000	7.28528	-2.74090	6.03903	-2.16136
2258.000	7.15686	-2.78303	6.00774	-2.01725
2259.000	7.08094	-2.85440	6.02339	-2.15550
2260.000	7.16075	-2.78301	5.93343	-2.01950
2261.000	7.22302	-2.82791	6.07813	-2.09601
2262.000	7.14129	-2.81267	6.00188	-2.10619
2263.000	7.11209	-2.87980	6.01752	-1.97374
2264.000	7.17243	-2.86761	5.92365	-2.06301
2265.000	7.19773	-2.80444	5.94517	-1.98981
2266.000	7.18800	-2.68241	6.03903	-1.94797
2267.000	7.10430	-2.62380	5.97255	-1.99366
2268.000	7.15491	-2.69245	6.04294	-2.12183
2269.000	7.18800	-2.67453	5.93734	-2.05901
2270.000	7.20551	-2.57792	6.12699	-2.02668
2271.000	7.20746	-2.54245	6.03903	-2.16926
2272.000	7.24637	-2.55405	6.07617	-2.07626
2273.000	7.12377	-2.60596	6.07226	-2.13752
2274.000	7.22497	-2.69204	6.08008	-2.02883
2275.000	7.21719	-2.59558	6.07813	-2.05650
2276.000	7.23081	-2.65065	6.10354	-2.05443
2277.000	7.16853	-2.63722	6.08399	-2.11970
2278.000	7.21524	-2.70785	6.20907	-2.07575
2279.000	7.17048	-2.63130	6.08595	-2.06635
2280.000	7.19383	-2.66859	6.06835	-2.08222
2281.000	7.12182	-2.72219	6.13090	-1.97925
2282.000	7.25415	-2.68005	6.12504	-2.09978
2283.000	7.18410	-2.60562	6.02339	-2.09425
2284.000	7.21135	-2.64879	6.15435	-2.02262
2285.000	7.22108	-2.57389	6.13872	-1.93378
2286.000	7.24053	-2.60135	6.06640	-2.00517
2287.000	7.21135	-2.66652	6.11527	-1.99906
2288.000	7.17827	-2.70216	6.14849	-1.93374
2289.000	7.20746	-2.60942	6.16999	-1.89020
2290.000	7.20356	-2.77881	6.15631	-1.95347
2291.000	7.29500	-2.59316	6.12113	-1.93779
2292.000	7.32418	-2.70129	6.20516	-1.98490
2293.000	7.32029	-2.66784	6.15631	-1.96532
2294.000	7.33196	-2.73668	6.08986	-2.01101
2295.000	7.28139	-2.62869	6.02339	-1.86898
2296.000	7.33196	-2.63430	6.12113	-2.01880
2297.000	7.28528	-2.61882	6.20907	-1.99871
2298.000	7.24637	-2.69388	6.00774	-1.90856
2299.000	7.34946	-2.57709	6.11527	-1.93979
2300.000	7.34946	-2.71098	5.99015	-1.83747
2301.000	7.26193	-2.64849	6.12895	-1.99111
2302.000	7.34752	-2.65783	6.12113	-1.93977
2303.000	7.34168	-2.71693	6.01948	-1.85120
2304.000	7.28722	-2.66410	6.03903	-2.01318
2305.000	7.27750	-2.77836	6.09963	-1.95961
2306.000	7.41168	-2.70272	6.12699	-1.99507
2307.000	7.33779	-2.63426	6.06444	-2.03087
2308.000	7.31251	-2.66198	6.06835	-2.03678
2309.000	7.28722	-2.74876	6.08986	-1.98138
2310.000	7.33390	-2.59884	6.08986	-2.01101
2311.000	7.14129	-2.71617	6.08595	-2.06437
2312.000	7.32029	-2.65799	5.97450	-2.00749
2313.000	7.26388	-2.73512	6.03512	-2.06852
2314.000	7.23275	-2.67033	6.04489	-1.93807
2315.000	7.25415	-2.76669	6.04880	-2.06254
2316.000	7.22691	-2.57780	6.05858	-2.08028
2317.000	7.33779	-2.72877	6.09572	-2.01494
2318.000	7.28333	-2.67987	6.02143	-2.03103
2319.000	7.21524	-2.70785	5.97059	-2.01343
2320.000	7.18605	-2.64894	5.91387	-2.01364
2321.000	7.25026	-2.72930	5.96863	-1.96798
2322.000	7.24053	-2.67816	6.01361	-1.92632
2323.000	7.19383	-2.78281	6.07813	-1.89052
2324.000	7.27166	-2.60708	6.08399	-1.98535
2325.000	7.14129	-2.59798	5.93147	-2.01357
2326.000	7.18216	-2.67260	5.97841	-2.02131
2327.000	7.18216	-2.64896	5.99797	-2.10620
2328.000	7.21913	-2.71373	5.94125	-1.95425
2329.000	7.18021	-2.75138	5.89822	-1.93266
2330.000	7.18216	-2.75334	5.95299	-1.89096
2331.000	7.17632	-2.66672	5.99797	-2.05285
2332.000	7.17632	-2.64112	6.00774	-2.03503
2333.000	7.16464	-2.67467	6.00970	-2.09430
2334.000	7.13155	-2.69259	5.99601	-2.04891
2335.000	7.10819	-2.70060	5.90800	-2.04923
2336.000	7.18216	-2.64108	6.08399	-2.19674
2337.000	7.12961	-2.59805	5.95886	-2.07474
2338.000	7.28722	-2.55973	6.01557	-2.12392
2339.000	7.13350	-2.68667	6.08595	-2.16117
2340.000	7.14518	-2.60584	6.03707	-2.12976
2341.000	7.17632	-2.56626	6.05467	-2.19488
2342.000	7.20746	-2.60154	6.03903	-2.14556
2343.000	7.17243	-2.68644	6.07813	-2.21454
2344.000	7.26582	-2.60318	6.02143	-2.14760
2345.000	7.26388	-2.62288	6.08008	-2.16515
2346.000	7.17437	-2.62734	6.01165	-2.19901
2347.000	7.24248	-2.62695	5.98819	-2.09636
2348.000	7.15491	-2.72199	6.05271	-2.11784
2349.000	7.18021	-2.62534	6.06640	-2.16323
2350.000	7.16270	-2.71407	5.98819	-2.15761
2351.000	7.10819	-2.72424	6.06640	-2.14150
2352.000	7.20551	-2.71382	5.96277	-2.07472
2353.000	7.25221	-2.66234	6.05076	-2.08822
2354.000	7.22497	-2.69401	6.03512	-2.01122
2355.000	7.07899	-2.74214	5.94517	-1.98190
2356.000	7.20551	-2.72169	6.02143	-2.14167
2357.000	7.23275	-2.79635	5.95886	-2.02731
2358.000	7.33001	-2.72291	6.08595	-2.19080
2359.000	7.33196	-2.80361	6.14067	-2.08984
2360.000	7.32807	-2.83906	6.02143	-2.13180
2361.000	7.38835	-2.78554	6.01557	-2.14960
2362.000	7.34557	-2.59090	6.17781	-2.28720
2363.000	7.24248	-2.52847	6.00188	-2.26029
2364.000	7.17437	-2.55446	5.98428	-2.23863
2365.000	6.96020	-2.46497	5.64577	-2.21230
2366.000	6.82575	-2.41638	5.39701	-2.15785
2367.000	6.47271	-2.41022	5.14806	-2.11914
2368.000	6.36533	-2.23900	5.00486	-2.14138
2369.000	6.00383	-2.34917	4.64956	-2.05339
2370.000	5.65947	-2.35456	4.32142	-2.15535
2371.000	5.42053	-2.54925	3.91823	-2.07320
2372.000	5.20296	-2.52445	3.76865	-1.99227
2373.000	4.94600	-2.49578	3.49298	-1.92941
2374.000	4.89498	-2.50982	3.30583	-1.97145
2375.000	4.68099	-2.41560	3.19547	-1.83475
2376.000	4.46490	-2.27574	3.01412	-1.90056
2377.000	4.44525	-2.29957	3.03581	-1.98585
2378.000	4.41380	-2.21055	3.00821	-1.89065
2379.000	4.15823	-2.13203	2.88990	-1.79359
2380.000	4.07562	-2.05298	2.71437	-1.73827
2381.000	3.98906	-2.09680	2.51905	-1.61145
2382.000	3.76078	-2.10133	2.34144	-1.48454
2383.000	3.58752	-2.22665	2.05718	-1.48681
2384.000	3.47132	-2.10994	1.91500	-1.48097
2385.000	3.12058	-1.99958	1.73725	-1.47118
2386.000	2.97666	-2.02763	1.50218	-1.36204
2387.000	2.73409	-1.98042	1.49823	-1.33421
2388.000	2.56444	-1.95489	1.25322	-1.37808
2389.000	2.57233	-1.81590	1.04572	-1.39608
2390.000	2.30394	-1.82620	1.08920	-1.43184
2391.000	2.30394	-1.84605	0.91132	-1.31661
2392.000	2.27236	-1.87588	1.11489	-1.40797
2393.000	2.22301	-1.87992	1.05165	-1.36824
2394.000	2.13812	-1.80257	1.11489	-1.29267
2395.000	2.25460	-1.76867	1.18406	-1.34830
2396.000	2.16576	-1.90580	1.18208	-1.38806
2397.000	2.20919	-1.85213	1.20975	-1.37811
2398.000	2.04335	-1.92581	1.23939	-1.50729
2399.000	2.09271	-1.92575	1.14651	-1.43976
2400.000	2.15392	-1.97333	1.28286	-1.49932
2401.000	2.10259	-2.02900	1.20975	-1.41985
2402.000	2.14010	-1.92371	1.27891	-1.38801
2403.000	2.23683	-1.92160	1.28681	-1.57484
2404.000	2.08284	-1.91385	1.21370	-1.45563
2405.000	2.18353	-2.01301	1.17615	-1.52720
2406.000	2.24867	-1.81435	1.17418	-1.47354
2407.000	2.08679	-1.93569	1.35597	-1.46151
2408.000	2.08284	-1.90193	1.23148	-1.43574
2409.000	2.11838	-1.95352	1.31645	-1.43172
2410.000	2.12628	-2.14214	1.34609	-1.45754
2411.000	2.07100	-1.96748	1.28681	-1.40788
2412.000	2.17761	-1.94153	1.27298	-1.49734
2413.000	2.26841	-2.05458	1.28484	-1.38999
2414.000	2.26447	-2.02878	1.31843	-1.35022
2415.000	2.19143	-1.86804	1.31052	-1.51918
2416.000	2.28026	-1.95728	1.25717	-1.40790
2417.000	2.35329	-1.92740	1.37968	-1.38199
2418.000	2.26447	-1.90171	1.26310	-1.40790
2419.000	2.33750	-1.93735	1.20382	-1.41787
2420.000	2.28815	-1.93344	1.24532	-1.51325
2421.000	2.23288	-1.95536	1.17813	-1.47552
2422.000	2.29407	-2.00491	1.25915	-1.42579
2423.000	2.31776	-2.03069	1.30855	-1.28463
2424.000	2.26644	-1.96921	1.22753	-1.45761
2425.000	2.31579	-1.91554	1.30460	-1.36017
2426.000	2.38486	-1.97699	1.26903	-1.43572
2427.000	2.35723	-1.91747	1.24729	-1.43573
2428.000	2.35131	-1.97505	1.28286	-1.41385
2429.000	2.36118	-1.99489	1.42513	-1.51513
2430.000	2.40657	-1.93924	1.29076	-1.41782
2431.000	2.42236	-1.89752	1.27496	-1.38602
2432.000	2.40263	-1.87174	1.24136	-1.42381
2433.000	2.45591	-2.03644	1.27298	-1.50727
2434.000	2.47762	-1.93913	1.20777	-1.41389
2435.000	2.54668	-1.90131	1.25322	-1.26279
2436.000	2.47564	-2.06817	1.25915	-1.33832
2437.000	2.43815	-1.97691	1.14651	-1.55107
2438.000	2.54471	-1.92117	1.27496	-1.45162
2439.000	2.40065	-2.07424	1.24334	-1.46356
2440.000	2.48354	-1.96890	1.31250	-1.46352
2441.000	2.53879	-2.06609	1.29472	-1.48937
2442.000	2.56838	-2.00848	1.30262	-1.46750
2443.000	2.51905	-1.95297	1.36783	-1.49529
2444.000	2.46578	-2.00268	1.29867	-1.39794
2445.000	2.55457	-2.07202	1.32238	-1.44762
2446.000	2.49538	-2.02844	1.30460	-1.47148
2447.000	2.59600	-1.91911	1.29274	-1.35222
2448.000	2.61573	-1.97267	1.28088	-1.46553
2449.000	2.48551	-1.91133	1.29669	-1.33234
2450.000	2.63152	-1.83567	1.23148	-1.39002
2451.000	2.45986	-1.92923	1.20777	-1.35624
2452.000	2.47170	-1.96495	1.18010	-1.55304
2453.000	2.55260	-1.90329	1.22555	-1.30455
2454.000	2.63546	-1.80192	1.23939	-1.31647
2455.000	2.48946	-1.87956	1.36783	-1.38200
2456.000	2.56444	-1.87151	1.34214	-1.45158
2457.000	2.55852	-1.84372	1.26903	-1.34428
2458.000	2.58417	-1.84964	1.22951	-1.36219
2459.000	2.71042	-1.69460	1.38166	-1.38199
2460.000	2.57035	-1.75039	1.24927	-1.38206
2461.000	2.59008	-1.82382	1.30657	-1.41582
2462.000	2.63152	-1.74633	1.35004	-1.32834
2463.000	2.59008	-1.86551	1.24532	-1.32243
2464.000	2.54668	-1.90330	1.32831	-1.35220
2465.000	2.61573	-1.84959	1.34214	-1.43767
2466.000	2.65124	-1.79395	1.30064	-1.39595
2467.000	2.60981	-1.80195	1.34016	-1.45556
2468.000	2.59403	-1.88337	1.31645	-1.42377
2469.000	2.66308	-1.92496	1.33621	-1.45357
2470.000	2.58219	-1.93898	1.33424	-1.39991
2471.000	2.64927	-1.92498	1.39154	-1.49925
2472.000	2.55457	-1.92909	1.28681	-1.35620
2473.000	2.51511	-1.83981	1.32831	-1.44165
2474.000	2.58219	-1.90722	1.37573	-1.48336
2475.000	2.52300	-1.85568	1.37573	-1.42175
2476.000	2.67097	-1.94281	1.38561	-1.37404
2477.000	2.59403	-1.82977	1.34016	-1.46947
2478.000	2.68083	-1.89515	1.35202	-1.51319
2479.000	2.61179	-1.87144	1.38758	-1.43565
2480.000	2.61968	-1.82973	1.35202	-1.49133
2481.000	2.54471	-1.98271	1.46464	-1.53895
2482.000	2.61573	-1.97267	1.32238	-1.51917
2483.000	2.64730	-1.92101	1.28879	-1.42577
2484.000	2.59403	-1.92109	1.30657	-1.39197
2485.000	2.56246	-1.97474	1.31448	-1.43768
2486.000	2.64533	-1.94285	1.46069	-1.39784
2487.000	2.63546	-1.98654	1.44488	-1.44158
2488.000	2.59798	-1.89727	1.26705	-1.37609
2489.000	2.59600	-1.97270	1.43896	-1.31437
2490.000	2.59600	-1.91116	1.35795	-1.35020
2491.000	2.62954	-1.96074	1.39351	-1.27862
2492.000	2.57233	-2.03825	1.29076	-1.36415
2493.000	2.64927	-1.94086	1.36585	-1.23291
2494.000	2.60587	-2.01834	1.37178	-1.31839
2495.000	2.64927	-1.96071	1.28286	-1.20909
2496.000	2.64533	-1.95079	1.34807	-1.37406
2497.000	2.66111	-1.89518	1.29274	-1.22897
2498.000	2.62560	-2.00243	1.19196	-1.31251
2499.000	2.61179	-1.95283	1.27298	-1.31645
2500.000	2.49340	-2.02844	1.33621	-1.38003
2501.000	2.51708	-1.95893	1.28879	-1.35620
2502.000	2.45196	-1.99476	1.32040	-1.39196
2503.000	2.41447	-1.91143	1.26112	-1.39597
2504.000	2.57035	-1.84966	1.31250	-1.38600
2505.000	2.48748	-2.01257	1.35399	-1.33231
2506.000	2.54076	-1.97676	1.28681	-1.24885
2507.000	2.56641	-1.90525	1.23939	-1.40592
2508.000	2.58022	-1.95288	1.28879	-1.32837
2509.000	2.50524	-1.89343	1.32633	-1.40389
2510.000	2.53879	-1.92912	1.24729	-1.35026
2511.000	2.44999	-1.92528	1.29472	-1.38800
2512.000	2.49340	-1.95301	1.32040	-1.31643
2513.000	2.41052	-2.04644	1.25124	-1.42977
2514.000	2.47762	-1.90538	1.34016	-1.45556
2515.000	2.50524	-2.01652	1.36585	-1.42970
2516.000	2.53484	-1.87949	1.39944	-1.36409
2517.000	2.52695	-1.78619	1.40142	-1.41179
2518.000	2.50524	-1.86167	1.36783	-1.52113
2519.000	2.59798	-1.85359	1.32831	-1.39792
2520.000	2.60784	-1.94886	1.31843	-1.40190
2521.000	2.64138	-1.85551	1.35399	-1.29454
2522.000	2.54668	-1.93903	1.42908	-1.35016
2523.000	2.59403	-1.90323	1.34412	-1.41580
2524.000	2.59403	-1.95683	1.41129	-1.42371
2525.000	2.47959	-2.04633	1.37573	-1.39392
2526.000	2.70845	-1.90107	1.47057	-1.39585
2527.000	2.54668	-1.86558	1.42117	-1.43166
2528.000	2.62757	-1.93494	1.41129	-1.27463
2529.000	2.67294	-1.95472	1.38166	-1.42969
2530.000	2.55654	-2.03033	1.35399	-1.37008
2531.000	2.71831	-2.02808	1.34807	-1.35418
2532.000	2.53484	-2.03433	1.39944	-1.41179
2533.000	2.62560	-2.07587	1.37375	-1.36808
2534.000	2.67689	-2.02220	1.34214	-1.26075
2535.000	2.57233	-2.04420	1.43303	-1.34220
2536.000	2.61968	-1.97664	1.43303	-1.43165
2537.000	2.61179	-1.89327	1.48835	-1.42168
2538.000	2.60981	-1.96276	1.38956	-1.51316
2539.000	2.54076	-1.96088	1.33028	-1.46948
2540.000	2.51313	-2.09392	1.42513	-1.55289
2541.000	2.54273	-1.91919	1.41525	-1.40980
2542.000	2.58219	-1.99456	1.35992	-1.40585
2543.000	2.51511	-1.99863	1.33819	-1.57878
2544.000	2.53484	-2.04823	1.38561	-1.49925
2545.000	2.49143	-2.03043	1.40339	-1.39191
2546.000	2.40263	-2.03652	1.38166	-1.56285
2547.000	2.54273	-1.93308	1.37968	-1.44559
2548.000	2.54273	-2.01249	1.46464	-1.58068
2549.000	2.47762	-1.97487	1.36980	-1.62248
2550.000	2.48551	-1.96096	1.44291	-1.54294
2551.000	2.53089	-1.89935	1.31250	-1.48141
2552.000	2.48156	-1.89347	1.49230	-1.60650
2553.000	2.48551	-1.88552	1.41129	-1.41775
2554.000	2.56049	-1.86357	1.47847	-1.53099
2555.000	2.46972	-1.80811	1.42315	-1.48333
2556.000	2.52300	-1.90532	1.39549	-1.43565
2557.000	2.54273	-1.99065	1.36980	-1.48336
2558.000	2.36513	-2.00680	1.42513	-1.46345
2559.000	2.49143	-1.95301	1.44883	-1.37599
2560.000	2.57035	-1.99259	1.38956	-1.38993
2561.000	2.45788	-2.08209	1.36585	-1.32038
2562.000	2.48551	-2.05029	1.37968	-1.37205
2563.000	2.50130	-2.08401	1.33621	-1.34027
2564.000	2.49340	-2.09792	1.38166	-1.49528
2565.000	2.49143	-2.15151	1.31448	-1.39594
2566.000	2.54668	-2.16730	1.27496	-1.53709
2567.000	2.54668	-2.18119	1.37771	-1.57876
2568.000	2.60981	-2.06994	1.32238	-1.35022
2569.000	2.59008	-2.09181	1.44883	-1.56877
2570.000	2.56246	-2.15933	1.35597	-1.58275
2571.000	2.55852	-2.09186	1.28484	-1.51522
2572.000	2.49932	-2.07210	1.30855	-1.49135
2573.000	2.57627	-2.12359	1.40537	-1.59662
2574.000	2.62757	-2.02823	1.39549	-1.67215
2575.000	2.60192	-2.08583	1.40142	-1.53899
2576.000	2.72620	-1.92486	1.36190	-1.53504
2577.000	2.51511	-1.86364	1.38956	-1.48534
2578.000	2.59206	-1.92705	1.34807	-1.46748
2579.000	2.45591	-2.02255	1.41327	-1.45750
2580.000	2.53484	-1.91920	1.35004	-1.36809
2581.000	2.53089	-1.86560	1.40142	-1.51912
2582.000	2.55260	-1.91123	1.38166	-1.39789
2583.000	2.47762	-1.94708	1.30262	-1.43769
2584.000	2.60192	-1.92307	1.45476	-1.36803
2585.000	2.47959	-1.95501	1.37771	-1.52510
2586.000	2.48551	-1.86765	1.34016	-1.52115
2587.000	2.45591	-1.99277	1.35795	-1.41778
2588.000	2.55062	-1.97873	1.35992	-1.51120
2589.000	2.41052	-2.11988	1.30064	-1.48937
2590.000	2.46972	-2.09796	1.29472	-1.55496
2591.000	2.44012	-2.12976	1.33819	-1.46748
2592.000	2.43223	-2.04839	1.37375	-1.52510
2593.000	2.42433	-2.20719	1.30262	-1.55893
2594.000	2.47367	-2.15551	1.34609	-1.44561
2595.000	2.52300	-2.06810	1.38956	-1.47341
2596.000	2.54865	-2.07997	1.38561	-1.44559
2597.000	2.52300	-2.17726	1.37573	-1.51317
2598.000	2.52497	-2.22290	1.33226	-1.62648
2599.000	2.60981	-2.12353	1.36387	-1.50921
2600.000	2.49735	-2.21303	1.42908	-1.69994
2601.000	2.68478	-2.09959	1.27693	-1.59671
2602.000	2.53089	-2.05618	1.42117	-1.57475
2603.000	2.59206	-2.06600	1.36387	-1.57678
2604.000	2.53089	-2.18122	1.41920	-1.64828
2605.000	2.57627	-2.16129	1.33819	-1.64635
2606.000	2.63349	-2.16318	1.30064	-1.63843
2607.000	2.59206	-2.10570	1.36980	-1.51318
2608.000	2.70451	-2.00429	1.34412	-1.60263
2609.000	2.59600	-2.08187	1.32831	-1.61655
2610.000	2.56444	-2.07399	1.42908	-1.56084
2611.000	2.47762	-2.07412	1.40142	-1.67810
2612.000	2.55852	-2.02636	1.33226	-1.54500
2613.000	2.49932	-1.99072	1.42908	-1.51513
2614.000	2.55852	-2.00452	1.38363	-1.62645
2615.000	2.55457	-1.99857	1.43500	-1.43761
2616.000	2.64730	-1.97858	1.49230	-1.47732
2617.000	2.48354	-2.04434	1.36387	-1.56088
2618.000	2.55852	-1.96681	1.35795	-1.49927
2619.000	2.49340	-1.96293	1.41129	-1.68207
2620.000	2.59206	-1.94690	1.45081	-1.63038
2621.000	2.61179	-1.98856	1.44488	-1.59063
2622.000	2.47564	-2.07214	1.35597	-1.42772
2623.000	2.49340	-2.00065	1.35992	-1.54498
2624.000	2.52103	-1.96885	1.38956	-1.57279
2625.000	2.50919	-2.00658	1.38363	-1.52907
2626.000	2.48156	-1.92325	1.34609	-1.43766
2627.000	2.55062	-1.96682	1.38956	-1.46944
2628.000	2.51708	-1.99863	1.38956	-1.53701
2629.000	2.51511	-1.89739	1.37771	-1.59068
2630.000	2.47762	-1.92722	1.39549	-1.55291
2631.000	2.46972	-1.95106	1.36980	-1.54895
2632.000	2.47564	-1.93318	1.37375	-1.59863
2633.000	2.54865	-1.93307	1.30262	-1.51719
2634.000	2.50919	-1.93710	1.41129	-1.57675
2635.000	2.39868	-2.01866	1.38758	-1.54894
2636.000	2.50722	-1.97681	1.44093	-1.57076
2637.000	2.40460	-1.89357	1.46266	-1.48927
2638.000	2.42236	-2.02855	1.43105	-1.69398
2639.000	2.47367	-1.97488	1.39549	-1.55291
2640.000	2.49538	-2.01653	1.42908	-1.65622
2641.000	2.43420	-1.95111	1.43500	-1.55090
2642.000	2.44210	-2.02058	1.33819	-1.61455
2643.000	2.50130	-1.99270	1.47649	-1.56478
2644.000	2.40460	-1.94917	1.39351	-1.65625
2645.000	2.41841	-1.91540	1.43105	-1.60456
2646.000	2.40065	-1.97498	1.41525	-1.53898
2647.000	2.46183	-2.01857	1.51798	-1.64225
2648.000	2.44802	-2.11188	1.37178	-1.55292
2649.000	2.40855	-2.00078	1.44093	-1.49326
2650.000	2.47564	-1.91531	1.42908	-1.68007
2651.000	2.47762	-2.05626	1.45279	-1.64627
2652.000	2.52300	-2.03038	1.38561	-1.66818
2653.000	2.56641	-1.97473	1.33424	-1.54500
2654.000	2.49340	-2.07013	1.40537	-1.62246
2655.000	2.46183	-2.11583	1.45279	-1.54095
2656.000	2.53484	-2.10381	1.49823	-1.69989
2657.000	2.49340	-2.04631	1.49625	-1.56079
2658.000	2.51511	-2.00459	1.54169	-1.70581
2659.000	2.48354	-2.05823	1.39351	-1.63042
2660.000	2.48551	-2.10587	1.44488	-1.66019
2661.000	2.53879	-1.99264	1.41129	-1.63239
2662.000	2.48946	-2.03441	1.40932	-1.60060
2663.000	2.53681	-2.04624	1.42117	-1.68405
2664.000	2.49538	-1.95698	1.48045	-1.65817
2665.000	2.49538	-2.16738	1.51206	-1.57469
2666.000	2.48354	-2.12771	1.38758	-1.53503
2667.000	2.59403	-2.07394	1.42710	-1.70590
2668.000	2.48551	-2.10389	1.51206	-1.67206
2669.000	2.52497	-2.14352	1.38561	-1.61452
2670.000	2.57035	-2.08985	1.42513	-1.52109
2671.000	2.52300	-2.13757	1.40142	-1.61650
2672.000	2.42828	-2.13772	1.47452	-1.73965
2673.000	2.52300	-2.04626	1.42908	-1.66219
2674.000	2.54076	-2.22486	1.37178	-1.70793
2675.000	2.53089	-2.05618	1.45674	-1.56877
2676.000	2.43618	-2.11389	1.56540	-1.60644
2677.000	2.53879	-2.19311	1.37178	-1.72184
2678.000	2.57627	-2.10175	1.55354	-1.71773
2679.000	2.56444	-2.10574	1.57923	-1.62233
2680.000	2.47959	-2.04832	1.47452	-1.72176
2681.000	2.56049	-2.04620	1.52984	-1.80318
2682.000	2.53484	-2.03632	1.43303	-1.68007
2683.000	2.50919	-2.08797	1.45674	-1.64031
2684.000	2.51313	-1.96886	1.35004	-1.51319
2685.000	2.40263	-1.79628	1.33424	-1.40587
2686.000	2.40855	-1.72081	1.21370	-1.11171
2687.000	2.30789	-1.60773	1.05955	-0.93479
2688.000	2.23880	-1.31776	1.00619	-0.86521
2689.000	2.07297	-1.31790	0.89353	-0.77574
2690.000	2.06902	-0.90652	0.83621	-0.68824
2691.000	1.87353	-0.80921	0.71959	-0.52913
2692.000	1.80638	-0.71779	0.69192	-0.41774
2693.000	1.75898	-0.70787	0.60494	-0.16312
2694.000	1.68195	-0.69398	0.56540	-0.04178
2695.000	1.74910	-0.48518	0.48435	0.02785
2696.000	1.75503	-0.49910	0.48238	0.44561
2697.000	1.75108	-0.19090	0.45075	0.42572
2698.000	1.72935	-0.16107	0.42109	0.45556
2699.000	1.70960	-0.08948	0.38156	0.61669
2700.000	1.72738	0.01989	0.37167	0.74996
2701.000	1.75503	0.09147	0.51005	0.82553
2702.000	1.64244	0.10739	0.48831	0.95878
2703.000	1.63059	0.33011	0.41516	1.28095
2704.000	1.59305	0.39773	0.46063	1.37042
2705.000	1.55354	0.69005	0.27480	1.52950
2706.000	1.58120	0.82127	0.41516	1.66266
2707.000	1.52391	1.02210	0.30446	1.80976
2708.000	1.50810	1.07579	0.33213	1.86938
2709.000	1.40142	1.12952	0.28666	1.91906
2710.000	1.42908	1.22493	0.23922	2.04227
2711.000	1.40142	1.27066	0.25701	1.85349
2712.000	1.39549	1.31837	0.21154	1.97273
2713.000	1.37178	1.38597	0.26689	1.97073
2714.000	1.47057	1.27460	0.33016	1.88726
2715.000	1.35399	1.25478	0.41319	1.84949
2716.000	1.42710	1.18716	0.22142	1.70642
2717.000	1.35992	1.14544	0.33411	1.80777
2718.000	1.40932	1.37800	0.35388	1.68454
2719.000	1.44093	1.26865	0.33016	1.63485
2720.000	1.35399	1.28659	0.30248	1.66864
2721.000	1.37573	1.24284	0.32818	1.77398
2722.000	1.36585	1.33628	0.34993	1.73621
2723.000	1.24334	1.39598	0.27085	1.82368
2724.000	1.39746	1.37999	0.30643	1.79585
2725.000	1.42513	1.37600	0.34004	1.75808
2726.000	1.38363	1.46149	0.30643	1.88130
2727.000	1.40932	1.49725	0.35981	1.79981
2728.000	1.40537	1.39986	0.40923	1.78788
2729.000	1.30262	1.64836	0.42505	1.82961
2730.000	1.28286	1.54901	0.39539	1.85545
2731.000	1.32831	1.53904	0.35388	1.73621
2732.000	1.36980	1.56286	0.39539	1.69049
2733.000	1.40537	1.49328	0.37958	1.89719
2734.000	1.42315	1.52507	0.46063	1.80973
2735.000	1.42710	1.53699	0.37167	1.79981
2736.000	1.31052	1.50129	0.43296	1.89916
2737.000	1.40537	1.54694	0.32818	1.83162
2738.000	1.30262	1.43371	0.28469	1.81175
2739.000	1.43303	1.50717	0.36376	1.95283
2740.000	1.38363	1.47342	0.31632	1.92701
2741.000	1.44093	1.49922	0.33806	1.81770
2742.000	1.42513	1.48333	0.37760	1.89520
2743.000	1.43303	1.48531	0.37958	1.88328
2744.000	1.46266	1.50517	0.34993	1.87335
2745.000	1.37771	1.54298	0.21549	1.91709
2746.000	1.42908	1.58667	0.35388	1.93495
2747.000	1.45674	1.52504	0.35586	1.94488
2748.000	1.39549	1.54893	0.36969	1.91507
2749.000	1.43105	1.41972	0.40923	1.97269
2750.000	1.33028	1.53705	0.36179	1.93892
2751.000	1.38363	1.58670	0.41714	1.83955
2752.000	1.39549	1.49726	0.41714	1.86538
2753.000	1.38166	1.58273	0.36772	1.84751
2754.000	1.43698	1.49922	0.30050	1.80380
2755.000	1.36783	1.39392	0.26887	1.82169
2756.000	1.47649	1.43361	0.39144	1.82763
2757.000	1.42908	1.36407	0.33806	1.84950
2758.000	1.42710	1.45153	0.37958	1.91507
2759.000	1.45674	1.50915	0.27678	1.87932
2760.000	1.36783	1.44759	0.27085	1.87535
2761.000	1.36585	1.44560	0.28864	1.81970
2762.000	1.46859	1.47933	0.44086	1.89320
2763.000	1.42315	1.40780	0.42702	1.88923
2764.000	1.34807	1.37406	0.29655	1.93496
2765.000	1.40537	1.53104	0.37563	1.77596
2766.000	1.44291	1.42965	0.41516	1.82961
2767.000	1.39746	1.40583	0.25701	1.93695
2768.000	1.42315	1.39985	0.27282	1.86939
2769.000	1.38363	1.47143	0.39342	1.91507
2770.000	1.36387	1.41181	0.35783	1.92501
2771.000	1.36190	1.39591	0.26689	1.87336
2772.000	1.50613	1.40378	0.30841	1.87733
2773.000	1.40932	1.45551	0.33016	1.83758
2774.000	1.44093	1.41177	0.37365	1.81372
2775.000	1.38956	1.34620	0.42109	1.80179
2776.000	1.44291	1.50717	0.35190	1.83757
2777.000	1.53774	1.46139	0.33609	1.90117
2778.000	1.49428	1.45148	0.24119	1.90715
2779.000	1.32040	1.42973	0.36772	1.81174
2780.000	1.42908	1.50916	0.41121	1.91904
2781.000	1.47649	1.44553	0.28271	1.91509
2782.000	1.50218	1.42564	0.27876	1.87137
2783.000	1.40537	1.43167	0.28666	1.87336
2784.000	1.48242	1.46938	0.38156	1.86340
2785.000	1.46266	1.39983	0.34004	1.93296
2786.000	1.41525	1.30643	0.31829	1.93297
2787.000	1.46266	1.47734	0.42505	1.87532
2788.000	1.39746	1.45552	0.38551	1.92302
2789.000	1.36387	1.38796	0.30248	1.80181
2790.000	1.29472	1.28066	0.27085	1.78989
2791.000	1.38166	1.42969	0.25899	1.95682
2792.000	1.33424	1.42177	0.24317	1.87138
2793.000	1.48242	1.42367	0.22933	1.82368
2794.000	1.37375	1.38199	0.32422	1.83162
2795.000	1.37771	1.31838	0.32422	1.83162
2796.000	1.40932	1.44160	0.23131	1.96875
2797.000	1.40142	1.40185	0.35783	1.84155
2798.000	1.37178	1.30845	0.24515	1.89125
2799.000	1.37968	1.40584	0.34004	1.81174
2800.000	1.29076	1.36813	0.24317	1.78791
2801.000	1.30064	1.42576	0.28864	1.80181
2802.000	1.38561	1.40186	0.25899	1.77797
2803.000	1.35399	1.38399	0.32620	1.87136
2804.000	1.43105	1.40382	0.28073	1.89124
2805.000	1.40339	1.37204	0.31236	1.82367
2806.000	1.45279	1.37400	0.38946	1.79782
2807.000	1.35399	1.39989	0.29062	1.80579
2808.000	1.38363	1.35813	0.33016	1.84553
2809.000	1.45871	1.43958	0.33411	1.83360
2810.000	1.35992	1.39591	0.23329	1.81772
2811.000	1.33226	1.36611	0.37365	1.85148
2812.000	1.40339	1.35017	0.31829	1.79187
2813.000	1.35597	1.36411	0.34004	1.98264
2814.000	1.34412	1.43170	0.35388	1.81571
2815.000	1.40537	1.30048	0.26294	1.83759
2816.000	1.29076	1.31247	0.40726	1.69248
2817.000	1.44686	1.34816	0.27678	1.74219
2818.000	1.35399	1.39194	0.26492	1.74219
2819.000	1.39746	1.27265	0.39737	1.83558
2820.000	1.44093	1.26865	0.34993	1.77000
2821.000	1.29867	1.28065	0.43889	1.68054
2822.000	1.39549	1.32831	0.38749	1.76602
2823.000	1.41920	1.30643	0.37365	1.72031
2824.000	1.36980	1.38597	0.34004	1.64677
2825.000	1.47649	1.29447	0.32422	1.69845
2826.000	1.32633	1.30052	0.39342	1.80378
2827.000	1.30657	1.28860	0.35586	1.77398
2828.000	1.37771	1.35019	0.30050	1.76802
2829.000	1.39549	1.33825	0.23526	1.83561
2830.000	1.44488	1.30045	0.32225	1.79783
2831.000	1.40339	1.26072	0.33016	1.63683
2832.000	1.38166	1.37603	0.36179	1.71037
2833.000	1.33819	1.20708	0.23329	1.69847
2834.000	1.51996	1.23283	0.25108	1.81573
2835.000	1.30657	1.31246	0.34004	1.68056
2836.000	1.41920	1.37600	0.33806	1.77994
2837.000	1.43303	1.26667	0.32027	1.82367
2838.000	1.35795	1.24484	0.21945	1.81573
2839.000	1.32831	1.30251	0.32027	1.83559
2840.000	1.50613	1.32825	0.28666	1.78393
2841.000	1.49032	1.25073	0.22538	1.64480
2842.000	1.44093	1.28455	0.33609	1.71038
2843.000	1.42908	1.25474	0.40528	1.64080
2844.000	1.44291	1.34021	0.28073	1.76405
2845.000	1.37968	1.24284	0.36574	1.76205
2846.000	1.47452	1.29050	0.25701	1.84157
2847.000	1.31250	1.28661	0.25108	1.68853
2848.000	1.34609	1.30051	0.27876	1.73026
2849.000	1.33424	1.27070	0.40133	1.74813
2850.000	1.28681	1.34427	0.33609	1.69448
2851.000	1.33819	1.29256	0.30050	1.80777
2852.000	1.36190	1.26074	0.31236	1.79187
2853.000	1.43698	1.25673	0.37760	1.77397
2854.000	1.36190	1.23888	0.34004	1.73423
2855.000	1.42315	1.33028	0.30643	1.70641
2856.000	1.41525	1.23288	0.30248	1.62690
2857.000	1.43105	1.27860	0.25899	1.75610
2858.000	1.43105	1.17324	0.32225	1.75808
2859.000	1.35004	1.27665	0.32620	1.78789
2860.000	1.41722	1.23885	0.29655	1.77399
2861.000	1.33819	1.29853	0.27678	1.75610
2862.000	1.39549	1.33030	0.33806	1.63882
2863.000	1.46069	1.29448	0.30446	1.69846
2864.000	1.48045	1.34218	0.34795	1.72826
2865.000	1.40932	1.19313	0.14630	1.73425
2866.000	1.41920	1.23288	0.23922	1.69847
2867.000	1.42513	1.23685	0.28864	1.70045
2868.000	1.44883	1.21498	0.26492	1.66666
2869.000	1.32040	1.16335	0.22142	1.67462
2870.000	1.39351	1.21898	0.25503	1.74418
2871.000	1.43500	1.19510	0.33609	1.69249
2872.000	1.31843	1.07190	0.39342	1.64080
2873.000	1.38956	1.19115	0.35981	1.65273
2874.000	1.34412	1.19316	0.29457	1.71038
2875.000	1.52786	1.09963	0.28073	1.66467
2876.000	1.49032	1.17321	0.29457	1.73225
2877.000	1.51601	1.11157	0.30446	1.67063
2878.000	1.54564	1.19902	0.31434	1.55732
2879.000	1.41722	1.21102	0.33016	1.73026
2880.000	1.43698	1.21101	0.25305	1.62691
2881.000	1.43303	1.21498	0.33806	1.68851
2882.000	1.37968	1.11561	0.25701	1.78592
2883.000	1.49823	1.35807	0.34597	1.59111
2884.000	1.38758	1.16928	0.18979	1.68456
2885.000	1.44488	1.20901	0.29655	1.69846
2886.000	1.48242	1.09767	0.19375	1.74816
2887.000	1.47649	1.20701	0.23724	1.63486
2888.000	1.46464	1.23882	0.20561	1.77797
2889.000	1.48440	1.18116	0.30446	1.65473
2890.000	1.54564	1.26660	0.24317	1.62094
2891.000	1.55947	1.11353	0.20956	1.65872
2892.000	1.49428	1.16724	0.28073	1.66865
2893.000	1.44686	1.24877	0.30446	1.66864
2894.000	1.52391	1.31631	0.23329	1.70045
2895.000	1.52391	1.33221	0.24712	1.62691
2896.000	1.47254	1.26466	0.30841	1.64479
2897.000	1.52786	1.27258	0.26096	1.62293
2898.000	1.48835	1.27459	0.31236	1.70641
2899.000	1.47254	1.24080	0.21352	1.67462
2900.000	1.47254	1.31634	0.15618	1.71239
2901.000	1.50218	1.36800	0.24910	1.64480
2902.000	1.41129	1.21499	0.30643	1.80181
2903.000	1.40339	1.28458	0.22933	1.70841
2904.000	1.44883	1.29449	0.21549	1.71636
2905.000	1.37573	1.25477	0.29259	1.70045
2906.000	1.48045	1.25869	0.25108	1.67859
2907.000	1.38956	1.26272	0.24317	1.70045
2908.000	1.43698	1.33624	0.28073	1.65076
2909.000	1.40537	1.26072	0.23922	1.77797
2910.000	1.35202	1.30846	0.23526	1.62890
2911.000	1.40537	1.23488	0.26294	1.60901
2912.000	1.43303	1.33425	0.28666	1.66069
2913.000	1.37375	1.28260	0.18979	1.75214
2914.000	1.36783	1.30050	0.27876	1.64281
2915.000	1.38956	1.29452	0.19572	1.70245
2916.000	1.37573	1.31640	0.29457	1.71237
2917.000	1.30855	1.27071	0.21549	1.69847
2918.000	1.48242	1.28254	0.17200	1.71835
2919.000	1.32831	1.37407	0.31039	1.65274
2920.000	1.31052	1.24089	0.23922	1.73424
2921.000	1.40339	1.21102	0.30643	1.74218
2922.000	1.45081	1.24877	0.15421	1.72034
2923.000	1.38956	1.31042	0.26096	1.63883
2924.000	1.44488	1.37002	0.23131	1.75412
2925.000	1.39746	1.25675	0.25503	1.66070
2926.000	1.40537	1.17723	0.32422	1.64479
2927.000	1.37178	1.20508	0.21154	1.62492
2928.000	1.37375	1.22893	0.28271	1.58913
2929.000	1.39154	1.24284	0.20363	1.54342
2930.000	1.41129	1.25078	0.23526	1.58516
2931.000	1.48045	1.32627	0.22735	1.68455
2932.000	1.48242	1.26465	0.24515	1.67461
2933.000	1.35399	1.28063	0.20561	1.70642
2934.000	1.42710	1.26071	0.26096	1.63088
2935.000	1.43303	1.23884	0.34399	1.64478
2936.000	1.37178	1.20508	0.26294	1.63883
2937.000	1.28088	1.23295	0.19572	1.75611
2938.000	1.49428	1.28055	0.32620	1.63882
2939.000	1.37375	1.21700	0.19968	1.60703
2940.000	1.45871	1.22491	0.27480	1.73026
2941.000	1.41327	1.27066	0.27480	1.76803
2942.000	1.36387	1.14941	0.29457	1.60702
2943.000	1.41327	1.20108	0.29062	1.66666
2944.000	1.32633	1.15738	0.38946	1.61496
2945.000	1.45279	1.23286	0.18584	1.60107
2946.000	1.36783	1.20110	0.30446	1.56925
2947.000	1.40142	1.14144	0.25701	1.61697
2948.000	1.42315	1.20306	0.33016	1.64081
2949.000	1.40339	1.21102	0.28469	1.67063
2950.000	1.37771	1.20706	0.17398	1.67462
2951.000	1.49428	1.18513	0.34202	1.65870
2952.000	1.32238	1.20709	0.26492	1.71436
2953.000	1.29669	1.17131	0.27085	1.60901
2954.000	1.37375	1.27068	0.24910	1.68853
2955.000	1.39154	1.20705	0.35981	1.63683
2956.000	1.41525	1.25873	0.22340	1.63685
2957.000	1.46464	1.25671	0.27282	1.56329
2958.000	1.42710	1.18517	0.24119	1.55932
2959.000	1.35597	1.13749	0.23131	1.60902
2960.000	1.45871	1.22889	0.29062	1.44401
2961.000	1.38758	1.21898	0.29062	1.60305
2962.000	1.43698	1.21101	0.31434	1.59310
2963.000	1.38956	1.13151	0.26294	1.64678
2964.000	1.43500	1.19113	0.31632	1.54937
2965.000	1.40142	1.06590	0.29457	1.68256
2966.000	1.33424	1.15142	0.21549	1.69847
2967.000	1.43303	1.21697	0.28271	1.67858
2968.000	1.43105	1.19908	0.21352	1.68257
2969.000	1.38561	1.15537	0.24317	1.55932
2970.000	1.36190	1.14146	0.26689	1.62690
2971.000	1.39549	1.24681	0.23724	1.65076
2972.000	1.43896	1.26269	0.25899	1.69648
2973.000	1.41327	1.23487	0.25899	1.52155
2974.000	1.41920	1.21499	0.32027	1.59907
2975.000	1.43303	1.25673	0.27282	1.63883
2976.000	1.48242	1.26068	0.20165	1.62294
2977.000	1.42315	1.18119	0.29655	1.58913
2978.000	1.35004	1.22497	0.31632	1.61298
2979.000	1.48242	1.15930	0.25305	1.58317
2980.000	1.47847	1.19309	0.38551	1.54538
2981.000	1.38758	1.09970	0.27085	1.57920
2982.000	1.36783	1.14742	0.27282	1.49172
2983.000	1.40537	1.17325	0.31829	1.53347
2984.000	1.42513	1.16330	0.18979	1.55535
2985.000	1.42710	1.14938	0.35981	1.49569
2986.000	1.44093	1.18118	0.19375	1.60505
2987.000	1.40142	1.13747	0.24119	1.48576
2988.000	1.48440	1.20303	0.29457	1.59907
2989.000	1.42710	1.17125	0.32620	1.59708
2990.000	1.33621	1.08581	0.33411	1.56925
2991.000	1.44686	1.12751	0.30841	1.64280
2992.000	1.40932	1.13746	0.26492	1.52950
2993.000	1.44883	1.19510	0.21549	1.60107
2994.000	1.41129	1.17921	0.28469	1.59112
2995.000	1.36585	1.23092	0.29259	1.61696
2996.000	1.46069	1.26864	0.25305	1.65672
2997.000	1.43105	1.20703	0.24515	1.53745
2998.000	1.48835	1.26266	0.31632	1.60702
2999.000	1.40734	1.32632	0.17398	1.55336
3000.000	1.43303	1.31040	0.29852	1.59509
3001.000	1.49823	1.23880	0.25701	1.55932
3002.000	1.40932	1.28457	0.38551	1.54737
3003.000	1.45279	1.21299	0.28864	1.52949
3004.000	1.37375	1.17327	0.26492	1.59311
3005.000	1.30657	1.17330	0.29457	1.48576
3006.000	1.45081	1.23287	0.28469	1.50365
3007.000	1.29669	1.19517	0.25305	1.53546
3008.000	1.40537	1.23090	0.24317	1.66666
3009.000	1.39944	1.30446	0.28864	1.46588
3010.000	1.33819	1.21106	0.20363	1.43010
3011.000	1.42315	1.30643	0.23329	1.60107
3012.000	1.32238	1.30052	0.19177	1.62492
3013.000	1.36585	1.20905	0.26096	1.51359
3014.000	1.37968	1.22694	0.19968	1.50366
3015.000	1.30460	1.29457	0.27085	1.58516
3016.000	1.37375	1.27068	0.19770	1.62294
3017.000	1.29472	1.29060	0.19177	1.56529
3018.000	1.27693	1.24687	0.14432	1.47384
3019.000	1.25124	1.24688	0.17991	1.61697
3020.000	1.43500	1.23884	0.17200	1.49372
3021.000	1.45871	1.30045	0.18979	1.44203
3022.000	1.35004	1.37406	0.19572	1.56926
3023.000	1.43896	1.32034	0.20758	1.59113
3024.000	1.42710	1.40979	0.19375	1.52752
3025.000	1.41525	1.29053	0.22538	1.64082
3026.000	1.43500	1.30046	0.10874	1.59511
3027.000	1.37573	1.37205	0.14234	1.55535
3028.000	1.44291	1.36208	0.26887	1.62889
3029.000	1.47057	1.33423	0.26096	1.72232
3030.000	1.44291	1.25871	0.19770	1.57324
3031.000	1.40932	1.29252	0.25701	1.64082
3032.000	1.48835	1.36205	0.26689	1.69648
3033.000	1.52984	1.31829	0.37958	1.63683
3034.000	1.49230	1.29844	0.35388	1.62490
3035.000	1.43105	1.39587	0.27480	1.68654
3036.000	1.26705	1.30651	0.24515	1.70642
3037.000	1.24136	1.40393	0.02372	1.70842
3038.000	1.02003	1.48157	-0.15025	1.60107
3039.000	0.78680	1.47371	-0.34004	1.42809
3040.000	0.54168	1.38233	-0.46261	1.40422
3041.000	0.35981	1.47779	-0.70971	1.30474
3042.000	0.08106	1.39432	-1.01607	1.17143
3043.000	-0.14037	1.42016	-1.23544	0.98047
3044.000	-0.35388	1.17557	-1.51601	0.93860
3045.000	-0.84214	1.13371	-1.75898	0.81125
3046.000	-1.04374	0.96463	-2.14997	0.70969
3047.000	-1.32238	1.00827	-2.43025	0.59429
3048.000	-1.92883	0.74955	-2.72226	0.48089
3049.000	-2.23091	0.52679	-2.96483	0.36755
3050.000	-2.48748	0.34782	-3.15803	0.25823
3051.000	-2.86821	0.24241	-3.42601	0.21249
3052.000	-2.95892	0.25033	-3.86510	0.20841
3053.000	-3.44768	0.09731	-4.17593	-0.01786
3054.000	-3.91233	0.32947	-4.53367	0.00992
3055.000	-4.19363	0.15476	-5.01075	0.07333
3056.000	-4.42363	0.16463	-5.40877	-0.06338
3057.000	-4.82039	0.12489	-5.72995	-0.02771
3058.000	-4.92638	0.02775	-5.99601	-0.01187
3059.000	-5.38918	-0.04754	-6.10745	0.01187
3060.000	-5.39506	-0.16043	-6.30284	-0.12655
3061.000	-5.66730	-0.15442	-6.42195	-0.15816
3062.000	-5.82975	-0.28499	-6.59370	-0.37746
3063.000	-5.98428	-0.47881	-6.71657	-0.51567
3064.000	-6.18953	-0.43709	-6.83159	-0.84537
3065.000	-6.40048	-0.80065	-6.92513	-0.79782
3066.000	-6.67367	-0.85553	-7.08678	-0.89623
3067.000	-6.90565	-0.94397	-7.42529	-0.95472
3068.000	-7.03810	-1.04042	-7.36891	-0.96668
3069.000	-7.13545	-1.00073	-7.51081	-0.99989
3070.000	-7.13934	-1.03032	-7.67009	-1.03303
3071.000	-7.25221	-1.07939	-7.68757	-1.20641
3072.000	-7.32612	-1.06738	-7.79239	-1.12139
3073.000	-7.50109	-1.34888	-7.78269	-1.26722
3074.000	-7.58464	-1.28161	-7.87000	-1.22559
3075.000	-7.64096	-1.43712	-7.89134	-1.41066
3076.000	-7.67398	-1.62812	-7.91849	-1.37906
3077.000	-7.82538	-1.61375	-7.91656	-1.37710
3078.000	-7.85448	-1.65499	-7.91849	-1.36921
3079.000	-7.79627	-1.66310	-7.81374	-1.40305
3080.000	-7.89328	-1.69027	-7.81956	-1.46015
3081.000	-7.85448	-1.76722	-7.82926	-1.50148
3082.000	-7.83896	-1.71412	-7.82150	-1.44242
3083.000	-7.76328	-1.62384	-7.71475	-1.44081
3084.000	-7.88358	-1.68834	-7.73416	-1.51167
3085.000	-7.83508	-1.61371	-7.64873	-1.43709
3086.000	-7.84478	-1.55656	-7.62349	-1.34653
3087.000	-7.74969	-1.57465	-7.62737	-1.37411
3088.000	-7.91462	-1.69019	-7.63125	-1.40365
3089.000	-7.78075	-1.71239	-7.72834	-1.21024
3090.000	-7.87000	-1.77897	-7.76716	-1.31652
3091.000	-7.73804	-1.63969	-7.77881	-1.24556
3092.000	-7.71281	-1.58069	-7.65456	-1.23410
3093.000	-7.81180	-1.69848	-7.73416	-1.35406
3094.000	-7.76134	-1.59233	-7.68951	-1.19064
3095.000	-7.70893	-1.58268	-7.80597	-1.26715
3096.000	-7.73999	-1.62196	-7.83896	-1.18825
3097.000	-7.74387	-1.77360	-7.72057	-1.29696
3098.000	-7.78269	-1.63361	-7.76716	-1.27318
3099.000	-7.62154	-1.54556	-7.75357	-1.29489
3100.000	-7.68757	-1.60443	-7.75163	-1.25155
3101.000	-7.77686	-1.65727	-7.73999	-1.24173
3102.000	-7.78075	-1.56271	-7.71475	-1.26151
3103.000	-7.61183	-1.66579	-7.72834	-1.27723
3104.000	-7.62931	-1.52977	-7.74387	-1.32250
3105.000	-7.64096	-1.66962	-7.81568	-1.28485
3106.000	-7.65262	-1.71488	-7.77104	-1.24952
3107.000	-7.61960	-1.63621	-7.77298	-1.32832
3108.000	-7.56715	-1.62458	-7.71669	-1.23195
3109.000	-7.44862	-1.51464	-7.67398	-1.30696
3110.000	-7.62931	-1.73468	-7.74193	-1.16685
3111.000	-7.56715	-1.55955	-7.72640	-1.29103
3112.000	-7.58464	-1.62846	-7.71863	-1.28712
3113.000	-7.54384	-1.54781	-7.77881	-1.25344
3114.000	-7.57687	-1.57528	-7.64291	-1.28537
3115.000	-7.54384	-1.55373	-7.72057	-1.18267
3116.000	-7.40779	-1.49310	-7.81956	-1.24938
3117.000	-7.46417	-1.53430	-7.73222	-1.34421
3118.000	-7.48554	-1.49480	-7.68563	-1.17292
3119.000	-7.48166	-1.52044	-7.77492	-1.26724
3120.000	-7.49137	-1.49084	-7.73416	-1.19249
3121.000	-7.51469	-1.51638	-7.74193	-1.15306
3122.000	-7.51664	-1.46513	-7.80986	-1.18439
3123.000	-7.47583	-1.50666	-7.84672	-1.15671
3124.000	-7.45056	-1.53632	-7.83120	-1.19221
3125.000	-7.54773	-1.59116	-7.78463	-1.32435
3126.000	-7.47777	-1.54411	-7.85448	-1.32018
3127.000	-7.44862	-1.48507	-7.77881	-1.24753
3128.000	-7.51469	-1.43951	-7.70116	-1.26943
3129.000	-7.47583	-1.41204	-7.67009	-1.27741
3130.000	-7.38446	-1.40248	-7.80597	-1.15879
3131.000	-7.43501	-1.61522	-7.81374	-1.22181
3132.000	-7.41751	-1.59360	-7.82732	-1.32618
3133.000	-7.48166	-1.53818	-7.75940	-1.35398
3134.000	-7.48360	-1.48101	-7.88164	-1.25707
3135.000	-7.39418	-1.46751	-7.88552	-1.25115
3136.000	-7.40779	-1.53253	-7.82538	-1.27300
3137.000	-7.42335	-1.41616	-7.87776	-1.19996
3138.000	-7.39029	-1.51287	-7.80015	-1.23367
3139.000	-7.42140	-1.49305	-7.75163	-1.29293
3140.000	-7.49720	-1.47505	-7.79239	-1.37751
3141.000	-7.43306	-1.56004	-7.86030	-1.24531
3142.000	-7.39807	-1.39652	-7.79627	-1.26915
3143.000	-7.45639	-1.53038	-7.84866	-1.26308
3144.000	-7.40974	-1.48323	-7.72640	-1.32059
3145.000	-7.43501	-1.37274	-7.82344	-1.22375
3146.000	-7.31251	-1.36129	-7.76328	-1.24954
3147.000	-7.33001	-1.56631	-7.87000	-1.27089
3148.000	-7.29306	-1.41065	-7.83120	-1.18236
3149.000	-7.33390	-1.43222	-7.76328	-1.21014
3150.000	-7.32418	-1.43422	-7.79821	-1.13911
3151.000	-7.33974	-1.47164	-7.78463	-1.10762
3152.000	-7.36113	-1.34142	-7.82732	-1.33603
3153.000	-7.33974	-1.42628	-7.82538	-1.23557
3154.000	-7.31640	-1.56045	-7.86030	-1.31623
3155.000	-7.27750	-1.49748	-7.81568	-1.22969
3156.000	-7.37280	-1.39068	-7.80209	-1.30262
3157.000	-7.18605	-1.37154	-7.84284	-1.39901
3158.000	-7.23664	-1.38519	-7.80986	-1.30260
3159.000	-7.34168	-1.38881	-7.83120	-1.33996
3160.000	-7.36696	-1.24478	-7.75551	-1.24760
3161.000	-7.30667	-1.48752	-7.93595	-1.26872
3162.000	-7.36307	-1.44987	-7.81956	-1.19028
3163.000	-7.36696	-1.47352	-7.81568	-1.26712
3164.000	-7.20356	-1.49575	-7.78075	-1.28299
3165.000	-7.22886	-1.41677	-7.82150	-1.26907
3166.000	-7.40974	-1.36494	-7.88746	-1.20978
3167.000	-7.35724	-1.41242	-7.73416	-1.28313
3168.000	-7.26582	-1.46399	-7.76716	-1.25347
3169.000	-7.36502	-1.36310	-7.78269	-1.27904
3170.000	-7.34752	-1.33949	-7.88552	-1.31812
3171.000	-7.37668	-1.49123	-7.79433	-1.22581
3172.000	-7.47194	-1.69195	-7.87582	-1.23542
3173.000	-7.28528	-1.38504	-7.81180	-1.19818
3174.000	-7.26972	-1.43045	-7.85448	-1.19215
3175.000	-7.39029	-1.52076	-7.82344	-1.20011
3176.000	-7.27555	-1.48960	-7.79821	-1.12926
3177.000	-7.42723	-1.48120	-7.83314	-1.24540
3178.000	-7.40390	-1.50691	-7.80791	-1.27896
3179.000	-7.33974	-1.54853	-7.87388	-1.28073
3180.000	-7.38057	-1.54051	-7.85060	-1.27883
3181.000	-7.36696	-1.51887	-7.78657	-1.38541
3182.000	-7.44084	-1.36484	-7.79045	-1.20612
3183.000	-7.39224	-1.38865	-7.77492	-1.22981
3184.000	-7.39418	-1.56412	-7.79433	-1.29870
3185.000	-7.23664	-1.56270	-7.89716	-1.12899
3186.000	-7.29695	-1.44417	-7.78463	-1.29676
3187.000	-7.36113	-1.51297	-7.86030	-1.28668
3188.000	-7.35141	-1.40061	-7.77492	-1.16479
3189.000	-7.26582	-1.35946	-7.85254	-1.21973
3190.000	-7.36307	-1.44987	-7.87776	-1.18026
3191.000	-7.33779	-1.49333	-7.89328	-1.12506
3192.000	-7.25221	-1.38909	-7.86224	-1.13894
3193.000	-7.34168	-1.35726	-7.83508	-1.25721
3194.000	-7.31445	-1.48355	-7.86806	-1.21968
3195.000	-7.36113	-1.57803	-7.75940	-1.26926
3196.000	-7.25415	-1.54094	-7.83314	-1.22964
3197.000	-7.29500	-1.41656	-7.81956	-1.16663
3198.000	-7.32612	-1.27842	-7.87000	-1.27483
3199.000	-7.29306	-1.33374	-7.80209	-1.12531
3200.000	-7.32612	-1.50520	-7.85060	-1.29853
3201.000	-7.29111	-1.45602	-7.93401	-1.20176
3202.000	-7.22691	-1.46806	-7.85254	-1.19806
3203.000	-7.26193	-1.39300	-7.85836	-1.19607
3204.000	-7.36113	-1.35917	-7.84284	-1.07398
3205.000	-7.16853	-1.32621	-7.85642	-1.19805
3206.000	-7.33390	-1.46180	-7.89134	-1.14083
3207.000	-7.36696	-1.32957	-7.82150	-1.25331
3208.000	-7.27750	-1.46001	-7.82150	-1.18436
3209.000	-7.27361	-1.36733	-7.86418	-1.15469
3210.000	-7.32029	-1.42437	-7.86030	-1.23153
3211.000	-7.29111	-1.38108	-7.85448	-1.34185
3212.000	-7.38641	-1.34332	-7.81762	-1.17452
3213.000	-7.35529	-1.48933	-7.75746	-1.32049
3214.000	-7.42529	-1.47727	-7.90298	-1.22352
3215.000	-7.42723	-1.51274	-7.82732	-1.20995
3216.000	-7.32029	-1.43620	-7.73804	-1.22006
3217.000	-7.47777	-1.45935	-7.88164	-1.26495
3218.000	-7.47000	-1.43769	-7.82344	-1.14495
3219.000	-7.47777	-1.50271	-7.92431	-1.20376
3220.000	-7.44667	-1.39637	-7.87970	-1.31223
3221.000	-7.42335	-1.46939	-7.86030	-1.21971
3222.000	-7.47194	-1.49091	-7.87582	-1.23936
3223.000	-7.47388	-1.39431	-7.90104	-1.19989
3224.000	-7.45250	-1.43775	-7.88358	-1.05614
3225.000	-7.42723	-1.35108	-7.89328	-1.22946
3226.000	-7.43112	-1.22291	-7.86418	-1.13893
3227.000	-7.34946	-1.42822	-7.92431	-1.15058
3228.000	-7.25999	-1.32595	-7.88940	-1.07976
3229.000	-7.33779	-1.40854	-7.81568	-1.18241
3230.000	-7.49720	-1.54601	-7.80597	-1.09771
3231.000	-7.46611	-1.41207	-7.81762	-1.25726
3232.000	-7.36307	-1.52282	-7.83120	-1.16069
3233.000	-7.35918	-1.42819	-7.85448	-1.23351
3234.000	-7.38641	-1.42416	-8.01738	-1.11094
3235.000	-7.50498	-1.50656	-7.84478	-1.06806
3236.000	-7.47583	-1.38444	-7.95922	-1.23714
3237.000	-7.37863	-1.39658	-7.90492	-1.19397
3238.000	-7.39418	-1.39259	-7.81568	-1.16467
3239.000	-7.50109	-1.50263	-7.94565	-1.23521
3240.000	-7.33585	-1.39869	-7.81374	-1.21196
3241.000	-7.46028	-1.44166	-7.82344	-1.12131
3242.000	-7.47194	-1.50470	-7.99218	-1.14055
3243.000	-7.36502	-1.47747	-7.89328	-1.08566
3244.000	-7.42335	-1.39250	-7.95534	-1.11504
3245.000	-7.30473	-1.40865	-7.92431	-1.24709
3246.000	-7.44473	-1.42989	-7.95146	-1.12293
3247.000	-7.34946	-1.38090	-7.98249	-1.23116
3248.000	-7.39418	-1.27231	-7.88746	-1.19796
3249.000	-7.25221	-1.37725	-7.95534	-1.20170
3250.000	-7.39807	-1.43792	-8.00381	-1.30986
3251.000	-7.36307	-1.35522	-7.88552	-1.25509
3252.000	-7.31056	-1.42638	-7.93401	-1.30418
3253.000	-7.44278	-1.44172	-7.80403	-1.42278
3254.000	-7.45056	-1.45747	-7.89134	-1.14279
3255.000	-7.35918	-1.43411	-7.84672	-1.17247
3256.000	-7.29111	-1.34558	-7.85448	-1.16851
3257.000	-7.37668	-1.37095	-7.93401	-1.18601
3258.000	-7.30278	-1.39879	-7.89522	-1.15854
3259.000	-7.46222	-1.43574	-7.86224	-1.12515
3260.000	-7.34168	-1.44599	-7.85448	-1.14487
3261.000	-7.26582	-1.35157	-7.85060	-1.23746
3262.000	-7.27944	-1.30419	-7.94565	-1.09931
3263.000	-7.30862	-1.42835	-7.85642	-1.23548
3264.000	-7.37863	-1.42813	-7.90880	-1.09941
3265.000	-7.30473	-1.42837	-7.92237	-1.23725
3266.000	-7.31834	-1.38888	-7.91462	-1.18409
3267.000	-7.33196	-1.46969	-7.84090	-1.11732
3268.000	-7.27361	-1.21348	-7.80597	-1.20608
3269.000	-7.20746	-1.23733	-7.87582	-1.12905
3270.000	-7.34168	-1.44205	-7.90492	-1.31018
3271.000	-7.24442	-1.33586	-7.95922	-1.13079
3272.000	-7.32223	-1.50522	-7.94565	-1.17022
3273.000	-7.27944	-1.31997	-7.83896	-1.20204
3274.000	-7.29695	-1.47769	-7.96116	-1.11109
3275.000	-7.29111	-1.31205	-7.95534	-1.15050
3276.000	-7.27944	-1.34167	-7.83896	-1.23356
3277.000	-7.29111	-1.38699	-7.88940	-1.17038
3278.000	-7.22886	-1.38127	-7.91849	-1.16439
3279.000	-7.27750	-1.32392	-7.86418	-1.18227
3280.000	-7.21329	-1.34384	-7.86418	-1.09756
3281.000	-7.29695	-1.31795	-7.82926	-1.04249
3282.000	-7.36891	-1.41239	-7.88940	-1.12901
3283.000	-7.26388	-1.29240	-7.81180	-1.15680
3284.000	-7.39613	-1.36498	-7.92237	-1.08362
3285.000	-7.30084	-1.34358	-7.91074	-1.26092
3286.000	-7.33196	-1.38292	-7.91656	-1.15060
3287.000	-7.26388	-1.34566	-7.91074	-1.03046
3288.000	-7.40585	-1.32354	-7.98055	-1.13861
3289.000	-7.28333	-1.34166	-7.96892	-1.16030
3290.000	-7.34168	-1.30993	-7.84090	-1.26113
3291.000	-7.32223	-1.33957	-7.86418	-1.23742
3292.000	-7.33779	-1.30402	-8.01157	-1.03021
3293.000	-7.29111	-1.24696	-7.86030	-1.11924
3294.000	-7.41557	-1.24070	-7.84478	-1.08382
3295.000	-7.31640	-1.30211	-7.88940	-1.16447
3296.000	-7.26388	-1.40483	-7.93595	-1.06585
3297.000	-7.34363	-1.22315	-7.91462	-1.19394
3298.000	-7.28528	-1.23317	-7.87970	-1.21177
3299.000	-7.24053	-1.28458	-7.93595	-1.20767
3300.000	-7.33779	-1.20147	-7.97861	-1.13467
3301.000	-7.31251	-1.31001	-7.92237	-1.10528
3302.000	-7.23470	-1.33588	-7.88358	-1.21964
3303.000	-7.43112	-1.31755	-7.87582	-1.18027
3304.000	-7.30473	-1.29031	-7.93401	-1.27070
3305.000	-7.32612	-1.38886	-7.87194	-1.12512
3306.000	-7.30278	-1.30413	-7.91849	-1.16636
3307.000	-7.26193	-1.24310	-7.93013	-1.06193
3308.000	-7.25221	-1.30033	-7.89910	-1.15459
3309.000	-7.19189	-1.14662	-7.86806	-1.16059
3310.000	-7.34168	-1.27443	-7.90298	-1.08367
3311.000	-7.37085	-1.34336	-7.80015	-1.05241
3312.000	-7.48943	-1.29569	-7.88552	-1.13493
3313.000	-7.26777	-1.21349	-7.82538	-1.23951
3314.000	-7.26193	-1.19773	-7.78269	-1.14900
3315.000	-7.29500	-1.31598	-7.82344	-1.17647
3316.000	-7.32418	-1.22320	-7.79239	-1.11548
3317.000	-7.35724	-1.27044	-7.85448	-1.01681
3318.000	-7.36696	-1.19745	-7.87776	-1.22950
3319.000	-7.40196	-1.18157	-7.83896	-1.07399
3320.000	-7.32029	-1.20349	-7.86612	-1.07392
3321.000	-7.45445	-1.40817	-7.83702	-1.07596
3322.000	-7.21719	-1.19785	-7.84672	-1.15080
3323.000	-7.38057	-1.15008	-7.83120	-1.18630
3324.000	-7.32223	-1.21334	-7.81762	-1.21195
3325.000	-7.25221	-1.26482	-7.88746	-1.12114
3326.000	-7.35141	-1.30398	-7.81762	-1.05434
3327.000	-7.33196	-1.28235	-7.85836	-1.06014
3328.000	-7.42335	-1.32349	-7.84672	-1.10549
3329.000	-7.25221	-1.17605	-7.90686	-1.14472
3330.000	-7.36891	-1.24871	-7.80986	-1.21788
3331.000	-7.39029	-1.25457	-7.83508	-1.12916
3332.000	-7.33974	-1.22513	-7.81956	-1.16072
3333.000	-7.39029	-1.28218	-7.84090	-1.12323
3334.000	-7.37085	-1.27829	-7.88358	-1.10342
3335.000	-7.39224	-1.21907	-7.80597	-1.13121
3336.000	-7.33585	-1.15019	-7.83120	-1.16266
3337.000	-7.26388	-1.17997	-7.85836	-1.15865
3338.000	-7.40779	-1.18353	-7.88746	-1.08962
3339.000	-7.37668	-1.32166	-7.81956	-1.19422
3340.000	-7.39029	-1.29598	-7.85642	-1.16062
3341.000	-7.39224	-1.27034	-7.88358	-1.21964
3342.000	-7.45250	-1.26819	-7.81568	-1.20802
3343.000	-7.30667	-1.31200	-7.84866	-1.13503
3344.000	-7.37085	-1.26449	-7.90880	-1.11320
3345.000	-7.55355	-1.25016	-7.87776	-1.11525
3346.000	-7.47971	-1.32529	-7.86418	-1.17242
3347.000	-7.36113	-1.18168	-7.89522	-1.09157
3348.000	-7.40779	-1.28016	-7.89716	-1.17036
3349.000	-7.42335	-1.22687	-7.94759	-1.08355
3350.000	-7.37668	-1.26841	-7.85060	-1.07790
3351.000	-7.41168	-1.29000	-7.85836	-1.10743
3352.000	-7.34363	-1.10481	-7.87776	-1.12116
3353.000	-7.42723	-1.33531	-7.87388	-0.99312
3354.000	-7.32612	-1.27842	-7.87776	-1.02069
3355.000	-7.37085	-1.20138	-7.84478	-1.00895
3356.000	-7.32807	-1.23108	-7.88552	-1.10341
3357.000	-7.35918	-1.25860	-7.80597	-1.02875
3358.000	-7.38252	-1.10077	-7.88940	-0.93004
3359.000	-7.32612	-1.17389	-7.83896	-1.02276
3360.000	-7.47194	-1.06111	-7.89134	-1.12507
3361.000	-7.36113	-1.26254	-7.80597	-1.02087
3362.000	-7.37668	-1.13825	-7.91074	-1.11713
3363.000	-7.31445	-1.10883	-7.92819	-0.99496
3364.000	-7.42140	-1.15194	-7.88164	-1.03645
3365.000	-7.41168	-1.11056	-7.77104	-1.06431
3366.000	-7.22886	-1.00250	-7.87970	-1.05024
3367.000	-7.44667	-1.08089	-7.96310	-0.95155
3368.000	-7.36307	-1.02981	-7.93013	-1.02057
3369.000	-7.37668	-1.17770	-7.80209	-0.96374
3370.000	-7.37280	-1.14813	-7.88940	-1.06007
3371.000	-7.28139	-1.15033	-7.88746	-1.06007
3372.000	-7.32418	-1.10486	-7.87970	-0.91036
3373.000	-7.33585	-1.12653	-7.90104	-0.94972
3374.000	-7.21524	-1.11104	-7.84090	-1.02276
3375.000	-7.43112	-1.13023	-7.90686	-0.94183
3376.000	-7.40585	-1.13226	-7.92819	-0.97723
3377.000	-7.39029	-1.13033	-7.85642	-0.98528
3378.000	-7.32223	-1.10092	-7.90298	-0.94774
3379.000	-7.34363	-1.00816	-7.86612	-1.02466
3380.000	-7.28333	-1.05564	-7.88358	-1.08569
3381.000	-7.35724	-1.23494	-7.89716	-0.95761
3382.000	-7.42335	-1.02573	-7.86612	-1.03254
3383.000	-7.44473	-0.97243	-7.90492	-1.04821
3384.000	-7.40779	-1.06323	-7.82538	-1.08584
3385.000	-7.47388	-1.17744	-8.01157	-0.97900
3386.000	-7.34946	-1.07324	-7.94759	-0.93582
3387.000	-7.37085	-0.87989	-7.91462	-0.96545
3388.000	-7.38641	-1.02779	-7.92043	-1.02453
3389.000	-7.38057	-1.09091	-7.90492	-1.04230
3390.000	-7.33390	-0.96084	-7.92819	-1.02648
3391.000	-7.33196	-0.86813	-7.92819	-0.89450
3392.000	-7.36696	-1.06925	-7.91656	-1.09151
3393.000	-7.44667	-1.09075	-7.86418	-1.03452
3394.000	-7.35141	-1.03576	-7.89328	-0.99308
3395.000	-7.35335	-1.03378	-7.84284	-0.98532
3396.000	-7.29111	-1.01222	-7.84866	-0.95575
3397.000	-7.39807	-0.98634	-7.94565	-0.97522
3398.000	-7.37474	-0.99823	-7.95146	-0.93975
3399.000	-7.37085	-0.95879	-7.93401	-0.98510
3400.000	-7.39224	-0.91732	-7.84866	-0.86906
3401.000	-7.41362	-0.86797	-7.87194	-0.87689
3402.000	-7.22691	-0.90779	-7.89134	-0.92610
3403.000	-7.31640	-0.87605	-7.78075	-1.07216
3404.000	-7.24053	-0.92553	-7.87000	-0.96555
3405.000	-7.29111	-0.88202	-7.89910	-0.94972
3406.000	-7.25804	-0.87222	-7.92237	-0.82950
3407.000	-7.20551	-0.80720	-7.83508	-0.87106
3408.000	-7.18216	-0.79343	-7.79433	-0.71743
3409.000	-7.27166	-0.78932	-7.91268	-0.80391
3410.000	-7.24637	-0.88408	-8.00575	-0.80964
3411.000	-7.13739	-0.88429	-7.88164	-0.69166
3412.000	-7.29889	-0.83268	-7.87388	-0.86506
3413.000	-7.31445	-0.96285	-7.91656	-1.02257
3414.000	-7.14713	-0.76783	-7.90298	-0.92804
3415.000	-7.12571	-0.63365	-8.02126	-0.57127
3416.000	-6.98941	-0.71874	-8.06972	0.23243
3417.000	-7.03615	-0.83908	-8.21502	1.34066
3418.000	-7.05952	-0.78180	-8.33118	2.80083
3419.000	-7.13350	-0.59219	-8.54784	4.46858
3420.000	-6.83549	0.23703	-8.72562	6.31208
3421.000	-6.68537	1.60797	-9.02283	8.01293
3422.000	-6.64246	3.29839	-9.42733	9.87863
3423.000	-6.55272	4.96814	-9.89229	11.94183
3424.000	-6.40829	6.69514	-10.75527	14.06063
3425.000	-6.33604	8.76355	-11.46720	16.12519
3426.000	-6.21493	10.87369	NaN	NaN
3427.000	-5.78279	12.94923	NaN	NaN
3428.000	-5.36566	15.17745	NaN	NaN
3429.000	-10.08405	20.05910	NaN	NaN
3430.000	-8.69471	21.96748	NaN	NaN
3431.000	-5.06960	24.41222	NaN	NaN
3432.000	-1.89328	26.38205	NaN	NaN
3433.000	NaN	NaN	NaN	NaN
3434.000	NaN	NaN	NaN	NaN
3435.000	NaN	NaN	NaN	NaN
3436.000	NaN	NaN	NaN	NaN
3437.000	NaN	NaN	NaN	NaN
3438.000	NaN	NaN	NaN	NaN
3439.000	NaN	NaN	NaN	NaN
3440.000	NaN	NaN	NaN	NaN
3441.000	NaN	NaN	NaN	NaN
3442.000	NaN	NaN	NaN	NaN
3443.000	NaN	NaN	NaN	NaN
3444.000	NaN	NaN	NaN	NaN
3445.000	NaN	NaN	NaN	NaN
3446.000	NaN	NaN	NaN	NaN
3447.000	NaN	NaN	NaN	NaN
3448.000	NaN	NaN	NaN	NaN
3449.000	NaN	NaN	NaN	NaN
3450.000	NaN	NaN	NaN	NaN
3451.000	NaN	NaN	NaN	NaN
3452.000	NaN	NaN	NaN	NaN
3453.000	NaN	NaN	NaN	NaN
3454.000	NaN	NaN	NaN	NaN
3455.000	NaN	NaN	NaN	NaN
3456.000	NaN	NaN	NaN	NaN
3457.000	NaN	NaN	NaN	NaN
3458.000	NaN	NaN	NaN	NaN
3459.000	NaN	NaN	NaN	NaN
3460.000	NaN	NaN	NaN	NaN
3461.000	NaN	NaN	NaN	NaN
3462.000	NaN	NaN	NaN	NaN
3463.000	NaN	NaN	NaN	NaN
3464.000	NaN	NaN	NaN	NaN
3465.000	NaN	NaN	NaN	NaN
3466.000	NaN	NaN	NaN	NaN
3467.000	NaN	NaN	NaN	NaN
3468.000	NaN	NaN	NaN	NaN
3469.000	NaN	NaN	NaN	NaN
3470.000	NaN	NaN	NaN	NaN
3471.000	NaN	NaN	NaN	NaN
3472.000	NaN	NaN	NaN	NaN
3473.000	NaN	NaN	NaN	NaN
3474.000	NaN	NaN	NaN	NaN
3475.000	NaN	NaN	NaN	NaN
3476.000	NaN	NaN	NaN	NaN
3477.000	NaN	NaN	NaN	NaN
3478.000	NaN	NaN	NaN	NaN
3479.000	NaN	NaN	NaN	NaN
3480.000	NaN	NaN	NaN	NaN
3481.000	NaN	NaN	NaN	NaN
3482.000	NaN	NaN	NaN	NaN
3483.000	NaN	NaN	NaN	NaN
3484.000	NaN	NaN	NaN	NaN
3485.000	NaN	NaN	NaN	NaN
3486.000	NaN	NaN	NaN	NaN
3487.000	NaN	NaN	NaN	NaN
3488.000	NaN	NaN	NaN	NaN
3489.000	NaN	NaN	NaN	NaN
3490.000	NaN	NaN	NaN	NaN
3491.000	NaN	NaN	NaN	NaN
3492.000	NaN	NaN	NaN	NaN
3493.000	NaN	NaN	NaN	NaN
3494.000	NaN	NaN	NaN	NaN
3495.000	NaN	NaN	NaN	NaN
3496.000	NaN	NaN	NaN	NaN
3497.000	NaN	NaN	NaN	NaN
3498.000	NaN	NaN	NaN	NaN
3499.000	NaN	NaN	NaN	NaN
3500.000	NaN	NaN	NaN	NaN
3501.000	NaN	NaN	NaN	NaN
3502.000	NaN	NaN	NaN	NaN
3503.000	NaN	NaN	NaN	NaN
3504.000	NaN	NaN	NaN	NaN
3505.000	NaN	NaN	NaN	NaN
3506.000	NaN	NaN	NaN	NaN
3507.000	NaN	NaN	NaN	NaN
3508.000	NaN	NaN	NaN	NaN
3509.000	NaN	NaN	NaN	NaN
3510.000	NaN	NaN	NaN	NaN
3511.000	NaN	NaN	NaN	NaN
3512.000	NaN	NaN	NaN	NaN
3513.000	NaN	NaN	NaN	NaN
3514.000	NaN	NaN	NaN	NaN
3515.000	NaN	NaN	NaN	NaN
3516.000	NaN	NaN	NaN	NaN
3517.000	NaN	NaN	NaN	NaN
3518.000	NaN	NaN	NaN	NaN
3519.000	NaN	NaN	NaN	NaN
3520.000	NaN	NaN	NaN	NaN
3521.000	NaN	NaN	NaN	NaN
3522.000	NaN	NaN	NaN	NaN
3523.000	NaN	NaN	NaN	NaN
3524.000	NaN	NaN	NaN	NaN
3525.000	NaN	NaN	NaN	NaN
3526.000	NaN	NaN	NaN	NaN
3527.000	NaN	NaN	NaN	NaN
3528.000	NaN	NaN	NaN	NaN
3529.000	NaN	NaN	NaN	NaN
3530.000	NaN	NaN	NaN	NaN
3531.000	NaN	NaN	NaN	NaN
3532.000	NaN	NaN	NaN	NaN
3533.000	NaN	NaN	NaN	NaN
3534.000	NaN	NaN	NaN	NaN
3535.000	NaN	NaN	NaN	NaN
3536.000	NaN	NaN	NaN	NaN
3537.000	NaN	NaN	NaN	NaN
3538.000	NaN	NaN	NaN	NaN
3539.000	NaN	NaN	NaN	NaN
3540.000	NaN	NaN	NaN	NaN
3541.000	NaN	NaN	NaN	NaN
3542.000	NaN	NaN	NaN	NaN
3543.000	NaN	NaN	NaN	NaN
3544.000	NaN	NaN	NaN	NaN
3545.000	NaN	NaN	NaN	NaN
3546.000	NaN	NaN	NaN	NaN
3547.000	NaN	NaN	NaN	NaN
3548.000	NaN	NaN	NaN	NaN
3549.000	NaN	NaN	NaN	NaN
3550.000	NaN	NaN	NaN	NaN
3551.000	NaN	NaN	NaN	NaN
3552.000	NaN	NaN	NaN	NaN
3553.000	NaN	NaN	NaN	NaN
3554.000	NaN	NaN	NaN	NaN
3555.000	NaN	NaN	NaN	NaN
3556.000	NaN	NaN	NaN	NaN
3557.000	NaN	NaN	NaN	NaN
3558.000	NaN	NaN	NaN	NaN
3559.000	NaN	NaN	NaN	NaN
3560.000	NaN	NaN	NaN	NaN
3561.000	NaN	NaN	NaN	NaN
3562.000	NaN	NaN	NaN	NaN
3563.000	NaN	NaN	NaN	NaN
3564.000	NaN	NaN	NaN	NaN
3565.000	NaN	NaN	NaN	NaN
3566.000	NaN	NaN	NaN	NaN
3567.000	NaN	NaN	NaN	NaN
3568.000	NaN	NaN	NaN	NaN
3569.000	NaN	NaN	NaN	NaN
3570.000	NaN	NaN	NaN	NaN
3571.000	NaN	NaN	NaN	NaN
3572.000	NaN	NaN	NaN	NaN
3573.000	NaN	NaN	NaN	NaN
3574.000	NaN	NaN	NaN	NaN
3575.000	NaN	NaN	NaN	NaN
3576.000	NaN	NaN	NaN	NaN
3577.000	NaN	NaN	NaN	NaN
3578.000	NaN	NaN	NaN	NaN
3579.000	NaN	NaN	NaN	NaN
3580.000	NaN	NaN	NaN	NaN
3581.000	NaN	NaN	NaN	NaN
3582.000	NaN	NaN	NaN	NaN
3583.000	NaN	NaN	NaN	NaN
3584.000	NaN	NaN	NaN	NaN
3585.000	NaN	NaN	NaN	NaN
3586.000	NaN	NaN	NaN	NaN
3587.000	NaN	NaN	NaN	NaN
3588.000	NaN	NaN	NaN	NaN
3589.000	NaN	NaN	NaN	NaN
3590.000	NaN	NaN	NaN	NaN
3591.000	NaN	NaN	NaN	NaN
3592.000	NaN	NaN	NaN	NaN
3593.000	NaN	NaN	NaN	NaN
3594.000	NaN	NaN	NaN	NaN
3595.000	NaN	NaN	NaN	NaN
3596.000	NaN	NaN	NaN	NaN
3597.000	NaN	NaN	NaN	NaN
3598.000	NaN	NaN	NaN	NaN
3599.000	NaN	NaN	NaN	NaN
3600.000	NaN	NaN	NaN	NaN
3601.000	NaN	NaN	NaN	NaN
3602.000	NaN	NaN	NaN	NaN
3603.000	NaN	NaN	NaN	NaN
3604.000	NaN	NaN	NaN	NaN
3605.000	NaN	NaN	NaN	NaN
3606.000	NaN	NaN	NaN	NaN
3607.000	NaN	NaN	NaN	NaN
3608.000	NaN	NaN	NaN	NaN
3609.000	NaN	NaN	NaN	NaN
3610.000	NaN	NaN	NaN	NaN
3611.000	NaN	NaN	NaN	NaN
3612.000	NaN	NaN	-8.60583	20.23638
3613.000	NaN	NaN	-7.28917	19.33376
3614.000	NaN	NaN	-5.56157	18.06992
3615.000	NaN	NaN	-5.04214	17.47858
3616.000	NaN	NaN	-4.56706	16.89096
3617.000	NaN	NaN	-4.42363	16.41528
3618.000	NaN	NaN	-4.04612	15.75784
3619.000	NaN	NaN	-3.89265	15.33322
3620.000	2.60587	13.47101	-3.39055	14.83781
3621.000	2.30592	12.74233	-3.40434	14.29999
3622.000	1.91895	11.74663	-3.23292	13.79956
3623.000	1.74713	11.20917	-2.97863	13.08862
3624.000	1.62071	10.80366	-2.91159	12.75152
3625.000	1.51008	10.30257	-2.68873	12.23485
3626.000	1.43303	9.97144	-2.62362	11.68580
3627.000	1.27298	9.49873	-2.40657	11.29830
3628.000	1.12082	9.08857	-2.35131	11.01749
3629.000	1.01805	8.78411	-2.35723	10.56094
3630.000	0.97259	8.36218	-2.26249	10.18078
3631.000	0.88958	8.05644	-1.99004	9.70996
3632.000	0.73343	7.71518	-2.14010	9.41521
3633.000	0.66622	7.40642	-1.89723	9.09701
3634.000	0.64250	7.10890	-2.01374	8.77625
3635.000	0.51401	6.80916	-1.82613	8.35334
3636.000	0.52784	6.50887	-1.91500	8.00812
3637.000	0.50017	6.39693	-1.94265	7.74656
3638.000	0.37958	6.15527	-1.79848	7.38766
3639.000	0.40528	5.96443	-1.87748	7.13102
3640.000	0.29062	5.71643	-1.70762	6.81820
3641.000	0.31039	5.60216	-1.65627	6.50644
3642.000	0.30841	5.43462	-1.82811	6.36449
3643.000	0.36179	5.33008	-1.76491	5.98930
3644.000	0.20165	5.00456	-1.62269	5.70438
3645.000	0.19177	4.89991	-1.61873	5.45816
3646.000	0.15025	4.62925	-1.62269	5.13085
3647.000	0.00593	4.50077	-1.64837	4.90977
3648.000	0.05140	4.31487	-1.55157	4.63153
3649.000	0.01186	4.22386	-1.65232	4.43764
3650.000	-0.04152	4.06356	-1.48045	4.23630
3651.000	-0.18584	4.02593	-1.47452	3.90784
3652.000	-0.15421	3.86357	-1.38758	3.80108
3653.000	-0.18188	3.82000	-1.34807	3.57535
3654.000	-0.26689	3.65357	-1.38363	3.47821
3655.000	-0.36969	3.66741	-1.39351	3.35731
3656.000	-0.32818	3.53664	-1.18406	3.05620
3657.000	-0.31434	3.63771	-1.35597	2.96674
3658.000	-0.37958	3.53464	-1.28088	2.82995
3659.000	-0.34004	3.56240	-1.39154	2.86156
3660.000	-0.41121	3.45931	-1.16825	2.44700
3661.000	-0.38551	3.49500	-1.28484	2.53226
3662.000	-0.45668	3.47316	-1.40734	2.48647
3663.000	-0.38353	3.51284	-1.45279	2.48841
3664.000	-0.37760	3.46527	-1.35202	2.20657
3665.000	-0.41319	3.54652	-1.45279	2.35341
3666.000	-0.43493	3.56434	-1.41327	2.36338
3667.000	-0.45470	3.51082	-1.50020	2.28784
3668.000	-0.43493	3.39587	-1.48440	2.34941
3669.000	-0.43493	3.50489	-1.42710	2.34153
3670.000	-0.42307	3.50687	-1.43105	2.22040
3671.000	-0.31632	3.36618	-1.53971	2.35927
3672.000	-0.36179	3.37211	-1.54169	2.25603
3673.000	-0.44482	3.38793	-1.44291	2.15684
3674.000	-0.42702	3.38992	-1.52193	2.29973
3675.000	-0.33016	3.48115	-1.49823	2.46652
3676.000	-0.42109	3.36812	-1.45476	2.40106
3677.000	-0.40528	3.40976	-1.48045	2.63525
3678.000	-0.39144	3.38201	-1.56342	2.70857
3679.000	-0.27480	3.50495	-1.51206	2.56377
3680.000	-0.28469	3.46927	-1.56145	2.73239
3681.000	-0.39144	3.45337	-1.54367	2.76416
3682.000	-0.37167	3.50690	-1.70170	2.80957
3683.000	-0.28469	3.45936	-1.64837	2.90288
3684.000	-0.35783	3.46528	-1.65627	2.79971
3685.000	-0.28073	3.49504	-1.47254	2.74044
3686.000	-0.38353	3.44743	-1.61478	2.92078
3687.000	-0.31632	3.47322	-1.45674	2.88529
3688.000	-0.34202	3.50096	-1.48835	2.79399
3689.000	-0.24515	3.58819	-1.46464	2.83568
3690.000	-0.31632	3.51881	-1.49823	2.92887
3691.000	-0.38551	3.60201	-1.45081	2.95076
3692.000	-0.34202	3.59212	-1.64441	2.91677
3693.000	-0.37365	3.50095	-1.52391	3.12517
3694.000	-0.33016	3.57231	-1.55157	2.95855
3695.000	-0.38156	3.53662	-1.46464	3.01024
3696.000	-0.26689	3.52675	-1.56145	3.06960
3697.000	-0.33806	3.56636	-1.50415	3.05976
3698.000	-0.42900	3.52075	-1.42908	2.98054
3699.000	-0.37958	3.59211	-1.43105	3.01028
3700.000	-0.41319	3.53661	-1.53774	3.08153
3701.000	-0.37958	3.52671	-1.41920	3.01030
3702.000	-0.45075	3.58415	-1.49032	3.06772
3703.000	-0.39935	3.50887	-1.53971	3.08153
3704.000	-0.39342	3.60597	-1.46859	3.13715
3705.000	-0.32620	3.46727	-1.52391	3.13707
3706.000	-0.41714	3.33838	-1.49230	3.13712
3707.000	-0.43098	3.39389	-1.52984	3.18465
3708.000	-0.34399	3.41375	-1.50415	3.22632
3709.000	-0.38156	3.37408	-1.56342	3.19253
3710.000	-0.47052	3.35818	-1.49823	3.10935
3711.000	-0.39342	3.36615	-1.53576	3.14300
3712.000	-0.40330	3.36416	-1.63454	3.29946
3713.000	-0.40923	3.41570	-1.57725	3.16673
3714.000	-0.47249	3.30862	-1.67800	3.23794
3715.000	-0.51005	3.33041	-1.62466	3.19045
3716.000	-0.43098	3.25510	-1.62269	3.24794
3717.000	-0.44679	3.29872	-1.54169	3.18661
3718.000	-0.47842	3.27887	-1.62071	3.19640
3719.000	-0.54761	3.29272	-1.69972	3.26962
3720.000	-0.49028	3.33240	-1.64441	3.25385
3721.000	-0.36376	3.45338	-1.64244	3.15672
3722.000	-0.37167	3.31263	-1.65232	3.24789
3723.000	-0.48435	3.33439	-1.65034	3.18446
3724.000	-0.50017	3.32050	-1.62269	3.27569
3725.000	-0.45865	3.41766	-1.57132	3.20441
3726.000	-0.45668	3.35423	-1.66022	3.13686
3727.000	-0.43098	3.32251	-1.71355	3.15264
3728.000	-0.50808	3.40178	-1.79848	3.22782
3729.000	-0.42505	3.41768	-1.73528	3.19027
3730.000	-0.47645	3.45532	-1.73528	3.15260
3731.000	-0.50215	3.34826	-1.70960	3.10308
3732.000	-0.48633	3.35223	-1.63651	3.17259
3733.000	-0.53773	3.42159	-1.69775	3.12293
3734.000	-0.49424	3.40575	-1.60293	3.25194
3735.000	-0.51401	3.42160	-1.76293	3.25167
3736.000	-0.50017	3.42755	-1.61676	3.16667
3737.000	-0.49028	3.42756	-1.63849	3.18250
3738.000	-0.48238	3.35421	-1.73133	3.25569
3739.000	-0.43691	3.56632	-1.60096	3.15480
3740.000	-0.38551	3.43355	-1.72145	3.11297
3741.000	-0.49028	3.24119	-1.67009	3.06349
3742.000	-0.49028	3.28878	-1.72145	2.99797
3743.000	-0.41516	3.42363	-1.76491	3.06928
3744.000	-0.44877	3.33242	-1.70762	3.17446
3745.000	-0.40726	3.33244	-1.66614	3.13685
3746.000	-0.49622	3.17971	-1.67602	3.04365
3747.000	-0.46261	3.28483	-1.66614	2.95244
3748.000	-0.46854	3.19757	-1.67602	3.03770
3749.000	-0.40133	3.35623	-1.65627	2.98815
3750.000	-0.48831	3.29473	-1.74515	3.07526
3751.000	-0.42702	3.25113	-1.69972	3.12689
3752.000	-0.44086	3.22535	-1.70762	2.97221
3753.000	-0.41912	3.31657	-1.61281	2.89301
3754.000	-0.38353	3.20951	-1.61083	3.01598
3755.000	-0.47052	3.27491	-1.62861	2.96638
3756.000	-0.44086	3.28682	-1.64837	3.11111
3757.000	-0.37563	3.40977	-1.74713	2.93843
3758.000	-0.41714	3.22338	-1.76688	3.01772
3759.000	-0.42109	3.42759	-1.64837	2.85726
3760.000	-0.36179	3.28884	-1.68787	2.89092
3761.000	-0.45668	3.18370	-1.63849	3.01594
3762.000	-0.38749	3.29676	-1.67997	2.90878
3763.000	-0.37958	3.35624	-1.63256	2.88505
3764.000	-0.43296	3.26501	-1.68590	2.99604
3765.000	-0.43493	3.29079	-1.57527	3.04578
3766.000	-0.44284	3.33044	-1.63454	2.89496
3767.000	-0.50017	3.21144	-1.48440	2.89715
3768.000	-0.40726	3.25313	-1.70367	2.91470
3769.000	-0.37760	3.34831	-1.50613	2.88721
3770.000	-0.38551	3.17778	-1.65034	2.89692
3771.000	-0.38749	3.22537	-1.55354	2.89706
3772.000	-0.37365	3.26702	-1.59898	2.96245
3773.000	-0.38749	3.25313	-1.57132	2.87522
3774.000	-0.43098	3.24320	-1.54959	2.85938
3775.000	-0.51401	3.25506	-1.59503	2.93866
3776.000	-0.43493	3.13015	-1.52391	2.92289
3777.000	-0.48435	3.22731	-1.54959	3.00616
3778.000	-0.38946	3.26503	-1.62664	3.01596
3779.000	-0.42900	3.27889	-1.52391	2.94867
3780.000	-0.44284	3.25509	-1.50020	2.93085
3781.000	-0.45865	3.21146	-1.62466	2.92671
3782.000	-0.43889	3.19560	-1.55749	2.93474
3783.000	-0.48238	3.06269	-1.53576	2.98039
3784.000	-0.43493	3.17379	-1.58713	2.97635
3785.000	-0.42307	3.30269	-1.65232	3.00006
3786.000	-0.47249	3.17972	-1.57132	2.98034
3787.000	-0.45668	3.15593	-1.59503	2.99221
3788.000	-0.40330	3.21148	-1.60688	2.92277
3789.000	-0.41714	3.15198	-1.66219	2.90682
3790.000	-0.40330	3.19958	-1.67009	2.95640
3791.000	-0.45470	3.19956	-1.64639	2.90685
3792.000	-0.41319	3.13016	-1.57725	2.90893
3793.000	-0.44284	3.26699	-1.53774	2.91692
3794.000	-0.49622	3.17971	-1.63256	2.93860
3795.000	-0.47645	3.19955	-1.65824	2.94253
3796.000	-0.33213	3.18176	-1.56737	2.99026
3797.000	-0.42505	3.25114	-1.62466	2.88308
3798.000	-0.41319	3.21148	-1.60491	2.99219
3799.000	-0.41714	3.22139	-1.56737	2.87522
3800.000	-0.51796	3.19160	-1.52391	2.88520
3801.000	-0.41912	3.13611	-1.59700	2.91089
3802.000	-0.49424	3.14996	-1.65627	2.92270
3803.000	-0.46656	3.16188	-1.58120	2.95058
3804.000	-0.51203	3.11029	-1.68392	2.98613
3805.000	-0.41714	3.19165	-1.56145	3.00416
3806.000	-0.46854	3.25310	-1.57923	2.94463
3807.000	-0.46656	3.13807	-1.67602	2.93061
3808.000	-0.48435	3.29870	-1.54762	2.88517
3809.000	-0.48238	3.26499	-1.65627	2.97823
3810.000	-0.38353	3.22339	-1.63454	2.91083
3811.000	-0.47645	3.14402	-1.69577	2.95438
3812.000	-0.55354	3.31849	-1.67800	3.06546
3813.000	-0.49819	3.11426	-1.72145	3.03961
3814.000	-0.45470	3.28483	-1.64441	3.04766
3815.000	-0.51203	3.18367	-1.60293	2.88707
3816.000	-0.54168	3.21737	-1.65429	2.99212
3817.000	-0.51796	3.25109	-1.63651	3.18647
3818.000	-0.49424	3.17178	-1.62466	3.09925
3819.000	-0.44086	3.22535	-1.63256	3.17061
3820.000	-0.55157	3.22728	-1.54959	3.07358
3821.000	-0.55552	3.22133	-1.54564	3.18661
3822.000	-0.48831	3.15988	-1.57132	3.16079
3823.000	-0.42900	3.10636	-1.54959	3.14695
3824.000	-0.44086	3.11032	-1.62071	3.01002
3825.000	-0.49424	3.06666	-1.70170	3.18636
3826.000	-0.39539	3.01909	-1.66022	3.02186
3827.000	-0.41714	3.02701	-1.53379	3.05972
3828.000	-0.43493	3.01907	-1.50810	3.03993
3829.000	-0.51796	2.96944	-1.59108	3.01800
3830.000	-0.48040	2.99524	-1.59108	3.08938
3831.000	-0.53378	3.00316	-1.70565	3.06938
3832.000	-0.59506	3.05669	-1.63651	3.08932
3833.000	-0.55157	3.12812	-1.59305	3.03187
3834.000	-0.45075	3.03493	-1.62269	2.93465
3835.000	-0.59703	2.99320	-1.55354	3.02202
3836.000	-0.43493	3.07065	-1.54367	2.98038
3837.000	-0.56936	3.14397	-1.56342	2.97440
3838.000	-0.60692	2.95352	-1.75898	2.99791
3839.000	-0.69192	2.98720	-1.56737	3.05174
3840.000	-0.66622	3.15185	-1.59305	2.87320
3841.000	-0.57331	3.10827	-1.63651	2.89694
3842.000	-0.59703	3.13801	-1.68195	2.95638
3843.000	-0.51203	3.15590	-1.67207	2.77985
3844.000	-0.57133	3.15191	-1.58120	2.94859
3845.000	-0.48633	3.11426	-1.53181	2.85742
3846.000	-0.62866	3.11816	-1.63256	2.94455
3847.000	-0.61878	3.08643	-1.62861	2.91282
3848.000	-0.55552	3.10233	-1.59108	2.91684
3849.000	-0.58715	3.15388	-1.64639	2.94255
3850.000	-0.68599	3.22125	-1.66219	2.89096
3851.000	-0.58715	3.08446	-1.67404	2.89094
3852.000	-0.55157	3.27685	-1.67009	2.89293
3853.000	-0.60692	3.20345	-1.60491	2.99418
3854.000	-0.60494	3.22328	-1.51798	2.86735
3855.000	-0.60889	3.13999	-1.57132	2.86331
3856.000	-0.62273	3.13006	-1.59108	2.78393
3857.000	-0.61285	3.12610	-1.59700	2.88510
3858.000	-0.61285	3.18956	-1.59700	2.88510
3859.000	-0.64645	3.07252	-1.52786	2.86734
3860.000	-0.57133	3.07455	-1.53971	2.84749
3861.000	-0.64843	3.07252	-1.63059	2.88704
3862.000	-0.61285	3.09833	-1.54367	2.86137
3863.000	-0.51401	3.18169	-1.59700	2.80376
3864.000	-0.64843	3.08839	-1.65034	2.85527
3865.000	-0.59703	3.06462	-1.56342	2.89506
3866.000	-0.57529	3.14000	-1.57923	2.84347
3867.000	-0.63459	3.01500	-1.53181	2.79988
3868.000	-0.54959	3.06663	-1.52984	2.85147
3869.000	-0.65436	3.05070	-1.58515	2.85734
3870.000	-0.56540	3.03686	-1.62269	2.86721
3871.000	-0.56145	3.16580	-1.66219	2.87906
3872.000	-0.65831	3.06458	-1.65824	2.82947
3873.000	-0.66029	3.11417	-1.57330	2.91290
3874.000	-0.64843	3.11021	-1.55749	2.87127
3875.000	-0.55354	3.12613	-1.62466	2.85332
3876.000	-0.64250	3.06063	-1.54367	2.83161
3877.000	-0.55552	3.14795	-1.55157	2.73835
3878.000	-0.58715	3.08049	-1.61281	2.68867
3879.000	-0.56343	3.12018	-1.67997	2.82944
3880.000	-0.56540	3.14398	-1.56737	2.81968
3881.000	-0.56145	3.12018	-1.56737	2.81571
3882.000	-0.52784	3.11821	-1.64639	2.75807
3883.000	-0.52389	3.16383	-1.61083	2.77200
3884.000	-0.53773	3.18762	-1.60096	2.90890
3885.000	-0.57529	3.08645	-1.70170	2.86511
3886.000	-0.56738	3.12216	-1.58318	2.83354
3887.000	-0.64052	3.25697	-1.61083	2.86326
3888.000	-0.57133	3.21140	-1.61676	2.88507
3889.000	-0.56540	3.23917	-1.68985	2.82942
3890.000	-0.55354	3.24711	-1.62861	2.77793
3891.000	-0.64250	3.08641	-1.66812	2.83144
3892.000	-0.64448	3.07848	-1.71355	2.86311
3893.000	-0.58320	3.19751	-1.62861	2.71047
3894.000	-0.50610	3.19161	-1.54959	2.81772
3895.000	-0.58320	3.10628	-1.66417	2.76201
3896.000	-0.56936	3.11224	-1.62269	2.85332
3897.000	-0.43691	3.05676	-1.71355	2.81550
3898.000	-0.59703	3.01304	-1.73725	2.86308
3899.000	-0.66227	3.13995	-1.71158	2.84526
3900.000	-0.57727	2.97734	-1.74515	2.78967
3901.000	-0.56343	3.05472	-1.75700	2.88288
3902.000	-0.52587	3.13408	-1.73330	2.79365
3903.000	-0.67017	3.03680	-1.73330	2.82936
3904.000	-0.55552	3.17770	-1.72145	2.87302
3905.000	-0.52587	3.11425	-1.65627	2.87510
3906.000	-0.59703	3.02296	-1.82218	2.76178
3907.000	-0.57727	3.11620	-1.78466	2.91259
3908.000	-0.71959	2.97527	-1.69182	2.85719
3909.000	-0.67215	3.03284	-1.78071	2.75192
3910.000	-0.68796	3.03283	-1.89920	2.96198
3911.000	-0.65634	3.08442	-1.71948	2.87897
3912.000	-0.58715	3.08049	-1.74120	2.95629
3913.000	-0.63262	2.94160	-1.81231	2.83519
3914.000	-0.72552	3.10223	-1.77873	2.84714
3915.000	-0.67413	3.13400	-1.70762	2.82543
3916.000	-0.68796	3.12209	-1.77281	2.84120
3917.000	-0.65238	3.12013	-1.74910	2.87297
3918.000	-0.67413	3.09631	-1.83601	2.98787
3919.000	-0.68203	3.15382	-1.87156	2.92831
3920.000	-0.71761	3.03479	-1.77676	2.95623
3921.000	-0.78482	3.08632	-1.81428	2.83519
3922.000	-0.72947	3.09627	-1.85378	2.90851
3923.000	-0.80459	3.08432	-1.79453	2.92447
3924.000	-0.72157	3.20338	-1.72935	2.86309
3925.000	-0.72947	2.98519	-1.77083	2.97211
3926.000	-0.71959	3.08636	-1.81033	3.02757
3927.000	-0.73343	3.12999	-1.71750	2.92459
3928.000	-0.62471	3.06262	-1.81626	2.87882
3929.000	-0.65634	3.15979	-1.81231	2.84511
3930.000	-0.73343	3.02288	-1.72145	2.83731
3931.000	-0.74529	3.07048	-1.74120	2.95232
3932.000	-0.79470	3.03672	-1.77676	2.88483
3933.000	-0.77691	2.99309	-1.68195	2.81555
3934.000	-0.82040	2.96727	-1.71355	2.75400
3935.000	-0.74133	3.05263	-1.70170	2.83536
3936.000	-0.82435	3.01885	-1.74713	2.77181
3937.000	-0.74133	3.07246	-1.71948	2.70836
3938.000	-0.74133	3.00105	-1.63651	2.77594
3939.000	-0.74924	3.02287	-1.77083	2.88683
3940.000	-0.73145	2.97923	-1.72343	2.75201
3941.000	-0.76308	2.93755	-1.76095	2.77576
3942.000	-0.74331	2.96931	-1.75305	2.72617
3943.000	-0.77296	2.96135	-1.72540	2.84127
3944.000	-0.71761	2.98916	-1.66417	2.75011
3945.000	-0.73738	3.02486	-1.73923	2.78769
3946.000	-0.73145	3.14387	-1.64046	2.72434
3947.000	-0.78680	3.00499	-1.64441	2.66481
3948.000	-0.75122	3.03080	-1.65824	2.67868
3949.000	-0.73738	3.10817	-1.61676	2.75017
3950.000	-0.73936	3.03279	-1.58713	2.81568
3951.000	-0.78087	3.12004	-1.68590	2.73619
3952.000	-0.78877	2.96729	-1.62861	2.57950
3953.000	-0.78877	3.05259	-1.59108	2.58550
3954.000	-0.75912	3.04865	-1.64639	2.59932
3955.000	-0.61878	3.06262	-1.72540	2.64089
3956.000	-0.73145	3.04470	-1.60293	2.70257
3957.000	-0.70575	3.02885	-1.66812	2.60922
3958.000	-0.75517	2.95938	-1.64441	2.66481
3959.000	-0.69389	3.07051	-1.59700	2.60931
3960.000	-0.72157	3.01693	-1.70565	2.57146
3961.000	-0.72354	3.07644	-1.59305	2.59741
3962.000	-0.77494	3.07244	-1.58515	2.58948
3963.000	-0.68599	2.99117	-1.61478	2.50608
3964.000	-0.75517	2.95343	-1.63454	2.60728
3965.000	-0.73540	2.92765	-1.57527	2.56766
3966.000	-0.76110	2.95541	-1.66417	2.72233
3967.000	-0.61680	2.96145	-1.56737	2.63912
3968.000	-0.68994	2.86220	-1.60096	2.64899
3969.000	-0.68203	2.91181	-1.58713	2.56368
3970.000	-0.79470	2.86808	-1.62664	2.70254
3971.000	-0.66029	2.91381	-1.67207	2.71637
3972.000	-0.75319	2.96732	-1.62269	2.68865
3973.000	-0.78680	2.84428	-1.65627	2.70051
3974.000	-0.78284	2.81054	-1.67602	2.59135
3975.000	-0.88167	2.80254	-1.71750	2.64884
3976.000	-0.78284	2.80261	-1.59108	2.62916
3977.000	-0.78482	2.80261	-1.70960	2.67861
3978.000	-0.83621	2.79860	-1.70170	2.76394
3979.000	-0.83226	2.92361	-1.64244	2.75807
3980.000	-0.76110	2.95938	-1.64837	2.73822
3981.000	-0.86784	2.82636	-1.60491	2.75614
3982.000	-0.80854	2.85220	-1.63849	2.70847
3983.000	-0.81645	2.87600	-1.68392	2.75206
3984.000	-0.82435	2.91370	-1.71355	2.67464
3985.000	-0.79668	2.98713	-1.70960	2.68258
3986.000	-0.80656	2.97125	-1.66022	2.66479
3987.000	-0.75122	2.94748	-1.55947	2.74826
3988.000	-0.86784	2.86803	-1.64837	2.78981
3989.000	-0.77494	2.90381	-1.54367	2.75820
3990.000	-0.76703	2.90382	-1.75108	2.76188
3991.000	-0.69587	3.06654	-1.67207	2.73025
3992.000	-0.85796	2.89383	-1.69775	2.71038
3993.000	-0.79273	2.91967	-1.78268	2.74597
3994.000	-0.78087	2.98118	-1.68195	2.76000
3995.000	-0.74331	2.91177	-1.70565	2.75997
3996.000	-0.80656	2.89784	-1.63849	2.70054
3997.000	-0.67215	2.84236	-1.65824	2.73623
3998.000	-0.76308	2.88001	-1.67404	2.88102
3999.000	-0.64250	2.88008	-1.72145	2.80359
4000.000	-0.65634	2.94357	-1.73725	2.81944
4001.000	-0.82238	2.88989	-1.66417	2.61319
4002.000	-0.79668	2.95141	-1.68590	2.78380
4003.000	-0.79668	2.83633	-1.65429	2.67869
4004.000	-0.73540	2.92963	-1.64441	2.79973
4005.000	-0.62866	2.88604	-1.73330	2.86110
4006.000	-0.73936	2.83836	-1.70565	2.86312
4007.000	-0.80261	2.82244	-1.74515	2.74007
4008.000	-0.77494	2.85024	-1.68985	2.78578
4009.000	-0.70575	2.81655	-1.68195	2.71437
4010.000	-0.72947	2.91575	-1.69972	2.72426
4011.000	-0.67215	2.81657	-1.75898	2.76187
4012.000	-0.62471	2.78484	-1.64441	2.77394
4013.000	-0.67808	2.89197	-1.71355	2.75202
4014.000	-0.72750	2.85225	-1.71948	2.77780
4015.000	-0.66029	2.90389	-1.72935	2.82738
4016.000	-0.68599	2.88204	-1.70565	2.72425
4017.000	-0.72157	2.89790	-1.75503	2.82338
4018.000	-0.73936	2.81653	-1.69380	2.68657
4019.000	-0.68599	2.96339	-1.81626	2.83518
4020.000	-0.68401	2.90387	-1.70762	2.80758
4021.000	-0.71761	2.94948	-1.70762	2.77385
4022.000	-0.73738	2.84431	-1.69972	2.73418
4023.000	-0.60296	2.92773	-1.74910	2.68848
4024.000	-0.67215	2.91777	-1.77873	2.61502
4025.000	-0.66820	2.88602	-1.69380	2.64689
4026.000	-0.72750	2.93559	-1.61676	2.74025
4027.000	-0.70971	3.01694	-1.69182	2.71634
4028.000	-0.63262	2.93565	-1.63454	2.63704
4029.000	-0.76703	2.92564	-1.71948	2.68257
4030.000	-0.79470	3.04465	-1.69577	2.65284
4031.000	-0.73936	3.01891	-1.67997	2.69453
4032.000	-0.73936	3.00502	-1.68392	2.59332
4033.000	-0.75912	3.03873	-1.62664	2.65888
4034.000	-0.75715	3.17757	-1.67800	2.64294
4035.000	-0.71564	3.06851	-1.58910	2.70060
4036.000	-0.75122	3.14386	-1.69182	2.69253
4037.000	-0.83424	3.10810	-1.66812	2.58144
4038.000	-0.71564	3.13595	-1.59700	2.64305
4039.000	-0.84214	3.16957	-1.59108	2.67679
4040.000	-0.76308	3.18748	-1.64046	2.64894
4041.000	-0.77296	3.20334	-1.59503	2.56168
4042.000	-0.84017	3.10809	-1.70170	2.61513
4043.000	-0.78680	3.13392	-1.64837	2.59138
4044.000	-0.84412	3.14181	-1.66417	2.59533
4045.000	-0.86388	3.18145	-1.66812	2.65883
4046.000	-0.79866	3.17754	-1.66812	2.53579
4047.000	-0.79866	3.12597	-1.65429	2.53184
4048.000	-0.76308	3.07443	-1.65429	2.70647
4049.000	-0.78087	3.11607	-1.67997	2.51394
4050.000	-0.80063	3.05060	-1.67009	2.57945
4051.000	-0.87574	3.03666	-1.71750	2.54366
4052.000	-0.82040	3.06249	-1.64837	2.57948
4053.000	-0.80656	3.15572	-1.60688	2.57159
4054.000	-0.76308	3.14782	-1.64441	2.64299
4055.000	-0.83028	3.03669	-1.72145	2.67264
4056.000	-0.84412	3.11007	-1.67997	2.57547
4057.000	-0.79866	3.07837	-1.67009	2.56556
4058.000	-0.79273	3.06251	-1.69577	2.67665
4059.000	-0.85993	3.11006	-1.66219	2.68066
4060.000	-0.83028	3.01884	-1.73330	2.53372
4061.000	-0.80854	3.09820	-1.66417	2.63502
4062.000	-0.77691	3.16962	-1.70170	2.65283
4063.000	-0.83028	3.08033	-1.64046	2.60330
4064.000	-0.72750	3.13991	-1.69972	2.59727
4065.000	-0.71564	3.06851	-1.65824	2.61320
4066.000	-0.76110	3.05261	-1.67404	2.69652
4067.000	-0.70575	3.10819	-1.62466	2.66087
4068.000	-0.74924	3.11213	-1.69182	2.65681
4069.000	-0.71564	3.06455	-1.68195	2.66278
4070.000	-0.85400	2.96923	-1.68985	2.58339
4071.000	-0.81249	3.04663	-1.64441	2.69855
4072.000	-0.84610	3.01684	-1.64837	2.65290
4073.000	-0.72947	3.10024	-1.67009	2.71637
4074.000	-0.76505	3.07245	-1.72145	2.76590
4075.000	-0.82633	3.04265	-1.66417	2.63899
4076.000	-0.80656	3.14977	-1.68985	2.59927
4077.000	-0.80261	3.15572	-1.62861	2.67277
4078.000	-0.83424	3.07636	-1.69182	2.57347
4079.000	-0.88563	3.11004	-1.72935	2.63096
4080.000	-0.85203	3.04064	-1.66812	2.60326
4081.000	-0.72354	3.09231	-1.66022	2.64892
4082.000	-0.82435	3.09025	-1.67404	2.60723
4083.000	-0.65634	3.13401	-1.59898	2.56366
4084.000	-0.76110	3.05261	-1.70565	2.66671
4085.000	-0.72750	3.15776	-1.79848	2.62491
4086.000	-0.87377	3.03468	-1.68787	2.48019
4087.000	-0.81447	3.05059	-1.62861	2.62911
4088.000	-0.75912	3.03675	-1.72935	2.62104
4089.000	-0.80261	3.05060	-1.73923	2.56943
4090.000	-0.74726	3.08238	-1.72145	2.59327
4091.000	-0.75122	3.04865	-1.69577	2.39880
4092.000	-0.73738	3.09230	-1.65232	2.51596
4093.000	-0.73738	3.08238	-1.63849	2.49613
4094.000	-0.68599	3.06655	-1.63454	2.62514
4095.000	-0.74529	3.05858	-1.57725	2.50811
4096.000	-0.75122	3.02088	-1.68195	2.46630
4097.000	-0.74726	3.09626	-1.61873	2.50211
4098.000	-0.70773	3.07447	-1.61676	2.66683
4099.000	-0.81052	3.11208	-1.65429	2.52191
4100.000	-0.72552	3.03082	-1.59305	2.51207
4101.000	-0.75912	2.97326	-1.64244	2.48422
4102.000	-0.77494	3.05657	-1.69775	2.58536
4103.000	-0.74133	2.95939	-1.59503	2.52397
4104.000	-0.75319	3.02683	-1.68590	2.61713
4105.000	-0.74924	3.00105	-1.73330	2.47021
4106.000	-0.70773	2.97528	-1.60491	2.59938
4107.000	-0.78284	2.97920	-1.70367	2.51193
4108.000	-0.74529	3.02684	-1.59305	2.48825
4109.000	-0.80261	2.98514	-1.67207	2.45044
4110.000	-0.65238	2.96143	-1.62861	2.58546
4111.000	-0.77889	3.02880	-1.67602	2.51395
4112.000	-0.79470	2.98316	-1.64837	2.42665
4113.000	-0.74529	2.96335	-1.70170	2.48216
4114.000	-0.76901	3.01095	-1.60096	2.47236
4115.000	-0.76308	2.95937	-1.67404	2.53380
4116.000	-0.85005	3.03073	-1.72738	2.58136
4117.000	-0.81447	2.90974	-1.70762	2.51391
4118.000	-0.75319	2.92565	-1.68392	2.50203
4119.000	-0.82040	3.01885	-1.71355	2.36900
4120.000	-0.78680	3.00300	-1.77083	2.42252
4121.000	-0.83424	3.03272	-1.61676	2.48028
4122.000	-0.81842	2.97521	-1.65824	2.51595
4123.000	-0.75715	3.00699	-1.71750	2.47817
4124.000	-0.75517	3.01493	-1.66219	2.45243
4125.000	-0.86586	2.95335	-1.65824	2.34921
4126.000	-0.81447	3.04464	-1.64639	2.46436
4127.000	-0.81645	3.00695	-1.63849	2.60330
4128.000	-0.87574	3.03071	-1.74515	2.45431
4129.000	-0.89551	3.00292	-1.68787	2.44645
4130.000	-0.84610	3.01883	-1.65429	2.30157
4131.000	-0.79470	2.93753	-1.69380	2.28167
4132.000	-0.74924	2.92566	-1.71750	2.46626
4133.000	-0.80854	2.98712	-1.67009	2.37699
4134.000	-0.82238	2.94148	-1.64244	2.34327
4135.000	-0.92120	2.88188	-1.74910	2.39674
4136.000	-0.90144	2.94538	-1.68985	2.40476
4137.000	-0.88760	3.05648	-1.68195	2.38492
4138.000	-0.93306	3.05843	-1.75503	2.35703
4139.000	-0.93899	2.95130	-1.78466	2.40464
4140.000	-0.94887	3.06833	-1.66812	2.36310
4141.000	-0.97654	3.03062	-1.71355	2.32532
4142.000	-0.77691	2.84428	-1.63059	2.32145
4143.000	-0.73540	2.92368	-1.50218	2.39704
4144.000	-0.75715	2.79270	-1.30262	2.26619
4145.000	-0.55157	2.84243	-1.27298	2.31189
4146.000	-0.46656	2.76904	-1.16627	2.24049
4147.000	-0.41516	2.60430	-1.03584	2.19689
4148.000	-0.24515	2.51103	-0.86784	2.10761
4149.000	-0.22142	2.44153	-0.69982	2.06597
4150.000	-0.12653	2.27670	-0.47645	1.74215
4151.000	0.02966	2.24492	-0.35586	1.73025
4152.000	0.17398	2.12374	-0.37167	1.65472
4153.000	0.15618	2.01844	-0.31039	1.51955
4154.000	0.34795	1.86739	-0.29655	1.39430
4155.000	0.44482	1.90313	-0.24515	1.30881
4156.000	0.35388	1.70640	-0.27678	1.24717
4157.000	0.33609	1.73224	-0.27480	1.24319
4158.000	0.42109	1.84551	-0.31236	1.27102
4159.000	0.44284	1.78588	-0.27480	1.15172
4160.000	0.39342	1.75807	-0.29852	1.17558
4161.000	0.33806	1.76205	-0.29062	1.17359
4162.000	0.34399	1.74814	-0.33213	1.13182
4163.000	0.43493	1.74613	-0.27876	1.06024
4164.000	0.35783	1.61695	-0.24910	1.00256
4165.000	0.50610	1.61294	-0.32225	0.97471
4166.000	0.37760	1.68056	-0.36772	1.02841
4167.000	0.50412	1.60301	-0.34202	0.97670
4168.000	0.42900	1.59507	-0.38749	0.96675
4169.000	0.34004	1.50165	-0.38551	0.97471
4170.000	0.29655	1.56329	-0.42900	0.89515
4171.000	0.46854	1.58512	-0.41912	1.00255
4172.000	0.32620	1.53943	-0.36376	1.00255
4173.000	0.36376	1.55334	-0.37167	1.05426
4174.000	0.43098	1.67657	-0.31039	1.09802
4175.000	0.40923	1.64278	-0.39737	1.14772
4176.000	0.43296	1.70440	-0.34993	1.03636
4177.000	0.34399	1.59708	-0.46459	1.04629
4178.000	0.47842	1.58910	-0.31434	1.28096
4179.000	0.44086	1.71433	-0.34597	1.13779
4180.000	0.59308	1.63677	-0.35783	1.04034
4181.000	0.50610	1.60897	-0.29655	1.10597
4182.000	0.40528	1.55929	-0.34399	1.03239
4183.000	0.45272	1.59507	-0.36376	1.16563
4184.000	0.42702	1.69645	-0.33213	1.03040
4185.000	0.38551	1.54141	-0.34597	1.01847
4186.000	0.40330	1.48176	-0.37167	1.10994
4187.000	0.37167	1.49171	-0.19968	1.11990
4188.000	0.49819	1.51952	-0.41319	1.08607
4189.000	0.35783	1.56924	-0.26492	1.09405
4190.000	0.53575	1.56125	-0.38551	0.97869
4191.000	0.51796	1.38035	-0.37563	1.09205
4192.000	0.40528	1.44001	-0.30446	1.17160
4193.000	0.41912	1.56526	-0.33016	1.11591
4194.000	0.45668	1.51157	-0.37958	1.02443
4195.000	0.48831	1.39825	-0.36772	1.04829
4196.000	0.48040	1.48572	-0.28666	1.16166
4197.000	0.53971	1.54336	-0.42109	1.04232
4198.000	0.42109	1.50959	-0.40133	1.20937
4199.000	0.39737	1.44598	-0.43889	1.12187
4200.000	0.53971	1.54336	-0.34202	1.16961
4201.000	0.47645	1.49765	-0.27085	1.11194
4202.000	0.50412	1.43801	-0.36772	1.15369
4203.000	0.42307	1.47182	-0.37760	1.13778
4204.000	0.46656	1.53344	-0.46854	1.11192
4205.000	0.49028	1.46783	-0.42109	1.17158
4206.000	0.47645	1.47976	-0.40133	1.22528
4207.000	0.42109	1.40820	-0.33609	1.06819
4208.000	0.41714	1.48375	-0.29852	1.10399
4209.000	0.47645	1.50958	-0.27876	1.10200
4210.000	0.43098	1.39030	-0.30248	1.07813
4211.000	0.41319	1.52550	-0.39737	1.06619
4212.000	0.44086	1.42410	-0.39737	1.10795
4213.000	0.32818	1.51358	-0.35388	1.18551
4214.000	0.30050	1.45395	-0.34597	1.14972
4215.000	0.44482	1.36644	-0.38156	1.10596
4216.000	0.38551	1.45791	-0.31039	1.09205
4217.000	0.31236	1.47184	-0.41516	1.03835
4218.000	0.32027	1.42412	-0.26689	0.98267
4219.000	0.34399	1.59509	-0.35783	1.07813
4220.000	0.39144	1.47580	-0.36376	1.06222
4221.000	0.42702	1.42808	-0.35190	1.06619
4222.000	0.37365	1.39230	-0.31829	0.99858
4223.000	0.43098	1.50561	-0.31039	1.04432
4224.000	0.36376	1.38037	-0.40330	1.04232
4225.000	0.43889	1.50561	-0.32225	1.03438
4226.000	0.41714	1.44995	-0.39144	1.00454
4227.000	0.41319	1.40422	-0.33609	1.08807
4228.000	0.43098	1.54935	-0.30050	1.09603
4229.000	0.40923	1.41814	-0.32620	1.12785
4230.000	0.36376	1.50165	-0.31632	1.10995
4231.000	0.43296	1.30481	-0.42900	1.04033
4232.000	0.40330	1.35850	-0.36772	1.08210
4233.000	0.33213	1.40225	-0.36772	0.97471
4234.000	0.44482	1.30679	-0.40923	1.12187
4235.000	0.41319	1.40224	-0.33806	1.10398
4236.000	0.33806	1.31476	-0.33213	1.04034
4237.000	0.35981	1.38833	-0.28073	0.99858
4238.000	0.39935	1.47381	-0.35190	1.04034
4239.000	0.41516	1.41417	-0.42505	1.05425
4240.000	0.39935	1.52152	-0.34795	1.07415
4241.000	0.35388	1.45195	-0.36772	1.00454
4242.000	0.36179	1.43406	-0.32225	1.05824
4243.000	0.35783	1.50563	-0.33213	0.96278
4244.000	0.36179	1.53147	-0.34795	1.02642
4245.000	0.38551	1.52948	-0.31434	0.93494
4246.000	0.39342	1.49369	-0.30446	0.98864
4247.000	0.35190	1.62292	-0.33411	1.01648
4248.000	0.33609	1.45991	-0.44086	0.96675
4249.000	0.31829	1.46190	-0.38946	0.90908
4250.000	0.35783	1.59310	-0.35586	1.02642
4251.000	0.40133	1.46188	-0.38946	1.02045
4252.000	0.33213	1.48774	-0.32225	0.93693
4253.000	0.33806	1.43804	-0.41912	1.01050
4254.000	0.38353	1.45195	-0.39737	1.03238
4255.000	0.23724	1.46191	-0.40726	1.08210
4256.000	0.34795	1.46587	-0.34993	1.06023
4257.000	0.31434	1.38833	-0.40528	1.10795
4258.000	0.18979	1.41817	-0.33213	1.07017
4259.000	0.25108	1.39629	-0.25503	0.99859
4260.000	0.32225	1.34658	-0.36376	0.99261
4261.000	0.24515	1.32671	-0.36376	1.00454
4262.000	0.34004	1.36845	-0.35190	1.09006
4263.000	0.23526	1.38039	-0.42307	1.04033
4264.000	0.30446	1.32471	-0.37958	1.02045
4265.000	0.42109	1.40422	-0.35388	0.97073
4266.000	0.30446	1.33863	-0.35190	0.97471
4267.000	0.32225	1.30681	-0.36772	0.95880
4268.000	0.37958	1.24715	-0.34795	1.09603
4269.000	0.34202	1.32669	-0.30841	0.97273
4270.000	0.43691	1.30083	-0.33213	1.04631
4271.000	0.30841	1.38237	-0.28271	0.99262
4272.000	0.29457	1.27898	-0.30643	1.01449
4273.000	0.24712	1.36448	-0.32818	0.96079
4274.000	0.29259	1.43605	-0.40726	1.01448
4275.000	0.31829	1.40225	-0.41319	1.07613
4276.000	0.25899	1.21535	-0.38353	1.02244
4277.000	0.28864	1.34460	-0.41516	0.95084
4278.000	0.39144	1.42013	-0.34399	0.96676
4279.000	0.45075	1.41416	-0.35981	1.04432
4280.000	0.33411	1.35055	-0.43889	0.95879
4281.000	0.30643	1.47383	-0.32225	0.93693
4282.000	0.30050	1.43208	-0.33806	0.97272
4283.000	0.30050	1.39032	-0.37167	1.08608
4284.000	0.33213	1.39430	-0.34795	0.95283
4285.000	0.27282	1.44997	-0.43493	0.91106
4286.000	0.34795	1.41418	-0.33213	1.03239
4287.000	0.33609	1.49768	-0.37563	1.02841
4288.000	0.33213	1.46985	-0.34004	0.91704
4289.000	0.32027	1.35453	-0.33806	1.00455
4290.000	0.37563	1.47779	-0.32225	0.91107
4291.000	0.34795	1.41616	-0.37563	1.00852
4292.000	0.30643	1.49172	-0.36179	1.00653
4293.000	0.31434	1.37839	-0.34795	1.01051
4294.000	0.32620	1.35453	-0.30841	0.97074
4295.000	0.24515	1.36249	-0.37167	0.97272
4296.000	0.25701	1.36846	-0.37365	0.97471
4297.000	0.21352	1.39829	-0.36772	0.94687
4298.000	0.26689	1.36647	-0.44086	0.91702
4299.000	0.30841	1.45593	-0.34004	0.99062
4300.000	0.28271	1.27500	-0.35783	0.95880
4301.000	0.26294	1.31676	-0.43098	1.01448
4302.000	0.32225	1.35056	-0.37760	1.03437
4303.000	0.33806	1.25909	-0.41516	0.82156
4304.000	0.32818	1.32670	-0.38156	0.98067
4305.000	0.32422	1.29687	-0.47052	0.99458
4306.000	0.28666	1.27898	-0.30050	0.92102
4307.000	0.29259	1.36448	-0.36969	0.98465
4308.000	0.34202	1.28494	-0.31039	0.90908
4309.000	0.33411	1.33067	-0.38946	0.93095
4310.000	0.35981	1.29289	-0.36969	0.95084
4311.000	0.27480	1.36050	-0.37167	0.89118
4312.000	0.28469	1.31477	-0.39935	0.89316
4313.000	0.32225	1.30482	-0.31829	0.88720
4314.000	0.33609	1.33067	-0.29655	0.90312
4315.000	0.34202	1.34658	-0.34795	0.91107
4316.000	0.31434	1.30085	-0.25899	0.90312
4317.000	0.38749	1.24516	-0.32620	0.90311
4318.000	0.33016	1.22529	-0.38946	0.97073
4319.000	0.36574	1.32073	-0.32818	0.90311
4320.000	0.28864	1.22131	-0.42505	0.99857
4321.000	0.37760	1.28294	-0.36574	0.92101
4322.000	0.34399	1.40225	-0.35190	0.81162
4323.000	0.37365	1.43803	-0.41319	0.97669
4324.000	0.27282	1.36846	-0.41516	0.98863
4325.000	0.38946	1.41616	-0.37958	0.88521
4326.000	0.29457	1.38038	-0.37760	0.94488
4327.000	0.25305	1.34659	-0.40726	1.00255
4328.000	0.30841	1.37243	-0.42900	1.03238
4329.000	0.31236	1.45593	-0.41912	0.95084
4330.000	0.26096	1.43805	-0.37958	0.96675
4331.000	0.27678	1.42810	-0.38353	0.88322
4332.000	0.33609	1.50563	-0.31434	0.99063
4333.000	0.22933	1.49372	-0.47645	0.91105
4334.000	0.25503	1.51161	-0.34993	0.95681
4335.000	0.30841	1.54341	-0.45272	0.97470
4336.000	0.33411	1.51955	-0.43691	1.07414
4337.000	0.25108	1.52552	-0.34993	0.98863
4338.000	0.36772	1.51159	-0.38946	0.83151
4339.000	0.25503	1.35454	-0.42307	0.88520
4340.000	0.21747	1.33466	-0.41714	0.88918
4341.000	0.34004	1.42412	-0.40330	0.89117
4342.000	0.37958	1.40821	-0.45668	0.90509
4343.000	0.23131	1.42016	-0.47645	0.90509
4344.000	0.24515	1.38238	-0.39342	0.87129
4345.000	0.32027	1.34260	-0.36772	0.87725
4346.000	0.26096	1.47184	-0.37760	0.89913
4347.000	0.32225	1.44003	-0.43296	0.91106
4348.000	0.19572	1.26109	-0.35388	0.94886
4349.000	0.28666	1.38834	-0.44284	0.94487
4350.000	0.22933	1.36647	-0.46063	0.95680
4351.000	0.28469	1.37641	-0.41714	0.88521
4352.000	0.30050	1.44599	-0.44482	0.92498
4353.000	0.39737	1.38236	-0.42505	0.94288
4354.000	0.36969	1.43405	-0.41319	1.01050
4355.000	0.33609	1.43406	-0.42505	0.96476
4356.000	0.38551	1.42809	-0.40330	0.86134
4357.000	0.32422	1.43804	-0.43889	0.93691
4358.000	0.41121	1.52152	-0.39539	0.97868
4359.000	0.35190	1.46786	-0.44086	0.95481
4360.000	0.34795	1.51756	-0.48040	0.92299
4361.000	0.35388	1.50762	-0.32422	0.88919
4362.000	0.38551	1.52550	-0.45865	0.93492
4363.000	0.29457	1.56528	-0.39342	0.89316
4364.000	0.38749	1.54737	-0.38353	0.94686
4365.000	0.35586	1.61496	-0.37760	0.86333
4366.000	0.31632	1.47383	-0.43889	1.01249
4367.000	0.30446	1.62491	-0.50808	0.91105
4368.000	0.26689	1.53546	-0.40726	0.88123
4369.000	0.23131	1.72431	-0.40330	0.94487
4370.000	0.36574	1.61297	-0.40528	0.87725
4371.000	0.21945	1.69847	-0.48040	0.83150
4372.000	0.22142	1.57721	-0.40923	0.99857
4373.000	0.35190	1.58316	-0.47645	0.90509
4374.000	0.39144	1.67260	-0.48040	0.81559
4375.000	0.33411	1.60304	-0.45470	0.87327
4376.000	0.21747	1.66865	-0.51796	0.91900
4377.000	0.23526	1.60107	-0.37958	0.79770
4378.000	0.30050	1.65473	-0.46459	0.90907
4379.000	0.19968	1.70443	-0.34597	0.90112
4380.000	0.30446	1.58714	-0.34202	0.91107
4381.000	0.32027	1.61895	-0.40133	0.89117
4382.000	0.16014	1.54144	-0.42702	0.82355
4383.000	0.29655	1.54937	-0.42900	0.77183
4384.000	0.20956	1.46787	-0.37167	0.87527
4385.000	0.25701	1.53745	-0.46063	0.86929
4386.000	0.17595	1.50167	-0.35783	0.76985
4387.000	0.16804	1.51559	-0.45470	0.77979
4388.000	0.24515	1.55932	-0.40330	0.91504
4389.000	0.24515	1.52751	-0.52587	0.93292
4390.000	0.29655	1.47582	-0.20561	0.92699
4391.000	0.32422	1.47382	-0.40528	0.87924
4392.000	0.22142	1.55733	-0.43691	0.92498
4393.000	0.27282	1.49172	-0.46459	0.84542
4394.000	0.31236	1.47184	-0.46261	0.86730
4395.000	0.31434	1.40822	-0.41516	0.93095
4396.000	0.29457	1.52154	-0.39737	0.84543
4397.000	0.28073	1.46389	-0.49424	0.93094
4398.000	0.43889	1.52549	-0.49028	0.95680
4399.000	0.32818	1.39827	-0.38946	0.97073
4400.000	0.28073	1.43606	-0.41714	0.85537
4401.000	0.30248	1.45593	-0.36179	0.88322
4402.000	0.32620	1.46388	-0.35388	0.83748
4403.000	0.41121	1.51357	-0.41912	0.91504
4404.000	0.35981	1.53346	-0.35586	0.89516
4405.000	0.43493	1.51158	-0.35981	0.86333
4406.000	0.29259	1.52353	-0.49226	0.86133
4407.000	0.35981	1.32271	-0.35981	0.86532
4408.000	0.36179	1.40622	-0.40923	0.86532
4409.000	0.44086	1.45392	-0.32620	0.85339
4410.000	0.28666	1.44003	-0.34597	0.80963
4411.000	0.34795	1.52153	-0.33609	0.80565
4412.000	0.34993	1.54340	-0.39737	0.91106
4413.000	0.33806	1.44996	-0.36772	0.83549
4414.000	0.39144	1.50363	-0.40330	0.84344
4415.000	0.34597	1.35453	-0.40330	0.83349
4416.000	0.29259	1.45594	-0.37760	0.85736
4417.000	0.22538	1.47185	-0.34004	0.81560
4418.000	0.18979	1.38238	-0.39342	0.83151
4419.000	0.36969	1.43207	-0.55157	0.81160
4420.000	0.27678	1.47582	-0.46261	0.87724
4421.000	0.33411	1.50364	-0.42505	0.90310
4422.000	0.33609	1.37243	-0.39935	0.87526
4423.000	0.28073	1.37442	-0.40330	0.85736
4424.000	0.23724	1.48576	-0.42702	0.85139
4425.000	0.31434	1.43406	-0.44482	0.83349
4426.000	0.25899	1.45992	-0.41319	0.90708
4427.000	0.33806	1.45593	-0.50215	0.85337
4428.000	0.33213	1.42014	-0.44284	0.84741
4429.000	0.29457	1.34062	-0.42307	0.76189
4430.000	0.28864	1.42810	-0.48040	0.80763
4431.000	0.37563	1.33862	-0.46063	0.85736
4432.000	0.20165	1.30086	-0.36574	0.91703
4433.000	0.19968	1.28694	-0.37365	0.89118
4434.000	0.23131	1.32273	-0.43493	0.94288
4435.000	0.25305	1.39033	-0.36969	0.93294
4436.000	0.30248	1.34857	-0.39737	0.90112
4437.000	0.23131	1.30881	-0.32620	0.88124
4438.000	0.31829	1.38237	-0.37563	0.84941
4439.000	0.19572	1.34063	-0.44482	0.93095
4440.000	0.34597	1.36845	-0.46459	0.98066
4441.000	0.30248	1.37839	-0.40923	0.86731
4442.000	0.18386	1.40624	-0.45075	0.96277
4443.000	0.32818	1.44003	-0.48435	0.77382
4444.000	0.22340	1.38834	-0.31236	0.85936
4445.000	0.30446	1.44599	-0.49424	0.83746
4446.000	0.26294	1.48377	-0.41714	0.85537
4447.000	0.14630	1.31876	-0.44877	0.79172
4448.000	0.23724	1.40425	-0.44877	0.77979
4449.000	0.33411	1.35055	-0.37760	0.76388
4450.000	0.26492	1.38834	-0.44877	0.75791
4451.000	0.30446	1.37839	-0.37167	0.91107
4452.000	0.21352	1.35057	-0.40133	0.81162
4453.000	0.26096	1.41220	-0.42505	0.82156
4454.000	0.18386	1.22530	-0.39737	0.91106
4455.000	0.32620	1.42213	-0.41121	0.78974
4456.000	0.30050	1.36050	-0.48435	0.92497
4457.000	0.34795	1.32669	-0.39539	0.80963
4458.000	0.35388	1.33067	-0.38551	0.82952
4459.000	0.31434	1.32869	-0.32422	0.74002
4460.000	0.34202	1.27698	-0.51203	0.82950
4461.000	0.32225	1.34658	-0.44679	0.87128
4462.000	0.27282	1.32074	-0.42307	0.83349
4463.000	0.45272	1.30083	-0.42505	0.86134
4464.000	0.33609	1.39430	-0.38946	0.90311
4465.000	0.48633	1.37638	-0.38353	0.83946
4466.000	0.30248	1.39032	-0.41121	0.86333
4467.000	0.22735	1.42811	-0.38551	0.98863
4468.000	0.37365	1.42212	-0.33016	0.80963
4469.000	0.32027	1.34061	-0.31829	0.88919
4470.000	0.31829	1.36447	-0.36969	0.85339
4471.000	0.35783	1.29687	-0.35981	0.86532
4472.000	0.18781	1.29291	-0.38946	0.90908
4473.000	0.29259	1.28296	-0.39737	0.84145
4474.000	0.27282	1.27302	-0.41121	0.87327
4475.000	0.26294	1.33863	-0.39539	0.96476
4476.000	0.35190	1.24119	-0.34795	0.88919
4477.000	0.33016	1.25114	-0.34993	0.97272
4478.000	0.18386	1.32472	-0.39539	0.81957
4479.000	0.22538	1.33665	-0.47052	0.89315
4480.000	0.32027	1.33266	-0.40133	0.90311
4481.000	0.30841	1.28892	-0.37958	0.83151
4482.000	0.30643	1.27500	-0.37167	0.93493
4483.000	0.29655	1.19944	-0.37167	0.82952
4484.000	0.31236	1.31079	-0.38551	0.92101
4485.000	0.29852	1.35652	-0.37760	0.89515
4486.000	0.31632	1.31079	-0.35586	0.88521
4487.000	0.39342	1.39826	-0.37760	0.81759
4488.000	0.29062	1.28693	-0.40923	0.97073
4489.000	0.29062	1.33465	-0.44482	1.01845
4490.000	0.37167	1.27897	-0.46459	0.91702
4491.000	0.34597	1.27897	-0.30841	0.91505
4492.000	0.37760	1.37640	-0.34004	0.80764
4493.000	0.29457	1.37243	-0.30050	0.80765
4494.000	0.26689	1.32869	-0.31039	0.81361
4495.000	0.28666	1.25313	-0.38353	0.78775
4496.000	0.29062	1.27699	-0.34597	0.90112
4497.000	0.30446	1.23722	-0.33213	0.82753
4498.000	0.32620	1.23722	-0.41714	0.84940
4499.000	0.37365	1.28096	-0.41516	0.89117
4500.000	0.32818	1.19546	-0.34399	0.90510
4501.000	0.32620	1.32073	-0.35190	0.77184
4502.000	0.31829	1.19745	-0.36969	0.92101
4503.000	0.29457	1.23324	-0.35388	0.90112
4504.000	0.20561	1.22530	-0.41714	0.81161
4505.000	0.20363	1.31478	-0.42505	0.93890
4506.000	0.27282	1.18353	-0.36376	0.81361
4507.000	0.31039	1.24120	-0.37365	0.85339
4508.000	0.17595	1.20144	-0.38749	0.80167
4509.000	0.32620	1.12984	-0.41121	0.84145
4510.000	0.30643	1.24915	-0.41121	0.85935
4511.000	0.25108	1.21734	-0.39144	0.82156
4512.000	0.34399	1.18154	-0.41714	0.83946
4513.000	0.33411	1.25909	-0.38353	0.78775
4514.000	0.29062	1.19149	-0.41121	0.81957
4515.000	0.32422	1.26307	-0.37365	0.84543
4516.000	0.26294	1.17558	-0.34597	0.84543
4517.000	0.32422	1.25909	-0.45668	0.79968
4518.000	0.41121	1.26306	-0.40726	0.88720
4519.000	0.40528	1.32867	-0.47842	0.82553
4520.000	0.41121	1.21334	-0.42702	0.79570
4521.000	0.33411	1.28892	-0.51401	0.83945
4522.000	0.35981	1.30880	-0.49622	0.88321
4523.000	0.40726	1.20937	-0.51796	0.87923
4524.000	0.38749	1.18352	-0.49622	0.95083
4525.000	0.42307	1.23522	-0.41912	0.95283
4526.000	0.46656	1.11788	-0.42109	0.89515
4527.000	0.33016	1.14177	-0.45668	0.88918
4528.000	0.49622	1.22725	-0.43098	0.84145
4529.000	0.38353	1.11392	-0.54959	0.78176
4530.000	0.26096	1.04632	-0.46261	0.92697
4531.000	0.34993	1.00852	-0.35783	0.84742
4532.000	0.37365	1.12188	-0.35190	0.87726
4533.000	0.32225	1.11989	-0.39144	0.89515
4534.000	0.33213	1.09404	-0.38156	0.75791
4535.000	0.32422	1.06620	-0.40726	0.93294
4536.000	0.28271	1.11393	-0.41121	0.81758
4537.000	0.23131	0.99262	-0.37958	0.76985
4538.000	0.35388	0.99659	-0.34399	0.84742
4539.000	0.31829	1.05029	-0.34795	0.78974
4540.000	0.34597	1.13978	-0.29655	0.77184
4541.000	0.31829	1.07813	-0.40133	0.83747
4542.000	0.29852	0.98864	-0.36179	0.84344
4543.000	0.40528	1.08011	-0.30841	0.86732
4544.000	0.32027	1.09802	-0.32818	0.88521
4545.000	0.40133	1.10596	-0.38353	0.97272
4546.000	0.32620	1.02841	-0.41121	0.83747
4547.000	0.31039	1.08808	-0.36772	0.83151
4548.000	0.25899	1.12586	-0.41714	0.84145
4549.000	0.34993	1.10000	-0.43889	0.87924
4550.000	0.27678	1.01847	-0.46854	0.88918
4551.000	0.22142	1.00654	-0.38551	0.81162
4552.000	0.30248	1.08012	-0.44284	0.82752
4553.000	0.31632	1.10995	-0.42900	0.93493
4554.000	0.29852	1.11592	-0.42900	0.84344
4555.000	0.28073	1.08410	-0.38353	0.83151
4556.000	0.27480	1.11990	-0.35190	0.74797
4557.000	0.22933	1.07217	-0.39144	0.79570
4558.000	0.28271	1.09404	-0.32027	0.87925
4559.000	0.34202	1.16364	-0.33609	0.96875
4560.000	0.29852	1.11990	-0.32422	0.89118
4561.000	0.32818	1.21336	-0.40726	0.88322
4562.000	0.34399	1.11989	-0.43098	0.90509
4563.000	0.23329	1.24518	-0.35586	0.82157
4564.000	0.23724	1.25313	-0.41516	0.89714
4565.000	0.33609	1.23722	-0.41121	0.94686
4566.000	0.27678	1.21535	-0.39144	0.90709
4567.000	0.28073	1.14575	-0.39935	0.79570
4568.000	0.24910	1.21535	-0.42109	0.87924
4569.000	0.29655	1.20342	-0.44086	0.90509
4570.000	0.29259	1.20739	-0.36179	0.85140
4571.000	0.27282	1.20541	-0.34004	0.88521
4572.000	0.32225	1.22330	-0.36574	0.78576
4573.000	0.15421	1.19150	-0.40330	0.90112
4574.000	0.28864	1.19347	-0.37760	0.88720
4575.000	0.24515	1.12587	-0.36179	0.87328
4576.000	0.22933	1.14178	-0.42900	0.95879
4577.000	0.34993	1.26903	-0.40330	0.95681
4578.000	0.32027	1.23921	-0.43691	0.97072
4579.000	0.22735	1.31279	-0.31236	0.90908
4580.000	0.24317	1.20541	-0.31236	0.87925
4581.000	0.27876	1.25313	-0.37365	0.84145
4582.000	0.22142	1.18354	-0.40528	0.81957
4583.000	0.30643	1.27500	-0.28469	0.76986
4584.000	0.30643	1.27699	-0.34004	0.98665
4585.000	0.24712	1.23325	-0.27282	0.80367
4586.000	0.29259	1.29687	-0.39539	0.84941
4587.000	0.29259	1.21932	-0.33411	0.87726
4588.000	0.29259	1.23126	-0.36574	0.94289
4589.000	0.33213	1.24517	-0.33806	0.85538
4590.000	0.30446	1.25909	-0.32422	0.85538
4591.000	0.28864	1.31278	-0.35388	0.92101
4592.000	0.33609	1.22926	-0.37167	0.86134
4593.000	0.30248	1.18950	-0.40726	0.87327
4594.000	0.14234	1.25911	-0.42702	0.91703
4595.000	0.32818	1.25114	-0.43296	0.77183
4596.000	0.27876	1.15370	-0.37958	0.97670
4597.000	0.25899	1.15569	-0.47052	0.93691
4598.000	0.28073	1.15370	-0.37958	0.89913
4599.000	0.38749	1.20539	-0.34597	0.87527
4600.000	0.30643	1.22131	-0.37167	0.89913
4601.000	0.29655	1.16762	-0.44877	0.96078
4602.000	0.35783	1.19943	-0.33016	0.89317
4603.000	0.28666	1.08211	-0.37167	0.87328
4604.000	0.28073	1.15171	-0.36969	0.85339
4605.000	0.20561	1.06422	-0.38353	0.82952
4606.000	0.42109	1.10596	-0.37760	0.93493
4607.000	0.44284	1.13579	-0.34795	0.94886
4608.000	0.33016	1.14972	-0.33411	0.94687
4609.000	0.31236	1.08609	-0.40923	0.98465
4610.000	0.41714	1.15170	-0.36969	1.04432
4611.000	0.44086	1.11192	-0.45470	0.88321
4612.000	0.41516	1.11391	-0.40133	0.91703
4613.000	0.39737	1.00454	-0.29852	0.99063
4614.000	0.36179	1.05227	-0.33213	0.87527
4615.000	0.43889	1.14971	-0.36772	0.90908
4616.000	0.44679	1.13777	-0.39539	0.94090
4617.000	0.32818	1.14972	-0.37958	0.83151
4618.000	0.39144	1.11392	-0.31632	0.85538
4619.000	0.36179	1.16563	-0.39737	0.91305
4620.000	0.38946	1.17159	-0.29457	0.82157
4621.000	0.41714	1.20340	-0.36772	0.96874
4622.000	0.44086	1.10596	-0.40528	1.00653
4623.000	0.35981	1.15966	-0.36574	0.91703
4624.000	0.40330	1.18352	-0.37958	0.88919
4625.000	0.39935	1.26107	-0.32225	0.87527
4626.000	0.38749	1.13977	-0.43889	0.76388
4627.000	0.38353	1.21136	-0.34993	0.89913
4628.000	0.36574	1.12188	-0.40726	0.98863
4629.000	0.40923	1.27101	-0.34202	0.90709
4630.000	0.43889	1.24515	-0.37958	0.88919
4631.000	0.32818	1.07614	-0.37563	0.90311
4632.000	0.35190	1.09006	-0.32027	0.91903
4633.000	0.45272	1.30679	-0.40528	0.91703
4634.000	0.37760	1.20142	-0.37365	0.98863
4635.000	0.33806	1.25511	-0.34795	0.90112
4636.000	0.43098	1.21533	-0.31829	0.99858
4637.000	0.31434	1.25114	-0.51401	0.94685
4638.000	0.45470	1.23521	-0.36969	0.87527
4639.000	0.50412	1.36842	-0.31632	0.93295
4640.000	0.33411	1.11989	-0.36574	0.88521
4641.000	0.39342	1.21931	-0.31632	0.86135
4642.000	0.40726	1.26107	-0.36772	0.91107
4643.000	0.34399	1.19744	-0.32818	0.91903
4644.000	0.33806	1.28892	-0.38946	0.87129
4645.000	0.45865	1.31077	-0.28469	0.87328
4646.000	0.39342	1.23920	-0.40726	0.88123
4647.000	0.41121	1.25510	-0.38353	0.94090
4648.000	0.40726	1.24914	-0.43691	0.86929
4649.000	0.40133	1.22528	-0.43098	0.87526
4650.000	0.31434	1.20143	-0.42505	0.95084
4651.000	0.44482	1.17953	-0.45865	0.95083
4652.000	0.49028	1.27497	-0.42900	0.93890
4653.000	0.50017	1.20537	-0.48238	0.95481
4654.000	0.49226	1.27298	-0.34004	0.91902
4655.000	0.49424	1.27497	-0.38156	0.93891
4656.000	0.50215	1.25310	-0.41912	0.91106
4657.000	0.59901	1.27296	-0.38551	1.03636
4658.000	0.56343	1.29484	-0.46854	0.81758
4659.000	0.50215	1.23321	-0.43296	0.92498
4660.000	0.50215	1.24713	-0.43889	0.94686
4661.000	0.45075	1.30679	-0.49819	0.87326
4662.000	0.47249	1.21930	-0.38551	0.85537
4663.000	0.49226	1.27099	-0.44086	0.90509
4664.000	0.42702	1.18351	-0.52587	0.85337
4665.000	0.54761	1.27297	-0.45272	0.95282
4666.000	0.56936	1.16758	-0.45470	0.87128
4667.000	0.52982	1.24514	-0.39144	0.78178
4668.000	0.54168	1.16957	-0.37760	0.98863
4669.000	0.49819	1.08208	-0.35586	0.86333
4670.000	0.57727	1.08008	-0.44877	0.85537
4671.000	0.52587	1.00452	-0.43889	0.90708
4672.000	0.41714	1.15369	-0.45865	0.85139
4673.000	0.40133	1.12585	-0.47842	0.85139
4674.000	0.53180	1.22525	-0.48435	0.84144
4675.000	0.39737	1.04232	-0.40330	0.85140
4676.000	0.52784	1.17157	-0.52389	0.95878
4677.000	0.55354	1.09401	-0.45668	0.84343
4678.000	0.41714	1.02243	-0.44086	0.89117
4679.000	0.51598	1.05026	-0.45470	0.96674
4680.000	0.58715	1.18150	-0.48238	0.99657
4681.000	0.44482	1.18550	-0.42505	0.97868
4682.000	0.43098	1.17556	-0.50215	0.91901
4683.000	0.56343	1.16559	-0.43296	0.86929
4684.000	0.50017	1.10595	-0.40330	0.88918
4685.000	0.61680	1.10791	-0.35981	0.92499
4686.000	0.44679	1.15965	-0.35981	0.93493
4687.000	0.53180	1.21531	-0.44086	0.93890
4688.000	0.51203	1.12185	-0.45470	0.91106
4689.000	0.45470	1.17357	-0.40330	0.87924
4690.000	0.61285	1.10990	-0.38551	0.85736
4691.000	0.58715	1.08008	-0.50215	0.95282
4692.000	0.50412	1.08208	-0.51401	0.85337
4693.000	0.51598	1.16560	-0.44284	0.90111
4694.000	0.55947	1.10196	-0.50412	0.94287
4695.000	0.56145	1.06020	-0.49622	0.90906
4696.000	0.51598	1.16162	-0.41714	0.85139
4697.000	0.55354	1.01048	-0.48435	0.89713
4698.000	0.56145	1.11986	-0.43889	0.95481
4699.000	0.52982	1.20338	-0.48831	1.00453
4700.000	0.58913	1.08008	-0.46656	0.86531
4701.000	0.65041	1.02637	-0.35981	0.88919
4702.000	0.54564	1.09798	-0.43691	1.07016
4703.000	0.67610	1.05620	-0.47052	0.93890
4704.000	0.51598	0.99657	-0.49226	0.89514
4705.000	0.55750	1.06219	-0.53971	0.86132
4706.000	0.57727	1.03036	-0.44086	0.88520
4707.000	0.52587	0.98463	-0.47645	0.83150
4708.000	0.59506	1.09400	-0.37563	0.90311
4709.000	0.47645	1.05027	-0.44086	0.90310
4710.000	0.47249	1.00851	-0.49226	0.87326
4711.000	0.50412	1.06021	-0.39539	0.91902
4712.000	0.47447	1.03237	-0.42900	0.89117
4713.000	0.55157	1.09600	-0.41319	1.01448
4714.000	0.45272	1.05624	-0.46063	0.81758
4715.000	0.51203	0.99856	-0.35388	0.93891
4716.000	0.46063	1.02243	-0.42505	0.93493
4717.000	0.41121	1.05426	-0.37760	0.82355
4718.000	0.50610	1.04629	-0.38946	0.82554
4719.000	0.44482	1.03436	-0.41912	0.94089
4720.000	0.48831	0.98464	-0.46854	0.98066
4721.000	0.40726	1.03835	-0.36179	0.93891
4722.000	0.40923	1.01846	-0.45668	0.88719
4723.000	0.39539	1.07812	-0.42900	0.81161
4724.000	0.50610	1.04231	-0.47645	0.88122
4725.000	0.40133	1.06818	-0.43889	0.77979
4726.000	0.47447	1.09800	-0.37958	0.74797
4727.000	0.39342	1.03636	-0.38353	0.79372
4728.000	0.50017	1.10992	-0.42900	0.86730
4729.000	0.47052	1.01050	-0.43889	0.77183
4730.000	0.42900	1.06420	-0.34597	0.80963
4731.000	0.48831	1.07015	-0.44482	0.89316
4732.000	0.40726	1.06818	-0.44086	0.81161
4733.000	0.39935	1.05227	-0.38946	0.79769
4734.000	0.44877	1.00652	-0.36376	0.82554
4735.000	0.50017	1.05623	-0.41516	0.85139
4736.000	0.37958	1.07216	-0.42109	0.78377
4737.000	0.43493	1.00254	-0.42505	0.81360
4738.000	0.51994	1.07015	-0.36376	0.76388
4739.000	0.48435	1.07015	-0.42900	0.84145
4740.000	0.44284	1.02840	-0.39737	0.80167
4741.000	0.51401	1.03634	-0.38749	0.80963
4742.000	0.43691	1.02641	-0.42505	0.83747
4743.000	0.37563	0.97272	-0.44284	0.89515
4744.000	0.42307	0.99260	-0.44482	0.91702
4745.000	0.37958	0.92897	-0.41319	0.93891
4746.000	0.44482	1.02044	-0.36574	0.86731
