time (ms)	lx (deg)	ly (deg)	rx (deg)	ry (deg)
0.000	-3.41616	2.66514	-4.68491	3.17516
1.000	-3.28415	2.67145	-4.73990	3.19270
2.000	-3.30977	2.59012	-4.71633	3.18292
3.000	-3.44374	2.65318	-4.68688	3.08224
4.000	-3.38858	2.63747	-4.68099	3.04470
5.000	-3.42995	2.58187	-4.78898	3.01259
6.000	-3.47723	2.71649	-4.77131	2.93753
7.000	-3.39843	2.64934	-4.70062	3.11381
8.000	-3.44177	2.60562	-4.61617	2.93225
9.000	-3.35115	2.78818	-4.74971	3.06812
10.000	-3.41813	2.66910	-4.67313	3.16730
11.000	-3.46738	2.63726	-4.61814	3.07660
12.000	-3.47132	2.84726	-4.68295	3.13168
13.000	-3.39252	2.81381	-4.63385	2.97371
14.000	-3.46738	2.68085	-4.65153	3.13775
15.000	-3.47920	2.78186	-4.58671	3.12815
16.000	-3.42207	2.70872	-4.73990	3.05432
17.000	-3.37479	2.75046	-4.68099	3.07238
18.000	-3.53435	2.59744	-4.66527	3.16141
19.000	-3.40040	2.72661	-4.76738	3.24198
20.000	-3.34918	2.70496	-4.74971	3.10370
21.000	-3.46935	2.68877	-4.73990	3.16700
22.000	-3.47132	2.59167	-4.69277	3.16129
23.000	-3.51268	2.66685	-4.77131	3.06012
24.000	-3.47132	2.58969	-4.64956	3.13380
25.000	-3.53041	2.61330	-4.66527	3.18513
26.000	-3.47329	2.54608	-4.74971	3.14126
27.000	-3.44571	2.67497	-4.68688	3.22259
28.000	-3.47723	2.57183	-4.83020	3.10729
29.000	-3.50480	2.67282	-4.65545	3.21285
30.000	-3.49101	2.62134	-4.64171	3.19117
31.000	-3.46935	2.70264	-4.77131	3.09372
32.000	-3.42010	2.58983	-4.68295	3.13761
33.000	-3.44768	2.60957	-4.74186	3.17885
34.000	-3.53041	2.56773	-4.66920	3.09220
35.000	-3.48117	2.54804	-4.69277	3.28976
36.000	-3.45753	2.60954	-4.91264	3.11284
37.000	-3.48904	2.64116	-4.76149	3.17283
38.000	-3.53041	2.84114	-4.84002	3.15863
39.000	-3.52647	2.64304	-4.78898	3.20828
40.000	-3.50874	2.61931	-4.80468	3.11531
41.000	-3.53631	2.63706	-4.79291	3.27940
42.000	-3.49298	2.73824	-4.76935	3.25580
43.000	-3.45950	2.59765	-4.64563	3.29393
44.000	-3.40237	2.67311	-4.62599	3.07459
45.000	-3.30189	2.52671	-4.29783	3.05421
46.000	-3.22306	2.41588	-4.07759	3.03330
47.000	-3.02004	2.54326	-3.83754	2.88174
48.000	-2.74790	2.46056	-3.61706	2.88840
49.000	-2.62757	2.24455	-3.42010	2.78600
50.000	-2.46578	2.20911	-3.07918	2.81072
51.000	-2.33750	2.04853	-2.69464	2.72245
52.000	-2.05915	2.05685	-2.52695	2.61572
53.000	-1.81626	1.92607	-2.04928	2.61461
54.000	-1.67800	1.88251	-1.81231	2.35696
55.000	-1.47847	1.84693	-1.45279	2.14888
56.000	-1.08920	1.71805	-1.20184	1.97032
57.000	-0.80261	1.62875	-1.08722	1.87304
58.000	-0.69192	1.56916	-0.95876	1.63266
59.000	-0.74529	1.48366	-0.71959	1.47373
60.000	-0.49622	1.35649	-0.66227	1.46977
61.000	-0.16014	1.29291	-0.45865	1.43404
62.000	0.00000	1.33666	-0.48633	1.36246
63.000	0.02570	1.25513	-0.41319	1.22130
64.000	0.21352	1.29092	-0.39144	1.29487
65.000	0.39342	1.28692	-0.33213	1.26108
66.000	0.35388	1.31277	-0.34597	1.27698
67.000	0.44086	1.43802	-0.30841	1.46389
68.000	0.43889	1.23720	-0.30643	1.31278
69.000	0.55750	1.21729	-0.24317	1.43805
70.000	0.60494	1.35845	-0.28666	1.52353
71.000	0.63262	1.23915	-0.23724	1.40624
72.000	0.69982	1.17749	-0.27480	1.50166
73.000	0.72750	1.23714	-0.29457	1.43605
74.000	0.67610	1.26101	-0.38749	1.55930
75.000	0.54959	1.33262	-0.36772	1.52749
76.000	0.55750	1.36642	-0.32818	1.49569
77.000	0.55947	1.28490	-0.48831	1.61891
78.000	0.59901	1.38430	-0.41516	1.49369
79.000	0.57924	1.40817	-0.56738	1.61690
80.000	0.67017	1.41808	-0.60692	1.62484
81.000	0.70773	1.40614	-0.45470	1.56326
82.000	0.68599	1.30077	-0.64052	1.60496
83.000	0.59901	1.44593	-0.59110	1.59503
84.000	0.66029	1.40417	-0.57331	1.62485
85.000	0.64645	1.35248	-0.61087	1.62087
86.000	0.74529	1.45981	-0.49424	1.62885
87.000	0.83424	1.45580	-0.53180	1.65667
88.000	0.65238	1.38827	-0.60692	1.65665
89.000	0.77098	1.31666	-0.53575	1.45987
90.000	0.73343	1.45782	-0.57727	1.56522
91.000	0.79668	1.36635	-0.54564	1.56324
92.000	0.78284	1.37630	-0.58320	1.56124
93.000	0.78284	1.46973	-0.54761	1.53740
94.000	0.74133	1.30672	-0.53378	1.59505
95.000	0.83226	1.43592	-0.59703	1.54335
96.000	0.75122	1.28286	-0.54564	1.52944
97.000	0.71959	1.42403	-0.59506	1.78385
98.000	0.75912	1.44986	-0.61285	1.69441
99.000	0.74331	1.44390	-0.71564	1.58505
100.000	0.77296	1.40612	-0.62471	1.67055
101.000	0.71761	1.37433	-0.64448	1.76197
102.000	0.82040	1.35442	-0.63657	1.70036
103.000	0.77691	1.27291	-0.75122	1.67448
104.000	0.78680	1.47172	-0.60889	1.73615
105.000	0.74924	1.30473	-0.66227	1.74209
106.000	0.84610	1.45381	-0.66227	1.76992
107.000	0.78877	1.43395	-0.59308	1.69839
108.000	0.69389	1.45187	-0.69785	1.79177
109.000	0.88958	1.39415	-0.70180	1.75003
110.000	0.84807	1.48760	-0.68796	1.84543
111.000	0.80854	1.45183	-0.66622	1.77787
112.000	0.85993	1.42398	-0.57727	1.69243
113.000	0.83028	1.43195	-0.67017	1.74010
114.000	0.80063	1.33056	-0.68401	1.81761
115.000	0.81249	1.40810	-0.68994	1.78183
116.000	0.80459	1.35641	-0.64250	1.72620
117.000	0.81249	1.34448	-0.68006	1.82158
118.000	0.89946	1.41602	-0.71761	1.81958
119.000	0.82831	1.35441	-0.70773	1.75400
120.000	0.79273	1.38623	-0.64448	1.77787
121.000	0.92120	1.38818	-0.71564	1.76990
122.000	0.85598	1.46176	-0.61482	1.82757
123.000	0.85400	1.43393	-0.62668	1.82359
124.000	0.77889	1.40016	-0.64250	1.71825
125.000	0.85203	1.42200	-0.74726	1.73411
126.000	0.76308	1.44390	-0.58517	1.68647
127.000	0.81645	1.32857	-0.67413	1.70035
128.000	0.79866	1.41804	-0.66820	1.59501
129.000	0.90934	1.43589	-0.72750	1.78182
130.000	0.79470	1.48166	-0.59901	1.72820
131.000	0.86388	1.41603	-0.70180	1.66655
132.000	0.86388	1.45380	-0.67808	1.63476
133.000	0.82633	1.35640	-0.67413	1.73016
134.000	0.78087	1.44986	-0.70575	1.61885
135.000	0.88167	1.41602	-0.62668	1.64074
136.000	0.77889	1.38027	-0.66227	1.58110
137.000	0.82435	1.44586	-0.66622	1.63476
138.000	0.76308	1.31865	-0.66227	1.67452
139.000	0.75715	1.40215	-0.69587	1.72022
140.000	0.79273	1.42997	-0.60692	1.72224
141.000	0.73540	1.40216	-0.58715	1.63678
142.000	0.74331	1.47571	-0.64645	1.58905
143.000	0.78087	1.32659	-0.63064	1.77987
144.000	0.71959	1.32264	-0.62668	1.69639
145.000	0.74133	1.44589	-0.52982	1.61691
146.000	0.77098	1.39618	-0.65436	1.73017
147.000	0.79470	1.42599	-0.64843	1.64073
148.000	0.84214	1.43393	-0.66227	1.58706
149.000	0.74924	1.41209	-0.65238	1.65862
150.000	0.85005	1.36037	-0.65634	1.71427
151.000	0.77098	1.42799	-0.60889	1.52545
152.000	0.85598	1.38224	-0.72552	1.64667
153.000	0.84017	1.36037	-0.64645	1.62881
154.000	0.87970	1.46970	-0.54761	1.57517
155.000	0.93109	1.38817	-0.54168	1.71828
156.000	0.74726	1.39221	-0.57529	1.71231
157.000	0.93306	1.40408	-0.69785	1.67053
158.000	0.83819	1.47568	-0.69785	1.66258
159.000	0.85796	1.43790	-0.68203	1.76792
160.000	0.82238	1.40809	-0.68006	1.70035
161.000	0.85598	1.40013	-0.68796	1.73612
162.000	0.84017	1.40809	-0.68203	1.71426
163.000	0.81645	1.43791	-0.64448	1.70632
164.000	0.84807	1.37826	-0.52982	1.77990
165.000	0.82831	1.41604	-0.77494	1.62479
166.000	0.87772	1.35042	-0.62866	1.75005
167.000	0.88760	1.39813	-0.65436	1.70433
168.000	0.81645	1.44388	-0.61878	1.69043
169.000	0.93899	1.37823	-0.51598	1.58511
170.000	0.79668	1.44985	-0.67413	1.76196
171.000	0.79273	1.38425	-0.68203	1.78183
172.000	0.88365	1.46373	-0.68401	1.67451
173.000	0.81842	1.41406	-0.62668	1.68248
174.000	0.75517	1.41806	-0.62273	1.70434
175.000	0.85598	1.37627	-0.55552	1.73815
176.000	0.80063	1.31665	-0.51796	1.79182
177.000	0.76505	1.33853	-0.63657	1.77986
178.000	0.76505	1.28683	-0.54959	1.69443
179.000	0.96271	1.36232	-0.56540	1.68647
180.000	0.81842	1.46972	-0.57331	1.67057
181.000	0.90539	1.30468	-0.50610	1.74214
182.000	0.91527	1.40408	-0.59110	1.76994
183.000	0.84214	1.38025	-0.57331	1.64871
184.000	0.84214	1.39417	-0.62273	1.72621
185.000	0.88365	1.32656	-0.62075	1.65664
186.000	0.98247	1.52333	-0.65436	1.73812
187.000	0.85598	1.34844	-0.53378	1.66661
188.000	0.82238	1.37827	-0.59506	1.69839
189.000	1.04177	1.39011	-0.68994	1.75600
190.000	0.97259	1.45177	-0.57133	1.83752
191.000	0.81842	1.32459	-0.60296	1.85142
192.000	0.89551	1.43391	-0.57331	1.69243
193.000	1.02398	1.45572	-0.55750	1.71430
194.000	0.97259	1.41002	-0.65238	1.87127
195.000	0.85005	1.50549	-0.59110	1.71827
196.000	0.84412	1.48561	-0.62866	1.71030
197.000	1.02595	1.47957	-0.67215	1.86729
198.000	0.89156	1.61281	-0.50610	1.77394
199.000	0.81249	1.47370	-0.59308	1.82559
200.000	0.90342	1.55914	-0.60889	1.81366
201.000	0.92516	1.41601	-0.62075	1.83154
202.000	0.97654	1.44978	-0.64645	1.77787
203.000	0.91527	1.52336	-0.61482	1.80968
204.000	0.87377	1.44982	-0.70773	1.75599
205.000	0.86784	1.45380	-0.62668	1.81961
206.000	0.86388	1.39814	-0.60889	1.82956
207.000	0.90539	1.49155	-0.70971	1.76394
208.000	0.94492	1.49750	-0.61482	1.72422
209.000	0.95480	1.39611	-0.58122	1.84944
210.000	0.88760	1.49554	-0.57529	1.80373
211.000	0.92713	1.43390	-0.59110	1.70038
212.000	0.85203	1.44188	-0.60099	1.76398
213.000	0.89353	1.51740	-0.58913	1.76398
214.000	0.88958	1.52337	-0.66227	1.70433
215.000	0.87377	1.54325	-0.60692	1.84943
216.000	0.74331	1.42601	-0.62668	1.82160
217.000	0.85203	1.46573	-0.54366	1.87330
218.000	0.75517	1.41209	-0.67413	1.77588
219.000	0.86586	1.51344	-0.54959	1.87727
220.000	0.82238	1.53134	-0.64250	1.86333
221.000	0.76901	1.43197	-0.54564	1.88522
222.000	0.80459	1.53334	-0.59308	1.83950
223.000	0.67215	1.47573	-0.60494	1.69441
224.000	0.76505	1.50950	-0.65831	1.84941
225.000	0.80063	1.40412	-0.68006	1.87126
226.000	0.85400	1.50947	-0.56343	1.80374
227.000	0.73936	1.48764	-0.51203	1.88126
228.000	0.81842	1.47966	-0.53180	1.87330
229.000	0.81645	1.41406	-0.60889	1.75602
230.000	0.77691	1.41805	-0.56145	1.76598
231.000	0.88760	1.48957	-0.58320	1.59106
232.000	0.80656	1.42599	-0.51401	1.65866
233.000	0.78482	1.46178	-0.55157	1.68051
234.000	0.83028	1.44586	-0.49819	1.67258
235.000	0.78087	1.43594	-0.53971	1.81368
236.000	0.88167	1.33451	-0.59901	1.74211
237.000	0.84412	1.42598	-0.54366	1.66064
238.000	0.91132	1.49752	-0.59703	1.79776
239.000	0.90342	1.45577	-0.58913	1.71429
240.000	0.96073	1.51538	-0.53575	1.71630
241.000	0.75517	1.50950	-0.58122	1.77392
242.000	0.75715	1.53733	-0.55947	1.70436
243.000	0.90144	1.47565	-0.63657	1.79179
244.000	0.67413	1.43597	-0.64250	1.78185
245.000	0.80063	1.50352	-0.51401	1.84548
246.000	0.80854	1.45780	-0.61482	1.65466
247.000	0.79866	1.47172	-0.57727	1.76001
248.000	0.72947	1.53734	-0.58517	1.64473
249.000	0.83819	1.50947	-0.61878	1.65465
250.000	0.79470	1.45383	-0.58122	1.75206
251.000	0.80063	1.45382	-0.67017	1.76793
252.000	0.77494	1.46179	-0.56343	1.75008
253.000	0.87179	1.43789	-0.52784	1.68450
254.000	0.74331	1.47770	-0.59901	1.71031
255.000	0.71959	1.41608	-0.61680	1.80372
256.000	0.81447	1.54327	-0.53971	1.73816
257.000	0.78482	1.46775	-0.60296	1.64472
258.000	0.83424	1.46972	-0.56738	1.74809
259.000	0.82435	1.53731	-0.62075	1.72422
260.000	0.78482	1.46775	-0.49819	1.56921
261.000	0.80854	1.49557	-0.51796	1.75406
262.000	0.82831	1.44984	-0.57924	1.68249
263.000	0.78087	1.55124	-0.50215	1.80574
264.000	0.80854	1.50352	-0.57331	1.75802
265.000	0.85400	1.49356	-0.61482	1.66857
266.000	0.83226	1.37429	-0.53378	1.68052
267.000	0.83424	1.54923	-0.57133	1.65069
268.000	0.86191	1.48561	-0.59110	1.76398
269.000	0.80656	1.50153	-0.67215	1.75799
270.000	0.79668	1.53334	-0.50808	1.70438
271.000	0.83819	1.41206	-0.59506	1.70634
272.000	0.63262	1.54532	-0.56540	1.62287
273.000	0.83819	1.52140	-0.55552	1.73418
274.000	0.88958	1.53927	-0.56343	1.66063
275.000	0.74924	1.51149	-0.57529	1.83354
276.000	0.77691	1.48365	-0.65634	1.71228
277.000	0.73738	1.41210	-0.55552	1.68648
278.000	0.82040	1.47370	-0.66227	1.88915
279.000	0.80459	1.51346	-0.53773	1.75605
280.000	0.76110	1.40016	-0.54564	1.80175
281.000	0.79075	1.54925	-0.54564	1.81765
282.000	0.75517	1.61485	-0.57331	1.81566
283.000	0.75715	1.47372	-0.61482	1.77788
284.000	0.67808	1.56320	-0.56145	1.66859
285.000	0.71168	1.49361	-0.50412	1.55331
286.000	0.80261	1.42202	-0.54564	1.68052
287.000	0.73540	1.49559	-0.56738	1.81765
288.000	0.76901	1.44588	-0.52191	1.71232
289.000	0.72552	1.43795	-0.51598	1.69046
290.000	0.77098	1.47968	-0.64250	1.71825
291.000	0.77098	1.51148	-0.49622	1.73221
292.000	0.78877	1.51545	-0.65041	1.74210
293.000	0.75319	1.54528	-0.66424	1.75004
294.000	0.87772	1.40211	-0.59506	1.81764
295.000	0.85598	1.44784	-0.64052	1.74806
296.000	0.79075	1.46377	-0.52587	1.71431
297.000	0.83226	1.40610	-0.60494	1.79379
298.000	0.81249	1.39816	-0.62668	1.71229
299.000	0.70773	1.60891	-0.59110	1.74410
300.000	0.81645	1.49755	-0.57529	1.77988
301.000	0.82040	1.47767	-0.64250	1.80967
302.000	0.76901	1.47173	-0.69192	1.70631
303.000	0.81052	1.58303	-0.54959	1.83951
304.000	0.66622	1.49164	-0.67215	1.74209
305.000	0.80854	1.51346	-0.57727	1.71231
306.000	0.80459	1.46973	-0.55354	1.72623
307.000	0.86191	1.38820	-0.56145	1.67852
308.000	0.73936	1.41011	-0.59308	1.71827
309.000	0.77494	1.45383	-0.60296	1.80571
310.000	0.81052	1.42400	-0.50412	1.76599
311.000	0.77889	1.51347	-0.56145	1.59703
312.000	0.77889	1.53534	-0.55552	1.76995
313.000	0.82633	1.42201	-0.58715	1.71628
314.000	0.73936	1.46577	-0.60692	1.68249
315.000	0.71564	1.52939	-0.55947	1.64672
316.000	0.73738	1.46379	-0.55750	1.68648
317.000	0.78284	1.56714	-0.57133	1.67455
318.000	0.67610	1.47772	-0.60296	1.75404
319.000	0.84017	1.46574	-0.62075	1.69441
320.000	0.75912	1.44589	-0.59308	1.74013
321.000	0.82040	1.55122	-0.53773	1.62685
322.000	0.81447	1.44587	-0.54168	1.70636
323.000	0.64645	1.46381	-0.59110	1.75007
324.000	0.82238	1.45382	-0.54959	1.72027
325.000	0.72552	1.51945	-0.54959	1.78983
326.000	0.72750	1.50156	-0.62273	1.78980
327.000	0.68203	1.45386	-0.60494	1.65665
328.000	0.65634	1.50755	-0.57727	1.86732
329.000	0.66029	1.53935	-0.56145	1.75604
330.000	0.71366	1.68046	-0.54366	1.76996
331.000	0.64645	1.51948	-0.61878	1.74807
332.000	0.68796	1.51549	-0.61680	1.72025
333.000	0.70378	1.50952	-0.59308	1.74013
334.000	0.73936	1.40613	-0.55750	1.74213
335.000	0.67017	1.42206	-0.65238	1.73613
336.000	0.66029	1.54531	-0.56343	1.73815
337.000	0.61878	1.39821	-0.61878	1.74807
338.000	0.77296	1.47570	-0.65238	1.77986
339.000	0.70575	1.46578	-0.57331	1.69641
340.000	0.69389	1.43597	-0.54761	1.73219
341.000	0.68006	1.43995	-0.62866	1.75403
342.000	0.70378	1.44590	-0.69785	1.77587
343.000	0.65041	1.45586	-0.51796	1.70040
344.000	0.74133	1.46378	-0.63064	1.64272
345.000	0.75517	1.39221	-0.62866	1.56123
346.000	0.68796	1.43199	-0.44877	1.61892
347.000	0.71564	1.49560	-0.57133	1.58907
348.000	0.74726	1.37830	-0.60889	1.74211
349.000	0.80063	1.51346	-0.56540	1.55926
350.000	0.73738	1.42403	-0.61680	1.58310
351.000	0.70971	1.47373	-0.68796	1.64668
352.000	0.77889	1.53732	-0.54366	1.66859
353.000	0.70378	1.45584	-0.64843	1.70632
354.000	0.64645	1.37236	-0.59308	1.66659
355.000	0.80656	1.43991	-0.50215	1.67059
356.000	0.77691	1.45383	-0.54959	1.62486
357.000	0.64645	1.39224	-0.57331	1.73020
358.000	0.63657	1.41412	-0.73145	1.73611
359.000	0.77889	1.42998	-0.66029	1.75402
360.000	0.80656	1.44786	-0.52587	1.61890
361.000	0.78482	1.42202	-0.64645	1.66856
362.000	0.66029	1.34850	-0.62075	1.76596
363.000	0.63262	1.34254	-0.58320	1.52943
364.000	0.60692	1.42208	-0.46656	1.65867
365.000	0.76901	1.40016	-0.68006	1.61091
366.000	0.74133	1.48764	-0.57727	1.64672
367.000	0.75517	1.47173	-0.61878	1.72621
368.000	0.70575	1.43398	-0.66622	1.87723
369.000	0.73145	1.41806	-0.67610	1.68048
370.000	0.63459	1.29681	-0.66622	1.71228
371.000	0.69192	1.49362	-0.58122	1.73417
372.000	0.65634	1.38230	-0.51598	1.75605
373.000	0.69982	1.38030	-0.60099	1.70833
374.000	0.61087	1.36641	-0.51598	1.63083
375.000	0.68401	1.33458	-0.59308	1.89117
376.000	0.62471	1.41611	-0.56738	1.72424
377.000	0.63262	1.32266	-0.60692	1.73615
378.000	0.63657	1.38827	-0.61285	1.78583
379.000	0.54761	1.37239	-0.54959	1.73617
380.000	0.69389	1.27095	-0.59308	1.82161
381.000	0.57331	1.23916	-0.60692	1.71230
382.000	0.69192	1.27095	-0.54959	1.64672
383.000	0.64052	1.38230	-0.56936	1.76001
384.000	0.60494	1.34454	-0.61482	1.72025
385.000	0.57529	1.41413	-0.57331	1.67057
386.000	0.57924	1.38828	-0.60889	1.76397
387.000	0.58517	1.36244	-0.66820	1.88319
388.000	0.68401	1.44790	-0.62273	1.76993
389.000	0.76308	1.44390	-0.57727	1.67653
390.000	0.69389	1.46380	-0.63064	1.73018
391.000	0.67413	1.44591	-0.60099	1.81167
392.000	0.75122	1.34052	-0.63855	1.74210
393.000	0.71959	1.38626	-0.59901	1.76199
394.000	0.69192	1.37235	-0.67610	1.70234
395.000	0.71959	1.33457	-0.54959	1.68648
396.000	0.67610	1.46778	-0.59901	1.74609
397.000	0.73738	1.36438	-0.63262	1.76198
398.000	0.68599	1.35048	-0.57924	1.75603
399.000	0.67808	1.40615	-0.63657	1.72819
400.000	0.63657	1.37833	-0.65238	1.75402
401.000	0.63855	1.43400	-0.59506	1.75603
402.000	0.68796	1.37633	-0.68994	1.62283
403.000	0.65041	1.39622	-0.64052	1.76794
404.000	0.74726	1.37034	-0.68203	1.68842
405.000	0.75517	1.37829	-0.68006	1.72619
406.000	0.74331	1.41607	-0.67215	1.78979
407.000	0.62668	1.37237	-0.67215	1.82556
408.000	0.63262	1.27494	-0.64843	1.71229
409.000	0.61680	1.38430	-0.62866	1.72819
410.000	0.67017	1.37037	-0.57331	1.69442
411.000	0.70773	1.24112	-0.61482	1.77788
412.000	0.73738	1.33058	-0.59110	1.80571
413.000	0.58913	1.25904	-0.55750	1.84746
414.000	0.67017	1.25306	-0.60494	1.70435
415.000	0.70971	1.33656	-0.66820	1.68445
416.000	0.70378	1.29878	-0.59308	1.76199
417.000	0.64448	1.22921	-0.59110	1.73218
418.000	0.66227	1.29879	-0.64645	1.80371
419.000	0.64645	1.22125	-0.54761	1.78188
420.000	0.65634	1.29084	-0.66424	1.78582
421.000	0.58913	1.35846	-0.55947	1.67455
422.000	0.61878	1.34255	-0.61285	1.66459
423.000	0.57924	1.25905	-0.62668	1.72024
424.000	0.70180	1.30276	-0.64448	1.81166
425.000	0.49424	1.28690	-0.56738	1.70436
426.000	0.66622	1.38428	-0.61482	1.68447
427.000	0.69982	1.29878	-0.59901	1.52347
428.000	0.65634	1.23914	-0.56145	1.64473
429.000	0.70773	1.31270	-0.56343	1.72225
430.000	0.73738	1.26696	-0.51005	1.67257
431.000	0.66820	1.23516	-0.58715	1.69442
432.000	0.55750	1.21332	-0.56145	1.59703
433.000	0.71761	1.20930	-0.51796	1.78984
434.000	0.74726	1.31269	-0.51203	1.52150
435.000	0.62471	1.30079	-0.68796	1.58109
436.000	0.70180	1.33457	-0.54366	1.51553
437.000	0.66622	1.34055	-0.60692	1.47774
438.000	0.63064	1.42008	-0.62668	1.66857
439.000	0.60099	1.18348	-0.54761	1.55926
440.000	0.60099	1.34255	-0.64448	1.56719
441.000	0.63262	1.32067	-0.56936	1.48173
442.000	0.66424	1.41610	-0.65436	1.62483
443.000	0.60099	1.28887	-0.66227	1.55724
444.000	0.71366	1.32463	-0.66227	1.54333
445.000	0.65436	1.19540	-0.60296	1.49961
446.000	0.63855	1.17950	-0.59506	1.66062
447.000	0.68006	1.39223	-0.63855	1.57116
448.000	0.55354	1.37636	-0.59308	1.45190
449.000	0.76110	1.30075	-0.66622	1.49562
450.000	0.67808	1.33060	-0.65436	1.47176
451.000	0.64448	1.38827	-0.62668	1.52545
452.000	0.59703	1.32466	-0.62866	1.62086
453.000	0.59703	1.43997	-0.67215	1.54332
454.000	0.72750	1.32263	-0.69389	1.56319
455.000	0.58320	1.23518	-0.66029	1.43399
456.000	0.61680	1.34851	-0.70773	1.51349
457.000	0.67413	1.21926	-0.57727	1.50558
458.000	0.61087	1.38828	-0.69389	1.51350
459.000	0.69982	1.38030	-0.58715	1.50160
460.000	0.67808	1.33060	-0.64250	1.65663
461.000	0.68203	1.31867	-0.63262	1.44394
462.000	0.68401	1.28288	-0.58122	1.53739
463.000	0.64645	1.25108	-0.61680	1.50557
464.000	0.67215	1.33458	-0.59901	1.57118
465.000	0.72157	1.37035	-0.59703	1.50160
466.000	0.59901	1.29483	-0.60889	1.55129
467.000	0.64843	1.34055	-0.66227	1.60097
468.000	0.66622	1.31867	-0.64052	1.51550
469.000	0.60494	1.24512	-0.54366	1.56324
470.000	0.65831	1.24511	-0.62866	1.52942
471.000	0.64448	1.20932	-0.71564	1.58903
472.000	0.66820	1.28289	-0.62866	1.52743
473.000	0.68796	1.30077	-0.71959	1.60095
474.000	0.65436	1.30078	-0.63459	1.53340
475.000	0.55552	1.32268	-0.53971	1.60498
476.000	0.71168	1.24907	-0.70773	1.53934
477.000	0.66227	1.30476	-0.60889	1.76994
478.000	0.68994	1.26101	-0.62471	1.60098
479.000	0.73540	1.31667	-0.62273	1.63676
480.000	0.67808	1.27294	-0.55157	1.62486
481.000	0.56738	1.36443	-0.66820	1.60892
482.000	0.70378	1.35843	-0.70378	1.75400
483.000	0.78284	1.22320	-0.62273	1.57117
484.000	0.66227	1.31669	-0.68994	1.60891
485.000	0.68796	1.28884	-0.69785	1.55524
486.000	0.73145	1.21725	-0.69389	1.70233
487.000	0.71168	1.26896	-0.62668	1.65863
488.000	0.61680	1.26699	-0.66820	1.64271
489.000	0.68401	1.25703	-0.66820	1.52146
490.000	0.67413	1.26101	-0.63064	1.66459
491.000	0.71564	1.22322	-0.67808	1.64668
492.000	0.60099	1.28887	-0.63064	1.67055
493.000	0.65436	1.31271	-0.57331	1.67852
494.000	0.60889	1.24910	-0.69587	1.65264
495.000	0.63855	1.24511	-0.64250	1.73216
496.000	0.69192	1.31867	-0.66424	1.75600
497.000	0.74529	1.31468	-0.65634	1.52941
498.000	0.72157	1.32462	-0.65436	1.67452
499.000	0.76110	1.34648	-0.60099	1.62882
500.000	0.69785	1.31270	-0.74726	1.53137
501.000	0.65436	1.29283	-0.74331	1.63672
502.000	0.70773	1.25106	-0.64448	1.48171
503.000	0.71761	1.24509	-0.67215	1.68644
504.000	0.64843	1.20733	-0.74133	1.69039
505.000	0.62471	1.25506	-0.73540	1.60095
506.000	0.64645	1.23119	-0.68994	1.68643
507.000	0.63064	1.24512	-0.69982	1.55922
508.000	0.68796	1.24311	-0.62866	1.49563
509.000	0.62273	1.16757	-0.67610	1.55922
510.000	0.64052	1.18148	-0.68599	1.54729
511.000	0.60494	1.09002	-0.65831	1.64669
512.000	0.72354	1.23316	-0.66622	1.40615
513.000	0.67215	1.24312	-0.68203	1.44790
514.000	0.68203	1.15165	-0.66622	1.54531
515.000	0.52982	1.20338	-0.66820	1.41411
516.000	0.66820	1.19341	-0.66424	1.49363
517.000	0.61285	1.21927	-0.70575	1.58903
518.000	0.58913	1.12979	-0.60494	1.54533
519.000	0.61878	1.16757	-0.67413	1.45585
520.000	0.60099	1.17155	-0.62471	1.53539
521.000	0.63855	1.17751	-0.66820	1.54134
522.000	0.62075	1.19740	-0.62668	1.41611
523.000	0.51994	1.20338	-0.61482	1.32465
524.000	0.56936	1.28887	-0.63459	1.46183
525.000	0.59506	1.21132	-0.71168	1.50952
526.000	0.58913	1.14371	-0.68203	1.45983
527.000	0.57529	1.21530	-0.64250	1.47177
528.000	0.63657	1.31073	-0.65436	1.40218
529.000	0.52191	1.24713	-0.65436	1.49363
530.000	0.66029	1.28090	-0.67808	1.39621
531.000	0.58913	1.19740	-0.67017	1.40019
532.000	0.50215	1.20339	-0.62866	1.45388
533.000	0.52784	1.26701	-0.61482	1.43400
534.000	0.54564	1.21332	-0.70971	1.43795
535.000	0.60692	1.10593	-0.56540	1.48968
536.000	0.63657	1.26897	-0.67808	1.49561
537.000	0.65634	1.15563	-0.64448	1.41014
538.000	0.64448	1.22921	-0.63657	1.38230
539.000	0.59110	1.21132	-0.71168	1.49163
540.000	0.60296	1.17553	-0.76901	1.43992
541.000	0.54761	1.15963	-0.76110	1.60491
542.000	0.54761	1.21332	-0.75517	1.57908
543.000	0.51203	1.28491	-0.60692	1.45985
544.000	0.60099	1.19740	-0.66029	1.52544
545.000	0.56738	1.15167	-0.68796	1.45386
546.000	0.48040	1.23123	-0.67215	1.47176
547.000	0.64052	1.13774	-0.64645	1.48568
548.000	0.53575	1.14372	-0.63262	1.31471
549.000	0.52784	1.16361	-0.62075	1.41412
550.000	0.48633	1.15964	-0.71959	1.47373
551.000	0.59110	1.13377	-0.70575	1.48169
552.000	0.57529	1.12781	-0.69389	1.43597
553.000	0.56936	1.16559	-0.65041	1.34453
554.000	0.52982	1.22525	-0.62866	1.40418
555.000	0.48831	1.24912	-0.73145	1.42602
556.000	0.54564	1.16957	-0.69785	1.41012
557.000	0.50808	1.21532	-0.63459	1.44791
558.000	0.47052	1.15567	-0.78877	1.44190
559.000	0.54366	1.23320	-0.73936	1.45186
560.000	0.57727	1.17951	-0.66820	1.62681
561.000	0.53575	1.17753	-0.80261	1.41605
562.000	0.55552	1.22923	-0.66622	1.47772
563.000	0.57331	1.13179	-0.60494	1.44991
564.000	0.65238	1.14370	-0.63459	1.39423
565.000	0.53575	1.09202	-0.57529	1.33858
566.000	0.61878	1.16359	-0.62075	1.56521
567.000	0.58122	1.20735	-0.63064	1.43400
568.000	0.56936	1.16360	-0.68994	1.46380
569.000	0.55750	1.16361	-0.71564	1.59897
570.000	0.48435	1.15964	-0.60889	1.37038
571.000	0.48040	1.08209	-0.62471	1.48768
572.000	0.38353	1.13182	-0.59901	1.42208
573.000	0.54761	1.22923	-0.66820	1.44989
574.000	0.50215	1.10595	-0.71959	1.50951
575.000	0.52191	1.07810	-0.56145	1.40817
576.000	0.48040	1.09402	-0.69587	1.46777
577.000	0.58913	1.11985	-0.65831	1.43200
578.000	0.42702	1.13977	-0.60692	1.44394
579.000	0.53575	1.17355	-0.74133	1.48366
580.000	0.48435	1.07413	-0.64250	1.44990
581.000	0.50017	1.13180	-0.72947	1.48566
582.000	0.53575	1.09998	-0.72354	1.48168
583.000	0.55947	1.17951	-0.65831	1.35645
584.000	0.53575	1.14969	-0.63855	1.46382
585.000	0.46656	1.12186	-0.58320	1.57714
586.000	0.49226	1.17555	-0.67017	1.56121
587.000	0.55157	1.20139	-0.72354	1.43397
588.000	0.54366	1.22724	-0.75912	1.38028
589.000	0.41319	1.16562	-0.64843	1.38031
590.000	0.49819	1.14373	-0.62866	1.40418
591.000	0.39737	1.22727	-0.67413	1.51947
592.000	0.36376	1.19943	-0.80063	1.58900
593.000	0.46854	1.18152	-0.69389	1.51350
594.000	0.50610	1.26304	-0.67808	1.45784
595.000	0.45865	1.05226	-0.75715	1.53733
596.000	0.49819	1.15964	-0.68203	1.53139
597.000	0.51005	1.04231	-0.68599	1.49362
598.000	0.56738	0.91900	-0.69389	1.53139
599.000	0.56145	0.90110	-0.53180	1.36841
600.000	0.66622	0.89909	-0.46656	1.31275
601.000	0.65634	0.82352	-0.31236	1.28295
602.000	0.66820	0.78970	-0.30248	1.17955
603.000	0.59901	0.86330	-0.24712	1.05427
604.000	0.64448	0.71413	-0.33016	0.98267
605.000	0.65634	0.62860	-0.28864	0.91704
606.000	0.77296	0.67234	-0.27480	0.97870
607.000	0.67017	0.75191	-0.36772	0.99858
608.000	0.65041	0.71214	-0.40726	1.00255
609.000	0.76505	0.66836	-0.42702	0.91902
610.000	0.71959	0.81356	-0.33411	0.97670
611.000	0.75319	0.74195	-0.36574	0.89714
612.000	0.78087	0.87520	-0.37167	0.92897
613.000	0.77691	0.64648	-0.43098	1.04431
614.000	0.73738	0.86527	-0.40923	0.92498
615.000	0.71959	0.85135	-0.51005	1.05026
616.000	0.76110	0.75786	-0.46261	0.99856
617.000	0.73738	0.83544	-0.46854	0.89713
618.000	0.79668	0.80161	-0.51598	0.99458
619.000	0.84807	0.64050	-0.44284	0.94885
620.000	0.67610	0.69423	-0.36179	0.86930
621.000	0.92911	0.79164	-0.38551	0.86731
622.000	0.73343	0.79168	-0.47842	0.90708
623.000	0.80261	0.73797	-0.44877	1.02243
624.000	0.78877	0.66637	-0.32620	0.85140
625.000	0.73540	0.87123	-0.43889	0.98465
626.000	0.88563	0.74193	-0.35586	0.98863
627.000	0.78087	0.74792	-0.46459	0.95282
628.000	0.80459	0.83542	-0.37760	1.02443
629.000	0.83226	0.75984	-0.41121	1.05227
630.000	1.00026	0.79759	-0.41714	1.03834
631.000	0.81645	0.82349	-0.40330	0.97073
632.000	0.81645	0.79365	-0.43889	0.96873
633.000	0.85796	0.83342	-0.44679	1.08010
634.000	0.81052	0.72802	-0.39737	1.07812
635.000	0.85203	0.71409	-0.46854	0.99061
636.000	0.78482	0.70018	-0.48831	1.03038
637.000	0.82040	0.77774	-0.40528	1.03437
638.000	0.68401	0.73998	-0.44679	0.93294
639.000	0.78482	0.77377	-0.42702	0.98465
640.000	0.84214	0.76580	-0.50215	1.02242
641.000	0.76901	0.79366	-0.42702	1.03635
642.000	0.80261	0.69023	-0.37563	0.92300
643.000	0.83424	0.86326	-0.42109	1.02840
644.000	0.83424	0.76978	-0.40726	0.91305
645.000	0.81052	0.74592	-0.45272	0.90907
646.000	0.82831	0.79763	-0.48040	1.00850
647.000	0.85598	0.75188	-0.31434	0.98864
648.000	0.81842	0.66437	-0.49819	0.95083
649.000	0.77098	0.68029	-0.45865	0.95680
650.000	0.89946	0.79563	-0.43098	1.00652
651.000	0.83621	0.67631	-0.34202	1.03637
652.000	0.83028	0.77973	-0.41912	1.01647
653.000	0.81052	0.83144	-0.42307	1.02641
654.000	0.78482	0.79565	-0.42307	0.92697
655.000	0.85598	0.66636	-0.47842	1.04231
656.000	0.77691	0.77576	-0.42505	1.07016
657.000	0.80261	0.76382	-0.36574	0.87328
658.000	0.85796	0.75984	-0.39342	0.93692
659.000	0.85203	0.70813	-0.27678	0.82754
660.000	0.78284	0.77178	-0.40923	0.94090
661.000	0.79668	0.67233	-0.35783	0.88720
662.000	0.76703	0.69621	-0.38156	0.97869
663.000	0.75319	0.63256	-0.45865	0.99658
664.000	0.78284	0.71410	-0.50017	1.00055
665.000	0.82633	0.64448	-0.46854	0.96276
666.000	0.83621	0.69818	-0.40528	0.91504
667.000	0.86191	0.67630	-0.41319	0.93891
668.000	0.78680	0.69024	-0.37167	0.95084
669.000	0.74726	0.67234	-0.47052	1.03635
670.000	0.85005	0.75984	-0.43296	0.90111
671.000	0.81447	0.64647	-0.35586	1.00653
672.000	0.78284	0.68427	-0.41319	0.92697
673.000	0.76308	0.74195	-0.38156	0.93095
674.000	0.78284	0.73200	-0.35586	0.91107
675.000	0.77494	0.77775	-0.42109	0.87526
676.000	0.78877	0.71808	-0.41912	0.89913
677.000	0.81842	0.72006	-0.36772	0.82952
678.000	0.84807	0.74790	-0.30248	0.97869
679.000	0.81249	0.67233	-0.40923	0.85935
680.000	0.68599	0.67036	-0.49622	0.87525
681.000	0.81052	0.69620	-0.41319	0.99658
682.000	0.77494	0.65841	-0.49226	0.96475
683.000	0.87179	0.78569	-0.41121	0.93095
684.000	0.76505	0.70416	-0.38946	0.94487
685.000	0.64645	0.77976	-0.46459	0.91503
686.000	0.75319	0.77179	-0.44284	0.92697
687.000	0.83819	0.69818	-0.35190	0.90112
688.000	0.78680	0.72206	-0.43493	0.90310
689.000	0.75715	0.71610	-0.49622	1.06220
690.000	0.79470	0.65642	-0.35783	0.94687
691.000	0.74529	0.77975	-0.48435	0.87923
692.000	0.76110	0.67433	-0.39539	0.81957
693.000	0.79668	0.75985	-0.48831	0.96873
694.000	0.79075	0.65642	-0.41714	0.93891
695.000	0.79668	0.72206	-0.47645	1.02640
696.000	0.69192	0.71810	-0.51005	1.00651
697.000	0.76703	0.71212	-0.43098	0.92498
698.000	0.74133	0.64052	-0.51796	0.81956
699.000	0.72947	0.63256	-0.38353	1.00852
700.000	0.67808	0.66241	-0.42307	0.93095
701.000	0.72354	0.65842	-0.48831	0.93492
702.000	0.75715	0.67632	-0.41319	0.82753
703.000	0.70180	0.66638	-0.48633	0.87326
704.000	0.67610	0.66638	-0.52784	0.86729
705.000	0.82040	0.62459	-0.49226	0.80564
706.000	0.64645	0.64849	-0.40133	0.97471
707.000	0.74726	0.54902	-0.38353	0.82355
708.000	0.68994	0.65047	-0.51401	0.90508
709.000	0.71366	0.55698	-0.47249	0.94486
710.000	0.72947	0.55698	-0.31829	0.82157
711.000	0.74924	0.58482	-0.40726	0.99857
712.000	0.67808	0.46549	-0.49226	0.81757
713.000	0.75319	0.62659	-0.44284	0.83548
714.000	0.66820	0.59677	-0.45668	0.82354
715.000	0.73540	0.66041	-0.51401	0.79171
716.000	0.66227	0.58682	-0.42505	0.87725
717.000	0.68994	0.57886	-0.37563	0.84941
718.000	0.68006	0.50527	-0.41121	0.92101
719.000	0.66424	0.62661	-0.47052	0.89713
720.000	0.69587	0.55102	-0.38946	0.77383
721.000	0.69192	0.53113	-0.39539	0.71018
722.000	0.63064	0.62462	-0.47052	0.92697
723.000	0.64843	0.52317	-0.48238	0.82354
724.000	0.62668	0.65844	-0.47249	0.81161
725.000	0.66820	0.60473	-0.47249	0.87327
726.000	0.64448	0.62064	-0.45470	0.89912
727.000	0.66227	0.61865	-0.42505	0.94885
728.000	0.73540	0.61665	-0.48435	0.92299
729.000	0.81842	0.64051	-0.43691	0.78576
730.000	0.69587	0.60671	-0.34993	0.82753
731.000	0.67808	0.61268	-0.38946	0.93692
732.000	0.57727	0.63457	-0.40133	0.81758
733.000	0.66622	0.58881	-0.42702	0.82951
734.000	0.66820	0.70617	-0.57727	0.88320
735.000	0.62471	0.63059	-0.43098	0.75393
736.000	0.73540	0.63256	-0.48831	0.77978
737.000	0.67610	0.71014	-0.52784	0.95878
738.000	0.66424	0.66440	-0.41912	0.88322
739.000	0.71366	0.70815	-0.46656	0.85735
740.000	0.79470	0.63255	-0.57727	0.84342
741.000	0.64448	0.71214	-0.45272	0.83150
742.000	0.68401	0.62859	-0.46459	0.83548
743.000	0.66622	0.67036	-0.41516	0.87128
744.000	0.65634	0.71611	-0.41912	1.00652
745.000	0.69587	0.79368	-0.39342	0.86134
746.000	0.73540	0.76185	-0.47052	0.86531
747.000	0.71761	0.77577	-0.50412	0.98265
748.000	0.70773	0.74196	-0.41516	0.90708
749.000	0.64052	0.70418	-0.45470	0.82354
750.000	0.68796	0.64848	-0.39737	0.81162
751.000	0.61087	0.70617	-0.43493	0.85338
752.000	0.73145	0.61864	-0.52389	0.84541
753.000	0.63064	0.71413	-0.52784	0.77779
754.000	0.68401	0.67633	-0.39539	0.87725
755.000	0.63064	0.66440	-0.45272	0.86332
756.000	0.75122	0.70019	-0.38353	0.88123
757.000	0.71959	0.77975	-0.51796	0.87923
758.000	0.72750	0.70815	-0.43493	0.79570
759.000	0.69982	0.66638	-0.48831	0.80564
760.000	0.60692	0.70419	-0.42702	0.81559
761.000	0.57331	0.65247	-0.39539	0.77383
762.000	0.70378	0.75390	-0.39539	0.78974
763.000	0.69389	0.74992	-0.50610	0.78376
764.000	0.61482	0.81557	-0.55354	0.68231
765.000	0.56540	0.75392	-0.41912	0.77382
766.000	0.66820	0.69224	-0.49424	0.78973
767.000	0.68401	0.65445	-0.51005	0.85337
768.000	0.57529	0.64452	-0.51005	0.80564
769.000	0.66424	0.64650	-0.54761	0.80364
770.000	0.66029	0.68230	-0.50610	0.95480
771.000	0.64645	0.71810	-0.44086	0.92697
772.000	0.58517	0.65645	-0.45668	0.81559
773.000	0.56540	0.73602	-0.47249	0.81161
774.000	0.65831	0.65246	-0.53378	0.92497
775.000	0.69389	0.66240	-0.52982	0.95480
776.000	0.67413	0.61666	-0.47842	0.87128
777.000	0.61680	0.62263	-0.46063	0.87526
778.000	0.63855	0.62064	-0.35981	0.79770
779.000	0.73343	0.59676	-0.43889	0.90509
780.000	0.64645	0.67037	-0.38156	0.92499
781.000	0.69982	0.61864	-0.37958	0.83151
782.000	0.63657	0.61070	-0.43691	0.82951
783.000	0.67610	0.74992	-0.50808	0.80962
784.000	0.69982	0.77379	-0.47447	0.80763
785.000	0.60296	0.63855	-0.48435	0.81757
786.000	0.63459	0.74396	-0.39737	0.81361
787.000	0.69982	0.55499	-0.43691	0.80962
788.000	0.65831	0.66838	-0.44086	0.77581
789.000	0.61285	0.70816	-0.52587	0.78972
790.000	0.65634	0.73600	-0.46854	0.90708
791.000	0.71366	0.63058	-0.47645	0.86531
792.000	0.54761	0.68032	-0.47249	0.77780
793.000	0.57133	0.66441	-0.35981	0.72609
794.000	0.66820	0.60473	-0.41121	0.84941
795.000	0.72354	0.68428	-0.35190	0.91306
796.000	0.65831	0.66440	-0.48435	0.88520
797.000	0.65436	0.59080	-0.36969	0.72410
798.000	0.64843	0.58683	-0.41121	0.86532
799.000	0.64052	0.64650	-0.48040	0.85536
800.000	0.62273	0.65645	-0.34004	0.74399
801.000	0.64052	0.66639	-0.44086	0.78973
802.000	0.56343	0.65049	-0.39342	0.76985
803.000	0.58517	0.70220	-0.37760	0.65846
804.000	0.59901	0.72010	-0.48238	0.86929
805.000	0.66424	0.62263	-0.37563	0.83748
806.000	0.63262	0.59677	-0.35981	0.74200
807.000	0.60494	0.72010	-0.49424	0.79370
808.000	0.61482	0.69623	-0.48435	0.81757
809.000	0.48633	0.72608	-0.46854	0.70818
810.000	0.72750	0.63455	-0.53773	0.77580
811.000	0.60494	0.70220	-0.41912	0.74399
812.000	0.67413	0.64848	-0.40528	0.78377
813.000	0.45470	0.66840	-0.43691	0.73802
814.000	0.66029	0.69026	-0.36772	0.87328
815.000	0.58122	0.66839	-0.42109	0.77382
816.000	0.59308	0.61070	-0.43691	0.78178
817.000	0.62471	0.59677	-0.54959	0.79768
818.000	0.55947	0.68032	-0.39539	0.80764
819.000	0.61285	0.64451	-0.53378	0.77182
820.000	0.63064	0.70020	-0.46261	0.74001
821.000	0.66820	0.65246	-0.53575	0.75193
822.000	0.58517	0.63855	-0.45865	0.72608
823.000	0.54959	0.64651	-0.42702	0.80764
824.000	0.54959	0.54109	-0.38946	0.66244
825.000	0.56343	0.70220	-0.38156	0.77582
826.000	0.51598	0.60474	-0.45075	0.74001
827.000	0.53971	0.57888	-0.43889	0.72807
828.000	0.55552	0.55700	-0.45668	0.72807
829.000	0.61680	0.60871	-0.46854	0.82553
830.000	0.57331	0.58087	-0.43691	0.74001
831.000	0.52587	0.57888	-0.48040	0.75989
832.000	0.56540	0.51920	-0.33213	0.76786
833.000	0.46261	0.52916	-0.41121	0.66840
834.000	0.51598	0.56098	-0.50412	0.95878
835.000	0.53971	0.58883	-0.46063	0.70221
836.000	0.43296	0.62265	-0.48238	0.87923
837.000	0.58913	0.61866	-0.50017	0.81160
838.000	0.60099	0.54108	-0.45470	0.84542
839.000	0.51401	0.43964	-0.39342	0.76985
840.000	0.48238	0.57690	-0.48831	0.77779
841.000	0.48238	0.49932	-0.40133	0.85338
842.000	0.47052	0.50330	-0.31434	0.62664
843.000	0.49226	0.46351	-0.38749	0.66642
844.000	0.60099	0.51721	-0.40528	0.78775
845.000	0.47249	0.55701	-0.42109	0.77382
846.000	0.43296	0.51524	-0.42505	0.70421
847.000	0.47052	0.54905	-0.43493	0.71813
848.000	0.47052	0.55502	-0.43889	0.80565
849.000	0.48435	0.51921	-0.40133	0.72609
850.000	0.45272	0.56695	-0.44086	0.69227
851.000	0.47052	0.68829	-0.41516	0.74598
852.000	0.57924	0.58683	-0.34202	0.58089
853.000	0.49819	0.51722	-0.33411	0.66642
854.000	0.57133	0.51920	-0.44086	0.65050
855.000	0.42900	0.48341	-0.42505	0.70818
856.000	0.46459	0.63458	-0.37760	0.76388
857.000	0.50017	0.55501	-0.44679	0.69227
858.000	0.54761	0.54506	-0.34004	0.73604
859.000	0.48831	0.55899	-0.32225	0.67438
860.000	0.36574	0.42572	-0.37958	0.67636
861.000	0.48238	0.57491	-0.44482	0.70420
862.000	0.51994	0.58087	-0.43493	0.69625
863.000	0.36376	0.52519	-0.45470	0.64851
864.000	0.40923	0.56497	-0.40528	0.66045
865.000	0.49424	0.51722	-0.37167	0.58685
866.000	0.45470	0.56894	-0.46459	0.73603
867.000	0.48831	0.56695	-0.47842	0.57292
868.000	0.35981	0.57691	-0.44877	0.66442
869.000	0.49028	0.49932	-0.37365	0.62862
870.000	0.44482	0.50728	-0.42505	0.70023
871.000	0.46459	0.66044	-0.51796	0.60673
872.000	0.48831	0.59679	-0.47842	0.55104
873.000	0.43889	0.54905	-0.46261	0.66442
874.000	0.43889	0.65647	-0.43296	0.58685
875.000	0.32422	0.61669	-0.36376	0.63459
876.000	0.41319	0.53513	-0.40923	0.63260
877.000	0.53378	0.58286	-0.38749	0.69426
878.000	0.48831	0.53711	-0.49622	0.59480
879.000	0.44482	0.57093	-0.35586	0.75991
880.000	0.36969	0.56696	-0.37167	0.65249
881.000	0.48040	0.62265	-0.47645	0.59878
882.000	0.43889	0.51126	-0.38156	0.62266
883.000	0.45075	0.59878	-0.37760	0.68830
884.000	0.42900	0.55502	-0.47249	0.69028
885.000	0.40726	0.62862	-0.26096	0.61868
886.000	0.38353	0.65647	-0.40923	0.55303
887.000	0.44482	0.51921	-0.52784	0.66640
888.000	0.43889	0.64652	-0.43493	0.72410
889.000	0.40726	0.49932	-0.43889	0.57889
890.000	0.40528	0.61669	-0.35190	0.72211
891.000	0.37563	0.66443	-0.39539	0.51325
892.000	0.39935	0.65050	-0.39342	0.64851
893.000	0.43493	0.57491	-0.35981	0.56696
894.000	0.41319	0.57889	-0.35586	0.50728
895.000	0.48435	0.70420	-0.43691	0.59281
896.000	0.38551	0.55502	-0.38353	0.62067
897.000	0.41714	0.58685	-0.32422	0.58884
898.000	0.37958	0.71813	-0.39539	0.71018
899.000	0.47447	0.64851	-0.44877	0.58883
900.000	0.43691	0.69625	-0.40726	0.51325
901.000	0.39342	0.66045	-0.38551	0.49336
902.000	0.38156	0.59282	-0.40528	0.75592
903.000	0.40923	0.70421	-0.31236	0.60675
904.000	0.33806	0.61271	-0.40133	0.54110
905.000	0.30248	0.57691	-0.45272	0.75393
906.000	0.33411	0.66244	-0.42109	0.49932
907.000	0.32027	0.62465	-0.33411	0.54110
908.000	0.35783	0.72211	-0.34004	0.53911
909.000	0.38551	0.54906	-0.30841	0.62266
910.000	0.42702	0.57690	-0.40528	0.59679
911.000	0.30050	0.69626	-0.40133	0.66641
912.000	0.37563	0.67835	-0.39342	0.62862
913.000	0.37760	0.65249	-0.36574	0.56497
914.000	0.34202	0.62266	-0.42505	0.53513
915.000	0.49028	0.66641	-0.38749	0.59282
916.000	0.45668	0.60674	-0.47645	0.66243
917.000	0.42109	0.64652	-0.38353	0.61868
918.000	0.37563	0.63857	-0.44877	0.44561
919.000	0.45470	0.64254	-0.45865	0.71813
920.000	0.41912	0.57690	-0.42307	0.59480
921.000	0.30248	0.67239	-0.37958	0.61072
922.000	0.23526	0.54906	-0.31829	0.57890
923.000	0.38946	0.63260	-0.43098	0.75393
924.000	0.25899	0.62664	-0.38353	0.59083
925.000	0.41714	0.52916	-0.41121	0.63459
926.000	0.39539	0.62464	-0.35388	0.61072
927.000	0.28469	0.68631	-0.39342	0.64056
928.000	0.44679	0.68431	-0.43098	0.76785
929.000	0.37760	0.66045	-0.42900	0.52319
930.000	0.29457	0.74400	-0.42505	0.58486
931.000	0.32620	0.57890	-0.37365	0.54707
932.000	0.34597	0.59879	-0.33016	0.65647
933.000	0.37958	0.58088	-0.37760	0.70222
934.000	0.35190	0.64653	-0.43889	0.73603
935.000	0.33016	0.77383	-0.41516	0.65647
936.000	0.42702	0.62663	-0.39737	0.55701
937.000	0.36772	0.64653	-0.33806	0.69029
938.000	0.43098	0.56894	-0.33609	0.50331
939.000	0.27678	0.67040	-0.45075	0.53513
940.000	0.42900	0.55701	-0.29852	0.64056
941.000	0.40923	0.59083	-0.43691	0.56894
942.000	0.34993	0.62266	-0.31434	0.64852
943.000	0.38353	0.66443	-0.27480	0.65648
944.000	0.28666	0.64852	-0.33609	0.68631
945.000	0.37563	0.64653	-0.40133	0.44561
946.000	0.36376	0.76985	-0.39144	0.68034
947.000	0.39737	0.72012	-0.28469	0.61272
948.000	0.32027	0.57691	-0.29259	0.57293
949.000	0.33411	0.78974	-0.32422	0.61470
950.000	0.40330	0.73007	-0.41516	0.67238
951.000	0.37167	0.71217	-0.35190	0.54309
952.000	0.34795	0.62266	-0.34202	0.70421
953.000	0.30643	0.73604	-0.29852	0.64056
954.000	0.35388	0.70819	-0.29655	0.59282
955.000	0.42109	0.81161	-0.30841	0.50132
956.000	0.27678	0.80566	-0.23922	0.65051
957.000	0.38156	0.70819	-0.26294	0.54707
958.000	0.34202	0.80963	-0.34597	0.56298
959.000	0.33609	0.73405	-0.26294	0.59879
960.000	0.24317	0.76588	-0.27282	0.61471
961.000	0.39737	0.81361	-0.30248	0.55702
962.000	0.30841	0.69228	-0.31236	0.51524
963.000	0.34004	0.77582	-0.22735	0.55702
964.000	0.35388	0.73007	-0.29852	0.52917
965.000	0.34004	0.79571	-0.24119	0.66245
966.000	0.22538	0.61670	-0.32620	0.52121
967.000	0.37365	0.74200	-0.24712	0.61073
968.000	0.34399	0.74996	-0.21747	0.56697
969.000	0.37958	0.74598	-0.29062	0.68234
970.000	0.34004	0.80168	-0.37167	0.55303
971.000	0.32027	0.74996	-0.30050	0.60675
972.000	0.26492	0.69626	-0.30248	0.65648
973.000	0.31434	0.79571	-0.27876	0.59481
974.000	0.37563	0.79372	-0.30841	0.61271
975.000	0.31039	0.71615	-0.32818	0.53513
976.000	0.40726	0.83548	-0.26096	0.73405
977.000	0.35586	0.75394	-0.36376	0.65050
978.000	0.41714	0.73802	-0.25899	0.55503
979.000	0.21747	0.80964	-0.28073	0.66046
980.000	0.27282	0.68433	-0.18584	0.58089
981.000	0.32818	0.70620	-0.35783	0.63260
982.000	0.29457	0.81958	-0.15025	0.58288
983.000	0.31434	0.78378	-0.24712	0.51326
984.000	0.30248	0.84146	-0.21352	0.54707
985.000	0.32027	0.72609	-0.27480	0.51524
986.000	0.25899	0.70223	-0.28864	0.54309
987.000	0.31039	0.70421	-0.20363	0.54708
988.000	0.33609	0.86731	-0.24119	0.64653
989.000	0.29457	0.75195	-0.24317	0.60277
990.000	0.31039	0.74797	-0.22735	0.56498
991.000	0.36969	0.81957	-0.32422	0.57890
992.000	0.29457	0.70819	-0.28469	0.46750
993.000	0.36376	0.79173	-0.29062	0.68432
994.000	0.21549	0.81362	-0.26689	0.56299
995.000	0.26689	0.80566	-0.21352	0.60874
996.000	0.37958	0.82156	-0.22933	0.62068
997.000	0.21747	0.77782	-0.28666	0.64653
998.000	0.41121	0.74001	-0.27876	0.53514
999.000	0.28073	0.87925	-0.31236	0.75195
1000.000	0.31236	0.73007	-0.17595	0.54907
1001.000	0.24910	0.79771	-0.34597	0.62266
1002.000	0.29852	0.83549	-0.21352	0.55105
1003.000	0.31434	0.81759	-0.25899	0.76588
1004.000	0.28073	0.79372	-0.26492	0.74798
1005.000	0.38156	0.78178	-0.19572	0.68831
1006.000	0.39144	0.71614	-0.29852	0.64056
1007.000	0.30446	0.85140	-0.15421	0.70223
1008.000	0.41516	0.86929	-0.18584	0.63261
1009.000	0.31829	0.80963	-0.17793	0.57493
1010.000	0.33411	0.77582	-0.24515	0.81163
1011.000	0.32027	0.76588	-0.26492	0.77185
1012.000	0.34993	0.86135	-0.22735	0.55304
1013.000	0.20165	0.79174	-0.28469	0.72610
1014.000	0.20165	0.67041	-0.28666	0.64255
1015.000	0.08303	0.78578	-0.25701	0.78776
1016.000	0.34795	0.79969	-0.12060	0.74997
1017.000	0.25108	0.81561	-0.22340	0.84345
1018.000	0.23329	0.70024	-0.14432	0.69229
1019.000	0.18781	0.80169	-0.23329	0.55702
1020.000	0.29062	0.82356	-0.16804	0.63460
1021.000	0.29062	0.72212	-0.26689	0.80566
1022.000	0.28864	0.72809	-0.21549	0.69427
1023.000	0.24119	0.72809	-0.19572	0.73008
1024.000	0.28469	0.83350	-0.16409	0.59880
1025.000	0.23724	0.88721	-0.29259	0.69228
1026.000	0.29852	0.84743	-0.15816	0.66046
1027.000	0.30248	0.95682	-0.13048	0.73207
1028.000	0.30643	0.86732	-0.13839	0.78777
1029.000	0.26887	0.78975	-0.25701	0.67040
1030.000	0.33213	1.04432	-0.22340	0.80765
1031.000	0.33411	0.94687	-0.17398	0.87528
1032.000	0.31039	0.85140	-0.12060	0.82954
1033.000	0.29655	1.00057	-0.17398	0.80765
1034.000	0.27282	0.81759	-0.35586	0.80963
1035.000	0.27480	0.89119	-0.34597	0.94886
1036.000	0.25108	0.81760	-0.32225	0.92698
1037.000	0.26689	0.73206	-0.30050	0.88721
1038.000	0.19572	0.67438	-0.42505	0.75990
1039.000	0.26096	0.53514	-0.49424	0.56297
1040.000	0.11071	0.48939	-0.51005	0.58485
1041.000	0.09490	0.40385	-0.39935	0.45755
1042.000	0.11862	0.36207	-0.49622	0.42373
1043.000	0.03954	0.20292	-0.45865	0.22082
1044.000	0.08303	0.37799	-0.40330	0.18899
1045.000	0.18584	0.24072	-0.33016	0.23077
1046.000	0.08897	0.29244	-0.41714	0.32228
1047.000	0.08106	0.31632	-0.50215	0.24071
1048.000	0.11269	0.32228	-0.51994	0.09748
1049.000	0.12455	0.20292	-0.57133	0.07361
1050.000	0.11664	0.25664	-0.67413	0.06167
1051.000	0.04349	0.19099	-0.57727	-0.07361
1052.000	-0.01779	0.15915	-0.51994	-0.17705
1053.000	0.10874	0.13130	-0.50215	-0.07957
1054.000	0.10676	0.00199	-0.55552	-0.26259
1055.000	0.09490	-0.00199	-0.56738	-0.24071
1056.000	0.21945	-0.08952	-0.38749	-0.35013
1057.000	0.22735	-0.16910	-0.41714	-0.40782
1058.000	0.27480	-0.21685	-0.34004	-0.33819
1059.000	0.32620	-0.35809	-0.34202	-0.43368
1060.000	0.35190	-0.26260	-0.30841	-0.47944
1061.000	0.39342	-0.28249	-0.35388	-0.34814
1062.000	0.32225	-0.34018	-0.26887	-0.35809
1063.000	0.29852	-0.34416	-0.24317	-0.39987
1064.000	0.35783	-0.16512	-0.40923	-0.36405
1065.000	0.26096	-0.08952	-0.38156	-0.26857
1066.000	0.23329	-0.27056	-0.40726	-0.21684
1067.000	0.24317	-0.13926	-0.39935	-0.09151
1068.000	0.30446	-0.07162	-0.40726	-0.05371
1069.000	0.33609	0.02188	-0.47447	0.03780
1070.000	0.37958	-0.05570	-0.31632	0.03382
1071.000	0.44679	0.10345	-0.38551	-0.08355
1072.000	0.35388	0.08157	-0.42505	0.02188
1073.000	0.32027	-0.01194	-0.41714	-0.03382
1074.000	0.33016	0.03382	-0.37167	0.03581
1075.000	0.31829	-0.05769	-0.36376	-0.09947
1076.000	0.24515	0.04377	-0.33016	-0.08157
1077.000	0.32620	0.07560	-0.40726	-0.03979
1078.000	0.29655	0.06366	-0.41319	-0.07759
1079.000	0.36179	-0.10942	-0.39539	-0.05769
1080.000	0.25305	-0.00398	-0.42702	0.03183
1081.000	0.29062	-0.05570	-0.51401	0.06764
1082.000	0.31829	-0.02785	-0.42900	0.10743
1083.000	0.26887	-0.04775	-0.46063	-0.01591
1084.000	0.34004	-0.03581	-0.39144	0.02984
1085.000	0.33411	-0.06366	-0.38749	0.14125
1086.000	0.44086	-0.00398	-0.45668	0.09947
1087.000	0.34004	-0.02387	-0.35190	0.14920
1088.000	0.38749	-0.04775	-0.34399	0.04775
1089.000	0.33411	-0.07361	-0.46063	0.14125
1090.000	0.45272	-0.03780	-0.38551	0.07162
1091.000	0.35586	-0.02785	-0.48040	0.18302
1092.000	0.23922	-0.01194	-0.38551	0.20093
1093.000	0.33411	-0.06565	-0.41319	0.16711
1094.000	0.33609	-0.10146	-0.47249	0.14721
1095.000	0.34399	-0.02188	-0.51994	0.23076
1096.000	0.36969	-0.03581	-0.48238	0.30437
1097.000	0.42702	0.08156	-0.39935	0.20292
1098.000	0.45865	-0.02188	-0.39935	0.13130
1099.000	0.34399	-0.08753	-0.44679	0.26856
1100.000	0.27876	-0.01790	-0.46063	0.24071
1101.000	0.34004	0.00597	-0.34795	0.23475
1102.000	0.44086	-0.05172	-0.38946	0.34615
1103.000	0.40726	0.01592	-0.50017	0.27055
1104.000	0.41319	0.08355	-0.38353	0.35212
1105.000	0.40923	0.04973	-0.48238	0.26458
1106.000	0.38946	0.11737	-0.49622	0.22082
1107.000	0.47842	0.06167	-0.50610	0.25066
1108.000	0.36969	0.10544	-0.34597	0.23475
1109.000	0.43296	0.07560	-0.41319	0.35808
1110.000	0.38749	0.23674	-0.48040	0.25464
1111.000	0.40330	0.07162	-0.51203	0.39389
1112.000	0.38353	0.14125	-0.52982	0.33620
1113.000	0.46063	0.09151	-0.40923	0.19894
1114.000	0.48831	0.12135	-0.46459	0.37996
1115.000	0.50808	0.18501	-0.36179	0.32029
1116.000	0.58122	0.22082	-0.41319	0.38792
1117.000	0.47052	0.11339	-0.33806	0.37599
1118.000	0.46459	0.13528	-0.37365	0.34814
1119.000	0.41319	0.17705	-0.42505	0.33023
1120.000	0.41516	0.13329	-0.38946	0.37997
1121.000	0.53575	0.34813	-0.42307	0.36007
1122.000	0.50808	0.23275	-0.45075	0.35410
1123.000	0.51401	0.25265	-0.39144	0.30437
1124.000	0.51796	0.31233	-0.37760	0.25862
1125.000	0.31434	0.32825	-0.55157	0.54904
1126.000	0.40528	0.15716	-0.47447	0.38792
1127.000	0.52191	0.19893	-0.40923	0.45556
1128.000	0.50017	0.17506	-0.34202	0.51524
1129.000	0.48633	0.24270	-0.40923	0.41180
1130.000	0.34795	0.22281	-0.38353	0.42572
1131.000	0.47052	0.32227	-0.40726	0.46948
1132.000	0.34004	0.30636	-0.49226	0.44561
1133.000	0.42702	0.32824	-0.42307	0.39986
1134.000	0.35190	0.34217	-0.43691	0.58287
1135.000	0.40528	0.28249	-0.37760	0.33223
1136.000	0.40133	0.21485	-0.37365	0.49933
1137.000	0.46459	0.29045	-0.36574	0.37201
1138.000	0.43889	0.22281	-0.38551	0.53911
1139.000	0.38946	0.25464	-0.44482	0.53712
1140.000	0.41319	0.25066	-0.46261	0.33819
1141.000	0.36772	0.29443	-0.36574	0.48341
1142.000	0.34597	0.35809	-0.36574	0.40583
1143.000	0.34597	0.31233	-0.38946	0.50927
1144.000	0.47447	0.27851	-0.35981	0.51126
1145.000	0.37167	0.28448	-0.41121	0.47943
1146.000	0.52191	0.34813	-0.40133	0.44164
1147.000	0.46459	0.24071	-0.36772	0.51723
1148.000	0.44482	0.35410	-0.43889	0.52717
1149.000	0.43889	0.22281	-0.32620	0.49336
1150.000	0.41121	0.34814	-0.35388	0.48142
1151.000	0.42505	0.39986	-0.43493	0.46948
1152.000	0.37760	0.24270	-0.43296	0.47147
1153.000	0.37167	0.32626	-0.44679	0.52717
1154.000	0.40528	0.26061	-0.48831	0.43566
1155.000	0.46854	0.20291	-0.45272	0.47147
1156.000	0.36376	0.29642	-0.48435	0.48937
1157.000	0.43098	0.29443	-0.31236	0.50927
1158.000	0.59308	0.29243	-0.35388	0.50330
1159.000	0.46656	0.31233	-0.49424	0.63458
1160.000	0.56540	0.39189	-0.44284	0.58883
1161.000	0.51401	0.37797	-0.41121	0.55701
1162.000	0.42505	0.29443	-0.36179	0.50330
1163.000	0.47645	0.35410	-0.46063	0.60077
1164.000	0.53575	0.35012	-0.43296	0.50728
1165.000	0.53378	0.36604	-0.46656	0.53711
1166.000	0.49226	0.30437	-0.51401	0.58485
1167.000	0.34597	0.25066	-0.37365	0.60674
1168.000	0.50017	0.36803	-0.38551	0.49137
1169.000	0.46656	0.40980	-0.46063	0.57690
1170.000	0.34993	0.29642	-0.41516	0.57889
1171.000	0.39737	0.31233	-0.33806	0.61271
1172.000	0.52784	0.28646	-0.36969	0.57293
1173.000	0.43493	0.26260	-0.38156	0.77184
1174.000	0.47842	0.26657	-0.46656	0.67834
1175.000	0.33806	0.21287	-0.43493	0.65448
1176.000	0.48435	0.28846	-0.36772	0.63658
1177.000	0.40726	0.36405	-0.41912	0.58685
1178.000	0.49622	0.46749	-0.34202	0.60078
1179.000	0.45075	0.33620	-0.48238	0.70221
1180.000	0.40528	0.27851	-0.41714	0.68432
1181.000	0.40330	0.39190	-0.35783	0.79173
1182.000	0.52191	0.25265	-0.55552	0.68430
1183.000	0.48633	0.22281	-0.43889	0.65050
1184.000	0.36574	0.38793	-0.34795	0.61072
1185.000	0.36179	0.32228	-0.34004	0.60277
1186.000	0.58122	0.38791	-0.44482	0.74001
1187.000	0.43889	0.33222	-0.37958	0.71217
1188.000	0.38353	0.26459	-0.46261	0.76785
1189.000	0.52389	0.35410	-0.47447	0.74398
1190.000	0.54959	0.36405	-0.35190	0.65647
1191.000	0.50412	0.39985	-0.33213	0.68432
1192.000	0.49226	0.42969	-0.44086	0.77780
1193.000	0.46261	0.28249	-0.36376	0.65050
1194.000	0.44679	0.34615	-0.39144	0.77184
1195.000	0.46261	0.42572	-0.42109	0.92498
1196.000	0.45668	0.30238	-0.39539	0.63459
1197.000	0.56145	0.40582	-0.52784	0.73204
1198.000	0.54168	0.34017	-0.43098	0.74796
1199.000	0.51796	0.24270	-0.33213	0.64653
1200.000	0.44482	0.25663	-0.42505	0.67039
1201.000	0.45470	0.30437	-0.38946	0.85339
1202.000	0.53575	0.31829	-0.35586	0.82952
1203.000	0.55947	0.43765	-0.44877	0.66044
1204.000	0.49028	0.18501	-0.36179	0.80764
1205.000	0.46459	0.33222	-0.40528	0.62464
1206.000	0.44679	0.37997	-0.35190	0.69626
1207.000	0.40330	0.41975	-0.44284	0.78774
1208.000	0.45668	0.47744	-0.29259	0.70422
1209.000	0.48040	0.39986	-0.42900	0.81360
1210.000	0.28864	0.39191	-0.39144	0.76985
1211.000	0.25701	0.44164	-0.37958	0.74996
1212.000	0.44086	0.37400	-0.17002	0.95683
1213.000	0.55947	0.41974	-0.10083	0.96677
1214.000	0.72354	0.37597	0.10083	0.73804
1215.000	0.88365	0.28047	0.28864	0.87527
1216.000	1.07339	0.19692	0.54761	0.78375
1217.000	1.15441	0.14520	0.95480	0.71009
1218.000	1.58713	0.01989	1.15441	0.71403
1219.000	1.86563	0.06562	1.47254	0.47730
1220.000	2.12430	0.00795	1.70170	0.39373
1221.000	2.33158	-0.00398	2.20919	0.40156
1222.000	2.59600	-0.13514	2.42236	0.15702
1223.000	2.93920	-0.16888	2.82482	0.04173
1224.000	3.27036	-0.05760	2.91159	-0.11723
1225.000	3.48708	-0.11517	3.02004	-0.21456
1226.000	3.71944	-0.14889	3.13437	-0.33174
1227.000	3.72535	-0.32160	3.27824	-0.37538
1228.000	3.91823	-0.32153	3.40631	-0.24625
1229.000	3.98906	-0.39493	3.45162	-0.24426
1230.000	4.25851	-0.30552	3.50874	-0.22836
1231.000	4.33715	-0.35508	3.44965	-0.29191
1232.000	4.41184	-0.46612	3.47920	-0.19063
1233.000	4.48258	-0.37286	3.46738	-0.29985
1234.000	4.49241	-0.48789	3.54025	-0.22040
1235.000	4.51205	-0.45218	3.45162	-0.34354
1236.000	4.47276	-0.49187	3.44965	-0.31972
1237.000	4.56510	-0.44619	3.52844	-0.29983
1238.000	4.58082	-0.51757	3.60130	-0.48644
1239.000	4.63385	-0.57503	3.53435	-0.47456
1240.000	4.62599	-0.53737	3.63872	-0.45465
1241.000	4.71241	-0.57298	3.59736	-0.52019
1242.000	4.66724	-0.54328	3.48314	-0.40707
1243.000	4.71830	-0.58091	3.55207	-0.45867
1244.000	4.65349	-0.62656	3.47132	-0.37134
1245.000	4.72811	-0.60866	3.54025	-0.44477
1246.000	4.77720	-0.55113	3.51662	-0.33955
1247.000	4.65545	-0.59088	3.39449	-0.31775
1248.000	4.77327	-0.51346	3.44571	-0.24624
1249.000	4.87928	-0.64420	3.30977	-0.34955
1250.000	4.75757	-0.47779	3.44768	-0.21447
1251.000	4.73008	-0.49565	3.30977	-0.19265
1252.000	4.76149	-0.60664	3.36888	-0.16285
1253.000	4.78505	-0.57292	3.34524	-0.25818
1254.000	4.84787	-0.50548	3.51859	-0.17474
1255.000	4.80076	-0.55309	3.41222	-0.25817
1256.000	4.74971	-0.51348	3.43586	-0.15887
1257.000	4.84983	-0.45196	3.45950	-0.30581
1258.000	4.79487	-0.47975	3.45753	-0.26411
1259.000	4.76935	-0.47580	3.45950	-0.17078
1260.000	4.82432	-0.53126	3.36691	-0.26016
1261.000	4.78505	-0.55508	3.44965	-0.29986
1262.000	4.73990	-0.57693	3.35509	-0.36940
1263.000	4.78898	-0.59671	3.50086	-0.33955
1264.000	4.71830	-0.56307	3.41419	-0.25419
1265.000	4.83020	-0.55306	3.40434	-0.22639
1266.000	4.86357	-0.53718	3.34327	-0.38926
1267.000	4.77720	-0.52932	3.48708	-0.28197
1268.000	4.79487	-0.56697	3.36100	-0.31379
1269.000	4.82039	-0.55505	3.42798	-0.34554
1270.000	4.82235	-0.46585	3.45359	-0.21050
1271.000	4.73400	-0.53728	3.32553	-0.08937
1272.000	4.74186	-0.50357	3.38661	-0.17278
1273.000	4.72222	-0.63443	3.52253	-0.19062
1274.000	4.69473	-0.55516	3.46738	-0.27999
1275.000	4.78702	-0.51742	3.49495	-0.25219
1276.000	4.80665	-0.48569	3.39252	-0.17278
1277.000	4.73597	-0.57891	3.44768	-0.25021
1278.000	4.82432	-0.56100	3.44965	-0.12709
1279.000	4.65153	-0.48381	3.43586	-0.13107
1280.000	4.66724	-0.58095	3.47329	-0.18468
1281.000	4.80076	-0.50551	3.36100	-0.25421
1282.000	4.80272	-0.52732	3.46147	-0.26212
1283.000	4.76149	-0.35884	3.31765	-0.16286
1284.000	4.71633	-0.42826	3.34327	-0.27804
1285.000	4.72419	-0.54324	3.32947	-0.26415
1286.000	4.68295	-0.52146	3.43192	-0.23036
1287.000	4.72811	-0.38463	3.26051	-0.14499
1288.000	4.70259	-0.51153	3.36691	-0.18073
1289.000	4.80272	-0.40640	3.42798	-0.20653
1290.000	4.71830	-0.38265	3.33736	0.01787
1291.000	4.70848	-0.42429	3.33538	-0.09732
1292.000	4.79094	-0.52733	3.35509	-0.11718
1293.000	4.76149	-0.39254	3.38070	-0.13107
1294.000	4.79291	-0.45200	3.33933	-0.04568
1295.000	4.73793	-0.45600	3.36494	-0.19661
1296.000	4.70259	-0.42430	3.36100	-0.19661
1297.000	4.81646	-0.47577	3.41616	-0.19660
1298.000	4.76346	-0.46986	3.30977	-0.07547
1299.000	4.75953	-0.41832	3.44768	-0.16085
1300.000	4.69277	-0.48577	3.44965	-0.09333
1301.000	4.65742	-0.51553	3.50086	-0.07744
1302.000	4.76149	-0.47581	3.44965	-0.14298
1303.000	4.68688	-0.41439	3.40237	-0.03376
1304.000	4.80468	-0.46785	3.51465	-0.20254
1305.000	4.86750	-0.42816	3.45556	-0.06355
1306.000	4.64367	-0.50761	3.33341	-0.07348
1307.000	4.62992	-0.54529	3.50086	-0.08936
1308.000	4.73793	-0.49565	3.38070	-0.08937
1309.000	4.75757	-0.41832	3.39055	-0.14696
1310.000	4.75364	-0.53727	3.42404	-0.22043
1311.000	4.73204	-0.37273	3.48708	-0.09333
1312.000	4.68099	-0.46397	3.37479	-0.18668
1313.000	4.73793	-0.38859	3.38858	-0.09334
1314.000	4.78113	-0.47579	3.44571	-0.14894
1315.000	4.77524	-0.46985	3.38070	-0.10526
1316.000	4.82628	-0.40638	3.36691	-0.01787
1317.000	4.88124	-0.36076	3.40828	-0.04766
1318.000	4.73204	-0.43221	3.34327	-0.01986
1319.000	4.70062	-0.44809	3.33144	-0.19662
1320.000	4.76542	-0.43219	3.34130	-0.24627
1321.000	4.71830	-0.38464	3.40434	-0.07944
1322.000	4.80272	-0.48965	3.38267	-0.00794
1323.000	4.76149	-0.45202	3.44965	-0.22241
1324.000	4.75364	-0.53727	3.48117	0.01191
1325.000	4.81254	-0.38260	3.27233	-0.05760
1326.000	4.64171	-0.43028	3.37873	-0.03972
1327.000	4.74775	-0.40445	3.39252	-0.04568
1328.000	4.80076	-0.43415	3.44177	-0.09929
1329.000	4.70455	-0.43025	3.33538	-0.12115
1330.000	4.61028	-0.47194	3.42207	-0.04965
1331.000	4.73793	-0.38661	3.33538	-0.08540
1332.000	4.77327	-0.46985	3.42207	-0.08738
1333.000	4.66331	-0.42432	3.38858	-0.03376
1334.000	4.69277	-0.45404	3.32159	-0.13704
1335.000	4.74971	-0.35290	3.38070	-0.09731
1336.000	4.70455	-0.46395	3.43980	-0.08341
1337.000	4.82235	-0.34493	3.49101	-0.12312
1338.000	4.82432	-0.35683	3.39055	-0.08540
1339.000	4.77916	-0.39452	3.39843	-0.08937
1340.000	4.84787	-0.46782	3.35509	-0.08739
1341.000	4.76738	-0.36082	3.42010	0.03177
1342.000	4.68688	-0.38862	3.40631	0.00000
1343.000	4.83413	-0.28546	3.37676	0.01390
1344.000	4.83806	-0.43413	3.36494	0.06157
1345.000	4.86750	-0.26760	3.33538	-0.05760
1346.000	4.70651	-0.50757	3.34721	0.03376
1347.000	4.81843	-0.40440	3.35903	0.09930
1348.000	4.86750	-0.40636	3.39449	0.02185
1349.000	4.75953	-0.42823	3.33538	0.01390
1350.000	4.81057	-0.48568	3.35115	0.09533
1351.000	4.71437	-0.38662	3.35706	-0.00596
1352.000	4.76542	-0.41633	3.41025	0.05958
1353.000	4.76149	-0.41435	3.38464	0.01787
1354.000	4.77131	-0.33505	3.43192	0.04766
1355.000	4.69080	-0.53137	3.35312	-0.03773
1356.000	4.86554	-0.35284	3.30583	0.16683
1357.000	4.79683	-0.48966	3.25263	-0.03377
1358.000	4.85180	-0.34888	3.37676	-0.04171
1359.000	4.76738	-0.31324	3.31765	-0.08540
1360.000	4.71633	-0.47980	3.38661	-0.04171
1361.000	4.79291	-0.31719	3.34524	-0.03972
1362.000	4.78113	-0.36874	3.36494	-0.01986
1363.000	4.76935	-0.38064	3.38267	0.03773
1364.000	4.80665	-0.42225	3.40828	0.01986
1365.000	4.84198	-0.36276	3.41419	-0.00596
1366.000	4.75364	-0.47185	3.32356	0.09335
1367.000	4.73990	-0.52538	3.31371	-0.00794
1368.000	4.70259	-0.44611	3.28218	-0.03774
1369.000	4.78898	-0.49759	3.41616	-0.02383
1370.000	4.75953	-0.47184	3.35509	-0.02582
1371.000	4.79683	-0.38261	3.33736	0.00596
1372.000	4.70259	-0.50559	3.41025	-0.02979
1373.000	4.65938	-0.42631	3.38464	0.06951
1374.000	4.83217	-0.30132	3.30780	-0.04568
1375.000	4.68688	-0.39853	3.45753	0.05163
1376.000	4.76935	-0.30134	3.25854	0.01390
1377.000	4.83413	-0.46783	3.44374	0.03376
1378.000	4.75168	-0.49365	3.25657	0.00397
1379.000	4.68688	-0.47982	3.39252	0.08937
1380.000	4.84787	-0.40637	3.35509	0.01192
1381.000	4.72419	-0.39256	3.41813	0.01390
1382.000	4.79880	-0.37072	3.35312	0.08143
1383.000	4.76149	-0.42228	3.29598	0.06952
1384.000	4.70848	-0.43024	3.31765	0.14101
1385.000	4.74775	-0.39255	3.37873	0.01192
1386.000	4.71241	-0.50161	3.34524	0.10725
1387.000	4.75757	-0.44012	3.28021	0.13109
1388.000	4.68884	-0.38664	3.36297	0.01986
1389.000	4.70062	-0.41637	3.26839	0.17280
1390.000	4.70651	-0.44610	3.37085	0.05362
1391.000	4.78309	-0.33702	3.25065	0.10726
1392.000	4.71830	-0.44015	3.36888	0.19264
1393.000	4.71437	-0.40843	3.46344	0.19262
1394.000	4.69670	-0.38663	3.25460	0.05959
1395.000	4.74775	-0.37867	3.31765	0.05164
1396.000	4.80076	-0.36873	3.27233	0.15691
1397.000	4.83609	-0.45990	3.33538	0.12711
1398.000	4.71437	-0.44610	3.35312	0.02185
1399.000	4.76149	-0.41633	3.16000	-0.00397
1400.000	4.70848	-0.42628	3.29401	0.19266
1401.000	4.68688	-0.55516	3.45359	-0.04369
1402.000	4.71437	-0.40645	3.31371	0.18074
1403.000	4.57885	-0.51757	3.41616	-0.01589
1404.000	4.73597	-0.53530	3.36494	0.10327
1405.000	4.75953	-0.45995	3.28810	0.05363
1406.000	4.71437	-0.39852	3.30780	0.09931
1407.000	4.78309	-0.39451	3.36494	0.20257
1408.000	4.65938	-0.44613	3.29007	0.23437
1409.000	4.67313	-0.49768	3.31371	0.08540
1410.000	4.67313	-0.47983	3.34918	0.07150
1411.000	4.73400	-0.38859	3.28415	0.02582
1412.000	4.80272	-0.40243	3.38858	0.10327
1413.000	4.58474	-0.45610	3.31174	0.07150
1414.000	4.62796	-0.48581	3.32159	0.08739
1415.000	4.76542	-0.36280	3.29992	0.07547
1416.000	4.77131	-0.37668	3.35115	0.13505
1417.000	4.74186	-0.47978	3.34327	-0.00596
1418.000	4.79291	-0.45794	3.42207	0.06553
1419.000	4.68491	-0.53137	3.32750	0.09930
1420.000	4.79291	-0.48768	3.38464	0.00993
1421.000	4.62796	-0.44814	3.31962	0.13704
1422.000	4.71044	-0.48377	3.27824	-0.02185
1423.000	4.72026	-0.45799	3.35312	0.04568
1424.000	4.76935	-0.42029	3.30977	0.16286
1425.000	4.73204	-0.45005	3.39055	0.20852
1426.000	4.76935	-0.49166	3.42010	0.07546
1427.000	4.80861	-0.45199	3.33341	0.09136
1428.000	4.70062	-0.49766	3.31371	0.13506
1429.000	4.70455	-0.45998	3.39055	0.10923
1430.000	4.78898	-0.46389	3.29007	0.17081
1431.000	4.79683	-0.42821	3.37282	0.07745
1432.000	4.70062	-0.48973	3.32947	0.19066
1433.000	4.73990	-0.41833	3.30780	0.11122
1434.000	4.73990	-0.34101	3.37873	0.16285
1435.000	4.66920	-0.36484	3.42404	0.12710
1436.000	4.67313	-0.46992	3.46935	0.07745
1437.000	4.73400	-0.42626	3.37085	0.36145
1438.000	4.78113	-0.34892	3.32947	0.13903
1439.000	4.75560	-0.39255	3.46541	-0.00397
1440.000	4.73597	-0.41238	3.22306	0.21055
1441.000	4.77524	-0.44408	3.45359	0.12312
1442.000	4.68884	-0.53732	3.35115	0.11916
1443.000	4.75364	-0.37272	3.36691	0.16881
1444.000	4.78309	-0.31522	3.43389	0.15490
1445.000	4.81057	-0.38657	3.29007	0.09534
1446.000	4.80272	-0.33107	3.40237	0.15689
1447.000	4.75953	-0.30928	3.33933	0.16087
1448.000	4.72615	-0.45402	3.33933	0.31975
1449.000	4.67117	-0.55121	3.18365	0.39131
1450.000	4.72615	-0.42032	3.26642	0.31580
1451.000	4.91656	-0.20614	3.41813	0.46866
1452.000	4.88124	-0.13876	3.34721	0.70898
1453.000	4.94993	-0.10901	3.41813	1.04248
1454.000	4.93030	0.09514	3.40040	1.23704
1455.000	4.84002	0.40637	3.55601	1.50078
1456.000	4.91460	0.65605	3.64069	1.81804
1457.000	4.98721	0.83036	3.73716	2.25403
1458.000	5.03822	1.02644	3.70566	2.59100
1459.000	5.09314	1.26999	3.78046	2.99676
1460.000	5.03233	1.62461	3.77062	3.15713
1461.000	5.06960	1.99472	3.77653	3.41432
1462.000	5.11079	2.08563	3.73716	3.81785
1463.000	5.22453	2.59356	3.77259	3.98170
1464.000	5.18531	2.98114	3.74700	4.18525
1465.000	5.08529	3.18907	3.69581	4.72618
1466.000	5.09314	3.36482	3.53238	5.02863
1467.000	5.16374	3.66645	3.46541	5.16887
1468.000	5.16963	4.02737	3.57964	5.21353
1469.000	5.02645	4.29243	3.50086	5.61348
1470.000	5.01860	4.55843	3.37676	5.86587
1471.000	4.99505	4.87552	3.48708	6.15194
1472.000	4.92245	5.05310	3.44965	6.37783
1473.000	4.96955	5.25721	3.36494	6.59994
1474.000	4.94011	5.36748	3.34327	6.62361
1475.000	4.98132	5.58906	3.44965	6.58565
1476.000	4.88516	5.75671	3.31174	6.93716
1477.000	4.98917	5.65574	3.39449	6.83871
1478.000	5.04018	5.80048	3.41025	6.72503
1479.000	5.04410	5.86909	3.34721	6.85275
1480.000	5.00094	5.84202	3.35706	6.75085
1481.000	5.06176	5.73948	3.51465	6.68512
1482.000	4.86554	5.73529	3.43192	6.64064
1483.000	4.97543	5.75201	3.47920	6.45804
1484.000	4.99309	5.79109	3.42010	6.60937
1485.000	4.83413	5.76695	3.55010	6.60650
1486.000	4.96366	5.84431	3.47329	6.50317
1487.000	4.79880	5.74959	3.46147	6.49541
1488.000	4.85965	5.84914	3.59933	6.39839
1489.000	4.73597	5.92670	3.53435	6.59486
1490.000	4.81646	5.91032	3.47723	6.48942
1491.000	4.69473	5.92705	3.55798	6.60057
1492.000	4.73793	5.90707	3.62887	6.65687
1493.000	4.74775	5.89718	3.53631	6.56153
1494.000	4.77524	5.86948	3.56389	6.61032
1495.000	4.70651	6.00148	3.61903	6.52567
1496.000	4.66331	5.84688	3.64462	6.63913
1497.000	4.74971	5.98935	3.50677	6.65775
1498.000	4.82039	5.92010	3.68006	6.61340
1499.000	4.69473	5.91921	3.62887	6.64708
1500.000	4.81254	5.89663	3.57964	6.75124
1501.000	4.75168	5.93049	3.51859	6.74776
1502.000	4.74382	5.85405	3.57176	6.62594
1503.000	4.74971	5.85008	3.54419	6.73191
1504.000	4.74971	5.87166	3.63084	6.72541
1505.000	4.69670	5.90546	3.46738	6.73638
1506.000	4.77131	5.95778	3.51859	6.74776
1507.000	4.68688	5.96047	3.62099	6.71960
1508.000	4.79487	5.85166	3.55798	6.68873
1509.000	4.69080	5.87019	3.47132	6.73831
1510.000	4.70848	5.79940	3.51071	6.83984
1511.000	4.74579	5.84619	3.46935	6.73636
1512.000	4.80861	5.75932	3.47920	6.65207
1513.000	4.82824	5.82195	3.62887	6.62357
1514.000	4.75757	5.77348	3.52056	6.65177
1515.000	4.75168	5.67539	3.47329	6.58353
1516.000	4.76935	5.80871	3.48904	6.72643
1517.000	4.77916	5.74387	3.67613	6.68395
1518.000	4.77327	5.76747	3.41616	6.65054
1519.000	4.79094	5.71629	3.53238	6.66344
1520.000	4.77720	5.73211	3.59343	6.67672
1521.000	4.70651	5.68950	3.48314	6.64224
1522.000	4.68491	5.70931	3.58752	6.74531
1523.000	4.77720	5.70659	3.67613	6.60951
1524.000	4.74186	5.65387	3.55601	6.69266
1525.000	4.75364	5.70482	3.60524	6.68447
1526.000	4.76542	5.65565	3.53238	6.66736
1527.000	4.81057	5.74949	3.50283	6.68128
1528.000	4.68491	5.62095	3.52844	6.70852
1529.000	4.73008	5.69324	3.38464	6.76242
1530.000	4.68491	5.73483	3.58949	6.70025
1531.000	4.72811	5.65202	3.63281	6.74301
1532.000	4.66920	5.60537	3.58555	6.61409
1533.000	4.67313	5.64068	3.67613	6.68786
1534.000	4.81057	5.58852	3.44374	6.83053
1535.000	4.79683	5.71820	3.52647	6.74966
1536.000	4.81646	5.66897	3.51465	6.70471
1537.000	4.75757	5.66553	3.57373	6.76890
1538.000	4.74775	5.59492	3.67219	6.68593
1539.000	4.72419	5.60885	3.51268	6.77914
1540.000	4.76935	5.63598	3.60918	6.64918
1541.000	4.76346	5.60265	3.66431	6.56258
1542.000	4.85965	5.60775	3.49298	6.80865
1543.000	4.78309	5.66532	3.55601	6.60450
1544.000	4.77131	5.62615	3.54813	6.67509
1545.000	4.74186	5.63424	3.68400	6.77200
1546.000	4.72811	5.62453	3.62887	6.67842
1547.000	4.82628	5.64729	3.63478	6.70775
1548.000	4.76738	5.64189	3.59736	6.75502
1549.000	4.83413	5.62759	3.55995	6.75334
1550.000	4.76935	5.54761	3.72928	6.73837
1551.000	4.85180	5.57640	3.57964	6.67094
1552.000	4.84787	5.57447	3.54419	6.72212
1553.000	4.80861	5.58853	3.67022	6.76819
1554.000	4.75560	5.63609	3.57373	6.71603
1555.000	4.78505	5.55534	3.56389	6.74156
1556.000	4.82039	5.56487	3.51465	6.79283
1557.000	4.77720	5.50827	3.51859	6.76734
1558.000	4.67706	5.56602	3.55798	6.73573
1559.000	4.85376	5.43890	3.46541	6.69330
1560.000	4.78505	5.63389	3.55404	6.63782
1561.000	4.78505	5.61425	3.47723	6.59526
1562.000	4.74971	5.54777	3.60524	6.63941
1563.000	4.75168	5.52222	3.49889	6.74203
1564.000	4.81057	5.47461	3.52056	6.79866
1565.000	4.81646	5.49420	3.49495	6.78710
1566.000	4.85376	5.55282	3.62099	6.69610
1567.000	4.81646	5.62578	3.52056	6.69291
1568.000	4.78898	5.62600	3.57176	6.70821
1569.000	4.77720	5.55737	3.60524	6.72755
1570.000	4.87142	5.61158	3.59736	6.75307
1571.000	4.69473	5.44212	3.51662	6.63809
1572.000	4.80665	5.61211	3.51662	6.68902
1573.000	4.87535	5.46230	3.50480	6.74003
1574.000	4.78309	5.57696	3.52844	6.63996
1575.000	4.82039	5.62378	3.51662	6.84763
1576.000	4.82628	5.55893	3.47920	6.84007
1577.000	4.92441	5.51689	3.54616	6.72211
1578.000	4.84983	5.53714	3.54222	6.79263
1579.000	4.89301	5.54661	3.50874	6.73804
1580.000	4.79880	5.55327	3.49101	6.67745
1581.000	4.74579	5.52227	3.48117	6.77936
1582.000	4.90479	5.52884	3.52844	6.72811
1583.000	4.85965	5.53117	3.46541	6.68547
1584.000	4.93619	5.58748	3.48904	6.69118
1585.000	4.69866	5.59531	3.50874	6.75175
1586.000	4.85180	5.55873	3.55010	6.77495
1587.000	4.80076	5.52772	3.55995	6.80816
1588.000	4.80076	5.56307	3.41419	6.75046
1589.000	4.81646	5.55312	3.52844	6.69285
1590.000	4.84198	5.62360	3.46738	6.83624
1591.000	4.82039	5.44113	3.57373	6.75715
1592.000	4.73008	5.49293	3.48117	6.85376
1593.000	4.77720	5.60057	3.47920	6.74021
1594.000	4.79487	5.68289	3.57964	6.69640
1595.000	4.87731	5.60368	3.39055	6.87985
1596.000	4.71633	5.53625	3.48708	6.87525
1597.000	4.80076	5.54539	3.55798	6.69460
1598.000	4.86357	5.64109	3.48904	6.82238
1599.000	4.81254	5.62581	3.56192	6.79444
1600.000	4.78113	5.60250	3.56979	6.85311
1601.000	4.82824	5.52160	3.52056	6.71641
1602.000	4.70259	5.57564	3.59540	6.73154
1603.000	4.85572	5.49585	3.52056	6.75950
1604.000	4.72222	5.47531	3.48117	6.69319
1605.000	4.79291	5.47278	3.59146	6.85295
1606.000	4.80272	5.59644	3.59736	6.69432
1607.000	4.81450	5.59830	3.56389	6.78855
1608.000	4.80272	5.54931	3.45753	6.72078
1609.000	4.97936	5.47913	3.42995	6.69551
1610.000	4.74971	5.60079	3.50283	6.85556
1611.000	4.85572	5.60189	3.50874	6.78700
1612.000	4.78113	5.54752	3.71353	6.81876
1613.000	4.84002	5.49990	3.50283	6.79879
1614.000	4.77327	5.58882	3.50874	6.67537
1615.000	4.87339	5.65868	3.58358	6.81582
1616.000	4.91656	5.51892	3.56979	6.73173
1617.000	4.79291	5.56313	3.50480	6.70673
1618.000	4.96955	5.55382	3.48904	6.98090
1619.000	4.86357	5.63717	3.41813	6.77981
1620.000	4.83413	5.69826	3.49298	6.88499
1621.000	4.76935	5.52208	3.49692	6.75967
1622.000	4.79291	5.61615	3.55010	6.88653
1623.000	4.79683	5.58078	3.55404	6.81799
1624.000	4.73597	5.56948	3.54813	6.80629
1625.000	4.78702	5.55729	3.56783	6.83159
1626.000	4.82235	5.58842	3.50086	6.81446
1627.000	4.83413	5.60011	3.50283	6.80466
1628.000	4.81254	5.58654	3.59540	6.82160
1629.000	4.83217	5.65117	3.56192	6.80032
1630.000	4.84591	5.56074	3.51662	6.80848
1631.000	4.80272	5.66908	3.57373	6.82568
1632.000	4.76738	5.58298	3.50283	6.89275
1633.000	4.71830	5.59908	3.48511	6.84981
1634.000	4.80272	5.57287	3.44965	6.92640
1635.000	4.88713	5.54862	3.52450	6.94347
1636.000	4.84787	5.57250	3.58358	6.82756
1637.000	4.71633	5.54214	3.56586	6.84531
1638.000	4.87142	5.61943	3.44571	6.82073
1639.000	4.73793	5.62838	3.57767	6.82761
1640.000	4.92245	5.58563	3.54813	6.71818
1641.000	4.87339	5.66457	3.62099	6.69023
1642.000	4.78898	5.74575	3.56783	6.82181
1643.000	4.99113	5.57524	3.46344	6.87150
1644.000	4.89890	5.57405	3.49495	6.85953
1645.000	4.83806	5.60597	3.54813	6.74363
1646.000	4.91656	5.51499	3.48904	6.85174
1647.000	4.87339	5.64690	3.46738	6.69720
1648.000	4.82628	5.65907	3.55207	6.84541
1649.000	4.89498	5.70168	3.53435	6.72415
1650.000	4.77524	5.65556	3.41616	6.79940
1651.000	4.75757	5.67534	3.46738	6.72854
1652.000	4.79683	5.61612	3.59146	6.76486
1653.000	4.78309	5.62212	3.55010	6.85913
1654.000	4.80665	5.69064	3.57176	6.71213
1655.000	4.90871	5.70156	3.40434	6.79949
1656.000	4.91460	5.70544	3.55010	6.87283
1657.000	4.97347	5.62839	3.51859	6.79084
1658.000	4.84395	5.66481	3.60918	6.71381
1659.000	4.86750	5.72546	3.69778	6.70337
1660.000	4.88124	5.57027	3.52844	6.72615
1661.000	4.81646	5.72589	3.56979	6.73956
1662.000	4.89498	5.61138	3.43783	6.72875
1663.000	4.87339	5.60764	3.52253	6.68506
1664.000	4.81254	5.66704	3.56783	6.64360
1665.000	4.84002	5.62362	3.51268	6.73410
1666.000	4.80861	5.63173	3.40040	6.75251
1667.000	4.77720	5.71640	3.49889	6.66956
1668.000	4.89105	5.57804	3.49101	6.62651
1669.000	4.97543	5.69903	3.56389	6.76702
1670.000	4.86750	5.64499	3.52253	6.76536
1671.000	4.85965	5.65094	3.48708	6.72840
1672.000	4.87535	5.60566	3.53435	6.57526
1673.000	4.82628	5.70814	3.55404	6.64762
1674.000	4.93619	5.67974	3.46935	6.79707
1675.000	4.85180	5.68045	3.47920	6.62464
1676.000	4.90479	5.67804	3.45162	6.64834
1677.000	4.82235	5.56879	3.42798	6.75428
1678.000	4.89694	5.61922	3.46344	6.71682
1679.000	4.92049	5.72501	3.47329	6.76767
1680.000	4.94796	5.66394	3.52647	6.81036
1681.000	4.91264	5.57590	3.48314	6.86745
1682.000	4.92245	5.66612	3.54813	6.68880
1683.000	4.89301	5.64674	3.41222	6.77202
1684.000	4.84787	5.54698	3.43783	6.74050
1685.000	4.84591	5.70994	3.46738	6.76184
1686.000	4.99898	5.56732	3.51465	6.76933
1687.000	4.94600	5.67181	3.47329	6.72263
1688.000	4.87731	5.57226	3.57570	6.71798
1689.000	4.89694	5.56621	3.46935	6.70698
1690.000	4.79683	5.68876	3.48708	6.77736
1691.000	4.91068	5.67407	3.40040	6.71334
1692.000	4.84198	5.59023	3.41222	6.69367
1693.000	4.91460	5.68189	3.45556	6.69729
1694.000	4.88713	5.70371	3.39843	6.75253
1695.000	4.77524	5.65753	3.39055	6.80154
1696.000	4.86357	5.63128	3.48904	6.66963
1697.000	4.98132	5.69702	3.42995	6.74252
1698.000	4.92638	5.61308	3.55404	6.81212
1699.000	4.90283	5.66628	3.46344	6.64434
1700.000	4.90871	5.64660	3.54616	6.68098
1701.000	4.92441	5.64647	3.50283	6.69695
1702.000	4.87928	5.68218	3.41222	6.68192
1703.000	4.84591	5.61964	3.55010	6.72795
1704.000	4.83217	5.61190	3.49101	6.51481
1705.000	4.91068	5.72117	3.48511	6.61872
1706.000	4.87142	5.59195	3.42798	6.84043
1707.000	4.83609	5.62758	3.45950	6.75602
1708.000	4.92834	5.70336	3.59736	6.79222
1709.000	4.96562	5.67360	3.51465	6.70862
1710.000	4.93815	5.63654	3.56389	6.71610
1711.000	4.90283	5.67217	3.56783	6.65340
1712.000	4.78309	5.65157	3.47723	6.84791
1713.000	4.89301	5.72917	3.39646	6.78583
1714.000	4.87142	5.61747	3.44768	6.68167
1715.000	4.80665	5.68672	3.34327	6.77053
1716.000	4.92245	5.68771	3.34524	6.71372
1717.000	4.85376	5.67258	3.48708	6.75582
1718.000	4.93030	5.70138	3.48511	6.79500
1719.000	4.92638	5.62094	3.43586	6.74835
1720.000	4.91068	5.68977	3.47526	6.72457
1721.000	4.85769	5.74909	3.39055	6.72320
1722.000	4.81254	5.58458	3.58161	6.82758
1723.000	4.95189	5.64624	3.47329	6.67366
1724.000	4.84002	5.61184	3.47329	6.82837
1725.000	4.89105	5.62320	3.47723	6.87532
1726.000	4.93226	5.65818	3.48904	6.75385
1727.000	4.86946	5.63712	3.47329	6.76375
1728.000	4.81450	5.69450	3.55601	6.73770
1729.000	4.85376	5.66473	3.43980	6.80119
1730.000	4.88516	5.65465	3.47526	6.78136
1731.000	4.83806	5.74337	3.48117	6.62070
1732.000	4.90086	5.69967	3.41222	6.84838
1733.000	4.90479	5.68197	3.45950	6.68942
1734.000	4.81450	5.67095	3.46147	6.72858
1735.000	4.79683	5.78886	3.42404	6.88549
1736.000	4.82628	5.69440	3.42601	6.73863
1737.000	4.92049	5.68576	3.43389	6.81494
1738.000	4.83806	5.65505	3.48314	6.78131
1739.000	4.93423	5.70134	3.42995	6.69355
1740.000	4.92638	5.66020	3.47526	6.65405
1741.000	4.88516	5.65465	3.53041	6.65366
1742.000	4.96562	5.75798	3.40237	6.74271
1743.000	4.82039	5.68071	3.39252	6.83677
1744.000	5.01075	5.67518	3.38661	6.68797
1745.000	4.99505	5.67924	3.52253	6.62237
1746.000	4.85965	5.70001	3.42601	6.77192
1747.000	4.95581	5.66191	3.41025	6.61140
1748.000	4.93226	5.69155	3.52450	6.81233
1749.000	4.99505	5.60662	3.47526	6.65993
1750.000	4.99702	5.73024	3.28021	6.64754
1751.000	4.92245	5.64060	3.47723	6.68930
1752.000	4.98524	5.59885	3.47132	6.69326
1753.000	4.90283	5.68199	3.38661	6.80940
1754.000	4.92638	5.70730	3.45753	6.72665
1755.000	4.87535	5.57424	3.45359	6.65029
1756.000	4.81254	5.64937	3.35115	6.76265
1757.000	4.91853	5.75642	3.54025	6.69669
1758.000	4.90675	5.66036	3.44374	6.75613
1759.000	4.93226	5.69547	3.45359	6.77368
1760.000	4.89105	5.62123	3.29007	6.84922
1761.000	4.92638	5.69552	3.40040	6.68396
1762.000	4.95189	5.67372	3.40828	6.69957
1763.000	4.90479	5.65449	3.34130	6.78034
1764.000	5.01467	5.68692	3.49889	6.77140
1765.000	4.98524	5.65381	3.49692	6.80079
1766.000	4.96170	5.72270	3.50086	6.74201
1767.000	4.92245	5.67593	3.45950	6.68355
1768.000	4.99309	5.74793	3.45950	6.75602
1769.000	4.99505	5.76950	3.53041	6.73789
1770.000	5.05587	5.72188	3.39646	6.85828
1771.000	4.99702	5.70669	3.50283	6.76550
1772.000	4.95974	5.75018	3.38464	6.84270
1773.000	4.93423	5.71704	3.49298	6.75382
1774.000	4.95385	5.67370	3.40828	6.67998
1775.000	4.92049	5.62099	3.46738	6.71875
1776.000	4.95385	5.74239	3.49298	6.72836
1777.000	4.99113	5.72440	3.54616	6.72406
1778.000	4.93815	5.64832	3.44571	6.73849
1779.000	4.97543	5.68137	3.45950	6.70705
1780.000	4.86946	5.74311	3.44571	6.76786
1781.000	4.94011	5.69541	3.46541	6.71876
1782.000	4.87731	5.69201	3.38858	6.63898
1783.000	4.99309	5.78325	3.61312	6.62564
1784.000	5.02841	5.76920	3.40828	6.86798
1785.000	5.01075	5.68106	3.47920	6.73434
1786.000	5.05783	5.71990	3.34130	6.81559
1787.000	4.99702	5.67137	3.53041	6.79467
1788.000	4.98132	5.70879	3.45753	6.77561
1789.000	4.95189	5.75025	3.53435	6.69477
1790.000	4.98721	5.74013	3.49889	6.63625
1791.000	5.02056	5.72022	3.53041	6.71047
1792.000	4.94600	5.66003	3.50677	6.77135
1793.000	4.88909	5.72332	3.46344	6.64630
1794.000	4.89694	5.74091	3.48511	6.68337
1795.000	5.03822	5.72792	3.50283	6.70087
1796.000	4.99702	5.69099	3.49298	6.69311
1797.000	4.96562	5.73051	3.53435	6.62229
1798.000	4.93619	5.74254	3.43192	6.72096
1799.000	5.10687	5.70769	3.40237	6.67611
1800.000	4.94993	5.72280	3.49692	6.63627
1801.000	5.07549	5.70601	3.44177	6.63469
1802.000	5.01271	5.71048	3.53435	6.64580
1803.000	4.96170	5.73447	3.47132	6.78139
1804.000	5.00094	5.69488	3.52647	6.73987
1805.000	5.08529	5.71966	3.51071	6.76349
1806.000	4.93030	5.71315	3.60327	6.76085
1807.000	5.05391	5.83567	3.38464	6.68211
1808.000	4.92638	5.67001	3.55798	6.67697
1809.000	4.95777	5.74628	3.49495	6.72443
1810.000	4.99898	5.69490	3.49298	6.63826
1811.000	4.98524	5.64203	3.49298	6.69507
1812.000	5.08333	5.70398	3.48904	6.63240
1813.000	4.99505	5.66746	3.54419	6.69274
1814.000	5.03429	5.64161	3.57767	6.78454
1815.000	5.02645	5.60438	3.55404	6.82778
1816.000	5.02252	5.72021	3.55798	6.72985
1817.000	5.09902	5.79800	3.66431	6.70557
1818.000	4.99702	5.68511	3.46935	6.66585
1819.000	5.16767	5.73069	3.64265	6.82712
1820.000	5.04214	5.74358	3.49101	6.68137
1821.000	5.00683	5.71053	3.56192	6.69066
1822.000	4.96366	5.68932	3.58161	6.73360
1823.000	4.98917	5.55366	3.65053	6.71547
1824.000	4.99309	5.70673	3.47132	6.72852
1825.000	4.98917	5.56151	3.42798	6.86393
1826.000	5.04802	5.63757	3.52647	6.75750
1827.000	5.03233	5.61415	3.45556	6.86764
1828.000	5.06176	5.66492	3.55798	6.67893
1829.000	5.06960	5.65897	3.49495	6.76947
1830.000	5.12844	5.65060	3.51859	6.84174
1831.000	5.04802	5.62972	3.53631	6.71434
1832.000	5.05783	5.70028	3.46738	6.78533
1833.000	4.95385	5.63837	3.56586	6.80224
1834.000	5.16963	5.67771	3.44965	6.79917
1835.000	5.07745	5.65105	3.59343	6.73743
1836.000	5.06960	5.65700	3.42207	6.65442
1837.000	5.02645	5.61616	3.48314	6.75781
1838.000	5.06176	5.65315	3.45950	6.76189
1839.000	5.13433	5.73884	3.42207	6.85222
1840.000	5.07941	5.79229	3.38267	6.87208
1841.000	5.12452	5.66633	3.65250	6.69979
1842.000	5.04410	5.64938	3.52450	6.77318
1843.000	5.16963	5.62865	3.50283	6.76746
1844.000	5.04999	5.68465	3.54813	6.80042
1845.000	4.99309	5.58896	3.45556	6.82066
1846.000	5.05587	5.64927	3.54616	6.87677
1847.000	5.08726	5.66862	3.54616	6.80826
1848.000	5.04018	5.56304	3.48511	6.86939
1849.000	5.02645	5.66130	3.65250	6.80747
1850.000	5.14413	5.67793	3.52647	6.66545
1851.000	5.02645	5.64953	3.54025	6.92965
1852.000	5.15786	5.73470	3.54222	6.77892
1853.000	5.08137	5.58232	3.50677	6.75960
1854.000	5.08726	5.59012	3.62493	6.80572
1855.000	5.13433	5.81337	3.44374	6.78942
1856.000	5.05587	5.76504	3.43980	6.85797
1857.000	5.05979	5.55895	3.56586	6.93729
1858.000	5.11864	5.49955	3.46738	6.89496
1859.000	5.07745	5.56273	3.41222	6.87383
1860.000	5.11864	5.63695	3.54025	6.90030
1861.000	5.04802	5.53353	3.55798	6.85124
1862.000	5.10687	5.68611	3.50283	6.88296
1863.000	5.04018	5.54538	3.40040	6.98350
1864.000	5.13433	5.65055	3.56586	6.83161
1865.000	5.03822	5.59251	3.53828	6.95315
1866.000	5.08726	5.62741	3.55404	6.94129
1867.000	5.16178	5.72290	3.55404	6.84931
1868.000	5.08137	5.63335	3.54813	6.78280
1869.000	5.11472	5.54670	3.50677	6.86727
1870.000	5.11668	5.64874	3.43980	6.80707
1871.000	4.98132	5.52427	3.55995	6.72984
1872.000	5.04410	5.53749	3.42995	6.76993
1873.000	4.89694	5.46998	3.35509	6.64900
1874.000	4.98132	5.32982	3.30189	6.61996
1875.000	4.98524	5.40641	3.20139	6.50887
1876.000	4.82039	5.28786	3.18365	6.48349
1877.000	4.63581	5.33644	3.08509	6.30949
1878.000	4.45311	5.27879	3.03187	6.19005
1879.000	4.37646	5.24196	3.02989	6.20381
1880.000	4.33715	5.23043	2.82680	6.10279
1881.000	4.16020	5.18439	2.75974	6.05205
1882.000	4.17789	5.25708	2.67492	6.04264
1883.000	4.02054	5.26205	2.60784	6.00169
1884.000	4.01858	5.17350	2.55852	5.99013
1885.000	3.85132	5.33986	2.62362	5.94264
1886.000	3.96939	5.19546	2.63349	5.84427
1887.000	3.87887	5.18027	2.54273	5.81322
1888.000	3.85329	5.15286	2.43025	5.82158
1889.000	3.82574	5.14318	2.33552	5.86919
1890.000	3.75684	5.11208	2.44012	5.74874
1891.000	3.61312	4.99864	2.37105	5.60338
1892.000	3.62296	4.99661	2.10259	5.80321
1893.000	3.43783	4.93847	2.27433	5.56241
1894.000	3.41813	4.91295	2.23486	5.60391
1895.000	3.47920	4.93629	2.23486	5.49166
1896.000	3.37873	4.89146	2.21117	5.47008
1897.000	3.46935	4.93634	2.09864	5.59260
1898.000	3.29795	4.70647	2.06112	5.50016
1899.000	3.35115	4.83245	2.26841	5.49941
1900.000	3.28415	4.70851	2.17563	5.52733
1901.000	3.40631	4.60534	2.14997	5.46636
1902.000	3.43389	4.67229	2.21709	5.43460
1903.000	3.41616	4.70393	2.15194	5.38163
1904.000	3.33933	4.77926	2.21512	5.40899
1905.000	3.39843	4.70402	2.09469	5.48034
1906.000	3.46935	4.73128	2.24473	5.64128
1907.000	3.48708	4.74303	2.16971	5.45447
1908.000	3.47329	4.69774	2.20525	5.51934
1909.000	3.46738	4.70763	2.13220	5.55506
1910.000	3.29598	4.57428	2.22301	5.51731
1911.000	3.46344	4.71356	2.19340	5.55090
1912.000	3.38267	4.78694	2.08679	5.64580
1913.000	3.39055	4.68039	2.12628	5.54523
1914.000	3.39646	4.75137	2.22104	5.61381
1915.000	3.45359	4.67416	2.17563	5.61988
1916.000	3.33736	4.74179	2.28026	5.60177
1917.000	3.40631	4.57574	2.26052	5.47777
1918.000	3.37085	4.62721	2.19143	5.73006
1919.000	3.46147	4.67215	2.24867	5.58614
1920.000	3.43389	4.65453	2.09074	5.59656
1921.000	3.28612	4.58025	2.16379	5.53525
1922.000	3.44965	4.70377	2.33750	5.54247
1923.000	3.34918	4.62731	2.23288	5.50939
1924.000	3.38661	4.62516	2.11246	5.61815
1925.000	3.35509	4.51480	2.20919	5.53114
1926.000	3.32159	4.62942	2.08482	5.47841
1927.000	3.33933	4.61157	2.15787	5.55890
1928.000	3.42404	4.63288	2.09271	5.61625
1929.000	3.23489	4.61403	2.27828	5.43634
1930.000	3.29401	4.57232	2.14602	5.52547
1931.000	3.32750	4.61755	2.16181	5.37371
1932.000	3.35903	4.56018	2.12825	5.61218
1933.000	3.36494	4.57988	2.07889	5.55131
1934.000	3.36691	4.56606	2.28026	5.47967
1935.000	3.21518	4.51148	2.20722	5.56660
1936.000	3.43389	4.66834	2.12628	5.53145
1937.000	3.44965	4.62486	2.15392	5.45452
1938.000	3.37676	4.60153	2.13615	5.48611
1939.000	3.23883	4.56665	2.13023	5.62202
1940.000	3.36888	4.50684	2.11443	5.49603
1941.000	3.50677	4.64036	2.25065	5.47387
1942.000	3.29598	4.47559	2.08482	5.58477
1943.000	3.26642	4.53889	2.16576	5.46236
1944.000	3.40040	4.50867	2.23288	5.63148
1945.000	3.60524	4.64184	2.22104	5.53701
1946.000	3.30386	4.60779	2.18353	5.56078
1947.000	3.34327	4.63326	2.14010	5.58063
1948.000	3.41616	4.56188	2.14010	5.52943
1949.000	3.37085	4.57591	2.10654	5.58863
1950.000	3.48314	4.61483	2.17169	5.47219
1951.000	3.47132	4.58727	2.05520	5.51397
1952.000	3.36297	4.43581	2.19735	5.58239
1953.000	3.42010	4.57173	2.11246	5.58270
1954.000	3.48708	4.60495	2.12430	5.67520
1955.000	3.37873	4.44363	2.31973	5.52876
1956.000	3.42010	4.57370	2.06310	5.41346
1957.000	3.42798	4.60129	2.27828	5.53679
1958.000	3.35509	4.62137	2.23091	5.58817
1959.000	3.47920	4.58131	2.17366	5.55491
1960.000	3.44768	4.63868	2.20919	5.51342
1961.000	3.50086	4.57134	2.18353	5.51745
1962.000	3.53631	4.68559	2.17563	5.54112
1963.000	3.36494	4.41803	2.21906	5.54489
1964.000	3.53238	4.62446	2.22893	5.51728
1965.000	3.38464	4.50677	2.09469	5.56504
1966.000	3.43980	4.46506	2.19143	5.61392
1967.000	3.46147	4.55772	2.14800	5.63771
1968.000	3.32750	4.46361	2.26052	5.42458
1969.000	3.33538	4.36683	2.26249	5.49549
1970.000	3.55207	4.51387	2.22696	5.43062
1971.000	3.52844	4.52188	2.17958	5.55686
1972.000	3.44965	4.49265	2.24275	5.56450
1973.000	3.43980	4.49270	2.18550	5.55290
1974.000	3.47526	4.50634	2.18156	5.53125
1975.000	3.47526	4.54384	2.20525	5.56858
1976.000	3.52450	4.56728	2.21709	5.61579
1977.000	3.46541	4.52613	2.14405	5.42501
1978.000	3.46147	4.54983	2.24867	5.45418
1979.000	3.43389	4.62494	2.20525	5.56267
1980.000	3.37873	4.50285	2.15194	5.56090
1981.000	3.46935	4.54979	2.20525	5.53707
1982.000	3.54222	4.57706	2.21709	5.49369
1983.000	3.40828	4.57376	2.18748	5.54304
1984.000	3.43783	4.48679	2.20327	5.55677
1985.000	3.55207	4.52966	2.21512	5.51734
1986.000	3.45753	4.52024	2.14010	5.47230
1987.000	3.42798	4.51446	2.24473	5.52510
1988.000	3.46541	4.52021	2.27631	5.44226
1989.000	3.52450	4.52190	2.16379	5.42100
1990.000	3.43783	4.53612	2.17366	5.58839
1991.000	3.45556	4.50841	2.20130	5.48784
1992.000	3.52844	4.67576	2.16774	5.49781
1993.000	3.40237	4.49879	2.32368	5.56812
1994.000	3.48904	4.47075	2.18945	5.52334
1995.000	3.42010	4.40988	2.23880	5.67083
1996.000	3.58358	4.50582	2.22499	5.48578
1997.000	3.71550	4.49924	2.23091	5.46606
1998.000	3.57176	4.53548	2.20327	5.42676
1999.000	3.53435	4.47251	2.30000	5.63319
2000.000	3.57373	4.49008	2.23486	5.46408
2001.000	3.44768	4.48477	2.29605	5.50324
2002.000	3.48904	4.46089	2.22301	5.47200
2003.000	3.53631	4.49224	2.17761	5.55096
2004.000	3.51859	4.57520	2.19143	5.60014
2005.000	3.46541	4.52021	2.26052	5.45611
2006.000	3.41813	4.53622	2.24275	5.57434
2007.000	3.52253	4.49822	2.18945	5.57061
2008.000	3.44768	4.51832	2.18945	5.51546
2009.000	3.48314	4.62667	2.30197	5.57806
2010.000	3.46541	4.50837	2.15787	5.47224
2011.000	3.47132	4.52610	2.30197	5.64500
2012.000	3.49298	4.42336	2.27828	5.48756
2013.000	3.49298	4.47863	2.17366	5.38746
2014.000	3.60130	4.57676	2.25262	5.41673
2015.000	3.52450	4.71720	2.18748	5.59424
2016.000	3.45556	4.58735	2.15984	5.44071
2017.000	3.53041	4.48832	2.18945	5.49576
2018.000	3.52647	4.50610	2.18156	5.55291
2019.000	3.57373	4.52363	2.15787	5.53133
2020.000	3.52056	4.48837	2.17958	5.57852
2021.000	3.44965	4.41370	2.16971	5.56871
2022.000	3.51071	4.60483	2.21709	5.54490
2023.000	3.46344	4.37612	2.23091	5.47394
2024.000	3.59343	4.62612	2.17761	5.56868
2025.000	3.51859	4.66398	2.26052	5.51520
2026.000	3.51662	4.64623	2.18945	5.70842
2027.000	3.55404	4.54740	2.14405	5.58849
2028.000	3.52450	4.52584	2.20919	5.53508
2029.000	3.51465	4.51997	2.22696	5.47002
2030.000	3.42995	4.47498	2.21512	5.49567
2031.000	3.38267	4.48112	2.35921	5.54632
2032.000	3.56192	4.45264	2.23288	5.60589
2033.000	3.66431	4.40083	2.19538	5.53317
2034.000	3.51662	4.51601	2.22499	5.43457
2035.000	3.42404	4.47698	2.24275	5.54481
2036.000	3.41616	4.47899	2.24275	5.49360
2037.000	3.52253	4.51796	2.22499	5.56653
2038.000	3.58752	4.47620	2.18156	5.65136
2039.000	3.42995	4.44340	2.26841	5.48562
2040.000	3.52844	4.55542	2.19143	5.53121
2041.000	3.55010	4.50204	2.19538	5.59815
2042.000	3.48511	4.47867	2.21314	5.62565
2043.000	3.51859	4.53968	2.24473	5.54283
2044.000	3.45753	4.46498	2.22301	5.60592
2045.000	3.37873	4.48706	2.29210	5.55249
2046.000	3.43586	4.51245	2.20722	5.50161
2047.000	3.54222	4.52378	2.29013	5.47963
2048.000	3.52253	4.55545	2.23288	5.59604
2049.000	3.46541	4.55375	2.27039	5.54864
2050.000	3.45950	4.45510	2.21709	5.60398
2051.000	3.45359	4.50645	2.18748	5.64740
2052.000	3.54419	4.52575	2.10259	5.59849
2053.000	3.48117	4.47671	2.19735	5.59027
2054.000	3.44965	4.48870	2.20919	5.59810
2055.000	3.44571	4.51635	2.26644	5.57425
2056.000	3.46738	4.43928	2.25460	5.68061
2057.000	3.58161	4.54135	2.21314	5.48189
2058.000	3.40040	4.48499	2.27039	5.47774
2059.000	3.53828	4.51788	2.15787	5.50967
2060.000	3.45162	4.46698	2.12825	5.60037
2061.000	3.38464	4.36464	2.25065	5.50736
2062.000	3.48314	4.47078	2.18550	5.62575
2063.000	3.56389	4.57103	2.18945	5.57848
2064.000	3.50874	4.56538	2.18945	5.51940
2065.000	3.47723	4.53002	2.22499	5.59213
2066.000	3.43783	4.49073	2.24867	5.56841
2067.000	3.48708	4.47076	2.28815	5.59780
2068.000	3.53631	4.48040	2.23486	5.57044
2069.000	3.47329	4.51030	2.18550	5.61197
2070.000	3.47920	4.53001	2.26841	5.53880
2071.000	3.53631	4.56722	2.24670	5.53494
2072.000	3.42995	4.49077	2.19932	5.39131
2073.000	3.48708	4.40168	2.13615	5.49793
2074.000	3.47920	4.56947	2.19735	5.36570
2075.000	3.50283	4.63052	2.24275	5.47390
2076.000	3.55995	4.54935	2.25460	5.54476
2077.000	3.51465	4.47655	2.24078	5.51527
2078.000	3.38464	4.43374	2.24473	5.56646
2079.000	3.58752	4.69322	2.21906	5.54883
2080.000	3.46344	4.63466	2.26841	5.71402
2081.000	3.51465	4.59495	2.22104	5.59609
2082.000	3.43980	4.36044	2.23091	5.46212
2083.000	3.60524	4.61817	2.16971	5.63566
2084.000	3.49101	4.46088	2.19538	5.66509
2085.000	3.41025	4.54020	2.25460	5.62155
2086.000	3.58161	4.51964	2.22301	5.39911
2087.000	3.57176	4.44470	2.14405	5.59637
2088.000	3.53238	4.50804	2.22301	5.64333
2089.000	3.56389	4.64402	2.28618	5.43434
2090.000	3.52056	4.54757	2.23486	5.42271
2091.000	3.59540	4.49392	2.33552	5.50506
2092.000	3.50874	4.46671	2.42631	5.49288
2093.000	3.67022	4.40080	2.38486	5.39653
2094.000	3.70960	4.27033	2.56641	5.36428
2095.000	3.85723	4.05044	2.60390	5.13748
2096.000	3.91823	3.92571	2.85638	4.93530
2097.000	4.02841	3.83629	2.99835	4.68414
2098.000	4.16806	3.64002	3.03187	4.56360
2099.000	4.26834	3.74624	3.13240	4.38942
2100.000	4.29390	3.73229	3.28612	4.47761
2101.000	4.40005	3.59546	3.26051	4.26446
2102.000	4.37843	3.34259	3.38070	4.11974
2103.000	4.46883	3.05351	3.43586	3.91201
2104.000	4.59653	2.83145	3.53828	3.62491
2105.000	4.46097	2.55492	3.77062	3.30752
2106.000	4.67313	2.47698	3.66825	3.42068
2107.000	4.82824	2.47445	3.77850	3.11950
2108.000	4.81254	2.29244	3.88871	3.02607
2109.000	4.94011	2.28013	3.88084	2.95484
2110.000	4.95777	1.93765	3.95562	2.82392
2111.000	5.13433	1.80253	3.98710	2.72679
2112.000	5.00290	1.77914	3.98906	2.46536
2113.000	5.01075	1.71179	4.19559	2.29042
2114.000	5.07156	1.66808	4.21919	2.24677
2115.000	5.07941	1.50569	4.22705	2.32994
2116.000	5.03822	1.49786	4.27621	2.06038
2117.000	5.16178	1.39659	4.36860	2.21464
2118.000	5.11079	1.17884	4.23689	1.96934
2119.000	5.18924	1.26781	4.28211	1.75321
2120.000	5.12060	1.12336	4.17593	1.63847
2121.000	5.05391	0.85009	4.16216	1.36288
2122.000	4.97936	0.65599	4.23295	1.10099
2123.000	4.96955	0.53511	4.12086	0.97221
2124.000	5.08529	0.36857	3.90249	0.84150
2125.000	5.05783	0.22789	3.93791	0.77599
2126.000	4.95385	0.13279	3.84542	0.71653
2127.000	4.99702	-0.06342	3.90839	0.61725
2128.000	5.12452	-0.00793	3.78243	0.68086
2129.000	5.10883	-0.22788	3.71944	0.52608
2130.000	4.99898	-0.20810	3.81393	0.46647
2131.000	4.94796	-0.37460	3.69581	0.57175
2132.000	5.03429	-0.44192	3.66628	0.21045
2133.000	4.87339	-0.45591	3.56586	0.31769
2134.000	4.76542	-0.70377	3.55601	0.16480
2135.000	4.77327	-0.61060	3.59540	0.12112
2136.000	4.74579	-0.68199	3.42010	0.06156
2137.000	4.84198	-0.84243	3.45556	-0.03376
2138.000	4.80665	-0.83653	3.44571	0.01390
2139.000	4.71633	-0.78708	3.36888	0.13703
2140.000	4.69866	-0.79305	3.49101	0.15290
2141.000	4.78702	-0.76916	3.35115	0.13505
2142.000	4.83413	-0.83055	3.40237	0.11916
2143.000	4.85180	-0.77504	3.47526	0.23035
2144.000	4.88516	-0.87607	3.43192	0.23235
2145.000	4.78505	-0.73745	3.45753	0.25220
2146.000	4.82235	-0.79885	3.37282	0.34159
2147.000	4.71830	-0.80889	3.43192	0.34157
2148.000	4.77524	-0.86630	3.46344	0.25815
2149.000	4.68491	-0.81091	3.41419	0.30185
2150.000	4.74579	-0.84255	3.34721	0.18669
2151.000	4.69866	-0.75935	3.43192	0.23632
2152.000	4.76542	-0.80883	3.43980	0.35943
2153.000	4.66527	-0.78714	3.48117	0.42892
2154.000	4.74775	-0.75930	3.40631	0.40909
2155.000	4.72811	-0.78112	3.38661	0.28399
2156.000	4.61617	-0.80504	3.48511	0.32368
2157.000	4.71830	-0.71968	3.43783	0.38326
2158.000	4.69473	-0.79702	3.52450	0.30579
2159.000	4.81057	-0.78103	3.44177	0.45276
2160.000	4.62599	-0.71779	3.46738	0.30780
2161.000	4.72811	-0.62452	3.36888	0.32769
2162.000	4.78898	-0.61257	3.36691	0.40712
2163.000	4.77720	-0.64429	3.34721	0.30188
2164.000	4.84395	-0.60261	3.34327	0.33365
2165.000	4.73204	-0.67804	3.42404	0.42696
2166.000	4.73990	-0.73948	3.36100	0.45479
2167.000	4.79683	-0.60661	3.45556	0.34354
2168.000	4.78505	-0.63239	3.27824	0.41908
2169.000	4.69080	-0.61662	3.31174	0.39523
2170.000	4.76542	-0.59276	3.39252	0.44286
2171.000	4.66135	-0.65630	3.40040	0.37732
2172.000	4.62599	-0.67616	3.26445	0.20061
2173.000	4.68884	-0.57697	3.41222	0.48058
2174.000	4.67313	-0.51155	3.39252	0.46272
2175.000	4.75757	-0.63837	3.27430	0.38929
2176.000	4.76935	-0.55906	3.37873	0.52031
2177.000	4.71241	-0.57298	3.30977	0.38927
2178.000	4.84591	-0.48169	3.31174	0.41708
2179.000	4.72419	-0.67804	3.38070	0.40712
2180.000	4.77131	-0.49959	3.33538	0.26812
2181.000	4.78702	-0.55112	3.42995	0.46468
2182.000	4.65938	-0.53536	3.53631	0.39315
2183.000	4.82824	-0.59271	3.26839	0.45086
2184.000	4.79683	-0.57093	3.17774	0.38734
2185.000	4.84983	-0.46385	3.31174	0.30189
2186.000	4.82039	-0.49559	3.29401	0.50447
2187.000	4.80665	-0.40045	3.34524	0.45480
2188.000	4.84983	-0.67197	3.19941	0.48863
2189.000	4.84395	-0.48566	3.26839	0.38929
2190.000	4.87142	-0.36076	3.17774	0.40720
2191.000	4.94404	-0.52919	3.33341	0.52232
2192.000	4.79880	-0.41631	3.32159	0.31777
2193.000	4.87142	-0.37464	3.37479	0.37733
2194.000	4.91264	-0.47966	3.24868	0.36149
2195.000	4.90086	-0.44994	3.30780	0.39126
2196.000	4.92245	-0.44993	3.28021	0.45284
2197.000	4.78505	-0.54914	3.31765	0.38530
2198.000	4.77327	-0.52734	3.16788	0.44097
2199.000	4.76149	-0.42426	3.23292	0.41512
2200.000	4.91264	-0.43606	3.27233	0.32176
2201.000	4.77524	-0.24583	3.21321	0.33965
2202.000	4.73204	-0.43618	3.20927	0.44691
2203.000	4.80861	-0.50154	3.16591	0.44296
2204.000	4.80861	-0.45991	3.27036	0.52434
2205.000	4.90479	-0.41030	3.19744	0.29199
2206.000	4.77131	-0.45003	3.20730	0.39726
2207.000	4.81843	-0.38458	3.20730	0.20856
2208.000	4.90283	-0.43012	3.27430	0.32573
2209.000	4.91853	-0.33695	3.22898	0.37937
2210.000	4.83806	-0.43016	3.30977	0.31976
2211.000	4.86750	-0.43609	3.29598	0.31778
2212.000	4.91460	-0.31515	3.20927	0.35555
2213.000	4.82235	-0.51739	3.27036	0.24629
2214.000	4.79683	-0.45199	3.32750	0.39721
2215.000	4.87928	-0.56095	3.22109	0.23240
2216.000	4.93423	-0.39839	3.27036	0.24827
2217.000	4.79487	-0.38658	3.29204	0.34956
2218.000	4.85769	-0.45195	3.25657	0.29396
2219.000	4.87142	-0.38455	3.19547	0.29795
2220.000	4.81254	-0.43612	3.31962	0.40714
2221.000	4.96562	-0.36468	3.25460	0.30389
2222.000	4.95777	-0.43405	3.26051	0.28204
2223.000	4.98132	-0.43007	3.20730	0.29397
2224.000	4.93423	-0.27352	3.28810	0.22046
2225.000	4.91068	-0.40831	3.21124	0.34561
2226.000	4.81646	-0.45595	3.31174	0.32572
2227.000	4.89498	-0.41823	3.29007	0.32771
2228.000	4.84002	-0.40836	3.27233	0.30388
2229.000	4.89301	-0.31318	3.29992	0.28004
2230.000	4.82824	-0.47378	3.24671	0.29198
2231.000	4.96562	-0.35279	3.22109	0.29794
2232.000	4.80665	-0.34692	3.26248	0.25423
2233.000	4.84198	-0.45395	3.27036	0.37936
2234.000	4.90871	-0.38453	3.31568	0.29791
2235.000	4.84591	-0.41628	3.20139	0.36945
2236.000	4.86161	-0.42222	3.26248	0.28204
2237.000	4.86554	-0.40438	3.26248	0.30190
2238.000	4.91460	-0.50939	3.30780	0.25422
2239.000	4.94796	-0.38649	3.16788	0.17878
2240.000	4.91853	-0.41624	3.33538	0.27408
2241.000	4.71044	-0.32913	3.26839	0.39723
2242.000	4.93226	-0.42416	3.23489	0.26616
2243.000	4.83806	-0.40241	3.23883	0.28006
2244.000	4.86357	-0.57088	3.28218	0.29196
2245.000	4.90479	-0.52129	3.28021	0.37538
2246.000	4.82039	-0.52929	3.29401	0.30785
2247.000	4.82039	-0.43017	3.21912	0.27013
2248.000	4.86946	-0.42221	3.12452	0.35359
2249.000	4.80076	-0.44604	3.22109	0.26815
2250.000	4.93619	-0.41622	3.32947	0.24627
2251.000	4.88320	-0.44797	3.29007	0.40318
2252.000	4.89301	-0.34886	3.24671	0.24629
2253.000	4.86750	-0.51141	3.16394	0.28803
2254.000	4.86161	-0.29139	3.36888	0.24626
2255.000	4.88909	-0.38256	3.15605	0.31981
2256.000	4.98328	-0.38052	3.21124	0.30788
2257.000	4.94208	-0.44000	3.11072	0.31188
2258.000	4.95777	-0.37657	3.20533	0.28801
2259.000	4.94011	-0.40433	3.31765	0.25422
2260.000	4.83609	-0.44007	3.33736	0.30784
2261.000	4.90871	-0.37660	3.23095	0.41910
2262.000	4.89694	-0.47373	3.38070	0.20257
2263.000	4.93030	-0.33695	3.25065	0.29396
2264.000	4.89694	-0.35877	3.24474	0.33369
2265.000	4.94796	-0.27748	3.25263	0.23636
2266.000	4.90675	-0.39246	3.20927	0.22048
2267.000	4.91853	-0.33101	3.25460	0.24033
2268.000	4.89694	-0.34489	3.28810	0.29792
2269.000	4.96170	-0.33693	3.26248	0.28998
2270.000	4.89301	-0.45986	3.19941	0.24035
2271.000	4.89694	-0.43012	3.24671	0.29595
2272.000	4.93030	-0.29334	3.29401	0.28004
2273.000	4.82432	-0.40440	3.18759	0.33172
2274.000	4.88909	-0.45193	3.20533	0.35158
2275.000	4.95777	-0.38252	3.27627	0.30587
2276.000	4.94208	-0.34685	3.33538	0.25024
2277.000	4.94011	-0.40235	3.27233	0.36545
2278.000	4.97936	-0.34485	3.26642	0.30389
2279.000	4.90283	-0.46778	3.20927	0.39924
2280.000	4.98328	-0.43601	3.18562	0.17281
2281.000	4.99309	-0.31710	3.31371	0.28401
2282.000	4.86946	-0.41627	3.26051	0.13506
2283.000	4.94208	-0.32307	3.29204	0.27409
2284.000	4.85572	-0.41826	3.19744	0.19863
2285.000	4.86161	-0.39249	3.25065	0.19664
2286.000	4.87928	-0.45788	3.26051	0.40121
2287.000	4.89694	-0.36472	3.22504	0.24630
2288.000	4.99113	-0.42015	3.20533	0.28801
2289.000	4.96366	-0.35477	3.12846	0.31187
2290.000	4.89694	-0.39445	3.27233	0.17677
2291.000	5.01467	-0.31907	3.17774	0.26021
2292.000	4.94600	-0.36271	3.28218	0.20855
2293.000	4.94011	-0.28938	3.31371	0.31182
2294.000	4.95189	-0.33694	3.19350	0.34363
2295.000	4.98132	-0.33098	3.23095	0.18274
2296.000	4.93423	-0.41028	3.21518	0.26418
2297.000	5.05391	-0.30716	3.36888	0.38726
2298.000	4.92049	-0.42813	3.24277	0.30985
2299.000	5.01860	-0.31510	3.16394	0.31186
2300.000	4.92638	-0.37263	3.22109	0.23438
2301.000	4.90871	-0.32309	3.23883	0.23040
2302.000	4.91656	-0.35678	3.12452	0.34763
2303.000	4.98132	-0.31512	3.32553	0.20457
2304.000	4.88320	-0.31319	3.27233	0.32375
2305.000	5.04018	-0.30122	3.16197	0.35556
2306.000	4.88909	-0.39643	3.31765	0.30586
2307.000	4.89694	-0.42616	3.28612	0.29395
2308.000	4.91460	-0.28344	3.29401	0.33764
2309.000	5.05195	-0.35472	3.29795	0.35949
2310.000	4.92834	-0.35082	3.28021	0.23635
2311.000	4.90283	-0.35678	3.36691	0.32173
2312.000	4.87731	-0.40635	3.29401	0.26813
2313.000	4.92049	-0.31317	3.30583	0.30785
2314.000	4.99113	-0.31710	3.18956	0.42110
2315.000	4.96366	-0.44395	3.29007	0.24827
2316.000	5.03822	-0.31113	3.23883	0.34958
2317.000	4.98328	-0.42610	3.25854	0.26814
2318.000	4.91068	-0.40831	3.28810	0.28203
2319.000	5.00683	-0.38051	3.28612	0.26416
2320.000	4.92441	-0.36272	3.27233	0.27211
2321.000	4.89694	-0.33102	3.23095	0.38335
2322.000	4.93423	-0.45983	3.30386	0.43495
2323.000	4.83217	-0.41034	3.24868	0.23835
2324.000	4.84787	-0.35681	3.39055	0.11320
2325.000	4.88713	-0.37265	3.17774	0.35953
2326.000	4.88909	-0.34093	3.27824	0.23437
2327.000	4.88909	-0.31715	3.32356	0.21251
2328.000	4.93619	-0.42415	3.26051	0.19465
2329.000	5.02252	-0.30718	3.31962	0.28401
2330.000	4.92049	-0.24776	3.38858	0.43094
2331.000	4.88713	-0.38454	3.26642	0.36347
2332.000	4.97347	-0.32107	3.28612	0.43893
2333.000	5.02252	-0.31114	3.28810	0.32970
2334.000	4.96759	-0.33098	3.39449	0.37534
2335.000	4.96562	-0.25369	3.23489	0.17082
2336.000	4.92638	-0.31911	3.25854	0.21451
2337.000	4.98917	-0.34088	3.28021	0.28203
2338.000	4.96955	-0.41026	3.31568	0.28997
2339.000	4.92638	-0.26758	3.30977	0.24429
2340.000	4.99898	-0.29926	3.38070	0.21448
2341.000	5.04606	-0.31311	3.15803	0.24035
2342.000	5.00486	-0.35673	3.23489	0.34759
2343.000	4.95777	-0.31712	3.26445	0.21252
2344.000	4.95581	-0.39441	3.23489	0.23636
2345.000	5.01664	-0.28142	3.18759	0.34761
2346.000	4.97740	-0.23387	3.27430	0.27608
2347.000	4.94404	-0.29928	3.20927	0.42705
2348.000	4.91853	-0.28542	3.28810	0.27806
2349.000	4.95189	-0.25964	3.29795	0.28402
2350.000	5.00094	-0.33889	3.24474	0.19664
2351.000	4.90871	-0.37462	3.25657	0.29594
2352.000	4.94208	-0.42217	3.23686	0.28999
2353.000	4.94796	-0.24775	3.21321	0.29596
2354.000	5.03037	-0.30321	3.29598	0.39325
2355.000	4.92245	-0.36867	3.13240	0.20063
2356.000	5.04410	-0.30320	3.19941	0.31781
2357.000	4.89498	-0.30129	3.28021	0.23834
2358.000	4.91853	-0.30921	3.32947	0.38331
2359.000	4.96562	-0.21405	3.37282	0.22640
2360.000	5.05195	-0.33490	3.29992	0.26018
2361.000	4.88516	-0.30922	3.27233	0.23040
2362.000	4.97936	-0.28738	3.32159	0.32572
2363.000	4.91068	-0.30128	3.27627	0.25423
2364.000	5.01664	-0.31907	3.33538	0.27805
2365.000	4.93226	-0.30722	3.31174	0.24429
2366.000	4.90086	-0.34291	3.19941	0.35555
2367.000	4.99898	-0.23782	3.21518	0.34164
2368.000	4.97936	-0.28936	3.23292	0.29595
2369.000	4.93226	-0.31118	3.22109	0.40321
2370.000	4.87339	-0.29139	3.23095	0.30390
2371.000	5.04018	-0.27546	3.25460	0.16883
2372.000	5.00290	-0.41420	3.26839	0.33765
2373.000	4.92834	-0.24379	3.25854	0.28800
2374.000	4.90479	-0.23587	3.28218	0.36346
2375.000	5.11079	-0.18230	3.23095	0.33965
2376.000	4.88320	-0.21408	3.29401	0.42304
2377.000	4.97740	-0.22792	3.28218	0.24231
2378.000	4.98132	-0.33098	3.08115	0.33771
2379.000	4.94600	-0.36271	3.29401	0.29991
2380.000	4.94993	-0.26955	3.28612	0.36346
2381.000	4.85965	-0.27355	3.15803	0.38536
2382.000	4.92245	-0.31119	3.27627	0.31580
2383.000	4.99113	-0.30719	3.33538	0.21251
2384.000	5.02056	-0.35870	3.23095	0.30588
2385.000	4.98132	-0.22197	3.27430	0.24827
2386.000	4.92245	-0.39641	3.36100	0.35748
2387.000	4.90871	-0.34092	3.34918	0.33365
2388.000	4.89105	-0.33499	3.32947	0.25223
2389.000	4.83413	-0.33502	3.26248	0.28998
2390.000	4.86750	-0.34491	3.15014	0.32180
2391.000	4.95385	-0.29135	3.33933	0.19463
2392.000	4.83609	-0.34096	3.27824	0.30984
2393.000	4.95777	-0.39441	3.24474	0.30191
2394.000	4.94011	-0.25172	3.21124	0.36349
2395.000	4.89694	-0.33498	3.28218	0.22841
2396.000	4.91460	-0.30326	3.33933	0.22442
2397.000	4.85180	-0.26959	3.22306	0.33171
2398.000	4.88516	-0.30328	3.18759	0.23439
2399.000	4.88909	-0.36274	3.25065	0.34560
2400.000	4.86554	-0.28544	3.21518	0.25425
2401.000	4.90283	-0.24182	3.20336	0.36747
2402.000	4.94993	-0.26559	3.33341	0.33564
2403.000	4.89105	-0.29733	3.34524	0.28202
2404.000	4.76542	-0.48968	3.23095	0.25424
2405.000	4.91853	-0.34885	3.21124	0.35157
2406.000	4.84198	-0.39844	3.29992	0.22840
2407.000	4.92049	-0.40236	3.25657	0.21451
2408.000	4.86554	-0.36275	3.26445	0.25622
2409.000	4.96955	-0.42611	3.35115	0.38528
2410.000	4.90283	-0.33894	3.18365	0.34165
2411.000	4.87142	-0.26760	3.30780	0.25025
2412.000	4.85180	-0.29536	3.39252	0.30186
2413.000	4.80076	-0.32710	3.35509	0.31379
2414.000	4.82628	-0.22203	3.20927	0.31979
2415.000	4.94993	-0.32901	3.29401	0.32374
2416.000	4.88320	-0.27751	3.25854	0.33170
2417.000	4.94404	-0.27946	3.39252	0.30782
2418.000	4.78113	-0.36478	3.27627	0.20458
2419.000	4.90479	-0.26362	3.27824	0.36744
2420.000	4.90479	-0.22596	3.24474	0.31382
2421.000	4.88124	-0.34094	3.31962	0.36544
2422.000	4.87339	-0.16651	3.26445	0.25423
2423.000	4.98524	-0.25963	3.32750	0.30784
2424.000	4.87142	-0.25571	3.35509	0.29989
2425.000	4.88713	-0.40238	3.23292	0.29595
2426.000	5.00683	-0.21404	3.18562	0.30391
2427.000	4.86750	-0.27950	3.31568	0.27805
2428.000	4.89105	-0.26958	3.31568	0.36345
2429.000	4.94796	-0.36865	3.24671	0.30985
2430.000	4.94993	-0.23982	3.27036	0.18074
2431.000	4.94208	-0.34487	3.22306	0.34561
2432.000	4.93226	-0.32307	3.30583	0.31976
2433.000	5.03233	-0.27348	3.35115	0.36940
2434.000	4.92441	-0.27749	3.26051	0.34163
2435.000	4.93226	-0.21010	3.37676	0.28797
2436.000	4.89694	-0.23390	3.24474	0.34362
2437.000	4.96955	-0.29729	3.25854	0.31183
2438.000	5.00290	-0.15062	3.31765	0.32373
2439.000	4.97347	-0.18828	3.29204	0.41510
2440.000	4.97740	-0.22990	3.23095	0.32972
2441.000	4.99702	-0.22593	3.35509	0.25222
2442.000	4.88516	-0.26561	3.18956	0.33966
2443.000	4.89498	-0.24579	3.34130	0.34358
2444.000	4.91264	-0.29930	3.24474	0.33766
2445.000	4.90871	-0.19623	3.30189	0.38133
2446.000	4.95385	-0.20216	3.25263	0.27807
2447.000	4.98328	-0.27350	3.32947	0.45877
2448.000	5.05979	-0.22195	3.26642	0.28800
2449.000	5.19120	-0.22190	3.34327	0.21449
2450.000	5.14806	-0.24767	3.36691	0.40315
2451.000	5.20688	-0.19812	3.46541	0.25219
2452.000	5.22257	-0.22387	3.39843	0.37335
2453.000	5.00879	-0.30718	3.25657	0.30190
2454.000	4.79291	-0.29142	3.10678	0.46285
2455.000	4.58671	-0.08527	2.93328	0.33577
2456.000	4.27817	-0.01587	2.72423	0.31993
2457.000	4.03431	0.01191	2.47367	0.34981
2458.000	3.47132	0.04369	1.96832	0.28631
2459.000	3.08312	-0.01192	1.66417	0.07358
2460.000	2.84652	-0.20267	1.35399	0.09547
2461.000	2.55852	-0.35972	0.86191	0.22478
2462.000	2.34144	-0.33593	0.45470	0.22281
2463.000	1.88933	-0.52292	0.12257	0.03581
2464.000	1.35992	-0.51511	-0.17200	0.11738
2465.000	0.79470	-0.66637	-0.62668	0.00995
2466.000	0.29457	-0.72610	-1.02200	0.05172
2467.000	-0.17200	-0.74599	-1.34016	0.04574
2468.000	-0.34795	-0.80764	-1.59305	-0.16108
2469.000	-0.71959	-0.64848	-2.33158	-0.26239
2470.000	-1.07141	-0.57085	-2.46578	-0.35180
2471.000	-1.65232	-0.79142	-2.98849	-0.21258
2472.000	-1.95647	-0.89465	-3.28021	-0.41510
2473.000	-2.25460	-0.74144	-3.67416	-0.35537
2474.000	-2.63546	-0.94787	-4.10119	-0.64885
2475.000	-2.93723	-0.91783	-4.39218	-0.65852
2476.000	-3.27824	-0.81825	-4.69670	-0.63247
2477.000	-3.73322	-0.82976	-5.05195	-0.77084
2478.000	-3.93791	-0.93870	-5.50477	-0.54060
2479.000	-4.11693	-0.92857	-5.60073	-0.70680
2480.000	-4.37450	-1.00164	-5.88453	-0.85682
2481.000	-4.57296	-1.01723	-6.02339	-0.80716
2482.000	-4.89694	-1.08016	-6.10158	-0.59145
2483.000	-5.02252	-0.94721	-6.33799	-0.75923
2484.000	-5.30882	-0.92896	-6.69707	-0.63620
2485.000	-5.49889	-0.91679	-6.88421	-0.55696
2486.000	-5.57724	-1.03742	-6.91149	-0.55495
2487.000	-5.86497	-0.94787	-7.15491	-0.71453
2488.000	-6.06053	-0.91786	-7.39224	-0.60369
2489.000	-6.12308	-0.93555	-7.70116	-0.59340
2490.000	-6.49808	-0.95661	-7.90298	-0.62070
2491.000	-6.65417	-1.10447	-8.06584	-0.57909
2492.000	-6.71657	-0.89891	-8.11623	-0.54357
2493.000	-7.01084	-1.01284	-8.28666	-0.50397
2494.000	-6.95046	-1.01495	-8.26343	-0.40556
2495.000	-7.05173	-0.99104	-8.15110	-0.41749
2496.000	-7.04978	-0.93973	-8.18403	-0.34066
2497.000	-7.03810	-0.96739	-8.05034	-0.46881
2498.000	-7.02836	-0.97135	-8.03871	-0.31124
2499.000	-7.05368	-0.85682	-7.86224	-0.39217
2500.000	-7.04589	-1.04830	-7.87388	-0.57542
2501.000	-7.11403	-1.08958	-7.92819	-0.72114
2502.000	-7.09262	-1.17252	-7.66815	-0.51261
2503.000	-7.09262	-1.11332	-7.85060	-0.47889
2504.000	-7.07704	-1.06204	-7.66621	-0.59936
2505.000	-7.07510	-1.09757	-7.86030	-0.50056
2506.000	-7.17243	-1.14469	-7.74969	-0.53420
2507.000	-7.15880	-1.13486	-7.77298	-0.58147
2508.000	-6.99915	-0.87666	-7.84284	-0.60502
2509.000	-7.10235	-1.05804	-7.78075	-0.59723
2510.000	-7.13155	-0.97508	-7.78851	-0.49867
2511.000	-7.06926	-1.01666	-7.84672	-0.45919
2512.000	-7.12766	-0.94746	-7.72446	-0.50466
2513.000	-6.98941	-1.05829	-7.67203	-0.47712
2514.000	-6.93877	-1.01103	-7.92237	-0.52018
2515.000	-6.88421	-0.95388	-7.82538	-0.56563
2516.000	-6.91928	-0.92222	-7.85060	-0.61289
2517.000	-6.95825	-0.94781	-7.80403	-0.51048
2518.000	-6.89785	-0.93214	-7.80015	-0.59917
2519.000	-6.84329	-0.81573	-7.91849	-0.62264
2520.000	-6.88616	-1.02693	-7.80986	-0.57157
2521.000	-6.84719	-0.86114	-7.88552	-0.63649
2522.000	-6.87837	-1.05065	-7.87388	-0.53601
2523.000	-6.85108	-0.74067	-7.88746	-0.66407
2524.000	-6.80431	-0.91059	-7.80403	-0.56172
2525.000	-6.84524	-0.79795	-7.90492	-0.59114
2526.000	-6.77507	-0.93040	-7.84672	-0.58531
2527.000	-6.71267	-0.77447	-7.75551	-0.53616
2528.000	-6.73607	-0.92652	-8.00188	-0.53387
2529.000	-6.71657	-0.75471	-7.76328	-0.45534
2530.000	-6.82575	-0.86908	-7.81568	-0.65827
2531.000	-6.71852	-0.80014	-7.70116	-0.49286
2532.000	-6.79261	-0.99159	-7.77881	-0.54599
2533.000	-6.69122	-0.84759	-7.85254	-0.49465
2534.000	-6.78871	-0.79410	-7.75940	-0.56769
2535.000	-6.78481	-0.85335	-7.81762	-0.62279
2536.000	-6.52150	-0.83998	-7.81180	-0.51638
2537.000	-6.66977	-0.74095	-7.80403	-0.63267
2538.000	-6.69122	-0.88710	-7.88746	-0.53993
2539.000	-6.57614	-0.88533	-7.89716	-0.56356
2540.000	-6.68147	-0.94243	-7.84090	-0.67202
2541.000	-6.72632	-0.79815	-7.78657	-0.66423
2542.000	-6.69902	-0.85746	-7.86030	-0.52814
2543.000	-6.57419	-0.82804	-7.84284	-0.66414
2544.000	-6.64637	-0.98003	-7.77881	-0.62088
2545.000	-6.58784	-0.78454	-7.87000	-0.59316
2546.000	-6.67367	-0.91479	-7.88358	-0.58920
2547.000	-6.68927	-0.79426	-7.75746	-0.64654
2548.000	-6.71657	-0.78236	-7.82926	-0.68190
2549.000	-6.67562	-0.98195	-7.92237	-0.62067
2550.000	-6.62491	-0.91488	-7.91074	-0.66600
2551.000	-6.72047	-1.02531	-7.93595	-0.82356
2552.000	-6.60540	-0.85762	-7.86418	-0.61484
2553.000	-6.56248	-1.09677	-7.93401	-0.60292
2554.000	-6.63466	-0.86547	-7.87000	-0.57740
2555.000	-6.55272	-0.80041	-7.79433	-0.55976
2556.000	-6.67562	-0.92861	-7.85642	-0.64244
2557.000	-6.54297	-0.92491	-7.88358	-0.79609
2558.000	-6.62686	-0.90697	-7.85254	-0.66609
2559.000	-6.60540	-0.98407	-7.84090	-0.63261
2560.000	-6.60735	-0.88923	-7.80015	-0.60311
2561.000	-6.76532	-0.97584	-7.80597	-0.62084
2562.000	-6.69707	-0.87129	-7.80986	-0.56565
2563.000	-6.65612	-0.82000	-7.81180	-0.63857
2564.000	-6.65807	-0.98199	-7.89910	-0.67587
2565.000	-6.54297	-0.78066	-7.89522	-0.63056
2566.000	-6.47856	-0.88946	-7.87000	-0.70744
2567.000	-6.66782	-0.97999	-7.82150	-0.56761
2568.000	-6.65612	-0.90297	-7.86418	-0.64440
2569.000	-6.58589	-0.94657	-7.86612	-0.62075
2570.000	-6.69512	-0.94043	-7.85254	-0.62077
2571.000	-6.55077	-0.94070	-7.85254	-0.57939
2572.000	-6.56833	-0.90511	-7.85060	-0.62472
2573.000	-6.47661	-0.90922	-7.94371	-0.65807
2574.000	-6.52150	-0.89531	-7.88358	-0.62664
2575.000	-6.49418	-0.94674	-7.82732	-0.74102
2576.000	-6.54687	-0.77077	-7.82344	-0.63461
2577.000	-6.43367	-0.95278	-7.78851	-0.56371
2578.000	-6.48637	-0.91711	-7.87194	-0.47493
2579.000	-6.55077	-0.89131	-7.81956	-0.67797
2580.000	-6.71462	-0.88903	-7.96892	-0.46693
2581.000	-6.48442	-0.80249	-7.78657	-0.65043
2582.000	-6.54297	-0.97629	-7.70504	-0.58157
2583.000	-6.50979	-0.93090	-7.73610	-0.52830
2584.000	-6.55077	-0.95058	-7.72446	-0.57168
2585.000	-6.60345	-0.88924	-7.88746	-0.51038
2586.000	-6.67562	-1.05899	-7.83120	-0.76466
2587.000	-6.53516	-0.93085	-7.78463	-0.54795
2588.000	-6.63856	-0.81410	-7.82538	-0.69964
2589.000	-6.61320	-0.91095	-7.78269	-0.56569
2590.000	-6.59174	-0.92680	-7.86806	-0.42172
2591.000	-6.67757	-0.95824	-7.80015	-0.70165
2592.000	-6.41415	-0.75714	-7.82926	-0.64445
2593.000	-6.60540	-0.95641	-7.89716	-0.64829
2594.000	-6.60540	-0.99987	-7.83702	-0.69765
2595.000	-6.60930	-1.03740	-7.83896	-0.74100
2596.000	-6.68342	-1.09255	-7.75746	-0.59923
2597.000	-6.50003	-0.94673	-7.76134	-0.63076
2598.000	-6.53711	-0.93875	-7.76328	-0.61893
2599.000	-6.61320	-1.01171	-7.82732	-0.55381
2600.000	-6.51955	-0.94472	-7.89910	-0.43351
2601.000	-6.52345	-0.90914	-7.76910	-0.58148
2602.000	-6.52736	-0.97236	-7.85642	-0.61091
2603.000	-6.52931	-0.92889	-7.84866	-0.57348
2604.000	-6.50979	-0.94078	-7.80015	-0.57552
2605.000	-6.47466	-0.93097	-7.81762	-0.59126
2606.000	-6.51369	-1.10676	-7.82732	-0.60504
2607.000	-6.47661	-1.03965	-7.75746	-0.54207
2608.000	-6.57028	-1.03748	-7.86418	-0.53602
2609.000	-6.61320	-0.82599	-7.83896	-0.65035
2610.000	-6.53516	-0.97037	-7.75940	-0.53024
2611.000	-6.57028	-0.84978	-7.95340	-0.58122
2612.000	-6.45124	-0.99227	-7.75940	-0.66821
2613.000	-6.52345	-1.01189	-7.79239	-0.58539
2614.000	-6.60930	-1.12432	-7.76522	-0.63667
2615.000	-6.55272	-0.96244	-7.74387	-0.72146
2616.000	-6.56833	-0.92486	-7.85448	-0.68580
2617.000	-6.51760	-1.04352	-7.83508	-0.57350
2618.000	-6.52540	-1.01386	-7.80791	-0.76273
2619.000	-6.70292	-1.12806	-7.79627	-0.70560
2620.000	-6.52931	-1.07708	-7.75551	-0.63866
2621.000	-6.56053	-0.86165	-7.68757	-0.59342
2622.000	-6.64246	-0.98004	-7.71669	-0.64069
2623.000	-6.65807	-1.04717	-7.76716	-0.60710
2624.000	-6.54297	-0.95850	-7.77298	-0.63469
2625.000	-6.49027	-0.97046	-8.02126	-0.68158
2626.000	-6.76142	-1.13977	-7.76134	-0.68792
2627.000	-6.39462	-1.00424	-7.73416	-0.63277
2628.000	-6.62686	-0.96229	-7.69728	-0.59735
2629.000	-6.50784	-1.09294	-7.70310	-0.60128
2630.000	-6.57223	-1.10860	-7.73999	-0.57757
2631.000	-6.56248	-0.94859	-7.85448	-0.63259
2632.000	-6.49418	-0.95069	-7.85060	-0.68580
2633.000	-6.63661	-0.98203	-7.78657	-0.66817
2634.000	-6.55858	-0.95650	-7.77492	-0.65045
2635.000	-6.53711	-0.90121	-7.77104	-0.58345
2636.000	-6.44538	-0.86778	-7.88358	-0.56949
2637.000	-6.54102	-1.00000	-7.81180	-0.75484
2638.000	-6.48052	-0.97641	-7.79239	-0.53414
2639.000	-6.50784	-0.97635	-7.86612	-0.62666
2640.000	-6.51955	-1.06920	-7.79239	-0.61101
2641.000	-6.40048	-0.94494	-7.71281	-0.63675
2642.000	-6.52931	-1.06720	-7.79821	-0.56567
2643.000	-6.53516	-0.99408	-7.73999	-0.65839
2644.000	-6.44538	-0.93893	-7.86418	-0.59711
2645.000	-6.60735	-1.09272	-7.70893	-0.66041
2646.000	-6.46100	-0.97249	-7.79433	-0.57750
2647.000	-6.58784	-0.96830	-7.64485	-0.70191
2648.000	-6.52736	-0.99212	-7.74775	-0.57756
2649.000	-6.45319	-1.02587	-7.74775	-0.53814
2650.000	-6.53711	-0.91899	-7.84478	-0.68778
2651.000	-6.48052	-1.01791	-7.79433	-0.61692
2652.000	-6.51565	-0.89730	-7.87000	-0.58922
2653.000	-6.34971	-0.97863	-7.91074	-0.63251
2654.000	-6.55077	-1.09087	-7.78075	-0.69577
2655.000	-6.56443	-1.04144	-7.80597	-0.46120
2656.000	-6.50394	-0.91906	-7.72834	-0.52043
2657.000	-6.50979	-0.97042	-7.88746	-0.57146
2658.000	-6.42586	-0.98047	-7.76910	-0.64258
2659.000	-6.56248	-0.98810	-7.78269	-0.47700
2660.000	-6.53321	-0.96445	-7.85060	-0.55378
2661.000	-6.36143	-0.91338	-7.92237	-0.48078
2662.000	-6.48832	-1.01987	-7.76328	-0.50856
2663.000	-6.40048	-0.88959	-7.73610	-0.64460
2664.000	-6.46685	-0.92110	-7.87776	-0.57541
2665.000	-6.48247	-0.99617	-7.74581	-0.62290
2666.000	-6.53906	-0.93480	-7.65456	-0.55798
2667.000	-6.51955	-1.04944	-7.78657	-0.48882
2668.000	-6.49808	-0.85978	-7.80403	-0.52822
2669.000	-6.54687	-0.90910	-7.69145	-0.52244
2670.000	-6.58394	-0.76084	-7.80209	-0.50851
2671.000	-6.49808	-0.86769	-7.83702	-0.55971
2672.000	-6.58004	-1.08883	-7.74969	-0.51252
2673.000	-6.54882	-1.05531	-7.71475	-0.57564
2674.000	-6.55663	-1.05529	-7.77298	-0.49869
2675.000	-6.45905	-0.86775	-7.79239	-0.61101
2676.000	-6.53516	-1.00989	-7.90492	-0.67783
2677.000	-6.46100	-0.86775	-7.80209	-0.55581
2678.000	-6.56053	-1.03553	-7.85254	-0.52421
2679.000	-6.59565	-0.91691	-7.79627	-0.56764
2680.000	-6.54297	-0.95653	-7.77104	-0.58345
2681.000	-6.58589	-0.99991	-7.79627	-0.47698
2682.000	-6.55858	-0.83004	-7.63708	-0.53828
2683.000	-6.52736	-0.96051	-7.79821	-0.54596
2684.000	-6.56053	-0.83399	-7.90298	-0.60296
2685.000	-6.43952	-0.91917	-7.86612	-0.66213
2686.000	-6.56443	-1.01774	-7.70310	-0.67422
2687.000	-6.60150	-0.87146	-7.65844	-0.60923
2688.000	-6.64832	-0.94447	-7.75551	-0.60318
2689.000	-6.54687	-1.02765	-7.80791	-0.57157
2690.000	-6.48637	-0.92502	-7.66233	-0.61908
2691.000	-6.48637	-0.94478	-7.78463	-0.45137
2692.000	-6.58004	-1.14217	-7.85642	-0.50647
2693.000	-6.68147	-0.88317	-7.89134	-0.64436
2694.000	-6.53321	-0.89331	-7.78657	-0.54795
2695.000	-6.51565	-0.85382	-7.74775	-0.69188
2696.000	-6.66197	-0.85752	-7.74387	-0.60319
2697.000	-6.49613	-0.84397	-7.78463	-0.66620
2698.000	-6.39657	-0.69193	-7.64096	-0.64474
2699.000	-6.59174	-0.98409	-7.69145	-0.75900
2700.000	-6.65807	-0.82592	-7.84866	-0.68975
2701.000	-6.52736	-0.94668	-7.71281	-0.67617
2702.000	-6.57419	-0.87941	-7.71087	-0.71166
2703.000	-6.64441	-1.04128	-7.83508	-0.60109
2704.000	-6.54687	-0.93676	-7.83508	-0.55774
2705.000	-6.47661	-0.98827	-7.90104	-0.56356
2706.000	-6.58394	-0.79048	-7.76134	-0.67412
2707.000	-6.60930	-0.82402	-7.79821	-0.58341
2708.000	-6.59565	-0.87542	-7.61960	-0.57971
2709.000	-6.52150	-0.82219	-7.75357	-0.54011
2710.000	-6.59760	-0.96432	-7.76910	-0.53220
2711.000	-6.57223	-0.86756	-7.67786	-0.61512
2712.000	-6.53516	-0.82415	-7.66621	-0.58950
2713.000	-6.62101	-0.92477	-7.74969	-0.64852
2714.000	-6.66197	-0.82196	-7.78269	-0.77066
2715.000	-6.57809	-0.77468	-7.69145	-0.68212
2716.000	-6.54492	-0.88144	-7.88358	-0.67984
2717.000	-6.59174	-0.98212	-7.81762	-0.69571
2718.000	-6.68732	-0.85353	-7.72834	-0.72740
2719.000	-6.42976	-0.87966	-7.75163	-0.61501
2720.000	-6.46685	-0.88157	-7.82538	-0.58731
2721.000	-6.45124	-0.85788	-7.67980	-0.65257
2722.000	-6.72047	-1.04902	-7.76328	-0.73325
2723.000	-6.55272	-0.98022	-7.76522	-0.73719
2724.000	-6.61125	-0.88922	-7.68369	-0.58357
2725.000	-6.57419	-0.98808	-7.72057	-0.53226
2726.000	-6.61906	-1.04133	-7.80015	-0.66618
2727.000	-6.56443	-0.97427	-7.75746	-0.54207
2728.000	-6.55467	-0.93279	-7.75940	-0.71355
2729.000	-6.57028	-0.99204	-7.81374	-0.58930
2730.000	-6.51565	-0.88149	-7.72640	-0.54211
2731.000	-6.57614	-1.00191	-7.73610	-0.66037
2732.000	-6.52736	-1.02176	-7.80209	-0.72727
2733.000	-6.52931	-0.85973	-7.83120	-0.61489
2734.000	-6.63271	-0.92870	-7.78657	-0.68197
2735.000	-6.66782	-0.94246	-7.73999	-0.59729
2736.000	-6.60540	-0.92084	-7.80209	-0.56172
2737.000	-6.55272	-0.97824	-7.76328	-0.74310
2738.000	-6.69707	-0.85153	-7.71087	-0.69983
2739.000	-6.68537	-1.15180	-7.70893	-0.62887
2740.000	-6.54882	-0.97627	-7.83508	-0.60306
2741.000	-6.45905	-1.04759	-7.67980	-0.63877
2742.000	-6.65417	-1.06496	-7.74775	-0.65246
2743.000	-6.56833	-1.02366	-7.83314	-0.43161
2744.000	-6.49027	-1.01591	-7.80403	-0.51639
2745.000	-6.55663	-1.04936	-7.84672	-0.59910
2746.000	-6.55663	-0.96440	-7.83120	-0.60307
2747.000	-6.68147	-0.92663	-7.78269	-0.64650
2748.000	-6.53516	-0.96642	-7.82538	-0.64052
2749.000	-6.59565	-1.07299	-7.70698	-0.60522
2750.000	-6.54492	-0.94072	-7.80015	-0.63465
2751.000	-6.65222	-0.99187	-7.74969	-0.52631
2752.000	-6.61906	-1.00379	-7.80015	-0.58538
2753.000	-6.70292	-0.99177	-7.84672	-0.60107
2754.000	-6.75557	-0.91266	-7.75357	-0.63669
2755.000	-6.66002	-1.02347	-7.72251	-0.64068
2756.000	-6.49223	-0.86572	-7.82150	-0.63855
2757.000	-6.65027	-0.91088	-7.88358	-0.57935
2758.000	-6.64832	-0.99978	-7.71863	-0.73333
2759.000	-6.68342	-1.01156	-7.86224	-0.57938
2760.000	-6.57809	-0.96041	-7.74969	-0.60516
2761.000	-6.58199	-0.96238	-7.79045	-0.65437
2762.000	-6.59955	-1.00383	-7.83508	-0.60109
2763.000	-6.60150	-1.07298	-7.78269	-0.58540
2764.000	-6.61711	-1.06504	-7.77298	-0.51446
2765.000	-6.65807	-0.96618	-7.95146	-0.49060
2766.000	-6.48832	-1.01591	-7.89134	-0.59904
2767.000	-6.68927	-0.85550	-7.70116	-0.52243
2768.000	-6.57223	-0.92091	-7.82150	-0.54790
2769.000	-6.66392	-0.95827	-7.80015	-0.45530
2770.000	-6.75557	-1.11609	-7.69728	-0.55595
2771.000	-6.65417	-1.04126	-7.91268	-0.55369
2772.000	-6.54102	-1.07508	-7.82926	-0.51636
2773.000	-6.64051	-1.03733	-7.74969	-0.55588
2774.000	-6.64051	-1.07487	-7.71281	-0.57958
2775.000	-6.62101	-1.03145	-7.81568	-0.54397
2776.000	-6.61906	-0.91292	-7.79627	-0.54991
2777.000	-6.55077	-1.00788	-7.76328	-0.48688
2778.000	-6.50003	-0.98823	-7.71863	-0.56578
2779.000	-6.67367	-0.90491	-7.82150	-0.52622
2780.000	-6.49418	-1.08111	-7.71863	-0.53818
2781.000	-6.56638	-1.03156	-7.79627	-0.57356
2782.000	-6.56053	-1.08097	-7.83508	-0.59124
2783.000	-6.52736	-0.99608	-7.82926	-0.52621
2784.000	-6.53711	-0.97630	-7.82732	-0.47695
2785.000	-6.54687	-0.88736	-7.83314	-0.54197
2786.000	-6.52540	-1.03560	-7.80597	-0.45726
2787.000	-6.53711	-1.00989	-7.78463	-0.46911
2788.000	-6.58004	-1.00585	-7.66815	-0.47516
2789.000	-6.69122	-1.18931	-7.81374	-0.48090
2790.000	-6.58589	-1.03942	-7.72640	-0.51057
2791.000	-6.58199	-1.06314	-7.84672	-0.50451
2792.000	-6.55467	-0.88340	-7.69922	-0.59537
2793.000	-6.61320	-1.08283	-7.78075	-0.54007
2794.000	-6.65222	-1.09855	-7.75940	-0.50265
2795.000	-6.68147	-0.94441	-7.71863	-0.52438
2796.000	-6.55858	-0.98218	-7.67398	-0.39826
2797.000	-6.53711	-1.08299	-7.68174	-0.69593
2798.000	-6.53516	-0.92097	-7.69533	-0.53427
2799.000	-6.66002	-1.08075	-7.79627	-0.54399
2800.000	-6.65222	-0.85556	-7.60018	-0.58171
2801.000	-6.65807	-1.06298	-7.69145	-0.47119
2802.000	-6.59565	-1.09274	-7.69339	-0.44161
2803.000	-6.66392	-1.16370	-7.76522	-0.49870
2804.000	-6.56638	-1.02761	-7.87776	-0.62665
2805.000	-6.68927	-0.99180	-7.65262	-0.47912
2806.000	-6.54687	-0.98418	-7.67980	-0.66637
2807.000	-6.72047	-1.12012	-7.72640	-0.53817
2808.000	-6.64832	-1.07090	-7.68951	-0.44950
2809.000	-6.54102	-0.97234	-7.66815	-0.51656
2810.000	-6.58004	-1.00783	-7.64485	-0.39829
2811.000	-6.58784	-0.97817	-7.66621	-0.45939
2812.000	-6.60150	-1.07298	-7.65456	-0.54615
2813.000	-6.59760	-0.92283	-7.70698	-0.47708
2814.000	-6.59565	-0.89123	-7.64873	-0.47715
2815.000	-6.69122	-1.00957	-7.65262	-0.59544
2816.000	-6.61125	-0.99393	-7.70698	-0.53228
2817.000	-6.56248	-0.83793	-7.78075	-0.56175
2818.000	-6.55663	-1.16395	-7.69339	-0.52441
2819.000	-6.54687	-0.94862	-7.78657	-0.61890
2820.000	-6.47271	-0.96654	-7.71475	-0.48496
2821.000	-6.68537	-1.05502	-7.75357	-0.50660
2822.000	-6.54687	-1.06914	-7.73610	-0.43566
2823.000	-6.63856	-1.16574	-7.71475	-0.54804
2824.000	-6.56248	-1.03750	-7.74775	-0.63275
2825.000	-6.60930	-0.94257	-7.57298	-0.52850
2826.000	-6.65417	-0.92075	-7.72834	-0.56379
2827.000	-6.70877	-1.18532	-7.72057	-0.57169
2828.000	-6.51174	-0.89928	-7.64096	-0.58560
2829.000	-6.62101	-1.03935	-7.68563	-0.57568
2830.000	-6.64246	-1.06499	-7.69145	-0.62101
2831.000	-6.68927	-1.06883	-7.70698	-0.54017
2832.000	-6.70877	-1.11224	-7.80015	-0.62085
2833.000	-6.57809	-0.99597	-7.68174	-0.45148
2834.000	-6.52931	-1.12450	-7.70504	-0.58945
2835.000	-6.65027	-1.00768	-7.77104	-0.60907
2836.000	-6.64051	-1.07882	-7.64485	-0.54024
2837.000	-6.58199	-0.99202	-7.66427	-0.63091
2838.000	-6.56443	-0.86164	-7.59629	-0.45552
2839.000	-6.58004	-1.03746	-7.75746	-0.56375
2840.000	-6.65612	-1.16767	-7.81374	-0.51047
2841.000	-6.66977	-1.14394	-7.74775	-0.36862
2842.000	-6.51565	-1.13046	-7.75551	-0.60909
2843.000	-6.57028	-1.09675	-7.58464	-0.55412
2844.000	-6.64832	-1.13806	-7.67398	-0.48895
2845.000	-6.55858	-1.13234	-7.66427	-0.48305
2846.000	-6.58784	-0.89519	-7.66233	-0.57374
2847.000	-6.60345	-1.11643	-7.67980	-0.43768
2848.000	-6.71072	-0.99373	-7.75940	-0.48885
2849.000	-6.51760	-0.96448	-7.77298	-0.54205
2850.000	-6.58004	-1.05327	-7.72251	-0.62096
2851.000	-6.56443	-1.15011	-7.85448	-0.43159
2852.000	-6.56248	-0.98810	-7.75746	-0.59726
2853.000	-6.60735	-1.10260	-7.68369	-0.41797
2854.000	-6.40634	-0.87970	-7.73610	-0.44748
2855.000	-6.67367	-1.08072	-7.78657	-0.40604
2856.000	-6.58004	-0.98609	-7.73610	-0.42383
2857.000	-6.55077	-0.96244	-7.63125	-0.56392
2858.000	-6.50394	-0.91708	-7.67980	-0.40811
2859.000	-6.64051	-0.98795	-7.65844	-0.40813
2860.000	-6.51174	-1.13442	-7.83702	-0.52423
2861.000	-6.57028	-1.03353	-7.72834	-0.43369
2862.000	-6.62101	-1.06108	-7.62154	-0.40817
2863.000	-6.67757	-1.04318	-7.77298	-0.29173
2864.000	-6.56053	-0.85572	-7.68174	-0.38445
2865.000	-6.52736	-0.96841	-7.57687	-0.47723
2866.000	-6.53516	-0.94666	-7.74387	-0.45930
2867.000	-6.52540	-0.92890	-7.75357	-0.59135
2868.000	-6.59370	-1.01965	-7.72057	-0.54606
2869.000	-6.58199	-0.96040	-7.71863	-0.55198
2870.000	-6.53321	-1.02175	-8.00963	-0.49840
2871.000	-6.51174	-0.98030	-7.78851	-0.46714
2872.000	-6.53516	-0.86565	-7.72057	-0.51649
2873.000	-6.63856	-0.83188	-7.75163	-0.45929
2874.000	-6.59565	-0.78058	-7.69922	-0.44949
2875.000	-6.66197	-1.00766	-7.80597	-0.40011
2876.000	-6.61125	-0.89910	-7.62737	-0.45154
2877.000	-6.64832	-1.03337	-7.36696	-0.35908
2878.000	-6.53516	-0.80241	-7.23275	-0.49142
2879.000	-6.39267	-0.76310	-6.99720	-0.27250
2880.000	-6.07226	-0.88620	-6.69122	-0.42283
2881.000	-6.06053	-0.98115	-6.49223	-0.46649
2882.000	-5.98428	-1.03271	-6.18562	-0.28679
2883.000	-5.66926	-1.21734	-5.86692	-0.52838
2884.000	-5.34998	-1.15265	-5.39701	-0.63971
2885.000	-5.27550	-1.30922	-5.14806	-0.52308
2886.000	-5.12648	-1.35310	-4.61224	-0.60083
2887.000	-4.77327	-1.53015	-4.35877	-0.78351
2888.000	-4.39612	-1.49330	-4.09923	-0.61512
2889.000	-4.20149	-1.51153	-3.83164	-0.60143
2890.000	-3.92020	-1.49222	-3.52844	-0.82995
2891.000	-3.66628	-1.53432	-3.36100	-0.55805
2892.000	-3.40040	-1.44545	-3.13437	-0.66345
2893.000	-3.37479	-1.37404	-3.11663	-0.50456
2894.000	-3.14817	-1.34457	-2.95497	-0.62581
2895.000	-2.88596	-1.22971	-2.72818	-0.71734
2896.000	-2.60390	-1.31542	-2.56246	-0.71942
2897.000	-2.62757	-1.37498	-2.63152	-0.59618
2898.000	-2.34934	-1.35342	-2.51905	-0.76117
2899.000	-2.11838	-1.46092	-2.36908	-0.70959
2900.000	-1.79256	-1.40357	-2.08087	-0.73159
2901.000	-1.75700	-1.44136	-1.98412	-0.74157
2902.000	-1.48637	-1.53099	-1.69775	-0.87689
2903.000	-1.37375	-1.45951	-1.61281	-0.79938
2904.000	-1.14256	-1.47952	-1.54564	-0.74175
2905.000	-0.97062	-1.61278	-1.27496	-0.82933
2906.000	-0.83819	-1.65060	-1.37573	-0.81737
2907.000	-0.82040	-1.63073	-1.34609	-0.63244
2908.000	-0.74924	-1.52342	-1.27496	-0.73985
2909.000	-0.52587	-1.57716	-1.11489	-0.61658
2910.000	-0.42702	-1.49568	-1.09117	-0.70012
2911.000	-0.25701	-1.46190	-1.01212	-0.63649
2912.000	-0.24712	-1.45196	-1.05758	-0.68024
2913.000	-0.29457	-1.51160	-0.96864	-0.58877
2914.000	-0.12455	-1.44800	-0.89353	-0.55497
2915.000	0.00989	-1.33666	-0.82238	-0.62857
2916.000	0.04547	-1.50367	-0.97852	-0.60070
2917.000	-0.07315	-1.46788	-0.83028	-0.74990
2918.000	0.12060	-1.39631	-1.00817	-0.70213
2919.000	0.12653	-1.43806	-0.95085	-0.65043
2920.000	0.09094	-1.31677	-0.94097	-0.66833
2921.000	0.01384	-1.38438	-1.10698	-0.66830
2922.000	0.01384	-1.39233	-1.04769	-0.68223
2923.000	0.03361	-1.37841	-1.12872	-0.73591
2924.000	0.10280	-1.33268	-1.11094	-0.56090
2925.000	-0.02768	-1.23525	-1.21172	-0.65236
2926.000	0.14037	-1.33069	-1.12477	-0.67227
2927.000	0.09490	-1.23525	-1.20382	-0.66827
2928.000	0.10280	-1.24320	-1.11884	-0.61857
2929.000	0.13641	-1.29291	-1.05758	-0.71803
2930.000	0.03163	-1.28695	-1.02398	-0.62058
2931.000	0.14827	-1.28893	-1.16034	-0.74783
2932.000	0.16014	-1.32274	-1.06153	-0.76774
2933.000	0.15421	-1.36648	-1.13268	-0.79358
2934.000	0.11269	-1.29291	-0.99829	-0.73395
2935.000	0.16607	-1.30285	-1.16232	-0.60862
2936.000	0.18188	-1.26905	-1.14256	-0.76971
2937.000	0.11269	-1.41818	-1.05362	-0.78565
2938.000	0.16211	-1.38238	-1.08327	-0.82143
2939.000	0.17991	-1.29688	-1.03979	-0.73593
2940.000	0.17595	-1.24916	-1.00619	-0.75185
2941.000	0.20363	-1.20939	-1.18801	-0.65038
2942.000	0.15025	-1.24718	-1.13663	-0.69414
2943.000	0.15618	-1.30086	-0.98643	-0.62655
2944.000	0.03559	-1.24121	-1.05560	-0.65637
2945.000	0.25305	-1.37840	-1.07141	-0.65438
2946.000	0.15223	-1.37046	-1.05165	-0.85923
2947.000	0.11467	-1.20741	-0.89353	-0.81750
2948.000	0.04349	-1.16963	-1.13860	-0.67028
2949.000	0.11862	-1.37245	-1.09315	-0.74188
2950.000	-0.00791	-1.34859	-1.05758	-0.80553
2951.000	0.10478	-1.30683	-1.05165	-0.79957
2952.000	0.05931	-1.42812	-1.17615	-0.60862
2953.000	0.03756	-1.39830	-1.04769	-0.73195
2954.000	0.13048	-1.32671	-1.06351	-0.74388
2955.000	0.00395	-1.43607	-1.16034	-0.79556
2956.000	0.04745	-1.35058	-1.22358	-0.76969
2957.000	0.03756	-1.41619	-1.06746	-0.78365
2958.000	0.13246	-1.37245	-1.08920	-0.69614
2959.000	0.09885	-1.29291	-1.11489	-0.73193
2960.000	0.05931	-1.36648	-0.99631	-0.79163
2961.000	0.10676	-1.46589	-1.15837	-0.72596
2962.000	0.02570	-1.28894	-1.17615	-0.79953
2963.000	0.14234	-1.33268	-1.12279	-0.76375
2964.000	0.08303	-1.39829	-1.10501	-0.75182
2965.000	0.06326	-1.46589	-1.11687	-0.78165
2966.000	0.03163	-1.52951	-1.09513	-0.76973
2967.000	0.03361	-1.40028	-1.12082	-0.76773
2968.000	-0.02570	-1.46788	-1.10303	-0.81745
2969.000	0.07908	-1.36847	-1.03781	-0.67627
2970.000	0.02175	-1.44403	-1.11687	-0.72796
2971.000	0.02570	-1.39631	-1.04374	-0.77570
2972.000	0.01582	-1.48180	-1.07932	-0.85325
2973.000	0.08897	-1.49174	-1.07339	-0.74189
2974.000	0.03756	-1.45595	-1.01212	-0.89503
2975.000	0.13641	-1.46788	-1.05955	-0.81547
2976.000	0.04745	-1.48975	-1.07141	-0.81945
2977.000	0.11071	-1.43408	-1.09513	-0.88706
2978.000	0.03559	-1.54343	-1.04374	-0.75383
2979.000	0.05338	-1.51957	-1.07932	-0.73592
2980.000	0.00593	-1.45993	-1.13465	-0.75778
2981.000	0.08501	-1.52554	-1.06943	-0.82343
2982.000	0.04547	-1.47782	-1.06746	-0.69814
2983.000	-0.01779	-1.47186	-1.00817	-0.72003
2984.000	-0.00198	-1.48180	-0.97852	-0.76578
2985.000	0.10676	-1.55535	-1.03386	-0.75980
2986.000	-0.04152	-1.46589	-1.07536	-0.79956
2987.000	-0.01186	-1.45794	-1.02003	-0.73395
2988.000	0.00593	-1.61698	-0.97457	-0.83737
2989.000	-0.00593	-1.46987	-1.02991	-0.74190
2990.000	0.05338	-1.48379	-1.13268	-0.72199
2991.000	0.05536	-1.55933	-1.07339	-0.72797
2992.000	0.03163	-1.46788	-1.12279	-0.73392
2993.000	-0.05931	-1.50764	-1.11489	-0.76574
2994.000	0.10280	-1.38438	-1.04769	-0.77769
2995.000	0.05338	-1.50566	-0.99433	-0.79163
2996.000	-0.10478	-1.52156	-1.09315	-0.68620
2997.000	-0.03756	-1.47981	-1.07734	-0.74388
2998.000	0.01384	-1.45198	-1.03188	-0.69218
2999.000	-0.14037	-1.56728	-0.95876	-0.78567
3000.000	0.04547	-1.54343	-1.08920	-0.80353
3001.000	0.04349	-1.46192	-1.12872	-0.66630
3002.000	0.04943	-1.47782	-1.07536	-0.74785
3003.000	-0.05931	-1.45794	-1.03781	-0.76576
3004.000	0.01977	-1.56132	-1.04177	-0.74190
3005.000	-0.00198	-1.47584	-1.06153	-0.84530
3006.000	-0.00989	-1.53150	-1.12477	-0.85921
3007.000	0.04547	-1.53150	-0.99236	-0.79560
3008.000	-0.06129	-1.49572	-1.00224	-0.76975
3009.000	-0.00395	-1.39034	-1.02991	-0.82940
3010.000	0.09292	-1.41420	-1.08722	-0.74387
3011.000	-0.01779	-1.39233	-1.15441	-0.70010
3012.000	0.01384	-1.47782	-1.09908	-0.63648
3013.000	0.00395	-1.47782	-1.01014	-0.67627
3014.000	-0.00791	-1.45198	-0.96469	-0.87516
3015.000	0.05536	-1.51162	-1.05165	-0.75383
3016.000	-0.08106	-1.53548	-1.02991	-0.67826
3017.000	0.15025	-1.43209	-1.08327	-0.80751
3018.000	0.10083	-1.37642	-1.08327	-0.65438
3019.000	-0.01186	-1.58716	-1.08722	-0.76973
3020.000	0.02372	-1.46391	-1.08327	-0.73393
3021.000	0.01186	-1.53548	-1.14058	-0.71602
3022.000	0.01977	-1.46788	-1.10501	-0.77967
3023.000	-0.05338	-1.48975	-1.01805	-0.81946
3024.000	-0.04152	-1.45993	-1.04967	-0.72996
3025.000	0.06326	-1.44601	-1.08920	-0.65040
3026.000	0.01582	-1.44800	-0.99236	-0.75185
3027.000	0.03163	-1.30882	-1.06548	-0.82542
3028.000	0.04349	-1.51560	-1.03781	-0.74190
3029.000	0.09687	-1.44999	-1.11884	-0.71403
3030.000	-0.02175	-1.47186	-1.04374	-0.78963
3031.000	0.02570	-1.49373	-1.07141	-0.75183
3032.000	-0.10874	-1.57325	-1.01014	-0.71804
3033.000	0.04349	-1.44204	-0.91923	-0.88710
3034.000	-0.01779	-1.46391	-1.06153	-0.74189
3035.000	0.03163	-1.49174	-1.04769	-0.85127
3036.000	-0.06722	-1.51957	-1.17813	-0.70209
3037.000	0.00593	-1.52355	-1.03188	-0.74588
3038.000	-0.10874	-1.49969	-0.97654	-0.78169
3039.000	-0.03756	-1.43806	-1.02200	-0.77969
3040.000	-0.09094	-1.47782	-0.99433	-0.86919
3041.000	-0.03756	-1.53150	-1.01212	-0.76975
3042.000	0.00791	-1.44204	-1.02793	-0.61461
3043.000	-0.02768	-1.45595	-1.01607	-0.78565
3044.000	-0.02175	-1.33268	-1.11094	-0.76177
3045.000	-0.10874	-1.49770	-1.02595	-0.84134
3046.000	-0.11467	-1.50963	-1.02398	-0.76378
3047.000	0.03559	-1.46788	-1.02398	-0.80952
3048.000	0.09094	-1.42812	-0.98445	-0.72202
3049.000	0.05733	-1.45397	-1.06548	-0.78166
3050.000	0.00791	-1.53349	-0.97062	-0.74788
3051.000	0.01582	-1.50367	-1.07339	-0.78962
3052.000	0.00198	-1.54741	-1.05560	-0.70013
3053.000	0.04943	-1.32473	-1.01607	-0.82344
3054.000	-0.02175	-1.50168	-1.00026	-0.75384
3055.000	0.02372	-1.47782	-1.07536	-0.68421
3056.000	0.00198	-1.44204	-1.05955	-0.79360
3057.000	0.05338	-1.41818	-1.09315	-0.72398
3058.000	-0.02966	-1.46192	-1.05560	-0.85724
3059.000	0.07315	-1.53945	-1.04374	-0.72002
3060.000	0.00198	-1.50367	-1.03584	-0.67428
3061.000	-0.05338	-1.49572	-0.94097	-0.69220
3062.000	-0.06524	-1.56132	-1.06153	-0.73990
3063.000	0.02768	-1.40426	-1.09908	-0.74387
3064.000	-0.05140	-1.50764	-1.03188	-0.71406
3065.000	-0.04349	-1.44999	-1.01014	-0.73395
3066.000	0.09094	-1.44005	-1.11291	-0.65835
3067.000	-0.01582	-1.47186	-0.92120	-0.60668
3068.000	-0.02768	-1.43011	-1.09710	-0.58477
3069.000	-0.10083	-1.52752	-1.03979	-0.73394
3070.000	-0.02768	-1.47584	-1.13070	-0.78364
3071.000	-0.06920	-1.49770	-1.05758	-0.67825
3072.000	-0.10874	-1.53150	-1.12082	-0.78961
3073.000	-0.15223	-1.64679	-1.10106	-0.64244
3074.000	0.09490	-1.54939	-1.06746	-0.70211
3075.000	-0.04152	-1.56530	-1.00619	-0.74787
3076.000	-0.04745	-1.52951	-1.02398	-0.78963
3077.000	-0.04745	-1.54144	-0.99236	-0.65838
3078.000	-0.05536	-1.44800	-1.06746	-0.76575
3079.000	-0.00593	-1.43607	-1.07141	-0.74388
3080.000	-0.10676	-1.53945	-1.09117	-0.55891
3081.000	-0.03756	-1.58319	-1.05560	-0.60267
3082.000	-0.07315	-1.51957	-1.16627	-0.68220
3083.000	0.02175	-1.44204	-1.09513	-0.68023
3084.000	-0.05931	-1.53349	-1.05758	-0.70609
3085.000	-0.17595	-1.54740	-1.03188	-0.68621
3086.000	-0.08303	-1.46987	-1.07536	-0.69416
3087.000	-0.17398	-1.58517	-1.02595	-0.69616
3088.000	-0.02966	-1.48776	-1.02793	-0.81548
3089.000	0.06524	-1.51162	-0.97259	-0.52910
3090.000	0.02966	-1.43408	-1.18801	-0.59668
3091.000	-0.13246	-1.50565	-1.10896	-0.73989
3092.000	-0.08897	-1.45595	-0.91923	-0.81153
3093.000	-0.15223	-1.42613	-1.16825	-0.56884
3094.000	0.02175	-1.40227	-1.16232	-0.64840
3095.000	-0.08501	-1.52156	-1.06943	-0.65040
3096.000	-0.03361	-1.44005	-1.12279	-0.65238
3097.000	-0.13641	-1.43408	-0.95283	-0.64048
3098.000	-0.06524	-1.51162	-1.10501	-0.56488
3099.000	-0.03559	-1.51957	-0.95283	-0.67429
3100.000	-0.03361	-1.42215	-1.05362	-0.69217
3101.000	-0.01582	-1.40426	-1.10106	-0.69415
3102.000	-0.08501	-1.40028	-1.14256	-0.72795
3103.000	-0.02570	-1.45794	-0.99631	-0.73196
3104.000	-0.14037	-1.46390	-1.03188	-0.66036
3105.000	-0.02175	-1.49770	-1.08920	-0.55891
3106.000	-0.06524	-1.44800	-1.03584	-0.67627
3107.000	-0.10478	-1.50367	-1.00421	-0.59473
3108.000	0.12257	-1.41619	-1.02595	-0.65638
3109.000	0.04349	-1.41420	-1.03979	-0.67627
3110.000	-0.18584	-1.56330	-1.08129	-0.72598
3111.000	0.00989	-1.39432	-1.00619	-0.66832
3112.000	-0.11467	-1.51162	-1.08524	-0.59272
3113.000	0.06326	-1.47186	-1.13070	-0.59868
3114.000	-0.00395	-1.48975	-1.16034	-0.58674
3115.000	-0.06326	-1.51162	-1.05165	-0.67626
3116.000	-0.14827	-1.45794	-1.10303	-0.55493
3117.000	-0.11664	-1.66469	-1.16034	-0.77567
3118.000	-0.02966	-1.38835	-1.08129	-0.64245
3119.000	-0.11269	-1.47782	-1.09315	-0.66631
3120.000	-0.07908	-1.43209	-1.04967	-0.73991
3121.000	0.04152	-1.36648	-1.02398	-0.82940
3122.000	0.02372	-1.37444	-1.06548	-0.69814
3123.000	-0.05536	-1.43210	-1.03188	-0.65439
3124.000	-0.05338	-1.54144	-1.07932	-0.63847
3125.000	-0.04745	-1.45993	-1.06548	-0.71007
3126.000	-0.05536	-1.48379	-1.09117	-0.63847
3127.000	-0.07710	-1.35853	-1.05955	-0.75581
3128.000	-0.05536	-1.53349	-0.98643	-0.75583
3129.000	-0.06129	-1.50168	-1.07141	-0.72996
3130.000	-0.09094	-1.46589	-0.99236	-0.61263
3131.000	-0.02966	-1.49969	-0.93306	-0.73198
3132.000	-0.15816	-1.57523	-0.95283	-0.75584
3133.000	-0.01186	-1.49770	-1.07339	-0.71007
3134.000	0.04745	-1.39233	-1.13070	-0.55095
3135.000	-0.02175	-1.46788	-1.02003	-0.60069
3136.000	-0.09094	-1.55138	-1.05560	-0.71803
3137.000	0.02570	-1.49969	-1.13070	-0.79557
3138.000	0.04745	-1.56728	-0.97654	-0.72799
3139.000	-0.01977	-1.30286	-0.98445	-0.78168
3140.000	-0.06129	-1.47981	-1.04374	-0.63450
3141.000	-0.01384	-1.50764	-0.92318	-0.75386
3142.000	-0.11664	-1.55734	-1.03188	-0.75184
3143.000	-0.06326	-1.47583	-1.01607	-0.82941
3144.000	-0.03954	-1.42613	-1.05560	-0.76576
3145.000	-0.03559	-1.58518	-1.11489	-0.82540
3146.000	-0.05338	-1.60108	-1.01212	-0.80157
3147.000	-0.05140	-1.64084	-0.99433	-0.71009
3148.000	-0.18979	-1.58517	-1.04177	-0.80554
3149.000	-0.03954	-1.56331	-1.09315	-0.76376
3150.000	-0.13839	-1.55734	-1.11884	-0.79159
3151.000	-0.05536	-1.51957	-1.01014	-0.77372
3152.000	-0.04349	-1.54542	-1.03584	-0.89105
3153.000	0.03361	-1.55735	-0.95876	-0.64645
3154.000	0.01779	-1.50168	-0.84412	-0.52713
3155.000	0.07908	-1.45993	-0.78482	-0.62858
3156.000	0.18781	-1.44402	-0.67808	-0.49731
3157.000	0.30050	-1.45196	-0.34399	-0.50927
3158.000	0.50412	-1.46186	0.02570	-0.39390
3159.000	0.59703	-1.54335	0.41516	-0.54110
3160.000	0.90934	-1.46173	0.55157	-0.40582
3161.000	1.22555	-1.49935	1.18010	-0.47536
3162.000	1.65429	-1.38579	1.54169	-0.39376
3163.000	1.79058	-1.53870	1.92685	-0.65413
3164.000	2.22301	-1.34559	2.34539	-0.46513
3165.000	2.74987	-1.36292	2.79721	-0.52060
3166.000	3.08312	-1.30097	3.20927	-0.60382
3167.000	3.25065	-1.32458	3.31174	-0.65539
3168.000	3.57767	-1.27452	3.81983	-0.64907
3169.000	3.60130	-1.25663	4.07169	-0.80165
3170.000	3.89265	-1.17288	4.24278	-0.63882
3171.000	4.20936	-1.10697	4.66527	-0.57501
3172.000	4.62599	-0.99534	5.04410	-0.62026
3173.000	4.93226	-0.87006	5.25002	-0.64779
3174.000	5.28334	-1.01614	5.59682	-0.48508
3175.000	5.79649	-1.03702	5.78866	-0.48887
3176.000	6.07617	-1.05034	6.26377	-0.45878
3177.000	6.54492	-0.94862	6.56638	-0.58499
3178.000	6.86862	-0.95984	6.52345	-0.39926
3179.000	7.05757	-1.06011	6.76142	-0.38919
3180.000	7.33001	-1.02989	7.02642	-0.45412
3181.000	7.48166	-1.02165	7.35141	-0.44591
3182.000	7.72251	-0.97772	7.47000	-0.37478
3183.000	7.81956	-0.97552	7.67398	-0.33123
3184.000	7.93983	-0.97327	7.83896	-0.30745
3185.000	8.14335	-0.92553	7.86418	-0.24043
3186.000	8.33505	-0.84439	8.04065	-0.03743
3187.000	8.39117	-0.81082	8.07553	0.00788
3188.000	8.55557	-0.66688	8.12204	0.01773
3189.000	8.57877	-0.66488	8.20534	-0.00394
3190.000	8.81252	-0.54062	8.18790	0.16147
3191.000	8.85113	-0.57791	8.25956	0.24216
3192.000	8.94568	-0.47165	8.35247	0.26179
3193.000	8.94761	-0.45789	8.39891	0.34835
3194.000	9.01898	-0.44994	8.51690	0.31873
3195.000	8.90516	-0.31447	8.32538	0.42518
3196.000	9.00933	-0.42048	8.39117	0.55893
3197.000	9.08839	-0.44199	8.39504	0.32080
3198.000	9.03055	-0.46171	8.36215	0.38578
3199.000	8.92832	-0.43826	8.31763	0.39173
3200.000	8.90516	-0.52280	8.22277	0.25400
3201.000	8.88008	-0.45208	8.21696	0.26385
3202.000	8.94568	-0.46968	8.23632	0.09254
3203.000	8.93218	-0.45398	8.07941	0.12606
3204.000	8.92639	-0.44809	8.12204	0.20679
3205.000	8.91867	-0.47758	8.10848	0.17135
3206.000	8.87815	-0.42456	8.06972	0.10834
3207.000	8.94375	-0.43038	8.11235	0.33679
3208.000	8.84340	-0.45016	7.95922	0.10245
3209.000	9.01898	-0.46566	8.00381	0.15366
3210.000	8.90902	-0.50903	8.09297	0.32301
3211.000	8.83761	-0.41871	8.07747	0.34469
3212.000	8.99198	-0.30654	8.15304	0.24616
3213.000	9.02862	-0.43421	8.06972	0.26000
3214.000	9.00355	-0.41852	8.04065	0.31518
3215.000	8.88394	-0.46583	8.10266	0.41163
3216.000	8.91481	-0.37342	8.14335	0.29934
3217.000	8.92060	-0.35573	8.16079	0.24025
3218.000	8.88008	-0.48156	8.16660	0.32492
3219.000	8.84727	-0.42263	8.07359	0.21667
3220.000	8.94375	-0.37929	8.16466	0.28160
3221.000	8.92639	-0.38127	8.09879	0.22650
3222.000	8.97269	-0.31638	8.16466	0.31311
3223.000	8.92253	-0.34393	8.10848	0.30922
3224.000	8.92446	-0.35179	8.08328	0.28757
3225.000	8.83375	-0.35188	8.19565	0.24220
3226.000	8.91095	-0.32822	8.05421	0.23244
3227.000	8.86657	-0.35185	8.12398	0.34071
3228.000	8.96497	-0.33210	7.97279	0.27189
3229.000	8.92832	-0.27514	8.09297	0.38604
3230.000	8.92446	-0.29873	8.09104	0.31317
3231.000	8.93025	-0.31052	7.99412	0.32506
3232.000	8.89937	-0.30268	8.11041	0.28755
3233.000	8.96690	-0.31245	8.03871	0.24426
3234.000	8.89359	-0.25552	8.09685	0.22650
3235.000	8.88587	-0.25945	8.04840	0.29941
3236.000	8.82989	-0.27522	8.06584	0.26395
3237.000	8.91481	-0.27712	8.00575	0.26201
3238.000	8.81445	-0.30668	8.05034	0.21865
3239.000	9.05176	-0.31238	8.05228	0.29547
3240.000	8.92446	-0.31838	8.23632	0.39968
3241.000	8.93989	-0.28103	8.04452	0.27578
3242.000	8.86850	-0.30271	7.97085	0.15762
3243.000	8.90516	-0.27909	7.97861	0.28961
3244.000	8.83761	-0.21231	7.94952	0.19506
3245.000	8.88201	-0.33414	8.03677	0.31715
3246.000	8.81831	-0.19266	8.11429	0.26982
3247.000	8.76038	-0.20645	8.06584	0.23637
3248.000	8.91867	-0.25746	8.03871	0.31715
3249.000	8.80673	-0.24378	7.97667	0.27385
3250.000	8.85499	-0.31058	8.05809	0.27380
3251.000	8.81638	-0.31651	7.97473	0.26794
3252.000	8.93796	-0.17294	8.02320	0.49248
3253.000	8.86657	-0.22998	7.93013	0.24827
3254.000	8.90323	-0.19655	7.97861	0.30734
3255.000	8.84920	-0.23786	8.06003	0.37031
3256.000	8.79321	-0.26935	7.99800	0.27581
3257.000	8.89552	-0.23193	8.08328	0.26590
3258.000	8.85306	-0.25358	8.02514	0.29943
3259.000	8.85499	-0.31058	8.01545	0.24034
3260.000	8.82603	-0.31454	8.07553	0.43333
3261.000	8.83375	-0.21428	7.89910	0.37440
3262.000	8.74300	-0.33820	7.99994	0.44129
3263.000	8.80673	-0.26934	8.19178	0.39579
3264.000	8.79707	-0.22806	8.08716	0.42544
3265.000	8.72755	-0.24580	8.06972	0.31909
3266.000	8.88780	-0.19655	7.97279	0.35660
3267.000	8.82603	-0.11599	8.04258	0.39791
3268.000	8.80866	-0.28113	8.19759	0.26386
3269.000	8.78549	-0.23593	7.93207	0.29950
3270.000	8.76811	-0.24970	7.99218	0.41175
3271.000	8.90130	-0.23586	8.05615	0.24228
3272.000	8.76618	-0.25560	8.05421	0.32502
3273.000	8.70824	-0.21041	8.00963	0.29550
3274.000	8.71596	-0.29300	7.91074	0.21084
3275.000	8.88587	-0.29483	8.11041	0.36436
3276.000	8.74493	-0.23202	8.03289	0.40777
3277.000	8.65994	-0.26354	7.94177	0.37042
3278.000	8.78549	-0.27525	8.04065	0.37821
3279.000	8.77197	-0.25363	7.94759	0.30146
3280.000	8.77583	-0.25560	8.15497	0.28752
3281.000	8.72176	-0.21041	7.95534	0.39799
3282.000	8.70437	-0.15732	8.01545	0.41369
3283.000	8.77969	-0.26739	7.99412	0.42159
3284.000	8.82217	-0.23197	7.92431	0.41379
3285.000	8.81831	-0.22018	7.90880	0.35666
3286.000	8.71789	-0.20648	8.03289	0.28761
3287.000	8.75845	-0.21629	7.96116	0.26992
3288.000	8.81831	-0.25164	7.91849	0.41970
3289.000	8.80286	-0.34994	7.95534	0.37632
3290.000	8.82989	-0.20248	7.97085	0.51421
3291.000	8.79321	-0.22413	7.87388	0.29757
3292.000	8.75073	-0.33426	7.97085	0.39010
3293.000	8.65028	-0.28518	7.99994	0.43144
3294.000	8.70051	-0.25368	7.99412	0.35855
3295.000	8.84534	-0.25751	7.93789	0.35269
3296.000	8.77004	-0.28706	7.92043	0.37044
3297.000	8.73914	-0.29495	8.00769	0.37036
3298.000	8.74880	-0.23792	8.05228	0.35456
3299.000	8.75266	-0.23595	8.00188	0.41765
3300.000	8.71403	-0.23991	8.02902	0.36049
3301.000	8.76232	-0.33229	7.86418	0.35867
3302.000	8.71596	-0.19665	7.96310	0.28371
3303.000	8.72176	-0.23597	7.96116	0.29554
3304.000	8.82410	-0.28505	8.02514	0.31322
3305.000	8.73721	-0.22023	8.04258	0.26790
3306.000	8.69858	-0.27335	7.89716	0.33499
3307.000	8.66187	-0.25764	7.93401	0.38619
3308.000	8.68312	-0.21830	7.93401	0.26994
3309.000	8.77583	-0.37946	7.89134	0.26603
3310.000	8.70824	-0.35003	7.89522	0.34879
3311.000	8.72948	-0.34018	7.89522	0.31726
3312.000	8.63868	-0.37960	7.93013	0.31526
3313.000	8.72176	-0.29300	8.11429	0.34072
3314.000	8.60969	-0.33439	8.03871	0.20290
3315.000	8.67733	-0.23797	7.96698	0.36843
3316.000	8.71596	-0.30677	8.02902	0.31913
3317.000	8.70244	-0.35004	7.97279	0.30538
3318.000	8.74687	-0.36179	7.83120	0.36067
3319.000	8.71403	-0.29890	8.00381	0.21671
3320.000	8.66380	-0.40514	8.03483	0.38807
3321.000	8.65801	-0.29698	7.90686	0.23646
3322.000	8.59230	-0.25769	7.83508	0.41190
3323.000	8.63868	-0.36387	7.89716	0.26208
3324.000	8.62516	-0.24193	8.07166	0.29152
3325.000	8.71403	-0.28120	7.97085	0.29553
3326.000	8.68312	-0.36972	7.93789	0.33496
3327.000	8.66960	-0.43070	7.84866	0.37248
3328.000	8.74300	-0.31264	7.94371	0.28767
3329.000	8.58843	-0.34228	7.96892	0.20884
3330.000	8.65801	-0.36188	7.93401	0.32511
3331.000	8.71789	-0.33233	7.94759	0.38421
3332.000	8.76811	-0.30869	7.96698	0.25416
3333.000	8.69085	-0.41888	7.89910	0.28967
3334.000	8.73141	-0.35394	7.87194	0.31925
3335.000	8.66380	-0.38154	7.91268	0.39803
3336.000	8.67153	-0.40120	7.98443	0.41963
3337.000	8.77004	-0.32835	7.94371	0.34678
3338.000	8.69471	-0.38348	7.92431	0.39802
3339.000	8.69858	-0.33234	7.90298	0.37637
3340.000	8.66767	-0.37367	7.92237	0.39605
3341.000	8.79321	-0.33226	7.96892	0.39010
3342.000	8.67926	-0.36383	7.84478	0.31336
3343.000	8.69858	-0.31661	7.93595	0.42362
3344.000	8.64061	-0.34420	7.99800	0.36446
3345.000	8.73141	-0.37951	7.93401	0.39013
3346.000	8.70630	-0.29694	7.75357	0.30554
3347.000	8.74300	-0.29298	8.11235	0.38208
3348.000	8.78742	-0.32833	7.93401	0.38225
3349.000	8.74107	-0.37360	7.91268	0.35468
3350.000	8.69278	-0.33038	7.93207	0.38422
3351.000	8.77004	-0.33621	7.81762	0.29367
3352.000	8.65221	-0.34222	7.93789	0.24432
3353.000	8.72562	-0.33822	7.84284	0.26803
3354.000	8.65801	-0.26354	8.06197	0.37031
3355.000	8.71789	-0.34412	7.86224	0.44735
3356.000	8.62129	-0.31668	7.87194	0.54586
3357.000	8.72562	-0.31856	7.76716	0.33510
3358.000	8.77969	-0.38142	7.94952	0.44528
3359.000	8.74107	-0.31068	7.95146	0.49454
3360.000	8.75266	-0.31263	7.87582	0.35866
3361.000	8.66573	-0.33827	7.99994	0.36446
3362.000	8.63095	-0.32650	7.80015	0.34098
3363.000	8.74493	-0.27725	7.85448	0.46312
3364.000	8.67733	-0.32843	7.89328	0.42170
3365.000	8.82796	-0.34402	7.81568	0.39813
3366.000	8.71596	-0.25564	8.00575	0.52993
3367.000	8.65994	-0.31074	7.87388	0.45522
3368.000	8.65607	-0.35795	7.86418	0.36064
3369.000	8.65414	-0.35402	7.91462	0.41577
3370.000	8.73721	-0.26349	7.83702	0.49073
3371.000	8.57877	-0.30294	7.87776	0.46507
3372.000	8.62129	-0.32454	7.89522	0.36652
3373.000	8.67926	-0.27533	7.81568	0.35477
3374.000	8.63868	-0.32256	7.84284	0.42372
3375.000	8.65028	-0.20258	7.96892	0.42556
3376.000	8.82024	-0.19659	7.94371	0.27979
3377.000	8.67926	-0.23796	7.97667	0.39009
3378.000	8.68505	-0.27336	7.90298	0.44533
3379.000	8.65607	-0.19078	7.87970	0.44733
3380.000	8.70437	-0.29104	7.91656	0.51428
3381.000	8.77969	-0.26346	7.83314	0.39417
3382.000	8.63868	-0.27339	7.82732	0.39023
3383.000	8.74493	-0.31067	7.99218	0.37235
3384.000	8.78163	-0.19268	7.84672	0.46707
3385.000	8.67153	-0.28124	7.82926	0.33702
3386.000	8.63289	-0.19079	7.82538	0.38038
3387.000	8.78163	-0.11403	7.87388	0.37245
3388.000	8.78935	-0.19267	7.78269	0.41196
3389.000	8.76811	-0.23987	7.77881	0.33115
3390.000	8.73721	-0.23596	7.94371	0.32707
3391.000	8.74493	-0.13371	7.98249	0.45904
3392.000	8.71403	-0.11799	7.93207	0.52805
3393.000	8.77776	-0.28116	7.97861	0.40191
3394.000	8.74687	-0.30477	7.92625	0.43152
3395.000	8.77969	-0.19465	7.86224	0.57544
3396.000	8.75073	-0.14157	7.88358	0.48871
3397.000	8.63675	-0.17702	7.94565	0.50439
3398.000	8.70244	-0.12782	7.85254	0.39021
3399.000	8.65221	-0.11997	7.87194	0.38034
3400.000	8.70437	-0.18485	7.88940	0.42170
3401.000	8.72369	-0.27726	8.03095	0.39201
3402.000	8.62516	-0.21440	7.94952	0.38421
3403.000	8.72562	-0.17304	7.87970	0.42959
3404.000	8.66573	-0.24387	7.96504	0.54574
3405.000	8.63868	-0.19275	7.95534	0.37041
3406.000	8.67733	-0.27730	7.98055	0.28173
3407.000	8.72369	-0.17698	7.90298	0.42366
3408.000	8.67926	-0.32646	7.90104	0.44139
3409.000	8.71210	-0.17698	7.88746	0.53402
3410.000	8.61936	-0.09245	7.94177	0.37436
3411.000	8.58843	-0.30293	7.81374	0.39419
3412.000	8.69858	-0.29105	7.95728	0.34874
3413.000	8.65994	-0.25961	7.78075	0.38436
3414.000	8.77583	-0.22611	7.86224	0.45720
3415.000	8.70051	-0.26155	8.00575	0.32505
3416.000	8.57877	-0.23409	7.98637	0.43342
3417.000	8.78742	-0.25559	7.83314	0.36658
3418.000	8.69278	-0.19469	7.82538	0.30943
3419.000	8.62902	-0.28913	7.93401	0.49456
3420.000	8.65994	-0.25568	7.87776	0.41974
3421.000	8.60583	-0.33439	7.99994	0.43538
3422.000	8.76232	-0.23201	7.97473	0.40585
3423.000	8.52077	-0.34234	7.91656	0.39212
3424.000	8.66380	-0.29304	7.93013	0.36452
3425.000	8.63482	-0.42681	7.95534	0.36844
3426.000	8.58263	-0.19278	7.93595	0.35861
3427.000	8.61936	-0.24784	7.88358	0.28377
3428.000	8.70630	-0.29497	8.02126	0.31125
3429.000	8.66767	-0.35204	7.85836	0.40006
3430.000	8.63675	-0.22619	7.88552	0.43944
3431.000	8.68312	-0.33629	7.89328	0.38426
3432.000	8.65414	-0.31272	7.98249	0.45313
3433.000	8.65028	-0.30485	7.84866	0.45130
3434.000	8.64448	-0.27339	7.88164	0.45521
3435.000	8.63868	-0.35010	7.82344	0.49863
3436.000	8.58457	-0.32458	7.87970	0.41383
3437.000	8.56137	-0.30492	7.86612	0.42173
3438.000	8.60003	-0.24391	7.83896	0.37051
3439.000	8.64255	-0.26749	7.88940	0.37638
3440.000	8.66573	-0.26747	7.84478	0.43160
3441.000	8.64641	-0.23995	7.92043	0.38029
3442.000	8.60969	-0.24981	7.86030	0.43356
3443.000	8.66767	-0.31860	7.71087	0.43174
3444.000	8.67153	-0.35597	7.78463	0.45334
3445.000	8.57297	-0.28328	7.74193	0.46719
3446.000	8.61163	-0.28718	7.92431	0.41379
3447.000	8.67153	-0.30090	7.85836	0.39414
3448.000	8.63482	-0.28913	7.89328	0.53598
3449.000	8.67153	-0.22224	8.03677	0.50822
3450.000	8.61356	-0.28521	7.87388	0.49266
3451.000	8.67733	-0.20847	7.84478	0.38825
3452.000	8.68699	-0.22419	8.02320	0.37035
3453.000	8.55944	-0.29902	7.79045	0.47502
3454.000	8.61936	-0.31274	7.79239	0.55779
3455.000	8.56910	-0.20656	7.92043	0.48275
3456.000	8.62129	-0.31274	7.86030	0.59711
3457.000	8.62129	-0.26357	7.84090	0.40599
3458.000	8.55170	-0.31674	7.72251	0.38442
3459.000	8.59037	-0.28326	7.89910	0.39411
3460.000	8.54784	-0.27346	7.76522	0.48884
3461.000	8.62322	-0.22816	7.76716	0.37649
3462.000	8.65414	-0.10621	7.90104	0.45519
3463.000	8.65607	-0.17308	7.91849	0.50049
3464.000	8.63675	-0.24192	7.89716	0.49657
3465.000	8.63868	-0.21832	7.88552	0.27983
3466.000	8.73141	-0.17697	7.74193	0.43171
3467.000	8.58070	-0.22229	7.79045	0.38632
3468.000	8.66960	-0.22617	7.89328	0.41382
3469.000	8.55364	-0.15148	7.66815	0.43375
3470.000	8.56910	-0.16918	7.86418	0.38034
3471.000	8.56137	-0.15541	7.89522	0.46899
3472.000	8.57684	-0.13574	7.81180	0.43755
3473.000	8.61163	-0.10032	7.90104	0.52612
3474.000	8.50530	-0.19282	7.83508	0.31928
3475.000	8.57297	-0.18688	7.87970	0.41186
3476.000	8.69278	-0.15536	7.84284	0.39219
3477.000	8.61163	-0.25768	7.75551	0.37256
3478.000	8.69471	-0.11996	7.75551	0.41198
3479.000	8.55750	-0.11410	7.92625	0.37438
3480.000	8.56137	-0.17705	7.75746	0.39424
3481.000	8.67733	-0.16913	7.82926	0.41585
3482.000	8.64834	-0.04720	7.77298	0.42182
3483.000	8.60969	-0.05901	7.85836	0.48479
3484.000	8.66767	-0.13767	7.82344	0.46513
3485.000	8.72948	-0.27529	7.82344	0.56958
3486.000	8.57684	-0.04131	7.83120	0.31534
3487.000	8.69665	-0.07080	7.73222	0.52239
3488.000	8.68312	-0.09440	7.80597	0.47697
3489.000	8.65221	-0.07867	7.87582	0.53010
3490.000	8.65221	-0.05900	7.80597	0.44938
3491.000	8.63289	-0.15342	7.85254	0.49268
3492.000	8.58650	-0.16524	7.84284	0.56364
3493.000	8.62129	-0.10425	7.76716	0.66426
3494.000	8.59037	-0.24392	7.89910	0.51627
3495.000	8.71983	-0.12782	7.84284	0.55773
3496.000	8.66573	-0.02950	7.88552	0.55176
3497.000	8.63675	-0.07868	7.83508	0.71736
3498.000	8.65801	-0.08654	7.83120	0.58533
3499.000	8.61936	0.01967	7.98055	0.68953
3500.000	8.75459	-0.13567	7.97473	0.66196
3501.000	8.76618	-0.00983	7.87000	0.68971
3502.000	8.74300	-0.01573	7.89328	0.54781
3503.000	8.70824	-0.15929	7.93789	0.54578
3504.000	8.62709	-0.07868	7.87000	0.60695
3505.000	8.76232	0.01180	7.82732	0.66613
3506.000	8.75266	-0.01376	7.84284	0.47299
3507.000	8.76618	-0.03736	7.93983	0.50243
3508.000	8.77197	-0.02556	7.93789	0.63837
3509.000	8.78549	-0.14156	7.89328	0.56160
3510.000	8.75266	-0.07079	7.78657	0.60510
3511.000	8.77969	-0.08454	7.90298	0.53006
3512.000	8.81445	-0.11206	7.87582	0.40792
3513.000	8.76425	-0.14550	7.88746	0.33303
3514.000	8.67926	-0.06293	7.87970	0.11430
3515.000	8.66960	-0.10227	7.64679	0.50475
3516.000	8.73141	0.06686	7.59435	1.20865
3517.000	8.75073	0.11798	7.12377	2.29463
3518.000	8.63675	0.15735	6.73607	3.54581
3519.000	8.50723	0.21053	6.40829	4.79488
3520.000	8.52270	0.29512	5.96277	6.30030
3521.000	8.29247	0.26380	5.53415	7.61413
3522.000	8.25375	0.19491	4.86554	9.10059
3523.000	8.21889	0.16933	4.28604	10.47366
3524.000	8.18597	0.27962	3.56586	11.94584
3525.000	8.04452	0.28169	NaN	NaN
3526.000	8.04452	0.36836	NaN	NaN
3527.000	8.12785	0.80545	NaN	NaN
3528.000	8.29441	1.56074	NaN	NaN
3529.000	8.46856	2.35603	NaN	NaN
3530.000	8.71789	3.26275	NaN	NaN
3531.000	8.96304	4.21938	NaN	NaN
3532.000	9.00162	5.09341	NaN	NaN
3533.000	9.02090	5.99629	NaN	NaN
3534.000	NaN	NaN	NaN	NaN
3535.000	NaN	NaN	NaN	NaN
3536.000	NaN	NaN	NaN	NaN
3537.000	NaN	NaN	NaN	NaN
3538.000	NaN	NaN	NaN	NaN
3539.000	NaN	NaN	NaN	NaN
3540.000	NaN	NaN	NaN	NaN
3541.000	NaN	NaN	NaN	NaN
3542.000	NaN	NaN	NaN	NaN
3543.000	NaN	NaN	NaN	NaN
3544.000	NaN	NaN	NaN	NaN
3545.000	NaN	NaN	NaN	NaN
3546.000	NaN	NaN	NaN	NaN
3547.000	NaN	NaN	NaN	NaN
3548.000	NaN	NaN	NaN	NaN
3549.000	NaN	NaN	NaN	NaN
3550.000	NaN	NaN	NaN	NaN
3551.000	NaN	NaN	NaN	NaN
3552.000	NaN	NaN	NaN	NaN
3553.000	NaN	NaN	NaN	NaN
3554.000	NaN	NaN	NaN	NaN
3555.000	NaN	NaN	NaN	NaN
3556.000	NaN	NaN	NaN	NaN
3557.000	NaN	NaN	NaN	NaN
3558.000	NaN	NaN	NaN	NaN
3559.000	NaN	NaN	NaN	NaN
3560.000	NaN	NaN	NaN	NaN
3561.000	NaN	NaN	NaN	NaN
3562.000	NaN	NaN	NaN	NaN
3563.000	NaN	NaN	NaN	NaN
3564.000	NaN	NaN	NaN	NaN
3565.000	NaN	NaN	NaN	NaN
3566.000	NaN	NaN	NaN	NaN
3567.000	NaN	NaN	NaN	NaN
3568.000	NaN	NaN	NaN	NaN
3569.000	NaN	NaN	NaN	NaN
3570.000	NaN	NaN	NaN	NaN
3571.000	NaN	NaN	NaN	NaN
3572.000	NaN	NaN	NaN	NaN
3573.000	NaN	NaN	NaN	NaN
3574.000	NaN	NaN	NaN	NaN
3575.000	NaN	NaN	NaN	NaN
3576.000	NaN	NaN	NaN	NaN
3577.000	NaN	NaN	NaN	NaN
3578.000	NaN	NaN	NaN	NaN
3579.000	NaN	NaN	NaN	NaN
3580.000	NaN	NaN	NaN	NaN
3581.000	NaN	NaN	NaN	NaN
3582.000	NaN	NaN	NaN	NaN
3583.000	NaN	NaN	NaN	NaN
3584.000	NaN	NaN	NaN	NaN
3585.000	NaN	NaN	NaN	NaN
3586.000	NaN	NaN	NaN	NaN
3587.000	NaN	NaN	NaN	NaN
3588.000	NaN	NaN	NaN	NaN
3589.000	NaN	NaN	NaN	NaN
3590.000	NaN	NaN	NaN	NaN
3591.000	NaN	NaN	NaN	NaN
3592.000	NaN	NaN	NaN	NaN
3593.000	NaN	NaN	NaN	NaN
3594.000	NaN	NaN	NaN	NaN
3595.000	NaN	NaN	NaN	NaN
3596.000	NaN	NaN	NaN	NaN
3597.000	NaN	NaN	NaN	NaN
3598.000	NaN	NaN	NaN	NaN
3599.000	NaN	NaN	NaN	NaN
3600.000	NaN	NaN	NaN	NaN
3601.000	NaN	NaN	NaN	NaN
3602.000	NaN	NaN	NaN	NaN
3603.000	NaN	NaN	NaN	NaN
3604.000	NaN	NaN	NaN	NaN
3605.000	NaN	NaN	NaN	NaN
3606.000	NaN	NaN	NaN	NaN
3607.000	NaN	NaN	NaN	NaN
3608.000	NaN	NaN	NaN	NaN
3609.000	NaN	NaN	NaN	NaN
3610.000	NaN	NaN	NaN	NaN
3611.000	NaN	NaN	NaN	NaN
3612.000	NaN	NaN	NaN	NaN
3613.000	NaN	NaN	NaN	NaN
3614.000	NaN	NaN	NaN	NaN
3615.000	NaN	NaN	NaN	NaN
3616.000	NaN	NaN	NaN	NaN
3617.000	NaN	NaN	NaN	NaN
3618.000	NaN	NaN	NaN	NaN
3619.000	NaN	NaN	NaN	NaN
3620.000	NaN	NaN	NaN	NaN
3621.000	NaN	NaN	NaN	NaN
3622.000	NaN	NaN	NaN	NaN
3623.000	NaN	NaN	NaN	NaN
3624.000	NaN	NaN	NaN	NaN
3625.000	NaN	NaN	NaN	NaN
3626.000	NaN	NaN	NaN	NaN
3627.000	NaN	NaN	NaN	NaN
3628.000	NaN	NaN	NaN	NaN
3629.000	NaN	NaN	NaN	NaN
3630.000	NaN	NaN	NaN	NaN
3631.000	NaN	NaN	NaN	NaN
3632.000	NaN	NaN	NaN	NaN
3633.000	NaN	NaN	NaN	NaN
3634.000	NaN	NaN	NaN	NaN
3635.000	NaN	NaN	NaN	NaN
3636.000	NaN	NaN	NaN	NaN
3637.000	NaN	NaN	NaN	NaN
3638.000	NaN	NaN	NaN	NaN
3639.000	NaN	NaN	NaN	NaN
3640.000	NaN	NaN	NaN	NaN
3641.000	NaN	NaN	NaN	NaN
3642.000	NaN	NaN	NaN	NaN
3643.000	NaN	NaN	NaN	NaN
3644.000	NaN	NaN	NaN	NaN
3645.000	NaN	NaN	NaN	NaN
3646.000	NaN	NaN	NaN	NaN
3647.000	NaN	NaN	NaN	NaN
3648.000	NaN	NaN	NaN	NaN
3649.000	NaN	NaN	NaN	NaN
3650.000	NaN	NaN	NaN	NaN
3651.000	NaN	NaN	NaN	NaN
3652.000	NaN	NaN	NaN	NaN
3653.000	NaN	NaN	NaN	NaN
3654.000	NaN	NaN	NaN	NaN
3655.000	NaN	NaN	NaN	NaN
3656.000	NaN	NaN	NaN	NaN
3657.000	NaN	NaN	NaN	NaN
3658.000	NaN	NaN	NaN	NaN
3659.000	NaN	NaN	NaN	NaN
3660.000	NaN	NaN	NaN	NaN
3661.000	NaN	NaN	NaN	NaN
3662.000	NaN	NaN	NaN	NaN
3663.000	NaN	NaN	NaN	NaN
3664.000	NaN	NaN	NaN	NaN
3665.000	NaN	NaN	NaN	NaN
3666.000	NaN	NaN	NaN	NaN
3667.000	NaN	NaN	NaN	NaN
3668.000	NaN	NaN	NaN	NaN
3669.000	NaN	NaN	NaN	NaN
3670.000	NaN	NaN	NaN	NaN
3671.000	NaN	NaN	NaN	NaN
3672.000	NaN	NaN	NaN	NaN
3673.000	NaN	NaN	NaN	NaN
3674.000	NaN	NaN	NaN	NaN
3675.000	NaN	NaN	NaN	NaN
3676.000	NaN	NaN	NaN	NaN
3677.000	NaN	NaN	NaN	NaN
3678.000	NaN	NaN	NaN	NaN
3679.000	NaN	NaN	NaN	NaN
3680.000	NaN	NaN	NaN	NaN
3681.000	NaN	NaN	NaN	NaN
3682.000	NaN	NaN	NaN	NaN
3683.000	NaN	NaN	NaN	NaN
3684.000	NaN	NaN	NaN	NaN
3685.000	NaN	NaN	NaN	NaN
3686.000	NaN	NaN	NaN	NaN
3687.000	NaN	NaN	NaN	NaN
3688.000	NaN	NaN	NaN	NaN
3689.000	NaN	NaN	NaN	NaN
3690.000	NaN	NaN	NaN	NaN
3691.000	NaN	NaN	NaN	NaN
3692.000	NaN	NaN	NaN	NaN
3693.000	NaN	NaN	NaN	NaN
3694.000	NaN	NaN	NaN	NaN
3695.000	NaN	NaN	NaN	NaN
3696.000	NaN	NaN	NaN	NaN
3697.000	NaN	NaN	NaN	NaN
3698.000	NaN	NaN	NaN	NaN
3699.000	NaN	NaN	NaN	NaN
3700.000	NaN	NaN	NaN	NaN
3701.000	NaN	NaN	NaN	NaN
3702.000	NaN	NaN	NaN	NaN
3703.000	NaN	NaN	NaN	NaN
3704.000	NaN	NaN	NaN	NaN
3705.000	NaN	NaN	NaN	NaN
3706.000	NaN	NaN	NaN	NaN
3707.000	NaN	NaN	NaN	NaN
3708.000	NaN	NaN	NaN	NaN
3709.000	NaN	NaN	NaN	NaN
3710.000	NaN	NaN	NaN	NaN
3711.000	NaN	NaN	NaN	NaN
3712.000	NaN	NaN	NaN	NaN
3713.000	NaN	NaN	NaN	NaN
3714.000	NaN	NaN	NaN	NaN
3715.000	NaN	NaN	NaN	NaN
3716.000	NaN	NaN	NaN	NaN
3717.000	NaN	NaN	NaN	NaN
3718.000	NaN	NaN	NaN	NaN
3719.000	NaN	NaN	NaN	NaN
3720.000	NaN	NaN	NaN	NaN
3721.000	NaN	NaN	NaN	NaN
3722.000	NaN	NaN	NaN	NaN
3723.000	NaN	NaN	NaN	NaN
3724.000	-2.81496	14.29833	NaN	NaN
3725.000	-4.81646	13.33537	NaN	NaN
3726.000	-6.80820	11.94499	NaN	NaN
3727.000	-6.74582	11.28684	NaN	NaN
3728.000	-6.48247	10.86437	NaN	NaN
3729.000	-6.39072	10.18403	NaN	NaN
3730.000	-6.30089	9.58124	NaN	NaN
3731.000	-6.17194	8.92075	NaN	NaN
3732.000	-6.16999	8.19356	NaN	NaN
3733.000	-5.97255	7.46054	NaN	NaN
3734.000	-3.40434	6.27416	NaN	NaN
3735.000	-3.42798	5.54506	NaN	NaN
3736.000	-3.42404	4.92475	NaN	NaN
3737.000	-3.58949	4.43870	NaN	NaN
3738.000	-3.70566	3.91087	-7.15296	10.44917
3739.000	-3.83754	3.36661	-6.62686	9.13267
3740.000	-3.83164	2.81641	-5.91387	7.33094
3741.000	-3.89462	2.43196	-6.04685	6.67043
3742.000	-4.10119	1.97166	-6.42586	6.07988
3743.000	-4.06775	1.58515	-6.06640	5.39660
3744.000	-4.15036	1.19433	-6.08986	4.80957
3745.000	-4.22116	0.72612	-5.63206	4.29609
3746.000	-4.34501	0.28764	-5.58311	3.60675
3747.000	-4.29390	0.08729	-5.83171	2.93842
3748.000	-4.28800	-0.32138	-5.70646	2.39192
3749.000	-4.35287	-0.58120	-6.72437	1.87827
3750.000	-4.38629	-0.95006	-6.21688	1.17066
3751.000	-4.22312	-1.38459	-6.42976	0.87176
3752.000	-4.16020	-1.44419	-6.38486	0.36180
3753.000	-4.37843	-1.74109	-6.28721	-0.15820
3754.000	-4.42363	-2.31350	-6.13872	-0.56372
3755.000	-4.53170	-2.53290	-6.37314	-0.91534
3756.000	-4.54153	-2.87717	-6.26182	-1.49668
3757.000	-4.72419	-3.05439	-6.22665	-1.86036
3758.000	-4.71241	-3.45761	-6.17390	-2.16279
3759.000	-4.89105	-3.66798	-6.00774	-2.56047
3760.000	-4.89105	-3.81404	-5.97255	-2.85676
3761.000	-4.95385	-3.88471	-5.98037	-3.17242
3762.000	-5.01664	-3.92971	-5.85323	-3.37436
3763.000	-5.02841	-3.91978	-5.90018	-3.65796
3764.000	-5.00094	-3.96531	-5.85714	-3.93410
3765.000	-5.16178	-4.02742	-5.75147	-4.14558
3766.000	-5.08726	-3.86814	-5.72212	-4.38989
3767.000	-5.10295	-3.91933	-5.76713	-4.47612
3768.000	-4.97347	-3.74253	-5.87084	-4.47136
3769.000	-5.00683	-3.75615	-5.79649	-4.78854
3770.000	-4.88909	-3.87720	-5.85127	-4.87453
3771.000	-4.97543	-3.87669	-5.83562	-4.98075
3772.000	-4.90675	-3.74685	-5.73973	-5.07588
3773.000	-4.92245	-3.88884	-5.78474	-4.99692
3774.000	-5.02252	-3.96715	-5.86301	-5.05907
3775.000	-4.89694	-3.83177	-5.78474	-5.00281
3776.000	-5.00290	-3.94163	-5.85323	-5.13376
3777.000	-4.95974	-3.80576	-5.75735	-5.09536
3778.000	-4.95385	-3.87090	-5.86497	-4.90978
3779.000	-4.81254	-3.75922	-5.76909	-4.84773
3780.000	-4.95385	-3.78606	-5.92170	-4.84052
3781.000	-5.06176	-3.89196	-5.93734	-4.81091
3782.000	-4.94011	-3.88282	-6.05467	-4.39121
3783.000	-5.03822	-3.82503	-5.88453	-4.47715
3784.000	-4.96366	-3.90241	-6.01165	-4.27943
3785.000	-4.95974	-3.81957	-5.91192	-4.28217
3786.000	-5.09706	-3.92923	-6.07813	-4.27497
3787.000	-5.02448	-3.75408	-5.99797	-4.23821
3788.000	-5.06372	-3.75583	-5.97059	-4.27581
3789.000	-5.07745	-3.73601	-5.96081	-4.17946
3790.000	-5.09314	-3.83852	-6.04489	-4.08828
3791.000	-5.08529	-3.78530	-5.97646	-4.07108
3792.000	-5.16767	-3.88343	-5.88257	-4.10918
3793.000	-5.02056	-3.77383	-5.96863	-4.02979
3794.000	-5.07549	-3.90766	-5.98037	-4.12814
3795.000	-5.00486	-3.86863	-5.96277	-4.12630
3796.000	-5.13825	-3.81063	-5.96863	-4.01601
3797.000	-5.05783	-3.87818	-6.01752	-4.02746
3798.000	-5.08726	-3.89378	-6.03316	-3.91709
3799.000	-4.92638	-3.80200	-6.11136	-4.02283
3800.000	-5.09314	-3.92531	-6.02730	-3.94667
3801.000	-5.09706	-3.88583	-6.05467	-3.93465
3802.000	-5.11079	-3.90153	-6.09963	-3.90676
3803.000	-5.15198	-3.84605	-5.92952	-3.90995
3804.000	-5.07941	-3.80703	-6.04294	-3.92686
3805.000	-5.16374	-3.76116	-5.94517	-3.96892
3806.000	-5.03625	-3.83688	-5.96863	-4.07507
3807.000	-5.13041	-3.86985	-6.05858	-3.90903
3808.000	-5.09314	-3.88389	-6.02534	-3.97425
3809.000	-5.01860	-3.88236	-6.02925	-3.96437
3810.000	-5.13237	-3.90732	-6.06444	-3.84006
3811.000	-5.16178	-3.94855	-6.11136	-3.88108
3812.000	-5.03625	-3.90001	-6.03512	-3.86784
3813.000	-5.07156	-3.98658	-5.99210	-4.06309
3814.000	-5.14609	-3.85398	-6.00383	-3.87791
3815.000	-5.08333	-3.91945	-6.07422	-3.92861
3816.000	-5.03822	-3.89605	-6.07031	-4.00345
3817.000	-5.16963	-4.16339	-6.00188	-3.95670
3818.000	-4.98328	-3.83719	-5.97059	-4.02387
3819.000	-5.15002	-4.00975	-6.04685	-3.98000
3820.000	-5.12844	-4.00003	-6.04880	-4.04692
3821.000	-5.17355	-4.02932	-5.99992	-3.98231
3822.000	-5.03822	-4.01833	-6.08204	-3.98171
3823.000	-5.12452	-4.03357	-5.99992	-4.00987
3824.000	-5.10295	-4.07708	-6.05271	-3.87362
3825.000	-5.00683	-4.10332	-6.02925	-4.01753
3826.000	-5.15590	-4.17333	-6.07617	-3.90693
3827.000	-4.99505	-4.11128	-6.01948	-4.04517
3828.000	-5.14806	-4.17338	-6.09572	-3.98948
3829.000	-5.16374	-4.25211	-6.04294	-3.84612
3830.000	-5.13825	-4.14388	-6.10158	-3.95597
3831.000	-5.01271	-4.22945	-6.15240	-4.05795
3832.000	-5.09314	-4.16980	-6.08008	-3.99353
3833.000	-5.09706	-4.29590	-6.09572	-4.05641
3834.000	-5.02056	-4.15843	-6.18562	-4.00652
3835.000	-5.07745	-4.27830	-5.99992	-3.94096
3836.000	-5.06568	-4.15420	-6.00188	-4.02955
3837.000	-5.08922	-4.10477	-6.08204	-3.93642
3838.000	-5.08333	-4.10284	-6.02143	-3.99200
3839.000	-5.10099	-4.16778	-6.02730	-4.04314
3840.000	-5.03625	-4.11496	-6.15045	-4.09339
3841.000	-5.11668	-4.21103	-6.23447	-4.08487
3842.000	-5.10491	-4.14410	-6.09963	-3.99142
3843.000	-5.02252	-4.20770	-6.18562	-4.02227
3844.000	-5.07549	-3.85046	-6.07422	-4.02507
3845.000	-5.02056	-4.06971	-6.09767	-4.01309
3846.000	-5.01075	-4.06189	-6.18562	-3.95338
3847.000	-4.96955	-3.98325	-6.14654	-4.15835
3848.000	-5.05979	-4.03989	-6.15631	-4.03430
3849.000	-4.95385	-3.94981	-6.17390	-4.04597
3850.000	-5.00094	-3.81341	-6.01361	-4.10033
3851.000	-4.96562	-3.87675	-6.09767	-4.01899
3852.000	-4.91656	-3.94214	-6.25400	-3.98239
3853.000	-5.01271	-3.96919	-6.09963	-4.07212
3854.000	-4.83806	-3.92485	-6.05467	-3.99963
3855.000	-4.93030	-3.82960	-6.08399	-3.97185
3856.000	-4.91460	-4.01514	-6.08790	-3.95607
3857.000	-4.88713	-3.93245	-6.13286	-3.97346
3858.000	-4.90086	-3.85542	-6.08790	-3.93441
3859.000	-4.90479	-3.92840	-6.10549	-3.94807
3860.000	-4.85769	-3.94644	-6.12895	-3.95774
3861.000	-4.74775	-3.96483	-6.15240	-3.96150
3862.000	-4.86357	-3.91089	-6.02143	-4.22819
3863.000	-4.84395	-3.97019	-6.12895	-4.31980
3864.000	-4.78898	-3.95867	-6.00188	-4.59614
3865.000	-4.74971	-3.87799	-6.05271	-4.57802
3866.000	-4.81057	-4.04535	-6.00970	-4.64521
3867.000	-4.73793	-3.90963	-5.98623	-4.27569
3868.000	-4.76542	-4.01405	-6.03121	-3.90923
3869.000	-4.70259	-3.93154	-6.21298	-3.36424
3870.000	-4.57492	-3.51953	-6.02339	-2.54065
3871.000	-4.71830	-3.24616	-6.11722	-1.72241
3872.000	-4.58867	-2.34663	-6.47271	-0.42104
3873.000	-4.45114	-1.40796	-6.50784	0.72538
3874.000	-4.45311	-0.61087	-6.73802	2.02030
3875.000	-4.46686	0.59103	-7.00305	3.33724
3876.000	-4.62992	1.70087	-7.20551	4.73011
3877.000	-4.64563	2.86488	-7.26193	6.04786
3878.000	-4.78113	3.93899	-7.35918	7.67625
3879.000	-4.60635	5.44476	-7.40779	9.27526
3880.000	-4.78898	6.87579	NaN	NaN
3881.000	-4.85180	8.35517	NaN	NaN
3882.000	-12.11509	13.29795	NaN	NaN
3883.000	-11.84645	14.58342	NaN	NaN
3884.000	-11.54882	15.73866	NaN	NaN
3885.000	-11.01646	16.92971	NaN	NaN
3886.000	-10.49936	18.08130	NaN	NaN
3887.000	-10.24303	19.35411	NaN	NaN
3888.000	-9.40232	20.93526	NaN	NaN
3889.000	NaN	NaN	NaN	NaN
3890.000	NaN	NaN	NaN	NaN
3891.000	NaN	NaN	NaN	NaN
3892.000	NaN	NaN	NaN	NaN
3893.000	NaN	NaN	NaN	NaN
3894.000	NaN	NaN	NaN	NaN
3895.000	NaN	NaN	NaN	NaN
3896.000	NaN	NaN	NaN	NaN
3897.000	NaN	NaN	NaN	NaN
3898.000	NaN	NaN	NaN	NaN
3899.000	NaN	NaN	NaN	NaN
3900.000	NaN	NaN	NaN	NaN
3901.000	NaN	NaN	NaN	NaN
3902.000	NaN	NaN	NaN	NaN
3903.000	NaN	NaN	NaN	NaN
3904.000	NaN	NaN	NaN	NaN
3905.000	NaN	NaN	NaN	NaN
3906.000	NaN	NaN	NaN	NaN
3907.000	NaN	NaN	NaN	NaN
3908.000	NaN	NaN	NaN	NaN
3909.000	NaN	NaN	NaN	NaN
3910.000	NaN	NaN	NaN	NaN
3911.000	NaN	NaN	NaN	NaN
3912.000	NaN	NaN	NaN	NaN
3913.000	NaN	NaN	NaN	NaN
3914.000	NaN	NaN	NaN	NaN
3915.000	NaN	NaN	NaN	NaN
3916.000	NaN	NaN	NaN	NaN
3917.000	NaN	NaN	NaN	NaN
3918.000	NaN	NaN	NaN	NaN
3919.000	NaN	NaN	NaN	NaN
3920.000	NaN	NaN	NaN	NaN
3921.000	NaN	NaN	NaN	NaN
3922.000	NaN	NaN	NaN	NaN
3923.000	NaN	NaN	NaN	NaN
3924.000	NaN	NaN	NaN	NaN
3925.000	NaN	NaN	NaN	NaN
3926.000	NaN	NaN	NaN	NaN
3927.000	NaN	NaN	NaN	NaN
3928.000	NaN	NaN	NaN	NaN
3929.000	NaN	NaN	NaN	NaN
3930.000	NaN	NaN	NaN	NaN
3931.000	NaN	NaN	NaN	NaN
3932.000	NaN	NaN	NaN	NaN
3933.000	NaN	NaN	NaN	NaN
3934.000	NaN	NaN	NaN	NaN
3935.000	NaN	NaN	NaN	NaN
3936.000	NaN	NaN	NaN	NaN
3937.000	NaN	NaN	NaN	NaN
3938.000	NaN	NaN	NaN	NaN
3939.000	NaN	NaN	NaN	NaN
3940.000	NaN	NaN	NaN	NaN
3941.000	NaN	NaN	NaN	NaN
3942.000	NaN	NaN	NaN	NaN
3943.000	NaN	NaN	NaN	NaN
3944.000	NaN	NaN	NaN	NaN
3945.000	NaN	NaN	NaN	NaN
3946.000	NaN	NaN	NaN	NaN
3947.000	NaN	NaN	NaN	NaN
3948.000	NaN	NaN	NaN	NaN
3949.000	NaN	NaN	NaN	NaN
3950.000	NaN	NaN	NaN	NaN
3951.000	NaN	NaN	NaN	NaN
3952.000	NaN	NaN	NaN	NaN
3953.000	NaN	NaN	NaN	NaN
3954.000	NaN	NaN	NaN	NaN
3955.000	NaN	NaN	NaN	NaN
3956.000	NaN	NaN	NaN	NaN
3957.000	NaN	NaN	NaN	NaN
3958.000	NaN	NaN	NaN	NaN
3959.000	NaN	NaN	NaN	NaN
3960.000	NaN	NaN	NaN	NaN
3961.000	NaN	NaN	NaN	NaN
3962.000	NaN	NaN	NaN	NaN
3963.000	NaN	NaN	NaN	NaN
3964.000	NaN	NaN	NaN	NaN
3965.000	NaN	NaN	NaN	NaN
3966.000	NaN	NaN	NaN	NaN
3967.000	NaN	NaN	NaN	NaN
3968.000	NaN	NaN	NaN	NaN
3969.000	NaN	NaN	NaN	NaN
3970.000	NaN	NaN	NaN	NaN
3971.000	NaN	NaN	NaN	NaN
3972.000	NaN	NaN	NaN	NaN
3973.000	NaN	NaN	NaN	NaN
3974.000	NaN	NaN	NaN	NaN
3975.000	NaN	NaN	NaN	NaN
3976.000	NaN	NaN	NaN	NaN
3977.000	NaN	NaN	NaN	NaN
3978.000	NaN	NaN	NaN	NaN
3979.000	NaN	NaN	NaN	NaN
3980.000	NaN	NaN	NaN	NaN
3981.000	NaN	NaN	NaN	NaN
3982.000	NaN	NaN	NaN	NaN
3983.000	NaN	NaN	NaN	NaN
3984.000	NaN	NaN	NaN	NaN
3985.000	NaN	NaN	NaN	NaN
3986.000	NaN	NaN	NaN	NaN
3987.000	NaN	NaN	NaN	NaN
3988.000	NaN	NaN	NaN	NaN
3989.000	NaN	NaN	NaN	NaN
3990.000	NaN	NaN	NaN	NaN
3991.000	NaN	NaN	NaN	NaN
3992.000	NaN	NaN	NaN	NaN
3993.000	NaN	NaN	NaN	NaN
3994.000	NaN	NaN	NaN	NaN
3995.000	NaN	NaN	NaN	NaN
3996.000	NaN	NaN	NaN	NaN
3997.000	NaN	NaN	NaN	NaN
3998.000	NaN	NaN	NaN	NaN
3999.000	NaN	NaN	NaN	NaN
4000.000	NaN	NaN	NaN	NaN
4001.000	NaN	NaN	NaN	NaN
4002.000	NaN	NaN	NaN	NaN
4003.000	NaN	NaN	NaN	NaN
4004.000	NaN	NaN	NaN	NaN
4005.000	NaN	NaN	NaN	NaN
4006.000	NaN	NaN	NaN	NaN
4007.000	NaN	NaN	NaN	NaN
4008.000	NaN	NaN	NaN	NaN
4009.000	NaN	NaN	NaN	NaN
4010.000	NaN	NaN	NaN	NaN
4011.000	NaN	NaN	NaN	NaN
4012.000	NaN	NaN	NaN	NaN
4013.000	NaN	NaN	NaN	NaN
4014.000	NaN	NaN	NaN	NaN
4015.000	NaN	NaN	NaN	NaN
4016.000	NaN	NaN	NaN	NaN
4017.000	NaN	NaN	NaN	NaN
4018.000	NaN	NaN	NaN	NaN
4019.000	NaN	NaN	NaN	NaN
4020.000	NaN	NaN	NaN	NaN
4021.000	-12.75609	17.78300	NaN	NaN
4022.000	-10.07830	14.51851	NaN	NaN
4023.000	-8.29247	11.64863	NaN	NaN
4024.000	-8.20534	11.11938	NaN	NaN
4025.000	-7.86806	10.57525	NaN	NaN
4026.000	-7.60600	10.04342	NaN	NaN
4027.000	-7.70893	9.43781	NaN	NaN
4028.000	-7.53413	8.73585	NaN	NaN
4029.000	-7.67786	8.13686	-18.68302	6.45186
4030.000	-7.68951	7.47481	-15.71241	5.61806
4031.000	-7.77881	6.85036	-12.91209	3.94377
4032.000	-7.79821	6.00145	-12.31716	3.37608
4033.000	-7.49137	5.33579	-12.48311	2.92660
4034.000	-7.62154	4.69433	-12.53775	2.33105
4035.000	-7.87970	4.02140	-12.44164	1.81777
4036.000	-7.65067	3.34222	-12.15477	1.36891
4037.000	-7.76328	2.65725	-11.91461	0.93038
4038.000	-7.76522	2.21255	-11.99786	0.39503
4039.000	-7.73028	1.68502	-11.75932	-0.06038
4040.000	-7.91462	1.01272	-11.47859	-0.58877
4041.000	-7.99412	0.49251	-11.36272	-1.11356
4042.000	-8.12979	-0.05514	-11.32091	-1.57969
4043.000	-8.10072	-0.51799	-10.98026	-2.01663
4044.000	-8.28473	-1.00195	-10.90403	-2.40922
4045.000	-8.19759	-1.48438	-10.90784	-2.76205
4046.000	-8.17241	-2.02550	-10.83920	-3.21282
4047.000	-8.29053	-2.51628	-10.73046	-3.56653
4048.000	-8.36602	-3.04794	-10.60445	-4.00801
4049.000	-8.31183	-3.49376	-10.43245	-4.36054
4050.000	-8.35634	-3.89127	-10.47451	-4.77399
4051.000	-8.49176	-4.35187	-10.43436	-4.97273
4052.000	-8.46662	-4.76277	-10.34829	-5.46320
4053.000	-8.45888	-5.26668	-10.34829	-5.65319
4054.000	-8.59423	-5.54752	-10.45157	-6.04049
4055.000	-8.49756	-5.93849	-10.37316	-6.25866
4056.000	-8.57490	-6.21546	-10.42671	-6.53198
4057.000	-8.53817	-6.58909	-10.36359	-6.81322
4058.000	-8.60969	-6.92345	-10.42289	-6.91995
4059.000	-8.55364	-7.14924	-10.10129	-7.32803
4060.000	-8.78356	-7.44475	-10.26600	-7.44943
4061.000	-8.80286	-7.81518	-10.08021	-7.66160
4062.000	-8.79128	-7.94467	-9.91531	-7.85014
4063.000	-8.76811	-8.05314	-9.86927	-7.90123
4064.000	-8.82024	-8.30241	-9.81937	-8.13115
4065.000	-9.03055	-8.44962	-9.79441	-8.33146
4066.000	-9.07682	-8.50428	-9.56580	-8.43689
4067.000	-9.04212	-8.48011	-9.52927	-8.53567
4068.000	-9.11537	-8.51683	-9.47542	-8.60223
4069.000	-9.21364	-8.50106	-9.34651	-8.90836
4070.000	-9.09417	-8.30587	-9.35036	-8.84694
4071.000	-9.07682	-8.16772	-9.39847	-8.82849
4072.000	-9.00548	-8.16161	-9.27142	-8.77029
4073.000	-9.07489	-8.20048	-9.23483	-8.95523
4074.000	-9.01319	-7.97075	-9.22327	-8.95743
4075.000	-9.03247	-8.03776	-9.10959	-9.06564
4076.000	-9.00548	-7.94972	-9.25024	-8.95867
4077.000	-8.95340	-7.88915	-9.32148	-8.60408
4078.000	-9.02476	-7.91846	-9.23098	-8.59859
4079.000	-9.07104	-7.94251	-9.18860	-8.45747
4080.000	-9.00162	-7.54660	-9.35613	-8.35936
4081.000	-8.93796	-7.84899	-9.52158	-8.12095
4082.000	-9.19438	-7.96291	-9.41771	-8.10414
4083.000	-8.94568	-7.66939	-9.53504	-8.03794
4084.000	-9.08260	-7.74175	-9.61001	-7.93039
4085.000	-9.05947	-7.66507	-9.70416	-7.81275
4086.000	-8.99583	-7.76868	-9.65421	-7.77924
4087.000	-9.00933	-7.67964	-9.65229	-7.66566
4088.000	-9.02283	-7.63882	-9.68495	-7.66300
4089.000	-9.08646	-7.79374	-9.65421	-7.61745
4090.000	-9.11537	-7.96851	-9.67534	-7.69018
4091.000	-9.10573	-7.92055	-9.74065	-7.54808
4092.000	-8.99776	-7.84385	-9.66766	-7.60173
4093.000	-9.06718	-7.98691	-9.68495	-7.50499
4094.000	-9.12115	-7.96068	-9.68111	-7.66308
4095.000	-9.09802	-7.95733	-9.73681	-7.45179
4096.000	-9.00741	-7.99978	-9.61193	-7.57985
4097.000	-9.12501	-7.98371	-9.78865	-7.51232
4098.000	-9.15777	-7.96758	-9.72336	-7.55810
4099.000	-9.11923	-8.08206	-9.63884	-7.45780
4100.000	-9.02476	-7.83171	-9.75409	-7.44370
4101.000	-9.08260	-7.82082	-9.60617	-7.56456
4102.000	-9.09995	-7.87635	-9.70416	-7.46601
4103.000	-9.16548	-7.94814	-9.66766	-7.54199
4104.000	-9.10959	-7.92818	-9.76369	-7.39722
4105.000	-9.25024	-7.95589	-9.67534	-7.48978
4106.000	-9.15584	-7.88091	-9.73297	-7.48465
4107.000	-9.18860	-7.92837	-9.73681	-7.44408
4108.000	-9.19052	-7.89557	-9.76945	-7.37974
4109.000	-9.21557	-8.02407	-9.67150	-7.45516
4110.000	-9.14043	-7.99300	-9.62923	-7.49658
4111.000	-9.11152	-7.76621	-9.71760	-7.46186
4112.000	-9.28105	-7.92246	-9.72913	-7.44811
4113.000	-9.07489	-7.87882	-9.65421	-7.49988
4114.000	-9.12886	-7.82753	-9.81361	-7.41347
4115.000	-9.17318	-7.73403	-9.72336	-7.48294
4116.000	-9.11537	-7.69283	-9.72336	-7.49643
4117.000	-9.08260	-7.63950	-9.76177	-7.48208
4118.000	-9.18474	-7.74920	-9.69263	-7.49711
4119.000	-9.05754	-7.69599	-9.63499	-7.45017
4120.000	-9.16740	-7.80356	-9.76753	-7.42991
4121.000	-9.08260	-7.76104	-9.83856	-7.28952
4122.000	-9.19823	-7.73734	-9.78865	-7.38125
4123.000	-9.18667	-7.90336	-9.76177	-7.36062
4124.000	-9.17126	-7.67621	-9.77521	-7.42203
4125.000	-9.15777	-7.99069	-9.72913	-7.37098
4126.000	-9.08646	-7.78796	-9.67150	-7.39345
4127.000	-9.20401	-7.81433	-9.80209	-7.36167
4128.000	-9.22712	-7.95255	-9.76561	-7.41453
4129.000	-9.20401	-7.79313	-9.69839	-7.27905
4130.000	-9.26757	-7.84377	-9.76945	-7.46457
4131.000	-9.15391	-7.84626	-9.73681	-7.38431
4132.000	-9.07104	-7.79022	-9.72336	-7.36146
4133.000	-9.14428	-7.96017	-9.71568	-7.45033
4134.000	-9.20979	-7.87202	-9.71568	-7.42141
4135.000	-9.14428	-7.85226	-9.63884	-7.34400
4136.000	-9.13464	-7.89872	-9.68495	-7.39701
4137.000	-9.14235	-7.85615	-9.68303	-7.34691
4138.000	-9.18089	-7.87266	-9.58502	-7.44355
4139.000	-9.25987	-7.95953	-9.71376	-7.30573
4140.000	-9.17511	-7.86893	-9.64460	-7.19914
4141.000	-9.18089	-7.81676	-9.61578	-7.41009
4142.000	-9.26372	-7.94403	-9.77329	-7.24850
4143.000	-9.24061	-8.10243	-9.70992	-7.35983
4144.000	-9.23483	-7.94468	-9.65613	-7.29732
4145.000	-9.30608	-7.96619	-9.70416	-7.35609
4146.000	-9.17896	-7.97674	-9.57541	-7.28554
4147.000	-9.27335	-7.98426	-9.67342	-7.41848
4148.000	-9.28105	-8.04954	-9.75217	-7.46688
4149.000	-9.21942	-7.97199	-9.63691	-7.43085
4150.000	-9.13079	-8.08950	-9.67534	-7.42808
4151.000	-9.20786	-8.11472	-9.65997	-7.33390
4152.000	-9.26949	-8.02285	-9.69839	-7.35429
4153.000	-9.26372	-7.96329	-9.66766	-7.38003
4154.000	-9.18474	-8.06134	-9.69071	-7.28308
4155.000	-9.22135	-8.09709	-9.64844	-7.34765
4156.000	-9.15970	-7.90010	-9.70800	-7.30586
4157.000	-9.13464	-8.09327	-9.69839	-7.32536
4158.000	-9.09802	-7.75878	-9.70224	-7.29826
4159.000	-9.15199	-8.05052	-9.77329	-7.37001
4160.000	-9.22135	-7.94112	-9.80401	-7.36548
4161.000	-9.05561	-7.98909	-9.69263	-7.38720
4162.000	-9.10766	-7.84920	-9.72144	-7.31521
4163.000	-9.11537	-8.03978	-9.67918	-7.50319
4164.000	-9.14043	-7.83307	-9.83088	-7.31090
4165.000	-9.18089	-7.85339	-9.74257	-7.42468
4166.000	-9.14428	-7.94283	-9.75601	-7.29131
4167.000	-9.07682	-8.10611	-9.77521	-7.25810
4168.000	-9.15391	-8.01774	-9.82321	-7.47879
4169.000	-9.11537	-7.92998	-9.77137	-7.23310
4170.000	-9.08453	-7.93258	-9.68303	-7.36427
4171.000	-9.28105	-7.92053	-9.75793	-7.40506
4172.000	-9.23098	-7.87348	-9.71952	-7.30368
4173.000	-9.15391	-7.99463	-9.88270	-7.39459
4174.000	-9.16740	-8.01359	-9.63115	-7.37889
4175.000	-9.10766	-7.82606	-9.71376	-7.42917
4176.000	-9.21557	-7.86419	-9.77905	-7.26960
4177.000	-9.05754	-7.96015	-9.84816	-7.37608
4178.000	-9.10188	-7.98615	-9.64076	-7.38254
4179.000	-9.14235	-8.03340	-9.81937	-7.36900
4180.000	-9.08067	-7.90761	-9.70416	-7.37731
4181.000	-9.15777	-7.93097	-9.74257	-7.30125
4182.000	-9.12115	-8.03388	-9.75025	-7.35702
4183.000	-9.19438	-7.97254	-9.74065	-7.42279
4184.000	-9.22905	-7.91398	-9.72913	-7.24173
4185.000	-9.22520	-7.86590	-9.63499	-7.40774
4186.000	-9.10959	-7.96286	-9.71952	-7.29596
4187.000	-9.04597	-7.89294	-9.71184	-7.42342
4188.000	-9.11730	-8.03974	-9.68879	-7.17311
4189.000	-9.13657	-7.93337	-9.72913	-7.33241
4190.000	-9.10766	-7.91088	-9.76945	-7.30645
4191.000	-9.14043	-7.84270	-9.80017	-7.20354
4192.000	-9.18860	-7.80310	-9.92107	-7.22986
4193.000	-9.20401	-7.75264	-9.83280	-7.30122
4194.000	-9.26757	-7.89965	-9.83664	-7.38404
4195.000	-9.09610	-7.80703	-9.91148	-7.14712
4196.000	-9.06332	-7.60130	-9.76369	-7.10395
4197.000	-8.82024	-7.47494	-9.53888	-7.01976
4198.000	-8.61163	-7.52160	-9.39655	-6.94529
4199.000	-8.62322	-7.41115	-9.17704	-6.60682
4200.000	-8.57684	-7.29789	-8.92060	-6.63476
4201.000	-8.48983	-7.26856	-8.60583	-6.52386
4202.000	-8.32731	-7.08943	-8.51884	-6.47679
4203.000	-8.11041	-7.02537	-8.24213	-6.31608
4204.000	-8.04258	-6.85767	-7.99024	-6.33947
4205.000	-8.06778	-7.06297	-7.64679	-6.29790
4206.000	-8.01157	-6.97467	-7.49137	-6.32548
4207.000	-7.80791	-6.85183	-7.43695	-6.24830
4208.000	-7.68757	-6.84794	-7.33779	-6.18144
4209.000	-7.40390	-6.92628	-7.21135	-6.12074
4210.000	-7.34557	-6.93690	-7.07510	-6.21817
4211.000	-7.11793	-6.89173	-6.92123	-6.00933
4212.000	-7.16270	-7.13218	-6.86278	-6.15850
4213.000	-6.93097	-6.83413	-6.83354	-6.17058
4214.000	-6.81015	-6.84364	-6.72827	-6.02932
4215.000	-6.69707	-6.77899	-6.70292	-5.80483
4216.000	-6.36143	-6.51625	-6.51174	-5.61135
4217.000	-6.21493	-6.30518	-6.34776	-5.64840
4218.000	-6.12699	-6.26518	-6.24033	-5.39877
4219.000	-5.98623	-6.13383	-6.02925	-5.35579
4220.000	-5.67122	-5.91209	-5.88453	-5.19040
4221.000	-5.56353	-5.70740	-5.84932	-5.10435
4222.000	-5.32842	-5.65666	-5.67122	-4.93306
4223.000	-5.11668	-5.49172	-5.41465	-5.00793
4224.000	-4.99505	-5.51630	-5.25982	-4.85974
4225.000	-4.90479	-5.32847	-5.21080	-4.59250
4226.000	-4.80076	-5.12089	-5.11668	-4.38246
4227.000	-4.74775	-4.88321	-5.11472	-4.20119
4228.000	-4.61617	-4.72266	-4.90479	-4.05859
4229.000	-4.49634	-4.62493	-4.93226	-3.94205
4230.000	-4.39022	-4.53888	-4.88124	-3.78449
4231.000	-4.37056	-4.50745	-4.82039	-3.83812
4232.000	-4.34108	-4.26900	-4.83217	-3.77687
4233.000	-4.25065	-4.13138	-4.76346	-3.59561
4234.000	-4.16806	-3.89290	-4.62403	-3.39877
4235.000	-4.06579	-3.83216	-4.68688	-3.00315
4236.000	-4.02054	-3.84423	-4.69473	-2.90819
4237.000	-3.93594	-3.62130	-4.52384	-2.75656
4238.000	-3.70763	-3.38690	-4.53170	-2.57249
4239.000	-3.61115	-3.20718	-4.39415	-2.39280
4240.000	-3.47723	-2.97598	-4.35287	-2.24440
4241.000	-3.33736	-2.91501	-4.25065	-2.21498
4242.000	-3.25460	-2.72900	-4.07366	-2.00740
4243.000	-3.33341	-2.59204	-4.11889	-2.02314
4244.000	-3.08706	-2.22977	-4.03628	-1.88460
4245.000	-3.05947	-2.20999	-4.00874	-1.82320
4246.000	-3.03581	-2.16243	-4.07956	-1.77745
4247.000	-3.04764	-2.17232	-4.05005	-1.71209
4248.000	-3.11860	-2.24359	-4.05005	-1.70217
4249.000	-3.02989	-2.13863	-4.16806	-1.83473
4250.000	-3.17774	-2.16809	-4.15036	-1.76540
4251.000	-3.10086	-2.19602	-4.22902	-1.90594
4252.000	-3.18759	-2.13435	-4.26048	-1.98315
4253.000	-3.20927	-2.13232	-4.27031	-2.11389
4254.000	-3.18168	-2.18990	-4.36074	-2.04034
4255.000	-3.18759	-2.20575	-4.24672	-2.20113
4256.000	-3.23095	-2.27507	-4.34894	-2.08000
4257.000	-3.24080	-2.17192	-4.34894	-2.01065
4258.000	-3.20336	-2.22754	-4.41577	-2.05010
4259.000	-3.19941	-2.21763	-4.37450	-2.15322
4260.000	-3.13437	-2.09280	-4.41577	-2.09962
4261.000	-3.26051	-2.15403	-4.46883	-2.14304
4262.000	-3.33538	-2.18758	-4.31159	-2.14944
4263.000	-3.13634	-2.14239	-4.39808	-2.01250
4264.000	-3.18168	-2.15023	-4.28604	-2.17526
4265.000	-3.26445	-2.18774	-4.24672	-2.22688
4266.000	-3.28612	-2.19562	-4.31159	-2.06227
4267.000	-3.24868	-2.17191	-4.33125	-2.06420
4268.000	-3.25854	-2.21155	-4.37646	-2.12746
4269.000	-3.21321	-2.09066	-4.35484	-2.14139
4270.000	-3.25657	-2.01717	-4.26441	-2.15155
4271.000	-3.19350	-2.06292	-4.34305	-2.00275
4272.000	-3.30780	-2.08252	-4.27424	-2.05246
4273.000	-3.24671	-2.10645	-4.28407	-2.17725
4274.000	-3.22306	-1.95970	-4.33518	-2.08003
4275.000	-3.28612	-1.90006	-4.33911	-2.03644
4276.000	-3.26051	-1.96360	-4.30963	-1.95330
4277.000	-3.25460	-1.89417	-4.41380	-1.91538
4278.000	-3.21321	-1.87242	-4.44918	-2.11141
4279.000	-3.16197	-2.01736	-4.41577	-2.06396
4280.000	-3.23489	-2.09061	-4.27817	-2.12180
4281.000	-3.20730	-1.94783	-4.32142	-2.09988
4282.000	-3.20336	-2.07084	-4.41970	-1.99065
4283.000	-3.17576	-2.04709	-4.34894	-1.93140
4284.000	-3.22306	-2.05294	-4.41970	-1.95301
4285.000	-3.18168	-1.83081	-4.36270	-2.01458
4286.000	-3.25657	-2.04097	-4.39808	-1.93920
4287.000	-3.15014	-1.98564	-4.38432	-1.83025
4288.000	-3.24277	-1.98149	-4.38629	-2.00065
4289.000	-3.17182	-2.00940	-4.33518	-1.87992
4290.000	-3.28415	-1.95760	-4.37253	-1.98880
4291.000	-3.28810	-1.90601	-4.41773	-2.10952
4292.000	-3.28612	-2.09645	-4.48258	-2.02614
4293.000	-3.28810	-2.02306	-4.34108	-1.93538
4294.000	-3.33736	-2.01701	-4.36663	-1.91947
4295.000	-3.25065	-2.04694	-4.25458	-1.93560
4296.000	-3.17576	-1.97170	-4.38432	-1.97886
4297.000	-3.17182	-1.94790	-4.37253	-2.02446
4298.000	-3.33341	-1.97932	-4.34108	-1.95520
4299.000	-3.27430	-2.10243	-4.28407	-2.08612
4300.000	-3.33933	-2.01105	-4.31159	-1.95924
4301.000	-3.42207	-2.07236	-4.35091	-1.90365
4302.000	-3.36297	-1.99315	-4.35091	-2.00074
4303.000	-3.32553	-2.00314	-4.41970	-2.02235
4304.000	-3.30386	-1.93971	-4.35287	-1.89176
4305.000	-3.31371	-2.10830	-4.40791	-2.08776
4306.000	-3.28021	-2.15399	-4.41184	-1.97483
4307.000	-3.35903	-2.09630	-4.38039	-1.93924
4308.000	-3.32356	-2.06067	-4.47669	-1.98456
4309.000	-3.34918	-2.09235	-4.31159	-2.05831
4310.000	-3.44768	-2.08817	-4.35091	-1.92545
4311.000	-3.30583	-2.01905	-4.29980	-1.92162
4312.000	-3.18956	-2.08277	-4.39808	-1.87976
4313.000	-3.26051	-2.06080	-4.32535	-1.96515
4314.000	-3.25460	-1.98345	-4.27424	-1.97717
4315.000	-3.32750	-2.03488	-4.30373	-2.02861
4316.000	-3.16197	-2.05703	-4.39415	-1.94515
4317.000	-3.23489	-2.11045	-4.24868	-2.07631
4318.000	-3.33933	-2.19749	-4.38629	-1.90555
4319.000	-3.32947	-2.07653	-4.20739	-2.06255
4320.000	-3.31962	-1.98332	-4.37056	-2.01654
4321.000	-3.21124	-2.03313	-4.36074	-2.14732
4322.000	-3.34327	-2.05270	-4.36074	-2.00468
4323.000	-3.30977	-2.03690	-4.38629	-1.98084
4324.000	-3.27036	-1.93977	-4.25261	-1.95344
4325.000	-3.29992	-1.93972	-4.35287	-1.95517
4326.000	-3.24474	-2.08464	-4.26245	-1.89793
4327.000	-3.29795	-1.95162	-4.35681	-1.95119
4328.000	-3.34130	-2.02097	-4.18969	-2.00116
4329.000	-3.32356	-1.91586	-4.32339	-2.01469
4330.000	-3.28810	-1.93775	-4.27621	-1.99500
4331.000	-3.38267	-2.05857	-4.34894	-1.95716
4332.000	-3.33538	-2.01503	-4.27424	-1.99896
4333.000	-3.37479	-1.93957	-4.26834	-2.05050
4334.000	-3.36100	-2.05266	-4.25458	-1.97920
4335.000	-3.40631	-2.03868	-4.26834	-1.90188
4336.000	-3.31765	-1.97341	-4.30963	-2.08209
4337.000	-3.42207	-2.07236	-4.27621	-2.08020
4338.000	-3.29992	-1.94963	-4.33911	-1.85414
4339.000	-3.30977	-1.98334	-4.23099	-2.00502
4340.000	-3.24474	-2.03108	-4.33911	-2.03644
4341.000	-3.40237	-2.02679	-4.24082	-1.95149
4342.000	-3.29204	-1.95957	-4.35681	-1.90958
4343.000	-3.34918	-2.00905	-4.25655	-1.82462
4344.000	-3.30583	-2.04087	-4.28014	-1.99300
4345.000	-3.39252	-2.14383	-4.23689	-1.92772
4346.000	-3.36297	-2.09034	-4.21919	-1.97136
4347.000	-3.31174	-1.98929	-4.22902	-1.97728
4348.000	-3.40631	-2.09818	-4.32732	-1.99090
4349.000	-3.34130	-2.07452	-4.29587	-2.00287
4350.000	-3.40434	-2.12595	-4.34108	-2.03049
4351.000	-3.35115	-2.22523	-4.30373	-1.87405
4352.000	-3.42995	-2.19133	-4.28211	-1.84437
4353.000	-3.27627	-2.08457	-4.09333	-1.72587
4354.000	-2.95300	-2.10506	-4.00677	-1.58924
4355.000	-2.85441	-1.85915	-3.74897	-1.39927
4356.000	-2.76171	-1.80371	-3.46738	-1.25085
4357.000	-2.45591	-1.46852	-3.16985	-1.01891
4358.000	-2.15787	-1.46486	-2.89976	-0.95163
4359.000	-1.94857	-1.23056	-2.35526	-0.73742
4360.000	-1.83601	-1.17896	-2.04138	-0.56065
4361.000	-1.49032	-1.01416	-1.77281	-0.33605
4362.000	-1.25915	-1.11566	-1.40932	-0.21678
4363.000	-0.99829	-1.04020	-1.06153	0.03381
4364.000	-0.86191	-0.79563	-0.69785	0.05570
4365.000	-0.46854	-0.58088	-0.50808	0.30437
4366.000	-0.33411	-0.35212	-0.32818	0.27255
4367.000	-0.15025	-0.24271	-0.17200	0.39788
4368.000	0.06326	-0.01592	-0.10478	0.41578
4369.000	0.18188	-0.01989	0.09292	0.55702
4370.000	0.07513	0.00398	0.05338	0.70820
4371.000	0.16014	0.00796	0.13246	0.74202
4372.000	0.50610	0.32227	0.13839	0.93296
4373.000	0.61878	0.43167	0.23724	1.04234
4374.000	0.81447	0.55100	0.15618	1.33864
4375.000	0.90144	0.65442	0.15223	1.48776
4376.000	0.95480	0.65043	0.19968	1.39232
4377.000	0.90934	0.75784	0.14037	1.47583
4378.000	0.92713	0.87915	0.07315	1.40028
4379.000	0.97654	0.88510	0.12455	1.50764
4380.000	1.03188	1.02428	0.07117	1.58915
4381.000	1.08524	1.08988	0.08501	1.48975
4382.000	1.09710	1.36027	0.14234	1.57324
4383.000	1.16627	1.37216	0.09885	1.67860
4384.000	1.24334	1.42580	0.14432	1.75612
4385.000	1.16429	1.52920	0.27282	1.75213
4386.000	1.38561	1.65228	0.24119	1.91112
4387.000	1.36783	1.63043	0.36969	2.06410
4388.000	1.38561	1.68209	0.32818	1.94489
4389.000	1.50218	1.66213	0.31829	1.98662
4390.000	1.44883	1.78735	0.37167	2.05218
4391.000	1.47847	1.65817	0.33411	2.02238
4392.000	1.49428	1.58066	0.38946	1.84949
4393.000	1.41327	1.67412	0.34202	1.83956
4394.000	1.51008	1.62040	0.33411	1.78392
4395.000	1.33819	1.57083	0.24515	1.75611
4396.000	1.43698	1.62442	0.32620	1.69845
4397.000	1.37178	1.51715	0.14234	1.66071
4398.000	1.39944	1.60855	0.13444	1.64680
4399.000	1.35202	1.55890	0.15618	1.64679
4400.000	1.39549	1.57874	0.12850	1.67065
4401.000	1.43303	1.60853	0.13048	1.67065
4402.000	1.43500	1.61648	0.15223	1.62095
4403.000	1.41525	1.69200	0.19177	1.58517
4404.000	1.48242	1.66811	0.24515	1.54938
4405.000	1.43105	1.71584	0.16607	1.63685
4406.000	1.49032	1.65618	0.16607	1.68058
4407.000	1.39351	1.70394	0.23131	1.73027
4408.000	1.45476	1.61646	0.18386	1.69847
4409.000	1.50415	1.66809	0.17002	1.70046
4410.000	1.34807	1.59467	0.12653	1.62692
4411.000	1.32633	1.59668	0.17793	1.71040
4412.000	1.45871	1.75953	0.32027	1.71833
4413.000	1.49428	1.67803	0.22340	1.76406
4414.000	1.46859	1.65421	0.24317	1.73424
4415.000	1.43303	1.59859	0.23526	1.77400
4416.000	1.44883	1.64230	0.23526	1.70642
4417.000	1.46464	1.69594	0.31236	1.77398
4418.000	1.38956	1.58074	0.28073	1.77200
4419.000	1.48045	1.62638	0.22735	1.80580
4420.000	1.44291	1.54890	0.24317	1.61100
4421.000	1.44686	1.63038	0.18979	1.76406
4422.000	1.45081	1.66416	0.23922	1.73822
4423.000	1.44686	1.59063	0.27085	1.69846
4424.000	1.51601	1.63430	0.33016	1.70442
4425.000	1.53379	1.70383	0.26689	1.68852
4426.000	1.45476	1.80722	0.25305	1.67262
4427.000	1.58713	1.66405	0.26096	1.67859
4428.000	1.39944	1.54098	0.19968	1.66468
4429.000	1.51996	1.65616	0.24515	1.58715
4430.000	1.44291	1.70788	0.25503	1.64678
4431.000	1.47254	1.74760	0.26294	1.65871
4432.000	1.49428	1.69393	0.27085	1.72231
4433.000	1.50020	1.70982	0.24317	1.85945
4434.000	1.42710	1.57674	0.14037	1.73227
4435.000	1.50613	1.54488	0.24317	1.75412
4436.000	1.49823	1.76148	0.30841	1.70243
4437.000	1.45279	1.63634	0.25899	1.68057
4438.000	1.46859	1.65818	0.24515	1.70244
4439.000	1.53576	1.69986	0.32620	1.73622
4440.000	1.51601	1.70981	0.22142	1.81971
4441.000	1.48637	1.69195	0.24119	1.85349
4442.000	1.38758	1.62048	0.22735	1.77797
4443.000	1.55354	1.62831	0.25899	1.72033
4444.000	1.50218	1.57470	0.20363	1.80182
4445.000	1.51996	1.61045	0.24119	1.78393
4446.000	1.56935	1.62830	0.31829	1.83162
4447.000	1.56935	1.66605	0.23131	1.81573
4448.000	1.52391	1.60051	0.22933	1.81772
4449.000	1.53181	1.58461	0.24910	1.90317
4450.000	1.60293	1.61834	0.07315	1.88928
4451.000	1.48440	1.58862	0.09885	1.80183
4452.000	1.53576	1.62435	0.33806	1.87732
4453.000	1.55354	1.67600	0.25305	1.87138
4454.000	1.53181	1.53692	0.24119	1.83561
4455.000	1.60688	1.70377	0.28271	1.81573
4456.000	1.52984	1.54089	0.17991	1.81971
4457.000	1.61873	1.65012	0.17200	1.80381
4458.000	1.63059	1.67792	0.17595	1.91908
4459.000	1.56342	1.54087	0.24317	1.73424
4460.000	1.57923	1.56470	0.17200	1.77201
4461.000	1.56737	1.56074	0.27876	1.76803
4462.000	1.59700	1.57661	0.22538	1.87933
4463.000	1.53971	1.48723	0.22142	1.97471
4464.000	1.66812	1.50104	0.18386	1.89324
4465.000	1.53774	1.46139	0.23526	1.89721
4466.000	1.66417	1.59643	0.15816	1.68257
4467.000	1.60293	1.48718	0.17398	1.79586
4468.000	1.65627	1.48516	0.27876	1.80181
4469.000	1.65429	1.49112	0.22538	1.76207
4470.000	1.65627	1.42951	0.23526	1.79983
4471.000	1.60293	1.56468	0.14827	1.77798
4472.000	1.62861	1.49114	0.25701	1.78393
4473.000	1.70565	1.47717	0.24515	1.77399
4474.000	1.63256	1.55473	0.21747	1.82567
4475.000	1.59305	1.47725	0.24515	1.76406
4476.000	1.63059	1.43152	0.17398	1.71437
4477.000	1.64639	1.36592	0.11071	1.69848
4478.000	1.69182	1.56660	0.13444	1.86145
4479.000	1.62466	1.46928	0.10083	1.73028
4480.000	1.70762	1.56063	0.26689	1.74219
4481.000	1.59503	1.43552	0.20758	1.64480
4482.000	1.65627	1.41560	0.21747	1.65275
4483.000	1.69972	1.42153	0.28271	1.58913
4484.000	1.66614	1.39373	0.18386	1.56330
4485.000	1.68195	1.48116	0.21549	1.77201
4486.000	1.74515	1.47515	0.27480	1.78393
4487.000	1.79651	1.57446	0.33016	1.59907
4488.000	1.70960	1.44736	0.12257	1.74817
4489.000	1.71948	1.49306	0.22142	1.76207
4490.000	1.72343	1.52286	0.25701	1.68455
4491.000	1.74515	1.49105	0.30841	1.73821
4492.000	1.69380	1.51891	0.33609	1.69646
4493.000	1.69182	1.49506	0.27282	1.70641
4494.000	1.71553	1.46126	0.34004	1.68653
4495.000	1.78268	1.47910	0.26887	1.74020
4496.000	1.72540	1.57452	0.26492	1.70443
4497.000	1.78071	1.50493	0.25108	1.66070
4498.000	1.79651	1.49896	0.39144	1.49369
4499.000	1.76293	1.45924	0.22142	1.76605
4500.000	1.90513	1.51873	0.36179	1.75211
4501.000	1.77873	1.50493	0.18386	1.74618
4502.000	1.73923	1.50298	0.39342	1.66863
4503.000	1.73923	1.55067	0.22735	1.64877
4504.000	1.84193	1.54065	0.30446	1.67262
4505.000	1.75108	1.51092	0.26689	1.68654
4506.000	1.80441	1.55657	0.26689	1.69648
4507.000	1.64441	1.60241	0.25701	1.65076
4508.000	1.78861	1.50691	0.22933	1.58715
4509.000	1.76491	1.54667	0.22735	1.70642
4510.000	1.69577	1.47718	0.27876	1.61299
4511.000	1.77281	1.52878	0.29062	1.73622
4512.000	1.78071	1.58441	0.26492	1.63287
4513.000	1.76095	1.53674	0.34795	1.54141
4514.000	1.82021	1.53470	0.27876	1.56925
4515.000	1.79453	1.54466	0.27876	1.55335
4516.000	1.74515	1.45528	0.24317	1.59908
4517.000	1.74120	1.47317	0.31434	1.67858
4518.000	1.81823	1.45125	0.25108	1.65275
4519.000	1.80046	1.50889	0.18584	1.62294
4520.000	1.71158	1.49306	0.27282	1.58715
4521.000	1.76886	1.46321	0.40923	1.65272
4522.000	1.76886	1.46321	0.32620	1.71634
4523.000	1.74515	1.55464	0.35981	1.67857
4524.000	1.74120	1.52086	0.26294	1.61100
4525.000	1.80836	1.60227	0.24712	1.65076
4526.000	1.69775	1.56858	0.21945	1.73425
4527.000	1.78268	1.54070	0.34202	1.56129
4528.000	1.79256	1.46717	0.26096	1.58516
4529.000	1.72738	1.61824	0.31039	1.61696
4530.000	1.76886	1.53475	0.26096	1.64480
4531.000	1.77676	1.53474	0.38946	1.60104
4532.000	1.84588	1.70356	0.31039	1.59708
4533.000	1.73330	1.59836	0.24317	1.57721
4534.000	1.79058	1.49896	0.32422	1.51358
4535.000	1.70565	1.57255	0.26492	1.66666
4536.000	1.70170	1.61031	0.23922	1.64480
4537.000	1.68195	1.52687	0.33016	1.63683
4538.000	1.79058	1.63010	0.33806	1.64280
4539.000	1.75108	1.63212	0.23526	1.77996
4540.000	1.79651	1.66586	0.28666	1.49967
4541.000	1.87156	1.63201	0.34202	1.64677
4542.000	1.82613	1.68173	0.17991	1.63685
4543.000	1.82416	1.57643	0.18188	1.54939
4544.000	1.85773	1.62011	0.27282	1.67859
4545.000	1.74318	1.54669	0.29259	1.67858
4546.000	1.80243	1.53472	0.28271	1.63287
4547.000	1.91303	1.60615	0.20758	1.72033
4548.000	1.83996	1.51680	0.33806	1.55334
4549.000	1.84983	1.59429	0.22142	1.64679
4550.000	1.84193	1.63204	0.28666	1.52353
4551.000	1.71750	1.65997	0.34399	1.53545
4552.000	1.82021	1.61021	0.27480	1.54739
4553.000	1.76491	1.52084	0.25305	1.54739
4554.000	1.80046	1.50293	0.30248	1.57124
4555.000	1.74713	1.54271	0.20165	1.68853
4556.000	1.79453	1.59433	0.17002	1.63089
4557.000	1.89328	1.55053	0.31434	1.73026
4558.000	1.88341	1.57637	0.23724	1.72431
4559.000	1.82613	1.68570	0.21747	1.60107
4560.000	1.90710	1.73131	0.28271	1.59311
4561.000	1.83601	1.54462	0.32027	1.54937
4562.000	1.79256	1.49300	0.13641	1.54343
4563.000	1.75700	1.60231	0.17595	1.75015
4564.000	1.91303	1.51674	0.25701	1.59112
4565.000	1.77676	1.48506	0.25701	1.59709
4566.000	1.75503	1.56854	0.23131	1.62095
4567.000	1.76095	1.61026	0.25503	1.61697
4568.000	1.77873	1.48109	0.26887	1.58715
4569.000	1.75503	1.47514	0.27085	1.55335
4570.000	1.69182	1.57455	0.29655	1.65672
4571.000	1.84786	1.55256	0.28073	1.49769
4572.000	1.73528	1.57650	0.29259	1.58714
4573.000	1.73330	1.49702	0.36376	1.62093
4574.000	1.77676	1.46519	0.24515	1.55534
4575.000	1.77478	1.55064	0.29259	1.73026
4576.000	1.75503	1.52284	0.22735	1.69847
4577.000	1.72540	1.46722	0.37167	1.62888
4578.000	1.72540	1.40959	0.30841	1.73821
4579.000	1.75503	1.49303	0.29259	1.68256
4580.000	1.73133	1.44734	0.34004	1.66466
4581.000	1.73330	1.48510	0.27282	1.68256
4582.000	1.62071	1.52294	0.35190	1.65472
4583.000	1.68985	1.46128	0.25108	1.66865
4584.000	1.75898	1.48508	0.36574	1.63683
4585.000	1.83008	1.45720	0.28469	1.61696
4586.000	1.80836	1.55458	0.36969	1.60701
4587.000	1.69972	1.40364	0.19968	1.63884
4588.000	1.70565	1.50896	0.22538	1.53149
4589.000	1.76293	1.45725	0.15618	1.66071
4590.000	1.72935	1.44138	0.27282	1.54142
4591.000	1.79256	1.52678	0.33609	1.53148
4592.000	1.69380	1.46128	0.21945	1.61697
4593.000	1.80046	1.55062	0.26096	1.52552
4594.000	1.67009	1.39969	0.34597	1.64081
4595.000	1.73133	1.40163	0.38353	1.57918
4596.000	1.81231	1.45125	0.34004	1.55732
4597.000	1.80046	1.46318	0.34202	1.70243
4598.000	1.78663	1.47313	0.37563	1.63881
4599.000	1.76095	1.41155	0.22142	1.65275
4600.000	1.81231	1.36580	0.33016	1.51160
4601.000	1.80441	1.57247	0.37365	1.56129
4602.000	1.83206	1.47707	0.35981	1.53147
4603.000	1.78861	1.45127	0.30050	1.69249
4604.000	1.83798	1.42540	0.26492	1.47980
4605.000	1.75503	1.56854	0.32422	1.52750
4606.000	1.77478	1.50891	0.31434	1.59509
4607.000	1.85773	1.55454	0.24317	1.57920
4608.000	1.84786	1.43135	0.35190	1.49370
4609.000	1.77281	1.49898	0.30446	1.61298
4610.000	1.76886	1.51686	0.33609	1.37640
4611.000	1.87748	1.50684	0.38946	1.69248
4612.000	1.80638	1.52875	0.28864	1.58118
4613.000	1.81231	1.53670	0.26096	1.63486
4614.000	1.78663	1.52678	0.35783	1.53942
4615.000	1.82416	1.50688	0.31039	1.69647
4616.000	1.77676	1.67382	0.34597	1.68056
4617.000	1.83601	1.45123	0.32818	1.53943
4618.000	1.73133	1.41753	0.25701	1.69648
4619.000	1.79058	1.57248	0.35190	1.63087
4620.000	1.75305	1.49303	0.43098	1.56128
4621.000	1.72738	1.48709	0.41516	1.59706
4622.000	1.79651	1.43934	0.34597	1.62093
4623.000	1.70960	1.40761	0.20363	1.67263
4624.000	1.80243	1.45325	0.32225	1.76802
4625.000	1.75898	1.46123	0.40726	1.64875
4626.000	1.70367	1.39768	0.32225	1.68255
4627.000	1.80441	1.54465	0.37760	1.57123
4628.000	1.71553	1.46723	0.39144	1.65471
4629.000	1.71948	1.37581	0.38156	1.72428
4630.000	1.76095	1.47315	0.37563	1.63285
4631.000	1.70960	1.48114	0.32225	1.65671
4632.000	1.75700	1.45726	0.37365	1.66664
4633.000	1.73725	1.49304	0.30841	1.62292
4634.000	1.63849	1.46132	0.35190	1.71833
4635.000	1.59503	1.47725	0.42900	1.60899
4636.000	1.61478	1.46929	0.43493	1.51555
4637.000	1.63849	1.35798	0.49028	1.65072
4638.000	1.65232	1.43746	0.37167	1.59111
4639.000	1.69775	1.57057	0.31829	1.71038
4640.000	1.75305	1.44534	0.37563	1.65273
4641.000	1.59503	1.53886	0.34202	1.64677
4642.000	1.72540	1.46921	0.36772	1.56129
4643.000	1.70960	1.55268	0.27678	1.69051
4644.000	1.60293	1.58058	0.34795	1.70839
4645.000	1.64837	1.43945	0.32620	1.63485
4646.000	1.63849	1.50107	0.37563	1.64875
4647.000	1.68787	1.40564	0.39737	1.52152
4648.000	1.71948	1.44338	0.36574	1.58713
4649.000	1.65824	1.54676	0.36376	1.62888
4650.000	1.63454	1.37587	0.30248	1.83560
4651.000	1.60293	1.49116	0.35190	1.65870
4652.000	1.80638	1.50292	0.42900	1.75607
4653.000	1.71948	1.58049	0.45470	1.77395
4654.000	1.62861	1.53684	0.32225	1.76603
4655.000	1.67009	1.47918	0.31829	1.62690
4656.000	1.69380	1.56859	0.27282	1.70443
4657.000	1.68195	1.56065	0.32620	1.70640
4658.000	1.58515	1.58060	0.35783	1.71634
4659.000	1.65627	1.53086	0.47052	1.69644
4660.000	1.53971	1.57467	0.34004	1.69050
4661.000	1.68985	1.42750	0.41912	1.79781
4662.000	1.77873	1.53474	0.44086	1.66862
4663.000	1.73725	1.57451	0.43691	1.66862
4664.000	1.64244	1.48715	0.33016	1.72628
4665.000	1.68590	1.48116	0.38353	1.65471
4666.000	1.74318	1.38374	0.35586	1.65869
4667.000	1.61281	1.49314	0.47447	1.59506
4668.000	1.69775	1.59640	0.23526	1.65871
4669.000	1.68985	1.51494	0.34202	1.66068
4670.000	1.77281	1.50891	0.29259	1.78392
4671.000	1.74120	1.50099	0.34597	1.66068
4672.000	1.71355	1.51691	0.32818	1.64280
4673.000	1.84391	1.65389	0.35388	1.61695
4674.000	1.68392	1.54872	0.35388	1.67857
4675.000	1.80243	1.51683	0.37167	1.59309
4676.000	1.69380	1.50699	0.30446	1.76206
4677.000	1.77083	1.56455	0.31236	1.64280
4678.000	1.75503	1.55662	0.30446	1.75610
4679.000	1.83601	1.54462	0.37958	1.77795
4680.000	1.80836	1.53074	0.51598	1.73618
4681.000	1.79058	1.59434	0.33609	1.63087
4682.000	1.74120	1.46323	0.37563	1.66863
4683.000	1.79453	1.53472	0.36772	1.75807
4684.000	1.68590	1.48513	0.39342	1.67061
4685.000	1.81626	1.58835	0.21747	1.82965
4686.000	1.74120	1.53477	0.32027	1.67858
4687.000	1.73725	1.51689	0.36574	1.72627
4688.000	1.74910	1.48707	0.38749	1.68652
4689.000	1.82416	1.46317	0.30050	1.91111
4690.000	1.67009	1.41758	0.35586	1.69447
4691.000	1.67207	1.37584	0.37760	1.63683
4692.000	1.68195	1.43744	0.41714	1.79185
4693.000	1.69182	1.42154	0.24317	1.81971
4694.000	1.64244	1.40170	0.32225	1.90316
4695.000	1.71948	1.43940	0.32027	1.89919
4696.000	1.71750	1.30625	0.46854	1.76998
4697.000	1.62861	1.38183	0.33609	1.79584
4698.000	1.76688	1.50295	0.30446	1.75610
4699.000	1.64441	1.39176	0.21549	1.85548
4700.000	1.74318	1.38175	0.32422	1.76007
4701.000	1.67602	1.38776	0.30841	1.76603
4702.000	1.60096	1.35005	0.33213	1.78193
4703.000	1.75503	1.33206	0.44284	1.84153
4704.000	1.70960	1.39370	0.32422	1.74218
4705.000	1.67800	1.31224	0.33213	1.79783
4706.000	1.76095	1.33404	0.40528	1.72627
4707.000	1.64244	1.25661	0.43493	1.77992
4708.000	1.75305	1.26250	0.27282	1.82964
4709.000	1.76688	1.29230	0.26887	1.81573
4710.000	1.75898	1.25852	0.33411	1.82367
4711.000	1.81823	1.23860	0.25701	1.67064
4712.000	1.70367	1.23470	0.24712	1.92503
4713.000	1.78466	1.27241	0.35586	1.63683
4714.000	1.75503	1.27045	0.32818	1.92303
4715.000	1.75898	1.26249	0.36574	1.81174
4716.000	1.80836	1.33202	0.33016	1.79584
4717.000	1.80046	1.17899	0.28666	1.90913
4718.000	1.76095	1.32212	0.33411	1.75609
4719.000	1.72935	1.19891	0.31434	1.87932
4720.000	1.79453	1.33203	0.29259	1.79784
4721.000	1.72343	1.22873	0.34795	1.83161
4722.000	1.77281	1.18298	0.31632	1.82963
4723.000	1.79256	1.19489	0.33213	1.79386
4724.000	1.82218	1.22270	0.34993	1.85944
4725.000	1.75305	1.24858	0.46261	1.82563
4726.000	1.79848	1.12532	0.28469	1.88329
4727.000	1.69380	1.12737	0.36574	1.78590
4728.000	1.77873	1.14521	0.28666	1.79983
4729.000	1.79453	1.13924	0.42900	1.85743
4730.000	1.73725	1.07368	0.34202	1.86739
4731.000	1.78466	1.17701	0.31236	1.90118
4732.000	1.76688	1.12534	0.36179	1.89520
4733.000	1.84391	1.19685	0.30841	1.80777
4734.000	1.73923	1.13728	0.29259	1.95086
4735.000	1.79848	1.14122	0.39144	1.81571
4736.000	1.83206	1.11337	0.21549	1.88132
4737.000	1.84983	1.18094	0.29062	1.84554
4738.000	1.71158	1.04387	0.26492	1.85349
4739.000	1.86761	1.19087	0.23131	1.78791
4740.000	1.82218	1.16108	0.35783	1.81571
4741.000	1.60293	1.06182	0.28073	1.86541
4742.000	1.82021	1.18295	0.27085	1.78592
4743.000	1.83008	1.21276	0.29457	1.80777
4744.000	1.80441	1.17302	0.29062	1.87534
4745.000	1.81033	1.16904	0.34399	1.77597
4746.000	1.78268	1.21478	0.33609	1.82367
4747.000	1.74515	1.21082	0.31236	1.82566
4748.000	1.74910	1.24660	0.24910	1.91708
4749.000	1.67997	1.20888	0.33016	1.91707
4750.000	1.77083	1.17901	0.18584	1.73027
4751.000	1.81231	1.25848	0.28073	1.87336
4752.000	1.74910	1.23269	0.29852	1.73622
4753.000	1.78663	1.22074	0.33806	1.72827
4754.000	1.68392	1.21683	0.39342	1.70242
4755.000	1.80441	1.19489	0.21549	1.74021
4756.000	1.84786	1.33199	0.34795	1.72628
4757.000	1.68392	1.33608	0.30841	1.78392
4758.000	1.80836	1.36779	0.33016	1.80181
4759.000	1.79058	1.33799	0.23131	1.71636
4760.000	1.74910	1.26846	0.21945	1.72431
4761.000	1.77281	1.39763	0.22933	1.79785
4762.000	1.76688	1.32609	0.27085	1.73225
4763.000	1.70170	1.35992	0.29259	1.67461
4764.000	1.66614	1.28243	0.31829	1.86342
4765.000	1.66417	1.35597	0.31434	1.70243
4766.000	1.65232	1.56067	0.25108	1.81971
4767.000	1.58120	1.39776	0.15223	1.82767
4768.000	1.64046	1.32220	0.26492	1.69846
4769.000	1.70960	1.34600	0.37563	1.85148
4770.000	1.71158	1.40761	0.28469	1.76604
4771.000	1.60096	1.40769	0.36772	1.79782
4772.000	1.63256	1.44940	0.24712	1.81573
4773.000	1.70367	1.47518	0.22142	1.75213
4774.000	1.72540	1.54670	0.25305	1.88330
4775.000	1.73133	1.51491	0.23724	1.92503
4776.000	1.70960	1.44140	0.22340	1.77400
4777.000	1.73923	1.53278	0.28469	1.81771
4778.000	1.67207	1.43149	0.26492	1.81175
4779.000	1.65627	1.58451	0.38353	1.79583
4780.000	1.71750	1.52287	0.29457	1.89124
4781.000	1.63256	1.50107	0.27282	1.78194
4782.000	1.70960	1.43742	0.23131	2.02041
4783.000	1.64837	1.50503	0.30446	1.89720
4784.000	1.65232	1.48118	0.22933	1.90914
4785.000	1.61478	1.58852	0.35981	1.75211
4786.000	1.64639	1.41759	0.23724	2.01843
4787.000	1.69972	1.40563	0.29852	1.89323
4788.000	1.70565	1.43544	0.24119	1.96080
4789.000	1.60688	1.42358	0.25899	1.98862
4790.000	1.74515	1.53079	0.32027	1.97668
4791.000	1.67800	1.47918	0.34004	1.86341
4792.000	1.62664	1.46133	0.31039	1.96874
4793.000	1.59305	1.46135	0.34202	1.91707
4794.000	1.63059	1.52095	0.24515	1.88529
4795.000	1.54169	1.46338	0.26096	1.97868
4796.000	1.58120	1.47925	0.27876	1.91708
4797.000	1.52589	1.39383	0.41319	1.78191
4798.000	1.54959	1.58857	0.37167	1.96873
4799.000	1.60096	1.51501	0.40528	1.76403
4800.000	1.56145	1.55478	0.33213	1.87136
4801.000	1.58910	1.54482	0.39342	1.84353
4802.000	1.61873	1.41761	0.38946	1.99455
4803.000	1.64046	1.50504	0.37167	1.85744
4804.000	1.62269	1.37190	0.37760	1.81173
4805.000	1.63256	1.47921	0.28271	1.90714
4806.000	1.67404	1.58450	0.38353	1.89719
4807.000	1.56342	1.46535	0.38749	1.82167
4808.000	1.59898	1.46731	0.31632	1.84354
4809.000	1.52786	1.53891	0.32818	1.76404
4810.000	1.57330	1.58657	0.43691	1.86935
4811.000	1.59700	1.43949	0.29852	1.81970
4812.000	1.60293	1.45141	0.38353	1.85943
4813.000	1.51996	1.49320	0.31829	1.81373
4814.000	1.64441	1.49311	0.43098	1.80576
4815.000	1.52589	1.44550	0.38353	1.80378
4816.000	1.66417	1.55470	0.38551	1.73422
4817.000	1.60688	1.47128	0.35586	1.69050
4818.000	1.60688	1.47327	0.33411	1.76603
4819.000	1.67602	1.48912	0.28073	1.78790
4820.000	1.65034	1.42355	0.40528	1.72825
4821.000	1.66812	1.41162	0.40330	1.75807
4822.000	1.61281	1.45935	0.25108	1.74617
4823.000	1.64837	1.39971	0.28271	1.67660
4824.000	1.58515	1.39379	0.34004	1.62093
4825.000	1.65824	1.37585	0.42505	1.69446
4826.000	1.57132	1.32423	0.23131	1.66865
4827.000	1.53576	1.31431	0.31236	1.69647
4828.000	1.65824	1.40367	0.33609	1.74218
4829.000	1.60688	1.43352	0.37365	1.64478
