time (ms)	lx (deg)	ly (deg)	rx (deg)	ry (deg)
0.000	-0.31236	1.61895	-1.20975	1.54309
1.000	-0.32620	1.74019	-1.22160	1.69412
2.000	-0.41121	1.67856	-1.29669	1.69209
3.000	-0.39935	1.76403	-1.31250	1.60662
4.000	-0.37958	1.68453	-1.21963	1.54109
5.000	-0.31434	1.83361	-1.20777	1.62060
6.000	-0.41319	1.68651	-1.11489	1.50935
7.000	-0.29457	1.68256	-1.22160	1.53314
8.000	-0.30446	1.62889	-1.26310	1.56889
9.000	-0.28271	1.63684	-1.25322	1.71993
10.000	-0.25899	1.71635	-1.21172	1.50532
11.000	-0.28666	1.70840	-1.15837	1.65243
12.000	-0.35586	1.62689	-1.22160	1.58482
13.000	-0.44679	1.79781	-1.17022	1.55901
14.000	-0.46459	1.81370	-1.27298	1.54702
15.000	-0.28864	1.79784	-1.20579	1.64047
16.000	-0.31434	1.64479	-1.30064	1.67221
17.000	-0.36179	1.77596	-1.21370	1.59078
18.000	-0.35190	1.69249	-1.26705	1.51125
19.000	-0.26096	1.72232	-1.23939	1.60269
20.000	-0.22933	1.71636	-1.21172	1.51526
21.000	-0.20758	1.83164	-1.23346	1.47152
22.000	-0.26887	1.84554	-1.22555	1.52121
23.000	-0.27678	1.84355	-1.31250	1.48539
24.000	-0.38353	1.80974	-1.17813	1.58285
25.000	-0.32422	1.77796	-1.16232	1.62261
26.000	-0.26887	1.72629	-1.18208	1.58285
27.000	-0.25503	1.83362	-1.15639	1.43578
28.000	-0.36376	1.78590	-1.14453	1.48548
29.000	-0.28271	1.76206	-1.17813	1.50733
30.000	-0.33213	1.79584	-1.14848	1.56498
31.000	-0.36969	1.74814	-1.17418	1.51925
32.000	-0.43889	1.72228	-1.19196	1.49738
33.000	-0.37958	1.80378	-1.18998	1.55502
34.000	-0.36969	1.75012	-1.20579	1.46557
35.000	-0.33411	1.68056	-1.12279	1.53121
36.000	-0.23329	1.76406	-1.13860	1.46958
37.000	-0.32620	1.74814	-1.19987	1.40197
38.000	-0.20561	1.80182	-1.18208	1.47950
39.000	-0.26492	1.87734	-1.16627	1.52125
40.000	-0.22933	1.79785	-1.23148	1.56295
41.000	-0.24712	1.88529	-1.19987	1.50930
42.000	-0.35190	1.71236	-1.21567	1.42184
43.000	-0.28271	1.82169	-1.24136	1.51325
44.000	-0.29259	1.80181	-1.27693	1.50926
45.000	-0.33016	1.64478	-1.18010	1.42782
46.000	-0.36969	1.77596	-1.18010	1.52323
47.000	-0.29655	1.83361	-1.16034	1.49342
48.000	-0.37760	1.83956	-1.11094	1.37815
49.000	-0.26096	1.90715	-1.16627	1.49541
50.000	-0.21747	1.75015	-1.16429	1.55504
51.000	-0.19968	1.85151	-1.20777	1.61464
52.000	-0.22933	1.82567	-1.10501	1.49743
53.000	-0.26096	1.74219	-1.10501	1.46562
54.000	-0.33016	1.66466	-1.20184	1.51526
55.000	-0.28666	1.83560	-1.19591	1.52719
56.000	-0.27282	1.81970	-1.20184	1.51129
57.000	-0.35783	1.74019	-1.17022	1.57690
58.000	-0.40330	1.81769	-1.18010	1.42185
59.000	-0.24119	1.72033	-1.20382	1.50532
60.000	-0.24910	1.84355	-1.09908	1.55905
61.000	-0.35586	1.77000	-1.08722	1.36624
62.000	-0.24119	1.78791	-1.16429	1.41789
63.000	-0.23131	1.81971	-1.16429	1.47951
64.000	-0.28469	1.76803	-1.04374	1.47559
65.000	-0.25899	1.87535	-1.16627	1.60274
66.000	-0.17991	1.78394	-1.18208	1.53515
67.000	-0.18188	1.93696	-1.19196	1.39601
68.000	-0.25108	1.86144	-1.12477	1.50338
69.000	-0.20363	1.76207	-1.08327	1.44774
70.000	-0.25701	1.90118	-1.14256	1.41790
71.000	-0.31829	1.76603	-1.14453	1.44175
72.000	-0.33213	1.80181	-1.07536	1.32648
73.000	-0.37760	1.76205	-1.25322	1.45759
74.000	-0.24317	1.65076	-1.11884	1.51133
75.000	-0.29852	1.68454	-1.11291	1.36225
76.000	-0.24119	1.67660	-1.19394	1.47552
77.000	-0.36772	1.74814	-1.18010	1.48546
78.000	-0.35783	1.84155	-1.21963	1.51923
79.000	-0.36969	1.79584	-1.16825	1.56298
80.000	-0.38551	1.79782	-1.17022	1.44770
81.000	-0.42307	1.73620	-1.11094	1.48947
82.000	-0.45075	1.69644	-1.17813	1.51329
83.000	-0.29852	1.87932	-1.18010	1.57689
84.000	-0.36376	1.83360	-1.16627	1.53715
85.000	-0.42307	1.70440	-1.22160	1.42780
86.000	-0.35586	1.83757	-1.15639	1.49144
87.000	-0.40330	1.82365	-1.15244	1.39404
88.000	-0.45470	1.84749	-1.09710	1.40798
89.000	-0.40133	1.85346	-1.14453	1.41591
90.000	-0.45865	1.67656	-1.16034	1.44969
91.000	-0.48040	1.83953	-1.10303	1.61867
92.000	-0.38551	1.82763	-1.18998	1.47154
93.000	-0.38946	1.88327	-1.26310	1.45560
94.000	-0.43889	1.87929	-1.10896	1.48550
95.000	-0.40330	1.89122	-1.12279	1.45965
96.000	-0.39342	1.85545	-1.18406	1.51527
97.000	-0.44679	1.83159	-1.14848	1.45964
98.000	-0.61087	1.74012	-1.22160	1.47749
99.000	-0.47052	1.81569	-1.15837	1.45764
100.000	-0.42900	1.78787	-1.12477	1.48151
101.000	-0.44679	1.81569	-1.09710	1.46960
102.000	-0.47447	1.72426	-1.07141	1.34438
103.000	-0.47249	1.80575	-0.91923	1.41203
104.000	-0.37760	1.65869	-0.93504	1.47365
105.000	-0.35388	1.71634	-0.86784	1.49356
106.000	-0.26096	1.68256	-0.76110	1.49757
107.000	-0.16607	1.78792	-0.73738	1.47174
108.000	-0.03361	1.60903	-0.65634	1.27891
109.000	0.04349	1.65674	-0.46656	1.43205
110.000	0.05931	1.56728	-0.36772	1.13580
111.000	0.18188	1.54740	-0.35190	1.20341
112.000	0.24712	1.48974	-0.25899	1.15569
113.000	0.28073	1.37442	-0.13048	1.14775
114.000	0.28864	1.21535	-0.13641	0.99859
115.000	0.34399	1.25710	-0.17793	0.94688
116.000	0.30248	1.21932	-0.14234	1.01450
117.000	0.28073	1.29489	-0.10280	0.86534
118.000	0.28469	1.25114	-0.15421	0.91307
119.000	0.33016	1.26307	-0.05536	0.73804
120.000	0.32422	1.12586	0.00000	0.79771
121.000	0.36772	1.16165	-0.06920	0.75196
122.000	0.40726	1.16363	-0.00593	0.83153
123.000	0.30446	1.09006	-0.08699	0.77185
124.000	0.25899	1.12189	-0.04152	0.70422
125.000	0.26689	1.12388	-0.04547	0.74003
126.000	0.37167	1.09205	-0.23922	0.86334
127.000	0.32818	1.13978	-0.15025	0.71815
128.000	0.38156	1.11193	-0.27876	0.82157
129.000	0.35388	1.20341	-0.12257	0.90114
130.000	0.33411	1.21932	-0.11862	0.95484
131.000	0.38551	1.15568	-0.24317	0.99660
132.000	0.40330	1.37838	-0.17595	0.91307
133.000	0.53180	1.38631	-0.20363	0.97273
134.000	0.46261	1.26503	-0.19572	1.04632
135.000	0.47645	1.27696	-0.15816	0.93296
136.000	0.42109	1.21732	-0.16607	0.99660
137.000	0.43691	1.30083	-0.14037	0.85340
138.000	0.44679	1.21533	-0.07908	0.82755
139.000	0.53575	1.17355	-0.27480	0.99461
140.000	0.56145	1.25507	-0.15618	1.01251
141.000	0.42307	1.18153	-0.10676	0.91108
142.000	0.53180	1.14372	-0.14827	0.85738
143.000	0.52587	1.15168	-0.10874	0.82954
144.000	0.52389	1.20139	-0.15025	0.90909
145.000	0.42900	1.23124	-0.11467	0.81561
146.000	0.41714	1.18749	-0.15816	0.87727
147.000	0.49226	1.14771	-0.18781	0.77782
148.000	0.53575	1.14372	-0.17595	0.91108
149.000	0.46656	1.16760	-0.07710	0.80965
150.000	0.47052	1.20140	-0.08303	0.89119
151.000	0.52191	1.16560	-0.09687	0.76390
152.000	0.45272	1.08209	-0.05536	0.88722
153.000	0.51598	1.19145	-0.13641	0.90313
154.000	0.61680	1.19342	-0.04745	0.86733
155.000	0.48435	1.11987	-0.07117	0.81760
156.000	0.51005	1.19742	-0.16804	0.88920
157.000	0.52191	1.16162	-0.17200	0.79970
158.000	0.55552	1.20536	-0.14037	0.82755
159.000	0.50610	1.08009	-0.18781	0.84743
160.000	0.52587	1.19344	-0.19572	0.88522
161.000	0.55947	1.14173	-0.06524	0.91904
162.000	0.52982	1.18350	-0.12850	0.80368
163.000	0.61285	1.19342	-0.15025	0.87727
164.000	0.49819	1.15367	-0.20165	0.76986
165.000	0.59703	1.21132	-0.07908	0.85340
166.000	0.53773	1.14969	-0.11664	0.78975
167.000	0.47447	1.18549	-0.08303	0.85340
168.000	0.47447	1.18947	-0.08897	0.89318
169.000	0.46063	1.17555	-0.08699	0.82755
170.000	0.51203	1.11987	-0.14037	0.84744
171.000	0.67413	1.14171	-0.11269	0.86932
172.000	0.51005	1.18748	-0.11467	0.85340
173.000	0.51005	1.18947	-0.05931	0.85738
174.000	0.52587	1.07015	-0.10280	0.84147
175.000	0.65238	1.15961	-0.11071	0.82158
176.000	0.48435	1.04430	-0.06722	0.78777
177.000	0.51994	1.05026	-0.13444	0.80766
178.000	0.47052	1.21532	-0.16409	0.86534
179.000	0.57529	1.11389	-0.17793	0.82158
180.000	0.52389	1.04032	-0.17002	0.89915
181.000	0.52784	1.05225	-0.09292	0.76191
182.000	0.45075	1.00652	-0.14432	0.90909
183.000	0.47645	1.12783	-0.09490	0.85937
184.000	0.50412	1.11191	-0.09490	0.80169
185.000	0.49819	0.99060	-0.12257	0.74599
186.000	0.51203	1.15168	-0.14432	0.86931
187.000	0.45865	1.12584	-0.09490	0.86335
188.000	0.45075	1.03834	-0.07315	0.85738
189.000	0.47052	1.02044	-0.07908	0.81561
190.000	0.47249	1.11788	-0.15816	0.90313
191.000	0.36179	1.14574	-0.10083	0.97672
192.000	0.37958	1.08210	-0.12653	0.85738
193.000	0.47645	1.19544	-0.12257	0.85937
194.000	0.50412	1.12384	-0.09490	0.83550
195.000	0.39935	1.08409	-0.19177	0.91108
196.000	0.47645	1.08408	-0.17200	0.86732
197.000	0.37760	1.07614	-0.17200	0.87528
198.000	0.37958	1.10199	-0.07513	0.78578
199.000	0.49622	1.06618	-0.03361	0.84545
200.000	0.38353	1.08210	-0.14037	0.83351
201.000	0.44086	1.14772	-0.22142	0.82157
202.000	0.43098	1.14175	-0.10676	0.79572
203.000	0.46459	1.00055	-0.13641	0.78379
204.000	0.42900	1.06420	-0.28073	0.89119
205.000	0.43691	1.15965	-0.12653	0.83948
206.000	0.39737	1.02840	-0.17991	0.78975
207.000	0.45470	1.05226	-0.11467	0.80965
208.000	0.42505	1.08806	-0.20956	0.91705
209.000	0.51796	1.04231	-0.19572	0.77185
210.000	0.46261	1.02839	-0.09687	0.79771
211.000	0.40726	1.06619	-0.09292	0.80169
212.000	0.45668	1.12584	-0.12257	0.78379
213.000	0.45865	1.09999	-0.12257	0.80169
214.000	0.48633	1.10595	-0.10083	0.73804
215.000	0.44877	1.09601	-0.14037	0.84744
216.000	0.37958	1.13182	-0.07710	0.70224
217.000	0.47842	1.08408	-0.13048	0.76191
218.000	0.39737	1.04431	-0.07908	0.77583
219.000	0.31434	1.07415	-0.08897	0.81163
220.000	0.44482	1.01646	-0.12653	0.73605
221.000	0.48040	1.12981	-0.21352	0.75594
222.000	0.34202	0.98068	-0.11467	0.64256
223.000	0.47249	0.97867	-0.16211	0.78379
224.000	0.42307	1.08607	-0.11071	0.76788
225.000	0.37365	0.95880	-0.11269	0.74600
226.000	0.41912	1.01647	-0.11467	0.76390
227.000	0.46854	1.12584	-0.13444	0.70820
228.000	0.41912	0.96874	-0.10874	0.75196
229.000	0.36969	1.05625	-0.15618	0.74202
230.000	0.38551	1.09602	-0.12653	0.66842
231.000	0.34202	1.08409	-0.16014	0.65847
232.000	0.42702	1.06420	-0.14630	0.82357
233.000	0.42900	1.04033	-0.10083	0.74798
234.000	0.41121	1.09801	-0.23329	0.72013
235.000	0.42307	1.02045	-0.11071	0.67041
236.000	0.35783	1.05028	-0.17200	0.73008
237.000	0.38353	1.07017	-0.12850	0.77384
238.000	0.39737	1.09403	-0.16804	0.67240
239.000	0.34597	1.05824	-0.14234	0.81163
240.000	0.34795	1.04432	-0.16804	0.73008
241.000	0.47249	1.02243	-0.08699	0.74003
242.000	0.41912	1.08408	-0.14827	0.74202
243.000	0.39342	1.10199	-0.10874	0.76589
244.000	0.47052	1.17356	-0.10676	0.72014
245.000	0.45075	1.08209	-0.13839	0.68433
246.000	0.48831	1.06021	-0.05931	0.74799
247.000	0.38946	1.14772	-0.15025	0.77384
248.000	0.36376	1.04034	-0.08699	0.74003
249.000	0.43296	1.08806	-0.11664	0.87329
250.000	0.46063	1.00851	-0.15223	0.82158
251.000	0.47842	1.20140	-0.11071	0.86335
252.000	0.34202	1.21136	-0.12257	0.74798
253.000	0.48633	1.09203	-0.13839	0.86335
254.000	0.41912	1.11391	-0.04152	0.66643
255.000	0.44284	1.23919	-0.01582	0.76788
256.000	0.41912	1.14971	-0.12455	0.74997
257.000	0.48238	1.21333	0.03163	0.85539
258.000	0.41912	1.10596	-0.05931	0.72611
259.000	0.45470	1.12783	-0.15618	0.71616
260.000	0.41714	1.20937	-0.13444	0.75594
261.000	0.43493	1.13380	0.00000	0.76987
262.000	0.42702	1.14971	-0.12060	0.71815
263.000	0.35190	1.23125	-0.04943	0.73605
264.000	0.36574	1.14574	-0.06326	0.64654
265.000	0.36376	1.13779	-0.09885	0.72809
266.000	0.31829	1.09802	-0.19770	0.70422
267.000	0.34399	1.09205	-0.11071	0.74798
268.000	0.35586	1.18352	-0.01779	0.77981
269.000	0.28073	1.19149	-0.05338	0.64455
270.000	0.24712	1.14973	-0.05536	0.73804
271.000	0.36969	1.17756	-0.09094	0.69428
272.000	0.30841	1.05228	-0.17200	0.83152
273.000	0.31829	1.16364	-0.07315	0.77384
274.000	0.30446	1.12586	-0.07315	0.72610
275.000	0.31829	1.22728	-0.15025	0.78180
276.000	0.36772	1.18551	-0.01779	0.79175
277.000	0.23526	1.15570	-0.10478	0.73605
278.000	0.42900	1.26504	-0.19968	0.87329
279.000	0.28073	1.18751	-0.02768	0.86335
280.000	0.28864	1.22131	-0.09490	0.89716
281.000	0.27282	1.11592	-0.04745	0.64654
282.000	0.27085	1.17359	-0.10874	0.75992
283.000	0.29062	1.18353	-0.08897	0.84545
284.000	0.37563	1.15966	-0.04547	0.77981
285.000	0.31434	1.19745	-0.18188	0.76389
286.000	0.34202	1.11392	-0.12653	0.81561
287.000	0.35586	1.15171	-0.07513	0.78777
288.000	0.40133	1.18749	-0.16211	0.83550
289.000	0.27085	1.18950	-0.00395	0.62665
290.000	0.27678	1.17757	-0.00989	0.77782
291.000	0.27085	1.13183	-0.07513	0.85738
292.000	0.38749	1.23522	-0.13246	0.74798
293.000	0.37563	1.20937	-0.04152	0.73605
294.000	0.32620	1.17358	-0.07908	0.67837
295.000	0.30643	1.13779	-0.12850	0.77185
296.000	0.22142	1.04035	-0.03163	0.81561
297.000	0.30841	1.20341	-0.05733	0.74799
298.000	0.28864	1.19347	0.00395	0.75992
299.000	0.28271	1.23921	-0.00791	0.78777
300.000	0.34004	1.20142	-0.10083	0.72213
301.000	0.23724	1.21336	-0.03361	0.75594
302.000	0.21945	1.16763	-0.01779	0.74997
303.000	0.27678	1.24915	-0.01582	0.70224
304.000	0.27876	1.07813	-0.07908	0.75992
305.000	0.29457	1.28693	-0.12850	0.71218
306.000	0.17200	1.22530	-0.06920	0.70224
307.000	0.21549	1.19149	-0.01186	0.74401
308.000	0.23131	1.10797	0.00593	0.70025
309.000	0.21549	1.31080	-0.02372	0.71019
310.000	0.25899	1.24319	-0.06326	0.76589
311.000	0.24910	1.26506	-0.12653	0.59283
312.000	0.29457	1.26705	-0.07908	0.79174
313.000	0.20758	1.28098	-0.04745	0.76987
314.000	0.20956	1.31875	-0.13444	0.78975
315.000	0.26887	1.19348	-0.04745	0.80169
316.000	0.29457	1.25114	0.02175	0.81561
317.000	0.28073	1.22728	-0.03756	0.83550
318.000	0.34004	1.22131	-0.04745	0.66643
319.000	0.26096	1.29091	-0.09490	0.77583
320.000	0.24515	1.17956	-0.10874	0.72014
321.000	0.29259	1.26108	-0.06326	0.74003
322.000	0.28271	1.24716	-0.10478	0.67240
323.000	0.32818	1.23523	-0.07315	0.79771
324.000	0.25899	1.27103	0.02175	0.75594
325.000	0.22340	1.25314	-0.06722	0.76589
326.000	0.22538	1.20939	-0.03756	0.62068
327.000	0.22538	1.24916	-0.01186	0.79175
328.000	0.28666	1.24319	0.00000	0.73605
329.000	0.33411	1.18353	-0.06722	0.78379
330.000	0.25899	1.24916	-0.07315	0.70422
331.000	0.24712	1.38437	-0.04943	0.65847
332.000	0.20956	1.25314	-0.10280	0.80965
333.000	0.27678	1.31079	-0.07908	0.73207
334.000	0.25503	1.32670	-0.13048	0.74997
335.000	0.19572	1.18951	-0.08501	0.57493
336.000	0.24515	1.25313	-0.00989	0.70025
337.000	0.22340	1.24319	-0.00989	0.63460
338.000	0.30248	1.30483	-0.05931	0.84147
339.000	0.23922	1.23325	-0.11071	0.66842
340.000	0.26294	1.23126	-0.05931	0.62864
341.000	0.26492	1.23524	-0.05140	0.61272
342.000	0.23724	1.24717	0.03756	0.65847
343.000	0.20165	1.25513	-0.11467	0.70621
344.000	0.08897	1.20343	-0.11862	0.73207
345.000	0.19572	1.13780	-0.07315	0.67439
346.000	0.21747	1.30086	-0.05140	0.64455
347.000	0.28469	1.18950	-0.00198	0.67837
348.000	0.27282	1.21734	-0.05338	0.50729
349.000	0.26294	1.29091	-0.04547	0.62864
350.000	0.25305	1.19745	-0.01779	0.68036
351.000	0.20363	1.37642	0.01779	0.63460
352.000	0.27678	1.28097	-0.01779	0.63858
353.000	0.20956	1.32671	-0.09687	0.65847
354.000	0.27085	1.31875	-0.12653	0.67439
355.000	0.19375	1.26308	-0.05140	0.62466
356.000	0.25701	1.15768	-0.08897	0.73207
357.000	0.26887	1.25711	-0.03163	0.78180
358.000	0.15025	1.16763	-0.11071	0.65648
359.000	0.27678	1.28097	-0.00791	0.64256
360.000	0.14234	1.31677	-0.05140	0.54708
361.000	0.28073	1.29290	-0.16804	0.75793
362.000	0.27282	1.29489	0.00593	0.58090
363.000	0.11862	1.23723	-0.08897	0.64256
364.000	0.19770	1.35455	-0.05140	0.53315
365.000	0.10676	1.21138	-0.03756	0.63460
366.000	0.15816	1.19150	-0.12060	0.65847
367.000	0.09094	1.24718	-0.09687	0.65251
368.000	0.03559	1.39034	-0.09094	0.57493
369.000	0.16014	1.40624	-0.07710	0.80169
370.000	0.15618	1.32870	-0.04349	0.69030
371.000	0.24317	1.36448	0.05536	0.70025
372.000	0.22142	1.24916	0.08303	0.56697
373.000	0.38749	1.27698	0.20956	0.68632
374.000	0.33411	1.21932	0.36179	0.49336
375.000	0.35190	1.20540	0.37958	0.55502
376.000	0.44086	1.11391	0.42109	0.48938
377.000	0.41714	1.09602	0.56540	0.40781
378.000	0.49226	1.02640	0.66029	0.37796
379.000	0.58517	1.04031	0.62471	0.24270
380.000	0.59901	0.94286	0.57133	0.32824
381.000	0.66820	1.06217	0.68006	0.21285
382.000	0.58913	0.99457	0.68401	0.22877
383.000	0.69785	1.03830	0.55157	0.15517
384.000	0.51005	0.95878	0.55354	0.11140
385.000	0.49622	1.05027	0.60889	0.15716
386.000	0.56540	1.02042	0.58122	0.16710
387.000	0.51401	1.13180	0.56540	0.23474
388.000	0.48831	1.11589	0.50808	0.14920
389.000	0.58913	0.99258	0.53773	0.18103
390.000	0.61878	1.19541	0.48831	0.32426
391.000	0.54761	1.05622	0.42109	0.25265
392.000	0.59308	1.11786	0.51203	0.13329
393.000	0.59703	1.01445	0.42900	0.36405
394.000	0.53378	0.98861	0.47052	0.34416
395.000	0.63064	1.17154	0.52389	0.34018
396.000	0.53575	1.10196	0.46854	0.29045
397.000	0.47645	1.00254	0.43296	0.35212
398.000	0.49622	0.99458	0.51598	0.28050
399.000	0.54366	1.18349	0.50610	0.21684
400.000	0.59901	1.01246	0.52191	0.38991
401.000	0.54564	1.01844	0.47249	0.37002
402.000	0.52784	1.06816	0.46459	0.32029
403.000	0.63064	1.02041	0.52982	0.31829
404.000	0.46656	1.02442	0.46656	0.30835
405.000	0.66424	1.03433	0.42505	0.30437
406.000	0.57529	0.99457	0.47842	0.24469
407.000	0.49424	1.07612	0.58715	0.23275
408.000	0.54959	0.99656	0.58122	0.31431
409.000	0.56343	1.08605	0.48633	0.26061
410.000	0.49819	0.98663	0.52982	0.20490
411.000	0.49226	0.97469	0.51994	0.19297
412.000	0.51005	0.98861	0.49028	0.14323
413.000	0.61680	1.14768	0.51796	0.26259
414.000	0.60692	1.09400	0.45668	0.26260
415.000	0.53378	1.17753	0.48633	0.32625
416.000	0.57331	1.13775	0.53575	0.29442
417.000	0.56540	1.02639	0.48435	0.32028
418.000	0.61482	1.11985	0.42307	0.33023
419.000	0.56540	1.04827	0.44284	0.36803
420.000	0.58320	1.04627	0.48040	0.31631
421.000	0.49028	1.01049	0.49819	0.26856
422.000	0.58122	1.04826	0.57727	0.30834
423.000	0.53378	1.04429	0.43889	0.32228
424.000	0.58122	1.00451	0.52389	0.23474
425.000	0.53180	1.00054	0.52191	0.34018
426.000	0.56738	1.09599	0.45075	0.29244
427.000	0.51994	1.13975	0.43296	0.29244
428.000	0.49028	1.10595	0.53773	0.24668
429.000	0.58122	1.07014	0.42900	0.29443
430.000	0.53971	1.10196	0.41516	0.28448
431.000	0.57727	1.10593	0.45272	0.22480
432.000	0.61680	1.09996	0.50610	0.26259
433.000	0.62075	1.11984	0.44284	0.23276
434.000	0.60494	1.13973	0.48633	0.34416
435.000	0.53378	1.15367	0.56145	0.30238
436.000	0.60692	1.00649	0.40726	0.32427
437.000	0.53575	0.94486	0.51598	0.14721
438.000	0.53378	1.05623	0.43889	0.19297
439.000	0.55750	1.07213	0.55947	0.23872
440.000	0.58715	1.03036	0.48435	0.38593
441.000	0.59901	1.12979	0.46854	0.26458
442.000	0.55552	1.15565	0.45668	0.30039
443.000	0.58517	1.11389	0.46063	0.30437
444.000	0.49226	1.11987	0.50412	0.21684
445.000	0.57529	1.01446	0.37167	0.39389
446.000	0.56540	1.10395	0.51994	0.35609
447.000	0.57727	1.08605	0.51994	0.27851
448.000	0.51203	1.07612	0.42109	0.28050
449.000	0.45668	1.07215	0.37958	0.18700
450.000	0.49622	1.17953	0.43296	0.21883
451.000	0.57529	1.09002	0.46854	0.26458
452.000	0.55750	1.15366	0.45668	0.21684
453.000	0.57727	1.14570	0.50808	0.31630
454.000	0.57331	1.15167	0.55157	0.17705
455.000	0.67215	1.08205	0.51994	0.25861
456.000	0.61680	1.11786	0.49622	0.21883
457.000	0.52982	1.00253	0.53575	0.20291
458.000	0.54366	1.08009	0.46063	0.21684
459.000	0.54959	1.03832	0.50808	0.21485
460.000	0.57727	1.07014	0.52982	0.26657
461.000	0.58320	1.20536	0.46063	0.32426
462.000	0.41319	1.07016	0.42702	0.20093
463.000	0.55947	1.13974	0.44482	0.20292
464.000	0.53971	1.13179	0.45865	0.36803
465.000	0.57529	1.11389	0.48435	0.18103
466.000	0.45470	1.12584	0.46063	0.24867
467.000	0.56738	1.16559	0.50215	0.23076
468.000	0.51005	1.06021	0.46459	0.23673
469.000	0.56540	1.11986	0.46261	0.24469
470.000	0.45470	1.08607	0.49028	0.14920
471.000	0.51005	1.12782	0.43098	0.33023
472.000	0.48040	1.05226	0.40330	0.31631
473.000	0.54564	1.20338	0.43493	0.21485
474.000	0.46854	1.06817	0.52587	0.29840
475.000	0.45865	1.04629	0.47249	0.30835
476.000	0.51994	1.07810	0.54168	0.24270
477.000	0.55157	1.12781	0.51401	0.20291
478.000	0.44482	1.09402	0.50017	0.22679
479.000	0.41912	1.02045	0.41121	0.27453
480.000	0.42702	1.11789	0.43889	0.24071
481.000	0.35388	1.05227	0.54366	0.23474
482.000	0.33609	1.00653	0.53180	0.29641
483.000	0.39342	1.05824	0.48831	0.12732
484.000	0.48435	0.99259	0.48831	0.23275
485.000	0.38156	1.05824	0.41714	0.24469
486.000	0.39539	1.08608	0.49424	0.18700
487.000	0.45865	1.00254	0.43296	0.16512
488.000	0.43098	1.07613	0.51598	0.20291
489.000	0.42109	1.03437	0.39342	0.24668
490.000	0.51203	1.08407	0.44679	0.14323
491.000	0.44284	1.07016	0.49226	0.20689
492.000	0.50412	0.92099	0.51598	0.10743
493.000	0.52982	1.13577	0.35783	0.11141
494.000	0.44679	1.11789	0.42505	0.19894
495.000	0.51994	1.05026	0.44086	0.21684
496.000	0.38749	0.95880	0.51005	0.10941
497.000	0.44482	1.01448	0.40528	0.21485
498.000	0.47645	0.98265	0.43098	0.14920
499.000	0.41319	1.08409	0.46261	0.15915
500.000	0.49424	1.10396	0.42505	0.16711
501.000	0.40528	0.96476	0.50412	0.08554
502.000	0.46063	1.03834	0.47052	0.20093
503.000	0.43098	1.05823	0.44086	0.14522
504.000	0.46854	0.89315	0.43493	0.22480
505.000	0.49424	0.99458	0.52389	0.15915
506.000	0.45470	1.07016	0.61482	0.20490
507.000	0.46261	1.07413	0.46459	-0.10743
508.000	0.45668	1.07016	0.47447	0.13528
509.000	0.37167	1.04233	0.47645	0.21286
510.000	0.42109	1.01647	0.55552	0.12732
511.000	0.39737	0.99062	0.41714	0.10146
512.000	0.50412	1.04430	0.51203	0.13528
513.000	0.46656	1.00254	0.49028	0.17904
514.000	0.33213	1.04432	0.56738	0.18501
515.000	0.34202	1.08211	0.52389	0.15318
516.000	0.42505	0.96277	0.52587	0.24668
517.000	0.33806	1.02046	0.44679	0.22480
518.000	0.38749	0.98863	0.53575	0.07560
519.000	0.28864	0.97870	0.57727	0.13726
520.000	0.36772	1.06023	0.51005	0.16114
521.000	0.34399	1.04432	0.54366	0.10345
522.000	0.30050	1.11791	0.42900	0.27652
523.000	0.35586	1.02244	0.54168	0.13726
524.000	0.35388	1.10199	0.56540	0.21286
525.000	0.36376	1.02045	0.56936	0.15915
526.000	0.35190	1.08210	0.56936	0.12135
527.000	0.35783	1.05028	0.51994	0.03979
528.000	0.36574	1.00653	0.57727	0.20092
529.000	0.38749	1.15369	0.55750	0.15318
530.000	0.25503	1.06223	0.54761	0.14323
531.000	0.39737	1.07414	0.54959	0.21087
532.000	0.35981	1.12983	0.51401	0.21087
533.000	0.31434	1.13183	0.52389	0.26458
534.000	0.41714	1.00851	0.48633	0.30039
535.000	0.41714	1.14772	0.52191	0.30039
536.000	0.37760	1.10398	0.50808	0.30437
537.000	0.36574	1.04631	0.63855	0.16312
538.000	0.43889	1.12783	0.53773	0.16313
539.000	0.46656	1.18947	0.46854	0.28647
540.000	0.40133	1.06619	0.46261	0.16114
541.000	0.37563	1.16165	0.51994	0.22877
542.000	0.38353	1.02841	0.44086	0.35609
543.000	0.38353	1.04630	0.52587	0.30835
544.000	0.34795	1.08210	0.49424	0.26259
545.000	0.35190	1.18154	0.52191	0.31829
546.000	0.37760	1.22130	0.50808	0.32625
547.000	0.43691	1.06618	0.47249	0.31233
548.000	0.41319	1.11392	0.44877	0.31631
549.000	0.47249	1.20936	0.49424	0.20888
550.000	0.37760	1.14972	0.52982	0.27652
551.000	0.30643	1.11989	0.56540	0.27254
552.000	0.42900	1.17755	0.45865	0.31432
553.000	0.37365	1.15767	0.51796	0.27254
554.000	0.41516	1.02244	0.51994	0.16114
555.000	0.35388	1.17358	0.47842	0.30636
556.000	0.37563	1.22329	0.49226	0.33222
557.000	0.45865	1.11590	0.42505	0.29244
558.000	0.37760	1.18551	0.51005	0.24071
559.000	0.39935	1.25113	0.49424	0.30636
560.000	0.43493	1.14175	0.55750	0.31033
561.000	0.39935	1.14574	0.44877	0.33620
562.000	0.39144	1.15966	0.51401	0.25265
563.000	0.34795	1.13978	0.60296	0.21684
564.000	0.34202	1.08608	0.51401	0.25265
565.000	0.43296	1.20539	0.52587	0.28845
566.000	0.32818	1.14574	0.64250	0.26657
567.000	0.31039	1.07018	0.56540	0.19893
568.000	0.44877	1.23123	0.49424	0.14323
569.000	0.34399	1.21335	0.50610	0.35211
570.000	0.34004	1.06421	0.54366	0.19893
571.000	0.28271	1.17558	0.55750	0.19098
572.000	0.37365	1.17756	0.50215	0.26259
573.000	0.34004	1.17358	0.62471	0.18103
574.000	0.35388	1.09006	0.44482	0.34615
575.000	0.31236	1.08609	0.55354	0.15915
576.000	0.42702	1.20738	0.49226	0.15915
577.000	0.35586	1.12387	0.48435	0.30636
578.000	0.24712	1.17359	0.49424	0.25464
579.000	0.38551	1.23522	0.53180	0.24270
580.000	0.39342	1.13182	0.52784	0.34813
581.000	0.32027	1.13182	0.55947	0.26657
582.000	0.31829	1.07216	0.54168	0.24867
583.000	0.33213	1.11790	0.52587	0.21286
584.000	0.34993	1.19744	0.61680	0.22877
585.000	0.40330	1.14375	0.58913	0.37001
586.000	0.39144	1.15170	0.38946	0.37400
587.000	0.38551	1.15170	0.45075	0.36803
588.000	0.37563	1.34657	0.61680	0.21485
589.000	0.36179	1.17159	0.51203	0.24270
590.000	0.30446	1.22728	0.62471	0.38393
591.000	0.34993	1.20739	0.50610	0.45953
592.000	0.42505	1.26106	0.54761	0.35211
593.000	0.40330	1.18153	0.54366	0.40383
594.000	0.36969	1.18153	0.50412	0.28647
595.000	0.36179	1.19148	0.48435	0.31432
596.000	0.41912	1.25510	0.59308	0.42372
597.000	0.36574	1.07614	0.50215	0.30039
598.000	0.34597	1.18551	0.51598	0.31630
599.000	0.31236	1.25512	0.54564	0.31232
600.000	0.39342	1.18948	0.54168	0.42969
601.000	0.43889	1.18948	0.53971	0.46749
602.000	0.39144	1.18352	0.51005	0.38792
603.000	0.35586	1.24914	0.56936	0.25662
604.000	0.38551	1.17954	0.56936	0.36007
605.000	0.42307	1.09204	0.53180	0.44759
606.000	0.42505	1.25510	0.49424	0.46550
607.000	0.40923	1.23721	0.43889	0.44362
608.000	0.34399	1.23722	0.57331	0.45157
609.000	0.37563	1.29488	0.55750	0.36404
610.000	0.36969	1.29686	0.55354	0.49136
611.000	0.39737	1.31476	0.52982	0.34614
612.000	0.35388	1.22528	0.50017	0.36007
613.000	0.35783	1.30084	0.57529	0.35808
614.000	0.24119	1.17359	0.53180	0.29840
615.000	0.31434	1.22330	0.58320	0.31630
616.000	0.30248	1.36448	0.54761	0.28050
617.000	0.36376	1.24119	0.61482	0.27452
618.000	0.37167	1.27101	0.57331	0.32824
619.000	0.37365	1.25908	0.57529	0.38195
620.000	0.29457	1.24319	0.56145	0.31829
621.000	0.28271	1.26307	0.46656	0.40582
622.000	0.32620	1.26903	0.64250	0.26259
623.000	0.29457	1.28494	0.44284	0.43169
624.000	0.34004	1.26108	0.58517	0.42969
625.000	0.41714	1.31674	0.54959	0.29641
626.000	0.30050	1.18154	0.59703	0.41178
627.000	0.48040	1.34655	0.57133	0.36404
628.000	0.41516	1.28890	0.41912	0.47943
629.000	0.37365	1.30482	0.59110	0.40582
630.000	0.44086	1.35054	0.57133	0.37996
631.000	0.44877	1.30282	0.54168	0.42372
632.000	0.42900	1.33264	0.55354	0.37797
633.000	0.47645	1.30878	0.54761	0.36007
634.000	0.46459	1.20140	0.46656	0.36206
635.000	0.38551	1.23920	0.57727	0.37598
636.000	0.45865	1.25708	0.51401	0.50727
637.000	0.46261	1.27498	0.52982	0.40184
638.000	0.34993	1.30880	0.56936	0.39786
639.000	0.45470	1.26901	0.59506	0.43367
640.000	0.52982	1.28689	0.56145	0.41775
641.000	0.51598	1.25309	0.53971	0.42969
642.000	0.52982	1.23122	0.59703	0.31829
643.000	0.53180	1.27496	0.54564	0.26657
644.000	0.35586	1.29289	0.54959	0.28845
645.000	0.42109	1.24913	0.54366	0.34614
646.000	0.41714	1.33265	0.59308	0.35012
647.000	0.41319	1.20539	0.55947	0.32426
648.000	0.47249	1.34258	0.62471	0.47941
649.000	0.40330	1.23124	0.59308	0.31232
650.000	0.40923	1.28692	0.58517	0.34017
651.000	0.36574	1.23522	0.52982	0.48738
652.000	0.41912	1.32271	0.62471	0.42770
653.000	0.37563	1.15966	0.53575	0.40184
654.000	0.37563	1.30681	0.65436	0.35807
655.000	0.37760	1.23323	0.67215	0.45554
656.000	0.53180	1.33660	0.49424	0.47545
657.000	0.41516	1.20141	0.52389	0.41378
658.000	0.39935	1.24914	0.56936	0.35211
659.000	0.43296	1.31475	0.62668	0.35807
660.000	0.45668	1.23123	0.57529	0.36802
661.000	0.48831	1.23719	0.57924	0.49931
662.000	0.44877	1.27299	0.60889	0.36603
663.000	0.36574	1.25113	0.59703	0.39388
664.000	0.48040	1.19742	0.53971	0.44362
665.000	0.49424	1.19543	0.66029	0.32027
666.000	0.31829	1.24716	0.56343	0.45157
667.000	0.43691	1.19942	0.52389	0.55700
668.000	0.33609	1.23523	0.51203	0.35012
669.000	0.36772	1.30879	0.56540	0.47942
670.000	0.39144	1.24715	0.57133	0.45953
671.000	0.44284	1.30083	0.64843	0.34216
672.000	0.43889	1.14175	0.50610	0.49534
673.000	0.43889	1.16561	0.49819	0.39389
674.000	0.44877	1.14772	0.55157	0.48738
675.000	0.35388	1.24914	0.51796	0.43566
676.000	0.44284	1.20340	0.55354	0.42770
677.000	0.43889	1.14971	0.57924	0.38990
678.000	0.48831	1.26702	0.57529	0.41775
679.000	0.52191	1.31672	0.59308	0.44162
680.000	0.41912	1.12982	0.56738	0.43964
681.000	0.45075	1.17158	0.53575	0.50130
682.000	0.49622	1.30877	0.67215	0.43366
683.000	0.43098	1.20340	0.55552	0.44759
684.000	0.41714	1.21931	0.57331	0.46351
685.000	0.37958	1.23124	0.59901	0.49334
686.000	0.44679	1.18152	0.51994	0.45754
687.000	0.44877	1.29089	0.50215	0.42969
688.000	0.36376	1.26903	0.56145	0.44163
689.000	0.39342	1.18948	0.56936	0.34614
690.000	0.42900	1.29487	0.59703	0.50329
691.000	0.52982	1.28491	0.57727	0.51323
692.000	0.51796	1.25309	0.60889	0.45952
693.000	0.51005	1.21134	0.51598	0.38195
694.000	0.43296	1.24913	0.51994	0.46948
695.000	0.51598	1.18946	0.58517	0.47146
696.000	0.40923	1.16761	0.61878	0.40184
697.000	0.50215	1.16163	0.53378	0.43168
698.000	0.40330	1.17556	0.73145	0.47543
699.000	0.44482	1.25510	0.57727	0.49135
700.000	0.51203	1.23321	0.51796	0.48738
701.000	0.48633	1.18549	0.61878	0.37200
702.000	0.48238	1.19146	0.61087	0.45753
703.000	0.42505	1.11192	0.62273	0.42372
704.000	0.43493	1.18152	0.57924	0.43168
705.000	0.51401	1.26304	0.66622	0.38592
706.000	0.40923	1.12784	0.54959	0.45555
707.000	0.41516	1.21135	0.68994	0.41377
708.000	0.46261	1.21930	0.62668	0.47743
709.000	0.47645	1.14373	0.50215	0.41776
710.000	0.38749	1.20937	0.62273	0.49334
711.000	0.41912	1.19346	0.64843	0.46151
712.000	0.38156	1.04233	0.61482	0.44560
713.000	0.58320	1.20337	0.65831	0.40581
714.000	0.39144	1.18153	0.63262	0.40979
715.000	0.50215	1.16560	0.61680	0.58285
716.000	0.46063	1.14374	0.62075	0.49732
717.000	0.44877	1.18351	0.66424	0.42769
718.000	0.33806	1.12586	0.64052	0.36603
719.000	0.34795	1.14972	0.56936	0.52915
720.000	0.46261	1.10993	0.52784	0.66242
721.000	0.44086	1.28691	0.67215	0.52914
722.000	0.36574	1.05028	0.59703	0.45953
723.000	0.40726	1.22925	0.66029	0.37796
724.000	0.41516	1.18948	0.68203	0.52715
725.000	0.45272	1.22726	0.59901	0.42969
726.000	0.37563	1.16761	0.64052	0.52317
727.000	0.47249	1.20339	0.67413	0.47543
728.000	0.44086	1.11988	0.60889	0.57092
729.000	0.37365	1.13580	0.54564	0.39985
730.000	0.43493	1.24118	0.60889	0.45356
731.000	0.50017	1.15765	0.48435	0.42174
732.000	0.41516	1.21931	0.49819	0.59878
733.000	0.31039	1.27301	0.49622	0.48539
734.000	0.33806	1.27698	0.58913	0.54705
735.000	0.36376	1.15767	0.59703	0.51522
736.000	0.31829	1.18353	0.60692	0.52517
737.000	0.34993	1.19943	0.66029	0.40780
738.000	0.36772	1.22727	0.48831	0.52916
739.000	0.38156	1.24914	0.67610	0.52317
740.000	0.33609	1.25511	0.59901	0.55103
741.000	0.29259	1.28494	0.56936	0.57490
742.000	0.39342	1.26505	0.50412	0.52120
743.000	0.39144	1.24119	0.55354	0.58485
744.000	0.40726	1.33265	0.51598	0.53711
745.000	0.38353	1.27101	0.62273	0.57290
746.000	0.44482	1.27299	0.47842	0.57491
747.000	0.44482	1.24317	0.50215	0.49534
748.000	0.35586	1.25909	0.58320	0.60275
749.000	0.42702	1.34656	0.60692	0.62065
750.000	0.49226	1.31872	0.57727	0.61667
751.000	0.44679	1.30878	0.53575	0.66640
752.000	0.37365	1.28493	0.58913	0.55302
753.000	0.32818	1.25511	0.43691	0.68431
754.000	0.41516	1.36247	0.48435	0.68431
755.000	0.46459	1.38831	0.59110	0.51323
756.000	0.45272	1.32071	0.53378	0.71613
757.000	0.37760	1.33663	0.57727	0.71413
758.000	0.39144	1.33265	0.54366	0.63458
759.000	0.40923	1.27300	0.52191	0.62463
760.000	0.42702	1.34458	0.53971	0.55501
761.000	0.34399	1.30681	0.53773	0.58087
762.000	0.45865	1.32270	0.59308	0.61070
763.000	0.41516	1.40025	0.47249	0.62464
764.000	0.49622	1.30678	0.51994	0.60474
765.000	0.53575	1.38233	0.62273	0.55301
766.000	0.42702	1.29686	0.54168	0.53114
767.000	0.43691	1.38036	0.54761	0.54506
768.000	0.52784	1.33859	0.44284	0.60674
769.000	0.48435	1.32070	0.58517	0.60871
770.000	0.44679	1.37042	0.53378	0.56695
771.000	0.40923	1.37043	0.40923	0.67835
772.000	0.42505	1.34855	0.60099	0.62263
773.000	0.42900	1.28294	0.54168	0.59678
774.000	0.43493	1.27896	0.51203	0.62662
775.000	0.40133	1.32668	0.50412	0.60474
776.000	0.48633	1.26901	0.51203	0.58087
777.000	0.47842	1.46584	0.46459	0.74995
778.000	0.44679	1.31276	0.44086	0.63260
779.000	0.47249	1.30679	0.47447	0.52717
780.000	0.43098	1.36048	0.57331	0.65247
781.000	0.49424	1.29883	0.47052	0.61270
782.000	0.50017	1.28491	0.52784	0.62264
783.000	0.47447	1.26503	0.46854	0.72011
784.000	0.48040	1.29883	0.40923	0.69625
785.000	0.39737	1.29089	0.54959	0.64651
786.000	0.49819	1.34059	0.44284	0.66243
787.000	0.40528	1.36247	0.57924	0.54307
788.000	0.52389	1.29485	0.54564	0.59081
789.000	0.39342	1.40224	0.50017	0.62463
790.000	0.43296	1.27896	0.52982	0.67237
791.000	0.40330	1.27698	0.55552	0.57490
792.000	0.43493	1.34259	0.57727	0.67435
793.000	0.43691	1.31475	0.41516	0.47147
794.000	0.48040	1.33462	0.51005	0.62463
795.000	0.41121	1.32072	0.37563	0.64454
796.000	0.51598	1.25309	0.52389	0.62065
797.000	0.35783	1.27102	0.56343	0.69623
798.000	0.43889	1.25311	0.54959	0.68430
799.000	0.41714	1.31873	0.55157	0.48937
800.000	0.45470	1.35252	0.43691	0.67835
801.000	0.34597	1.29289	0.40528	0.70819
802.000	0.32027	1.26506	0.46063	0.61071
803.000	0.50610	1.28690	0.34993	0.66642
804.000	0.43691	1.16562	0.41714	0.67039
805.000	0.48633	1.41216	0.44877	0.58685
806.000	0.33016	1.17358	0.56540	0.64054
807.000	0.36574	1.22528	0.43889	0.53314
808.000	0.38156	1.33265	0.41319	0.61470
809.000	0.35586	1.22926	0.42109	0.66244
810.000	0.33609	1.16762	0.46261	0.47346
811.000	0.35981	1.21534	0.45865	0.66243
812.000	0.42505	1.24516	0.44086	0.61668
813.000	0.44086	1.15766	0.44284	0.59480
814.000	0.32620	1.26506	0.37958	0.61271
815.000	0.39935	1.19346	0.42900	0.64254
816.000	0.36969	1.19545	0.43296	0.58884
817.000	0.36969	1.23522	0.41516	0.56497
818.000	0.42505	1.20936	0.40330	0.54309
819.000	0.43296	1.17755	0.34202	0.69825
820.000	0.44086	1.22328	0.46261	0.56894
821.000	0.46656	1.22328	0.34202	0.56497
822.000	0.46854	1.24117	0.42109	0.51325
823.000	0.49622	1.23321	0.43296	0.61072
824.000	0.49028	1.30480	0.42900	0.57491
825.000	0.36179	1.15568	0.44284	0.57093
826.000	0.47447	1.21930	0.46063	0.53711
827.000	0.34399	1.15171	0.42307	0.46551
828.000	0.43098	1.18550	0.43098	0.52717
829.000	0.41912	1.20738	0.39935	0.57690
830.000	0.48633	1.29486	0.49424	0.60474
831.000	0.46656	1.17953	0.41912	0.54110
832.000	0.40330	1.25311	0.42702	0.52518
833.000	0.44679	1.19345	0.29259	0.53713
834.000	0.42307	1.18550	0.45272	0.54507
835.000	0.43691	1.13181	0.46459	0.55900
836.000	0.33609	1.13381	0.47645	0.52916
837.000	0.41516	1.13380	0.44679	0.64453
838.000	0.38551	1.12983	0.53575	0.58286
839.000	0.48831	1.24713	0.40923	0.68829
840.000	0.33411	1.18154	0.38156	0.65846
841.000	0.44877	1.23123	0.48238	0.58485
842.000	0.45272	1.34855	0.39935	0.58088
843.000	0.43098	1.21533	0.47645	0.63856
844.000	0.47052	1.29685	0.41516	0.69028
845.000	0.37365	1.24318	0.48831	0.66641
846.000	0.46656	1.26305	0.45668	0.72608
847.000	0.47052	1.41813	0.41319	0.57292
848.000	0.37958	1.32271	0.50215	0.64651
849.000	0.43889	1.28293	0.45075	0.72807
850.000	0.44679	1.23521	0.44877	0.68829
851.000	0.47645	1.29883	0.48238	0.75592
852.000	0.45865	1.20141	0.48831	0.70818
853.000	0.37563	1.26107	0.50610	0.62662
854.000	0.45668	1.28691	0.45272	0.74995
855.000	0.45075	1.32866	0.40133	0.77581
856.000	0.41714	1.27498	0.47842	0.68431
857.000	0.39144	1.32867	0.33609	0.83947
858.000	0.51994	1.36643	0.38551	0.78576
859.000	0.42109	1.34259	0.32818	0.80367
860.000	0.53378	1.33859	0.49226	0.71414
861.000	0.52982	1.43601	0.45075	0.66243
862.000	0.41516	1.38235	0.42900	0.79968
863.000	0.43098	1.36048	0.46854	0.71017
864.000	0.51203	1.44198	0.50808	0.81359
865.000	0.43889	1.43205	0.44086	0.72410
866.000	0.42109	1.37838	0.37365	0.78377
867.000	0.43889	1.34656	0.44086	0.88520
868.000	0.45865	1.41615	0.36574	0.80963
869.000	0.45272	1.36048	0.45470	0.87725
870.000	0.50610	1.47578	0.37760	0.94488
871.000	0.40726	1.32668	0.37167	0.76189
872.000	0.46261	1.47579	0.51203	0.79171
873.000	0.43098	1.47381	0.28666	0.82754
874.000	0.41319	1.40422	0.36969	0.88919
875.000	0.41714	1.39627	0.34202	0.99659
876.000	0.45470	1.47181	0.39935	0.73206
877.000	0.39539	1.35651	0.41714	0.71415
878.000	0.32818	1.35851	0.39539	0.64851
879.000	0.33806	1.33067	0.38946	0.49137
880.000	0.37167	1.12386	0.43098	0.39787
881.000	0.42505	0.85935	0.40923	0.34814
882.000	0.44877	0.67238	0.46063	0.02586
883.000	0.47052	0.38195	0.52389	-0.25066
884.000	0.43889	0.35609	0.57727	-0.60672
885.000	0.46063	0.23276	0.64052	-0.74197
886.000	0.39539	0.07958	0.53971	-0.82950
887.000	0.62471	-0.11737	0.62668	-1.06217
888.000	0.62471	-0.33221	0.63459	-1.37833
889.000	0.57727	-0.64850	0.72552	-1.55921
890.000	0.55947	-0.63457	0.63064	-1.73217
891.000	0.64843	-0.73998	0.67808	-2.02228
892.000	0.61285	-0.88717	0.52982	-2.10379
893.000	0.65041	-1.10194	0.45865	-2.05812
894.000	0.69587	-1.29481	0.75912	-2.39964
895.000	0.73738	-1.50951	0.66029	-2.42153
896.000	0.84807	-1.64066	0.62075	-2.60818
897.000	0.89156	-1.60089	0.78680	-2.74108
898.000	0.84610	-1.71022	0.80656	-2.81847
899.000	0.76901	-1.76391	0.84412	-2.90773
900.000	0.85993	-1.72611	0.83621	-3.06248
901.000	0.83819	-1.89901	0.80854	-3.03274
902.000	0.77296	-1.88116	0.77296	-3.06054
903.000	0.78680	-2.09971	0.81249	-3.21917
904.000	0.84412	-2.21489	0.87377	-3.20722
905.000	0.82633	-2.20497	0.87574	-3.27860
906.000	0.80656	-2.34202	0.88958	-3.34600
907.000	0.79866	-2.46514	0.86981	-3.29645
908.000	0.84412	-2.34795	0.75517	-3.21327
909.000	0.87772	-2.21487	0.84610	-3.36388
910.000	0.84017	-2.35590	0.77494	-3.19540
911.000	0.83819	-2.22284	0.88958	-3.22704
912.000	0.89156	-2.25657	0.74133	-3.05263
913.000	0.89946	-2.22081	0.77691	-3.06054
914.000	0.88958	-2.21883	0.78284	-2.95142
915.000	0.90342	-2.23273	0.76703	-2.98119
916.000	0.93702	-2.21483	0.79866	-2.91967
917.000	0.79866	-2.11162	0.70180	-2.85822
918.000	0.93702	-2.13141	0.73343	-2.94352
919.000	0.89156	-2.13739	0.82040	-2.94148
920.000	0.93899	-2.08174	0.81842	-2.91569
921.000	0.82435	-2.18709	0.59703	-2.81462
922.000	0.91725	-2.17313	0.72157	-2.81257
923.000	0.99829	-2.21876	0.81842	-2.66167
924.000	0.89551	-2.21684	0.75912	-2.93160
925.000	0.89156	-2.25260	0.69389	-2.77488
926.000	0.90342	-2.21684	0.79470	-2.78275
927.000	0.89156	-2.12945	0.77098	-2.80261
928.000	0.94887	-2.12147	0.77098	-2.80063
929.000	0.85993	-2.30425	0.81447	-2.85220
930.000	0.88365	-2.22480	0.70971	-2.74907
931.000	0.86388	-2.17714	0.76308	-2.76690
932.000	0.94690	-2.27640	0.80063	-2.78672
933.000	0.95480	-2.17907	0.73540	-2.71134
934.000	0.95283	-2.32405	0.67808	-2.73519
935.000	0.87377	-2.24268	0.72947	-2.86614
936.000	0.93702	-2.19100	0.71168	-2.79273
937.000	1.01607	-2.20485	0.74331	-2.79668
938.000	0.90934	-2.12348	0.74133	-2.85224
939.000	0.98445	-2.17706	0.58517	-2.74120
940.000	0.94690	-2.14133	0.67017	-2.74711
941.000	0.97259	-2.16118	0.57727	-2.61218
942.000	0.91132	-2.18505	0.77098	-2.71529
943.000	1.01805	-2.17903	0.55947	-2.62608
944.000	1.03188	-2.06381	0.54564	-2.53873
945.000	0.96666	-2.11152	0.61680	-2.47119
946.000	0.93306	-1.99433	0.73145	-2.74707
947.000	0.94887	-2.03605	0.66820	-2.80069
948.000	0.90934	-1.98441	0.57924	-2.72135
949.000	1.00421	-2.08965	0.58517	-2.63401
950.000	0.93109	-2.07182	0.60296	-2.66775
951.000	1.06153	-1.99624	0.62273	-2.61215
952.000	1.01805	-1.98832	0.58913	-2.60224
953.000	1.00421	-1.96052	0.62471	-2.62605
954.000	1.03979	-1.85916	0.69982	-2.58631
955.000	0.90934	-1.89699	0.66029	-2.66772
956.000	0.99829	-1.96648	0.62471	-2.52678
957.000	1.05362	-1.91876	0.54366	-2.64594
958.000	1.00421	-1.92277	0.53378	-2.55065
959.000	1.03979	-1.96646	0.59506	-2.59629
960.000	1.02793	-2.03798	0.60296	-2.58239
961.000	1.16825	-1.82928	0.58122	-2.56651
962.000	1.05758	-1.93466	0.59703	-2.49503
963.000	1.01014	-1.92674	0.56936	-2.58637
964.000	1.01014	-1.88303	0.62471	-2.55458
965.000	0.98643	-1.93867	0.59110	-2.56452
966.000	0.96073	-1.92279	0.56936	-2.46327
967.000	1.02991	-1.88301	0.59506	-2.43745
968.000	1.03584	-1.93666	0.65831	-2.48309
969.000	1.03979	-1.93864	0.65436	-2.51883
970.000	1.11094	-1.88495	0.57924	-2.61218
971.000	1.08920	-1.80350	0.62668	-2.53671
972.000	1.06943	-1.83530	0.51401	-2.60823
973.000	1.00421	-2.01416	0.57924	-2.54865
974.000	1.08722	-1.81343	0.69587	-2.48505
975.000	1.03386	-1.79161	0.48040	-2.49508
976.000	1.04177	-1.83731	0.67017	-2.53272
977.000	1.04572	-1.87506	0.50610	-2.45933
978.000	1.10303	-1.86509	0.58122	-2.43745
979.000	1.02991	-1.72206	0.52982	-2.36995
980.000	1.13268	-1.84122	0.58122	-2.42355
981.000	0.97654	-1.85920	0.50017	-2.43153
982.000	1.08722	-1.82536	0.53773	-2.37988
983.000	1.12872	-1.79950	0.61878	-2.42552
984.000	1.09315	-1.75978	0.44482	-2.38389
985.000	1.15046	-1.80147	0.57727	-2.42157
986.000	1.10303	-1.84323	0.59308	-2.37192
987.000	1.13465	-1.72398	0.51203	-2.37393
988.000	1.22555	-1.76367	0.53180	-2.37393
989.000	1.14058	-1.76174	0.46656	-2.31834
990.000	1.22358	-1.73784	0.61680	-2.56848
991.000	1.07536	-1.75383	0.40330	-2.37596
992.000	1.10106	-1.72202	0.58320	-2.44539
993.000	1.18801	-1.78555	0.54168	-2.38584
994.000	1.19789	-1.68022	0.51598	-2.32031
995.000	1.23939	-1.70405	0.55750	-2.27858
996.000	1.20579	-1.71798	0.56145	-2.38583
997.000	1.27298	-1.69210	0.53971	-2.25873
998.000	1.18208	-1.71203	0.60099	-2.36397
999.000	1.09908	-1.74388	0.51994	-2.30442
1000.000	1.13465	-1.69616	0.57924	-2.34809
1001.000	1.14651	-1.79154	0.46261	-2.28259
1002.000	1.21370	-1.60867	0.53575	-2.45137
1003.000	1.15441	-1.60473	0.50610	-2.23888
1004.000	1.14651	-1.65641	0.51203	-2.29250
1005.000	1.24729	-1.59076	0.44482	-2.32232
1006.000	1.17615	-1.69812	0.49226	-2.32826
1007.000	1.15046	-1.70609	0.46261	-2.24485
1008.000	1.23939	-1.63449	0.53575	-2.29448
1009.000	1.26310	-1.67025	0.50215	-2.26867
1010.000	1.22160	-1.71201	0.39144	-2.36206
1011.000	1.20184	-1.66234	0.51796	-2.21305
1012.000	1.21963	-1.81136	0.43691	-2.35211
1013.000	1.19987	-1.75971	0.31434	-2.20119
1014.000	1.24136	-1.63846	0.42109	-2.20911
1015.000	1.20777	-1.60470	0.43098	-2.30842
1016.000	1.15837	-1.61268	0.43889	-2.23691
1017.000	1.26705	-1.50926	0.48633	-2.27662
1018.000	1.29076	-1.60266	0.45075	-2.24486
1019.000	1.22951	-1.63052	0.39342	-2.18925
1020.000	1.25322	-1.63647	0.40133	-2.21110
1021.000	1.22555	-1.59674	0.52389	-2.34811
1022.000	1.16232	-1.63652	0.46261	-2.29054
1023.000	1.24729	-1.60468	0.37167	-2.18926
1024.000	1.16232	-1.61466	0.41516	-2.14554
1025.000	1.24334	-1.70206	0.38749	-2.23296
1026.000	1.25322	-1.73186	0.37365	-2.17932
1027.000	1.24532	-1.72193	0.47052	-2.30444
1028.000	1.33028	-1.56488	0.45075	-2.18725
1029.000	1.26310	-1.62056	0.44086	-2.22499
1030.000	1.26508	-1.62056	0.39144	-2.16740
1031.000	1.21567	-1.67823	0.38156	-2.24885
1032.000	1.31843	-1.59072	0.33806	-2.19523
1033.000	1.21172	-1.76169	0.34004	-2.15549
1034.000	1.29669	-1.63445	0.38946	-2.07999
1035.000	1.27891	-1.66428	0.40528	-2.24090
1036.000	1.27891	-1.59273	0.37167	-2.19522
1037.000	1.32633	-1.55892	0.36179	-2.10781
1038.000	1.27496	-1.57882	0.41319	-2.14952
1039.000	1.32436	-1.63046	0.28469	-2.13365
1040.000	1.19789	-1.58682	0.39737	-2.15747
1041.000	1.30657	-1.72387	0.41912	-2.12568
1042.000	1.21567	-1.60668	0.37167	-2.00052
1043.000	1.23148	-1.62456	0.33411	-2.14358
1044.000	1.36585	-1.54299	0.41121	-2.16144
1045.000	1.33226	-1.58674	0.42900	-2.07998
1046.000	1.34807	-1.65628	0.33609	-2.18132
1047.000	1.32436	-1.61854	0.32225	-2.09590
1048.000	1.31448	-1.57681	0.35981	-2.15350
1049.000	1.27496	-1.60466	0.34004	-2.04225
1050.000	1.32633	-1.73181	0.33411	-2.07404
1051.000	1.38561	-1.57875	0.33411	-2.13762
1052.000	1.39351	-1.57676	0.39935	-1.97865
1053.000	1.18406	-1.65837	0.31829	-2.06212
1054.000	1.35992	-1.54299	0.32422	-2.09788
1055.000	1.32238	-1.58277	0.39144	-1.99455
1056.000	1.26705	-1.74377	0.37958	-2.04025
1057.000	1.31843	-1.56886	0.33016	-2.07205
1058.000	1.25915	-1.51324	0.34795	-2.06410
1059.000	1.41920	-1.50917	0.38353	-2.13164
1060.000	1.28286	-1.66229	0.34004	-1.91508
1061.000	1.26508	-1.55697	0.31434	-1.97867
1062.000	1.28681	-1.61658	0.38156	-1.96078
1063.000	1.32040	-1.52712	0.35981	-2.04423
1064.000	1.34214	-1.56288	0.42307	-1.87134
1065.000	1.29076	-1.63645	0.40528	-1.96077
1066.000	1.31448	-1.63246	0.37365	-1.92103
1067.000	1.32436	-1.66822	0.34993	-1.93694
1068.000	1.34412	-1.52512	0.34993	-1.86937
1069.000	1.41920	-1.55886	0.30643	-1.86143
1070.000	1.37375	-1.64037	0.39144	-1.85943
1071.000	1.35597	-1.66224	0.35783	-1.93097
1072.000	1.35597	-1.57281	0.33016	-1.92899
1073.000	1.36190	-1.52908	0.38551	-1.84750
1074.000	1.40537	-1.55290	0.37760	-1.76205
1075.000	1.48637	-1.43161	0.35190	-1.67062
1076.000	1.46266	-1.48927	0.37563	-1.74615
1077.000	1.47057	-1.53497	0.40726	-1.65073
1078.000	1.62466	-1.56069	0.38946	-1.82366
1079.000	1.47452	-1.52901	0.32818	-1.73423
1080.000	1.41525	-1.80725	0.37760	-1.87732
1081.000	1.47254	-1.62638	0.25701	-2.08002
1082.000	1.47254	-1.90256	0.23131	-2.19525
1083.000	1.36980	-1.90066	0.29457	-2.29058
1084.000	1.33028	-2.05167	0.20956	-2.45543
1085.000	1.28484	-2.09938	0.24119	-2.61824
1086.000	1.17813	-2.51449	0.18979	-2.72346
1087.000	1.08327	-2.53641	0.11664	-2.77905
1088.000	1.09710	-2.77259	0.09687	-3.05486
1089.000	1.05758	-2.98691	0.00000	-3.18380
1090.000	1.01212	-2.98298	0.04547	-3.39002
1091.000	0.99433	-2.95126	0.07710	-3.67342
1092.000	1.11094	-2.99082	0.02966	-3.70711
1093.000	1.02200	-3.18924	-0.02570	-3.84378
1094.000	1.04177	-3.37955	-0.08699	-3.78634
1095.000	1.11094	-3.62916	-0.02768	-4.16450
1096.000	1.00026	-3.97783	-0.09094	-4.31487
1097.000	1.12082	-4.10830	-0.09094	-4.51065
1098.000	1.00224	-4.19354	-0.04547	-4.75376
1099.000	0.96469	-4.28855	-0.05536	-4.97892
1100.000	0.90934	-4.45671	-0.06722	-5.07960
1101.000	1.00619	-4.75106	-0.16014	-5.15064
1102.000	0.91923	-4.91116	-0.16804	-5.19207
1103.000	0.82435	-5.12250	-0.06524	-5.51355
1104.000	0.75715	-5.32775	-0.21747	-5.58052
1105.000	0.80656	-5.47162	-0.18188	-5.83266
1106.000	0.75517	-5.62934	-0.21352	-5.96650
1107.000	0.71564	-5.69439	-0.08897	-5.89568
1108.000	0.72552	-5.64710	-0.20758	-6.06292
1109.000	0.73738	-5.86765	-0.17398	-6.11604
1110.000	0.84807	-5.90882	-0.14432	-6.10228
1111.000	0.69389	-5.96217	-0.06722	-6.20652
1112.000	0.70378	-6.04873	-0.08897	-6.20455
1113.000	0.78087	-5.97190	-0.11071	-6.15539
1114.000	0.77098	-6.05454	-0.07117	-6.19079
1115.000	0.77889	-6.12337	-0.07908	-6.26157
1116.000	0.80459	-6.03482	-0.16409	-6.06686
1117.000	0.76505	-5.99750	-0.13641	-6.07474
1118.000	0.76308	-6.03488	-0.23526	-5.92516
1119.000	0.76505	-6.08406	-0.09687	-5.95079
1120.000	0.90737	-6.01892	-0.17595	-5.88779
1121.000	0.77494	-6.10371	-0.17595	-5.97242
1122.000	0.82831	-6.02495	-0.10874	-5.96456
1123.000	0.80063	-6.10761	-0.20758	-5.96257
1124.000	0.79470	-6.08795	-0.13641	-5.95275
1125.000	0.79470	-5.97188	-0.12455	-5.84055
1126.000	0.75122	-6.08211	-0.21549	-5.91730
1127.000	0.78680	-6.23347	-0.09885	-5.98425
1128.000	0.75122	-6.15684	-0.16014	-5.82479
1129.000	0.86784	-6.07800	-0.24910	-5.93500
1130.000	0.79470	-6.09188	-0.12060	-5.91733
1131.000	0.95085	-6.06213	-0.21747	-5.98028
1132.000	0.83028	-6.03872	-0.14827	-5.85630
1133.000	0.70773	-6.09397	-0.03559	-5.85828
1134.000	0.93504	-5.95592	-0.22142	-5.82280
1135.000	0.77494	-6.06634	-0.19572	-5.72238
1136.000	0.82831	-6.05446	-0.16014	-5.85039
1137.000	0.90934	-5.94415	-0.22933	-5.71055
1138.000	0.80063	-6.08794	-0.09885	-5.93898
1139.000	0.83621	-6.02494	-0.17793	-5.75390
1140.000	0.80261	-6.03679	-0.25305	-5.89957
1141.000	0.89946	-5.99139	-0.26492	-5.79719
1142.000	0.92516	-6.02086	-0.09687	-5.80512
1143.000	0.95678	-5.90078	-0.16607	-5.78147
1144.000	0.90934	-5.95202	-0.16014	-5.87795
1145.000	0.83621	-5.94623	-0.21747	-5.90746
1146.000	0.89749	-5.95598	-0.24119	-5.80114
1147.000	0.85796	-5.87141	-0.26294	-5.80506
1148.000	0.99829	-5.86921	-0.21549	-5.72237
1149.000	0.90144	-5.91661	-0.16014	-5.73224
1150.000	0.93899	-5.90868	-0.20956	-5.66131
1151.000	0.99433	-5.82001	-0.19572	-5.73813
1152.000	0.94492	-5.86537	-0.20363	-5.75586
1153.000	1.02793	-5.83963	-0.10874	-5.87402
1154.000	1.02003	-5.85736	-0.20363	-5.81296
1155.000	1.05560	-5.79233	-0.23329	-5.64948
1156.000	0.97654	-5.86728	-0.25701	-5.64750
1157.000	0.98643	-5.85349	-0.21154	-5.71646
1158.000	0.99038	-5.72353	-0.32027	-5.71444
1159.000	1.02793	-5.82585	-0.24317	-5.62386
1160.000	0.93109	-5.86539	-0.24317	-5.71448
1161.000	0.88563	-5.78475	-0.22933	-5.71449
1162.000	1.02200	-5.76877	-0.22142	-5.62781
1163.000	0.96864	-5.73538	-0.29457	-5.64354
1164.000	1.04177	-5.76676	-0.26887	-5.71841
1165.000	0.99236	-5.86922	-0.20758	-5.71843
1166.000	0.99433	-5.70974	-0.26492	-5.61794
1167.000	1.05362	-5.73524	-0.27876	-5.80309
1168.000	1.02003	-5.77665	-0.22538	-5.68888
1169.000	0.96469	-5.67434	-0.22340	-5.76176
1170.000	1.03584	-5.80025	-0.30841	-5.55880
1171.000	0.98840	-5.85939	-0.21747	-5.77555
1172.000	0.94097	-5.67635	-0.31434	-5.62186
1173.000	1.00224	-5.81999	-0.24712	-5.60416
1174.000	0.99631	-5.72352	-0.26096	-5.72432
1175.000	1.09513	-5.62880	-0.17398	-5.62586
1176.000	0.98050	-5.71173	-0.15816	-5.66329
1177.000	0.91330	-5.81030	-0.31434	-5.66126
1178.000	0.99631	-5.64474	-0.19770	-5.78737
1179.000	0.98050	-5.87712	-0.30446	-5.70263
1180.000	0.96271	-5.81612	-0.16409	-5.59630
1181.000	1.01014	-5.69199	-0.23131	-5.59037
1182.000	0.97259	-5.69796	-0.24515	-5.75387
1183.000	1.00619	-5.73335	-0.25701	-5.58642
1184.000	0.98445	-5.71173	-0.27480	-5.64355
1185.000	1.01805	-5.73530	-0.28864	-5.72628
1186.000	1.02398	-5.72150	-0.21154	-5.65737
1187.000	1.03979	-5.66239	-0.23329	-5.60613
1188.000	0.99038	-5.68217	-0.28073	-5.64749
1189.000	1.00224	-5.77668	-0.15421	-5.81495
1190.000	0.99236	-5.69989	-0.34399	-5.57849
1191.000	1.09117	-5.75879	-0.27678	-5.54699
1192.000	1.08722	-5.72927	-0.34004	-5.57455
1193.000	1.03979	-5.70966	-0.27876	-5.54896
1194.000	1.06351	-5.71749	-0.32818	-5.49375
1195.000	1.13070	-5.62085	-0.33609	-5.60214
1196.000	1.12477	-5.70359	-0.34399	-5.68291
1197.000	1.02200	-5.71757	-0.31434	-5.66717
1198.000	0.98445	-5.69794	-0.26096	-5.63962
1199.000	1.09908	-5.72333	-0.23724	-5.56081
1200.000	1.08920	-5.68593	-0.33411	-5.55682
1201.000	1.06351	-5.62295	-0.21747	-5.54111
1202.000	1.14058	-5.65432	-0.31434	-5.53318
1203.000	1.14848	-5.60703	-0.34993	-5.59031
1204.000	1.06548	-5.62886	-0.27480	-5.61991
1205.000	1.10501	-5.63863	-0.30446	-5.51742
1206.000	1.02398	-5.77664	-0.26294	-5.69478
1207.000	1.15046	-5.55974	-0.39342	-5.55678
1208.000	1.01805	-5.68409	-0.23724	-5.59628
1209.000	1.03188	-5.65649	-0.35783	-5.59031
1210.000	1.06153	-5.63280	-0.31236	-5.66520
1211.000	1.07734	-5.66823	-0.40726	-5.42273
1212.000	1.04769	-5.69192	-0.31829	-5.60806
1213.000	1.02200	-5.67621	-0.36969	-5.55286
1214.000	1.12675	-5.64450	-0.38353	-5.59029
1215.000	1.11291	-5.67210	-0.36969	-5.49767
1216.000	1.07141	-5.77655	-0.36376	-5.61001
1217.000	1.02793	-5.67423	-0.35388	-5.49965
1218.000	0.95480	-5.81023	-0.45272	-5.57842
1219.000	1.10106	-5.69576	-0.37760	-5.63364
1220.000	1.04177	-5.65451	-0.37167	-5.59424
1221.000	1.02991	-5.72346	-0.32027	-5.64550
1222.000	0.95678	-5.68617	-0.39935	-5.48385
1223.000	1.13070	-5.68782	-0.30841	-5.50953
1224.000	1.03781	-5.60329	-0.37760	-5.69668
1225.000	1.01805	-5.66046	-0.37760	-5.51146
1226.000	1.10106	-5.66425	-0.33016	-5.55485
1227.000	1.04967	-5.79431	-0.33213	-5.59623
1228.000	1.00817	-5.84951	-0.32620	-5.49375
1229.000	0.99433	-5.61519	-0.38353	-5.46021
1230.000	0.94295	-5.83978	-0.27085	-5.61794
1231.000	1.04374	-5.63677	-0.36969	-5.44050
1232.000	1.03979	-5.82189	-0.33213	-5.55879
1233.000	1.06943	-5.72339	-0.25108	-5.52335
1234.000	1.14058	-5.75870	-0.27085	-5.44252
1235.000	1.00619	-5.82786	-0.28666	-5.44055
1236.000	0.95283	-5.76101	-0.41121	-5.53509
1237.000	1.03386	-5.75102	-0.43691	-5.45426
1238.000	1.01212	-5.82785	-0.38551	-5.43852
1239.000	1.16034	-5.66610	-0.39539	-5.54101
1240.000	0.99631	-5.52061	-0.45272	-5.37932
1241.000	1.06153	-5.71750	-0.44086	-5.48777
1242.000	1.10106	-5.70561	-0.34004	-5.59229
1243.000	1.06351	-5.74900	-0.27480	-5.57064
1244.000	1.11291	-5.65634	-0.32818	-5.33010
1245.000	1.06943	-5.73324	-0.52982	-5.39504
1246.000	1.16627	-5.67200	-0.43691	-5.49368
1247.000	1.07932	-5.56578	-0.44877	-5.43059
1248.000	1.07932	-5.69974	-0.34004	-5.56470
1249.000	1.08722	-5.68791	-0.39144	-5.49568
1250.000	1.19789	-5.55571	-0.34795	-5.50754
1251.000	1.17418	-5.64047	-0.28666	-5.46026
1252.000	1.01805	-5.72348	-0.39737	-5.42274
1253.000	1.13860	-5.65236	-0.41319	-5.53115
1254.000	1.05560	-5.64069	-0.40528	-5.40696
1255.000	0.98445	-5.66052	-0.39342	-5.48386
1256.000	1.06351	-5.81004	-0.53971	-5.43446
1257.000	1.10896	-5.72135	-0.39935	-5.53707
1258.000	1.01805	-5.72742	-0.34795	-5.51148
1259.000	1.06548	-5.59339	-0.32818	-5.42475
1260.000	1.11884	-5.73314	-0.38156	-5.51540
1261.000	1.17615	-5.68380	-0.41319	-5.46413
1262.000	1.01014	-5.80226	-0.55552	-5.37135
1263.000	1.11291	-5.65241	-0.29655	-5.51742
1264.000	1.14453	-5.62674	-0.41516	-5.42076
1265.000	1.04967	-5.88487	-0.34795	-5.45629
1266.000	1.07536	-5.67808	-0.41319	-5.52918
1267.000	1.09315	-5.72532	-0.39539	-5.45429
1268.000	1.13860	-5.71932	-0.39342	-5.41288
1269.000	1.05758	-5.79036	-0.44284	-5.50353
1270.000	1.00026	-5.74124	-0.37958	-5.44641
1271.000	1.02595	-5.72347	-0.43098	-5.38328
1272.000	1.02793	-5.75694	-0.48633	-5.35958
1273.000	1.08920	-5.68790	-0.39342	-5.40105
1274.000	1.06548	-5.66431	-0.53971	-5.46797
1275.000	1.14453	-5.68977	-0.47645	-5.26097
1276.000	1.07536	-5.56776	-0.44086	-5.43454
1277.000	1.11687	-5.65831	-0.35190	-5.36361
1278.000	0.99236	-5.79638	-0.41714	-5.41878
1279.000	1.07339	-5.68793	-0.43296	-5.41089
1280.000	1.02003	-5.70379	-0.47447	-5.57446
1281.000	1.06351	-5.67416	-0.37760	-5.64743
1282.000	0.97259	-5.72553	-0.38946	-5.26892
1283.000	1.13070	-5.66025	-0.43691	-5.51339
1284.000	1.17022	-5.63260	-0.40528	-5.37738
1285.000	1.05362	-5.63282	-0.35783	-5.45234
1286.000	0.93899	-5.70392	-0.39539	-5.48583
1287.000	1.06351	-5.66235	-0.50412	-5.42463
1288.000	1.03386	-5.66831	-0.48831	-5.38324
1289.000	1.15837	-5.70746	-0.42702	-5.40300
1290.000	1.04769	-5.68207	-0.53773	-5.35362
1291.000	0.97062	-5.64675	-0.41714	-5.50749
1292.000	0.93306	-5.72757	-0.46854	-5.41875
1293.000	1.12675	-5.57949	-0.45668	-5.49564
1294.000	0.91330	-5.64290	-0.31434	-5.48193
1295.000	1.05362	-5.74705	-0.48435	-5.48970
1296.000	1.04769	-5.71161	-0.35388	-5.48191
1297.000	0.98247	-5.61127	-0.34597	-5.50360
1298.000	1.09315	-5.71153	-0.45668	-5.42664
1299.000	1.10303	-5.61106	-0.43691	-5.55084
1300.000	1.00817	-5.64275	-0.44482	-5.41285
1301.000	1.20382	-5.57343	-0.40923	-5.40893
1302.000	1.15046	-5.62279	-0.43691	-5.56266
1303.000	1.14848	-5.61885	-0.48831	-5.42465
1304.000	1.10303	-5.68591	-0.46063	-5.44044
1305.000	0.96073	-5.63692	-0.42109	-5.55085
1306.000	1.14848	-5.65431	-0.45272	-5.50353
1307.000	1.14058	-5.69962	-0.36772	-5.50556
1308.000	1.21963	-5.61674	-0.41912	-5.58041
1309.000	1.05165	-5.55204	-0.42505	-5.49172
1310.000	1.07932	-5.55199	-0.48831	-5.46210
1311.000	1.16232	-5.67595	-0.39342	-5.60211
1312.000	1.13465	-5.52036	-0.36969	-5.46613
1313.000	1.18998	-5.58134	-0.37563	-5.52329
1314.000	1.10303	-5.51648	-0.43889	-5.63360
1315.000	1.03386	-5.58360	-0.45075	-5.53703
1316.000	1.07536	-5.69975	-0.38946	-5.34387
1317.000	1.11291	-5.61892	-0.42307	-5.58829
1318.000	1.13070	-5.42182	-0.43691	-5.53507
1319.000	1.18406	-5.51238	-0.46459	-5.47001
1320.000	1.10303	-5.56771	-0.43691	-5.59025
1321.000	1.17220	-5.52620	-0.39144	-5.50357
1322.000	1.17615	-5.54590	-0.50412	-5.52122
1323.000	1.02793	-5.61907	-0.41121	-5.44442
1324.000	1.24532	-5.49846	-0.38353	-5.44444
1325.000	1.19591	-5.50251	-0.40528	-5.45428
1326.000	1.12872	-5.48293	-0.41516	-5.52918
1327.000	1.22555	-5.42755	-0.32818	-5.55879
1328.000	1.17615	-5.51437	-0.37167	-5.48387
1329.000	1.03781	-5.54812	-0.28469	-5.46420
1330.000	1.23148	-5.40585	-0.34004	-5.52528
1331.000	1.14058	-5.45137	-0.30841	-5.42673
1332.000	1.18998	-5.50449	-0.37365	-5.43261
1333.000	1.16034	-5.46710	-0.39342	-5.52919
1334.000	1.20975	-5.49854	-0.23329	-5.54110
1335.000	1.16232	-5.56563	-0.40726	-5.46216
1336.000	1.11489	-5.56178	-0.39935	-5.35570
1337.000	1.14256	-5.59522	-0.21549	-5.53717
1338.000	1.20184	-5.58131	-0.36574	-5.64153
1339.000	1.10501	-5.46523	-0.42109	-5.41287
1340.000	1.20975	-5.45123	-0.31632	-5.43265
1341.000	1.13070	-5.58933	-0.25899	-5.43464
1342.000	1.23544	-5.45118	-0.41714	-5.48187
1343.000	1.14651	-5.51048	-0.40726	-5.50356
1344.000	1.18998	-5.43945	-0.36772	-5.46613
1345.000	1.17022	-5.48482	-0.45865	-5.34579
1346.000	1.13268	-5.49869	-0.31829	-5.41490
1347.000	1.13465	-5.61494	-0.40330	-5.32414
1348.000	1.12477	-5.54403	-0.42900	-5.41483
1349.000	1.10698	-5.46917	-0.38353	-5.51934
1350.000	1.14256	-5.49276	-0.44877	-5.45819
1351.000	1.16627	-5.54789	-0.43889	-5.49762
1352.000	1.15837	-5.39023	-0.37365	-5.40304
1353.000	1.11291	-5.48887	-0.40923	-5.48385
1354.000	1.28879	-5.39785	-0.38946	-5.36753
1355.000	1.23148	-5.40388	-0.31632	-5.37941
1356.000	1.16627	-5.53015	-0.30841	-5.48193
1357.000	1.04769	-5.56387	-0.35586	-5.48979
1358.000	1.08129	-5.63080	-0.52191	-5.41279
1359.000	1.11291	-5.58740	-0.31434	-5.44250
1360.000	1.24532	-5.42160	-0.39144	-5.45034
1361.000	1.11489	-5.47901	-0.50808	-5.40491
1362.000	1.20975	-5.45123	-0.43296	-5.46609
1363.000	1.18208	-5.54786	-0.36772	-5.36163
1364.000	1.21370	-5.59705	-0.40726	-5.41485
1365.000	1.16825	-5.52030	-0.43296	-5.31031
1366.000	1.27693	-5.36436	-0.43493	-5.49763
1367.000	1.18603	-5.52420	-0.37365	-5.50555
1368.000	1.11489	-5.56375	-0.39144	-5.39317
1369.000	1.20382	-5.46307	-0.40923	-5.62180
1370.000	1.20579	-5.58918	-0.42307	-5.42272
1371.000	1.03979	-5.47323	-0.44482	-5.33594
1372.000	1.19196	-5.47295	-0.37167	-5.46416
1373.000	1.07141	-5.47712	-0.43493	-5.46411
1374.000	1.18208	-5.42172	-0.44679	-5.31819
1375.000	1.17220	-5.47102	-0.41912	-5.50355
1376.000	1.19987	-5.53206	-0.46459	-5.34776
1377.000	1.13663	-5.51050	-0.37365	-5.38332
1378.000	1.19987	-5.51235	-0.40726	-5.38724
1379.000	1.17813	-5.45918	-0.42900	-5.40892
1380.000	1.06153	-5.51064	-0.35783	-5.39713
1381.000	1.12675	-5.52235	-0.41121	-5.31822
1382.000	1.15244	-5.50062	-0.40923	-5.39118
1383.000	1.16627	-5.42372	-0.43098	-5.37539
1384.000	1.14848	-5.53807	-0.39737	-5.38330
1385.000	1.25717	-5.50632	-0.46854	-5.36354
1386.000	1.27891	-5.40576	-0.41714	-5.37146
1387.000	1.18010	-5.49662	-0.44877	-5.45425
1388.000	1.16627	-5.36852	-0.36772	-5.40896
1389.000	1.19789	-5.50841	-0.44086	-5.41088
1390.000	1.14651	-5.36462	-0.35190	-5.35967
1391.000	1.17022	-5.44540	-0.42109	-5.33399
1392.000	1.17022	-5.43751	-0.51796	-5.35561
1393.000	1.18010	-5.44144	-0.29062	-5.28673
1394.000	1.19789	-5.52615	-0.46656	-5.49563
1395.000	1.24927	-5.49451	-0.47645	-5.38916
1396.000	1.26310	-5.44915	-0.28271	-5.45041
1397.000	1.19394	-5.47098	-0.37365	-5.38332
1398.000	1.19987	-5.36452	-0.44679	-5.42468
1399.000	1.13860	-5.47897	-0.42702	-5.41286
1400.000	1.31052	-5.38598	-0.45470	-5.41087
1401.000	1.15639	-5.45725	-0.42505	-5.46412
1402.000	1.25322	-5.41764	-0.41714	-5.46610
1403.000	1.29669	-5.37615	-0.35190	-5.45431
1404.000	1.26112	-5.42551	-0.33213	-5.42278
1405.000	1.14848	-5.58930	-0.42702	-5.37540
1406.000	1.19987	-5.46505	-0.43493	-5.47791
1407.000	1.27298	-5.42154	-0.42900	-5.33595
1408.000	1.34609	-5.50022	-0.41912	-5.39315
1409.000	1.18208	-5.38427	-0.46854	-5.40297
1410.000	1.16429	-5.42570	-0.44679	-5.46608
1411.000	1.15639	-5.48090	-0.46063	-5.37734
1412.000	1.17813	-5.46115	-0.44086	-5.49959
1413.000	1.22160	-5.39799	-0.53575	-5.47586
1414.000	1.25520	-5.44720	-0.46854	-5.45226
1415.000	1.19789	-5.63451	-0.42900	-5.45623
1416.000	1.27100	-5.36240	-0.32620	-5.32616
1417.000	1.25322	-5.45312	-0.40726	-5.45822
1418.000	1.33621	-5.50615	-0.49028	-5.34774
1419.000	1.28681	-5.54961	-0.46261	-5.43058
1420.000	1.14058	-5.37646	-0.52191	-5.38321
1421.000	1.24532	-5.29936	-0.45668	-5.34777
1422.000	1.31250	-5.44905	-0.36969	-5.29457
1423.000	1.32831	-5.43719	-0.38156	-5.33796
1424.000	1.12872	-5.49278	-0.43098	-5.44243
1425.000	1.15639	-5.63262	-0.43691	-5.37736
1426.000	1.21765	-5.49261	-0.28864	-5.36759
1427.000	1.26310	-5.39002	-0.45865	-5.38721
1428.000	1.15441	-5.50062	-0.41714	-5.39512
1429.000	1.16825	-5.53409	-0.42505	-5.43652
1430.000	1.32831	-5.37017	-0.34993	-5.34389
1431.000	1.21370	-5.43940	-0.41714	-5.35371
1432.000	1.08129	-5.52046	-0.47249	-5.27478
1433.000	1.22753	-5.47091	-0.39539	-5.48385
1434.000	1.21370	-5.34477	-0.39737	-5.27680
1435.000	1.19591	-5.45520	-0.48238	-5.15837
1436.000	1.19394	-5.45324	-0.43889	-5.40891
1437.000	1.14453	-5.48684	-0.46854	-5.25308
1438.000	1.12082	-5.33312	-0.56738	-5.35162
1439.000	1.22160	-5.30335	-0.43296	-5.36751
1440.000	1.33028	-5.40368	-0.33806	-5.31432
1441.000	1.24334	-5.33880	-0.34399	-5.21173
1442.000	1.38561	-5.33061	-0.19968	-5.31240
1443.000	1.50613	-5.39735	0.09490	-5.17038
1444.000	1.70170	-5.54069	0.23329	-5.04601
1445.000	1.69775	-5.46189	0.41319	-5.15250
1446.000	1.99794	-5.41171	0.67413	-5.26671
1447.000	2.19932	-5.35190	0.88167	-5.12045
1448.000	2.46775	-5.33709	1.03386	-5.19323
1449.000	2.63152	-5.47430	1.33028	-5.08219
1450.000	2.79918	-5.47748	1.47452	-5.22392
1451.000	3.01807	-5.34253	1.73133	-5.21143
1452.000	3.17971	-5.33187	1.88143	-5.43770
1453.000	3.24868	-5.43192	1.91105	-5.31935
1454.000	3.30386	-5.49461	1.98412	-5.39796
1455.000	3.45950	-5.47012	2.00584	-5.45109
1456.000	3.60130	-5.39845	2.13615	-5.42109
1457.000	3.65841	-5.55746	1.95845	-5.29949
1458.000	3.74503	-5.50185	2.04335	-5.45294
1459.000	3.75684	-5.44473	2.03546	-5.37809
1460.000	3.92217	-5.44958	2.11443	-5.31869
1461.000	3.96939	-5.43551	2.09271	-5.27737
1462.000	3.90839	-5.41427	2.11246	-5.36206
1463.000	3.90446	-5.43986	2.10061	-5.37392
1464.000	3.99890	-5.43335	2.09864	-5.35422
1465.000	3.97923	-5.46691	2.08877	-5.47445
1466.000	4.01071	-5.43720	2.04928	-5.45292
1467.000	4.06775	-5.51155	2.02361	-5.31308
1468.000	4.15036	-5.48935	1.97819	-5.44527
1469.000	4.01661	-5.53548	2.00781	-5.40971
1470.000	4.00874	-5.47065	2.04928	-5.48050
1471.000	4.05989	-5.51553	1.93672	-5.43555
1472.000	4.05989	-5.53912	1.93672	-5.32519
1473.000	3.96152	-5.57321	2.00781	-5.38409
1474.000	4.05989	-5.40934	1.95450	-5.34681
1475.000	3.97136	-5.45123	1.97819	-5.31126
1476.000	3.97923	-5.43544	1.93672	-5.41782
1477.000	4.08349	-5.51537	1.84983	-5.39444
1478.000	3.96545	-5.46504	1.98017	-5.43147
1479.000	3.94775	-5.49465	1.97227	-5.30734
1480.000	4.05595	-5.49983	1.96832	-5.27581
1481.000	3.95562	-5.49460	1.99794	-5.29740
1482.000	4.05989	-5.35033	1.98017	-5.40192
1483.000	3.84345	-5.58775	1.90513	-5.34303
1484.000	4.09529	-5.40320	2.02163	-5.43922
1485.000	4.03038	-5.50590	1.86958	-5.25639
1486.000	4.04021	-5.53532	1.90513	-5.19713
1487.000	4.08546	-5.47210	2.05520	-5.37605
1488.000	4.04612	-5.41533	1.93475	-5.32717
1489.000	4.08742	-5.47602	1.99597	-5.42157
1490.000	4.04808	-5.41925	1.95055	-5.26995
1491.000	3.94381	-5.43961	2.02163	-5.20269
1492.000	4.07562	-5.51542	2.01966	-5.19875
1493.000	4.01858	-5.48828	1.88735	-5.28197
1494.000	4.06579	-5.37193	1.96437	-5.29948
1495.000	4.00677	-5.50016	1.93672	-5.29562
1496.000	4.05792	-5.45459	1.89328	-5.22477
1497.000	4.06185	-5.31884	2.02756	-5.42344
1498.000	3.96939	-5.52990	1.91500	-5.34497
1499.000	3.89462	-5.51270	1.92093	-5.38634
1500.000	4.04612	-5.42713	1.84786	-5.34517
1501.000	3.95562	-5.47887	1.93475	-5.37447
1502.000	4.05005	-5.38187	1.94462	-5.25222
1503.000	3.92610	-5.40628	1.84391	-5.33533
1504.000	3.99300	-5.45699	1.93672	-5.34293
1505.000	3.80999	-5.54667	1.81626	-5.26246
1506.000	4.05792	-5.30706	1.87353	-5.38648
1507.000	3.97529	-5.48660	1.84588	-5.23675
1508.000	4.01661	-5.50992	1.87551	-5.27609
1509.000	4.04218	-5.52941	1.85181	-5.23476
1510.000	4.02841	-5.39972	1.86168	-5.24261
1511.000	3.90839	-5.48508	1.98609	-5.23632
1512.000	4.02251	-5.40566	1.83206	-5.13423
1513.000	3.93594	-5.44753	1.85378	-5.31361
1514.000	3.95758	-5.39625	1.93475	-5.32717
1515.000	4.01071	-5.40377	1.89525	-5.26223
1516.000	3.85919	-5.49916	1.94462	-5.23842
1517.000	3.88281	-5.45180	1.88538	-5.30958
1518.000	3.94971	-5.49464	1.97029	-5.29354
1519.000	3.93004	-5.44560	1.98412	-5.32701
1520.000	3.84739	-5.47957	1.91500	-5.26414
1521.000	3.84148	-5.53271	1.81823	-5.20922
1522.000	3.81196	-5.51913	1.91895	-5.30159
1523.000	3.89659	-5.43598	1.90908	-5.35090
1524.000	3.72535	-5.64946	1.88538	-5.17550
1525.000	3.85132	-5.51101	1.83008	-5.17566
1526.000	3.83361	-5.62320	1.85181	-5.21504
1527.000	3.85132	-5.44610	1.90118	-5.27207
1528.000	3.87297	-5.46957	1.81823	-5.29598
1529.000	3.87100	-5.47155	1.92290	-5.33509
1530.000	3.86510	-5.42831	1.82811	-5.34129
1531.000	3.70566	-5.59453	1.81033	-5.30586
1532.000	3.87297	-5.42236	1.82416	-5.27230
1533.000	3.83951	-5.42257	1.91105	-5.43366
1534.000	3.82967	-5.52688	1.79256	-5.17774
1535.000	3.87691	-5.32003	1.86958	-5.22682
1536.000	3.94184	-5.38454	1.91105	-5.31738
1537.000	3.80408	-5.46017	1.92290	-5.20891
1538.000	3.87297	-5.43023	1.92093	-5.29567
1539.000	3.96152	-5.38638	1.78861	-5.19353
1540.000	3.85132	-5.42250	1.85576	-5.23869
1541.000	3.96349	-5.45521	1.83996	-5.17168
1542.000	3.83951	-5.43044	1.85971	-5.27417
1543.000	3.88281	-5.40656	1.77873	-5.27046
1544.000	3.90642	-5.33952	1.79256	-5.26450
1545.000	3.76078	-5.45651	1.77873	-5.08112
1546.000	3.91036	-5.43392	1.83601	-5.21311
1547.000	3.81393	-5.44437	1.95845	-5.23443
1548.000	3.95562	-5.37659	1.85576	-5.28206
1549.000	3.89659	-5.35926	1.87156	-5.21498
1550.000	3.90642	-5.36116	1.85576	-5.12825
1551.000	3.94971	-5.30973	1.85971	-5.20121
1552.000	3.88478	-5.37704	1.92685	-5.25030
1553.000	3.91823	-5.29812	1.86563	-5.14005
1554.000	3.91430	-5.37095	1.87946	-5.29185
1555.000	3.91823	-5.41420	1.92685	-5.27988
1556.000	3.99103	-5.27798	1.95252	-5.20882
1557.000	3.90839	-5.39263	1.87353	-5.08282
1558.000	3.90642	-5.45362	1.90118	-5.28390
1559.000	3.81393	-5.37552	1.89525	-5.19322
1560.000	3.77062	-5.45055	1.96437	-5.28962
1561.000	3.91430	-5.40636	1.91500	-5.23457
1562.000	3.87494	-5.35152	1.88933	-5.18337
1563.000	3.87887	-5.39085	1.95845	-5.35074
1564.000	3.92020	-5.32172	2.09864	-5.23793
1565.000	3.85329	-5.33198	2.04730	-5.25387
1566.000	3.80015	-5.55657	1.95055	-5.36457
1567.000	3.83164	-5.30260	1.95450	-5.21276
1568.000	3.91036	-5.29030	2.10061	-5.17088
1569.000	3.86903	-5.37517	1.93870	-5.21280
1570.000	3.91626	-5.38077	1.94067	-5.21083
1571.000	3.93004	-5.36691	2.04138	-5.26572
1572.000	3.92610	-5.44562	1.99597	-5.13572
1573.000	3.87494	-5.38891	2.01571	-5.27960
1574.000	3.95758	-5.36870	1.93475	-5.32914
1575.000	3.83164	-5.34195	1.91500	-5.30357
1576.000	3.96742	-5.32339	2.02558	-5.39191
1577.000	3.98513	-5.27605	2.06705	-5.36419
1578.000	3.91823	-5.25089	1.98807	-5.19490
1579.000	3.85132	-5.38315	1.89328	-5.37460
1580.000	3.95365	-5.33725	2.06310	-5.22030
1581.000	3.87691	-5.36528	1.93278	-5.31337
1582.000	3.85526	-5.30639	1.90315	-5.38048
1583.000	3.81983	-5.48958	1.99399	-5.30332
1584.000	3.96939	-5.36076	1.96832	-5.36648
1585.000	3.87691	-5.38693	1.99597	-5.26192
1586.000	3.90446	-5.42216	1.96042	-5.32708
1587.000	3.92217	-5.37483	1.86168	-5.34710
1588.000	3.98316	-5.38231	1.96635	-5.36254
1589.000	3.83361	-5.40491	1.80441	-5.36107
1590.000	3.80605	-5.44246	2.04730	-5.34257
1591.000	3.83951	-5.33797	1.99597	-5.26783
1592.000	3.87297	-5.44793	1.90908	-5.29768
1593.000	3.89068	-5.38881	2.08482	-5.41142
1594.000	3.86510	-5.31026	1.98609	-5.25406
1595.000	3.95562	-5.40019	2.07100	-5.28927
1596.000	3.91430	-5.44177	1.98609	-5.29744
1597.000	3.80212	-5.35591	1.92685	-5.34493
1598.000	3.80015	-5.34412	1.88341	-5.39237
1599.000	3.99300	-5.25239	1.99004	-5.31319
1600.000	3.85526	-5.38313	1.94857	-5.36063
1601.000	3.86707	-5.32009	1.95647	-5.31527
1602.000	3.80605	-5.37753	1.95647	-5.36060
1603.000	3.91823	-5.38863	2.00781	-5.26779
1604.000	3.78834	-5.48191	1.90908	-5.33513
1605.000	3.92413	-5.35908	1.88341	-5.18734
1606.000	3.87297	-5.38695	2.05125	-5.37803
1607.000	4.00087	-5.37039	1.98017	-5.29745
1608.000	3.82770	-5.41084	1.97227	-5.28368
1609.000	3.89265	-5.31993	1.92685	-5.28579
1610.000	3.75094	-5.40739	2.05125	-5.33270
1611.000	4.05399	-5.44872	1.93475	-5.32322
1612.000	4.02841	-5.38988	2.00189	-5.18895
1613.000	3.83361	-5.42851	1.94265	-5.31728
1614.000	3.95168	-5.47496	1.93278	-5.20099
1615.000	3.84148	-5.47961	1.97622	-5.27184
1616.000	3.81983	-5.45024	2.05915	-5.34844
1617.000	3.79227	-5.39533	1.91303	-5.29372
1618.000	3.84345	-5.29662	1.95450	-5.24825
1619.000	3.80802	-5.54669	1.96240	-5.34679
1620.000	3.83754	-5.50323	2.01769	-5.37814
1621.000	3.84542	-5.55628	1.88143	-5.24847
1622.000	3.86313	-5.41456	2.12233	-5.29304
1623.000	3.77062	-5.39940	1.99202	-5.12389
1624.000	3.85132	-5.48938	1.92883	-5.25621
1625.000	3.80212	-5.50149	2.04928	-5.25386
1626.000	3.88871	-5.45373	1.93475	-5.24042
1627.000	3.85526	-5.48345	2.03151	-5.30123
1628.000	3.96742	-5.41782	1.98807	-5.29546
1629.000	3.82574	-5.52494	2.00584	-5.29737
1630.000	3.90446	-5.41823	1.99004	-5.29151
1631.000	3.87691	-5.45774	2.04730	-5.34060
1632.000	3.89068	-5.50486	2.00979	-5.29145
1633.000	3.77062	-5.52333	1.98412	-5.17125
1634.000	3.87691	-5.50691	1.99399	-5.17122
1635.000	3.84148	-5.40289	2.04335	-5.25585
1636.000	3.92020	-5.47320	1.97622	-5.30535
1637.000	3.88084	-5.60323	1.92488	-5.26608
1638.000	3.95168	-5.42382	1.95647	-5.17923
1639.000	3.75881	-5.45652	2.04138	-5.10007
1640.000	3.84345	-5.56416	1.89130	-5.25830
1641.000	3.83164	-5.54850	1.92685	-5.13593
1642.000	3.78046	-5.49769	1.89130	-5.28787
1643.000	3.90839	-5.44377	1.94265	-5.19702
1644.000	3.77850	-5.49574	1.88538	-5.22480
1645.000	3.76472	-5.48009	1.84391	-5.21900
1646.000	3.87887	-5.52460	1.91303	-5.26612
1647.000	3.93201	-5.43182	1.90513	-5.24051
1648.000	3.83754	-5.46193	1.94857	-5.27981
1649.000	3.89265	-5.47141	1.88933	-5.34702
1650.000	3.87887	-5.45576	1.93475	-5.30154
1651.000	3.89462	-5.47926	1.90710	-5.41003
1652.000	3.96349	-5.45521	1.86366	-5.23275
1653.000	3.89462	-5.43993	1.93672	-5.14576
1654.000	3.83754	-5.42652	1.92290	-5.15172
1655.000	3.95562	-5.62436	1.67009	-5.12678
1656.000	3.91036	-5.52636	1.85773	-5.07498
1657.000	3.92217	-5.46532	1.87946	-5.28594
1658.000	3.76078	-5.52732	1.88143	-5.02164
1659.000	3.78637	-5.53699	1.83798	-5.15394
1660.000	3.98513	-5.63399	1.82416	-5.18159
1661.000	3.85526	-5.50509	1.93870	-5.19900
1662.000	3.91626	-5.63445	1.87551	-5.16764
1663.000	3.91233	-5.47915	1.90710	-5.27402
1664.000	3.92217	-5.54398	1.84193	-5.19732
1665.000	3.90642	-5.42411	1.78663	-5.20339
1666.000	4.00874	-5.50998	1.82021	-5.04746
1667.000	3.84542	-5.56611	1.97622	-5.29352
1668.000	3.88281	-5.49311	1.85181	-5.23870
1669.000	3.95562	-5.51426	1.91500	-5.21682
1670.000	3.90839	-5.57553	1.86958	-5.35693
1671.000	3.84739	-5.52677	1.83996	-5.20324
1672.000	3.84739	-5.52874	1.90908	-5.07878
1673.000	3.81983	-5.55644	1.87353	-5.29976
1674.000	3.88675	-5.48718	1.93870	-5.01556
1675.000	4.01661	-5.53155	1.85971	-5.22487
1676.000	3.94578	-5.53596	1.83008	-5.18749
1677.000	3.88871	-5.40456	1.77873	-5.12846
1678.000	3.90642	-5.62272	1.90315	-5.26812
1679.000	3.86510	-5.41258	1.80046	-5.19744
1680.000	3.86116	-5.52471	1.72343	-5.33567
1681.000	3.96939	-5.57119	1.80836	-5.15797
1682.000	3.84542	-5.44024	1.81428	-5.18556
1683.000	3.84542	-5.52482	1.96437	-5.20878
1684.000	3.85329	-5.44216	1.87946	-5.16171
1685.000	3.88871	-5.56189	1.83996	-5.10068
1686.000	3.95562	-5.48280	1.89525	-5.14588
1687.000	3.86313	-5.52077	1.87748	-5.27806
1688.000	3.93594	-5.49669	1.80836	-5.20727
1689.000	3.82770	-5.52296	1.86761	-5.24654
1690.000	3.93791	-5.44358	1.92093	-5.26412
1691.000	3.99300	-5.47272	1.81823	-5.23288
1692.000	3.99497	-5.45304	1.71948	-5.24302
1693.000	3.90052	-5.45956	1.95055	-5.26798
1694.000	3.95758	-5.42575	1.85181	-5.21898
1695.000	3.98906	-5.58089	1.82811	-5.33932
1696.000	3.87887	-5.50100	1.85576	-5.21305
1697.000	3.88281	-5.50294	1.93278	-5.18522
1698.000	3.99890	-5.43728	1.77281	-5.18765
1699.000	3.79227	-5.41697	1.83798	-5.11252
1700.000	3.94971	-5.28612	1.86168	-5.20318
1701.000	3.95168	-5.44349	1.96042	-5.15555
1702.000	3.96939	-5.45911	1.78466	-5.17184
1703.000	4.02841	-5.38791	1.85576	-5.22291
1704.000	3.92413	-5.41220	1.88143	-5.36478
1705.000	3.85132	-5.39299	1.87946	-5.31748
1706.000	3.86313	-5.47357	1.86958	-5.13412
1707.000	4.03431	-5.33870	1.79848	-5.18364
1708.000	3.85329	-5.27294	1.73923	-5.36914
1709.000	3.87887	-5.54033	1.91698	-5.22865
1710.000	4.01464	-5.39784	1.87353	-5.27413
1711.000	3.90839	-5.29818	1.88143	-5.27607
1712.000	3.80408	-5.35393	1.83996	-5.28408
1713.000	3.98316	-5.27803	1.84786	-5.25251
1714.000	3.89068	-5.29042	1.87353	-5.28201
1715.000	3.95758	-5.41001	1.86761	-5.34511
1716.000	3.97136	-5.38435	1.99202	-5.26982
1717.000	3.86510	-5.33781	1.81823	-5.29400
1718.000	3.93201	-5.32165	1.86958	-5.30174
1719.000	3.90642	-5.30803	1.88341	-5.32929
1720.000	3.92217	-5.38074	1.92488	-5.21285
1721.000	3.92413	-5.40433	1.89525	-5.31546
1722.000	3.84935	-5.46579	1.82416	-5.27624
1723.000	3.94578	-5.42189	1.87946	-5.17946
1724.000	3.85526	-5.28867	1.88735	-5.32337
1725.000	3.89659	-5.24709	1.82021	-5.28414
1726.000	3.93397	-5.46524	1.99991	-5.18304
1727.000	3.92807	-5.45938	1.95845	-5.26992
1728.000	3.74109	-5.38187	1.93080	-5.18325
1729.000	3.80408	-5.25750	2.00781	-5.24217
1730.000	3.90052	-5.34743	2.03348	-5.28743
1731.000	3.90052	-5.22935	1.98017	-5.15549
1732.000	3.88675	-5.44588	1.89130	-5.29773
1733.000	3.92413	-5.37089	1.89920	-5.12812
1734.000	3.83164	-5.38131	1.89525	-5.33911
1735.000	3.80408	-5.39329	1.85773	-5.26826
1736.000	3.78243	-5.40326	2.14207	-5.30283
1737.000	3.83951	-5.45405	1.88143	-5.23664
1738.000	3.76472	-5.41320	1.93870	-5.28378
1739.000	3.78440	-5.44653	1.89130	-5.31153
1740.000	3.87100	-5.40467	1.94067	-5.10827
1741.000	3.86116	-5.45588	1.97819	-5.24423
1742.000	3.78637	-5.47012	1.93080	-5.25621
1743.000	3.80802	-5.56438	1.94067	-5.26406
1744.000	3.80802	-5.42867	1.83798	-5.32155
1745.000	3.75881	-5.47423	1.85971	-5.29783
1746.000	3.79818	-5.40906	1.91698	-5.11229
1747.000	3.77062	-5.31478	1.96832	-5.25215
1748.000	3.84935	-5.38120	1.98017	-5.28563
1749.000	3.81196	-5.48373	1.94265	-5.29560
1750.000	3.85132	-5.37725	1.89920	-5.20306
1751.000	3.92020	-5.54989	1.90118	-5.21292
1752.000	3.79227	-5.44648	1.93672	-5.25225
1753.000	3.87100	-5.44795	1.93080	-5.37251
1754.000	3.88675	-5.45768	1.98412	-5.20675
1755.000	3.76865	-5.44859	1.86366	-5.40228
1756.000	3.80015	-5.40511	1.83996	-5.13224
1757.000	3.75684	-5.54308	1.89723	-5.29771
1758.000	3.68991	-5.49236	1.96437	-5.19103
1759.000	3.77259	-5.45644	1.88735	-5.13999
1760.000	3.84935	-5.61327	1.96832	-5.20088
1761.000	3.75881	-5.58240	1.92685	-5.16551
1762.000	3.79621	-5.55659	1.97622	-5.14367
1763.000	3.66825	-5.56723	2.00189	-5.20669
1764.000	3.85132	-5.48151	1.84588	-5.10263
1765.000	3.76669	-5.51745	1.85971	-5.27220
1766.000	3.75881	-5.49586	1.89328	-5.15772
1767.000	3.80408	-5.56441	1.84588	-5.07699
1768.000	3.81393	-5.54075	1.85181	-5.14207
1769.000	3.76865	-5.59217	1.98807	-5.35262
1770.000	3.80605	-5.70987	1.91500	-5.13005
1771.000	3.72928	-5.65140	1.88143	-5.28790
1772.000	3.77850	-5.47607	2.02361	-5.26380
1773.000	3.76669	-5.55482	1.94857	-5.18517
1774.000	3.72535	-5.56491	1.90315	-5.18530
1775.000	3.72141	-5.58853	1.92883	-5.06294
1776.000	3.79621	-5.54480	2.00979	-5.30130
1777.000	3.73913	-5.60219	1.93475	-5.07475
1778.000	3.90839	-5.58339	1.85576	-5.22094
1779.000	3.89265	-5.51074	1.91895	-5.20695
1780.000	3.78243	-5.49572	1.87353	-5.07888
1781.000	3.70566	-5.64565	1.91303	-5.09652
1782.000	3.81786	-5.52106	1.91698	-5.14779
1783.000	3.84739	-5.53463	1.89525	-5.07487
1784.000	3.78637	-5.49766	1.82613	-5.15397
1785.000	3.80999	-5.57814	1.84193	-5.00597
1786.000	3.88478	-5.48129	1.88143	-5.12620
1787.000	3.69385	-5.62213	1.95647	-5.02931
1788.000	3.82967	-5.47771	2.00781	-5.06072
1789.000	3.79424	-5.42876	1.98609	-4.98582
1790.000	3.78637	-5.48586	2.00189	-5.14359
1791.000	3.92413	-5.55380	1.93080	-5.09252
1792.000	3.95955	-5.55946	1.86168	-5.23276
1793.000	3.82770	-5.60162	1.82218	-5.12440
1794.000	3.96545	-5.51027	1.91105	-5.13597
1795.000	4.03825	-5.45275	1.99991	-5.06667
1796.000	3.94775	-5.43368	1.98807	-5.09629
1797.000	4.07759	-5.15541	1.81231	-5.06327
1798.000	3.98906	-5.17762	1.98412	-5.00950
1799.000	3.96742	-5.16004	1.85773	-4.85197
1800.000	3.92217	-4.90231	1.68195	-4.61148
1801.000	3.72338	-4.88768	1.61873	-4.43573
1802.000	3.73913	-4.81663	1.48440	-4.29761
1803.000	3.55010	-4.67960	1.40734	-4.12368
1804.000	3.43389	-4.56377	1.34412	-3.94963
1805.000	3.38464	-4.42189	1.19196	-3.99737
1806.000	3.42010	-4.24204	1.09315	-3.88863
1807.000	3.13240	-4.19189	1.13663	-3.79154
1808.000	3.04764	-4.14282	0.98840	-3.53419
1809.000	3.03778	-3.98077	0.91527	-3.33805
1810.000	2.97863	-3.97506	1.01607	-3.38750
1811.000	2.94117	-3.65673	0.72947	-3.16569
1812.000	2.85243	-3.34028	0.78680	-2.93158
1813.000	2.72620	-3.30301	0.75122	-2.70736
1814.000	2.69070	-3.28924	0.62075	-2.48906
1815.000	2.51511	-3.25800	0.55354	-2.44938
1816.000	2.58417	-3.13698	0.44284	-2.27267
1817.000	2.57825	-3.14293	0.53378	-2.12564
1818.000	2.34342	-2.76483	0.56145	-1.68250
1819.000	2.52103	-2.52846	0.49424	-1.73221
1820.000	2.28026	-2.33444	0.38353	-1.64875
1821.000	2.29802	-2.10814	0.33016	-1.56527
1822.000	2.18156	-2.13809	0.28666	-1.26307
1823.000	2.15392	-2.04879	0.27282	-1.01847
1824.000	2.05915	-1.87416	0.31236	-1.05824
1825.000	2.06112	-1.75499	0.27678	-0.86533
1826.000	2.10851	-1.70726	0.42900	-0.81957
1827.000	2.01176	-1.78881	0.39144	-0.92101
1828.000	1.96635	-1.55643	0.39935	-0.99062
1829.000	2.00189	-1.67957	0.33016	-1.23324
1830.000	2.05520	-1.72520	0.36969	-1.15568
1831.000	2.01966	-1.67955	0.41319	-1.08806
1832.000	2.02756	-1.76297	0.46854	-1.18550
1833.000	1.97819	-1.63787	0.48238	-1.14373
1834.000	2.12825	-1.66752	0.52191	-1.33660
1835.000	2.17366	-1.66945	0.45668	-1.14573
1836.000	2.14602	-1.56817	0.51598	-1.12583
1837.000	2.03546	-1.67556	0.50412	-1.08407
1838.000	2.10456	-1.66555	0.47249	-1.15766
1839.000	2.02361	-1.57227	0.57529	-1.15167
1840.000	2.03546	-1.64377	0.44877	-1.14573
1841.000	2.04138	-1.60602	0.44482	-0.90509
1842.000	1.94265	-1.47896	0.44679	-1.15567
1843.000	2.04335	-1.60006	0.47249	-1.04629
1844.000	2.04533	-1.48483	0.33016	-1.15569
1845.000	2.06112	-1.52654	0.49622	-0.94486
1846.000	2.05718	-1.51065	0.50610	-1.28093
1847.000	1.97029	-1.44118	0.51796	-0.98265
1848.000	2.07692	-1.53248	0.43493	-0.93095
1849.000	1.94462	-1.53261	0.43889	-1.07613
1850.000	2.03151	-1.49875	0.56738	-1.15167
1851.000	2.07100	-1.44110	0.45470	-1.08607
1852.000	2.01176	-1.44512	0.41319	-1.05426
1853.000	2.08087	-1.48281	0.44284	-0.97868
1854.000	2.05520	-1.66561	0.50215	-1.08009
1855.000	2.06310	-1.47687	0.51598	-0.99657
1856.000	2.13023	-1.45296	0.50215	-1.07413
1857.000	2.05125	-1.45303	0.49028	-1.03038
1858.000	2.08482	-1.50863	0.54761	-1.01446
1859.000	2.19538	-1.43899	0.46261	-0.89912
1860.000	2.09074	-1.44704	0.57727	-0.81358
1861.000	2.13418	-1.60593	0.60889	-0.98462
1862.000	2.10456	-1.61391	0.54366	-0.94088
1863.000	2.08284	-1.64770	0.47249	-1.00851
1864.000	2.21512	-1.62968	0.45668	-0.74597
1865.000	2.08482	-1.59605	0.47842	-0.87923
1866.000	2.13812	-1.51454	0.45075	-0.84940
1867.000	2.15589	-1.49069	0.53971	-0.97270
1868.000	2.16379	-1.59795	0.54564	-0.92099
1869.000	2.26447	-1.53229	0.45865	-0.95879
1870.000	2.08087	-1.61592	0.53773	-0.89513
1871.000	2.25854	-1.60778	0.43098	-0.79769
1872.000	2.17366	-1.60787	0.44482	-0.96476
1873.000	2.25065	-1.53032	0.47249	-0.86531
1874.000	2.11641	-1.65760	0.45075	-0.79570
1875.000	2.20919	-1.73098	0.57331	-0.95877
1876.000	2.31579	-1.69908	0.48040	-0.87724
1877.000	2.14207	-1.71120	0.54366	-0.94883
1878.000	2.15194	-1.69728	0.50215	-0.92497
1879.000	2.27631	-1.71502	0.46261	-1.00453
1880.000	2.20722	-1.69126	0.52982	-0.95082
1881.000	2.27039	-1.64551	0.49424	-0.84741
1882.000	2.14997	-1.76283	0.52784	-1.00253
1883.000	2.25854	-1.78256	0.55750	-0.89115
1884.000	2.22499	-1.63761	0.49819	-0.89912
1885.000	2.31776	-1.56402	0.43098	-0.95879
1886.000	2.14207	-1.78270	0.51796	-1.01248
1887.000	2.25262	-1.77860	0.51598	-1.03435
1888.000	2.17366	-1.76280	0.48633	-0.86730
1889.000	2.15392	-1.75091	0.47645	-0.96276
1890.000	2.21314	-1.74687	0.51598	-0.95679
1891.000	2.24078	-1.72102	0.45865	-0.98663
1892.000	2.10851	-1.66158	0.46656	-0.92100
1893.000	2.19340	-1.86804	0.45865	-0.89912
1894.000	2.19932	-1.94150	0.51401	-0.90309
1895.000	2.22893	-1.86601	0.43889	-0.97470
1896.000	2.16774	-1.84622	0.44679	-0.85736
1897.000	2.27828	-1.73488	0.40726	-0.87526
1898.000	2.10061	-1.74104	0.54564	-0.94287
1899.000	2.15787	-1.82042	0.45668	-0.92896
1900.000	2.22301	-1.75877	0.47645	-0.97271
1901.000	2.15392	-1.83035	0.52587	-1.00452
1902.000	2.08679	-1.81057	0.51005	-0.97071
1903.000	2.23880	-1.88982	0.54761	-0.91104
1904.000	2.18353	-1.88592	0.49819	-0.95282
1905.000	2.32960	-1.86985	0.44877	-0.96674
1906.000	2.19340	-1.92364	0.51203	-1.06418
1907.000	2.31184	-1.65539	0.57331	-1.03633
1908.000	2.27236	-1.87588	0.47249	-0.99458
1909.000	2.22893	-1.76075	0.42702	-0.94686
1910.000	2.16576	-1.95942	0.52784	-0.97071
1911.000	2.20525	-1.82036	0.46854	-0.92498
1912.000	2.30789	-1.90562	0.38946	-0.93095
1913.000	2.31184	-1.81228	0.49622	-0.89713
1914.000	2.27236	-1.88184	0.49424	-0.86928
1915.000	2.25854	-1.79845	0.52389	-1.05424
1916.000	2.20525	-1.76475	0.44877	-1.14970
1917.000	2.29407	-1.83415	0.54366	-1.07810
1918.000	2.16774	-1.78863	0.57529	-0.98264
1919.000	2.25657	-1.82626	0.46261	-1.02442
1920.000	2.20327	-1.82235	0.46063	-0.95083
1921.000	2.20525	-1.90774	0.56540	-0.99457
1922.000	2.15392	-1.72509	0.45668	-0.78178
1923.000	2.15984	-1.87404	0.50412	-0.90111
1924.000	2.27039	-1.81234	0.49028	-0.90707
1925.000	2.21512	-1.81241	0.52982	-0.94287
1926.000	2.18748	-1.79258	0.55354	-0.94883
1927.000	2.21117	-1.91369	0.50808	-0.91503
1928.000	2.19143	-1.79257	0.51796	-0.99259
1929.000	2.35131	-1.81223	0.48633	-0.98862
1930.000	2.24275	-1.77861	0.52587	-0.89514
1931.000	2.23880	-1.81039	0.46459	-0.93492
1932.000	2.17761	-1.93558	0.47645	-0.87923
1933.000	2.35723	-1.74272	0.40923	-0.94686
1934.000	2.19735	-1.92364	0.56343	-0.92695
1935.000	2.14800	-1.81844	0.54168	-0.99656
1936.000	2.14010	-1.83831	0.48040	-0.87326
1937.000	2.27631	-1.75275	0.57133	-0.97269
1938.000	2.17366	-1.85615	0.39737	-1.01647
1939.000	2.19735	-1.79853	0.41714	-0.96277
1940.000	2.25262	-1.87591	0.36969	-0.93891
1941.000	2.22893	-1.79253	0.62668	-0.90109
1942.000	2.21117	-1.84021	0.53971	-1.03634
1943.000	2.23288	-1.74486	0.48435	-1.11589
1944.000	2.19340	-1.77668	0.46656	-1.06618
1945.000	2.30197	-1.70903	0.48633	-0.90707
1946.000	2.30000	-1.78847	0.49819	-0.90906
1947.000	2.25460	-1.84215	0.53575	-0.96474
1948.000	2.25460	-1.84215	0.51994	-0.90508
1949.000	2.23486	-1.78061	0.49424	-0.89315
1950.000	2.15589	-1.72509	0.44877	-0.91901
1951.000	2.25854	-1.73093	0.54564	-1.17952
1952.000	2.23683	-1.83025	0.48238	-0.93691
1953.000	2.22696	-1.89580	0.53378	-0.83348
1954.000	2.20130	-1.83427	0.46261	-0.92896
1955.000	2.18353	-1.84819	0.58517	-0.92695
1956.000	2.24078	-1.84415	0.53773	-1.07015
1957.000	2.23486	-1.84813	0.49226	-0.98066
1958.000	2.22893	-1.79849	0.48633	-1.08010
1959.000	2.18748	-1.78464	0.45075	-1.00453
1960.000	2.20919	-1.92362	0.59506	-0.93689
1961.000	2.22499	-1.94544	0.60692	-1.15564
1962.000	2.23880	-1.90372	0.45470	-1.07811
1963.000	2.14010	-1.84427	0.43889	-1.04829
1964.000	2.24867	-1.66540	0.48831	-1.00254
1965.000	2.19538	-1.83825	0.53378	-1.02043
1966.000	2.10259	-1.81453	0.48435	-0.93492
1967.000	2.20919	-1.91965	0.51796	-0.94486
1968.000	2.23091	-1.90374	0.49028	-0.98663
1969.000	2.16774	-1.80651	0.60296	-0.92297
1970.000	2.26447	-1.73688	0.45272	-1.00254
1971.000	2.09271	-1.83638	0.44679	-1.04630
1972.000	2.23486	-1.82033	0.46656	-1.02839
1973.000	2.25854	-1.87987	0.56738	-1.03832
1974.000	2.25065	-1.79449	0.55750	-0.87922
1975.000	2.26249	-1.78256	0.44679	-0.89912
1976.000	2.25657	-1.92554	0.49028	-1.01049
1977.000	2.14997	-1.90980	0.51598	-1.06617
1978.000	2.25262	-1.83222	0.48238	-1.19544
1979.000	2.13418	-1.81052	0.56540	-1.05821
1980.000	2.13220	-1.94159	0.48040	-0.94486
1981.000	2.06902	-1.82450	0.52587	-1.09401
1982.000	2.24078	-1.80840	0.49028	-0.92696
1983.000	2.29407	-1.77855	0.47052	-0.99061
1984.000	2.19932	-1.84023	0.43098	-1.02243
1985.000	2.10654	-1.94361	0.58122	-0.99854
1986.000	2.21512	-1.77467	0.53773	-1.11191
1987.000	2.28026	-1.83020	0.37563	-0.99261
1988.000	2.22696	-1.78856	0.58517	-0.95280
1989.000	2.23683	-1.86401	0.51994	-1.13577
1990.000	2.19932	-1.79257	0.58517	-1.01445
1991.000	2.24275	-1.92358	0.55157	-1.15366
1992.000	2.14602	-1.81448	0.54761	-1.06020
1993.000	2.09666	-1.89000	0.46261	-1.20140
1994.000	2.14997	-1.87604	0.49819	-1.12583
1995.000	2.14997	-1.86611	0.55354	-1.01247
1996.000	2.26841	-1.91957	0.46459	-1.02243
1997.000	2.19143	-1.86804	0.49424	-1.06220
1998.000	2.02163	-1.89009	0.47842	-1.02243
1999.000	2.13615	-1.89591	0.54168	-1.07412
2000.000	2.25854	-1.72497	0.53378	-1.08606
2001.000	2.14010	-1.88201	0.48633	-0.97271
2002.000	2.08284	-1.93967	0.46459	-1.04430
2003.000	2.10851	-1.94559	0.49819	-1.09600
2004.000	2.11048	-1.90786	0.48435	-1.08606
2005.000	2.11443	-1.88204	0.49622	-1.00452
2006.000	2.13615	-1.83435	0.57331	-1.07412
2007.000	2.25657	-1.89576	0.54761	-0.94088
2008.000	2.14010	-1.73305	0.48633	-1.13976
2009.000	2.22893	-1.85409	0.47645	-1.10396
2010.000	2.20919	-1.85015	0.47842	-1.12186
2011.000	2.19143	-1.91173	0.60692	-1.09996
2012.000	2.24275	-1.94343	0.58122	-1.09997
2013.000	2.29407	-1.89770	0.50215	-0.97668
2014.000	2.13615	-1.97931	0.53971	-1.11389
2015.000	2.20722	-1.90377	0.43889	-1.01845
2016.000	2.20722	-1.87596	0.59308	-1.13974
2017.000	2.22696	-1.93154	0.47447	-1.17356
2018.000	2.13812	-1.98527	0.50412	-1.17157
2019.000	2.24867	-1.88584	0.46261	-1.09800
2020.000	2.21709	-1.88787	0.51994	-1.02441
2021.000	2.20722	-1.89185	0.64052	-1.14967
2022.000	2.16774	-1.82239	0.46261	-1.00851
2023.000	2.12628	-2.03691	0.52389	-0.98861
2024.000	2.18156	-1.89585	0.45272	-0.93691
2025.000	2.15392	-1.79262	0.49622	-1.05822
2026.000	2.14800	-1.88001	0.51796	-0.89911
2027.000	2.30197	-1.86591	0.48040	-1.08408
2028.000	2.23486	-1.90969	0.51994	-1.13975
2029.000	2.14010	-1.91378	0.45865	-1.01646
2030.000	2.14010	-1.90584	0.51401	-1.06219
2031.000	2.12430	-1.83039	0.49028	-1.06618
2032.000	2.09864	-1.91184	0.42900	-1.06817
2033.000	2.15984	-1.91177	0.48633	-1.11589
2034.000	2.25460	-2.00100	0.45865	-1.11391
2035.000	2.22104	-1.90176	0.50215	-1.17952
2036.000	2.14800	-1.92171	0.52982	-1.04231
2037.000	2.11246	-1.88403	0.47842	-1.04430
2038.000	2.12430	-1.99323	0.51796	-0.98265
2039.000	2.18945	-1.89386	0.58715	-1.02440
2040.000	2.25657	-1.82228	0.50412	-1.03833
2041.000	2.23880	-1.84812	0.52587	-0.95480
2042.000	2.20919	-1.87795	0.54168	-1.12384
2043.000	2.17958	-1.93954	0.59110	-1.10792
2044.000	2.24867	-1.80045	0.38749	-1.19346
2045.000	2.29013	-1.85997	0.51401	-1.12185
2046.000	2.23880	-1.85209	0.48435	-1.07811
2047.000	2.14997	-1.83830	0.39539	-1.09005
2048.000	2.15787	-1.79261	0.56145	-0.99855
2049.000	2.20525	-1.74489	0.46656	-0.90907
2050.000	2.26052	-1.71106	0.44877	-0.95680
2051.000	2.26447	-1.65743	0.56738	-0.97468
2052.000	2.20525	-1.76078	0.50412	-0.79967
2053.000	2.27828	-1.70111	0.52191	-0.82552
2054.000	2.04730	-1.79671	0.52784	-0.69425
2055.000	2.10851	-1.63377	0.49622	-0.78575
2056.000	2.10851	-1.60000	0.67215	-0.53511
2057.000	2.10654	-1.41325	0.67017	-0.41576
2058.000	2.26249	-1.08526	0.54564	-0.23474
2059.000	2.32171	-0.95406	0.50412	0.10941
2060.000	2.33947	-0.67780	0.64843	0.08554
2061.000	2.22499	-0.59437	0.51598	0.31829
2062.000	2.22104	-0.54468	0.61680	0.35012
2063.000	2.14010	-0.60434	0.54366	0.37996
2064.000	2.27433	-0.41745	0.55947	0.53910
2065.000	2.23486	-0.24253	0.51203	0.53910
2066.000	2.30394	-0.19878	0.51203	0.72608
2067.000	2.22893	-0.02982	0.49819	0.82752
2068.000	2.31973	0.06957	0.55947	1.00849
2069.000	2.33552	0.07752	0.47842	1.02839
2070.000	2.40657	0.35380	0.48040	1.06618
2071.000	2.33158	0.33196	0.43098	1.12982
2072.000	2.27433	0.36378	0.50017	1.16163
2073.000	2.37302	0.46909	0.39737	1.27101
2074.000	2.24078	0.26837	0.43098	1.22925
2075.000	2.31973	0.55458	0.45075	1.21930
2076.000	2.23486	0.40752	0.41714	1.23323
2077.000	2.12430	0.38170	0.43296	1.20141
2078.000	2.29210	0.44726	0.52784	1.13975
2079.000	2.09666	0.26044	0.51994	1.08208
2080.000	2.11443	0.28231	0.40923	1.08806
2081.000	2.32960	0.38563	0.40330	1.23920
2082.000	2.24473	0.40155	0.45865	1.07811
2083.000	2.19340	0.39759	0.48633	1.09402
2084.000	2.10654	0.33598	0.50017	1.14174
2085.000	2.03546	0.30419	0.46261	1.12186
2086.000	2.04533	0.49504	0.50412	1.06816
2087.000	2.18945	0.47114	0.55354	1.06418
2088.000	2.15984	0.46519	0.54366	1.05225
2089.000	2.09666	0.56858	0.50215	1.04828
2090.000	2.13220	0.56658	0.67413	1.09000
2091.000	2.17761	0.50891	0.47447	1.09004
2092.000	2.06310	0.49702	0.36179	1.18949
2093.000	2.16576	0.52482	0.50808	1.14969
2094.000	2.06112	0.61630	0.39342	1.13380
2095.000	2.03151	0.49703	0.45272	1.11590
2096.000	2.07495	0.44136	0.47249	1.10794
2097.000	2.10851	0.45924	0.51401	1.05623
2098.000	2.16774	0.47115	0.49028	1.17356
2099.000	2.28026	0.53671	0.59110	1.06417
2100.000	2.16576	0.52681	0.53575	1.01446
2101.000	2.14997	0.56657	0.53971	1.18747
2102.000	2.17366	0.53277	0.46656	1.08209
2103.000	1.99991	0.53283	0.39144	1.25510
2104.000	2.10654	0.52087	0.42505	1.18351
2105.000	2.16379	0.56259	0.50610	1.05225
2106.000	2.19340	0.50295	0.41319	1.06619
2107.000	2.15589	0.51886	0.53180	1.26701
2108.000	2.06902	0.53479	0.57924	1.11190
2109.000	2.13220	0.44929	0.46459	1.00652
2110.000	2.07100	0.48907	0.54959	0.94684
2111.000	2.17761	0.38567	0.64843	1.05024
2112.000	2.10061	0.38370	0.53180	1.10594
2113.000	2.18353	0.45524	0.44877	1.08408
2114.000	2.17761	0.49301	0.61680	1.13973
2115.000	2.13615	0.40357	0.53180	1.13179
2116.000	2.07495	0.44334	0.50412	1.14174
2117.000	2.02163	0.48710	0.52191	1.13378
2118.000	2.20525	0.48306	0.45865	1.24714
2119.000	2.14207	0.45525	0.49819	1.15566
2120.000	2.02558	0.43541	0.48238	1.09998
2121.000	2.17563	0.48307	0.49622	1.11191
2122.000	2.09074	0.49702	0.60296	1.03633
2123.000	2.14405	0.46519	0.45075	1.05624
2124.000	2.14800	0.52284	0.57924	1.15565
2125.000	2.16774	0.38964	0.54366	1.16759
2126.000	2.14405	0.25646	0.49622	1.15169
2127.000	2.11641	0.36779	0.54761	1.07213
2128.000	2.16576	0.44531	0.50412	1.16560
2129.000	2.16774	0.45525	0.52389	1.22923
2130.000	2.17563	0.48307	0.49622	0.89315
2131.000	2.28420	0.47111	0.44679	1.18948
2132.000	2.13615	0.44730	0.48633	0.99458
2133.000	2.14997	0.25049	0.50808	1.12185
2134.000	2.10456	0.45129	0.54959	1.13974
2135.000	2.18156	0.47512	0.41319	1.05227
2136.000	2.09864	0.32008	0.52191	1.09202
2137.000	2.14207	0.40158	0.44482	1.04630
2138.000	2.11838	0.36580	0.47249	1.08010
2139.000	2.13023	0.43935	0.48040	1.14771
2140.000	2.15787	0.35585	0.59308	1.02241
2141.000	2.21906	0.39957	0.54168	1.03236
2142.000	2.11838	0.45725	0.53575	1.08407
2143.000	2.17366	0.37175	0.42109	1.08408
2144.000	2.23683	0.31608	0.45668	1.03237
2145.000	2.20525	0.32602	0.48040	1.13180
2146.000	2.18550	0.43536	0.50017	1.15765
2147.000	2.17366	0.25248	0.44284	1.02840
2148.000	2.12628	0.40556	0.49226	1.05822
2149.000	2.19735	0.35584	0.51796	1.09998
2150.000	2.11443	0.35586	0.39342	1.07216
2151.000	2.16379	0.38766	0.50017	0.97469
2152.000	2.14405	0.28429	0.54168	1.00850
2153.000	2.13418	0.32206	0.51005	0.96475
2154.000	2.16576	0.34790	0.45272	1.12584
2155.000	2.11838	0.32207	0.56540	1.03236
2156.000	2.33158	0.41743	0.46459	1.09203
2157.000	2.20919	0.34192	0.55157	0.99258
2158.000	2.19735	0.37970	0.41714	1.06420
2159.000	2.23486	0.36180	0.48435	1.18549
2160.000	2.09864	0.32803	0.51401	1.00253
2161.000	2.10259	0.33002	0.50215	1.07015
2162.000	2.18550	0.25844	0.40528	1.02244
2163.000	2.22499	0.31608	0.43296	0.94885
2164.000	2.13812	0.34592	0.48238	1.13578
2165.000	2.16379	0.38567	0.49622	1.03634
2166.000	2.17761	0.41946	0.40528	1.18352
2167.000	2.18748	0.42741	0.52587	1.05225
2168.000	2.19538	0.23259	0.42307	1.18153
2169.000	2.17563	0.34193	0.51005	1.15168
2170.000	2.19932	0.40554	0.46459	1.17953
2171.000	2.03743	0.23262	0.47447	1.07413
2172.000	2.13023	0.29821	0.38156	1.08210
2173.000	2.11641	0.37375	0.43296	1.14374
2174.000	2.08679	0.42545	0.46854	1.17356
2175.000	2.14207	0.31212	0.48831	1.14373
2176.000	2.07889	0.25647	0.43889	1.10596
2177.000	2.10456	0.34990	0.46261	1.18351
2178.000	2.13220	0.35785	0.47249	1.27100
2179.000	2.14207	0.28031	0.49226	1.23321
2180.000	2.07297	0.33201	0.47249	1.26702
2181.000	2.20919	0.32403	0.44679	1.29089
2182.000	2.07297	0.34792	0.48435	1.28491
2183.000	2.13812	0.34194	0.39144	1.18153
2184.000	2.12628	0.25646	0.49819	1.11987
2185.000	2.13615	0.25248	0.43296	1.25907
2186.000	2.08087	0.35189	0.49226	1.15367
2187.000	2.19538	0.33596	0.44877	1.25510
2188.000	2.14800	0.30218	0.30050	1.40424
2189.000	2.21314	0.28427	0.42109	1.19346
2190.000	2.11246	0.44930	0.47842	1.29287
2191.000	2.15194	0.37176	0.43691	1.22925
2192.000	2.16181	0.40356	0.45865	1.08806
2193.000	2.15589	0.39561	0.46656	1.09203
2194.000	2.10259	0.23261	0.30050	1.29091
2195.000	2.15984	0.27037	0.44877	1.07414
2196.000	2.11246	0.33797	0.37760	1.18153
2197.000	2.10259	0.33201	0.39342	1.16164
2198.000	2.18748	0.38964	0.42307	1.21732
2199.000	2.25657	0.41149	0.44482	1.09999
2200.000	2.24867	0.37571	0.41912	1.22527
2201.000	2.05718	0.36184	0.46854	1.04232
2202.000	2.06507	0.35389	0.47052	1.17356
2203.000	2.10654	0.28628	0.38156	1.24914
2204.000	2.20722	0.39560	0.42307	1.09999
2205.000	2.02163	0.35787	0.47249	1.20737
2206.000	2.17366	0.44530	0.39539	1.14574
2207.000	2.16181	0.43537	0.31829	1.19148
2208.000	2.14800	0.34591	0.42900	1.19942
2209.000	2.16379	0.43139	0.38353	1.27101
2210.000	2.05718	0.32605	0.38551	1.18153
2211.000	2.11838	0.43737	0.39539	1.11988
2212.000	2.09469	0.41153	0.42900	1.18152
2213.000	2.16181	0.33796	0.48040	1.23322
2214.000	2.15194	0.38567	0.27876	1.13779
2215.000	2.04730	0.39365	0.34399	1.26306
2216.000	2.15194	0.50694	0.44877	1.24316
2217.000	2.14010	0.45923	0.46459	1.01050
2218.000	2.14405	0.42543	0.44679	1.10397
2219.000	2.09864	0.44135	0.44877	1.17556
2220.000	2.18748	0.33795	0.35190	1.07415
2221.000	1.97424	0.38373	0.43098	1.11391
2222.000	2.03546	0.17695	0.50215	1.09600
2223.000	2.16774	0.25645	0.33609	1.11989
2224.000	2.10456	0.22863	0.43098	1.14374
2225.000	2.17366	0.35585	0.33411	1.21534
2226.000	1.98412	0.26443	0.47645	1.21333
2227.000	2.08482	0.40955	0.44482	1.01249
2228.000	2.17563	0.31609	0.45470	1.08408
2229.000	2.10259	0.24851	0.43691	1.09204
2230.000	2.09666	0.27237	0.45272	1.09999
2231.000	2.12036	0.33200	0.43493	1.04630
2232.000	2.06507	0.20875	0.41912	1.10397
2233.000	2.07297	0.29027	0.38946	1.12585
2234.000	2.18748	0.22067	0.42307	1.13977
2235.000	2.06507	0.27834	0.36376	1.02244
2236.000	2.02163	0.23262	0.44086	1.12982
2237.000	2.09469	0.40358	0.46063	1.05624
2238.000	2.11641	0.30616	0.43493	1.12982
2239.000	2.01571	0.22864	0.47842	1.06618
2240.000	2.11838	0.18489	0.35586	1.18551
2241.000	2.06705	0.34792	0.34202	1.06222
2242.000	2.11641	0.31014	0.34993	0.91107
2243.000	2.07495	0.16501	0.48040	1.17555
2244.000	1.98807	0.34595	0.34004	1.19148
2245.000	1.88538	0.29626	0.53378	1.05424
2246.000	2.10061	0.22664	0.49226	1.16759
2247.000	2.00979	0.30022	0.42109	1.06022
2248.000	1.94067	0.21672	0.42702	1.13181
2249.000	1.96832	0.29824	0.40133	1.12187
2250.000	2.01374	0.29624	0.33016	1.12188
2251.000	2.09074	0.30219	0.47249	1.14771
2252.000	1.94067	0.18292	0.38749	1.17159
2253.000	2.07100	0.25050	0.47645	1.06021
2254.000	2.06902	0.22267	0.45272	1.21334
2255.000	1.99991	0.31612	0.41319	1.13778
2256.000	1.93475	0.17497	0.43691	0.95879
2257.000	2.10061	0.28827	0.39737	1.14574
2258.000	1.99202	0.17695	0.30248	1.03836
2259.000	2.05520	0.24852	0.36376	1.13381
2260.000	2.08482	0.31412	0.37365	1.13580
2261.000	2.03348	0.25051	0.41319	1.21135
2262.000	2.09864	0.23261	0.32225	0.97869
2263.000	2.16379	0.25049	0.40726	1.05227
2264.000	2.05718	0.26045	0.34202	1.00057
2265.000	2.05520	0.16899	0.41714	1.14971
2266.000	2.08284	0.11531	0.39539	1.06818
2267.000	2.00189	0.27636	0.42307	1.05624
2268.000	2.13615	0.24851	0.47447	1.04828
2269.000	2.00781	0.20876	0.50215	1.11589
2270.000	2.00781	0.21671	0.39144	1.15568
2271.000	2.02361	0.20876	0.35190	0.95283
2272.000	2.09864	0.22068	0.34202	1.13182
2273.000	2.05718	0.18291	0.38353	0.99460
2274.000	2.06902	0.26442	0.42109	1.07016
2275.000	2.14997	0.22465	0.40528	1.12187
2276.000	2.02756	0.26642	0.40528	1.13181
2277.000	2.09864	0.23261	0.48040	1.06021
2278.000	1.98017	0.30420	0.34993	1.06818
2279.000	1.93278	0.15310	0.36772	1.11193
2280.000	1.97424	0.23859	0.39935	1.08608
2281.000	2.01769	0.14315	0.51796	1.05424
2282.000	2.00386	0.25250	0.44482	1.05823
2283.000	1.97227	0.13122	0.41912	1.10198
2284.000	2.07495	0.19881	0.39539	1.08608
2285.000	2.00386	0.17496	0.39737	1.11392
2286.000	1.95647	0.19883	0.55750	1.03435
2287.000	2.10456	0.11531	0.36969	1.16960
2288.000	2.00781	0.20479	0.37760	1.06420
2289.000	1.97029	0.13122	0.28271	1.15569
2290.000	2.07297	0.32207	0.45272	1.07811
2291.000	2.00781	0.13122	0.42307	1.08210
2292.000	2.04533	0.14315	0.27085	1.14774
2293.000	1.99399	0.19683	0.50412	1.07015
2294.000	2.04928	0.21671	0.48831	1.11390
2295.000	1.96635	0.14514	0.43889	1.11988
2296.000	1.96437	0.25648	0.58517	1.07014
2297.000	1.99597	0.17099	0.50808	1.12981
2298.000	2.11246	0.15507	0.48238	1.10396
2299.000	2.03546	0.22268	0.44284	1.09601
2300.000	2.01374	0.18291	0.48040	1.07214
2301.000	2.07692	0.10338	0.41121	1.08011
2302.000	2.05125	0.24057	0.48238	1.06817
2303.000	1.99399	0.18689	0.42702	1.08408
2304.000	2.10654	0.08350	0.47842	1.12186
2305.000	1.99004	0.25648	0.36969	1.14574
2306.000	2.01374	0.16303	0.48831	1.01049
2307.000	1.97622	0.20280	0.52389	1.09401
2308.000	2.04730	0.24653	0.46854	1.20936
2309.000	2.00584	0.20876	0.48435	1.05822
2310.000	1.94067	0.11333	0.40528	1.01846
2311.000	2.08087	0.15507	0.35586	1.17358
2312.000	2.00781	0.20677	0.41714	1.21533
2313.000	1.96240	0.18491	0.38946	1.11591
2314.000	1.94462	0.19286	0.51401	1.20140
2315.000	1.82811	0.09743	0.41912	1.28095
2316.000	1.89723	0.27837	0.47447	1.21333
2317.000	2.09864	0.26442	0.47645	1.27299
2318.000	2.02756	0.27834	0.45075	1.19345
2319.000	2.07889	0.15706	0.46459	1.06618
2320.000	2.08482	0.27237	0.47842	1.05425
2321.000	2.22696	0.11132	0.65041	0.90307
2322.000	2.15392	0.08946	0.68599	0.67633
2323.000	2.22696	-0.06958	0.61087	0.64849
2324.000	2.24473	-0.17692	0.62075	0.55500
2325.000	2.22893	-0.25048	0.68401	0.42968
2326.000	2.37105	-0.35779	0.73145	0.31828
2327.000	2.30000	-0.54664	0.55750	0.31829
2328.000	2.21314	-0.60432	0.64250	0.19097
2329.000	2.13812	-0.72958	0.75912	0.18102
2330.000	2.32368	-0.68576	0.64843	0.08952
2331.000	2.12233	-0.65802	0.58715	-0.01393
2332.000	2.15392	-0.67590	0.65041	0.02984
2333.000	2.21709	-0.72755	0.61087	0.03382
2334.000	2.14010	-0.64410	0.65634	-0.06565
2335.000	2.31776	-0.76526	0.49028	-0.11140
2336.000	2.19143	-0.71365	0.56540	-0.03979
2337.000	2.24275	-0.83089	0.63262	-0.08355
2338.000	2.15984	-0.93230	0.58715	-0.16511
2339.000	2.16379	-0.95615	0.58320	-0.29243
2340.000	2.30197	-1.04350	0.63262	-0.22280
2341.000	2.20919	-1.14889	0.71366	-0.38393
2342.000	2.15984	-1.15687	0.55354	-0.39388
2343.000	2.25262	-1.19455	0.63262	-0.38194
2344.000	2.18353	-1.16480	0.61285	-0.33420
2345.000	2.21117	-1.19260	0.57133	-0.51522
2346.000	2.21906	-1.13894	0.57133	-0.41378
2347.000	2.27039	-1.09121	0.54564	-0.32824
2348.000	2.18945	-1.09525	0.63459	-0.21683
2349.000	2.27433	-1.09717	0.55552	-0.36603
2350.000	2.18945	-1.03563	0.60889	-0.24469
2351.000	2.09469	-1.06153	0.64448	-0.38592
2352.000	2.17366	-1.08731	0.70575	-0.25065
2353.000	2.23486	-0.98393	0.56145	-0.23076
2354.000	2.23486	-0.97796	0.69982	-0.31232
2355.000	2.32960	-1.03155	0.66820	-0.27452
2356.000	2.30789	-0.98785	0.65238	-0.37200
2357.000	2.30789	-1.06734	0.66227	-0.39388
2358.000	2.26447	-0.98788	0.67017	-0.31232
2359.000	2.14602	-0.98995	0.65041	-0.34017
2360.000	2.23683	-1.09521	0.66820	-0.37597
2361.000	2.27433	-1.11704	0.60296	-0.37001
2362.000	2.36315	-1.04345	0.73738	-0.49929
2363.000	2.24473	-1.10912	0.65831	-0.45952
2364.000	2.37500	-1.01562	0.69982	-0.37597
2365.000	2.21117	-1.09722	0.79273	-0.40978
2366.000	2.14602	-1.07540	0.68796	-0.47941
2367.000	2.18748	-1.06941	0.65238	-0.46350
2368.000	2.27039	-1.18063	0.64052	-0.39786
2369.000	2.19932	-1.07338	0.67413	-0.44559
2370.000	2.21314	-1.11709	0.65436	-0.30038
2371.000	2.14997	-1.09329	0.61087	-0.35211
2372.000	2.18945	-1.22441	0.60692	-0.26856
2373.000	2.17958	-1.13699	0.53575	-0.47743
2374.000	2.14997	-1.07938	0.58913	-0.49135
2375.000	2.14602	-1.21252	0.57727	-0.30834
2376.000	2.19143	-1.18467	0.64250	-0.45156
2377.000	2.11838	-1.22049	0.67610	-0.30038
2378.000	2.22104	-1.25419	0.65238	-0.31829
2379.000	2.20525	-1.16081	0.67808	-0.45952
2380.000	2.26644	-1.12897	0.62273	-0.37200
2381.000	2.27039	-1.19057	0.62471	-0.31033
2382.000	2.26447	-1.21640	0.65634	-0.42968
2383.000	2.25854	-1.22435	0.66029	-0.33221
2384.000	2.28026	-1.22235	0.72354	-0.39586
2385.000	2.23486	-1.13694	0.54564	-0.28447
2386.000	2.20525	-1.22639	0.69785	-0.30635
2387.000	2.26249	-1.24819	0.52982	-0.39786
2388.000	2.12825	-1.36753	0.63855	-0.46947
2389.000	2.25065	-1.19456	0.68599	-0.31828
2390.000	2.27236	-1.18659	0.51796	-0.30238
2391.000	2.28026	-1.17466	0.66029	-0.27452
2392.000	2.09074	-1.33776	0.46261	-0.41378
2393.000	2.20327	-1.24427	0.61285	-0.41576
2394.000	2.24473	-1.26013	0.50017	-0.24270
2395.000	2.27039	-1.24223	0.54761	-0.25066
2396.000	2.16971	-1.15686	0.54959	-0.25066
2397.000	2.23288	-1.23829	0.60099	-0.34614
2398.000	2.25657	-1.22237	0.63855	-0.23673
2399.000	2.14010	-1.15689	0.54168	-0.30835
2400.000	2.14997	-1.14893	0.58715	-0.35410
2401.000	2.24275	-1.17469	0.66820	-0.31232
2402.000	2.23880	-1.28001	0.62471	-0.17705
2403.000	2.27039	-1.19454	0.49226	-0.43367
2404.000	2.15392	-1.08335	0.44086	-0.26856
2405.000	2.26644	-1.12698	0.52191	-0.32028
2406.000	2.22893	-1.14887	0.62866	-0.28646
2407.000	2.21709	-1.05946	0.53180	-0.30039
2408.000	2.26447	-1.02365	0.51796	-0.35808
2409.000	2.28223	-1.03357	0.56145	-0.25264
2410.000	2.21512	-1.11709	0.52982	-0.27055
2411.000	2.15787	-1.02770	0.50412	-0.19695
2412.000	2.20525	-1.15286	0.55750	-0.25264
2413.000	2.16576	-0.96410	0.50412	-0.24071
2414.000	2.26249	-1.00179	0.56343	-0.29243
2415.000	2.33552	-1.04546	0.53773	-0.25662
2416.000	2.24670	-1.06540	0.58320	-0.29840
2417.000	2.20919	-1.15286	0.54168	-0.16909
2418.000	2.24867	-0.98590	0.58122	-0.34216
2419.000	2.28815	-1.08921	0.46656	-0.31432
2420.000	2.15194	-1.09925	0.59506	-0.32028
2421.000	2.18748	-1.11711	0.59308	-0.33221
2422.000	2.12036	-1.17876	0.59506	-0.32625
2423.000	2.27828	-1.10909	0.50215	-0.27851
2424.000	2.03151	-1.11921	0.53575	-0.26856
2425.000	2.10654	-1.06549	0.55750	-0.22877
2426.000	2.18156	-1.04756	0.48633	-0.25464
2427.000	2.12825	-0.97406	0.53180	-0.27652
2428.000	2.15589	-1.00783	0.55947	-0.22678
2429.000	2.07692	-0.95421	0.55750	-0.18700
2430.000	2.18748	-1.14493	0.65634	-0.21683
2431.000	2.12825	-1.04759	0.55947	-0.27055
2432.000	2.21709	-1.05151	0.47249	-0.25464
2433.000	2.24473	-1.10315	0.53575	-0.29044
2434.000	2.14010	-1.11118	0.52982	-0.38991
2435.000	2.14010	-1.03964	0.55354	-0.14721
2436.000	2.20130	-1.08729	0.61285	-0.18700
2437.000	2.14207	-1.03963	0.59308	-0.25065
2438.000	2.16774	-1.05750	0.53180	-0.26458
2439.000	2.24473	-1.09719	0.61878	-0.34415
2440.000	2.14405	-1.06348	0.50808	-0.22480
2441.000	2.11246	-1.17082	0.55552	-0.20689
2442.000	2.29407	-0.92625	0.55750	-0.22479
2443.000	2.22696	-1.03759	0.59901	-0.22081
2444.000	2.20722	-1.02369	0.46063	-0.30238
2445.000	2.10456	-1.08338	0.57924	-0.29044
2446.000	2.17563	-1.06743	0.58122	-0.31033
2447.000	2.16576	-1.00782	0.62273	-0.15716
2448.000	2.19538	-0.93824	0.62273	-0.27253
2449.000	2.20919	-0.98593	0.55947	-0.21684
2450.000	2.08087	-1.04365	0.64052	-0.24866
2451.000	2.14602	-1.06944	0.55750	-0.24270
2452.000	2.10851	-1.09729	0.62075	-0.22678
2453.000	2.20919	-0.99587	0.57924	-0.31033
2454.000	2.10061	-1.16288	0.46656	-0.27453
2455.000	2.33750	-1.03950	0.60889	-0.25463
2456.000	2.03546	-1.10529	0.57133	-0.20888
2457.000	2.17563	-1.10321	0.52587	-0.19297
2458.000	2.16971	-0.89851	0.60099	-0.38393
2459.000	2.14800	-0.97802	0.60296	-0.15915
2460.000	2.22104	-1.00381	0.63657	-0.30038
2461.000	2.15194	-1.06944	0.52587	-0.31431
2462.000	2.20722	-1.08132	0.52784	-0.23474
2463.000	2.24275	-1.08328	0.52389	-0.21286
2464.000	2.13220	-1.12311	0.64843	-0.34614
2465.000	2.23486	-1.14290	0.51401	-0.27453
2466.000	2.31184	-1.02759	0.61285	-0.31033
2467.000	2.13812	-1.07541	0.42900	-0.19098
2468.000	2.21117	-1.15485	0.55750	-0.36007
2469.000	2.25657	-0.96205	0.51005	-0.19297
2470.000	2.14405	-1.05951	0.51598	-0.45953
2471.000	2.21709	-1.10914	0.64250	-0.24269
2472.000	2.20722	-1.07337	0.54168	-0.35609
2473.000	2.23683	-0.94418	0.51203	-0.28647
2474.000	2.17563	-1.21647	0.59308	-0.23076
2475.000	2.25460	-0.94417	0.47447	-0.35609
2476.000	2.32171	-1.02560	0.50412	-0.26458
2477.000	2.27039	-1.03756	0.65041	-0.31033
2478.000	2.18550	-1.08730	0.56145	-0.27851
2479.000	2.23288	-1.06143	0.50215	-0.24469
2480.000	2.26249	-0.93422	0.58320	-0.22877
2481.000	2.33552	-0.97193	0.50017	-0.29840
2482.000	2.23880	-0.98392	0.58122	-0.22877
2483.000	2.34737	-0.95801	0.53971	-0.16710
2484.000	2.22499	-1.10516	0.58913	-0.26458
2485.000	2.14997	-1.16682	0.52191	-0.33222
2486.000	2.29210	-0.97395	0.65041	-0.36205
2487.000	2.30986	-1.00375	0.56145	-0.24867
2488.000	2.25262	-1.04552	0.58913	-0.14522
2489.000	2.19932	-1.05152	0.61680	-0.33818
2490.000	2.24275	-0.98392	0.51796	-0.29044
2491.000	2.24078	-1.02963	0.59703	-0.25861
2492.000	2.26249	-1.06340	0.50808	-0.26060
2493.000	2.13418	-0.98797	0.53180	-0.26458
2494.000	2.29605	-0.89446	0.49226	-0.23474
2495.000	2.34934	-0.99776	0.62273	-0.25463
2496.000	2.34342	-0.92821	0.58517	-0.26657
2497.000	2.27828	-0.91434	0.59110	-0.17705
2498.000	2.19932	-1.02767	0.64052	-0.30436
2499.000	2.33947	-0.93815	0.62471	-0.29044
2500.000	2.31579	-0.99977	0.59901	-0.20689
2501.000	2.29407	-0.95805	0.69389	-0.11140
2502.000	2.29210	-0.91036	0.54168	-0.27055
2503.000	2.34737	-1.05141	0.61878	-0.34216
2504.000	2.23880	-0.98591	0.69389	-0.20689
2505.000	2.31973	-1.02759	0.63657	-0.24667
2506.000	2.27631	-1.10313	0.58517	-0.38195
2507.000	2.32368	-0.94809	0.65634	-0.22877
2508.000	2.37105	-0.95999	0.62866	-0.24667
2509.000	2.32368	-0.95207	0.58517	-0.25861
2510.000	2.20130	-1.00978	0.58715	-0.32227
2511.000	2.31184	-0.96599	0.72354	-0.22678
2512.000	2.29407	-0.96997	0.65634	-0.36802
2513.000	2.32171	-1.01367	0.56145	-0.32028
2514.000	2.26644	-1.07134	0.68203	-0.36801
2515.000	2.24867	-1.12700	0.63657	-0.13527
2516.000	2.21512	-1.06343	0.63262	-0.29641
2517.000	2.32565	-1.12296	0.56145	-0.15915
2518.000	2.24867	-1.13495	0.66424	-0.33420
2519.000	2.25460	-0.95013	0.66424	-0.28845
2520.000	2.30197	-1.02760	0.57331	-0.23076
2521.000	2.26841	-0.99185	0.61878	-0.31431
2522.000	2.20919	-0.98792	0.65041	-0.24468
2523.000	2.19932	-1.11114	0.69785	-0.26855
2524.000	2.26052	-1.11308	0.70180	-0.32823
2525.000	2.26644	-1.05147	0.66424	-0.28845
2526.000	2.23683	-1.16874	0.68401	-0.20092
2527.000	2.23880	-0.94020	0.67808	-0.29043
2528.000	2.25262	-1.08924	0.61087	-0.23872
2529.000	2.27631	-1.04550	0.65831	-0.32425
2530.000	2.32565	-0.99579	0.61285	-0.16909
2531.000	2.23486	-1.01771	0.65436	-0.17307
2532.000	2.25657	-1.06539	0.61680	-0.25861
2533.000	2.23288	-1.09323	0.70378	-0.29441
2534.000	2.22893	-0.98790	0.68401	-0.35409
2535.000	2.27236	-1.09717	0.63855	-0.18898
2536.000	2.30789	-1.03554	0.59110	-0.22678
2537.000	2.16774	-1.04160	0.60296	-0.35807
2538.000	2.33947	-1.18653	0.56540	-0.20291
2539.000	2.15194	-1.03764	0.68401	-0.17307
2540.000	2.37105	-0.89242	0.64645	-0.27054
2541.000	2.27828	-1.07928	0.51005	-0.23275
2542.000	2.29210	-1.09914	0.63262	-0.27651
2543.000	2.35723	-1.05935	0.52982	-0.12533
2544.000	2.26644	-1.17666	0.57331	-0.15716
2545.000	2.34342	-1.18852	0.62273	-0.23275
2546.000	2.26052	-1.12500	0.59703	-0.23076
2547.000	2.29605	-1.11901	0.60889	-0.27850
2548.000	2.33750	-1.05738	0.55750	-0.27851
2549.000	2.26052	-1.09718	0.68006	-0.21285
2550.000	2.30986	-1.14881	0.58913	-0.24270
2551.000	2.33750	-1.08917	0.58715	-0.28248
2552.000	2.26249	-1.12301	0.68401	-0.13726
2553.000	2.31381	-1.10310	0.49819	-0.16114
2554.000	2.25460	-1.04154	0.60692	-0.21087
2555.000	2.30394	-1.13093	0.46261	-0.28050
2556.000	2.30394	-1.07529	0.58122	-0.27453
2557.000	2.33355	-1.07527	0.60889	-0.16113
2558.000	2.30000	-1.09318	0.62075	-0.12732
2559.000	2.29407	-1.19055	0.56540	-0.23872
2560.000	2.34342	-1.07526	0.56936	-0.17705
2561.000	2.30197	-1.13292	0.50412	-0.23076
2562.000	2.26249	-1.10711	0.54959	-0.34216
2563.000	2.30197	-1.02959	0.56936	-0.17705
2564.000	2.32565	-0.97194	0.54564	-0.21087
2565.000	2.34144	-1.10308	0.54168	-0.21684
2566.000	2.31776	-1.10906	0.59110	-0.25065
2567.000	2.37697	-1.01761	0.55947	-0.19694
2568.000	2.26644	-1.22435	0.62075	-0.28049
2569.000	2.36315	-1.07524	0.60692	-0.20490
2570.000	2.28618	-1.11504	0.47645	-0.23872
2571.000	2.21906	-1.07336	0.58122	-0.31829
2572.000	2.20525	-1.00581	0.48633	-0.26458
2573.000	2.35723	-1.10903	0.57133	-0.27254
2574.000	2.31381	-1.15079	0.61680	-0.29243
2575.000	2.25657	-1.13494	0.63855	-0.19893
2576.000	2.34342	-1.06532	0.64645	-0.22877
2577.000	2.35526	-1.10903	0.73145	-0.32823
2578.000	2.26447	-1.14884	0.61285	-0.22081
2579.000	2.25854	-1.10712	0.56540	-0.16909
2580.000	2.32171	-1.16072	0.60494	-0.22081
2581.000	2.37894	-1.16464	0.59703	-0.25065
2582.000	2.30000	-1.15080	0.57133	-0.05769
2583.000	2.38684	-1.11496	0.54959	-0.20689
2584.000	2.42828	-1.11692	0.61285	-0.18501
2585.000	2.32763	-1.13091	0.61680	-0.14920
2586.000	2.23683	-1.22636	0.63459	-0.18898
2587.000	2.36315	-1.07723	0.58913	-0.24668
2588.000	2.34737	-1.24017	0.62668	-0.15318
2589.000	2.32763	-1.09117	0.77691	-0.23473
2590.000	2.29013	-1.08921	0.70180	-0.15317
2591.000	2.24670	-1.12104	0.56738	-0.17307
2592.000	2.14800	-1.10919	0.59703	-0.21684
2593.000	2.26249	-1.06340	0.54366	-0.38394
2594.000	2.24867	-1.17071	0.49424	-0.35211
2595.000	2.23486	-1.13694	0.63855	-0.42173
2596.000	2.08087	-1.19270	0.64843	-0.52317
2597.000	2.14602	-1.42314	0.64843	-0.38194
2598.000	2.12036	-1.40330	0.71168	-0.57886
2599.000	2.26052	-1.39721	0.82831	-0.61067
2600.000	2.24670	-1.65944	0.88167	-0.77972
2601.000	2.55654	-1.82784	1.06153	-1.16147
2602.000	2.53681	-2.13357	1.19196	-1.26480
2603.000	2.41644	-2.31040	1.23148	-1.48742
2604.000	2.50919	-2.38763	1.45081	-1.66217
2605.000	2.62165	-2.52628	1.46266	-1.86880
2606.000	2.78538	-2.78172	1.33819	-2.00597
2607.000	2.80707	-2.85501	1.47254	-2.10318
2608.000	2.74396	-3.00183	1.51798	-2.25208
2609.000	2.85046	-3.14817	1.51403	-2.34739
2610.000	2.83666	-3.25121	1.43105	-2.57577
2611.000	2.90371	-3.27479	1.57132	-2.76809
2612.000	2.97666	-3.32804	1.47254	-2.82178
2613.000	2.96089	-3.49042	1.44883	-2.93092
2614.000	2.92934	-3.76163	1.46662	-3.03999
2615.000	3.12255	-3.81634	1.50020	-3.13314
2616.000	3.02201	-3.90174	1.51798	-3.31550
2617.000	2.99244	-3.94930	1.43303	-3.42860
2618.000	3.08312	-3.99049	1.30460	-3.72794
2619.000	3.03187	-4.09545	1.31052	-3.91405
2620.000	2.96878	-4.33676	1.20975	-4.24864
2621.000	2.84849	-4.58804	1.16429	-4.35947
2622.000	2.80510	-4.72244	1.02200	-4.38538
2623.000	2.71831	-4.89248	1.02991	-4.43481
2624.000	2.76565	-4.99879	1.03781	-4.43875
2625.000	2.74593	-4.99296	1.04177	-4.49212
2626.000	2.72423	-5.01869	1.02595	-4.67200
2627.000	2.85243	-5.02800	1.01805	-4.78265
2628.000	2.85638	-5.02404	1.00817	-4.98803
2629.000	2.75185	-5.17235	1.06153	-4.94649
2630.000	2.66505	-5.35204	1.06351	-5.21093
2631.000	2.79918	-5.42038	1.09315	-5.19905
2632.000	2.72029	-5.47390	1.02398	-5.28398
2633.000	2.65124	-5.48603	0.90342	-5.22499
2634.000	2.67294	-5.49971	0.93504	-5.29201
2635.000	2.58614	-5.69104	0.88958	-5.33744
2636.000	2.60192	-5.69294	0.75912	-5.38099
2637.000	2.38684	-5.84340	0.71959	-5.33174
2638.000	2.43815	-6.01819	0.76901	-5.46378
2639.000	2.53484	-6.07082	0.65238	-5.56050
2640.000	2.44604	-5.95918	0.55750	-5.40093
2641.000	2.50327	-6.06900	0.70773	-5.66683
2642.000	2.44802	-6.14000	0.50808	-5.60202
2643.000	2.30789	-6.22707	0.60494	-5.68073
2644.000	2.37302	-6.13248	0.48831	-5.62962
2645.000	2.35921	-6.30737	0.46459	-5.56856
2646.000	2.31184	-6.32329	0.52982	-5.62170
2647.000	2.25065	-6.06814	0.57133	-5.48766
2648.000	2.36315	-6.12073	0.64448	-5.43436
2649.000	2.38092	-6.11083	0.44877	-5.43453
2650.000	2.42828	-6.02414	0.53378	-5.44432
2651.000	2.39276	-6.11077	0.64645	-5.49941
2652.000	2.41249	-6.19517	0.63064	-5.47183
2653.000	2.49340	-6.15551	0.51796	-5.47588
2654.000	2.44012	-6.12628	0.60099	-5.40286
2655.000	2.28815	-6.14660	0.47249	-5.45226
2656.000	2.44012	-6.11646	0.69389	-5.55848
2657.000	2.35131	-6.07558	0.67413	-5.49741
2658.000	2.35131	-6.18366	0.63855	-5.42253
2659.000	2.42039	-6.09100	0.56343	-5.43247
2660.000	2.44802	-6.14590	0.58122	-5.52510
2661.000	2.50524	-6.09258	0.66424	-5.46785
2662.000	2.47564	-6.05144	0.64250	-5.54474
2663.000	2.54668	-6.03932	0.74726	-5.49732
2664.000	2.44012	-6.10860	0.61482	-5.50732
2665.000	2.33552	-6.18569	0.67610	-5.50134
2666.000	2.41447	-6.06547	0.61087	-5.49156
2667.000	2.51708	-6.04929	0.53378	-5.50346
2668.000	2.49340	-6.02974	0.74331	-5.53871
2669.000	2.47564	-6.04358	0.61680	-5.46199
2670.000	2.42039	-6.03596	0.61087	-5.56054
2671.000	2.39078	-5.96532	0.57133	-5.52905
2672.000	2.54076	-5.91353	0.62075	-5.55068
2673.000	2.47367	-5.95906	0.51005	-5.45223
2674.000	2.50919	-5.84681	0.66820	-5.58610
2675.000	2.39078	-5.98695	0.55157	-5.34966
2676.000	2.43223	-5.89631	0.61482	-5.44622
2677.000	2.32565	-6.01475	0.43889	-5.45228
2678.000	2.30000	-5.98930	0.67808	-5.66489
2679.000	2.32960	-5.94985	0.53180	-5.44630
2680.000	2.46972	-5.82338	0.61680	-5.48761
2681.000	2.40657	-5.81578	0.52191	-5.66702
2682.000	2.32368	-5.85350	0.52587	-5.47193
2683.000	2.37697	-6.02239	0.57331	-5.62757
2684.000	2.44210	-5.91594	0.53773	-5.54287
2685.000	2.35921	-5.91826	0.61087	-5.60980
2686.000	2.35329	-5.92812	0.59110	-5.56056
2687.000	2.44210	-5.92970	0.53180	-5.60397
2688.000	2.43815	-5.82548	0.61285	-5.50733
2689.000	2.37894	-5.79425	0.62471	-5.56644
2690.000	2.40855	-5.97507	0.60889	-5.62557
2691.000	2.46183	-5.86275	0.57727	-5.56451
2692.000	2.37500	-5.84345	0.49226	-5.54883
2693.000	2.36710	-5.94379	0.53773	-5.52514
2694.000	2.39473	-5.88861	0.63657	-5.53095
2695.000	2.50327	-5.71108	0.54761	-5.61775
2696.000	2.38881	-5.78831	0.60099	-5.54281
2697.000	2.38289	-5.87096	0.49226	-5.42267
2698.000	2.30592	-5.84571	0.53378	-5.36545
2699.000	2.43420	-5.80189	0.66424	-5.52698
2700.000	2.36118	-5.78055	0.56936	-5.56649
2701.000	2.40460	-5.94166	0.63855	-5.60386
2702.000	2.28420	-5.92054	0.61482	-5.61177
2703.000	2.42828	-5.78224	0.64843	-5.58218
2704.000	2.38486	-5.92012	0.58320	-5.70636
2705.000	2.48946	-5.86066	0.60099	-5.55464
2706.000	2.37500	-5.90049	0.53773	-5.46600
2707.000	2.37302	-5.95163	0.59703	-5.51128
2708.000	2.39473	-5.79025	0.57133	-5.37528
2709.000	2.31381	-5.91255	0.58122	-5.55860
2710.000	2.42236	-5.89242	0.63459	-5.53293
2711.000	2.32368	-5.82203	0.67808	-5.55258
2712.000	2.38881	-5.88273	0.59703	-5.61573
2713.000	2.34737	-5.85734	0.67808	-5.65898
2714.000	2.36118	-5.78842	0.53773	-5.60593
2715.000	2.44012	-5.82941	0.61087	-5.57433
2716.000	2.36513	-5.75889	0.58913	-5.62953
2717.000	2.29605	-5.85755	0.65436	-5.57429
2718.000	2.30197	-5.93030	0.62866	-5.53293
2719.000	2.36118	-5.82777	0.62471	-5.39495
2720.000	2.44012	-5.86284	0.51203	-5.53304
2721.000	2.45986	-6.00041	0.62866	-5.51519
2722.000	2.34737	-5.79045	0.55552	-5.43247
2723.000	2.42433	-5.90815	0.59506	-5.41864
2724.000	2.42433	-5.92191	0.58715	-5.50144
2725.000	2.35921	-5.86122	0.51401	-5.42068
2726.000	2.34144	-5.94390	0.59901	-5.46595
2727.000	2.30986	-6.05610	0.67610	-5.48952
2728.000	2.29605	-6.09743	0.62075	-5.60979
2729.000	2.38486	-5.99091	0.61087	-5.48367
2730.000	2.42236	-5.87472	0.63459	-5.36733
2731.000	2.39868	-5.81384	0.63459	-5.44225
2732.000	2.37105	-5.91428	0.63855	-5.44422
2733.000	2.46972	-5.93155	0.51005	-5.45420
2734.000	2.32171	-5.85351	0.53971	-5.45417
2735.000	2.36118	-5.74514	0.64645	-5.40675
2736.000	2.33750	-5.85148	0.59110	-5.45413
2737.000	2.35329	-5.94778	0.56343	-5.50935
2738.000	2.33947	-5.93604	0.58517	-5.43836
2739.000	2.28026	-5.81040	0.62866	-5.32395
2740.000	2.44210	-5.91790	0.62471	-5.56841
2741.000	2.44210	-5.97493	0.60889	-5.45805
2742.000	2.38684	-6.00466	0.58320	-5.58421
2743.000	2.39671	-5.81582	0.58715	-5.38710
2744.000	2.41644	-6.03205	0.51203	-5.48180
2745.000	2.37302	-5.87297	0.64645	-5.40478
2746.000	2.39473	-5.99676	0.59506	-5.48763
2747.000	2.44604	-5.87462	0.59308	-5.52706
2748.000	2.32763	-5.99115	0.57727	-5.42062
2749.000	2.34342	-5.88686	0.46063	-5.52914
2750.000	2.41644	-5.91998	0.64843	-5.45801
2751.000	2.43618	-5.79008	0.54761	-5.42262
2752.000	2.33750	-5.80820	0.53575	-5.37926
2753.000	2.27828	-5.86942	0.61285	-5.44622
2754.000	2.35526	-5.93794	0.59703	-5.41863
2755.000	2.41249	-5.84133	0.56540	-5.39303
2756.000	2.27433	-6.01890	0.57924	-5.34175
2757.000	2.38684	-5.89258	0.57133	-5.36739
2758.000	2.47367	-5.89023	0.51796	-5.41279
2759.000	2.26447	-5.99141	0.60099	-5.38314
2760.000	2.38289	-5.89653	0.55552	-5.46796
2761.000	2.38684	-5.93387	0.53180	-5.47784
2762.000	2.26052	-6.01109	0.59506	-5.35357
2763.000	2.24670	-6.06226	0.58517	-5.42062
2764.000	2.34144	-5.92227	0.59703	-5.42652
2765.000	2.35131	-5.96745	0.57924	-5.40288
2766.000	2.41052	-6.03404	0.50017	-5.34773
2767.000	2.29013	-6.05029	0.54564	-5.41868
2768.000	2.40460	-5.88070	0.60296	-5.33778
2769.000	2.43025	-5.88452	0.60099	-5.46200
2770.000	2.25460	-6.00325	0.55750	-5.43641
2771.000	2.31776	-5.92433	0.50412	-5.49363
2772.000	2.37302	-5.98113	0.52982	-5.48572
2773.000	2.31579	-5.98137	0.60296	-5.43046
2774.000	2.39671	-5.88860	0.61680	-5.46001
2775.000	2.32565	-5.98526	0.59901	-5.46595
2776.000	2.40263	-5.98493	0.50610	-5.30631
2777.000	2.39671	-5.89253	0.56738	-5.37923
2778.000	2.21906	-5.99160	0.59506	-5.38512
2779.000	2.37697	-6.00077	0.52191	-5.34574
2780.000	2.44210	-5.84317	0.60296	-5.43440
2781.000	2.27433	-5.98547	0.49424	-5.57444
2782.000	2.29605	-5.93229	0.48238	-5.28069
2783.000	2.30000	-5.97357	0.55750	-5.29641
2784.000	2.39868	-5.88269	0.62668	-5.39889
2785.000	2.27433	-5.88911	0.48831	-5.38915
2786.000	2.34144	-5.97733	0.54959	-5.34769
2787.000	2.44999	-5.83723	0.64448	-5.30618
2788.000	2.34737	-5.83176	0.59308	-5.42258
2789.000	2.53287	-5.90373	0.56738	-5.29245
2790.000	2.41644	-5.84328	0.45272	-5.26099
2791.000	2.47367	-5.96496	0.64645	-5.36337
2792.000	2.43223	-5.96121	0.68599	-5.33178
2793.000	2.43025	-5.94155	0.60296	-5.29636
2794.000	2.35921	-6.04999	0.57727	-5.54284
2795.000	2.38684	-5.90241	0.47249	-5.59811
2796.000	2.13812	-5.96439	0.39144	-5.49174
2797.000	2.05718	-6.11805	0.35190	-5.58440
2798.000	2.12430	-5.98804	0.12060	-5.66330
2799.000	1.86761	-6.02830	0.11269	-5.61996
2800.000	1.54169	-6.08241	-0.03954	-5.73620
2801.000	1.55552	-5.94862	-0.20363	-5.73616
2802.000	1.50020	-5.98222	-0.19968	-5.76177
2803.000	1.39154	-6.09461	-0.37760	-5.64940
2804.000	1.24334	-6.08514	-0.49622	-5.85413
2805.000	1.20184	-6.28772	-0.52389	-5.74975
2806.000	1.25915	-6.13230	-0.46261	-5.80494
2807.000	1.24729	-6.24831	-0.49028	-5.80491
2808.000	1.18010	-6.18753	-0.43493	-5.82465
2809.000	1.28286	-6.21678	-0.44086	-5.80102
2810.000	1.24729	-6.17754	-0.48040	-5.92304
2811.000	1.22555	-6.21888	-0.52784	-5.83048
2812.000	1.10698	-6.21914	-0.47842	-5.80689
2813.000	1.12872	-6.27412	-0.57924	-5.82255
2814.000	1.19987	-6.21500	-0.62075	-5.83235
2815.000	1.12477	-6.26824	-0.48040	-6.00175
2816.000	1.09513	-6.22309	-0.63064	-5.92289
2817.000	1.09710	-6.23881	-0.48040	-6.00962
2818.000	1.04374	-6.26054	-0.60099	-5.91505
2819.000	0.91725	-6.24898	-0.50412	-5.93483
2820.000	1.09117	-6.33905	-0.54366	-6.03908
2821.000	1.08722	-6.36264	-0.51994	-5.99778
2822.000	1.10106	-6.30563	-0.51005	-5.87774
2823.000	1.02200	-6.28810	-0.46459	-5.90337
2824.000	0.91132	-6.21951	-0.51401	-5.89152
2825.000	1.09908	-6.30170	-0.58913	-5.74181
2826.000	0.94887	-6.32557	-0.49424	-5.87579
2827.000	1.02003	-6.28417	-0.49819	-5.70841
2828.000	1.02991	-6.23895	-0.47249	-5.85021
2829.000	0.96864	-6.29606	-0.43296	-5.78724
2830.000	0.90934	-6.34136	-0.51796	-5.86789
2831.000	0.98840	-6.24296	-0.44086	-6.02737
2832.000	1.06943	-6.23101	-0.47249	-5.82265
2833.000	1.03781	-6.31165	-0.37760	-5.93099
2834.000	1.05758	-6.36466	-0.44482	-5.93488
2835.000	0.96666	-6.35502	-0.51005	-5.82655
2836.000	1.07141	-6.36267	-0.55552	-5.91510
2837.000	1.07734	-6.19757	-0.46854	-5.79509
2838.000	1.09315	-6.28403	-0.50808	-5.93089
2839.000	0.95085	-6.37666	-0.54959	-5.98595
2840.000	1.10106	-6.35082	-0.51203	-5.93088
2841.000	0.95678	-6.35307	-0.50610	-5.88955
2842.000	1.05758	-6.38038	-0.51598	-5.83442
2843.000	1.07734	-6.32729	-0.52389	-5.90332
2844.000	0.92713	-6.29810	-0.60296	-5.78708
2845.000	1.11489	-6.25254	-0.46656	-5.82069
2846.000	1.04769	-6.38040	-0.52191	-5.89348
2847.000	1.10501	-6.32134	-0.49226	-5.93877
2848.000	1.00026	-6.27045	-0.48633	-5.81279
2849.000	1.03386	-6.22518	-0.64052	-5.90320
2850.000	1.03781	-6.23500	-0.62273	-5.85991
2851.000	1.09117	-6.29189	-0.51401	-6.00369
2852.000	1.05362	-6.28607	-0.54366	-5.79305
2853.000	1.09710	-6.14052	-0.46063	-5.84432
2854.000	0.98050	-6.32552	-0.48040	-5.87383
2855.000	1.17220	-6.16592	-0.51203	-5.97221
2856.000	1.03781	-6.28217	-0.51796	-6.01353
2857.000	1.01212	-6.29598	-0.61482	-5.88354
2858.000	1.03979	-6.35095	-0.66227	-5.82049
2859.000	1.06746	-6.32142	-0.50017	-5.73007
2860.000	1.04177	-6.27627	-0.46854	-5.81478
2861.000	1.00224	-6.36084	-0.54761	-5.93085
2862.000	1.17813	-6.19933	-0.57727	-5.85996
2863.000	1.06351	-6.31553	-0.56738	-5.82847
2864.000	1.05955	-6.17795	-0.48633	-5.98010
2865.000	1.07932	-6.16021	-0.45865	-5.88369
2866.000	1.09513	-6.33118	-0.49226	-5.97813
2867.000	1.12477	-6.27806	-0.51994	-5.94465
2868.000	1.06351	-6.17991	-0.52389	-5.77535
2869.000	1.04572	-6.10326	-0.56936	-5.92492
2870.000	1.05955	-6.11699	-0.51598	-5.98401
2871.000	1.04769	-6.29591	-0.53575	-5.80093
2872.000	1.05165	-6.35682	-0.47447	-5.86596
2873.000	1.13860	-6.29376	-0.50412	-5.86397
2874.000	1.11884	-6.19356	-0.55750	-5.80682
2875.000	1.14453	-6.27999	-0.36179	-5.93100
2876.000	1.07734	-6.16218	-0.56540	-5.82256
2877.000	1.09117	-6.31547	-0.54168	-5.80093
2878.000	1.08327	-6.29977	-0.47842	-5.99585
2879.000	1.14651	-6.19546	-0.62273	-5.95045
2880.000	1.09117	-6.31744	-0.62075	-5.90912
2881.000	1.15244	-6.26818	-0.51796	-5.86592
2882.000	1.13070	-6.21122	-0.45075	-6.05097
2883.000	1.03979	-6.28217	-0.49424	-5.82066
2884.000	1.06351	-6.21923	-0.55947	-5.88950
2885.000	1.08920	-6.20541	-0.57133	-5.78515
2886.000	1.06548	-6.40197	-0.48040	-5.83052
2887.000	1.11291	-6.13458	-0.49622	-5.81475
2888.000	1.09117	-6.26241	-0.50215	-5.94270
2889.000	1.16825	-6.35460	-0.44877	-5.86204
2890.000	1.15046	-6.27997	-0.39342	-5.90933
2891.000	1.07339	-6.18972	-0.45865	-5.91715
2892.000	1.08722	-6.30762	-0.47249	-5.80887
2893.000	1.12082	-6.34881	-0.49028	-5.96633
2894.000	1.04177	-6.31950	-0.45075	-5.78919
2895.000	1.06153	-6.33911	-0.40528	-5.88176
2896.000	1.14058	-6.38413	-0.52587	-5.97220
2897.000	0.99631	-6.26653	-0.52191	-5.83442
2898.000	1.05560	-6.35484	-0.45075	-5.78722
2899.000	1.02793	-6.38240	-0.45470	-5.85810
2900.000	1.19196	-6.37027	-0.48831	-5.90532
2901.000	1.10501	-6.32723	-0.49819	-5.94074
2902.000	1.00026	-6.27045	-0.57924	-5.84814
2903.000	1.18010	-6.28187	-0.51005	-5.89349
2904.000	1.08920	-6.22507	-0.54168	-5.90330
2905.000	1.24927	-6.19130	-0.46459	-5.87778
2906.000	1.22160	-6.24640	-0.38551	-5.77349
2907.000	1.07734	-6.27030	-0.46656	-5.84037
2908.000	1.17418	-6.22686	-0.53378	-5.83835
2909.000	1.12279	-6.28200	-0.51994	-5.97614
2910.000	1.06943	-6.29587	-0.50808	-5.82656
2911.000	1.23741	-6.22475	-0.47447	-5.79114
2912.000	1.14453	-6.25640	-0.44877	-5.75178
2913.000	1.21172	-6.27198	-0.58913	-5.75559
2914.000	1.12872	-6.39398	-0.46063	-5.74389
2915.000	1.09513	-6.20933	-0.51598	-5.88758
2916.000	1.17418	-6.35852	-0.54366	-5.83637
2917.000	1.10106	-6.12871	-0.45075	-5.73799
2918.000	0.99038	-6.33729	-0.46656	-5.91911
2919.000	1.12279	-6.29772	-0.64250	-5.76144
2920.000	1.10896	-6.26434	-0.49028	-5.96436
2921.000	1.09908	-6.22898	-0.51401	-5.86199
2922.000	1.13268	-6.21122	-0.43889	-5.82268
2923.000	1.09908	-6.25257	-0.53971	-5.81275
2924.000	1.07141	-6.31158	-0.51203	-5.81671
2925.000	1.15837	-6.18757	-0.50610	-5.72022
2926.000	1.20382	-6.22875	-0.49226	-5.77931
2927.000	1.13465	-6.24070	-0.59703	-5.90718
2928.000	1.26112	-6.13622	-0.50808	-5.70249
2929.000	1.19196	-6.27988	-0.45470	-5.70254
2930.000	1.20184	-6.17961	-0.44482	-5.69860
2931.000	1.18208	-6.18162	-0.44877	-5.72027
2932.000	1.07141	-6.27818	-0.40330	-5.79514
2933.000	1.21370	-6.23463	-0.50808	-5.73401
2934.000	1.24136	-6.25815	-0.48040	-5.69858
2935.000	1.15244	-6.22297	-0.56540	-5.80091
2936.000	1.16825	-6.13840	-0.54761	-5.81274
2937.000	1.16627	-6.22687	-0.48040	-5.71433
2938.000	1.12279	-6.28396	-0.52191	-5.89545
2939.000	1.15244	-6.19938	-0.53180	-5.72611
2940.000	1.14651	-6.16401	-0.61878	-5.72011
2941.000	1.09117	-6.26831	-0.55750	-5.66502
2942.000	1.21370	-6.20514	-0.59901	-5.86584
2943.000	1.03979	-6.20355	-0.52982	-5.77928
2944.000	1.19987	-6.19928	-0.54168	-5.67685
2945.000	1.14651	-6.30356	-0.49424	-5.80294
2946.000	1.18010	-6.15607	-0.59506	-5.83435
2947.000	1.06153	-6.26051	-0.58715	-5.79104
2948.000	1.23544	-6.07336	-0.55947	-5.76350
2949.000	1.10501	-6.18376	-0.53971	-5.60396
2950.000	1.02200	-6.33133	-0.55947	-5.79500
2951.000	1.15441	-6.23869	-0.56343	-5.72608
2952.000	1.02793	-6.21733	-0.52389	-5.70051
2953.000	1.06548	-6.25067	-0.53971	-5.73201
2954.000	1.08129	-6.18577	-0.55750	-5.92297
2955.000	1.07536	-6.18578	-0.55354	-5.87376
2956.000	1.09513	-6.19557	-0.53180	-5.73004
2957.000	1.08722	-6.26635	-0.65041	-5.70629
2958.000	1.07536	-6.33122	-0.46063	-5.81675
2959.000	1.11884	-6.11884	-0.60692	-5.78511
2960.000	1.23346	-6.32498	-0.57331	-5.79696
2961.000	1.13663	-6.32717	-0.54366	-5.86196
2962.000	1.09315	-6.26241	-0.48435	-5.80886
2963.000	1.16232	-6.35265	-0.52982	-5.80685
2964.000	1.01607	-6.31169	-0.52784	-5.84819
2965.000	1.17022	-6.15413	-0.51598	-5.83836
2966.000	1.20975	-6.40558	-0.48831	-5.70645
2967.000	1.20382	-6.32309	-0.44086	-5.89355
2968.000	1.06153	-6.37055	-0.41121	-5.78135
2969.000	1.14453	-6.14042	-0.56145	-5.72411
2970.000	1.09315	-6.29189	-0.50808	-5.78324
2971.000	1.08920	-6.26438	-0.57331	-5.65712
2972.000	1.07141	-6.34106	-0.58913	-5.57239
2973.000	1.06548	-6.09928	-0.53378	-5.78715
2974.000	1.07141	-6.19169	-0.57529	-5.79499
2975.000	1.07339	-6.23690	-0.54366	-5.70837
2976.000	1.03781	-6.23697	-0.37365	-5.86604
2977.000	1.04572	-6.21533	-0.50215	-5.68280
2978.000	1.04769	-6.25071	-0.46261	-5.82069
2979.000	1.04967	-6.22712	-0.50808	-5.77339
2980.000	1.01410	-6.21932	-0.57331	-5.78121
2981.000	1.04572	-6.27823	-0.48435	-5.76751
2982.000	1.00817	-6.18198	-0.51005	-5.98795
2983.000	1.01212	-6.24684	-0.48040	-5.78720
2984.000	1.12872	-6.24464	-0.53971	-5.94463
2985.000	1.04769	-6.23498	-0.54564	-5.76942
2986.000	1.08129	-6.17987	-0.39539	-5.78333
2987.000	1.05560	-6.29982	-0.50610	-5.94466
2988.000	1.01014	-6.14659	-0.56540	-5.63349
2989.000	1.08920	-6.15626	-0.36969	-5.75971
2990.000	1.08524	-6.12874	-0.61878	-5.77722
2991.000	1.06943	-6.21725	-0.50017	-5.76355
2992.000	1.04177	-6.29985	-0.46261	-5.89943
2993.000	0.98445	-6.23903	-0.51005	-5.73203
2994.000	1.02200	-6.20948	-0.57133	-5.75167
2995.000	0.90934	-6.24507	-0.54564	-5.81471
2996.000	1.22358	-6.22871	-0.40330	-5.73212
2997.000	1.04177	-6.17602	-0.47052	-5.92108
2998.000	1.03584	-6.25270	-0.52389	-5.80291
2999.000	1.09315	-6.24668	-0.57727	-5.85799
3000.000	1.05165	-6.20352	-0.52784	-5.79307
3001.000	1.02398	-6.31364	-0.53378	-5.76746
3002.000	1.05560	-6.09537	-0.55157	-5.70442
3003.000	1.00817	-6.27240	-0.49226	-5.76947
3004.000	1.12477	-6.19354	-0.41714	-5.66711
3005.000	1.05165	-6.26839	-0.46459	-5.79509
3006.000	1.07536	-6.18185	-0.51598	-5.67688
3007.000	1.07536	-6.22510	-0.42900	-5.75376
3008.000	1.00224	-6.21148	-0.50215	-5.78718
3009.000	1.10303	-6.17196	-0.52389	-5.72217
3010.000	1.08920	-6.15430	-0.44086	-5.76163
3011.000	1.01212	-6.23898	-0.51598	-5.71233
3012.000	0.99631	-6.23705	-0.49028	-5.85020
3013.000	1.07734	-6.22116	-0.43889	-5.80102
3014.000	1.16627	-6.18559	-0.49622	-5.75568
3015.000	1.04967	-6.18780	-0.52982	-5.71429
3016.000	1.02003	-6.16623	-0.51401	-5.81868
3017.000	1.06548	-6.17990	-0.57133	-5.78909
3018.000	1.06153	-6.16615	-0.62075	-5.76147
3019.000	0.99631	-6.31370	-0.54366	-5.79305
3020.000	1.06351	-6.18974	-0.43098	-5.78330
3021.000	0.95678	-6.26464	-0.48238	-5.84036
3022.000	1.01014	-6.28223	-0.43889	-5.92307
3023.000	1.05362	-6.29786	-0.51994	-5.94662
3024.000	1.01607	-6.28025	-0.47447	-5.76357
3025.000	1.08920	-6.24080	-0.46261	-5.78328
3026.000	1.04374	-6.17405	-0.56540	-5.77137
3027.000	0.94887	-6.23320	-0.50610	-5.86593
3028.000	0.99038	-6.33139	-0.53378	-5.93283
3029.000	1.07141	-6.20938	-0.44877	-5.76950
3030.000	1.04572	-6.29395	-0.45668	-5.65329
3031.000	1.18010	-6.24453	-0.42702	-5.84041
3032.000	1.03188	-6.26253	-0.35388	-5.86408
3033.000	0.95480	-6.25088	-0.34202	-5.90543
3034.000	1.08327	-6.05795	-0.41121	-5.88176
3035.000	0.97062	-6.24889	-0.45075	-6.02145
3036.000	1.05560	-6.25266	-0.41714	-5.89750
3037.000	0.99236	-6.20364	-0.35586	-5.86211
3038.000	0.86784	-6.18616	-0.34993	-5.83849
3039.000	0.92516	-6.24111	-0.34399	-5.96250
3040.000	1.00619	-6.19575	-0.41319	-5.83648
3041.000	1.03188	-6.19766	-0.51598	-6.06861
3042.000	0.94097	-6.22535	-0.44086	-5.94472
3043.000	1.00224	-6.29600	-0.43098	-5.98409
3044.000	0.89551	-6.23919	-0.40923	-6.00378
3045.000	0.92120	-6.13888	-0.40726	-6.13755
3046.000	0.96073	-6.27642	-0.48633	-6.02733
3047.000	0.92713	-6.35902	-0.47447	-6.01553
3048.000	0.96469	-6.32162	-0.49622	-5.98010
3049.000	0.92713	-6.18016	-0.38353	-6.10413
3050.000	0.95085	-6.30395	-0.46261	-5.99390
3051.000	0.88760	-6.26672	-0.44679	-5.91716
3052.000	0.99038	-6.35890	-0.45865	-5.99193
3053.000	1.05165	-6.22318	-0.48435	-5.94272
3054.000	0.95480	-6.17421	-0.43691	-5.98802
3055.000	0.99829	-6.19969	-0.32620	-5.97432
3056.000	1.00224	-6.10924	-0.31632	-5.94874
3057.000	0.90737	-6.41013	-0.42900	-5.81284
3058.000	1.02793	-6.23699	-0.44086	-5.91323
3059.000	0.88958	-6.21168	-0.42900	-5.92111
3060.000	0.89749	-6.28833	-0.51005	-5.87971
3061.000	0.94097	-6.21356	-0.46854	-5.83643
3062.000	1.01410	-6.25470	-0.44284	-5.78132
3063.000	1.03188	-6.23894	-0.47645	-5.83446
3064.000	0.96469	-6.10341	-0.43296	-5.83843
3065.000	1.01805	-6.04037	-0.48238	-5.75766
3066.000	1.05955	-6.20744	-0.46656	-5.79509
3067.000	1.12477	-6.14636	-0.50412	-5.77143
3068.000	1.01805	-6.09347	-0.48238	-5.80295
3069.000	1.19394	-6.08722	-0.53180	-5.77337
3070.000	1.08722	-6.22901	-0.51994	-5.79701
3071.000	1.03781	-6.02066	-0.50610	-5.72022
3072.000	1.06746	-6.07568	-0.45075	-5.71830
3073.000	1.11687	-6.15424	-0.62471	-5.76737
3074.000	1.09908	-6.31546	-0.38156	-5.71638
3075.000	0.84214	-6.16850	-0.37760	-5.77546
3076.000	1.07932	-6.08352	-0.61878	-5.66299
3077.000	0.94492	-6.18210	-0.57727	-5.86390
3078.000	1.12477	-6.10900	-0.44482	-5.63950
3079.000	1.04572	-6.22712	-0.54168	-5.67094
3080.000	1.02991	-6.12492	-0.51203	-5.72021
3081.000	1.02398	-6.16229	-0.56145	-5.77137
3082.000	1.00026	-6.12497	-0.44482	-5.58631
3083.000	1.01607	-6.15247	-0.53773	-5.75170
3084.000	1.12279	-6.04016	-0.58517	-5.71621
3085.000	1.00421	-6.17019	-0.50017	-5.77537
3086.000	0.97457	-6.17418	-0.62866	-5.58811
3087.000	1.04769	-6.16224	-0.57924	-5.67879
3088.000	1.02991	-5.99313	-0.50412	-5.63946
3089.000	0.99236	-6.11909	-0.60692	-5.76148
3090.000	1.03386	-6.04034	-0.54959	-5.74775
3091.000	1.00421	-6.16429	-0.47249	-5.70843
3092.000	1.02793	-6.12492	-0.51994	-5.60398
3093.000	1.06943	-6.15434	-0.54761	-5.69261
3094.000	1.02595	-6.24485	-0.51203	-5.54093
3095.000	1.05165	-6.08948	-0.56540	-5.67486
3096.000	1.02003	-6.10330	-0.54564	-5.65124
3097.000	1.02398	-6.14853	-0.59308	-5.69059
3098.000	1.06943	-6.13074	-0.65436	-5.59793
3099.000	1.09315	-6.15822	-0.54959	-5.69654
3100.000	1.03386	-6.12098	-0.67017	-5.63535
3101.000	0.97852	-6.13288	-0.51598	-5.63551
3102.000	0.95085	-6.22534	-0.52587	-5.64732
3103.000	1.09710	-6.16214	-0.65634	-5.63537
3104.000	1.04572	-6.11309	-0.59506	-5.78512
3105.000	1.00421	-6.20755	-0.57727	-5.69455
3106.000	0.92318	-6.19786	-0.52191	-5.56457
3107.000	1.06351	-6.30374	-0.52982	-5.71035
3108.000	0.89946	-6.08582	-0.44482	-5.74981
3109.000	1.04769	-6.25071	-0.55552	-5.81076
3110.000	1.03781	-6.17406	-0.56738	-5.79106
3111.000	0.97062	-6.25282	-0.45865	-5.73602
3112.000	0.94887	-6.28038	-0.53773	-5.70640
3113.000	1.00026	-6.08367	-0.56343	-5.61576
3114.000	1.01607	-6.09544	-0.58122	-5.64530
3115.000	0.94295	-6.07984	-0.48435	-5.74584
3116.000	0.99631	-6.10728	-0.50215	-5.86790
3117.000	0.91527	-6.16642	-0.51796	-5.60398
3118.000	0.99829	-6.06204	-0.54366	-5.74185
3119.000	1.05165	-6.15044	-0.51796	-5.71036
3120.000	0.98840	-6.12303	-0.52587	-5.76944
3121.000	1.10698	-5.98118	-0.40133	-5.73015
3122.000	1.08920	-6.13070	-0.48633	-5.81476
3123.000	1.16627	-5.96532	-0.48238	-5.75766
3124.000	1.14453	-6.08929	-0.52982	-5.79110
3125.000	1.19196	-5.98690	-0.46261	-5.80888
3126.000	1.12082	-6.03820	-0.54366	-5.82652
3127.000	1.06153	-6.02848	-0.53378	-5.81078
3128.000	1.23544	-5.93762	-0.47052	-5.74979
3129.000	1.17022	-5.97515	-0.49622	-5.84035
3130.000	1.21765	-5.93766	-0.47052	-5.86006
3131.000	1.21370	-5.90815	-0.43889	-5.89748
3132.000	1.27100	-5.99853	-0.40133	-5.81286
3133.000	1.15837	-5.95549	-0.57727	-5.81861
3134.000	1.13070	-5.94178	-0.47052	-5.86596
3135.000	1.16232	-5.87480	-0.51401	-5.84821
3136.000	1.26903	-5.81159	-0.48831	-5.83642
3137.000	1.13465	-5.96145	-0.55354	-5.81273
3138.000	1.23346	-5.96320	-0.50610	-5.75764
3139.000	1.26310	-5.77026	-0.48435	-5.72615
3140.000	1.27100	-5.73283	-0.50808	-5.71825
3141.000	1.38956	-5.74831	-0.59308	-5.65907
3142.000	1.37573	-5.78771	-0.51796	-5.48770
3143.000	1.23741	-5.66003	-0.51994	-5.49164
3144.000	1.40734	-5.72857	-0.47645	-5.54687
3145.000	1.49230	-5.73820	-0.40923	-5.64150
3146.000	1.38758	-5.71878	-0.26096	-5.59036
3147.000	1.57132	-5.67302	-0.34993	-5.29064
3148.000	1.33028	-5.73466	-0.38551	-4.83070
3149.000	1.46859	-5.63980	-0.41912	-3.99021
3150.000	1.46662	-5.56889	-0.73343	-3.00106
3151.000	1.36980	-5.70110	-0.80656	-1.74005
3152.000	1.50020	-5.41511	-0.94295	-0.37396
3153.000	1.62269	-4.57407	-1.09117	0.95268
3154.000	1.92290	-3.19192	-1.12279	2.55226
3155.000	2.35131	-2.05645	-1.17615	4.23880
3156.000	2.27631	-0.74740	-1.33819	5.97870
3157.000	2.34934	0.70363	-1.17220	7.91529
3158.000	2.36118	1.99092	-1.09315	10.02287
3159.000	2.39276	3.50590	-1.81033	11.71874
3160.000	2.68478	5.00504	NaN	NaN
3161.000	2.73212	6.69398	NaN	NaN
3162.000	-0.99433	9.37381	NaN	NaN
3163.000	-1.32040	11.33187	NaN	NaN
3164.000	NaN	NaN	NaN	NaN
3165.000	NaN	NaN	NaN	NaN
3166.000	NaN	NaN	NaN	NaN
3167.000	NaN	NaN	NaN	NaN
3168.000	NaN	NaN	NaN	NaN
3169.000	NaN	NaN	NaN	NaN
3170.000	NaN	NaN	NaN	NaN
3171.000	NaN	NaN	NaN	NaN
3172.000	NaN	NaN	NaN	NaN
3173.000	NaN	NaN	NaN	NaN
3174.000	NaN	NaN	NaN	NaN
3175.000	NaN	NaN	NaN	NaN
3176.000	NaN	NaN	NaN	NaN
3177.000	NaN	NaN	NaN	NaN
3178.000	NaN	NaN	NaN	NaN
3179.000	NaN	NaN	NaN	NaN
3180.000	NaN	NaN	NaN	NaN
3181.000	NaN	NaN	NaN	NaN
3182.000	NaN	NaN	NaN	NaN
3183.000	NaN	NaN	NaN	NaN
3184.000	NaN	NaN	NaN	NaN
3185.000	NaN	NaN	NaN	NaN
3186.000	NaN	NaN	NaN	NaN
3187.000	NaN	NaN	NaN	NaN
3188.000	NaN	NaN	NaN	NaN
3189.000	NaN	NaN	NaN	NaN
3190.000	NaN	NaN	NaN	NaN
3191.000	NaN	NaN	NaN	NaN
3192.000	NaN	NaN	NaN	NaN
3193.000	NaN	NaN	NaN	NaN
3194.000	NaN	NaN	NaN	NaN
3195.000	NaN	NaN	NaN	NaN
3196.000	NaN	NaN	NaN	NaN
3197.000	NaN	NaN	NaN	NaN
3198.000	NaN	NaN	NaN	NaN
3199.000	NaN	NaN	NaN	NaN
3200.000	NaN	NaN	NaN	NaN
3201.000	NaN	NaN	NaN	NaN
3202.000	NaN	NaN	NaN	NaN
3203.000	NaN	NaN	NaN	NaN
3204.000	NaN	NaN	NaN	NaN
3205.000	NaN	NaN	NaN	NaN
3206.000	NaN	NaN	NaN	NaN
3207.000	NaN	NaN	NaN	NaN
3208.000	NaN	NaN	NaN	NaN
3209.000	NaN	NaN	NaN	NaN
3210.000	NaN	NaN	NaN	NaN
3211.000	NaN	NaN	NaN	NaN
3212.000	NaN	NaN	NaN	NaN
3213.000	NaN	NaN	NaN	NaN
3214.000	NaN	NaN	NaN	NaN
3215.000	NaN	NaN	NaN	NaN
3216.000	NaN	NaN	NaN	NaN
3217.000	NaN	NaN	NaN	NaN
3218.000	NaN	NaN	NaN	NaN
3219.000	NaN	NaN	NaN	NaN
3220.000	NaN	NaN	NaN	NaN
3221.000	NaN	NaN	NaN	NaN
3222.000	NaN	NaN	NaN	NaN
3223.000	NaN	NaN	NaN	NaN
3224.000	NaN	NaN	NaN	NaN
3225.000	NaN	NaN	NaN	NaN
3226.000	NaN	NaN	NaN	NaN
3227.000	NaN	NaN	NaN	NaN
3228.000	NaN	NaN	NaN	NaN
3229.000	NaN	NaN	NaN	NaN
3230.000	NaN	NaN	NaN	NaN
3231.000	NaN	NaN	NaN	NaN
3232.000	NaN	NaN	NaN	NaN
3233.000	NaN	NaN	NaN	NaN
3234.000	NaN	NaN	NaN	NaN
3235.000	NaN	NaN	NaN	NaN
3236.000	NaN	NaN	NaN	NaN
3237.000	NaN	NaN	NaN	NaN
3238.000	NaN	NaN	NaN	NaN
3239.000	NaN	NaN	NaN	NaN
3240.000	NaN	NaN	NaN	NaN
3241.000	NaN	NaN	NaN	NaN
3242.000	NaN	NaN	NaN	NaN
3243.000	NaN	NaN	NaN	NaN
3244.000	NaN	NaN	NaN	NaN
3245.000	NaN	NaN	NaN	NaN
3246.000	NaN	NaN	NaN	NaN
3247.000	NaN	NaN	NaN	NaN
3248.000	NaN	NaN	NaN	NaN
3249.000	NaN	NaN	NaN	NaN
3250.000	NaN	NaN	NaN	NaN
3251.000	NaN	NaN	NaN	NaN
3252.000	NaN	NaN	NaN	NaN
3253.000	NaN	NaN	NaN	NaN
3254.000	NaN	NaN	NaN	NaN
3255.000	NaN	NaN	NaN	NaN
3256.000	NaN	NaN	NaN	NaN
3257.000	NaN	NaN	NaN	NaN
3258.000	NaN	NaN	NaN	NaN
3259.000	NaN	NaN	NaN	NaN
3260.000	NaN	NaN	NaN	NaN
3261.000	NaN	NaN	NaN	NaN
3262.000	NaN	NaN	NaN	NaN
3263.000	NaN	NaN	NaN	NaN
3264.000	NaN	NaN	NaN	NaN
3265.000	NaN	NaN	NaN	NaN
3266.000	NaN	NaN	NaN	NaN
3267.000	NaN	NaN	NaN	NaN
3268.000	NaN	NaN	NaN	NaN
3269.000	NaN	NaN	NaN	NaN
3270.000	NaN	NaN	NaN	NaN
3271.000	NaN	NaN	NaN	NaN
3272.000	NaN	NaN	NaN	NaN
3273.000	NaN	NaN	NaN	NaN
3274.000	NaN	NaN	NaN	NaN
3275.000	NaN	NaN	NaN	NaN
3276.000	NaN	NaN	NaN	NaN
3277.000	NaN	NaN	NaN	NaN
3278.000	NaN	NaN	NaN	NaN
3279.000	NaN	NaN	NaN	NaN
3280.000	NaN	NaN	NaN	NaN
3281.000	NaN	NaN	NaN	NaN
3282.000	NaN	NaN	NaN	NaN
3283.000	NaN	NaN	NaN	NaN
3284.000	NaN	NaN	NaN	NaN
3285.000	NaN	NaN	NaN	NaN
3286.000	NaN	NaN	NaN	NaN
3287.000	NaN	NaN	NaN	NaN
3288.000	NaN	NaN	NaN	NaN
3289.000	NaN	NaN	NaN	NaN
3290.000	NaN	NaN	NaN	NaN
3291.000	NaN	NaN	NaN	NaN
3292.000	NaN	NaN	NaN	NaN
3293.000	NaN	NaN	NaN	NaN
3294.000	NaN	NaN	NaN	NaN
3295.000	NaN	NaN	NaN	NaN
3296.000	NaN	NaN	NaN	NaN
3297.000	NaN	NaN	NaN	NaN
3298.000	NaN	NaN	NaN	NaN
3299.000	NaN	NaN	NaN	NaN
3300.000	NaN	NaN	NaN	NaN
3301.000	NaN	NaN	NaN	NaN
3302.000	NaN	NaN	NaN	NaN
3303.000	NaN	NaN	NaN	NaN
3304.000	NaN	NaN	NaN	NaN
3305.000	NaN	NaN	NaN	NaN
3306.000	NaN	NaN	NaN	NaN
3307.000	NaN	NaN	NaN	NaN
3308.000	NaN	NaN	NaN	NaN
3309.000	NaN	NaN	NaN	NaN
3310.000	NaN	NaN	NaN	NaN
3311.000	NaN	NaN	NaN	NaN
3312.000	NaN	NaN	NaN	NaN
3313.000	NaN	NaN	NaN	NaN
3314.000	NaN	NaN	NaN	NaN
3315.000	NaN	NaN	NaN	NaN
3316.000	NaN	NaN	NaN	NaN
3317.000	NaN	NaN	NaN	NaN
3318.000	NaN	NaN	NaN	NaN
3319.000	NaN	NaN	NaN	NaN
3320.000	NaN	NaN	NaN	NaN
3321.000	NaN	NaN	NaN	NaN
3322.000	NaN	NaN	NaN	NaN
3323.000	NaN	NaN	NaN	NaN
3324.000	NaN	NaN	NaN	NaN
3325.000	NaN	NaN	NaN	NaN
3326.000	NaN	NaN	NaN	NaN
3327.000	NaN	NaN	NaN	NaN
3328.000	NaN	NaN	NaN	NaN
3329.000	NaN	NaN	NaN	NaN
3330.000	NaN	NaN	NaN	NaN
3331.000	NaN	NaN	NaN	NaN
3332.000	NaN	NaN	NaN	NaN
3333.000	NaN	NaN	NaN	NaN
3334.000	NaN	NaN	NaN	NaN
3335.000	NaN	NaN	NaN	NaN
3336.000	NaN	NaN	NaN	NaN
3337.000	NaN	NaN	NaN	NaN
3338.000	NaN	NaN	NaN	NaN
3339.000	NaN	NaN	NaN	NaN
3340.000	NaN	NaN	NaN	NaN
3341.000	NaN	NaN	NaN	NaN
3342.000	NaN	NaN	NaN	NaN
3343.000	NaN	NaN	NaN	NaN
3344.000	NaN	NaN	NaN	NaN
3345.000	NaN	NaN	NaN	NaN
3346.000	NaN	NaN	NaN	NaN
3347.000	NaN	NaN	NaN	NaN
3348.000	NaN	NaN	NaN	NaN
3349.000	NaN	NaN	NaN	NaN
3350.000	NaN	NaN	NaN	NaN
3351.000	NaN	NaN	NaN	NaN
3352.000	NaN	NaN	NaN	NaN
3353.000	NaN	NaN	NaN	NaN
3354.000	NaN	NaN	NaN	NaN
3355.000	NaN	NaN	NaN	NaN
3356.000	NaN	NaN	NaN	NaN
3357.000	NaN	NaN	NaN	NaN
3358.000	NaN	NaN	NaN	NaN
3359.000	NaN	NaN	NaN	NaN
3360.000	NaN	NaN	NaN	NaN
3361.000	NaN	NaN	NaN	NaN
3362.000	NaN	NaN	NaN	NaN
3363.000	NaN	NaN	NaN	NaN
3364.000	NaN	NaN	NaN	NaN
3365.000	NaN	NaN	NaN	NaN
3366.000	NaN	NaN	NaN	NaN
3367.000	NaN	NaN	NaN	NaN
3368.000	NaN	NaN	NaN	NaN
3369.000	NaN	NaN	NaN	NaN
3370.000	NaN	NaN	NaN	NaN
3371.000	NaN	NaN	NaN	NaN
3372.000	NaN	NaN	NaN	NaN
3373.000	NaN	NaN	NaN	NaN
3374.000	NaN	NaN	NaN	NaN
3375.000	NaN	NaN	NaN	NaN
3376.000	NaN	NaN	NaN	NaN
3377.000	NaN	NaN	NaN	NaN
3378.000	NaN	NaN	NaN	NaN
3379.000	NaN	NaN	NaN	NaN
3380.000	NaN	NaN	NaN	NaN
3381.000	NaN	NaN	NaN	NaN
3382.000	NaN	NaN	NaN	NaN
3383.000	NaN	NaN	NaN	NaN
3384.000	NaN	NaN	NaN	NaN
3385.000	NaN	NaN	NaN	NaN
3386.000	NaN	NaN	NaN	NaN
3387.000	NaN	NaN	NaN	NaN
3388.000	NaN	NaN	NaN	NaN
3389.000	NaN	NaN	NaN	NaN
3390.000	NaN	NaN	NaN	NaN
3391.000	NaN	NaN	NaN	NaN
3392.000	NaN	NaN	NaN	NaN
3393.000	NaN	NaN	NaN	NaN
3394.000	NaN	NaN	NaN	NaN
3395.000	NaN	NaN	NaN	NaN
3396.000	NaN	NaN	NaN	NaN
3397.000	NaN	NaN	NaN	NaN
3398.000	NaN	NaN	NaN	NaN
3399.000	NaN	NaN	NaN	NaN
3400.000	NaN	NaN	NaN	NaN
3401.000	NaN	NaN	NaN	NaN
3402.000	NaN	NaN	NaN	NaN
3403.000	NaN	NaN	NaN	NaN
3404.000	NaN	NaN	NaN	NaN
3405.000	-3.21124	21.72583	NaN	NaN
3406.000	-2.60587	18.79738	NaN	NaN
3407.000	-1.93672	15.53044	NaN	NaN
3408.000	-1.91698	15.07556	NaN	NaN
3409.000	-2.13812	14.75429	-13.41818	18.32095
3410.000	-2.03743	14.25020	-8.42213	16.91892
3411.000	1.82021	11.71105	-3.53238	14.59792
3412.000	-2.44012	13.26383	-3.32553	14.21901
3413.000	1.60096	10.90734	-3.06538	13.80170
3414.000	1.47452	10.40473	-3.06932	13.36431
3415.000	1.28484	10.10318	-2.95695	12.92100
3416.000	1.21567	9.78697	-2.65716	12.52902
3417.000	1.12279	9.41602	-2.74001	11.99879
3418.000	0.98247	9.07345	-2.71042	11.58968
3419.000	0.88760	8.65034	-2.50327	11.21530
3420.000	0.86981	8.37410	-2.53484	10.89916
3421.000	0.85203	8.10526	-2.45591	10.42759
3422.000	0.69982	7.80312	-2.46775	9.95001
3423.000	0.66820	7.43380	-2.33750	9.50100
3424.000	0.67017	7.21853	-2.08679	9.25099
3425.000	0.63262	6.79333	-2.24867	8.95930
3426.000	0.47052	6.67775	-2.19538	8.63733
3427.000	0.35388	6.35186	-1.84193	8.31433
3428.000	0.31434	6.15334	-2.07297	8.07168
3429.000	0.24119	5.93697	-2.05520	7.83776
3430.000	0.32818	5.75186	-2.10851	7.67159
3431.000	0.32225	5.61594	-2.13220	7.31580
3432.000	0.23724	5.49971	-1.97622	7.09537
3433.000	0.30643	5.27883	-2.03941	6.77575
3434.000	0.33016	5.15847	-2.13220	6.47523
3435.000	0.30248	4.94924	-1.90118	6.14221
3436.000	0.20165	4.80115	-2.06902	5.90958
3437.000	0.26096	4.58573	-2.00386	5.68744
3438.000	0.11664	4.42562	-1.96832	5.34874
3439.000	0.02966	4.35641	-1.91698	5.04324
3440.000	0.07117	4.22782	-1.92093	4.88141
3441.000	-0.14827	4.19219	-1.75108	4.55204
3442.000	-0.06920	4.02001	-1.67997	4.27545
3443.000	-0.17991	3.94476	-1.91895	4.12855
3444.000	-0.18979	3.88931	-1.70762	3.94699
3445.000	-0.26096	3.86157	-1.63849	3.59468
3446.000	-0.19572	3.77048	-1.79058	3.58846
3447.000	-0.26492	3.64169	-1.80441	3.61418
3448.000	-0.34597	3.59410	-1.71948	3.41425
3449.000	-0.38946	3.54851	-1.75108	3.25169
3450.000	-0.38353	3.53662	-1.49032	2.85152
3451.000	-0.42900	3.46723	-1.44686	2.79602
3452.000	-0.38353	3.39589	-1.59305	2.88709
3453.000	-0.40726	3.34433	-1.63651	2.68268
3454.000	-0.51203	3.26299	-1.64837	2.59337
3455.000	-0.50215	3.23524	-1.53774	2.46052
3456.000	-0.52982	3.21737	-1.81823	2.64671
3457.000	-0.42505	3.16983	-1.71553	2.42458
3458.000	-0.51005	3.18962	-1.79256	2.44830
3459.000	-0.57133	3.03488	-1.88143	2.36282
3460.000	-0.56343	3.05075	-1.84391	2.45815
3461.000	-0.52982	3.15590	-1.98412	2.46390
3462.000	-0.62273	3.04675	-1.87353	2.51566
3463.000	-0.52982	3.10829	-1.93278	2.45604
3464.000	-0.53180	2.95752	-1.97029	2.32896
3465.000	-0.52587	2.97538	-1.83403	2.30333
3466.000	-0.53180	2.97340	-1.86563	2.37277
3467.000	-0.51203	3.05673	-1.87353	2.34299
3468.000	-0.54168	2.94760	-1.98609	2.58098
3469.000	-0.46656	3.04485	-2.04533	2.55906
3470.000	-0.45668	3.00716	-2.05915	2.73560
3471.000	-0.53378	3.13804	-1.99004	2.67422
3472.000	-0.48633	3.04881	-2.07692	2.72566
3473.000	-0.50808	3.09244	-2.05520	2.84668
3474.000	-0.52587	3.08251	-2.06112	2.91608
3475.000	-0.58715	3.08248	-2.02361	3.08865
3476.000	-0.51598	3.03094	-2.16181	3.06856
3477.000	-0.54959	2.97934	-2.14602	3.10229
3478.000	-0.55354	3.09043	-2.22301	3.22699
3479.000	-0.58517	2.96345	-2.13812	3.19348
3480.000	-0.65041	2.94357	-2.18550	3.31029
3481.000	-0.59506	3.04875	-2.17169	3.15575
3482.000	-0.56145	2.97735	-2.18550	3.19734
3483.000	-0.63657	2.94755	-2.14010	3.20933
3484.000	-0.58517	2.90988	-2.17366	3.35192
3485.000	-0.67215	2.93166	-2.22893	3.33397
3486.000	-0.69389	2.80465	-2.31184	3.49026
3487.000	-0.65634	2.89198	-2.18945	3.57373
3488.000	-0.56738	2.86425	-2.29605	3.51802
3489.000	-0.69982	2.89196	-2.26841	3.57156
3490.000	-0.70971	2.81059	-2.25657	3.51416
3491.000	-0.72157	2.78082	-2.23486	3.54986
3492.000	-0.59703	2.97138	-2.23880	3.56173
3493.000	-0.71366	2.85623	-2.32565	3.62092
3494.000	-0.78877	2.89587	-2.16576	3.63913
3495.000	-0.68401	2.94554	-2.28618	3.53191
3496.000	-0.73343	2.93955	-2.27828	3.68637
3497.000	-0.78877	2.94547	-2.27828	3.48638
3498.000	-0.68401	2.92371	-2.27828	3.67053
3499.000	-0.68994	2.81457	-2.28026	3.67053
3500.000	-0.67017	2.90190	-2.31381	3.68826
3501.000	-0.60296	2.82851	-2.33552	3.62683
3502.000	-0.70180	2.91577	-2.30394	3.62691
3503.000	-0.85203	2.86606	-2.26052	3.68443
3504.000	-0.69587	3.02092	-2.30000	3.75757
3505.000	-0.80063	2.88197	-2.26249	3.60524
3506.000	-0.73343	2.85027	-2.37302	3.67227
3507.000	-0.75517	2.82644	-2.28420	3.71803
3508.000	-0.87574	2.83032	-2.35131	3.77723
3509.000	-0.79470	2.86015	-2.29605	3.72591
3510.000	-0.79668	2.79466	-2.37894	3.77715
3511.000	-0.74726	2.83637	-2.36315	3.77522
3512.000	-0.71959	2.85226	-2.34342	3.62879
3513.000	-0.87772	2.80651	-2.31579	3.69221
3514.000	-0.82831	2.83433	-2.41249	3.69789
3515.000	-0.77098	2.86612	-2.31579	3.76149
3516.000	-0.85400	2.81446	-2.35723	3.63865
3517.000	-0.78482	2.91174	-2.43618	3.76710
3518.000	-0.72552	2.99114	-2.26644	3.59929
3519.000	-0.77098	2.78872	-2.38092	3.71381
3520.000	-0.81447	3.02679	-2.35723	3.80888
3521.000	-0.83621	2.81646	-2.38684	3.75536
3522.000	-0.76703	2.87207	-2.37894	3.82861
3523.000	-0.76703	2.85818	-2.22301	3.70433
3524.000	-0.76901	2.94945	-2.33947	3.70205
3525.000	-0.91132	2.92554	-2.27236	3.67055
3526.000	-0.90144	2.85610	-2.24670	3.70625
3527.000	-0.82831	2.92362	-2.33750	3.69215
3528.000	-0.78087	2.94944	-2.31184	3.73379
3529.000	-0.69785	2.85624	-2.35921	3.69408
3530.000	-0.75319	2.92962	-2.33750	3.74362
3531.000	-0.84412	2.95138	-2.31381	3.67044
3532.000	-0.89353	2.91166	-2.33750	3.69017
3533.000	-0.75122	2.91375	-2.40460	3.80875
3534.000	-0.75319	2.75103	-2.40065	3.72959
3535.000	-0.83621	2.85615	-2.27828	3.75367
3536.000	-0.83028	2.83631	-2.22499	3.66077
3537.000	-0.83028	2.78273	-2.40065	3.84240
3538.000	-0.78087	2.91571	-2.40657	3.78697
3539.000	-0.86191	2.84224	-2.28026	3.73585
3540.000	-0.85993	2.77080	-2.29802	3.71007
3541.000	-0.90342	2.83229	-2.20919	3.62913
3542.000	-0.85203	2.68149	-2.28026	3.64083
3543.000	-0.87574	2.82635	-2.24473	3.68249
3544.000	-0.84214	2.73707	-2.27433	3.82295
3545.000	-0.80854	2.85617	-2.32565	3.70604
3546.000	-0.90934	2.84220	-2.24670	3.64685
3547.000	-0.88167	2.74697	-2.37894	3.76528
3548.000	-0.85203	2.66363	-2.26841	3.71213
3549.000	-0.83028	2.86806	-2.33750	3.71393
3550.000	-0.81645	2.84426	-2.26447	3.54781
3551.000	-0.87574	2.76682	-2.31579	3.68231
3552.000	-0.80656	2.77481	-2.23683	3.72805
3553.000	-0.85796	2.91367	-2.27039	3.65867
3554.000	-0.83424	2.89980	-2.29210	3.71207
3555.000	-0.92713	2.86600	-2.30000	3.70017
3556.000	-0.90539	2.76084	-2.20525	3.67071
3557.000	-0.85400	2.80851	-2.23288	3.73003
3558.000	-0.85993	2.73905	-2.24670	3.66863
3559.000	-0.88167	2.80849	-2.28618	3.71406
3560.000	-0.89946	2.76680	-2.28618	3.68833
3561.000	-0.84412	2.84027	-2.24670	3.59339
3562.000	-0.94492	2.76677	-2.33355	3.59120
3563.000	-0.96271	2.90764	-2.29605	3.80904
3564.000	-0.96271	2.74889	-2.34144	3.72382
3565.000	-0.88365	2.86405	-2.30986	3.69025
3566.000	-0.91132	2.83030	-2.31973	3.52193
3567.000	-0.99038	2.88777	-2.27039	3.63293
3568.000	-0.92713	2.74892	-2.25262	3.65872
3569.000	-0.90737	2.73901	-2.23486	3.68054
3570.000	-0.84214	2.78669	-2.23880	3.79534
3571.000	-0.98643	2.78856	-2.16181	3.79949
3572.000	-0.88760	2.84420	-2.24867	3.67457
3573.000	-0.92516	2.86402	-2.29013	3.61705
3574.000	-0.97654	2.79651	-2.17366	3.71831
3575.000	-0.90539	2.77077	-2.24867	3.70624
3576.000	-0.93109	2.80647	-2.34144	3.72579
3577.000	-0.90539	2.81839	-2.15194	3.68470
3578.000	-0.90737	2.80252	-2.26249	3.59732
3579.000	-0.88958	2.87595	-2.28026	3.72595
3580.000	-0.85993	2.74302	-2.17563	3.53812
3581.000	-0.94492	2.78860	-2.24670	3.54785
3582.000	-0.90342	2.80450	-2.08284	3.68091
3583.000	-0.89156	2.83229	-2.24275	3.75970
3584.000	-0.87179	2.80453	-2.22893	3.66868
3585.000	-0.93504	2.71517	-2.23288	3.71420
3586.000	-1.05955	2.80437	-2.20327	3.63310
3587.000	-0.96666	2.80842	-2.17761	3.69652
3588.000	-0.90144	2.85015	-2.19538	3.66876
3589.000	-0.91923	2.79457	-2.33158	3.71988
3590.000	-0.90737	2.77473	-2.18945	3.82317
3591.000	-0.93109	2.71915	-2.23880	3.67261
3592.000	-0.94097	2.88781	-2.17169	3.63912
3593.000	-0.85203	2.86804	-2.18748	3.63908
3594.000	-0.90737	2.75290	-2.15589	3.65895
3595.000	-0.89156	2.80253	-2.17958	3.64306
3596.000	-0.83819	2.73112	-2.21512	3.73206
3597.000	-0.94690	2.78859	-2.25262	3.75968
3598.000	-0.85005	2.75692	-2.20327	3.76574
3599.000	-0.88365	2.78269	-2.25657	3.73393
3600.000	-0.87970	2.70926	-2.25460	3.67257
3601.000	-0.78877	2.67161	-2.21314	3.72415
3602.000	-0.95678	2.63179	-2.16181	3.72031
3603.000	-0.91923	2.61991	-2.16379	3.74011
3604.000	-0.91725	2.68542	-2.18945	3.65689
3605.000	-0.90144	2.75291	-2.20722	3.69645
3606.000	-0.87970	2.77277	-2.15984	3.75991
3607.000	-0.87377	2.73110	-2.25460	3.77353
3608.000	-1.02991	2.73494	-2.19735	3.76773
3609.000	-0.97654	2.76277	-2.24275	3.77356
3610.000	-0.96469	2.69332	-2.15589	3.79159
3611.000	-0.92318	2.75686	-2.12036	3.62340
3612.000	-0.94887	2.68539	-2.21906	3.69246
3613.000	-0.93702	2.76479	-2.09666	3.69869
3614.000	-0.93702	2.73700	-2.03743	3.63943
3615.000	-0.92713	2.67350	-2.13220	3.83519
3616.000	-0.96469	2.68935	-2.18156	3.77371
3617.000	-0.94492	2.79653	-2.07889	3.70071
3618.000	-0.97457	2.77270	-2.16971	3.67674
3619.000	-0.86981	2.78865	-2.06507	3.67699
3620.000	-0.97457	2.82628	-2.22104	3.73996
3621.000	-0.96271	2.85803	-2.12430	3.77187
3622.000	-0.90342	2.93149	-2.16379	3.65102
3623.000	-0.95480	2.75287	-2.18550	3.82318
3624.000	-0.83819	2.91369	-2.17958	3.74007
3625.000	-0.83028	2.85417	-2.10061	3.64523
3626.000	-0.78680	2.93357	-2.21906	3.73601
3627.000	-0.91725	2.87990	-2.16971	3.78364
3628.000	-0.86388	2.81644	-2.16181	3.71240
3629.000	-0.89551	2.85610	-2.11443	3.64123
3630.000	-0.85598	2.84820	-2.08482	3.82739
3631.000	-0.91923	2.86402	-2.14602	3.61938
3632.000	-0.89551	2.93150	-2.22696	3.60730
3633.000	-0.92318	2.72908	-2.21314	3.64496
3634.000	-0.97852	2.77269	-2.17366	3.69653
3635.000	-0.98050	2.70918	-2.09271	3.70068
3636.000	-0.84807	2.67157	-2.15589	3.73419
3637.000	-0.81447	2.81648	-2.16774	3.65101
3638.000	-0.84412	2.67356	-2.15984	3.59360
3639.000	-0.82238	2.81647	-2.27433	3.58145
3640.000	-0.82238	2.77678	-2.22499	3.61721
3641.000	-0.77098	2.73712	-2.14405	3.66096
3642.000	-0.78680	2.71330	-2.11443	3.56400
3643.000	-0.85005	2.83034	-2.14207	3.68077
3644.000	-0.87179	2.76285	-2.20525	3.73406
3645.000	-0.87970	2.66957	-2.18353	3.62127
3646.000	-0.89156	2.62986	-2.14602	3.45698
3647.000	-0.83028	2.75693	-2.18945	3.58363
3648.000	-0.90934	2.68344	-2.16379	3.59953
3649.000	-0.75715	2.76095	-2.13615	3.63326
3650.000	-0.90144	2.72909	-2.13812	3.67484
3651.000	-0.86586	2.71523	-2.07889	3.71853
3652.000	-0.97457	2.70522	-2.20525	3.66873
3653.000	-0.92318	2.70724	-2.13812	3.62336
3654.000	-0.81052	2.76687	-2.10851	3.56996
3655.000	-1.01014	2.65160	-2.02953	3.62163
3656.000	-0.86191	2.68943	-2.00781	3.56028
3657.000	-0.86388	2.61797	-1.97622	3.56827
3658.000	-0.94097	2.79257	-1.92093	3.55848
3659.000	-0.87772	2.97714	-2.05323	3.80965
3660.000	-0.91527	2.93744	-2.00781	3.77611
3661.000	-0.93899	3.11991	-2.09666	4.07865
3662.000	-0.91923	3.25874	-2.02361	4.27858
3663.000	-0.90144	3.29643	-2.01966	4.35371
3664.000	-0.85203	3.43523	-2.03743	4.62438
3665.000	-0.70971	3.59786	-1.97819	4.87729
3666.000	-0.68599	3.83163	-2.02953	4.89688
3667.000	-0.72552	3.90288	-2.00584	4.83773
3668.000	-0.69982	4.02763	-2.03941	5.10797
3669.000	-0.66820	4.14047	-1.91303	5.03733
3670.000	-0.68796	4.16222	-1.96240	5.09243
3671.000	-0.80063	4.24719	-2.06902	5.17887
3672.000	-0.69587	4.15628	-2.12825	5.26345
3673.000	-0.63064	4.30076	-2.09271	5.34439
3674.000	-0.68203	4.47673	-2.05915	5.41742
3675.000	-0.60692	4.45702	-2.15392	5.54119
3676.000	-0.72552	4.47471	-2.13615	5.57671
3677.000	-0.56936	4.58951	-2.24473	5.65309
3678.000	-0.66820	4.57756	-2.14800	5.67708
3679.000	-0.66029	4.64675	-2.09074	5.58081
3680.000	-0.67808	4.73960	-2.22499	5.73190
3681.000	-0.78087	4.66639	-2.10851	5.67329
3682.000	-0.64052	4.75742	-2.20130	5.74183
3683.000	-0.74331	4.69607	-2.19143	5.68085
3684.000	-0.76110	4.71778	-2.21117	5.64731
3685.000	-0.79273	4.65847	-2.15589	5.70461
3686.000	-0.81842	4.61892	-2.21117	5.51144
3687.000	-0.81052	4.70192	-2.18156	5.58836
3688.000	-0.80063	4.74342	-2.16774	5.53130
3689.000	-0.69982	4.62497	-2.15194	5.50772
3690.000	-0.72354	4.82055	-2.21709	5.48975
3691.000	-0.71366	4.79291	-2.13615	5.64759
3692.000	-0.62471	4.76336	-2.07495	5.55920
3693.000	-0.69192	4.82848	-2.10654	5.51576
3694.000	-0.66424	4.85419	-2.08679	5.46461
3695.000	-0.61087	4.79103	-2.13023	5.43885
3696.000	-0.81052	4.85995	-2.16379	5.63765
3697.000	-0.69785	5.04963	-2.20722	5.47206
3698.000	-0.59506	4.76931	-2.22104	5.59412
3699.000	-0.73738	4.97654	-2.12430	5.60432
3700.000	-0.65634	4.95096	-2.20130	5.60404
3701.000	-0.70180	4.89167	-2.10061	5.48426
3702.000	-0.67413	4.90553	-2.14997	5.56287
3703.000	-0.78877	4.99820	-2.14405	5.57077
3704.000	-0.79470	4.92514	-2.10456	5.57879
3705.000	-0.72750	4.93509	-2.17366	5.50961
3706.000	-0.70180	5.00619	-2.27828	5.54073
3707.000	-0.82831	4.97051	-2.18353	5.63561
3708.000	-0.65634	4.99834	-2.16971	5.59037
3709.000	-0.70773	5.03382	-2.27631	5.49150
3710.000	-0.70971	4.90154	-2.07297	5.59859
3711.000	-0.72750	4.97260	-2.08679	5.50795
3712.000	-0.74133	4.92323	-2.18748	5.52335
3713.000	-0.74726	4.90545	-2.20327	5.63750
3714.000	-0.66820	5.00228	-2.05718	5.39575
3715.000	-0.73936	4.97259	-2.17958	5.57655
3716.000	-0.81249	4.74736	-2.11048	5.51377
3717.000	-0.83819	4.98629	-2.14997	5.55303
3718.000	-0.84017	4.82634	-2.12825	5.57674
3719.000	-0.85005	4.82238	-2.12628	5.49796
3720.000	-0.84412	4.99221	-2.16181	5.40918
3721.000	-0.77296	4.95478	-2.17169	5.63565
3722.000	-0.62273	4.91545	-2.14010	5.52155
3723.000	-0.70378	4.92327	-2.22499	5.53699
3724.000	-0.74133	4.82251	-2.18156	5.48988
3725.000	-0.68796	4.93316	-2.22104	5.53504
3726.000	-0.70180	4.87587	-2.11048	5.54332
3727.000	-0.75319	4.85015	-2.17958	5.58836
3728.000	-0.74133	4.75139	-2.24275	5.54284
3729.000	-0.81052	4.84613	-2.26052	5.52898
3730.000	-0.80656	4.86193	-2.17761	5.61003
3731.000	-0.81447	4.94684	-2.16576	5.54706
3732.000	-0.79668	4.91526	-2.16576	5.52736
3733.000	-0.68599	4.92329	-2.23288	5.68267
3734.000	-0.69587	4.89760	-2.21906	5.59216
3735.000	-0.74133	4.90151	-2.14405	5.58259
3736.000	-0.69587	4.84626	-2.20130	5.61585
3737.000	-0.77889	4.85209	-2.13615	5.44080
3738.000	-0.74133	4.87583	-2.24670	5.68064
3739.000	-0.76110	4.86199	-2.19143	5.72416
3740.000	-0.72750	4.91534	-2.01374	5.60668
3741.000	-0.66424	4.90751	-2.20130	5.60010
3742.000	-0.68796	4.86601	-2.09074	5.64973
3743.000	-0.69192	4.89366	-2.14405	5.63575
3744.000	-0.70971	4.81069	-2.22499	5.62954
3745.000	-0.70971	4.89956	-2.16774	5.53327
3746.000	-0.66029	4.84629	-2.21314	5.55082
3747.000	-0.68203	4.92329	-2.14800	5.55894
3748.000	-0.69192	4.88971	-2.07495	5.49420
3749.000	-0.71168	4.89364	-2.24078	5.56844
3750.000	-0.68401	4.91341	-2.15194	5.48014
3751.000	-0.64448	4.86803	-2.13812	5.49004
3752.000	-0.78284	4.85209	-2.20722	5.51146
3753.000	-0.63855	4.85619	-2.10456	5.45076
3754.000	-0.78680	4.80665	-2.20722	5.41296
3755.000	-0.78482	4.79085	-2.21906	5.53702
3756.000	-0.67808	4.86602	-2.22499	5.45427
3757.000	-0.69192	4.78108	-2.10061	5.40348
3758.000	-0.78482	4.79678	-2.16379	5.47813
3759.000	-0.79668	4.91921	-2.14207	5.49790
3760.000	-0.63262	4.80681	-1.95845	5.51626
3761.000	-0.78482	4.89948	-2.12233	5.50782
3762.000	-0.71168	4.82846	-2.18550	5.41304
3763.000	-0.74331	4.89558	-2.15194	5.40725
3764.000	-0.77296	4.81655	-2.14207	5.52351
3765.000	-0.77691	4.70393	-2.07692	5.50995
3766.000	-0.72947	4.82647	-2.12628	5.43295
3767.000	-0.76505	4.84223	-2.18748	5.46622
3768.000	-0.77889	4.87777	-2.11641	5.45072
3769.000	-0.70378	4.84032	-2.16774	5.45250
3770.000	-0.77889	4.70986	-2.11048	5.46453
3771.000	-0.75122	4.83632	-2.18945	5.48788
3772.000	-0.66622	4.83246	-2.21314	5.45037
3773.000	-0.76110	4.79286	-2.09271	5.33256
3774.000	-0.78087	4.75332	-2.16971	5.44856
3775.000	-0.69982	4.86205	-2.12233	5.48616
3776.000	-0.76703	4.65257	-2.20327	5.47996
3777.000	-0.75912	4.77310	-2.17366	5.41111
3778.000	-0.72354	4.71782	-2.16971	5.36383
3779.000	-0.66622	4.82653	-2.19932	5.44845
3780.000	-0.81447	4.77304	-2.13615	5.44868
3781.000	-0.78284	4.76320	-2.33750	5.55823
3782.000	-0.62273	4.93322	-2.14010	5.38758
3783.000	-0.67017	4.74949	-2.06705	5.35039
3784.000	-0.64645	4.74753	-2.19340	5.35784
3785.000	-0.70575	4.81464	-2.12628	5.35413
3786.000	-0.70971	4.83044	-2.07889	5.37203
3787.000	-0.78482	4.86393	-2.14405	5.23580
3788.000	-0.73145	4.81857	-2.15392	5.28111
3789.000	-0.69389	4.73168	-2.19340	5.36769
3790.000	-0.71168	4.76920	-2.14602	5.31662
3791.000	-0.79470	4.68613	-2.09666	5.43502
3792.000	-0.77296	4.66640	-2.11641	5.38766
3793.000	-0.67413	4.76134	-2.21117	5.44053
3794.000	-0.74726	4.70594	-2.18156	5.34605
3795.000	-0.70773	4.70006	-2.16774	5.33034
3796.000	-0.80854	4.68809	-2.24867	5.36946
3797.000	-0.88365	4.76308	-2.15194	5.39542
3798.000	-0.77691	4.69603	-2.22301	5.37349
3799.000	-0.87772	4.71765	-2.06705	5.33068
3800.000	-0.85993	4.61689	-2.11641	5.32066
3801.000	-0.83819	4.70979	-2.20919	5.37748
3802.000	-0.82238	4.61101	-2.13812	5.31467
3803.000	-0.81842	4.62089	-2.10654	5.34631
3804.000	-0.80261	4.61696	-2.16181	5.21208
3805.000	-0.85598	4.68804	-2.11838	5.33445
3806.000	-0.84807	4.70978	-2.09864	5.35422
3807.000	-0.87377	4.59909	-2.13023	5.21810
3808.000	-0.79075	4.69404	-2.02163	5.24804
3809.000	-0.95085	4.52388	-2.07495	5.34445
3810.000	-0.97259	4.54164	-2.12233	5.27727
3811.000	-0.82238	4.55171	-2.07297	5.31489
3812.000	-0.90144	4.48045	-2.05718	5.23018
3813.000	-0.84610	4.56552	-2.13418	5.30483
3814.000	-0.79668	4.51616	-2.18156	5.33029
3815.000	-0.95283	4.42898	-2.07495	5.34445
3816.000	-0.75122	4.60515	-2.10061	5.26552
3817.000	-0.83819	4.55960	-2.06902	5.30505
3818.000	-0.89749	4.46266	-2.07889	5.35429
3819.000	-0.83028	4.54379	-2.08284	5.28923
3820.000	-0.69192	4.48858	-2.13023	5.36003
3821.000	-0.81842	4.52404	-2.09666	5.23990
3822.000	-0.73145	4.57553	-2.04335	5.36032
3823.000	-0.80261	4.57545	-2.05718	5.30509
3824.000	-0.73540	4.58738	-2.14997	5.32646
3825.000	-0.78680	4.51419	-2.11641	5.30095
3826.000	-0.81645	4.56358	-2.16774	5.23178
3827.000	-0.93504	4.62668	-2.09864	5.33452
3828.000	-0.86191	4.57934	-2.12430	5.25755
3829.000	-0.88958	4.55361	-2.07297	5.27744
3830.000	-0.76703	4.55968	-2.11246	5.34432
3831.000	-0.77691	4.53595	-2.09666	5.27342
3832.000	-0.93504	4.59901	-2.06902	5.25577
3833.000	-0.85598	4.61689	-2.11048	5.28914
3834.000	-0.81052	4.65054	-2.17958	5.31453
3835.000	-0.90342	4.61288	-2.16379	5.35794
3836.000	-0.85203	4.71768	-2.15194	5.30871
3837.000	-0.83621	4.66435	-2.02756	5.33278
3838.000	-0.79866	4.66439	-2.14207	5.37181
3839.000	-0.79470	4.67032	-2.13418	5.32060
3840.000	-0.89156	4.70973	-2.14010	5.33240
3841.000	-0.89551	4.60104	-2.03348	5.27757
3842.000	-0.82040	4.61891	-2.08679	5.25571
3843.000	-0.80261	4.57545	-2.08284	5.28529
3844.000	-0.83819	4.64854	-2.05520	5.28538
3845.000	-0.76110	4.62886	-2.12825	5.31471
3846.000	-0.89156	4.60104	-2.02558	5.22239
3847.000	-0.92713	4.62471	-2.00781	5.24019
3848.000	-0.88167	4.63267	-2.00584	5.09624
3849.000	-0.83819	4.68410	-2.11048	5.08210
3850.000	-0.86191	4.58724	-2.11246	5.24379
3851.000	-0.74924	4.62690	-2.15589	5.24562
3852.000	-0.89946	4.59708	-2.04730	5.26570
3853.000	-0.73936	4.65260	-2.09864	5.21624
3854.000	-0.84214	4.55366	-2.12233	5.20236
3855.000	-0.74726	4.53993	-2.06112	5.17101
3856.000	-0.80854	4.63276	-2.14800	5.12537
3857.000	-0.82040	4.51811	-2.09864	5.27538
3858.000	-0.81447	4.64066	-1.96240	5.18315
3859.000	-0.68994	4.61510	-2.14207	5.22398
3860.000	-0.83028	4.68016	-2.08087	5.21827
3861.000	-0.77494	4.72567	-2.08877	5.19853
3862.000	-0.76901	4.63676	-2.13812	5.21019
3863.000	-0.70180	4.63287	-2.08284	5.10191
3864.000	-0.71761	4.67831	-1.99991	5.24022
3865.000	-0.90934	4.71365	-1.97227	5.10029
3866.000	-0.81645	4.59322	-2.07889	5.19067
3867.000	-0.81447	4.70192	-2.07495	5.24983
3868.000	-0.76110	4.73359	-2.09469	5.26160
3869.000	-0.89156	4.66033	-2.10851	5.26352
3870.000	-0.76901	4.69209	-2.10061	5.21820
3871.000	-0.75715	4.71384	-2.01571	5.26777
3872.000	-0.79075	4.65452	-2.07100	5.21436
3873.000	-0.76901	4.59130	-2.03941	5.22038
3874.000	-0.74529	4.81263	-2.04928	5.28737
3875.000	-0.85203	4.69199	-2.10654	5.38967
3876.000	-0.74924	4.71780	-1.99597	5.24417
3877.000	-0.86388	4.71569	-2.15787	5.30869
3878.000	-0.84610	4.72559	-2.03151	5.22632
3879.000	-0.73145	4.73757	-2.01374	5.37027
3880.000	-0.80854	4.58928	-1.99399	5.10811
3881.000	-0.69982	4.83045	-2.02558	5.28154
3882.000	-0.74924	4.82250	-2.12036	5.23194
3883.000	-0.77889	4.82641	-2.06507	5.25578
3884.000	-0.67610	4.73960	-2.02361	5.21057
3885.000	-0.80459	4.68217	-2.05915	5.23214
3886.000	-0.83819	4.72362	-2.09074	5.28329
3887.000	-0.67610	4.78702	-2.11641	5.28321
3888.000	-0.69587	4.73168	-2.02953	5.30518
3889.000	-0.70575	4.64078	-2.03941	5.31697
3890.000	-0.72354	4.62890	-2.10061	5.23989
3891.000	-0.79075	4.72368	-2.04730	5.25781
3892.000	-0.77691	4.71974	-2.02756	5.25787
3893.000	-0.73343	4.55773	-2.07495	5.20843
3894.000	-0.77098	4.73951	-2.11443	5.25956
3895.000	-0.77691	4.73950	-2.20525	5.32626
3896.000	-0.83226	4.67028	-2.05520	5.20061
3897.000	-0.87970	4.74333	-2.07297	5.21041
3898.000	-0.75122	4.69013	-2.00386	5.13372
3899.000	-0.69982	4.77119	-2.06310	5.25973
3900.000	-0.65041	4.72975	-2.07692	5.17490
3901.000	-0.72157	4.70795	-1.99399	5.12981
3902.000	-0.77098	4.64071	-1.96635	5.16145
3903.000	-0.62866	4.71199	-1.99597	5.22840
3904.000	-0.66622	4.64081	-2.00386	5.28161
3905.000	-0.67610	4.74948	-2.08482	5.17488
3906.000	-0.71761	4.62891	-1.98412	5.17717
3907.000	-0.82040	4.67425	-2.05323	5.24202
3908.000	-0.69389	4.63288	-2.01571	5.03308
3909.000	-0.68006	4.75541	-2.09864	5.22807
3910.000	-0.64448	4.64676	-2.04138	5.24206
3911.000	-0.63262	4.72186	-2.14800	5.31661
3912.000	-0.78680	4.60709	-2.06705	5.27155
3913.000	-0.77691	4.67430	-2.03941	5.19474
3914.000	-0.71959	4.68028	-2.03743	5.21447
3915.000	-0.72552	4.52216	-2.12825	5.22403
3916.000	-0.83028	4.66238	-2.11838	5.12546
3917.000	-0.81052	4.55370	-2.08087	5.10586
3918.000	-0.86191	4.70186	-2.07100	5.15914
3919.000	-0.82040	4.52997	-1.98807	5.05487
3920.000	-0.74924	4.69606	-2.07297	5.04474
3921.000	-0.75715	4.64467	-2.03941	5.07443
3922.000	-0.69587	4.63090	-2.09864	5.16694
3923.000	-0.73343	4.63679	-2.06507	5.27549
3924.000	-0.70971	4.55776	-2.07297	5.25773
3925.000	-0.70180	4.58346	-2.02163	5.12183
3926.000	-0.70180	4.60520	-2.12036	5.09193
3927.000	-0.69587	4.62497	-2.12036	5.23194
3928.000	-0.75912	4.56166	-2.11246	5.20831
3929.000	-0.65041	4.44512	-2.03743	5.05077
3930.000	-0.71366	4.40552	-2.05915	5.19073
3931.000	-0.66227	4.51234	-2.11048	5.20240
3932.000	-0.70575	4.42332	-2.07889	5.28728
3933.000	-0.72750	4.56762	-2.11443	5.27730
3934.000	-0.68994	4.51824	-2.09271	5.07427
3935.000	-0.79668	4.34412	-2.08482	5.28923
3936.000	-0.74133	4.45492	-2.01966	5.12775
3937.000	-0.74529	4.48458	-1.95845	5.31526
3938.000	-0.65238	4.47873	-2.09074	5.08216
3939.000	-0.68203	4.46882	-2.05718	5.21637
3940.000	-0.64250	4.50445	-2.14010	5.22201
3941.000	-0.61878	4.38978	-2.07495	5.15124
3942.000	-0.64250	4.59340	-2.00386	5.28358
3943.000	-0.61878	4.46097	-2.04335	5.15923
3944.000	-0.59110	4.44122	-2.07495	5.19068
3945.000	-0.63459	4.48270	-2.01966	5.23621
3946.000	-0.71959	4.54984	-2.07100	5.26956
3947.000	-0.73936	4.37583	-2.05718	5.14736
3948.000	-0.68599	4.36797	-2.06507	5.16508
3949.000	-0.70773	4.50241	-2.13812	5.21611
3950.000	-0.64448	4.38976	-2.10456	5.16889
3951.000	-0.59506	4.46296	-2.07100	5.16506
3952.000	-0.79075	4.35995	-2.11838	5.13138
3953.000	-0.63064	4.36010	-2.06902	5.13746
3954.000	-0.68994	4.45695	-1.98609	5.11405
3955.000	-0.72354	4.42528	-2.05718	5.04084
3956.000	-0.63262	4.44316	-2.15392	5.24365
3957.000	-0.73936	4.49447	-2.02163	5.29141
3958.000	-0.72947	4.47273	-2.10061	5.16891
3959.000	-0.74726	4.39955	-2.10851	5.36010
3960.000	-0.74726	4.38768	-2.11443	5.20041
3961.000	-0.78680	4.44301	-2.04335	5.11979
3962.000	-0.60692	4.46295	-2.09074	5.21626
3963.000	-0.61680	4.50249	-2.11048	5.13141
3964.000	-0.63459	4.58353	-2.00386	5.13964
3965.000	-0.78877	4.38369	-2.07100	5.13942
3966.000	-0.65041	4.54991	-2.09469	5.16104
3967.000	-0.78482	4.61895	-2.15787	5.13519
3968.000	-0.72750	4.57355	-2.10456	5.29113
3969.000	-0.78680	4.51617	-2.04730	5.23021
3970.000	-0.76308	4.51619	-2.00584	5.15738
3971.000	-0.70971	4.54194	-2.09666	5.16498
3972.000	-0.71168	4.66844	-2.04335	5.12965
3973.000	-0.69389	4.68229	-2.12825	5.21220
3974.000	-0.76505	4.55770	-2.11246	5.16690
3975.000	-0.78877	4.64662	-2.04928	5.13555
3976.000	-0.78284	4.61698	-2.00979	5.29933
3977.000	-0.83819	4.56157	-2.05718	5.18680
3978.000	-0.77691	4.60117	-2.04730	5.21049
3979.000	-0.77889	4.64070	-2.01176	5.26187
3980.000	-0.71168	4.71191	-2.02163	5.22240
3981.000	-0.72947	4.68620	-2.03941	5.27361
3982.000	-0.74331	4.57354	-2.01571	5.21651
3983.000	-0.68006	4.69416	-2.01966	5.13761
3984.000	-0.81447	4.57544	-2.02756	5.19281
3985.000	-0.65436	4.68825	-2.10456	5.21425
3986.000	-0.71366	4.50833	-2.00189	5.23233
3987.000	-0.74133	4.55180	-1.96635	5.13186
3988.000	-0.71168	4.54392	-2.13023	5.36200
3989.000	-0.68006	4.66847	-2.05125	5.14935
3990.000	-0.67610	4.66649	-2.08679	5.26754
3991.000	-0.76308	4.55770	-2.09271	5.26555
3992.000	-0.77296	4.61106	-2.00584	5.28949
3993.000	-0.78482	4.65453	-2.10259	5.26946
3994.000	-0.72552	4.68621	-1.97819	5.07068
3995.000	-0.64448	4.67245	-2.11048	5.28717
3996.000	-0.85598	4.53190	-2.07692	5.22222
3997.000	-0.77296	4.59525	-2.02756	5.26182
3998.000	-0.78482	4.65453	-2.08284	5.19460
3999.000	-0.74133	4.70792	-2.02953	5.21252
4000.000	-0.68599	4.49847	-2.06112	5.23213
4001.000	-0.81447	4.53788	-2.09271	5.28526
4002.000	-0.78877	4.70985	-2.06902	5.27745
4003.000	-0.67413	4.55384	-2.03546	5.16320
4004.000	-0.66820	4.61117	-2.03941	5.18094
4005.000	-0.65041	4.61909	-1.99991	5.09428
4006.000	-0.66424	4.72183	-2.18550	5.24552
4007.000	-0.61285	4.62900	-2.05125	5.21639
4008.000	-0.73936	4.63876	-2.04730	5.26372
4009.000	-0.63459	4.51631	-2.00781	5.18498
4010.000	-0.74924	4.56958	-2.02163	5.19677
4011.000	-0.64645	4.54398	-2.09864	5.21821
4012.000	-0.74529	4.53993	-2.06310	5.17889
4013.000	-0.69785	4.53405	-2.07889	5.23602
4014.000	-0.72552	4.64668	-2.11838	5.13335
4015.000	-0.64843	4.55979	-2.11048	5.24577
4016.000	-0.75122	4.63480	-2.04335	5.09415
4017.000	-0.74924	4.55970	-2.03743	5.19475
4018.000	-0.78482	4.53594	-2.09074	5.11372
4019.000	-0.62471	4.55586	-2.06310	5.21241
4020.000	-0.75517	4.58736	-2.12036	5.18462
4021.000	-0.65831	4.58153	-2.01769	5.29536
4022.000	-0.68203	4.58151	-2.08679	5.21628
4023.000	-0.72552	4.61111	-2.08284	5.22023
4024.000	-0.71366	4.66843	-2.07495	5.23012
4025.000	-0.75319	4.56760	-2.07100	5.16900
4026.000	-0.68994	4.53406	-2.05915	5.19665
4027.000	-0.63262	4.45305	-2.08877	5.22810
4028.000	-0.60296	4.58158	-2.08679	5.27148
4029.000	-0.66227	4.61710	-1.98807	5.16730
4030.000	-0.59506	4.50449	-2.06705	5.12169
4031.000	-0.70575	4.58939	-2.02953	5.08236
4032.000	-0.64250	4.49258	-2.13418	5.15894
4033.000	-0.70378	4.57555	-2.06705	5.16310
4034.000	-0.67413	4.63092	-2.10061	5.08805
4035.000	-0.77691	4.58536	-2.05520	5.17497
4036.000	-0.72947	4.47668	-2.07889	5.18081
4037.000	-0.66029	4.53606	-2.02953	5.15533
4038.000	-0.79470	4.44498	-2.07692	5.04867
4039.000	-0.75912	4.55968	-2.11838	5.18857
4040.000	-0.69389	4.44904	-2.00189	5.21458
4041.000	-0.73343	4.59134	-2.11246	5.14520
4042.000	-0.70773	4.66844	-2.03941	5.07838
4043.000	-0.73540	4.54192	-1.96042	5.13583
4044.000	-0.71959	4.48460	-2.09074	5.07624
4045.000	-0.63855	4.64479	-2.02558	5.12379
4046.000	-0.65634	4.50641	-2.06507	5.12366
4047.000	-0.69192	4.62893	-2.02756	5.13365
4048.000	-0.77296	4.53200	-2.10061	5.16694
4049.000	-0.75912	4.51422	-2.07495	5.06643
4050.000	-0.78680	4.50233	-2.05125	5.17301
4051.000	-0.73540	4.63482	-2.03546	5.08628
4052.000	-0.68599	4.61510	-2.05125	5.18090
4053.000	-0.69587	4.64474	-2.09864	5.07030
4054.000	-0.75319	4.55178	-2.05520	5.09806
4055.000	-0.63657	4.53015	-2.02361	5.12971
4056.000	-0.66029	4.50838	-2.02558	4.99951
4057.000	-0.66424	4.49652	-2.16774	5.10952
4058.000	-0.70575	4.52020	-1.99004	5.09826
4059.000	-0.72552	4.50634	-2.09864	5.07425
4060.000	-0.70575	4.49648	-2.13812	5.15695
4061.000	-0.69785	4.48858	-2.03348	5.07051
4062.000	-0.78482	4.46279	-2.04533	5.20458
4063.000	-0.72552	4.63483	-2.07495	5.04473
4064.000	-0.86191	4.53980	-2.03941	5.03893
4065.000	-0.71761	4.56961	-2.12233	5.14123
4066.000	-0.70971	4.51229	-2.12628	5.11755
4067.000	-0.68599	4.52022	-2.04928	5.09413
4068.000	-0.67413	4.61709	-1.89723	4.97029
4069.000	-0.71168	4.51031	-2.08284	5.04865
4070.000	-0.66227	4.64082	-2.10851	5.16099
4071.000	-0.67017	4.49849	-2.04928	5.16119
4072.000	-0.73343	4.53599	-2.12825	5.08007
4073.000	-0.67017	4.51628	-2.05520	5.11778
4074.000	-0.77691	4.46082	-1.99597	5.09035
4075.000	-0.63064	4.56179	-2.01374	5.04887
4076.000	-0.64448	4.40360	-2.00386	5.13175
4077.000	-0.87179	4.54967	-2.06112	5.07042
4078.000	-0.73936	4.55575	-2.09864	5.17680
4079.000	-0.65041	4.63095	-2.12233	5.13531
4080.000	-0.70180	4.52614	-1.96240	5.09637
4081.000	-0.70971	4.52218	-2.00584	5.18302
4082.000	-0.75319	4.53004	-2.02756	5.16717
4083.000	-0.75319	4.68223	-2.01176	5.08636
4084.000	-0.73145	4.55576	-1.98609	5.10813
4085.000	-0.57529	4.57369	-2.08679	5.13543
4086.000	-0.62471	4.60330	-2.18156	5.14103
4087.000	-0.75715	4.61108	-2.03151	4.98173
4088.000	-0.81645	4.60904	-2.07889	5.07234
4089.000	-0.73343	4.62494	-2.06705	5.12366
4090.000	-0.75122	4.59922	-1.98609	5.18702
4091.000	-0.72354	4.60716	-2.03546	5.14348
4092.000	-0.67413	4.65464	-2.06507	5.14930
4093.000	-0.65831	4.59536	-2.04533	5.05863
4094.000	-0.80854	4.44299	-2.03546	5.10798
4095.000	-0.81645	4.49636	-1.99991	5.14359
4096.000	-0.67808	4.56174	-2.08482	5.05062
4097.000	-0.71959	4.52612	-2.05125	5.10399
4098.000	-0.71959	4.56170	-2.04138	5.13163
4099.000	-0.72552	4.56170	-2.10456	5.09198
4100.000	-0.68994	4.55382	-2.07297	4.96976
4101.000	-0.74924	4.60318	-1.99597	5.17516
4102.000	-0.72552	4.51821	-2.09271	5.14527
4103.000	-0.74924	4.44503	-2.06112	5.17890
4104.000	-0.69192	4.66055	-2.08284	5.07232
4105.000	-0.78087	4.51024	-2.04335	5.14740
4106.000	-0.56343	4.52428	-2.01176	5.03507
4107.000	-0.74133	4.56761	-1.97819	5.14761
4108.000	-0.70971	4.58345	-2.11641	5.17674
4109.000	-0.73145	4.53006	-2.06705	5.15719
4110.000	-0.70378	4.61113	-2.15787	5.14111
4111.000	-0.67215	4.63093	-2.07692	5.07234
4112.000	-0.64645	4.62700	-2.12233	5.23982
4113.000	-0.65041	4.67245	-2.12233	5.01696
4114.000	-0.63657	4.59934	-2.08482	5.15318
4115.000	-0.68006	4.64673	-2.10456	5.10973
4116.000	-0.75912	4.57945	-2.03941	5.12177
4117.000	-0.60494	4.64087	-2.09271	5.03678
4118.000	-0.67215	4.47081	-2.11641	5.28715
4119.000	-0.65634	4.61908	-2.06310	5.16903
4120.000	-0.75122	4.57946	-1.99202	5.00158
4121.000	-0.66622	4.56966	-1.98412	5.11997
4122.000	-0.65238	4.56967	-2.09271	5.15907
4123.000	-0.59110	4.52426	-2.12825	5.19445
4124.000	-0.65238	4.52618	-2.08284	5.11375
4125.000	-0.71366	4.66646	-2.12430	5.13136
4126.000	-0.68203	4.53802	-2.08087	5.20841
4127.000	-0.69389	4.57359	-2.02163	5.11000
4128.000	-0.61482	4.68236	-2.14207	5.12539
4129.000	-0.65041	4.65466	-1.99991	5.08837
4130.000	-0.69785	4.63683	-2.06112	5.12170
4131.000	-0.74331	4.58737	-2.12036	5.20434
4132.000	-0.72947	4.66447	-2.11641	5.15702
4133.000	-0.72750	4.52611	-2.14800	5.19241
4134.000	-0.73738	4.56366	-2.18748	5.07395
4135.000	-0.67808	4.63487	-2.11641	5.13928
4136.000	-0.64052	4.58550	-2.09666	5.06636
4137.000	-0.72750	4.68028	-2.17958	5.08581
4138.000	-0.70180	4.58939	-2.21512	5.24738
4139.000	-0.68401	4.61510	-2.15392	5.04053
4140.000	-0.62273	4.61911	-2.22301	5.19807
4141.000	-0.74529	4.66642	-2.13812	5.06820
4142.000	-0.61285	4.66260	-2.18353	5.17455
4143.000	-0.70575	4.61904	-2.14010	5.07806
4144.000	-0.71761	4.54787	-2.17169	5.05823
4145.000	-0.68401	4.61906	-2.14207	5.03465
4146.000	-0.59308	4.62902	-2.15589	5.05433
4147.000	-0.78680	4.42522	-2.07297	5.01317
4148.000	-0.73343	4.53797	-2.20327	5.03642
4149.000	-0.74924	4.52807	-2.13615	5.14907
4150.000	-0.83424	4.55367	-2.05718	5.03295
4151.000	-0.71168	4.62298	-2.16181	5.13321
4152.000	-0.74331	4.59528	-2.09864	5.09792
4153.000	-0.76110	4.60712	-2.15787	5.22590
4154.000	-0.76308	4.60119	-2.11641	5.05644
4155.000	-0.73540	4.53401	-2.12036	4.98540
4156.000	-0.74529	4.63678	-2.21906	5.15076
4157.000	-0.75912	4.54189	-2.19538	5.07787
4158.000	-0.73936	4.65655	-2.07297	5.05066
4159.000	-0.69785	4.55975	-2.17366	5.03455
4160.000	-0.70378	4.58544	-2.15194	5.03659
4161.000	-0.70773	4.57357	-2.13812	5.05439
4162.000	-0.69192	4.66450	-2.12825	4.99919
4163.000	-0.85005	4.55563	-2.06902	4.95202
4164.000	-0.82435	4.48845	-2.14800	4.99518
4165.000	-0.63262	4.68234	-2.15392	4.97937
4166.000	-0.75319	4.63677	-2.03348	4.99554
4167.000	-0.80854	4.69402	-2.06310	5.02504
4168.000	-0.71761	4.58345	-2.04533	5.01918
4169.000	-0.84017	4.55169	-2.04730	4.93630
4170.000	-0.78284	4.56559	-2.09074	4.96182
4171.000	-0.75517	4.59527	-2.13023	4.97550
4172.000	-0.80854	4.66438	-2.12233	4.95382
4173.000	-0.74529	4.56563	-2.08482	4.98749
4174.000	-0.76901	4.66640	-2.12233	5.00315
4175.000	-0.80063	4.56952	-2.16774	5.02273
4176.000	-0.85993	4.60306	-2.13220	4.89656
4177.000	-0.80459	4.57545	-1.94660	5.03526
4178.000	-0.83424	4.68806	-2.12233	4.97947
4179.000	-0.68401	4.66056	-2.14010	4.90246
4180.000	-0.80063	4.65056	-2.22301	4.98112
4181.000	-0.90342	4.67414	-2.19538	4.99305
4182.000	-0.77494	4.66046	-2.09666	5.00323
4183.000	-0.84214	4.66829	-2.21906	4.98705
4184.000	-0.85993	4.69396	-2.28026	5.13871
4185.000	-0.84610	4.68212	-2.15392	5.04053
4186.000	-0.85796	4.63270	-2.09271	5.06243
4187.000	-0.81052	4.61102	-2.09074	5.03679
4188.000	-0.78284	4.58931	-2.09864	5.06636
4189.000	-0.62273	4.60923	-1.83206	4.98231
4190.000	-0.58320	4.54206	-1.59700	4.76377
4191.000	-0.38749	4.25345	-1.52984	4.90018
4192.000	-0.19177	4.15656	-1.40537	4.71876
4193.000	-0.08501	4.18033	-1.34016	4.58849
4194.000	-0.05931	4.04178	-1.12872	4.43071
4195.000	0.02966	3.84774	-0.93109	4.35188
4196.000	0.02372	3.72494	-0.90342	4.39740
4197.000	0.09094	3.75663	-0.83819	4.23331
4198.000	0.11269	3.70512	-0.67413	4.14640
4199.000	0.11269	3.71304	-0.75122	4.11863
4200.000	0.19770	3.75661	-0.77098	4.07903
4201.000	0.19968	3.74472	-0.62471	3.90890
4202.000	0.22933	3.57234	-0.69785	3.92667
4203.000	0.13839	3.55056	-0.63064	3.80790
4204.000	0.22538	3.51685	-0.60692	3.73265
4205.000	0.31236	3.60402	-0.67808	3.49285
4206.000	0.28073	3.43557	-0.62668	3.50874
4207.000	0.31829	3.29083	-0.66227	3.40367
4208.000	0.28864	3.21945	-0.63262	3.35016
4209.000	0.25108	3.04492	-0.60296	3.16776
4210.000	0.29259	2.90404	-0.67017	3.14590
4211.000	0.27480	2.81673	-0.61680	3.06064
4212.000	0.34202	2.76312	-0.66227	3.03483
4213.000	0.27876	2.65794	-0.60692	3.01700
4214.000	0.33016	2.54476	-0.70180	3.02885
4215.000	0.32818	2.59837	-0.64448	2.90786
4216.000	0.29852	2.56661	-0.66227	2.97928
4217.000	0.43098	2.49708	-0.70773	2.85425
4218.000	0.30050	2.52690	-0.64250	2.99119
4219.000	0.36179	2.50107	-0.67610	2.77092
4220.000	0.46459	2.42161	-0.59110	2.79677
4221.000	0.34202	2.39385	-0.64843	2.84635
4222.000	0.40726	2.49312	-0.69192	2.81060
4223.000	0.33806	2.39980	-0.62273	2.78087
4224.000	0.41516	2.44546	-0.68203	2.70542
4225.000	0.48831	2.35408	-0.58122	2.79280
4226.000	0.39737	2.38390	-0.71761	2.69944
4227.000	0.43098	2.43354	-0.65436	2.82452
4228.000	0.48238	2.45735	-0.72750	2.90980
4229.000	0.52389	2.41365	-0.73343	2.79669
4230.000	0.42307	2.43553	-0.66029	2.94555
4231.000	0.41714	2.50503	-0.71168	2.92171
4232.000	0.46063	2.47324	-0.75122	2.95938
4233.000	0.40528	2.41369	-0.72157	3.04272
4234.000	0.45668	2.53281	-0.72157	2.88599
4235.000	0.43889	2.51296	-0.65831	3.01301
4236.000	0.40923	2.34418	-0.68401	2.99117
4237.000	0.42900	2.46531	-0.66820	2.93166
4238.000	0.40923	2.43354	-0.74529	2.91772
4239.000	0.48238	2.37394	-0.57727	2.97139
4240.000	0.43098	2.38985	-0.67413	2.82649
4241.000	0.52389	2.33421	-0.76703	3.00103
4242.000	0.42307	2.44744	-0.65041	3.00111
4243.000	0.37760	2.36603	-0.78877	3.00697
4244.000	0.46261	2.36799	-0.65041	2.96937
4245.000	0.32027	2.39385	-0.69389	2.88005
4246.000	0.37365	2.40178	-0.67215	3.00110
4247.000	0.37958	2.32631	-0.66029	3.00904
4248.000	0.44877	2.34019	-0.69587	2.96339
4249.000	0.42702	2.43155	-0.70378	2.93957
4250.000	0.51005	2.33819	-0.68994	2.95149
4251.000	0.44482	2.49509	-0.68599	2.99712
4252.000	0.51005	2.32826	-0.72157	2.99710
4253.000	0.43691	2.38389	-0.62668	2.91184
4254.000	0.48238	2.36600	-0.65041	2.85627
4255.000	0.40726	2.44745	-0.70773	2.88600
4256.000	0.43296	2.42361	-0.71366	2.94949
4257.000	0.58320	2.45135	-0.69785	3.00505
4258.000	0.39737	2.38787	-0.70180	3.03877
4259.000	0.35981	2.33227	-0.65041	2.92373
4260.000	0.54168	2.51689	-0.73936	3.00502
4261.000	0.53180	2.45733	-0.73936	3.04073
4262.000	0.43889	2.50502	-0.70773	2.97727
4263.000	0.42307	2.46730	-0.69389	2.91180
4264.000	0.40923	2.37397	-0.62668	3.03286
4265.000	0.50215	2.35408	-0.84412	2.91765
4266.000	0.48040	2.43551	-0.67610	2.95745
4267.000	0.40133	2.50702	-0.74726	3.01097
4268.000	0.41121	2.47922	-0.77098	2.98119
4269.000	0.50017	2.48713	-0.68599	2.95942
4270.000	0.47842	2.41168	-0.72750	2.96138
4271.000	0.42109	2.50701	-0.68401	3.01696
4272.000	0.46854	2.46927	-0.74726	3.09031
4273.000	0.51796	2.42358	-0.71959	3.06058
4274.000	0.51005	2.39578	-0.74924	3.05262
4275.000	0.48831	2.44146	-0.71761	2.93758
4276.000	0.49622	2.47323	-0.71168	3.03678
4277.000	0.48633	2.46926	-0.67017	3.01300
4278.000	0.41714	2.36006	-0.60296	2.97733
4279.000	0.52389	2.39776	-0.71761	3.02090
4280.000	0.48238	2.39579	-0.65634	3.07649
4281.000	0.44284	2.36006	-0.75912	2.94549
4282.000	0.38353	2.42759	-0.71959	2.95742
4283.000	0.46656	2.51097	-0.76505	3.02881
4284.000	0.49622	2.39380	-0.66424	2.99118
4285.000	0.45668	2.38388	-0.67215	2.87610
4286.000	0.48040	2.43352	-0.66820	3.05863
4287.000	0.51796	2.39776	-0.66227	3.01697
4288.000	0.42307	2.44545	-0.66227	2.99515
4289.000	0.50808	2.46925	-0.68994	3.04869
4290.000	0.50412	2.46925	-0.71959	2.98123
4291.000	0.54366	2.42357	-0.64052	3.01302
4292.000	0.56145	2.45533	-0.69587	2.92966
4293.000	0.51796	2.33024	-0.75715	2.92962
4294.000	0.50808	2.46528	-0.76505	3.04666
4295.000	0.40923	2.42957	-0.70180	3.00504
4296.000	0.51203	2.38386	-0.72947	2.98916
4297.000	0.56936	2.34809	-0.62471	2.97732
4298.000	0.49819	2.44146	-0.74331	2.98518
4299.000	0.45668	2.41764	-0.70575	3.06455
4300.000	0.46854	2.44743	-0.77098	3.00500
4301.000	0.51005	2.39776	-0.74529	2.99311
4302.000	0.47249	2.41962	-0.63064	3.11220
4303.000	0.50017	2.44543	-0.67413	3.02887
4304.000	0.51994	2.53279	-0.76110	3.00500
4305.000	0.40330	2.41170	-0.74133	2.95145
4306.000	0.48040	2.29649	-0.77889	3.11806
4307.000	0.52191	2.49109	-0.72947	2.94948
4308.000	0.46261	2.50303	-0.77691	3.12797
4309.000	0.37563	2.39582	-0.74726	2.99311
4310.000	0.40726	2.41170	-0.67215	2.98721
4311.000	0.44679	2.58642	-0.68203	3.02886
4312.000	0.43493	2.48119	-0.65238	2.97928
4313.000	0.48040	2.50302	-0.68796	3.04473
4314.000	0.40330	2.45340	-0.67610	2.85427
4315.000	0.40330	2.46532	-0.67808	2.97133
4316.000	0.36772	2.40377	-0.74331	3.05263
4317.000	0.49226	2.39976	-0.65436	2.93167
4318.000	0.42505	2.43553	-0.77494	3.09426
4319.000	0.50412	2.46727	-0.62273	3.03088
4320.000	0.40528	2.48915	-0.66227	3.02887
4321.000	0.51203	2.42557	-0.78877	3.04466
4322.000	0.38749	2.42164	-0.68599	2.91974
4323.000	0.53180	2.47322	-0.73145	3.03478
4324.000	0.43493	2.55466	-0.65238	3.13996
4325.000	0.44284	2.43353	-0.64250	3.04476
4326.000	0.42307	2.43155	-0.71761	3.02686
4327.000	0.40133	2.40376	-0.80656	3.05655
4328.000	0.49819	2.57250	-0.74529	2.99113
4329.000	0.40133	2.39979	-0.73738	2.92368
4330.000	0.39935	2.54673	-0.78087	3.08632
4331.000	0.47645	2.49111	-0.69982	3.01496
4332.000	0.47842	2.48118	-0.68796	3.05861
4333.000	0.52191	2.56257	-0.66622	2.97531
4334.000	0.47447	2.52288	-0.77889	2.96135
4335.000	0.53971	2.55263	-0.76308	2.98318
4336.000	0.41319	2.44943	-0.74726	3.05064
4337.000	0.38156	2.46731	-0.71366	2.87409
4338.000	0.35783	2.54277	-0.74331	3.05064
4339.000	0.39144	2.45936	-0.68006	2.99514
4340.000	0.50412	2.54669	-0.69389	3.06258
4341.000	0.52982	2.48314	-0.73540	3.00502
4342.000	0.51203	2.55662	-0.66227	2.93563
4343.000	0.53971	2.45336	-0.77691	2.90778
4344.000	0.56343	2.49703	-0.79075	3.04863
4345.000	0.49622	2.43153	-0.75715	2.92367
4346.000	0.61482	2.42354	-0.76703	2.97326
4347.000	0.51005	2.55265	-0.82633	3.10414
4348.000	0.47447	2.54075	-0.74726	3.02882
4349.000	0.56540	2.59233	-0.75319	3.05064
4350.000	0.52587	2.46329	-0.82238	3.00496
4351.000	0.46459	2.49508	-0.81645	3.04266
4352.000	0.51796	2.60823	-0.80854	2.97521
4353.000	0.55750	2.56652	-0.82435	2.96330
4354.000	0.47645	2.48912	-0.78680	3.10020
4355.000	0.55947	2.44938	-0.78284	3.02284
4356.000	0.57133	2.50100	-0.77889	2.93556
4357.000	0.46656	2.55068	-0.89946	3.03664
4358.000	0.59308	2.58040	-0.78877	3.03276
4359.000	0.53180	2.51888	-0.69389	2.94752
4360.000	0.61878	2.54664	-0.70971	2.92568
4361.000	0.43098	2.50304	-0.80261	2.95141
4362.000	0.51796	2.62411	-0.69389	3.05266
4363.000	0.51005	2.53279	-0.77889	3.03475
4364.000	0.46261	2.44346	-0.76308	3.06650
4365.000	0.51796	2.63999	-0.77494	3.04070
4366.000	0.61878	2.57444	-0.80459	3.10614
4367.000	0.48633	2.59435	-0.79273	3.03871
4368.000	0.59110	2.54467	-0.71564	3.02487
4369.000	0.46459	2.56259	-0.70575	3.00504
4370.000	0.52982	2.61617	-0.79273	3.05854
4371.000	0.52784	2.56852	-0.75122	3.03278
4372.000	0.52191	2.50697	-0.76703	3.03872
4373.000	0.50017	2.57647	-0.74331	2.98319
4374.000	0.39539	2.61622	-0.70773	3.06654
4375.000	0.41319	2.55069	-0.74331	2.88796
4376.000	0.48633	2.59038	-0.71959	3.00900
4377.000	0.33411	2.56263	-0.69192	3.14390
4378.000	0.44482	2.58245	-0.69785	3.06456
4379.000	0.38749	2.58247	-0.87179	3.04460
4380.000	0.43098	2.54076	-0.73343	3.07644
4381.000	0.31632	2.61227	-0.77098	3.14186
4382.000	0.34597	2.58447	-0.66820	2.93364
4383.000	0.42702	2.64400	-0.71168	3.09629
4384.000	0.37167	2.52490	-0.85005	2.99700
4385.000	0.42505	2.55665	-0.67017	2.96737
4386.000	0.40923	2.59636	-0.71959	3.01694
4387.000	0.49622	2.54471	-0.78087	3.01689
4388.000	0.43691	2.53480	-0.67215	2.86816
4389.000	0.50412	2.53081	-0.73936	3.06453
4390.000	0.43296	2.68568	-0.71366	2.91377
4391.000	0.46656	2.57649	-0.80854	2.90379
4392.000	0.50808	2.61618	-0.74726	3.03279
4393.000	0.46459	2.64994	-0.81645	2.94743
4394.000	0.52389	2.59036	-0.75517	2.99112
4395.000	0.57727	2.63600	-0.80854	3.01489
4396.000	0.45865	2.66582	-0.70773	2.93362
4397.000	0.42702	2.61621	-0.70971	3.00107
4398.000	0.49226	2.58442	-0.89353	2.97713
4399.000	0.45470	2.75713	-0.74529	2.81255
4400.000	0.45272	2.63406	-0.79273	2.87205
4401.000	0.49622	2.50698	-0.76308	2.97525
4402.000	0.55552	2.56851	-0.84412	2.92360
4403.000	0.52191	2.65786	-0.69192	3.07845
4404.000	0.48040	2.66383	-0.84017	2.98709
4405.000	0.39539	2.62217	-0.72157	2.99114
4406.000	0.36574	2.47923	-0.71761	2.87607
4407.000	0.53575	2.70748	-0.72947	2.99907
4408.000	0.46656	2.63406	-0.71366	2.91179
4409.000	0.41516	2.56658	-0.75517	2.91573
4410.000	0.44086	2.52885	-0.75912	2.93755
4411.000	0.47447	2.70353	-0.73343	2.86019
4412.000	0.38353	2.56262	-0.80459	3.01489
4413.000	0.49622	2.55662	-0.77098	2.99905
4414.000	0.49424	2.54868	-0.86388	2.97517
4415.000	0.38551	2.61622	-0.86586	2.95731
4416.000	0.40923	2.59636	-0.82040	2.92561
4417.000	0.36969	2.56461	-0.72947	2.93757
4418.000	0.38749	2.65592	-0.76703	2.94747
4419.000	0.47249	2.66780	-0.74529	2.95740
4420.000	0.38946	2.48121	-0.76901	2.97127
4421.000	0.33806	2.55072	-0.81842	2.98314
4422.000	0.41714	2.64202	-0.75912	2.85819
4423.000	0.40133	2.50503	-0.83424	2.91766
4424.000	0.43098	2.53878	-0.68994	2.94553
4425.000	0.37167	2.62019	-0.76901	2.98516
4426.000	0.36772	2.49908	-0.78877	2.97721
4427.000	0.40923	2.53084	-0.76308	2.90382
4428.000	0.38946	2.55467	-0.84412	2.89979
4429.000	0.39342	2.59835	-0.79866	2.95737
4430.000	0.35981	2.46732	-0.73936	2.89193
4431.000	0.41121	2.54672	-0.74331	2.96137
4432.000	0.37563	2.51298	-0.79668	3.03077
4433.000	0.29062	2.39187	-0.77296	2.96929
4434.000	0.37365	2.55468	-0.75122	2.92367
4435.000	0.37563	2.39979	-0.81842	2.93354
4436.000	0.31434	2.50506	-0.81842	2.91569
4437.000	0.35783	2.46335	-0.80459	2.98712
4438.000	0.38353	2.50702	-0.75319	2.98120
4439.000	0.34399	2.44548	-0.75912	2.94152
4440.000	0.38749	2.38986	-0.85598	3.02477
4441.000	0.43296	2.42361	-0.67215	2.88999
4442.000	0.31434	2.43357	-0.76703	2.93160
4443.000	0.29457	2.34023	-0.75912	3.00699
4444.000	0.34202	2.32036	-0.76505	2.98715
4445.000	0.33806	2.42165	-0.72947	2.92964
4446.000	0.21352	2.34223	-0.80854	2.94942
4447.000	0.43691	2.34020	-0.89946	2.97316
4448.000	0.19177	2.43161	-0.73738	2.92368
4449.000	0.19572	2.38196	-0.87772	2.98508
4450.000	0.36772	2.38391	-0.79668	2.97522
4451.000	0.21549	2.28662	-0.72552	3.01693
4452.000	0.35190	2.35412	-0.79273	2.94150
4453.000	0.29852	2.36407	-0.79273	2.92959
4454.000	0.38749	2.31241	-0.77494	3.07244
4455.000	0.23724	2.27470	-0.85993	3.04262
4456.000	0.40528	2.43355	-0.80063	3.09622
4457.000	0.34399	2.41966	-0.75122	2.97327
4458.000	0.39342	2.33028	-0.79470	3.00300
4459.000	0.32422	2.29057	-0.81842	2.93354
4460.000	0.31632	2.34817	-0.87179	3.06443
4461.000	0.37760	2.42362	-0.72552	2.97527
4462.000	0.37167	2.38192	-0.76505	3.03873
4463.000	0.37365	2.48915	-0.80656	2.98910
4464.000	0.25701	2.37996	-0.84214	2.92559
4465.000	0.32422	2.47527	-0.87377	3.00294
4466.000	0.31039	2.42166	-0.80656	3.06250
4467.000	0.30643	2.34818	-0.84412	3.03073
4468.000	0.28271	2.43755	-0.85993	3.12394
4469.000	0.33016	2.47924	-0.85203	2.91368
4470.000	0.26294	2.52889	-0.84214	3.00693
4471.000	0.25701	2.42762	-0.82435	2.93949
4472.000	0.24317	2.51897	-0.87970	2.98309
4473.000	0.24515	2.45940	-0.76110	2.91573
4474.000	0.23724	2.46139	-0.83424	2.92361
4475.000	0.28666	2.45145	-0.74331	3.03279
4476.000	0.20561	2.45345	-0.87179	3.05451
4477.000	0.35388	2.46930	-0.68796	2.87807
4478.000	0.14827	2.49317	-0.73145	2.97725
4479.000	0.17991	2.41572	-0.76110	3.01294
4480.000	0.37167	2.57652	-0.79273	2.90380
4481.000	0.29457	2.46336	-0.79075	2.95935
4482.000	0.29062	2.43755	-0.85400	2.91169
