time (ms)	lx (deg)	ly (deg)	rx (deg)	ry (deg)
0.000	-3.00821	1.20376	-3.83361	1.23844
1.000	-2.98652	1.13031	-3.85132	1.24635
2.000	-3.05355	1.24342	-3.82180	1.17893
3.000	-2.95497	1.16211	-3.92020	1.11332
4.000	-2.96286	1.23161	-3.85526	1.22452
5.000	-3.04961	1.24939	-3.89265	1.30580
6.000	-3.00426	1.27128	-3.73519	1.19889
7.000	-3.05355	1.16201	-3.81786	1.14124
8.000	-2.96878	1.17997	-3.81393	1.28013
9.000	-3.00624	1.11241	-3.76472	1.28814
10.000	-3.00229	1.20377	-3.84739	1.23842
11.000	-2.92737	1.18796	-3.85526	1.15706
12.000	-3.02004	1.17396	-3.76472	1.11948
13.000	-3.00624	1.15610	-3.89265	1.17486
14.000	-2.99835	1.30504	-3.73125	1.17112
15.000	-2.94117	1.10453	-3.76865	1.22067
16.000	-2.91554	1.17606	-3.81196	1.19879
17.000	-2.98849	1.19385	-3.89068	1.27605
18.000	-2.96483	1.18593	-3.78834	1.15715
19.000	-3.02398	1.24544	-3.85132	1.20270
20.000	-3.06341	1.08654	-3.84935	1.25627
21.000	-2.93526	1.27930	-3.81786	1.26624
22.000	-3.08509	1.20765	-3.83754	1.28010
23.000	-3.02201	1.17992	-3.81589	1.29203
24.000	-3.04764	1.22556	-3.84739	1.18882
25.000	-3.08904	1.10041	-3.81786	1.30989
26.000	-3.03778	1.22756	-3.81786	1.27814
27.000	-2.99638	1.17399	-3.88084	1.25622
28.000	-2.96286	1.20182	-3.91430	1.34743
29.000	-2.98455	1.10449	-3.88675	1.23439
30.000	-2.99244	1.11838	-3.92807	1.19465
31.000	-2.92145	1.21180	-3.77850	1.23852
32.000	-3.02989	1.10047	-3.81589	1.21465
33.000	-2.92934	1.10653	-3.79818	1.29008
34.000	-2.90962	1.12045	-3.88478	1.24630
35.000	-2.90962	1.18798	-3.82770	1.29797
36.000	-2.95103	1.31304	-3.78834	1.17699
37.000	-2.97666	1.20975	-3.91233	1.28395
38.000	-2.98849	1.14421	-3.83164	1.04597
39.000	-2.85835	1.29131	-3.81983	1.18687
40.000	-2.96483	1.18196	-3.86707	1.30188
41.000	-2.95497	1.15020	-3.74700	1.21078
42.000	-2.89385	1.28928	-3.85526	1.31380
43.000	-2.98258	1.17201	-3.77456	1.21670
44.000	-2.96089	1.14821	-3.83164	1.20273
45.000	-2.93131	1.08468	-3.71353	1.20487
46.000	-3.03975	1.24145	-3.76669	1.32980
47.000	-3.04567	1.23748	-3.74503	1.27031
48.000	-2.98258	1.19584	-3.85132	1.24040
49.000	-2.85046	1.15428	-3.74700	1.21673
50.000	-2.99244	1.17399	-3.75881	1.20878
51.000	-2.96483	1.27331	-3.79031	1.30398
52.000	-3.09495	1.28309	-3.95955	1.40091
53.000	-2.91159	1.13435	-3.88084	1.21059
54.000	-2.91357	1.20784	-3.85919	1.22054
55.000	-2.95497	1.30708	-3.83951	1.24438
56.000	-2.89187	1.19991	-3.89462	1.35738
57.000	-2.84257	1.33303	-3.84542	1.23048
58.000	-3.04172	1.24145	-3.77062	1.21472
59.000	-2.94906	1.24950	-3.75684	1.18696
60.000	-3.00426	1.23157	-3.82770	1.34558
61.000	-3.01609	1.28715	-3.84345	1.15906
62.000	-3.02201	1.29310	-3.90249	1.20461
63.000	-3.03975	1.22557	-3.83558	1.09558
64.000	-3.05947	1.28114	-3.89265	1.12923
65.000	-3.10086	1.25727	-3.83754	1.08764
66.000	-2.99835	1.16803	-3.88871	1.26812
67.000	-3.04961	1.21166	-3.85329	1.31578
68.000	-3.05947	1.27519	-3.86903	1.11339
69.000	-3.03778	1.22557	-3.84542	1.19080
70.000	-3.09101	1.30890	-3.85723	1.08960
71.000	-3.03187	1.17196	-3.87297	1.23441
72.000	-3.00821	1.35070	-3.72338	1.13144
73.000	-3.10283	1.29896	-3.84542	1.12533
74.000	-3.13240	1.28900	-3.84542	1.21263
75.000	-3.10086	1.36647	-3.91233	1.17484
76.000	-3.09495	1.31088	-4.06579	1.23016
77.000	-3.08509	1.34862	-3.98119	1.24814
78.000	-3.11072	1.29101	-3.85919	1.44274
79.000	-3.18365	1.41202	-3.86707	1.15109
80.000	-3.11072	1.37241	-3.77259	1.34170
81.000	-2.95695	1.31502	-3.56783	1.32216
82.000	-2.97863	1.24748	-3.37282	1.22318
83.000	-2.71042	1.25572	-3.13437	1.29892
84.000	-2.55062	1.00158	-2.87215	1.25356
85.000	-2.34934	0.80499	-2.66703	1.18226
86.000	-2.15392	0.76535	-2.26841	1.15281
87.000	-1.86958	0.66011	-1.85773	1.09746
88.000	-1.67207	0.52497	-1.60491	0.78547
89.000	-1.42513	0.57077	-1.12675	0.70608
90.000	-1.28879	0.32618	-0.93702	0.59275
91.000	-1.09908	0.43759	-0.62866	0.37399
92.000	-0.68401	0.36404	-0.41319	0.19297
93.000	-0.49622	0.24867	-0.12850	0.02387
94.000	-0.34597	0.31034	0.08106	-0.06963
95.000	-0.11862	0.26260	0.23526	-0.08157
96.000	0.25503	0.25464	0.40923	-0.11737
97.000	0.43691	0.18899	0.41319	-0.31830
98.000	0.57133	0.23076	0.45470	-0.30039
99.000	0.73738	0.08554	0.54366	-0.38394
100.000	0.88365	0.06365	0.42109	-0.29443
101.000	1.10698	0.03183	0.39539	-0.25265
102.000	1.11687	0.03978	0.38946	-0.28846
103.000	1.05362	0.05967	0.34795	-0.31830
104.000	1.06548	-0.01193	0.26887	-0.19297
105.000	1.16232	0.11934	0.13444	-0.30438
106.000	1.13663	-0.01591	0.10083	-0.15319
107.000	1.11884	-0.06564	0.03361	-0.18900
108.000	1.01014	-0.07360	0.02175	-0.39987
109.000	0.93899	0.04973	-0.16607	-0.19297
110.000	0.99631	0.05371	-0.23131	-0.11738
111.000	0.91923	0.10742	-0.23329	-0.19894
112.000	0.90342	0.11139	-0.26887	-0.21883
113.000	0.79470	0.13527	-0.29062	-0.16910
114.000	0.86784	0.25064	-0.27876	-0.03581
115.000	0.76703	0.22280	-0.33016	0.11539
116.000	0.83424	0.28844	-0.39539	-0.07560
117.000	0.85203	0.26655	-0.38551	-0.02586
118.000	0.82435	0.21086	-0.26887	-0.12334
119.000	0.77098	0.21484	-0.44086	-0.08952
120.000	0.86388	0.26655	-0.27480	-0.09350
121.000	0.90934	0.29639	-0.29655	-0.09549
122.000	0.89749	0.17704	-0.29062	0.01393
123.000	0.75715	0.20290	-0.37563	0.02785
124.000	0.88167	0.25462	-0.34795	-0.04576
125.000	0.85993	0.25860	-0.37167	-0.05172
126.000	0.89156	0.24865	-0.25701	-0.17507
127.000	0.93306	0.25660	-0.39144	-0.12533
128.000	0.85993	0.22876	-0.21945	-0.13329
129.000	0.92516	0.20488	-0.21747	-0.07759
130.000	0.88958	0.27650	-0.27480	-0.13130
131.000	0.94492	0.31627	-0.41121	-0.04178
132.000	0.90737	0.16510	-0.33411	-0.08157
133.000	0.83424	0.22677	-0.29852	-0.00398
134.000	0.90737	0.20489	-0.36574	-0.14523
135.000	0.94097	0.27649	-0.36772	-0.00199
136.000	1.00817	0.29240	-0.37365	0.07162
137.000	0.95283	0.20488	-0.41319	-0.01592
138.000	0.93702	0.36799	-0.46854	-0.09549
139.000	0.92318	0.32025	-0.51796	0.00597
140.000	0.88760	0.19892	-0.37958	-0.05769
141.000	0.95480	0.24467	-0.39144	0.08554
142.000	0.84807	0.27451	-0.51005	-0.03581
143.000	0.84807	0.28843	-0.44877	0.02785
144.000	0.89156	0.25462	-0.48040	0.08952
145.000	0.94295	0.20091	-0.50412	0.04377
146.000	0.78284	0.20887	-0.45865	-0.00199
147.000	0.82040	0.31430	-0.42505	0.00796
148.000	0.87772	0.37595	-0.47645	0.05371
149.000	0.83621	0.32424	-0.48238	-0.02586
150.000	0.92911	0.26257	-0.55947	0.04774
151.000	0.81447	0.31629	-0.38156	-0.02984
152.000	0.79273	0.24070	-0.44877	-0.02785
153.000	0.83819	0.25064	-0.50610	0.00796
154.000	0.90144	0.32423	-0.50610	-0.03780
155.000	0.85598	0.23672	-0.43098	-0.05570
156.000	0.88167	0.31628	-0.39737	-0.01194
157.000	0.91132	0.25660	-0.45865	-0.00796
158.000	0.83226	0.30037	-0.52784	0.07560
159.000	0.84412	0.26854	-0.45075	0.04774
160.000	0.90342	0.28445	-0.37563	0.08952
161.000	0.78482	0.30435	-0.42900	0.14920
162.000	0.87772	0.35805	-0.42900	0.05570
163.000	0.88760	0.28644	-0.37958	0.12334
164.000	0.88167	0.26058	-0.38749	0.07958
165.000	0.71366	0.22877	-0.36574	0.11141
166.000	0.84610	0.13527	-0.40726	0.07560
167.000	0.83028	0.29042	-0.38946	-0.03183
168.000	0.77889	0.38193	-0.40528	0.06565
169.000	0.89946	0.26058	-0.34202	0.03382
170.000	0.86586	0.33021	-0.45272	0.05769
171.000	0.84610	0.25462	-0.34202	-0.00398
172.000	0.97457	0.27450	-0.39935	0.06963
173.000	0.93702	0.20886	-0.30841	0.04576
174.000	0.89946	0.18698	-0.36969	-0.05172
175.000	0.81645	0.26059	-0.40726	0.01194
176.000	0.89749	0.24666	-0.30643	-0.03979
177.000	0.83424	0.31231	-0.30446	-0.12334
178.000	0.89156	0.28047	-0.38353	-0.11340
179.000	0.85400	0.19693	-0.38749	0.00995
180.000	0.75319	0.26457	-0.37563	-0.07162
181.000	0.81842	0.22677	-0.30248	0.06764
182.000	0.78482	0.18500	-0.33411	0.09549
183.000	0.74331	0.21683	-0.31039	0.00995
184.000	0.81645	0.17505	-0.32422	-0.07560
185.000	0.79668	0.28446	-0.25503	0.03183
186.000	0.85400	0.25263	-0.34795	0.00995
187.000	0.83819	0.27650	-0.36376	0.02387
188.000	0.79273	0.08355	-0.35190	0.05371
189.000	0.86981	0.18102	-0.36574	0.06565
190.000	0.77494	0.09548	-0.37760	0.01989
191.000	0.86388	0.23671	-0.38156	0.09947
192.000	0.82633	0.20091	-0.34993	0.05371
193.000	0.87574	0.21682	-0.36772	0.00597
194.000	0.74726	0.17506	-0.43098	-0.09151
195.000	0.75912	0.21086	-0.32818	-0.00398
196.000	0.75912	0.19694	-0.32620	0.06963
197.000	0.74529	0.22876	-0.40923	0.08156
198.000	0.77296	0.18301	-0.39144	-0.02188
199.000	0.79075	0.19892	-0.34795	-0.05570
200.000	0.74726	0.08952	-0.36179	-0.06565
201.000	0.65436	0.15715	-0.43889	0.03780
202.000	0.78482	0.26855	-0.36574	0.07361
203.000	0.80656	0.25661	-0.41319	-0.05968
204.000	0.77691	0.14522	-0.37958	0.12732
205.000	0.76308	0.24468	-0.27085	0.08356
206.000	0.68796	0.18500	-0.32225	0.06764
207.000	0.73738	0.26855	-0.39342	0.01790
208.000	0.73540	0.29043	-0.27678	-0.02586
209.000	0.77889	0.16909	-0.33609	0.01989
210.000	0.68203	0.19296	-0.31434	0.01592
211.000	0.74924	0.17704	-0.14630	-0.05769
212.000	0.78284	0.20091	-0.41912	0.03979
213.000	0.73738	0.22479	-0.37563	0.11141
214.000	0.72750	0.12731	-0.30841	0.03183
215.000	0.74133	0.15715	-0.31829	0.05172
216.000	0.66622	0.20092	-0.41912	-0.00398
217.000	0.74133	0.30634	-0.42109	-0.06963
218.000	0.72354	0.05570	-0.38551	0.00000
219.000	0.66029	0.17506	-0.33806	-0.01194
220.000	0.80459	0.19892	-0.38749	0.11141
221.000	0.73343	0.09151	-0.28469	-0.03382
222.000	0.70575	0.06764	-0.31236	-0.14324
223.000	0.69192	0.25861	-0.37167	0.00199
224.000	0.69785	0.17705	-0.35388	0.08554
225.000	0.74726	0.21086	-0.45272	-0.00796
226.000	0.66820	0.15914	-0.35388	0.05172
227.000	0.71959	0.15516	-0.35981	0.06764
228.000	0.66622	0.08554	-0.45075	-0.05172
229.000	0.63459	0.20291	-0.32027	-0.01194
230.000	0.60889	0.15517	-0.40330	-0.00199
231.000	0.70575	0.12731	-0.36179	0.07560
232.000	0.59110	0.19893	-0.33213	-0.06963
233.000	0.68401	0.16312	-0.44679	0.10942
234.000	0.61482	0.12334	-0.44086	0.11339
235.000	0.60692	0.06167	-0.34202	-0.01592
236.000	0.59110	0.18103	-0.40330	-0.00199
237.000	0.61285	0.23275	-0.29062	0.00796
238.000	0.50215	0.04774	-0.36376	-0.00398
239.000	0.65041	0.14124	-0.38353	-0.10743
240.000	0.53575	0.12931	-0.31632	0.04178
241.000	0.65831	0.16909	-0.29062	-0.06963
242.000	0.63064	0.13129	-0.27282	0.00796
243.000	0.66424	0.21484	-0.32620	0.05172
244.000	0.65238	0.11538	-0.41121	0.07361
245.000	0.60099	0.16511	-0.34795	0.00199
246.000	0.61087	0.07559	-0.37958	0.07162
247.000	0.64052	0.07957	-0.28073	-0.02586
248.000	0.73738	0.14920	-0.36179	-0.04576
249.000	0.64052	0.09151	-0.29457	-0.12533
250.000	0.61087	0.10543	-0.32818	0.06963
251.000	0.68006	0.11737	-0.27282	0.05371
252.000	0.59703	0.01591	-0.25701	0.01592
253.000	0.67017	0.17506	-0.28666	-0.02785
254.000	0.63262	0.13129	-0.41121	0.02387
255.000	0.63262	0.08753	-0.30841	0.07560
256.000	0.57331	0.08952	-0.28666	0.03581
257.000	0.66029	0.14920	-0.35981	0.06366
258.000	0.63064	0.13129	-0.35586	-0.08355
259.000	0.70575	0.10742	-0.32818	-0.02984
260.000	0.63657	0.14323	-0.28666	-0.01989
261.000	0.73738	0.19893	-0.34399	0.14722
262.000	0.63657	0.10742	-0.39539	0.07361
263.000	0.66029	0.02387	-0.33411	-0.09947
264.000	0.77098	0.10344	-0.42900	-0.06366
265.000	0.76308	0.11339	-0.33806	-0.10345
266.000	0.70773	0.15119	-0.22340	0.01592
267.000	0.65041	0.09947	-0.26294	0.01790
268.000	0.76505	0.10145	-0.35388	0.03979
269.000	0.75319	0.06962	-0.26492	-0.15915
270.000	0.69982	0.07559	-0.32620	-0.07361
271.000	0.75122	0.11538	-0.32620	-0.06565
272.000	0.89551	0.16112	-0.33609	-0.06366
273.000	0.81052	0.12532	-0.30446	-0.06963
274.000	0.81842	0.17107	-0.30446	0.01989
275.000	0.71564	0.06962	-0.28666	-0.06565
276.000	0.73343	0.15516	-0.31829	-0.03183
277.000	0.72552	0.08156	-0.30643	-0.13528
278.000	0.72157	0.10742	-0.26887	-0.05769
279.000	0.79075	0.08554	-0.25899	-0.00796
280.000	0.73343	0.02188	-0.22933	-0.13130
281.000	0.68203	0.05172	-0.32818	0.03183
282.000	0.79866	0.02586	-0.18584	0.00995
283.000	0.73936	0.00995	-0.32620	-0.08952
284.000	0.75912	0.00000	-0.21747	0.01790
285.000	0.72947	-0.09151	-0.26887	-0.05371
286.000	0.66029	0.00995	-0.23329	-0.05570
287.000	0.67215	0.05769	-0.18584	-0.01790
288.000	0.69192	0.02785	-0.31236	-0.05570
289.000	0.70575	-0.01989	-0.24119	-0.13130
290.000	0.75319	-0.06565	-0.29259	-0.06167
291.000	0.71366	0.00995	-0.24317	0.01790
292.000	0.73145	-0.03382	-0.28864	-0.11340
293.000	0.72750	-0.07957	-0.31829	-0.01194
294.000	0.66227	-0.11737	-0.25305	-0.05570
295.000	0.65634	-0.16909	-0.35190	-0.00398
296.000	0.66029	0.09748	-0.23922	-0.07361
297.000	0.69192	-0.08952	-0.31632	-0.07361
298.000	0.66227	-0.18103	-0.33806	-0.00199
299.000	0.66424	0.00796	-0.23724	-0.01592
300.000	0.63064	0.00597	-0.36772	0.08952
301.000	0.70773	0.02586	-0.30841	-0.13130
302.000	0.74726	0.05968	-0.29457	-0.06366
303.000	0.67413	-0.00398	-0.21352	-0.07361
304.000	0.70773	-0.10941	-0.30248	0.00995
305.000	0.69587	0.03780	-0.33609	-0.08753
306.000	0.62273	-0.11737	-0.40923	0.06565
307.000	0.65436	-0.07360	-0.27876	-0.01790
308.000	0.65436	0.13527	-0.46854	-0.00597
309.000	0.64448	-0.05172	-0.37563	0.01194
310.000	0.53575	-0.02984	-0.39144	-0.06764
311.000	0.66424	-0.04575	-0.38551	0.05570
312.000	0.63262	-0.06764	-0.34597	-0.11539
313.000	0.65831	-0.07161	-0.38353	-0.06565
314.000	0.70180	-0.07559	-0.39737	-0.11340
315.000	0.57133	-0.04178	-0.43889	-0.00597
316.000	0.60494	-0.04973	-0.36574	0.11538
317.000	0.59506	-0.10941	-0.34399	0.05172
318.000	0.61482	-0.08952	-0.40726	0.07958
319.000	0.64448	0.01989	-0.34795	0.14125
320.000	0.66227	-0.07957	-0.40133	0.08554
321.000	0.58517	-0.04774	-0.38156	0.11538
322.000	0.54959	-0.02586	-0.47249	0.07361
323.000	0.69587	0.04774	-0.51203	-0.07361
324.000	0.57727	-0.11737	-0.38946	0.01393
325.000	0.65634	-0.07161	-0.55157	0.11737
326.000	0.50808	-0.06963	-0.40133	-0.06167
327.000	0.64843	-0.02785	-0.32225	-0.01989
328.000	0.56343	-0.03979	-0.44877	-0.08554
329.000	0.54761	-0.13130	-0.40726	-0.02586
330.000	0.56738	-0.04575	-0.38749	-0.02785
331.000	0.59901	-0.08952	-0.35586	0.16512
332.000	0.72157	0.06366	-0.33016	0.00995
333.000	0.66424	-0.05371	-0.45075	0.03581
334.000	0.74726	-0.10344	-0.42702	0.02785
335.000	0.61680	-0.00995	-0.38156	0.02188
336.000	0.66424	0.04774	-0.34399	0.00597
337.000	0.56145	0.06764	-0.42900	-0.03581
338.000	0.59703	-0.06167	-0.37958	0.08554
339.000	0.59703	-0.08355	-0.31632	-0.00995
340.000	0.63262	0.01591	-0.37760	0.05769
341.000	0.70575	0.12334	-0.33411	0.01989
342.000	0.66622	-0.02586	-0.40528	0.02984
343.000	0.58122	-0.00398	-0.30446	-0.03382
344.000	0.68994	0.08355	-0.41714	0.11936
345.000	0.64250	0.04178	-0.39144	0.01592
346.000	0.72552	0.04376	-0.38156	-0.04178
347.000	0.73738	0.02586	-0.41912	0.01989
348.000	0.70180	0.05769	-0.38946	0.06167
349.000	0.72947	0.03183	-0.36574	-0.06366
350.000	0.64843	0.05570	-0.45075	-0.12135
351.000	0.63855	0.15914	-0.43889	-0.13528
352.000	0.67808	0.01790	-0.40923	-0.08156
353.000	0.63064	0.10742	-0.46854	0.07560
354.000	0.59308	0.09748	-0.32225	-0.11340
355.000	0.70180	0.12135	-0.34202	0.07162
356.000	0.72157	0.14124	-0.41516	-0.03382
357.000	0.58320	0.03581	-0.36574	-0.08157
358.000	0.65238	0.18500	-0.42505	0.05570
359.000	0.59703	0.14124	-0.36574	-0.00995
360.000	0.70180	0.09747	-0.38946	0.01194
361.000	0.64645	0.14323	-0.34795	-0.07958
362.000	0.77691	0.20091	-0.42505	-0.02785
363.000	0.71168	0.23871	-0.32422	-0.06565
364.000	0.67808	0.16312	-0.37760	0.05968
365.000	0.62866	0.19097	-0.28271	-0.05769
366.000	0.68796	0.13925	-0.46261	-0.12732
367.000	0.73145	0.23075	-0.41516	-0.01790
368.000	0.64052	0.19495	-0.36179	-0.01592
369.000	0.62471	0.17307	-0.31434	-0.00995
370.000	0.72552	0.19296	-0.36179	-0.05570
371.000	0.75715	0.06962	-0.42505	0.02984
372.000	0.60692	0.13130	-0.32225	0.02984
373.000	0.67215	0.16710	-0.30643	-0.11737
374.000	0.70575	0.12135	-0.31632	0.01592
375.000	0.63657	0.12732	-0.31632	-0.01194
376.000	0.61482	0.10146	-0.33016	0.04974
377.000	0.72157	0.19097	-0.46656	0.05371
378.000	0.72750	0.01392	-0.33213	-0.11141
379.000	0.65831	0.06167	-0.25899	-0.03979
380.000	0.75715	0.06565	-0.34597	0.04178
381.000	0.69587	0.13726	-0.31236	-0.03581
382.000	0.73343	0.08554	-0.29655	-0.06764
383.000	0.71366	0.04177	-0.33213	0.06963
384.000	0.71168	0.12930	-0.28271	0.02188
385.000	0.71564	-0.00199	-0.30841	-0.01592
386.000	0.74331	0.00796	-0.37958	-0.03382
387.000	0.73738	0.16909	-0.31632	0.06167
388.000	0.67610	0.00597	-0.37167	-0.00995
389.000	0.75517	0.00199	-0.32620	0.00796
390.000	0.63657	0.04178	-0.34202	-0.03780
391.000	0.76703	0.05968	-0.26689	0.05172
392.000	0.69785	0.02984	-0.34597	-0.03780
393.000	0.78877	-0.01392	-0.26096	0.00199
394.000	0.65831	0.08952	-0.31039	-0.04576
395.000	0.65436	-0.01591	-0.34597	0.02188
396.000	0.74726	0.06764	-0.31039	0.04178
397.000	0.68401	0.01393	-0.40528	-0.00199
398.000	0.65634	0.04774	-0.49424	-0.02586
399.000	0.76308	0.07161	-0.48238	0.08355
400.000	0.62866	0.10344	-0.35783	-0.06565
401.000	0.65436	0.02785	-0.30248	-0.00597
402.000	0.66622	0.04973	-0.29457	0.00000
403.000	0.64843	0.01790	-0.30050	0.06565
404.000	0.57529	-0.02785	-0.35586	0.10345
405.000	0.59308	0.12732	-0.44086	0.02785
406.000	0.70575	-0.02188	-0.35388	0.07759
407.000	0.64052	0.03382	-0.40133	0.10743
408.000	0.61285	0.01194	-0.43889	0.09748
409.000	0.68401	0.05371	-0.38551	0.00995
410.000	0.68401	0.10145	-0.36574	-0.00597
411.000	0.64250	-0.02586	-0.40330	0.07958
412.000	0.56540	0.02387	-0.41516	0.04377
413.000	0.65436	0.17904	-0.27876	-0.02984
414.000	0.62668	0.06366	-0.48040	-0.05371
415.000	0.55750	0.13329	-0.35981	0.06764
416.000	0.63459	0.13726	-0.41121	-0.00995
417.000	0.63262	-0.06963	-0.37760	-0.04377
418.000	0.75319	0.10145	-0.41319	0.06764
419.000	0.68796	0.04973	-0.36179	0.02785
420.000	0.71366	0.04575	-0.32620	0.05371
421.000	0.53773	0.06963	-0.39539	0.08156
422.000	0.68994	0.03979	-0.37958	-0.01393
423.000	0.63064	0.03183	-0.25108	0.01393
424.000	0.69785	0.09549	-0.34004	-0.00398
425.000	0.70180	0.04376	-0.31039	0.08753
426.000	0.68006	0.16909	-0.39737	0.02188
427.000	0.61482	0.04575	-0.39144	0.05172
428.000	0.51994	0.09549	-0.47645	0.03780
429.000	0.64448	0.09151	-0.39935	-0.00597
430.000	0.55552	0.17705	-0.32027	-0.01790
431.000	0.51401	-0.03183	-0.41121	0.12135
432.000	0.61482	0.12533	-0.41516	0.07361
433.000	0.66820	0.03581	-0.32620	0.01393
434.000	0.69192	0.02785	-0.44086	0.08753
435.000	0.63855	0.13527	-0.44086	-0.02984
436.000	0.56936	-0.00597	-0.40726	0.13528
437.000	0.64448	0.06764	-0.34202	-0.02785
438.000	0.72750	0.08952	-0.43493	0.06565
439.000	0.73343	0.15914	-0.47447	0.17904
440.000	0.71959	0.03979	-0.47447	-0.00199
441.000	0.62273	0.02387	-0.45865	0.05172
442.000	0.67610	0.05371	-0.44086	0.03581
443.000	0.63855	0.05968	-0.36376	0.08952
444.000	0.64843	0.02984	-0.39342	0.09748
445.000	0.70575	0.14522	-0.36574	0.00398
446.000	0.68401	-0.02785	-0.48040	0.02984
447.000	0.67610	0.09350	-0.44877	-0.00398
448.000	0.68006	0.05968	-0.40726	-0.04377
449.000	0.73343	0.09350	-0.35388	0.03780
450.000	0.71168	0.00796	-0.38353	-0.11737
451.000	0.73145	0.09549	-0.40133	0.18899
452.000	0.59110	0.11936	-0.39539	0.02586
453.000	0.65436	0.16710	-0.37563	0.10146
454.000	0.67215	0.02984	-0.37167	0.01790
455.000	0.63855	-0.05769	-0.40726	0.13329
456.000	0.57727	0.04178	-0.40330	-0.01592
457.000	0.69785	-0.03382	-0.40133	0.06963
458.000	0.64645	0.01393	-0.35586	-0.03581
459.000	0.61680	0.05570	-0.34993	0.11936
460.000	0.70180	0.14522	-0.44086	0.01393
461.000	0.67017	0.06565	-0.39539	0.17507
462.000	0.59308	0.07758	-0.42307	0.08753
463.000	0.62668	0.04774	-0.29457	0.06565
464.000	0.68401	0.05172	-0.47842	0.19695
465.000	0.63855	0.06963	-0.46854	0.09350
466.000	0.59308	0.04575	-0.35783	0.05172
467.000	0.68006	0.02984	-0.48040	0.15716
468.000	0.61482	0.01989	-0.43889	0.13329
469.000	0.69192	0.01591	-0.40330	-0.03183
470.000	0.71168	0.00398	-0.35981	0.03183
471.000	0.71761	0.07559	-0.40133	0.17308
472.000	0.57727	0.04178	-0.44086	0.10345
473.000	0.79866	0.04575	-0.45272	0.06366
474.000	0.65634	0.08554	-0.42702	0.15318
475.000	0.66820	-0.00398	-0.40528	0.05769
476.000	0.75715	-0.00398	-0.44086	0.11141
477.000	0.78680	0.04973	-0.30841	0.14523
478.000	0.70971	0.09350	-0.32818	0.12135
479.000	0.66820	0.05570	-0.34004	0.11737
480.000	0.73145	-0.00796	-0.30643	0.04576
481.000	0.73936	0.04973	-0.30248	0.20292
482.000	0.69982	-0.08156	-0.42109	0.06167
483.000	0.66029	0.14721	-0.29457	0.14722
484.000	0.65041	0.05968	-0.34004	0.19297
485.000	0.70971	0.13726	-0.34399	0.12533
486.000	0.67413	0.03581	-0.35783	0.14125
487.000	0.68796	0.07161	-0.32225	0.14125
488.000	0.76901	0.08156	-0.36772	0.21684
489.000	0.60692	0.15517	-0.37167	0.26061
490.000	0.67215	-0.01194	-0.37958	0.26260
491.000	0.68203	0.07758	-0.41319	0.32029
492.000	0.66622	0.10543	-0.37167	0.17904
493.000	0.71761	0.08355	-0.33213	0.14125
494.000	0.71959	0.14124	-0.30841	0.38793
495.000	0.62075	0.01393	-0.32225	0.14125
496.000	0.66424	0.02387	-0.33213	0.16512
497.000	0.69587	0.04178	-0.32620	0.22480
498.000	0.64645	0.11538	-0.41319	0.35411
499.000	0.75517	0.00995	-0.43691	0.38792
500.000	0.71959	0.06565	-0.36376	0.25464
501.000	0.71168	0.02188	-0.34795	0.11936
502.000	0.66622	0.12135	-0.28469	0.18899
503.000	0.64250	0.07957	-0.33411	0.23873
504.000	0.70180	0.02188	-0.32027	0.21088
505.000	0.62471	0.17307	-0.31829	0.22082
506.000	0.67413	0.05769	-0.24910	0.21486
507.000	0.75319	0.08952	-0.34399	0.08355
508.000	0.66029	0.01194	-0.32225	0.13727
509.000	0.76110	0.11339	-0.38551	0.28249
510.000	0.60692	-0.06366	-0.36969	0.30040
511.000	0.76110	0.03581	-0.26689	0.22878
512.000	0.74924	0.09350	-0.36574	0.31233
513.000	0.69785	0.02785	-0.36969	0.30437
514.000	0.79273	-0.00597	-0.41912	0.17308
515.000	0.63657	0.00796	-0.29655	0.27454
516.000	0.71366	0.04575	-0.30841	0.18700
517.000	0.66622	0.02984	-0.32225	0.12732
518.000	0.68006	0.02586	-0.32225	0.19496
519.000	0.72354	0.15317	-0.36376	0.18103
520.000	0.64250	0.03382	-0.30643	0.20690
521.000	0.58517	-0.10941	-0.40726	0.22281
522.000	0.69785	0.03382	-0.34004	0.25464
523.000	0.66227	0.08952	-0.39935	0.21883
524.000	0.63262	0.04973	-0.42307	0.33819
525.000	0.77098	0.08753	-0.54366	0.29840
526.000	0.69587	0.08952	-0.38156	0.29443
527.000	0.67413	0.06764	-0.34399	0.17905
528.000	0.69982	0.13726	-0.36969	0.24469
529.000	0.69192	0.06764	-0.33411	0.22878
530.000	0.70378	0.06366	-0.45865	0.40583
531.000	0.72354	0.11339	-0.32422	0.27255
532.000	0.67808	0.00000	-0.42505	0.27652
533.000	0.72947	0.10543	-0.31829	0.37002
534.000	0.69192	0.10742	-0.42109	0.47744
535.000	0.73936	0.13527	-0.41912	0.35808
536.000	0.75122	0.10742	-0.41516	0.34018
537.000	0.70180	0.04774	-0.34399	0.27652
538.000	0.70180	0.09946	-0.34399	0.33024
539.000	0.71959	0.02984	-0.44877	0.44561
540.000	0.74529	0.14721	-0.40726	0.30437
541.000	0.76505	0.17903	-0.36179	0.24867
542.000	0.68599	0.18898	-0.36772	0.25066
543.000	0.68599	0.08952	-0.22340	0.42374
544.000	0.80656	0.23274	-0.38749	0.36803
545.000	0.68401	0.27850	-0.33411	0.38793
546.000	0.63064	0.12931	-0.27085	0.43965
547.000	0.76110	0.11538	-0.32620	0.45357
548.000	0.80459	0.10941	-0.38749	0.54906
549.000	0.70378	0.11538	-0.34004	0.46750
550.000	0.82831	0.27650	-0.25701	0.45557
551.000	0.75122	0.32624	-0.34993	0.54309
552.000	0.76901	0.37000	-0.33609	0.47943
553.000	0.72750	0.26855	-0.29457	0.44562
554.000	0.76110	0.28645	-0.35783	0.51524
555.000	0.69587	0.36404	-0.47249	0.39190
556.000	0.51401	0.28050	-0.58517	0.46947
557.000	0.23526	0.32825	-0.82633	0.57089
558.000	0.10676	0.31035	-0.99433	0.54302
559.000	-0.12850	0.32626	-1.28681	0.54097
560.000	-0.21352	0.33621	-1.41920	0.48327
561.000	-0.30841	0.33223	-1.61873	0.46931
562.000	-0.49622	0.30835	-1.80638	0.56072
563.000	-0.62273	0.29243	-1.87946	0.52293
564.000	-0.70773	0.24269	-1.99004	0.47120
565.000	-0.81052	0.17107	-1.93672	0.54677
566.000	-0.76505	0.17903	-1.99794	0.39167
567.000	-1.02200	0.10741	-2.03743	0.44534
568.000	-1.00619	0.12929	-2.11048	0.37177
569.000	-0.94097	0.18499	-2.08679	0.43340
570.000	-0.88563	0.11140	-1.97227	0.48711
571.000	-0.89551	0.17107	-2.06507	0.39563
572.000	-0.91527	0.21682	-2.09666	0.51292
573.000	-0.86981	0.19295	-1.95647	0.45332
574.000	-0.86388	0.27849	-1.95055	0.37578
575.000	-0.86586	0.21086	-1.89525	0.38971
576.000	-0.79470	0.36999	-1.90513	0.41158
577.000	-0.82435	0.22279	-1.85378	0.30223
578.000	-0.75912	0.30237	-1.71948	0.36589
579.000	-0.72750	0.27452	-1.88933	0.43544
580.000	-0.76505	0.24070	-1.64244	0.26448
581.000	-0.69389	0.23871	-1.83206	0.37382
582.000	-0.68796	0.43366	-1.83403	0.40762
583.000	-0.71761	0.33420	-1.71553	0.35992
584.000	-0.66227	0.45753	-1.88933	0.46129
585.000	-0.62668	0.46350	-1.79058	0.48319
586.000	-0.62273	0.37399	-1.89130	0.48316
587.000	-0.59308	0.36404	-1.82811	0.50902
588.000	-0.67808	0.47344	-1.77676	0.56272
589.000	-0.61482	0.35608	-1.77676	0.28833
590.000	-0.67413	0.54704	-1.83601	0.34002
591.000	-0.56540	0.46152	-1.77281	0.43348
592.000	-0.56936	0.45356	-1.81428	0.39768
593.000	-0.61285	0.38393	-1.68787	0.62240
594.000	-0.63657	0.51522	-1.82218	0.82912
595.000	-0.54564	0.59081	-1.77281	1.09155
596.000	-0.60296	0.56097	-1.77478	1.30024
597.000	-0.54564	0.59280	-1.81428	1.88237
598.000	-0.49028	0.62265	-1.89328	2.44816
599.000	-0.56343	0.64651	-1.91500	3.09282
600.000	-0.58715	0.69623	-2.10654	3.80359
601.000	-0.53180	0.71414	-2.19340	4.68711
602.000	-0.56738	0.65645	-2.33355	5.49522
603.000	-0.53971	0.87127	-2.45986	6.48750
604.000	-0.49622	0.94685	-2.54668	7.44463
605.000	-0.43493	1.36843	-2.82680	8.69730
606.000	-0.33016	1.73026	-3.09692	9.88505
607.000	-0.31434	2.21112	-3.35509	11.29869
608.000	-0.32620	2.78695	-3.77259	12.64245
609.000	-0.32422	3.39195	-4.27031	14.14254
610.000	-0.30446	4.04569	-5.03625	15.54802
611.000	-0.23131	4.82089	-6.16999	16.77481
612.000	-0.18979	5.62388	-7.31445	18.20241
613.000	-0.15816	6.61318	NaN	NaN
614.000	0.16409	7.68646	NaN	NaN
615.000	0.42505	8.42155	NaN	NaN
616.000	0.77691	9.33174	NaN	NaN
617.000	1.05362	10.47179	NaN	NaN
618.000	1.60096	11.69519	NaN	NaN
619.000	NaN	NaN	NaN	NaN
620.000	NaN	NaN	NaN	NaN
621.000	NaN	NaN	NaN	NaN
622.000	NaN	NaN	NaN	NaN
623.000	NaN	NaN	NaN	NaN
624.000	NaN	NaN	NaN	NaN
625.000	NaN	NaN	NaN	NaN
626.000	NaN	NaN	NaN	NaN
627.000	NaN	NaN	NaN	NaN
628.000	NaN	NaN	NaN	NaN
629.000	NaN	NaN	NaN	NaN
630.000	NaN	NaN	NaN	NaN
631.000	NaN	NaN	NaN	NaN
632.000	NaN	NaN	NaN	NaN
633.000	NaN	NaN	NaN	NaN
634.000	NaN	NaN	NaN	NaN
635.000	NaN	NaN	NaN	NaN
636.000	NaN	NaN	NaN	NaN
637.000	NaN	NaN	NaN	NaN
638.000	NaN	NaN	NaN	NaN
639.000	NaN	NaN	NaN	NaN
640.000	NaN	NaN	NaN	NaN
641.000	NaN	NaN	NaN	NaN
642.000	NaN	NaN	NaN	NaN
643.000	NaN	NaN	NaN	NaN
644.000	NaN	NaN	NaN	NaN
645.000	NaN	NaN	NaN	NaN
646.000	NaN	NaN	NaN	NaN
647.000	NaN	NaN	NaN	NaN
648.000	NaN	NaN	NaN	NaN
649.000	NaN	NaN	NaN	NaN
650.000	NaN	NaN	NaN	NaN
651.000	NaN	NaN	NaN	NaN
652.000	NaN	NaN	NaN	NaN
653.000	NaN	NaN	NaN	NaN
654.000	NaN	NaN	NaN	NaN
655.000	NaN	NaN	NaN	NaN
656.000	NaN	NaN	NaN	NaN
657.000	NaN	NaN	NaN	NaN
658.000	NaN	NaN	NaN	NaN
659.000	NaN	NaN	NaN	NaN
660.000	NaN	NaN	NaN	NaN
661.000	NaN	NaN	NaN	NaN
662.000	NaN	NaN	NaN	NaN
663.000	NaN	NaN	NaN	NaN
664.000	NaN	NaN	NaN	NaN
665.000	NaN	NaN	NaN	NaN
666.000	NaN	NaN	NaN	NaN
667.000	NaN	NaN	NaN	NaN
668.000	NaN	NaN	NaN	NaN
669.000	NaN	NaN	NaN	NaN
670.000	NaN	NaN	NaN	NaN
671.000	NaN	NaN	NaN	NaN
672.000	NaN	NaN	NaN	NaN
673.000	NaN	NaN	NaN	NaN
674.000	NaN	NaN	NaN	NaN
675.000	NaN	NaN	NaN	NaN
676.000	NaN	NaN	NaN	NaN
677.000	NaN	NaN	NaN	NaN
678.000	NaN	NaN	NaN	NaN
679.000	NaN	NaN	NaN	NaN
680.000	NaN	NaN	NaN	NaN
681.000	NaN	NaN	NaN	NaN
682.000	NaN	NaN	NaN	NaN
683.000	NaN	NaN	NaN	NaN
684.000	-0.14234	20.15553	NaN	NaN
685.000	-4.77916	19.01554	NaN	NaN
686.000	-8.47629	16.07548	NaN	NaN
687.000	-8.36795	15.35937	NaN	NaN
688.000	-4.61224	11.56575	NaN	NaN
689.000	-4.95385	10.68810	NaN	NaN
690.000	-4.82628	9.91676	NaN	NaN
691.000	-4.65545	9.25405	NaN	NaN
692.000	-4.65938	8.40211	NaN	NaN
693.000	-4.76542	7.94436	NaN	NaN
694.000	0.54564	5.55863	NaN	NaN
695.000	0.52389	4.96490	NaN	NaN
696.000	0.42702	4.40969	NaN	NaN
697.000	0.29852	3.83581	NaN	NaN
698.000	0.29259	3.42764	NaN	NaN
699.000	0.22538	2.74529	NaN	NaN
700.000	0.21352	2.24491	NaN	NaN
701.000	-0.00593	1.73625	NaN	NaN
702.000	0.00593	1.29093	NaN	NaN
703.000	-0.24910	0.85738	NaN	NaN
704.000	-0.23329	0.47745	NaN	NaN
705.000	-0.31632	0.02586	NaN	NaN
706.000	-0.14827	-0.28449	NaN	NaN
707.000	-0.03361	-0.51923	NaN	NaN
708.000	-0.11071	-0.87727	NaN	NaN
709.000	-0.29457	-1.24319	NaN	NaN
710.000	-0.34597	-1.56328	NaN	NaN
711.000	-0.33213	-2.08795	NaN	NaN
712.000	-0.60494	-2.39773	-8.52464	13.17680
713.000	-0.62273	-2.80866	-5.26766	11.21003
714.000	-0.88958	-3.20919	-2.14800	8.48402
715.000	-0.87574	-3.46692	-2.19340	7.63992
716.000	-1.02003	-3.83129	-2.17563	7.10232
717.000	-1.01212	-4.13219	-2.11838	6.34964
718.000	-1.10303	-4.38527	-2.30000	5.70996
719.000	-1.24136	-4.49774	-2.36118	5.07532
720.000	-1.25717	-4.66768	-2.26841	4.33127
721.000	-1.29274	-4.75848	-2.27433	3.55966
722.000	-1.20777	-4.82579	-2.30394	3.04844
723.000	-1.23939	-4.64004	-2.26841	2.33049
724.000	-1.30855	-4.66956	-2.39868	1.91145
725.000	-1.21567	-4.43057	-2.37105	1.26002
726.000	-1.12082	-4.64617	-2.43223	0.78507
727.000	-1.18406	-4.41480	-2.39868	0.21865
728.000	-1.16429	-4.32387	-2.39473	-0.25244
729.000	-1.23346	-4.37122	-2.50327	-0.70157
730.000	-1.19591	-4.46619	-2.28815	-1.10113
731.000	-1.29076	-4.44824	-2.31973	-1.52627
732.000	-1.25717	-4.41469	-2.37697	-1.81220
733.000	-1.35597	-4.49556	-2.20525	-2.38418
734.000	-1.30855	-4.54902	-2.24473	-2.52500
735.000	-1.30064	-4.57275	-2.37302	-2.95314
736.000	-1.37968	-4.53900	-2.30197	-3.14358
737.000	-1.24927	-4.52936	-2.41447	-3.50980
738.000	-1.32633	-4.56282	-2.43223	-3.80471
739.000	-1.16627	-4.48403	-2.36118	-4.04430
740.000	-1.21963	-4.54522	-2.36118	-4.25983
741.000	-1.20579	-4.60256	-2.15984	-4.55488
742.000	-1.30855	-4.51146	-2.27631	-4.72239
743.000	-1.19196	-4.66186	-2.14800	-4.96755
744.000	-1.27496	-4.55896	-2.20327	-4.93580
745.000	-1.19591	-4.63814	-2.14602	-5.09184
746.000	-1.26903	-4.63011	-2.08284	-5.41931
747.000	-1.21567	-4.50569	-2.15984	-5.53133
748.000	-1.32040	-4.61421	-2.24473	-5.39903
749.000	-1.34807	-4.75048	-2.23880	-5.41284
750.000	-1.21765	-4.76257	-2.16379	-5.63765
751.000	-1.33226	-4.70112	-2.23091	-5.47788
752.000	-1.30855	-4.59842	-2.13418	-5.58656
753.000	-1.32633	-4.80385	-2.25065	-5.54674
754.000	-1.32633	-4.71496	-2.22696	-5.55077
755.000	-1.41327	-4.79775	-2.31381	-5.44014
756.000	-1.30262	-4.68142	-2.29210	-5.43038
757.000	-1.27298	-4.72099	-2.38289	-5.34137
758.000	-1.22951	-4.79218	-2.36118	-5.48133
759.000	-1.32633	-4.72287	-2.38684	-5.37682
760.000	-1.24729	-4.75857	-2.45986	-5.20902
761.000	-1.29076	-4.65181	-2.41052	-5.18358
762.000	-1.27100	-4.74865	-2.44604	-5.04542
763.000	-1.35202	-4.75245	-2.43223	-5.13816
764.000	-1.29076	-4.73478	-2.47367	-4.95853
765.000	-1.28681	-4.78022	-2.51313	-4.87552
766.000	-1.35004	-4.63787	-2.57627	-4.73911
767.000	-1.31448	-4.67350	-2.38881	-4.90359
768.000	-1.31052	-4.63992	-2.51511	-4.84789
769.000	-1.26112	-4.76447	-2.41841	-4.85613
770.000	-1.29274	-4.70317	-2.55457	-4.74709
771.000	-1.34016	-4.74852	-2.51313	-4.71565
772.000	-1.26310	-4.64198	-2.51905	-4.76103
773.000	-1.27100	-4.68543	-2.55457	-4.58914
774.000	-1.39549	-4.81951	-2.60784	-4.68767
775.000	-1.22358	-4.76256	-2.53879	-4.60697
776.000	-1.33226	-4.77619	-2.59206	-4.58308
777.000	-1.25915	-4.63803	-2.53089	-4.56750
778.000	-1.33819	-4.69716	-2.60390	-4.61858
779.000	-1.20975	-4.64800	-2.58811	-4.53373
780.000	-1.28879	-4.71701	-2.49340	-4.70388
781.000	-1.21370	-4.65194	-2.57627	-4.60684
782.000	-1.30855	-4.70709	-2.51313	-4.54189
783.000	-1.21765	-4.63811	-2.60981	-4.60277
784.000	-1.23346	-4.54717	-2.50919	-4.78475
785.000	-1.28484	-4.64787	-2.59008	-4.65023
786.000	-1.25124	-4.61434	-2.53089	-4.70177
787.000	-1.27891	-4.66566	-2.50130	-4.68411
788.000	-1.30460	-4.67944	-2.50524	-4.64461
789.000	-1.13070	-4.52955	-2.57233	-4.53971
790.000	-1.31250	-4.58854	-2.68478	-4.58274
791.000	-1.26903	-4.62221	-2.53484	-4.50034
792.000	-1.23939	-4.46019	-2.61179	-4.52179
793.000	-1.29274	-4.53521	-2.47959	-4.63088
794.000	-1.20777	-4.55907	-2.57627	-4.53969
795.000	-1.31448	-4.46401	-2.57825	-4.50414
796.000	-1.24532	-4.52739	-2.49538	-4.51430
797.000	-1.18406	-4.52749	-2.58022	-4.62262
798.000	-1.32238	-4.45807	-2.48946	-4.54790
799.000	-1.26310	-4.51352	-2.59206	-4.62060
800.000	-1.28286	-4.48186	-2.61771	-4.54350
801.000	-1.22160	-4.50964	-2.54668	-4.52795
802.000	-1.24532	-4.47402	-2.57825	-4.48043
803.000	-1.30855	-4.47786	-2.58811	-4.47645
804.000	-1.33819	-4.48176	-2.54865	-4.55559
805.000	-1.34412	-4.50349	-2.52497	-4.52210
806.000	-1.34807	-4.52918	-2.58417	-4.55547
807.000	-1.12872	-4.46827	-2.48156	-4.48274
808.000	-1.32040	-4.49761	-2.53287	-4.47664
809.000	-1.33226	-4.58652	-2.56246	-4.63651
810.000	-1.22753	-4.42462	-2.50919	-4.64262
811.000	-1.34609	-4.43628	-2.61179	-4.39932
812.000	-1.34807	-4.47977	-2.53879	-4.55760
813.000	-1.28879	-4.35333	-2.50327	-4.40760
814.000	-1.36980	-4.51926	-2.66308	-4.43470
815.000	-1.35795	-4.48172	-2.48946	-4.47284
816.000	-1.36585	-4.43031	-2.56641	-4.54565
817.000	-1.34412	-4.49361	-2.54273	-4.48846
818.000	-1.20579	-4.50966	-2.57233	-4.38365
819.000	-1.33028	-4.39676	-2.58614	-4.40731
820.000	-1.26508	-4.33953	-2.58417	-4.39942
821.000	-1.31448	-4.33154	-2.51708	-4.46879
822.000	-1.33226	-4.46596	-2.40855	-4.54817
823.000	-1.32436	-4.50946	-2.51511	-4.45892
824.000	-1.37178	-4.57459	-2.56049	-4.43111
825.000	-1.26903	-4.52735	-2.50130	-4.40958
826.000	-1.37178	-4.42239	-2.50722	-4.43129
827.000	-1.33819	-4.45804	-2.56444	-4.27697
828.000	-1.31448	-4.42249	-2.50722	-4.42536
829.000	-1.27693	-4.40674	-2.45196	-4.45518
830.000	-1.36783	-4.42438	-2.52103	-4.39963
831.000	-1.32831	-4.39874	-2.58219	-4.28877
832.000	-1.25717	-4.33955	-2.57233	-4.50218
833.000	-1.44488	-4.51516	-2.56838	-4.43701
834.000	-1.25124	-4.44040	-2.56838	-4.48244
835.000	-1.32040	-4.38492	-2.48748	-4.39382
836.000	-1.35597	-4.50347	-2.54668	-4.52992
837.000	-1.28879	-4.33751	-2.55654	-4.47853
838.000	-1.28681	-4.30588	-2.60784	-4.52971
839.000	-1.30064	-4.48183	-2.56049	-4.54963
840.000	-1.29274	-4.33553	-2.48354	-4.46891
841.000	-1.34412	-4.54500	-2.51116	-4.43325
842.000	-1.43105	-4.49937	-2.63941	-4.49207
843.000	-1.39154	-4.48561	-2.54668	-4.44301
844.000	-1.36387	-4.44415	-2.52103	-4.35221
845.000	-1.37178	-4.40064	-2.57035	-4.43108
846.000	-1.43105	-4.52705	-2.58219	-4.42511
847.000	-1.39154	-4.45596	-2.59206	-4.44878
848.000	-1.40537	-4.55081	-2.56838	-4.37971
849.000	-1.39154	-4.43224	-2.67492	-4.49589
850.000	-1.44093	-4.42226	-2.59403	-4.52976
851.000	-1.43500	-4.40843	-2.56049	-4.47259
852.000	-1.39944	-4.40455	-2.48748	-4.39974
853.000	-1.33028	-4.52724	-2.53089	-4.47665
854.000	-1.48440	-4.56844	-2.50919	-4.51623
855.000	-1.32238	-4.49365	-2.64138	-4.45848
856.000	-1.29669	-4.45416	-2.56838	-4.39750
857.000	-1.41920	-4.57055	-2.66703	-4.45246
858.000	-1.35004	-4.38882	-2.56444	-4.41529
859.000	-1.31250	-4.48774	-2.54668	-4.53980
860.000	-1.28088	-4.60638	-2.55457	-4.53780
861.000	-1.34412	-4.51733	-2.56641	-4.44492
862.000	-1.18801	-4.51562	-2.52892	-4.50431
863.000	-1.38956	-4.51922	-2.56444	-4.47060
864.000	-1.35992	-4.40857	-2.50130	-4.34832
865.000	-1.24927	-4.55110	-2.56641	-4.48443
866.000	-1.38166	-4.57062	-2.48156	-4.54002
867.000	-1.23544	-4.54915	-2.52300	-4.50828
868.000	-1.34807	-4.56871	-2.62362	-4.50397
869.000	-1.24532	-4.43250	-2.56641	-4.46467
870.000	-1.33621	-4.46595	-2.60192	-4.53368
871.000	-1.36980	-4.56274	-2.56444	-4.45678
872.000	-1.40734	-4.56662	-2.59206	-4.45668
873.000	-1.39549	-4.49351	-2.61771	-4.50597
874.000	-1.43896	-4.52110	-2.51511	-4.43126
875.000	-1.33819	-4.47978	-2.56444	-4.57331
876.000	-1.27496	-4.40477	-2.53681	-4.49045
877.000	-1.26903	-4.55106	-2.52497	-4.49840
878.000	-1.38363	-4.56469	-2.59008	-4.42903
879.000	-1.20777	-4.46815	-2.57825	-4.49624
880.000	-1.47057	-4.45976	-2.59403	-4.54753
881.000	-1.37771	-4.55087	-2.55654	-4.43112
882.000	-1.41327	-4.48360	-2.63743	-4.47430
883.000	-1.30855	-4.52135	-2.58022	-4.53573
884.000	-1.48242	-4.53287	-2.57825	-4.48241
885.000	-1.42710	-4.50729	-2.58417	-4.50412
886.000	-1.21370	-4.36730	-2.55062	-4.40348
887.000	-1.40142	-4.40257	-2.56838	-4.57527
888.000	-1.29472	-4.45812	-2.62560	-4.48817
889.000	-1.31645	-4.45610	-2.56838	-4.39552
890.000	-1.41525	-4.70491	-2.61771	-4.48227
891.000	-1.43698	-4.45983	-2.51905	-4.43915
892.000	-1.34609	-4.48965	-2.54668	-4.44696
893.000	-1.32633	-4.54701	-2.68281	-4.38327
894.000	-1.35202	-4.48371	-2.60390	-4.49614
895.000	-1.41129	-4.49348	-2.51905	-4.55372
896.000	-1.24729	-4.47006	-2.52103	-4.52606
897.000	-1.31250	-4.53518	-2.46380	-4.53416
898.000	-1.36783	-4.58646	-2.56641	-4.42911
899.000	-1.36190	-4.46788	-2.59798	-4.46851
900.000	-1.28484	-4.46999	-2.57430	-4.53970
901.000	-1.40734	-4.63973	-2.59008	-4.33024
902.000	-1.15837	-4.39309	-2.57627	-4.34412
903.000	-1.22951	-4.28224	-2.52892	-4.43714
904.000	-1.45871	-4.36094	-2.62757	-4.43878
905.000	-1.37771	-4.55087	-2.45591	-4.44134
906.000	-1.26705	-4.41071	-2.50722	-4.39573
907.000	-1.31645	-4.50354	-2.60981	-4.48822
908.000	-1.32633	-4.60037	-2.59995	-4.33218
909.000	-1.35399	-4.62008	-2.56246	-4.39554
910.000	-1.24334	-4.38900	-2.65913	-4.40113
911.000	-1.29867	-4.50357	-2.49340	-4.41356
912.000	-1.36190	-4.44020	-2.60981	-4.51192
913.000	-1.42315	-4.56659	-2.51313	-4.53202
914.000	-1.34214	-4.46001	-2.64138	-4.37156
915.000	-1.34807	-4.34928	-2.60784	-4.31635
916.000	-1.37968	-4.43424	-2.50130	-4.42933
917.000	-1.37375	-4.44413	-2.62757	-4.43878
918.000	-1.36783	-4.43228	-2.62954	-4.33208
919.000	-1.33621	-4.49165	-2.59206	-4.55939
920.000	-1.25124	-4.39097	-2.49538	-4.35625
921.000	-1.31843	-4.51342	-2.42039	-4.50270
922.000	-1.38363	-4.50540	-2.71634	-4.38512
923.000	-1.38758	-4.45992	-2.54668	-4.41930
924.000	-1.38561	-4.55678	-2.54865	-4.42720
925.000	-1.36387	-4.27608	-2.59008	-4.46854
926.000	-1.32040	-4.45214	-2.49538	-4.38786
927.000	-1.32238	-4.51342	-2.52300	-4.45297
928.000	-1.35202	-4.34136	-2.46578	-4.65067
929.000	-1.25124	-4.40481	-2.55457	-4.45681
930.000	-1.32831	-4.35327	-2.56246	-4.46864
931.000	-1.26705	-4.32371	-2.50722	-4.38782
932.000	-1.25717	-4.37316	-2.54273	-4.39166
933.000	-1.25915	-4.41270	-2.42828	-4.59551
934.000	-1.29867	-4.50357	-2.49735	-4.57750
935.000	-1.18801	-4.27835	-2.47170	-4.55388
936.000	-1.23346	-4.40088	-2.43618	-4.53425
937.000	-1.28484	-4.42650	-2.42039	-4.58961
938.000	-1.21370	-4.42464	-2.46972	-4.51044
939.000	-1.23741	-4.41867	-2.46183	-4.55589
940.000	-1.12872	-4.38128	-2.48156	-4.43730
941.000	-1.17220	-4.34957	-2.50524	-4.55969
942.000	-1.17418	-4.16759	-2.50130	-4.49848
943.000	-1.00224	-4.38936	-2.36118	-4.90764
944.000	-1.12477	-4.30613	-2.43618	-4.85409
945.000	-1.18010	-4.28231	-2.49932	-4.65055
946.000	-0.98643	-4.40916	-2.47762	-4.26144
947.000	-1.00619	-4.29443	-2.52695	-3.37286
948.000	-1.01014	-4.14011	-2.61179	-2.15528
949.000	-0.97457	-4.09068	-2.82482	-0.98348
950.000	-0.85598	-3.47091	-2.90371	0.35167
951.000	-0.69389	-2.35201	-3.08706	1.95599
952.000	-0.68203	-1.04824	-3.12846	3.64621
953.000	-0.56343	0.35211	-3.11269	5.43264
954.000	-0.57924	2.01437	-3.05355	7.47074
955.000	-0.54366	3.66336	-2.82877	9.32528
956.000	-0.53378	5.42461	-3.16000	10.97573
957.000	-0.70180	7.14799	-10.17792	12.53940
958.000	-0.50017	9.04726	NaN	NaN
959.000	-1.03386	11.23161	NaN	NaN
960.000	NaN	NaN	NaN	NaN
961.000	NaN	NaN	NaN	NaN
962.000	NaN	NaN	NaN	NaN
963.000	NaN	NaN	NaN	NaN
964.000	NaN	NaN	NaN	NaN
965.000	NaN	NaN	NaN	NaN
966.000	NaN	NaN	NaN	NaN
967.000	NaN	NaN	NaN	NaN
968.000	NaN	NaN	NaN	NaN
969.000	NaN	NaN	NaN	NaN
970.000	NaN	NaN	NaN	NaN
971.000	NaN	NaN	NaN	NaN
972.000	NaN	NaN	NaN	NaN
973.000	NaN	NaN	NaN	NaN
974.000	NaN	NaN	NaN	NaN
975.000	NaN	NaN	NaN	NaN
976.000	NaN	NaN	NaN	NaN
977.000	NaN	NaN	NaN	NaN
978.000	NaN	NaN	NaN	NaN
979.000	NaN	NaN	NaN	NaN
980.000	NaN	NaN	NaN	NaN
981.000	NaN	NaN	NaN	NaN
982.000	NaN	NaN	NaN	NaN
983.000	NaN	NaN	NaN	NaN
984.000	NaN	NaN	NaN	NaN
985.000	NaN	NaN	NaN	NaN
986.000	NaN	NaN	NaN	NaN
987.000	NaN	NaN	NaN	NaN
988.000	NaN	NaN	NaN	NaN
989.000	NaN	NaN	NaN	NaN
990.000	NaN	NaN	NaN	NaN
991.000	NaN	NaN	NaN	NaN
992.000	NaN	NaN	NaN	NaN
993.000	NaN	NaN	NaN	NaN
994.000	NaN	NaN	NaN	NaN
995.000	NaN	NaN	NaN	NaN
996.000	NaN	NaN	NaN	NaN
997.000	NaN	NaN	NaN	NaN
998.000	NaN	NaN	NaN	NaN
999.000	NaN	NaN	NaN	NaN
1000.000	NaN	NaN	NaN	NaN
1001.000	NaN	NaN	NaN	NaN
1002.000	NaN	NaN	NaN	NaN
1003.000	NaN	NaN	NaN	NaN
1004.000	NaN	NaN	NaN	NaN
1005.000	NaN	NaN	NaN	NaN
1006.000	NaN	NaN	NaN	NaN
1007.000	NaN	NaN	NaN	NaN
1008.000	NaN	NaN	NaN	NaN
1009.000	NaN	NaN	NaN	NaN
1010.000	NaN	NaN	NaN	NaN
1011.000	NaN	NaN	NaN	NaN
1012.000	NaN	NaN	NaN	NaN
1013.000	NaN	NaN	NaN	NaN
1014.000	NaN	NaN	NaN	NaN
1015.000	NaN	NaN	NaN	NaN
1016.000	NaN	NaN	NaN	NaN
1017.000	NaN	NaN	NaN	NaN
1018.000	NaN	NaN	NaN	NaN
1019.000	NaN	NaN	NaN	NaN
1020.000	NaN	NaN	NaN	NaN
1021.000	NaN	NaN	NaN	NaN
1022.000	NaN	NaN	NaN	NaN
1023.000	NaN	NaN	NaN	NaN
1024.000	NaN	NaN	NaN	NaN
1025.000	NaN	NaN	NaN	NaN
1026.000	NaN	NaN	NaN	NaN
1027.000	NaN	NaN	NaN	NaN
1028.000	NaN	NaN	NaN	NaN
1029.000	NaN	NaN	NaN	NaN
1030.000	NaN	NaN	NaN	NaN
1031.000	NaN	NaN	NaN	NaN
1032.000	NaN	NaN	NaN	NaN
1033.000	NaN	NaN	NaN	NaN
1034.000	NaN	NaN	NaN	NaN
1035.000	NaN	NaN	NaN	NaN
1036.000	NaN	NaN	NaN	NaN
1037.000	NaN	NaN	NaN	NaN
1038.000	NaN	NaN	NaN	NaN
1039.000	NaN	NaN	NaN	NaN
1040.000	NaN	NaN	NaN	NaN
1041.000	NaN	NaN	NaN	NaN
1042.000	NaN	NaN	NaN	NaN
1043.000	NaN	NaN	NaN	NaN
1044.000	NaN	NaN	NaN	NaN
1045.000	NaN	NaN	NaN	NaN
1046.000	NaN	NaN	NaN	NaN
1047.000	NaN	NaN	NaN	NaN
1048.000	NaN	NaN	NaN	NaN
1049.000	NaN	NaN	NaN	NaN
1050.000	NaN	NaN	NaN	NaN
1051.000	NaN	NaN	NaN	NaN
1052.000	NaN	NaN	NaN	NaN
1053.000	NaN	NaN	NaN	NaN
1054.000	NaN	NaN	NaN	NaN
1055.000	NaN	NaN	NaN	NaN
1056.000	NaN	NaN	NaN	NaN
1057.000	NaN	NaN	NaN	NaN
1058.000	NaN	NaN	NaN	NaN
1059.000	NaN	NaN	NaN	NaN
1060.000	NaN	NaN	NaN	NaN
1061.000	NaN	NaN	NaN	NaN
1062.000	NaN	NaN	NaN	NaN
1063.000	NaN	NaN	NaN	NaN
1064.000	NaN	NaN	NaN	NaN
1065.000	NaN	NaN	NaN	NaN
1066.000	NaN	NaN	NaN	NaN
1067.000	NaN	NaN	NaN	NaN
1068.000	NaN	NaN	NaN	NaN
1069.000	NaN	NaN	NaN	NaN
1070.000	NaN	NaN	NaN	NaN
1071.000	NaN	NaN	NaN	NaN
1072.000	NaN	NaN	NaN	NaN
1073.000	NaN	NaN	NaN	NaN
1074.000	NaN	NaN	NaN	NaN
1075.000	NaN	NaN	NaN	NaN
1076.000	NaN	NaN	NaN	NaN
1077.000	NaN	NaN	NaN	NaN
1078.000	NaN	NaN	NaN	NaN
1079.000	NaN	NaN	NaN	NaN
1080.000	NaN	NaN	NaN	NaN
1081.000	NaN	NaN	NaN	NaN
1082.000	NaN	NaN	NaN	NaN
1083.000	NaN	NaN	NaN	NaN
1084.000	NaN	NaN	NaN	NaN
1085.000	NaN	NaN	NaN	NaN
1086.000	NaN	NaN	NaN	NaN
1087.000	NaN	NaN	NaN	NaN
1088.000	NaN	NaN	NaN	NaN
1089.000	NaN	NaN	NaN	NaN
1090.000	NaN	NaN	NaN	NaN
1091.000	NaN	NaN	NaN	NaN
1092.000	NaN	NaN	NaN	NaN
1093.000	NaN	NaN	NaN	NaN
1094.000	NaN	NaN	NaN	NaN
1095.000	NaN	NaN	NaN	NaN
1096.000	NaN	NaN	NaN	NaN
1097.000	NaN	NaN	NaN	NaN
1098.000	NaN	NaN	NaN	NaN
1099.000	NaN	NaN	NaN	NaN
1100.000	NaN	NaN	NaN	NaN
1101.000	NaN	NaN	NaN	NaN
1102.000	NaN	NaN	NaN	NaN
1103.000	NaN	NaN	NaN	NaN
1104.000	3.96939	20.94486	NaN	NaN
1105.000	4.74186	16.71984	NaN	NaN
1106.000	6.20516	12.13484	NaN	NaN
1107.000	6.03903	11.71807	NaN	NaN
1108.000	5.87084	11.01398	NaN	NaN
1109.000	0.59308	14.11413	NaN	NaN
1110.000	5.65556	9.99413	-6.02534	16.28452
1111.000	5.59682	9.59521	-2.05915	14.50559
1112.000	5.41465	9.00596	1.79256	11.97027
1113.000	5.41073	8.64437	1.76095	11.50918
1114.000	5.20884	8.12749	1.97819	11.06035
1115.000	5.22061	7.74449	1.95055	10.62517
1116.000	5.08529	7.27476	2.03743	10.20344
1117.000	4.97740	6.91880	2.15984	9.72052
1118.000	4.79683	6.58242	2.15984	9.21957
1119.000	4.59653	6.12987	2.20722	8.81012
1120.000	4.59260	5.72183	2.17563	8.46442
1121.000	4.49634	5.38072	2.30789	7.97298
1122.000	4.42559	5.12948	2.49143	7.64222
1123.000	4.26048	4.81358	2.18550	7.49736
1124.000	4.19953	4.50846	2.34539	7.05255
1125.000	4.04612	4.15218	2.44802	6.60722
1126.000	4.06185	4.04746	2.45196	6.27749
1127.000	3.92413	3.79528	2.13418	6.00570
1128.000	3.92217	3.62334	2.41447	5.64060
1129.000	3.87100	3.51679	2.46380	5.25434
1130.000	3.76669	3.26994	2.47564	4.89341
1131.000	3.72535	3.31363	2.33750	4.69060
1132.000	3.72338	3.21865	2.39276	4.29729
1133.000	3.75291	3.06812	2.42828	3.97685
1134.000	3.76669	3.12350	2.31184	3.76546
1135.000	3.64265	3.04871	2.56641	3.36484
1136.000	3.68794	2.95550	2.37500	3.27618
1137.000	3.68006	2.85651	2.40657	3.12749
1138.000	3.61509	2.84087	2.43618	2.83603
1139.000	3.58358	2.78551	2.43815	2.63375
1140.000	3.52253	2.83126	2.24275	2.54881
1141.000	3.61312	2.79136	2.25262	2.31663
1142.000	3.57570	2.75582	2.44802	2.12379
1143.000	3.56979	2.65282	2.26841	2.03076
1144.000	3.53828	2.56176	2.32368	1.99097
1145.000	3.42207	2.60369	2.23486	1.90373
1146.000	3.48117	2.52228	2.43025	1.65525
1147.000	3.50086	2.53610	2.34539	1.65932
1148.000	3.60524	2.53185	2.25854	1.59785
1149.000	3.50480	2.45879	2.37894	1.46066
1150.000	3.48314	2.50047	2.24473	1.40318
1151.000	3.45556	2.52829	2.32960	1.51236
1152.000	3.53041	2.43296	2.22499	1.44890
1153.000	3.46541	2.44502	2.24670	1.55019
1154.000	3.54222	2.51220	2.13418	1.77079
1155.000	3.44177	2.45697	2.20722	1.60387
1156.000	3.39646	2.35004	2.02953	1.93973
1157.000	3.51859	2.46867	2.08087	1.87811
1158.000	3.49495	2.43305	2.17169	1.87005
1159.000	3.56192	2.37936	2.00189	2.09664
1160.000	3.51859	2.31405	2.16774	1.91374
1161.000	3.46935	2.39149	1.94857	2.31311
1162.000	3.43389	2.38167	1.94857	2.24164
1163.000	3.44965	2.34198	1.87156	2.28542
1164.000	3.42601	2.38763	1.95845	2.25553
1165.000	3.45753	2.39945	1.99597	2.29121
1166.000	3.41616	2.24887	1.93278	2.40444
1167.000	3.40237	2.29253	1.95252	2.43815
1168.000	3.36494	2.25296	1.93870	2.37267
1169.000	3.31371	2.29472	1.97227	2.40636
1170.000	3.29401	2.28286	1.92290	2.49773
1171.000	3.38267	2.31636	1.92093	2.29528
1172.000	3.23292	2.30878	1.84193	2.54548
1173.000	3.29007	2.29080	1.90315	2.31317
1174.000	3.34327	2.25301	1.84786	2.41249
1175.000	3.25657	2.30675	1.85971	2.50179
1176.000	3.33736	2.19353	1.85773	2.43233
1177.000	3.29992	2.28483	1.73133	2.62302
1178.000	3.29401	2.14007	1.79256	2.59913
1179.000	3.29204	2.19164	1.75898	2.74600
1180.000	3.24868	2.25124	1.72343	2.62700
1181.000	3.24080	2.19771	1.79453	2.55547
1182.000	3.19941	2.23945	1.69972	2.70442
1183.000	3.31371	2.39187	1.73923	2.52776
1184.000	3.32159	2.35022	1.78466	2.68248
1185.000	3.22898	2.32267	1.79453	2.73405
1186.000	3.33341	2.15784	1.65232	2.63305
1187.000	3.20336	2.18589	1.74713	2.84719
1188.000	3.25065	2.32857	1.70762	2.78575
1189.000	3.25854	2.25121	1.73923	2.72024
1190.000	3.27824	2.32454	1.73725	2.80158
1191.000	3.29401	2.10437	1.79058	2.63286
1192.000	3.20336	2.20770	1.72145	2.72622
1193.000	3.24868	2.25124	1.74910	2.75197
1194.000	3.18168	2.22163	1.83403	2.71415
1195.000	3.20139	2.16804	1.74910	2.69046
1196.000	3.28415	2.22141	1.77873	2.65471
1197.000	3.26839	2.23929	1.69972	2.70045
1198.000	3.26051	2.18973	1.76491	2.61901
1199.000	3.26248	2.24724	1.72738	2.69843
1200.000	3.25854	2.25518	1.69972	2.78775
1201.000	3.24868	2.20364	1.81231	2.67847
1202.000	3.21124	2.17794	1.69577	2.78974
1203.000	3.21518	2.17793	1.72738	2.73414
1204.000	3.28612	2.15199	1.74515	2.66071
1205.000	3.15014	2.21178	1.74515	2.64682
1206.000	3.21321	2.17000	1.76095	2.69441
1207.000	3.16000	2.21771	1.60886	2.69462
1208.000	3.28021	2.24125	1.66219	2.69654
1209.000	3.24080	2.20366	1.67997	2.62508
1210.000	3.22109	2.21163	1.73528	2.68850
1211.000	3.27036	2.25912	1.73133	2.70438
1212.000	3.20533	2.25728	1.74120	2.86704
1213.000	3.23489	2.25523	1.74120	2.69444
1214.000	3.21715	2.26122	1.63651	2.71245
1215.000	3.17774	2.19784	1.66812	2.78184
1216.000	3.25263	2.37417	1.68787	2.92067
1217.000	3.13832	2.32089	1.65232	2.78980
1218.000	3.13832	2.22569	1.57132	2.78793
1219.000	3.22898	2.42182	1.71158	2.80955
1220.000	3.28218	2.38203	1.75305	2.74006
1221.000	3.17182	2.16612	1.72343	2.81549
1222.000	3.15803	2.27920	1.57923	2.72641
1223.000	3.14423	2.28717	1.68590	2.82943
1224.000	3.22109	2.34649	1.66022	2.75805
1225.000	3.19350	2.15615	1.70565	2.64489
1226.000	3.18956	2.27913	1.66812	2.70843
1227.000	3.17971	2.23552	1.71948	2.81549
1228.000	3.20927	2.17199	1.69380	2.71832
1229.000	3.17379	2.28512	1.72145	2.79962
1230.000	3.20139	2.28109	1.62269	2.75611
1231.000	3.28415	2.26900	1.68787	2.81554
1232.000	3.08706	2.33092	1.69775	2.70641
1233.000	3.24474	2.24133	1.63849	2.79577
1234.000	3.11663	2.14044	1.55354	2.70263
1235.000	3.16394	2.18399	1.68392	2.76198
1236.000	3.14423	2.17609	1.73528	2.67659
1237.000	3.21124	2.33659	1.70565	2.71433
1238.000	3.15014	2.29112	1.68392	2.67865
1239.000	3.07721	2.24963	1.63651	2.79577
1240.000	3.13634	2.26140	1.65824	2.61915
1241.000	3.16000	2.23556	1.69775	2.72030
1242.000	3.08312	2.28333	1.69775	2.77387
1243.000	3.11860	2.30309	1.69182	2.75205
1244.000	3.11072	2.13847	1.77478	2.69241
1245.000	3.10086	2.26743	1.62861	2.87315
1246.000	3.06341	2.22585	1.76293	2.77377
1247.000	3.18168	2.26130	1.65232	2.73822
1248.000	3.20533	2.13034	1.73528	2.69842
1249.000	3.14029	2.18800	1.68590	2.64095
1250.000	3.12846	2.09678	1.69380	2.73816
1251.000	3.12255	2.12060	1.84391	2.72207
1252.000	3.15408	2.18004	1.68787	2.77785
1253.000	3.07721	2.21392	1.77676	2.77375
1254.000	3.07918	2.20598	1.71948	2.59327
1255.000	3.04961	2.25167	1.75898	2.77774
1256.000	3.06932	2.21790	1.71750	2.68852
1257.000	3.04961	2.16637	1.71158	2.74409
1258.000	3.08509	2.16828	1.80441	2.63681
1259.000	3.05947	2.24768	1.64244	2.68863
1260.000	3.05947	2.21991	1.60688	2.71645
1261.000	3.11466	2.12656	1.76886	2.79955
1262.000	3.08904	2.25952	1.67404	2.67271
1263.000	3.09692	2.22776	1.76688	2.74797
1264.000	3.07524	2.21988	1.77478	2.63288
1265.000	3.02595	2.23386	1.71750	2.63296
1266.000	3.19153	2.23946	1.76095	2.75592
1267.000	3.03778	2.16838	1.67800	2.77786
1268.000	3.04764	2.15249	1.71158	2.78575
1269.000	3.12846	2.15232	1.84391	2.56532
1270.000	3.04369	2.20407	1.81626	2.73600
1271.000	3.01609	2.13073	1.84391	2.69032
1272.000	3.09298	2.13652	1.66614	2.70844
1273.000	3.08904	2.17819	1.74713	2.81744
1274.000	3.09101	2.19207	1.78663	2.80349
1275.000	3.19153	2.09070	1.74713	2.74404
1276.000	3.24671	2.24331	1.74515	2.59324
1277.000	3.18759	2.20575	1.68392	2.67468
1278.000	3.09889	2.13255	1.77873	2.75589
1279.000	3.16788	2.16613	1.65429	2.66083
1280.000	3.13043	2.33479	1.72935	2.73811
1281.000	3.17971	2.14032	1.63849	2.80966
1282.000	3.17774	2.27916	1.87551	2.68829
1283.000	3.20533	2.28108	1.78268	2.76977
1284.000	3.22306	2.22551	1.73528	2.76786
1285.000	3.16197	2.29506	1.76491	2.67060
1286.000	3.09495	2.25554	1.65429	2.66877
1287.000	3.18759	2.29699	1.71948	2.70439
1288.000	3.15803	2.24747	1.63256	2.78586
1289.000	3.13437	2.21975	1.69972	2.79569
1290.000	3.23686	2.24531	1.76886	2.83327
1291.000	3.18562	2.24741	1.73725	2.60516
1292.000	3.14423	2.23560	1.67009	2.91078
1293.000	3.12255	2.28126	1.74713	2.70634
1294.000	3.20336	2.21960	1.68985	2.81157
1295.000	3.21715	2.23742	1.69775	2.75204
1296.000	3.04172	2.30524	1.74910	2.82735
1297.000	3.11269	2.23368	1.68787	2.79372
1298.000	3.10678	2.20394	1.75108	2.81743
1299.000	3.10875	2.25154	1.84193	2.69231
1300.000	3.12452	2.25944	1.71948	2.78177
1301.000	3.05947	2.19412	1.81231	2.84907
1302.000	3.18759	2.24740	1.71158	2.86311
1303.000	3.14423	2.22171	1.68787	2.87307
1304.000	3.10283	2.20593	1.68787	2.79769
1305.000	3.34524	2.21929	1.73923	2.76190
1306.000	3.23489	2.26713	1.71553	2.70440
1307.000	3.14817	2.29112	1.68787	2.87703
1308.000	3.04961	2.23778	1.81428	2.65267
1309.000	3.15211	2.17013	1.70170	2.64489
1310.000	3.14817	2.21179	1.77873	2.62296
1311.000	3.13240	2.16620	1.79453	2.73008
1312.000	3.23095	2.27706	1.78466	2.83722
1313.000	3.09101	2.22579	1.69182	2.80760
1314.000	3.24080	2.09655	1.83403	2.79945
1315.000	3.05947	2.20602	1.62269	2.94258
1316.000	3.09298	2.26943	1.67404	2.78580
1317.000	3.13240	2.14438	1.73923	2.91068
1318.000	3.14029	2.19197	1.67404	2.74811
1319.000	3.07524	2.17425	1.73528	2.80754
1320.000	3.06144	2.20404	1.79058	2.79357
1321.000	3.14226	2.25147	1.67997	2.85721
1322.000	3.12452	2.13844	1.71750	2.75003
1323.000	3.05158	2.15248	1.68195	2.67072
1324.000	3.18759	2.19980	1.64441	2.85528
1325.000	3.21715	2.26519	1.67997	2.78778
1326.000	3.01807	1.99977	1.63059	2.87315
1327.000	3.04172	2.16242	1.75305	2.82140
1328.000	3.14029	2.06898	1.66417	2.79177
1329.000	3.08509	2.10678	1.55552	2.79390
1330.000	3.13634	2.11263	1.61873	2.78985
1331.000	3.07327	2.00562	1.77281	2.81938
1332.000	3.10678	2.04127	1.53379	2.69869
1333.000	3.15408	2.11855	1.64244	2.63108
1334.000	3.10678	2.02341	1.69775	2.73220
1335.000	3.11269	2.04920	1.75700	2.61108
1336.000	3.17576	2.05701	1.77676	2.58129
1337.000	3.23883	1.99142	1.81033	2.70029
1338.000	3.18168	1.95780	1.72145	2.73415
1339.000	3.17971	1.98161	1.71158	2.63099
1340.000	3.13634	2.04915	1.77873	2.57930
1341.000	3.17971	1.94987	1.77676	2.67653
1342.000	3.12058	1.84679	1.74713	2.71229
1343.000	3.12058	1.99561	1.79256	2.55348
1344.000	3.26248	1.94376	1.89328	2.68826
1345.000	3.20533	2.08472	1.82811	2.59907
1346.000	3.21518	2.01328	1.72935	2.64684
1347.000	3.13832	1.92613	1.83601	2.60898
1348.000	3.24277	2.04695	1.89130	2.62874
1349.000	3.29401	2.01709	1.83008	2.76970
1350.000	3.31765	2.00911	1.82021	2.63877
1351.000	3.24277	2.00728	1.72738	2.80358
1352.000	3.22306	2.06286	1.79058	2.65866
1353.000	3.22898	2.13029	1.82811	2.60503
1354.000	3.31174	2.10037	1.84193	2.68636
1355.000	3.27430	2.06078	1.96437	2.61078
1356.000	3.21124	2.04702	1.83798	2.77167
1357.000	3.21715	2.05296	1.79453	2.65270
1358.000	3.20927	2.04504	1.83008	2.66257
1359.000	3.19350	2.02721	1.94265	2.55922
1360.000	3.31174	2.06665	1.83206	2.67447
1361.000	3.28810	2.22338	1.90315	2.70214
1362.000	3.21321	2.10256	1.92290	2.54933
1363.000	3.22504	2.13625	1.83996	2.81134
1364.000	3.25460	2.20363	1.79256	2.67453
1365.000	3.21715	2.13825	1.82613	2.65265
1366.000	3.34327	2.14988	1.75898	2.67061
1367.000	3.30977	2.17177	1.87551	2.62877
1368.000	3.27036	2.18574	1.84193	2.69429
1369.000	3.21321	2.11843	1.84193	2.70818
1370.000	3.24474	2.11241	1.80046	2.66261
1371.000	3.19350	2.08474	1.88538	2.67836
1372.000	3.21321	2.09859	1.80836	2.72807
1373.000	3.13832	2.08684	1.81231	2.53758
1374.000	3.14423	1.98168	1.85971	2.59308
1375.000	3.32159	2.02299	1.87946	2.70614
1376.000	3.12649	2.08686	1.81428	2.59314
1377.000	3.27824	2.09647	1.91303	2.66244
1378.000	3.21518	2.11445	1.86958	2.64664
1379.000	3.19941	2.11845	1.85181	2.70618
1380.000	3.16591	2.08678	1.82021	2.78559
1381.000	3.20139	2.21366	1.85773	2.55339
1382.000	3.27036	2.20954	1.91303	2.68823
1383.000	3.17576	2.17404	1.85773	2.76767
1384.000	3.16000	2.21771	1.91500	2.70807
1385.000	3.22701	2.10451	1.87946	2.67638
1386.000	3.15803	2.12052	1.94857	2.64651
1387.000	3.10086	2.14643	1.90710	2.58110
1388.000	3.20730	2.07678	1.91500	2.67831
1389.000	3.31174	2.08053	1.93475	2.73184
1390.000	3.32159	1.98530	1.91500	2.69418
1391.000	3.38464	2.02286	1.94660	2.79134
1392.000	3.33341	2.08049	1.94067	2.95398
1393.000	3.38858	2.16565	1.86958	2.87477
1394.000	3.06538	2.27742	1.72540	2.97020
1395.000	2.84454	2.21439	1.58515	2.95057
1396.000	2.81496	2.21047	1.41525	3.07377
1397.000	2.54668	2.33399	1.13860	3.11178
1398.000	2.40855	2.50685	0.95480	3.13973
1399.000	2.17761	2.51916	0.62866	3.16377
1400.000	1.93870	2.61280	0.34399	3.38996
1401.000	1.57527	2.61529	0.10083	3.29088
1402.000	1.39944	2.69488	-0.12850	3.39596
1403.000	1.09710	2.55625	-0.35190	3.38995
1404.000	0.98247	2.62582	-0.55947	3.31849
1405.000	0.86981	2.61399	-0.70378	3.18951
1406.000	0.69389	2.45726	-0.93504	3.17544
1407.000	0.40528	2.33226	-0.95876	3.35585
1408.000	0.30841	2.25880	-1.22160	3.26635
1409.000	0.18386	2.34422	-1.32238	3.25433
1410.000	0.08303	2.35814	-1.34412	3.30187
1411.000	-0.13048	2.30054	-1.32040	3.36930
1412.000	-0.17991	2.33827	-1.40734	3.44052
1413.000	-0.26887	2.41173	-1.43500	3.45237
1414.000	-0.19770	2.60435	-1.35399	3.42277
1415.000	-0.40330	2.53283	-1.49823	3.45426
1416.000	-0.34004	2.50108	-1.45279	3.49792
1417.000	-0.42900	2.61621	-1.41327	3.46429
1418.000	-0.40726	2.52290	-1.40339	3.57923
1419.000	-0.39737	2.53680	-1.39154	3.55349
1420.000	-0.42307	2.44347	-1.30460	3.55956
1421.000	-0.28073	2.54279	-1.34609	3.46043
1422.000	-0.32422	2.37796	-1.31843	3.39110
1423.000	-0.33806	2.41172	-1.17220	3.44480
1424.000	-0.27282	2.42166	-1.14651	3.42502
1425.000	-0.32818	2.35016	-1.16232	3.39527
1426.000	-0.29457	2.43357	-1.05362	3.47467
1427.000	-0.25701	2.49713	-0.99631	3.22496
1428.000	-0.19770	2.40976	-1.11687	3.37748
1429.000	-0.17002	2.49317	-1.09117	3.53606
1430.000	-0.35586	2.34618	-1.04572	3.38153
1431.000	-0.34597	2.44150	-1.05560	3.44098
1432.000	-0.29259	2.54080	-1.13268	3.44089
1433.000	-0.24712	2.44947	-1.14058	3.46862
1434.000	-0.21352	2.40380	-1.13268	3.55384
1435.000	-0.25503	2.55471	-1.03979	3.50838
1436.000	-0.21352	2.53287	-1.17813	3.52803
1437.000	-0.27085	2.51896	-1.10106	3.44093
1438.000	-0.30643	2.42960	-1.19394	3.47847
1439.000	-0.28469	2.56860	-1.13860	3.44088
1440.000	-0.26887	2.44152	-1.10698	3.41317
1441.000	-0.25305	2.43358	-1.16232	3.49832
1442.000	-0.24317	2.62023	-1.19789	3.42495
1443.000	-0.31236	2.36208	-1.05955	3.44692
1444.000	-0.24910	2.46536	-1.18406	3.49235
1445.000	-0.31434	2.54675	-1.00026	3.46680
1446.000	-0.32027	2.43158	-1.14453	3.43097
1447.000	-0.32422	2.56660	-1.23939	3.48832
1448.000	-0.26294	2.45741	-1.26310	3.37730
1449.000	-0.30841	2.49711	-1.15639	3.48644
1450.000	-0.29655	2.45145	-1.17418	3.36750
1451.000	-0.23329	2.38195	-1.18208	3.46659
1452.000	-0.25701	2.39585	-1.20382	3.44873
1453.000	-0.26492	2.43954	-1.15837	3.44879
1454.000	-0.35190	2.42165	-1.27298	3.44666
1455.000	-0.25899	2.58449	-1.18406	3.41506
1456.000	-0.32620	2.44548	-1.28879	3.51797
1457.000	-0.30248	2.48719	-1.23148	3.45464
1458.000	-0.29259	2.39981	-1.20382	3.44675
1459.000	-0.25108	2.42564	-1.28286	3.44664
1460.000	-0.22735	2.51897	-1.24927	3.47840
1461.000	-0.13048	2.45544	-1.25915	3.37136
1462.000	-0.19968	2.46735	-1.20382	3.38927
1463.000	-0.27282	2.47727	-1.22951	3.44275
1464.000	-0.17793	2.38196	-1.26705	3.29405
1465.000	-0.10083	2.53487	-1.37771	3.49605
1466.000	-0.23329	2.47529	-1.38758	3.52180
1467.000	-0.30446	2.45144	-1.25322	3.34362
1468.000	-0.24119	2.45940	-1.20975	3.35755
1469.000	-0.14037	2.50906	-1.23544	3.40311
1470.000	-0.16409	2.65399	-1.34214	3.45053
1471.000	-0.25899	2.45145	-1.37178	3.47426
1472.000	-0.22538	2.48522	-1.32238	3.40894
1473.000	-0.17398	2.40976	-1.25717	3.50018
1474.000	-0.19968	2.51699	-1.30657	3.42679
1475.000	-0.14827	2.41970	-1.25717	3.45461
1476.000	-0.14630	2.43757	-1.28088	3.37133
1477.000	-0.15223	2.54480	-1.42315	3.51183
1478.000	-0.10676	2.44552	-1.35202	3.41484
1479.000	-0.21154	2.41572	-1.28681	3.42880
1480.000	-0.05536	2.56069	-1.24729	3.39516
1481.000	-0.16607	2.67781	-1.32633	3.45649
1482.000	-0.17793	2.50310	-1.36190	3.48815
1483.000	-0.11071	2.48722	-1.37771	3.50992
1484.000	-0.15223	2.59245	-1.41722	3.44249
1485.000	-0.07117	2.62025	-1.37375	3.47822
1486.000	-0.07908	2.59642	-1.27693	3.50412
1487.000	-0.08303	2.72149	-1.35795	3.31573
1488.000	-0.11664	2.74729	-1.31843	3.45056
1489.000	-0.10083	2.64407	-1.26112	3.44073
1490.000	-0.09885	2.59841	-1.42513	3.51579
1491.000	-0.20758	2.70758	-1.34412	3.49610
1492.000	-0.10083	2.60238	-1.21963	3.35952
1493.000	-0.17398	2.70758	-1.32040	3.43470
1494.000	-0.14432	2.67583	-1.34609	3.43070
1495.000	-0.10083	2.72347	-1.31250	3.49416
1496.000	-0.20758	2.57854	-1.19789	3.46459
1497.000	-0.12060	2.65598	-1.35004	3.44061
1498.000	-0.04745	2.67385	-1.32238	3.40299
1499.000	-0.12060	2.66392	-1.26705	3.38721
1500.000	-0.13839	2.73339	-1.26112	3.48433
1501.000	-0.27282	2.64007	-1.26508	3.39712
1502.000	-0.24515	2.56861	-1.39154	3.41875
1503.000	-0.19375	2.69369	-1.26903	3.42090
1504.000	-0.25305	2.64206	-1.32633	3.44460
1505.000	-0.24119	2.65199	-1.31843	3.36336
1506.000	-0.17595	2.74530	-1.29076	3.36736
1507.000	-0.15421	2.68377	-1.28286	3.47637
1508.000	-0.21352	2.70162	-1.24334	3.47246
1509.000	-0.20758	2.66986	-1.40932	3.55544
1510.000	-0.21945	2.62023	-1.26508	3.47838
1511.000	-0.23329	2.66589	-1.21963	3.30798
1512.000	-0.12060	2.64605	-1.11884	3.44487
1513.000	-0.14827	2.60833	-1.20579	3.31395
1514.000	-0.17398	2.59840	-1.15639	3.48842
1515.000	-0.13641	2.66392	-1.19196	3.45865
1516.000	-0.10874	2.68973	-1.19789	3.36748
1517.000	-0.17002	2.65994	-1.23544	3.57947
1518.000	-0.19375	2.58847	-1.14453	3.39133
1519.000	-0.19177	2.75522	-1.18406	3.53595
1520.000	-0.33609	2.57454	-1.22160	3.40511
1521.000	-0.22933	2.67780	-1.26508	3.47243
1522.000	-0.23526	2.59640	-1.19987	3.34369
1523.000	-0.13839	2.72744	-1.14848	3.43691
1524.000	-0.27282	2.58051	-1.13465	3.37152
1525.000	-0.12455	2.71354	-1.16627	3.47454
1526.000	-0.16607	2.68972	-1.14453	3.41511
1527.000	-0.07315	2.56267	-1.22951	3.42690
1528.000	-0.26096	2.40776	-1.15244	3.33185
1529.000	-0.16804	2.59641	-1.15244	3.42501
1530.000	-0.12455	2.60833	-1.17022	3.39328
1531.000	-0.05931	2.51502	-1.21567	3.39917
1532.000	-0.09490	2.73935	-1.12675	3.33783
1533.000	-0.19968	2.62222	-1.16627	3.44481
1534.000	-0.08303	2.72744	-1.20777	3.45665
1535.000	-0.13641	2.74332	-1.07932	3.48653
1536.000	-0.02768	2.57459	-1.18603	3.30009
1537.000	-0.14234	2.59046	-1.20975	3.59931
1538.000	-0.16014	2.67582	-1.16034	3.39725
1539.000	-0.10478	2.57657	-1.09117	3.25857
1540.000	-0.13839	2.65598	-1.05362	3.40134
1541.000	-0.03756	2.71156	-1.10303	3.42903
1542.000	-0.03361	2.70561	-1.04177	3.32999
1543.000	-0.10478	2.66392	-1.13663	3.32394
1544.000	0.03361	2.78897	-1.13465	3.37548
1545.000	0.00989	2.68973	-1.15244	3.32590
1546.000	0.02966	2.69966	-1.10501	3.20700
1547.000	0.06129	2.67186	-1.13465	3.29619
1548.000	0.00989	2.67782	-1.05165	2.97302
1549.000	0.08303	2.80485	-1.14058	2.93326
1550.000	-0.05338	2.65003	-0.97457	2.94929
1551.000	0.05338	2.71553	-0.99829	3.50248
1552.000	0.00198	2.82470	-1.26705	4.48979
1553.000	0.18979	3.08659	-1.52984	5.81094
1554.000	0.22538	3.21947	-1.77281	7.31539
1555.000	0.20956	3.61198	-2.08482	8.81276
1556.000	0.21352	4.64900	-2.54273	10.68622
1557.000	0.45272	6.03523	-3.26051	12.52809
1558.000	0.49819	7.69402	-4.06382	14.23564
1559.000	0.94097	9.38751	-5.30294	15.95466
1560.000	1.28879	11.48680	NaN	NaN
1561.000	2.02756	13.48571	NaN	NaN
1562.000	2.25262	15.47946	NaN	NaN
1563.000	-1.18998	19.92338	NaN	NaN
1564.000	NaN	NaN	NaN	NaN
1565.000	NaN	NaN	NaN	NaN
1566.000	NaN	NaN	NaN	NaN
1567.000	NaN	NaN	NaN	NaN
1568.000	NaN	NaN	NaN	NaN
1569.000	NaN	NaN	NaN	NaN
1570.000	NaN	NaN	NaN	NaN
1571.000	NaN	NaN	NaN	NaN
1572.000	NaN	NaN	NaN	NaN
1573.000	NaN	NaN	NaN	NaN
1574.000	NaN	NaN	NaN	NaN
1575.000	NaN	NaN	NaN	NaN
1576.000	NaN	NaN	NaN	NaN
1577.000	NaN	NaN	NaN	NaN
1578.000	NaN	NaN	NaN	NaN
1579.000	NaN	NaN	NaN	NaN
1580.000	NaN	NaN	NaN	NaN
1581.000	NaN	NaN	NaN	NaN
1582.000	NaN	NaN	NaN	NaN
1583.000	NaN	NaN	NaN	NaN
1584.000	NaN	NaN	NaN	NaN
1585.000	NaN	NaN	NaN	NaN
1586.000	NaN	NaN	NaN	NaN
1587.000	NaN	NaN	NaN	NaN
1588.000	NaN	NaN	NaN	NaN
1589.000	NaN	NaN	NaN	NaN
1590.000	NaN	NaN	NaN	NaN
1591.000	NaN	NaN	NaN	NaN
1592.000	NaN	NaN	NaN	NaN
1593.000	NaN	NaN	NaN	NaN
1594.000	NaN	NaN	NaN	NaN
1595.000	NaN	NaN	NaN	NaN
1596.000	NaN	NaN	NaN	NaN
1597.000	NaN	NaN	NaN	NaN
1598.000	NaN	NaN	NaN	NaN
1599.000	NaN	NaN	NaN	NaN
1600.000	NaN	NaN	NaN	NaN
1601.000	NaN	NaN	NaN	NaN
1602.000	NaN	NaN	NaN	NaN
1603.000	NaN	NaN	NaN	NaN
1604.000	NaN	NaN	NaN	NaN
1605.000	NaN	NaN	NaN	NaN
1606.000	NaN	NaN	NaN	NaN
1607.000	NaN	NaN	NaN	NaN
1608.000	NaN	NaN	NaN	NaN
1609.000	NaN	NaN	NaN	NaN
1610.000	NaN	NaN	NaN	NaN
1611.000	NaN	NaN	NaN	NaN
1612.000	NaN	NaN	NaN	NaN
1613.000	NaN	NaN	NaN	NaN
1614.000	NaN	NaN	NaN	NaN
1615.000	NaN	NaN	NaN	NaN
1616.000	NaN	NaN	NaN	NaN
1617.000	NaN	NaN	NaN	NaN
1618.000	NaN	NaN	NaN	NaN
1619.000	NaN	NaN	NaN	NaN
1620.000	NaN	NaN	NaN	NaN
1621.000	NaN	NaN	NaN	NaN
1622.000	NaN	NaN	NaN	NaN
1623.000	NaN	NaN	NaN	NaN
1624.000	NaN	NaN	NaN	NaN
1625.000	NaN	NaN	NaN	NaN
1626.000	NaN	NaN	NaN	NaN
1627.000	NaN	NaN	NaN	NaN
1628.000	NaN	NaN	NaN	NaN
1629.000	NaN	NaN	NaN	NaN
1630.000	NaN	NaN	NaN	NaN
1631.000	NaN	NaN	NaN	NaN
1632.000	NaN	NaN	NaN	NaN
1633.000	NaN	NaN	NaN	NaN
1634.000	NaN	NaN	NaN	NaN
1635.000	NaN	NaN	NaN	NaN
1636.000	NaN	NaN	NaN	NaN
1637.000	NaN	NaN	NaN	NaN
1638.000	NaN	NaN	NaN	NaN
1639.000	NaN	NaN	NaN	NaN
1640.000	NaN	NaN	NaN	NaN
1641.000	NaN	NaN	NaN	NaN
1642.000	NaN	NaN	NaN	NaN
1643.000	NaN	NaN	NaN	NaN
1644.000	NaN	NaN	NaN	NaN
1645.000	NaN	NaN	NaN	NaN
1646.000	NaN	NaN	NaN	NaN
1647.000	NaN	NaN	NaN	NaN
1648.000	NaN	NaN	NaN	NaN
1649.000	NaN	NaN	NaN	NaN
1650.000	NaN	NaN	NaN	NaN
1651.000	NaN	NaN	NaN	NaN
1652.000	NaN	NaN	NaN	NaN
1653.000	NaN	NaN	NaN	NaN
1654.000	NaN	NaN	NaN	NaN
1655.000	NaN	NaN	NaN	NaN
1656.000	NaN	NaN	NaN	NaN
1657.000	NaN	NaN	NaN	NaN
1658.000	NaN	NaN	NaN	NaN
1659.000	NaN	NaN	NaN	NaN
1660.000	NaN	NaN	NaN	NaN
1661.000	NaN	NaN	NaN	NaN
1662.000	NaN	NaN	NaN	NaN
1663.000	NaN	NaN	NaN	NaN
1664.000	NaN	NaN	NaN	NaN
1665.000	NaN	NaN	NaN	NaN
1666.000	NaN	NaN	NaN	NaN
1667.000	NaN	NaN	NaN	NaN
1668.000	NaN	NaN	NaN	NaN
1669.000	NaN	NaN	NaN	NaN
1670.000	NaN	NaN	NaN	NaN
1671.000	NaN	NaN	NaN	NaN
1672.000	NaN	NaN	NaN	NaN
1673.000	NaN	NaN	NaN	NaN
1674.000	NaN	NaN	NaN	NaN
1675.000	NaN	NaN	NaN	NaN
1676.000	NaN	NaN	NaN	NaN
1677.000	NaN	NaN	NaN	NaN
1678.000	NaN	NaN	NaN	NaN
1679.000	NaN	NaN	NaN	NaN
1680.000	NaN	NaN	NaN	NaN
1681.000	NaN	NaN	NaN	NaN
1682.000	NaN	NaN	NaN	NaN
1683.000	NaN	NaN	NaN	NaN
1684.000	NaN	NaN	NaN	NaN
1685.000	NaN	NaN	NaN	NaN
1686.000	NaN	NaN	NaN	NaN
1687.000	NaN	NaN	NaN	NaN
1688.000	NaN	NaN	NaN	NaN
1689.000	NaN	NaN	NaN	NaN
1690.000	NaN	NaN	NaN	NaN
1691.000	NaN	NaN	NaN	NaN
1692.000	NaN	NaN	NaN	NaN
1693.000	NaN	NaN	NaN	NaN
1694.000	NaN	NaN	NaN	NaN
1695.000	NaN	NaN	NaN	NaN
1696.000	NaN	NaN	NaN	NaN
1697.000	NaN	NaN	NaN	NaN
1698.000	NaN	NaN	NaN	NaN
1699.000	NaN	NaN	NaN	NaN
1700.000	NaN	NaN	NaN	NaN
1701.000	NaN	NaN	NaN	NaN
1702.000	NaN	NaN	NaN	NaN
1703.000	NaN	NaN	NaN	NaN
1704.000	NaN	NaN	NaN	NaN
1705.000	NaN	NaN	NaN	NaN
1706.000	NaN	NaN	NaN	NaN
1707.000	NaN	NaN	NaN	NaN
1708.000	NaN	NaN	NaN	NaN
1709.000	NaN	NaN	NaN	NaN
1710.000	NaN	NaN	NaN	NaN
1711.000	NaN	NaN	NaN	NaN
1712.000	NaN	NaN	NaN	NaN
1713.000	NaN	NaN	NaN	NaN
1714.000	NaN	NaN	NaN	NaN
1715.000	NaN	NaN	NaN	NaN
1716.000	NaN	NaN	NaN	NaN
1717.000	NaN	NaN	NaN	NaN
1718.000	NaN	NaN	NaN	NaN
1719.000	NaN	NaN	NaN	NaN
1720.000	NaN	NaN	NaN	NaN
1721.000	NaN	NaN	NaN	NaN
1722.000	NaN	NaN	NaN	NaN
1723.000	NaN	NaN	NaN	NaN
1724.000	NaN	NaN	NaN	NaN
1725.000	NaN	NaN	NaN	NaN
1726.000	NaN	NaN	NaN	NaN
1727.000	NaN	NaN	NaN	NaN
1728.000	NaN	NaN	NaN	NaN
1729.000	NaN	NaN	NaN	NaN
1730.000	NaN	NaN	NaN	NaN
1731.000	NaN	NaN	NaN	NaN
1732.000	NaN	NaN	NaN	NaN
1733.000	NaN	NaN	NaN	NaN
1734.000	NaN	NaN	NaN	NaN
1735.000	NaN	NaN	NaN	NaN
1736.000	NaN	NaN	NaN	NaN
1737.000	NaN	NaN	NaN	NaN
1738.000	NaN	NaN	NaN	NaN
1739.000	NaN	NaN	NaN	NaN
1740.000	NaN	NaN	NaN	NaN
1741.000	-0.82633	17.81870	NaN	NaN
1742.000	-0.09490	16.61705	NaN	NaN
1743.000	0.65634	15.32904	-2.72423	14.30871
1744.000	0.24515	14.80491	-1.74120	13.63067
1745.000	0.38551	14.31458	-0.72750	12.64910
1746.000	-0.05338	13.87885	-0.47249	12.11637
1747.000	-0.36772	13.54812	-0.47447	11.74120
1748.000	4.24082	9.89383	-0.44877	11.16606
1749.000	4.08349	9.49279	-0.47249	10.74801
1750.000	3.94578	9.21418	-0.50412	10.27102
1751.000	3.84148	8.78155	-0.32422	9.88748
1752.000	3.79227	8.49683	-0.40923	9.41369
1753.000	3.53828	7.96240	-0.18584	8.96798
1754.000	3.49495	7.64506	-0.10874	8.67856
1755.000	3.38464	7.31600	-0.14037	8.28154
1756.000	3.10481	7.00510	-0.04943	7.93058
1757.000	3.17971	6.64819	-0.14037	7.57507
1758.000	2.97469	6.38470	0.09885	7.26404
1759.000	2.79918	6.00468	0.09094	6.93688
1760.000	2.85243	5.71143	-0.07117	6.67601
1761.000	2.69662	5.41887	0.21945	6.25760
1762.000	2.63152	5.16103	0.18584	5.92321
1763.000	2.41052	4.96271	0.09687	5.63573
1764.000	2.44210	4.67445	0.17595	5.30649
1765.000	2.38289	4.40008	0.11467	5.04604
1766.000	2.26249	4.13556	0.15421	4.84857
1767.000	2.09271	3.99360	0.23526	4.42559
1768.000	2.11838	3.79564	0.37167	4.22971
1769.000	1.94660	3.59012	0.19177	3.94475
1770.000	1.75700	3.35276	0.18781	3.73680
1771.000	1.83601	3.23172	0.25108	3.47324
1772.000	1.67602	3.03373	0.29259	3.15202
1773.000	1.67602	2.86515	0.32620	2.91594
1774.000	1.70367	2.77386	0.19375	2.63215
1775.000	1.55157	2.61135	0.36179	2.54674
1776.000	1.52391	2.54589	0.41121	2.33425
1777.000	1.48835	2.51417	0.33411	2.12172
1778.000	1.49032	2.43874	0.46063	1.93095
1779.000	1.45871	2.37326	0.29062	1.87932
1780.000	1.31843	2.25426	0.33411	1.66267
1781.000	1.33424	2.13707	0.26887	1.58715
1782.000	1.24136	1.98023	0.35981	1.48575
1783.000	1.22753	1.95242	0.34004	1.14773
1784.000	1.17022	1.98226	0.42900	1.06221
1785.000	1.22753	1.89083	0.30841	1.10995
1786.000	1.12872	1.83725	0.30841	1.04631
1787.000	1.19789	1.92463	0.37167	0.80963
1788.000	1.16034	1.84319	0.16607	0.96080
1789.000	1.11884	1.73790	0.42109	0.78576
1790.000	1.18208	1.79947	0.01186	1.02246
1791.000	1.27100	1.80735	0.20165	0.76389
1792.000	1.15441	1.79948	0.34399	0.55701
1793.000	1.08920	1.86112	0.16607	0.83351
1794.000	1.12675	1.83725	-0.03163	0.86534
1795.000	1.20579	1.94449	-0.14037	0.87926
1796.000	1.15441	1.89287	-0.09687	1.01252
1797.000	1.18998	1.90079	-0.05536	0.94092
1798.000	1.14848	1.88294	-0.06129	1.12588
1799.000	1.11687	1.82931	-0.24712	1.22927
1800.000	1.05560	1.78365	-0.07710	1.19150
1801.000	1.15046	1.81737	-0.25305	1.27302
1802.000	1.12279	1.82533	-0.22933	1.27103
1803.000	1.15639	1.86307	-0.28073	1.41617
1804.000	1.07141	1.91677	-0.16409	1.42414
1805.000	1.19789	1.91072	-0.31039	1.46786
1806.000	1.06153	1.80153	-0.27876	1.57124
1807.000	1.15244	1.83922	-0.21747	1.60703
1808.000	1.08524	1.81741	-0.29259	1.56329
1809.000	1.07734	1.84921	-0.37760	1.74018
1810.000	1.11291	1.80746	-0.50412	1.81170
1811.000	0.94097	1.86121	-0.37365	1.75012
1812.000	1.10106	1.91873	-0.45075	1.85743
1813.000	1.00026	1.75586	-0.36969	1.77795
1814.000	1.05758	1.83730	-0.39539	1.75807
1815.000	1.04374	1.78564	-0.36574	1.96873
1816.000	1.12872	1.87103	-0.33213	1.90515
1817.000	1.05758	1.85319	-0.34202	2.00450
1818.000	1.03979	1.90685	-0.39737	1.88526
1819.000	1.05955	1.85717	-0.50412	1.94882
1820.000	1.01805	1.91680	-0.44086	2.03627
1821.000	1.00421	1.82739	-0.44284	1.85345
1822.000	1.09710	1.86509	-0.44284	2.00447
1823.000	1.05362	1.81743	-0.35190	1.90117
1824.000	0.95085	1.84729	-0.48831	1.96870
1825.000	1.04572	1.82936	-0.52784	2.05015
1826.000	0.99829	1.89098	-0.45272	2.09785
1827.000	1.03781	1.92473	-0.34993	1.94687
1828.000	1.11489	1.78162	-0.39342	2.11575
1829.000	0.97457	1.79760	-0.48633	2.04817
1830.000	1.02200	1.82738	-0.54959	1.94881
1831.000	0.82633	1.76985	-0.50412	1.92895
1832.000	0.98840	1.87708	-0.43296	2.02037
1833.000	0.91923	1.88506	-0.50610	2.03426
1834.000	1.00224	1.80553	-0.51598	2.03028
1835.000	1.02793	1.76776	-0.44877	2.03825
1836.000	0.96073	1.85325	-0.40330	1.89519
1837.000	1.01014	1.79758	-0.44284	1.96473
1838.000	0.98050	1.82740	-0.38946	1.85347
1839.000	0.98840	1.69425	-0.47447	2.03030
1840.000	0.96271	1.78171	-0.51598	1.92895
1841.000	0.93306	1.85724	-0.57529	1.93290
1842.000	0.96271	1.73004	-0.45470	1.91307
1843.000	0.83621	1.76786	-0.52587	1.97465
1844.000	0.86981	1.63866	-0.51005	1.95279
1845.000	0.97259	1.78170	-0.50610	1.93888
1846.000	0.88760	1.71616	-0.47052	1.98261
1847.000	0.92911	1.83339	-0.60494	1.97462
1848.000	0.96271	1.79959	-0.41121	2.04025
1849.000	0.90144	1.77578	-0.50215	2.06406
1850.000	0.87179	1.73406	-0.38551	1.97270
1851.000	0.78680	1.71820	-0.42900	2.11177
1852.000	0.87377	1.72015	-0.44482	2.09388
1853.000	0.79075	1.70826	-0.42307	2.03627
1854.000	0.87970	1.75592	-0.45470	2.07004
1855.000	0.84807	1.68041	-0.50017	2.03426
1856.000	0.86191	1.72810	-0.38156	2.01442
1857.000	0.85598	1.73804	-0.45865	2.07202
1858.000	0.81842	1.69433	-0.51401	2.02432
1859.000	0.81249	1.63670	-0.46656	2.11970
1860.000	0.89156	1.74995	-0.47052	2.04023
1861.000	0.87970	1.72611	-0.41912	1.98660
1862.000	0.85005	1.72811	-0.38749	2.06409
1863.000	0.83424	1.68041	-0.41912	1.93493
1864.000	0.80261	1.58502	-0.50412	2.03227
1865.000	0.80656	1.70030	-0.47842	2.05016
1866.000	0.72157	1.59300	-0.48633	2.10380
1867.000	0.86191	1.72611	-0.41319	1.92897
1868.000	0.72552	1.65661	-0.38946	1.97866
1869.000	0.73936	1.69238	-0.38156	1.97667
1870.000	0.83226	1.67843	-0.48831	1.96273
1871.000	0.78680	1.77782	-0.40923	2.11972
1872.000	0.85203	1.74997	-0.49622	2.07002
1873.000	0.83028	1.64663	-0.48831	1.92101
1874.000	0.75122	1.56715	-0.36574	1.84552
1875.000	0.93109	1.67640	-0.49028	1.87133
1876.000	0.92911	1.74993	-0.42702	1.96275
1877.000	0.82238	1.65061	-0.24317	1.94093
1878.000	0.87179	1.71617	-0.41121	1.99852
1879.000	0.89156	1.73206	-0.42307	2.10978
1880.000	0.94492	1.71216	-0.40528	2.03031
1881.000	0.95876	1.65651	-0.47249	2.08593
1882.000	0.82633	1.69035	-0.39144	1.98660
1883.000	0.89749	1.70026	-0.42109	1.94090
1884.000	0.95283	1.63266	-0.34597	1.97271
1885.000	0.90144	1.69032	-0.43493	1.94288
1886.000	0.88563	1.69232	-0.44877	2.06011
1887.000	0.93504	1.66447	-0.38551	1.93693
1888.000	0.85005	1.68637	-0.32818	1.95681
1889.000	0.89156	1.67641	-0.40726	1.99256
1890.000	0.94887	1.59887	-0.37365	1.99853
1891.000	0.88365	1.58300	-0.33213	1.95681
1892.000	0.77494	1.57708	-0.44086	2.01640
1893.000	0.91132	1.65653	-0.31236	1.90714
1894.000	0.92120	1.66249	-0.39539	2.03826
1895.000	0.90144	1.65057	-0.38749	1.89122
1896.000	0.96271	1.57104	-0.38946	2.01045
1897.000	0.89946	1.62275	-0.36179	1.85347
1898.000	0.83819	1.61085	-0.38156	2.03231
1899.000	0.96073	1.61676	-0.29259	1.95682
1900.000	0.92713	1.60087	-0.31434	2.00252
1901.000	0.91725	1.75987	-0.39144	1.96475
1902.000	1.02398	1.65250	-0.39539	1.98064
1903.000	0.93504	1.65652	-0.47249	2.07202
1904.000	0.94097	1.76384	-0.34597	1.98463
1905.000	0.87377	1.66251	-0.44284	2.01640
1906.000	0.94887	1.74197	-0.35388	2.04423
1907.000	0.85598	1.67643	-0.30643	2.06610
1908.000	1.00817	1.60878	-0.30643	1.97073
1909.000	0.93109	1.76781	-0.31829	2.00053
1910.000	0.92911	1.61280	-0.41121	1.95878
1911.000	0.89353	1.68039	-0.29852	1.89522
1912.000	0.91923	1.65653	-0.40923	1.95083
1913.000	0.90539	1.65057	-0.41319	1.92103
1914.000	0.87574	1.64860	-0.35190	1.96277
1915.000	1.03781	1.68628	-0.39342	2.11575
1916.000	0.94492	1.69428	-0.37563	2.08993
1917.000	0.95876	1.70421	-0.29655	1.93496
1918.000	1.08920	1.72798	-0.29457	1.95284
1919.000	0.98445	1.62668	-0.37563	1.95084
1920.000	1.05362	1.78762	-0.32027	2.00848
1921.000	0.90144	1.67045	-0.27282	1.95682
1922.000	0.90342	1.75988	-0.38749	1.93892
1923.000	1.04374	1.71012	-0.47052	1.88723
1924.000	0.95876	1.80556	-0.27876	1.95285
1925.000	0.97457	1.75388	-0.33213	1.99258
1926.000	0.95085	1.76582	-0.33411	1.95482
1927.000	0.92713	1.69031	-0.39737	1.89718
1928.000	0.90144	1.69827	-0.41319	1.92699
1929.000	0.86586	1.70624	-0.29852	1.91509
1930.000	0.96271	1.68830	-0.37760	1.97469
1931.000	0.85005	1.68836	-0.40923	1.96673
1932.000	0.94690	1.62869	-0.41714	1.95083
1933.000	0.92120	1.66845	-0.47645	1.90511
1934.000	0.90342	1.67840	-0.33411	1.91707
1935.000	0.92516	1.71217	-0.29655	1.88727
1936.000	0.86784	1.63071	-0.35783	1.97866
1937.000	1.05560	1.66640	-0.42307	1.92698
1938.000	0.93504	1.66248	-0.41912	1.91705
1939.000	0.91527	1.71218	-0.44482	1.90512
1940.000	0.88167	1.54523	-0.43098	1.97070
1941.000	0.94097	1.70620	-0.38156	1.85943
1942.000	0.98247	1.75785	-0.44877	1.87929
1943.000	0.82238	1.66849	-0.48238	1.95081
1944.000	0.86981	1.69431	-0.42702	1.99057
1945.000	0.95876	1.59688	-0.41121	1.98660
1946.000	0.82831	1.68439	-0.45668	2.00447
1947.000	0.94690	1.65055	-0.40133	1.92302
1948.000	0.74529	1.58504	-0.42109	1.80377
1949.000	0.92516	1.59093	-0.43889	2.01441
1950.000	0.90342	1.64063	-0.50412	1.90113
1951.000	0.86191	1.68040	-0.38551	1.77993
1952.000	0.88167	1.51144	-0.44877	1.82165
1953.000	0.83028	1.57706	-0.43296	1.94884
1954.000	0.77494	1.64069	-0.51401	1.99849
1955.000	0.92120	1.64062	-0.47447	1.95678
1956.000	0.87574	1.75194	-0.48040	1.89319
1957.000	0.85203	1.78176	-0.59308	1.92097
1958.000	0.85796	1.63071	-0.45272	1.94089
1959.000	0.82633	1.72215	-0.57331	1.90707
1960.000	0.87772	1.70424	-0.47645	1.89120
1961.000	0.87179	1.65456	-0.49819	1.88325
1962.000	0.90934	1.78372	-0.44284	1.88922
1963.000	0.76110	1.61883	-0.53180	1.95676
1964.000	0.83028	1.66452	-0.54761	1.83951
1965.000	0.88167	1.70424	-0.48238	1.94485
1966.000	0.83621	1.72612	-0.53971	1.92099
1967.000	0.86784	1.76785	-0.54366	1.97067
1968.000	0.93702	1.67838	-0.43889	1.97070
1969.000	0.89749	1.76982	-0.59110	1.97860
1970.000	0.88167	1.62275	-0.54564	1.92496
1971.000	0.89156	1.73206	-0.53971	1.92099
1972.000	0.83226	1.66253	-0.50215	1.86536
1973.000	0.83621	1.68439	-0.55157	1.92496
1974.000	0.82040	1.60887	-0.55750	2.02828
1975.000	0.83028	1.77382	-0.50610	2.01240
1976.000	0.80261	1.60490	-0.58517	2.03225
1977.000	0.79668	1.65062	-0.57331	2.01437
1978.000	0.77098	1.68441	-0.53971	2.04418
1979.000	0.88365	1.55517	-0.53575	2.08591
1980.000	0.72354	1.62480	-0.70575	2.06001
1981.000	0.78680	1.65658	-0.45272	1.97864
1982.000	0.81052	1.66254	-0.57727	2.01834
1983.000	0.80261	1.64266	-0.53773	1.94484
1984.000	0.82831	1.68042	-0.48238	2.10976
1985.000	0.81052	1.65260	-0.44877	1.91704
1986.000	0.78680	1.67050	-0.42505	2.00051
1987.000	0.99236	1.58295	-0.55354	1.88919
1988.000	0.74133	1.60492	-0.46854	1.93492
1989.000	0.81447	1.68440	-0.55750	2.08789
1990.000	0.78284	1.65460	-0.57727	1.95078
1991.000	0.87377	1.68636	-0.51005	1.96273
1992.000	0.74133	1.63275	-0.59308	1.98058
1993.000	0.74726	1.65064	-0.49226	1.91107
1994.000	0.73145	1.69437	-0.51005	2.03624
1995.000	0.72552	1.65263	-0.64250	2.06997
1996.000	0.78087	1.56515	-0.62471	2.01634
1997.000	0.80854	1.57508	-0.48633	2.00844
1998.000	0.79470	1.58701	-0.47249	2.05612
1999.000	0.83621	1.72612	-0.46063	2.05215
2000.000	0.74331	1.62480	-0.69785	1.99644
2001.000	0.69587	1.51151	-0.50017	2.02830
2002.000	0.77296	1.58106	-0.64052	2.13752
2003.000	0.76110	1.64467	-0.52587	2.15345
2004.000	0.80656	1.73409	-0.61680	2.13356
2005.000	0.77296	1.66056	-0.60692	2.03224
2006.000	0.56738	1.55528	-0.66424	2.24676
2007.000	0.70575	1.60891	-0.65436	2.14347
2008.000	0.75319	1.63672	-0.57529	2.06801
2009.000	0.76901	1.73410	-0.60889	2.17329
2010.000	0.84610	1.62873	-0.50808	1.99651
2011.000	0.77889	1.67249	-0.63657	2.12560
2012.000	0.79866	1.63670	-0.57529	2.10973
2013.000	0.61087	1.70435	-0.58320	2.10973
2014.000	0.75517	1.61485	-0.62075	2.04813
2015.000	0.70575	1.63475	-0.55552	2.03822
2016.000	0.75122	1.72020	-0.55750	2.04219
2017.000	0.61878	1.61490	-0.61878	2.08588
2018.000	0.72552	1.66257	-0.51005	2.06207
2019.000	0.69192	1.68643	-0.56738	2.00046
2020.000	0.65634	1.71228	-0.61680	2.04415
2021.000	0.66029	1.68644	-0.60494	2.04217
2022.000	0.71959	1.69040	-0.51598	1.96670
2023.000	0.51401	1.68847	-0.61285	2.02230
2024.000	0.77691	1.73012	-0.63064	2.01236
2025.000	0.71168	1.77189	-0.63855	2.08388
2026.000	0.58715	1.80174	-0.58122	2.10377
2027.000	0.68006	1.72619	-0.62471	2.00441
2028.000	0.66622	1.66060	-0.68203	1.99446
2029.000	0.62273	1.66062	-0.57331	2.00841
2030.000	0.70773	1.75400	-0.56540	2.03821
2031.000	0.58122	1.68647	-0.56145	2.02828
2032.000	0.68796	1.63873	-0.59110	2.01237
2033.000	0.64645	1.66458	-0.63064	1.88917
2034.000	0.69192	1.71028	-0.62471	2.13157
2035.000	0.67215	1.73414	-0.58715	1.98655
2036.000	0.72157	1.75797	-0.67610	2.11168
2037.000	0.63855	1.73216	-0.59901	2.08191
2038.000	0.70378	1.79971	-0.61285	2.09184
2039.000	0.71366	1.73015	-0.53575	2.14948
2040.000	0.64448	1.62086	-0.48633	1.95677
2041.000	0.69389	1.66258	-0.58517	2.16933
2042.000	0.60099	1.78385	-0.52982	2.12564
2043.000	0.73738	1.68045	-0.44877	2.06408
2044.000	0.71564	1.74605	-0.62866	2.03422
2045.000	0.72750	1.78977	-0.56738	2.07993
2046.000	0.60692	1.80968	-0.56145	2.08788
2047.000	0.71761	1.85138	-0.58913	2.10973
2048.000	0.74133	1.81758	-0.58122	2.08192
2049.000	0.74529	1.82156	-0.56936	2.16536
2050.000	0.72947	1.75201	-0.64250	2.21499
2051.000	0.76901	1.73410	-0.60494	2.24480
2052.000	0.80063	1.72614	-0.54168	2.11769
2053.000	0.76703	1.76391	-0.65041	2.24279
2054.000	0.76901	1.67448	-0.51005	2.11969
2055.000	0.70378	1.64071	-0.52784	1.85939
2056.000	0.75319	1.43197	-0.31434	1.86739
2057.000	0.83424	1.45978	-0.30841	1.73622
2058.000	0.87574	1.30469	-0.31236	1.59907
2059.000	0.85203	1.21125	-0.21549	1.47185
2060.000	1.02003	1.18535	-0.06326	1.25314
2061.000	0.89946	1.04421	0.07710	1.26905
2062.000	1.06943	0.82939	0.08303	1.18156
2063.000	1.19789	0.71600	0.15816	1.07615
2064.000	1.27100	0.84922	0.17793	1.01450
2065.000	1.30064	0.67819	0.08303	0.93495
2066.000	1.14848	0.59072	0.14432	0.66046
2067.000	1.23741	0.40177	0.09292	0.54509
2068.000	1.18010	0.27647	0.13048	0.45159
2069.000	1.22555	0.24265	0.00989	0.16711
2070.000	1.15639	0.29835	0.00198	0.29841
2071.000	1.17615	0.23470	-0.04349	0.26857
2072.000	1.14848	0.21084	-0.07315	0.19297
2073.000	1.10698	0.17504	-0.12653	0.16910
2074.000	1.06153	0.20090	-0.03163	0.03581
2075.000	1.13070	0.03182	-0.05338	0.07560
2076.000	1.13268	-0.12332	-0.15421	-0.01989
2077.000	1.04572	-0.35008	-0.04152	-0.03382
2078.000	1.00421	-0.39583	-0.12850	-0.25067
2079.000	1.06153	-0.53903	-0.07315	-0.40385
2080.000	1.07932	-0.58079	-0.14234	-0.27653
2081.000	1.11687	-0.58675	-0.09094	-0.48342
2082.000	1.03781	-0.62654	-0.12060	-0.36804
2083.000	1.02991	-0.77770	-0.06129	-0.41976
2084.000	1.11489	-0.80353	-0.13444	-0.31831
2085.000	0.95283	-0.84135	-0.14037	-0.30040
2086.000	1.03781	-0.69615	-0.20956	-0.27454
2087.000	1.12872	-0.49526	-0.13444	-0.34218
2088.000	1.10106	-0.57084	-0.18386	-0.18303
2089.000	1.12082	-0.55891	-0.12257	-0.13130
2090.000	1.14256	-0.36200	-0.11467	-0.16910
2091.000	1.13663	-0.43957	-0.17200	-0.05173
2092.000	1.02595	-0.50124	-0.14037	0.01790
2093.000	1.17813	-0.47139	-0.22340	-0.00199
2094.000	1.18801	-0.52309	-0.13444	-0.04576
2095.000	1.12872	-0.36598	-0.21154	0.09549
2096.000	1.14256	-0.48531	-0.17002	0.14125
2097.000	1.10106	-0.44156	-0.06129	0.05570
2098.000	1.05955	-0.60069	-0.01779	-0.02586
2099.000	1.04177	-0.49130	-0.05931	0.10942
2100.000	1.08920	-0.55096	0.00198	-0.07759
2101.000	1.07932	-0.47140	-0.04152	-0.06167
2102.000	1.15639	-0.42763	-0.03559	-0.00199
2103.000	1.06548	-0.43560	0.03559	-0.08157
2104.000	1.10501	-0.54897	0.00593	-0.06963
2105.000	1.19987	-0.47934	-0.01582	-0.09748
2106.000	1.03584	-0.67826	-0.04943	-0.05968
2107.000	1.11884	-0.56487	-0.11664	-0.09151
2108.000	1.03781	-0.48931	-0.04349	-0.10942
2109.000	1.08327	-0.52709	-0.03954	0.03581
2110.000	1.04177	-0.59870	-0.05140	-0.09748
2111.000	0.96864	-0.61462	-0.07513	-0.13329
2112.000	1.08524	-0.51516	-0.08106	-0.12136
2113.000	1.04572	-0.57682	-0.10478	-0.14324
2114.000	1.00421	-0.64047	-0.11269	-0.09549
2115.000	1.08722	-0.62455	-0.03954	0.10146
2116.000	0.97259	-0.58081	-0.11467	-0.05570
2117.000	1.07339	-0.64643	0.03361	-0.08157
2118.000	1.01805	-0.67229	-0.05338	0.04576
2119.000	1.09315	-0.70211	-0.09292	0.05968
2120.000	1.04177	-0.55295	-0.08699	-0.07958
2121.000	1.06153	-0.60466	-0.14630	-0.06167
2122.000	0.93702	-0.61861	-0.10676	-0.05173
2123.000	1.03781	-0.61063	-0.00593	-0.01393
2124.000	1.05955	-0.60466	-0.04349	-0.03183
2125.000	0.98247	-0.64843	-0.04943	-0.03581
2126.000	1.05560	-0.56886	-0.08897	-0.06167
2127.000	1.19789	-0.59071	-0.10083	0.01393
2128.000	1.11884	-0.60664	-0.10280	-0.02387
2129.000	0.98840	-0.53705	-0.09292	-0.04178
2130.000	1.08920	-0.66034	-0.04745	-0.09350
2131.000	1.01805	-0.61462	-0.04943	-0.03382
2132.000	1.08524	-0.66035	-0.11071	0.06565
2133.000	1.03781	-0.61063	-0.10676	0.01592
2134.000	1.11687	-0.59670	-0.02966	-0.06565
2135.000	0.95480	-0.57087	-0.05338	-0.07958
2136.000	1.08722	-0.62653	-0.14432	-0.04377
2137.000	1.05955	-0.57682	-0.06920	-0.03581
2138.000	1.02003	-0.59075	-0.14432	-0.04178
2139.000	1.15837	-0.61260	0.01582	0.02586
2140.000	1.03979	-0.64643	-0.11664	-0.03382
2141.000	1.08920	-0.59471	-0.00593	-0.02785
2142.000	1.09710	-0.61062	-0.07908	-0.13528
2143.000	1.09710	-0.57880	-0.05733	-0.10942
2144.000	1.01014	-0.54699	-0.06129	-0.16114
2145.000	1.01410	-0.60069	-0.06326	0.08555
2146.000	1.08524	-0.48731	-0.07315	-0.06366
2147.000	1.12675	-0.45946	-0.11862	-0.07162
2148.000	1.02991	-0.53506	-0.01977	-0.07361
2149.000	1.03386	-0.37793	-0.18386	-0.00398
2150.000	1.00619	-0.34610	-0.07315	-0.08356
2151.000	0.91330	-0.59077	-0.19177	0.15716
2152.000	1.03979	-0.38190	-0.16804	0.04377
2153.000	1.04769	-0.45748	-0.08699	-0.00398
2154.000	1.09315	-0.40576	-0.10280	-0.12334
2155.000	1.02200	-0.29439	-0.16211	-0.06764
2156.000	1.12082	-0.37195	-0.10874	-0.08952
2157.000	0.97852	-0.42567	-0.08501	-0.14324
2158.000	1.11687	-0.39781	-0.15025	-0.04974
2159.000	1.04572	-0.33218	-0.21154	0.08157
2160.000	0.97457	-0.33815	-0.21154	0.03780
2161.000	1.06943	-0.37991	-0.12455	-0.02984
2162.000	0.98445	-0.40976	-0.10280	-0.05570
2163.000	1.03979	-0.38190	-0.06326	0.07162
2164.000	1.00224	-0.36798	-0.10676	0.00000
2165.000	1.06351	-0.43361	-0.07117	-0.07361
2166.000	0.98643	-0.34014	-0.08699	-0.07958
2167.000	1.01410	-0.26853	-0.19375	-0.00995
2168.000	1.03979	-0.40577	-0.15618	-0.07958
2169.000	1.03979	-0.22477	-0.15421	-0.05371
2170.000	0.88760	-0.46347	-0.12850	-0.04377
2171.000	1.02200	-0.25659	-0.09687	-0.10345
2172.000	0.99829	-0.44158	-0.09292	-0.04377
2173.000	1.09710	-0.39980	-0.10083	-0.09748
2174.000	0.96073	-0.32821	-0.15618	0.04377
2175.000	0.96864	-0.37594	-0.12257	-0.04377
2176.000	1.06943	-0.25261	-0.11664	-0.12334
2177.000	0.99829	-0.43959	-0.20758	0.03581
2178.000	1.02003	-0.29837	-0.06920	0.01592
2179.000	1.04177	-0.38986	-0.06722	-0.04775
2180.000	0.91330	-0.36203	-0.19572	-0.13528
2181.000	0.94492	-0.48336	-0.11862	-0.06167
2182.000	0.98840	-0.44954	-0.12653	-0.02785
2183.000	1.05362	-0.41174	-0.06326	-0.09549
2184.000	1.06943	-0.38190	-0.01977	-0.05173
2185.000	0.87179	-0.51917	-0.20956	-0.04775
2186.000	1.06153	-0.29637	-0.13641	-0.01393
2187.000	0.92713	-0.36799	-0.16804	-0.00796
2188.000	0.99038	-0.38589	-0.07710	-0.12533
2189.000	0.97062	-0.41771	-0.04349	0.00597
2190.000	1.06746	-0.33615	-0.12850	-0.05173
2191.000	0.94295	-0.36401	-0.19968	-0.02188
2192.000	1.00817	-0.45351	-0.08501	0.01790
2193.000	0.97062	-0.32622	-0.14037	-0.05769
2194.000	0.99631	-0.34213	-0.17200	-0.03780
2195.000	1.02595	-0.46544	-0.01582	-0.09947
2196.000	0.97852	-0.36202	-0.11071	-0.02387
2197.000	0.98247	-0.34810	-0.10083	-0.03581
2198.000	0.92120	-0.40579	-0.08501	0.04377
2199.000	1.01805	-0.48136	-0.16607	-0.04576
2200.000	1.02991	-0.59075	-0.16409	-0.01393
2201.000	1.02595	-0.47141	-0.10280	-0.01393
2202.000	0.98840	-0.36998	-0.18386	-0.01790
2203.000	0.95283	-0.45750	-0.13048	0.00199
2204.000	0.93109	-0.48137	-0.11664	-0.07162
2205.000	1.01014	-0.52710	-0.11071	-0.07759
2206.000	1.04572	-0.44754	-0.05338	-0.02785
2207.000	0.91725	-0.44358	-0.14432	0.02387
2208.000	1.00026	-0.43362	-0.15223	-0.00995
2209.000	0.86784	-0.34015	-0.07513	-0.02785
2210.000	1.00224	-0.45749	-0.06129	0.10544
2211.000	1.00026	-0.48335	-0.17398	0.09151
2212.000	1.06351	-0.51715	-0.14432	0.03979
2213.000	1.07536	-0.36996	-0.17002	0.06366
2214.000	0.99038	-0.44954	-0.15618	0.01194
2215.000	0.87377	-0.47541	-0.18188	0.10544
2216.000	0.98643	-0.48733	-0.05931	-0.04775
2217.000	1.01805	-0.39782	-0.11071	-0.02984
2218.000	0.99236	-0.42766	-0.00395	-0.05570
2219.000	0.98643	-0.38191	-0.19770	0.06366
2220.000	0.95876	-0.34611	-0.01186	0.01393
2221.000	0.95678	-0.42169	-0.12653	-0.03581
2222.000	1.05758	-0.58875	0.03163	-0.08157
2223.000	0.97457	-0.45352	-0.14037	0.08753
2224.000	0.94690	-0.57286	-0.08897	0.05173
2225.000	0.98643	-0.59075	-0.15816	0.01989
2226.000	0.93306	-0.48734	-0.14630	0.03581
2227.000	1.02003	-0.57285	-0.19770	0.04576
2228.000	0.97259	-0.58877	-0.06920	0.02586
2229.000	1.06943	-0.53903	-0.07908	-0.09151
2230.000	0.94492	-0.52910	-0.17595	-0.02586
2231.000	1.03386	-0.49925	-0.15025	-0.02586
2232.000	1.05560	-0.54699	-0.07117	0.01790
2233.000	1.05758	-0.49527	-0.10083	-0.00398
2234.000	0.97654	-0.54501	-0.16014	0.02586
2235.000	0.95678	-0.49131	-0.14827	-0.09151
2236.000	1.00224	-0.45948	-0.13444	0.04974
2237.000	1.03979	-0.38389	0.02372	-0.12136
2238.000	1.03584	-0.31627	-0.08897	-0.03183
2239.000	0.97654	-0.54103	-0.12850	0.05371
2240.000	1.01410	-0.42765	0.00791	-0.14125
2241.000	1.00026	-0.48136	-0.12653	-0.04775
2242.000	0.97259	-0.45352	-0.10874	0.03780
2243.000	0.92318	-0.44358	-0.08501	-0.04178
2244.000	0.99631	-0.45749	-0.08303	-0.03581
2245.000	1.03781	-0.31428	-0.03954	-0.10146
2246.000	1.03584	-0.45749	-0.08699	-0.09151
2247.000	1.03584	-0.35804	-0.07315	0.01592
2248.000	1.11094	-0.43361	-0.08106	-0.11738
2249.000	0.99829	-0.42368	-0.13641	-0.03979
2250.000	0.90144	-0.35805	-0.19375	0.02984
2251.000	1.01607	-0.41373	-0.06524	0.15319
2252.000	1.03979	-0.41771	-0.12257	-0.01790
2253.000	0.96864	-0.51319	-0.00593	0.00796
2254.000	1.07932	-0.35007	-0.20561	-0.03382
2255.000	1.03979	-0.45152	-0.13641	-0.03780
2256.000	0.99631	-0.37395	-0.08106	-0.04377
2257.000	0.98050	-0.36600	-0.10676	-0.00597
2258.000	0.96271	-0.38589	-0.08897	-0.06565
2259.000	1.05758	-0.37991	-0.08303	-0.08157
2260.000	1.02200	-0.38389	-0.08501	-0.09947
2261.000	1.03386	-0.39981	-0.06326	-0.06565
2262.000	0.96864	-0.27251	-0.07513	-0.00995
2263.000	1.04572	-0.38190	-0.06920	0.04178
2264.000	0.96666	-0.30235	-0.08501	-0.07361
2265.000	1.05362	-0.43163	0.03954	-0.03780
2266.000	0.98445	-0.28246	-0.11269	-0.08555
2267.000	1.08129	-0.21880	-0.04547	-0.07958
2268.000	1.02398	-0.24864	-0.06722	0.03979
2269.000	1.01212	-0.25660	-0.09292	-0.15915
2270.000	1.10896	-0.18697	-0.11269	-0.16512
2271.000	1.04374	-0.24466	-0.02570	-0.08157
2272.000	1.11291	-0.36797	-0.16211	-0.07759
2273.000	1.02595	-0.26853	-0.11269	0.02188
2274.000	0.99038	-0.24068	0.00000	-0.12732
2275.000	1.05560	-0.33814	-0.16607	-0.09151
2276.000	1.08920	-0.20289	-0.02768	-0.09748
2277.000	1.14651	-0.27250	-0.16607	-0.08555
2278.000	1.08524	-0.23670	-0.11467	-0.09947
2279.000	1.12279	-0.19294	-0.06524	-0.04974
2280.000	1.07141	-0.19294	-0.03361	-0.06764
2281.000	0.98247	-0.21880	-0.10083	-0.12732
2282.000	1.07141	-0.18101	-0.09490	-0.10146
2283.000	1.05560	-0.24466	-0.10874	-0.09151
2284.000	1.10698	-0.35007	-0.11269	-0.03581
2285.000	0.99433	-0.29240	-0.07117	-0.04576
2286.000	1.10106	-0.22476	0.00593	-0.08157
2287.000	1.05362	-0.27052	-0.02175	-0.13727
2288.000	1.18406	-0.28840	-0.02570	-0.02387
2289.000	0.94887	-0.38788	-0.07315	-0.03382
2290.000	1.15046	-0.21283	-0.05338	-0.12533
2291.000	1.07536	-0.19692	-0.10083	-0.15915
2292.000	0.97062	-0.15118	-0.08106	-0.07759
2293.000	1.02200	-0.25063	-0.01779	0.04974
2294.000	1.08327	-0.27648	-0.01384	-0.05968
2295.000	1.01410	-0.24665	-0.11269	-0.01592
2296.000	0.98445	-0.18897	-0.07513	-0.11937
2297.000	1.12477	-0.29637	-0.02966	-0.11141
2298.000	1.07932	-0.20885	-0.10478	-0.15915
2299.000	1.02003	-0.15515	-0.09292	0.00597
2300.000	0.89946	-0.29042	-0.10083	-0.11738
2301.000	0.98050	-0.24665	-0.09490	-0.07958
2302.000	0.94690	-0.39584	-0.09490	-0.12732
2303.000	1.00817	-0.23472	-0.06920	-0.05968
2304.000	1.03781	-0.35605	-0.07315	-0.01592
2305.000	1.01805	-0.27251	-0.06722	-0.09350
2306.000	0.96073	-0.16908	-0.09094	-0.00199
2307.000	0.74726	-0.37796	-0.14432	-0.10146
2308.000	0.94492	-0.31031	0.01186	-0.04576
2309.000	1.05165	-0.28444	-0.03361	-0.10146
2310.000	1.04967	-0.35207	-0.03163	0.00796
2311.000	1.01607	-0.30234	-0.02966	-0.07162
2312.000	0.87377	-0.45154	-0.14827	-0.05570
2313.000	0.94887	-0.23671	-0.08303	0.03183
2314.000	1.08722	-0.29239	-0.14630	-0.07759
2315.000	1.00224	-0.21284	-0.08897	-0.11141
2316.000	0.98050	-0.20886	-0.08699	-0.00796
2317.000	0.94492	-0.31826	-0.21549	0.00597
2318.000	0.93702	-0.25859	-0.02175	-0.02188
2319.000	0.88958	-0.34214	-0.00198	-0.05570
2320.000	0.91725	-0.33617	-0.13444	0.03780
2321.000	1.10106	-0.33615	0.05338	-0.06366
2322.000	0.92516	-0.28843	-0.04547	0.06963
2323.000	1.05955	-0.20885	0.04547	-0.07560
2324.000	1.07536	-0.29438	0.00198	0.05968
2325.000	1.08327	-0.23073	0.07513	-0.11141
2326.000	1.10896	-0.27250	0.02372	-0.16114
2327.000	1.03188	-0.33417	-0.03361	0.02586
2328.000	1.17615	-0.24664	-0.13048	-0.10544
2329.000	1.06351	-0.37991	0.02768	-0.07759
2330.000	1.07141	-0.32422	-0.07315	0.01194
2331.000	1.03386	-0.30632	0.00198	-0.12732
2332.000	1.06153	-0.33615	-0.15421	0.04178
2333.000	1.18010	-0.18498	-0.13246	-0.05968
2334.000	0.95085	-0.43960	-0.04349	0.02785
2335.000	1.03584	-0.41174	0.10083	-0.11141
2336.000	1.01607	-0.28842	-0.05931	-0.01393
2337.000	1.06943	-0.38190	-0.06920	-0.02387
2338.000	1.09513	-0.34609	-0.11862	-0.08555
2339.000	1.09710	-0.40775	-0.05733	0.09151
2340.000	1.07339	-0.38986	-0.13839	0.00995
2341.000	1.06351	-0.40975	-0.08106	-0.00796
2342.000	1.08722	-0.37991	-0.02372	-0.02387
2343.000	1.06351	-0.41571	-0.14037	0.00000
2344.000	1.03781	-0.37793	-0.00198	0.04377
2345.000	1.10896	-0.35803	-0.13246	0.06565
2346.000	0.94492	-0.48137	-0.08303	0.13926
2347.000	1.03781	-0.32820	-0.11862	-0.01194
2348.000	1.18998	-0.40177	-0.08303	0.01790
2349.000	0.98050	-0.42169	-0.04152	0.05570
2350.000	0.97457	-0.34213	-0.01779	0.00796
2351.000	1.04572	-0.33019	-0.01977	0.05968
2352.000	0.95678	-0.46943	-0.02966	0.02387
2353.000	1.16034	-0.39780	-0.03559	0.05968
2354.000	1.11094	-0.38985	-0.10478	0.00597
2355.000	0.99829	-0.48136	0.01779	-0.01790
2356.000	1.00619	-0.41572	0.06129	0.05769
2357.000	1.11489	-0.42565	-0.05536	0.02785
2358.000	1.02003	-0.36798	-0.08303	0.07958
2359.000	1.04374	-0.39781	0.02175	0.01194
2360.000	1.03386	-0.45152	-0.00791	0.10544
2361.000	1.04177	-0.51715	0.08699	0.07958
2362.000	1.03386	-0.41771	-0.00593	0.12533
2363.000	1.06943	-0.43958	-0.10676	0.13727
2364.000	1.03386	-0.42765	-0.09490	0.08157
2365.000	1.11094	-0.48134	0.01977	-0.01790
2366.000	1.08327	-0.39980	0.02175	0.00398
2367.000	1.06153	-0.40577	-0.03361	0.06167
2368.000	1.03584	-0.51715	-0.06326	0.01592
2369.000	1.09908	-0.48731	-0.05536	0.01989
2370.000	1.11884	-0.42963	0.01977	0.08356
2371.000	1.08327	-0.47140	-0.03361	0.06764
2372.000	1.10106	-0.41372	0.02175	0.09947
2373.000	1.08920	-0.41372	-0.00791	0.11738
2374.000	1.15046	-0.49327	-0.10478	0.01989
2375.000	1.00619	-0.43362	0.00198	0.04377
2376.000	1.10303	-0.42167	-0.03163	-0.02586
2377.000	1.08129	-0.50322	0.03163	-0.14722
2378.000	0.99236	-0.53705	-0.08699	-0.00597
2379.000	0.97852	-0.38589	-0.16211	-0.06366
2380.000	1.08920	-0.31825	-0.18386	0.06764
2381.000	0.93702	-0.41772	0.03163	0.05570
2382.000	1.14256	-0.12531	0.14827	0.25266
2383.000	1.16627	-0.08354	0.24910	0.40782
2384.000	1.33028	0.07558	0.41516	0.63459
2385.000	1.50415	0.12131	0.56540	0.91502
2386.000	1.74120	0.22470	0.75517	1.09396
2387.000	1.98807	0.46921	1.24532	1.15742
2388.000	2.16379	0.65801	1.31645	1.39395
2389.000	2.19340	0.73551	1.55354	1.52100
2390.000	2.36908	0.88050	1.96635	1.58027
2391.000	2.71437	1.12263	1.95450	1.75907
2392.000	2.84849	1.23770	2.11641	1.96544
2393.000	2.93920	1.42029	2.17563	2.31476
2394.000	2.78932	1.49395	2.35921	2.33233
2395.000	2.81299	1.55150	2.54076	2.46693
2396.000	2.98455	1.63464	2.58417	2.51247
2397.000	3.14226	1.81897	2.69267	2.68082
2398.000	3.29598	1.93972	2.67492	2.70862
2399.000	3.42404	2.00096	2.86821	2.94801
2400.000	3.42995	2.02078	2.92342	3.04099
2401.000	3.49692	2.13566	3.07327	3.17131
2402.000	3.46344	2.17539	3.17576	3.07395
2403.000	3.49101	2.25266	3.06144	3.35945
2404.000	3.68991	2.22442	3.03581	3.42882
2405.000	3.71353	2.32941	3.13832	3.48193
2406.000	3.63675	2.38114	3.08706	3.53158
2407.000	3.59146	2.42090	3.06538	3.63455
2408.000	3.44965	2.48669	2.83074	3.47697
2409.000	3.47723	2.45688	2.87413	3.74796
2410.000	3.37676	2.51661	2.73015	3.55843
2411.000	3.45162	2.58181	2.67492	3.57245
2412.000	3.38267	2.46704	2.60192	3.43010
2413.000	3.44177	2.40940	2.61968	3.38252
2414.000	3.49298	2.38350	2.59206	3.32318
2415.000	3.48511	2.35973	2.66900	3.18233
2416.000	3.48511	2.32206	2.58811	3.22414
2417.000	3.44177	2.35587	2.50919	3.12725
2418.000	3.53631	2.34573	2.59798	3.16072
2419.000	3.49495	2.23679	2.58022	2.99826
2420.000	3.58752	2.25639	2.57430	2.97846
2421.000	3.58161	2.37732	2.62362	2.94663
2422.000	3.60721	2.47636	2.64927	3.06152
2423.000	3.43192	2.54025	2.68873	3.03962
2424.000	3.56979	2.45267	2.66308	3.02581
2425.000	3.48708	2.43902	2.73607	3.08904
2426.000	3.54616	2.54390	2.63349	3.04570
2427.000	3.64069	2.63676	2.63349	3.10515
2428.000	3.53828	2.52411	2.72226	3.00387
2429.000	3.65447	2.48415	2.71634	3.07324
2430.000	3.56586	2.49034	2.61771	3.02989
2431.000	3.59933	2.44268	2.73804	3.06327
2432.000	3.54813	2.52210	2.72423	3.08709
2433.000	3.56389	2.48242	2.79524	3.03341
2434.000	3.56192	2.47053	2.80116	3.20971
2435.000	3.62099	2.48226	2.69070	3.11293
2436.000	3.57176	2.41699	2.75579	3.05134
2437.000	3.55207	2.53992	2.73212	3.01771
2438.000	3.58358	2.58739	2.68675	3.06737
2439.000	3.65447	2.57530	2.70056	3.09309
2440.000	3.70566	2.70194	2.67294	3.09712
2441.000	3.61312	2.53381	2.74198	3.16629
2442.000	3.59146	2.48829	2.60390	3.13495
2443.000	3.57176	2.58544	2.61771	3.19831
2444.000	3.61903	2.50407	2.59995	3.05371
2445.000	3.57373	2.57949	2.61376	3.09331
2446.000	3.62493	2.52783	2.74001	3.10884
2447.000	3.60130	2.58338	2.67492	3.14665
2448.000	3.66234	2.48809	2.61573	3.06556
2449.000	3.66234	2.50989	2.66900	3.15856
2450.000	3.55207	2.55379	2.67689	3.15061
2451.000	3.65644	2.57133	2.78735	3.05720
2452.000	3.63675	2.43466	2.65322	3.04169
2453.000	3.63675	2.49807	2.63546	3.07740
2454.000	3.65447	2.54756	2.61771	3.10321
2455.000	3.55995	2.48045	2.68083	3.13079
2456.000	3.60721	2.52392	2.68478	3.04557
2457.000	3.61115	2.61704	2.67492	2.98615
2458.000	3.59540	2.44071	2.70056	3.05941
2459.000	3.57176	2.44870	2.66308	2.99807
2460.000	3.56586	2.51809	2.79918	2.99575
2461.000	3.60130	2.52790	2.69267	3.08915
2462.000	3.63281	2.58725	2.70253	3.10894
2463.000	3.64856	2.48813	2.59600	3.15676
2464.000	3.58752	2.50812	2.60192	3.07352
2465.000	3.68006	2.57919	2.63152	3.14280
2466.000	3.65644	2.51783	2.83271	2.93819
2467.000	3.70566	2.52760	2.80707	3.10272
2468.000	3.57964	2.46256	2.68281	3.11691
2469.000	3.65447	2.46235	2.67492	3.09910
2470.000	3.56192	2.47251	2.71240	2.95434
2471.000	3.63084	2.47629	2.59206	3.04184
2472.000	3.55798	2.56963	2.71240	3.13863
2473.000	3.57176	2.56761	2.74790	3.14250
2474.000	3.65053	2.46831	2.69662	3.02771
2475.000	3.63478	2.51988	2.71831	3.18220
2476.000	3.53238	2.39727	2.62954	3.19828
2477.000	3.56586	2.41701	2.68083	3.00595
2478.000	3.56192	2.37936	2.67492	2.93858
2479.000	3.61115	2.50211	2.57035	3.07558
2480.000	3.58949	2.42091	2.73015	3.10887
2481.000	3.54025	2.32391	2.68478	3.23776
2482.000	3.62296	2.40497	2.68083	3.11890
2483.000	3.53435	2.36555	2.66703	3.10110
2484.000	3.60130	2.39908	2.76763	3.03348
2485.000	3.52647	2.37548	2.74987	3.11080
2486.000	3.52253	2.38541	2.72818	3.03358
2487.000	3.54025	2.29219	2.70451	3.15648
2488.000	3.67022	2.46231	2.68083	3.20409
2489.000	3.56979	2.41502	2.72029	3.11484
2490.000	3.64659	2.40490	2.64533	3.02387
2491.000	3.57570	2.31787	2.57825	3.08745
2492.000	3.60721	2.44465	2.56838	3.11918
2493.000	3.57570	2.36743	2.68675	2.98414
2494.000	3.54419	2.38931	2.62560	3.17848
2495.000	3.54025	2.45672	2.61179	3.17455
2496.000	3.62493	2.41091	2.63349	3.25770
2497.000	3.52844	2.40918	2.62165	3.11310
2498.000	3.58358	2.45660	2.69267	3.16840
2499.000	3.52056	2.50632	2.61771	3.19039
2500.000	3.53828	2.48249	2.64335	3.18042
2501.000	3.58752	2.44470	2.64138	3.11702
2502.000	3.64265	2.44257	2.64927	3.10907
2503.000	3.56783	2.40907	2.70056	3.08120
2504.000	3.63084	2.50800	2.59403	3.07949
2505.000	3.68006	2.54947	2.53879	3.22030
2506.000	3.60918	2.40500	2.66111	3.11301
2507.000	3.57570	2.47644	2.53484	3.10935
2508.000	3.61115	2.41292	2.69267	3.07528
2509.000	3.60721	2.42086	2.62757	3.14281
2510.000	3.53435	2.44088	2.71634	3.12079
2511.000	3.50874	2.47464	2.73804	3.06922
2512.000	3.60524	2.48032	2.70845	3.12874
2513.000	3.59343	2.55170	2.66505	3.22196
2514.000	3.67219	2.47618	2.62954	3.08336
2515.000	3.57373	2.40113	2.65124	3.12690
2516.000	3.60130	2.56356	2.67097	3.21204
2517.000	3.56192	2.48837	2.58022	3.12708
2518.000	3.63675	2.45646	2.68478	3.12880
2519.000	3.60327	2.45655	2.61573	3.17256
2520.000	3.66038	2.47026	2.67689	3.09513
2521.000	3.56783	2.39520	2.59995	3.12901
2522.000	3.53435	2.48052	2.68083	3.03369
2523.000	3.62493	2.46442	2.63743	3.19034
2524.000	3.58358	2.38525	2.66111	3.11697
2525.000	3.47920	2.41723	2.69662	3.12679
2526.000	3.60327	2.42087	2.65322	3.11501
2527.000	3.55207	2.34172	2.67492	3.20213
2528.000	3.53631	2.43889	2.76960	3.14641
2529.000	3.61706	2.40300	2.72423	3.16634
2530.000	3.62493	2.34946	2.75776	3.21379
2531.000	3.66038	2.38108	2.71240	3.10495
2532.000	3.59343	2.42288	2.62165	3.18245
2533.000	3.59343	2.36144	2.68478	3.08322
2534.000	3.62690	2.24242	2.73409	3.06130
2535.000	3.57570	2.38130	2.63546	3.14477
2536.000	3.57570	2.36545	2.70253	3.19413
2537.000	3.56389	2.33773	2.70056	3.04157
2538.000	3.53435	2.34177	2.75382	3.00973
2539.000	3.47132	2.34391	2.66308	3.04365
2540.000	3.45950	2.33006	2.68281	3.07927
2541.000	3.50874	2.45283	2.56246	3.05578
2542.000	3.53828	2.43492	2.59600	3.14883
2543.000	3.55601	2.30999	2.75579	3.13852
2544.000	3.61509	2.40697	2.62362	3.14282
2545.000	3.46541	2.27651	2.71634	3.04153
2546.000	3.59146	2.34955	2.60981	3.08341
2547.000	3.53631	2.38141	2.62165	3.06753
2548.000	3.57767	2.40112	2.68873	3.10897
2549.000	3.49889	2.21299	2.64335	3.10314
2550.000	3.68400	2.33147	2.65519	3.07141
2551.000	3.54616	2.34372	2.65322	2.99016
2552.000	3.58358	2.29010	2.71042	2.98804
2553.000	3.55207	2.30009	2.71042	3.03362
2554.000	3.52450	2.37351	2.68675	3.06737
2555.000	3.55995	2.41901	2.66505	3.17838
2556.000	3.62296	2.38713	2.70056	3.14064
2557.000	3.46738	2.34590	2.63152	2.89111
2558.000	3.58161	2.32777	2.67294	3.02381
2559.000	3.57570	2.37536	2.81102	3.11064
2560.000	3.47920	2.42714	2.72620	2.98007
2561.000	3.48511	2.32603	2.67097	2.98814
2562.000	3.58161	2.31191	2.60390	3.11909
2563.000	3.44374	2.36380	2.62954	3.09525
2564.000	3.51859	2.33982	2.61376	3.01999
2565.000	3.58752	2.38920	2.69070	2.99007
2566.000	3.52844	2.32989	2.79327	3.00963
2567.000	3.59933	2.37926	2.77552	3.02355
2568.000	3.44571	2.43912	2.71437	2.90875
2569.000	3.53828	2.35761	2.70451	3.09903
2570.000	3.59146	2.36937	2.76171	2.97206
2571.000	3.43980	2.35786	2.71042	3.03758
2572.000	3.52647	2.38936	2.69662	2.99402
2573.000	3.46147	2.34591	2.69859	2.97816
2574.000	3.52253	2.38739	2.75185	2.92254
2575.000	3.38464	2.39963	2.68675	3.00395
2576.000	3.54813	2.35164	2.70648	2.95634
2577.000	3.46344	2.50052	2.65913	2.97826
2578.000	3.45359	2.37369	2.66900	3.01985
2579.000	3.42404	2.36781	2.75579	3.02756
2580.000	3.51071	2.35174	2.75185	3.06918
2581.000	3.35903	2.28668	2.66111	3.08527
2582.000	3.44177	2.31424	2.73804	3.05139
2583.000	3.45162	2.32215	2.62757	3.07742
2584.000	3.50874	2.42707	2.71831	2.95433
2585.000	3.45556	2.34394	2.67294	3.04362
2586.000	3.45950	2.44503	2.66505	2.95842
2587.000	3.49101	2.42513	2.66308	2.99212
2588.000	3.47132	2.40139	2.75185	3.02757
2589.000	3.50480	2.39933	2.69859	2.94050
2590.000	3.58358	2.37137	2.72423	3.00782
2591.000	3.48511	2.36568	2.74198	2.99589
2592.000	3.49298	2.37755	2.74001	3.05931
2593.000	3.45556	2.42720	2.75776	2.91261
2594.000	3.42798	2.39357	2.62757	3.12300
2595.000	3.47526	2.41328	2.72620	3.10888
2596.000	3.55207	2.40317	2.64138	2.98226
2597.000	3.50480	2.33787	2.61771	2.94664
2598.000	3.41419	2.33413	2.73607	3.01968
2599.000	3.51662	2.40524	2.73212	2.98601
2600.000	3.47526	2.33200	2.74198	3.04939
2601.000	3.41616	2.51650	2.67097	3.08128
2602.000	3.43980	2.33407	2.67097	3.00399
2603.000	3.50480	2.46672	2.74790	2.97209
2604.000	3.40237	2.40355	2.80905	2.96203
2605.000	3.41025	2.48084	2.71437	2.99596
2606.000	3.52056	2.51623	2.64730	2.99414
2607.000	3.43389	2.49862	2.67886	2.84937
2608.000	3.46541	2.36969	2.70845	2.85723
2609.000	3.48904	2.34584	2.65913	2.92276
2610.000	3.44571	2.38560	2.72423	2.94441
2611.000	3.48904	2.43505	2.74593	2.80164
2612.000	3.43586	2.41140	2.81102	2.99571
2613.000	3.38464	2.31636	2.67689	3.12882
2614.000	3.46147	2.29635	2.80313	2.91052
2615.000	3.43192	2.37572	2.71240	3.01776
2616.000	3.39449	2.38176	2.77157	2.91258
2617.000	3.42995	2.36978	2.83074	2.88468
2618.000	3.40828	2.41741	2.74987	2.91660
2619.000	3.44965	2.47479	2.69070	2.91674
2620.000	3.47329	2.32209	2.69859	2.99005
2621.000	3.36888	2.28071	2.72818	3.00781
2622.000	3.34524	2.25102	2.73409	2.95231
2623.000	3.46541	2.39745	2.60784	2.94468
2624.000	3.44768	2.38163	2.73804	2.91861
2625.000	3.41419	2.28258	2.81891	2.85697
2626.000	3.35312	2.39971	2.70056	2.82157
2627.000	3.37676	2.32431	2.76368	3.08699
2628.000	3.30780	2.21739	2.75776	2.95027
2629.000	3.35115	2.36006	2.69267	2.94250
2630.000	3.38070	2.30249	2.83468	3.02141
2631.000	3.25460	2.33253	2.78143	2.88877
2632.000	3.36494	2.37589	2.78143	2.95616
2633.000	3.39843	2.27271	2.76763	2.94430
2634.000	3.33341	2.35614	2.71240	2.91669
2635.000	3.34524	2.34818	2.86821	2.90639
2636.000	3.38070	2.42145	2.75185	2.97208
2637.000	3.34721	2.40765	2.70253	2.91076
2638.000	3.31371	2.28282	2.72818	2.94440
2639.000	3.36888	2.28666	2.71634	2.95830
2640.000	3.36494	2.34615	2.76960	2.91655
2641.000	3.36691	2.22122	2.78735	3.03739
2642.000	3.42601	2.28057	2.81693	2.90850
2643.000	3.28810	2.31460	2.66111	2.95050
2644.000	3.29007	2.28486	2.79327	2.78567
2645.000	3.29992	2.35423	2.75185	2.84325
2646.000	3.31371	2.25704	2.71437	2.97812
2647.000	3.28218	2.27099	2.84060	2.80736
2648.000	3.34918	2.30455	2.83074	2.84703
2649.000	3.26445	2.35035	2.82088	2.90453
2650.000	3.38267	2.36593	2.73804	2.95428
2651.000	3.23489	2.39603	2.70451	2.95635
2652.000	3.35706	2.28272	2.76960	3.09886
2653.000	3.37282	2.38380	2.79129	3.00766
2654.000	3.37479	2.29656	2.68675	2.93459
2655.000	3.38267	2.39963	2.69859	2.88897
2656.000	3.32159	2.41366	2.69267	2.96232
2657.000	3.44374	2.34596	2.84257	2.98771
2658.000	3.28218	2.35626	2.77157	2.98393
2659.000	3.25854	2.30872	2.82680	2.92235
2660.000	3.38464	2.34015	2.78143	2.90859
2661.000	3.29007	2.34831	2.74001	2.89680
2662.000	3.40828	2.38371	2.76565	2.82141
2663.000	3.35509	2.44728	2.83863	2.98375
2664.000	3.30386	2.38991	2.71042	2.89291
2665.000	3.33933	2.41957	2.76368	2.92647
2666.000	3.35706	2.39772	2.68083	2.82558
2667.000	3.32750	2.46916	2.70845	2.96625
2668.000	3.31174	2.37007	2.70056	2.98410
2669.000	3.35903	2.36401	2.74987	2.91263
2670.000	3.31765	2.30859	2.77749	2.85707
2671.000	3.46147	2.34393	2.83074	2.79549
2672.000	3.20927	2.39609	2.77157	2.92843
2673.000	3.27036	2.51688	2.77749	2.95815
2674.000	3.38858	2.43332	2.71240	2.94443
2675.000	3.32159	2.50287	2.82088	3.00758
2676.000	3.37676	2.40560	2.74987	2.90470
2677.000	3.34918	2.40765	2.82088	2.75785
2678.000	3.31765	2.43944	2.58811	2.95662
2679.000	3.26839	2.45146	2.72226	2.99198
2680.000	3.28218	2.40781	2.91948	2.87455
2681.000	3.37676	2.52454	2.67294	2.96039
2682.000	3.39843	2.44321	2.65519	2.89105
2683.000	3.36297	2.53250	2.81299	2.98778
2684.000	3.32750	2.48105	2.81891	2.91841
2685.000	3.36100	2.46114	2.73409	2.97213
2686.000	3.41616	2.43920	2.72818	2.98800
2687.000	3.38858	2.47297	2.72818	2.99989
2688.000	3.38858	2.44125	2.80905	2.95212
2689.000	3.32159	2.47710	2.71240	2.95831
2690.000	3.31371	2.44144	2.74987	2.99191
2691.000	3.45950	2.50252	2.72226	3.04350
2692.000	3.40631	2.63544	2.68478	2.96432
2693.000	3.40828	2.57797	2.81102	2.91050
2694.000	3.38267	2.58993	2.74396	3.06524
2695.000	3.39449	2.66718	2.83074	3.00557
2696.000	3.37676	2.58003	2.80707	2.96402
2697.000	3.33538	2.64555	2.68083	2.95640
2698.000	3.55010	2.57758	2.77946	2.86301
2699.000	3.52844	2.39332	2.94511	2.84872
2700.000	3.59540	2.27223	2.98849	2.69401
2701.000	3.57964	2.18305	2.95695	2.52159
2702.000	3.52647	2.07015	3.17182	2.43781
2703.000	3.69385	2.07968	3.32947	2.39976
2704.000	3.64265	1.95488	3.32553	2.30460
2705.000	3.63281	1.78235	3.46147	2.15557
2706.000	3.60130	1.73679	3.44965	2.17939
2707.000	3.58555	1.76856	3.58161	2.02045
2708.000	3.64856	1.74463	3.53041	1.95115
2709.000	3.55798	1.66545	3.47526	1.94333
2710.000	3.57964	1.45113	3.43389	1.76884
2711.000	3.50677	1.51673	3.54616	1.77260
2712.000	3.56192	1.59005	3.35312	1.81264
2713.000	3.61115	1.64552	3.33736	1.74918
2714.000	3.55798	1.52855	3.34524	1.61621
2715.000	3.63281	1.53239	3.32159	1.55870
2716.000	3.69975	1.55410	3.33144	1.55273
2717.000	3.66038	1.56012	3.39843	1.37599
2718.000	3.78834	1.35556	3.51662	1.34605
2719.000	3.81589	1.23648	3.51859	1.19719
2720.000	3.99497	1.20249	3.60327	1.25662
2721.000	3.98710	1.09339	3.64856	1.01444
2722.000	4.06972	0.94648	3.73322	1.01235
2723.000	4.02448	0.93066	3.83164	1.00827
2724.000	4.05792	0.86119	3.92020	0.89903
2725.000	4.19363	0.74598	3.75487	0.74837
2726.000	4.13660	0.60716	3.99497	0.69458
2727.000	4.05399	0.71635	3.87494	0.63514
2728.000	4.11693	0.56352	3.93988	0.37511
2729.000	4.14643	0.55755	3.88478	0.46246
2730.000	4.13660	0.57145	3.82967	0.39699
2731.000	4.12283	0.54963	3.77456	0.35732
2732.000	4.05399	0.50206	3.87691	0.35330
2733.000	4.18773	0.52578	3.70960	0.39109
2734.000	4.15233	0.59127	3.69581	0.39904
2735.000	4.09726	0.66076	3.68794	0.56580
2736.000	4.16806	0.74799	3.68991	0.64917
2737.000	4.16610	0.77378	3.74503	0.77219
2738.000	4.17593	0.91859	3.63675	0.77030
2739.000	4.12676	0.75200	3.63478	0.86360
2740.000	4.15233	0.82538	3.63478	0.89337
2741.000	4.10709	0.77582	3.65447	0.75242
2742.000	4.17986	0.83725	3.65447	0.83182
2743.000	4.11889	0.91468	3.70763	0.80200
2744.000	4.28997	0.83713	3.57767	0.95695
2745.000	4.10513	0.67861	3.64659	0.82587
2746.000	4.22312	0.82729	3.64659	0.73456
2747.000	4.17789	0.74401	3.62099	0.74451
2748.000	4.17986	0.79956	3.74306	0.91907
2749.000	4.11693	0.71034	3.64069	0.90726
2750.000	4.20346	0.71820	3.58752	0.81005
2751.000	4.10709	0.78376	3.68597	0.90126
2752.000	4.26048	0.72013	3.52056	0.77437
2753.000	4.12873	0.82143	3.66038	0.72661
2754.000	4.20542	0.79358	3.66234	0.94694
2755.000	4.18969	0.77574	3.67219	0.75042
2756.000	4.15430	0.77578	3.61115	0.79017
2757.000	4.17593	0.72616	3.67613	0.82386
2758.000	4.14250	0.73016	3.74700	0.77021
2759.000	4.13660	0.77580	3.68400	0.81790
2760.000	4.21526	0.82928	3.61312	0.86560
2761.000	4.17396	0.80552	3.56192	0.74059
2762.000	4.21722	0.84118	3.60524	0.84576
2763.000	4.21526	0.76977	3.58555	0.81402
2764.000	4.23295	0.78562	3.62493	0.86956
2765.000	4.28211	0.78359	3.65447	0.93901
2766.000	4.25261	0.83915	3.60721	0.98669
2767.000	4.27228	0.88475	3.50874	1.04238
2768.000	4.12676	0.79168	3.60130	0.87554
2769.000	4.18576	0.80154	3.58949	0.94701
2770.000	4.22116	0.78166	3.61312	0.84377
2771.000	4.19953	0.89475	3.49495	0.93321
2772.000	4.14250	0.85316	3.65447	0.77823
2773.000	4.19363	0.91658	3.57767	0.88549
2774.000	4.17593	0.83924	3.50283	0.75254
2775.000	4.12676	0.85318	3.61903	0.93309
2776.000	4.14446	0.86308	3.58358	0.86762
2777.000	4.09333	0.93058	3.59343	0.91922
2778.000	4.19559	0.77375	3.63281	0.96285
2779.000	4.16413	0.81346	3.54813	0.93316
2780.000	4.16216	0.91067	3.50677	0.90938
2781.000	4.11889	0.80954	3.52450	0.87363
2782.000	4.14053	0.78571	3.61312	0.96485
2783.000	4.17789	0.79163	3.55404	0.93117
2784.000	4.17593	0.87494	3.58752	0.93908
2785.000	4.07562	0.73221	3.53631	0.83788
2786.000	4.11299	0.76392	3.62887	0.92911
2787.000	4.17003	0.89280	3.60721	0.95692
2788.000	4.10906	0.80360	3.56192	0.91925
2789.000	4.21329	0.82730	3.52450	0.89745
2790.000	4.25458	0.89072	3.57176	0.89542
2791.000	4.16216	0.81545	3.58161	0.83387
2792.000	4.13660	0.84325	3.56192	0.84382
2793.000	4.17789	0.81741	3.65250	0.77029
2794.000	4.10906	0.71829	3.52056	1.02053
2795.000	4.18183	0.82535	3.57373	0.84579
2796.000	4.25851	0.84113	3.50086	0.88159
2797.000	4.22705	0.82331	3.60721	0.80804
2798.000	4.26638	0.88674	3.57964	0.86365
2799.000	4.19363	0.90666	3.62099	0.91522
2800.000	4.14053	0.92656	3.53828	0.98081
2801.000	4.25458	0.82328	3.52450	0.73863
2802.000	4.11103	0.88692	3.57373	0.96489
2803.000	4.17986	0.88684	3.50874	0.94511
2804.000	4.27817	0.93631	3.65447	0.90129
2805.000	4.15430	0.88489	3.56389	0.95101
2806.000	4.14250	0.92656	3.51268	0.98481
2807.000	4.17396	0.90867	3.59540	0.93311
2808.000	4.20346	0.80152	3.51071	0.89945
2809.000	4.21919	0.88085	3.58752	0.93114
2810.000	4.05202	0.85524	3.54419	0.90736
2811.000	4.11299	0.98611	3.49692	0.85579
2812.000	4.24475	0.88875	3.57373	0.93909
2813.000	4.24672	0.89668	3.45162	0.94318
2814.000	4.18183	0.94238	3.61509	0.91721
2815.000	4.17396	0.96223	3.59343	0.88746
2816.000	4.18773	0.88882	3.59540	0.95495
2817.000	4.13856	0.98607	3.62099	0.86957
2818.000	4.29783	0.88274	3.44768	0.89951
2819.000	4.21722	0.88482	3.58752	0.96091
2820.000	4.20149	0.88682	3.52844	1.08801
2821.000	4.19166	0.76186	3.50874	0.92724
2822.000	4.21722	0.90862	3.43783	1.00474
2823.000	4.26048	0.97005	3.64462	0.95887
2824.000	4.17986	0.86502	3.59736	0.92120
2825.000	4.16216	0.84322	3.54813	0.89147
2826.000	4.21919	0.88283	3.55798	0.96491
2827.000	4.25458	0.88477	3.50874	0.92923
2828.000	4.17396	0.92057	3.53828	0.92126
2829.000	4.22116	0.88084	3.62887	0.92117
2830.000	4.21526	0.90664	3.52647	0.66914
2831.000	4.21329	0.93838	3.57964	0.91129
2832.000	4.06775	0.84729	3.44571	0.88363
2833.000	4.14250	0.91466	3.54813	0.88552
2834.000	4.25065	0.96213	3.62887	0.94499
2835.000	4.20542	0.92053	3.65250	0.76830
2836.000	4.33322	0.91443	3.38464	0.83405
2837.000	4.24082	0.88677	3.53041	0.91134
2838.000	4.21919	0.89275	3.44177	0.82804
2839.000	4.23885	0.93835	3.58161	0.82990
2840.000	4.22509	0.96018	3.46147	0.92134
2841.000	4.30176	0.96405	3.52056	0.91532
2842.000	4.22509	0.98597	3.42207	0.94718
2843.000	4.19166	0.92253	3.45753	0.97097
2844.000	4.29980	0.99579	3.49101	0.95108
2845.000	4.21526	1.00185	3.54222	0.97684
2846.000	4.15430	0.95233	3.56586	0.85771
2847.000	4.10119	0.92264	3.62099	0.90728
2848.000	4.29783	0.92042	3.56192	0.90139
2849.000	4.24278	0.97801	3.47526	0.89750
2850.000	4.19953	0.86500	3.57570	0.88549
2851.000	4.27228	1.02557	3.56389	1.03438
2852.000	4.20936	0.99789	3.51662	0.93915
2853.000	4.22902	0.94431	3.53435	0.91928
2854.000	4.29390	0.96604	3.59540	0.93510
2855.000	4.23885	0.97008	3.51268	0.90143
2856.000	4.23099	1.03158	3.48117	0.90742
2857.000	4.21329	0.98201	3.59343	0.89937
2858.000	4.30176	0.98587	3.45556	1.02854
2859.000	4.16413	0.97811	3.60721	0.97081
2860.000	4.23295	0.92844	3.44177	0.97694
2861.000	4.17986	0.99594	3.55995	0.89345
2862.000	4.20149	0.87690	3.52056	0.87165
2863.000	4.26245	0.94823	3.56783	0.93314
2864.000	4.26834	0.99781	3.48117	1.00668
2865.000	4.26048	0.91849	3.60721	0.94501
2866.000	4.26834	0.96211	3.56783	0.87557
2867.000	4.17986	0.98007	3.50677	0.86769
2868.000	4.19363	1.00584	3.52253	0.90539
2869.000	4.24082	0.92644	3.48314	0.90345
2870.000	4.28800	0.94027	3.45556	0.85582
2871.000	4.21329	1.01970	3.50874	0.93121
2872.000	4.34305	0.88864	3.55798	0.93911
2873.000	4.22116	0.99589	3.39449	0.90155
2874.000	4.19363	0.99394	3.56192	0.89741
2875.000	4.27228	1.06127	3.48511	0.90146
2876.000	4.27621	0.90260	3.49889	1.04835
2877.000	4.23099	0.98397	3.47920	0.85779
2878.000	4.07759	0.91870	3.47132	0.93125
2879.000	4.14643	1.08128	3.41025	0.97896
2880.000	4.01858	0.97630	3.55207	0.99668
2881.000	4.06775	1.06948	3.44571	1.07421
2882.000	4.11693	1.11107	3.81393	1.07378
2883.000	4.29587	1.03347	3.89462	0.88715
2884.000	4.50027	0.94000	4.14446	1.06541
2885.000	4.70455	0.94171	4.33518	1.19999
2886.000	4.77916	0.87224	4.72026	1.16566
2887.000	5.05195	0.67771	5.15198	1.11143
2888.000	5.20688	0.68745	5.45579	1.14453
2889.000	5.64381	0.58798	5.89627	1.06255
2890.000	5.74560	0.58985	6.34776	0.93910
2891.000	6.03512	0.51635	6.66392	0.89308
2892.000	6.41024	0.45865	7.06926	0.88245
2893.000	6.68537	0.37937	7.51858	0.66859
2894.000	6.84329	0.24296	7.67398	0.62695
2895.000	7.01278	0.22312	7.91849	0.64432
2896.000	7.19383	0.34146	8.06778	0.41364
2897.000	7.24637	0.29603	8.05615	0.35259
2898.000	7.38057	0.28805	8.06584	0.36046
2899.000	7.50692	0.33530	8.10460	0.38406
2900.000	7.54578	0.28597	8.21889	0.23628
2901.000	7.62931	0.16958	8.06584	0.32304
2902.000	7.79045	0.28186	8.10072	0.37816
2903.000	7.80403	0.16951	7.98443	0.39599
2904.000	7.83896	0.16949	7.92819	0.38029
2905.000	7.90104	0.13794	8.01351	0.40188
2906.000	7.85254	0.15766	7.92431	0.39408
2907.000	7.88552	0.02562	7.90880	0.44533
2908.000	7.98249	0.03940	7.91849	0.26995
2909.000	7.87194	-0.06109	7.93789	0.33693
2910.000	7.95922	-0.15762	7.94759	0.26796
2911.000	7.89716	-0.22661	7.89910	0.09853
2912.000	7.93013	-0.05320	7.82732	0.16161
2913.000	7.88940	-0.14385	7.81956	0.24834
2914.000	7.88358	-0.19706	7.67009	0.08872
2915.000	7.91462	-0.20296	7.79627	0.11432
2916.000	7.86418	-0.09657	7.71669	0.11631
2917.000	7.91462	-0.11232	7.55938	0.02761
2918.000	7.91849	-0.04138	7.70698	0.15180
2919.000	7.92237	-0.09655	7.56133	0.09663
2920.000	7.99412	-0.05319	7.56715	0.26032
2921.000	7.87388	-0.05518	7.78657	0.31143
2922.000	7.96698	-0.01379	7.53801	0.27020
2923.000	7.89328	0.02759	7.63125	0.22873
2924.000	7.94177	0.06108	7.64096	0.43181
2925.000	7.90104	0.03547	7.53024	0.42206
2926.000	7.94565	-0.01970	7.64291	0.27802
2927.000	7.95146	0.02955	7.58658	0.36876
2928.000	7.95340	-0.00197	7.53995	0.34119
2929.000	7.86806	0.06109	7.57881	0.30172
2930.000	7.98637	0.03743	7.61377	0.28395
2931.000	7.92431	0.06305	7.68757	0.25630
2932.000	7.82538	0.00591	7.69728	0.22672
2933.000	7.87582	0.01577	7.68174	0.21096
2934.000	7.95922	-0.00197	7.68369	0.33911
2935.000	7.89522	0.03153	7.70310	0.22278
2936.000	7.91462	-0.00985	7.60989	0.29381
2937.000	7.94952	0.03350	7.71669	0.28388
2938.000	7.89328	-0.04335	7.76716	0.37058
2939.000	7.97473	0.08275	7.70116	0.31346
2940.000	7.96892	-0.00394	7.57104	0.27017
2941.000	7.91268	-0.05911	7.70893	0.37260
2942.000	7.93789	0.07290	7.65456	0.20703
2943.000	7.94952	-0.05911	7.66621	0.43376
2944.000	7.88358	0.00394	7.63125	0.35098
2945.000	7.97085	0.11230	7.67398	0.34700
2946.000	8.01157	-0.02758	7.71087	0.40611
2947.000	7.97667	-0.08866	7.54190	0.35302
2948.000	7.99412	0.05319	7.71863	0.26220
2949.000	8.04258	0.01379	7.71669	0.30557
2950.000	7.96116	0.01970	7.70698	0.32332
2951.000	7.96504	0.06699	7.71087	0.28586
2952.000	7.99024	0.02167	7.64873	0.39040
2953.000	7.85448	-0.08080	7.62737	0.38253
2954.000	8.00575	-0.00197	7.78075	0.28581
2955.000	8.00575	-0.06107	7.70116	0.41598
2956.000	7.98830	-0.00591	7.72446	0.38441
2957.000	7.98443	0.02955	7.68757	0.34108
2958.000	8.04452	-0.00197	7.63125	0.40816
2959.000	8.00769	0.04137	7.75357	0.36665
2960.000	7.93207	-0.12216	7.70893	0.31543
2961.000	8.02514	-0.03546	7.67786	0.34503
2962.000	8.07553	-0.09455	7.64679	0.29576
2963.000	7.92043	-0.09852	7.68563	0.33516
2964.000	8.00769	0.01182	7.69922	0.34304
2965.000	7.97473	-0.07881	7.74193	0.34695
2966.000	7.96310	-0.05911	7.73804	0.33118
2967.000	7.94565	-0.03547	7.68951	0.25236
2968.000	7.99412	-0.08077	7.64096	0.33125
2969.000	7.93401	-0.08276	7.71087	0.36077
2970.000	8.02126	-0.00788	7.67980	0.30559
2971.000	7.97861	-0.11033	7.70116	0.37852
2972.000	8.00188	-0.09850	7.74969	0.37256
2973.000	7.98249	-0.10836	7.78075	0.41393
2974.000	8.00575	-0.11820	7.68951	0.32727
2975.000	8.00575	-0.16942	7.60212	0.34903
2976.000	7.96310	-0.11033	7.75357	0.38242
2977.000	7.96698	-0.03152	7.74193	0.39228
2978.000	8.02902	-0.15956	7.73028	0.32921
2979.000	7.90104	-0.11626	7.70504	0.30163
2980.000	8.00769	-0.10441	7.78075	0.28384
2981.000	8.05421	-0.15365	7.70504	0.33712
2982.000	8.01351	-0.09259	7.66427	0.34504
2983.000	7.98249	-0.14776	7.67009	0.39629
2984.000	7.93595	-0.03744	7.69533	0.33713
2985.000	7.99800	-0.01970	7.71281	0.32331
2986.000	7.95340	-0.00197	7.79627	0.34296
2987.000	7.92819	-0.11231	7.82344	0.30549
2988.000	7.92625	-0.07685	7.59435	0.39636
2989.000	8.02126	-0.05516	7.70893	0.28192
2990.000	8.00188	-0.07092	7.75940	0.37256
2991.000	7.98830	-0.05713	7.81180	0.40798
2992.000	7.98055	-0.07684	7.76134	0.28977
2993.000	8.02708	-0.02364	7.73416	0.23656
2994.000	8.00575	-0.10047	7.79821	0.35281
2995.000	7.98443	-0.04334	7.78851	0.41589
2996.000	7.96116	-0.11230	7.69339	0.36276
2997.000	8.02126	-0.06501	7.83314	0.30154
2998.000	8.03871	-0.04137	7.70310	0.36669
2999.000	7.99606	-0.09259	7.65844	0.30364
3000.000	8.04258	0.00985	7.75357	0.36468
3001.000	8.00188	-0.03546	7.72057	0.32331
3002.000	7.99606	0.00000	7.74193	0.42579
3003.000	7.98830	-0.02758	7.74193	0.37454
3004.000	8.10266	0.02167	7.71281	0.35683
3005.000	8.01545	-0.03743	7.66621	0.35095
3006.000	7.98637	0.03152	7.82150	0.26410
3007.000	8.03095	0.00591	7.83896	0.37643
3008.000	7.95534	-0.02955	7.85060	0.29562
3009.000	8.05809	0.03940	7.86224	0.31137
3010.000	8.03677	0.01379	7.76328	0.26808
3011.000	8.06003	0.07682	7.78657	0.35676
3012.000	8.03289	0.00394	7.78269	0.20894
3013.000	8.00188	-0.01576	7.72251	0.36667
3014.000	7.99606	0.01182	7.82344	0.37250
3015.000	8.08910	0.04530	7.83702	0.28183
3016.000	8.06197	0.00197	7.71863	0.40413
3017.000	8.01157	-0.00591	7.79045	0.30354
3018.000	8.13754	0.12604	7.72640	0.41201
3019.000	8.08522	0.08667	7.72446	0.20897
3020.000	8.03677	-0.00591	7.75357	0.25232
3021.000	7.96698	0.08472	7.73028	0.27796
3022.000	8.00575	0.09850	7.69922	0.31149
3023.000	8.02708	0.09259	7.70116	0.30952
3024.000	8.01351	-0.01576	7.76522	0.32919
3025.000	8.00963	0.01970	7.75746	0.34102
3026.000	8.01157	0.08077	7.83120	0.36658
3027.000	8.07359	0.04924	7.77881	0.37451
3028.000	8.01738	-0.00788	7.64096	0.33125
3029.000	8.03871	-0.10243	7.84866	0.29956
3030.000	7.97667	-0.00394	7.82538	0.40403
3031.000	8.03095	0.10835	7.73999	0.29569
3032.000	8.02514	-0.00394	7.78851	0.29763
3033.000	7.99994	0.00591	7.84090	0.41978
3034.000	8.07747	0.03545	7.82150	0.31929
3035.000	8.08328	0.00394	7.81374	0.38236
3036.000	8.06972	0.06697	7.70116	0.30755
3037.000	8.05228	-0.05516	7.74969	0.32131
3038.000	8.10848	0.02954	7.70504	0.46920
3039.000	8.00575	-0.03546	7.78463	0.49276
3040.000	7.98830	-0.10245	7.86418	0.31334
3041.000	8.02708	-0.03743	7.77881	0.33509
3042.000	7.96698	0.13004	7.76716	0.39620
3043.000	8.02126	-0.01970	7.87000	0.37049
3044.000	8.04452	-0.00788	7.73610	0.42777
3045.000	8.03871	-0.02167	7.84284	0.40401
3046.000	7.98249	0.07487	7.72640	0.45144
3047.000	8.02514	0.04728	7.78075	0.48094
3048.000	8.09685	0.07878	7.75551	0.34891
3049.000	8.10072	0.00197	7.80209	0.48683
3050.000	8.05421	0.12410	7.81180	0.44740
3051.000	8.06197	-0.06106	7.80015	0.55581
3052.000	8.02320	-0.03546	7.79045	0.39027
3053.000	8.11623	-0.07681	7.84478	0.47102
3054.000	8.03871	0.02955	7.76716	0.52235
3055.000	8.05615	-0.00788	7.77881	0.44350
3056.000	8.07359	0.08864	7.69922	0.35092
3057.000	8.15885	0.00000	7.77492	0.40999
3058.000	8.00963	-0.05122	7.79433	0.44151
3059.000	8.01351	0.00197	7.90880	0.37833
3060.000	8.13948	-0.01576	7.82732	0.38826
3061.000	8.10848	0.11029	7.97667	0.34872
3062.000	8.13560	0.08468	7.84090	0.33110
3063.000	8.11429	0.18513	7.88358	0.49265
3064.000	8.06390	0.19895	7.91462	0.56551
3065.000	8.00381	0.24429	7.70893	0.69589
3066.000	7.85448	0.24240	7.64679	0.88327
3067.000	7.79239	0.51641	7.43890	1.00597
3068.000	7.54578	0.73165	7.46805	1.16365
3069.000	7.49332	0.86189	6.98357	1.50830
3070.000	7.34752	1.17186	6.88032	1.63100
3071.000	7.06926	1.37189	6.66782	1.76004
3072.000	6.83354	1.47720	6.40048	1.77876
3073.000	6.63661	1.55679	6.20321	2.02441
3074.000	6.56638	1.63600	5.95886	2.11623
3075.000	6.42195	1.63845	5.92756	2.03928
3076.000	6.33213	1.71578	5.83171	2.21356
3077.000	6.34580	1.66635	5.84540	2.38541
3078.000	6.25400	1.68245	5.76126	2.35019
3079.000	6.32042	1.83040	5.73190	2.42936
3080.000	6.19735	1.76958	5.94517	2.38498
3081.000	6.25400	1.83063	5.98428	2.46184
3082.000	6.14263	1.77766	5.90996	2.47797
3083.000	6.15045	1.77764	5.91387	2.40487
3084.000	6.21688	1.77939	5.90213	2.35158
3085.000	6.18171	1.87238	5.91387	2.31597
3086.000	6.04880	1.74437	5.99992	2.33734
3087.000	6.10158	1.80744	6.07226	2.20271
3088.000	6.09963	1.79559	6.11722	2.21833
3089.000	6.15045	1.74997	6.08986	2.15721
3090.000	6.16608	1.74004	6.10158	2.06431
3091.000	6.09572	1.62761	6.13090	2.16099
3092.000	6.15826	1.66299	6.16803	2.02257
3093.000	6.21102	1.75570	6.10940	2.14725
3094.000	6.20712	1.68655	6.18171	2.03635
3095.000	6.10745	1.65327	6.16413	1.98505
3096.000	6.19148	1.71229	6.31260	2.05756
3097.000	6.09572	1.86675	6.26182	2.02221
3098.000	6.13872	1.80930	6.11331	2.00500
3099.000	6.12895	1.73621	6.28526	2.04187
3100.000	6.12308	1.76587	6.20712	2.10933
3101.000	6.12699	1.68681	6.17390	1.92377
3102.000	6.11136	1.73034	6.13286	2.12148
3103.000	6.03316	1.84127	6.23056	2.10924
3104.000	6.12699	1.78167	6.16022	2.16087
3105.000	6.17194	1.86253	6.07617	2.07231
3106.000	6.24033	1.78721	6.15435	2.24582
3107.000	6.13090	1.83896	6.11722	2.10771
3108.000	6.16217	1.81317	6.14067	2.07799
3109.000	6.16413	1.70250	6.18171	2.15684
3110.000	6.20516	1.79919	6.08790	2.13746
3111.000	6.16413	1.80328	6.05662	2.11388
3112.000	6.13677	1.75792	6.08790	2.06041
3113.000	6.13872	1.74606	6.14849	2.17080
3114.000	6.19930	1.85848	6.03121	2.10015
3115.000	6.13286	1.72434	6.13677	2.11356
3116.000	6.12113	1.82912	6.06249	2.04273
3117.000	6.05467	1.76610	6.09572	2.21249
3118.000	6.16999	1.77560	6.20907	2.13500
3119.000	6.16022	1.77563	6.12504	2.16694
3120.000	6.24424	1.76744	6.20516	2.09749
3121.000	6.14067	1.77767	6.04489	2.11787
3122.000	6.19735	1.80514	5.98623	2.12601
3123.000	6.19735	1.76958	6.00188	2.17139
3124.000	6.13677	1.79152	6.04098	2.07442
3125.000	6.07031	1.73838	6.03121	2.16534
3126.000	6.14067	1.84288	6.12308	2.13930
3127.000	6.19930	1.86046	6.09767	2.15520
3128.000	6.15631	1.81121	6.02143	2.25626
3129.000	6.19539	1.80910	6.03121	2.08039
3130.000	6.17585	1.93364	6.07422	2.06837
3131.000	6.17585	1.78151	6.08204	2.25205
3132.000	6.21102	1.75570	6.12895	2.26371
3133.000	6.14263	1.72233	6.09767	2.12162
3134.000	6.23838	1.84452	5.98428	2.25443
3135.000	6.19930	1.73203	5.98428	2.15368
3136.000	6.16022	1.86060	5.98623	2.22479
3137.000	6.19344	1.74588	6.07617	2.11183
3138.000	6.14849	1.82309	6.13090	2.07803
3139.000	6.23251	1.82873	6.07226	2.18691
3140.000	6.28331	1.79892	6.04489	2.20282
3141.000	6.20712	1.81696	6.00774	2.12395
3142.000	6.25987	1.78912	5.95886	2.16365
3143.000	6.16803	1.82500	6.05467	2.21069
3144.000	6.18367	1.80519	6.10354	2.13147
3145.000	6.25791	1.71208	5.91778	2.18358
3146.000	6.25791	1.78715	5.91583	2.15394
3147.000	6.23838	1.76351	6.04880	2.11786
3148.000	6.29307	1.77123	6.11918	2.11166
3149.000	6.19148	1.80319	6.02143	2.23453
3150.000	6.20321	1.79129	5.98819	2.15959
3151.000	6.27354	1.75352	5.99601	2.24846
3152.000	6.17194	1.79535	5.96081	2.07078
3153.000	6.20712	1.85253	6.04098	2.11196
3154.000	6.16022	1.77563	6.02339	2.22859
3155.000	6.22275	1.77344	5.99797	2.19116
3156.000	6.19344	1.79133	5.98819	2.11612
3157.000	6.21102	1.82683	6.09963	2.14729
3158.000	6.18171	1.87238	5.88062	2.08886
3159.000	6.20516	1.82290	5.95886	2.11623
3160.000	6.24228	1.74177	5.97841	1.97585
3161.000	6.19930	1.78933	6.05662	2.08424
3162.000	6.27549	1.81080	6.00188	2.03900
3163.000	6.22665	1.72008	6.04098	1.89658
3164.000	6.29503	1.75344	6.06835	2.16915
3165.000	6.22079	1.78926	5.88649	2.12639
3166.000	6.18758	1.74195	6.08399	2.06043
3167.000	6.24814	1.86621	6.07031	2.08419
3168.000	6.26768	1.82268	5.97450	1.98970
3169.000	6.26768	1.70809	6.05076	2.05660
3170.000	6.29112	1.83840	6.01948	2.09624
3171.000	6.28721	1.78113	6.01752	2.03895
3172.000	6.28135	1.81868	6.01165	2.20296
3173.000	6.22275	1.77740	6.10158	1.99516
3174.000	6.22861	1.77342	6.04685	2.09021
3175.000	6.25987	1.80888	6.06444	1.95776
3176.000	6.25205	1.74371	6.11136	1.91609
3177.000	6.26768	1.85627	6.07813	2.14935
3178.000	6.29698	1.77122	6.05467	1.95977
3179.000	6.22861	1.76157	6.05858	2.10202
3180.000	6.28526	1.71001	6.03512	2.05864
3181.000	6.27549	1.70609	6.07226	2.11777
3182.000	6.30284	1.85812	6.18758	2.08373
3183.000	6.32042	1.74941	6.12308	1.97137
3184.000	6.24228	1.76350	6.20125	2.09750
3185.000	6.29503	1.84432	6.14849	2.05228
3186.000	6.25010	1.77928	6.03707	2.02307
3187.000	6.30284	1.86799	5.98428	2.00943
3188.000	6.19930	1.80909	6.10549	2.08405
3189.000	6.31651	1.82054	6.09181	2.04459
3190.000	6.19735	1.75377	6.09767	2.09396
3191.000	6.11331	1.73428	6.13090	2.13334
3192.000	6.14458	1.76778	6.04880	2.14354
3193.000	6.27745	1.79104	6.07617	2.13553
3194.000	6.25596	1.84445	6.08399	2.12365
3195.000	6.18562	1.79333	6.15240	2.20831
3196.000	6.19930	1.77352	6.11331	2.13538
3197.000	6.13481	1.76386	6.01752	1.99745
3198.000	6.18367	1.74394	5.95690	2.25060
3199.000	6.24033	1.65483	6.12308	2.15905
3200.000	6.24619	1.69433	6.02143	2.12192
3201.000	6.19539	1.74390	6.00774	2.24841
3202.000	6.25205	1.85237	6.13677	2.21825
3203.000	6.18953	1.69451	6.06444	2.23632
3204.000	6.22079	1.72010	6.02730	2.20685
3205.000	6.22861	1.77540	6.09963	2.00110
3206.000	6.27159	1.76340	6.03707	2.17717
3207.000	6.20125	1.79130	5.97059	2.16756
3208.000	6.20125	1.66484	6.00579	2.18125
3209.000	6.18953	1.79727	6.10549	2.16109
3210.000	6.13481	1.63737	6.11918	2.13931
3211.000	6.17390	1.73804	6.04098	2.17321
3212.000	6.14654	1.74208	6.00579	2.14174
3213.000	6.26377	1.71403	6.03512	2.11396
3214.000	6.09963	1.60190	5.98819	2.16551
3215.000	6.29698	1.76529	6.09377	2.14929
3216.000	6.25596	1.71603	6.02143	2.19107
3217.000	6.25596	1.67849	6.09963	2.16309
3218.000	6.24814	1.70618	5.96277	2.12412
3219.000	6.27940	1.65076	5.99406	2.11610
3220.000	6.16608	1.66297	6.07422	2.13949
3221.000	6.23251	1.75760	6.03903	2.23248
3222.000	6.26768	1.71797	5.97059	2.09840
3223.000	6.36143	1.67025	5.99015	2.09438
3224.000	6.13481	1.63540	5.98819	2.14773
3225.000	6.30479	1.80477	6.14654	2.05031
3226.000	6.18367	1.72615	5.97255	2.09840
3227.000	6.18758	1.69452	6.03903	2.10209
3228.000	6.19930	1.69844	5.86301	2.15217
3229.000	6.24424	1.70224	6.07422	2.13554
3230.000	6.22275	1.76159	5.99406	2.03113
3231.000	6.17194	1.67876	6.08008	2.16515
3232.000	6.25791	1.76147	6.08204	2.11970
3233.000	6.21102	1.69642	6.01752	1.99943
3234.000	6.23642	1.73388	6.07813	2.10589
3235.000	6.22275	1.69441	5.96668	2.00554
3236.000	6.24424	1.76152	6.05858	2.09214
3237.000	6.16803	1.63727	6.06835	1.97750
3238.000	6.20712	1.60553	6.04098	2.04676
3239.000	6.17781	1.70048	5.96668	2.17548
3240.000	6.22861	1.68451	6.01948	2.00139
3241.000	6.16022	1.74796	6.10940	2.03070
3242.000	6.12895	1.75992	6.05467	2.12376
3243.000	6.23447	1.66868	5.99601	1.98567
3244.000	6.13872	1.77373	6.04880	2.00326
3245.000	6.23251	1.71018	6.05662	2.05263
3246.000	6.17390	1.66887	6.05076	2.08426
3247.000	6.32823	1.63677	6.21298	2.03820
3248.000	6.16608	1.67483	6.10940	2.04650
3249.000	6.20516	1.72410	5.97255	2.13396
3250.000	6.25791	1.64490	5.98623	2.02523
3251.000	6.22665	1.61535	6.03316	2.08828
3252.000	6.20712	1.70829	6.05076	2.02104
3253.000	6.25400	1.67652	6.13090	1.97925
3254.000	6.27159	1.70808	5.99210	2.20304
3255.000	6.22275	1.71219	6.08204	2.08810
3256.000	6.16803	1.67482	6.01948	2.04882
3257.000	6.25010	1.65282	6.09963	1.96751
3258.000	6.19735	1.72018	6.06249	2.09212
3259.000	6.16022	1.65706	6.00383	2.15953
3260.000	6.18171	1.77753	5.88844	2.03745
3261.000	6.15045	1.60570	5.93343	2.00961
3262.000	6.19539	1.66090	6.03121	2.18510
3263.000	6.22079	1.66675	6.00579	2.08641
3264.000	6.17976	1.72024	6.06835	1.96762
3265.000	6.16999	1.72817	6.15826	2.09175
3266.000	6.22665	1.68452	6.09572	2.25002
3267.000	6.10940	1.68686	6.11722	2.02079
3268.000	6.17585	1.83683	6.02925	2.01519
3269.000	6.11722	1.65522	5.95886	2.01347
3270.000	6.16803	1.80722	6.05662	2.09412
3271.000	6.16803	1.66296	6.12504	2.05830
3272.000	6.14067	1.66700	5.94908	2.07280
3273.000	6.16608	1.69261	6.08790	2.18289
3274.000	6.06249	1.69492	6.08008	2.09996
3275.000	6.23056	1.70229	5.98428	2.04105
3276.000	6.19539	1.72611	6.03121	2.07446
3277.000	6.20516	1.71027	6.03903	2.05270
3278.000	6.18758	1.74985	5.98819	1.97977
3279.000	6.14849	1.63536	6.06444	2.11582
3280.000	6.25791	1.80889	5.94908	2.03130
3281.000	6.16413	1.70448	6.13481	2.21233
3282.000	6.14654	1.71046	6.11722	2.05042
3283.000	6.19344	1.74588	6.12699	2.11755
3284.000	6.21298	1.77545	6.05271	2.10797
3285.000	6.19735	1.68461	6.02534	2.12585
3286.000	6.15435	1.71241	6.09181	2.03669
3287.000	6.13481	1.69864	6.06053	1.96568
3288.000	6.20712	1.73595	6.12895	2.00494
3289.000	6.32628	1.71778	5.97450	2.13000
3290.000	6.15435	1.65905	5.96472	2.10633
3291.000	6.21298	1.59761	6.13677	2.04245
3292.000	6.05271	1.67321	6.06053	2.00124
3293.000	6.13677	1.60575	6.06249	2.11188
3294.000	6.13481	1.71840	6.07031	2.11975
3295.000	6.16217	1.66298	6.11136	2.09983
3296.000	6.07813	1.68103	6.06835	2.15927
3297.000	6.03903	1.68115	6.03903	1.99737
3298.000	6.18367	1.71232	6.15240	2.04436
3299.000	6.25010	1.71605	6.01752	2.14959
3300.000	6.08986	1.69088	6.02730	2.09819
3301.000	6.26377	1.72589	6.04098	2.18111
3302.000	6.18953	1.64906	6.04685	1.97758
3303.000	6.15435	1.60964	6.06053	2.09015
3304.000	6.15631	1.72229	6.13286	1.83500
3305.000	6.13872	1.73618	6.05467	2.01510
3306.000	6.15826	1.70450	6.03707	2.15347
3307.000	6.10549	1.69083	6.07226	2.12172
3308.000	6.12699	1.58799	5.94321	2.19928
3309.000	6.08595	1.71856	6.02143	1.99348
3310.000	6.03707	1.66337	6.05271	2.14155
3311.000	5.98819	1.63189	6.04098	2.14160
3312.000	6.15045	1.69266	6.04685	2.02105
3313.000	6.06640	1.65735	6.04294	2.03885
3314.000	6.03707	1.68314	5.99601	1.91057
3315.000	6.02730	1.65945	6.09377	2.05842
3316.000	6.09377	1.73632	6.05662	2.15141
3317.000	6.18953	1.69649	6.02143	2.14167
3318.000	6.08399	1.70869	6.06053	2.04669
3319.000	6.07813	1.67313	5.96472	2.22093
3320.000	6.16022	1.62544	6.10158	2.07419
3321.000	6.04685	1.63369	6.07031	2.18889
3322.000	6.11331	1.70662	6.10158	2.08407
3323.000	6.11136	1.81729	6.07031	2.06443
3324.000	6.04294	1.70289	6.08008	2.05057
3325.000	5.99601	1.73664	6.08986	2.01892
3326.000	6.15240	1.67685	5.96277	2.24860
3327.000	6.03903	1.72859	5.95299	2.11428
3328.000	6.09767	1.76991	6.02339	2.04090
3329.000	6.01557	1.66739	6.06835	2.09605
3330.000	6.10354	1.70862	6.02925	2.16140
3331.000	6.10549	1.71257	6.14458	2.00093
3332.000	6.04685	1.65939	6.05271	2.06055
3333.000	6.12504	1.73425	6.15826	2.10755
3334.000	6.01165	1.63775	6.10354	2.08011
3335.000	6.04489	1.64951	6.07031	2.02887
3336.000	6.01361	1.70495	6.06249	2.05261
3337.000	6.06640	1.72851	6.14849	2.15105
3338.000	6.16217	1.69855	6.09377	2.06039
3339.000	6.05662	1.78190	6.14654	2.13920
3340.000	6.09572	1.67110	5.91387	2.10455
3341.000	5.99406	1.75048	6.16413	2.16086
3342.000	6.07617	1.72847	6.12699	2.09582
3343.000	6.08008	1.78578	6.05662	2.00323
3344.000	6.04098	1.70289	6.15240	2.08782
3345.000	6.04489	1.67916	6.00970	2.10813
3346.000	6.04685	1.63764	6.11527	2.09192
3347.000	6.03512	1.62186	6.07031	2.15926
3348.000	6.08790	1.67310	6.21102	2.09351
3349.000	6.04098	1.63964	6.06835	2.11186
3350.000	6.00970	1.61403	6.02143	2.02708
3351.000	6.00774	1.69707	6.08986	2.14931
3352.000	6.01557	1.72867	6.02143	2.14365
3353.000	5.90800	1.76064	6.15631	1.99693
3354.000	5.96668	1.65172	6.05858	2.12967
3355.000	5.96277	1.64185	6.18171	2.11733
3356.000	5.95886	1.61616	6.12504	1.95556
3357.000	5.99601	1.66547	6.17390	1.98106
3358.000	6.03121	1.58431	6.24619	2.02622
3359.000	5.97450	1.58250	6.17781	2.08179
3360.000	5.99797	1.68919	6.29503	2.06553
3361.000	6.02730	1.60409	6.21298	2.03030
3362.000	6.01752	1.62785	6.07617	1.88855
3363.000	6.01165	1.69310	6.21884	1.93151
3364.000	5.97255	1.70904	6.17585	1.86252
3365.000	5.99601	1.68722	6.23056	2.06579
3366.000	6.05271	1.68111	6.15435	1.94755
3367.000	6.09377	1.63750	6.18367	2.09560
3368.000	5.89822	1.69147	6.19539	1.98098
3369.000	5.96081	1.61022	6.31260	2.05361
3370.000	5.96668	1.68335	6.20125	1.91182
3371.000	5.98232	1.64574	6.14654	2.02660
3372.000	5.98037	1.71099	6.23838	2.19413
3373.000	5.98037	1.61807	6.21298	2.01647
3374.000	6.00970	1.58438	6.15435	1.99102
3375.000	5.94517	1.64981	6.10158	2.00307
3376.000	5.97255	1.69717	6.25791	2.05185
3377.000	5.97646	1.71100	6.05271	2.11982
3378.000	5.99210	1.61804	6.24424	1.94129
3379.000	5.99601	1.65756	6.08986	2.09399
3380.000	5.94125	1.58458	6.06444	2.19682
3381.000	5.99601	1.62989	6.15240	2.11943
3382.000	5.90605	1.73890	6.23056	2.04011
3383.000	6.02730	1.47954	6.13677	2.10566
3384.000	5.97255	1.70706	6.17976	2.14499
3385.000	5.94517	1.66167	6.16803	2.10159
3386.000	5.98232	1.79005	6.17585	2.04427
3387.000	5.94321	1.67156	6.09767	2.11372
3388.000	5.96081	1.64581	6.13286	2.12938
3389.000	6.00774	1.61404	6.25400	2.17431
3390.000	5.98232	1.72680	6.10940	2.04848
3391.000	6.02925	1.60211	6.08986	2.05645
3392.000	5.97841	1.62599	6.09963	2.11568
3393.000	6.02339	1.74643	6.07031	2.04467
3394.000	5.96081	1.61022	6.13872	2.05232
3395.000	5.94517	1.53711	6.07422	2.06244
3396.000	5.98428	1.61806	6.13286	2.06617
3397.000	5.97841	1.71693	6.14849	2.05228
3398.000	5.99601	1.64768	6.19539	2.11530
3399.000	5.90018	1.51746	6.17976	1.97116
3400.000	5.99210	1.62001	6.16413	2.03839
3401.000	5.94712	1.55095	6.11527	2.01289
3402.000	5.97450	1.69124	6.17390	1.99884
3403.000	5.81214	1.64032	6.21102	2.03821
3404.000	5.92756	1.58659	6.25791	2.04790
3405.000	5.99601	1.69908	6.14458	2.01081
3406.000	5.98232	1.58050	6.19539	2.03234
3407.000	6.00579	1.60811	6.09963	2.05247
3408.000	5.98819	1.64968	6.15826	2.02063
3409.000	5.88649	1.56693	6.11918	2.09388
3410.000	5.95103	1.66956	6.16217	2.04432
3411.000	6.03121	1.61199	6.12113	2.01682
3412.000	5.94125	1.59446	6.07226	2.02096
3413.000	5.90800	1.61235	6.13090	2.01679
3414.000	5.85518	1.59273	6.19148	2.06594
3415.000	5.85910	1.59667	6.02143	1.97570
3416.000	5.92561	1.57078	6.09963	2.13544
3417.000	5.92561	1.61428	6.10940	2.00896
3418.000	5.98428	1.62795	6.10745	2.01490
3419.000	5.92170	1.54113	6.18953	2.06792
3420.000	5.84345	1.60858	6.16022	2.07001
3421.000	5.93343	1.56285	6.10158	2.07024
3422.000	5.90605	1.51547	6.13677	2.06023
3423.000	5.98623	1.59828	6.16608	2.01468
3424.000	5.87866	1.65001	6.11136	2.05242
3425.000	6.01557	1.66937	6.18171	2.02449
3426.000	5.96863	1.68928	6.02143	1.91246
3427.000	5.98232	1.73075	6.23251	2.04998
3428.000	5.97255	1.59832	6.04489	1.99933
3429.000	5.87084	1.60653	6.11527	2.03660
3430.000	5.95494	1.67153	6.18367	2.06992
3431.000	5.88649	1.68953	6.08204	2.12366
3432.000	5.86105	1.64017	6.21884	2.10533
3433.000	5.90996	1.72307	6.21493	2.06782
3434.000	5.83953	1.71538	6.16217	2.04432
3435.000	5.85714	1.62239	6.13677	2.05035
3436.000	5.89040	1.65986	6.12504	1.94371
3437.000	5.95886	1.64977	6.14067	2.07206
3438.000	5.80431	1.61067	6.10549	1.98725
3439.000	5.86497	1.67773	6.08790	2.03868
3440.000	5.91192	1.58070	6.05271	1.91433
3441.000	5.90213	1.64994	6.16803	1.97516
3442.000	5.89040	1.70336	6.20516	2.04613
3443.000	5.85714	1.54526	6.15240	1.96336
3444.000	5.84736	1.61451	6.11918	1.95163
3445.000	5.98623	1.57456	6.08595	1.87271
3446.000	5.86497	1.67773	6.17194	1.92180
3447.000	5.98037	1.67343	6.12308	1.90617
3448.000	5.90996	1.59653	6.10158	1.84104
3449.000	5.81410	1.65811	6.11722	1.90619
3450.000	5.95494	1.66955	6.10940	1.84694
3451.000	5.86497	1.61248	6.18953	1.84469
3452.000	5.80431	1.68978	6.15435	1.81517
3453.000	6.05467	1.65936	6.07617	1.81939
3454.000	5.93734	1.67949	6.11527	1.76195
3455.000	5.88062	1.65000	6.20125	1.82094
3456.000	5.92756	1.68941	6.18367	1.81705
3457.000	5.95494	1.69328	6.17585	1.89215
3458.000	5.97059	1.61019	6.15240	1.87841
3459.000	5.90800	1.68946	6.17976	1.84077
3460.000	5.95690	1.67548	6.18758	1.81703
3461.000	5.95103	1.75655	6.18367	1.84273
3462.000	6.03316	1.69501	6.20516	1.87427
3463.000	5.94712	1.80994	6.28917	1.68431
3464.000	6.00383	1.68522	6.14654	1.80532
3465.000	5.99601	1.60616	6.24619	1.92153
3466.000	6.02925	1.78397	6.09377	1.72447
3467.000	6.05076	1.70879	6.10549	1.89240
3468.000	6.02143	1.83934	6.18758	1.86248
3469.000	6.00383	1.80975	6.18367	1.75974
3470.000	6.04489	1.83333	6.11722	1.86667
3471.000	6.08986	1.80748	6.13090	1.84489
3472.000	6.02534	1.87490	6.18953	1.77356
3473.000	6.08204	1.87865	6.36924	1.70381
3474.000	6.06640	1.87080	6.41610	1.48635
3475.000	6.12895	1.97333	6.33799	1.59723
3476.000	6.11136	1.92005	6.09963	1.92404
3477.000	6.24814	1.92153	6.12895	2.37825
3478.000	6.25205	1.90373	5.99210	3.22955
3479.000	6.22079	1.91175	5.69275	4.36256
3480.000	6.20712	1.97304	5.42641	5.53216
3481.000	6.23642	1.93145	5.13041	6.83125
3482.000	6.27354	2.01427	4.79487	8.13645
3483.000	6.11331	2.14329	4.26441	9.69510
3484.000	6.23056	2.15071	3.71156	11.26582
3485.000	6.13090	2.31702	2.79129	12.81517
3486.000	6.29698	2.74061	2.03546	14.46107
3487.000	6.28721	3.48002	0.14432	16.11704
3488.000	6.38486	4.21939	-2.28420	17.65387
3489.000	6.55858	5.13085	NaN	NaN
3490.000	6.62296	6.15371	NaN	NaN
3491.000	6.63271	7.09144	NaN	NaN
3492.000	6.70292	8.04178	NaN	NaN
3493.000	NaN	NaN	NaN	NaN
3494.000	NaN	NaN	NaN	NaN
3495.000	NaN	NaN	NaN	NaN
3496.000	NaN	NaN	NaN	NaN
3497.000	NaN	NaN	NaN	NaN
3498.000	NaN	NaN	NaN	NaN
3499.000	NaN	NaN	NaN	NaN
3500.000	NaN	NaN	NaN	NaN
3501.000	NaN	NaN	NaN	NaN
3502.000	NaN	NaN	NaN	NaN
3503.000	NaN	NaN	NaN	NaN
3504.000	NaN	NaN	NaN	NaN
3505.000	NaN	NaN	NaN	NaN
3506.000	NaN	NaN	NaN	NaN
3507.000	NaN	NaN	NaN	NaN
3508.000	NaN	NaN	NaN	NaN
3509.000	NaN	NaN	NaN	NaN
3510.000	NaN	NaN	NaN	NaN
3511.000	NaN	NaN	NaN	NaN
3512.000	NaN	NaN	NaN	NaN
3513.000	NaN	NaN	NaN	NaN
3514.000	NaN	NaN	NaN	NaN
3515.000	NaN	NaN	NaN	NaN
3516.000	NaN	NaN	NaN	NaN
3517.000	NaN	NaN	NaN	NaN
3518.000	NaN	NaN	NaN	NaN
3519.000	NaN	NaN	NaN	NaN
3520.000	NaN	NaN	NaN	NaN
3521.000	NaN	NaN	NaN	NaN
3522.000	NaN	NaN	NaN	NaN
3523.000	NaN	NaN	NaN	NaN
3524.000	NaN	NaN	NaN	NaN
3525.000	NaN	NaN	NaN	NaN
3526.000	NaN	NaN	NaN	NaN
3527.000	NaN	NaN	NaN	NaN
3528.000	NaN	NaN	NaN	NaN
3529.000	NaN	NaN	NaN	NaN
3530.000	NaN	NaN	NaN	NaN
3531.000	NaN	NaN	NaN	NaN
3532.000	NaN	NaN	NaN	NaN
3533.000	NaN	NaN	NaN	NaN
3534.000	NaN	NaN	NaN	NaN
3535.000	NaN	NaN	NaN	NaN
3536.000	NaN	NaN	NaN	NaN
3537.000	NaN	NaN	NaN	NaN
3538.000	NaN	NaN	NaN	NaN
3539.000	NaN	NaN	NaN	NaN
3540.000	NaN	NaN	NaN	NaN
3541.000	NaN	NaN	NaN	NaN
3542.000	NaN	NaN	NaN	NaN
3543.000	NaN	NaN	NaN	NaN
3544.000	NaN	NaN	NaN	NaN
3545.000	NaN	NaN	NaN	NaN
3546.000	NaN	NaN	NaN	NaN
3547.000	NaN	NaN	NaN	NaN
3548.000	NaN	NaN	NaN	NaN
3549.000	NaN	NaN	NaN	NaN
3550.000	NaN	NaN	NaN	NaN
3551.000	NaN	NaN	NaN	NaN
3552.000	NaN	NaN	NaN	NaN
3553.000	NaN	NaN	NaN	NaN
3554.000	NaN	NaN	NaN	NaN
3555.000	NaN	NaN	NaN	NaN
3556.000	NaN	NaN	NaN	NaN
3557.000	NaN	NaN	NaN	NaN
3558.000	NaN	NaN	NaN	NaN
3559.000	NaN	NaN	NaN	NaN
3560.000	NaN	NaN	NaN	NaN
3561.000	NaN	NaN	NaN	NaN
3562.000	NaN	NaN	NaN	NaN
3563.000	NaN	NaN	NaN	NaN
3564.000	NaN	NaN	NaN	NaN
3565.000	NaN	NaN	NaN	NaN
3566.000	NaN	NaN	NaN	NaN
3567.000	NaN	NaN	NaN	NaN
3568.000	NaN	NaN	NaN	NaN
3569.000	NaN	NaN	NaN	NaN
3570.000	NaN	NaN	NaN	NaN
3571.000	NaN	NaN	NaN	NaN
3572.000	NaN	NaN	NaN	NaN
3573.000	NaN	NaN	NaN	NaN
3574.000	NaN	NaN	NaN	NaN
3575.000	NaN	NaN	NaN	NaN
3576.000	NaN	NaN	NaN	NaN
3577.000	NaN	NaN	NaN	NaN
3578.000	NaN	NaN	NaN	NaN
3579.000	NaN	NaN	NaN	NaN
3580.000	NaN	NaN	NaN	NaN
3581.000	NaN	NaN	NaN	NaN
3582.000	NaN	NaN	NaN	NaN
3583.000	NaN	NaN	NaN	NaN
3584.000	NaN	NaN	NaN	NaN
3585.000	NaN	NaN	NaN	NaN
3586.000	NaN	NaN	NaN	NaN
3587.000	NaN	NaN	NaN	NaN
3588.000	NaN	NaN	NaN	NaN
3589.000	NaN	NaN	NaN	NaN
3590.000	NaN	NaN	NaN	NaN
3591.000	NaN	NaN	NaN	NaN
3592.000	NaN	NaN	NaN	NaN
3593.000	NaN	NaN	NaN	NaN
3594.000	NaN	NaN	NaN	NaN
3595.000	NaN	NaN	NaN	NaN
3596.000	NaN	NaN	NaN	NaN
3597.000	NaN	NaN	NaN	NaN
3598.000	NaN	NaN	NaN	NaN
3599.000	NaN	NaN	NaN	NaN
3600.000	NaN	NaN	NaN	NaN
3601.000	NaN	NaN	NaN	NaN
3602.000	NaN	NaN	NaN	NaN
3603.000	NaN	NaN	NaN	NaN
3604.000	NaN	NaN	NaN	NaN
3605.000	NaN	NaN	NaN	NaN
3606.000	NaN	NaN	NaN	NaN
3607.000	NaN	NaN	NaN	NaN
3608.000	NaN	NaN	NaN	NaN
3609.000	NaN	NaN	NaN	NaN
3610.000	NaN	NaN	NaN	NaN
3611.000	NaN	NaN	NaN	NaN
3612.000	NaN	NaN	NaN	NaN
3613.000	NaN	NaN	NaN	NaN
3614.000	NaN	NaN	NaN	NaN
3615.000	NaN	NaN	NaN	NaN
3616.000	NaN	NaN	NaN	NaN
3617.000	NaN	NaN	NaN	NaN
3618.000	NaN	NaN	NaN	NaN
3619.000	NaN	NaN	NaN	NaN
3620.000	NaN	NaN	NaN	NaN
3621.000	NaN	NaN	NaN	NaN
3622.000	NaN	NaN	NaN	NaN
3623.000	NaN	NaN	NaN	NaN
3624.000	NaN	NaN	NaN	NaN
3625.000	NaN	NaN	NaN	NaN
3626.000	NaN	NaN	NaN	NaN
3627.000	NaN	NaN	NaN	NaN
3628.000	NaN	NaN	NaN	NaN
3629.000	NaN	NaN	NaN	NaN
3630.000	NaN	NaN	NaN	NaN
3631.000	NaN	NaN	NaN	NaN
3632.000	NaN	NaN	NaN	NaN
3633.000	NaN	NaN	NaN	NaN
3634.000	NaN	NaN	NaN	NaN
3635.000	NaN	NaN	NaN	NaN
3636.000	NaN	NaN	NaN	NaN
3637.000	NaN	NaN	NaN	NaN
3638.000	NaN	NaN	NaN	NaN
3639.000	NaN	NaN	NaN	NaN
3640.000	NaN	NaN	NaN	NaN
3641.000	NaN	NaN	NaN	NaN
3642.000	NaN	NaN	NaN	NaN
3643.000	NaN	NaN	NaN	NaN
3644.000	NaN	NaN	NaN	NaN
3645.000	NaN	NaN	NaN	NaN
3646.000	NaN	NaN	NaN	NaN
3647.000	NaN	NaN	NaN	NaN
3648.000	NaN	NaN	NaN	NaN
3649.000	NaN	NaN	NaN	NaN
3650.000	NaN	NaN	NaN	NaN
3651.000	NaN	NaN	NaN	NaN
3652.000	NaN	NaN	NaN	NaN
3653.000	NaN	NaN	NaN	NaN
3654.000	NaN	NaN	NaN	NaN
3655.000	NaN	NaN	NaN	NaN
3656.000	NaN	NaN	NaN	NaN
3657.000	NaN	NaN	NaN	NaN
3658.000	NaN	NaN	NaN	NaN
3659.000	NaN	NaN	NaN	NaN
3660.000	NaN	NaN	NaN	NaN
3661.000	NaN	NaN	NaN	NaN
3662.000	NaN	NaN	NaN	NaN
3663.000	-1.60688	7.27492	NaN	NaN
3664.000	-1.94067	11.47176	NaN	NaN
3665.000	-1.80441	15.44291	NaN	NaN
3666.000	-2.34934	15.01033	NaN	NaN
3667.000	-2.37894	14.51377	NaN	NaN
3668.000	-2.42236	13.88941	NaN	NaN
3669.000	-5.92561	12.80687	NaN	NaN
3670.000	-6.18953	12.14842	NaN	NaN
3671.000	-6.08008	11.59006	NaN	NaN
3672.000	-5.99797	11.06677	NaN	NaN
3673.000	-6.25400	10.44890	NaN	NaN
3674.000	-6.21884	9.96110	NaN	NaN
3675.000	0.12257	7.15242	NaN	NaN
3676.000	0.11071	6.74468	NaN	NaN
3677.000	0.13444	6.28907	NaN	NaN
3678.000	0.12455	5.66527	NaN	NaN
3679.000	-0.05140	5.24537	NaN	NaN
3680.000	0.01186	4.75969	NaN	NaN
3681.000	-0.19177	4.16646	NaN	NaN
3682.000	-0.36179	3.74467	-8.89166	13.05992
3683.000	-0.36574	3.33840	-5.51456	11.82541
3684.000	-0.50610	2.88611	-2.33355	9.88731
3685.000	-0.55750	2.47718	-2.09271	9.32453
3686.000	-0.51005	2.04221	-2.30394	8.61144
3687.000	-0.62273	1.79378	-2.30789	7.94373
3688.000	-0.63459	1.38231	-2.44407	7.46279
3689.000	-0.65831	0.89511	-2.28026	6.91578
3690.000	-0.38946	0.85140	-2.31381	6.32721
3691.000	-0.35981	0.44761	-2.22104	5.68468
3692.000	-0.48633	0.11538	-2.51116	5.30342
3693.000	-0.58320	-0.20092	-2.19340	4.70093
3694.000	-0.61285	-0.58285	-2.42039	4.33278
3695.000	-0.71168	-0.85931	-2.45394	3.72351
3696.000	-0.87772	-1.23908	-2.38684	3.32171
3697.000	-0.94887	-1.62074	-2.56049	2.81197
3698.000	-1.06153	-1.84326	-2.46380	2.38573
3699.000	-1.02200	-2.20286	-2.56641	1.86555
3700.000	-1.26705	-2.55609	-2.62757	1.50805
3701.000	-1.34807	-2.97469	-2.50130	1.14864
3702.000	-1.37771	-3.08175	-2.54865	0.72141
3703.000	-1.42710	-3.44248	-2.50524	0.38558
3704.000	-1.52589	-3.68995	-2.39078	-0.01988
3705.000	-1.63059	-3.94318	-2.43618	-0.30609
3706.000	-1.69380	-4.25169	-2.53484	-0.74725
3707.000	-1.81823	-4.37202	-2.51511	-0.97777
3708.000	-1.78663	-4.57368	-2.46380	-1.38707
3709.000	-1.91500	-4.67015	-2.41249	-1.49638
3710.000	-1.97819	-4.92861	-2.37500	-2.04450
3711.000	-1.92685	-4.97021	-2.46972	-2.13567
3712.000	-1.87946	-5.04138	-2.45394	-2.54446
3713.000	-1.94067	-5.06882	-2.53879	-2.67916
3714.000	-2.02361	-5.16521	-2.49538	-2.79625
3715.000	-1.87156	-5.02364	-2.50524	-3.24020
3716.000	-1.93080	-4.96033	-2.47170	-3.57896
3717.000	-1.96240	-4.93063	-2.52497	-3.56495
3718.000	-1.89920	-4.83607	-2.41052	-3.94723
3719.000	-1.87946	-4.82230	-2.48551	-4.16850
3720.000	-1.82416	-4.84219	-2.39276	-4.43957
3721.000	-1.92685	-4.63456	-2.49735	-4.61502
3722.000	-1.89920	-4.56549	-2.34737	-4.79717
3723.000	-1.77478	-4.59347	-2.25065	-4.87447
3724.000	-1.85773	-4.72560	-2.37894	-5.00030
3725.000	-1.85378	-4.67426	-2.38092	-5.09694
3726.000	-1.87748	-4.67222	-2.17563	-5.54899
3727.000	-1.89328	-4.54773	-2.11443	-5.72248
3728.000	-1.89920	-4.41728	-2.17563	-5.86196
3729.000	-1.85773	-4.57350	-2.18945	-5.83240
3730.000	-1.94265	-4.56143	-1.94067	-6.17745
3731.000	-1.90513	-4.57733	-2.28420	-5.78874
3732.000	-1.81231	-4.58547	-2.10061	-6.15719
3733.000	-2.00584	-4.42293	-2.30394	-6.07578
3734.000	-1.94462	-4.63846	-2.17563	-6.19423
3735.000	-2.01374	-4.58889	-2.26841	-6.18598
3736.000	-1.92290	-4.66025	-2.12233	-6.26320
3737.000	-2.01374	-4.79230	-2.39078	-6.15401
3738.000	-2.01374	-4.64222	-2.24670	-6.36874
3739.000	-2.01374	-4.64420	-2.20327	-6.20590
3740.000	-1.99399	-4.60672	-2.16774	-6.15692
3741.000	-2.08482	-4.63017	-2.39078	-6.23652
3742.000	-2.12628	-4.79394	-2.35131	-6.30151
3743.000	-2.08482	-4.70719	-2.39078	-6.18348
3744.000	-2.07692	-4.74078	-2.44999	-6.30499
3745.000	-2.13418	-4.65570	-2.31973	-6.19559
3746.000	-2.04928	-4.76258	-2.27039	-6.23116
3747.000	-1.99991	-4.79432	-2.27631	-6.17023
3748.000	-2.04533	-4.77839	-2.41249	-6.08710
3749.000	-1.97819	-4.83584	-2.39473	-6.07539
3750.000	-2.04730	-4.71125	-2.32960	-5.99507
3751.000	-2.09271	-4.74666	-2.35921	-6.08734
3752.000	-2.12036	-4.74460	-2.52300	-5.82117
3753.000	-2.07100	-4.69341	-2.44999	-5.73099
3754.000	-2.17761	-4.86879	-2.45394	-5.92375
3755.000	-2.16181	-4.75829	-2.43815	-5.89236
3756.000	-2.08482	-4.80394	-2.41052	-5.71935
3757.000	-2.09469	-4.80786	-2.48156	-5.82136
3758.000	-2.16379	-4.89646	-2.45788	-5.81556
3759.000	-2.27828	-4.83885	-2.51313	-5.55948
3760.000	-2.04533	-4.89683	-2.50327	-5.83110
3761.000	-2.09271	-4.97957	-2.51905	-5.52204
3762.000	-2.28618	-4.94539	-2.49735	-5.71308
3763.000	-2.14602	-4.96164	-2.64730	-5.58252
3764.000	-2.16576	-4.98131	-2.60192	-5.63390
3765.000	-2.19735	-4.93779	-2.62954	-5.58850
3766.000	-2.30197	-4.81114	-2.44999	-5.46128
3767.000	-2.17563	-4.61607	-2.31973	-5.22138
3768.000	-2.10456	-4.52343	-2.16181	-4.93199
3769.000	-1.82613	-4.38188	-2.12825	-4.80183
3770.000	-1.66022	-4.14100	-1.85181	-4.57154
3771.000	-1.37968	-4.15538	-1.53774	-4.18872
3772.000	-1.16825	-3.79348	-1.19987	-3.87066
3773.000	-0.76703	-3.46900	-0.81645	-3.63343
3774.000	-0.55750	-3.25107	-0.54564	-3.41365
3775.000	-0.45075	-3.13213	-0.23724	-2.93183
3776.000	-0.15223	-2.87827	0.09885	-2.88820
3777.000	0.33806	-2.65594	0.51598	-2.39181
3778.000	0.61285	-2.29247	0.87179	-2.31021
3779.000	0.82633	-2.09969	1.18801	-2.20671
3780.000	1.11884	-1.97237	1.55552	-1.90050
3781.000	1.28484	-1.90271	1.91500	-1.77501
3782.000	1.42710	-1.58667	1.96042	-1.61206
3783.000	1.70565	-1.24066	2.11838	-1.32780
3784.000	1.87156	-1.03782	2.45196	-1.26590
3785.000	2.09864	-0.71767	2.66111	-1.12466
3786.000	2.21117	-0.63214	2.89187	-0.73909
3787.000	2.59995	-0.32990	2.98652	-0.78670
3788.000	2.79327	-0.13115	3.20533	-0.45089
3789.000	3.06144	0.19270	3.35115	-0.49054
3790.000	3.26839	0.34957	3.29401	-0.49454
3791.000	3.19350	0.38137	3.31371	-0.02185
3792.000	3.42010	0.54809	3.61706	-0.19855
3793.000	3.52056	0.78231	3.74109	-0.16676
3794.000	3.59736	1.02442	3.78243	-0.07543
3795.000	3.69188	1.04217	3.73519	-0.05162
3796.000	3.80605	1.17895	3.87297	0.04367
3797.000	3.82967	1.30788	4.02251	-0.05755
3798.000	3.81196	1.48447	4.04415	0.20242
3799.000	3.83951	1.58559	4.26245	-0.09523
3800.000	3.74306	1.78609	4.05595	0.37506
3801.000	3.87100	2.04358	4.26638	0.39083
3802.000	3.89462	2.14858	4.24672	0.55351
3803.000	4.01858	2.15222	4.29783	0.69629
3804.000	4.07562	2.26105	4.58082	0.89826
3805.000	4.22509	2.40918	4.57099	1.00533
3806.000	4.35287	2.42857	4.62992	1.05283
3807.000	4.43149	2.32734	4.76346	1.19135
3808.000	4.65153	2.47904	4.84787	1.36160
3809.000	4.64367	2.54636	4.80468	1.41518
3810.000	4.66920	2.57001	4.93423	1.42085
3811.000	4.66135	2.75800	5.02252	1.46225
3812.000	4.73990	2.80912	4.93226	1.75160
3813.000	4.77720	2.91576	4.85965	1.95378
3814.000	4.67117	3.17522	4.97151	1.87426
3815.000	4.69080	3.25815	4.67117	2.31864
3816.000	4.66527	3.33534	4.69473	2.41753
3817.000	4.60832	3.38501	4.58474	2.63167
3818.000	4.72419	3.39631	4.64171	2.56220
3819.000	4.64956	3.40457	4.50420	2.75663
3820.000	4.55921	3.42674	4.51009	2.69131
3821.000	4.62599	3.34541	4.60439	2.61774
3822.000	4.65742	3.36502	4.44721	2.72320
3823.000	4.67902	3.38072	4.47276	2.62416
3824.000	4.65349	3.25832	4.53170	2.62988
3825.000	4.62599	3.29797	4.58278	2.54262
3826.000	4.71241	3.29164	4.50616	2.58445
3827.000	4.53760	3.26873	4.55921	2.52093
3828.000	4.67706	3.20089	4.50027	2.72301
3829.000	4.59260	3.21313	4.45704	2.62421
3830.000	4.54742	3.25880	4.67509	2.66299
3831.000	4.54153	3.30429	4.49634	2.77843
3832.000	4.56510	3.40300	4.43346	2.82615
3833.000	4.53760	3.22919	4.58474	2.75434
3834.000	4.58867	3.26455	4.48258	2.73495
3835.000	4.58671	3.27444	4.59849	2.73451
3836.000	4.54742	3.29636	4.60046	2.85518
3837.000	4.49830	3.22542	4.62992	2.69679
3838.000	4.48651	3.20767	4.53367	2.94644
3839.000	4.53170	3.20945	4.58474	2.83348
3840.000	4.48062	3.28283	4.58278	2.78601
3841.000	4.51009	3.26292	4.53170	2.72487
3842.000	4.43542	3.33640	4.63385	2.76998
3843.000	4.48848	3.30849	4.57492	2.75438
3844.000	4.47079	3.32834	4.49634	2.85559
3845.000	4.37843	3.31096	4.54545	2.79011
3846.000	4.49437	3.27288	4.51205	2.74671
3847.000	4.43149	3.34630	4.53367	2.83170
3848.000	4.51991	3.33602	4.58278	2.50699
3849.000	4.42756	3.25934	4.57492	2.66930
3850.000	4.43935	3.39173	4.57689	2.62180
3851.000	4.47865	3.26306	4.59260	2.59800
3852.000	4.51009	3.32420	4.51991	2.43990
3853.000	4.43542	3.28896	4.56314	2.43976
3854.000	4.47276	3.23739	4.48651	2.54691
3855.000	4.51009	3.30641	4.51991	2.47158
3856.000	4.45507	3.32050	4.51205	2.47952
3857.000	4.47276	3.27891	4.62992	2.27918
3858.000	4.55528	3.27853	4.65153	2.32465
3859.000	4.50420	3.34004	4.46686	2.41236
3860.000	4.47079	3.29078	4.56117	2.43977
3861.000	4.48258	3.28479	4.59064	2.23179
3862.000	4.37646	3.27538	4.61028	2.27727
3863.000	4.41577	3.16843	4.56314	2.30910
3864.000	4.51009	3.24909	4.63974	2.16036
3865.000	4.40594	3.32270	4.53760	2.11709
3866.000	4.41380	3.27719	4.50813	2.12114
3867.000	4.40987	3.30884	4.59653	2.08524
3868.000	4.45311	3.24143	4.58278	1.91494
3869.000	4.32339	3.27759	4.49437	2.06176
3870.000	4.36663	3.30705	4.50616	2.02806
3871.000	4.36663	3.22203	4.52384	1.91113
3872.000	4.41380	3.24753	4.47472	2.04993
3873.000	4.48651	3.25315	4.48062	1.94096
3874.000	4.54742	3.32798	4.43542	1.77861
3875.000	4.49044	3.24127	4.60046	1.78811
3876.000	4.52384	3.25891	4.57689	1.73468
3877.000	4.39612	3.14676	4.49044	1.72101
3878.000	4.51009	3.23129	4.58474	1.62172
3879.000	4.53367	3.22921	4.49634	1.58823
3880.000	4.47276	3.26704	4.61814	1.63948
3881.000	4.49437	3.24323	4.55724	1.59206
3882.000	4.51009	3.13639	4.51402	1.68133
3883.000	4.56706	3.19743	4.52188	1.47521
3884.000	4.58082	3.17365	4.58474	1.65144
3885.000	4.56706	3.21127	4.52777	1.60005
3886.000	4.51205	3.16802	4.35681	1.48545
3887.000	4.57885	3.17959	4.59653	1.44335
3888.000	4.56903	3.09461	4.57885	1.49095
3889.000	4.55921	3.15002	4.42166	1.41396
3890.000	4.53367	3.23910	4.50616	1.27703
3891.000	4.55921	3.15990	4.43149	1.22363
3892.000	4.69277	3.16326	4.57296	1.28880
3893.000	4.57689	3.14994	4.51402	1.29089
3894.000	4.58474	2.93832	4.30176	1.32298
3895.000	4.50813	3.07905	4.53367	1.19174
3896.000	4.59653	3.04901	4.55331	1.16197
3897.000	4.56117	3.00961	4.39808	1.33074
3898.000	4.49830	3.10282	4.48062	1.21760
3899.000	4.59064	3.10045	4.23885	1.48370
3900.000	4.52384	3.00384	4.50616	1.44353
3901.000	4.45704	3.12475	4.36467	1.16425
3902.000	4.45900	3.07135	4.28800	1.25559
3903.000	4.54349	3.11647	4.33322	1.29517
3904.000	4.44525	3.11689	4.42166	1.29700
3905.000	4.52188	3.05922	4.31159	1.47563
3906.000	4.49437	3.09691	4.31159	1.36658
3907.000	4.53367	3.07499	4.23885	1.55110
3908.000	4.56314	2.99181	4.21132	1.61658
3909.000	4.48651	3.00201	4.18576	1.48776
3910.000	4.51598	2.97024	4.53367	1.40978
3911.000	4.53563	3.02752	4.17593	1.65234
3912.000	4.59064	3.04706	4.09923	1.91022
3913.000	4.51402	3.02168	4.24475	1.62246
3914.000	4.43935	3.02792	4.26048	1.69775
3915.000	4.52974	3.07303	4.10906	1.75756
3916.000	4.43149	3.04575	4.21132	1.83860
3917.000	4.49044	2.99211	4.25065	1.85436
3918.000	4.47276	3.09898	4.23099	1.86828
3919.000	4.43346	3.00223	4.14643	2.00722
3920.000	4.47472	3.08513	4.18183	2.07054
3921.000	4.56903	3.10450	4.08742	2.12231
3922.000	4.42166	2.99634	4.00480	1.98775
3923.000	4.48258	3.02181	4.02448	2.19184
3924.000	4.38039	2.96090	4.02644	2.27704
3925.000	4.53563	3.00774	4.01464	2.31670
3926.000	4.46686	3.04758	4.03235	2.21956
3927.000	4.47865	3.06138	3.94184	2.36446
3928.000	4.40791	2.97464	4.08939	2.23723
3929.000	4.46686	3.00011	3.95562	2.36045
3930.000	4.46490	3.02979	3.95168	2.31291
3931.000	4.36860	2.96688	3.99103	2.24543
3932.000	4.32929	2.96308	3.92413	2.30110
3933.000	4.35681	2.95703	3.91233	2.35661
3934.000	4.43935	3.12680	3.91233	2.41209
3935.000	4.40201	2.91729	3.86116	2.28542
3936.000	4.40398	2.96872	3.82967	2.43412
3937.000	4.33518	2.88391	3.88871	2.44386
3938.000	4.39415	2.92721	4.00677	2.33059
3939.000	4.41184	2.87966	4.04415	2.47509
3940.000	4.30176	2.95923	3.90839	2.48343
3941.000	4.41184	2.96473	3.83754	2.45590
3942.000	4.43149	2.91322	3.98906	2.36432
3943.000	4.28800	2.89003	3.78637	2.47982
3944.000	4.34894	2.94915	3.98906	2.44158
3945.000	4.36270	2.93129	3.86313	2.52714
3946.000	4.31553	2.89784	3.93594	2.48929
3947.000	4.37056	2.99852	3.89265	2.58252
3948.000	4.29587	2.95331	3.92807	2.50516
3949.000	4.32142	3.01059	3.92413	2.43583
3950.000	4.35287	2.94914	3.99890	2.57427
3951.000	4.24082	2.92384	3.96545	2.55853
3952.000	4.28211	2.91577	3.98906	2.48120
3953.000	4.24475	2.88029	3.86116	2.60837
3954.000	4.30570	2.87017	3.95562	2.50309
3955.000	4.39022	2.87381	3.81589	2.50747
3956.000	4.25065	2.80507	3.87494	2.60040
3957.000	4.29587	2.85240	3.86116	2.62421
3958.000	4.33518	2.89776	3.90642	2.54880
3959.000	4.19166	2.87653	3.84935	2.59058
3960.000	4.23295	2.88430	3.92217	2.42791
3961.000	4.27424	2.81686	3.87887	2.60039
3962.000	4.25261	2.83475	3.91626	2.52500
3963.000	4.25065	2.89412	3.85329	2.56679
3964.000	4.28211	2.83068	3.91233	2.52303
3965.000	4.16806	2.79349	3.92413	2.57648
3966.000	4.23492	2.87241	3.83754	2.59854
3967.000	4.20149	2.88837	3.87887	2.59841
3968.000	4.27228	2.91779	3.85919	2.52319
3969.000	4.24672	2.83477	3.83164	2.59855
3970.000	4.23099	2.88034	3.83951	2.52127
3971.000	4.27228	2.81488	3.77653	2.70569
3972.000	4.14643	2.79158	3.81589	2.67783
3973.000	4.26245	2.79315	3.80999	2.68578
3974.000	4.23099	2.79920	3.87887	2.57266
3975.000	4.26441	2.78522	3.83164	2.63025
3976.000	4.16020	2.70839	3.83361	2.63420
3977.000	4.12676	2.80155	3.80408	2.73135
3978.000	4.15430	2.68069	3.81393	2.58870
3979.000	4.23492	2.76950	3.83754	2.65994
3980.000	4.14840	2.75990	3.78440	2.64228
3981.000	4.26441	2.75553	3.87691	2.65784
3982.000	4.23689	2.78928	3.84345	2.56088
3983.000	4.25851	2.75358	3.76275	2.58291
3984.000	4.27424	2.85050	3.93397	2.63983
3985.000	4.19166	2.78351	3.77850	2.61456
3986.000	4.23295	2.71606	3.78834	2.65811
3987.000	4.23099	2.73586	3.83951	2.65993
3988.000	4.15823	2.77373	3.85132	2.57868
3989.000	4.12086	2.69071	3.87494	2.72122
3990.000	4.11299	2.75211	3.89855	2.57062
3991.000	4.28014	2.81288	3.89068	2.60630
3992.000	4.27817	2.75549	3.87494	2.63408
3993.000	4.17986	2.76771	3.79621	2.61253
3994.000	4.10513	2.64522	3.78046	2.69577
3995.000	4.09726	2.86896	3.79818	2.63035
3996.000	4.18379	2.81323	3.79818	2.69175
3997.000	4.12676	2.76988	3.83164	2.72928
3998.000	4.21526	2.78144	3.87494	2.60634
3999.000	4.26441	2.78127	3.76669	2.63441
4000.000	4.15626	2.69455	3.83164	2.67184
4001.000	4.14053	2.73618	3.75881	2.80873
4002.000	4.17003	2.75389	3.84739	2.65001
4003.000	4.07562	2.69680	3.88871	2.73702
4004.000	4.21722	2.76362	3.76275	2.66017
4005.000	4.23492	2.70417	3.84739	2.64010
4006.000	4.17789	2.67665	3.80212	2.68778
4007.000	4.23885	2.74573	3.79818	2.85019
4008.000	4.19166	2.76371	3.83164	2.67580
4009.000	4.29194	2.76731	3.82180	2.68772
4010.000	4.16610	2.83308	3.75094	2.63049
4011.000	4.18773	2.68652	3.74700	2.73747
4012.000	4.24475	2.68632	3.76078	2.63046
4013.000	4.16806	2.70242	3.74700	2.73153
4014.000	4.21722	2.75768	3.74109	2.67806
4015.000	4.15036	2.73020	3.80015	2.61252
4016.000	4.10513	2.72442	3.82574	2.71543
4017.000	4.19363	2.69640	3.83164	2.51337
4018.000	4.15430	2.76780	3.79424	2.66404
4019.000	4.12086	2.73030	3.84542	2.61634
4020.000	4.19166	2.77163	3.80408	2.73333
4021.000	4.18969	2.66671	3.82377	2.65404
4022.000	4.17789	2.75584	3.75291	2.67803
4023.000	4.16413	2.67076	3.73519	2.59092
4024.000	4.20346	2.61717	3.77653	2.61853
4025.000	4.20542	2.68844	3.75881	2.64830
4026.000	4.21329	2.68841	3.74503	2.61664
4027.000	4.21526	2.72008	3.76078	2.59282
4028.000	4.09333	2.73040	3.78243	2.57691
4029.000	4.26048	2.57144	3.83361	2.72927
4030.000	4.16020	2.67473	3.82180	2.59660
4031.000	4.22902	2.69628	3.80212	2.64024
4032.000	4.14446	2.64509	3.81786	2.54907
4033.000	4.22509	2.66065	3.76275	2.52546
4034.000	4.20739	2.50825	3.79227	2.74129
4035.000	4.31946	2.71971	3.81393	2.59861
4036.000	4.23689	2.70615	3.66234	2.67236
4037.000	4.19559	2.75974	3.77653	2.63636
4038.000	4.17003	2.65490	3.77850	2.39265
4039.000	4.09333	2.66308	3.74109	2.62458
4040.000	4.28407	2.72973	3.72928	2.76723
4041.000	4.13660	2.63521	3.79227	2.68781
4042.000	4.18773	2.70038	3.80802	2.53919
4043.000	4.23099	2.72002	3.87887	2.50729
4044.000	4.20936	2.71614	3.76078	2.61065
4045.000	4.17199	2.61926	3.84935	2.59850
4046.000	4.19166	2.63503	3.73322	2.64243
4047.000	4.12283	2.60160	3.84739	2.57077
4048.000	4.05595	2.56815	3.79031	2.51151
4049.000	4.14446	2.57578	3.79424	2.60461
4050.000	4.20542	2.67062	3.81589	2.61643
4051.000	4.22116	2.61711	3.90249	2.65578
4052.000	4.14840	2.60547	3.74897	2.65031
4053.000	4.13070	2.61939	3.83164	2.54110
4054.000	4.12873	2.56395	3.87494	2.53899
4055.000	4.15036	2.62725	3.76669	2.68393
4056.000	4.18379	2.58556	3.80212	2.76898
4057.000	4.13660	2.53818	3.86903	2.57269
4058.000	4.12086	2.52239	3.81393	2.51936
4059.000	4.23099	2.53194	3.79227	2.54915
4060.000	4.14053	2.53223	3.75487	2.65227
4061.000	4.09726	2.48681	3.80802	2.61843
4062.000	4.20936	2.59933	3.90249	2.57853
4063.000	4.25655	2.49423	3.70960	2.64250
4064.000	4.13463	2.43124	3.88675	2.51519
4065.000	4.09333	2.49475	3.79424	2.57291
4066.000	4.11299	2.52440	3.80015	2.48374
4067.000	4.08546	2.49675	3.86116	2.55488
4068.000	4.10709	2.52838	3.83754	2.66390
4069.000	4.12480	2.47485	3.84345	2.65596
4070.000	4.06775	2.46908	3.83951	2.66786
4071.000	4.12283	2.45306	3.84542	2.59653
4072.000	4.17199	2.42717	3.82377	2.53717
4073.000	4.15036	2.43713	3.82377	2.57282
4074.000	4.15626	2.43910	3.78834	2.52142
4075.000	4.17396	2.42716	3.84345	2.54503
4076.000	4.18183	2.37960	3.85919	2.53508
4077.000	4.18969	2.40136	3.90839	2.56068
4078.000	4.13856	2.53818	3.90446	2.45372
4079.000	4.14643	2.47478	3.83951	2.58466
4080.000	4.19756	2.61917	3.91626	2.50916
4081.000	4.22312	2.50622	3.87691	2.53899
4082.000	4.28211	2.57335	3.82180	2.48566
4083.000	4.27228	2.56348	3.84148	2.52325
4084.000	4.15626	2.48465	3.88084	2.54690
4085.000	4.22312	2.46265	3.85132	2.45784
4086.000	4.23295	2.53589	3.86313	2.56874
4087.000	4.26048	2.49620	3.78637	2.61850
4088.000	4.29783	2.51192	3.90249	2.51514
4089.000	4.27031	2.53775	3.89659	2.48742
4090.000	4.20739	2.54786	3.84148	2.74311
4091.000	4.23492	2.55173	3.93201	2.58636
4092.000	4.19363	2.59740	3.87691	2.63803
4093.000	4.11693	2.51844	3.90839	2.58643
4094.000	4.20936	2.57161	3.94971	2.41000
4095.000	4.28211	2.44266	4.00874	2.49699
4096.000	4.30766	2.49605	3.94775	2.63385
4097.000	4.32732	2.46430	4.05989	2.46316
4098.000	4.26441	2.38925	4.17003	2.62916
4099.000	4.33125	2.46429	4.13266	2.53027
4100.000	4.12873	2.53425	3.95758	2.58232
4101.000	4.14250	2.56193	3.87691	2.59445
4102.000	4.01267	2.52075	3.88281	2.56868
4103.000	3.86707	2.72719	3.62296	2.71012
4104.000	3.65841	2.83480	3.35312	2.76836
4105.000	3.34721	2.91894	2.90371	2.74972
4106.000	3.13832	2.92945	2.60784	2.75635
4107.000	2.89779	3.02917	2.30394	2.76293
4108.000	2.47564	3.09760	2.00386	2.68809
4109.000	2.13615	3.12807	1.47057	2.84163
4110.000	1.84588	3.19801	1.19591	2.77448
4111.000	1.70170	3.28547	0.91132	2.74695
4112.000	1.30855	3.29003	0.70971	2.82051
4113.000	1.01410	3.15355	0.24515	2.83261
4114.000	0.81052	3.17158	-0.08501	2.91796
4115.000	0.70575	3.14389	-0.16014	2.72743
4116.000	0.53378	2.98927	-0.25899	2.68375
4117.000	0.36179	3.01711	-0.53773	2.78488
4118.000	0.11269	2.85446	-0.69785	2.65182
4119.000	-0.06722	2.93979	-0.92120	2.53455
4120.000	-0.17595	2.83858	-1.03188	2.60792
4121.000	-0.34399	2.82465	-1.23544	2.62361
4122.000	-0.56738	2.81265	-1.20777	2.52439
4123.000	-0.70575	2.77090	-1.49032	2.66898
4124.000	-0.84610	2.76684	-1.54762	2.57563
4125.000	-0.99829	2.77665	-1.60491	2.58747
4126.000	-1.12675	2.87177	-1.57527	2.50018
4127.000	-1.12279	2.80828	-1.66812	2.66875
4128.000	-1.19196	2.83401	-1.64639	2.64894
4129.000	-1.27693	2.76050	-1.59503	2.54779
4130.000	-1.25915	2.77441	-1.58713	2.52795
4131.000	-1.41129	2.70876	-1.63849	2.56758
4132.000	-1.43500	2.72461	-1.74120	2.59324
4133.000	-1.63454	2.83347	-1.74713	2.60117
4134.000	-1.62071	2.79580	-1.81626	2.57726
4135.000	-1.64046	2.82751	-1.86958	2.72401
4136.000	-1.72738	2.70438	-1.87946	2.63075
4137.000	-1.64244	2.74022	-1.82613	2.64868
4138.000	-1.66022	2.69257	-1.79848	2.51577
4139.000	-1.67800	2.59928	-1.75700	2.57536
4140.000	-1.69380	2.57743	-1.61281	2.50807
4141.000	-1.72145	2.57144	-1.61873	2.60333
4142.000	-1.61676	2.51998	-1.64244	2.58544
4143.000	-1.58910	2.49619	-1.62861	2.42468
4144.000	-1.65429	2.61519	-1.58515	2.57360
4145.000	-1.64639	2.50604	-1.52589	2.55780
4146.000	-1.53181	2.62924	-1.47057	2.51022
4147.000	-1.57132	2.64903	-1.55749	2.39499
4148.000	-1.53774	2.54786	-1.54762	2.50418
4149.000	-1.50613	2.57171	-1.52193	2.54192
4150.000	-1.54959	2.64112	-1.55749	2.58554
4151.000	-1.51008	2.57965	-1.63059	2.63110
4152.000	-1.50810	2.53400	-1.49428	2.45660
4153.000	-1.54169	2.66693	-1.65429	2.70845
4154.000	-1.53181	2.64313	-1.61478	2.55967
4155.000	-1.54564	2.57762	-1.62466	2.55966
4156.000	-1.56145	2.63714	-1.64837	2.59535
4157.000	-1.44488	2.59163	-1.66614	2.65883
4158.000	-1.37771	2.67109	-1.57725	2.66093
4159.000	-1.57132	2.70063	-1.57725	2.66292
4160.000	-1.56540	2.60141	-1.51008	2.58957
4161.000	-1.51601	2.62727	-1.55749	2.54387
4162.000	-1.50810	2.53598	-1.55157	2.46448
4163.000	-1.56342	2.52798	-1.66614	2.57945
4164.000	-1.56540	2.69071	-1.62861	2.49416
4165.000	-1.59108	2.63313	-1.51996	2.49627
4166.000	-1.54367	2.61732	-1.52193	2.51017
4167.000	-1.51008	2.76817	-1.61083	2.52792
4168.000	-1.54762	2.68081	-1.58120	2.60139
4169.000	-1.55157	2.54784	-1.51403	2.54987
4170.000	-1.60293	2.57160	-1.53379	2.68083
4171.000	-1.49032	2.54394	-1.59898	2.54977
4172.000	-1.62269	2.56959	-1.55749	2.65500
4173.000	-1.49823	2.64515	-1.59700	2.58351
4174.000	-1.53576	2.61336	-1.63651	2.51003
4175.000	-1.56145	2.67087	-1.60096	2.66487
4176.000	-1.50810	2.65705	-1.51403	2.58957
4177.000	-1.53379	2.58954	-1.63256	2.67277
4178.000	-1.54959	2.71851	-1.64046	2.62910
4179.000	-1.54762	2.58953	-1.64046	2.67276
4180.000	-1.55157	2.61334	-1.71355	2.71035
4181.000	-1.56540	2.66492	-1.72935	2.60715
4182.000	-1.56342	2.61928	-1.61873	2.65294
4183.000	-1.52193	2.59750	-1.62071	2.74620
4184.000	-1.60491	2.57159	-1.67800	2.62905
4185.000	-1.53379	2.49030	-1.67404	2.58937
4186.000	-1.57923	2.59544	-1.64639	2.63901
4187.000	-1.56935	2.60736	-1.66022	2.59732
4188.000	-1.52193	2.66299	-1.65232	2.75806
4189.000	-1.53576	2.47442	-1.79651	2.70230
4190.000	-1.51996	2.60147	-1.73923	2.76587
4191.000	-1.51403	2.49429	-1.62466	2.64500
4192.000	-1.48045	2.56182	-1.75898	2.71426
4193.000	-1.52193	2.60543	-1.82811	2.71019
4194.000	-1.54959	2.56571	-1.73133	2.71033
4195.000	-1.56540	2.60538	-1.89525	2.63469
4196.000	-1.49032	2.49035	-1.80243	2.65467
4197.000	-1.58515	2.54582	-1.74515	2.69444
4198.000	-1.50218	2.66698	-1.80243	2.73007
4199.000	-1.50218	2.65110	-1.88143	2.80533
4200.000	-1.48835	2.58364	-1.85971	2.71014
4201.000	-1.57132	2.55377	-1.83008	2.64074
4202.000	-1.56540	2.60935	-1.82021	2.72012
4203.000	-1.39746	2.61153	-1.78663	2.63684
4204.000	-1.51206	2.60545	-1.77478	2.70233
4205.000	-1.53971	2.57763	-1.80441	2.72808
4206.000	-1.58910	2.53589	-1.72145	2.52976
4207.000	-1.50020	2.62332	-1.79256	2.71818
4208.000	-1.48045	2.54197	-1.80441	2.65070
4209.000	-1.52391	2.58757	-1.92488	2.69813
4210.000	-1.47452	2.55984	-1.73725	2.71429
4211.000	-1.43105	2.58966	-1.93475	2.63066
4212.000	-1.48440	2.56777	-1.88143	2.56725
4213.000	-1.46069	2.60948	-1.79453	2.67849
4214.000	-1.43105	2.56981	-1.74515	2.63293
4215.000	-1.45476	2.69680	-1.81428	2.65862
4216.000	-1.48440	2.67692	-1.75305	2.60315
4217.000	-1.40932	2.66907	-1.74515	2.56744
4218.000	-1.48835	2.54593	-1.71948	2.64884
4219.000	-1.36190	2.66913	-1.83601	2.63081
4220.000	-1.51601	2.55185	-1.68787	2.67468
4221.000	-1.46464	2.54596	-1.86366	2.74584
4222.000	-1.39351	2.68298	-1.91895	2.73980
4223.000	-1.49032	2.63326	-1.82218	2.67052
4224.000	-1.46069	2.58963	-1.90710	2.68427
4225.000	-1.49230	2.66302	-1.79651	2.65666
4226.000	-1.53379	2.59947	-1.87353	2.59901
4227.000	-1.35399	2.71279	-1.75700	2.59124
4228.000	-1.47649	2.66106	-1.87551	2.58710
4229.000	-1.41722	2.65914	-1.81033	2.57330
4230.000	-1.45081	2.67498	-1.80046	2.67848
4231.000	-1.42710	2.70080	-1.77083	2.61106
4232.000	-1.40142	2.60557	-1.83206	2.58121
4233.000	-1.48835	2.69875	-1.71750	2.75003
4234.000	-1.46266	2.60947	-1.77676	2.66860
4235.000	-1.47847	2.67495	-1.77873	2.57732
4236.000	-1.40932	2.67900	-1.78071	2.59517
4237.000	-1.40339	2.58572	-1.81823	2.75186
4238.000	-1.43105	2.66508	-1.79256	2.61103
4239.000	-1.39351	2.75839	-1.86168	2.65260
4240.000	-1.48440	2.52807	-1.73725	2.61309
4241.000	-1.43303	2.62737	-1.73725	2.49799
4242.000	-1.57330	2.60140	-1.82021	2.60305
4243.000	-1.42710	2.59562	-1.73330	2.48212
4244.000	-1.55354	2.69866	-1.74120	2.62896
4245.000	-1.42315	2.58769	-1.70762	2.70044
4246.000	-1.48440	2.59159	-1.81428	2.65069
4247.000	-1.49625	2.67294	-1.79058	2.61500
4248.000	-1.42315	2.67898	-1.75305	2.62101
4249.000	-1.62861	2.55569	-1.77478	2.54755
4250.000	-1.38363	2.65521	-1.80638	2.64276
4251.000	-1.36190	2.65523	-1.68392	2.61515
4252.000	-1.58713	2.68870	-1.80046	2.68444
4253.000	-1.48835	2.58166	-1.75503	2.63490
4254.000	-1.49428	2.54989	-1.70762	2.72227
4255.000	-1.51206	2.66895	-1.73330	2.44639
4256.000	-1.48835	2.58563	-1.72935	2.63096
4257.000	-1.53774	2.50816	-1.74515	2.65674
4258.000	-1.43896	2.60355	-1.78268	2.63883
4259.000	-1.57527	2.57361	-1.67997	2.73620
4260.000	-1.52193	2.54391	-1.67800	2.76397
4261.000	-1.58713	2.57558	-1.77676	2.57533
4262.000	-1.51206	2.66300	-1.90513	2.57118
4263.000	-1.51996	2.66894	-1.67404	2.64096
4264.000	-1.50415	2.64316	-1.72540	2.72224
4265.000	-1.47847	2.63327	-1.71553	2.60717
4266.000	-1.43303	2.75040	-1.91105	2.65451
4267.000	-1.40932	2.64526	-1.80243	2.60308
4268.000	-1.44686	2.64125	-1.72540	2.68653
4269.000	-1.46859	2.58962	-1.72738	2.66470
4270.000	-1.44291	2.71071	-1.81033	2.64474
4271.000	-1.41327	2.52617	-1.82416	2.71615
4272.000	-1.54169	2.50022	-1.75108	2.60712
4273.000	-1.49230	2.54791	-1.80441	2.69435
4274.000	-1.52984	2.58161	-1.90908	2.70808
4275.000	-1.44488	2.57972	-1.74910	2.67459
4276.000	-1.43500	2.51225	-1.72145	2.58732
4277.000	-1.51403	2.52605	-1.83008	2.70423
4278.000	-1.51008	2.56178	-1.75898	2.70831
4279.000	-1.57527	2.57758	-1.72540	2.71034
4280.000	-1.38758	2.51825	-1.72145	2.64883
4281.000	-1.39944	2.44082	-1.80836	2.72807
4282.000	-1.44883	2.52414	-1.74910	2.58530
4283.000	-1.51206	2.48040	-1.71553	2.76987
4284.000	-1.49428	2.51814	-1.80243	2.69039
4285.000	-1.53181	2.51809	-1.75503	2.68252
4286.000	-1.46464	2.48840	-1.77873	2.63288
4287.000	-1.46859	2.47450	-1.74910	2.69046
4288.000	-1.55947	2.50417	-1.81231	2.72410
4289.000	-1.59503	2.45450	-1.88341	2.78152
4290.000	-1.50218	2.48438	-1.73725	2.72024
4291.000	-1.55947	2.48829	-1.71355	2.67662
4292.000	-1.57725	2.46445	-1.61478	2.68470
4293.000	-1.55354	2.52998	-1.73725	2.74405
4294.000	-1.44883	2.44673	-1.79058	2.70826
4295.000	-1.49032	2.48638	-1.73923	2.61111
4296.000	-1.55354	2.48432	-1.80441	2.76379
4297.000	-1.50218	2.33152	-1.81428	2.68640
4298.000	-1.56342	2.43667	-1.75503	2.77180
4299.000	-1.52786	2.53993	-1.78071	2.62692
4300.000	-1.59700	2.33936	-1.65034	2.58146
4301.000	-1.49428	2.47050	-1.75108	2.61307
4302.000	-1.57330	2.40887	-1.87156	2.65258
4303.000	-1.53576	2.34737	-1.66219	2.56160
4304.000	-1.49823	2.49828	-1.72343	2.60716
4305.000	-1.54564	2.36125	-1.76095	2.60711
4306.000	-1.53971	2.34141	-1.70565	2.60917
4307.000	-1.56540	2.51011	-1.75503	2.65672
4308.000	-1.50415	2.40299	-1.69775	2.55361
4309.000	-1.59700	2.38899	-1.65232	2.63107
4310.000	-1.54762	2.31757	-1.73330	2.62302
4311.000	-1.59503	2.29568	-1.66022	2.60526
4312.000	-1.65627	2.44847	-1.72145	2.57144
4313.000	-1.55552	2.25403	-1.63059	2.52194
4314.000	-1.55157	2.38706	-1.65627	2.56756
4315.000	-1.56342	2.35528	-1.68590	2.51989
4316.000	-1.53181	2.45259	-1.70960	2.60718
4317.000	-1.55157	2.46051	-1.77478	2.62098
4318.000	-1.50020	2.43476	-1.71948	2.64685
4319.000	-1.49823	2.51218	-1.68392	2.51394
4320.000	-1.61676	2.43661	-1.66219	2.54969
4321.000	-1.51206	2.44070	-1.64837	2.68862
4322.000	-1.55552	2.45653	-1.72145	2.58335
4323.000	-1.57132	2.45453	-1.69182	2.59331
4324.000	-1.53971	2.45258	-1.61281	2.49616
4325.000	-1.61083	2.43066	-1.71158	2.56352
4326.000	-1.58318	2.41878	-1.64837	2.48222
4327.000	-1.46662	2.45068	-1.70762	2.50200
4328.000	-1.54169	2.45059	-1.56737	2.52599
4329.000	-1.60293	2.48823	-1.73528	2.56547
4330.000	-1.55552	2.44859	-1.74515	2.56942
4331.000	-1.53379	2.40693	-1.69775	2.62109
4332.000	-1.50218	2.36130	-1.69972	2.57742
4333.000	-1.61676	2.48425	-1.70367	2.59330
4334.000	-1.45871	2.38914	-1.70565	2.55559
4335.000	-1.53774	2.51015	-1.66614	2.48816
4336.000	-1.49032	2.40698	-1.69972	2.54766
4337.000	-1.57527	2.36519	-1.64244	2.55170
4338.000	-1.50218	2.39505	-1.60886	2.58548
4339.000	-1.58910	2.42275	-1.68985	2.55759
4340.000	-1.58318	2.47635	-1.75898	2.59322
4341.000	-1.48637	2.41691	-1.66022	2.60923
4342.000	-1.55354	2.48432	-1.66417	2.67272
4343.000	-1.52984	2.41884	-1.66022	2.54374
4344.000	-1.45081	2.45665	-1.67800	2.61913
4345.000	-1.55749	2.46645	-1.70960	2.56947
4346.000	-1.49230	2.53600	-1.71158	2.61908
4347.000	-1.50020	2.41094	-1.65034	2.47031
4348.000	-1.50415	2.50820	-1.62664	2.58546
4349.000	-1.50020	2.44071	-1.72343	2.61907
4350.000	-1.48242	2.37323	-1.74318	2.53966
4351.000	-1.63256	2.34329	-1.72540	2.58533
4352.000	-1.56342	2.48233	-1.72343	2.57739
4353.000	-1.54564	2.56571	-1.73133	2.59127
4354.000	-1.61478	2.33537	-1.72145	2.58335
4355.000	-1.57330	2.46842	-1.65232	2.57947
4356.000	-1.55749	2.45851	-1.70960	2.54367
4357.000	-1.52391	2.31958	-1.66614	2.68264
4358.000	-1.48440	2.49433	-1.72145	2.60716
4359.000	-1.58318	2.45451	-1.75108	2.47217
4360.000	-1.45674	2.38120	-1.58318	2.53788
4361.000	-1.48242	2.46654	-1.67602	2.62905
4362.000	-1.52984	2.53199	-1.71158	2.57741
4363.000	-1.64046	2.43261	-1.73528	2.66866
4364.000	-1.60886	2.46242	-1.66812	2.68066
4365.000	-1.54169	2.37317	-1.66022	2.47427
4366.000	-1.62269	2.41477	-1.75898	2.62299
4367.000	-1.60293	2.36516	-1.73330	2.63096
4368.000	-1.54959	2.26198	-1.67404	2.67866
4369.000	-1.61873	2.40286	-1.74120	2.52180
4370.000	-1.59305	2.26788	-1.76886	2.60710
4371.000	-1.59305	2.36914	-1.71948	2.58137
4372.000	-1.65429	2.38297	-1.65824	2.63106
4373.000	-1.65232	2.30157	-1.61676	2.50211
4374.000	-1.54959	2.40890	-1.75898	2.63688
4375.000	-1.58713	2.30760	-1.73330	2.62302
4376.000	-1.59700	2.36120	-1.68195	2.56752
4377.000	-1.58713	2.35128	-1.69577	2.59727
4378.000	-1.61083	2.33140	-1.65627	2.47229
4379.000	-1.53774	2.35729	-1.67997	2.48218
4380.000	-1.62466	2.38300	-1.65824	2.57153
4381.000	-1.61083	2.36912	-1.73528	2.54761
4382.000	-1.58318	2.34334	-1.64244	2.62910
4383.000	-1.48242	2.35140	-1.60491	2.59342
4384.000	-1.53379	2.38509	-1.76688	2.55550
4385.000	-1.59898	2.37708	-1.71948	2.58930
4386.000	-1.61281	2.24999	-1.63651	2.53980
4387.000	-1.54564	2.33941	-1.60096	2.51603
4388.000	-1.59305	2.28973	-1.69972	2.63894
4389.000	-1.62466	2.35719	-1.75108	2.53369
4390.000	-1.65429	2.36510	-1.70565	2.51986
4391.000	-1.57923	2.26591	-1.77281	2.48206
4392.000	-1.58713	2.40290	-1.59700	2.51008
4393.000	-1.61478	2.38897	-1.67800	2.50204
4394.000	-1.58318	2.32150	-1.70960	2.54367
4395.000	-1.69577	2.34718	-1.74318	2.55752
4396.000	-1.65429	2.42664	-1.67602	2.46036
4397.000	-1.50415	2.44865	-1.70762	2.58932
4398.000	-1.64244	2.48422	-1.64441	2.42863
4399.000	-1.60293	2.40685	-1.72738	2.50793
4400.000	-1.54959	2.44264	-1.72738	2.63692
4401.000	-1.54367	2.32155	-1.74515	2.70634
4402.000	-1.53181	2.40693	-1.65429	2.55962
4403.000	-1.46069	2.44870	-1.70565	2.61512
4404.000	-1.60491	2.28773	-1.61478	2.41080
4405.000	-1.52391	2.39701	-1.60293	2.50411
4406.000	-1.52984	2.43870	-1.64639	2.56360
4407.000	-1.52786	2.36723	-1.58713	2.39694
4408.000	-1.47254	2.25808	-1.53181	2.54787
4409.000	-1.42513	2.13699	-1.39351	2.48252
4410.000	-1.31645	2.00202	-1.35597	2.21451
4411.000	-1.14058	1.81738	-1.20579	2.12923
4412.000	-1.13268	1.60275	-1.02793	1.87705
4413.000	-0.83226	1.49556	-0.91330	1.61081
4414.000	-0.84017	1.48760	-0.75319	1.57113
4415.000	-0.77889	1.38027	-0.57727	1.29086
4416.000	-0.58715	1.23320	-0.33806	1.31079
4417.000	-0.63657	1.31868	-0.31236	1.15569
4418.000	-0.47645	1.25708	-0.25701	1.09206
4419.000	-0.45668	1.35252	-0.20165	1.08808
4420.000	-0.54168	1.25309	-0.15223	0.86931
4421.000	-0.47052	1.16561	-0.08897	0.86932
4422.000	-0.31829	1.19944	-0.12060	0.84545
4423.000	-0.30841	0.98665	-0.25503	0.76389
4424.000	-0.31632	1.05626	-0.22538	0.73803
4425.000	-0.41121	0.94089	-0.34004	0.67239
4426.000	-0.28271	0.80964	-0.36376	0.58685
4427.000	-0.25503	0.93494	-0.34795	0.51922
4428.000	-0.27678	0.74798	-0.27085	0.42772
4429.000	-0.23922	0.74201	-0.28469	0.32029
4430.000	-0.13641	0.73207	-0.18584	0.19894
4431.000	-0.21154	0.52917	-0.11467	0.18303
4432.000	-0.13839	0.49138	0.02372	0.05173
4433.000	-0.10083	0.51525	-0.06722	0.01790
4434.000	-0.03361	0.34616	-0.06920	-0.07759
4435.000	-0.04152	0.32626	-0.06326	-0.16114
4436.000	0.03163	0.28648	-0.11467	-0.26061
4437.000	-0.09490	0.27653	-0.18188	-0.15517
4438.000	-0.12653	0.16711	-0.10083	-0.24868
4439.000	-0.08501	0.24669	-0.18584	-0.28051
4440.000	-0.08897	0.23674	-0.18188	-0.22679
4441.000	-0.07513	0.35411	-0.18979	-0.03780
4442.000	-0.08501	0.36406	-0.21945	-0.16114
4443.000	-0.05140	0.33621	-0.35388	-0.03183
4444.000	-0.13839	0.46751	-0.33806	0.14324
4445.000	0.02570	0.44761	-0.26294	0.15716
4446.000	0.00198	0.60477	-0.28864	0.21883
4447.000	0.00791	0.52321	-0.35586	0.22878
4448.000	0.04547	0.40584	-0.31236	0.14523
4449.000	-0.10478	0.52718	-0.33411	0.19894
4450.000	-0.20561	0.48740	-0.35586	0.18501
4451.000	0.02570	0.57891	-0.24119	0.18104
4452.000	0.03163	0.40584	-0.35586	0.28249
4453.000	-0.07710	0.41578	-0.26887	0.16711
4454.000	-0.05931	0.45756	-0.26096	0.19496
4455.000	-0.10478	0.43767	-0.31039	0.15119
4456.000	-0.05140	0.42573	-0.29852	0.24669
4457.000	-0.07513	0.42573	-0.30643	0.23077
4458.000	0.00198	0.43966	-0.27085	0.14523
4459.000	-0.00989	0.29443	-0.35783	0.21088
4460.000	-0.06524	0.31632	-0.34004	0.25862
4461.000	-0.03559	0.46353	-0.32027	0.27851
4462.000	-0.00395	0.36605	-0.33609	0.29642
4463.000	-0.05931	0.38793	-0.32818	0.24470
4464.000	-0.13444	0.41181	-0.29457	0.30438
4465.000	-0.01779	0.38793	-0.29457	0.29443
4466.000	0.05338	0.40385	-0.26887	0.44363
4467.000	-0.01779	0.41976	-0.28469	0.43169
4468.000	0.08303	0.43966	-0.33411	0.46949
4469.000	0.02966	0.38396	-0.36574	0.51922
4470.000	-0.02966	0.46751	-0.34597	0.37798
4471.000	-0.02570	0.42573	-0.42505	0.34217
4472.000	0.01186	0.41777	-0.39539	0.39986
4473.000	-0.05338	0.41578	-0.33213	0.41578
4474.000	-0.08897	0.37202	-0.35981	0.44363
4475.000	-0.01384	0.41578	-0.33016	0.47546
4476.000	-0.03559	0.41578	-0.30050	0.31830
4477.000	-0.00198	0.39788	-0.45272	0.40384
4478.000	0.03559	0.43767	-0.26887	0.45557
4479.000	0.06129	0.34616	-0.23329	0.38992
4480.000	-0.06326	0.37998	-0.42307	0.39588
4481.000	0.07513	0.41777	-0.38156	0.44164
4482.000	0.02372	0.42971	-0.41121	0.37599
4483.000	-0.05733	0.46552	-0.43691	0.40981
4484.000	-0.06524	0.43966	-0.37760	0.51325
4485.000	-0.07117	0.46154	-0.24712	0.38196
4486.000	-0.04745	0.45358	-0.37167	0.52121
4487.000	-0.04943	0.42374	-0.35586	0.38594
4488.000	-0.02768	0.44761	-0.33609	0.36803
4489.000	-0.05338	0.40584	-0.26689	0.40583
4490.000	0.07315	0.39390	-0.35388	0.39787
4491.000	-0.04745	0.37799	-0.42702	0.41577
4492.000	-0.00593	0.45756	-0.28666	0.45159
4493.000	-0.04745	0.38197	-0.36969	0.40981
4494.000	-0.04349	0.47149	-0.37365	0.42970
4495.000	-0.00791	0.33621	-0.32620	0.25663
4496.000	-0.00593	0.37998	-0.35586	0.38594
4497.000	-0.00395	0.42573	-0.40923	0.47147
4498.000	0.01582	0.45159	-0.42109	0.48540
4499.000	0.01384	0.43767	-0.35190	0.32825
4500.000	-0.05733	0.30637	-0.32422	0.46153
4501.000	-0.02570	0.40186	-0.26096	0.26061
4502.000	-0.08303	0.40982	-0.28864	0.39191
4503.000	0.13048	0.42573	-0.29852	0.49734
4504.000	-0.00791	0.37998	-0.29457	0.35212
4505.000	0.02768	0.47149	-0.21747	0.42175
4506.000	-0.03163	0.38992	-0.34993	0.29642
4507.000	-0.03559	0.44761	-0.37167	0.40583
4508.000	0.12257	0.42175	-0.32620	0.41777
4509.000	-0.10280	0.43966	-0.24119	0.56697
4510.000	0.06129	0.45358	-0.31039	0.48739
4511.000	-0.01186	0.40385	-0.34202	0.41180
4512.000	0.01582	0.53713	-0.33609	0.38196
4513.000	0.01186	0.34019	-0.38353	0.37997
4514.000	-0.05733	0.42374	-0.21747	0.53315
4515.000	0.00791	0.50928	-0.36969	0.46153
4516.000	0.02768	0.48740	-0.37167	0.47545
4517.000	0.01582	0.44761	-0.29457	0.37201
4518.000	-0.06129	0.46552	-0.28271	0.41777
4519.000	0.02175	0.48342	-0.37167	0.51126
4520.000	-0.03163	0.41181	-0.33609	0.36803
4521.000	0.05338	0.49735	-0.23131	0.46154
4522.000	-0.01582	0.39589	-0.28864	0.45755
4523.000	0.02768	0.47546	-0.36969	0.47744
4524.000	0.00593	0.47546	-0.35388	0.37997
4525.000	-0.10478	0.49735	-0.31632	0.43368
4526.000	-0.03756	0.48541	-0.27678	0.38793
4527.000	-0.06920	0.54907	-0.35981	0.38196
4528.000	0.04547	0.51525	-0.40726	0.39787
4529.000	-0.03954	0.47944	-0.36179	0.40782
4530.000	-0.07513	0.44562	-0.38551	0.46551
4531.000	-0.04349	0.40584	-0.41516	0.51922
4532.000	0.00593	0.40584	-0.40923	0.42970
4533.000	0.01384	0.39589	-0.42307	0.47744
4534.000	0.00593	0.46154	-0.30050	0.38196
4535.000	-0.06920	0.36008	-0.45865	0.44760
4536.000	-0.06524	0.35412	-0.40923	0.38991
4537.000	-0.01779	0.37401	-0.40133	0.49137
4538.000	-0.05338	0.41578	-0.40528	0.43368
4539.000	-0.03163	0.48143	-0.40330	0.45954
4540.000	0.01582	0.42971	-0.35190	0.50927
4541.000	-0.00791	0.44165	-0.38353	0.53911
4542.000	-0.01186	0.46751	-0.43889	0.43368
4543.000	-0.01186	0.44165	-0.44284	0.43368
4544.000	-0.02175	0.40783	-0.31236	0.41777
4545.000	0.01977	0.53514	-0.45075	0.49335
4546.000	0.00395	0.50133	-0.42702	0.53911
4547.000	0.03559	0.51724	-0.42900	0.56894
4548.000	0.06129	0.41578	-0.37563	0.43965
4549.000	-0.01779	0.51326	-0.37958	0.47943
4550.000	-0.03559	0.54708	-0.36969	0.46949
4551.000	0.03361	0.38396	-0.30446	0.44562
4552.000	-0.00395	0.56100	-0.44482	0.46351
4553.000	0.01384	0.54907	-0.46261	0.41577
4554.000	0.11862	0.55503	-0.43098	0.49932
4555.000	0.12060	0.50928	-0.39342	0.49535
4556.000	0.02966	0.57891	-0.46854	0.57093
4557.000	0.04152	0.52719	-0.38156	0.49137
4558.000	0.14037	0.45955	-0.32818	0.44761
4559.000	0.12850	0.45358	-0.37167	0.49734
4560.000	0.18188	0.49337	-0.32818	0.56895
4561.000	0.07513	0.60079	-0.40923	0.45755
4562.000	0.16014	0.52122	-0.41319	0.48142
4563.000	0.06326	0.50331	-0.45668	0.49733
4564.000	0.05338	0.47944	-0.37958	0.42572
4565.000	0.00593	0.47546	-0.38946	0.50131
4566.000	0.12455	0.43568	-0.38946	0.46153
4567.000	0.11269	0.50132	-0.44086	0.50927
4568.000	0.08106	0.48541	-0.35783	0.29841
4569.000	0.13246	0.50132	-0.34597	0.51524
4570.000	0.04943	0.51326	-0.31039	0.52320
4571.000	0.11664	0.58288	-0.36772	0.61868
4572.000	0.08699	0.46552	-0.33411	0.49535
4573.000	0.07908	0.54907	-0.36179	0.47148
4574.000	0.19968	0.55105	-0.37167	0.41777
4575.000	0.12455	0.51923	-0.36969	0.45954
4576.000	0.03954	0.51326	-0.47249	0.48341
4577.000	0.06129	0.50729	-0.40726	0.45357
4578.000	0.05536	0.42175	-0.41912	0.44959
4579.000	0.06920	0.50530	-0.37760	0.31034
4580.000	0.08303	0.54111	-0.42109	0.45556
4581.000	0.11071	0.47347	-0.36574	0.57691
4582.000	0.11664	0.47745	-0.36179	0.45954
4583.000	0.05931	0.46751	-0.37563	0.45954
4584.000	0.08501	0.53116	-0.33806	0.38992
4585.000	0.12257	0.57294	-0.42307	0.43169
4586.000	0.04349	0.58487	-0.41714	0.48341
4587.000	0.15618	0.52718	-0.34004	0.45954
4588.000	0.20956	0.43965	-0.44284	0.39986
4589.000	0.07315	0.41578	-0.46063	0.33819
4590.000	0.10874	0.53116	-0.44877	0.40384
4591.000	0.13048	0.42175	-0.36376	0.42771
4592.000	0.19770	0.56100	-0.47249	0.40781
4593.000	0.09094	0.50928	-0.39342	0.49336
4594.000	0.21154	0.55304	-0.48040	0.43964
4595.000	0.19177	0.44761	-0.39342	0.48142
4596.000	0.17991	0.57691	-0.37563	0.40384
4597.000	0.25701	0.52121	-0.38946	0.50131
4598.000	0.17200	0.47944	-0.45272	0.53115
4599.000	0.26887	0.55304	-0.49819	0.43566
4600.000	0.13246	0.46950	-0.48040	0.34018
4601.000	0.16014	0.50331	-0.42702	0.48938
4602.000	0.21945	0.51127	-0.36574	0.48341
4603.000	0.20363	0.48143	-0.43493	0.49932
4604.000	0.14234	0.52519	-0.40133	0.57491
4605.000	0.15816	0.47347	-0.45865	0.40185
4606.000	0.19572	0.46552	-0.42307	0.34814
4607.000	0.13048	0.49933	-0.44679	0.54308
4608.000	0.13048	0.50530	-0.38353	0.45755
4609.000	0.16409	0.40783	-0.39737	0.45954
4610.000	0.11269	0.52321	-0.33411	0.56497
4611.000	0.11862	0.50530	-0.44284	0.51325
4612.000	0.20561	0.44960	-0.45470	0.34814
4613.000	0.17793	0.46353	-0.46854	0.54706
4614.000	0.20165	0.45358	-0.39935	0.48739
4615.000	0.17595	0.52519	-0.34597	0.44761
4616.000	0.21549	0.46353	-0.47052	0.35012
4617.000	0.11071	0.43767	-0.43889	0.36803
4618.000	0.20758	0.43369	-0.39737	0.45556
4619.000	0.26096	0.45955	-0.38353	0.64056
4620.000	0.14432	0.53713	-0.39144	0.46949
4621.000	0.12653	0.42971	-0.43889	0.41378
4622.000	0.16607	0.41976	-0.45470	0.39389
4623.000	0.15618	0.49337	-0.39539	0.51325
4624.000	0.18188	0.49734	-0.41714	0.42174
4625.000	0.11467	0.53116	-0.37563	0.47347
4626.000	0.26887	0.55901	-0.51401	0.41776
4627.000	0.16211	0.52917	-0.52784	0.51921
4628.000	0.19770	0.46750	-0.37958	0.45158
4629.000	0.19968	0.43568	-0.37760	0.52121
4630.000	0.17398	0.42374	-0.38156	0.48739
4631.000	0.16607	0.44960	-0.43098	0.38792
4632.000	0.30248	0.38793	-0.43889	0.44561
4633.000	0.23724	0.42772	-0.36574	0.43169
4634.000	0.21747	0.41180	-0.37760	0.51723
4635.000	0.16804	0.37998	-0.45272	0.43765
4636.000	0.19968	0.39390	-0.41121	0.39986
4637.000	0.16607	0.46751	-0.41912	0.47545
4638.000	0.21549	0.50928	-0.32620	0.35411
4639.000	0.20956	0.33223	-0.40726	0.39986
4640.000	0.13641	0.38594	-0.41516	0.44362
4641.000	0.10874	0.47546	-0.40330	0.42970
4642.000	0.16014	0.38793	-0.41912	0.56298
4643.000	0.22142	0.43369	-0.45865	0.39787
4644.000	0.15618	0.44363	-0.33213	0.37798
4645.000	0.18188	0.51326	-0.33213	0.44363
4646.000	0.21549	0.32228	-0.33213	0.33621
4647.000	0.26294	0.53116	-0.34004	0.33223
4648.000	0.15223	0.38992	-0.41121	0.35610
4649.000	0.20165	0.42772	-0.52982	0.46948
4650.000	0.10676	0.54111	-0.44877	0.43964
4651.000	0.21945	0.47745	-0.38551	0.46949
4652.000	0.20561	0.43568	-0.55354	0.46152
4653.000	0.18584	0.48143	-0.43098	0.43169
4654.000	0.32422	0.48938	-0.48238	0.54308
4655.000	0.10874	0.44562	-0.44086	0.45357
4656.000	0.18188	0.49138	-0.53971	0.41975
4657.000	0.14630	0.57294	-0.43098	0.49335
4658.000	0.18584	0.52122	-0.36179	0.29443
4659.000	0.17595	0.44960	-0.37365	0.45954
4660.000	0.20165	0.41777	-0.39737	0.38395
4661.000	0.17398	0.47745	-0.38551	0.31631
4662.000	0.21549	0.52121	-0.52982	0.53711
4663.000	0.17595	0.47546	-0.41912	0.53911
4664.000	0.15025	0.42374	-0.42900	0.45556
4665.000	0.23922	0.45955	-0.47645	0.39190
4666.000	0.23131	0.37600	-0.45668	0.44362
4667.000	0.21154	0.42175	-0.43296	0.46153
4668.000	0.14234	0.47347	-0.45075	0.48937
4669.000	0.20165	0.51923	-0.49819	0.49335
4670.000	0.18386	0.45159	-0.46459	0.43169
4671.000	0.23329	0.39788	-0.34795	0.46949
4672.000	0.29852	0.55702	-0.35981	0.43368
4673.000	0.11862	0.38594	-0.38946	0.50728
4674.000	0.18781	0.39191	-0.38946	0.47545
4675.000	0.21154	0.41777	-0.37760	0.49734
4676.000	0.15421	0.55702	-0.45075	0.55303
4677.000	0.19968	0.51127	-0.41516	0.41776
4678.000	0.24515	0.54111	-0.39737	0.38196
4679.000	0.24910	0.49137	-0.44086	0.34814
4680.000	0.25701	0.27653	-0.38551	0.47545
4681.000	0.22538	0.47546	-0.37958	0.47148
4682.000	0.26887	0.44562	-0.45470	0.42174
4683.000	0.21154	0.50729	-0.39935	0.45556
4684.000	0.16211	0.38395	-0.28864	0.41379
4685.000	0.21747	0.42374	-0.39342	0.61669
4686.000	0.20363	0.48342	-0.41912	0.52319
4687.000	0.19770	0.51127	-0.34004	0.34018
4688.000	0.22142	0.47546	-0.47052	0.47147
4689.000	0.21549	0.43568	-0.37365	0.47744
4690.000	0.16409	0.45955	-0.44086	0.54706
4691.000	0.16804	0.43568	-0.46656	0.46948
4692.000	0.10478	0.50331	-0.41912	0.49137
4693.000	0.21945	0.47745	-0.46261	0.39389
4694.000	0.20758	0.40584	-0.51005	0.46550
4695.000	0.21154	0.41379	-0.37167	0.34814
4696.000	0.17398	0.42573	-0.43493	0.39389
4697.000	0.20561	0.49933	-0.48633	0.48937
4698.000	0.30050	0.50132	-0.35586	0.48540
4699.000	0.29655	0.45159	-0.44877	0.43169
4700.000	0.21549	0.38395	-0.39539	0.49932
4701.000	0.20165	0.40981	-0.49819	0.33421
4702.000	0.18979	0.47148	-0.42702	0.28647
4703.000	0.19968	0.46552	-0.41516	0.41975
4704.000	0.23329	0.50132	-0.40923	0.37798
4705.000	0.22735	0.35411	-0.41121	0.47545
4706.000	0.30446	0.40384	-0.52784	0.38593
4707.000	0.18386	0.45756	-0.41912	0.43965
4708.000	0.25899	0.40981	-0.45865	0.44959
4709.000	0.16014	0.49734	-0.42505	0.28249
4710.000	0.31039	0.45159	-0.49226	0.41378
4711.000	0.33411	0.48938	-0.52784	0.39985
4712.000	0.20561	0.46750	-0.44679	0.46351
4713.000	0.18781	0.40981	-0.55947	0.41179
4714.000	0.22142	0.54509	-0.56343	0.41576
4715.000	0.25503	0.45756	-0.54366	0.31829
4716.000	0.21549	0.47745	-0.50808	0.43566
4717.000	0.24317	0.40385	-0.54959	0.40582
4718.000	0.27678	0.45557	-0.48238	0.36803
4719.000	0.17002	0.41777	-0.47842	0.39389
4720.000	0.18188	0.46949	-0.54366	0.38394
4721.000	0.23131	0.46352	-0.44284	0.48341
4722.000	0.11862	0.41181	-0.52191	0.41378
4723.000	0.16014	0.42374	-0.47052	0.32824
4724.000	0.18188	0.37401	-0.59703	0.41974
4725.000	0.21352	0.40584	-0.58517	0.35410
4726.000	0.11467	0.37003	-0.51203	0.35808
4727.000	0.08303	0.37003	-0.50017	0.35012
4728.000	0.08699	0.37401	-0.52982	0.35609
4729.000	0.11862	0.27056	-0.51005	0.50528
4730.000	0.00000	0.37600	-0.52587	0.45555
4731.000	0.08501	0.30040	-0.58122	0.42770
4732.000	0.06920	0.36804	-0.59308	0.35012
4733.000	0.08303	0.26658	-0.60692	0.33619
4734.000	0.11664	0.38594	-0.59110	0.39189
4735.000	0.07117	0.36804	-0.54168	0.47743
4736.000	0.15421	0.34417	-0.54959	0.42571
4737.000	0.09687	0.35610	-0.43691	0.39986
4738.000	0.08501	0.32229	-0.41912	0.37599
4739.000	0.12455	0.32825	-0.51401	0.35012
4740.000	0.06920	0.28250	-0.51796	0.42571
4741.000	0.21352	0.32228	-0.46854	0.34814
4742.000	0.11862	0.34616	-0.47645	0.28448
4743.000	0.00989	0.28051	-0.46261	0.36803
4744.000	0.09094	0.27255	-0.47645	0.30437
4745.000	0.15223	0.19695	-0.57727	0.52716
4746.000	0.07710	0.22480	-0.49028	0.30039
4747.000	0.11467	0.20491	-0.51005	0.34217
4748.000	0.10676	0.23276	-0.51401	0.35012
4749.000	0.07513	0.25664	-0.48831	0.43765
4750.000	0.11467	0.21685	-0.45075	0.41577
4751.000	0.02372	0.31433	-0.53773	0.45555
4752.000	-0.00198	0.20292	-0.37760	0.50728
4753.000	0.04745	0.35809	-0.44086	0.33819
4754.000	0.06920	0.30836	-0.54366	0.47146
4755.000	0.11862	0.23077	-0.38156	0.30040
4756.000	-0.02768	0.26857	-0.41516	0.26658
4757.000	0.17002	0.27852	-0.50017	0.36604
4758.000	0.17398	0.25067	-0.47052	0.35012
4759.000	-0.00989	0.14921	-0.52587	0.32824
4760.000	0.04745	0.29046	-0.52389	0.43367
4761.000	0.00989	0.25664	-0.47447	0.33023
4762.000	0.11862	0.29244	-0.51401	0.35609
4763.000	0.05140	0.23077	-0.44086	0.42771
4764.000	0.08501	0.27653	-0.52587	0.45157
4765.000	0.05733	0.35412	-0.50412	0.34217
4766.000	0.10083	0.25067	-0.45272	0.32625
4767.000	-0.03361	0.32229	-0.45272	0.33421
4768.000	0.11071	0.23475	-0.46063	0.34217
4769.000	0.09885	0.14324	-0.47447	0.33620
4770.000	0.05733	0.22481	-0.52389	0.35410
4771.000	0.05931	0.22679	-0.46854	0.34814
4772.000	0.06129	0.25067	-0.47842	0.30437
4773.000	0.14630	0.17706	-0.50610	0.47147
4774.000	0.00198	0.21287	-0.45470	0.29840
4775.000	0.13444	0.20690	-0.51598	0.33023
4776.000	0.11862	0.25266	-0.53378	0.39190
4777.000	0.06920	0.15319	-0.43098	0.29840
4778.000	-0.01384	0.21088	-0.45075	0.28249
4779.000	0.00395	0.22679	-0.43889	0.20491
4780.000	0.00989	0.26061	-0.41319	0.23872
4781.000	0.05931	0.17507	-0.51203	0.37797
4782.000	0.05536	0.19894	-0.58913	0.27254
4783.000	0.03954	0.08555	-0.41319	0.24867
4784.000	0.05140	0.16114	-0.52587	0.26060
4785.000	-0.01582	0.17507	-0.42505	0.33421
4786.000	-0.01384	0.16910	-0.43296	0.30835
4787.000	-0.04943	0.15518	-0.55750	0.39786
4788.000	-0.00198	0.08754	-0.40528	0.20491
4789.000	-0.00198	0.22878	-0.46063	0.32426
4790.000	0.11862	0.11141	-0.45075	0.30636
4791.000	0.10478	0.12136	-0.53575	0.48937
4792.000	0.09292	0.13329	-0.46063	0.44760
4793.000	0.00000	0.21088	-0.51994	0.28249
4794.000	0.02175	0.09151	-0.42307	0.30437
4795.000	0.15618	0.17308	-0.37167	0.40384
