time (ms)	lx (deg)	ly (deg)	rx (deg)	ry (deg)
0.000	0.93504	-2.49682	0.95283	-2.45511
1.000	0.91527	-2.50676	0.91330	-2.39954
2.000	0.97654	-2.49282	0.88365	-2.42736
3.000	0.94690	-2.51865	0.86388	-2.47106
4.000	0.94295	-2.52858	0.82633	-2.52469
5.000	0.96469	-2.48886	0.92318	-2.49683
6.000	0.94492	-2.49085	0.91725	-2.49286
7.000	0.98643	-2.49281	0.85400	-2.44326
8.000	0.96073	-2.50474	0.92713	-2.47895
9.000	0.96666	-2.47694	0.85993	-2.42936
10.000	0.94887	-2.50872	0.79075	-2.46514
11.000	0.98643	-2.48288	0.82238	-2.50285
12.000	0.96073	-2.53254	0.91923	-2.50279
13.000	0.92911	-2.53256	0.82633	-2.47108
14.000	0.97259	-2.52260	0.86191	-2.48694
15.000	0.95085	-2.52063	0.86586	-2.44723
16.000	0.93109	-2.51072	0.85400	-2.47702
17.000	0.95480	-2.50475	0.85400	-2.50084
18.000	0.90144	-2.55243	0.80261	-2.48896
19.000	0.91330	-2.54250	0.94097	-2.45710
20.000	0.96864	-2.50275	0.79668	-2.42741
21.000	0.96073	-2.49481	0.84017	-2.52468
22.000	0.93306	-2.50873	0.91527	-2.40351
23.000	0.97852	-2.53252	0.88365	-2.45913
24.000	0.97259	-2.52062	0.87970	-2.46707
25.000	0.93109	-2.53256	0.91923	-2.45712
26.000	0.92911	-2.52859	0.89946	-2.44125
27.000	0.95678	-2.51467	0.96469	-2.46304
28.000	0.94492	-2.52262	0.90342	-2.50478
29.000	0.95085	-2.50475	0.90737	-2.38366
30.000	0.97062	-2.52657	0.87574	-2.35786
31.000	0.95085	-2.52857	0.89749	-2.48890
32.000	0.97654	-2.54444	0.86784	-2.37574
33.000	0.98445	-2.55833	0.87377	-2.44921
34.000	0.96073	-2.53651	0.84412	-2.37377
35.000	0.93702	-2.55042	0.96864	-2.50275
36.000	0.90737	-2.53654	0.92911	-2.42137
37.000	0.97654	-2.51863	0.87179	-2.42141
38.000	0.94295	-2.54247	0.89353	-2.34991
39.000	0.93109	-2.53653	0.96271	-2.46305
40.000	0.93306	-2.51469	0.94295	-2.42533
41.000	0.92516	-2.48094	0.85203	-2.42539
42.000	0.89946	-2.49883	0.89749	-2.46111
43.000	0.97852	-2.50473	0.94887	-2.52460
44.000	0.92911	-2.50873	0.90342	-2.51272
45.000	0.93702	-2.49682	0.82831	-2.41151
46.000	0.91330	-2.54448	0.91330	-2.54647
47.000	0.91132	-2.51867	0.90342	-2.46309
48.000	0.94887	-2.52659	0.89749	-2.46309
49.000	0.91527	-2.52066	0.85598	-2.50283
50.000	0.92516	-2.50278	0.88167	-2.43332
51.000	0.89551	-2.55641	0.88563	-2.46707
52.000	0.88760	-2.58420	0.87772	-2.50678
53.000	0.87970	-2.60009	0.91330	-2.39557
54.000	0.93306	-2.54645	0.90737	-2.43529
55.000	0.87574	-2.59811	0.91725	-2.47698
56.000	0.87970	-2.61200	0.88563	-2.39757
57.000	0.88365	-2.60406	0.89749	-2.40154
58.000	0.89551	-2.59611	0.85203	-2.40752
59.000	0.92318	-2.56234	0.88958	-2.49884
60.000	0.95480	-2.59011	0.89946	-2.46905
61.000	0.91527	-2.54249	0.89551	-2.45317
62.000	0.95678	-2.59805	0.89156	-2.41743
63.000	0.90737	-2.56632	0.89353	-2.44324
64.000	0.89749	-2.58817	0.87574	-2.45913
65.000	0.91527	-2.59411	0.90144	-2.41543
66.000	0.90539	-2.55838	0.90539	-2.45911
67.000	0.91923	-2.61793	0.80459	-2.39167
68.000	0.89551	-2.55244	0.85598	-2.44326
69.000	0.90737	-2.60404	0.90539	-2.43926
70.000	0.92911	-2.60800	0.87179	-2.44524
71.000	0.91132	-2.57625	0.95283	-2.45710
72.000	0.90934	-2.62786	0.91923	-2.45712
73.000	0.92713	-2.59609	0.91527	-2.51272
74.000	0.94492	-2.58813	0.95283	-2.42533
75.000	0.93109	-2.52660	0.95876	-2.48092
76.000	0.92318	-2.56234	0.95480	-2.45312
77.000	0.86388	-2.49687	0.90737	-2.42337
78.000	0.86388	-2.42539	0.91330	-2.28039
79.000	0.86388	-2.31021	0.79273	-2.12354
80.000	0.85005	-2.12153	0.75912	-2.00237
81.000	0.81052	-1.99837	0.73936	-1.80963
82.000	0.78877	-1.81359	0.75912	-1.62479
83.000	0.67017	-1.56718	0.65634	-1.36043
84.000	0.65634	-1.37435	0.54564	-1.09003
85.000	0.55552	-1.12185	0.48238	-0.90906
86.000	0.58320	-0.91899	0.43098	-0.68431
87.000	0.47052	-0.67437	0.31829	-0.50132
88.000	0.35586	-0.52320	0.25701	-0.30239
89.000	0.29655	-0.31034	0.19968	-0.14722
90.000	0.22735	-0.15915	0.16607	-0.03581
91.000	0.14234	-0.01194	0.07117	0.10942
92.000	0.10676	0.00398	0.03361	0.08952
93.000	0.13839	0.08952	0.04943	0.23674
94.000	0.05931	0.12334	0.04152	0.21088
95.000	0.02175	0.10544	0.10083	0.18701
96.000	0.06524	0.05173	0.10280	0.14921
97.000	0.07117	0.00398	0.05140	0.03581
98.000	0.07117	-0.13130	0.14432	-0.05769
99.000	0.11862	-0.19894	0.17991	-0.19297
100.000	0.18979	-0.29443	0.23526	-0.24669
101.000	0.19375	-0.47745	0.30643	-0.38594
102.000	0.23329	-0.63261	0.27876	-0.52718
103.000	0.25899	-0.73207	0.42702	-0.60276
104.000	0.26887	-0.79969	0.39539	-0.76786
105.000	0.32027	-0.86334	0.53180	-0.82950
106.000	0.33609	-1.01250	0.49226	-0.86133
107.000	0.33411	-1.03835	0.43691	-0.88321
108.000	0.34202	-1.05227	0.53575	-0.89116
109.000	0.34597	-1.10199	0.55552	-1.00253
110.000	0.35190	-1.14574	0.54366	-0.91900
111.000	0.30248	-1.11592	0.51203	-0.99458
112.000	0.30446	-1.14774	0.58913	-0.95081
113.000	0.32225	-1.07415	0.44284	-0.88719
114.000	0.33016	-1.01250	0.44086	-0.81957
115.000	0.30841	-1.01250	0.42702	-0.82355
116.000	0.27876	-0.99461	0.38353	-0.78377
117.000	0.28469	-0.91107	0.40528	-0.71216
118.000	0.31632	-0.84146	0.41319	-0.69227
119.000	0.28271	-0.83351	0.33806	-0.63658
120.000	0.31039	-0.77781	0.35981	-0.61271
121.000	0.29457	-0.76190	0.39144	-0.51723
122.000	0.26096	-0.72411	0.30841	-0.48739
123.000	0.29852	-0.71217	0.35388	-0.45755
124.000	0.33609	-0.63260	0.32620	-0.43567
125.000	0.27085	-0.66245	0.27678	-0.43169
126.000	0.26096	-0.57293	0.30446	-0.40981
127.000	0.25701	-0.62067	0.30643	-0.39986
128.000	0.27678	-0.59879	0.27282	-0.41379
129.000	0.27876	-0.63261	0.31236	-0.44960
130.000	0.24317	-0.62863	0.28073	-0.43965
131.000	0.28864	-0.62266	0.29062	-0.39788
132.000	0.26689	-0.59680	0.33016	-0.40583
133.000	0.28271	-0.59481	0.29457	-0.39390
134.000	0.21945	-0.56498	0.28469	-0.47148
135.000	0.25503	-0.58288	0.32620	-0.48341
136.000	0.23922	-0.56896	0.34202	-0.45357
137.000	0.26887	-0.59282	0.29655	-0.43965
138.000	0.27085	-0.61868	0.30248	-0.45159
139.000	0.30446	-0.57293	0.31236	-0.47944
140.000	0.25108	-0.62465	0.34202	-0.47546
141.000	0.24910	-0.64653	0.32620	-0.45755
142.000	0.26492	-0.60675	0.28864	-0.46949
143.000	0.24910	-0.60277	0.29259	-0.46750
144.000	0.22735	-0.64852	0.31632	-0.48938
145.000	0.22735	-0.61471	0.29259	-0.48938
146.000	0.25305	-0.61670	0.33806	-0.52121
147.000	0.23131	-0.62863	0.35981	-0.57293
148.000	0.26689	-0.62266	0.31632	-0.51922
149.000	0.25108	-0.66444	0.29259	-0.57691
150.000	0.24712	-0.68632	0.26887	-0.43766
151.000	0.27085	-0.62067	0.31829	-0.55503
152.000	0.22142	-0.65250	0.31632	-0.49535
153.000	0.28864	-0.64255	0.34795	-0.52121
154.000	0.21747	-0.62863	0.32620	-0.42771
155.000	0.29062	-0.65051	0.27876	-0.55503
156.000	0.28271	-0.64653	0.28469	-0.54309
157.000	0.28271	-0.63659	0.37958	-0.49535
158.000	0.23922	-0.65847	0.40726	-0.51126
159.000	0.25108	-0.65648	0.33806	-0.49535
160.000	0.26689	-0.64653	0.34795	-0.51524
161.000	0.22142	-0.66444	0.27678	-0.51922
162.000	0.25701	-0.65449	0.33609	-0.44164
163.000	0.24317	-0.67239	0.29852	-0.54906
164.000	0.25701	-0.64852	0.29062	-0.49734
165.000	0.27678	-0.63858	0.34004	-0.52917
166.000	0.24317	-0.65051	0.32027	-0.51524
167.000	0.25899	-0.62664	0.35586	-0.46750
168.000	0.30248	-0.67637	0.27480	-0.59879
169.000	0.30841	-0.66841	0.37365	-0.44164
170.000	0.28666	-0.63261	0.32818	-0.51325
171.000	0.27678	-0.69029	0.37365	-0.46750
172.000	0.28271	-0.64255	0.37958	-0.45556
173.000	0.29655	-0.64852	0.38156	-0.49137
174.000	0.26887	-0.61669	0.33016	-0.53513
175.000	0.28469	-0.65847	0.37167	-0.54110
176.000	0.28469	-0.67637	0.30446	-0.57293
177.000	0.30446	-0.65250	0.32422	-0.46153
178.000	0.29457	-0.66642	0.41912	-0.42174
179.000	0.29457	-0.65051	0.39342	-0.52916
180.000	0.30446	-0.64454	0.36179	-0.43368
181.000	0.33213	-0.62266	0.36179	-0.53911
182.000	0.27678	-0.63460	0.37563	-0.52320
183.000	0.26689	-0.65648	0.40528	-0.47147
184.000	0.31829	-0.62266	0.29062	-0.50331
185.000	0.28271	-0.62664	0.36376	-0.43368
186.000	0.31632	-0.58685	0.34202	-0.43965
187.000	0.30248	-0.59879	0.35783	-0.44761
188.000	0.31434	-0.62266	0.34399	-0.47745
189.000	0.26294	-0.67836	0.39342	-0.53911
190.000	0.29259	-0.66642	0.34202	-0.48341
191.000	0.30841	-0.63261	0.33609	-0.43169
192.000	0.33016	-0.65846	0.34004	-0.51922
193.000	0.31829	-0.65449	0.30050	-0.43965
194.000	0.32818	-0.66841	0.36376	-0.50728
195.000	0.31039	-0.64653	0.38551	-0.43965
196.000	0.29457	-0.67637	0.27678	-0.40384
197.000	0.35783	-0.68233	0.37167	-0.43368
198.000	0.28666	-0.68234	0.43098	-0.42970
199.000	0.32818	-0.65051	0.33213	-0.39588
200.000	0.33016	-0.63857	0.36772	-0.45954
201.000	0.30643	-0.66841	0.43691	-0.47545
202.000	0.32225	-0.63459	0.38749	-0.45357
203.000	0.29457	-0.62664	0.33213	-0.45954
204.000	0.31632	-0.66642	0.35388	-0.48540
205.000	0.32620	-0.66642	0.29457	-0.52320
206.000	0.29852	-0.63658	0.36969	-0.40981
207.000	0.29457	-0.63857	0.41516	-0.44760
208.000	0.31434	-0.66642	0.38353	-0.44363
209.000	0.31632	-0.63857	0.36376	-0.43567
210.000	0.29852	-0.70024	0.34597	-0.43766
211.000	0.33411	-0.64852	0.43296	-0.53712
212.000	0.29852	-0.67040	0.29457	-0.48938
213.000	0.35586	-0.66642	0.38353	-0.45158
214.000	0.35783	-0.65249	0.38353	-0.45158
215.000	0.30841	-0.66045	0.37167	-0.47148
216.000	0.32422	-0.68432	0.35981	-0.41379
217.000	0.31829	-0.63658	0.41714	-0.52120
218.000	0.36179	-0.68233	0.41121	-0.52916
219.000	0.36574	-0.63061	0.35783	-0.51524
220.000	0.30050	-0.66642	0.33411	-0.48540
221.000	0.35388	-0.64056	0.39539	-0.47943
222.000	0.34993	-0.64852	0.38749	-0.48739
223.000	0.37760	-0.64454	0.40528	-0.56696
224.000	0.36179	-0.62067	0.38353	-0.51126
225.000	0.34202	-0.62465	0.38156	-0.56895
226.000	0.34795	-0.61470	0.35388	-0.55105
227.000	0.29259	-0.58288	0.45075	-0.48739
228.000	0.32422	-0.61271	0.39935	-0.57094
229.000	0.35190	-0.58088	0.39737	-0.47346
230.000	0.30841	-0.66841	0.34202	-0.52519
231.000	0.35586	-0.67636	0.32027	-0.44363
232.000	0.31632	-0.67239	0.44086	-0.54507
233.000	0.34399	-0.63459	0.41714	-0.49733
234.000	0.36179	-0.66443	0.41319	-0.51126
235.000	0.31434	-0.63261	0.32422	-0.55304
236.000	0.32818	-0.66045	0.41714	-0.50529
237.000	0.34399	-0.64852	0.35190	-0.48142
238.000	0.32422	-0.63261	0.42505	-0.53115
239.000	0.34202	-0.66244	0.34795	-0.51524
240.000	0.34795	-0.61669	0.34004	-0.50728
241.000	0.35190	-0.65051	0.41516	-0.50330
242.000	0.32225	-0.62863	0.41714	-0.54905
243.000	0.35388	-0.63260	0.32422	-0.56099
244.000	0.29655	-0.60078	0.31632	-0.50132
245.000	0.35388	-0.62862	0.36376	-0.53314
246.000	0.34202	-0.65448	0.39935	-0.49137
247.000	0.31829	-0.67239	0.35783	-0.51126
248.000	0.36772	-0.61669	0.33806	-0.47546
249.000	0.32620	-0.61470	0.43098	-0.48739
250.000	0.35190	-0.62067	0.35783	-0.52916
251.000	0.34993	-0.58088	0.40528	-0.51723
252.000	0.34597	-0.63061	0.43493	-0.50927
253.000	0.37563	-0.63658	0.41912	-0.55701
254.000	0.34993	-0.57293	0.40528	-0.48739
255.000	0.37760	-0.62862	0.37958	-0.55701
256.000	0.38749	-0.60873	0.40923	-0.49137
257.000	0.36772	-0.59879	0.46854	-0.55502
258.000	0.39144	-0.61072	0.35783	-0.47148
259.000	0.35190	-0.60078	0.34993	-0.64852
260.000	0.36574	-0.60276	0.40133	-0.57094
261.000	0.37760	-0.58685	0.35388	-0.54508
262.000	0.32620	-0.62067	0.38551	-0.60674
263.000	0.34795	-0.58287	0.40133	-0.60674
264.000	0.34795	-0.61669	0.41121	-0.56696
265.000	0.34399	-0.63260	0.40133	-0.57690
266.000	0.37167	-0.58088	0.44086	-0.55104
267.000	0.35586	-0.63857	0.33411	-0.56099
268.000	0.31632	-0.66244	0.39737	-0.59282
269.000	0.36772	-0.61470	0.37760	-0.59083
270.000	0.36179	-0.64852	0.37958	-0.60475
271.000	0.35190	-0.62465	0.35388	-0.56895
272.000	0.35190	-0.64653	0.39342	-0.55303
273.000	0.36376	-0.64653	0.34004	-0.50331
274.000	0.37760	-0.60276	0.39144	-0.60674
275.000	0.36179	-0.63857	0.37365	-0.58287
276.000	0.34004	-0.61470	0.39144	-0.56497
277.000	0.34004	-0.63459	0.36772	-0.53513
278.000	0.31434	-0.58487	0.39539	-0.59481
279.000	0.35783	-0.61669	0.39539	-0.55303
280.000	0.30643	-0.59680	0.40726	-0.56298
281.000	0.32422	-0.59083	0.39539	-0.57690
282.000	0.36574	-0.61868	0.40923	-0.57491
283.000	0.31829	-0.64852	0.47052	-0.55701
284.000	0.33016	-0.61868	0.41714	-0.54110
285.000	0.31236	-0.63062	0.40923	-0.60077
286.000	0.34399	-0.61470	0.35981	-0.54906
287.000	0.31236	-0.59083	0.40528	-0.59481
288.000	0.35981	-0.58884	0.35388	-0.51723
289.000	0.30841	-0.68035	0.38551	-0.48739
290.000	0.32225	-0.61271	0.34399	-0.53115
291.000	0.30248	-0.61669	0.44482	-0.55104
292.000	0.35586	-0.63658	0.39737	-0.56895
293.000	0.30446	-0.59481	0.41319	-0.51524
294.000	0.32818	-0.61271	0.40923	-0.56099
295.000	0.29852	-0.62266	0.35981	-0.50728
296.000	0.34004	-0.61072	0.41516	-0.55303
297.000	0.33213	-0.60675	0.37760	-0.56497
298.000	0.34004	-0.59879	0.35981	-0.56298
299.000	0.31632	-0.60675	0.44086	-0.57491
300.000	0.30446	-0.59680	0.37760	-0.52717
301.000	0.33806	-0.64056	0.40330	-0.57889
302.000	0.31434	-0.57293	0.37365	-0.59481
303.000	0.36772	-0.59282	0.38946	-0.52320
304.000	0.34399	-0.57691	0.40528	-0.59083
305.000	0.35783	-0.63260	0.41516	-0.51325
306.000	0.34202	-0.62067	0.36969	-0.53314
307.000	0.33411	-0.62067	0.46459	-0.52717
308.000	0.35981	-0.56895	0.36574	-0.53115
309.000	0.31434	-0.65648	0.44482	-0.57491
310.000	0.33016	-0.63062	0.38551	-0.45954
311.000	0.36574	-0.57492	0.38749	-0.50927
312.000	0.35190	-0.62664	0.39935	-0.46153
313.000	0.36969	-0.64255	0.44679	-0.48739
314.000	0.35190	-0.53911	0.40133	-0.45954
315.000	0.34004	-0.58089	0.36376	-0.48341
316.000	0.37760	-0.57690	0.38353	-0.52916
317.000	0.41714	-0.59282	0.41912	-0.53115
318.000	0.35586	-0.58486	0.38353	-0.56895
319.000	0.37365	-0.58685	0.47842	-0.50529
320.000	0.32225	-0.62067	0.38946	-0.54110
321.000	0.36772	-0.59481	0.37167	-0.47744
322.000	0.34399	-0.57691	0.32027	-0.54110
323.000	0.33016	-0.57890	0.30050	-0.48143
324.000	0.34993	-0.57492	0.38353	-0.47545
325.000	0.32027	-0.60277	0.41714	-0.47943
326.000	0.37167	-0.57691	0.41516	-0.55900
327.000	0.32422	-0.59481	0.39737	-0.53115
328.000	0.36574	-0.58685	0.42900	-0.55303
329.000	0.37167	-0.60674	0.32225	-0.50132
330.000	0.35783	-0.58088	0.40528	-0.49137
331.000	0.38551	-0.57094	0.40726	-0.47346
332.000	0.38551	-0.56099	0.34795	-0.54110
333.000	0.37563	-0.59879	0.37760	-0.53513
334.000	0.36574	-0.60475	0.35586	-0.50132
335.000	0.35586	-0.56099	0.43691	-0.58486
336.000	0.38749	-0.56497	0.41121	-0.54905
337.000	0.31039	-0.58089	0.33609	-0.57691
338.000	0.37167	-0.60475	0.33016	-0.54707
339.000	0.33016	-0.57492	0.45075	-0.51921
340.000	0.35783	-0.60475	0.34795	-0.55304
341.000	0.37563	-0.56298	0.39539	-0.47744
342.000	0.42109	-0.58685	0.32818	-0.49137
343.000	0.39539	-0.52518	0.36969	-0.55900
344.000	0.35981	-0.55900	0.39737	-0.52916
345.000	0.36574	-0.56696	0.38946	-0.48739
346.000	0.36574	-0.58486	0.34993	-0.58884
347.000	0.35783	-0.58884	0.37958	-0.47346
348.000	0.35388	-0.59083	0.36179	-0.56298
349.000	0.35388	-0.55502	0.35190	-0.54508
350.000	0.36376	-0.61271	0.41516	-0.50927
351.000	0.41516	-0.51524	0.42307	-0.47943
352.000	0.33213	-0.57691	0.40923	-0.51723
353.000	0.38156	-0.56298	0.35190	-0.52917
354.000	0.36969	-0.61868	0.38353	-0.50330
355.000	0.40330	-0.57889	0.46459	-0.49534
356.000	0.36772	-0.62067	0.46261	-0.53711
357.000	0.34004	-0.60873	0.41714	-0.46749
358.000	0.36969	-0.64056	0.39539	-0.49137
359.000	0.39539	-0.56895	0.36179	-0.49933
360.000	0.38353	-0.58486	0.34993	-0.46949
361.000	0.39935	-0.56696	0.42307	-0.50131
362.000	0.37167	-0.57492	0.33411	-0.56099
363.000	0.39539	-0.53513	0.41319	-0.54110
364.000	0.33609	-0.59481	0.36969	-0.53115
365.000	0.43691	-0.57292	0.35981	-0.58884
366.000	0.40528	-0.55303	0.34795	-0.49336
367.000	0.37167	-0.57094	0.34795	-0.50927
368.000	0.37365	-0.54110	0.37563	-0.51126
369.000	0.39342	-0.55900	0.37167	-0.54707
370.000	0.42505	-0.55104	0.34399	-0.60873
371.000	0.39144	-0.56895	0.29852	-0.57890
372.000	0.38353	-0.55701	0.31632	-0.56895
373.000	0.37563	-0.53712	0.37365	-0.48341
374.000	0.38749	-0.61669	0.27085	-0.53116
375.000	0.40330	-0.57491	0.43098	-0.52518
376.000	0.37958	-0.57293	0.43098	-0.55104
377.000	0.38156	-0.56099	0.39539	-0.55502
378.000	0.37563	-0.58287	0.38749	-0.54309
379.000	0.39342	-0.57690	0.34795	-0.53911
380.000	0.43493	-0.57093	0.38749	-0.51126
381.000	0.39935	-0.51524	0.39342	-0.53115
382.000	0.39144	-0.52717	0.41319	-0.52717
383.000	0.40528	-0.53911	0.35190	-0.49933
384.000	0.40923	-0.54905	0.33806	-0.50530
385.000	0.37167	-0.57889	0.39539	-0.52319
386.000	0.35783	-0.53115	0.32422	-0.52917
387.000	0.39342	-0.49733	0.44284	-0.51523
388.000	0.38946	-0.51922	0.32422	-0.52121
389.000	0.41516	-0.52518	0.40330	-0.51325
390.000	0.38946	-0.50131	0.36969	-0.45158
391.000	0.37365	-0.56696	0.42307	-0.53513
392.000	0.37365	-0.54110	0.34993	-0.55304
393.000	0.40330	-0.52717	0.44482	-0.62464
394.000	0.43889	-0.54706	0.44284	-0.55104
395.000	0.40528	-0.53314	0.41121	-0.63260
396.000	0.42109	-0.56099	0.35586	-0.54508
397.000	0.40923	-0.52916	0.38749	-0.53115
398.000	0.42702	-0.52717	0.38749	-0.55104
399.000	0.37563	-0.52320	0.33213	-0.58089
400.000	0.40133	-0.56895	0.35586	-0.48739
401.000	0.39935	-0.55303	0.33609	-0.54508
402.000	0.39935	-0.52717	0.41121	-0.56099
403.000	0.39144	-0.53911	0.30841	-0.56298
404.000	0.42505	-0.50927	0.35783	-0.56099
405.000	0.38946	-0.53314	0.48040	-0.52717
406.000	0.37958	-0.49933	0.42109	-0.57093
407.000	0.40133	-0.58884	0.38156	-0.60077
408.000	0.40528	-0.55502	0.33411	-0.54707
409.000	0.38156	-0.59680	0.41319	-0.47943
410.000	0.35388	-0.56497	0.35190	-0.62664
411.000	0.39737	-0.54707	0.39539	-0.56696
412.000	0.38749	-0.51524	0.41319	-0.49733
413.000	0.42702	-0.50728	0.39144	-0.52121
414.000	0.38749	-0.56099	0.37760	-0.54508
415.000	0.41912	-0.52120	0.41121	-0.61867
416.000	0.38946	-0.56099	0.38353	-0.52121
417.000	0.38353	-0.58685	0.32422	-0.59282
418.000	0.41319	-0.49733	0.36772	-0.51524
419.000	0.40726	-0.56298	0.37958	-0.52519
420.000	0.38551	-0.53314	0.40923	-0.53314
421.000	0.36376	-0.52718	0.38551	-0.55303
422.000	0.41516	-0.54309	0.34004	-0.59879
423.000	0.39935	-0.51723	0.32422	-0.51524
424.000	0.40528	-0.52518	0.38156	-0.51325
425.000	0.45272	-0.52120	0.34795	-0.54906
426.000	0.42900	-0.50330	0.30050	-0.49137
427.000	0.41516	-0.54309	0.41714	-0.59083
428.000	0.39539	-0.52518	0.32818	-0.46352
429.000	0.38353	-0.52518	0.36376	-0.51126
430.000	0.39935	-0.53513	0.41912	-0.54905
431.000	0.42109	-0.50330	0.36969	-0.45755
432.000	0.39342	-0.55701	0.37563	-0.55900
433.000	0.45470	-0.52916	0.33411	-0.55304
434.000	0.45668	-0.54706	0.38551	-0.48142
435.000	0.40726	-0.58287	0.38551	-0.56696
436.000	0.41714	-0.54706	0.40528	-0.58486
437.000	0.41121	-0.50728	0.32818	-0.54508
438.000	0.39342	-0.53513	0.36376	-0.53513
439.000	0.39342	-0.52717	0.36772	-0.54309
440.000	0.40726	-0.53712	0.35586	-0.54508
441.000	0.38749	-0.53314	0.36179	-0.60873
442.000	0.35388	-0.54110	0.34597	-0.61868
443.000	0.40133	-0.54508	0.37365	-0.61271
444.000	0.40923	-0.50330	0.34597	-0.54508
445.000	0.38946	-0.51126	0.34993	-0.58088
446.000	0.39935	-0.55104	0.32027	-0.55702
447.000	0.38749	-0.52717	0.37167	-0.52916
448.000	0.41714	-0.49932	0.39342	-0.50330
449.000	0.38353	-0.53115	0.38156	-0.61868
450.000	0.40133	-0.51922	0.35783	-0.54707
451.000	0.38946	-0.58088	0.41319	-0.50131
452.000	0.34993	-0.51723	0.34795	-0.51922
453.000	0.38749	-0.55104	0.38749	-0.59680
454.000	0.42109	-0.53115	0.38353	-0.48341
455.000	0.40726	-0.48739	0.39935	-0.57094
456.000	0.41516	-0.57690	0.30248	-0.54906
457.000	0.38156	-0.55104	0.33016	-0.51126
458.000	0.40330	-0.54309	0.30643	-0.60277
459.000	0.40330	-0.58884	0.30446	-0.60476
460.000	0.36969	-0.56099	0.33806	-0.60873
461.000	0.35981	-0.60674	0.33806	-0.56497
462.000	0.39935	-0.54508	0.34399	-0.55900
463.000	0.42307	-0.51126	0.40330	-0.55900
464.000	0.38156	-0.52518	0.40726	-0.57690
465.000	0.38946	-0.49932	0.28666	-0.57492
466.000	0.39737	-0.51524	0.35190	-0.56099
467.000	0.40330	-0.50529	0.36772	-0.61271
468.000	0.39539	-0.50728	0.28864	-0.52320
469.000	0.34597	-0.54707	0.38353	-0.59481
470.000	0.40133	-0.48739	0.32422	-0.60476
471.000	0.41714	-0.52518	0.23724	-0.64256
472.000	0.42505	-0.54309	0.36772	-0.57889
473.000	0.39144	-0.52518	0.39342	-0.59481
474.000	0.38156	-0.53513	0.37760	-0.59282
475.000	0.34993	-0.56099	0.44482	-0.65050
476.000	0.40726	-0.53115	0.38749	-0.57690
477.000	0.40330	-0.55900	0.41516	-0.71216
478.000	0.38353	-0.50529	0.43098	-0.60873
479.000	0.34202	-0.53513	0.39342	-0.65050
480.000	0.37958	-0.51922	0.39935	-0.67039
481.000	0.39737	-0.50728	0.30446	-0.63857
482.000	0.38551	-0.54906	0.39342	-0.62067
483.000	0.40726	-0.54309	0.27480	-0.61868
484.000	0.38156	-0.57690	0.33213	-0.60873
485.000	0.35981	-0.55304	0.33411	-0.63062
486.000	0.34004	-0.55304	0.39342	-0.59878
487.000	0.38353	-0.50728	0.35190	-0.68830
488.000	0.35586	-0.57293	0.36376	-0.60475
489.000	0.36969	-0.55105	0.40330	-0.68631
490.000	0.34795	-0.57492	0.34202	-0.65250
491.000	0.40528	-0.46948	0.45272	-0.57093
492.000	0.38946	-0.52320	0.34993	-0.59879
493.000	0.37958	-0.51126	0.36574	-0.68233
494.000	0.41912	-0.51126	0.34597	-0.63260
495.000	0.39737	-0.49932	0.32620	-0.58685
496.000	0.36376	-0.50330	0.36574	-0.59879
497.000	0.34795	-0.53314	0.39144	-0.64652
498.000	0.36969	-0.54309	0.33411	-0.60675
499.000	0.40528	-0.47346	0.37365	-0.62465
500.000	0.35981	-0.56895	0.32225	-0.64056
501.000	0.36969	-0.54309	0.32620	-0.62067
502.000	0.39737	-0.53314	0.29457	-0.59481
503.000	0.35981	-0.52320	0.33609	-0.61669
504.000	0.36574	-0.58088	0.35388	-0.67835
505.000	0.41121	-0.51325	0.32225	-0.65846
506.000	0.37167	-0.53513	0.37760	-0.65249
507.000	0.40923	-0.52717	0.31236	-0.54707
508.000	0.35783	-0.56696	0.32027	-0.68631
509.000	0.35783	-0.56298	0.35388	-0.69228
510.000	0.37563	-0.50131	0.36969	-0.62862
511.000	0.39539	-0.52916	0.39539	-0.61271
512.000	0.40330	-0.53314	0.39935	-0.63459
513.000	0.40330	-0.49535	0.36574	-0.63658
514.000	0.35783	-0.49933	0.34202	-0.56696
515.000	0.37167	-0.49933	0.30446	-0.67040
516.000	0.39935	-0.49932	0.35586	-0.60277
517.000	0.38551	-0.51126	0.28073	-0.61669
518.000	0.31632	-0.51126	0.31434	-0.62863
519.000	0.37760	-0.50728	0.30050	-0.59879
520.000	0.36574	-0.53513	0.29655	-0.63062
521.000	0.36772	-0.50330	0.31434	-0.69626
522.000	0.36574	-0.53115	0.36969	-0.67636
523.000	0.38946	-0.50131	0.32225	-0.67438
524.000	0.41912	-0.47943	0.34004	-0.58685
525.000	0.37365	-0.49933	0.34795	-0.63857
526.000	0.33806	-0.55304	0.35783	-0.64454
527.000	0.30050	-0.53712	0.38551	-0.64652
528.000	0.32422	-0.56895	0.30446	-0.62067
529.000	0.34993	-0.51723	0.28271	-0.61470
530.000	0.34399	-0.53115	0.31236	-0.59282
531.000	0.36574	-0.53712	0.34795	-0.63061
532.000	0.34597	-0.52121	0.33016	-0.61072
533.000	0.36179	-0.57889	0.30050	-0.65449
534.000	0.38749	-0.58088	0.31236	-0.60675
535.000	0.34993	-0.56099	0.24712	-0.62465
536.000	0.39737	-0.54905	0.34202	-0.63857
537.000	0.35388	-0.56099	0.33213	-0.60675
538.000	0.32818	-0.60675	0.31829	-0.57890
539.000	0.34597	-0.56298	0.31039	-0.58089
540.000	0.33806	-0.58287	0.34399	-0.62664
541.000	0.31632	-0.50927	0.35981	-0.62266
542.000	0.30841	-0.52320	0.29457	-0.57691
543.000	0.32027	-0.60874	0.36376	-0.63857
544.000	0.29655	-0.51126	0.34202	-0.57890
545.000	0.29655	-0.56497	0.34202	-0.66045
546.000	0.36179	-0.50132	0.28864	-0.66046
547.000	0.29655	-0.51723	0.34795	-0.63459
548.000	0.35783	-0.54906	0.39737	-0.63459
549.000	0.31236	-0.53712	0.35783	-0.61868
550.000	0.38551	-0.51126	0.28271	-0.65648
551.000	0.36376	-0.50330	0.26689	-0.54707
552.000	0.34399	-0.51325	0.41121	-0.62066
553.000	0.35586	-0.54508	0.33609	-0.55702
554.000	0.34202	-0.51723	0.26887	-0.61669
555.000	0.33806	-0.54309	0.31434	-0.60675
556.000	0.36574	-0.55701	0.28666	-0.62863
557.000	0.33806	-0.52917	0.35190	-0.64255
558.000	0.36376	-0.50927	0.29259	-0.70223
559.000	0.37365	-0.52916	0.31632	-0.61470
560.000	0.36179	-0.55105	0.31829	-0.52718
561.000	0.36376	-0.54707	0.24910	-0.64852
562.000	0.36969	-0.52717	0.29655	-0.54707
563.000	0.34795	-0.53513	0.29457	-0.57094
564.000	0.34795	-0.49336	0.30841	-0.52718
565.000	0.37365	-0.47943	0.27085	-0.53315
566.000	0.36376	-0.52519	0.26294	-0.54111
567.000	0.33411	-0.53116	0.34795	-0.56497
568.000	0.35783	-0.50728	0.24910	-0.51922
569.000	0.32620	-0.54707	0.25305	-0.56299
570.000	0.32027	-0.54309	0.28073	-0.55105
571.000	0.35783	-0.53513	0.31039	-0.54508
572.000	0.34795	-0.52917	0.30643	-0.53911
573.000	0.38156	-0.52320	0.37563	-0.55303
574.000	0.33016	-0.51325	0.32225	-0.57890
575.000	0.35190	-0.54309	0.34202	-0.53712
576.000	0.35783	-0.49933	0.31829	-0.58089
577.000	0.34597	-0.53712	0.23922	-0.53713
578.000	0.38551	-0.53115	0.28666	-0.59083
579.000	0.35586	-0.50927	0.35586	-0.58287
580.000	0.32818	-0.54906	0.32422	-0.58884
581.000	0.35981	-0.54906	0.26096	-0.58885
582.000	0.35586	-0.50529	0.32818	-0.61271
583.000	0.33609	-0.52718	0.28073	-0.60277
584.000	0.32818	-0.54508	0.29457	-0.59879
585.000	0.31236	-0.52121	0.33213	-0.55503
586.000	0.33609	-0.55105	0.32818	-0.58685
587.000	0.35190	-0.55304	0.31236	-0.67239
588.000	0.34399	-0.51723	0.20561	-0.62068
589.000	0.33411	-0.54309	0.29655	-0.61271
590.000	0.35981	-0.54906	0.27678	-0.57890
591.000	0.36772	-0.53115	0.31236	-0.56895
592.000	0.35586	-0.54110	0.23526	-0.55304
593.000	0.37563	-0.51325	0.28469	-0.60078
594.000	0.37760	-0.53911	0.24317	-0.54707
595.000	0.39737	-0.49535	0.25701	-0.50530
596.000	0.39342	-0.52121	0.34004	-0.55105
597.000	0.32422	-0.48341	0.20363	-0.55304
598.000	0.38156	-0.50927	0.27678	-0.54508
599.000	0.36772	-0.54309	0.27876	-0.47148
600.000	0.36574	-0.51325	0.35981	-0.60277
601.000	0.29457	-0.55105	0.30841	-0.59282
602.000	0.32027	-0.51922	0.29852	-0.62863
603.000	0.39144	-0.54309	0.23922	-0.58288
604.000	0.34993	-0.53513	0.25899	-0.58885
605.000	0.36969	-0.53115	0.23131	-0.50928
606.000	0.34004	-0.51126	0.31434	-0.59282
607.000	0.37760	-0.51922	0.28666	-0.54508
608.000	0.37365	-0.49933	0.27085	-0.56100
609.000	0.36772	-0.55303	0.24119	-0.55105
610.000	0.38353	-0.51126	0.25701	-0.54111
611.000	0.39144	-0.51325	0.28271	-0.62266
612.000	0.37167	-0.53712	0.28864	-0.53315
613.000	0.37760	-0.54906	0.30643	-0.57094
614.000	0.36179	-0.56099	0.29852	-0.55105
615.000	0.36574	-0.50330	0.26492	-0.56299
616.000	0.32620	-0.52917	0.29655	-0.59680
617.000	0.34993	-0.53712	0.29655	-0.61271
618.000	0.32225	-0.53911	0.28864	-0.60078
619.000	0.37958	-0.51723	0.26096	-0.65051
620.000	0.31039	-0.50331	0.23526	-0.57492
621.000	0.33016	-0.49734	0.21945	-0.60675
622.000	0.35586	-0.53513	0.31236	-0.55702
623.000	0.30643	-0.51922	0.27876	-0.61868
624.000	0.33213	-0.56298	0.29457	-0.53514
625.000	0.34597	-0.49336	0.30248	-0.62067
626.000	0.34795	-0.51723	0.28271	-0.52917
627.000	0.37958	-0.52717	0.28864	-0.61470
628.000	0.37167	-0.49734	0.24910	-0.57293
629.000	0.32620	-0.55503	0.21747	-0.59879
630.000	0.31632	-0.55901	0.22340	-0.54906
631.000	0.32818	-0.54906	0.27085	-0.54707
632.000	0.27678	-0.58686	0.19375	-0.60874
633.000	0.31829	-0.54508	0.23922	-0.54111
634.000	0.32422	-0.56497	0.26294	-0.57094
635.000	0.28271	-0.57492	0.22142	-0.61869
636.000	0.24515	-0.53514	0.26096	-0.58686
637.000	0.32620	-0.51922	0.25503	-0.59084
638.000	0.27282	-0.56895	0.26887	-0.58686
639.000	0.28666	-0.54906	0.23526	-0.56896
640.000	0.28073	-0.52519	0.19572	-0.55304
641.000	0.30643	-0.51126	0.22735	-0.54906
642.000	0.29457	-0.50331	0.22735	-0.56697
643.000	0.27480	-0.50928	0.25108	-0.56299
644.000	0.29062	-0.48938	0.27480	-0.59282
645.000	0.30841	-0.50132	0.25305	-0.58885
646.000	0.28864	-0.51723	0.26096	-0.53315
647.000	0.27085	-0.55105	0.23131	-0.62465
648.000	0.30841	-0.53116	0.29457	-0.58089
649.000	0.33411	-0.52519	0.23526	-0.62863
650.000	0.32225	-0.53712	0.21945	-0.57293
651.000	0.28864	-0.54110	0.23329	-0.61272
652.000	0.28469	-0.53713	0.27678	-0.52519
653.000	0.29062	-0.48739	0.32818	-0.67239
654.000	0.29259	-0.55105	0.19770	-0.60078
655.000	0.29852	-0.56100	0.29259	-0.61868
656.000	0.28469	-0.60476	0.27678	-0.61471
657.000	0.28469	-0.55304	0.29655	-0.59680
658.000	0.33016	-0.49535	0.28073	-0.65847
659.000	0.31236	-0.54309	0.21352	-0.55702
660.000	0.31434	-0.56696	0.27876	-0.65847
661.000	0.36179	-0.56696	0.26887	-0.65250
662.000	0.34004	-0.50728	0.25108	-0.65847
663.000	0.34795	-0.53314	0.23131	-0.73605
664.000	0.29655	-0.53514	0.28469	-0.60874
665.000	0.36574	-0.49336	0.24317	-0.59084
666.000	0.32818	-0.54707	0.33213	-0.61669
667.000	0.30643	-0.53911	0.26096	-0.60078
668.000	0.31632	-0.57293	0.19968	-0.57691
669.000	0.30446	-0.52121	0.18584	-0.59482
670.000	0.30446	-0.50928	0.22538	-0.64057
671.000	0.31039	-0.53911	0.25305	-0.58487
672.000	0.30643	-0.53911	0.25305	-0.64255
673.000	0.29457	-0.54707	0.28666	-0.61669
674.000	0.23724	-0.59879	0.22538	-0.65847
675.000	0.28666	-0.57293	0.21945	-0.62465
676.000	0.31632	-0.56895	0.24317	-0.60874
677.000	0.33213	-0.55900	0.22538	-0.54111
678.000	0.26096	-0.56498	0.23922	-0.60277
679.000	0.26492	-0.56696	0.18188	-0.57691
680.000	0.27282	-0.54309	0.20363	-0.56896
681.000	0.24910	-0.57492	0.26492	-0.61669
682.000	0.30248	-0.57890	0.20758	-0.60277
683.000	0.33016	-0.50927	0.19572	-0.56299
684.000	0.27678	-0.59282	0.23724	-0.53315
685.000	0.32027	-0.58486	0.23329	-0.57691
686.000	0.33016	-0.55304	0.21154	-0.52320
687.000	0.26887	-0.58686	0.24317	-0.61670
688.000	0.29655	-0.54508	0.22538	-0.56498
689.000	0.26294	-0.53116	0.19572	-0.55702
690.000	0.29457	-0.54309	0.26096	-0.65449
691.000	0.30050	-0.55304	0.28271	-0.61073
692.000	0.24910	-0.57293	0.30050	-0.50928
693.000	0.26096	-0.59084	0.19177	-0.57095
694.000	0.33411	-0.58884	0.18188	-0.58487
695.000	0.24317	-0.55503	0.22340	-0.66842
696.000	0.28864	-0.54309	0.25701	-0.60874
697.000	0.26294	-0.54707	0.26492	-0.58089
698.000	0.27480	-0.57492	0.32620	-0.61470
699.000	0.26689	-0.59481	0.24515	-0.67836
700.000	0.26492	-0.57691	0.30050	-0.61073
701.000	0.27282	-0.54707	0.17793	-0.59482
702.000	0.26096	-0.57293	0.17595	-0.55702
703.000	0.19968	-0.57691	0.29457	-0.63062
704.000	0.26492	-0.57492	0.23329	-0.62465
705.000	0.28271	-0.54707	0.29259	-0.64056
706.000	0.26887	-0.55503	0.22735	-0.62465
707.000	0.27282	-0.56498	0.29457	-0.62863
708.000	0.21945	-0.56299	0.34993	-0.51325
709.000	0.25305	-0.55304	0.25108	-0.61272
710.000	0.26689	-0.57492	0.29062	-0.62067
711.000	0.23526	-0.55702	0.18386	-0.60277
712.000	0.23922	-0.57094	0.24119	-0.55901
713.000	0.24515	-0.56498	0.30248	-0.58487
714.000	0.25305	-0.57890	0.22735	-0.58089
715.000	0.26492	-0.51524	0.22142	-0.58288
716.000	0.29062	-0.52718	0.21352	-0.65051
717.000	0.25503	-0.57691	0.25701	-0.56697
718.000	0.26887	-0.56100	0.24119	-0.60078
719.000	0.29655	-0.53116	0.24119	-0.56498
720.000	0.25108	-0.56895	0.22538	-0.56697
721.000	0.32422	-0.53513	0.19572	-0.62863
722.000	0.30841	-0.54508	0.23922	-0.61670
723.000	0.30446	-0.53514	0.21549	-0.57492
724.000	0.26294	-0.57691	0.20363	-0.61869
725.000	0.30050	-0.56100	0.20758	-0.59879
726.000	0.27085	-0.56498	0.29062	-0.55702
727.000	0.23724	-0.55304	0.24910	-0.61272
728.000	0.28469	-0.55503	0.16014	-0.59283
729.000	0.27480	-0.54906	0.19770	-0.60874
730.000	0.27085	-0.58885	0.12060	-0.57493
731.000	0.27085	-0.53912	0.21549	-0.69229
732.000	0.26887	-0.53912	0.21549	-0.66842
733.000	0.25701	-0.58288	0.21747	-0.58686
734.000	0.27678	-0.54508	0.24910	-0.62863
735.000	0.30841	-0.55304	0.18979	-0.60675
736.000	0.27282	-0.55304	0.17595	-0.60277
737.000	0.29655	-0.56895	0.25108	-0.59879
738.000	0.29655	-0.56298	0.27085	-0.65250
739.000	0.24910	-0.58089	0.28271	-0.64653
740.000	0.29655	-0.54906	0.13246	-0.63659
741.000	0.22735	-0.57691	0.23329	-0.62465
742.000	0.24712	-0.55503	0.25701	-0.59481
743.000	0.27282	-0.53514	0.24119	-0.67637
744.000	0.28864	-0.57094	0.16804	-0.63062
745.000	0.28864	-0.57890	0.26294	-0.60078
746.000	0.27282	-0.55901	0.18584	-0.59084
747.000	0.24119	-0.56100	0.32422	-0.62863
748.000	0.26492	-0.55304	0.26492	-0.60675
749.000	0.28864	-0.57890	0.25701	-0.59084
750.000	0.22538	-0.57691	0.23329	-0.66046
751.000	0.22538	-0.63460	0.26492	-0.52519
752.000	0.25701	-0.55105	0.22735	-0.61073
753.000	0.24910	-0.59879	0.23922	-0.63659
754.000	0.25108	-0.59084	0.18188	-0.55304
755.000	0.25899	-0.57094	0.16607	-0.62267
756.000	0.24712	-0.58089	0.21945	-0.64057
757.000	0.25108	-0.61272	0.16211	-0.60675
758.000	0.26096	-0.59680	0.22735	-0.66643
759.000	0.24910	-0.57890	0.16804	-0.61272
760.000	0.21352	-0.64256	0.21747	-0.61073
761.000	0.23922	-0.59680	0.14827	-0.60278
762.000	0.24119	-0.61272	0.18188	-0.61073
763.000	0.24515	-0.58089	0.23922	-0.55105
764.000	0.21747	-0.63261	0.28864	-0.64056
765.000	0.23724	-0.63659	0.25899	-0.64653
766.000	0.26096	-0.61868	0.23724	-0.62863
767.000	0.21154	-0.59283	0.21549	-0.57890
768.000	0.26096	-0.59282	0.20363	-0.61869
769.000	0.23724	-0.63261	0.24910	-0.57890
770.000	0.23131	-0.61670	0.24119	-0.57492
771.000	0.24910	-0.58288	0.25503	-0.61670
772.000	0.23131	-0.59482	0.27678	-0.59879
773.000	0.23724	-0.64653	0.10280	-0.62068
774.000	0.24119	-0.62067	0.23922	-0.67836
775.000	0.23922	-0.61670	0.22340	-0.66046
776.000	0.24712	-0.57691	0.25701	-0.60874
777.000	0.25701	-0.60078	0.23724	-0.58288
778.000	0.21945	-0.59482	0.14037	-0.63858
779.000	0.20956	-0.59084	0.33609	-0.62863
780.000	0.24910	-0.60874	0.13839	-0.64853
781.000	0.22142	-0.58288	0.22538	-0.64455
782.000	0.24515	-0.58288	0.19375	-0.69229
783.000	0.22933	-0.62664	0.25305	-0.64057
784.000	0.26689	-0.61868	0.19572	-0.70422
785.000	0.22340	-0.60078	0.19177	-0.63062
786.000	0.24515	-0.63858	0.15421	-0.71019
787.000	0.24119	-0.59481	0.17398	-0.70024
788.000	0.21945	-0.62266	0.21945	-0.74201
789.000	0.24515	-0.60476	0.17595	-0.66245
790.000	0.23922	-0.58686	0.19572	-0.66643
791.000	0.24119	-0.61869	0.26294	-0.64653
792.000	0.23131	-0.60277	0.17200	-0.68035
793.000	0.21549	-0.59879	0.15223	-0.63062
794.000	0.22340	-0.60078	0.24515	-0.70422
795.000	0.20165	-0.61272	0.21945	-0.70422
796.000	0.22340	-0.59283	0.22933	-0.71019
797.000	0.19968	-0.60277	0.17398	-0.66643
798.000	0.24515	-0.59680	0.25701	-0.70024
799.000	0.19770	-0.59880	0.24910	-0.72212
800.000	0.18979	-0.60675	0.18188	-0.73406
801.000	0.20758	-0.62267	0.27085	-0.73803
802.000	0.24910	-0.66444	0.23724	-0.68234
803.000	0.23329	-0.61073	0.17793	-0.71616
804.000	0.21352	-0.60675	0.15618	-0.71616
805.000	0.23131	-0.64057	0.10280	-0.68234
806.000	0.21945	-0.62266	0.22538	-0.61670
807.000	0.23526	-0.60675	0.18386	-0.73207
808.000	0.22142	-0.63858	0.16607	-0.68234
809.000	0.21549	-0.61869	0.20561	-0.73008
810.000	0.23329	-0.63460	0.25108	-0.70820
811.000	0.24317	-0.61073	0.19968	-0.71019
812.000	0.20758	-0.57492	0.19968	-0.73008
813.000	0.24317	-0.63062	0.19177	-0.68831
814.000	0.21549	-0.59879	0.17002	-0.66842
815.000	0.23922	-0.63460	0.26689	-0.74997
816.000	0.27480	-0.61272	0.26492	-0.68830
817.000	0.24910	-0.59481	0.21154	-0.74599
818.000	0.23724	-0.63659	0.18188	-0.73207
819.000	0.28073	-0.58288	0.17595	-0.70024
820.000	0.26492	-0.60277	0.19968	-0.70024
821.000	0.24317	-0.57890	0.21747	-0.65648
822.000	0.25701	-0.64255	0.15618	-0.73406
823.000	0.26294	-0.56498	0.17595	-0.67041
824.000	0.25108	-0.62465	0.18781	-0.80765
825.000	0.23526	-0.59879	0.14630	-0.75594
826.000	0.24910	-0.58885	0.23922	-0.73207
827.000	0.24317	-0.62664	0.19375	-0.72809
828.000	0.20165	-0.61471	0.21549	-0.72809
829.000	0.26096	-0.61073	0.26887	-0.78179
830.000	0.23526	-0.63062	0.15816	-0.69627
831.000	0.25503	-0.56895	0.17200	-0.75992
832.000	0.24119	-0.66444	0.19572	-0.75793
833.000	0.23724	-0.61471	0.17200	-0.72013
834.000	0.22933	-0.59482	0.23724	-0.73803
835.000	0.18781	-0.64853	0.21747	-0.74400
836.000	0.26887	-0.62266	0.16211	-0.75793
837.000	0.21945	-0.58089	0.22538	-0.71814
838.000	0.19375	-0.63659	0.27678	-0.76588
839.000	0.20561	-0.61073	0.20956	-0.75992
840.000	0.24119	-0.58487	0.23131	-0.70422
841.000	0.25503	-0.58686	0.20758	-0.70422
842.000	0.23724	-0.59680	0.21352	-0.71019
843.000	0.28666	-0.54110	0.23526	-0.65250
844.000	0.37365	-0.48142	0.31632	-0.61271
845.000	0.52587	-0.41378	0.37958	-0.47346
846.000	0.63459	-0.37995	0.65436	-0.34614
847.000	0.88167	-0.25263	0.76505	-0.25263
848.000	1.16627	-0.06962	0.97062	-0.14521
849.000	1.34214	0.03182	1.30657	0.12530
850.000	1.71158	0.29430	1.47254	0.27445
851.000	1.99597	0.52687	1.77478	0.50307
852.000	2.35723	0.87256	2.01769	0.74752
853.000	2.72818	1.16433	2.14602	1.05156
854.000	2.91751	1.46002	2.46972	1.29966
855.000	3.20139	1.70576	2.64533	1.48817
856.000	3.45556	2.02271	2.80116	1.77388
857.000	3.72338	2.29767	3.06144	2.06517
858.000	3.90249	2.59834	3.19941	2.34059
859.000	4.04415	2.81372	3.32553	2.40572
860.000	4.17003	3.00920	3.51662	2.55389
861.000	4.23295	3.16128	3.63084	2.74971
862.000	4.40398	3.29700	3.67219	2.93377
863.000	4.52974	3.42293	3.83558	3.01835
864.000	4.62010	3.58252	3.90642	3.15861
865.000	4.75953	3.64105	3.98316	3.23350
866.000	4.83413	3.78278	3.93791	3.33456
867.000	4.87928	3.81411	3.98710	3.48268
868.000	4.89694	3.98171	3.96939	3.54801
869.000	4.92245	4.01115	3.97529	3.72193
870.000	4.85769	4.08254	3.81196	3.76020
871.000	4.79094	4.10464	3.85723	3.74815
872.000	4.73204	4.10893	3.79818	3.76026
873.000	4.63778	4.11343	3.80015	3.80374
874.000	4.53956	4.12189	3.64462	3.70556
875.000	4.43346	4.09091	3.59146	3.62470
876.000	4.36663	4.02614	3.61509	3.62659
877.000	4.25655	3.98329	3.58555	3.47836
878.000	4.17593	3.94816	3.60327	3.43279
879.000	4.13660	3.86145	3.54419	3.28460
880.000	4.08349	3.76095	3.52844	3.31435
881.000	4.08349	3.67796	3.57176	3.19544
882.000	4.05595	3.58124	3.52647	3.14413
883.000	4.02644	3.55765	3.68203	3.12973
884.000	4.07169	3.50209	3.65447	3.10014
885.000	4.10316	3.48219	3.71156	3.06629
886.000	4.13660	3.43262	3.82574	3.05995
887.000	4.14643	3.39896	3.87691	3.10726
888.000	4.21722	3.42436	3.81786	3.15102
889.000	4.26245	3.51113	3.96152	3.11091
890.000	4.28211	3.48732	3.90839	3.24764
891.000	4.36467	3.54425	3.87494	3.29920
892.000	4.41970	3.63093	3.93791	3.34841
893.000	4.43149	3.65062	3.98316	3.40360
894.000	4.51795	3.73117	3.89855	3.42768
895.000	4.56314	3.73884	3.96152	3.39974
896.000	4.54938	3.79617	3.95365	3.53621
897.000	4.54545	3.85740	3.96349	3.52628
898.000	4.58278	3.89273	4.00087	3.55578
899.000	4.59260	3.93610	3.92413	3.54227
900.000	4.62992	3.94971	3.98710	3.56968
901.000	4.62599	3.95565	3.87297	3.63145
902.000	4.63974	3.97136	3.94775	3.68055
903.000	4.65153	4.00484	3.89462	3.58391
904.000	4.58867	3.95980	3.92610	3.60355
905.000	4.60046	4.00710	3.81589	3.59809
906.000	4.58867	3.98941	3.87887	3.56816
907.000	4.59260	3.96570	3.93004	3.56004
908.000	4.55921	3.95207	3.88281	3.61164
909.000	4.53760	3.99166	3.86903	3.61170
910.000	4.59849	4.01303	3.90249	3.56806
911.000	4.57296	3.96384	3.90249	3.59377
912.000	4.54349	3.99163	3.89462	3.55030
913.000	4.55331	3.95408	3.84148	3.57227
914.000	4.49044	3.91691	3.88478	3.58593
915.000	4.47276	3.92490	3.82180	3.64946
916.000	4.49830	3.92279	3.77062	3.55873
917.000	4.45311	3.95265	3.85723	3.55639
918.000	4.48062	3.91697	3.79818	3.59420
919.000	4.47669	3.95055	3.76669	3.50930
920.000	4.47079	3.92097	3.73716	3.52129
921.000	4.41380	3.91732	3.78637	3.47758
922.000	4.40594	3.86800	3.78440	3.56262
923.000	4.49044	3.89520	3.90642	3.51862
924.000	4.43149	3.86392	3.79818	3.49533
925.000	4.48848	3.91298	3.78046	3.49540
926.000	4.49044	3.90309	3.82770	3.48137
927.000	4.47865	3.91500	3.85329	3.55641
928.000	4.49437	3.86556	3.86313	3.53066
929.000	4.50027	3.91291	3.80605	3.52299
930.000	4.50223	3.87934	3.85723	3.36851
931.000	4.49241	3.87939	3.82967	3.44972
932.000	4.47472	3.86764	3.89068	3.54636
933.000	4.47669	3.86961	3.79818	3.42611
934.000	4.47276	3.84791	3.75684	3.54296
935.000	4.47276	3.87950	3.80999	3.44188
936.000	4.44721	3.85396	3.71156	3.51150
937.000	4.37646	3.80496	3.77259	3.55278
938.000	4.41184	3.85810	3.85526	3.50103
939.000	4.45114	3.85789	3.74700	3.45598
940.000	4.51598	3.89901	3.82180	3.52094
941.000	4.47865	3.86170	3.73125	3.44219
942.000	4.44721	3.89148	3.82967	3.53080
943.000	4.48848	3.88336	3.78243	3.51319
944.000	4.44132	3.85400	3.76669	3.51721
945.000	4.49437	3.88333	3.79031	3.47954
946.000	4.49437	3.87149	3.79031	3.56458
947.000	4.50223	3.92869	3.86116	3.54649
948.000	4.50027	3.91686	3.76669	3.52512
949.000	4.50420	3.90500	3.83361	3.56835
950.000	4.46097	3.80453	3.78834	3.49339
951.000	4.48651	3.92878	3.81393	3.54471
952.000	4.47276	3.85778	3.81786	3.55655
953.000	4.48848	3.88534	3.81393	3.59809
954.000	4.48848	3.95048	3.76472	3.65564
955.000	4.48848	3.88929	3.72731	3.55099
956.000	4.48848	3.85770	3.84935	3.54258
957.000	4.47472	3.89726	3.73519	3.61226
958.000	4.48455	3.92682	3.79227	3.57841
959.000	4.49830	3.88923	3.77850	3.58044
960.000	4.51009	3.86745	3.76275	3.49943
961.000	4.46883	3.86767	3.79424	3.61202
962.000	4.47079	3.84199	3.68400	3.60060
963.000	4.45114	3.84407	3.78637	3.52504
964.000	4.43935	3.85795	3.78440	3.55471
965.000	4.51598	3.92270	3.75487	3.53506
966.000	4.41970	3.84621	3.77850	3.54485
967.000	4.40201	3.80681	3.83361	3.57626
968.000	4.47669	3.87355	3.86313	3.49704
969.000	4.49437	3.91294	3.72141	3.56486
970.000	4.42953	3.83036	3.72928	3.56483
971.000	4.45114	3.84012	3.81196	3.57240
972.000	4.52581	3.87527	3.77259	3.56465
973.000	4.50223	3.84775	3.75684	3.54296
974.000	4.45311	3.90527	3.81589	3.51306
975.000	4.45900	3.85785	3.76275	3.47965
976.000	4.45507	3.83023	3.78243	3.50528
977.000	4.43739	3.85797	3.66628	3.53343
978.000	4.44525	3.83620	3.73322	3.54701
979.000	4.41577	3.82253	3.70566	3.60645
980.000	4.48848	3.87547	3.78046	3.56264
981.000	4.47079	3.85779	3.72928	3.49165
982.000	4.50813	3.87339	3.81393	3.63566
983.000	4.45900	3.84008	3.83951	3.50901
984.000	4.44525	3.82041	3.82967	3.53278
985.000	4.48651	3.85573	3.73913	3.55490
986.000	4.43739	3.79478	3.77850	3.59231
987.000	4.46490	3.88546	3.77062	3.60816
988.000	4.45704	3.83812	3.79818	3.55070
989.000	4.43542	3.85403	3.82377	3.59014
990.000	4.47669	3.82814	3.77850	3.62592
991.000	4.47276	3.82224	3.80015	3.55860
992.000	4.40398	3.82259	3.74306	3.57070
993.000	4.43542	3.83033	3.82967	3.53871
994.000	4.49044	3.82215	3.83558	3.54264
995.000	4.42166	3.83435	3.76078	3.57261
996.000	4.45311	3.78877	3.79621	3.57839
997.000	4.44525	3.77499	3.71353	3.59060
998.000	4.44525	3.89149	3.80408	3.51706
999.000	4.44721	3.85594	3.76865	3.51127
1000.000	4.43542	3.84415	3.76078	3.60425
1001.000	4.50027	3.85764	3.76472	3.56468
1002.000	4.46883	3.84595	3.75487	3.59438
1003.000	4.48258	3.88734	3.75881	3.47373
1004.000	4.47079	3.85976	3.76865	3.49941
1005.000	4.50420	3.84774	3.72928	3.49956
1006.000	4.51402	3.89705	3.73519	3.50943
1007.000	4.48651	3.84191	3.80015	3.59420
1008.000	4.42756	3.79680	3.76669	3.59631
1009.000	4.47669	3.86566	3.67810	3.50372
1010.000	4.45114	3.82828	3.73125	3.55098
1011.000	4.44918	3.85988	3.83361	3.53078
1012.000	4.42756	3.85604	3.77850	3.58835
1013.000	4.46293	3.78082	3.73519	3.63006
1014.000	4.42756	3.83827	3.82180	3.54270
1015.000	4.46293	3.84598	3.70369	3.57679
1016.000	4.48062	3.80838	3.80605	3.69105
1017.000	4.44918	3.83816	3.67022	3.48793
1018.000	4.47276	3.84988	3.75881	3.59832
1019.000	4.44132	3.81253	3.76472	3.60028
1020.000	4.49044	3.88335	3.70763	3.54118
1021.000	4.44918	3.86185	3.66038	3.56510
1022.000	4.45704	3.84404	3.78834	3.55272
1023.000	4.45900	3.85785	3.73125	3.57273
1024.000	4.45311	3.82037	3.71747	3.62222
1025.000	4.42166	3.82843	3.73913	3.57863
1026.000	4.43542	3.88167	3.74306	3.56477
1027.000	4.48062	3.86958	3.85526	3.58210
1028.000	4.44132	3.84017	3.69778	3.64010
1029.000	4.44525	3.87372	3.77062	3.56268
1030.000	4.46686	3.85584	3.81196	3.57635
1031.000	4.42756	3.80865	3.66038	3.55719
1032.000	4.48848	3.83795	3.68794	3.54126
1033.000	4.44525	3.82436	3.76078	3.57854
1034.000	4.41380	3.83242	3.67613	3.62041
1035.000	4.43346	3.83034	3.72338	3.56880
1036.000	4.39218	3.79896	3.75487	3.57856
1037.000	4.42953	3.82049	3.71353	3.64596
1038.000	4.45507	3.79666	3.77456	3.57848
1039.000	4.39808	3.84632	3.67613	3.55911
1040.000	4.42953	3.84023	3.71156	3.60445
1041.000	4.44918	3.89739	3.64069	3.58100
1042.000	4.42559	3.82841	3.71550	3.52928
1043.000	4.44328	3.81449	3.70960	3.61632
1044.000	4.42953	3.88367	3.71944	3.51938
1045.000	4.45507	3.80851	3.70960	3.58666
1046.000	4.43935	3.81846	3.75291	3.62801
1047.000	4.51598	3.83189	3.61509	3.60681
1048.000	4.43739	3.82835	3.65644	3.59676
1049.000	4.45114	3.83420	3.67613	3.61843
1050.000	4.40398	3.79890	3.75487	3.62207
1051.000	4.45704	3.88156	3.71550	3.63409
1052.000	4.45900	3.81836	3.68794	3.59268
1053.000	4.45900	3.78479	3.69581	3.54123
1054.000	4.43149	3.83825	3.73519	3.58062
1055.000	4.42756	3.83432	3.65447	3.63830
1056.000	4.45311	3.78482	3.70763	3.50558
1057.000	4.51795	3.86149	3.77850	3.63581
1058.000	4.45900	3.82626	3.70172	3.58076
1059.000	4.42953	3.82444	3.65644	3.56907
1060.000	4.48848	3.89718	3.77456	3.59430
1061.000	4.49241	3.85768	3.69188	3.54916
1062.000	4.49634	3.85371	3.76865	3.57455
1063.000	4.48651	3.90509	3.74897	3.51531
1064.000	4.46293	3.88152	3.71747	3.56883
1065.000	4.45114	3.85394	3.67810	3.59470
1066.000	4.51795	3.82595	3.75094	3.60626
1067.000	4.52188	3.82593	3.77259	3.61211
1068.000	4.50616	3.84181	3.69385	3.57090
1069.000	4.48455	3.83600	3.72338	3.55892
1070.000	4.49437	3.84385	3.72535	3.54309
1071.000	4.52581	3.85947	3.75684	3.55483
1072.000	4.46097	3.82230	3.65644	3.62840
1073.000	4.47865	3.84788	3.86313	3.60580
1074.000	4.50223	3.78062	3.71156	3.59852
1075.000	4.44525	3.83028	3.75881	3.54098
1076.000	4.49830	3.85172	3.74306	3.59839
1077.000	4.49830	3.80039	3.70763	3.53525
1078.000	4.49437	3.78658	3.68400	3.65993
1079.000	4.51009	3.81415	3.69385	3.59463
1080.000	4.49044	3.81622	3.72928	3.53516
1081.000	4.51598	3.85558	3.68400	3.67179
1082.000	4.50223	3.84183	3.65644	3.53347
1083.000	4.52188	3.84567	3.68400	3.63027
1084.000	4.51991	3.87925	3.66234	3.60860
1085.000	4.49044	3.87151	3.64659	3.62053
1086.000	4.52581	3.87527	3.71944	3.62221
1087.000	4.51402	3.81610	3.74503	3.60431
1088.000	4.51598	3.88914	3.67613	3.67182
1089.000	4.54349	3.84951	3.65447	3.61061
1090.000	4.48651	3.82612	3.70172	3.57285
1091.000	4.55528	3.86919	3.71944	3.63803
1092.000	4.53367	3.85943	3.74306	3.60432
1093.000	4.53956	3.82781	3.70763	3.60446
1094.000	4.48848	3.84388	3.72535	3.65580
1095.000	4.51009	3.85363	3.70566	3.62029
1096.000	4.50616	3.86945	3.72535	3.60439
1097.000	4.50223	3.82209	3.68794	3.53533
1098.000	4.49830	3.86554	3.70172	3.60647
1099.000	4.50616	3.86550	3.68991	3.58278
1100.000	4.53367	3.84364	3.72535	3.68150
1101.000	4.48651	3.85376	3.70566	3.49570
1102.000	4.47276	3.83014	3.62099	3.52570
1103.000	4.51991	3.85556	3.70172	3.64997
1104.000	4.56314	3.87902	3.70172	3.66381
1105.000	4.53367	3.85351	3.64265	3.63439
1106.000	4.50616	3.86945	3.70369	3.65787
1107.000	4.35091	3.85051	3.64265	3.65614
1108.000	4.25458	3.88062	3.64856	3.51768
1109.000	4.12283	3.83387	3.53041	3.43900
1110.000	3.93594	3.74977	3.47723	3.30463
1111.000	3.67613	3.61250	3.36888	3.18623
1112.000	3.43586	3.45518	3.06341	3.07428
1113.000	3.07721	3.23070	2.78932	2.88082
1114.000	2.70253	3.01581	2.66111	2.63131
1115.000	2.36908	2.78659	2.37105	2.46525
1116.000	2.02953	2.65829	2.14800	2.17586
1117.000	1.66022	2.46236	1.94067	1.97161
1118.000	1.40734	2.23630	1.62466	1.89051
1119.000	1.06153	2.00618	1.45476	1.48132
1120.000	0.78877	1.76192	1.30657	1.18324
1121.000	0.53378	1.55728	1.06746	1.09387
1122.000	0.31632	1.46190	0.86191	0.99451
1123.000	0.27678	1.37044	0.67413	0.76385
1124.000	0.03163	1.19548	0.50412	0.64850
1125.000	-0.16804	1.05826	0.21747	0.54707
1126.000	-0.30050	1.00455	0.04349	0.44364
1127.000	-0.50808	0.87724	-0.14432	0.19098
1128.000	-0.61878	0.80761	-0.36376	0.15915
1129.000	-0.82831	0.70614	-0.69389	0.10145
1130.000	-1.02003	0.60268	-0.98050	-0.01989
1131.000	-1.12675	0.53106	-1.24334	-0.15315
1132.000	-1.32040	0.47733	-1.54762	-0.27046
1133.000	-1.43303	0.31025	-1.64244	-0.47925
1134.000	-1.58318	0.27046	-1.91895	-0.57461
1135.000	-1.70762	0.16306	-1.93278	-0.74160
1136.000	-1.78466	0.08749	-2.12233	-0.88263
1137.000	-1.84588	-0.04971	-2.23288	-0.88456
1138.000	-1.93278	-0.09544	-2.33750	-0.96001
1139.000	-1.93080	-0.15509	-2.47367	-0.99369
1140.000	-1.99202	-0.21672	-2.47762	-0.97382
1141.000	-1.99794	-0.20677	-2.44210	-0.92218
1142.000	-1.99597	-0.18689	-2.46183	-0.95992
1143.000	-1.94462	-0.13719	-2.47564	-0.89036
1144.000	-1.90513	-0.17298	-2.41644	-0.97386
1145.000	-1.91105	-0.11532	-2.35329	-0.80300
1146.000	-1.84391	-0.09544	-2.36118	-0.75928
1147.000	-1.77873	0.00994	-2.35329	-0.69171
1148.000	-1.78268	0.03380	-2.28223	-0.68578
1149.000	-1.70170	0.10539	-2.29210	-0.59434
1150.000	-1.66219	0.15511	-2.22499	-0.67587
1151.000	-1.64837	0.15312	-2.25262	-0.65995
1152.000	-1.61083	0.18296	-2.14405	-0.63217
1153.000	-1.67800	0.13920	-2.22104	-0.77525
1154.000	-1.63849	0.17301	-2.14602	-0.74349
1155.000	-1.66022	0.15312	-2.22301	-0.76134
1156.000	-1.72145	0.12727	-2.17958	-0.74546
1157.000	-1.68195	0.10341	-2.26644	-0.89646
1158.000	-1.79453	0.11135	-2.18353	-0.95812
1159.000	-1.78268	0.07556	-2.34539	-0.95404
1160.000	-1.86168	0.02983	-2.35921	-0.95204
1161.000	-1.92883	0.01591	-2.42039	-1.00764
1162.000	-1.92093	-0.03579	-2.38486	-0.99972
1163.000	-1.96635	-0.02982	-2.52695	-1.03736
1164.000	-1.94660	-0.02784	-2.53287	-1.02146
1165.000	-1.92290	-0.07158	-2.60981	-0.98961
1166.000	-2.00584	-0.01789	-2.56838	-0.99958
1167.000	-2.00584	-0.09345	-2.55457	-0.99363
1168.000	-2.05520	-0.12128	-2.58811	-0.98764
1169.000	-2.06310	-0.11332	-2.57627	-0.99759
1170.000	-2.02558	-0.09345	-2.54865	-0.90621
1171.000	-1.93080	-0.10936	-2.47564	-0.90626
1172.000	-1.98609	-0.10736	-2.52892	-0.90424
1173.000	-1.99597	-0.11731	-2.58614	-0.91811
1174.000	-2.03743	-0.12128	-2.57825	-0.89228
1175.000	-1.93672	-0.05766	-2.58614	-0.91016
1176.000	-1.97029	-0.07158	-2.52103	-0.94200
1177.000	-1.91500	-0.08152	-2.58219	-0.87638
1178.000	-1.93672	-0.10538	-2.50524	-0.87047
1179.000	-1.98412	-0.12725	-2.50327	-0.88240
1180.000	-1.91303	-0.04374	-2.54471	-0.92608
1181.000	-1.96635	-0.06164	-2.52892	-0.96981
1182.000	-1.99399	-0.13321	-2.45196	-0.82282
1183.000	-1.91500	-0.10140	-2.48946	-0.83472
1184.000	-2.01176	-0.10339	-2.50130	-0.80689
1185.000	-1.91303	-0.12328	-2.47367	-0.85261
1186.000	-1.96042	-0.11134	-2.49538	-0.92612
1187.000	-1.89130	-0.10936	-2.40460	-0.84272
1188.000	-1.93870	-0.06363	-2.48946	-0.88638
1189.000	-1.92685	-0.07953	-2.47564	-0.80690
1190.000	-1.90315	-0.06760	-2.48748	-0.83670
1191.000	-1.88735	0.00398	-2.44012	-0.79500
1192.000	-1.93475	-0.07158	-2.42828	-0.88046
1193.000	-1.93672	-0.05170	-2.42631	-0.84469
1194.000	-1.90908	-0.09146	-2.48946	-0.84266
1195.000	-1.93672	-0.07754	-2.43420	-0.81488
1196.000	-1.89723	-0.08351	-2.42631	-0.89040
1197.000	-1.85378	-0.00795	-2.48946	-0.89632
1198.000	-1.81428	-0.03977	-2.40263	-0.85266
1199.000	-1.91500	-0.05567	-2.50130	-0.84067
1200.000	-1.87551	-0.06363	-2.45591	-0.84070
1201.000	-1.88933	-0.07755	-2.41052	-0.79701
1202.000	-1.92883	-0.03579	-2.41447	-0.82880
1203.000	-1.88143	-0.04971	-2.56049	-0.81877
1204.000	-1.86366	-0.06959	-2.37894	-0.87850
1205.000	-1.95647	-0.05368	-2.47762	-0.85261
1206.000	-1.94265	-0.03579	-2.54076	-0.90025
1207.000	-1.93278	0.01193	-2.53879	-0.89231
1208.000	-1.93870	-0.04971	-2.44999	-0.80493
1209.000	-1.90710	-0.04971	-2.53879	-0.85853
1210.000	-1.92093	-0.06760	-2.59600	-0.89227
1211.000	-1.94462	-0.07953	-2.55062	-0.83666
1212.000	-1.91105	-0.06561	-2.54273	-0.89429
1213.000	-1.87353	-0.02784	-2.51905	-0.84066
1214.000	-1.85773	-0.08550	-2.55457	-0.88038
1215.000	-1.89723	-0.07953	-2.46578	-0.83076
1216.000	-1.90908	-0.20082	-2.52695	-0.95987
1217.000	-1.90315	-0.06562	-2.54076	-0.87244
1218.000	-1.82811	-0.10737	-2.56444	-0.84262
1219.000	-1.82613	-0.05965	-2.56049	-0.83467
1220.000	-1.83798	-0.05170	-2.47564	-0.87447
1221.000	-1.83996	-0.08152	-2.55654	-0.89627
1222.000	-1.84588	-0.08152	-2.54668	-0.89826
1223.000	-1.81823	-0.08948	-2.55654	-0.80487
1224.000	-1.87156	-0.08948	-2.42236	-0.78508
1225.000	-1.85181	-0.09147	-2.43618	-0.91622
1226.000	-1.89920	-0.06760	-2.43815	-0.86257
1227.000	-1.88341	-0.12527	-2.55457	-0.86249
1228.000	-1.83798	-0.09942	-2.53484	-0.87641
1229.000	-1.82811	-0.05766	-2.48156	-0.81485
1230.000	-1.86563	-0.05766	-2.50722	-0.90028
1231.000	-1.83601	-0.10737	-2.52695	-0.92411
1232.000	-1.82218	-0.07556	-2.54273	-0.85058
1233.000	-1.87946	-0.04176	-2.53287	-0.85456
1234.000	-1.87353	-0.07158	-2.50722	-0.83669
1235.000	-1.82021	-0.06562	-2.49340	-0.86849
1236.000	-1.88933	-0.05766	-2.45591	-0.91621
1237.000	-1.88735	-0.07357	-2.57627	-0.80485
1238.000	-1.84786	-0.12527	-2.48156	-0.90824
1239.000	-1.85576	-0.05766	-2.45986	-0.85858
1240.000	-1.90315	-0.07158	-2.52892	-0.83270
1241.000	-1.89525	-0.05965	-2.51116	-0.86451
1242.000	-1.85378	-0.07357	-2.51511	-0.90425
1243.000	-1.80638	-0.04772	-2.58417	-0.82869
1244.000	-1.84391	-0.10340	-2.52695	-0.94000
1245.000	-1.92290	-0.10140	-2.54076	-0.89429
1246.000	-1.86563	-0.15708	-2.49538	-0.89432
1247.000	-1.92883	-0.15111	-2.53089	-0.91020
1248.000	-1.94857	-0.10538	-2.47959	-0.79895
1249.000	-1.91698	-0.09544	-2.54865	-0.88038
1250.000	-1.89130	-0.10538	-2.57627	-0.84261
1251.000	-1.96437	-0.08351	-2.54865	-0.85455
1252.000	-1.90118	-0.06959	-2.52103	-0.90623
1253.000	-1.89723	-0.11334	-2.48551	-0.84465
1254.000	-1.85181	-0.13322	-2.49735	-0.87644
1255.000	-1.89525	-0.04971	-2.49538	-0.91022
1256.000	-1.86366	-0.03977	-2.47762	-0.85857
1257.000	-1.90908	-0.05766	-2.48946	-0.88241
1258.000	-1.85971	-0.07357	-2.47170	-0.89832
1259.000	-1.81626	-0.09942	-2.49340	-0.85260
1260.000	-1.87748	-0.10340	-2.55260	-0.87243
1261.000	-1.83996	-0.07556	-2.52892	-0.83469
1262.000	-1.87156	-0.12726	-2.51905	-0.88040
1263.000	-1.88933	-0.03977	-2.44012	-0.85064
1264.000	-1.80638	-0.06960	-2.54668	-0.82673
1265.000	-1.83206	-0.04573	-2.51708	-0.85854
1266.000	-1.80441	-0.10340	-2.53287	-0.81084
1267.000	-1.84193	-0.05766	-2.47367	-0.88242
1268.000	-1.77478	-0.10141	-2.55260	-0.82275
1269.000	-1.87748	-0.08749	-2.51905	-0.85655
1270.000	-1.82218	-0.08948	-2.48551	-0.84465
1271.000	-1.81428	-0.09147	-2.44999	-0.81089
1272.000	-1.85773	-0.09147	-2.58614	-0.95784
1273.000	-1.85576	-0.14714	-2.52695	-0.90225
1274.000	-1.86958	-0.10538	-2.48156	-0.89831
1275.000	-1.85576	-0.05766	-2.48354	-0.93010
1276.000	-1.79453	-0.05767	-2.57035	-0.85056
1277.000	-1.84786	-0.11732	-2.50722	-0.82676
1278.000	-1.80046	-0.06363	-2.54668	-0.94396
1279.000	-1.85576	-0.07556	-2.52300	-0.90225
1280.000	-1.83798	-0.03977	-2.49340	-0.85657
1281.000	-1.84588	-0.04573	-2.51708	-0.97975
1282.000	-1.85378	-0.08749	-2.53681	-0.99563
1283.000	-1.84786	0.00000	-2.54273	-0.87442
1284.000	-1.83601	-0.06363	-2.53879	-0.92013
1285.000	-1.82613	-0.05369	-2.51708	-0.92213
1286.000	-1.87748	-0.06164	-2.49538	-0.96387
1287.000	-1.87353	-0.05766	-2.48156	-0.89831
1288.000	-1.85378	-0.06363	-2.52497	-0.88238
1289.000	-1.84588	-0.02784	-2.53484	-0.93602
1290.000	-1.86958	-0.07954	-2.52497	-0.97180
1291.000	-1.85971	-0.07357	-2.57430	-0.91017
1292.000	-1.86563	-0.05567	-2.51116	-0.93207
1293.000	-1.84193	-0.06363	-2.58811	-0.87638
1294.000	-1.83008	-0.05568	-2.49932	-0.94599
1295.000	-1.86958	-0.04573	-2.41644	-0.92419
1296.000	-1.84391	-0.05766	-2.59995	-0.93002
1297.000	-1.85773	-0.03778	-2.52497	-0.91616
1298.000	-1.87551	-0.06562	-2.55852	-0.90819
1299.000	-1.83008	-0.08351	-2.46775	-0.91421
1300.000	-1.83403	-0.11533	-2.54668	-0.94396
1301.000	-1.85378	-0.04772	-2.57627	-0.85652
1302.000	-1.87156	-0.10141	-2.56049	-1.02144
1303.000	-1.85773	-0.10936	-2.46775	-0.91421
1304.000	-1.80243	-0.05568	-2.61968	-0.85053
1305.000	-1.86366	-0.09743	-2.56049	-0.96184
1306.000	-1.84786	-0.02187	-2.50919	-0.90425
1307.000	-1.86958	-0.07954	-2.53287	-0.96583
1308.000	-1.89920	-0.11532	-2.57430	-0.95586
1309.000	-1.86366	-0.09743	-2.56246	-1.00952
1310.000	-1.82811	-0.05170	-2.62165	-0.94589
1311.000	-1.82218	-0.06761	-2.51511	-0.95790
1312.000	-1.88538	-0.06562	-2.52695	-0.92808
1313.000	-1.81231	-0.05568	-2.58614	-0.93996
1314.000	-1.83798	-0.05965	-2.51905	-0.98571
1315.000	-1.88538	-0.05766	-2.50722	-0.88438
1316.000	-1.83798	-0.06959	-2.61179	-0.85848
1317.000	-1.84588	-0.02983	-2.59798	-0.93598
1318.000	-1.82021	-0.10738	-2.56444	-0.83467
1319.000	-1.87551	-0.01790	-2.48748	-0.88439
1320.000	-1.80638	-0.04176	-2.52497	-0.94001
1321.000	-1.83403	-0.11533	-2.54865	-0.84859
1322.000	-1.82811	-0.07357	-2.63152	-0.84654
1323.000	-1.81428	-0.04971	-2.57233	-0.89626
1324.000	-1.82021	-0.00994	-2.53681	-0.91615
1325.000	-1.83206	0.00597	-2.52103	-0.92411
1326.000	-1.81823	-0.05369	-2.52695	-0.84661
1327.000	-1.93080	-0.11532	-2.56838	-0.91216
1328.000	-1.86168	-0.04971	-2.53879	-0.87641
1329.000	-1.85773	-0.08948	-2.63743	-0.92601
1330.000	-1.84588	-0.04573	-2.55062	-0.86846
1331.000	-1.92488	-0.04772	-2.53681	-0.93205
1332.000	-1.87946	-0.06959	-2.50524	-0.89233
1333.000	-1.88933	-0.04573	-2.57627	-0.90818
1334.000	-1.93080	-0.10737	-2.59798	-0.89028
1335.000	-1.82416	-0.05568	-2.55654	-0.88236
1336.000	-1.88735	-0.08749	-2.59206	-0.90618
1337.000	-1.85378	-0.04374	-2.57430	-0.97573
1338.000	-1.87551	-0.05567	-2.55852	-0.92210
1339.000	-1.86563	-0.07357	-2.57825	-0.86446
1340.000	-1.87551	-0.05766	-2.54076	-0.89032
1341.000	-1.86563	-0.09345	-2.62757	-0.91609
1342.000	-1.88538	-0.06760	-2.47564	-0.83671
1343.000	-1.89130	-0.04573	-2.50722	-0.88836
1344.000	-1.88933	-0.04176	-2.52103	-0.85457
1345.000	-1.90710	-0.07158	-2.59008	-0.90221
1346.000	-1.87551	-0.07755	-2.57825	-0.91016
1347.000	-1.83798	-0.06761	-2.51511	-0.86649
1348.000	-1.87156	-0.06164	-2.54076	-0.92807
1349.000	-1.88735	-0.07357	-2.59403	-0.95386
1350.000	-1.89525	-0.09146	-2.48946	-0.88042
1351.000	-1.94462	-0.09345	-2.56641	-0.98369
1352.000	-1.85181	-0.06363	-2.60192	-0.90816
1353.000	-1.88143	-0.02983	-2.53287	-0.94993
1354.000	-1.88341	-0.03181	-2.52695	-0.92808
1355.000	-1.87946	-0.06164	-2.56838	-0.85652
1356.000	-1.90315	-0.05965	-2.66505	-0.84652
1357.000	-1.89130	-0.09942	-2.64730	-0.91806
1358.000	-1.90513	-0.07158	-2.51116	-0.92611
1359.000	-1.85576	-0.08351	-2.54865	-0.99562
1360.000	-1.92093	-0.09146	-2.52892	-0.94000
1361.000	-1.89525	-0.00398	-2.57825	-0.97573
1362.000	-1.85971	-0.03579	-2.49932	-0.94996
1363.000	-1.88143	-0.06164	-2.53681	-0.91615
1364.000	-1.90315	-0.05170	-2.48354	-1.01355
1365.000	-1.88341	-0.06760	-2.56246	-0.85255
1366.000	-1.87748	-0.06760	-2.54273	-0.90621
1367.000	-1.90710	-0.07556	-2.49932	-0.94400
1368.000	-1.88735	-0.10538	-2.54273	-1.08305
1369.000	-1.89723	-0.08749	-2.56246	-0.95786
1370.000	-1.86761	-0.08948	-2.51708	-0.93008
1371.000	-1.84588	-0.07158	-2.59206	-0.94790
1372.000	-1.86958	-0.08550	-2.60981	-0.97173
1373.000	-1.84786	-0.03778	-2.60784	-0.97968
1374.000	-1.84983	-0.04374	-2.55260	-0.95191
1375.000	-1.89328	-0.08351	-2.63546	-0.90416
1376.000	-1.89920	-0.07953	-2.57233	-0.94991
1377.000	-1.86168	-0.08550	-2.59995	-0.94194
1378.000	-1.81428	-0.06164	-2.54471	-0.92211
1379.000	-1.89328	-0.13322	-2.61573	-1.02140
1380.000	-1.92093	-0.10936	-2.59403	-0.93201
1381.000	-1.91105	-0.07158	-2.59403	-1.00751
1382.000	-1.86958	-0.08351	-2.58811	-1.01149
1383.000	-1.87946	-0.12328	-2.62954	-0.95582
1384.000	-1.96635	-0.07953	-2.56641	-0.97971
1385.000	-1.92685	-0.13123	-2.52497	-0.89033
1386.000	-1.91105	-0.07754	-2.55457	-0.98171
1387.000	-1.87156	-0.06760	-2.52892	-0.98173
1388.000	-1.87353	-0.12924	-2.52497	-0.97974
1389.000	-1.95845	-0.10737	-2.54076	-0.92609
1390.000	-1.93475	-0.07754	-2.48551	-1.00759
1391.000	-1.92883	-0.06561	-2.61573	-0.95385
1392.000	-1.89723	-0.09942	-2.61771	-0.92404
1393.000	-1.89130	-0.09544	-2.58022	-0.94394
1394.000	-1.83601	-0.08351	-2.55062	-0.94793
1395.000	-1.90710	-0.04176	-2.61771	-0.92802
1396.000	-1.95450	-0.12725	-2.63152	-0.96973
1397.000	-1.91698	-0.05965	-2.67294	-0.98559
1398.000	-1.86761	-0.06760	-2.51511	-0.89630
1399.000	-1.85971	-0.07755	-2.55654	-0.98965
1400.000	-1.84193	-0.12129	-2.64138	-0.96376
1401.000	-1.87946	-0.07158	-2.52892	-0.94199
1402.000	-1.94462	-0.10339	-2.56838	-0.96978
1403.000	-1.90315	-0.12328	-2.55062	-0.98767
1404.000	-1.89920	-0.11334	-2.54668	-1.00556
1405.000	-1.87946	-0.05567	-2.58811	-0.95387
1406.000	-1.87551	-0.11930	-2.64533	-0.93594
1407.000	-1.95845	-0.12725	-2.57627	-0.98964
1408.000	-1.90908	-0.11333	-2.55654	-0.93203
1409.000	-1.93672	-0.07953	-2.58614	-0.94990
1410.000	-1.88735	-0.08351	-2.56049	-0.93203
1411.000	-1.89920	-0.08948	-2.55260	-0.87442
1412.000	-1.94660	-0.09743	-2.60981	-0.90021
1413.000	-1.86761	-0.09942	-2.56838	-0.90024
1414.000	-1.91303	-0.04175	-2.66505	-0.91606
1415.000	-1.89130	-0.11930	-2.59798	-0.95386
1416.000	-1.87748	-0.06363	-2.61376	-0.97570
1417.000	-1.95055	-0.12924	-2.56049	-0.90024
1418.000	-1.84983	-0.06562	-2.65716	-0.93593
1419.000	-1.91303	-0.12129	-2.55457	-1.01350
1420.000	-1.85181	-0.12129	-2.52497	-0.91815
1421.000	-1.86563	-0.04772	-2.53879	-0.90224
1422.000	-1.88341	-0.08948	-2.49538	-0.90625
1423.000	-1.90908	-0.04374	-2.61376	-0.96378
1424.000	-1.92290	-0.08152	-2.64730	-0.91607
1425.000	-1.86563	-0.11533	-2.56641	-0.96978
1426.000	-1.92290	-0.10538	-2.64138	-0.89025
1427.000	-1.89525	-0.03977	-2.64927	-0.92998
1428.000	-1.95055	-0.11532	-2.58219	-0.93202
1429.000	-1.88341	-0.07556	-2.55260	-0.91614
1430.000	-1.93672	-0.06164	-2.57627	-0.92805
1431.000	-1.83403	-0.06562	-2.65716	-0.94587
1432.000	-1.86366	-0.09544	-2.58219	-0.89824
1433.000	-1.91698	-0.03380	-2.55457	-0.88832
1434.000	-1.87551	-0.01193	-2.54076	-0.88833
1435.000	-1.92883	-0.04175	-2.55654	-0.96383
1436.000	-1.88143	-0.04971	-2.54076	-0.91019
1437.000	-1.90710	-0.10140	-2.63152	-0.88430
1438.000	-1.87353	-0.06363	-2.60981	-0.96180
1439.000	-1.88933	-0.03579	-2.63743	-0.94787
1440.000	-1.96042	-0.08152	-2.49932	-0.91618
1441.000	-1.82218	-0.05766	-2.60784	-0.95584
1442.000	-1.86761	-0.13919	-2.53879	-0.89628
1443.000	-1.90710	-0.03778	-2.60981	-0.89027
1444.000	-1.88933	-0.05369	-2.56838	-0.98965
1445.000	-1.91105	-0.08152	-2.52892	-0.90622
1446.000	-1.98412	-0.07356	-2.57825	-0.99560
1447.000	-1.91698	-0.07158	-2.60981	-0.97968
1448.000	-1.86366	-0.06164	-2.58022	-0.92407
1449.000	-1.94660	-0.02585	-2.54076	-0.91814
1450.000	-1.93278	-0.06164	-2.54668	-1.02741
1451.000	-1.90908	-0.08351	-2.60390	-0.90021
1452.000	-1.91303	-0.05170	-2.61376	-0.90815
1453.000	-1.89723	-0.04772	-2.60784	-0.97571
1454.000	-1.89130	-0.01193	-2.57430	-0.92010
1455.000	-1.91303	-0.04971	-2.62362	-0.97172
1456.000	-1.87748	-0.09942	-2.53681	-0.91019
1457.000	-1.90118	-0.04176	-2.62560	-0.93000
1458.000	-1.95055	-0.10538	-2.59206	-0.98764
1459.000	-1.88933	-0.10339	-2.63152	-0.97768
1460.000	-1.91105	-0.10339	-2.64335	-0.89025
1461.000	-1.91895	-0.07158	-2.58022	-0.94195
1462.000	-1.82218	-0.03977	-2.63743	-0.93992
1463.000	-1.90118	-0.05369	-2.59206	-0.90022
1464.000	-1.91895	-0.06164	-2.61573	-0.94193
1465.000	-1.88341	-0.05965	-2.56246	-0.92607
1466.000	-1.87946	-0.03380	-2.57825	-0.90222
1467.000	-1.84193	-0.05965	-2.61968	-0.95782
1468.000	-1.88538	-0.00795	-2.62757	-0.92602
1469.000	-1.95450	-0.08550	-2.57627	-0.91811
1470.000	-1.87946	-0.08351	-2.48946	-0.94003
1471.000	-1.86563	-0.07357	-2.50524	-0.91816
1472.000	-1.88933	-0.05766	-2.64335	-0.93396
1473.000	-1.88341	-0.00398	-2.59008	-0.88234
1474.000	-1.84786	-0.09147	-2.58614	-0.93003
1475.000	-1.91895	-0.07556	-2.57627	-1.00752
1476.000	-1.94857	-0.11930	-2.63546	-1.05118
1477.000	-1.86761	-0.03181	-2.56641	-0.94594
1478.000	-1.93080	-0.10936	-2.60192	-0.92803
1479.000	-1.89525	-0.10141	-2.54273	-0.88237
1480.000	-1.94067	-0.07357	-2.63743	-0.90217
1481.000	-1.90118	-0.05369	-2.51511	-0.84662
1482.000	-1.89920	-0.05170	-2.54471	-0.91416
1483.000	-1.85181	0.00994	-2.54273	-0.93602
1484.000	-1.92290	-0.07556	-2.59798	-0.94989
1485.000	-1.90315	-0.06959	-2.57233	-0.88235
1486.000	-1.91698	-0.06363	-2.62757	-0.96775
1487.000	-1.96437	-0.09941	-2.59995	-0.91213
1488.000	-1.91895	-0.05567	-2.57430	-0.92010
1489.000	-1.84786	-0.02187	-2.65322	-0.92998
1490.000	-1.87551	-0.11135	-2.64927	-0.93594
1491.000	-1.86958	-0.06363	-2.50722	-0.88239
1492.000	-1.91895	-0.06561	-2.54471	-0.99364
1493.000	-1.87946	-0.06562	-2.56641	-0.93600
1494.000	-1.94067	-0.08152	-2.61771	-0.88828
1495.000	-1.92685	-0.11731	-2.55654	-0.99760
1496.000	-1.88735	-0.11930	-2.59995	-0.91213
1497.000	-1.93475	-0.09345	-2.63349	-0.88628
1498.000	-1.92093	-0.06959	-2.68873	-0.92796
1499.000	-1.91500	-0.07158	-2.62757	-0.99755
1500.000	-1.87353	-0.08351	-2.56444	-0.94395
1501.000	-1.88933	-0.10538	-2.50919	-1.04532
1502.000	-1.92883	-0.04374	-2.53089	-1.01550
1503.000	-1.91105	-0.09544	-2.55654	-1.00555
1504.000	-1.90710	-0.06363	-2.63152	-0.98562
1505.000	-1.95647	-0.03977	-2.61179	-0.98564
1506.000	-1.93672	-0.06363	-2.57430	-0.97772
1507.000	-1.94857	-0.10538	-2.58417	-0.91016
1508.000	-1.94660	-0.08152	-2.64927	-1.04322
1509.000	-1.95450	-0.12128	-2.61573	-0.92007
1510.000	-1.89723	-0.11334	-2.56838	-0.90421
1511.000	-1.92290	-0.13521	-2.54668	-0.99165
1512.000	-1.92093	-0.09544	-2.62560	-1.00549
1513.000	-1.91698	-0.08749	-2.58022	-0.93997
1514.000	-1.88735	-0.10936	-2.60390	-0.93399
1515.000	-1.92290	-0.05567	-2.69662	-0.94584
1516.000	-1.91895	-0.06561	-2.69070	-0.99154
1517.000	-1.91895	-0.07556	-2.61771	-0.97570
1518.000	-1.86168	-0.04971	-2.67886	-0.95181
1519.000	-1.95845	-0.06164	-2.61376	-0.91610
1520.000	-1.97424	-0.12725	-2.59008	-1.05519
1521.000	-1.92093	-0.05965	-2.59995	-0.91611
1522.000	-1.94660	-0.06959	-2.58417	-0.97970
1523.000	-1.97227	-0.12526	-2.63743	-1.02337
1524.000	-1.93475	-0.07158	-2.58219	-0.98169
1525.000	-1.88735	-0.03579	-2.62165	-1.00550
1526.000	-1.90315	-0.04176	-2.60784	-0.94193
1527.000	-1.93080	-0.04573	-2.55654	-0.95786
1528.000	-1.91895	-0.10339	-2.62165	-0.90218
1529.000	-1.96042	-0.08152	-2.62165	-1.04126
1530.000	-1.93080	-0.08550	-2.67294	-1.00148
1531.000	-1.91895	-0.12129	-2.56049	-0.97574
1532.000	-1.96240	-0.07953	-2.60587	-1.05319
1533.000	-1.91698	-0.05965	-2.66308	-0.96176
1534.000	-1.95647	-0.06362	-2.59798	-0.98168
1535.000	-1.96635	-0.06561	-2.60390	-1.00353
1536.000	-1.93672	-0.06164	-2.61968	-1.01146
1537.000	-1.90710	-0.09146	-2.59995	-0.93796
1538.000	-1.94265	-0.09146	-2.62560	-0.91609
1539.000	-1.99004	-0.12526	-2.59008	-0.93598
1540.000	-1.91105	-0.08947	-2.60981	-0.96180
1541.000	-1.92883	-0.07556	-2.54668	-0.95390
1542.000	-1.94265	-0.11731	-2.66111	-0.96176
1543.000	-1.90315	-0.05170	-2.67492	-0.92996
1544.000	-1.89723	-0.03181	-2.64533	-0.94389
1545.000	-1.94265	-0.04971	-2.65124	-0.98759
1546.000	-1.95647	-0.09544	-2.61573	-0.94987
1547.000	-1.92883	-0.08550	-2.53879	-1.01947
1548.000	-1.90908	-0.08351	-2.62954	-0.94589
1549.000	-1.80441	-0.01392	-2.50130	-0.97976
1550.000	-1.75700	0.01392	-2.54668	-0.90224
1551.000	-1.69577	-0.07358	-2.42039	-0.86854
1552.000	-1.46069	0.03978	-2.23880	-0.86468
1553.000	-1.24927	-0.00994	-1.86168	-0.78735
1554.000	-1.00421	0.05172	-1.68985	-0.78345
1555.000	-0.68994	0.03183	-1.32436	-0.94464
1556.000	-0.30841	-0.02586	-0.89551	-0.80159
1557.000	0.06920	-0.04178	-0.50610	-0.77978
1558.000	0.45075	-0.00796	-0.00989	-0.62267
1559.000	0.92911	0.00597	0.41714	-0.73802
1560.000	1.42908	0.04972	0.83226	-0.62260
1561.000	1.77873	0.00994	1.24136	-0.69014
1562.000	2.20327	0.11530	1.64244	-0.65820
1563.000	2.65322	0.09340	2.12628	-0.60634
1564.000	3.03975	0.09735	2.66703	-0.64584
1565.000	3.38661	0.16086	3.05947	-0.67144
1566.000	3.80015	0.12307	3.40434	-0.76454
1567.000	4.19166	0.15873	3.83754	-0.73837
1568.000	4.53563	0.12693	4.17593	-0.77774
1569.000	4.92049	0.13478	4.47472	-0.78933
1570.000	5.28530	0.00990	4.83413	-0.74731
1571.000	5.62227	-0.03366	5.19904	-0.84197
1572.000	6.02730	-0.10486	5.51260	-0.95241
1573.000	6.41024	-0.18188	5.80040	-0.82529
1574.000	6.79651	-0.25878	6.20125	-0.90773
1575.000	7.12377	-0.37507	6.51760	-1.00598
1576.000	7.49332	-0.41421	6.79066	-1.03109
1577.000	7.85836	-0.51632	7.09457	-1.09358
1578.000	8.27117	-0.56895	7.33974	-1.02987
1579.000	8.54784	-0.56461	7.84478	-1.12125
1580.000	8.89166	-0.57981	7.98055	-1.07559
1581.000	9.13850	-0.63244	8.18016	-1.06521
1582.000	9.37923	-0.52406	8.36021	-0.99389
1583.000	9.64076	-0.50797	8.63675	-0.90862
1584.000	9.87694	-0.53113	8.75459	-0.97124
1585.000	10.02079	-0.50739	8.99776	-0.98042
1586.000	10.11279	-0.46808	8.90323	-0.93155
1587.000	10.13961	-0.42104	9.02862	-0.79372
1588.000	10.18367	-0.35049	9.06140	-0.82704
1589.000	10.11470	-0.37603	8.98619	-0.73684
1590.000	10.04955	-0.35652	8.86464	-0.73512
1591.000	9.90380	-0.29201	8.79321	-0.84731
1592.000	9.77329	-0.29016	8.64061	-0.77883
1593.000	9.61193	-0.25892	8.65801	-0.73750
1594.000	9.48119	-0.24528	8.56524	-0.87142
1595.000	9.39462	-0.26890	8.49756	-0.81453
1596.000	9.26757	-0.27488	8.39698	-0.81671
1597.000	9.22327	-0.31026	8.48983	-0.86766
1598.000	9.23098	-0.31811	8.54977	-0.80458
1599.000	9.19630	-0.33778	8.54397	-0.81443
1600.000	9.30415	-0.38087	8.50530	-0.79287
1601.000	9.31956	-0.40048	8.58650	-0.90678
1602.000	9.40424	-0.42394	8.71210	-0.79637
1603.000	9.52350	-0.46106	8.70630	-0.84751
1604.000	9.58695	-0.46882	8.80286	-0.79028
1605.000	9.65613	-0.43931	8.87815	-0.82943
1606.000	9.72529	-0.41177	8.95147	-0.86463
1607.000	9.85967	-0.41552	8.97847	-0.85670
1608.000	9.90189	-0.41939	8.96111	-0.75654
1609.000	9.95751	-0.47026	8.98812	-0.72898
1610.000	10.02079	-0.47213	8.96304	-0.89800
1611.000	10.02654	-0.45057	9.09031	-0.78573
1612.000	10.05338	-0.46816	8.96883	-0.80564
1613.000	10.10512	-0.44850	8.87815	-0.88052
1614.000	10.05721	-0.43878	9.04404	-0.86440
1615.000	10.06680	-0.43289	8.97655	-0.88421
1616.000	10.03229	-0.40551	8.97655	-0.82527
1617.000	10.03038	-0.47799	8.99969	-0.96077
1618.000	10.03229	-0.41726	8.90323	-0.89814
1619.000	10.02079	-0.44862	8.99776	-0.85862
1620.000	9.98820	-0.46630	8.96497	-0.85870
1621.000	9.98244	-0.41929	8.87043	-0.88840
1622.000	9.95943	-0.42128	8.82989	-0.92977
1623.000	9.92299	-0.44484	8.87236	-0.94145
1624.000	9.95176	-0.45264	8.90130	-0.90994
1625.000	9.90956	-0.39586	8.78742	-0.91612
1626.000	9.90380	-0.40959	8.77776	-0.92204
1627.000	9.86543	-0.42532	8.94182	-0.89412
1628.000	9.89229	-0.34689	8.84534	-0.90418
1629.000	9.85391	-0.37241	8.76425	-0.89259
1630.000	9.84816	-0.40182	8.74687	-0.94570
1631.000	9.84048	-0.39007	8.66573	-0.97933
1632.000	9.80593	-0.40383	8.86850	-0.94932
1633.000	9.82129	-0.34697	8.78742	-0.98884
1634.000	9.80401	-0.40579	8.73335	-1.00668
1635.000	9.80977	-0.41755	8.74107	-0.93589
1636.000	9.73297	-0.41568	8.60583	-0.94803
1637.000	9.73489	-0.38235	8.77583	-0.92991
1638.000	9.72529	-0.39020	8.87236	-0.82158
1639.000	9.75793	-0.40781	8.70824	-0.82784
1640.000	9.79441	-0.37640	8.76232	-0.82772
1641.000	9.78289	-0.37249	8.65028	-0.89876
1642.000	9.73873	-0.39999	8.66187	-0.81221
1643.000	9.74065	-0.39607	8.69665	-0.87112
1644.000	9.77329	-0.41955	8.68505	-0.90261
1645.000	9.80593	-0.40579	8.79128	-0.79031
1646.000	9.82513	-0.36460	8.69085	-0.83968
1647.000	9.79825	-0.42932	8.76232	-0.81789
1648.000	9.79825	-0.39208	8.75845	-0.92602
1649.000	9.80785	-0.40971	8.67733	-0.91049
1650.000	9.84432	-0.42338	8.74493	-0.90443
1651.000	9.81745	-0.41754	8.73721	-0.91821
1652.000	9.82896	-0.42144	8.74687	-0.85921
1653.000	9.84048	-0.39791	8.69665	-0.82983
1654.000	9.84048	-0.39791	8.73528	-0.96932
1655.000	9.85583	-0.39397	8.70630	-0.91435
1656.000	9.82513	-0.41949	8.71017	-0.88878
1657.000	9.86351	-0.40572	8.78163	-0.91417
1658.000	9.85200	-0.42533	8.70051	-0.90060
1659.000	9.86543	-0.39200	8.75652	-0.80807
1660.000	9.86735	-0.40375	8.77583	-0.85521
1661.000	9.88846	-0.38805	8.74300	-0.88674
1662.000	9.88462	-0.41549	8.77390	-0.93974
1663.000	9.88078	-0.41158	8.70244	-0.93599
1664.000	9.84432	-0.45474	8.76038	-0.90046
1665.000	9.87694	-0.42530	8.71210	-0.93006
1666.000	9.88654	-0.40961	8.72176	-0.79635
1667.000	9.88846	-0.40569	8.68699	-0.93996
1668.000	9.86159	-0.46256	8.62709	-0.91258
1669.000	9.87310	-0.44490	8.70630	-0.89862
1670.000	9.85967	-0.42140	8.77969	-0.98100
1671.000	9.82129	-0.40185	8.72369	-0.85926
1672.000	9.83472	-0.40183	8.68892	-0.92816
1673.000	9.84048	-0.42143	8.65028	-0.89482
1674.000	9.80401	-0.37835	8.65801	-0.80829
1675.000	9.85200	-0.41357	8.75845	-0.85722
1676.000	9.83472	-0.40183	8.73721	-0.82384
1677.000	9.80977	-0.40186	8.63675	-0.97351
1678.000	9.84432	-0.45474	8.71596	-0.98707
1679.000	9.83856	-0.41163	8.70824	-0.87306
1680.000	9.83472	-0.41752	8.69665	-0.87505
1681.000	9.85967	-0.40376	8.71017	-0.84160
1682.000	9.83856	-0.43123	8.74493	-0.80024
1683.000	9.84816	-0.40770	8.63868	-0.84962
1684.000	9.82896	-0.41360	8.70437	-0.82195
1685.000	9.80401	-0.38031	8.70437	-0.90256
1686.000	9.83664	-0.35871	8.68505	-0.86328
1687.000	9.83088	-0.40772	8.71403	-0.90843
1688.000	9.83472	-0.40575	8.67733	-0.81414
1689.000	9.84048	-0.37635	8.68312	-0.83183
1690.000	9.80977	-0.40971	8.66573	-0.87709
1691.000	9.82513	-0.43517	8.69858	-0.91634
1692.000	9.83664	-0.42143	8.71210	-0.80227
1693.000	9.79441	-0.44893	8.63675	-0.90665
1694.000	9.78481	-0.42346	8.71017	-0.84750
1695.000	9.79633	-0.45481	8.70051	-0.82392
1696.000	9.78481	-0.40386	8.68312	-0.82593
1697.000	9.80017	-0.47637	8.73914	-0.88478
1698.000	9.78097	-0.42739	8.61743	-0.82607
1699.000	9.81937	-0.39793	8.63482	-0.82014
1700.000	9.82129	-0.38617	8.71210	-0.81014
1701.000	9.81745	-0.39794	8.63675	-0.84176
1702.000	9.82705	-0.37048	8.74107	-0.84546
1703.000	9.85008	-0.40770	8.67733	-0.90852
1704.000	9.82513	-0.41165	8.70244	-0.86324
1705.000	9.84048	-0.38223	8.69085	-0.91242
1706.000	9.84432	-0.35478	8.72562	-0.83173
1707.000	9.84048	-0.38027	8.64061	-0.92041
1708.000	9.82321	-0.36853	8.71017	-0.80031
1709.000	9.79633	-0.40580	8.72369	-0.78062
1710.000	9.79057	-0.38817	8.70824	-0.93794
1711.000	9.82705	-0.34696	8.72369	-0.88679
1712.000	9.83472	-0.42340	8.69471	-0.80034
1713.000	9.81361	-0.42930	8.66767	-0.79254
1714.000	9.82321	-0.41753	8.61549	-0.84574
1715.000	9.75793	-0.42741	8.74107	-0.84153
1716.000	9.78673	-0.44894	8.67539	-0.93016
1717.000	9.82129	-0.43321	8.71017	-0.91238
1718.000	9.77521	-0.41759	8.73914	-0.87889
1719.000	9.80017	-0.42736	8.67346	-0.83775
1720.000	9.83472	-0.40771	8.71596	-0.87304
1721.000	9.83664	-0.39595	8.70244	-0.87897
1722.000	9.80593	-0.43911	8.69278	-0.90652
1723.000	9.77521	-0.46072	8.65801	-0.88694
1724.000	9.85008	-0.37242	8.63289	-0.79458
1725.000	9.86543	-0.43120	8.72562	-0.84353
1726.000	9.81745	-0.39990	8.62322	-0.79853
1727.000	9.83088	-0.40772	8.77969	-0.90041
1728.000	9.86159	-0.42336	8.66960	-0.89674
1729.000	9.81937	-0.44694	8.70244	-0.82982
1730.000	9.77329	-0.43328	8.63482	-0.85160
1731.000	9.84624	-0.40966	8.72948	-0.82976
1732.000	9.84048	-0.39595	8.66767	-0.88495
1733.000	9.84048	-0.42339	8.67539	-0.89280
1734.000	9.83856	-0.41359	8.63289	-0.83194
1735.000	9.82321	-0.42341	8.57684	-0.86156
1736.000	9.81937	-0.37637	8.71210	-0.88878
1737.000	9.80593	-0.38815	8.64255	-0.90467
1738.000	9.78865	-0.42149	8.67346	-0.94196
1739.000	9.82321	-0.44497	8.76618	-0.91027
1740.000	9.78481	-0.41954	8.68699	-0.85738
1741.000	9.81553	-0.42734	8.64061	-0.87322
1742.000	9.81169	-0.39402	8.73914	-0.79042
1743.000	9.82321	-0.39989	8.72755	-0.85139
1744.000	9.77521	-0.37838	8.76425	-0.96728
1745.000	9.77713	-0.38426	8.71789	-0.90842
1746.000	9.79633	-0.36463	8.71596	-0.94775
1747.000	9.77137	-0.40975	8.68119	-0.87509
1748.000	9.80977	-0.40775	8.66767	-0.89872
1749.000	9.81361	-0.38422	8.75073	-0.92997
1750.000	9.76753	-0.37839	8.77004	-0.89257
1751.000	9.79057	-0.43325	8.72948	-0.93985
1752.000	9.80785	-0.41559	8.73914	-1.03811
1753.000	9.77137	-0.34898	8.62129	-1.00894
1754.000	9.80401	-0.37051	8.77583	-0.87880
1755.000	9.78673	-0.37641	8.61549	-0.89687
1756.000	9.80593	-0.37443	8.72948	-0.89267
1757.000	9.77521	-0.39014	8.70244	-1.03625
1758.000	9.82705	-0.41360	8.77004	-0.90830
1759.000	9.83280	-0.39792	8.74300	-0.94571
1760.000	9.79633	-0.38228	8.80866	-0.91803
1761.000	9.86543	-0.40964	8.65801	-0.86138
1762.000	9.80593	-0.40579	8.80286	-0.82960
1763.000	9.76945	-0.39603	8.80673	-0.88069
1764.000	9.76945	-0.42740	8.73721	-0.93590
1765.000	9.81169	-0.38422	8.72948	-0.89070
1766.000	9.82129	-0.39597	8.70630	-0.78459
1767.000	9.75409	-0.42938	8.75459	-0.96141
1768.000	9.80017	-0.34699	8.67539	-0.89476
1769.000	9.77905	-0.40582	8.77776	-0.87683
1770.000	9.78865	-0.40189	8.66380	-0.81417
1771.000	9.78865	-0.40385	8.67539	-0.92819
1772.000	9.79057	-0.34504	8.72369	-0.91234
1773.000	9.78481	-0.40190	8.71017	-0.91434
1774.000	9.80017	-0.39796	8.70630	-0.91632
1775.000	9.78097	-0.41758	8.72562	-0.94576
1776.000	9.76177	-0.37644	8.71789	-0.87894
1777.000	9.78673	-0.39601	8.77969	-0.95741
1778.000	9.81553	-0.40774	8.75845	-0.86508
1779.000	9.80593	-0.44500	8.79900	-1.03009
1780.000	9.77329	-0.44700	8.64834	-0.95775
1781.000	9.80209	-0.43912	8.69858	-0.84359
1782.000	9.81361	-0.42146	8.74493	-0.90246
1783.000	9.81169	-0.43127	8.73721	-0.86513
1784.000	9.82321	-0.41361	8.71596	-0.96741
1785.000	9.79057	-0.39405	8.82603	-0.94550
1786.000	9.75025	-0.39998	8.73335	-0.81402
1787.000	9.80785	-0.46656	8.82796	-1.00249
1788.000	9.83280	-0.42928	8.73721	-0.89068
1789.000	9.75985	-0.46074	8.65221	-0.96757
1790.000	9.76561	-0.49602	8.74300	-0.95161
1791.000	9.80017	-0.39992	8.73721	-0.93197
1792.000	9.78673	-0.40385	8.70244	-0.93599
1793.000	9.79825	-0.38424	8.66187	-0.91053
1794.000	9.77905	-0.43131	8.73721	-0.87496
1795.000	9.80785	-0.42735	8.73141	-0.97326
1796.000	9.77329	-0.43916	8.72948	-0.84352
1797.000	9.81169	-0.44891	8.69665	-0.93010
1798.000	9.80209	-0.44500	8.75266	-0.95355
1799.000	9.79249	-0.36464	8.70630	-0.94974
1800.000	9.80209	-0.37835	8.68312	-0.87705
1801.000	9.78289	-0.45679	8.76425	-0.87096
1802.000	9.76561	-0.42740	8.67153	-0.90460
1803.000	9.77713	-0.41171	8.74687	-0.91032
1804.000	9.74449	-0.45488	8.76425	-0.88079
1805.000	9.79633	-0.42344	8.77583	-0.87290
1806.000	9.76753	-0.42544	8.72369	-0.96149
1807.000	9.77137	-0.42348	8.74687	-0.93588
1808.000	9.76369	-0.41760	8.74107	-0.92803
1809.000	9.76177	-0.38820	8.76038	-0.87883
1810.000	9.77905	-0.43327	8.63482	-0.91846
1811.000	9.78097	-0.41366	8.71983	-0.92415
1812.000	9.76177	-0.41957	8.76038	-0.91029
1813.000	9.75601	-0.41761	8.68699	-0.93406
1814.000	9.74641	-0.44508	8.69665	-0.91437
1815.000	9.73681	-0.43725	8.71596	-0.88484
1816.000	9.77329	-0.42936	8.81059	-0.95340
1817.000	9.75217	-0.46075	8.75459	-0.87885
1818.000	9.77329	-0.45288	8.73335	-0.91035
1819.000	9.75793	-0.44506	8.71210	-0.95366
1820.000	9.72336	-0.44707	8.71983	-0.88090
1821.000	9.74065	-0.43136	8.64448	-0.89877
1822.000	9.77713	-0.46268	8.66960	-0.94000
1823.000	9.76177	-0.39212	8.75845	-0.93978
1824.000	9.75793	-0.42349	8.67153	-0.90854
1825.000	9.73297	-0.44313	8.69278	-0.85540
1826.000	9.69839	-0.46083	8.71403	-0.90254
1827.000	9.74257	-0.41567	8.65028	-0.86140
1828.000	9.75985	-0.49015	8.72755	-0.93003
1829.000	9.76945	-0.41368	8.61356	-0.85558
1830.000	9.78481	-0.41366	8.75459	-0.92406
1831.000	9.77329	-0.47249	8.81638	-0.92784
1832.000	9.69071	-0.45691	8.64834	-0.89090
1833.000	9.81937	-0.42930	8.82603	-0.94157
1834.000	9.77905	-0.43719	8.71210	-0.97725
1835.000	9.71376	-0.48433	8.66960	-0.89871
1836.000	9.77905	-0.42151	8.73914	-0.88085
1837.000	9.78481	-0.44110	8.82603	-0.97891
1838.000	9.78097	-0.45287	8.75073	-0.92407
1839.000	9.80209	-0.41756	8.79707	-0.93182
1840.000	9.77713	-0.49012	8.60776	-0.98538
1841.000	9.78289	-0.43130	8.71210	-0.92417
1842.000	9.79249	-0.46266	8.69858	-0.90847
1843.000	9.77521	-0.48817	8.61936	-0.97945
1844.000	9.74833	-0.47252	8.84534	-1.02013
1845.000	9.72721	-0.47255	8.71789	-0.97527
1846.000	9.76561	-0.42937	8.81831	-0.93373
1847.000	9.76369	-0.47054	8.72176	-0.88286
1848.000	9.72913	-0.41961	8.74107	-0.94572
1849.000	9.75409	-0.44506	8.79321	-0.97310
1850.000	9.74833	-0.47252	8.78935	-0.91022
1851.000	9.72336	-0.47060	8.78356	-0.88861
1852.000	9.74641	-0.42939	8.81445	-0.90819
1853.000	9.76561	-0.42740	8.80093	-0.99470
1854.000	9.76753	-0.43917	8.69278	-0.98516
1855.000	9.73681	-0.40980	8.74687	-0.86511
1856.000	9.74833	-0.45291	8.79707	-0.91806
1857.000	9.77713	-0.44503	8.73914	-0.92410
1858.000	9.73489	-0.44117	8.84727	-0.94152
1859.000	9.75985	-0.44114	8.73528	-1.00078
1860.000	9.81745	-0.44302	8.74107	-0.91033
1861.000	9.74065	-0.45096	8.77969	-0.91221
1862.000	9.76177	-0.41761	8.72948	-0.94771
1863.000	9.76561	-0.44897	8.77197	-0.94957
1864.000	9.75985	-0.43722	8.83375	-0.92976
1865.000	9.79633	-0.44697	8.78742	-0.92988
1866.000	9.70992	-0.45493	8.84727	-0.90221
1867.000	9.72529	-0.41569	8.62129	-0.89293
1868.000	9.66189	-0.32360	8.71403	-0.92613
1869.000	9.59079	-0.24716	8.57104	-0.87141
1870.000	9.48696	-0.15305	8.57877	-0.89106
1871.000	9.31571	-0.12172	8.38150	-0.75968
1872.000	9.07104	0.00000	8.21696	-0.71275
1873.000	8.85499	0.10811	8.00575	-0.50826
1874.000	8.60390	0.27538	7.77104	-0.35875
1875.000	8.34667	0.50192	7.55938	-0.23271
1876.000	8.10266	0.72673	7.20162	-0.08684
1877.000	7.80791	0.84155	6.96214	0.04739
1878.000	7.52635	1.02549	6.70487	0.21141
1879.000	7.33585	1.17781	6.60540	0.26086
1880.000	7.18021	1.30053	6.52345	0.37949
1881.000	7.16464	1.43867	6.44928	0.63454
1882.000	7.15491	1.51958	6.35947	0.80862
1883.000	7.17827	1.63982	6.40243	0.90343
1884.000	7.27555	1.69467	6.47076	0.99619
1885.000	7.37474	1.72189	6.54297	1.02963
1886.000	7.56521	1.74282	6.68342	1.21896
1887.000	7.70504	1.80724	6.87057	1.10595
1888.000	7.86612	1.70220	6.92123	1.09991
1889.000	8.04646	1.67586	7.01863	1.13323
1890.000	8.16466	1.64783	7.24053	1.02812
1891.000	8.23826	1.53538	7.25415	0.90577
1892.000	8.29247	1.49386	7.35335	0.80891
1893.000	8.35634	1.38149	7.41946	0.72200
1894.000	8.33312	1.36780	7.34752	0.65504
1895.000	8.28279	1.18892	7.46222	0.45960
1896.000	8.21696	1.14778	7.48166	0.41816
1897.000	8.14141	1.07122	7.37668	0.39262
1898.000	8.07166	1.03399	7.34557	0.26045
1899.000	8.00963	1.05385	7.33196	0.25059
1900.000	7.94177	1.05205	7.34363	0.23085
1901.000	7.89328	1.02460	7.27944	0.27430
1902.000	7.91074	1.11320	7.21719	0.36315
1903.000	7.84672	1.10352	7.22108	0.34539
1904.000	7.86224	1.10545	7.21329	0.42236
1905.000	7.87194	1.18619	7.16075	0.38688
1906.000	7.80403	1.19032	7.19578	0.46580
1907.000	7.81180	1.22576	7.11403	0.53695
1908.000	7.82732	1.21192	7.13155	0.54679
1909.000	7.78851	1.28690	7.07704	0.55476
1910.000	7.81568	1.27106	7.05757	0.65151
1911.000	7.81956	1.30454	7.08289	0.70675
1912.000	7.78657	1.34601	7.07704	0.64556
1913.000	7.76716	1.34804	6.97188	0.76023
1914.000	7.78657	1.39329	6.93292	0.72672
1915.000	7.73416	1.30874	6.90954	0.77217
1916.000	7.72251	1.35410	6.98162	0.65952
1917.000	7.72446	1.35015	6.96604	0.72470
1918.000	7.70116	1.40342	6.99720	0.74439
1919.000	7.77686	1.38741	6.92513	0.75043
1920.000	7.75551	1.44264	6.97578	0.73850
1921.000	7.75551	1.47416	7.06342	0.83706
1922.000	7.78851	1.42283	6.94656	0.78001
1923.000	7.73804	1.45846	6.94656	0.68523
1924.000	7.78269	1.45831	7.04005	0.80749
1925.000	7.80597	1.44247	6.99331	0.70294
1926.000	7.79045	1.44055	6.95435	0.76223
1927.000	7.75163	1.47812	7.06147	0.73836
1928.000	7.76910	1.45442	6.99331	0.74045
1929.000	7.73999	1.50377	7.00889	0.65948
1930.000	7.81568	1.47986	7.04589	0.72260
1931.000	7.79239	1.43070	7.06926	0.66531
1932.000	7.80986	1.45821	7.04200	0.62587
1933.000	7.82344	1.40301	7.09846	0.70870
1934.000	7.75746	1.39930	7.01863	0.70487
1935.000	7.83508	1.45616	6.95825	0.70891
1936.000	7.77104	1.43865	7.06926	0.64360
1937.000	7.76716	1.40517	7.03031	0.68314
1938.000	7.73999	1.40526	6.99136	0.69109
1939.000	7.80015	1.40506	7.03615	0.70484
1940.000	7.76716	1.39138	7.10041	0.71462
1941.000	7.79045	1.31251	7.02447	0.68709
1942.000	7.78851	1.41101	7.02057	0.72461
1943.000	7.75551	1.39339	7.11598	0.65932
1944.000	7.79821	1.38143	7.00694	0.64763
1945.000	7.76910	1.43078	7.04394	0.71668
1946.000	7.77686	1.40317	7.06731	0.69098
1947.000	7.81568	1.37940	7.04978	0.69298
1948.000	7.80403	1.41687	6.94266	0.66944
1949.000	7.80015	1.41097	6.99915	0.75031
1950.000	7.78851	1.38146	7.06926	0.71269
1951.000	7.80791	1.42670	7.12766	0.65733
1952.000	7.78851	1.41298	7.01084	0.65158
1953.000	7.79627	1.38341	6.94071	0.69906
1954.000	7.79239	1.33220	7.04394	0.69891
1955.000	7.83314	1.35374	7.03615	0.75222
1956.000	7.82538	1.29073	7.04589	0.70088
1957.000	7.79239	1.36569	7.04200	0.70878
1958.000	7.80015	1.35385	7.07510	0.73834
1959.000	7.78463	1.39526	7.08678	0.68898
1960.000	7.80597	1.34004	6.98941	0.71479
1961.000	7.80403	1.33610	6.99720	0.72662
1962.000	7.79821	1.35779	7.06536	0.71467
1963.000	7.79627	1.38341	7.01473	0.68316
1964.000	7.80209	1.35975	7.04394	0.68707
1965.000	7.78075	1.35194	7.05757	0.73640
1966.000	7.79433	1.37356	6.98941	0.73256
1967.000	7.79239	1.37160	7.04589	0.71865
1968.000	7.77686	1.36180	7.06147	0.65151
1969.000	7.80791	1.41292	7.00499	0.75030
1970.000	7.79821	1.40901	6.99331	0.70491
1971.000	7.81374	1.40305	7.07120	0.66334
1972.000	7.78075	1.37755	7.06147	0.66138
1973.000	7.77298	1.34211	6.98357	0.77403
1974.000	7.78269	1.37951	6.99915	0.69305
1975.000	7.81180	1.43457	7.07315	0.62188
1976.000	7.77492	1.35590	7.03226	0.77789
1977.000	7.77104	1.39137	7.01278	0.67724
1978.000	7.82538	1.39316	7.04589	0.57453
1979.000	7.83314	1.38328	7.04200	0.66535
1980.000	7.83702	1.39903	7.07120	0.69492
1981.000	7.78463	1.39132	7.10041	0.65540
1982.000	7.80597	1.35383	7.03031	0.62391
1983.000	7.79045	1.34600	7.08873	0.63370
1984.000	7.82344	1.34195	7.12182	0.60997
1985.000	7.81956	1.36166	7.05563	0.71863
1986.000	7.79239	1.34993	7.09067	0.65936
1987.000	7.78851	1.36767	7.00499	0.62394
1988.000	7.80986	1.34593	7.12571	0.73037
1989.000	7.80015	1.37157	6.95630	0.68325
1990.000	7.78851	1.39328	7.08678	0.65542
1991.000	7.81374	1.41881	7.04784	0.69890
1992.000	7.79433	1.40114	7.02836	0.72460
1993.000	7.78657	1.38541	7.05757	0.61203
1994.000	7.77881	1.41498	7.06147	0.65348
1995.000	7.81568	1.41092	7.00499	0.71871
1996.000	7.80597	1.35777	7.07510	0.63767
1997.000	7.79821	1.38537	7.10235	0.62776
1998.000	7.78463	1.37163	7.07120	0.65347
1999.000	7.81956	1.40303	7.06147	0.73244
2000.000	7.78269	1.33223	7.03421	0.63575
2001.000	7.80597	1.37353	7.11209	0.65143
2002.000	7.74969	1.39932	7.08094	0.58239
2003.000	7.78269	1.38148	7.14323	0.57441
2004.000	7.76716	1.43669	6.98357	0.61015
2005.000	7.78463	1.37360	7.02836	0.57258
2006.000	7.72251	1.42108	7.13934	0.70863
2007.000	7.82732	1.40103	6.99331	0.70886
2008.000	7.79627	1.35189	7.02252	0.63379
2009.000	7.79239	1.41494	7.09457	0.67909
2010.000	7.78851	1.37949	6.98162	0.64964
2011.000	7.79433	1.42872	7.06147	0.63571
2012.000	7.80209	1.44642	7.05368	0.71074
2013.000	7.82926	1.34390	7.16075	0.63952
2014.000	7.80209	1.36369	7.03810	0.64167
2015.000	7.81374	1.37350	7.14129	0.64152
2016.000	7.81762	1.38137	7.01863	0.64367
2017.000	7.82150	1.39317	7.11403	0.60801
2018.000	7.79239	1.41100	7.07120	0.65149
2019.000	7.80986	1.37745	7.09067	0.70476
2020.000	7.79433	1.43463	7.09651	0.64751
2021.000	7.78463	1.40117	7.13739	0.67114
2022.000	7.79045	1.35782	7.15102	0.63164
2023.000	7.85254	1.36549	7.07899	0.58239
2024.000	7.81180	1.42669	7.09457	0.61988
2025.000	7.78463	1.39920	7.04200	0.62982
2026.000	7.78075	1.37755	7.07704	0.56660
2027.000	7.83314	1.37738	7.00889	0.66145
2028.000	7.79627	1.31643	7.07704	0.67912
2029.000	7.79045	1.42085	7.13350	0.54679
2030.000	7.81956	1.37939	7.12961	0.66720
2031.000	7.78851	1.38540	7.05952	0.65743
2032.000	7.81956	1.37939	7.15686	0.63361
2033.000	7.80986	1.40700	7.02836	0.70288
2034.000	7.85836	1.35760	7.09846	0.63961
2035.000	7.77881	1.38346	7.09067	0.63567
2036.000	7.80791	1.39322	6.94656	0.68721
2037.000	7.78657	1.34995	7.11209	0.63959
2038.000	7.82344	1.40498	7.15102	0.61388
2039.000	7.79627	1.40114	7.04005	0.60613
2040.000	7.80015	1.38339	7.02447	0.65156
2041.000	7.80209	1.37354	7.07510	0.60806
2042.000	7.78269	1.35784	7.07510	0.65741
2043.000	7.75940	1.40323	7.03810	0.69497
2044.000	7.77686	1.38347	7.10235	0.68500
2045.000	7.79045	1.39328	7.04784	0.69101
2046.000	7.78269	1.36572	7.01863	0.53311
2047.000	7.80791	1.37352	7.12571	0.63957
2048.000	7.73028	1.36195	7.01473	0.63183
2049.000	7.82150	1.42863	7.02836	0.62589
2050.000	7.82538	1.36164	7.11014	0.54682
2051.000	7.81762	1.40303	7.05368	0.58242
2052.000	7.80403	1.39126	7.10041	0.65935
2053.000	7.80597	1.42080	7.09262	0.65344
2054.000	7.79045	1.41888	6.97578	0.62793
2055.000	7.76522	1.43670	7.09067	0.58040
2056.000	7.78657	1.42284	7.09457	0.62382
2057.000	7.83702	1.39706	7.00694	0.62394
2058.000	7.80209	1.39521	7.09846	0.63171
2059.000	7.81568	1.37940	7.06342	0.63768
2060.000	7.84866	1.39308	7.08678	0.62383
2061.000	7.80597	1.39322	7.03421	0.57455
2062.000	7.83120	1.42859	7.16075	0.59413
2063.000	7.82344	1.37741	7.06536	0.61399
2064.000	7.78075	1.42877	7.08289	0.61200
2065.000	7.80403	1.38535	7.05563	0.66336
2066.000	7.83896	1.38720	6.95435	0.61216
2067.000	7.81956	1.41485	7.11793	0.66524
2068.000	7.78463	1.38935	7.23275	0.60193
2069.000	7.80403	1.40308	6.98162	0.68913
2070.000	7.80597	1.37353	7.18216	0.72633
2071.000	7.84478	1.41279	7.17827	0.66910
2072.000	7.79239	1.34599	7.08483	0.71859
2073.000	7.76716	1.37562	7.01863	0.56865
2074.000	7.82926	1.40102	7.03226	0.61799
2075.000	7.82150	1.35378	7.09262	0.63370
2076.000	7.77104	1.33621	7.08094	0.65543
2077.000	7.83314	1.41086	7.21913	0.62957
2078.000	7.79045	1.37161	7.11598	0.61787
2079.000	7.79433	1.36568	7.14129	0.57639
2080.000	7.78463	1.35193	7.16270	0.63557
2081.000	7.81568	1.34789	7.09262	0.64554
2082.000	7.81762	1.40894	7.10625	0.66131
2083.000	7.78075	1.30072	7.12377	0.60602
2084.000	7.75940	1.33428	7.18994	0.65527
2085.000	7.79045	1.35191	7.12377	0.54286
2086.000	7.76910	1.37168	7.12961	0.60799
2087.000	7.79627	1.33613	7.11209	0.66328
2088.000	7.76716	1.28106	7.07704	0.66333
2089.000	7.81180	1.35775	7.06536	0.59425
2090.000	7.77104	1.29287	7.06926	0.58635
2091.000	7.76910	1.35789	7.21135	0.59406
2092.000	7.77104	1.35394	7.09651	0.66133
2093.000	7.80597	1.34004	7.12377	0.59615
2094.000	7.78657	1.39526	7.11403	0.62972
2095.000	7.81180	1.34002	7.10041	0.61592
2096.000	7.81956	1.40106	7.12377	0.65931
2097.000	7.79821	1.34400	7.13545	0.64745
2098.000	7.81374	1.34986	7.15296	0.63164
2099.000	7.79045	1.37161	7.05757	0.58439
2100.000	7.80597	1.37156	7.11598	0.60800
2101.000	7.78269	1.36769	7.11209	0.63564
2102.000	7.80597	1.41883	7.11403	0.67314
2103.000	7.80209	1.35384	7.09846	0.69685
2104.000	7.81374	1.37350	7.11598	0.60603
2105.000	7.84090	1.34780	7.11403	0.63169
2106.000	7.77104	1.35591	7.12571	0.66523
2107.000	7.72834	1.38560	7.05368	0.60809
2108.000	7.62737	1.34652	6.97383	0.64176
2109.000	7.46805	1.39235	6.91149	0.66159
2110.000	7.28917	1.40278	6.72242	0.63814
2111.000	6.93682	1.28148	6.51565	0.55936
2112.000	6.59565	1.09077	6.11136	0.47474
2113.000	6.20907	1.01251	6.00188	0.26314
2114.000	5.77887	0.87084	5.68688	0.07721
2115.000	5.37742	0.77044	5.36762	-0.15251
2116.000	4.86161	0.52727	5.05783	-0.25960
2117.000	4.37843	0.32333	4.72811	-0.59874
2118.000	3.89265	0.21833	4.34894	-0.83905
2119.000	3.53041	-0.04368	3.97333	-0.96247
2120.000	3.08904	-0.35559	3.69188	-1.23864
2121.000	2.69662	-0.61006	3.36297	-1.57848
2122.000	2.35329	-0.88846	3.17379	-1.81296
2123.000	2.03348	-1.18081	2.74198	-2.19871
2124.000	1.70762	-1.34799	2.53089	-2.32806
2125.000	1.35004	-1.70596	2.18353	-2.56677
2126.000	1.16034	-1.84717	1.84588	-2.80142
2127.000	0.83424	-2.17119	1.67207	-3.07340
2128.000	0.58715	-2.32425	1.36387	-3.32960
2129.000	0.30841	-2.56661	1.07932	-3.52815
2130.000	0.00989	-2.71157	0.81447	-3.57201
2131.000	-0.30446	-2.96158	0.51203	-3.76243
2132.000	-0.62075	-3.16378	0.15421	-4.00416
2133.000	-0.87772	-3.33213	-0.16409	-4.19614
2134.000	-1.21963	-3.61119	-0.50808	-4.48873
2135.000	-1.56342	-3.80276	-0.72354	-4.55774
2136.000	-1.82416	-4.02985	-1.07339	-4.66403
2137.000	-2.18945	-4.11203	-1.43303	-4.73253
2138.000	-2.54865	-4.29678	-1.72343	-4.86220
2139.000	-2.88004	-4.51486	-2.09469	-4.96180
2140.000	-3.00229	-4.51437	-2.38684	-5.00619
2141.000	-3.28218	-4.73219	-2.66900	-5.03469
2142.000	-3.59343	-4.88050	-3.00032	-5.26186
2143.000	-3.82770	-5.02894	-3.10481	-5.35982
2144.000	-4.01267	-5.11251	-3.38267	-5.40167
2145.000	-4.09529	-5.06277	-3.68794	-5.48057
2146.000	-4.29587	-5.18940	-3.89855	-5.41236
2147.000	-4.44328	-5.13723	-4.18576	-5.41046
2148.000	-4.49830	-5.10143	-4.32929	-5.34063
2149.000	-4.47472	-5.07798	-4.52777	-5.30775
2150.000	-4.42166	-5.00749	-4.62992	-5.24014
2151.000	-4.43346	-5.03300	-4.64956	-5.17314
2152.000	-4.33322	-4.94311	-4.63974	-5.15157
2153.000	-4.30176	-4.98860	-4.63974	-5.15747
2154.000	-4.20936	-4.91436	-4.57492	-5.11860
2155.000	-4.07759	-4.83046	-4.44525	-5.07818
2156.000	-4.01464	-4.79733	-4.34894	-5.04538
2157.000	-3.99103	-4.80733	-4.24082	-5.03034
2158.000	-3.93201	-4.75051	-4.15626	-5.12341
2159.000	-3.91823	-4.77621	-4.09136	-5.10807
2160.000	-3.94184	-4.85294	-4.04415	-5.10640
2161.000	-3.91036	-4.84721	-3.96545	-5.10689
2162.000	-3.96152	-4.87450	-3.96939	-5.20333
2163.000	-3.96545	-4.91782	-3.96742	-5.21515
2164.000	-4.08546	-4.98209	-3.92807	-5.33151
2165.000	-4.11103	-5.02132	-4.01267	-5.30736
2166.000	-4.20936	-4.97935	-4.05792	-5.36608
2167.000	-4.29390	-5.05558	-4.09529	-5.33829
2168.000	-4.28407	-5.04580	-4.22312	-5.42593
2169.000	-4.34698	-5.05523	-4.21329	-5.49481
2170.000	-4.39612	-5.07458	-4.28604	-5.45301
2171.000	-4.44328	-5.09394	-4.34108	-5.47818
2172.000	-4.47669	-5.14487	-4.43346	-5.51484
2173.000	-4.48651	-5.07200	-4.46097	-5.47926
2174.000	-4.49437	-5.13687	-4.53170	-5.54161
2175.000	-4.52384	-5.15831	-4.59457	-5.55095
2176.000	-4.48258	-5.15663	-4.58867	-5.49009
2177.000	-4.45311	-5.18831	-4.65742	-5.52100
2178.000	-4.52188	-5.21143	-4.62796	-5.50747
2179.000	-4.51205	-5.21543	-4.63385	-5.56243
2180.000	-4.46097	-5.16268	-4.60242	-5.49588
2181.000	-4.44132	-5.20216	-4.66724	-5.47770
2182.000	-4.45900	-5.17253	-4.71437	-5.49108
2183.000	-4.43542	-5.13532	-4.67509	-5.44227
2184.000	-4.35287	-5.07881	-4.68491	-5.43826
2185.000	-4.38432	-5.14551	-4.63385	-5.38363
2186.000	-4.32732	-5.12228	-4.63778	-5.42487
2187.000	-4.30963	-5.08697	-4.60439	-5.39171
2188.000	-4.33715	-5.08679	-4.68099	-5.36951
2189.000	-4.30373	-5.09095	-4.58671	-5.39971
2190.000	-4.27031	-5.05377	-4.52384	-5.33530
2191.000	-4.27424	-5.07933	-4.59849	-5.34458
2192.000	-4.23885	-5.05004	-4.51009	-5.33540
2193.000	-4.20542	-5.05025	-4.52384	-5.34120
2194.000	-4.16216	-5.02887	-4.51205	-5.37864
2195.000	-4.17396	-4.98154	-4.50616	-5.29021
2196.000	-4.12086	-4.99172	-4.57885	-5.33686
2197.000	-4.16610	-5.06429	-4.48062	-5.31989
2198.000	-4.13070	-4.98181	-4.50223	-5.33743
2199.000	-4.22116	-4.95958	-4.51795	-5.32355
2200.000	-4.16020	-4.96390	-4.49241	-5.32767
2201.000	-4.16610	-4.87524	-4.45311	-5.28666
2202.000	-4.20739	-4.92028	-4.46293	-5.32985
2203.000	-4.20936	-4.96162	-4.49437	-5.33749
2204.000	-4.16020	-4.89694	-4.48455	-5.34935
2205.000	-4.13463	-4.91876	-4.50027	-5.35907
2206.000	-4.11299	-4.89526	-4.52777	-5.32938
2207.000	-4.12283	-4.91884	-4.53367	-5.32933
2208.000	-4.16806	-4.92447	-4.44525	-5.30048
2209.000	-4.15626	-4.92257	-4.51991	-5.29994
2210.000	-4.20149	-4.89865	-4.47079	-5.24326
2211.000	-4.20739	-4.88483	-4.48455	-5.31200
2212.000	-4.17396	-4.89882	-4.50223	-5.34333
2213.000	-4.16216	-4.90284	-4.52777	-5.31758
2214.000	-4.17396	-4.89488	-4.53367	-5.29984
2215.000	-4.15626	-4.90878	-4.65153	-5.30290
2216.000	-4.24672	-4.95351	-4.55135	-5.34297
2217.000	-4.19756	-4.95382	-4.48258	-5.29235
2218.000	-4.20739	-4.88680	-4.56314	-5.33895
2219.000	-4.22902	-4.97135	-4.54742	-5.36462
2220.000	-4.20936	-4.92224	-4.55528	-5.30951
2221.000	-4.23099	-4.92210	-4.54349	-5.32533
2222.000	-4.18773	-4.90071	-4.49830	-5.30993
2223.000	-4.16020	-4.87330	-4.56117	-5.32913
2224.000	-4.20542	-4.96559	-4.58671	-5.28372
2225.000	-4.21526	-4.95568	-4.53367	-5.32540
2226.000	-4.21722	-4.89068	-4.55331	-5.31149
2227.000	-4.21526	-5.01475	-4.56903	-5.27205
2228.000	-4.22902	-4.93393	-4.55135	-5.35083
2229.000	-4.24475	-4.98503	-4.59064	-5.36233
2230.000	-4.21919	-4.95565	-4.51598	-5.25867
2231.000	-4.20936	-4.92224	-4.57885	-5.37028
2232.000	-4.24475	-4.96140	-4.45507	-5.36530
2233.000	-4.25851	-4.96328	-4.56706	-5.39396
2234.000	-4.25065	-4.93970	-4.56510	-5.34286
2235.000	-4.26834	-4.96322	-4.52188	-5.31172
2236.000	-4.31553	-4.96882	-4.62010	-5.28937
2237.000	-4.24278	-4.92203	-4.56314	-5.30749
2238.000	-4.23885	-4.92796	-4.56706	-5.32319
2239.000	-4.25655	-4.93769	-4.68295	-5.32822
2240.000	-4.25458	-4.90423	-4.56903	-5.26222
2241.000	-4.26638	-4.91400	-4.47865	-5.30417
2242.000	-4.30373	-4.90194	-4.55331	-5.29970
2243.000	-4.30963	-4.92751	-4.59849	-5.32689
2244.000	-4.29980	-4.90000	-4.57099	-5.27794
2245.000	-4.28407	-4.94539	-4.56903	-5.26026
2246.000	-4.28997	-4.90597	-4.52777	-5.32151
2247.000	-4.25851	-4.91208	-4.57689	-5.31329
2248.000	-4.27817	-4.90408	-4.57885	-5.24249
2249.000	-4.28997	-4.96702	-4.60439	-5.28163
2250.000	-4.29390	-4.97683	-4.61028	-5.29928
2251.000	-4.27424	-4.89425	-4.52581	-5.38640
2252.000	-4.22116	-4.92807	-4.53367	-5.30574
2253.000	-4.26638	-4.91991	-4.58278	-5.31521
2254.000	-4.26834	-4.91202	-4.52777	-5.28809
2255.000	-4.26245	-4.93372	-4.54153	-5.29192
2256.000	-4.26834	-4.93762	-4.59064	-5.30532
2257.000	-4.26048	-4.95933	-4.53956	-5.30373
2258.000	-4.28211	-4.93753	-4.53170	-5.33328
2259.000	-4.28604	-4.97098	-4.51402	-5.36880
2260.000	-4.29980	-4.97877	-4.51598	-5.35895
2261.000	-4.28800	-4.94734	-4.60046	-5.27379
2262.000	-4.23099	-4.92604	-4.61028	-5.29141
2263.000	-4.27424	-4.97106	-4.51009	-5.32557
2264.000	-4.27228	-4.93562	-4.58474	-5.34665
2265.000	-4.22116	-4.95367	-4.51009	-5.33737
2266.000	-4.30963	-4.95704	-4.55724	-5.31933
2267.000	-4.33911	-4.92338	-4.52581	-5.37854
2268.000	-4.23295	-4.93194	-4.58278	-5.32307
2269.000	-4.28014	-4.99071	-4.60242	-5.30720
2270.000	-4.29194	-4.91777	-4.48062	-5.32579
2271.000	-4.27031	-4.92579	-4.56314	-5.34878
2272.000	-4.26638	-4.92778	-4.46490	-5.29641
2273.000	-4.30373	-4.91179	-4.57885	-5.33686
2274.000	-4.25851	-4.91405	-4.63581	-5.38165
2275.000	-4.29390	-4.90595	-4.55921	-5.37633
2276.000	-4.29587	-4.92563	-4.56314	-5.31732
2277.000	-4.20936	-4.90648	-4.55331	-5.32722
2278.000	-4.32535	-4.96285	-4.54153	-5.30568
2279.000	-4.28604	-4.94538	-4.55331	-5.33116
2280.000	-4.26441	-4.94946	-4.52777	-5.32938
2281.000	-4.23689	-4.92206	-4.57885	-5.37225
2282.000	-4.29390	-5.01227	-4.59849	-5.35638
2283.000	-4.26638	-4.97504	-4.56117	-5.37042
2284.000	-4.25261	-4.94953	-4.62403	-5.29524
2285.000	-4.28800	-5.00641	-4.53760	-5.34307
2286.000	-4.27031	-5.01833	-4.52777	-5.35690
2287.000	-4.24672	-4.97911	-4.52974	-5.39424
2288.000	-4.31356	-5.00427	-4.62010	-5.41518
2289.000	-4.22705	-5.00877	-4.63385	-5.41311
2290.000	-4.21722	-5.00293	-4.53760	-5.41187
2291.000	-4.23885	-4.97916	-4.52581	-5.33136
2292.000	-4.24868	-4.96925	-4.61617	-5.38573
2293.000	-4.22509	-4.97925	-4.62796	-5.37188
2294.000	-4.19953	-4.94199	-4.57296	-5.37819
2295.000	-4.20542	-4.96165	-4.60242	-5.32293
2296.000	-4.18183	-4.97164	-4.59457	-5.37410
2297.000	-4.20936	-4.95375	-4.56706	-5.38806
2298.000	-4.20542	-4.93211	-4.56706	-5.34875
2299.000	-4.17593	-4.93426	-4.55135	-5.37245
2300.000	-4.15430	-4.93243	-4.59064	-5.38592
2301.000	-4.15626	-4.94620	-4.55528	-5.28199
2302.000	-4.13856	-4.89116	-4.56903	-5.39198
2303.000	-4.18969	-4.93615	-4.56314	-5.36450
2304.000	-4.14250	-4.84780	-4.58474	-5.28767
2305.000	-4.07169	-4.89157	-4.58671	-5.40364
2306.000	-4.17789	-4.89880	-4.51205	-5.39830
2307.000	-4.14643	-4.92263	-4.56314	-5.41954
2308.000	-4.11496	-4.86373	-4.57689	-5.36440
2309.000	-4.16413	-4.91858	-4.61028	-5.38774
2310.000	-4.11889	-4.90113	-4.52974	-5.39620
2311.000	-4.11693	-4.86766	-4.58671	-5.41543
2312.000	-4.17003	-4.88703	-4.57885	-5.33686
2313.000	-4.11889	-4.92477	-4.63974	-5.32265
2314.000	-4.14840	-4.93247	-4.54153	-5.33714
2315.000	-4.11693	-4.89524	-4.55921	-5.37633
2316.000	-4.09529	-4.91113	-4.62796	-5.36992
2317.000	-4.14446	-4.89704	-4.66135	-5.32249
2318.000	-4.10906	-4.90907	-4.59457	-5.36623
2319.000	-4.10513	-4.90910	-4.59064	-5.37216
2320.000	-4.16413	-4.89101	-4.62207	-5.31295
2321.000	-4.16610	-4.90872	-4.60832	-5.34844
2322.000	-4.10709	-4.90908	-4.56706	-5.32516
2323.000	-4.20936	-4.92027	-4.59260	-5.38394
2324.000	-4.15823	-4.94422	-4.61421	-5.37788
2325.000	-4.18969	-4.92236	-4.57689	-5.32902
2326.000	-4.16610	-4.96190	-4.62796	-5.34043
2327.000	-4.09726	-4.92490	-4.59457	-5.24630
2328.000	-4.08152	-4.97424	-4.57492	-5.27201
2329.000	-4.07759	-4.93290	-4.36860	-5.29906
2330.000	-3.94381	-4.93765	-4.24278	-5.22910
2331.000	-3.68006	-4.88594	-4.05595	-5.26772
2332.000	-3.44177	-4.91283	-3.82180	-5.25542
2333.000	-2.98849	-4.86964	-3.53631	-5.22362
2334.000	-2.66900	-4.86111	-3.06932	-5.09207
2335.000	-2.17761	-4.73060	-2.72226	-4.96545
2336.000	-1.66812	-4.65102	-2.19340	-4.97332
2337.000	-1.20579	-4.57291	-1.61478	-4.90392
2338.000	-0.63459	-4.35614	-1.09908	-4.83190
2339.000	-0.15421	-4.20010	-0.53180	-4.65674
2340.000	0.32225	-4.06350	0.02372	-4.50275
2341.000	0.88365	-3.85323	0.57331	-4.45112
2342.000	1.24927	-3.78545	1.04967	-4.33788
2343.000	1.81033	-3.65180	1.54169	-4.22630
2344.000	2.20327	-3.54399	1.94265	-4.13838
2345.000	2.73212	-3.53269	2.41447	-4.09358
2346.000	3.14817	-3.44825	2.85638	-4.02887
2347.000	3.58161	-3.37550	3.27036	-3.91663
2348.000	3.96742	-3.35422	3.76865	-3.99357
2349.000	4.41577	-3.32463	4.15823	-3.96010
2350.000	4.86161	-3.40353	4.50813	-3.93261
2351.000	5.29706	-3.34399	4.83413	-3.94065
2352.000	5.70646	-3.41863	5.21865	-4.03889
2353.000	6.02730	-3.41075	5.56940	-4.02868
2354.000	6.46100	-3.49066	5.91778	-4.05182
2355.000	6.81015	-3.51968	6.08986	-4.07810
2356.000	7.28333	-3.53969	6.58004	-4.16862
2357.000	7.60600	-3.51352	6.84134	-4.15853
2358.000	7.96698	-3.59097	7.21719	-4.18855
2359.000	8.29053	-3.70376	7.54190	-4.23846
2360.000	8.59037	-3.57159	7.78851	-4.24777
2361.000	8.95726	-3.61701	8.09297	-4.26422
2362.000	9.27912	-3.69979	8.42020	-4.27832
2363.000	9.59656	-3.66319	8.57297	-4.20423
2364.000	9.86159	-3.62320	8.85885	-4.14237
2365.000	10.14344	-3.62202	9.11152	-4.12386
2366.000	10.25451	-3.62661	9.22520	-4.14598
2367.000	10.33681	-3.63931	9.34458	-4.10357
2368.000	10.31959	-3.54593	9.35805	-4.03310
2369.000	10.27366	-3.55424	9.34073	-3.99032
2370.000	10.19133	-3.52785	9.21364	-3.91554
2371.000	10.02463	-3.47893	9.01512	-3.88055
2372.000	9.84432	-3.43788	9.05368	-3.96031
2373.000	9.69455	-3.37494	8.98233	-3.92980
2374.000	9.52158	-3.37666	8.72369	-3.88167
2375.000	9.40039	-3.34460	8.73528	-3.89720
2376.000	9.23483	-3.27572	8.68505	-3.82921
2377.000	9.14428	-3.28243	8.66380	-3.96059
2378.000	9.12886	-3.23167	8.63289	-3.91393
2379.000	9.04019	-3.23051	8.77390	-3.89680
2380.000	9.08260	-3.25363	8.70051	-3.84080
2381.000	9.12693	-3.28651	8.80866	-3.88078
2382.000	9.16933	-3.31157	8.90130	-3.87981
2383.000	9.30415	-3.30834	9.01126	-3.98033
2384.000	9.38500	-3.34279	9.09417	-3.91685
2385.000	9.51581	-3.37867	9.18474	-3.86699
2386.000	9.68111	-3.39266	9.09224	-3.93838
2387.000	9.80401	-3.40314	9.09610	-3.86013
2388.000	9.95560	-3.43867	9.29068	-3.85019
2389.000	10.00162	-3.43233	9.34458	-3.82029
2390.000	10.14919	-3.40930	9.35613	-3.87683
2391.000	10.16260	-3.39159	9.44465	-3.84068
2392.000	10.25643	-3.41205	9.34458	-3.81247
2393.000	10.27748	-3.39037	9.42348	-3.89561
2394.000	10.26791	-3.41388	9.35421	-3.77132
2395.000	10.28323	-3.44297	9.39462	-3.86468
2396.000	10.26600	-3.34953	9.36575	-3.82201
2397.000	10.25643	-3.41010	9.30608	-3.79334
2398.000	10.28131	-3.46250	9.30800	-3.86173
2399.000	10.23920	-3.36347	9.27335	-3.82888
2400.000	10.23537	-3.37326	9.23483	-3.81953
2401.000	10.18367	-3.37771	9.18282	-3.86701
2402.000	10.12620	-3.33733	9.15006	-3.83021
2403.000	10.11854	-3.33741	9.19052	-3.83369
2404.000	10.12045	-3.37447	9.17511	-3.88273
2405.000	10.05913	-3.37512	9.16740	-3.81634
2406.000	10.01887	-3.35992	9.06332	-3.83114
2407.000	9.99778	-3.35623	9.08839	-3.79958
2408.000	9.97669	-3.37402	9.06525	-3.83112
2409.000	9.96519	-3.39366	9.03055	-3.80997
2410.000	9.99395	-3.38556	8.99198	-3.76734
2411.000	10.01504	-3.34434	8.97847	-3.78900
2412.000	9.98244	-3.38763	8.98619	-3.75957
2413.000	9.94984	-3.37625	9.01512	-3.78666
2414.000	9.94217	-3.39976	8.98233	-3.74787
2415.000	9.91723	-3.38049	8.96304	-3.77351
2416.000	9.94217	-3.39586	8.94954	-3.75212
2417.000	9.94025	-3.37049	8.96497	-3.83414
2418.000	9.96519	-3.34680	8.94375	-3.78349
2419.000	9.90572	-3.37084	8.85692	-3.79221
2420.000	9.92491	-3.39408	8.92446	-3.77586
2421.000	9.84240	-3.38907	8.94954	-3.83234
2422.000	9.89229	-3.31629	9.03440	-3.81776
2423.000	9.85391	-3.38895	8.91674	-3.83269
2424.000	9.90956	-3.38057	8.99969	-3.82595
2425.000	9.88654	-3.36323	8.97076	-3.74408
2426.000	9.89229	-3.33387	8.91288	-3.79946
2427.000	9.86351	-3.38300	8.90130	-3.82306
2428.000	9.88078	-3.43360	8.92639	-3.79541
2429.000	9.89037	-3.39248	8.95147	-3.78341
2430.000	9.88462	-3.41403	8.93989	-3.84810
2431.000	9.89421	-3.39440	8.99583	-3.82990
2432.000	9.87310	-3.38290	8.98426	-3.73220
2433.000	9.95751	-3.40936	9.00933	-3.81020
2434.000	9.92299	-3.41949	8.93025	-3.82276
2435.000	9.91148	-3.41570	9.03633	-3.75514
2436.000	9.91723	-3.41759	9.03633	-3.85881
2437.000	9.90189	-3.41580	9.01319	-3.84145
2438.000	9.94025	-3.37440	9.06525	-3.84481
2439.000	9.93066	-3.37449	8.99390	-3.84753
2440.000	9.92682	-3.40383	8.99583	-3.77121
2441.000	9.90956	-3.34346	9.00162	-3.85722
2442.000	9.90764	-3.37082	9.07104	-3.83888
2443.000	9.95368	-3.38011	9.04597	-3.81177
2444.000	9.93642	-3.36858	9.02476	-3.81199
2445.000	9.92874	-3.36670	8.97655	-3.84967
2446.000	9.92107	-3.38240	8.94954	-3.79517
2447.000	9.94025	-3.38221	8.95340	-3.81274
2448.000	9.96902	-3.35652	9.02090	-3.83159
2449.000	9.93258	-3.38619	9.05176	-3.80192
2450.000	9.91723	-3.39416	9.04790	-3.79414
2451.000	9.92682	-3.38820	9.07682	-3.79384
2452.000	9.93450	-3.38422	9.13464	-3.82647
2453.000	9.93642	-3.41544	8.98426	-3.82611
2454.000	9.93833	-3.41737	9.07104	-3.83497
2455.000	9.93642	-3.40763	9.15970	-3.81838
2456.000	9.93066	-3.38231	9.03633	-3.83534
2457.000	9.96135	-3.37223	8.99969	-3.84160
2458.000	9.91723	-3.39416	9.02090	-3.79834
2459.000	9.92491	-3.39018	8.95533	-3.79120
2460.000	9.91915	-3.45077	9.07682	-3.87402
2461.000	9.92874	-3.39795	8.97847	-3.82813
2462.000	9.94217	-3.37438	9.10573	-3.80722
2463.000	9.92874	-3.41357	9.04790	-3.90171
2464.000	9.95176	-3.37623	8.99776	-3.87487
2465.000	9.97286	-3.43068	9.00162	-3.84549
2466.000	9.94409	-3.40560	9.05368	-3.83515
2467.000	9.94025	-3.42907	9.09417	-3.85428
2468.000	9.96327	-3.38978	9.11730	-3.79928
2469.000	9.97286	-3.40725	9.05754	-3.81164
2470.000	9.96135	-3.37027	9.03247	-3.91557
2471.000	9.98436	-3.41299	9.02476	-3.90001
2472.000	9.98244	-3.39739	9.12115	-3.77381
2473.000	9.99778	-3.38747	9.03633	-3.77666
2474.000	9.95751	-3.35664	9.07296	-3.82126
2475.000	9.95560	-3.41719	9.09224	-3.81323
2476.000	9.96710	-3.40536	9.01512	-3.84339
2477.000	9.95943	-3.39177	9.01705	-3.82968
2478.000	9.91340	-3.38248	9.07682	-3.84078
2479.000	9.96519	-3.39952	9.07489	-3.82515
2480.000	9.96327	-3.42102	9.06718	-3.91128
2481.000	9.97861	-3.37986	9.09224	-3.85821
2482.000	9.94409	-3.41341	9.02476	-3.81786
2483.000	9.99778	-3.40894	9.04404	-3.91544
2484.000	10.01696	-3.39117	9.08646	-3.86023
2485.000	9.97861	-3.44429	9.04983	-3.83128
2486.000	9.94984	-3.35867	9.06525	-3.77244
2487.000	9.96710	-3.40731	8.98426	-3.81437
2488.000	9.97094	-3.41313	9.01512	-3.86295
2489.000	9.98244	-3.41887	9.04404	-3.83917
2490.000	9.96902	-3.39558	9.08453	-3.78202
2491.000	9.98244	-3.39544	9.09224	-3.82497
2492.000	9.97094	-3.41703	9.07682	-3.87598
2493.000	9.93833	-3.35489	9.03826	-3.79424
2494.000	9.96135	-3.39956	9.05947	-3.80771
2495.000	9.96135	-3.41518	9.08839	-3.83870
2496.000	9.98244	-3.36420	9.04597	-3.83915
2497.000	9.93258	-3.40377	9.04597	-3.77264
2498.000	9.93642	-3.41544	9.06140	-3.88592
2499.000	9.94025	-3.37830	9.05754	-3.79404
2500.000	9.95368	-3.41136	9.00355	-3.86503
2501.000	9.94601	-3.38996	9.12115	-3.81488
2502.000	9.98820	-3.39733	9.01898	-3.83748
2503.000	9.97861	-3.38767	9.03826	-3.88030
2504.000	9.95176	-3.42114	8.98233	-3.90829
2505.000	9.98053	-3.45598	9.03440	-3.82949
2506.000	9.99778	-3.40894	8.98426	-3.88675
2507.000	9.96327	-3.42688	8.99390	-3.80449
2508.000	9.95943	-3.38201	9.02283	-3.83939
2509.000	9.91723	-3.40197	9.07296	-3.83495
2510.000	9.94792	-3.40751	9.02862	-3.89019
2511.000	9.93833	-3.43104	9.06911	-3.88193
2512.000	9.95751	-3.39960	9.07296	-3.85255
2513.000	9.92299	-3.41949	9.03633	-3.89010
2514.000	9.93642	-3.40958	9.06525	-3.91130
2515.000	9.93450	-3.38031	9.00741	-3.83565
2516.000	9.98436	-3.39346	9.04597	-3.88804
2517.000	9.96519	-3.46005	9.01512	-3.90207
2518.000	9.93066	-3.43308	9.04404	-3.84308
2519.000	9.93450	-3.40570	9.11923	-3.80121
2520.000	9.94025	-3.40954	9.06140	-3.85463
2521.000	9.94792	-3.37822	9.00933	-3.88844
2522.000	9.94217	-3.43881	9.06332	-3.95630
2523.000	9.95560	-3.43281	9.02476	-3.85111
2524.000	9.92299	-3.41753	8.98426	-3.86328
2525.000	9.95751	-3.43475	9.10573	-3.91086
2526.000	9.94217	-3.46029	9.03826	-3.76881
2527.000	9.96710	-3.40145	8.99583	-3.83186
2528.000	9.94792	-3.41532	9.05176	-3.85669
2529.000	9.93450	-3.39593	8.99583	-3.79273
2530.000	9.93450	-3.41937	9.08260	-3.88569
2531.000	9.93066	-3.39012	9.04019	-3.89593
2532.000	9.93066	-3.38816	8.99776	-3.80640
2533.000	9.88846	-3.38274	9.05561	-3.83122
2534.000	9.94984	-3.38015	9.01898	-3.86291
2535.000	9.93833	-3.40371	9.05176	-3.81562
2536.000	9.96519	-3.41905	9.01126	-3.82974
2537.000	9.94409	-3.41731	8.95147	-3.90275
2538.000	9.91531	-3.43519	8.93025	-3.86776
2539.000	9.91915	-3.44296	9.01319	-3.85319
2540.000	9.95176	-3.41723	9.05176	-3.86256
2541.000	9.89613	-3.44906	9.04983	-3.88800
2542.000	9.90189	-3.42752	9.06525	-3.86632
2543.000	9.88270	-3.44529	9.03055	-3.82758
2544.000	9.91531	-3.37856	8.96690	-3.85564
2545.000	9.93642	-3.41544	8.94182	-3.87938
2546.000	9.92299	-3.42925	8.92060	-3.80917
2547.000	9.92107	-3.42146	9.01126	-3.84539
2548.000	9.89613	-3.39828	8.99005	-3.83387
2549.000	9.92491	-3.42142	8.97462	-3.87512
2550.000	9.89229	-3.44129	8.98426	-3.79481
2551.000	9.88846	-3.41789	8.98040	-3.83984
2552.000	9.86159	-3.43184	9.04597	-3.89000
2553.000	9.90956	-3.46063	9.00933	-3.87475
2554.000	9.89421	-3.44322	8.94375	-3.83436
2555.000	9.87502	-3.41217	8.94954	-3.80300
2556.000	9.88270	-3.40038	8.94375	-3.87349
2557.000	9.89613	-3.42367	8.99390	-3.86317
2558.000	9.90956	-3.34932	8.97847	-3.83595
2559.000	9.89037	-3.40616	8.94568	-3.85586
2560.000	9.87694	-3.40629	8.86464	-3.88019
2561.000	9.86351	-3.34979	9.07682	-3.88380
2562.000	9.87886	-3.46681	9.07682	-3.90531
2563.000	9.89229	-3.42371	9.05754	-3.91530
2564.000	9.89229	-3.43152	9.00741	-3.93344
2565.000	9.90380	-3.43531	9.04212	-3.84701
2566.000	9.88078	-3.44141	8.96883	-3.89474
2567.000	9.87310	-3.40633	8.92639	-3.88345
2568.000	9.92491	-3.40775	9.01898	-3.88638
2569.000	9.91340	-3.43521	8.95340	-3.87534
2570.000	9.92682	-3.40968	8.94568	-3.91063
2571.000	9.88270	-3.42381	8.97269	-3.86144
2572.000	9.93066	-3.38426	8.99969	-3.84160
2573.000	9.94025	-3.41150	8.99583	-3.86315
2574.000	9.86735	-3.41421	8.95147	-3.84797
2575.000	9.86159	-3.44551	8.98619	-3.85152
2576.000	9.88462	-3.53119	8.94182	-3.88133
2577.000	9.86543	-3.44352	8.96304	-3.91240
2578.000	9.86927	-3.44348	9.04404	-3.88806
2579.000	9.86927	-3.46106	8.96304	-3.81655
2580.000	9.92682	-3.47607	8.97269	-3.88883
2581.000	9.93450	-3.48966	9.03247	-3.90383
2582.000	9.89805	-3.49004	9.12115	-3.86377
2583.000	9.90189	-3.52320	8.94568	-3.97909
2584.000	9.91148	-3.48209	8.85113	-3.87838
2585.000	9.88846	-3.46671	8.91481	-3.87379
2586.000	9.85775	-3.44946	8.99005	-3.91016
2587.000	9.84048	-3.47894	9.04790	-3.84500
2588.000	9.89997	-3.52322	8.90323	-3.94239
2589.000	9.85775	-3.49828	8.97076	-3.89276
2590.000	9.89229	-3.52525	8.98619	-3.83391
2591.000	9.88846	-3.49600	9.04983	-3.86844
2592.000	9.84240	-3.52188	9.00741	-3.87085
2593.000	9.84816	-3.52377	9.00548	-3.91195
2594.000	9.87119	-3.52743	9.02862	-3.92930
2595.000	9.85200	-3.53935	8.97269	-3.85557
2596.000	9.85967	-3.50998	9.01898	-3.85704
2597.000	9.85583	-3.53736	9.05561	-3.85469
2598.000	9.86735	-3.49037	8.96304	-3.89480
2599.000	9.82129	-3.47328	8.95726	-3.82248
2600.000	9.83280	-3.50245	9.02862	-3.88236
2601.000	9.87119	-3.52157	9.06140	-3.91525
2602.000	9.88078	-3.49023	9.01126	-3.94513
2603.000	9.85967	-3.51193	9.05368	-3.88209
2604.000	9.89229	-3.47448	8.96111	-3.84983
2605.000	9.81937	-3.51236	9.05947	-3.92114
2606.000	9.82705	-3.44978	8.94375	-3.84610
2607.000	9.86159	-3.48067	9.01126	-3.92166
2608.000	9.83664	-3.48483	9.01705	-3.94507
2609.000	9.86735	-3.45912	9.05947	-3.95047
2610.000	9.84048	-3.45941	9.00933	-3.99599
2611.000	9.84432	-3.47694	9.00548	-3.91782
2612.000	9.85008	-3.46907	9.02669	-3.86478
2613.000	9.82896	-3.46929	9.06911	-3.87997
2614.000	9.81169	-3.49291	9.06140	-3.86636
2615.000	9.82896	-3.44390	9.05947	-3.78424
2616.000	9.85583	-3.50025	9.05561	-3.93878
2617.000	9.84048	-3.49261	9.04212	-3.87635
2618.000	9.81745	-3.48504	9.10188	-3.98715
2619.000	9.85775	-3.48852	9.06911	-3.81739
2620.000	9.84432	-3.47499	8.95147	-3.81080
2621.000	9.85200	-3.43194	9.04019	-3.85486
2622.000	9.87119	-3.47666	9.04019	-3.88811
2623.000	9.85200	-3.49444	8.97655	-3.85162
2624.000	9.88462	-3.48628	8.97076	-3.86146
2625.000	9.83088	-3.47708	9.00741	-3.84738
2626.000	9.85391	-3.45926	8.96883	-3.83214
2627.000	9.81937	-3.45572	9.02669	-3.80414
2628.000	9.80209	-3.50863	9.15584	-3.86339
2629.000	9.76177	-3.41138	9.04790	-3.81370
2630.000	9.70992	-3.39042	8.96304	-3.82046
2631.000	9.62731	-3.42838	9.00162	-3.87678
2632.000	9.44465	-3.39697	8.96497	-3.75196
2633.000	9.30223	-3.35337	8.82603	-3.75338
2634.000	9.10573	-3.21621	8.59230	-3.63035
2635.000	8.88008	-3.14963	8.37569	-3.61671
2636.000	8.50337	-3.03116	8.06390	-3.49593
2637.000	8.16853	-2.90020	7.83896	-3.43697
2638.000	7.80597	-2.71204	7.54190	-3.45706
2639.000	7.45833	-2.61977	7.16075	-3.13540
2640.000	7.14323	-2.38321	6.83549	-2.99577
2641.000	6.78481	-2.15623	6.48247	-2.87371
2642.000	6.44148	-1.94450	6.22470	-2.64824
2643.000	6.16803	-1.74399	6.07617	-2.52065
2644.000	5.91974	-1.55498	5.94908	-2.40669
2645.000	5.67122	-1.40333	5.81214	-2.15434
2646.000	5.43816	-1.22375	5.62815	-2.03047
2647.000	5.24806	-1.14096	5.47734	-1.81933
2648.000	5.05587	-0.98084	5.40877	-1.82350
2649.000	4.93423	-0.86610	5.24217	-1.63002
2650.000	4.81843	-0.74534	5.07549	-1.50966
2651.000	4.67706	-0.62853	4.93619	-1.34557
2652.000	4.51598	-0.49580	4.81843	-1.32797
2653.000	4.30570	-0.42056	4.67706	-1.22717
2654.000	4.18379	-0.29365	4.51402	-1.08868
2655.000	3.98513	-0.24014	4.25458	-0.99386
2656.000	3.78440	-0.00794	4.15430	-0.92853
2657.000	3.57767	0.13899	3.84345	-0.73638
2658.000	3.44571	0.28596	3.60524	-0.52217
2659.000	3.21912	0.52040	3.39449	-0.38130
2660.000	3.09495	0.74689	3.28021	-0.15294
2661.000	2.90765	0.93375	3.14620	-0.03377
2662.000	2.75185	1.06499	3.01807	0.19072
2663.000	2.75776	1.25765	2.98849	0.45694
2664.000	2.75776	1.39866	2.95300	0.66952
2665.000	2.77552	1.52573	2.83468	0.90600
2666.000	2.77749	1.65678	2.93526	1.09659
2667.000	2.80510	1.77983	2.92540	1.19193
2668.000	2.76565	1.87914	2.89976	1.27339
2669.000	2.81693	1.99616	2.94511	1.36667
2670.000	2.75579	2.06771	2.86229	1.42237
2671.000	2.64730	2.19491	2.77354	1.51382
2672.000	2.48156	2.26664	2.65124	1.57951
2673.000	2.33552	2.39389	2.41644	1.60959
2674.000	2.17169	2.53703	2.32960	1.87183
2675.000	2.01571	2.72774	2.13615	2.05874
2676.000	1.84193	2.89861	1.96240	2.21582
2677.000	1.73528	3.03562	1.77281	2.38480
2678.000	1.66022	3.19039	1.75700	2.51582
2679.000	1.66219	3.37472	1.61281	2.69065
2680.000	1.71553	3.56285	1.60491	2.96046
2681.000	1.81428	3.72704	1.60688	3.18056
2682.000	1.91105	3.93665	1.62071	3.37876
2683.000	1.96437	4.13239	1.82811	3.58838
2684.000	2.11838	4.32182	1.86958	3.74474
2685.000	2.20919	4.46978	1.90315	4.01978
2686.000	2.34342	4.68860	2.03743	4.27657
2687.000	2.35329	4.83860	2.17169	4.45606
2688.000	2.48748	5.06301	2.12036	4.58661
2689.000	2.51511	5.24626	2.13023	4.75049
2690.000	2.45196	5.38444	2.13812	4.92023
2691.000	2.47367	5.55767	2.12233	5.10376
2692.000	2.43815	5.73498	2.13615	5.23780
2693.000	2.36315	5.89071	2.01966	5.38208
2694.000	2.35921	5.96545	1.94265	5.47297
2695.000	2.27236	6.11522	1.91895	5.65032
2696.000	2.23683	6.21559	1.80046	5.70976
2697.000	2.10456	6.33399	1.75898	5.79650
2698.000	2.10061	6.41844	1.69775	6.03082
2699.000	2.08087	6.54413	1.61873	6.06842
2700.000	2.01966	6.64248	1.64837	6.13321
2701.000	1.96832	6.75055	1.53379	6.27900
2702.000	1.98214	6.83284	1.54762	6.36343
2703.000	1.95450	6.95837	1.50415	6.49317
2704.000	1.95647	7.01125	1.53774	6.50289
2705.000	1.93475	7.04267	1.52391	6.57360
2706.000	1.94462	7.14249	1.53774	6.61869
2707.000	1.92290	7.19543	1.67207	6.64966
2708.000	1.92290	7.24239	1.55947	6.84810
2709.000	1.90908	7.29723	1.49032	6.79342
2710.000	1.92488	7.34998	1.55354	6.88929
2711.000	1.91698	7.35001	1.53379	6.93835
2712.000	1.98214	7.36538	1.58713	7.06944
2713.000	1.99202	7.43572	1.59503	7.03024
2714.000	2.07889	7.44901	1.57330	7.04794
2715.000	2.08482	7.48416	1.60293	7.12421
2716.000	2.13023	7.45659	1.59898	7.07723
2717.000	2.14997	7.53466	1.62664	7.12805
2718.000	2.14997	7.51121	1.66219	7.11422
2719.000	2.11246	7.59540	1.67009	7.10831
2720.000	2.09271	7.62089	1.66022	7.15142
2721.000	2.16576	7.71816	1.66812	7.21012
2722.000	2.06902	7.65811	1.68392	7.25899
2723.000	2.13220	7.77689	1.59305	7.26519
2724.000	2.13615	7.81004	1.63849	7.31003
2725.000	2.03546	7.87688	1.63256	7.37265
2726.000	2.09271	7.90586	1.61478	7.44116
2727.000	1.96437	7.91428	1.50613	7.46696
2728.000	2.04335	8.02310	1.44686	7.50625
2729.000	1.97622	8.10334	1.42117	7.62164
2730.000	1.92093	8.11529	1.41920	7.54348
2731.000	1.91105	8.10949	1.33819	7.73520
2732.000	1.86563	8.13504	1.23939	7.70034
2733.000	1.91698	8.16987	1.27693	7.71781
2734.000	1.84391	8.14683	1.30262	7.70211
2735.000	1.85181	8.19160	1.32238	7.68447
2736.000	1.94067	8.16002	1.36980	7.75268
2737.000	1.90315	8.07640	1.36585	7.69215
2738.000	1.96832	8.08779	1.28286	7.75295
2739.000	1.94067	8.05868	1.35992	7.66677
2740.000	1.99399	8.04673	1.56145	7.59381
2741.000	1.99597	8.03698	1.46069	7.52966
2742.000	2.00979	7.98622	1.43105	7.45352
2743.000	2.03941	7.90222	1.55157	7.46875
2744.000	2.06705	7.92744	1.44488	7.40849
2745.000	2.03743	7.93929	1.45476	7.38304
2746.000	2.05323	7.94506	1.46266	7.32432
2747.000	2.00584	7.88482	1.46464	7.33997
2748.000	2.09666	7.84536	1.41129	7.35970
2749.000	2.01374	7.86723	1.36190	7.39311
2750.000	2.02953	7.90812	1.40932	7.36753
2751.000	2.03546	7.84956	1.45674	7.39281
2752.000	2.02361	7.99200	1.34807	7.42249
2753.000	2.02163	7.92961	1.37573	7.43218
2754.000	2.00584	7.90043	1.38758	7.41454
2755.000	2.01176	7.92771	1.36190	7.44982
2756.000	2.03941	7.94318	1.37375	7.37156
2757.000	2.03941	7.97633	1.47452	7.43773
2758.000	2.01571	7.96669	1.40734	7.37536
2759.000	2.00386	7.95700	1.41920	7.42227
2760.000	2.02361	7.92960	1.38758	7.40476
2761.000	2.01769	7.93938	1.47254	7.40058
2762.000	2.07297	7.93716	1.41327	7.48290
2763.000	1.98412	7.90833	1.47452	7.36928
2764.000	2.03546	7.93539	1.39351	7.42626
2765.000	2.02756	7.87887	1.38561	7.39695
2766.000	2.03743	7.94709	1.39944	7.38517
2767.000	1.99991	7.89460	1.41525	7.37729
2768.000	2.03743	7.94319	1.38166	7.41456
2769.000	2.02361	7.91985	1.37573	7.39502
2770.000	2.00781	7.92383	1.35202	7.32467
2771.000	2.00979	7.90626	1.50415	7.35745
2772.000	2.01374	7.88674	1.39746	7.38909
2773.000	1.98609	7.92978	1.39944	7.33431
2774.000	1.99794	7.96288	1.36387	7.40093
2775.000	2.04928	7.97823	1.39944	7.31866
2776.000	1.99794	7.94728	1.44093	7.35374
2777.000	1.97819	7.89081	1.42908	7.33617
2778.000	1.99597	7.90828	1.40339	7.26581
2779.000	2.01176	7.91991	1.47847	7.32819
2780.000	1.96437	7.91038	1.44488	7.35960
2781.000	1.94462	7.95728	1.48440	7.31838
2782.000	2.00781	7.88871	1.36980	7.37157
2783.000	2.00979	7.88285	1.48637	7.34186
2784.000	2.05125	7.90411	1.44291	7.24807
2785.000	2.03151	7.88275	1.41327	7.36948
2786.000	1.99202	7.85172	1.39154	7.26585
2787.000	2.03546	7.90419	1.43105	7.29312
2788.000	1.98609	7.84004	1.42710	7.24812
2789.000	1.97424	7.78155	1.45871	7.23628
2790.000	1.97622	7.81277	1.37968	7.31089
2791.000	1.97424	7.85961	1.46859	7.21863
2792.000	1.97424	7.85961	1.40339	7.23645
2793.000	2.00781	7.83409	1.55552	7.32793
2794.000	1.94265	7.83829	1.47057	7.19905
2795.000	1.98807	7.83028	1.46266	7.29106
2796.000	1.97622	7.84399	1.48637	7.28316
2797.000	1.95055	7.83045	1.44883	7.25197
2798.000	1.96240	7.83820	1.38561	7.21497
2799.000	1.95647	7.79725	1.42710	7.21289
2800.000	1.99399	7.80878	1.47057	7.28712
2801.000	2.00781	7.81848	1.45081	7.25979
2802.000	1.96437	7.78940	1.38561	7.20910
2803.000	1.98017	7.77372	1.40932	7.18162
2804.000	1.97622	7.80301	1.44686	7.17172
2805.000	1.95055	7.77385	1.41722	7.27555
2806.000	1.96240	7.77380	1.39154	7.20517
2807.000	1.95647	7.78163	1.42710	7.23051
2808.000	1.95647	7.76992	1.41920	7.19530
2809.000	1.94462	7.79145	1.37178	7.21110
2810.000	1.92093	7.76423	1.52193	7.20867
2811.000	1.93475	7.79344	1.45279	7.27935
2812.000	1.93475	7.78954	1.47452	7.21470
2813.000	1.93672	7.78563	1.50218	7.28702
2814.000	1.98017	7.77372	1.48242	7.21467
2815.000	1.95252	7.79531	1.42908	7.21876
2816.000	1.98807	7.78929	1.46266	7.27345
2817.000	1.94857	7.77386	1.45476	7.23433
2818.000	1.97227	7.72495	1.49032	7.20877
2819.000	1.96635	7.76597	1.43698	7.28136
2820.000	1.94857	7.74068	1.40932	7.22273
2821.000	1.96437	7.74060	1.45279	7.23238
2822.000	1.93672	7.73097	1.47057	7.18535
2823.000	1.94067	7.74071	1.40537	7.22470
2824.000	1.96240	7.74061	1.43105	7.22071
2825.000	1.94067	7.72119	1.47452	7.10702
2826.000	1.93672	7.78172	1.44686	7.17563
2827.000	1.94265	7.66846	1.46266	7.15796
2828.000	1.96240	7.71523	1.45871	7.17168
2829.000	1.92685	7.72711	1.44488	7.22066
2830.000	1.89723	7.76238	1.43105	7.16589
2831.000	1.92883	7.75638	1.36585	7.17196
2832.000	1.91105	7.73889	1.48637	7.11677
2833.000	1.93475	7.72903	1.44686	7.15606
2834.000	1.93475	7.75050	1.47452	7.18925
2835.000	1.92093	7.72518	1.43500	7.25984
2836.000	1.92685	7.75639	1.36387	7.20525
2837.000	1.94462	7.76217	1.49230	7.19115
2838.000	1.90513	7.71744	1.49032	7.15200
2839.000	1.88538	7.75853	1.47254	7.12073
2840.000	1.94265	7.68994	1.43105	7.16394
2841.000	1.95845	7.73673	1.41327	7.11700
2842.000	1.92883	7.69195	1.49625	7.17939
2843.000	1.99399	7.71899	1.38956	7.09161
2844.000	1.94462	7.71336	1.47649	7.09330
2845.000	1.97424	7.69761	1.47649	7.16967
2846.000	1.89328	7.68235	1.45871	7.14427
2847.000	1.94462	7.68603	1.50415	7.10496
2848.000	1.96437	7.70156	1.37968	7.13276
2849.000	1.99794	7.69164	1.47254	7.14423
2850.000	1.97622	7.71712	1.47847	7.14617
2851.000	1.92093	7.70371	1.48440	7.13244
2852.000	1.97622	7.76593	1.42117	7.09347
2853.000	1.94265	7.71142	1.46859	7.11878
2854.000	1.96437	7.71132	1.49625	7.18722
2855.000	1.93278	7.71537	1.48242	7.13636
2856.000	1.95845	7.68206	1.47847	7.12854
2857.000	1.85971	7.70788	1.46069	7.11685
2858.000	1.94067	7.68019	1.51403	7.09122
2859.000	1.95450	7.68598	1.40537	7.20317
2860.000	1.87156	7.67463	1.49823	7.18134
2861.000	1.88143	7.66678	1.47452	7.16380
2862.000	1.91895	7.63536	1.43303	7.20700
2863.000	1.91105	7.71546	1.48835	7.16963
2864.000	1.90513	7.62175	1.46859	7.12466
2865.000	1.92290	7.66269	1.47649	7.19512
2866.000	1.91895	7.62364	1.39944	7.16991
2867.000	1.91105	7.69008	1.47057	7.19318
2868.000	1.91500	7.65882	1.45279	7.15212
2869.000	1.92290	7.59432	1.47452	7.15401
2870.000	1.94067	7.60401	1.43500	7.15609
2871.000	1.98807	7.65458	1.35992	7.15828
2872.000	1.98807	7.65458	1.46859	7.16969
2873.000	1.96240	7.61173	1.41129	7.16791
2874.000	1.95845	7.61370	1.45081	7.18149
2875.000	1.98807	7.63115	1.40339	7.15032
2876.000	1.98017	7.60774	1.45476	7.16190
2877.000	1.97029	7.65076	1.47254	7.22253
2878.000	1.97819	7.65267	1.49428	7.11479
2879.000	1.92093	7.59824	1.46069	7.19517
2880.000	1.91895	7.60606	1.45871	7.11881
2881.000	1.93278	7.60405	1.53971	7.15184
2882.000	1.99202	7.64675	1.53576	7.06765
2883.000	1.97029	7.58434	1.46859	7.07570
2884.000	1.99991	7.56663	1.47057	7.18926
2885.000	1.96832	7.58240	1.49230	7.16374
2886.000	2.04138	7.63285	1.45279	7.14233
2887.000	1.93080	7.56303	1.47254	7.14031
2888.000	1.97622	7.64682	1.52589	7.08335
2889.000	2.01571	7.58805	1.44093	7.13454
2890.000	1.98214	7.61555	1.49032	7.10305
2891.000	2.05520	7.64060	1.38758	7.09749
2892.000	2.00979	7.59589	1.51403	7.16955
2893.000	2.01374	7.61345	1.46069	7.11489
2894.000	2.01966	7.62905	1.46464	7.19320
2895.000	1.98214	7.60773	1.48637	7.12460
2896.000	1.99004	7.60574	1.42315	7.18158
2897.000	1.97227	7.57261	1.50810	7.09124
2898.000	1.97622	7.56869	1.43896	7.09733
2899.000	1.94462	7.54538	1.47649	7.21469
2900.000	1.93870	7.56886	1.43896	7.06796
2901.000	1.95252	7.59029	1.46662	7.09333
2902.000	1.96240	7.58438	1.44488	7.15998
2903.000	1.93870	7.57276	1.49230	7.11479
2904.000	1.96635	7.51402	1.52391	7.11861
2905.000	1.97424	7.59214	1.52984	7.09509
2906.000	1.93672	7.53174	1.44093	7.11887
2907.000	1.96635	7.50620	1.51206	7.12648
2908.000	1.94067	7.59034	1.49625	7.17743
2909.000	1.96240	7.60001	1.47057	7.18535
2910.000	1.95647	7.55315	1.44883	7.15801
2911.000	1.94660	7.57859	1.43896	7.15412
2912.000	1.99399	7.54712	1.47057	7.12661
2913.000	1.97819	7.56868	1.41129	7.12679
2914.000	1.98017	7.56476	1.46859	7.07178
2915.000	1.96240	7.50036	1.55354	7.16158
2916.000	1.97029	7.57262	1.43896	7.07187
2917.000	1.96635	7.56873	1.43105	7.11498
2918.000	1.96635	7.56287	1.50218	7.16763
2919.000	1.97622	7.53156	1.49230	7.05995
2920.000	1.98214	7.51786	1.49032	7.08738
2921.000	1.98412	7.55888	1.48045	7.06979
2922.000	2.01966	7.57435	1.50810	7.05011
2923.000	1.93475	7.54347	1.45476	7.06203
2924.000	1.95252	7.54926	1.46859	7.05219
2925.000	1.99794	7.54710	1.38561	7.03873
2926.000	1.94857	7.52387	1.54564	7.10874
2927.000	1.93672	7.51024	1.49428	7.02469
2928.000	2.00979	7.56072	1.47649	7.09722
2929.000	2.01374	7.56852	1.49428	7.11087
2930.000	1.93475	7.53761	1.47057	7.01105
2931.000	1.94462	7.55711	1.53379	7.03436
2932.000	1.98807	7.50415	1.61873	7.03995
2933.000	2.03151	7.50786	1.50613	7.06774
2934.000	1.98609	7.53152	1.48440	7.06586
2935.000	1.99004	7.54713	1.49625	7.10303
2936.000	2.01374	7.53139	1.55947	7.05386
2937.000	1.99399	7.51781	1.47254	7.08548
2938.000	1.99794	7.49824	1.48637	7.07172
2939.000	1.98807	7.49438	1.41327	7.07979
2940.000	2.00189	7.54708	1.59700	7.10074
2941.000	2.01374	7.50208	1.51403	7.08926
2942.000	1.98214	7.46313	1.49428	7.00510
2943.000	1.99202	7.51391	1.46069	7.07181
2944.000	1.99597	7.49825	1.56935	7.05579
2945.000	1.95845	7.50819	1.53971	7.07155
2946.000	1.94857	7.51605	1.44686	7.08752
2947.000	1.95647	7.58636	1.54564	7.05978
2948.000	1.98609	7.53347	1.50613	7.13433
2949.000	1.97227	7.51399	1.57330	7.11453
2950.000	1.98412	7.51980	1.53774	7.08723
2951.000	1.94265	7.52976	1.53774	7.03238
2952.000	2.00979	7.57830	1.49230	7.10892
2953.000	1.94857	7.52778	1.45674	7.10903
2954.000	1.95055	7.53754	1.51008	7.09319
2955.000	2.02558	7.54697	1.55947	7.11261
2956.000	1.98609	7.55497	1.53576	7.09703
2957.000	2.00386	7.51385	1.57725	7.14192
2958.000	2.01571	7.48057	1.40734	7.12093
2959.000	2.01374	7.50990	1.56935	7.11650
2960.000	2.00979	7.52360	1.51996	7.05595
2961.000	1.98609	7.53738	1.51601	7.14213
2962.000	2.02361	7.51181	1.52786	7.10097
2963.000	2.03546	7.50980	1.48045	7.07958
2964.000	2.04533	7.54297	1.54762	7.14398
2965.000	2.01769	7.54701	1.48242	7.11874
2966.000	1.96832	7.51206	1.44883	7.19520
2967.000	2.05520	7.52143	1.54169	7.12638
2968.000	1.96437	7.51794	1.51008	7.08732
2969.000	2.02361	7.52939	1.50613	7.14999
2970.000	1.98214	7.44554	1.44686	7.07577
2971.000	2.03743	7.52347	1.50810	7.11082
2972.000	2.01966	7.52941	1.51206	7.03834
2973.000	2.02558	7.48444	1.43896	7.08558
2974.000	2.03348	7.54498	1.52193	7.13428
2975.000	2.05915	7.53900	1.51798	7.11667
2976.000	2.09666	7.51928	1.38758	7.13078
2977.000	2.03151	7.54890	1.54564	7.09895
2978.000	1.99597	7.47480	1.51206	7.06381
2979.000	2.05718	7.52338	1.49032	7.17745
2980.000	2.05323	7.50385	1.49230	7.16374
2981.000	2.03546	7.52152	1.50613	7.14999
2982.000	2.05520	7.50385	1.56935	7.08125
2983.000	2.07889	7.53500	1.51008	7.05206
2984.000	2.04928	7.53709	1.50613	7.10691
2985.000	2.08087	7.48223	1.51798	7.10100
2986.000	2.06705	7.50965	1.51206	7.11864
2987.000	2.01176	7.47473	1.47649	7.03062
2988.000	2.06902	7.55263	1.45279	7.06008
2989.000	2.03151	7.52545	1.45674	7.08945
2990.000	2.08679	7.50174	1.53971	7.03825
2991.000	2.08482	7.45680	1.46662	7.01890
2992.000	2.15589	7.37631	1.55947	6.89711
2993.000	2.17563	7.22757	1.56737	6.85396
2994.000	2.28815	7.07633	1.73133	6.70438
2995.000	2.31973	6.88620	1.80441	6.60995
2996.000	2.45196	6.65427	1.91698	6.34060
2997.000	2.55457	6.36535	2.01571	6.07693
2998.000	2.66111	5.98374	2.27631	5.71793
2999.000	2.76368	5.65087	2.34539	5.40062
3000.000	2.85243	5.31574	2.50524	5.09450
3001.000	2.87018	4.89777	2.55260	4.69972
3002.000	2.93920	4.54029	2.70648	4.31798
3003.000	2.91554	4.13343	2.88201	3.86267
3004.000	2.92540	3.66667	2.92145	3.46679
3005.000	2.97863	3.35971	3.02004	3.13185
3006.000	2.95892	3.04882	3.11072	2.72145
3007.000	2.93723	2.76946	3.11072	2.31699
3008.000	2.98652	2.48980	3.09692	2.10874
3009.000	2.87807	2.21432	3.02595	1.80925
3010.000	2.83271	1.99018	3.02792	1.65443
3011.000	2.85046	1.91275	3.01018	1.45395
3012.000	2.77552	1.67267	2.92934	1.25548
3013.000	2.73804	1.61712	2.80313	1.13843
3014.000	2.67492	1.54771	2.87807	1.01720
3015.000	2.63546	1.45243	2.75579	1.00141
3016.000	2.60981	1.38294	2.67689	0.97963
3017.000	2.59403	1.35515	2.62165	0.96378
3018.000	2.57627	1.28962	2.58219	1.00354
3019.000	2.56444	1.30950	2.60587	0.99756
3020.000	2.58022	1.32140	2.55260	1.02145
3021.000	2.57825	1.32537	2.42631	1.17255
3022.000	2.58417	1.37701	2.50327	1.22215
3023.000	2.61179	1.49615	2.49340	1.42478
3024.000	2.62757	1.52989	2.47564	1.43871
3025.000	2.67097	1.63508	2.49932	1.55984
3026.000	2.73804	1.79779	2.56444	1.75635
3027.000	2.80510	1.87709	2.51905	1.74450
3028.000	2.88004	1.96231	2.58417	1.85560
3029.000	2.90173	2.08134	2.58219	1.85758
3030.000	2.93328	2.15866	2.64730	1.91704
3031.000	2.94709	2.23006	2.68281	1.91897
3032.000	3.01215	2.29935	2.69267	1.94675
3033.000	3.03187	2.31319	2.64730	1.95079
3034.000	3.05749	2.31909	2.73804	2.02011
3035.000	3.03581	2.28343	2.68281	1.97257
3036.000	3.05947	2.30917	2.71831	1.88319
3037.000	3.06341	2.23974	2.74001	1.91491
3038.000	3.05552	2.18619	2.73015	1.81567
3039.000	3.08312	2.13258	2.73015	1.80575
3040.000	3.08312	2.05917	2.66900	1.77010
3041.000	3.11072	2.02341	2.68478	1.68669
3042.000	3.06932	1.92229	2.74001	1.59329
3043.000	3.08706	1.83494	2.71240	1.50397
3044.000	3.08706	1.73373	2.75579	1.48604
3045.000	3.08115	1.63847	2.72423	1.48211
3046.000	3.07327	1.63848	2.76565	1.41057
3047.000	3.08312	1.58090	2.77749	1.30728
3048.000	3.08904	1.55707	2.75185	1.29341
3049.000	3.07918	1.52135	2.73804	1.22589
3050.000	3.07721	1.48562	2.70648	1.23387
3051.000	3.06932	1.44593	2.76368	1.19012
3052.000	3.05749	1.47374	2.71831	1.17030
3053.000	3.01807	1.44798	2.72620	1.23584
3054.000	3.02398	1.40231	2.64335	1.15448
3055.000	3.01609	1.40629	2.67097	1.21802
3056.000	3.00229	1.41623	2.70451	1.20011
3057.000	3.07327	1.42805	2.65716	1.16440
3058.000	3.03975	1.46185	2.67492	1.16438
3059.000	3.02792	1.38245	2.66900	1.18822
3060.000	3.07327	1.39232	2.67097	1.20610
3061.000	3.03778	1.38839	2.69464	1.18025
3062.000	3.08312	1.48363	2.73804	1.14843
3063.000	3.08312	1.49355	2.68873	1.19019
3064.000	3.09889	1.45184	2.64927	1.16242
3065.000	3.08904	1.48759	2.68083	1.20212
3066.000	3.06735	1.50350	2.64335	1.23791
3067.000	3.08115	1.48958	2.64138	1.23195
3068.000	3.03778	1.48965	2.59403	1.30351
3069.000	3.08509	1.51539	2.66703	1.20213
3070.000	3.06932	1.49953	2.69267	1.27957
3071.000	3.07129	1.48364	2.67886	1.29349
3072.000	3.05552	1.49756	2.69859	1.27758
3073.000	3.11860	1.50740	2.61968	1.23793
3074.000	3.09692	1.54118	2.66308	1.27563
3075.000	3.08115	1.52929	2.71437	1.26962
3076.000	3.08509	1.47965	2.67492	1.26966
3077.000	3.11663	1.55107	2.69859	1.24381
3078.000	3.08904	1.48560	2.72226	1.33515
3079.000	3.08115	1.55708	2.63546	1.25977
3080.000	3.09692	1.52133	2.67689	1.30342
3081.000	3.10283	1.56300	2.68083	1.25773
3082.000	3.05552	1.53925	2.75185	1.20602
3083.000	3.03187	1.56509	2.64533	1.28359
3084.000	3.08904	1.54119	2.60390	1.31144
3085.000	3.05947	1.59681	2.77354	1.26757
3086.000	3.12058	1.56893	2.74198	1.30732
3087.000	3.04961	1.51941	2.72818	1.30734
3088.000	3.07524	1.58289	2.68083	1.30739
3089.000	3.06932	1.56107	2.73015	1.21994
3090.000	3.07918	1.57098	2.67097	1.28555
3091.000	3.06144	1.54321	2.74987	1.26163
3092.000	3.05552	1.54124	2.73212	1.26761
3093.000	3.07327	1.57496	2.72423	1.30536
3094.000	3.06538	1.52931	2.66900	1.27562
3095.000	3.07129	1.48960	2.75579	1.22389
3096.000	3.07918	1.50547	2.68281	1.31335
3097.000	3.08115	1.48760	2.64730	1.20811
3098.000	3.07327	1.51937	2.70253	1.26764
3099.000	3.13043	1.54510	2.67294	1.26370
3100.000	3.09298	1.49552	2.72620	1.22988
3101.000	3.08312	1.47767	2.70253	1.29942
3102.000	3.11860	1.49747	2.64730	1.31140
3103.000	3.07721	1.48363	2.71831	1.24975
3104.000	3.07524	1.49555	2.68873	1.20608
3105.000	3.09298	1.47170	2.68281	1.19615
3106.000	3.06341	1.50549	2.65519	1.26769
3107.000	3.06144	1.49954	2.64335	1.18427
3108.000	3.08115	1.48164	2.71831	1.18817
3109.000	3.08312	1.52333	2.68478	1.20608
3110.000	3.09889	1.47963	2.65124	1.25975
3111.000	3.07918	1.51937	2.72226	1.22988
3112.000	3.07524	1.47768	2.62954	1.23792
3113.000	3.08904	1.48163	2.67294	1.20808
3114.000	3.04567	1.50552	2.66900	1.17233
3115.000	3.10086	1.48956	2.72818	1.18022
3116.000	3.07524	1.43401	2.64335	1.24983
3117.000	3.09692	1.49949	2.69267	1.28156
3118.000	3.08312	1.48164	2.72620	1.23186
3119.000	3.12255	1.47166	2.68281	1.27164
3120.000	3.12058	1.41806	2.74790	1.28348
3121.000	3.06144	1.48763	2.74593	1.27554
3122.000	3.09298	1.45979	2.68675	1.23191
3123.000	3.07918	1.47371	2.72620	1.22392
3124.000	3.12058	1.51931	2.67886	1.25774
3125.000	3.06538	1.40821	2.71240	1.30338
3126.000	3.08312	1.45980	2.68873	1.20608
3127.000	3.03975	1.47972	2.67886	1.26767
3128.000	3.08706	1.48561	2.64927	1.25777
3129.000	3.07129	1.47372	2.66308	1.26172
3130.000	3.08115	1.47370	2.71831	1.20804
3131.000	3.06144	1.49954	2.65322	1.23988
3132.000	3.11269	1.44785	2.60784	1.23198
3133.000	3.05552	1.43800	2.67097	1.24781
3134.000	3.06341	1.45189	2.69859	1.23388
3135.000	3.11860	1.47167	2.70451	1.26168
3136.000	3.06144	1.42410	2.77946	1.23777
3137.000	3.10678	1.42602	2.73607	1.22391
3138.000	3.14226	1.46171	2.69662	1.25573
3139.000	3.08904	1.46972	2.70253	1.26764
3140.000	3.08115	1.44392	2.66505	1.21802
3141.000	3.07129	1.45982	2.64730	1.21804
3142.000	3.08312	1.43995	2.70648	1.21599
3143.000	3.06144	1.47373	2.64730	1.25379
3144.000	3.09692	1.47567	2.70253	1.27161
3145.000	3.06144	1.41218	2.74396	1.26760
3146.000	3.05947	1.43403	2.73409	1.22788
3147.000	3.04764	1.42412	2.73804	1.25966
3148.000	3.07129	1.41416	2.73409	1.24179
3149.000	3.09101	1.39229	2.76960	1.16429
3150.000	3.09889	1.46177	2.70451	1.21004
3151.000	3.10678	1.46771	2.69464	1.21799
3152.000	3.07721	1.45981	2.75382	1.22786
3153.000	3.16591	1.46167	2.74198	1.23979
3154.000	3.10481	1.44786	2.75185	1.26163
3155.000	3.09101	1.43200	2.79129	1.24570
3156.000	3.09298	1.44589	2.75579	1.23779
3157.000	3.08115	1.41613	2.67097	1.26767
3158.000	3.12452	1.41409	2.62560	1.29553
3159.000	3.10875	1.44984	2.70253	1.20805
3160.000	3.07129	1.44592	2.69662	1.26765
3161.000	3.09298	1.43795	2.73212	1.22590
3162.000	3.14029	1.42796	2.74987	1.23184
3163.000	3.08509	1.41612	2.70648	1.16634
3164.000	3.11269	1.42204	2.75974	1.19806
3165.000	3.06144	1.43799	2.77552	1.21791
3166.000	3.08904	1.39229	2.74790	1.19808
3167.000	3.10481	1.44191	2.76368	1.18614
3168.000	3.11466	1.43991	2.72226	1.25769
3169.000	3.10283	1.44389	2.72818	1.22590
3170.000	3.09692	1.39228	2.67886	1.23191
3171.000	3.12058	1.41012	2.78735	1.20797
3172.000	3.13437	1.41804	2.66703	1.18624
3173.000	3.11860	1.43990	2.66703	1.20809
3174.000	3.08509	1.41612	2.76763	1.23778
3175.000	3.06932	1.36651	2.74396	1.20404
3176.000	3.09495	1.40221	2.74987	1.21396
3177.000	3.06735	1.36651	2.75579	1.23183
3178.000	3.04369	1.35463	2.67689	1.12663
3179.000	3.02201	1.37253	2.72423	1.16632
3180.000	3.07327	1.38636	2.70648	1.21599
3181.000	3.03581	1.37251	2.73015	1.21200
3182.000	3.07918	1.37841	2.71437	1.21599
3183.000	3.08706	1.39031	2.73409	1.23186
3184.000	3.08706	1.45781	2.72423	1.29741
3185.000	3.07524	1.39231	2.73804	1.26363
3186.000	3.09298	1.41413	2.72029	1.25173
3187.000	3.07918	1.38635	2.68873	1.22396
3188.000	3.05158	1.40823	2.79918	1.23775
3189.000	3.05355	1.40227	2.71042	1.28352
3190.000	3.08509	1.41612	2.74001	1.30931
3191.000	3.14226	1.42002	2.69464	1.16039
3192.000	3.11860	1.39623	2.76171	1.25368
3193.000	3.13634	1.43392	2.78143	1.27550
3194.000	3.11072	1.40418	2.73015	1.24576
3195.000	3.12255	1.38431	2.79327	1.23974
3196.000	3.12452	1.45379	2.79129	1.24967
3197.000	3.09101	1.42207	2.77946	1.16428
3198.000	3.14817	1.45574	2.81299	1.20794
3199.000	3.13240	1.43393	2.77157	1.24572
3200.000	3.13043	1.38430	2.73804	1.25767
3201.000	3.07129	1.41416	2.66900	1.23788
3202.000	3.12452	1.43394	2.71831	1.21598
3203.000	3.14423	1.41406	2.75974	1.20005
3204.000	3.14423	1.40810	2.74593	1.21794
3205.000	3.10086	1.45978	2.73015	1.31925
3206.000	3.11860	1.41211	2.70451	1.24380
3207.000	3.12255	1.43791	2.71042	1.25373
3208.000	3.12058	1.40019	2.77552	1.26558
3209.000	3.10481	1.41213	2.69464	1.25573
3210.000	3.12649	1.39423	2.72226	1.18420
3211.000	3.09495	1.35258	2.76763	1.21196
3212.000	3.11466	1.38829	2.72620	1.17823
3213.000	3.14423	1.41009	2.74593	1.18417
3214.000	3.13832	1.41208	2.69070	1.19416
3215.000	3.12846	1.39621	2.78143	1.22585
3216.000	3.18168	1.39217	2.74396	1.24376
3217.000	3.15605	1.37235	2.80707	1.12850
3218.000	3.13634	1.32672	2.71831	1.21797
3219.000	3.12649	1.39026	2.75776	1.20800
3220.000	3.18168	1.40805	2.79524	1.23577
3221.000	3.15211	1.38626	2.70056	1.19018
3222.000	3.12058	1.35056	2.76763	1.15833
3223.000	3.13832	1.36245	2.80510	1.21589
3224.000	3.15014	1.40015	2.80116	1.14837
3225.000	3.13832	1.35252	2.80116	1.23576
3226.000	3.14029	1.39024	2.78341	1.18414
3227.000	3.13634	1.38429	2.79129	1.26755
3228.000	3.13240	1.39224	2.77157	1.21196
3229.000	3.15408	1.38228	2.72423	1.14050
3230.000	3.10678	1.40815	2.85835	1.22775
3231.000	3.07327	1.41217	2.78341	1.20003
3232.000	3.12649	1.41408	2.80707	1.12651
3233.000	3.14029	1.33465	2.74593	1.21397
3234.000	3.12846	1.38629	2.86032	1.20392
3235.000	3.14817	1.39222	2.78143	1.23777
3236.000	3.13437	1.41606	2.74987	1.20801
3237.000	3.09298	1.34861	2.82285	1.22978
3238.000	3.10086	1.36845	2.81496	1.16623
3239.000	3.09298	1.31287	2.80510	1.19405
3240.000	3.09692	1.37442	2.75185	1.20602
3241.000	3.14226	1.38031	2.73607	1.14247
3242.000	3.11466	1.34858	2.75185	1.19211
3243.000	3.10086	1.34463	2.75974	1.24176
3244.000	3.11072	1.37043	2.79918	1.15631
3245.000	3.07524	1.27318	2.77946	1.16031
3246.000	3.07918	1.31487	2.80510	1.12850
3247.000	3.10086	1.37243	2.78735	1.15831
3248.000	3.10283	1.35058	2.75776	1.09478
3249.000	3.08904	1.29104	2.75776	1.20998
3250.000	3.11663	1.34660	2.79129	1.16625
3251.000	3.08312	1.27913	2.82285	1.24368
3252.000	3.09692	1.30294	2.74198	1.11664
3253.000	3.06538	1.28312	2.86032	1.13242
3254.000	3.10086	1.31485	2.80905	1.19206
3255.000	3.08312	1.28112	2.80510	1.18610
3256.000	3.11072	1.32476	2.78735	1.20201
3257.000	3.10283	1.35257	2.86821	1.10063
3258.000	3.12649	1.32474	2.82877	1.13046
3259.000	3.11269	1.29498	2.82482	1.17019
3260.000	3.09889	1.30294	2.77749	1.11661
3261.000	3.10678	1.33668	2.85046	1.13243
3262.000	3.10875	1.31881	2.79327	1.14837
3263.000	3.12058	1.29497	2.74593	1.16630
3264.000	3.13832	1.28303	2.88399	1.16020
3265.000	3.11466	1.31682	2.79918	1.17419
3266.000	3.14620	1.31678	2.77354	1.21990
3267.000	3.14620	1.29494	2.81496	1.23574
3268.000	3.07524	1.28510	2.86032	1.12050
3269.000	3.11072	1.29895	2.78143	1.22982
3270.000	3.11663	1.28703	2.72818	1.17426
3271.000	3.11466	1.29696	2.82877	1.14039
3272.000	3.11860	1.33269	2.77946	1.13846
3273.000	3.10875	1.32278	2.83074	1.14039
3274.000	3.09692	1.30691	2.88201	1.17013
3275.000	3.11072	1.29498	2.82877	1.10266
3276.000	3.12846	1.30092	2.81299	1.13842
3277.000	3.13043	1.30488	2.78735	1.14441
3278.000	3.14226	1.27112	2.78143	1.16626
3279.000	3.09495	1.25727	2.80116	1.16823
3280.000	3.14620	1.32273	2.75974	1.19012
3281.000	3.06341	1.28511	2.79524	1.20001
3282.000	3.12649	1.27114	2.80510	1.16028
3283.000	3.11269	1.28902	2.83863	1.10066
3284.000	3.12452	1.29893	2.76763	1.18018
3285.000	3.15211	1.26713	2.89385	1.20388
3286.000	3.10678	1.29101	2.76565	1.15436
3287.000	3.10875	1.29895	2.88793	1.04897
3288.000	3.08904	1.24338	2.78143	1.08880
3289.000	3.09495	1.26522	2.85046	1.14435
3290.000	3.10481	1.26322	2.80707	1.19802
3291.000	3.13832	1.31083	2.77946	1.20003
3292.000	3.10481	1.29102	2.85243	1.14236
3293.000	3.11466	1.29696	2.78735	1.16030
3294.000	3.13043	1.24730	2.85243	1.16023
3295.000	3.11269	1.28307	2.84454	1.12449
3296.000	3.11072	1.28704	2.86427	1.13837
3297.000	3.09889	1.27713	2.86229	1.13838
3298.000	3.12058	1.29298	2.88004	1.16616
3299.000	3.14226	1.29296	2.88990	1.18204
3300.000	3.10678	1.33072	2.85638	1.12051
3301.000	3.09889	1.27713	2.77749	1.10469
3302.000	3.14423	1.32869	2.76763	1.12655
3303.000	3.10875	1.31087	2.95892	1.17800
3304.000	3.13240	1.27709	2.83666	1.17614
3305.000	3.09495	1.27514	2.85835	1.13838
3306.000	3.16394	1.24925	2.87215	1.17610
3307.000	3.10283	1.30095	2.79524	1.07686
3308.000	3.11466	1.25328	2.83468	1.15826
3309.000	3.11663	1.25526	2.87807	1.16418
3310.000	3.12649	1.23738	2.82285	1.08876
3311.000	3.10086	1.29499	2.87413	1.17610
3312.000	3.12452	1.28305	2.84060	1.09669
3313.000	3.14226	1.29097	2.76368	1.18416
3314.000	3.15014	1.30089	2.82877	1.19204
3315.000	3.08509	1.25133	2.84060	1.07285
3316.000	3.09495	1.24139	2.84849	1.22379
3317.000	3.11072	1.24137	2.82680	1.19005
3318.000	3.14817	1.27309	2.86427	1.13639
3319.000	3.13437	1.24134	2.92934	1.10256
3320.000	3.12452	1.25724	2.85046	1.13044
3321.000	3.07721	1.28708	2.81299	1.12452
3322.000	3.12649	1.30489	2.79918	1.12255
3323.000	3.08509	1.25530	2.85638	1.12051
3324.000	3.11860	1.24136	2.89385	1.11252
3325.000	3.11269	1.24137	2.87807	1.14233
3326.000	3.09495	1.28309	2.83666	1.08676
3327.000	3.14423	1.27707	2.87018	1.12049
3328.000	3.08706	1.23147	2.91357	1.15818
3329.000	3.11860	1.24335	2.76565	1.11265
3330.000	3.16000	1.22940	2.84257	1.14833
3331.000	3.15014	1.25522	2.80313	1.07884
3332.000	3.17379	1.24924	2.77946	1.14839
3333.000	3.16197	1.26514	2.84454	1.14038
3334.000	3.09692	1.26124	2.76960	1.08285
3335.000	3.11072	1.23740	2.89582	1.08869
3336.000	3.13437	1.23737	2.80707	1.08480
3337.000	3.10678	1.24336	2.85046	1.16222
3338.000	3.15605	1.26117	2.79918	1.14042
3339.000	3.13437	1.26120	2.86032	1.12249
3340.000	3.14029	1.23538	2.83666	1.10463
3341.000	3.09101	1.23941	2.83666	1.13641
3342.000	3.16985	1.26116	2.89582	1.06883
3343.000	3.13043	1.24929	2.87413	1.16617
3344.000	3.12649	1.23738	2.89385	1.14430
3345.000	3.12452	1.27511	2.80905	1.10267
3346.000	3.13832	1.26517	2.96286	1.20977
3347.000	3.14226	1.25920	2.83271	1.16820
3348.000	3.15408	1.29096	2.87018	1.16816
3349.000	3.13832	1.23935	2.79918	1.17220
3350.000	3.15211	1.22941	2.85243	1.14832
3351.000	3.14620	1.24729	2.85441	1.12845
3352.000	3.12649	1.23341	2.80707	1.13048
3353.000	3.15803	1.25124	2.90568	1.14230
3354.000	3.11072	1.26520	2.76960	1.07887
3355.000	3.10678	1.23542	2.93920	1.15617
3356.000	3.10481	1.18975	2.82285	1.11657
3357.000	3.14029	1.21950	2.90173	1.09663
3358.000	3.11466	1.21357	2.83074	1.10861
3359.000	3.11663	1.18974	2.84652	1.16223
3360.000	3.10086	1.23146	2.87018	1.14234
3361.000	3.15211	1.19168	2.91159	1.14428
3362.000	3.11072	1.21357	2.85441	1.13044
3363.000	3.12846	1.21355	2.89976	1.10259
3364.000	3.12649	1.19568	2.88004	1.10658
3365.000	3.16197	1.19167	2.82680	1.14834
3366.000	3.16788	1.17975	2.84257	1.15230
3367.000	3.16000	1.21947	2.82285	1.10266
3368.000	3.13437	1.23539	2.88596	1.14431
3369.000	3.13437	1.23936	2.82877	1.14834
3370.000	3.15014	1.24331	2.94906	1.17006
3371.000	3.16000	1.25918	2.80905	1.13247
3372.000	3.13832	1.21553	2.84849	1.12250
3373.000	3.12058	1.24335	2.82680	1.19601
3374.000	3.12058	1.21555	2.85835	1.17413
3375.000	3.15605	1.20756	2.84257	1.15428
3376.000	3.11269	1.22350	2.75382	1.15437
3377.000	3.12452	1.24731	2.84849	1.20592
3378.000	3.13043	1.24929	2.88004	1.16219
3379.000	3.13634	1.16986	2.83074	1.15430
3380.000	3.11663	1.19371	2.85046	1.10264
3381.000	3.15605	1.20558	2.77354	1.10469
3382.000	3.16000	1.19763	2.82088	1.23177
3383.000	3.15803	1.23337	2.86821	1.18604
3384.000	3.11466	1.21953	2.89976	1.16813
3385.000	3.13437	1.20957	2.85835	1.16023
3386.000	3.11860	1.25923	2.88399	1.15424
3387.000	3.12452	1.21554	2.83468	1.13244
3388.000	3.15014	1.19367	2.86229	1.16420
3389.000	3.16197	1.23337	2.86821	1.15227
3390.000	3.16985	1.23336	2.82285	1.14040
3391.000	3.16000	1.21947	2.84257	1.20592
3392.000	3.14029	1.22942	2.81693	1.15630
3393.000	3.12846	1.24135	2.87018	1.14234
3394.000	3.16985	1.23137	2.84652	1.16223
3395.000	3.16197	1.19962	2.79129	1.14440
3396.000	3.15803	1.25124	2.86032	1.21981
3397.000	3.16000	1.22146	2.84652	1.14038
3398.000	3.18168	1.21945	2.83271	1.13046
3399.000	3.18168	1.28298	2.85835	1.16023
3400.000	3.15803	1.20558	2.79524	1.19406
3401.000	3.14620	1.28501	2.87018	1.16617
3402.000	3.17576	1.21151	2.79129	1.18810
3403.000	3.18168	1.24327	2.83666	1.13244
3404.000	3.15211	1.23338	2.88793	1.20985
3405.000	3.13043	1.27113	2.86427	1.20193
3406.000	3.15014	1.26714	2.83863	1.14436
3407.000	3.16000	1.29691	2.72423	1.17625
3408.000	3.16000	1.24727	2.79129	1.18612
3409.000	3.15408	1.26912	2.85243	1.17811
3410.000	3.16197	1.25918	2.89779	1.10855
3411.000	3.16788	1.30087	2.76368	1.13450
3412.000	3.19547	1.28495	2.85638	1.19399
3413.000	3.14817	1.23934	2.94314	1.23759
3414.000	3.15803	1.22940	2.77552	1.24572
3415.000	3.15605	1.29691	2.81693	1.17020
3416.000	3.15605	1.25125	2.78735	1.20598
3417.000	3.14817	1.24133	2.79721	1.22186
3418.000	3.17182	1.24726	2.82877	1.11457
3419.000	3.13634	1.27509	2.87018	1.14830
3420.000	3.18365	1.27504	2.82285	1.22978
3421.000	3.15605	1.25919	2.92737	1.16810
3422.000	3.16788	1.28697	2.86229	1.18803
3423.000	3.17576	1.28497	2.86229	1.23569
3424.000	3.13437	1.24929	2.87215	1.16021
3425.000	3.15605	1.26514	2.85243	1.12051
3426.000	3.16788	1.23932	2.83271	1.14238
3427.000	3.18365	1.30085	2.76763	1.16826
3428.000	3.12255	1.26717	2.84849	1.20592
3429.000	3.16197	1.24131	2.76368	1.20402
3430.000	3.09692	1.23146	2.84060	1.11456
3431.000	3.13832	1.27708	2.89582	1.23367
3432.000	3.09889	1.20564	2.82088	1.17020
3433.000	3.14620	1.18375	2.82482	1.15232
3434.000	3.14620	1.21949	2.88201	1.18205
3435.000	3.13437	1.19568	2.84060	1.23770
3436.000	3.11663	1.25923	2.91357	1.20585
3437.000	3.14226	1.18971	2.82680	1.18807
3438.000	3.13437	1.18376	2.86624	1.15625
3439.000	3.13634	1.23936	2.80905	1.17815
3440.000	3.12452	1.21951	2.83863	1.18011
3441.000	3.13043	1.21554	2.85243	1.22975
3442.000	3.14029	1.21155	2.89385	1.23765
3443.000	3.20533	1.20155	2.80707	1.15631
3444.000	3.15803	1.25521	2.85046	1.17612
3445.000	3.18365	1.17576	2.79918	1.21590
3446.000	3.11466	1.18974	2.86032	1.19002
3447.000	3.16591	1.21351	2.91751	1.21776
3448.000	3.13437	1.24730	2.90962	1.22968
3449.000	3.16000	1.21749	2.93131	1.17008
3450.000	3.15211	1.27508	2.87413	1.20390
3451.000	3.17379	1.23335	2.76171	1.13649
3452.000	3.17576	1.21945	2.84652	1.20592
3453.000	3.18562	1.22341	2.89187	1.14828
3454.000	3.19744	1.21347	2.80707	1.22979
3455.000	3.18365	1.24128	2.87018	1.11652
3456.000	3.14817	1.22147	2.92145	1.12640
3457.000	3.19547	1.21347	2.82877	1.13245
3458.000	3.14620	1.18375	2.80116	1.15830
3459.000	3.16197	1.23933	2.78932	1.18612
3460.000	3.16197	1.20359	2.80116	1.17022
3461.000	3.16591	1.23138	2.90371	1.26147
3462.000	3.18759	1.21150	2.87215	1.20589
3463.000	3.13832	1.15000	2.82285	1.10862
3464.000	3.16394	1.21351	2.84454	1.10860
3465.000	3.18956	1.19958	2.81693	1.13842
3466.000	3.17576	1.23931	2.88596	1.11650
3467.000	3.16985	1.17181	2.88990	1.22375
3468.000	3.16000	1.17579	2.84849	1.15229
3469.000	3.14817	1.19367	2.93920	1.18199
3470.000	3.14226	1.18375	2.90765	1.18798
3471.000	3.13043	1.18575	2.91948	1.12442
3472.000	3.15408	1.15793	2.81496	1.17219
3473.000	3.16000	1.20756	2.83271	1.13245
3474.000	3.14423	1.17978	2.80313	1.16823
3475.000	3.15605	1.25919	2.81496	1.18013
3476.000	3.12452	1.15399	2.84652	1.16421
3477.000	3.12058	1.17584	2.81102	1.22582
3478.000	3.10678	1.18181	2.83271	1.17813
3479.000	3.12649	1.19568	2.87807	1.17808
3480.000	3.11269	1.21159	2.84454	1.15031
3481.000	3.06538	1.18980	2.81496	1.11260
3482.000	3.12452	1.20760	2.84060	1.21387
3483.000	3.13832	1.19369	2.86821	1.19597
3484.000	3.15408	1.21352	2.90173	1.16217
3485.000	3.12058	1.23143	2.86624	1.15823
3486.000	3.11269	1.18974	2.85441	1.23570
3487.000	3.11860	1.18179	2.82285	1.19800
3488.000	3.13240	1.19369	2.90173	1.23367
3489.000	3.11269	1.21953	2.87018	1.18206
3490.000	3.13634	1.19964	2.87018	1.22377
3491.000	3.12058	1.20363	2.83271	1.17217
3492.000	3.13240	1.21156	2.80707	1.20795
3493.000	3.11860	1.18577	2.85243	1.15626
3494.000	3.13043	1.19767	2.88201	1.10658
3495.000	3.13240	1.16391	2.87018	1.17213
3496.000	3.15408	1.14800	2.82680	1.14636
3497.000	3.13240	1.16589	2.82482	1.19998
3498.000	3.10875	1.16393	2.77552	1.15435
3499.000	3.10086	1.17189	2.86032	1.19399
3500.000	3.09692	1.16990	2.86229	1.18803
3501.000	3.12649	1.14009	2.85638	1.16222
3502.000	3.10283	1.15004	2.86229	1.17015
3503.000	3.11269	1.14407	2.81891	1.17616
3504.000	3.14029	1.15596	2.80313	1.14638
3505.000	3.11269	1.15996	2.85046	1.23173
3506.000	3.14817	1.18176	2.88004	1.19993
3507.000	3.14423	1.19566	2.79327	1.24173
3508.000	3.12452	1.18377	2.87018	1.16816
3509.000	3.16591	1.18571	2.96286	1.14026
3510.000	3.09298	1.14211	2.86032	1.13639
3511.000	3.16591	1.19365	2.84257	1.11059
3512.000	3.14029	1.18773	2.80116	1.15433
3513.000	3.14817	1.18573	2.94511	1.15617
3514.000	3.16985	1.19961	2.82482	1.14238
3515.000	3.15803	1.17381	2.89779	1.10855
3516.000	3.14817	1.15198	2.78538	1.13249
3517.000	3.14620	1.17382	2.84257	1.12648
3518.000	3.17182	1.13011	2.76763	1.16628
3519.000	3.15803	1.16189	2.83271	1.21388
3520.000	3.16788	1.19961	2.86624	1.18405
3521.000	3.16394	1.15593	2.81891	1.17616
3522.000	3.16985	1.17181	2.84257	1.13045
3523.000	3.14029	1.11227	2.79524	1.14837
3524.000	3.16394	1.19167	2.90173	1.18600
3525.000	3.15803	1.16785	2.83271	1.17217
3526.000	3.14817	1.14801	2.84060	1.12449
3527.000	3.15211	1.14204	2.88004	1.18404
3528.000	3.19350	1.17178	2.88596	1.23170
3529.000	3.17182	1.15989	2.86427	1.19001
3530.000	3.15014	1.13013	2.89779	1.14231
3531.000	3.15803	1.11821	2.82088	1.15431
3532.000	3.16197	1.15593	2.93131	1.14625
3533.000	3.13240	1.11625	2.82877	1.15231
3534.000	3.15605	1.12218	2.85243	1.16421
3535.000	3.10875	1.11429	2.89187	1.16417
3536.000	3.13043	1.10037	2.79721	1.07686
3537.000	3.14226	1.11227	2.84454	1.13045
3538.000	3.09298	1.16395	2.84257	1.19997
3539.000	3.13240	1.13809	2.86229	1.17214
3540.000	3.13634	1.14405	2.83271	1.12847
3541.000	3.16985	1.16188	2.91554	1.15818
3542.000	3.17971	1.16584	2.82680	1.15430
3543.000	3.18759	1.17179	2.87215	1.08871
3544.000	3.14817	1.16389	2.83863	1.17614
3545.000	3.18168	1.19364	2.81891	1.14636
3546.000	3.11466	1.17981	2.89779	1.18203
3547.000	3.17379	1.17180	2.82088	1.13246
3548.000	3.17774	1.19165	2.90568	1.13833
3549.000	3.13634	1.11823	2.87807	1.20390
3550.000	3.18168	1.16782	2.90568	1.13039
3551.000	3.13240	1.11824	2.86229	1.15228
3552.000	3.10283	1.14210	2.88201	1.09665
3553.000	3.13437	1.12022	2.86032	1.12050
3554.000	3.11269	1.15003	2.90568	1.11251
3555.000	3.13832	1.15000	2.88596	1.13835
3556.000	3.14423	1.15992	2.88990	1.14828
3557.000	3.10283	1.07260	2.86624	1.11056
3558.000	3.11663	1.12421	2.83468	1.07286
3559.000	3.13043	1.15994	2.88596	1.21382
3560.000	3.13043	1.11427	2.82482	1.12451
3561.000	3.14226	1.15794	2.87610	1.04501
3562.000	3.14423	1.12617	2.77749	1.12853
3563.000	3.14029	1.09440	2.88201	1.07877
3564.000	3.14817	1.12021	2.89187	1.16615
3565.000	3.15408	1.13410	2.88990	1.15424
3566.000	3.11269	1.08450	2.84257	1.16422
3567.000	3.13437	1.13412	2.88596	1.17013
3568.000	3.07721	1.07659	2.93328	1.12639
3569.000	3.13634	1.10433	2.87018	1.17213
3570.000	3.10481	1.08848	2.93723	1.20582
3571.000	3.12255	1.11229	2.91554	1.13634
3572.000	3.09298	1.06466	2.86821	1.09865
3573.000	3.14029	1.07851	2.89976	1.16217
3574.000	3.14620	1.11624	2.77946	1.15236
3575.000	3.11860	1.10634	2.85835	1.18803
3576.000	3.11860	1.11627	2.85835	1.15427
3577.000	3.15408	1.13211	2.84652	1.11456
3578.000	3.13240	1.05867	2.93328	1.16015
3579.000	3.12846	1.10037	2.83863	1.07682
3580.000	3.15014	1.08049	2.90765	1.10258
3581.000	3.15014	1.10630	2.84257	1.10066
3582.000	3.14817	1.11822	2.90568	1.09662
3583.000	3.16788	1.10430	2.86427	1.15228
3584.000	3.15014	1.04872	2.90962	1.12443
3585.000	3.15014	1.13808	2.88004	1.07083
3586.000	3.15211	1.11425	2.93723	1.08468
3587.000	3.16591	1.07849	2.81299	1.08678
3588.000	3.15803	1.13012	2.89582	1.07677
3589.000	3.14226	1.08248	2.89385	1.07479
3590.000	3.17576	1.14202	2.82482	1.07088
3591.000	3.19744	1.10030	2.91554	1.11846
3592.000	3.17576	1.10231	2.95300	1.17205
3593.000	3.19153	1.11420	2.87018	1.11255
3594.000	3.14226	1.10234	2.89582	1.14430
3595.000	3.13634	1.06065	2.89779	1.04896
3596.000	3.14226	1.09440	2.92737	1.09859
3597.000	3.17379	1.12812	2.82482	1.16026
3598.000	3.13437	1.08249	2.90962	1.09463
3599.000	3.18365	1.09435	2.93131	1.14426
3600.000	3.14029	1.05667	2.92540	1.12242
3601.000	3.15803	1.09835	2.96286	1.11047
3602.000	3.16394	1.08246	2.91159	1.12442
3603.000	3.17576	1.09238	2.92540	1.15619
3604.000	3.16788	1.10033	2.90568	1.05690
3605.000	3.16788	1.12019	2.84652	1.06689
3606.000	3.20927	1.12808	2.85441	1.08873
3607.000	3.14029	1.11426	2.84454	1.07483
3608.000	3.13634	1.14008	2.84849	1.06490
3609.000	3.15803	1.09438	2.83666	1.13840
3610.000	3.16000	1.14005	2.92145	1.06086
3611.000	3.12649	1.06860	2.89385	1.13239
3612.000	3.13832	1.10235	2.85441	1.11653
3613.000	3.14817	1.09439	2.85441	1.05893
3614.000	3.16000	1.08644	2.81299	1.17219
3615.000	3.14029	1.12220	2.93920	1.07077
3616.000	3.17971	1.12017	2.89779	1.15423
3617.000	3.15211	1.09240	2.92342	1.12441
3618.000	3.12846	1.08846	2.89582	1.13238
3619.000	3.13634	1.08845	2.88793	1.12047
3620.000	3.16000	1.09835	2.90371	1.10457
3621.000	3.14817	1.13212	2.87215	1.08077
3622.000	3.18562	1.10428	2.94117	1.11645
3623.000	3.17182	1.14004	2.84454	1.09668
3624.000	3.18759	1.12215	2.88201	1.13637
3625.000	3.13634	1.10433	2.90371	1.10060
3626.000	3.19744	1.10625	2.90962	1.17408
3627.000	3.14029	1.13014	2.90173	1.10854
3628.000	3.14817	1.09439	2.91357	1.14627
3629.000	3.19153	1.10626	2.91357	1.11449
3630.000	3.15408	1.09637	2.86229	1.02317
3631.000	3.17774	1.04869	2.85835	1.10461
3632.000	3.12058	1.04080	2.90765	1.18202
3633.000	3.19350	1.08442	2.95300	1.10055
3634.000	3.14817	1.11028	2.91357	1.14230
3635.000	3.15803	1.09637	3.00032	1.04887
3636.000	3.17379	1.09437	2.89582	1.12047
3637.000	3.17182	1.09040	2.92934	1.03900
3638.000	3.17182	1.06657	2.89582	1.11451
3639.000	3.14817	1.07056	2.90173	1.09464
3640.000	3.14817	1.10035	2.93526	1.11447
3641.000	3.15408	1.09439	2.89187	1.09664
3642.000	3.13437	1.04476	2.84257	1.13045
3643.000	3.17774	1.11620	2.89385	1.10657
3644.000	3.15803	1.10232	2.90962	1.07477
3645.000	3.14620	1.08645	2.90962	1.14230
3646.000	3.14817	1.11425	2.84060	1.11059
3647.000	3.14620	1.12617	2.84849	1.09866
3648.000	3.10875	1.08649	2.92342	1.04894
3649.000	3.15605	1.07850	2.92540	1.09065
3650.000	3.15211	1.10630	2.88399	1.10459
3651.000	3.16394	1.07253	2.97272	1.14025
3652.000	3.17774	1.13209	2.95300	1.09260
3653.000	3.14029	1.05469	2.88793	1.06685
3654.000	3.20927	1.09830	2.90962	1.05491
3655.000	3.11663	1.06662	2.84060	1.08477
3656.000	3.13832	1.09440	2.87610	1.08275
3657.000	3.12649	1.03286	2.90765	1.12045
3658.000	3.12846	1.06065	2.89976	1.09663
3659.000	3.17576	1.07252	2.88399	1.06288
3660.000	3.18562	1.06655	2.89976	1.10457
3661.000	3.16197	1.07452	2.83271	1.09669
3662.000	3.16985	1.07650	2.90371	1.16018
3663.000	3.12255	1.05073	2.87215	1.14830
3664.000	3.14226	1.07454	2.87215	1.15425
3665.000	3.13043	1.08051	2.81299	1.22780
3666.000	3.17182	1.06657	2.88399	1.19595
3667.000	3.13832	1.01299	2.85441	1.19201
3668.000	3.15014	1.06460	2.87807	1.15028
3669.000	3.10481	1.03685	2.88793	1.12445
3670.000	3.11269	1.05273	2.91357	1.11648
3671.000	3.11860	1.04676	2.95300	1.19786
3672.000	3.04764	1.05081	2.88990	1.13636
3673.000	3.06538	1.02299	2.84652	1.12647
3674.000	3.06932	1.03093	2.88793	1.09267
3675.000	3.02989	0.99124	3.02201	1.14616
3676.000	3.08115	1.00510	2.91751	1.11846
3677.000	3.05158	0.98526	2.86821	1.10659
3678.000	3.11072	1.03287	2.93920	1.16213
3679.000	3.12255	0.99116	2.97863	1.11641
3680.000	3.12058	1.02889	2.92934	1.14029
3681.000	3.10283	1.03288	2.90765	1.15620
3682.000	3.05947	1.00710	2.94906	1.19985
3683.000	3.06932	1.00312	2.97272	1.17600
3684.000	3.10481	0.96337	2.91554	1.19393
3685.000	3.09101	1.02296	2.93723	1.16015
3686.000	3.09889	0.98323	2.88990	1.18403
3687.000	3.09889	1.00309	2.93328	1.14228
3688.000	3.12846	0.98122	2.92342	1.11249
3689.000	3.08509	0.98126	2.94709	1.16411
3690.000	3.10875	1.00110	2.90173	1.15422
3691.000	3.13437	1.01895	2.86229	1.09865
3692.000	3.14620	1.04078	2.93920	1.14823
3693.000	3.13240	0.99710	2.93920	1.16412
3694.000	3.11269	0.96336	2.98652	1.14421
3695.000	3.10678	1.00507	2.99638	1.11441
3696.000	3.08904	1.02296	2.94511	1.16212
3697.000	3.09101	1.00707	2.85835	1.13043
3698.000	2.98652	1.03696	2.83074	1.08279
3699.000	2.93131	0.97743	2.74987	1.04115
3700.000	2.82285	0.96163	2.61573	1.03332
3701.000	2.73212	0.92793	2.58811	0.97175
3702.000	2.56641	0.86845	2.43815	0.92218
3703.000	2.36118	0.76921	2.29407	0.84676
3704.000	2.12430	0.67194	2.12628	0.76337
3705.000	1.94067	0.60840	2.00781	0.67596
3706.000	1.67602	0.53889	1.65824	0.60252
3707.000	1.46859	0.42161	1.61873	0.52499
3708.000	1.24532	0.33016	1.49625	0.46337
3709.000	1.03979	0.22278	1.28088	0.36198
3710.000	0.89156	0.12731	1.18801	0.24465
3711.000	0.79273	0.04177	1.11489	0.25858
3712.000	0.74529	-0.03382	1.07339	0.15714
3713.000	0.70180	-0.12731	1.00421	0.03580
3714.000	0.72552	-0.16909	1.00026	-0.06564
3715.000	0.74133	-0.25065	1.01014	-0.00597
3716.000	0.84807	-0.23870	1.13860	0.00995
3717.000	0.91725	-0.31827	1.12279	-0.13724
3718.000	1.07141	-0.26654	1.16034	-0.08354
3719.000	1.15046	-0.27846	1.26903	-0.09547
3720.000	1.26705	-0.27447	1.27496	-0.11536
3721.000	1.38956	-0.17900	1.33819	-0.09547
3722.000	1.52589	-0.14518	1.45674	-0.03580
3723.000	1.67009	-0.14119	1.52786	0.03779
3724.000	1.75898	-0.07159	1.58910	0.04972
3725.000	1.85378	-0.02784	1.71750	0.08750
3726.000	1.93672	0.02585	1.72343	0.14715
3727.000	1.99991	0.08947	1.74910	0.13920
3728.000	2.02756	0.09146	1.83206	0.13124
3729.000	2.02361	0.08947	1.83008	0.18293
3730.000	2.03941	0.13718	1.81823	0.23066
3731.000	2.02558	0.17496	1.88933	0.17696
3732.000	2.01176	0.19087	1.88341	0.18691
3733.000	1.96042	0.19684	1.81626	0.23861
3734.000	1.91105	0.18491	1.78466	0.18692
3735.000	1.85181	0.17100	1.68787	0.19687
3736.000	1.81428	0.16902	1.68392	0.16505
3737.000	1.73133	0.13721	1.60688	0.16705
3738.000	1.69577	0.20482	1.52589	0.13722
3739.000	1.64244	0.10739	1.61478	0.08352
3740.000	1.61478	0.12528	1.45476	0.11336
3741.000	1.59700	0.13523	1.49625	0.14120
3742.000	1.54169	0.08750	1.46662	0.10541
3743.000	1.54564	0.07557	1.49823	0.19291
3744.000	1.53576	0.09944	1.43105	0.11336
3745.000	1.55749	0.09546	1.45279	0.08751
3746.000	1.56342	0.02784	1.51403	0.12529
3747.000	1.56145	0.03182	1.43105	0.10342
3748.000	1.52589	0.02386	1.57330	0.09347
3749.000	1.60293	0.03580	1.48835	0.12728
3750.000	1.54959	0.03779	1.49230	0.05171
3751.000	1.56145	0.03580	1.41525	0.08552
3752.000	1.58713	-0.01790	1.49230	0.07955
3753.000	1.55552	-0.00199	1.40142	0.10143
3754.000	1.58713	0.03381	1.47847	0.03580
3755.000	1.52193	-0.01989	1.48440	0.04972
3756.000	1.56342	-0.02188	1.39549	0.04972
3757.000	1.57923	-0.03778	1.45871	0.04574
3758.000	1.58515	-0.02585	1.51996	0.08552
3759.000	1.58318	-0.04773	1.48440	0.01591
3760.000	1.62861	-0.03778	1.44291	0.05569
3761.000	1.58318	-0.09943	1.43500	0.07557
3762.000	1.59898	-0.03580	1.54169	0.00398
3763.000	1.61676	-0.04375	1.54762	0.08353
3764.000	1.61281	-0.04375	1.52589	0.02983
3765.000	1.64441	0.00597	1.55354	0.12131
3766.000	1.61873	-0.05568	1.51996	0.05171
3767.000	1.60688	-0.06563	1.52786	0.07159
3768.000	1.69380	-0.04176	1.51601	0.09347
3769.000	1.63454	-0.08750	1.52984	0.04773
3770.000	1.67009	-0.06562	1.51008	0.08353
3771.000	1.66812	-0.04375	1.55947	0.11534
3772.000	1.61083	-0.06165	1.55552	0.13722
3773.000	1.63059	-0.05568	1.51206	0.08552
3774.000	1.64441	-0.08153	1.47649	0.12927
3775.000	1.63256	-0.04375	1.51403	0.05370
3776.000	1.60886	-0.01790	1.54564	0.09347
3777.000	1.62861	-0.02187	1.43896	0.13325
3778.000	1.62269	-0.06761	1.42710	0.03779
3779.000	1.66812	-0.02187	1.48045	0.11336
3780.000	1.61873	-0.02784	1.53774	0.06961
3781.000	1.63651	-0.03381	1.47254	0.09148
3782.000	1.62664	-0.05369	1.48440	0.10143
3783.000	1.62269	-0.05170	1.55354	0.11534
3784.000	1.63059	-0.04773	1.51798	0.10143
3785.000	1.61083	0.00994	1.41525	0.08552
3786.000	1.64046	0.01193	1.48637	0.14120
3787.000	1.65232	0.01790	1.44488	0.06364
3788.000	1.65232	-0.02784	1.49823	0.11336
3789.000	1.63651	-0.05966	1.52984	0.09347
3790.000	1.62466	-0.04972	1.52984	0.12330
3791.000	1.62269	-0.03381	1.46464	0.12529
3792.000	1.64639	-0.00994	1.42117	0.05171
3793.000	1.61478	-0.04176	1.48637	0.07358
3794.000	1.64441	-0.02187	1.46464	0.07955
3795.000	1.67602	-0.03977	1.50810	0.07358
3796.000	1.61083	-0.04574	1.48045	0.18098
3797.000	1.61873	-0.00795	1.54169	0.06563
3798.000	1.69182	-0.02585	1.48835	0.07358
3799.000	1.64837	-0.02585	1.52984	0.10143
3800.000	1.62071	-0.00597	1.53379	0.07159
3801.000	1.64639	0.01989	1.52786	0.12927
3802.000	1.61083	-0.03381	1.56342	0.06165
3803.000	1.60293	-0.01790	1.45081	0.02585
3804.000	1.60293	-0.03778	1.42710	0.11137
3805.000	1.57330	-0.03779	1.48242	0.06762
3806.000	1.60491	-0.01989	1.43500	0.11336
3807.000	1.61281	-0.01591	1.50810	0.15711
3808.000	1.67009	-0.04971	1.51996	0.06563
3809.000	1.61083	-0.02983	1.47254	0.08552
3810.000	1.63651	-0.02386	1.54564	0.09148
3811.000	1.60688	-0.03778	1.48242	0.14120
3812.000	1.63454	-0.03778	1.48242	0.15313
3813.000	1.67207	-0.04574	1.50415	0.11137
3814.000	1.66219	-0.05568	1.46662	0.07160
3815.000	1.64441	-0.01193	1.56540	0.11336
3816.000	1.66614	-0.03778	1.46464	0.07557
3817.000	1.68195	-0.00795	1.53971	0.11535
3818.000	1.63651	-0.05170	1.51403	0.03977
3819.000	1.64244	-0.02585	1.44291	0.09347
3820.000	1.65627	-0.01790	1.55354	0.09944
3821.000	1.63059	-0.01989	1.46662	0.06961
3822.000	1.60491	-0.03182	1.43303	0.12132
3823.000	1.65034	-0.01392	1.50020	0.04773
3824.000	1.64244	-0.02187	1.54564	0.11336
3825.000	1.65034	-0.01591	1.47254	0.11933
3826.000	1.65232	-0.01392	1.54564	0.04375
3827.000	1.64837	-0.06960	1.48637	0.07756
3828.000	1.63651	-0.03977	1.47254	0.11137
3829.000	1.65627	-0.03977	1.54564	0.08750
3830.000	1.61676	-0.03580	1.52786	0.05568
3831.000	1.65627	-0.03381	1.48242	0.11933
3832.000	1.65034	-0.06165	1.48637	0.01989
3833.000	1.66219	0.00000	1.52193	0.15313
3834.000	1.65429	-0.07159	1.52786	0.13722
3835.000	1.61083	-0.04176	1.52193	0.02386
3836.000	1.66022	-0.00994	1.55552	0.10739
3837.000	1.58515	-0.03580	1.48835	0.16904
3838.000	1.61281	-0.05767	1.47452	0.10143
3839.000	1.63651	-0.03778	1.50415	0.14916
3840.000	1.61873	-0.00795	1.47254	0.16308
3841.000	1.64244	0.00597	1.56145	0.11932
3842.000	1.63059	-0.05767	1.51601	0.08154
3843.000	1.63849	-0.02187	1.48835	0.09745
3844.000	1.64046	-0.06960	1.55749	0.09546
3845.000	1.59700	-0.06563	1.54564	0.08949
3846.000	1.59898	-0.04972	1.45081	0.11535
3847.000	1.63256	-0.02187	1.50415	0.09546
3848.000	1.61281	-0.05966	1.52193	0.10540
3849.000	1.61083	-0.08352	1.48440	0.10143
3850.000	1.58713	-0.11932	1.52193	0.16904
3851.000	1.60688	-0.01989	1.55354	0.11932
3852.000	1.61676	-0.08352	1.50415	0.09546
3853.000	1.63849	-0.05369	1.52786	0.14717
3854.000	1.61478	-0.06165	1.53379	0.12927
3855.000	1.64639	-0.04375	1.50415	0.10739
3856.000	1.64046	-0.06364	1.51008	0.15910
3857.000	1.62071	-0.05767	1.50415	0.09944
3858.000	1.64046	-0.07159	1.54367	0.18495
3859.000	1.64244	-0.04972	1.49230	0.08552
3860.000	1.65429	-0.04972	1.55749	0.14716
3861.000	1.65232	-0.08153	1.55157	0.15512
3862.000	1.64441	-0.04176	1.54367	0.16904
3863.000	1.66614	-0.09346	1.53379	0.12728
3864.000	1.63059	-0.10540	1.51798	0.09148
3865.000	1.61478	-0.04972	1.46859	0.05966
3866.000	1.62269	-0.08153	1.54169	0.15711
3867.000	1.65034	-0.01790	1.55157	0.12131
3868.000	1.58515	-0.06364	1.51403	0.13921
3869.000	1.65034	-0.13920	1.47254	0.13126
3870.000	1.62269	-0.07756	1.50415	0.13325
3871.000	1.61281	-0.05767	1.47847	0.14319
3872.000	1.62071	-0.07358	1.50613	0.14120
3873.000	1.60886	-0.07358	1.47254	0.11933
3874.000	1.60096	-0.08551	1.49823	0.12330
3875.000	1.62664	-0.11733	1.49032	0.06961
3876.000	1.65034	-0.09346	1.52786	0.08154
3877.000	1.63256	-0.07358	1.48045	0.15711
3878.000	1.68392	-0.08551	1.51996	0.08552
3879.000	1.69182	-0.09943	1.52984	0.05370
3880.000	1.62071	-0.10938	1.51601	0.07557
3881.000	1.62861	-0.06960	1.47847	0.16507
3882.000	1.64046	-0.12329	1.51403	0.15313
3883.000	1.64244	-0.09148	1.53971	0.15910
3884.000	1.64837	-0.10937	1.52589	0.10938
3885.000	1.66417	-0.06364	1.47254	0.10739
3886.000	1.64639	-0.10739	1.47254	0.14717
3887.000	1.65232	-0.11932	1.51206	0.12330
3888.000	1.67404	-0.09147	1.43500	0.09745
3889.000	1.67207	-0.05369	1.44093	0.09149
3890.000	1.65232	-0.06165	1.46464	0.13723
3891.000	1.67404	-0.12727	1.51601	0.07955
3892.000	1.65034	-0.12926	1.54367	0.07955
3893.000	1.66417	-0.08352	1.53774	-0.00795
3894.000	1.67997	-0.10341	1.52391	0.14319
3895.000	1.64244	-0.10540	1.51601	0.07557
3896.000	1.66812	-0.11534	1.52786	0.07557
3897.000	1.67404	-0.08949	1.49625	0.10540
3898.000	1.69182	-0.08153	1.47649	0.11336
3899.000	1.67009	-0.09744	1.46266	0.07955
3900.000	1.64441	-0.07358	1.42315	0.06762
3901.000	1.64837	-0.11534	1.48045	0.08154
3902.000	1.63256	-0.09148	1.44488	0.10938
3903.000	1.65627	-0.09943	1.46662	0.15115
3904.000	1.63849	-0.07954	1.51403	0.09148
3905.000	1.65232	-0.08949	1.50613	0.13325
3906.000	1.67997	-0.10539	1.50218	0.12927
3907.000	1.67404	-0.08551	1.52193	0.06165
3908.000	1.63059	-0.15312	1.55157	0.06762
3909.000	1.64441	-0.10937	1.56737	0.14120
3910.000	1.65034	-0.10738	1.54169	0.04773
3911.000	1.66219	-0.13125	1.49625	0.07358
3912.000	1.68392	-0.10539	1.49625	0.12131
3913.000	1.61281	-0.14318	1.50218	0.09148
