time (ms)	lx (deg)	ly (deg)	rx (deg)	ry (deg)
0.000	-0.39737	-1.97269	-0.18979	-1.90914
1.000	-0.35981	-1.94687	-0.16804	-1.92107
2.000	-0.34795	-1.89918	-0.16409	-1.91908
3.000	-0.38946	-1.94289	-0.11664	-1.97870
4.000	-0.38946	-1.95481	-0.16607	-1.96876
5.000	-0.40726	-1.94885	-0.17002	-1.92703
6.000	-0.34597	-1.99258	-0.18386	-1.92703
7.000	-0.36376	-1.98264	-0.15816	-1.90716
8.000	-0.37760	-1.94488	-0.06326	-1.92505
9.000	-0.37167	-1.96078	-0.11862	-1.97870
10.000	-0.36772	-1.93693	-0.14432	-2.02638
11.000	-0.37365	-1.98462	-0.25305	-1.94292
12.000	-0.35388	-1.93296	-0.13839	-1.98267
13.000	-0.39144	-1.96475	-0.16607	-1.96876
14.000	-0.37958	-1.96276	-0.17991	-2.03035
15.000	-0.34795	-1.99456	-0.14630	-1.94492
16.000	-0.36179	-1.95482	-0.08303	-1.97473
17.000	-0.40330	-1.96474	-0.13048	-1.99857
18.000	-0.36179	-1.98264	-0.17595	-1.95485
19.000	-0.36574	-1.95283	-0.14432	-1.91511
20.000	-0.42900	-1.93891	-0.19968	-1.94292
21.000	-0.35981	-2.01046	-0.15223	-1.93895
22.000	-0.39539	-1.97468	-0.14432	-1.94293
23.000	-0.37760	-1.97270	-0.16409	-1.88927
24.000	-0.36772	-1.96873	-0.20363	-1.93497
25.000	-0.36179	-1.97668	-0.15816	-1.92504
26.000	-0.36574	-1.97866	-0.15421	-1.95684
27.000	-0.36772	-1.95283	-0.11269	-1.95287
28.000	-0.36179	-1.96475	-0.16607	-1.95088
29.000	-0.35388	-1.94687	-0.13839	-1.93299
30.000	-0.36574	-1.95084	-0.09490	-1.95883
31.000	-0.34597	-1.93296	-0.14037	-1.93498
32.000	-0.35981	-1.98462	-0.07710	-1.97870
33.000	-0.34202	-1.95681	-0.14234	-1.88927
34.000	-0.35586	-1.94886	-0.13839	-1.93101
35.000	-0.38156	-1.92898	-0.12455	-1.88530
36.000	-0.36772	-1.94289	-0.07117	-1.95684
37.000	-0.37958	-1.95680	-0.14827	-1.88132
38.000	-0.34202	-1.92700	-0.14432	-1.94492
39.000	-0.39144	-1.93494	-0.14827	-1.87536
40.000	-0.35783	-1.97469	-0.14037	-1.92504
41.000	-0.33609	-1.95085	-0.21945	-1.90715
42.000	-0.33213	-1.97470	-0.12455	-1.91710
43.000	-0.35783	-1.98463	-0.05338	-1.90915
44.000	-0.34795	-1.92899	-0.13839	-1.91908
45.000	-0.33213	-1.94489	-0.11269	-1.88331
46.000	-0.35586	-1.96873	-0.09094	-1.94492
47.000	-0.36376	-1.96873	-0.23526	-1.89920
48.000	-0.33609	-1.97867	-0.17595	-1.87536
49.000	-0.35783	-1.94687	-0.19968	-1.92504
50.000	-0.37167	-1.93296	-0.18386	-1.93895
51.000	-0.35586	-1.92899	-0.14432	-1.87139
52.000	-0.38551	-1.97071	-0.18188	-1.90318
53.000	-0.35783	-1.94091	-0.08501	-1.89921
54.000	-0.35190	-1.95879	-0.10478	-1.93896
55.000	-0.41714	-1.97865	-0.12455	-1.93896
56.000	-0.35981	-1.94886	-0.15025	-1.88530
57.000	-0.35981	-1.94687	-0.19375	-1.93100
58.000	-0.34597	-1.90316	-0.15618	-1.89921
59.000	-0.34993	-1.91905	-0.09687	-1.87537
60.000	-0.37365	-1.94289	-0.17200	-1.92107
61.000	-0.34399	-1.93893	-0.17991	-1.94094
62.000	-0.33411	-1.95482	-0.14037	-1.86344
63.000	-0.36969	-1.95879	-0.09490	-1.92703
64.000	-0.37760	-1.94289	-0.12455	-1.94293
65.000	-0.35586	-1.97866	-0.11467	-1.86344
66.000	-0.34795	-1.95085	-0.16211	-1.93697
67.000	-0.35586	-1.90713	-0.12455	-1.95485
68.000	-0.36179	-1.95482	-0.23526	-1.95882
69.000	-0.38749	-1.94885	-0.17200	-1.94889
70.000	-0.34202	-1.98264	-0.16014	-1.97273
71.000	-0.32422	-1.96874	-0.14630	-1.97075
72.000	-0.33411	-1.95482	-0.12257	-1.94094
73.000	-0.34004	-1.93495	-0.18979	-1.94690
74.000	-0.34004	-1.93694	-0.16804	-1.99459
75.000	-0.35190	-1.95482	-0.17002	-1.94293
76.000	-0.35190	-1.98661	-0.12257	-1.89524
77.000	-0.35190	-1.92501	-0.15025	-1.92306
78.000	-0.36969	-1.91110	-0.11862	-1.97274
79.000	-0.35190	-1.94489	-0.14234	-1.93498
80.000	-0.34202	-1.92303	-0.16804	-1.93498
81.000	-0.34795	-1.91905	-0.19968	-1.98465
82.000	-0.36772	-1.94687	-0.13839	-1.93895
83.000	-0.37365	-1.94687	-0.21549	-1.92901
84.000	-0.35190	-1.95879	-0.18188	-1.94094
85.000	-0.34795	-1.93495	-0.24119	-1.95683
86.000	-0.37760	-1.92700	-0.12257	-1.88331
87.000	-0.33411	-1.84950	-0.12653	-1.83164
88.000	-0.37365	-1.74416	-0.11071	-1.70245
89.000	-0.33609	-1.70044	-0.08897	-1.59511
90.000	-0.31039	-1.52750	-0.12653	-1.54343
91.000	-0.24317	-1.36846	-0.10083	-1.38040
92.000	-0.20165	-1.19149	-0.08501	-1.27303
93.000	-0.14630	-1.04831	-0.03559	-1.05229
94.000	-0.04152	-0.79970	0.00791	-0.97473
95.000	-0.03163	-0.59283	-0.01779	-0.77384
96.000	0.04547	-0.41380	0.06722	-0.65251
97.000	0.08699	-0.24072	0.20561	-0.46750
98.000	0.08303	-0.09151	0.13246	-0.22679
99.000	0.09687	0.05570	0.09885	-0.21486
100.000	0.07908	0.15716	0.11071	-0.06764
101.000	0.08303	0.21685	0.09687	-0.01790
102.000	0.07513	0.22679	0.02175	0.02387
103.000	0.06524	0.24470	0.05931	0.00398
104.000	0.04745	0.17507	0.06920	-0.04178
105.000	0.00395	0.12136	0.01977	-0.16711
106.000	-0.00989	0.03183	0.03163	-0.17905
107.000	-0.08699	-0.01194	-0.00395	-0.21287
108.000	-0.12455	-0.15915	0.10874	-0.31831
109.000	-0.12060	-0.26658	0.03163	-0.49735
110.000	-0.13839	-0.37003	0.00791	-0.58090
111.000	-0.10874	-0.44761	0.07315	-0.62267
112.000	-0.17991	-0.56697	0.04349	-0.77384
113.000	-0.15421	-0.63460	0.04943	-0.78976
114.000	-0.12653	-0.68831	0.04745	-0.87926
115.000	-0.13839	-0.74798	0.07710	-0.89716
116.000	-0.14630	-0.78379	0.18386	-0.99064
117.000	-0.12850	-0.78180	0.14432	-0.94489
118.000	-0.10874	-0.78379	0.15816	-0.97473
119.000	-0.08106	-0.77185	0.16804	-0.88721
120.000	-0.10280	-0.80368	0.11862	-0.87727
121.000	-0.05733	-0.74600	0.11467	-0.89318
122.000	-0.11862	-0.70820	0.13246	-0.81362
123.000	-0.07315	-0.69229	0.16804	-0.83550
124.000	-0.00989	-0.62068	0.17595	-0.74798
125.000	-0.06326	-0.60874	0.16409	-0.73008
126.000	-0.03756	-0.57692	0.14432	-0.68035
127.000	-0.00989	-0.54111	0.11862	-0.68433
128.000	-0.03559	-0.50928	0.05733	-0.63460
129.000	-0.05140	-0.45159	0.12455	-0.60675
130.000	-0.07908	-0.49735	0.04943	-0.53116
131.000	-0.03361	-0.47944	0.05931	-0.46353
132.000	-0.05140	-0.42772	0.11467	-0.49735
133.000	-0.03756	-0.43369	0.06524	-0.57095
134.000	-0.01779	-0.44562	0.11862	-0.49933
135.000	-0.03756	-0.39589	0.00395	-0.49138
136.000	-0.00593	-0.41976	0.05338	-0.48541
137.000	-0.01582	-0.39788	0.11664	-0.53514
138.000	-0.02966	-0.42772	0.00989	-0.49337
139.000	0.00000	-0.41777	0.04547	-0.57891
140.000	0.00989	-0.39987	0.08106	-0.57095
141.000	-0.01977	-0.41380	0.01977	-0.50928
142.000	-0.00395	-0.38992	0.07908	-0.56299
143.000	0.00395	-0.37998	0.06722	-0.54509
144.000	-0.05338	-0.38992	0.09885	-0.54907
145.000	0.00593	-0.35809	0.06920	-0.49337
146.000	0.00000	-0.35610	0.08501	-0.55901
147.000	0.03559	-0.37202	0.06326	-0.53116
148.000	-0.03954	-0.38992	0.11071	-0.65052
149.000	0.01977	-0.40385	0.11664	-0.58686
150.000	-0.01186	-0.41181	0.06722	-0.64853
151.000	-0.01384	-0.39390	0.06524	-0.51724
152.000	-0.01186	-0.40186	0.04745	-0.60676
153.000	-0.01384	-0.36406	0.10874	-0.58686
154.000	-0.00593	-0.43369	0.10478	-0.63858
155.000	-0.03163	-0.38793	0.12653	-0.58885
156.000	-0.00989	-0.42971	0.13444	-0.63062
157.000	0.01186	-0.48143	0.05931	-0.53315
158.000	-0.01582	-0.45557	0.14234	-0.56299
159.000	-0.00593	-0.43170	0.09292	-0.56896
160.000	-0.04745	-0.40186	0.11269	-0.56697
161.000	-0.02372	-0.39987	0.10874	-0.62864
162.000	-0.05536	-0.43767	0.08897	-0.51923
163.000	-0.03559	-0.44562	0.13246	-0.54310
164.000	-0.05536	-0.43568	0.12455	-0.61073
165.000	-0.03559	-0.42573	0.09885	-0.54310
166.000	-0.03559	-0.43568	0.17002	-0.60277
167.000	-0.04943	-0.40584	0.12060	-0.49735
168.000	-0.00989	-0.42573	0.15025	-0.57890
169.000	-0.03756	-0.42374	0.06326	-0.49735
170.000	0.00198	-0.43170	0.09292	-0.53912
171.000	0.00395	-0.45358	0.14827	-0.54708
172.000	-0.02768	-0.41380	0.09292	-0.53116
173.000	-0.04745	-0.40385	0.12257	-0.50331
174.000	-0.00989	-0.42374	0.14432	-0.50530
175.000	-0.05733	-0.43170	0.16211	-0.48143
176.000	-0.05733	-0.44562	0.15223	-0.58885
177.000	-0.02372	-0.37600	0.15421	-0.54111
178.000	-0.02570	-0.41380	0.12060	-0.52718
179.000	-0.02570	-0.44960	0.13641	-0.51923
180.000	-0.03756	-0.42374	0.10083	-0.53315
181.000	-0.05931	-0.41578	0.13246	-0.57692
182.000	-0.01582	-0.42573	0.13246	-0.53514
183.000	-0.04745	-0.39589	0.13246	-0.49933
184.000	0.00395	-0.43767	0.06920	-0.55106
185.000	-0.06524	-0.41976	0.16607	-0.50729
186.000	-0.01977	-0.41181	0.11269	-0.52321
187.000	-0.01582	-0.40783	0.10874	-0.52122
188.000	-0.04745	-0.44562	0.13444	-0.52718
189.000	-0.01582	-0.44364	0.14234	-0.55503
190.000	-0.03954	-0.44562	0.01779	-0.57692
191.000	-0.04152	-0.40385	0.19572	-0.53315
192.000	-0.03361	-0.41181	0.08501	-0.50928
193.000	-0.02372	-0.36207	0.15618	-0.53912
194.000	-0.00989	-0.38594	0.12257	-0.54111
195.000	-0.00989	-0.40385	0.17398	-0.55304
196.000	0.00395	-0.37003	0.12257	-0.49933
197.000	-0.00593	-0.42573	0.12653	-0.58089
198.000	-0.04943	-0.42573	0.10280	-0.54310
199.000	-0.02570	-0.39589	0.09490	-0.55503
200.000	-0.00593	-0.41976	0.12455	-0.50928
201.000	-0.02175	-0.41777	0.09094	-0.51724
202.000	-0.00198	-0.41181	0.12850	-0.50132
203.000	-0.02966	-0.43369	0.14037	-0.48740
204.000	0.00000	-0.38197	0.16409	-0.47745
205.000	-0.00791	-0.43767	0.10280	-0.51724
206.000	0.01582	-0.39987	0.13246	-0.46353
207.000	-0.00989	-0.39191	0.12653	-0.48143
208.000	-0.02570	-0.39589	0.16211	-0.53315
209.000	0.03756	-0.42374	0.09490	-0.41777
210.000	-0.02175	-0.41976	0.06920	-0.50132
211.000	0.01186	-0.39987	0.10083	-0.42374
212.000	0.01384	-0.43170	0.13444	-0.46353
213.000	-0.00198	-0.42772	0.23922	-0.53912
214.000	0.02372	-0.43369	0.10874	-0.48143
215.000	0.00593	-0.46154	0.13048	-0.48143
216.000	0.01779	-0.39390	0.13048	-0.49735
217.000	0.01384	-0.41777	0.09885	-0.51326
218.000	-0.01977	-0.44165	0.08303	-0.51525
219.000	-0.02966	-0.44165	0.17991	-0.55503
220.000	0.04349	-0.40385	0.13048	-0.47745
221.000	0.01779	-0.44364	0.13444	-0.49337
222.000	0.04943	-0.42374	0.14037	-0.47546
223.000	0.05733	-0.40385	0.06326	-0.44761
224.000	0.01384	-0.43369	0.16607	-0.48143
225.000	-0.00593	-0.42772	0.15816	-0.47944
226.000	0.02966	-0.44761	0.13246	-0.53116
227.000	-0.00395	-0.45358	0.16804	-0.47546
228.000	-0.01384	-0.46751	0.11269	-0.45756
229.000	-0.00791	-0.42175	0.15223	-0.41777
230.000	0.04152	-0.43369	0.14432	-0.54907
231.000	0.03361	-0.40783	0.18781	-0.52917
232.000	0.00000	-0.42573	0.13839	-0.42971
233.000	0.02175	-0.40186	0.14234	-0.47745
234.000	0.03163	-0.43767	0.12653	-0.45557
235.000	0.01582	-0.43170	0.19770	-0.44960
236.000	-0.01384	-0.40982	0.13048	-0.49337
237.000	0.04745	-0.41976	0.14630	-0.49933
238.000	0.02175	-0.44364	0.17398	-0.52519
239.000	0.03361	-0.39589	0.20956	-0.59283
240.000	0.03954	-0.44562	0.14037	-0.49735
241.000	0.02570	-0.45557	0.10478	-0.48939
242.000	0.03954	-0.46751	0.14432	-0.50729
243.000	0.02372	-0.42573	0.10676	-0.46154
244.000	0.06129	-0.40584	0.17200	-0.52122
245.000	0.03559	-0.48143	0.21747	-0.49138
246.000	0.03163	-0.43170	0.19177	-0.47347
247.000	0.00989	-0.44761	0.17991	-0.40981
248.000	0.04349	-0.44960	0.14827	-0.48342
249.000	0.02966	-0.42175	0.18386	-0.46353
250.000	0.02570	-0.42971	0.18979	-0.53116
251.000	0.03163	-0.45159	0.13444	-0.47944
252.000	0.03361	-0.42772	0.20363	-0.40186
253.000	0.04547	-0.42772	0.09885	-0.46154
254.000	0.01186	-0.41777	0.16409	-0.48541
255.000	0.01384	-0.42374	0.13444	-0.45756
256.000	0.02372	-0.42772	0.19177	-0.42772
257.000	0.02372	-0.38992	0.14630	-0.48143
258.000	0.02175	-0.45159	0.12257	-0.46353
259.000	0.01186	-0.41777	0.07117	-0.45955
260.000	0.08699	-0.39390	0.20561	-0.50132
261.000	-0.00198	-0.43369	0.15421	-0.45557
262.000	0.09687	-0.40186	0.18188	-0.49933
263.000	0.03361	-0.44960	0.09687	-0.55106
264.000	0.05338	-0.45557	0.08897	-0.46751
265.000	0.04943	-0.45358	0.12653	-0.48939
266.000	0.04943	-0.38197	0.25503	-0.48938
267.000	0.04943	-0.43568	0.12850	-0.43966
268.000	0.06129	-0.44165	0.12850	-0.49536
269.000	0.05338	-0.40783	0.18188	-0.51326
270.000	0.02570	-0.39987	0.15223	-0.48541
271.000	0.04349	-0.44562	0.12455	-0.48939
272.000	0.02175	-0.43966	0.14630	-0.43568
273.000	0.00000	-0.41976	0.10676	-0.50928
274.000	0.06920	-0.43568	0.14630	-0.45557
275.000	0.08897	-0.43966	0.19375	-0.55304
276.000	0.03559	-0.43170	0.17398	-0.49138
277.000	0.06326	-0.42772	0.18386	-0.47148
278.000	0.04547	-0.41976	0.18979	-0.50132
279.000	0.02768	-0.41380	0.11269	-0.57095
280.000	0.06129	-0.44761	0.11467	-0.56896
281.000	0.07513	-0.40783	0.17002	-0.47944
282.000	0.02570	-0.43369	0.19375	-0.50729
283.000	0.07710	-0.42573	0.13641	-0.53912
284.000	0.03559	-0.41777	0.04349	-0.50133
285.000	0.06129	-0.38992	0.14432	-0.46751
286.000	0.06326	-0.42772	0.11467	-0.51525
287.000	0.04349	-0.42374	0.12850	-0.49138
288.000	0.06524	-0.43966	0.10874	-0.45756
289.000	0.09292	-0.42175	0.24515	-0.49137
290.000	0.09292	-0.42772	0.10280	-0.41777
291.000	0.04152	-0.43170	0.16014	-0.47148
292.000	0.07315	-0.43767	0.11862	-0.47944
293.000	0.06129	-0.44761	0.18386	-0.46353
294.000	0.06129	-0.41777	0.10083	-0.43568
295.000	0.04745	-0.39788	0.14827	-0.48939
296.000	0.03954	-0.42573	0.12455	-0.49536
297.000	0.06524	-0.39390	0.09094	-0.50331
298.000	0.05931	-0.44165	0.15223	-0.51724
299.000	0.04745	-0.43369	0.19770	-0.51923
300.000	0.06920	-0.45557	0.09885	-0.47944
301.000	0.06326	-0.37799	0.18781	-0.49138
302.000	0.10676	-0.43568	0.16607	-0.52122
303.000	0.08699	-0.41380	0.19177	-0.45358
304.000	0.06920	-0.39987	0.14234	-0.53514
305.000	0.03954	-0.44165	0.12850	-0.46154
306.000	0.08106	-0.40982	0.14432	-0.50729
307.000	0.08106	-0.46154	0.08501	-0.46950
308.000	0.06920	-0.44165	0.16804	-0.51923
309.000	0.04349	-0.41181	0.15421	-0.44562
310.000	0.07315	-0.46154	0.16409	-0.44164
311.000	0.08897	-0.42772	0.19177	-0.47944
312.000	0.08699	-0.42175	0.16607	-0.48740
313.000	0.07315	-0.47347	0.11071	-0.53912
314.000	0.04349	-0.44364	0.14037	-0.50928
315.000	0.03756	-0.45557	0.17200	-0.41578
316.000	0.07908	-0.45955	0.18781	-0.46154
317.000	0.03954	-0.44562	0.10280	-0.52520
318.000	0.06524	-0.41777	0.06129	-0.46154
319.000	0.02372	-0.46552	0.09094	-0.43966
320.000	0.05733	-0.38992	0.17002	-0.46949
321.000	0.04745	-0.43369	0.13048	-0.51525
322.000	-0.00198	-0.45159	0.09687	-0.45159
323.000	0.05931	-0.43568	0.16804	-0.48143
324.000	0.05536	-0.41578	0.17793	-0.49933
325.000	0.07117	-0.44761	0.12455	-0.45955
326.000	0.03756	-0.47944	0.22933	-0.46949
327.000	0.03361	-0.46353	0.15816	-0.49734
328.000	0.07315	-0.41578	0.14630	-0.42772
329.000	0.05931	-0.41380	0.14432	-0.40385
330.000	0.07315	-0.44165	0.14037	-0.51127
331.000	0.10083	-0.41578	0.10874	-0.46353
332.000	0.04943	-0.45557	0.17595	-0.40584
333.000	0.08501	-0.44562	0.12060	-0.48143
334.000	0.07513	-0.46552	0.17398	-0.47347
335.000	0.08106	-0.44165	0.18781	-0.45955
336.000	0.12850	-0.41976	0.15421	-0.47944
337.000	0.07117	-0.47149	0.11467	-0.44761
338.000	0.04547	-0.45955	0.15223	-0.48143
339.000	-0.00593	-0.44761	0.19572	-0.43568
340.000	0.03756	-0.40982	0.15816	-0.47148
341.000	0.05140	-0.44761	0.10874	-0.43369
342.000	0.05338	-0.45358	0.14630	-0.44363
343.000	0.04547	-0.42374	0.17793	-0.37998
344.000	0.05733	-0.42971	0.19770	-0.41578
345.000	0.08106	-0.43568	0.10478	-0.46353
346.000	0.09292	-0.46552	0.19375	-0.43170
347.000	0.08106	-0.45159	0.11071	-0.44960
348.000	0.09885	-0.44761	0.09885	-0.44960
349.000	0.06722	-0.44960	0.07315	-0.41181
350.000	0.07710	-0.42772	0.12060	-0.47148
351.000	0.09292	-0.46552	0.11467	-0.47347
352.000	0.08501	-0.39589	0.14827	-0.48740
353.000	0.11862	-0.42573	0.09687	-0.42374
354.000	0.10083	-0.43568	0.20363	-0.42971
355.000	0.08501	-0.45955	0.12850	-0.46751
356.000	0.09885	-0.40584	0.18584	-0.40783
357.000	0.12850	-0.40982	0.21154	-0.44960
358.000	0.09094	-0.42175	0.16804	-0.44363
359.000	0.05931	-0.44761	0.14432	-0.46950
360.000	0.10478	-0.43369	0.17398	-0.43568
361.000	0.07710	-0.46552	0.15816	-0.37799
362.000	0.06326	-0.48939	0.14630	-0.40783
363.000	0.07908	-0.42374	0.17398	-0.43767
364.000	0.08501	-0.45159	0.11862	-0.40783
365.000	0.04152	-0.43170	0.14234	-0.36008
366.000	0.07117	-0.43369	0.18781	-0.37600
367.000	0.08501	-0.43568	0.16607	-0.44164
368.000	0.06722	-0.48143	0.16409	-0.41777
369.000	0.09292	-0.35809	0.17793	-0.35809
370.000	0.04745	-0.40186	0.06129	-0.36605
371.000	0.04152	-0.44960	0.15816	-0.32228
372.000	0.12455	-0.43568	0.08106	-0.41777
373.000	0.04943	-0.42374	0.13048	-0.33223
374.000	0.06524	-0.45557	0.10083	-0.34019
375.000	0.04547	-0.41976	0.10874	-0.37600
376.000	0.07908	-0.42573	0.17398	-0.40186
377.000	0.08501	-0.41976	0.15816	-0.38196
378.000	0.07315	-0.38396	0.11862	-0.35411
379.000	0.06920	-0.41976	0.15618	-0.39390
380.000	0.04943	-0.40385	0.16607	-0.34616
381.000	0.05536	-0.44364	0.12060	-0.30438
382.000	0.04547	-0.44960	0.10280	-0.29045
383.000	0.10280	-0.39589	0.19177	-0.33223
384.000	0.01582	-0.44761	0.13641	-0.38793
385.000	0.07117	-0.44761	0.12455	-0.33621
386.000	0.04745	-0.48143	0.08501	-0.36605
387.000	0.04152	-0.41578	0.07908	-0.34218
388.000	0.04547	-0.43369	0.15421	-0.30438
389.000	0.06524	-0.46353	0.15223	-0.35212
390.000	0.06920	-0.45557	0.10676	-0.35809
391.000	0.05536	-0.45358	0.08303	-0.33621
392.000	0.07908	-0.43369	0.20363	-0.36804
393.000	0.03756	-0.45557	0.10083	-0.35809
394.000	0.05536	-0.42573	0.09687	-0.29045
395.000	0.03163	-0.48740	0.08303	-0.33223
396.000	0.06326	-0.43568	0.08699	-0.38197
397.000	0.04745	-0.43767	0.11862	-0.35610
398.000	0.00593	-0.44960	0.14037	-0.29443
399.000	0.04745	-0.45358	0.15025	-0.30836
400.000	0.05338	-0.43966	0.10874	-0.38992
401.000	0.07513	-0.45955	0.09292	-0.33621
402.000	0.01582	-0.40982	0.13048	-0.31831
403.000	0.04547	-0.45955	0.13641	-0.36207
404.000	0.07315	-0.45955	0.09885	-0.39987
405.000	0.03559	-0.46552	0.11269	-0.42971
406.000	0.03163	-0.44960	0.12257	-0.32825
407.000	0.07908	-0.43966	0.13641	-0.43767
408.000	0.04349	-0.43568	0.14037	-0.38992
409.000	0.06920	-0.44562	0.12653	-0.40186
410.000	0.04349	-0.47348	0.09885	-0.42971
411.000	0.06326	-0.46950	0.10083	-0.38992
412.000	0.03954	-0.43170	0.14234	-0.31632
413.000	0.06129	-0.45756	0.19572	-0.38395
414.000	0.02570	-0.52122	0.17793	-0.36605
415.000	0.06920	-0.47149	0.17200	-0.39987
416.000	0.05931	-0.46154	0.11862	-0.36804
417.000	0.03559	-0.45955	0.13048	-0.39589
418.000	0.01977	-0.47546	0.15816	-0.40385
419.000	0.05338	-0.45756	0.13839	-0.41976
420.000	0.06326	-0.44364	0.10280	-0.40982
421.000	0.07710	-0.48939	0.09687	-0.38594
422.000	0.02175	-0.48342	0.10083	-0.39390
423.000	0.03756	-0.47944	0.13048	-0.42971
424.000	0.07513	-0.46552	0.11664	-0.39390
425.000	0.04943	-0.51326	0.14630	-0.37799
426.000	0.05931	-0.44761	0.14037	-0.35411
427.000	0.06722	-0.46154	0.08303	-0.35213
428.000	0.01779	-0.46950	0.17002	-0.41777
429.000	0.04349	-0.48143	0.12455	-0.38594
430.000	0.03559	-0.40783	0.09885	-0.38992
431.000	0.04152	-0.47546	0.14234	-0.39390
432.000	0.04547	-0.46751	0.12850	-0.36406
433.000	0.06722	-0.45358	0.13048	-0.43767
434.000	0.02966	-0.50331	0.21154	-0.37202
435.000	0.05733	-0.40783	0.12653	-0.35610
436.000	0.04547	-0.46154	0.11664	-0.36804
437.000	0.01779	-0.46552	0.15223	-0.34616
438.000	0.04547	-0.47348	0.05536	-0.37401
439.000	0.03559	-0.46950	0.14432	-0.41777
440.000	0.04943	-0.47348	0.14827	-0.34218
441.000	0.04745	-0.47745	0.12257	-0.42374
442.000	0.06722	-0.41578	0.10478	-0.31433
443.000	0.05140	-0.43767	0.05931	-0.41976
444.000	0.05931	-0.46950	0.07513	-0.28449
445.000	0.04943	-0.45557	0.13246	-0.33024
446.000	0.04547	-0.44364	0.10280	-0.36207
447.000	0.02570	-0.46154	0.15618	-0.33621
448.000	0.07908	-0.44562	0.08699	-0.41976
449.000	0.00000	-0.48143	0.14432	-0.35610
450.000	0.03756	-0.47944	0.05931	-0.34815
451.000	0.02966	-0.47944	0.07117	-0.35014
452.000	0.04547	-0.50928	0.02768	-0.38594
453.000	0.02175	-0.46950	0.06129	-0.34815
454.000	0.08501	-0.46751	0.10083	-0.31632
455.000	0.07710	-0.46552	0.05536	-0.37401
456.000	0.07908	-0.49536	0.15025	-0.33820
457.000	0.05931	-0.47149	0.10083	-0.28449
458.000	0.04745	-0.44960	0.17991	-0.34218
459.000	0.05338	-0.48143	0.14037	-0.37401
460.000	0.06524	-0.45159	0.14234	-0.35411
461.000	0.05931	-0.43966	0.01779	-0.30239
462.000	0.05733	-0.44364	0.07315	-0.32825
463.000	0.05338	-0.47745	0.08501	-0.32825
464.000	0.04943	-0.48143	0.13444	-0.37202
465.000	0.03756	-0.49536	0.11269	-0.36008
466.000	0.04349	-0.42971	0.09292	-0.34616
467.000	0.07315	-0.50729	0.08501	-0.28847
468.000	0.03954	-0.45159	0.08106	-0.21884
469.000	0.03559	-0.44562	0.08897	-0.24868
470.000	0.05338	-0.46552	0.07710	-0.34417
471.000	0.02768	-0.48541	0.09094	-0.26857
472.000	0.06129	-0.47944	0.11467	-0.31035
473.000	0.05931	-0.51525	0.09094	-0.31831
474.000	0.06524	-0.43767	0.13444	-0.32228
475.000	0.04547	-0.49735	0.05931	-0.26658
476.000	0.04547	-0.45159	0.13444	-0.31035
477.000	0.05733	-0.46950	0.19770	-0.26857
478.000	0.06920	-0.50530	0.11467	-0.33223
479.000	0.06326	-0.50132	0.09687	-0.35411
480.000	0.03559	-0.48342	0.09885	-0.36207
481.000	0.06129	-0.46154	0.13444	-0.27255
482.000	0.06524	-0.48740	0.14037	-0.26260
483.000	0.07117	-0.50331	0.07315	-0.33223
484.000	0.06326	-0.47347	0.12060	-0.29642
485.000	0.07513	-0.47745	0.11664	-0.28648
486.000	0.05140	-0.49337	0.09094	-0.28449
487.000	0.03756	-0.52918	0.10874	-0.36008
488.000	0.05733	-0.48541	0.03361	-0.35014
489.000	0.07710	-0.52917	0.15816	-0.34417
490.000	0.05733	-0.47745	0.06129	-0.30040
491.000	0.05536	-0.47745	0.12455	-0.29244
492.000	0.02175	-0.48143	0.11269	-0.28051
493.000	0.06129	-0.46353	0.03954	-0.30040
494.000	0.06524	-0.45756	0.12455	-0.27056
495.000	0.04349	-0.47944	0.18386	-0.32626
496.000	0.04745	-0.44165	0.06326	-0.26260
497.000	0.13444	-0.45159	0.11664	-0.23674
498.000	0.06920	-0.45955	0.03559	-0.28648
499.000	0.05931	-0.47944	0.16211	-0.31433
500.000	0.05931	-0.46751	0.11467	-0.26658
501.000	0.05140	-0.51127	0.07315	-0.26459
502.000	0.02768	-0.52520	0.13246	-0.31632
503.000	0.05733	-0.50331	0.10083	-0.27653
504.000	0.09094	-0.49735	0.05140	-0.29642
505.000	0.04745	-0.48939	0.14234	-0.32626
506.000	0.07117	-0.46154	0.11467	-0.30239
507.000	0.05931	-0.51326	0.07710	-0.39987
508.000	0.07513	-0.49735	0.07117	-0.28051
509.000	0.11862	-0.50331	0.09292	-0.27653
510.000	0.05140	-0.50928	0.10280	-0.24868
511.000	0.06722	-0.50331	0.11664	-0.32825
512.000	0.07908	-0.46552	0.17200	-0.27255
513.000	0.07513	-0.46353	0.10280	-0.20491
514.000	0.06920	-0.45159	0.15618	-0.33422
515.000	0.10280	-0.47944	0.10478	-0.28847
516.000	0.07513	-0.43170	0.12455	-0.31234
517.000	0.08106	-0.49735	0.12257	-0.26857
518.000	0.02768	-0.46552	0.17991	-0.29841
519.000	0.06129	-0.43170	0.14432	-0.27653
520.000	0.06920	-0.46950	0.08303	-0.28847
521.000	0.04547	-0.47149	0.07117	-0.27653
522.000	0.07513	-0.48740	0.11269	-0.26658
523.000	0.09885	-0.47745	0.08106	-0.29443
524.000	0.04745	-0.48342	0.17595	-0.28051
525.000	0.05536	-0.47944	0.10478	-0.34019
526.000	0.05140	-0.48342	0.12060	-0.32427
527.000	0.10874	-0.48143	0.05931	-0.26857
528.000	0.06129	-0.46751	0.06524	-0.32825
529.000	0.06326	-0.52719	0.10874	-0.27056
530.000	0.09292	-0.50132	0.10676	-0.28847
531.000	0.07315	-0.46552	0.09292	-0.27056
532.000	0.10280	-0.47944	0.10083	-0.20093
533.000	0.05931	-0.47944	0.12257	-0.26260
534.000	0.08303	-0.46950	0.04745	-0.27056
535.000	0.04349	-0.50530	0.06920	-0.27852
536.000	0.08303	-0.53116	0.07513	-0.27255
537.000	0.06326	-0.47745	0.04943	-0.30637
538.000	0.07908	-0.51127	0.14432	-0.28051
539.000	0.05140	-0.50133	0.10478	-0.25862
540.000	0.06129	-0.45756	0.12653	-0.28449
541.000	0.08106	-0.49138	0.01779	-0.30836
542.000	0.06326	-0.45358	0.08501	-0.25067
543.000	0.07513	-0.45557	0.11269	-0.28847
544.000	0.09687	-0.50729	0.07710	-0.21486
545.000	0.09687	-0.46353	0.09687	-0.24868
546.000	0.10478	-0.48740	0.05140	-0.34019
547.000	0.07315	-0.46552	0.10083	-0.36008
548.000	0.03559	-0.44761	0.03361	-0.27454
549.000	0.09885	-0.47944	0.11071	-0.33820
550.000	0.10874	-0.51127	0.08699	-0.28847
551.000	0.10478	-0.47944	0.09687	-0.27255
552.000	0.06722	-0.49735	0.16804	-0.27653
553.000	0.07908	-0.44165	0.15816	-0.27852
554.000	0.07908	-0.50530	0.06722	-0.22679
555.000	0.07710	-0.51724	0.07117	-0.29046
556.000	0.08303	-0.45756	0.18781	-0.34815
557.000	0.10874	-0.46552	0.02768	-0.29244
558.000	0.07117	-0.46552	0.13839	-0.31035
559.000	0.11071	-0.46950	0.12850	-0.29642
560.000	0.05536	-0.47149	0.04152	-0.26260
561.000	0.08897	-0.45756	0.12060	-0.29045
562.000	0.08699	-0.45557	0.09292	-0.38992
563.000	0.06920	-0.50132	0.12060	-0.28051
564.000	0.07315	-0.49536	0.09885	-0.31234
565.000	0.09490	-0.47347	0.13048	-0.26260
566.000	0.07908	-0.50530	0.10478	-0.36008
567.000	0.07117	-0.48342	0.15025	-0.32228
568.000	0.08699	-0.48541	0.16607	-0.37401
569.000	0.06920	-0.46353	0.11071	-0.33422
570.000	0.05140	-0.45358	0.11071	-0.35014
571.000	0.03163	-0.49337	0.08501	-0.37998
572.000	0.04152	-0.47348	0.12060	-0.35014
573.000	0.07315	-0.47944	0.11467	-0.35411
574.000	0.09687	-0.45756	0.10676	-0.38594
575.000	0.11269	-0.46552	0.16804	-0.29244
576.000	0.09490	-0.47347	0.09292	-0.35014
577.000	0.04943	-0.49337	0.13641	-0.39191
578.000	0.08699	-0.45557	0.09490	-0.39589
579.000	0.12060	-0.40982	0.06524	-0.34019
580.000	0.11862	-0.45159	0.17200	-0.35411
581.000	0.10676	-0.46552	0.05733	-0.29642
582.000	0.09094	-0.47546	0.11269	-0.40982
583.000	0.11862	-0.48342	0.13246	-0.31433
584.000	0.08897	-0.47149	0.12257	-0.40584
585.000	0.12455	-0.45756	0.13246	-0.41578
586.000	0.11862	-0.47944	0.11071	-0.34815
587.000	0.10083	-0.43966	0.15421	-0.35014
588.000	0.09094	-0.44761	0.16607	-0.37998
589.000	0.07710	-0.46950	0.13246	-0.37401
590.000	0.10874	-0.46154	0.20363	-0.32626
591.000	0.12455	-0.46751	0.08501	-0.37998
592.000	0.09885	-0.43966	0.22538	-0.31631
593.000	0.09687	-0.46154	0.16211	-0.27653
594.000	0.13048	-0.42374	0.13641	-0.33820
595.000	0.11664	-0.43767	0.09490	-0.39390
596.000	0.13641	-0.44164	0.15816	-0.35809
597.000	0.11664	-0.41777	0.13048	-0.38395
598.000	0.10478	-0.44562	0.12850	-0.43767
599.000	0.10280	-0.43369	0.08897	-0.39589
600.000	0.09490	-0.46950	0.07710	-0.36406
601.000	0.12257	-0.46751	0.09687	-0.39987
602.000	0.09885	-0.48939	0.04745	-0.37202
603.000	0.13641	-0.46154	0.12257	-0.41578
604.000	0.09094	-0.43966	0.16211	-0.46154
605.000	0.10478	-0.49536	0.16607	-0.41777
606.000	0.07908	-0.47149	0.12455	-0.44960
607.000	0.12653	-0.48342	0.13246	-0.37600
608.000	0.13246	-0.46353	0.15025	-0.36804
609.000	0.10874	-0.46751	0.04943	-0.41380
610.000	0.12257	-0.44165	0.16607	-0.42573
611.000	0.11269	-0.46552	0.16804	-0.39191
612.000	0.12653	-0.46552	0.13048	-0.38793
613.000	0.08699	-0.46950	0.08303	-0.32626
614.000	0.11664	-0.51724	0.08501	-0.31234
615.000	0.14037	-0.46552	0.15816	-0.35610
616.000	0.16607	-0.48342	0.15421	-0.36207
617.000	0.16409	-0.41777	0.20758	-0.32228
618.000	0.11664	-0.44960	0.13444	-0.40982
619.000	0.13839	-0.43369	0.16211	-0.39191
620.000	0.16014	-0.48740	0.12653	-0.34417
621.000	0.14827	-0.47546	0.06920	-0.37799
622.000	0.12257	-0.46154	0.15223	-0.36406
623.000	0.13444	-0.44165	0.16409	-0.40186
624.000	0.15223	-0.46552	0.13444	-0.37600
625.000	0.14432	-0.43966	0.19968	-0.36008
626.000	0.13444	-0.46154	0.19375	-0.35610
627.000	0.13048	-0.48740	0.07710	-0.46552
628.000	0.14827	-0.48740	0.14037	-0.44164
629.000	0.16409	-0.44363	0.11467	-0.39788
630.000	0.15816	-0.46353	0.13839	-0.35014
631.000	0.12850	-0.43966	0.14037	-0.40982
632.000	0.10676	-0.44363	0.22933	-0.39987
633.000	0.12850	-0.45159	0.17991	-0.30438
634.000	0.09687	-0.50331	0.17991	-0.39987
635.000	0.10874	-0.48143	0.18188	-0.36804
636.000	0.14037	-0.44761	0.17200	-0.38594
637.000	0.13641	-0.45756	0.13444	-0.40783
638.000	0.16211	-0.48342	0.16804	-0.34815
639.000	0.11862	-0.45557	0.11269	-0.32825
640.000	0.14827	-0.46950	0.19572	-0.35411
641.000	0.18386	-0.49535	0.13839	-0.37202
642.000	0.16804	-0.45756	0.13246	-0.33223
643.000	0.13839	-0.48541	0.27480	-0.32427
644.000	0.13839	-0.47148	0.07513	-0.37600
645.000	0.12850	-0.44761	0.21352	-0.40186
646.000	0.13048	-0.46751	0.16804	-0.37600
647.000	0.14234	-0.46751	0.21747	-0.39191
648.000	0.14630	-0.49337	0.16211	-0.35212
649.000	0.14630	-0.49536	0.10874	-0.37401
650.000	0.10676	-0.48143	0.19572	-0.37799
651.000	0.12060	-0.51127	0.16804	-0.43568
652.000	0.13048	-0.49735	0.13048	-0.40186
653.000	0.12257	-0.44363	0.07908	-0.35610
654.000	0.14827	-0.47148	0.10280	-0.34019
655.000	0.12257	-0.50331	0.16211	-0.33223
656.000	0.12850	-0.48143	0.13048	-0.33422
657.000	0.15025	-0.44960	0.14630	-0.40186
658.000	0.15816	-0.50331	0.10083	-0.35213
659.000	0.14432	-0.48541	0.11664	-0.34218
660.000	0.11269	-0.50132	0.05536	-0.34417
661.000	0.12257	-0.51525	0.10676	-0.38395
662.000	0.13444	-0.49138	0.07513	-0.38793
663.000	0.08897	-0.49735	0.12060	-0.39589
664.000	0.13048	-0.46751	0.04152	-0.29642
665.000	0.19177	-0.48342	0.15223	-0.36605
666.000	0.16409	-0.47546	0.17793	-0.40186
667.000	0.13839	-0.51724	0.18979	-0.39987
668.000	0.16607	-0.46552	0.15223	-0.35610
669.000	0.20561	-0.50530	0.10083	-0.34019
670.000	0.16211	-0.47944	0.19770	-0.31830
671.000	0.15025	-0.48143	0.17991	-0.40186
672.000	0.13641	-0.48541	0.14630	-0.34019
673.000	0.15421	-0.48939	0.17002	-0.37998
674.000	0.16804	-0.51724	0.15618	-0.43170
675.000	0.14630	-0.51724	0.13444	-0.37998
676.000	0.14037	-0.45955	0.14432	-0.36008
677.000	0.16211	-0.49536	0.10478	-0.44363
678.000	0.17200	-0.50928	0.14630	-0.39390
679.000	0.12850	-0.46552	0.11269	-0.37998
680.000	0.13839	-0.51127	0.15223	-0.38793
681.000	0.13246	-0.50729	0.17002	-0.43767
682.000	0.13641	-0.47546	0.14630	-0.40385
683.000	0.15223	-0.50132	0.17200	-0.40584
684.000	0.17595	-0.46751	0.17002	-0.42573
685.000	0.18979	-0.47347	0.17200	-0.44164
686.000	0.14630	-0.51326	0.17002	-0.44761
687.000	0.16607	-0.45955	0.17595	-0.37799
688.000	0.17398	-0.49734	0.13048	-0.34417
689.000	0.14827	-0.51923	0.22340	-0.43170
690.000	0.16409	-0.47944	0.21154	-0.44562
691.000	0.16804	-0.45756	0.20363	-0.42772
692.000	0.14432	-0.42971	0.07513	-0.40385
693.000	0.15618	-0.47148	0.14037	-0.41379
694.000	0.15421	-0.45756	0.15223	-0.34417
695.000	0.16804	-0.46353	0.23724	-0.36406
696.000	0.14630	-0.51923	0.14432	-0.42971
697.000	0.19770	-0.49734	0.10280	-0.36605
698.000	0.16211	-0.48939	0.19572	-0.36605
699.000	0.18781	-0.49138	0.16211	-0.31831
700.000	0.17002	-0.45756	0.20956	-0.38196
701.000	0.19375	-0.48541	0.09292	-0.38594
702.000	0.18781	-0.47745	0.20363	-0.40385
703.000	0.18781	-0.49535	0.03361	-0.39589
704.000	0.19177	-0.49734	0.17793	-0.40982
705.000	0.18188	-0.48143	0.13444	-0.45159
706.000	0.15618	-0.46552	0.14432	-0.37401
707.000	0.16804	-0.45955	0.23329	-0.33820
708.000	0.20363	-0.46750	0.15025	-0.41578
709.000	0.16804	-0.45159	0.23131	-0.38395
710.000	0.15223	-0.47148	0.15421	-0.33621
711.000	0.14234	-0.45159	0.13444	-0.36605
712.000	0.16409	-0.49933	0.12653	-0.40584
713.000	0.11862	-0.48342	0.17002	-0.41379
714.000	0.21154	-0.46949	0.15816	-0.33621
715.000	0.17398	-0.45159	0.16607	-0.35809
716.000	0.19177	-0.46750	0.19770	-0.35013
717.000	0.17002	-0.47347	0.11467	-0.38793
718.000	0.16211	-0.48541	0.11862	-0.28449
719.000	0.15421	-0.49138	0.11269	-0.30239
720.000	0.17200	-0.47745	0.17002	-0.34616
721.000	0.14432	-0.49337	0.14234	-0.39987
722.000	0.19375	-0.49933	0.15421	-0.39390
723.000	0.20561	-0.44960	0.18781	-0.38395
724.000	0.17991	-0.51525	0.13641	-0.36207
725.000	0.18386	-0.42971	0.19770	-0.40584
726.000	0.16607	-0.48143	0.14827	-0.34417
727.000	0.11664	-0.46751	0.15618	-0.29642
728.000	0.15618	-0.48939	0.15223	-0.37401
729.000	0.17991	-0.46750	0.17793	-0.37998
730.000	0.16804	-0.46154	0.20561	-0.35411
731.000	0.11862	-0.46950	0.09094	-0.35213
732.000	0.13444	-0.50530	0.12060	-0.38395
733.000	0.17002	-0.47148	0.12850	-0.33223
734.000	0.15025	-0.49138	0.10874	-0.33422
735.000	0.17200	-0.49933	0.11071	-0.32030
736.000	0.10676	-0.50928	0.17793	-0.36804
737.000	0.13246	-0.49138	0.19770	-0.38395
738.000	0.15223	-0.50729	0.15618	-0.33024
739.000	0.08501	-0.49337	0.17991	-0.35013
740.000	0.12455	-0.53713	0.14037	-0.35411
741.000	0.10083	-0.47546	0.17398	-0.35610
742.000	0.14037	-0.52122	0.12257	-0.32626
743.000	0.13048	-0.53315	0.14037	-0.30438
744.000	0.11071	-0.49934	0.16014	-0.43568
745.000	0.14827	-0.49536	0.10874	-0.39987
746.000	0.15025	-0.49536	0.20956	-0.36406
747.000	0.14827	-0.52122	0.11467	-0.33422
748.000	0.16409	-0.51326	0.17200	-0.32029
749.000	0.14037	-0.47347	0.20758	-0.32825
750.000	0.13246	-0.50928	0.20363	-0.33621
751.000	0.13641	-0.50928	0.16804	-0.32626
752.000	0.15025	-0.54111	0.21945	-0.35212
753.000	0.08897	-0.53912	0.19572	-0.30637
754.000	0.13246	-0.55106	0.23526	-0.36804
755.000	0.13048	-0.51923	0.23329	-0.33820
756.000	0.13839	-0.48740	0.21549	-0.37202
757.000	0.13444	-0.54111	0.15223	-0.37401
758.000	0.12060	-0.49933	0.15618	-0.39390
759.000	0.14630	-0.49536	0.17595	-0.32029
760.000	0.14630	-0.50729	0.13444	-0.36008
761.000	0.14432	-0.47944	0.19177	-0.43568
762.000	0.16014	-0.43767	0.18781	-0.37997
763.000	0.12850	-0.47347	0.16014	-0.33223
764.000	0.16014	-0.49536	0.17991	-0.31035
765.000	0.14234	-0.49138	0.21154	-0.32825
766.000	0.17398	-0.52122	0.18979	-0.31234
767.000	0.14827	-0.47546	0.21154	-0.35809
768.000	0.13246	-0.52321	0.19375	-0.41379
769.000	0.16409	-0.45756	0.20561	-0.31632
770.000	0.14630	-0.52917	0.19770	-0.33223
771.000	0.17200	-0.49933	0.17200	-0.37799
772.000	0.16014	-0.50530	0.24119	-0.39589
773.000	0.11071	-0.51326	0.21352	-0.38992
774.000	0.14234	-0.51724	0.19572	-0.37600
775.000	0.16804	-0.49734	0.20758	-0.37600
776.000	0.11664	-0.53315	0.18781	-0.38594
777.000	0.15816	-0.51525	0.17200	-0.36207
778.000	0.13839	-0.51127	0.16804	-0.43767
779.000	0.17002	-0.50729	0.14432	-0.44363
780.000	0.10874	-0.49138	0.18979	-0.41976
781.000	0.16014	-0.52519	0.19968	-0.40385
782.000	0.15618	-0.46751	0.15618	-0.42175
783.000	0.18386	-0.52320	0.19770	-0.42175
784.000	0.12455	-0.47944	0.27085	-0.43368
785.000	0.11664	-0.49337	0.21154	-0.37003
786.000	0.13641	-0.44562	0.15025	-0.34815
787.000	0.12850	-0.50530	0.16211	-0.39987
788.000	0.12257	-0.47546	0.11862	-0.40982
789.000	0.18584	-0.45358	0.21945	-0.37600
790.000	0.16804	-0.49536	0.17991	-0.39987
791.000	0.14827	-0.47546	0.17793	-0.39589
792.000	0.15816	-0.46751	0.14234	-0.39589
793.000	0.15816	-0.44761	0.18979	-0.40981
794.000	0.14827	-0.48740	0.28469	-0.39191
795.000	0.16211	-0.50132	0.15223	-0.53514
796.000	0.17200	-0.49933	0.19375	-0.45159
797.000	0.13641	-0.45358	0.19968	-0.39589
798.000	0.14827	-0.48740	0.16804	-0.42772
799.000	0.14432	-0.46353	0.22340	-0.42772
800.000	0.17991	-0.47745	0.15025	-0.43767
801.000	0.16607	-0.44761	0.12850	-0.37600
802.000	0.14037	-0.46751	0.25305	-0.34019
803.000	0.17991	-0.48939	0.22933	-0.34417
804.000	0.18188	-0.49535	0.18386	-0.43568
805.000	0.20165	-0.46154	0.23724	-0.36008
806.000	0.26887	-0.47546	0.26887	-0.34615
807.000	0.33411	-0.61470	0.34399	-0.39588
808.000	0.40330	-0.68829	0.47447	-0.42970
809.000	0.57529	-0.73403	0.61285	-0.45753
810.000	0.76308	-0.83742	0.79273	-0.60073
811.000	0.97654	-0.96266	1.00421	-0.65440
812.000	1.19789	-1.07791	1.20975	-0.74981
813.000	1.41525	-1.12354	1.41722	-0.90285
814.000	1.65824	-1.22877	1.63256	-1.06777
815.000	1.81231	-1.32407	1.85971	-1.17696
816.000	1.97029	-1.43522	2.14207	-1.26817
817.000	2.06507	-1.55832	2.12825	-1.34369
818.000	2.15984	-1.59001	2.27828	-1.55214
819.000	2.13812	-1.66552	2.30592	-1.52629
820.000	2.15392	-1.70324	2.35921	-1.59972
821.000	2.14405	-1.75092	2.30000	-1.58787
822.000	2.07889	-1.77880	2.28618	-1.64946
823.000	1.98609	-1.76699	2.18353	-1.65355
824.000	1.96240	-1.70940	2.15984	-1.60789
825.000	1.89525	-1.63994	2.02558	-1.60207
826.000	1.79453	-1.60427	1.93080	-1.52467
827.000	1.73528	-1.55067	1.76293	-1.45924
828.000	1.70367	-1.51294	1.77873	-1.39166
829.000	1.68590	-1.46725	1.70762	-1.35594
830.000	1.65429	-1.46727	1.67009	-1.33212
831.000	1.64441	-1.40368	1.77083	-1.37378
832.000	1.64244	-1.44542	1.62664	-1.28643
833.000	1.65824	-1.41560	1.69182	-1.29235
834.000	1.60688	-1.37390	1.69380	-1.33608
835.000	1.65824	-1.37982	1.63256	-1.21487
836.000	1.65824	-1.38976	1.76095	-1.19690
837.000	1.69972	-1.39569	1.74318	-1.16710
838.000	1.67800	-1.38975	1.67997	-1.27646
839.000	1.68985	-1.37583	1.77083	-1.20286
840.000	1.65824	-1.39572	1.72935	-1.20885
841.000	1.66812	-1.41360	1.73923	-1.17306
842.000	1.69775	-1.42749	1.71158	-1.24662
843.000	1.70762	-1.34799	1.78663	-1.25055
844.000	1.69577	-1.36191	1.84391	-1.21871
845.000	1.67800	-1.34205	1.75108	-1.25852
846.000	1.72343	-1.34400	1.70565	-1.26054
847.000	1.72738	-1.36785	1.72540	-1.21481
848.000	1.74910	-1.37380	1.79848	-1.22073
849.000	1.76095	-1.36186	1.76688	-1.27242
850.000	1.74318	-1.38374	1.77676	-1.28037
851.000	1.81033	-1.41946	1.83206	-1.29225
852.000	1.77478	-1.39961	1.79848	-1.32209
853.000	1.84786	-1.43334	1.80243	-1.30022
854.000	1.82021	-1.41746	1.83996	-1.33398
855.000	1.83996	-1.43533	1.85378	-1.28230
856.000	1.83601	-1.47110	1.82613	-1.29822
857.000	1.85378	-1.48102	1.85378	-1.33199
858.000	1.87551	-1.50485	1.84983	-1.38366
859.000	1.83798	-1.47508	1.90908	-1.38758
860.000	1.90908	-1.49687	1.85971	-1.40750
861.000	1.84786	-1.44526	1.80836	-1.37574
862.000	1.88143	-1.46709	1.83008	-1.39162
863.000	1.87551	-1.46312	1.83008	-1.38169
864.000	1.90513	-1.46509	1.82416	-1.41349
865.000	1.86958	-1.49095	1.81626	-1.40356
866.000	1.88735	-1.44523	1.80243	-1.40357
867.000	1.86958	-1.49889	1.76095	-1.38969
868.000	1.88538	-1.48497	1.73528	-1.34797
869.000	1.85773	-1.42340	1.78071	-1.37974
870.000	1.86958	-1.46909	1.82416	-1.40156
871.000	1.89130	-1.50881	1.79848	-1.35786
872.000	1.87156	-1.42935	1.82021	-1.31611
873.000	1.90315	-1.45118	1.77676	-1.36781
874.000	1.84786	-1.43334	1.76095	-1.37180
875.000	1.87551	-1.41941	1.77478	-1.31018
876.000	1.87353	-1.46710	1.80836	-1.36978
877.000	1.87946	-1.46709	1.77873	-1.33800
878.000	1.81626	-1.45522	1.84193	-1.37174
879.000	1.89130	-1.45914	1.81231	-1.33003
880.000	1.84983	-1.45520	1.80243	-1.31414
881.000	1.86366	-1.42935	1.76886	-1.32012
882.000	1.84391	-1.44129	1.71750	-1.32811
883.000	1.86366	-1.41345	1.74713	-1.30026
884.000	1.86761	-1.41941	1.78268	-1.31813
885.000	1.85181	-1.39955	1.77478	-1.29627
886.000	1.83601	-1.44925	1.74318	-1.32809
887.000	1.85181	-1.42936	1.79651	-1.36184
888.000	1.82416	-1.44528	1.74910	-1.30821
889.000	1.84588	-1.43533	1.79058	-1.38370
890.000	1.87156	-1.44326	1.76095	-1.28634
891.000	1.84391	-1.43930	1.68195	-1.33211
892.000	1.81428	-1.44926	1.74515	-1.31020
893.000	1.90513	-1.46707	1.74318	-1.30027
894.000	1.84391	-1.44725	1.80243	-1.32209
895.000	1.86168	-1.40948	1.74515	-1.34796
896.000	1.87156	-1.42537	1.82218	-1.30419
897.000	1.84983	-1.41148	1.74120	-1.34598
898.000	1.83996	-1.42341	1.71158	-1.33606
899.000	1.86563	-1.46909	1.81033	-1.31214
900.000	1.87353	-1.43928	1.71355	-1.28836
901.000	1.84391	-1.43732	1.69972	-1.43544
902.000	1.86761	-1.41345	1.81428	-1.32406
903.000	1.87748	-1.40549	1.77478	-1.27043
904.000	1.88933	-1.43529	1.81428	-1.36182
905.000	1.83403	-1.42739	1.66614	-1.35796
906.000	1.87551	-1.39755	1.72935	-1.35195
907.000	1.87353	-1.43133	1.74910	-1.35790
908.000	1.85773	-1.41743	1.73330	-1.34002
909.000	1.88933	-1.47305	1.76095	-1.37578
910.000	1.85576	-1.41346	1.80243	-1.34792
911.000	1.89920	-1.43727	1.73133	-1.30822
912.000	1.90118	-1.41144	1.67997	-1.26652
913.000	1.91895	-1.44719	1.70762	-1.35793
914.000	1.90118	-1.44124	1.74318	-1.35393
915.000	1.89525	-1.41343	1.83798	-1.36578
916.000	1.90118	-1.40548	1.72935	-1.32611
917.000	1.89328	-1.42734	1.76491	-1.34596
918.000	1.89130	-1.42734	1.72738	-1.35394
919.000	1.88735	-1.43331	1.72145	-1.38177
920.000	1.88143	-1.40947	1.74713	-1.31020
921.000	1.90118	-1.41939	1.67997	-1.31820
922.000	1.89130	-1.41542	1.75305	-1.28436
923.000	1.90118	-1.40548	1.75305	-1.32212
924.000	1.85773	-1.39557	1.82218	-1.34195
925.000	1.89723	-1.41541	1.70170	-1.40960
926.000	1.91895	-1.41937	1.73133	-1.35592
927.000	1.90118	-1.39157	1.71948	-1.39568
928.000	1.93672	-1.41339	1.70960	-1.38376
929.000	1.87748	-1.40748	1.73725	-1.34797
930.000	1.93672	-1.38160	1.65232	-1.41163
931.000	1.92883	-1.39949	1.73923	-1.31816
932.000	1.95450	-1.39947	1.70960	-1.33209
933.000	1.93080	-1.37167	1.78466	-1.38768
934.000	1.91105	-1.40348	1.73923	-1.36188
935.000	1.94857	-1.34582	1.72738	-1.41356
936.000	1.89920	-1.38163	1.71355	-1.32016
937.000	1.94857	-1.38159	1.65627	-1.36591
938.000	1.95055	-1.36569	1.69972	-1.32415
939.000	1.94265	-1.38160	1.78268	-1.32011
940.000	1.95252	-1.37165	1.63454	-1.35599
941.000	1.92093	-1.40347	1.69182	-1.25856
942.000	1.96635	-1.37164	1.69775	-1.36986
943.000	1.94265	-1.39352	1.71553	-1.37382
944.000	1.93672	-1.39154	1.73133	-1.32015
945.000	1.94660	-1.38557	1.78071	-1.37974
946.000	1.96635	-1.36965	1.72540	-1.32413
947.000	1.96832	-1.37760	1.68590	-1.34403
948.000	1.95252	-1.39351	1.65034	-1.32617
949.000	1.96042	-1.37165	1.71750	-1.34003
950.000	1.99202	-1.38553	1.73330	-1.30822
951.000	1.97424	-1.39151	1.65429	-1.35001
952.000	1.97029	-1.36766	1.65232	-1.38977
953.000	1.98609	-1.36169	1.67404	-1.31025
954.000	1.99597	-1.36168	1.61676	-1.33613
955.000	1.95450	-1.35377	1.70170	-1.36787
956.000	1.93278	-1.33192	1.62861	-1.33214
957.000	1.98017	-1.38157	1.69182	-1.29831
958.000	1.98017	-1.37560	1.64244	-1.28443
959.000	1.96042	-1.37761	1.70170	-1.35793
960.000	1.97029	-1.31401	1.64441	-1.30033
961.000	1.93278	-1.36173	1.72935	-1.38375
962.000	1.94660	-1.39352	1.73330	-1.41356
963.000	1.95845	-1.39152	1.67404	-1.38578
964.000	2.01571	-1.38551	1.61083	-1.35402
965.000	2.00584	-1.37161	1.73133	-1.40561
966.000	1.98609	-1.38951	1.70762	-1.35197
967.000	2.00584	-1.31994	1.63849	-1.36593
968.000	2.03348	-1.40735	1.64639	-1.40766
969.000	1.97622	-1.35574	1.66812	-1.39969
970.000	1.98214	-1.35971	1.68195	-1.43744
971.000	1.98609	-1.40143	1.67602	-1.37385
972.000	2.03151	-1.37953	1.65429	-1.36591
973.000	1.98807	-1.36964	1.63059	-1.38779
974.000	1.96042	-1.39152	1.65429	-1.42554
975.000	2.00189	-1.38552	1.75898	-1.41155
976.000	2.00189	-1.38950	1.67207	-1.41360
977.000	2.01571	-1.35570	1.67800	-1.38379
978.000	1.99794	-1.39745	1.67800	-1.43347
979.000	2.04730	-1.36959	1.71948	-1.44735
980.000	1.99991	-1.39546	1.68787	-1.49904
981.000	2.00386	-1.35770	1.62466	-1.38978
982.000	2.02953	-1.37755	1.65034	-1.44144
983.000	2.04335	-1.36760	1.63256	-1.44543
984.000	2.00979	-1.33385	1.68985	-1.44141
985.000	2.00386	-1.38353	1.63849	-1.36195
986.000	2.02558	-1.34179	1.73528	-1.44734
987.000	2.05125	-1.35170	1.67404	-1.34801
988.000	2.03743	-1.33184	1.67997	-1.40565
989.000	2.03743	-1.32389	1.72540	-1.45728
990.000	2.07100	-1.33579	1.58120	-1.42559
991.000	2.04138	-1.36562	1.64244	-1.47722
992.000	2.04138	-1.34773	1.61281	-1.41165
993.000	2.07297	-1.32982	1.66022	-1.41361
994.000	2.02756	-1.37159	1.68787	-1.41756
995.000	2.03546	-1.37754	1.64046	-1.46132
996.000	2.02756	-1.36165	1.70367	-1.41556
997.000	2.03546	-1.31396	1.67602	-1.38975
998.000	2.07297	-1.31393	1.66417	-1.46925
999.000	2.07692	-1.32386	1.65429	-1.51099
1000.000	2.09864	-1.33775	1.61676	-1.46929
1001.000	2.09469	-1.31391	1.65034	-1.45535
1002.000	2.07692	-1.33976	1.75503	-1.40360
1003.000	2.07495	-1.36758	1.56145	-1.43951
1004.000	2.11443	-1.32581	1.60688	-1.46333
1005.000	2.10259	-1.29602	1.61873	-1.48717
1006.000	2.11443	-1.35165	1.68590	-1.45532
1007.000	2.06902	-1.34572	1.60886	-1.45936
1008.000	2.07889	-1.30001	1.58910	-1.45539
1009.000	2.08087	-1.32584	1.69182	-1.43942
1010.000	2.08679	-1.31392	1.73528	-1.46125
1011.000	2.07889	-1.31392	1.62466	-1.42953
1012.000	2.08877	-1.32385	1.56342	-1.48324
1013.000	2.09469	-1.28013	1.62664	-1.47325
1014.000	2.11246	-1.29800	1.70170	-1.47121
1015.000	2.11246	-1.26422	1.69182	-1.47917
1016.000	2.09864	-1.33974	1.58515	-1.46335
1017.000	2.12233	-1.30594	1.69577	-1.46724
1018.000	2.09864	-1.33974	1.58120	-1.43950
1019.000	2.10456	-1.31390	1.51996	-1.44153
1020.000	2.12430	-1.36356	1.64639	-1.48715
1021.000	2.09074	-1.30398	1.59503	-1.44943
1022.000	2.09074	-1.33180	1.68590	-1.44738
1023.000	2.12430	-1.31587	1.66022	-1.42553
1024.000	2.05125	-1.29209	1.65824	-1.48913
1025.000	2.11641	-1.30396	1.69380	-1.48314
1026.000	2.08679	-1.28212	1.64244	-1.45138
1027.000	2.08284	-1.29603	1.69775	-1.46923
1028.000	2.10851	-1.31787	1.61676	-1.49512
1029.000	2.10259	-1.32980	1.64244	-1.50504
1030.000	2.08679	-1.30199	1.67602	-1.53880
1031.000	2.12628	-1.31786	1.62466	-1.49909
1032.000	2.11641	-1.33376	1.67404	-1.54675
1033.000	2.11048	-1.31588	1.65824	-1.49112
1034.000	2.11838	-1.29998	1.68590	-1.47718
1035.000	2.14405	-1.34168	1.57527	-1.50906
1036.000	2.15392	-1.29001	1.60688	-1.49314
1037.000	2.12430	-1.30792	1.65232	-1.49509
1038.000	2.09074	-1.30199	1.63059	-1.44344
1039.000	2.14207	-1.31983	1.77281	-1.52481
1040.000	2.15984	-1.29398	1.65429	-1.45932
1041.000	2.11246	-1.29998	1.62861	-1.37388
1042.000	2.12430	-1.27414	1.67207	-1.47918
1043.000	2.11641	-1.33177	1.60688	-1.43352
1044.000	2.12430	-1.29600	1.56935	-1.49714
1045.000	2.17366	-1.31980	1.65034	-1.46727
1046.000	2.11048	-1.29601	1.62269	-1.50307
1047.000	2.13812	-1.32579	1.62269	-1.52493
1048.000	2.15194	-1.27809	1.67404	-1.46527
1049.000	2.14207	-1.30195	1.57132	-1.43156
1050.000	2.15392	-1.31982	1.69380	-1.47917
1051.000	2.13220	-1.31189	1.63849	-1.47523
1052.000	2.14997	-1.31585	1.56737	-1.50311
1053.000	2.12825	-1.29997	1.56145	-1.48522
1054.000	2.18353	-1.29396	1.62664	-1.49909
1055.000	2.15194	-1.29002	1.58318	-1.50310
1056.000	2.21709	-1.32175	1.57330	-1.50509
1057.000	2.13418	-1.31785	1.62269	-1.46133
1058.000	2.17169	-1.27808	1.65429	-1.51099
1059.000	2.19538	-1.32574	1.60096	-1.50706
1060.000	2.18550	-1.27409	1.54762	-1.46735
1061.000	2.19735	-1.29594	1.64441	-1.48715
1062.000	2.16181	-1.28007	1.58120	-1.43155
1063.000	2.16181	-1.30988	1.64441	-1.47125
1064.000	2.19735	-1.24428	1.70367	-1.50102
1065.000	2.16181	-1.30789	1.61873	-1.48121
1066.000	2.18156	-1.27211	1.62269	-1.47723
1067.000	2.17958	-1.27410	1.61478	-1.52493
1068.000	2.18550	-1.25422	1.67602	-1.57258
1069.000	2.15194	-1.31783	1.65232	-1.55471
1070.000	2.17563	-1.32377	1.68787	-1.51891
1071.000	2.14800	-1.30194	1.63059	-1.55274
1072.000	2.17761	-1.31185	1.59108	-1.54880
1073.000	2.19340	-1.26812	1.62466	-1.46531
1074.000	2.17563	-1.32974	1.61083	-1.49314
1075.000	2.18945	-1.29992	1.63059	-1.56665
1076.000	2.19538	-1.26415	1.61676	-1.47922
1077.000	2.15787	-1.31187	1.69380	-1.48711
1078.000	2.19143	-1.27806	1.61873	-1.53288
1079.000	2.23091	-1.21444	1.62466	-1.49909
1080.000	2.19143	-1.27607	1.61083	-1.53288
1081.000	2.19340	-1.27607	1.62861	-1.48716
1082.000	2.19340	-1.25819	1.65034	-1.53484
1083.000	2.18353	-1.23038	1.72145	-1.52485
1084.000	2.17958	-1.21846	1.68985	-1.53878
1085.000	2.21709	-1.26413	1.67207	-1.46925
1086.000	2.20525	-1.32375	1.66219	-1.55868
1087.000	2.20327	-1.25818	1.68590	-1.59045
1088.000	2.23288	-1.25219	1.57725	-1.51502
1089.000	2.21709	-1.25817	1.59108	-1.57264
1090.000	2.18550	-1.25223	1.61676	-1.54878
1091.000	2.19538	-1.27210	1.65429	-1.58650
1092.000	2.19340	-1.25024	1.66022	-1.62227
1093.000	2.18156	-1.27807	1.62466	-1.58057
1094.000	2.20130	-1.26414	1.63059	-1.64216
1095.000	2.16379	-1.26616	1.63651	-1.58056
1096.000	2.23091	-1.28796	1.60293	-1.58853
1097.000	2.21512	-1.26811	1.60688	-1.48320
1098.000	2.17958	-1.29397	1.66022	-1.56861
1099.000	2.19932	-1.26812	1.57527	-1.57663
1100.000	2.20130	-1.25421	1.57923	-1.55874
1101.000	2.21906	-1.22240	1.54959	-1.54883
1102.000	2.25065	-1.25218	1.67602	-1.56065
1103.000	2.19932	-1.21844	1.63849	-1.56068
1104.000	2.25262	-1.24224	1.65232	-1.51099
1105.000	2.19538	-1.25620	1.64837	-1.56664
1106.000	2.22499	-1.27604	1.54762	-1.60447
1107.000	2.26052	-1.24820	1.71355	-1.53280
1108.000	2.19538	-1.29395	1.60688	-1.55673
1109.000	2.20130	-1.23434	1.64046	-1.65010
1110.000	2.21117	-1.23632	1.69775	-1.51692
1111.000	2.23091	-1.32373	1.55552	-1.48920
1112.000	2.19735	-1.25222	1.62071	-1.54480
1113.000	2.23091	-1.24226	1.65034	-1.57260
1114.000	2.21709	-1.21644	1.61281	-1.58852
1115.000	2.23091	-1.27008	1.60096	-1.58058
1116.000	2.20327	-1.20254	1.63059	-1.53287
1117.000	2.22893	-1.21246	1.72935	-1.59240
1118.000	2.23880	-1.22835	1.55157	-1.64620
1119.000	2.22301	-1.25022	1.57527	-1.51502
1120.000	2.24670	-1.20052	1.65232	-1.57260
1121.000	2.17761	-1.22442	1.60293	-1.58853
1122.000	2.19143	-1.27210	1.68392	-1.56462
1123.000	2.18353	-1.24826	1.67009	-1.56265
1124.000	2.23683	-1.22040	1.62664	-1.56864
1125.000	2.23288	-1.23630	1.66614	-1.56861
1126.000	2.20327	-1.24825	1.66022	-1.59643
1127.000	2.22301	-1.18862	1.65429	-1.63419
1128.000	2.20722	-1.17671	1.59305	-1.65809
1129.000	2.21117	-1.23433	1.60491	-1.65808
1130.000	2.26052	-1.24025	1.61478	-1.65409
1131.000	2.22499	-1.23432	1.56540	-1.57664
1132.000	2.18945	-1.23236	1.62466	-1.63024
1133.000	2.21512	-1.22836	1.60886	-1.61833
1134.000	2.26052	-1.25614	1.63256	-1.63024
1135.000	2.22499	-1.28598	1.67404	-1.64610
1136.000	2.21906	-1.22240	1.63454	-1.58851
1137.000	2.19340	-1.26415	1.59700	-1.58854
1138.000	2.18156	-1.23237	1.68985	-1.63615
1139.000	2.24275	-1.23232	1.67404	-1.62424
1140.000	2.22301	-1.25022	1.63651	-1.59248
1141.000	2.22696	-1.22438	1.66417	-1.71167
1142.000	2.23880	-1.21444	1.65824	-1.56862
1143.000	2.22499	-1.23233	1.59898	-1.64815
1144.000	2.24275	-1.22437	1.58318	-1.57464
1145.000	2.24473	-1.14886	1.62071	-1.62428
1146.000	2.27631	-1.21838	1.68392	-1.61430
1147.000	2.27039	-1.21838	1.59305	-1.60841
1148.000	2.26644	-1.18461	1.69577	-1.60435
1149.000	2.24867	-1.20449	1.71553	-1.62619
1150.000	2.25065	-1.23430	1.70170	-1.60037
1151.000	2.24670	-1.19059	1.61676	-1.56269
1152.000	2.24670	-1.16277	1.65627	-1.55670
1153.000	2.27236	-1.23626	1.70762	-1.53281
1154.000	2.23091	-1.24226	1.69380	-1.60435
1155.000	2.22301	-1.22637	1.67602	-1.58649
1156.000	2.25854	-1.20448	1.65232	-1.62028
1157.000	2.26447	-1.21640	1.66219	-1.60438
1158.000	2.23091	-1.26213	1.61873	-1.55076
1159.000	2.23486	-1.23828	1.66812	-1.59047
1160.000	2.24867	-1.20449	1.62664	-1.61434
1161.000	2.28026	-1.19254	1.60688	-1.65013
1162.000	2.25657	-1.20846	1.63256	-1.65209
1163.000	2.25262	-1.17468	1.60293	-1.74550
1164.000	2.26841	-1.22037	1.67009	-1.56265
1165.000	2.26447	-1.18064	1.70565	-1.72753
1166.000	2.28223	-1.19652	1.67800	-1.65206
1167.000	2.24867	-1.13693	1.63059	-1.59248
1168.000	2.28026	-1.19453	1.71158	-1.66196
1169.000	2.28815	-1.16273	1.66812	-1.67789
1170.000	2.29407	-1.21240	1.67009	-1.61828
1171.000	2.29605	-1.15279	1.66812	-1.62226
1172.000	2.28420	-1.17466	1.62269	-1.62031
1173.000	2.28420	-1.19453	1.67009	-1.69776
1174.000	2.28815	-1.18856	1.65627	-1.72161
1175.000	2.28815	-1.23426	1.71553	-1.62421
1176.000	2.26841	-1.18262	1.56145	-1.60446
1177.000	2.31381	-1.21636	1.68787	-1.59641
1178.000	2.31579	-1.17662	1.64639	-1.64811
1179.000	2.30394	-1.17862	1.69380	-1.63615
1180.000	2.30394	-1.17266	1.75305	-1.65000
1181.000	2.23091	-1.23233	1.69775	-1.63217
1182.000	2.21512	-1.19260	1.61281	-1.64814
1183.000	2.09271	-1.19866	1.55749	-1.55280
1184.000	1.95450	-1.28421	1.57527	-1.60842
1185.000	1.82416	-1.31611	1.35399	-1.63243
1186.000	1.63256	-1.34208	1.20975	-1.77759
1187.000	1.38363	-1.42572	0.90539	-1.95263
1188.000	1.15046	-1.43976	0.60692	-1.92693
1189.000	0.78680	-1.56515	0.33411	-2.09391
1190.000	0.40330	-1.62688	-0.11664	-2.23300
1191.000	0.00791	-1.73028	-0.31632	-2.33228
1192.000	-0.28073	-1.86938	-0.58715	-2.37390
1193.000	-0.73145	-2.01430	-0.94690	-2.55438
1194.000	-1.00421	-2.07376	-1.29867	-2.77040
1195.000	-1.33819	-2.16885	-1.53181	-2.79195
1196.000	-1.60886	-2.21823	-1.78268	-2.85706
1197.000	-1.87353	-2.38070	-2.01966	-2.89633
1198.000	-1.97029	-2.37263	-2.19538	-3.06254
1199.000	-2.14997	-2.46166	-2.42631	-3.09772
1200.000	-2.45788	-2.52263	-2.59600	-3.06363
1201.000	-2.54273	-2.58594	-2.75382	-2.99388
1202.000	-2.77946	-2.66476	-2.97075	-3.05077
1203.000	-2.80707	-2.64289	-3.16394	-3.04626
1204.000	-2.90568	-2.65654	-3.38661	-3.15647
1205.000	-3.02595	-2.64634	-3.49101	-3.07693
1206.000	-3.06341	-2.67796	-3.64856	-3.11995
1207.000	-3.15803	-2.70944	-3.68991	-2.98717
1208.000	-3.12058	-2.70160	-3.70172	-3.05642
1209.000	-3.11072	-2.65406	-3.70763	-3.04057
1210.000	-3.00821	-2.57699	-3.63872	-3.00714
1211.000	-2.93723	-2.61681	-3.61903	-2.94582
1212.000	-2.84060	-2.57143	-3.51071	-2.91844
1213.000	-2.75185	-2.50816	-3.43980	-2.88301
1214.000	-2.64927	-2.48060	-3.38464	-2.78610
1215.000	-2.59995	-2.43904	-3.30189	-2.83191
1216.000	-2.54865	-2.45501	-3.17379	-2.76092
1217.000	-2.52695	-2.49274	-3.11466	-2.81459
1218.000	-2.52695	-2.43124	-3.12452	-2.79276
1219.000	-2.58219	-2.45891	-3.00032	-2.80498
1220.000	-2.53879	-2.45899	-3.01018	-2.79702
1221.000	-2.54668	-2.45700	-2.99046	-2.85851
1222.000	-2.55457	-2.41334	-3.00624	-2.89216
1223.000	-2.62165	-2.44495	-3.06735	-2.86624
1224.000	-2.69859	-2.49637	-3.10678	-2.88991
1225.000	-2.73607	-2.52604	-3.23489	-2.95691
1226.000	-2.76171	-2.54185	-3.18956	-2.89166
1227.000	-2.83468	-2.51195	-3.32356	-2.92495
1228.000	-2.85441	-2.54363	-3.29795	-2.97851
1229.000	-2.89187	-2.52967	-3.33341	-2.99623
1230.000	-2.95892	-2.53547	-3.37479	-3.00997
1231.000	-2.93920	-2.48197	-3.39646	-2.96039
1232.000	-3.02595	-2.53135	-3.47132	-2.95025
1233.000	-3.00426	-2.47389	-3.45556	-2.96813
1234.000	-3.00229	-2.52942	-3.52450	-3.01544
1235.000	-3.00032	-2.50563	-3.58161	-2.88455
1236.000	-3.01412	-2.52741	-3.50677	-2.97787
1237.000	-3.03384	-2.49564	-3.54419	-3.00547
1238.000	-3.05158	-2.52534	-3.55798	-2.94800
1239.000	-3.03581	-2.55115	-3.52844	-2.99760
1240.000	-3.04961	-2.54121	-3.54222	-3.01340
1241.000	-3.06735	-2.56496	-3.60524	-2.98151
1242.000	-3.03187	-2.52340	-3.55798	-2.97969
1243.000	-3.06538	-2.50350	-3.57373	-2.87071
1244.000	-3.06144	-2.56893	-3.54813	-2.94011
1245.000	-2.97863	-2.58301	-3.60327	-2.99340
1246.000	-3.01018	-2.57104	-3.53238	-2.90649
1247.000	-3.03187	-2.59874	-3.53435	-3.01937
1248.000	-3.05749	-2.58877	-3.52450	-2.98375
1249.000	-2.99244	-2.57108	-3.51662	-2.98774
1250.000	-2.99638	-2.57305	-3.49101	-2.89078
1251.000	-3.03187	-2.53728	-3.49101	-2.94821
1252.000	-2.96483	-2.57313	-3.51662	-2.96794
1253.000	-2.96089	-2.60288	-3.46541	-2.98196
1254.000	-2.94511	-2.51567	-3.46344	-2.88492
1255.000	-2.96680	-2.58304	-3.44374	-2.92261
1256.000	-2.97469	-2.55923	-3.42010	-2.96230
1257.000	-2.91948	-2.52168	-3.50086	-2.85905
1258.000	-2.90962	-2.51377	-3.48117	-2.92052
1259.000	-2.94117	-2.49783	-3.40434	-2.89500
1260.000	-2.92145	-2.52762	-3.57373	-2.94003
1261.000	-2.93526	-2.54147	-3.50874	-2.91053
1262.000	-2.94314	-2.52955	-3.48708	-2.91257
1263.000	-2.95695	-2.50771	-3.45753	-2.92059
1264.000	-2.94117	-2.50576	-3.46541	-2.95621
1265.000	-2.93526	-2.52362	-3.46147	-2.90869
1266.000	-2.94314	-2.53154	-3.44374	-2.92459
1267.000	-2.88990	-2.45233	-3.49101	-2.90662
1268.000	-2.94511	-2.49584	-3.52844	-2.90254
1269.000	-2.91357	-2.46220	-3.51268	-2.91844
1270.000	-2.90765	-2.50782	-3.46738	-2.94829
1271.000	-2.90173	-2.51180	-3.54419	-2.99953
1272.000	-2.91751	-2.45425	-3.49692	-2.96206
1273.000	-2.93920	-2.47404	-3.50874	-2.89666
1274.000	-2.94314	-2.48791	-3.56783	-2.94401
1275.000	-2.95300	-2.50375	-3.54222	-2.92429
1276.000	-2.94117	-2.50378	-3.58949	-2.97364
1277.000	-2.97469	-2.54535	-3.53041	-2.95799
1278.000	-2.96680	-2.44820	-3.53238	-2.95402
1279.000	-2.99835	-2.51158	-3.49298	-2.98583
1280.000	-2.94906	-2.51368	-3.50874	-2.99767
1281.000	-2.95892	-2.49977	-3.51071	-2.96795
1282.000	-2.98061	-2.51559	-3.47329	-2.92054
1283.000	-3.02004	-2.53136	-3.49692	-2.96008
1284.000	-2.96680	-2.45018	-3.51268	-2.91844
1285.000	-2.94906	-2.50773	-3.47526	-2.95420
1286.000	-2.97075	-2.45414	-3.49298	-2.95217
1287.000	-2.99638	-2.51555	-3.53631	-2.91836
1288.000	-2.99046	-2.51755	-3.58752	-2.93800
1289.000	-2.96483	-2.50571	-3.51268	-2.98775
1290.000	-2.99441	-2.51754	-3.55798	-3.03513
1291.000	-2.94314	-2.54740	-3.49692	-2.97394
1292.000	-3.00032	-2.52546	-3.59933	-2.92410
1293.000	-3.00032	-2.54330	-3.57176	-2.94994
1294.000	-3.04764	-2.55509	-3.49101	-2.97990
1295.000	-2.97469	-2.52750	-3.59343	-2.93997
1296.000	-2.91948	-2.48201	-3.47920	-2.98390
1297.000	-2.95497	-2.56522	-3.52253	-2.91445
1298.000	-2.93723	-2.54147	-3.47723	-2.93439
1299.000	-2.95695	-2.56720	-3.51662	-2.96398
1300.000	-2.96483	-2.51761	-3.48117	-2.95220
1301.000	-3.07524	-2.56494	-3.46541	-2.96414
1302.000	-3.00426	-2.53338	-3.53238	-2.90055
1303.000	-2.97863	-2.55525	-3.53435	-2.92629
1304.000	-2.94314	-2.53154	-3.58555	-2.96375
1305.000	-2.99441	-2.57504	-3.48511	-2.95813
1306.000	-2.99046	-2.63056	-3.44768	-2.94241
1307.000	-2.99835	-2.52546	-3.49101	-2.93039
1308.000	-2.99441	-2.53539	-3.52450	-2.95009
1309.000	-2.99046	-2.55324	-3.54616	-2.99755
1310.000	-2.96089	-2.52753	-3.53435	-2.98768
1311.000	-2.96878	-2.52950	-3.49889	-2.93036
1312.000	-2.94906	-2.54144	-3.50283	-2.96600
1313.000	-2.92737	-2.55339	-3.41813	-2.90090
1314.000	-2.94314	-2.54542	-3.47723	-2.94826
1315.000	-2.98652	-2.52351	-3.46541	-2.85916
1316.000	-2.93328	-2.52165	-3.59736	-2.94193
1317.000	-2.89779	-2.53561	-3.49495	-2.90463
1318.000	-2.91357	-2.52764	-3.56979	-2.92222
1319.000	-2.89976	-2.55741	-3.53435	-2.93421
1320.000	-2.93723	-2.52759	-3.55404	-2.88860
1321.000	-2.91159	-2.48203	-3.55010	-2.91040
1322.000	-2.89976	-2.52569	-3.57570	-2.95190
1323.000	-2.95103	-2.51764	-3.49692	-2.96404
1324.000	-2.87610	-2.49798	-3.52844	-2.88274
1325.000	-2.92737	-2.52959	-3.47920	-2.92052
1326.000	-2.92342	-2.52563	-3.51465	-2.92041
1327.000	-2.90173	-2.50188	-3.58161	-2.96377
1328.000	-2.96878	-2.56320	-3.56192	-2.90640
1329.000	-2.91159	-2.53954	-3.51268	-2.96003
1330.000	-2.93328	-2.52561	-3.48708	-2.98189
1331.000	-2.92737	-2.52761	-3.55207	-2.88068
1332.000	-2.93131	-2.56329	-3.51662	-2.97784
1333.000	-2.90765	-2.51972	-3.56389	-2.94204
1334.000	-2.97863	-2.54137	-3.57964	-2.93011
1335.000	-2.94314	-2.58111	-3.55010	-2.92624
1336.000	-2.97272	-2.56320	-3.52056	-2.91049
1337.000	-2.93723	-2.56724	-3.53041	-3.01740
1338.000	-2.89385	-2.51380	-3.48314	-2.93635
1339.000	-2.91751	-2.50978	-3.59343	-2.94393
1340.000	-2.93328	-2.52561	-3.48511	-2.90070
1341.000	-2.92934	-2.55140	-3.59146	-2.95977
1342.000	-2.90962	-2.53756	-3.57176	-2.94004
1343.000	-2.92540	-2.49787	-3.56783	-2.96975
1344.000	-2.93526	-2.53156	-3.56979	-2.98559
1345.000	-2.97666	-2.55327	-3.57570	-2.99349
1346.000	-2.95300	-2.59100	-3.58358	-2.96178
1347.000	-2.94117	-2.53352	-3.53631	-2.95401
1348.000	-2.94511	-2.55731	-3.57570	-2.94596
1349.000	-2.93526	-2.49784	-3.59146	-2.96968
1350.000	-2.92540	-2.51175	-3.49889	-2.96601
1351.000	-2.97075	-2.52949	-3.51071	-2.89270
1352.000	-2.96286	-2.51563	-3.55601	-2.93216
1353.000	-2.91948	-2.51969	-3.53041	-2.94215
1354.000	-2.90765	-2.52765	-3.50480	-2.89469
1355.000	-2.94906	-2.46608	-3.53631	-2.91242
1356.000	-2.96286	-2.54736	-3.52450	-2.94217
1357.000	-2.96878	-2.57708	-3.47132	-2.98788
1358.000	-2.97075	-2.48190	-3.55207	-2.96584
1359.000	-2.96878	-2.52156	-3.56783	-2.92817
1360.000	-2.97863	-2.51361	-3.49692	-2.96800
1361.000	-2.95103	-2.53945	-3.51465	-2.98775
1362.000	-2.93328	-2.53751	-3.52450	-2.95405
1363.000	-2.96286	-2.52753	-3.52844	-2.98572
1364.000	-2.98061	-2.47791	-3.60524	-2.95577
1365.000	-2.95892	-2.51564	-3.45162	-2.92259
1366.000	-2.97272	-2.50966	-3.56586	-2.97966
1367.000	-2.96680	-2.48588	-3.56783	-2.96183
1368.000	-2.93723	-2.47404	-3.57176	-2.96776
1369.000	-2.95892	-2.50969	-3.58555	-2.94197
1370.000	-3.00229	-2.49571	-3.59343	-2.99145
1371.000	-2.96878	-2.48389	-3.59146	-3.00730
1372.000	-2.96878	-2.46802	-3.60130	-2.95974
1373.000	-2.93723	-2.46413	-3.53041	-2.93224
1374.000	-2.97666	-2.47594	-3.51465	-3.00557
1375.000	-3.01018	-2.49569	-3.52844	-2.90452
1376.000	-2.96680	-2.49777	-3.53238	-2.96591
1377.000	-2.96483	-2.42242	-3.56389	-2.97967
1378.000	-2.98061	-2.47395	-3.55601	-3.04504
1379.000	-3.01412	-2.45999	-3.52844	-3.02335
1380.000	-2.98061	-2.54930	-3.53041	-2.95997
1381.000	-2.99638	-2.50762	-3.51859	-2.95011
1382.000	-3.01807	-2.48378	-3.51465	-3.03527
1383.000	-3.01412	-2.49965	-3.64069	-2.93585
1384.000	-2.97863	-2.46602	-3.50874	-2.94816
1385.000	-3.01412	-2.48973	-3.55601	-2.92424
1386.000	-2.98061	-2.50766	-3.49692	-3.00562
1387.000	-3.02595	-2.51350	-3.57176	-2.99944
1388.000	-2.98849	-2.47195	-3.55995	-2.93611
1389.000	-2.99244	-2.48582	-3.51859	-2.94813
1390.000	-2.95497	-2.50772	-3.47723	-2.98786
1391.000	-2.96286	-2.51166	-3.47329	-2.97203
1392.000	-3.01412	-2.53137	-3.52844	-2.96592
1393.000	-3.02989	-2.52142	-3.47329	-3.00174
1394.000	-2.98652	-2.45014	-3.49298	-2.96603
1395.000	-2.98258	-2.48981	-3.58161	-3.04495
1396.000	-2.96483	-2.46407	-3.54222	-3.01736
1397.000	-2.99046	-2.49970	-3.52056	-2.96594
1398.000	-3.03187	-2.48771	-3.52450	-2.97385
1399.000	-3.04961	-2.50552	-3.54616	-3.02329
1400.000	-3.07129	-2.48960	-3.59933	-3.01717
1401.000	-3.00426	-2.49571	-3.53828	-3.01143
1402.000	-2.98455	-2.50368	-3.42798	-3.02763
1403.000	-3.00821	-2.50561	-3.55995	-2.95790
1404.000	-3.01018	-2.50561	-3.51268	-2.98379
1405.000	-3.00032	-2.49770	-3.47723	-2.93637
1406.000	-2.98652	-2.51558	-3.57176	-2.98360
1407.000	-3.01018	-2.51156	-3.56979	-3.05291
1408.000	-3.02792	-2.48970	-3.51268	-3.02538
1409.000	-3.02398	-2.47187	-3.53435	-2.91441
1410.000	-3.01018	-2.49173	-3.52844	-3.05701
1411.000	-3.06144	-2.45393	-3.49101	-3.03337
1412.000	-2.99638	-2.49572	-3.54419	-2.97577
1413.000	-3.01018	-2.50164	-3.60918	-3.00328
1414.000	-3.01412	-2.56905	-3.53435	-2.96986
1415.000	-3.05158	-2.47378	-3.59540	-3.00135
1416.000	-3.05552	-2.46386	-3.51859	-2.97387
1417.000	-2.98652	-2.46600	-3.54222	-3.00350
1418.000	-2.95695	-2.46408	-3.53631	-2.98768
1419.000	-3.01018	-2.48974	-3.60130	-2.99143
1420.000	-2.98652	-2.48980	-3.54025	-2.96390
1421.000	-2.98258	-2.45411	-3.53828	-3.00747
1422.000	-3.01412	-2.54724	-3.58161	-3.05485
1423.000	-2.98061	-2.49774	-3.54222	-3.01340
1424.000	-2.97863	-2.46205	-3.62099	-2.98938
1425.000	-2.99441	-2.52745	-3.62296	-2.98145
1426.000	-3.02398	-2.50954	-3.54813	-3.04902
1427.000	-2.99638	-2.54530	-3.51071	-3.01746
1428.000	-2.99835	-2.51753	-3.50283	-3.14223
1429.000	-3.07327	-2.48167	-3.55404	-3.03712
1430.000	-3.01807	-2.52542	-3.49495	-3.08682
1431.000	-3.03187	-2.50556	-3.57767	-3.01922
1432.000	-2.98455	-2.47790	-3.52450	-2.97385
1433.000	-2.98061	-2.49576	-3.55010	-3.10049
1434.000	-3.02595	-2.52143	-3.51465	-3.03131
1435.000	-3.00229	-2.52942	-3.55010	-3.06090
1436.000	-3.01609	-2.49171	-3.54616	-3.03715
1437.000	-3.00032	-2.50563	-3.57176	-2.98558
1438.000	-3.00032	-2.51753	-3.57176	-2.99746
1439.000	-3.02989	-2.49565	-3.51071	-3.00558
1440.000	-2.99244	-2.50366	-3.47329	-2.93837
1441.000	-2.92145	-2.47209	-3.57373	-3.01528
1442.000	-2.97469	-2.47594	-3.55010	-2.98565
1443.000	-2.92145	-2.50382	-3.57767	-2.97566
1444.000	-2.95103	-2.52954	-3.49101	-2.98584
1445.000	-2.88990	-2.47613	-3.57373	-2.97765
1446.000	-2.89187	-2.46621	-3.60327	-2.99340
1447.000	-2.96680	-2.49381	-3.50283	-2.97392
1448.000	-2.91751	-2.49788	-3.60721	-3.02111
1449.000	-2.93920	-2.44826	-3.55404	-3.01732
1450.000	-2.89582	-2.47017	-3.50283	-2.98778
1451.000	-2.92737	-2.47208	-3.57570	-3.01923
1452.000	-2.93328	-2.43240	-3.55601	-3.06880
1453.000	-2.92934	-2.42051	-3.56192	-2.96185
1454.000	-2.95103	-2.48591	-3.52844	-3.01344
1455.000	-2.93723	-2.47801	-3.55798	-2.98167
1456.000	-2.91159	-2.47608	-3.55995	-2.98562
1457.000	-2.89779	-2.45033	-3.51662	-3.08081
1458.000	-2.88399	-2.49597	-3.54025	-3.00351
1459.000	-2.92934	-2.47803	-3.55798	-2.93414
1460.000	-2.95892	-2.46408	-3.48511	-3.00566
1461.000	-3.11860	-2.53113	-3.58949	-2.99938
1462.000	-3.19744	-2.53292	-3.67022	-2.98922
1463.000	-3.32553	-2.45132	-3.71353	-3.07222
1464.000	-3.53041	-2.50629	-3.93594	-3.05163
1465.000	-3.65447	-2.46632	-4.10316	-3.04705
1466.000	-4.00874	-2.47322	-4.58474	-3.01742
1467.000	-4.37253	-2.62649	-4.84395	-3.08746
1468.000	-4.78309	-2.64081	-5.19708	-3.15691
1469.000	-5.10491	-2.66919	-5.49693	-3.20472
1470.000	-5.50085	-2.74652	-5.92170	-3.19051
1471.000	-6.04880	-2.77545	-6.30674	-3.24933
1472.000	-6.58004	-2.91061	-6.77896	-3.26596
1473.000	-7.01473	-2.97100	-7.08873	-3.26775
1474.000	-7.39224	-3.01772	-7.50109	-3.26868
1475.000	-7.84090	-3.14820	-7.86030	-3.23056
1476.000	-8.15110	-3.21060	-8.19953	-3.26517
1477.000	-8.47629	-3.24129	-8.52270	-3.27815
1478.000	-8.58843	-3.19916	-8.79707	-3.21698
1479.000	-8.80480	-3.22083	-8.98619	-3.16047
1480.000	-9.06911	-3.20283	-9.19052	-3.16650
1481.000	-9.30608	-3.24571	-9.42541	-3.12720
1482.000	-9.50235	-3.22627	-9.65229	-3.02148
1483.000	-9.59079	-3.18828	-9.85967	-3.07824
1484.000	-9.80593	-3.16083	-10.04763	-2.94754
1485.000	-9.99011	-3.14734	-10.17409	-2.96591
1486.000	-10.14919	-3.05207	-10.48980	-2.94538
1487.000	-10.24877	-3.04136	-10.60445	-2.91113
1488.000	-10.36933	-3.07142	-10.82585	-2.92654
1489.000	-10.45348	-3.00035	-10.96311	-2.93883
1490.000	-10.55478	-2.98767	-10.96121	-2.89599
1491.000	-10.60254	-2.95405	-10.99550	-2.75929
1492.000	-10.53949	-2.95271	-10.99169	-2.70282
1493.000	-10.50318	-2.95110	-10.94024	-2.71108
1494.000	-10.45730	-2.85202	-10.90022	-2.69975
1495.000	-10.41332	-2.85633	-10.69992	-2.73666
1496.000	-10.26217	-2.85379	-10.74000	-2.60172
1497.000	-10.12812	-2.88039	-10.62355	-2.66711
1498.000	-10.08979	-2.82407	-10.42097	-2.68057
1499.000	-9.95751	-2.82522	-10.30428	-2.66399
1500.000	-9.94601	-2.89373	-10.24111	-2.68601
1501.000	-9.91915	-2.88029	-10.04571	-2.68960
1502.000	-9.89805	-2.87656	-9.93642	-2.71592
1503.000	-9.98628	-2.86992	-9.98436	-2.80153
1504.000	-10.02271	-2.86179	-9.99395	-2.78581
1505.000	-10.05721	-2.96113	-9.95943	-2.80175
1506.000	-10.11279	-2.93327	-10.03421	-2.85973
1507.000	-10.21239	-2.92259	-10.09746	-2.86503
1508.000	-10.25068	-3.03743	-10.18750	-2.92868
1509.000	-10.31767	-2.93529	-10.21814	-2.96745
1510.000	-10.34638	-2.99162	-10.33681	-2.95268
1511.000	-10.40376	-3.01254	-10.33681	-2.99367
1512.000	-10.44966	-3.05307	-10.48024	-2.94937
1513.000	-10.50509	-3.02131	-10.44966	-2.98283
1514.000	-10.53949	-2.96051	-10.55860	-3.00909
1515.000	-10.52038	-2.97825	-10.62164	-3.00652
1516.000	-10.47260	-2.94749	-10.64073	-2.99853
1517.000	-10.45157	-2.93989	-10.65219	-2.95552
1518.000	-10.55478	-2.95646	-10.64264	-2.98097
1519.000	-10.48024	-2.93571	-10.63310	-2.94011
1520.000	-10.47451	-2.89869	-10.63882	-2.88545
1521.000	-10.50892	-2.93934	-10.66938	-2.85396
1522.000	-10.53758	-2.87274	-10.63310	-2.90695
1523.000	-10.47451	-2.89869	-10.61973	-2.95194
1524.000	-10.48407	-2.88690	-10.57197	-2.80804
1525.000	-10.50509	-2.92377	-10.62546	-2.87582
1526.000	-10.52229	-2.88654	-10.56051	-2.91740
1527.000	-10.50700	-2.89644	-10.60254	-2.87409
1528.000	-10.47069	-2.90849	-10.57770	-2.84506
1529.000	-10.42097	-2.95969	-10.56242	-2.85495
1530.000	-10.41715	-2.90704	-10.46877	-2.79532
1531.000	-10.38846	-2.85850	-10.48980	-2.82245
1532.000	-10.39802	-2.87403	-10.54714	-2.82193
1533.000	-10.40185	-2.92474	-10.45157	-2.85207
1534.000	-10.32724	-2.91177	-10.47069	-2.89678
1535.000	-10.32916	-2.91371	-10.49362	-2.84973
1536.000	-10.39802	-2.91307	-10.44966	-2.90868
1537.000	-10.35785	-2.89587	-10.41906	-2.86213
1538.000	-10.30428	-2.94517	-10.46877	-2.83045
1539.000	-10.33872	-2.99560	-10.42480	-2.88550
1540.000	-10.31002	-2.95683	-10.39420	-2.89554
1541.000	-10.32341	-2.93328	-10.46686	-2.84803
1542.000	-10.32533	-2.90593	-10.36551	-2.86652
1543.000	-10.31959	-2.92551	-10.42862	-2.78982
1544.000	-10.30045	-2.94326	-10.40567	-2.89348
1545.000	-10.23728	-2.93603	-10.49171	-2.86341
1546.000	-10.30236	-2.94324	-10.37698	-2.91326
1547.000	-10.32533	-2.91374	-10.42097	-2.82893
1548.000	-10.26026	-2.90067	-10.38655	-2.82339
1549.000	-10.25643	-2.90071	-10.40759	-2.83100
1550.000	-10.27557	-3.00986	-10.40759	-2.89346
1551.000	-10.24686	-2.89884	-10.42289	-2.82111
1552.000	-10.27366	-2.92398	-10.43818	-2.83268
1553.000	-10.30045	-2.95497	-10.48598	-2.84980
1554.000	-10.27940	-2.94540	-10.43627	-2.84831
1555.000	-10.27366	-2.92008	-10.45348	-2.93792
1556.000	-10.28131	-2.95905	-10.50892	-2.92569
1557.000	-10.32533	-2.95474	-10.43245	-2.92250
1558.000	-10.32724	-2.95277	-10.46495	-2.91439
1559.000	-10.34255	-2.92725	-10.56624	-2.87638
1560.000	-10.31002	-2.97245	-10.50892	-2.90813
1561.000	-10.36359	-2.95633	-10.53949	-2.89418
1562.000	-10.33490	-2.89609	-10.56051	-2.84326
1563.000	-10.35211	-2.93887	-10.49745	-2.86921
1564.000	-10.32724	-2.91763	-10.49171	-2.86731
1565.000	-10.34064	-2.92727	-10.49745	-2.87311
1566.000	-10.35785	-2.94662	-10.44774	-2.87357
1567.000	-10.29088	-2.90039	-10.51847	-2.83585
1568.000	-10.26791	-2.92208	-10.54714	-2.84924
1569.000	-10.34064	-2.93312	-10.52612	-2.85724
1570.000	-10.33681	-2.91754	-10.54714	-2.88826
1571.000	-10.32916	-2.89223	-10.56242	-2.89397
1572.000	-10.37316	-2.86255	-10.47069	-2.85775
1573.000	-10.33107	-2.98396	-10.47069	-2.83824
1574.000	-10.31959	-2.91184	-10.52420	-2.88847
1575.000	-10.29471	-2.95698	-10.54905	-2.83166
1576.000	-10.32724	-2.90201	-10.53185	-2.84743
1577.000	-10.29471	-2.88474	-10.44201	-2.86387
1578.000	-10.31193	-2.94120	-10.49171	-2.92000
1579.000	-10.27174	-2.92595	-10.51274	-2.85736
1580.000	-10.27557	-2.91225	-10.50509	-2.91011
1581.000	-10.31959	-2.93917	-10.53376	-2.96837
1582.000	-10.34446	-2.91747	-10.51465	-2.83198
1583.000	-10.28705	-2.91019	-10.51083	-2.87104
1584.000	-10.28131	-2.94734	-10.48216	-2.89667
1585.000	-10.31576	-2.93335	-10.43053	-2.94204
1586.000	-10.34829	-2.88620	-10.52229	-2.88654
1587.000	-10.33107	-2.91564	-10.48789	-2.88101
1588.000	-10.31767	-2.92748	-10.51847	-2.84560
1589.000	-10.26983	-2.93768	-10.46113	-2.86760
1590.000	-10.28514	-2.87506	-10.52038	-2.88266
1591.000	-10.23345	-2.90873	-10.50318	-2.90818
1592.000	-10.24303	-2.89693	-10.42671	-2.84840
1593.000	-10.33298	-2.89610	-10.44583	-2.83651
1594.000	-10.27748	-2.92590	-10.48407	-2.86934
1595.000	-10.25834	-2.91046	-10.61209	-2.91691
1596.000	-10.28514	-2.88483	-10.50318	-2.92769
1597.000	-10.27174	-2.97086	-10.47260	-2.92213
1598.000	-10.30619	-2.89635	-10.51083	-2.93933
1599.000	-10.30811	-2.92171	-10.47260	-2.90066
1600.000	-10.28705	-2.96486	-10.48980	-2.90831
1601.000	-10.36551	-2.87824	-10.48980	-2.89660
1602.000	-10.34446	-2.93699	-10.48407	-2.85373
1603.000	-10.33298	-2.92148	-10.49936	-2.85554
1604.000	-10.30619	-2.93149	-10.50892	-2.91983
1605.000	-10.32533	-2.89617	-10.49936	-2.94529
1606.000	-10.31193	-2.85139	-10.52803	-2.86112
1607.000	-10.31002	-2.90803	-10.43818	-2.91074
1608.000	-10.26600	-2.94358	-10.48598	-2.89859
1609.000	-10.26217	-2.93776	-10.49745	-2.84970
1610.000	-10.31193	-2.87482	-10.48407	-2.86153
1611.000	-10.30428	-2.93541	-10.49936	-2.96480
1612.000	-10.33107	-2.96444	-10.50700	-2.93156
1613.000	-10.34829	-2.97599	-10.45730	-2.95739
1614.000	-10.33872	-2.96827	-10.47833	-2.96305
1615.000	-10.34255	-2.88430	-10.50700	-2.86912
1616.000	-10.33298	-2.92538	-10.47260	-2.92798
1617.000	-10.34064	-2.93117	-10.41524	-2.90510
1618.000	-10.36359	-2.88801	-10.50892	-2.88862
1619.000	-10.36551	-2.92118	-10.48598	-2.92005
1620.000	-10.42671	-2.90695	-10.47451	-2.93187
1621.000	-10.33872	-2.90581	-10.50127	-2.94722
1622.000	-10.33872	-2.91557	-10.55287	-2.82968
1623.000	-10.37316	-2.88792	-10.48598	-2.86737
1624.000	-10.36168	-2.88803	-10.47260	-2.89481
1625.000	-10.31002	-2.89436	-10.47642	-2.92014
1626.000	-10.34829	-2.92524	-10.45348	-2.89694
1627.000	-10.31002	-2.89827	-10.48024	-2.92401
1628.000	-10.35977	-2.90366	-10.53376	-3.01713
1629.000	-10.33681	-2.90778	-10.53185	-2.99570
1630.000	-10.29280	-2.93552	-10.49362	-2.89266
1631.000	-10.38846	-2.95219	-10.52038	-2.96069
1632.000	-10.38846	-2.95414	-10.54140	-2.93318
1633.000	-10.37125	-2.90746	-10.54522	-2.99166
1634.000	-10.34638	-2.98186	-10.50318	-2.93745
1635.000	-10.31767	-2.92748	-10.55669	-2.93694
1636.000	-10.34446	-2.86867	-10.45922	-2.88323
1637.000	-10.28897	-2.92384	-10.35403	-2.87248
1638.000	-10.22962	-2.91462	-10.26983	-2.85958
1639.000	-10.05530	-2.89862	-10.02463	-2.81682
1640.000	-9.70416	-2.98190	-9.84816	-2.88482
1641.000	-9.39462	-2.95133	-9.42348	-2.92172
1642.000	-8.98426	-2.94691	-9.01705	-2.85845
1643.000	-8.54784	-3.01903	-8.48403	-2.95674
1644.000	-7.98637	-2.99386	-7.97279	-3.01360
1645.000	-7.59241	-3.10286	-7.34752	-2.99048
1646.000	-6.84524	-3.11585	-6.73607	-2.98456
1647.000	-6.31065	-2.98315	-6.09377	-3.01594
1648.000	-5.64773	-2.98873	-5.46951	-3.08443
1649.000	-5.06372	-2.96392	-4.81450	-3.02039
1650.000	-4.42756	-2.87960	-4.15823	-3.03497
1651.000	-3.98316	-2.90103	-3.52844	-3.05503
1652.000	-3.36691	-2.90700	-2.90371	-3.11039
1653.000	-2.90962	-2.93601	-2.39276	-3.26028
1654.000	-2.38881	-3.00663	-1.76491	-3.32302
1655.000	-1.89525	-3.10276	-1.36585	-3.54560
1656.000	-1.43698	-3.24029	-0.83819	-3.68294
1657.000	-0.98247	-3.26264	-0.33609	-3.81797
1658.000	-0.51203	-3.44737	0.11664	-3.97249
1659.000	0.07710	-3.47525	0.53378	-4.05547
1660.000	0.46656	-3.63764	0.88958	-4.29655
1661.000	1.02398	-3.70454	1.35597	-4.33146
1662.000	1.44686	-3.92769	1.86563	-4.42725
1663.000	1.99991	-3.99185	2.36710	-4.52658
1664.000	2.45394	-4.17256	2.70056	-4.65179
1665.000	2.99441	-4.32085	3.27430	-4.79140
1666.000	3.43783	-4.43941	3.67416	-4.84261
1667.000	3.93594	-4.54346	4.20936	-4.91830
1668.000	4.41184	-4.65896	4.64956	-5.09642
1669.000	4.87731	-4.77403	5.03233	-5.05030
1670.000	5.28922	-4.77099	5.54003	-5.08351
1671.000	5.72407	-4.89724	5.95103	-5.21726
1672.000	6.18367	-4.87353	6.34971	-5.12511
1673.000	6.64051	-4.98295	6.77702	-5.20696
1674.000	7.09457	-4.93512	7.25221	-5.27213
1675.000	7.55161	-4.94183	7.64291	-5.19316
1676.000	7.99024	-4.96212	8.03095	-5.19616
1677.000	8.36021	-4.89306	8.41826	-5.18331
1678.000	8.79128	-4.88169	8.73335	-5.06589
1679.000	9.19823	-4.80018	9.14621	-4.97442
1680.000	9.65037	-4.72770	9.53119	-4.91638
1681.000	10.03996	-4.75134	9.89997	-4.85846
1682.000	10.48024	-4.59902	10.12045	-4.79489
1683.000	10.82585	-4.57053	10.57388	-4.66952
1684.000	11.10976	-4.54288	10.87734	-4.69979
1685.000	11.44631	-4.40192	11.09834	-4.64586
1686.000	11.69867	-4.35923	11.23535	-4.57776
1687.000	11.99030	-4.27140	11.46530	-4.53922
1688.000	12.10564	-4.29665	11.55452	-4.46999
1689.000	12.20577	-4.32211	11.69298	-4.59555
1690.000	12.19444	-4.31262	11.62471	-4.55795
1691.000	12.16611	-4.27634	11.65695	-4.56323
1692.000	12.11509	-4.32357	11.68919	-4.56658
1693.000	11.97895	-4.30641	11.55262	-4.65014
1694.000	11.89189	-4.34456	11.42541	-4.77812
1695.000	11.71004	-4.37455	11.37032	-4.74224
1696.000	11.58108	-4.38626	11.22393	-4.88998
1697.000	11.49757	-4.42826	11.15544	-4.84074
1698.000	11.33991	-4.41714	11.11547	-4.91505
1699.000	11.32471	-4.49493	10.90784	-4.93595
1700.000	11.25817	-4.53863	10.97835	-4.86886
1701.000	11.25246	-4.53678	11.00884	-4.90132
1702.000	11.31520	-4.56487	11.02979	-4.87771
1703.000	11.26007	-4.55798	11.10976	-4.92290
1704.000	11.31140	-4.57268	11.09834	-4.87076
1705.000	11.44821	-4.57049	11.17447	-4.84237
1706.000	11.53364	-4.64852	11.24676	-4.81985
1707.000	11.62661	-4.66634	11.23535	-4.85685
1708.000	11.70246	-4.63217	11.36082	-4.84118
1709.000	11.80100	-4.66921	11.31901	-4.85932
1710.000	11.91650	-4.65564	11.39692	-4.79216
1711.000	11.90704	-4.63646	11.37412	-4.76736
1712.000	12.02245	-4.61709	11.46340	-4.80266
1713.000	12.02245	-4.64416	11.55072	-4.80698
1714.000	12.05082	-4.67459	11.44631	-4.78939
1715.000	12.05460	-4.66100	11.48618	-4.76549
1716.000	12.02056	-4.64806	11.48998	-4.77897
1717.000	12.03758	-4.62457	11.42351	-4.78784
1718.000	12.05838	-4.65900	11.37412	-4.77317
1719.000	12.03569	-4.59560	11.45200	-4.77768
1720.000	12.03947	-4.58007	11.36462	-4.80045
1721.000	12.02056	-4.58813	11.36842	-4.72872
1722.000	12.02056	-4.56106	11.39122	-4.80387
1723.000	12.02623	-4.55516	11.32851	-4.76618
1724.000	11.94678	-4.55843	11.27908	-4.81931
1725.000	11.95813	-4.49055	11.25246	-4.75000
1726.000	11.92029	-4.52599	11.26767	-4.72262
1727.000	11.91272	-4.50871	11.27908	-4.77863
1728.000	11.88621	-4.43949	11.26007	-4.72856
1729.000	11.88053	-4.46861	11.19920	-4.70048
1730.000	11.85781	-4.47865	11.19730	-4.73540
1731.000	11.83888	-4.46154	11.19730	-4.70438
1732.000	11.83130	-4.47909	11.29049	-4.74744
1733.000	11.78774	-4.50496	11.23725	-4.74056
1734.000	11.78774	-4.51076	11.21632	-4.74865
1735.000	11.79342	-4.45454	11.17066	-4.74552
1736.000	11.78395	-4.52437	11.14593	-4.75562
1737.000	11.76689	-4.54401	11.18779	-4.76850
1738.000	11.73847	-4.50770	11.19730	-4.76641
1739.000	11.71952	-4.52349	11.18208	-4.77829
1740.000	11.72710	-4.53692	11.22964	-4.78138
1741.000	11.73847	-4.52899	11.18018	-4.69691
1742.000	11.74984	-4.52880	11.33041	-4.82426
1743.000	11.71952	-4.50994	11.19730	-4.73540
1744.000	11.74226	-4.53473	11.25246	-4.69768
1745.000	11.71573	-4.53904	11.18398	-4.72592
1746.000	11.75174	-4.52684	11.18589	-4.76660
1747.000	11.74226	-4.52312	11.24485	-4.76175
1748.000	11.78395	-4.53018	11.18589	-4.74334
1749.000	11.74795	-4.50561	11.30190	-4.73950
1750.000	11.73847	-4.53480	11.26767	-4.79044
1751.000	11.74984	-4.54429	11.22584	-4.72330
1752.000	11.74605	-4.47853	11.29810	-4.74731
1753.000	11.73657	-4.52515	11.23154	-4.78135
1754.000	11.74416	-4.48437	11.22203	-4.72918
1755.000	11.77068	-4.55362	11.20872	-4.76428
1756.000	11.76500	-4.53436	11.33991	-4.70981
1757.000	11.74226	-4.56183	11.22964	-4.79882
1758.000	11.75553	-4.57322	11.22774	-4.72133
1759.000	11.81426	-4.53355	11.23154	-4.72903
1760.000	11.78205	-4.57472	11.27528	-4.77675
1761.000	11.76121	-4.53442	11.26197	-4.76147
1762.000	11.76311	-4.55375	11.14593	-4.73236
1763.000	11.79531	-4.57063	11.25817	-4.71890
1764.000	11.78584	-4.58046	11.30760	-4.74909
1765.000	11.80857	-4.58202	11.25056	-4.73647
1766.000	11.77447	-4.58452	11.31140	-4.76065
1767.000	11.76500	-4.59629	11.28289	-4.71656
1768.000	11.81047	-4.52974	11.23915	-4.73472
1769.000	11.76689	-4.58078	11.37412	-4.79641
1770.000	11.78205	-4.55537	11.29239	-4.72609
1771.000	11.79721	-4.53964	11.21823	-4.77188
1772.000	11.75174	-4.49006	11.23725	-4.75606
1773.000	11.77068	-4.49556	11.30760	-4.73747
1774.000	11.77826	-4.55930	11.25627	-4.73831
1775.000	11.77068	-4.49362	11.26007	-4.75763
1776.000	11.76689	-4.52659	11.37032	-4.74612
1777.000	11.78205	-4.49924	11.26767	-4.73425
1778.000	11.76879	-4.49946	11.20111	-4.74890
1779.000	11.77258	-4.50908	11.30570	-4.75687
1780.000	11.75932	-4.52284	11.30760	-4.76072
1781.000	11.72710	-4.49820	11.23344	-4.77550
1782.000	11.72141	-4.51185	11.21252	-4.76228
1783.000	11.74037	-4.55025	11.31140	-4.81877
1784.000	11.76689	-4.56917	11.30570	-4.73944
1785.000	11.75742	-4.54997	11.31330	-4.73737
1786.000	11.79721	-4.58414	11.30000	-4.75503
1787.000	11.76121	-4.57700	11.27338	-4.74966
1788.000	11.78205	-4.57666	11.31520	-4.73734
1789.000	11.80289	-4.59953	11.28859	-4.74941
1790.000	11.80479	-4.58402	11.34181	-4.85506
1791.000	11.78016	-4.57669	11.28098	-4.74953
1792.000	11.77447	-4.58646	11.33611	-4.79511
1793.000	11.80289	-4.55309	11.33611	-4.74862
1794.000	11.79721	-4.56286	11.24105	-4.71530
1795.000	11.79531	-4.53967	11.25246	-4.76550
1796.000	11.79531	-4.57837	11.32851	-4.76231
1797.000	11.78016	-4.54572	11.41782	-4.80730
1798.000	11.78963	-4.55911	11.21823	-4.71761
1799.000	11.76879	-4.58075	11.24866	-4.73262
1800.000	11.78395	-4.58049	11.30190	-4.76662
1801.000	11.75174	-4.51716	11.33421	-4.81258
1802.000	11.77447	-4.57098	11.32661	-4.78171
1803.000	11.78205	-4.58827	11.32281	-4.75853
1804.000	11.79152	-4.59004	11.23915	-4.73472
1805.000	11.78016	-4.57669	11.23915	-4.70952
1806.000	11.77447	-4.53421	11.30570	-4.73362
1807.000	11.74984	-4.56945	11.27718	-4.80578
1808.000	11.80100	-4.58989	11.31330	-4.82842
1809.000	11.78395	-4.56501	11.34942	-4.79102
1810.000	11.76121	-4.56733	11.17828	-4.75121
1811.000	11.74795	-4.55206	11.20491	-4.80698
1812.000	11.73847	-4.54641	11.24866	-4.77913
1813.000	11.75742	-4.61190	11.20491	-4.75659
1814.000	11.78963	-4.59008	11.19540	-4.71992
1815.000	11.77447	-4.59420	11.30000	-4.70853
1816.000	11.78963	-4.60169	11.33801	-4.76990
1817.000	11.77068	-4.56717	11.26007	-4.76344
1818.000	11.74795	-4.58303	11.18779	-4.73943
1819.000	11.74795	-4.53658	11.22964	-4.73681
1820.000	11.77258	-4.57488	11.17828	-4.78223
1821.000	11.77447	-4.60968	11.27148	-4.74969
1822.000	11.76689	-4.57110	11.32661	-4.83401
1823.000	11.77258	-4.58068	11.19159	-4.81301
1824.000	11.74984	-4.55784	11.30760	-4.74716
1825.000	11.75363	-4.58680	11.29049	-4.77456
1826.000	11.78395	-4.56695	11.22774	-4.81435
1827.000	11.78205	-4.55924	11.17828	-4.75703
1828.000	11.78205	-4.54763	11.23725	-4.79676
1829.000	11.77637	-4.55933	11.26007	-4.72662
1830.000	11.78774	-4.54947	11.17257	-4.78038
1831.000	11.77637	-4.54579	11.22393	-4.74465
1832.000	11.75174	-4.56555	11.11547	-4.69019
1833.000	11.76689	-4.53239	11.21823	-4.76994
1834.000	11.76121	-4.54023	11.25056	-4.74228
1835.000	11.74416	-4.48050	11.17637	-4.67758
1836.000	11.77447	-4.55356	11.24105	-4.69786
1837.000	11.77637	-4.51095	11.31711	-4.75862
1838.000	11.74984	-4.51719	11.22393	-4.86285
1839.000	11.78774	-4.53399	11.24295	-4.68039
1840.000	11.75174	-4.56168	11.17066	-4.73583
1841.000	11.77068	-4.56717	11.26577	-4.74009
1842.000	11.77068	-4.52265	11.25246	-4.76744
1843.000	11.74984	-4.55977	11.28289	-4.82700
1844.000	11.76689	-4.56336	11.32851	-4.76425
1845.000	11.71193	-4.56427	11.27718	-4.80578
1846.000	11.76311	-4.55568	11.27338	-4.82328
1847.000	11.74795	-4.54238	11.18589	-4.69294
1848.000	11.75742	-4.55190	11.21823	-4.87070
1849.000	11.69487	-4.53357	11.20111	-4.79735
1850.000	11.77068	-4.57878	11.18398	-4.75306
1851.000	11.75742	-4.57126	11.17257	-4.70285
1852.000	11.73657	-4.55999	11.19730	-4.75284
1853.000	11.78205	-4.56505	11.21252	-4.75259
1854.000	11.73468	-4.55421	11.30190	-4.77050
1855.000	11.75742	-4.52868	11.23344	-4.82201
1856.000	11.75363	-4.56551	11.20491	-4.75078
1857.000	11.73657	-4.55031	11.10215	-4.79316
1858.000	11.69677	-4.56452	11.22393	-4.79116
1859.000	11.73847	-4.56189	11.18589	-4.74528
1860.000	11.75742	-4.56158	11.24295	-4.75403
1861.000	11.74226	-4.55409	11.19730	-4.72958
1862.000	11.70814	-4.57207	11.24105	-4.75019
1863.000	11.72141	-4.54088	11.21062	-4.80107
1864.000	11.73657	-4.54838	11.31520	-4.77028
1865.000	11.73468	-4.56970	11.32281	-4.71784
1866.000	11.73278	-4.57167	11.32471	-4.81274
1867.000	11.73278	-4.60263	11.19920	-4.76056
1868.000	11.71004	-4.51203	11.29429	-4.84811
1869.000	11.72331	-4.53117	11.20491	-4.84186
1870.000	11.74226	-4.53086	11.27338	-4.74384
1871.000	11.72710	-4.56015	11.33231	-4.77774
1872.000	11.76689	-4.56530	11.29239	-4.77841
1873.000	11.70435	-4.57601	11.31520	-4.75284
1874.000	11.71193	-4.53910	11.23154	-4.69414
1875.000	11.70246	-4.53345	11.27908	-4.79413
1876.000	11.70435	-4.52374	11.21632	-4.78160
1877.000	11.69677	-4.59936	11.26007	-4.78669
1878.000	11.72520	-4.57953	11.29239	-4.75128
1879.000	11.73089	-4.56589	11.25436	-4.78872
1880.000	11.72141	-4.58540	11.24295	-4.81023
1881.000	11.71762	-4.58740	11.26767	-4.77688
1882.000	11.70056	-4.54703	11.30570	-4.75494
1883.000	11.71952	-4.58350	11.30760	-4.72584
1884.000	11.69108	-4.52783	11.26387	-4.77888
1885.000	11.71573	-4.54485	11.25056	-4.77328
1886.000	11.69298	-4.58394	11.22203	-4.74856
1887.000	11.68539	-4.52017	11.26197	-4.76922
1888.000	11.69867	-4.55093	11.27148	-4.78069
1889.000	11.71193	-4.54878	11.23344	-4.76582
1890.000	11.71573	-4.56808	11.39502	-4.76895
1891.000	11.71004	-4.53913	11.30000	-4.74147
1892.000	11.70435	-4.53342	11.26767	-4.80206
1893.000	11.72331	-4.56795	11.36652	-4.84108
1894.000	11.71573	-4.56227	11.36082	-4.77533
1895.000	11.71004	-4.57010	11.23535	-4.82198
1896.000	11.72520	-4.56405	11.38172	-4.81759
1897.000	11.70435	-4.61665	11.27338	-4.77872
1898.000	11.67781	-4.57838	11.39312	-4.80771
1899.000	11.67971	-4.56286	11.34752	-4.79686
1900.000	11.68919	-4.62271	11.25246	-4.85463
1901.000	11.69867	-4.61094	11.21062	-4.66540
1902.000	11.67023	-4.59205	11.29810	-4.76281
1903.000	11.66454	-4.59215	11.27908	-4.78638
1904.000	11.67971	-4.60545	11.37982	-4.77889
1905.000	11.68729	-4.57241	11.37602	-4.78282
1906.000	11.68160	-4.59961	11.34372	-4.81823
1907.000	11.67781	-4.57838	11.23344	-4.76000
1908.000	11.65126	-4.58849	11.37602	-4.80219
1909.000	11.65885	-4.59224	11.32661	-4.79140
1910.000	11.66264	-4.55346	11.33041	-4.80296
1911.000	11.65885	-4.58450	11.34372	-4.76980
1912.000	11.66075	-4.57285	11.26767	-4.75750
1913.000	11.66643	-4.55146	11.26577	-4.85247
1914.000	11.67971	-4.59577	11.40832	-4.75517
1915.000	11.68160	-4.53766	11.32661	-4.77396
1916.000	11.69487	-4.58003	11.27148	-4.76131
1917.000	11.66643	-4.56501	11.32281	-4.82439
1918.000	11.65885	-4.55546	11.34942	-4.76777
1919.000	11.67212	-4.60557	11.22964	-4.80076
1920.000	11.70435	-4.61665	11.44441	-4.75844
1921.000	11.75363	-4.63325	11.54313	-4.73936
1922.000	11.86160	-4.65077	11.63040	-4.76111
1923.000	11.96759	-4.56969	11.72899	-4.77103
1924.000	12.16044	-4.66496	11.83888	-4.73239
1925.000	12.38130	-4.68423	11.95813	-4.81537
1926.000	12.61873	-4.76093	12.23788	-4.91073
1927.000	12.87264	-4.80626	12.45484	-4.92982
1928.000	13.11665	-4.91313	12.65262	-4.93954
1929.000	13.37515	-5.02320	12.78618	-4.90229
1930.000	13.57521	-5.01710	12.92148	-4.96895
1931.000	13.76560	-5.05909	13.12040	-4.88420
1932.000	13.90539	-5.04073	13.24410	-5.04512
1933.000	13.97802	-5.08513	13.36954	-5.07709
1934.000	14.01152	-5.09205	13.34334	-5.08532
1935.000	14.01525	-5.08622	13.40322	-5.10710
1936.000	13.92774	-5.06324	13.33772	-5.14497
1937.000	13.83086	-5.04043	13.36767	-5.13089
1938.000	13.69097	-5.01274	13.22349	-5.22421
1939.000	13.54531	-4.98702	13.12228	-5.20138
1940.000	13.39574	-5.02277	13.02098	-5.24195
1941.000	13.30028	-5.01898	12.84069	-5.21879
1942.000	13.11290	-4.93436	12.73728	-5.15355
1943.000	12.97218	-4.91214	12.61497	-5.16372
1944.000	12.83129	-4.90334	12.54529	-5.13044
1945.000	12.77490	-4.93717	12.45672	-5.14375
1946.000	12.70531	-4.89999	12.47369	-5.13571
1947.000	12.74857	-4.86063	12.39262	-5.05634
1948.000	12.70907	-4.86524	12.44353	-5.04186
1949.000	12.73917	-4.87622	12.41525	-5.06168
1950.000	12.74481	-4.89345	12.52645	-4.98436
1951.000	12.79558	-4.89248	12.52080	-5.04229
1952.000	12.88203	-4.91005	12.47180	-5.07215
1953.000	12.94214	-4.93390	12.59426	-5.06012
1954.000	13.03036	-4.93216	12.59049	-5.02166
1955.000	13.05475	-4.96053	12.60744	-5.10802
1956.000	13.06038	-4.97195	12.71283	-5.02119
1957.000	13.14290	-4.92222	12.69590	-4.99649
1958.000	13.15790	-4.91231	12.74481	-4.99938
1959.000	13.17289	-4.95046	12.84069	-5.03599
1960.000	13.19164	-4.92509	12.86512	-4.96621
1961.000	13.21038	-4.90934	12.82941	-4.97076
1962.000	13.22162	-4.90911	12.81814	-5.03644
1963.000	13.21225	-4.89392	12.86324	-4.98357
1964.000	13.21600	-4.89769	12.82754	-5.06705
1965.000	13.19726	-4.89037	12.93275	-4.97450
1966.000	13.22911	-4.91088	12.89142	-5.06384
1967.000	13.22162	-4.87066	12.87639	-5.04875
1968.000	13.22536	-4.88020	12.83881	-5.07837
1969.000	13.27219	-4.84082	12.81250	-4.98650
1970.000	13.25721	-4.87572	12.90269	-5.05399
1971.000	13.27968	-4.88488	12.85760	-5.03180
1972.000	13.27407	-4.92536	12.82941	-5.05739
1973.000	13.24597	-4.91631	12.89706	-5.03294
1974.000	13.25346	-4.90078	12.89142	-5.14272
1975.000	13.30964	-4.95731	12.96467	-5.08352
1976.000	13.23848	-4.93569	12.86700	-5.05856
1977.000	13.24410	-4.95672	12.89330	-5.11960
1978.000	13.22349	-4.89177	12.89706	-5.09259
1979.000	13.23286	-4.93003	12.83693	-5.08803
1980.000	13.18976	-4.91167	12.91397	-5.15765
1981.000	13.19913	-4.90572	12.84633	-5.01086
1982.000	13.20475	-4.94790	12.82190	-5.07101
1983.000	13.18789	-4.90979	12.80310	-5.09448
1984.000	13.19538	-4.91733	12.89142	-5.16004
1985.000	13.18414	-4.90217	12.89142	-5.04845
1986.000	13.17852	-4.93689	12.95528	-5.04332
1987.000	13.19538	-4.89425	12.86888	-5.10278
1988.000	13.14103	-4.89534	12.88203	-5.11790
1989.000	13.16165	-4.93915	12.79182	-5.09086
1990.000	13.18601	-4.92136	12.88955	-5.06003
1991.000	13.18601	-4.88098	12.86136	-5.05482
1992.000	13.18601	-4.92328	12.86888	-5.02003
1993.000	13.14478	-4.91065	12.88015	-5.02750
1994.000	13.15415	-4.86430	12.83693	-5.00719
1995.000	13.14103	-4.92611	12.81626	-5.09422
1996.000	13.14478	-4.92603	12.90269	-5.12903
1997.000	13.12790	-4.94560	12.91397	-4.99027
1998.000	13.15790	-4.96615	12.97030	-5.04878
1999.000	13.12790	-4.89175	12.88767	-5.10047
2000.000	13.15415	-4.89892	12.81626	-5.06150
2001.000	13.12978	-4.91479	12.81250	-5.04233
2002.000	13.12978	-4.92825	12.85385	-5.04535
2003.000	13.13353	-4.93203	12.93650	-5.04947
2004.000	13.14853	-4.90865	12.72976	-5.06707
2005.000	13.13728	-4.91849	12.89894	-5.05599
2006.000	13.13915	-4.91845	12.88579	-5.05818
2007.000	13.13540	-4.92814	12.90082	-5.04249
2008.000	13.12040	-4.91306	12.90833	-5.04811
2009.000	13.14103	-4.92226	12.92899	-5.06693
2010.000	13.12415	-4.93414	12.89706	-5.00792
2011.000	13.10915	-4.89597	12.86136	-5.06252
2012.000	13.15977	-4.90650	12.83317	-5.03806
2013.000	13.12603	-4.94371	12.95716	-5.06251
2014.000	13.14478	-4.89911	12.86512	-5.01048
2015.000	13.14103	-4.92034	12.92711	-5.11891
2016.000	13.14103	-4.92418	12.87452	-5.02954
2017.000	13.15602	-4.93350	12.79370	-5.09082
2018.000	13.15415	-4.89892	12.89706	-5.02909
2019.000	13.15602	-4.89696	12.90082	-5.01170
2020.000	13.16165	-4.91223	12.79370	-5.05425
2021.000	13.15602	-4.93158	12.78054	-5.03719
2022.000	13.09602	-4.87892	12.80686	-5.09633
2023.000	13.14103	-4.89149	12.84633	-5.03395
2024.000	13.13353	-4.94741	12.96279	-5.06432
2025.000	13.12228	-4.91879	12.92711	-5.01502
2026.000	13.11290	-4.89205	12.97781	-4.96591
2027.000	13.10540	-4.88258	12.93650	-5.05908
2028.000	13.10540	-4.89412	12.88391	-5.08901
2029.000	13.09415	-4.95012	12.96655	-5.09695
2030.000	13.11478	-4.91701	12.88579	-5.05818
2031.000	13.11665	-4.87274	12.91584	-5.03449
2032.000	13.09977	-4.93847	12.90457	-5.01739
2033.000	13.12415	-4.94375	12.94965	-5.01649
2034.000	13.13540	-4.85313	12.82566	-5.04976
2035.000	13.13540	-4.87237	12.89894	-5.01173
2036.000	13.11290	-4.86704	12.90082	-5.00785
2037.000	13.06976	-4.86789	12.86324	-5.05286
2038.000	13.11103	-4.91517	12.84821	-5.03776
2039.000	13.12040	-4.92459	12.92523	-5.07470
2040.000	13.09602	-4.89815	12.86888	-5.14895
2041.000	13.08477	-4.92723	12.92336	-5.05358
2042.000	13.06976	-4.92560	12.91772	-5.00751
2043.000	13.09790	-4.91543	12.79182	-5.02541
2044.000	13.08102	-4.89075	12.84445	-5.06094
2045.000	13.08664	-4.88295	12.85009	-5.05505
2046.000	13.08289	-4.88879	12.90645	-5.06161
2047.000	13.10915	-4.89789	12.75609	-4.97605
2048.000	13.09227	-4.88284	12.88579	-5.06973
2049.000	13.11478	-4.85161	12.77490	-5.01034
2050.000	13.07351	-4.90052	12.80498	-5.03863
2051.000	13.06601	-4.89105	12.80122	-4.99635
2052.000	13.09415	-4.90204	12.86512	-5.01626
2053.000	13.09602	-4.85198	12.81814	-4.96714
2054.000	13.09602	-4.87507	12.75609	-4.99916
2055.000	13.09790	-4.88080	12.78054	-4.95247
2056.000	13.09977	-4.85191	12.82754	-5.03048
2057.000	13.13165	-4.88783	12.83317	-5.01882
2058.000	13.13540	-4.88583	12.85009	-4.98768
2059.000	13.09977	-4.89423	12.84445	-4.99934
2060.000	13.14478	-4.88180	12.91209	-5.02302
2061.000	13.12978	-4.88787	12.88955	-5.06965
2062.000	13.11103	-4.89016	12.85009	-5.06082
2063.000	13.15790	-4.87385	12.80498	-5.06173
2064.000	13.10915	-4.90559	12.82378	-4.98820
2065.000	13.14853	-4.93365	12.90082	-5.02517
2066.000	13.12603	-4.89371	12.86512	-5.10093
2067.000	13.13353	-4.88971	12.95528	-5.08371
2068.000	13.12790	-4.92060	12.86324	-5.08173
2069.000	13.12978	-4.85324	12.89330	-5.04649
2070.000	13.12978	-4.89171	12.79182	-5.02926
2071.000	13.14478	-4.90680	12.81438	-5.05384
2072.000	13.10540	-4.89027	12.91209	-5.04803
2073.000	13.11290	-4.88628	12.85760	-5.01256
2074.000	13.10540	-4.84603	12.85385	-5.09731
2075.000	13.15602	-4.85080	12.81250	-4.99998
2076.000	13.13915	-4.87806	12.80310	-5.02519
2077.000	13.12228	-4.87455	12.85197	-4.96262
2078.000	13.12978	-4.84363	12.82002	-5.08067
2079.000	13.12603	-4.85909	12.87264	-5.00263
2080.000	13.15602	-4.86811	12.81250	-5.02885
2081.000	13.14478	-4.84333	12.97030	-5.01416
2082.000	13.11103	-4.83822	12.88391	-5.02166
2083.000	13.14665	-4.85291	12.75985	-5.06262
2084.000	13.14290	-4.85876	12.94777	-5.08002
2085.000	13.13540	-4.84929	12.86512	-5.00663
2086.000	13.13728	-4.85887	12.96091	-4.97971
2087.000	13.17852	-4.82343	12.90457	-5.01162
2088.000	13.16165	-4.83338	12.89894	-5.14065
2089.000	13.13540	-4.83390	12.87076	-4.99305
2090.000	13.11665	-4.87081	12.87076	-5.03347
2091.000	13.14665	-4.89138	12.85948	-5.01637
2092.000	13.11665	-4.88043	12.84821	-5.00697
2093.000	13.13540	-4.87814	12.87264	-5.01611
2094.000	13.13728	-4.86464	12.82566	-5.00164
2095.000	13.13165	-4.86475	12.87452	-5.05071
2096.000	13.09227	-4.86745	12.85009	-5.03195
2097.000	13.08852	-4.89638	12.88015	-5.09293
2098.000	13.13540	-4.84929	12.87639	-5.07376
2099.000	13.13540	-4.90699	12.83693	-5.05146
2100.000	13.14103	-4.87803	12.97781	-5.08903
2101.000	13.11478	-4.89778	12.84633	-5.06667
2102.000	13.10728	-4.91716	12.93275	-5.02838
2103.000	13.10540	-4.91720	13.03787	-5.03972
2104.000	13.11853	-4.89771	12.87827	-5.05641
2105.000	13.10165	-4.90381	13.02473	-5.01306
2106.000	13.14853	-4.83364	12.95340	-5.07990
2107.000	13.10915	-4.88250	12.95152	-5.03954
2108.000	13.11665	-4.89197	12.85760	-5.05682
2109.000	13.10728	-4.88639	12.92336	-5.01317
2110.000	13.12228	-4.89763	12.95716	-5.03943
2111.000	13.09227	-4.91938	12.89330	-5.04071
2112.000	13.11103	-4.93247	12.99095	-4.98873
2113.000	13.11290	-4.91320	12.89142	-5.07154
2114.000	13.07539	-4.93318	12.94777	-4.98959
2115.000	13.07351	-4.84665	12.85573	-5.01452
2116.000	13.09040	-4.90596	12.89142	-5.02151
2117.000	13.06226	-4.88920	12.90269	-5.08285
2118.000	13.09227	-4.89438	13.01347	-5.03252
2119.000	13.07164	-4.90825	12.87639	-5.06607
2120.000	13.07539	-4.87355	12.97405	-5.05256
2121.000	13.06038	-4.90463	12.91584	-5.05565
2122.000	13.09977	-4.91731	12.95716	-5.08175
2123.000	13.06601	-4.89874	13.02473	-5.05153
2124.000	13.08102	-4.93884	12.92148	-5.05939
2125.000	13.06976	-4.90829	12.92148	-5.04015
2126.000	13.12603	-4.88794	12.95904	-5.04709
2127.000	13.07727	-4.93315	12.98720	-5.05037
2128.000	13.08664	-4.91373	12.97405	-5.02947
2129.000	13.07914	-4.85039	12.95152	-4.96066
2130.000	13.07164	-4.90056	12.93087	-5.07651
2131.000	13.06226	-4.90074	12.89518	-4.97139
2132.000	13.07164	-4.87747	13.03036	-5.04757
2133.000	13.05851	-4.91428	12.98344	-5.03505
2134.000	13.08102	-4.89075	12.98156	-5.00239
2135.000	13.09790	-4.91350	12.98907	-5.04071
2136.000	13.07914	-4.90810	12.95152	-4.97990
2137.000	13.08102	-4.88691	12.92523	-5.00351
2138.000	13.10728	-4.91909	12.96655	-5.01231
2139.000	13.06601	-4.91221	12.93650	-4.94941
2140.000	13.05851	-4.90851	12.88579	-4.99275
2141.000	13.07727	-4.90429	12.95340	-4.98563
2142.000	13.04725	-4.90489	12.94401	-5.00121
2143.000	13.05475	-4.91243	12.92523	-5.03045
2144.000	13.06601	-4.89874	12.89894	-5.07139
2145.000	13.02849	-4.85715	12.92336	-4.97084
2146.000	13.06976	-4.88713	13.00033	-4.99047
2147.000	13.05851	-4.87003	12.89518	-5.00796
2148.000	13.04350	-4.86840	12.90645	-4.96540
2149.000	13.06601	-4.87566	12.80874	-4.99620
2150.000	13.04725	-4.88757	12.92523	-5.03622
2151.000	13.03974	-4.91465	12.95904	-5.00091
2152.000	13.06414	-4.87570	12.93650	-5.00521
2153.000	13.09415	-4.88472	12.90082	-5.02132
2154.000	13.08852	-4.89061	12.87076	-4.99690
2155.000	13.09227	-4.95016	12.99658	-4.98477
2156.000	13.09977	-4.92885	12.92899	-4.93993
2157.000	13.12040	-4.93229	12.95716	-4.99325
2158.000	13.09415	-4.89626	12.92523	-4.91883
2159.000	13.09415	-4.93666	12.91772	-4.99789
2160.000	13.10165	-4.94997	12.90269	-5.01166
2161.000	13.07351	-4.91976	13.01160	-5.00948
2162.000	13.09415	-4.92704	12.99658	-4.98670
2163.000	13.10540	-4.96144	12.89518	-4.93675
2164.000	13.10915	-4.92674	12.99658	-4.94437
2165.000	13.11478	-4.91317	12.98720	-5.02921
2166.000	13.07727	-4.86005	13.06226	-5.03346
2167.000	13.08852	-4.86175	13.00221	-5.06545
2168.000	12.95152	-4.92217	12.91772	-4.96325
2169.000	12.78242	-4.90428	12.76738	-5.04707
2170.000	12.57731	-4.96796	12.52080	-4.97483
2171.000	12.27564	-4.87336	12.39450	-5.02738
2172.000	11.90514	-4.81437	12.08107	-5.06420
2173.000	11.43111	-4.75092	11.72331	-4.99738
2174.000	10.90403	-4.71489	11.14402	-4.92620
2175.000	10.29854	-4.57834	10.70374	-4.96840
2176.000	9.67342	-4.40000	10.21048	-4.81882
2177.000	9.02669	-4.26358	9.50235	-4.78627
2178.000	8.27117	-4.16833	8.98812	-4.76006
2179.000	7.51858	-3.97575	8.38730	-4.62299
2180.000	6.84719	-3.81645	7.76328	-4.55960
2181.000	6.27354	-3.63376	7.09846	-4.27800
2182.000	5.57919	-3.37597	6.52150	-4.20253
2183.000	5.00486	-3.23490	6.01557	-3.92706
2184.000	4.47669	-3.08314	5.48126	-3.87357
2185.000	4.02054	-2.90882	5.07353	-3.61960
2186.000	3.56389	-2.76774	4.47472	-3.34413
2187.000	3.24671	-2.57046	4.12676	-3.21117
2188.000	2.98849	-2.44815	3.77259	-2.99283
2189.000	2.62954	-2.30804	3.47920	-2.87497
2190.000	2.49340	-2.18128	3.22306	-2.72314
2191.000	2.28026	-2.01486	2.98258	-2.47394
2192.000	2.08482	-1.86618	2.72620	-2.53201
2193.000	1.96437	-1.71735	2.43223	-2.31236
2194.000	1.69182	-1.66595	2.13615	-2.29299
2195.000	1.53576	-1.62038	1.97227	-2.12646
2196.000	1.36783	-1.47343	1.70762	-1.97782
2197.000	1.17418	-1.45962	1.34214	-1.89075
2198.000	0.95085	-1.39810	1.15837	-1.80147
2199.000	0.82831	-1.33652	1.02991	-1.67833
2200.000	0.73145	-1.18942	0.87179	-1.51343
2201.000	0.66227	-1.14966	0.71168	-1.48367
2202.000	0.63262	-1.07212	0.68401	-1.27493
2203.000	0.69587	-0.97267	0.64843	-1.20336
2204.000	0.77098	-0.93885	0.73738	-1.14567
2205.000	0.89156	-0.87916	0.82831	-1.15360
2206.000	1.04967	-0.82940	0.97259	-1.08595
2207.000	1.17022	-0.84726	1.15046	-1.05009
2208.000	1.34016	-0.87504	1.34609	-1.16533
2209.000	1.46859	-0.99628	1.48835	-1.16128
2210.000	1.56342	-0.99822	1.66022	-1.23672
2211.000	1.68195	-1.08365	1.79453	-1.41550
2212.000	1.75898	-1.21479	1.93672	-1.56440
2213.000	1.74713	-1.31418	2.03743	-1.61596
2214.000	1.75108	-1.36187	2.07889	-1.77483
2215.000	1.71750	-1.43543	2.20722	-1.87795
2216.000	1.67009	-1.56066	2.09271	-1.97540
2217.000	1.61478	-1.64217	2.19538	-2.10631
2218.000	1.45674	-1.60851	1.95252	-2.08876
2219.000	1.36190	-1.72185	1.88143	-2.10870
2220.000	1.29669	-1.68215	1.78466	-2.09690
2221.000	1.14453	-1.68026	1.68590	-2.17843
2222.000	1.06746	-1.64651	1.46069	-2.10915
2223.000	0.93899	-1.63664	1.33819	-2.11919
2224.000	0.83819	-1.54923	1.26903	-2.00007
2225.000	0.74331	-1.52143	1.10303	-1.91277
2226.000	0.73936	-1.41011	1.01014	-1.81745
2227.000	0.66227	-1.33657	0.99038	-1.82144
2228.000	0.62075	-1.27097	0.85005	-1.62873
2229.000	0.62668	-1.20933	0.75715	-1.59100
2230.000	0.63064	-1.17353	0.66820	-1.44989
2231.000	0.57529	-1.12582	0.71761	-1.46777
2232.000	0.57331	-1.03633	0.66029	-1.37037
2233.000	0.61878	-1.04627	0.63064	-1.36839
2234.000	0.61680	-1.04229	0.62471	-1.28091
2235.000	0.62471	-1.06814	0.58913	-1.28688
2236.000	0.69982	-1.02835	0.71366	-1.24112
2237.000	0.71761	-1.01840	0.73540	-1.25702
2238.000	0.75122	-1.02039	0.63459	-1.26898
2239.000	0.77098	-1.05021	0.65238	-1.32464
2240.000	0.82238	-1.06213	0.80459	-1.36635
2241.000	0.78087	-1.07407	0.86388	-1.38621
2242.000	0.82633	-1.08002	0.88563	-1.40608
2243.000	0.88958	-1.12375	0.89946	-1.45776
2244.000	0.85598	-1.12973	0.93504	-1.42197
2245.000	0.87970	-1.08200	0.96073	-1.51737
2246.000	0.89551	-1.09194	0.98840	-1.43785
2247.000	0.92318	-1.11778	0.95085	-1.52930
2248.000	0.89749	-1.12176	1.02991	-1.46168
2249.000	0.86784	-1.10984	1.01410	-1.58294
2250.000	0.89749	-1.10387	0.96469	-1.53924
2251.000	0.90144	-1.13568	1.00817	-1.59288
2252.000	0.93504	-1.07204	1.02398	-1.44379
2253.000	0.91132	-1.09392	1.02595	-1.53126
2254.000	0.93504	-1.06607	1.05362	-1.43782
2255.000	0.91527	-1.18340	1.05955	-1.55907
2256.000	0.91725	-1.07006	0.97654	-1.52134
2257.000	0.93702	-1.14362	1.00619	-1.46964
2258.000	0.85598	-1.15558	1.05362	-1.53919
2259.000	0.96864	-1.12373	0.99038	-1.46965
2260.000	0.93306	-1.20526	1.03781	-1.50939
2261.000	0.93109	-1.16947	0.99433	-1.50145
2262.000	0.96073	-1.19332	0.99433	-1.51139
2263.000	0.96469	-1.20127	0.96469	-1.52930
2264.000	0.91132	-1.14959	1.02398	-1.53126
2265.000	0.90539	-1.15954	1.00421	-1.54916
2266.000	0.89749	-1.15159	0.92516	-1.53925
2267.000	0.89946	-1.14164	0.94295	-1.54123
2268.000	0.85993	-1.13967	0.94690	-1.53726
2269.000	0.86784	-1.15557	0.95283	-1.59490
2270.000	0.85598	-1.15757	0.95876	-1.53924
2271.000	0.84412	-1.18541	0.99829	-1.53922
2272.000	0.88365	-1.12574	0.92713	-1.50745
2273.000	0.88365	-1.17943	0.86388	-1.51344
2274.000	0.85796	-1.16751	0.90737	-1.52535
2275.000	0.90342	-1.14164	0.93306	-1.51937
2276.000	0.92911	-1.12971	1.03781	-1.53721
2277.000	0.89156	-1.16153	0.98643	-1.53724
2278.000	0.93109	-1.15357	0.96666	-1.49749
2279.000	0.88760	-1.14761	0.93504	-1.51738
2280.000	0.86981	-1.18938	0.98247	-1.55712
2281.000	0.89551	-1.13966	0.96469	-1.47165
2282.000	0.88365	-1.15557	0.89353	-1.48758
2283.000	0.89551	-1.15954	1.00817	-1.47760
2284.000	0.87377	-1.22715	1.01212	-1.50145
2285.000	0.87970	-1.16153	0.97654	-1.51538
2286.000	0.86784	-1.17148	1.02398	-1.43386
2287.000	0.88167	-1.16153	0.93504	-1.47365
2288.000	0.89156	-1.17545	1.01805	-1.46169
2289.000	0.89156	-1.13966	0.95678	-1.39413
2290.000	0.89749	-1.14363	0.96271	-1.44979
2291.000	0.90737	-1.15556	0.96073	-1.49352
2292.000	0.84412	-1.18938	0.98445	-1.40604
2293.000	0.89946	-1.13767	0.90342	-1.40210
2294.000	0.87574	-1.15557	0.89551	-1.40210
2295.000	0.85400	-1.15955	0.94690	-1.41401
2296.000	0.85598	-1.23113	0.94295	-1.45775
2297.000	0.87970	-1.15955	1.03188	-1.45174
2298.000	0.80459	-1.16355	0.99236	-1.50146
2299.000	0.86388	-1.15955	1.03584	-1.41596
2300.000	0.88167	-1.14762	0.91725	-1.37227
2301.000	0.84807	-1.16154	0.96073	-1.43388
2302.000	0.91923	-1.11579	0.95283	-1.45973
2303.000	0.84412	-1.12973	0.98840	-1.43785
2304.000	0.86784	-1.15359	0.93899	-1.37226
2305.000	0.86981	-1.13768	1.02200	-1.50343
2306.000	0.88563	-1.15358	0.88365	-1.41205
2307.000	0.89551	-1.11580	1.00026	-1.43387
2308.000	0.88365	-1.17545	1.00026	-1.50344
2309.000	0.83621	-1.16751	0.95678	-1.46967
2310.000	0.87574	-1.16154	0.98247	-1.45375
2311.000	0.87970	-1.15358	0.94295	-1.36431
2312.000	0.86981	-1.18739	1.02398	-1.50144
2313.000	0.85993	-1.18540	0.97062	-1.44779
2314.000	0.89156	-1.18340	0.93504	-1.46172
2315.000	0.88167	-1.15159	0.94097	-1.48756
2316.000	0.85203	-1.19336	0.97457	-1.41996
2317.000	0.85203	-1.12376	0.99829	-1.42194
2318.000	0.86784	-1.14961	0.93702	-1.39811
2319.000	0.86981	-1.15160	0.96271	-1.40009
2320.000	0.91132	-1.13369	0.97259	-1.40207
2321.000	0.89946	-1.16153	0.95480	-1.51737
2322.000	0.85598	-1.13967	1.00026	-1.36429
2323.000	0.85203	-1.15359	0.97062	-1.41201
2324.000	0.85598	-1.15160	0.95876	-1.41400
2325.000	0.83028	-1.13968	0.99236	-1.45176
2326.000	0.85203	-1.12774	0.99631	-1.45375
2327.000	0.87377	-1.14762	1.00817	-1.39212
2328.000	0.86191	-1.15359	0.99038	-1.54519
2329.000	0.87970	-1.15159	1.01410	-1.45374
2330.000	0.88563	-1.17943	0.93504	-1.37425
2331.000	0.81052	-1.17746	0.96666	-1.39015
2332.000	0.83621	-1.16950	0.92120	-1.50149
2333.000	0.83226	-1.15558	1.00817	-1.49549
2334.000	0.81249	-1.15360	0.97457	-1.45773
2335.000	0.85993	-1.16751	1.03386	-1.45373
2336.000	0.83819	-1.12576	1.01607	-1.43982
2337.000	0.84214	-1.14166	0.98247	-1.46170
2338.000	0.85203	-1.13967	0.95480	-1.49352
2339.000	0.86784	-1.15359	1.01410	-1.42988
2340.000	0.82435	-1.16951	0.98445	-1.47959
2341.000	0.85203	-1.15160	0.95876	-1.40605
2342.000	0.85400	-1.13768	0.97457	-1.37026
2343.000	0.82435	-1.17945	0.97062	-1.45972
2344.000	0.88365	-1.13171	0.94887	-1.41003
2345.000	0.84214	-1.15359	0.95480	-1.39810
2346.000	0.83621	-1.12178	0.94492	-1.42991
2347.000	0.84412	-1.15359	0.95283	-1.41599
2348.000	0.88958	-1.18142	0.97062	-1.42394
2349.000	0.83028	-1.14365	0.94097	-1.43588
2350.000	0.88365	-1.13171	1.02991	-1.41994
2351.000	0.81842	-1.15956	1.00619	-1.36429
2352.000	0.85796	-1.16751	0.96864	-1.51737
2353.000	0.84412	-1.18342	1.01410	-1.47362
2354.000	0.86388	-1.17347	0.98840	-1.43586
2355.000	0.89946	-1.15755	1.06351	-1.53919
2356.000	0.85400	-1.15757	0.94295	-1.45576
2357.000	0.88760	-1.13568	1.01212	-1.41995
2358.000	0.80656	-1.15957	1.02991	-1.49548
2359.000	0.82040	-1.12775	1.00224	-1.42989
2360.000	0.85993	-1.15955	1.00619	-1.46766
2361.000	0.83424	-1.16155	0.94492	-1.46768
2362.000	0.87574	-1.10785	1.06548	-1.48751
2363.000	0.85598	-1.17546	0.95876	-1.45575
2364.000	0.80854	-1.15161	0.97654	-1.46966
2365.000	0.80656	-1.16951	1.04967	-1.45372
2366.000	0.82633	-1.17149	0.94690	-1.44184
2367.000	0.82238	-1.13769	1.05758	-1.41595
2368.000	0.82040	-1.15360	1.06746	-1.42787
2369.000	0.84610	-1.17149	1.02003	-1.45771
2370.000	0.80063	-1.18542	1.07141	-1.47757
2371.000	0.78680	-1.22519	0.99038	-1.43785
2372.000	0.81249	-1.18939	1.11291	-1.41791
2373.000	0.83819	-1.20927	1.02200	-1.44181
2374.000	0.84412	-1.16552	1.02991	-1.47361
2375.000	0.85598	-1.16950	1.00026	-1.43784
2376.000	0.83028	-1.17149	1.00817	-1.45175
2377.000	0.81052	-1.19735	1.03386	-1.49746
2378.000	0.82040	-1.20729	0.97852	-1.44580
2379.000	0.78482	-1.19139	0.95283	-1.35834
2380.000	0.77296	-1.17151	1.02398	-1.51933
2381.000	0.79075	-1.16951	1.00421	-1.43188
2382.000	0.76505	-1.15958	0.98050	-1.41201
2383.000	0.79273	-1.19139	0.96073	-1.43388
2384.000	0.79470	-1.17349	0.95678	-1.46967
2385.000	0.78877	-1.17946	0.99631	-1.49947
2386.000	0.81249	-1.16553	1.04374	-1.51535
2387.000	0.79470	-1.18542	1.04967	-1.47360
2388.000	0.81645	-1.17547	1.00817	-1.50344
2389.000	0.76110	-1.19338	1.06746	-1.49347
2390.000	0.78482	-1.14963	0.99236	-1.49152
2391.000	0.84807	-1.16950	1.00817	-1.39808
2392.000	0.81842	-1.15161	1.01805	-1.44181
2393.000	0.79866	-1.18343	1.01410	-1.45175
2394.000	0.81645	-1.19735	1.00026	-1.39212
2395.000	0.80261	-1.18144	1.01607	-1.43783
2396.000	0.78087	-1.19338	0.97852	-1.46171
2397.000	0.79075	-1.19139	0.92120	-1.46571
2398.000	0.79668	-1.20332	0.98840	-1.45176
2399.000	0.78680	-1.15759	1.03386	-1.49349
2400.000	0.82040	-1.15559	0.98247	-1.42393
2401.000	0.79470	-1.22519	0.95876	-1.40406
2402.000	0.78087	-1.20332	1.00421	-1.44380
2403.000	0.79866	-1.18144	0.91923	-1.49552
2404.000	0.82238	-1.20729	0.97852	-1.42791
2405.000	0.77296	-1.21923	1.03584	-1.45174
2406.000	0.75715	-1.17947	0.97852	-1.44381
2407.000	0.78087	-1.18344	0.97852	-1.48755
2408.000	0.78087	-1.20332	1.04769	-1.39409
2409.000	0.77889	-1.18940	1.01410	-1.41398
2410.000	0.76308	-1.19935	0.95480	-1.43190
2411.000	0.81842	-1.18939	1.02398	-1.48156
2412.000	0.82633	-1.18541	0.95085	-1.44581
2413.000	0.78284	-1.20133	0.97457	-1.50544
2414.000	0.78087	-1.17151	1.02991	-1.34042
2415.000	0.78680	-1.12179	0.94887	-1.42991
2416.000	0.77889	-1.13174	0.99631	-1.50145
2417.000	0.81249	-1.13968	0.93109	-1.42992
2418.000	0.79668	-1.18940	0.99631	-1.36628
2419.000	0.84807	-1.19535	1.00224	-1.47959
2420.000	0.81249	-1.15161	0.95876	-1.46768
2421.000	0.80459	-1.16355	1.03188	-1.46168
2422.000	0.79075	-1.17349	0.99433	-1.37423
2423.000	0.76110	-1.19537	0.99433	-1.47363
2424.000	0.79075	-1.17548	1.02991	-1.44976
2425.000	0.79470	-1.19139	0.96469	-1.44780
2426.000	0.77691	-1.18145	1.01014	-1.44976
2427.000	0.78877	-1.20729	0.99829	-1.47959
2428.000	0.79273	-1.19536	1.05362	-1.45770
2429.000	0.78482	-1.19139	0.95678	-1.45973
2430.000	0.75912	-1.16157	0.99236	-1.38218
2431.000	0.78087	-1.13174	0.94887	-1.43985
2432.000	0.78087	-1.19934	1.10698	-1.47357
2433.000	0.78087	-1.20730	0.99236	-1.44580
2434.000	0.75715	-1.20929	1.04769	-1.42987
2435.000	0.77296	-1.22122	1.01607	-1.50144
2436.000	0.77098	-1.17151	1.00619	-1.42591
2437.000	0.74133	-1.23713	1.04374	-1.46168
2438.000	0.74331	-1.16754	1.02991	-1.45771
2439.000	0.77889	-1.19537	1.00619	-1.45772
2440.000	0.77098	-1.14964	0.98840	-1.43387
2441.000	0.76703	-1.18145	0.99236	-1.45574
2442.000	0.73343	-1.13374	0.95480	-1.42593
2443.000	0.76505	-1.17350	0.93899	-1.34642
2444.000	0.75122	-1.17947	1.03188	-1.39807
2445.000	0.76505	-1.14566	1.06548	-1.40601
2446.000	0.74331	-1.16754	0.98050	-1.41002
2447.000	0.75912	-1.15958	1.02595	-1.35831
2448.000	0.77098	-1.16952	1.06746	-1.40402
2449.000	0.76110	-1.18543	0.98840	-1.32254
2450.000	0.76901	-1.16952	1.00421	-1.45573
2451.000	0.80854	-1.17349	1.02003	-1.41597
2452.000	0.78284	-1.19139	1.02398	-1.30662
2453.000	0.76901	-1.15759	1.00224	-1.39212
2454.000	0.77098	-1.19935	0.97062	-1.43785
2455.000	0.74726	-1.19538	0.98840	-1.39212
2456.000	0.77494	-1.16952	0.99236	-1.45176
2457.000	0.76110	-1.18543	1.07141	-1.43781
2458.000	0.78087	-1.19338	1.03584	-1.40204
2459.000	0.79470	-1.15957	1.05758	-1.43384
2460.000	0.79075	-1.19139	1.06943	-1.42787
2461.000	0.79075	-1.16753	1.05758	-1.43185
2462.000	0.78877	-1.17548	1.04374	-1.40800
2463.000	0.76308	-1.19338	1.01014	-1.44380
2464.000	0.77098	-1.18940	1.03188	-1.41596
2465.000	0.73343	-1.17748	1.02003	-1.35633
2466.000	0.73936	-1.19140	1.04769	-1.38216
2467.000	0.73343	-1.17351	1.00026	-1.38417
2468.000	0.75517	-1.21128	1.00421	-1.34639
2469.000	0.73343	-1.17550	0.97852	-1.40604
2470.000	0.75319	-1.20731	0.94097	-1.42395
2471.000	0.73145	-1.22123	0.98840	-1.33447
2472.000	0.75319	-1.17151	1.01410	-1.39410
2473.000	0.76505	-1.18742	1.00026	-1.41200
2474.000	0.74924	-1.15561	0.98050	-1.35833
2475.000	0.71959	-1.19538	1.03979	-1.45571
2476.000	0.71761	-1.24509	1.04374	-1.41596
2477.000	0.70971	-1.22521	1.00619	-1.40802
2478.000	0.71959	-1.21924	1.01805	-1.33446
2479.000	0.72354	-1.20731	1.01212	-1.39808
2480.000	0.70180	-1.17749	1.04572	-1.41794
2481.000	0.66820	-1.22323	1.03584	-1.36825
2482.000	0.70180	-1.24311	0.88563	-1.40409
2483.000	0.69982	-1.22323	1.05955	-1.42986
2484.000	0.71168	-1.20334	1.05758	-1.38215
2485.000	0.69785	-1.16357	0.99631	-1.40206
2486.000	0.72354	-1.17749	0.95283	-1.36431
2487.000	0.70378	-1.19539	1.06548	-1.33046
2488.000	0.74331	-1.19935	1.01607	-1.34838
2489.000	0.75319	-1.25900	1.07141	-1.39010
2490.000	0.72354	-1.24310	1.01607	-1.46964
2491.000	0.70378	-1.21130	1.06746	-1.44775
2492.000	0.71168	-1.21129	1.03979	-1.35831
2493.000	0.71959	-1.27691	1.02793	-1.35434
2494.000	0.69982	-1.22919	1.03584	-1.42987
2495.000	0.71761	-1.25504	1.00817	-1.40007
2496.000	0.71959	-1.25901	1.02595	-1.36229
2497.000	0.72750	-1.24907	0.94492	-1.37624
2498.000	0.65831	-1.25107	1.02398	-1.28674
2499.000	0.70971	-1.28287	1.07536	-1.40600
2500.000	0.70773	-1.21925	1.02595	-1.39608
2501.000	0.69785	-1.20732	1.05362	-1.34041
2502.000	0.70378	-1.20732	1.03584	-1.41198
2503.000	0.68006	-1.21528	1.03781	-1.35632
2504.000	0.69587	-1.20931	1.02793	-1.38018
2505.000	0.69192	-1.26300	1.08129	-1.36823
2506.000	0.73343	-1.18544	1.06746	-1.40004
2507.000	0.68203	-1.19738	1.10501	-1.35828
2508.000	0.71366	-1.18345	1.10501	-1.35231
2509.000	0.69982	-1.21130	1.06153	-1.36029
2510.000	0.69587	-1.20732	0.95876	-1.32454
2511.000	0.64250	-1.21728	1.06943	-1.44377
2512.000	0.68796	-1.21329	1.02991	-1.38217
2513.000	0.68006	-1.24113	1.05955	-1.42986
2514.000	0.71959	-1.23117	1.00421	-1.41796
2515.000	0.68006	-1.28686	1.02991	-1.39608
2516.000	0.65238	-1.22722	1.02003	-1.39012
2517.000	0.69192	-1.22919	1.04572	-1.42391
2518.000	0.68203	-1.22920	1.07932	-1.37221
2519.000	0.69982	-1.23516	1.09908	-1.42984
2520.000	0.65634	-1.24312	1.06943	-1.33046
2521.000	0.71366	-1.19737	1.06746	-1.41992
2522.000	0.66029	-1.22920	1.04967	-1.36029
2523.000	0.65634	-1.27692	0.98050	-1.40406
2524.000	0.65041	-1.20932	1.03188	-1.41397
2525.000	0.67413	-1.20931	1.04374	-1.40602
2526.000	0.67808	-1.20732	1.00026	-1.35037
2527.000	0.73936	-1.19936	0.99829	-1.36429
2528.000	0.71564	-1.24112	1.02200	-1.35235
2529.000	0.70378	-1.23913	0.97259	-1.36828
2530.000	0.68203	-1.24113	1.01212	-1.42790
2531.000	0.68401	-1.24311	1.05560	-1.42589
2532.000	0.71366	-1.19340	1.08524	-1.32449
2533.000	0.69587	-1.22522	0.99433	-1.33248
2534.000	0.68599	-1.18545	1.03188	-1.36427
2535.000	0.72552	-1.26497	1.02003	-1.36627
2536.000	0.72354	-1.24708	1.03781	-1.35831
2537.000	0.71366	-1.21925	0.95678	-1.29870
2538.000	0.69982	-1.24709	0.98050	-1.34640
2539.000	0.69389	-1.28487	1.03584	-1.39012
2540.000	0.68796	-1.20335	1.05165	-1.32451
2541.000	0.71366	-1.21328	1.02595	-1.31656
2542.000	0.70773	-1.21527	1.04374	-1.38415
2543.000	0.68203	-1.23516	1.05362	-1.34041
2544.000	0.70180	-1.24311	1.04177	-1.42391
2545.000	0.73343	-1.24708	1.03979	-1.36626
2546.000	0.68006	-1.26300	1.04374	-1.46366
2547.000	0.68203	-1.23118	1.03979	-1.34042
2548.000	0.67215	-1.27294	1.08920	-1.30660
2549.000	0.67017	-1.27095	0.96271	-1.36033
2550.000	0.64843	-1.24312	1.08524	-1.35630
2551.000	0.67413	-1.22323	1.05955	-1.38414
2552.000	0.64645	-1.24312	1.03188	-1.34439
2553.000	0.64843	-1.23517	1.01607	-1.34639
2554.000	0.63855	-1.24511	1.01212	-1.36627
2555.000	0.64448	-1.21926	0.99829	-1.34441
2556.000	0.68006	-1.22522	1.06351	-1.33046
2557.000	0.65436	-1.23517	1.04769	-1.35035
2558.000	0.67215	-1.23914	1.07536	-1.37618
2559.000	0.68599	-1.20732	0.99433	-1.36031
2560.000	0.68599	-1.23118	1.04572	-1.34638
2561.000	0.68796	-1.23317	1.05955	-1.37023
2562.000	0.67610	-1.26101	1.08327	-1.44576
2563.000	0.64645	-1.25903	0.99038	-1.43586
2564.000	0.64448	-1.29283	1.10896	-1.40996
2565.000	0.67215	-1.27692	1.09908	-1.42189
2566.000	0.65436	-1.27295	1.08129	-1.38214
2567.000	0.62866	-1.31073	1.02793	-1.42789
2568.000	0.62866	-1.32863	1.01212	-1.40007
2569.000	0.64052	-1.30675	1.07141	-1.43582
2570.000	0.65041	-1.34651	1.04177	-1.37421
2571.000	0.67413	-1.29282	1.05362	-1.36625
2572.000	0.71366	-1.29480	1.08722	-1.40202
2573.000	0.68401	-1.25306	1.01014	-1.40206
2574.000	0.69192	-1.31867	1.11291	-1.40400
2575.000	0.66029	-1.32066	1.02793	-1.40006
2576.000	0.68006	-1.27692	1.04967	-1.42788
2577.000	0.69389	-1.26101	1.02003	-1.39807
2578.000	0.70971	-1.29083	1.07339	-1.41992
2579.000	0.66622	-1.22721	1.08327	-1.39606
2580.000	0.67808	-1.26698	1.01212	-1.38217
2581.000	0.64645	-1.33657	1.08524	-1.38612
2582.000	0.63855	-1.30079	0.98050	-1.41400
2583.000	0.67610	-1.29084	1.03781	-1.48752
2584.000	0.65634	-1.26499	1.10896	-1.39008
2585.000	0.65436	-1.30078	1.01607	-1.37223
2586.000	0.68796	-1.28288	1.07141	-1.36227
2587.000	0.66227	-1.29283	1.08129	-1.40799
2588.000	0.59308	-1.31869	1.01212	-1.31061
2589.000	0.66029	-1.29084	1.08920	-1.37021
2590.000	0.66820	-1.27493	1.06943	-1.41197
2591.000	0.63657	-1.28488	1.09710	-1.32051
2592.000	0.67017	-1.31867	1.04572	-1.37222
2593.000	0.65238	-1.25903	1.08524	-1.42389
2594.000	0.67808	-1.32662	0.99631	-1.39411
2595.000	0.63855	-1.30079	1.07734	-1.43184
2596.000	0.67017	-1.30476	1.01805	-1.40404
2597.000	0.66029	-1.30277	0.98643	-1.35634
2598.000	0.65238	-1.31073	1.08722	-1.43184
2599.000	0.70575	-1.29480	1.03781	-1.42590
2600.000	0.66227	-1.28686	1.06548	-1.33842
2601.000	0.68796	-1.26300	1.07932	-1.35034
2602.000	0.67017	-1.30873	1.00421	-1.42194
2603.000	0.69389	-1.28089	1.13663	-1.40001
2604.000	0.68796	-1.30077	1.00224	-1.38417
2605.000	0.67215	-1.34452	1.09117	-1.41395
2606.000	0.66227	-1.30476	1.10303	-1.44972
2607.000	0.70378	-1.29481	1.05955	-1.41197
2608.000	0.67413	-1.27692	1.09315	-1.39208
2609.000	0.67215	-1.32265	1.08327	-1.41793
2610.000	0.67215	-1.29680	1.07932	-1.37221
2611.000	0.70378	-1.23516	0.99829	-1.35832
2612.000	0.66424	-1.28289	1.12477	-1.36622
2613.000	0.67413	-1.23914	1.02595	-1.35831
2614.000	0.67808	-1.30078	1.03584	-1.40602
2615.000	0.67215	-1.33259	1.05560	-1.31059
2616.000	0.69785	-1.27890	1.03584	-1.36228
2617.000	0.63064	-1.28687	1.05758	-1.33643
2618.000	0.64645	-1.23517	1.08524	-1.34636
2619.000	0.68203	-1.29282	1.08920	-1.35431
2620.000	0.71761	-1.30077	1.04374	-1.36427
2621.000	0.70180	-1.30674	1.05758	-1.37222
2622.000	0.69389	-1.29481	1.04177	-1.33047
2623.000	0.76110	-1.26099	1.08722	-1.34437
2624.000	0.68006	-1.28288	1.07536	-1.31257
2625.000	0.72354	-1.28685	1.02398	-1.35633
2626.000	0.70378	-1.30276	1.11884	-1.35827
2627.000	0.69587	-1.31469	1.04572	-1.33047
2628.000	0.67610	-1.27095	1.11291	-1.39406
2629.000	0.69192	-1.27294	1.09315	-1.40003
2630.000	0.74924	-1.29280	1.10501	-1.29069
2631.000	0.70378	-1.28486	1.02200	-1.36825
2632.000	0.71366	-1.28486	1.06943	-1.34835
2633.000	0.70773	-1.25504	1.09908	-1.36424
2634.000	0.71168	-1.25703	1.07536	-1.40401
2635.000	0.70773	-1.26896	1.06351	-1.30263
2636.000	0.73738	-1.25901	1.06943	-1.31456
2637.000	0.72552	-1.30872	1.10106	-1.37816
2638.000	0.67610	-1.26698	1.15244	-1.38211
2639.000	0.70773	-1.32860	1.07339	-1.29865
2640.000	0.71959	-1.29878	1.11687	-1.33839
2641.000	0.74726	-1.27690	1.05362	-1.39408
2642.000	0.72750	-1.28088	1.03386	-1.30264
2643.000	0.71564	-1.32860	1.06153	-1.31655
2644.000	0.71959	-1.33854	1.05560	-1.35830
2645.000	0.67215	-1.32464	1.10106	-1.31852
2646.000	0.71959	-1.27889	1.13070	-1.33242
2647.000	0.70971	-1.29480	1.04572	-1.32451
2648.000	0.73145	-1.28684	1.09908	-1.28870
2649.000	0.71761	-1.27890	1.04177	-1.34240
2650.000	0.70971	-1.34053	1.08327	-1.41594
2651.000	0.67610	-1.37037	1.04374	-1.36427
2652.000	0.73936	-1.32263	1.11687	-1.37815
2653.000	0.70378	-1.32662	1.04967	-1.40800
2654.000	0.69389	-1.30276	1.07141	-1.43185
2655.000	0.67808	-1.35048	1.10501	-1.41195
2656.000	0.69587	-1.30873	1.04769	-1.32053
2657.000	0.68203	-1.31867	1.13268	-1.34236
2658.000	0.72552	-1.34848	1.12872	-1.37815
2659.000	0.70378	-1.31270	1.05560	-1.28673
2660.000	0.67413	-1.33657	1.08129	-1.32847
2661.000	0.69785	-1.36241	1.10698	-1.40201
2662.000	0.70971	-1.34053	1.08722	-1.31455
2663.000	0.71168	-1.33457	1.10106	-1.37816
2664.000	0.71168	-1.36439	1.10303	-1.35629
2665.000	0.68796	-1.35048	1.10501	-1.29665
2666.000	0.69785	-1.36837	1.05758	-1.33444
2667.000	0.74726	-1.38227	1.03584	-1.31457
2668.000	0.71959	-1.35047	1.09513	-1.36822
2669.000	0.72552	-1.32065	1.00817	-1.33645
2670.000	0.71168	-1.31071	1.01410	-1.30663
2671.000	0.72354	-1.34053	1.08920	-1.35630
2672.000	0.68796	-1.34452	1.08920	-1.29666
2673.000	0.74726	-1.33058	1.08722	-1.34437
2674.000	0.76703	-1.30075	1.08129	-1.33642
2675.000	0.71564	-1.36041	1.05955	-1.39607
2676.000	0.71366	-1.33457	1.13465	-1.33640
2677.000	0.71761	-1.32462	1.10501	-1.36225
2678.000	0.72750	-1.38427	1.07339	-1.34835
2679.000	0.72750	-1.32860	1.10303	-1.33442
2680.000	0.73145	-1.36637	1.08327	-1.33642
2681.000	0.72750	-1.34848	1.09908	-1.35828
2682.000	0.73343	-1.33257	1.03386	-1.30463
2683.000	0.75122	-1.35643	1.10303	-1.34834
2684.000	0.73738	-1.36836	1.03386	-1.30662
2685.000	0.75715	-1.34847	1.05362	-1.41198
2686.000	0.80063	-1.32858	1.06153	-1.33245
2687.000	0.74529	-1.31070	1.03979	-1.31059
2688.000	0.72750	-1.35842	1.06153	-1.32251
2689.000	0.74726	-1.36438	0.99829	-1.32850
2690.000	0.72157	-1.39222	1.06548	-1.37420
2691.000	0.72552	-1.39818	1.00224	-1.30067
2692.000	0.70971	-1.41608	1.05560	-1.35830
2693.000	0.78284	-1.38823	1.05758	-1.35830
2694.000	0.68203	-1.38627	1.08722	-1.36226
2695.000	0.68994	-1.42006	1.02793	-1.36825
2696.000	0.72750	-1.41011	1.14256	-1.37416
2697.000	0.70773	-1.40217	1.01212	-1.40802
2698.000	0.72552	-1.37234	1.02793	-1.40006
2699.000	0.74133	-1.44589	1.06153	-1.32251
2700.000	0.73738	-1.34848	1.01212	-1.40404
2701.000	0.79075	-1.39816	1.08129	-1.40004
2702.000	0.72552	-1.38228	1.04769	-1.40800
2703.000	0.75517	-1.41607	1.05955	-1.38414
2704.000	0.74331	-1.38824	1.07932	-1.36624
2705.000	0.75122	-1.40613	1.02200	-1.29072
2706.000	0.73343	-1.41011	1.10501	-1.30261
2707.000	0.74924	-1.34052	1.07734	-1.29666
2708.000	0.73540	-1.40613	1.06746	-1.23901
2709.000	0.76308	-1.38227	1.08524	-1.22509
2710.000	0.74726	-1.39023	1.00224	-1.28874
2711.000	0.71959	-1.38626	1.02793	-1.30463
2712.000	0.77691	-1.40811	1.03584	-1.32650
2713.000	0.77889	-1.39618	1.06746	-1.34239
2714.000	0.75715	-1.38823	1.02991	-1.29668
2715.000	0.78087	-1.43196	0.98247	-1.23308
2716.000	0.78087	-1.43793	1.05560	-1.28872
2717.000	0.78087	-1.37431	1.04967	-1.30264
2718.000	0.78482	-1.40612	1.01212	-1.34043
2719.000	0.76505	-1.47968	1.07734	-1.34040
2720.000	0.71168	-1.47175	1.04374	-1.32053
2721.000	0.74924	-1.48764	1.00026	-1.27482
2722.000	0.74331	-1.51348	0.97852	-1.27881
2723.000	0.79866	-1.43395	1.06943	-1.35034
2724.000	0.75912	-1.43396	0.99631	-1.32850
2725.000	0.75122	-1.44191	1.09908	-1.36226
2726.000	0.75122	-1.46577	1.16429	-1.34831
2727.000	0.75517	-1.41806	1.08920	-1.30461
2728.000	0.72947	-1.42005	1.05165	-1.31457
2729.000	0.73738	-1.46776	1.01805	-1.30663
2730.000	0.73343	-1.41806	1.04769	-1.30860
2731.000	0.74529	-1.41607	1.04769	-1.36427
2732.000	0.76703	-1.48564	1.04769	-1.28673
2733.000	0.74331	-1.44788	1.08524	-1.28075
2734.000	0.78087	-1.44588	1.02991	-1.29271
2735.000	0.71168	-1.47175	0.99038	-1.33447
2736.000	0.74133	-1.39818	1.07932	-1.32052
2737.000	0.77691	-1.47371	1.05758	-1.32649
2738.000	0.78087	-1.50949	1.09513	-1.33641
2739.000	0.75319	-1.43992	1.02003	-1.29271
2740.000	0.74726	-1.45981	1.00421	-1.35236
2741.000	0.74331	-1.48565	1.10698	-1.33243
2742.000	0.71564	-1.49162	0.97852	-1.34044
2743.000	0.74331	-1.48366	0.95085	-1.32455
2744.000	0.79273	-1.49955	1.06153	-1.35830
2745.000	0.75319	-1.50155	1.05955	-1.34041
2746.000	0.74924	-1.49161	0.98445	-1.31658
2747.000	0.78482	-1.50552	1.00026	-1.34242
2748.000	0.77296	-1.43793	1.05165	-1.32252
2749.000	0.79668	-1.47967	1.10303	-1.33244
2750.000	0.75517	-1.49360	1.02991	-1.35632
2751.000	0.79668	-1.51545	1.04769	-1.39409
2752.000	0.77494	-1.48564	1.12477	-1.29863
2753.000	0.75912	-1.49360	1.05560	-1.34438
2754.000	0.76703	-1.48167	1.01014	-1.28675
2755.000	0.70575	-1.49560	1.10698	-1.32249
2756.000	0.78087	-1.49160	1.05362	-1.29270
2757.000	0.75319	-1.52739	1.04967	-1.35830
2758.000	0.75912	-1.47769	1.02003	-1.40205
2759.000	0.72552	-1.48765	1.12477	-1.32249
2760.000	0.74331	-1.51746	1.04177	-1.37819
2761.000	0.77098	-1.55522	1.05560	-1.31059
2762.000	0.71168	-1.49560	0.95876	-1.29870
2763.000	0.76901	-1.51546	1.05362	-1.36228
2764.000	0.73145	-1.45584	1.00421	-1.37025
2765.000	0.73343	-1.51150	1.03584	-1.32054
2766.000	0.73936	-1.52740	0.97654	-1.25296
2767.000	0.75517	-1.55125	1.08920	-1.26684
2768.000	0.77691	-1.51546	1.02595	-1.36626
2769.000	0.78877	-1.53732	1.02991	-1.29668
2770.000	0.76505	-1.54727	1.02200	-1.32651
2771.000	0.78482	-1.56117	0.88563	-1.31065
2772.000	0.73540	-1.52939	0.98840	-1.31062
2773.000	0.79470	-1.54328	1.03188	-1.38217
2774.000	0.73343	-1.55722	1.01410	-1.33049
2775.000	0.72750	-1.50951	1.01212	-1.39211
2776.000	0.75912	-1.55920	1.05560	-1.34041
2777.000	0.75517	-1.54131	0.99631	-1.31856
2778.000	0.73738	-1.54330	1.04177	-1.41198
2779.000	0.76505	-1.52143	1.04967	-1.50143
2780.000	0.77296	-1.51546	1.02398	-1.45572
2781.000	0.75912	-1.53137	1.03584	-1.40801
2782.000	0.74924	-1.51149	1.01410	-1.41398
2783.000	0.79668	-1.54726	1.04177	-1.38216
2784.000	0.79470	-1.52937	0.99038	-1.40803
2785.000	0.76703	-1.56118	1.08327	-1.43582
2786.000	0.77296	-1.51745	1.03781	-1.38018
2787.000	0.82238	-1.55321	1.01805	-1.36428
2788.000	0.75122	-1.56715	1.06351	-1.39806
2789.000	0.80854	-1.55719	0.97654	-1.40008
2790.000	0.79470	-1.55918	1.07339	-1.39408
2791.000	0.80063	-1.54924	1.04572	-1.36228
2792.000	0.80854	-1.54328	1.07734	-1.33245
2793.000	0.73936	-1.58902	1.02003	-1.41994
2794.000	0.77494	-1.60690	1.04374	-1.36825
2795.000	0.80459	-1.56514	1.00224	-1.42194
2796.000	0.80261	-1.60887	1.01805	-1.41597
2797.000	0.77296	-1.55522	0.97654	-1.43189
2798.000	0.78284	-1.59497	1.01014	-1.39609
2799.000	0.80261	-1.55520	1.00421	-1.42790
2800.000	0.76703	-1.59100	0.99236	-1.37622
2801.000	0.76505	-1.56118	1.10106	-1.34436
2802.000	0.77494	-1.61485	1.00817	-1.41796
2803.000	0.75715	-1.54329	1.03188	-1.40006
2804.000	0.81249	-1.56912	1.00619	-1.39609
2805.000	0.79470	-1.58701	0.97062	-1.33846
2806.000	0.75912	-1.54926	1.07141	-1.37221
2807.000	0.79075	-1.60093	1.01014	-1.41199
2808.000	0.78680	-1.58503	1.02003	-1.38217
2809.000	0.84017	-1.57904	0.99433	-1.43784
2810.000	0.76703	-1.60491	1.04769	-1.37023
2811.000	0.77889	-1.60292	1.07932	-1.43979
2812.000	0.76505	-1.61286	1.03781	-1.40006
2813.000	0.77494	-1.64267	0.99038	-1.31061
2814.000	0.79075	-1.61484	1.00224	-1.42591
2815.000	0.78877	-1.61087	1.07339	-1.39606
2816.000	0.76703	-1.60491	1.06351	-1.38016
2817.000	0.80854	-1.62676	1.00421	-1.49946
2818.000	0.80459	-1.60291	1.07932	-1.40004
2819.000	0.83028	-1.63271	1.01212	-1.40404
2820.000	0.80261	-1.61881	0.97852	-1.38418
2821.000	0.79273	-1.63074	1.00421	-1.38814
2822.000	0.80261	-1.66651	1.03386	-1.41994
2823.000	0.76703	-1.65460	1.05560	-1.40005
2824.000	0.77691	-1.59894	1.05362	-1.33445
2825.000	0.78284	-1.63273	1.10896	-1.36225
2826.000	0.77098	-1.65858	1.01014	-1.39609
2827.000	0.79668	-1.59894	0.99433	-1.45375
2828.000	0.77296	-1.67646	1.04967	-1.38613
2829.000	0.76901	-1.63870	1.07536	-1.40203
2830.000	0.83028	-1.60489	1.04572	-1.40204
2831.000	0.78877	-1.64068	0.99829	-1.39808
2832.000	0.78482	-1.64466	1.02595	-1.48753
2833.000	0.78877	-1.62876	0.97852	-1.42791
2834.000	0.79273	-1.61484	1.03979	-1.43186
2835.000	0.79668	-1.66453	1.03584	-1.40204
2836.000	0.77494	-1.66056	1.03188	-1.38415
2837.000	0.80459	-1.67248	1.01212	-1.39609
2838.000	0.78877	-1.64068	1.05955	-1.45571
2839.000	0.82040	-1.66054	1.05560	-1.38216
2840.000	0.78680	-1.65857	1.01212	-1.40603
2841.000	0.79866	-1.70030	1.04769	-1.41794
2842.000	0.82040	-1.67644	0.99038	-1.38417
2843.000	0.80459	-1.60887	1.04967	-1.44975
2844.000	0.74529	-1.68045	1.04374	-1.40800
2845.000	0.81052	-1.67645	1.07339	-1.43980
2846.000	0.77296	-1.65063	1.00817	-1.40206
2847.000	0.76703	-1.69833	1.09315	-1.40202
2848.000	0.78877	-1.70627	1.04572	-1.39409
2849.000	0.80261	-1.67446	1.02398	-1.40602
2850.000	0.80854	-1.69235	1.12279	-1.38610
2851.000	0.81645	-1.67446	1.03781	-1.43186
2852.000	0.73936	-1.67250	1.07339	-1.42986
2853.000	0.78087	-1.70627	1.03584	-1.44578
2854.000	0.81052	-1.67645	0.98643	-1.43984
2855.000	0.81052	-1.70030	1.06746	-1.39209
2856.000	0.79668	-1.69633	1.07141	-1.43383
2857.000	0.80261	-1.69434	1.06943	-1.43582
2858.000	0.77296	-1.66454	0.98247	-1.41201
2859.000	0.77296	-1.67448	1.03979	-1.46168
2860.000	0.84214	-1.70426	0.99631	-1.42989
2861.000	0.80854	-1.70825	1.04967	-1.41993
2862.000	0.81249	-1.71421	1.08129	-1.44178
2863.000	0.79866	-1.68043	1.06746	-1.43384
2864.000	0.80459	-1.69036	0.96073	-1.41400
2865.000	0.80261	-1.68241	1.02003	-1.46367
2866.000	0.83621	-1.68439	1.02793	-1.42193
2867.000	0.79273	-1.64267	1.04967	-1.42788
2868.000	0.81842	-1.67048	1.11687	-1.38014
2869.000	0.78284	-1.64665	1.04769	-1.38415
2870.000	0.84807	-1.64861	1.06943	-1.42986
2871.000	0.82238	-1.67446	1.06153	-1.43384
2872.000	0.77889	-1.65062	1.00817	-1.38019
2873.000	0.83226	-1.66849	1.00224	-1.38417
2874.000	0.79866	-1.64068	1.05362	-1.43583
2875.000	0.80656	-1.68241	1.08327	-1.36823
2876.000	0.83621	-1.68638	1.11094	-1.41592
2877.000	0.81249	-1.72216	0.96271	-1.43189
2878.000	0.79273	-1.66652	1.00619	-1.32055
2879.000	0.80854	-1.64465	1.06548	-1.38016
2880.000	0.79668	-1.65857	1.11291	-1.40598
2881.000	0.84610	-1.68041	1.02200	-1.40205
2882.000	0.79470	-1.69037	1.09315	-1.31654
2883.000	0.85203	-1.71221	1.03584	-1.38614
2884.000	0.84017	-1.67842	1.02398	-1.33843
2885.000	0.84412	-1.67842	0.95678	-1.37425
2886.000	0.84017	-1.70227	1.08129	-1.30262
2887.000	0.84412	-1.67246	0.99829	-1.36031
2888.000	0.81842	-1.69632	0.98050	-1.31261
2889.000	0.84610	-1.67047	1.00619	-1.35236
2890.000	0.84807	-1.65656	1.05362	-1.35234
2891.000	0.84017	-1.68439	0.96271	-1.30267
2892.000	0.84017	-1.65259	1.02793	-1.29469
2893.000	0.85598	-1.71618	1.07141	-1.36227
2894.000	0.83424	-1.71023	1.06153	-1.34041
2895.000	0.81842	-1.68042	1.08327	-1.31455
2896.000	0.84610	-1.73010	1.06351	-1.40998
2897.000	0.79668	-1.68639	1.09513	-1.34834
2898.000	0.83621	-1.70426	1.02003	-1.39211
2899.000	0.83621	-1.69035	1.08722	-1.37419
2900.000	0.84017	-1.67047	1.08129	-1.34239
2901.000	0.80261	-1.71024	1.07536	-1.36426
2902.000	0.83028	-1.71420	1.05758	-1.37420
2903.000	0.84610	-1.71221	1.03386	-1.38217
2904.000	0.86981	-1.70027	1.04967	-1.35830
2905.000	0.83424	-1.71818	0.95283	-1.41599
2906.000	0.83621	-1.73606	0.97062	-1.40804
2907.000	0.83819	-1.71022	1.10303	-1.44972
2908.000	0.82633	-1.71818	0.99829	-1.42393
2909.000	0.86586	-1.70425	1.00421	-1.40603
2910.000	0.84610	-1.72413	1.06943	-1.43185
2911.000	0.81249	-1.72216	1.03584	-1.43186
2912.000	0.86191	-1.70823	1.04769	-1.45372
2913.000	0.84412	-1.67643	1.05362	-1.38216
2914.000	0.87970	-1.70822	1.03979	-1.44578
2915.000	0.83424	-1.68041	1.07932	-1.37618
2916.000	0.87970	-1.69629	1.04374	-1.40204
2917.000	0.85400	-1.71022	1.07339	-1.35630
2918.000	0.84017	-1.73407	1.05362	-1.38414
2919.000	0.85796	-1.70227	1.02793	-1.41795
2920.000	0.85796	-1.72015	1.09315	-1.43581
2921.000	0.85005	-1.71419	1.11094	-1.42984
2922.000	0.81645	-1.73607	1.02793	-1.38018
2923.000	0.82831	-1.70824	1.08129	-1.41196
2924.000	0.83819	-1.71817	1.07734	-1.36227
2925.000	0.84412	-1.69035	1.01212	-1.44380
2926.000	0.84807	-1.75196	1.04769	-1.40800
2927.000	0.84412	-1.68637	1.02398	-1.41000
2928.000	0.82831	-1.69433	1.07536	-1.38413
2929.000	0.85005	-1.73606	1.13860	-1.39603
2930.000	0.88167	-1.72014	1.06943	-1.33245
2931.000	0.85796	-1.71817	1.09117	-1.40401
2932.000	0.88958	-1.75591	1.14453	-1.36820
2933.000	0.85005	-1.68239	1.04769	-1.35035
2934.000	0.91132	-1.72410	1.14058	-1.42386
2935.000	0.87377	-1.68040	1.11489	-1.42984
2936.000	0.88760	-1.74399	1.08920	-1.40202
2937.000	0.86784	-1.69431	1.07536	-1.45371
2938.000	0.89551	-1.69827	1.06351	-1.38016
2939.000	0.87970	-1.73207	1.13663	-1.46362
2940.000	0.82831	-1.71818	1.10106	-1.36226
2941.000	0.84214	-1.72016	1.05758	-1.50341
2942.000	0.85005	-1.73606	1.16627	-1.37415
2943.000	0.87179	-1.74201	1.17220	-1.44372
2944.000	0.85005	-1.75593	1.06351	-1.40402
2945.000	0.86981	-1.76188	1.10501	-1.41990
2946.000	0.86586	-1.75592	1.01607	-1.40006
2947.000	0.84807	-1.76587	1.14058	-1.44970
2948.000	0.85203	-1.73407	1.05758	-1.47956
2949.000	0.84807	-1.76785	1.14058	-1.40796
2950.000	0.87377	-1.78573	1.07141	-1.40998
2951.000	0.83819	-1.78177	1.13465	-1.42983
2952.000	0.85203	-1.74400	1.00224	-1.41200
2953.000	0.87179	-1.73406	1.12872	-1.45766
2954.000	0.86388	-1.77778	1.10303	-1.46960
2955.000	0.82633	-1.78972	1.14848	-1.50933
2956.000	0.82633	-1.77979	1.00619	-1.50145
2957.000	0.83226	-1.76190	1.05362	-1.47559
2958.000	0.83226	-1.73408	1.09117	-1.41395
2959.000	0.84807	-1.75593	1.13070	-1.47555
2960.000	0.85203	-1.77381	1.13663	-1.39405
2961.000	0.85993	-1.74003	1.06943	-1.45769
2962.000	0.87574	-1.73406	1.13465	-1.46760
2963.000	0.85203	-1.75195	1.12279	-1.41393
2964.000	0.84610	-1.70625	1.07734	-1.39209
2965.000	0.84214	-1.72612	1.09117	-1.49346
2966.000	0.88365	-1.74796	1.08524	-1.54117
2967.000	0.89946	-1.74199	1.10896	-1.49146
2968.000	0.87772	-1.70623	1.06548	-1.41992
2969.000	0.91527	-1.75590	1.04572	-1.44975
2970.000	0.88958	-1.76982	1.04374	-1.42788
2971.000	0.88958	-1.76386	1.09315	-1.47557
2972.000	0.85005	-1.76388	1.14848	-1.42187
2973.000	0.85598	-1.77580	1.05362	-1.42987
2974.000	0.88365	-1.74399	1.15639	-1.43777
2975.000	0.85005	-1.75195	1.14453	-1.49542
2976.000	0.84807	-1.76984	1.08524	-1.46961
2977.000	0.79075	-1.80166	1.09710	-1.41991
2978.000	0.83819	-1.79171	1.12082	-1.42586
2979.000	0.81447	-1.76389	1.06153	-1.43781
2980.000	0.83028	-1.76588	1.06548	-1.42986
2981.000	0.85005	-1.75195	1.05560	-1.41396
2982.000	0.83424	-1.72215	1.05955	-1.42191
2983.000	0.86586	-1.73009	1.09513	-1.47159
2984.000	0.85203	-1.76189	1.10896	-1.40599
2985.000	0.83819	-1.75792	1.02793	-1.42590
2986.000	0.85005	-1.73208	1.03979	-1.41397
2987.000	0.84412	-1.71022	1.06746	-1.48949
2988.000	0.88958	-1.71020	1.08920	-1.35033
2989.000	0.86388	-1.73009	1.09513	-1.35629
2990.000	0.87377	-1.75592	1.14058	-1.43778
2991.000	0.88563	-1.74796	1.06153	-1.38613
2992.000	0.85400	-1.78375	1.07932	-1.36028
2993.000	0.86981	-1.75592	1.09908	-1.42388
2994.000	0.85598	-1.74202	1.05758	-1.43980
2995.000	0.87377	-1.76586	1.12082	-1.34237
2996.000	0.86784	-1.75990	1.05560	-1.41396
2997.000	0.86586	-1.74599	1.03979	-1.40204
2998.000	0.85993	-1.74003	1.04967	-1.41794
2999.000	0.89749	-1.77578	1.05560	-1.41595
3000.000	0.87772	-1.78573	1.12082	-1.37417
3001.000	0.89551	-1.73603	1.09908	-1.37816
3002.000	0.87772	-1.77579	1.07734	-1.41196
3003.000	0.86586	-1.77580	1.07141	-1.44775
3004.000	0.87179	-1.79964	1.08327	-1.43780
3005.000	0.84807	-1.82151	1.14651	-1.37416
3006.000	0.86586	-1.76586	1.07734	-1.43184
3007.000	0.87970	-1.76983	1.08920	-1.38015
3008.000	0.88365	-1.78175	1.01805	-1.36030
3009.000	0.87970	-1.74995	1.12279	-1.37616
3010.000	0.85005	-1.72811	1.02595	-1.39012
3011.000	0.89946	-1.76187	1.09908	-1.37816
3012.000	0.91330	-1.75192	1.11489	-1.40996
3013.000	0.91725	-1.72807	1.07141	-1.36028
3014.000	0.90737	-1.75789	1.12082	-1.37417
3015.000	0.89749	-1.74995	0.99631	-1.33845
3016.000	0.86784	-1.75990	1.10698	-1.40599
3017.000	0.90144	-1.75789	1.17220	-1.38608
3018.000	0.90737	-1.79962	1.10501	-1.46363
3019.000	0.88365	-1.74796	1.13465	-1.40995
3020.000	0.84610	-1.77580	1.13860	-1.41194
3021.000	0.90539	-1.78571	1.14848	-1.38609
3022.000	0.87772	-1.79169	1.13268	-1.36622
3023.000	0.87179	-1.80958	1.09908	-1.43382
3024.000	0.86191	-1.82349	1.13070	-1.40796
3025.000	0.83424	-1.80164	1.18998	-1.44769
3026.000	0.85598	-1.78176	1.06351	-1.40601
3027.000	0.91132	-1.74596	1.07536	-1.45967
3028.000	0.87574	-1.76784	1.15639	-1.37416
3029.000	0.87574	-1.77977	1.07734	-1.41196
3030.000	0.87179	-1.75393	1.14453	-1.40796
3031.000	0.88167	-1.75393	1.11489	-1.42984
3032.000	0.89946	-1.76584	1.13070	-1.36025
3033.000	0.92516	-1.75192	1.08327	-1.40997
3034.000	0.90539	-1.75392	1.12675	-1.41194
3035.000	0.90342	-1.76385	1.13465	-1.40200
3036.000	0.90539	-1.75789	1.15244	-1.40398
3037.000	0.88958	-1.73802	1.09710	-1.41792
3038.000	0.90539	-1.75988	1.15441	-1.43379
3039.000	0.91725	-1.73006	1.08129	-1.39407
3040.000	0.93306	-1.76781	1.08920	-1.45768
3041.000	0.94295	-1.78371	1.17813	-1.39403
3042.000	0.90144	-1.77578	1.13860	-1.40995
3043.000	0.87970	-1.77380	1.09117	-1.39208
3044.000	0.80459	-1.78179	1.18406	-1.42980
3045.000	0.75122	-1.81957	1.11489	-1.45170
3046.000	0.65238	-1.85538	1.12082	-1.43977
3047.000	0.50412	-1.89318	0.84017	-1.53332
3048.000	0.31236	-1.99258	0.68401	-1.58705
3049.000	0.01384	-2.01646	0.52587	-1.77592
3050.000	-0.26294	-2.17339	0.30643	-1.88528
3051.000	-0.51203	-2.35407	0.07315	-2.05818
3052.000	-0.77691	-2.47309	-0.17793	-2.24889
3053.000	-1.08722	-2.72497	-0.47645	-2.54869
3054.000	-1.35202	-2.90724	-0.74726	-2.79271
3055.000	-1.61083	-3.10918	-0.98643	-2.91555
3056.000	-1.88933	-3.31288	-1.26508	-3.09180
3057.000	-2.10259	-3.51650	-1.39351	-3.33352
3058.000	-2.29605	-3.70810	-1.52391	-3.44233
3059.000	-2.42039	-3.88389	-1.75898	-3.65982
3060.000	-2.51905	-4.04185	-1.87156	-3.84768
3061.000	-2.57627	-4.16426	-1.85971	-3.96645
3062.000	-2.59403	-4.24525	-1.96832	-4.04139
3063.000	-2.53879	-4.28891	-2.00584	-4.11844
3064.000	-2.48748	-4.31280	-1.95647	-4.18581
3065.000	-2.40065	-4.32296	-1.88341	-4.12270
3066.000	-2.28420	-4.31145	-1.81428	-4.12879
3067.000	-2.15392	-4.25252	-1.69380	-4.08356
3068.000	-2.04335	-4.24294	-1.62664	-4.06391
3069.000	-1.83008	-4.15447	-1.51798	-3.99288
3070.000	-1.73725	-4.12105	-1.41129	-3.93171
3071.000	-1.60491	-4.01052	-1.43105	-3.81883
3072.000	-1.53576	-3.97107	-1.33621	-3.77542
3073.000	-1.41327	-3.93368	-1.31250	-3.68435
3074.000	-1.35992	-3.85458	-1.24532	-3.65077
3075.000	-1.35597	-3.78331	-1.21172	-3.65082
3076.000	-1.38166	-3.77535	-1.23148	-3.56164
3077.000	-1.34807	-3.73183	-1.11884	-3.57367
3078.000	-1.34016	-3.70610	-1.19987	-3.49035
3079.000	-1.37771	-3.71198	-1.21963	-3.46258
3080.000	-1.41525	-3.69410	-1.23544	-3.46058
3081.000	-1.46464	-3.69600	-1.27891	-3.39710
3082.000	-1.50020	-3.70584	-1.32040	-3.49217
3083.000	-1.52984	-3.64241	-1.25520	-3.50415
3084.000	-1.54762	-3.70180	-1.30064	-3.47238
3085.000	-1.62861	-3.71750	-1.32831	-3.49018
3086.000	-1.67997	-3.71938	-1.30064	-3.50607
3087.000	-1.65627	-3.73923	-1.38561	-3.48811
3088.000	-1.71355	-3.72922	-1.38758	-3.52972
3089.000	-1.74120	-3.75886	-1.44883	-3.48604
3090.000	-1.77873	-3.78453	-1.41129	-3.55742
3091.000	-1.80243	-3.80625	-1.49625	-3.50578
3092.000	-1.86366	-3.85759	-1.48440	-3.62664
3093.000	-1.86366	-3.87936	-1.52786	-3.62459
3094.000	-1.86761	-3.90311	-1.49230	-3.68209
3095.000	-1.89328	-3.89513	-1.50415	-3.68801
3096.000	-1.90315	-3.97031	-1.59305	-3.67399
3097.000	-1.88933	-3.93472	-1.52589	-3.77511
3098.000	-1.91303	-3.98018	-1.54959	-3.75922
3099.000	-1.91698	-4.05536	-1.51996	-3.75135
3100.000	-1.89328	-4.01782	-1.57132	-3.78493
3101.000	-1.91105	-4.06922	-1.58318	-3.79678
3102.000	-1.90710	-4.05736	-1.50415	-3.85236
3103.000	-1.86563	-4.05548	-1.56737	-3.79285
3104.000	-1.85181	-4.06342	-1.52786	-3.81470
3105.000	-1.89920	-4.07518	-1.57132	-3.82452
3106.000	-1.85378	-4.08518	-1.57527	-3.82650
3107.000	-1.87748	-4.08513	-1.58910	-3.76905
3108.000	-1.86761	-4.09900	-1.53774	-3.76914
3109.000	-1.85773	-4.07132	-1.57527	-3.79086
3110.000	-1.89130	-4.11279	-1.54367	-3.80675
3111.000	-1.85971	-4.03571	-1.45476	-3.80691
3112.000	-1.87353	-4.09305	-1.46266	-3.78313
3113.000	-1.84391	-4.07729	-1.53181	-3.78896
3114.000	-1.83798	-4.06148	-1.50810	-3.80880
3115.000	-1.84588	-4.05552	-1.41327	-3.77332
3116.000	-1.84193	-4.04960	-1.49625	-3.74149
3117.000	-1.86366	-4.01591	-1.51008	-3.75335
3118.000	-1.84193	-4.07334	-1.50810	-3.70583
3119.000	-1.82218	-4.03579	-1.44686	-3.75148
3120.000	-1.84588	-4.05552	-1.54564	-3.77111
3121.000	-1.83008	-4.06347	-1.46662	-3.71382
3122.000	-1.86168	-4.06340	-1.46662	-3.76333
3123.000	-1.83008	-4.01797	-1.46266	-3.74353
3124.000	-1.88538	-4.05543	-1.45081	-3.68018
3125.000	-1.84786	-4.00803	-1.51798	-3.72759
3126.000	-1.87551	-4.03171	-1.52786	-3.70975
3127.000	-1.88538	-4.03367	-1.41129	-3.73371
3128.000	-1.80836	-3.99427	-1.42513	-3.74557
3129.000	-1.84983	-4.02386	-1.50415	-3.81474
3130.000	-1.84588	-4.02782	-1.48045	-3.70191
3131.000	-1.82021	-4.02788	-1.48835	-3.72566
3132.000	-1.81428	-3.98238	-1.45674	-3.74552
3133.000	-1.84193	-4.02388	-1.49428	-3.71773
3134.000	-1.82218	-4.00215	-1.53971	-3.73746
3135.000	-1.83008	-4.02192	-1.48637	-3.74745
3136.000	-1.82811	-4.00412	-1.48045	-3.70983
3137.000	-1.79453	-4.01211	-1.48637	-3.76725
3138.000	-1.81823	-4.05163	-1.46662	-3.73956
3139.000	-1.81033	-3.99229	-1.51403	-3.73156
3140.000	-1.86366	-4.02581	-1.51008	-3.74147
3141.000	-1.83996	-4.00805	-1.48835	-3.74745
3142.000	-1.79651	-4.00419	-1.44686	-3.69999
3143.000	-1.82613	-4.00412	-1.46464	-3.67619
3144.000	-1.82416	-4.03777	-1.49428	-3.70189
3145.000	-1.81823	-3.99425	-1.48045	-3.68409
3146.000	-1.82218	-4.02788	-1.45476	-3.67027
3147.000	-1.83206	-3.99224	-1.51403	-3.69195
3148.000	-1.83206	-4.00609	-1.55552	-3.66217
3149.000	-1.80441	-4.01407	-1.48835	-3.69794
3150.000	-1.83798	-4.00608	-1.44686	-3.69603
3151.000	-1.81033	-3.98041	-1.45081	-3.63066
3152.000	-1.82613	-4.00808	-1.46662	-3.67223
3153.000	-1.83601	-3.97640	-1.44488	-3.70791
3154.000	-1.79256	-3.98639	-1.47452	-3.70192
3155.000	-1.78663	-3.98640	-1.38956	-3.67037
3156.000	-1.78663	-3.95474	-1.52193	-3.66025
3157.000	-1.77478	-4.01215	-1.46662	-3.70590
3158.000	-1.78071	-4.01610	-1.42513	-3.69606
3159.000	-1.78071	-3.95673	-1.44291	-3.72772
3160.000	-1.79256	-3.97452	-1.44093	-3.68613
3161.000	-1.76886	-3.98446	-1.50218	-3.72564
3162.000	-1.81231	-4.03186	-1.48242	-3.70983
3163.000	-1.77873	-3.97257	-1.46464	-3.73957
3164.000	-1.77478	-4.01017	-1.43303	-3.74358
3165.000	-1.79453	-4.08136	-1.45871	-3.71581
3166.000	-1.81823	-4.03382	-1.49428	-3.67812
3167.000	-1.79848	-4.01210	-1.44883	-3.65641
3168.000	-1.79058	-4.03784	-1.44093	-3.67623
3169.000	-1.79256	-4.03784	-1.46662	-3.59498
3170.000	-1.81033	-4.06154	-1.43105	-3.70397
3171.000	-1.76688	-4.02800	-1.39944	-3.67432
3172.000	-1.81626	-4.02987	-1.43105	-3.64059
3173.000	-1.79848	-4.04772	-1.43500	-3.69605
3174.000	-1.81626	-4.04966	-1.40339	-3.67233
3175.000	-1.83798	-4.01993	-1.45871	-3.69007
3176.000	-1.78861	-4.03784	-1.37968	-3.71990
3177.000	-1.81626	-4.05361	-1.44093	-3.65246
3178.000	-1.78071	-4.07348	-1.45279	-3.71978
3179.000	-1.81428	-4.02592	-1.43303	-3.70991
3180.000	-1.79651	-4.04574	-1.40142	-3.66243
3181.000	-1.79453	-4.03783	-1.50020	-3.68405
3182.000	-1.77083	-4.03195	-1.43303	-3.72378
3183.000	-1.80046	-4.04375	-1.37375	-3.68624
3184.000	-1.79256	-4.04971	-1.42908	-3.70398
3185.000	-1.78268	-4.03192	-1.42117	-3.65447
3186.000	-1.75898	-4.02208	-1.46662	-3.70194
3187.000	-1.75898	-3.99833	-1.38363	-3.68622
3188.000	-1.81823	-4.02986	-1.32238	-3.70612
3189.000	-1.77083	-4.02601	-1.39944	-3.65847
3190.000	-1.79256	-4.02399	-1.40339	-3.65252
3191.000	-1.79651	-4.01210	-1.44291	-3.68217
3192.000	-1.83206	-4.00609	-1.46859	-3.69005
3193.000	-1.78071	-4.01016	-1.43500	-3.68614
3194.000	-1.79256	-4.04575	-1.37375	-3.67435
3195.000	-1.80046	-4.04771	-1.32633	-3.61104
3196.000	-1.75108	-4.04386	-1.43500	-3.65841
3197.000	-1.79651	-4.01408	-1.40537	-3.65252
3198.000	-1.76688	-4.00821	-1.38561	-3.72781
3199.000	-1.77873	-4.00225	-1.41722	-3.64656
3200.000	-1.75700	-3.99042	-1.34609	-3.60110
3201.000	-1.78861	-4.00816	-1.36980	-3.63078
3202.000	-1.78663	-4.00421	-1.42117	-3.62872
3203.000	-1.78861	-4.02399	-1.43698	-3.65841
3204.000	-1.79453	-3.99034	-1.36585	-3.61296
3205.000	-1.77083	-4.03591	-1.38758	-3.62481
3206.000	-1.75898	-3.98844	-1.41722	-3.62279
3207.000	-1.75700	-4.02802	-1.39549	-3.61490
3208.000	-1.75108	-4.00231	-1.40537	-3.62677
3209.000	-1.76293	-3.96468	-1.36980	-3.62880
3210.000	-1.79256	-3.99233	-1.39944	-3.59706
3211.000	-1.77083	-3.99039	-1.39549	-3.59707
3212.000	-1.75503	-3.99636	-1.44488	-3.58511
3213.000	-1.76293	-3.96271	-1.45674	-3.54348
3214.000	-1.80243	-3.98241	-1.38166	-3.58718
3215.000	-1.76293	-4.00624	-1.42315	-3.64061
3216.000	-1.76688	-3.98842	-1.46662	-3.54149
3217.000	-1.72145	-3.99446	-1.41525	-3.58515
3218.000	-1.76293	-3.98250	-1.34412	-3.63082
3219.000	-1.77873	-3.97257	-1.39549	-3.60697
3220.000	-1.74318	-3.98056	-1.45871	-3.62470
3221.000	-1.81231	-3.98041	-1.35399	-3.64071
3222.000	-1.76886	-3.99238	-1.41129	-3.60695
3223.000	-1.78663	-3.98442	-1.41525	-3.59308
3224.000	-1.77281	-4.00028	-1.37771	-3.59710
3225.000	-1.77083	-4.00820	-1.36387	-3.57532
3226.000	-1.76886	-3.97259	-1.35597	-3.55750
3227.000	-1.77676	-3.99434	-1.42908	-3.58315
3228.000	-1.79848	-4.03189	-1.37968	-3.59511
3229.000	-1.77083	-4.02799	-1.33424	-3.59914
3230.000	-1.78071	-4.03193	-1.32436	-3.55755
3231.000	-1.76688	-4.03987	-1.29669	-3.61901
3232.000	-1.75108	-3.99439	-1.36585	-3.62088
3233.000	-1.76688	-4.01613	-1.39351	-3.61094
3234.000	-1.76095	-4.00031	-1.37375	-3.57927
3235.000	-1.76688	-3.98644	-1.33028	-3.54764
3236.000	-1.82416	-4.00017	-1.33621	-3.53970
3237.000	-1.79848	-3.96659	-1.35202	-3.59911
3238.000	-1.74910	-3.99836	-1.38956	-3.53368
3239.000	-1.72738	-3.96674	-1.38956	-3.56142
3240.000	-1.78071	-4.01808	-1.35795	-3.56543
3241.000	-1.76491	-3.98645	-1.35202	-3.56345
3242.000	-1.77676	-4.00819	-1.34214	-3.63281
3243.000	-1.76491	-4.01415	-1.30064	-3.57938
3244.000	-1.75898	-3.99833	-1.39549	-3.60499
3245.000	-1.74713	-3.97857	-1.35597	-3.57930
3246.000	-1.80836	-3.95865	-1.36190	-3.60900
3247.000	-1.78663	-3.98047	-1.31645	-3.51794
3248.000	-1.77676	-3.98049	-1.30460	-3.58333
3249.000	-1.76293	-3.99041	-1.32040	-3.54369
3250.000	-1.82218	-3.99028	-1.34412	-3.59715
3251.000	-1.72145	-3.97862	-1.31052	-3.54370
3252.000	-1.75108	-3.97658	-1.28484	-3.56355
3253.000	-1.77478	-3.99236	-1.35202	-3.54959
3254.000	-1.78268	-3.98443	-1.36980	-3.57532
3255.000	-1.74515	-4.01024	-1.37375	-3.57135
3256.000	-1.79058	-3.98441	-1.33226	-3.60905
3257.000	-1.79058	-4.05367	-1.32633	-3.56547
3258.000	-1.79651	-4.03981	-1.30657	-3.54569
3259.000	-1.83008	-4.01995	-1.37573	-3.58323
3260.000	-1.81823	-4.03184	-1.29867	-3.62098
3261.000	-1.81823	-4.01997	-1.35992	-3.62089
3262.000	-1.81823	-4.02789	-1.37573	-3.59710
3263.000	-1.81428	-4.07934	-1.34214	-3.66252
3264.000	-1.88341	-4.07324	-1.32633	-3.59519
3265.000	-1.83206	-4.04962	-1.37375	-3.58125
3266.000	-1.83206	-4.06545	-1.31448	-3.65860
3267.000	-1.83206	-4.06347	-1.31448	-3.58134
3268.000	-1.83996	-4.05554	-1.29076	-3.65467
3269.000	-1.84786	-4.04958	-1.33226	-3.64074
3270.000	-1.83601	-4.04368	-1.31645	-3.62096
3271.000	-1.85181	-4.01594	-1.29669	-3.57146
3272.000	-1.83403	-4.06742	-1.19196	-3.59537
3273.000	-1.87946	-4.09501	-1.34214	-3.58724
3274.000	-1.84193	-4.08521	-1.26508	-3.61707
3275.000	-1.88143	-4.04753	-1.32436	-3.59123
3276.000	-1.87748	-4.09304	-1.25124	-3.58143
3277.000	-1.89130	-4.09301	-1.31448	-3.60709
3278.000	-1.84193	-4.11488	-1.27298	-3.58734
3279.000	-1.89723	-4.09497	-1.35992	-3.66843
3280.000	-1.87353	-4.12470	-1.26508	-3.61905
3281.000	-1.89920	-4.10486	-1.32436	-3.56944
3282.000	-1.88143	-4.06929	-1.26112	-3.62500
3283.000	-1.87551	-4.08909	-1.27496	-3.57743
3284.000	-1.88933	-4.09301	-1.28286	-3.57544
3285.000	-1.84786	-4.09509	-1.31052	-3.61106
3286.000	-1.87946	-4.11282	-1.27100	-3.57744
3287.000	-1.89525	-4.09102	-1.28484	-3.57940
3288.000	-1.85576	-4.04759	-1.25520	-3.60520
3289.000	-1.91105	-4.06131	-1.29274	-3.59128
3290.000	-1.92685	-4.09688	-1.26705	-3.58735
3291.000	-1.89328	-4.06531	-1.29669	-3.54966
3292.000	-1.89130	-4.05938	-1.23544	-3.56560
3293.000	-1.85378	-4.07331	-1.22951	-3.63891
3294.000	-1.86168	-4.07923	-1.25124	-3.58143
3295.000	-1.88143	-4.07127	-1.26903	-3.66461
3296.000	-1.87946	-4.04951	-1.22951	-3.58740
3297.000	-1.83798	-4.06543	-1.19987	-3.54385
3298.000	-1.83996	-4.05752	-1.21172	-3.55374
3299.000	-1.90315	-4.09100	-1.29669	-3.56353
3300.000	-1.83206	-4.03973	-1.21963	-3.59336
3301.000	-1.86168	-4.04757	-1.27496	-3.59328
3302.000	-1.85971	-4.06934	-1.21765	-3.54977
3303.000	-1.86563	-4.05548	-1.26508	-3.54971
3304.000	-1.88143	-4.06533	-1.21765	-3.55770
3305.000	-1.85773	-4.06539	-1.30657	-3.60314
3306.000	-1.85181	-3.98230	-1.24136	-3.58540
3307.000	-1.84588	-4.01793	-1.30657	-3.54173
3308.000	-1.86168	-4.06340	-1.19789	-3.58150
3309.000	-1.86761	-4.00997	-1.36387	-3.56146
3310.000	-1.88143	-4.06138	-1.31250	-3.52785
3311.000	-1.89525	-4.02375	-1.28286	-3.54968
3312.000	-1.85378	-4.06144	-1.24334	-3.51605
3313.000	-1.84391	-4.04366	-1.30262	-3.53381
3314.000	-1.84391	-4.02783	-1.33819	-3.52979
3315.000	-1.83601	-4.01004	-1.24729	-3.58143
3316.000	-1.80638	-4.01406	-1.24729	-3.57945
3317.000	-1.85181	-4.01396	-1.28879	-3.54571
3318.000	-1.82218	-4.02788	-1.23939	-3.52200
3319.000	-1.85181	-4.04364	-1.27298	-3.54772
3320.000	-1.84193	-4.07730	-1.32436	-3.54963
3321.000	-1.87156	-4.04953	-1.27298	-3.58932
3322.000	-1.83798	-4.05752	-1.25322	-3.53189
3323.000	-1.82021	-4.03777	-1.23148	-3.57749
3324.000	-1.80638	-4.01604	-1.30064	-3.53777
3325.000	-1.85378	-4.03968	-1.20975	-3.54384
3326.000	-1.83996	-4.05949	-1.29867	-3.59919
3327.000	-1.87551	-4.01589	-1.22555	-3.51013
3328.000	-1.87156	-4.05151	-1.16825	-3.58946
3329.000	-1.82218	-4.03381	-1.26508	-3.52593
3330.000	-1.86366	-4.02383	-1.24136	-3.62106
3331.000	-1.88143	-4.02181	-1.24334	-3.54974
3332.000	-1.83601	-4.05950	-1.21370	-3.49628
3333.000	-1.87156	-4.05547	-1.27496	-3.56753
3334.000	-1.84786	-4.01793	-1.27693	-3.54771
3335.000	-1.87156	-4.02381	-1.27100	-3.52989
3336.000	-1.89525	-4.03365	-1.23346	-3.52201
3337.000	-1.87748	-4.05149	-1.21172	-3.55176
3338.000	-1.83996	-4.05949	-1.24927	-3.55766
3339.000	-1.86563	-4.06141	-1.19591	-3.57159
3340.000	-1.88143	-4.02972	-1.23939	-3.47643
3341.000	-1.87551	-4.02578	-1.27100	-3.49224
3342.000	-1.85181	-4.04957	-1.16825	-3.59541
3343.000	-1.86168	-4.03372	-1.21567	-3.52798
3344.000	-1.84983	-4.06936	-1.19591	-3.52999
3345.000	-1.85378	-4.04561	-1.25124	-3.56756
3346.000	-1.88538	-4.03565	-1.17813	-3.46065
3347.000	-1.84588	-4.05750	-1.21963	-3.55968
3348.000	-1.84588	-4.03574	-1.21370	-3.53194
3349.000	-1.82416	-4.05557	-1.20382	-3.48638
3350.000	-1.82218	-4.07140	-1.27693	-3.48629
3351.000	-1.83798	-4.04565	-1.17813	-3.55577
3352.000	-1.82021	-4.08526	-1.16627	-3.49039
3353.000	-1.82218	-4.09119	-1.15837	-3.53796
3354.000	-1.80046	-4.02990	-1.23741	-3.51210
3355.000	-1.80836	-4.03978	-1.20382	-3.50620
3356.000	-1.87748	-4.04556	-1.25915	-3.53387
3357.000	-1.84983	-4.03375	-1.26705	-3.56357
3358.000	-1.84588	-3.99617	-1.25322	-3.53585
3359.000	-1.84391	-4.01200	-1.25520	-3.53189
3360.000	-1.81428	-4.07736	-1.28088	-3.52393
3361.000	-1.81033	-4.05758	-1.20975	-3.48439
3362.000	-1.85971	-4.05154	-1.20184	-3.50422
3363.000	-1.84193	-4.07334	-1.26705	-3.49026
3364.000	-1.83798	-4.05356	-1.24136	-3.51209
3365.000	-1.81428	-4.01404	-1.22555	-3.55571
3366.000	-1.83996	-4.06147	-1.23544	-3.50616
3367.000	-1.81033	-4.07341	-1.21765	-3.51411
3368.000	-1.83403	-4.05357	-1.21172	-3.47844
3369.000	-1.86563	-4.06933	-1.19591	-3.51017
3370.000	-1.84391	-4.08520	-1.19591	-3.47252
3371.000	-1.82613	-4.06348	-1.24532	-3.46453
3372.000	-1.85773	-4.04758	-1.22951	-3.49031
3373.000	-1.87946	-4.00796	-1.22555	-3.55174
3374.000	-1.84391	-4.04564	-1.20777	-3.53790
3375.000	-1.82416	-4.03579	-1.20382	-3.50422
3376.000	-1.84786	-4.05156	-1.25717	-3.56161
3377.000	-1.82811	-4.03578	-1.22160	-3.51608
3378.000	-1.83008	-4.03380	-1.25322	-3.50811
3379.000	-1.81823	-4.04174	-1.12279	-3.53998
3380.000	-1.82218	-4.09910	-1.16232	-3.53003
3381.000	-1.84983	-4.05551	-1.22753	-3.51211
3382.000	-1.80836	-4.04176	-1.19789	-3.51017
3383.000	-1.84588	-4.03178	-1.31448	-3.53775
3384.000	-1.83996	-4.05554	-1.24334	-3.53785
3385.000	-1.83403	-4.05555	-1.18801	-3.53594
3386.000	-1.86168	-4.06538	-1.26112	-3.51009
3387.000	-1.83996	-4.07334	-1.15837	-3.50427
3388.000	-1.85378	-4.05353	-1.15837	-3.58353
3389.000	-1.82416	-4.07536	-1.20777	-3.53592
3390.000	-1.89130	-4.04948	-1.17813	-3.54982
3391.000	-1.81231	-4.03977	-1.23939	-3.53587
3392.000	-1.85378	-4.05946	-1.22951	-3.53985
3393.000	-1.85576	-4.07529	-1.16627	-3.56173
3394.000	-1.85181	-4.02979	-1.24334	-3.46651
3395.000	-1.83403	-4.07336	-1.12675	-3.52611
3396.000	-1.86366	-4.05350	-1.22160	-3.53788
3397.000	-1.84391	-4.06740	-1.22160	-3.52797
3398.000	-1.85378	-4.02583	-1.22358	-3.51212
3399.000	-1.83798	-4.08720	-1.24136	-3.48831
3400.000	-1.85576	-4.08320	-1.16825	-3.51219
3401.000	-1.82416	-4.06151	-1.22951	-3.49229
3402.000	-1.85378	-4.09309	-1.19394	-3.52404
3403.000	-1.82416	-4.03579	-1.13663	-3.51024
3404.000	-1.85971	-4.04758	-1.15837	-3.53003
3405.000	-1.86168	-4.05153	-1.18010	-3.45470
3406.000	-1.83798	-4.06148	-1.17615	-3.46858
3407.000	-1.83008	-4.03182	-1.22753	-3.59137
3408.000	-1.80836	-4.05561	-1.25915	-3.50811
3409.000	-1.81428	-4.02790	-1.18801	-3.49433
3410.000	-1.82021	-4.03975	-1.12082	-3.50630
3411.000	-1.85181	-4.04760	-1.19394	-3.51414
3412.000	-1.83996	-4.07136	-1.16627	-3.52012
3413.000	-1.85378	-4.02385	-1.16034	-3.59938
3414.000	-1.83206	-4.05753	-1.21567	-3.50618
3415.000	-1.82613	-4.06942	-1.18603	-3.49829
3416.000	-1.82613	-4.08920	-1.13268	-3.51818
3417.000	-1.83996	-4.07136	-1.19196	-3.54782
3418.000	-1.86958	-4.04558	-1.21172	-3.48439
3419.000	-1.86761	-4.04162	-1.17813	-3.50821
3420.000	-1.85181	-4.08519	-1.26112	-3.48433
3421.000	-1.83996	-4.08521	-1.14848	-3.52806
3422.000	-1.84391	-4.07136	-1.17615	-3.55973
3423.000	-1.86761	-4.06141	-1.15244	-3.46861
3424.000	-1.86958	-4.06140	-1.07734	-3.52022
3425.000	-1.85773	-4.07528	-1.16825	-3.48444
3426.000	-1.83403	-4.08325	-1.17615	-3.56766
3427.000	-1.87156	-4.06140	-1.24729	-3.55568
3428.000	-1.89328	-4.08707	-1.17022	-3.55380
3429.000	-1.82021	-4.08130	-1.25124	-3.52595
3430.000	-1.84588	-4.08322	-1.15639	-3.51418
3431.000	-1.86366	-4.07131	-1.14848	-3.53203
3432.000	-1.83008	-4.07337	-1.25520	-3.56359
3433.000	-1.83008	-4.11491	-1.16232	-3.51021
3434.000	-1.88341	-4.08116	-1.19394	-3.53990
3435.000	-1.87946	-4.07325	-1.19394	-3.52206
3436.000	-1.87946	-4.07325	-1.24729	-3.51803
3437.000	-1.91500	-4.06921	-1.20579	-3.44278
3438.000	-1.87946	-4.04753	-1.19394	-3.53990
3439.000	-1.86761	-4.03173	-1.21370	-3.53987
3440.000	-1.91303	-4.06922	-1.22555	-3.52797
3441.000	-1.90710	-4.12264	-1.16034	-3.54985
3442.000	-1.87156	-4.07327	-1.21963	-3.51807
3443.000	-1.89525	-4.12663	-1.15046	-3.51419
3444.000	-1.90315	-4.03759	-1.20579	-3.55177
3445.000	-1.83601	-4.08127	-1.17418	-3.49236
3446.000	-1.78071	-3.99037	-1.09710	-3.45679
3447.000	-1.70367	-3.98856	-1.02200	-3.48065
3448.000	-1.54367	-3.95523	-0.88958	-3.47484
3449.000	-1.50020	-3.92561	-0.82040	-3.33615
3450.000	-1.26903	-3.82502	-0.61285	-3.25500
3451.000	-0.99631	-3.70655	-0.30248	-3.10838
3452.000	-0.74133	-3.62359	-0.13839	-2.88026
3453.000	-0.39539	-3.39588	0.14630	-2.73141
3454.000	-0.12850	-3.26113	0.45865	-2.60031
3455.000	0.13641	-3.08263	0.69389	-2.41158
3456.000	0.40330	-2.85638	0.92120	-2.22279
3457.000	0.63855	-2.70941	1.10896	-2.07567
3458.000	0.84610	-2.56438	1.41920	-1.87877
3459.000	0.97457	-2.40148	1.52589	-1.72570
3460.000	1.12477	-2.17299	1.64046	-1.63023
3461.000	1.11094	-2.00018	1.70170	-1.57852
3462.000	1.07734	-1.91676	1.72343	-1.45927
3463.000	1.04967	-1.80551	1.67404	-1.43149
3464.000	0.85598	-1.75394	1.55947	-1.45144
3465.000	0.69587	-1.71624	1.45279	-1.44754
3466.000	0.53773	-1.70238	1.25124	-1.44964
3467.000	0.35586	-1.76801	1.04177	-1.49746
3468.000	0.18188	-1.75810	0.91527	-1.56112
3469.000	0.04943	-1.85748	0.75715	-1.63871
3470.000	-0.02966	-1.86146	0.62075	-1.66459
3471.000	-0.15223	-1.90120	0.55552	-1.70834
3472.000	-0.20956	-2.00055	0.48435	-1.80177
3473.000	-0.24119	-2.10187	0.36969	-1.84950
3474.000	-0.25899	-2.17339	0.44284	-1.86538
3475.000	-0.29655	-2.28462	0.43889	-1.96474
3476.000	-0.27678	-2.37201	0.33016	-2.02834
3477.000	-0.30050	-2.41173	0.38749	-2.05217
3478.000	-0.25503	-2.56265	0.46656	-2.10977
3479.000	-0.18979	-2.58251	0.53575	-2.10577
3480.000	-0.14234	-2.62818	0.59110	-2.13158
3481.000	-0.07315	-2.63613	0.67610	-2.17127
3482.000	-0.06920	-2.67782	0.69982	-2.22092
3483.000	-0.02768	-2.73737	0.78680	-2.14142
3484.000	0.02768	-2.72348	0.84610	-2.19701
3485.000	0.07908	-2.71752	0.88760	-2.19699
3486.000	0.10478	-2.67782	0.80459	-2.12751
3487.000	0.15223	-2.67980	0.94295	-2.05989
3488.000	0.18979	-2.64406	0.90539	-2.01024
3489.000	0.22933	-2.61030	0.96073	-2.05591
3490.000	0.23922	-2.56464	0.93702	-1.94665
3491.000	0.26689	-2.50507	0.95480	-1.91882
3492.000	0.29259	-2.43357	0.96666	-1.99630
3493.000	0.30050	-2.41173	0.94690	-1.87114
3494.000	0.28271	-2.39982	0.91725	-1.82346
3495.000	0.29852	-2.35215	0.94690	-1.86518
3496.000	0.31829	-2.34619	0.90342	-1.81552
3497.000	0.28864	-2.26675	0.96666	-1.77376
3498.000	0.24712	-2.29059	0.94097	-1.85525
3499.000	0.26096	-2.26675	0.87574	-1.76387
3500.000	0.27678	-2.23298	0.81645	-1.76787
3501.000	0.25899	-2.26477	0.92120	-1.81949
3502.000	0.30050	-2.25085	0.86784	-1.82150
3503.000	0.26689	-2.25483	0.86388	-1.80163
3504.000	0.28073	-2.23497	0.88563	-1.82348
3505.000	0.25305	-2.21709	0.84017	-1.89504
3506.000	0.27678	-2.25483	0.88760	-1.82745
3507.000	0.25503	-2.26874	0.90539	-1.84135
3508.000	0.24515	-2.27470	0.85993	-1.86721
3509.000	0.23131	-2.24093	0.90737	-1.84533
3510.000	0.27085	-2.26675	0.85796	-1.86324
3511.000	0.22142	-2.31046	0.89946	-1.80161
3512.000	0.19770	-2.31244	0.87772	-1.84534
3513.000	0.22538	-2.27073	0.87377	-1.88707
3514.000	0.19177	-2.30053	0.81447	-1.87121
3515.000	0.18979	-2.32039	0.89551	-1.90495
3516.000	0.20758	-2.31443	0.80656	-1.90698
3517.000	0.20165	-2.30053	0.85400	-1.92881
3518.000	0.22538	-2.33230	0.84214	-1.84139
3519.000	0.23724	-2.32237	0.83819	-1.87914
3520.000	0.25503	-2.33230	0.86388	-1.88708
3521.000	0.22142	-2.32436	0.88563	-1.80957
3522.000	0.23724	-2.30251	0.89551	-1.82347
3523.000	0.24119	-2.28264	0.89946	-1.85725
3524.000	0.20758	-2.32833	0.80854	-1.90101
3525.000	0.20363	-2.35217	0.84610	-1.86324
3526.000	0.20561	-2.28464	0.80459	-1.90499
3527.000	0.20956	-2.31642	0.89946	-1.85725
3528.000	0.23329	-2.32038	0.87574	-1.84534
3529.000	0.20561	-2.32039	0.85598	-1.85529
3530.000	0.24712	-2.33031	0.83819	-1.81754
3531.000	0.23131	-2.32634	0.79668	-1.84935
3532.000	0.24712	-2.34223	0.79668	-1.85333
3533.000	0.23922	-2.38592	0.86388	-1.82548
3534.000	0.24515	-2.38195	0.88167	-1.88310
3535.000	0.25305	-2.36606	0.82831	-1.87120
3536.000	0.25108	-2.36606	0.85796	-1.92086
3537.000	0.26294	-2.33627	0.88167	-1.85528
3538.000	0.23724	-2.35018	0.82633	-1.85530
3539.000	0.20363	-2.33826	0.79075	-1.83346
3540.000	0.24119	-2.35415	0.86191	-1.86125
3541.000	0.25108	-2.32038	0.87377	-1.79765
3542.000	0.25701	-2.33826	0.92911	-1.91089
3543.000	0.27678	-2.32236	0.81052	-1.89704
3544.000	0.25701	-2.36407	0.84214	-1.89305
3545.000	0.24515	-2.27271	0.87772	-1.92085
3546.000	0.20758	-2.34422	0.94492	-1.89101
3547.000	0.25305	-2.30052	0.90144	-1.89103
3548.000	0.23724	-2.32237	0.89946	-1.88110
3549.000	0.24317	-2.34422	0.89353	-1.92482
3550.000	0.22933	-2.35613	0.86191	-1.90894
3551.000	0.25701	-2.30648	0.94690	-1.84928
3552.000	0.21154	-2.28265	0.84807	-1.87516
3553.000	0.22142	-2.37401	0.82633	-1.86325
3554.000	0.25899	-2.32435	0.85598	-1.85926
3555.000	0.21549	-2.34025	0.87377	-1.88509
3556.000	0.21549	-2.33429	0.88958	-1.83938
3557.000	0.22142	-2.32039	0.95283	-1.88902
3558.000	0.20363	-2.34621	0.86586	-1.89304
3559.000	0.20363	-2.35614	0.89946	-1.93673
3560.000	0.22340	-2.33429	0.80459	-1.83942
3561.000	0.23724	-2.35018	0.87772	-1.82746
3562.000	0.22142	-2.33230	0.87179	-1.88707
3563.000	0.22538	-2.36607	0.88167	-1.87117
3564.000	0.22933	-2.34223	0.88563	-1.89303
3565.000	0.22340	-2.34025	0.86388	-1.90099
3566.000	0.23329	-2.33826	0.83621	-1.88510
3567.000	0.20363	-2.35217	0.84412	-1.92882
3568.000	0.18781	-2.33827	0.81842	-1.94671
3569.000	0.21945	-2.31244	0.82633	-1.87517
3570.000	0.20363	-2.33032	0.77691	-1.93680
3571.000	0.21747	-2.33429	0.85598	-1.93278
3572.000	0.23922	-2.33627	0.83621	-1.92683
3573.000	0.20165	-2.37799	0.84807	-1.93080
3574.000	0.22933	-2.35812	0.81249	-1.94870
3575.000	0.26294	-2.35216	0.91330	-1.91090
3576.000	0.20758	-2.36607	0.89551	-1.93475
3577.000	0.20561	-2.36805	0.88563	-1.93277
3578.000	0.21154	-2.32833	0.88365	-1.92085
3579.000	0.20956	-2.35415	0.85598	-1.92086
3580.000	0.20956	-2.39983	0.83819	-1.91690
3581.000	0.23922	-2.37997	0.89353	-1.89501
3582.000	0.17793	-2.38395	0.85203	-1.96259
3583.000	0.19572	-2.35217	0.90144	-1.95859
3584.000	0.19177	-2.33628	0.86586	-1.87913
3585.000	0.18386	-2.37799	0.86388	-1.94271
3586.000	0.18584	-2.37997	0.88365	-1.92283
3587.000	0.19375	-2.35614	0.90342	-1.90097
3588.000	0.20956	-2.33429	0.84412	-1.93080
3589.000	0.21352	-2.37401	0.86191	-1.89503
3590.000	0.18979	-2.35614	0.86586	-1.88310
3591.000	0.24515	-2.38195	0.80854	-1.86525
3592.000	0.19572	-2.34224	0.90144	-1.89699
3593.000	0.22933	-2.37798	0.94492	-1.93472
3594.000	0.17595	-2.36409	0.86981	-1.90098
3595.000	0.20561	-2.39189	0.89156	-1.93078
3596.000	0.16804	-2.34423	0.84017	-1.94670
3597.000	0.21747	-2.38394	0.89551	-1.95661
3598.000	0.19968	-2.37799	0.83424	-1.98445
3599.000	0.20956	-2.33230	0.85203	-1.90497
3600.000	0.17595	-2.32039	0.85005	-1.90894
3601.000	0.21154	-2.31642	0.81052	-1.89108
3602.000	0.21549	-2.34422	0.87970	-1.86521
3603.000	0.20363	-2.36805	0.85598	-1.91291
3604.000	0.16804	-2.33430	0.85005	-1.88112
3605.000	0.21154	-2.36607	0.92318	-1.90294
3606.000	0.18979	-2.38792	0.92120	-1.90692
3607.000	0.20956	-2.37004	0.90342	-1.91289
3608.000	0.19572	-2.33628	0.86586	-1.89304
3609.000	0.22933	-2.35812	0.94097	-1.93075
3610.000	0.23329	-2.35018	0.95876	-1.92478
3611.000	0.15421	-2.35217	0.92911	-1.87115
3612.000	0.20363	-2.36011	0.91725	-1.94269
3613.000	0.21945	-2.34621	0.91527	-1.87513
3614.000	0.18584	-2.34224	0.92713	-1.95063
3615.000	0.16607	-2.35813	0.91132	-1.91487
3616.000	0.21549	-2.34025	0.87574	-1.90893
3617.000	0.17595	-2.37600	0.90737	-1.94070
3618.000	0.19770	-2.35217	0.89749	-1.93674
3619.000	0.18386	-2.34621	0.88760	-1.94866
3620.000	0.19770	-2.38990	0.91132	-1.91686
3621.000	0.18781	-2.34621	0.90342	-1.90892
3622.000	0.15223	-2.35615	0.85400	-1.87715
3623.000	0.19572	-2.36011	0.89353	-1.91488
3624.000	0.18584	-2.35614	0.98050	-1.91285
3625.000	0.22142	-2.33032	0.84017	-1.89305
3626.000	0.20956	-2.33032	0.89946	-1.88309
3627.000	0.16607	-2.35217	0.92713	-1.88903
3628.000	0.17200	-2.36409	0.85796	-1.88112
3629.000	0.21747	-2.37202	0.92911	-1.93473
3630.000	0.20561	-2.36607	0.92713	-1.93473
3631.000	0.17991	-2.37600	0.90737	-1.90891
3632.000	0.16211	-2.36012	0.91725	-1.94666
3633.000	0.22538	-2.33032	0.93702	-1.91486
3634.000	0.19177	-2.33628	0.90737	-1.91686
3635.000	0.19572	-2.32238	1.01014	-1.88899
3636.000	0.17595	-2.31841	0.90934	-1.87911
3637.000	0.19375	-2.32238	0.91330	-1.95064
3638.000	0.17991	-2.32436	0.87772	-1.89105
3639.000	0.18781	-2.33827	0.93306	-1.90095
3640.000	0.16409	-2.28663	0.95480	-1.93273
3641.000	0.19572	-2.35018	0.91725	-1.91288
3642.000	0.17991	-2.36806	0.84610	-1.90497
3643.000	0.19572	-2.36210	0.85796	-1.91490
3644.000	0.19770	-2.33429	0.87179	-1.93476
3645.000	0.24515	-2.33230	0.91330	-1.96057
3646.000	0.20561	-2.34422	0.88958	-1.92879
3647.000	0.19375	-2.36011	0.88760	-1.90694
3648.000	0.23724	-2.37599	0.87179	-1.89701
3649.000	0.22538	-2.33826	0.90934	-1.89302
3650.000	0.20561	-2.33231	0.87179	-1.88111
3651.000	0.19770	-2.39189	0.98050	-1.88900
3652.000	0.20758	-2.36805	0.93109	-1.85724
3653.000	0.19375	-2.37600	0.96469	-1.90690
3654.000	0.18386	-2.37203	0.94097	-1.95062
3655.000	0.17991	-2.32834	0.89946	-1.91687
3656.000	0.19968	-2.33826	0.92120	-1.92878
3657.000	0.22142	-2.34621	0.91725	-1.94070
3658.000	0.20363	-2.33826	0.97062	-1.96252
3659.000	0.19572	-2.35018	0.99829	-1.94860
3660.000	0.22538	-2.32833	0.90737	-1.88110
3661.000	0.18781	-2.35415	1.02991	-1.89692
3662.000	0.18781	-2.36806	0.86586	-1.94470
3663.000	0.25503	-2.34421	0.88958	-1.87117
3664.000	0.17991	-2.35018	0.94690	-1.87909
3665.000	0.19572	-2.34422	0.84214	-1.87517
3666.000	0.19968	-2.35018	0.89353	-1.90097
3667.000	0.21747	-2.31244	0.92713	-1.90294
3668.000	0.15618	-2.32039	0.90144	-1.82745
3669.000	0.21352	-2.32436	0.83621	-1.86523
3670.000	0.19177	-2.33032	0.86784	-1.94073
3671.000	0.22933	-2.38195	0.90144	-1.89699
3672.000	0.21549	-2.32039	0.90934	-1.88904
3673.000	0.17595	-2.32238	0.89156	-1.88905
3674.000	0.20956	-2.35018	0.94887	-1.90690
3675.000	0.21945	-2.35216	0.94295	-1.85524
3676.000	0.21945	-2.33429	0.93504	-1.85525
3677.000	0.16804	-2.34820	0.96271	-1.94862
3678.000	0.15816	-2.32039	0.95480	-1.89895
3679.000	0.21549	-2.35812	0.84412	-1.81555
3680.000	0.16014	-2.36210	0.95480	-1.91882
3681.000	0.17595	-2.34224	0.89156	-1.87713
3682.000	0.22340	-2.38593	0.88958	-1.91687
3683.000	0.20363	-2.36011	0.87574	-1.88509
3684.000	0.17200	-2.36806	0.94492	-1.85326
3685.000	0.17398	-2.33032	0.96666	-1.85921
3686.000	0.18386	-2.39189	0.88365	-1.85925
3687.000	0.18781	-2.37997	0.89551	-1.86520
3688.000	0.20165	-2.37203	0.99038	-1.78766
3689.000	0.18188	-2.39388	0.93306	-1.84730
3690.000	0.21352	-2.39586	0.97457	-1.87510
3691.000	0.16607	-2.39388	0.94690	-1.86915
3692.000	0.19770	-2.38792	0.96864	-1.85920
3693.000	0.16211	-2.38991	0.98840	-1.89496
3694.000	0.20956	-2.35415	0.97062	-1.85523
3695.000	0.18386	-2.39785	0.90737	-1.87315
3696.000	0.15223	-2.36012	0.97259	-1.91086
3697.000	0.18781	-2.40182	0.94492	-1.89300
3698.000	0.19968	-2.39785	0.91330	-1.86122
3699.000	0.15618	-2.35416	0.92911	-1.86121
3700.000	0.15223	-2.34026	0.91132	-1.83738
3701.000	0.17398	-2.33628	0.95085	-1.80357
3702.000	0.19572	-2.34621	0.90934	-1.87315
3703.000	0.18781	-2.32834	0.94295	-1.86915
3704.000	0.20165	-2.35813	0.99829	-1.90092
3705.000	0.17793	-2.31642	0.90737	-1.87712
3706.000	0.18584	-2.36607	0.91330	-1.77776
3707.000	0.17398	-2.36210	0.92516	-1.90493
3708.000	0.16211	-2.41175	0.94295	-1.89697
3709.000	0.16211	-2.32834	0.98050	-1.83535
3710.000	0.19770	-2.34224	1.00619	-1.81149
3711.000	0.14037	-2.37203	0.93306	-1.89896
3712.000	0.21945	-2.38195	0.98643	-1.88900
3713.000	0.17200	-2.36806	0.90737	-1.84731
3714.000	0.16014	-2.27868	0.96271	-1.91286
3715.000	0.17398	-2.34025	0.98050	-1.82939
3716.000	0.22142	-2.33429	1.02003	-1.83732
3717.000	0.17200	-2.37005	0.98643	-1.90291
3718.000	0.17398	-2.33628	0.88167	-1.89700
3719.000	0.19968	-2.32635	0.92318	-1.83538
3720.000	0.17793	-2.31443	0.94295	-1.79563
3721.000	0.14827	-2.35019	0.92911	-1.88903
3722.000	0.13444	-2.32636	0.96073	-1.85523
3723.000	0.17595	-2.33827	0.90934	-1.92083
3724.000	0.15618	-2.34224	1.02200	-1.88302
3725.000	0.16014	-2.29855	0.91527	-1.78372
3726.000	0.18386	-2.30252	0.99038	-1.89893
3727.000	0.15618	-2.33231	0.99038	-1.85522
3728.000	0.18979	-2.31443	0.97457	-1.86516
3729.000	0.17595	-2.33628	0.96469	-1.87312
3730.000	0.23526	-2.33627	0.96469	-1.88703
3731.000	0.18979	-2.31443	0.99433	-1.82740
3732.000	0.20956	-2.35614	1.05560	-1.94062
3733.000	0.21352	-2.32237	1.01607	-1.88898
3734.000	0.20758	-2.33230	0.94492	-1.86319
3735.000	0.17991	-2.32238	0.99829	-1.89297
3736.000	0.18386	-2.38196	1.04572	-1.84326
3737.000	0.17200	-2.34423	0.92318	-1.88506
3738.000	0.19375	-2.31443	0.99829	-1.81150
3739.000	0.20165	-2.37203	0.92516	-1.87115
3740.000	0.17595	-2.35217	0.96864	-1.81748
3741.000	0.18188	-2.36011	0.93306	-1.88903
3742.000	0.18979	-2.29457	0.89551	-1.81751
3743.000	0.16211	-2.33430	1.04177	-1.88698
3744.000	0.13839	-2.32040	0.99631	-1.84727
3745.000	0.17200	-2.33628	0.93306	-1.86121
3746.000	0.17002	-2.30252	1.07734	-1.89689
3747.000	0.15421	-2.32635	0.98445	-1.83535
3748.000	0.18781	-2.29457	0.79075	-1.88314
3749.000	0.20758	-2.26875	0.90737	-1.82347
3750.000	0.19770	-2.31046	0.95876	-1.82742
3751.000	0.18386	-2.31841	0.94295	-1.79563
3752.000	0.20758	-2.29258	0.94295	-1.86717
3753.000	0.22735	-2.33627	0.99236	-1.86913
3754.000	0.18584	-2.35018	0.97852	-1.84926
3755.000	0.20561	-2.30053	1.00619	-1.83136
3756.000	0.19770	-2.34224	0.99038	-1.79958
3757.000	0.19572	-2.36607	0.92516	-1.86916
3758.000	0.18781	-2.34621	0.98050	-1.81151
3759.000	0.22933	-2.35018	0.94887	-1.83537
3760.000	0.16804	-2.30450	0.96271	-1.83934
3761.000	0.19572	-2.32436	0.95085	-1.77178
3762.000	0.20956	-2.30053	0.94887	-1.81550
3763.000	0.21549	-2.36011	0.98445	-1.78766
3764.000	0.23131	-2.29854	0.93899	-1.77179
3765.000	0.20165	-2.36408	0.96864	-1.72209
3766.000	0.20758	-2.34224	0.99829	-1.75586
3767.000	0.22735	-2.29655	1.00224	-1.72406
3768.000	0.26294	-2.29654	0.94492	-1.70819
3769.000	0.25503	-2.29655	0.98445	-1.81151
3770.000	0.24119	-2.32237	0.93306	-1.77974
3771.000	0.25305	-2.28662	0.91132	-1.76981
3772.000	0.25108	-2.28662	0.91330	-1.80359
3773.000	0.25503	-2.29853	0.98643	-1.76779
3774.000	0.24119	-2.30648	0.94492	-1.73601
3775.000	0.26096	-2.31839	0.97852	-1.77971
3776.000	0.23724	-2.29258	1.02398	-1.82341
3777.000	0.28073	-2.28264	0.94887	-1.83140
3778.000	0.23724	-2.30251	0.94097	-1.79961
3779.000	0.26887	-2.30250	0.99829	-1.84329
3780.000	0.23922	-2.30847	1.00817	-1.79560
3781.000	0.23724	-2.32634	0.99433	-1.76579
3782.000	0.20165	-2.33032	0.99236	-1.77772
3783.000	0.22538	-2.30648	0.93899	-1.81153
3784.000	0.19572	-2.32238	0.98840	-1.81548
3785.000	0.17991	-2.32238	0.93702	-1.79762
3786.000	0.23526	-2.34025	1.05362	-1.83332
3787.000	0.20363	-2.31443	0.94295	-1.78967
3788.000	0.22933	-2.29655	1.07536	-1.78761
3789.000	0.24910	-2.30251	1.07932	-1.78164
3790.000	0.22735	-2.33429	1.03188	-1.81545
3791.000	0.20363	-2.29258	1.04572	-1.74391
3792.000	0.21352	-2.29655	0.97457	-1.75587
3793.000	0.22933	-2.30648	1.01607	-1.81944
3794.000	0.20165	-2.31840	0.99829	-1.76778
3795.000	0.21747	-2.27868	1.02595	-1.81148
3796.000	0.20363	-2.31443	0.97457	-1.87112
3797.000	0.22538	-2.30251	0.97259	-1.74593
3798.000	0.22538	-2.28066	1.02003	-1.81546
3799.000	0.22142	-2.31443	1.01014	-1.77771
3800.000	0.18979	-2.33032	1.03386	-1.79359
3801.000	0.22340	-2.30648	0.98050	-1.80356
3802.000	0.21549	-2.31443	0.98050	-1.78170
3803.000	0.21747	-2.30648	0.98840	-1.78766
3804.000	0.23922	-2.29456	1.02991	-1.74789
3805.000	0.22340	-2.31244	0.98247	-1.75189
3806.000	0.19177	-2.31642	0.99038	-1.82541
3807.000	0.21945	-2.29457	1.00026	-1.72207
3808.000	0.21549	-2.31046	0.96271	-1.76581
3809.000	0.22538	-2.28066	1.05362	-1.80352
3810.000	0.23329	-2.29456	1.03188	-1.77571
3811.000	0.20165	-2.27272	0.99433	-1.76381
3812.000	0.19968	-2.27868	1.00224	-1.73996
3813.000	0.23526	-2.29456	0.99433	-1.79560
3814.000	0.22142	-2.29457	1.04177	-1.76974
3815.000	0.24317	-2.28662	0.99236	-1.77176
3816.000	0.23922	-2.28265	1.02595	-1.73597
3817.000	0.24712	-2.29853	1.03781	-1.75583
3818.000	0.25108	-2.28662	0.97062	-1.71612
3819.000	0.26689	-2.28661	1.05165	-1.73993
3820.000	0.25701	-2.30449	1.01607	-1.80354
3821.000	0.24317	-2.29853	0.99829	-1.77573
3822.000	0.24910	-2.30052	1.02793	-1.74789
3823.000	0.24317	-2.32435	1.02595	-1.70417
3824.000	0.25503	-2.28860	0.96271	-1.72010
3825.000	0.25503	-2.27470	1.11094	-1.81938
3826.000	0.24515	-2.26874	0.99631	-1.80355
3827.000	0.27282	-2.28661	1.02991	-1.77571
3828.000	0.23724	-2.31045	1.03584	-1.73000
3829.000	0.24119	-2.27271	0.99038	-1.75387
3830.000	0.29457	-2.28661	1.02991	-1.77571
3831.000	0.24317	-2.29853	1.06153	-1.79557
3832.000	0.24712	-2.28264	1.02003	-1.73200
3833.000	0.25899	-2.27271	1.00817	-1.73797
3834.000	0.26887	-2.28860	0.98643	-1.74791
3835.000	0.24712	-2.31244	0.99829	-1.79163
3836.000	0.29655	-2.28263	0.96271	-1.77575
3837.000	0.26096	-2.27668	0.93306	-1.76384
3838.000	0.25503	-2.27668	0.92516	-1.74596
3839.000	0.26689	-2.27470	0.93504	-1.81551
3840.000	0.23329	-2.25881	0.97852	-1.75189
3841.000	0.21747	-2.27073	0.95678	-1.73600
3842.000	0.24317	-2.26874	1.02398	-1.76379
3843.000	0.25701	-2.29257	0.97654	-1.72805
3844.000	0.25701	-2.30250	1.02003	-1.69821
3845.000	0.25503	-2.27271	1.04374	-1.73596
3846.000	0.24910	-2.26278	1.06153	-1.73992
3847.000	0.25899	-2.28860	1.00421	-1.77771
3848.000	0.26096	-2.29059	1.02398	-1.70616
3849.000	0.20758	-2.27868	1.02200	-1.71212
3850.000	0.22933	-2.28066	1.05758	-1.76973
3851.000	0.22340	-2.29854	1.05560	-1.75781
3852.000	0.24712	-2.28662	1.01805	-1.75783
3853.000	0.21549	-2.31244	0.98445	-1.78170
3854.000	0.28864	-2.28859	0.99829	-1.75784
3855.000	0.26294	-2.27668	0.97654	-1.73202
3856.000	0.22933	-2.34422	1.03979	-1.79558
3857.000	0.26096	-2.30250	1.12675	-1.73392
3858.000	0.25701	-2.31244	1.06746	-1.70415
3859.000	0.23526	-2.27867	1.01805	-1.81745
3860.000	0.25701	-2.30052	0.95678	-1.71017
3861.000	0.23724	-2.29258	0.99236	-1.76182
3862.000	0.21154	-2.25881	1.02793	-1.75584
3863.000	0.23526	-2.30449	0.98445	-1.81151
3864.000	0.21747	-2.29854	1.00817	-1.73399
3865.000	0.23922	-2.30251	1.07536	-1.75780
3866.000	0.21154	-2.30450	1.01212	-1.76578
3867.000	0.24317	-2.32038	1.01410	-1.69225
3868.000	0.21352	-2.29059	1.08524	-1.70414
3869.000	0.24515	-2.29853	1.05165	-1.73397
3870.000	0.22538	-2.30450	1.04572	-1.73000
3871.000	0.29655	-2.28065	1.00619	-1.76380
3872.000	0.28073	-2.24688	0.99433	-1.79163
3873.000	0.22142	-2.24094	1.05758	-1.67434
3874.000	0.21747	-2.26279	0.99236	-1.76778
3875.000	0.26689	-2.24689	1.05758	-1.76775
3876.000	0.23922	-2.26278	0.96864	-1.79164
3877.000	0.25305	-2.28463	1.02595	-1.74590
3878.000	0.23329	-2.28860	1.02793	-1.76975
3879.000	0.25108	-2.29257	1.05560	-1.73396
3880.000	0.22538	-2.23498	1.07339	-1.73992
3881.000	0.26887	-2.24490	1.04572	-1.77968
3882.000	0.27282	-2.29257	1.02398	-1.71610
3883.000	0.25701	-2.28661	1.02398	-1.71212
3884.000	0.27876	-2.25483	1.08327	-1.73792
3885.000	0.26294	-2.21908	0.97457	-1.81350
3886.000	0.27085	-2.25284	1.03781	-1.77173
3887.000	0.24712	-2.24292	1.03979	-1.75782
3888.000	0.25108	-2.29853	1.07536	-1.69023
3889.000	0.25899	-2.27668	1.01607	-1.77969
3890.000	0.24515	-2.27470	1.03584	-1.76378
3891.000	0.20956	-2.25683	1.03979	-1.73596
3892.000	0.26096	-2.26079	1.02595	-1.82937
3893.000	0.22933	-2.26676	1.05758	-1.78961
3894.000	0.23329	-2.29059	1.04572	-1.72403
3895.000	0.25701	-2.24689	1.05560	-1.74986
3896.000	0.27876	-2.22305	1.03584	-1.73000
3897.000	0.28073	-2.26277	1.05560	-1.73595
3898.000	0.25108	-2.26278	0.98445	-1.70221
3899.000	0.29852	-2.26476	1.03584	-1.73596
3900.000	0.23131	-2.28265	1.01805	-1.72405
3901.000	0.24910	-2.26278	1.00421	-1.77175
3902.000	0.26492	-2.24291	1.03979	-1.79756
3903.000	0.25305	-2.32038	1.05955	-1.73198
3904.000	0.28864	-2.24887	1.07339	-1.82139
3905.000	0.29259	-2.25880	1.06351	-1.71607
3906.000	0.29457	-2.24688	0.98643	-1.76182
3907.000	0.30446	-2.26674	1.07932	-1.80549
3908.000	0.29062	-2.22900	1.03979	-1.81942
3909.000	0.26492	-2.21908	1.02398	-1.74789
3910.000	0.26294	-2.28065	1.09710	-1.72003
3911.000	0.26294	-2.22901	1.05560	-1.78762
3912.000	0.30643	-2.27667	1.07932	-1.69619
3913.000	0.28469	-2.24490	1.00619	-1.72207
