time (ms)	lx (deg)	ly (deg)	rx (deg)	ry (deg)
0.000	-0.06524	-0.39987	0.07315	-0.15319
1.000	-0.06326	-0.42573	0.11664	-0.14125
2.000	-0.06326	-0.38396	0.16014	-0.17905
3.000	-0.06129	-0.35213	0.08501	-0.14523
4.000	-0.04745	-0.38197	0.11862	-0.18502
5.000	-0.07908	-0.43369	0.08699	-0.13528
6.000	-0.08699	-0.42971	0.09094	-0.10345
7.000	-0.04349	-0.35014	0.10676	-0.21486
8.000	-0.08501	-0.40982	0.11664	-0.11340
9.000	-0.03163	-0.40186	0.12060	-0.16711
10.000	-0.07908	-0.42772	0.10478	-0.07361
11.000	-0.08897	-0.37600	0.16804	-0.14324
12.000	-0.09292	-0.39191	0.12060	-0.08753
13.000	-0.06722	-0.40982	0.05931	-0.10345
14.000	-0.08501	-0.35213	0.14234	-0.12732
15.000	-0.10280	-0.44165	0.06129	-0.10942
16.000	-0.07117	-0.38197	0.08106	-0.17905
17.000	-0.09490	-0.43966	0.16804	-0.11738
18.000	-0.07710	-0.38793	0.10874	-0.17507
19.000	-0.04152	-0.44761	0.02966	-0.13130
20.000	-0.07117	-0.42374	0.09292	-0.10743
21.000	-0.10083	-0.41777	0.14037	-0.12533
22.000	-0.05140	-0.39390	0.12850	-0.15120
23.000	-0.10083	-0.42374	0.17398	-0.15716
24.000	-0.03954	-0.37003	0.10083	-0.20690
25.000	-0.06129	-0.41777	0.08699	-0.17308
26.000	-0.04349	-0.36406	0.13641	-0.14921
27.000	-0.08303	-0.42175	0.12455	-0.10743
28.000	-0.04547	-0.37799	0.22538	-0.20889
29.000	-0.03756	-0.36804	0.10083	-0.17507
30.000	-0.08897	-0.37202	0.10478	-0.18900
31.000	-0.09490	-0.41181	0.19375	-0.21685
32.000	-0.04152	-0.40982	0.13839	-0.12334
33.000	-0.09687	-0.43767	0.11467	-0.14324
34.000	-0.05931	-0.43369	0.11664	-0.14125
35.000	-0.06326	-0.38594	0.11071	-0.10743
36.000	-0.06129	-0.39987	0.06722	-0.13329
37.000	-0.03756	-0.37799	0.12060	-0.17706
38.000	-0.07117	-0.39589	0.06920	-0.11937
39.000	-0.04745	-0.37401	0.09490	-0.14125
40.000	-0.07513	-0.39191	0.14827	-0.17905
41.000	-0.09687	-0.40982	0.10478	-0.17507
42.000	-0.07710	-0.42772	0.16014	-0.18701
43.000	-0.03559	-0.35014	0.12060	-0.17706
44.000	-0.09292	-0.41380	0.11467	-0.18900
45.000	-0.05931	-0.41578	0.16211	-0.19695
46.000	-0.07710	-0.36605	0.21352	-0.16114
47.000	-0.09292	-0.36804	0.09094	-0.17109
48.000	-0.07908	-0.38793	0.06722	-0.15120
49.000	-0.08303	-0.37998	0.09094	-0.17905
50.000	-0.06920	-0.37202	0.18584	-0.20292
51.000	-0.05338	-0.36008	0.09094	-0.19496
52.000	-0.08501	-0.42573	0.17793	-0.18502
53.000	-0.08501	-0.39788	0.20956	-0.18303
54.000	-0.11467	-0.35809	0.15223	-0.18104
55.000	-0.03559	-0.40584	0.14234	-0.18303
56.000	-0.06129	-0.40385	0.12257	-0.20690
57.000	-0.06129	-0.35610	0.05338	-0.10345
58.000	-0.06722	-0.38793	0.11071	-0.19695
59.000	-0.03163	-0.36406	0.17398	-0.20093
60.000	-0.04152	-0.36008	0.17398	-0.20292
61.000	-0.10676	-0.35213	0.13048	-0.14722
62.000	-0.09094	-0.36008	0.15421	-0.17109
63.000	-0.08303	-0.38197	0.15025	-0.13528
64.000	-0.08303	-0.42175	0.12653	-0.13130
65.000	-0.10280	-0.35809	0.16804	-0.20889
66.000	-0.10083	-0.36804	0.13246	-0.20889
67.000	-0.08106	-0.38992	0.13444	-0.25266
68.000	-0.07117	-0.42573	0.20956	-0.18502
69.000	-0.08501	-0.42573	0.11467	-0.21486
70.000	-0.11664	-0.38395	0.10874	-0.19496
71.000	-0.07908	-0.41976	0.12653	-0.20292
72.000	-0.08501	-0.42175	0.14037	-0.19297
73.000	-0.10280	-0.41777	0.17200	-0.21486
74.000	-0.09490	-0.41578	0.13444	-0.23873
75.000	-0.07315	-0.41777	0.13246	-0.18502
76.000	-0.05931	-0.41181	0.15025	-0.26061
77.000	-0.12060	-0.46751	0.12257	-0.14921
78.000	-0.09094	-0.38594	0.15816	-0.22878
79.000	-0.11664	-0.38793	0.16607	-0.18303
80.000	-0.10874	-0.37003	0.17398	-0.18899
81.000	-0.08303	-0.41777	0.13246	-0.13329
82.000	-0.09094	-0.36406	0.18781	-0.20093
83.000	-0.07315	-0.38197	0.13444	-0.14125
84.000	-0.09490	-0.40186	0.12850	-0.18303
85.000	-0.05733	-0.38992	0.09885	-0.20093
86.000	-0.07908	-0.37600	0.15025	-0.15915
87.000	-0.10676	-0.36804	0.16607	-0.19695
88.000	-0.06722	-0.38197	0.18584	-0.21088
89.000	-0.06920	-0.40186	0.07908	-0.17905
90.000	-0.05140	-0.41578	0.19968	-0.18701
91.000	-0.08501	-0.42772	0.11071	-0.17109
92.000	-0.11269	-0.42573	0.25305	-0.12533
93.000	-0.09687	-0.40783	0.11071	-0.19496
94.000	-0.10478	-0.39987	0.18584	-0.13727
95.000	-0.06920	-0.38197	0.13839	-0.13926
96.000	-0.07117	-0.39589	0.09292	-0.19098
97.000	-0.07315	-0.35809	0.17595	-0.18701
98.000	-0.07117	-0.42573	0.20561	-0.14523
99.000	-0.08501	-0.41380	0.18781	-0.18899
100.000	-0.14037	-0.42573	0.19375	-0.15716
101.000	-0.10676	-0.41379	0.13444	-0.11937
102.000	-0.07315	-0.42175	0.17002	-0.10942
103.000	-0.09687	-0.48143	0.12455	-0.06167
104.000	-0.07117	-0.38992	0.06524	-0.10345
105.000	-0.08501	-0.38197	0.14432	-0.15120
106.000	-0.10280	-0.41976	0.15421	-0.13926
107.000	-0.10676	-0.37003	0.15816	-0.11539
108.000	-0.10083	-0.41976	0.13641	-0.10942
109.000	-0.11664	-0.36207	0.16211	-0.04775
110.000	-0.07908	-0.41181	0.12850	-0.18900
111.000	-0.08501	-0.39589	0.10676	-0.13329
112.000	-0.11664	-0.34815	0.12850	-0.12533
113.000	-0.08501	-0.40385	0.13246	-0.19297
114.000	-0.08501	-0.35610	0.20758	-0.09748
115.000	-0.08501	-0.37202	0.20363	-0.15716
116.000	-0.08897	-0.38197	0.17991	-0.12334
117.000	-0.10676	-0.38793	0.16211	-0.14324
118.000	-0.08699	-0.36406	0.14827	-0.12732
119.000	-0.11071	-0.35610	0.23131	-0.09549
120.000	-0.09885	-0.41578	0.17595	-0.12135
121.000	-0.11664	-0.40186	0.12060	-0.11141
122.000	-0.10874	-0.41777	0.15618	-0.16114
123.000	-0.06524	-0.37799	0.12850	-0.11340
124.000	-0.08106	-0.41181	0.17793	-0.15120
125.000	-0.10874	-0.39987	0.18584	-0.14921
126.000	-0.13839	-0.41976	0.15816	-0.05968
127.000	-0.07908	-0.36008	0.14037	-0.16313
128.000	-0.07513	-0.43369	0.16804	-0.09350
129.000	-0.11664	-0.41976	0.14630	-0.20292
130.000	-0.09094	-0.43767	0.17398	-0.15517
131.000	-0.10280	-0.40385	0.19968	-0.15120
132.000	-0.13048	-0.40186	0.15223	-0.17109
133.000	-0.12257	-0.44562	0.18781	-0.14324
134.000	-0.12455	-0.44562	0.18188	-0.10942
135.000	-0.05733	-0.35809	0.15421	-0.12732
136.000	-0.06129	-0.42573	0.16211	-0.15518
137.000	-0.07117	-0.40385	0.17398	-0.20491
138.000	-0.05140	-0.41578	0.12653	-0.12334
139.000	-0.10478	-0.41181	0.15618	-0.12931
140.000	-0.06129	-0.40186	0.21945	-0.18899
141.000	-0.06524	-0.41976	0.15816	-0.19098
142.000	-0.08106	-0.41181	0.15025	-0.20889
143.000	-0.06129	-0.34218	0.10083	-0.17109
144.000	-0.04349	-0.37202	0.12653	-0.14523
145.000	-0.07710	-0.41578	0.17991	-0.13926
146.000	-0.04745	-0.37799	0.21945	-0.18104
147.000	-0.07908	-0.39191	0.20956	-0.24470
148.000	-0.06920	-0.37998	0.11467	-0.10345
149.000	-0.11467	-0.36207	0.21154	-0.14324
150.000	-0.06129	-0.39390	0.14432	-0.11738
151.000	-0.08699	-0.41976	0.12060	-0.21486
152.000	-0.07908	-0.40783	0.17398	-0.17706
153.000	-0.08303	-0.40385	0.09885	-0.19098
154.000	-0.04943	-0.38992	0.21154	-0.21287
155.000	-0.06920	-0.40186	0.10676	-0.09947
156.000	-0.08699	-0.42374	0.14234	-0.10743
157.000	-0.08303	-0.35610	0.16804	-0.11539
158.000	-0.10874	-0.42573	0.20165	-0.13130
159.000	-0.10083	-0.38992	0.14037	-0.15518
160.000	-0.03559	-0.39191	0.12257	-0.09549
161.000	-0.06129	-0.41976	0.16014	-0.11141
162.000	-0.09687	-0.38396	0.14432	-0.14523
163.000	-0.06722	-0.40186	0.20363	-0.14722
164.000	-0.04152	-0.39390	0.22735	-0.10345
165.000	-0.09885	-0.41976	0.16409	-0.18104
166.000	-0.04547	-0.42573	0.19177	-0.22878
167.000	-0.08303	-0.47745	0.14432	-0.18502
168.000	-0.07315	-0.39589	0.14827	-0.16711
169.000	-0.04547	-0.37998	0.14827	-0.15518
170.000	-0.06326	-0.42374	0.16014	-0.20889
171.000	-0.06129	-0.43966	0.24712	-0.13329
172.000	-0.09490	-0.45756	0.16211	-0.20491
173.000	-0.04943	-0.42175	0.24317	-0.14523
174.000	-0.07315	-0.39788	0.13444	-0.13727
175.000	-0.05733	-0.43369	0.17398	-0.21287
176.000	-0.08501	-0.47149	0.16804	-0.16910
177.000	-0.08303	-0.42573	0.23526	-0.19695
178.000	-0.07710	-0.44364	0.26294	-0.17905
179.000	-0.06326	-0.40783	0.20758	-0.20889
180.000	-0.06524	-0.42971	0.12455	-0.13528
181.000	-0.04152	-0.42573	0.15025	-0.19496
182.000	-0.05931	-0.45159	0.19572	-0.13727
183.000	-0.10874	-0.44363	0.26294	-0.19695
184.000	-0.05931	-0.48740	0.20956	-0.17308
185.000	-0.04943	-0.45159	0.19375	-0.16910
186.000	-0.05733	-0.37998	0.15223	-0.12732
187.000	-0.06722	-0.43568	0.20165	-0.14523
188.000	-0.07710	-0.40186	0.21945	-0.18303
189.000	-0.05733	-0.43170	0.19177	-0.21088
190.000	-0.08303	-0.41976	0.18584	-0.13329
191.000	-0.02570	-0.40385	0.17002	-0.18502
192.000	-0.06722	-0.46154	0.23131	-0.28250
193.000	-0.03163	-0.44761	0.22340	-0.21287
194.000	-0.03756	-0.39788	0.26689	-0.12931
195.000	0.01186	-0.42772	0.15025	-0.19098
196.000	-0.05931	-0.45358	0.17991	-0.20889
197.000	-0.08106	-0.43369	0.21154	-0.15120
198.000	-0.05931	-0.41181	0.23329	-0.17308
199.000	-0.01779	-0.49337	0.15618	-0.25663
200.000	-0.03559	-0.41976	0.17991	-0.16512
201.000	-0.09490	-0.43966	0.20561	-0.21486
202.000	-0.09292	-0.40783	0.12257	-0.18900
203.000	-0.03559	-0.38396	0.24317	-0.19695
204.000	-0.03954	-0.42971	0.20561	-0.16711
205.000	-0.03559	-0.43966	0.23329	-0.17109
206.000	-0.02966	-0.40982	0.19375	-0.17905
207.000	-0.01977	-0.44761	0.22735	-0.16313
208.000	-0.02372	-0.45955	0.16014	-0.24271
209.000	-0.04943	-0.44960	0.14827	-0.20093
210.000	-0.07710	-0.48143	0.22340	-0.20292
211.000	-0.04152	-0.49536	0.20758	-0.22082
212.000	-0.09094	-0.45955	0.20758	-0.15517
213.000	-0.04745	-0.44960	0.21549	-0.17706
214.000	-0.04745	-0.52917	0.23329	-0.25067
215.000	-0.07315	-0.47745	0.28073	-0.19695
216.000	-0.03559	-0.47348	0.15618	-0.24271
217.000	-0.00989	-0.47348	0.19177	-0.25464
218.000	-0.05536	-0.42374	0.21549	-0.27056
219.000	-0.04152	-0.43568	0.20956	-0.24271
220.000	-0.03163	-0.44562	0.18386	-0.23077
221.000	0.00198	-0.45756	0.18188	-0.16711
222.000	-0.04349	-0.46552	0.13246	-0.23674
223.000	0.00791	-0.43966	0.21747	-0.20491
224.000	-0.02570	-0.45358	0.20561	-0.22878
225.000	-0.02768	-0.44960	0.15025	-0.16910
226.000	-0.02570	-0.47546	0.13839	-0.25067
227.000	-0.04152	-0.51127	0.16607	-0.20292
228.000	-0.01582	-0.51724	0.18781	-0.19695
229.000	-0.06920	-0.46950	0.18979	-0.27056
230.000	-0.02768	-0.49536	0.18188	-0.24271
231.000	-0.00198	-0.49138	0.23724	-0.23077
232.000	-0.03756	-0.45955	0.21352	-0.19894
233.000	-0.00395	-0.47745	0.22142	-0.26857
234.000	-0.04152	-0.49536	0.22933	-0.16313
235.000	0.00198	-0.47546	0.20165	-0.21287
236.000	0.01384	-0.43966	0.22142	-0.31234
237.000	-0.02372	-0.45557	0.19572	-0.21088
238.000	-0.02175	-0.45358	0.24910	-0.24669
239.000	-0.03163	-0.50729	0.21549	-0.22480
240.000	0.01977	-0.41976	0.17398	-0.25663
241.000	0.02372	-0.49735	0.19572	-0.25862
242.000	-0.01582	-0.46552	0.23329	-0.19894
243.000	-0.00198	-0.46353	0.27085	-0.24271
244.000	0.01186	-0.42573	0.18979	-0.20889
245.000	0.00395	-0.44562	0.22538	-0.25862
246.000	0.02966	-0.45756	0.19177	-0.22878
247.000	0.00989	-0.41578	0.17793	-0.21884
248.000	0.02372	-0.44165	0.25899	-0.29642
249.000	0.03361	-0.45358	0.22142	-0.26260
250.000	0.01779	-0.41777	0.23131	-0.25265
251.000	0.02175	-0.44562	0.19572	-0.25464
252.000	0.02175	-0.44364	0.22735	-0.18700
253.000	0.03361	-0.46751	0.20956	-0.23873
254.000	0.04152	-0.44562	0.19968	-0.24470
255.000	0.04745	-0.41777	0.17595	-0.25067
256.000	0.03954	-0.46950	0.22340	-0.31035
257.000	0.00791	-0.44364	0.19375	-0.29045
258.000	0.05733	-0.42971	0.16409	-0.19098
259.000	0.03756	-0.43369	0.24317	-0.31234
260.000	0.05140	-0.42971	0.12850	-0.24470
261.000	0.05338	-0.41380	0.18188	-0.30438
262.000	0.08106	-0.43369	0.24317	-0.25067
263.000	0.06524	-0.46353	0.17398	-0.27056
264.000	0.05338	-0.47546	0.23724	-0.28250
265.000	0.04547	-0.43170	0.24317	-0.26260
266.000	0.04547	-0.51724	0.21945	-0.25067
267.000	0.04547	-0.42573	0.18386	-0.28648
268.000	0.02175	-0.46751	0.21154	-0.24271
269.000	0.02570	-0.45557	0.19770	-0.26459
270.000	-0.00395	-0.52520	0.21549	-0.31631
271.000	0.01582	-0.46950	0.21747	-0.24868
272.000	0.02175	-0.47149	0.16607	-0.26260
273.000	-0.00395	-0.48740	0.23329	-0.20491
274.000	0.00593	-0.49934	0.26492	-0.25862
275.000	0.02570	-0.45358	0.25503	-0.22480
276.000	0.02175	-0.43966	0.20956	-0.23674
277.000	0.01977	-0.46751	0.22142	-0.28448
278.000	0.02175	-0.47944	0.25305	-0.31830
279.000	0.02966	-0.47348	0.24515	-0.28051
280.000	0.04547	-0.48143	0.27282	-0.25663
281.000	0.01582	-0.47348	0.27480	-0.28051
282.000	0.04745	-0.45756	0.25108	-0.30438
283.000	0.00395	-0.46950	0.27678	-0.25663
284.000	0.07513	-0.49934	0.21747	-0.31234
285.000	0.04349	-0.45955	0.20758	-0.29443
286.000	-0.00395	-0.46751	0.23526	-0.32228
287.000	0.04745	-0.48740	0.20561	-0.29841
288.000	0.04349	-0.42573	0.27480	-0.32626
289.000	0.05140	-0.46154	0.28666	-0.33621
290.000	0.03954	-0.48939	0.19968	-0.24868
291.000	0.03954	-0.46154	0.17200	-0.27653
292.000	0.00395	-0.48143	0.21154	-0.32029
293.000	0.01384	-0.45557	0.20165	-0.32029
294.000	-0.00395	-0.47745	0.19770	-0.29443
295.000	0.05733	-0.45557	0.17991	-0.35013
296.000	0.01977	-0.46353	0.22538	-0.24470
297.000	0.02372	-0.45159	0.29457	-0.29841
298.000	0.04547	-0.47546	0.17200	-0.34616
299.000	0.04349	-0.49138	0.24317	-0.30438
300.000	0.06524	-0.45557	0.19968	-0.28051
301.000	0.03361	-0.47149	0.22933	-0.33422
302.000	0.02372	-0.48740	0.24910	-0.29642
303.000	0.02570	-0.46950	0.19968	-0.26459
304.000	0.03163	-0.45756	0.27282	-0.31233
305.000	0.01582	-0.50729	0.17595	-0.35212
306.000	0.01384	-0.45955	0.13246	-0.36804
307.000	0.00000	-0.45358	0.20956	-0.37401
308.000	0.01977	-0.46353	0.16607	-0.30040
309.000	0.01779	-0.48740	0.19177	-0.25266
310.000	-0.00395	-0.47546	0.20758	-0.28846
311.000	0.05733	-0.47347	0.18386	-0.25067
312.000	0.05931	-0.47944	0.21352	-0.30438
313.000	0.05140	-0.52321	0.19177	-0.31433
314.000	0.04745	-0.47149	0.26096	-0.32029
315.000	0.01779	-0.48740	0.24712	-0.20491
316.000	0.02372	-0.51326	0.21945	-0.23674
317.000	0.01186	-0.47546	0.24119	-0.28448
318.000	0.00198	-0.51923	0.17595	-0.34616
319.000	0.02768	-0.48342	0.20758	-0.34019
320.000	0.05140	-0.44761	0.22538	-0.27454
321.000	0.00791	-0.49138	0.17991	-0.30836
322.000	0.04943	-0.49934	0.28864	-0.22082
323.000	0.02570	-0.49337	0.26492	-0.26459
324.000	0.00791	-0.48939	0.24119	-0.33621
325.000	0.01779	-0.50928	0.22142	-0.28448
326.000	0.01186	-0.50331	0.22538	-0.32427
327.000	0.06326	-0.46154	0.17200	-0.28250
328.000	0.02570	-0.50729	0.23526	-0.25862
329.000	0.02175	-0.47348	0.21549	-0.28250
330.000	-0.01779	-0.50331	0.17398	-0.27653
331.000	-0.00791	-0.45557	0.22142	-0.29443
332.000	-0.00395	-0.45955	0.28073	-0.32029
333.000	0.01186	-0.45955	0.22735	-0.34417
334.000	0.01582	-0.46552	0.26294	-0.32825
335.000	0.00198	-0.44165	0.28864	-0.28050
336.000	0.02570	-0.48740	0.21549	-0.26061
337.000	0.01779	-0.49536	0.26887	-0.34416
338.000	0.01977	-0.50331	0.24910	-0.33024
339.000	-0.02175	-0.51127	0.24119	-0.34417
340.000	0.02175	-0.49536	0.28469	-0.29443
341.000	-0.00395	-0.48342	0.31632	-0.28249
342.000	0.00791	-0.49536	0.18979	-0.29244
343.000	-0.00791	-0.46552	0.16409	-0.33820
344.000	0.00198	-0.49337	0.22340	-0.32626
345.000	0.02570	-0.45756	0.25899	-0.33024
346.000	-0.02570	-0.47348	0.18188	-0.23873
347.000	0.03559	-0.45358	0.18386	-0.26658
348.000	0.00989	-0.46552	0.20956	-0.26260
349.000	-0.00791	-0.43369	0.23922	-0.28846
350.000	0.02372	-0.45955	0.25701	-0.34416
351.000	-0.03361	-0.49536	0.19968	-0.33024
352.000	-0.00395	-0.44562	0.17200	-0.32626
353.000	-0.02175	-0.48740	0.19177	-0.27454
354.000	0.02372	-0.43767	0.21352	-0.31433
355.000	-0.00395	-0.46751	0.19968	-0.29443
356.000	-0.02570	-0.48143	0.18584	-0.28250
357.000	-0.00593	-0.49138	0.20561	-0.27255
358.000	0.00198	-0.43568	0.20758	-0.31035
359.000	0.00395	-0.49536	0.14234	-0.34417
360.000	0.01977	-0.49337	0.17595	-0.31234
361.000	-0.00198	-0.47745	0.17002	-0.30040
362.000	-0.00593	-0.50133	0.14630	-0.29841
363.000	-0.01582	-0.49934	0.28469	-0.30836
364.000	0.01384	-0.47149	0.12850	-0.34815
365.000	0.01779	-0.51724	0.22933	-0.21486
366.000	0.03756	-0.47546	0.23526	-0.26857
367.000	0.04152	-0.46552	0.23526	-0.32626
368.000	0.00198	-0.49536	0.19770	-0.28250
369.000	0.03954	-0.50928	0.20956	-0.31234
370.000	0.00593	-0.46552	0.29457	-0.30637
371.000	0.00989	-0.44364	0.24910	-0.28448
372.000	-0.01779	-0.45557	0.22735	-0.25862
373.000	-0.00198	-0.47944	0.15025	-0.26260
374.000	0.00791	-0.48143	0.14234	-0.34616
375.000	0.02175	-0.47149	0.24317	-0.29841
376.000	0.01977	-0.48143	0.24910	-0.27653
377.000	0.02175	-0.50928	0.21747	-0.25464
378.000	0.01977	-0.46950	0.23526	-0.26260
379.000	0.01779	-0.43966	0.19968	-0.28449
380.000	0.01186	-0.50331	0.25108	-0.29841
381.000	0.01186	-0.47348	0.28864	-0.22878
382.000	0.00989	-0.47546	0.21154	-0.28051
383.000	-0.00593	-0.46950	0.24712	-0.26459
384.000	0.02175	-0.45557	0.18188	-0.31234
385.000	0.02175	-0.45955	0.26492	-0.29045
386.000	0.00000	-0.48143	0.24515	-0.32228
387.000	0.05140	-0.48939	0.24119	-0.34814
388.000	-0.00791	-0.52918	0.21154	-0.37401
389.000	0.01384	-0.51127	0.18584	-0.29045
390.000	-0.00791	-0.50928	0.20758	-0.39987
391.000	0.03756	-0.49536	0.12455	-0.33223
392.000	0.01186	-0.50331	0.16014	-0.31234
393.000	-0.02570	-0.48939	0.18584	-0.29244
394.000	0.04152	-0.47546	0.22340	-0.35212
395.000	0.02768	-0.48740	0.30643	-0.36207
396.000	0.02966	-0.44364	0.17595	-0.32029
397.000	0.02768	-0.47546	0.23526	-0.31631
398.000	0.01582	-0.47149	0.21549	-0.29841
399.000	0.01186	-0.49337	0.18979	-0.30239
400.000	0.01384	-0.45557	0.26492	-0.29244
401.000	0.02175	-0.43170	0.22735	-0.27653
402.000	-0.00989	-0.47944	0.24119	-0.38395
403.000	-0.01977	-0.50729	0.08897	-0.34616
404.000	0.00395	-0.50729	0.19572	-0.32228
405.000	-0.01186	-0.50331	0.22735	-0.30836
406.000	0.02768	-0.48740	0.20561	-0.31830
407.000	0.03954	-0.50530	0.19770	-0.35212
408.000	0.07117	-0.44562	0.18979	-0.28051
409.000	-0.03361	-0.41976	0.24317	-0.35411
410.000	0.05536	-0.49138	0.22340	-0.34019
411.000	0.00791	-0.44364	0.19572	-0.33223
412.000	0.00395	-0.48541	0.21747	-0.42971
413.000	-0.02175	-0.51127	0.20758	-0.29642
414.000	-0.00989	-0.48342	0.20363	-0.32626
415.000	-0.01779	-0.47149	0.16409	-0.32228
416.000	0.00791	-0.47944	0.14037	-0.32228
417.000	-0.02175	-0.52719	0.18584	-0.33621
418.000	0.01977	-0.47546	0.13444	-0.36406
419.000	0.01186	-0.51525	0.25108	-0.34218
420.000	0.00989	-0.45955	0.19177	-0.35809
421.000	0.00989	-0.48143	0.19968	-0.33024
422.000	0.01582	-0.49138	0.26294	-0.34416
423.000	0.01582	-0.45955	0.23526	-0.28250
424.000	0.01779	-0.47745	0.19572	-0.32029
425.000	0.00989	-0.47348	0.18781	-0.36605
426.000	0.02966	-0.45955	0.20758	-0.33223
427.000	0.02570	-0.46353	0.24317	-0.34019
428.000	0.05338	-0.47546	0.22538	-0.28647
429.000	0.09490	-0.44562	0.18584	-0.37600
430.000	0.05931	-0.45756	0.19572	-0.37997
431.000	0.06524	-0.45358	0.16409	-0.35411
432.000	0.02372	-0.44761	0.21747	-0.31234
433.000	0.06129	-0.44761	0.23526	-0.32228
434.000	0.03361	-0.43170	0.19375	-0.32825
435.000	0.04349	-0.44364	0.17398	-0.34616
436.000	0.06326	-0.41777	0.21352	-0.34218
437.000	0.01186	-0.41976	0.19177	-0.32825
438.000	0.04349	-0.45557	0.20561	-0.35411
439.000	0.04943	-0.43170	0.21945	-0.35411
440.000	0.04745	-0.46154	0.20758	-0.26857
441.000	0.01977	-0.43767	0.22340	-0.35411
442.000	0.03361	-0.45159	0.16804	-0.38395
443.000	0.05338	-0.44960	0.16409	-0.33820
444.000	0.00198	-0.44165	0.24119	-0.28250
445.000	0.07513	-0.42175	0.13641	-0.34815
446.000	0.02768	-0.49138	0.13641	-0.30239
447.000	0.02966	-0.41777	0.17200	-0.36804
448.000	0.04349	-0.44562	0.12455	-0.33820
449.000	0.02175	-0.46751	0.13048	-0.34417
450.000	0.03559	-0.40186	0.17595	-0.31234
451.000	0.01384	-0.45955	0.16804	-0.26459
452.000	0.04349	-0.43568	0.26096	-0.34218
453.000	0.01582	-0.43369	0.11664	-0.34019
454.000	0.01186	-0.40982	0.18386	-0.35610
455.000	0.02966	-0.44364	0.25503	-0.29841
456.000	0.06722	-0.45955	0.19770	-0.35212
457.000	0.01384	-0.45557	0.13839	-0.28648
458.000	0.04152	-0.45557	0.23526	-0.36008
459.000	0.10478	-0.41379	0.15421	-0.34616
460.000	0.07315	-0.38197	0.17991	-0.32228
461.000	0.06129	-0.41181	0.16211	-0.36406
462.000	0.06722	-0.48342	0.16804	-0.35212
463.000	0.03756	-0.42573	0.18979	-0.32626
464.000	0.07513	-0.42772	0.18584	-0.39987
465.000	0.05931	-0.47347	0.22142	-0.30438
466.000	0.06129	-0.44960	0.18188	-0.37003
467.000	0.08897	-0.44165	0.21352	-0.29443
468.000	0.02372	-0.42573	0.25108	-0.30836
469.000	0.03361	-0.45955	0.15816	-0.33024
470.000	0.04152	-0.42175	0.15223	-0.40783
471.000	0.05733	-0.45358	0.12850	-0.33024
472.000	0.05338	-0.46751	0.18979	-0.33621
473.000	0.02372	-0.45159	0.12653	-0.36605
474.000	0.01779	-0.41976	0.23329	-0.30438
475.000	0.04745	-0.45159	0.13641	-0.35809
476.000	0.03361	-0.45955	0.12455	-0.41578
477.000	0.00395	-0.50729	0.11269	-0.30239
478.000	0.02570	-0.44960	0.13048	-0.32427
479.000	0.01384	-0.49735	0.17793	-0.35411
480.000	-0.02175	-0.47546	0.10280	-0.38594
481.000	0.00000	-0.46552	0.12455	-0.36406
482.000	-0.07117	-0.52321	0.12850	-0.38992
483.000	-0.05931	-0.53116	0.14630	-0.45955
484.000	-0.05733	-0.50928	0.05931	-0.42374
485.000	-0.09687	-0.51525	0.10874	-0.42175
486.000	-0.13641	-0.55503	0.09885	-0.47347
487.000	-0.09094	-0.51525	0.06129	-0.51525
488.000	-0.14630	-0.59084	0.09292	-0.52321
489.000	-0.09094	-0.58885	0.04943	-0.49536
490.000	-0.14234	-0.56896	0.02175	-0.54111
491.000	-0.13641	-0.59681	0.06722	-0.51127
492.000	-0.13839	-0.60675	0.06722	-0.51326
493.000	-0.12455	-0.60675	0.05140	-0.56498
494.000	-0.08699	-0.58686	0.09885	-0.53912
495.000	-0.08897	-0.59084	0.09292	-0.46950
496.000	-0.09490	-0.60675	0.12653	-0.49933
497.000	-0.04745	-0.61272	0.09094	-0.53713
498.000	-0.06920	-0.58686	0.16607	-0.53315
499.000	-0.02175	-0.60278	0.07908	-0.44165
500.000	-0.01186	-0.59084	0.14432	-0.46950
501.000	-0.02570	-0.50928	0.06326	-0.48143
502.000	-0.01384	-0.56896	0.13246	-0.51326
503.000	-0.04547	-0.56498	0.02372	-0.41181
504.000	0.00198	-0.51923	0.12455	-0.53912
505.000	-0.02570	-0.53713	0.09687	-0.44562
506.000	-0.01186	-0.53912	0.15421	-0.53713
507.000	0.02570	-0.51724	0.15223	-0.40982
508.000	-0.01977	-0.53713	0.08106	-0.48939
509.000	-0.03559	-0.48342	0.09292	-0.46552
510.000	-0.03559	-0.54310	0.09292	-0.40186
511.000	-0.05338	-0.53514	0.09292	-0.48143
512.000	-0.13641	-0.56896	0.12653	-0.41379
513.000	-0.05733	-0.55305	0.05536	-0.38594
514.000	-0.05140	-0.52917	0.06722	-0.50331
515.000	-0.09687	-0.53713	0.07908	-0.46552
516.000	-0.07117	-0.49536	0.03163	-0.41976
517.000	-0.06326	-0.52917	0.05733	-0.49536
518.000	-0.07117	-0.54708	0.12455	-0.44761
519.000	-0.08501	-0.50729	0.05338	-0.37600
520.000	-0.07117	-0.52321	0.05140	-0.44562
521.000	-0.07513	-0.55305	0.11467	-0.46353
522.000	-0.07908	-0.50729	0.11269	-0.43568
523.000	-0.08303	-0.51525	0.07315	-0.42772
524.000	-0.08106	-0.52122	0.06524	-0.45756
525.000	-0.07117	-0.53315	0.05536	-0.48541
526.000	-0.06129	-0.51326	0.06722	-0.43568
527.000	-0.04547	-0.53713	0.06129	-0.43767
528.000	-0.08106	-0.52719	0.06129	-0.46154
529.000	-0.05931	-0.51127	0.01779	-0.45159
530.000	-0.06722	-0.54509	0.01384	-0.44562
531.000	-0.01186	-0.52918	0.02966	-0.43170
532.000	-0.06920	-0.51127	0.05140	-0.38594
533.000	-0.09292	-0.50132	0.07710	-0.41578
534.000	-0.06920	-0.48740	0.00395	-0.45557
535.000	-0.05140	-0.49337	0.07710	-0.48541
536.000	-0.08303	-0.46154	0.15816	-0.46154
537.000	-0.08699	-0.47944	0.13444	-0.46154
538.000	-0.06920	-0.50530	0.05536	-0.47546
539.000	-0.05536	-0.51923	0.09687	-0.47347
540.000	-0.09094	-0.50530	0.05733	-0.37202
541.000	-0.08897	-0.49934	0.11467	-0.41976
542.000	-0.09292	-0.52520	0.13839	-0.54509
543.000	-0.09687	-0.49934	0.16607	-0.46552
544.000	-0.11467	-0.56299	0.12455	-0.46552
545.000	-0.09094	-0.52122	0.07513	-0.45756
546.000	-0.05931	-0.47546	0.05536	-0.43170
547.000	-0.09292	-0.50729	0.05536	-0.44960
548.000	-0.07117	-0.46950	0.09885	-0.44165
549.000	-0.11467	-0.50530	0.10676	-0.43966
550.000	-0.07908	-0.50928	0.06326	-0.45159
551.000	-0.13048	-0.51525	0.09885	-0.50729
552.000	-0.05536	-0.50530	0.13048	-0.48740
553.000	-0.09490	-0.50331	0.12455	-0.45756
554.000	-0.12455	-0.49933	0.11467	-0.47546
555.000	-0.07908	-0.49337	0.12060	-0.49337
556.000	-0.11269	-0.51923	0.12455	-0.46950
557.000	-0.12653	-0.43170	0.13641	-0.43568
558.000	-0.09490	-0.46552	0.06920	-0.43170
559.000	-0.10676	-0.51923	0.16409	-0.47944
560.000	-0.09094	-0.48740	0.11664	-0.47745
561.000	-0.08699	-0.46353	0.07908	-0.49337
562.000	-0.10280	-0.46552	0.16409	-0.48143
563.000	-0.11862	-0.49337	0.03756	-0.45159
564.000	-0.11664	-0.51923	0.05140	-0.42573
565.000	-0.11269	-0.45358	0.03954	-0.41976
566.000	-0.13839	-0.48143	0.10874	-0.40186
567.000	-0.18188	-0.49933	0.02175	-0.45557
568.000	-0.15025	-0.47546	0.08303	-0.37600
569.000	-0.13246	-0.48342	0.06722	-0.42374
570.000	-0.14037	-0.47745	0.13839	-0.45955
571.000	-0.11862	-0.49138	-0.02175	-0.37202
572.000	-0.11467	-0.48143	0.03954	-0.46154
573.000	-0.11862	-0.50729	0.08501	-0.49735
574.000	-0.13246	-0.48939	0.08699	-0.42374
575.000	-0.12257	-0.45955	0.10874	-0.42573
576.000	-0.09490	-0.50331	0.04745	-0.41777
577.000	-0.11467	-0.47546	0.06326	-0.41777
578.000	-0.04152	-0.50331	0.15025	-0.46552
579.000	-0.08897	-0.51724	0.06920	-0.47944
580.000	-0.16211	-0.46949	0.14827	-0.42971
581.000	-0.10676	-0.46751	0.10478	-0.38197
582.000	-0.10874	-0.55503	0.16607	-0.44761
583.000	-0.11071	-0.44960	0.17398	-0.47148
584.000	-0.10478	-0.50331	0.05536	-0.45955
585.000	-0.08699	-0.52719	0.03361	-0.43369
586.000	-0.09292	-0.54708	0.11664	-0.45358
587.000	-0.11467	-0.53116	0.14630	-0.37600
588.000	-0.07117	-0.48342	0.09885	-0.45557
589.000	-0.09094	-0.50331	0.03163	-0.45557
590.000	-0.08106	-0.52321	0.04547	-0.46751
591.000	-0.11467	-0.47347	0.08501	-0.47149
592.000	-0.09094	-0.49536	0.09490	-0.51326
593.000	-0.14037	-0.52122	0.10676	-0.52917
594.000	-0.05140	-0.47745	0.05536	-0.47745
595.000	-0.02966	-0.50331	0.11269	-0.49536
596.000	-0.05733	-0.48143	0.13444	-0.51326
597.000	-0.07710	-0.53912	0.11269	-0.56299
598.000	-0.10478	-0.49735	0.05733	-0.40584
599.000	-0.05931	-0.44960	0.05931	-0.53116
600.000	-0.11467	-0.45557	0.13048	-0.49536
601.000	-0.11862	-0.47546	0.15421	-0.45756
602.000	-0.09687	-0.51127	0.12850	-0.55901
603.000	-0.05338	-0.48143	0.14037	-0.50530
604.000	-0.11071	-0.51724	0.02175	-0.49337
605.000	-0.11664	-0.49536	0.09292	-0.44363
606.000	-0.09885	-0.49735	0.16607	-0.47745
607.000	-0.07117	-0.50331	0.13246	-0.45557
608.000	-0.08106	-0.50132	0.00198	-0.42573
609.000	-0.06326	-0.49934	0.08106	-0.41777
610.000	-0.08303	-0.52122	0.03559	-0.50530
611.000	-0.12257	-0.47546	0.06129	-0.47546
612.000	-0.10676	-0.49337	0.09490	-0.46950
613.000	-0.05140	-0.50928	0.11862	-0.45159
614.000	-0.09292	-0.49138	0.12257	-0.43767
615.000	-0.09094	-0.51923	0.11269	-0.38197
616.000	-0.08106	-0.51525	0.04152	-0.40584
617.000	-0.05931	-0.49735	0.01186	-0.44761
618.000	-0.05536	-0.47944	0.07117	-0.38793
619.000	-0.06524	-0.53116	0.09094	-0.40982
620.000	-0.11071	-0.50928	0.03756	-0.37401
621.000	-0.07117	-0.46950	0.15223	-0.39987
622.000	-0.04547	-0.47745	0.10280	-0.47347
623.000	-0.05931	-0.49337	0.09094	-0.46154
624.000	-0.10478	-0.52321	0.12850	-0.39788
625.000	-0.06920	-0.46353	0.10478	-0.45159
626.000	-0.08106	-0.48740	0.11467	-0.37003
627.000	-0.08303	-0.46751	0.07117	-0.39589
628.000	-0.05931	-0.49536	0.14630	-0.40982
629.000	-0.09885	-0.48143	0.09885	-0.38992
630.000	-0.11071	-0.45557	0.07710	-0.40584
631.000	-0.12850	-0.44960	0.11071	-0.41976
632.000	-0.06524	-0.44761	0.05536	-0.41181
633.000	-0.07117	-0.44960	0.09292	-0.46552
634.000	-0.08303	-0.49138	0.09885	-0.40385
635.000	-0.08897	-0.46154	0.07315	-0.35411
636.000	-0.11467	-0.47944	0.13839	-0.48342
637.000	-0.06326	-0.46552	0.06129	-0.38594
638.000	-0.09094	-0.52321	0.10478	-0.42374
639.000	-0.15816	-0.44363	0.15025	-0.43568
640.000	-0.11269	-0.49536	0.06920	-0.38992
641.000	-0.11664	-0.48939	0.17595	-0.43568
642.000	-0.13048	-0.49735	0.09094	-0.35014
643.000	-0.08897	-0.46353	0.08897	-0.30239
644.000	-0.12257	-0.45955	0.11467	-0.39191
645.000	-0.13839	-0.43767	0.07315	-0.36605
646.000	-0.11071	-0.46154	0.06326	-0.40584
647.000	-0.13839	-0.44761	0.08897	-0.41777
648.000	-0.17200	-0.50132	0.08106	-0.40584
649.000	-0.14432	-0.46552	0.04547	-0.37998
650.000	-0.09094	-0.49934	0.08897	-0.41976
651.000	-0.12850	-0.48541	0.07908	-0.39987
652.000	-0.12653	-0.49933	0.06129	-0.39987
653.000	-0.12257	-0.48143	0.09094	-0.39788
654.000	-0.15223	-0.48939	0.15816	-0.42971
655.000	-0.15223	-0.42573	0.10083	-0.46751
656.000	-0.12653	-0.47745	0.09490	-0.41777
657.000	-0.13246	-0.45955	0.10874	-0.40385
658.000	-0.12653	-0.47944	0.10676	-0.42175
659.000	-0.13839	-0.44164	0.08501	-0.39987
660.000	-0.09094	-0.44363	0.11269	-0.31632
661.000	-0.11862	-0.44960	0.06920	-0.35809
662.000	-0.12060	-0.47148	0.04547	-0.39589
663.000	-0.10280	-0.45358	0.07315	-0.38992
664.000	-0.15223	-0.44960	0.07908	-0.43369
665.000	-0.10083	-0.41181	0.01186	-0.44960
666.000	-0.12455	-0.46751	0.11071	-0.41578
667.000	-0.11467	-0.43966	0.13246	-0.43966
668.000	-0.10874	-0.46353	0.06326	-0.38197
669.000	-0.14432	-0.44761	0.16607	-0.43170
670.000	-0.12653	-0.45557	0.08501	-0.43767
671.000	-0.12653	-0.45955	0.05536	-0.40783
672.000	-0.12257	-0.46552	0.11467	-0.41379
673.000	-0.12850	-0.46950	0.12850	-0.47546
674.000	-0.10676	-0.43966	0.12257	-0.41379
675.000	-0.13641	-0.50331	0.14234	-0.38594
676.000	-0.14827	-0.44761	0.07315	-0.47745
677.000	-0.12060	-0.44960	0.09094	-0.40186
678.000	-0.16804	-0.40783	0.08303	-0.40385
679.000	-0.12257	-0.42175	0.09687	-0.41976
680.000	-0.14432	-0.44761	0.10083	-0.43568
681.000	-0.12455	-0.45955	0.09885	-0.36605
682.000	-0.12455	-0.43966	0.11664	-0.41379
683.000	-0.16211	-0.43369	0.06326	-0.35213
684.000	-0.10874	-0.44165	0.08699	-0.42374
685.000	-0.15618	-0.41976	0.00791	-0.33024
686.000	-0.14234	-0.47546	0.10083	-0.45557
687.000	-0.16014	-0.48939	0.09885	-0.45955
688.000	-0.14234	-0.48939	0.07513	-0.37003
689.000	-0.12850	-0.44363	0.03361	-0.39987
690.000	-0.13246	-0.44165	0.05338	-0.43568
691.000	-0.14037	-0.43767	0.06722	-0.39589
692.000	-0.13641	-0.48143	0.04152	-0.40385
693.000	-0.08501	-0.42573	0.16409	-0.42374
694.000	-0.10478	-0.43369	0.10083	-0.42971
695.000	-0.12257	-0.42772	0.08501	-0.41181
696.000	-0.08303	-0.44364	0.12455	-0.32427
697.000	-0.12653	-0.46353	0.12060	-0.37998
698.000	-0.10478	-0.43170	0.02966	-0.35213
699.000	-0.14432	-0.43170	0.13048	-0.40186
700.000	-0.08106	-0.42175	0.11467	-0.44761
701.000	-0.12455	-0.44562	0.06722	-0.42374
702.000	-0.14432	-0.44761	0.10676	-0.40982
703.000	-0.10083	-0.41777	0.10083	-0.42573
704.000	-0.09885	-0.42374	0.01779	-0.37003
705.000	-0.14037	-0.41181	0.05733	-0.34218
706.000	-0.13444	-0.42573	0.05140	-0.40584
707.000	-0.10676	-0.40783	0.03559	-0.39788
708.000	-0.11467	-0.43966	0.09094	-0.38793
709.000	-0.12455	-0.47546	0.11862	-0.31234
710.000	-0.10676	-0.41976	0.09687	-0.36804
711.000	-0.11467	-0.40385	0.08303	-0.31234
712.000	-0.17793	-0.44562	0.10874	-0.29045
713.000	-0.14432	-0.40982	0.09094	-0.34218
714.000	-0.09094	-0.42573	0.02966	-0.33223
715.000	-0.16211	-0.45358	0.13444	-0.32228
716.000	-0.11269	-0.42772	0.11269	-0.29642
717.000	-0.11862	-0.43966	0.11071	-0.39987
718.000	-0.17793	-0.43568	0.08501	-0.39987
719.000	-0.14630	-0.46950	0.06129	-0.29841
720.000	-0.11467	-0.47546	0.05931	-0.39191
721.000	-0.12455	-0.45159	0.05140	-0.37202
722.000	-0.12060	-0.45159	0.09885	-0.34218
723.000	-0.13246	-0.47347	0.08699	-0.41181
724.000	-0.15618	-0.45756	0.08699	-0.30040
725.000	-0.13839	-0.43170	0.05733	-0.32626
726.000	-0.10478	-0.41578	0.05733	-0.29046
727.000	-0.13048	-0.43966	0.10280	-0.37799
728.000	-0.16014	-0.39987	0.03756	-0.35610
729.000	-0.16211	-0.41777	0.08106	-0.37003
730.000	-0.11664	-0.42175	0.06722	-0.37799
731.000	-0.06326	-0.40982	0.08699	-0.36605
732.000	-0.11862	-0.42175	0.08106	-0.38793
733.000	-0.14432	-0.42374	0.14234	-0.33024
734.000	-0.13444	-0.40982	0.00989	-0.33820
735.000	-0.13246	-0.41578	0.05338	-0.32030
736.000	-0.05931	-0.42374	0.07315	-0.35610
737.000	-0.11467	-0.42175	0.04745	-0.38396
738.000	-0.10478	-0.40385	0.07908	-0.30040
739.000	-0.14037	-0.37600	0.01582	-0.32626
740.000	-0.13048	-0.40385	0.06326	-0.34815
741.000	-0.11862	-0.41777	0.08303	-0.37799
742.000	-0.12257	-0.39788	0.07908	-0.34815
743.000	-0.08897	-0.44364	0.10083	-0.40385
744.000	-0.14827	-0.50530	0.01384	-0.46950
745.000	-0.14630	-0.60675	0.13246	-0.58288
746.000	-0.15421	-0.71616	0.07513	-0.66245
747.000	-0.13444	-0.83351	0.14630	-0.81362
748.000	-0.15025	-0.94290	0.21549	-0.98467
749.000	-0.12060	-1.15371	0.16211	-1.11394
750.000	-0.10280	-1.34859	0.14234	-1.26706
751.000	-0.14630	-1.53348	0.16804	-1.40823
752.000	-0.20165	-1.77002	0.24119	-1.71437
753.000	-0.17398	-1.90716	0.20561	-1.83760
754.000	-0.17991	-2.04625	0.23724	-2.05220
755.000	-0.20165	-2.16148	0.17200	-2.18731
756.000	-0.23526	-2.30052	0.21945	-2.34422
757.000	-0.24317	-2.37003	0.20956	-2.50905
758.000	-0.29062	-2.43357	0.16409	-2.49317
759.000	-0.29655	-2.50109	0.08303	-2.58451
760.000	-0.26887	-2.49911	0.05140	-2.60834
761.000	-0.31434	-2.50704	0.16211	-2.66193
762.000	-0.26689	-2.45344	0.09094	-2.57657
763.000	-0.24712	-2.45543	0.05338	-2.49516
764.000	-0.22538	-2.38593	0.09490	-2.45545
765.000	-0.21154	-2.30251	0.03756	-2.34622
766.000	-0.19375	-2.26080	-0.05536	-2.30054
767.000	-0.23131	-2.18929	-0.00593	-2.22307
768.000	-0.15025	-2.11778	0.07513	-2.20718
769.000	-0.13246	-2.03433	-0.01582	-2.15156
770.000	-0.13048	-2.04427	0.03163	-2.08798
771.000	-0.12257	-2.01645	0.12850	-2.08599
772.000	-0.08897	-2.01049	0.09687	-2.05420
773.000	-0.05338	-1.97274	0.05536	-2.00851
774.000	-0.07710	-1.94889	0.16607	-2.02241
775.000	-0.09885	-1.90915	0.06920	-1.99062
776.000	-0.09885	-1.95883	0.10874	-1.97671
777.000	-0.07908	-1.90518	0.15223	-1.93498
778.000	-0.08699	-1.91511	0.07908	-1.87537
779.000	-0.12850	-1.94492	0.11467	-1.95088
780.000	-0.12257	-1.93697	0.14630	-1.89325
781.000	-0.17398	-1.94889	0.12060	-1.91710
782.000	-0.12850	-1.93101	0.03954	-1.97274
783.000	-0.11269	-1.91908	0.01582	-1.98268
784.000	-0.09885	-1.96479	0.08106	-2.02440
785.000	-0.13246	-1.95684	0.08106	-2.00453
786.000	-0.15816	-1.95088	0.10083	-2.03434
787.000	-0.15618	-1.96280	0.14234	-2.09990
788.000	-0.18979	-2.00254	0.12653	-2.01645
789.000	-0.13444	-2.02241	0.13641	-2.08202
790.000	-0.16409	-2.03036	0.11071	-2.08599
791.000	-0.15421	-2.07009	0.10083	-2.13566
792.000	-0.13246	-2.05222	0.09490	-2.17539
793.000	-0.09885	-2.04228	0.05140	-2.19924
794.000	-0.11071	-2.11182	0.07710	-2.16546
795.000	-0.12653	-2.07804	0.07117	-2.15950
796.000	-0.13246	-2.08997	0.12653	-2.16149
797.000	-0.09292	-2.10785	0.13246	-2.15950
798.000	-0.06920	-2.12176	0.08699	-2.14162
799.000	-0.08501	-2.12573	0.06129	-2.18930
800.000	-0.12455	-2.14162	0.06920	-2.26280
801.000	-0.10676	-2.10983	0.05140	-2.21115
802.000	-0.13048	-2.14559	0.09490	-2.17738
803.000	-0.12257	-2.16943	0.09094	-2.19725
804.000	-0.08106	-2.11381	0.03954	-2.21711
805.000	-0.08106	-2.12176	0.06129	-2.21711
806.000	-0.09490	-2.11977	0.08106	-2.18732
807.000	-0.09094	-2.09394	0.08106	-2.18136
808.000	-0.06129	-2.06613	0.02768	-2.23698
809.000	-0.03163	-2.08401	0.03361	-2.24691
810.000	-0.09292	-2.04626	0.03559	-2.20122
811.000	-0.06524	-2.08004	0.07513	-2.28266
812.000	-0.06129	-2.06414	0.04349	-2.17142
813.000	-0.05733	-2.03831	0.06722	-2.13964
814.000	-0.05140	-2.04030	0.06722	-2.20122
815.000	-0.10280	-2.07209	0.12653	-2.17539
816.000	-0.04547	-2.03036	0.05733	-2.21314
817.000	-0.04943	-2.06017	0.06722	-2.11580
818.000	-0.09687	-2.03831	0.06920	-2.18136
819.000	-0.07513	-2.02838	0.14432	-2.15751
820.000	-0.05338	-2.05421	0.09292	-2.20519
821.000	-0.03756	-2.01248	0.08501	-2.19327
822.000	-0.04547	-1.99659	0.10478	-2.23698
823.000	-0.05536	-2.02838	-0.00198	-2.23102
824.000	-0.09292	-2.06017	-0.03361	-2.19725
825.000	-0.06129	-1.99062	0.02768	-2.17738
826.000	-0.04745	-2.02043	-0.01384	-2.22307
827.000	-0.06722	-2.00652	0.09292	-2.15553
828.000	-0.07908	-2.01645	0.04745	-2.17937
829.000	-0.07908	-1.99062	0.01977	-2.23499
830.000	-0.04152	-2.01447	0.11269	-2.15751
831.000	-0.05338	-2.00056	-0.02768	-2.14163
832.000	0.00791	-1.98466	0.07315	-2.24294
833.000	-0.03361	-1.99857	-0.03361	-2.21711
834.000	-0.04943	-1.97075	0.05536	-2.17937
835.000	-0.00198	-2.00056	-0.02570	-2.18732
836.000	-0.03361	-2.01248	0.07513	-2.19327
837.000	-0.05338	-1.97274	-0.01977	-2.15951
838.000	-0.05140	-2.03036	-0.03163	-2.17937
839.000	-0.04152	-2.00453	0.00791	-2.21910
840.000	-0.06920	-2.02043	0.00395	-2.23102
841.000	-0.03361	-1.97274	-0.04152	-2.21910
842.000	-0.03559	-1.99460	0.07710	-2.21711
843.000	0.00198	-1.95684	0.04547	-2.23698
844.000	-0.00395	-1.95287	-0.07315	-2.15354
845.000	-0.03361	-1.99261	0.09094	-2.21314
846.000	-0.02372	-1.94095	-0.02570	-2.23102
847.000	-0.06326	-2.01645	-0.00395	-2.21513
848.000	0.00000	-1.99062	-0.01384	-2.20917
849.000	0.00791	-1.94890	-0.00593	-2.21116
850.000	-0.01779	-1.99062	0.00791	-2.26876
851.000	-0.01582	-1.94492	0.09687	-2.26280
852.000	-0.05536	-1.99659	0.05931	-2.19725
853.000	-0.07117	-1.96479	0.05536	-2.24294
854.000	0.02570	-1.97473	0.00198	-2.22903
855.000	0.00198	-2.03036	0.01186	-2.18334
856.000	-0.00395	-1.99460	0.00791	-2.26082
857.000	-0.03163	-2.00255	0.04152	-2.31643
858.000	-0.02175	-1.95684	0.05931	-2.25486
859.000	-0.01977	-1.96082	0.02570	-2.15553
860.000	-0.02570	-1.95287	0.03361	-2.30451
861.000	-0.02372	-1.99460	0.06129	-2.18136
862.000	-0.04943	-1.95883	0.01779	-2.18334
863.000	-0.01384	-1.95883	0.02570	-2.22903
864.000	0.00791	-1.97075	0.03361	-2.28664
865.000	0.02372	-1.95486	-0.00989	-2.26479
866.000	0.03756	-2.00453	-0.03163	-2.27869
867.000	0.00395	-1.93896	0.00395	-2.28664
868.000	-0.01779	-1.98466	-0.06920	-2.25684
869.000	0.01977	-1.99062	0.00791	-2.24294
870.000	-0.01186	-1.95684	0.01582	-2.27075
871.000	0.00198	-2.03434	-0.04152	-2.19924
872.000	0.01384	-1.97075	0.05536	-2.27869
873.000	0.00593	-1.98069	-0.01582	-2.29657
874.000	0.02372	-1.94293	-0.01384	-2.26677
875.000	0.00593	-1.96082	-0.00198	-2.26677
876.000	0.01977	-1.95088	0.01384	-2.27671
877.000	-0.03163	-1.95088	-0.02372	-2.22109
878.000	0.00593	-1.92306	-0.01186	-2.26479
879.000	0.02768	-1.96678	-0.03559	-2.22109
880.000	0.00791	-1.96281	-0.05536	-2.24691
881.000	0.01384	-1.94293	0.06326	-2.30451
882.000	-0.02175	-1.95486	-0.00395	-2.29458
883.000	0.02768	-1.92306	-0.01384	-2.31047
884.000	0.01779	-1.92704	0.01186	-2.21513
885.000	0.00593	-1.93697	-0.01779	-2.25287
886.000	0.05140	-1.91313	0.05931	-2.23102
887.000	0.02966	-1.93896	-0.01779	-2.27472
888.000	0.05536	-1.98069	-0.02372	-2.24294
889.000	0.05733	-1.91710	-0.04547	-2.21115
890.000	0.07315	-1.87338	-0.07908	-2.22506
891.000	0.08106	-1.93300	0.01384	-2.25684
892.000	0.05733	-1.90915	0.01186	-2.30253
893.000	0.06326	-1.91313	0.08106	-2.32437
894.000	0.10478	-1.91312	0.00989	-2.28664
895.000	0.01779	-1.89524	-0.05140	-2.35814
896.000	0.06524	-1.91511	-0.05140	-2.30849
897.000	0.10083	-1.87139	-0.09885	-2.29061
898.000	0.02175	-1.92505	0.01977	-2.31444
899.000	0.08699	-1.91511	-0.05536	-2.32636
900.000	0.08897	-1.91312	-0.16607	-2.36409
901.000	0.08897	-1.88530	-0.03163	-2.30650
902.000	0.08699	-1.90518	-0.09885	-2.40779
903.000	0.07710	-1.95287	-0.04349	-2.31246
904.000	0.08501	-1.92306	0.00198	-2.28465
905.000	0.08699	-1.89921	-0.03163	-2.31246
906.000	0.09094	-1.92306	-0.03163	-2.36410
907.000	0.08106	-1.89723	0.03163	-2.30849
908.000	0.10083	-1.89723	-0.02768	-2.37403
909.000	0.13246	-1.87139	-0.01977	-2.33629
910.000	0.08303	-1.87934	0.00791	-2.34424
911.000	0.09687	-1.87537	-0.00791	-2.33232
912.000	0.14827	-1.86940	0.00593	-2.34821
913.000	0.13246	-1.83760	-0.08699	-2.32835
914.000	0.07315	-1.87338	-0.02570	-2.36211
915.000	0.10874	-1.91511	-0.06129	-2.33232
916.000	0.16211	-1.86344	-0.04745	-2.36807
917.000	0.10478	-1.88331	-0.03163	-2.38992
918.000	0.12850	-1.82568	-0.04943	-2.36807
919.000	0.14037	-1.85549	-0.03559	-2.34821
920.000	0.14432	-1.86344	-0.04745	-2.42765
921.000	0.11269	-1.89921	-0.07315	-2.36012
922.000	0.14037	-1.92703	-0.08699	-2.34622
923.000	0.11862	-1.89921	-0.00791	-2.33431
924.000	0.12653	-1.91511	0.00593	-2.42963
925.000	0.14234	-1.88530	-0.04152	-2.37800
926.000	0.10478	-1.86543	-0.12653	-2.35416
927.000	0.10280	-1.90915	-0.05733	-2.36211
928.000	0.08303	-1.93101	-0.06129	-2.36012
929.000	0.05338	-1.88928	-0.03559	-2.43758
930.000	0.07908	-1.88928	-0.03954	-2.38197
931.000	0.11664	-1.85947	-0.01384	-2.35218
932.000	0.13048	-1.89921	-0.07315	-2.43956
933.000	0.09490	-1.89524	0.02966	-2.38793
934.000	0.09885	-1.81376	0.02768	-2.44353
935.000	0.15816	-1.87337	-0.09490	-2.43559
936.000	0.09490	-1.88530	-0.12060	-2.43161
937.000	0.10083	-1.85748	-0.03954	-2.33232
938.000	0.13839	-1.81574	-0.03361	-2.38793
939.000	0.11467	-1.86543	-0.07710	-2.34622
940.000	0.11862	-1.86940	-0.11862	-2.39388
941.000	0.08501	-1.87537	-0.02570	-2.41176
942.000	0.08897	-1.86940	-0.07315	-2.41772
943.000	0.12455	-1.84754	-0.02768	-2.45942
944.000	0.10874	-1.81177	0.00000	-2.40382
945.000	0.10478	-1.87338	-0.00395	-2.37800
946.000	0.12257	-1.88331	-0.08106	-2.40977
947.000	0.13048	-1.86741	0.00000	-2.40580
948.000	0.09490	-1.84556	-0.08897	-2.42765
949.000	0.13246	-1.87338	-0.16409	-2.42367
950.000	0.14037	-1.83164	-0.10280	-2.45942
951.000	0.16014	-1.81375	-0.05338	-2.39587
952.000	0.11664	-1.85152	-0.15025	-2.41572
953.000	0.13444	-1.82369	-0.12257	-2.46736
954.000	0.11269	-1.83761	-0.06129	-2.39984
955.000	0.12850	-1.84953	-0.01582	-2.39587
956.000	0.13444	-1.77202	-0.09094	-2.35615
957.000	0.13048	-1.82767	0.01977	-2.37999
958.000	0.13048	-1.86344	-0.10874	-2.42963
959.000	0.15025	-1.87735	0.01384	-2.39190
960.000	0.17595	-1.86145	-0.06129	-2.38396
961.000	0.16804	-1.82369	-0.11664	-2.38793
962.000	0.16409	-1.83164	-0.02966	-2.35019
963.000	0.16607	-1.85946	-0.07513	-2.36410
964.000	0.17793	-1.84356	-0.02570	-2.40183
965.000	0.15816	-1.80382	-0.04943	-2.38992
966.000	0.12653	-1.82369	-0.10280	-2.37005
967.000	0.14234	-1.83164	-0.07710	-2.36410
968.000	0.16014	-1.81574	-0.09292	-2.33828
969.000	0.19572	-1.80977	-0.09094	-2.31444
970.000	0.16409	-1.84754	-0.02570	-2.37601
971.000	0.16607	-1.85748	-0.10083	-2.39388
972.000	0.18781	-1.85549	-0.08106	-2.38793
973.000	0.19770	-1.84754	-0.05931	-2.37998
974.000	0.14630	-1.86741	-0.06722	-2.34821
975.000	0.11664	-1.83164	-0.10874	-2.31841
976.000	0.15816	-1.81972	-0.11467	-2.37402
977.000	0.14037	-1.83760	-0.00791	-2.37006
978.000	0.18386	-1.82568	-0.08699	-2.30650
979.000	0.16804	-1.84158	-0.10676	-2.29458
980.000	0.15025	-1.75612	-0.05140	-2.36807
981.000	0.19177	-1.80580	-0.05338	-2.31842
982.000	0.23131	-1.79983	-0.18386	-2.36607
983.000	0.20363	-1.73624	-0.05931	-2.32239
984.000	0.19572	-1.75214	-0.11269	-2.29855
985.000	0.20363	-1.78195	-0.12653	-2.30054
986.000	0.17793	-1.77400	-0.17793	-2.30649
987.000	0.13839	-1.77798	-0.07513	-2.32437
988.000	0.23526	-1.77797	-0.09094	-2.29855
989.000	0.22933	-1.78195	-0.11862	-2.27074
990.000	0.19770	-1.79586	-0.05338	-2.34225
991.000	0.19770	-1.78195	-0.07117	-2.35019
992.000	0.21154	-1.81176	-0.18584	-2.39189
993.000	0.23526	-1.81573	-0.09094	-2.32239
994.000	0.20758	-1.80977	-0.09490	-2.35218
995.000	0.17595	-1.85747	-0.07710	-2.34225
996.000	0.23131	-1.79983	-0.14234	-2.33629
997.000	0.25701	-1.81374	-0.11269	-2.32636
998.000	0.22340	-1.81772	-0.14827	-2.31444
999.000	0.20758	-1.83164	-0.07710	-2.34423
1000.000	0.24317	-1.79983	-0.09885	-2.30650
1001.000	0.23329	-1.78990	-0.13444	-2.37402
1002.000	0.27282	-1.85349	-0.08699	-2.39190
1003.000	0.18781	-1.81375	-0.10874	-2.37402
1004.000	0.18188	-1.83164	-0.10676	-2.35416
1005.000	0.18386	-1.79388	-0.14037	-2.28266
1006.000	0.23724	-1.79586	-0.13444	-2.38594
1007.000	0.21352	-1.75015	-0.07513	-2.39587
1008.000	0.19375	-1.78394	-0.05931	-2.35019
1009.000	0.21549	-1.82567	-0.22933	-2.34025
1010.000	0.21945	-1.81971	-0.07908	-2.28068
1011.000	0.22340	-1.80381	-0.15025	-2.37799
1012.000	0.24515	-1.77996	-0.19177	-2.38394
1013.000	0.26492	-1.80579	-0.08106	-2.38793
1014.000	0.27678	-1.82964	-0.08897	-2.41772
1015.000	0.24119	-1.79983	-0.13641	-2.40778
1016.000	0.17991	-1.81773	-0.09292	-2.38793
1017.000	0.20758	-1.80182	-0.04745	-2.41176
1018.000	0.21747	-1.78195	-0.12060	-2.39785
1019.000	0.23526	-1.81573	-0.05733	-2.46339
1020.000	0.23724	-1.77598	-0.07710	-2.37204
1021.000	0.22735	-1.78990	-0.09687	-2.44949
1022.000	0.20363	-1.81375	-0.22142	-2.35614
1023.000	0.20956	-1.79785	-0.13444	-2.36806
1024.000	0.22340	-1.79188	-0.12455	-2.48324
1025.000	0.21747	-1.77201	-0.14432	-2.44154
1026.000	0.26689	-1.79983	-0.19968	-2.42366
1027.000	0.23131	-1.75015	-0.11664	-2.40977
1028.000	0.23526	-1.74617	-0.12060	-2.41573
1029.000	0.22340	-1.75810	-0.09292	-2.37402
1030.000	0.21945	-1.76207	-0.18781	-2.36806
1031.000	0.23131	-1.74220	-0.10874	-2.43559
1032.000	0.29062	-1.73622	-0.16607	-2.29259
1033.000	0.21747	-1.75810	-0.20758	-2.49118
1034.000	0.24119	-1.76207	-0.12653	-2.43360
1035.000	0.22735	-1.76406	0.00593	-2.42963
1036.000	0.26294	-1.74617	-0.05140	-2.45942
1037.000	0.25108	-1.70642	-0.08106	-2.39389
1038.000	0.24910	-1.76406	-0.11664	-2.47927
1039.000	0.26096	-1.72828	-0.19770	-2.45544
1040.000	0.27876	-1.74219	-0.09094	-2.43559
1041.000	0.21549	-1.72630	-0.16014	-2.39388
1042.000	0.28864	-1.76803	-0.22340	-2.41770
1043.000	0.24910	-1.74816	-0.17200	-2.44948
1044.000	0.29062	-1.73424	-0.16607	-2.39984
1045.000	0.26096	-1.72629	-0.15421	-2.43757
1046.000	0.25503	-1.73027	-0.22340	-2.41969
1047.000	0.22142	-1.73425	-0.20363	-2.39784
1048.000	0.22735	-1.73027	-0.18584	-2.45147
1049.000	0.21747	-1.74617	-0.21549	-2.41572
1050.000	0.27282	-1.68455	-0.13444	-2.44551
1051.000	0.28666	-1.73821	-0.17991	-2.37600
1052.000	0.25305	-1.67064	-0.17991	-2.35416
1053.000	0.20561	-1.72431	-0.10676	-2.41573
1054.000	0.24910	-1.72629	-0.15223	-2.39984
1055.000	0.24910	-1.74418	-0.08303	-2.39984
1056.000	0.29062	-1.72231	-0.19177	-2.43161
1057.000	0.26689	-1.72033	-0.05931	-2.36012
1058.000	0.27282	-1.72033	-0.18188	-2.42565
1059.000	0.27876	-1.71436	-0.17398	-2.41175
1060.000	0.31039	-1.70044	-0.18386	-2.37997
1061.000	0.30248	-1.73622	-0.15025	-2.43558
1062.000	0.31632	-1.74218	-0.19375	-2.35614
1063.000	0.27876	-1.67461	-0.19968	-2.35217
1064.000	0.28864	-1.70641	-0.17991	-2.35018
1065.000	0.30248	-1.73225	-0.14234	-2.38991
1066.000	0.28271	-1.70442	-0.23329	-2.36606
1067.000	0.27085	-1.71635	-0.18979	-2.38593
1068.000	0.28864	-1.70840	-0.23526	-2.40777
1069.000	0.27876	-1.75213	-0.18386	-2.39189
1070.000	0.25503	-1.72828	-0.22340	-2.41174
1071.000	0.28864	-1.74417	-0.06524	-2.37204
1072.000	0.28271	-1.69846	-0.18584	-2.35217
1073.000	0.26294	-1.73225	-0.20956	-2.40777
1074.000	0.32027	-1.74019	-0.20363	-2.45146
1075.000	0.29655	-1.71833	-0.16804	-2.28067
1076.000	0.29062	-1.70045	-0.19968	-2.42168
1077.000	0.27085	-1.70641	-0.10478	-2.31444
1078.000	0.28469	-1.74815	-0.17200	-2.40579
1079.000	0.29259	-1.75610	-0.15025	-2.34820
1080.000	0.24317	-1.71437	-0.14827	-2.35217
1081.000	0.24317	-1.68058	-0.17398	-2.35416
1082.000	0.25305	-1.75412	-0.15421	-2.38395
1083.000	0.21549	-1.76406	-0.10083	-2.28068
1084.000	0.37167	-1.68652	-0.00791	-2.37601
1085.000	0.43691	-1.60700	0.00989	-2.27671
1086.000	0.62273	-1.57117	0.17200	-2.12771
1087.000	0.74331	-1.44390	0.32422	-2.07404
1088.000	1.02003	-1.34241	0.52784	-1.92099
1089.000	1.30855	-1.11365	0.72354	-1.72418
1090.000	1.60293	-0.93657	1.02398	-1.45572
1091.000	1.96240	-0.72170	1.29274	-1.17132
1092.000	2.27236	-0.41745	1.50218	-0.86504
1093.000	2.51708	-0.18285	1.75108	-0.55676
1094.000	2.84849	0.13710	1.96437	-0.21274
1095.000	3.16591	0.40721	2.25065	0.00398
1096.000	3.31765	0.66531	2.40657	0.37169
1097.000	3.47723	0.89750	2.55062	0.48096
1098.000	3.66628	1.10968	2.81299	0.61795
1099.000	3.75487	1.28419	2.90173	0.82649
1100.000	3.75291	1.42903	2.98455	0.95752
1101.000	3.79031	1.51427	3.08706	0.91771
1102.000	3.75487	1.62938	3.12255	1.00109
1103.000	3.68006	1.60968	2.96483	0.97144
1104.000	3.53041	1.60003	2.97863	0.96348
1105.000	3.33144	1.47334	2.85835	0.89605
1106.000	3.25263	1.42384	2.75185	0.76500
1107.000	3.15605	1.34456	2.58022	0.73530
1108.000	2.96483	1.21771	2.50722	0.66977
1109.000	2.88596	1.14034	2.39276	0.55455
1110.000	2.77157	1.04709	2.38684	0.44325
1111.000	2.75185	0.97957	2.33552	0.24052
1112.000	2.69464	0.94187	2.27236	0.28824
1113.000	2.62954	0.86045	2.29013	0.15306
1114.000	2.59798	0.83862	2.32565	0.15505
1115.000	2.57430	0.76313	2.30394	0.12325
1116.000	2.62954	0.74124	2.30986	0.15306
1117.000	2.66900	0.73128	2.36118	0.12920
1118.000	2.68478	0.71736	2.46183	0.11727
1119.000	2.76368	0.72327	2.49538	0.10136
1120.000	2.76171	0.69943	2.51313	0.15701
1121.000	2.84849	0.75302	2.57627	0.18483
1122.000	2.94117	0.80063	2.62954	0.26034
1123.000	2.96483	0.75294	2.64927	0.30008
1124.000	2.99441	0.80457	2.61771	0.35772
1125.000	3.02004	0.82441	2.67886	0.40341
1126.000	3.02595	0.82639	2.74001	0.42524
1127.000	3.09692	0.87599	2.65322	0.48886
1128.000	3.12058	0.90775	2.68873	0.54052
1129.000	3.16788	0.90969	2.76368	0.51465
1130.000	3.16394	0.97324	2.76763	0.59611
1131.000	3.18956	0.98712	2.74001	0.61600
1132.000	3.23489	1.02878	2.71437	0.63588
1133.000	3.16788	1.03281	2.69464	0.66569
1134.000	3.18759	1.05265	2.76171	0.72526
1135.000	3.19941	1.06455	2.68675	0.63589
1136.000	3.18956	1.12810	2.69464	0.65973
1137.000	3.19941	1.09632	2.68873	0.67563
1138.000	3.15408	1.12417	2.67689	0.59417
1139.000	3.17576	1.13209	2.71831	0.56633
1140.000	3.15803	1.12814	2.67886	0.62795
1141.000	3.19153	1.18171	2.71634	0.64383
1142.000	3.16985	1.15394	2.68675	0.64384
1143.000	3.15803	1.17778	2.65716	0.57431
1144.000	3.08904	1.10637	2.70056	0.66967
1145.000	3.07524	1.15007	2.66505	0.60411
1146.000	3.14817	1.11226	2.69859	0.62794
1147.000	3.12058	1.13414	2.60390	0.62799
1148.000	3.08115	1.13418	2.65519	0.64187
1149.000	3.04172	1.09252	2.65322	0.62399
1150.000	3.03581	1.10245	2.63743	0.53458
1151.000	3.09495	1.10239	2.61179	0.54850
1152.000	3.09298	1.11828	2.63941	0.55643
1153.000	3.01018	1.10645	2.59995	0.59620
1154.000	3.05158	1.10641	2.65322	0.59816
1155.000	3.07918	1.08255	2.61376	0.49285
1156.000	3.04369	1.06670	2.59798	0.50280
1157.000	3.01609	1.11836	2.61573	0.57830
1158.000	3.05158	1.06470	2.59403	0.53062
1159.000	3.03384	1.06274	2.69267	0.47097
1160.000	3.07524	1.08851	2.56246	0.48095
1161.000	3.10678	1.08649	2.62757	0.58625
1162.000	3.06735	1.10242	2.63349	0.47298
1163.000	3.06144	1.09250	2.63349	0.52067
1164.000	3.06735	1.08256	2.65124	0.53854
1165.000	3.08312	1.08652	2.66703	0.55841
1166.000	3.10678	1.07855	2.61179	0.53061
1167.000	3.08904	1.09048	2.71634	0.59415
1168.000	3.07327	1.10440	2.65124	0.54649
1169.000	3.10678	1.11826	2.66505	0.54053
1170.000	3.11663	1.11031	2.62165	0.52067
1171.000	3.10283	1.09047	2.63152	0.62003
1172.000	3.14423	1.14007	2.59798	0.62004
1173.000	3.14620	1.10829	2.66900	0.52661
1174.000	3.13240	1.11228	2.59403	0.58825
1175.000	3.11466	1.16591	2.65124	0.53656
1176.000	3.12255	1.11229	2.62362	0.56240
1177.000	3.09889	1.10040	2.63546	0.53855
1178.000	3.15211	1.12616	2.64730	0.57829
1179.000	3.13832	1.17582	2.61573	0.54651
1180.000	3.17182	1.10032	2.62560	0.51670
1181.000	3.14226	1.10631	2.66505	0.60213
1182.000	3.09298	1.09644	2.74396	0.56235
1183.000	3.12058	1.13215	2.67689	0.62000
1184.000	3.10283	1.16791	2.55062	0.61410
1185.000	3.20139	1.17574	2.75185	0.62195
1186.000	3.14620	1.17184	2.59403	0.63594
1187.000	3.13832	1.16192	2.73607	0.64580
1188.000	3.16000	1.16388	2.68675	0.52661
1189.000	3.10283	1.10437	2.55654	0.59224
1190.000	3.13043	1.11427	2.64138	0.54650
1191.000	3.15605	1.15395	2.66111	0.64584
1192.000	3.13240	1.14405	2.62757	0.58625
1193.000	3.14817	1.16389	2.68873	0.51270
1194.000	3.07721	1.19574	2.62362	0.53259
1195.000	3.14029	1.15000	2.64335	0.59021
1196.000	3.14423	1.19765	2.66505	0.59418
1197.000	3.14423	1.17184	2.59600	0.67767
1198.000	3.12649	1.12420	2.70648	0.53455
1199.000	3.11466	1.14209	2.59206	0.54453
1200.000	3.12846	1.11030	2.62954	0.62599
1201.000	3.15803	1.08247	2.61179	0.56837
1202.000	3.15605	1.13013	2.63152	0.56439
1203.000	3.12255	1.09839	2.64335	0.59220
1204.000	3.15211	1.14403	2.67886	0.64186
1205.000	3.16394	1.22145	2.65519	0.62995
1206.000	3.07327	1.15404	2.68873	0.59218
1207.000	3.11466	1.15996	2.55062	0.60218
1208.000	3.13043	1.17185	2.54273	0.56244
1209.000	3.15605	1.14204	2.64138	0.68162
1210.000	3.10875	1.15996	2.67097	0.60212
1211.000	3.11663	1.13017	2.69070	0.55442
1212.000	3.15408	1.15793	2.65322	0.64187
1213.000	3.15408	1.14006	2.63546	0.61009
1214.000	3.14620	1.08645	2.65124	0.58624
1215.000	3.14423	1.10234	2.62165	0.58625
1216.000	3.09692	1.14409	2.70845	0.56435
1217.000	3.13634	1.10235	2.68675	0.54846
1218.000	3.12255	1.10832	2.75579	0.58022
1219.000	3.10875	1.09245	2.72620	0.57229
1220.000	3.12058	1.12222	2.68083	0.59417
1221.000	3.13634	1.10235	2.55852	0.57038
1222.000	3.10875	1.11826	2.73804	0.57228
1223.000	3.12846	1.11427	2.64533	0.52265
1224.000	3.14226	1.16588	2.65519	0.60610
1225.000	3.07524	1.14213	2.62560	0.63990
1226.000	3.14226	1.10631	2.69662	0.56038
1227.000	3.09889	1.12622	2.62954	0.57234
1228.000	3.10086	1.10437	2.63349	0.58426
1229.000	3.15211	1.17580	2.67886	0.56436
1230.000	3.09101	1.10240	2.59798	0.56440
1231.000	3.08509	1.10240	2.65716	0.50873
1232.000	3.13240	1.10037	2.64138	0.58425
1233.000	3.14817	1.12815	2.62560	0.57631
1234.000	3.12058	1.09045	2.66111	0.58623
1235.000	3.11072	1.11826	2.65913	0.69154
1236.000	3.10283	1.12025	2.75185	0.57029
1237.000	3.13437	1.11029	2.71437	0.54050
1238.000	3.09889	1.09047	2.69464	0.60012
1239.000	3.15605	1.09836	2.64533	0.55444
1240.000	3.15803	1.11027	2.71437	0.53057
1241.000	3.14817	1.13212	2.73409	0.51069
1242.000	3.14226	1.16191	2.66703	0.62398
1243.000	3.12058	1.14208	2.62757	0.56041
1244.000	3.10875	1.13613	2.67294	0.63988
1245.000	3.12255	1.10832	2.71240	0.59415
1246.000	3.12649	1.14604	2.69662	0.55641
1247.000	3.13832	1.12220	2.72620	0.52063
1248.000	3.10678	1.13018	2.66308	0.61206
1249.000	3.13832	1.09837	2.66900	0.58225
1250.000	3.12649	1.14803	2.72423	0.62793
1251.000	3.14226	1.10036	2.64730	0.57034
1252.000	3.13043	1.08448	2.72818	0.56037
1253.000	3.12846	1.13214	2.62560	0.56041
1254.000	3.16985	1.08841	2.69267	0.58224
1255.000	3.14817	1.18176	2.63743	0.56637
1256.000	3.14817	1.15793	2.65913	0.61802
1257.000	3.17379	1.17180	2.66703	0.57431
1258.000	3.15211	1.11226	2.67294	0.65776
1259.000	3.15605	1.15594	2.66505	0.60809
1260.000	3.15605	1.16984	2.70056	0.60807
1261.000	3.14423	1.16588	2.67492	0.60212
1262.000	3.12846	1.10831	2.66505	0.61802
1263.000	3.15211	1.15197	2.71240	0.56634
1264.000	3.11466	1.15598	2.68281	0.59417
1265.000	3.15211	1.14602	2.65716	0.60610
1266.000	3.17379	1.11819	2.68873	0.51866
1267.000	3.20139	1.14993	2.67097	0.56437
1268.000	3.12649	1.10434	2.68873	0.58224
1269.000	3.14226	1.08050	2.74198	0.64977
1270.000	3.14423	1.09241	2.64138	0.61009
1271.000	3.17774	1.14400	2.61376	0.63394
1272.000	3.19153	1.10229	2.67097	0.57828
1273.000	3.16394	1.09438	2.66703	0.62398
1274.000	3.18168	1.14797	2.75185	0.61599
1275.000	3.16788	1.17578	2.71240	0.60011
1276.000	3.14817	1.16190	2.69070	0.60211
1277.000	3.13437	1.11029	2.72029	0.60607
1278.000	3.16394	1.13806	2.59403	0.54056
1279.000	3.16591	1.11820	2.68478	0.61006
1280.000	3.12255	1.12619	2.73607	0.51268
1281.000	3.16788	1.14004	2.60192	0.53260
1282.000	3.13832	1.09440	2.68281	0.59019
1283.000	3.18759	1.11619	2.63941	0.55047
1284.000	3.16591	1.12019	2.72818	0.63389
1285.000	3.16197	1.10232	2.68675	0.59218
1286.000	3.13043	1.13413	2.68281	0.63192
1287.000	3.15803	1.17182	2.62362	0.54849
1288.000	3.17379	1.19563	2.64138	0.60611
1289.000	3.18168	1.13804	2.68281	0.57827
1290.000	3.19744	1.14994	2.63349	0.66573
1291.000	3.16985	1.12813	2.65124	0.64386
1292.000	3.18168	1.15988	2.72029	0.61203
1293.000	3.18365	1.16187	2.69859	0.66569
1294.000	3.15803	1.15792	2.64927	0.59816
1295.000	3.17971	1.15393	2.68873	0.57231
1296.000	3.16788	1.10827	2.64533	0.61008
1297.000	3.15408	1.11226	2.68675	0.68159
1298.000	3.12452	1.15200	2.68478	0.55244
1299.000	3.19547	1.15391	2.73212	0.60011
1300.000	3.16985	1.13607	2.67886	0.60411
1301.000	3.16591	1.10827	2.70451	0.55442
1302.000	3.15408	1.05864	2.72029	0.56832
1303.000	3.21518	1.12410	2.70056	0.55839
1304.000	3.16591	1.10629	2.69267	0.47295
1305.000	3.19350	1.15590	2.72818	0.57229
1306.000	3.17971	1.09436	2.69859	0.58224
1307.000	3.13240	1.14207	2.69859	0.58224
1308.000	3.15211	1.14602	2.65519	0.57034
1309.000	3.16000	1.13211	2.71634	0.61601
1310.000	3.18759	1.13803	2.71831	0.53454
1311.000	3.15803	1.13807	2.69070	0.60211
1312.000	3.17182	1.15195	2.65913	0.63591
1313.000	3.17379	1.15195	2.75382	0.52856
1314.000	3.17774	1.15592	2.70056	0.64383
1315.000	3.17379	1.16188	2.72620	0.63190
1316.000	3.13437	1.13611	2.77157	0.61399
1317.000	3.16394	1.13012	2.69070	0.56635
1318.000	3.18956	1.11222	2.64927	0.57431
1319.000	3.17971	1.13407	2.77157	0.58618
1320.000	3.16394	1.12615	2.63349	0.60413
1321.000	3.20730	1.12808	2.65913	0.63392
1322.000	3.19350	1.10229	2.71831	0.59415
1323.000	3.16197	1.11026	2.65519	0.59219
1324.000	3.15605	1.05070	2.78341	0.59809
1325.000	3.13634	1.12419	2.71042	0.53057
1326.000	3.13043	1.14207	2.71240	0.56435
1327.000	3.13240	1.07455	2.70845	0.55044
1328.000	3.18759	1.11222	2.68873	0.53257
1329.000	3.16394	1.12615	2.69859	0.52461
1330.000	3.13832	1.13213	2.65716	0.57828
1331.000	3.15408	1.13211	2.77749	0.59412
1332.000	3.15605	1.13211	2.73015	0.55838
1333.000	3.14226	1.11227	2.73607	0.65772
1334.000	3.19350	1.12810	2.80707	0.49079
1335.000	3.17576	1.17180	2.68083	0.59218
1336.000	3.11466	1.17187	2.64335	0.57233
1337.000	3.09692	1.21756	2.83863	0.59806
1338.000	3.09298	1.21756	2.72620	0.62793
1339.000	3.13043	1.34658	2.79524	0.72524
1340.000	3.11269	1.38234	2.74790	0.83852
1341.000	3.13043	1.44386	2.78538	0.89610
1342.000	3.17182	1.60061	2.72226	1.09481
1343.000	3.12649	1.71977	2.69662	1.20607
1344.000	3.10481	1.86666	2.64730	1.32332
1345.000	3.14817	2.03524	2.62757	1.51996
1346.000	3.09692	2.13850	2.60192	1.62723
1347.000	3.07524	2.21789	2.59600	1.75631
1348.000	3.07918	2.30516	2.53089	1.89141
1349.000	3.08312	2.43405	2.60192	2.03423
1350.000	3.01412	2.41834	2.60192	2.01438
1351.000	2.99046	2.40848	2.55654	2.01842
1352.000	3.01412	2.41636	2.57627	2.05213
1353.000	3.02989	2.45004	2.55062	1.96682
1354.000	3.04764	2.41430	2.60784	1.97665
1355.000	2.99638	2.31128	2.57627	1.90722
1356.000	3.03187	2.30724	2.60192	1.97269
1357.000	3.01609	2.20810	2.67689	1.85744
1358.000	3.02398	2.13666	2.73212	1.73030
1359.000	2.99835	2.10497	2.72620	1.67671
1360.000	2.99638	2.02561	2.65913	1.63311
1361.000	3.03778	1.95807	2.69859	1.53179
1362.000	3.08509	1.93615	2.71831	1.45432
1363.000	3.10481	1.93612	2.74001	1.48606
1364.000	3.05947	1.88857	2.64335	1.41667
1365.000	3.09889	1.88652	2.67097	1.43650
1366.000	3.08115	1.86075	2.71831	1.37488
1367.000	3.09889	1.86668	2.67492	1.49607
1368.000	3.09889	1.89446	2.65913	1.53382
1369.000	3.09298	1.90836	2.67097	1.41465
1370.000	3.12846	1.93210	2.65124	1.52192
1371.000	3.11072	1.94404	2.69267	1.58541
1372.000	3.08115	1.97783	2.70845	1.53178
1373.000	3.05749	1.96994	2.66111	1.62318
1374.000	3.06538	2.01357	2.59008	1.69675
1375.000	3.08509	1.96592	2.67294	1.64501
1376.000	3.05749	2.05724	2.66900	1.67678
1377.000	3.10283	2.10278	2.68281	1.72243
1378.000	3.08115	2.05521	2.66111	1.68077
1379.000	3.08904	2.04131	2.62954	1.73442
1380.000	3.07327	2.12665	2.67294	1.71450
1381.000	3.02201	2.00770	2.61376	1.76621
1382.000	3.04567	2.05131	2.61968	1.72053
1383.000	3.10086	2.12461	2.59798	1.79998
1384.000	3.05749	2.06517	2.63743	1.72647
1385.000	3.04961	2.11082	2.59600	1.70865
1386.000	3.04172	2.10488	2.63743	1.77213
1387.000	3.05355	2.11081	2.58614	1.73051
1388.000	3.08312	2.14845	2.65716	1.76019
1389.000	3.08312	2.11472	2.58022	1.78810
1390.000	3.11072	2.11467	2.72620	1.72237
1391.000	3.09101	2.12859	2.69070	1.73235
1392.000	3.08115	2.16631	2.67689	1.80384
1393.000	3.07129	2.15244	2.71042	1.71445
1394.000	3.11466	2.14640	2.66703	1.80981
1395.000	3.06932	2.15641	2.68478	1.78001
1396.000	3.09889	2.16032	2.69464	1.81176
1397.000	3.05158	2.14653	2.66505	1.78599
1398.000	3.09889	2.14246	2.69070	1.68470
1399.000	3.09101	2.09288	2.64335	1.70263
1400.000	3.12058	2.14242	2.63349	1.77412
1401.000	3.05947	2.13659	2.67294	1.74627
1402.000	3.10875	2.19204	2.59600	1.69674
1403.000	3.11860	2.11267	2.70648	1.79586
1404.000	3.09692	2.10874	2.66900	1.72841
1405.000	3.09101	2.06709	2.67097	1.73436
1406.000	3.07129	2.08896	2.62165	1.75826
1407.000	3.07721	2.10680	2.61968	1.77216
1408.000	3.02989	2.08904	2.65519	1.74828
1409.000	3.05552	2.10287	2.70451	1.76409
1410.000	3.05355	2.07312	2.67097	1.71649
1411.000	3.05947	2.08303	2.64927	1.76417
1412.000	3.07327	2.09887	2.68873	1.78000
1413.000	3.05355	2.04336	2.61968	1.81584
1414.000	3.08115	2.08497	2.65322	1.78204
1415.000	3.07721	2.07902	2.63743	1.77213
1416.000	3.09889	2.11668	2.63546	1.80390
1417.000	3.12846	2.15431	2.58417	1.74640
1418.000	3.07524	2.07109	2.65913	1.74629
1419.000	3.05947	2.09691	2.65716	1.73438
1420.000	3.11663	2.10077	2.70253	1.69262
1421.000	3.07524	2.12267	2.59403	1.75234
1422.000	3.09889	2.12461	2.67689	1.76215
1423.000	3.08509	2.12662	2.62757	1.66691
1424.000	3.03778	2.03942	2.62757	1.75825
1425.000	3.05552	2.04137	2.74593	1.69852
1426.000	3.04369	2.11678	2.71437	1.79982
1427.000	3.01018	2.06725	2.65322	1.73439
1428.000	3.04764	2.07313	2.65322	1.74431
1429.000	3.08312	2.10084	2.68281	1.72045
1430.000	3.07721	2.08101	2.70648	1.77203
1431.000	3.05355	2.10685	2.63152	1.81979
1432.000	3.01609	2.07517	2.67886	1.72839
1433.000	3.06735	2.07508	2.72029	1.77201
1434.000	3.01412	2.09303	2.63743	1.76816
1435.000	3.03187	2.12276	2.73212	1.70449
1436.000	3.09692	2.09486	2.67294	1.80186
1437.000	3.05158	2.10487	2.73607	1.74817
1438.000	3.04369	2.09298	2.67492	1.76811
1439.000	3.06144	2.09493	2.73015	1.72832
1440.000	3.03384	2.06125	2.67492	1.77208
1441.000	3.08904	2.08098	2.70451	1.80182
1442.000	3.08115	2.05322	2.70056	1.76609
1443.000	3.06144	2.06318	2.69464	1.78396
1444.000	3.04369	2.10686	2.72818	1.76207
1445.000	3.07524	2.09887	2.67097	1.78797
1446.000	3.06341	2.07310	2.75185	1.75807
1447.000	3.01215	2.07717	2.71437	1.65687
1448.000	3.03778	2.08108	2.69267	1.73235
1449.000	3.01807	2.06128	2.71437	1.70650
1450.000	3.01609	2.05533	2.64335	1.72844
1451.000	3.01609	2.06327	2.72029	1.75414
1452.000	3.03384	2.06522	2.69464	1.77006
1453.000	2.93920	2.03166	2.71042	1.70254
1454.000	2.99835	2.06132	2.74001	1.70250
1455.000	3.01609	2.11485	2.68675	1.75816
1456.000	2.98849	2.06531	2.74790	1.75410
1457.000	3.03384	2.07117	2.70253	1.74027
1458.000	2.95695	2.04354	2.71831	1.77996
1459.000	3.00229	2.06925	2.65519	1.74828
1460.000	2.96089	2.06337	2.65519	1.76814
1461.000	3.04369	2.08504	2.67886	1.78796
1462.000	2.97272	2.01176	2.71240	1.79386
1463.000	2.99441	2.06133	2.66308	1.83761
1464.000	2.94906	2.08522	2.75382	1.70049
1465.000	3.01412	1.99978	2.67294	1.77804
1466.000	3.01018	2.08114	2.71634	1.73231
1467.000	3.03778	2.06323	2.72226	1.74819
1468.000	3.02989	2.07118	2.65124	1.75821
1469.000	3.02398	2.09897	2.70253	1.75616
1470.000	3.01018	2.06923	2.63546	1.76618
1471.000	3.02989	2.06523	2.64927	1.77410
1472.000	3.04961	2.09693	2.67097	1.76017
1473.000	3.01609	2.05335	2.66111	1.76416
1474.000	3.01018	2.04542	2.75382	1.71637
1475.000	3.02201	2.04143	2.69267	1.82566
1476.000	3.01018	2.03749	2.64730	1.79396
1477.000	3.02004	2.06525	2.67492	1.81377
1478.000	3.01018	2.07122	2.67886	1.71251
1479.000	3.02201	2.04540	2.67886	1.78597
1480.000	3.00426	2.00575	2.68083	1.77803
1481.000	3.01018	2.02757	2.67097	1.75819
1482.000	3.03384	1.98784	2.71240	1.78394
1483.000	3.02004	2.01167	2.70451	1.75417
1484.000	3.01807	2.01565	2.68083	1.73435
1485.000	3.02201	2.01167	2.63546	1.79795
1486.000	2.99638	2.00576	2.67294	1.75421
1487.000	3.02792	2.03944	2.72620	1.72634
1488.000	3.02004	1.98191	2.70056	1.70057
1489.000	3.01215	2.01963	2.67097	1.79988
1490.000	3.02398	2.01365	2.65124	1.79197
1491.000	3.03384	2.04339	2.73804	1.74022
1492.000	3.03975	1.99973	2.66900	1.71252
1493.000	2.99835	2.03949	2.71437	1.74423
1494.000	3.01215	2.02955	2.64533	1.74234
1495.000	3.04369	2.04933	2.68873	1.80581
1496.000	3.00032	2.07917	2.75382	1.75211
1497.000	3.04172	2.03147	2.73607	1.71243
1498.000	2.99638	2.02958	2.71437	1.71842
1499.000	3.02398	2.07516	2.73409	1.76207
1500.000	3.03778	2.02751	2.64533	1.78999
1501.000	3.01807	2.04938	2.73015	1.74817
1502.000	3.05552	2.02748	2.72029	1.76606
1503.000	3.01807	2.03350	2.65519	1.82174
1504.000	3.06538	2.05524	2.65716	1.74629
1505.000	3.01018	2.03749	2.71831	1.71643
1506.000	3.04369	2.01957	2.70253	1.83557
1507.000	2.97863	2.01572	2.77354	1.66076
1508.000	3.02398	2.01960	2.73804	1.80772
1509.000	3.05355	2.02352	2.70253	1.74424
1510.000	2.97863	2.02762	2.68675	1.72640
1511.000	3.00229	2.02361	2.75974	1.78982
1512.000	3.01807	1.98588	2.66900	1.73039
1513.000	3.00426	2.03353	2.65322	1.66886
1514.000	3.05355	1.99772	2.70451	1.78395
1515.000	3.02989	2.00967	2.70253	1.75219
1516.000	3.02989	2.05134	2.74593	1.73425
1517.000	3.02201	2.02159	2.70451	1.84152
1518.000	3.02792	2.02952	2.68281	1.71846
1519.000	3.02989	2.00769	2.71437	1.79386
1520.000	3.04961	2.05329	2.72620	1.75414
1521.000	3.01215	2.04542	2.73409	1.71640
1522.000	3.04764	2.04932	2.71634	1.72834
1523.000	3.00821	2.02955	2.69267	1.75418
1524.000	3.00624	2.02360	2.69070	1.65491
1525.000	2.96878	2.00185	2.70451	1.79387
1526.000	3.04369	2.05330	2.69464	1.75220
1527.000	2.97272	2.06534	2.72818	1.76207
1528.000	3.03975	2.03148	2.70451	1.73828
1529.000	3.04369	2.02949	2.71042	1.77401
1530.000	3.01807	2.04144	2.73212	1.74420
1531.000	3.00229	2.05139	2.72226	1.76010
1532.000	3.01412	2.03946	2.72029	1.70054
1533.000	3.03187	2.01959	2.68873	1.73037
1534.000	2.99244	2.03355	2.79918	1.85924
1535.000	3.01215	2.04542	2.82680	1.79567
1536.000	3.04369	2.03346	2.74396	1.83550
1537.000	3.02989	2.06920	2.73409	1.82758
1538.000	3.03384	2.03347	2.78538	1.76596
1539.000	3.05749	2.02351	2.71437	1.77996
1540.000	3.02792	2.03745	2.75776	1.79181
1541.000	3.04172	2.09100	2.74198	1.78191
1542.000	3.03975	2.04537	2.69859	1.79785
1543.000	2.97272	1.97803	2.75579	1.71240
1544.000	3.02201	2.02953	2.71437	1.82364
1545.000	3.04961	2.07114	2.70253	1.83160
1546.000	2.97075	2.08121	2.65913	1.79394
1547.000	3.05355	2.03344	2.78538	1.76199
1548.000	3.06538	2.01953	2.65124	1.80785
1549.000	3.07129	2.03737	2.70056	1.77403
1550.000	3.01215	2.02955	2.72423	1.83156
1551.000	3.02004	2.06723	2.72818	1.81965
1552.000	3.04369	1.99179	2.71042	1.77004
1553.000	3.03975	2.03743	2.67097	1.77208
1554.000	3.00229	2.06330	2.74001	1.77992
1555.000	3.03778	1.98783	2.72818	1.74421
1556.000	3.03975	2.05926	2.66900	1.77407
1557.000	3.02201	2.04937	2.79129	1.78779
1558.000	2.98258	2.00381	2.71634	1.75614
1559.000	3.03975	2.05926	2.75185	1.72432
1560.000	3.05158	2.03542	2.66505	1.66885
1561.000	3.02004	2.03747	2.77946	1.64288
1562.000	3.03778	2.04140	2.78932	1.75206
1563.000	3.07129	2.02745	2.80116	1.69645
1564.000	3.05749	1.99375	2.75974	1.79776
1565.000	3.03778	2.02751	2.74198	1.71242
1566.000	3.03384	2.09895	2.78538	1.77589
1567.000	3.02989	2.05531	2.76171	1.71835
1568.000	3.07918	2.05720	2.78932	1.81161
1569.000	3.12452	2.06703	2.80510	1.75203
1570.000	3.08904	2.04329	2.76171	1.84937
1571.000	3.05355	2.01756	2.77354	1.70443
1572.000	3.09101	2.05122	2.81693	1.78576
1573.000	3.07129	2.01753	2.70648	1.80975
1574.000	3.09495	2.07701	2.79524	1.75800
1575.000	3.11269	2.03729	2.71437	1.74820
1576.000	3.08904	2.07305	2.80707	1.76196
1577.000	3.03187	2.08110	2.79327	1.81161
1578.000	3.05355	2.06717	2.81299	1.78577
1579.000	3.08706	2.06710	2.77749	1.76399
1580.000	3.07327	2.01554	2.79129	1.77191
1581.000	3.12058	2.08092	2.72423	1.78392
1582.000	3.08706	2.04131	2.84060	1.75992
1583.000	3.09495	2.07502	2.69070	1.74029
1584.000	3.07524	2.04332	2.74593	1.69058
1585.000	3.07129	2.02745	2.72423	1.73429
1586.000	3.11860	2.07696	2.78538	1.78978
1587.000	3.06538	2.03540	2.76368	1.67467
1588.000	3.09298	2.05519	2.85638	1.70828
1589.000	3.08904	2.00361	2.79327	1.71036
1590.000	3.09101	2.05321	2.74790	1.71837
1591.000	3.08312	2.02941	2.83271	1.72817
1592.000	3.07129	2.06316	2.81299	1.69842
1593.000	3.09692	2.03732	2.74987	1.72631
1594.000	3.08312	2.01751	2.79524	1.69448
1595.000	3.10875	2.03532	2.78735	1.77390
1596.000	3.07327	2.07705	2.76171	1.70445
1597.000	3.08904	2.01750	2.74987	1.75807
1598.000	3.07524	2.01355	2.82680	1.74803
1599.000	3.08904	2.07107	2.80116	1.79373
1600.000	3.10086	2.04128	2.81299	1.74011
1601.000	3.09692	2.05121	2.73212	1.83354
1602.000	3.10678	2.04326	2.74396	1.79779
1603.000	3.06735	2.05524	2.79129	1.81756
1604.000	3.06538	2.06119	2.86624	1.72018
1605.000	3.08312	2.04727	2.77946	1.69053
1606.000	3.08509	2.07504	2.85046	1.71226
1607.000	3.10086	2.05319	2.74593	1.69256
1608.000	3.14817	2.02334	2.77552	1.62700
1609.000	3.10678	2.04524	2.72818	1.65089
1610.000	3.13634	2.01344	2.76368	1.69254
1611.000	3.09298	2.01352	2.81891	1.72025
1612.000	3.08115	2.06910	2.75185	1.65284
1613.000	3.06735	2.04333	2.85046	1.67057
1614.000	3.12649	2.05710	2.84257	1.72617
1615.000	3.12255	2.01346	2.82482	1.70833
1616.000	3.09298	2.06114	2.85638	1.65468
1617.000	3.11663	1.99562	2.78538	1.72427
1618.000	3.13634	2.03526	2.79918	1.65873
1619.000	3.07524	2.04530	2.77946	1.68060
1620.000	3.11466	2.04721	2.79918	1.75601
1621.000	3.09298	2.07899	2.80313	1.68454
1622.000	3.10678	2.05516	2.77749	1.67465
1623.000	3.09692	2.07899	2.77749	1.68060
1624.000	3.08706	2.08694	2.80313	1.65873
1625.000	3.11269	2.06507	2.82482	1.67260
1626.000	3.12058	2.11068	2.87413	1.67451
1627.000	3.11269	2.07697	2.75974	1.69651
1628.000	3.07721	2.02347	2.72620	1.67075
1629.000	3.11269	2.07300	2.77552	1.67068
1630.000	3.09692	2.05319	2.78735	1.75206
1631.000	3.07524	2.07903	2.84652	1.65271
1632.000	3.07721	2.08696	2.80707	1.75402
1633.000	3.20139	2.19184	2.98652	1.68030
1634.000	3.36100	2.13596	3.06735	1.81315
1635.000	3.59343	2.28215	3.32947	1.96941
1636.000	3.90052	2.45571	3.50086	2.14953
1637.000	4.17593	2.60736	3.67613	2.40680
1638.000	4.58278	2.81173	3.91036	2.56068
1639.000	5.04802	3.23271	4.32535	2.88197
1640.000	5.53807	3.60505	4.64563	2.97168
1641.000	5.95103	3.86056	5.07745	3.43599
1642.000	6.37119	4.14870	5.36958	3.66919
1643.000	6.77117	4.48718	5.65556	4.11870
1644.000	7.14713	4.80129	6.09572	4.43020
1645.000	7.51469	5.12818	6.23251	4.72776
1646.000	7.86418	5.48740	6.59370	5.06383
1647.000	8.16853	5.70568	6.86862	5.17463
1648.000	8.46856	5.93699	7.15296	5.51393
1649.000	8.72369	6.14111	7.34168	5.52337
1650.000	8.93411	6.24641	7.60406	5.61774
1651.000	9.16933	6.30445	7.79239	5.63478
1652.000	9.37345	6.34348	7.99218	5.65939
1653.000	9.55427	6.34986	8.26343	5.58734
1654.000	9.74641	6.32303	8.48596	5.43211
1655.000	9.91723	6.19973	8.69471	5.47006
1656.000	10.06871	6.16782	8.79128	5.30691
1657.000	10.17409	6.07870	9.06332	5.28934
1658.000	10.25643	6.01906	9.12115	5.18330
1659.000	10.29854	5.91177	9.12693	5.09164
1660.000	10.26217	5.89695	9.17704	4.97009
1661.000	10.21048	5.77583	9.23868	4.94000
1662.000	10.04380	5.75554	9.15777	4.83193
1663.000	9.93833	5.70113	9.00162	4.69548
1664.000	9.76753	5.69436	8.96690	4.74472
1665.000	9.54850	5.64947	8.87622	4.69514
1666.000	9.39462	5.62283	8.78549	4.56542
1667.000	9.21942	5.61785	8.69471	4.63882
1668.000	9.03247	5.57407	8.45115	4.64373
1669.000	8.87043	5.61743	8.45115	4.75124
1670.000	8.71983	5.57880	8.26537	4.60877
1671.000	8.67346	5.57559	8.37763	4.68372
1672.000	8.60390	5.65259	8.30021	4.65922
1673.000	8.57877	5.56139	8.25956	4.69685
1674.000	8.65414	5.65184	8.32538	4.78600
1675.000	8.71210	5.62566	8.38150	4.93578
1676.000	8.81638	5.66108	8.58650	4.99759
1677.000	8.90130	5.69287	8.56330	4.96275
1678.000	8.96497	5.71328	8.73141	5.00543
1679.000	9.09417	5.75987	8.79514	5.06115
1680.000	9.16162	5.76073	8.87236	5.08350
1681.000	9.27912	5.82879	8.88973	5.11836
1682.000	9.36190	5.80993	9.00548	5.09725
1683.000	9.41579	5.88672	8.98812	5.14233
1684.000	9.48312	5.87199	8.99583	5.25525
1685.000	9.55427	5.91736	8.87622	5.35441
1686.000	9.56772	5.96565	8.98812	5.23003
1687.000	9.62154	5.98993	9.00741	5.27652
1688.000	9.62923	6.01890	9.02476	5.23535
1689.000	9.67150	6.01621	8.94761	5.38454
1690.000	9.65421	6.02039	8.98040	5.31587
1691.000	9.65997	6.04551	8.94568	5.24428
1692.000	9.64844	6.04377	9.02476	5.27432
1693.000	9.61578	6.04629	8.98233	5.27493
1694.000	9.58118	6.05466	9.01898	5.25297
1695.000	9.57541	6.07028	8.98619	5.30215
1696.000	9.56196	6.06082	8.99198	5.23387
1697.000	9.57541	6.06640	9.04404	5.21559
1698.000	9.51581	6.08298	8.94761	5.25790
1699.000	9.53119	6.03420	9.01705	5.14972
1700.000	9.50235	6.00172	8.87236	5.17320
1701.000	9.47350	5.99640	8.88008	5.23742
1702.000	9.46581	6.01012	8.93603	5.18205
1703.000	9.41001	5.96255	8.89744	5.10656
1704.000	9.44657	5.94833	8.86271	5.09339
1705.000	9.44849	5.95024	8.90516	5.16689
1706.000	9.41386	5.94889	8.85499	5.16564
1707.000	9.38885	5.95320	8.91095	5.00691
1708.000	9.38500	5.92803	8.91095	5.01666
1709.000	9.38500	5.96492	8.97076	5.10359
1710.000	9.37730	5.92622	8.84920	5.11502
1711.000	9.38500	5.95133	8.84727	5.01753
1712.000	9.38307	5.96107	8.88008	5.09900
1713.000	9.37153	5.90495	8.83375	5.07233
1714.000	9.36768	5.95745	8.77390	5.11606
1715.000	9.40424	5.97236	8.88394	5.04824
1716.000	9.38500	5.94745	8.77197	5.09853
1717.000	9.37153	5.97486	8.80480	5.06297
1718.000	9.39270	5.93566	8.82796	5.22256
1719.000	9.39270	5.93372	8.91288	5.06539
1720.000	9.39270	5.96867	8.83375	5.18739
1721.000	9.39462	5.96864	8.83568	5.08401
1722.000	9.41579	5.97992	8.76232	5.11232
1723.000	9.38692	5.99401	8.81252	5.05311
1724.000	9.38885	6.01533	8.88587	5.10672
1725.000	9.41386	5.97802	8.87429	5.17707
1726.000	9.41001	5.98973	8.81252	5.15844
1727.000	9.41771	5.98572	8.79128	5.10022
1728.000	9.40617	5.99174	8.84340	5.08000
1729.000	9.42733	5.96614	8.88780	5.14569
1730.000	9.44272	5.99693	8.82603	5.13095
1731.000	9.41771	5.97407	8.79321	5.13140
1732.000	9.38115	5.96693	8.87622	5.11465
1733.000	9.41386	5.97413	8.86850	5.14011
1734.000	9.45042	5.98709	8.88008	5.19649
1735.000	9.42156	5.95265	8.86657	5.11673
1736.000	9.41194	6.01687	8.94568	5.12343
1737.000	9.40039	5.98990	8.86657	5.14013
1738.000	9.44080	6.05131	8.86464	5.17526
1739.000	9.46388	5.99074	8.82603	5.10559
1740.000	9.41001	6.02273	8.83568	5.12886
1741.000	9.44080	5.97755	8.95147	5.11750
1742.000	9.41001	6.00138	8.86078	5.14216
1743.000	9.43887	6.02999	8.84147	5.16388
1744.000	9.43310	6.04368	8.81831	5.20125
1745.000	9.44849	6.00071	8.84340	5.13461
1746.000	9.41386	5.99161	8.82603	5.29472
1747.000	9.45619	5.99864	8.84147	5.13073
1748.000	9.42733	5.98943	8.82024	5.18368
1749.000	9.41579	5.98963	8.84727	5.21644
1750.000	9.42926	5.96805	8.95147	5.18378
1751.000	9.46004	6.00634	8.88008	5.20038
1752.000	9.40809	6.01306	8.92060	5.11793
1753.000	9.40424	6.02671	8.85113	5.10135
1754.000	9.42733	6.02631	8.87622	5.19069
1755.000	9.38500	6.03481	8.94375	5.17804
1756.000	9.44080	6.01832	8.81638	5.13303
1757.000	9.41386	6.03043	8.93411	5.18013
1758.000	9.36190	6.02744	8.86850	5.19275
1759.000	9.42348	6.04385	8.84147	5.08393
1760.000	9.42926	6.02434	8.87622	5.18094
1761.000	9.43118	5.99907	8.81638	5.15838
1762.000	9.46965	6.01781	8.71983	5.16362
1763.000	9.41579	5.98769	8.80286	5.20732
1764.000	9.41386	5.97802	8.86850	5.13231
1765.000	9.45619	5.97729	8.79321	5.16065
1766.000	9.43503	5.97183	8.84534	5.12483
1767.000	9.43118	6.01266	8.76038	5.22546
1768.000	9.41194	6.00523	8.85692	5.17537
1769.000	9.43503	6.01259	8.86271	5.14409
1770.000	9.39655	6.01326	8.86464	5.16551
1771.000	9.45042	5.93468	8.77583	5.16479
1772.000	9.39270	6.06961	8.84534	5.25936
1773.000	9.43310	5.98933	8.80093	5.16835
1774.000	9.40232	6.03839	8.82989	5.09189
1775.000	9.40232	6.05004	8.86464	5.16551
1776.000	9.41964	6.03809	8.84727	5.23399
1777.000	9.41194	6.01493	8.75073	5.12223
1778.000	9.41386	6.01684	8.82217	5.22654
1779.000	9.43695	6.00285	8.80286	5.19367
1780.000	9.40617	6.00144	8.82410	5.14267
1781.000	9.44849	6.00654	8.90516	5.15129
1782.000	9.35036	6.02182	8.83182	5.20691
1783.000	9.38885	6.04833	8.93411	5.12554
1784.000	9.41386	6.03043	8.80286	5.23266
1785.000	9.39462	6.03853	8.81252	5.26957
1786.000	9.41194	6.01493	8.78935	5.24845
1787.000	9.38692	6.00954	8.88973	5.19830
1788.000	9.40232	6.00539	8.79128	5.17823
1789.000	9.37345	6.03307	8.89166	5.16123
1790.000	9.38692	5.99983	8.74107	5.18478
1791.000	9.43503	6.00871	8.80866	5.12534
1792.000	9.40809	5.98006	8.83182	5.17962
1793.000	9.41579	5.95274	8.84147	5.14828
1794.000	9.37730	5.97864	8.85885	5.25527
1795.000	9.39847	6.01322	8.77390	5.19992
1796.000	9.39847	5.99381	8.86078	5.14996
1797.000	9.40809	6.00723	8.88394	5.17499
1798.000	9.39847	6.00158	8.79514	5.19963
1799.000	9.41964	5.97598	8.86271	5.21817
1800.000	9.37730	6.00000	8.81445	5.14866
1801.000	9.37923	5.95725	8.87236	5.17905
1802.000	9.36768	5.98463	8.92446	5.21925
1803.000	9.40424	5.99371	8.85499	5.11689
1804.000	9.37345	5.98065	8.83375	5.24588
1805.000	9.39655	6.01908	8.91867	5.19984
1806.000	9.36383	5.98470	8.89937	5.23325
1807.000	9.39077	5.98812	8.92446	5.18611
1808.000	9.37153	6.05251	8.93025	5.14704
1809.000	9.39847	5.99769	8.87236	5.19075
1810.000	9.39655	6.02102	8.73721	5.26478
1811.000	9.40039	5.98795	8.87622	5.16340
1812.000	9.41194	6.00717	8.86850	5.21809
1813.000	9.40617	6.00533	8.90130	5.19034
1814.000	9.37538	6.02721	8.86078	5.27863
1815.000	9.40617	5.99368	8.81638	5.23832
1816.000	9.37923	6.02326	8.91288	5.14339
1817.000	9.37153	5.98262	8.79900	5.19177
1818.000	9.40424	6.00342	8.81445	5.22080
1819.000	9.41001	5.98391	8.81445	5.21495
1820.000	9.41964	6.01674	8.76811	5.25070
1821.000	9.40232	6.00151	8.86078	5.17141
1822.000	9.41579	5.97022	8.81638	5.21883
1823.000	9.43118	5.96801	8.94568	5.11368
1824.000	9.38307	5.99990	8.84727	5.19695
1825.000	9.38885	6.03474	8.89359	5.17485
1826.000	9.40039	6.02484	8.90516	5.16494
1827.000	9.41001	5.96255	8.81445	5.15451
1828.000	9.38307	5.99213	8.76425	5.15520
1829.000	9.38692	5.99595	8.88008	5.27445
1830.000	9.40809	5.98976	8.93218	5.25032
1831.000	9.37345	6.00395	8.98040	5.12294
1832.000	9.40617	5.96456	8.84920	5.23201
1833.000	9.40424	5.96265	8.75652	5.26451
1834.000	9.38692	5.98042	8.89359	5.16120
1835.000	9.38500	5.95910	8.85499	5.14030
1836.000	9.41194	5.97028	8.84534	5.25546
1837.000	9.36575	5.97302	8.95533	5.19737
1838.000	9.39077	5.99394	8.84534	5.24181
1839.000	9.42156	5.96624	8.93218	5.14117
1840.000	9.38500	5.94356	8.86271	5.23182
1841.000	9.38307	5.99019	8.89359	5.17290
1842.000	9.41386	5.95666	8.82796	5.20502
1843.000	9.42156	5.96624	8.88780	5.16128
1844.000	9.43695	5.96403	8.89744	5.18454
1845.000	9.42156	5.94682	8.87622	5.20044
1846.000	9.41194	5.92369	8.92639	5.18998
1847.000	9.41771	5.93912	8.94182	5.22680
1848.000	9.38115	5.93198	8.86850	5.15961
1849.000	9.42733	5.96614	8.86078	5.18896
1850.000	9.40617	5.97232	8.91288	5.25255
1851.000	9.42348	5.97203	8.88201	5.10092
1852.000	9.44657	5.93669	8.89937	5.20986
1853.000	9.40424	5.97430	8.89744	5.22548
1854.000	9.42348	5.97203	8.92446	5.17052
1855.000	9.43310	5.99127	8.87236	5.23753
1856.000	9.41964	5.93909	8.87043	5.07768
1857.000	9.42541	5.97588	8.90902	5.16879
1858.000	9.40039	5.94330	8.93218	5.17626
1859.000	9.41194	5.97417	8.97462	5.14837
1860.000	9.44657	5.92892	8.91095	5.13562
1861.000	9.44465	5.99496	8.85692	5.17342
1862.000	9.43503	5.93688	8.85885	5.16169
1863.000	9.43887	5.93099	8.98619	5.12871
1864.000	9.40039	5.91806	8.85885	5.09929
1865.000	9.41194	5.85960	8.85113	5.07209
1866.000	9.38115	5.69497	8.98040	4.92795
1867.000	9.41579	5.55056	8.99776	4.76579
1868.000	9.42156	5.30345	9.03247	4.50182
1869.000	9.38115	5.10356	9.03055	4.34169
1870.000	9.31378	4.71867	9.05754	3.92312
1871.000	9.29260	4.30141	9.20401	3.53432
1872.000	9.29645	3.88726	9.30030	3.06569
1873.000	9.23483	3.47532	9.40809	2.71627
1874.000	9.14813	2.98670	9.43503	2.19499
1875.000	9.09995	2.44615	9.39847	1.76198
1876.000	9.04404	1.89328	9.39462	1.35209
1877.000	8.99776	1.35164	9.36383	0.76746
1878.000	8.95533	0.80764	9.41001	0.22963
1879.000	8.92060	0.23388	9.34458	-0.28464
1880.000	8.98812	-0.28099	9.30993	-0.65569
1881.000	8.95147	-0.66421	9.35228	-1.19725
1882.000	8.95340	-1.11216	9.39077	-1.72868
1883.000	8.96304	-1.50495	9.35613	-1.93868
1884.000	8.96111	-1.88390	9.29453	-2.31741
1885.000	8.87043	-2.24362	9.25216	-2.65675
1886.000	8.82410	-2.50491	9.27912	-2.99147
1887.000	8.85306	-2.83032	9.26757	-3.25781
1888.000	8.84727	-3.09895	9.17511	-3.54048
1889.000	8.84727	-3.33802	9.19052	-3.81805
1890.000	8.84920	-3.62982	9.28490	-4.08278
1891.000	8.89744	-3.82506	9.28105	-4.21759
1892.000	8.90516	-4.03039	9.24831	-4.38394
1893.000	8.92639	-4.21394	9.39270	-4.69811
1894.000	8.96111	-4.35424	9.43503	-4.81448
1895.000	8.89744	-4.55427	9.38885	-4.87164
1896.000	8.91288	-4.72785	9.45042	-4.99155
1897.000	8.95919	-4.84239	9.42348	-5.16524
1898.000	8.94375	-4.91479	9.42733	-5.29947
1899.000	9.00548	-4.99197	9.36960	-5.33148
1900.000	9.00741	-5.04654	9.45811	-5.35542
1901.000	9.06911	-5.06517	9.39847	-5.33104
1902.000	9.06140	-5.05748	9.38885	-5.32341
1903.000	9.04790	-4.98358	9.40809	-5.30171
1904.000	9.03826	-4.88425	9.29068	-5.14967
1905.000	9.09802	-4.80543	9.17704	-5.06754
1906.000	9.02476	-4.74006	9.21364	-4.96179
1907.000	9.04212	-4.64616	9.27142	-4.87132
1908.000	9.05561	-4.60110	9.32726	-4.74384
1909.000	9.04597	-4.43135	9.32533	-4.76531
1910.000	9.07104	-4.34901	9.26179	-4.66671
1911.000	9.08839	-4.29997	9.39270	-4.71566
1912.000	9.09802	-4.22562	9.34651	-4.69874
1913.000	9.07104	-4.22594	9.34458	-4.65586
1914.000	9.06718	-4.28069	9.35613	-4.65376
1915.000	9.06332	-4.28660	9.33303	-4.74376
1916.000	9.06140	-4.33936	9.41771	-4.87513
1917.000	9.04404	-4.40989	9.36768	-4.92844
1918.000	9.10188	-4.50095	9.47158	-5.10223
1919.000	9.08453	-4.57145	9.35036	-5.16048
1920.000	9.09995	-4.66688	9.38115	-5.23011
1921.000	9.08453	-4.78415	9.39462	-5.30775
1922.000	9.12886	-4.81282	9.36575	-5.39381
1923.000	9.14428	-4.95885	9.34843	-5.43688
1924.000	9.17318	-5.02862	9.33496	-5.51100
1925.000	9.16548	-5.04042	9.38500	-5.60744
1926.000	9.18860	-5.08881	9.37538	-5.63481
1927.000	9.15391	-5.09125	9.30608	-5.62620
1928.000	9.20016	-5.08085	9.30223	-5.70403
1929.000	9.17704	-5.08898	9.27720	-5.66555
1930.000	9.21749	-5.10204	9.23290	-5.67015
1931.000	9.22135	-5.08445	9.19052	-5.62609
1932.000	9.23290	-5.11155	9.20016	-5.60065
1933.000	9.21557	-5.08258	9.23098	-5.63906
1934.000	9.23290	-5.10376	9.13272	-5.56669
1935.000	9.27912	-5.03491	9.11344	-5.55531
1936.000	9.23868	-5.01016	9.14428	-5.63460
1937.000	9.25601	-5.00991	9.12886	-5.57453
1938.000	9.21749	-4.98512	8.99969	-5.49476
1939.000	9.25987	-4.98063	9.12501	-5.55513
1940.000	9.28297	-4.99589	9.12886	-5.47528
1941.000	9.25601	-5.02160	9.04597	-5.51742
1942.000	9.25987	-5.00011	9.04597	-5.44150
1943.000	9.25409	-4.97096	8.96690	-5.45242
1944.000	9.25216	-4.99243	9.06911	-5.43920
1945.000	9.26372	-4.98057	9.02476	-5.44766
1946.000	9.28297	-4.97056	9.01319	-5.44394
1947.000	9.26757	-4.98636	9.06332	-5.38282
1948.000	9.25216	-4.98463	9.04212	-5.45519
1949.000	9.28875	-4.96463	9.08453	-5.38251
1950.000	9.28875	-4.98801	9.05368	-5.43359
1951.000	9.28297	-4.97056	9.09610	-5.43296
1952.000	9.31378	-4.96428	9.10573	-5.40166
1953.000	9.29068	-4.94512	8.97655	-5.49122
1954.000	9.34073	-4.91323	9.11537	-5.44240
1955.000	9.30030	-4.95278	8.97847	-5.45030
1956.000	9.31763	-4.92525	9.09031	-5.39994
1957.000	9.27142	-4.92005	8.99969	-5.51034
1958.000	9.31763	-4.89017	9.15199	-5.41848
1959.000	9.27912	-4.95697	9.09802	-5.40567
1960.000	9.31571	-4.88825	9.03633	-5.35206
1961.000	9.30415	-4.94298	9.10188	-5.40172
1962.000	9.29838	-4.90798	9.09417	-5.39405
1963.000	9.32341	-4.89399	8.93989	-5.36907
1964.000	9.30223	-4.90013	8.99390	-5.39943
1965.000	9.31571	-4.93502	9.00933	-5.42257
1966.000	9.29453	-4.91193	8.98426	-5.34699
1967.000	9.28490	-4.92766	9.09610	-5.48746
1968.000	9.30223	-4.90793	8.95340	-5.37082
1969.000	9.31956	-4.97004	9.08260	-5.39422
1970.000	9.32726	-4.95824	9.11923	-5.38978
1971.000	9.29453	-4.94701	9.01898	-5.37764
1972.000	9.32533	-4.95242	9.09031	-5.46419
1973.000	9.34458	-4.97163	9.13657	-5.50047
1974.000	9.30608	-4.93321	9.04983	-5.36550
1975.000	9.35228	-4.98906	8.96883	-5.41149
1976.000	9.30993	-4.92146	9.05561	-5.45109
1977.000	9.33111	-4.95624	8.92639	-5.33420
1978.000	9.34458	-4.93851	9.12308	-5.51040
1979.000	9.36190	-4.94606	9.12308	-5.44812
1980.000	9.36190	-4.93827	9.12886	-5.52978
1981.000	9.32726	-4.96798	9.13657	-5.51604
1982.000	9.34843	-4.92287	9.10188	-5.47375
1983.000	9.33881	-4.99899	9.06140	-5.53470
1984.000	9.34843	-5.01639	9.09031	-5.50117
1985.000	9.34458	-4.94631	9.05176	-5.45699
1986.000	9.37730	-4.98480	9.14428	-5.50813
1987.000	9.32533	-4.97580	9.01319	-5.48483
1988.000	9.35036	-4.96960	9.04404	-5.49993
1989.000	9.34651	-4.95797	9.06718	-5.57549
1990.000	9.37923	-4.97699	9.09995	-5.57303
1991.000	9.34651	-4.98914	8.98233	-5.55343
1992.000	9.35228	-4.96178	9.02283	-5.52751
1993.000	9.37923	-4.99452	9.15199	-5.51191
1994.000	9.36768	-4.94793	8.97847	-5.55154
1995.000	9.33881	-5.00289	8.91867	-5.44340
1996.000	9.35228	-4.98321	9.05947	-5.44130
1997.000	9.33303	-5.01661	9.04983	-5.52904
1998.000	9.32533	-4.99139	8.98812	-5.49104
1999.000	9.34073	-4.98338	9.08260	-5.53438
2000.000	9.31956	-5.00121	9.14813	-5.61509
2001.000	9.36960	-4.96349	9.04597	-5.51742
2002.000	9.35805	-4.95780	9.10959	-5.54564
2003.000	9.35228	-4.96178	9.04790	-5.46483
2004.000	9.33303	-4.97180	9.12501	-5.58043
2005.000	9.34651	-4.99499	9.03826	-5.56036
2006.000	9.31956	-4.97199	8.95340	-5.62005
2007.000	9.26757	-4.96103	9.05368	-5.51341
2008.000	9.32726	-4.96214	9.05561	-5.57761
2009.000	9.33881	-5.00678	9.09802	-5.61587
2010.000	9.32533	-4.98944	9.01705	-5.53928
2011.000	9.36960	-4.95764	9.08067	-5.56555
2012.000	9.31186	-4.97794	8.94761	-5.47802
2013.000	9.34458	-4.98138	9.02090	-5.57036
2014.000	9.31956	-4.95056	9.03247	-5.54683
2015.000	9.33881	-4.92300	9.04404	-5.57584
2016.000	9.37345	-4.98096	9.04983	-5.54851
2017.000	9.38500	-4.98859	9.04404	-5.56222
2018.000	9.35036	-4.98324	9.03826	-5.57593
2019.000	9.36960	-5.00634	9.01898	-5.55092
2020.000	9.32918	-4.98159	9.08839	-5.61602
2021.000	9.40809	-4.96878	9.01898	-5.51978
2022.000	9.34843	-4.92482	9.08067	-5.46434
2023.000	9.37730	-5.01402	9.00741	-5.52774
2024.000	9.33688	-5.01460	9.05368	-5.53288
2025.000	9.35421	-4.97150	8.99776	-5.56682
2026.000	9.33496	-4.99515	8.95726	-5.51293
2027.000	9.32918	-4.95821	9.09224	-5.52839
2028.000	9.36768	-4.95962	9.05561	-5.53090
2029.000	9.33496	-4.98346	9.04597	-5.55635
2030.000	9.32533	-4.97386	8.99583	-5.51429
2031.000	9.36768	-4.97131	8.91288	-5.55254
2032.000	9.32533	-4.96996	9.07489	-5.52671
2033.000	9.36768	-4.96741	8.99969	-5.52007
2034.000	9.37923	-4.97893	9.01705	-5.53149
2035.000	9.34266	-4.99699	8.96304	-5.49142
2036.000	9.32726	-4.96603	9.00933	-5.56859
2037.000	9.34458	-4.94436	9.03633	-5.59153
2038.000	9.34073	-4.93857	9.01319	-5.50040
2039.000	9.36190	-4.98697	9.05754	-5.53282
2040.000	9.36190	-4.97334	9.01898	-5.58401
2041.000	9.37345	-4.95369	9.01126	-5.48096
2042.000	9.37345	-4.96927	8.97076	-5.49715
2043.000	9.32341	-4.99531	9.10959	-5.55537
2044.000	9.33111	-4.94844	9.05368	-5.56207
2045.000	9.31956	-4.98758	9.02090	-5.47887
2046.000	9.36960	-4.97517	9.00355	-5.58425
2047.000	9.35805	-5.02014	8.97462	-5.55355
2048.000	9.33111	-4.99326	8.94954	-5.51304
2049.000	9.35998	-4.96362	8.97847	-5.51650
2050.000	9.35228	-5.01049	8.99390	-5.57467
2051.000	9.32148	-4.99924	8.93603	-5.48988
2052.000	9.34073	-5.01455	9.06525	-5.55216
2053.000	9.35805	-4.99092	9.04019	-5.53698
2054.000	9.35613	-4.98121	8.99969	-5.48503
2055.000	9.35421	-5.01825	9.03633	-5.45917
2056.000	9.35421	-4.99488	9.02669	-5.43595
2057.000	9.36768	-4.95962	8.97076	-5.47573
2058.000	9.34843	-5.03002	9.05754	-5.41212
2059.000	9.36383	-5.00253	8.87043	-5.50839
2060.000	9.32918	-4.99718	8.93796	-5.42558
2061.000	9.35805	-5.01430	9.00933	-5.41868
2062.000	9.37730	-5.01013	8.90130	-5.38132
2063.000	9.35998	-4.99674	9.00548	-5.51804
2064.000	9.39655	-4.98453	9.05176	-5.47256
2065.000	9.35228	-4.97347	8.96111	-5.42134
2066.000	9.35613	-4.95783	9.01319	-5.44394
2067.000	9.33688	-4.96395	8.99776	-5.43443
2068.000	9.35421	-4.98319	8.94182	-5.46253
2069.000	9.31763	-4.95448	9.00355	-5.43045
2070.000	9.34266	-4.97361	9.09610	-5.43296
2071.000	9.33111	-5.01663	9.01512	-5.44975
2072.000	9.33111	-4.98741	9.07682	-5.43909
2073.000	9.34073	-4.99312	9.04404	-5.43958
2074.000	9.31186	-4.92533	9.04790	-5.48235
2075.000	9.31763	-4.95253	8.91867	-5.42587
2076.000	9.31956	-4.95640	9.05947	-5.39651
2077.000	9.34458	-4.97748	8.98812	-5.45210
2078.000	9.32726	-4.99916	8.92832	-5.43157
2079.000	9.34266	-5.00283	9.00162	-5.50447
2080.000	9.36575	-4.97328	8.99005	-5.38975
2081.000	9.33688	-4.99512	8.93603	-5.47041
2082.000	9.34651	-5.00667	8.95919	-5.41163
2083.000	9.31378	-4.98766	9.02283	-5.40095
2084.000	9.38500	-5.03534	9.01319	-5.47509
2085.000	9.34651	-4.95992	8.95726	-5.44283
2086.000	9.34651	-4.97161	9.03633	-5.40270
2087.000	9.36190	-5.04736	9.12693	-5.49672
2088.000	9.36768	-4.99663	8.94375	-5.42160
2089.000	9.38692	-5.01778	8.99776	-5.48311
2090.000	9.41579	-4.99010	8.99390	-5.43254
2091.000	9.35613	-5.01822	8.94761	-5.38648
2092.000	9.36575	-5.01029	9.02283	-5.45353
2093.000	9.39077	-5.04110	9.00741	-5.39339
2094.000	9.39462	-5.00598	8.96497	-5.42324
2095.000	9.38885	-4.99438	9.01319	-5.42446
2096.000	9.37153	-5.06085	9.03055	-5.50403
2097.000	9.35998	-5.02206	8.99198	-5.44425
2098.000	9.31956	-4.97589	9.01512	-5.43417
2099.000	9.36768	-4.97910	8.97462	-5.43867
2100.000	9.32533	-4.99334	9.03055	-5.50792
2101.000	9.38885	-5.01191	9.04019	-5.45911
2102.000	9.35228	-4.98321	9.01512	-5.48869
2103.000	9.34073	-5.03013	9.06718	-5.44897
2104.000	9.37345	-4.98291	9.03440	-5.42804
2105.000	9.36768	-4.96741	8.96690	-5.47579
2106.000	9.35036	-5.03584	9.01126	-5.45760
2107.000	9.34073	-5.02234	9.05947	-5.45492
2108.000	9.37923	-5.02763	8.97847	-5.55349
2109.000	9.34651	-4.98719	9.02283	-5.42627
2110.000	9.33303	-5.01856	9.03826	-5.45524
2111.000	9.31763	-5.02267	9.00741	-5.38365
2112.000	9.33496	-5.00684	9.02669	-5.43205
2113.000	9.34458	-4.98722	8.96883	-5.46797
2114.000	9.36190	-5.02009	9.05561	-5.44914
2115.000	9.32341	-5.05376	8.98812	-5.40731
2116.000	9.34458	-5.02813	9.04404	-5.38506
2117.000	9.35228	-5.01828	9.04212	-5.48244
2118.000	9.35998	-5.01232	9.06718	-5.53851
2119.000	9.32918	-5.01666	9.05947	-5.43935
2120.000	9.36960	-5.03556	9.11152	-5.39573
2121.000	9.35613	-5.00848	9.08453	-5.52851
2122.000	9.34073	-5.03792	9.01512	-5.43612
2123.000	9.34651	-4.97550	8.97269	-5.47959
2124.000	9.33303	-5.05362	8.98812	-5.47936
2125.000	9.35613	-5.02407	9.00741	-5.40897
2126.000	9.33881	-4.97756	8.99969	-5.44219
2127.000	9.36383	-5.01617	9.05176	-5.41026
2128.000	9.32533	-5.03035	8.99198	-5.44231
2129.000	9.32918	-5.01861	8.96497	-5.47776
2130.000	9.35421	-5.01436	9.05176	-5.33820
2131.000	9.39270	-5.01965	9.08839	-5.41555
2132.000	9.33881	-4.96977	8.99969	-5.40130
2133.000	9.32148	-5.05379	8.98619	-5.42292
2134.000	9.33111	-4.99910	8.98233	-5.40934
2135.000	9.32533	-5.02646	9.01705	-5.38156
2136.000	9.33688	-5.06330	8.99005	-5.39170
2137.000	9.31956	-5.04018	8.98619	-5.37033
2138.000	9.34458	-5.01839	8.97847	-5.42693
2139.000	9.37730	-5.03350	9.06718	-5.36329
2140.000	9.35228	-5.04750	8.96304	-5.38236
2141.000	9.41001	-5.05835	9.07104	-5.37881
2142.000	9.34458	-5.01449	8.99583	-5.39746
2143.000	9.30223	-5.01900	9.10959	-5.46195
2144.000	9.33496	-5.01074	9.04212	-5.37924
2145.000	9.33881	-4.95613	8.95919	-5.47201
2146.000	9.35036	-5.03584	9.06525	-5.40032
2147.000	9.36768	-4.98494	8.96690	-5.47773
2148.000	9.37730	-5.02376	9.01126	-5.40697
2149.000	9.32726	-4.99721	8.94182	-5.45279
2150.000	9.32341	-4.98557	9.06140	-5.42569
2151.000	9.36960	-5.03167	9.02476	-5.45739
2152.000	9.34073	-4.99507	9.05561	-5.47250
2153.000	9.34458	-4.99306	8.95726	-5.32595
2154.000	9.38500	-5.01781	9.02669	-5.42426
2155.000	9.36383	-5.00253	8.99776	-5.39353
2156.000	9.35228	-5.02023	9.03247	-5.40081
2157.000	9.37153	-4.98684	9.02476	-5.47297
2158.000	9.37730	-5.04519	9.06525	-5.37501
2159.000	9.35228	-5.00270	9.09224	-5.39797
2160.000	9.33496	-4.97762	8.98040	-5.41716
2161.000	9.33496	-4.97567	9.04212	-5.36172
2162.000	9.33303	-5.00687	9.12308	-5.39167
2163.000	9.35421	-4.97345	8.98812	-5.42289
2164.000	9.35228	-5.01049	9.09610	-5.39986
2165.000	9.35998	-4.99869	8.89359	-5.30934
2166.000	9.35228	-4.98711	8.96690	-5.43489
2167.000	9.33496	-5.01853	9.04983	-5.40444
2168.000	9.33688	-4.97564	9.05561	-5.37320
2169.000	9.32918	-4.97185	9.04983	-5.42586
2170.000	9.35421	-4.98513	9.00548	-5.35447
2171.000	9.33496	-5.03801	9.09031	-5.46614
2172.000	9.34073	-5.00286	9.05176	-5.42583
2173.000	9.36575	-4.98107	8.91867	-5.43755
2174.000	9.34073	-5.04961	9.11344	-5.46968
2175.000	9.36383	-4.97526	9.01319	-5.42252
2176.000	9.38115	-5.02176	9.08067	-5.41761
2177.000	9.35421	-5.04357	9.08453	-5.45454
2178.000	9.33881	-5.02626	9.05176	-5.43362
2179.000	9.35036	-5.01636	9.11923	-5.39756
2180.000	9.29453	-4.99378	9.02862	-5.46512
2181.000	9.33303	-5.00687	8.97847	-5.37045
2182.000	9.32726	-5.04591	9.06718	-5.38861
2183.000	9.32341	-5.02064	9.02283	-5.46132
2184.000	9.33881	-5.03795	9.02090	-5.38151
2185.000	9.32918	-5.03225	9.04404	-5.34416
2186.000	9.34073	-5.00676	9.05754	-5.39849
2187.000	9.35421	-4.97929	9.09417	-5.40183
2188.000	9.35421	-5.00851	9.02090	-5.39124
2189.000	9.35228	-5.01633	9.05561	-5.38294
2190.000	9.35421	-5.01436	9.06332	-5.41593
2191.000	9.35421	-5.02604	8.98233	-5.48334
2192.000	9.38885	-4.99633	8.96304	-5.39015
2193.000	9.34458	-5.02423	9.10959	-5.39187
2194.000	9.34073	-5.04961	9.09802	-5.36673
2195.000	9.39462	-5.02351	9.08646	-5.39416
2196.000	9.32918	-5.01082	9.05368	-5.46864
2197.000	9.34073	-5.08467	9.10766	-5.46977
2198.000	9.33303	-5.08284	9.04983	-5.39666
2199.000	9.34458	-5.07098	8.97269	-5.40754
2200.000	9.33688	-5.04382	9.06911	-5.41195
2201.000	9.35036	-5.06311	9.01319	-5.37578
2202.000	9.32918	-5.04783	9.04019	-5.51167
2203.000	9.32918	-5.01861	8.96111	-5.37070
2204.000	9.34266	-5.05543	9.11537	-5.28078
2205.000	9.34458	-5.04761	9.02283	-5.39706
2206.000	9.38885	-5.07423	9.04212	-5.43961
2207.000	9.33496	-5.06723	9.04790	-5.41810
2208.000	9.35421	-5.02020	9.14428	-5.39719
2209.000	9.35228	-5.04165	9.10766	-5.42499
2210.000	9.31378	-5.05000	9.09031	-5.42136
2211.000	9.20401	-5.00285	8.98233	-5.40740
2212.000	9.07104	-4.94622	8.87429	-5.35054
2213.000	8.85692	-4.87302	8.60003	-5.31545
2214.000	8.57490	-4.85324	8.44921	-5.30193
2215.000	8.27505	-4.72600	8.12398	-5.25552
2216.000	7.85642	-4.59188	7.75551	-5.18006
2217.000	7.46805	-4.39216	7.38641	-5.02005
2218.000	6.94461	-4.18906	6.88032	-4.80991
2219.000	6.47661	-3.80161	6.41415	-4.67112
2220.000	5.98428	-3.57266	5.95690	-4.41560
2221.000	5.53415	-3.19465	5.47147	-4.14756
2222.000	4.99898	-2.89898	5.02645	-3.91979
2223.000	4.55921	-2.41008	4.60832	-3.40280
2224.000	4.17986	-2.12603	4.06579	-3.10853
2225.000	3.79031	-1.76220	3.77259	-2.64627
2226.000	3.54419	-1.31029	3.42404	-2.32420
2227.000	3.33538	-0.98896	3.14226	-1.97970
2228.000	3.10678	-0.70518	2.91554	-1.56327
2229.000	2.88990	-0.41923	2.80313	-1.23576
2230.000	2.81891	-0.17685	2.59008	-0.87042
2231.000	2.68083	0.00000	2.48156	-0.72741
2232.000	2.62362	0.20072	2.39671	-0.44524
2233.000	2.58022	0.28420	2.25854	-0.39161
2234.000	2.47367	0.34186	2.25854	-0.30613
2235.000	2.39473	0.32598	2.10061	-0.23658
2236.000	2.27433	0.32799	1.92488	-0.25450
2237.000	2.19143	0.27235	2.00386	-0.27437
2238.000	2.14997	0.22266	1.97227	-0.38770
2239.000	2.14010	0.13718	1.91500	-0.50900
2240.000	2.16971	0.08747	1.90908	-0.60642
2241.000	2.20327	0.00199	1.89723	-0.60443
2242.000	2.24275	0.03379	1.94265	-0.67002
2243.000	2.23091	-0.03777	2.04730	-0.72962
2244.000	2.25460	-0.09741	2.09271	-0.64810
2245.000	2.27828	-0.05367	2.18156	-0.65601
2246.000	2.30197	-0.07355	2.31973	-0.69967
2247.000	2.29407	-0.10536	2.36118	-0.70363
2248.000	2.35329	-0.14312	2.48748	-0.66978
2249.000	2.36513	-0.13914	2.62560	-0.84456
2250.000	2.37697	-0.22660	2.60587	-0.75317
2251.000	2.38289	-0.24648	2.58417	-0.80485
2252.000	2.37894	-0.29219	2.62560	-0.84655
2253.000	2.36710	-0.38959	2.63152	-0.90218
2254.000	2.30789	-0.34190	2.68675	-0.91406
2255.000	2.32565	-0.40948	2.60192	-1.01545
2256.000	2.26841	-0.40751	2.58417	-1.04924
2257.000	2.20130	-0.44530	2.51511	-0.91418
2258.000	2.19143	-0.35187	2.41644	-0.99373
2259.000	2.11048	-0.33201	2.29802	-0.88650
2260.000	2.09864	-0.31014	2.20919	-0.83886
2261.000	2.05520	-0.23062	2.21117	-0.74147
2262.000	2.02953	-0.16303	2.15787	-0.86870
2263.000	1.99202	-0.05169	2.02558	-0.69583
2264.000	1.94857	-0.01591	2.01374	-0.54475
2265.000	1.91698	0.09345	1.93475	-0.49905
2266.000	1.94067	0.18292	1.87551	-0.43346
2267.000	1.84786	0.22867	1.81428	-0.38575
2268.000	1.85971	0.33603	1.81428	-0.27241
2269.000	1.85378	0.31019	1.78663	-0.15510
2270.000	1.86366	0.36188	1.79058	-0.22867
2271.000	1.81033	0.41558	1.66219	-0.16505
2272.000	1.85773	0.39966	1.71553	-0.15709
2273.000	1.83403	0.35195	1.75700	-0.12925
2274.000	1.90908	0.36187	1.79848	-0.11931
2275.000	1.94462	0.35192	1.79256	-0.11533
2276.000	1.89328	0.40363	1.79848	-0.19487
2277.000	1.96832	0.33800	1.80243	-0.12328
2278.000	1.94660	0.30619	1.86958	-0.22866
2279.000	1.98609	0.31215	1.82613	-0.30423
2280.000	1.94067	0.25649	1.87946	-0.32211
2281.000	2.00781	0.26642	1.90710	-0.30819
2282.000	1.98214	0.25648	1.88735	-0.29825
2283.000	2.00781	0.30022	1.97622	-0.35390
2284.000	1.92883	0.22468	1.93870	-0.34397
2285.000	1.98017	0.25449	1.96437	-0.33800
2286.000	1.96240	0.25251	1.97622	-0.41753
2287.000	1.96832	0.24853	1.93672	-0.42748
2288.000	1.97819	0.21871	1.93475	-0.37777
2289.000	1.97622	0.22070	2.00979	-0.38571
2290.000	1.94660	0.23859	1.98807	-0.38174
2291.000	1.92883	0.19684	2.03348	-0.41751
2292.000	1.95647	0.23462	1.97819	-0.44138
2293.000	1.93870	0.19684	2.05323	-0.45727
2294.000	1.93870	0.17895	1.98412	-0.44933
2295.000	1.93080	0.15111	2.09074	-0.43340
2296.000	1.92685	0.19684	1.95845	-0.40560
2297.000	1.95450	0.19684	1.92093	-0.50701
2298.000	1.93080	0.13123	1.96437	-0.38373
2299.000	1.98807	0.22865	1.93475	-0.47917
2300.000	1.97227	0.20081	1.98412	-0.38770
2301.000	1.91500	0.20480	2.00979	-0.46324
2302.000	1.99399	0.22865	1.88933	-0.46526
2303.000	1.92290	0.17099	1.95647	-0.49308
2304.000	1.95450	0.21672	1.94462	-0.34397
2305.000	1.96635	0.17894	1.94067	-0.36385
2306.000	1.95055	0.21871	1.97029	-0.37975
2307.000	1.97227	0.18690	1.94660	-0.30023
2308.000	1.96437	0.22467	1.93278	-0.37181
2309.000	1.96042	0.23859	1.93475	-0.41157
2310.000	1.98017	0.22467	1.97227	-0.39367
2311.000	1.95252	0.22269	1.94265	-0.42549
2312.000	2.00781	0.22268	1.95252	-0.42151
2313.000	1.96437	0.23461	1.93080	-0.42549
2314.000	1.98017	0.24654	1.94857	-0.39765
2315.000	1.97424	0.20479	1.97622	-0.39963
2316.000	1.96437	0.28034	1.99794	-0.45529
2317.000	1.92488	0.20082	1.92290	-0.42549
2318.000	1.99004	0.21672	1.87551	-0.36586
2319.000	1.97424	0.23660	1.97227	-0.45133
2320.000	1.97819	0.20280	1.94265	-0.38970
2321.000	1.96832	0.21274	1.96042	-0.37578
2322.000	1.95450	0.21274	1.93475	-0.37578
2323.000	1.99597	0.23859	1.94462	-0.37181
2324.000	1.95252	0.22666	1.93080	-0.41555
2325.000	1.93278	0.17895	1.95252	-0.35590
2326.000	1.97227	0.23262	1.95450	-0.42350
2327.000	1.94462	0.21672	1.97227	-0.39566
2328.000	1.93278	0.19485	1.92488	-0.43543
2329.000	1.99597	0.25250	1.97424	-0.36186
2330.000	1.96240	0.21274	1.94462	-0.37777
2331.000	2.00386	0.27636	1.95845	-0.35788
2332.000	1.95647	0.24456	1.90513	-0.34795
2333.000	1.93080	0.22667	1.97227	-0.38572
2334.000	1.93278	0.20082	1.93672	-0.34198
2335.000	1.94462	0.28234	1.90908	-0.34795
2336.000	1.93278	0.21474	1.91895	-0.39965
2337.000	1.96042	0.19883	1.89525	-0.38772
2338.000	1.92685	0.22667	1.98412	-0.35788
2339.000	1.96832	0.24257	2.03743	-0.39564
2340.000	1.95647	0.21076	1.91500	-0.42351
2341.000	1.96437	0.20280	1.99004	-0.40559
2342.000	1.96240	0.28830	1.93475	-0.43941
2343.000	1.92093	0.21275	1.91500	-0.39965
2344.000	1.95647	0.20280	1.94857	-0.41753
2345.000	1.94265	0.23859	2.05718	-0.41353
2346.000	1.95055	0.21473	1.96437	-0.34794
2347.000	1.95055	0.24058	1.97622	-0.42548
2348.000	1.95252	0.24257	2.01769	-0.35588
2349.000	1.95252	0.21275	1.96042	-0.34993
2350.000	1.93278	0.28631	1.94067	-0.42549
2351.000	1.98412	0.20678	2.01769	-0.39962
2352.000	1.92093	0.25649	1.96832	-0.39168
2353.000	1.95647	0.20280	1.99202	-0.36583
2354.000	1.93870	0.17497	1.99399	-0.35788
2355.000	1.96437	0.22268	2.00386	-0.37974
2356.000	1.94660	0.18491	2.05915	-0.45727
2357.000	1.94857	0.24853	1.90908	-0.39965
2358.000	1.93672	0.19485	2.05520	-0.44136
2359.000	1.98017	0.20479	1.93870	-0.35988
2360.000	1.96042	0.19684	1.94067	-0.38374
2361.000	1.92883	0.23661	2.00979	-0.39565
2362.000	1.95647	0.20280	1.93672	-0.42350
2363.000	1.89525	0.17696	1.95055	-0.39566
2364.000	1.96832	0.21274	1.91895	-0.45929
2365.000	1.94660	0.24853	1.90710	-0.40363
2366.000	1.99597	0.22268	1.95845	-0.33999
2367.000	1.94067	0.22468	1.99794	-0.40758
2368.000	1.92883	0.22865	1.93672	-0.35391
2369.000	1.94265	0.21871	1.98017	-0.36384
2370.000	1.94660	0.23263	1.93870	-0.33999
2371.000	1.96635	0.24654	1.93475	-0.35789
2372.000	1.95450	0.24456	2.07495	-0.39364
2373.000	1.98214	0.29028	2.04730	-0.43938
2374.000	1.94067	0.22865	1.98017	-0.44138
2375.000	2.00386	0.24455	1.96635	-0.39765
2376.000	1.97622	0.23461	2.05323	-0.37973
2377.000	1.98807	0.30221	2.00386	-0.35986
2378.000	1.97424	0.25847	1.93672	-0.39169
2379.000	1.94462	0.22666	1.93672	-0.38970
2380.000	1.99794	0.23660	1.95450	-0.36385
2381.000	1.99597	0.26642	1.97819	-0.46524
2382.000	1.96437	0.23660	1.91303	-0.40561
2383.000	1.99399	0.28431	2.02163	-0.39962
2384.000	1.99202	0.25449	1.99597	-0.42746
2385.000	1.96832	0.25251	1.88933	-0.45930
2386.000	1.97819	0.21075	1.93870	-0.41754
2387.000	1.93672	0.18889	1.98214	-0.39764
2388.000	1.98412	0.21672	1.95845	-0.36186
2389.000	1.93080	0.22468	2.01571	-0.33600
2390.000	1.98412	0.23660	1.98412	-0.33402
2391.000	1.98017	0.20877	1.99202	-0.34992
2392.000	1.95252	0.21275	1.95252	-0.34198
2393.000	1.97622	0.23660	2.01966	-0.33600
2394.000	1.98412	0.24058	2.03151	-0.34793
2395.000	1.99794	0.22864	2.04138	-0.41154
2396.000	1.98017	0.25251	1.99202	-0.36583
2397.000	1.96437	0.23660	1.98214	-0.33203
2398.000	1.98214	0.21871	1.98609	-0.30221
2399.000	1.97424	0.27239	1.92093	-0.31614
2400.000	2.00979	0.27835	1.97622	-0.43741
2401.000	1.99004	0.25052	1.96042	-0.41157
2402.000	2.00979	0.23262	1.88735	-0.29626
2403.000	1.96635	0.22467	1.95845	-0.42747
2404.000	1.99202	0.26245	1.93870	-0.38374
2405.000	1.97819	0.24257	1.95450	-0.34993
2406.000	2.02953	0.25250	1.95845	-0.30619
2407.000	1.95450	0.21274	2.00189	-0.33004
2408.000	2.01176	0.22069	2.03546	-0.41353
2409.000	1.99202	0.21870	1.96042	-0.38373
2410.000	2.04533	0.26641	1.98609	-0.39367
2411.000	1.99399	0.25648	1.93278	-0.30620
2412.000	2.03151	0.24057	2.07297	-0.34991
2413.000	2.02558	0.23858	1.95450	-0.39765
2414.000	1.98807	0.23660	2.03941	-0.40757
2415.000	2.00386	0.23063	2.04138	-0.38570
2416.000	2.03348	0.23063	2.02361	-0.38173
2417.000	2.01374	0.27238	1.94265	-0.31812
2418.000	2.00584	0.22864	1.93672	-0.29228
2419.000	2.01374	0.26443	1.97819	-0.28034
2420.000	1.98609	0.22467	1.91303	-0.32211
2421.000	1.96832	0.22865	1.87156	-0.31615
2422.000	1.96832	0.19684	1.94265	-0.35192
2423.000	1.96437	0.23660	1.94660	-0.36186
2424.000	1.99597	0.26244	1.90118	-0.34000
2425.000	2.01374	0.26443	1.89328	-0.31614
2426.000	2.01769	0.26045	2.02953	-0.37974
2427.000	2.01374	0.24057	2.05323	-0.30419
2428.000	1.96832	0.18690	1.93080	-0.35391
2429.000	1.94462	0.22468	1.98017	-0.35192
2430.000	2.02558	0.25051	1.98017	-0.34396
2431.000	1.98017	0.21871	2.04533	-0.36979
2432.000	1.93475	0.22070	1.96832	-0.34794
2433.000	2.01374	0.23858	1.95845	-0.34397
2434.000	1.92685	0.22468	1.93475	-0.29427
2435.000	1.98609	0.28034	1.97622	-0.37577
2436.000	1.94857	0.20877	1.94857	-0.28233
2437.000	1.98807	0.24256	1.98017	-0.34396
2438.000	1.98017	0.25251	2.03348	-0.44932
2439.000	1.94067	0.22468	2.00189	-0.33601
2440.000	1.95845	0.21672	1.91895	-0.31614
2441.000	1.97227	0.25648	1.97424	-0.33800
2442.000	1.93672	0.24456	1.99991	-0.38372
2443.000	1.98609	0.26443	1.99004	-0.39565
2444.000	1.93475	0.24655	1.98017	-0.38373
2445.000	1.97227	0.28034	1.96437	-0.40162
2446.000	1.98214	0.28233	1.96042	-0.36783
2447.000	1.96832	0.24853	1.99991	-0.33998
2448.000	1.99004	0.26642	1.98807	-0.33601
2449.000	1.97029	0.28432	1.96240	-0.38771
2450.000	1.97424	0.27040	1.92488	-0.37777
2451.000	1.95055	0.22070	1.99597	-0.39366
2452.000	1.95845	0.24654	1.92290	-0.22468
2453.000	1.96437	0.21473	1.96635	-0.27637
2454.000	1.93475	0.24257	1.98609	-0.34993
2455.000	1.94462	0.24257	2.03348	-0.28828
2456.000	1.96832	0.21075	2.00584	-0.35191
2457.000	1.92290	0.20678	1.97029	-0.38373
2458.000	1.97029	0.22865	2.01769	-0.33600
2459.000	1.97227	0.27637	1.93672	-0.32011
2460.000	1.94660	0.33204	1.99004	-0.39963
2461.000	1.95252	0.21473	1.99991	-0.38173
2462.000	1.93475	0.25450	1.97622	-0.36583
2463.000	1.92685	0.26246	2.01769	-0.28630
2464.000	1.97424	0.23660	1.95055	-0.40361
2465.000	1.98807	0.27437	2.03546	-0.34395
2466.000	1.96042	0.22269	1.98412	-0.33601
2467.000	1.95450	0.23064	1.97424	-0.28432
2468.000	1.96240	0.25450	2.00386	-0.27437
2469.000	1.97819	0.24654	2.00386	-0.36583
2470.000	1.97424	0.21274	2.04928	-0.29226
2471.000	1.94067	0.20082	2.04335	-0.35787
2472.000	1.96042	0.26841	1.99597	-0.32209
2473.000	1.95055	0.26444	1.95845	-0.28631
2474.000	1.97424	0.19286	1.99202	-0.36583
2475.000	1.95252	0.20678	2.00584	-0.35191
2476.000	1.97029	0.23263	2.03546	-0.33202
2477.000	1.96832	0.23461	2.04533	-0.32009
2478.000	1.94067	0.19883	2.04335	-0.36383
2479.000	1.95845	0.24257	1.98412	-0.33203
2480.000	1.94462	0.23661	2.03941	-0.29624
2481.000	1.99202	0.30022	1.99399	-0.27835
2482.000	1.94857	0.27040	2.03941	-0.30816
2483.000	2.01374	0.24654	1.97819	-0.26046
2484.000	1.93475	0.27041	1.95450	-0.36783
2485.000	1.98412	0.30022	1.98807	-0.23461
2486.000	1.94067	0.25450	1.88143	-0.22468
2487.000	1.89723	0.24854	1.93080	-0.25450
2488.000	1.82021	0.26048	1.81428	-0.21674
2489.000	1.67404	0.29232	1.83403	-0.22270
2490.000	1.47649	0.30428	1.59108	-0.30029
2491.000	1.29867	0.25259	1.35004	-0.28043
2492.000	0.99236	0.23671	1.00026	-0.25063
2493.000	0.62668	0.22280	0.82238	-0.41375
2494.000	0.25108	0.20491	0.40726	-0.37400
2495.000	-0.32422	0.15716	0.04349	-0.51724
2496.000	-0.80854	-0.00597	-0.44482	-0.56099
2497.000	-1.18406	-0.00796	-0.77889	-0.70615
2498.000	-1.68392	-0.14715	-1.25124	-0.92081
2499.000	-2.11048	-0.25447	-1.63849	-1.04391
2500.000	-2.52103	-0.44917	-1.94067	-1.15703
2501.000	-2.75776	-0.51267	-2.26447	-1.23826
2502.000	-2.95103	-0.59006	-2.39671	-1.41495
2503.000	-3.16591	-0.73096	-2.57825	-1.51804
2504.000	-3.29204	-0.85795	-2.72620	-1.55558
2505.000	-3.38267	-0.92737	-2.69267	-1.62711
2506.000	-3.42010	-1.02660	-2.70451	-1.58937
2507.000	-3.27824	-1.10418	-2.72423	-1.71046
2508.000	-3.22504	-1.14593	-2.69267	-1.71845
2509.000	-3.25854	-1.27891	-2.73015	-1.83950
2510.000	-3.24474	-1.29878	-2.76368	-1.87319
2511.000	-3.23686	-1.34842	-2.99638	-2.01172
2512.000	-3.28612	-1.39600	-3.09101	-2.12463
2513.000	-3.43389	-1.51486	-3.16591	-2.20977
2514.000	-3.46738	-1.50489	-3.40434	-2.40751
2515.000	-3.62690	-1.61573	-3.69778	-2.45233
2516.000	-3.82377	-1.71850	-3.72141	-2.60285
2517.000	-3.92807	-1.79166	-4.03825	-2.58603
2518.000	-4.05399	-1.93015	-4.18773	-2.74393
2519.000	-4.04218	-1.94405	-4.08546	-2.74824
2520.000	-4.05202	-1.95989	-4.15233	-2.74405
2521.000	-4.06972	-1.99948	-4.19756	-2.78348
2522.000	-4.01661	-1.99961	-4.13856	-2.79359
2523.000	-3.88084	-1.95633	-3.94971	-2.63780
2524.000	-3.79227	-1.89903	-3.78637	-2.54520
2525.000	-3.65841	-1.80015	-3.72338	-2.44631
2526.000	-3.59343	-1.75466	-3.53238	-2.38935
2527.000	-3.48904	-1.66756	-3.48904	-2.27447
2528.000	-3.36494	-1.59237	-3.41222	-2.18543
2529.000	-3.31962	-1.55473	-3.26445	-2.15005
2530.000	-3.29204	-1.43172	-3.26642	-2.13815
2531.000	-3.30189	-1.36819	-3.36297	-2.11612
2532.000	-3.31765	-1.36022	-3.35706	-2.09829
2533.000	-3.34918	-1.33239	-3.38661	-2.20531
2534.000	-3.39055	-1.28867	-3.44965	-2.18931
2535.000	-3.49101	-1.30838	-3.58555	-2.21476
2536.000	-3.51465	-1.31430	-3.61312	-2.31381
2537.000	-3.64265	-1.35380	-3.75291	-2.36696
2538.000	-3.73322	-1.43303	-3.85132	-2.37065
2539.000	-3.83164	-1.46857	-3.89068	-2.37054
2540.000	-3.89068	-1.48037	-3.97333	-2.50502
2541.000	-3.90249	-1.53589	-3.99890	-2.44354
2542.000	-3.97923	-1.52979	-3.94775	-2.46944
2543.000	-3.98710	-1.56151	-4.04218	-2.47906
2544.000	-4.01464	-1.56939	-4.09529	-2.51059
2545.000	-4.01071	-1.60113	-4.16413	-2.44700
2546.000	-4.00874	-1.57535	-4.07169	-2.46907
2547.000	-4.01661	-1.64077	-4.08152	-2.51261
2548.000	-4.04218	-1.63081	-4.13266	-2.55998
2549.000	-3.97529	-1.65276	-4.08939	-2.47496
2550.000	-4.04218	-1.67443	-4.13266	-2.52829
2551.000	-3.98710	-1.69636	-4.08152	-2.47102
2552.000	-3.99103	-1.62100	-4.02644	-2.55636
2553.000	-3.98710	-1.64282	-4.14250	-2.56193
2554.000	-3.93397	-1.63697	-4.05399	-2.55429
2555.000	-3.99103	-1.72807	-4.05202	-2.50478
2556.000	-3.87100	-1.71047	-4.06775	-2.54236
2557.000	-3.95758	-1.67659	-4.06185	-2.51069
2558.000	-3.90446	-1.72230	-4.02054	-2.50092
2559.000	-3.94578	-1.69247	-4.02644	-2.51674
2560.000	-3.95168	-1.68255	-3.98906	-2.55251
2561.000	-3.95365	-1.69246	-3.98513	-2.50499
2562.000	-3.91823	-1.62907	-3.96939	-2.55059
2563.000	-3.97136	-1.68251	-3.97529	-2.49709
2564.000	-3.92807	-1.67070	-3.96742	-2.47731
2565.000	-3.89265	-1.66878	-4.06579	-2.52851
2566.000	-3.87494	-1.62717	-3.93988	-2.41597
2567.000	-3.90642	-1.70445	-3.99497	-2.50694
2568.000	-3.84935	-1.66094	-3.94184	-2.49719
2569.000	-3.83754	-1.65699	-3.93397	-2.48731
2570.000	-3.83951	-1.62724	-3.87297	-2.35474
2571.000	-3.84935	-1.61730	-3.93791	-2.44966
2572.000	-3.88675	-1.58947	-3.91823	-2.49726
2573.000	-3.85919	-1.63712	-3.90839	-2.42399
2574.000	-3.85526	-1.62126	-3.98710	-2.42376
2575.000	-3.85919	-1.58753	-3.94381	-2.45162
2576.000	-3.84935	-1.59549	-3.93791	-2.48334
2577.000	-3.83361	-1.61535	-3.91233	-2.45172
2578.000	-3.87297	-1.62916	-3.99103	-2.51289
2579.000	-3.89659	-1.67671	-3.87100	-2.51325
2580.000	-3.88871	-1.60930	-3.91626	-2.46161
2581.000	-3.86707	-1.57562	-3.95955	-2.53874
2582.000	-3.84935	-1.59945	-3.89462	-2.53894
2583.000	-3.87887	-1.65890	-4.01267	-2.49698
2584.000	-3.88084	-1.64699	-3.95365	-2.50706
2585.000	-3.89462	-1.63110	-3.93201	-2.55863
2586.000	-3.86903	-1.62123	-3.94381	-2.50907
2587.000	-3.88281	-1.62716	-3.89068	-2.46565
2588.000	-3.87494	-1.61130	-3.86510	-2.50138
2589.000	-3.87691	-1.60337	-3.99693	-2.48118
2590.000	-3.88084	-1.62121	-3.99693	-2.47326
2591.000	-3.85329	-1.57168	-3.95562	-2.48329
2592.000	-3.88478	-1.53988	-3.98513	-2.42575
2593.000	-3.89462	-1.60532	-3.97136	-2.49909
2594.000	-3.88084	-1.61526	-4.01464	-2.46132
2595.000	-3.92610	-1.62906	-3.95168	-2.49320
2596.000	-3.86510	-1.62124	-3.87297	-2.44985
2597.000	-3.84935	-1.62524	-3.88478	-2.45576
2598.000	-3.83361	-1.60742	-3.99890	-2.41184
2599.000	-3.89462	-1.62118	-4.03825	-2.47313
2600.000	-3.89068	-1.65689	-4.05202	-2.40772
2601.000	-3.87887	-1.60138	-4.03235	-2.45136
2602.000	-3.86116	-1.65496	-4.06185	-2.46117
2603.000	-3.85526	-1.63911	-3.97333	-2.43965
2604.000	-3.84148	-1.63120	-3.93201	-2.36052
2605.000	-3.88478	-1.62914	-4.04808	-2.41169
2606.000	-3.89659	-1.64894	-3.96742	-2.43174
2607.000	-3.89068	-1.63904	-3.97726	-2.42577
2608.000	-3.87494	-1.64700	-3.93988	-2.38626
2609.000	-3.88871	-1.60533	-3.94184	-2.40606
2610.000	-3.89265	-1.60135	-3.97136	-2.43767
2611.000	-3.84345	-1.61533	-3.96939	-2.48919
2612.000	-3.83558	-1.59948	-3.97333	-2.37427
2613.000	-3.91626	-1.58743	-4.02251	-2.41573
2614.000	-3.90249	-1.62712	-4.04021	-2.44737
2615.000	-3.86510	-1.58554	-3.99300	-2.55052
2616.000	-3.93397	-1.57946	-4.00677	-2.49304
2617.000	-3.87297	-1.63511	-3.97923	-2.45548
2618.000	-3.85329	-1.58556	-3.95955	-2.48724
2619.000	-3.90446	-1.56960	-3.93201	-2.48336
2620.000	-3.89265	-1.63309	-3.91626	-2.39425
2621.000	-3.84935	-1.61135	-3.98710	-2.45348
2622.000	-3.90052	-1.62117	-3.91233	-2.42398
2623.000	-3.82770	-1.56577	-4.02841	-2.45335
2624.000	-3.88084	-1.63113	-3.85919	-2.43800
2625.000	-3.90446	-1.60927	-3.91430	-2.44379
2626.000	-3.89265	-1.58350	-3.96152	-2.39412
2627.000	-3.89265	-1.62515	-3.97529	-2.45351
2628.000	-3.92610	-1.60922	-3.94971	-2.40010
2629.000	-3.92413	-1.56163	-3.89265	-2.51319
2630.000	-3.86313	-1.60736	-3.93988	-2.43975
2631.000	-3.87297	-1.60139	-3.86510	-2.47563
2632.000	-3.91233	-1.61917	-3.93594	-2.43184
2633.000	-3.89068	-1.60334	-3.94184	-2.40804
2634.000	-3.89265	-1.60929	-4.01464	-2.39991
2635.000	-3.96349	-1.61708	-3.91823	-2.46359
2636.000	-3.88478	-1.65492	-3.96939	-2.42381
2637.000	-3.88675	-1.56765	-3.95758	-2.42385
2638.000	-3.86313	-1.60141	-3.89068	-2.43791
2639.000	-3.88675	-1.59740	-3.87297	-2.42607
2640.000	-3.88478	-1.57162	-3.87691	-2.41417
2641.000	-3.88281	-1.56766	-3.94775	-2.43973
2642.000	-3.89462	-1.52797	-3.93004	-2.42195
2643.000	-3.87494	-1.57957	-3.96349	-2.45157
2644.000	-3.94381	-1.62902	-3.90052	-2.42401
2645.000	-3.89462	-1.61127	-3.89659	-2.40817
2646.000	-3.91036	-1.57950	-3.97923	-2.43171
2647.000	-3.93397	-1.61516	-3.97726	-2.41587
2648.000	-3.91430	-1.53586	-3.93004	-2.40412
2649.000	-3.94381	-1.56159	-3.95955	-2.46743
2650.000	-3.94578	-1.57349	-3.88281	-2.40227
2651.000	-3.96349	-1.59130	-4.01858	-2.43159
2652.000	-3.91233	-1.57752	-3.97923	-2.44359
2653.000	-3.89462	-1.58747	-3.92217	-2.40414
2654.000	-3.92413	-1.59733	-3.97136	-2.45749
2655.000	-3.92020	-1.56759	-3.92020	-2.42990
2656.000	-3.89068	-1.61326	-3.97923	-2.46142
2657.000	-3.93791	-1.58937	-3.99300	-2.47327
2658.000	-3.94381	-1.58737	-3.99693	-2.39005
2659.000	-3.91823	-1.58346	-3.93988	-2.46748
2660.000	-3.89659	-1.58350	-3.92413	-2.44178
2661.000	-3.95168	-1.57546	-3.98513	-2.44556
2662.000	-3.93201	-1.57550	-3.92217	-2.47942
2663.000	-3.91233	-1.59735	-3.90839	-2.47352
2664.000	-3.90052	-1.59142	-3.93201	-2.49128
2665.000	-3.85329	-1.55978	-3.93397	-2.40807
2666.000	-3.90052	-1.58944	-3.93594	-2.50117
2667.000	-3.96152	-1.62899	-3.95758	-2.55657
2668.000	-3.92807	-1.59732	-3.93004	-2.49525
2669.000	-3.95168	-1.59728	-4.00087	-2.42174
2670.000	-3.87887	-1.55378	-3.98513	-2.45348
2671.000	-3.93594	-1.62705	-4.00677	-2.52869
2672.000	-3.90249	-1.61919	-4.04808	-2.46716
2673.000	-3.90839	-1.65487	-3.87887	-2.43794
2674.000	-3.90839	-1.60331	-3.89659	-2.49535
2675.000	-3.90642	-1.64298	-3.99300	-2.56438
2676.000	-3.88871	-1.59541	-3.99300	-2.44553
2677.000	-3.94775	-1.59133	-3.99300	-2.44157
2678.000	-3.88675	-1.58550	-3.97726	-2.41388
2679.000	-3.85919	-1.60538	-3.89068	-2.48546
2680.000	-3.93397	-1.60128	-3.91233	-2.49728
2681.000	-3.93397	-1.54971	-3.98513	-2.46141
2682.000	-3.93988	-1.57747	-3.99300	-2.45148
2683.000	-3.90052	-1.60332	-3.96349	-2.42977
2684.000	-3.89855	-1.57754	-3.98119	-2.42378
2685.000	-3.90642	-1.57753	-4.06972	-2.41163
2686.000	-3.96152	-1.60321	-4.08742	-2.42148
2687.000	-3.83558	-1.48840	-4.01858	-2.47319
2688.000	-3.80212	-1.57772	-3.86116	-2.45385
2689.000	-3.66431	-1.59384	-3.76669	-2.39467
2690.000	-3.47329	-1.68346	-3.64462	-2.35536
2691.000	-3.30977	-1.75915	-3.33933	-2.56427
2692.000	-3.02792	-1.88863	-3.08706	-2.61447
2693.000	-2.64730	-2.03812	-2.73804	-2.69856
2694.000	-2.32960	-2.19941	-2.34539	-2.92544
2695.000	-2.03546	-2.38643	-1.83798	-3.13062
2696.000	-1.61873	-2.57554	-1.41327	-3.36521
2697.000	-1.18801	-2.85187	-0.90342	-3.47483
2698.000	-0.74529	-3.08635	-0.42109	-3.65153
2699.000	-0.41912	-3.38993	-0.02768	-3.88339
2700.000	0.04745	-3.55850	0.42505	-4.15053
2701.000	0.50017	-3.83968	0.91132	-4.48241
2702.000	0.75122	-4.06123	1.34807	-4.77221
2703.000	1.15639	-4.30806	1.68195	-4.92350
2704.000	1.42315	-4.56461	1.97424	-5.12198
2705.000	1.67207	-4.66879	2.38486	-5.24282
2706.000	1.99004	-4.81409	2.63546	-5.52941
2707.000	2.35921	-4.87410	2.88793	-5.68568
2708.000	2.53089	-5.04313	3.09889	-5.86550
2709.000	2.85638	-5.10093	3.34524	-6.03306
2710.000	3.18956	-5.20577	3.49692	-6.02229
2711.000	3.41419	-5.28534	3.64659	-6.09004
2712.000	3.66628	-5.36854	3.99300	-6.11703
2713.000	3.92610	-5.41415	4.04808	-6.24019
2714.000	4.08939	-5.51140	4.20149	-6.18409
2715.000	4.33125	-5.50183	4.35484	-6.26520
2716.000	4.51795	-5.45329	4.37843	-6.17679
2717.000	4.64956	-5.46015	4.48258	-6.14848
2718.000	4.79291	-5.46296	4.48455	-6.15238
2719.000	4.86554	-5.48791	4.48651	-6.11511
2720.000	4.88909	-5.52504	4.54153	-6.09897
2721.000	4.85965	-5.47421	4.51402	-6.12861
2722.000	4.81057	-5.44121	4.48062	-6.01710
2723.000	4.79683	-5.37451	4.37450	-5.95517
2724.000	4.66724	-5.32048	4.37056	-5.99837
2725.000	4.61224	-5.26977	4.34305	-5.89458
2726.000	4.51402	-5.25475	4.22116	-5.83858
2727.000	4.43149	-5.24748	4.20149	-5.93492
2728.000	4.32929	-5.17933	4.16610	-5.86844
2729.000	4.28604	-5.10878	4.10906	-5.93757
2730.000	4.22705	-5.14656	4.13266	-5.85494
2731.000	4.19166	-5.13695	4.19363	-5.94872
2732.000	4.19166	-5.10940	4.14250	-5.94910
2733.000	4.12676	-5.14722	4.22509	-6.01913
2734.000	4.16020	-5.18046	4.25458	-6.00321
2735.000	4.19166	-5.19009	4.27424	-6.04229
2736.000	4.25851	-5.22113	4.34894	-6.11232
2737.000	4.28604	-5.27996	4.45311	-6.10755
2738.000	4.34108	-5.34448	4.45704	-6.04476
2739.000	4.43935	-5.40866	4.57492	-6.14574
2740.000	4.54742	-5.40590	4.67706	-6.18210
2741.000	4.60635	-5.42904	4.70259	-6.09759
2742.000	4.70455	-5.50295	4.69080	-6.17414
2743.000	4.74579	-5.50066	4.72222	-6.23265
2744.000	4.78702	-5.55729	4.88320	-6.24294
2745.000	4.85572	-5.50567	4.86750	-6.18432
2746.000	4.92049	-5.53263	4.81254	-6.19853
2747.000	4.93226	-5.54432	4.83413	-6.21401
2748.000	4.98721	-5.52226	4.83609	-6.21007
2749.000	4.93226	-5.53843	4.89498	-6.22325
2750.000	4.90675	-5.56809	4.88909	-6.20567
2751.000	4.94011	-5.55603	4.83020	-6.24147
2752.000	4.95777	-5.56767	4.79880	-6.20845
2753.000	4.92245	-5.56207	4.80861	-6.26517
2754.000	4.87731	-5.58404	4.83020	-6.31198
2755.000	4.88320	-5.55454	4.73008	-6.23062
2756.000	4.88320	-5.51723	4.78505	-6.20662
2757.000	4.89301	-5.54661	4.69866	-6.21718
2758.000	4.84198	-5.52149	4.71044	-6.25431
2759.000	4.83806	-5.51956	4.74775	-6.21479
2760.000	4.81843	-5.48829	4.62207	-6.20806
2761.000	4.79880	-5.46684	4.66920	-6.23900
2762.000	4.78898	-5.50621	4.67902	-6.18012
2763.000	4.80076	-5.49826	4.65545	-6.16269
2764.000	4.78309	-5.49840	4.67902	-6.22715
2765.000	4.77916	-5.51218	4.61421	-6.16109
2766.000	4.75364	-5.50453	4.70259	-6.13680
2767.000	4.77327	-5.49062	4.69473	-6.11922
2768.000	4.78113	-5.48859	4.68099	-6.13503
2769.000	4.76738	-5.50638	4.66724	-6.12142
2770.000	4.76738	-5.50834	4.64956	-6.12158
2771.000	4.77327	-5.47294	4.61028	-6.08858
2772.000	4.72419	-5.48511	4.63581	-6.17658
2773.000	4.76935	-5.51815	4.68099	-6.12718
2774.000	4.77916	-5.48075	4.57885	-6.09277
2775.000	4.76149	-5.51036	4.66724	-6.15083
2776.000	4.73990	-5.48499	4.66135	-6.06658
2777.000	4.74971	-5.44169	4.65153	-6.09999
2778.000	4.71830	-5.55588	4.61421	-6.12384
2779.000	4.74971	-5.52224	4.64171	-6.08832
2780.000	4.76542	-5.47889	4.73400	-6.06987
2781.000	4.77327	-5.47097	4.67706	-6.13114
2782.000	4.73204	-5.48505	4.65742	-6.17247
2783.000	4.77524	-5.45721	4.68099	-6.15267
2784.000	4.74775	-5.50064	4.64171	-6.05498
2785.000	4.74971	-5.45348	4.63778	-6.18244
2786.000	4.77131	-5.47885	4.67117	-6.11159
2787.000	4.79291	-5.44921	4.65545	-6.13917
2788.000	4.75560	-5.46326	4.60242	-6.12590
2789.000	4.72026	-5.45567	4.69866	-6.10351
2790.000	4.75364	-5.51435	4.59849	-6.13574
2791.000	4.76346	-5.47695	4.74382	-6.10507
2792.000	4.75953	-5.47501	4.62207	-6.14142
2793.000	4.74382	-5.48103	4.78505	-6.13215
2794.000	4.78505	-5.51606	4.67313	-6.11549
2795.000	4.76346	-5.49463	4.70455	-6.16030
2796.000	4.76935	-5.51422	4.74775	-6.15012
2797.000	4.74971	-5.48295	4.65153	-6.18036
2798.000	4.81057	-5.47657	4.71241	-6.17787
2799.000	4.79487	-5.46294	4.71437	-6.16609
2800.000	4.78309	-5.54947	4.70455	-6.13482
2801.000	4.77524	-5.48864	4.70455	-6.17598
2802.000	4.79683	-5.50222	4.63974	-6.21770
2803.000	4.79487	-5.52973	4.68295	-6.22124
2804.000	4.79291	-5.50028	4.74971	-6.15402
2805.000	4.81057	-5.48836	4.70848	-6.19554
2806.000	4.77327	-5.49062	4.70062	-6.15641
2807.000	4.77720	-5.49844	4.69473	-6.15059
2808.000	4.81450	-5.49225	4.70062	-6.10741
2809.000	4.78505	-5.50035	4.75560	-6.13045
2810.000	4.76149	-5.50053	4.77327	-6.17145
2811.000	4.82628	-5.51769	4.69277	-6.19568
2812.000	4.77131	-5.52599	4.76542	-6.12840
2813.000	4.79880	-5.51399	4.69277	-6.09180
2814.000	4.81057	-5.48836	4.62992	-6.10018
2815.000	4.78113	-5.53573	4.65938	-6.15677
2816.000	4.82432	-5.53735	4.72222	-6.12290
2817.000	4.77131	-5.51617	4.68295	-6.15265
2818.000	4.84198	-5.53917	4.66920	-6.17433
2819.000	4.80076	-5.53754	4.64956	-6.09609
2820.000	4.83413	-5.51763	4.68688	-6.20553
2821.000	4.80272	-5.53752	4.63581	-6.14718
2822.000	4.79487	-5.52580	4.70848	-6.15243
2823.000	4.79291	-5.57295	4.69670	-6.08196
2824.000	4.84002	-5.51169	4.70455	-6.11522
2825.000	4.78113	-5.53180	4.77916	-6.15768
2826.000	4.77720	-5.56915	4.70259	-6.15444
2827.000	4.79487	-5.51402	4.77524	-6.13812
2828.000	4.83217	-5.51765	4.67313	-6.14685
2829.000	4.83020	-5.50980	4.70651	-6.16224
2830.000	4.78702	-5.52783	4.66527	-6.03125
2831.000	4.81254	-5.50405	4.64760	-6.07454
2832.000	4.85572	-5.48996	4.72419	-6.10525
2833.000	4.80665	-5.49624	4.67509	-6.06450
2834.000	4.79094	-5.48655	4.62010	-6.13751
2835.000	4.84395	-5.51559	4.68884	-6.13496
2836.000	4.79094	-5.52387	4.67902	-6.11152
2837.000	4.83020	-5.50980	4.62207	-6.11985
2838.000	4.79683	-5.47472	4.61421	-6.09051
2839.000	4.80861	-5.54926	4.68688	-6.13693
2840.000	4.80468	-5.51590	4.64956	-6.14706
2841.000	4.80665	-5.53160	4.67509	-6.12724
2842.000	4.83413	-5.50584	4.67117	-6.17039
2843.000	4.81450	-5.49422	4.66135	-6.13520
2844.000	4.82432	-5.51574	4.76738	-6.13035
2845.000	4.81843	-5.52561	4.67313	-6.14489
2846.000	4.85769	-5.49387	4.63385	-6.17464
2847.000	4.82039	-5.55506	4.71241	-6.14259
2848.000	4.83413	-5.52745	4.66135	-6.15872
2849.000	4.84395	-5.54701	4.60832	-6.11017
2850.000	4.81646	-5.50402	4.71633	-6.20135
2851.000	4.82235	-5.54326	4.65545	-6.09800
2852.000	4.84591	-5.51753	4.73400	-6.18552
2853.000	4.84591	-5.51361	4.74775	-6.12072
2854.000	4.85965	-5.48796	4.73204	-6.11694
2855.000	4.85965	-5.51939	4.68295	-6.09776
2856.000	4.84591	-5.49986	4.71437	-6.08965
2857.000	4.83413	-5.50584	4.73204	-6.15222
2858.000	4.84002	-5.49205	4.67902	-6.13112
2859.000	4.84395	-5.51559	4.62010	-6.11595
2860.000	4.82824	-5.49214	4.65349	-6.13330
2861.000	4.81450	-5.52957	4.66135	-6.15284
2862.000	4.83020	-5.48623	4.65349	-6.18231
2863.000	4.83806	-5.55884	4.63385	-6.10015
2864.000	4.86750	-5.50950	4.65545	-6.13721
2865.000	4.85376	-5.52140	4.68099	-6.10170
2866.000	4.83413	-5.50781	4.64563	-6.12357
2867.000	4.84787	-5.52734	4.65545	-6.13525
2868.000	4.84787	-5.51555	4.68884	-6.13888
2869.000	4.85376	-5.52533	4.73400	-6.12672
2870.000	4.87535	-5.49962	4.64563	-6.18629
2871.000	4.85376	-5.52140	4.63778	-6.13736
2872.000	4.87928	-5.48191	4.64171	-6.15301
2873.000	4.83609	-5.47833	4.65349	-6.18818
2874.000	4.84002	-5.50973	4.65742	-6.15679
2875.000	4.83806	-5.47439	4.78898	-6.19090
2876.000	4.90086	-5.50530	4.62010	-6.12771
2877.000	4.84787	-5.51555	4.61421	-6.10424
2878.000	4.82824	-5.49411	4.71044	-6.13477
2879.000	4.88124	-5.46422	4.69277	-6.17608
2880.000	4.81254	-5.47655	4.69670	-6.15841
2881.000	4.84591	-5.47825	4.66135	-6.11755
2882.000	4.80665	-5.46285	4.69670	-6.22308
2883.000	4.86750	-5.47611	4.65153	-6.14704
2884.000	4.84787	-5.53519	4.70062	-6.07604
2885.000	4.84198	-5.51953	4.61617	-6.18459
2886.000	4.79683	-5.50614	4.62403	-6.15708
2887.000	4.88124	-5.49957	4.62403	-6.15512
2888.000	4.88124	-5.50743	4.66135	-6.10579
2889.000	4.84198	-5.50185	4.69080	-6.11534
2890.000	4.84395	-5.49791	4.63189	-6.14721
2891.000	4.89890	-5.49550	4.68884	-6.15848
2892.000	4.88516	-5.50739	4.59457	-6.10440
2893.000	4.86946	-5.49967	4.67902	-6.15464
2894.000	4.84591	-5.50379	4.65545	-6.15289
2895.000	4.89105	-5.52306	4.71044	-6.12497
2896.000	4.87142	-5.53107	4.70455	-6.14462
2897.000	4.82628	-5.50394	4.70651	-6.11520
2898.000	4.84787	-5.49002	4.65545	-6.24304
2899.000	4.85965	-5.49778	4.77524	-6.17339
2900.000	4.86946	-5.56644	4.71633	-6.11316
2901.000	4.85376	-5.52140	4.77916	-6.18707
2902.000	4.90283	-5.51118	4.61421	-6.13952
2903.000	4.87142	-5.52518	4.74971	-6.15990
2904.000	4.89301	-5.48769	4.60635	-6.13175
2905.000	4.84787	-5.45859	4.71633	-6.20331
2906.000	4.84787	-5.50181	4.68884	-6.10555
2907.000	4.86946	-5.47217	4.66331	-6.14302
2908.000	4.85965	-5.47618	4.64563	-6.08828
2909.000	4.83413	-5.48424	4.72026	-6.15820
2910.000	4.85572	-5.50567	4.64171	-6.15889
2911.000	4.84395	-5.51755	4.62207	-6.13946
2912.000	4.85376	-5.47622	4.68099	-6.15659
2913.000	4.84591	-5.49986	4.59849	-6.18866
2914.000	4.84591	-5.52539	4.74382	-6.14231
2915.000	4.81450	-5.52172	4.67902	-6.09976
2916.000	4.86750	-5.48201	4.70259	-6.18971
2917.000	4.84787	-5.51752	4.76935	-6.20088
2918.000	4.84591	-5.53128	4.73204	-6.13066
2919.000	4.86554	-5.50559	4.65153	-6.17448
2920.000	4.86554	-5.52130	4.73204	-6.15026
2921.000	4.85769	-5.50762	4.61421	-6.12972
2922.000	4.85180	-5.55480	4.65349	-6.13918
2923.000	4.89694	-5.49551	4.68884	-6.07811
2924.000	4.88713	-5.48774	4.55724	-6.13217
2925.000	4.87731	-5.49175	4.68491	-6.16831
2926.000	4.83609	-5.49012	4.64171	-6.15497
2927.000	4.85965	-5.50564	4.69670	-6.13881
2928.000	4.89301	-5.52501	4.62010	-6.11399
2929.000	4.86946	-5.46628	4.66135	-6.12147
2930.000	4.85180	-5.50963	4.67509	-6.18604
2931.000	4.88124	-5.50939	4.62796	-6.21976
2932.000	4.89890	-5.49353	4.58867	-6.13582
2933.000	4.86946	-5.49967	4.61224	-6.23166
2934.000	4.85769	-5.46244	4.64563	-6.11181
2935.000	4.88320	-5.47991	4.76149	-6.16764
2936.000	4.86946	-5.50359	4.64367	-6.13731
2937.000	4.84002	-5.49401	4.68099	-6.12130
2938.000	4.87142	-5.48001	4.62207	-6.06691
2939.000	4.87731	-5.55066	4.65742	-6.08622
2940.000	4.84395	-5.53915	4.63778	-6.12364
2941.000	4.87731	-5.53692	4.62992	-6.13743
2942.000	4.85769	-5.51940	4.69473	-6.15255
2943.000	4.85572	-5.52924	4.61028	-6.10035
2944.000	4.86750	-5.54485	4.66135	-6.23711
2945.000	4.85376	-5.56657	4.62992	-6.20799
2946.000	4.85572	-5.56851	4.67117	-6.16843
2947.000	4.91656	-5.54052	4.68295	-6.09776
2948.000	4.85769	-5.54100	4.66527	-6.15084
2949.000	4.91068	-5.56217	4.64367	-6.17651
2950.000	4.90086	-5.56814	4.64367	-6.12751
2951.000	4.91068	-5.51700	4.61028	-6.13564
2952.000	4.85769	-5.54493	4.66724	-6.11946
2953.000	4.90283	-5.55045	4.62992	-6.12959
2954.000	4.87535	-5.53890	4.64760	-6.15296
2955.000	4.89498	-5.55248	4.55331	-6.16553
2956.000	4.88516	-5.56434	4.63385	-6.12171
2957.000	4.88320	-5.52116	4.56117	-6.09292
2958.000	4.84198	-5.54113	4.56314	-6.08310
2959.000	4.86554	-5.50755	4.57099	-6.11441
2960.000	4.83413	-5.54905	4.63974	-6.15890
2961.000	4.83806	-5.53527	4.65545	-6.14505
2962.000	4.85376	-5.55282	4.68884	-6.11928
2963.000	4.86750	-5.54878	4.64956	-6.04119
2964.000	4.88909	-5.52504	4.68295	-6.07620
2965.000	4.83806	-5.55491	4.61421	-6.11796
2966.000	4.87339	-5.54480	4.64367	-6.12555
2967.000	4.88320	-5.54472	4.71044	-6.12889
2968.000	4.89694	-5.52694	4.60046	-6.12396
2969.000	4.90086	-5.55440	4.63385	-6.11975
2970.000	4.85376	-5.51354	4.60439	-6.11216
2971.000	4.87535	-5.54282	4.63189	-6.12369
2972.000	4.91460	-5.52875	4.61421	-6.07090
2973.000	4.87928	-5.56636	4.67706	-6.06448
2974.000	4.88516	-5.56827	4.62403	-6.05709
2975.000	4.89498	-5.54855	4.63581	-6.08052
2976.000	4.88320	-5.52312	4.60046	-6.10827
2977.000	4.84787	-5.51752	4.62010	-6.11595
2978.000	4.88713	-5.47203	4.70455	-6.08581
2979.000	4.88516	-5.54471	4.67313	-6.11549
2980.000	4.86161	-5.52919	4.67313	-6.09981
2981.000	4.84983	-5.54303	4.68884	-6.15064
2982.000	4.88124	-5.54278	4.64956	-6.17450
2983.000	4.90871	-5.58182	4.65742	-6.12543
2984.000	4.87731	-5.57423	4.67706	-6.17818
2985.000	4.88713	-5.56433	4.65742	-6.17443
2986.000	4.92245	-5.54636	4.65742	-6.13915
2987.000	4.92049	-5.55620	4.66135	-6.13324
2988.000	4.87535	-5.57228	4.60832	-6.10429
2989.000	4.90479	-5.58971	4.66331	-6.15870
2990.000	4.89498	-5.53874	4.60832	-6.14545
2991.000	4.91853	-5.57977	4.64956	-6.17254
2992.000	4.86554	-5.58807	4.60635	-6.13371
2993.000	4.89890	-5.53870	4.63189	-6.15701
2994.000	4.91460	-5.55232	4.66135	-6.13716
2995.000	4.88124	-5.51135	4.65349	-6.11762
2996.000	4.87339	-5.58015	4.65153	-6.14704
2997.000	4.91264	-5.50717	4.54545	-6.13619
2998.000	4.88516	-5.54667	4.68295	-6.10560
2999.000	4.91068	-5.53271	4.62207	-6.04731
3000.000	4.90086	-5.55832	4.68884	-6.14084
3001.000	4.92834	-5.56791	4.67706	-6.15074
3002.000	4.93030	-5.53059	4.70455	-6.13678
3003.000	4.90086	-5.54065	4.68491	-6.09971
3004.000	4.92638	-5.57382	4.66724	-6.09202
3005.000	4.91853	-5.54247	4.56510	-6.06151
3006.000	4.91656	-5.54248	4.66135	-6.13912
3007.000	4.92834	-5.55613	4.60242	-6.13766
3008.000	4.89694	-5.55246	4.71633	-6.13864
3009.000	4.88124	-5.52314	4.77131	-6.13227
3010.000	4.86357	-5.55274	4.66527	-6.15084
3011.000	4.91460	-5.49733	4.63189	-6.17661
3012.000	4.88516	-5.57416	4.62992	-6.08449
3013.000	4.89498	-5.54855	4.65742	-6.12347
3014.000	4.91853	-5.52480	4.65545	-6.10388
3015.000	4.88909	-5.53289	4.59653	-6.08086
3016.000	4.86161	-5.55276	4.65153	-6.09803
3017.000	4.89498	-5.56034	4.66135	-6.07050
3018.000	4.92049	-5.51103	4.68491	-6.11931
3019.000	4.93030	-5.56201	4.59849	-6.07104
3020.000	4.91460	-5.58373	4.60046	-6.12788
3021.000	4.92049	-5.53067	4.57689	-6.10455
3022.000	4.92441	-5.53064	4.60439	-6.12588
3023.000	4.92638	-5.50902	4.64367	-6.10790
3024.000	4.95385	-5.55592	4.63778	-6.07658
3025.000	4.94208	-5.52656	4.56706	-5.99678
3026.000	4.92245	-5.53654	4.66331	-6.05872
3027.000	4.94600	-5.55009	4.77524	-6.16947
3028.000	4.94993	-5.49704	4.62796	-6.04922
3029.000	4.93226	-5.52861	4.67117	-6.04101
3030.000	4.91853	-5.55229	4.63385	-6.09426
3031.000	4.90871	-5.50524	4.69866	-6.07018
3032.000	4.92441	-5.50904	4.67509	-6.09783
3033.000	4.90675	-5.52882	4.71437	-6.13865
3034.000	4.94208	-5.51675	4.62599	-6.14726
3035.000	4.88516	-5.53685	4.68884	-6.05654
3036.000	4.91656	-5.52874	4.63778	-6.11580
3037.000	4.98524	-5.56155	4.69473	-6.13883
3038.000	4.89105	-5.57804	4.64956	-6.07452
3039.000	4.87535	-5.52908	4.71830	-6.12098
3040.000	4.95777	-5.52840	4.66724	-6.10966
3041.000	4.91068	-5.55235	4.73204	-6.15222
3042.000	4.94796	-5.52652	4.68688	-6.11145
3043.000	4.86750	-5.51539	4.59064	-6.11424
3044.000	4.92834	-5.56399	4.69670	-6.12117
3045.000	4.88516	-5.53685	4.62992	-6.11390
3046.000	4.92441	-5.52671	4.64956	-6.17450
3047.000	4.90086	-5.52494	4.65349	-6.16075
3048.000	4.89694	-5.52497	4.60439	-6.14549
3049.000	4.90479	-5.52884	4.66724	-6.03712
3050.000	4.93815	-5.56194	4.62796	-6.10020
3051.000	4.89105	-5.54466	4.72026	-6.18172
3052.000	4.86161	-5.58025	4.69277	-6.13688
3053.000	4.91656	-5.55034	4.63974	-6.15498
3054.000	4.90675	-5.53471	4.69080	-6.10946
3055.000	4.88516	-5.54667	4.70651	-6.15244
3056.000	4.91264	-5.53466	4.64171	-6.17065
3057.000	4.89694	-5.52497	4.65545	-6.13133
3058.000	4.86946	-5.58018	4.70259	-6.16424
3059.000	4.91656	-5.62495	4.66527	-6.13516
3060.000	4.87339	-5.52909	4.69080	-6.12318
3061.000	4.92245	-5.54833	4.70062	-6.18385
3062.000	4.94011	-5.53836	4.65153	-6.04509
3063.000	4.90871	-5.53469	4.68491	-6.12519
3064.000	4.95581	-5.57554	4.70455	-6.07993
3065.000	4.94404	-5.61097	4.69866	-6.16623
3066.000	4.92638	-5.59345	4.63385	-6.12955
3067.000	4.90283	-5.55831	4.66331	-6.13126
3068.000	4.90283	-5.56616	4.70455	-6.16814
3069.000	4.86750	-5.58805	4.69080	-6.12318
3070.000	4.90086	-5.59563	4.70062	-6.11525
3071.000	4.90675	-5.58576	4.68884	-6.11732
3072.000	4.91853	-5.58763	4.74971	-6.07954
3073.000	4.88320	-5.56043	4.70455	-6.10346
3074.000	4.87142	-5.56642	4.70062	-6.13877
3075.000	4.88320	-5.58007	4.73204	-6.15614
3076.000	4.91460	-5.51697	4.64760	-6.11963
3077.000	4.89890	-5.53674	4.68295	-6.11933
3078.000	4.87928	-5.52119	4.69866	-6.11919
3079.000	4.91656	-5.48357	4.73990	-6.08747
3080.000	4.92049	-5.53263	4.68295	-6.18009
3081.000	4.93226	-5.51683	4.68491	-6.08794
3082.000	4.88909	-5.50540	4.70259	-6.19167
3083.000	4.83609	-5.55100	4.69670	-6.17605
3084.000	4.88909	-5.53093	4.71830	-6.10922
3085.000	4.95777	-5.49109	4.67706	-6.18014
3086.000	4.88713	-5.47399	4.61224	-6.14150
3087.000	4.85965	-5.50957	4.69866	-6.15055
3088.000	4.85376	-5.47230	4.68295	-6.20752
3089.000	4.89890	-5.50925	4.69277	-6.12512
3090.000	4.87731	-5.49960	4.69080	-6.11534
3091.000	4.88320	-5.50348	4.67706	-6.13506
3092.000	4.91460	-5.52875	4.65742	-6.15091
3093.000	4.87731	-5.47210	4.66527	-6.19200
3094.000	4.88713	-5.54469	4.66135	-6.14500
3095.000	4.89498	-5.47589	4.73400	-6.19336
3096.000	4.93619	-5.52858	4.73793	-6.19724
3097.000	4.94208	-5.48532	4.61421	-6.15520
3098.000	4.89105	-5.51913	4.77720	-6.10282
3099.000	4.93226	-5.52272	4.64367	-6.19807
3100.000	4.89301	-5.49947	4.65153	-6.17056
3101.000	4.93619	-5.51679	4.65153	-6.18232
3102.000	4.89694	-5.49944	4.74971	-6.14226
3103.000	4.92834	-5.51686	4.72222	-6.10918
3104.000	4.93030	-5.54433	4.67313	-6.12921
3105.000	4.95385	-5.46952	4.69670	-6.11921
3106.000	4.95189	-5.47346	4.62403	-6.10611
3107.000	4.94600	-5.51868	4.71830	-6.06805
3108.000	4.96759	-5.44191	4.67313	-6.15077
3109.000	4.93423	-5.46968	4.67706	-6.19190
3110.000	4.98524	-5.48890	4.72026	-6.17388
3111.000	4.92441	-5.48940	4.68099	-6.18990
3112.000	4.97543	-5.51254	4.77916	-6.17336
3113.000	4.92245	-5.44031	4.63385	-6.13151
3114.000	4.94208	-5.48336	4.68491	-6.17615
3115.000	4.93030	-5.48346	4.66920	-6.08808
3116.000	4.95777	-5.45574	4.68688	-6.11929
3117.000	4.98132	-5.46536	4.63385	-6.10995
3118.000	4.91068	-5.50719	4.65938	-6.17245
3119.000	4.96759	-5.43798	4.65938	-6.11757
3120.000	4.95189	-5.47346	4.59457	-6.08283
3121.000	4.93815	-5.45000	4.62796	-6.11980
3122.000	4.91460	-5.49341	4.67509	-6.07627
3123.000	4.91853	-5.48355	4.59849	-6.11221
3124.000	4.95777	-5.42234	4.65545	-6.10976
3125.000	4.94404	-5.46174	4.65938	-6.13717
3126.000	4.93226	-5.46380	4.61617	-6.09834
3127.000	4.96366	-5.46551	4.64563	-6.08828
3128.000	4.94600	-5.48333	4.64563	-6.14317
3129.000	4.95974	-5.48322	4.63974	-6.10990
3130.000	4.96562	-5.44585	4.68884	-6.13104
3131.000	4.95189	-5.49899	4.67902	-6.09192
3132.000	4.93030	-5.47364	4.66527	-6.07439
3133.000	4.87928	-5.45441	4.60242	-6.07296
3134.000	4.94600	-5.45387	4.69670	-6.12117
3135.000	4.95974	-5.51071	4.67902	-6.11936
3136.000	4.97740	-5.47129	4.50027	-6.05617
3137.000	4.97936	-5.41627	4.68295	-6.11345
3138.000	4.97543	-5.46148	4.66135	-6.14500
3139.000	4.97543	-5.45166	4.75364	-6.17358
3140.000	4.96562	-5.44585	4.57885	-6.10650
3141.000	4.97347	-5.44971	4.65938	-6.21949
3142.000	4.97347	-5.49685	4.60635	-6.12979
3143.000	4.96366	-5.53424	4.68688	-6.11145
3144.000	4.97740	-5.47914	4.71437	-6.15825
3145.000	4.96562	-5.48513	4.63189	-6.11389
3146.000	4.95189	-5.44793	4.70848	-6.00735
3147.000	4.99309	-5.48883	4.63581	-6.08248
3148.000	4.94208	-5.52067	4.59064	-6.03188
3149.000	4.99702	-5.49076	4.72026	-6.10136
3150.000	4.98721	-5.49281	4.64760	-6.07650
3151.000	4.96955	-5.48117	4.62796	-6.15313
3152.000	4.96955	-5.44385	4.66920	-6.13709
3153.000	4.97936	-5.40252	4.72615	-6.12875
3154.000	4.96366	-5.45569	4.67902	-6.08995
3155.000	4.95189	-5.46168	4.63778	-6.15500
3156.000	4.95974	-5.48322	4.58867	-6.09269
3157.000	4.93815	-5.43822	4.62010	-6.12379
3158.000	4.94404	-5.50298	4.55921	-6.06548
3159.000	4.95189	-5.47150	4.59849	-6.11025
3160.000	4.95777	-5.50287	4.60046	-6.10043
3161.000	4.94011	-5.48338	4.60832	-6.12389
3162.000	4.97936	-5.47323	4.62796	-6.12372
3163.000	4.93619	-5.48144	4.64956	-6.13138
3164.000	4.95581	-5.56179	4.62207	-6.13357
3165.000	4.98132	-5.51642	4.63581	-6.16090
3166.000	4.97543	-5.53414	4.65938	-6.13913
3167.000	4.89890	-5.59564	4.67117	-6.09786
3168.000	4.95581	-5.49896	4.58082	-6.13393
3169.000	4.91853	-5.49337	4.64171	-6.14321
3170.000	4.99505	-5.51630	4.63385	-6.17660
3171.000	4.91264	-5.51895	4.69277	-6.08984
3172.000	4.95777	-5.50680	4.62992	-6.13351
3173.000	4.95974	-5.49893	4.70651	-6.06619
3174.000	4.92441	-5.55813	4.67902	-6.14484
3175.000	4.95974	-5.50678	4.62010	-6.17084
3176.000	4.92834	-5.51686	4.67902	-6.11348
3177.000	4.95974	-5.54998	4.73400	-6.11300
3178.000	4.94600	-5.52457	4.69473	-6.17606
3179.000	4.97543	-5.55967	4.73597	-6.20118
3180.000	4.95974	-5.55980	4.66527	-6.12536
3181.000	4.94404	-5.60508	4.55331	-6.08318
3182.000	4.95581	-5.55394	4.63974	-6.17655
3183.000	4.93815	-5.53445	4.73793	-6.13257
3184.000	4.95189	-5.51863	4.63778	-6.10991
3185.000	4.98917	-5.55366	4.66920	-6.18413
3186.000	4.94993	-5.56184	4.64367	-6.17651
3187.000	4.93226	-5.54039	4.70259	-6.13876
3188.000	4.96366	-5.54995	4.64563	-6.10201
3189.000	4.98524	-5.52817	4.62599	-6.18842
3190.000	4.96562	-5.51066	4.62992	-6.17467
3191.000	4.95581	-5.52252	4.56117	-6.13409
3192.000	4.96170	-5.56567	4.64367	-6.04908
3193.000	4.94600	-5.58936	4.60635	-6.14743
3194.000	4.95581	-5.50878	4.64956	-6.18038
3195.000	4.90283	-5.55242	4.57492	-6.13202
3196.000	4.97151	-5.54006	4.58082	-6.20645
3197.000	4.96955	-5.48903	4.57296	-6.15360
3198.000	4.97151	-5.50472	4.76542	-6.16564
3199.000	4.95189	-5.56772	4.68688	-6.16633
3200.000	5.00290	-5.54176	4.63974	-6.09617
3201.000	5.00879	-5.51030	4.56706	-6.13404
3202.000	4.96759	-5.52242	4.62207	-6.13750
3203.000	4.99702	-5.52022	4.63974	-6.17459
3204.000	4.95777	-5.48716	4.57099	-6.11244
3205.000	4.93815	-5.49125	4.62403	-6.15316
3206.000	4.95974	-5.49303	4.58474	-6.06331
3207.000	4.93619	-5.53447	4.63385	-6.07270
3208.000	4.97151	-5.46937	4.57492	-6.13986
3209.000	4.96759	-5.49886	4.55724	-6.07923
3210.000	4.93423	-5.45200	4.70062	-6.13289
3211.000	4.94011	-5.49123	4.58867	-6.05347
3212.000	4.89890	-5.44836	4.62796	-6.11392
3213.000	4.97151	-5.42223	4.63189	-6.07860
3214.000	4.95777	-5.46359	4.61617	-6.13755
3215.000	4.95385	-5.43416	4.63974	-6.11774
3216.000	4.94796	-5.47153	4.59849	-6.04162
3217.000	4.92638	-5.50509	4.65349	-6.10194
3218.000	4.94796	-5.44600	4.62207	-6.15122
3219.000	4.96759	-5.49493	4.62796	-6.09431
3220.000	4.92245	-5.44424	4.62992	-6.12763
3221.000	4.96366	-5.54406	4.67313	-6.11353
3222.000	4.94600	-5.47547	4.66527	-6.18612
3223.000	4.96366	-5.50086	4.57885	-6.14179
3224.000	4.90479	-5.50723	4.63385	-6.15308
3225.000	4.97740	-5.54394	4.62992	-6.11782
3226.000	4.89890	-5.48175	4.57296	-6.11243
3227.000	4.93423	-5.52270	4.61617	-6.09245
3228.000	4.89694	-5.51908	4.59849	-6.15142
3229.000	4.92049	-5.51889	4.69277	-6.14080
3230.000	4.87142	-5.51340	4.62599	-6.15510
3231.000	4.91853	-5.52676	4.54349	-6.13424
3232.000	4.93815	-5.54231	4.52974	-6.11867
3233.000	4.92245	-5.46977	4.60439	-6.17097
3234.000	4.93030	-5.51292	4.60832	-6.14937
3235.000	4.91853	-5.47963	4.61028	-6.15916
3236.000	4.96759	-5.48904	4.60635	-6.16899
3237.000	4.96955	-5.48510	4.63189	-6.18641
3238.000	4.96170	-5.48516	4.60439	-6.17293
3239.000	4.92245	-5.45799	4.64760	-6.23135
3240.000	4.94011	-5.47159	4.59457	-6.17694
3241.000	4.93423	-5.54234	4.63974	-6.20202
3242.000	4.92049	-5.51103	4.62403	-6.15316
3243.000	4.94993	-5.49704	4.72026	-6.19740
3244.000	4.93815	-5.50303	4.68295	-6.25063
3245.000	4.90675	-5.50918	4.54545	-6.12050
3246.000	4.95385	-5.53825	4.62992	-6.16095
3247.000	4.92834	-5.51882	4.54349	-6.20677
3248.000	4.90479	-5.48563	4.53170	-6.23039
3249.000	4.90871	-5.50524	4.69080	-6.13298
3250.000	4.91068	-5.52682	4.72222	-6.15426
3251.000	4.91068	-5.55039	4.66920	-6.17825
3252.000	4.90675	-5.53471	4.69080	-6.22901
3253.000	4.90479	-5.57989	4.67509	-6.17624
3254.000	4.91656	-5.56997	4.67902	-6.25654
3255.000	4.94404	-5.52458	4.69473	-6.26424
3256.000	4.88124	-5.52117	4.72026	-6.21503
3257.000	4.92638	-5.51295	4.63189	-6.19229
3258.000	4.90283	-5.53082	4.70259	-6.24850
3259.000	4.90086	-5.51709	4.62403	-6.14924
3260.000	4.90871	-5.51309	4.67313	-6.21545
3261.000	4.92245	-5.57385	4.66724	-6.21354
3262.000	4.91460	-5.51501	4.69080	-6.18982
3263.000	4.93226	-5.50504	4.67313	-6.19781
3264.000	4.89105	-5.51324	4.65349	-6.18231
3265.000	4.84591	-5.55092	4.54938	-6.21456
3266.000	4.90675	-5.52293	4.62992	-6.19231
3267.000	4.90675	-5.52293	4.64367	-6.22551
3268.000	4.87535	-5.55264	4.69080	-6.23293
3269.000	4.88909	-5.50933	4.64760	-6.20195
3270.000	4.87928	-5.55654	4.67509	-6.21151
3271.000	4.92834	-5.53061	4.72419	-6.15425
3272.000	4.91068	-5.59751	4.63778	-6.21380
3273.000	4.87535	-5.58013	4.64760	-6.16864
3274.000	4.88909	-5.56627	4.69670	-6.17213
3275.000	4.90283	-5.57991	4.61224	-6.19442
3276.000	4.86357	-5.61557	4.62403	-6.25899
3277.000	4.84198	-5.58237	4.58082	-6.19077
3278.000	4.93226	-5.53254	4.67706	-6.22129
3279.000	4.85180	-5.56069	4.65545	-6.23520
3280.000	4.90086	-5.53280	4.63974	-6.15106
3281.000	4.91656	-5.50910	4.65349	-6.11762
3282.000	4.89498	-5.53481	4.64171	-6.13929
3283.000	4.94208	-5.50496	4.64760	-6.11375
3284.000	4.90479	-5.54651	4.72026	-6.15232
3285.000	4.92834	-5.51686	4.66331	-6.13322
3286.000	4.94993	-5.51275	4.60635	-6.13763
3287.000	4.93423	-5.53841	4.64367	-6.16475
3288.000	4.92834	-5.44026	4.73400	-6.15808
3289.000	4.93815	-5.40875	4.57492	-6.11633
3290.000	4.89301	-5.43466	4.62796	-6.19821
3291.000	4.91853	-5.42856	4.71044	-6.20336
3292.000	4.88124	-5.43672	4.69670	-6.22308
3293.000	4.89498	-5.44643	4.77131	-6.20086
3294.000	4.88124	-5.48779	4.73008	-6.19927
3295.000	4.85376	-5.44479	4.72222	-6.20718
3296.000	4.86946	-5.43681	4.77916	-6.17532
3297.000	4.84198	-5.47435	4.73008	-6.22474
3298.000	4.85376	-5.47230	4.78702	-6.20660
3299.000	4.86357	-5.43096	4.72419	-6.13857
3300.000	4.85180	-5.45856	4.75560	-6.12065
3301.000	4.80272	-5.46092	4.73008	-6.11892
3302.000	4.84787	-5.49198	4.73204	-6.12478
3303.000	4.81843	-5.46472	4.79291	-6.15952
3304.000	4.82039	-5.44703	4.77720	-6.15182
3305.000	4.80468	-5.46876	4.73008	-6.12284
3306.000	4.77524	-5.47292	4.72615	-6.11895
3307.000	4.83217	-5.49604	4.80076	-6.13005
3308.000	4.75953	-5.49662	4.75560	-6.04616
3309.000	4.77916	-5.45914	4.76935	-6.05780
3310.000	4.74579	-5.44762	4.74971	-6.07954
3311.000	4.78702	-5.44533	4.75168	-6.05011
3312.000	4.75953	-5.45340	4.76149	-6.00689
3313.000	4.69670	-5.40280	4.81646	-5.99857
3314.000	4.66527	-5.36767	4.78505	-5.88509
3315.000	4.56314	-5.31535	4.70848	-5.88378
3316.000	4.52777	-5.21139	4.74579	-5.79321
3317.000	4.45704	-5.11549	4.64367	-5.71749
3318.000	4.40201	-4.95447	4.53367	-5.67124
3319.000	4.36663	-4.84837	4.55331	-5.60038
3320.000	4.27031	-4.67757	4.53956	-5.51012
3321.000	4.20542	-4.56954	4.38039	-5.36387
3322.000	4.13660	-4.39245	4.39612	-5.17297
3323.000	4.06579	-4.21919	4.31553	-5.02788
3324.000	3.97923	-4.11106	4.31553	-4.88217
3325.000	3.90249	-3.99492	4.26245	-4.67170
3326.000	3.83951	-3.81740	4.24278	-4.57524
3327.000	3.76078	-3.70508	4.15036	-4.50677
3328.000	3.65841	-3.57104	4.03628	-4.34565
3329.000	3.53238	-3.48054	3.97726	-4.26307
3330.000	3.48708	-3.41146	3.80015	-4.13365
3331.000	3.35903	-3.31889	3.68400	-4.06309
3332.000	3.29401	-3.22409	3.59343	-4.03584
3333.000	3.21912	-3.11343	3.47132	-3.90594
3334.000	3.18759	-3.08184	3.47329	-3.82686
3335.000	3.16985	-2.96898	3.54813	-3.68025
3336.000	3.17774	-2.84612	3.53041	-3.63286
3337.000	3.21518	-2.70929	3.59343	-3.42887
3338.000	3.26642	-2.59618	3.65644	-3.36137
3339.000	3.41616	-2.43920	3.73913	-3.16714
3340.000	3.46344	-2.27255	3.72731	-3.00882
3341.000	3.56979	-2.16722	3.83754	-2.93915
3342.000	3.65250	-2.01435	3.87297	-2.81430
3343.000	3.66431	-1.90724	3.97136	-2.77635
3344.000	3.71550	-1.77822	3.98119	-2.60799
3345.000	3.65841	-1.66923	3.93004	-2.51110
3346.000	3.63281	-1.55620	3.88281	-2.36858
3347.000	3.53238	-1.41747	3.82180	-2.15669
3348.000	3.42010	-1.23106	3.69188	-2.10943
3349.000	3.27824	-1.07241	3.72731	-1.93486
3350.000	3.11466	-0.97726	3.51071	-1.79449
3351.000	2.97863	-0.80855	3.38661	-1.63400
3352.000	2.81496	-0.60602	3.26445	-1.48932
3353.000	2.63941	-0.45310	3.13634	-1.26715
3354.000	2.52103	-0.29812	2.89385	-1.13437
3355.000	2.34144	-0.08349	2.71042	-0.96371
3356.000	2.23683	0.06560	2.61771	-0.92802
3357.000	2.13220	0.31610	2.44210	-0.77314
3358.000	1.99004	0.37378	2.39868	-0.60821
3359.000	1.86761	0.52094	2.26841	-0.36974
3360.000	1.84588	0.68597	2.27433	-0.07156
3361.000	1.74713	0.79535	2.16379	0.04970
3362.000	1.78466	0.92456	2.08679	0.22267
3363.000	1.79453	1.05575	2.13418	0.44532
3364.000	1.84588	1.23063	2.11443	0.71170
3365.000	1.85181	1.49494	2.14602	0.94026
3366.000	1.93278	1.68361	2.21709	1.15285
3367.000	2.05915	1.89600	2.23683	1.39326
3368.000	2.14405	2.15204	2.30394	1.64348
3369.000	2.26841	2.35629	2.42433	1.86773
3370.000	2.37105	2.54858	2.37105	2.17155
3371.000	2.40460	2.84006	2.49340	2.44122
3372.000	2.52103	3.11533	2.54076	2.69106
3373.000	2.65124	3.42006	2.61376	2.99026
3374.000	2.76171	3.69490	2.64138	3.29532
3375.000	2.88793	3.98131	2.73015	3.51686
3376.000	3.04764	4.34632	2.76960	3.76809
3377.000	3.15014	4.62428	2.83863	4.05068
3378.000	3.14226	4.85514	2.81891	4.28003
3379.000	3.07327	5.09008	2.85638	4.58011
3380.000	3.04961	5.28329	2.80905	4.84082
3381.000	2.90962	5.49861	2.83074	5.00443
3382.000	2.82680	5.67615	2.70451	5.23562
3383.000	2.82088	5.94561	2.62560	5.51371
3384.000	2.76368	6.20329	2.55457	5.76398
3385.000	2.71634	6.38416	2.48156	5.93543
3386.000	2.67492	6.64136	2.44604	6.10464
3387.000	2.57035	6.81636	2.35723	6.29167
3388.000	2.56641	7.00441	2.23091	6.41004
3389.000	2.53089	7.16706	2.28420	6.72566
3390.000	2.50722	7.32170	2.33552	6.89005
3391.000	2.49538	7.50744	2.20919	7.00230
3392.000	2.54668	7.71803	2.19735	7.23920
3393.000	2.66111	7.97672	2.22696	7.48543
3394.000	2.70253	8.26664	2.24867	7.76068
3395.000	2.79721	8.56739	2.47564	7.96617
3396.000	2.82088	8.72259	2.42433	8.27620
3397.000	2.92934	8.97976	2.52892	8.50508
3398.000	3.03778	9.18617	2.59995	8.79404
3399.000	3.05552	9.50710	2.57627	9.00759
3400.000	3.01412	9.68322	2.60192	9.25345
3401.000	2.96089	9.85348	2.52300	9.51519
3402.000	2.96089	10.02889	2.43618	9.68778
3403.000	2.89385	10.20856	2.39868	9.78072
3404.000	2.81891	10.38233	2.38486	9.94868
3405.000	2.72620	10.56183	2.33750	9.93744
3406.000	2.62954	10.70086	2.18353	10.04066
3407.000	2.56444	10.83183	2.18945	10.16394
3408.000	2.53287	10.98156	2.10654	10.17219
3409.000	2.44210	11.11058	2.08284	10.33405
3410.000	2.38092	11.16656	2.04335	10.43817
3411.000	2.34144	11.15539	1.99004	10.51733
3412.000	2.31184	11.27420	2.00979	10.52105
3413.000	2.34737	11.33127	2.03743	10.71678
3414.000	2.34342	11.38480	2.04730	10.79731
3415.000	2.34342	11.52418	2.13023	11.00570
3416.000	2.39868	11.68585	2.07100	11.05399
3417.000	2.36315	11.90328	2.11838	11.18191
3418.000	2.35329	12.06694	2.10456	11.27573
3419.000	2.36315	12.16756	2.08284	11.44405
3420.000	2.35526	12.36692	2.13812	11.63260
3421.000	2.34539	12.43337	2.11641	11.70521
3422.000	2.28815	12.64600	2.15392	11.84402
3423.000	2.30789	12.76311	2.09666	11.98339
3424.000	2.30197	12.88412	2.04533	12.04463
3425.000	2.34144	12.99139	2.09666	12.14310
3426.000	2.29013	13.03148	2.10061	12.20956
3427.000	2.34934	13.03472	2.08679	12.21726
3428.000	2.36513	13.03458	2.13615	12.20359
3429.000	2.31381	13.00863	2.22104	12.12313
3430.000	2.32171	12.88961	2.29407	12.05792
3431.000	2.37500	12.82868	2.24078	12.04124
3432.000	2.37500	12.72470	2.25854	11.99165
3433.000	2.35921	12.59617	2.23880	11.75575
3434.000	2.37500	12.50702	2.28618	11.76490
3435.000	2.35329	12.46173	2.19735	11.66839
3436.000	2.30394	12.40528	2.23288	11.50978
3437.000	2.27039	12.36953	2.23288	11.52314
3438.000	2.28618	12.33905	2.21709	11.47171
3439.000	2.27433	12.34294	2.17761	11.50065
3440.000	2.21314	12.40603	2.18156	11.56169
3441.000	2.16379	12.45952	2.17958	11.55598
3442.000	2.11048	12.48457	2.12036	11.68040
3443.000	2.08877	12.50559	2.11246	11.62897
3444.000	2.12036	12.58680	2.09271	11.64247
3445.000	2.09074	12.62868	2.07692	11.74362
3446.000	2.08877	12.63816	2.10851	11.74530
3447.000	2.09864	12.63430	2.18550	11.82474
3448.000	2.19143	12.63734	2.13220	11.79657
3449.000	2.14602	12.68313	2.17761	11.77908
3450.000	2.17366	12.66209	2.14405	11.80219
3451.000	2.14800	12.72285	2.20130	11.77890
3452.000	2.17169	12.70374	2.10851	11.76245
3453.000	2.19143	12.64113	2.25854	11.81084
3454.000	2.17366	12.66398	2.23091	11.87389
3455.000	2.18748	12.70361	2.29013	11.85248
3456.000	2.21314	12.69772	2.16971	11.82105
3457.000	2.15787	12.70574	2.18156	11.86095
3458.000	2.17958	12.69421	2.14405	11.86885
3459.000	2.13812	12.71347	2.21512	11.84736
3460.000	2.14997	12.72283	2.21512	11.86450
3461.000	2.12036	12.69280	2.19538	11.92746
3462.000	2.15589	12.71332	2.13812	11.84604
3463.000	2.12825	12.69841	2.21314	11.88736
3464.000	2.15589	12.70576	2.12036	11.83285
3465.000	2.13418	12.69458	2.20722	11.84361
3466.000	2.10851	12.69478	2.15392	11.73543
3467.000	2.12628	12.66815	2.16576	11.70866
3468.000	2.14010	12.63586	2.16576	11.74297
3469.000	2.14010	12.65290	2.29605	11.77244
3470.000	2.13812	12.64156	2.33552	11.69399
3471.000	2.13418	12.65295	2.25262	11.70228
3472.000	2.09864	12.61915	2.23091	11.71769
3473.000	2.12628	12.64922	2.24275	11.65469
3474.000	2.17563	12.62801	2.16576	11.62476
3475.000	2.14602	12.61689	2.15392	11.72209
3476.000	2.12036	12.65495	2.15392	11.67253
3477.000	2.10456	12.61911	2.18353	11.72568
3478.000	2.08877	12.61166	2.14800	11.69736
3479.000	2.09864	12.58128	2.20525	11.75219
3480.000	2.08877	12.55295	2.20722	11.64924
3481.000	2.12628	12.53372	2.19143	11.63983
3482.000	2.09469	12.56427	2.10851	11.64044
3483.000	2.07495	12.53411	2.25065	11.65844
3484.000	2.11443	12.51486	2.25854	11.61834
3485.000	2.07100	12.50383	2.19932	11.63023
3486.000	2.08877	12.48853	2.25065	11.59551
3487.000	2.07692	12.47157	2.28815	11.59331
3488.000	2.11048	12.49215	2.24078	11.61275
3489.000	2.10061	12.54339	2.27236	11.68878
3490.000	2.06705	12.54175	2.23486	11.61280
3491.000	2.06705	12.52091	2.17958	11.65136
3492.000	2.04533	12.49076	2.15589	11.66679
3493.000	2.09469	12.52449	2.16576	11.68197
3494.000	2.10061	12.47328	2.23091	11.64334
3495.000	2.06705	12.47733	2.19932	11.57873
3496.000	2.06705	12.45837	2.27828	11.62581
3497.000	2.10654	12.48839	2.31776	11.68651
3498.000	2.06507	12.50577	2.30986	11.60077
3499.000	2.08284	12.52079	2.17761	11.58080
3500.000	2.07692	12.55873	2.22696	11.65863
3501.000	2.06507	12.50387	2.28618	11.72869
3502.000	2.11443	12.50918	2.30986	11.65416
3503.000	2.08679	12.53781	2.23486	11.72529
3504.000	2.05323	12.55133	2.29605	11.71337
3505.000	2.04138	12.50974	2.25065	11.62603
3506.000	2.06310	12.51526	2.26052	11.67553
3507.000	2.05125	12.52482	2.28815	11.62383
3508.000	2.04730	12.49643	2.24670	11.65275
3509.000	2.03151	12.52308	2.31776	11.73416
3510.000	2.04335	12.50214	2.34144	11.62340
3511.000	2.04533	12.49076	2.28618	11.53036
3512.000	2.01571	12.50804	2.27631	11.62773
3513.000	2.04335	12.50593	2.28815	11.62383
3514.000	2.01769	12.47580	2.35723	11.58894
3515.000	1.99399	12.50251	2.31579	11.50341
3516.000	2.05323	12.49449	2.22893	11.68721
3517.000	1.99202	12.48736	2.28618	11.64672
3518.000	2.05323	12.48691	2.30197	11.65423
3519.000	2.05125	12.44901	2.25460	11.58785
3520.000	2.03743	12.51924	2.34934	11.63096
3521.000	2.05718	12.50583	2.29802	11.67714
3522.000	2.03151	12.46622	2.38289	11.60781
3523.000	2.04730	12.46800	2.26841	11.58774
3524.000	2.05125	12.50587	2.27236	11.64111
3525.000	2.11048	12.48836	2.33355	11.59867
3526.000	2.09271	12.45628	2.35723	11.60229
3527.000	2.07692	12.45451	2.26644	11.56295
3528.000	2.10456	12.42396	2.42236	11.51972
3529.000	2.05718	12.44707	2.25460	11.51915
3530.000	2.11048	12.41443	2.31973	11.57589
3531.000	2.04730	12.38457	2.31973	11.59878
3532.000	2.04533	12.41872	2.36118	11.63659
3533.000	2.07297	12.41851	2.29802	11.62375
3534.000	2.03941	12.40360	2.29802	11.63138
3535.000	2.00781	12.43038	2.33947	11.60625
3536.000	2.00584	12.45504	2.36513	11.62512
3537.000	2.03546	12.42828	2.37105	11.54113
3538.000	2.02558	12.47574	2.32171	11.61212
3539.000	2.01176	12.43793	2.34737	11.65005
3540.000	1.98017	12.40782	2.32960	11.57963
3541.000	2.00386	12.43230	2.38881	11.63827
3542.000	2.03941	12.40170	2.29210	11.65431
3543.000	2.02361	12.41320	2.27433	11.63728
3544.000	2.01374	12.46256	2.30789	11.69803
3545.000	2.02163	12.43028	2.41447	11.62852
3546.000	2.02756	12.42075	2.24275	11.63372
3547.000	2.02163	12.45113	2.36118	11.65184
3548.000	2.00189	12.44180	2.36908	11.63652
3549.000	1.97622	12.47042	2.39671	11.69349
3550.000	2.02756	12.39420	2.38092	11.53533
3551.000	1.99004	12.38689	2.31184	11.60647
3552.000	2.00781	12.44175	2.44012	11.59970
3553.000	2.10456	12.41069	2.46380	11.59950
3554.000	2.05718	12.41674	2.43618	11.56540
3555.000	2.04730	12.36940	2.32368	11.62164
3556.000	2.08087	12.39570	2.41052	11.59232
3557.000	2.06310	12.40152	2.37105	11.59074
3558.000	2.04138	12.42634	2.30986	11.56070
3559.000	2.07889	12.38813	2.36315	11.60987
3560.000	2.05915	12.40155	2.32565	11.58729
3561.000	1.99399	12.44375	2.34144	11.52801
3562.000	1.94265	12.46687	2.40855	11.59997
3563.000	1.84786	12.38030	2.31579	11.45568
3564.000	1.75700	12.27462	2.21709	11.46408
3565.000	1.58120	12.07236	2.02558	11.33363
3566.000	1.37573	11.82788	1.84193	11.11291
3567.000	1.12477	11.59250	1.67800	10.83022
3568.000	0.86586	11.38516	1.43105	10.54916
3569.000	0.50412	11.00121	1.21765	10.25180
3570.000	0.21945	10.50038	0.89156	9.81502
3571.000	-0.06524	10.16157	0.70575	9.42097
3572.000	-0.32422	9.73488	0.49424	9.10352
3573.000	-0.56145	9.39218	0.26887	8.57153
3574.000	-0.74133	8.92459	0.06722	8.31467
3575.000	-0.98643	8.43612	-0.05733	7.92863
3576.000	-1.13070	8.04220	-0.14630	7.42841
3577.000	-1.25124	7.71789	-0.28271	7.13081
3578.000	-1.36783	7.30897	-0.28469	6.81719
3579.000	-1.43303	6.89946	-0.32620	6.57187
3580.000	-1.48045	6.59728	-0.31434	6.18284
3581.000	-1.47649	6.34400	-0.37563	5.97429
3582.000	-1.54169	6.08831	-0.38946	5.78727
3583.000	-1.32436	5.90593	-0.45668	5.50549
3584.000	-1.34412	5.63616	-0.40528	5.32808
3585.000	-1.29669	5.42937	-0.49028	5.10508
3586.000	-1.25124	5.24215	-0.49819	4.88001
3587.000	-1.20579	4.97783	-0.48040	4.66665
3588.000	-1.21963	4.73096	-0.38946	4.38400
3589.000	-1.24729	4.48785	-0.57727	4.25926
3590.000	-1.39746	4.31557	-0.66424	3.92669
3591.000	-1.47847	4.00680	-0.80656	3.70278
3592.000	-1.54564	3.88594	-0.92713	3.47877
3593.000	-1.69182	3.64014	-1.05560	3.19912
3594.000	-1.79453	3.40025	-1.14058	2.97889
3595.000	-1.86761	3.17418	-1.14848	2.78048
3596.000	-1.94462	2.91629	-1.28879	2.61760
3597.000	-2.01176	2.68609	-1.33424	2.49052
3598.000	-2.03151	2.45192	-1.27298	2.27614
3599.000	-2.03941	2.33084	-1.36190	2.11917
3600.000	-2.13023	2.09845	-1.44291	1.95821
3601.000	-2.08087	1.98137	-1.42908	1.78339
3602.000	-2.13615	1.94754	-1.51403	1.63828
3603.000	-2.10259	1.87609	-1.55552	1.61241
3604.000	-2.11048	1.76884	-1.53774	1.55877
3605.000	-2.10456	1.69535	-1.64639	1.47523
3606.000	-2.04730	1.58615	-1.57132	1.36200
3607.000	-2.05915	1.58614	-1.57923	1.34609
3608.000	-2.02361	1.54445	-1.51008	1.33818
3609.000	-1.97227	1.52463	-1.43698	1.25673
3610.000	-1.98017	1.50675	-1.36783	1.23092
3611.000	-1.97622	1.62198	-1.32633	1.33233
3612.000	-1.95252	1.62995	-1.33226	1.28859
3613.000	-1.87156	1.63400	-1.38561	1.34223
3614.000	-1.91698	1.69753	-1.27891	1.34825
3615.000	-1.88735	1.79093	-1.39154	1.40583
3616.000	-1.83798	1.87043	-1.37771	1.52112
3617.000	-1.86761	1.91211	-1.41525	1.53700
3618.000	-1.91895	1.92397	-1.42513	1.52507
3619.000	-1.88538	1.90216	-1.46464	1.58863
3620.000	-1.91895	1.93589	-1.52786	1.61045
3621.000	-1.90513	1.95775	-1.53774	1.54287
3622.000	-1.91500	1.90014	-1.53576	1.53095
3623.000	-1.90118	1.91009	-1.60886	1.51103
3624.000	-1.90118	1.90612	-1.59108	1.36596
3625.000	-1.84983	1.89624	-1.61083	1.39178
3626.000	-1.87748	1.76313	-1.59503	1.26061
3627.000	-1.91105	1.71343	-1.66219	1.24069
3628.000	-1.83206	1.65589	-1.62466	1.18903
3629.000	-1.88735	1.60419	-1.60293	1.16917
3630.000	-1.86168	1.55652	-1.60096	1.03996
3631.000	-1.85181	1.52673	-1.64244	1.05783
3632.000	-1.83601	1.49296	-1.60293	0.98827
3633.000	-1.84588	1.51282	-1.58910	1.03996
3634.000	-1.84786	1.43334	-1.60096	1.03399
3635.000	-1.88933	1.34984	-1.49625	1.04398
3636.000	-1.83601	1.35386	-1.57330	1.05389
3637.000	-1.83601	1.39957	-1.63059	1.01807
3638.000	-1.82218	1.33002	-1.58318	1.02605
3639.000	-1.82021	1.35387	-1.56145	1.04196
3640.000	-1.86366	1.28428	-1.62269	1.04591
3641.000	-1.83798	1.28032	-1.60491	1.03797
3642.000	-1.85181	1.28628	-1.61083	0.98826
3643.000	-1.81626	1.31015	-1.64441	0.97433
3644.000	-1.83008	1.30617	-1.62269	0.97633
3645.000	-1.88341	1.29023	-1.55552	1.00817
3646.000	-1.85378	1.28628	-1.52391	1.03999
3647.000	-1.84588	1.33795	-1.55947	1.08769
3648.000	-1.85378	1.32205	-1.56540	1.02804
3649.000	-1.87156	1.35979	-1.50810	1.09169
3650.000	-1.81626	1.34791	-1.57923	1.13738
3651.000	-1.82416	1.35983	-1.46859	1.13147
3652.000	-1.84983	1.37571	-1.57527	1.04991
3653.000	-1.83008	1.35386	-1.53971	1.11951
3654.000	-1.83996	1.33398	-1.49625	1.17320
3655.000	-1.82811	1.35188	-1.58120	1.10756
3656.000	-1.90315	1.35579	-1.53774	1.15927
3657.000	-1.85378	1.32602	-1.56540	1.09961
3658.000	-1.85181	1.29820	-1.49428	1.18314
3659.000	-1.90513	1.30214	-1.53379	1.12349
3660.000	-1.90710	1.32201	-1.44883	1.16925
3661.000	-1.86761	1.36775	-1.53181	1.13939
3662.000	-1.87748	1.34985	-1.51996	1.13542
3663.000	-1.86958	1.35185	-1.51996	1.15530
3664.000	-1.84391	1.36776	-1.60688	1.10953
3665.000	-1.81033	1.33202	-1.54762	1.11354
3666.000	-1.83798	1.34988	-1.58713	1.10358
3667.000	-1.83008	1.33995	-1.55157	1.12546
3668.000	-1.83206	1.42540	-1.58713	1.10557
3669.000	-1.83403	1.34989	-1.53181	1.12547
3670.000	-1.82613	1.33399	-1.59305	1.19700
3671.000	-1.81428	1.35586	-1.57923	1.16521
3672.000	-1.78663	1.39563	-1.52786	1.29047
3673.000	-1.83206	1.39361	-1.49230	1.25471
3674.000	-1.82613	1.38765	-1.52984	1.24276
3675.000	-1.75305	1.40957	-1.51798	1.26264
3676.000	-1.72145	1.44139	-1.45081	1.27660
3677.000	-1.71158	1.46127	-1.49625	1.29844
3678.000	-1.72145	1.42748	-1.50020	1.29446
3679.000	-1.65824	1.48913	-1.53181	1.25270
3680.000	-1.66022	1.43547	-1.51798	1.26662
3681.000	-1.65429	1.45734	-1.50020	1.30440
3682.000	-1.62071	1.45935	-1.51008	1.28849
3683.000	-1.55354	1.48722	-1.50020	1.36204
3684.000	-1.56935	1.47528	-1.59898	1.33216
3685.000	-1.58120	1.44745	-1.56145	1.40374
3686.000	-1.54169	1.51902	-1.51798	1.47731
3687.000	-1.54367	1.56473	-1.53181	1.56871
3688.000	-1.49428	1.61842	-1.54959	1.67799
3689.000	-1.50415	1.65816	-1.63849	1.93022
3690.000	-1.44291	1.67807	-1.59898	2.08717
3691.000	-1.53379	1.64820	-1.56935	2.09713
3692.000	-1.57132	1.31231	-1.57923	1.26460
3693.000	-1.60096	1.22284	-1.55354	1.25268
3694.000	-1.68787	1.45930	NaN	NaN
3695.000	-1.78071	1.88638	NaN	NaN
3696.000	-1.90710	2.21986	NaN	NaN
3697.000	NaN	NaN	NaN	NaN
3698.000	NaN	NaN	NaN	NaN
3699.000	NaN	NaN	NaN	NaN
3700.000	NaN	NaN	NaN	NaN
3701.000	NaN	NaN	NaN	NaN
3702.000	NaN	NaN	NaN	NaN
3703.000	NaN	NaN	NaN	NaN
3704.000	NaN	NaN	NaN	NaN
3705.000	NaN	NaN	NaN	NaN
3706.000	NaN	NaN	NaN	NaN
3707.000	NaN	NaN	NaN	NaN
3708.000	NaN	NaN	NaN	NaN
3709.000	NaN	NaN	NaN	NaN
3710.000	NaN	NaN	NaN	NaN
3711.000	NaN	NaN	NaN	NaN
3712.000	NaN	NaN	NaN	NaN
3713.000	NaN	NaN	NaN	NaN
3714.000	NaN	NaN	NaN	NaN
3715.000	NaN	NaN	NaN	NaN
3716.000	NaN	NaN	NaN	NaN
3717.000	NaN	NaN	NaN	NaN
3718.000	NaN	NaN	NaN	NaN
3719.000	NaN	NaN	NaN	NaN
3720.000	NaN	NaN	NaN	NaN
3721.000	NaN	NaN	NaN	NaN
3722.000	NaN	NaN	NaN	NaN
3723.000	NaN	NaN	NaN	NaN
3724.000	NaN	NaN	NaN	NaN
3725.000	NaN	NaN	NaN	NaN
3726.000	NaN	NaN	NaN	NaN
3727.000	NaN	NaN	NaN	NaN
3728.000	NaN	NaN	NaN	NaN
3729.000	NaN	NaN	NaN	NaN
3730.000	NaN	NaN	NaN	NaN
3731.000	NaN	NaN	NaN	NaN
3732.000	NaN	NaN	NaN	NaN
3733.000	NaN	NaN	NaN	NaN
3734.000	NaN	NaN	NaN	NaN
3735.000	NaN	NaN	NaN	NaN
3736.000	NaN	NaN	NaN	NaN
3737.000	NaN	NaN	NaN	NaN
3738.000	NaN	NaN	NaN	NaN
3739.000	NaN	NaN	NaN	NaN
3740.000	NaN	NaN	NaN	NaN
3741.000	NaN	NaN	NaN	NaN
3742.000	NaN	NaN	NaN	NaN
3743.000	NaN	NaN	NaN	NaN
3744.000	NaN	NaN	NaN	NaN
3745.000	NaN	NaN	NaN	NaN
3746.000	NaN	NaN	NaN	NaN
3747.000	NaN	NaN	NaN	NaN
3748.000	NaN	NaN	NaN	NaN
3749.000	NaN	NaN	NaN	NaN
3750.000	NaN	NaN	NaN	NaN
3751.000	NaN	NaN	NaN	NaN
3752.000	NaN	NaN	NaN	NaN
3753.000	NaN	NaN	NaN	NaN
3754.000	NaN	NaN	NaN	NaN
3755.000	NaN	NaN	NaN	NaN
3756.000	NaN	NaN	NaN	NaN
3757.000	NaN	NaN	NaN	NaN
3758.000	NaN	NaN	NaN	NaN
3759.000	NaN	NaN	NaN	NaN
3760.000	NaN	NaN	NaN	NaN
3761.000	NaN	NaN	NaN	NaN
3762.000	NaN	NaN	NaN	NaN
3763.000	NaN	NaN	NaN	NaN
3764.000	NaN	NaN	NaN	NaN
3765.000	NaN	NaN	NaN	NaN
3766.000	NaN	NaN	NaN	NaN
3767.000	NaN	NaN	NaN	NaN
3768.000	NaN	NaN	NaN	NaN
3769.000	NaN	NaN	NaN	NaN
3770.000	NaN	NaN	NaN	NaN
3771.000	NaN	NaN	NaN	NaN
3772.000	NaN	NaN	NaN	NaN
3773.000	NaN	NaN	NaN	NaN
3774.000	NaN	NaN	NaN	NaN
3775.000	NaN	NaN	NaN	NaN
3776.000	NaN	NaN	NaN	NaN
3777.000	NaN	NaN	NaN	NaN
3778.000	NaN	NaN	NaN	NaN
3779.000	NaN	NaN	NaN	NaN
3780.000	NaN	NaN	NaN	NaN
3781.000	NaN	NaN	NaN	NaN
3782.000	NaN	NaN	NaN	NaN
3783.000	NaN	NaN	NaN	NaN
3784.000	NaN	NaN	NaN	NaN
3785.000	NaN	NaN	NaN	NaN
3786.000	NaN	NaN	NaN	NaN
3787.000	NaN	NaN	NaN	NaN
3788.000	NaN	NaN	NaN	NaN
3789.000	NaN	NaN	NaN	NaN
3790.000	NaN	NaN	NaN	NaN
3791.000	NaN	NaN	NaN	NaN
3792.000	NaN	NaN	NaN	NaN
3793.000	NaN	NaN	NaN	NaN
3794.000	NaN	NaN	NaN	NaN
3795.000	NaN	NaN	NaN	NaN
3796.000	NaN	NaN	NaN	NaN
3797.000	NaN	NaN	NaN	NaN
3798.000	NaN	NaN	NaN	NaN
3799.000	NaN	NaN	NaN	NaN
3800.000	NaN	NaN	NaN	NaN
3801.000	NaN	NaN	NaN	NaN
3802.000	NaN	NaN	NaN	NaN
3803.000	NaN	NaN	NaN	NaN
3804.000	NaN	NaN	NaN	NaN
3805.000	NaN	NaN	NaN	NaN
3806.000	NaN	NaN	NaN	NaN
3807.000	NaN	NaN	NaN	NaN
3808.000	NaN	NaN	NaN	NaN
3809.000	NaN	NaN	NaN	NaN
3810.000	NaN	NaN	NaN	NaN
3811.000	NaN	NaN	NaN	NaN
3812.000	NaN	NaN	NaN	NaN
3813.000	NaN	NaN	NaN	NaN
3814.000	NaN	NaN	NaN	NaN
3815.000	NaN	NaN	NaN	NaN
3816.000	NaN	NaN	NaN	NaN
3817.000	NaN	NaN	NaN	NaN
3818.000	NaN	NaN	NaN	NaN
3819.000	NaN	NaN	NaN	NaN
3820.000	NaN	NaN	NaN	NaN
3821.000	-2.42039	-0.67180	NaN	NaN
3822.000	-2.36908	-0.36971	NaN	NaN
3823.000	-2.31184	-0.27630	NaN	NaN
3824.000	-2.07692	-0.19285	NaN	NaN
3825.000	-1.80243	-0.20680	NaN	NaN
3826.000	-1.70960	-0.34203	NaN	NaN
3827.000	-1.59898	-0.55283	NaN	NaN
3828.000	-1.51403	-0.78948	NaN	NaN
3829.000	-1.21765	-0.74583	NaN	NaN
3830.000	-1.10896	-0.86915	NaN	NaN
3831.000	-1.01014	-1.03423	NaN	NaN
3832.000	-0.96271	-1.21917	NaN	NaN
3833.000	-0.88365	-1.40807	NaN	NaN
3834.000	-0.85796	-1.56115	NaN	NaN
3835.000	-0.73343	-1.65660	NaN	NaN
3836.000	-0.75715	-1.86527	NaN	NaN
3837.000	-0.67017	-1.87524	NaN	NaN
3838.000	-0.63459	-1.99050	NaN	NaN
3839.000	-0.63855	-2.06799	NaN	NaN
3840.000	-0.53971	-1.97067	NaN	NaN
3841.000	-0.51203	-2.03028	NaN	NaN
3842.000	-0.48435	-1.90511	NaN	NaN
3843.000	-0.45668	-1.51953	NaN	NaN
3844.000	-0.42505	-1.39031	NaN	NaN
3845.000	-0.41121	-1.27499	NaN	NaN
3846.000	-0.42702	-1.23720	NaN	NaN
3847.000	-0.40726	-1.18749	NaN	NaN
3848.000	-0.36772	-1.21136	0.39935	-2.61423
3849.000	-0.41516	-1.22130	0.11071	-2.73935
3850.000	-0.41714	-1.22130	0.14432	-1.69450
3851.000	-0.41912	-1.24516	0.21549	-1.64480
3852.000	-0.40330	-1.25709	0.19375	-1.41419
3853.000	-0.39539	-1.23323	0.17991	-1.41420
3854.000	-0.37365	-1.22727	0.17002	-1.37443
3855.000	-0.38353	-1.23522	0.17991	-1.34659
3856.000	-0.39342	-1.25312	0.25503	-1.30086
3857.000	-0.38156	-1.24119	0.17398	-1.30484
3858.000	-0.33609	-1.24716	0.21352	-1.34261
3859.000	-0.33806	-1.24517	0.22933	-1.35454
3860.000	-0.34399	-1.21534	0.21352	-1.35653
3861.000	-0.32027	-1.23523	0.22933	-1.40226
3862.000	-0.30050	-1.21734	0.23526	-1.42612
3863.000	-0.26294	-1.25910	0.24317	-1.39232
3864.000	-0.29655	-1.24517	0.26689	-1.48974
3865.000	-0.29655	-1.23324	0.19572	-1.47384
3866.000	-0.27678	-1.24915	0.22340	-1.43010
3867.000	-0.30050	-1.25909	0.29655	-1.47979
3868.000	-0.27282	-1.24120	0.19968	-1.51956
3869.000	-0.25108	-1.24319	0.24317	-1.48974
3870.000	-0.25899	-1.27103	0.25305	-1.53149
3871.000	-0.25899	-1.27302	0.21549	-1.44402
3872.000	-0.23724	-1.28694	0.20165	-1.51360
3873.000	-0.28073	-1.22927	0.13641	-1.54343
3874.000	-0.24515	-1.29489	0.19770	-1.58119
3875.000	-0.29062	-1.28296	0.20956	-1.55336
3876.000	-0.24515	-1.25313	0.18188	-1.54939
3877.000	-0.24712	-1.27898	0.15421	-1.53348
3878.000	-0.22142	-1.31677	0.21747	-1.63486
3879.000	-0.18584	-1.27302	0.23526	-1.57324
3880.000	-0.21352	-1.30086	0.23526	-1.61896
3881.000	-0.22933	-1.30881	0.21945	-1.57125
3882.000	-0.22735	-1.29688	0.23329	-1.62691
3883.000	-0.26689	-1.33863	0.22340	-1.56727
3884.000	-0.28666	-1.34857	0.22735	-1.52751
3885.000	-0.24712	-1.34062	0.18979	-1.55336
3886.000	-0.24910	-1.31875	0.23724	-1.64082
3887.000	-0.25503	-1.36448	0.22340	-1.55932
3888.000	-0.23724	-1.35255	0.17793	-1.59710
3889.000	-0.27876	-1.37641	0.16409	-1.57324
3890.000	-0.23131	-1.35653	0.23329	-1.56727
3891.000	-0.23724	-1.37244	0.22933	-1.60902
3892.000	-0.22142	-1.36449	0.22735	-1.55932
3893.000	-0.22735	-1.36250	0.17002	-1.54342
3894.000	-0.23922	-1.37641	0.14037	-1.48975
3895.000	-0.21352	-1.35653	0.21352	-1.59113
3896.000	-0.23526	-1.39232	0.18188	-1.56529
3897.000	-0.21747	-1.38039	0.21747	-1.51559
3898.000	-0.23329	-1.33665	0.19177	-1.51758
3899.000	-0.21352	-1.31478	0.14037	-1.50168
3900.000	-0.26492	-1.38039	0.16211	-1.50963
3901.000	-0.24712	-1.34460	0.22340	-1.47185
3902.000	-0.27282	-1.35056	0.20956	-1.49372
3903.000	-0.25701	-1.36051	0.16409	-1.56529
3904.000	-0.30248	-1.37243	0.21747	-1.51559
3905.000	-0.23922	-1.33068	0.19572	-1.50962
3906.000	-0.29655	-1.38038	0.20561	-1.47185
3907.000	-0.27282	-1.36647	0.24317	-1.52354
3908.000	-0.30050	-1.39828	0.16409	-1.58517
3909.000	-0.24317	-1.35454	0.25899	-1.50962
3910.000	-0.30841	-1.40424	0.22142	-1.59709
3911.000	-0.26096	-1.43805	0.22142	-1.49173
3912.000	-0.30841	-1.42611	0.17991	-1.52752
3913.000	-0.24515	-1.37442	0.22142	-1.50565
3914.000	-0.30446	-1.45395	0.28469	-1.57323
3915.000	-0.26294	-1.35653	0.25108	-1.49570
3916.000	-0.26689	-1.43805	0.16409	-1.60107
3917.000	-0.23724	-1.43407	0.25503	-1.60703
3918.000	-0.25899	-1.40226	0.17398	-1.54143
3919.000	-0.27085	-1.36846	0.22538	-1.51757
3920.000	-0.25701	-1.39232	0.19770	-1.55734
3921.000	-0.28073	-1.37243	0.28469	-1.54937
3922.000	-0.28073	-1.39430	0.23724	-1.48974
3923.000	-0.26096	-1.41816	0.22340	-1.58516
3924.000	-0.27876	-1.41021	0.20956	-1.56330
3925.000	-0.31236	-1.41816	0.26096	-1.55733
3926.000	-0.26492	-1.41618	0.21352	-1.51956
3927.000	-0.20956	-1.42215	0.19770	-1.62095
3928.000	-0.21549	-1.43805	0.24317	-1.60504
3929.000	-0.24317	-1.39828	0.28073	-1.58516
3930.000	-0.23922	-1.40624	0.21747	-1.58318
3931.000	-0.20165	-1.41618	0.22735	-1.53745
3932.000	-0.21945	-1.41419	0.22538	-1.57721
3933.000	-0.23131	-1.45793	0.27678	-1.61895
3934.000	-0.19572	-1.39232	0.15618	-1.65872
3935.000	-0.19968	-1.40226	0.12653	-1.58716
3936.000	-0.17002	-1.40823	0.20758	-1.58517
3937.000	-0.17793	-1.43805	0.20956	-1.48378
3938.000	-0.18188	-1.45992	0.18979	-1.50167
3939.000	-0.16409	-1.39431	0.21549	-1.51161
3940.000	-0.20956	-1.45197	0.20561	-1.60902
3941.000	-0.19968	-1.45992	0.16409	-1.63288
3942.000	-0.16211	-1.47583	0.22735	-1.58318
3943.000	-0.18386	-1.48179	0.20363	-1.57721
3944.000	-0.20165	-1.50565	0.14432	-1.58318
3945.000	-0.18386	-1.49173	0.27876	-1.57323
3946.000	-0.20561	-1.47980	0.16409	-1.54144
3947.000	-0.19572	-1.50565	0.20561	-1.62492
3948.000	-0.14432	-1.47583	0.21945	-1.65871
3949.000	-0.18979	-1.49571	0.19968	-1.60107
3950.000	-0.09885	-1.48975	0.28271	-1.60504
3951.000	-0.11467	-1.45993	0.21747	-1.61697
3952.000	-0.15618	-1.50366	0.17002	-1.58318
3953.000	-0.11862	-1.44005	0.30643	-1.60106
3954.000	-0.15421	-1.47185	0.19375	-1.63288
3955.000	-0.15421	-1.47583	0.17398	-1.61499
3956.000	-0.15421	-1.44203	0.17793	-1.60306
3957.000	-0.19572	-1.43209	0.23526	-1.58318
3958.000	-0.13641	-1.46987	0.19177	-1.57523
3959.000	-0.17398	-1.42613	0.17398	-1.59908
3960.000	-0.19375	-1.45197	0.23922	-1.61498
3961.000	-0.19770	-1.48776	0.20758	-1.60902
3962.000	-0.15223	-1.44601	0.20165	-1.62691
3963.000	-0.15421	-1.44402	0.23526	-1.62094
3964.000	-0.18979	-1.47583	0.26887	-1.59311
3965.000	-0.18781	-1.49968	0.19968	-1.61697
3966.000	-0.17991	-1.47384	0.19375	-1.61300
3967.000	-0.15421	-1.51957	0.24712	-1.62492
3968.000	-0.12455	-1.47583	0.21747	-1.68257
3969.000	-0.17200	-1.51559	0.26689	-1.65473
3970.000	-0.17002	-1.51161	0.16804	-1.67065
3971.000	-0.14037	-1.50366	0.28073	-1.55733
3972.000	-0.14827	-1.49969	0.18188	-1.61101
3973.000	-0.16211	-1.48776	0.27282	-1.69846
3974.000	-0.16211	-1.53547	0.26887	-1.58118
3975.000	-0.17398	-1.53149	0.25503	-1.61100
3976.000	-0.20956	-1.49968	0.20165	-1.65673
3977.000	-0.17595	-1.52752	0.18979	-1.68456
3978.000	-0.16409	-1.51559	0.19770	-1.67263
3979.000	-0.17793	-1.49571	0.23922	-1.70443
3980.000	-0.17002	-1.46986	0.24119	-1.74021
3981.000	-0.17793	-1.51559	0.19770	-1.65077
3982.000	-0.17398	-1.52553	0.29259	-1.72629
3983.000	-0.14827	-1.46191	0.21549	-1.67462
3984.000	-0.17398	-1.46986	0.18781	-1.67860
3985.000	-0.17595	-1.51957	0.21154	-1.71636
3986.000	-0.15025	-1.52752	0.24515	-1.70045
3987.000	-0.16014	-1.53746	0.20758	-1.67859
3988.000	-0.15025	-1.52951	0.20956	-1.65673
3989.000	-0.13444	-1.51162	0.28271	-1.68653
3990.000	-0.16211	-1.52553	0.24515	-1.68256
3991.000	-0.12653	-1.51758	0.20165	-1.75412
3992.000	-0.17002	-1.53547	0.22735	-1.71636
3993.000	-0.16409	-1.54939	0.23724	-1.68257
3994.000	-0.17793	-1.51758	0.20165	-1.64281
3995.000	-0.17002	-1.51559	0.20956	-1.66269
3996.000	-0.17595	-1.51758	0.19572	-1.68853
3997.000	-0.17793	-1.52951	0.22142	-1.72828
3998.000	-0.17002	-1.54541	0.20165	-1.65077
3999.000	-0.19375	-1.52354	0.27876	-1.68654
4000.000	-0.15223	-1.54342	0.19968	-1.70443
4001.000	-0.17595	-1.55734	0.19770	-1.69847
4002.000	-0.15223	-1.58318	0.23724	-1.72431
4003.000	-0.16409	-1.56330	0.21154	-1.69251
4004.000	-0.09292	-1.57921	0.27480	-1.63088
4005.000	-0.11269	-1.56529	0.18386	-1.67661
4006.000	-0.13641	-1.57523	0.20758	-1.67859
4007.000	-0.15618	-1.58716	0.27282	-1.67063
4008.000	-0.11664	-1.55535	0.17398	-1.64480
4009.000	-0.13048	-1.61101	0.28271	-1.64877
4010.000	-0.12455	-1.54343	0.21549	-1.68456
4011.000	-0.15618	-1.62095	0.22933	-1.64877
4012.000	-0.14432	-1.55535	0.28666	-1.72827
4013.000	-0.13048	-1.56927	0.13246	-1.67462
4014.000	-0.13444	-1.56330	0.21352	-1.75810
4015.000	-0.16409	-1.55336	0.22933	-1.73027
4016.000	-0.15816	-1.54541	0.18584	-1.69052
4017.000	-0.19375	-1.56330	0.28864	-1.70244
4018.000	-0.15223	-1.57722	0.23329	-1.70443
4019.000	-0.12653	-1.58318	0.24712	-1.70244
4020.000	-0.17991	-1.54939	0.25108	-1.70840
4021.000	-0.15025	-1.55734	0.27480	-1.72231
4022.000	-0.11269	-1.57325	0.25701	-1.66865
4023.000	-0.12653	-1.57722	0.19770	-1.62492
4024.000	-0.13839	-1.58915	0.21945	-1.61300
4025.000	-0.16014	-1.58119	0.24515	-1.62293
4026.000	-0.11467	-1.57325	0.28469	-1.67461
4027.000	-0.11467	-1.57921	0.22142	-1.60902
4028.000	-0.10874	-1.59313	0.20561	-1.65872
4029.000	-0.11071	-1.56529	0.26096	-1.63088
4030.000	-0.12060	-1.59511	0.28271	-1.67660
4031.000	-0.11467	-1.57722	0.16607	-1.69450
4032.000	-0.15816	-1.62294	0.27876	-1.63088
4033.000	-0.13444	-1.60108	0.28073	-1.67660
4034.000	-0.11071	-1.58915	0.20956	-1.69847
4035.000	-0.13839	-1.58915	0.28469	-1.62889
4036.000	-0.12257	-1.61897	0.29062	-1.69846
4037.000	-0.14630	-1.61300	0.30446	-1.68256
4038.000	-0.11467	-1.61499	0.33411	-1.67858
4039.000	-0.11071	-1.58319	0.23724	-1.73027
4040.000	-0.15025	-1.61101	0.24712	-1.76207
4041.000	-0.12257	-1.59710	0.23131	-1.66865
4042.000	-0.12455	-1.56927	0.21352	-1.68456
4043.000	-0.08897	-1.57722	0.24317	-1.71437
4044.000	-0.13444	-1.62493	0.25899	-1.71834
4045.000	-0.09094	-1.62493	0.25108	-1.72629
4046.000	-0.11071	-1.58915	0.22933	-1.73623
4047.000	-0.12455	-1.59909	0.20363	-1.69847
4048.000	-0.17200	-1.56927	0.20363	-1.71437
4049.000	-0.14234	-1.59312	0.23922	-1.65275
4050.000	-0.11664	-1.59511	0.26096	-1.61697
4051.000	-0.13839	-1.62692	0.23131	-1.72828
4052.000	-0.14037	-1.57523	0.24515	-1.70443
4053.000	-0.08897	-1.66469	0.25899	-1.63486
4054.000	-0.09094	-1.61499	0.27678	-1.64877
4055.000	-0.09094	-1.66469	0.25305	-1.66865
4056.000	-0.14234	-1.65475	0.29259	-1.71834
4057.000	-0.11269	-1.67860	0.20956	-1.71040
4058.000	-0.10083	-1.64481	0.18781	-1.65275
4059.000	-0.05733	-1.62493	0.19968	-1.74419
4060.000	-0.08106	-1.70245	0.19968	-1.74220
4061.000	-0.06722	-1.70842	0.20165	-1.65077
4062.000	-0.06326	-1.70842	0.28666	-1.69846
4063.000	-0.07117	-1.66071	0.20956	-1.70443
4064.000	-0.12850	-1.72829	0.30050	-1.68852
4065.000	-0.08501	-1.68457	0.21549	-1.64878
4066.000	-0.11664	-1.70643	0.19770	-1.71040
4067.000	-0.08699	-1.68059	0.19375	-1.68257
4068.000	-0.11071	-1.75214	0.20561	-1.69648
4069.000	-0.06524	-1.71438	0.18979	-1.69251
4070.000	-0.09490	-1.70842	0.27876	-1.72430
4071.000	-0.08897	-1.72233	0.19375	-1.61697
4072.000	-0.09687	-1.73426	0.18188	-1.60902
4073.000	-0.05733	-1.73227	0.20758	-1.71238
4074.000	-0.10676	-1.70444	0.21945	-1.61896
4075.000	-0.07710	-1.75811	0.17398	-1.77996
4076.000	-0.07117	-1.73028	0.34795	-1.70441
4077.000	-0.09687	-1.76208	0.25503	-1.71437
4078.000	-0.08897	-1.76407	0.22142	-1.68853
4079.000	-0.05338	-1.73227	0.25503	-1.66666
4080.000	-0.06524	-1.78395	0.34597	-1.71236
4081.000	-0.05733	-1.73028	0.21747	-1.67263
4082.000	-0.08501	-1.80183	0.18781	-1.66468
4083.000	-0.06722	-1.75215	0.20165	-1.71437
4084.000	-0.08897	-1.74618	0.24515	-1.77996
4085.000	-0.08303	-1.79587	0.24317	-1.72828
4086.000	-0.10676	-1.77003	0.19375	-1.73822
4087.000	-0.11862	-1.79786	0.25899	-1.71834
4088.000	-0.06920	-1.79587	0.29852	-1.75610
4089.000	-0.04547	-1.76606	0.24317	-1.72033
4090.000	-0.09292	-1.77997	0.28864	-1.78393
4091.000	-0.05733	-1.78792	0.29852	-1.72827
4092.000	-0.07117	-1.82171	0.27480	-1.77995
4093.000	-0.00989	-1.78594	0.28864	-1.70045
4094.000	-0.10083	-1.79190	0.19770	-1.71636
4095.000	-0.04745	-1.77600	0.19770	-1.74816
4096.000	-0.06524	-1.72830	0.25305	-1.73225
4097.000	-0.03756	-1.76606	0.22933	-1.75015
4098.000	-0.02372	-1.71041	0.31039	-1.79386
4099.000	-0.12653	-1.77003	0.30446	-1.75610
4100.000	-0.11467	-1.75612	0.20758	-1.70245
4101.000	-0.05733	-1.77798	0.17595	-1.68058
4102.000	-0.06524	-1.77003	0.17991	-1.74618
4103.000	-0.05338	-1.73625	0.16014	-1.69450
4104.000	-0.05536	-1.72432	0.25503	-1.79586
4105.000	-0.07315	-1.72829	0.20758	-1.68654
4106.000	-0.07315	-1.76407	0.21945	-1.72033
4107.000	-0.02175	-1.72233	0.21352	-1.69648
4108.000	-0.04943	-1.75811	0.22933	-1.71834
4109.000	-0.07908	-1.72631	0.28469	-1.70244
4110.000	-0.06524	-1.73823	0.21945	-1.77599
4111.000	-0.02570	-1.74420	0.22340	-1.73226
4112.000	-0.06129	-1.70643	0.23131	-1.75810
4113.000	-0.10083	-1.73028	0.21352	-1.73822
4114.000	-0.06722	-1.74618	0.22340	-1.77996
4115.000	-0.04745	-1.72432	0.25108	-1.71635
4116.000	-0.04943	-1.74817	0.20363	-1.78195
4117.000	-0.03163	-1.74221	0.26492	-1.70641
4118.000	-0.02175	-1.75612	0.22735	-1.73226
4119.000	-0.07513	-1.74618	0.23922	-1.77400
4120.000	-0.07315	-1.74221	0.17200	-1.75214
4121.000	-0.04943	-1.74022	0.20758	-1.71437
4122.000	-0.06326	-1.70643	0.24712	-1.77002
4123.000	-0.13048	-1.73823	0.22538	-1.77996
4124.000	-0.08303	-1.71637	0.21945	-1.72431
4125.000	-0.05536	-1.69649	0.18188	-1.69450
4126.000	-0.04349	-1.72035	0.20363	-1.73822
4127.000	-0.07710	-1.68059	0.18584	-1.72829
4128.000	-0.07513	-1.69252	0.14234	-1.67065
4129.000	-0.08106	-1.72034	0.21154	-1.72232
4130.000	-0.09687	-1.74221	0.23131	-1.71437
4131.000	-0.02372	-1.72035	0.14630	-1.76605
4132.000	-0.02768	-1.71041	0.16804	-1.68854
4133.000	-0.04745	-1.71438	0.19177	-1.69251
4134.000	-0.04943	-1.69451	0.24712	-1.68455
4135.000	-0.05733	-1.70047	0.13246	-1.63288
4136.000	-0.04349	-1.67860	0.24910	-1.68058
4137.000	-0.03756	-1.68854	0.22142	-1.69052
4138.000	-0.02966	-1.66270	0.14432	-1.72829
4139.000	-0.02372	-1.70444	0.17002	-1.70046
4140.000	-0.02175	-1.70444	0.16607	-1.74220
4141.000	-0.06129	-1.71239	0.17595	-1.71040
4142.000	-0.03361	-1.70842	0.25503	-1.70244
4143.000	-0.04943	-1.70643	0.13641	-1.74419
4144.000	-0.03954	-1.72631	0.23329	-1.64877
4145.000	-0.01779	-1.70047	0.24119	-1.78592
4146.000	-0.05536	-1.71438	0.26096	-1.77995
4147.000	-0.08897	-1.77003	0.21945	-1.68058
4148.000	-0.07513	-1.76407	0.21945	-1.68456
4149.000	-0.06129	-1.74221	0.16409	-1.75015
4150.000	-0.04547	-1.75612	0.19572	-1.76605
4151.000	0.00000	-1.77004	0.15025	-1.78195
4152.000	-0.00989	-1.77202	0.20363	-1.73425
4153.000	-0.03163	-1.77997	0.20561	-1.69450
4154.000	-0.01977	-1.76606	0.22340	-1.73226
4155.000	0.00198	-1.71836	0.24712	-1.67461
4156.000	-0.02175	-1.79190	0.21352	-1.75214
4157.000	-0.03954	-1.78594	0.17595	-1.70841
4158.000	-0.03163	-1.79190	0.27085	-1.67461
4159.000	-0.05140	-1.79388	0.11467	-1.75413
4160.000	-0.02966	-1.78395	0.19572	-1.69052
4161.000	-0.01582	-1.76407	0.23724	-1.75213
4162.000	-0.08106	-1.84158	0.22538	-1.71834
4163.000	-0.00198	-1.77202	0.17002	-1.76605
4164.000	-0.02175	-1.79587	0.22933	-1.77400
4165.000	-0.04152	-1.86543	0.27876	-1.70442
4166.000	0.01779	-1.83562	0.24317	-1.71437
4167.000	-0.04152	-1.79786	0.23329	-1.73027
4168.000	-0.00395	-1.84357	0.20758	-1.79189
4169.000	0.01186	-1.83363	0.27876	-1.81374
4170.000	-0.02570	-1.81376	0.32818	-1.82565
4171.000	-0.04152	-1.81972	0.18188	-1.66468
4172.000	-0.04547	-1.84357	0.19572	-1.82567
4173.000	-0.00198	-1.84158	0.18188	-1.75611
4174.000	-0.01977	-1.77799	0.24119	-1.73623
4175.000	-0.04349	-1.83363	0.21945	-1.72630
4176.000	-0.00989	-1.80780	0.20165	-1.75015
4177.000	-0.02768	-1.84556	0.26689	-1.67262
4178.000	-0.04745	-1.81773	0.18584	-1.74816
4179.000	-0.05338	-1.85748	0.26887	-1.80977
4180.000	-0.04943	-1.81575	0.28864	-1.73821
4181.000	-0.05338	-1.85549	0.31434	-1.74616
4182.000	-0.06920	-1.82966	0.21945	-1.76406
4183.000	-0.02966	-1.84953	0.27678	-1.75411
4184.000	-0.03163	-1.83960	0.29062	-1.81374
4185.000	-0.03361	-1.81972	0.30050	-1.77001
4186.000	-0.02175	-1.86146	0.23329	-1.77797
4187.000	-0.06920	-1.84556	0.29457	-1.77597
4188.000	-0.04943	-1.87139	0.21154	-1.74021
4189.000	-0.01384	-1.81774	0.34004	-1.79982
4190.000	-0.03559	-1.82568	0.26294	-1.76405
4191.000	-0.02570	-1.86941	0.30446	-1.73026
4192.000	-0.00198	-1.81972	0.27876	-1.77995
4193.000	-0.08303	-1.82767	0.33213	-1.74814
4194.000	-0.05140	-1.84556	0.29062	-1.78393
4195.000	-0.03954	-1.83562	0.27085	-1.75014
4196.000	-0.03559	-1.84357	0.30050	-1.75014
4197.000	-0.03954	-1.80581	0.27282	-1.72430
4198.000	-0.04349	-1.85947	0.28469	-1.78989
4199.000	-0.03559	-1.80184	0.34399	-1.81571
4200.000	-0.06129	-1.77600	0.21747	-1.72232
4201.000	-0.03954	-1.84556	0.30446	-1.74616
4202.000	-0.04943	-1.81376	0.22142	-1.78393
4203.000	-0.07710	-1.82767	0.29655	-1.73225
4204.000	-0.03756	-1.81972	0.34993	-1.75609
4205.000	-0.03163	-1.79786	0.26096	-1.81970
4206.000	-0.05536	-1.80978	0.28469	-1.79386
4207.000	0.01779	-1.81376	0.25305	-1.74617
4208.000	-0.01582	-1.79985	0.30050	-1.76604
4209.000	-0.02966	-1.81376	0.28469	-1.75014
4210.000	-0.02175	-1.81177	0.35981	-1.78193
4211.000	-0.01977	-1.82767	0.34795	-1.77000
4212.000	-0.06722	-1.77997	0.27876	-1.79983
4213.000	-0.02570	-1.81376	0.25899	-1.78790
4214.000	-0.01977	-1.79587	0.37563	-1.79385
4215.000	-0.04152	-1.82966	0.29852	-1.77796
4216.000	0.00198	-1.82171	0.30050	-1.77796
4217.000	-0.03756	-1.80382	0.35981	-1.75013
4218.000	-0.00791	-1.79587	0.34202	-1.69845
4219.000	-0.04349	-1.78196	0.34597	-1.74814
4220.000	0.01384	-1.80184	0.25108	-1.75213
4221.000	-0.00593	-1.78196	0.32422	-1.73423
4222.000	-0.03756	-1.81575	0.27480	-1.76405
4223.000	-0.00989	-1.79786	0.32422	-1.76404
4224.000	-0.03954	-1.85152	0.36772	-1.72230
4225.000	-0.06524	-1.78991	0.36376	-1.80379
4226.000	-0.00198	-1.84158	0.43296	-1.85743
4227.000	-0.03361	-1.78395	0.36574	-1.77795
4228.000	0.01186	-1.84158	0.38156	-1.79385
4229.000	0.01186	-1.85550	0.39144	-1.82365
4230.000	-0.02372	-1.83761	0.38946	-1.76801
4231.000	-0.01779	-1.86344	0.39539	-1.78987
4232.000	-0.00989	-1.84158	0.37760	-1.76006
4233.000	0.01977	-1.84755	0.34399	-1.77795
4234.000	0.01977	-1.83363	0.41714	-1.84948
4235.000	-0.00989	-1.85550	0.42307	-1.75210
4236.000	0.01977	-1.79190	0.36179	-1.79385
4237.000	-0.01977	-1.84953	0.29852	-1.72231
4238.000	-0.07908	-1.88332	0.30446	-1.78989
4239.000	-0.12455	-1.86145	0.18188	-1.84157
4240.000	-0.24119	-1.96478	0.15025	-1.85549
4241.000	-0.30841	-1.96874	-0.03954	-1.88928
4242.000	-0.38156	-2.02039	-0.18584	-1.99061
4243.000	-0.48238	-2.06407	-0.40133	-2.13959
4244.000	-0.68203	-2.08784	-0.40923	-2.22898
4245.000	-0.85005	-2.14934	-0.58122	-2.36993
4246.000	-0.98840	-2.19096	-0.77691	-2.43140
4247.000	-1.15046	-2.23851	-0.93306	-2.49880
4248.000	-1.30855	-2.31980	-1.01212	-2.55433
4249.000	-1.46662	-2.38119	-1.21963	-2.60973
4250.000	-1.53576	-2.36921	-1.25915	-2.67717
4251.000	-1.60886	-2.42471	-1.25322	-2.68313
4252.000	-1.65034	-2.43458	-1.34609	-2.66517
4253.000	-1.65627	-2.44252	-1.42710	-2.63928
4254.000	-1.58910	-2.47436	-1.38561	-2.60956
4255.000	-1.52391	-2.44863	-1.36387	-2.64531
4256.000	-1.45081	-2.42489	-1.19196	-2.58991
4257.000	-1.35399	-2.42102	-1.05955	-2.52650
4258.000	-1.22358	-2.40128	-0.96469	-2.43326
4259.000	-1.09908	-2.37359	-0.93504	-2.44917
4260.000	-0.98050	-2.36971	-0.77691	-2.41353
4261.000	-0.86586	-2.31815	-0.67017	-2.39372
4262.000	-0.74924	-2.30034	-0.57331	-2.35008
4263.000	-0.71564	-2.32022	-0.58715	-2.43149
4264.000	-0.67808	-2.26066	-0.51994	-2.34811
4265.000	-0.60494	-2.31829	-0.44284	-2.40772
4266.000	-0.58913	-2.25275	-0.38946	-2.37596
4267.000	-0.59703	-2.29247	-0.42505	-2.40772
4268.000	-0.58517	-2.29844	-0.32225	-2.42761
4269.000	-0.60099	-2.24679	-0.45865	-2.44147
4270.000	-0.62471	-2.25075	-0.51401	-2.40769
4271.000	-0.67610	-2.25271	-0.42900	-2.42162
4272.000	-0.74726	-2.23679	-0.57133	-2.40767
4273.000	-0.71366	-2.19509	-0.59308	-2.45532
4274.000	-0.75715	-2.23877	-0.54959	-2.43349
4275.000	-0.77494	-2.24869	-0.58517	-2.49503
4276.000	-0.85796	-2.22084	-0.64052	-2.39771
4277.000	-0.88563	-2.19699	-0.64843	-2.42749
4278.000	-0.91527	-2.23868	-0.62273	-2.41956
4279.000	-0.93899	-2.22278	-0.75715	-2.49296
4280.000	-0.95085	-2.25057	-0.74726	-2.40361
4281.000	-0.96469	-2.24461	-0.79273	-2.45919
4282.000	-0.96666	-2.25056	-0.79075	-2.42742
4283.000	-1.03979	-2.30215	-0.77691	-2.50883
4284.000	-0.97259	-2.28829	-0.80656	-2.46513
4285.000	-0.98445	-2.25452	-0.78877	-2.46117
4286.000	-0.99631	-2.30019	-0.84017	-2.46511
4287.000	-1.02398	-2.25450	-0.78877	-2.48897
4288.000	-1.03386	-2.33988	-0.78482	-2.47905
4289.000	-0.98840	-2.33197	-0.78680	-2.42941
4290.000	-1.02991	-2.31010	-0.78482	-2.44728
4291.000	-1.00026	-2.34785	-0.74924	-2.49495
4292.000	-1.02200	-2.34585	-0.74331	-2.50091
4293.000	-1.01410	-2.33593	-0.74133	-2.42546
4294.000	-1.00619	-2.36175	-0.78284	-2.46316
4295.000	-0.95678	-2.31015	-0.79273	-2.52471
4296.000	-0.97062	-2.33993	-0.80656	-2.42741
4297.000	-0.97062	-2.33397	-0.69785	-2.42350
4298.000	-0.95283	-2.33200	-0.69785	-2.47314
4299.000	-0.96073	-2.38759	-0.73936	-2.41752
4300.000	-0.97259	-2.31014	-0.73145	-2.42745
4301.000	-0.94097	-2.30222	-0.81842	-2.44527
4302.000	-0.95876	-2.35980	-0.69982	-2.42151
4303.000	-0.94690	-2.30817	-0.74924	-2.44730
4304.000	-0.93702	-2.32208	-0.74331	-2.45326
4305.000	-0.95678	-2.33398	-0.73936	-2.49893
4306.000	-0.97062	-2.28631	-0.75715	-2.45126
4307.000	-0.92911	-2.32208	-0.77494	-2.49692
4308.000	-0.95085	-2.32406	-0.66227	-2.49301
4309.000	-0.85796	-2.33007	-0.69785	-2.46917
4310.000	-0.92713	-2.34592	-0.70773	-2.40165
4311.000	-0.90539	-2.28635	-0.75319	-2.42942
4312.000	-0.90934	-2.33004	-0.75517	-2.38574
4313.000	-0.91527	-2.32011	-0.71168	-2.41952
4314.000	-0.88365	-2.29828	-0.74924	-2.45127
4315.000	-0.92713	-2.33003	-0.77691	-2.49295
4316.000	-0.92713	-2.29825	-0.65041	-2.45529
4317.000	-0.89156	-2.29828	-0.72947	-2.43142
4318.000	-0.90934	-2.31415	-0.69192	-2.54065
4319.000	-0.87574	-2.29431	-0.74529	-2.42347
4320.000	-0.87772	-2.30226	-0.69982	-2.44931
4321.000	-0.91330	-2.29032	-0.68006	-2.48109
4322.000	-0.88563	-2.32807	-0.71564	-2.46320
4323.000	-0.88760	-2.30225	-0.72354	-2.51085
4324.000	-0.92911	-2.30620	-0.70773	-2.51483
4325.000	-0.91725	-2.32408	-0.72157	-2.43540
4326.000	-0.85598	-2.25659	-0.73145	-2.44929
4327.000	-0.87772	-2.31417	-0.79273	-2.50882
4328.000	-0.93702	-2.30619	-0.74924	-2.45723
4329.000	-0.88760	-2.33204	-0.68599	-2.47116
4330.000	-0.92713	-2.28634	-0.69785	-2.39570
4331.000	-0.89353	-2.30225	-0.64843	-2.41161
4332.000	-0.90144	-2.33005	-0.69785	-2.45924
4333.000	-0.92318	-2.29826	-0.70180	-2.48306
4334.000	-0.89749	-2.33799	-0.63657	-2.46324
4335.000	-0.90934	-2.28238	-0.74133	-2.44135
4336.000	-0.92516	-2.34989	-0.63657	-2.49501
4337.000	-0.88760	-2.33601	-0.76308	-2.45126
4338.000	-0.86981	-2.29233	-0.69389	-2.45726
4339.000	-0.88958	-2.33005	-0.75319	-2.50488
4340.000	-0.91330	-2.33798	-0.76505	-2.43538
4341.000	-0.88563	-2.33601	-0.66622	-2.45528
4342.000	-0.88760	-2.27643	-0.68006	-2.49499
4343.000	-0.92911	-2.27045	-0.77691	-2.48302
4344.000	-0.86784	-2.33007	-0.68994	-2.48109
4345.000	-0.85203	-2.32412	-0.65238	-2.51883
4346.000	-0.86981	-2.35588	-0.76901	-2.45523
4347.000	-0.89946	-2.33203	-0.68006	-2.52080
4348.000	-0.90934	-2.36380	-0.74726	-2.46318
4349.000	-0.90934	-2.30820	-0.66424	-2.50294
4350.000	-0.85993	-2.33404	-0.69587	-2.54462
4351.000	-0.88365	-2.33006	-0.67610	-2.48308
4352.000	-0.86981	-2.30425	-0.61482	-2.44935
4353.000	-0.83226	-2.33803	-0.68203	-2.48307
4354.000	-0.83621	-2.34995	-0.68994	-2.47910
4355.000	-0.85203	-2.33405	-0.74726	-2.42744
4356.000	-0.83819	-2.34399	-0.72552	-2.46320
4357.000	-0.86388	-2.33206	-0.72354	-2.40363
4358.000	-0.89156	-2.33402	-0.68203	-2.53470
4359.000	-0.88760	-2.36977	-0.68203	-2.48506
4360.000	-0.87179	-2.35191	-0.66029	-2.43543
4361.000	-0.87772	-2.33602	-0.66424	-2.46323
4362.000	-0.87377	-2.34595	-0.64843	-2.48706
4363.000	-0.83424	-2.30626	-0.73936	-2.50091
4364.000	-0.85005	-2.30029	-0.66227	-2.46720
4365.000	-0.84610	-2.33604	-0.63855	-2.51884
4366.000	-0.82238	-2.29435	-0.73936	-2.51084
4367.000	-0.83424	-2.33605	-0.71366	-2.50688
4368.000	-0.86586	-2.35787	-0.69192	-2.50094
4369.000	-0.85203	-2.33603	-0.75122	-2.55650
4370.000	-0.79273	-2.34203	-0.74529	-2.58827
4371.000	-0.80261	-2.31819	-0.60692	-2.53672
4372.000	-0.84017	-2.29434	-0.69389	-2.55454
4373.000	-0.80656	-2.32017	-0.63064	-2.52281
4374.000	-0.82238	-2.33605	-0.66820	-2.54066
4375.000	-0.84610	-2.31419	-0.64645	-2.52876
4376.000	-0.86981	-2.27446	-0.74331	-2.53268
4377.000	-0.86191	-2.34000	-0.65436	-2.43940
4378.000	-0.85005	-2.31618	-0.67413	-2.56250
4379.000	-0.88958	-2.35388	-0.61285	-2.53870
4380.000	-0.82435	-2.32612	-0.68994	-2.49498
4381.000	-0.86191	-2.30425	-0.60692	-2.64591
4382.000	-0.83424	-2.29633	-0.68796	-2.55256
4383.000	-0.80063	-2.31422	-0.68599	-2.57043
4384.000	-0.82633	-2.32811	-0.69785	-2.54660
4385.000	-0.81249	-2.35195	-0.68994	-2.56249
4386.000	-0.82831	-2.34796	-0.61285	-2.51289
4387.000	-0.83028	-2.33803	-0.68796	-2.59822
4388.000	-0.79470	-2.30032	-0.70773	-2.48306
4389.000	-0.82040	-2.31222	-0.67808	-2.56845
4390.000	-0.81645	-2.32017	-0.66820	-2.54066
4391.000	-0.81249	-2.32414	-0.69192	-2.55058
4392.000	-0.81447	-2.34201	-0.66820	-2.59625
4393.000	-0.88365	-2.32211	-0.70575	-2.57439
4394.000	-0.83819	-2.29037	-0.68006	-2.54860
4395.000	-0.83226	-2.33207	-0.71168	-2.59821
4396.000	-0.79075	-2.32018	-0.67215	-2.54264
4397.000	-0.83028	-2.32215	-0.67808	-2.56051
4398.000	-0.83028	-2.33803	-0.70180	-2.59623
4399.000	-0.80063	-2.33011	-0.72947	-2.50092
4400.000	-0.78482	-2.33409	-0.68401	-2.54264
4401.000	-0.80854	-2.35195	-0.65831	-2.52081
4402.000	-0.82633	-2.31818	-0.61680	-2.56054
4403.000	-0.83819	-2.33406	-0.60692	-2.58437
4404.000	-0.84017	-2.33008	-0.65436	-2.57839
4405.000	-0.82435	-2.35988	-0.67610	-2.59029
4406.000	-0.80656	-2.35989	-0.71366	-2.50490
4407.000	-0.85005	-2.36781	-0.71761	-2.56644
4408.000	-0.78482	-2.33210	-0.65238	-2.59824
4409.000	-0.81052	-2.31223	-0.63855	-2.54068
4410.000	-0.81645	-2.34400	-0.69192	-2.63792
4411.000	-0.80459	-2.30031	-0.67215	-2.54661
4412.000	-0.79866	-2.32614	-0.72750	-2.62798
4413.000	-0.84214	-2.32015	-0.71959	-2.55453
4414.000	-0.81842	-2.28640	-0.61878	-2.58238
4415.000	-0.84807	-2.31419	-0.71168	-2.59027
4416.000	-0.77889	-2.27650	-0.63855	-2.54862
4417.000	-0.81447	-2.30627	-0.63459	-2.58634
4418.000	-0.86586	-2.33007	-0.69192	-2.57837
4419.000	-0.80459	-2.31422	-0.67610	-2.58036
4420.000	-0.78482	-2.30827	-0.72552	-2.54063
4421.000	-0.79273	-2.29834	-0.66820	-2.61015
4422.000	-0.75319	-2.25665	-0.67215	-2.56845
4423.000	-0.81249	-2.31818	-0.67215	-2.51286
4424.000	-0.81447	-2.32216	-0.68006	-2.57441
4425.000	-0.79273	-2.30827	-0.66622	-2.53471
4426.000	-0.79866	-2.28443	-0.65238	-2.61611
4427.000	-0.78680	-2.31423	-0.62866	-2.67964
4428.000	-0.79273	-2.31224	-0.63459	-2.56252
4429.000	-0.81249	-2.31620	-0.66424	-2.59030
4430.000	-0.82238	-2.32612	-0.67610	-2.58433
4431.000	-0.78482	-2.32416	-0.72552	-2.60416
4432.000	-0.81842	-2.31024	-0.69587	-2.54263
4433.000	-0.83819	-2.37775	-0.66227	-2.59625
4434.000	-0.82633	-2.33804	-0.67413	-2.59426
4435.000	-0.79470	-2.28046	-0.70180	-2.65181
4436.000	-0.83226	-2.32214	-0.67215	-2.62404
4437.000	-0.82831	-2.33208	-0.72552	-2.62798
4438.000	-0.84807	-2.28639	-0.69389	-2.68159
4439.000	-0.84017	-2.32015	-0.73540	-2.59026
4440.000	-0.81052	-2.31421	-0.66820	-2.67565
4441.000	-0.82040	-2.31818	-0.65831	-2.70742
4442.000	-0.79075	-2.32217	-0.63855	-2.57641
4443.000	-0.80063	-2.31621	-0.71761	-2.59424
4444.000	-0.82435	-2.32612	-0.72750	-2.62996
4445.000	-0.79075	-2.33806	-0.70773	-2.61806
4446.000	-0.84412	-2.28242	-0.70180	-2.64387
4447.000	-0.78680	-2.32813	-0.75715	-2.63987
4448.000	-0.84214	-2.29433	-0.79075	-2.66963
4449.000	-0.82831	-2.32215	-0.70180	-2.66174
4450.000	-0.79273	-2.30231	-0.64448	-2.62604
4451.000	-0.81052	-2.29237	-0.72354	-2.60614
4452.000	-0.83424	-2.31619	-0.73936	-2.63988
4453.000	-0.84412	-2.30426	-0.74133	-2.58231
4454.000	-0.83226	-2.33406	-0.73343	-2.64187
4455.000	-0.84017	-2.30228	-0.77691	-2.65971
4456.000	-0.80656	-2.30230	-0.72552	-2.64188
4457.000	-0.81842	-2.29832	-0.68994	-2.64190
4458.000	-0.79075	-2.32217	-0.68599	-2.59227
4459.000	-0.82040	-2.30031	-0.71959	-2.61210
4460.000	-0.81645	-2.30031	-0.65436	-2.65780
4461.000	-0.80261	-2.30826	-0.61087	-2.66576
4462.000	-0.82633	-2.31619	-0.62273	-2.61811
4463.000	-0.83028	-2.34995	-0.62075	-2.64193
4464.000	-0.79866	-2.28642	-0.65634	-2.61611
4465.000	-0.79866	-2.29833	-0.59703	-2.67767
4466.000	-0.82831	-2.33208	-0.69587	-2.66174
4467.000	-0.80656	-2.29634	-0.70971	-2.58829
4468.000	-0.80854	-2.30031	-0.66820	-2.66573
4469.000	-0.76901	-2.32615	-0.71168	-2.58630
4470.000	-0.83424	-2.30030	-0.68401	-2.59823
4471.000	-0.79668	-2.32614	-0.67808	-2.67962
4472.000	-0.81842	-2.33804	-0.73936	-2.65576
4473.000	-0.81249	-2.31421	-0.65436	-2.67963
4474.000	-0.82040	-2.29633	-0.77098	-2.62001
4475.000	-0.80854	-2.31223	-0.69389	-2.59822
4476.000	-0.80261	-2.28244	-0.63459	-2.60222
4477.000	-0.83226	-2.35193	-0.65436	-2.64787
4478.000	-0.82238	-2.32215	-0.66424	-2.62206
4479.000	-0.82435	-2.34399	-0.72947	-2.66569
4480.000	-0.78680	-2.30827	-0.59506	-2.67569
4481.000	-0.80854	-2.35195	-0.69982	-2.65579
4482.000	-0.79075	-2.33210	-0.67215	-2.66176
4483.000	-0.80459	-2.32216	-0.72354	-2.70936
4484.000	-0.80854	-2.31421	-0.70575	-2.62204
4485.000	-0.81842	-2.30825	-0.70378	-2.59424
4486.000	-0.81249	-2.30230	-0.72157	-2.67364
4487.000	-0.75715	-2.34205	-0.67413	-2.64984
4488.000	-0.80854	-2.33805	-0.66820	-2.69749
4489.000	-0.80656	-2.32415	-0.70180	-2.66571
4490.000	-0.80063	-2.31621	-0.65831	-2.67963
4491.000	-0.84017	-2.30824	-0.68401	-2.65778
4492.000	-0.80656	-2.30429	-0.67808	-2.57838
4493.000	-0.83621	-2.35193	-0.73540	-2.56643
4494.000	-0.79866	-2.34401	-0.65831	-2.66176
4495.000	-0.82633	-2.32612	-0.67017	-2.62603
4496.000	-0.85005	-2.31618	-0.73540	-2.62797
4497.000	-0.85203	-2.26851	-0.63657	-2.64192
4498.000	-0.76703	-2.23479	-0.67610	-2.63992
4499.000	-0.75122	-2.20302	-0.55354	-2.51093
4500.000	-0.61680	-2.13753	-0.47842	-2.52883
4501.000	-0.63657	-2.09779	-0.43691	-2.44346
4502.000	-0.56540	-2.09384	-0.34004	-2.33625
4503.000	-0.33806	-1.88726	-0.17002	-2.15950
4504.000	-0.20165	-1.78791	-0.10676	-1.93300
4505.000	0.08897	-1.57325	0.04943	-1.78395
4506.000	0.36574	-1.36447	0.33411	-1.54937
4507.000	0.54564	-1.15367	0.44086	-1.35650
4508.000	0.68994	-0.87323	0.62471	-1.02837
4509.000	0.79273	-0.64648	0.77494	-0.88913
4510.000	0.88365	-0.41574	0.81645	-0.68426
4511.000	0.97457	-0.21085	0.93504	-0.51717
4512.000	0.89946	-0.03779	0.86586	-0.30236
4513.000	0.84412	0.07360	0.86981	-0.21682
4514.000	0.69192	0.13726	0.71366	-0.12731
4515.000	0.53575	0.17307	0.54959	-0.10742
4516.000	0.39144	0.23276	0.52587	-0.14920
4517.000	0.13641	0.22282	0.35981	-0.20292
4518.000	-0.01977	0.18104	0.10676	-0.25664
4519.000	-0.16211	0.13528	0.04152	-0.29244
4520.000	-0.33411	0.02188	-0.03163	-0.41976
4521.000	-0.45075	-0.09549	-0.28271	-0.47944
4522.000	-0.51005	-0.19098	-0.31632	-0.61868
4523.000	-0.57331	-0.33420	-0.28469	-0.73405
4524.000	-0.50215	-0.44760	-0.30841	-0.96278
4525.000	-0.47249	-0.60077	-0.31829	-0.98864
4526.000	-0.48831	-0.67436	-0.24712	-1.16166
4527.000	-0.42900	-0.79371	-0.16014	-1.33665
4528.000	-0.34399	-0.89317	-0.17200	-1.27501
4529.000	-0.30050	-0.98267	0.05931	-1.34461
4530.000	-0.18188	-1.03638	0.06920	-1.40824
4531.000	-0.15421	-1.09008	0.16804	-1.44004
4532.000	-0.09292	-1.10400	0.15025	-1.38437
4533.000	-0.04745	-1.06224	0.12257	-1.35853
4534.000	0.00395	-1.07616	0.22933	-1.32074
4535.000	0.04152	-1.08014	0.21549	-1.32671
4536.000	0.01186	-1.03638	0.28073	-1.29688
4537.000	-0.00198	-0.99064	0.26294	-1.17558
4538.000	0.03756	-0.88921	0.28469	-1.08808
4539.000	0.01582	-0.83352	0.27876	-1.04035
4540.000	0.03954	-0.78976	0.24119	-0.95483
4541.000	0.01977	-0.69428	0.27480	-0.91704
4542.000	0.03756	-0.69030	0.17002	-0.86534
4543.000	0.04349	-0.64455	0.27282	-0.88522
4544.000	0.02175	-0.63659	0.19177	-0.83550
4545.000	0.01779	-0.64654	0.26492	-0.78776
4546.000	0.03756	-0.57692	0.19375	-0.71417
4547.000	0.03163	-0.52918	0.21549	-0.68035
4548.000	0.03954	-0.57891	0.13048	-0.74997
4549.000	0.07315	-0.56100	0.27876	-0.72809
4550.000	-0.04152	-0.52719	0.17398	-0.69825
4551.000	0.03756	-0.51724	0.14037	-0.73406
4552.000	0.03163	-0.52321	0.11862	-0.71019
4553.000	0.01582	-0.54907	0.18188	-0.80566
4554.000	0.04152	-0.51127	0.12850	-0.67240
4555.000	0.01186	-0.53116	0.11664	-0.75992
4556.000	0.02372	-0.49934	0.09687	-0.79174
4557.000	0.03163	-0.54111	0.14827	-0.73008
4558.000	0.01384	-0.53514	0.14630	-0.74599
4559.000	0.00593	-0.56896	0.10083	-0.73406
4560.000	-0.00593	-0.51326	0.15025	-0.75196
4561.000	0.03163	-0.53315	0.16607	-0.75395
4562.000	0.00593	-0.50928	0.11269	-0.73605
4563.000	-0.03559	-0.54907	0.14432	-0.81959
4564.000	-0.01384	-0.53116	0.14630	-0.71815
4565.000	-0.00198	-0.55305	0.17595	-0.78577
4566.000	0.03361	-0.52122	0.17793	-0.81959
4567.000	-0.00989	-0.57493	0.13839	-0.78975
4568.000	0.03163	-0.53912	0.11862	-0.86932
4569.000	-0.01384	-0.62068	0.17991	-0.74400
4570.000	0.00593	-0.57095	0.16409	-0.82158
4571.000	-0.02570	-0.60477	0.12455	-0.82158
4572.000	0.01384	-0.57294	0.10478	-0.86136
4573.000	0.00395	-0.57294	0.14234	-0.81760
4574.000	-0.00395	-0.57095	0.11664	-0.82954
4575.000	-0.01779	-0.58885	0.18188	-0.84346
4576.000	-0.01384	-0.57692	0.15025	-0.82357
4577.000	0.00395	-0.56697	0.13048	-0.81959
4578.000	-0.02768	-0.59283	0.20758	-0.77583
4579.000	-0.07513	-0.57891	0.19770	-0.80964
4580.000	0.03163	-0.56498	0.14827	-0.81959
4581.000	0.01977	-0.56100	0.20561	-0.79373
4582.000	0.00989	-0.59084	0.11467	-0.79970
4583.000	-0.02570	-0.64455	0.08303	-0.79771
4584.000	0.03163	-0.60477	0.10676	-0.82954
4585.000	-0.01977	-0.62864	0.16014	-0.84942
4586.000	0.02966	-0.57891	0.09094	-0.81362
4587.000	0.01186	-0.62267	0.16014	-0.72809
4588.000	-0.02175	-0.62864	0.18188	-0.80566
4589.000	0.03756	-0.62466	0.12653	-0.76986
4590.000	0.07117	-0.59482	0.21352	-0.76389
4591.000	-0.01186	-0.58686	0.11467	-0.77981
4592.000	0.00198	-0.57493	0.22340	-0.87528
4593.000	0.04152	-0.60676	0.16014	-0.81760
4594.000	0.06129	-0.54310	0.15421	-0.79373
4595.000	0.03361	-0.61073	0.16211	-0.79174
4596.000	0.03163	-0.60874	0.16607	-0.84743
4597.000	0.02570	-0.59880	0.17398	-0.76588
4598.000	0.03559	-0.62068	0.10676	-0.74798
4599.000	0.04547	-0.61670	0.16211	-0.74997
4600.000	0.02966	-0.57891	0.25701	-0.74002
4601.000	0.01582	-0.63460	0.11862	-0.78975
4602.000	-0.00791	-0.60079	0.13246	-0.74599
4603.000	0.01977	-0.53912	0.17200	-0.74400
4604.000	0.03954	-0.57692	0.12257	-0.74401
4605.000	0.06920	-0.55106	0.15421	-0.72014
4606.000	0.00791	-0.59880	0.09094	-0.74798
4607.000	0.02570	-0.56896	0.17595	-0.74400
4608.000	0.01779	-0.61073	0.14037	-0.84147
4609.000	0.01779	-0.62267	0.20561	-0.79373
4610.000	0.03361	-0.62267	0.14630	-0.73406
4611.000	0.01582	-0.60477	0.26492	-0.74002
4612.000	0.00791	-0.64654	0.08897	-0.75594
4613.000	0.04349	-0.62665	0.17002	-0.73406
4614.000	0.03361	-0.61073	0.17595	-0.78180
4615.000	0.04349	-0.62267	0.12257	-0.77782
4616.000	0.02570	-0.61272	0.15223	-0.74202
4617.000	0.08106	-0.60874	0.09687	-0.74798
4618.000	0.05338	-0.61272	0.16607	-0.76787
4619.000	0.00989	-0.58288	0.19375	-0.74997
4620.000	0.05338	-0.60079	0.13444	-0.81561
4621.000	0.03954	-0.61073	0.10478	-0.77185
4622.000	0.00395	-0.59283	0.14827	-0.83152
4623.000	0.05536	-0.62267	0.14630	-0.80169
4624.000	0.07908	-0.62068	0.12060	-0.82158
4625.000	0.02570	-0.56896	0.17002	-0.80964
4626.000	0.07710	-0.64455	0.12257	-0.74599
4627.000	0.07513	-0.61272	0.09885	-0.78180
4628.000	0.05931	-0.67439	0.10874	-0.76191
