time (ms)	lx (deg)	ly (deg)	rx (deg)	ry (deg)
0.000	0.97457	0.92686	0.91132	0.65242
1.000	0.96864	0.96266	0.95678	0.69020
2.000	1.00224	0.91890	0.93899	0.65839
3.000	0.99433	0.95072	1.02595	0.64644
4.000	0.94690	0.95869	0.85598	0.70812
5.000	0.96864	0.89902	0.91330	0.61662
6.000	0.99236	0.98055	0.96073	0.70015
7.000	1.00026	0.92884	1.02398	0.65439
8.000	1.02398	0.91094	0.87377	0.63254
9.000	0.95678	0.95471	0.96469	0.63054
10.000	1.01607	0.89304	0.96864	0.62656
11.000	0.95678	0.93681	0.92911	0.60071
12.000	0.96666	0.94874	0.93504	0.64248
13.000	1.03584	0.93480	0.96469	0.68225
14.000	1.01607	0.91890	0.96271	0.61860
15.000	1.01014	0.95867	0.94690	0.63253
16.000	1.01014	0.95469	0.95678	0.65440
17.000	1.03188	0.94872	0.87377	0.62657
18.000	1.00026	0.92487	0.95480	0.70214
19.000	0.98445	0.94675	0.90342	0.74789
20.000	1.00619	0.92487	0.97654	0.66633
21.000	0.99236	0.95072	0.94690	0.73197
22.000	1.00817	0.94276	0.95678	0.68026
23.000	0.97457	0.94476	0.93899	0.67828
24.000	0.93109	0.92489	0.90539	0.67629
25.000	0.99631	0.91095	0.98643	0.71605
26.000	0.96469	0.94079	0.93306	0.72601
27.000	0.99631	0.95867	0.91330	0.64845
28.000	0.98050	0.93084	0.97457	0.69418
29.000	1.02003	0.91492	0.85796	0.64846
30.000	0.97457	0.90698	0.88563	0.66635
31.000	1.02200	0.89503	0.92911	0.69220
32.000	0.97259	0.91493	0.94295	0.71010
33.000	0.96271	0.94079	1.00224	0.68821
34.000	1.01212	0.94873	0.82238	0.68227
35.000	0.99433	0.90697	0.98050	0.69816
36.000	0.97062	0.98652	0.95085	0.72203
37.000	1.01212	0.90895	0.95283	0.74192
38.000	0.97654	0.91692	1.00421	0.71605
39.000	0.99433	0.95072	0.95678	0.73396
40.000	0.99433	0.97259	0.93306	0.66833
41.000	1.00817	0.94674	1.00421	0.75980
42.000	0.97259	0.96465	0.99631	0.69815
43.000	0.98050	0.94078	0.96271	0.74987
44.000	0.98445	0.95072	0.89551	0.77972
45.000	0.99236	0.94674	0.97062	0.83538
46.000	1.00421	0.94873	0.95876	0.76777
47.000	0.98247	0.94675	0.97654	0.72003
48.000	0.98247	0.97658	0.93306	0.75982
49.000	0.96271	0.99647	0.93899	0.73197
50.000	0.98840	0.99845	0.96271	0.68026
51.000	0.99236	0.91691	0.90737	0.67828
52.000	1.00224	1.01833	0.93109	0.75982
53.000	0.99236	0.96066	0.98840	0.74390
54.000	0.96271	0.92289	0.94097	0.79363
55.000	0.96864	0.95073	0.94690	0.72402
56.000	0.98643	0.91692	0.99433	0.73992
57.000	0.96864	0.94874	1.03188	0.77372
58.000	1.01805	1.00838	0.95876	0.74788
59.000	0.97259	0.96664	0.92120	0.71010
60.000	0.99829	0.94873	0.96864	0.74589
61.000	1.01212	0.94873	0.83621	0.79166
62.000	1.00026	0.92089	0.91527	0.77772
63.000	1.00026	0.97060	1.04967	0.75780
64.000	0.97457	0.98453	0.91923	0.79960
65.000	1.01805	0.96463	0.99433	0.78566
66.000	1.00817	0.98850	0.91132	0.76778
67.000	0.96073	1.02033	1.01212	0.80157
68.000	1.00026	0.98651	0.96666	0.75981
69.000	0.96271	0.97857	0.91527	0.75187
70.000	0.98643	0.98851	0.89749	0.71607
71.000	0.96864	0.94078	0.85796	0.68823
72.000	0.94887	0.90499	0.83226	0.57288
73.000	0.87772	0.80955	0.81052	0.52713
74.000	0.80063	0.69620	0.76505	0.41376
75.000	0.69389	0.62859	0.65831	0.36802
76.000	0.59110	0.46151	0.52191	0.20888
77.000	0.47052	0.36007	0.45075	0.09947
78.000	0.37958	0.20093	0.29655	-0.00995
79.000	0.22538	0.04974	0.21945	-0.09947
80.000	0.05338	-0.03382	0.12455	-0.24072
81.000	-0.05536	-0.19297	0.06326	-0.37600
82.000	-0.10083	-0.28250	-0.00791	-0.43369
83.000	-0.17002	-0.37202	-0.12060	-0.53713
84.000	-0.17793	-0.44164	-0.12850	-0.51923
85.000	-0.20758	-0.39390	-0.20956	-0.59283
86.000	-0.21154	-0.48143	-0.15421	-0.55503
87.000	-0.21352	-0.46750	-0.16409	-0.56697
88.000	-0.10874	-0.46154	-0.09292	-0.48939
89.000	-0.05140	-0.40186	-0.02966	-0.52719
90.000	-0.00198	-0.31234	-0.03163	-0.43170
91.000	0.07513	-0.29244	0.04943	-0.34815
92.000	0.13444	-0.21486	0.05338	-0.45159
93.000	0.18386	-0.16114	0.06524	-0.29841
94.000	0.23526	-0.06963	0.12257	-0.25266
95.000	0.25305	-0.05172	0.09687	-0.20491
96.000	0.29259	-0.01790	0.15816	-0.17109
97.000	0.27282	-0.01989	0.17398	-0.20292
98.000	0.26096	0.03780	0.20758	-0.22878
99.000	0.31434	0.01194	0.11664	-0.20093
100.000	0.31039	0.04974	0.10874	-0.18701
101.000	0.27282	0.03979	0.02966	-0.13727
102.000	0.26294	0.04178	0.09490	-0.10942
103.000	0.25899	0.02188	0.08106	-0.15716
104.000	0.26689	0.00796	0.20165	-0.10544
105.000	0.23526	-0.02586	0.03361	-0.16512
106.000	0.21945	0.05570	0.09687	-0.13926
107.000	0.26096	0.00199	0.07315	-0.22481
108.000	0.22735	-0.01592	0.04349	-0.20491
109.000	0.15223	-0.01194	0.01977	-0.12732
110.000	0.14037	-0.01989	0.12653	-0.17109
111.000	0.17002	-0.07560	0.06920	-0.19695
112.000	0.14037	-0.07560	0.08699	-0.21884
113.000	0.12850	-0.05769	0.03756	-0.29046
114.000	0.14630	-0.07759	-0.00593	-0.23873
115.000	0.13641	-0.06963	0.08303	-0.34417
116.000	0.11269	-0.10345	0.04349	-0.26260
117.000	0.11071	-0.11937	0.03163	-0.27454
118.000	0.10676	-0.11141	0.10478	-0.31831
119.000	0.07908	-0.11539	0.02175	-0.29244
120.000	0.09490	-0.12136	0.08303	-0.28449
121.000	0.07710	-0.14324	0.00791	-0.30239
122.000	0.09094	-0.14523	0.03756	-0.29244
123.000	0.11862	-0.13329	-0.03163	-0.28449
124.000	0.10478	-0.12334	0.06524	-0.32626
125.000	0.14827	-0.16512	0.01582	-0.27653
126.000	0.13444	-0.13528	-0.01186	-0.37003
127.000	0.06920	-0.20491	-0.02570	-0.25067
128.000	0.11269	-0.16114	-0.04547	-0.30040
129.000	0.13048	-0.12136	0.11269	-0.35213
130.000	0.10874	-0.14722	0.06524	-0.33223
131.000	0.10280	-0.16512	0.04745	-0.34616
132.000	0.07908	-0.17109	-0.00989	-0.27255
133.000	0.10874	-0.16910	0.01779	-0.29443
134.000	0.12257	-0.16910	-0.00593	-0.33422
135.000	0.11467	-0.14523	0.03163	-0.31831
136.000	0.13246	-0.15319	0.00791	-0.28250
137.000	0.14037	-0.13727	0.03559	-0.28449
138.000	0.11664	-0.17109	0.05733	-0.29642
139.000	0.11862	-0.14523	0.13641	-0.28051
140.000	0.14037	-0.14722	0.04349	-0.20292
141.000	0.14234	-0.12334	0.00198	-0.30836
142.000	0.12653	-0.10146	0.08501	-0.29045
143.000	0.16804	-0.15120	0.09687	-0.19894
144.000	0.12257	-0.18303	-0.02768	-0.24669
145.000	0.11664	-0.12931	0.00593	-0.23475
146.000	0.08897	-0.15915	0.07710	-0.24868
147.000	0.15025	-0.14722	0.10280	-0.30040
148.000	0.13641	-0.15120	0.00000	-0.24072
149.000	0.14234	-0.06565	0.06326	-0.26857
150.000	0.14432	-0.12334	0.12455	-0.23077
151.000	0.15025	-0.10345	0.02966	-0.18900
152.000	0.14432	-0.12931	0.08303	-0.24271
153.000	0.13839	-0.11340	0.05931	-0.16313
154.000	0.14432	-0.17706	0.15421	-0.25067
155.000	0.15223	-0.11738	0.09094	-0.19695
156.000	0.12455	-0.12334	0.06326	-0.25067
157.000	0.16804	-0.12533	-0.04349	-0.25862
158.000	0.14037	-0.10544	0.01779	-0.20292
159.000	0.11071	-0.13130	0.08699	-0.22083
160.000	0.14037	-0.14722	0.14432	-0.21685
161.000	0.15618	-0.10544	0.02570	-0.25664
162.000	0.11467	-0.15120	-0.01186	-0.21088
163.000	0.15618	-0.12533	0.04152	-0.24868
164.000	0.14234	-0.15319	0.00791	-0.23873
165.000	0.13246	-0.14125	0.04349	-0.22679
166.000	0.11071	-0.17507	0.02175	-0.27454
167.000	0.15223	-0.10544	-0.03756	-0.20093
168.000	0.10874	-0.11937	0.05140	-0.20292
169.000	0.11071	-0.17109	-0.03361	-0.21884
170.000	0.10478	-0.13528	0.08106	-0.24072
171.000	0.10478	-0.14523	-0.00593	-0.27852
172.000	0.07710	-0.14722	0.02966	-0.16910
173.000	0.14037	-0.16114	0.00000	-0.17905
174.000	0.06524	-0.13329	-0.06326	-0.22481
175.000	0.11862	-0.13926	-0.01384	-0.16711
176.000	0.12060	-0.14125	0.05338	-0.22679
177.000	0.12257	-0.12931	0.02372	-0.19297
178.000	0.15816	-0.10345	0.05338	-0.20093
179.000	0.12653	-0.13727	-0.03163	-0.21287
180.000	0.11071	-0.13130	0.00000	-0.22878
181.000	0.13839	-0.09350	0.04547	-0.15120
182.000	0.13839	-0.15518	0.07315	-0.23475
183.000	0.12257	-0.16711	0.00198	-0.20093
184.000	0.13048	-0.08753	0.03361	-0.25067
185.000	0.11071	-0.13926	0.01779	-0.22282
186.000	0.10676	-0.15120	-0.00395	-0.18303
187.000	0.14037	-0.14523	-0.02966	-0.21287
188.000	0.10083	-0.13130	0.02175	-0.19695
189.000	0.11467	-0.12931	0.07117	-0.20690
190.000	0.11467	-0.13130	0.01582	-0.23873
191.000	0.14630	-0.14921	0.00395	-0.23077
192.000	0.12060	-0.17905	-0.00593	-0.25465
193.000	0.11862	-0.10942	0.06524	-0.19894
194.000	0.13641	-0.10345	0.00791	-0.20292
195.000	0.08699	-0.12334	0.02570	-0.20491
196.000	0.11467	-0.09350	-0.01384	-0.20690
197.000	0.11269	-0.13329	-0.03163	-0.19695
198.000	0.10280	-0.15716	0.01186	-0.19695
199.000	0.13641	-0.11340	0.04745	-0.25465
200.000	0.10874	-0.10942	-0.03756	-0.21486
201.000	0.15025	-0.14125	0.01186	-0.21287
202.000	0.10676	-0.10544	-0.00395	-0.24669
203.000	0.10874	-0.15518	0.01186	-0.24868
204.000	0.16211	-0.18104	0.00000	-0.17109
205.000	0.12455	-0.14921	0.01186	-0.17308
206.000	0.12455	-0.12136	0.00000	-0.16711
207.000	0.10874	-0.10942	0.03361	-0.21884
208.000	0.10874	-0.13926	0.01384	-0.18900
209.000	0.10874	-0.11937	-0.01977	-0.25266
210.000	0.10083	-0.12136	-0.00395	-0.22679
211.000	0.07908	-0.10345	0.01186	-0.20690
212.000	0.09687	-0.11738	0.00593	-0.17308
213.000	0.07117	-0.11141	0.01582	-0.23276
214.000	0.11269	-0.11141	-0.02570	-0.20093
215.000	0.08897	-0.11340	0.04152	-0.14324
216.000	0.09687	-0.12136	-0.03954	-0.19894
217.000	0.10280	-0.06167	0.02372	-0.18900
218.000	0.09687	-0.09350	0.01779	-0.27454
219.000	0.11269	-0.08753	0.08106	-0.21884
220.000	0.11467	-0.07560	-0.01582	-0.27056
221.000	0.11269	-0.09151	0.04349	-0.28648
222.000	0.05931	-0.12334	0.04152	-0.27056
223.000	0.10083	-0.09549	0.05140	-0.22083
224.000	0.13444	-0.07361	0.03361	-0.19894
225.000	0.12257	-0.09350	-0.03756	-0.27255
226.000	0.16211	-0.07162	0.08699	-0.21088
227.000	0.14630	-0.06963	-0.08106	-0.29045
228.000	0.11467	-0.07560	0.00989	-0.20292
229.000	0.11071	-0.08555	0.05140	-0.26260
230.000	0.12060	-0.09151	0.00593	-0.25067
231.000	0.15025	-0.06565	0.00000	-0.21685
232.000	0.12850	-0.04576	0.03163	-0.33820
233.000	0.12257	-0.05968	-0.01384	-0.22481
234.000	0.13641	-0.06764	0.01384	-0.23475
235.000	0.10280	-0.12931	-0.00593	-0.23674
236.000	0.10280	-0.09947	-0.00395	-0.23873
237.000	0.09490	-0.08754	0.01582	-0.21088
238.000	0.11862	-0.05371	0.00198	-0.27056
239.000	0.07315	-0.05769	-0.02768	-0.25465
240.000	0.10280	-0.10942	0.03756	-0.18502
241.000	0.09687	-0.07162	0.00593	-0.26658
242.000	0.07513	-0.13329	0.04943	-0.25465
243.000	0.10478	-0.08952	0.06129	-0.24470
244.000	0.13444	-0.07958	-0.03361	-0.29443
245.000	0.11862	-0.12533	0.05140	-0.25067
246.000	0.08699	-0.08555	0.06524	-0.23873
247.000	0.09292	-0.07759	-0.04152	-0.24072
248.000	0.08501	-0.08356	0.07513	-0.23674
249.000	0.06722	-0.05968	0.05536	-0.23276
250.000	0.10280	-0.09748	0.00593	-0.24868
251.000	0.12455	-0.03382	-0.00989	-0.26260
252.000	0.11269	-0.05371	0.03954	-0.23276
253.000	0.10478	-0.08356	-0.00395	-0.23475
254.000	0.10478	-0.04178	0.00000	-0.19099
255.000	0.11862	-0.05968	0.00593	-0.26857
256.000	0.10676	-0.09549	0.10083	-0.24470
257.000	0.14827	-0.03979	-0.04152	-0.27056
258.000	0.11269	-0.08753	0.07908	-0.30239
259.000	0.09885	-0.10146	0.00000	-0.26658
260.000	0.12455	-0.06366	-0.00791	-0.29046
261.000	0.13839	-0.08753	-0.00198	-0.24868
262.000	0.13048	-0.04775	0.00791	-0.22083
263.000	0.16014	-0.05570	-0.01384	-0.26459
264.000	0.07513	-0.06366	-0.02175	-0.24470
265.000	0.13246	-0.04974	-0.02966	-0.18303
266.000	0.15618	-0.04377	0.00593	-0.28051
267.000	0.15618	-0.04775	0.01977	-0.25067
268.000	0.14037	-0.01790	0.00989	-0.20292
269.000	0.13444	-0.03780	0.04547	-0.15915
270.000	0.12257	-0.06565	0.08897	-0.15716
271.000	0.14037	-0.03780	0.10676	-0.26658
272.000	0.12455	-0.02586	-0.02966	-0.15518
273.000	0.12455	-0.04576	0.02966	-0.18303
274.000	0.10083	-0.00398	-0.00593	-0.14125
275.000	0.13444	-0.04576	0.09094	-0.18900
276.000	0.08501	-0.06366	0.00593	-0.18104
277.000	0.14432	-0.04178	-0.01779	-0.23276
278.000	0.13641	-0.04576	0.03954	-0.20690
279.000	0.15025	-0.02586	0.02175	-0.17905
280.000	0.13641	-0.08952	0.03163	-0.20690
281.000	0.12257	-0.04974	-0.01384	-0.19894
282.000	0.13839	-0.03581	-0.03756	-0.18104
283.000	0.10676	-0.00995	0.02768	-0.21088
284.000	0.10280	-0.03382	0.05536	-0.22679
285.000	0.11664	-0.05968	0.04943	-0.21287
286.000	0.11664	-0.04178	0.03954	-0.18701
287.000	0.10280	-0.05968	-0.00395	-0.17507
288.000	0.12850	-0.07560	0.07908	-0.19695
289.000	0.13048	-0.01393	0.08106	-0.18900
290.000	0.09885	-0.07759	0.01384	-0.19695
291.000	0.13048	-0.07560	-0.01779	-0.20690
292.000	0.11467	-0.03780	-0.00395	-0.20690
293.000	0.06129	-0.07958	0.01977	-0.14324
294.000	0.11071	-0.05570	0.00395	-0.26459
295.000	0.10478	-0.09748	0.03559	-0.21287
296.000	0.09885	-0.05968	0.05338	-0.21486
297.000	0.12850	-0.06565	-0.00989	-0.16711
298.000	0.07710	-0.07759	0.02175	-0.17308
299.000	0.12257	-0.06167	0.03954	-0.14523
300.000	0.08501	-0.01989	-0.01582	-0.24072
301.000	0.10874	-0.03581	0.05338	-0.19297
302.000	0.12060	-0.06366	0.00198	-0.20491
303.000	0.10676	-0.06764	-0.00593	-0.19099
304.000	0.09094	-0.04178	0.04745	-0.16512
305.000	0.09687	-0.12533	0.06129	-0.23674
306.000	0.13839	-0.05968	0.03163	-0.17507
307.000	0.10478	-0.08157	0.04349	-0.13130
308.000	0.08106	-0.11141	0.01779	-0.15915
309.000	0.09687	-0.08952	-0.04547	-0.17706
310.000	0.10874	-0.03183	0.07513	-0.15915
311.000	0.10083	-0.07560	0.01779	-0.13130
312.000	0.07908	-0.09350	-0.02175	-0.20491
313.000	0.07513	-0.09748	0.09094	-0.20292
314.000	0.08106	-0.07361	0.03163	-0.18900
315.000	0.05931	-0.07162	-0.00989	-0.24470
316.000	0.08699	-0.09151	0.03954	-0.17109
317.000	0.08106	-0.09748	0.03361	-0.15915
318.000	0.12653	-0.04178	-0.00593	-0.23475
319.000	0.09292	-0.10544	0.00593	-0.18303
320.000	0.11071	-0.07162	-0.01779	-0.24669
321.000	0.04745	-0.05570	0.04547	-0.26061
322.000	0.10676	-0.07958	0.01977	-0.17706
323.000	0.11071	-0.06366	0.06722	-0.17905
324.000	0.11071	-0.03780	-0.02372	-0.15717
325.000	0.11071	-0.09748	-0.03163	-0.21088
326.000	0.10676	-0.06167	-0.03954	-0.20690
327.000	0.08106	-0.08952	0.03756	-0.22878
328.000	0.07908	-0.07361	-0.03756	-0.24470
329.000	0.09885	-0.09947	-0.00395	-0.20093
330.000	0.09292	-0.03382	-0.01779	-0.14722
331.000	0.11862	-0.06764	0.04547	-0.20690
332.000	0.14234	-0.06963	-0.00989	-0.19297
333.000	0.12060	-0.02785	0.04152	-0.17507
334.000	0.13246	-0.05570	0.09490	-0.20292
335.000	0.09687	-0.03979	0.04349	-0.12533
336.000	0.11862	-0.03780	0.02768	-0.15120
337.000	0.13641	-0.02586	-0.01582	-0.19099
338.000	0.09490	-0.06565	0.09687	-0.20292
339.000	0.11269	-0.03979	-0.05536	-0.20292
340.000	0.08699	-0.02188	-0.01779	-0.15518
341.000	0.07513	-0.03581	0.01779	-0.28847
342.000	0.08106	-0.03979	0.01384	-0.16711
343.000	0.10280	-0.02984	0.03756	-0.21486
344.000	0.08106	0.00597	0.00989	-0.16512
345.000	0.10083	-0.05968	0.02175	-0.20491
346.000	0.11071	-0.06565	0.03163	-0.16711
347.000	0.09687	0.01194	0.00989	-0.17308
348.000	0.09687	-0.02188	-0.02966	-0.22282
349.000	0.09094	-0.05968	-0.01779	-0.17905
350.000	0.10874	0.01194	-0.00593	-0.25067
351.000	0.15025	-0.03780	0.00593	-0.26658
352.000	0.08106	-0.01194	-0.02175	-0.18303
353.000	0.11862	-0.03183	0.01582	-0.19695
354.000	0.10478	-0.04775	0.00198	-0.19695
355.000	0.09885	0.01194	0.01977	-0.18303
356.000	0.07117	-0.00597	-0.03559	-0.24271
357.000	0.09885	0.00398	-0.00198	-0.26459
358.000	0.08699	-0.00995	-0.05536	-0.26658
359.000	0.10280	-0.00796	0.03756	-0.27852
360.000	0.10478	0.02387	0.01384	-0.26658
361.000	0.09885	-0.03581	0.03559	-0.28051
362.000	0.10478	0.00398	-0.01779	-0.22083
363.000	0.13246	-0.01790	-0.00791	-0.19496
364.000	0.10478	-0.02586	-0.00989	-0.17109
365.000	0.12850	-0.04974	0.06129	-0.21088
366.000	0.08897	-0.02387	0.08699	-0.21486
367.000	0.11071	-0.03581	0.05931	-0.26658
368.000	0.14037	-0.01989	0.00791	-0.22481
369.000	0.10676	-0.03382	0.00000	-0.21685
370.000	0.08106	-0.02586	0.05536	-0.25465
371.000	0.08897	-0.03979	0.01582	-0.20889
372.000	0.09490	-0.00796	0.03163	-0.19695
373.000	0.11862	-0.00796	0.06920	-0.25266
374.000	0.09094	-0.01592	0.07908	-0.20093
375.000	0.11862	-0.01790	-0.00198	-0.23077
376.000	0.14827	0.00796	0.04152	-0.18502
377.000	0.11269	-0.01393	0.02570	-0.18104
378.000	0.07908	-0.05769	-0.00198	-0.19297
379.000	0.05733	-0.02984	0.01186	-0.22878
380.000	0.16211	0.00796	0.04745	-0.22481
381.000	0.13246	0.00796	-0.00989	-0.21884
382.000	0.10874	-0.03183	-0.00791	-0.23674
383.000	0.07908	0.00000	-0.00791	-0.23475
384.000	0.12850	0.00199	0.06129	-0.24868
385.000	0.12060	0.01790	-0.09292	-0.23077
386.000	0.12653	-0.03979	0.09292	-0.22480
387.000	0.08501	-0.03382	0.00989	-0.19695
388.000	0.06920	-0.04178	-0.01384	-0.26658
389.000	0.06524	-0.00796	0.05733	-0.20491
390.000	0.06326	-0.01592	0.04547	-0.18701
391.000	0.09094	0.00796	-0.00395	-0.18502
392.000	0.10280	-0.02387	-0.03756	-0.20491
393.000	0.13246	0.01592	-0.01779	-0.17308
394.000	0.07513	0.02785	0.04943	-0.24271
395.000	0.12257	-0.06167	0.00593	-0.20292
396.000	0.13048	-0.01194	0.02768	-0.22481
397.000	0.11467	-0.04576	0.03163	-0.21088
398.000	0.10676	-0.00199	0.01977	-0.26857
399.000	0.13444	-0.02188	0.01977	-0.21287
400.000	0.13839	-0.04178	0.08303	-0.21685
401.000	0.13246	-0.02984	-0.05536	-0.26260
402.000	0.14037	-0.02984	0.06920	-0.25862
403.000	0.12850	0.01194	0.00989	-0.26260
404.000	0.11862	-0.02785	0.02570	-0.21685
405.000	0.14630	0.00000	0.02768	-0.18701
406.000	0.12455	0.04576	0.01977	-0.18900
407.000	0.12653	-0.02984	0.02570	-0.20690
408.000	0.07710	-0.02984	0.04547	-0.21685
409.000	0.09687	-0.00597	0.06129	-0.15717
410.000	0.11862	0.02586	0.00000	-0.21884
411.000	0.13444	-0.01194	-0.05338	-0.21486
412.000	0.10874	-0.01790	-0.00593	-0.21287
413.000	0.12653	-0.04974	0.00989	-0.17308
414.000	0.10083	-0.01194	0.06524	-0.21486
415.000	0.08501	-0.05371	0.00000	-0.10743
416.000	0.12257	-0.02188	0.03756	-0.20292
417.000	0.10280	0.00398	0.02175	-0.21088
418.000	0.12455	-0.01194	-0.00395	-0.17109
419.000	0.12850	-0.04377	0.04943	-0.16910
420.000	0.06524	-0.04576	0.04152	-0.25465
421.000	0.12257	-0.00995	-0.00593	-0.25863
422.000	0.09292	-0.04178	0.02175	-0.22878
423.000	0.15816	0.00796	0.02768	-0.18303
424.000	0.13444	-0.05570	0.01779	-0.18104
425.000	0.12257	0.02188	-0.00989	-0.28847
426.000	0.10874	-0.01989	-0.00791	-0.25863
427.000	0.16014	0.00995	0.02372	-0.24868
428.000	0.14630	-0.01790	0.03559	-0.19297
429.000	0.13048	-0.01393	0.08106	-0.25067
430.000	0.11664	-0.02387	0.02372	-0.24271
431.000	0.15421	-0.05173	0.05733	-0.19099
432.000	0.14432	-0.03382	-0.02175	-0.23674
433.000	0.07908	-0.05968	0.03163	-0.26857
434.000	0.15223	-0.02188	0.05338	-0.18701
435.000	0.12455	-0.06167	0.05140	-0.21287
436.000	0.09094	-0.07759	-0.00989	-0.28250
437.000	0.10280	-0.04775	0.06326	-0.13130
438.000	0.05733	-0.04178	-0.02570	-0.20690
439.000	0.09094	-0.06366	-0.05140	-0.23475
440.000	0.11269	-0.02387	-0.00593	-0.19695
441.000	0.05931	-0.11340	0.02175	-0.23077
442.000	0.08303	-0.10146	0.08106	-0.24868
443.000	0.11467	-0.02586	0.07710	-0.20093
444.000	0.10083	-0.03581	-0.02175	-0.20690
445.000	0.11862	-0.01989	-0.00198	-0.24271
446.000	0.10478	-0.03183	0.02570	-0.24072
447.000	0.08897	-0.04974	-0.00198	-0.18502
448.000	0.11664	-0.03581	0.03954	-0.19099
449.000	0.07710	-0.04178	0.00593	-0.21486
450.000	0.11269	-0.04377	0.00000	-0.20491
451.000	0.08897	-0.06565	0.00791	-0.25266
452.000	0.14827	-0.08157	0.06129	-0.26061
453.000	0.14037	-0.03979	-0.00989	-0.23873
454.000	0.10676	0.00597	0.02175	-0.25863
455.000	0.10676	-0.06565	-0.03756	-0.26061
456.000	0.10083	-0.04576	-0.00989	-0.25067
457.000	0.10083	-0.02785	0.04547	-0.20690
458.000	0.11664	-0.01393	0.00593	-0.18104
459.000	0.12060	-0.03581	-0.01186	-0.21884
460.000	0.11071	-0.09151	0.09885	-0.19496
461.000	0.13641	-0.03581	0.09094	-0.25266
462.000	0.07710	-0.07162	0.00395	-0.19297
463.000	0.12257	-0.09748	0.01582	-0.22878
464.000	0.10083	-0.03979	0.02372	-0.21287
465.000	0.11071	-0.08753	0.10874	-0.23674
466.000	0.10478	-0.06565	0.00989	-0.18701
467.000	0.12455	-0.04377	-0.00989	-0.24868
468.000	0.14234	-0.03780	0.03954	-0.22083
469.000	0.11467	-0.07759	0.08303	-0.27056
470.000	0.11862	-0.06366	0.07513	-0.21685
471.000	0.10478	-0.04576	0.03756	-0.16313
472.000	0.12257	-0.05968	0.02966	-0.23475
473.000	0.14630	-0.07759	0.00198	-0.19099
474.000	0.10478	-0.03780	0.03559	-0.23475
475.000	0.10478	-0.05769	0.06524	-0.25465
476.000	0.11664	-0.05968	-0.05536	-0.25664
477.000	0.11664	-0.03979	0.06326	-0.24470
478.000	0.08303	-0.03780	0.04152	-0.24470
479.000	0.12257	-0.04775	-0.00395	-0.17706
480.000	0.08897	-0.03183	-0.03361	-0.21088
481.000	0.09687	-0.02188	0.01779	-0.16512
482.000	0.09094	-0.02586	0.08897	-0.21884
483.000	0.11664	-0.02387	0.11862	-0.19894
484.000	0.11071	-0.03979	0.03954	-0.17706
485.000	0.08106	-0.04974	0.04943	-0.25862
486.000	0.09094	-0.01592	0.01582	-0.24072
487.000	0.13246	0.00597	0.04943	-0.24868
488.000	0.08699	-0.04377	0.04943	-0.19894
489.000	0.09885	-0.03382	0.05338	-0.17905
490.000	0.12060	-0.04576	-0.02966	-0.23475
491.000	0.12060	-0.00995	-0.04745	-0.17706
492.000	0.10874	-0.07958	0.04547	-0.23077
493.000	0.08699	-0.00796	0.01582	-0.22679
494.000	0.08303	-0.05173	0.03361	-0.22679
495.000	0.09687	-0.06963	0.09687	-0.22480
496.000	0.04943	-0.06167	0.08897	-0.21884
497.000	0.04349	-0.06366	0.03559	-0.26260
498.000	0.06722	-0.08157	0.01186	-0.22083
499.000	0.09687	-0.06565	0.01384	-0.18900
500.000	0.04547	-0.05968	0.05733	-0.19894
501.000	0.10083	-0.00995	0.01779	-0.21884
502.000	0.10874	-0.04775	0.01186	-0.22083
503.000	0.09885	-0.04377	0.09687	-0.19297
504.000	0.12257	-0.01194	0.11862	-0.23475
505.000	0.09490	-0.03581	0.08303	-0.20491
506.000	0.11664	-0.00597	0.04745	-0.25465
507.000	0.10676	-0.01592	0.18386	-0.27454
508.000	0.09292	-0.05968	-0.01186	-0.31831
509.000	0.12257	0.02785	0.15618	-0.30239
510.000	0.09490	0.01592	0.14234	-0.24868
511.000	0.08897	-0.05173	0.02966	-0.23674
512.000	0.06129	0.02387	0.09292	-0.27852
513.000	0.07513	-0.01194	0.05733	-0.20491
514.000	0.14234	-0.00796	0.10478	-0.24868
515.000	0.12653	0.01790	0.06326	-0.14324
516.000	0.09292	-0.00796	0.14630	-0.24470
517.000	0.05931	0.03382	0.00395	-0.17706
518.000	0.08303	0.01194	0.07315	-0.19894
519.000	0.04943	0.00398	0.03756	-0.17706
520.000	0.08501	0.01194	0.02768	-0.13130
521.000	0.10280	0.02387	0.03954	-0.22282
522.000	0.08303	0.00398	0.10280	-0.22679
523.000	0.12850	-0.00995	0.09885	-0.19894
524.000	0.07908	0.01592	0.00000	-0.22083
525.000	0.05931	0.03183	0.03756	-0.32825
526.000	0.08699	0.00995	0.09292	-0.15518
527.000	0.10280	-0.00199	0.06920	-0.15120
528.000	0.06129	-0.00995	0.07117	-0.24669
529.000	0.08303	0.02188	0.08699	-0.19297
530.000	0.08699	-0.01592	0.06920	-0.23873
531.000	0.09094	0.00199	0.04349	-0.20889
532.000	0.10280	0.00796	0.06524	-0.20690
533.000	0.08303	0.06366	0.05338	-0.15120
534.000	0.10676	0.07958	0.08303	-0.25266
535.000	0.09885	0.01790	0.07315	-0.22083
536.000	0.08303	0.02984	0.03163	-0.23077
537.000	0.07513	-0.02785	0.02570	-0.26658
538.000	0.03559	-0.00199	0.10083	-0.21685
539.000	0.06326	0.04178	-0.02372	-0.21884
540.000	0.05338	0.04178	0.02570	-0.17905
541.000	0.04745	-0.01194	0.16607	-0.28449
542.000	0.04745	-0.01393	0.03756	-0.26459
543.000	0.05338	0.00597	0.06524	-0.25067
544.000	0.07315	0.02387	-0.02372	-0.11340
545.000	0.05140	-0.00995	0.02570	-0.15915
546.000	0.09687	0.00597	0.07117	-0.27056
547.000	0.11071	0.02785	0.02570	-0.22282
548.000	0.08897	0.02387	0.12455	-0.21287
549.000	0.09687	0.03581	0.03361	-0.25465
550.000	0.08897	0.05570	0.04349	-0.22083
551.000	0.05536	0.00995	0.10083	-0.25465
552.000	0.10478	0.07162	0.06722	-0.21884
553.000	0.09292	0.01790	0.10676	-0.21486
554.000	0.11467	0.04178	0.02570	-0.13727
555.000	0.07908	0.03581	0.05536	-0.15915
556.000	0.09094	-0.00199	0.08501	-0.14921
557.000	0.09094	0.03780	0.07710	-0.22282
558.000	0.09885	0.00199	0.08106	-0.21685
559.000	0.08106	0.02586	0.05931	-0.24072
560.000	0.07710	0.03183	0.13048	-0.19894
561.000	0.08106	0.02387	0.08303	-0.22878
562.000	0.10676	0.00199	0.03756	-0.20093
563.000	0.06722	0.04178	0.12060	-0.19098
564.000	0.08699	0.07162	0.04547	-0.24669
565.000	0.11862	0.03780	0.13048	-0.20491
566.000	0.11269	0.05371	0.00791	-0.26260
567.000	0.12455	0.04576	0.08303	-0.26260
568.000	0.10280	0.04377	0.09292	-0.16910
569.000	0.11862	0.03780	0.08699	-0.22282
570.000	0.11071	0.01393	-0.02372	-0.20889
571.000	0.10676	0.00199	0.12060	-0.23077
572.000	0.11071	-0.00796	0.06722	-0.26459
573.000	0.17991	-0.00199	0.11269	-0.24868
574.000	0.11664	0.00398	0.06524	-0.20491
575.000	0.10478	-0.03382	0.10676	-0.26260
576.000	0.11071	0.00796	0.09885	-0.18104
577.000	0.11269	0.00597	0.11071	-0.17905
578.000	0.08897	-0.00796	0.13048	-0.29244
579.000	0.13048	0.02785	0.08106	-0.13130
580.000	0.15223	0.03979	0.09687	-0.21685
581.000	0.08897	0.07361	0.08303	-0.18303
582.000	0.11269	0.03183	0.02372	-0.28449
583.000	0.14037	0.04974	0.08106	-0.23873
584.000	0.13048	0.03581	0.00989	-0.25266
585.000	0.15618	0.03382	0.00593	-0.21884
586.000	0.12060	0.02387	0.09687	-0.24868
587.000	0.10280	0.01989	0.14630	-0.17905
588.000	0.12455	0.01790	0.07908	-0.21486
589.000	0.14037	0.05173	0.04943	-0.28250
590.000	0.11467	0.02387	0.05733	-0.21486
591.000	0.18188	0.02586	0.16014	-0.27255
592.000	0.11467	0.02188	0.05338	-0.27255
593.000	0.09885	-0.00796	0.13444	-0.27255
594.000	0.13048	0.01989	0.08501	-0.17905
595.000	0.15223	0.00597	0.08501	-0.15716
596.000	0.13246	0.01989	0.05536	-0.23674
597.000	0.15421	-0.01393	0.13246	-0.21685
598.000	0.07315	0.00199	0.17595	-0.27056
599.000	0.10874	0.03780	0.06920	-0.21685
600.000	0.01977	0.04576	0.07908	-0.24470
601.000	0.10280	0.01393	-0.01977	-0.18701
602.000	0.11664	0.02586	0.06326	-0.13926
603.000	0.14630	0.05769	0.15223	-0.19496
604.000	0.08501	0.02785	0.11664	-0.23873
605.000	0.14037	0.07361	0.09885	-0.17905
606.000	0.09094	0.05968	0.04943	-0.20690
607.000	0.12060	0.07958	0.06920	-0.19695
608.000	0.13048	0.05173	0.08501	-0.13926
609.000	0.11664	0.05968	0.12060	-0.26459
610.000	0.13444	0.09350	0.16409	-0.19894
611.000	0.08303	0.02188	0.08897	-0.17706
612.000	0.11467	0.04377	0.09094	-0.20093
613.000	0.09687	0.06764	0.15618	-0.21287
614.000	0.14432	0.07560	0.06722	-0.16910
615.000	0.12653	0.05173	0.17200	-0.13130
616.000	0.13641	0.04178	0.11862	-0.18104
617.000	0.14827	0.06565	0.16409	-0.21486
618.000	0.11862	0.07560	0.11467	-0.20292
619.000	0.09292	0.06366	0.15421	-0.23475
620.000	0.15618	0.09549	0.08897	-0.19297
621.000	0.13444	0.12136	0.11269	-0.20093
622.000	0.14827	0.09151	0.10280	-0.24271
623.000	0.17398	0.03581	0.10478	-0.26260
624.000	0.13641	0.04576	0.08501	-0.26658
625.000	0.14432	0.03979	0.17595	-0.31234
626.000	0.09687	0.05769	0.07710	-0.23475
627.000	0.12060	0.03183	0.12060	-0.24271
628.000	0.11467	-0.00199	0.04745	-0.27852
629.000	0.15223	0.05968	0.03954	-0.23276
630.000	0.10083	0.02188	0.11862	-0.18900
631.000	0.13246	0.02586	0.06326	-0.29046
632.000	0.13444	0.00597	0.10676	-0.30239
633.000	0.12060	0.00398	0.09490	-0.20093
634.000	0.10478	0.01194	0.09490	-0.22679
635.000	0.10478	-0.01989	0.12455	-0.28250
636.000	0.13641	-0.00995	0.09292	-0.27454
637.000	0.14432	-0.00995	0.05338	-0.26260
638.000	0.10676	0.04775	0.05733	-0.25266
639.000	0.13246	0.01790	0.09292	-0.20292
640.000	0.10280	0.05968	0.08106	-0.30239
641.000	0.09094	0.04377	0.10874	-0.26857
642.000	0.10676	0.03780	0.14234	-0.25862
643.000	0.11269	0.02188	0.11269	-0.29443
644.000	0.11269	0.05968	0.09292	-0.23674
645.000	0.12060	0.04377	0.12257	-0.24271
646.000	0.09490	0.02984	0.02175	-0.29046
647.000	0.07710	0.06366	0.11071	-0.22083
648.000	0.12455	0.06963	0.11664	-0.28051
649.000	0.17793	0.06565	0.06524	-0.17507
650.000	0.09885	0.08555	0.12455	-0.30438
651.000	0.16804	0.06764	0.07513	-0.22878
652.000	0.09687	0.06963	0.05536	-0.26260
653.000	0.13641	0.06565	0.07117	-0.26658
654.000	0.10676	0.07162	0.04547	-0.25664
655.000	0.11467	0.08157	0.08897	-0.33621
656.000	0.09490	0.03382	0.04152	-0.26857
657.000	0.10676	0.02785	0.08501	-0.17109
658.000	0.10280	0.05570	0.08303	-0.28648
659.000	0.15421	0.06366	0.06129	-0.23475
660.000	0.08303	0.03581	0.07513	-0.25465
661.000	0.08897	0.09947	0.02175	-0.35610
662.000	0.12850	0.08356	0.09885	-0.32030
663.000	0.04943	0.03780	0.11664	-0.23475
664.000	0.08699	0.07162	0.07117	-0.27255
665.000	0.12653	0.07759	0.06326	-0.33024
666.000	0.11071	0.08952	0.09094	-0.24669
667.000	0.13641	0.10743	0.05140	-0.28250
668.000	0.13444	0.06764	0.06722	-0.26260
669.000	0.12850	0.09350	0.05931	-0.24470
670.000	0.11862	0.08157	0.05931	-0.21486
671.000	0.07908	0.07361	0.07908	-0.30040
672.000	0.13641	0.03581	0.07117	-0.21287
673.000	0.08303	0.05173	0.07315	-0.29642
674.000	0.05733	0.08157	0.11664	-0.21884
675.000	0.06129	0.04775	0.11071	-0.24669
676.000	0.07315	0.06565	0.05536	-0.33621
677.000	0.06129	0.00796	0.06524	-0.25862
678.000	0.11664	0.05570	0.05931	-0.26061
679.000	0.10280	-0.00597	0.13246	-0.26658
680.000	0.11664	0.00995	0.09687	-0.34019
681.000	0.08699	0.06167	0.10676	-0.31632
682.000	0.10083	0.01592	0.07117	-0.27255
683.000	0.10676	0.00199	0.11467	-0.27852
684.000	0.09292	0.00597	0.10280	-0.26061
685.000	0.10874	0.03183	0.09292	-0.28648
686.000	0.08897	0.04178	0.25108	-0.36008
687.000	0.08699	0.02785	0.11269	-0.21088
688.000	0.07315	0.03780	0.09885	-0.24669
689.000	0.07710	-0.01194	0.05931	-0.18701
690.000	0.08897	0.00398	0.11071	-0.27852
691.000	0.05338	-0.02387	0.09885	-0.26260
692.000	0.09885	0.02188	0.07117	-0.27056
693.000	0.10676	0.03183	0.07513	-0.31035
694.000	0.06326	0.00199	0.04349	-0.27454
695.000	0.08699	-0.03382	0.14630	-0.32228
696.000	0.02372	0.03183	0.02966	-0.27056
697.000	0.06920	0.01194	0.12455	-0.27852
698.000	0.11862	-0.01592	0.12850	-0.27056
699.000	0.07513	0.00796	0.10676	-0.27454
700.000	0.07908	0.02188	0.07710	-0.32229
701.000	0.08501	0.01790	0.07117	-0.28449
702.000	0.09687	0.00597	0.21747	-0.33024
703.000	0.10083	0.03183	0.10083	-0.31234
704.000	0.10083	0.01989	0.11862	-0.24271
705.000	0.09885	0.00597	0.18584	-0.32029
706.000	0.13048	0.03382	0.17991	-0.31831
707.000	0.09490	0.01989	0.12850	-0.27454
708.000	0.08897	-0.00199	0.17793	-0.29642
709.000	0.12653	0.02387	0.16211	-0.26260
710.000	0.17200	0.00597	0.03163	-0.27454
711.000	0.09292	0.00398	0.18188	-0.27454
712.000	0.13444	0.04775	0.06326	-0.29443
713.000	0.06920	0.03581	0.09687	-0.23873
714.000	0.13246	-0.01592	0.09885	-0.27056
715.000	0.15816	0.00995	0.07513	-0.24669
716.000	0.13839	0.02188	0.13048	-0.26658
717.000	0.11664	0.02785	0.13641	-0.28449
718.000	0.12060	0.02387	0.10280	-0.33024
719.000	0.13444	0.01194	0.05733	-0.27653
720.000	0.12060	0.00199	0.09490	-0.26658
721.000	0.14037	-0.02387	0.05536	-0.31035
722.000	0.13641	-0.01790	0.14827	-0.25067
723.000	0.11467	0.00199	0.08699	-0.34019
724.000	0.11071	-0.00995	0.12060	-0.29841
725.000	0.11862	0.02387	0.11071	-0.26658
726.000	0.15223	-0.00597	0.10280	-0.31632
727.000	0.10478	0.02188	0.14234	-0.26260
728.000	0.12850	0.02984	0.09490	-0.34815
729.000	0.16804	0.03979	0.07513	-0.30239
730.000	0.09292	0.00597	0.11071	-0.32228
731.000	0.13839	0.05173	0.16409	-0.27653
732.000	0.13444	-0.02586	0.15816	-0.30438
733.000	0.13048	0.02785	0.14432	-0.31433
734.000	0.13048	-0.00199	0.07315	-0.30239
735.000	0.15025	-0.00796	0.11269	-0.33621
736.000	0.12850	-0.00398	0.13048	-0.34616
737.000	0.14432	0.00000	0.14432	-0.32029
738.000	0.09490	0.00000	0.10874	-0.35411
739.000	0.13246	-0.01790	0.13839	-0.39788
740.000	0.10280	0.02188	0.18386	-0.33422
741.000	0.11071	0.02387	0.13246	-0.33024
742.000	0.14234	-0.01393	0.18386	-0.35411
743.000	0.10478	0.00796	0.09885	-0.33820
744.000	0.17200	0.01790	0.17398	-0.33621
745.000	0.15421	0.01194	0.11664	-0.27255
746.000	0.11071	0.03382	0.14234	-0.37003
747.000	0.08106	-0.01194	0.16211	-0.28846
748.000	0.16014	0.03581	0.12850	-0.29244
749.000	0.14630	0.02387	0.14234	-0.29443
750.000	0.12257	0.02387	0.17595	-0.28250
751.000	0.10478	0.00597	0.08699	-0.33024
752.000	0.17200	0.04576	0.15421	-0.31234
753.000	0.16607	-0.00398	0.15223	-0.35411
754.000	0.15025	0.01194	0.14234	-0.34815
755.000	0.18188	0.03979	0.21945	-0.37202
756.000	0.14234	-0.03979	0.08106	-0.25465
757.000	0.15618	-0.01790	0.13048	-0.29045
758.000	0.16607	0.02785	0.18584	-0.26061
759.000	0.13246	-0.05371	0.13444	-0.35014
760.000	0.13641	-0.00398	0.08897	-0.27653
761.000	0.15816	0.04576	0.02372	-0.24669
762.000	0.13641	0.01989	0.12653	-0.18502
763.000	0.12850	0.00796	0.15025	-0.32626
764.000	0.14234	0.03979	0.15421	-0.29045
765.000	0.13839	-0.00199	0.14037	-0.25465
766.000	0.12257	-0.01790	0.07710	-0.29642
767.000	0.11269	0.00597	0.17002	-0.27852
768.000	0.10676	0.00597	0.19375	-0.23475
769.000	0.11664	0.02984	0.11467	-0.26061
770.000	0.13444	0.01194	0.20561	-0.25663
771.000	0.13246	0.01194	0.11071	-0.27454
772.000	0.06920	-0.05570	0.12653	-0.27852
773.000	0.11862	-0.02785	0.14827	-0.28648
774.000	0.17002	-0.02387	0.05536	-0.24669
775.000	0.13839	-0.00995	0.05931	-0.27056
776.000	0.12257	-0.04576	0.15223	-0.25663
777.000	0.16607	0.00995	0.12060	-0.22480
778.000	0.13048	0.01592	0.11467	-0.24669
779.000	0.13246	-0.03183	0.15025	-0.20690
780.000	0.14432	-0.00995	0.12850	-0.28847
781.000	0.11862	-0.02387	0.14630	-0.16512
782.000	0.11664	0.00000	0.13839	-0.28648
783.000	0.17398	-0.02984	0.14432	-0.30438
784.000	0.15421	0.00000	0.16409	-0.22083
785.000	0.15025	0.00995	0.21352	-0.28846
786.000	0.13048	0.01790	0.13641	-0.29443
787.000	0.13048	0.03382	0.16804	-0.24669
788.000	0.06722	0.04178	0.03756	-0.24669
789.000	-0.06920	0.01592	0.00791	-0.23276
790.000	-0.27480	0.06167	-0.17200	-0.28846
791.000	-0.49028	0.01591	-0.37365	-0.34416
792.000	-0.69389	-0.09946	-0.49622	-0.47744
793.000	-0.96666	-0.09548	-0.85203	-0.42767
794.000	-1.18406	-0.11337	-1.00224	-0.54898
795.000	-1.49230	-0.21280	-1.29867	-0.59069
796.000	-1.75108	-0.24657	-1.61083	-0.64430
797.000	-2.08482	-0.32406	-1.89525	-0.65215
798.000	-2.32960	-0.42737	-2.14800	-0.76336
799.000	-2.57825	-0.56441	-2.39868	-0.91426
800.000	-2.82680	-0.56032	-2.50130	-0.92810
801.000	-3.06932	-0.65952	-2.74790	-0.97361
802.000	-3.23292	-0.71105	-2.87413	-1.01323
803.000	-3.31174	-0.76659	-2.97863	-1.02704
804.000	-3.44374	-0.83400	-3.10678	-1.09841
805.000	-3.48708	-0.82205	-3.14029	-1.11426
806.000	-3.56192	-0.93315	-3.16591	-1.23336
807.000	-3.56783	-0.93513	-3.23095	-1.18762
808.000	-3.58358	-0.95893	-3.26248	-1.25509
809.000	-3.60918	-0.90928	-3.43192	-1.27869
810.000	-3.62887	-0.91323	-3.56979	-1.31422
811.000	-3.74503	-0.93494	-3.60721	-1.32607
812.000	-3.78440	-0.94284	-3.80015	-1.39522
813.000	-3.81393	-0.90907	-3.89855	-1.39109
814.000	-3.95758	-0.94463	-3.96152	-1.35727
815.000	-4.00874	-0.95449	-4.06579	-1.39875
816.000	-4.08152	-0.94647	-4.08546	-1.30153
817.000	-4.06185	-0.95839	-4.16216	-1.32719
818.000	-4.11299	-0.97619	-4.13266	-1.26774
819.000	-4.10119	-0.92661	-4.17593	-1.26965
820.000	-4.06185	-0.88301	-4.14446	-1.26375
821.000	-4.00874	-0.86124	-4.04021	-1.21234
822.000	-3.96545	-0.86724	-3.90446	-1.11334
823.000	-3.88281	-0.85343	-3.87887	-1.13520
824.000	-3.84542	-0.81378	-3.76275	-1.20282
825.000	-3.78440	-0.83368	-3.64856	-1.19107
826.000	-3.73716	-0.86945	-3.65447	-1.21686
827.000	-3.70369	-0.85956	-3.63675	-1.25261
828.000	-3.68794	-0.87149	-3.62296	-1.24270
829.000	-3.65841	-0.84968	-3.60721	-1.21693
830.000	-3.65250	-0.89931	-3.62099	-1.22286
831.000	-3.70566	-0.92307	-3.67613	-1.27636
832.000	-3.66234	-0.88541	-3.77850	-1.30796
833.000	-3.78243	-0.87536	-3.75487	-1.34966
834.000	-3.75291	-0.92104	-3.82574	-1.35550
835.000	-3.86707	-0.89314	-3.82967	-1.40509
836.000	-3.84345	-0.89515	-3.86116	-1.34156
837.000	-3.92217	-0.90697	-3.87100	-1.36932
838.000	-3.95562	-0.89899	-3.97726	-1.40088
839.000	-3.93791	-0.93275	-3.98513	-1.37508
840.000	-3.93397	-0.88910	-4.03431	-1.32938
841.000	-3.96152	-0.91883	-4.07562	-1.34320
842.000	-4.01071	-0.96639	-4.03431	-1.39483
843.000	-4.03628	-0.91875	-4.01267	-1.40479
844.000	-4.05399	-0.91476	-4.02644	-1.37501
845.000	-4.03825	-0.94454	-4.05989	-1.36107
846.000	-4.02644	-0.88701	-4.00087	-1.37704
847.000	-4.00874	-0.90886	-4.12086	-1.36097
848.000	-4.06185	-0.89293	-4.09923	-1.33919
849.000	-4.02448	-0.96836	-4.05399	-1.37100
850.000	-4.06382	-0.93260	-4.12873	-1.37880
851.000	-4.05202	-0.92468	-4.12676	-1.40459
852.000	-4.03235	-0.91280	-4.19363	-1.38464
853.000	-4.04808	-0.93064	-4.15036	-1.31729
854.000	-4.01267	-0.94060	-4.07956	-1.38087
855.000	-4.00480	-0.89100	-4.12086	-1.34907
856.000	-3.98710	-0.91880	-4.06972	-1.31346
857.000	-4.02054	-0.94059	-4.10119	-1.41058
858.000	-3.98316	-0.89500	-4.11496	-1.30347
859.000	-3.96742	-0.90295	-4.08546	-1.37293
860.000	-3.97726	-0.90294	-4.17593	-1.33708
861.000	-3.96152	-0.93073	-4.08152	-1.27377
862.000	-3.98316	-0.88904	-4.09136	-1.30747
863.000	-3.94381	-0.85932	-4.06185	-1.33529
864.000	-3.96349	-0.87716	-4.09923	-1.28167
865.000	-3.99693	-0.86919	-4.09333	-1.32135
866.000	-3.95758	-0.89106	-4.16020	-1.32322
867.000	-3.97333	-0.87913	-4.10119	-1.30349
868.000	-3.99300	-0.90887	-4.06382	-1.32338
869.000	-3.99890	-0.88903	-4.07956	-1.27179
870.000	-3.94578	-0.85734	-4.09136	-1.33524
871.000	-3.93397	-0.92283	-4.16216	-1.37081
872.000	-3.92217	-0.89903	-4.13463	-1.28955
873.000	-3.91036	-0.85737	-4.07759	-1.27378
874.000	-3.93988	-0.92084	-4.11299	-1.35503
875.000	-3.90839	-0.86333	-4.09923	-1.30151
876.000	-3.91430	-0.89705	-4.02841	-1.40674
877.000	-3.92217	-0.83950	-4.10513	-1.26976
878.000	-3.92413	-0.86926	-4.09529	-1.33920
879.000	-3.93397	-0.91886	-4.07366	-1.33923
880.000	-3.93004	-0.87323	-4.16216	-1.26967
881.000	-3.89855	-0.82365	-4.10316	-1.35902
882.000	-3.90446	-0.85539	-4.07759	-1.35311
883.000	-3.89855	-0.91096	-4.13266	-1.37086
884.000	-3.95758	-0.83550	-4.06382	-1.27578
885.000	-3.89659	-0.86334	-4.15430	-1.33117
886.000	-3.90642	-0.87325	-4.13266	-1.36293
887.000	-3.87100	-0.87924	-4.19559	-1.22599
888.000	-3.89855	-0.82762	-4.19363	-1.34300
889.000	-3.93397	-0.88711	-4.19363	-1.34696
890.000	-3.87297	-0.91496	-4.17003	-1.37675
891.000	-3.88675	-0.88716	-4.17593	-1.34501
892.000	-3.90249	-0.85936	-4.14250	-1.39464
893.000	-3.87100	-0.86535	-4.17199	-1.35097
894.000	-3.86903	-0.89710	-4.18576	-1.37276
895.000	-3.91233	-0.88713	-4.17789	-1.32319
896.000	-3.89462	-0.87525	-4.14250	-1.34110
897.000	-3.93397	-0.86528	-4.11889	-1.35502
898.000	-3.88084	-0.91892	-4.17593	-1.43623
899.000	-3.90052	-0.88516	-4.12086	-1.37089
900.000	-3.92610	-0.83354	-4.09136	-1.31540
901.000	-3.89265	-0.87128	-4.12676	-1.39864
902.000	-3.85919	-0.89314	-4.14250	-1.32920
903.000	-3.91233	-0.92285	-4.19559	-1.37076
904.000	-3.93397	-0.90894	-4.16020	-1.32124
905.000	-3.88478	-0.90304	-4.10709	-1.34314
906.000	-3.86707	-0.84749	-4.18576	-1.34499
907.000	-3.87887	-0.89908	-4.18379	-1.30732
908.000	-3.93988	-0.90298	-4.21722	-1.34692
909.000	-3.88871	-0.91693	-4.18183	-1.32517
910.000	-3.89462	-0.95065	-4.16216	-1.33908
911.000	-3.88871	-0.87724	-4.22116	-1.38657
912.000	-3.91036	-0.91095	-4.17396	-1.37079
913.000	-3.89462	-0.90700	-4.10513	-1.35901
914.000	-3.86116	-0.89116	-4.13070	-1.35699
915.000	-3.90642	-0.87920	-4.11693	-1.35304
916.000	-3.91430	-0.86332	-4.18969	-1.39853
917.000	-3.88478	-0.91891	-4.19756	-1.34299
918.000	-3.90249	-0.87325	-4.15233	-1.34505
919.000	-3.87494	-0.84352	-4.15430	-1.35496
920.000	-3.85132	-0.88720	-4.18183	-1.28947
921.000	-3.86707	-0.89909	-4.16610	-1.38072
922.000	-3.87100	-0.86138	-4.20542	-1.39057
923.000	-3.88084	-0.91297	-4.19559	-1.40645
924.000	-3.85919	-0.85742	-4.09333	-1.39870
925.000	-3.81983	-0.89120	-4.23689	-1.34689
926.000	-3.83361	-0.87928	-4.19953	-1.39653
927.000	-3.84739	-0.86736	-4.21526	-1.40046
928.000	-3.88675	-0.92288	-4.20346	-1.39652
929.000	-3.88084	-0.86931	-4.19756	-1.43222
930.000	-3.86313	-0.89512	-4.18969	-1.38861
931.000	-3.85919	-0.86536	-4.21329	-1.45004
932.000	-3.84739	-0.86339	-4.23492	-1.39051
933.000	-3.87100	-0.89512	-4.25851	-1.40039
934.000	-3.86313	-0.87330	-4.21722	-1.35287
935.000	-3.88871	-0.89510	-4.16413	-1.35891
936.000	-3.85132	-0.83163	-4.22509	-1.39846
937.000	-3.87494	-0.82963	-4.27031	-1.40631
938.000	-3.90839	-0.85737	-4.25261	-1.48764
939.000	-3.85723	-0.89116	-4.25655	-1.34289
940.000	-3.85723	-0.82567	-4.25458	-1.38255
941.000	-3.86510	-0.84353	-4.21329	-1.42426
942.000	-3.85132	-0.86537	-4.27621	-1.35277
943.000	-3.86903	-0.83162	-4.25851	-1.43211
944.000	-3.86116	-0.84551	-4.20346	-1.44014
945.000	-3.82770	-0.82173	-4.18969	-1.39258
946.000	-3.83951	-0.85943	-4.21132	-1.41832
947.000	-3.81196	-0.85747	-4.23492	-1.36474
948.000	-3.83558	-0.85943	-4.20149	-1.43618
949.000	-3.82574	-0.84555	-4.19756	-1.41834
950.000	-3.78440	-0.82971	-4.34305	-1.30110
951.000	-3.83164	-0.80188	-4.26441	-1.40038
952.000	-3.83164	-0.85348	-4.28604	-1.40232
953.000	-3.83361	-0.91103	-4.29783	-1.45781
954.000	-3.84935	-0.82965	-4.24672	-1.36075
955.000	-3.83754	-0.79791	-4.23099	-1.37268
956.000	-3.85526	-0.82369	-4.26048	-1.47969
957.000	-3.85329	-0.83560	-4.26048	-1.39245
958.000	-3.86116	-0.84551	-4.24868	-1.35480
959.000	-3.81786	-0.79594	-4.27228	-1.33691
960.000	-3.81786	-0.82968	-4.21919	-1.42822
961.000	-3.85526	-0.81575	-4.31553	-1.32494
962.000	-3.87887	-0.83756	-4.28604	-1.38249
963.000	-3.82180	-0.81579	-4.26638	-1.37261
964.000	-3.84542	-0.84355	-4.23885	-1.34292
965.000	-3.82377	-0.81777	-4.22705	-1.43613
966.000	-3.83558	-0.80982	-4.20542	-1.40841
967.000	-3.82574	-0.80586	-4.27031	-1.36071
968.000	-3.85132	-0.78599	-4.24868	-1.43014
969.000	-3.87100	-0.85344	-4.28407	-1.36465
970.000	-3.78440	-0.83567	-4.28407	-1.34284
971.000	-3.86116	-0.85544	-4.28211	-1.34483
972.000	-3.83951	-0.83958	-4.21329	-1.30132
973.000	-3.86707	-0.82765	-4.26048	-1.48167
974.000	-3.89462	-0.84350	-4.27621	-1.41225
975.000	-3.80605	-0.79000	-4.25655	-1.37461
976.000	-3.93397	-0.82560	-4.28407	-1.41422
977.000	-3.85329	-0.78599	-4.27424	-1.41622
978.000	-3.77850	-0.82178	-4.25655	-1.43410
979.000	-3.79818	-0.79199	-4.33715	-1.37249
980.000	-3.75291	-0.80990	-4.23885	-1.40042
981.000	-3.85526	-0.75820	-4.27621	-1.39441
982.000	-3.78243	-0.83567	-4.17986	-1.42432
983.000	-3.87691	-0.81772	-4.28211	-1.42810
984.000	-3.78637	-0.74238	-4.27621	-1.34880
985.000	-3.82180	-0.84952	-4.26048	-1.41228
986.000	-3.89659	-0.86532	-4.21526	-1.45797
987.000	-3.84148	-0.84950	-4.27031	-1.40235
988.000	-3.79424	-0.81383	-4.25458	-1.40238
989.000	-3.80802	-0.79595	-4.33125	-1.38637
990.000	-3.81393	-0.80587	-4.28014	-1.41423
991.000	-3.80999	-0.80587	-4.23689	-1.33896
992.000	-3.81983	-0.81380	-4.22509	-1.36872
993.000	-3.87100	-0.88916	-4.26638	-1.32502
994.000	-3.82574	-0.80586	-4.25655	-1.36073
995.000	-3.82574	-0.75029	-4.31159	-1.37451
996.000	-3.79424	-0.76421	-4.22509	-1.44010
997.000	-3.81983	-0.83563	-4.22312	-1.42821
998.000	-3.86903	-0.79788	-4.25261	-1.39247
999.000	-3.78243	-0.80590	-4.24278	-1.41231
1000.000	-3.79621	-0.78008	-4.23099	-1.37862
1001.000	-3.81589	-0.82571	-4.24082	-1.39645
1002.000	-3.80999	-0.84358	-4.27621	-1.42415
1003.000	-3.79621	-0.83764	-4.26441	-1.40632
1004.000	-3.78637	-0.79796	-4.23885	-1.35085
1005.000	-3.81196	-0.78007	-4.24672	-1.39248
1006.000	-3.80015	-0.82970	-4.34698	-1.27928
1007.000	-3.85919	-0.81773	-4.29783	-1.41023
1008.000	-3.82180	-0.81182	-4.25065	-1.40635
1009.000	-3.79227	-0.82574	-4.36270	-1.41209
1010.000	-3.83754	-0.79989	-4.25065	-1.36273
1011.000	-3.79818	-0.81382	-4.25065	-1.38652
1012.000	-3.78637	-0.77612	-4.21919	-1.46589
1013.000	-3.77456	-0.83369	-4.25261	-1.39643
1014.000	-3.75487	-0.80791	-4.31159	-1.37055
1015.000	-3.78046	-0.81979	-4.29783	-1.39635
1016.000	-3.80212	-0.86542	-4.19166	-1.38068
1017.000	-3.79227	-0.76818	-4.21329	-1.39055
1018.000	-3.74897	-0.80196	-4.31553	-1.44985
1019.000	-3.73716	-0.77220	-4.28800	-1.33887
1020.000	-3.80212	-0.81779	-4.28211	-1.39638
1021.000	-3.80408	-0.84359	-4.23492	-1.32706
1022.000	-3.76472	-0.79401	-4.31356	-1.34279
1023.000	-3.80802	-0.83168	-4.19756	-1.40248
1024.000	-3.83558	-0.85943	-4.28604	-1.32896
1025.000	-3.75881	-0.82577	-4.27031	-1.43010
1026.000	-3.80802	-0.84160	-4.21526	-1.37667
1027.000	-3.73913	-0.85556	-4.28407	-1.36465
1028.000	-3.78834	-0.86146	-4.34894	-1.37048
1029.000	-3.82770	-0.87333	-4.28407	-1.35275
1030.000	-3.88675	-0.83557	-4.28407	-1.40827
1031.000	-3.96349	-0.85335	-4.47276	-1.40990
1032.000	-4.06579	-0.84134	-4.43346	-1.33068
1033.000	-4.28997	-0.84110	-4.74775	-1.29442
1034.000	-4.55135	-0.76149	-4.91853	-1.31787
1035.000	-4.81057	-0.82067	-5.27354	-1.28942
1036.000	-5.15982	-0.77269	-5.61640	-1.28275
1037.000	-5.42249	-0.68919	-5.98623	-1.25225
1038.000	-5.86105	-0.66888	-6.33799	-1.15853
1039.000	-6.30089	-0.60704	-6.75557	-0.99561
1040.000	-6.70877	-0.53938	-7.13350	-1.00666
1041.000	-7.11598	-0.45404	-7.44862	-0.90537
1042.000	-7.40779	-0.40048	-7.85448	-0.79811
1043.000	-7.71863	-0.33119	-8.32538	-0.78537
1044.000	-8.15497	-0.30918	-8.56717	-0.57441
1045.000	-8.39891	-0.29521	-8.87622	-0.44815
1046.000	-8.70051	-0.23008	-9.13657	-0.37319
1047.000	-8.89552	-0.19458	-9.47927	-0.32573
1048.000	-9.01126	-0.14344	-9.64076	-0.19613
1049.000	-9.25216	-0.20421	-9.82321	-0.14702
1050.000	-9.41964	-0.15112	-9.98820	-0.12931
1051.000	-9.63884	-0.19025	-10.08021	-0.09206
1052.000	-9.73105	-0.18432	-10.19133	-0.10769
1053.000	-9.75793	-0.19214	-10.27748	-0.09592
1054.000	-9.77137	-0.15292	-10.46495	-0.11151
1055.000	-9.86927	-0.15876	-10.46113	-0.11543
1056.000	-9.95176	-0.24886	-10.45539	-0.17608
1057.000	-9.87502	-0.31359	-10.49554	-0.26995
1058.000	-9.85775	-0.32341	-10.38272	-0.28961
1059.000	-9.92299	-0.35666	-10.39420	-0.35026
1060.000	-9.74065	-0.36666	-10.33490	-0.37186
1061.000	-9.77521	-0.34309	-10.18750	-0.44447
1062.000	-9.69455	-0.36867	-10.08405	-0.47400
1063.000	-9.51581	-0.37475	-9.95176	-0.38602
1064.000	-9.53696	-0.34726	-9.83280	-0.45280
1065.000	-9.51581	-0.38260	-9.65997	-0.40989
1066.000	-9.47735	-0.32377	-9.65229	-0.43147
1067.000	-9.42541	-0.30027	-9.57157	-0.41784
1068.000	-9.48696	-0.27471	-9.49081	-0.40813
1069.000	-9.59848	-0.38839	-9.52543	-0.45714
1070.000	-9.63499	-0.33539	-9.56772	-0.38058
1071.000	-9.63307	-0.30401	-9.48696	-0.47681
1072.000	-9.68303	-0.28828	-9.68111	-0.42555
1073.000	-9.67534	-0.27260	-9.68879	-0.35887
1074.000	-9.78865	-0.31955	-9.72529	-0.35295
1075.000	-9.84624	-0.29598	-9.77137	-0.34702
1076.000	-9.87694	-0.31947	-9.82129	-0.23523
1077.000	-9.89805	-0.31749	-9.91531	-0.32531
1078.000	-9.92682	-0.25083	-9.93450	-0.25083
1079.000	-9.90764	-0.24497	-10.01312	-0.26252
1080.000	-9.91723	-0.27044	-10.04571	-0.22136
1081.000	-9.89613	-0.20382	-10.09746	-0.25266
1082.000	-9.93258	-0.24691	-10.13195	-0.21542
1083.000	-9.95943	-0.21554	-10.12812	-0.18409
1084.000	-9.95176	-0.19791	-10.17409	-0.19777
1085.000	-9.96902	-0.18614	-10.24303	-0.18011
1086.000	-9.96710	-0.19594	-10.13578	-0.22130
1087.000	-9.93258	-0.15089	-10.17409	-0.22323
1088.000	-9.95368	-0.20771	-10.18941	-0.18014
1089.000	-9.94601	-0.16068	-10.11662	-0.19781
1090.000	-9.97477	-0.18614	-10.15685	-0.15274
1091.000	-9.99203	-0.16066	-10.12428	-0.18801
1092.000	-9.93642	-0.18616	-10.10321	-0.15081
1093.000	-9.93450	-0.18224	-10.08213	-0.16845
1094.000	-9.90380	-0.16266	-10.03421	-0.20765
1095.000	-9.94217	-0.17636	-9.99587	-0.19788
1096.000	-9.91148	-0.18030	-10.07255	-0.26247
1097.000	-9.85008	-0.18229	-10.01121	-0.27036
1098.000	-9.85967	-0.14896	-10.01504	-0.23705
1099.000	-9.88078	-0.19011	-10.06296	-0.24093
1100.000	-9.86159	-0.28028	-9.97477	-0.33309
1101.000	-9.83664	-0.17054	-10.04955	-0.25270
1102.000	-9.87310	-0.21756	-10.01696	-0.25468
1103.000	-9.83664	-0.21366	-9.96902	-0.26060
1104.000	-9.81937	-0.19407	-9.99011	-0.33307
1105.000	-9.81169	-0.21564	-9.91915	-0.18225
1106.000	-9.79633	-0.17644	-9.94601	-0.24886
1107.000	-9.80593	-0.18231	-9.99970	-0.30955
1108.000	-9.77521	-0.21174	-10.00162	-0.19788
1109.000	-9.78481	-0.22546	-9.99778	-0.22531
1110.000	-9.75985	-0.18234	-10.05721	-0.26249
1111.000	-9.77329	-0.19410	-9.97286	-0.29194
1112.000	-9.77905	-0.20978	-9.99395	-0.27429
1113.000	-9.81553	-0.17447	-9.98053	-0.19201
1114.000	-9.79825	-0.19408	-10.03421	-0.26838
1115.000	-9.79633	-0.18820	-10.02271	-0.31345
1116.000	-9.82896	-0.25091	-9.91148	-0.26848
1117.000	-9.83088	-0.19994	-9.98244	-0.27038
1118.000	-9.75793	-0.20979	-10.07063	-0.28402
1119.000	-9.76945	-0.17841	-10.03613	-0.27034
1120.000	-9.84624	-0.24894	-9.99395	-0.26254
1121.000	-9.76369	-0.27448	-10.02846	-0.25076
1122.000	-9.83664	-0.24502	-10.06488	-0.23506
1123.000	-9.75985	-0.24312	-10.00354	-0.30171
1124.000	-9.84240	-0.17249	-10.01887	-0.29386
1125.000	-9.80209	-0.18232	-10.06296	-0.30557
1126.000	-9.79057	-0.17840	-10.01504	-0.27623
1127.000	-9.84240	-0.19994	-10.04571	-0.28796
1128.000	-9.85200	-0.19013	-10.06488	-0.27619
1129.000	-9.82896	-0.20386	-10.01121	-0.25077
1130.000	-9.83280	-0.20778	-10.01887	-0.16652
1131.000	-9.81169	-0.16271	-10.09363	-0.33101
1132.000	-9.83664	-0.19210	-10.00737	-0.24098
1133.000	-9.81169	-0.15095	-10.04763	-0.16847
1134.000	-9.85200	-0.17249	-10.05146	-0.27816
1135.000	-9.84240	-0.14701	-10.04955	-0.30755
1136.000	-9.82513	-0.16466	-10.01504	-0.26448
1137.000	-9.83664	-0.17838	-9.98244	-0.30173
1138.000	-9.83088	-0.19014	-10.06296	-0.26640
1139.000	-9.86159	-0.17248	-10.10512	-0.28399
1140.000	-9.82129	-0.16858	-10.09554	-0.27225
1141.000	-9.82896	-0.18034	-10.02463	-0.21550
1142.000	-9.81745	-0.17839	-10.00737	-0.27624
1143.000	-9.82321	-0.16858	-10.02079	-0.17240
1144.000	-9.81937	-0.21171	-9.96519	-0.25276
1145.000	-9.84816	-0.17837	-10.07255	-0.28794
1146.000	-9.77713	-0.19605	-10.08788	-0.26442
1147.000	-9.76753	-0.17645	-10.03038	-0.21549
1148.000	-9.81937	-0.19995	-10.10512	-0.25853
1149.000	-9.82705	-0.23523	-10.04380	-0.17630
1150.000	-9.84240	-0.16073	-10.04955	-0.23115
1151.000	-9.84816	-0.15877	-10.01312	-0.25469
1152.000	-9.78865	-0.21957	-10.05913	-0.28599
1153.000	-9.78481	-0.23526	-10.07830	-0.23309
1154.000	-9.80401	-0.16663	-10.02846	-0.26055
1155.000	-9.81937	-0.19799	-10.07255	-0.14887
1156.000	-9.81745	-0.19799	-10.01121	-0.24293
1157.000	-9.83088	-0.17642	-9.98820	-0.19397
1158.000	-9.81745	-0.18035	-10.10896	-0.25853
1159.000	-9.85008	-0.20189	-10.04571	-0.23311
1160.000	-9.82321	-0.20387	-10.03229	-0.21353
1161.000	-9.82705	-0.16858	-10.08213	-0.26442
1162.000	-9.81361	-0.17447	-10.04955	-0.24290
1163.000	-9.83472	-0.18622	-10.01887	-0.23509
1164.000	-9.86351	-0.21756	-10.08979	-0.22720
1165.000	-9.84432	-0.25286	-10.03421	-0.20961
1166.000	-9.79825	-0.19996	-10.10321	-0.24482
1167.000	-9.81361	-0.28228	-10.03038	-0.24880
1168.000	-9.84240	-0.20778	-10.02654	-0.23508
1169.000	-9.89613	-0.22734	-10.09746	-0.18803
1170.000	-9.80593	-0.16663	-10.07446	-0.22526
1171.000	-9.81937	-0.23719	-10.08979	-0.18411
1172.000	-9.78673	-0.19605	-10.06296	-0.25073
1173.000	-9.80017	-0.23329	-10.09554	-0.19782
1174.000	-9.80785	-0.18231	-10.07830	-0.27030
1175.000	-9.79441	-0.19016	-10.02271	-0.24684
1176.000	-9.83280	-0.22542	-10.06105	-0.23114
1177.000	-9.79057	-0.20781	-10.03805	-0.25663
1178.000	-9.84432	-0.22542	-10.06105	-0.14691
1179.000	-9.80977	-0.19995	-10.07446	-0.25072
1180.000	-9.78289	-0.21173	-10.08405	-0.25267
1181.000	-9.85008	-0.16857	-10.05146	-0.23311
1182.000	-9.77521	-0.19605	-10.06871	-0.23897
1183.000	-9.85008	-0.22345	-10.04955	-0.17238
1184.000	-9.82129	-0.16662	-10.00162	-0.16261
1185.000	-9.81361	-0.20191	-10.11470	-0.19193
1186.000	-9.84240	-0.20582	-10.04188	-0.22136
1187.000	-9.82321	-0.21759	-10.11087	-0.14493
1188.000	-9.84624	-0.20385	-10.08788	-0.18607
1189.000	-9.89229	-0.17443	-10.05146	-0.22919
1190.000	-9.83856	-0.14897	-10.10129	-0.18215
1191.000	-9.85008	-0.23717	-10.07446	-0.20175
1192.000	-9.87694	-0.23715	-10.05913	-0.21156
1193.000	-9.80977	-0.24896	-10.02271	-0.15477
1194.000	-9.87502	-0.22343	-10.01887	-0.21746
1195.000	-9.84432	-0.18229	-10.04955	-0.22136
1196.000	-9.84816	-0.17641	-10.05721	-0.21939
1197.000	-9.87119	-0.20972	-10.08213	-0.26247
1198.000	-9.88078	-0.16071	-10.08596	-0.23308
1199.000	-9.85391	-0.19405	-9.94601	-0.19987
1200.000	-9.88078	-0.23519	-10.06296	-0.25465
1201.000	-9.87502	-0.19992	-10.03229	-0.16064
1202.000	-9.84048	-0.18033	-10.06105	-0.16650
1203.000	-9.80785	-0.17447	-10.09938	-0.20761
1204.000	-9.82129	-0.14898	-9.99970	-0.21943
1205.000	-9.83088	-0.21758	-10.04380	-0.20961
1206.000	-9.85775	-0.20777	-10.03421	-0.14693
1207.000	-9.89037	-0.16267	-9.98628	-0.29977
1208.000	-9.90764	-0.21949	-9.98436	-0.19005
1209.000	-9.88654	-0.18619	-10.01121	-0.22922
1210.000	-9.82129	-0.13134	-10.02654	-0.20374
1211.000	-9.85200	-0.19209	-10.04188	-0.22136
1212.000	-9.86927	-0.20776	-9.98244	-0.19397
1213.000	-9.84432	-0.24894	-10.02846	-0.14105
1214.000	-9.85008	-0.22345	-10.03805	-0.19590
1215.000	-9.85008	-0.13917	-9.99778	-0.24882
1216.000	-9.86735	-0.26068	-10.02271	-0.21354
1217.000	-9.85200	-0.25089	-9.93450	-0.20772
1218.000	-9.89421	-0.23518	-9.94217	-0.28217
1219.000	-9.80977	-0.19407	-10.01121	-0.24097
1220.000	-9.85583	-0.17445	-9.97094	-0.18810
1221.000	-9.84816	-0.19797	-9.99395	-0.21748
1222.000	-9.82705	-0.19798	-10.11279	-0.21152
1223.000	-9.82129	-0.19015	-10.03038	-0.21549
1224.000	-9.85583	-0.21169	-9.98628	-0.22532
1225.000	-9.85008	-0.13917	-9.97669	-0.20181
1226.000	-9.83856	-0.18230	-9.98436	-0.27626
1227.000	-9.83088	-0.23523	-9.96135	-0.20770
1228.000	-9.80017	-0.22545	-9.97286	-0.15087
1229.000	-9.79249	-0.19212	-9.94984	-0.25278
1230.000	-9.83280	-0.17054	-9.95943	-0.22534
1231.000	-9.85200	-0.18229	-10.05913	-0.18021
1232.000	-9.85583	-0.21365	-9.95176	-0.10189
1233.000	-9.85391	-0.19797	-10.02271	-0.23313
1234.000	-9.79825	-0.21957	-10.00737	-0.18416
1235.000	-9.85583	-0.17641	-9.94025	-0.15872
1236.000	-9.88270	-0.17247	-9.98053	-0.19593
1237.000	-9.83664	-0.19994	-9.92491	-0.22928
1238.000	-9.84432	-0.20581	-10.05338	-0.28208
1239.000	-9.85967	-0.20972	-10.06871	-0.17041
1240.000	-9.85967	-0.17248	-9.96135	-0.20182
1241.000	-9.86735	-0.24304	-9.99778	-0.27037
1242.000	-9.82513	-0.21563	-10.06105	-0.17042
1243.000	-9.79825	-0.19996	-10.00929	-0.20571
1244.000	-9.80401	-0.16271	-10.03038	-0.25467
1245.000	-9.85391	-0.16857	-10.03613	-0.24487
1246.000	-9.78865	-0.16272	-10.02654	-0.22725
1247.000	-9.85583	-0.14505	-10.02463	-0.23313
1248.000	-9.82705	-0.20975	-10.01121	-0.26252
1249.000	-9.83280	-0.22934	-9.96135	-0.26256
1250.000	-9.82896	-0.21366	-9.97669	-0.27627
1251.000	-9.77905	-0.22938	-10.02463	-0.19591
1252.000	-9.83088	-0.16858	-9.99011	-0.29585
1253.000	-9.86927	-0.22344	-9.98244	-0.22336
1254.000	-9.84048	-0.21170	-10.07830	-0.30948
1255.000	-9.89037	-0.18619	-10.04571	-0.24878
1256.000	-9.83472	-0.19406	-10.07446	-0.20763
1257.000	-9.88078	-0.18815	-9.96902	-0.20770
1258.000	-9.81937	-0.20583	-10.05530	-0.28404
1259.000	-9.84240	-0.20974	-10.00162	-0.21355
1260.000	-9.84048	-0.26070	-10.07446	-0.21350
1261.000	-9.79825	-0.20780	-9.98820	-0.18809
1262.000	-9.81553	-0.19995	-9.98628	-0.23707
1263.000	-9.82129	-0.22935	-10.00545	-0.20767
1264.000	-9.77905	-0.24703	-9.95176	-0.24886
1265.000	-9.79825	-0.22937	-10.03996	-0.27425
1266.000	-9.82321	-0.24503	-9.99970	-0.23706
1267.000	-9.79441	-0.20585	-9.96710	-0.25668
1268.000	-9.82513	-0.19603	-10.07446	-0.19979
1269.000	-9.84816	-0.26657	-10.03421	-0.24879
1270.000	-9.83280	-0.25091	-10.00354	-0.26645
1271.000	-9.85583	-0.23913	-9.91531	-0.25084
1272.000	-9.82513	-0.26267	-10.07255	-0.18021
1273.000	-9.81361	-0.17839	-10.09746	-0.22328
1274.000	-9.85583	-0.21953	-10.01312	-0.22138
1275.000	-9.85008	-0.22933	-10.02846	-0.16260
1276.000	-9.86927	-0.21560	-10.07638	-0.20175
1277.000	-9.80401	-0.23917	-10.01312	-0.17436
1278.000	-9.82513	-0.22151	-9.98244	-0.32916
1279.000	-9.87502	-0.24695	-9.96135	-0.28608
1280.000	-9.86927	-0.20188	-9.97861	-0.23120
1281.000	-9.84624	-0.20581	-10.06488	-0.25073
1282.000	-9.85008	-0.22737	-10.02271	-0.19787
1283.000	-9.82321	-0.19995	-10.04763	-0.22136
1284.000	-9.87502	-0.23323	-10.00162	-0.18808
1285.000	-9.86735	-0.18424	-9.98053	-0.28410
1286.000	-9.85200	-0.19993	-9.96135	-0.23513
1287.000	-9.78481	-0.25878	-9.99587	-0.27037
1288.000	-9.86159	-0.20384	-9.92682	-0.24104
1289.000	-9.83664	-0.17446	-10.06680	-0.29382
1290.000	-9.82896	-0.21759	-10.09938	-0.28008
1291.000	-9.83664	-0.21758	-9.95943	-0.27628
1292.000	-9.85008	-0.24893	-9.97286	-0.24884
1293.000	-9.83472	-0.18230	-10.00354	-0.19004
1294.000	-9.81169	-0.24112	-9.95368	-0.29588
1295.000	-9.82705	-0.27051	-10.07063	-0.25464
1296.000	-9.86735	-0.26068	-10.07255	-0.28598
1297.000	-9.86159	-0.24108	-9.97669	-0.23708
1298.000	-9.86735	-0.23716	-9.98820	-0.27822
1299.000	-9.85391	-0.23325	-9.91340	-0.27240
1300.000	-9.89805	-0.21754	-9.93258	-0.25867
1301.000	-9.89613	-0.24498	-9.93450	-0.21947
1302.000	-9.81937	-0.20975	-9.99203	-0.26842
1303.000	-9.83664	-0.20974	-10.06680	-0.21155
1304.000	-9.86159	-0.23716	-9.98628	-0.17830
1305.000	-9.81745	-0.25092	-9.90189	-0.21754
1306.000	-9.84240	-0.21562	-9.91340	-0.22929
1307.000	-9.82896	-0.25091	-9.97286	-0.24688
1308.000	-9.86735	-0.25088	-9.97094	-0.20965
1309.000	-9.82129	-0.21563	-9.99970	-0.21943
1310.000	-9.85775	-0.19013	-9.89997	-0.25085
1311.000	-9.86351	-0.19992	-10.06105	-0.23702
1312.000	-9.80017	-0.25093	-9.93450	-0.24887
1313.000	-9.86927	-0.24892	-10.01696	-0.16456
1314.000	-9.81169	-0.22348	-9.94792	-0.18028
1315.000	-9.84432	-0.23718	-9.89613	-0.21754
1316.000	-9.84048	-0.18426	-9.96135	-0.21750
1317.000	-9.88078	-0.20187	-9.96519	-0.24689
1318.000	-9.87502	-0.18620	-9.96327	-0.14500
1319.000	-9.89997	-0.23126	-9.97094	-0.20573
1320.000	-9.85775	-0.24109	-9.93642	-0.22535
1321.000	-9.85008	-0.25285	-9.93833	-0.31549
1322.000	-9.85391	-0.25089	-9.96902	-0.26648
1323.000	-9.85775	-0.25089	-9.99587	-0.17829
1324.000	-9.85583	-0.24109	-10.00929	-0.21355
1325.000	-9.84624	-0.28618	-9.96902	-0.26060
1326.000	-9.84048	-0.18622	-9.95368	-0.21750
1327.000	-9.83664	-0.24110	-9.89229	-0.28026
1328.000	-9.87502	-0.20188	-9.97861	-0.21161
1329.000	-9.90189	-0.22930	-9.99203	-0.28409
1330.000	-9.83472	-0.23326	-9.89229	-0.27830
1331.000	-9.82129	-0.29012	-9.94217	-0.22339
1332.000	-9.83856	-0.22346	-9.97477	-0.24884
1333.000	-9.88654	-0.23127	-10.00929	-0.23314
1334.000	-9.86159	-0.24696	-9.92107	-0.27043
1335.000	-9.80785	-0.27837	-9.96902	-0.25276
1336.000	-9.88078	-0.24303	-9.96519	-0.28215
1337.000	-9.83664	-0.21562	-9.96902	-0.21945
1338.000	-9.87310	-0.25087	-10.03421	-0.24292
1339.000	-9.80593	-0.23916	-9.92874	-0.26651
1340.000	-9.85967	-0.21560	-9.95560	-0.27041
1341.000	-9.85200	-0.22933	-9.96135	-0.24101
1342.000	-9.87119	-0.22736	-9.95943	-0.21946
1343.000	-9.84048	-0.22738	-9.96135	-0.22729
1344.000	-9.85008	-0.24893	-9.94601	-0.27237
1345.000	-9.87502	-0.25675	-10.00545	-0.30759
1346.000	-9.89805	-0.23322	-9.97861	-0.22336
1347.000	-9.90189	-0.23517	-9.99203	-0.27625
1348.000	-9.83472	-0.26070	-9.97861	-0.27627
1349.000	-9.88078	-0.25087	-10.04188	-0.26642
1350.000	-9.84816	-0.24501	-9.99587	-0.32327
1351.000	-9.79249	-0.25878	-9.99587	-0.27233
1352.000	-9.80785	-0.26269	-10.01312	-0.21354
1353.000	-9.86159	-0.20384	-9.98053	-0.21357
1354.000	-9.86927	-0.28420	-10.04571	-0.21548
1355.000	-9.89805	-0.24106	-9.95368	-0.19399
1356.000	-9.88846	-0.26066	-9.93833	-0.21555
1357.000	-9.80593	-0.21172	-9.84816	-0.19209
1358.000	-9.69455	-0.25493	-9.89805	-0.25478
1359.000	-9.57349	-0.23541	-9.79441	-0.27446
1360.000	-9.40232	-0.27674	-9.56003	-0.23542
1361.000	-9.16933	-0.24550	-9.29260	-0.10995
1362.000	-8.82796	-0.21231	-8.95340	-0.20634
1363.000	-8.35634	-0.19683	-8.47242	-0.13971
1364.000	-7.96116	-0.16156	-8.02320	-0.21473
1365.000	-7.36502	-0.08484	-7.51081	-0.27613
1366.000	-6.76142	-0.19361	-7.03615	-0.23298
1367.000	-6.30089	-0.17599	-6.37900	-0.25307
1368.000	-5.64185	-0.15640	-5.81801	-0.39187
1369.000	-5.10883	-0.20013	-5.15786	-0.35664
1370.000	-4.55921	-0.16460	-4.63189	-0.41641
1371.000	-4.04612	-0.23615	-4.00087	-0.42866
1372.000	-3.46935	-0.18865	-3.34327	-0.46870
1373.000	-2.97666	-0.18079	-2.87215	-0.58017
1374.000	-2.42433	-0.19678	-2.30000	-0.61422
1375.000	-2.04928	-0.27834	-1.94660	-0.64617
1376.000	-1.58713	-0.24461	-1.36783	-0.76567
1377.000	-1.12675	-0.39582	-1.03584	-0.96065
1378.000	-0.62668	-0.45157	-0.57529	-1.04627
1379.000	-0.26887	-0.52121	-0.12850	-1.18951
1380.000	0.17200	-0.59084	0.31632	-1.38038
1381.000	0.61878	-0.75590	0.72157	-1.50951
1382.000	1.05362	-0.87315	1.15441	-1.58485
1383.000	1.46464	-1.03008	1.49032	-1.66611
1384.000	1.97424	-1.16098	1.92685	-1.78493
1385.000	2.40263	-1.20237	2.31973	-1.79837
1386.000	2.87413	-1.32902	2.61968	-1.92502
1387.000	3.29795	-1.40194	3.20336	-1.95974
1388.000	3.77456	-1.51231	3.60918	-2.10962
1389.000	4.18379	-1.55121	3.98316	-2.11664
1390.000	4.62992	-1.68502	4.37056	-2.10569
1391.000	5.02645	-1.71373	4.77131	-2.26685
1392.000	5.45579	-1.73828	5.10295	-2.10742
1393.000	5.89040	-1.74092	5.60269	-2.10372
1394.000	6.32237	-1.71582	6.03707	-2.16730
1395.000	6.71267	-1.70066	6.25596	-2.01236
1396.000	7.07899	-1.74274	6.57809	-1.98740
1397.000	7.50109	-1.56176	7.00694	-1.86137
1398.000	7.82926	-1.60586	7.33001	-1.89356
1399.000	8.23051	-1.53541	7.58464	-1.85700
1400.000	8.50143	-1.51665	7.80597	-1.65715
1401.000	8.80480	-1.42505	8.14335	-1.66562
1402.000	9.10381	-1.35713	8.29053	-1.52141
1403.000	9.32533	-1.32292	8.46469	-1.61904
1404.000	9.46581	-1.31258	8.56717	-1.54784
1405.000	9.53504	-1.27898	8.61549	-1.48671
1406.000	9.61770	-1.19829	8.64641	-1.51803
1407.000	9.58502	-1.19056	8.64834	-1.52392
1408.000	9.53696	-1.20642	8.64061	-1.56130
1409.000	9.39077	-1.19123	8.57490	-1.68933
1410.000	9.27142	-1.22108	8.41246	-1.70775
1411.000	9.11537	-1.21573	8.34473	-1.79850
1412.000	8.99390	-1.23774	8.23632	-1.80293
1413.000	8.91095	-1.30285	8.09297	-1.91573
1414.000	8.81638	-1.30122	8.04452	-1.80773
1415.000	8.73335	-1.30348	8.10460	-1.85468
1416.000	8.67733	-1.37837	7.98249	-1.86508
1417.000	8.66767	-1.40199	8.09491	-1.91572
1418.000	8.66573	-1.42165	8.12010	-1.84084
1419.000	8.72948	-1.46071	8.16272	-1.84655
1420.000	8.80286	-1.49382	8.08716	-1.96297
1421.000	8.85885	-1.48181	8.17435	-1.84059
1422.000	8.93218	-1.51687	8.27892	-1.82831
1423.000	8.99198	-1.51269	8.31570	-1.84780
1424.000	9.14428	-1.49831	8.34086	-1.78082
1425.000	9.22905	-1.55289	8.53237	-1.73473
1426.000	9.32726	-1.54854	8.45888	-1.85302
1427.000	9.35805	-1.55232	8.58650	-1.85436
1428.000	9.43118	-1.53827	8.56524	-1.84268
1429.000	9.48889	-1.55566	8.67153	-1.78518
1430.000	9.51389	-1.56534	8.62516	-1.81291
1431.000	9.52735	-1.50450	8.60776	-1.78941
1432.000	9.50620	-1.51048	8.59810	-1.82876
1433.000	9.55811	-1.52005	8.59037	-1.81701
1434.000	9.51581	-1.49475	8.61163	-1.83852
1435.000	9.48504	-1.50077	8.52657	-1.80159
1436.000	9.43503	-1.49510	8.60969	-1.81102
1437.000	9.47158	-1.44592	8.54204	-1.82707
1438.000	9.42733	-1.45395	8.36408	-1.74925
1439.000	9.41964	-1.44221	8.53044	-1.82909
1440.000	9.38307	-1.40902	8.48983	-1.76638
1441.000	9.33688	-1.39351	8.51884	-1.80359
1442.000	9.31378	-1.40341	8.45695	-1.73114
1443.000	9.32533	-1.41122	8.38150	-1.77670
1444.000	9.30223	-1.43093	8.41439	-1.78049
1445.000	9.23868	-1.45670	8.42213	-1.70377
1446.000	9.25987	-1.41148	8.41439	-1.74706
1447.000	9.24638	-1.41546	8.40859	-1.74316
1448.000	9.23675	-1.39980	8.28279	-1.73192
1449.000	9.24446	-1.37033	8.32731	-1.69042
1450.000	9.24253	-1.40174	8.33118	-1.74743
1451.000	9.18282	-1.40394	8.31376	-1.78685
1452.000	9.20401	-1.40778	8.30602	-1.60003
1453.000	9.18474	-1.44318	8.35634	-1.70799
1454.000	9.19630	-1.39799	8.24988	-1.71436
1455.000	9.17704	-1.37648	8.20921	-1.66732
1456.000	9.18860	-1.41176	8.26149	-1.64939
1457.000	9.18860	-1.37251	8.20534	-1.65159
1458.000	9.20786	-1.39599	8.26149	-1.66316
1459.000	9.13464	-1.42376	8.30602	-1.63544
1460.000	9.19630	-1.41370	8.23826	-1.60031
1461.000	9.19630	-1.36070	8.29441	-1.63745
1462.000	9.19823	-1.39406	8.28666	-1.73977
1463.000	9.16933	-1.38240	8.24407	-1.68291
1464.000	9.19438	-1.41959	8.29828	-1.65907
1465.000	9.21364	-1.42148	8.33312	-1.80446
1466.000	9.17896	-1.40199	8.20146	-1.69292
1467.000	9.19823	-1.44313	8.34667	-1.72180
1468.000	9.24638	-1.42331	8.30215	-1.75740
1469.000	9.21749	-1.40380	8.35247	-1.82206
1470.000	9.27527	-1.41338	8.32731	-1.61765
1471.000	9.23290	-1.47242	8.43180	-1.69783
1472.000	9.24446	-1.36248	8.32731	-1.64125
1473.000	9.25987	-1.39971	8.36602	-1.65485
1474.000	9.27912	-1.43691	8.36602	-1.67845
1475.000	9.30415	-1.38776	8.39504	-1.66063
1476.000	9.27142	-1.41928	8.38730	-1.62526
1477.000	9.27527	-1.40749	8.34473	-1.73754
1478.000	9.26372	-1.39969	8.32925	-1.68451
1479.000	9.25794	-1.45858	8.43761	-1.71550
1480.000	9.27335	-1.44086	8.32925	-1.62944
1481.000	9.25794	-1.41737	8.37376	-1.67842
1482.000	9.29260	-1.44078	8.35634	-1.68439
1483.000	9.27527	-1.45066	8.42020	-1.72934
1484.000	9.31186	-1.42893	8.39698	-1.65472
1485.000	9.28490	-1.46632	8.37569	-1.70791
1486.000	9.25409	-1.41346	8.41246	-1.64876
1487.000	9.29645	-1.44861	8.45502	-1.73901
1488.000	9.28490	-1.45062	8.32925	-1.80841
1489.000	9.31378	-1.41911	8.37182	-1.76495
1490.000	9.29068	-1.39762	8.49563	-1.78011
1491.000	9.23290	-1.43317	8.38537	-1.62330
1492.000	9.31186	-1.45640	8.35828	-1.71585
1493.000	9.30993	-1.43090	8.40085	-1.67830
1494.000	9.29260	-1.49572	8.46275	-1.74684
1495.000	9.29645	-1.45057	8.40278	-1.64880
1496.000	9.32726	-1.42887	8.44728	-1.72725
1497.000	9.28490	-1.37606	8.35828	-1.68635
1498.000	9.30030	-1.45644	8.38537	-1.67640
1499.000	9.29838	-1.42898	8.37763	-1.72953
1500.000	9.24831	-1.44292	8.47436	-1.76252
1501.000	9.26372	-1.39773	8.35634	-1.72176
1502.000	9.25601	-1.38991	8.39698	-1.70191
1503.000	9.28297	-1.38784	8.33699	-1.67858
1504.000	9.30223	-1.46036	8.48209	-1.66615
1505.000	9.25409	-1.44486	8.46275	-1.76060
1506.000	9.28875	-1.46238	8.45695	-1.65446
1507.000	9.30415	-1.45447	8.41052	-1.67826
1508.000	9.32341	-1.47204	8.46469	-1.65443
1509.000	9.30030	-1.46625	8.42407	-1.69393
1510.000	9.30608	-1.44072	8.45502	-1.71542
1511.000	9.30223	-1.42897	8.39311	-1.69407
1512.000	9.32148	-1.46028	8.37569	-1.64104
1513.000	9.26949	-1.40752	8.32731	-1.73172
1514.000	9.31763	-1.42106	8.41246	-1.67039
1515.000	9.32341	-1.41319	8.46662	-1.69964
1516.000	9.32341	-1.46812	8.42020	-1.72344
1517.000	9.28875	-1.37997	8.54784	-1.76611
1518.000	9.28875	-1.42510	8.48209	-1.79197
1519.000	9.26179	-1.46249	8.40278	-1.79824
1520.000	9.26179	-1.45857	8.49950	-1.78009
1521.000	9.33688	-1.44452	8.43374	-1.74108
1522.000	9.24446	-1.44883	8.40472	-1.75497
1523.000	9.28297	-1.45259	8.44148	-1.74497
1524.000	9.31378	-1.39949	8.50337	-1.64837
1525.000	9.26564	-1.45463	8.38924	-1.75504
1526.000	9.29453	-1.44077	8.40859	-1.71956
1527.000	9.29453	-1.47216	8.44728	-1.76854
1528.000	9.32148	-1.45832	8.40859	-1.64091
1529.000	9.31378	-1.45246	8.52077	-1.65026
1530.000	9.30030	-1.38973	8.39311	-1.73536
1531.000	9.31186	-1.46621	8.43567	-1.73517
1532.000	9.32533	-1.44849	8.48403	-1.72709
1533.000	9.33496	-1.45041	8.46469	-1.76060
1534.000	9.30223	-1.41327	8.41439	-1.69201
1535.000	9.30030	-1.41917	8.50530	-1.69554
1536.000	9.30030	-1.43486	8.46662	-1.75469
1537.000	9.25794	-1.41737	8.43761	-1.65651
1538.000	9.27335	-1.45656	8.46856	-1.74878
1539.000	9.29260	-1.49179	8.40859	-1.68023
1540.000	9.27335	-1.45067	8.45888	-1.75276
1541.000	9.28490	-1.40549	8.43567	-1.72337
1542.000	9.26564	-1.46051	8.48790	-1.62681
1543.000	9.26372	-1.49976	8.47242	-1.75073
1544.000	9.28297	-1.46436	8.49950	-1.69556
1545.000	9.26564	-1.48210	8.44921	-1.73118
1546.000	9.28875	-1.51143	8.54010	-1.78580
1547.000	9.27335	-1.48795	8.41439	-1.82767
1548.000	9.27720	-1.45654	8.43567	-1.77646
1549.000	9.25216	-1.48215	8.47823	-1.76053
1550.000	9.29453	-1.50356	8.46662	-1.78025
1551.000	9.24253	-1.44491	8.42987	-1.73126
1552.000	9.28490	-1.48202	8.42793	-1.64082
1553.000	9.27335	-1.45852	8.44921	-1.69775
1554.000	9.28875	-1.49966	8.46469	-1.72717
1555.000	9.30608	-1.48193	8.51303	-1.70337
1556.000	9.30608	-1.50547	8.51884	-1.73283
1557.000	9.28875	-1.49573	8.48209	-1.63470
1558.000	9.27527	-1.50560	8.44921	-1.66433
1559.000	9.26949	-1.52525	8.53237	-1.78780
1560.000	9.28683	-1.51144	8.42407	-1.63494
1561.000	9.31186	-1.47405	8.33505	-1.59598
1562.000	9.33881	-1.47786	8.39698	-1.68815
1563.000	9.30223	-1.47017	8.46275	-1.68393
1564.000	9.32726	-1.52303	8.37763	-1.68823
1565.000	9.29838	-1.52120	8.40472	-1.69402
1566.000	9.27527	-1.54680	8.39117	-1.78846
1567.000	9.30030	-1.55062	8.42407	-1.68607
1568.000	9.30800	-1.54862	8.43567	-1.64276
1569.000	9.27912	-1.51343	8.45502	-1.65840
1570.000	9.33688	-1.51318	8.38343	-1.71377
1571.000	9.25409	-1.49588	8.39311	-1.70390
1572.000	9.25987	-1.55864	8.34473	-1.66478
1573.000	9.28490	-1.50360	8.38537	-1.62330
1574.000	9.27527	-1.56054	8.36215	-1.73156
1575.000	9.24638	-1.53516	8.33312	-1.61565
1576.000	9.23675	-1.52343	8.39504	-1.68816
1577.000	9.23098	-1.46262	8.33699	-1.71791
1578.000	9.27912	-1.48989	8.45115	-1.65252
1579.000	9.32341	-1.49755	8.36602	-1.62535
1580.000	9.29068	-1.48395	8.34473	-1.69624
1581.000	9.30415	-1.52117	8.41633	-1.68020
1582.000	9.27912	-1.47812	8.35828	-1.62145
1583.000	9.28875	-1.49377	8.33312	-1.66876
1584.000	9.30223	-1.45251	8.45502	-1.71149
1585.000	9.26372	-1.47622	8.40472	-1.68615
1586.000	9.25409	-1.49588	8.43180	-1.61328
1587.000	9.24253	-1.50770	8.36021	-1.64504
1588.000	9.26757	-1.48994	8.36215	-1.63324
1589.000	9.21942	-1.46070	8.37569	-1.68628
1590.000	9.29260	-1.46040	8.42793	-1.62116
1591.000	9.23868	-1.48025	8.37956	-1.61940
1592.000	9.26372	-1.43305	8.40278	-1.68419
1593.000	9.24253	-1.47434	8.50723	-1.70143
1594.000	9.22327	-1.42929	8.38730	-1.68623
1595.000	9.24446	-1.45471	8.38150	-1.68035
1596.000	9.23290	-1.45280	8.36795	-1.67254
1597.000	9.24253	-1.47631	8.38730	-1.69409
1598.000	9.25024	-1.45076	8.47242	-1.70748
1599.000	9.25601	-1.46251	8.40859	-1.69990
1600.000	9.25024	-1.46450	8.46275	-1.65444
1601.000	9.23483	-1.49596	8.49176	-1.71133
1602.000	9.26949	-1.44480	8.44728	-1.67220
1603.000	9.26372	-1.47033	8.32344	-1.77304
1604.000	9.21942	-1.46070	8.51110	-1.72303
1605.000	9.21749	-1.49996	8.35828	-1.72175
1606.000	9.20208	-1.45685	8.41826	-1.70969
1607.000	9.23098	-1.41748	8.38537	-1.70000
1608.000	9.22712	-1.46263	8.46082	-1.71146
1609.000	9.23290	-1.48812	8.39504	-1.69799
1610.000	9.23675	-1.44493	8.39891	-1.68224
1611.000	9.25216	-1.46842	8.49756	-1.68378
1612.000	9.19438	-1.48043	8.39698	-1.60556
1613.000	9.21171	-1.46466	8.33699	-1.69038
1614.000	9.24061	-1.46062	8.42407	-1.74702
1615.000	9.24638	-1.50769	8.42793	-1.70178
1616.000	9.26372	-1.48799	8.43567	-1.67815
1617.000	9.24446	-1.45079	8.40278	-1.66453
1618.000	9.27142	-1.44479	8.44728	-1.74102
1619.000	9.23675	-1.49203	8.36795	-1.74727
1620.000	9.18282	-1.48441	8.31570	-1.66293
1621.000	9.21364	-1.51568	8.39311	-1.70193
1622.000	9.20208	-1.47451	8.47242	-1.63080
1623.000	9.19630	-1.46669	8.35247	-1.66081
1624.000	9.18474	-1.48440	8.41633	-1.66840
1625.000	9.21171	-1.50783	8.47436	-1.69174
1626.000	9.25409	-1.43309	8.41633	-1.68807
1627.000	9.24253	-1.53125	8.43567	-1.71158
1628.000	9.20786	-1.49019	8.37182	-1.69613
1629.000	9.21364	-1.49213	8.41633	-1.70183
1630.000	9.22905	-1.49599	8.45308	-1.72133
1631.000	9.18667	-1.50794	8.47823	-1.63078
1632.000	9.23098	-1.46262	8.43567	-1.73124
1633.000	9.23483	-1.49204	8.48016	-1.68582
1634.000	9.17511	-1.51388	8.37956	-1.71772
1635.000	9.22712	-1.46263	8.42020	-1.72541
1636.000	9.21942	-1.53135	8.53430	-1.76421
1637.000	9.22712	-1.51169	8.42793	-1.80402
1638.000	9.24831	-1.46843	8.39117	-1.72160
1639.000	9.20208	-1.53731	8.46469	-1.63870
1640.000	9.20979	-1.50784	8.47823	-1.68583
1641.000	9.20594	-1.52160	8.41246	-1.66055
1642.000	9.23290	-1.50774	8.45502	-1.76261
1643.000	9.25024	-1.48805	8.47629	-1.71336
1644.000	9.23868	-1.49987	8.51497	-1.69353
1645.000	9.22327	-1.51171	8.44534	-1.66238
1646.000	9.23483	-1.50970	8.40085	-1.68420
1647.000	9.24446	-1.51358	8.38730	-1.62133
1648.000	9.20979	-1.53335	8.36215	-1.67453
1649.000	9.20979	-1.52354	8.39504	-1.71765
1650.000	9.22520	-1.51955	8.35441	-1.70407
1651.000	9.19052	-1.53933	8.43374	-1.68799
1652.000	9.23290	-1.51559	8.34667	-1.73163
1653.000	9.16548	-1.46093	8.43954	-1.75088
1654.000	9.20979	-1.54513	8.43374	-1.76860
1655.000	9.22905	-1.50187	8.48983	-1.76245
1656.000	9.23290	-1.49401	8.43180	-1.68603
1657.000	9.23675	-1.54894	8.38924	-1.74521
1658.000	9.22135	-1.48621	8.46275	-1.68000
1659.000	9.22135	-1.49013	8.40085	-1.67044
1660.000	9.25024	-1.49982	8.49176	-1.69757
1661.000	9.23098	-1.55485	8.39117	-1.66261
1662.000	9.22712	-1.46656	8.40085	-1.67044
1663.000	9.21942	-1.50388	8.47629	-1.78020
1664.000	9.23290	-1.53718	8.53237	-1.69935
1665.000	9.19245	-1.49418	8.45115	-1.68202
1666.000	9.21557	-1.50978	8.44921	-1.64663
1667.000	9.19630	-1.50005	8.48016	-1.70155
1668.000	9.20208	-1.48825	8.40472	-1.66649
1669.000	9.18860	-1.50008	8.47049	-1.69176
1670.000	9.19630	-1.50986	8.51497	-1.68960
1671.000	9.22905	-1.47048	8.51690	-1.76036
1672.000	9.23483	-1.50185	8.46662	-1.78221
1673.000	9.23098	-1.54504	8.39504	-1.69406
1674.000	9.14043	-1.51795	8.43180	-1.77844
1675.000	9.22520	-1.56468	8.48790	-1.66809
1676.000	9.22327	-1.55881	8.36795	-1.62731
1677.000	9.17126	-1.54530	8.40085	-1.67240
1678.000	9.16933	-1.52175	8.44341	-1.66239
1679.000	9.17318	-1.52370	8.53430	-1.73669
1680.000	9.18089	-1.47068	8.52850	-1.79372
1681.000	9.16548	-1.50214	8.45695	-1.71541
1682.000	9.15199	-1.42761	8.43374	-1.65850
1683.000	9.17511	-1.45892	8.43374	-1.70765
1684.000	9.15777	-1.51395	8.47823	-1.66027
1685.000	9.16548	-1.45896	8.53430	-1.74259
1686.000	9.19438	-1.49613	8.54397	-1.75434
1687.000	9.16548	-1.45308	8.52657	-1.70331
1688.000	9.19052	-1.47064	8.47823	-1.72908
1689.000	9.17318	-1.45304	8.42407	-1.69983
1690.000	9.17511	-1.45500	8.38150	-1.71575
1691.000	9.15199	-1.46294	8.50530	-1.64246
1692.000	9.19052	-1.48437	8.51110	-1.76431
1693.000	9.16548	-1.48644	8.49370	-1.71525
1694.000	9.17126	-1.49231	8.52464	-1.74066
1695.000	9.18860	-1.46476	8.48983	-1.70347
1696.000	9.17318	-1.49819	8.39311	-1.73536
1697.000	9.13657	-1.46105	8.41052	-1.74315
1698.000	9.13079	-1.47874	8.35247	-1.69424
1699.000	9.15970	-1.44721	8.46469	-1.77632
1700.000	9.20401	-1.47058	8.49950	-1.69360
1701.000	9.17126	-1.46679	8.40472	-1.71368
1702.000	9.11923	-1.45915	8.42793	-1.66835
1703.000	9.17318	-1.47660	8.42600	-1.67229
1704.000	9.12886	-1.46893	8.51884	-1.71907
1705.000	9.15391	-1.48845	8.43374	-1.75680
1706.000	9.16740	-1.45307	8.41052	-1.71955
1707.000	9.09995	-1.47690	8.51110	-1.75645
1708.000	9.15199	-1.46491	8.45308	-1.67611
1709.000	9.17126	-1.43735	8.36215	-1.72960
1710.000	9.14235	-1.48065	8.45695	-1.67216
1711.000	9.15777	-1.47077	8.55557	-1.66780
1712.000	9.12115	-1.47092	8.38537	-1.65280
1713.000	9.07682	-1.49859	8.46662	-1.73896
1714.000	9.10188	-1.47885	8.35634	-1.71979
1715.000	9.09031	-1.47301	8.42793	-1.69195
1716.000	9.10188	-1.44941	8.38537	-1.58201
1717.000	9.13657	-1.41786	8.45502	-1.66234
1718.000	9.13464	-1.48853	8.42987	-1.65655
1719.000	9.14235	-1.47672	8.43567	-1.66832
1720.000	9.09224	-1.49067	8.53044	-1.68363
1721.000	9.12886	-1.45911	8.43761	-1.68797
1722.000	9.12115	-1.45129	8.39698	-1.62326
1723.000	9.17896	-1.44713	8.35828	-1.57228
1724.000	9.16933	-1.45699	8.44728	-1.57585
1725.000	9.11923	-1.48075	8.34667	-1.62543
1726.000	9.14428	-1.47672	8.44341	-1.56014
1727.000	9.12693	-1.48268	8.39117	-1.69604
1728.000	9.10959	-1.45723	8.29828	-1.60793
1729.000	9.10381	-1.48081	8.33699	-1.64317
1730.000	9.13850	-1.47478	8.30021	-1.63546
1731.000	9.15391	-1.46490	8.39891	-1.66848
1732.000	9.11344	-1.46703	8.42407	-1.68213
1733.000	9.12115	-1.49644	8.33505	-1.65498
1734.000	9.12308	-1.48269	8.43180	-1.69586
1735.000	9.13079	-1.51014	8.37763	-1.67840
1736.000	9.12115	-1.48663	8.36408	-1.66273
1737.000	9.13464	-1.50816	8.42213	-1.69591
1738.000	9.11537	-1.48273	8.42020	-1.75687
1739.000	9.09417	-1.47496	8.36408	-1.66273
1740.000	9.12693	-1.47286	8.39117	-1.67834
1741.000	9.15391	-1.46294	8.44921	-1.61321
1742.000	9.12115	-1.52392	8.38150	-1.58792
1743.000	9.10766	-1.49650	8.39891	-1.68814
1744.000	9.12886	-1.48856	8.39504	-1.73338
1745.000	9.13850	-1.49048	8.47823	-1.67010
1746.000	9.10766	-1.52202	8.32925	-1.70024
1747.000	9.12501	-1.49839	8.35247	-1.69818
1748.000	9.08260	-1.48482	8.33505	-1.60188
1749.000	9.11730	-1.48861	8.38730	-1.67443
1750.000	9.11923	-1.49449	8.36215	-1.71780
1751.000	9.17126	-1.54137	8.33118	-1.63927
1752.000	9.08453	-1.51034	8.36795	-1.66861
1753.000	9.10959	-1.51612	8.36021	-1.70011
1754.000	9.09031	-1.53387	8.34280	-1.61561
1755.000	9.10959	-1.53182	8.40665	-1.64288
1756.000	9.08839	-1.60847	8.35247	-1.64508
1757.000	9.12693	-1.56708	8.37763	-1.58597
1758.000	9.10381	-1.51811	8.49370	-1.70935
1759.000	9.12308	-1.52195	8.43761	-1.70763
1760.000	9.10766	-1.55931	8.45695	-1.65250
1761.000	9.10766	-1.54165	8.35634	-1.75322
1762.000	9.13272	-1.54154	8.35828	-1.61162
1763.000	9.14043	-1.51795	8.42987	-1.62902
1764.000	9.14043	-1.52973	8.37569	-1.72364
1765.000	9.15199	-1.48650	8.51303	-1.72892
1766.000	9.07296	-1.50646	8.40278	-1.75891
1767.000	8.90516	-1.51698	8.19178	-1.79330
1768.000	8.69665	-1.49032	8.12591	-1.74047
1769.000	8.43374	-1.50512	7.96698	-1.82382
1770.000	8.13173	-1.58696	7.68369	-1.83097
1771.000	7.79045	-1.50949	7.35335	-1.91120
1772.000	7.31445	-1.53088	6.98357	-1.95023
1773.000	6.76727	-1.64915	6.68732	-2.04814
1774.000	6.33409	-1.61897	6.22275	-2.19419
1775.000	5.81801	-1.65019	5.77692	-2.27108
1776.000	5.25394	-1.72302	5.28138	-2.40153
1777.000	4.68688	-1.77204	4.88909	-2.42476
1778.000	4.30570	-1.89782	4.37843	-2.45819
1779.000	3.74306	-1.96259	4.03235	-2.64942
1780.000	3.31962	-2.00514	3.56586	-2.58150
1781.000	2.91159	-2.04164	3.32553	-2.62377
1782.000	2.56838	-2.11963	2.88793	-2.63279
1783.000	2.24473	-2.14594	2.63743	-2.75034
1784.000	1.90513	-2.24964	2.33355	-2.67759
1785.000	1.60886	-2.26588	2.02361	-2.73963
1786.000	1.33819	-2.24233	1.76688	-2.73012
1787.000	1.12477	-2.36960	1.43896	-2.75635
1788.000	0.98840	-2.30616	1.30064	-2.70095
1789.000	0.77494	-2.32416	1.10896	-2.72098
1790.000	0.60889	-2.29445	0.86388	-2.70927
1791.000	0.44877	-2.32430	0.59110	-2.73325
1792.000	0.38946	-2.28261	0.43889	-2.69958
1793.000	0.20363	-2.23299	0.24119	-2.76910
1794.000	0.11071	-2.24889	0.12455	-2.77309
1795.000	0.11467	-2.21711	0.06326	-2.70362
1796.000	0.23329	-2.15750	-0.03559	-2.68576
1797.000	0.30643	-2.13961	-0.07513	-2.57856
1798.000	0.50412	-2.08592	0.17991	-2.56465
1799.000	0.67610	-2.02625	0.29852	-2.50109
1800.000	0.88760	-1.99833	0.40133	-2.41965
1801.000	1.06548	-1.93266	0.64448	-2.33614
1802.000	1.30064	-1.92654	0.86784	-2.28240
1803.000	1.46464	-1.94031	1.08920	-2.27232
1804.000	1.60491	-1.93423	1.27693	-2.22848
1805.000	1.70170	-1.91824	1.40142	-2.21248
1806.000	1.79453	-1.95191	1.50415	-2.16869
1807.000	1.81231	-1.93005	1.59108	-2.13683
1808.000	1.79453	-1.89233	1.58713	-2.18846
1809.000	1.72343	-1.94603	1.63849	-2.24004
1810.000	1.59700	-2.01369	1.69577	-2.37497
1811.000	1.49428	-1.98796	1.53774	-2.37317
1812.000	1.32436	-2.00599	1.46662	-2.42884
1813.000	1.20777	-2.04978	1.28286	-2.47270
1814.000	1.02200	-2.08765	1.15639	-2.64949
1815.000	0.93306	-2.10161	0.98247	-2.65956
1816.000	0.80459	-2.13546	0.86191	-2.68744
1817.000	0.65436	-2.11963	0.68203	-2.74115
1818.000	0.57133	-2.13953	0.55157	-2.69556
1819.000	0.54959	-2.12563	0.45668	-2.76309
1820.000	0.51598	-2.19120	0.38749	-2.75716
1821.000	0.50610	-2.13956	0.31632	-2.73931
1822.000	0.47842	-2.12764	0.28469	-2.67977
1823.000	0.45668	-2.15944	0.34597	-2.70953
1824.000	0.52982	-2.09783	0.27085	-2.72741
1825.000	0.52982	-2.12365	0.21945	-2.61427
1826.000	0.54168	-2.09385	0.27678	-2.68374
1827.000	0.55552	-2.08590	0.20561	-2.66788
1828.000	0.58913	-2.09383	0.27678	-2.70558
1829.000	0.61285	-2.10376	0.24515	-2.59442
1830.000	0.62668	-2.12561	0.28073	-2.59242
1831.000	0.66820	-2.08188	0.35586	-2.61424
1832.000	0.61482	-2.08588	0.39144	-2.58247
1833.000	0.66424	-2.06996	0.36376	-2.59439
1834.000	0.67017	-2.07195	0.31434	-2.70954
1835.000	0.67017	-2.09579	0.39144	-2.57453
1836.000	0.74924	-2.03218	0.37958	-2.60431
1837.000	0.72354	-2.07192	0.41319	-2.57055
1838.000	0.73936	-2.06397	0.42505	-2.61422
1839.000	0.77691	-2.04210	0.46459	-2.59634
1840.000	0.77889	-2.03415	0.46261	-2.62612
1841.000	0.75715	-2.02820	0.58122	-2.56453
1842.000	0.73936	-2.04808	0.50215	-2.56059
1843.000	0.80459	-2.04010	0.58913	-2.51092
1844.000	0.77691	-2.00236	0.50808	-2.51095
1845.000	0.78482	-2.06395	0.53773	-2.56653
1846.000	0.77889	-2.05600	0.57924	-2.52879
1847.000	0.77494	-2.03415	0.56343	-2.48909
1848.000	0.78482	-2.05799	0.53180	-2.51094
1849.000	0.77691	-2.07786	0.55552	-2.58042
1850.000	0.78680	-2.08580	0.57331	-2.61615
1851.000	0.80854	-2.08380	0.52191	-2.63007
1852.000	0.78680	-2.07785	0.61087	-2.55856
1853.000	0.80854	-2.05599	0.51598	-2.58044
1854.000	0.80261	-2.07785	0.51796	-2.52683
1855.000	0.78087	-2.05600	0.46063	-2.56656
1856.000	0.79075	-2.09176	0.43889	-2.58444
1857.000	0.80459	-2.03811	0.52191	-2.53080
1858.000	0.76308	-2.02621	0.57331	-2.51887
1859.000	0.80261	-2.07983	0.54959	-2.61417
1860.000	0.74726	-2.04609	0.48040	-2.62810
1861.000	0.77296	-2.05005	0.49819	-2.55464
1862.000	0.78284	-2.06594	0.60099	-2.53474
1863.000	0.78482	-2.04011	0.56738	-2.50497
1864.000	0.82040	-2.08181	0.46459	-2.60428
1865.000	0.81249	-2.07784	0.49424	-2.55464
1866.000	0.74924	-2.07390	0.60099	-2.51290
1867.000	0.79273	-2.07984	0.49622	-2.50103
1868.000	0.78877	-2.09772	0.55354	-2.48711
1869.000	0.77296	-2.04409	0.51796	-2.52683
1870.000	0.82435	-2.04605	0.55552	-2.56057
1871.000	0.81249	-2.02221	0.48633	-2.51096
1872.000	0.76110	-2.05403	0.43493	-2.49509
1873.000	0.79075	-2.07388	0.41121	-2.55665
1874.000	0.79668	-2.04805	0.51401	-2.57051
1875.000	0.83424	-2.07187	0.54564	-2.52285
1876.000	0.78877	-2.09176	0.41714	-2.61422
1877.000	0.81447	-2.07784	0.48040	-2.61817
1878.000	0.79273	-2.08977	0.48435	-2.62016
1879.000	0.78680	-2.07785	0.49226	-2.61817
1880.000	0.81645	-2.06989	0.49424	-2.70750
1881.000	0.79470	-2.09374	0.52191	-2.57845
1882.000	0.79273	-2.03017	0.46656	-2.61421
1883.000	0.81447	-2.06592	0.55750	-2.52880
1884.000	0.80063	-1.98447	0.55947	-2.55064
1885.000	0.82040	-2.01426	0.56540	-2.54071
1886.000	0.77889	-2.04210	0.45075	-2.55862
1887.000	0.80656	-2.03612	0.45075	-2.48119
1888.000	0.80854	-2.02222	0.52389	-2.57845
1889.000	0.84412	-2.04405	0.45470	-2.53480
1890.000	0.84412	-2.04405	0.43493	-2.50304
1891.000	0.85203	-2.01027	0.48435	-2.57648
1892.000	0.84214	-2.01028	0.46261	-2.54671
1893.000	0.81842	-2.06989	0.44877	-2.62414
1894.000	0.84412	-2.02220	0.48238	-2.60427
1895.000	0.85993	-2.00232	0.48040	-2.60626
1896.000	0.84807	-2.01822	0.55947	-2.57843
1897.000	0.79668	-2.02421	0.48435	-2.54471
1898.000	0.85993	-1.99437	0.48831	-2.56655
1899.000	0.84610	-1.98445	0.51401	-2.56654
1900.000	0.84610	-1.96855	0.45668	-2.56855
1901.000	0.87970	-2.03013	0.43691	-2.47921
1902.000	0.87179	-2.01424	0.52191	-2.52683
1903.000	0.84017	-1.93677	0.49226	-2.53280
1904.000	0.93306	-2.01818	0.41912	-2.58246
1905.000	0.90144	-1.99634	0.45272	-2.58642
1906.000	0.88563	-1.95462	0.48831	-2.54471
1907.000	0.82040	-1.99042	0.55552	-2.55660
1908.000	0.87772	-1.97251	0.53378	-2.57050
1909.000	0.88167	-2.03608	0.49226	-2.56854
1910.000	0.89353	-2.03409	0.47447	-2.53678
1911.000	0.85598	-2.02815	0.45272	-2.55068
1912.000	0.88958	-2.02615	0.47249	-2.60626
1913.000	0.88365	-1.97648	0.44086	-2.55466
1914.000	0.86784	-2.02417	0.50017	-2.55265
1915.000	0.90539	-2.04402	0.48040	-2.54869
1916.000	0.86981	-2.01225	0.46854	-2.56060
1917.000	0.90539	-1.99435	0.48633	-2.57648
1918.000	0.88958	-2.03409	0.52587	-2.61220
1919.000	0.85005	-2.05001	0.40923	-2.56459
1920.000	0.86981	-2.01424	0.53971	-2.63006
1921.000	0.86388	-2.01821	0.36772	-2.55468
1922.000	0.89946	-1.99833	0.43098	-2.56260
1923.000	0.86388	-2.00232	0.53575	-2.51094
1924.000	0.90342	-1.95263	0.51005	-2.54073
1925.000	0.85005	-2.01425	0.48238	-2.46331
1926.000	0.85400	-2.06590	0.52982	-2.58440
1927.000	0.87377	-2.01423	0.43691	-2.55863
1928.000	0.88760	-2.03409	0.50017	-2.56456
1929.000	0.82238	-2.04605	0.45470	-2.53281
1930.000	0.89946	-2.01223	0.49819	-2.54669
1931.000	0.87772	-2.03211	0.47645	-2.48714
1932.000	0.87179	-2.01225	0.49622	-2.46330
1933.000	0.88563	-2.01224	0.40133	-2.51893
1934.000	0.89353	-1.98045	0.47447	-2.60031
1935.000	0.90539	-2.03408	0.48831	-2.53876
1936.000	0.90144	-2.03011	0.42109	-2.46730
1937.000	0.86586	-1.98245	0.47447	-2.47522
1938.000	0.85400	-2.03213	0.43493	-2.57253
1939.000	0.89353	-2.05396	0.36574	-2.58049
1940.000	0.85203	-2.03610	0.43889	-2.48516
1941.000	0.88167	-2.04999	0.52389	-2.53676
1942.000	0.82238	-2.06989	0.45668	-2.57053
1943.000	0.83819	-2.02617	0.41516	-2.50106
1944.000	0.85993	-2.03212	0.44284	-2.50700
1945.000	0.87970	-1.99039	0.47249	-2.48515
1946.000	0.87772	-2.00231	0.48040	-2.56854
1947.000	0.82831	-1.98644	0.41121	-2.55070
1948.000	0.91725	-1.99037	0.47249	-2.55862
1949.000	0.87179	-1.98245	0.49226	-2.59434
1950.000	0.86981	-2.01026	0.53180	-2.54867
1951.000	0.91132	-2.00428	0.40923	-2.40971
1952.000	0.88958	-2.01621	0.44284	-2.56657
1953.000	0.85005	-1.99438	0.44877	-2.57054
1954.000	0.89353	-2.02813	0.44877	-2.50104
1955.000	0.86191	-2.00431	0.51598	-2.56257
1956.000	0.90539	-1.98839	0.41121	-2.52091
1957.000	0.86586	-2.02417	0.51401	-2.54470
1958.000	0.87970	-1.98046	0.53378	-2.50498
1959.000	0.90539	-2.01422	0.45865	-2.57053
1960.000	0.86981	-2.00828	0.51994	-2.54073
1961.000	0.91923	-1.98043	0.45272	-2.48913
1962.000	0.85796	-1.99040	0.52982	-2.56256
1963.000	0.92713	-1.99036	0.43493	-2.51693
1964.000	0.88167	-2.00231	0.56540	-2.53475
1965.000	0.85400	-2.03610	0.53180	-2.52484
1966.000	0.85598	-2.03014	0.50412	-2.50102
1967.000	0.89353	-1.98442	0.47447	-2.57847
1968.000	0.85796	-2.02418	0.47052	-2.54472
1969.000	0.87377	-1.97053	0.47447	-2.56457
1970.000	0.90144	-1.99833	0.49226	-2.50897
1971.000	0.89156	-2.04005	0.42702	-2.53679
1972.000	0.90539	-1.98243	0.47447	-2.52685
1973.000	0.90539	-1.99435	0.47249	-2.52089
1974.000	0.88958	-2.00628	0.46656	-2.47920
1975.000	0.85005	-1.98047	0.50215	-2.49705
1976.000	0.88167	-1.98642	0.43493	-2.53877
1977.000	0.85993	-1.99239	0.47447	-2.52685
1978.000	0.88167	-1.96655	0.56540	-2.52880
1979.000	0.85203	-2.01226	0.45075	-2.51693
1980.000	0.88958	-1.99833	0.40133	-2.52290
1981.000	0.89749	-1.99237	0.41319	-2.57055
1982.000	0.87574	-2.02218	0.42109	-2.52687
1983.000	0.90144	-2.03409	0.46459	-2.58046
1984.000	0.86388	-1.98643	0.46261	-2.56458
1985.000	0.89551	-1.98840	0.45075	-2.52487
1986.000	0.87377	-2.01026	0.51005	-2.56456
1987.000	0.88167	-1.98046	0.49028	-2.58442
1988.000	0.89353	-1.99833	0.41912	-2.46333
1989.000	0.81842	-2.02817	0.50017	-2.58044
1990.000	0.84017	-1.99240	0.45272	-2.57649
1991.000	0.87772	-2.03013	0.46656	-2.53082
1992.000	0.86586	-2.01027	0.49819	-2.57647
1993.000	0.84017	-2.00829	0.45668	-2.56259
1994.000	0.90737	-2.01422	0.44679	-2.57848
1995.000	0.88563	-2.00628	0.49226	-2.55861
1996.000	0.82040	-1.99439	0.46261	-2.51692
1997.000	0.85005	-1.99438	0.39539	-2.57254
1998.000	0.86191	-2.05795	0.43493	-2.58245
1999.000	0.85203	-2.00431	0.41319	-2.58246
2000.000	0.85993	-1.99835	0.44877	-2.55664
2001.000	0.85598	-2.01822	0.41319	-2.55268
2002.000	0.88365	-1.97052	0.48040	-2.52486
2003.000	0.87574	-2.04801	0.41714	-2.53481
2004.000	0.87772	-2.01423	0.49424	-2.58045
2005.000	0.84610	-2.03014	0.44877	-2.57649
2006.000	0.83028	-2.01227	0.45075	-2.54671
2007.000	0.86586	-2.02616	0.55947	-2.58836
2008.000	0.88167	-2.00430	0.48831	-2.53677
2009.000	0.86191	-2.01027	0.44086	-2.58047
2010.000	0.89551	-1.99436	0.51203	-2.52485
2011.000	0.85598	-2.04405	0.45075	-2.59436
2012.000	0.87377	-2.01821	0.46459	-2.67376
2013.000	0.87772	-2.01622	0.48238	-2.59633
2014.000	0.88365	-2.02218	0.46459	-2.53281
2015.000	0.85598	-1.99835	0.42900	-2.60231
2016.000	0.85993	-2.00431	0.45865	-2.53480
2017.000	0.85598	-2.02616	0.39539	-2.59636
2018.000	0.84807	-2.02220	0.47249	-2.56656
2019.000	0.83226	-2.06591	0.46459	-2.64002
2020.000	0.87574	-2.03013	0.42900	-2.59635
2021.000	0.87377	-1.98245	0.40726	-2.57254
2022.000	0.88563	-1.99039	0.50215	-2.62015
2023.000	0.90737	-2.04203	0.48040	-2.52685
2024.000	0.85598	-2.07384	0.44284	-2.61620
2025.000	0.84412	-2.05200	0.50017	-2.56456
2026.000	0.85796	-2.04007	0.44877	-2.58443
2027.000	0.86191	-2.01424	0.48238	-2.65390
2028.000	0.85598	-2.02219	0.47052	-2.62215
2029.000	0.85796	-2.00431	0.48238	-2.61420
2030.000	0.86388	-1.97649	0.43098	-2.59040
2031.000	0.87772	-2.03211	0.41319	-2.63011
2032.000	0.90342	-1.98839	0.50808	-2.62412
2033.000	0.87574	-2.02019	0.48040	-2.58839
2034.000	0.87970	-1.99238	0.48633	-2.60626
2035.000	0.89946	-2.03607	0.52389	-2.61021
2036.000	0.83621	-2.04604	0.47052	-2.56259
2037.000	0.85400	-2.04603	0.48435	-2.62810
2038.000	0.82040	-2.01029	0.44679	-2.58443
2039.000	0.83226	-2.01227	0.51796	-2.60823
2040.000	0.82040	-2.06194	0.45470	-2.51097
2041.000	0.81249	-2.03612	0.39935	-2.56857
2042.000	0.82040	-2.06194	0.46854	-2.60428
2043.000	0.80656	-2.04407	0.48435	-2.63802
2044.000	0.83621	-2.10167	0.49424	-2.64596
2045.000	0.82040	-2.02817	0.46854	-2.56854
2046.000	0.82831	-2.02618	0.44482	-2.62414
2047.000	0.86388	-2.02020	0.49424	-2.65985
2048.000	0.87179	-2.05397	0.45470	-2.53877
2049.000	0.81842	-2.03413	0.48831	-2.61817
2050.000	0.86981	-2.08973	0.48238	-2.53479
2051.000	0.83226	-2.04207	0.61087	-2.59826
2052.000	0.85796	-2.05199	0.45470	-2.56061
2053.000	0.83028	-2.05995	0.51598	-2.56654
2054.000	0.85993	-2.06192	0.45075	-2.61620
2055.000	0.83028	-2.01624	0.40726	-2.60033
2056.000	0.83621	-2.04604	0.50808	-2.67573
2057.000	0.83621	-2.01624	0.52587	-2.61617
2058.000	0.90342	-2.07382	0.42900	-2.64003
2059.000	0.80656	-2.10566	0.44086	-2.59238
2060.000	0.85796	-2.06987	0.40330	-2.61820
2061.000	0.80656	-2.08579	0.49226	-2.60824
2062.000	0.80063	-2.02222	0.39144	-2.65989
2063.000	0.83424	-2.04406	0.45075	-2.69163
2064.000	0.84017	-2.02419	0.43493	-2.57253
2065.000	0.88167	-2.04602	0.46459	-2.53281
2066.000	0.84214	-2.03412	0.49028	-2.56854
2067.000	0.85598	-2.07583	0.43493	-2.56856
2068.000	0.81447	-2.01029	0.41714	-2.62415
2069.000	0.85203	-2.04206	0.36179	-2.59439
2070.000	0.82633	-2.05399	0.54168	-2.58837
2071.000	0.86586	-2.01225	0.49226	-2.56059
2072.000	0.82040	-2.06989	0.42900	-2.57253
2073.000	0.82238	-2.03612	0.48633	-2.59435
2074.000	0.84412	-2.03412	0.40330	-2.63210
2075.000	0.84214	-2.05796	0.46854	-2.52486
2076.000	0.87574	-2.02019	0.45075	-2.58443
2077.000	0.87772	-2.04205	0.49819	-2.64000
2078.000	0.87970	-2.04403	0.44877	-2.55267
2079.000	0.85598	-2.06193	0.44482	-2.62017
2080.000	0.85993	-2.05398	0.43098	-2.59834
2081.000	0.86784	-2.05199	0.37365	-2.61027
2082.000	0.88365	-2.06191	0.41121	-2.58048
2083.000	0.90144	-2.08574	0.53971	-2.64991
2084.000	0.83424	-2.06988	0.40133	-2.62019
2085.000	0.84412	-2.00034	0.44877	-2.56855
2086.000	0.84017	-2.07187	0.44284	-2.65789
2087.000	0.87377	-2.03609	0.46261	-2.60230
2088.000	0.87179	-2.04205	0.42900	-2.55466
2089.000	0.85796	-2.04206	0.48238	-2.56655
2090.000	0.84807	-2.00630	0.45668	-2.58642
2091.000	0.83819	-2.05796	0.42702	-2.73332
2092.000	0.86191	-2.02020	0.47052	-2.56457
2093.000	0.86388	-2.01623	0.46656	-2.58641
2094.000	0.84610	-2.09570	0.47842	-2.58839
2095.000	0.92120	-2.02017	0.47842	-2.61023
2096.000	0.86586	-2.07980	0.44877	-2.56657
2097.000	0.90539	-2.07580	0.56738	-2.65784
2098.000	0.87772	-2.01821	0.47447	-2.63009
2099.000	0.88167	-2.04204	0.49028	-2.62214
2100.000	0.83819	-2.05597	0.48040	-2.63405
2101.000	0.87179	-2.00430	0.48238	-2.59435
2102.000	0.85796	-2.04802	0.39935	-2.60629
2103.000	0.84017	-1.99041	0.45272	-2.63803
2104.000	0.88167	-2.02814	0.53971	-2.56455
2105.000	0.85203	-2.03809	0.51598	-2.63602
2106.000	0.83424	-2.08578	0.46261	-2.59833
2107.000	0.85400	-2.04007	0.43889	-2.64598
2108.000	0.88760	-2.03211	0.46459	-2.66979
2109.000	0.83028	-2.06393	0.53773	-2.60822
2110.000	0.83226	-2.05002	0.45075	-2.63406
2111.000	0.87179	-2.07384	0.50808	-2.63404
2112.000	0.87772	-2.04403	0.46063	-2.62612
2113.000	0.87772	-2.08178	0.48435	-2.64596
2114.000	0.83819	-2.09571	0.42702	-2.62415
2115.000	0.87179	-1.99238	0.45272	-2.66980
2116.000	0.81447	-2.00632	0.45865	-2.57252
2117.000	0.83621	-2.03412	0.47249	-2.59435
2118.000	0.83621	-1.97651	0.39144	-2.52290
2119.000	0.74331	-1.92489	0.42505	-2.50502
2120.000	0.66029	-1.88518	0.30841	-2.43357
2121.000	0.57727	-1.80572	0.18979	-2.21313
2122.000	0.47052	-1.70041	0.09885	-2.21314
2123.000	0.31434	-1.57521	-0.15421	-1.99658
2124.000	0.16211	-1.44402	-0.23526	-1.96478
2125.000	-0.05140	-1.34859	-0.47842	-1.84351
2126.000	-0.21549	-1.15968	-0.68796	-1.69836
2127.000	-0.40528	-0.97868	-0.73343	-1.55722
2128.000	-0.52389	-0.85934	-1.05165	-1.41595
2129.000	-0.65634	-0.71213	-1.09315	-1.30262
2130.000	-0.68796	-0.56295	-1.32040	-1.14745
2131.000	-0.72947	-0.44360	-1.42513	-0.98039
2132.000	-0.80656	-0.38193	-1.28286	-0.95063
2133.000	-0.82831	-0.33618	-1.33424	-0.81738
2134.000	-0.77494	-0.25064	-1.25322	-0.71798
2135.000	-0.72750	-0.26855	-1.15244	-0.65238
2136.000	-0.63855	-0.32624	-1.12675	-0.64443
2137.000	-0.54959	-0.35609	-1.06548	-0.71802
2138.000	-0.50610	-0.37399	-0.92120	-0.73596
2139.000	-0.34399	-0.46551	-0.76505	-0.81554
2140.000	-0.27085	-0.49535	-0.68599	-0.94483
2141.000	-0.23922	-0.56498	-0.58122	-1.04031
2142.000	-0.16014	-0.67041	-0.57727	-1.13377
2143.000	-0.14827	-0.69428	-0.51598	-1.25707
2144.000	-0.14037	-0.79771	-0.43296	-1.35452
2145.000	-0.17793	-0.80765	-0.44679	-1.45392
2146.000	-0.14630	-0.84346	-0.43889	-1.46983
2147.000	-0.18979	-0.86732	-0.45075	-1.52748
2148.000	-0.21549	-0.87528	-0.38156	-1.52153
2149.000	-0.19572	-0.93892	-0.53575	-1.54336
2150.000	-0.22933	-0.89318	-0.49226	-1.49367
2151.000	-0.28666	-0.86931	-0.54761	-1.49167
2152.000	-0.30050	-0.84942	-0.57133	-1.47775
2153.000	-0.33609	-0.82952	-0.59506	-1.43401
2154.000	-0.35388	-0.81361	-0.68203	-1.43796
2155.000	-0.34399	-0.79770	-0.63459	-1.42604
2156.000	-0.36969	-0.77184	-0.70773	-1.34053
2157.000	-0.37958	-0.76786	-0.71366	-1.31866
2158.000	-0.33806	-0.74399	-0.70575	-1.31071
2159.000	-0.39144	-0.72609	-0.66622	-1.25505
2160.000	-0.39539	-0.76388	-0.79470	-1.23513
2161.000	-0.38749	-0.73007	-0.81052	-1.24308
2162.000	-0.40528	-0.72211	-0.83424	-1.19137
2163.000	-0.38749	-0.68233	-0.78680	-1.21724
2164.000	-0.40528	-0.68829	-0.79668	-1.23115
2165.000	-0.46656	-0.66243	-0.80459	-1.21326
2166.000	-0.47842	-0.64851	-0.81842	-1.16951
2167.000	-0.47249	-0.64851	-0.79668	-1.18542
2168.000	-0.45272	-0.62663	-0.77691	-1.14963
2169.000	-0.40923	-0.56696	-0.79273	-1.16156
2170.000	-0.46063	-0.63657	-0.80459	-1.17945
2171.000	-0.46854	-0.61867	-0.84017	-1.11382
2172.000	-0.44482	-0.63856	-0.77098	-1.12180
2173.000	-0.39737	-0.56497	-0.85400	-1.11382
2174.000	-0.44086	-0.62066	-0.83424	-1.13570
2175.000	-0.41912	-0.57690	-0.73738	-1.10987
2176.000	-0.46459	-0.61270	-0.79075	-1.18145
2177.000	-0.42307	-0.58088	-0.76505	-1.14964
2178.000	-0.38749	-0.61271	-0.76110	-1.08601
2179.000	-0.43296	-0.64851	-0.79273	-1.09196
2180.000	-0.41912	-0.59480	-0.75912	-1.17549
2181.000	-0.39737	-0.59282	-0.70971	-1.15164
2182.000	-0.41714	-0.62663	-0.78680	-1.10589
2183.000	-0.39539	-0.61669	-0.76110	-1.16555
2184.000	-0.41912	-0.64254	-0.79866	-1.09594
2185.000	-0.40330	-0.65249	-0.71959	-1.11386
2186.000	-0.39539	-0.56497	-0.74726	-1.10788
2187.000	-0.36574	-0.64454	-0.72157	-1.11584
2188.000	-0.33806	-0.62863	-0.77296	-1.08402
2189.000	-0.37365	-0.61072	-0.80063	-1.15162
2190.000	-0.35388	-0.59083	-0.78680	-1.10986
2191.000	-0.42307	-0.63061	-0.73738	-1.20333
2192.000	-0.42900	-0.60674	-0.73145	-1.12380
2193.000	-0.43098	-0.59679	-0.76901	-1.12180
2194.000	-0.40133	-0.60873	-0.69389	-1.10790
2195.000	-0.38946	-0.63857	-0.81052	-1.09395
2196.000	-0.42702	-0.65647	-0.82040	-1.11383
2197.000	-0.37958	-0.67437	-0.80261	-1.17548
2198.000	-0.38946	-0.67039	-0.77889	-1.20730
2199.000	-0.40528	-0.63857	-0.78087	-1.14566
2200.000	-0.42702	-0.64453	-0.75517	-1.15759
2201.000	-0.42109	-0.65249	-0.76703	-1.20929
2202.000	-0.41912	-0.61072	-0.80854	-1.16354
2203.000	-0.41912	-0.61669	-0.82633	-1.18342
2204.000	-0.41319	-0.67437	-0.80656	-1.19735
2205.000	-0.40923	-0.60873	-0.71959	-1.12976
2206.000	-0.44482	-0.67835	-0.71366	-1.21527
2207.000	-0.42109	-0.67437	-0.79075	-1.12776
2208.000	-0.45075	-0.66044	-0.74726	-1.10987
2209.000	-0.40923	-0.63459	-0.79273	-1.10986
2210.000	-0.38749	-0.66841	-0.77494	-1.20929
2211.000	-0.39144	-0.66244	-0.75319	-1.15759
2212.000	-0.42505	-0.65846	-0.76308	-1.17549
2213.000	-0.38551	-0.64056	-0.80063	-1.14764
2214.000	-0.44679	-0.59480	-0.76703	-1.12776
2215.000	-0.36574	-0.66642	-0.79470	-1.15758
2216.000	-0.39539	-0.64851	-0.77691	-1.18344
2217.000	-0.42505	-0.63459	-0.79668	-1.13571
2218.000	-0.42307	-0.67238	-0.79273	-1.12975
2219.000	-0.40330	-0.65846	-0.71366	-1.14766
2220.000	-0.40528	-0.60077	-0.75912	-1.19736
2221.000	-0.46261	-0.65050	-0.80261	-1.19138
2222.000	-0.45075	-0.63061	-0.77098	-1.07805
2223.000	-0.43296	-0.60475	-0.77889	-1.16355
2224.000	-0.40330	-0.63857	-0.86784	-1.17347
2225.000	-0.38551	-0.63658	-0.87970	-1.21920
2226.000	-0.42109	-0.62066	-0.74133	-1.16953
2227.000	-0.41516	-0.59679	-0.78482	-1.18741
2228.000	-0.36376	-0.60078	-0.79866	-1.13173
2229.000	-0.42307	-0.67835	-0.90934	-1.17544
2230.000	-0.41121	-0.62663	-0.79668	-1.12974
2231.000	-0.41516	-0.60674	-0.75517	-1.13174
2232.000	-0.39342	-0.63061	-0.74133	-1.14169
2233.000	-0.43098	-0.64055	-0.84412	-1.09195
2234.000	-0.40528	-0.65448	-0.77889	-1.15361
2235.000	-0.45075	-0.64055	-0.80854	-1.23513
2236.000	-0.42900	-0.61867	-0.80854	-1.21127
2237.000	-0.45272	-0.63061	-0.83621	-1.14365
2238.000	-0.45470	-0.63657	-0.84017	-1.14166
2239.000	-0.42505	-0.62663	-0.76901	-1.16554
2240.000	-0.42109	-0.62464	-0.76110	-1.22917
2241.000	-0.40133	-0.65846	-0.86784	-1.19335
2242.000	-0.42307	-0.62066	-0.83424	-1.17149
2243.000	-0.35981	-0.60277	-0.79075	-1.14367
2244.000	-0.39539	-0.65647	-0.79668	-1.17946
2245.000	-0.42900	-0.65050	-0.80261	-1.16553
2246.000	-0.39144	-0.63459	-0.79075	-1.16554
2247.000	-0.41714	-0.65249	-0.76308	-1.24906
2248.000	-0.42702	-0.66641	-0.78680	-1.24706
2249.000	-0.39737	-0.62464	-0.78284	-1.17747
2250.000	-0.42307	-0.63857	-0.76110	-1.14964
2251.000	-0.41516	-0.64056	-0.76703	-1.16554
2252.000	-0.36969	-0.62862	-0.81052	-1.16752
2253.000	-0.39144	-0.61868	-0.81052	-1.15957
2254.000	-0.40726	-0.66840	-0.83226	-1.21325
2255.000	-0.42702	-0.62464	-0.81447	-1.18542
2256.000	-0.40330	-0.62862	-0.81842	-1.17547
2257.000	-0.38749	-0.64851	-0.74726	-1.15362
2258.000	-0.41516	-0.69426	-0.74133	-1.20532
2259.000	-0.43889	-0.65448	-0.73343	-1.23316
2260.000	-0.40923	-0.62464	-0.85993	-1.19534
2261.000	-0.43889	-0.67238	-0.73936	-1.18146
2262.000	-0.38749	-0.67039	-0.81447	-1.26495
2263.000	-0.38749	-0.69824	-0.90144	-1.13170
2264.000	-0.41516	-0.67835	-0.80261	-1.18940
2265.000	-0.41516	-0.62862	-0.80656	-1.09793
2266.000	-0.39342	-0.67238	-0.79470	-1.21922
2267.000	-0.43493	-0.62663	-0.78680	-1.14565
2268.000	-0.39935	-0.67039	-0.72750	-1.08403
2269.000	-0.40528	-0.66443	-0.71959	-1.21328
2270.000	-0.38156	-0.67238	-0.80261	-1.15559
2271.000	-0.42307	-0.62464	-0.83424	-1.16553
2272.000	-0.41516	-0.66442	-0.71366	-1.21726
2273.000	-0.42900	-0.64055	-0.80063	-1.16554
2274.000	-0.39737	-0.63857	-0.73936	-1.22719
2275.000	-0.42900	-0.68034	-0.73936	-1.19140
2276.000	-0.48633	-0.70619	-0.82040	-1.14565
2277.000	-0.42702	-0.70818	-0.74726	-1.20333
2278.000	-0.46063	-0.65249	-0.80261	-1.15957
2279.000	-0.41516	-0.63857	-0.81249	-1.18939
2280.000	-0.42900	-0.62862	-0.76308	-1.15163
2281.000	-0.46459	-0.60077	-0.80459	-1.15758
2282.000	-0.42702	-0.58884	-0.80261	-1.15559
2283.000	-0.40923	-0.63857	-0.84412	-1.22915
2284.000	-0.47842	-0.66840	-0.81447	-1.17547
2285.000	-0.42505	-0.63459	-0.75715	-1.09794
2286.000	-0.40726	-0.65647	-0.78680	-1.16554
2287.000	-0.42900	-0.61867	-0.79866	-1.12577
2288.000	-0.44679	-0.64851	-0.81249	-1.20132
2289.000	-0.39737	-0.64255	-0.71761	-1.17550
2290.000	-0.42702	-0.64851	-0.79273	-1.15957
2291.000	-0.46261	-0.59082	-0.70180	-1.14369
2292.000	-0.41121	-0.64652	-0.72354	-1.04028
2293.000	-0.41516	-0.62066	-0.75715	-1.22719
2294.000	-0.41714	-0.62265	-0.78680	-1.17946
2295.000	-0.40330	-0.63459	-0.78284	-1.16753
2296.000	-0.40528	-0.62066	-0.76308	-1.13771
2297.000	-0.39935	-0.61072	-0.79470	-1.15758
2298.000	-0.41912	-0.62464	-0.73145	-1.20532
2299.000	-0.38946	-0.64454	-0.72552	-1.06613
2300.000	-0.43098	-0.63061	-0.76308	-1.13174
2301.000	-0.40726	-0.69426	-0.77296	-1.20531
2302.000	-0.39539	-0.66045	-0.80854	-1.16354
2303.000	-0.42109	-0.61668	-0.79668	-1.10191
2304.000	-0.39935	-0.63061	-0.80063	-1.17945
2305.000	-0.40528	-0.64255	-0.75122	-1.13771
2306.000	-0.36772	-0.61072	-0.80854	-1.00446
2307.000	-0.32818	-0.63062	-0.71366	-1.11585
2308.000	-0.38551	-0.59282	-0.73738	-1.15163
2309.000	-0.35586	-0.62664	-0.77494	-1.12577
2310.000	-0.37563	-0.61470	-0.76308	-1.13174
2311.000	-0.36179	-0.62266	-0.72354	-1.11187
2312.000	-0.37958	-0.61669	-0.74133	-1.08800
2313.000	-0.37958	-0.66841	-0.76110	-1.12180
2314.000	-0.34795	-0.62465	-0.73343	-1.13175
2315.000	-0.33609	-0.62664	-0.78284	-1.11384
2316.000	-0.40923	-0.64056	-0.82040	-1.16553
2317.000	-0.46063	-0.59082	-0.89946	-1.15755
2318.000	-0.49819	-0.66840	-0.86586	-1.15955
2319.000	-0.64843	-0.64849	-0.93109	-1.21520
2320.000	-0.86191	-0.63652	-1.10303	-1.22508
2321.000	-1.09513	-0.64045	-1.37573	-1.14543
2322.000	-1.31843	-0.67023	-1.62664	-1.32022
2323.000	-1.77083	-0.71979	-2.05125	-1.40734
2324.000	-2.22104	-0.80506	-2.38289	-1.37325
2325.000	-2.68675	-0.79882	-2.87413	-1.59907
2326.000	-3.07721	-0.84423	-3.21518	-1.69581
2327.000	-3.59736	-1.03236	-3.70369	-1.72271
2328.000	-4.13070	-1.17056	-4.17199	-1.89022
2329.000	-4.57296	-1.27493	-4.69080	-1.96416
2330.000	-4.94796	-1.41686	-5.12256	-2.04403
2331.000	-5.40485	-1.56230	-5.40485	-2.14596
2332.000	-5.89822	-1.66972	-5.80431	-2.19390
2333.000	-6.13872	-1.82313	-6.12699	-2.32296
2334.000	-6.50199	-2.03903	-6.44538	-2.35509
2335.000	-6.84913	-2.12241	-6.66782	-2.39349
2336.000	-7.17632	-2.29042	-6.98357	-2.54369
2337.000	-7.35141	-2.44514	-7.21135	-2.78073
2338.000	-7.67398	-2.55156	-7.43112	-2.77346
2339.000	-7.96698	-2.76013	-7.70116	-2.95069
2340.000	-8.06778	-2.87342	-7.88940	-3.01225
2341.000	-8.42213	-3.04357	-8.06003	-3.12492
2342.000	-8.64641	-3.17710	-8.36215	-3.17356
2343.000	-8.97076	-3.22917	-8.59810	-3.25006
2344.000	-9.06525	-3.25966	-8.88587	-3.22012
2345.000	-9.30030	-3.39447	-9.17318	-3.29587
2346.000	-9.54465	-3.46050	-9.41771	-3.31705
2347.000	-9.76945	-3.46210	-9.67918	-3.43372
2348.000	-9.94409	-3.55398	-9.89037	-3.45302
2349.000	-10.06105	-3.61709	-10.12620	-3.51882
2350.000	-10.10512	-3.58343	-10.28131	-3.45860
2351.000	-10.18941	-3.62345	-10.36933	-3.41863
2352.000	-10.21622	-3.61534	-10.48407	-3.46221
2353.000	-10.13578	-3.58699	-10.48216	-3.44079
2354.000	-10.09938	-3.57179	-10.41524	-3.41813
2355.000	-9.98436	-3.56330	-10.42097	-3.33033
2356.000	-9.79633	-3.47940	-10.27557	-3.28699
2357.000	-9.72144	-3.41961	-10.20090	-3.30923
2358.000	-9.61001	-3.37774	-10.10512	-3.26923
2359.000	-9.51581	-3.38845	-9.93450	-3.22602
2360.000	-9.44849	-3.30893	-9.76561	-3.11625
2361.000	-9.41386	-3.32295	-9.64844	-3.18969
2362.000	-9.33688	-3.29238	-9.52158	-3.12242
2363.000	-9.30415	-3.27312	-9.48504	-3.13058
2364.000	-9.38307	-3.26064	-9.43503	-3.18581
2365.000	-9.39077	-3.28013	-9.38307	-3.12563
2366.000	-9.49466	-3.26741	-9.35421	-3.21395
2367.000	-9.54850	-3.29623	-9.37345	-3.19225
2368.000	-9.62346	-3.30723	-9.41579	-3.26034
2369.000	-9.72913	-3.28274	-9.53888	-3.27677
2370.000	-9.79825	-3.37389	-9.54658	-3.36077
2371.000	-9.86735	-3.34389	-9.69647	-3.34170
2372.000	-9.90189	-3.41971	-9.80977	-3.44996
2373.000	-9.92491	-3.36869	-9.95943	-3.45035
2374.000	-9.99011	-3.41488	-9.99395	-3.34455
2375.000	-10.02463	-3.46917	-10.15685	-3.43068
2376.000	-10.03996	-3.43193	-10.09938	-3.41763
2377.000	-10.05146	-3.43766	-10.27557	-3.40600
2378.000	-10.08788	-3.47630	-10.35211	-3.46952
2379.000	-10.10129	-3.49567	-10.24877	-3.47261
2380.000	-10.13003	-3.47780	-10.31193	-3.40561
2381.000	-10.10896	-3.47217	-10.28323	-3.48588
2382.000	-10.07830	-3.45299	-10.32533	-3.38791
2383.000	-10.05721	-3.48639	-10.37507	-3.41857
2384.000	-10.06105	-3.53904	-10.33107	-3.41905
2385.000	-10.04188	-3.49046	-10.30045	-3.40963
2386.000	-9.99011	-3.45002	-10.23728	-3.36739
2387.000	-10.02271	-3.46724	-10.25451	-3.38867
2388.000	-10.01696	-3.50049	-10.25451	-3.46279
2389.000	-9.96135	-3.52646	-10.24494	-3.42583
2390.000	-9.91915	-3.50349	-10.16451	-3.39743
2391.000	-9.92107	-3.48785	-10.20665	-3.36966
2392.000	-9.95560	-3.48553	-10.15302	-3.30583
2393.000	-9.96710	-3.49321	-10.15494	-3.36435
2394.000	-9.83088	-3.49661	-10.17601	-3.35438
2395.000	-9.88462	-3.47456	-10.09938	-3.37274
2396.000	-9.86927	-3.43176	-10.08405	-3.30849
2397.000	-9.83856	-3.47700	-10.13386	-3.30407
2398.000	-9.83856	-3.49067	-10.02846	-3.36958
2399.000	-9.78097	-3.43463	-10.08788	-3.28697
2400.000	-9.81361	-3.42453	-10.03229	-3.35782
2401.000	-9.78481	-3.38575	-10.04380	-3.30499
2402.000	-9.80401	-3.45197	-10.08021	-3.31438
2403.000	-9.79441	-3.46965	-10.15685	-3.32530
2404.000	-9.80017	-3.44225	-10.07446	-3.33006
2405.000	-9.77137	-3.41324	-10.01312	-3.28773
2406.000	-9.78481	-3.41310	-10.06871	-3.32036
2407.000	-9.78673	-3.43457	-10.10896	-3.26919
2408.000	-9.86927	-3.37708	-10.07063	-3.29691
2409.000	-9.80209	-3.41293	-10.07830	-3.21874
2410.000	-9.78865	-3.44041	-10.08596	-3.32604
2411.000	-9.87886	-3.44338	-10.12237	-3.31590
2412.000	-9.78673	-3.41699	-10.05146	-3.30491
2413.000	-9.83088	-3.42825	-10.11279	-3.25548
2414.000	-9.78481	-3.41896	-10.08213	-3.24408
2415.000	-9.75985	-3.44071	-10.10896	-3.31018
2416.000	-9.78289	-3.41312	-10.10896	-3.24186
2417.000	-9.79249	-3.39349	-10.15110	-3.22191
2418.000	-9.82705	-3.40681	-10.02079	-3.27008
2419.000	-9.82321	-3.42443	-10.12620	-3.30415
2420.000	-9.83088	-3.40286	-10.13003	-3.32168
2421.000	-9.81169	-3.43041	-10.04380	-3.26008
2422.000	-9.81937	-3.40493	-10.11470	-3.27694
2423.000	-9.82129	-3.42054	-10.09938	-3.21267
2424.000	-9.80209	-3.42660	-10.09363	-3.27520
2425.000	-9.85391	-3.38700	-10.14344	-3.30592
2426.000	-9.78673	-3.38183	-10.06680	-3.31257
2427.000	-9.81745	-3.39519	-10.06680	-3.25204
2428.000	-9.80785	-3.42068	-10.06296	-3.28527
2429.000	-9.79057	-3.40132	-10.08213	-3.27727
2430.000	-9.80593	-3.39726	-10.06296	-3.32432
2431.000	-9.78673	-3.45411	-10.05338	-3.29123
2432.000	-9.81553	-3.38349	-10.11662	-3.34524
2433.000	-9.85200	-3.41046	-10.09746	-3.28883
2434.000	-9.82321	-3.42833	-10.11662	-3.27692
2435.000	-9.80401	-3.45197	-10.05530	-3.27754
2436.000	-9.82513	-3.41855	-10.09554	-3.24394
2437.000	-9.81745	-3.44793	-10.11470	-3.30622
2438.000	-9.78673	-3.43262	-10.10129	-3.27903
2439.000	-9.82896	-3.39507	-10.12812	-3.31584
2440.000	-9.81745	-3.43425	-10.05530	-3.25802
2441.000	-9.78865	-3.40525	-10.13961	-3.33134
2442.000	-9.81169	-3.49291	-10.13770	-3.34307
2443.000	-9.78097	-3.41900	-10.09363	-3.30253
2444.000	-9.82896	-3.42046	-10.05913	-3.27750
2445.000	-9.81745	-3.41277	-10.12428	-3.27294
2446.000	-9.81553	-3.44404	-10.13578	-3.27477
2447.000	-9.79825	-3.41101	-10.11854	-3.35303
2448.000	-9.83088	-3.42630	-10.05146	-3.34201
2449.000	-9.81553	-3.41669	-10.07830	-3.29683
2450.000	-9.83088	-3.45951	-10.17218	-3.34661
2451.000	-9.83856	-3.41841	-10.09554	-3.28494
2452.000	-9.82896	-3.45953	-10.10896	-3.31799
2453.000	-9.83472	-3.43407	-10.03996	-3.31284
2454.000	-9.79441	-3.42082	-10.08021	-3.35733
2455.000	-9.83472	-3.44775	-10.05338	-3.34980
2456.000	-9.82513	-3.38729	-10.09746	-3.32201
2457.000	-9.86543	-3.43961	-10.15877	-3.29015
2458.000	-9.85967	-3.41233	-10.09746	-3.33958
2459.000	-9.84816	-3.41636	-10.14727	-3.41712
2460.000	-9.86543	-3.43180	-10.11470	-3.32574
2461.000	-9.85008	-3.37727	-10.17218	-3.30758
2462.000	-9.85391	-3.44755	-10.10704	-3.29849
2463.000	-9.85008	-3.42610	-10.09363	-3.31815
2464.000	-9.86159	-3.43575	-10.09171	-3.28498
2465.000	-9.86159	-3.38497	-10.05530	-3.35563
2466.000	-9.86159	-3.41427	-10.14919	-3.34880
2467.000	-9.83472	-3.44775	-10.15494	-3.31166
2468.000	-9.85200	-3.41827	-10.11279	-3.32576
2469.000	-9.83472	-3.41650	-10.11087	-3.37262
2470.000	-9.84432	-3.42421	-10.14344	-3.35667
2471.000	-9.87119	-3.44541	-10.13003	-3.30411
2472.000	-9.84240	-3.45743	-10.05721	-3.36733
2473.000	-9.81169	-3.44994	-10.11470	-3.36673
2474.000	-9.84816	-3.45737	-10.14153	-3.30399
2475.000	-9.88078	-3.43555	-10.10704	-3.37071
2476.000	-9.86351	-3.44549	-10.05913	-3.28141
2477.000	-9.85583	-3.42018	-10.17218	-3.29587
2478.000	-9.90189	-3.46852	-10.13003	-3.35681
2479.000	-9.89037	-3.45693	-10.15110	-3.33317
2480.000	-9.85391	-3.42606	-10.10321	-3.30829
2481.000	-9.89997	-3.40410	-10.06680	-3.36137
2482.000	-9.87119	-3.42393	-10.19516	-3.33271
2483.000	-9.85775	-3.41626	-10.05146	-3.29711
2484.000	-9.85967	-3.44749	-10.11279	-3.26525
2485.000	-9.83856	-3.42427	-10.14919	-3.30782
2486.000	-9.86543	-3.42985	-10.00929	-3.30730
2487.000	-9.89805	-3.46466	-10.08596	-3.32604
2488.000	-9.87694	-3.41997	-10.13386	-3.29821
2489.000	-9.86159	-3.41427	-10.14344	-3.31568
2490.000	-9.94409	-3.39974	-10.18750	-3.32889
2491.000	-9.88270	-3.42772	-10.13578	-3.28258
2492.000	-9.91531	-3.41957	-10.13386	-3.34701
2493.000	-9.86351	-3.40253	-10.14344	-3.31959
2494.000	-9.90380	-3.42555	-10.21048	-3.34231
2495.000	-9.88462	-3.45699	-10.11854	-3.23590
2496.000	-9.90189	-3.41971	-10.21239	-3.28960
2497.000	-9.83856	-3.44380	-10.12620	-3.27487
2498.000	-9.88654	-3.42377	-10.13770	-3.24352
2499.000	-9.89997	-3.41777	-10.15302	-3.29997
2500.000	-9.91148	-3.45866	-10.13578	-3.31576
2501.000	-9.92682	-3.45459	-10.10896	-3.29847
2502.000	-9.87119	-3.43370	-10.15877	-3.29406
2503.000	-9.89421	-3.47056	-9.99203	-3.29966
2504.000	-9.92874	-3.41747	-10.15685	-3.28822
2505.000	-9.92491	-3.39994	-10.12812	-3.32365
2506.000	-9.87886	-3.43557	-10.14153	-3.30204
2507.000	-9.88846	-3.40813	-10.15494	-3.40143
2508.000	-9.91915	-3.36875	-10.08788	-3.35334
2509.000	-9.91148	-3.43328	-10.18941	-3.40107
2510.000	-9.88846	-3.39446	-10.18558	-3.33476
2511.000	-9.90572	-3.44115	-10.18941	-3.31130
2512.000	-9.91915	-3.43905	-10.15494	-3.37411
2513.000	-9.92299	-3.49759	-10.20665	-3.34430
2514.000	-9.88078	-3.44141	-10.12045	-3.31397
2515.000	-9.93450	-3.44866	-10.14153	-3.35864
2516.000	-9.91148	-3.42547	-10.09171	-3.39820
2517.000	-9.88078	-3.43945	-10.15302	-3.34876
2518.000	-9.93066	-3.41550	-10.10896	-3.34727
2519.000	-9.87310	-3.42001	-10.10704	-3.29263
2520.000	-9.93258	-3.43696	-10.14727	-3.35663
2521.000	-9.89421	-3.45103	-10.10896	-3.42729
2522.000	-9.87502	-3.44342	-10.19324	-3.41468
2523.000	-9.89421	-3.42174	-10.13578	-3.35675
2524.000	-9.91723	-3.40588	-10.12045	-3.36081
2525.000	-9.84624	-3.42810	-10.17984	-3.31921
2526.000	-9.88270	-3.44334	-10.19707	-3.33659
2527.000	-9.90380	-3.44117	-10.14536	-3.37031
2528.000	-9.88654	-3.39838	-10.13578	-3.32747
2529.000	-9.94409	-3.39193	-10.14344	-3.31178
2530.000	-9.88846	-3.42375	-10.21622	-3.36371
2531.000	-9.89229	-3.41199	-10.16451	-3.37791
2532.000	-9.91531	-3.40394	-10.10896	-3.43314
2533.000	-9.88270	-3.42772	-10.06680	-3.31842
2534.000	-9.94409	-3.39584	-10.08979	-3.41969
2535.000	-9.93450	-3.44085	-10.22005	-3.40659
2536.000	-9.93450	-3.44085	-10.08213	-3.34364
2537.000	-9.92107	-3.38436	-10.16068	-3.32526
2538.000	-9.91915	-3.44296	-10.11279	-3.40773
2539.000	-9.89229	-3.40809	-10.13578	-3.35675
2540.000	-9.93642	-3.44278	-10.10704	-3.38633
2541.000	-9.91531	-3.42347	-10.19324	-3.37176
2542.000	-9.90380	-3.40992	-10.13961	-3.37818
2543.000	-9.93642	-3.38810	-10.20090	-3.30338
2544.000	-9.87310	-3.37508	-10.11087	-3.41751
2545.000	-9.89037	-3.40030	-10.07063	-3.37890
2546.000	-9.91531	-3.40785	-10.12428	-3.37248
2547.000	-9.91723	-3.42931	-10.12620	-3.39003
2548.000	-9.90189	-3.43533	-10.15877	-3.39554
2549.000	-9.87119	-3.40831	-10.12812	-3.39781
2550.000	-9.92491	-3.40775	-10.12428	-3.39785
2551.000	-9.93450	-3.42523	-10.15685	-3.36433
2552.000	-9.93642	-3.45840	-10.17409	-3.36611
2553.000	-9.90956	-3.39424	-10.12237	-3.39983
2554.000	-9.89805	-3.41389	-10.11854	-3.33156
2555.000	-9.88654	-3.42182	-10.17601	-3.34852
2556.000	-9.86927	-3.41809	-10.13961	-3.38598
2557.000	-9.89421	-3.47056	-10.11662	-3.32377
2558.000	-9.91340	-3.41763	-10.08788	-3.32016
2559.000	-9.89997	-3.47050	-10.15110	-3.40147
2560.000	-9.94025	-3.40564	-10.11279	-3.39017
2561.000	-9.87502	-3.39655	-10.14727	-3.35663
2562.000	-9.91340	-3.40787	-10.19324	-3.36395
2563.000	-9.92874	-3.36280	-10.13003	-3.34120
2564.000	-9.89997	-3.37872	-10.12045	-3.43497
2565.000	-9.92491	-3.42337	-10.13961	-3.38013
2566.000	-9.86927	-3.46496	-10.14153	-3.32546
2567.000	-9.92107	-3.44099	-10.19133	-3.42836
2568.000	-9.87119	-3.47666	-10.09746	-3.40009
2569.000	-9.93833	-3.40566	-10.18750	-3.28205
2570.000	-9.91915	-3.46249	-10.16643	-3.33886
2571.000	-9.94601	-3.40948	-10.14727	-3.39566
2572.000	-9.89613	-3.42758	-10.14153	-3.36059
2573.000	-9.89613	-3.37875	-10.18750	-3.32889
2574.000	-9.90189	-3.44314	-10.14727	-3.39176
2575.000	-9.92299	-3.46635	-10.15110	-3.36244
2576.000	-9.90956	-3.39619	-10.20090	-3.31509
2577.000	-9.90956	-3.37666	-10.15685	-3.36629
2578.000	-9.95368	-3.41721	-10.08405	-3.33777
2579.000	-9.89805	-3.38850	-10.13386	-3.37043
2580.000	-9.85967	-3.45335	-10.17409	-3.38952
2581.000	-9.90572	-3.41381	-10.19707	-3.40489
2582.000	-9.89037	-3.40616	-10.17026	-3.33492
2583.000	-9.95751	-3.42108	-10.13195	-3.40558
2584.000	-9.94409	-3.39193	-10.16451	-3.37596
2585.000	-9.89805	-3.38069	-10.16834	-3.41885
2586.000	-9.88654	-3.40229	-10.14153	-3.38011
2587.000	-9.95560	-3.38595	-10.07830	-3.37101
2588.000	-9.90764	-3.38840	-10.15877	-3.37407
2589.000	-9.89613	-3.38461	-10.20473	-3.31115
2590.000	-9.89421	-3.38854	-10.15685	-3.35067
2591.000	-9.91915	-3.38828	-10.17601	-3.34657
2592.000	-9.92682	-3.40773	-10.13003	-3.32948
2593.000	-9.92491	-3.39799	-10.25068	-3.34579
2594.000	-9.93066	-3.40183	-10.13961	-3.37818
2595.000	-9.90572	-3.38647	-10.15494	-3.38582
2596.000	-9.89997	-3.41192	-10.15302	-3.40536
2597.000	-9.92874	-3.35889	-10.23154	-3.36940
2598.000	-9.94984	-3.39382	-10.19133	-3.41665
2599.000	-9.91531	-3.40004	-10.12812	-3.34902
2600.000	-9.99970	-3.38550	-10.14919	-3.37808
2601.000	-9.90956	-3.36885	-10.13578	-3.33138
2602.000	-9.97861	-3.37400	-10.17984	-3.40702
2603.000	-9.92491	-3.39408	-10.13003	-3.33534
2604.000	-9.85200	-3.32256	-10.16260	-3.27840
2605.000	-9.73489	-3.37453	-9.94984	-3.28837
2606.000	-9.59848	-3.34853	-9.79249	-3.30166
2607.000	-9.47927	-3.30472	-9.56388	-3.22178
2608.000	-9.25794	-3.29312	-9.31571	-3.26910
2609.000	-8.85885	-3.26934	-9.02862	-3.18752
2610.000	-8.51690	-3.15857	-8.57877	-3.15805
2611.000	-8.14141	-3.05948	-8.16079	-3.13788
2612.000	-7.46611	-2.89917	-7.65650	-2.93133
2613.000	-6.89980	-2.64269	-7.13545	-2.82452
2614.000	-6.47856	-2.53055	-6.52931	-2.72950
2615.000	-5.72016	-2.29898	-5.96277	-2.54685
2616.000	-5.22257	-2.13076	-5.31862	-2.34800
2617.000	-4.64956	-1.95239	-4.81450	-2.26274
2618.000	-4.16806	-1.82284	-4.10119	-2.02913
2619.000	-3.55601	-1.62578	-3.57767	-1.87370
2620.000	-3.11072	-1.46572	-3.13437	-1.70190
2621.000	-2.64138	-1.31140	-2.60981	-1.63516
2622.000	-2.23288	-1.20252	-2.11048	-1.50861
2623.000	-1.81626	-1.09351	-1.72540	-1.48709
2624.000	-1.44686	-1.01617	-1.40142	-1.43763
2625.000	-1.05560	-0.92485	-0.95480	-1.33250
2626.000	-0.68006	-0.83942	-0.62273	-1.37833
2627.000	-0.31829	-0.84743	-0.28864	-1.33267
2628.000	-0.01779	-0.80567	-0.12850	-1.33467
2629.000	0.35981	-0.81162	0.27085	-1.41021
2630.000	0.69192	-0.85135	0.60296	-1.32863
2631.000	1.07141	-0.76774	0.99631	-1.31459
2632.000	1.45476	-0.79149	1.24927	-1.48741
2633.000	1.75700	-0.84505	1.53181	-1.43755
2634.000	2.13418	-0.88263	1.94660	-1.47300
2635.000	2.48946	-0.87446	2.25065	-1.47867
2636.000	2.72029	-0.97562	2.56444	-1.50216
2637.000	3.05355	-1.02300	2.82482	-1.52170
2638.000	3.34130	-1.04852	3.02201	-1.57106
2639.000	3.64069	-1.07002	3.32553	-1.62617
2640.000	3.72141	-1.12152	3.43192	-1.62401
2641.000	3.82967	-1.11741	3.56979	-1.68725
2642.000	3.77850	-1.07977	3.50283	-1.66158
2643.000	3.67810	-1.04616	3.49692	-1.64374
2644.000	3.63675	-1.01246	3.39646	-1.68756
2645.000	3.44374	-0.93128	3.29598	-1.55279
2646.000	3.30977	-0.82418	3.28612	-1.59448
2647.000	3.12452	-0.78064	3.05158	-1.52933
2648.000	2.96878	-0.76287	2.92145	-1.53348
2649.000	2.84849	-0.77686	2.81891	-1.49986
2650.000	2.74396	-0.69746	2.77946	-1.43240
2651.000	2.62560	-0.70547	2.71634	-1.39871
2652.000	2.64138	-0.75117	2.77749	-1.45027
2653.000	2.63546	-0.76706	2.68083	-1.39279
2654.000	2.66505	-0.74320	2.80905	-1.38470
2655.000	2.75974	-0.80076	2.78932	-1.31919
2656.000	2.82877	-0.79475	2.88399	-1.40447
2657.000	2.91554	-0.85230	3.01412	-1.42813
2658.000	3.05355	-0.88000	3.10086	-1.39426
2659.000	3.20336	-0.88980	3.20927	-1.35243
2660.000	3.29992	-0.82816	3.24671	-1.36032
2661.000	3.38661	-0.88170	3.44374	-1.41760
2662.000	3.56389	-0.89543	3.49495	-1.42348
2663.000	3.65841	-0.88144	3.52647	-1.42542
2664.000	3.73322	-0.82579	3.62099	-1.36971
2665.000	3.82574	-0.85746	3.63478	-1.35381
2666.000	3.86903	-0.80383	3.75881	-1.38735
2667.000	3.89265	-0.81175	3.61115	-1.35980
2668.000	3.89855	-0.77404	3.63084	-1.33795
2669.000	3.91430	-0.80776	3.56979	-1.30827
2670.000	3.95955	-0.78787	3.67022	-1.37360
2671.000	3.93201	-0.75019	3.59540	-1.25465
2672.000	3.90839	-0.74029	3.50677	-1.35003
2673.000	3.89462	-0.79389	3.55207	-1.41149
2674.000	3.84148	-0.77012	3.56979	-1.33804
2675.000	3.79424	-0.77413	3.49101	-1.37784
2676.000	3.78440	-0.79399	3.49889	-1.36791
2677.000	3.82180	-0.71854	3.43192	-1.43548
2678.000	3.81196	-0.77809	3.45753	-1.38186
2679.000	3.74700	-0.76822	3.41222	-1.42559
2680.000	3.71550	-0.77420	3.35903	-1.50506
2681.000	3.71353	-0.74245	3.44571	-1.47714
2682.000	3.67613	-0.76828	3.29598	-1.39797
2683.000	3.72731	-0.79206	3.34130	-1.46340
2684.000	3.68991	-0.78613	3.26445	-1.46550
2685.000	3.68991	-0.81392	3.31962	-1.42771
2686.000	3.70960	-0.80597	3.30977	-1.43963
2687.000	3.68400	-0.81393	3.25460	-1.51514
2688.000	3.66234	-0.78219	3.27036	-1.43572
2689.000	3.63084	-0.78420	3.25854	-1.54292
2690.000	3.62099	-0.78024	3.28612	-1.52303
2691.000	3.63084	-0.77229	3.20139	-1.48147
2692.000	3.62887	-0.77031	3.19350	-1.44178
2693.000	3.61903	-0.83384	3.26248	-1.47940
2694.000	3.58949	-0.75247	3.24277	-1.45362
2695.000	3.62099	-0.81399	3.16591	-1.47557
2696.000	3.61903	-0.80803	3.27627	-1.44564
2697.000	3.62887	-0.81398	3.26839	-1.44366
2698.000	3.64462	-0.81595	3.28810	-1.51906
2699.000	3.60130	-0.78621	3.28415	-1.46547
2700.000	3.59736	-0.80408	3.25460	-1.52109
2701.000	3.61706	-0.76238	3.35509	-1.45346
2702.000	3.65250	-0.78815	3.28218	-1.49922
2703.000	3.65644	-0.78219	3.29598	-1.45553
2704.000	3.65053	-0.81396	3.28218	-1.40593
2705.000	3.63281	-0.79015	3.35115	-1.54873
2706.000	3.69188	-0.79209	3.27036	-1.49328
2707.000	3.69975	-0.78811	3.27036	-1.45160
2708.000	3.70566	-0.75039	3.28810	-1.39004
2709.000	3.65053	-0.76830	3.26839	-1.45756
2710.000	3.64856	-0.78220	3.26839	-1.49725
2711.000	3.66234	-0.77425	3.27233	-1.47343
2712.000	3.68006	-0.79805	3.26051	-1.45757
2713.000	3.70763	-0.72657	3.29401	-1.48332
2714.000	3.71156	-0.78413	3.20927	-1.48345
2715.000	3.68794	-0.76629	3.31962	-1.48527
2716.000	3.69778	-0.71864	3.26642	-1.44367
2717.000	3.74700	-0.70470	3.27824	-1.46548
2718.000	3.73716	-0.73846	3.33144	-1.34036
2719.000	3.66234	-0.77425	3.29795	-1.49721
2720.000	3.72338	-0.79404	3.30583	-1.42574
2721.000	3.71747	-0.77817	3.37676	-1.43953
2722.000	3.73322	-0.74243	3.28810	-1.44363
2723.000	3.69188	-0.77621	3.32159	-1.45152
2724.000	3.69385	-0.75834	3.29992	-1.39598
2725.000	3.73716	-0.76029	3.27430	-1.41586
2726.000	3.68794	-0.75438	3.25657	-1.38016
2727.000	3.71353	-0.74443	3.30189	-1.44361
2728.000	3.76275	-0.74042	3.31568	-1.50909
2729.000	3.71747	-0.78413	3.32356	-1.39396
2730.000	3.74109	-0.78807	3.33538	-1.42967
2731.000	3.71944	-0.76427	3.31765	-1.43764
2732.000	3.71156	-0.79604	3.32356	-1.46740
2733.000	3.74700	-0.80990	3.29992	-1.44759
2734.000	3.75094	-0.75035	3.31962	-1.37213
2735.000	3.73519	-0.77419	3.21912	-1.47152
2736.000	3.71550	-0.74244	3.24474	-1.43179
2737.000	3.72535	-0.75038	3.34721	-1.36614
2738.000	3.71156	-0.77024	3.30977	-1.40390
2739.000	3.69188	-0.74842	3.33538	-1.43960
2740.000	3.71747	-0.80000	3.25460	-1.38016
2741.000	3.67022	-0.78814	3.30386	-1.40193
2742.000	3.66628	-0.82188	3.22109	-1.47351
2743.000	3.68597	-0.79606	3.23686	-1.48738
2744.000	3.71944	-0.78809	3.25460	-1.37222
2745.000	3.65644	-0.83777	3.23095	-1.47746
2746.000	3.69975	-0.81788	3.28218	-1.34241
2747.000	3.67810	-0.82386	3.34524	-1.42370
2748.000	3.70172	-0.79009	3.25065	-1.47942
2749.000	3.68006	-0.80599	3.29598	-1.42774
2750.000	3.68597	-0.80797	3.32947	-1.40983
2751.000	3.74700	-0.80792	3.31962	-1.37213
2752.000	3.67613	-0.76828	3.35706	-1.40979
2753.000	3.69975	-0.78811	3.18562	-1.35643
2754.000	3.70763	-0.76825	3.27036	-1.30272
2755.000	3.69975	-0.79407	3.32356	-1.40984
2756.000	3.68794	-0.82385	3.28415	-1.43570
2757.000	3.68006	-0.79210	3.31568	-1.50314
2758.000	3.67613	-0.79210	3.28415	-1.35630
2759.000	3.68400	-0.81393	3.24868	-1.52309
2760.000	3.72141	-0.81588	3.30386	-1.46346
2761.000	3.75291	-0.80394	3.32356	-1.46145
2762.000	3.71156	-0.80993	3.30189	-1.43766
2763.000	3.72731	-0.79007	3.28810	-1.46944
2764.000	3.78834	-0.79597	3.31568	-1.48329
2765.000	3.71550	-0.77420	3.33144	-1.45349
2766.000	3.70763	-0.80994	3.33144	-1.45945
2767.000	3.77062	-0.79797	3.43783	-1.42357
2768.000	3.70960	-0.79207	3.41222	-1.48910
2769.000	3.71747	-0.78016	3.31765	-1.49321
2770.000	3.78834	-0.77017	3.31962	-1.47931
2771.000	3.73519	-0.78411	3.33933	-1.51898
2772.000	3.75881	-0.76424	3.28218	-1.47342
2773.000	3.79621	-0.78207	3.31962	-1.44557
2774.000	3.79227	-0.77413	3.27627	-1.43571
2775.000	3.79424	-0.74635	3.26839	-1.40992
2776.000	3.76865	-0.77812	3.26051	-1.45161
2777.000	3.76865	-0.81385	3.24671	-1.44965
2778.000	3.74897	-0.75432	3.31371	-1.48528
2779.000	3.73913	-0.76426	3.28810	-1.38012
2780.000	3.75487	-0.77020	3.25854	-1.39405
2781.000	3.75487	-0.78012	3.29204	-1.51111
2782.000	3.75684	-0.77020	3.36888	-1.50901
2783.000	3.76865	-0.75629	3.29401	-1.44958
2784.000	3.69385	-0.75040	3.33144	-1.36616
2785.000	3.71353	-0.77619	3.22109	-1.44969
2786.000	3.77259	-0.79003	3.30189	-1.48530
2787.000	3.68203	-0.78813	3.32947	-1.37410
2788.000	3.70960	-0.77222	3.42404	-1.42954
2789.000	3.66431	-0.79211	3.33538	-1.40585
2790.000	3.69385	-0.77621	3.30189	-1.44163
2791.000	3.71747	-0.76031	3.31371	-1.42176
2792.000	3.70763	-0.78016	3.34721	-1.44752
2793.000	3.70960	-0.81192	3.30386	-1.46941
2794.000	3.64659	-0.75441	3.29598	-1.46943
2795.000	3.75684	-0.78012	3.35115	-1.49514
2796.000	3.70566	-0.78215	3.27430	-1.49328
2797.000	3.69188	-0.81789	3.34524	-1.48325
2798.000	3.65841	-0.83380	3.35115	-1.47927
2799.000	3.68597	-0.79408	3.27233	-1.45358
2800.000	3.71156	-0.76627	3.35115	-1.43759
2801.000	3.65841	-0.77624	3.37282	-1.53083
2802.000	3.69581	-0.85362	3.30780	-1.51307
2803.000	3.70960	-0.78810	3.29401	-1.42179
2804.000	3.69975	-0.80994	3.31962	-1.49916
2805.000	3.69581	-0.80002	3.28021	-1.48930
2806.000	3.71353	-0.83772	3.35706	-1.53880
2807.000	3.71944	-0.79405	3.30386	-1.42972
2808.000	3.74897	-0.77417	3.29204	-1.52104
2809.000	3.70960	-0.77818	3.24277	-1.48737
2810.000	3.70172	-0.82185	3.28810	-1.43768
2811.000	3.72731	-0.81389	3.29598	-1.52500
2812.000	3.67810	-0.78217	3.25263	-1.45559
2813.000	3.72141	-0.78809	3.26248	-1.46749
2814.000	3.69385	-0.81392	3.29007	-1.46348
2815.000	3.69581	-0.81392	3.35509	-1.42567
2816.000	3.73519	-0.80197	3.31371	-1.44955
2817.000	3.69581	-0.83774	3.28415	-1.41784
2818.000	3.71156	-0.81589	3.39646	-1.37202
2819.000	3.70172	-0.84369	3.33538	-1.43563
2820.000	3.67613	-0.82188	3.29598	-1.41782
2821.000	3.67219	-0.82585	3.33933	-1.40783
2822.000	3.71944	-0.79008	3.31371	-1.29671
2823.000	3.69975	-0.81193	3.36100	-1.37009
2824.000	3.69385	-0.78415	3.33341	-1.33043
2825.000	3.67416	-0.82783	3.27036	-1.39999
2826.000	3.68203	-0.81195	3.39252	-1.42959
2827.000	3.68006	-0.83577	3.26051	-1.45558
2828.000	3.68794	-0.79606	3.28612	-1.36424
2829.000	3.69581	-0.81392	3.26248	-1.34839
2830.000	3.69975	-0.83178	3.37676	-1.40579
2831.000	3.69385	-0.75239	3.36888	-1.40977
2832.000	3.68203	-0.78217	3.37873	-1.37602
2833.000	3.71944	-0.83573	3.31174	-1.39398
2834.000	3.75487	-0.77020	3.25065	-1.38215
2835.000	3.68991	-0.82385	3.36888	-1.39588
2836.000	3.69581	-0.80598	3.27430	-1.43174
2837.000	3.73716	-0.82182	3.29598	-1.42179
2838.000	3.71550	-0.80993	3.33538	-1.40585
2839.000	3.65841	-0.83380	3.33341	-1.40586
2840.000	3.73322	-0.80197	3.30386	-1.50117
2841.000	3.74700	-0.82578	3.32356	-1.46145
2842.000	3.71747	-0.77023	3.34721	-1.40981
2843.000	3.74897	-0.77020	3.33933	-1.47333
2844.000	3.72535	-0.79603	3.28810	-1.41981
2845.000	3.66628	-0.84173	3.41222	-1.40574
2846.000	3.70172	-0.79605	3.37676	-1.41572
2847.000	3.67219	-0.79211	3.33144	-1.43762
2848.000	3.69188	-0.75437	3.30583	-1.38605
2849.000	3.71353	-0.78016	3.30977	-1.38009
2850.000	3.69581	-0.79010	3.31174	-1.42177
2851.000	3.68597	-0.81988	3.32947	-1.41380
2852.000	3.70763	-0.79406	3.37282	-1.51099
2853.000	3.73913	-0.77220	3.27824	-1.41189
2854.000	3.73913	-0.77418	3.30189	-1.39796
2855.000	3.67613	-0.85760	3.29598	-1.45553
2856.000	3.71944	-0.80596	3.28810	-1.42974
2857.000	3.72731	-0.80000	3.34721	-1.36415
2858.000	3.74306	-0.81586	3.41616	-1.51092
2859.000	3.68991	-0.75835	3.41222	-1.38788
2860.000	3.75291	-0.76623	3.29598	-1.39598
2861.000	3.74897	-0.73845	3.32159	-1.42572
2862.000	3.72141	-0.74641	3.29401	-1.42179
2863.000	3.68597	-0.80202	3.34721	-1.43561
2864.000	3.69778	-0.78414	3.36494	-1.45543
2865.000	3.69975	-0.82384	3.38267	-1.44151
2866.000	3.72338	-0.78412	3.22109	-1.49137
2867.000	3.70763	-0.79207	3.38464	-1.51692
2868.000	3.68991	-0.80598	3.37085	-1.43359
2869.000	3.71353	-0.76626	3.40237	-1.48911
2870.000	3.70566	-0.81788	3.20336	-1.45567
2871.000	3.69975	-0.79407	3.33933	-1.41974
2872.000	3.69975	-0.76628	3.39252	-1.40577
2873.000	3.68991	-0.80003	3.39055	-1.47722
2874.000	3.67613	-0.81394	3.27430	-1.56076
2875.000	3.68400	-0.81591	3.34327	-1.55073
2876.000	3.68991	-0.81591	3.43192	-1.45334
2877.000	3.66431	-0.82586	3.42207	-1.55060
2878.000	3.66628	-0.84372	3.34918	-1.42568
2879.000	3.63478	-0.79015	3.41222	-1.48910
2880.000	3.64856	-0.80602	3.41222	-1.55062
2881.000	3.65250	-0.84373	3.39055	-1.46730
2882.000	3.65841	-0.85167	3.38464	-1.53478
2883.000	3.64069	-0.86756	3.37282	-1.50107
2884.000	3.62099	-0.83781	3.43783	-1.44937
2885.000	3.60327	-0.82393	3.36494	-1.50703
2886.000	3.63084	-0.82589	3.33736	-1.41379
2887.000	3.58358	-0.79417	3.38070	-1.30456
2888.000	3.59540	-0.84577	3.43192	-1.38785
2889.000	3.55798	-0.84183	3.37479	-1.41572
2890.000	3.58949	-0.85173	3.50480	-1.42545
2891.000	3.57964	-0.81799	3.37873	-1.26486
2892.000	3.57176	-0.83785	3.23489	-1.25711
2893.000	3.55404	-0.84779	3.42798	-1.19135
2894.000	3.56783	-0.82991	3.36888	-1.23510
2895.000	3.58555	-0.84776	3.46541	-1.30048
2896.000	3.57176	-0.86564	3.37676	-1.26090
2897.000	3.53238	-0.87362	3.35312	-1.29070
2898.000	3.57767	-0.81998	3.42207	-1.30252
2899.000	3.55207	-0.82000	3.45950	-1.30644
2900.000	3.52253	-0.86768	3.49889	-1.31432
2901.000	3.54419	-0.84185	3.39055	-1.24301
2902.000	3.59933	-0.78423	3.42995	-1.27075
2903.000	3.55601	-0.79419	3.43980	-1.25684
2904.000	3.56192	-0.79220	3.41813	-1.32039
2905.000	3.57176	-0.77234	3.43192	-1.28861
2906.000	3.55995	-0.77434	3.41419	-1.32436
2907.000	3.54813	-0.77435	3.42995	-1.26678
2908.000	3.55010	-0.75052	3.49692	-1.28852
2909.000	3.55207	-0.71081	3.49889	-1.25279
2910.000	3.52844	-0.70488	3.51268	-1.24087
2911.000	3.55995	-0.62345	3.49692	-1.08805
2912.000	3.51662	-0.56789	3.50874	-1.05628
2913.000	3.61312	-0.50231	3.69188	-0.95683
2914.000	3.68400	-0.46853	3.62493	-0.96683
2915.000	3.73913	-0.40299	3.71747	-0.88337
2916.000	3.78834	-0.37319	3.77259	-0.88530
2917.000	3.87691	-0.32750	3.88675	-0.72444
2918.000	3.96545	-0.34334	3.93791	-0.62120
2919.000	4.10709	-0.30757	4.06185	-0.67865
2920.000	4.22116	-0.27380	4.05202	-0.59532
2921.000	4.30176	-0.21425	4.24475	-0.62096
2922.000	4.37450	-0.20233	4.30570	-0.65067
2923.000	4.44132	-0.14678	4.32929	-0.56535
2924.000	4.48651	-0.14478	4.36663	-0.52764
2925.000	4.51402	-0.11106	4.43346	-0.52958
2926.000	4.49830	-0.08925	4.36467	-0.49194
2927.000	4.46097	-0.04959	4.36663	-0.44631
2928.000	4.41773	-0.04165	4.37646	-0.39870
2929.000	4.42166	0.01388	4.33125	-0.37889
2930.000	4.40005	0.04166	4.29390	-0.38486
2931.000	4.38236	0.04959	4.30373	-0.32336
2932.000	4.35287	0.08332	4.32142	-0.27971
2933.000	4.33911	0.08332	4.28211	-0.34321
2934.000	4.26638	0.01587	4.25065	-0.33529
2935.000	4.28407	-0.03174	4.26048	-0.38289
2936.000	4.31159	-0.01587	4.28800	-0.35908
2937.000	4.33715	-0.07737	4.27817	-0.40471
2938.000	4.38432	-0.12298	4.29194	-0.42057
2939.000	4.36270	-0.14679	4.39612	-0.51175
2940.000	4.45507	-0.19041	4.42953	-0.51569
2941.000	4.46097	-0.23007	4.48062	-0.51963
2942.000	4.47865	-0.26775	4.54938	-0.58898
2943.000	4.51402	-0.27369	4.51205	-0.60488
2944.000	4.53760	-0.33714	4.59653	-0.63455
2945.000	4.58082	-0.27763	4.59064	-0.63455
2946.000	4.60635	-0.27365	4.68295	-0.57896
2947.000	4.57296	-0.33316	4.69866	-0.59282
2948.000	4.61814	-0.24192	4.67313	-0.65430
2949.000	4.58474	-0.24590	4.70259	-0.55118
2950.000	4.60242	-0.19830	4.71633	-0.55117
2951.000	4.59849	-0.10708	4.63778	-0.47589
2952.000	4.60439	-0.05354	4.72222	-0.39257
2953.000	4.55331	-0.00992	4.61617	-0.36288
2954.000	4.53367	0.09519	4.66724	-0.19630
2955.000	4.51598	0.13684	4.56314	-0.19435
2956.000	4.50027	0.23205	4.51991	0.00992
2957.000	4.50616	0.33319	4.48651	0.03768
2958.000	4.46686	0.43039	4.53760	0.07338
2959.000	4.51402	0.48391	4.48258	0.21222
2960.000	4.50027	0.59894	4.43935	0.14479
2961.000	4.54349	0.60088	4.38825	0.29952
2962.000	4.51009	0.62867	4.41773	0.27967
2963.000	4.49044	0.64257	4.34894	0.37888
2964.000	4.54545	0.63657	4.43149	0.27372
2965.000	4.61814	0.73961	4.42756	0.34314
2966.000	4.63778	0.70588	4.50616	0.35897
2967.000	4.68295	0.74351	4.51795	0.30740
2968.000	4.69277	0.71772	4.55135	0.36688
2969.000	4.70455	0.76133	4.59064	0.41247
2970.000	4.69866	0.78908	4.55331	0.37679
2971.000	4.70848	0.78709	4.55921	0.42240
2972.000	4.71241	0.79502	4.53563	0.37085
2973.000	4.62796	0.77330	4.47669	0.41452
2974.000	4.54153	0.82495	4.44328	0.39669
2975.000	4.54153	0.79719	4.37646	0.41061
2976.000	4.52188	0.82497	4.34894	0.42649
2977.000	4.48651	0.79725	4.43346	0.42247
2978.000	4.46686	0.78537	4.27817	0.45827
2979.000	4.47865	0.85675	4.35484	0.44037
2980.000	4.48258	0.86864	4.28407	0.50984
2981.000	4.48651	0.89838	4.33715	0.49791
2982.000	4.50616	0.92215	4.33715	0.56535
2983.000	4.51402	0.93800	4.35091	0.60699
2984.000	4.51795	0.97170	4.32142	0.56933
2985.000	4.54938	1.01924	4.35287	0.71608
2986.000	4.52777	1.07677	4.37056	0.80531
2987.000	4.46686	1.15021	4.26245	0.85105
2988.000	4.40791	1.21177	4.19953	0.83524
2989.000	4.34501	1.27136	4.07759	0.83339
2990.000	4.24082	1.20807	3.95365	0.97638
2991.000	4.20346	1.27556	3.92807	0.93474
2992.000	4.13266	1.29154	3.84148	1.00032
2993.000	4.08742	1.30351	3.76078	1.04407
2994.000	4.10316	1.28167	3.80999	0.94082
2995.000	4.05005	1.27580	3.78440	1.00436
2996.000	4.09529	1.24796	3.81196	0.94479
2997.000	4.09726	1.27374	3.71156	0.98459
2998.000	4.10709	1.22414	3.74109	0.95479
2999.000	4.17003	1.20818	3.78046	1.00635
3000.000	4.18183	1.21015	3.80802	1.00235
3001.000	4.21919	1.17836	3.86313	1.02212
3002.000	4.28407	1.20800	3.89462	0.92882
3003.000	4.33715	1.16429	3.90839	0.91492
3004.000	4.33911	1.08101	3.88084	0.95265
3005.000	4.38825	1.11861	3.88478	0.88716
3006.000	4.40987	1.13642	3.98316	0.87515
3007.000	4.40201	1.15428	3.98513	0.85928
3008.000	4.39415	1.07498	3.97529	0.81365
3009.000	4.39415	1.05515	4.04612	0.76795
3010.000	4.40987	1.07694	3.95562	0.85137
3011.000	4.37253	1.10872	3.93594	0.84346
3012.000	4.36074	1.07701	3.96152	0.77795
3013.000	4.35877	1.08693	3.92020	0.83553
3014.000	4.31159	1.08303	3.94971	0.75018
3015.000	4.30176	1.09098	3.94775	0.82757
3016.000	4.33715	1.12860	4.01858	0.76599
3017.000	4.35091	1.11867	4.00677	0.78981
3018.000	4.33715	1.09687	3.88871	0.82763
3019.000	4.32732	1.11870	3.96742	0.82755
3020.000	4.30373	1.10684	3.88871	0.87128
3021.000	4.33911	1.12067	3.96545	0.82557
3022.000	4.32142	1.15440	3.87494	0.90107
3023.000	4.30766	1.14054	3.90249	0.90302
3024.000	4.26834	1.12870	3.88478	0.93876
3025.000	4.34894	1.13453	3.90446	0.86928
3026.000	4.32142	1.12268	3.86313	0.91497
3027.000	4.31749	1.14846	3.92020	0.91888
3028.000	4.30373	1.16831	3.79031	0.89123
3029.000	4.34305	1.15437	3.86116	0.86338
3030.000	4.34698	1.12660	3.83558	0.89912
3031.000	4.31356	1.13855	3.76669	0.92103
3032.000	4.35287	1.14048	3.89265	0.90898
3033.000	4.32535	1.16035	3.86510	0.94275
3034.000	4.34108	1.17420	3.93988	0.83750
3035.000	4.32339	1.18018	3.86313	0.86536
3036.000	4.29980	1.13857	3.87494	0.83359
3037.000	4.32339	1.13061	3.85723	0.91498
3038.000	4.37056	1.19002	3.86313	0.87131
3039.000	4.29587	1.12668	3.82770	0.88524
3040.000	4.33125	1.16034	3.91626	0.80180
3041.000	4.33518	1.22378	3.82967	0.84158
3042.000	4.34305	1.16627	3.83951	0.82172
3043.000	4.37646	1.18010	3.86510	0.79788
3044.000	4.41773	1.17805	3.83558	0.86539
3045.000	4.35091	1.15436	3.93594	0.82163
3046.000	4.36467	1.18210	3.88871	0.81771
3047.000	4.35091	1.19798	3.91626	0.87126
3048.000	4.30570	1.15046	3.90839	0.87325
3049.000	4.35287	1.17617	3.89265	0.82365
3050.000	4.31946	1.11871	3.94184	0.83551
3051.000	4.35287	1.13453	3.82180	0.77212
3052.000	4.32535	1.16828	3.92020	0.86530
3053.000	4.31749	1.13855	3.91233	0.82364
3054.000	4.32339	1.19406	3.89265	0.82961
3055.000	4.29587	1.13065	3.88084	0.80779
3056.000	4.34894	1.11470	3.81786	0.87731
3057.000	4.28604	1.13066	3.89462	0.87128
3058.000	4.33911	1.12860	3.81393	0.81579
3059.000	4.36074	1.18210	3.90249	0.81174
3060.000	4.32929	1.17224	3.91823	0.73433
3061.000	4.30373	1.15840	3.92217	0.85538
3062.000	4.29390	1.12073	3.92610	0.81370
3063.000	4.30373	1.10485	3.86116	0.89314
3064.000	4.33125	1.11275	3.84542	0.80782
3065.000	4.28997	1.09893	3.84739	0.83759
3066.000	4.30766	1.06519	3.91233	0.83753
3067.000	4.33518	1.06317	3.86510	0.89314
3068.000	4.28800	1.08703	3.88675	0.80977
3069.000	4.28604	1.10091	3.86313	0.78399
3070.000	4.27031	1.13465	3.91233	0.76609
3071.000	4.29980	1.10089	3.85526	0.78797
3072.000	4.30570	1.11080	3.85723	0.84155
3073.000	4.27621	1.08506	3.87887	0.79787
3074.000	4.29587	1.11478	3.92020	0.79585
3075.000	4.27031	1.11085	3.86116	0.81773
3076.000	4.29390	1.10685	3.81589	0.81381
3077.000	4.27424	1.12076	3.92413	0.79981
3078.000	4.28211	1.12472	3.77850	0.79598
3079.000	4.29980	1.08106	3.89659	0.76213
3080.000	4.26441	1.09103	3.83754	0.80585
3081.000	4.29390	1.05727	3.96152	0.77200
3082.000	4.31159	1.09493	3.90249	0.88715
3083.000	4.27621	1.12274	3.84345	0.78798
3084.000	4.27424	1.12275	3.91036	0.82364
3085.000	4.30176	1.12271	3.81786	0.78602
3086.000	4.27228	1.08507	3.88871	0.80977
3087.000	4.28407	1.06324	3.96545	0.80374
3088.000	4.32732	1.09689	3.90249	0.81372
3089.000	4.30766	1.10683	3.87494	0.77803
3090.000	4.28014	1.07712	3.88478	0.82763
3091.000	4.30963	1.09691	3.94971	0.85733
3092.000	4.27424	1.10688	3.94775	0.76407
3093.000	4.28997	1.08703	3.82377	0.77609
3094.000	4.25458	1.04939	3.96742	0.77596
3095.000	4.27424	1.11481	3.92610	0.75814
3096.000	4.27228	1.08903	3.86116	0.81972
3097.000	4.26245	1.11285	3.88084	0.76215
3098.000	4.27621	1.11481	3.93397	0.72836
3099.000	4.23492	1.09900	3.90446	0.81571
3100.000	4.27621	1.12274	3.89462	0.80182
3101.000	4.27424	1.05730	3.99103	0.79776
3102.000	4.27621	1.10688	3.99300	0.77197
3103.000	4.33518	1.06515	3.90446	0.78792
3104.000	4.24475	1.06726	3.90642	0.73633
3105.000	4.25458	1.04741	3.93791	0.76408
3106.000	4.24868	1.06527	3.91823	0.81371
3107.000	4.29587	1.07115	3.91626	0.74029
3108.000	4.28997	1.08306	3.94381	0.75217
3109.000	4.25655	1.03551	3.88675	0.76611
3110.000	4.22705	1.05340	3.97726	0.76206
3111.000	4.24082	1.03751	3.91823	0.79982
3112.000	4.24082	1.07520	3.86510	0.80781
3113.000	4.25065	1.00973	3.91233	0.83753
3114.000	4.26245	1.03153	3.91036	0.78395
3115.000	4.25458	1.05931	3.91036	0.82959
3116.000	4.24278	1.08114	3.90446	0.79586
3117.000	4.25261	1.08113	3.87887	0.82367
3118.000	4.24868	1.06329	3.87887	0.72643
3119.000	4.26441	1.05136	3.87297	0.79986
3120.000	4.22705	1.03952	3.87494	0.81573
3121.000	4.28604	1.01960	3.94184	0.78789
3122.000	4.27424	1.02755	3.90446	0.76411
3123.000	4.24278	1.03354	4.01858	0.74416
3124.000	4.28014	1.06919	3.91233	0.73830
3125.000	4.23295	1.03951	3.92020	0.74425
3126.000	4.26245	1.04145	3.94578	0.76010
3127.000	4.22509	1.00778	3.98316	0.78785
3128.000	4.29390	1.05529	3.87887	0.79192
3129.000	4.25065	1.04742	3.97529	0.74817
3130.000	4.31946	1.03939	3.89068	0.76611
3131.000	4.25065	1.02560	3.95955	0.74422
3132.000	4.26245	1.02757	3.89462	0.73832
3133.000	4.26638	1.05929	3.97136	0.78984
3134.000	4.28800	1.09298	3.89659	0.77999
3135.000	4.30176	1.02751	3.90446	0.75220
3136.000	4.28997	1.05530	3.89659	0.71450
3137.000	4.28997	1.07314	3.92807	0.76012
3138.000	4.28997	1.05331	3.90642	0.76808
3139.000	4.28407	1.07910	3.88871	0.75817
3140.000	4.26048	1.06129	3.90642	0.75419
3141.000	4.29587	1.03546	3.92610	0.73432
3142.000	4.29587	1.03744	3.90052	0.80380
3143.000	4.26245	1.02558	3.91626	0.78196
3144.000	4.23099	1.02959	3.89068	0.68077
3145.000	4.25851	0.98791	3.89068	0.79587
3146.000	4.28211	1.01366	3.90446	0.72244
3147.000	4.25655	1.02361	3.95758	0.71644
3148.000	4.27621	0.96805	3.86313	0.84551
3149.000	4.24475	1.09106	3.90446	0.72442
3150.000	4.23295	1.03554	3.89659	0.73435
3151.000	4.26638	1.03946	3.92020	0.71647
3152.000	4.28014	1.03349	3.94184	0.81964
3153.000	4.27817	1.04143	3.98513	0.74816
3154.000	4.27228	1.07714	3.94381	0.72439
3155.000	4.28407	1.07117	3.96349	0.76207
3156.000	4.25261	1.03155	3.95758	0.74620
3157.000	4.27228	1.05334	3.89068	0.66093
3158.000	4.26245	1.03153	3.85723	0.72248
3159.000	4.28997	1.00968	3.98513	0.75411
3160.000	4.30373	1.03941	4.07562	0.74411
3161.000	4.31159	1.03147	3.95758	0.75811
3162.000	4.29194	1.02753	3.98316	0.67474
3163.000	4.26834	1.03748	3.89068	0.72245
3164.000	4.27817	1.03350	3.92807	0.72242
3165.000	4.26638	1.02161	4.04415	0.66874
3166.000	4.28211	1.00176	3.97923	0.72237
3167.000	4.24672	0.98395	3.97529	0.74222
3168.000	4.21132	0.99987	3.92610	0.68471
3169.000	4.22902	1.01175	3.93397	0.66486
3170.000	4.26048	0.99980	3.96545	0.73230
3171.000	4.26048	1.04145	3.96545	0.74223
3172.000	4.27031	0.96806	3.92610	0.62518
3173.000	4.26441	1.01963	3.91233	0.73632
3174.000	4.23295	1.01372	3.97726	0.75015
3175.000	4.26048	1.03352	3.93201	0.67479
3176.000	4.23492	0.98794	3.90839	0.66687
3177.000	4.24278	1.03751	3.93988	0.66684
3178.000	4.28800	0.99977	3.99693	0.70251
3179.000	4.25065	1.01767	3.97726	0.60331
3180.000	4.26048	1.02360	4.02251	0.72233
3181.000	4.23099	1.00778	3.95562	0.63508
3182.000	4.27228	1.02160	4.00087	0.60925
3183.000	4.23099	1.02364	3.91233	0.67282
3184.000	4.23099	1.03951	4.04218	0.65088
3185.000	4.25655	0.98394	3.89659	0.65298
3186.000	4.26638	1.00376	3.93201	0.61525
3187.000	4.24672	0.98395	3.94184	0.63906
3188.000	4.22312	1.03357	3.96545	0.68865
3189.000	4.23885	0.99785	3.90642	0.67282
3190.000	4.26834	1.01963	3.92807	0.70059
3191.000	4.20739	0.99987	3.99890	0.69457
3192.000	4.30373	1.06321	3.93004	0.65891
3193.000	4.26048	0.99980	3.96742	0.64499
3194.000	4.25065	1.03948	3.94775	0.69065
3195.000	4.24278	1.01569	3.95168	0.61524
3196.000	4.23689	0.99587	3.93791	0.65097
3197.000	4.21919	1.01176	3.93791	0.64303
3198.000	4.28407	1.01564	3.98119	0.57949
3199.000	4.24082	0.97801	3.91823	0.67480
3200.000	4.23885	1.03950	3.87494	0.67880
3201.000	4.24278	1.02561	4.04218	0.61120
3202.000	4.26638	1.00773	3.99497	0.59139
3203.000	4.23885	0.99983	3.93791	0.65295
3204.000	4.23295	1.07719	3.97923	0.60926
3205.000	4.23295	1.01174	3.92020	0.69266
3206.000	4.26834	1.02558	3.83164	0.61135
3207.000	4.25065	0.99783	3.92413	0.71250
3208.000	4.24672	1.00776	3.96939	0.64896
3209.000	4.23295	1.02562	3.95365	0.67477
3210.000	4.25458	1.02956	3.94381	0.62516
3211.000	4.23295	0.98397	4.01661	0.64694
3212.000	4.27228	1.00376	3.89462	0.59543
3213.000	4.29194	0.99381	3.99497	0.63703
3214.000	4.24082	0.94231	3.87494	0.64705
3215.000	4.26441	0.98195	3.95168	0.67278
3216.000	4.26638	1.02161	3.91233	0.69465
3217.000	4.27228	0.97599	3.92807	0.68273
3218.000	4.27031	1.02161	3.98513	0.58544
3219.000	4.27817	1.03945	3.94184	0.63707
3220.000	4.24278	1.00974	3.95168	0.66683
3221.000	4.25851	0.98592	4.00284	0.65885
3222.000	4.28800	1.01563	3.98119	0.55767
3223.000	4.25065	1.04345	3.89265	0.62322
3224.000	4.27031	1.01764	3.89462	0.67283
3225.000	4.27817	0.99978	3.93988	0.59540
3226.000	4.25655	0.98791	3.91036	0.63511
3227.000	4.26638	1.01566	3.95955	0.61721
3228.000	4.25261	0.97998	3.98513	0.59537
3229.000	4.29587	0.98587	3.90052	0.57558
3230.000	4.25065	0.98593	3.92217	0.60930
3231.000	4.24475	0.96016	3.88675	0.63513
3232.000	4.24278	0.96809	3.99103	0.61322
3233.000	4.28014	1.02358	3.86116	0.68477
3234.000	4.23885	1.01570	3.95168	0.63508
3235.000	4.24672	1.00776	4.04415	0.52984
3236.000	4.24672	0.99189	4.00087	0.67473
3237.000	4.25655	0.97403	3.98513	0.62910
3238.000	4.25458	0.96014	3.91233	0.57359
3239.000	4.23099	0.97802	3.99300	0.58742
3240.000	4.24672	0.99585	3.91233	0.63709
3241.000	4.23885	0.98198	3.95168	0.61524
3242.000	4.21722	0.94432	3.93791	0.59342
3243.000	4.20542	0.96417	3.94578	0.58746
3244.000	4.24475	0.94826	3.88281	0.61132
3245.000	4.28211	0.97003	3.91626	0.64701
3246.000	4.26638	0.94228	3.94775	0.65294
3247.000	4.27228	0.96806	3.89068	0.63314
3248.000	4.24082	0.91454	3.92413	0.60136
3249.000	4.25851	0.95221	3.94971	0.62516
3250.000	4.28604	0.95217	3.93594	0.60929
3251.000	4.22705	0.92646	3.96545	0.62713
3252.000	4.25655	0.97799	3.96349	0.58744
3253.000	4.25458	0.94626	3.93201	0.58747
3254.000	4.24672	0.96809	3.90839	0.57161
3255.000	4.24082	0.94628	3.88675	0.63513
3256.000	4.23689	0.94231	4.00874	0.60726
3257.000	4.22116	0.90266	3.94578	0.59143
3258.000	4.23885	0.89868	3.89265	0.59543
3259.000	4.26048	0.95022	3.87494	0.64506
3260.000	4.22902	0.94629	3.95168	0.57753
3261.000	4.25851	0.94824	3.92807	0.61922
3262.000	4.28604	0.94424	3.84542	0.66890
3263.000	4.27424	0.93235	3.94971	0.66088
3264.000	4.24868	0.93833	3.99693	0.63108
3265.000	4.26441	0.92840	3.96939	0.67674
3266.000	4.28014	0.89664	3.95168	0.64897
3267.000	4.20149	0.94434	3.87494	0.64308
3268.000	4.26048	0.93435	3.89462	0.66291
3269.000	4.25458	0.93634	3.95758	0.62317
3270.000	4.21132	0.88681	3.92610	0.66090
3271.000	4.26638	0.93038	3.91823	0.61129
3272.000	4.25655	0.94229	3.95758	0.67080
3273.000	4.26245	0.95617	3.92217	0.62320
3274.000	4.22312	0.88878	3.94775	0.58349
3275.000	4.25851	0.94031	3.93988	0.59143
3276.000	4.22116	0.87093	3.90839	0.64107
3277.000	4.24278	0.94032	3.94971	0.60333
3278.000	4.24868	0.92247	3.93397	0.68074
3279.000	4.26441	0.94030	3.97333	0.56958
3280.000	4.25655	0.90064	4.03628	0.61914
3281.000	4.27817	0.92441	3.91430	0.66289
3282.000	4.24475	0.95024	3.90446	0.65496
3283.000	4.27031	0.95417	3.91036	0.61328
3284.000	4.30176	0.89860	3.86903	0.64507
3285.000	4.24868	0.93040	3.99497	0.61917
3286.000	4.26048	0.91849	3.93988	0.65890
3287.000	4.22902	0.94034	3.99103	0.67672
3288.000	4.24278	0.89669	3.86116	0.61530
3289.000	4.23295	0.89670	4.00284	0.71441
3290.000	4.27228	0.93037	3.92807	0.62518
3291.000	4.23099	0.88282	3.90446	0.67679
3292.000	4.26441	0.91055	3.80408	0.61931
3293.000	4.22902	0.91456	3.89068	0.65299
3294.000	4.24672	0.92445	3.97136	0.56164
3295.000	4.25065	0.91255	3.85329	0.64706
3296.000	4.27031	0.91252	3.94381	0.62318
3297.000	4.25261	0.90858	3.95168	0.58348
3298.000	4.24672	0.94627	3.96349	0.60729
3299.000	4.25851	0.89270	3.83558	0.62921
3300.000	4.29390	0.95613	3.90839	0.58748
3301.000	4.27228	0.90260	3.97333	0.61919
3302.000	4.23885	0.93636	3.92807	0.58548
3303.000	4.26245	0.92047	3.92807	0.65296
3304.000	4.21919	0.92448	3.93201	0.52991
3305.000	4.22312	0.93043	3.84935	0.65302
3306.000	4.20149	0.89078	3.82967	0.55975
3307.000	4.21132	0.91259	3.92020	0.58946
3308.000	4.25851	0.89865	3.90642	0.59939
3309.000	4.22902	0.90265	3.89068	0.56765
3310.000	4.26638	0.87286	3.89659	0.57757
3311.000	4.20936	0.95227	3.95562	0.62119
3312.000	4.22312	0.89869	3.86313	0.66293
3313.000	4.24278	0.91057	3.90446	0.59146
3314.000	4.23492	0.92050	3.91626	0.65297
3315.000	4.23885	0.89471	3.89068	0.62719
3316.000	4.22312	0.93638	3.77456	0.60941
3317.000	4.24278	0.96413	3.88675	0.62521
3318.000	4.25655	0.91056	3.88478	0.61132
3319.000	4.21329	0.92052	3.88281	0.61132
3320.000	4.22902	0.96613	3.89462	0.62322
3321.000	4.23492	0.93438	3.85919	0.64309
3322.000	4.22312	0.94035	3.96545	0.62713
3323.000	4.25655	0.91849	3.90839	0.60534
3324.000	4.20739	0.89673	3.97529	0.61323
3325.000	4.22116	0.91655	3.90642	0.59145
3326.000	4.23885	0.89273	3.88478	0.57758
3327.000	4.22312	0.89473	3.90446	0.64305
3328.000	4.22902	0.93836	3.90642	0.64901
3329.000	4.27228	0.94029	3.90249	0.52993
3330.000	4.26245	0.89468	3.88871	0.62322
3331.000	4.21919	0.89870	3.84739	0.55378
3332.000	4.23295	0.93042	3.91233	0.59939
3333.000	4.26441	0.97600	3.95758	0.61722
3334.000	4.21132	0.86300	3.90642	0.55772
3335.000	4.24672	0.86693	3.90642	0.63313
3336.000	4.21329	0.86697	3.88281	0.56765
3337.000	4.27817	0.94821	3.88871	0.65100
3338.000	4.22705	0.96613	3.89855	0.59940
3339.000	4.27817	0.94028	3.94381	0.57754
3340.000	4.22902	0.90265	3.91823	0.62915
3341.000	4.23295	0.91058	3.84345	0.63119
3342.000	4.23689	0.94628	3.91823	0.57358
3343.000	4.26441	0.91055	3.91626	0.64900
3344.000	4.24082	0.89867	3.93397	0.58151
3345.000	4.18773	0.87493	3.93988	0.60135
3346.000	4.24868	0.90660	3.87297	0.59148
3347.000	4.19559	0.86500	3.93791	0.61921
3348.000	4.23099	0.89869	3.94184	0.58944
3349.000	4.22705	0.88282	3.92217	0.46244
3350.000	4.22509	0.93440	3.86707	0.56568
3351.000	4.25851	0.95816	3.89068	0.59543
3352.000	4.23689	0.89273	3.97529	0.55172
3353.000	4.22312	0.89473	3.95168	0.50410
3354.000	4.22509	0.85704	3.91626	0.58946
3355.000	4.25458	0.86295	3.85132	0.59943
3356.000	4.24672	0.91255	3.90839	0.56962
3357.000	4.24278	0.89272	3.99103	0.61322
3358.000	4.27424	0.94822	3.93201	0.61922
3359.000	4.21526	0.87093	3.93594	0.65097
3360.000	4.23295	0.89075	3.91823	0.64106
3361.000	4.21132	0.86697	3.87100	0.53392
3362.000	4.26638	0.92046	3.92217	0.60533
3363.000	4.22705	0.89472	3.89068	0.64902
3364.000	4.21919	0.87093	3.86116	0.65500
3365.000	4.22116	0.93638	3.83754	0.64509
3366.000	4.20542	0.88681	3.88281	0.61926
3367.000	4.28407	0.94622	3.86707	0.53988
3368.000	4.23099	0.88083	3.87494	0.54980
3369.000	4.21919	0.86101	3.86313	0.57759
3370.000	4.21132	0.88284	3.92020	0.54580
3371.000	4.22312	0.89869	3.88871	0.60337
3372.000	4.21919	0.86895	3.90249	0.52993
3373.000	4.25851	0.90460	3.91823	0.58946
3374.000	4.24672	0.90263	3.92610	0.55969
3375.000	4.24278	0.92049	3.83754	0.60936
3376.000	4.21329	0.83920	3.93201	0.52991
3377.000	4.25261	0.91651	3.89855	0.58947
3378.000	4.20346	0.88086	3.90249	0.58352
3379.000	4.24475	0.89867	3.80408	0.58756
3380.000	4.23689	0.90066	3.96152	0.59340
3381.000	4.23295	0.90860	3.88675	0.61330
3382.000	4.23295	0.87091	3.90642	0.59344
3383.000	4.26834	0.95418	3.92413	0.66884
3384.000	4.24082	0.87090	3.85919	0.61729
3385.000	4.23885	0.92446	3.92217	0.65892
3386.000	4.28800	0.94225	3.86313	0.66095
3387.000	4.27817	0.91648	3.91823	0.58748
3388.000	4.25655	0.90461	3.91823	0.55374
3389.000	4.22705	0.89869	3.87691	0.65697
3390.000	4.28407	0.92837	3.85919	0.59943
3391.000	4.24082	0.92049	3.86903	0.59346
3392.000	4.20149	0.86103	3.90446	0.63115
3393.000	4.23295	0.90067	3.88675	0.60139
3394.000	4.25851	0.91254	3.81589	0.65305
3395.000	4.22705	0.88084	3.81196	0.57564
3396.000	4.23885	0.93240	3.81983	0.56968
3397.000	4.28407	0.92044	3.92020	0.54977
3398.000	4.29980	0.97794	3.79621	0.63520
3399.000	4.25851	0.87287	3.94578	0.65493
3400.000	4.23885	0.85504	3.91036	0.52199
3401.000	4.22705	0.91852	3.89855	0.62917
3402.000	4.24278	0.95421	3.87691	0.63514
3403.000	4.22902	0.95819	3.85919	0.55179
3404.000	4.28014	0.99185	3.94775	0.64699
3405.000	4.24475	0.96611	3.91233	0.65297
3406.000	4.21722	0.88878	3.83361	0.60738
3407.000	4.20149	0.96219	3.87297	0.60140
3408.000	4.22509	0.91258	3.92020	0.59938
3409.000	4.29783	0.97596	3.83951	0.57364
3410.000	4.24868	0.92048	3.91626	0.58946
3411.000	4.27031	1.02359	3.89068	0.61528
3412.000	4.20346	0.89673	3.89068	0.68276
3413.000	4.26638	0.97996	3.83164	0.58158
3414.000	4.24672	0.94032	3.76865	0.67293
3415.000	4.19953	0.86500	3.84345	0.67486
3416.000	4.28800	0.96407	3.85329	0.67882
3417.000	4.24278	0.93834	3.88084	0.61926
3418.000	4.26245	0.93038	3.80408	0.62328
3419.000	4.24475	0.97404	3.85329	0.70660
3420.000	4.21722	0.84316	3.82967	0.62723
3421.000	4.27817	0.98391	3.83951	0.60341
3422.000	4.19953	0.89872	3.85329	0.61928
3423.000	4.22509	0.88084	3.85132	0.66691
3424.000	4.18183	0.85113	3.83361	0.54982
3425.000	4.21526	0.90069	3.84542	0.60539
3426.000	4.26441	0.95021	3.83558	0.62326
3427.000	4.20542	0.88681	3.90642	0.58748
3428.000	4.23295	0.93835	3.82967	0.66494
3429.000	4.29194	0.91250	3.81196	0.59350
3430.000	4.23295	0.93042	3.87297	0.62522
3431.000	4.25261	0.90064	3.83558	0.57761
3432.000	4.26638	0.91649	3.86313	0.52599
3433.000	4.25065	0.88478	3.82770	0.62128
3434.000	4.24475	0.89669	3.80408	0.59946
3435.000	4.24672	0.83916	3.83754	0.57364
3436.000	4.25851	0.94626	3.88675	0.63513
3437.000	4.21329	0.88085	3.82770	0.58952
3438.000	4.26638	0.93038	3.85132	0.62126
3439.000	4.28407	0.91449	3.81983	0.58953
3440.000	4.27817	0.97003	3.83164	0.55181
3441.000	4.25851	0.92642	3.88478	0.63513
3442.000	4.24475	0.91454	3.89855	0.63711
3443.000	4.24672	0.93834	3.87100	0.58156
3444.000	4.27228	0.88277	3.84148	0.62722
3445.000	4.22509	0.87291	3.88871	0.66490
3446.000	4.28997	0.94622	3.87100	0.62919
3447.000	4.27424	0.90458	3.81983	0.59945
3448.000	4.26441	0.86889	3.77456	0.65506
3449.000	4.24672	0.92445	3.84148	0.66493
3450.000	4.27228	0.89070	3.82180	0.63716
3451.000	4.27621	0.91847	3.86116	0.66095
3452.000	4.24082	0.89669	3.73913	0.60943
3453.000	4.25458	0.89866	3.84345	0.55577
3454.000	4.27621	0.88673	3.81983	0.63121
3455.000	4.31749	0.95808	3.79031	0.62131
3456.000	4.25065	0.87684	3.86116	0.61530
3457.000	4.23885	0.90264	3.87494	0.62522
3458.000	4.24672	0.88280	3.80212	0.58359
3459.000	4.21919	0.82332	3.83951	0.60738
3460.000	4.29390	0.97794	3.85526	0.60538
3461.000	4.22705	0.90067	3.83361	0.57166
3462.000	4.30766	0.93628	3.77653	0.66300
3463.000	4.25458	0.86097	3.76472	0.61339
3464.000	4.28211	0.90061	3.77062	0.58361
3465.000	4.23689	0.93240	3.81393	0.69076
3466.000	4.28997	0.96407	3.87887	0.63910
3467.000	4.28407	0.96407	3.87887	0.64109
3468.000	4.29783	0.94621	3.81983	0.64510
3469.000	4.27424	0.92839	3.82770	0.60540
3470.000	4.30570	0.97000	3.87100	0.70857
3471.000	4.25851	0.91055	3.80605	0.61336
3472.000	4.30766	0.94619	3.79227	0.65505
3473.000	4.28407	0.98986	3.80802	0.55778
3474.000	4.26834	0.92244	3.80999	0.61534
3475.000	4.26245	0.88873	3.83558	0.62723
3476.000	4.29980	0.97199	3.82967	0.56372
3477.000	4.24868	0.88676	3.86313	0.56370
3478.000	4.29194	0.85895	3.86903	0.63316
3479.000	4.29587	0.87084	3.86510	0.64308
3480.000	4.30176	0.93827	3.88871	0.61131
3481.000	4.29980	0.88869	3.84345	0.54585
3482.000	4.29390	0.90456	3.83164	0.52799
3483.000	4.24475	0.90462	3.87494	0.59743
3484.000	4.26834	0.91253	3.86116	0.59347
3485.000	4.27031	0.92046	3.73913	0.62333
3486.000	4.22902	0.81538	3.84739	0.56768
3487.000	4.29980	0.90852	3.82770	0.56372
3488.000	4.28604	0.91449	3.78637	0.50817
3489.000	4.30766	0.90256	3.74306	0.51217
3490.000	4.28604	0.92837	3.88675	0.58154
3491.000	4.31553	0.95213	3.81196	0.60541
3492.000	4.19559	0.86302	3.80605	0.64313
3493.000	4.31553	0.91644	3.79818	0.54985
3494.000	4.33518	0.93029	3.87100	0.57362
3495.000	4.25851	0.94031	3.89855	0.59741
3496.000	4.28800	0.90854	3.79424	0.60543
3497.000	4.29194	0.90853	3.77850	0.55184
3498.000	4.26834	0.91848	3.79818	0.57168
3499.000	4.32339	0.90056	3.81196	0.51411
3500.000	4.29783	0.93431	3.78440	0.56772
3501.000	4.26048	0.80543	3.80802	0.64710
3502.000	4.29980	0.89662	3.77456	0.57170
3503.000	4.30373	0.91248	3.77062	0.56971
3504.000	4.25261	0.82725	3.87494	0.55774
3505.000	4.26441	0.88080	3.79621	0.54588
3506.000	4.27031	0.81533	3.88281	0.56368
3507.000	4.30176	0.90852	3.73913	0.56576
3508.000	4.29980	0.85299	3.87100	0.52201
3509.000	4.28997	0.90258	3.81786	0.48433
3510.000	4.28604	0.88870	3.81393	0.52205
3511.000	4.29390	0.85696	3.89265	0.52399
3512.000	4.27031	0.85302	3.77062	0.50620
3513.000	4.26441	0.86691	3.90446	0.60336
3514.000	4.30176	0.87877	3.79818	0.58160
3515.000	4.25458	0.89072	3.84345	0.51012
3516.000	4.27031	0.83120	3.85526	0.52599
3517.000	4.26245	0.80146	3.80408	0.56969
3518.000	4.26245	0.79551	3.81983	0.54785
3519.000	4.26638	0.82526	3.81393	0.48235
3520.000	4.29390	0.82126	3.80802	0.52801
3521.000	4.29587	0.89861	3.90446	0.53192
3522.000	4.25261	0.73402	3.74503	0.57569
3523.000	4.32732	0.85494	3.82574	0.60540
3524.000	4.33911	0.91244	3.84345	0.55379
3525.000	4.30766	0.87083	3.80605	0.58160
3526.000	4.31356	0.91445	3.89855	0.56367
3527.000	4.33518	0.86683	3.91036	0.52794
3528.000	4.36663	0.85688	3.87691	0.52003
3529.000	4.36663	0.81920	4.03038	0.56557
3530.000	4.42756	0.78343	3.99890	0.50407
3531.000	4.50420	0.74766	3.93988	0.45053
3532.000	4.55921	0.68019	4.04218	0.39094
3533.000	4.59849	0.64446	4.14840	0.35517
3534.000	4.63189	0.53340	4.19756	0.30158
3535.000	4.76542	0.53329	4.19756	0.28769
3536.000	4.77524	0.51148	4.30176	0.08927
3537.000	4.80076	0.44010	4.37843	0.09323
3538.000	4.85180	0.40637	4.29783	0.05356
3539.000	4.79291	0.34693	4.35484	0.00595
3540.000	4.80076	0.34296	4.37843	0.00595
3541.000	4.72222	0.18835	4.28997	-0.11110
3542.000	4.69277	0.26569	4.31946	-0.07935
3543.000	4.62599	0.26175	4.23492	-0.02579
3544.000	4.60635	0.26374	4.22312	-0.09127
3545.000	4.54545	0.17650	4.13266	-0.13493
3546.000	4.51402	0.22212	4.12283	-0.04762
3547.000	4.45311	0.22413	4.11889	-0.03572
3548.000	4.41380	0.19835	3.99497	-0.08732
3549.000	4.43346	0.25785	4.00677	-0.03572
3550.000	4.39415	0.27175	4.00087	-0.05160
3551.000	4.41380	0.26976	3.92217	0.03374
3552.000	4.40791	0.27770	4.00087	0.02580
3553.000	4.42559	0.31141	4.00480	0.06549
3554.000	4.43542	0.31934	4.07366	0.11510
3555.000	4.49634	0.33121	4.07169	0.06549
3556.000	4.49830	0.42839	3.97333	0.05160
3557.000	4.51402	0.33715	4.07169	0.12105
3558.000	4.51402	0.41846	4.09333	0.13891
3559.000	4.54938	0.38473	4.02251	0.15281
3560.000	4.54938	0.35498	4.08939	0.13494
3561.000	4.59849	0.43428	4.14250	0.10715
3562.000	4.57296	0.43033	4.17396	0.10516
3563.000	4.52384	0.41647	4.18773	0.11905
3564.000	4.57689	0.42437	4.20936	0.11111
3565.000	4.60439	0.43229	4.16413	0.08532
3566.000	4.58278	0.36686	4.21526	0.18650
3567.000	4.57492	0.36290	4.18969	0.18254
3568.000	4.58867	0.39462	4.07759	0.19050
3569.000	4.54349	0.27368	4.14643	0.14683
3570.000	4.59457	0.39859	4.21919	0.09523
3571.000	4.56510	0.40852	4.18183	0.14286
3572.000	4.56903	0.29548	4.22509	0.10912
3573.000	4.58671	0.32125	4.09529	0.08930
3574.000	4.58082	0.35695	4.21526	0.12500
3575.000	4.53956	0.31731	4.15233	0.01191
3576.000	4.53367	0.29153	4.15430	0.09326
3577.000	4.53170	0.31335	4.19953	0.04762
3578.000	4.51205	0.27171	4.21919	0.08928
3579.000	4.50027	0.27171	4.12676	0.05358
3580.000	4.54938	0.30144	4.17593	0.02778
3581.000	4.56903	0.25780	4.09136	0.07937
3582.000	4.53367	0.30343	4.12480	0.02976
3583.000	4.55724	0.30540	4.17593	0.03770
3584.000	4.53760	0.21617	4.07956	0.07739
3585.000	4.52777	0.24790	4.09529	0.01191
3586.000	4.51205	0.24196	4.08349	0.00000
3587.000	4.54938	0.22608	4.14446	0.01191
3588.000	4.54545	0.25583	4.07562	0.04167
3589.000	4.58082	0.28754	4.11496	0.02381
3590.000	4.56706	0.31333	4.11693	0.09326
3591.000	4.53760	0.26376	4.15430	0.07143
3592.000	4.61814	0.28356	4.16610	0.03572
3593.000	4.58671	0.27168	4.14643	0.00397
3594.000	4.55331	0.22211	4.11889	0.11112
3595.000	4.56706	0.23004	4.15626	0.09326
3596.000	4.55135	0.26178	4.17003	0.02778
3597.000	4.50027	0.21023	4.19166	0.03968
3598.000	4.58671	0.29944	4.12676	-0.00198
3599.000	4.55921	0.25384	4.10906	-0.00794
3600.000	4.52188	0.21816	4.19166	0.02579
3601.000	4.52384	0.26179	4.14643	0.01786
3602.000	4.52384	0.23997	4.18969	0.00198
3603.000	4.58082	0.32522	4.18576	-0.00198
3604.000	4.57689	0.27565	4.15430	0.05556
3605.000	4.50223	0.23601	4.10119	0.01389
3606.000	4.53170	0.27567	4.17789	0.10516
3607.000	4.55135	0.27962	4.16610	0.08532
3608.000	4.52581	0.31930	4.09923	0.02183
3609.000	4.50223	0.22808	4.15233	0.01587
3610.000	4.50027	0.23403	4.20149	0.01190
3611.000	4.52384	0.28162	4.02841	0.06946
3612.000	4.52581	0.27567	4.16020	0.01191
3613.000	4.50420	0.27964	4.19559	0.04563
3614.000	4.54938	0.29549	4.16610	0.04762
3615.000	4.51009	0.21419	4.18183	0.03175
3616.000	4.49830	0.23601	4.21919	0.00595
3617.000	4.54545	0.21220	4.12676	-0.00397
3618.000	4.51402	0.23799	4.13070	0.00992
3619.000	4.51205	0.19436	4.08742	0.04167
3620.000	4.53956	0.25186	4.12480	0.06945
3621.000	4.50027	0.19635	4.10513	-0.03175
3622.000	4.51795	0.19436	4.13660	0.01389
3623.000	4.56706	0.22409	4.15036	-0.00992
3624.000	4.59653	0.25779	4.20739	0.02381
3625.000	4.58474	0.24987	4.13856	0.01389
3626.000	4.55331	0.17848	4.16610	0.07738
3627.000	4.59653	0.28159	4.15233	0.00595
3628.000	4.58474	0.26375	4.12283	-0.04167
3629.000	4.53563	0.19237	4.10513	0.02580
3630.000	4.57885	0.25978	4.11889	0.01587
3631.000	4.59653	0.30538	4.14446	-0.03572
3632.000	4.59653	0.29944	4.22902	0.00794
3633.000	4.56117	0.23599	4.13856	-0.01191
3634.000	4.51205	0.21618	4.17986	0.04365
3635.000	4.53760	0.23600	4.15036	0.03770
3636.000	4.51598	0.22014	4.17003	0.00595
3637.000	4.55331	0.22013	4.12283	0.01389
3638.000	4.48062	0.11305	4.10709	0.02580
3639.000	4.49634	0.24395	4.16610	0.04167
3640.000	4.51598	0.23601	4.14840	0.06548
3641.000	4.52974	0.18444	4.15036	0.04564
3642.000	4.48258	0.15073	4.13266	0.02580
3643.000	4.56706	0.23599	4.14053	-0.04762
3644.000	4.55921	0.23798	4.20346	-0.03571
3645.000	4.53367	0.21220	4.17593	0.04960
3646.000	4.55724	0.21616	4.21722	0.02976
3647.000	4.53170	0.17056	4.12873	0.02580
3648.000	4.54545	0.23996	4.13856	0.06746
3649.000	4.53956	0.17849	4.06775	0.02778
3650.000	4.52581	0.25187	4.18183	0.02778
3651.000	4.54938	0.22013	4.18576	-0.02381
3652.000	4.56510	0.25780	4.11693	-0.00198
3653.000	4.51598	0.24592	4.11693	0.00198
3654.000	4.52384	0.17452	4.17986	0.05952
3655.000	4.51402	0.24196	4.08939	0.03175
3656.000	4.51991	0.21617	4.13856	0.03373
3657.000	4.56903	0.22409	4.14053	0.03572
3658.000	4.54153	0.18642	4.09529	0.03969
3659.000	4.54349	0.21022	4.24475	-0.00397
3660.000	4.55528	0.22410	4.05595	0.02977
3661.000	4.52974	0.23005	4.19363	0.03968
3662.000	4.55331	0.22410	4.13070	0.06548
3663.000	4.56706	0.24987	4.07759	0.02381
3664.000	4.51991	0.18444	4.13070	0.02381
3665.000	4.57296	0.18443	4.13070	0.05953
3666.000	4.55921	0.20625	4.11103	0.02778
3667.000	4.53760	0.16461	4.12283	0.05358
3668.000	4.53956	0.21418	4.16413	0.13294
3669.000	4.54545	0.19038	4.06579	0.09128
3670.000	4.55331	0.18840	4.12480	0.01191
3671.000	4.51795	0.18048	4.11496	0.02976
3672.000	4.53563	0.16659	4.12873	0.01191
3673.000	4.52777	0.19436	4.17593	-0.02778
3674.000	4.56117	0.24987	4.09923	0.02778
3675.000	4.56314	0.18641	4.15823	0.05953
3676.000	4.51598	0.16461	4.05202	0.00794
3677.000	4.52384	0.12693	4.10709	0.06548
3678.000	4.54742	0.25583	4.17199	0.03175
3679.000	4.52777	0.14279	4.17986	0.06548
3680.000	4.53170	0.18840	4.14643	0.02381
3681.000	4.54153	0.20427	4.12873	0.00397
3682.000	4.54742	0.21220	4.22902	0.03571
3683.000	4.53956	0.18245	4.18183	0.12897
3684.000	4.52384	0.17452	4.15233	0.04365
3685.000	4.55331	0.20823	4.12283	0.09723
3686.000	4.56706	0.16658	4.11299	0.00397
3687.000	4.55331	0.12692	4.10513	0.05953
3688.000	4.56117	0.20228	4.09333	-0.00794
3689.000	4.55135	0.16659	4.12676	-0.03572
3690.000	4.58671	0.14675	4.19756	0.02778
3691.000	4.55331	0.14279	4.15036	0.01984
3692.000	4.54938	0.12891	4.10316	0.03969
3693.000	4.53760	0.16461	4.14250	0.00992
3694.000	4.52188	0.10710	4.15233	0.07937
3695.000	4.55921	0.13882	4.16413	0.00198
3696.000	4.54938	0.08131	4.14053	0.02381
3697.000	4.55528	0.17253	4.07562	0.03373
3698.000	4.56510	0.12692	4.16413	0.05357
3699.000	4.58671	0.19037	4.12480	0.11310
3700.000	4.54153	0.12494	4.09136	0.00198
3701.000	4.59457	0.18046	4.09726	0.03175
3702.000	4.57885	0.17253	4.12676	0.11906
3703.000	4.52974	0.14477	4.11299	0.09723
3704.000	4.54545	0.11899	4.10709	0.02778
3705.000	4.55921	0.10511	4.10513	0.02778
3706.000	4.51402	0.12098	4.09529	0.08334
3707.000	4.53956	0.14081	4.13266	0.03572
3708.000	4.54349	0.16460	4.07562	0.03373
3709.000	4.53563	0.14477	4.10513	0.04167
3710.000	4.56510	0.15072	4.16806	0.07143
3711.000	4.53760	0.11304	4.12873	-0.00595
3712.000	4.55331	0.14874	4.22509	-0.02778
3713.000	4.52384	0.12098	4.13266	0.12699
3714.000	4.54153	0.13089	4.15823	0.10516
3715.000	4.54153	0.13486	4.11693	0.07143
3716.000	4.54938	0.15667	4.07366	0.03969
3717.000	4.58671	0.09717	4.10709	0.03969
3718.000	4.58867	0.13881	4.07169	0.02183
3719.000	4.56510	0.09519	4.13266	0.03572
3720.000	4.55528	0.10907	4.09923	0.12105
3721.000	4.57885	0.13882	4.05202	0.06152
3722.000	4.59849	0.13683	4.11496	0.12501
3723.000	4.53563	0.12098	4.03628	0.09923
3724.000	4.54153	0.13486	4.12676	0.05358
3725.000	4.54153	0.14676	4.16020	0.03373
3726.000	4.56314	0.14279	4.07956	0.07144
3727.000	4.53367	0.11304	4.06185	0.06549
3728.000	4.55528	0.13287	4.13266	0.00794
3729.000	4.55135	0.13287	4.19166	0.01984
3730.000	4.58278	0.06544	4.09136	0.02778
3731.000	4.55724	0.09717	4.14446	0.03770
3732.000	4.54742	0.14675	4.12873	0.13096
3733.000	4.57099	0.09717	4.03628	0.11312
3734.000	4.53956	0.11106	4.08742	0.16470
3735.000	4.60635	0.14079	4.13856	0.11112
3736.000	4.56510	0.12097	4.19559	0.04365
3737.000	4.52777	0.08726	4.12086	0.03770
3738.000	4.59260	0.10708	4.05792	0.08136
3739.000	4.54938	0.12097	4.09923	0.13295
3740.000	4.56706	0.11105	4.10906	0.11509
3741.000	4.52777	0.09916	4.15430	0.08731
3742.000	4.50420	0.08726	4.11103	0.06350
3743.000	4.57492	0.09519	4.12480	0.14684
3744.000	4.54153	0.11502	4.07169	0.08136
3745.000	4.56117	0.08924	4.05595	0.11510
3746.000	4.55921	0.05949	4.06185	0.15280
3747.000	4.60046	0.12890	4.05202	0.09922
3748.000	4.57099	0.09717	4.11889	0.02976
3749.000	4.55724	0.13287	4.09529	0.07342
3750.000	4.56117	0.09321	4.07562	0.09525
3751.000	4.56314	0.07139	4.14840	-0.00992
3752.000	4.59064	0.07536	4.18379	0.06151
3753.000	4.61224	0.11303	4.10316	0.10120
3754.000	4.58082	0.11105	4.17199	0.06746
3755.000	4.58474	0.10510	4.22116	0.14483
3756.000	4.58671	0.13287	4.18969	0.00198
3757.000	4.56903	0.10709	4.14643	0.07143
3758.000	4.57885	0.10114	4.09726	0.06747
3759.000	4.55921	0.09717	4.06382	0.08732
3760.000	4.57492	0.04759	4.13660	0.09921
3761.000	4.59653	0.06147	4.13660	0.06945
3762.000	4.60635	0.08527	4.13070	0.13295
3763.000	4.60242	0.11898	4.08939	0.12700
3764.000	4.58671	0.07139	4.09333	0.07937
3765.000	4.58867	0.10114	4.15626	0.09127
3766.000	4.59260	0.08329	4.09726	0.12501
3767.000	4.57492	0.09122	4.07169	0.10716
3768.000	4.62207	0.07139	4.12283	0.07739
3769.000	4.60832	0.09320	4.17986	0.09921
3770.000	4.63385	0.12096	4.15823	0.08929
3771.000	4.62796	0.08527	4.12480	0.12104
3772.000	4.62010	0.09915	4.11693	0.12898
3773.000	4.61224	0.09122	4.17003	0.08135
3774.000	4.59064	0.06544	4.09136	0.04366
3775.000	4.56706	0.07536	4.16806	0.16270
3776.000	4.59457	0.03966	4.16216	0.12104
3777.000	4.60635	0.11700	4.22705	0.04365
3778.000	4.57885	0.13485	4.15036	0.08929
3779.000	4.58474	0.07337	4.21132	0.04167
3780.000	4.60242	0.06544	4.17986	0.08929
3781.000	4.60242	0.07932	4.16413	0.12500
3782.000	4.62207	0.07932	4.12283	0.13692
3783.000	4.62010	0.09320	4.19559	0.08928
3784.000	4.61028	0.10510	4.09136	0.10120
3785.000	4.59849	0.11105	4.16610	0.11707
3786.000	4.65742	0.13483	4.12283	0.11112
3787.000	4.61028	0.08130	4.22705	0.14880
3788.000	4.62796	0.06742	4.17199	0.14286
3789.000	4.60242	0.10907	4.13266	0.10913
3790.000	4.64171	0.10509	4.07169	0.14883
3791.000	4.65153	0.13285	4.14053	0.09723
3792.000	4.61617	0.06940	4.09529	0.09525
3793.000	4.62796	0.08130	4.14643	0.15477
3794.000	4.63778	0.08527	4.14643	0.11905
3795.000	4.65153	0.12690	4.22705	0.13491
3796.000	4.64956	0.08526	4.10709	0.11311
3797.000	4.64367	0.06940	4.21132	0.08333
3798.000	4.64563	0.05552	4.17003	0.15278
3799.000	4.64367	0.06345	4.21329	0.18650
3800.000	4.64171	0.10708	4.21919	0.19444
3801.000	4.67902	0.05552	4.13660	0.07143
3802.000	4.63385	0.04561	4.20542	0.15079
3803.000	4.64367	0.05354	4.14053	0.18255
3804.000	4.67706	0.07336	4.12480	0.19049
3805.000	4.61814	0.05156	4.13660	0.10517
3806.000	4.61421	0.07337	4.06972	0.21829
3807.000	4.62992	0.05949	4.17789	0.15080
3808.000	4.65742	0.05354	4.12480	0.12898
3809.000	4.63974	0.06544	4.09923	0.14883
3810.000	4.62207	0.11898	4.18379	0.19246
3811.000	4.64760	0.05750	4.24475	0.16665
3812.000	4.62599	0.02181	4.16216	0.17858
3813.000	4.64956	0.03767	4.21919	0.16666
3814.000	4.68491	0.08526	4.13660	0.10913
3815.000	4.65938	0.10906	4.10119	0.13890
3816.000	4.66920	0.10509	4.14643	0.11707
3817.000	4.64760	0.10708	4.12086	0.10914
3818.000	4.67902	0.08923	4.14446	0.17660
3819.000	4.67117	0.07138	4.19166	0.18452
3820.000	4.63189	0.05552	4.16413	0.09326
3821.000	4.63778	0.08328	4.18379	0.19048
3822.000	4.62992	0.08527	4.14053	0.17461
3823.000	4.60635	0.08527	4.16806	0.17461
3824.000	4.62010	0.06742	4.17199	0.15675
3825.000	4.60439	0.07337	4.11103	0.19645
3826.000	4.58474	0.08726	4.16216	0.19643
3827.000	4.58474	0.06148	4.11693	0.23613
3828.000	4.63385	0.13881	4.15430	0.14088
3829.000	4.61814	0.03966	4.13660	0.17461
3830.000	4.54938	0.01190	4.09529	0.11112
3831.000	4.59457	0.01388	4.11299	0.12501
3832.000	4.58671	0.03371	4.15430	0.07342
3833.000	4.55724	0.00595	4.06972	0.06152
3834.000	4.58278	-0.03570	4.15036	0.02183
3835.000	4.51991	-0.07536	4.12283	0.04365
3836.000	4.53563	-0.11503	4.06185	-0.05556
3837.000	4.57099	-0.13088	4.15036	-0.02579
3838.000	4.55724	-0.22409	4.04218	-0.19845
3839.000	4.49634	-0.28559	4.10709	-0.22621
3840.000	4.46293	-0.26776	4.06775	-0.22622
3841.000	4.46883	-0.31139	4.11103	-0.22423
3842.000	4.48258	-0.29750	4.10119	-0.30757
3843.000	4.53563	-0.28955	4.12086	-0.25002
3844.000	4.44525	-0.34313	4.09136	-0.27979
3845.000	4.46490	-0.34312	4.08546	-0.28773
3846.000	4.49241	-0.32526	4.09136	-0.29368
3847.000	4.44328	-0.34710	4.04612	-0.24409
3848.000	4.43346	-0.34512	4.10316	-0.24407
3849.000	4.49241	-0.30741	4.08349	-0.25202
3850.000	4.47276	-0.31139	4.03038	-0.24013
3851.000	4.51009	-0.28757	4.00284	-0.18457
3852.000	4.52974	-0.25385	4.10906	-0.09723
3853.000	4.51598	-0.25782	4.05202	-0.17860
3854.000	4.51009	-0.26576	4.16413	-0.07341
3855.000	4.51795	-0.23799	4.05005	-0.09327
3856.000	4.52188	-0.22212	4.10119	-0.08136
3857.000	4.56117	-0.21418	4.04218	-0.09526
3858.000	4.59457	-0.21218	4.07956	0.00397
3859.000	4.58278	-0.21021	4.12676	-0.08929
3860.000	4.56117	-0.17848	4.13856	-0.09723
3861.000	4.55724	-0.17848	4.12086	0.00992
3862.000	4.61617	-0.17054	4.13070	-0.04961
3863.000	4.58082	-0.16063	4.15823	-0.06746
3864.000	4.59260	-0.16261	4.07956	-0.09327
3865.000	4.54742	-0.17849	4.15036	-0.03175
3866.000	4.56510	-0.17253	4.16610	-0.06349
3867.000	4.55921	-0.16063	4.17396	-0.14683
3868.000	4.54349	-0.19435	4.08742	-0.10517
3869.000	4.54545	-0.19435	4.10709	-0.05358
3870.000	4.49437	-0.24990	4.06972	-0.10319
3871.000	4.52777	-0.16659	4.07759	-0.17264
3872.000	4.48258	-0.22610	4.13070	-0.13890
3873.000	4.51009	-0.21023	4.08152	-0.12700
3874.000	4.51205	-0.29154	4.14053	-0.17263
3875.000	4.55921	-0.23004	4.12283	-0.10120
3876.000	4.54153	-0.19039	4.08152	-0.18653
3877.000	4.55135	-0.20030	4.12676	-0.10120
3878.000	4.56314	-0.21021	4.07169	-0.12303
3879.000	4.56510	-0.19831	4.04218	-0.09922
3880.000	4.58082	-0.22409	4.06579	-0.13494
3881.000	4.56314	-0.24591	4.09726	-0.07342
3882.000	4.55528	-0.23203	4.01267	-0.06351
3883.000	4.54349	-0.26178	4.05399	-0.12899
3884.000	4.53563	-0.22807	4.10906	-0.11509
3885.000	4.55921	-0.17055	4.15233	-0.03373
3886.000	4.54742	-0.23005	4.06382	-0.07541
3887.000	4.53956	-0.22212	4.02841	-0.06152
3888.000	4.52777	-0.24195	4.07562	-0.13097
3889.000	4.51598	-0.28757	4.11496	-0.09922
3890.000	4.53563	-0.27170	4.08939	-0.06548
3891.000	4.54349	-0.27169	4.14053	-0.05953
3892.000	4.55331	-0.23401	4.10709	-0.11906
3893.000	4.56706	-0.28755	4.18576	-0.11310
3894.000	4.53760	-0.25980	4.10316	-0.11509
3895.000	4.55528	-0.20625	4.09726	-0.05556
3896.000	4.56117	-0.24789	4.08546	-0.10914
3897.000	4.54938	-0.23005	4.09529	-0.03770
3898.000	4.56706	-0.25780	4.08939	-0.09723
3899.000	4.59064	-0.22607	4.06382	-0.05358
3900.000	4.57689	-0.24392	4.20542	-0.18452
3901.000	4.56510	-0.22608	4.10316	-0.10517
3902.000	4.59653	-0.22805	4.10513	-0.14287
3903.000	4.61421	-0.21614	4.07759	-0.08136
3904.000	4.59849	-0.21813	4.13463	-0.07540
3905.000	4.60832	-0.20227	4.10119	-0.07739
3906.000	4.65938	-0.20820	4.11103	-0.02381
3907.000	4.62403	-0.22606	4.10119	-0.12700
3908.000	4.61028	-0.18838	4.10316	-0.10120
3909.000	4.60439	-0.23796	4.13070	-0.09921
3910.000	4.59260	-0.23003	4.06972	-0.12899
3911.000	4.61421	-0.23796	4.09726	-0.09128
3912.000	4.59260	-0.22012	4.20346	-0.08532
3913.000	4.60242	-0.23796	4.09333	-0.13891
3914.000	4.58867	-0.23995	4.10513	-0.11708
3915.000	4.56314	-0.20823	4.14643	-0.06548
3916.000	4.60439	-0.24193	4.11889	-0.10914
3917.000	4.62599	-0.20623	4.16610	-0.08532
3918.000	4.62010	-0.15269	4.14053	-0.14485
3919.000	4.59849	-0.23201	4.12283	-0.09723
3920.000	4.64760	-0.22208	4.06972	-0.14089
3921.000	4.61421	-0.16062	4.07562	-0.15478
3922.000	4.61224	-0.19433	4.17986	-0.04167
3923.000	4.65349	-0.20225	4.07956	-0.01984
3924.000	4.64367	-0.19631	4.10709	-0.05556
3925.000	4.60635	-0.21416	4.11889	-0.12699
3926.000	4.58867	-0.21417	4.19559	-0.15873
3927.000	4.58867	-0.22210	4.17003	-0.10516
3928.000	4.63974	-0.21415	4.14840	-0.13294
3929.000	4.59653	-0.18839	4.10119	-0.08930
3930.000	4.59849	-0.19830	4.17199	-0.11111
3931.000	4.57296	-0.22211	4.15036	-0.11707
3932.000	4.58474	-0.19236	4.24278	-0.17062
3933.000	4.58278	-0.22409	4.18773	-0.11309
3934.000	4.57099	-0.26573	4.07562	-0.04961
3935.000	4.59653	-0.23003	4.19363	-0.04762
3936.000	4.63778	-0.23002	4.11693	-0.09922
3937.000	4.63581	-0.20226	4.17396	-0.14881
3938.000	4.60242	-0.16856	4.11496	-0.08731
3939.000	4.58867	-0.19037	4.12676	-0.06747
3940.000	4.63385	-0.21217	4.14250	-0.07739
3941.000	4.60242	-0.20425	4.14840	-0.07540
3942.000	4.60439	-0.24589	4.18773	-0.08333
3943.000	4.62992	-0.19631	4.15233	-0.08135
3944.000	4.61224	-0.19235	4.13266	-0.08731
3945.000	4.57099	-0.20029	4.10906	-0.08731
3946.000	4.61421	-0.24986	4.14643	-0.14683
3947.000	4.55724	-0.18642	4.09923	-0.08731
3948.000	4.62796	-0.20028	4.10316	-0.08731
3949.000	4.64760	-0.21217	4.10906	-0.11906
3950.000	4.57296	-0.20029	4.22509	-0.07341
3951.000	4.61617	-0.16260	4.22705	-0.14087
3952.000	4.63189	-0.18243	4.20346	-0.10516
3953.000	4.61224	-0.21416	4.12676	-0.06151
3954.000	4.60832	-0.23003	4.09136	-0.15676
3955.000	4.62010	-0.18442	4.13266	-0.07937
3956.000	4.61617	-0.19433	4.15823	-0.10715
3957.000	4.65545	-0.18441	4.12283	-0.10715
3958.000	4.62992	-0.23200	4.06382	-0.04564
3959.000	4.62207	-0.21416	4.16413	-0.14485
3960.000	4.59653	-0.20822	4.18969	-0.09127
3961.000	4.66527	-0.18044	4.10906	-0.08533
3962.000	4.64563	-0.18837	4.10709	-0.10517
3963.000	4.63385	-0.14475	4.11103	-0.09525
3964.000	4.63974	-0.19631	4.13463	-0.19247
3965.000	4.62403	-0.16855	4.18183	-0.16865
3966.000	4.62796	-0.17846	4.11299	-0.10914
3967.000	4.61617	-0.17847	4.19363	-0.06349
3968.000	4.63974	-0.17450	4.20346	-0.07540
3969.000	4.61421	-0.19632	4.11299	-0.05755
3970.000	4.59849	-0.17252	4.08939	-0.08731
3971.000	4.61028	-0.21813	4.10119	-0.11311
3972.000	4.61028	-0.18442	4.21526	-0.10317
3973.000	4.63778	-0.16260	4.16806	-0.11905
3974.000	4.58278	-0.19632	4.15430	-0.17263
3975.000	4.59064	-0.21219	4.13660	-0.04365
3976.000	4.61028	-0.19632	4.13463	-0.07540
3977.000	4.59849	-0.21813	4.13266	-0.03175
3978.000	4.62010	-0.20623	4.12873	-0.06350
3979.000	4.58082	-0.23400	4.15823	-0.04762
3980.000	4.61617	-0.20425	4.15626	-0.07738
3981.000	4.59849	-0.28159	4.15233	-0.12501
3982.000	4.59849	-0.23201	4.13856	-0.12898
3983.000	4.60439	-0.22210	4.20936	-0.12698
3984.000	4.62207	-0.21416	4.16413	-0.10516
3985.000	4.61028	-0.22011	4.11299	-0.05358
3986.000	4.62207	-0.22606	4.14840	-0.06746
3987.000	4.60242	-0.22408	4.20346	-0.10714
3988.000	4.61421	-0.24589	4.17199	-0.13294
3989.000	4.60242	-0.23994	4.17199	-0.10119
3990.000	4.59849	-0.24589	4.15626	-0.11310
3991.000	4.61028	-0.24589	4.16020	-0.12104
3992.000	4.58082	-0.24590	4.13463	-0.08334
3993.000	4.57689	-0.24789	4.16610	-0.14286
3994.000	4.55331	-0.27169	4.20739	-0.11508
3995.000	4.60242	-0.25383	4.18969	-0.16270
3996.000	4.59653	-0.26969	4.15430	-0.09326
3997.000	4.57689	-0.25383	4.12480	-0.12699
3998.000	4.60439	-0.27365	4.12873	-0.17660
3999.000	4.60635	-0.20425	4.23295	-0.15277
4000.000	4.59653	-0.23400	4.10513	-0.12700
4001.000	4.57689	-0.27565	4.18576	-0.15675
4002.000	4.58671	-0.24788	4.21526	-0.14087
4003.000	4.56706	-0.26177	4.14250	-0.09723
4004.000	4.56706	-0.27169	4.12873	-0.08929
4005.000	4.60439	-0.27960	4.25655	-0.09721
4006.000	4.62796	-0.22407	4.23295	-0.13690
4007.000	4.57885	-0.23004	4.12676	-0.12699
4008.000	4.58867	-0.26176	4.12480	-0.10517
4009.000	4.58082	-0.27763	4.18773	-0.12103
4010.000	4.57492	-0.26573	4.13463	-0.20636
4011.000	4.55921	-0.25979	4.18773	-0.16865
4012.000	4.61028	-0.24986	4.24475	-0.14086
4013.000	4.59653	-0.22408	4.19559	-0.09524
4014.000	4.61814	-0.23994	4.16020	-0.09326
4015.000	4.59849	-0.22606	4.23099	-0.16269
4016.000	4.57689	-0.26177	4.19559	-0.15278
4017.000	4.60439	-0.23201	4.10709	-0.22423
4018.000	4.59653	-0.23400	4.12086	-0.18255
4019.000	4.62403	-0.22209	4.16806	-0.13096
4020.000	4.56510	-0.25186	4.13266	-0.16866
4021.000	4.60439	-0.21813	4.17396	-0.16468
4022.000	4.60635	-0.23796	4.15626	-0.13493
4023.000	4.59849	-0.20029	4.15036	-0.14485
4024.000	4.62010	-0.22011	4.20739	-0.19444
4025.000	4.57296	-0.23004	4.12086	-0.17859
4026.000	4.59260	-0.23598	4.24278	-0.12896
4027.000	4.59849	-0.19235	4.11299	-0.17462
4028.000	4.58671	-0.19632	4.23689	-0.18650
4029.000	4.61617	-0.15269	4.12480	-0.12898
4030.000	4.58082	-0.23797	4.20739	-0.19245
4031.000	4.57296	-0.23202	4.18773	-0.22421
4032.000	4.60832	-0.22606	4.20936	-0.14087
4033.000	4.60242	-0.17649	4.18183	-0.14881
4034.000	4.57885	-0.21814	4.17003	-0.14881
4035.000	4.60832	-0.26374	4.11693	-0.07739
4036.000	4.60046	-0.25184	4.23295	-0.16864
4037.000	4.62403	-0.21019	4.17003	-0.11905
4038.000	4.60832	-0.27167	4.18183	-0.15079
4039.000	4.57099	-0.28557	4.20149	-0.17857
4040.000	4.57689	-0.25978	4.19363	-0.14286
4041.000	4.60439	-0.24589	4.23099	-0.14285
4042.000	4.56510	-0.24591	4.17986	-0.16270
4043.000	4.63385	-0.22010	4.20542	-0.17658
4044.000	4.61028	-0.21813	4.13266	-0.13691
4045.000	4.62010	-0.21218	4.11299	-0.14684
4046.000	4.61224	-0.20226	4.15233	-0.09723
4047.000	4.59457	-0.21813	4.19166	-0.23016
4048.000	4.61617	-0.23002	4.14053	-0.19842
4049.000	4.58474	-0.24392	4.18183	-0.14087
4050.000	4.61224	-0.20623	4.18379	-0.09921
4051.000	4.61617	-0.20425	4.13660	-0.14088
4052.000	4.60832	-0.23796	4.15036	-0.09524
4053.000	4.62010	-0.21416	4.18773	-0.19246
4054.000	4.64563	-0.21614	4.19363	-0.18849
4055.000	4.61421	-0.20028	4.15626	-0.20437
4056.000	4.62599	-0.23002	4.22312	-0.19047
4057.000	4.64563	-0.20424	4.22116	-0.20237
4058.000	4.61814	-0.20425	4.19166	-0.23611
4059.000	4.61421	-0.20226	4.25851	-0.17855
4060.000	4.60439	-0.22408	4.22116	-0.12103
4061.000	4.59653	-0.20029	4.19166	-0.19444
4062.000	4.63189	-0.23993	4.17986	-0.16667
4063.000	4.61224	-0.24192	4.18183	-0.20040
4064.000	4.59653	-0.19830	4.11693	-0.13890
4065.000	4.59653	-0.21615	4.06185	-0.25004
4066.000	4.60046	-0.22011	4.17789	-0.12302
4067.000	4.61421	-0.19830	4.13266	-0.20636
4068.000	4.59457	-0.22805	4.21132	-0.23213
4069.000	4.60832	-0.19632	4.18969	-0.15278
4070.000	4.62599	-0.15665	4.16806	-0.10119
4071.000	4.60439	-0.19632	4.16216	-0.20635
4072.000	4.61421	-0.17649	4.21526	-0.21626
4073.000	4.61421	-0.16459	4.19363	-0.24008
4074.000	4.61421	-0.13683	4.19756	-0.18452
4075.000	4.59260	-0.17252	4.21526	-0.17261
4076.000	4.61421	-0.19830	4.15823	-0.17858
4077.000	4.62010	-0.17648	4.22705	-0.21626
4078.000	4.61028	-0.18640	4.20346	-0.12897
4079.000	4.64563	-0.15467	4.24082	-0.20237
4080.000	4.58082	-0.22012	4.12873	-0.28176
4081.000	4.58671	-0.16261	4.17986	-0.21825
4082.000	4.60242	-0.18640	4.13856	-0.16469
4083.000	4.59260	-0.18641	4.24278	-0.10714
4084.000	4.60635	-0.18640	4.25065	-0.23014
4085.000	4.60635	-0.20227	4.19166	-0.20436
4086.000	4.60832	-0.16062	4.13856	-0.17858
4087.000	4.58671	-0.21814	4.18183	-0.17064
4088.000	4.62796	-0.21217	4.26048	-0.19839
4089.000	4.60439	-0.21218	4.22116	-0.18055
4090.000	4.62010	-0.22011	4.17986	-0.15873
4091.000	4.63189	-0.19234	4.18773	-0.17857
4092.000	4.56510	-0.19831	4.22705	-0.20039
4093.000	4.63581	-0.16458	4.23099	-0.21626
4094.000	4.61224	-0.16062	4.24868	-0.22220
4095.000	4.62403	-0.17847	4.22902	-0.19245
4096.000	4.58474	-0.19434	4.22509	-0.22221
4097.000	4.62010	-0.20028	4.21526	-0.26983
4098.000	4.58671	-0.17253	4.23295	-0.16666
4099.000	4.62796	-0.17252	4.15430	-0.16469
4100.000	4.61617	-0.18045	4.20739	-0.19841
4101.000	4.60242	-0.19037	4.23492	-0.17658
4102.000	4.64760	-0.19036	4.18379	-0.17460
4103.000	4.61617	-0.18838	4.15036	-0.21033
4104.000	4.61814	-0.19830	4.17396	-0.18453
4105.000	4.62992	-0.17648	4.27817	-0.16466
4106.000	4.59653	-0.19434	4.25065	-0.23411
4107.000	4.63189	-0.17648	4.25065	-0.23807
4108.000	4.62403	-0.18243	4.19166	-0.22222
4109.000	4.60439	-0.16459	4.26834	-0.14284
4110.000	4.61814	-0.20425	4.18379	-0.21230
4111.000	4.59064	-0.21615	4.33518	-0.20036
4112.000	4.60439	-0.24788	4.28211	-0.23211
4113.000	4.58474	-0.17848	4.23885	-0.18848
4114.000	4.61421	-0.15467	4.21132	-0.19245
4115.000	4.63385	-0.21019	4.20346	-0.17658
4116.000	4.60832	-0.19632	4.26441	-0.19442
4117.000	4.61421	-0.23201	4.21329	-0.16468
4118.000	4.63189	-0.17053	4.24278	-0.25593
4119.000	4.58474	-0.20624	4.22705	-0.21824
4120.000	4.65349	-0.16656	4.27424	-0.24402
4121.000	4.63385	-0.15467	4.22509	-0.19047
4122.000	4.63974	-0.16855	4.32535	-0.18251
4123.000	4.60046	-0.16261	4.11693	-0.21430
4124.000	4.62599	-0.13881	4.32929	-0.16267
4125.000	4.61814	-0.19037	4.28211	-0.13887
4126.000	4.56117	-0.22211	4.22312	-0.09325
4127.000	4.61421	-0.18243	4.23295	-0.10118
4128.000	4.59064	-0.15864	4.26048	-0.21228
4129.000	4.58867	-0.19632	4.17986	-0.16667
4130.000	4.59457	-0.18442	4.16806	-0.15675
4131.000	4.57296	-0.21616	4.29390	-0.16466
4132.000	4.59260	-0.22012	4.23099	-0.16070
4133.000	4.60439	-0.18640	4.30176	-0.15672
4134.000	4.61814	-0.25580	4.14250	-0.11112
4135.000	4.65349	-0.16458	4.23689	-0.17459
4136.000	4.60832	-0.23003	4.20542	-0.13293
4137.000	4.58867	-0.23400	4.27031	-0.17260
4138.000	4.60832	-0.16657	4.23099	-0.26586
4139.000	4.62403	-0.18045	4.14643	-0.17263
4140.000	4.58082	-0.24193	4.21919	-0.19245
4141.000	4.60832	-0.20623	4.28997	-0.20037
4142.000	4.59653	-0.20029	4.23295	-0.21229
4143.000	4.56117	-0.27565	4.22902	-0.26387
4144.000	4.62992	-0.21812	4.24475	-0.13094
4145.000	4.63581	-0.20226	4.29390	-0.14482
4146.000	4.63778	-0.23200	4.26638	-0.23212
4147.000	4.60832	-0.27960	4.26834	-0.19442
4148.000	4.58867	-0.17649	4.23295	-0.17658
4149.000	4.57885	-0.22607	4.23689	-0.23411
4150.000	4.62010	-0.20226	4.26638	-0.08332
4151.000	4.61224	-0.24787	4.25065	-0.07737
4152.000	4.62010	-0.24192	4.21329	-0.21031
4153.000	4.58082	-0.26176	4.24278	-0.17459
4154.000	4.59849	-0.26969	4.26048	-0.17657
4155.000	4.62403	-0.21614	4.25655	-0.19046
4156.000	4.57099	-0.25185	4.20542	-0.17261
4157.000	4.59849	-0.24589	4.23492	-0.15872
4158.000	4.57296	-0.22409	4.24868	-0.13094
4159.000	4.58082	-0.25978	4.23295	-0.14086
4160.000	4.61421	-0.23597	4.25851	-0.12896
4161.000	4.61421	-0.23003	4.20149	-0.12897
4162.000	4.56706	-0.26970	4.26048	-0.14880
4163.000	4.56903	-0.25384	4.24672	-0.15475
4164.000	4.58671	-0.22805	4.30963	-0.18053
4165.000	4.58867	-0.23598	4.17593	-0.16865
4166.000	4.57296	-0.26177	4.22509	-0.14483
4167.000	4.60242	-0.25779	4.18183	-0.16667
4168.000	4.62992	-0.25580	4.28800	-0.16664
4169.000	4.60635	-0.26969	4.27031	-0.14681
4170.000	4.61224	-0.29943	4.25261	-0.08928
4171.000	4.60439	-0.25779	4.25065	-0.16070
4172.000	4.61421	-0.28357	4.26638	-0.15673
4173.000	4.62796	-0.21614	4.29980	-0.10514
4174.000	4.61421	-0.23003	4.20346	-0.17063
4175.000	4.61224	-0.24787	4.26048	-0.14880
4176.000	4.59653	-0.23400	4.32929	-0.16862
4177.000	4.63778	-0.24985	4.32535	-0.06943
4178.000	4.59849	-0.25978	4.23689	-0.18054
4179.000	4.62010	-0.19036	4.32929	-0.19242
4180.000	4.62403	-0.26968	4.33322	-0.13886
4181.000	4.60832	-0.24986	4.34698	-0.18647
4182.000	4.57099	-0.21814	4.33322	-0.09522
4183.000	4.61421	-0.23597	4.26638	-0.17657
4184.000	4.60242	-0.25581	4.24672	-0.12697
4185.000	4.60832	-0.26770	4.26638	-0.15673
4186.000	4.63974	-0.21217	4.33322	-0.16465
4187.000	4.62599	-0.20028	4.30570	-0.19640
4188.000	4.58082	-0.25978	4.33322	-0.18846
4189.000	4.60832	-0.19632	4.28407	-0.13292
4190.000	4.61028	-0.25581	4.27424	-0.12697
4191.000	4.62796	-0.25183	4.27228	-0.20434
4192.000	4.58867	-0.22210	4.32929	-0.16664
4193.000	4.60439	-0.23003	4.30766	-0.18846
4194.000	4.63974	-0.23200	4.30766	-0.11506
4195.000	4.61421	-0.24787	4.35287	-0.12894
4196.000	4.61224	-0.28555	4.30963	-0.24401
4197.000	4.61814	-0.24985	4.30963	-0.22814
4198.000	4.63581	-0.25976	4.29980	-0.18648
4199.000	4.61617	-0.23994	4.31553	-0.12101
4200.000	4.60832	-0.22011	4.25655	-0.12896
4201.000	4.65349	-0.22208	4.34305	-0.16068
4202.000	4.64563	-0.24588	4.28800	-0.17855
4203.000	4.65742	-0.19432	4.31553	-0.18052
4204.000	4.64760	-0.24389	4.31553	-0.26186
4205.000	4.62010	-0.21614	4.30766	-0.22814
4206.000	4.61028	-0.24986	4.41380	-0.13488
4207.000	4.65153	-0.23596	4.25065	-0.20832
4208.000	4.62599	-0.22606	4.36663	-0.23605
4209.000	4.63581	-0.23993	4.28407	-0.20434
4210.000	4.61814	-0.25580	4.32339	-0.13093
4211.000	4.62403	-0.24985	4.38432	-0.19043
