time (ms)	lx (deg)	ly (deg)	rx (deg)	ry (deg)
0.000	1.68590	1.02997	1.44883	0.53497
1.000	1.64837	1.03794	1.48637	0.51110
2.000	1.67404	1.03793	1.38758	0.54095
3.000	1.65824	1.01209	1.45279	0.55088
4.000	1.65034	1.03794	1.39746	0.56283
5.000	1.67009	1.02203	1.45476	0.51508
6.000	1.66812	1.01805	1.38758	0.55288
7.000	1.63059	1.03795	1.41920	0.58072
8.000	1.66219	1.04986	1.41525	0.48129
9.000	1.68787	1.03593	1.42513	0.57276
10.000	1.66022	1.03396	1.35795	0.50317
11.000	1.66812	1.04191	1.44291	0.60656
12.000	1.67009	1.02600	1.46464	0.56281
13.000	1.63256	1.01211	1.39549	0.55686
14.000	1.66614	1.05185	1.40734	0.52305
15.000	1.67404	1.03992	1.41129	0.48526
16.000	1.70367	1.09954	1.45674	0.53497
17.000	1.71750	1.05977	1.45279	0.49719
18.000	1.65232	1.04987	1.39351	0.50317
19.000	1.70762	1.05183	1.41722	0.52504
20.000	1.67404	1.06377	1.40932	0.51708
21.000	1.67800	1.07570	1.37375	0.55488
22.000	1.66022	1.05782	1.42908	0.50714
23.000	1.66022	1.05384	1.44291	0.50912
24.000	1.68195	1.06973	1.40339	0.55686
25.000	1.65627	1.01806	1.43105	0.49123
26.000	1.68392	1.05383	1.44291	0.48725
27.000	1.67207	1.03992	1.46069	0.47531
28.000	1.69380	1.05780	1.43500	0.47134
29.000	1.63849	1.03198	1.48637	0.56479
30.000	1.70565	1.04586	1.40339	0.56481
31.000	1.70960	1.03393	1.44883	0.51310
32.000	1.66417	1.05583	1.46464	0.49917
33.000	1.68787	1.02599	1.46069	0.47730
34.000	1.69577	1.06177	1.43303	0.53299
35.000	1.67207	1.03992	1.41920	0.51310
36.000	1.67009	1.06775	1.41129	0.50316
37.000	1.69972	1.08165	1.47057	0.51906
38.000	1.67207	1.08962	1.40734	0.57078
39.000	1.69577	1.06575	1.41722	0.49918
40.000	1.69380	1.07569	1.48045	0.54491
41.000	1.68985	1.04985	1.41920	0.47134
42.000	1.70170	1.04587	1.47649	0.52900
43.000	1.69380	1.06177	1.47847	0.51110
44.000	1.67404	1.03197	1.40537	0.54493
45.000	1.72343	1.04585	1.45081	0.50514
46.000	1.68985	1.04190	1.38956	0.50317
47.000	1.71750	1.07568	1.49625	0.52701
48.000	1.70762	1.06375	1.42315	0.51708
49.000	1.72343	1.05579	1.42513	0.51907
50.000	1.68195	1.05582	1.54367	0.47728
51.000	1.70565	1.04586	1.39549	0.47532
52.000	1.71750	1.05182	1.52984	0.51706
53.000	1.69182	1.05581	1.52391	0.57870
54.000	1.74120	1.06175	1.40339	0.56481
55.000	1.71158	0.98622	1.49823	0.56479
56.000	1.68590	1.03196	1.41722	0.56680
57.000	1.71750	1.06375	1.44488	0.52503
58.000	1.70170	1.08165	1.40537	0.55288
59.000	1.70565	1.10152	1.43105	0.52901
60.000	1.72738	1.06374	1.48045	0.58468
61.000	1.70762	1.06972	1.50810	0.55484
62.000	1.76293	1.07167	1.49032	0.51905
63.000	1.71750	1.07568	1.53971	0.51904
64.000	1.73528	1.03193	1.38561	0.55090
65.000	1.72935	1.06175	1.50415	0.59462
66.000	1.70170	1.05581	1.47254	0.50315
67.000	1.70960	1.07767	1.50415	0.61848
68.000	1.73725	1.06175	1.42908	0.53498
69.000	1.75898	1.06770	1.45081	0.52702
70.000	1.76886	1.09751	1.44686	0.54293
71.000	1.70960	1.08363	1.42710	0.52305
72.000	1.74318	1.06175	1.42513	0.62447
73.000	1.74318	1.06572	1.50218	0.53098
74.000	1.74713	1.04584	1.47649	0.54491
75.000	1.71355	1.03990	1.37375	0.52107
76.000	1.74713	1.03988	1.43698	0.46935
77.000	1.71553	1.06176	1.45871	0.56480
78.000	1.73528	1.05777	1.39944	0.54095
79.000	1.69182	1.07569	1.44686	0.52105
80.000	1.74713	1.10349	1.44291	0.54492
81.000	1.69972	1.10352	1.47847	0.46337
82.000	1.70170	1.08562	1.36190	0.45544
83.000	1.65034	1.05186	1.47057	0.43156
84.000	1.59700	1.01610	1.41129	0.43157
85.000	1.45871	0.96447	1.21963	0.32818
86.000	1.39944	0.89690	1.09513	0.33217
87.000	1.23148	0.76571	0.97259	0.17703
88.000	1.03584	0.67229	0.87970	0.07360
89.000	0.89551	0.61663	0.60099	0.02188
90.000	0.65436	0.42371	0.49424	-0.09151
91.000	0.44284	0.31432	0.18584	-0.21685
92.000	0.24910	0.20690	0.06326	-0.32825
93.000	0.01977	0.15518	-0.16804	-0.43966
94.000	-0.15223	0.04775	-0.36179	-0.50529
95.000	-0.32818	-0.07560	-0.52784	-0.60474
96.000	-0.39935	-0.12732	-0.57331	-0.67237
97.000	-0.48633	-0.16711	-0.61087	-0.64252
98.000	-0.51598	-0.17307	-0.68796	-0.63854
99.000	-0.51005	-0.20092	-0.67610	-0.68628
100.000	-0.43493	-0.18899	-0.66227	-0.65843
101.000	-0.38749	-0.18302	-0.52191	-0.60474
102.000	-0.23131	-0.10743	-0.45865	-0.58486
103.000	-0.08699	-0.06963	-0.33609	-0.45357
104.000	0.00791	-0.06565	-0.25503	-0.42971
105.000	0.08699	0.03979	-0.13246	-0.39788
106.000	0.23526	0.11539	-0.10478	-0.35610
107.000	0.33609	0.14324	0.01384	-0.35412
108.000	0.38946	0.19297	-0.03559	-0.26857
109.000	0.43493	0.21883	0.03361	-0.29046
110.000	0.47249	0.27453	0.04152	-0.21088
111.000	0.51401	0.31630	0.16607	-0.21884
112.000	0.54168	0.30835	0.10083	-0.19297
113.000	0.50412	0.28050	0.12257	-0.28648
114.000	0.44679	0.35410	0.13048	-0.21486
115.000	0.43098	0.30636	0.07513	-0.28648
116.000	0.38551	0.30636	0.04745	-0.28648
117.000	0.38749	0.29642	0.07315	-0.24271
118.000	0.29655	0.24470	0.07513	-0.17905
119.000	0.29457	0.24271	0.03559	-0.30438
120.000	0.31236	0.21287	0.03954	-0.28051
121.000	0.24515	0.22281	0.02570	-0.29841
122.000	0.22735	0.25464	-0.00395	-0.27852
123.000	0.21747	0.23873	-0.02372	-0.29443
124.000	0.20758	0.20093	-0.05338	-0.30438
125.000	0.13839	0.20491	-0.07117	-0.30836
126.000	0.18584	0.20690	-0.12257	-0.28051
127.000	0.16211	0.16313	-0.09094	-0.28051
128.000	0.14630	0.15915	-0.22142	-0.36008
129.000	0.11862	0.16910	-0.16409	-0.28250
130.000	0.14037	0.17308	-0.13641	-0.32626
131.000	0.12653	0.14125	-0.09885	-0.36804
132.000	0.12257	0.17507	-0.14827	-0.33223
133.000	0.12455	0.15120	-0.11664	-0.32427
134.000	0.05733	0.13528	-0.13641	-0.39788
135.000	0.11664	0.14523	-0.14630	-0.28648
136.000	0.11071	0.11539	-0.16607	-0.39390
137.000	0.13444	0.14523	-0.14234	-0.39390
138.000	0.13444	0.11738	-0.11467	-0.39390
139.000	0.13444	0.09947	-0.09885	-0.43568
140.000	0.15025	0.14722	-0.16804	-0.41976
141.000	0.13444	0.11738	-0.13444	-0.33024
142.000	0.13048	0.14324	-0.18979	-0.41976
143.000	0.16014	0.12931	-0.16607	-0.35610
144.000	0.15025	0.12334	-0.18979	-0.36605
145.000	0.13641	0.13528	-0.12060	-0.41181
146.000	0.14234	0.13130	-0.11071	-0.31234
147.000	0.14827	0.09947	-0.14827	-0.39987
148.000	0.15816	0.08753	-0.15816	-0.38992
149.000	0.14037	0.14921	-0.16014	-0.39788
150.000	0.16014	0.15319	-0.13444	-0.32427
151.000	0.16804	0.14722	-0.11664	-0.32427
152.000	0.15223	0.12533	-0.09687	-0.45756
153.000	0.16804	0.17905	-0.12653	-0.34616
154.000	0.17200	0.15915	-0.22340	-0.36406
155.000	0.13444	0.15120	-0.14234	-0.35809
156.000	0.18386	0.14523	-0.13048	-0.33422
157.000	0.19375	0.20889	-0.09292	-0.31632
158.000	0.18386	0.17308	-0.11664	-0.31234
159.000	0.15421	0.17706	-0.13641	-0.34417
160.000	0.18979	0.18104	-0.16211	-0.35212
161.000	0.20561	0.21884	-0.11467	-0.28051
162.000	0.17793	0.14722	-0.09292	-0.34218
163.000	0.17398	0.19098	-0.14827	-0.34616
164.000	0.21352	0.18701	-0.09885	-0.36008
165.000	0.19572	0.19695	-0.10676	-0.35411
166.000	0.19572	0.21486	-0.06722	-0.32427
167.000	0.23131	0.23077	-0.15618	-0.37202
168.000	0.20956	0.16711	-0.10676	-0.34815
169.000	0.18584	0.15517	-0.04547	-0.36406
170.000	0.20363	0.18502	-0.09292	-0.30637
171.000	0.17200	0.15716	-0.07117	-0.34815
172.000	0.19375	0.18701	-0.10478	-0.34815
173.000	0.22538	0.16313	-0.11862	-0.34815
174.000	0.18188	0.17308	-0.05536	-0.36406
175.000	0.19770	0.16711	-0.14432	-0.39987
176.000	0.22340	0.18502	-0.15025	-0.32228
177.000	0.18979	0.18303	-0.11664	-0.32030
178.000	0.18386	0.20292	-0.11664	-0.43568
179.000	0.15618	0.16313	-0.09885	-0.41380
180.000	0.16607	0.17706	-0.20165	-0.42573
181.000	0.17200	0.19894	-0.11664	-0.35014
182.000	0.22538	0.18104	-0.09687	-0.31831
183.000	0.19770	0.16313	-0.09292	-0.40584
184.000	0.19770	0.18502	-0.12653	-0.33223
185.000	0.18386	0.18899	-0.13641	-0.36605
186.000	0.19572	0.18104	-0.10478	-0.36207
187.000	0.18979	0.18899	-0.04745	-0.37401
188.000	0.20165	0.21486	-0.12850	-0.37401
189.000	0.21945	0.19894	-0.13048	-0.30637
190.000	0.23131	0.19894	-0.13641	-0.34019
191.000	0.21549	0.24271	-0.10874	-0.35411
192.000	0.18584	0.23475	-0.07513	-0.34019
193.000	0.26492	0.22082	-0.04943	-0.37401
194.000	0.24317	0.22480	-0.12060	-0.32626
195.000	0.22538	0.21685	-0.06524	-0.33024
196.000	0.21549	0.17905	-0.12060	-0.34019
197.000	0.26689	0.24669	-0.12455	-0.29642
198.000	0.23329	0.18700	-0.07710	-0.36804
199.000	0.25701	0.18502	-0.12060	-0.27454
200.000	0.22340	0.15915	-0.11269	-0.34815
201.000	0.26096	0.15517	-0.13444	-0.28449
202.000	0.20561	0.17706	-0.07315	-0.29443
203.000	0.22538	0.17308	-0.10676	-0.37003
204.000	0.18188	0.14125	-0.08501	-0.35610
205.000	0.24119	0.14125	-0.06326	-0.32030
206.000	0.22340	0.17109	-0.13048	-0.35014
207.000	0.24515	0.17308	-0.15618	-0.27454
208.000	0.24910	0.19297	-0.20758	-0.33422
209.000	0.24119	0.14324	-0.11862	-0.26061
210.000	0.19968	0.17706	-0.12257	-0.33621
211.000	0.23724	0.18104	-0.10280	-0.38197
212.000	0.24712	0.16313	-0.03954	-0.29046
213.000	0.24515	0.19496	-0.08303	-0.33422
214.000	0.21747	0.18899	-0.14037	-0.38992
215.000	0.21549	0.18899	-0.13246	-0.35610
216.000	0.18781	0.13528	-0.12257	-0.36605
217.000	0.19177	0.15716	-0.06524	-0.34616
218.000	0.22340	0.16512	-0.10676	-0.35411
219.000	0.18584	0.17507	-0.13444	-0.35014
220.000	0.22340	0.17308	-0.07513	-0.31234
221.000	0.21352	0.15915	-0.07117	-0.31433
222.000	0.25899	0.17706	-0.01977	-0.29244
223.000	0.25899	0.16114	-0.08106	-0.27852
224.000	0.24317	0.18104	-0.03756	-0.29642
225.000	0.26294	0.14921	-0.08501	-0.28051
226.000	0.26887	0.15120	-0.10083	-0.32825
227.000	0.23526	0.17706	-0.04745	-0.28250
228.000	0.24515	0.14921	-0.06129	-0.35014
229.000	0.22735	0.12931	0.03756	-0.37202
230.000	0.23724	0.21088	-0.14037	-0.30637
231.000	0.23724	0.15517	-0.09687	-0.40385
232.000	0.20165	0.13329	-0.06722	-0.35411
233.000	0.22735	0.20491	-0.13641	-0.35610
234.000	0.24712	0.20093	-0.11269	-0.33223
235.000	0.22933	0.13727	-0.04745	-0.42971
236.000	0.22735	0.13926	-0.09490	-0.28648
237.000	0.21945	0.14523	-0.12653	-0.28051
238.000	0.21945	0.17905	-0.06326	-0.24072
239.000	0.23922	0.18502	-0.06129	-0.36406
240.000	0.26492	0.16711	-0.11862	-0.34417
241.000	0.21549	0.17905	-0.04547	-0.36207
242.000	0.22142	0.15319	-0.06129	-0.29244
243.000	0.20956	0.16114	-0.04943	-0.33422
244.000	0.22142	0.17507	-0.09687	-0.36804
245.000	0.20363	0.15319	-0.02175	-0.40385
246.000	0.21352	0.17109	-0.11269	-0.31433
247.000	0.22735	0.15120	-0.05931	-0.35412
248.000	0.23329	0.19496	-0.12653	-0.39589
249.000	0.27282	0.19894	-0.12060	-0.29244
250.000	0.32620	0.21287	-0.11664	-0.35809
251.000	0.25305	0.17905	-0.11862	-0.31234
252.000	0.27085	0.18700	-0.11071	-0.31433
253.000	0.25899	0.17905	-0.10478	-0.42175
254.000	0.28271	0.20889	-0.11862	-0.35014
255.000	0.26096	0.16910	-0.10083	-0.33820
256.000	0.29852	0.18700	0.00791	-0.36008
257.000	0.25701	0.15915	-0.07315	-0.38992
258.000	0.30446	0.17308	-0.04152	-0.36008
259.000	0.26887	0.21685	-0.07710	-0.41578
260.000	0.25899	0.21486	-0.00791	-0.40584
261.000	0.28073	0.18700	-0.02768	-0.36207
262.000	0.25108	0.15517	-0.03954	-0.42573
263.000	0.29457	0.16512	0.02966	-0.39987
264.000	0.30248	0.16313	-0.00198	-0.36008
265.000	0.26689	0.17905	-0.03361	-0.33223
266.000	0.31434	0.16512	-0.02768	-0.35213
267.000	0.29457	0.19098	-0.07710	-0.32825
268.000	0.26492	0.17308	-0.06326	-0.34616
269.000	0.28271	0.19695	-0.01582	-0.33621
270.000	0.26689	0.21486	0.00198	-0.35610
271.000	0.28271	0.19297	-0.03361	-0.40186
272.000	0.30050	0.17507	-0.01582	-0.32030
273.000	0.27480	0.18899	-0.03954	-0.40783
274.000	0.31829	0.17109	-0.07117	-0.42175
275.000	0.26887	0.19297	-0.06326	-0.37799
276.000	0.27876	0.18700	-0.06524	-0.38594
277.000	0.29655	0.19098	-0.06524	-0.38396
278.000	0.29852	0.17706	-0.06326	-0.37799
279.000	0.30841	0.18104	0.04547	-0.41380
280.000	0.30446	0.20491	-0.09490	-0.35411
281.000	0.29062	0.16711	-0.08699	-0.34218
282.000	0.26294	0.14921	0.01186	-0.33223
283.000	0.28666	0.18899	0.03163	-0.37799
284.000	0.32225	0.18899	-0.02768	-0.43369
285.000	0.31039	0.17905	-0.10083	-0.40584
286.000	0.29062	0.16512	-0.04547	-0.44960
287.000	0.30446	0.21287	0.00000	-0.39589
288.000	0.29457	0.19297	-0.06722	-0.42573
289.000	0.27876	0.15318	0.00395	-0.34616
290.000	0.28666	0.18501	-0.00791	-0.38992
291.000	0.30643	0.16114	0.02768	-0.39390
292.000	0.30643	0.16711	-0.01779	-0.39987
293.000	0.32422	0.20093	-0.06129	-0.39191
294.000	0.31039	0.17905	-0.11467	-0.35213
295.000	0.28666	0.14722	0.01779	-0.38793
296.000	0.32620	0.18104	-0.09292	-0.39589
297.000	0.29457	0.16910	-0.04745	-0.36605
298.000	0.31039	0.17507	-0.04745	-0.40385
299.000	0.29457	0.17308	-0.01779	-0.43170
300.000	0.30248	0.21287	-0.01779	-0.39390
301.000	0.28864	0.13130	-0.01384	-0.36406
302.000	0.31236	0.17109	0.02768	-0.39987
303.000	0.32225	0.13329	-0.01384	-0.35014
304.000	0.33016	0.17109	-0.01582	-0.40783
305.000	0.31039	0.14523	-0.08897	-0.41777
306.000	0.34399	0.15915	-0.08106	-0.38594
307.000	0.32818	0.19297	-0.03361	-0.38594
308.000	0.31236	0.15318	-0.00989	-0.37600
309.000	0.26887	0.15318	-0.00395	-0.40186
310.000	0.26887	0.10743	-0.01779	-0.37401
311.000	0.30446	0.14125	0.01779	-0.39191
312.000	0.32620	0.12135	-0.01384	-0.37600
313.000	0.32225	0.10942	-0.10676	-0.35213
314.000	0.28469	0.10743	-0.05338	-0.32825
315.000	0.29457	0.11738	-0.06920	-0.36406
316.000	0.29259	0.11539	-0.05338	-0.39788
317.000	0.31039	0.13727	-0.03559	-0.39191
318.000	0.32027	0.13130	0.01977	-0.43966
319.000	0.30446	0.14324	-0.07710	-0.33422
320.000	0.29457	0.14125	0.02372	-0.39788
321.000	0.29852	0.14921	-0.05338	-0.37003
322.000	0.32027	0.16114	-0.10280	-0.42772
323.000	0.29259	0.12931	-0.04349	-0.40385
324.000	0.34597	0.14920	-0.06326	-0.37401
325.000	0.29457	0.14921	-0.04943	-0.42971
326.000	0.35190	0.10942	-0.01186	-0.37003
327.000	0.30841	0.12533	0.08106	-0.41777
328.000	0.32818	0.16910	-0.06129	-0.39788
329.000	0.31434	0.12732	-0.08303	-0.35213
330.000	0.32225	0.13727	-0.09094	-0.34815
331.000	0.29062	0.13329	-0.06524	-0.37202
332.000	0.31039	0.14324	0.00000	-0.42175
333.000	0.31236	0.13727	-0.08699	-0.37401
334.000	0.34004	0.14324	-0.07315	-0.31035
335.000	0.28666	0.13926	-0.05733	-0.40186
336.000	0.32422	0.17706	-0.03559	-0.41976
337.000	0.31236	0.13130	-0.03559	-0.34218
338.000	0.32620	0.14324	-0.06524	-0.31433
339.000	0.31829	0.10146	-0.02570	-0.36207
340.000	0.32422	0.14722	-0.00791	-0.38594
341.000	0.31434	0.14722	-0.02966	-0.36207
342.000	0.37760	0.12533	-0.05338	-0.39788
343.000	0.30643	0.12931	-0.06326	-0.36406
344.000	0.31236	0.15716	-0.05536	-0.42971
345.000	0.28073	0.12732	-0.00593	-0.40584
346.000	0.30841	0.15915	0.01582	-0.30438
347.000	0.28666	0.13528	-0.01977	-0.34218
348.000	0.31236	0.17109	0.06129	-0.40982
349.000	0.27282	0.13727	0.01977	-0.47546
350.000	0.30248	0.15119	-0.09687	-0.36605
351.000	0.30643	0.14722	0.01384	-0.38197
352.000	0.34993	0.14523	-0.06524	-0.32626
353.000	0.29062	0.16512	-0.04547	-0.38197
354.000	0.30643	0.12931	0.03163	-0.36804
355.000	0.31829	0.17507	-0.05931	-0.39390
356.000	0.29655	0.11936	0.00989	-0.42772
357.000	0.30446	0.11737	-0.01779	-0.32030
358.000	0.32027	0.09947	0.05140	-0.36605
359.000	0.30248	0.13528	-0.01977	-0.36207
360.000	0.29259	0.09350	-0.03559	-0.27255
361.000	0.28271	0.13130	-0.03954	-0.33621
362.000	0.33411	0.09748	0.00989	-0.32626
363.000	0.30050	0.09549	-0.03361	-0.39390
364.000	0.34202	0.11340	-0.03163	-0.39589
365.000	0.28666	0.12732	-0.04745	-0.34218
366.000	0.32422	0.10146	-0.01779	-0.32825
367.000	0.31632	0.10743	0.02175	-0.30637
368.000	0.31434	0.13727	0.05140	-0.40186
369.000	0.29852	0.16313	0.02175	-0.41181
370.000	0.32620	0.12334	0.02372	-0.35213
371.000	0.34597	0.08952	0.05931	-0.35014
372.000	0.30643	0.15517	-0.04547	-0.37799
373.000	0.31829	0.09947	-0.01582	-0.38396
374.000	0.32422	0.12931	-0.06722	-0.39390
375.000	0.34004	0.08753	-0.00395	-0.43767
376.000	0.32422	0.10743	-0.06524	-0.33422
377.000	0.29457	0.13130	-0.03559	-0.36406
378.000	0.31039	0.10544	-0.03756	-0.34019
379.000	0.35981	0.11936	-0.07513	-0.38197
380.000	0.30643	0.11539	-0.05338	-0.36605
381.000	0.34004	0.14920	-0.08106	-0.36008
382.000	0.35586	0.12533	-0.05536	-0.40186
383.000	0.37563	0.17507	-0.03163	-0.36605
384.000	0.37365	0.12931	-0.04349	-0.40186
385.000	0.37563	0.15119	-0.01384	-0.37003
386.000	0.35981	0.13727	-0.08303	-0.37202
387.000	0.35783	0.14722	-0.06722	-0.36804
388.000	0.32620	0.12732	-0.03163	-0.38594
389.000	0.34399	0.13130	-0.03559	-0.36207
390.000	0.32818	0.12533	-0.01384	-0.31632
391.000	0.33213	0.13727	-0.01384	-0.37401
392.000	0.32620	0.09947	0.00989	-0.37998
393.000	0.35388	0.11936	-0.03361	-0.38594
394.000	0.32027	0.09549	-0.03163	-0.33223
395.000	0.35190	0.12135	0.00000	-0.34218
396.000	0.31632	0.10345	0.00989	-0.36008
397.000	0.33411	0.10544	0.00198	-0.40584
398.000	0.32620	0.11936	-0.02768	-0.32626
399.000	0.37167	0.15517	-0.01582	-0.34815
400.000	0.34993	0.11737	-0.12850	-0.38197
401.000	0.36574	0.10146	-0.05338	-0.34417
402.000	0.37958	0.14125	0.09292	-0.33422
403.000	0.35190	0.14920	-0.06524	-0.34218
404.000	0.34399	0.12334	-0.03954	-0.29443
405.000	0.34993	0.09748	-0.03559	-0.37401
406.000	0.36376	0.09549	-0.08699	-0.35610
407.000	0.35190	0.12334	0.01582	-0.33621
408.000	0.35783	0.13329	-0.04349	-0.35213
409.000	0.37365	0.10544	-0.00198	-0.29046
410.000	0.36179	0.16711	0.03361	-0.31234
411.000	0.33806	0.11141	0.00395	-0.38197
412.000	0.36574	0.15119	-0.06722	-0.35610
413.000	0.37167	0.12135	0.01384	-0.41976
414.000	0.33806	0.12533	-0.01186	-0.35014
415.000	0.37167	0.16512	0.02768	-0.41181
416.000	0.34795	0.09549	-0.00989	-0.30040
417.000	0.38749	0.10544	-0.02570	-0.35213
418.000	0.35190	0.12533	-0.05140	-0.35809
419.000	0.31829	0.09549	-0.08699	-0.36804
420.000	0.31434	0.16114	-0.02570	-0.34218
421.000	0.34993	0.08952	-0.08106	-0.37401
422.000	0.34202	0.11141	-0.05140	-0.33223
423.000	0.34202	0.08952	-0.10280	-0.34019
424.000	0.38156	0.12931	0.00000	-0.34417
425.000	0.32818	0.11936	-0.02570	-0.31831
426.000	0.39539	0.12334	-0.05733	-0.36605
427.000	0.45075	0.12732	0.10874	-0.36207
428.000	0.45865	0.19098	0.00000	-0.37003
429.000	0.51598	0.19695	0.05733	-0.30637
430.000	0.53575	0.18700	0.08699	-0.33422
431.000	0.56540	0.19694	0.12455	-0.33223
432.000	0.59703	0.20092	0.17595	-0.26857
433.000	0.66227	0.20888	0.13246	-0.21685
434.000	0.69587	0.23076	0.12455	-0.29841
435.000	0.68006	0.25861	0.28864	-0.27454
436.000	0.72354	0.31430	0.22735	-0.29045
437.000	0.68401	0.29839	0.19968	-0.24669
438.000	0.63855	0.28248	0.26887	-0.27454
439.000	0.62075	0.27055	0.26689	-0.27056
440.000	0.62273	0.25861	0.20363	-0.27653
441.000	0.57133	0.24668	0.12653	-0.28847
442.000	0.54761	0.26458	0.11664	-0.30040
443.000	0.51005	0.23872	0.11071	-0.29045
444.000	0.49028	0.23872	0.07315	-0.32030
445.000	0.43493	0.19695	0.01582	-0.32229
446.000	0.37760	0.19098	-0.03361	-0.37998
447.000	0.44086	0.15119	-0.04745	-0.32030
448.000	0.42702	0.17904	-0.00989	-0.37998
449.000	0.39935	0.11737	0.00395	-0.46552
450.000	0.38353	0.11340	-0.00198	-0.39788
451.000	0.45470	0.12135	-0.03756	-0.43369
452.000	0.43098	0.12732	0.02570	-0.35014
453.000	0.46656	0.15915	-0.01779	-0.32229
454.000	0.50610	0.16512	0.01582	-0.31035
455.000	0.47645	0.14920	0.04349	-0.38197
456.000	0.47645	0.11538	0.05536	-0.36207
457.000	0.50808	0.17705	0.12455	-0.36406
458.000	0.49622	0.15716	0.08303	-0.38396
459.000	0.52784	0.18103	0.08699	-0.39191
460.000	0.48435	0.19098	0.16409	-0.35014
461.000	0.49028	0.22082	0.13246	-0.34019
462.000	0.54168	0.21087	0.15025	-0.40186
463.000	0.52982	0.26060	0.09885	-0.39191
464.000	0.51994	0.22679	0.18584	-0.38196
465.000	0.49028	0.23076	0.13444	-0.36605
466.000	0.50808	0.22281	0.12060	-0.38992
467.000	0.53180	0.24867	0.09687	-0.34218
468.000	0.50215	0.24270	0.15421	-0.40982
469.000	0.52587	0.24469	0.09885	-0.32427
470.000	0.55552	0.25264	0.13839	-0.35411
471.000	0.52784	0.26060	0.16607	-0.37401
472.000	0.49819	0.26856	0.06920	-0.38793
473.000	0.52784	0.21883	0.12455	-0.37401
474.000	0.51401	0.22281	0.09094	-0.34218
475.000	0.50808	0.20092	0.15816	-0.36406
476.000	0.51994	0.20092	0.12455	-0.28449
477.000	0.47842	0.19297	0.13246	-0.38992
478.000	0.49028	0.14522	0.11269	-0.30040
479.000	0.48238	0.19297	0.15025	-0.36406
480.000	0.45668	0.13130	0.08106	-0.40584
481.000	0.46261	0.19297	0.17398	-0.36605
482.000	0.47447	0.14323	0.15223	-0.39589
483.000	0.45075	0.16910	0.16804	-0.36207
484.000	0.48633	0.19695	0.11467	-0.32825
485.000	0.47645	0.17506	0.16014	-0.30836
486.000	0.45470	0.20292	0.11862	-0.40385
487.000	0.46459	0.19098	0.17002	-0.35809
488.000	0.49622	0.19496	0.05140	-0.33820
489.000	0.48040	0.14721	0.15816	-0.32825
490.000	0.44482	0.18302	0.10676	-0.39589
491.000	0.44086	0.20888	0.13839	-0.44960
492.000	0.48435	0.16711	0.21549	-0.37401
493.000	0.49028	0.19496	0.06722	-0.40584
494.000	0.51203	0.18501	0.17002	-0.42971
495.000	0.53378	0.18899	0.17595	-0.34019
496.000	0.46261	0.14323	0.13048	-0.31632
497.000	0.46854	0.17705	0.17793	-0.41578
498.000	0.47645	0.16313	0.11467	-0.36605
499.000	0.46459	0.17307	0.12455	-0.36804
500.000	0.49819	0.18302	0.06524	-0.43170
501.000	0.47842	0.18501	0.14432	-0.34616
502.000	0.46063	0.17109	0.15025	-0.33422
503.000	0.48633	0.17705	0.14630	-0.37401
504.000	0.52191	0.21883	0.06524	-0.36207
505.000	0.53971	0.23872	0.14037	-0.31831
506.000	0.53378	0.21883	0.14037	-0.34616
507.000	0.50412	0.22281	0.08699	-0.37401
508.000	0.53575	0.19496	0.15223	-0.40385
509.000	0.53773	0.24469	0.11269	-0.38395
510.000	0.54168	0.18103	0.18781	-0.35013
511.000	0.55947	0.22281	0.18781	-0.45756
512.000	0.55947	0.19297	0.15025	-0.32427
513.000	0.53575	0.22281	0.13246	-0.38793
514.000	0.51401	0.18103	0.20561	-0.39788
515.000	0.50412	0.18501	0.19375	-0.34417
516.000	0.53971	0.16909	0.15223	-0.33223
517.000	0.49622	0.18700	0.13246	-0.35212
518.000	0.45272	0.13727	0.21154	-0.32825
519.000	0.48040	0.19695	0.19572	-0.36207
520.000	0.52389	0.19496	0.17991	-0.39788
521.000	0.52784	0.17307	0.16409	-0.27852
522.000	0.51401	0.16711	0.09292	-0.31234
523.000	0.47249	0.15915	0.14037	-0.45955
524.000	0.48040	0.09947	0.22142	-0.33422
525.000	0.50808	0.14522	0.17991	-0.37003
526.000	0.51005	0.14721	0.17200	-0.33422
527.000	0.50412	0.14721	0.16014	-0.37202
528.000	0.50215	0.12533	0.18584	-0.36207
529.000	0.49226	0.14522	0.14827	-0.37401
530.000	0.53378	0.16512	0.17002	-0.38196
531.000	0.46854	0.16711	0.13246	-0.44562
532.000	0.48435	0.14721	0.18781	-0.38793
533.000	0.43691	0.14522	0.16409	-0.39191
534.000	0.48633	0.16711	0.09885	-0.36008
535.000	0.48633	0.14124	0.18781	-0.34417
536.000	0.47249	0.10146	0.17991	-0.40385
537.000	0.48238	0.17108	0.17002	-0.36804
538.000	0.47249	0.15119	0.18781	-0.37799
539.000	0.48435	0.15318	0.14827	-0.35212
540.000	0.48633	0.13926	0.14234	-0.34616
541.000	0.47052	0.16512	0.12653	-0.40584
542.000	0.46063	0.15517	0.14827	-0.40783
543.000	0.47052	0.18302	0.19177	-0.42971
544.000	0.48040	0.15318	0.10083	-0.41380
545.000	0.48633	0.16711	0.12850	-0.43568
546.000	0.46854	0.15517	0.17200	-0.39987
547.000	0.43098	0.11737	0.14827	-0.41379
548.000	0.50412	0.15716	0.15421	-0.38594
549.000	0.47645	0.16910	0.17595	-0.39390
550.000	0.45470	0.14323	0.13839	-0.40982
551.000	0.42702	0.16711	0.23329	-0.38992
552.000	0.42702	0.10743	0.14037	-0.33820
553.000	0.47052	0.17904	0.17398	-0.33223
554.000	0.44086	0.16512	0.15618	-0.34417
555.000	0.45470	0.16512	0.16014	-0.41180
556.000	0.47249	0.20490	0.18584	-0.37202
557.000	0.49622	0.21286	0.21549	-0.40981
558.000	0.43493	0.22082	0.20956	-0.39390
559.000	0.43098	0.23077	0.18188	-0.42971
560.000	0.49028	0.22480	0.23526	-0.40186
561.000	0.50610	0.21883	0.20561	-0.40584
562.000	0.46459	0.26458	0.13444	-0.38197
563.000	0.48040	0.20888	0.18188	-0.36605
564.000	0.46459	0.22480	0.17200	-0.33621
565.000	0.46063	0.22281	0.13246	-0.34815
566.000	0.49424	0.21684	0.11862	-0.33621
567.000	0.48633	0.14522	0.15025	-0.33621
568.000	0.43493	0.15915	0.23329	-0.35610
569.000	0.43691	0.19496	0.17595	-0.30040
570.000	0.46063	0.15915	0.14037	-0.33422
571.000	0.47447	0.16313	0.17595	-0.34019
572.000	0.46063	0.15915	0.18386	-0.35212
573.000	0.46656	0.18103	0.14827	-0.41180
574.000	0.47447	0.18899	0.18979	-0.33024
575.000	0.44877	0.17904	0.20561	-0.39390
576.000	0.51203	0.20888	0.06326	-0.33820
577.000	0.48831	0.18899	0.24515	-0.32029
578.000	0.49424	0.20291	0.16409	-0.36008
579.000	0.50412	0.18302	0.09094	-0.33223
580.000	0.52982	0.19098	0.16409	-0.31035
581.000	0.51598	0.18103	0.16804	-0.34815
582.000	0.48831	0.14323	0.16211	-0.35014
583.000	0.51994	0.16711	0.17200	-0.32029
584.000	0.48633	0.11140	0.10874	-0.29443
585.000	0.50017	0.12533	0.15223	-0.30438
586.000	0.49622	0.15318	0.20956	-0.28449
587.000	0.47447	0.14721	0.14432	-0.34815
588.000	0.49819	0.15915	0.11467	-0.33024
589.000	0.51005	0.14323	0.17991	-0.33223
590.000	0.48633	0.14323	0.18979	-0.37600
591.000	0.50215	0.15119	0.07710	-0.36207
592.000	0.46063	0.13926	0.15223	-0.27454
593.000	0.45272	0.16114	0.10083	-0.24271
594.000	0.46063	0.13727	0.18386	-0.28449
595.000	0.52587	0.16909	0.21549	-0.36605
596.000	0.50017	0.14721	0.16607	-0.29642
597.000	0.48435	0.12135	0.21945	-0.36008
598.000	0.51994	0.18899	0.16409	-0.35610
599.000	0.46656	0.16910	0.26294	-0.38793
600.000	0.48238	0.16711	0.13246	-0.34616
601.000	0.50215	0.15318	0.25108	-0.35013
602.000	0.47052	0.14920	0.18386	-0.38793
603.000	0.46854	0.14522	0.15618	-0.37003
604.000	0.49226	0.18899	0.18979	-0.32029
605.000	0.46854	0.18103	0.18188	-0.28250
606.000	0.48435	0.18501	0.14827	-0.28846
607.000	0.46261	0.18700	0.25899	-0.38196
608.000	0.50412	0.16910	0.18979	-0.28846
609.000	0.49226	0.22878	0.14234	-0.35014
610.000	0.46063	0.18302	0.18979	-0.34019
611.000	0.47842	0.22480	0.19968	-0.32427
612.000	0.46459	0.19098	0.21747	-0.34019
613.000	0.46261	0.19496	0.17200	-0.39788
614.000	0.48831	0.22480	0.15421	-0.32228
615.000	0.50017	0.21684	0.16607	-0.35212
616.000	0.47645	0.17109	0.15421	-0.30040
617.000	0.46656	0.18899	0.13839	-0.38395
618.000	0.46063	0.22082	0.19572	-0.45358
619.000	0.47842	0.19297	0.21154	-0.34616
620.000	0.44877	0.17705	0.21154	-0.34218
621.000	0.44482	0.19894	0.20363	-0.38594
622.000	0.47052	0.19098	0.17398	-0.34218
623.000	0.48040	0.19894	0.16409	-0.28648
624.000	0.40726	0.16711	0.09885	-0.37401
625.000	0.44284	0.17506	0.18781	-0.39987
626.000	0.48040	0.17109	0.15816	-0.38395
627.000	0.46261	0.13926	0.15421	-0.39788
628.000	0.48633	0.17108	0.27678	-0.37599
629.000	0.46261	0.13926	0.18781	-0.37202
630.000	0.46854	0.16512	0.19572	-0.36804
631.000	0.40726	0.15318	0.21352	-0.44960
632.000	0.45470	0.15915	0.18386	-0.41777
633.000	0.49226	0.15915	0.19572	-0.39191
634.000	0.46459	0.15119	0.24515	-0.36804
635.000	0.44284	0.12334	0.15223	-0.40385
636.000	0.45470	0.12732	0.17595	-0.39987
637.000	0.47249	0.16711	0.19770	-0.42374
638.000	0.48040	0.15119	0.21549	-0.38196
639.000	0.43493	0.13329	0.11664	-0.36605
640.000	0.49028	0.15915	0.18781	-0.43767
641.000	0.48238	0.13329	0.19375	-0.42374
642.000	0.46261	0.14522	0.21154	-0.43568
643.000	0.47249	0.16313	0.21747	-0.41379
644.000	0.47249	0.11339	0.21352	-0.45557
645.000	0.47249	0.15517	0.13641	-0.44363
646.000	0.43296	0.13926	0.17398	-0.44363
647.000	0.46854	0.14920	0.19375	-0.47944
648.000	0.41714	0.12533	0.18188	-0.44960
649.000	0.43493	0.16114	0.17793	-0.37401
650.000	0.43493	0.13727	0.24712	-0.38594
651.000	0.45865	0.12732	0.15816	-0.42772
652.000	0.44877	0.13130	0.21945	-0.42175
653.000	0.46854	0.13329	0.16804	-0.42175
654.000	0.48435	0.13926	0.19572	-0.44164
655.000	0.47447	0.14323	0.28864	-0.44562
656.000	0.44284	0.15318	0.17793	-0.40982
657.000	0.47447	0.15318	0.14827	-0.38594
658.000	0.46261	0.16114	0.19968	-0.42772
659.000	0.48238	0.18501	0.16014	-0.38793
660.000	0.46854	0.12135	0.22340	-0.40186
661.000	0.45075	0.15517	0.10083	-0.38992
662.000	0.43889	0.20888	0.21747	-0.40584
663.000	0.42505	0.19496	0.15223	-0.41180
664.000	0.44284	0.14125	0.21352	-0.37798
665.000	0.41319	0.16313	0.19375	-0.41976
666.000	0.44482	0.13926	0.18979	-0.40186
667.000	0.39342	0.16512	0.21747	-0.43766
668.000	0.41319	0.16313	0.10676	-0.44562
669.000	0.45865	0.16711	0.21352	-0.42374
670.000	0.48435	0.13926	0.23724	-0.41379
671.000	0.45668	0.17307	0.22735	-0.41578
672.000	0.49424	0.12732	0.19572	-0.42772
673.000	0.42702	0.16711	0.20956	-0.39589
674.000	0.46656	0.15716	0.21747	-0.41976
675.000	0.45470	0.12931	0.18584	-0.37401
676.000	0.41912	0.14125	0.19968	-0.34616
677.000	0.47447	0.21286	0.28073	-0.45954
678.000	0.45668	0.13528	0.20758	-0.40385
679.000	0.44482	0.16313	0.17595	-0.40783
680.000	0.45668	0.15318	0.18979	-0.40584
681.000	0.48435	0.18899	0.23922	-0.38992
682.000	0.48040	0.16114	0.26492	-0.43965
683.000	0.49622	0.17904	0.22735	-0.35013
684.000	0.49226	0.16512	0.19968	-0.45756
685.000	0.47447	0.20291	0.18188	-0.46750
686.000	0.48435	0.13130	0.22142	-0.37997
687.000	0.44482	0.15915	0.24515	-0.40782
688.000	0.50808	0.21485	0.19572	-0.42772
689.000	0.47447	0.19297	0.20363	-0.43568
690.000	0.45865	0.13528	0.15421	-0.40385
691.000	0.45865	0.14522	0.22735	-0.37600
692.000	0.44679	0.12334	0.15816	-0.40385
693.000	0.42702	0.15119	0.16211	-0.43568
694.000	0.49424	0.16114	0.20561	-0.40186
695.000	0.48238	0.14323	0.22735	-0.41379
696.000	0.46854	0.08952	0.19770	-0.41379
697.000	0.46261	0.12533	0.17793	-0.48939
698.000	0.45470	0.09549	0.20165	-0.45557
699.000	0.49226	0.12334	0.16607	-0.45955
700.000	0.47645	0.13130	0.16211	-0.41976
701.000	0.44877	0.13130	0.14037	-0.48541
702.000	0.49424	0.09748	0.19177	-0.45159
703.000	0.44679	0.14721	0.25701	-0.45159
704.000	0.43691	0.13528	0.16211	-0.41180
705.000	0.48435	0.15318	0.22538	-0.53315
706.000	0.46261	0.14920	0.15816	-0.44562
707.000	0.49424	0.18302	0.14827	-0.44761
708.000	0.48238	0.16114	0.19177	-0.48939
709.000	0.46656	0.13130	0.18584	-0.52519
710.000	0.45668	0.13727	0.20956	-0.43965
711.000	0.48040	0.16114	0.16409	-0.45358
712.000	0.47645	0.11936	0.25701	-0.44761
713.000	0.41912	0.14721	0.24119	-0.37003
714.000	0.44482	0.14920	0.17398	-0.45358
715.000	0.46261	0.14920	0.27480	-0.40186
716.000	0.44482	0.17109	0.15816	-0.46949
717.000	0.41912	0.14324	0.23526	-0.45557
718.000	0.39737	0.11737	0.13444	-0.45756
719.000	0.43691	0.16910	0.24317	-0.40782
720.000	0.46063	0.13727	0.16409	-0.42772
721.000	0.40528	0.16910	0.23329	-0.33024
722.000	0.49622	0.17506	0.22142	-0.29841
723.000	0.45668	0.19894	0.19968	-0.38793
724.000	0.45865	0.18899	0.17991	-0.35809
725.000	0.45272	0.21684	0.27282	-0.41777
726.000	0.43889	0.15716	0.20363	-0.39788
727.000	0.45272	0.18899	0.18979	-0.40783
728.000	0.47052	0.23673	0.18979	-0.31035
729.000	0.45272	0.18700	0.21154	-0.27056
730.000	0.45272	0.14125	0.20956	-0.36207
731.000	0.47249	0.16711	0.17793	-0.31632
732.000	0.49819	0.22480	0.20758	-0.43568
733.000	0.49028	0.18302	0.24515	-0.37798
734.000	0.48040	0.20093	0.19770	-0.35610
735.000	0.45075	0.22480	0.12850	-0.35212
736.000	0.49622	0.17904	0.25108	-0.35013
737.000	0.49226	0.21485	0.25503	-0.31830
738.000	0.49819	0.22480	0.22142	-0.31433
739.000	0.46261	0.18899	0.19177	-0.40186
740.000	0.49226	0.20291	0.17200	-0.38594
741.000	0.46854	0.19297	0.26492	-0.46352
742.000	0.45470	0.10743	0.27480	-0.43766
743.000	0.54168	0.07758	0.21549	-0.51326
744.000	0.57727	-0.01194	0.34795	-0.57691
745.000	0.68006	-0.05968	0.44877	-0.68829
746.000	0.80063	-0.13925	0.47052	-0.84144
747.000	0.86388	-0.31031	0.69192	-0.88914
748.000	1.02200	-0.45948	0.77098	-1.11384
749.000	1.16232	-0.59868	0.90737	-1.21919
750.000	1.22160	-0.76969	0.98840	-1.36230
751.000	1.32040	-0.89494	1.12477	-1.60475
752.000	1.43303	-1.08179	1.25915	-1.78153
753.000	1.51798	-1.17319	1.41327	-1.90857
754.000	1.59898	-1.33216	1.41722	-1.95625
755.000	1.64639	-1.45138	1.50810	-2.16074
756.000	1.70762	-1.55069	1.57132	-2.18252
757.000	1.72738	-1.56459	1.55354	-2.26793
758.000	1.68787	-1.62224	1.54564	-2.35927
759.000	1.72343	-1.75334	1.53971	-2.37317
760.000	1.65034	-1.72559	1.52193	-2.47642
761.000	1.69182	-1.72357	1.42710	-2.47851
762.000	1.65034	-1.71367	1.36585	-2.48453
763.000	1.61083	-1.68589	1.41129	-2.40706
764.000	1.57527	-1.64220	1.23346	-2.38539
765.000	1.54564	-1.57864	1.28681	-2.31783
766.000	1.53576	-1.51307	1.17022	-2.22658
767.000	1.51206	-1.47731	1.27693	-2.20663
768.000	1.53576	-1.37593	1.21765	-2.11929
769.000	1.53774	-1.31431	1.25717	-2.04775
770.000	1.54169	-1.31431	1.19591	-1.99416
771.000	1.53181	-1.27456	1.17418	-1.88888
772.000	1.56540	-1.22286	1.19196	-1.83920
773.000	1.55354	-1.17118	1.18603	-1.81933
774.000	1.54564	-1.19504	1.29867	-1.82124
775.000	1.55157	-1.19305	1.22555	-1.81335
776.000	1.55354	-1.16124	1.25520	-1.81929
777.000	1.57132	-1.16919	1.27891	-1.81530
778.000	1.54762	-1.18510	1.29274	-1.87291
779.000	1.57132	-1.18111	1.24729	-1.86102
780.000	1.53576	-1.22884	1.32040	-1.91659
781.000	1.56342	-1.28051	1.23741	-1.98221
782.000	1.54564	-1.23878	1.22358	-1.93057
783.000	1.56145	-1.27256	1.37771	-2.05163
784.000	1.52589	-1.32028	1.26508	-1.95041
785.000	1.56935	-1.28845	1.33028	-2.02585
786.000	1.57725	-1.29242	1.34807	-2.10528
787.000	1.56145	-1.32225	1.34016	-2.05365
788.000	1.61478	-1.33017	1.36783	-2.13704
789.000	1.57725	-1.35802	1.32633	-2.13907
790.000	1.56737	-1.35405	1.36190	-2.12513
791.000	1.63256	-1.38580	1.27298	-2.15897
792.000	1.56935	-1.44547	1.41722	-2.10721
793.000	1.58910	-1.41366	1.27298	-2.11130
794.000	1.61873	-1.41960	1.33028	-2.14899
795.000	1.65034	-1.40765	1.22358	-2.13717
796.000	1.64046	-1.41164	1.37771	-2.16087
797.000	1.64837	-1.41560	1.38166	-2.15689
798.000	1.62664	-1.44742	1.35795	-2.13507
799.000	1.64441	-1.47523	1.33424	-2.14700
800.000	1.65824	-1.42752	1.36387	-2.15095
801.000	1.64046	-1.44940	1.36783	-2.13704
802.000	1.63454	-1.40369	1.29669	-2.15299
803.000	1.67404	-1.44937	1.27693	-2.14904
804.000	1.64441	-1.48318	1.30460	-2.14504
805.000	1.60096	-1.47526	1.30262	-2.09142
806.000	1.63849	-1.43946	1.37771	-2.17676
807.000	1.63651	-1.45139	1.27496	-2.16096
808.000	1.62466	-1.44742	1.29076	-2.09540
809.000	1.62071	-1.43351	1.29669	-2.14505
810.000	1.65232	-1.42355	1.32040	-2.10729
811.000	1.64046	-1.42952	1.30657	-2.16887
812.000	1.66812	-1.40565	1.33424	-2.15693
813.000	1.62071	-1.39774	1.34016	-2.10330
814.000	1.60293	-1.35402	1.28286	-2.18081
815.000	1.62071	-1.43152	1.31052	-2.12716
816.000	1.60886	-1.35800	1.29274	-2.09540
817.000	1.63454	-1.38183	1.31052	-2.07751
818.000	1.64837	-1.38579	1.39549	-2.13503
819.000	1.64441	-1.35797	1.36585	-2.13506
820.000	1.59700	-1.41167	1.38956	-2.12511
821.000	1.61083	-1.38184	1.36387	-2.09732
822.000	1.63059	-1.39773	1.29076	-2.13314
823.000	1.61676	-1.39774	1.29274	-2.08149
824.000	1.61478	-1.42755	1.30460	-2.14703
825.000	1.58713	-1.38981	1.32436	-2.08345
826.000	1.63651	-1.35996	1.31645	-2.14702
827.000	1.62466	-1.35202	1.29472	-2.12122
828.000	1.60688	-1.37191	1.19591	-2.08157
829.000	1.65429	-1.35200	1.32831	-2.19269
830.000	1.63059	-1.34804	1.32633	-2.12914
831.000	1.61478	-1.35402	1.34214	-2.12515
832.000	1.64639	-1.33014	1.30855	-2.14504
833.000	1.59898	-1.32421	1.36190	-2.16883
834.000	1.62664	-1.39575	1.34609	-2.09138
835.000	1.62466	-1.35997	1.26903	-2.21459
836.000	1.62466	-1.33811	1.35004	-2.17082
837.000	1.61478	-1.34408	1.39351	-2.12312
838.000	1.67207	-1.33609	1.29669	-2.12519
839.000	1.59108	-1.36397	1.32436	-2.10928
840.000	1.63256	-1.33214	1.31052	-2.10531
841.000	1.64441	-1.33611	1.34214	-2.13905
842.000	1.63256	-1.36195	1.29274	-2.06560
843.000	1.64046	-1.35599	1.30064	-2.11327
844.000	1.61676	-1.36992	1.32238	-2.15099
845.000	1.63651	-1.33810	1.26705	-2.18281
846.000	1.61873	-1.33811	1.23939	-2.11530
847.000	1.62664	-1.36991	1.28681	-2.18081
848.000	1.66022	-1.35995	1.30657	-2.17483
849.000	1.64441	-1.33611	1.25717	-2.14707
850.000	1.65824	-1.35597	1.27100	-2.15103
851.000	1.66022	-1.36989	1.25915	-2.13316
852.000	1.66022	-1.35200	1.32436	-2.18475
853.000	1.64046	-1.35002	1.27891	-2.19074
854.000	1.64837	-1.34207	1.31250	-2.18277
855.000	1.64441	-1.37586	1.34016	-2.22644
856.000	1.62861	-1.35798	1.28681	-2.20265
857.000	1.63454	-1.36394	1.28286	-2.24039
858.000	1.66614	-1.35597	1.29472	-2.16293
859.000	1.65824	-1.33809	1.29669	-2.16292
860.000	1.62664	-1.31227	1.30855	-2.19271
861.000	1.61281	-1.36594	1.16825	-2.22857
862.000	1.62269	-1.32817	1.26112	-2.23644
863.000	1.66614	-1.37386	1.30657	-2.23838
864.000	1.64441	-1.33611	1.22555	-2.21065
865.000	1.67800	-1.35397	1.26903	-2.16493
866.000	1.67997	-1.33608	1.31250	-2.18079
867.000	1.64639	-1.34605	1.27891	-2.26025
868.000	1.69775	-1.37980	1.27891	-2.24238
869.000	1.67009	-1.30429	1.28088	-2.18081
870.000	1.68195	-1.38179	1.26705	-2.24636
871.000	1.66219	-1.38578	1.21370	-2.23052
872.000	1.68787	-1.35397	1.21370	-2.23648
873.000	1.64441	-1.36592	1.26310	-2.28608
874.000	1.66614	-1.33411	1.28681	-2.22053
875.000	1.68590	-1.31621	1.29669	-2.24634
876.000	1.64441	-1.32220	1.27891	-2.20266
877.000	1.68392	-1.32813	1.30262	-2.29995
878.000	1.65824	-1.34206	1.27693	-2.23245
879.000	1.65627	-1.30032	1.37375	-2.24627
880.000	1.67009	-1.35000	1.25915	-2.26623
881.000	1.68787	-1.31819	1.28286	-2.29997
882.000	1.72145	-1.34599	1.28681	-2.24039
883.000	1.67602	-1.36590	1.30657	-2.19668
884.000	1.67404	-1.32019	1.31250	-2.28604
885.000	1.69577	-1.31024	1.27891	-2.28408
886.000	1.67207	-1.33410	1.20579	-2.32982
887.000	1.66614	-1.32417	1.24927	-2.29007
888.000	1.64046	-1.32220	1.28088	-2.28805
889.000	1.67602	-1.32019	1.25520	-2.27616
890.000	1.68787	-1.31024	1.27298	-2.25827
891.000	1.65627	-1.34008	1.31645	-2.24036
892.000	1.69775	-1.31421	1.19196	-2.23252
893.000	1.66417	-1.35796	1.21567	-2.28811
894.000	1.65034	-1.32418	1.24927	-2.23645
895.000	1.66219	-1.33212	1.20382	-2.26826
896.000	1.67800	-1.36391	1.26310	-2.25034
897.000	1.67997	-1.28441	1.21567	-2.30002
898.000	1.68985	-1.28241	1.29867	-2.27215
899.000	1.69577	-1.28241	1.23544	-2.28213
900.000	1.67800	-1.33807	1.22358	-2.22257
901.000	1.67997	-1.29633	1.23346	-2.25433
902.000	1.69380	-1.28639	1.20579	-2.31393
903.000	1.67602	-1.29435	1.24532	-2.28610
904.000	1.67207	-1.32218	1.28484	-2.33769
905.000	1.66812	-1.35001	1.24927	-2.27617
906.000	1.68590	-1.30826	1.24532	-2.30993
907.000	1.69972	-1.34005	1.17022	-2.27822
908.000	1.71158	-1.35395	1.19987	-2.31990
909.000	1.67997	-1.32217	1.24136	-2.26624
910.000	1.69577	-1.34800	1.23346	-2.30199
911.000	1.71158	-1.31420	1.29274	-2.31584
912.000	1.74120	-1.26847	1.20975	-2.30201
913.000	1.73133	-1.29431	1.16429	-2.26829
914.000	1.68590	-1.31422	1.18208	-2.36955
915.000	1.71750	-1.33010	1.28484	-2.32379
916.000	1.68985	-1.29633	1.18603	-2.33976
917.000	1.70565	-1.30228	1.27496	-2.23444
918.000	1.71158	-1.28638	1.26705	-2.26821
919.000	1.71750	-1.30823	1.23346	-2.30795
920.000	1.71553	-1.29830	1.29274	-2.34364
921.000	1.70565	-1.24663	1.17615	-2.35367
922.000	1.72145	-1.27047	1.25124	-2.37346
923.000	1.70367	-1.32613	1.21172	-2.27818
924.000	1.72935	-1.27444	1.18998	-2.33182
925.000	1.72540	-1.27444	1.26508	-2.28807
926.000	1.74120	-1.28636	1.22160	-2.35959
927.000	1.71948	-1.30426	1.24927	-2.38339
928.000	1.73528	-1.26847	1.18010	-2.36558
929.000	1.74318	-1.28238	1.23939	-2.31589
930.000	1.77083	-1.26646	1.23544	-2.37943
931.000	1.78268	-1.23863	1.25124	-2.27616
932.000	1.74515	-1.25654	1.17615	-2.34772
933.000	1.74910	-1.30026	1.20975	-2.27819
934.000	1.75700	-1.25256	1.11687	-2.33783
935.000	1.77281	-1.24261	1.19591	-2.30203
936.000	1.78663	-1.27241	1.22555	-2.28810
937.000	1.66417	-1.26852	1.21370	-2.40725
938.000	1.78268	-1.29229	1.27298	-2.33770
939.000	1.76293	-1.22473	1.19789	-2.36755
940.000	1.75503	-1.27641	1.16429	-2.32390
941.000	1.76688	-1.20684	1.22555	-2.36753
942.000	1.74910	-1.29032	1.16825	-2.33978
943.000	1.74910	-1.28039	1.23346	-2.40922
944.000	1.75305	-1.29628	1.20975	-2.37350
945.000	1.77873	-1.27242	1.21370	-2.37151
946.000	1.80836	-1.23463	1.15441	-2.28816
947.000	1.75305	-1.26448	1.21765	-2.32187
948.000	1.75305	-1.28237	1.13268	-2.31796
949.000	1.75108	-1.33206	1.19394	-2.31990
950.000	1.73923	-1.28238	1.16429	-2.35964
951.000	1.75305	-1.31815	1.20184	-2.34571
952.000	1.73133	-1.27444	1.24729	-2.34964
953.000	1.78466	-1.30222	1.18603	-2.34969
954.000	1.75305	-1.27840	1.24136	-2.38340
955.000	1.79256	-1.29824	1.13663	-2.39143
956.000	1.74910	-1.23865	1.23741	-2.31589
957.000	1.74515	-1.27641	1.13268	-2.35371
958.000	1.74515	-1.31418	1.24136	-2.28412
959.000	1.77478	-1.29826	1.21370	-2.36357
960.000	1.74120	-1.30424	1.17022	-2.32191
961.000	1.73133	-1.26052	1.18603	-2.33579
962.000	1.73133	-1.30425	1.18406	-2.36955
963.000	1.74713	-1.30821	1.20975	-2.34967
964.000	1.70565	-1.28240	1.14058	-2.39143
965.000	1.73133	-1.25854	1.13663	-2.30605
966.000	1.77281	-1.22870	1.16034	-2.36957
967.000	1.72738	-1.20289	1.24334	-2.37943
968.000	1.75898	-1.24262	1.18603	-2.29608
969.000	1.76095	-1.21876	1.11291	-2.36961
970.000	1.76095	-1.26050	1.19196	-2.25834
971.000	1.70762	-1.21482	1.15441	-2.35766
972.000	1.74910	-1.21480	1.12279	-2.30209
973.000	1.69577	-1.28042	1.11687	-2.32791
974.000	1.73330	-1.29630	1.17220	-2.29212
975.000	1.76886	-1.26249	1.12279	-2.23258
976.000	1.74318	-1.26648	1.19987	-2.26032
977.000	1.74910	-1.27244	1.11291	-2.19286
978.000	1.76688	-1.22870	1.22160	-2.30002
979.000	1.77676	-1.19888	1.21172	-2.33180
980.000	1.77281	-1.26050	1.15837	-2.26035
981.000	1.77083	-1.33205	1.11489	-2.28621
982.000	1.79453	-1.22073	1.12675	-2.26236
983.000	1.77873	-1.27242	1.26508	-2.32182
984.000	1.76095	-1.23069	1.10698	-2.24252
985.000	1.75503	-1.27045	1.19591	-2.29607
986.000	1.80836	-1.24258	1.09908	-2.21075
987.000	1.80243	-1.21079	1.18010	-2.18090
988.000	1.73725	-1.25853	1.16232	-2.30603
989.000	1.67009	-1.22876	1.14058	-2.24051
990.000	1.57725	-1.25068	1.04967	-2.30810
991.000	1.40537	-1.27066	0.98050	-2.38162
992.000	1.18208	-1.22902	0.82040	-2.36981
993.000	0.91923	-1.19334	0.59703	-2.31035
994.000	0.64843	-1.18148	0.25108	-2.35812
995.000	0.29062	-1.19347	-0.01186	-2.43559
996.000	-0.22340	-1.18553	-0.41714	-2.38588
997.000	-0.63657	-1.20733	-0.84610	-2.39958
998.000	-1.05560	-1.17738	-1.37375	-2.50437
999.000	-1.66219	-1.16516	-1.80638	-2.52766
1000.000	-2.21117	-1.24228	-2.28026	-2.57255
1001.000	-2.64927	-1.19420	-2.87215	-2.66257
1002.000	-3.17971	-1.25122	-3.24671	-2.57839
1003.000	-3.62296	-1.28835	-3.70566	-2.61478
1004.000	-4.11103	-1.42246	-4.09136	-2.56407
1005.000	-4.39218	-1.38031	-4.53760	-2.58038
1006.000	-4.81843	-1.48251	-4.87535	-2.62067
1007.000	-5.16374	-1.57479	-5.31078	-2.53192
1008.000	-5.33430	-1.56644	-5.62815	-2.55429
1009.000	-5.69275	-1.60703	-5.88257	-2.53537
1010.000	-6.08986	-1.69285	-6.20907	-2.57727
1011.000	-6.25987	-1.69429	-6.41805	-2.59201
1012.000	-6.58979	-1.72281	-6.83159	-2.62927
1013.000	-6.99720	-1.76672	-7.06342	-2.62206
1014.000	-7.17437	-1.78182	-7.42335	-2.60029
1015.000	-7.49915	-1.83767	-7.77686	-2.59225
1016.000	-8.00963	-1.88464	-8.13173	-2.64307
1017.000	-8.34860	-1.90467	-8.51884	-2.66206
1018.000	-8.67153	-1.99342	-8.81638	-2.65800
1019.000	-9.06718	-2.10704	-9.16933	-2.65737
1020.000	-9.39655	-2.10508	-9.55234	-2.80125
1021.000	-9.61001	-2.12727	-9.74065	-2.73514
1022.000	-9.84240	-2.13558	-10.03038	-2.71905
1023.000	-9.99395	-2.25589	-10.38081	-2.82734
1024.000	-10.27174	-2.22462	-10.57197	-2.80804
1025.000	-10.32724	-2.28481	-10.69228	-2.77768
1026.000	-10.44966	-2.33274	-10.81632	-2.78629
1027.000	-10.42671	-2.31729	-10.89450	-2.74658
1028.000	-10.42671	-2.34464	-10.93262	-2.75208
1029.000	-10.33298	-2.33361	-10.98407	-2.74770
1030.000	-10.31193	-2.33182	-10.83157	-2.67502
1031.000	-10.17218	-2.32893	-10.81822	-2.64395
1032.000	-10.03038	-2.27911	-10.71710	-2.59021
1033.000	-9.96327	-2.26980	-10.54522	-2.57020
1034.000	-9.84240	-2.30977	-10.46495	-2.59039
1035.000	-9.85391	-2.20010	-10.33107	-2.63642
1036.000	-9.83856	-2.14343	-10.29280	-2.64065
1037.000	-9.79441	-2.17700	-10.15685	-2.60269
1038.000	-9.89037	-2.14310	-10.11279	-2.64019
1039.000	-9.89613	-2.14306	-10.12237	-2.73781
1040.000	-9.92107	-2.10180	-10.15685	-2.73752
1041.000	-10.06296	-2.11262	-10.17601	-2.80378
1042.000	-10.00929	-2.12080	-10.15302	-2.79030
1043.000	-10.17218	-2.12364	-10.26983	-2.84982
1044.000	-10.14919	-2.11401	-10.36551	-2.81967
1045.000	-10.23345	-2.14278	-10.37698	-2.85666
1046.000	-10.26026	-2.13087	-10.45922	-2.82858
1047.000	-10.38464	-2.10658	-10.44010	-2.84437
1048.000	-10.35594	-2.12045	-10.52420	-2.77726
1049.000	-10.39802	-2.15143	-10.54331	-2.80245
1050.000	-10.41332	-2.19236	-10.53185	-2.74011
1051.000	-10.40567	-2.18850	-10.63692	-2.77039
1052.000	-10.43436	-2.17072	-10.61973	-2.76664
1053.000	-10.44010	-2.12379	-10.67128	-2.77788
1054.000	-10.42289	-2.17666	-10.64646	-2.72153
1055.000	-10.48789	-2.17230	-10.67510	-2.77394
1056.000	-10.44966	-2.17647	-10.68083	-2.76023
1057.000	-10.38464	-2.18670	-10.65219	-2.67466
1058.000	-10.43436	-2.14532	-10.66747	-2.73890
1059.000	-10.44010	-2.14723	-10.69228	-2.77573
1060.000	-10.41141	-2.19237	-10.65028	-2.80732
1061.000	-10.40185	-2.17876	-10.67510	-2.71542
1062.000	-10.35211	-2.17911	-10.59108	-2.68105
1063.000	-10.33107	-2.21834	-10.62546	-2.69245
1064.000	-10.36551	-2.09107	-10.58535	-2.69476
1065.000	-10.31767	-2.15198	-10.57197	-2.71634
1066.000	-10.33490	-2.15968	-10.58535	-2.67524
1067.000	-10.34638	-2.15179	-10.60445	-2.72971
1068.000	-10.31959	-2.18129	-10.58726	-2.70840
1069.000	-10.30428	-2.15598	-10.53758	-2.70689
1070.000	-10.33681	-2.18507	-10.52612	-2.69918
1071.000	-10.32341	-2.15194	-10.54905	-2.67751
1072.000	-10.29088	-2.13653	-10.51847	-2.72657
1073.000	-10.29280	-2.16974	-10.53185	-2.73231
1074.000	-10.22388	-2.09005	-10.48407	-2.66441
1075.000	-10.28131	-2.08381	-10.49745	-2.69553
1076.000	-10.24111	-2.10949	-10.47642	-2.62153
1077.000	-10.24686	-2.05080	-10.48980	-2.68583
1078.000	-10.21431	-2.08230	-10.54140	-2.73807
1079.000	-10.23345	-2.07826	-10.43627	-2.63554
1080.000	-10.23537	-2.14277	-10.49936	-2.64281
1081.000	-10.18367	-2.12943	-10.48216	-2.63319
1082.000	-10.21622	-2.09010	-10.47260	-2.64694
1083.000	-10.23537	-2.08020	-10.46113	-2.64313
1084.000	-10.25260	-2.10160	-10.47260	-2.67232
1085.000	-10.25643	-2.10157	-10.47260	-2.73673
1086.000	-10.18750	-2.11376	-10.46877	-2.65088
1087.000	-10.18175	-2.08837	-10.46304	-2.68997
1088.000	-10.28131	-2.12291	-10.49936	-2.71698
1089.000	-10.25643	-2.09766	-10.50509	-2.66813
1090.000	-10.23154	-2.07632	-10.55096	-2.65213
1091.000	-10.24303	-2.08406	-10.51274	-2.70710
1092.000	-10.27366	-2.08777	-10.44966	-2.73303
1093.000	-10.27366	-2.07213	-10.46877	-2.57084
1094.000	-10.27174	-2.08387	-10.49554	-2.65260
1095.000	-10.23920	-2.09582	-10.48980	-2.69169
1096.000	-10.27557	-2.10926	-10.56051	-2.66570
1097.000	-10.26983	-2.10735	-10.55669	-2.71452
1098.000	-10.24494	-2.12120	-10.50318	-2.65644
1099.000	-10.23920	-2.08409	-10.48980	-2.66827
1100.000	-10.23154	-2.05676	-10.57770	-2.64409
1101.000	-10.23920	-2.09191	-10.48216	-2.63319
1102.000	-10.22005	-2.14482	-10.51274	-2.66416
1103.000	-10.22580	-2.10177	-10.48407	-2.64294
1104.000	-10.27557	-2.05452	-10.53567	-2.63274
1105.000	-10.24494	-2.11729	-10.45539	-2.64318
1106.000	-10.26217	-2.08003	-10.49171	-2.61554
1107.000	-10.21431	-2.12922	-10.48407	-2.66636
1108.000	-10.26983	-2.10539	-10.52038	-2.65629
1109.000	-10.24686	-2.06253	-10.56051	-2.62667
1110.000	-10.21622	-2.14290	-10.57388	-2.55239
1111.000	-10.23920	-2.10364	-10.53567	-2.59175
1112.000	-10.29280	-2.08764	-10.55096	-2.57015
1113.000	-10.28705	-2.11701	-10.44583	-2.63741
1114.000	-10.24686	-2.06058	-10.52612	-2.65039
1115.000	-10.27940	-2.07991	-10.47069	-2.60010
1116.000	-10.27557	-2.12881	-10.52038	-2.58602
1117.000	-10.23154	-2.09391	-10.56051	-2.61496
1118.000	-10.24111	-2.08016	-10.47260	-2.62352
1119.000	-10.24686	-2.11727	-10.50509	-2.55687
1120.000	-10.23537	-2.11149	-10.50892	-2.60174
1121.000	-10.22580	-2.11350	-10.49362	-2.55111
1122.000	-10.29662	-2.12476	-10.52803	-2.55473
1123.000	-10.27557	-2.10535	-10.52803	-2.53325
1124.000	-10.23920	-2.13101	-10.43053	-2.60239
1125.000	-10.22771	-2.05679	-10.46495	-2.57282
1126.000	-10.24303	-2.12121	-10.51274	-2.52752
1127.000	-10.21814	-2.09596	-10.45922	-2.61972
1128.000	-10.22388	-2.14089	-10.48789	-2.52773
1129.000	-10.27174	-2.09560	-10.45348	-2.54753
1130.000	-10.24111	-2.12122	-10.48407	-2.56680
1131.000	-10.24494	-2.12120	-10.46686	-2.58647
1132.000	-10.26217	-2.11913	-10.45539	-2.60804
1133.000	-10.23345	-2.11345	-10.48598	-2.56093
1134.000	-10.26217	-2.09567	-10.50318	-2.61154
1135.000	-10.28131	-2.12682	-10.46304	-2.56112
1136.000	-10.25834	-2.10351	-10.50700	-2.62127
1137.000	-10.25260	-2.08791	-10.47642	-2.60787
1138.000	-10.22580	-2.08222	-10.48789	-2.58825
1139.000	-10.24494	-2.09969	-10.45539	-2.63342
1140.000	-10.20856	-2.12535	-10.46495	-2.62748
1141.000	-10.25834	-2.08005	-10.52994	-2.60351
1142.000	-10.27557	-2.06430	-10.57006	-2.57390
1143.000	-10.21814	-2.06663	-10.44583	-2.56517
1144.000	-10.22771	-2.11349	-10.51465	-2.57631
1145.000	-10.27174	-2.13470	-10.52038	-2.67971
1146.000	-10.28897	-2.03880	-10.56242	-2.54468
1147.000	-10.22580	-2.08809	-10.56433	-2.56028
1148.000	-10.25068	-2.09770	-10.48980	-2.51990
1149.000	-10.24686	-2.07817	-10.47642	-2.58444
1150.000	-10.23345	-2.11932	-10.53949	-2.63466
1151.000	-10.26600	-2.12106	-10.50700	-2.49828
1152.000	-10.26600	-2.07023	-10.52229	-2.49816
1153.000	-10.21814	-2.10182	-10.50318	-2.53541
1154.000	-10.23920	-2.08995	-10.50318	-2.56469
1155.000	-10.26600	-2.10151	-10.56242	-2.58957
1156.000	-10.23920	-2.07040	-10.51847	-2.54114
1157.000	-10.24877	-2.10162	-10.55478	-2.62087
1158.000	-10.25451	-2.08985	-10.52994	-2.58985
1159.000	-10.25260	-2.09573	-10.45922	-2.64510
1160.000	-10.27366	-2.10732	-10.53567	-2.57614
1161.000	-10.25068	-2.10161	-10.49362	-2.60577
1162.000	-10.26026	-2.09568	-10.50892	-2.62906
1163.000	-10.24111	-2.10363	-10.51083	-2.55682
1164.000	-10.26408	-2.12498	-10.47451	-2.56688
1165.000	-10.22962	-2.06655	-10.44010	-2.55545
1166.000	-10.20473	-2.08822	-10.49554	-2.60380
1167.000	-10.26600	-2.08000	-10.57197	-2.59340
1168.000	-10.24111	-2.07625	-10.47260	-2.55518
1169.000	-10.26026	-2.09177	-10.53567	-2.62103
1170.000	-10.23154	-2.09196	-10.48216	-2.55315
1171.000	-10.25068	-2.07619	-10.50318	-2.58421
1172.000	-10.20473	-2.09605	-10.47642	-2.57077
1173.000	-10.25643	-2.11721	-10.53567	-2.57809
1174.000	-10.28131	-2.09945	-10.55478	-2.57598
1175.000	-10.25834	-2.13088	-10.47260	-2.52980
1176.000	-10.24877	-2.04688	-10.56433	-2.65396
1177.000	-10.27748	-2.12880	-10.50318	-2.56079
1178.000	-10.25451	-2.04684	-10.46113	-2.57285
1179.000	-10.22771	-2.10567	-10.48024	-2.56098
1180.000	-10.19707	-2.07459	-10.56051	-2.58959
1181.000	-10.24494	-2.11924	-10.50318	-2.57445
1182.000	-10.24303	-2.06451	-10.53567	-2.64055
1183.000	-10.23345	-2.07826	-10.52420	-2.62308
1184.000	-10.23154	-2.09391	-10.60445	-2.53653
1185.000	-10.22005	-2.04315	-10.53949	-2.55658
1186.000	-10.22197	-2.09789	-10.50318	-2.50417
1187.000	-10.23728	-2.06455	-10.54331	-2.57607
1188.000	-10.21239	-2.06862	-10.46304	-2.50059
1189.000	-10.21622	-2.16831	-10.50127	-2.55690
1190.000	-10.26026	-2.13087	-10.52229	-2.50402
1191.000	-10.22197	-2.09398	-10.49171	-2.56284
1192.000	-10.26026	-2.14064	-10.58535	-2.56401
1193.000	-10.27174	-2.13861	-10.45157	-2.58269
1194.000	-10.23154	-2.07241	-10.49745	-2.55108
1195.000	-10.28897	-2.11895	-10.51847	-2.59385
1196.000	-10.23537	-2.06652	-10.49936	-2.47296
1197.000	-10.28131	-2.06426	-10.49745	-2.55303
1198.000	-10.28131	-2.09750	-10.49554	-2.54328
1199.000	-10.26408	-2.10738	-10.58344	-2.59915
1200.000	-10.29854	-2.07392	-10.54714	-2.62679
1201.000	-10.25068	-2.10161	-10.49936	-2.58229
1202.000	-10.27366	-2.09755	-10.55096	-2.52721
1203.000	-10.28514	-2.09942	-10.58535	-2.51522
1204.000	-10.25068	-2.09965	-10.52803	-2.60548
1205.000	-10.27557	-2.14836	-10.51847	-2.59580
1206.000	-10.27174	-2.13079	-10.52994	-2.52348
1207.000	-10.24111	-2.13882	-10.56433	-2.61103
1208.000	-10.23345	-2.11932	-10.51847	-2.59385
1209.000	-10.30045	-2.15405	-10.44966	-2.56318
1210.000	-10.26791	-2.14841	-10.52612	-2.59378
1211.000	-10.27366	-2.11514	-10.49554	-2.51400
1212.000	-10.25834	-2.15043	-10.55860	-2.53691
1213.000	-10.25643	-2.16804	-10.54331	-2.59169
1214.000	-10.30811	-2.17159	-10.49745	-2.58231
1215.000	-10.32724	-2.13628	-10.58344	-2.57183
1216.000	-10.27366	-2.11123	-10.54331	-2.60925
1217.000	-10.28897	-2.12481	-10.54905	-2.56431
1218.000	-10.27748	-2.14248	-10.51465	-2.61730
1219.000	-10.30619	-2.10710	-10.60254	-2.59314
1220.000	-10.28897	-2.12090	-10.57006	-2.59146
1221.000	-10.28514	-2.08379	-10.56242	-2.60128
1222.000	-10.26983	-2.10930	-10.56433	-2.57394
1223.000	-10.21048	-2.11556	-10.50509	-2.59591
1224.000	-10.26983	-2.17772	-10.57962	-2.57772
1225.000	-10.29280	-2.17170	-10.52803	-2.56644
1226.000	-10.25260	-2.16611	-10.55669	-2.58182
1227.000	-10.28705	-2.10528	-10.54140	-2.56633
1228.000	-10.24686	-2.16028	-10.58344	-2.60696
1229.000	-10.27366	-2.20701	-10.61973	-2.62421
1230.000	-10.29471	-2.14432	-10.56051	-2.57202
1231.000	-10.28705	-2.16001	-10.60827	-2.57748
1232.000	-10.24686	-2.16615	-10.53185	-2.60349
1233.000	-10.30428	-2.15598	-10.56051	-2.58569
1234.000	-10.25643	-2.12698	-10.51274	-2.60756
1235.000	-10.25068	-2.11920	-10.51274	-2.59975
1236.000	-10.25068	-2.12507	-10.59108	-2.61861
1237.000	-10.26217	-2.16409	-10.57962	-2.63041
1238.000	-10.22580	-2.16825	-10.59872	-2.58537
1239.000	-10.25260	-2.14460	-10.48216	-2.51020
1240.000	-10.25834	-2.13675	-10.55669	-2.52521
1241.000	-10.20665	-2.12145	-10.53376	-2.57615
1242.000	-10.18367	-2.14507	-10.49171	-2.47888
1243.000	-10.16834	-2.03370	-10.45730	-2.44987
1244.000	-10.12237	-1.99487	-10.43245	-2.32506
1245.000	-10.08979	-1.93052	-10.39420	-2.27846
1246.000	-10.05338	-1.79767	-10.43627	-2.11209
1247.000	-10.02079	-1.68237	-10.23728	-2.16035
1248.000	-9.95943	-1.63570	-10.25834	-1.98816
1249.000	-9.96327	-1.51429	-10.21814	-1.91214
1250.000	-9.94984	-1.44386	-10.17601	-1.89870
1251.000	-9.93066	-1.33231	-10.24877	-1.85329
1252.000	-9.93066	-1.23438	-10.27748	-1.75143
1253.000	-10.00545	-1.19493	-10.22197	-1.75565
1254.000	-9.99395	-1.17343	-10.33681	-1.79998
1255.000	-10.02271	-1.14786	-10.25451	-1.68506
1256.000	-10.03805	-1.10473	-10.42289	-1.67829
1257.000	-10.12237	-1.13576	-10.41715	-1.75456
1258.000	-10.13003	-1.10441	-10.47260	-1.70148
1259.000	-10.22197	-1.09431	-10.50127	-1.75604
1260.000	-10.19516	-1.15116	-10.48216	-1.79719
1261.000	-10.19324	-1.14530	-10.54331	-1.75776
1262.000	-10.19707	-1.18443	-10.49936	-1.79709
1263.000	-10.19324	-1.25294	-10.51656	-1.86538
1264.000	-10.23537	-1.29583	-10.50509	-1.90453
1265.000	-10.25834	-1.28595	-10.44966	-1.91855
1266.000	-10.18367	-1.26472	-10.50700	-1.91820
1267.000	-10.18750	-1.34103	-10.39611	-1.88956
1268.000	-10.19899	-1.34686	-10.46304	-2.01422
1269.000	-10.21239	-1.39768	-10.39037	-1.95214
1270.000	-10.17409	-1.37827	-10.39229	-1.97754
1271.000	-10.17409	-1.43307	-10.43818	-1.93426
1272.000	-10.13578	-1.37648	-10.45730	-2.00448
1273.000	-10.12428	-1.40981	-10.41332	-1.99500
1274.000	-10.15302	-1.41164	-10.41332	-1.96568
1275.000	-10.14727	-1.41362	-10.39611	-1.92084
1276.000	-10.12812	-1.43132	-10.48980	-1.91830
1277.000	-10.17601	-1.40175	-10.38655	-1.95608
1278.000	-10.13195	-1.39020	-10.41141	-1.99501
1279.000	-10.13578	-1.32951	-10.37698	-1.90922
1280.000	-10.11662	-1.39418	-10.39037	-1.85441
1281.000	-10.05530	-1.35333	-10.35977	-1.87023
1282.000	-10.10896	-1.31396	-10.33490	-1.90362
1283.000	-10.13578	-1.30602	-10.37507	-1.86232
1284.000	-10.10512	-1.31202	-10.44392	-1.86582
1285.000	-10.10129	-1.32378	-10.39611	-1.86415
1286.000	-10.14344	-1.30599	-10.39994	-1.85826
1287.000	-10.07830	-1.28472	-10.40185	-1.81916
1288.000	-10.10704	-1.25720	-10.38272	-1.85641
1289.000	-10.13770	-1.24925	-10.35020	-1.85074
1290.000	-10.13578	-1.29427	-10.44583	-1.86776
1291.000	-10.10129	-1.30812	-10.40759	-1.85235
1292.000	-10.14727	-1.27270	-10.36933	-1.86627
1293.000	-10.13961	-1.26686	-10.35403	-1.83899
1294.000	-10.10321	-1.28070	-10.42862	-1.87568
1295.000	-10.11279	-1.28849	-10.38655	-1.82511
1296.000	-10.12620	-1.27474	-10.44201	-1.80329
1297.000	-10.11087	-1.30416	-10.39994	-1.85045
1298.000	-10.11279	-1.30611	-10.43245	-1.76816
1299.000	-10.10704	-1.28852	-10.39229	-1.81921
1300.000	-10.08596	-1.28273	-10.35785	-1.79400
1301.000	-10.12045	-1.24148	-10.39802	-1.85241
1302.000	-10.11470	-1.26304	-10.34255	-1.81950
1303.000	-10.11662	-1.24737	-10.37125	-1.78219
1304.000	-10.13961	-1.19639	-10.28514	-1.79441
1305.000	-10.16260	-1.32157	-10.35403	-1.82726
1306.000	-10.12428	-1.25321	-10.37890	-1.74109
1307.000	-10.10512	-1.26503	-10.42671	-1.82292
1308.000	-10.12428	-1.26887	-10.40185	-1.84457
1309.000	-10.13578	-1.28449	-10.34638	-1.83317
1310.000	-10.15110	-1.28443	-10.39229	-1.80748
1311.000	-10.14727	-1.32359	-10.43245	-1.88543
1312.000	-10.15877	-1.29027	-10.37698	-1.80366
1313.000	-10.13578	-1.27274	-10.37125	-1.88776
1314.000	-10.15494	-1.31377	-10.35020	-1.78622
1315.000	-10.13195	-1.27667	-10.36551	-1.73530
1316.000	-10.12812	-1.26299	-10.35403	-1.72363
1317.000	-10.11854	-1.29043	-10.40950	-1.80739
1318.000	-10.09554	-1.28856	-10.47642	-1.79918
1319.000	-10.14153	-1.32753	-10.38655	-1.85248
1320.000	-10.14153	-1.29425	-10.35020	-1.78036
1321.000	-10.08979	-1.27684	-10.34064	-1.86057
1322.000	-10.12428	-1.31194	-10.37698	-1.83494
1323.000	-10.07446	-1.28082	-10.31576	-1.88223
1324.000	-10.13003	-1.31387	-10.35594	-1.79205
1325.000	-10.11279	-1.34135	-10.35020	-1.87420
1326.000	-10.15494	-1.37444	-10.35211	-1.87223
1327.000	-10.16068	-1.30200	-10.32916	-1.83913
1328.000	-10.17218	-1.33131	-10.41332	-1.82886
1329.000	-10.13003	-1.27472	-10.44010	-1.81503
1330.000	-10.12045	-1.33349	-10.40376	-1.83674
1331.000	-10.14536	-1.30598	-10.35977	-1.83504
1332.000	-10.08596	-1.30622	-10.33490	-1.79022
1333.000	-10.14344	-1.26097	-10.40567	-1.78786
1334.000	-10.12045	-1.26106	-10.39611	-1.83288
1335.000	-10.10321	-1.31594	-10.40950	-1.80739
1336.000	-10.10129	-1.28463	-10.37316	-1.85060
1337.000	-10.10512	-1.26895	-10.37507	-1.76066
1338.000	-10.16068	-1.23741	-10.28897	-1.75528
1339.000	-10.11279	-1.29045	-10.41141	-1.80346
1340.000	-10.10512	-1.30223	-10.40950	-1.78979
1341.000	-10.14153	-1.26489	-10.42671	-1.75060
1342.000	-10.15302	-1.31769	-10.32150	-1.83918
1343.000	-10.16834	-1.33720	-10.36933	-1.81544
1344.000	-10.09171	-1.30424	-10.37698	-1.81539
1345.000	-10.11470	-1.27674	-10.36168	-1.76465
1346.000	-10.15494	-1.26875	-10.42097	-1.83077
1347.000	-10.13386	-1.24535	-10.36742	-1.83695
1348.000	-10.18750	-1.27254	-10.39611	-1.83288
1349.000	-10.10704	-1.20434	-10.37316	-1.79000
1350.000	-10.14344	-1.26488	-10.35785	-1.88002
1351.000	-10.17792	-1.26866	-10.37316	-1.76263
1352.000	-10.16834	-1.26283	-10.30428	-1.74933
1353.000	-10.11854	-1.28064	-10.31959	-1.85092
1354.000	-10.17026	-1.27652	-10.33298	-1.81956
1355.000	-10.12045	-1.26497	-10.29854	-1.83344
1356.000	-10.15110	-1.27464	-10.34446	-1.84686
1357.000	-10.15302	-1.27072	-10.35785	-1.84678
1358.000	-10.09746	-1.23570	-10.36742	-1.85846
1359.000	-10.16834	-1.27849	-10.35594	-1.82138
1360.000	-10.12812	-1.25711	-10.35403	-1.88591
1361.000	-10.10321	-1.28070	-10.37125	-1.81738
1362.000	-10.08213	-1.29058	-10.38464	-1.90136
1363.000	-10.12045	-1.23170	-10.39802	-1.82700
1364.000	-10.10512	-1.31985	-10.34064	-1.86839
1365.000	-10.14153	-1.25902	-10.33681	-1.84495
1366.000	-10.13961	-1.27664	-10.31959	-1.74533
1367.000	-10.12045	-1.28651	-10.41906	-1.82297
1368.000	-10.11662	-1.29435	-10.33872	-1.85276
1369.000	-10.12812	-1.27473	-10.32916	-1.79807
1370.000	-10.14727	-1.32750	-10.31767	-1.85289
1371.000	-10.13003	-1.29821	-10.34255	-1.80582
1372.000	-10.08979	-1.23964	-10.33681	-1.77457
1373.000	-10.09554	-1.26899	-10.34638	-1.91332
1374.000	-10.13770	-1.29427	-10.35403	-1.83899
1375.000	-10.12620	-1.30606	-10.35211	-1.85855
1376.000	-10.12237	-1.30607	-10.33107	-1.90559
1377.000	-10.12620	-1.32172	-10.33681	-1.89187
1378.000	-10.12045	-1.28063	-10.36359	-1.91126
1379.000	-10.12812	-1.31584	-10.39802	-1.89932
1380.000	-10.12237	-1.32173	-10.36168	-1.89172
1381.000	-10.10129	-1.28854	-10.36933	-1.84672
1382.000	-10.14153	-1.25902	-10.30045	-1.88427
1383.000	-10.11662	-1.33742	-10.44583	-1.85408
1384.000	-10.06296	-1.32198	-10.39229	-1.79576
1385.000	-10.12045	-1.31783	-10.35211	-1.82531
1386.000	-10.10321	-1.29049	-10.33107	-1.86649
1387.000	-10.07830	-1.35715	-10.38655	-1.82120
1388.000	-10.08596	-1.31014	-10.42289	-1.85617
1389.000	-10.11662	-1.33350	-10.39420	-1.92085
1390.000	-10.12620	-1.29823	-10.36742	-1.87214
1391.000	-10.09938	-1.27485	-10.35977	-1.85850
1392.000	-10.12237	-1.35109	-10.35594	-1.83311
1393.000	-10.11662	-1.33546	-10.36933	-1.88581
1394.000	-10.08213	-1.27296	-10.42289	-1.83663
1395.000	-10.07446	-1.30235	-10.35785	-1.83310
1396.000	-10.08788	-1.31600	-10.34255	-1.85078
1397.000	-10.10321	-1.30615	-10.44966	-1.89119
1398.000	-10.11087	-1.29633	-10.37316	-1.83887
1399.000	-10.06105	-1.33765	-10.40567	-1.85237
1400.000	-10.06680	-1.28868	-10.34064	-1.84102
1401.000	-10.12620	-1.34912	-10.42671	-1.86592
1402.000	-10.09363	-1.27487	-10.35977	-1.91324
1403.000	-10.13578	-1.29036	-10.35785	-1.86047
1404.000	-10.08979	-1.27880	-10.39802	-1.87000
1405.000	-10.09746	-1.36490	-10.41715	-1.89334
1406.000	-10.09363	-1.29053	-10.33681	-1.82149
1407.000	-10.13578	-1.39214	-10.35403	-1.78424
1408.000	-10.09746	-1.33945	-10.33681	-1.85277
1409.000	-10.15302	-1.32748	-10.36742	-1.86237
1410.000	-10.15110	-1.31574	-10.29854	-1.83149
1411.000	-10.14727	-1.30206	-10.35211	-1.87028
1412.000	-10.14727	-1.29619	-10.33490	-1.84301
1413.000	-10.13195	-1.30212	-10.35594	-1.86635
1414.000	-10.11279	-1.33156	-10.35020	-1.81946
1415.000	-10.08596	-1.28077	-10.35785	-1.92693
1416.000	-10.08788	-1.32187	-10.38846	-1.88961
1417.000	-10.14919	-1.35685	-10.42097	-1.77409
1418.000	-10.11662	-1.23758	-10.31193	-1.87638
1419.000	-10.13386	-1.30211	-10.31002	-1.81774
1420.000	-10.14344	-1.26684	-10.33681	-1.92902
1421.000	-10.15110	-1.32749	-10.35977	-1.87610
1422.000	-10.16451	-1.31960	-10.33681	-1.80194
1423.000	-10.18367	-1.31169	-10.32916	-1.82545
1424.000	-10.14153	-1.25706	-10.35594	-1.93086
1425.000	-10.16260	-1.30395	-10.29662	-1.84323
1426.000	-10.17218	-1.28238	-10.35020	-1.83705
1427.000	-10.17409	-1.28825	-10.30236	-1.92727
1428.000	-10.20665	-1.31356	-10.38655	-1.87398
1429.000	-10.18558	-1.30386	-10.32341	-1.83721
1430.000	-10.18558	-1.28037	-10.32533	-1.84306
1431.000	-10.19516	-1.35274	-10.38272	-1.91114
1432.000	-10.16451	-1.31569	-10.31002	-1.89986
1433.000	-10.13961	-1.31775	-10.32724	-1.88607
1434.000	-10.12812	-1.29235	-10.30811	-1.89205
1435.000	-10.16260	-1.31178	-10.30236	-1.89599
1436.000	-10.17409	-1.31761	-10.29471	-1.88626
1437.000	-10.19133	-1.28818	-10.28514	-1.89805
1438.000	-10.21431	-1.29004	-10.33681	-1.88992
1439.000	-10.16451	-1.32939	-10.32724	-1.84501
1440.000	-10.18175	-1.31170	-10.35977	-1.88587
1441.000	-10.14153	-1.25315	-10.31576	-1.91155
1442.000	-10.16260	-1.31374	-10.29471	-1.84324
1443.000	-10.18367	-1.34692	-10.24111	-1.90614
1444.000	-10.13195	-1.30799	-10.34638	-1.85272
1445.000	-10.17218	-1.34110	-10.32724	-1.90366
1446.000	-10.16260	-1.36854	-10.33872	-1.80388
1447.000	-10.17409	-1.33326	-10.27366	-1.81403
1448.000	-10.21048	-1.30963	-10.37316	-1.86429
1449.000	-10.15110	-1.32749	-10.30428	-1.91358
1450.000	-10.18941	-1.31167	-10.33107	-1.90364
1451.000	-10.20665	-1.32334	-10.29854	-1.91948
1452.000	-10.16260	-1.33527	-10.37507	-1.92487
1453.000	-10.12812	-1.30018	-10.30236	-1.88817
1454.000	-10.16068	-1.32158	-10.23920	-1.95699
1455.000	-10.14919	-1.37838	-10.34638	-1.89182
1456.000	-10.18750	-1.34691	-10.32724	-1.91344
1457.000	-10.15685	-1.35682	-10.31002	-1.90963
1458.000	-10.12237	-1.27475	-10.24303	-1.90221
1459.000	-10.14919	-1.35490	-10.32724	-1.85674
1460.000	-10.17984	-1.32345	-10.35211	-1.89569
1461.000	-10.11854	-1.31979	-10.31193	-1.83923
1462.000	-10.10512	-1.32376	-10.29280	-1.90192
1463.000	-10.10129	-1.32182	-10.31193	-1.83532
1464.000	-10.13770	-1.30601	-10.28323	-1.91957
1465.000	-10.10896	-1.29830	-10.38081	-1.89161
1466.000	-10.09554	-1.31010	-10.35785	-1.79400
1467.000	-10.13195	-1.33735	-10.36933	-1.85063
1468.000	-10.13770	-1.34124	-10.34829	-1.87812
1469.000	-10.16834	-1.32741	-10.28131	-1.84919
1470.000	-10.11087	-1.32765	-10.34638	-1.87227
1471.000	-10.12428	-1.33151	-10.34829	-1.85662
1472.000	-10.13003	-1.36281	-10.28131	-1.87461
1473.000	-10.10512	-1.34529	-10.28514	-1.87263
1474.000	-10.12812	-1.33541	-10.27366	-1.90007
1475.000	-10.15302	-1.36858	-10.35594	-1.93672
1476.000	-10.13578	-1.30210	-10.24686	-1.83374
1477.000	-10.12620	-1.30019	-10.33681	-1.92706
1478.000	-10.11854	-1.32566	-10.36551	-1.84283
1479.000	-10.11470	-1.34525	-10.26983	-1.84143
1480.000	-10.11854	-1.31392	-10.28705	-1.77680
1481.000	-10.08021	-1.35323	-10.38081	-1.81537
1482.000	-10.05338	-1.34747	-10.35594	-1.85657
1483.000	-10.09746	-1.34533	-10.39611	-1.91302
1484.000	-10.12428	-1.33543	-10.30619	-1.83731
1485.000	-10.12045	-1.32566	-10.27557	-1.83553
1486.000	-10.06105	-1.35331	-10.33681	-1.84886
1487.000	-10.12812	-1.36869	-10.38081	-1.86033
1488.000	-10.11087	-1.33940	-10.33490	-1.81368
1489.000	-10.10321	-1.37662	-10.27557	-1.90202
1490.000	-10.13961	-1.34124	-10.26217	-1.84734
1491.000	-10.08979	-1.32774	-10.28131	-1.81595
1492.000	-10.11087	-1.31395	-10.28897	-1.89998
1493.000	-10.08979	-1.33361	-10.29662	-1.86474
1494.000	-10.09171	-1.37471	-10.30236	-1.80800
1495.000	-10.10129	-1.35314	-10.31193	-1.77862
1496.000	-10.08979	-1.32970	-10.26600	-1.88057
1497.000	-10.06296	-1.33960	-10.25451	-1.81805
1498.000	-10.09938	-1.38447	-10.28705	-1.87458
1499.000	-10.08979	-1.32774	-10.25643	-1.84933
1500.000	-10.07830	-1.32779	-10.26026	-1.84540
1501.000	-10.12620	-1.35108	-10.25834	-1.80434
1502.000	-10.11279	-1.30220	-10.28514	-1.92542
1503.000	-10.10896	-1.30809	-10.29471	-1.81587
1504.000	-10.13003	-1.32953	-10.28323	-1.79247
1505.000	-10.15302	-1.37445	-10.42097	-1.91677
1506.000	-10.12428	-1.35892	-10.31767	-1.82551
1507.000	-10.10321	-1.33356	-10.29471	-1.90972
1508.000	-10.09938	-1.27289	-10.26217	-1.84930
1509.000	-10.06296	-1.37092	-10.22962	-1.84362
1510.000	-10.10321	-1.36096	-10.28705	-1.82765
1511.000	-10.07446	-1.33955	-10.30811	-1.86663
1512.000	-10.08021	-1.41196	-10.34446	-1.85859
1513.000	-10.13003	-1.37455	-10.27940	-1.89809
1514.000	-10.12428	-1.35892	-10.31767	-1.87830
1515.000	-10.12812	-1.37064	-10.26791	-1.85709
1516.000	-10.16643	-1.42332	-10.19899	-1.85162
1517.000	-10.15110	-1.37837	-10.30045	-1.80801
1518.000	-10.09554	-1.28269	-10.34064	-1.84493
1519.000	-10.12045	-1.32761	-10.27366	-1.83554
1520.000	-10.09938	-1.36489	-10.31959	-1.87438
1521.000	-10.11279	-1.39028	-10.28897	-1.87652
1522.000	-10.12812	-1.34128	-10.31385	-1.86268
1523.000	-10.12620	-1.38631	-10.34446	-1.87423
1524.000	-10.11662	-1.38439	-10.29088	-1.89802
1525.000	-10.09363	-1.33751	-10.31193	-1.85096
1526.000	-10.08596	-1.32384	-10.31002	-1.88617
1527.000	-10.08788	-1.35515	-10.32533	-1.87435
1528.000	-10.15302	-1.37249	-10.23537	-1.85337
1529.000	-10.17218	-1.36067	-10.35785	-1.83114
1530.000	-10.16834	-1.36069	-10.32916	-1.90170
1531.000	-10.14727	-1.34512	-10.28514	-1.94693
1532.000	-10.12620	-1.31585	-10.31002	-1.89008
1533.000	-10.14727	-1.34707	-10.35403	-1.89959
1534.000	-10.17792	-1.32933	-10.23345	-1.84164
1535.000	-10.13195	-1.37454	-10.34638	-1.88204
1536.000	-10.19324	-1.39385	-10.33107	-1.86454
1537.000	-10.18367	-1.33322	-10.31385	-1.93111
1538.000	-10.15302	-1.37445	-10.39037	-1.88960
1539.000	-10.19899	-1.38404	-10.33107	-1.93492
1540.000	-10.16451	-1.34113	-10.28131	-1.91958
1541.000	-10.21431	-1.35853	-10.32341	-1.91151
1542.000	-10.17026	-1.32545	-10.32150	-1.95257
1543.000	-10.12620	-1.33346	-10.29280	-1.83543
1544.000	-10.06871	-1.35915	-10.22771	-1.84363
1545.000	-10.04380	-1.31618	-10.13961	-1.81871
1546.000	-9.93066	-1.35581	-9.98820	-1.85675
1547.000	-9.79249	-1.27016	-9.80977	-1.79313
1548.000	-9.46773	-1.25962	-9.42733	-1.82261
1549.000	-8.97847	-1.20244	-9.16933	-1.78864
1550.000	-8.60003	-1.21350	-8.73141	-1.79472
1551.000	-8.12010	-1.10475	-8.17628	-1.74419
1552.000	-7.45250	-1.05918	-7.60018	-1.72494
1553.000	-6.92318	-1.04265	-7.11403	-1.77417
1554.000	-6.29503	-0.98467	-6.39853	-1.66420
1555.000	-5.70254	-0.91251	-5.72799	-1.61880
1556.000	-5.14413	-0.90147	-5.10491	-1.66007
1557.000	-4.54545	-0.86857	-4.56314	-1.52863
1558.000	-4.05792	-0.75603	-3.95955	-1.51595
1559.000	-3.51859	-0.75452	-3.36888	-1.59435
1560.000	-2.99441	-0.71717	-2.97666	-1.52149
1561.000	-2.48354	-0.68965	-2.32171	-1.44681
1562.000	-2.13418	-0.65802	-1.92685	-1.48295
1563.000	-1.63849	-0.60452	-1.45279	-1.40977
1564.000	-1.17022	-0.55691	-1.04769	-1.40005
1565.000	-0.83226	-0.67034	-0.62668	-1.45189
1566.000	-0.35388	-0.65846	-0.27282	-1.50166
1567.000	0.04152	-0.67041	0.13048	-1.58120
1568.000	0.51401	-0.73204	0.50808	-1.69643
1569.000	0.87772	-0.88711	0.88167	-1.75790
1570.000	1.36585	-0.96053	1.30657	-1.89276
1571.000	1.79453	-1.03389	1.68985	-1.91825
1572.000	2.20722	-1.14094	2.07692	-2.00520
1573.000	2.59206	-1.19624	2.49735	-2.06615
1574.000	2.97075	-1.22565	2.80905	-2.15096
1575.000	3.45950	-1.31636	3.21912	-2.19180
1576.000	3.83754	-1.37136	3.68006	-2.22246
1577.000	4.28211	-1.40827	4.01858	-2.19978
1578.000	4.68884	-1.34408	4.45507	-2.14704
1579.000	5.08529	-1.34130	4.80272	-2.14203
1580.000	5.50869	-1.40372	5.06568	-2.13723
1581.000	5.81214	-1.37331	5.38330	-2.10054
1582.000	6.17781	-1.35460	5.73386	-2.04394
1583.000	6.50979	-1.29051	6.02925	-1.98357
1584.000	6.79651	-1.27593	6.20321	-1.99873
1585.000	7.04200	-1.18054	6.34190	-1.87773
1586.000	7.30278	-1.12464	6.67562	-1.75409
1587.000	7.47388	-1.07293	6.78481	-1.85830
1588.000	7.57881	-1.05296	6.94461	-1.79652
1589.000	7.71863	-1.01714	6.97188	-1.84179
1590.000	7.78463	-0.92831	6.98357	-1.71548
1591.000	7.68757	-0.91670	6.99915	-1.70951
1592.000	7.65262	-0.91283	7.00499	-1.66411
1593.000	7.54384	-0.92489	6.94266	-1.72352
1594.000	7.43695	-0.92709	6.90370	-1.68420
1595.000	7.26777	-0.86036	6.68537	-1.75011
1596.000	7.18994	-0.92760	6.70292	-1.72439
1597.000	7.00305	-0.90824	6.68732	-1.81919
1598.000	6.96799	-0.93397	6.64441	-1.83515
1599.000	6.86473	-0.94010	6.54102	-1.83750
1600.000	6.86083	-0.96775	6.50199	-1.86924
1601.000	6.75167	-1.01735	6.56833	-1.84530
1602.000	6.81990	-1.06855	6.55663	-1.79993
1603.000	6.86083	-1.02896	6.59760	-1.86493
1604.000	6.90175	-1.06441	6.68342	-1.87842
1605.000	6.93097	-1.12752	6.76727	-1.81495
1606.000	7.04784	-1.17066	6.81210	-1.88385
1607.000	7.17632	-1.17230	6.84719	-1.84227
1608.000	7.24248	-1.18397	6.86667	-1.87574
1609.000	7.31056	-1.22916	6.98747	-1.83383
1610.000	7.42335	-1.26434	7.01668	-1.89092
1611.000	7.53801	-1.20289	7.11209	-1.89053
1612.000	7.57104	-1.24814	7.10041	-1.88663
1613.000	7.65067	-1.25382	7.04784	-1.90854
1614.000	7.67786	-1.21432	7.16853	-1.80551
1615.000	7.69533	-1.22610	7.13739	-1.90620
1616.000	7.71475	-1.20240	7.07315	-1.85322
1617.000	7.70698	-1.18665	7.05757	-1.93414
1618.000	7.72640	-1.19645	7.04394	-1.91645
1619.000	7.67592	-1.19856	7.01668	-1.93234
1620.000	7.70698	-1.16301	7.13545	-1.90621
1621.000	7.67592	-1.16112	7.06342	-1.92031
1622.000	7.67398	-1.13747	7.00889	-1.87123
1623.000	7.61377	-1.15932	7.00694	-1.86137
1624.000	7.65650	-1.14541	6.96409	-1.84379
1625.000	7.61960	-1.15142	7.03810	-1.84152
1626.000	7.59824	-1.15147	6.99136	-1.88313
1627.000	7.54190	-1.13980	6.98552	-1.85949
1628.000	7.53413	-1.16939	6.90759	-1.94068
1629.000	7.51858	-1.08860	6.88616	-1.81844
1630.000	7.50303	-1.10244	6.96799	-1.87336
1631.000	7.46805	-1.11436	6.94266	-1.90503
1632.000	7.46611	-1.10845	6.86667	-1.91323
1633.000	7.47000	-1.11830	6.90370	-1.95450
1634.000	7.39807	-1.16581	6.94461	-1.84189
1635.000	7.43112	-1.10262	6.90175	-1.86771
1636.000	7.40779	-1.20917	6.79846	-1.87009
1637.000	7.44667	-1.11835	6.83744	-1.79692
1638.000	7.43306	-1.14600	6.81405	-1.90554
1639.000	7.42723	-1.11446	6.74972	-1.91764
1640.000	7.42335	-1.14602	6.86083	-1.84616
1641.000	7.40196	-1.09875	6.83549	-1.92519
1642.000	7.42529	-1.11447	6.76727	-1.86429
1643.000	7.46417	-1.12620	6.84719	-1.94487
1644.000	7.44278	-1.08287	6.80431	-1.79705
1645.000	7.45056	-1.16764	6.86473	-1.82642
1646.000	7.47388	-1.12026	6.91344	-1.86372
1647.000	7.40974	-1.17564	6.69317	-1.93760
1648.000	7.49332	-1.13204	6.78676	-1.87802
1649.000	7.49332	-1.13992	6.85498	-1.91919
1650.000	7.46222	-1.14395	6.87447	-1.85006
1651.000	7.51664	-1.13395	6.88032	-1.82833
1652.000	7.48749	-1.11234	6.86667	-1.87968
1653.000	7.56521	-1.09834	6.81600	-1.85226
1654.000	7.54773	-1.07669	6.78286	-1.81489
1655.000	7.49915	-1.10245	6.82185	-1.92722
1656.000	7.53801	-1.07869	6.85693	-1.80869
1657.000	7.55744	-1.06681	6.87642	-1.88754
1658.000	7.51858	-1.06494	6.86862	-1.91914
1659.000	7.52052	-1.10042	6.80236	-1.87007
1660.000	7.50886	-1.07285	6.77896	-1.89976
1661.000	7.55355	-1.08259	6.78286	-1.85239
1662.000	7.50692	-1.09848	6.83549	-1.87586
1663.000	7.50692	-1.03342	6.83354	-1.84430
1664.000	7.52830	-1.10632	6.80626	-1.87203
1665.000	7.50692	-1.12806	6.78676	-1.83461
1666.000	7.48943	-1.14388	6.80626	-1.84835
1667.000	7.51275	-1.09650	6.81405	-1.86213
1668.000	7.49720	-1.13203	6.83549	-1.83640
1669.000	7.52247	-1.09844	6.71852	-1.82500
1670.000	7.50692	-1.10046	6.86278	-1.83629
1671.000	7.53024	-1.04914	6.89980	-1.94268
1672.000	7.55161	-1.07471	6.82380	-1.81671
1673.000	7.55744	-1.13187	6.90954	-1.77297
1674.000	7.56715	-1.07467	6.88226	-1.86581
1675.000	7.56133	-1.03723	6.80236	-1.81284
1676.000	7.55938	-1.07864	6.84524	-1.77716
1677.000	7.59435	-1.05489	6.86473	-1.86983
1678.000	7.53801	-1.10432	6.81600	-1.88186
1679.000	7.56521	-1.08848	6.85303	-1.76529
1680.000	7.56910	-1.06087	6.75752	-1.78933
1681.000	7.54578	-1.07473	6.86473	-1.84812
1682.000	7.51275	-1.02946	6.83159	-1.77129
1683.000	7.51469	-1.05903	6.80820	-1.80690
1684.000	7.55938	-1.11412	6.86278	-1.74355
1685.000	7.49526	-1.09851	6.77702	-1.72807
1686.000	7.51858	-1.07085	6.87057	-1.82640
1687.000	7.51469	-1.08861	6.85693	-1.77120
1688.000	7.52830	-1.08857	6.83549	-1.78904
1689.000	7.54384	-1.08065	6.79456	-1.87010
1690.000	7.53218	-1.08856	6.84524	-1.78308
1691.000	7.49915	-1.15568	6.90759	-1.82823
1692.000	7.49137	-1.14979	6.79456	-1.81090
1693.000	7.51469	-1.15170	6.87837	-1.80861
1694.000	7.53024	-1.12011	6.80041	-1.79114
1695.000	7.57492	-1.07663	6.73997	-1.79926
1696.000	7.53607	-1.09841	6.82575	-1.80881
1697.000	7.53413	-1.10039	6.86083	-1.79683
1698.000	7.57492	-1.08648	6.85888	-1.85604
1699.000	7.53413	-1.12799	6.83744	-1.86401
1700.000	7.51469	-1.10241	6.84719	-1.78110
1701.000	7.54190	-1.12600	6.81015	-1.75755
1702.000	7.57492	-1.13774	6.85108	-1.82252
1703.000	7.54773	-1.11021	6.78481	-1.81883
1704.000	7.50303	-1.13004	6.83744	-1.83836
1705.000	7.49915	-1.13005	6.81795	-1.80094
1706.000	7.47971	-1.12024	6.87057	-1.73760
1707.000	7.49332	-1.13401	6.81015	-1.81873
1708.000	7.48943	-1.10839	6.86473	-1.79682
1709.000	7.47971	-1.11038	6.86862	-1.75339
1710.000	7.53413	-1.21079	6.88616	-1.77503
1711.000	7.50692	-1.09454	6.86278	-1.77117
1712.000	7.53801	-1.17529	6.78871	-1.77342
1713.000	7.51858	-1.06691	6.86083	-1.81459
1714.000	7.49720	-1.08273	6.86667	-1.80668
1715.000	7.49720	-1.13991	6.88616	-1.79871
1716.000	7.54384	-1.08262	6.89396	-1.72173
1717.000	7.51858	-1.15760	6.83744	-1.78903
1718.000	7.54384	-1.09642	6.86278	-1.86391
1719.000	7.53995	-1.09840	6.87447	-1.84217
1720.000	7.55161	-1.11414	6.88226	-1.74742
1721.000	7.53218	-1.13588	6.81990	-1.79501
1722.000	7.54190	-1.11220	6.73607	-1.77559
1723.000	7.52441	-1.04323	6.75557	-1.77354
1724.000	7.53218	-1.04322	6.89590	-1.71975
1725.000	7.53218	-1.08068	6.95435	-1.76294
1726.000	7.53024	-1.07477	6.83939	-1.84230
1727.000	7.56133	-1.09243	6.86473	-1.83628
1728.000	7.52247	-1.08859	6.88811	-1.82633
1729.000	7.52441	-1.09055	6.96214	-1.84577
1730.000	7.55355	-1.05696	6.93682	-1.73341
1731.000	7.49332	-1.07289	6.91149	-1.90318
1732.000	7.52052	-1.11619	6.85888	-1.84617
1733.000	7.50109	-1.07484	6.78286	-1.84252
1734.000	7.51275	-1.08861	6.88421	-1.81253
1735.000	7.45445	-1.04537	6.86862	-1.84416
1736.000	7.50886	-1.06693	6.81795	-1.77529
1737.000	7.50498	-1.09652	6.88226	-1.89343
1738.000	7.50886	-1.07285	6.91344	-1.82031
1739.000	7.50303	-1.07681	6.87057	-1.80074
1740.000	7.53218	-1.06688	6.85108	-1.87975
1741.000	7.50692	-1.06102	6.88032	-1.75730
1742.000	7.54967	-1.08655	6.82965	-1.71604
1743.000	7.47777	-1.05912	6.90954	-1.81638
1744.000	7.51081	-1.03538	6.86473	-1.80471
1745.000	7.50303	-1.06103	6.90175	-1.79865
1746.000	7.54773	-1.03529	6.83744	-1.76930
1747.000	7.49332	-1.01768	6.96214	-1.81815
1748.000	7.54384	-1.06685	6.87057	-1.78693
1749.000	7.53801	-1.08066	6.98552	-1.82990
1750.000	7.55550	-1.05696	6.86083	-1.81065
1751.000	7.49915	-1.08273	6.90954	-1.87162
1752.000	7.55550	-1.05893	6.91928	-1.82818
1753.000	7.56327	-1.05891	7.00110	-1.81997
1754.000	7.52635	-1.05309	6.91734	-1.87159
1755.000	7.53801	-1.04912	6.95825	-1.77279
1756.000	7.53024	-1.05899	6.94071	-1.78272
1757.000	7.52247	-1.03338	6.89006	-1.76713
1758.000	7.48943	-1.06698	6.93097	-1.80841
1759.000	7.53801	-1.06686	6.93682	-1.81825
1760.000	7.50109	-1.04723	6.92903	-1.77685
1761.000	7.48360	-1.07685	6.89785	-1.78880
1762.000	7.51081	-1.04524	6.84913	-1.83437
1763.000	7.51081	-1.06101	6.90175	-1.75130
1764.000	7.49332	-1.08077	6.91734	-1.89921
1765.000	7.51275	-1.05312	6.95630	-1.78069
1766.000	7.52635	-1.05703	6.95240	-1.78662
1767.000	7.52052	-1.09056	6.94656	-1.81624
1768.000	7.54578	-1.09247	7.01084	-1.86925
1769.000	7.54773	-1.07275	6.95630	-1.76491
1770.000	7.53801	-1.10038	6.89980	-1.78288
1771.000	7.49915	-1.06498	6.97578	-1.77075
1772.000	7.51664	-1.09649	6.96994	-1.82207
1773.000	7.53024	-1.11025	6.87447	-1.80270
1774.000	7.50498	-1.11032	6.94071	-1.88136
1775.000	7.49915	-1.07879	6.93097	-1.86759
1776.000	7.51858	-1.12014	7.03810	-1.84547
1777.000	7.52052	-1.08662	6.92903	-1.83603
1778.000	7.49332	-1.10443	6.96214	-1.81026
1779.000	7.49720	-1.08273	6.86862	-1.75339
1780.000	7.51858	-1.09451	6.96214	-1.78659
1781.000	7.52441	-1.10238	6.92318	-1.75319
1782.000	7.45250	-1.04538	6.95825	-1.80436
1783.000	7.50109	-1.07287	6.92903	-1.81433
1784.000	7.53413	-1.10433	6.98357	-1.77861
1785.000	7.49526	-1.07288	6.96799	-1.82602
1786.000	7.51275	-1.06495	6.97188	-1.88913
1787.000	7.50109	-1.08075	7.04978	-1.90065
1788.000	7.48554	-1.10840	6.93682	-1.74328
1789.000	7.47388	-1.11040	7.01278	-1.82782
1790.000	7.47388	-1.13997	6.96020	-1.76095
1791.000	7.49137	-1.14979	6.97383	-1.81416
1792.000	7.44278	-1.12625	6.94461	-1.86557
1793.000	7.47777	-1.10250	6.92708	-1.77685
1794.000	7.47583	-1.13603	6.95630	-1.78266
1795.000	7.46805	-1.09267	7.04005	-1.77051
1796.000	7.46805	-1.14393	6.92708	-1.77685
1797.000	7.47194	-1.13209	6.91734	-1.84594
1798.000	7.45250	-1.06115	6.97188	-1.84968
1799.000	7.47388	-1.10251	6.92123	-1.81239
1800.000	7.46805	-1.15379	6.91734	-1.92880
1801.000	7.45639	-1.09467	6.94461	-1.82611
1802.000	7.43890	-1.15584	6.94461	-1.82611
1803.000	7.46222	-1.15381	6.89980	-1.86772
1804.000	7.48943	-1.17937	6.95435	-1.87736
1805.000	7.45833	-1.13607	6.88616	-1.83225
1806.000	7.44278	-1.13217	6.89980	-1.82826
1807.000	7.44473	-1.15583	6.97773	-1.88121
1808.000	7.42723	-1.20517	6.94266	-1.77088
1809.000	7.44862	-1.09272	6.96409	-1.80039
1810.000	7.45639	-1.14988	6.91344	-1.77690
1811.000	7.44473	-1.07103	6.98162	-1.82005
1812.000	7.46611	-1.14591	7.01278	-1.86135
1813.000	7.47777	-1.10250	6.88226	-1.74545
1814.000	7.47194	-1.13406	6.93877	-1.83797
1815.000	7.47777	-1.13011	6.91149	-1.86570
1816.000	7.47388	-1.12420	6.80431	-1.82468
1817.000	7.46805	-1.08872	6.90565	-1.82626
1818.000	7.44084	-1.14598	6.96409	-1.83984
1819.000	7.48360	-1.13009	6.96409	-1.80236
1820.000	7.46611	-1.04929	6.93682	-1.82614
1821.000	7.54384	-1.07276	7.00499	-1.83771
1822.000	7.49137	-1.03148	6.98552	-1.82990
1823.000	7.45833	-1.12227	7.01084	-1.78640
1824.000	7.47388	-1.09857	6.96214	-1.85761
1825.000	7.51469	-1.06889	7.02252	-1.78438
1826.000	7.46417	-1.03155	6.97578	-1.72537
1827.000	7.48360	-1.05911	6.95630	-1.82606
1828.000	7.48749	-1.06896	6.97188	-1.85165
1829.000	7.46222	-1.09268	7.02642	-1.87707
1830.000	7.50498	-1.09652	7.01863	-1.82385
1831.000	7.48749	-1.10050	6.98552	-1.84962
1832.000	7.46028	-1.11635	6.97188	-1.84573
1833.000	7.49915	-1.09062	7.00889	-1.78443
1834.000	7.50886	-1.08073	7.05368	-1.85330
1835.000	7.52441	-1.10435	7.05173	-1.81188
1836.000	7.51469	-1.07678	7.02252	-1.86723
1837.000	7.50498	-1.08666	6.97578	-1.84769
1838.000	7.50303	-1.09455	6.98552	-1.80622
1839.000	7.47388	-1.10843	6.96799	-1.78064
1840.000	7.50498	-1.06694	6.99720	-1.79434
1841.000	7.47583	-1.11237	6.91928	-1.74531
1842.000	7.47583	-1.07096	7.04394	-1.83361
1843.000	7.51275	-1.10636	6.96020	-1.72346
1844.000	7.50498	-1.10638	7.04394	-1.75668
1845.000	7.52441	-1.09844	7.03226	-1.80999
1846.000	7.56327	-1.06680	7.01668	-1.79032
1847.000	7.57492	-1.08648	7.11014	-1.84913
1848.000	7.55550	-1.07273	7.03031	-1.86720
1849.000	7.53218	-1.06293	6.99720	-1.83182
1850.000	7.54773	-1.06487	7.05368	-1.77834
1851.000	7.52635	-1.07675	6.99526	-1.80421
1852.000	7.50109	-1.08864	6.97188	-1.81219
1853.000	7.49526	-1.15569	6.96799	-1.80037
1854.000	7.39807	-1.04551	6.82965	-1.73775
1855.000	7.25221	-1.02809	6.69122	-1.65731
1856.000	6.99526	-1.05631	6.55663	-1.72292
1857.000	6.68147	-1.02342	6.35362	-1.81053
1858.000	6.32628	-1.09728	6.05858	-1.82538
1859.000	5.89822	-1.10607	5.59878	-1.89214
1860.000	5.51260	-1.08900	5.27550	-1.91294
1861.000	4.98524	-1.16520	4.94011	-2.04064
1862.000	4.45507	-1.22557	4.36467	-2.02646
1863.000	3.99497	-1.18861	3.99300	-2.07697
1864.000	3.54419	-1.23289	3.56192	-2.15137
1865.000	3.01807	-1.28318	3.14029	-2.17412
1866.000	2.49932	-1.38108	2.65124	-2.31991
1867.000	2.12036	-1.48476	2.27631	-2.43963
1868.000	1.77873	-1.54269	1.91698	-2.47392
1869.000	1.37573	-1.55491	1.59700	-2.56366
1870.000	1.07536	-1.65049	1.31645	-2.70887
1871.000	0.82238	-1.74203	1.13860	-2.78247
1872.000	0.69389	-1.76394	0.91923	-2.85608
1873.000	0.56936	-1.76399	0.80261	-2.83434
1874.000	0.55552	-1.74809	0.69982	-2.95148
1875.000	0.56738	-1.77989	0.57727	-2.89203
1876.000	0.63657	-1.80769	0.60692	-2.98725
1877.000	0.71564	-1.81163	0.62668	-2.86223
1878.000	0.95085	-1.71613	0.76308	-2.76094
1879.000	1.21963	-1.68617	0.83819	-2.69937
1880.000	1.44686	-1.63038	0.97259	-2.60995
1881.000	1.66022	-1.54477	1.09315	-2.48280
1882.000	1.84786	-1.51878	1.31645	-2.45282
1883.000	1.98807	-1.51270	1.43896	-2.30577
1884.000	2.10061	-1.43511	1.43896	-2.30974
1885.000	2.25460	-1.46277	1.63256	-2.18246
1886.000	2.35329	-1.44479	1.73725	-2.20815
1887.000	2.35329	-1.39910	1.78861	-2.19817
1888.000	2.38881	-1.43284	1.82416	-2.24776
1889.000	2.32763	-1.44085	1.82613	-2.17827
1890.000	2.31184	-1.45676	1.87353	-2.16431
1891.000	2.29210	-1.44088	1.85576	-2.28147
1892.000	2.19932	-1.44296	1.81823	-2.31725
1893.000	2.07692	-1.54639	1.76491	-2.31335
1894.000	2.03743	-1.47888	1.68787	-2.37300
1895.000	1.89130	-1.51080	1.56145	-2.42079
1896.000	1.78268	-1.53473	1.49428	-2.52806
1897.000	1.70565	-1.54871	1.42908	-2.48843
1898.000	1.63256	-1.53485	1.37178	-2.44085
1899.000	1.56342	-1.59651	1.21765	-2.44298
1900.000	1.49428	-1.60451	1.12082	-2.54035
1901.000	1.41920	-1.58072	1.08722	-2.49273
1902.000	1.39351	-1.60458	1.07932	-2.44509
1903.000	1.37178	-1.54299	0.93899	-2.43328
1904.000	1.34412	-1.55692	0.91132	-2.50478
1905.000	1.32633	-1.57482	0.85203	-2.50680
1906.000	1.31448	-1.54302	0.92516	-2.46704
1907.000	1.34609	-1.53704	0.83621	-2.45916
1908.000	1.33424	-1.57084	0.90144	-2.44522
1909.000	1.34412	-1.59666	0.88958	-2.50281
1910.000	1.36387	-1.55293	0.87772	-2.46310
1911.000	1.36387	-1.53504	0.82435	-2.47902
1912.000	1.40339	-1.55887	0.82040	-2.47903
1913.000	1.40142	-1.57874	0.90144	-2.46706
1914.000	1.42117	-1.52507	0.83621	-2.43335
1915.000	1.37178	-1.54299	0.93899	-2.50079
1916.000	1.46859	-1.54491	0.92516	-2.45513
1917.000	1.42315	-1.53898	0.89749	-2.43926
1918.000	1.43303	-1.53500	0.97654	-2.48885
1919.000	1.41722	-1.57674	1.02793	-2.48881
1920.000	1.44291	-1.53102	1.02003	-2.39947
1921.000	1.46266	-1.53100	1.05165	-2.39944
1922.000	1.47057	-1.52504	1.06548	-2.47091
1923.000	1.48045	-1.57074	0.99829	-2.39551
1924.000	1.48045	-1.49919	1.00619	-2.43323
1925.000	1.51798	-1.47731	1.05560	-2.38554
1926.000	1.47847	-1.52106	0.99433	-2.38360
1927.000	1.51206	-1.50116	1.07932	-2.30808
1928.000	1.50415	-1.50116	1.02595	-2.38159
1929.000	1.53181	-1.54089	1.03188	-2.39747
1930.000	1.56935	-1.51105	1.12477	-2.31797
1931.000	1.50810	-1.53892	1.03781	-2.39151
1932.000	1.53774	-1.53095	1.06153	-2.36568
1933.000	1.51008	-1.46340	1.04572	-2.42327
1934.000	1.52193	-1.52102	1.09908	-2.35969
1935.000	1.52193	-1.53295	0.98643	-2.42332
1936.000	1.54959	-1.56671	1.04769	-2.39547
1937.000	1.49823	-1.54489	1.06943	-2.37560
1938.000	1.48045	-1.55881	1.06548	-2.46694
1939.000	1.50613	-1.50116	1.00817	-2.41139
1940.000	1.50218	-1.49719	1.03584	-2.36570
1941.000	1.45081	-1.53101	1.03781	-2.32598
1942.000	1.47452	-1.53894	1.03781	-2.45108
1943.000	1.47847	-1.52106	1.10698	-2.47088
1944.000	1.49625	-1.57073	1.01014	-2.47294
1945.000	1.46266	-1.55088	1.05955	-2.54437
1946.000	1.42908	-1.58866	1.01607	-2.45109
1947.000	1.42710	-1.53500	1.14453	-2.48871
1948.000	1.48440	-1.56477	1.05560	-2.52651
1949.000	1.42315	-1.54097	1.08129	-2.43714
1950.000	1.44488	-1.56877	1.07141	-2.44509
1951.000	1.44883	-1.50518	1.11884	-2.43116
1952.000	1.46662	-1.53895	1.07339	-2.42524
1953.000	1.43500	-1.54096	1.02398	-2.46499
1954.000	1.46464	-1.53498	1.04769	-2.47092
1955.000	1.49428	-1.55483	1.09117	-2.48677
1956.000	1.46266	-1.54491	1.08920	-2.44905
1957.000	1.49428	-1.54887	1.03188	-2.38357
1958.000	1.44488	-1.53698	1.07932	-2.46693
1959.000	1.49032	-1.52701	1.02200	-2.42329
1960.000	1.41129	-1.49129	1.05560	-2.50864
1961.000	1.43105	-1.50718	1.01410	-2.44911
1962.000	1.44686	-1.53499	1.00619	-2.49081
1963.000	1.43896	-1.55089	1.07141	-2.49274
1964.000	1.45871	-1.51908	0.99236	-2.52854
1965.000	1.44093	-1.54692	0.98643	-2.43523
1966.000	1.41525	-1.52110	1.06746	-2.41730
1967.000	1.43303	-1.52506	1.07141	-2.47090
1968.000	1.43303	-1.55885	1.05955	-2.52253
1969.000	1.46859	-1.57273	0.97852	-2.45906
1970.000	1.47649	-1.49920	1.02793	-2.51065
1971.000	1.43698	-1.56282	1.05560	-2.43518
1972.000	1.45279	-1.57672	1.07536	-2.52649
1973.000	1.43698	-1.52108	1.09315	-2.44905
1974.000	1.45279	-1.55685	1.05955	-2.47290
1975.000	1.45674	-1.57473	1.09117	-2.47684
1976.000	1.43500	-1.53102	1.05955	-2.49672
1977.000	1.45674	-1.51908	1.05955	-2.52253
1978.000	1.45674	-1.56877	1.07141	-2.49274
1979.000	1.44488	-1.55685	1.03584	-2.51064
1980.000	1.47649	-1.51509	0.99236	-2.46700
1981.000	1.44093	-1.53698	1.06746	-2.50664
1982.000	1.45279	-1.57871	0.98643	-2.50472
1983.000	1.48242	-1.52503	0.99433	-2.49876
1984.000	1.47057	-1.54292	1.03188	-2.49079
1985.000	1.42908	-1.52904	1.03781	-2.47490
1986.000	1.44093	-1.55487	1.03584	-2.45902
1987.000	1.44686	-1.55486	1.09710	-2.56816
1988.000	1.43896	-1.53698	1.07141	-2.47090
1989.000	1.43896	-1.54891	0.97062	-2.45311
1990.000	1.48835	-1.51707	1.05955	-2.44907
1991.000	1.49032	-1.52701	1.08920	-2.51655
1992.000	1.45081	-1.50716	1.04374	-2.49277
1993.000	1.46662	-1.51908	1.05165	-2.38356
1994.000	1.50810	-1.49321	1.04769	-2.47688
1995.000	1.53774	-1.44549	1.06943	-2.42921
1996.000	1.50218	-1.49322	1.06943	-2.42127
1997.000	1.52391	-1.52699	1.04374	-2.46696
1998.000	1.50218	-1.50713	1.05362	-2.46893
1999.000	1.53181	-1.47730	1.00421	-2.52258
2000.000	1.50415	-1.51706	1.07339	-2.51458
2001.000	1.48835	-1.50515	1.00421	-2.46500
2002.000	1.48835	-1.49720	1.02595	-2.41336
2003.000	1.49823	-1.50713	1.04374	-2.47291
2004.000	1.51601	-1.52103	1.04374	-2.51460
2005.000	1.48045	-1.50913	1.04572	-2.41335
2006.000	1.47057	-1.52901	1.01805	-2.37961
2007.000	1.51798	-1.52301	1.05955	-2.39944
2008.000	1.48440	-1.48528	0.98445	-2.45707
2009.000	1.49823	-1.45744	0.94295	-2.46505
2010.000	1.48835	-1.51111	1.02003	-2.46896
2011.000	1.47847	-1.50913	1.11489	-2.42917
2012.000	1.49428	-1.47335	1.00817	-2.39947
2013.000	1.48637	-1.45149	1.10698	-2.43117
2014.000	1.47254	-1.53696	1.05758	-2.46694
2015.000	1.47847	-1.48926	1.02991	-2.45505
2016.000	1.49230	-1.46937	1.04967	-2.50864
2017.000	1.51206	-1.44750	0.99236	-2.44913
2018.000	1.50810	-1.51110	1.03979	-2.45505
2019.000	1.48637	-1.48130	1.07141	-2.49870
2020.000	1.49230	-1.48925	1.01014	-2.41337
2021.000	1.46069	-1.50914	1.02595	-2.48484
2022.000	1.51403	-1.53892	1.00026	-2.47692
2023.000	1.50613	-1.52899	1.02003	-2.44315
2024.000	1.51403	-1.52501	1.05362	-2.43320
2025.000	1.49428	-1.48527	0.99433	-2.45111
2026.000	1.49823	-1.55085	1.06153	-2.43120
2027.000	1.50020	-1.49123	1.02991	-2.40740
2028.000	1.46464	-1.49920	0.94097	-2.40747
2029.000	1.51403	-1.49122	0.99829	-2.41735
2030.000	1.47649	-1.45746	1.04967	-2.39150
2031.000	1.50613	-1.47135	1.01212	-2.42131
2032.000	1.49823	-1.46539	1.04177	-2.48284
2033.000	1.51996	-1.48327	1.05165	-2.44710
2034.000	1.48045	-1.45348	0.95876	-2.42731
2035.000	1.45674	-1.46940	1.08722	-2.46494
2036.000	1.49428	-1.49123	1.11291	-2.41528
2037.000	1.49032	-1.44155	1.02200	-2.36968
2038.000	1.47847	-1.47137	1.00619	-2.35380
2039.000	1.49625	-1.50912	1.01607	-2.44315
2040.000	1.49032	-1.51508	0.97259	-2.47098
2041.000	1.49625	-1.49322	1.03781	-2.42725
2042.000	1.46266	-1.50318	1.05560	-2.47092
2043.000	1.42908	-1.50320	1.00224	-2.44118
2044.000	1.47057	-1.49920	1.02793	-2.44116
2045.000	1.47254	-1.47932	1.02003	-2.44513
2046.000	1.49230	-1.48329	0.99433	-2.41140
2047.000	1.45081	-1.50319	1.04769	-2.42526
2048.000	1.48637	-1.47931	1.01212	-2.46102
2049.000	1.51996	-1.48724	0.97457	-2.48091
2050.000	1.47254	-1.49721	1.01212	-2.45904
2051.000	1.49823	-1.52303	0.97062	-2.38759
2052.000	1.43698	-1.51512	0.99038	-2.45707
2053.000	1.44686	-1.53101	0.98050	-2.48289
2054.000	1.46464	-1.45150	1.02595	-2.39549
2055.000	1.49230	-1.50117	1.08327	-2.44906
2056.000	1.48242	-1.50714	1.01607	-2.48286
2057.000	1.46464	-1.54094	1.07141	-2.45899
2058.000	1.43698	-1.48531	0.97457	-2.45907
2059.000	1.49823	-1.52899	1.11489	-2.47484
2060.000	1.47649	-1.50913	0.97062	-2.54444
2061.000	1.49625	-1.48527	1.10106	-2.43117
2062.000	1.48835	-1.47136	1.02595	-2.36372
2063.000	1.50613	-1.51110	1.01410	-2.45308
2064.000	1.46859	-1.50914	1.05758	-2.36370
2065.000	1.51996	-1.47730	1.00421	-2.44117
2066.000	1.46069	-1.51908	1.05165	-2.49474
2067.000	1.47254	-1.50913	1.04967	-2.45702
2068.000	1.48045	-1.51509	0.99038	-2.48089
2069.000	1.49032	-1.45944	1.05165	-2.49872
2070.000	1.44093	-1.50121	0.96666	-2.48290
2071.000	1.47847	-1.48528	1.04967	-2.44114
2072.000	1.48440	-1.48528	1.01212	-2.45904
2073.000	1.47254	-1.50317	1.01805	-2.47889
2074.000	1.44686	-1.43959	1.02200	-2.43123
2075.000	1.47254	-1.44951	1.02003	-2.47492
2076.000	1.47254	-1.49125	1.04967	-2.48681
2077.000	1.46069	-1.51113	1.03386	-2.44711
2078.000	1.45476	-1.51312	0.99631	-2.44714
2079.000	1.44093	-1.46344	1.09117	-2.47486
2080.000	1.44686	-1.47735	1.04374	-2.47291
2081.000	1.45279	-1.47735	0.99038	-2.42729
2082.000	1.43500	-1.50916	1.03584	-2.46696
2083.000	1.47847	-1.52106	0.97062	-2.50275
2084.000	1.47254	-1.48727	0.95678	-2.43525
2085.000	1.44488	-1.48928	1.08920	-2.47288
2086.000	1.46069	-1.48927	1.06746	-2.42524
2087.000	1.44883	-1.51313	1.14058	-2.55621
2088.000	1.47452	-1.50317	0.96666	-2.46106
2089.000	1.45871	-1.49126	1.02398	-2.45506
2090.000	1.50218	-1.47930	1.08920	-2.50067
2091.000	1.48045	-1.48131	1.04177	-2.40342
2092.000	1.44686	-1.50120	0.99631	-2.44714
2093.000	1.48637	-1.43956	1.04374	-2.53644
2094.000	1.49823	-1.48527	1.05362	-2.39547
2095.000	1.45871	-1.47735	0.99433	-2.47096
2096.000	1.45476	-1.51710	1.04967	-2.47886
2097.000	1.46662	-1.44156	0.96469	-2.45709
2098.000	1.51403	-1.45743	1.09117	-2.50662
2099.000	1.46464	-1.51113	0.97852	-2.42729
2100.000	1.48242	-1.47932	1.01805	-2.44514
2101.000	1.49032	-1.51707	1.00421	-2.43522
2102.000	1.48637	-1.50316	0.98840	-2.46700
2103.000	1.44093	-1.52307	1.04967	-2.46099
2104.000	1.47847	-1.49323	1.02793	-2.43520
2105.000	1.50218	-1.49918	1.01805	-2.42528
2106.000	1.45279	-1.51312	0.96073	-2.48290
2107.000	1.45871	-1.52504	0.98445	-2.40743
2108.000	1.44291	-1.46146	1.02398	-2.35776
2109.000	1.48440	-1.41770	1.02991	-2.40542
2110.000	1.42315	-1.48731	1.02991	-2.43917
2111.000	1.43500	-1.48134	1.07734	-2.47686
2112.000	1.43500	-1.51313	1.05165	-2.45702
2113.000	1.41722	-1.49327	1.07734	-2.41332
2114.000	1.46464	-1.51709	1.09513	-2.41132
2115.000	1.43698	-1.50717	1.05758	-2.38752
2116.000	1.42117	-1.47141	0.96271	-2.43723
2117.000	1.46266	-1.49920	1.05165	-2.47489
2118.000	1.46069	-1.46741	1.05362	-2.41135
2119.000	1.45279	-1.51312	1.06351	-2.38553
2120.000	1.46069	-1.49523	0.99631	-2.43324
2121.000	1.41327	-1.49725	1.08327	-2.43317
2122.000	1.48835	-1.48528	1.02200	-2.42528
2123.000	1.46266	-1.50914	1.04769	-2.44908
2124.000	1.45871	-1.55088	0.99433	-2.41736
2125.000	1.50020	-1.49322	0.96469	-2.42929
2126.000	1.46069	-1.49126	0.96864	-2.43127
2127.000	1.43896	-1.47736	1.02398	-2.46300
2128.000	1.43303	-1.50916	1.06153	-2.43120
2129.000	1.45081	-1.55287	1.13663	-2.53041
2130.000	1.49625	-1.60053	1.12082	-2.52844
2131.000	1.53971	-1.70582	1.23939	-2.54222
2132.000	1.67207	-1.78518	1.43500	-2.60157
2133.000	1.81823	-1.92210	1.60886	-2.73629
2134.000	2.04335	-2.12041	1.83996	-2.91647
2135.000	2.20327	-2.37823	1.93475	-3.06502
2136.000	2.49735	-2.63958	2.27039	-3.34774
2137.000	2.69859	-2.83743	2.46578	-3.60273
2138.000	2.80707	-3.15621	2.84257	-3.92214
2139.000	2.99441	-3.44479	3.02792	-4.26146
2140.000	3.24671	-3.79611	3.29992	-4.50913
2141.000	3.44768	-3.98114	3.51662	-4.68963
2142.000	3.69975	-4.27235	3.80999	-5.01132
2143.000	3.76078	-4.55622	3.96939	-5.21317
2144.000	3.90446	-4.81768	4.07366	-5.51544
2145.000	4.04415	-4.95871	4.13463	-5.75476
2146.000	4.08546	-5.11992	4.33911	-5.88872
2147.000	4.17986	-5.27281	4.32535	-6.15369
2148.000	4.24082	-5.42974	4.31553	-6.34588
2149.000	4.27228	-5.54550	4.21132	-6.40944
2150.000	4.31946	-5.68859	4.32732	-6.63758
2151.000	4.30963	-5.86147	4.29194	-6.68682
2152.000	4.34108	-5.90245	4.20739	-6.74234
2153.000	4.38825	-5.92955	4.15233	-6.86019
2154.000	4.41380	-5.89991	4.25065	-6.90235
2155.000	4.49241	-5.99347	4.23099	-6.89080
2156.000	4.46097	-5.98980	4.28211	-6.81407
2157.000	4.56117	-5.97525	4.26245	-6.81620
2158.000	4.55135	-5.99691	4.28407	-6.82383
2159.000	4.59260	-5.94752	4.30373	-6.69063
2160.000	4.58474	-5.86714	4.31553	-6.60049
2161.000	4.56510	-5.82609	4.26048	-6.50698
2162.000	4.52974	-5.70858	4.34894	-6.42788
2163.000	4.51991	-5.66153	4.25458	-6.36010
2164.000	4.46490	-5.55194	4.26638	-6.22083
2165.000	4.41970	-5.47957	4.20149	-6.15271
2166.000	4.32339	-5.43702	4.23492	-6.06418
2167.000	4.37450	-5.31671	4.14446	-6.03152
2168.000	4.31553	-5.28762	4.13463	-5.99431
2169.000	4.27621	-5.21904	4.15626	-5.96274
2170.000	4.29980	-5.20708	4.04021	-5.98519
2171.000	4.31749	-5.23647	4.16413	-5.96268
2172.000	4.31159	-5.25224	4.19559	-5.98796
2173.000	4.39218	-5.30872	4.20542	-6.06833
2174.000	4.45311	-5.33385	4.19363	-6.13905
2175.000	4.48258	-5.36706	4.27621	-6.16977
2176.000	4.54742	-5.45110	4.27621	-6.25800
2177.000	4.60046	-5.56466	4.43149	-6.37037
2178.000	4.57689	-5.61591	4.41380	-6.40970
2179.000	4.63189	-5.71563	4.40791	-6.46459
2180.000	4.68688	-5.71518	4.39218	-6.49606
2181.000	4.68688	-5.78781	4.37450	-6.54712
2182.000	4.68884	-5.80545	4.40398	-6.57036
2183.000	4.74186	-5.84230	4.37646	-6.53732
2184.000	4.69473	-5.90547	4.40005	-6.59780
2185.000	4.70651	-5.85437	4.41380	-6.58006
2186.000	4.71830	-5.93078	4.36074	-6.58836
2187.000	4.74579	-5.85992	4.39415	-6.59589
2188.000	4.71437	-5.94454	4.38432	-6.60968
2189.000	4.68099	-5.90559	4.36663	-6.58243
2190.000	4.74971	-5.85204	4.23689	-6.61291
2191.000	4.69866	-5.82304	4.33125	-6.60231
2192.000	4.69866	-5.83677	4.33322	-6.54552
2193.000	4.73597	-5.81291	4.43346	-6.52507
2194.000	4.69473	-5.79559	4.31749	-6.57503
2195.000	4.72615	-5.75804	4.30373	-6.55165
2196.000	4.73793	-5.79916	4.38432	-6.55291
2197.000	4.70062	-5.79162	4.27817	-6.57536
2198.000	4.73204	-5.80313	4.28211	-6.52442
2199.000	4.71241	-5.80330	4.32535	-6.56321
2200.000	4.76935	-5.82048	4.21526	-6.49560
2201.000	4.73597	-5.82861	4.27031	-6.55585
2202.000	4.70651	-5.76606	4.34894	-6.57475
2203.000	4.69866	-5.83873	4.34698	-6.45728
2204.000	4.74382	-5.81089	4.24475	-6.47969
2205.000	4.69473	-5.77989	4.24868	-6.42480
2206.000	4.68295	-5.80354	4.27621	-6.45200
2207.000	4.70259	-5.77787	4.24475	-6.53648
2208.000	4.62796	-5.77651	4.41577	-6.42536
2209.000	4.70062	-5.79358	4.21919	-6.51907
2210.000	4.66331	-5.80370	4.29390	-6.54586
2211.000	4.69080	-5.82310	4.37253	-6.50407
2212.000	4.68099	-5.79178	4.31946	-6.47906
2213.000	4.68099	-5.79178	4.36860	-6.40421
2214.000	4.69670	-5.80735	4.32142	-6.47513
2215.000	4.66331	-5.84491	4.33125	-6.43195
2216.000	4.67509	-5.74472	4.23689	-6.43666
2217.000	4.70259	-5.76805	4.26638	-6.42074
2218.000	4.70455	-5.75037	4.23492	-6.51111
2219.000	4.71241	-5.76993	4.41773	-6.48018
2220.000	4.70848	-5.75819	4.27031	-6.37368
2221.000	4.67117	-5.79186	4.26441	-6.39137
2222.000	4.70259	-5.78572	4.25065	-6.41695
2223.000	4.69473	-5.77989	4.28604	-6.47934
2224.000	4.70062	-5.74059	4.30373	-6.44002
2225.000	4.69080	-5.83291	4.22902	-6.46219
2226.000	4.67706	-5.79770	4.25458	-6.43847
2227.000	4.74579	-5.79713	4.26834	-6.45207
2228.000	4.71633	-5.76205	4.29980	-6.45572
2229.000	4.70848	-5.80333	4.32339	-6.42222
2230.000	4.73597	-5.84627	4.22116	-6.47205
2231.000	4.68099	-5.83299	4.27817	-6.55187
2232.000	4.71044	-5.81901	4.26441	-6.48148
2233.000	4.74579	-5.79909	4.34894	-6.47881
2234.000	4.73008	-5.80708	4.27621	-6.52447
2235.000	4.72222	-5.82088	4.35484	-6.50030
2236.000	4.70651	-5.82493	4.28800	-6.51654
2237.000	4.69473	-5.78578	4.29194	-6.53021
2238.000	4.70455	-5.82691	4.30963	-6.54768
2239.000	4.73008	-5.78941	4.38039	-6.52162
2240.000	4.71633	-5.82093	4.30963	-6.48698
2241.000	4.71241	-5.83862	4.34108	-6.55524
2242.000	4.68295	-5.86045	4.36467	-6.54329
2243.000	4.71241	-5.80133	4.29587	-6.51059
2244.000	4.73204	-5.76977	4.35091	-6.47096
2245.000	4.71044	-5.76210	4.29783	-6.48316
2246.000	4.74382	-5.80892	4.35287	-6.51011
2247.000	4.72811	-5.82279	4.35287	-6.46702
2248.000	4.75757	-5.83039	4.36074	-6.52179
2249.000	4.72811	-5.77569	4.40791	-6.51747
2250.000	4.73597	-5.83646	4.28997	-6.48714
2251.000	4.70848	-5.85239	4.32732	-6.43786
2252.000	4.72222	-5.82088	4.28211	-6.56750
2253.000	4.71241	-5.80918	4.28604	-6.44408
2254.000	4.73990	-5.81680	4.32339	-6.44377
2255.000	4.73597	-5.84823	4.36270	-6.54331
2256.000	4.74382	-5.83639	4.28014	-6.49310
2257.000	4.71830	-5.85230	4.33518	-6.48284
2258.000	4.72222	-5.84442	4.37843	-6.47856
2259.000	4.72026	-5.81108	4.34698	-6.49449
2260.000	4.69866	-5.82304	4.28997	-6.52631
2261.000	4.68688	-5.81136	4.32535	-6.54167
2262.000	4.69080	-5.84076	4.32929	-6.48093
2263.000	4.69473	-5.83680	4.36270	-6.51786
2264.000	4.72026	-5.80716	4.27621	-6.53818
2265.000	4.72222	-5.86993	4.36074	-6.55312
2266.000	4.69866	-5.82892	4.37843	-6.48247
2267.000	4.74579	-5.81676	4.38825	-6.56071
2268.000	4.73400	-5.82667	4.32339	-6.57693
2269.000	4.73597	-5.85608	4.33911	-6.58854
2270.000	4.71044	-5.82294	4.37646	-6.51186
2271.000	4.74186	-5.86780	4.32535	-6.56517
2272.000	4.71830	-5.87781	4.35681	-6.56098
2273.000	4.72811	-5.83456	4.38629	-6.57443
2274.000	4.72615	-5.85616	4.34894	-6.57084
2275.000	4.73008	-5.89144	4.30963	-6.64165
2276.000	4.74775	-5.87756	4.38432	-6.60968
2277.000	4.72615	-5.85028	4.35877	-6.57467
2278.000	4.73793	-5.85606	4.26834	-6.53628
2279.000	4.73204	-5.84630	4.33125	-6.55533
2280.000	4.70651	-5.85044	4.36074	-6.62359
2281.000	4.70848	-5.86808	4.35877	-6.57467
2282.000	4.67117	-5.84092	4.38629	-6.54898
2283.000	4.71241	-5.87394	4.28997	-6.57722
2284.000	4.69277	-5.84271	4.35484	-6.55121
2285.000	4.71830	-5.81699	4.31946	-6.58088
2286.000	4.71437	-5.85430	4.29390	-6.55956
2287.000	4.72222	-5.90132	4.32535	-6.58475
2288.000	4.70062	-5.85834	4.24868	-6.58540
2289.000	4.70848	-5.88770	4.36074	-6.58248
2290.000	4.74186	-5.91881	4.31749	-6.54174
2291.000	4.72222	-5.88366	4.33911	-6.57680
2292.000	4.76738	-5.88328	4.27228	-6.50296
2293.000	4.73204	-5.86200	4.42756	-6.53492
2294.000	4.72419	-5.84637	4.27228	-6.54213
2295.000	4.73008	-5.83651	4.36074	-6.59031
2296.000	4.74382	-5.84817	4.32929	-6.54751
2297.000	4.73990	-5.84428	4.33518	-6.52005
2298.000	4.72222	-5.84246	4.29783	-6.50079
2299.000	4.72026	-5.87387	4.31946	-6.50844
2300.000	4.72615	-5.87774	4.37646	-6.49032
2301.000	4.75953	-5.85981	4.28604	-6.50089
2302.000	4.73400	-5.84236	4.30766	-6.49091
2303.000	4.71633	-5.86409	4.30963	-6.47718
2304.000	4.74579	-5.89327	4.31553	-6.50455
2305.000	4.70259	-5.86028	4.35877	-6.45326
2306.000	4.70062	-5.83872	4.35091	-6.51208
2307.000	4.67902	-5.89972	4.29980	-6.53014
2308.000	4.73597	-5.89532	4.39415	-6.45100
2309.000	4.72026	-5.86798	4.33322	-6.47894
2310.000	4.76149	-5.85194	4.33518	-6.55138
2311.000	4.74186	-5.87761	4.31749	-6.50062
2312.000	4.74579	-5.85796	4.32142	-6.52408
2313.000	4.75168	-5.83240	4.29194	-6.53217
2314.000	4.73990	-5.85212	4.35484	-6.46309
2315.000	4.76149	-5.85587	4.29783	-6.56345
2316.000	4.73400	-5.87964	4.39415	-6.53716
2317.000	4.78702	-5.88900	4.35091	-6.51796
2318.000	4.74775	-5.88737	4.31159	-6.49675
2319.000	4.72419	-5.87776	4.28407	-6.52440
2320.000	4.72811	-5.86203	4.36663	-6.50803
2321.000	4.76738	-5.83816	4.38432	-6.52942
2322.000	4.76738	-5.83620	4.31749	-6.55936
2323.000	4.77131	-5.86167	4.32339	-6.48294
2324.000	4.74971	-5.87558	4.25458	-6.46002
2325.000	4.70259	-5.85244	4.29194	-6.54000
2326.000	4.71633	-5.90137	4.35287	-6.48661
2327.000	4.75560	-5.85395	4.34305	-6.49648
2328.000	4.73597	-5.84235	4.30963	-6.54181
2329.000	4.72811	-5.86596	4.31356	-6.56135
2330.000	4.74382	-5.88348	4.36467	-6.50217
2331.000	4.73990	-5.92079	4.38432	-6.54508
2332.000	4.71437	-5.87784	4.35877	-6.52376
2333.000	4.72026	-5.89545	4.42953	-6.57209
2334.000	4.73597	-5.87374	4.33911	-6.60029
2335.000	4.73400	-5.88553	4.37253	-6.60196
2336.000	4.70259	-5.92110	4.35484	-6.52967
2337.000	4.73793	-5.90119	4.38432	-6.57249
2338.000	4.76542	-5.94214	4.31749	-6.52999
2339.000	4.68099	-5.91344	4.36663	-6.52957
2340.000	4.72419	-5.90719	4.35681	-6.56294
2341.000	4.74186	-5.86976	4.35877	-6.57467
2342.000	4.71437	-5.92493	4.41577	-6.55655
2343.000	4.73008	-5.91302	4.40791	-6.53509
2344.000	4.72615	-5.88755	4.41184	-6.55659
2345.000	4.72222	-5.92094	4.39808	-6.53517
2346.000	4.71830	-5.88762	4.39022	-6.60180
2347.000	4.71044	-5.88572	4.41380	-6.55266
2348.000	4.70259	-5.90541	4.39415	-6.62721
2349.000	4.73008	-5.90125	4.33911	-6.49456
2350.000	4.69670	-5.92704	4.45114	-6.63649
2351.000	4.71044	-5.94654	4.41577	-6.49194
2352.000	4.68884	-5.91337	4.36467	-6.55113
2353.000	4.73597	-5.96201	4.42363	-6.51537
2354.000	4.72419	-5.93661	4.40005	-6.51949
2355.000	4.71437	-5.90335	4.37450	-6.51384
2356.000	4.71830	-5.91901	4.40201	-6.54689
2357.000	4.70062	-5.91523	4.33125	-6.52400
2358.000	4.67509	-5.90564	4.39415	-6.61155
2359.000	4.72811	-5.88754	4.39612	-6.54498
2360.000	4.71830	-5.86408	4.32929	-6.50835
2361.000	4.72026	-5.89741	4.42953	-6.48595
2362.000	4.70651	-5.86614	4.34305	-6.49257
2363.000	4.71241	-5.91710	4.32535	-6.49076
2364.000	4.73204	-5.88162	4.38039	-6.54707
2365.000	4.71633	-5.91706	4.40594	-6.51357
2366.000	4.72615	-5.89736	4.36860	-6.57263
2367.000	4.73400	-5.90122	4.38039	-6.44916
2368.000	4.75168	-5.88538	4.46293	-6.47195
2369.000	4.73204	-5.93262	4.35877	-6.46893
2370.000	4.71241	-5.90729	4.42559	-6.48011
2371.000	4.75560	-5.87946	4.39415	-6.52346
2372.000	4.76346	-5.88724	4.41970	-6.50757
2373.000	4.73597	-5.94632	4.37843	-6.51381
2374.000	4.73204	-5.88947	4.34894	-6.47685
2375.000	4.73990	-5.88351	4.38039	-6.54512
2376.000	4.71830	-5.86996	4.36467	-6.50805
2377.000	4.71830	-5.93078	4.39415	-6.56653
2378.000	4.73400	-5.93064	4.41970	-6.56827
2379.000	4.68884	-5.93887	4.39415	-6.53325
2380.000	4.73400	-5.90318	4.42166	-6.50560
2381.000	4.71437	-5.89158	4.44328	-6.55240
2382.000	4.67706	-5.95074	4.29390	-6.55761
2383.000	4.73204	-5.91104	4.37646	-6.48837
2384.000	4.74382	-5.90506	4.40791	-6.47047
2385.000	4.71633	-5.96021	4.40005	-6.52341
2386.000	4.71241	-5.92102	4.36860	-6.50802
2387.000	4.73204	-5.89927	4.41970	-6.54869
2388.000	4.74579	-5.90897	4.32339	-6.48490
2389.000	4.73400	-5.87964	4.34305	-6.52586
2390.000	4.73990	-5.91882	4.48062	-6.57164
2391.000	4.74971	-5.93836	4.30570	-6.53988
2392.000	4.74579	-5.91485	4.44918	-6.54060
2393.000	4.71633	-5.92099	4.41970	-6.53303
2394.000	4.69670	-5.92507	4.39808	-6.49993
2395.000	4.73400	-5.89730	4.28800	-6.52437
2396.000	4.73597	-5.90905	4.38236	-6.52552
2397.000	4.74579	-5.88739	4.38039	-6.58231
2398.000	4.75364	-5.86770	4.39022	-6.50391
2399.000	4.72419	-5.87972	4.34894	-6.48468
2400.000	4.73400	-5.87375	4.35484	-6.54338
2401.000	4.77720	-5.86750	4.35877	-6.57663
2402.000	4.77916	-5.87730	4.41773	-6.57416
2403.000	4.76738	-5.85974	4.35287	-6.51794
2404.000	4.76346	-5.89312	4.32732	-6.60039
2405.000	4.85769	-5.85112	4.37253	-6.45706
2406.000	4.82628	-5.86316	4.32142	-6.47513
2407.000	4.78898	-5.82424	4.27424	-6.49511
2408.000	4.77524	-5.82632	4.30766	-6.43607
2409.000	4.76346	-5.86173	4.36467	-6.42775
2410.000	4.77524	-5.87144	4.35681	-6.46307
2411.000	4.77720	-5.85573	4.29194	-6.40681
2412.000	4.71437	-5.88961	4.33518	-6.50243
2413.000	4.77327	-5.86361	4.39808	-6.57824
2414.000	4.77720	-5.85573	4.35484	-6.48072
2415.000	4.76738	-5.84601	4.34108	-6.44362
2416.000	4.73793	-5.93061	4.42166	-6.53497
2417.000	4.75364	-5.89124	4.38629	-6.50786
2418.000	4.75757	-5.85982	4.38629	-6.48828
2419.000	4.75168	-5.85987	4.36860	-6.43359
2420.000	4.76542	-5.86172	4.43542	-6.50744
2421.000	4.75560	-5.86769	4.38629	-6.54506
2422.000	4.79094	-5.86935	4.35681	-6.52966
2423.000	4.77916	-5.84002	4.33518	-6.57096
2424.000	4.74382	-5.86975	4.30963	-6.48502
2425.000	4.79683	-5.88499	4.39022	-6.56265
2426.000	4.75560	-5.88927	4.39415	-6.50388
2427.000	4.71830	-5.85230	4.40201	-6.56059
2428.000	4.75364	-5.85005	4.32339	-6.53777
2429.000	4.74579	-5.85404	4.35681	-6.47091
2430.000	4.72222	-5.84246	4.38432	-6.51571
2431.000	4.76346	-5.86762	4.37843	-6.54317
2432.000	4.74579	-5.82657	4.35681	-6.49245
2433.000	4.75757	-5.88729	4.29980	-6.51448
2434.000	4.77524	-5.86163	4.37056	-6.52171
2435.000	4.74186	-5.82660	4.32142	-6.52408
2436.000	4.73400	-5.85021	4.29980	-6.50077
2437.000	4.75364	-5.83043	4.27228	-6.46379
2438.000	4.76542	-5.85387	4.32339	-6.49861
2439.000	4.76149	-5.89706	4.28997	-6.44013
2440.000	4.75168	-5.86772	4.30766	-6.52616
2441.000	4.77131	-5.91071	4.31946	-6.51039
2442.000	4.78309	-5.88903	4.22312	-6.53471
2443.000	4.74382	-5.88152	4.32535	-6.52797
2444.000	4.74775	-5.87756	4.28407	-6.49307
2445.000	4.73204	-5.89535	4.30963	-6.56922
2446.000	4.73990	-5.83643	4.34305	-6.53956
2447.000	4.75560	-5.86965	4.31159	-6.54375
2448.000	4.73597	-5.84627	4.31749	-6.47516
2449.000	4.73008	-5.86790	4.34501	-6.50822
2450.000	4.75757	-5.88336	4.37843	-6.53339
2451.000	4.75953	-5.86962	4.34698	-6.56890
2452.000	4.72811	-5.92285	4.33715	-6.54549
2453.000	4.72222	-5.87582	4.40005	-6.58801
2454.000	4.76542	-5.89311	4.30963	-6.56922
2455.000	4.77131	-5.86559	4.38432	-6.53921
2456.000	4.75953	-5.88923	4.33322	-6.51615
2457.000	4.76935	-5.91661	4.37843	-6.54122
2458.000	4.78505	-5.85959	4.37646	-6.57647
2459.000	4.76149	-5.88529	4.37253	-6.60587
2460.000	4.69080	-5.85842	4.43346	-6.55248
2461.000	4.74579	-5.88935	4.40398	-6.58798
2462.000	4.76738	-5.85385	4.41773	-6.58590
2463.000	4.76149	-5.87156	4.41577	-6.57026
2464.000	4.78702	-5.86153	4.37450	-6.56866
2465.000	4.78702	-5.87331	4.41184	-6.63488
2466.000	4.78898	-5.83405	4.34108	-6.53567
2467.000	4.81843	-5.82791	4.43346	-6.60142
2468.000	4.82824	-5.83764	4.41970	-6.56827
2469.000	4.77916	-5.83413	4.35877	-6.56488
2470.000	4.84395	-5.87478	4.39218	-6.56263
2471.000	4.78309	-5.88511	4.37450	-6.58041
2472.000	4.80665	-5.83390	4.46490	-6.60897
2473.000	4.80468	-5.88492	4.36467	-6.65291
2474.000	4.78309	-5.83999	4.46293	-6.63443
2475.000	4.82235	-5.83965	4.47472	-6.57757
2476.000	4.80861	-5.83977	4.42166	-6.56433
2477.000	4.84198	-5.83949	4.38039	-6.56861
2478.000	4.76149	-5.82251	4.45311	-6.60712
2479.000	4.78898	-5.87329	4.37056	-6.53737
2480.000	4.83217	-5.84153	4.37253	-6.53931
2481.000	4.82235	-5.85927	4.46490	-6.53850
2482.000	4.83413	-5.87486	4.41380	-6.53112
2483.000	4.81646	-5.80439	4.36860	-6.55501
2484.000	4.81254	-5.87505	4.40594	-6.54489
2485.000	4.82824	-5.83960	4.42363	-6.56236
2486.000	4.84002	-5.81400	4.38432	-6.50005
2487.000	4.85180	-5.80997	4.40594	-6.61145
2488.000	4.78309	-5.84980	4.42363	-6.55257
2489.000	4.81450	-5.81618	4.35681	-6.52966
2490.000	4.82235	-5.84554	4.38432	-6.55096
2491.000	4.81057	-5.82013	4.41970	-6.60741
2492.000	4.86161	-5.86286	4.33322	-6.51811
2493.000	4.85965	-5.84718	4.36663	-6.56286
2494.000	4.81057	-5.81425	4.41577	-6.51544
2495.000	4.81057	-5.85937	4.39415	-6.61155
2496.000	4.83020	-5.83959	4.36074	-6.50221
2497.000	4.84787	-5.87671	4.41970	-6.59175
2498.000	4.82039	-5.84752	4.41380	-6.58985
2499.000	4.84983	-5.87080	4.43346	-6.46437
2500.000	4.77720	-5.84592	4.36270	-6.52177
2501.000	4.80861	-5.86920	4.40201	-6.61540
2502.000	4.83609	-5.80814	4.31553	-6.53588
2503.000	4.83217	-5.81995	4.41970	-6.58784
2504.000	4.84591	-5.86692	4.37646	-6.60975
2505.000	4.76935	-5.86168	4.42559	-6.57800
2506.000	4.80665	-5.87510	4.45900	-6.59532
2507.000	4.83217	-5.85134	4.43935	-6.57005
2508.000	4.81057	-5.78874	4.38236	-6.55293
2509.000	4.82824	-5.87295	4.39218	-6.52739
2510.000	4.77131	-5.85382	4.39022	-6.55873
2511.000	4.82824	-5.83372	4.37253	-6.53931
2512.000	4.84787	-5.86101	4.42953	-6.55839
2513.000	4.83020	-5.82978	4.45704	-6.54249
2514.000	4.88124	-5.80187	4.45900	-6.58749
2515.000	4.86357	-5.85107	4.38236	-6.49811
2516.000	4.85769	-5.80404	4.41970	-6.56435
2517.000	4.85769	-5.85897	4.34305	-6.52586
2518.000	4.84591	-5.79825	4.42363	-6.55649
2519.000	4.85180	-5.84725	4.39218	-6.59787
2520.000	4.87535	-5.83724	4.33125	-6.52204
2521.000	4.88909	-5.79592	4.37843	-6.54709
2522.000	4.83020	-5.81604	4.45900	-6.53660
2523.000	4.85769	-5.81777	4.35681	-6.51007
2524.000	4.83609	-5.83169	4.38236	-6.55097
2525.000	4.84787	-5.76880	4.40398	-6.58406
2526.000	4.84983	-5.81980	4.36663	-6.54132
2527.000	4.85572	-5.79817	4.37843	-6.51185
2528.000	4.82235	-5.81807	4.44721	-6.55432
2529.000	4.86161	-5.79223	4.30570	-6.55946
2530.000	4.82628	-5.81411	4.45900	-6.58945
2531.000	4.85769	-5.81777	4.39415	-6.49996
2532.000	4.84395	-5.83358	4.37646	-6.56277
2533.000	4.84198	-5.80613	4.41380	-6.51350
2534.000	4.87339	-5.83921	4.42166	-6.59565
2535.000	4.84787	-5.80216	4.42559	-6.57604
2536.000	4.85572	-5.80601	4.45900	-6.53268
2537.000	4.85376	-5.81584	4.46490	-6.58548
2538.000	4.83217	-5.80033	4.47079	-6.56390
2539.000	4.85572	-5.80798	4.41970	-6.50562
2540.000	4.86554	-5.83536	4.40201	-6.59974
2541.000	4.78898	-5.83798	4.42363	-6.57606
2542.000	4.81843	-5.82791	4.54742	-6.64345
2543.000	4.83020	-5.83762	4.44328	-6.63265
2544.000	4.86161	-5.82951	4.54742	-6.58474
2545.000	4.96170	-5.83845	4.56903	-6.63151
2546.000	5.08137	-5.86680	4.71044	-6.52257
2547.000	5.33038	-5.76451	4.86554	-6.40759
2548.000	5.58703	-5.68168	5.05587	-6.42533
2549.000	5.85714	-5.55161	5.27942	-6.27045
2550.000	6.15435	-5.46041	5.61640	-6.09671
2551.000	6.55858	-5.23475	5.95494	-5.82689
2552.000	6.99331	-5.03809	6.41610	-5.62807
2553.000	7.36307	-4.82447	6.77312	-5.31083
2554.000	7.82732	-4.48252	7.12766	-5.00530
2555.000	8.27892	-4.24070	7.50498	-4.62897
2556.000	8.69278	-3.95245	7.71281	-4.28382
2557.000	9.04212	-3.51439	8.05809	-3.92555
2558.000	9.48312	-3.30664	8.34667	-3.61894
2559.000	9.82705	-2.92997	8.59810	-3.27162
2560.000	10.11470	-2.60890	8.88973	-3.10839
2561.000	10.40185	-2.34287	9.06525	-2.76203
2562.000	10.66747	-2.13784	9.31763	-2.63666
2563.000	10.96121	-1.95824	9.39655	-2.35005
2564.000	11.14022	-1.74840	9.50427	-2.19259
2565.000	11.28289	-1.65008	9.74641	-2.16557
2566.000	11.43111	-1.55959	9.94025	-2.10755
2567.000	11.60385	-1.59369	10.02654	-2.16372
2568.000	11.80479	-1.61394	10.24686	-2.13291
2569.000	11.91839	-1.62493	10.23154	-2.22881
2570.000	12.04893	-1.63776	10.45539	-2.21355
2571.000	12.16800	-1.76721	10.61782	-2.32171
2572.000	12.27375	-1.76650	10.74954	-2.53922
2573.000	12.33414	-1.79522	10.82204	-2.51326
2574.000	12.42090	-1.89943	11.03360	-2.63424
2575.000	12.46803	-1.96118	11.15544	-2.76362
2576.000	12.47934	-2.01736	11.06407	-2.69826
2577.000	12.42467	-2.09345	11.21823	-2.82338
2578.000	12.32848	-2.12140	11.18779	-2.93074
2579.000	12.22844	-2.12997	11.08692	-2.85386
2580.000	12.09052	-2.15633	11.04122	-2.86794
2581.000	11.96570	-2.20202	10.89450	-2.92977
2582.000	11.77637	-2.22106	10.94215	-2.86306
2583.000	11.62282	-2.19116	10.80487	-2.88192
2584.000	11.54313	-2.18205	10.77626	-2.83345
2585.000	11.38932	-2.20855	10.69610	-2.93365
2586.000	11.32281	-2.16037	10.69419	-2.93952
2587.000	11.26767	-2.17442	10.63310	-2.83284
2588.000	11.21823	-2.12608	10.68274	-2.79922
2589.000	11.19350	-2.18667	10.64264	-2.73717
2590.000	11.26577	-2.16080	10.75527	-2.66205
2591.000	11.29619	-2.13135	10.70946	-2.64490
2592.000	11.35702	-2.02960	10.80487	-2.58361
2593.000	11.45010	-1.99778	10.90212	-2.49308
2594.000	11.50327	-2.00324	10.99931	-2.46693
2595.000	11.64178	-1.91273	10.93453	-2.42262
2596.000	11.77258	-1.93906	11.09072	-2.35703
2597.000	11.85403	-1.90153	11.12689	-2.34894
2598.000	11.94110	-1.83482	11.20301	-2.35222
2599.000	12.03380	-1.84002	11.15164	-2.24935
2600.000	12.09619	-1.82599	11.18779	-2.26856
2601.000	12.14910	-1.78482	11.15354	-2.23570
2602.000	12.14155	-1.76350	11.22964	-2.23901
2603.000	12.22088	-1.79988	11.18208	-2.21599
2604.000	12.22655	-1.79207	11.16686	-2.21416
2605.000	12.21333	-1.78439	11.15164	-2.22402
2606.000	12.19444	-1.80394	11.15734	-2.22592
2607.000	12.17933	-1.80988	11.13641	-2.16371
2608.000	12.16989	-1.79440	11.10405	-2.23023
2609.000	12.16233	-1.76725	11.13260	-2.34110
2610.000	12.13021	-1.79466	11.03360	-2.27561
2611.000	12.10375	-1.76569	11.13070	-2.29044
2612.000	12.05460	-1.75824	11.09834	-2.34137
2613.000	12.02623	-1.79147	11.03741	-2.31457
2614.000	12.00354	-1.75857	11.09072	-2.34143
2615.000	12.00165	-1.78969	11.14973	-2.36239
2616.000	11.96192	-1.74718	11.18589	-2.34651
2617.000	11.93921	-1.80955	11.08692	-2.42527
2618.000	11.96759	-1.80547	11.07740	-2.39222
2619.000	11.96381	-1.77439	11.06216	-2.39429
2620.000	11.93353	-1.80375	11.03169	-2.52318
2621.000	11.93353	-1.80570	10.99741	-2.36362
2622.000	11.96949	-1.85212	11.03931	-2.46075
2623.000	11.93353	-1.81153	11.04883	-2.41974
2624.000	11.89757	-1.80983	11.02217	-2.42385
2625.000	11.88811	-1.81184	11.04122	-2.36912
2626.000	11.89568	-1.79623	11.05645	-2.41383
2627.000	11.89757	-1.79816	11.09834	-2.45830
2628.000	11.90704	-1.79421	11.01646	-2.47458
2629.000	11.92218	-1.80383	11.02217	-2.43165
2630.000	11.88432	-1.74184	10.99360	-2.45333
2631.000	11.92596	-1.84270	11.07930	-2.43118
2632.000	11.92029	-1.80773	11.02788	-2.39847
2633.000	11.93921	-1.81538	11.04122	-2.45098
2634.000	11.90136	-1.79619	11.00312	-2.45715
2635.000	11.92786	-1.80574	11.03931	-2.39448
2636.000	11.95813	-1.80165	11.09072	-2.39600
2637.000	11.92786	-1.77268	11.15354	-2.33314
2638.000	11.94489	-1.81535	11.06407	-2.38843
2639.000	11.95624	-1.81527	11.05836	-2.47423
2640.000	11.97327	-1.77238	11.04693	-2.45678
2641.000	11.90136	-1.76702	11.10024	-2.42711
2642.000	11.92407	-1.79215	11.08882	-2.33950
2643.000	11.90704	-1.76893	11.10976	-2.45431
2644.000	11.86917	-1.82752	11.02979	-2.46862
2645.000	11.91272	-1.81362	11.10215	-2.43099
2646.000	11.89568	-1.77678	11.14783	-2.51049
2647.000	11.93353	-1.76292	11.05264	-2.41970
2648.000	11.90893	-1.71835	11.08121	-2.40583
2649.000	11.92029	-1.79218	11.06597	-2.43908
2650.000	11.90893	-1.78642	11.06216	-2.41768
2651.000	11.90893	-1.78447	11.01836	-2.43948
2652.000	11.88811	-1.78461	11.06407	-2.37673
2653.000	11.91461	-1.77666	11.05455	-2.38266
2654.000	11.92029	-1.81940	11.05645	-2.45670
2655.000	11.94489	-1.80368	10.98217	-2.35400
2656.000	11.96759	-1.77631	10.99550	-2.36754
2657.000	11.93543	-1.78235	10.95168	-2.32889
2658.000	11.92786	-1.78629	11.04503	-2.35544
2659.000	11.93732	-1.75512	10.99550	-2.35389
2660.000	11.96381	-1.78411	11.01455	-2.42587
2661.000	11.93164	-1.77265	10.93453	-2.33097
2662.000	11.92029	-1.76689	11.00503	-2.41230
2663.000	11.94300	-1.73952	10.98788	-2.31886
2664.000	11.95435	-1.80362	10.87734	-2.35678
2665.000	11.93543	-1.76680	11.05455	-2.37876
2666.000	11.91082	-1.74362	10.93453	-2.38362
2667.000	11.95246	-1.72391	10.98788	-2.40854
2668.000	11.91839	-1.72996	11.07549	-2.39613
2669.000	11.90514	-1.77477	11.02407	-2.39070
2670.000	11.93353	-1.71625	11.05836	-2.38068
2671.000	11.94678	-1.77061	11.00884	-2.38693
2672.000	11.92407	-1.77465	11.08501	-2.41749
2673.000	11.95624	-1.73749	11.09453	-2.47197
2674.000	11.92029	-1.78634	11.03550	-2.49196
2675.000	11.98462	-1.74509	11.14402	-2.37803
2676.000	11.95624	-1.71416	11.10024	-2.45439
2677.000	11.94110	-1.78232	11.13070	-2.47946
2678.000	11.95624	-1.77833	11.12880	-2.43077
2679.000	11.96381	-1.78800	11.03169	-2.48810
2680.000	11.96003	-1.77830	11.07168	-2.53647
2681.000	11.95057	-1.74920	11.09072	-2.43303
2682.000	11.95246	-1.76280	11.09072	-2.48370
2683.000	11.95435	-1.78806	11.18018	-2.51995
2684.000	11.96759	-1.73937	11.05836	-2.44110
2685.000	11.91650	-1.80387	11.14783	-2.39943
2686.000	11.90325	-1.79618	11.04312	-2.41394
2687.000	11.96003	-1.73941	11.07740	-2.40586
2688.000	11.92218	-1.76494	11.04122	-2.50166
2689.000	11.96192	-1.76662	11.03741	-2.43932
2690.000	11.93732	-1.76289	11.18589	-2.42834
2691.000	11.94300	-1.75897	11.07359	-2.43317
2692.000	11.93921	-1.80177	11.05836	-2.38652
2693.000	11.92407	-1.76881	11.04122	-2.35547
2694.000	11.93732	-1.75901	11.03741	-2.54651
2695.000	11.96949	-1.81907	11.02027	-2.48040
2696.000	11.96381	-1.77050	11.04883	-2.48405
2697.000	11.94489	-1.78812	11.15164	-2.40914
2698.000	11.92029	-1.83107	11.12118	-2.42109
2699.000	11.95624	-1.80360	11.06026	-2.39820
2700.000	11.94867	-1.80949	11.12499	-2.39962
2701.000	11.92596	-1.82325	11.10595	-2.39393
2702.000	11.96570	-1.80549	11.07168	-2.46047
2703.000	11.96570	-1.79965	11.10786	-2.40951
2704.000	11.93353	-1.79792	11.15164	-2.47149
2705.000	11.92029	-1.81551	11.08121	-2.41557
2706.000	11.94678	-1.80367	11.12118	-2.42304
2707.000	11.97705	-1.76847	11.07359	-2.46630
2708.000	11.93732	-1.75512	11.06216	-2.47614
2709.000	11.95435	-1.78028	11.18779	-2.42833
2710.000	11.92407	-1.82326	11.03550	-2.46662
2711.000	11.96949	-1.78407	11.05645	-2.40603
2712.000	12.00543	-1.77995	11.09263	-2.43886
2713.000	11.97327	-1.76460	11.13641	-2.46577
2714.000	11.98273	-1.82092	11.13831	-2.44822
2715.000	11.97327	-1.79182	11.07930	-2.41559
2716.000	11.92975	-1.79017	11.11167	-2.43870
2717.000	11.95435	-1.77834	11.13260	-2.44437
2718.000	11.96949	-1.79768	11.07168	-2.41565
2719.000	11.95246	-1.81530	11.06216	-2.41963
2720.000	11.94867	-1.79393	11.07549	-2.40782
2721.000	11.94678	-1.77061	11.05074	-2.45480
2722.000	11.94489	-1.77062	11.06788	-2.45856
2723.000	11.97705	-1.74514	11.03360	-2.41986
2724.000	11.93921	-1.74927	11.02027	-2.44531
2725.000	11.97895	-1.78401	11.02407	-2.44528
2726.000	11.96759	-1.76270	11.03360	-2.43740
2727.000	12.00165	-1.75664	11.04883	-2.42753
2728.000	11.92786	-1.71823	11.06788	-2.43127
2729.000	11.96759	-1.71409	11.11167	-2.42506
2730.000	11.96003	-1.75302	11.07359	-2.47605
2731.000	11.91461	-1.73776	11.06978	-2.32211
2732.000	11.92407	-1.73964	11.04122	-2.42565
2733.000	11.92975	-1.76294	11.02788	-2.39067
2734.000	11.94300	-1.79786	11.16496	-2.37591
2735.000	11.91650	-1.73580	11.05645	-2.45670
2736.000	11.96003	-1.75886	11.00884	-2.48634
2737.000	11.92029	-1.75523	10.92500	-2.41490
2738.000	11.95435	-1.83084	11.04693	-2.47238
2739.000	11.96381	-1.80939	10.95739	-2.42244
2740.000	11.96570	-1.78021	11.12118	-2.40745
2741.000	11.95057	-1.79003	11.00884	-2.40252
2742.000	11.99786	-1.78777	11.09072	-2.45642
2743.000	11.96381	-1.80161	11.11167	-2.46403
2744.000	11.98084	-1.78205	11.11928	-2.41331
2745.000	11.92596	-1.81936	10.98598	-2.48653
2746.000	11.96381	-1.78411	11.12309	-2.40743
2747.000	11.98462	-1.80536	11.04503	-2.38078
2748.000	11.95624	-1.73749	11.15544	-2.38183
2749.000	11.99030	-1.77810	11.11738	-2.39189
2750.000	11.93164	-1.79210	11.04693	-2.37687
2751.000	11.95057	-1.78225	11.03360	-2.40037
2752.000	11.98462	-1.73342	11.10215	-2.34524
2753.000	11.93543	-1.75707	11.03550	-2.37891
2754.000	11.92407	-1.72020	11.04122	-2.51140
2755.000	11.93732	-1.71428	11.07740	-2.39611
2756.000	11.95813	-1.74915	11.01265	-2.42198
2757.000	11.95246	-1.77446	10.99550	-2.43187
2758.000	11.95624	-1.73749	11.00503	-2.40450
2759.000	11.94489	-1.73757	11.07168	-2.38641
2760.000	11.96570	-1.75493	11.16115	-2.37984
2761.000	11.96759	-1.77242	11.02027	-2.36929
2762.000	11.96949	-1.79185	10.95168	-2.36789
2763.000	11.97705	-1.78986	11.03550	-2.33408
2764.000	11.96003	-1.76858	11.01836	-2.30692
2765.000	11.95624	-1.76666	10.99360	-2.34806
2766.000	11.94489	-1.74923	11.24485	-2.44732
2767.000	11.91272	-1.73777	11.00122	-2.33630
2768.000	11.93543	-1.73179	11.02979	-2.34972
2769.000	11.95246	-1.75502	11.01836	-2.35566
2770.000	11.92407	-1.74937	10.99931	-2.36751
2771.000	11.96003	-1.74719	11.05645	-2.33586
2772.000	11.96381	-1.77244	11.08882	-2.37068
2773.000	11.98084	-1.75872	11.06597	-2.40205
2774.000	11.98084	-1.75872	10.99550	-2.37923
2775.000	11.94489	-1.75701	11.06407	-2.36894
2776.000	11.96192	-1.76273	11.14973	-2.43449
2777.000	11.93164	-1.79599	11.04503	-2.34180
2778.000	11.95246	-1.79585	11.05074	-2.35930
2779.000	11.93732	-1.74345	10.99360	-2.35975
2780.000	11.91839	-1.75913	11.02407	-2.33222
2781.000	11.91082	-1.78446	11.00884	-2.34988
2782.000	11.93732	-1.79401	11.08121	-2.42337
2783.000	11.90893	-1.73780	11.01836	-2.31862
2784.000	11.91650	-1.72413	11.08501	-2.38436
2785.000	11.92975	-1.75128	11.07359	-2.29479
2786.000	11.91650	-1.79414	11.07930	-2.30644
2787.000	11.96570	-1.78021	10.96121	-2.41851
2788.000	11.94489	-1.79590	11.05264	-2.30470
2789.000	11.93921	-1.76677	11.06407	-2.42741
2790.000	11.94867	-1.78615	11.08311	-2.33955
2791.000	11.95057	-1.81531	11.17066	-2.35833
2792.000	11.93921	-1.80566	11.09644	-2.38232
2793.000	11.93543	-1.81152	11.15544	-2.40716
2794.000	11.90704	-1.76115	11.08311	-2.39022
2795.000	11.94110	-1.83093	11.10976	-2.39390
2796.000	11.92029	-1.83885	11.15164	-2.39161
2797.000	11.93732	-1.80762	11.10786	-2.40756
2798.000	11.94678	-1.79589	11.04503	-2.44900
2799.000	11.89947	-1.84093	11.14402	-2.36829
2800.000	11.92218	-1.83883	11.11928	-2.41136
2801.000	11.91839	-1.83302	11.10405	-2.36277
2802.000	11.92975	-1.80184	11.10215	-2.40955
2803.000	11.90893	-1.79225	11.10405	-2.36471
2804.000	11.93732	-1.81929	11.13070	-2.35281
2805.000	11.93543	-1.81346	11.08692	-2.39798
2806.000	11.93164	-1.81349	11.07740	-2.37467
2807.000	11.95246	-1.81141	11.10786	-2.37053
2808.000	11.93353	-1.82514	11.14022	-2.36832
2809.000	11.90704	-1.75142	11.07359	-2.34157
2810.000	11.95246	-1.79196	11.16305	-2.38567
2811.000	11.92218	-1.76883	11.15925	-2.35258
2812.000	11.85024	-1.76346	11.07168	-2.32015
2813.000	11.93543	-1.75124	11.08882	-2.32001
2814.000	11.89947	-1.77481	11.06216	-2.35531
2815.000	11.92975	-1.74544	11.07359	-2.38835
2816.000	11.91082	-1.77085	11.03741	-2.33016
2817.000	11.91461	-1.78054	10.95168	-2.32499
2818.000	11.92029	-1.73967	11.11738	-2.36266
2819.000	11.90325	-1.77284	11.05836	-2.34169
2820.000	11.92975	-1.77461	11.04693	-2.37297
2821.000	11.92596	-1.76686	11.08121	-2.38244
2822.000	11.93921	-1.76094	11.04122	-2.27750
2823.000	11.92218	-1.76494	11.13070	-2.28655
2824.000	11.94489	-1.77062	11.04503	-2.37689
2825.000	11.92218	-1.76494	11.08311	-2.34734
2826.000	11.94489	-1.76868	11.08882	-2.36094
2827.000	11.90136	-1.75340	11.07168	-2.32599
2828.000	11.92407	-1.77076	11.12499	-2.33142
2829.000	11.93921	-1.76094	11.12499	-2.39377
2830.000	11.88243	-1.78465	11.15734	-2.33895
2831.000	11.92596	-1.78630	11.03741	-2.32431
2832.000	11.91272	-1.79028	11.12118	-2.38601
2833.000	11.94678	-1.76672	11.08882	-2.43889
2834.000	11.91839	-1.79997	11.03931	-2.34964
2835.000	11.92975	-1.74933	11.07168	-2.34159
2836.000	11.89568	-1.77872	11.15925	-2.42662
2837.000	11.90893	-1.75919	11.12880	-2.34697
2838.000	11.94489	-1.78423	11.08501	-2.37851
2839.000	11.92786	-1.78435	11.05645	-2.33001
2840.000	11.92218	-1.77272	11.10405	-2.30819
2841.000	11.91461	-1.76888	11.07168	-2.27531
2842.000	11.93164	-1.78627	11.08882	-2.31806
2843.000	11.92786	-1.79407	11.12689	-2.29437
2844.000	11.90893	-1.77086	11.14783	-2.34877
2845.000	11.94300	-1.79786	11.11357	-2.38802
2846.000	11.89947	-1.78453	11.04122	-2.39446
2847.000	11.91461	-1.78054	11.04883	-2.32422
2848.000	11.91272	-1.79223	11.05455	-2.33587
2849.000	11.91461	-1.80388	11.18208	-2.33291
2850.000	11.89568	-1.78261	11.13641	-2.28455
2851.000	11.95057	-1.84253	10.95739	-2.38344
2852.000	11.91839	-1.78246	11.03360	-2.31265
2853.000	11.94867	-1.80171	11.03169	-2.23468
2854.000	11.95435	-1.76667	11.12499	-2.30803
2855.000	11.94489	-1.81923	11.07930	-2.28890
2856.000	11.95624	-1.81333	11.11167	-2.34516
2857.000	11.96759	-1.83658	11.09263	-2.37650
2858.000	11.93732	-1.79595	11.10215	-2.28287
2859.000	11.92596	-1.81547	11.07549	-2.35910
2860.000	11.99030	-1.82865	11.09834	-2.31019
2861.000	11.94678	-1.85811	11.09072	-2.28686
2862.000	11.93921	-1.80566	11.09072	-2.26542
2863.000	11.95435	-1.82306	11.06788	-2.30653
2864.000	11.95246	-1.86390	11.03931	-2.29701
2865.000	11.95246	-1.80557	11.07359	-2.27530
2866.000	11.97705	-1.80347	11.02979	-2.32827
2867.000	11.97895	-1.81512	11.15354	-2.34678
2868.000	11.99786	-1.85581	11.11167	-2.37440
2869.000	12.00921	-1.85185	11.06788	-2.28314
2870.000	11.99219	-1.83447	11.06407	-2.28317
2871.000	11.93543	-1.81735	11.09644	-2.28681
2872.000	11.94110	-1.82509	11.02027	-2.32250
2873.000	11.97895	-1.81317	11.16686	-2.30965
2874.000	11.97516	-1.82292	11.16686	-2.29016
2875.000	11.97705	-1.76847	11.09644	-2.33164
2876.000	12.01110	-1.83240	11.10595	-2.37639
2877.000	11.95813	-1.82303	11.08501	-2.33173
2878.000	11.98084	-1.83066	11.22013	-2.33650
2879.000	11.97138	-1.76656	11.14212	-2.31374
2880.000	11.96003	-1.79191	10.98217	-2.39689
2881.000	11.90704	-1.80004	11.00884	-2.28165
2882.000	11.93164	-1.77460	11.16686	-2.30965
2883.000	11.94489	-1.80368	11.11547	-2.26912
2884.000	11.93353	-1.76097	11.03169	-2.28537
2885.000	11.93164	-1.73765	11.12118	-2.35873
2886.000	11.91272	-1.77083	11.11738	-2.30029
2887.000	11.94867	-1.80949	11.06216	-2.26759
2888.000	11.96381	-1.76078	11.02598	-2.29126
2889.000	11.92029	-1.82523	11.04503	-2.31061
2890.000	11.93732	-1.79206	11.08121	-2.30643
2891.000	11.94867	-1.74726	11.00693	-2.28166
2892.000	11.97138	-1.73545	11.02027	-2.26791
2893.000	11.94489	-1.76868	11.01265	-2.31866
2894.000	11.96192	-1.77246	11.08121	-2.27914
2895.000	12.04514	-1.76802	11.04883	-2.27939
2896.000	11.97705	-1.81124	11.05455	-2.31248
2897.000	12.00165	-1.77414	11.19159	-2.37959
2898.000	11.99408	-1.74892	11.12880	-2.33918
2899.000	11.99597	-1.79751	11.02979	-2.34582
2900.000	11.96949	-1.75296	11.10976	-2.31400
2901.000	11.98462	-1.75092	11.05455	-2.35147
2902.000	11.97516	-1.76265	11.26577	-2.24457
2903.000	12.01110	-1.79157	11.10786	-2.33740
2904.000	11.98840	-1.78589	11.15354	-2.34093
2905.000	11.97516	-1.77431	11.13451	-2.32354
2906.000	12.04325	-1.78747	11.25056	-2.25443
2907.000	11.95246	-1.82307	11.15164	-2.31951
2908.000	11.99786	-1.79555	11.12499	-2.35870
2909.000	12.01299	-1.81878	11.16305	-2.36229
2910.000	11.97705	-1.79958	11.23344	-2.31496
2911.000	11.96192	-1.84051	11.15734	-2.35454
2912.000	11.96949	-1.83073	11.17257	-2.32129
2913.000	12.00354	-1.84800	11.20111	-2.37367
2914.000	11.99786	-1.89858	11.27718	-2.42563
2915.000	11.99597	-1.83056	11.22774	-2.31890
2916.000	12.02434	-1.84786	11.13451	-2.38785
2917.000	11.98273	-1.85203	11.20111	-2.34055
2918.000	11.98273	-1.91035	11.26387	-2.45495
2919.000	12.01678	-1.84208	11.28098	-2.45481
2920.000	12.00354	-1.85772	11.18589	-2.42834
2921.000	12.01110	-1.83823	11.14593	-2.31956
2922.000	11.97516	-1.85986	11.21632	-2.35990
2923.000	11.94678	-1.89894	11.06407	-2.32800
2924.000	11.90893	-1.87781	11.10405	-2.43682
2925.000	11.82941	-1.87253	11.02217	-2.33613
2926.000	11.71762	-1.85967	10.92118	-2.34278
2927.000	11.48049	-1.83398	10.83539	-2.37857
2928.000	11.18018	-1.88075	10.70374	-2.40888
2929.000	10.82967	-1.91226	10.34064	-2.36091
2930.000	10.45157	-1.84623	9.92491	-2.55175
2931.000	9.97477	-1.89010	9.66766	-2.62027
2932.000	9.41771	-1.88540	9.10381	-2.68334
2933.000	8.81059	-1.96715	8.80866	-2.78947
2934.000	8.30408	-1.91275	8.24794	-2.77196
2935.000	7.69533	-1.94908	7.68174	-2.92526
2936.000	7.10235	-1.95564	7.16270	-2.95430
2937.000	6.67172	-2.07583	6.76337	-3.03956
2938.000	6.11918	-2.09585	6.34190	-3.07170
2939.000	5.64185	-2.11940	5.86888	-3.02902
2940.000	5.25786	-2.16625	5.41269	-3.07879
2941.000	4.89498	-2.23675	5.18924	-3.11151
2942.000	4.49241	-2.26576	4.84198	-3.01236
2943.000	4.26441	-2.27833	4.60046	-3.13995
2944.000	4.06382	-2.34429	4.33518	-3.15097
2945.000	3.72338	-2.38091	4.03431	-3.15614
2946.000	3.53041	-2.42701	3.91233	-3.17639
2947.000	3.32159	-2.49891	3.69188	-3.30584
2948.000	3.14817	-2.46365	3.47723	-3.25119
2949.000	2.97863	-2.42834	3.22504	-3.20649
2950.000	2.83666	-2.43459	3.14423	-3.30772
2951.000	2.67492	-2.47460	2.82482	-3.27105
2952.000	2.54668	-2.44509	2.77552	-3.39199
2953.000	2.38092	-2.44143	2.58614	-3.26773
2954.000	2.30000	-2.43760	2.37105	-3.36929
2955.000	2.23880	-2.47540	2.29802	-3.35758
2956.000	2.18748	-2.47549	2.04730	-3.37003
2957.000	2.20130	-2.43578	2.02163	-3.29875
2958.000	2.21314	-2.44767	1.99202	-3.35627
2959.000	2.22696	-2.46352	1.94660	-3.39599
2960.000	2.23880	-2.43969	1.88538	-3.32081
2961.000	2.32960	-2.43557	1.95845	-3.34247
2962.000	2.33552	-2.42960	1.92883	-3.25930
2963.000	2.37894	-2.44143	1.96042	-3.32067
2964.000	2.35723	-2.45933	1.85971	-3.22375
2965.000	2.41447	-2.42946	1.84983	-3.25944
2966.000	2.37894	-2.47516	1.90513	-3.22367
2967.000	2.37894	-2.46921	1.92488	-3.28309
2968.000	2.28618	-2.44556	1.86563	-3.23167
2969.000	2.21314	-2.47942	1.83601	-3.26343
2970.000	2.19143	-2.53104	1.88143	-3.32280
2971.000	2.17563	-2.50924	1.80836	-3.40617
2972.000	2.11048	-2.50935	1.77478	-3.33687
2973.000	2.12036	-2.49941	1.77281	-3.42803
2974.000	2.09469	-2.51136	1.76688	-3.42011
2975.000	2.03743	-2.53328	1.82218	-3.47350
2976.000	2.08482	-2.49352	1.81033	-3.52900
2977.000	2.06112	-2.56697	1.77478	-3.49539
2978.000	2.02756	-2.49162	1.71948	-3.52322
2979.000	2.00386	-2.56111	1.73725	-3.52715
2980.000	2.03546	-2.54122	1.72343	-3.51727
2981.000	1.95647	-2.56515	1.66022	-3.42228
2982.000	1.97227	-2.52941	1.69380	-3.48167
2983.000	1.89723	-2.52952	1.59108	-3.54326
2984.000	1.89130	-2.53747	1.64244	-3.51544
2985.000	1.84391	-2.53158	1.53774	-3.44627
2986.000	1.78466	-2.56143	1.41327	-3.41673
2987.000	1.78071	-2.56144	1.37573	-3.42075
2988.000	1.73528	-2.53372	1.41722	-3.41475
2989.000	1.73528	-2.52776	1.39351	-3.47423
2990.000	1.71158	-2.53772	1.36190	-3.38906
2991.000	1.71750	-2.56946	1.38561	-3.41083
2992.000	1.69182	-2.56553	1.30657	-3.47237
2993.000	1.64837	-2.58741	1.36585	-3.40095
2994.000	1.70960	-2.56352	1.32436	-3.36929
2995.000	1.69577	-2.53774	1.36585	-3.40293
2996.000	1.67602	-2.55166	1.40142	-3.41279
2997.000	1.68985	-2.54370	1.36585	-3.39500
2998.000	1.71158	-2.55756	1.45279	-3.33740
2999.000	1.70367	-2.55559	1.36190	-3.43266
3000.000	1.70367	-2.58139	1.51206	-3.39082
3001.000	1.69182	-2.56156	1.46662	-3.35720
3002.000	1.72540	-2.53571	1.47452	-3.45429
3003.000	1.68195	-2.57149	1.39351	-3.33154
3004.000	1.76491	-2.54955	1.49230	-3.38491
3005.000	1.73923	-2.56348	1.48440	-3.42059
3006.000	1.75305	-2.56346	1.58318	-3.37089
3007.000	1.77873	-2.58724	1.50810	-3.32939
3008.000	1.74713	-2.56942	1.51206	-3.38289
3009.000	1.79058	-2.55746	1.42117	-3.39294
3010.000	1.70367	-2.52582	1.47649	-3.34331
3011.000	1.78071	-2.56144	1.46859	-3.35720
3012.000	1.73725	-2.59722	1.54169	-3.36898
3013.000	1.72935	-2.56548	1.48440	-3.33933
3014.000	1.75108	-2.61109	1.51601	-3.34920
3015.000	1.76491	-2.53169	1.47847	-3.39682
3016.000	1.74318	-2.49401	1.51798	-3.34721
3017.000	1.69775	-2.56750	1.52193	-3.33531
3018.000	1.77873	-2.56343	1.50613	-3.37299
3019.000	1.71553	-2.57939	1.48637	-3.38888
3020.000	1.73330	-2.55952	1.49428	-3.35518
3021.000	1.71948	-2.58930	1.51206	-3.43244
3022.000	1.71750	-2.57938	1.52786	-3.34125
3023.000	1.75503	-2.57536	1.51996	-3.40865
3024.000	1.73923	-2.55356	1.55552	-3.38283
3025.000	1.73923	-2.51783	1.51206	-3.33136
3026.000	1.69182	-2.53377	1.53576	-3.37691
3027.000	1.78268	-2.56739	1.48440	-3.35519
3028.000	1.68392	-2.59927	1.44093	-3.41471
3029.000	1.72540	-2.52579	1.53181	-3.36899
3030.000	1.73923	-2.51783	1.50810	-3.41065
3031.000	1.74120	-2.59324	1.45871	-3.47413
3032.000	1.73923	-2.58134	1.51601	-3.37892
3033.000	1.74120	-2.59126	1.47452	-3.37106
3034.000	1.76095	-2.53567	1.42710	-3.40879
3035.000	1.74713	-2.57934	1.50810	-3.40272
3036.000	1.76491	-2.53169	1.48440	-3.42059
3037.000	1.74120	-2.56348	1.58515	-3.39071
3038.000	1.75700	-2.58925	1.51798	-3.41261
3039.000	1.77873	-2.54755	1.48637	-3.34330
3040.000	1.72738	-2.54365	1.50613	-3.41659
3041.000	1.72738	-2.55953	1.49428	-3.37301
3042.000	1.72540	-2.55358	1.51996	-3.39477
3043.000	1.72540	-2.53174	1.51996	-3.41261
3044.000	1.77873	-2.54953	1.41525	-3.37908
3045.000	1.69577	-2.55758	1.43896	-3.40679
3046.000	1.74910	-2.57140	1.40339	-3.35333
3047.000	1.72343	-2.52381	1.41920	-3.31565
3048.000	1.72343	-2.52778	1.42908	-3.37707
3049.000	1.73725	-2.56547	1.46662	-3.34729
3050.000	1.71948	-2.52977	1.48637	-3.32546
3051.000	1.72343	-2.57342	1.42315	-3.42861
3052.000	1.71158	-2.54962	1.50020	-3.34724
3053.000	1.74120	-2.54958	1.42710	-3.43653
3054.000	1.72738	-2.54365	1.46266	-3.34928
3055.000	1.74120	-2.52775	1.50810	-3.38290
3056.000	1.76688	-2.53566	1.51008	-3.33731
3057.000	1.71553	-2.54168	1.45674	-3.41072
3058.000	1.77873	-2.54953	1.52786	-3.38683
3059.000	1.73330	-2.51387	1.48045	-3.30961
3060.000	1.74515	-2.49798	1.53576	-3.37295
3061.000	1.72935	-2.54960	1.51008	-3.32344
3062.000	1.72935	-2.46029	1.52193	-3.30756
3063.000	1.74515	-2.50989	1.46859	-3.31954
3064.000	1.72343	-2.52381	1.50613	-3.34128
3065.000	1.73330	-2.50196	1.51798	-3.31352
3066.000	1.73528	-2.52776	1.45279	-3.28586
3067.000	1.73133	-2.54960	1.48835	-3.23229
3068.000	1.71750	-2.50992	1.45081	-3.26406
3069.000	1.73330	-2.53372	1.40734	-3.20068
3070.000	1.76491	-2.51978	1.42710	-3.24031
3071.000	1.76293	-2.53566	1.42710	-3.24229
3072.000	1.75700	-2.54361	1.46464	-3.30369
3073.000	1.75700	-2.55552	1.40537	-3.30377
3074.000	1.77083	-2.49794	1.49625	-3.27589
3075.000	1.71553	-2.52779	1.42117	-3.30573
3076.000	1.79058	-2.52372	1.46464	-3.24422
3077.000	1.77083	-2.56542	1.48242	-3.25609
3078.000	1.71158	-2.54764	1.47254	-3.29376
3079.000	1.76293	-2.55749	1.46464	-3.21052
3080.000	1.76688	-2.52375	1.47254	-3.30962
3081.000	1.73528	-2.57341	1.46662	-3.24421
3082.000	1.70170	-2.53178	1.40932	-3.19275
3083.000	1.68985	-2.56553	1.49823	-3.23426
3084.000	1.70762	-2.53574	1.39944	-3.27801
3085.000	1.70170	-2.51193	1.46859	-3.25809
3086.000	1.71948	-2.52977	1.39154	-3.16700
3087.000	1.72540	-2.56945	1.44093	-3.21055
3088.000	1.74120	-2.59523	1.47649	-3.18869
3089.000	1.72145	-2.55160	1.48045	-3.30763
3090.000	1.73330	-2.55753	1.47649	-3.26006
3091.000	1.68787	-2.55362	1.50613	-3.19658
3092.000	1.75305	-2.57338	1.46859	-3.25412
3093.000	1.72738	-2.55556	1.47057	-3.25809
3094.000	1.73330	-2.50792	1.49823	-3.25210
3095.000	1.72540	-2.53373	1.53576	-3.24015
3096.000	1.68985	-2.55759	1.51798	-3.28577
3097.000	1.75700	-2.51186	1.48637	-3.22634
3098.000	1.73330	-2.55356	1.46859	-3.29773
3099.000	1.71750	-2.50794	1.50415	-3.26993
3100.000	1.78071	-2.53564	1.46662	-3.29377
3101.000	1.75700	-2.58528	1.51798	-3.28378
3102.000	1.78268	-2.52571	1.50613	-3.27389
3103.000	1.72935	-2.53571	1.53971	-3.36303
3104.000	1.73528	-2.55158	1.49823	-3.32148
3105.000	1.73330	-2.57539	1.50218	-3.29570
3106.000	1.74120	-2.54165	1.51206	-3.27388
3107.000	1.74318	-2.55554	1.48637	-3.28383
3108.000	1.74318	-2.54561	1.47649	-3.27790
3109.000	1.74515	-2.58927	1.52786	-3.29170
3110.000	1.72343	-2.60121	1.52391	-3.25602
3111.000	1.76095	-2.57536	1.40142	-3.30180
3112.000	1.73725	-2.55753	1.53774	-3.21636
3113.000	1.77478	-2.54755	1.49625	-3.30364
3114.000	1.72343	-2.55358	1.52193	-3.30360
3115.000	1.75898	-2.56941	1.49823	-3.32940
3116.000	1.73725	-2.54165	1.53971	-3.30357
3117.000	1.72343	-2.55556	1.47254	-3.18870
3118.000	1.78071	-2.53167	1.54564	-3.29365
3119.000	1.74910	-2.59720	1.51798	-3.33730
3120.000	1.77281	-2.54160	1.54762	-3.22427
3121.000	1.76293	-2.58925	1.54367	-3.23221
3122.000	1.75305	-2.56148	1.47254	-3.28583
3123.000	1.76095	-2.56543	1.52589	-3.30558
3124.000	1.72540	-2.58334	1.53576	-3.29169
3125.000	1.73330	-2.58532	1.56935	-3.30353
3126.000	1.73133	-2.61112	1.50810	-3.30560
3127.000	1.77676	-2.57137	1.51996	-3.26991
3128.000	1.78071	-2.57334	1.54762	-3.35311
3129.000	1.75108	-2.59323	1.51403	-3.34524
3130.000	1.78466	-2.60311	1.52391	-3.32540
3131.000	1.77478	-2.62892	1.52589	-3.39080
3132.000	1.78071	-2.60311	1.51996	-3.29766
3133.000	1.81231	-2.63283	1.44686	-3.33543
3134.000	1.76293	-2.64084	1.58120	-3.36693
3135.000	1.78663	-2.63287	1.49428	-3.36707
3136.000	1.75305	-2.60910	1.46859	-3.26205
3137.000	1.77676	-2.59716	1.57132	-3.32929
3138.000	1.74318	-2.63888	1.61281	-3.33715
3139.000	1.79256	-2.58722	1.55354	-3.27382
3140.000	1.76886	-2.61900	1.51008	-3.32344
3141.000	1.75305	-2.62696	1.50810	-3.30957
3142.000	1.75898	-2.60314	1.53576	-3.26394
3143.000	1.74910	-2.62697	1.50810	-3.29173
3144.000	1.74910	-2.62300	1.53181	-3.33332
3145.000	1.74120	-2.64484	1.47649	-3.38889
3146.000	1.70367	-2.69846	1.52391	-3.33927
3147.000	1.74515	-2.64086	1.47254	-3.27989
3148.000	1.77083	-2.65075	1.48045	-3.29177
3149.000	1.76095	-2.65870	1.49823	-3.26597
3150.000	1.73330	-2.66072	1.49230	-3.33139
3151.000	1.74318	-2.66865	1.48637	-3.31158
3152.000	1.76886	-2.63885	1.56145	-3.32534
3153.000	1.73923	-2.67262	1.55552	-3.20642
3154.000	1.73528	-2.64683	1.49428	-3.26400
3155.000	1.73923	-2.65873	1.56737	-3.26587
3156.000	1.71158	-2.73615	1.51403	-3.26793
3157.000	1.70762	-2.67068	1.50020	-3.22236
3158.000	1.77873	-2.62891	1.54959	-3.25797
3159.000	1.77281	-2.67456	1.48637	-3.31753
3160.000	1.73133	-2.66469	1.56145	-3.18063
3161.000	1.72935	-2.71628	1.53379	-3.28376
3162.000	1.69380	-2.67268	1.49625	-3.26796
3163.000	1.73923	-2.66071	1.56342	-3.25200
3164.000	1.75700	-2.67855	1.54959	-3.23418
3165.000	1.71750	-2.65082	1.50415	-3.29173
3166.000	1.74515	-2.70436	1.43698	-3.22443
3167.000	1.72540	-2.69248	1.53181	-3.28178
3168.000	1.79651	-2.67849	1.51601	-3.30163
3169.000	1.73133	-2.68255	1.51403	-3.23423
3170.000	1.76886	-2.68051	1.53181	-3.26196
3171.000	1.74515	-2.71229	1.52984	-3.26791
3172.000	1.72343	-2.70042	1.53576	-3.22231
3173.000	1.70960	-2.73020	1.58120	-3.25594
3174.000	1.73330	-2.68056	1.52786	-3.23818
3175.000	1.73725	-2.67858	1.53774	-3.25006
3176.000	1.73133	-2.69446	1.50020	-3.24218
3177.000	1.73725	-2.69643	1.54367	-3.26392
3178.000	1.71948	-2.74011	1.52589	-3.26197
3179.000	1.76095	-2.73410	1.57527	-3.25595
3180.000	1.73330	-2.66469	1.52589	-3.25404
3181.000	1.71750	-2.71432	1.56342	-3.17865
3182.000	1.75898	-2.69640	1.52786	-3.28773
3183.000	1.76688	-2.67655	1.49823	-3.29174
3184.000	1.77281	-2.62297	1.46266	-3.17285
3185.000	1.74120	-2.69246	1.53379	-3.21834
3186.000	1.74713	-2.67856	1.56935	-3.25992
3187.000	1.71158	-2.65480	1.57527	-3.25198
3188.000	1.76095	-2.65076	1.50218	-3.24020
3189.000	1.73725	-2.64286	1.58318	-3.24999
3190.000	1.73330	-2.70041	1.52193	-3.29369
3191.000	1.75305	-2.63887	1.47057	-3.21447
3192.000	1.74910	-2.66665	1.55749	-3.21831
3193.000	1.77083	-2.68448	1.54959	-3.20444
3194.000	1.79058	-2.66263	1.54762	-3.22625
3195.000	1.74515	-2.67261	1.58515	-3.25989
3196.000	1.80243	-2.68047	1.55157	-3.21435
3197.000	1.76688	-2.65671	1.51996	-3.31351
3198.000	1.79256	-2.66461	1.53774	-3.26195
3199.000	1.75898	-2.70831	1.51206	-3.25802
3200.000	1.76491	-2.67258	1.57330	-3.23414
3201.000	1.74713	-2.67062	1.52193	-3.23224
3202.000	1.76095	-2.63489	1.56540	-3.25794
3203.000	1.75700	-2.70236	1.53181	-3.28575
3204.000	1.79058	-2.67850	1.54564	-3.28176
3205.000	1.75700	-2.63886	1.51996	-3.28775
3206.000	1.78466	-2.68644	1.60886	-3.28959
3207.000	1.76886	-2.66067	1.54564	-3.24211
3208.000	1.75305	-2.71228	1.55749	-3.25399
3209.000	1.75898	-2.67259	1.53971	-3.27384
3210.000	1.74120	-2.69047	1.56342	-3.28768
3211.000	1.73528	-2.65278	1.58120	-3.24999
3212.000	1.75700	-2.70037	1.48045	-3.20851
3213.000	1.72343	-2.66867	1.60096	-3.31735
3214.000	1.72145	-2.68852	1.53576	-3.25601
3215.000	1.71948	-2.68852	1.54367	-3.28176
3216.000	1.72540	-2.64288	1.48440	-3.24221
3217.000	1.71553	-2.71829	1.48637	-3.29771
3218.000	1.73133	-2.70041	1.53181	-3.28575
3219.000	1.70960	-2.69846	1.55749	-3.30156
3220.000	1.72738	-2.70835	1.55749	-3.23417
3221.000	1.68590	-2.67666	1.60886	-3.32130
3222.000	1.73923	-2.69048	1.54367	-3.22824
3223.000	1.67997	-2.68064	1.54564	-3.24211
3224.000	1.71355	-2.72226	1.50613	-3.25209
3225.000	1.72935	-2.67065	1.54564	-3.28374
3226.000	1.74318	-2.70634	1.52786	-3.22430
3227.000	1.70960	-2.72028	1.55552	-3.30355
3228.000	1.73133	-2.70041	1.55354	-3.20840
3229.000	1.72145	-2.71233	1.61676	-3.24002
3230.000	1.70367	-2.67664	1.53971	-3.26195
3231.000	1.74318	-2.66468	1.57923	-3.26189
3232.000	1.68590	-2.68857	1.52786	-3.21835
3233.000	1.70960	-2.67465	1.54564	-3.20445
3234.000	1.74120	-2.68651	1.53774	-3.20644
3235.000	1.72145	-2.68455	1.57527	-3.22026
3236.000	1.65627	-2.65884	1.60491	-3.25590
3237.000	1.71158	-2.69448	1.60096	-3.24599
3238.000	1.69775	-2.67268	1.59898	-3.23609
3239.000	1.70565	-2.70640	1.59503	-3.22816
3240.000	1.70960	-2.68853	1.62466	-3.25785
3241.000	1.71355	-2.69250	1.55354	-3.16875
3242.000	1.70762	-2.67663	1.54169	-3.29366
3243.000	1.68787	-2.65285	1.58318	-3.26386
3244.000	1.66614	-2.65685	1.56342	-3.24803
3245.000	1.68787	-2.71039	1.55157	-3.25796
3246.000	1.68787	-2.70841	1.53379	-3.25799
3247.000	1.67602	-2.70644	1.58910	-3.22222
3248.000	1.72145	-2.70836	1.54762	-3.16281
3249.000	1.69775	-2.66672	1.51206	-3.16485
3250.000	1.71948	-2.72225	1.56342	-3.21632
3251.000	1.70762	-2.66076	1.58318	-3.20637
3252.000	1.68985	-2.64888	1.59108	-3.19843
3253.000	1.73133	-2.68850	1.55552	-3.19452
3254.000	1.71553	-2.64487	1.60688	-3.22616
3255.000	1.74713	-2.67856	1.56737	-3.17666
3256.000	1.70762	-2.63893	1.56145	-3.13305
3257.000	1.72343	-2.68256	1.48835	-3.20850
3258.000	1.71948	-2.70043	1.58318	-3.25990
3259.000	1.70960	-2.66671	1.57132	-3.16079
3260.000	1.72145	-2.68653	1.55157	-3.18461
3261.000	1.71750	-2.70638	1.62664	-3.22216
3262.000	1.72738	-2.69248	1.68195	-3.20622
3263.000	1.69182	-2.68658	1.53576	-3.16679
3264.000	1.69775	-2.66672	1.49428	-3.20254
3265.000	1.71158	-2.70242	1.61873	-3.17063
3266.000	1.73725	-2.71826	1.61083	-3.21030
3267.000	1.71158	-2.71234	1.61676	-3.14883
3268.000	1.71355	-2.71432	1.58515	-3.18655
3269.000	1.68985	-2.68459	1.66219	-3.21418
3270.000	1.73528	-2.71231	1.49428	-3.14504
3271.000	1.71158	-2.70441	1.58910	-3.18257
3272.000	1.67602	-2.71041	1.48045	-3.20454
3273.000	1.73923	-2.70635	1.52786	-3.22628
3274.000	1.69380	-2.66475	1.53576	-3.21438
3275.000	1.70170	-2.71831	1.56540	-3.20045
3276.000	1.72738	-2.72819	1.55354	-3.19452
3277.000	1.77281	-2.69043	1.55947	-3.17667
3278.000	1.70170	-2.70640	1.55354	-3.12117
3279.000	1.71948	-2.69646	1.56145	-3.18262
3280.000	1.68195	-2.70841	1.60886	-3.15875
3281.000	1.70170	-2.70244	1.58120	-3.08940
3282.000	1.72935	-2.67660	1.62861	-3.13295
3283.000	1.73923	-2.70238	1.58318	-3.20241
3284.000	1.71158	-2.69052	1.56935	-3.15485
3285.000	1.68985	-2.73420	1.58713	-3.16870
3286.000	1.70565	-2.71037	1.59503	-3.18257
3287.000	1.70170	-2.67267	1.56342	-3.15486
3288.000	1.70367	-2.70243	1.61478	-3.10323
3289.000	1.71948	-2.70836	1.55552	-3.13901
3290.000	1.68985	-2.70840	1.56342	-3.15684
3291.000	1.70960	-2.74211	1.54367	-3.19454
3292.000	1.70170	-2.69847	1.59108	-3.11714
3293.000	1.69380	-2.71633	1.62466	-3.12701
3294.000	1.68590	-2.73619	1.60096	-3.14885
3295.000	1.69380	-2.72030	1.58515	-3.13698
3296.000	1.66614	-2.75209	1.54564	-3.15885
3297.000	1.66812	-2.75208	1.58318	-3.12905
3298.000	1.71158	-2.71234	1.61083	-3.11315
3299.000	1.67009	-2.70843	1.59503	-3.17860
3300.000	1.71355	-2.74012	1.60886	-3.17263
3301.000	1.67207	-2.70446	1.62664	-3.20829
3302.000	1.71948	-2.70241	1.55354	-3.15884
3303.000	1.70170	-2.67664	1.56540	-3.12511
3304.000	1.70565	-2.68259	1.62664	-3.09131
3305.000	1.66022	-2.70844	1.62071	-3.17261
3306.000	1.71158	-2.72623	1.57132	-3.10528
3307.000	1.66812	-2.68066	1.59898	-3.16273
3308.000	1.70565	-2.69648	1.66812	-3.10315
3309.000	1.70367	-2.71235	1.60096	-3.15877
3310.000	1.69775	-2.76395	1.68195	-3.12692
3311.000	1.68985	-2.72031	1.62664	-3.11312
3312.000	1.66812	-2.73621	1.59305	-3.11318
3313.000	1.66812	-2.73026	1.63059	-3.11907
3314.000	1.70762	-2.72028	1.56540	-3.09339
3315.000	1.68392	-2.71833	1.67009	-3.11900
3316.000	1.68590	-2.72825	1.61083	-3.07547
3317.000	1.70367	-2.72029	1.57527	-3.14493
3318.000	1.69775	-2.71831	1.67800	-3.09718
3319.000	1.66219	-2.72233	1.57132	-3.15088
3320.000	1.68195	-2.76397	1.58318	-3.18655
3321.000	1.68787	-2.74214	1.57330	-3.12510
3322.000	1.69380	-2.74808	1.60688	-3.18056
3323.000	1.67997	-2.76397	1.59305	-3.13697
3324.000	1.66812	-2.75407	1.65034	-3.08731
3325.000	1.65627	-2.70051	1.60688	-3.06160
3326.000	1.66812	-2.75407	1.67009	-3.15073
3327.000	1.65232	-2.73425	1.64441	-3.09129
3328.000	1.68787	-2.71634	1.65824	-3.11506
3329.000	1.68985	-2.73023	1.63256	-3.07742
3330.000	1.69577	-2.73816	1.64837	-3.13490
3331.000	1.65824	-2.74218	1.59700	-3.14093
3332.000	1.72935	-2.73216	1.70565	-3.14869
3333.000	1.69972	-2.71831	1.54959	-3.10134
3334.000	1.66219	-2.72432	1.67997	-3.18243
3335.000	1.64046	-2.70252	1.56145	-3.09141
3336.000	1.67997	-2.70643	1.61478	-3.06357
3337.000	1.69380	-2.68260	1.54564	-3.12316
3338.000	1.66417	-2.66677	1.55552	-3.09539
3339.000	1.66812	-2.69256	1.61873	-3.05167
3340.000	1.67800	-2.65485	1.64837	-3.02783
3341.000	1.66417	-2.57152	1.51008	-2.93481
3342.000	1.65232	-2.57153	1.57923	-2.87521
3343.000	1.68392	-2.49012	1.54762	-2.82367
3344.000	1.69775	-2.37497	1.66417	-2.69852
3345.000	1.70170	-2.29357	1.69182	-2.52782
3346.000	1.76491	-2.12870	1.66022	-2.41869
3347.000	1.79453	-1.95986	1.67602	-2.27573
3348.000	1.82613	-1.84065	1.64837	-2.14273
3349.000	1.87156	-1.63798	1.73330	-1.89239
3350.000	1.92685	-1.48295	1.75898	-1.72947
3351.000	1.92093	-1.22661	1.70170	-1.50102
3352.000	1.98214	-1.02583	1.76688	-1.39564
3353.000	1.95845	-0.88471	1.72738	-1.20885
3354.000	1.98017	-0.69188	1.71948	-1.00809
3355.000	1.95252	-0.58056	1.75305	-0.93451
3356.000	2.00979	-0.43939	1.72935	-0.82717
3357.000	1.94462	-0.36186	1.66417	-0.68405
3358.000	1.93475	-0.28631	1.80638	-0.67803
3359.000	1.90315	-0.23860	1.71355	-0.68800
3360.000	1.91303	-0.16304	1.60096	-0.61248
3361.000	1.87156	-0.20281	1.62664	-0.61049
3362.000	1.83798	-0.26048	1.63651	-0.72382
3363.000	1.82811	-0.33007	1.53181	-0.81532
3364.000	1.77083	-0.43746	1.67602	-0.91865
3365.000	1.74910	-0.49711	1.55947	-1.00220
3366.000	1.77873	-0.63032	1.60688	-1.12941
3367.000	1.71750	-0.76554	1.59108	-1.24471
3368.000	1.70565	-0.87887	1.59503	-1.34409
3369.000	1.70960	-0.98026	1.54169	-1.49120
3370.000	1.68787	-1.13533	1.58910	-1.56470
3371.000	1.66614	-1.20292	1.64441	-1.55869
3372.000	1.67800	-1.32019	1.69577	-1.71761
3373.000	1.71948	-1.36984	1.79453	-1.68374
3374.000	1.73725	-1.40362	1.75503	-1.73345
3375.000	1.70960	-1.48909	1.69577	-1.79906
3376.000	1.72738	-1.47318	1.85378	-1.67177
3377.000	1.74515	-1.41553	1.80046	-1.65990
3378.000	1.77083	-1.44135	1.75503	-1.67782
3379.000	1.74910	-1.40361	1.79848	-1.62811
3380.000	1.73330	-1.40362	1.81033	-1.55458
3381.000	1.77083	-1.34993	1.80836	-1.53471
3382.000	1.77478	-1.29229	1.78071	-1.45326
3383.000	1.77281	-1.23466	1.79256	-1.43338
3384.000	1.77873	-1.16111	1.72145	-1.39369
3385.000	1.78861	-1.05973	1.72343	-1.24065
3386.000	1.79848	-1.04184	1.74910	-1.33405
3387.000	1.82218	-1.00604	1.73133	-1.24860
3388.000	1.76491	-0.97824	1.73133	-1.26052
3389.000	1.80836	-0.89672	1.68787	-1.23670
3390.000	1.83798	-0.88676	1.65824	-1.19100
3391.000	1.80638	-0.91461	1.72738	-1.16114
3392.000	1.79651	-0.83509	1.66417	-1.19696
3393.000	1.81428	-0.83707	1.65429	-1.13733
3394.000	1.83403	-0.83508	1.65034	-1.08366
3395.000	1.85378	-0.80525	1.62861	-1.15921
3396.000	1.81823	-0.82117	1.74910	-1.09355
3397.000	1.83798	-0.79134	1.60886	-1.14531
3398.000	1.85576	-0.83308	1.69380	-1.13532
3399.000	1.81231	-0.81521	1.67009	-1.16913
3400.000	1.81231	-0.80924	1.70367	-1.12538
3401.000	1.81626	-0.81322	1.66417	-1.21286
3402.000	1.81626	-0.84900	1.69972	-1.15917
3403.000	1.78268	-0.86094	1.67602	-1.17708
3404.000	1.79256	-0.83311	1.66417	-1.15522
3405.000	1.77083	-0.87089	1.71948	-1.26252
3406.000	1.76491	-0.84107	1.71750	-1.23668
3407.000	1.82613	-0.89273	1.68787	-1.15918
3408.000	1.81033	-0.92256	1.69775	-1.19098
3409.000	1.79651	-0.90070	1.65429	-1.24268
3410.000	1.76095	-0.88282	1.69775	-1.20489
3411.000	1.80441	-0.89473	1.73133	-1.25059
3412.000	1.77281	-0.90469	1.76688	-1.23665
3413.000	1.77281	-0.90469	1.73528	-1.28040
3414.000	1.80243	-0.93648	1.73133	-1.18499
3415.000	1.80243	-0.92057	1.69380	-1.23471
3416.000	1.74515	-0.90470	1.60688	-1.23079
3417.000	1.76886	-0.92854	1.72343	-1.25457
3418.000	1.81033	-0.94641	1.65034	-1.29437
3419.000	1.79256	-0.92654	1.69380	-1.18303
3420.000	1.81823	-0.93647	1.67207	-1.17112
3421.000	1.77873	-0.95438	1.69182	-1.25856
3422.000	1.76688	-0.91860	1.67602	-1.27249
3423.000	1.78861	-0.93052	1.62861	-1.22084
3424.000	1.79256	-0.92654	1.68787	-1.25856
3425.000	1.78663	-0.92257	1.64441	-1.18306
3426.000	1.79848	-0.90666	1.65824	-1.17311
3427.000	1.80638	-0.91461	1.69972	-1.20489
3428.000	1.79848	-0.94244	1.68590	-1.22875
3429.000	1.82021	-0.92057	1.59700	-1.18507
3430.000	1.82613	-0.90466	1.69380	-1.20291
3431.000	1.79848	-0.86292	1.67602	-1.22478
3432.000	1.81231	-0.89274	1.63059	-1.19897
3433.000	1.81428	-0.90466	1.66417	-1.21286
3434.000	1.78861	-0.87685	1.64441	-1.23275
3435.000	1.80046	-0.87485	1.67207	-1.13136
3436.000	1.80046	-0.89871	1.61676	-1.14928
3437.000	1.82218	-0.91460	1.60688	-1.24868
3438.000	1.82416	-0.91261	1.65627	-1.15125
3439.000	1.77676	-0.89872	1.67207	-1.24665
3440.000	1.79058	-0.87684	1.68392	-1.18105
3441.000	1.79848	-0.88877	1.66022	-1.12342
3442.000	1.82021	-0.84502	1.69775	-1.10749
3443.000	1.81033	-0.87684	1.64441	-1.15523
3444.000	1.73923	-0.90669	1.63256	-1.16319
3445.000	1.80046	-0.92256	1.77676	-1.19689
3446.000	1.80638	-0.87684	1.71948	-1.20090
3447.000	1.81626	-0.87286	1.67602	-1.20093
3448.000	1.75108	-0.88084	1.62071	-1.16320
3449.000	1.80441	-0.88081	1.66219	-1.24467
3450.000	1.81231	-0.86491	1.67997	-1.22677
3451.000	1.79256	-0.88678	1.69182	-1.18899
3452.000	1.82218	-0.82912	1.64046	-1.22480
3453.000	1.81231	-0.87286	1.67404	-1.11744
3454.000	1.84588	-0.87085	1.68392	-1.22279
3455.000	1.80638	-0.89870	1.65824	-1.18901
3456.000	1.83403	-0.89869	1.56540	-1.17913
3457.000	1.79453	-0.87287	1.67207	-1.18304
3458.000	1.84391	-0.86092	1.69577	-1.22676
3459.000	1.81428	-0.87087	1.62071	-1.17910
3460.000	1.79256	-0.87088	1.63651	-1.19300
3461.000	1.82416	-0.89273	1.66614	-1.16714
3462.000	1.83206	-0.91658	1.68985	-1.17707
3463.000	1.82021	-0.83906	1.60688	-1.18507
3464.000	1.80243	-0.86292	1.61676	-1.16519
3465.000	1.83996	-0.89074	1.63059	-1.23276
3466.000	1.80441	-0.88280	1.63256	-1.11150
3467.000	1.81428	-0.86093	1.66812	-1.15522
3468.000	1.81033	-0.86292	1.69972	-1.14725
3469.000	1.81823	-0.85695	1.63454	-1.10355
3470.000	1.83996	-0.89074	1.69972	-1.17508
3471.000	1.82416	-0.86291	1.66417	-1.16913
3472.000	1.81033	-0.88479	1.67602	-1.19298
3473.000	1.81428	-0.89671	1.75700	-1.12535
3474.000	1.80243	-0.88877	1.62466	-1.18506
3475.000	1.80638	-0.89274	1.74713	-1.13132
3476.000	1.81033	-0.88280	1.65232	-1.16119
3477.000	1.77281	-0.89475	1.75108	-1.22473
3478.000	1.82416	-0.86490	1.70367	-1.18501
3479.000	1.80441	-0.82117	1.69182	-1.14725
3480.000	1.84193	-0.85495	1.63651	-1.12542
3481.000	1.75898	-0.83710	1.64639	-1.15125
3482.000	1.81823	-0.82713	1.65232	-1.18107
3483.000	1.83008	-0.84303	1.68195	-1.17509
3484.000	1.78071	-0.85101	1.71355	-1.18898
3485.000	1.80441	-0.87485	1.73923	-1.23468
3486.000	1.80046	-0.84702	1.65429	-1.13932
3487.000	1.80243	-0.85895	1.68195	-1.19894
3488.000	1.79848	-0.86690	1.69577	-1.12340
3489.000	1.80046	-0.87286	1.68392	-1.11545
3490.000	1.79848	-0.84304	1.69775	-1.11743
3491.000	1.76293	-0.82517	1.70565	-1.21085
3492.000	1.80441	-0.84901	1.64639	-1.16119
3493.000	1.78071	-0.81323	1.70565	-1.20091
3494.000	1.80046	-0.88877	1.63256	-1.14132
3495.000	1.81231	-0.84900	1.66417	-1.15721
3496.000	1.81033	-0.86888	1.61478	-1.10555
3497.000	1.79848	-0.87684	1.68985	-1.21285
3498.000	1.80638	-0.87684	1.69380	-1.16514
3499.000	1.78071	-0.83112	1.65429	-1.20492
3500.000	1.80046	-0.84503	1.63849	-1.19698
3501.000	1.79058	-0.87088	1.64244	-1.17113
3502.000	1.78071	-0.89474	1.60688	-1.10555
3503.000	1.80243	-0.87684	1.68392	-1.16316
3504.000	1.81033	-0.83310	1.68590	-1.15123
3505.000	1.81428	-0.83707	1.72343	-1.17307
3506.000	1.80836	-0.83111	1.63256	-1.16518
3507.000	1.82613	-0.90267	1.67009	-1.21684
3508.000	1.80836	-0.83509	1.65429	-1.18703
3509.000	1.81231	-0.85695	1.71948	-1.12934
3510.000	1.80046	-0.89076	1.65429	-1.16119
3511.000	1.79256	-0.86889	1.61281	-1.11152
3512.000	1.77873	-0.86293	1.68590	-1.16912
3513.000	1.76886	-0.83511	1.61083	-1.07573
3514.000	1.81231	-0.84105	1.67207	-1.18702
3515.000	1.83403	-0.81321	1.67009	-1.09956
3516.000	1.77478	-0.86095	1.66219	-1.15124
3517.000	1.78861	-0.82715	1.63256	-1.13735
3518.000	1.78663	-0.83709	1.58910	-1.17315
3519.000	1.80836	-0.81918	1.65232	-1.05981
3520.000	1.81231	-0.84304	1.66022	-1.11546
3521.000	1.79651	-0.83907	1.67800	-1.15322
3522.000	1.78071	-0.82317	1.67009	-1.10950
3523.000	1.80046	-0.82316	1.61873	-1.17512
3524.000	1.80243	-0.82714	1.66614	-1.14130
3525.000	1.78466	-0.82317	1.69577	-1.23670
3526.000	1.79453	-0.84106	1.61676	-1.07374
3527.000	1.79453	-0.85696	1.61083	-1.13338
3528.000	1.81626	-0.78936	1.63849	-1.06578
3529.000	1.82218	-0.82713	1.63849	-1.11150
3530.000	1.76293	-0.85499	1.60688	-1.15724
3531.000	1.80836	-0.85497	1.69577	-1.11346
3532.000	1.80836	-0.87286	1.60688	-1.16718
3533.000	1.82218	-0.87484	1.60886	-1.07176
3534.000	1.78071	-0.86095	1.67997	-1.14129
3535.000	1.77478	-0.84504	1.66219	-1.13733
3536.000	1.84391	-0.80326	1.66812	-1.22479
3537.000	1.74515	-0.88084	1.63849	-1.10753
3538.000	1.77281	-0.84306	1.61478	-1.10157
3539.000	1.78071	-0.82516	1.67207	-1.13732
3540.000	1.79453	-0.80527	1.64837	-1.08367
3541.000	1.81626	-0.85496	1.61478	-1.12145
3542.000	1.79848	-0.83112	1.64837	-1.23871
3543.000	1.82021	-0.83111	1.62269	-1.13139
3544.000	1.80441	-0.78738	1.67207	-1.11546
3545.000	1.81033	-0.82316	1.67602	-1.16714
3546.000	1.81428	-0.81918	1.62071	-1.16320
3547.000	1.83601	-0.82911	1.58515	-1.06780
3548.000	1.80441	-0.82714	1.61281	-1.09164
3549.000	1.81231	-0.81123	1.61478	-1.13736
3550.000	1.80638	-0.86292	1.66219	-1.10354
3551.000	1.81823	-0.81719	1.66417	-1.17510
3552.000	1.79848	-0.80726	1.58318	-1.14135
3553.000	1.80638	-0.83111	1.65034	-1.18504
3554.000	1.78268	-0.83709	1.59700	-1.15128
3555.000	1.79256	-0.82714	1.63849	-1.17114
3556.000	1.79453	-0.80329	1.61478	-1.13934
3557.000	1.81033	-0.82912	1.63849	-1.11150
3558.000	1.79651	-0.82515	1.67800	-1.10949
3559.000	1.81823	-0.78737	1.65232	-1.12740
3560.000	1.82811	-0.80725	1.68195	-1.12340
3561.000	1.82218	-0.78140	1.63256	-1.08964
3562.000	1.83996	-0.76350	1.70367	-1.11942
3563.000	1.82613	-0.81719	1.68590	-1.12539
3564.000	1.82811	-0.77146	1.60688	-1.09562
3565.000	1.83206	-0.78339	1.61083	-1.09561
3566.000	1.79651	-0.81124	1.64244	-1.03198
3567.000	1.81626	-0.80924	1.65824	-1.10155
3568.000	1.82811	-0.79929	1.67997	-1.11545
3569.000	1.80441	-0.85298	1.63256	-1.06578
3570.000	1.83206	-0.81719	1.68195	-1.06178
3571.000	1.84983	-0.79531	1.63651	-1.06578
3572.000	1.83601	-0.83706	1.71158	-1.13929
3573.000	1.80441	-0.86093	1.64837	-1.10156
3574.000	1.82416	-0.79532	1.64046	-1.11548
3575.000	1.80046	-0.80328	1.56737	-1.16521
3576.000	1.80836	-0.80328	1.60688	-1.12345
3577.000	1.81626	-0.80725	1.54367	-1.09565
3578.000	1.79848	-0.81919	1.58910	-1.16321
3579.000	1.80638	-0.84105	1.63849	-1.09361
3580.000	1.83008	-0.79731	1.53774	-1.06384
3581.000	1.80836	-0.80129	1.58910	-1.07177
3582.000	1.79058	-0.82317	1.64639	-1.11945
3583.000	1.79256	-0.80726	1.64441	-1.08168
3584.000	1.82416	-0.84303	1.61083	-1.11350
3585.000	1.82021	-0.81719	1.58713	-1.15725
3586.000	1.80441	-0.83509	1.68590	-1.09358
3587.000	1.83403	-0.79134	1.65824	-1.14528
3588.000	1.81626	-0.84304	1.68590	-1.16316
3589.000	1.82416	-0.79930	1.66812	-1.13136
3590.000	1.83206	-0.82315	1.70170	-1.09159
3591.000	1.81428	-0.75358	1.63454	-1.12542
3592.000	1.83798	-0.76351	1.58120	-1.05587
3593.000	1.79651	-0.80130	1.64639	-1.09957
3594.000	1.82416	-0.74761	1.67997	-1.05383
3595.000	1.85971	-0.78139	1.62861	-1.09362
3596.000	1.82218	-0.74960	1.62071	-1.11549
3597.000	1.83403	-0.78538	1.65824	-1.15920
3598.000	1.80836	-0.74563	1.59305	-1.07972
3599.000	1.82416	-0.77544	1.64046	-1.08168
3600.000	1.81823	-0.78936	1.63849	-1.10753
3601.000	1.81626	-0.78936	1.62861	-1.15921
3602.000	1.84391	-0.79332	1.64837	-1.06975
3603.000	1.79453	-0.82515	1.60688	-1.12345
3604.000	1.83403	-0.76748	1.69380	-1.09954
3605.000	1.80441	-0.79732	1.62269	-1.12741
3606.000	1.80836	-0.83310	1.60096	-1.12941
3607.000	1.84391	-0.75754	1.64244	-1.07373
3608.000	1.83008	-0.79929	1.59700	-1.08966
3609.000	1.82021	-0.75158	1.62861	-1.08169
3610.000	1.83798	-0.74561	1.70170	-1.08562
3611.000	1.83403	-0.79532	1.62664	-1.13139
3612.000	1.83798	-0.78537	1.68590	-1.07172
3613.000	1.81823	-0.78737	1.65034	-1.09957
3614.000	1.85773	-0.77940	1.65824	-1.10155
3615.000	1.85576	-0.75753	1.62269	-1.15723
3616.000	1.84391	-0.79332	1.59108	-1.19502
3617.000	1.81823	-0.77544	1.61873	-1.15723
3618.000	1.85378	-0.80525	1.60688	-1.09562
3619.000	1.82218	-0.76152	1.65429	-1.16119
3620.000	1.83206	-0.78140	1.61478	-1.11350
3621.000	1.83601	-0.80128	1.68985	-1.14924
3622.000	1.82811	-0.77544	1.64441	-1.08764
3623.000	1.82811	-0.77544	1.78663	-1.17105
3624.000	1.83601	-0.76152	1.64639	-1.17312
3625.000	1.84193	-0.76350	1.68590	-1.13334
3626.000	1.80836	-0.77147	1.65627	-1.11348
3627.000	1.83996	-0.72573	1.58713	-1.15129
3628.000	1.83206	-0.78935	1.61478	-1.11350
3629.000	1.84391	-0.77742	1.62664	-1.10554
3630.000	1.79651	-0.79732	1.60096	-1.15923
3631.000	1.83403	-0.78140	1.56145	-1.13142
3632.000	1.83403	-0.75357	1.58713	-1.11352
3633.000	1.80046	-0.77346	1.64046	-1.14132
3634.000	1.83996	-0.72971	1.58713	-1.10954
3635.000	1.83206	-0.76947	1.69577	-1.17110
3636.000	1.84588	-0.78537	1.60096	-1.14134
3637.000	1.84391	-0.74163	1.61281	-1.13537
3638.000	1.84786	-0.77344	1.65429	-1.15920
3639.000	1.84391	-0.76748	1.60688	-1.12543
3640.000	1.82416	-0.78538	1.64837	-1.11547
3641.000	1.84983	-0.77742	1.67997	-1.09955
3642.000	1.83206	-0.74959	1.67800	-1.12142
3643.000	1.83206	-0.79333	1.60096	-1.12345
3644.000	1.82811	-0.77544	1.64639	-1.09361
3645.000	1.84193	-0.77742	1.66614	-1.08962
3646.000	1.83996	-0.77344	1.60688	-1.16320
3647.000	1.83601	-0.76351	1.63059	-1.10355
3648.000	1.82416	-0.77942	1.67800	-1.18503
3649.000	1.83206	-0.77544	1.58120	-1.14135
3650.000	1.84391	-0.79332	1.59108	-1.09165
3651.000	1.85378	-0.77344	1.62664	-1.10356
3652.000	1.87551	-0.78933	1.65627	-1.10752
3653.000	1.85773	-0.73169	1.58318	-1.17316
3654.000	1.86366	-0.75952	1.64639	-1.08367
3655.000	1.83008	-0.73568	1.58515	-1.12545
3656.000	1.82811	-0.80327	1.67207	-1.08564
3657.000	1.87551	-0.77144	1.63651	-1.09361
3658.000	1.86761	-0.75753	1.66022	-1.14131
3659.000	1.87946	-0.78337	1.63256	-1.10355
3660.000	1.86761	-0.75355	1.60096	-1.13935
3661.000	1.85181	-0.78537	1.62466	-1.05386
3662.000	1.83206	-0.75754	1.66417	-1.10751
3663.000	1.84391	-0.75953	1.55552	-1.10757
3664.000	1.81428	-0.76948	1.61083	-1.09362
3665.000	1.88538	-0.79529	1.67404	-1.16913
3666.000	1.82613	-0.76351	1.68787	-1.18701
3667.000	1.82811	-0.74562	1.58713	-1.08767
3668.000	1.86563	-0.76548	1.55552	-1.04594
3669.000	1.85576	-0.73964	1.68195	-1.11148
3670.000	1.83996	-0.77742	1.63651	-1.16517
3671.000	1.85773	-0.75157	1.62071	-1.08169
3672.000	1.86563	-0.74163	1.61083	-1.15127
3673.000	1.85773	-0.77741	1.63256	-1.07175
3674.000	1.85576	-0.73169	1.67009	-1.13136
3675.000	1.87551	-0.75753	1.67997	-1.16515
3676.000	1.84786	-0.75555	1.58713	-1.13340
3677.000	1.85378	-0.76747	1.66614	-1.08366
3678.000	1.83206	-0.80725	1.65034	-1.12143
3679.000	1.82613	-0.79134	1.56540	-1.13341
3680.000	1.85181	-0.76946	1.65034	-1.16119
3681.000	1.83008	-0.77345	1.63849	-1.06578
3682.000	1.80046	-0.76949	1.59305	-1.03996
3683.000	1.85181	-0.77742	1.61676	-1.05187
3684.000	1.82021	-0.74761	1.59700	-1.07972
3685.000	1.83996	-0.74959	1.61676	-1.04392
3686.000	1.80836	-0.78141	1.61873	-0.96838
3687.000	1.88538	-0.76547	1.54367	-1.06980
3688.000	1.82811	-0.77941	1.56540	-1.10558
3689.000	1.84786	-0.78736	1.64244	-1.07969
3690.000	1.84983	-0.78139	1.72935	-1.15319
3691.000	1.86563	-0.76548	1.69972	-1.01406
3692.000	1.85378	-0.76549	1.63651	-1.03000
3693.000	1.81823	-0.73966	1.61478	-1.01808
3694.000	1.87551	-0.75753	1.62664	-1.12145
3695.000	1.83403	-0.76351	1.56342	-1.03202
3696.000	1.85773	-0.77741	1.65034	-1.04192
3697.000	1.83601	-0.74959	1.67997	-1.13136
3698.000	1.80836	-0.77743	1.58713	-1.03996
3699.000	1.83601	-0.73766	1.59503	-1.03797
3700.000	1.83996	-0.78339	1.60886	-1.02604
3701.000	1.83601	-0.80128	1.56737	-1.10359
3702.000	1.82416	-0.79731	1.60688	-1.08568
3703.000	1.83601	-0.77146	1.53971	-1.03601
3704.000	1.85576	-0.77543	1.54762	-1.06781
3705.000	1.83008	-0.76550	1.60688	-1.10754
3706.000	1.85576	-0.77543	1.56935	-1.10160
3707.000	1.81428	-0.81123	1.60293	-1.16917
3708.000	1.83996	-0.80724	1.63849	-1.12939
3709.000	1.87353	-0.77542	1.67800	-1.04985
3710.000	1.84588	-0.82115	1.55749	-1.06781
3711.000	1.81428	-0.82316	1.63454	-1.06976
3712.000	1.85181	-0.77543	1.56540	-1.06184
3713.000	1.85773	-0.76747	1.60491	-1.09760
3714.000	1.88341	-0.78337	1.58318	-1.06780
3715.000	1.87946	-0.76349	1.62466	-1.08964
3716.000	1.87353	-0.76349	1.63651	-1.10156
3717.000	1.88933	-0.76746	1.58713	-1.11948
3718.000	1.85181	-0.74760	1.69577	-1.06177
3719.000	1.85773	-0.77344	1.63454	-1.11747
3720.000	1.82218	-0.77743	1.66417	-1.13335
3721.000	1.86563	-0.76946	1.64046	-1.13337
3722.000	1.84786	-0.76748	1.65627	-1.14727
3723.000	1.87353	-0.79530	1.67009	-1.06974
3724.000	1.85181	-0.76946	1.64441	-1.04788
3725.000	1.82218	-0.80526	1.68590	-1.09756
3726.000	1.83798	-0.76351	1.65232	-1.11149
3727.000	1.85378	-0.78338	1.56342	-1.08172
3728.000	1.85576	-0.79928	1.61478	-1.18904
3729.000	1.85181	-0.80922	1.69380	-1.13135
3730.000	1.86366	-0.82115	1.56342	-1.09365
3731.000	1.88341	-0.75951	1.57725	-1.07575
3732.000	1.87353	-0.78536	1.67009	-1.12142
3733.000	1.84983	-0.79928	1.59305	-1.12942
3734.000	1.82811	-0.79731	1.57923	-1.09762
3735.000	1.82811	-0.79134	1.61281	-1.12145
3736.000	1.88143	-0.75156	1.62664	-1.10753
3737.000	1.85378	-0.76747	1.59305	-1.08767
3738.000	1.84193	-0.76350	1.61676	-1.04989
3739.000	1.87551	-0.76747	1.67997	-1.10154
3740.000	1.88341	-0.71379	1.64046	-1.11150
3741.000	1.89328	-0.71378	1.64046	-1.11349
3742.000	1.96635	-0.69188	1.69972	-1.13731
3743.000	1.96832	-0.64417	1.72738	-1.11344
3744.000	2.09666	-0.61231	1.78466	-1.02197
3745.000	2.15589	-0.57055	1.88538	-1.00601
3746.000	2.26249	-0.49696	1.99399	-0.95824
3747.000	2.29407	-0.46316	2.02361	-0.91847
3748.000	2.35921	-0.37568	1.98017	-0.81711
3749.000	2.42828	-0.33193	2.01966	-0.81908
3750.000	2.49932	-0.25043	2.16181	-0.75540
3751.000	2.53484	-0.19875	2.11246	-0.63815
3752.000	2.55260	-0.13316	2.17958	-0.63613
3753.000	2.50327	-0.09739	2.22696	-0.57847
3754.000	2.50524	-0.08944	2.10259	-0.54870
3755.000	2.45394	-0.05367	2.18945	-0.54270
3756.000	2.40657	-0.02186	2.04138	-0.60836
3757.000	2.29605	-0.04373	2.07495	-0.57455
3758.000	2.23091	-0.12524	2.00584	-0.60638
3759.000	2.18748	-0.13717	1.91500	-0.67799
3760.000	2.11641	-0.14911	1.89920	-0.69986
3761.000	2.05125	-0.22466	1.81626	-0.74960
3762.000	2.01769	-0.20876	1.89723	-0.79926
3763.000	1.98609	-0.24455	1.78861	-0.83510
3764.000	1.95647	-0.26444	1.75108	-0.85499
3765.000	1.98609	-0.29426	1.76886	-0.84902
3766.000	2.00189	-0.38770	1.73528	-0.86892
3767.000	1.99794	-0.36782	1.72145	-0.95242
3768.000	2.03941	-0.39365	1.83008	-0.89273
3769.000	2.03151	-0.43342	1.77873	-0.94047
3770.000	2.11246	-0.37773	1.88143	-0.85295
3771.000	2.11838	-0.42743	1.81033	-0.83509
3772.000	2.11838	-0.41749	1.83403	-0.85893
3773.000	2.17563	-0.44530	1.90118	-0.86089
3774.000	2.16971	-0.40157	1.84983	-0.84898
3775.000	2.16379	-0.44133	1.94857	-0.83701
3776.000	2.21512	-0.37771	1.93080	-0.82310
3777.000	2.22301	-0.41150	1.99794	-0.79325
3778.000	2.20130	-0.43734	1.90315	-0.85890
3779.000	2.23288	-0.36379	1.92093	-0.82311
3780.000	2.19340	-0.38566	1.94462	-0.85093
3781.000	2.20327	-0.36976	1.89723	-0.83107
3782.000	2.24078	-0.38764	1.94660	-0.83502
3783.000	2.20327	-0.36379	1.89130	-0.83107
3784.000	2.19735	-0.37175	1.87353	-0.83307
3785.000	2.21709	-0.34987	1.89525	-0.83704
3786.000	2.19735	-0.36379	1.93080	-0.77142
3787.000	2.20130	-0.33000	1.92685	-0.83106
3788.000	2.20722	-0.29819	1.88735	-0.84698
3789.000	2.23288	-0.31608	1.91698	-0.76745
3790.000	2.23288	-0.31210	1.89130	-0.80921
3791.000	2.24473	-0.32999	1.93278	-0.84099
3792.000	2.20919	-0.35982	1.85773	-0.78537
3793.000	2.21906	-0.32006	1.96832	-0.81712
3794.000	2.22893	-0.32999	1.91698	-0.84498
3795.000	2.22104	-0.31012	1.90118	-0.84697
3796.000	2.20327	-0.34193	1.89130	-0.82511
3797.000	2.23288	-0.33794	1.90908	-0.79131
3798.000	2.22301	-0.36379	1.93672	-0.83105
3799.000	2.23683	-0.32602	1.87156	-0.81915
3800.000	2.24473	-0.34390	1.89130	-0.86686
3801.000	2.22301	-0.34590	1.94462	-0.79924
3802.000	2.24867	-0.35782	1.91895	-0.83504
3803.000	2.27828	-0.34986	1.86958	-0.81120
3804.000	2.26644	-0.32800	1.87156	-0.91458
3805.000	2.26052	-0.33197	1.87946	-0.84102
3806.000	2.22104	-0.32999	1.90315	-0.85492
3807.000	2.22696	-0.30216	1.89525	-0.85493
3808.000	2.27433	-0.34589	1.84786	-0.78537
3809.000	2.25262	-0.32601	1.83798	-0.82911
3810.000	2.22893	-0.33993	1.92685	-0.87678
3811.000	2.23683	-0.33993	1.95845	-0.85688
3812.000	2.27433	-0.35384	1.82218	-0.88478
3813.000	2.27236	-0.34390	1.94067	-0.78732
3814.000	2.25657	-0.35384	1.92290	-0.81118
3815.000	2.28618	-0.32998	1.84193	-0.89272
3816.000	2.27039	-0.34787	1.83008	-0.81917
3817.000	2.28815	-0.31408	1.87353	-0.82909
3818.000	2.27631	-0.32601	1.91303	-0.83305
3819.000	2.31579	-0.31010	1.83403	-0.82712
3820.000	2.30000	-0.32203	1.83008	-0.87086
3821.000	2.29210	-0.32998	1.89328	-0.80125
3822.000	2.29210	-0.31209	1.90908	-0.84896
3823.000	2.28026	-0.38166	1.88735	-0.88077
3824.000	2.31381	-0.29221	1.86958	-0.85693
3825.000	2.30592	-0.32202	1.82416	-0.89472
3826.000	2.30000	-0.34190	1.87551	-0.89469
3827.000	2.29802	-0.34787	1.87551	-0.81717
3828.000	2.30197	-0.35780	1.89525	-0.91655
3829.000	2.33947	-0.31407	1.93672	-0.83304
3830.000	2.27631	-0.35384	1.88933	-0.79132
3831.000	2.25460	-0.34390	1.83206	-0.84303
3832.000	2.30197	-0.33196	1.91698	-0.93045
3833.000	2.28223	-0.32203	1.81231	-0.83111
3834.000	2.27828	-0.32203	1.91698	-0.89666
3835.000	2.30394	-0.31407	1.83996	-0.91062
3836.000	2.28815	-0.30414	1.96832	-0.84296
3837.000	2.29802	-0.34985	1.84391	-0.87086
3838.000	2.29605	-0.33793	1.81428	-0.84105
3839.000	2.27828	-0.35781	1.93672	-0.87280
3840.000	2.28420	-0.36178	1.90908	-0.82709
3841.000	2.27828	-0.37173	1.81033	-0.92256
3842.000	2.27631	-0.37570	1.97622	-0.92645
3843.000	2.32171	-0.38762	1.86563	-0.90464
3844.000	2.29210	-0.35582	1.82613	-0.90665
3845.000	2.28420	-0.36775	1.91698	-0.89070
3846.000	2.30986	-0.35780	1.86168	-0.92452
3847.000	2.30000	-0.34190	1.91500	-0.90660
3848.000	2.29013	-0.35980	1.88538	-0.83903
3849.000	2.30000	-0.35184	1.84391	-0.82911
3850.000	2.29407	-0.36576	1.86958	-0.81717
3851.000	2.30789	-0.36774	1.91303	-0.84100
3852.000	2.29407	-0.32004	1.87156	-0.87681
3853.000	2.31973	-0.30811	1.85773	-0.84898
3854.000	2.33552	-0.31407	1.85181	-0.87681
3855.000	2.31381	-0.36178	1.90513	-0.86884
3856.000	2.30394	-0.35582	1.85181	-0.85694
3857.000	2.31579	-0.34985	1.91303	-0.82112
3858.000	2.30592	-0.34985	1.88143	-0.82909
3859.000	2.31776	-0.35979	1.86761	-0.88476
3860.000	2.33355	-0.36376	1.85378	-0.92055
3861.000	2.30592	-0.37172	1.84588	-0.86489
3862.000	2.30197	-0.36576	1.84391	-0.90266
3863.000	2.32565	-0.35184	1.86761	-0.81717
3864.000	2.32171	-0.33593	1.85378	-0.88477
3865.000	2.32763	-0.33991	1.86958	-0.85693
3866.000	2.29210	-0.40154	1.89920	-0.84896
3867.000	2.33552	-0.37569	1.86958	-0.90066
3868.000	2.28420	-0.41545	1.82613	-0.83707
3869.000	2.31184	-0.37967	1.81428	-0.87087
3870.000	2.30592	-0.36178	1.81033	-0.84900
3871.000	2.30986	-0.36178	1.90315	-0.91058
3872.000	2.33355	-0.38562	1.87353	-0.90463
3873.000	2.32171	-0.35780	1.85181	-0.83904
3874.000	2.31579	-0.37370	1.84588	-0.91459
3875.000	2.28815	-0.37570	1.86366	-0.82512
3876.000	2.30592	-0.31010	1.86168	-0.92452
3877.000	2.33947	-0.28226	1.88341	-0.88078
3878.000	2.30197	-0.32401	1.84193	-0.83110
3879.000	2.28815	-0.36576	1.87156	-0.82114
3880.000	2.31776	-0.32401	1.80441	-0.80925
3881.000	2.28815	-0.32600	1.95450	-0.93242
3882.000	2.31184	-0.33991	1.82218	-0.88876
3883.000	2.33355	-0.34190	1.85378	-0.98217
3884.000	2.25657	-0.36974	1.79848	-0.93449
3885.000	2.28618	-0.38763	1.89525	-0.92848
3886.000	2.30197	-0.34190	1.91303	-0.92052
3887.000	2.29605	-0.33594	1.89130	-0.87680
3888.000	2.33355	-0.33593	1.85576	-0.90862
3889.000	2.30394	-0.37371	1.89328	-0.92450
3890.000	2.32171	-0.33792	1.80046	-0.91859
3891.000	2.30986	-0.35184	1.84588	-0.84700
3892.000	2.31381	-0.36774	1.85576	-0.89868
3893.000	2.30000	-0.34588	1.89328	-0.90065
3894.000	2.31579	-0.34389	1.78268	-0.93450
3895.000	2.31973	-0.34389	1.85576	-0.91657
3896.000	2.32763	-0.34388	1.86168	-0.92054
3897.000	2.32565	-0.34587	1.89525	-0.89667
3898.000	2.30197	-0.35582	1.89328	-0.89071
3899.000	2.25460	-0.33396	1.89525	-0.87878
3900.000	2.34539	-0.34786	1.82021	-0.96827
3901.000	2.33552	-0.35183	1.82218	-0.92852
3902.000	2.34539	-0.31406	1.88735	-0.96227
3903.000	2.36513	-0.36176	1.90315	-0.89667
3904.000	2.35329	-0.31605	1.87353	-0.86686
3905.000	2.35131	-0.33792	1.90908	-0.93046
3906.000	2.33750	-0.34786	1.94067	-0.92448
3907.000	2.34342	-0.33991	1.82021	-0.94044
3908.000	2.32960	-0.33991	1.87156	-0.85891
3909.000	2.36710	-0.33195	1.81033	-0.93250
3910.000	2.34934	-0.32798	1.90118	-0.96425
3911.000	2.33355	-0.32997	1.85576	-0.94043
3912.000	2.30986	-0.34389	1.79651	-0.88082
3913.000	2.34342	-0.31406	1.81033	-0.88280
3914.000	2.33355	-0.30015	1.83008	-0.89671
3915.000	2.37105	-0.29617	1.87156	-0.85295
3916.000	2.30394	-0.35184	1.95252	-0.89267
3917.000	2.33947	-0.34388	1.82021	-0.89671
3918.000	2.35526	-0.31406	1.83206	-0.94044
3919.000	2.35723	-0.37767	1.86366	-0.84898
3920.000	2.34144	-0.33792	1.90513	-0.87679
3921.000	2.32565	-0.35382	1.86168	-0.87085
3922.000	2.33158	-0.30214	1.89920	-0.83703
3923.000	2.34539	-0.32202	1.90118	-0.87083
3924.000	2.33947	-0.32997	1.83206	-0.99212
3925.000	2.31776	-0.33395	1.86563	-0.91458
3926.000	2.34934	-0.35382	1.87156	-0.89271
3927.000	2.34737	-0.38562	1.95055	-0.86285
3928.000	2.32368	-0.36575	1.79651	-0.90269
3929.000	2.38881	-0.32797	1.90513	-0.92251
3930.000	2.34144	-0.38165	1.88143	-0.95234
3931.000	2.32763	-0.39755	1.85181	-0.83109
3932.000	2.32960	-0.34587	1.88933	-0.92848
3933.000	2.31381	-0.33991	1.79848	-0.93847
3934.000	2.32565	-0.34985	1.89920	-0.84498
3935.000	2.34737	-0.33990	1.88538	-0.84897
3936.000	2.32171	-0.35780	1.84391	-0.91658
3937.000	2.32763	-0.37768	1.83008	-0.89869
3938.000	2.34737	-0.34189	1.84983	-0.89272
3939.000	2.35723	-0.33394	1.88933	-0.92252
3940.000	2.30789	-0.38364	1.92093	-0.91057
3941.000	2.33158	-0.35780	1.81231	-0.96232
3942.000	2.32565	-0.33991	1.85576	-0.85892
3943.000	2.33750	-0.35978	1.84391	-0.96429
3944.000	2.33947	-0.32202	1.89130	-0.90860
3945.000	2.33158	-0.33792	1.88933	-0.91655
3946.000	2.36118	-0.32599	1.85773	-0.93049
3947.000	2.33552	-0.40351	1.87551	-0.88078
3948.000	2.30986	-0.35383	1.82811	-0.97423
3949.000	2.32565	-0.35184	1.91303	-0.94636
3950.000	2.34342	-0.34388	1.82218	-0.95635
3951.000	2.34737	-0.32599	1.88735	-0.94438
3952.000	2.37500	-0.34189	1.84391	-0.98218
3953.000	2.35329	-0.34189	1.88341	-0.88276
3954.000	2.34342	-0.33991	1.84786	-0.94441
3955.000	2.35723	-0.36375	1.88538	-0.91258
3956.000	2.32565	-0.34786	1.90710	-0.90859
3957.000	2.37302	-0.35977	1.84391	-0.92254
3958.000	2.34144	-0.32798	1.75700	-0.93849
3959.000	2.33947	-0.36376	1.88735	-0.98215
3960.000	2.35921	-0.34984	1.80243	-1.00009
3961.000	2.33158	-0.34786	1.88735	-0.94836
3962.000	2.34737	-0.35183	1.90118	-0.98612
3963.000	2.35723	-0.33593	1.89328	-0.92848
3964.000	2.34144	-0.30810	1.83601	-0.92255
3965.000	2.32565	-0.33792	1.85181	-0.93049
3966.000	2.33750	-0.37370	1.93870	-0.96423
3967.000	2.36315	-0.37170	1.87946	-0.96427
3968.000	2.34737	-0.38165	1.83008	-1.02194
3969.000	2.36710	-0.36773	1.84983	-0.99609
3970.000	2.38486	-0.32598	1.95252	-0.94634
3971.000	2.33552	-0.40351	1.88933	-0.94438
3972.000	2.37894	-0.35977	1.86563	-0.90265
3973.000	2.31184	-0.32799	1.83008	-0.94243
3974.000	2.34539	-0.36574	1.78268	-0.90667
3975.000	2.37500	-0.33990	1.82021	-0.98020
3976.000	2.34539	-0.33195	1.86958	-0.92452
3977.000	2.38092	-0.34188	1.86168	-0.86488
3978.000	2.38289	-0.30809	1.83996	-1.00603
3979.000	2.35723	-0.35382	1.83206	-0.95435
3980.000	2.36513	-0.33592	1.83798	-0.98616
3981.000	2.34342	-0.33792	1.88341	-1.00402
3982.000	2.35723	-0.34785	1.84786	-0.97224
3983.000	2.33355	-0.34985	1.81626	-0.91063
3984.000	2.34934	-0.34984	1.82613	-0.98219
3985.000	2.38881	-0.34188	1.86168	-0.97223
3986.000	2.39473	-0.31207	1.76886	-0.98619
3987.000	2.35131	-0.30412	1.79058	-0.95835
3988.000	2.33750	-0.35978	1.85576	-1.00205
3989.000	2.37105	-0.32797	1.97424	-0.99005
3990.000	2.36710	-0.36773	1.82021	-0.95834
3991.000	2.31973	-0.36774	1.82613	-0.98020
3992.000	2.33355	-0.36376	1.83601	-0.94839
3993.000	2.38092	-0.36176	1.95055	-0.92050
3994.000	2.33552	-0.38761	1.82416	-0.95038
3995.000	2.36513	-0.38164	1.88143	-0.96824
3996.000	2.38486	-0.37567	1.86958	-0.89867
3997.000	2.36710	-0.34387	1.87551	-0.95433
3998.000	2.37105	-0.37568	1.83403	-0.97622
3999.000	2.30789	-0.33196	1.90908	-0.95034
4000.000	2.33750	-0.35780	1.91500	-1.01990
4001.000	2.35526	-0.36773	1.89130	-0.96625
4002.000	2.36118	-0.35381	1.76886	-0.96433
4003.000	2.33750	-0.37171	1.87551	-0.96427
4004.000	2.36908	-0.34984	1.87156	-1.05173
4005.000	2.36908	-0.39357	1.84983	-1.11734
4006.000	2.34737	-0.37369	1.87156	-0.97620
4007.000	2.39671	-0.36573	1.91895	-1.01791
4008.000	2.35723	-0.40748	1.88933	-0.98811
4009.000	2.35723	-0.38164	1.73330	-0.99615
4010.000	2.34934	-0.37966	1.86366	-1.03385
4011.000	2.34737	-0.40152	1.86168	-0.97620
4012.000	2.33355	-0.35780	1.84786	-1.06566
4013.000	2.36315	-0.37369	1.90513	-1.02388
4014.000	2.39078	-0.36176	1.81823	-0.99611
4015.000	2.32565	-0.37569	1.96635	-0.98409
4016.000	2.33552	-0.34587	1.90710	-1.03978
4017.000	2.38486	-0.38959	1.84391	-1.04579
4018.000	2.34934	-0.40947	1.91895	-0.96027
4019.000	2.38289	-0.38362	1.86168	-0.97620
4020.000	2.34342	-0.40749	1.86366	-0.95036
4021.000	2.38684	-0.35977	1.93080	-0.92647
4022.000	2.36118	-0.39556	1.86366	-0.90464
4023.000	2.37697	-0.39555	1.88538	-0.92053
4024.000	2.38486	-0.35381	1.85971	-0.99807
4025.000	2.33947	-0.41345	1.96042	-0.98211
4026.000	2.39473	-0.35381	1.84983	-0.95037
4027.000	2.35526	-0.36177	1.88933	-0.96426
4028.000	2.32763	-0.41147	1.90315	-0.93046
4029.000	2.36908	-0.35978	2.04533	-0.99796
4030.000	2.35526	-0.34785	1.87353	-0.98017
4031.000	2.33947	-0.39357	1.86958	-0.98017
4032.000	2.40855	-0.37169	1.91895	-1.00201
4033.000	2.36118	-0.37965	1.92290	-0.92250
4034.000	2.38092	-0.37369	1.86761	-1.03385
4035.000	2.37697	-0.41145	1.83403	-0.95236
4036.000	2.37697	-0.42537	1.87353	-0.96029
4037.000	2.36908	-0.38760	1.82416	-0.93249
4038.000	2.35131	-0.39953	1.92488	-0.93244
4039.000	2.35131	-0.39953	1.89525	-0.99209
4040.000	2.36710	-0.38164	1.85378	-0.92452
4041.000	2.36710	-0.38562	1.81823	-0.99809
4042.000	2.36908	-0.38363	1.90118	-0.94239
4043.000	2.38486	-0.40747	1.88341	-0.86686
4044.000	2.35329	-0.33394	1.87551	-0.92849
4045.000	2.40855	-0.33591	1.96240	-0.95031
4046.000	2.40460	-0.38958	1.85378	-0.94440
4047.000	2.44210	-0.42733	1.83601	-1.00603
4048.000	2.39671	-0.40151	1.87748	-0.92054
4049.000	2.39671	-0.38759	1.87946	-1.03583
4050.000	2.40460	-0.44722	1.95450	-0.98211
4051.000	2.41249	-0.39554	1.91500	-1.01593
4052.000	2.40263	-0.39952	1.78268	-1.02197
4053.000	2.42039	-0.41343	2.01176	-0.95028
4054.000	2.42039	-0.40945	1.91500	-1.02984
4055.000	2.45196	-0.40944	1.92685	-1.01791
4056.000	2.40855	-0.37765	1.96437	-1.02981
4057.000	2.39473	-0.41145	1.92685	-1.04176
4058.000	2.36315	-0.43928	1.87156	-1.03782
4059.000	2.36513	-0.40947	1.89130	-0.94239
4060.000	2.39868	-0.42138	1.91105	-0.99208
4061.000	2.39078	-0.39753	1.89328	-0.98016
4062.000	2.37105	-0.41543	1.80243	-0.97624
4063.000	2.37105	-0.38363	1.89920	-1.03979
4064.000	2.37500	-0.43530	1.95450	-0.91652
4065.000	2.39473	-0.39356	1.91895	-0.93840
4066.000	2.38881	-0.40946	1.99597	-0.98606
4067.000	2.41841	-0.35778	1.87748	-0.97222
4068.000	2.37302	-0.41145	1.86366	-0.95434
4069.000	2.39276	-0.42536	1.98412	-0.95427
4070.000	2.39078	-0.43927	1.95647	-0.98609
4071.000	2.41447	-0.42734	1.88538	-0.93842
4072.000	2.38092	-0.42338	1.91698	-0.98810
4073.000	2.41644	-0.39753	1.86563	-1.00403
4074.000	2.39868	-0.40747	1.85971	-0.98614
4075.000	2.42236	-0.34982	1.96240	-1.02186
4076.000	2.40263	-0.40349	1.81428	-0.99412
4077.000	2.35921	-0.41742	1.90710	-0.97419
4078.000	2.36710	-0.41941	1.91895	-1.02189
4079.000	2.41249	-0.41740	1.84391	-0.99808
4080.000	2.37500	-0.40151	1.95845	-0.97416
4081.000	2.39868	-0.37169	1.92685	-0.98611
4082.000	2.42236	-0.39554	1.91895	-0.96623
4083.000	2.39868	-0.42735	1.87551	-1.00402
4084.000	2.40460	-0.42337	1.86563	-0.95632
4085.000	2.40855	-0.37964	1.97424	-0.99403
4086.000	2.41644	-0.43132	1.91500	-1.00996
4087.000	2.41249	-0.37566	1.90118	-0.99606
4088.000	2.40657	-0.38163	1.87946	-1.06365
4089.000	2.43420	-0.42137	1.85576	-1.00205
4090.000	2.39671	-0.38561	1.89328	-1.01197
4091.000	2.39473	-0.42735	1.84588	-0.97422
4092.000	2.38881	-0.43530	1.90908	-1.03581
4093.000	2.38289	-0.37170	1.89723	-1.00600
4094.000	2.40065	-0.38362	1.90710	-0.98413
4095.000	2.38881	-0.43331	1.97227	-1.01987
4096.000	2.40263	-0.41144	2.02163	-0.94630
4097.000	2.39276	-0.41542	1.88143	-0.92848
4098.000	2.39473	-0.39753	1.92883	-0.97020
4099.000	2.41644	-0.38958	1.90513	-0.96226
4100.000	2.41052	-0.40349	1.95252	-0.98410
4101.000	2.38486	-0.37368	1.93080	-0.99207
4102.000	2.41841	-0.43529	1.90315	-0.92450
4103.000	2.39671	-0.44126	1.85181	-1.07361
4104.000	2.37302	-0.40350	1.87156	-1.03981
4105.000	2.38881	-0.39754	1.93080	-0.99803
4106.000	2.37105	-0.40549	1.85773	-0.96428
4107.000	2.38289	-0.44723	1.93870	-1.00598
4108.000	2.38486	-0.40946	1.89723	-1.02190
4109.000	2.40855	-0.43132	1.92290	-1.04773
4110.000	2.41644	-0.42337	1.99202	-1.07750
4111.000	2.39868	-0.41741	1.90315	-0.99606
4112.000	2.38486	-0.44921	1.86761	-0.94439
4113.000	2.42433	-0.39951	1.89130	-0.97619
4114.000	2.37500	-0.43133	1.89130	-0.96625
4115.000	2.39868	-0.40747	1.87353	-0.97421
4116.000	2.41249	-0.37566	1.94265	-0.96224
4117.000	2.39276	-0.43927	1.89130	-0.99010
4118.000	2.39868	-0.42735	1.92093	-1.01195
4119.000	2.37697	-0.42735	1.90710	-1.02388
4120.000	2.37697	-0.45518	1.83008	-0.98616
4121.000	2.37302	-0.41543	1.92685	-1.04971
4122.000	2.38289	-0.45319	1.93080	-1.00797
4123.000	2.38289	-0.48300	1.93278	-1.00598
4124.000	2.38684	-0.44921	1.86563	-1.03385
4125.000	2.36908	-0.44524	1.89328	-0.95233
4126.000	2.38289	-0.46114	1.90908	-0.92052
4127.000	2.43420	-0.40945	1.91895	-0.97220
4128.000	2.35131	-0.46314	1.85773	-0.93844
4129.000	2.37500	-0.44325	1.85773	-0.97024
4130.000	2.36908	-0.44922	1.84588	-1.01994
4131.000	2.37105	-0.42139	1.85378	-0.98018
4132.000	2.37697	-0.41145	1.88538	-1.03185
4133.000	2.40065	-0.41940	1.83798	-0.99808
4134.000	2.38289	-0.43331	1.87946	-1.04576
4135.000	2.33750	-0.45917	1.86366	-0.95036
4136.000	2.38881	-0.45915	1.86761	-0.93843
4137.000	2.35526	-0.46512	2.00189	-1.02979
4138.000	2.39868	-0.43132	1.87748	-0.99011
4139.000	2.39473	-0.47704	1.90710	-1.06562
4140.000	2.40855	-0.43927	1.94067	-0.96026
4141.000	2.37500	-0.48698	1.96240	-1.00000
4142.000	2.39276	-0.45716	1.92883	-1.03778
4143.000	2.36513	-0.50090	1.87551	-1.06167
4144.000	2.37302	-0.44326	1.95845	-0.99205
4145.000	2.38486	-0.45915	1.96240	-1.06559
4146.000	2.37500	-0.42338	1.99991	-0.96420
4147.000	2.38486	-0.45319	1.93870	-1.00399
4148.000	2.43223	-0.43330	1.89130	-1.04775
4149.000	2.37697	-0.45717	2.01966	-1.05164
4150.000	2.39671	-0.44325	2.05520	-0.99000
4151.000	2.41447	-0.40945	1.89130	-0.99606
4152.000	2.40065	-0.42933	2.02953	-1.00393
4153.000	2.39078	-0.41741	1.86761	-1.05969
4154.000	2.34144	-0.44327	1.90315	-1.01991
4155.000	2.36710	-0.48301	1.84391	-1.07759
4156.000	2.35921	-0.47705	1.97424	-1.08347
4157.000	2.42039	-0.41740	1.91105	-1.04773
4158.000	2.39473	-0.44325	1.98214	-1.03576
4159.000	2.35526	-0.49295	1.98609	-1.04172
4160.000	2.36513	-0.48699	1.91105	-0.98413
4161.000	2.36118	-0.49494	1.94265	-1.06759
4162.000	2.35526	-0.46314	1.98609	-0.98607
4163.000	2.35921	-0.46115	1.91698	-1.01394
4164.000	2.40460	-0.47703	1.94067	-1.01591
4165.000	2.35329	-0.47705	2.00584	-1.05165
4166.000	2.36118	-0.45916	2.01571	-0.98605
4167.000	2.32565	-0.44128	1.97622	-1.02185
4168.000	2.35921	-0.45519	1.96240	-0.97018
4169.000	2.37105	-0.45717	1.95845	-1.05168
4170.000	2.38486	-0.40946	1.97424	-1.00993
4171.000	2.39473	-0.42337	2.00386	-1.00594
4172.000	2.36513	-0.47506	1.95845	-1.10932
4173.000	2.41249	-0.41740	1.93080	-1.02586
4174.000	2.37894	-0.49493	1.96240	-0.95627
4175.000	2.43025	-0.44920	1.94462	-1.05566
4176.000	2.35131	-0.48898	1.92290	-1.06760
4177.000	2.37302	-0.47506	1.92685	-0.96424
4178.000	2.35526	-0.41146	1.99794	-1.00196
4179.000	2.32368	-0.48104	1.97227	-1.02981
4180.000	2.39473	-0.45120	1.98214	-1.05166
4181.000	2.37894	-0.49096	2.00386	-1.01985
4182.000	2.37302	-0.42735	1.92488	-1.07158
4183.000	2.35723	-0.47705	1.97227	-1.06956
4184.000	2.38289	-0.47704	2.03151	-1.08542
4185.000	2.40263	-0.47505	2.07297	-1.02179
4186.000	2.35921	-0.47506	1.91105	-1.08947
4187.000	2.33947	-0.42935	2.03743	-1.03573
4188.000	2.38486	-0.46114	2.05323	-1.09534
4189.000	2.43025	-0.46709	2.00781	-1.07152
4190.000	2.40065	-0.48498	2.00781	-1.08544
4191.000	2.39276	-0.43729	1.99597	-1.00594
4192.000	2.40460	-0.43529	2.05323	-1.10727
4193.000	2.37105	-0.44326	1.92685	-0.99207
4194.000	2.39671	-0.43530	1.97819	-1.12918
4195.000	2.33750	-0.45519	1.96635	-1.09938
4196.000	2.36315	-0.45518	2.00584	-1.00792
4197.000	2.37105	-0.49493	1.99991	-1.07948
4198.000	2.33750	-0.46911	1.94265	-1.02386
4199.000	2.33158	-0.44327	2.00979	-1.06158
4200.000	2.34737	-0.45121	1.97029	-0.95626
4201.000	2.38289	-0.48897	2.07692	-1.04564
4202.000	2.37500	-0.41742	2.03546	-0.99995
4203.000	2.34934	-0.50090	1.96042	-0.91652
4204.000	2.36908	-0.49295	1.97424	-1.11925
4205.000	2.37894	-0.46710	1.90908	-1.03183
4206.000	2.36710	-0.47307	1.99004	-0.99402
4207.000	2.36710	-0.46512	2.07495	-1.06949
4208.000	2.40657	-0.43529	2.01966	-1.03176
4209.000	2.36315	-0.51282	2.01769	-1.12319
4210.000	2.31579	-0.47706	1.98412	-1.02384
4211.000	2.31776	-0.53868	1.98412	-1.07750
4212.000	2.39078	-0.47704	1.96240	-1.09342
4213.000	2.39473	-0.46312	2.00189	-1.04171
4214.000	2.37500	-0.48499	1.97819	-1.06359
4215.000	2.35329	-0.50488	2.05125	-1.04168
4216.000	2.37500	-0.41543	1.97029	-1.08745
4217.000	2.40263	-0.43927	1.94857	-1.15305
4218.000	2.37697	-0.43530	2.07100	-1.08142
4219.000	2.40460	-0.43927	1.95647	-1.00795
4220.000	2.33947	-0.49892	2.04533	-1.10330
4221.000	2.38092	-0.44325	2.04335	-1.12516
4222.000	2.37105	-0.43729	2.04138	-1.10330
4223.000	2.38881	-0.45319	2.05915	-1.09733
4224.000	2.40855	-0.41343	2.03743	-1.07747
4225.000	2.36513	-0.42736	2.02163	-1.06953
4226.000	2.40065	-0.41144	2.04928	-1.06752
4227.000	2.39671	-0.44325	2.03546	-1.03772
4228.000	2.36710	-0.45121	1.98214	-1.09142
4229.000	2.35526	-0.43133	1.96240	-1.00994
4230.000	2.39868	-0.42138	2.08679	-1.10526
4231.000	2.40460	-0.44722	2.04335	-1.11721
4232.000	2.36513	-0.45320	1.97819	-1.03577
4233.000	2.41249	-0.41939	1.94660	-1.10933
4234.000	2.40657	-0.43728	2.03546	-1.11920
4235.000	2.37302	-0.41742	2.03348	-1.07548
4236.000	2.41644	-0.38361	2.03546	-1.07150
4237.000	2.34144	-0.49693	2.01176	-1.05960
4238.000	2.40855	-0.40548	1.94660	-0.99404
4239.000	2.42828	-0.44125	1.98412	-0.96620
4240.000	2.36118	-0.43531	1.97424	-1.01987
4241.000	2.38486	-0.41344	2.04730	-1.08541
4242.000	2.37105	-0.43332	2.00781	-1.03773
4243.000	2.38289	-0.39555	2.03941	-1.08541
4244.000	2.40263	-0.47107	1.97819	-1.08943
4245.000	2.40657	-0.41144	1.95647	-1.01789
4246.000	2.39078	-0.41145	1.98412	-1.02185
4247.000	2.39868	-0.40747	2.00584	-1.07947
4248.000	2.41447	-0.41542	1.90908	-1.03581
4249.000	2.41249	-0.41939	1.94462	-1.04175
4250.000	2.38486	-0.41940	2.06112	-1.02379
4251.000	2.45394	-0.43329	2.01571	-1.13114
4252.000	2.38881	-0.46114	2.01571	-1.03177
4253.000	2.40263	-0.44126	2.05125	-1.16292
4254.000	2.40460	-0.44722	2.08284	-1.19866
4255.000	2.41052	-0.44523	1.94462	-1.05765
4256.000	2.39078	-0.43331	2.02558	-1.17088
4257.000	2.35723	-0.51084	1.95647	-1.09342
4258.000	2.35921	-0.48102	2.05520	-1.06752
4259.000	2.39078	-0.44325	1.98214	-1.09340
4260.000	2.38289	-0.45319	1.99991	-1.07550
4261.000	2.37500	-0.49692	2.03941	-1.05958
4262.000	2.35131	-0.45121	1.99991	-1.11525
4263.000	2.35723	-0.44922	1.99399	-1.09339
4264.000	2.36315	-0.41742	2.01769	-1.10729
4265.000	2.36908	-0.45916	2.05520	-1.13509
4266.000	2.33750	-0.44128	2.00189	-1.05761
4267.000	2.35723	-0.44127	1.97424	-1.04769
4268.000	2.40263	-0.41542	2.01571	-1.11524
4269.000	2.38289	-0.46313	2.02756	-1.06555
4270.000	2.39473	-0.47902	2.09074	-1.09532
4271.000	2.38486	-0.41542	1.94067	-1.06759
4272.000	2.35131	-0.45916	2.01374	-1.08941
4273.000	2.34539	-0.43730	1.97029	-1.00397
4274.000	2.36513	-0.47903	2.01176	-1.00196
4275.000	2.37500	-0.47903	1.93475	-1.06362
4276.000	2.41841	-0.44722	1.99991	-1.11923
4277.000	2.37105	-0.44326	1.95055	-1.08349
4278.000	2.35131	-0.47506	2.01769	-1.05164
4279.000	2.37697	-0.44325	1.98214	-1.09937
4280.000	2.33355	-0.46116	1.97622	-1.03974
4281.000	2.41052	-0.42535	2.01966	-1.01388
4282.000	2.36710	-0.44127	1.96240	-1.05565
4283.000	2.40855	-0.42933	1.95055	-1.07156
4284.000	2.38486	-0.44524	2.02756	-1.16293
4285.000	2.33552	-0.46116	1.98609	-1.06955
4286.000	2.38684	-0.45716	2.04533	-1.08144
4287.000	2.39078	-0.42337	1.96635	-1.05962
4288.000	2.36710	-0.45320	2.02953	-1.06753
4289.000	2.37894	-0.38760	1.98807	-1.05166
4290.000	2.33355	-0.44923	2.01966	-1.09139
4291.000	2.37894	-0.42735	2.01966	-1.06953
4292.000	2.34934	-0.41544	1.99202	-1.00793
4293.000	2.36118	-0.41543	2.01374	-1.08146
4294.000	2.37894	-0.41344	2.05125	-1.11721
4295.000	2.37105	-0.42537	1.93475	-1.07356
4296.000	2.35329	-0.46314	2.04335	-1.11920
4297.000	2.37500	-0.43928	2.00979	-1.09140
4298.000	2.33355	-0.45321	1.99202	-1.06955
4299.000	2.37894	-0.47108	2.03151	-1.08741
4300.000	2.34539	-0.42538	1.98214	-1.12520
4301.000	2.39473	-0.49691	1.98609	-1.09539
