time (ms)	lx (deg)	ly (deg)	rx (deg)	ry (deg)
0.000	0.57924	-1.02241	0.63064	-0.78175
1.000	0.63459	-1.02837	0.56145	-0.75591
2.000	0.64448	-1.03234	0.62866	-0.72208
3.000	0.59506	-1.06417	0.59506	-0.74596
4.000	0.58320	-1.05224	0.59110	-0.82552
5.000	0.55552	-1.07014	0.58122	-0.76187
6.000	0.57529	-1.04627	0.59703	-0.79767
7.000	0.60889	-1.05422	0.61878	-0.76186
8.000	0.57924	-1.05224	0.57331	-0.66043
9.000	0.59110	-1.08406	0.54761	-0.77182
10.000	0.60494	-1.07013	0.54959	-0.66043
11.000	0.60692	-1.07212	0.55552	-0.76386
12.000	0.60296	-1.05820	0.53575	-0.76585
13.000	0.59110	-1.09996	0.65436	-0.74197
14.000	0.61482	-1.04229	0.67413	-0.71412
15.000	0.58122	-1.08406	0.56145	-0.75193
16.000	0.59506	-1.05423	0.61087	-0.71214
17.000	0.58715	-1.04627	0.60296	-0.76783
18.000	0.56936	-1.06020	0.69587	-0.74992
19.000	0.56738	-1.02838	0.66227	-0.78175
20.000	0.59308	-1.08406	0.63855	-0.74794
21.000	0.56145	-1.02042	0.55947	-0.75790
22.000	0.61087	-1.04229	0.53575	-0.68430
23.000	0.58913	-1.05622	0.57133	-0.71016
24.000	0.65041	-1.08206	0.54761	-0.72011
25.000	0.55354	-1.05026	0.56738	-0.80364
26.000	0.60692	-1.04030	0.57529	-0.76784
27.000	0.57924	-1.09599	0.59703	-0.72806
28.000	0.59703	-1.01644	0.58913	-0.73601
29.000	0.59506	-1.04826	0.53971	-0.69823
30.000	0.59308	-1.04031	0.49028	-0.77183
31.000	0.57727	-1.09997	0.63459	-0.71015
32.000	0.58913	-1.09201	0.50412	-0.74995
33.000	0.59901	-1.07809	0.56738	-0.83347
34.000	0.56738	-1.06815	0.65436	-0.76783
35.000	0.59901	-1.06815	0.56145	-0.71215
36.000	0.56936	-1.08804	0.53378	-0.74795
37.000	0.60099	-1.07411	0.59901	-0.69424
38.000	0.61087	-1.06615	0.64448	-0.76584
39.000	0.59506	-1.02638	0.59901	-0.73800
40.000	0.62471	-1.07212	0.56343	-0.74198
41.000	0.59506	-1.06218	0.50610	-0.77182
42.000	0.60296	-1.07013	0.55552	-0.72408
43.000	0.56936	-1.07412	0.57331	-0.76784
44.000	0.58320	-1.08605	0.68796	-0.68826
45.000	0.58715	-1.07411	0.55354	-0.71016
46.000	0.59308	-1.07212	0.64645	-0.78573
47.000	0.59506	-1.08604	0.60099	-0.81159
48.000	0.61680	-1.04030	0.61482	-0.74396
49.000	0.57727	-1.09599	0.63657	-0.70219
50.000	0.61878	-1.09200	0.51401	-0.77779
51.000	0.59703	-1.07411	0.58913	-0.77579
52.000	0.61087	-1.05621	0.57727	-0.78972
53.000	0.59506	-1.05025	0.66227	-0.77578
54.000	0.55947	-1.04628	0.63657	-0.73998
55.000	0.57331	-1.02639	0.62471	-0.75590
56.000	0.54761	-0.93690	0.61482	-0.78573
57.000	0.60889	-0.93092	0.58715	-0.65844
58.000	0.61285	-0.84341	0.60099	-0.59678
59.000	0.57529	-0.77778	0.58122	-0.46350
60.000	0.60296	-0.73203	0.55552	-0.41974
61.000	0.61482	-0.69623	0.55552	-0.39985
62.000	0.60099	-0.57689	0.59308	-0.29840
63.000	0.60494	-0.43764	0.55354	-0.09947
64.000	0.57924	-0.31829	0.47052	0.02387
65.000	0.57529	-0.22877	0.48040	0.11936
66.000	0.54959	-0.11737	0.53378	0.16512
67.000	0.49819	-0.07162	0.43889	0.23475
68.000	0.48831	0.02188	0.48435	0.35012
69.000	0.44482	0.05172	0.43098	0.38196
70.000	0.44679	0.10345	0.39539	0.39787
71.000	0.43493	0.12334	0.39935	0.44362
72.000	0.42702	0.14721	0.31632	0.44562
73.000	0.38946	0.07759	0.26096	0.41379
74.000	0.37760	0.05570	0.27085	0.33820
75.000	0.38749	0.00199	0.32422	0.31233
76.000	0.37563	-0.13727	0.32818	0.22281
77.000	0.33609	-0.20292	0.33411	0.11936
78.000	0.33806	-0.26857	0.30446	0.03382
79.000	0.34993	-0.35013	0.38353	0.06963
80.000	0.36574	-0.43368	0.36179	-0.05371
81.000	0.34795	-0.48341	0.37760	-0.04775
82.000	0.34597	-0.57691	0.34399	-0.20889
83.000	0.37167	-0.59879	0.43889	-0.13727
84.000	0.41121	-0.58088	0.41912	-0.28647
85.000	0.36179	-0.67239	0.43493	-0.27055
86.000	0.38156	-0.62663	0.45865	-0.22082
87.000	0.44086	-0.65647	0.43691	-0.26856
88.000	0.37365	-0.61669	0.41912	-0.21485
89.000	0.41912	-0.57889	0.46656	-0.22679
90.000	0.41912	-0.59083	0.49028	-0.18103
91.000	0.42900	-0.49733	0.48633	-0.13528
92.000	0.41516	-0.48540	0.48633	-0.10743
93.000	0.40528	-0.46750	0.50808	-0.10146
94.000	0.42900	-0.43964	0.44877	-0.07560
95.000	0.44284	-0.38991	0.46063	-0.02387
96.000	0.41714	-0.35212	0.38551	0.01194
97.000	0.45075	-0.35410	0.38551	0.01592
98.000	0.41516	-0.37201	0.37365	0.01790
99.000	0.40330	-0.33023	0.39737	-0.00199
100.000	0.36574	-0.33819	0.40330	0.06366
101.000	0.46656	-0.27652	0.39342	0.05968
102.000	0.40923	-0.31034	0.37563	0.11340
103.000	0.41516	-0.30636	0.39737	0.06366
104.000	0.43691	-0.31830	0.43691	0.09151
105.000	0.46261	-0.31631	0.38749	0.03382
106.000	0.45272	-0.34814	0.34202	0.03780
107.000	0.44679	-0.31034	0.35190	0.09151
108.000	0.39144	-0.31631	0.41319	0.05769
109.000	0.40330	-0.33222	0.35388	0.05371
110.000	0.45272	-0.28647	0.30446	0.06167
111.000	0.44284	-0.33421	0.34399	0.05570
112.000	0.42307	-0.30238	0.36376	0.06366
113.000	0.42307	-0.31432	0.34993	0.02785
114.000	0.43493	-0.27254	0.39737	0.05769
115.000	0.44679	-0.27254	0.46063	0.06764
116.000	0.40330	-0.28249	0.35981	0.01592
117.000	0.41516	-0.27652	0.41121	0.05371
118.000	0.39737	-0.31631	0.38156	0.03581
119.000	0.37365	-0.32228	0.31632	0.05968
120.000	0.38156	-0.30835	0.36376	0.05570
121.000	0.39144	-0.27056	0.30050	0.02387
122.000	0.37958	-0.31432	0.34004	0.01989
123.000	0.41714	-0.28846	0.31434	0.04377
124.000	0.42109	-0.29244	0.37760	0.08355
125.000	0.42505	-0.33819	0.38156	0.08157
126.000	0.40726	-0.30835	0.37167	0.02188
127.000	0.41714	-0.34814	0.29062	0.00995
128.000	0.38551	-0.36405	0.41714	0.04576
129.000	0.43098	-0.34018	0.29852	0.01194
130.000	0.39737	-0.33421	0.27282	-0.00796
131.000	0.44086	-0.32029	0.31434	0.05570
132.000	0.39935	-0.33023	0.36969	0.04973
133.000	0.45075	-0.34217	0.31236	0.03183
134.000	0.44284	-0.28647	0.41516	-0.00796
135.000	0.43296	-0.31233	0.37760	0.05172
136.000	0.45470	-0.30835	0.34795	0.00597
137.000	0.42702	-0.36803	0.29062	0.07361
138.000	0.42900	-0.33023	0.39737	0.03183
139.000	0.41714	-0.35808	0.29062	0.02785
140.000	0.43296	-0.33620	0.30643	0.01592
141.000	0.43889	-0.31631	0.36772	0.08952
142.000	0.42307	-0.31432	0.32422	0.04377
143.000	0.41714	-0.32626	0.37760	0.08554
144.000	0.42900	-0.34814	0.29062	0.08753
145.000	0.45470	-0.32029	0.32027	0.00597
146.000	0.43493	-0.32029	0.31434	0.01194
147.000	0.43098	-0.34416	0.39144	0.08554
148.000	0.44679	-0.35013	0.38156	0.04973
149.000	0.44877	-0.35609	0.34795	0.04775
150.000	0.42702	-0.37201	0.35586	0.05570
151.000	0.45668	-0.33421	0.27876	0.03581
152.000	0.42900	-0.30636	0.30841	0.07361
153.000	0.44482	-0.33222	0.34597	0.06764
154.000	0.42702	-0.30437	0.36969	0.04973
155.000	0.43889	-0.32824	0.30248	-0.00398
156.000	0.40133	-0.32626	0.36376	0.07162
157.000	0.40923	-0.31034	0.33016	-0.01790
158.000	0.40923	-0.29244	0.35190	0.04973
159.000	0.40726	-0.27652	0.33016	0.03382
160.000	0.42900	-0.28846	0.34004	0.04377
161.000	0.43098	-0.28846	0.35190	0.01592
162.000	0.42900	-0.33421	0.37563	0.08355
163.000	0.46854	-0.29641	0.38551	-0.00398
164.000	0.42900	-0.33023	0.33806	0.07958
165.000	0.44482	-0.32029	0.34597	0.04377
166.000	0.46854	-0.29641	0.26887	-0.00199
167.000	0.47645	-0.29243	0.33411	-0.00597
168.000	0.43889	-0.34416	0.35586	0.01393
169.000	0.43493	-0.33023	0.34597	0.04178
170.000	0.46459	-0.32227	0.28666	0.08157
171.000	0.43691	-0.30437	0.34399	0.01989
172.000	0.44877	-0.30437	0.27480	0.06963
173.000	0.46854	-0.30835	0.24712	0.02785
174.000	0.41912	-0.30437	0.33213	0.02188
175.000	0.41912	-0.30437	0.35783	0.05769
176.000	0.45668	-0.33620	0.39144	0.04973
177.000	0.43493	-0.27851	0.34795	0.08157
178.000	0.46854	-0.28050	0.32422	0.07560
179.000	0.45272	-0.30636	0.31632	0.06565
180.000	0.45668	-0.28448	0.25503	0.04974
181.000	0.46063	-0.34018	0.37760	-0.02586
182.000	0.44086	-0.33421	0.31829	0.04974
183.000	0.43296	-0.30835	0.23329	0.08157
184.000	0.45272	-0.33819	0.30643	0.03183
185.000	0.48831	-0.33620	0.37563	0.07361
186.000	0.44679	-0.32426	0.30841	0.00199
187.000	0.44482	-0.33620	0.29457	0.02785
188.000	0.41714	-0.27055	0.36376	0.02586
189.000	0.45272	-0.33819	0.28469	0.05968
190.000	0.46656	-0.32824	0.32225	0.06167
191.000	0.43889	-0.35013	0.29259	0.04178
192.000	0.45470	-0.26856	0.24317	0.01393
193.000	0.49819	-0.33620	0.24317	0.00000
194.000	0.45075	-0.30835	0.32422	0.04775
195.000	0.44086	-0.36007	0.31829	0.02586
196.000	0.44284	-0.38195	0.30446	0.01194
197.000	0.48831	-0.29641	0.24712	0.08753
198.000	0.47052	-0.32625	0.34004	0.04775
199.000	0.49819	-0.29840	0.37365	0.00199
200.000	0.46854	-0.32426	0.35388	-0.00995
201.000	0.46656	-0.28647	0.32818	0.07560
202.000	0.45075	-0.29045	0.28666	0.10544
203.000	0.46063	-0.29840	0.34004	0.01592
204.000	0.49622	-0.28050	0.29655	0.01393
205.000	0.46656	-0.33222	0.36969	0.01790
206.000	0.42109	-0.29642	0.32225	0.05570
207.000	0.47249	-0.31233	0.36179	0.05371
208.000	0.49622	-0.32625	0.34202	-0.01592
209.000	0.45272	-0.32228	0.27876	0.01393
210.000	0.48040	-0.32625	0.31434	0.03183
211.000	0.48040	-0.32824	0.26887	0.02785
212.000	0.48238	-0.33222	0.30446	0.00796
213.000	0.49028	-0.33421	0.25503	0.05371
214.000	0.45075	-0.31631	0.27480	0.01194
215.000	0.44482	-0.28448	0.28864	0.02785
216.000	0.46063	-0.31432	0.26096	-0.01393
217.000	0.45668	-0.30835	0.26492	0.13727
218.000	0.45272	-0.32426	0.32225	0.04974
219.000	0.48831	-0.35808	0.33806	0.08952
220.000	0.44086	-0.30238	0.36574	0.05172
221.000	0.46459	-0.30437	0.30050	0.02785
222.000	0.47842	-0.32028	0.28469	0.05371
223.000	0.46854	-0.31432	0.31236	-0.00796
224.000	0.47249	-0.32227	0.28469	0.00398
225.000	0.45470	-0.29840	0.28271	0.10942
226.000	0.45470	-0.32228	0.27480	0.07958
227.000	0.46854	-0.34217	0.34993	0.06366
228.000	0.47842	-0.31233	0.28469	0.02785
229.000	0.48238	-0.33023	0.32422	0.02586
230.000	0.49819	-0.32426	0.40726	0.01393
231.000	0.48040	-0.34813	0.28073	-0.00995
232.000	0.49622	-0.29044	0.30248	0.08753
233.000	0.46854	-0.32625	0.28271	0.02586
234.000	0.48633	-0.33421	0.31829	0.03382
235.000	0.48238	-0.35211	0.31236	0.03183
236.000	0.48633	-0.34018	0.26887	0.00000
237.000	0.43098	-0.34217	0.28271	0.00995
238.000	0.46854	-0.34416	0.29852	0.03979
239.000	0.46854	-0.32824	0.29259	0.08753
240.000	0.49622	-0.37598	0.29259	0.03780
241.000	0.47447	-0.32227	0.32422	0.05570
242.000	0.44877	-0.29244	0.35190	0.02586
243.000	0.45668	-0.29442	0.33609	0.01989
244.000	0.48040	-0.31830	0.29457	0.02984
245.000	0.45272	-0.29840	0.30050	0.08157
246.000	0.46656	-0.31432	0.31039	0.13329
247.000	0.44679	-0.32426	0.29655	0.08554
248.000	0.47842	-0.30039	0.20758	0.08157
249.000	0.45668	-0.29442	0.33213	0.02188
250.000	0.47249	-0.36206	0.27282	0.07361
251.000	0.43296	-0.31432	0.25899	0.03382
252.000	0.48831	-0.32824	0.31039	0.04576
253.000	0.46656	-0.34615	0.31236	0.03979
254.000	0.45272	-0.32228	0.30248	0.06565
255.000	0.47249	-0.33421	0.20165	0.11340
256.000	0.45668	-0.32228	0.26492	0.06167
257.000	0.49622	-0.33421	0.28271	0.10146
258.000	0.47842	-0.32824	0.34202	0.07560
259.000	0.48238	-0.33023	0.30841	0.03382
260.000	0.46261	-0.31034	0.28073	0.06963
261.000	0.49424	-0.34018	0.34597	0.02387
262.000	0.46854	-0.31631	0.26887	0.03581
263.000	0.45272	-0.32029	0.35388	0.06963
264.000	0.47842	-0.33222	0.24119	0.05371
265.000	0.47249	-0.30238	0.28271	0.02586
266.000	0.48633	-0.29641	0.34004	0.10942
267.000	0.47052	-0.28448	0.29852	0.07162
268.000	0.48040	-0.30835	0.33016	0.10146
269.000	0.48831	-0.30835	0.35981	0.09947
270.000	0.49819	-0.31432	0.29457	0.07162
271.000	0.46459	-0.33421	0.28271	0.05570
272.000	0.44086	-0.31233	0.31434	0.08952
273.000	0.48040	-0.28647	0.34597	0.02586
274.000	0.44679	-0.35410	0.34202	0.01790
275.000	0.48435	-0.31631	0.35190	0.02785
276.000	0.44482	-0.29045	0.27282	0.13528
277.000	0.46261	-0.30835	0.32422	0.03183
278.000	0.43098	-0.30835	0.28469	0.06366
279.000	0.44877	-0.31830	0.25701	0.03979
280.000	0.42702	-0.29840	0.29852	0.05968
281.000	0.45865	-0.32426	0.28864	0.06764
282.000	0.47249	-0.28647	0.21352	0.10345
283.000	0.44679	-0.32625	0.31632	0.04178
284.000	0.44877	-0.32426	0.27480	0.04178
285.000	0.43098	-0.38394	0.29655	0.06366
286.000	0.46261	-0.31631	0.26689	0.10743
287.000	0.45470	-0.29641	0.33213	0.07958
288.000	0.48633	-0.28846	0.28469	0.02984
289.000	0.46261	-0.35013	0.31434	0.05172
290.000	0.49622	-0.32426	0.27876	0.08157
291.000	0.46656	-0.31034	0.31039	0.03581
292.000	0.49226	-0.34416	0.34004	0.03979
293.000	0.48435	-0.31233	0.22933	0.07560
294.000	0.46261	-0.31631	0.25108	0.06764
295.000	0.45865	-0.33620	0.22340	0.12135
296.000	0.45470	-0.30437	0.28864	0.04377
297.000	0.47447	-0.31233	0.29062	0.07162
298.000	0.41714	-0.35411	0.21154	0.08952
299.000	0.49226	-0.31233	0.36772	0.07560
300.000	0.40133	-0.30039	0.28073	0.13727
301.000	0.48040	-0.31631	0.29457	-0.01393
302.000	0.48633	-0.28249	0.34202	0.09549
303.000	0.42109	-0.32029	0.25503	0.08356
304.000	0.45668	-0.30835	0.30050	0.02188
305.000	0.45272	-0.30039	0.33213	0.06366
306.000	0.41516	-0.30039	0.30643	0.09151
307.000	0.43098	-0.31631	0.32620	0.04775
308.000	0.45865	-0.32228	0.25305	0.11936
309.000	0.43098	-0.30835	0.30841	0.21287
310.000	0.41319	-0.27851	0.24515	0.04974
311.000	0.44284	-0.35013	0.29655	0.14125
312.000	0.43493	-0.31034	0.32225	0.08952
313.000	0.47842	-0.34217	0.32818	0.07958
314.000	0.44086	-0.34814	0.26887	0.11738
315.000	0.47842	-0.30238	0.31434	0.12732
316.000	0.51005	-0.29442	0.25701	0.17109
317.000	0.48040	-0.32227	0.33016	0.05371
318.000	0.46063	-0.30437	0.31236	0.11539
319.000	0.45668	-0.32426	0.29852	0.08554
320.000	0.47842	-0.27652	0.33609	0.02984
321.000	0.45075	-0.29442	0.25503	0.09748
322.000	0.48040	-0.31432	0.28469	0.14722
323.000	0.47052	-0.29243	0.28666	0.13528
324.000	0.45865	-0.29045	0.31434	0.07162
325.000	0.50017	-0.31631	0.31434	0.08356
326.000	0.46261	-0.29442	0.25305	0.05769
327.000	0.45272	-0.31631	0.33411	0.08753
328.000	0.46261	-0.29641	0.29852	0.08554
329.000	0.43691	-0.26260	0.32818	0.08355
330.000	0.45075	-0.24668	0.24317	0.01592
331.000	0.46854	-0.30636	0.31829	0.13329
332.000	0.45668	-0.33620	0.28864	0.08753
333.000	0.47052	-0.30636	0.32225	0.06565
334.000	0.47052	-0.35012	0.32027	0.11737
335.000	0.44482	-0.33819	0.36179	0.07361
336.000	0.48435	-0.31432	0.35981	0.10146
337.000	0.45865	-0.34416	0.36179	0.11538
338.000	0.47249	-0.30437	0.32027	0.17109
339.000	0.43493	-0.31631	0.29852	0.14523
340.000	0.47645	-0.32625	0.35981	0.07162
341.000	0.48040	-0.29243	0.32620	0.14921
342.000	0.47645	-0.30835	0.28666	0.13528
343.000	0.49226	-0.23275	0.31434	0.15517
344.000	0.42702	-0.30835	0.21945	0.14125
345.000	0.46854	-0.28448	0.26492	0.14324
346.000	0.48435	-0.29641	0.31829	0.17706
347.000	0.50610	-0.29442	0.33609	0.11539
348.000	0.45865	-0.31631	0.36772	0.12931
349.000	0.46656	-0.28050	0.28469	0.16910
350.000	0.46459	-0.29244	0.36772	0.07162
351.000	0.51598	-0.30835	0.21154	0.13926
352.000	0.50017	-0.33421	0.27085	0.08157
353.000	0.46854	-0.26657	0.33213	0.10743
354.000	0.46854	-0.29442	0.28864	0.12732
355.000	0.51994	-0.25066	0.23922	0.15517
356.000	0.49424	-0.28846	0.28666	0.12732
357.000	0.46656	-0.30039	0.27678	0.12135
358.000	0.45865	-0.27254	0.35981	0.09947
359.000	0.49226	-0.32028	0.22933	0.15319
360.000	0.48238	-0.32625	0.29259	0.13926
361.000	0.46261	-0.30238	0.27085	0.15318
362.000	0.47249	-0.32426	0.28666	0.04576
363.000	0.48831	-0.33222	0.28864	0.15318
364.000	0.45272	-0.30835	0.32225	0.05769
365.000	0.46063	-0.29442	0.23922	0.18700
366.000	0.52389	-0.28845	0.31039	0.20093
367.000	0.49424	-0.27851	0.33609	0.12334
368.000	0.48435	-0.28448	0.30050	0.17308
369.000	0.54366	-0.29243	0.19375	0.11539
370.000	0.52784	-0.27453	0.31632	0.12334
371.000	0.51796	-0.31829	0.27876	0.17308
372.000	0.55750	-0.30238	0.36179	0.22480
373.000	0.54366	-0.27652	0.34597	0.13130
374.000	0.51796	-0.26259	0.37958	0.14523
375.000	0.52389	-0.30636	0.26492	0.22281
376.000	0.52982	-0.28845	0.30841	0.13329
377.000	0.51005	-0.28845	0.21352	0.17706
378.000	0.47842	-0.25265	0.25108	0.19894
379.000	0.42307	-0.26459	0.20363	0.10345
380.000	0.40330	-0.30039	0.17595	0.13727
381.000	0.30446	-0.30040	0.11862	0.12334
382.000	0.28271	-0.24271	0.05931	0.13528
383.000	0.26689	-0.26260	-0.02966	0.11539
384.000	0.14037	-0.26857	-0.01186	0.09151
385.000	0.12850	-0.22878	-0.10280	0.06764
386.000	0.05931	-0.25266	-0.13839	0.13528
387.000	0.04349	-0.22282	-0.11071	0.20690
388.000	-0.01977	-0.22878	-0.18584	0.18502
389.000	-0.03954	-0.20491	-0.20363	0.17109
390.000	-0.01384	-0.23276	-0.22142	0.26260
391.000	-0.02175	-0.19297	-0.24119	0.18303
392.000	-0.01977	-0.23276	-0.14234	0.28051
393.000	0.03361	-0.20491	-0.15618	0.16910
394.000	0.06129	-0.20889	-0.10478	0.19098
395.000	0.08897	-0.19098	-0.07710	0.25664
396.000	0.12850	-0.29841	-0.03756	0.21287
397.000	0.12850	-0.28051	0.06129	0.17905
398.000	0.22735	-0.27454	0.07710	0.20292
399.000	0.25503	-0.28647	0.11467	0.17706
400.000	0.24712	-0.34019	0.05338	0.13528
401.000	0.27085	-0.27852	0.13444	0.13926
402.000	0.27282	-0.31233	0.13641	0.15518
403.000	0.27085	-0.28846	0.16014	0.15518
404.000	0.30643	-0.28448	0.15618	0.12931
405.000	0.29852	-0.27653	0.11664	0.10146
406.000	0.27678	-0.29244	0.07513	0.13528
407.000	0.22735	-0.31433	0.10083	0.13926
408.000	0.25305	-0.29841	0.03756	0.12334
409.000	0.26887	-0.26061	0.03163	0.10345
410.000	0.21154	-0.29642	0.07710	0.12732
411.000	0.22142	-0.27255	0.11467	0.12931
412.000	0.24317	-0.25067	0.05338	0.12732
413.000	0.24515	-0.27255	0.03163	0.09350
414.000	0.19572	-0.25067	-0.02570	0.17905
415.000	0.24317	-0.27852	-0.00791	0.17308
416.000	0.21549	-0.24868	0.05733	0.13727
417.000	0.17200	-0.25862	0.00000	0.18104
418.000	0.17595	-0.24271	0.06326	0.16910
419.000	0.17398	-0.31632	-0.03361	0.17706
420.000	0.21154	-0.27852	0.05140	0.09748
421.000	0.17991	-0.25464	0.01186	0.20491
422.000	0.18781	-0.25663	0.02372	0.12533
423.000	0.22142	-0.24868	-0.00989	0.11340
424.000	0.18386	-0.27255	0.02768	0.25067
425.000	0.21945	-0.29443	0.01779	0.18701
426.000	0.14432	-0.26061	0.01186	0.19496
427.000	0.23131	-0.26061	-0.00989	0.15518
428.000	0.22340	-0.24470	0.00593	0.12732
429.000	0.19572	-0.24669	0.00395	0.23276
430.000	0.24712	-0.25862	0.00989	0.18502
431.000	0.22735	-0.26260	0.03559	0.18900
432.000	0.21747	-0.24868	-0.02966	0.19297
433.000	0.20758	-0.24470	0.01779	0.17109
434.000	0.18979	-0.26061	-0.01977	0.15120
435.000	0.23329	-0.19695	0.04745	0.18701
436.000	0.27085	-0.26857	0.05536	0.13329
437.000	0.22340	-0.21088	0.00593	0.13727
438.000	0.24317	-0.25265	0.04349	0.18502
439.000	0.24119	-0.23674	0.05140	0.16313
440.000	0.26096	-0.25066	-0.05931	0.22481
441.000	0.25108	-0.27255	-0.01384	0.10743
442.000	0.22735	-0.26459	0.07117	0.11738
443.000	0.27282	-0.25862	0.01582	0.21088
444.000	0.30446	-0.25663	0.04547	0.10146
445.000	0.24910	-0.24271	0.02768	0.15518
446.000	0.22735	-0.23077	0.00198	0.13727
447.000	0.28864	-0.26857	0.01582	0.12334
448.000	0.26492	-0.27454	0.02175	0.12931
449.000	0.21352	-0.31433	-0.03756	0.10345
450.000	0.23526	-0.28250	-0.00593	0.18104
451.000	0.24317	-0.29642	-0.02175	0.10146
452.000	0.24515	-0.29841	0.00198	0.14125
453.000	0.22538	-0.30239	0.06129	0.14523
454.000	0.23922	-0.27255	0.01384	0.15518
455.000	0.21945	-0.27454	0.02175	0.11937
456.000	0.19968	-0.26459	0.01384	0.13926
457.000	0.23526	-0.29045	0.01582	0.17308
458.000	0.21945	-0.25464	0.01384	0.14125
459.000	0.24515	-0.26260	-0.01977	0.16512
460.000	0.25701	-0.28051	-0.00989	0.17109
461.000	0.23922	-0.29045	-0.05931	0.17507
462.000	0.26492	-0.22281	0.00791	0.09748
463.000	0.24119	-0.25663	-0.04547	0.11738
464.000	0.22538	-0.25862	-0.09490	0.20690
465.000	0.21747	-0.23674	-0.03163	0.16114
466.000	0.24515	-0.26459	-0.02570	0.16114
467.000	0.23922	-0.25862	-0.02175	0.10345
468.000	0.27480	-0.30239	-0.00198	0.07958
469.000	0.23329	-0.21486	-0.07117	0.18502
470.000	0.26887	-0.20889	0.02966	0.11937
471.000	0.23329	-0.27056	-0.06129	0.16910
472.000	0.25701	-0.23077	-0.01384	0.15120
473.000	0.22142	-0.21088	0.02372	0.10743
474.000	0.25108	-0.25067	0.00593	0.18104
475.000	0.24119	-0.28051	-0.02372	0.16512
476.000	0.21352	-0.25266	0.00000	0.14921
477.000	0.23131	-0.24669	-0.07710	0.12931
478.000	0.22735	-0.31234	0.00989	0.11937
479.000	0.26294	-0.24868	-0.01186	0.08157
480.000	0.25108	-0.29045	-0.06524	0.16910
481.000	0.22933	-0.29443	-0.03756	0.23276
482.000	0.26294	-0.25663	-0.03954	0.08356
483.000	0.25108	-0.28250	0.04745	0.10544
484.000	0.23922	-0.28250	0.01186	0.08952
485.000	0.23724	-0.25464	0.00395	0.07560
486.000	0.27480	-0.26658	-0.01384	0.13926
487.000	0.26294	-0.26857	-0.05536	0.13926
488.000	0.19968	-0.27653	-0.03361	0.12334
489.000	0.25305	-0.27852	-0.03361	0.12334
490.000	0.25701	-0.25464	-0.05140	0.11340
491.000	0.27085	-0.28448	-0.00593	0.15120
492.000	0.26689	-0.25464	-0.05931	0.18502
493.000	0.25899	-0.26459	-0.00395	0.09549
494.000	0.21747	-0.24470	-0.09292	0.18104
495.000	0.24119	-0.25663	-0.08303	0.12732
496.000	0.22933	-0.26857	-0.10478	0.13130
497.000	0.25305	-0.25066	-0.06920	0.09947
498.000	0.21352	-0.27255	-0.07117	0.07162
499.000	0.27085	-0.25862	0.00000	0.15120
500.000	0.29655	-0.24867	-0.02768	0.06764
501.000	0.24515	-0.27454	-0.10874	0.13130
502.000	0.25701	-0.22878	-0.07117	0.15518
503.000	0.31236	-0.25862	0.00791	0.10146
504.000	0.26689	-0.24271	-0.05536	0.07361
505.000	0.26689	-0.26857	0.00593	0.16114
506.000	0.30446	-0.18302	-0.03163	0.10942
507.000	0.23526	-0.26459	-0.00198	0.13528
508.000	0.26689	-0.23674	-0.01779	0.15717
509.000	0.24317	-0.24271	-0.03756	0.09748
510.000	0.23329	-0.21884	-0.05536	0.06764
511.000	0.30446	-0.23276	0.01384	0.07958
512.000	0.24910	-0.24271	-0.06524	0.09947
513.000	0.27282	-0.20093	-0.02372	0.01790
514.000	0.28271	-0.20292	-0.03756	0.09947
515.000	0.27282	-0.22480	-0.03559	0.05173
516.000	0.27480	-0.22480	-0.03756	0.06963
517.000	0.27085	-0.21685	0.02175	0.13727
518.000	0.26887	-0.23077	0.02372	0.05968
519.000	0.24119	-0.18303	-0.08501	0.01393
520.000	0.26096	-0.20491	-0.03361	0.13727
521.000	0.25899	-0.21287	-0.03559	0.09151
522.000	0.29457	-0.20292	-0.08897	0.08356
523.000	0.26689	-0.21883	0.00395	0.14125
524.000	0.25305	-0.23873	-0.03559	0.13130
525.000	0.26492	-0.25066	0.00593	0.14722
526.000	0.26492	-0.23276	-0.03361	0.08356
527.000	0.25305	-0.24669	0.02966	0.05173
528.000	0.25899	-0.22281	-0.02175	0.03780
529.000	0.24317	-0.22480	0.03756	0.01790
530.000	0.23131	-0.23276	-0.00791	0.05769
531.000	0.25305	-0.27454	-0.07710	0.08555
532.000	0.21154	-0.26658	-0.02768	0.09748
533.000	0.25701	-0.25265	-0.01186	0.09748
534.000	0.22735	-0.25464	0.00593	0.07162
535.000	0.24317	-0.27852	0.03163	0.11340
536.000	0.22735	-0.23276	0.00791	0.07958
537.000	0.26689	-0.23276	0.02570	0.06366
538.000	0.26689	-0.24271	-0.02175	0.07560
539.000	0.25305	-0.25464	-0.05140	0.05173
540.000	0.24119	-0.25464	-0.01384	0.05968
541.000	0.24515	-0.24271	0.00989	0.09549
542.000	0.23329	-0.23873	-0.02570	0.08952
543.000	0.29457	-0.24271	-0.01977	0.10544
544.000	0.23724	-0.28051	0.00395	0.08555
545.000	0.26294	-0.24072	-0.05931	0.00796
546.000	0.23922	-0.23077	-0.03361	0.05968
547.000	0.26294	-0.24868	-0.02175	0.10743
548.000	0.24119	-0.25067	-0.01977	0.10942
549.000	0.22340	-0.24868	-0.09094	0.14921
550.000	0.24712	-0.20491	-0.02768	0.11340
551.000	0.25108	-0.19496	-0.03756	0.15518
552.000	0.23329	-0.23873	0.00593	0.11340
553.000	0.16804	-0.23873	0.01582	0.11539
554.000	0.24119	-0.27056	-0.09094	0.12732
555.000	0.23922	-0.28846	-0.04349	0.06565
556.000	0.27480	-0.26061	-0.04547	0.08356
557.000	0.23724	-0.20093	0.07513	0.06764
558.000	0.23922	-0.23873	-0.01977	0.04377
559.000	0.26096	-0.23276	-0.00593	0.09151
560.000	0.26096	-0.24470	-0.01779	0.09151
561.000	0.22538	-0.21685	-0.06326	0.12136
562.000	0.24317	-0.23475	-0.02372	0.09748
563.000	0.25899	-0.22082	-0.05140	0.12533
564.000	0.30050	-0.22878	-0.02175	0.15319
565.000	0.24119	-0.17706	-0.04547	0.18701
566.000	0.27480	-0.23276	-0.09490	0.12533
567.000	0.25701	-0.22082	-0.07908	0.06963
568.000	0.23724	-0.21287	-0.01779	0.09549
569.000	0.26887	-0.24072	0.00000	0.12136
570.000	0.27876	-0.25464	-0.09292	0.08754
571.000	0.26492	-0.18303	-0.09292	0.10743
572.000	0.20363	-0.17706	0.09490	0.07361
573.000	0.26492	-0.21486	-0.00395	0.05371
574.000	0.25503	-0.24271	-0.00791	0.10942
575.000	0.21945	-0.20292	0.01384	0.07958
576.000	0.25899	-0.27454	0.07315	0.12136
577.000	0.24712	-0.20093	-0.05536	0.09748
578.000	0.22933	-0.24072	-0.03954	0.12533
579.000	0.26294	-0.21287	-0.00989	0.13926
580.000	0.24712	-0.22281	-0.02570	0.09748
581.000	0.26294	-0.24271	-0.00395	0.07958
582.000	0.27085	-0.21486	-0.09094	0.14324
583.000	0.22340	-0.18700	-0.04349	0.09947
584.000	0.22142	-0.18700	-0.00395	0.09549
585.000	0.28666	-0.23276	-0.00791	0.09748
586.000	0.26294	-0.18502	-0.02372	0.12136
587.000	0.28073	-0.19496	-0.02768	0.11738
588.000	0.24910	-0.19496	-0.06129	0.08157
589.000	0.22933	-0.20690	0.00395	0.08952
590.000	0.26492	-0.22281	-0.06920	0.05968
591.000	0.24515	-0.18899	-0.08897	0.07958
592.000	0.24910	-0.20292	-0.00198	0.04974
593.000	0.25305	-0.18899	-0.04349	0.10544
594.000	0.25503	-0.22878	-0.02372	0.10345
595.000	0.24515	-0.19496	-0.04547	0.06565
596.000	0.25701	-0.26459	0.01779	0.04377
597.000	0.24515	-0.23077	-0.04349	0.14125
598.000	0.25503	-0.20889	-0.06524	0.03382
599.000	0.23329	-0.22679	-0.04547	0.09947
600.000	0.29655	-0.21883	-0.01977	0.10942
601.000	0.29259	-0.19894	-0.00395	0.09151
602.000	0.26689	-0.22281	-0.06129	0.10146
603.000	0.26887	-0.21883	-0.01582	0.08952
604.000	0.26096	-0.22679	0.00593	0.03780
605.000	0.26492	-0.18899	-0.01186	0.07759
606.000	0.22142	-0.20491	-0.01384	0.06366
607.000	0.28469	-0.19297	-0.04943	0.08952
608.000	0.29852	-0.19297	0.01779	0.04178
609.000	0.29852	-0.13727	-0.02570	0.02586
610.000	0.23724	-0.21287	-0.01779	0.10146
611.000	0.30643	-0.17308	0.05536	-0.01393
612.000	0.25701	-0.19098	0.04547	-0.00398
613.000	0.28666	-0.20292	-0.00395	0.10345
614.000	0.30050	-0.20093	-0.06524	0.04974
615.000	0.29259	-0.18303	-0.03954	0.02586
616.000	0.30446	-0.18302	-0.02175	0.06167
617.000	0.30050	-0.16512	-0.07315	0.00398
618.000	0.28073	-0.18104	-0.04349	0.10146
619.000	0.31236	-0.18501	-0.04152	0.10146
620.000	0.30446	-0.19297	-0.10478	0.06366
621.000	0.28073	-0.19496	0.00989	0.03183
622.000	0.30841	-0.18899	0.02570	0.02785
623.000	0.31236	-0.19496	-0.07710	0.04377
624.000	0.27480	-0.21287	-0.06129	0.03780
625.000	0.26294	-0.20690	0.02966	-0.01194
626.000	0.29655	-0.19098	-0.02966	0.04576
627.000	0.26887	-0.19098	-0.04349	-0.01194
628.000	0.30050	-0.19297	-0.00989	0.04576
629.000	0.27085	-0.23077	-0.01779	0.09151
630.000	0.24515	-0.17706	-0.04349	0.00995
631.000	0.28073	-0.19496	0.00791	0.12136
632.000	0.27678	-0.22480	-0.12850	0.06366
633.000	0.24317	-0.24072	-0.06326	0.12136
634.000	0.25701	-0.19297	-0.00395	0.08356
635.000	0.28469	-0.24271	0.03756	0.03183
636.000	0.25503	-0.21685	-0.02570	0.03979
637.000	0.25701	-0.19496	-0.05536	0.00398
638.000	0.27480	-0.24271	-0.05536	0.05769
639.000	0.26492	-0.21685	0.01186	0.04576
640.000	0.25305	-0.21685	-0.01186	0.03979
641.000	0.28469	-0.21684	-0.02768	0.00995
642.000	0.30050	-0.21088	-0.01186	0.11937
643.000	0.25899	-0.25663	0.00000	0.01790
644.000	0.30643	-0.19894	0.04943	0.04178
645.000	0.29457	-0.20292	-0.00593	0.09549
646.000	0.27876	-0.21088	-0.05536	0.10743
647.000	0.30446	-0.14324	-0.09094	0.07759
648.000	0.27876	-0.20690	-0.07117	0.09151
649.000	0.30248	-0.21684	-0.05733	0.10345
650.000	0.27876	-0.17905	-0.08303	0.04178
651.000	0.28271	-0.20292	-0.06524	0.08952
652.000	0.26294	-0.22679	-0.04943	0.10942
653.000	0.29457	-0.20292	-0.02175	0.03780
654.000	0.27480	-0.20690	0.02570	0.08952
655.000	0.27480	-0.19496	0.04745	-0.01194
656.000	0.26294	-0.17109	-0.07117	0.10345
657.000	0.21154	-0.24072	-0.02372	0.03581
658.000	0.25701	-0.19098	-0.05931	0.11539
659.000	0.25108	-0.20690	0.07513	0.07162
660.000	0.27480	-0.23475	0.05536	0.03382
661.000	0.25108	-0.22679	-0.01186	0.00796
662.000	0.30050	-0.17109	-0.02966	0.06764
663.000	0.27282	-0.22082	-0.04349	0.07361
664.000	0.35783	-0.19297	-0.01384	0.07162
665.000	0.28469	-0.24867	-0.05931	0.06167
666.000	0.31039	-0.23873	-0.01779	0.00796
667.000	0.30050	-0.18501	-0.00593	0.03183
668.000	0.31236	-0.18700	0.08106	0.12136
669.000	0.26887	-0.21883	-0.00395	0.06565
670.000	0.28666	-0.22281	0.00989	0.04775
671.000	0.30050	-0.21088	-0.05733	0.08555
672.000	0.24910	-0.20093	0.08106	0.06764
673.000	0.30050	-0.22480	-0.02175	0.02586
674.000	0.30643	-0.15517	0.01582	-0.00597
675.000	0.31434	-0.18501	-0.00989	0.09151
676.000	0.26294	-0.20093	-0.04547	0.06963
677.000	0.30050	-0.19496	-0.00593	0.07162
678.000	0.31829	-0.16711	-0.00989	0.07361
679.000	0.30446	-0.15119	-0.02175	0.05173
680.000	0.32422	-0.17905	0.02372	0.04775
681.000	0.32422	-0.19098	0.04547	0.02586
682.000	0.30248	-0.19098	0.00791	0.03581
683.000	0.30841	-0.15716	0.05733	-0.00199
684.000	0.32225	-0.14523	0.04152	0.03581
685.000	0.30050	-0.18303	0.00593	0.05570
686.000	0.30643	-0.17706	0.03361	0.08754
687.000	0.30446	-0.20292	0.07908	0.05173
688.000	0.30841	-0.20491	-0.03559	0.05173
689.000	0.26887	-0.21088	0.04943	0.04775
690.000	0.26689	-0.19098	-0.05536	0.02387
691.000	0.29852	-0.18303	-0.02570	0.06565
692.000	0.33213	-0.18104	-0.02372	0.08952
693.000	0.30050	-0.17109	0.09490	0.02586
694.000	0.32422	-0.18104	-0.04152	0.07958
695.000	0.29259	-0.19496	0.00000	0.03581
696.000	0.32620	-0.13727	-0.02570	0.05570
697.000	0.31434	-0.20889	-0.03559	0.04974
698.000	0.32027	-0.14125	-0.04943	-0.05371
699.000	0.32225	-0.15318	-0.00989	0.02984
700.000	0.32620	-0.14722	-0.00989	0.06565
701.000	0.30841	-0.15716	0.07908	0.06565
702.000	0.36969	-0.14125	-0.06722	0.03581
703.000	0.31236	-0.19496	-0.05931	0.07560
704.000	0.32818	-0.17905	0.01582	0.11937
705.000	0.32818	-0.17308	-0.00593	0.01989
706.000	0.36772	-0.16512	0.10083	0.01790
707.000	0.36376	-0.13130	0.06920	-0.01592
708.000	0.33213	-0.16313	0.06129	0.13329
709.000	0.29259	-0.20889	0.06129	0.06366
710.000	0.33213	-0.16114	-0.02372	0.07162
711.000	0.35190	-0.15119	0.00198	0.08754
712.000	0.33213	-0.20690	0.03361	0.08356
713.000	0.32620	-0.14523	0.09094	0.06167
714.000	0.36376	-0.16910	0.03163	0.00796
715.000	0.34004	-0.14920	0.02768	-0.02188
716.000	0.33213	-0.18302	0.06722	0.02984
717.000	0.32027	-0.16313	0.10478	0.01790
718.000	0.37958	-0.13727	-0.00593	0.07759
719.000	0.37167	-0.16711	0.07117	0.03581
720.000	0.35586	-0.18899	0.02570	0.01592
721.000	0.37760	-0.14523	0.09687	0.00199
722.000	0.33016	-0.13329	0.08699	0.09947
723.000	0.34202	-0.15915	0.07315	0.03979
724.000	0.32818	-0.17706	0.02570	0.06167
725.000	0.34993	-0.14920	0.03361	0.01393
726.000	0.31434	-0.14125	-0.00593	0.05769
727.000	0.32422	-0.15915	0.12257	0.00796
728.000	0.36376	-0.18700	0.07117	0.02785
729.000	0.35783	-0.14523	0.07710	0.03382
730.000	0.38749	-0.13926	0.05338	0.02984
731.000	0.33213	-0.12334	0.11467	-0.00398
732.000	0.36179	-0.12931	0.05931	0.06963
733.000	0.33411	-0.13528	0.02175	0.03979
734.000	0.33016	-0.13329	-0.05140	0.04576
735.000	0.34004	-0.11936	0.02570	-0.01989
736.000	0.31632	-0.10942	0.01977	0.17507
737.000	0.31632	-0.18899	0.02768	0.09151
738.000	0.34795	-0.14125	-0.00395	0.04377
739.000	0.35783	-0.14722	0.02372	0.03183
740.000	0.30841	-0.15318	0.00000	0.13528
741.000	0.33016	-0.13926	0.05338	0.09151
742.000	0.36376	-0.16711	0.04943	0.06366
743.000	0.38749	-0.14125	0.08303	0.04775
744.000	0.32818	-0.15915	0.09885	0.04377
745.000	0.35586	-0.15915	0.04349	0.05570
746.000	0.33213	-0.15716	0.06920	0.03979
747.000	0.33213	-0.11936	0.09490	0.08157
748.000	0.34993	-0.20292	0.07315	0.02387
749.000	0.33213	-0.15119	0.09885	0.03979
750.000	0.35981	-0.19297	0.08699	0.06167
751.000	0.34004	-0.18501	0.10874	0.02785
752.000	0.38156	-0.14324	0.06524	0.07361
753.000	0.35388	-0.16114	0.14037	0.02984
754.000	0.37760	-0.14920	0.01582	0.07958
755.000	0.37167	-0.16313	-0.00791	0.05570
756.000	0.36376	-0.17109	-0.00395	0.04576
757.000	0.36376	-0.11538	0.08303	-0.00597
758.000	0.37563	-0.14920	0.08501	0.03183
759.000	0.38551	-0.16910	0.01779	0.03979
760.000	0.39342	-0.13130	0.03756	0.00597
761.000	0.39342	-0.14125	0.03361	0.03979
762.000	0.37760	-0.09748	0.10874	0.04178
763.000	0.39737	-0.14324	0.01582	0.08356
764.000	0.40133	-0.15517	0.02768	-0.00398
765.000	0.39144	-0.11737	0.03559	0.09350
766.000	0.35586	-0.16711	0.04349	0.09350
767.000	0.38946	-0.13528	0.06129	0.04576
768.000	0.40330	-0.18302	0.05733	0.07759
769.000	0.34202	-0.17905	0.02768	0.05173
770.000	0.35783	-0.13727	0.04349	-0.00199
771.000	0.37167	-0.15318	-0.01384	0.05173
772.000	0.35388	-0.17109	-0.04349	0.01989
773.000	0.38353	-0.12334	0.03756	0.01194
774.000	0.38946	-0.16114	-0.00593	0.04178
775.000	0.33609	-0.17905	0.05536	-0.01989
776.000	0.39342	-0.11936	-0.03559	0.03780
777.000	0.40330	-0.14721	0.01779	0.01393
778.000	0.34795	-0.13926	-0.02570	0.01790
779.000	0.38156	-0.14920	0.02570	0.08157
780.000	0.37958	-0.11936	0.00791	0.08356
781.000	0.39539	-0.11737	0.04745	0.03183
782.000	0.36376	-0.17308	0.03954	0.04974
783.000	0.40133	-0.15915	0.03954	0.07759
784.000	0.41121	-0.10942	0.07513	-0.00199
785.000	0.38353	-0.14324	0.04547	0.03780
786.000	0.39737	-0.14125	-0.00989	0.04974
787.000	0.34795	-0.16114	0.01977	0.08555
788.000	0.36376	-0.08157	0.09094	0.07560
789.000	0.38551	-0.16711	0.02372	-0.02586
790.000	0.34597	-0.13926	0.00791	0.01790
791.000	0.38946	-0.19297	0.05536	0.03780
792.000	0.37958	-0.14523	-0.02768	-0.04775
793.000	0.33213	-0.20889	-0.02570	0.00796
794.000	0.37563	-0.15119	-0.00989	0.00000
795.000	0.39539	-0.13528	0.03559	0.02984
796.000	0.38551	-0.14324	0.09094	0.01194
797.000	0.39144	-0.09151	-0.00593	0.04178
798.000	0.43493	-0.10345	-0.04349	0.07759
799.000	0.37167	-0.17308	0.02570	0.03382
800.000	0.39342	-0.10544	0.00395	0.03183
801.000	0.41516	-0.12135	-0.00791	0.03382
802.000	0.36969	-0.10345	0.02966	0.07162
803.000	0.36376	-0.10345	0.03954	0.03382
804.000	0.42702	-0.11936	0.07908	0.04377
805.000	0.38749	-0.10146	0.07710	0.02785
806.000	0.40330	-0.11141	0.00791	0.03979
807.000	0.41319	-0.06366	-0.02570	-0.00597
808.000	0.40330	-0.10743	0.00395	0.05968
809.000	0.43889	-0.10942	0.08699	-0.00796
810.000	0.41714	-0.12135	0.02966	-0.01393
811.000	0.38749	-0.10345	0.08501	-0.01592
812.000	0.39935	-0.13528	-0.02372	0.03382
813.000	0.40330	-0.11538	0.04349	0.01989
814.000	0.44284	-0.07162	0.09885	-0.01790
815.000	0.40923	-0.14920	0.04745	0.00000
816.000	0.40133	-0.12732	0.00198	-0.01790
817.000	0.38749	-0.08156	0.04349	-0.04377
818.000	0.42109	-0.13329	0.08501	0.04576
819.000	0.40528	-0.11936	0.03954	0.05570
820.000	0.43098	-0.09748	-0.00791	-0.04576
821.000	0.41912	-0.12732	0.05536	0.00995
822.000	0.44086	-0.11936	0.04745	-0.01989
823.000	0.41319	-0.08554	0.00989	-0.03979
824.000	0.44877	-0.05172	-0.00198	-0.03979
825.000	0.41319	-0.00199	0.12850	0.11141
826.000	0.37958	0.03979	0.04943	0.10345
827.000	0.23724	0.04377	-0.11071	0.17905
828.000	0.08501	0.17507	-0.21549	0.27056
829.000	-0.04745	0.28250	-0.41912	0.33421
830.000	-0.26887	0.51127	-0.56145	0.52915
831.000	-0.59901	0.69225	-0.79273	0.74593
832.000	-0.83226	0.96071	-1.17813	1.05207
833.000	-1.15441	1.21909	-1.48835	1.19905
834.000	-1.49428	1.55085	-1.83798	1.50687
835.000	-1.78268	1.92809	-2.19735	1.95342
836.000	-2.07692	2.29903	-2.50327	2.24278
837.000	-2.31381	2.67167	-2.82680	2.63888
838.000	-2.57825	2.98241	-3.05947	2.97524
839.000	-2.78143	3.27513	-3.37873	3.30101
840.000	-2.97469	3.59330	-3.54813	3.57345
841.000	-3.16197	3.83399	-3.69581	3.87336
842.000	-3.23292	4.03142	-3.90839	4.10154
843.000	-3.36100	4.23045	-3.94578	4.22771
844.000	-3.35903	4.30749	-3.95955	4.45654
845.000	-3.40828	4.37638	-3.96545	4.54330
846.000	-3.40828	4.42573	-3.99693	4.59834
847.000	-3.28612	4.44602	-3.81983	4.54408
848.000	-3.20730	4.44637	-3.80802	4.53230
849.000	-3.14620	4.36369	-3.69975	4.47762
850.000	-3.07721	4.32052	-3.66628	4.49555
851.000	-3.02004	4.21604	-3.54813	4.37770
852.000	-3.01412	4.17852	-3.51071	4.23374
853.000	-2.90765	4.09986	-3.37282	4.15138
854.000	-2.84849	4.05856	-3.30583	4.12401
855.000	-2.78735	3.97770	-3.25854	4.07085
856.000	-2.78735	3.85310	-3.17379	3.97433
857.000	-2.74593	3.85719	-3.06735	4.05183
858.000	-2.68281	3.76836	-3.03975	3.91947
859.000	-2.79524	3.73041	-3.12649	3.87961
860.000	-2.79721	3.65323	-3.05355	3.77307
861.000	-2.83666	3.62342	-3.10481	3.76498
862.000	-2.88201	3.58370	-3.06341	3.71963
863.000	-2.98061	3.53391	-3.05158	3.72956
864.000	-3.00426	3.53581	-3.12255	3.69371
865.000	-3.01807	3.53378	-3.08509	3.69581
866.000	-3.04567	3.53172	-3.16197	3.67181
867.000	-3.07721	3.58900	-3.24080	3.79415
868.000	-3.08312	3.57909	-3.22504	3.77048
869.000	-3.09692	3.64038	-3.30583	3.83741
870.000	-3.10481	3.70366	-3.36888	3.87077
871.000	-3.18956	3.74687	-3.38661	3.97744
872.000	-3.19941	3.75079	-3.30386	3.86509
873.000	-3.16000	3.81620	-3.43980	4.03453
874.000	-3.16394	3.90913	-3.47132	4.11738
875.000	-3.16788	4.00993	-3.61312	4.16810
876.000	-3.14620	4.01595	-3.51662	4.16854
877.000	-3.15408	4.06928	-3.57373	4.29072
878.000	-3.16985	4.07910	-3.64265	4.24498
879.000	-3.15408	4.10288	-3.62690	4.25888
880.000	-3.15211	4.17008	-3.57964	4.28871
881.000	-3.15803	4.14634	-3.62099	4.29642
882.000	-3.14226	4.18197	-3.61903	4.35960
883.000	-3.13043	4.16028	-3.55404	4.33227
884.000	-3.18759	4.17981	-3.63872	4.32595
885.000	-3.19744	4.16002	-3.60327	4.28465
886.000	-3.23883	4.16775	-3.53828	4.34221
887.000	-3.18759	4.13832	-3.57570	4.21765
888.000	-3.22701	4.19941	-3.51859	4.31467
889.000	-3.20336	4.12838	-3.52647	4.31858
890.000	-3.21912	4.12238	-3.51662	4.24161
891.000	-3.18759	4.16796	-3.56586	4.24929
892.000	-3.13240	4.13854	-3.40828	4.22235
893.000	-3.17182	4.15617	-3.52056	4.27319
894.000	-3.20139	4.14024	-3.47329	4.22008
895.000	-3.21715	4.10066	-3.49298	4.22789
896.000	-3.17182	4.15617	-3.54813	4.23752
897.000	-3.14620	4.17010	-3.48708	4.25754
898.000	-3.16394	4.11865	-3.54222	4.20990
899.000	-3.16394	4.12261	-3.50480	4.23377
900.000	-3.14817	4.14243	-3.48314	4.20621
901.000	-3.17182	4.09688	-3.51465	4.19027
902.000	-3.13832	4.08516	-3.42207	4.19463
903.000	-3.14423	4.11675	-3.44374	4.20639
904.000	-3.16788	4.05540	-3.52253	4.18826
905.000	-3.16197	4.04751	-3.45162	4.15302
906.000	-3.09495	4.06754	-3.52450	4.23170
907.000	-3.14423	4.07328	-3.44768	4.16489
908.000	-3.11663	4.09315	-3.45556	4.15103
909.000	-3.16591	4.05936	-3.49101	4.18840
910.000	-3.16985	4.04748	-3.47329	4.14700
911.000	-3.14620	4.04560	-3.47132	4.11145
912.000	-3.15803	4.10484	-3.55404	4.18615
913.000	-3.12846	4.07334	-3.48117	4.16869
914.000	-3.10678	4.08330	-3.56586	4.25916
915.000	-3.10481	4.09912	-3.53631	4.26522
916.000	-3.08904	4.13476	-3.39646	4.23030
917.000	-3.11663	4.12279	-3.40828	4.27370
918.000	-3.14029	4.12665	-3.47920	4.16080
919.000	-3.11860	4.09907	-3.51071	4.21597
920.000	-3.15014	4.10092	-3.55010	4.23554
921.000	-3.16197	4.14237	-3.54419	4.22569
922.000	-3.12846	4.15239	-3.52056	4.11123
923.000	-3.11466	4.14849	-3.54025	4.22966
924.000	-3.20533	4.08885	-3.49692	4.14492
925.000	-3.12452	4.10102	-3.55798	4.24142
926.000	-3.16197	4.15225	-3.59933	4.21951
927.000	-3.15803	4.12263	-3.58752	4.19784
928.000	-3.13437	4.16422	-3.57964	4.17220
929.000	-3.17379	4.20358	-3.52056	4.17840
930.000	-3.12452	4.16228	-3.53828	4.17239
931.000	-3.10481	4.18410	-3.54813	4.21580
932.000	-3.11860	4.17219	-3.56586	4.20782
933.000	-3.15014	4.18787	-3.59343	4.17412
934.000	-3.11466	4.13861	-3.55404	4.21774
935.000	-3.11860	4.14847	-3.56783	4.15843
936.000	-3.11072	4.14060	-3.52253	4.14283
937.000	-3.14620	4.14639	-3.50283	4.19428
938.000	-3.12846	4.17412	-3.57964	4.26305
939.000	-3.11860	4.14847	-3.53828	4.13289
940.000	-3.15014	4.15033	-3.57964	4.18010
941.000	-3.12846	4.16622	-3.55601	4.08540
942.000	-3.13832	4.16816	-3.55010	4.13481
943.000	-3.10283	4.17027	-3.57176	4.14261
944.000	-3.11269	4.17023	-3.64462	4.17388
945.000	-3.19744	4.18768	-3.63872	4.14626
946.000	-3.05749	4.16847	-3.55995	4.20587
947.000	-3.11466	4.14651	-3.48117	4.14894
948.000	-3.16985	4.13444	-3.55207	4.11307
949.000	-3.17576	4.14627	-3.54222	4.11509
950.000	-3.13832	4.17804	-3.55404	4.16442
951.000	-3.07327	4.20793	-3.58358	4.12676
952.000	-3.12846	4.21562	-3.52450	4.11122
953.000	-3.11466	4.17615	-3.53041	4.13687
954.000	-3.14620	4.18788	-3.56192	4.09920
955.000	-3.12255	4.17217	-3.60918	4.11874
956.000	-3.14226	4.21951	-3.58752	4.16229
957.000	-3.10086	4.20782	-3.53828	4.14079
958.000	-3.10875	4.16234	-3.59343	4.03782
959.000	-3.09889	4.15843	-3.56389	4.16240
960.000	-3.12452	4.17414	-3.51268	4.18633
961.000	-3.14423	4.17406	-3.53828	4.09140
962.000	-3.10283	4.19398	-3.54222	4.14867
963.000	-3.07918	4.19803	-3.46541	4.09765
964.000	-3.11269	4.16826	-3.59343	4.10696
965.000	-3.13832	4.23731	-3.70172	4.14992
966.000	-3.07129	4.17237	-3.51859	4.07173
967.000	-3.05947	4.21589	-3.55010	4.14666
968.000	-3.08115	4.20395	-3.61115	4.10293
969.000	-3.04961	4.19419	-3.63872	4.13243
970.000	-3.06932	4.21783	-3.58161	4.19787
971.000	-3.08706	4.17429	-3.55601	4.26513
972.000	-3.07721	4.18223	-3.61706	4.13648
973.000	-3.13832	4.22743	-3.51662	4.12508
974.000	-3.05158	4.25544	-3.62099	4.17202
975.000	-3.08115	4.17826	-3.62099	4.13646
976.000	-3.08312	4.16442	-3.60130	4.10692
977.000	-3.07327	4.19608	-3.53435	4.11512
978.000	-3.06932	4.19412	-3.58161	4.18405
979.000	-3.08509	4.22962	-3.53828	4.14474
980.000	-3.07918	4.20198	-3.61312	4.11082
981.000	-3.04369	4.21200	-3.62099	4.16609
982.000	-3.00624	4.24771	-3.51859	4.15865
983.000	-3.01807	4.22000	-3.59933	4.17606
984.000	-3.03187	4.22390	-3.57373	4.11890
985.000	-3.07918	4.22964	-3.59146	4.09907
986.000	-3.08312	4.20592	-3.56389	4.20190
987.000	-3.04764	4.21198	-3.65841	4.15407
988.000	-3.03384	4.21797	-3.64659	4.21337
989.000	-3.02989	4.19427	-3.55601	4.15848
990.000	-3.00821	4.22992	-3.60327	4.09506
991.000	-3.03778	4.23771	-3.52844	4.23563
992.000	-3.02792	4.19428	-3.55798	4.14662
993.000	-3.02004	4.20616	-3.59146	4.14647
994.000	-3.00426	4.21215	-3.66234	4.15800
995.000	-3.03778	4.21005	-3.65841	4.19949
996.000	-2.99046	4.18652	-3.57176	4.13076
997.000	-3.00032	4.21612	-3.57176	4.12879
998.000	-2.99638	4.24380	-3.57570	4.07543
999.000	-2.99244	4.21615	-3.58949	4.14056
1000.000	-3.01412	4.21014	-3.58358	4.18206
1001.000	-2.99244	4.19046	-3.55207	4.11900
1002.000	-3.04369	4.21397	-3.60721	4.08714
1003.000	-2.96089	4.19651	-3.61312	4.09700
1004.000	-2.96286	4.22614	-3.55010	4.16641
1005.000	-3.04961	4.18036	-3.57373	4.08137
1006.000	-3.02004	4.24766	-3.59736	4.15632
1007.000	-2.95497	4.21234	-3.58555	4.14650
1008.000	-2.95892	4.22616	-3.70172	4.18941
1009.000	-2.96878	4.24588	-3.55798	4.17230
1010.000	-3.00821	4.21214	-3.64265	4.15217
1011.000	-3.02004	4.23383	-3.62296	4.12065
1012.000	-2.99046	4.24580	-3.56783	4.09522
1013.000	-3.03384	4.15473	-3.45753	4.12929
1014.000	-3.01807	4.17653	-3.60130	4.02198
1015.000	-2.97863	4.18261	-3.53041	4.21193
1016.000	-2.97075	4.20042	-3.59146	4.17610
1017.000	-2.99638	4.23392	-3.59736	4.14447
1018.000	-3.00032	4.16869	-3.62493	4.06929
1019.000	-2.97863	4.21423	-3.57767	4.14259
1020.000	-3.01018	4.21608	-3.60524	4.15234
1021.000	-2.99441	4.23788	-3.59736	4.11484
1022.000	-3.02004	4.24963	-3.65841	4.15802
1023.000	-3.08115	4.25137	-3.68794	4.17763
1024.000	-2.96483	4.26763	-3.60130	4.13063
1025.000	-2.97863	4.22411	-3.60524	4.13456
1026.000	-2.94314	4.30130	-3.54222	4.15855
1027.000	-2.97272	4.25377	-3.68203	4.16976
1028.000	-3.00821	4.26548	-3.65644	4.18568
1029.000	-2.98258	4.25570	-3.61509	4.15427
1030.000	-2.94906	4.19260	-3.56389	4.09129
1031.000	-3.00821	4.23387	-3.63872	4.16601
1032.000	-3.00032	4.20031	-3.63478	4.11665
1033.000	-3.00426	4.21215	-3.58949	4.14253
1034.000	-2.96878	4.21624	-3.58358	4.15244
1035.000	-3.00229	4.20821	-3.59933	4.12866
1036.000	-2.98258	4.23990	-3.61903	4.13252
1037.000	-3.00229	4.20623	-3.60721	4.06937
1038.000	-2.96680	4.19451	-3.63084	4.13444
1039.000	-2.99441	4.25368	-3.57570	4.03394
1040.000	-3.00426	4.24969	-3.58949	4.12673
1041.000	-2.95103	4.22421	-3.55601	4.09923
1042.000	-2.95892	4.25382	-3.61115	4.09898
1043.000	-3.00426	4.24377	-3.57964	4.11295
1044.000	-3.03975	4.19225	-3.67810	4.18360
1045.000	-2.95695	4.27556	-3.56192	4.14463
1046.000	-3.04961	4.18629	-3.63281	4.08505
1047.000	-3.00032	4.24576	-3.62099	4.09301
1048.000	-3.02398	4.19824	-3.57176	4.04186
1049.000	-2.99046	4.26358	-3.63478	4.07517
1050.000	-2.96286	4.23602	-3.67416	4.12437
1051.000	-3.04369	4.26139	-3.67022	4.11056
1052.000	-2.95497	4.24198	-3.64462	4.02574
1053.000	-2.98652	4.28730	-3.65250	4.14620
1054.000	-3.02398	4.20615	-3.68203	4.11051
1055.000	-2.95695	4.21036	-3.59933	4.12866
1056.000	-2.98258	4.25175	-3.68006	4.10064
1057.000	-3.00426	4.22598	-3.54419	4.08742
1058.000	-2.98061	4.18853	-3.62296	4.10683
1059.000	-3.02792	4.21008	-3.64462	4.16796
1060.000	-2.91554	4.21446	-3.59736	4.17015
1061.000	-3.00624	4.23783	-3.62493	4.05546
1062.000	-3.02398	4.21208	-3.55995	4.07353
1063.000	-3.00032	4.23390	-3.59736	4.14645
1064.000	-2.98455	4.23199	-3.59343	4.12079
1065.000	-3.02201	4.21406	-3.70369	4.12621
1066.000	-3.07129	4.19608	-3.58949	4.05364
1067.000	-2.95497	4.24396	-3.58555	4.09317
1068.000	-2.99046	4.23987	-3.56192	4.09327
1069.000	-3.02004	4.22395	-3.62099	4.11869
1070.000	-3.01807	4.20815	-3.61509	4.08316
1071.000	-3.04369	4.21793	-3.64659	4.08697
1072.000	-3.00624	4.23388	-3.66234	4.06517
1073.000	-2.96878	4.24785	-3.59540	4.17608
1074.000	-3.01215	4.29115	-3.63281	4.12456
1075.000	-2.98455	4.27348	-3.60130	4.06939
1076.000	-3.00032	4.29515	-3.65644	4.08692
1077.000	-3.00229	4.27341	-3.60130	4.10890
1078.000	-3.01412	4.22990	-3.63281	4.12061
1079.000	-2.99638	4.20428	-3.65644	4.12248
1080.000	-3.03778	4.23178	-3.64462	4.09685
1081.000	-2.98455	4.26755	-3.60130	4.14445
1082.000	-2.99835	4.26750	-3.55798	4.11897
1083.000	-2.95892	4.24394	-3.63478	4.09887
1084.000	-2.95695	4.29137	-3.55207	4.13875
1085.000	-2.93328	4.27170	-3.62296	4.11670
1086.000	-2.98455	4.26953	-3.66431	4.11849
1087.000	-3.02201	4.23382	-3.58358	4.05564
1088.000	-3.00032	4.25366	-3.57570	4.11297
1089.000	-3.00426	4.24574	-3.65644	4.08297
1090.000	-2.99441	4.29122	-3.64659	4.06524
1091.000	-3.00426	4.28526	-3.67810	4.06707
1092.000	-3.00624	4.25561	-3.63084	4.12062
1093.000	-3.02989	4.22786	-3.61903	4.11672
1094.000	-2.95695	4.28346	-3.58358	4.07540
1095.000	-3.01018	4.24967	-3.73519	4.08064
1096.000	-3.00821	4.29117	-3.72141	4.12218
1097.000	-3.01018	4.25955	-3.65644	4.05927
1098.000	-2.99441	4.28529	-3.63478	4.14233
1099.000	-2.92934	4.44160	-3.60130	4.14050
1100.000	-2.89976	4.44764	-3.68400	4.24478
1101.000	-2.90173	4.52662	-3.62690	4.38325
1102.000	-2.78341	4.68108	-3.40434	4.51457
1103.000	-2.87215	4.76755	-3.33341	4.62147
1104.000	-2.74396	4.94366	-3.28218	4.83081
1105.000	-2.63743	5.13340	-3.29204	5.07915
1106.000	-2.48551	5.39416	-3.15605	5.19018
1107.000	-2.44802	5.58928	-3.07721	5.51156
1108.000	-2.37302	5.79821	-3.01412	5.67520
1109.000	-2.25854	6.01110	-2.98258	5.76782
1110.000	-2.27433	6.10342	-2.92540	5.92738
1111.000	-2.27631	6.29595	-2.93723	6.08845
1112.000	-2.32171	6.34485	-2.89779	6.15741
1113.000	-2.30986	6.40184	-2.96878	6.12363
1114.000	-2.35723	6.45658	-2.99441	6.19812
1115.000	-2.37302	6.43296	-3.03581	6.15076
1116.000	-2.36908	6.40746	-3.09692	6.15433
1117.000	-2.43815	6.30308	-3.16591	6.08323
1118.000	-2.45394	6.22052	-3.20139	5.91210
1119.000	-2.48748	6.13786	-3.18956	5.83551
1120.000	-2.47762	6.07305	-3.23292	5.86868
1121.000	-2.50130	6.04543	-3.21912	5.68787
1122.000	-2.49735	5.95698	-3.19941	5.68798
1123.000	-2.55852	5.90952	-3.17971	5.61334
1124.000	-2.62165	5.82663	-3.15605	5.52492
1125.000	-2.60587	5.81490	-3.08115	5.55287
1126.000	-2.57035	5.80326	-3.21124	5.65645
1127.000	-2.53287	5.78572	-3.07327	5.55094
1128.000	-2.60587	5.78146	-3.06735	5.62771
1129.000	-2.65124	5.70452	-3.09101	5.58036
1130.000	-2.62757	5.76169	-3.09101	5.59217
1131.000	-2.59995	5.75198	-3.04369	5.66521
1132.000	-2.63941	5.82458	-3.06341	5.65921
1133.000	-2.54668	5.79943	-3.05552	5.68679
1134.000	-2.59995	5.87590	-3.06144	5.76150
1135.000	-2.53089	5.92931	-2.98061	5.72652
1136.000	-2.55457	5.89184	-3.04369	5.71439
1137.000	-2.48354	5.88822	-3.06932	5.76539
1138.000	-2.53089	5.92144	-2.91948	5.76617
1139.000	-2.51511	5.92348	-3.02004	5.86004
1140.000	-2.51905	5.94902	-3.06538	5.80277
1141.000	-2.49143	5.96291	-3.10678	5.81435
1142.000	-2.52300	6.00209	-3.00624	5.81292
1143.000	-2.49538	6.01597	-3.05355	5.84216
1144.000	-2.47959	6.01801	-3.12649	5.85946
1145.000	-2.40263	6.01245	-3.01215	5.85811
1146.000	-2.44999	6.00045	-3.06538	5.98558
1147.000	-2.44802	6.10856	-3.04961	5.88543
1148.000	-2.43815	6.07913	-2.97863	5.88778
1149.000	-2.45986	6.07117	-3.05552	5.88933
1150.000	-2.41447	6.01240	-3.04961	5.90705
1151.000	-2.50722	6.10436	-3.10481	5.88120
1152.000	-2.41249	6.12248	-2.99835	5.98595
1153.000	-2.48551	6.11232	-3.01412	5.96228
1154.000	-2.42631	6.05953	-3.07327	5.82829
1155.000	-2.46775	6.14581	-3.08904	5.96580
1156.000	-2.44407	6.09875	-3.04172	5.93068
1157.000	-2.44210	6.05946	-3.09101	5.89503
1158.000	-2.42236	6.07527	-2.97075	5.91141
1159.000	-2.45394	6.08495	-3.01018	5.90334
1160.000	-2.46380	6.02201	-3.01412	5.86007
1161.000	-2.43815	6.05161	-3.06341	5.84801
1162.000	-2.45196	6.07513	-3.06735	5.87551
1163.000	-2.49538	6.11227	-3.08706	5.91471
1164.000	-2.42631	6.11652	-3.09101	5.85965
1165.000	-2.34737	6.09328	-3.15803	5.85928
1166.000	-2.40855	6.03012	-3.08509	5.79087
1167.000	-2.43223	6.06343	-3.04961	5.84415
1168.000	-2.40460	6.05962	-3.16197	5.83174
1169.000	-2.44999	6.03387	-3.04961	5.87757
1170.000	-2.41052	6.08122	-3.11663	5.77693
1171.000	-2.44604	6.02995	-3.06144	5.87161
1172.000	-2.34539	6.04415	-3.07129	5.87745
1173.000	-2.40460	6.05962	-3.13832	5.85546
1174.000	-2.47367	6.05735	-3.07918	5.80467
1175.000	-2.42433	6.05757	-3.09692	5.83799
1176.000	-2.45394	6.03975	-3.08312	5.85183
1177.000	-2.45788	6.00041	-3.13240	5.85746
1178.000	-2.46775	6.04165	-3.12452	5.77099
1179.000	-2.45788	6.04759	-3.02792	5.78724
1180.000	-2.42433	6.09688	-3.04764	5.88151
1181.000	-2.49340	6.02974	-3.10678	5.85956
1182.000	-2.44604	6.06533	-3.09298	5.83801
1183.000	-2.47959	6.04356	-3.00229	5.86603
1184.000	-2.45591	6.05153	-3.04764	5.79304
1185.000	-2.43025	6.07327	-3.09889	5.80259
1186.000	-2.44407	6.05158	-2.98652	5.83269
1187.000	-2.48354	6.04944	-3.11466	5.86149
1188.000	-2.49340	6.02384	-3.13043	5.84371
1189.000	-2.50722	6.05523	-3.09101	5.88914
1190.000	-2.48946	6.09658	-3.00624	5.83062
1191.000	-2.42236	6.10671	-3.03581	5.83439
1192.000	-2.44802	6.07319	-3.04961	5.87167
1193.000	-2.45196	6.12426	-3.04369	5.85794
1194.000	-2.45591	6.09084	-3.15408	5.87896
1195.000	-2.47170	6.03377	-3.02398	5.86788
1196.000	-2.44802	6.00832	-3.02004	5.79318
1197.000	-2.49735	6.07100	-3.13437	5.85941
1198.000	-2.48946	6.05924	-3.09101	5.81640
1199.000	-2.46972	6.07702	-3.07524	5.86170
1200.000	-2.52695	6.04924	-3.12255	5.82606
1201.000	-2.50327	6.02970	-3.10481	5.78093
1202.000	-2.46380	6.03577	-3.08706	5.83215
1203.000	-2.47762	6.08091	-3.02792	5.79511
1204.000	-2.52103	6.01979	-3.08904	5.76922
1205.000	-2.53484	6.02365	-3.03778	5.85208
1206.000	-2.48551	6.06319	-2.97469	5.76392
1207.000	-2.46972	6.07702	-3.08312	5.84397
1208.000	-2.47564	6.08092	-3.01018	5.86599
1209.000	-2.55654	6.02552	-3.07327	5.84402
1210.000	-2.47367	6.02197	-3.08706	5.73186
1211.000	-2.46972	6.07702	-3.05749	5.80478
1212.000	-2.54273	6.03934	-3.11072	5.80843
1213.000	-2.48354	6.01799	-3.11663	5.80643
1214.000	-2.49735	6.01007	-3.03187	5.72232
1215.000	-2.47959	6.01801	-3.03975	5.85010
1216.000	-2.53287	6.02563	-3.08509	5.75941
1217.000	-2.49735	6.01596	-3.12846	5.75524
1218.000	-2.53287	6.05511	-3.10283	5.82027
1219.000	-2.59206	6.03714	-3.06735	5.81063
1220.000	-2.54273	6.03148	-3.07918	5.82236
1221.000	-2.50722	6.01985	-3.07327	5.78700
1222.000	-2.45986	6.02793	-3.06341	5.80475
1223.000	-2.44012	6.07715	-3.11663	5.87524
1224.000	-2.48551	6.03567	-3.06538	5.77328
1225.000	-2.46183	6.10653	-3.09298	5.76723
1226.000	-2.48551	6.03960	-3.10678	5.82418
1227.000	-2.52103	6.02765	-3.08706	5.82035
1228.000	-2.47762	6.03964	-3.08904	5.86752
1229.000	-2.51116	6.04145	-3.11663	5.85165
1230.000	-2.48551	6.04354	-3.05355	5.84020
1231.000	-2.50327	6.02773	-3.03581	5.82260
1232.000	-2.48748	6.04549	-3.13832	5.83383
1233.000	-2.53089	6.05709	-3.11860	5.81035
1234.000	-2.48551	6.03764	-3.06735	5.86764
1235.000	-2.56838	6.03922	-3.08312	5.82431
1236.000	-2.53484	6.02562	-3.04172	5.81273
1237.000	-2.51116	6.05718	-3.03187	5.75182
1238.000	-2.54076	6.01773	-3.03187	5.82262
1239.000	-2.52892	6.04530	-3.05947	5.79297
1240.000	-2.46183	6.09278	-3.10086	5.86943
1241.000	-2.50919	6.01787	-3.09101	5.80264
1242.000	-2.53484	6.04921	-3.01807	5.76566
1243.000	-2.48551	6.00619	-3.02595	5.83051
1244.000	-2.52103	6.01389	-3.08312	5.76728
1245.000	-2.46775	5.97285	-3.07918	5.82826
1246.000	-2.48354	6.07106	-2.99046	5.77564
1247.000	-2.52892	6.04727	-3.07918	5.82433
1248.000	-2.52695	6.05317	-3.01018	5.91513
1249.000	-2.49932	6.06116	-3.06932	5.74966
1250.000	-2.48156	6.05142	-3.12452	5.88305
1251.000	-2.51511	6.05912	-3.04369	5.87170
1252.000	-2.57233	6.05886	-3.02398	5.76957
1253.000	-2.56246	6.04908	-3.07524	5.80469
1254.000	-2.44407	6.02210	-3.04567	5.83631
1255.000	-2.47367	6.04752	-3.07918	5.78697
1256.000	-2.53089	6.06298	-3.05355	5.85003
1257.000	-2.49932	6.01202	-3.05158	5.81268
1258.000	-2.46972	6.03181	-3.15408	5.72953
1259.000	-2.47564	5.96101	-3.13832	5.86725
1260.000	-2.53879	6.01577	-3.08904	5.86359
1261.000	-2.53089	6.02367	-3.04369	5.85794
1262.000	-2.53879	6.03346	-3.03187	5.82852
1263.000	-2.48551	6.03371	-3.05552	5.80479
1264.000	-2.46972	6.04164	-3.09692	5.85765
1265.000	-2.47170	6.01411	-3.04764	5.83433
1266.000	-2.48748	6.02584	-3.03187	5.86784
1267.000	-2.47170	6.07111	-3.05947	5.74578
1268.000	-2.54273	6.01772	-3.07524	5.80272
1269.000	-2.44999	6.02011	-3.08706	5.82428
1270.000	-2.49538	6.04349	-3.07721	5.79878
1271.000	-2.48551	6.04354	-3.05552	5.79103
1272.000	-2.47367	6.03769	-2.98652	5.78156
1273.000	-2.51313	6.00999	-3.10481	5.80846
1274.000	-2.47959	6.01015	-3.07327	5.75160
1275.000	-2.48354	5.98850	-3.05749	5.79102
1276.000	-2.46380	5.98269	-3.04567	5.83237
1277.000	-2.47959	6.00425	-3.03187	5.83638
1278.000	-2.44604	6.05944	-3.02201	5.75974
1279.000	-2.53089	6.01777	-3.00426	5.86405
1280.000	-2.47367	6.01804	-3.06538	5.75951
1281.000	-2.48156	6.00621	-3.02398	5.79120
1282.000	-2.49735	6.00024	-3.01412	5.79912
1283.000	-2.43618	5.99265	-3.02595	5.81675
1284.000	-2.44407	6.05748	-2.99046	5.79334
1285.000	-2.46775	6.02396	-3.06932	5.75949
1286.000	-2.44802	6.06729	-3.01807	5.81679
1287.000	-2.50919	6.01394	-3.09298	5.79869
1288.000	-2.51116	6.02769	-2.96483	5.87409
1289.000	-2.46775	6.04362	-3.07918	5.83023
1290.000	-2.45986	6.01220	-2.97075	5.84850
1291.000	-2.53484	6.01186	-3.00624	5.81882
1292.000	-2.51313	6.05717	-3.11466	5.81430
1293.000	-2.51905	5.97851	-3.11072	5.88706
1294.000	-2.52300	6.08464	-3.06932	5.79489
1295.000	-2.46380	5.99056	-3.07524	5.78896
1296.000	-2.48354	5.99244	-3.09101	5.78297
1297.000	-2.47762	5.99836	-3.02398	5.77743
1298.000	-2.52103	6.02372	-3.08904	5.79478
1299.000	-2.51511	6.00998	-3.09692	5.82030
1300.000	-2.48551	6.03567	-3.05158	5.76745
1301.000	-2.46380	5.99252	-2.99046	5.84250
1302.000	-2.45196	5.99651	-3.01609	5.87578
1303.000	-2.48551	6.02191	-3.05158	5.80875
1304.000	-2.48354	5.99833	-3.14817	5.73153
1305.000	-2.48156	6.04552	-2.99244	5.78350
1306.000	-2.50327	5.99038	-3.02398	5.74400
1307.000	-2.48354	6.01996	-3.07918	5.76141
1308.000	-2.47564	6.01016	-3.08312	5.78105
1309.000	-2.53089	5.99615	-3.03778	5.76359
1310.000	-2.51313	6.09451	-3.04961	5.81269
1311.000	-2.50327	6.05328	-2.97469	5.86814
1312.000	-2.51905	6.09841	-2.96680	5.93698
1313.000	-2.53879	6.10225	-2.91751	5.94511
1314.000	-2.46380	6.26172	-2.87807	5.99248
1315.000	-2.44210	6.24022	-2.85835	6.01420
1316.000	-2.40263	6.26397	-2.87215	6.11630
1317.000	-2.37105	6.38585	-2.81891	6.17943
1318.000	-2.32565	6.40177	-2.81299	6.22660
1319.000	-2.38486	6.45057	-2.79721	6.24043
1320.000	-2.31973	6.48423	-2.78341	6.31118
1321.000	-2.31381	6.49014	-2.81891	6.27762
1322.000	-2.32565	6.52737	-2.84849	6.33438
1323.000	-2.41447	6.49753	-2.90765	6.26732
1324.000	-2.37302	6.47417	-2.86624	6.25969
1325.000	-2.45196	6.44044	-2.91159	6.25748
1326.000	-2.46578	6.40897	-2.88201	6.27531
1327.000	-2.48946	6.38923	-2.94906	6.24157
1328.000	-2.48551	6.38924	-2.89582	6.26149
1329.000	-2.47564	6.29898	-2.82680	6.12440
1330.000	-2.50327	6.32830	-2.97863	6.14518
1331.000	-2.45394	6.30497	-2.83271	6.15972
1332.000	-2.47367	6.31077	-2.95103	6.10016
1333.000	-2.53089	6.22409	-2.87610	6.23608
1334.000	-2.50722	6.29490	-2.91159	6.11609
1335.000	-2.48946	6.30284	-2.87018	6.06916
1336.000	-2.46380	6.25976	-2.92934	6.10421
1337.000	-2.48748	6.26554	-2.90173	6.05131
1338.000	-2.43815	6.23042	-2.94314	6.12967
1339.000	-2.50722	6.26348	-2.92145	6.15335
1340.000	-2.45196	6.30105	-2.96680	6.07650
1341.000	-2.50919	6.23794	-2.96680	6.03131
1342.000	-2.49932	6.25370	-2.89779	6.08080
1343.000	-2.47170	6.29703	-2.92934	6.13956
1344.000	-2.38092	6.30924	-2.88201	6.12017
1345.000	-2.45986	6.29316	-2.90173	6.11614
1346.000	-2.47959	6.27540	-3.01215	6.09589
1347.000	-2.50722	6.28312	-2.87018	6.18702
1348.000	-2.41644	6.30711	-2.87610	6.12413
1349.000	-2.48946	6.25375	-2.91357	6.09054
1350.000	-2.44604	6.28537	-2.88793	6.17317
1351.000	-2.46972	6.30490	-2.88596	6.06122
1352.000	-2.45788	6.29710	-2.88990	6.16727
1353.000	-2.40263	6.28557	-2.86821	6.20077
1354.000	-2.42433	6.30315	-2.88793	6.20460
1355.000	-2.44210	6.32074	-2.87413	6.21645
1356.000	-2.44604	6.32857	-2.87018	6.11238
1357.000	-2.47959	6.33823	-2.93526	6.13953
1358.000	-2.47367	6.32059	-2.75579	6.09136
1359.000	-2.45591	6.29711	-2.86229	6.12028
1360.000	-2.45591	6.27551	-2.88990	6.12995
1361.000	-2.42039	6.34636	-2.82877	6.16367
1362.000	-2.44999	6.28535	-2.83863	6.14398
1363.000	-2.45196	6.29909	-2.86821	6.20274
1364.000	-2.40263	6.29539	-2.88004	6.09072
1365.000	-2.47170	6.30685	-2.92737	6.09832
1366.000	-2.44604	6.29715	-2.87215	6.10058
1367.000	-2.45394	6.32264	-2.88399	6.12213
1368.000	-2.43618	6.26971	-2.86821	6.14775
1369.000	-2.43815	6.31094	-2.86821	6.15757
1370.000	-2.46972	6.32846	-2.93131	6.14741
1371.000	-2.41447	6.33854	-2.82088	6.15782
1372.000	-2.45788	6.32852	-2.91357	6.06304
1373.000	-2.43025	6.33650	-2.81891	6.12640
1374.000	-2.43223	6.30507	-2.90173	6.12989
1375.000	-2.44802	6.28536	-2.83271	6.09293
1376.000	-2.45394	6.31086	-2.91554	6.15731
1377.000	-2.45196	6.35603	-2.84454	6.14002
1378.000	-2.41052	6.32088	-2.88004	6.21642
1379.000	-2.43618	6.31880	-2.91159	6.13769
1380.000	-2.44012	6.29522	-2.90173	6.15739
1381.000	-2.45788	6.30103	-2.77157	6.16593
1382.000	-2.41052	6.31892	-2.91159	6.17501
1383.000	-2.43025	6.29919	-2.82088	6.18139
1384.000	-2.41644	6.26391	-2.83468	6.21666
1385.000	-2.39276	6.29740	-2.86032	6.21260
1386.000	-2.47170	6.28525	-2.83468	6.13614
1387.000	-2.45394	6.29319	-2.91159	6.11216
1388.000	-2.42828	6.28349	-2.86032	6.10654
1389.000	-2.44604	6.31679	-2.85441	6.10657
1390.000	-2.40263	6.30914	-2.81299	6.11857
1391.000	-2.45196	6.28338	-2.76368	6.12472
1392.000	-2.38881	6.26403	-2.93920	6.14933
1393.000	-2.44012	6.27951	-2.90568	6.16719
1394.000	-2.41644	6.30515	-2.86624	6.14383
1395.000	-2.44012	6.25987	-2.79918	6.15597
1396.000	-2.39868	6.26988	-2.83863	6.10862
1397.000	-2.47762	6.30093	-2.85243	6.19497
1398.000	-2.43420	6.23829	-2.79918	6.13829
1399.000	-2.44999	6.30303	-2.92145	6.10032
1400.000	-2.47367	6.25382	-2.83271	6.12240
1401.000	-2.37500	6.30926	-2.90371	6.16720
1402.000	-2.42631	6.28939	-2.81299	6.09303
1403.000	-2.45986	6.30691	-2.90962	6.13181
1404.000	-2.41447	6.31497	-2.90765	6.10825
1405.000	-2.42236	6.35421	-2.76763	6.23273
1406.000	-2.40065	6.29933	-2.86624	6.19097
1407.000	-2.40460	6.31502	-2.88596	6.14569
1408.000	-2.43618	6.25203	-2.87413	6.10843
1409.000	-2.45591	6.27551	-2.89779	6.16723
1410.000	-2.40065	6.32289	-2.91751	6.13963
1411.000	-2.44012	6.26183	-2.86427	6.11830
1412.000	-2.45788	6.28335	-2.86427	6.11241
1413.000	-2.45394	6.27552	-2.85638	6.11245
1414.000	-2.42631	6.25993	-2.81299	6.08518
1415.000	-2.46380	6.30885	-2.79524	6.14813
1416.000	-2.45196	6.26963	-2.86032	6.15565
1417.000	-2.43815	6.27363	-2.84454	6.12037
1418.000	-2.43618	6.25792	-2.86624	6.12419
1419.000	-2.47367	6.27542	-2.83074	6.14009
1420.000	-2.45591	6.34423	-2.90568	6.13773
1421.000	-2.48946	6.27142	-2.80313	6.11470
1422.000	-2.41447	6.25802	-2.87215	6.09272
1423.000	-2.45196	6.22053	-2.82088	6.13228
1424.000	-2.46183	6.26173	-2.84849	6.05355
1425.000	-2.39473	6.29150	-2.80313	6.12059
1426.000	-2.41644	6.27765	-2.85243	6.16354
1427.000	-2.38092	6.26210	-2.88596	6.13390
1428.000	-2.41841	6.26193	-2.77354	6.10503
1429.000	-2.44407	6.26771	-2.79129	6.07350
1430.000	-2.41644	6.27569	-2.87610	6.08877
1431.000	-2.41841	6.22658	-2.85243	6.09479
1432.000	-2.42631	6.29921	-2.81891	6.11461
1433.000	-2.40855	6.27376	-2.80905	6.06751
1434.000	-2.39671	6.27578	-2.79918	6.13043
1435.000	-2.43025	6.25009	-2.92540	6.04332
1436.000	-2.46380	6.27351	-2.82877	6.11260
1437.000	-2.43420	6.31095	-2.82680	6.10279
1438.000	-2.40855	6.28554	-2.79918	6.11275
1439.000	-2.41447	6.27963	-2.81299	6.12447
1440.000	-2.40460	6.29145	-2.85835	6.02599
1441.000	-2.40855	6.32678	-2.80510	6.13237
1442.000	-2.37697	6.27390	-2.88990	6.16531
1443.000	-2.38684	6.26011	-2.73409	6.15827
1444.000	-2.39473	6.33077	-2.81496	6.12053
1445.000	-2.39671	6.27185	-2.90173	6.08864
1446.000	-2.41447	6.28552	-2.81496	6.03604
1447.000	-2.43618	6.25399	-2.79327	6.05777
1448.000	-2.39868	6.26988	-2.75974	6.04222
1449.000	-2.40263	6.25022	-2.81496	6.05569
1450.000	-2.44407	6.24807	-2.85835	6.10458
1451.000	-2.34539	6.31332	-2.80116	6.11078
1452.000	-2.39868	6.27184	-2.85441	6.15961
1453.000	-2.37697	6.28372	-2.74987	6.16408
1454.000	-2.39868	6.23256	-2.74593	6.07177
1455.000	-2.38486	6.26601	-2.83271	6.08114
1456.000	-2.41249	6.25214	-2.75776	6.09332
1457.000	-2.39868	6.32486	-2.83863	6.05164
1458.000	-2.42236	6.24424	-2.85638	6.19495
1459.000	-2.42828	6.28545	-2.84849	6.13214
1460.000	-2.43025	6.26188	-2.73607	6.13272
1461.000	-2.41841	6.29335	-2.80116	6.07148
1462.000	-2.44210	6.24807	-2.83271	6.09490
1463.000	-2.42433	6.25601	-2.75185	6.11300
1464.000	-2.48354	6.23806	-2.89385	6.10636
1465.000	-2.41447	6.24624	-2.88004	6.18696
1466.000	-2.42039	6.26389	-2.72226	6.08957
1467.000	-2.39473	6.27579	-2.73409	6.13273
1468.000	-2.39276	6.28954	-2.82680	6.14207
1469.000	-2.40657	6.29930	-2.82680	6.09886
1470.000	-2.38486	6.25226	-2.81496	6.11267
1471.000	-2.45591	6.24605	-2.82482	6.08119
1472.000	-2.38486	6.32296	-2.81299	6.12054
1473.000	-2.42631	6.27368	-2.78735	6.10692
1474.000	-2.39078	6.23849	-2.80510	6.06950
1475.000	-2.45196	6.24999	-2.90173	6.19274
1476.000	-2.44012	6.28736	-2.88596	6.04943
1477.000	-2.48748	6.27929	-2.84454	6.10859
1478.000	-2.48156	6.24396	-2.74396	6.10518
1479.000	-2.40065	6.30522	-2.65124	6.14690
1480.000	-2.39868	6.26988	-2.70845	6.09946
1481.000	-2.26841	6.28617	-2.59600	6.11180
1482.000	-2.15392	6.20217	-2.47959	6.07501
1483.000	-1.85773	6.08142	-2.23486	5.95614
1484.000	-1.48045	6.02751	-1.92290	5.88059
1485.000	-1.19196	5.92788	-1.61676	5.89336
1486.000	-0.77494	5.76522	-1.09315	5.73319
1487.000	-0.39342	5.55284	-0.73936	5.55054
1488.000	0.01779	5.37949	-0.25899	5.29463
1489.000	0.43296	5.17024	0.18386	4.93151
1490.000	0.83424	4.92509	0.73145	4.71979
1491.000	1.27100	4.71507	1.02793	4.49017
1492.000	1.62861	4.49106	1.45871	4.32930
1493.000	2.04138	4.24492	1.80046	4.07739
1494.000	2.29605	4.00690	2.23091	3.83098
1495.000	2.62560	3.76457	2.58417	3.53707
1496.000	2.96089	3.57751	2.86624	3.24320
1497.000	3.29401	3.30525	3.23489	3.01634
1498.000	3.53435	2.95006	3.36297	2.65142
1499.000	3.81983	2.82437	3.48314	2.38551
1500.000	4.05989	2.59784	3.81786	2.20229
1501.000	4.24868	2.39920	4.05792	2.08870
1502.000	4.67313	2.24935	4.52581	1.70706
1503.000	4.94404	2.02282	4.83413	1.53002
1504.000	5.31470	1.83169	5.20688	1.22223
1505.000	5.64185	1.67641	5.46363	1.02970
1506.000	6.00383	1.49542	5.66143	0.96998
1507.000	6.35166	1.32055	5.95103	0.79935
1508.000	6.64051	1.14598	6.16413	0.65862
1509.000	6.92903	0.96564	6.45905	0.42896
1510.000	7.19189	0.78157	6.71852	0.36354
1511.000	7.39613	0.69048	6.87252	0.20146
1512.000	7.62737	0.57576	7.00889	0.14809
1513.000	7.83120	0.53804	7.12571	0.04146
1514.000	7.90104	0.42760	7.17632	0.09277
1515.000	7.96698	0.37631	7.21524	0.04342
1516.000	8.01157	0.43734	7.28528	0.06512
1517.000	8.07359	0.38803	7.30473	-0.03552
1518.000	8.02514	0.49642	7.14713	0.12633
1519.000	7.95728	0.57136	7.19189	0.17764
1520.000	7.85254	0.69762	7.07120	0.29022
1521.000	7.78657	0.78445	6.91734	0.20934
1522.000	7.62349	0.81038	6.89006	0.31206
1523.000	7.55938	0.90514	6.84134	0.47603
1524.000	7.47777	1.04532	6.73802	0.47218
1525.000	7.35724	1.03771	6.69122	0.51372
1526.000	7.28917	1.09903	6.70292	0.57693
1527.000	7.23081	1.06563	6.65807	0.64811
1528.000	7.21913	1.10314	6.67172	0.61253
1529.000	7.28333	1.14047	6.76532	0.64796
1530.000	7.27166	1.04186	6.81600	0.59457
1531.000	7.32807	1.00622	6.84913	0.55502
1532.000	7.40196	0.94294	6.92708	0.50951
1533.000	7.53218	0.94463	6.99720	0.53116
1534.000	7.58270	0.87749	7.08289	0.38892
1535.000	7.70893	0.78065	7.12571	0.31190
1536.000	7.78075	0.73322	7.24248	0.31971
1537.000	7.89716	0.64632	7.16659	0.26253
1538.000	7.93983	0.60488	7.26777	0.17958
1539.000	8.02902	0.60278	7.37668	0.12035
1540.000	8.04258	0.57518	7.28917	0.08091
1541.000	8.07941	0.51408	7.34752	0.17758
1542.000	8.10266	0.51208	7.34363	0.03354
1543.000	8.10654	0.51404	7.25999	0.13025
1544.000	8.12591	0.46084	7.28528	0.07301
1545.000	8.09297	0.49042	7.42335	0.08483
1546.000	8.08716	0.49437	7.26582	0.04736
1547.000	8.09879	0.54359	7.33390	0.06906
1548.000	8.06003	0.50228	7.33779	0.13615
1549.000	8.06197	0.51016	7.23081	0.09868
1550.000	8.06584	0.50227	7.28722	0.08288
1551.000	8.04452	0.49639	7.20356	0.06711
1552.000	8.04840	0.53775	7.23081	0.05526
1553.000	8.03677	0.55155	7.30278	0.12629
1554.000	8.01157	0.56144	7.16853	0.06514
1555.000	7.97861	0.58512	7.14518	0.19740
1556.000	7.96892	0.50830	7.20746	0.01776
1557.000	7.95534	0.59304	7.16853	0.11449
1558.000	8.01932	0.54961	7.11987	0.12634
1559.000	7.95922	0.57924	7.17827	0.08290
1560.000	7.92625	0.54382	7.18800	0.22896
1561.000	7.91074	0.55566	7.17048	0.12435
1562.000	7.95146	0.57334	7.12766	0.18359
1563.000	7.90880	0.61675	7.17632	0.12633
1564.000	7.91074	0.61280	7.17437	0.20331
1565.000	7.87970	0.63452	7.11209	0.10463
1566.000	7.90298	0.62464	7.05368	0.18362
1567.000	7.91074	0.63054	7.10430	0.13227
1568.000	7.86806	0.63848	7.11014	0.20926
1569.000	7.90104	0.64040	7.04394	0.24483
1570.000	7.89716	0.66405	7.11793	0.15990
1571.000	7.91849	0.59703	7.08873	0.06120
1572.000	7.89522	0.62465	7.12766	0.20925
1573.000	7.93595	0.63444	7.13739	0.18161
1574.000	7.93207	0.62459	7.15296	0.22306
1575.000	7.91074	0.65221	7.11403	0.18359
1576.000	7.88746	0.57540	7.15296	0.12436
1577.000	7.90880	0.60296	7.07899	0.21322
1578.000	7.91268	0.62265	7.14907	0.20134
1579.000	7.85060	0.63654	7.18994	0.11251
1580.000	7.89522	0.58918	7.11793	0.17767
1581.000	7.90104	0.64434	7.17048	0.24081
1582.000	7.90880	0.65812	7.11014	0.22900
1583.000	7.87000	0.58528	7.06926	0.12833
1584.000	7.87582	0.60103	7.12961	0.15200
1585.000	7.89328	0.60692	7.15102	0.19345
1586.000	7.87970	0.67393	7.16659	0.16581
1587.000	7.83702	0.62868	7.09651	0.15399
1588.000	7.88164	0.64043	7.15102	0.09278
1589.000	7.90298	0.68966	7.15880	0.16581
1590.000	7.86418	0.62667	7.14713	0.18555
1591.000	7.87970	0.63452	7.20940	0.11053
1592.000	7.90492	0.60887	7.18605	0.09277
1593.000	7.87776	0.60497	7.12571	0.07699
1594.000	7.93401	0.60095	7.20940	0.10066
1595.000	7.88940	0.56160	7.15296	0.12633
1596.000	7.91656	0.57536	7.24442	0.07500
1597.000	7.85060	0.60107	7.16464	0.07303
1598.000	7.87000	0.59710	7.16464	0.07896
1599.000	7.86806	0.58725	7.15296	0.07501
1600.000	7.86030	0.58135	7.25999	0.07894
1601.000	7.88552	0.61087	7.11014	0.04738
1602.000	7.90104	0.51824	7.28139	0.08880
1603.000	7.88940	0.58525	7.11598	0.07304
1604.000	7.92043	0.60688	7.06147	0.13820
1605.000	7.91462	0.55566	7.12766	0.16187
1606.000	7.87970	0.57344	7.20356	0.05329
1607.000	7.87582	0.60103	7.10235	0.06712
1608.000	7.90492	0.59705	7.11793	0.16385
1609.000	7.89522	0.62071	7.17632	0.10264
1610.000	7.91268	0.58916	7.22497	0.15197
1611.000	7.87970	0.62073	7.25221	0.05921
1612.000	7.87000	0.61878	7.15880	0.13028
1613.000	7.88940	0.59510	7.14713	0.10067
1614.000	7.82732	0.57351	7.19773	0.05132
1615.000	7.85642	0.62668	7.14713	0.12239
1616.000	7.87582	0.56359	7.10430	0.16583
1617.000	7.89716	0.62071	7.06731	0.13228
1618.000	7.88746	0.63845	7.10430	0.08686
1619.000	7.85836	0.62667	7.07899	0.19545
1620.000	7.90104	0.61282	7.10819	0.14806
1621.000	7.86224	0.61090	7.15491	0.10857
1622.000	7.92431	0.63643	7.12182	0.17569
1623.000	7.89522	0.59903	7.01278	0.15599
1624.000	7.86418	0.59711	7.15686	0.16186
1625.000	7.88746	0.57343	7.18800	0.09474
1626.000	7.90492	0.65616	7.13350	0.16187
1627.000	7.83896	0.56759	7.17243	0.14607
1628.000	7.86224	0.63455	7.15491	0.10857
1629.000	7.85448	0.59318	7.21135	0.13421
1630.000	7.85060	0.53998	7.12961	0.13424
1631.000	7.81956	0.63659	7.21913	0.13816
1632.000	7.86418	0.60499	7.12766	0.21912
1633.000	7.86418	0.57543	7.18021	0.19738
1634.000	7.88940	0.61481	7.14518	0.24477
1635.000	7.87000	0.61483	7.04978	0.16190
1636.000	7.86224	0.60893	7.11598	0.16780
1637.000	7.84284	0.58334	7.10041	0.18557
1638.000	7.85254	0.62865	7.16659	0.18555
1639.000	7.85642	0.62668	7.23664	0.28025
1640.000	7.86612	0.65228	7.13934	0.16976
1641.000	7.86030	0.63652	7.11793	0.25071
1642.000	7.88164	0.60102	7.17437	0.14014
1643.000	7.83508	0.62080	7.18994	0.14409
1644.000	7.83702	0.64050	7.12377	0.18161
1645.000	7.84672	0.62472	7.06926	0.27245
1646.000	7.93013	0.66006	7.07899	0.24283
1647.000	7.86612	0.62272	7.11014	0.22702
1648.000	7.86418	0.69957	7.11793	0.20531
1649.000	7.83702	0.64444	7.10819	0.23295
1650.000	7.87970	0.61482	7.08873	0.20927
1651.000	7.86806	0.65819	7.23081	0.22104
1652.000	7.86418	0.66213	7.15102	0.20924
1653.000	7.84284	0.60108	7.11598	0.13621
1654.000	7.87582	0.65226	7.12377	0.20333
1655.000	7.91656	0.67387	7.19578	0.20922
1656.000	7.90880	0.63842	7.16659	0.15396
1657.000	7.91074	0.64433	7.15296	0.24279
1658.000	7.83702	0.63853	7.13739	0.21517
1659.000	7.91656	0.66993	7.17243	0.24476
1660.000	7.87194	0.61089	7.17632	0.16580
1661.000	7.88552	0.61875	7.13545	0.23491
1662.000	7.91268	0.61083	7.17048	0.14409
1663.000	7.90880	0.60493	7.20940	0.26645
1664.000	7.94565	0.58123	7.15880	0.12436
1665.000	7.93595	0.62459	7.13934	0.16582
1666.000	7.89716	0.61085	7.28139	0.20326
1667.000	7.92043	0.64234	7.10625	0.23887
1668.000	7.90104	0.57341	7.12961	0.12437
1669.000	7.90298	0.62464	7.16853	0.19344
1670.000	7.91656	0.57930	7.11403	0.20136
1671.000	7.89716	0.58327	7.28722	0.13616
1672.000	7.92431	0.55368	7.16659	0.12041
1673.000	7.89716	0.59312	7.15102	0.17766
1674.000	7.92819	0.55170	7.10625	0.15398
1675.000	7.93207	0.62853	7.14518	0.14213
1676.000	7.94759	0.62457	7.11014	0.13819
1677.000	7.91462	0.55172	7.16270	0.20529
1678.000	7.92237	0.58717	7.13739	0.20727
1679.000	7.95728	0.63046	7.14518	0.18555
1680.000	7.89522	0.59115	7.10235	0.22308
1681.000	7.91268	0.56945	7.14713	0.19148
1682.000	7.92237	0.55368	7.22497	0.24276
1683.000	7.88552	0.55964	7.20746	0.18356
1684.000	7.92237	0.58126	7.14713	0.20135
1685.000	7.87582	0.54192	7.08678	0.18360
1686.000	7.87194	0.53601	7.10819	0.21716
1687.000	7.83896	0.56364	7.05563	0.16387
1688.000	7.83896	0.56956	7.05173	0.23890
1689.000	7.87582	0.54980	7.13545	0.18358
1690.000	7.84478	0.58137	7.07899	0.19348
1691.000	7.87970	0.58920	7.17632	0.24870
1692.000	7.84866	0.49466	7.13739	0.17174
1693.000	7.85448	0.54392	7.10625	0.20136
1694.000	7.87970	0.55177	7.15296	0.30991
1695.000	7.82344	0.56761	7.09262	0.24283
1696.000	7.82150	0.55973	7.10041	0.18952
1697.000	7.80015	0.53413	7.10430	0.23690
1698.000	7.81762	0.54594	7.24053	0.24472
1699.000	7.82926	0.54986	7.20162	0.21514
1700.000	7.86224	0.57544	7.19189	0.10856
1701.000	7.85448	0.50450	7.06147	0.10661
1702.000	7.83702	0.56562	7.14129	0.15989
1703.000	7.85254	0.58136	7.13739	0.14608
1704.000	7.80986	0.54003	7.17048	0.15988
1705.000	7.83314	0.52621	7.13350	0.24281
1706.000	7.84284	0.57743	7.15491	0.17568
1707.000	7.83508	0.54197	7.22302	0.19144
1708.000	7.83314	0.58336	7.20551	0.21711
1709.000	7.84672	0.59516	7.19967	0.15987
1710.000	7.87582	0.53798	7.16075	0.26845
1711.000	7.81956	0.53017	7.08289	0.15004
1712.000	7.84866	0.57545	7.19578	0.14408
1713.000	7.82926	0.55183	7.25221	0.25261
1714.000	7.85254	0.49662	7.18410	0.20528
1715.000	7.83120	0.58336	7.14323	0.19937
1716.000	7.81956	0.49863	7.18994	0.22896
1717.000	7.80403	0.51245	7.23470	0.16183
1718.000	7.83508	0.51438	7.19578	0.19343
1719.000	7.84284	0.59517	7.28722	0.22299
1720.000	7.82926	0.51833	7.14713	0.13620
1721.000	7.83896	0.49270	7.20551	0.14013
1722.000	7.81180	0.51835	7.25221	0.09670
1723.000	7.82926	0.55183	7.23081	0.07894
1724.000	7.83896	0.52620	7.25221	0.19340
1725.000	7.87194	0.54784	7.21135	0.12829
1726.000	7.87582	0.56951	7.25415	0.12630
1727.000	7.86030	0.55573	7.23664	0.07500
1728.000	7.87970	0.54388	7.21719	0.12237
1729.000	7.87000	0.54587	7.28139	0.12827
1730.000	7.86418	0.49464	7.26972	0.12630
1731.000	7.89910	0.58327	7.23275	0.10460
1732.000	7.88164	0.53994	7.18605	0.14211
1733.000	7.84478	0.53999	7.24053	0.12828
1734.000	7.85836	0.49465	7.24248	0.18157
1735.000	7.84478	0.53211	7.25804	0.21708
1736.000	7.84866	0.53407	7.11209	0.17965
1737.000	7.83120	0.55577	7.21913	0.18947
1738.000	7.84090	0.54788	7.18605	0.07895
1739.000	7.84090	0.58532	7.21524	0.18158
1740.000	7.82344	0.56366	7.18410	0.09672
1741.000	7.80015	0.49472	7.24832	0.12039
1742.000	7.78075	0.50459	7.14323	0.20529
1743.000	7.82344	0.51045	7.20551	0.10658
1744.000	7.77686	0.51051	7.26582	0.19340
1745.000	7.82732	0.51045	7.21329	0.12829
1746.000	7.83896	0.50846	7.12571	0.09278
1747.000	7.84090	0.53211	7.11793	0.10068
1748.000	7.82344	0.53016	7.18994	0.24278
1749.000	7.85448	0.50056	7.19383	0.11448
1750.000	7.85836	0.52224	7.23275	0.19539
1751.000	7.85836	0.45918	7.21719	0.12039
1752.000	7.86612	0.51040	7.21135	0.12829
1753.000	7.86030	0.46311	7.25026	0.13223
1754.000	7.87194	0.55769	7.19967	0.17764
1755.000	7.89522	0.52022	7.18216	0.20528
1756.000	7.88746	0.51629	7.22302	0.15987
1757.000	7.87194	0.51828	7.20162	0.12829
1758.000	7.87582	0.51630	7.23664	0.13223
1759.000	7.84866	0.43948	7.18410	0.12435
1760.000	7.93983	0.42756	7.40390	0.00395
1761.000	7.99412	0.23838	7.36696	-0.12035
1762.000	8.06584	0.14182	7.44862	-0.19332
1763.000	8.14335	-0.07878	7.61572	-0.34310
1764.000	8.24407	-0.30714	7.62349	-0.59548
1765.000	8.29441	-0.59057	7.77104	-0.82980
1766.000	8.39311	-0.82852	7.95146	-1.10718
1767.000	8.47823	-1.18832	7.92431	-1.33375
1768.000	8.55170	-1.54594	8.05421	-1.73684
1769.000	8.59423	-1.96043	8.23632	-2.18640
1770.000	8.57490	-2.33966	8.21308	-2.42833
1771.000	8.62322	-2.62993	8.29053	-2.72059
1772.000	8.57684	-2.85399	8.16466	-3.08680
1773.000	8.54784	-3.24264	8.21889	-3.39649
1774.000	8.48403	-3.57650	8.26730	-3.70006
1775.000	8.44534	-3.85904	8.23051	-3.98462
1776.000	8.38343	-4.08882	8.18984	-4.25732
1777.000	8.34860	-4.38087	8.18597	-4.48446
1778.000	8.30602	-4.49484	8.11429	-4.67900
1779.000	8.34086	-4.66851	8.15304	-4.99335
1780.000	8.38537	-4.83022	8.12591	-5.15783
1781.000	8.39504	-4.97077	8.13366	-5.27101
1782.000	8.42987	-5.05235	8.05615	-5.45752
1783.000	8.48403	-5.22536	8.18597	-5.44796
1784.000	8.50337	-5.37531	8.27698	-5.60080
1785.000	8.54397	-5.39619	8.34086	-5.76752
1786.000	8.55944	-5.41742	8.36215	-5.74772
1787.000	8.58457	-5.44046	8.32151	-5.79508
1788.000	8.68505	-5.54814	8.35441	-5.83940
1789.000	8.69085	-5.53637	8.39117	-5.88560
1790.000	8.68312	-5.59298	8.41439	-5.92809
1791.000	8.66380	-5.60885	8.30215	-5.84018
1792.000	8.67153	-5.63016	8.39117	-5.82912
1793.000	8.65607	-5.62260	8.32538	-5.74241
1794.000	8.66573	-5.59323	8.23438	-5.70864
1795.000	8.63289	-5.47875	8.31763	-5.69380
1796.000	8.63868	-5.49231	8.31763	-5.55538
1797.000	8.60969	-5.37967	8.41052	-5.53457
1798.000	8.69278	-5.34340	8.29053	-5.53431
1799.000	8.67153	-5.22865	8.38537	-5.42181
1800.000	8.64448	-5.19196	8.33312	-5.36400
1801.000	8.66380	-5.15073	8.28473	-5.37246
1802.000	8.69085	-5.12695	8.28666	-5.30023
1803.000	8.71596	-5.11295	8.26924	-5.27118
1804.000	8.73335	-5.14588	8.36021	-5.30509
1805.000	8.71403	-5.12858	8.34280	-5.32679
1806.000	8.74880	-5.19052	8.35634	-5.39880
1807.000	8.78356	-5.23489	8.31570	-5.48519
1808.000	8.79514	-5.24642	8.28860	-5.55774
1809.000	8.80480	-5.31451	8.34667	-5.56667
1810.000	8.79321	-5.35561	8.27505	-5.63008
1811.000	8.79707	-5.37309	8.30215	-5.70182
1812.000	8.83182	-5.43883	8.36408	-5.72041
1813.000	8.83182	-5.50312	8.32151	-5.80093
1814.000	8.86850	-5.53568	8.27505	-5.81330
1815.000	8.84727	-5.59247	8.27117	-5.83284
1816.000	8.82603	-5.57332	8.28860	-5.85401
1817.000	8.85306	-5.61964	8.21889	-5.87258
1818.000	8.82796	-5.59665	8.18209	-5.94326
1819.000	8.88973	-5.62103	8.35828	-5.96009
1820.000	8.85306	-5.65857	8.24600	-5.87997
1821.000	8.86271	-5.62144	8.20534	-5.91369
1822.000	8.91674	-5.63229	8.26343	-5.89530
1823.000	8.92832	-5.66715	8.24988	-5.93056
1824.000	8.87622	-5.58035	8.25762	-5.95966
1825.000	8.87429	-5.62905	8.30215	-5.93173
1826.000	8.88394	-5.64837	8.25956	-6.01026
1827.000	8.87236	-5.64660	8.19372	-5.85736
1828.000	8.91481	-5.61286	8.14141	-5.88930
1829.000	8.88780	-5.62690	8.17435	-5.86738
1830.000	8.88587	-5.64834	8.15110	-5.96904
1831.000	8.87815	-5.66014	8.13948	-5.78213
1832.000	8.87622	-5.60955	8.18597	-5.81070
1833.000	8.88780	-5.63858	8.26343	-5.92257
1834.000	8.86657	-5.61943	8.24019	-5.82940
1835.000	8.89166	-5.62295	8.25181	-5.80390
1836.000	8.85692	-5.64684	8.21308	-5.82784
1837.000	8.86850	-5.61746	8.20921	-5.83764
1838.000	8.81831	-5.62017	8.28473	-5.87160
1839.000	8.84920	-5.58660	8.22083	-5.89788
1840.000	8.86657	-5.57271	8.16272	-5.72721
1841.000	8.80286	-5.60093	8.17047	-5.83041
1842.000	8.84340	-5.60810	8.18209	-5.80491
1843.000	8.86464	-5.61557	8.16466	-5.76228
1844.000	8.84534	-5.60807	8.19759	-5.76960
1845.000	8.81831	-5.54227	8.20146	-5.74030
1846.000	8.85499	-5.60987	8.18790	-5.76389
1847.000	8.84727	-5.58857	8.19565	-5.71699
1848.000	8.80866	-5.58526	8.17628	-5.73287
1849.000	8.87236	-5.59014	8.17822	-5.68020
1850.000	8.80480	-5.55611	8.21502	-5.73621
1851.000	8.87622	-5.55504	8.15691	-5.76629
1852.000	8.81638	-5.55009	8.24213	-5.78650
1853.000	8.84534	-5.57108	8.18597	-5.63524
1854.000	8.85885	-5.54361	8.20534	-5.72075
1855.000	8.86464	-5.61168	8.20921	-5.72850
1856.000	8.83568	-5.58096	8.26343	-5.78034
1857.000	8.85306	-5.54760	8.26924	-5.75492
1858.000	8.82217	-5.57143	8.20727	-5.73827
1859.000	8.83375	-5.58099	8.23438	-5.79635
1860.000	8.83761	-5.61598	8.21696	-5.81025
1861.000	8.84340	-5.61394	8.21889	-5.76345
1862.000	8.82796	-5.59860	8.21502	-5.76740
1863.000	8.83568	-5.65105	8.24794	-5.81564
1864.000	8.83761	-5.58872	8.27698	-5.75871
1865.000	8.83182	-5.62385	8.21115	-5.86490
1866.000	8.85499	-5.62934	8.16079	-5.78377
1867.000	8.83375	-5.58294	8.21889	-5.79073
1868.000	8.82603	-5.61615	8.20340	-5.70324
1869.000	8.84727	-5.62557	8.13560	-5.82702
1870.000	8.86464	-5.61362	8.19178	-5.73849
1871.000	8.87429	-5.57454	8.20534	-5.75974
1872.000	8.84340	-5.58279	8.18403	-5.75030
1873.000	8.82989	-5.58689	8.22664	-5.68341
1874.000	8.84534	-5.57692	8.19178	-5.80282
1875.000	8.85692	-5.56312	8.15304	-5.65715
1876.000	8.85885	-5.57477	8.25181	-5.73763
1877.000	8.81059	-5.61639	8.19565	-5.69555
1878.000	8.84920	-5.53986	8.18403	-5.76395
1879.000	8.83568	-5.59459	8.20534	-5.78508
1880.000	8.85499	-5.55536	8.27892	-5.78206
1881.000	8.86464	-5.59221	8.28279	-5.79565
1882.000	8.86657	-5.60191	8.19759	-5.82417
1883.000	8.86850	-5.59215	8.20534	-5.74220
1884.000	8.85692	-5.61958	8.24213	-5.72608
1885.000	8.85306	-5.60212	8.21889	-5.76150
1886.000	8.86657	-5.56102	8.18403	-5.76590
1887.000	8.83375	-5.57515	8.23245	-5.81977
1888.000	8.82024	-5.60066	8.19372	-5.81254
1889.000	8.84727	-5.58857	8.23051	-5.71844
1890.000	8.84727	-5.55937	8.22858	-5.71262
1891.000	8.82410	-5.58698	8.14335	-5.77233
1892.000	8.89937	-5.56832	8.25375	-5.74150
1893.000	8.87043	-5.60575	8.17628	-5.79330
1894.000	8.88394	-5.53350	8.19178	-5.80282
1895.000	8.85885	-5.55919	8.20146	-5.78319
1896.000	8.86078	-5.57669	8.13560	-5.79973
1897.000	8.88201	-5.58221	8.10654	-5.73971
1898.000	8.88587	-5.57436	8.25181	-5.86040
1899.000	8.87622	-5.55114	8.17047	-5.83821
1900.000	8.87622	-5.51025	8.19953	-5.78322
1901.000	8.90902	-5.54870	8.18016	-5.77960
1902.000	8.90709	-5.51368	8.12010	-5.78631
1903.000	8.90323	-5.56242	8.13173	-5.79199
1904.000	8.89552	-5.49243	8.11623	-5.85264
1905.000	8.88780	-5.54318	8.07941	-5.70889
1906.000	8.87236	-5.53173	8.16079	-5.71554
1907.000	8.91481	-5.58755	8.08522	-5.74001
1908.000	8.86850	-5.53373	8.09685	-5.78859
1909.000	8.88394	-5.56660	8.10072	-5.75539
1910.000	8.88973	-5.57041	8.22277	-5.76339
1911.000	8.88780	-5.59186	8.19372	-5.82228
1912.000	8.89359	-5.51194	8.22083	-5.78486
1913.000	8.91481	-5.57782	8.14723	-5.80151
1914.000	8.91095	-5.57593	8.16272	-5.77595
1915.000	8.86464	-5.52795	8.21115	-5.78695
1916.000	8.86078	-5.62342	8.23826	-5.80799
1917.000	8.88008	-5.58224	8.15691	-5.76239
1918.000	8.87236	-5.55509	8.16466	-5.80711
1919.000	8.87622	-5.60955	8.22664	-5.75554
1920.000	8.86078	-5.55527	8.10654	-5.78650
1921.000	8.88587	-5.53737	8.15304	-5.75659
1922.000	8.90516	-5.52929	8.17241	-5.72317
1923.000	8.86464	-5.56105	8.23245	-5.77105
1924.000	8.87043	-5.57070	8.19565	-5.78522
1925.000	8.87815	-5.57837	8.23245	-5.76715
1926.000	8.90709	-5.59546	8.17241	-5.77386
1927.000	8.89744	-5.53135	8.20921	-5.76748
1928.000	8.89359	-5.60345	8.19372	-5.80279
1929.000	8.85885	-5.62734	8.23245	-5.81392
1930.000	8.85499	-5.63908	8.16272	-5.75646
1931.000	8.86657	-5.61554	8.21115	-5.78890
1932.000	8.87236	-5.66217	8.26537	-5.83293
1933.000	8.90130	-5.60528	8.09104	-5.77697
1934.000	8.86464	-5.61946	8.23826	-5.75342
1935.000	8.86657	-5.66226	8.18984	-5.88664
1936.000	8.88201	-5.62504	8.22858	-5.85100
1937.000	8.85113	-5.59630	8.20921	-5.77333
1938.000	8.88973	-5.57041	8.14916	-5.82098
1939.000	8.87236	-5.59209	8.15497	-5.78191
1940.000	8.91288	-5.61483	8.15497	-5.79360
1941.000	8.87429	-5.59790	8.15885	-5.80914
1942.000	8.87043	-5.59601	8.17047	-5.76219
1943.000	8.88587	-5.60162	8.13948	-5.71194
1944.000	8.88587	-5.60551	8.18403	-5.80488
1945.000	8.84340	-5.60616	8.15110	-5.82680
1946.000	8.88394	-5.59386	8.23051	-5.76912
1947.000	8.88587	-5.60357	8.21502	-5.74206
1948.000	8.87236	-5.59988	8.20534	-5.83380
1949.000	8.87043	-5.60380	8.17047	-5.84016
1950.000	8.85692	-5.60206	8.23245	-5.76520
1951.000	8.87429	-5.62710	8.19178	-5.79697
1952.000	8.86657	-5.57660	8.25375	-5.80582
1953.000	8.88587	-5.62303	8.27311	-5.82112
1954.000	8.88780	-5.58407	8.20534	-5.77923
1955.000	8.87815	-5.55890	8.30021	-5.74473
1956.000	8.90709	-5.60130	8.24988	-5.78833
1957.000	8.85692	-5.60595	8.17241	-5.80895
1958.000	8.88008	-5.59587	8.19759	-5.81248
1959.000	8.88201	-5.59000	8.20146	-5.80073
1960.000	8.86078	-5.60589	8.24019	-5.85473
1961.000	8.87236	-5.56094	8.18016	-5.70747
1962.000	8.85692	-5.59816	8.14335	-5.80742
1963.000	8.87429	-5.62710	8.23632	-5.82945
1964.000	8.89359	-5.61124	8.20340	-5.72858
1965.000	8.87043	-5.63106	8.19953	-5.75398
1966.000	8.88201	-5.63672	8.17822	-5.74064
1967.000	8.90516	-5.62469	8.21889	-5.79658
1968.000	8.86078	-5.60979	8.26343	-5.79008
1969.000	8.88780	-5.59964	8.21115	-5.85515
1970.000	8.85499	-5.59625	8.21308	-5.84928
1971.000	8.85692	-5.58648	8.23051	-5.92111
1972.000	8.87429	-5.61932	8.24600	-5.79813
1973.000	8.87815	-5.60563	8.12591	-5.71994
1974.000	8.85885	-5.58645	8.14723	-5.80346
1975.000	8.87043	-5.63106	8.17047	-5.84795
1976.000	8.85113	-5.59241	8.19953	-5.82220
1977.000	8.88201	-5.63672	8.22664	-5.79842
1978.000	8.88973	-5.59961	8.12010	-5.81360
1979.000	8.86271	-5.60586	8.18403	-5.83022
1980.000	8.86271	-5.57082	8.20340	-5.74807
1981.000	8.86657	-5.62722	8.13948	-5.72949
1982.000	8.86271	-5.61755	8.11235	-5.87413
1983.000	8.86078	-5.60784	8.22470	-5.78090
1984.000	8.89359	-5.61124	8.17047	-5.74465
1985.000	8.87429	-5.61153	8.15304	-5.74685
1986.000	8.87429	-5.62710	8.14723	-5.71963
1987.000	8.87236	-5.61545	8.16853	-5.76417
1988.000	8.87622	-5.65043	8.14916	-5.79954
1989.000	8.90709	-5.60714	8.12591	-5.83691
1990.000	8.86078	-5.62731	8.14916	-5.84436
1991.000	8.88394	-5.60749	8.06197	-5.81053
1992.000	8.88780	-5.62106	8.17241	-5.76996
1993.000	8.88780	-5.62690	8.17822	-5.88486
1994.000	8.87429	-5.63294	8.03677	-5.77774
1995.000	8.88008	-5.59781	8.18209	-5.74838
1996.000	8.87815	-5.61147	8.15885	-5.89489
1997.000	8.87043	-5.59017	8.18984	-5.76971
1998.000	8.83954	-5.61984	8.13560	-5.75294
1999.000	8.89166	-5.59374	8.16272	-5.73891
2000.000	8.88587	-5.60746	8.21308	-5.75183
2001.000	8.90902	-5.63631	8.10266	-5.78266
2002.000	8.87236	-5.65439	8.11041	-5.82933
2003.000	8.84340	-5.62173	8.23438	-5.81389
2004.000	8.85306	-5.63327	8.23245	-5.72816
2005.000	8.85306	-5.62353	8.07359	-5.82011
2006.000	8.85692	-5.62347	8.12785	-5.73161
2007.000	8.86078	-5.58448	8.16272	-5.78570
2008.000	8.84727	-5.62946	8.10460	-5.72999
2009.000	8.88587	-5.63471	8.11041	-5.77085
2010.000	8.87622	-5.60566	8.09104	-5.71848
2011.000	8.86271	-5.60976	8.17241	-5.77971
2012.000	8.90130	-5.60917	8.15691	-5.81892
2013.000	8.89552	-5.61121	8.22277	-5.68736
2014.000	8.92446	-5.59130	8.09104	-5.77502
2015.000	8.87815	-5.61342	8.15885	-5.77990
2016.000	8.92446	-5.60492	8.05034	-5.70540
2017.000	8.87622	-5.63097	8.13948	-5.77823
2018.000	8.92060	-5.60304	8.13560	-5.79778
2019.000	8.87622	-5.63875	8.13754	-5.76851
2020.000	8.88587	-5.66196	8.14141	-5.78405
2021.000	8.86850	-5.65055	8.11623	-5.77077
2022.000	8.88587	-5.61914	8.22858	-5.74771
2023.000	8.88587	-5.65613	8.12785	-5.73941
2024.000	8.90130	-5.65394	8.18790	-5.75220
2025.000	8.90709	-5.60714	8.11429	-5.69085
2026.000	8.86657	-5.62333	8.19372	-5.78720
2027.000	8.90709	-5.61298	8.16660	-5.71936
2028.000	8.87236	-5.62324	8.12591	-5.82131
2029.000	8.88201	-5.59389	8.12010	-5.81750
2030.000	8.86271	-5.63117	8.11235	-5.80006
2031.000	8.89166	-5.62100	8.11623	-5.83510
2032.000	8.89166	-5.62295	8.20727	-5.85521
2033.000	8.86850	-5.61356	8.11429	-5.78834
2034.000	8.90323	-5.62471	8.20146	-5.81047
2035.000	8.88780	-5.59186	8.18403	-5.74250
2036.000	8.88973	-5.59377	8.12398	-5.82134
2037.000	8.88201	-5.58026	8.18790	-5.81652
2038.000	8.91867	-5.59333	8.12785	-5.76670
2039.000	8.90709	-5.58767	8.12785	-5.76865
2040.000	8.89359	-5.65017	8.19953	-5.85532
2041.000	8.90902	-5.55649	8.19759	-5.79104
2042.000	8.90323	-5.61693	8.13366	-5.79586
2043.000	8.91481	-5.61675	8.22470	-5.76141
2044.000	8.87622	-5.62902	8.23051	-5.81785
2045.000	8.91674	-5.58168	8.19759	-5.81053
2046.000	8.90130	-5.61112	8.19372	-5.79110
2047.000	8.90902	-5.61684	8.19178	-5.79697
2048.000	8.88201	-5.63867	8.20921	-5.75384
2049.000	8.91288	-5.63430	8.21889	-5.86673
2050.000	8.85692	-5.62347	8.20340	-5.84747
2051.000	8.89166	-5.61516	8.25375	-5.82335
2052.000	8.89744	-5.65205	8.25181	-5.90521
2053.000	8.89937	-5.67733	8.25956	-5.84080
2054.000	8.89552	-5.61899	8.21889	-5.84335
2055.000	8.91095	-5.66742	8.15110	-5.82680
2056.000	8.91674	-5.64592	8.29441	-5.86951
2057.000	8.89937	-5.62672	8.18984	-5.82234
2058.000	8.87043	-5.64079	8.24600	-5.83711
2059.000	8.88587	-5.59188	8.25375	-5.81556
2060.000	8.89552	-5.57811	8.23051	-5.77887
2061.000	8.92832	-5.61460	8.23051	-5.81395
2062.000	8.90902	-5.60711	8.23632	-5.75150
2063.000	8.92446	-5.54457	8.26343	-5.76085
2064.000	8.90323	-5.45337	8.22083	-5.64839
2065.000	8.85499	-5.43070	8.15304	-5.63180
2066.000	8.85306	-5.34695	8.21308	-5.60365
2067.000	8.82989	-5.30246	8.15497	-5.45619
2068.000	8.85306	-5.16567	8.09297	-5.30084
2069.000	8.77197	-4.97952	8.08135	-5.21115
2070.000	8.77969	-4.81156	8.02320	-5.04969
2071.000	8.77969	-4.61823	8.00575	-4.87393
2072.000	8.70437	-4.42569	7.99218	-4.68823
2073.000	8.74107	-4.19258	7.86612	-4.43901
2074.000	8.74300	-4.00280	7.92237	-4.18369
2075.000	8.79321	-3.80853	7.85060	-4.00599
2076.000	8.79514	-3.72629	7.86612	-3.81361
2077.000	8.80673	-3.56757	7.83120	-3.75702
2078.000	8.82603	-3.46750	7.92625	-3.57562
2079.000	8.87236	-3.30449	7.97085	-3.50458
2080.000	8.87043	-3.23006	7.92431	-3.48534
2081.000	8.85113	-3.13812	7.99218	-3.45925
2082.000	8.84147	-3.16368	7.95146	-3.43604
2083.000	8.81445	-3.18547	7.96504	-3.44770
2084.000	8.78356	-3.14457	7.88358	-3.49550
2085.000	8.77004	-3.21329	7.94759	-3.55974
2086.000	8.78935	-3.24448	7.88746	-3.61522
2087.000	8.71403	-3.30786	7.91268	-3.67780
2088.000	8.67926	-3.31013	7.96310	-3.67735
2089.000	8.67539	-3.41991	7.99994	-3.70056
2090.000	8.64448	-3.47311	7.98055	-3.74782
2091.000	8.61356	-3.50867	7.93983	-3.83843
2092.000	8.59230	-3.55589	8.02708	-3.91213
2093.000	8.61163	-3.59098	7.97667	-3.86162
2094.000	8.61549	-3.65755	8.02320	-3.88275
2095.000	8.58263	-3.67746	7.96892	-3.82639
2096.000	8.64255	-3.69059	7.99606	-3.95360
2097.000	8.58650	-3.70877	8.00188	-3.88492
2098.000	8.61743	-3.69084	8.05034	-3.86877
2099.000	8.64061	-3.72195	8.06003	-3.91769
2100.000	8.63095	-3.71813	8.05615	-3.91381
2101.000	8.64255	-3.71801	8.07747	-3.84890
2102.000	8.68312	-3.67649	8.01351	-3.86912
2103.000	8.57297	-3.70302	7.96698	-3.85583
2104.000	8.62129	-3.68296	8.04646	-3.86292
2105.000	8.61356	-3.65561	8.13173	-3.83662
2106.000	8.61936	-3.60854	7.95146	-3.78732
2107.000	8.63482	-3.58097	7.99606	-3.75160
2108.000	8.66573	-3.53561	7.98443	-3.69481
2109.000	8.68699	-3.52366	8.00575	-3.72993
2110.000	8.66960	-3.49639	7.91849	-3.64438
2111.000	8.65028	-3.39858	7.97861	-3.69879
2112.000	8.66767	-3.45134	7.94371	-3.71480
2113.000	8.65028	-3.44954	7.98055	-3.58104
2114.000	8.67153	-3.40427	7.93983	-3.57354
2115.000	8.68505	-3.34143	7.95340	-3.59501
2116.000	8.67926	-3.35717	7.96892	-3.60077
2117.000	8.66573	-3.30436	7.95534	-3.55771
2118.000	8.64255	-3.32417	8.01545	-3.60624
2119.000	8.67153	-3.33175	7.96892	-3.64394
2120.000	8.63095	-3.30075	7.94177	-3.60297
2121.000	8.63289	-3.29877	7.87388	-3.58982
2122.000	8.62516	-3.30668	7.94371	-3.65005
2123.000	8.60969	-3.34994	7.88164	-3.63293
2124.000	8.65801	-3.37696	7.96892	-3.69692
2125.000	8.62516	-3.28708	7.99218	-3.55935
2126.000	8.66767	-3.36511	7.91268	-3.60322
2127.000	8.60196	-3.30492	7.91656	-3.67776
2128.000	8.61163	-3.32052	7.93401	-3.65013
2129.000	8.64255	-3.29673	7.93013	-3.59718
2130.000	8.62902	-3.34193	7.94371	-3.64024
2131.000	8.61356	-3.36167	7.93401	-3.66976
2132.000	8.62322	-3.35766	7.96116	-3.68717
2133.000	8.63289	-3.33406	7.98249	-3.60653
2134.000	8.66960	-3.35137	7.94565	-3.69124
2135.000	8.60969	-3.37151	8.02126	-3.66113
2136.000	8.62516	-3.42429	8.02320	-3.67484
2137.000	8.59037	-3.35011	7.97085	-3.70082
2138.000	8.64834	-3.37116	7.92431	-3.66396
2139.000	8.60776	-3.41269	7.92237	-3.68360
2140.000	8.63675	-3.39871	8.00381	-3.65344
2141.000	8.61549	-3.42242	8.02320	-3.66700
2142.000	8.62129	-3.39296	7.91074	-3.60127
2143.000	8.60776	-3.39113	8.01351	-3.68866
2144.000	8.62902	-3.37917	7.89134	-3.66621
2145.000	8.58843	-3.37758	7.89716	-3.62887
2146.000	8.63095	-3.42620	7.92043	-3.66595
2147.000	8.64255	-3.43981	8.00769	-3.75149
2148.000	8.63868	-3.42221	7.93595	-3.61479
2149.000	8.63095	-3.46539	8.04065	-3.64526
2150.000	8.65414	-3.42795	8.03289	-3.63748
2151.000	8.63095	-3.42228	7.98249	-3.67717
2152.000	8.62322	-3.41059	7.99994	-3.67898
2153.000	8.66187	-3.42004	8.04258	-3.66878
2154.000	8.67539	-3.40032	8.05421	-3.60394
2155.000	8.60583	-3.45778	7.93789	-3.70700
2156.000	8.62902	-3.43993	7.99412	-3.66530
2157.000	8.64834	-3.42604	8.11429	-3.74070
2158.000	8.62709	-3.44975	8.03871	-3.71982
2159.000	8.61356	-3.39107	7.97667	-3.63798
2160.000	8.65801	-3.45339	8.02514	-3.73564
2161.000	8.66380	-3.42394	7.99412	-3.60643
2162.000	8.66380	-3.42982	7.96698	-3.67731
2163.000	8.65414	-3.40051	8.02320	-3.73762
2164.000	8.65801	-3.48474	7.99024	-3.68887
2165.000	8.67539	-3.43559	7.98637	-3.66733
2166.000	8.63482	-3.44576	8.00575	-3.68677
2167.000	8.68699	-3.42177	8.07941	-3.71749
2168.000	8.65414	-3.42599	7.95728	-3.69898
2169.000	8.67346	-3.43953	7.92043	-3.67380
2170.000	8.63868	-3.45356	8.02902	-3.67087
2171.000	8.64834	-3.41624	8.01738	-3.75729
2172.000	8.61549	-3.43614	8.03095	-3.70420
2173.000	8.65028	-3.42994	7.97473	-3.69882
2174.000	8.61936	-3.38710	8.02320	-3.72389
2175.000	8.66187	-3.43571	8.02902	-3.66302
2176.000	8.65414	-3.46518	7.96310	-3.76367
2177.000	8.64448	-3.40844	7.98443	-3.63006
2178.000	8.66187	-3.41808	8.00575	-3.75347
2179.000	8.68312	-3.41201	8.02514	-3.71210
2180.000	8.63675	-3.40851	7.87776	-3.70951
2181.000	8.63868	-3.47708	8.02708	-3.67873
2182.000	8.60969	-3.47539	8.10072	-3.68199
2183.000	8.64061	-3.42219	8.00575	-3.70443
2184.000	8.64641	-3.43586	8.03677	-3.68649
2185.000	8.67346	-3.42581	7.95922	-3.64206
2186.000	8.65028	-3.41034	7.95922	-3.57337
2187.000	8.63289	-3.46537	8.04065	-3.71784
2188.000	8.67539	-3.49634	7.96698	-3.74402
2189.000	8.65994	-3.42985	8.10848	-3.72703
2190.000	8.65028	-3.42406	7.93789	-3.70112
2191.000	8.63289	-3.47517	8.00963	-3.64554
2192.000	8.67733	-3.44341	7.99606	-3.68686
2193.000	8.67153	-3.46894	7.94177	-3.59708
2194.000	8.64834	-3.44172	8.05034	-3.62163
2195.000	8.63868	-3.44376	8.04258	-3.66486
2196.000	8.65801	-3.43379	8.04452	-3.66680
2197.000	8.65994	-3.42985	8.02126	-3.62385
2198.000	8.64834	-3.45544	8.00188	-3.73193
2199.000	8.65414	-3.42011	8.08135	-3.71159
2200.000	8.61936	-3.45178	7.93789	-3.61870
2201.000	8.59230	-3.45007	8.00963	-3.67497
2202.000	8.66767	-3.46114	7.95340	-3.74414
2203.000	8.62516	-3.44781	8.05228	-3.63927
2204.000	8.61936	-3.44394	7.97085	-3.63411
2205.000	8.65801	-3.44555	7.96698	-3.63022
2206.000	8.65994	-3.43573	7.98249	-3.63008
2207.000	8.63675	-3.48886	7.96116	-3.74996
2208.000	8.67733	-3.45321	7.95340	-3.61660
2209.000	8.68505	-3.47273	7.99024	-3.67710
2210.000	8.61936	-3.45178	7.96504	-3.69695
2211.000	8.66573	-3.48663	7.97861	-3.72233
2212.000	8.60776	-3.44993	7.96116	-3.59298
2213.000	8.64061	-3.43983	8.01351	-3.70240
2214.000	8.66573	-3.44940	7.97861	-3.69487
2215.000	8.63095	-3.40072	7.93013	-3.67960
2216.000	8.62516	-3.39881	7.88358	-3.64862
2217.000	8.65801	-3.39851	7.98249	-3.70268
2218.000	8.62902	-3.40269	7.98830	-3.67712
2219.000	8.68312	-3.40025	8.01545	-3.65137
2220.000	8.61356	-3.41851	8.00769	-3.58473
2221.000	8.66767	-3.41019	7.99994	-3.62404
2222.000	8.61936	-3.38710	7.97667	-3.59088
2223.000	8.64255	-3.41041	8.00769	-3.72599
2224.000	8.63095	-3.44971	7.96892	-3.64982
2225.000	8.62516	-3.44781	7.92431	-3.67377
2226.000	8.64061	-3.42023	7.94759	-3.66571
2227.000	8.63289	-3.46929	7.98830	-3.63592
2228.000	8.66767	-3.45918	8.04646	-3.72564
2229.000	8.64255	-3.44177	7.93207	-3.69332
2230.000	8.63095	-3.49283	8.05228	-3.69812
2231.000	8.64641	-3.43977	8.02902	-3.66302
2232.000	8.66380	-3.43178	7.87000	-3.62714
2233.000	8.64834	-3.42212	7.93207	-3.64819
2234.000	8.66767	-3.45330	8.05809	-3.61175
2235.000	8.65994	-3.41026	8.04452	-3.60991
2236.000	8.64255	-3.48880	7.94371	-3.66182
2237.000	8.63868	-3.50451	7.96892	-3.65963
2238.000	8.62709	-3.44191	8.09297	-3.62125
2239.000	8.62129	-3.48508	7.96504	-3.66556
2240.000	8.61549	-3.46357	7.96504	-3.70676
2241.000	8.66960	-3.47288	8.03483	-3.75909
2242.000	8.63289	-3.48497	7.93789	-3.61477
2243.000	8.63482	-3.43792	8.01157	-3.70438
2244.000	8.64061	-3.46922	8.04258	-3.61385
2245.000	8.66187	-3.48470	8.03483	-3.71790
2246.000	8.66380	-3.46313	8.05421	-3.68437
2247.000	8.63095	-3.49087	8.00963	-3.66319
2248.000	8.64641	-3.48485	8.06778	-3.69602
2249.000	8.65607	-3.46712	8.04452	-3.74135
2250.000	8.66187	-3.47883	8.14141	-3.70123
2251.000	8.69471	-3.45893	8.06003	-3.73532
2252.000	8.71017	-3.46858	8.08328	-3.61545
2253.000	8.67346	-3.44149	7.97667	-3.64387
2254.000	8.69278	-3.46874	7.97667	-3.66153
2255.000	8.71017	-3.45291	8.08522	-3.65271
2256.000	8.69858	-3.46869	8.04840	-3.67069
2257.000	8.62902	-3.47913	7.94371	-3.60884
2258.000	8.59617	-3.48335	7.97279	-3.59484
2259.000	8.53430	-3.42707	8.01351	-3.70632
2260.000	8.41633	-3.42812	7.77298	-3.69081
2261.000	8.23438	-3.35122	7.75940	-3.79495
2262.000	7.99994	-3.37281	7.43306	-3.75855
2263.000	7.71475	-3.27492	7.18410	-3.66826
2264.000	7.39807	-3.28911	6.89006	-3.65287
2265.000	7.03810	-3.23268	6.54687	-3.64954
2266.000	6.56443	-3.15114	6.09377	-3.70198
2267.000	6.05662	-3.04968	5.70254	-3.52910
2268.000	5.51652	-2.99533	5.33234	-3.62403
2269.000	4.98328	-2.99393	4.92834	-3.55722
2270.000	4.46293	-2.85968	4.33911	-3.44358
2271.000	3.96545	-2.80805	3.89265	-3.39013
2272.000	3.45753	-2.77598	3.45950	-3.44322
2273.000	3.04369	-2.71766	2.95300	-3.33009
2274.000	2.59798	-2.63144	2.60784	-3.17258
2275.000	2.18156	-2.53503	2.19143	-3.16364
2276.000	1.89130	-2.40648	1.85971	-3.04731
2277.000	1.70367	-2.40276	1.72935	-2.84523
2278.000	1.53181	-2.35531	1.41129	-2.87939
2279.000	1.42117	-2.22835	1.30262	-2.79421
2280.000	1.30064	-2.13512	1.09710	-2.68130
2281.000	1.24334	-2.06962	1.04374	-2.60989
2282.000	1.18406	-2.01404	0.87377	-2.52863
2283.000	1.05560	-1.96247	0.72157	-2.47908
2284.000	0.93504	-1.95658	0.68203	-2.39570
2285.000	0.78680	-1.92686	0.52587	-2.40967
2286.000	0.68006	-1.89908	0.30643	-2.45740
2287.000	0.51598	-1.87927	0.11269	-2.46140
2288.000	0.46656	-1.83755	0.08501	-2.44552
2289.000	0.33016	-1.82367	-0.12060	-2.44552
2290.000	0.26096	-1.81573	-0.24910	-2.41372
2291.000	0.25108	-1.85349	-0.32027	-2.42761
2292.000	0.35783	-1.83559	-0.24910	-2.41174
2293.000	0.37760	-1.85744	-0.11467	-2.40977
2294.000	0.48238	-1.78786	-0.12060	-2.32040
2295.000	0.60692	-1.78981	0.06722	-2.35019
2296.000	0.74924	-1.86130	0.20956	-2.33230
2297.000	0.87574	-1.83541	0.29457	-2.30051
2298.000	0.94295	-1.89300	0.52982	-2.35605
2299.000	1.01805	-1.89693	0.72947	-2.30631
2300.000	1.11884	-1.91674	0.77494	-2.30430
2301.000	1.11489	-1.97038	0.81447	-2.33606
2302.000	1.08920	-1.92470	0.85993	-2.35589
2303.000	1.01607	-2.00223	0.87970	-2.50877
2304.000	0.99038	-1.97841	0.87574	-2.53260
2305.000	0.89749	-2.02018	0.86586	-2.54054
2306.000	0.77296	-2.04210	0.70971	-2.57836
2307.000	0.71168	-2.01829	0.55750	-2.59432
2308.000	0.59901	-2.06006	0.43296	-2.64201
2309.000	0.46656	-1.96671	0.30643	-2.69366
2310.000	0.40330	-2.00846	0.12060	-2.69766
2311.000	0.30841	-2.02239	0.05733	-2.71752
2312.000	0.26887	-2.00650	-0.02966	-2.61826
2313.000	0.25701	-1.94689	-0.06524	-2.64407
2314.000	0.29062	-1.94887	-0.20363	-2.55074
2315.000	0.21945	-1.89125	-0.14432	-2.54877
2316.000	0.22142	-1.90715	-0.13839	-2.53685
2317.000	0.25503	-1.91112	-0.28073	-2.42166
2318.000	0.23329	-1.83561	-0.22538	-2.38990
2319.000	0.25701	-1.83560	-0.31632	-2.39385
2320.000	0.22340	-1.78592	-0.13048	-2.38792
2321.000	0.26887	-1.80380	-0.16804	-2.26478
2322.000	0.29655	-1.78591	-0.18386	-2.31046
2323.000	0.30446	-1.75212	-0.12060	-2.30054
2324.000	0.30643	-1.82566	-0.09885	-2.31841
2325.000	0.30841	-1.75212	-0.05931	-2.33431
2326.000	0.34004	-1.76802	-0.13048	-2.32437
2327.000	0.31632	-1.78591	-0.11269	-2.29259
2328.000	0.35190	-1.84354	-0.04745	-2.36410
2329.000	0.38551	-1.80179	-0.00198	-2.37204
2330.000	0.37365	-1.81571	-0.03559	-2.38197
2331.000	0.40133	-1.80378	0.04943	-2.36012
2332.000	0.41516	-1.79583	0.04152	-2.36013
2333.000	0.39737	-1.81372	0.01186	-2.33828
2334.000	0.46261	-1.77395	0.00395	-2.29061
2335.000	0.46261	-1.76402	0.09094	-2.38793
2336.000	0.41912	-1.79583	0.02768	-2.30451
2337.000	0.51796	-1.77593	0.04547	-2.36410
2338.000	0.46854	-1.77991	0.01582	-2.33629
2339.000	0.43889	-1.73620	0.10083	-2.41374
2340.000	0.47052	-1.78588	0.14037	-2.34026
2341.000	0.48040	-1.77792	0.01977	-2.33232
2342.000	0.50808	-1.78785	0.14630	-2.34423
2343.000	0.45470	-1.80377	0.11664	-2.30451
2344.000	0.50412	-1.75407	0.13048	-2.40381
2345.000	0.49819	-1.80574	0.10676	-2.37005
2346.000	0.50412	-1.81766	0.06722	-2.41573
2347.000	0.49622	-1.84152	0.13839	-2.33430
2348.000	0.51203	-1.77990	0.15816	-2.39586
2349.000	0.51401	-1.80971	0.12060	-2.43161
2350.000	0.50215	-1.81170	0.11071	-2.34026
2351.000	0.55750	-1.77393	0.10676	-2.39984
2352.000	0.51994	-1.77195	0.15223	-2.38594
2353.000	0.50017	-1.79382	0.03361	-2.36807
2354.000	0.53773	-1.83157	0.13048	-2.33827
2355.000	0.49028	-1.80177	0.11071	-2.37998
2356.000	0.51005	-1.81568	0.06129	-2.40779
2357.000	0.53180	-1.79977	0.13641	-2.38395
2358.000	0.54761	-1.78585	0.05931	-2.38991
2359.000	0.55552	-1.76399	0.04152	-2.39985
2360.000	0.56540	-1.76796	0.08501	-2.37204
2361.000	0.57133	-1.74411	0.10083	-2.39388
2362.000	0.50215	-1.81170	0.19770	-2.47529
2363.000	0.52587	-1.73021	0.13444	-2.38991
2364.000	0.50215	-1.82363	0.11862	-2.44949
2365.000	0.52784	-1.77791	0.08699	-2.37998
2366.000	0.52587	-1.75406	0.09094	-2.33828
2367.000	0.51401	-1.73419	0.09885	-2.46736
2368.000	0.50610	-1.82363	0.12850	-2.45346
2369.000	0.51994	-1.80176	0.11862	-2.44949
2370.000	0.49226	-1.80574	0.15618	-2.46140
2371.000	0.56738	-1.77194	0.13444	-2.42764
2372.000	0.47842	-1.77792	0.15816	-2.48721
2373.000	0.53180	-1.76400	0.03756	-2.47332
2374.000	0.49226	-1.74413	0.15025	-2.35615
2375.000	0.49028	-1.76003	0.07908	-2.43559
2376.000	0.51994	-1.71034	0.08501	-2.45942
2377.000	0.50412	-1.74214	0.10478	-2.43559
2378.000	0.53378	-1.72425	0.08303	-2.43559
2379.000	0.53575	-1.74810	0.09094	-2.48722
2380.000	0.49622	-1.74413	0.09885	-2.38991
2381.000	0.49622	-1.75804	0.08897	-2.37403
2382.000	0.53575	-1.72822	0.04349	-2.39389
2383.000	0.52784	-1.76002	0.05536	-2.46339
2384.000	0.54168	-1.74611	0.08897	-2.41772
2385.000	0.61482	-1.75403	0.04349	-2.40382
2386.000	0.57924	-1.80373	0.06722	-2.48325
2387.000	0.50412	-1.79183	0.11664	-2.51104
2388.000	0.54168	-1.77592	0.07513	-2.50509
2389.000	0.55354	-1.80573	0.08699	-2.43360
2390.000	0.51598	-1.82561	0.05140	-2.42368
2391.000	0.55750	-1.73418	0.12455	-2.41970
2392.000	0.48040	-1.83953	0.13444	-2.53288
2393.000	0.49622	-1.81568	0.09490	-2.46339
2394.000	0.55354	-1.80175	0.12455	-2.40778
2395.000	0.53575	-1.79579	0.10676	-2.37601
2396.000	0.52587	-1.78189	0.09292	-2.44949
2397.000	0.54959	-1.77790	0.07117	-2.44155
2398.000	0.51796	-1.77195	0.09885	-2.41176
2399.000	0.53575	-1.79579	0.12653	-2.36608
2400.000	0.53180	-1.80772	0.14234	-2.45743
2401.000	0.53180	-1.80772	0.11071	-2.46339
2402.000	0.52587	-1.74214	0.13839	-2.45346
2403.000	0.50017	-1.77394	-0.00395	-2.46538
2404.000	0.52784	-1.72226	0.16014	-2.44353
2405.000	0.52982	-1.73617	0.09687	-2.47133
2406.000	0.52191	-1.77990	0.13048	-2.36806
2407.000	0.58913	-1.78584	0.08897	-2.39587
2408.000	0.53575	-1.76201	0.06129	-2.38793
2409.000	0.51796	-1.75605	0.07710	-2.46935
2410.000	0.48831	-1.77395	0.07710	-2.39786
2411.000	0.51203	-1.78189	0.04349	-2.44155
2412.000	0.54366	-1.79778	0.06326	-2.45346
2413.000	0.50808	-1.77593	0.14234	-2.40977
2414.000	0.54366	-1.75406	0.08699	-2.49715
2415.000	0.50412	-1.80574	0.06920	-2.50509
2416.000	0.53180	-1.79580	-0.01186	-2.36807
2417.000	0.44877	-1.81370	0.07908	-2.37800
2418.000	0.51994	-1.82164	0.15025	-2.44551
2419.000	0.58320	-1.74808	0.10478	-2.46935
2420.000	0.57133	-1.79777	0.18386	-2.37997
2421.000	0.51598	-1.79580	0.05536	-2.37998
2422.000	0.50215	-1.81767	0.12653	-2.49913
2423.000	0.55157	-1.78387	0.10280	-2.37005
2424.000	0.52389	-1.80375	0.09687	-2.41772
2425.000	0.52587	-1.77195	0.06326	-2.42368
2426.000	0.45272	-1.78588	0.13839	-2.43757
2427.000	0.49226	-1.80574	0.11071	-2.41970
2428.000	0.53971	-1.75406	0.12060	-2.38197
2429.000	0.54761	-1.81169	0.03163	-2.33431
2430.000	0.51203	-1.79779	0.05931	-2.41176
2431.000	0.53773	-1.78586	-0.01186	-2.47332
2432.000	0.45668	-1.80377	-0.00791	-2.35615
2433.000	0.48238	-1.80575	0.05140	-2.40977
2434.000	0.49226	-1.77991	0.06920	-2.37800
2435.000	0.47249	-1.76600	0.05536	-2.32239
2436.000	0.51401	-1.80176	0.03559	-2.32636
2437.000	0.49028	-1.78786	0.12455	-2.37799
2438.000	0.49424	-1.79382	0.11862	-2.42169
2439.000	0.49819	-1.81767	0.05140	-2.37403
2440.000	0.50610	-1.81965	0.03361	-2.42368
2441.000	0.56343	-1.79579	0.09292	-2.39388
2442.000	0.55750	-1.89913	0.09687	-2.33033
2443.000	0.51994	-1.76599	0.00989	-2.39786
2444.000	0.49226	-1.84748	0.05338	-2.33431
2445.000	0.51203	-1.81965	0.15816	-2.34026
2446.000	0.51401	-1.81369	0.09292	-2.36409
2447.000	0.49028	-1.81767	0.13641	-2.41771
2448.000	0.51005	-1.83754	0.12060	-2.46140
2449.000	0.47447	-1.83556	0.07513	-2.41176
2450.000	0.53971	-1.76201	0.09885	-2.35218
2451.000	0.47447	-1.80972	0.12060	-2.43161
2452.000	0.48633	-1.83158	0.13444	-2.41771
2453.000	0.53378	-1.80573	0.12653	-2.35813
2454.000	0.50610	-1.76599	0.14432	-2.43956
2455.000	0.49226	-1.84549	0.11862	-2.37998
2456.000	0.52191	-1.81965	0.12060	-2.45346
2457.000	0.51401	-1.79580	0.06129	-2.28465
2458.000	0.48238	-1.80773	0.18188	-2.41175
2459.000	0.48435	-1.80972	0.15816	-2.31642
2460.000	0.47645	-1.76401	0.01186	-2.39985
2461.000	0.50017	-1.80972	0.06129	-2.32437
2462.000	0.47842	-1.81370	0.01384	-2.40382
2463.000	0.47249	-1.79780	0.05931	-2.39190
2464.000	0.50215	-1.85940	0.10083	-2.32040
2465.000	0.53378	-1.78586	0.06920	-2.38594
2466.000	0.49424	-1.82562	0.10280	-2.44552
2467.000	0.48238	-1.80177	0.03559	-2.37800
2468.000	0.50808	-1.84350	0.08897	-2.45346
2469.000	0.49819	-1.85344	-0.01582	-2.41176
2470.000	0.49226	-1.81767	0.18386	-2.49714
2471.000	0.52389	-1.84349	0.09292	-2.41573
2472.000	0.46459	-1.86935	0.10083	-2.40381
2473.000	0.49622	-1.81767	0.07513	-2.43360
2474.000	0.48238	-1.77594	0.08699	-2.41573
2475.000	0.47645	-1.77792	0.08303	-2.37403
2476.000	0.48435	-1.78985	0.14234	-2.32635
2477.000	0.50412	-1.78587	0.07908	-2.40382
2478.000	0.53378	-1.77592	0.18584	-2.42366
2479.000	0.46656	-1.78389	0.09885	-2.30848
2480.000	0.47447	-1.81171	0.22142	-2.40380
2481.000	0.47052	-1.80376	0.09885	-2.36608
2482.000	0.48435	-1.77196	0.13246	-2.35218
2483.000	0.47842	-1.85344	0.09687	-2.37998
2484.000	0.51401	-1.79381	0.09885	-2.37601
2485.000	0.52389	-1.81766	0.17398	-2.43955
2486.000	0.49622	-1.83158	0.12850	-2.38197
2487.000	0.51401	-1.79580	0.05733	-2.46141
2488.000	0.50017	-1.82562	0.11269	-2.46140
2489.000	0.51005	-1.77792	0.09885	-2.46935
2490.000	0.48435	-1.83357	0.23724	-2.46139
2491.000	0.46854	-1.86140	0.11862	-2.39190
2492.000	0.50808	-1.80971	0.16607	-2.43161
2493.000	0.52784	-1.81965	0.06326	-2.36211
2494.000	0.45470	-1.78985	0.08897	-2.39190
2495.000	0.48040	-1.80575	0.05733	-2.42566
2496.000	0.50412	-1.84151	0.16211	-2.38395
2497.000	0.54168	-1.82759	0.12060	-2.39984
2498.000	0.50808	-1.85741	0.11071	-2.39388
2499.000	0.51005	-1.84549	0.05140	-2.40382
2500.000	0.48238	-1.84351	0.15025	-2.33827
2501.000	0.49424	-1.82562	0.08897	-2.39786
2502.000	0.50610	-1.83754	0.10280	-2.48523
2503.000	0.51401	-1.83157	0.15618	-2.40778
2504.000	0.49424	-1.77593	0.14432	-2.42168
2505.000	0.52587	-1.84747	0.11269	-2.35416
2506.000	0.51005	-1.81568	0.05931	-2.38197
2507.000	0.46854	-1.82761	0.08303	-2.35019
2508.000	0.52982	-1.79580	0.10083	-2.43757
2509.000	0.53971	-1.80971	0.04745	-2.32636
2510.000	0.50215	-1.80375	0.07513	-2.37204
2511.000	0.49424	-1.79183	0.13048	-2.37402
2512.000	0.49424	-1.79382	0.06326	-2.42169
2513.000	0.49819	-1.78984	0.15223	-2.35813
2514.000	0.46261	-1.86338	0.04943	-2.37204
2515.000	0.46459	-1.84152	0.17793	-2.32436
2516.000	0.51401	-1.79779	0.15816	-2.39785
2517.000	0.53773	-1.82163	0.17200	-2.37600
2518.000	0.55947	-1.79579	0.06920	-2.34026
2519.000	0.56343	-1.80175	0.15618	-2.33628
2520.000	0.54564	-1.80573	0.07513	-2.31842
2521.000	0.51401	-1.80176	0.05140	-2.39984
2522.000	0.52587	-1.78984	0.14037	-2.37402
2523.000	0.55157	-1.79182	0.11071	-2.34423
2524.000	0.51401	-1.78785	0.05140	-2.31047
2525.000	0.56145	-1.80374	0.08106	-2.35615
2526.000	0.54959	-1.80771	0.09687	-2.37204
2527.000	0.53971	-1.80971	0.03163	-2.38992
2528.000	0.55750	-1.76200	0.05733	-2.34821
2529.000	0.55947	-1.77790	0.15618	-2.31642
2530.000	0.51401	-1.78388	0.12850	-2.39388
2531.000	0.55552	-1.77393	0.12257	-2.39587
2532.000	0.52982	-1.77990	0.08699	-2.38396
2533.000	0.53180	-1.78188	0.12060	-2.32834
2534.000	0.52389	-1.82760	0.00395	-2.37800
2535.000	0.54168	-1.81964	0.06524	-2.38594
2536.000	0.54564	-1.76399	0.10280	-2.28862
2537.000	0.56936	-1.76200	0.08897	-2.32835
2538.000	0.59308	-1.79578	0.04943	-2.28068
2539.000	0.56936	-1.76597	0.15421	-2.30252
2540.000	0.53378	-1.80573	0.04745	-2.35019
2541.000	0.52784	-1.81368	0.05931	-2.43758
2542.000	0.51796	-1.82760	0.09490	-2.31444
2543.000	0.53378	-1.87330	0.10676	-2.30252
2544.000	0.54959	-1.80175	0.08303	-2.33430
2545.000	0.51994	-1.78189	0.13839	-2.34622
2546.000	0.58122	-1.79777	0.11664	-2.34423
2547.000	0.51203	-1.81965	0.10280	-2.33232
2548.000	0.53575	-1.77990	0.03163	-2.28068
2549.000	0.52191	-1.76996	0.12060	-2.31245
2550.000	0.55354	-1.82163	0.11071	-2.27472
2551.000	0.57924	-1.81168	0.07513	-2.35019
2552.000	0.54168	-1.81567	0.09490	-2.36012
2553.000	0.55947	-1.80374	0.05536	-2.33232
2554.000	0.52389	-1.80772	0.08699	-2.31246
2555.000	0.55552	-1.79181	0.08106	-2.32437
2556.000	0.54366	-1.79778	0.01977	-2.35020
2557.000	0.55354	-1.81964	0.11467	-2.32437
2558.000	0.57133	-1.80771	0.07908	-2.34423
2559.000	0.53378	-1.79977	0.10083	-2.33232
2560.000	0.56145	-1.84944	0.17595	-2.29854
2561.000	0.52587	-1.83356	0.17991	-2.38395
2562.000	0.55552	-1.81566	0.14234	-2.37601
2563.000	0.57133	-1.85540	0.16607	-2.35416
2564.000	0.56343	-1.84348	0.14234	-2.37402
2565.000	0.50412	-1.88126	0.10874	-2.25485
2566.000	0.49819	-1.85145	0.14234	-2.30252
2567.000	0.39935	-1.83160	0.05536	-2.33232
2568.000	0.21945	-1.84555	0.00593	-2.37800
2569.000	0.10676	-1.82767	-0.20561	-2.32039
2570.000	-0.17002	-1.76605	-0.34202	-2.20118
2571.000	-0.47645	-1.67855	-0.64250	-2.24081
2572.000	-0.68994	-1.52344	-1.04769	-2.24058
2573.000	-1.00224	-1.36230	-1.32238	-1.99010
2574.000	-1.50613	-1.16922	-1.85378	-1.79295
2575.000	-1.95055	-0.97615	-2.26447	-1.56805
2576.000	-2.43815	-0.71551	-2.71042	-1.44837
2577.000	-2.83863	-0.42322	-3.31568	-1.24311
2578.000	-3.30780	-0.20258	-3.72141	-0.94092
2579.000	-3.72731	0.06750	-4.13266	-0.57740
2580.000	-4.12086	0.41471	-4.65349	-0.23200
2581.000	-4.48651	0.64852	-5.04802	0.06143
2582.000	-4.80272	0.95347	-5.39114	0.53674
2583.000	-5.12256	1.14515	-5.70254	0.86502
2584.000	-5.33234	1.42194	-6.08595	0.92177
2585.000	-5.59290	1.64094	-6.40243	1.21964
2586.000	-5.80236	1.79656	-6.55467	1.33583
2587.000	-5.97255	1.87508	-6.84134	1.55613
2588.000	-6.03121	2.01914	-6.93877	1.66434
2589.000	-6.01948	2.14563	-7.14323	1.69320
2590.000	-6.17194	2.16280	-7.23081	1.70470
2591.000	-6.19148	2.18247	-7.26777	1.82877
2592.000	-6.28526	2.21762	-7.33779	1.82257
2593.000	-6.28721	2.19195	-7.38446	1.82041
2594.000	-6.29307	2.12676	-7.34363	1.75158
2595.000	-6.32042	2.20168	-7.39418	1.77306
2596.000	-6.37705	2.21920	-7.52635	1.80603
2597.000	-6.51565	2.19886	-7.58658	1.87472
2598.000	-6.63661	2.23976	-7.52052	1.84152
2599.000	-6.71267	2.27887	-7.67009	1.86648
2600.000	-6.81990	2.35528	-7.69339	1.89198
2601.000	-6.88421	2.39439	-7.69922	2.02192
2602.000	-7.00694	2.45487	-7.80986	2.02139
2603.000	-7.01668	2.58095	-7.70504	2.20105
2604.000	-7.09457	2.61204	-7.78269	2.31676
2605.000	-7.14907	2.75551	-7.75357	2.44483
2606.000	-7.06926	2.81311	-7.71669	2.54737
2607.000	-7.03226	2.88424	-7.64485	2.59109
2608.000	-7.02642	2.90397	-7.75940	2.63367
2609.000	-6.96994	2.92795	-7.64291	2.62849
2610.000	-6.86473	2.95028	-7.60212	2.65432
2611.000	-6.89980	2.93233	-7.60989	2.60508
2612.000	-6.85888	2.89515	-7.52830	2.56227
2613.000	-6.80820	2.90531	-7.45445	2.51545
2614.000	-6.83354	2.80269	-7.43501	2.50768
2615.000	-6.88811	2.76691	-7.38641	2.41540
2616.000	-6.92513	2.70364	-7.41946	2.42507
2617.000	-6.96214	2.66007	-7.36307	2.26189
2618.000	-7.02836	2.63211	-7.33974	2.25807
2619.000	-7.14907	2.55854	-7.43501	2.23592
2620.000	-7.15102	2.57035	-7.49332	2.23956
2621.000	-7.16464	2.58603	-7.56133	2.18801
2622.000	-7.14129	2.57631	-7.58658	2.31193
2623.000	-7.24832	2.59146	-7.70310	2.26799
2624.000	-7.24832	2.65842	-7.80015	2.31273
2625.000	-7.27555	2.71930	-7.80986	2.35203
2626.000	-7.31251	2.73680	-7.84672	2.45413
2627.000	-7.31056	2.78603	-7.93207	2.46935
2628.000	-7.32807	2.83316	-7.91849	2.50287
2629.000	-7.25999	2.88280	-7.95340	2.62064
2630.000	-7.39224	2.92327	-8.00575	2.59671
2631.000	-7.37085	2.91358	-8.02514	2.69291
2632.000	-7.34946	2.91175	-8.07166	2.68278
2633.000	-7.31445	2.95134	-7.97667	2.67161
2634.000	-7.33001	2.92565	-8.01738	2.68510
2635.000	-7.36502	2.96478	-7.96310	2.73460
2636.000	-7.27166	3.00476	-7.96698	2.72672
2637.000	-7.34557	2.90784	-7.91462	2.65825
2638.000	-7.29889	2.96128	-7.96310	2.71888
2639.000	-7.26388	2.97135	-7.94565	2.63642
2640.000	-7.33779	2.92757	-7.88552	2.64467
2641.000	-7.29500	2.98492	-7.86418	2.69397
2642.000	-7.28139	2.90825	-7.85254	2.52884
2643.000	-7.25610	2.92810	-7.87194	2.58773
2644.000	-7.22886	2.98536	-7.85060	2.53475
2645.000	-7.26972	2.92014	-7.80015	2.62554
2646.000	-7.20746	2.97566	-7.89134	2.69969
2647.000	-7.20356	2.92451	-7.75940	2.61203
2648.000	-7.26388	2.89853	-7.74969	2.55110
2649.000	-7.28722	2.93971	-7.81956	2.55461
2650.000	-7.33779	2.88821	-7.82150	2.53886
2651.000	-7.24248	2.89670	-7.73804	2.54134
2652.000	-7.20940	2.89888	-7.76910	2.56476
2653.000	-7.31445	2.87655	-7.75357	2.55895
2654.000	-7.26193	2.88082	-7.78851	2.61185
2655.000	-7.21329	2.92641	-7.69533	2.62226
2656.000	-7.31640	2.87260	-7.78269	2.57648
2657.000	-7.29111	2.90819	-7.80015	2.63144
2658.000	-7.29500	2.82746	-7.79433	2.51739
2659.000	-7.26582	2.92804	-7.76522	2.58642
2660.000	-7.22108	2.90668	-7.74581	2.57277
2661.000	-7.25999	2.92414	-7.80791	2.58222
2662.000	-7.27361	2.93389	-7.79433	2.49575
2663.000	-7.33390	2.89217	-7.79239	2.55281
2664.000	-7.31445	2.89229	-7.81374	2.54875
2665.000	-7.30667	2.89628	-7.80403	2.59208
2666.000	-7.30084	2.93175	-7.81180	2.54679
2667.000	-7.30278	2.89237	-7.78851	2.56857
2668.000	-7.27750	2.83151	-7.83896	2.57613
2669.000	-7.28333	2.87281	-7.76522	2.55494
2670.000	-7.30084	2.86286	-7.84090	2.57218
2671.000	-7.29695	2.85895	-7.85836	2.56224
2672.000	-7.26388	2.88868	-7.76522	2.56675
2673.000	-7.27944	2.83740	-7.83508	2.57222
2674.000	-7.29889	2.82153	-7.82344	2.65883
2675.000	-7.24637	2.85730	-7.82926	2.58996
2676.000	-7.22691	2.85348	-7.79433	2.54100
2677.000	-7.24442	2.80612	-7.76910	2.61984
2678.000	-7.26193	2.81389	-7.81180	2.65301
2679.000	-7.24248	2.86914	-7.80597	2.65304
2680.000	-7.26193	2.84342	-7.83702	2.68628
2681.000	-7.22691	2.83773	-7.87582	2.59163
2682.000	-7.29111	2.81961	-7.80209	2.58816
2683.000	-7.21719	2.85158	-7.86030	2.60156
2684.000	-7.22302	2.86335	-7.85448	2.58193
2685.000	-7.25610	2.86314	-7.82732	2.59784
2686.000	-7.26388	2.80207	-7.81762	2.56249
2687.000	-7.24442	2.90849	-7.83120	2.50537
2688.000	-7.23081	2.88496	-7.81568	2.61561
2689.000	-7.24637	2.84549	-7.81956	2.63329
2690.000	-7.18410	2.89313	-7.87582	2.56410
2691.000	-7.26193	2.86507	-7.85060	2.63703
2692.000	-7.24442	2.85534	-7.84478	2.58003
2693.000	-7.24832	2.87107	-7.83702	2.65284
2694.000	-7.21719	2.89883	-7.87000	2.60544
2695.000	-7.22497	2.85153	-7.85254	2.65668
2696.000	-7.20746	2.85164	-7.81956	2.59789
2697.000	-7.19189	2.88717	-7.88940	2.60335
2698.000	-7.17632	2.87152	-7.79045	2.68068
2699.000	-7.20746	2.82604	-7.77298	2.62965
2700.000	-7.27750	2.87088	-7.81956	2.61952
2701.000	-7.23081	2.82196	-7.88164	2.59160
2702.000	-7.17437	2.89319	-7.78851	2.58628
2703.000	-7.15686	2.84802	-7.88358	2.61125
2704.000	-7.21913	2.81416	-7.81374	2.65693
2705.000	-7.20551	2.83984	-7.93983	2.61286
2706.000	-7.18994	2.82812	-7.84090	2.65282
2707.000	-7.28528	2.84918	-7.86612	2.63299
2708.000	-7.18605	2.87343	-7.88552	2.62697
2709.000	-7.20162	2.84971	-7.85060	2.65669
2710.000	-7.23081	2.86133	-7.87388	2.61328
2711.000	-7.21524	2.90868	-7.91074	2.64451
2712.000	-7.16464	2.85781	-7.85836	2.71563
2713.000	-7.22497	2.87515	-7.85836	2.64681
2714.000	-7.21719	2.93032	-7.90298	2.60326
2715.000	-7.23664	2.81602	-7.83314	2.60763
2716.000	-7.24248	2.78448	-7.86612	2.64479
2717.000	-7.28722	2.84720	-7.87000	2.58380
2718.000	-7.26972	2.85715	-7.86224	2.56222
2719.000	-7.24053	2.82387	-7.87194	2.56412
2720.000	-7.22497	2.78656	-7.81956	2.63919
2721.000	-7.16075	2.87162	-7.80403	2.63732
2722.000	-7.16075	2.86571	-7.84090	2.68035
2723.000	-7.28333	2.82557	-7.85254	2.60358
2724.000	-7.24832	2.84351	-7.83508	2.62729
2725.000	-7.23470	2.84950	-7.80015	2.56653
2726.000	-7.25804	2.87494	-7.86806	2.63888
2727.000	-7.26193	2.85720	-7.87776	2.60736
2728.000	-7.20746	2.85558	-7.88164	2.72728
2729.000	-7.27166	2.83942	-7.82344	2.55262
2730.000	-7.29500	2.84321	-7.83896	2.59973
2731.000	-7.27750	2.77442	-7.88358	2.56799
2732.000	-7.28528	2.81768	-7.85254	2.54654
2733.000	-7.23664	2.88886	-7.87582	2.60933
2734.000	-7.22108	2.86927	-7.83120	2.65485
2735.000	-7.27944	2.82165	-7.79045	2.67478
2736.000	-7.24442	2.80219	-7.77104	2.57655
2737.000	-7.27944	2.80591	-7.83508	2.62926
2738.000	-7.26582	2.83946	-7.86612	2.65069
2739.000	-7.24832	2.85729	-7.81762	2.61757
2740.000	-7.26777	2.88079	-7.93207	2.60701
2741.000	-7.23081	2.86330	-7.78269	2.60598
2742.000	-7.24637	2.84746	-7.78657	2.63153
2743.000	-7.28528	2.83540	-7.79433	2.61968
2744.000	-7.29695	2.86091	-7.83702	2.65088
2745.000	-7.26972	2.83550	-7.86224	2.62909
2746.000	-7.30473	2.86480	-7.80791	2.60976
2747.000	-7.34946	2.83105	-7.78269	2.62172
2748.000	-7.21135	2.86343	-7.80015	2.63341
2749.000	-7.26388	2.83553	-7.88940	2.63875
2750.000	-7.29111	2.91606	-7.86806	2.65658
2751.000	-7.24248	2.87110	-7.78269	2.67679
2752.000	-7.27361	2.91421	-7.88940	2.65448
2753.000	-7.29306	2.85110	-7.92043	2.63068
2754.000	-7.24442	2.80219	-7.78075	2.64730
2755.000	-7.28139	2.83149	-7.87582	2.64473
2756.000	-7.25026	2.85727	-7.83120	2.66468
2757.000	-7.28528	2.86296	-7.89328	2.65445
2758.000	-7.29889	2.82744	-7.88940	2.69184
2759.000	-7.26582	2.82568	-7.83120	2.66468
2760.000	-7.29500	2.81959	-7.81180	2.67071
2761.000	-7.28917	2.83144	-7.78657	2.57449
2762.000	-7.32418	2.84106	-7.85060	2.59376
2763.000	-7.35141	2.84482	-7.82344	2.61360
2764.000	-7.25026	2.84152	-7.84672	2.61148
2765.000	-7.27361	2.87287	-7.92819	2.67389
2766.000	-7.26777	2.78629	-7.89134	2.59940
2767.000	-7.23275	2.81210	-7.91268	2.74673
2768.000	-7.26193	2.81389	-7.86030	2.67039
2769.000	-7.25610	2.86905	-7.84672	2.69998
2770.000	-7.23664	2.79239	-7.86806	2.65855
2771.000	-7.24053	2.84355	-7.77881	2.65125
2772.000	-7.27361	2.80004	-7.82732	2.70207
2773.000	-7.31056	2.82343	-7.86030	2.61140
2774.000	-7.30278	2.80182	-7.82926	2.68043
2775.000	-7.24637	2.81399	-7.90880	2.69761
2776.000	-7.24442	2.84550	-7.84478	2.69409
2777.000	-7.27750	2.87285	-7.78463	2.65121
2778.000	-7.24053	2.85143	-7.83120	2.66075
2779.000	-7.27750	2.84923	-7.85448	2.74515
2780.000	-7.22108	2.85549	-7.86030	2.66843
2781.000	-7.28917	2.84718	-7.86030	2.65860
2782.000	-7.28333	2.87872	-7.92431	2.68964
2783.000	-7.28333	2.87872	-7.93013	2.75448
2784.000	-7.26193	2.83555	-7.91074	2.63861
2785.000	-7.28722	2.84326	-7.94565	2.66984
2786.000	-7.25804	2.88085	-7.88552	2.67810
2787.000	-7.26388	2.84734	-7.85254	2.65865
2788.000	-7.27555	2.82168	-7.82150	2.68638
2789.000	-7.25221	2.80017	-7.83314	2.59387
2790.000	-7.26193	2.82373	-7.81180	2.62940
2791.000	-7.29695	2.80580	-7.78075	2.64927
2792.000	-7.26972	2.82762	-7.89134	2.69969
2793.000	-7.28722	2.80979	-7.87194	2.63689
2794.000	-7.29695	2.78217	-7.82926	2.67256
2795.000	-7.25804	2.81982	-7.82732	2.67454
2796.000	-7.24637	2.82580	-7.83314	2.69220
2797.000	-7.26388	2.85128	-7.84284	2.66264
2798.000	-7.33585	2.81933	-7.96310	2.65793
2799.000	-7.25221	2.83954	-7.89910	2.69767
2800.000	-7.29500	2.85305	-7.89716	2.65049
2801.000	-7.30473	2.82150	-7.89522	2.69377
2802.000	-7.35529	2.84479	-7.81956	2.61755
2803.000	-7.31834	2.85290	-7.88358	2.75283
2804.000	-7.29111	2.80977	-7.80403	2.66485
2805.000	-7.32612	2.83317	-7.87000	2.72342
2806.000	-7.32029	2.84305	-7.86030	2.64680
2807.000	-7.34168	2.79567	-7.76522	2.67297
2808.000	-7.31056	2.80571	-7.89910	2.70947
2809.000	-7.27944	2.80787	-7.82150	2.68834
2810.000	-7.29889	2.85106	-7.79239	2.67476
2811.000	-7.26582	2.85718	-7.78075	2.68467
2812.000	-7.30862	2.79785	-7.90104	2.72322
2813.000	-7.24832	2.79626	-7.85060	2.67439
2814.000	-7.28333	2.81769	-7.87776	2.70764
2815.000	-7.33390	2.76619	-7.81762	2.71197
2816.000	-7.33196	2.82920	-7.88940	2.75475
2817.000	-7.32418	2.80169	-7.82150	2.71391
2818.000	-7.33001	2.84496	-7.86612	2.74115
2819.000	-7.32807	2.80954	-7.85642	2.70188
2820.000	-7.32029	2.78400	-7.85060	2.72552
2821.000	-7.25804	2.84344	-7.85060	2.71569
2822.000	-7.33974	2.84293	-7.84478	2.63706
2823.000	-7.26972	2.82959	-7.92237	2.73291
2824.000	-7.35724	2.84872	-7.86612	2.61923
2825.000	-7.32807	2.80363	-7.88746	2.65842
2826.000	-7.34752	2.81138	-7.83508	2.68826
2827.000	-7.34946	2.76807	-7.85836	2.66844
2828.000	-7.30667	2.83133	-7.89716	2.70555
2829.000	-7.38835	2.81703	-7.86030	2.61730
2830.000	-7.32029	2.82140	-7.79433	2.65312
2831.000	-7.33196	2.83117	-7.89328	2.67805
2832.000	-7.31056	2.85295	-7.87582	2.63883
2833.000	-7.30084	2.84121	-7.91268	2.63466
2834.000	-7.32807	2.79379	-7.85060	2.67242
2835.000	-7.38835	2.77570	-7.89716	2.67409
2836.000	-7.33974	2.80750	-7.83120	2.65288
2837.000	-7.40974	2.77556	-7.88746	2.68202
2838.000	-7.35724	2.86643	-7.88358	2.62305
2839.000	-7.34946	2.81924	-7.84672	2.68031
2840.000	-7.36502	2.81521	-7.85836	2.64878
2841.000	-7.33001	2.77409	-7.77881	2.65715
2842.000	-7.39613	2.81304	-7.85642	2.62519
2843.000	-7.35918	2.81328	-7.82926	2.64503
2844.000	-7.38446	2.78753	-7.84478	2.66066
2845.000	-7.37085	2.79155	-7.80791	2.68253
2846.000	-7.35918	2.78769	-7.88358	2.73513
2847.000	-7.35141	2.82317	-7.76522	2.69067
2848.000	-7.37085	2.81124	-7.91849	2.65429
2849.000	-7.39224	2.78551	-7.87970	2.66240
2850.000	-7.40974	2.78934	-7.82926	2.71189
2851.000	-7.31056	2.80768	-7.84866	2.58197
2852.000	-7.43695	2.79901	-7.84672	2.64492
2853.000	-7.37668	2.82104	-7.78657	2.62563
2854.000	-7.35141	2.80545	-7.80791	2.59206
2855.000	-7.35141	2.81530	-7.80015	2.63734
2856.000	-7.39029	2.80521	-7.78269	2.62762
2857.000	-7.40974	2.74407	-7.85448	2.65273
2858.000	-7.41946	2.79321	-7.86612	2.66446
2859.000	-7.39224	2.78945	-7.79239	2.66690
2860.000	-7.41362	2.79128	-7.80597	2.65894
2861.000	-7.38252	2.79935	-7.85448	2.59963
2862.000	-7.45639	2.80282	-7.77104	2.67097
2863.000	-7.43890	2.80096	-7.75163	2.63765
2864.000	-7.45445	2.78906	-7.81568	2.65691
2865.000	-7.42723	2.81088	-7.87388	2.65261
2866.000	-7.44862	2.83435	-7.87000	2.65853
2867.000	-7.49720	2.80059	-7.83120	2.57618
2868.000	-7.48749	2.83607	-7.93401	2.65812
2869.000	-7.47971	2.88334	-7.81956	2.65296
2870.000	-7.39224	2.83078	-7.87000	2.71752
2871.000	-7.41751	2.82472	-7.82926	2.61553
2872.000	-7.38057	2.89974	-7.82926	2.72959
2873.000	-7.41557	2.82473	-7.88746	2.70955
2874.000	-7.35529	2.85070	-7.85448	2.65470
2875.000	-7.43306	2.84036	-7.75940	2.70251
2876.000	-7.34752	2.86256	-7.81956	2.71982
2877.000	-7.37474	2.85451	-7.96892	2.70115
2878.000	-7.43695	2.79704	-7.90686	2.75660
2879.000	-7.40002	2.79531	-7.82150	2.74537
2880.000	-7.39613	2.80320	-7.79627	2.76520
2881.000	-7.35335	2.80741	-7.85060	2.71569
2882.000	-7.32807	2.84103	-7.76716	2.79489
2883.000	-7.33585	2.80162	-7.75746	2.78512
2884.000	-7.28528	2.80193	-7.76910	2.75751
2885.000	-7.16659	2.78691	-7.58464	2.86691
2886.000	-6.99526	2.86280	-7.33196	2.88628
2887.000	-6.77896	2.85622	-7.18410	3.01125
2888.000	-6.54882	2.86545	-6.96994	3.00476
2889.000	-6.24619	2.86122	-6.59760	3.14108
2890.000	-5.91192	2.89458	-6.26768	3.07016
2891.000	-5.52240	2.95975	-5.75539	3.34141
2892.000	-5.01271	3.01751	-5.29902	3.37162
2893.000	-4.72419	3.15521	-4.77720	3.46914
2894.000	-4.23492	3.23446	-4.40987	3.54009
2895.000	-3.90642	3.24764	-3.97136	3.56975
2896.000	-3.55404	3.38351	-3.50086	3.67252
2897.000	-3.18168	3.49960	-3.14423	3.73913
2898.000	-2.84454	3.54027	-2.70648	3.76037
2899.000	-2.58417	3.61626	-2.60981	3.73692
2900.000	-2.33158	3.65456	-2.19735	3.85878
2901.000	-2.03743	3.71071	-1.90513	3.85948
2902.000	-1.86761	3.74672	-1.69380	3.77678
2903.000	-1.68195	3.80452	-1.50415	3.78108
2904.000	-1.50020	3.84247	-1.30262	3.86655
2905.000	-1.31052	3.86852	-1.09315	3.85299
2906.000	-1.20382	3.84690	-0.92318	3.81160
2907.000	-1.01607	3.90060	-0.84412	3.79980
2908.000	-0.82238	3.90873	-0.70575	3.84943
2909.000	-0.59506	3.91882	-0.51203	3.90502
2910.000	-0.46063	3.92287	-0.38946	3.99022
2911.000	-0.23724	3.90712	-0.25503	4.06550
2912.000	-0.02372	3.92102	-0.03559	4.08731
2913.000	0.25701	4.00017	0.19375	4.07739
2914.000	0.38353	4.04368	0.36969	4.09119
2915.000	0.61087	4.05343	0.56738	4.10493
2916.000	0.80656	4.13639	0.71761	4.18000
2917.000	0.99433	4.16190	0.87574	4.20952
2918.000	1.18998	4.26450	0.99631	4.28455
2919.000	1.35795	4.39671	1.14651	4.36741
2920.000	1.50613	4.48341	1.18406	4.47807
2921.000	1.68195	4.63716	1.27891	4.64788
2922.000	1.71158	4.74968	1.37375	4.75635
2923.000	1.82416	4.83627	1.40932	4.87872
2924.000	1.84391	4.92110	1.49625	4.89828
2925.000	1.82811	4.93299	1.54169	4.97713
2926.000	1.92290	5.02152	1.60886	4.89604
2927.000	1.94857	4.99579	1.64639	4.87226
2928.000	2.02361	4.97386	1.75108	4.89174
2929.000	2.15392	4.93004	1.81033	4.84420
2930.000	2.18550	4.87863	1.86366	4.78285
2931.000	2.22696	4.81533	1.98214	4.76278
2932.000	2.36513	4.77342	2.10851	4.74858
2933.000	2.49735	4.75716	2.28815	4.71050
2934.000	2.57627	4.68384	2.31381	4.63143
2935.000	2.62954	4.65205	2.39276	4.66277
2936.000	2.66505	4.65192	2.50722	4.69199
2937.000	2.79129	4.67118	2.61771	4.64815
2938.000	2.84454	4.73017	2.71240	4.67938
2939.000	2.97075	4.76911	2.65716	4.78025
2940.000	3.06735	4.87718	2.83468	4.74008
2941.000	3.08115	4.93430	2.74987	4.86276
2942.000	3.14620	5.02469	2.89976	4.87200
2943.000	3.08312	5.03484	2.75974	4.93768
2944.000	3.17774	5.17431	2.76763	4.97906
2945.000	3.20336	5.23328	2.74396	5.10536
2946.000	3.13832	5.24542	2.74198	5.01467
2947.000	3.07524	5.23195	2.71831	5.11335
2948.000	3.11860	5.29477	2.70253	5.10356
2949.000	3.16197	5.23940	2.70648	5.14692
2950.000	3.19744	5.31209	2.70451	5.21591
2951.000	3.17971	5.23340	2.74790	5.15659
2952.000	3.22504	5.23120	2.76763	5.19987
2953.000	3.30386	5.21503	2.76763	5.16439
2954.000	3.33144	5.20504	2.90173	5.19533
2955.000	3.35706	5.20293	2.77157	5.13481
2956.000	3.38070	5.15356	2.80510	5.12284
2957.000	3.45162	5.14924	2.85638	4.93925
2958.000	3.37085	5.12603	2.86427	5.03386
2959.000	3.41419	5.08640	2.94511	4.96252
2960.000	3.43783	5.14144	2.80707	4.96509
2961.000	3.37085	5.10239	2.85243	4.96096
2962.000	3.36100	5.09850	2.91554	4.95477
2963.000	3.26642	5.07337	2.80707	4.93748
2964.000	3.29795	4.98649	2.84060	4.92353
2965.000	3.22701	4.99867	2.74593	4.91012
2966.000	3.16591	4.97925	2.70451	4.84124
2967.000	3.27627	4.99251	2.74593	4.91012
2968.000	3.21518	4.92776	2.77946	4.90604
2969.000	3.17379	4.94175	2.75579	4.83906
2970.000	3.27824	5.03192	2.72423	4.91218
2971.000	3.28021	4.95110	2.69662	4.85508
2972.000	3.24277	4.97494	2.73212	4.86875
2973.000	3.27824	4.96491	2.70451	4.85702
2974.000	3.28810	4.90966	2.79918	4.86453
2975.000	3.29401	4.97468	2.88990	4.90163
2976.000	3.29598	4.94905	2.81891	4.95321
2977.000	3.38858	5.02545	2.85243	4.91757
2978.000	3.35509	5.04533	2.81693	4.93941
2979.000	3.36888	5.04723	2.82088	4.90784
2980.000	3.46344	5.10584	2.87215	4.95495
2981.000	3.37085	5.05116	2.86821	5.00427
2982.000	3.46935	5.13930	2.83074	4.94330
2983.000	3.40631	5.13373	2.86821	4.94708
2984.000	3.43980	5.12173	2.85638	4.98658
2985.000	3.42404	5.10802	2.85835	4.91360
2986.000	3.41419	5.07655	2.76763	4.95145
2987.000	3.36494	5.06498	2.85638	5.02798
2988.000	3.41025	5.08642	2.82680	5.01037
2989.000	3.39646	5.06876	2.80510	4.98285
2990.000	3.44177	5.09414	2.83074	4.97683
2991.000	3.39646	5.05497	2.90568	4.98044
2992.000	3.36691	5.06892	2.82482	4.95910
2993.000	3.37676	5.02945	2.82877	5.01233
2994.000	3.41222	5.07262	2.74198	4.99298
2995.000	3.36691	5.08074	2.86229	5.05359
2996.000	3.37282	5.04130	2.76763	5.02639
2997.000	3.41616	5.10018	2.80510	5.03412
2998.000	3.41222	5.05883	2.79721	4.97105
2999.000	3.43192	5.03705	2.76368	4.99880
3000.000	3.35706	5.09655	2.79129	4.95530
3001.000	3.45753	5.09996	2.77946	5.02043
3002.000	3.36494	5.04725	2.81299	4.97296
3003.000	3.37479	5.05311	2.82680	4.90979
3004.000	3.38464	5.06882	2.68873	4.90641
3005.000	3.42207	5.02133	2.73409	4.99893
3006.000	3.38858	5.02348	2.82482	4.94530
3007.000	3.33933	4.98431	2.79524	4.99078
3008.000	3.41222	4.98591	2.76763	4.93567
3009.000	3.37676	5.00974	2.70056	4.93989
3010.000	3.44177	5.09020	2.84060	4.89789
3011.000	3.37676	5.07083	2.76368	4.92583
3012.000	3.35115	5.02564	2.74001	4.87069
3013.000	3.37282	5.02356	2.82088	4.82498
3014.000	3.34721	5.03749	2.80707	4.89014
3015.000	3.40434	5.06281	2.78932	4.87246
3016.000	3.39843	5.04905	2.82680	4.80128
3017.000	3.37282	5.01962	2.85046	4.81697
3018.000	3.31765	5.00413	2.76763	4.80152
3019.000	3.32947	5.02772	2.83666	4.87227
3020.000	3.39449	5.04907	2.83271	4.84466
3021.000	3.40237	5.07267	2.84849	4.88208
3022.000	3.45162	5.11379	2.84849	4.89589
3023.000	3.43980	5.10991	2.85441	4.90178
3024.000	3.44374	5.10398	2.83271	4.82493
3025.000	3.41616	5.06472	2.84652	4.87420
3026.000	3.37282	5.04130	2.80116	4.94342
3027.000	3.42995	5.10602	2.86032	4.80312
3028.000	3.41419	5.03123	2.79524	4.82312
3029.000	3.41813	5.06274	2.81693	4.80527
3030.000	3.36888	5.02358	2.82285	4.83089
3031.000	3.41419	5.03714	2.86624	4.80507
3032.000	3.32159	4.98834	2.81693	4.84670
3033.000	3.39252	5.02937	2.83666	4.82097
3034.000	3.38661	5.08064	2.85835	4.86626
3035.000	3.42010	5.03711	2.87018	4.86818
3036.000	3.39055	5.04909	2.82482	4.85456
3037.000	3.39449	5.00177	2.78735	4.81131
3038.000	3.36888	5.02161	2.82680	4.80720
3039.000	3.41419	5.07261	2.84060	4.81306
3040.000	3.33538	5.02769	2.82285	4.93939
3041.000	3.40631	5.05098	2.79524	4.89808
3042.000	3.41025	5.08051	2.79524	4.89216
3043.000	3.35312	5.07490	2.85441	4.86627
3044.000	3.39252	5.03725	2.93526	4.74164
3045.000	3.36888	5.03343	2.84652	4.83869
3046.000	3.40631	5.07265	2.81299	4.87236
3047.000	3.38267	5.05504	2.77354	4.84293
3048.000	3.39449	5.05892	2.88004	4.91350
3049.000	3.43783	5.05278	2.84454	4.84264
3050.000	3.40040	5.06283	2.76763	4.90214
3051.000	3.41222	5.07656	2.84257	4.87421
3052.000	3.34327	4.97050	2.81102	4.84278
3053.000	3.40631	5.08841	2.78341	4.88827
3054.000	3.33933	4.99220	2.83468	4.91172
3055.000	3.32159	5.00411	2.92540	4.85216
3056.000	3.39646	5.02147	2.81496	4.82501
3057.000	3.39252	4.99390	2.86229	4.93922
3058.000	3.40631	5.06477	2.74198	4.89238
3059.000	3.43389	5.02718	2.89976	4.87594
3060.000	3.35903	5.01181	2.77946	4.80937
3061.000	3.36691	5.00388	2.79524	4.84876
3062.000	3.38267	5.06292	2.80116	4.88622
3063.000	3.38661	5.04911	2.90568	4.78122
3064.000	3.36691	4.99994	2.79327	4.83891
3065.000	3.41222	5.01744	2.85441	4.86233
3066.000	3.39449	5.04118	2.75776	4.80551
3067.000	3.38267	4.99198	2.85046	4.88404
3068.000	3.36888	5.01964	2.91751	4.84431
3069.000	3.36494	5.03345	2.83863	4.82688
3070.000	3.36297	5.00390	2.84257	4.83870
3071.000	3.41419	5.03123	2.83666	4.81308
3072.000	3.39646	5.03329	2.79524	4.84482
3073.000	3.40040	5.01948	2.85046	4.89982
3074.000	3.37479	5.01370	2.80510	4.86845
3075.000	3.38070	5.00972	2.83863	4.89593
3076.000	3.39055	5.00770	2.90765	4.82265
3077.000	3.32947	4.96268	2.88004	4.88194
3078.000	3.41025	5.02731	2.86624	4.82282
3079.000	3.40237	5.01947	2.82680	4.81904
3080.000	3.43980	5.00942	2.84060	4.83477
3081.000	3.39055	5.00770	2.88201	4.87207
3082.000	3.43192	5.02522	2.81299	4.89012
3083.000	3.39449	4.94067	2.89187	4.87795
3084.000	3.35115	4.95271	2.89187	4.89570
3085.000	3.44571	5.02515	2.79129	4.92769
3086.000	3.38070	5.01958	2.85441	4.91953
3087.000	3.42404	4.98979	2.80707	4.82504
3088.000	3.43389	4.99762	2.86229	4.88597
3089.000	3.42798	5.00751	2.84652	4.89195
3090.000	3.43783	5.02322	2.88201	4.86813
3091.000	3.40828	4.97016	2.80707	4.87042
3092.000	3.42207	5.03710	2.77946	4.87842
3093.000	3.35509	5.00394	2.84060	4.91762
3094.000	3.38070	5.01958	2.85243	4.79131
3095.000	3.39646	5.02344	2.77354	4.81531
3096.000	3.39843	4.98992	2.81496	4.87433
3097.000	3.43980	5.00942	2.85835	4.82088
3098.000	3.42798	4.97992	2.87018	4.89185
3099.000	3.39843	4.98795	2.86229	4.86229
3100.000	3.40828	4.99973	2.83074	4.82100
3101.000	3.43783	5.01140	2.89779	4.89173
3102.000	3.44768	4.96996	2.75382	4.90417
3103.000	3.44571	4.99362	2.88004	4.89181
3104.000	3.41025	4.98001	2.81693	4.90588
3105.000	3.43389	5.00748	2.92737	4.91922
3106.000	3.39843	4.97021	2.83863	4.82096
3107.000	3.42207	4.96418	2.90765	4.77924
3108.000	3.44177	4.98182	2.79129	4.82708
3109.000	3.42798	4.99963	2.88004	4.81487
3110.000	3.48708	4.96384	2.91751	4.82260
3111.000	3.39055	4.96631	2.89385	4.78917
3112.000	3.42207	4.97601	2.87018	4.81097
3113.000	3.47132	4.96590	2.91554	4.77921
3114.000	3.39646	4.94657	2.80313	4.83492
3115.000	3.46344	4.97579	2.89779	4.87201
3116.000	3.43192	4.94245	2.85835	4.78931
3117.000	3.51268	4.97947	2.81102	4.80727
3118.000	3.37479	4.89345	2.85243	4.88009
3119.000	3.43192	4.95033	2.82680	4.76182
3120.000	3.43586	4.96411	2.90765	4.85618
3121.000	3.43389	4.96806	2.85638	4.80511
3122.000	3.42601	4.94839	2.86427	4.76364
3123.000	3.42404	4.93066	2.84060	4.77557
3124.000	3.42207	4.93856	2.84257	4.85843
3125.000	3.43192	4.93259	2.78538	4.79948
3126.000	3.40828	4.92089	2.85046	4.85051
3127.000	3.46147	4.96398	2.82285	4.88021
3128.000	3.47329	4.95603	2.79129	4.84483
3129.000	3.49692	4.94999	2.88596	4.78723
3130.000	3.44374	4.98378	2.79129	4.87837
3131.000	3.46147	4.92850	2.80905	4.79346
3132.000	3.46344	4.93243	2.81299	4.73819
3133.000	3.44768	4.97981	2.87807	4.74582
3134.000	3.45950	4.97581	2.85046	4.76172
3135.000	3.49495	4.96183	2.76960	4.74626
3136.000	3.47329	4.95603	2.80510	4.86253
3137.000	3.43783	4.92862	2.82680	4.80128
3138.000	3.47920	4.96782	2.83468	4.79533
3139.000	3.47723	4.94813	2.89385	4.81087
3140.000	3.46147	4.90287	2.95497	4.79680
3141.000	3.50283	4.93025	2.83074	4.77759
3142.000	3.48708	4.93822	2.87018	4.79124
3143.000	3.50677	4.92235	2.88596	4.86417
3144.000	3.51071	4.94598	2.71240	4.77412
3145.000	3.45556	4.93444	2.88596	4.75171
3146.000	3.49101	4.91257	2.79327	4.76590
3147.000	3.49495	4.93226	2.92342	4.83836
3148.000	3.50086	4.94406	2.82482	4.76577
3149.000	3.42207	4.90504	2.81102	4.77175
3150.000	3.44177	4.92268	2.80510	4.76191
3151.000	3.44965	4.91673	2.89582	4.80297
3152.000	3.46935	4.94817	2.84652	4.79923
3153.000	3.48314	4.90670	2.88793	4.81681
3154.000	3.46935	4.92057	2.81102	4.78556
3155.000	3.45950	4.93639	2.87018	4.72217
3156.000	3.48708	4.91457	2.94117	4.73766
3157.000	3.47723	4.94221	2.78341	4.77778
3158.000	3.46541	4.88708	2.83271	4.74009
3159.000	3.45753	4.91866	2.81693	4.75791
3160.000	3.50086	4.95786	2.80116	4.83888
3161.000	3.47723	4.93039	2.88201	4.85037
3162.000	3.46147	4.92850	2.87018	4.80308
3163.000	3.47329	4.90281	2.86821	4.78533
3164.000	3.45359	4.88911	2.83074	4.78351
3165.000	3.48511	4.89683	2.88201	4.76948
3166.000	3.47329	4.92252	2.80905	4.77373
3167.000	3.46935	4.86340	2.87215	4.73993
3168.000	3.44571	4.90492	2.82877	4.78944
3169.000	3.45950	4.89302	2.84652	4.75384
3170.000	3.43586	4.88526	2.83863	4.76572
3171.000	3.44571	4.92266	2.84652	4.74990
3172.000	3.46738	4.90678	2.80116	4.75600
3173.000	3.48117	4.86334	2.87807	4.80896
3174.000	3.44374	4.83987	2.87413	4.85435
3175.000	3.45753	4.90881	2.90371	4.79899
3176.000	3.47920	4.87321	2.87018	4.75967
3177.000	3.42207	4.85970	2.90173	4.79900
3178.000	3.44965	4.88125	2.84849	4.69660
3179.000	3.44965	4.86942	2.89582	4.66878
3180.000	3.47723	4.85745	2.85638	4.69460
3181.000	3.44374	4.83199	2.87215	4.79715
3182.000	3.44768	4.85760	2.84652	4.71635
3183.000	3.45556	4.86742	2.84652	4.75779
3184.000	3.41616	4.86564	2.90765	4.80489
3185.000	3.42995	4.83797	2.85046	4.75185
3186.000	3.44571	4.85761	2.92737	4.82848
3187.000	3.38661	4.86974	2.92934	4.73771
3188.000	3.43980	4.83792	2.88990	4.75958
3189.000	3.39252	4.84407	2.84060	4.77755
3190.000	3.44571	4.83789	2.83074	4.85059
3191.000	3.42010	4.88731	2.84652	4.80515
3192.000	3.42207	4.85576	2.88399	4.71817
3193.000	3.42010	4.90703	2.87018	4.75967
3194.000	3.42404	4.83997	2.84849	4.80119
3195.000	3.42798	4.89319	2.88399	4.71225
3196.000	3.42601	4.85968	2.81693	4.78159
3197.000	3.41222	4.86566	2.77946	4.75412
3198.000	3.36297	4.83633	2.91554	4.72790
3199.000	3.39843	4.84207	2.76565	4.69496
3200.000	3.38070	4.82244	2.87413	4.73400
3201.000	3.41025	4.80849	2.85638	4.75380
3202.000	3.42404	4.84194	2.82285	4.70460
3203.000	3.39449	4.84801	2.79721	4.78759
3204.000	3.40237	4.81839	2.95497	4.75931
3205.000	3.40631	4.85781	2.85243	4.74987
3206.000	3.42601	4.82616	2.86032	4.73997
3207.000	3.41616	4.83804	2.90371	4.70230
3208.000	3.42207	4.81435	2.88793	4.74775
3209.000	3.39646	4.84011	2.87018	4.84648
3210.000	3.40237	4.83417	2.86821	4.75967
3211.000	3.42404	4.82025	2.87807	4.67675
3212.000	3.41025	4.84990	2.83468	4.82887
3213.000	3.44965	4.86547	2.74987	4.70489
3214.000	3.40828	4.81245	2.82088	4.82893
3215.000	3.37676	4.80077	2.99638	4.76900
3216.000	3.44571	4.82606	2.83074	4.75194
3217.000	3.41025	4.79863	2.85046	4.82881
3218.000	3.40237	4.82233	2.82285	4.72631
3219.000	3.39646	4.84800	2.84652	4.75384
3220.000	3.35706	4.79692	2.83074	4.67102
3221.000	3.39055	4.83817	2.82088	4.77763
3222.000	3.41419	4.83608	2.80313	4.72245
3223.000	3.42995	4.83994	2.84060	4.66900
3224.000	3.42404	4.84392	2.96089	4.75731
3225.000	3.45950	4.85951	2.90765	4.68452
3226.000	3.42798	4.87347	2.82088	4.71251
3227.000	3.40434	4.84599	2.78932	4.78368
3228.000	3.43783	4.86948	2.82482	4.74209
3229.000	3.41813	4.89915	2.82482	4.69473
3230.000	3.41813	4.82423	2.81299	4.70662
3231.000	3.47526	4.84760	2.81693	4.78948
3232.000	3.41813	4.84395	2.85835	4.77747
3233.000	3.43586	4.83794	2.81102	4.68689
3234.000	3.40828	4.80456	2.83468	4.80717
3235.000	3.42207	4.81632	2.76565	4.69496
3236.000	3.37873	4.78498	2.77157	4.67520
3237.000	3.38661	4.70013	2.88399	4.60764
3238.000	3.32750	4.63334	2.81891	4.49535
3239.000	3.30386	4.44595	2.78735	4.32164
3240.000	3.18562	4.20353	2.79918	4.15955
3241.000	3.13437	4.02983	2.76565	3.92833
3242.000	3.00821	3.75741	2.72423	3.77812
3243.000	2.86624	3.46300	2.69267	3.47737
3244.000	2.80707	3.11461	2.61771	3.10717
3245.000	2.68873	2.79582	2.63941	2.80585
3246.000	2.66900	2.50436	2.59206	2.48270
3247.000	2.59798	2.14736	2.65913	2.13932
3248.000	2.52497	1.83583	2.66111	1.82769
3249.000	2.54668	1.53595	2.61968	1.61132
3250.000	2.53484	1.33138	2.63941	1.33127
3251.000	2.59600	1.08300	2.69662	1.15443
3252.000	2.61573	0.88828	2.68478	0.92002
3253.000	2.59995	0.82471	2.66308	0.77102
3254.000	2.61573	0.70548	2.72818	0.68555
3255.000	2.65913	0.64982	2.72029	0.66965
3256.000	2.66900	0.59616	2.69464	0.56634
3257.000	2.69070	0.61801	2.67492	0.63193
3258.000	2.68478	0.60013	2.67886	0.60808
3259.000	2.72620	0.61402	2.65716	0.59617
3260.000	2.73804	0.62593	2.66505	0.69949
3261.000	2.78538	0.69346	2.61376	0.66773
3262.000	2.77157	0.76698	2.64335	0.71341
3263.000	2.78735	0.74710	2.58417	0.87439
3264.000	2.78735	0.83253	2.57430	0.85652
3265.000	2.80510	0.88615	2.59206	0.98367
3266.000	2.79327	0.93583	2.55654	0.98965
3267.000	2.78143	1.02523	2.56444	1.07309
3268.000	2.80707	1.09274	2.54273	1.20821
3269.000	2.81693	1.13643	2.51905	1.19631
3270.000	2.84652	1.24167	2.60390	1.25980
3271.000	2.84849	1.27940	2.50327	1.29963
3272.000	2.84652	1.33302	2.51511	1.36715
3273.000	2.92540	1.39449	2.49143	1.41485
3274.000	2.89976	1.39651	2.50524	1.39299
3275.000	2.91357	1.41237	2.55062	1.43465
3276.000	2.90173	1.41835	2.46380	1.45461
3277.000	2.89779	1.39254	2.48748	1.47246
3278.000	2.91357	1.39848	2.53484	1.41481
3279.000	2.91159	1.36671	2.49143	1.40889
3280.000	2.93723	1.35079	2.52892	1.36118
3281.000	2.88596	1.26347	2.50130	1.29367
3282.000	2.85046	1.24365	2.50524	1.22215
3283.000	2.88004	1.17212	2.57233	1.13865
3284.000	2.87215	1.11453	2.47762	1.12681
3285.000	2.80116	1.02919	2.45788	1.04139
3286.000	2.78143	1.01133	2.48156	1.02548
3287.000	2.76763	0.88817	2.53681	0.97775
3288.000	2.72818	0.85641	2.55852	0.90223
3289.000	2.76171	0.81467	2.51905	0.85258
3290.000	2.71042	0.75112	2.52300	0.80489
3291.000	2.67886	0.74121	2.47170	0.84268
3292.000	2.73015	0.73720	2.51313	0.79695
3293.000	2.73409	0.71932	2.50722	0.74727
3294.000	2.65519	0.64982	2.51708	0.73335
3295.000	2.67886	0.66570	2.53879	0.76514
3296.000	2.72423	0.65177	2.49932	0.71945
3297.000	2.70845	0.64780	2.56049	0.72737
3298.000	2.70056	0.64185	2.48354	0.74132
3299.000	2.74790	0.67957	2.48748	0.74529
3300.000	2.74001	0.68156	2.41249	0.76322
3301.000	2.69267	0.65179	2.45196	0.74134
3302.000	2.71634	0.67164	2.44407	0.71352
3303.000	2.72620	0.70542	2.44012	0.82680
3304.000	2.72818	0.69349	2.44407	0.74731
3305.000	2.76565	0.70738	2.48748	0.73337
3306.000	2.76763	0.76102	2.50327	0.81285
3307.000	2.75579	0.74315	2.40460	0.81490
3308.000	2.76763	0.72526	2.49143	0.89631
3309.000	2.77552	0.70936	2.50130	0.87644
3310.000	2.78538	0.73518	2.45986	0.80691
3311.000	2.78143	0.71333	2.47959	0.79100
3312.000	2.78735	0.72326	2.52892	0.79495
3313.000	2.76368	0.76500	2.44210	0.84071
3314.000	2.78538	0.77094	2.52497	0.83867
3315.000	2.80510	0.78881	2.39868	0.89836
3316.000	2.80313	0.80470	2.37894	0.80497
3317.000	2.75579	0.77295	2.47762	0.88639
3318.000	2.76171	0.84049	2.46380	0.87050
3319.000	2.80116	0.81464	2.48946	0.86651
3320.000	2.73607	0.80674	2.48551	0.84863
3321.000	2.74790	0.83653	2.51116	0.85259
3322.000	2.74987	0.85441	2.51708	0.82476
3323.000	2.75185	0.84050	2.45394	0.86057
3324.000	2.73015	0.80475	2.42828	0.83078
3325.000	2.75579	0.79480	2.49340	0.80888
3326.000	2.73212	0.77694	2.46380	0.87646
3327.000	2.74987	0.85044	2.51905	0.83668
3328.000	2.73804	0.76303	2.49538	0.88439
3329.000	2.72029	0.78688	2.46380	0.89037
3330.000	2.75974	0.79281	2.49538	0.91022
3331.000	2.74198	0.79084	2.43025	0.92219
3332.000	2.73804	0.79283	2.42631	0.89040
3333.000	2.70451	0.81471	2.42828	0.92815
3334.000	2.70648	0.81669	2.52695	0.78501
3335.000	2.76171	0.78685	2.48748	0.89433
3336.000	2.75382	0.78884	2.42236	0.96988
3337.000	2.71240	0.74913	2.44999	0.90230
3338.000	2.73409	0.80078	2.48156	0.90824
3339.000	2.72818	0.76701	2.49143	0.86253
3340.000	2.71240	0.74913	2.39868	0.86458
3341.000	2.74001	0.75706	2.43420	0.88642
3342.000	2.73607	0.76104	2.44012	0.85661
3343.000	2.72620	0.72528	2.42433	0.90630
3344.000	2.75185	0.78090	2.48748	0.87645
3345.000	2.74593	0.75706	2.50524	0.84464
3346.000	2.73804	0.76700	2.37500	0.87056
3347.000	2.72620	0.77297	2.42631	0.84270
3348.000	2.73015	0.76104	2.42433	0.90828
3349.000	2.74790	0.80276	2.44604	0.88840
3350.000	2.72029	0.76502	2.42236	0.93412
3351.000	2.71831	0.77099	2.46775	0.97184
3352.000	2.74790	0.77097	2.41644	0.87848
3353.000	2.74790	0.80077	2.43223	0.92020
3354.000	2.74396	0.75508	2.45788	0.89634
3355.000	2.75579	0.78686	2.46183	0.87646
3356.000	2.74001	0.77495	2.44999	0.90628
3357.000	2.72029	0.72529	2.44210	0.94006
3358.000	2.74001	0.79084	2.44210	0.86654
3359.000	2.74001	0.76303	2.46380	0.91024
3360.000	2.73607	0.76501	2.47959	0.91818
3361.000	2.72029	0.78092	2.45196	0.90826
3362.000	2.76763	0.79480	2.40460	0.87650
3363.000	2.73212	0.76899	2.44999	0.89038
3364.000	2.75974	0.77096	2.44012	0.91026
3365.000	2.72226	0.76701	2.45591	0.93211
3366.000	2.75974	0.76500	2.51116	0.90226
3367.000	2.72423	0.76105	2.43223	0.90232
3368.000	2.74001	0.75508	2.47762	0.92414
3369.000	2.71437	0.77695	2.44999	0.92218
3370.000	2.73409	0.76502	2.49735	0.86452
3371.000	2.72620	0.79085	2.42631	0.95200
3372.000	2.77157	0.76897	2.44604	0.90032
3373.000	2.75579	0.75705	2.42433	0.93809
3374.000	2.73607	0.77097	2.37500	0.90633
3375.000	2.78932	0.78087	2.43223	0.87847
3376.000	2.77749	0.74313	2.47170	0.93210
3377.000	2.74198	0.78488	2.52497	0.88040
3378.000	2.70845	0.73722	2.45986	0.89236
3379.000	2.72423	0.72529	2.52300	0.88636
3380.000	2.68873	0.72928	2.42039	0.91027
3381.000	2.70451	0.73722	2.41644	0.86656
3382.000	2.78143	0.73916	2.52300	0.89431
3383.000	2.74593	0.77296	2.42039	0.89835
3384.000	2.75579	0.73719	2.43025	0.91424
3385.000	2.76763	0.78486	2.45394	0.85064
3386.000	2.74987	0.74514	2.49143	0.84068
3387.000	2.76565	0.75307	2.46972	0.88838
3388.000	2.72029	0.74714	2.42631	0.91822
3389.000	2.77946	0.76697	2.38684	0.95203
3390.000	2.75185	0.80275	2.39671	0.94407
3391.000	2.76960	0.77890	2.49340	0.93208
3392.000	2.75974	0.79877	2.44604	0.93211
3393.000	2.72620	0.78688	2.47170	0.86851
3394.000	2.77354	0.73320	2.47959	0.94799
3395.000	2.78735	0.77293	2.45591	0.90627
3396.000	2.74593	0.81865	2.48354	0.92016
3397.000	2.75579	0.78884	2.41644	0.91822
3398.000	2.74593	0.75905	2.48946	0.91023
3399.000	2.76368	0.74910	2.35723	0.95403
3400.000	2.75579	0.75507	2.37697	0.89639
3401.000	2.77749	0.77095	2.39671	0.93612
3402.000	2.77946	0.79081	2.43420	0.87847
3403.000	2.80116	0.79875	2.44999	0.87647
3404.000	2.78538	0.76498	2.53089	0.90026
3405.000	2.79918	0.78285	2.36710	0.95204
3406.000	2.77946	0.80273	2.44999	0.89237
3407.000	2.75776	0.77096	2.42236	0.89636
3408.000	2.78735	0.82260	2.48354	0.96785
3409.000	2.81891	0.81661	2.46972	0.87248
3410.000	2.79721	0.84246	2.50722	0.92214
3411.000	2.84257	0.83646	2.48354	0.94798
3412.000	2.80707	0.83649	2.42039	0.87450
3413.000	2.84060	0.80071	2.42433	0.90630
3414.000	2.81891	0.77887	2.40460	0.91823
3415.000	2.88004	0.83048	2.45394	0.97384
3416.000	2.85441	0.80864	2.51905	0.82476
3417.000	2.83074	0.80667	2.42039	0.89438
3418.000	2.79721	0.78087	2.46972	0.97581
3419.000	2.80313	0.78086	2.40657	0.88842
3420.000	2.84257	0.80666	2.43618	0.94603
3421.000	2.87018	0.79671	2.46578	0.91819
3422.000	2.77749	0.77691	2.46775	0.90627
3423.000	2.82877	0.80270	2.45788	0.88640
3424.000	2.86427	0.82453	2.44999	0.93608
3425.000	2.83863	0.79872	2.38289	0.90235
3426.000	2.81102	0.79874	2.47564	0.85062
3427.000	2.79327	0.79279	2.51511	0.82874
3428.000	2.81891	0.77291	2.46183	0.88640
3429.000	2.83666	0.80071	2.38881	0.87452
3430.000	2.82482	0.77886	2.35329	0.89839
3431.000	2.86427	0.81261	2.44407	0.86058
3432.000	2.86821	0.83843	2.44999	0.89038
3433.000	2.85243	0.82652	2.48551	0.94003
3434.000	2.84652	0.83050	2.47170	0.91024
3435.000	2.84060	0.83448	2.54273	0.90025
3436.000	2.82088	0.80668	2.40657	0.84868
3437.000	2.84454	0.78282	2.47959	0.89831
3438.000	2.85441	0.84043	2.40263	0.84272
3439.000	2.85638	0.82056	2.45788	0.86057
3440.000	2.82482	0.80469	2.46775	0.85063
3441.000	2.83863	0.82455	2.44802	0.90827
3442.000	2.83863	0.83051	2.39671	0.78112
3443.000	2.78932	0.79279	2.44012	0.90430
3444.000	2.79918	0.78285	2.46775	0.88640
3445.000	2.82877	0.80270	2.43815	0.83276
3446.000	2.85046	0.80269	2.43025	0.82283
3447.000	2.81299	0.79874	2.35329	0.88647
3448.000	2.86821	0.81459	2.48946	0.84068
3449.000	2.87215	0.80466	2.41052	0.87252
3450.000	2.78735	0.79478	2.41447	0.88047
3451.000	2.82285	0.79476	2.40065	0.98977
3452.000	2.79524	0.75306	2.44999	0.91224
3453.000	2.85441	0.80070	2.45788	0.89435
3454.000	2.82877	0.82058	2.47564	0.86652
3455.000	2.80510	0.81066	2.47170	0.83075
3456.000	2.79327	0.82855	2.39276	0.87651
3457.000	2.82088	0.83052	2.44999	0.91820
3458.000	2.81693	0.75702	2.44210	0.92615
3459.000	2.81299	0.79675	2.45986	0.89634
3460.000	2.80905	0.78086	2.45394	0.87846
3461.000	2.82088	0.75105	2.44012	0.91423
3462.000	2.81496	0.82655	2.42828	0.91027
3463.000	2.83863	0.82256	2.43815	0.90231
3464.000	2.84257	0.78878	2.44802	0.97384
3465.000	2.83468	0.79276	2.47959	0.90825
3466.000	2.80905	0.80470	2.36513	0.88646
3467.000	2.82088	0.79873	2.44012	0.93212
3468.000	2.79524	0.80670	2.38684	0.91626
3469.000	2.79327	0.77888	2.44012	0.94603
3470.000	2.82680	0.78482	2.46775	0.93011
3471.000	2.80313	0.80272	2.48551	0.87843
3472.000	2.83271	0.85038	2.38684	0.90433
3473.000	2.82680	0.78880	2.42631	0.88642
3474.000	2.83074	0.76297	2.43223	0.84469
3475.000	2.79721	0.80868	2.39671	0.91029
3476.000	2.80707	0.78682	2.43618	0.81686
3477.000	2.77749	0.79280	2.46775	0.80890
3478.000	2.78143	0.78883	2.38684	0.86658
3479.000	2.74987	0.76501	2.43420	0.85462
3480.000	2.77354	0.80274	2.49932	0.84465
3481.000	2.75579	0.73123	2.44407	0.82282
3482.000	2.77749	0.71731	2.47762	0.91023
3483.000	2.77749	0.77890	2.42039	0.84072
3484.000	2.74198	0.75309	2.40460	0.86259
3485.000	2.83271	0.79872	2.50919	0.87047
3486.000	2.79327	0.76498	2.40657	0.87849
3487.000	2.78143	0.78485	2.50722	0.86252
3488.000	2.80313	0.78682	2.42433	0.89636
3489.000	2.77157	0.77890	2.54471	0.84859
3490.000	2.77749	0.78486	2.42828	0.93411
3491.000	2.81891	0.79873	2.46775	0.92018
3492.000	2.82680	0.82455	2.42631	0.94008
3493.000	2.78341	0.73518	2.43618	0.83872
3494.000	2.81299	0.78483	2.43025	0.95994
3495.000	2.80510	0.82854	2.44407	0.90032
3496.000	2.83271	0.79276	2.46183	0.89832
3497.000	2.84849	0.80865	2.43223	0.87450
3498.000	2.79721	0.77690	2.42631	0.89636
3499.000	2.77946	0.75903	2.55260	0.88634
3500.000	2.80905	0.73715	2.43815	0.88244
3501.000	2.83271	0.77489	2.41447	0.85265
3502.000	2.82482	0.79078	2.45196	0.93012
3503.000	2.79918	0.78484	2.47170	0.84864
3504.000	2.82877	0.74906	2.41644	0.86060
3505.000	2.78341	0.75505	2.38092	0.94408
3506.000	2.80510	0.81265	2.51708	0.88239
3507.000	2.82877	0.77687	2.39671	0.84670
3508.000	2.80707	0.78682	2.47170	0.91222
3509.000	2.82482	0.78085	2.42236	0.90828
3510.000	2.81693	0.77688	2.43223	0.88642
3511.000	2.82680	0.79674	2.53681	0.91814
3512.000	2.77157	0.79479	2.45196	0.90628
3513.000	2.80313	0.77689	2.43223	0.92815
3514.000	2.80707	0.79278	2.47170	0.90229
3515.000	2.83666	0.78084	2.40855	0.92220
3516.000	2.77552	0.80274	2.43223	0.88841
3517.000	2.82482	0.75105	2.43815	0.84468
3518.000	2.79721	0.77292	2.40657	0.88047
3519.000	2.81102	0.79675	2.40460	0.89240
3520.000	2.78143	0.80273	2.44802	0.94801
3521.000	2.79327	0.76498	2.45394	0.88243
3522.000	2.79524	0.75107	2.44012	0.90231
3523.000	2.80905	0.77093	2.45591	0.85461
3524.000	2.81299	0.79476	2.48156	0.82479
3525.000	2.82482	0.76893	2.34539	0.91231
3526.000	2.79129	0.78683	2.45394	0.84467
3527.000	2.82877	0.77886	2.43223	0.91623
3528.000	2.81299	0.80271	2.40855	0.86259
3529.000	2.84454	0.79872	2.44012	0.94801
3530.000	2.82482	0.74112	2.47762	0.91619
3531.000	2.82877	0.75502	2.43025	0.90033
3532.000	2.84849	0.78481	2.40657	0.85663
3533.000	2.82285	0.78681	2.44012	0.88244
3534.000	2.80313	0.77689	2.48354	0.90824
3535.000	2.83468	0.76098	2.41052	0.87848
3536.000	2.80905	0.79874	2.41052	0.92419
3537.000	2.80707	0.73914	2.43025	0.90828
3538.000	2.82680	0.74906	2.38486	0.93812
3539.000	2.83271	0.79475	2.44407	0.92615
3540.000	2.83666	0.76296	2.38092	0.88446
3541.000	2.84257	0.79474	2.43815	0.94205
3542.000	2.79524	0.79080	2.46183	0.92018
3543.000	2.85046	0.77885	2.43618	0.95398
3544.000	2.80905	0.71331	2.39868	0.99573
3545.000	2.80116	0.74908	2.38486	0.92619
3546.000	2.79721	0.72524	2.43025	0.88642
3547.000	2.81693	0.78880	2.40065	0.88445
3548.000	2.83074	0.71727	2.44407	0.91821
3549.000	2.82482	0.72920	2.39671	0.90234
3550.000	2.85046	0.75699	2.41249	0.87252
3551.000	2.88004	0.75697	2.40657	0.94208
3552.000	2.83468	0.78084	2.42631	0.98379
3553.000	2.84849	0.75501	2.51313	0.91816
3554.000	2.88793	0.80862	2.37302	0.93614
3555.000	2.87215	0.76890	2.44802	0.88243
3556.000	2.85835	0.81460	2.42828	0.97385
3557.000	2.84652	0.76693	2.49538	0.92612
3558.000	2.83468	0.79276	2.44407	0.93609
3559.000	2.85243	0.78480	2.49735	0.89432
3560.000	2.89385	0.80663	2.49932	0.85855
3561.000	2.85441	0.78878	2.43025	0.90629
3562.000	2.88793	0.78081	2.49735	0.94003
3563.000	2.85835	0.78877	2.40460	0.92022
3564.000	2.87807	0.80664	2.45196	0.98775
3565.000	2.83468	0.75502	2.46380	0.95595
3566.000	2.81102	0.74311	2.44604	0.88840
3567.000	2.85243	0.81460	2.44604	0.97782
3568.000	2.86229	0.84042	2.42433	0.90828
3569.000	2.82088	0.80867	2.38881	0.95401
3570.000	2.80707	0.74908	2.42631	0.85065
3571.000	2.81693	0.77092	2.42828	0.94802
3572.000	2.81102	0.73318	2.38684	0.95004
3573.000	2.86821	0.73712	2.38289	0.93414
3574.000	2.84060	0.73316	2.47170	0.86851
3575.000	2.82285	0.78284	2.42828	0.89040
3576.000	2.84652	0.69740	2.39868	0.92221
3577.000	2.85835	0.72918	2.50722	0.89034
3578.000	2.85046	0.74507	2.49735	0.91618
3579.000	2.82680	0.77489	2.47959	0.96786
3580.000	2.85243	0.79275	2.40855	0.94605
3581.000	2.86427	0.76096	2.39276	0.91427
3582.000	2.86821	0.75897	2.45591	0.96390
3583.000	2.84849	0.75302	2.40855	0.93015
3584.000	2.87413	0.81062	2.49143	0.85657
3585.000	2.84257	0.75700	2.48354	0.95593
3586.000	2.85441	0.74110	2.44012	0.87846
3587.000	2.84060	0.79872	2.53484	0.91814
3588.000	2.88004	0.77684	2.47762	0.91818
3589.000	2.87413	0.79472	2.48551	0.87446
3590.000	2.86821	0.78877	2.43223	0.91424
3591.000	2.91751	0.78476	2.42631	0.87649
3592.000	2.88596	0.79670	2.49538	0.94003
3593.000	2.92342	0.77681	2.45788	0.85858
3594.000	2.85046	0.76693	2.51905	0.88040
3595.000	2.87215	0.76493	2.40263	0.87054
3596.000	2.89187	0.73114	2.48946	0.82677
3597.000	2.88004	0.67751	2.55852	0.80884
3598.000	2.82088	0.58218	2.42039	0.75527
3599.000	2.77946	0.50074	2.48748	0.56246
3600.000	2.73607	0.38153	2.42039	0.45517
3601.000	2.62165	0.15700	2.45591	0.34385
3602.000	2.57825	0.02981	2.41447	0.18883
3603.000	2.51905	-0.17093	2.28618	0.05964
3604.000	2.41447	-0.31007	2.24473	-0.12325
3605.000	2.32565	-0.43929	2.31381	-0.31606
3606.000	2.26644	-0.61622	2.29210	-0.50291
3607.000	2.10851	-0.84090	2.22696	-0.72754
3608.000	2.08679	-1.01980	2.25460	-0.82691
3609.000	2.01374	-1.12518	2.14800	-1.07342
3610.000	1.94660	-1.24845	2.06310	-1.20464
3611.000	1.88538	-1.35978	1.97424	-1.30010
3612.000	1.89130	-1.42734	1.94462	-1.29614
3613.000	1.82021	-1.44727	1.92488	-1.31206
3614.000	1.83008	-1.49694	1.82811	-1.35188
3615.000	1.84391	-1.53866	1.83996	-1.32206
3616.000	1.86366	-1.45916	1.77873	-1.30620
3617.000	1.87748	-1.44921	1.75898	-1.15914
3618.000	1.88538	-1.35780	1.77083	-1.06968
3619.000	1.93870	-1.22262	1.83403	-1.00007
3620.000	1.98609	-1.16097	1.85181	-0.89669
3621.000	2.06507	-1.08540	1.81428	-0.72773
3622.000	2.08087	-0.94229	1.89525	-0.73167
3623.000	2.19735	-0.87265	1.83798	-0.63030
3624.000	2.22696	-0.77127	1.94660	-0.53285
3625.000	2.26052	-0.67983	1.92093	-0.48911
3626.000	2.28815	-0.63012	1.98214	-0.42945
3627.000	2.34539	-0.58438	1.98609	-0.34993
3628.000	2.35921	-0.57643	2.07889	-0.35587
3629.000	2.36710	-0.51282	2.06112	-0.38371
3630.000	2.34342	-0.57047	1.92290	-0.31614
3631.000	2.35921	-0.55854	2.07100	-0.43341
3632.000	2.32368	-0.54862	2.06705	-0.43341
3633.000	2.31776	-0.58837	2.01571	-0.43541
3634.000	2.28026	-0.61621	2.05520	-0.48709
3635.000	2.22893	-0.65003	1.98609	-0.57657
3636.000	2.22499	-0.70171	2.01966	-0.56065
3637.000	2.21117	-0.73749	2.02361	-0.64216
3638.000	2.18945	-0.74545	1.97029	-0.65212
3639.000	2.16774	-0.80708	1.97029	-0.65013
3640.000	2.16774	-0.80708	1.97424	-0.66007
3641.000	2.14800	-0.87864	1.92488	-0.69389
3642.000	2.10061	-0.89258	1.98017	-0.70380
3643.000	2.11048	-0.90053	1.95845	-0.76544
3644.000	2.09666	-0.95818	1.94462	-0.74358
3645.000	2.12628	-0.94027	1.96832	-0.71574
3646.000	2.07692	-0.95620	1.91698	-0.74757
3647.000	2.08482	-0.99595	1.95055	-0.76743
3648.000	2.06507	-1.01782	1.90118	-0.79926
3649.000	2.11443	-0.98202	1.93080	-0.78931
3650.000	2.06112	-1.02578	1.96832	-0.76146
3651.000	2.06705	-1.03571	1.99004	-0.69187
3652.000	2.09074	-1.00191	1.90315	-0.73167
3653.000	2.05125	-1.08541	1.94265	-0.75153
3654.000	2.06902	-1.05360	1.93672	-0.74159
3655.000	2.08877	-1.04364	1.89525	-0.77342
3656.000	2.03151	-1.05561	2.00386	-0.85686
3657.000	2.09074	-0.98203	1.90315	-0.80920
3658.000	2.10456	-1.03370	1.89328	-0.77143
3659.000	2.08877	-1.04961	1.96240	-0.78134
3660.000	2.08679	-0.99595	1.89525	-0.78535
3661.000	2.06705	-0.99993	1.95845	-0.86285
3662.000	2.09469	-1.00985	1.91895	-0.76943
3663.000	2.05718	-1.03969	1.97424	-0.73561
3664.000	2.09469	-1.02377	1.90513	-0.83902
3665.000	2.10654	-0.98401	1.98609	-0.76145
3666.000	2.09666	-1.00985	1.93870	-0.77141
3667.000	2.12233	-0.96611	1.93475	-0.72370
3668.000	2.12628	-0.95418	1.90315	-0.80125
3669.000	2.11246	-0.96413	1.98807	-0.76940
3670.000	2.12036	-0.99990	1.94857	-0.78135
3671.000	2.10061	-0.97209	1.98017	-0.75549
3672.000	2.09666	-0.93433	2.00979	-0.73957
3673.000	2.07692	-0.96813	1.96240	-0.77140
3674.000	2.09864	-0.97606	1.92685	-0.74160
3675.000	2.08679	-0.97806	2.00386	-0.75747
3676.000	2.08482	-0.97210	1.92488	-0.70582
3677.000	2.14602	-0.95218	1.97819	-0.77736
3678.000	2.11443	-0.97407	2.02163	-0.77535
3679.000	2.11838	-0.94823	1.91895	-0.75751
3680.000	2.10061	-0.97606	1.97424	-0.75351
3681.000	2.10654	-0.97208	1.91500	-0.78335
3682.000	2.10654	-0.96413	1.94857	-0.75749
3683.000	2.08482	-0.95818	1.90118	-0.82709
3684.000	2.08679	-0.92638	1.96437	-0.80917
3685.000	2.09666	-0.98004	1.98214	-0.73760
3686.000	2.14800	-0.98001	1.94462	-0.73762
3687.000	2.08482	-0.96812	1.97819	-0.77139
3688.000	2.09469	-0.97805	1.93870	-0.77539
3689.000	2.07692	-0.97608	2.01769	-0.82704
3690.000	2.08284	-0.97607	2.06705	-0.82701
3691.000	2.09074	-0.98203	1.97029	-0.76345
3692.000	2.07495	-0.95620	1.96635	-0.82309
3693.000	2.06902	-0.94826	2.02953	-0.78131
3694.000	2.09666	-0.96613	2.00584	-0.77933
3695.000	2.09271	-0.99396	1.97029	-0.80122
3696.000	2.06507	-0.97608	1.92685	-0.77937
3697.000	2.06112	-0.99000	1.88933	-0.78138
3698.000	2.05718	-0.97609	2.01571	-0.79722
3699.000	2.05323	-0.94827	1.96437	-0.75947
3700.000	2.07495	-0.97409	1.96240	-0.76743
3701.000	2.07100	-0.98602	1.97424	-0.72567
3702.000	2.06112	-0.98205	2.01571	-0.80119
3703.000	2.09271	-0.97607	1.97819	-0.71772
3704.000	2.10654	-0.96811	1.90908	-0.69787
3705.000	2.06507	-0.98602	2.02361	-0.70577
3706.000	2.04533	-0.99597	1.94462	-0.84894
3707.000	2.07495	-0.98005	1.89723	-0.78336
3708.000	2.05915	-1.01584	2.01374	-0.80517
3709.000	2.06310	-1.02180	1.90710	-0.75155
3710.000	2.08284	-0.98999	1.90513	-0.76149
3711.000	2.05520	-1.03770	1.99004	-0.75946
3712.000	2.06705	-1.00987	1.98412	-0.75946
3713.000	2.08482	-1.02576	1.97622	-0.70381
3714.000	2.07100	-0.99596	1.96635	-0.83302
3715.000	2.10456	-1.02177	2.03546	-0.71571
3716.000	2.06705	-0.99596	1.98412	-0.74157
3717.000	2.05323	-0.98205	1.98017	-0.79326
3718.000	2.05125	-0.98603	1.96832	-0.73760
3719.000	2.06705	-0.99000	1.98017	-0.74754
3720.000	2.12036	-0.99990	1.96832	-0.73959
3721.000	2.08284	-1.03172	1.95647	-0.75948
3722.000	2.05718	-0.97410	2.01176	-0.78927
3723.000	2.09666	-0.99594	1.96240	-0.79128
3724.000	2.04730	-1.01187	1.97227	-0.80519
3725.000	2.07692	-1.01583	1.95647	-0.76345
3726.000	2.07889	-1.03371	2.05125	-0.72365
3727.000	2.06507	-1.00391	1.93278	-0.77738
3728.000	2.05323	-1.00392	1.94660	-0.66605
3729.000	2.03941	-1.06753	1.96832	-0.74158
3730.000	2.08482	-1.00787	2.01769	-0.76740
3731.000	2.03743	-1.02977	1.99794	-0.74356
3732.000	2.09469	-1.03172	1.98214	-0.78133
3733.000	2.05915	-0.99398	1.99004	-0.70579
3734.000	2.06705	-1.01782	1.98609	-0.74952
3735.000	2.07100	-1.03968	1.95450	-0.73761
3736.000	2.07297	-1.04962	1.99991	-0.78331
3737.000	2.02361	-1.02779	1.93870	-0.75551
3738.000	2.02558	-1.01387	1.98017	-0.71176
3739.000	2.07297	-1.01782	1.92883	-0.70581
3740.000	2.05323	-0.99796	1.95845	-0.73562
3741.000	2.03941	-1.03573	2.00979	-0.75945
3742.000	2.02558	-1.01189	1.96042	-0.70779
3743.000	2.04533	-1.02579	1.94462	-0.73762
3744.000	2.06705	-0.99000	1.94462	-0.73960
3745.000	2.07889	-0.98999	1.98017	-0.73959
3746.000	2.06902	-1.01186	1.96437	-0.71176
3747.000	2.05915	-0.99596	1.96240	-0.74158
3748.000	2.04928	-0.99398	1.99202	-0.73163
3749.000	2.06705	-1.01782	1.97424	-0.78929
3750.000	2.03743	-1.00194	2.03151	-0.77336
3751.000	2.05323	-1.00988	1.90513	-0.73167
3752.000	2.06112	-1.01385	1.97622	-0.71971
3753.000	2.03151	-1.00791	1.97227	-0.76146
3754.000	2.06310	-0.99596	1.95450	-0.72370
3755.000	2.07495	-1.01980	1.94067	-0.82707
3756.000	2.03546	-1.02380	2.00386	-0.78927
3757.000	2.09074	-0.97209	1.94265	-0.79924
3758.000	2.05718	-0.99597	2.01176	-0.74355
3759.000	2.04730	-1.01783	1.97029	-0.75748
3760.000	2.05125	-0.99994	2.00584	-0.79722
3761.000	2.07100	-1.00589	1.98214	-0.69386
3762.000	2.05718	-1.02777	1.96832	-0.81513
3763.000	2.07297	-1.00788	1.93672	-0.74358
3764.000	2.06507	-0.98205	1.96832	-0.76146
3765.000	2.08284	-0.99197	2.01176	-0.67397
3766.000	2.08087	-0.98800	1.95845	-0.79526
3767.000	2.05915	-1.00391	1.93278	-0.79726
3768.000	2.09074	-0.98402	2.00189	-0.77536
3769.000	2.12036	-0.92835	1.96635	-0.78333
3770.000	2.06310	-0.99596	1.93672	-0.73364
3771.000	2.08877	-0.96613	1.99597	-0.72169
3772.000	2.10851	-0.97407	1.89723	-0.79131
3773.000	2.10259	-0.94824	2.03151	-0.71571
3774.000	2.10061	-0.97606	1.90315	-0.76745
3775.000	2.09864	-0.94029	2.08679	-0.81905
3776.000	2.09666	-0.95818	1.93672	-0.70780
3777.000	2.10061	-0.95817	2.05125	-0.77136
3778.000	2.10061	-0.94227	1.98214	-0.81314
3779.000	2.11246	-0.94624	1.97227	-0.73562
3780.000	2.09271	-0.98799	2.06507	-0.75148
3781.000	2.07692	-0.95223	1.99597	-0.76145
3782.000	2.09469	-0.97408	2.04928	-0.77534
3783.000	2.11246	-0.96214	1.96832	-0.70580
3784.000	2.12628	-0.95418	1.95450	-0.71574
3785.000	2.12036	-0.94425	2.00979	-0.79921
3786.000	2.09271	-0.97010	1.91698	-0.76347
3787.000	2.10456	-0.95221	1.96635	-0.78929
3788.000	2.12628	-0.94425	1.98609	-0.72169
3789.000	2.13220	-0.95219	1.95450	-0.77339
3790.000	2.06507	-0.97211	1.98609	-0.70380
3791.000	2.13418	-0.98200	1.98214	-0.76145
3792.000	2.08877	-0.97209	2.10654	-0.78922
3793.000	2.11048	-0.94624	1.93278	-0.77937
3794.000	2.08284	-0.97806	2.04928	-0.77136
3795.000	2.10259	-0.97010	2.07495	-0.72762
3796.000	2.11641	-0.96810	1.93475	-0.70979
3797.000	2.13615	-0.92039	1.93278	-0.75154
3798.000	2.12036	-0.94027	1.93475	-0.75551
3799.000	2.12825	-0.99195	2.00189	-0.70380
3800.000	2.10456	-0.97010	2.04533	-0.66203
3801.000	2.12233	-0.96214	1.95845	-0.71177
3802.000	2.15589	-0.95019	1.88735	-0.71776
3803.000	2.11838	-0.97406	1.99399	-0.71970
3804.000	2.11048	-0.99196	1.91500	-0.77540
3805.000	2.07495	-0.97210	1.97622	-0.69983
3806.000	2.11246	-0.98997	1.91500	-0.75950
3807.000	2.14800	-0.92833	2.05323	-0.76937
3808.000	2.15984	-0.93826	1.93672	-0.73563
3809.000	2.16971	-0.94819	2.01374	-0.80915
3810.000	2.13615	-0.91244	2.02163	-0.81908
3811.000	2.10259	-0.94625	2.00386	-0.72964
3812.000	2.09666	-0.93830	1.99004	-0.71573
3813.000	2.09469	-0.98799	2.04335	-0.73161
3814.000	2.09666	-0.95023	1.94067	-0.70780
3815.000	2.12233	-0.98002	1.98609	-0.74356
3816.000	2.10654	-0.93233	1.97029	-0.71574
3817.000	2.09469	-0.99992	2.02953	-0.74553
3818.000	2.12233	-1.02772	1.98609	-0.73760
3819.000	2.14010	-0.96610	1.92488	-0.76347
3820.000	2.09074	-0.99594	1.91895	-0.65811
3821.000	2.12036	-0.95021	2.03348	-0.72764
3822.000	2.13418	-0.98598	1.99399	-0.67199
3823.000	2.11048	-0.99196	1.96437	-0.68592
3824.000	2.13812	-0.98200	1.97424	-0.73363
3825.000	2.09074	-0.97011	2.00584	-0.66404
3826.000	2.15392	-0.97205	2.04533	-0.78727
3827.000	2.11443	-1.00189	2.02163	-0.72764
3828.000	2.14405	-0.95020	1.89328	-0.75354
3829.000	2.14602	-0.93628	2.00979	-0.82108
3830.000	2.13220	-0.95816	1.99004	-0.79524
3831.000	2.17958	-0.93626	1.95647	-0.74357
3832.000	2.12430	-0.96611	2.04335	-0.73161
3833.000	2.11443	-0.98798	1.96042	-0.78731
3834.000	2.12628	-0.95617	1.99004	-0.78133
3835.000	2.12628	-0.95816	1.99794	-0.76741
3836.000	2.14800	-0.97603	1.99794	-0.72368
3837.000	2.14010	-0.93033	1.96437	-0.74158
3838.000	2.14997	-0.93032	1.99991	-0.76145
3839.000	2.13220	-0.94822	1.98017	-0.75549
3840.000	2.18748	-0.95812	2.03151	-0.82305
3841.000	2.12430	-1.02176	2.03348	-0.75348
3842.000	2.13220	-0.93033	1.94857	-0.74954
3843.000	2.16971	-0.94024	1.97424	-0.73363
3844.000	2.16576	-0.97801	2.02558	-0.72565
3845.000	2.13023	-0.94623	1.95055	-0.71575
3846.000	2.14997	-0.95218	2.03151	-0.74752
3847.000	2.16576	-0.93230	2.00584	-0.73958
3848.000	2.17761	-0.96011	1.95845	-0.77339
3849.000	2.15787	-0.92634	2.14010	-0.79914
3850.000	2.18748	-0.97799	1.93672	-0.75949
3851.000	2.18353	-0.95614	1.98609	-0.74157
3852.000	2.15984	-1.00981	2.02756	-0.74354
3853.000	2.15194	-0.98398	1.95055	-0.76942
3854.000	2.16181	-0.98199	1.98017	-0.78531
3855.000	2.16576	-0.96410	2.00979	-0.72367
3856.000	2.16379	-0.96609	1.90908	-0.72173
3857.000	2.16774	-0.97006	2.00386	-0.74355
3858.000	2.14602	-0.99193	1.95055	-0.73761
3859.000	2.15787	-0.93429	2.04138	-0.72763
3860.000	2.17169	-0.96409	2.02361	-0.72565
3861.000	2.17169	-0.94621	2.02163	-0.78926
3862.000	2.17169	-0.96807	1.98017	-0.77736
3863.000	2.12430	-0.94822	1.94462	-0.68792
3864.000	2.19340	-0.98197	2.03151	-0.67396
3865.000	2.13418	-0.99393	1.97819	-0.77736
3866.000	2.17563	-0.95217	1.98412	-0.71374
3867.000	2.15194	-0.99988	2.04335	-0.73558
3868.000	2.11838	-1.00785	2.02163	-0.74553
3869.000	2.18353	-0.96607	1.97029	-0.66604
3870.000	2.14010	-0.97206	1.98807	-0.66007
3871.000	2.15787	-0.97404	2.00189	-0.80319
3872.000	2.16181	-0.97602	1.96832	-0.72369
3873.000	2.13812	-0.98796	2.04138	-0.78926
3874.000	2.14207	-0.95815	1.96437	-0.73363
3875.000	2.15589	-1.00783	1.93672	-0.74756
3876.000	2.14997	-0.99193	2.00781	-0.77337
3877.000	2.17761	-1.00384	1.94660	-0.74954
3878.000	2.17563	-0.97204	1.97029	-0.72369
3879.000	2.16181	-0.98596	1.93080	-0.69587
3880.000	2.16971	-0.99589	1.91698	-0.67600
3881.000	2.10456	-0.98799	2.04533	-0.71173
3882.000	2.12430	-0.97605	1.99597	-0.71970
3883.000	2.15194	-1.01180	1.94660	-0.72370
3884.000	2.13418	-1.03169	1.95845	-0.75351
3885.000	2.17366	-1.00384	1.98214	-0.65212
3886.000	2.14997	-0.98597	2.05125	-0.73160
3887.000	2.15589	-0.98994	1.96635	-0.71375
3888.000	2.15787	-1.08931	1.93278	-0.71178
3889.000	2.12233	-1.02176	2.00386	-0.73759
3890.000	2.15589	-0.96808	1.94660	-0.75749
3891.000	2.11443	-1.00984	1.94462	-0.78135
3892.000	2.14800	-1.04758	2.02953	-0.80119
3893.000	2.14405	-1.02572	1.93080	-0.69587
3894.000	2.11641	-1.03568	2.00189	-0.76940
3895.000	2.12825	-0.99989	1.95845	-0.72767
3896.000	2.12036	-1.01580	1.92883	-0.75949
3897.000	2.13023	-1.00784	2.00189	-0.73361
3898.000	2.14602	-1.03367	1.95845	-0.67996
3899.000	2.12628	-1.04958	1.89920	-0.66607
3900.000	2.12628	-1.04362	1.94462	-0.73165
3901.000	2.14010	-1.05156	2.03941	-0.73757
3902.000	2.14602	-1.01777	1.97424	-0.74754
3903.000	2.13023	-0.99393	1.95845	-0.69785
3904.000	2.14997	-1.00982	2.04138	-0.72962
3905.000	2.13023	-1.01778	2.00189	-0.79325
3906.000	2.10851	-1.03966	1.99004	-0.75350
3907.000	2.15589	-1.01578	1.95845	-0.76345
3908.000	2.14800	-1.02174	1.95055	-0.73562
3909.000	2.11048	-1.03369	2.01966	-0.77138
3910.000	2.10061	-1.01780	1.99991	-0.74952
3911.000	2.14602	-1.00982	2.03941	-0.78329
3912.000	2.15194	-1.04360	2.03151	-0.75149
3913.000	2.12233	-1.00984	1.99597	-0.73958
3914.000	2.14010	-1.04957	2.00584	-0.74355
3915.000	2.11246	-1.07145	1.99991	-0.71572
3916.000	2.14010	-0.99392	1.98609	-0.77735
3917.000	2.15589	-0.95814	2.01769	-0.75746
3918.000	2.18156	-1.03365	1.94265	-0.72370
3919.000	2.16774	-0.98794	1.97819	-0.72368
3920.000	2.17366	-0.99589	2.01571	-0.73758
3921.000	2.17958	-0.96210	2.04533	-0.66998
3922.000	2.14207	-1.03963	1.93475	-0.71178
3923.000	2.13615	-0.97405	1.98214	-0.74157
3924.000	2.13812	-1.01579	1.96832	-0.75152
3925.000	2.16181	-0.98596	1.98807	-0.73561
3926.000	2.16971	-0.96012	1.97819	-0.73760
3927.000	2.13812	-0.98001	1.94462	-0.70183
3928.000	2.14207	-0.95219	2.00979	-0.68391
3929.000	2.15392	-0.97404	1.98214	-0.75151
3930.000	2.14602	-0.98597	1.87946	-0.69987
3931.000	2.15194	-0.98199	1.93278	-0.69985
3932.000	2.14010	-0.96411	2.00584	-0.70578
3933.000	2.12233	-0.98797	1.96832	-0.72767
3934.000	2.15392	-1.00584	1.88735	-0.68794
3935.000	2.16576	-0.95813	2.06310	-0.69383
3936.000	2.15787	-0.98994	2.03151	-0.69384
3937.000	2.16971	-1.00980	2.00189	-0.69982
3938.000	2.16774	-1.00981	1.88143	-0.71975
3939.000	2.20130	-0.98792	2.02953	-0.75944
3940.000	2.16576	-0.98198	1.93870	-0.73563
3941.000	2.15194	-0.98795	1.99202	-0.71175
3942.000	2.13812	-0.97008	1.99202	-0.74157
3943.000	2.13220	-1.01977	2.02953	-0.75944
3944.000	2.13418	-0.94623	1.95647	-0.70183
3945.000	2.15392	-1.01776	1.96437	-0.70580
3946.000	2.13812	-0.99194	2.03941	-0.73956
3947.000	2.15392	-0.99789	2.00189	-0.75349
3948.000	2.14010	-1.03765	1.93672	-0.75352
3949.000	2.14405	-1.00585	1.94660	-0.68394
3950.000	2.15194	-0.98994	1.95845	-0.70381
3951.000	2.12036	-0.96214	2.01571	-0.71572
3952.000	2.10851	-1.00388	2.01571	-0.81113
3953.000	2.18550	-0.97005	1.88538	-0.72372
3954.000	2.11838	-1.04760	1.94660	-0.73960
3955.000	2.13812	-1.00784	2.02163	-0.67993
3956.000	2.17366	-1.00781	1.95252	-0.74954
3957.000	2.16379	-1.01577	1.93672	-0.65015
3958.000	2.17563	-1.00781	1.94660	-0.66605
3959.000	2.18156	-0.99191	1.95055	-0.67996
3960.000	2.15984	-1.01180	1.99202	-0.70181
3961.000	2.14207	-0.98200	1.97227	-0.68393
3962.000	2.14997	-1.01379	1.95845	-0.72568
3963.000	2.16379	-1.02571	1.99597	-0.70380
3964.000	2.13023	-1.05952	1.97424	-0.69784
3965.000	2.18945	-0.98793	2.00979	-0.70777
3966.000	2.11838	-0.94624	1.98017	-0.71573
3967.000	2.12825	-1.01182	1.96832	-0.67797
3968.000	2.11641	-1.00388	2.01374	-0.67994
3969.000	2.18353	-0.97203	1.95252	-0.70382
3970.000	2.14405	-1.02175	1.93870	-0.74955
3971.000	2.12036	-1.01977	1.92488	-0.65015
3972.000	2.13812	-0.99790	1.89723	-0.66607
3973.000	2.13023	-0.99989	2.00979	-0.70180
3974.000	2.13023	-0.95219	1.95845	-0.70381
3975.000	2.13418	-0.98797	2.07889	-0.72563
3976.000	2.11443	-0.94823	1.96832	-0.73164
3977.000	2.16774	-0.97205	1.95845	-0.71972
3978.000	2.14800	-0.98001	1.88143	-0.71975
3979.000	2.16576	-0.97403	2.04335	-0.71769
3980.000	2.15392	-1.01379	1.97819	-0.68591
3981.000	2.12036	-0.98996	2.01966	-0.72963
3982.000	2.14800	-1.03367	1.98214	-0.72170
3983.000	2.15787	-1.02969	1.97029	-0.74953
3984.000	2.12233	-1.02375	1.94660	-0.74557
3985.000	2.16181	-1.01378	2.01374	-0.68192
3986.000	2.11048	-1.04363	2.00386	-0.67994
3987.000	2.13418	-1.00188	1.92290	-0.68395
3988.000	2.12233	-1.02971	2.02756	-0.67198
3989.000	2.13418	-1.00585	1.99597	-0.75350
3990.000	2.16379	-1.02770	1.96437	-0.66405
3991.000	2.14405	-1.00783	2.01176	-0.72367
3992.000	2.13220	-0.99790	2.04928	-0.66601
3993.000	2.12628	-1.02375	1.97622	-0.70381
3994.000	2.11048	-1.01978	1.96240	-0.76345
3995.000	2.13615	-1.04958	2.04928	-0.73558
3996.000	2.10061	-1.03569	1.94857	-0.65412
3997.000	2.14602	-1.00386	1.98214	-0.69585
3998.000	2.12825	-1.01977	2.00781	-0.76542
3999.000	2.14997	-1.03168	2.00584	-0.67397
4000.000	2.11838	-1.05754	1.99202	-0.67796
4001.000	2.11838	-1.03568	2.02361	-0.69583
4002.000	2.12825	-0.96810	1.98609	-0.71175
4003.000	2.13220	-1.04560	2.00386	-0.73163
4004.000	2.12825	-1.05753	2.00584	-0.72566
4005.000	2.12233	-1.02176	2.02953	-0.65806
4006.000	2.12628	-0.97207	1.99399	-0.70380
4007.000	2.11048	-1.05953	1.95647	-0.72767
4008.000	2.14800	-1.04957	2.03151	-0.74354
4009.000	2.14010	-1.01380	1.98017	-0.69585
4010.000	2.13418	-1.02772	2.01769	-0.68789
4011.000	2.13220	-1.03169	1.96635	-0.71773
4012.000	2.08087	-1.05557	1.96042	-0.71773
4013.000	2.13220	-1.01182	1.94857	-0.73165
4014.000	2.07495	-1.04167	2.02953	-0.72167
4015.000	2.16379	-0.99391	1.91698	-0.70781
4016.000	2.12825	-1.04958	1.97227	-0.73760
4017.000	2.13418	-1.01778	2.01769	-0.80119
4018.000	2.12825	-1.06349	1.93672	-0.73165
4019.000	2.11443	-1.04562	1.97622	-0.77537
4020.000	2.14997	-1.05155	1.97424	-0.76941
4021.000	2.14602	-1.03367	2.06705	-0.69582
4022.000	2.08482	-1.07346	1.97227	-0.69387
4023.000	2.14010	-1.05951	2.12233	-0.76934
4024.000	2.11641	-1.04363	2.04730	-0.66998
4025.000	2.09074	-1.08339	1.98609	-0.77735
4026.000	2.09074	-1.08737	2.03348	-0.77733
4027.000	2.08482	-1.08936	1.94462	-0.76942
4028.000	2.08679	-1.05756	1.97622	-0.78332
4029.000	2.08284	-1.08141	1.92290	-0.72371
4030.000	2.09469	-1.09134	1.93475	-0.74756
4031.000	2.08284	-1.04762	2.00584	-0.75150
4032.000	2.12036	-1.09728	2.03348	-0.74553
4033.000	2.12233	-1.06747	1.98214	-0.69784
4034.000	2.09271	-1.00191	1.91895	-0.69190
4035.000	2.10061	-1.06947	1.98017	-0.73164
4036.000	2.11838	-1.09331	1.97424	-0.72965
4037.000	2.09271	-1.05358	1.96240	-0.73363
4038.000	2.06705	-1.05757	1.99991	-0.74753
4039.000	2.11641	-1.03766	2.00979	-0.71373
4040.000	2.12036	-1.07542	1.93672	-0.75551
4041.000	2.08877	-1.04364	2.00386	-0.68789
4042.000	2.07297	-1.08142	1.95845	-0.70978
4043.000	2.10061	-1.07544	2.00584	-0.72566
4044.000	2.09666	-1.05556	2.00781	-0.76741
4045.000	2.10259	-1.06351	1.95845	-0.72966
4046.000	2.05323	-1.08342	1.97622	-0.72965
4047.000	2.08679	-1.08737	1.96832	-0.81712
4048.000	2.08877	-1.05557	2.01571	-0.75746
4049.000	2.07889	-1.03968	2.00386	-0.78530
4050.000	2.07297	-1.03769	2.00584	-0.74554
4051.000	2.04335	-1.08342	1.99202	-0.74952
4052.000	2.09469	-1.06153	2.00386	-0.77735
4053.000	2.09074	-1.08140	1.88735	-0.72571
4054.000	2.04533	-1.03572	1.94067	-0.77539
4055.000	2.04335	-1.07349	2.01374	-0.70975
4056.000	2.04138	-1.04169	1.99597	-0.71573
4057.000	2.04730	-1.05162	1.97622	-0.75350
4058.000	2.03348	-1.07349	1.95845	-0.78333
4059.000	2.06112	-1.07149	1.99991	-0.77735
4060.000	2.07100	-1.05558	1.93475	-0.74160
4061.000	2.06902	-1.10527	2.02756	-0.77535
4062.000	2.05915	-1.06354	2.00781	-0.79126
4063.000	2.07100	-1.08341	2.04928	-0.76937
4064.000	2.09666	-1.04960	2.00781	-0.83300
4065.000	2.06112	-1.08142	2.02756	-0.76938
4066.000	2.05915	-1.07348	2.07297	-0.76539
4067.000	2.04335	-1.06554	2.06507	-0.73756
4068.000	2.04533	-1.09734	1.98017	-0.75350
4069.000	2.05125	-1.07547	2.07495	-0.83098
4070.000	2.09666	-1.07544	1.99004	-0.80916
4071.000	2.04928	-1.06951	1.98609	-0.75946
4072.000	2.05323	-1.07149	1.95252	-0.77141
4073.000	1.99991	-1.06755	1.98214	-0.80916
4074.000	2.02756	-1.08940	1.95647	-0.76544
4075.000	2.02953	-1.08343	1.93870	-0.74955
4076.000	2.02361	-1.07151	2.03546	-0.77932
4077.000	2.04730	-1.06355	1.98807	-0.79723
4078.000	2.05323	-1.08342	1.89525	-0.81318
4079.000	2.00584	-1.11724	2.03941	-0.78528
4080.000	2.03743	-1.11523	1.93475	-0.70979
4081.000	2.07495	-1.06353	1.97029	-0.79128
4082.000	2.06902	-1.05757	2.01769	-0.75150
4083.000	2.02953	-1.10927	2.03151	-0.77336
4084.000	2.06310	-1.12316	1.98412	-0.76145
4085.000	2.02361	-1.09934	1.91895	-0.81913
4086.000	2.03743	-1.11523	2.01571	-0.79722
4087.000	2.06310	-1.10726	1.96832	-0.82507
4088.000	2.05125	-1.12317	1.97424	-0.77537
4089.000	2.04335	-1.08939	2.00979	-0.84890
4090.000	2.04533	-1.07945	1.99004	-0.80518
4091.000	2.03546	-1.11324	2.05323	-0.77931
4092.000	2.04533	-1.06156	1.94660	-0.79328
4093.000	2.03151	-1.07350	1.96437	-0.81712
4094.000	2.05125	-1.10131	2.00584	-0.80319
4095.000	2.00386	-1.13910	1.96240	-0.91850
4096.000	2.03151	-1.11324	2.02558	-0.93039
4097.000	2.06705	-1.12117	1.96042	-0.88272
4098.000	2.06705	-1.10130	1.99399	-0.86283
4099.000	2.08284	-1.11122	1.91105	-0.74956
4100.000	2.06507	-1.15496	1.98412	-0.80519
4101.000	2.05718	-1.10130	1.97424	-0.85091
4102.000	2.05718	-1.10726	2.08284	-0.86477
4103.000	2.06507	-1.09732	2.01966	-0.83697
4104.000	2.05520	-1.11919	2.02558	-0.76938
4105.000	2.05718	-1.12515	1.99399	-0.85885
4106.000	2.08877	-1.10724	1.97424	-0.82904
4107.000	2.04533	-1.11125	1.99004	-0.80121
4108.000	2.06902	-1.11918	1.97424	-0.87675
4109.000	2.05125	-1.15695	1.97424	-0.83501
4110.000	2.07692	-1.11719	2.04335	-0.84690
4111.000	2.05915	-1.11521	1.95647	-0.80321
4112.000	2.05520	-1.11323	2.03151	-0.86281
4113.000	2.06902	-1.11521	1.98017	-0.83898
4114.000	2.05915	-1.12316	2.07100	-0.91645
4115.000	2.05323	-1.19272	1.98807	-0.82506
4116.000	2.06310	-1.15297	2.00781	-0.82306
4117.000	2.06112	-1.13111	1.98214	-0.89464
4118.000	2.04138	-1.15100	2.01769	-0.84493
4119.000	2.06705	-1.12912	2.00781	-0.78530
4120.000	2.05915	-1.09335	2.02558	-0.84492
4121.000	2.03151	-1.10132	1.98609	-0.85488
4122.000	2.03546	-1.12715	2.02756	-0.78727
4123.000	2.06507	-1.08738	2.04533	-0.86081
4124.000	2.07297	-1.07744	2.00781	-0.83897
4125.000	2.08087	-1.10725	2.03348	-0.82703
4126.000	2.06310	-1.12117	2.04928	-0.86677
4127.000	2.05718	-1.12118	2.01966	-0.75150
4128.000	2.05915	-1.09534	2.00386	-0.80915
4129.000	2.07692	-1.07346	2.03546	-0.72764
4130.000	2.07889	-1.13308	1.99991	-0.80717
4131.000	2.07889	-1.08539	1.99004	-0.74356
4132.000	2.06902	-1.10924	2.03941	-0.79522
4133.000	2.05915	-1.10329	2.06507	-0.78726
4134.000	2.06902	-1.09334	1.99794	-0.76542
4135.000	2.06507	-1.11123	1.97227	-0.77339
4136.000	2.08087	-1.11718	2.03941	-0.77733
4137.000	2.03941	-1.15100	2.06112	-0.77533
4138.000	2.07495	-1.16687	2.01966	-0.84095
4139.000	2.03941	-1.15696	2.02361	-0.83300
4140.000	2.06310	-1.11720	2.02361	-0.82306
4141.000	2.06902	-1.13309	2.06310	-0.77732
4142.000	2.04730	-1.15696	1.99991	-0.89662
4143.000	2.07889	-1.20463	1.98609	-0.81711
4144.000	2.06705	-1.16688	2.05520	-0.82304
4145.000	2.03743	-1.10132	1.96832	-0.86682
4146.000	2.06902	-1.14303	1.97227	-0.84495
4147.000	2.08482	-1.14500	1.98017	-0.82109
4148.000	2.03743	-1.15498	1.99597	-0.85090
4149.000	2.06310	-1.07546	1.98807	-0.81314
4150.000	2.05718	-1.13906	1.92883	-0.81913
4151.000	2.07495	-1.12713	1.97424	-0.82706
4152.000	2.06507	-1.12316	1.99399	-0.88668
4153.000	2.08087	-1.14302	1.98609	-0.90060
4154.000	2.09074	-1.10327	1.97029	-0.82308
4155.000	2.07297	-1.14104	2.02953	-0.82703
4156.000	2.09271	-1.11121	1.97029	-0.83501
4157.000	2.08482	-1.09135	1.96240	-0.87875
4158.000	2.05718	-1.07547	2.03941	-0.88268
4159.000	2.05718	-1.05360	2.02953	-0.90058
4160.000	2.00189	-1.03973	1.85181	-0.78139
4161.000	1.91105	-1.01792	1.84786	-0.75356
4162.000	1.83403	-0.96230	1.79256	-0.76551
4163.000	1.70170	-0.94249	1.62071	-0.68804
4164.000	1.58318	-0.89483	1.58713	-0.58465
4165.000	1.43303	-0.83524	1.36980	-0.64238
4166.000	1.29669	-0.74382	1.25124	-0.62451
4167.000	1.12477	-0.72199	1.06153	-0.53704
4168.000	1.01014	-0.67229	1.02200	-0.49926
4169.000	0.90539	-0.63453	0.91527	-0.43761
4170.000	0.86191	-0.58083	0.81447	-0.38790
4171.000	0.83621	-0.55498	0.73145	-0.34016
4172.000	0.83621	-0.45751	0.83424	-0.32424
4173.000	0.83621	-0.51917	0.84214	-0.23871
4174.000	0.89946	-0.46745	0.81645	-0.06763
4175.000	1.00421	-0.38390	0.93899	-0.10742
4176.000	1.10106	-0.38388	1.02003	-0.06564
4177.000	1.19591	-0.40376	1.04177	0.00995
4178.000	1.35795	-0.34009	1.25520	-0.01591
4179.000	1.43105	-0.32616	1.32831	-0.02188
4180.000	1.50415	-0.38581	1.32633	0.01989
4181.000	1.60096	-0.37784	1.38758	0.05171
4182.000	1.65824	-0.37385	1.46266	-0.00597
4183.000	1.70762	-0.41958	1.56342	-0.03182
4184.000	1.74120	-0.45337	1.57527	-0.08949
4185.000	1.74318	-0.46133	1.64837	-0.11733
4186.000	1.74120	-0.51302	1.55157	-0.21279
4187.000	1.74515	-0.58063	1.58318	-0.27444
4188.000	1.71355	-0.58660	1.54564	-0.35796
4189.000	1.66417	-0.64428	1.56935	-0.37188
4190.000	1.64244	-0.64826	1.47847	-0.48525
4191.000	1.59305	-0.69202	1.51403	-0.47928
4192.000	1.53774	-0.73579	1.49823	-0.50712
4193.000	1.51403	-0.75369	1.46266	-0.48724
4194.000	1.50218	-0.77358	1.49625	-0.57473
4195.000	1.47649	-0.75569	1.41920	-0.47333
4196.000	1.45871	-0.82330	1.42315	-0.59066
4197.000	1.47452	-0.79944	1.43303	-0.49520
