time (ms)	lx (deg)	ly (deg)	rx (deg)	ry (deg)
0.000	2.24275	-0.74741	2.13023	-0.27634
1.000	2.29210	-0.72155	2.13023	-0.31610
2.000	2.22893	-0.73152	2.16971	-0.27832
3.000	2.21117	-0.75140	2.15392	-0.31013
4.000	2.26447	-0.73746	2.10259	-0.30616
5.000	2.23091	-0.72556	2.09469	-0.24851
6.000	2.22301	-0.70171	2.13023	-0.30218
7.000	2.22893	-0.70369	2.15392	-0.22663
8.000	2.22499	-0.75935	2.15194	-0.26838
9.000	2.24275	-0.73747	2.01571	-0.31612
10.000	2.26052	-0.70765	2.11246	-0.28032
11.000	2.25065	-0.72157	2.12628	-0.25646
12.000	2.25854	-0.72554	2.05718	-0.26641
13.000	2.24275	-0.74145	2.06705	-0.33202
14.000	2.25262	-0.78716	2.11641	-0.26839
15.000	2.22104	-0.74146	2.08482	-0.20676
16.000	2.23288	-0.74941	2.07100	-0.26044
17.000	2.22893	-0.72357	2.14997	-0.25049
18.000	2.24670	-0.72754	2.14602	-0.26640
19.000	2.22893	-0.73351	2.10061	-0.24453
20.000	2.25262	-0.70766	2.05915	-0.27039
21.000	2.28420	-0.72354	2.13812	-0.30019
22.000	2.24473	-0.70368	2.06902	-0.30816
23.000	2.28815	-0.74143	2.13812	-0.27435
24.000	2.27433	-0.73945	2.10259	-0.30418
25.000	2.27433	-0.69771	2.15392	-0.27832
26.000	2.25854	-0.73548	2.17958	-0.28428
27.000	2.22893	-0.75140	2.12233	-0.27435
28.000	2.29013	-0.73149	2.15194	-0.28429
29.000	2.24867	-0.75934	2.09666	-0.22863
30.000	2.27828	-0.76528	2.12036	-0.35188
31.000	2.21906	-0.72357	2.10851	-0.27237
32.000	2.26447	-0.73150	2.13023	-0.18887
33.000	2.25460	-0.71958	2.08087	-0.23460
34.000	2.27236	-0.74541	2.12825	-0.26441
35.000	2.29802	-0.72155	2.13812	-0.26043
36.000	2.32368	-0.74141	2.06507	-0.24255
37.000	2.30000	-0.72552	2.02756	-0.28431
38.000	2.32565	-0.69570	2.06902	-0.28430
39.000	2.30592	-0.70962	2.13812	-0.33598
40.000	2.30000	-0.64999	2.15194	-0.23856
41.000	2.27433	-0.67386	2.16181	-0.26242
42.000	2.27631	-0.66392	2.15984	-0.27037
43.000	2.27236	-0.72951	2.04730	-0.32009
44.000	2.29013	-0.69174	2.18550	-0.28826
45.000	2.26644	-0.67982	2.11838	-0.27833
46.000	2.26841	-0.69374	2.09864	-0.23658
47.000	2.25854	-0.70765	2.07100	-0.22068
48.000	2.26644	-0.73150	2.06705	-0.28033
49.000	2.26249	-0.71958	2.14207	-0.28826
50.000	2.27631	-0.72355	2.09864	-0.19881
51.000	2.27828	-0.68777	2.18550	-0.31808
52.000	2.28420	-0.72155	2.13023	-0.28230
53.000	2.27631	-0.69373	2.12233	-0.26640
54.000	2.30197	-0.68179	2.08482	-0.22863
55.000	2.29013	-0.73348	2.13418	-0.26839
56.000	2.29802	-0.71757	2.03941	-0.20876
57.000	2.31973	-0.64998	2.10851	-0.29423
58.000	2.28026	-0.73348	2.15589	-0.31212
59.000	2.29802	-0.71956	2.15194	-0.23260
60.000	2.30394	-0.69571	2.08877	-0.24454
61.000	2.33158	-0.70364	2.20525	-0.24452
62.000	2.30986	-0.70564	2.15589	-0.28031
63.000	2.31776	-0.63210	2.13220	-0.35785
64.000	2.36118	-0.67382	2.17366	-0.33398
65.000	2.28420	-0.71957	2.11443	-0.33399
66.000	2.32171	-0.66787	2.14800	-0.29423
67.000	2.31381	-0.70961	2.07889	-0.30020
68.000	2.32368	-0.68377	2.11838	-0.29423
69.000	2.31184	-0.69570	2.13615	-0.27634
70.000	2.32960	-0.72749	2.15392	-0.31411
71.000	2.29605	-0.73745	2.09271	-0.33797
72.000	2.33750	-0.70761	2.19143	-0.32205
73.000	2.33947	-0.71954	2.08482	-0.34195
74.000	2.31381	-0.71756	2.25460	-0.30613
75.000	2.35723	-0.70562	2.14010	-0.26043
76.000	2.32763	-0.71954	2.16576	-0.22663
77.000	2.27039	-0.71560	2.13220	-0.27435
78.000	2.24670	-0.67188	2.06507	-0.26045
79.000	2.19538	-0.68184	2.01966	-0.28232
80.000	2.04533	-0.62426	1.86958	-0.26246
81.000	1.89328	-0.58257	1.77083	-0.20282
82.000	1.62269	-0.57669	1.56342	-0.24660
83.000	1.45674	-0.53895	1.38956	-0.19093
84.000	1.25520	-0.47535	1.07536	-0.18498
85.000	0.99631	-0.44158	0.87377	-0.14919
86.000	0.68994	-0.50129	0.53971	-0.04377
87.000	0.42505	-0.39389	0.30643	-0.03581
88.000	0.18584	-0.37202	0.01779	0.05173
89.000	0.00593	-0.27852	-0.19968	0.24072
90.000	-0.23724	-0.28846	-0.34399	0.19496
91.000	-0.36772	-0.26658	-0.57331	0.19495
92.000	-0.48040	-0.27851	-0.59901	0.26856
93.000	-0.49424	-0.21883	-0.71168	0.33420
94.000	-0.46656	-0.24469	-0.69389	0.30237
95.000	-0.34993	-0.26857	-0.60889	0.42770
96.000	-0.24119	-0.29045	-0.54366	0.35609
97.000	-0.07710	-0.28648	-0.33411	0.37599
98.000	0.08897	-0.27056	-0.27085	0.35013
99.000	0.25899	-0.28647	-0.02966	0.36008
100.000	0.43296	-0.30238	0.13048	0.29443
101.000	0.58913	-0.31431	0.31829	0.33422
102.000	0.71168	-0.34016	0.48633	0.17506
103.000	0.79470	-0.37198	0.60099	0.17108
104.000	0.85005	-0.38192	0.64052	0.16710
105.000	0.89156	-0.37595	0.75517	0.09747
106.000	0.90737	-0.38391	0.74726	0.05570
107.000	0.86784	-0.41972	0.76901	0.04177
108.000	0.88167	-0.40977	0.75715	-0.06962
109.000	0.80459	-0.41574	0.78284	-0.04774
110.000	0.76703	-0.51321	0.62866	-0.04575
111.000	0.70378	-0.44161	0.66227	-0.02387
112.000	0.72354	-0.43962	0.59110	-0.07758
113.000	0.68796	-0.42172	0.56145	-0.04774
114.000	0.61878	-0.44958	0.50215	0.01989
115.000	0.57133	-0.41576	0.43691	-0.01194
116.000	0.49424	-0.46152	0.44679	-0.00199
117.000	0.49226	-0.36604	0.37958	0.05371
118.000	0.44086	-0.42771	0.36772	0.09748
119.000	0.41516	-0.42174	0.23724	0.08157
120.000	0.41714	-0.37201	0.37958	0.07759
121.000	0.43889	-0.41776	0.27282	0.12334
122.000	0.42702	-0.35808	0.22340	0.20491
123.000	0.35388	-0.36008	0.24712	0.18899
124.000	0.40923	-0.35411	0.18979	0.19098
125.000	0.40923	-0.34416	0.24119	0.17905
126.000	0.39737	-0.32626	0.26096	0.14722
127.000	0.40923	-0.34416	0.25503	0.19496
128.000	0.37365	-0.31830	0.22933	0.13130
129.000	0.40528	-0.29642	0.19177	0.21287
130.000	0.39144	-0.33024	0.22933	0.16512
131.000	0.36376	-0.32427	0.16014	0.20690
132.000	0.35388	-0.33422	0.26096	0.11340
133.000	0.38946	-0.35212	0.17002	0.14324
134.000	0.39342	-0.28846	0.28666	0.12533
135.000	0.40923	-0.30238	0.17793	0.21486
136.000	0.40726	-0.32825	0.22340	0.14125
137.000	0.44482	-0.32228	0.23131	0.11141
138.000	0.41516	-0.33421	0.25899	0.18104
139.000	0.42505	-0.28050	0.33411	0.09549
140.000	0.45075	-0.30238	0.25305	0.11539
141.000	0.41912	-0.32824	0.25899	0.15915
142.000	0.43098	-0.36803	0.19968	0.12135
143.000	0.43691	-0.31432	0.25899	0.18700
144.000	0.37958	-0.35212	0.23131	0.14324
145.000	0.41714	-0.32427	0.35586	0.13727
146.000	0.42307	-0.33421	0.27678	0.18104
147.000	0.43296	-0.32427	0.24712	0.16114
148.000	0.41121	-0.35610	0.27282	0.09748
149.000	0.45075	-0.32228	0.25503	0.14523
150.000	0.42505	-0.31432	0.32818	0.09748
151.000	0.44482	-0.30835	0.28864	0.13329
152.000	0.46854	-0.33819	0.32225	0.13926
153.000	0.42900	-0.32228	0.30050	0.17507
154.000	0.43691	-0.36007	0.26294	0.19496
155.000	0.45075	-0.35013	0.27085	0.13528
156.000	0.44679	-0.33421	0.30050	0.20491
157.000	0.47249	-0.37002	0.31632	0.18700
158.000	0.45668	-0.34416	0.20561	0.22281
159.000	0.43296	-0.35609	0.23724	0.16910
160.000	0.44284	-0.33421	0.23131	0.17706
161.000	0.48238	-0.37598	0.28469	0.15119
162.000	0.44284	-0.35212	0.28073	0.11141
163.000	0.49226	-0.33222	0.26096	0.13727
164.000	0.42109	-0.35609	0.21747	0.19297
165.000	0.46261	-0.31631	0.31236	0.24470
166.000	0.48435	-0.34615	0.27282	0.14324
167.000	0.40330	-0.38792	0.23329	0.17905
168.000	0.47052	-0.32625	0.29655	0.14722
169.000	0.49424	-0.31631	0.28271	0.17706
170.000	0.46063	-0.35609	0.32422	0.21287
171.000	0.47052	-0.33819	0.26887	0.12732
172.000	0.46063	-0.33222	0.26096	0.15716
173.000	0.50215	-0.32426	0.29457	0.12334
174.000	0.44877	-0.33421	0.27876	0.13727
175.000	0.46261	-0.32029	0.25108	0.11539
176.000	0.43296	-0.33819	0.25305	0.19297
177.000	0.49819	-0.32824	0.23131	0.14523
178.000	0.47447	-0.32227	0.31829	0.16512
179.000	0.49226	-0.32625	0.24317	0.09549
180.000	0.49424	-0.34416	0.28073	0.07759
181.000	0.46063	-0.31432	0.27282	0.16910
182.000	0.49424	-0.26259	0.25305	0.12135
183.000	0.48831	-0.29840	0.24910	0.03581
184.000	0.47842	-0.27055	0.26689	0.08157
185.000	0.45668	-0.32625	0.28864	0.20491
186.000	0.43691	-0.32824	0.27876	0.17905
187.000	0.48831	-0.30636	0.24119	0.14125
188.000	0.49424	-0.30835	0.23329	0.14523
189.000	0.51203	-0.30039	0.33213	0.17507
190.000	0.49424	-0.32625	0.30248	0.21684
191.000	0.47645	-0.32824	0.24317	0.14324
192.000	0.49226	-0.25464	0.24515	0.15517
193.000	0.49028	-0.30636	0.20363	0.18502
194.000	0.50215	-0.31829	0.20758	0.16711
195.000	0.46656	-0.28448	0.24515	0.18104
196.000	0.47447	-0.32029	0.28469	0.12334
197.000	0.50412	-0.29840	0.27480	0.15716
198.000	0.50215	-0.29840	0.26689	0.15915
199.000	0.49622	-0.34614	0.25305	0.12135
200.000	0.52982	-0.33421	0.33213	0.15517
201.000	0.52191	-0.34018	0.30050	0.13926
202.000	0.49819	-0.29243	0.27678	0.17308
203.000	0.52784	-0.33222	0.31632	0.17308
204.000	0.49819	-0.33819	0.25305	0.16711
205.000	0.50412	-0.33222	0.27876	0.14523
206.000	0.51203	-0.33620	0.31829	0.14125
207.000	0.50412	-0.33819	0.34597	0.14523
208.000	0.46656	-0.34615	0.31039	0.09947
209.000	0.50017	-0.36206	0.32225	0.11141
210.000	0.46459	-0.29641	0.32225	0.14921
211.000	0.49226	-0.35211	0.27678	0.20690
212.000	0.49622	-0.32227	0.25503	0.17109
213.000	0.50017	-0.33620	0.30446	0.09748
214.000	0.48040	-0.35609	0.28073	0.13329
215.000	0.50215	-0.32227	0.25701	0.16114
216.000	0.50017	-0.33421	0.30643	0.15517
217.000	0.55157	-0.33421	0.30050	0.15318
218.000	0.49028	-0.37201	0.24712	0.20889
219.000	0.50808	-0.32824	0.27876	0.14324
220.000	0.51005	-0.31034	0.25899	0.18700
221.000	0.47842	-0.29243	0.26492	0.15120
222.000	0.52784	-0.32227	0.31236	0.10345
223.000	0.52784	-0.34216	0.33411	0.11539
224.000	0.52389	-0.29243	0.29457	0.22679
225.000	0.54761	-0.29044	0.31236	0.10544
226.000	0.52784	-0.31630	0.21549	0.14921
227.000	0.51203	-0.31432	0.27876	0.19695
228.000	0.54366	-0.31034	0.28271	0.16711
229.000	0.52389	-0.32028	0.25108	0.08356
230.000	0.51796	-0.31034	0.26689	0.14921
231.000	0.48238	-0.31233	0.22933	0.19098
232.000	0.53773	-0.30238	0.32818	0.14125
233.000	0.51994	-0.33222	0.25503	0.11340
234.000	0.52982	-0.33421	0.27085	0.10942
235.000	0.54959	-0.30039	0.28666	0.16910
236.000	0.54366	-0.32625	0.30446	0.11539
237.000	0.53773	-0.29044	0.28666	0.16711
238.000	0.49028	-0.31829	0.21549	0.12334
239.000	0.52389	-0.30636	0.28271	0.15120
240.000	0.49424	-0.29442	0.22933	0.14523
241.000	0.51203	-0.31829	0.29062	0.18501
242.000	0.48633	-0.28448	0.30248	0.17706
243.000	0.47447	-0.33023	0.26096	0.10345
244.000	0.52389	-0.31233	0.28271	0.17109
245.000	0.52191	-0.29442	0.25305	0.25464
246.000	0.48633	-0.33222	0.23329	0.13926
247.000	0.51203	-0.32227	0.23131	0.14523
248.000	0.51401	-0.31829	0.29259	0.19098
249.000	0.51994	-0.32625	0.27876	0.17706
250.000	0.51994	-0.31630	0.25701	0.15915
251.000	0.50215	-0.28050	0.24317	0.19297
252.000	0.52784	-0.25066	0.29062	0.11738
253.000	0.50215	-0.31432	0.30446	0.16313
254.000	0.51598	-0.32028	0.29655	0.15119
255.000	0.50808	-0.29442	0.30248	0.14523
256.000	0.51401	-0.28646	0.24515	0.19297
257.000	0.51598	-0.30039	0.28666	0.17507
258.000	0.54366	-0.30238	0.21154	0.17706
259.000	0.52587	-0.30835	0.26689	0.17706
260.000	0.50017	-0.33819	0.26096	0.19098
261.000	0.51598	-0.31630	0.32027	0.09549
262.000	0.51796	-0.27851	0.33016	0.09947
263.000	0.52784	-0.27254	0.28666	0.11340
264.000	0.52389	-0.26458	0.28469	0.20889
265.000	0.51401	-0.29442	0.25899	0.14921
266.000	0.53378	-0.29044	0.34004	0.21287
267.000	0.52982	-0.28845	0.31236	0.18104
268.000	0.49424	-0.32625	0.28469	0.20292
269.000	0.48831	-0.33421	0.32818	0.19496
270.000	0.52982	-0.28447	0.23922	0.20292
271.000	0.51994	-0.31233	0.26689	0.13926
272.000	0.52389	-0.31233	0.26689	0.17706
273.000	0.52784	-0.31431	0.31632	0.14324
274.000	0.50215	-0.30437	0.29457	0.11738
275.000	0.54168	-0.28646	0.22933	0.23873
276.000	0.52587	-0.30835	0.25701	0.21287
277.000	0.49819	-0.34416	0.30643	0.17507
278.000	0.55750	-0.31033	0.27282	0.14523
279.000	0.52587	-0.29641	0.33016	0.13926
280.000	0.47249	-0.28249	0.28271	0.16711
281.000	0.51598	-0.35012	0.28469	0.15716
282.000	0.50215	-0.33421	0.30248	0.12732
283.000	0.52982	-0.33620	0.26294	0.13130
284.000	0.47447	-0.33421	0.28666	0.16910
285.000	0.52191	-0.34813	0.24712	0.18700
286.000	0.50808	-0.31432	0.24119	0.17308
287.000	0.51796	-0.37200	0.30841	0.17308
288.000	0.51994	-0.32227	0.33016	0.14125
289.000	0.52191	-0.31431	0.22933	0.13528
290.000	0.49819	-0.34217	0.31236	0.19098
291.000	0.55947	-0.32625	0.30841	0.15915
292.000	0.51203	-0.31630	0.30050	0.09151
293.000	0.52191	-0.33023	0.28666	0.14722
294.000	0.53180	-0.30437	0.25305	0.17308
295.000	0.52389	-0.31829	0.24910	0.16512
296.000	0.49622	-0.33421	0.31039	0.15119
297.000	0.49819	-0.32028	0.28666	0.09947
298.000	0.54959	-0.32028	0.25108	0.18104
299.000	0.50017	-0.30437	0.26096	0.16512
300.000	0.52784	-0.32426	0.23922	0.16114
301.000	0.51005	-0.34217	0.33016	0.12931
302.000	0.49226	-0.34615	0.37563	0.18302
303.000	0.49028	-0.32625	0.29655	0.19098
304.000	0.52784	-0.32824	0.31039	0.13130
305.000	0.48831	-0.32227	0.33213	0.18501
306.000	0.50808	-0.30039	0.28864	0.18104
307.000	0.54564	-0.32227	0.35981	0.18700
308.000	0.50215	-0.35609	0.32027	0.12931
309.000	0.52587	-0.31431	0.28864	0.20889
310.000	0.50610	-0.31432	0.27678	0.14125
311.000	0.49622	-0.34018	0.24515	0.18502
312.000	0.47842	-0.34217	0.26887	0.16313
313.000	0.50017	-0.31829	0.32027	0.19098
314.000	0.49424	-0.34018	0.31829	0.12533
315.000	0.51203	-0.33222	0.27282	0.18303
316.000	0.53180	-0.32426	0.20956	0.16711
317.000	0.49226	-0.30636	0.26492	0.15716
318.000	0.50610	-0.30636	0.34399	0.13329
319.000	0.48831	-0.30835	0.22735	0.08356
320.000	0.51401	-0.31233	0.28271	0.17905
321.000	0.50215	-0.35012	0.27678	0.16313
322.000	0.52587	-0.34018	0.32225	0.14324
323.000	0.54761	-0.30636	0.26887	0.14722
324.000	0.55552	-0.35808	0.25899	0.17905
325.000	0.54564	-0.35211	0.27480	0.15120
326.000	0.53575	-0.34216	0.27678	0.18104
327.000	0.50610	-0.34415	0.28666	0.12732
328.000	0.55947	-0.31033	0.32620	0.20292
329.000	0.51994	-0.35410	0.30643	0.19496
330.000	0.50808	-0.36007	0.31236	0.20093
331.000	0.52784	-0.29442	0.29457	0.15517
332.000	0.50610	-0.37002	0.31236	0.17308
333.000	0.51994	-0.35211	0.25108	0.17706
334.000	0.53180	-0.36604	0.32225	0.15517
335.000	0.50808	-0.34813	0.33213	0.16512
336.000	0.54564	-0.36802	0.34795	0.12533
337.000	0.49226	-0.36206	0.25701	0.13727
338.000	0.52982	-0.37598	0.26492	0.10146
339.000	0.54366	-0.34017	0.30841	0.15517
340.000	0.48435	-0.33023	0.33016	0.16114
341.000	0.51005	-0.33620	0.31434	0.19894
342.000	0.55354	-0.35410	0.32818	0.18104
343.000	0.53378	-0.36007	0.27876	0.16512
344.000	0.55750	-0.34415	0.25305	0.18899
345.000	0.57924	-0.33222	0.26096	0.14523
346.000	0.53378	-0.36604	0.19770	0.15319
347.000	0.53378	-0.37399	0.30248	0.15915
348.000	0.53971	-0.33819	0.27678	0.10345
349.000	0.52587	-0.39985	0.29457	0.11141
350.000	0.57529	-0.34415	0.32620	0.16512
351.000	0.51994	-0.35410	0.32027	0.16910
352.000	0.55157	-0.39587	0.31039	0.16711
353.000	0.52191	-0.38195	0.25108	0.19894
354.000	0.52191	-0.39588	0.29259	0.12334
355.000	0.53378	-0.40184	0.27085	0.09549
356.000	0.51994	-0.38195	0.26294	0.15318
357.000	0.51796	-0.36604	0.27480	0.11539
358.000	0.53575	-0.36405	0.26689	0.20889
359.000	0.52389	-0.37200	0.27876	0.17308
360.000	0.52587	-0.39190	0.23724	0.08554
361.000	0.53180	-0.39389	0.24910	0.17706
362.000	0.54564	-0.35410	0.28864	0.14921
363.000	0.51796	-0.37996	0.25108	0.12334
364.000	0.51203	-0.38792	0.27480	0.19695
365.000	0.52191	-0.41975	0.24712	0.16512
366.000	0.55947	-0.31232	0.34399	0.10146
367.000	0.55157	-0.41179	0.23724	0.10942
368.000	0.51796	-0.36803	0.26294	0.20093
369.000	0.52784	-0.39587	0.33213	0.11936
370.000	0.52191	-0.38394	0.26294	0.19098
371.000	0.54168	-0.40582	0.23526	0.12135
372.000	0.54168	-0.39985	0.26887	0.15318
373.000	0.55947	-0.39388	0.23329	0.11340
374.000	0.51401	-0.40383	0.27876	0.09748
375.000	0.56738	-0.39786	0.32818	0.10942
376.000	0.54761	-0.41179	0.25701	0.09151
377.000	0.53773	-0.37001	0.26492	0.12732
378.000	0.53180	-0.40980	0.23329	0.14921
379.000	0.55354	-0.39587	0.29457	0.14523
380.000	0.53971	-0.41179	0.24317	0.08157
381.000	0.52784	-0.45356	0.25899	0.17507
382.000	0.55947	-0.42969	0.24712	0.14125
383.000	0.54959	-0.40184	0.28073	0.18104
384.000	0.53180	-0.40781	0.25899	0.06764
385.000	0.54564	-0.45555	0.27876	0.14921
386.000	0.51401	-0.46351	0.31632	0.19894
387.000	0.52191	-0.42770	0.26294	0.11141
388.000	0.53575	-0.46948	0.22142	0.18700
389.000	0.56540	-0.45157	0.20956	0.16910
390.000	0.54959	-0.48340	0.29655	0.08952
391.000	0.57727	-0.44958	0.24515	0.15915
392.000	0.58715	-0.46748	0.23922	0.08157
393.000	0.57133	-0.47345	0.24910	0.11738
394.000	0.56738	-0.48141	0.21747	0.13926
395.000	0.54761	-0.46152	0.21945	0.09748
396.000	0.53773	-0.46948	0.30446	0.13329
397.000	0.58517	-0.43963	0.23922	0.09151
398.000	0.56936	-0.46351	0.21549	0.08356
399.000	0.57133	-0.43566	0.25503	0.10146
400.000	0.60889	-0.44759	0.17398	0.15319
401.000	0.57727	-0.44560	0.23922	0.10544
402.000	0.52982	-0.46351	0.27282	0.12135
403.000	0.55354	-0.42571	0.24317	0.15120
404.000	0.53575	-0.46351	0.20956	0.10544
405.000	0.55750	-0.44759	0.21352	0.05769
406.000	0.56343	-0.44361	0.24712	0.14324
407.000	0.58320	-0.43963	0.21352	0.14324
408.000	0.55354	-0.43566	0.19968	0.10544
409.000	0.57529	-0.43566	0.26492	0.17706
410.000	0.55750	-0.39587	0.28666	0.12135
411.000	0.56145	-0.44958	0.27085	0.14722
412.000	0.57331	-0.43367	0.25305	0.12135
413.000	0.59506	-0.42372	0.25305	0.13727
414.000	0.57331	-0.48141	0.24317	0.08753
415.000	0.52191	-0.44958	0.31632	0.13528
416.000	0.55552	-0.40383	0.22142	0.15120
417.000	0.58122	-0.43168	0.27085	0.14324
418.000	0.57331	-0.44162	0.24910	0.11539
419.000	0.56540	-0.45157	0.26294	0.12732
420.000	0.57331	-0.40980	0.32620	0.08554
421.000	0.57331	-0.44560	0.29259	0.15716
422.000	0.56936	-0.44361	0.35190	0.12533
423.000	0.58715	-0.41974	0.23922	0.11141
424.000	0.57331	-0.42571	0.26492	0.09350
425.000	0.57924	-0.42969	0.25305	0.14921
426.000	0.56936	-0.38593	0.23131	0.13727
427.000	0.55750	-0.46749	0.18979	0.11738
428.000	0.58715	-0.45356	0.18781	0.06167
429.000	0.58517	-0.41178	0.20561	0.09748
430.000	0.61285	-0.42770	0.18781	0.15915
431.000	0.57727	-0.42571	0.28271	0.19496
432.000	0.55947	-0.42173	0.17793	0.15120
433.000	0.59703	-0.40979	0.21352	0.12732
434.000	0.58320	-0.41377	0.24515	0.13926
435.000	0.57924	-0.44560	0.14037	0.18104
436.000	0.57924	-0.40980	0.22933	0.15915
437.000	0.59308	-0.44958	0.21352	0.14523
438.000	0.58122	-0.40383	0.23329	0.13926
439.000	0.60099	-0.39388	0.28073	0.12931
440.000	0.58517	-0.44759	0.19770	0.09748
441.000	0.58913	-0.40781	0.19375	0.11141
442.000	0.60692	-0.39985	0.18781	0.14125
443.000	0.60889	-0.37797	0.19177	0.14722
444.000	0.59308	-0.41974	0.28864	0.10942
445.000	0.61878	-0.38791	0.29457	0.14324
446.000	0.63657	-0.37796	0.21352	0.15319
447.000	0.59901	-0.36205	0.22538	0.12732
448.000	0.64250	-0.40979	0.22142	0.15716
449.000	0.60099	-0.41377	0.16211	0.16711
450.000	0.60494	-0.42173	0.20165	0.10146
451.000	0.57727	-0.43566	0.25899	0.12533
452.000	0.59110	-0.42173	0.17793	0.09350
453.000	0.56936	-0.42571	0.25701	0.14125
454.000	0.57529	-0.40980	0.23526	0.17905
455.000	0.56343	-0.42173	0.20758	0.15319
456.000	0.58913	-0.38990	0.16409	0.15915
457.000	0.57529	-0.44759	0.20561	0.17109
458.000	0.60099	-0.42173	0.18188	0.07958
459.000	0.56343	-0.47345	0.23329	0.12135
460.000	0.63262	-0.46947	0.18188	0.13727
461.000	0.58320	-0.41974	0.18979	0.11738
462.000	0.56540	-0.40184	0.24910	0.10743
463.000	0.55354	-0.44560	0.28073	0.13329
464.000	0.57924	-0.43367	0.23724	0.11738
465.000	0.59110	-0.40383	0.21154	0.07361
466.000	0.55157	-0.44759	0.23724	0.12931
467.000	0.56936	-0.42770	0.27085	0.10146
468.000	0.59901	-0.43565	0.20758	0.02586
469.000	0.57529	-0.44759	0.24910	0.13130
470.000	0.60494	-0.43168	0.25701	0.11340
471.000	0.55354	-0.46351	0.24317	0.09947
472.000	0.61285	-0.42372	0.20165	0.08753
473.000	0.60099	-0.43963	0.28666	0.13926
474.000	0.60889	-0.41775	0.22538	0.15517
475.000	0.60296	-0.42969	0.18584	0.14125
476.000	0.63657	-0.43963	0.18781	0.15517
477.000	0.60692	-0.44759	0.17398	0.10146
478.000	0.58517	-0.41178	0.26096	0.10345
479.000	0.61680	-0.41377	0.26096	0.13329
480.000	0.60494	-0.39985	0.24712	0.16114
481.000	0.62866	-0.43764	0.27480	0.14722
482.000	0.61285	-0.43764	0.27678	0.12931
483.000	0.62075	-0.41178	0.18979	0.11937
484.000	0.62668	-0.44162	0.25108	0.17109
485.000	0.59308	-0.41576	0.24119	0.14921
486.000	0.63855	-0.40581	0.24119	0.13130
487.000	0.58320	-0.45754	0.29457	0.11539
488.000	0.57924	-0.46549	0.18979	0.10345
489.000	0.63459	-0.47146	0.25899	0.08554
490.000	0.59110	-0.44560	0.20758	0.06366
491.000	0.60099	-0.43367	0.23131	0.19098
492.000	0.62471	-0.43764	0.18584	0.11539
493.000	0.62668	-0.44162	0.22340	0.11340
494.000	0.62075	-0.47146	0.17991	0.17706
495.000	0.63262	-0.46350	0.23922	0.14921
496.000	0.61878	-0.48339	0.25305	0.06366
497.000	0.64448	-0.49533	0.22735	0.11738
498.000	0.62668	-0.48140	0.28271	0.10942
499.000	0.65238	-0.44560	0.25503	0.08554
500.000	0.63855	-0.46549	0.28073	0.03780
501.000	0.65041	-0.45753	0.22735	0.12931
502.000	0.62668	-0.48339	0.24515	0.02984
503.000	0.66820	-0.44361	0.24317	0.06167
504.000	0.66029	-0.51124	0.26689	0.09151
505.000	0.63855	-0.49334	0.19770	0.05371
506.000	0.63459	-0.44958	0.20956	0.07162
507.000	0.64052	-0.50129	0.16804	0.06366
508.000	0.63262	-0.48936	0.20956	0.15120
509.000	0.67413	-0.46747	0.24712	0.12135
510.000	0.63262	-0.52516	0.20363	0.15915
511.000	0.66424	-0.49333	0.19177	0.09549
512.000	0.65238	-0.49930	0.27282	0.05172
513.000	0.62471	-0.48339	0.17991	0.12135
514.000	0.65041	-0.47146	0.23922	0.13528
515.000	0.65238	-0.51124	0.23329	0.08952
516.000	0.61087	-0.50925	0.25899	0.12732
517.000	0.70180	-0.49930	0.19572	0.10942
518.000	0.68401	-0.52118	0.22933	0.12135
519.000	0.66622	-0.53909	0.24317	0.11936
520.000	0.65041	-0.49334	0.18188	0.12135
521.000	0.63855	-0.52715	0.34399	0.13528
522.000	0.61482	-0.55103	0.21154	0.06565
523.000	0.67017	-0.48339	0.27480	0.14125
524.000	0.68203	-0.47941	0.18188	0.16711
525.000	0.65634	-0.51522	0.22142	0.14324
526.000	0.67215	-0.47742	0.24317	0.09748
527.000	0.63855	-0.51522	0.24119	0.10544
528.000	0.68006	-0.49930	0.19572	0.09947
529.000	0.66820	-0.49333	0.20758	0.15915
530.000	0.62866	-0.51522	0.19572	0.16313
531.000	0.63855	-0.50328	0.18781	0.15120
532.000	0.63855	-0.47543	0.20561	0.19496
533.000	0.63064	-0.52715	0.21352	0.24072
534.000	0.59703	-0.48340	0.23724	0.19695
535.000	0.63855	-0.52317	0.26689	0.20690
536.000	0.63459	-0.52318	0.24119	0.20292
537.000	0.62273	-0.56097	0.23922	0.18104
538.000	0.65436	-0.53909	0.23922	0.16711
539.000	0.65238	-0.52516	0.20363	0.15915
540.000	0.63064	-0.50925	0.20956	0.12931
541.000	0.67215	-0.51720	0.20165	0.21287
542.000	0.60692	-0.49135	0.19177	0.20292
543.000	0.66227	-0.52317	0.11664	0.18303
544.000	0.60099	-0.55103	0.20165	0.20491
545.000	0.67215	-0.50129	0.22142	0.19496
546.000	0.65238	-0.49533	0.21549	0.21884
547.000	0.64052	-0.56097	0.16607	0.13528
548.000	0.64052	-0.50527	0.26689	0.16114
549.000	0.61878	-0.48339	0.24515	0.16910
550.000	0.62075	-0.48936	0.23922	0.11936
551.000	0.61087	-0.46947	0.22142	0.16114
552.000	0.61285	-0.52318	0.19572	0.21088
553.000	0.61878	-0.49533	0.26689	0.18899
554.000	0.61482	-0.47544	0.11664	0.13727
555.000	0.62668	-0.49135	0.24712	0.20491
556.000	0.63459	-0.48538	0.20758	0.14324
557.000	0.64448	-0.46549	0.11269	0.20292
558.000	0.66227	-0.47344	0.22735	0.16512
559.000	0.61285	-0.46549	0.25108	0.11936
560.000	0.65041	-0.45554	0.22538	0.13528
561.000	0.61680	-0.46947	0.29062	0.12931
562.000	0.63657	-0.47544	0.26887	0.12931
563.000	0.62075	-0.47743	0.19177	0.14921
564.000	0.62075	-0.53113	0.28666	0.12533
565.000	0.62668	-0.55898	0.23131	0.10345
566.000	0.60494	-0.51323	0.31039	0.16711
567.000	0.59901	-0.53909	0.20956	0.09947
568.000	0.65238	-0.53710	0.13839	0.22083
569.000	0.62471	-0.50925	0.26096	0.10743
570.000	0.61087	-0.52915	0.23131	0.14921
571.000	0.61285	-0.50925	0.22538	0.08753
572.000	0.58913	-0.54307	0.16014	0.16313
573.000	0.61285	-0.52517	0.17595	0.17308
574.000	0.58913	-0.49334	0.22142	0.16313
575.000	0.61878	-0.53312	0.19177	0.17905
576.000	0.64645	-0.49334	0.31632	0.21485
577.000	0.64843	-0.49930	0.20165	0.26658
578.000	0.66029	-0.51522	0.20363	0.22878
579.000	0.64250	-0.50129	0.22340	0.22082
580.000	0.65634	-0.48140	0.24712	0.21088
581.000	0.60889	-0.52318	0.23724	0.09350
582.000	0.63262	-0.49732	0.19177	0.13727
583.000	0.66820	-0.48538	0.20165	0.19496
584.000	0.63262	-0.51721	0.26689	0.13130
585.000	0.66029	-0.49731	0.12850	0.17507
586.000	0.62668	-0.48140	0.17793	0.13528
587.000	0.65238	-0.47941	0.12850	0.19297
588.000	0.63855	-0.46151	0.16211	0.14125
589.000	0.63064	-0.46748	0.23329	0.14921
590.000	0.63657	-0.42173	0.29062	0.10544
591.000	0.63064	-0.44361	0.18781	0.10544
592.000	0.62471	-0.45356	0.24515	0.06366
593.000	0.63064	-0.43764	0.24712	0.14324
594.000	0.65831	-0.47543	0.28073	0.15716
595.000	0.62273	-0.46947	0.29457	0.15119
596.000	0.63657	-0.43565	0.21945	0.09549
597.000	0.61482	-0.45157	0.23724	0.11141
598.000	0.63064	-0.41178	0.25899	0.13329
599.000	0.65634	-0.47742	0.22538	0.11340
600.000	0.64448	-0.42173	0.22933	0.12334
601.000	0.64645	-0.47345	0.22735	0.06963
602.000	0.61087	-0.50130	0.19177	0.19695
603.000	0.62668	-0.46549	0.20363	0.16512
604.000	0.62273	-0.49334	0.23131	0.18303
605.000	0.59506	-0.46748	0.21747	0.11539
606.000	0.59110	-0.47544	0.31039	0.12533
607.000	0.62471	-0.45753	0.28864	0.16313
608.000	0.57727	-0.45953	0.18188	0.07162
609.000	0.61878	-0.44958	0.22735	0.14324
610.000	0.60692	-0.48737	0.25108	0.17109
611.000	0.62866	-0.49334	0.23922	0.16114
612.000	0.61087	-0.47345	0.22933	0.16313
613.000	0.64052	-0.47146	0.23526	0.15716
614.000	0.56936	-0.49533	0.20561	0.13528
615.000	0.64645	-0.47941	0.19177	0.18701
616.000	0.59703	-0.47743	0.23329	0.17905
617.000	0.64052	-0.51124	0.23724	0.12732
618.000	0.60494	-0.49931	0.26887	0.14324
619.000	0.59901	-0.51124	0.16409	0.14324
620.000	0.62668	-0.51920	0.29852	0.11738
621.000	0.63262	-0.47742	0.29062	0.06565
622.000	0.64843	-0.48538	0.26294	0.16512
623.000	0.61680	-0.49931	0.23329	0.18700
624.000	0.64052	-0.46947	0.22142	0.16313
625.000	0.61482	-0.48737	0.26096	0.16114
626.000	0.60889	-0.49135	0.24712	0.11340
627.000	0.59703	-0.51721	0.33411	0.16114
628.000	0.60296	-0.49533	0.25305	0.20690
629.000	0.60889	-0.50925	0.22735	0.14722
630.000	0.62075	-0.50329	0.31829	0.12732
631.000	0.59703	-0.51323	0.23724	0.22082
632.000	0.57133	-0.46549	0.20363	0.18899
633.000	0.58320	-0.48738	0.37167	0.17109
634.000	0.61285	-0.49334	0.25899	0.12135
635.000	0.61482	-0.53511	0.20758	0.15120
636.000	0.59901	-0.48538	0.24119	0.11340
637.000	0.59308	-0.46748	0.23329	0.21685
638.000	0.59110	-0.51323	0.26689	0.21287
639.000	0.61482	-0.48339	0.22933	0.13329
640.000	0.63657	-0.48936	0.21154	0.22281
641.000	0.59703	-0.50925	0.24317	0.21287
642.000	0.56145	-0.50926	0.31039	0.15517
643.000	0.59110	-0.50329	0.24910	0.20491
644.000	0.59110	-0.44162	0.25503	0.17507
645.000	0.58517	-0.49931	0.19375	0.20093
646.000	0.59308	-0.51920	0.25503	0.21486
647.000	0.61087	-0.46151	0.28073	0.21088
648.000	0.58715	-0.52119	0.23724	0.20093
649.000	0.60494	-0.44759	0.33213	0.17308
650.000	0.59901	-0.47544	0.16014	0.19098
651.000	0.59901	-0.44560	0.32027	0.14324
652.000	0.61087	-0.46549	0.27282	0.14125
653.000	0.64052	-0.47146	0.27480	0.12334
654.000	0.59308	-0.48141	0.27678	0.12732
655.000	0.59308	-0.46748	0.22933	0.16313
656.000	0.65041	-0.42769	0.28469	0.12533
657.000	0.59110	-0.49334	0.26887	0.18303
658.000	0.61087	-0.45356	0.26887	0.10743
659.000	0.62668	-0.46549	0.24317	0.16114
660.000	0.65041	-0.45753	0.22735	0.14523
661.000	0.62075	-0.46748	0.21549	0.18899
662.000	0.60099	-0.44560	0.34202	0.12931
663.000	0.57924	-0.47942	0.20758	0.12931
664.000	0.58122	-0.44759	0.22933	0.14722
665.000	0.54564	-0.51921	0.21154	0.14523
666.000	0.61680	-0.48737	0.24712	0.16114
667.000	0.60889	-0.48737	0.28271	0.10743
668.000	0.61087	-0.41974	0.28271	0.20491
669.000	0.61680	-0.42770	0.22340	0.17109
670.000	0.64645	-0.43167	0.28469	0.16711
671.000	0.62075	-0.43963	0.27282	0.26658
672.000	0.64250	-0.45355	0.19177	0.21884
673.000	0.62866	-0.45952	0.23131	0.18303
674.000	0.62273	-0.44958	0.24515	0.22082
675.000	0.61087	-0.42372	0.28073	0.12732
676.000	0.62471	-0.39189	0.30050	0.22281
677.000	0.65436	-0.42769	0.31632	0.19894
678.000	0.60494	-0.40780	0.29259	0.21684
679.000	0.61285	-0.38194	0.22538	0.20093
680.000	0.60692	-0.40184	0.23724	0.29045
681.000	0.62668	-0.37001	0.27678	0.18501
682.000	0.61878	-0.39786	0.24515	0.27653
683.000	0.59506	-0.40184	0.31039	0.20093
684.000	0.56738	-0.38394	0.20363	0.29443
685.000	0.60099	-0.38393	0.29062	0.25066
686.000	0.61878	-0.40184	0.19770	0.27056
687.000	0.60692	-0.41178	0.20758	0.33223
688.000	0.59703	-0.39985	0.21549	0.28051
689.000	0.61285	-0.40184	0.20758	0.25862
690.000	0.59506	-0.42372	0.22933	0.21088
691.000	0.58913	-0.40383	0.21549	0.20889
692.000	0.58517	-0.44162	0.24515	0.26459
693.000	0.61087	-0.43963	0.20758	0.23475
694.000	0.62075	-0.39786	0.20956	0.25067
695.000	0.60296	-0.41377	0.25503	0.24072
696.000	0.56540	-0.41576	0.21549	0.22679
697.000	0.60692	-0.39587	0.22142	0.22480
698.000	0.61878	-0.38791	0.30446	0.18104
699.000	0.72750	-0.37398	0.27678	0.15120
700.000	0.75912	-0.46946	0.38353	0.16910
701.000	0.97654	-0.44755	0.62273	0.19097
702.000	1.18406	-0.45945	0.74726	0.12532
703.000	1.42710	-0.53895	1.00817	0.06763
704.000	1.77478	-0.59851	1.39154	-0.04177
705.000	2.14010	-0.71765	1.61676	-0.05369
706.000	2.52892	-0.77706	1.93278	-0.11134
707.000	2.86229	-0.93379	2.34934	-0.21269
708.000	3.43389	-0.96504	2.78341	-0.32191
709.000	3.85132	-1.09159	3.11663	-0.46682
710.000	4.28407	-1.24766	3.57176	-0.60359
711.000	4.62403	-1.34222	3.92413	-0.69464
712.000	5.00683	-1.49001	4.26245	-0.92245
713.000	5.31666	-1.64170	4.54938	-1.08466
714.000	5.51652	-1.67677	4.73597	-1.16167
715.000	5.64968	-1.78913	4.98917	-1.29990
716.000	5.72603	-1.89370	5.07353	-1.37103
717.000	5.80431	-1.83017	5.11079	-1.45017
718.000	5.73190	-2.00836	5.12060	-1.47193
719.000	5.64381	-1.96714	5.08726	-1.47200
720.000	5.49497	-2.03093	4.98328	-1.54552
721.000	5.37938	-2.01352	4.83217	-1.44088
722.000	5.23629	-1.96847	4.64367	-1.47496
723.000	5.04802	-1.95520	4.52188	-1.39989
724.000	4.89890	-1.95762	4.31946	-1.40027
725.000	4.73400	-1.88878	4.13070	-1.37880
726.000	4.58474	-1.91493	4.04218	-1.33334
727.000	4.47276	-1.91325	3.84935	-1.24437
728.000	4.39022	-1.90554	3.77653	-1.19288
729.000	4.32732	-1.93740	3.69581	-1.18902
730.000	4.27817	-1.90186	3.71747	-1.05206
731.000	4.27228	-1.86025	3.67613	-1.06998
732.000	4.27228	-1.85431	3.71550	-1.07985
733.000	4.29980	-1.88000	3.74897	-1.07783
734.000	4.30176	-1.84829	3.76078	-0.99446
735.000	4.32929	-1.84030	3.82574	-0.95867
736.000	4.39808	-1.80644	3.87297	-0.96655
737.000	4.42559	-1.78656	3.94578	-0.97044
738.000	4.50813	-1.82202	4.06579	-0.95045
739.000	4.61224	-1.76629	4.04808	-0.98619
740.000	4.60046	-1.78415	4.16020	-1.05349
741.000	4.66135	-1.74437	4.20149	-0.98600
742.000	4.74382	-1.74813	4.26048	-1.01170
743.000	4.79094	-1.75395	4.36074	-1.05916
744.000	4.83609	-1.72413	4.27228	-1.08903
745.000	4.83609	-1.74789	4.30570	-1.11080
746.000	4.88320	-1.79134	4.39612	-1.08489
747.000	4.91460	-1.76551	4.31553	-1.11872
748.000	4.95777	-1.73372	4.41380	-1.07099
749.000	4.96759	-1.73567	4.38825	-1.08292
750.000	4.96366	-1.77726	4.40987	-1.15427
751.000	4.98721	-1.80888	4.34305	-1.13058
752.000	4.99702	-1.79499	4.36860	-1.14640
753.000	4.99505	-1.76530	4.37056	-1.14441
754.000	4.98721	-1.82076	4.36074	-1.10874
755.000	4.96170	-1.82875	4.31159	-1.20003
756.000	4.96562	-1.84062	4.30570	-1.10287
757.000	4.93619	-1.82684	4.30176	-1.15443
758.000	4.99309	-1.83856	4.37056	-1.13450
759.000	4.96366	-1.83864	4.29783	-1.14849
760.000	4.92638	-1.89023	4.26441	-1.17234
761.000	4.92834	-1.91992	4.31159	-1.18813
762.000	4.94993	-1.86244	4.34698	-1.10083
763.000	4.91853	-1.88827	4.26048	-1.15846
764.000	4.91264	-1.89224	4.34108	-1.20791
765.000	4.90479	-1.86851	4.34305	-1.22377
766.000	4.92834	-1.90408	4.27031	-1.24570
767.000	4.91068	-1.88631	4.27621	-1.14059
768.000	4.90675	-1.84870	4.28800	-1.19412
769.000	4.91460	-1.90808	4.27228	-1.19017
770.000	4.92245	-1.90410	4.23295	-1.12479
771.000	4.93030	-1.88823	4.25065	-1.13468
772.000	4.93226	-1.86843	4.23492	-1.17040
773.000	4.92638	-1.89221	4.25065	-1.10493
774.000	4.94208	-1.82682	4.23885	-1.15056
775.000	4.92638	-1.85063	4.25851	-1.11682
776.000	4.94600	-1.81295	4.23689	-1.16643
777.000	4.95189	-1.86243	4.26834	-1.17828
778.000	4.91656	-1.84273	4.29390	-1.12867
779.000	4.89105	-1.90419	4.28014	-1.12075
780.000	4.90283	-1.85663	4.24475	-1.07916
781.000	4.93226	-1.83081	4.19166	-1.11890
782.000	4.91853	-1.85857	4.24672	-1.11287
783.000	4.90283	-1.84079	4.31356	-1.18614
784.000	4.91853	-1.85857	4.24672	-1.12279
785.000	4.92638	-1.84667	4.30570	-1.18417
786.000	4.90283	-1.83287	4.25458	-1.12674
787.000	4.91068	-1.81701	4.22312	-1.14662
788.000	4.92638	-1.80706	4.31159	-1.13459
789.000	4.95777	-1.82480	4.35091	-1.18014
790.000	4.93619	-1.82486	4.26638	-1.07913
791.000	4.96170	-1.83469	4.27031	-1.12870
792.000	4.94796	-1.81691	4.23492	-1.10892
793.000	4.91853	-1.79520	4.34698	-1.13057
794.000	4.94208	-1.82880	4.24868	-1.11088
795.000	4.94404	-1.78920	4.27621	-1.10688
796.000	4.95189	-1.80897	4.29783	-1.11280
797.000	4.93815	-1.80901	4.29390	-1.12073
798.000	4.91460	-1.83680	4.30176	-1.09891
799.000	4.95777	-1.80104	4.32535	-1.16828
800.000	4.93226	-1.84665	4.28997	-1.19015
801.000	4.91460	-1.84274	4.27228	-1.20604
802.000	4.94796	-1.81691	4.32339	-1.14449
803.000	4.93423	-1.78130	4.30570	-1.20995
804.000	4.94208	-1.82880	4.24868	-1.18029
805.000	4.92834	-1.78330	4.28800	-1.14256
806.000	4.94993	-1.81294	4.32142	-1.17225
807.000	4.94011	-1.82287	4.29587	-1.15246
808.000	4.94600	-1.81691	4.27817	-1.14059
809.000	4.91460	-1.83086	4.27228	-1.13068
810.000	4.94404	-1.82682	4.32535	-1.12862
811.000	4.94993	-1.78918	4.36860	-1.21976
812.000	4.95974	-1.78321	4.30963	-1.16434
813.000	4.96955	-1.81091	4.36860	-1.16821
814.000	4.96562	-1.78122	4.26638	-1.12871
815.000	4.92638	-1.79716	4.26834	-1.13267
816.000	4.92834	-1.80706	4.24278	-1.13667
817.000	4.92441	-1.78331	4.23492	-1.14264
818.000	4.95581	-1.81094	4.34305	-1.19601
819.000	4.93423	-1.78130	4.33518	-1.25948
820.000	4.96955	-1.80497	4.28407	-1.14653
821.000	4.97151	-1.76338	4.29587	-1.20005
822.000	4.95974	-1.80301	4.31356	-1.16235
823.000	4.94993	-1.78720	4.28211	-1.19214
824.000	4.97740	-1.80099	4.32929	-1.20595
825.000	4.96759	-1.82081	4.31946	-1.18812
826.000	4.98917	-1.80293	4.30570	-1.13856
827.000	5.01860	-1.83849	4.38236	-1.22371
828.000	4.95777	-1.78322	4.33518	-1.12464
829.000	4.98328	-1.75741	4.32929	-1.24362
830.000	4.96170	-1.79113	4.26048	-1.17631
831.000	4.97347	-1.79506	4.32339	-1.18018
832.000	4.97543	-1.76733	4.29783	-1.15444
833.000	4.97936	-1.79504	4.36074	-1.21581
834.000	5.00094	-1.78310	4.31553	-1.17226
835.000	4.97936	-1.74752	4.27424	-1.15249
836.000	5.00879	-1.78506	4.28800	-1.26154
837.000	4.95974	-1.77529	4.27424	-1.23578
838.000	4.99898	-1.77717	4.33715	-1.16429
839.000	5.00879	-1.80090	4.33715	-1.13058
840.000	4.98328	-1.82275	4.28604	-1.18222
841.000	4.96562	-1.76934	4.31356	-1.22977
842.000	5.03037	-1.76322	4.33322	-1.15439
843.000	4.91853	-1.81897	4.38236	-1.15629
844.000	4.99505	-1.78708	4.26834	-1.21199
845.000	5.03625	-1.78894	4.38432	-1.18207
846.000	5.00879	-1.78704	4.26245	-1.17234
847.000	4.99505	-1.76134	4.26834	-1.21794
848.000	5.00683	-1.78111	4.25851	-1.21399
849.000	4.98721	-1.76532	4.25065	-1.17434
850.000	4.96759	-1.77329	4.24868	-1.25565
851.000	5.00094	-1.75736	4.31553	-1.14053
852.000	5.00486	-1.75339	4.29587	-1.20600
853.000	4.98917	-1.78115	4.33518	-1.15835
854.000	5.01075	-1.73754	4.32929	-1.12861
855.000	4.95974	-1.77727	4.29390	-1.20600
856.000	4.98917	-1.78907	4.33911	-1.13256
857.000	5.02448	-1.72562	4.30963	-1.15839
858.000	5.00094	-1.73360	4.35877	-1.16426
859.000	5.02056	-1.73355	4.40201	-1.19394
860.000	4.96955	-1.76933	4.27031	-1.16836
861.000	4.97347	-1.75347	4.21526	-1.18035
862.000	4.98524	-1.72374	4.30766	-1.22779
863.000	4.95777	-1.78322	4.28211	-1.17628
864.000	4.96562	-1.76340	4.33911	-1.16033
865.000	4.95189	-1.77135	4.24868	-1.19616
866.000	4.98524	-1.72968	4.31749	-1.20200
867.000	4.95581	-1.79312	4.23885	-1.19618
868.000	4.94404	-1.74959	4.33715	-1.21982
869.000	4.98328	-1.74355	4.35681	-1.16228
870.000	4.96366	-1.74954	4.30373	-1.14650
871.000	4.94404	-1.72781	4.33518	-1.27335
872.000	4.97151	-1.77130	4.29194	-1.24368
873.000	4.95189	-1.72581	4.39415	-1.12257
874.000	4.96366	-1.70004	4.36074	-1.18409
875.000	5.00290	-1.72172	4.36270	-1.19598
876.000	5.02448	-1.69394	4.34501	-1.16230
877.000	4.98132	-1.70989	4.30963	-1.21391
878.000	4.98132	-1.69009	4.24868	-1.20806
879.000	4.96759	-1.74953	4.29194	-1.17428
880.000	4.98721	-1.72968	4.32929	-1.22974
881.000	4.99898	-1.71975	4.35484	-1.23763
882.000	4.96562	-1.71191	4.34698	-1.28920
883.000	4.97151	-1.71388	4.31749	-1.20398
884.000	4.99702	-1.76133	4.39415	-1.21179
885.000	5.01271	-1.73357	4.31356	-1.21192
886.000	4.99309	-1.68610	4.36074	-1.18012
887.000	4.99309	-1.69600	4.29587	-1.28135
888.000	4.96955	-1.70398	4.40594	-1.23755
889.000	4.97936	-1.68019	4.38432	-1.27129
890.000	4.95777	-1.72777	4.33911	-1.22774
891.000	5.00879	-1.71180	4.28800	-1.22188
892.000	4.97347	-1.70001	4.29390	-1.24170
893.000	4.98917	-1.70195	4.30176	-1.23574
894.000	5.01271	-1.68011	4.35877	-1.25349
895.000	4.99113	-1.68214	4.29390	-1.20402
896.000	5.00683	-1.71973	4.30963	-1.14451
897.000	4.98917	-1.69007	4.38825	-1.21180
898.000	4.99505	-1.69203	4.24278	-1.25764
899.000	4.99702	-1.68411	4.36467	-1.21977
900.000	4.99113	-1.67818	4.37450	-1.24157
901.000	4.95974	-1.71391	4.36270	-1.19598
902.000	4.95581	-1.73768	4.35681	-1.29116
903.000	4.94404	-1.70405	4.37843	-1.24552
904.000	4.99309	-1.74154	4.35484	-1.30108
905.000	4.99113	-1.70393	4.43346	-1.25138
906.000	4.99702	-1.70589	4.30570	-1.28332
907.000	4.99505	-1.75738	4.40594	-1.21970
908.000	4.99702	-1.71381	4.31159	-1.24167
909.000	5.01467	-1.70386	4.40398	-1.31091
910.000	5.02448	-1.72364	4.36467	-1.19399
911.000	5.00879	-1.74546	4.31159	-1.26943
912.000	5.04214	-1.74141	4.34501	-1.29911
913.000	5.03625	-1.70183	4.35877	-1.27728
914.000	5.05195	-1.68991	4.37450	-1.26734
915.000	5.06176	-1.71958	4.32535	-1.28328
916.000	5.01271	-1.76921	4.36663	-1.26339
917.000	5.01860	-1.74543	4.38039	-1.29509
918.000	5.07549	-1.73142	4.28014	-1.21991
919.000	5.02252	-1.69592	4.29783	-1.29919
920.000	5.07156	-1.72549	4.29980	-1.29523
921.000	5.07745	-1.69776	4.41577	-1.30296
922.000	5.05195	-1.66615	4.33911	-1.28723
923.000	5.01664	-1.72168	4.32535	-1.24759
924.000	5.01467	-1.71574	4.36467	-1.26141
925.000	5.01271	-1.75139	4.32732	-1.33285
926.000	4.98721	-1.71582	4.32732	-1.26147
927.000	4.98917	-1.70789	4.32535	-1.29320
928.000	4.97936	-1.73366	4.35681	-1.27530
929.000	4.97543	-1.68812	4.33125	-1.25155
930.000	5.01664	-1.62663	4.36270	-1.26141
931.000	4.98917	-1.65245	4.38236	-1.30500
932.000	4.99898	-1.70391	4.33125	-1.29914
933.000	4.99309	-1.69996	4.39415	-1.26731
934.000	4.98721	-1.66829	4.32535	-1.34078
935.000	5.00683	-1.68210	4.33518	-1.26344
936.000	4.99505	-1.65243	4.34698	-1.26937
937.000	4.96955	-1.68814	4.28997	-1.31309
938.000	4.96759	-1.68616	4.33715	-1.31697
939.000	5.00879	-1.65636	4.30373	-1.32298
940.000	4.98328	-1.66830	4.34108	-1.31696
941.000	4.96955	-1.66834	4.31749	-1.33882
942.000	4.97740	-1.65842	4.33518	-1.29913
943.000	4.98721	-1.66037	4.37450	-1.32087
944.000	4.98917	-1.68017	4.27424	-1.28139
945.000	5.01664	-1.69000	4.28407	-1.29129
946.000	4.95777	-1.72777	4.29194	-1.30714
947.000	4.99113	-1.67026	4.32929	-1.25155
948.000	4.97936	-1.71188	4.34108	-1.32291
949.000	5.01075	-1.68803	4.36270	-1.37640
950.000	4.99309	-1.68214	4.37253	-1.28717
951.000	5.01860	-1.71771	4.36467	-1.27727
952.000	5.03429	-1.66619	4.34501	-1.33678
953.000	5.00094	-1.72964	4.28800	-1.29326
954.000	5.01664	-1.70980	4.31749	-1.26942
955.000	4.98328	-1.66434	4.29980	-1.27936
956.000	5.00094	-1.67222	4.34501	-1.18411
957.000	5.01664	-1.65436	4.30963	-1.26150
958.000	5.01467	-1.65238	4.27817	-1.26750
959.000	4.99898	-1.65836	4.29587	-1.20005
960.000	5.02841	-1.69195	4.31553	-1.23373
961.000	4.98328	-1.67622	4.22312	-1.30725
962.000	5.01271	-1.65041	4.33518	-1.27930
963.000	5.01075	-1.61873	4.34501	-1.23765
964.000	5.00486	-1.64845	4.30373	-1.26548
965.000	5.02056	-1.65831	4.28014	-1.31310
966.000	5.03625	-1.64243	4.34305	-1.30110
967.000	4.99113	-1.65442	4.36860	-1.23959
968.000	5.04410	-1.65231	4.18773	-1.32714
969.000	4.97543	-1.64654	4.32535	-1.22182
970.000	4.98917	-1.69007	4.36270	-1.29710
971.000	5.03233	-1.62065	4.30570	-1.27737
972.000	5.04018	-1.71568	4.25655	-1.27547
973.000	5.01467	-1.63258	4.24672	-1.28143
974.000	5.00094	-1.66430	4.26048	-1.28141
975.000	4.98721	-1.63463	4.31749	-1.30709
976.000	5.01860	-1.62069	4.31356	-1.25158
977.000	5.03037	-1.68402	4.27817	-1.27543
978.000	5.02056	-1.59890	4.25261	-1.31513
979.000	5.04018	-1.62856	4.21329	-1.20811
980.000	5.01467	-1.63456	4.28211	-1.33095
981.000	4.99309	-1.65244	4.26834	-1.27545
982.000	5.04410	-1.64439	4.36467	-1.25744
983.000	5.08333	-1.67993	4.29390	-1.25558
984.000	5.15394	-1.68172	4.46686	-1.23943
985.000	5.28334	-1.74471	4.53170	-1.30870
986.000	5.40877	-1.82548	4.59653	-1.41956
987.000	5.53219	-1.87455	4.88124	-1.51605
988.000	5.77692	-1.94098	5.04410	-1.52359
989.000	6.02730	-2.03298	5.33626	-1.66935
990.000	6.28721	-2.15048	5.54394	-1.76374
991.000	6.60930	-2.24778	5.83171	-1.90126
992.000	6.90370	-2.38444	5.97059	-1.91659
993.000	7.11209	-2.49766	6.24228	-2.03019
994.000	7.34946	-2.60269	6.50394	-2.18707
995.000	7.56133	-2.74509	6.71657	-2.38537
996.000	7.73222	-2.78136	6.94071	-2.50253
997.000	7.84090	-2.86321	7.07510	-2.61215
998.000	7.94177	-2.95292	7.18994	-2.65285
999.000	8.04646	-2.99538	7.26193	-2.75483
1000.000	8.06584	-3.04631	7.30862	-2.86871
1001.000	8.01738	-3.08596	7.21329	-2.86341
1002.000	7.96698	-3.15509	7.22886	-2.98930
1003.000	7.91462	-3.11620	7.11014	-2.96448
1004.000	7.82538	-3.07364	7.03810	-3.04567
1005.000	7.78851	-3.15645	6.99526	-3.04989
1006.000	7.75357	-3.07220	6.93487	-2.93014
1007.000	7.71863	-3.10587	6.83354	-2.92683
1008.000	7.73222	-3.07039	6.77896	-2.93701
1009.000	7.77104	-3.05635	6.74192	-2.82885
1010.000	7.74193	-3.05066	6.81210	-2.86785
1011.000	7.74193	-3.02707	6.82965	-2.85789
1012.000	7.73416	-2.98978	6.71462	-2.72454
1013.000	7.73416	-3.00354	6.82380	-2.74954
1014.000	7.73610	-2.95831	6.80431	-2.73192
1015.000	7.72446	-2.91906	6.81015	-2.63727
1016.000	7.69533	-2.91533	6.78676	-2.67091
1017.000	7.69145	-2.90749	6.79456	-2.59596
1018.000	7.68757	-2.87605	6.87057	-2.68818
1019.000	7.66427	-2.91751	6.84913	-2.70210
1020.000	7.68563	-2.85443	6.77507	-2.65520
1021.000	7.67980	-2.87611	6.82380	-2.61748
1022.000	7.70698	-2.91918	6.81405	-2.62148
1023.000	7.64291	-2.95109	6.84134	-2.68440
1024.000	7.67009	-2.92534	6.87642	-2.64676
1025.000	7.68174	-2.94099	6.85693	-2.68037
1026.000	7.74193	-2.95827	6.90370	-2.72149
1027.000	7.80015	-2.93820	6.90954	-2.75496
1028.000	7.84672	-2.93984	6.93487	-2.78634
1029.000	7.85642	-2.95942	6.94071	-2.68384
1030.000	7.88164	-2.96121	6.99720	-2.77218
1031.000	7.89328	-2.98864	7.01863	-2.78978
1032.000	7.90298	-3.01412	7.02057	-2.76219
1033.000	7.90492	-3.00624	6.95825	-2.82560
1034.000	7.95534	-3.03338	6.96604	-2.80979
1035.000	7.91656	-3.07296	7.06731	-2.82691
1036.000	7.91462	-3.00617	7.04005	-2.82510
1037.000	7.92237	-3.04148	7.03031	-2.86062
1038.000	7.94371	-3.07080	7.07315	-2.86232
1039.000	7.90298	-3.06128	7.08483	-2.81498
1040.000	7.91656	-3.06707	6.98747	-2.83330
1041.000	7.91074	-3.03174	6.96020	-2.88074
1042.000	7.92819	-3.05716	7.04784	-2.85460
1043.000	7.91074	-3.05532	6.94851	-2.82172
1044.000	7.88940	-3.10657	7.05952	-2.80923
1045.000	7.88940	-3.05745	6.98941	-2.82147
1046.000	7.89328	-3.08296	7.08678	-2.90950
1047.000	7.91849	-3.07884	6.98552	-2.87665
1048.000	7.92237	-3.05720	6.96799	-2.84130
1049.000	7.93013	-3.04929	6.96604	-2.87874
1050.000	7.92625	-3.06307	6.98357	-2.85105
1051.000	7.93595	-3.09640	6.92513	-2.82974
1052.000	7.96892	-3.07650	6.95240	-2.84730
1053.000	7.90880	-3.07302	6.95046	-2.87686
1054.000	7.90104	-3.04164	6.89980	-2.87520
1055.000	7.93207	-3.07088	6.93487	-2.80210
1056.000	7.92819	-3.03162	6.99526	-2.87659
1057.000	7.88358	-3.05945	6.94071	-2.80994
1058.000	7.85836	-3.00461	6.94656	-2.80597
1059.000	7.88940	-2.95919	7.00305	-2.86275
1060.000	7.88164	-3.01820	7.00110	-2.84701
1061.000	7.90686	-3.06911	7.03226	-2.87833
1062.000	7.85836	-3.03606	6.95435	-2.88866
1063.000	7.90686	-3.09661	6.91734	-2.81993
1064.000	7.84866	-3.02630	6.94266	-2.86509
1065.000	7.87388	-3.05363	7.00694	-2.84500
1066.000	7.88940	-3.04173	6.92708	-2.83761
1067.000	7.88358	-3.05159	6.96994	-2.86296
1068.000	7.82732	-3.05397	6.95825	-2.85121
1069.000	7.89328	-3.05545	6.96020	-2.87877
1070.000	7.85448	-3.07932	6.95240	-2.90049
1071.000	7.87388	-3.07721	6.99915	-2.85884
1072.000	7.88358	-3.08303	7.01668	-2.80752
1073.000	7.91074	-3.04550	6.99915	-2.83914
1074.000	7.87388	-3.06542	6.97383	-2.87475
1075.000	7.90104	-3.04361	6.98162	-2.83334
1076.000	7.89910	-3.02986	7.04394	-2.86250
1077.000	7.91268	-3.06710	6.97967	-2.77031
1078.000	7.90492	-3.03572	6.90759	-2.81605
1079.000	7.89716	-3.09079	7.02057	-2.82522
1080.000	7.91268	-3.09854	6.96214	-2.89058
1081.000	7.92431	-3.04147	7.00305	-2.83321
1082.000	7.93789	-3.07870	6.97578	-2.88262
1083.000	7.92431	-3.06898	7.01668	-2.79964
1084.000	7.92431	-3.04540	7.01084	-2.75436
1085.000	7.94565	-3.04721	6.96799	-2.82554
1086.000	7.90492	-3.08680	6.97383	-2.83338
1087.000	7.87000	-3.10475	6.98552	-2.83922
1088.000	7.91656	-3.03956	6.95240	-2.85912
1089.000	7.93207	-2.99622	6.97578	-2.89050
1090.000	7.90880	-3.07106	6.90370	-2.84957
1091.000	7.90492	-3.07502	6.95825	-2.81969
1092.000	7.93595	-3.06300	6.94656	-2.83946
1093.000	7.92237	-3.03559	6.94071	-2.84343
1094.000	7.90298	-3.04949	7.01473	-2.82920
1095.000	7.93401	-3.03157	6.86862	-2.81431
1096.000	7.90104	-3.05540	6.93487	-2.80604
1097.000	7.91849	-3.02776	6.96214	-2.81178
1098.000	7.94177	-3.04527	6.96604	-2.76645
1099.000	7.92819	-3.03358	6.86083	-2.77889
1100.000	7.91656	-3.02581	6.93487	-2.85529
1101.000	7.91268	-3.03173	6.97383	-2.81368
1102.000	7.91268	-3.02387	6.95240	-2.75865
1103.000	7.96504	-2.99598	6.99720	-2.78597
1104.000	7.94952	-3.06093	6.91539	-2.80024
1105.000	7.96310	-2.97831	6.88226	-2.79256
1106.000	7.93789	-3.05316	6.89396	-2.81219
1107.000	7.93595	-3.03156	6.96994	-2.81174
1108.000	7.92625	-3.00412	6.98162	-2.80773
1109.000	7.90104	-3.04950	6.96214	-2.78223
1110.000	7.90104	-3.02985	6.96409	-2.83147
1111.000	7.91462	-3.02189	6.89980	-2.80230
1112.000	7.91268	-3.04352	6.92318	-2.78246
1113.000	7.91462	-3.01010	6.89201	-2.81023
1114.000	7.92625	-3.03163	6.89590	-2.81021
1115.000	7.91268	-3.05727	6.86667	-2.76309
1116.000	7.94565	-3.03542	6.95630	-2.86107
1117.000	7.94952	-2.98823	6.95435	-2.86502
1118.000	7.94759	-3.00986	6.90370	-2.80819
1119.000	7.96504	-3.07064	6.89396	-2.74914
1120.000	7.91074	-2.99244	6.94071	-2.83752
1121.000	7.93013	-3.02571	7.01278	-2.82921
1122.000	7.89716	-2.99058	6.93877	-2.79616
1123.000	7.93013	-3.02374	6.91149	-2.89089
1124.000	7.94177	-3.02562	6.89396	-2.80825
1125.000	7.93013	-3.03750	6.86862	-2.73746
1126.000	7.93401	-3.05515	6.92513	-2.85732
1127.000	7.97473	-3.07253	6.92123	-2.81991
1128.000	7.98637	-3.05083	6.95435	-2.86305
1129.000	7.91462	-3.07101	7.00305	-2.81745
1130.000	7.92237	-3.08275	7.00305	-2.82730
1131.000	7.96892	-3.02346	6.91734	-2.81796
1132.000	7.96698	-3.02347	6.93682	-2.87104
1133.000	7.94952	-3.09433	6.96799	-2.80190
1134.000	7.98249	-3.05676	6.84913	-2.87748
1135.000	7.93983	-3.04921	6.91149	-2.86528
1136.000	7.94759	-3.06684	6.85888	-2.77496
1137.000	7.94177	-3.05313	6.92903	-2.79425
1138.000	7.94565	-3.03149	6.94461	-2.88281
1139.000	7.92819	-3.06305	6.92513	-2.77063
1140.000	7.94177	-3.02366	6.96020	-2.81377
1141.000	7.93983	-3.02957	6.92318	-2.86127
1142.000	7.91656	-3.04939	6.85693	-2.79467
1143.000	7.94952	-3.06290	6.94071	-2.82373
1144.000	7.92237	-3.02576	6.90759	-2.88894
1145.000	7.94565	-3.02952	6.96020	-2.82559
1146.000	7.94371	-2.97255	6.96214	-2.82951
1147.000	7.93595	-3.03942	6.91344	-2.85542
1148.000	7.96698	-3.01561	6.94851	-2.83748
1149.000	7.96310	-3.06279	6.93877	-2.94785
1150.000	7.94952	-3.02753	6.95046	-2.89656
1151.000	7.94952	-3.00985	6.91539	-2.79433
1152.000	7.98055	-3.05677	6.90175	-2.91459
1153.000	7.97279	-3.02736	6.94851	-2.86309
1154.000	7.96116	-3.01173	6.87057	-2.85568
1155.000	7.98055	-3.00962	6.93682	-2.81194
1156.000	7.97473	-3.05485	6.91928	-2.91251
1157.000	7.97085	-3.06667	6.90370	-2.78061
1158.000	7.95728	-3.04908	6.92903	-2.91836
1159.000	7.97279	-3.03718	6.92708	-2.83169
1160.000	7.94177	-3.04723	7.02447	-2.85474
1161.000	7.91268	-3.06906	6.95630	-2.83152
1162.000	7.96698	-3.01954	6.84524	-2.90311
1163.000	8.00575	-3.06444	6.97383	-2.88854
1164.000	7.94371	-3.07276	6.96604	-2.84525
1165.000	7.95922	-3.03728	6.90565	-2.93032
1166.000	7.96310	-2.99206	6.97188	-2.80385
1167.000	7.94952	-3.02949	6.91734	-2.92828
1168.000	7.96892	-3.00184	6.92513	-2.86126
1169.000	7.95146	-3.08253	7.03226	-2.91969
1170.000	7.95728	-3.01961	6.90759	-2.87121
1171.000	7.95922	-3.01763	6.94851	-2.85915
1172.000	7.90104	-3.02003	6.93097	-2.90062
1173.000	7.94177	-3.04331	6.95630	-2.88274
1174.000	7.95340	-3.03732	6.95825	-2.85121
1175.000	7.97279	-2.99003	6.88616	-2.89498
1176.000	7.95340	-3.02357	6.89201	-2.83979
1177.000	8.00769	-3.04478	6.89785	-2.87521
1178.000	7.99024	-3.06456	6.81795	-2.86781
1179.000	7.94759	-3.07077	6.96214	-2.89058
1180.000	7.94371	-3.06097	6.92903	-2.85926
1181.000	7.97085	-3.04505	6.84719	-2.88143
1182.000	7.95146	-3.04127	6.93487	-2.85332
1183.000	7.95340	-3.05304	6.90370	-2.89882
1184.000	7.98249	-3.02925	6.84329	-2.87160
1185.000	7.96116	-3.07460	6.87642	-2.90686
1186.000	7.95340	-3.06090	6.93487	-2.80210
1187.000	7.99994	-3.02519	6.94071	-2.84737
1188.000	7.96698	-3.07062	6.97578	-2.92398
1189.000	7.95534	-3.04124	6.92318	-2.82975
1190.000	7.96892	-3.05686	6.97188	-2.90825
1191.000	7.96698	-3.02740	6.99136	-2.82540
1192.000	7.99800	-3.05075	6.95046	-2.88868
1193.000	7.95340	-3.09626	6.88811	-2.97377
1194.000	7.97279	-3.09023	6.86862	-2.92267
1195.000	7.96892	-3.04310	6.91149	-2.84164
1196.000	7.97667	-3.08627	6.86473	-2.89117
1197.000	7.96698	-3.06080	6.90565	-2.93820
1198.000	7.97279	-3.06665	6.94071	-2.92026
1199.000	7.98443	-3.04888	6.84913	-2.87945
1200.000	7.95922	-3.06872	6.91344	-2.81996
1201.000	7.93401	-3.05515	6.86473	-2.95028
1202.000	7.93401	-3.09248	6.89201	-2.84570
1203.000	7.96504	-3.07653	6.92708	-2.79623
1204.000	7.94759	-3.02754	6.92318	-2.89476
1205.000	7.95340	-3.05108	6.90370	-2.84169
1206.000	7.99412	-3.06256	6.90370	-2.90079
1207.000	7.96892	-3.07650	6.86083	-2.83406
1208.000	8.00188	-3.07233	6.89396	-2.89691
1209.000	7.98637	-3.08423	6.94266	-2.87297
1210.000	7.95534	-3.06482	6.90175	-2.84564
1211.000	7.97473	-3.09610	6.84719	-2.81444
1212.000	7.99024	-3.05277	6.90954	-2.80028
1213.000	7.98637	-3.10191	6.95825	-2.89060
1214.000	7.93595	-3.06693	6.93097	-2.93017
1215.000	7.96504	-3.03920	6.96020	-2.86104
1216.000	7.97279	-3.04308	6.90370	-2.79440
1217.000	7.95728	-3.07463	6.94461	-2.83553
1218.000	7.97473	-3.04306	6.86278	-2.83799
1219.000	7.96310	-3.05886	6.87642	-2.85367
1220.000	7.91656	-3.02188	6.91734	-2.78644
1221.000	7.94952	-3.00788	6.95240	-2.81381
1222.000	7.92819	-3.02376	6.89201	-2.82599
1223.000	7.95534	-3.02356	6.92123	-2.86916
1224.000	7.94565	-2.98236	6.93877	-2.84935
1225.000	7.94177	-3.06099	6.92318	-2.94991
1226.000	7.96504	-3.04313	6.91344	-2.83375
1227.000	7.98055	-3.05873	6.87252	-2.83202
1228.000	7.97861	-3.05678	6.97383	-2.83141
1229.000	7.97861	-3.07643	6.96214	-2.85709
1230.000	7.94759	-3.04326	6.83159	-2.82241
1231.000	7.95922	-3.05889	6.94071	-2.78630
1232.000	7.95146	-3.05109	6.93487	-2.84544
1233.000	7.95534	-3.06875	6.94656	-2.88674
1234.000	7.93983	-3.04332	6.91734	-2.91055
1235.000	7.98055	-3.05088	6.93682	-2.86119
1236.000	7.99218	-3.03704	6.89396	-2.86145
1237.000	7.94759	-3.08059	6.86278	-2.85375
1238.000	7.98830	-3.03314	6.91539	-2.80812
1239.000	7.97473	-3.03324	6.92318	-2.87112
1240.000	7.95922	-3.04514	6.88616	-2.85558
1241.000	7.95922	-3.00781	6.96799	-2.87085
1242.000	7.95146	-3.05306	6.91734	-2.76279
1243.000	7.98443	-3.07049	6.85693	-2.87940
1244.000	7.96504	-3.01956	6.89006	-2.80827
1245.000	7.94565	-3.03935	6.87057	-2.79657
1246.000	7.93595	-3.00012	6.88616	-2.89498
1247.000	7.95728	-3.03533	6.89590	-2.84370
1248.000	7.95728	-3.04516	6.86862	-2.83795
1249.000	7.94952	-3.06290	6.85303	-2.86563
1250.000	7.97473	-3.04306	6.91734	-2.80614
1251.000	7.94759	-3.04916	6.89006	-2.85359
1252.000	7.97085	-3.06667	6.86862	-2.81431
1253.000	7.98637	-3.04101	6.87057	-2.85371
1254.000	7.97279	-3.03718	6.85498	-2.78483
1255.000	8.01157	-3.06047	6.82185	-2.84020
1256.000	7.99994	-3.06448	6.85303	-2.79864
1257.000	7.95728	-3.05694	6.91734	-2.86524
1258.000	7.98830	-3.00956	6.83549	-2.73568
1259.000	8.01932	-3.03880	6.86278	-2.80843
1260.000	7.95728	-3.02158	6.90370	-2.87321
1261.000	8.01157	-3.03100	6.88226	-2.85758
1262.000	7.97861	-3.06464	6.84524	-2.83809
1263.000	7.97279	-3.04504	6.83744	-2.83223
1264.000	7.95340	-3.01768	6.90370	-2.80031
1265.000	7.95728	-3.07463	6.87837	-2.81228
1266.000	8.01351	-3.01527	6.83939	-2.80857
1267.000	8.00575	-3.01533	6.82770	-2.80273
1268.000	7.99218	-2.98989	6.83159	-2.78694
1269.000	8.01545	-2.99757	6.83354	-2.81058
1270.000	8.00381	-3.00945	6.82185	-2.81656
1271.000	7.99606	-3.00557	6.90565	-2.78651
1272.000	8.00188	-3.01143	6.91539	-2.82191
1273.000	7.97667	-3.05876	6.84134	-2.81053
1274.000	7.98637	-2.98600	6.83939	-2.83813
1275.000	7.98055	-3.00962	6.88226	-2.84181
1276.000	7.99606	-3.06451	6.85303	-2.72770
1277.000	8.01738	-2.99167	6.85693	-2.78876
1278.000	8.01738	-3.04078	6.81795	-2.70622
1279.000	7.99412	-3.03506	6.85888	-2.71387
1280.000	7.98055	-3.02927	6.87837	-2.75908
1281.000	8.00188	-3.03107	6.81405	-2.71609
1282.000	7.97861	-3.05482	6.87057	-2.80248
1283.000	7.96698	-3.07652	6.88421	-2.82407
1284.000	7.96116	-3.03923	6.80431	-2.72797
1285.000	8.00188	-3.05857	6.90370	-2.78652
1286.000	7.98637	-3.04297	6.81600	-2.80083
1287.000	7.97279	-3.07254	6.85498	-2.79272
1288.000	7.93207	-2.99425	6.83159	-2.76132
1289.000	8.02708	-3.09178	6.89590	-2.80233
1290.000	7.99800	-3.04878	6.83549	-2.75736
1291.000	7.98249	-3.05872	6.92123	-2.73125
1292.000	8.02126	-3.00539	6.96604	-2.78615
1293.000	7.96698	-3.04115	6.81600	-2.74959
1294.000	7.98637	-3.10387	6.86083	-2.74342
1295.000	7.97085	-3.04702	6.89980	-2.81610
1296.000	7.95534	-3.05696	6.86473	-2.71186
1297.000	7.95146	-3.07074	6.83354	-2.76328
1298.000	7.96504	-3.08832	6.91344	-2.80813
1299.000	7.94371	-3.04722	6.85693	-2.79862
1300.000	7.95146	-3.01966	6.89590	-2.73336
1301.000	8.01157	-3.07225	6.87447	-2.85762
1302.000	7.96698	-3.05491	6.89785	-2.83581
1303.000	7.97473	-3.07842	6.82575	-2.70223
1304.000	7.94565	-3.06292	6.84524	-2.83809
1305.000	8.00769	-3.05657	6.80236	-2.81076
1306.000	8.01351	-3.07027	6.80431	-2.81075
1307.000	7.98249	-3.06658	6.82380	-2.85004
1308.000	7.97667	-3.05287	6.81600	-2.86979
1309.000	7.94371	-3.05115	6.82965	-2.86971
1310.000	7.96504	-3.06474	6.95435	-2.86502
1311.000	7.98637	-3.06066	6.94071	-2.88874
1312.000	7.98055	-3.06659	6.90175	-2.87519
1313.000	7.96892	-3.06864	6.87057	-2.78671
1314.000	8.02514	-3.10161	6.75362	-2.77754
1315.000	7.99606	-3.09005	6.85498	-2.84986
1316.000	7.99800	-3.05664	6.86278	-2.83996
1317.000	7.98830	-3.06653	6.87252	-2.86354
1318.000	8.01157	-3.04868	6.96214	-2.92603
1319.000	7.98443	-3.04888	6.90370	-2.83381
1320.000	7.98637	-3.05476	6.91149	-2.93817
1321.000	7.99606	-3.05273	6.86473	-2.86359
1322.000	8.03871	-3.09365	6.87057	-2.87735
1323.000	7.93595	-3.08264	6.89785	-2.91461
1324.000	7.99606	-3.08808	6.88226	-2.85167
1325.000	8.04646	-3.04645	6.87252	-2.88522
1326.000	7.99606	-3.09398	6.99526	-2.89628
1327.000	7.97667	-3.08823	6.92513	-2.84747
1328.000	8.00188	-3.06447	6.83159	-2.82241
1329.000	7.98249	-3.09605	6.91344	-2.79434
1330.000	8.01738	-3.08792	6.92318	-2.84748
1331.000	7.92625	-3.08075	6.84719	-2.85582
1332.000	7.86224	-3.01834	6.87642	-2.81623
1333.000	7.73999	-3.00743	6.74777	-2.86626
1334.000	7.62931	-2.95905	6.54687	-2.76293
1335.000	7.40779	-2.92711	6.42586	-2.80698
1336.000	7.17437	-2.84594	6.20907	-2.69371
1337.000	6.84719	-2.74941	5.92952	-2.65956
1338.000	6.50199	-2.64287	5.56353	-2.50912
1339.000	6.19539	-2.45100	5.31470	-2.45282
1340.000	5.76909	-2.29088	4.94208	-2.35532
1341.000	5.44208	-2.11418	4.52777	-2.18644
1342.000	5.11275	-1.97084	4.27817	-2.14557
1343.000	4.78309	-1.82725	3.98513	-1.93824
1344.000	4.55528	-1.67925	3.75684	-1.73847
1345.000	4.36074	-1.46364	3.44965	-1.63390
1346.000	4.07956	-1.34517	3.28218	-1.47143
1347.000	3.96742	-1.23824	3.26642	-1.39007
1348.000	3.90642	-1.15897	3.16197	-1.16189
1349.000	3.99890	-1.08743	3.17182	-1.05664
1350.000	4.04415	-1.03975	3.23292	-0.90368
1351.000	4.15823	-1.02374	3.28218	-0.75470
1352.000	4.31946	-0.98584	3.40434	-0.90948
1353.000	4.45507	-0.98963	3.47329	-0.82007
1354.000	4.60832	-1.03898	3.60524	-0.84179
1355.000	4.72615	-1.04277	3.77259	-0.86346
1356.000	4.78505	-1.12988	3.77259	-0.96666
1357.000	4.88124	-1.11189	3.86707	-1.06577
1358.000	4.92638	-1.18314	4.01661	-1.10923
1359.000	4.94208	-1.29009	3.99497	-1.15885
1360.000	4.99898	-1.32365	3.93594	-1.29383
1361.000	4.94796	-1.34753	4.11103	-1.29157
1362.000	4.91460	-1.42089	4.01071	-1.37504
1363.000	4.91656	-1.46645	4.09529	-1.47405
1364.000	4.83806	-1.49237	4.16020	-1.45609
1365.000	4.83413	-1.49832	4.01661	-1.50791
1366.000	4.81646	-1.48846	4.01071	-1.39091
1367.000	4.79291	-1.51426	4.07956	-1.52564
1368.000	4.75953	-1.49452	4.15036	-1.60878
1369.000	4.73400	-1.47080	3.94971	-1.47035
1370.000	4.73990	-1.46485	4.00677	-1.45041
1371.000	4.76346	-1.41130	3.99300	-1.39094
1372.000	4.69473	-1.42135	3.82574	-1.38328
1373.000	4.65742	-1.38972	3.83164	-1.28407
1374.000	4.62599	-1.37789	3.84542	-1.33167
1375.000	4.61224	-1.29666	3.72338	-1.24058
1376.000	4.60242	-1.26100	3.69385	-1.25650
1377.000	4.55724	-1.28288	3.61706	-1.26256
1378.000	4.50420	-1.23342	3.57176	-1.15942
1379.000	4.53367	-1.22147	3.47329	-1.13969
1380.000	4.52777	-1.19571	3.61312	-1.20501
1381.000	4.50616	-1.21557	3.46935	-1.20123
1382.000	4.48258	-1.17200	3.53435	-1.09992
1383.000	4.46883	-1.15021	3.51465	-1.12773
1384.000	4.45900	-1.14626	3.65644	-1.25258
1385.000	4.50027	-1.17197	3.57176	-1.12964
1386.000	4.49830	-1.18188	3.61903	-1.11371
1387.000	4.49437	-1.17396	3.64462	-1.13352
1388.000	4.46883	-1.14426	3.62296	-1.16729
1389.000	4.49830	-1.17594	3.57176	-1.13957
1390.000	4.49241	-1.16009	3.61115	-1.14547
1391.000	4.51205	-1.16997	3.57964	-1.15941
1392.000	4.51598	-1.13428	3.56389	-1.20111
1393.000	4.50420	-1.14223	3.71747	-1.17113
1394.000	4.52384	-1.11444	3.74306	-1.21079
1395.000	4.51402	-1.14419	3.64659	-1.20893
1396.000	4.58278	-1.11831	3.69385	-1.21482
1397.000	4.53367	-1.14614	3.70369	-1.24061
1398.000	4.55135	-1.16594	3.69188	-1.22475
1399.000	4.58867	-1.16588	3.65250	-1.22282
1400.000	4.54938	-1.19369	3.72928	-1.27232
1401.000	4.56117	-1.17583	3.70960	-1.30410
1402.000	4.58474	-1.15994	3.71550	-1.23067
1403.000	4.56903	-1.16987	3.76078	-1.20878
1404.000	4.54545	-1.19568	3.69188	-1.23467
1405.000	4.59064	-1.16984	3.61903	-1.36376
1406.000	4.57296	-1.16194	3.71550	-1.25845
1407.000	4.56706	-1.18574	3.71156	-1.33187
1408.000	4.58278	-1.20355	3.63478	-1.27444
1409.000	4.55921	-1.18178	3.65841	-1.27837
1410.000	4.59064	-1.15200	3.80212	-1.24047
1411.000	4.59849	-1.16586	3.74700	-1.27428
1412.000	4.62207	-1.19159	3.69975	-1.23466
1413.000	4.53760	-1.19570	3.67810	-1.27835
1414.000	4.62599	-1.19158	3.67416	-1.26645
1415.000	4.57296	-1.16392	3.74700	-1.21078
1416.000	4.56903	-1.14212	3.77456	-1.25440
1417.000	4.54742	-1.17586	3.69581	-1.30808
1418.000	4.55135	-1.19964	3.72731	-1.23859
1419.000	4.55135	-1.21351	3.72928	-1.28422
1420.000	4.54742	-1.19568	3.71747	-1.26638
1421.000	4.51795	-1.19771	3.73913	-1.31596
1422.000	4.56117	-1.12033	3.70172	-1.23267
1423.000	4.51991	-1.17392	3.65447	-1.23075
1424.000	4.55135	-1.16396	3.68006	-1.32001
1425.000	4.57099	-1.16194	3.68400	-1.21087
1426.000	4.54153	-1.16595	3.74306	-1.23261
1427.000	4.57099	-1.14212	3.69975	-1.23664
1428.000	4.51795	-1.17987	3.71353	-1.18305
1429.000	4.59653	-1.17974	3.67022	-1.18906
1430.000	4.52384	-1.17193	3.72928	-1.29216
1431.000	4.57689	-1.15995	3.69975	-1.24657
1432.000	4.56314	-1.17781	3.72141	-1.22669
1433.000	4.54349	-1.12432	3.66038	-1.23471
1434.000	4.54545	-1.17190	3.66825	-1.21684
1435.000	4.54742	-1.18775	3.75094	-1.25046
1436.000	4.53367	-1.19174	3.68597	-1.17713
1437.000	4.57296	-1.19167	3.77062	-1.21472
1438.000	4.51009	-1.15609	3.63675	-1.20895
1439.000	4.51598	-1.16798	3.75684	-1.15918
1440.000	4.54938	-1.15603	3.65644	-1.19305
1441.000	4.55528	-1.15206	3.68597	-1.20491
1442.000	4.50813	-1.18782	3.69188	-1.20094
1443.000	4.52974	-1.17589	3.53631	-1.24878
1444.000	4.56117	-1.17187	3.72338	-1.20089
1445.000	4.50027	-1.20171	3.64265	-1.22283
1446.000	4.51991	-1.18978	3.77062	-1.28813
1447.000	4.57492	-1.13617	3.64856	-1.21092
1448.000	4.50223	-1.17395	3.67219	-1.24264
1449.000	4.51795	-1.19771	3.66431	-1.20296
1450.000	4.51991	-1.12238	3.63084	-1.11965
1451.000	4.53956	-1.17785	3.67022	-1.20295
1452.000	4.56117	-1.13817	3.68006	-1.18904
1453.000	4.49044	-1.18388	3.58358	-1.21497
1454.000	4.52777	-1.15805	3.70566	-1.21878
1455.000	4.49830	-1.14223	3.58358	-1.16139
1456.000	4.50027	-1.15611	3.65250	-1.21488
1457.000	4.52188	-1.19572	3.71156	-1.22869
1458.000	4.53367	-1.16993	3.64462	-1.21291
1459.000	4.52581	-1.16598	3.73519	-1.21477
1460.000	4.49437	-1.14422	3.68991	-1.21483
1461.000	4.52974	-1.17192	3.68794	-1.16919
1462.000	4.54349	-1.21155	3.71156	-1.20488
1463.000	4.56117	-1.17385	3.64462	-1.24863
1464.000	4.53367	-1.20363	3.81589	-1.24838
1465.000	4.50420	-1.17394	3.71156	-1.20885
1466.000	4.50616	-1.16998	3.70763	-1.22274
1467.000	4.52581	-1.18779	3.77653	-1.22463
1468.000	4.46097	-1.15221	3.60327	-1.27051
1469.000	4.49241	-1.17991	3.60918	-1.18715
1470.000	4.49044	-1.17198	3.66234	-1.17518
1471.000	4.51205	-1.16600	3.73716	-1.18301
1472.000	4.50223	-1.16800	3.67416	-1.22080
1473.000	4.50420	-1.20368	3.67219	-1.10967
1474.000	4.52581	-1.15210	3.71353	-1.25647
1475.000	4.49241	-1.17595	3.70369	-1.22076
1476.000	4.48651	-1.18983	3.65644	-1.11168
1477.000	4.51009	-1.18187	3.68006	-1.19500
1478.000	4.52581	-1.14417	3.59343	-1.25465
1479.000	4.49830	-1.16206	3.63872	-1.15139
1480.000	4.52777	-1.11840	3.64069	-1.27840
1481.000	4.54349	-1.15009	3.72731	-1.18700
1482.000	4.51009	-1.14222	3.66038	-1.34782
1483.000	4.52974	-1.11443	3.66628	-1.32003
1484.000	4.51598	-1.18186	3.67219	-1.17119
1485.000	4.51402	-1.13428	3.64856	-1.15932
1486.000	4.51205	-1.08868	3.61312	-1.19906
1487.000	4.54349	-1.09855	3.54813	-1.08799
1488.000	4.49241	-1.07087	3.60918	-1.05219
1489.000	4.52974	-1.08271	3.59540	-1.08992
1490.000	4.52188	-1.08272	3.68991	-1.06004
1491.000	4.48258	-1.09468	3.62887	-1.07003
1492.000	4.46097	-1.13238	3.58555	-1.02046
1493.000	4.51991	-1.10850	3.53041	-0.98876
1494.000	4.46293	-1.16608	3.59540	-1.02640
1495.000	4.46293	-1.15815	3.66825	-1.09975
1496.000	4.46293	-1.19185	3.67613	-1.06601
1497.000	4.50027	-1.17990	3.59736	-1.08595
1498.000	4.54742	-1.19370	3.73125	-1.05205
1499.000	4.52384	-1.21753	3.68006	-1.22476
1500.000	4.53563	-1.20363	3.71550	-1.20884
1501.000	4.50420	-1.28496	3.72731	-1.27828
1502.000	4.51991	-1.23339	3.74503	-1.28817
1503.000	4.51991	-1.23339	3.78046	-1.28415
1504.000	4.54742	-1.21749	3.68400	-1.37755
1505.000	4.50616	-1.18584	3.70172	-1.31601
1506.000	4.50420	-1.17394	3.62493	-1.38558
1507.000	4.55528	-1.18972	3.68794	-1.35175
1508.000	4.51991	-1.19573	3.59146	-1.29633
1509.000	4.53956	-1.16992	3.80408	-1.30396
1510.000	4.50616	-1.15610	3.74109	-1.27230
1511.000	4.53367	-1.11641	3.65644	-1.21686
1512.000	4.50813	-1.14420	3.66628	-1.17914
1513.000	4.52384	-1.13823	3.65644	-1.18312
1514.000	4.53170	-1.12434	3.60327	-1.19312
1515.000	4.51402	-1.11644	3.65447	-1.16328
1516.000	4.50616	-1.15808	3.57767	-1.18521
1517.000	4.50616	-1.14420	3.63478	-1.16529
1518.000	4.51991	-1.16401	3.69581	-1.18307
1519.000	4.50813	-1.21160	3.64265	-1.21688
1520.000	4.56510	-1.20160	3.73322	-1.23858
1521.000	4.57099	-1.25114	3.83164	-1.27217
1522.000	4.59260	-1.36012	3.76472	-1.39528
1523.000	4.60439	-1.34622	3.87297	-1.35543
1524.000	4.63189	-1.40364	3.87887	-1.41493
1525.000	4.63385	-1.41355	3.83754	-1.42889
1526.000	4.66920	-1.47292	3.83754	-1.46261
1527.000	4.70651	-1.49266	3.83558	-1.54196
1528.000	4.68295	-1.50261	3.87691	-1.57362
1529.000	4.67313	-1.53434	4.03825	-1.59711
1530.000	4.65938	-1.54626	3.80802	-1.54002
1531.000	4.63778	-1.55027	3.85526	-1.62721
1532.000	4.62599	-1.57209	3.78834	-1.66105
1533.000	4.59260	-1.57414	3.85526	-1.66291
1534.000	4.56117	-1.55242	3.74503	-1.60758
1535.000	4.57492	-1.50879	3.74897	-1.60559
1536.000	4.60046	-1.48694	3.74700	-1.55005
1537.000	4.53367	-1.49500	3.76669	-1.52621
1538.000	4.57296	-1.44141	3.70369	-1.48267
1539.000	4.57885	-1.43744	3.71353	-1.44695
1540.000	4.56903	-1.37007	3.77062	-1.47859
1541.000	4.53563	-1.42960	3.83361	-1.45071
1542.000	4.56706	-1.38593	3.81393	-1.39123
1543.000	4.59653	-1.38786	3.75291	-1.44490
1544.000	4.60046	-1.40370	3.74897	-1.44094
1545.000	4.59653	-1.36804	3.81589	-1.46860
1546.000	4.58278	-1.37401	3.75684	-1.36950
1547.000	4.59653	-1.38984	3.77456	-1.42502
1548.000	4.54349	-1.43354	3.81589	-1.44083
1549.000	4.61028	-1.39972	3.90249	-1.43473
1550.000	4.55921	-1.40973	3.84739	-1.45863
1551.000	4.58082	-1.44140	3.76865	-1.46669
1552.000	4.60242	-1.44532	3.89462	-1.46251
1553.000	4.58474	-1.40770	3.87494	-1.43874
1554.000	4.59064	-1.42949	3.79424	-1.45276
1555.000	4.57296	-1.43745	3.81196	-1.36346
1556.000	4.57492	-1.41763	3.71156	-1.43505
1557.000	4.56903	-1.42755	3.80999	-1.51423
1558.000	4.58867	-1.42751	3.77259	-1.46074
1559.000	4.58474	-1.43742	3.83558	-1.36541
1560.000	4.57689	-1.45131	3.87297	-1.45461
1561.000	4.64171	-1.47298	3.81589	-1.46661
1562.000	4.63385	-1.48885	3.84148	-1.54195
1563.000	4.62207	-1.47698	3.74109	-1.42905
1564.000	4.61617	-1.44331	3.81196	-1.50431
1565.000	4.58867	-1.50281	3.79621	-1.46466
1566.000	4.61814	-1.42150	3.83164	-1.48047
1567.000	4.66331	-1.46303	3.80015	-1.45275
1568.000	4.57099	-1.45133	3.78046	-1.43890
1569.000	4.60832	-1.45521	3.77062	-1.48455
1570.000	4.58474	-1.43544	3.85723	-1.44274
1571.000	4.64367	-1.48288	3.82770	-1.45668
1572.000	4.61421	-1.48691	3.77259	-1.45478
1573.000	4.63189	-1.45913	3.75881	-1.42307
1574.000	4.63974	-1.45515	3.85919	-1.43480
1575.000	4.60242	-1.47702	3.80408	-1.47457
1576.000	4.58671	-1.45129	3.79818	-1.45474
1577.000	4.65349	-1.45710	3.92610	-1.42477
1578.000	4.65349	-1.48881	3.89659	-1.45061
1579.000	4.59653	-1.44335	3.84542	-1.41895
1580.000	4.64367	-1.44920	3.85919	-1.44274
1581.000	4.61224	-1.50673	3.92413	-1.48626
1582.000	4.59653	-1.52063	3.80408	-1.48449
1583.000	4.65153	-1.46900	3.80408	-1.42299
1584.000	4.63581	-1.48290	3.86116	-1.48439
1585.000	4.61028	-1.44530	3.85526	-1.49828
1586.000	4.61617	-1.46907	3.86903	-1.44867
1587.000	4.61421	-1.49682	3.83361	-1.48642
1588.000	4.62796	-1.49481	3.86116	-1.37529
1589.000	4.63974	-1.43335	3.89265	-1.44466
1590.000	4.61421	-1.44727	3.84148	-1.45864
1591.000	4.66331	-1.43132	3.79621	-1.43292
1592.000	4.58867	-1.44733	3.84148	-1.42491
1593.000	4.62599	-1.47103	3.84935	-1.43482
1594.000	4.61814	-1.44925	3.78243	-1.43691
1595.000	4.61224	-1.44728	3.79621	-1.40912
1596.000	4.64171	-1.47694	3.82180	-1.43685
1597.000	4.63581	-1.48092	3.82377	-1.40709
1598.000	4.59260	-1.46119	3.85526	-1.42886
1599.000	4.63189	-1.44724	3.79621	-1.50632
1600.000	4.52188	-1.47521	3.83951	-1.44475
1601.000	4.60242	-1.42153	3.80802	-1.44481
1602.000	4.58278	-1.47706	3.69385	-1.46087
1603.000	4.59260	-1.45723	3.79227	-1.41507
1604.000	4.59260	-1.48299	3.87494	-1.44866
1605.000	4.58278	-1.45328	3.73519	-1.45683
1606.000	4.60046	-1.42748	3.81786	-1.43685
1607.000	4.58278	-1.46914	3.80212	-1.45672
1608.000	4.54742	-1.49894	3.93201	-1.46046
1609.000	4.56510	-1.47908	3.75881	-1.45481
1610.000	4.57885	-1.44933	3.70566	-1.43109
1611.000	4.56903	-1.44935	3.78046	-1.43493
1612.000	4.58082	-1.44140	3.77456	-1.40320
1613.000	4.53170	-1.48113	3.85526	-1.45266
1614.000	4.55921	-1.44342	3.84345	-1.42293
1615.000	4.61224	-1.49088	3.76865	-1.46471
1616.000	4.56510	-1.45728	3.78440	-1.45080
1617.000	4.59064	-1.47507	3.77653	-1.50636
1618.000	4.57689	-1.42159	3.85526	-1.51019
1619.000	4.58278	-1.44932	3.81786	-1.48446
1620.000	4.59260	-1.48497	3.80802	-1.41505
1621.000	4.60046	-1.43739	3.87494	-1.36336
1622.000	4.56903	-1.47313	3.79818	-1.48648
1623.000	4.61617	-1.43934	3.84345	-1.48839
1624.000	4.60832	-1.47107	3.76472	-1.44289
1625.000	4.55724	-1.45135	3.87100	-1.46652
1626.000	4.60242	-1.45523	3.77456	-1.46867
1627.000	4.57689	-1.48897	3.80015	-1.37538
1628.000	4.58474	-1.47310	3.79818	-1.41507
1629.000	4.59064	-1.40967	3.78046	-1.41708
1630.000	4.57885	-1.50085	3.91036	-1.45653
1631.000	4.55921	-1.44144	3.75881	-1.46671
1632.000	4.59260	-1.48299	3.85329	-1.46457
1633.000	4.54545	-1.48903	3.70763	-1.40132
1634.000	4.56117	-1.47513	3.79227	-1.41507
1635.000	4.57689	-1.48699	3.87887	-1.39708
1636.000	4.59064	-1.44930	3.82770	-1.39121
1637.000	4.55135	-1.48109	3.87887	-1.47246
1638.000	4.58082	-1.48301	3.81983	-1.38726
1639.000	4.57689	-1.41366	3.84345	-1.42888
1640.000	4.55921	-1.43946	3.79621	-1.46268
1641.000	4.57689	-1.46320	3.80605	-1.30990
1642.000	4.58867	-1.45129	3.83361	-1.41104
1643.000	4.57885	-1.45924	3.80408	-1.41506
1644.000	4.61224	-1.45124	3.73716	-1.37350
1645.000	4.58867	-1.46120	3.84148	-1.42690
1646.000	4.58671	-1.45922	3.84345	-1.36341
1647.000	4.59260	-1.41561	3.80015	-1.47061
1648.000	4.59260	-1.44534	3.76472	-1.40520
1649.000	4.57296	-1.42754	3.78046	-1.34764
1650.000	4.57492	-1.40573	3.79621	-1.38531
1651.000	4.62403	-1.42347	3.83754	-1.37334
1652.000	4.60439	-1.43342	3.77062	-1.36154
1653.000	4.60046	-1.41559	3.86116	-1.46257
1654.000	4.59849	-1.41956	3.80999	-1.44679
1655.000	4.58671	-1.43940	3.91036	-1.37521
1656.000	4.60832	-1.39972	3.85919	-1.31379
1657.000	4.58671	-1.47111	3.81393	-1.38925
1658.000	4.59849	-1.41758	3.81786	-1.33171
1659.000	4.54545	-1.47714	3.84542	-1.41697
1660.000	4.59653	-1.46118	3.86707	-1.38718
1661.000	4.58474	-1.48102	3.79424	-1.33968
1662.000	4.59064	-1.47110	3.78834	-1.35755
1663.000	4.51991	-1.41179	3.81196	-1.41703
1664.000	4.59260	-1.44732	3.83951	-1.40706
1665.000	4.56903	-1.50087	3.84345	-1.34754
1666.000	4.58474	-1.47508	3.79818	-1.42697
1667.000	4.55135	-1.48902	3.83951	-1.42095
1668.000	4.58474	-1.43742	3.81393	-1.40314
1669.000	4.58278	-1.47706	3.78046	-1.31788
1670.000	4.53563	-1.45536	3.85329	-1.42489
1671.000	4.55528	-1.48108	3.87494	-1.36336
1672.000	4.60242	-1.42550	3.82770	-1.38526
1673.000	4.56314	-1.47909	3.75291	-1.36951
1674.000	4.62992	-1.45913	3.75881	-1.35561
1675.000	4.57492	-1.45924	3.83361	-1.40112
1676.000	4.58474	-1.47904	3.85329	-1.38125
1677.000	4.58082	-1.49887	3.82180	-1.37932
1678.000	4.53760	-1.46527	3.77653	-1.43296
1679.000	4.62010	-1.51464	3.79621	-1.39920
1680.000	4.57492	-1.50681	3.81393	-1.30592
1681.000	4.56706	-1.51475	3.88084	-1.38517
1682.000	4.53367	-1.47915	3.81589	-1.41504
1683.000	4.57885	-1.47905	3.81983	-1.37337
1684.000	4.58671	-1.50480	3.80408	-1.39125
1685.000	4.54349	-1.46525	3.86116	-1.40703
1686.000	4.54349	-1.53065	3.79818	-1.38729
1687.000	4.54349	-1.49895	3.76669	-1.40520
1688.000	4.52581	-1.50295	3.77259	-1.38733
1689.000	4.51402	-1.51288	3.83361	-1.41104
1690.000	4.51205	-1.48117	3.85526	-1.38323
1691.000	4.55724	-1.49694	3.83361	-1.46857
1692.000	4.56117	-1.47513	3.88084	-1.33558
1693.000	4.57296	-1.47312	3.82770	-1.47453
1694.000	4.50223	-1.48714	3.87297	-1.45461
1695.000	4.55528	-1.46721	3.80408	-1.42299
1696.000	4.53563	-1.43158	3.79424	-1.42896
1697.000	4.58082	-1.50283	3.81393	-1.51026
1698.000	4.57099	-1.46520	3.77456	-1.41114
1699.000	4.56706	-1.44142	3.84935	-1.44474
1700.000	4.57296	-1.44141	3.80802	-1.44877
1701.000	4.59457	-1.44335	3.83164	-1.46262
1702.000	4.53563	-1.39194	3.78637	-1.46666
1703.000	4.53956	-1.47121	3.79227	-1.41904
1704.000	4.56117	-1.47711	3.90249	-1.39109
1705.000	4.54545	-1.42165	3.84345	-1.46458
1706.000	4.52777	-1.42763	3.84935	-1.41895
1707.000	4.50420	-1.45344	3.84148	-1.39516
1708.000	4.56510	-1.45134	3.84345	-1.36540
1709.000	4.53760	-1.41968	3.83558	-1.47055
1710.000	4.57885	-1.41960	3.88084	-1.40104
1711.000	4.58278	-1.46319	3.85919	-1.34752
1712.000	4.53563	-1.43951	3.87691	-1.46651
1713.000	4.58671	-1.38986	3.80802	-1.45671
1714.000	4.61617	-1.40367	3.83754	-1.45269
1715.000	4.55331	-1.38199	3.88871	-1.47046
1716.000	4.56706	-1.40773	3.79227	-1.48252
1717.000	4.56314	-1.40179	3.79424	-1.42697
1718.000	4.62207	-1.37988	3.80999	-1.51225
1719.000	4.58082	-1.39185	3.93791	-1.47632
1720.000	4.57492	-1.41763	3.84935	-1.45267
1721.000	4.56706	-1.40773	3.82574	-1.50627
1722.000	4.58671	-1.42157	3.81196	-1.46860
1723.000	4.57689	-1.42753	3.79031	-1.47063
1724.000	4.55921	-1.39982	3.83754	-1.40111
1725.000	4.56510	-1.41170	3.80999	-1.48051
1726.000	4.55921	-1.42162	3.87887	-1.50618
1727.000	4.59849	-1.43740	3.90446	-1.46249
1728.000	4.59064	-1.43147	3.84542	-1.42491
1729.000	4.55135	-1.44938	3.85132	-1.49829
1730.000	4.56903	-1.38791	3.84148	-1.43681
1731.000	4.58278	-1.42356	3.81393	-1.45868
1732.000	4.55921	-1.43946	3.78046	-1.41906
1733.000	4.55528	-1.42757	3.94775	-1.47234
1734.000	4.52777	-1.47123	3.84345	-1.46657
1735.000	4.51402	-1.43558	3.83361	-1.46063
1736.000	4.55921	-1.39189	3.91036	-1.46843
1737.000	4.59260	-1.41957	3.84542	-1.46260
1738.000	4.57885	-1.45527	3.86707	-1.46851
1739.000	4.56903	-1.44935	3.83754	-1.50823
1740.000	4.57885	-1.41564	3.84345	-1.49235
1741.000	4.56314	-1.44936	3.87494	-1.46850
1742.000	4.56706	-1.40971	3.85723	-1.44076
1743.000	4.59064	-1.44336	3.84739	-1.51020
1744.000	4.54742	-1.42164	3.93201	-1.49815
1745.000	4.57885	-1.42356	3.88871	-1.55376
1746.000	4.56706	-1.44539	3.87494	-1.50817
1747.000	4.55724	-1.41766	3.76078	-1.47663
1748.000	4.61421	-1.41953	3.88281	-1.43079
1749.000	4.61814	-1.42745	3.90052	-1.45060
1750.000	4.55724	-1.41766	3.87494	-1.50023
1751.000	4.57689	-1.41366	3.84739	-1.41697
1752.000	4.59260	-1.42155	3.88084	-1.43476
1753.000	4.57296	-1.39979	3.86707	-1.46653
1754.000	4.56314	-1.43747	3.88478	-1.39310
1755.000	4.58671	-1.45129	3.87100	-1.47247
1756.000	4.55528	-1.42361	3.91430	-1.47239
1757.000	4.59260	-1.43345	3.94578	-1.49019
1758.000	4.58278	-1.38392	3.84935	-1.49829
1759.000	4.59260	-1.42155	3.93201	-1.45650
1760.000	4.59849	-1.41163	3.93397	-1.43864
1761.000	4.55528	-1.43550	3.84148	-1.43483
1762.000	4.59849	-1.43145	3.88675	-1.49228
1763.000	4.57885	-1.43942	3.82967	-1.48841
1764.000	4.57492	-1.41564	3.90642	-1.42679
1765.000	4.57885	-1.46320	3.85723	-1.50622
1766.000	4.58671	-1.43544	3.81196	-1.39719
1767.000	4.59064	-1.40174	3.88281	-1.50220
1768.000	4.56117	-1.43747	3.83951	-1.49831
1769.000	4.56903	-1.43547	3.90642	-1.50018
1770.000	4.56706	-1.46917	3.79621	-1.53806
1771.000	4.56510	-1.47314	3.88871	-1.40698
1772.000	4.56903	-1.44935	3.87494	-1.50222
1773.000	4.60832	-1.44134	3.82180	-1.45470
1774.000	4.59457	-1.43741	3.85526	-1.43679
1775.000	4.55724	-1.40577	3.83361	-1.44873
1776.000	4.59457	-1.45920	3.89659	-1.41689
1777.000	4.60832	-1.40963	3.91823	-1.47834
1778.000	4.57492	-1.50086	3.91430	-1.46049
1779.000	4.59457	-1.43542	3.82770	-1.42295
1780.000	4.59849	-1.44731	3.80999	-1.41306
1781.000	4.60439	-1.46117	3.87887	-1.48832
1782.000	4.61224	-1.46115	3.89855	-1.50019
1783.000	4.61224	-1.44926	3.90839	-1.34744
1784.000	4.58278	-1.49094	3.84935	-1.39713
1785.000	4.61814	-1.44132	3.85919	-1.45861
1786.000	4.61224	-1.43142	3.85919	-1.44075
1787.000	4.60046	-1.44532	3.84345	-1.50029
1788.000	4.55921	-1.42955	3.85132	-1.47647
1789.000	4.62403	-1.39375	3.91430	-1.43669
1790.000	4.62207	-1.41951	3.82574	-1.34757
1791.000	4.64367	-1.48685	3.88871	-1.48434
1792.000	4.62207	-1.45518	3.83164	-1.41699
1793.000	4.61421	-1.37791	3.81589	-1.38329
1794.000	4.59457	-1.42551	3.87100	-1.38122
1795.000	4.61617	-1.40962	3.89068	-1.45855
1796.000	4.55724	-1.41568	3.86313	-1.37528
1797.000	4.60046	-1.39578	3.84148	-1.44078
1798.000	4.59260	-1.41561	3.95955	-1.44455
1799.000	4.57689	-1.47113	3.88084	-1.41890
1800.000	4.55331	-1.45532	3.91626	-1.40693
1801.000	4.57099	-1.40178	3.82967	-1.38922
1802.000	4.58082	-1.42951	3.84935	-1.40109
1803.000	4.51795	-1.43359	3.85132	-1.42886
1804.000	4.53760	-1.43157	3.85329	-1.33364
1805.000	4.51991	-1.40584	3.86116	-1.37529
1806.000	4.51991	-1.43161	3.86116	-1.41694
1807.000	4.51009	-1.49109	3.78637	-1.47063
1808.000	4.50027	-1.41381	3.90249	-1.36530
1809.000	4.52777	-1.43357	3.87494	-1.35344
1810.000	4.46883	-1.49712	3.89068	-1.31374
1811.000	4.50027	-1.44552	3.87691	-1.30583
1812.000	4.49437	-1.45544	3.90642	-1.32760
1813.000	4.50027	-1.47723	3.97529	-1.36518
1814.000	4.49634	-1.44553	3.89659	-1.26215
1815.000	4.48848	-1.44753	3.92610	-1.39898
1816.000	4.45507	-1.48922	3.97136	-1.29378
1817.000	4.44132	-1.50114	3.90446	-1.33951
1818.000	4.46097	-1.43965	3.81589	-1.29005
1819.000	4.44328	-1.47735	3.95365	-1.30174
1820.000	4.49634	-1.45544	3.94971	-1.31563
1821.000	4.49634	-1.47328	3.90249	-1.37720
1822.000	4.44721	-1.46347	3.87691	-1.30781
1823.000	4.47669	-1.38809	3.89659	-1.31572
1824.000	4.46293	-1.43568	3.94184	-1.26407
1825.000	4.45507	-1.44759	3.95168	-1.30769
1826.000	4.42953	-1.42782	3.90642	-1.29983
1827.000	4.47276	-1.39404	3.89265	-1.22843
1828.000	4.48258	-1.35041	3.90052	-1.21255
1829.000	4.50420	-1.34443	3.86903	-1.15109
1830.000	4.44525	-1.32669	3.88871	-1.05979
1831.000	4.50027	-1.27109	3.89265	-1.09153
1832.000	4.45114	-1.27910	3.87691	-1.05981
1833.000	4.43149	-1.35249	3.94971	-1.15098
1834.000	4.45311	-1.37822	3.98906	-1.11918
1835.000	4.41773	-1.37828	4.02448	-1.28378
1836.000	4.45114	-1.44958	4.09923	-1.12300
1837.000	4.52974	-1.48312	4.09136	-1.10317
1838.000	4.54153	-1.58020	4.26441	-1.09301
1839.000	4.61224	-1.50673	4.26048	-1.02162
1840.000	4.72222	-1.53027	4.52777	-1.12831
1841.000	4.68099	-1.97805	NaN	NaN
1842.000	4.67509	-1.83150	NaN	NaN
1843.000	4.73793	-1.32813	NaN	NaN
1844.000	4.88909	-0.87606	NaN	NaN
1845.000	4.93423	-0.45587	NaN	NaN
1846.000	5.00290	0.29331	NaN	NaN
1847.000	4.98328	1.06417	NaN	NaN
1848.000	5.14806	1.86385	NaN	NaN
1849.000	5.06764	2.47751	NaN	NaN
1850.000	4.91460	3.16816	NaN	NaN
1851.000	4.73008	3.82481	NaN	NaN
1852.000	NaN	NaN	NaN	NaN
1853.000	NaN	NaN	NaN	NaN
1854.000	NaN	NaN	NaN	NaN
1855.000	NaN	NaN	NaN	NaN
1856.000	NaN	NaN	NaN	NaN
1857.000	NaN	NaN	NaN	NaN
1858.000	NaN	NaN	NaN	NaN
1859.000	NaN	NaN	NaN	NaN
1860.000	NaN	NaN	NaN	NaN
1861.000	NaN	NaN	NaN	NaN
1862.000	NaN	NaN	NaN	NaN
1863.000	NaN	NaN	NaN	NaN
1864.000	NaN	NaN	NaN	NaN
1865.000	NaN	NaN	NaN	NaN
1866.000	NaN	NaN	NaN	NaN
1867.000	NaN	NaN	NaN	NaN
1868.000	NaN	NaN	NaN	NaN
1869.000	NaN	NaN	NaN	NaN
1870.000	NaN	NaN	NaN	NaN
1871.000	NaN	NaN	NaN	NaN
1872.000	NaN	NaN	NaN	NaN
1873.000	NaN	NaN	NaN	NaN
1874.000	NaN	NaN	NaN	NaN
1875.000	NaN	NaN	NaN	NaN
1876.000	NaN	NaN	NaN	NaN
1877.000	NaN	NaN	NaN	NaN
1878.000	NaN	NaN	NaN	NaN
1879.000	NaN	NaN	NaN	NaN
1880.000	NaN	NaN	NaN	NaN
1881.000	NaN	NaN	NaN	NaN
1882.000	NaN	NaN	NaN	NaN
1883.000	NaN	NaN	NaN	NaN
1884.000	NaN	NaN	NaN	NaN
1885.000	NaN	NaN	NaN	NaN
1886.000	NaN	NaN	NaN	NaN
1887.000	NaN	NaN	NaN	NaN
1888.000	NaN	NaN	NaN	NaN
1889.000	NaN	NaN	NaN	NaN
1890.000	NaN	NaN	NaN	NaN
1891.000	NaN	NaN	NaN	NaN
1892.000	NaN	NaN	NaN	NaN
1893.000	NaN	NaN	NaN	NaN
1894.000	NaN	NaN	NaN	NaN
1895.000	NaN	NaN	NaN	NaN
1896.000	NaN	NaN	NaN	NaN
1897.000	NaN	NaN	NaN	NaN
1898.000	NaN	NaN	NaN	NaN
1899.000	NaN	NaN	NaN	NaN
1900.000	NaN	NaN	NaN	NaN
1901.000	NaN	NaN	NaN	NaN
1902.000	NaN	NaN	NaN	NaN
1903.000	NaN	NaN	NaN	NaN
1904.000	NaN	NaN	NaN	NaN
1905.000	NaN	NaN	NaN	NaN
1906.000	NaN	NaN	NaN	NaN
1907.000	NaN	NaN	NaN	NaN
1908.000	NaN	NaN	NaN	NaN
1909.000	NaN	NaN	NaN	NaN
1910.000	NaN	NaN	NaN	NaN
1911.000	NaN	NaN	NaN	NaN
1912.000	NaN	NaN	NaN	NaN
1913.000	NaN	NaN	NaN	NaN
1914.000	NaN	NaN	NaN	NaN
1915.000	NaN	NaN	NaN	NaN
1916.000	NaN	NaN	NaN	NaN
1917.000	NaN	NaN	NaN	NaN
1918.000	NaN	NaN	NaN	NaN
1919.000	NaN	NaN	NaN	NaN
1920.000	6.76142	2.37134	NaN	NaN
1921.000	7.05563	1.87696	NaN	NaN
1922.000	7.56521	1.43540	NaN	NaN
1923.000	7.46222	0.97436	NaN	NaN
1924.000	7.76910	0.70565	NaN	NaN
1925.000	7.56521	0.22876	NaN	NaN
1926.000	7.56327	-0.09466	NaN	NaN
1927.000	7.74775	-0.39228	NaN	NaN
1928.000	7.92625	-0.62460	NaN	NaN
1929.000	7.90298	-0.88076	NaN	NaN
1930.000	7.91656	-1.18212	NaN	NaN
1931.000	7.93013	-1.36721	NaN	NaN
1932.000	7.96698	-1.61910	NaN	NaN
1933.000	7.99412	-1.80992	NaN	NaN
1934.000	7.95534	-2.06594	NaN	NaN
1935.000	7.97667	-2.22716	NaN	NaN
1936.000	8.04258	-2.50211	NaN	NaN
1937.000	8.01351	-2.62222	NaN	NaN
1938.000	8.03677	-2.75966	NaN	NaN
1939.000	8.04452	-2.97968	NaN	NaN
1940.000	8.06197	-3.05223	NaN	NaN
1941.000	8.00963	-3.10959	NaN	NaN
1942.000	8.00188	-3.10179	NaN	NaN
1943.000	8.00381	-3.10374	NaN	NaN
1944.000	7.92043	-3.19670	NaN	NaN
1945.000	8.06584	-3.12291	NaN	NaN
1946.000	8.13948	-3.02219	NaN	NaN
1947.000	8.21889	-2.89394	NaN	NaN
1948.000	8.25568	-2.83868	NaN	NaN
1949.000	8.30215	-2.80104	NaN	NaN
1950.000	8.33312	-2.84991	NaN	NaN
1951.000	8.37376	-2.92029	8.74880	-3.56421
1952.000	8.37956	-2.96539	8.04840	-3.16821
1953.000	8.34473	-2.94406	7.31445	-2.66000
1954.000	8.39504	-3.00257	7.27555	-2.64841
1955.000	8.37763	-3.04784	7.20551	-2.63504
1956.000	8.40085	-3.09672	7.17243	-2.58008
1957.000	8.43761	-3.14548	7.16464	-2.64512
1958.000	8.42987	-3.16320	7.14518	-2.63342
1959.000	8.39311	-3.22040	7.22108	-2.67434
1960.000	8.46082	-3.20807	7.14713	-2.63144
1961.000	8.45502	-3.23558	7.23470	-2.63093
1962.000	8.42600	-3.24171	7.23470	-2.62896
1963.000	8.42793	-3.26131	7.15686	-2.73183
1964.000	8.44148	-3.25335	7.26388	-2.67408
1965.000	8.44921	-3.29055	7.19967	-2.69022
1966.000	8.43374	-3.30441	7.11403	-2.65526
1967.000	8.43761	-3.29653	7.12182	-2.65522
1968.000	8.43761	-3.25534	7.22497	-2.68416
1969.000	8.45888	-3.26301	7.25221	-2.70763
1970.000	8.44341	-3.29060	7.13934	-2.71421
1971.000	8.46082	-3.24926	7.15686	-2.64123
1972.000	8.47823	-3.27461	7.22302	-2.60539
1973.000	8.44728	-3.27095	7.17827	-2.71989
1974.000	8.43954	-3.25336	7.17048	-2.65494
1975.000	8.44148	-3.28473	7.17827	-2.73958
1976.000	8.45115	-3.26111	7.09457	-2.66129
1977.000	8.42213	-3.27116	7.18216	-2.70411
1978.000	8.46856	-3.22958	7.18994	-2.74148
1979.000	8.45308	-3.25325	7.17243	-2.67659
1980.000	8.46082	-3.26495	7.14129	-2.68071
1981.000	8.43567	-3.27105	7.20551	-2.70791
1982.000	8.46469	-3.26296	7.16075	-2.63333
1983.000	8.43761	-3.26319	7.14129	-2.60586
1984.000	8.48016	-3.27852	7.14129	-2.68662
1985.000	8.42600	-3.26328	7.17437	-2.67461
1986.000	8.45695	-3.25322	7.10235	-2.60017
1987.000	8.46082	-3.24926	7.14518	-2.70827
1988.000	8.44728	-3.27880	7.16075	-2.71211
1989.000	8.44341	-3.35924	7.19773	-2.72568
1990.000	8.44728	-3.33371	7.12571	-2.71626
1991.000	8.47629	-3.30797	7.10625	-2.67895
1992.000	8.44341	-3.36513	7.18605	-2.70802
1993.000	8.43567	-3.32205	7.08094	-2.70470
1994.000	8.44921	-3.32977	7.14518	-2.64721
1995.000	8.43954	-3.33770	7.13934	-2.66891
1996.000	8.46275	-3.31593	7.17827	-2.73367
1997.000	8.44148	-3.33769	7.12182	-2.75567
1998.000	8.40859	-3.34385	7.11598	-2.70450
1999.000	8.41052	-3.36541	7.17437	-2.72582
2000.000	8.40085	-3.34000	7.14518	-2.72993
2001.000	8.42020	-3.32806	7.19383	-2.65480
2002.000	8.43180	-3.35346	7.25415	-2.75487
2003.000	8.41633	-3.31829	7.19189	-2.82614
2004.000	8.40085	-3.35177	7.18410	-2.78090
2005.000	8.43954	-3.36712	7.11014	-2.71635
2006.000	8.42020	-3.31629	7.22302	-2.65463
2007.000	8.40472	-3.37135	7.18410	-2.73167
2008.000	8.40859	-3.34581	7.18605	-2.80452
2009.000	8.36602	-3.37560	7.15296	-2.64322
2010.000	8.39891	-3.33021	7.06926	-2.74417
2011.000	8.39311	-3.39694	7.14518	-2.73387
2012.000	8.37569	-3.39513	7.16659	-2.73177
2013.000	8.35441	-3.35020	7.18216	-2.79273
2014.000	8.38730	-3.32442	7.17048	-2.70221
2015.000	8.36215	-3.32856	7.16270	-2.66286
2016.000	8.37376	-3.35788	7.13934	-2.75754
2017.000	8.35828	-3.35409	7.21719	-2.76691
2018.000	8.34473	-3.35813	7.15296	-2.73776
2019.000	8.37956	-3.33626	7.26388	-2.75875
2020.000	8.36795	-3.37951	7.22302	-2.75506
2021.000	8.35441	-3.37178	7.19967	-2.79852
2022.000	8.40665	-3.37133	7.17632	-2.77504
2023.000	8.35634	-3.36196	7.16464	-2.84600
2024.000	8.39698	-3.34003	7.20551	-2.82015
2025.000	8.39117	-3.30477	7.19773	-2.72765
2026.000	8.37569	-3.29117	7.21913	-2.75706
2027.000	8.39891	-3.32628	7.10625	-2.73607
2028.000	8.38924	-3.32637	7.21135	-2.77286
2029.000	8.39891	-3.33217	7.21524	-2.82403
2030.000	8.40278	-3.33998	7.14129	-2.70829
2031.000	8.35247	-3.36395	7.21524	-2.85356
2032.000	8.38150	-3.34605	7.15880	-2.73576
2033.000	8.36408	-3.32658	7.22886	-2.79047
2034.000	8.36989	-3.36184	7.25804	-2.74107
2035.000	8.41246	-3.34382	7.24637	-2.78052
2036.000	8.38150	-3.34212	7.21329	-2.76103
2037.000	8.36408	-3.35012	7.21524	-2.75314
2038.000	8.36602	-3.31676	7.22691	-2.80426
2039.000	8.38537	-3.36367	7.26582	-2.76268
2040.000	8.37569	-3.35198	7.26972	-2.80400
2041.000	8.37569	-3.32452	7.19967	-2.80640
2042.000	8.36215	-3.36583	7.28139	-2.76849
2043.000	8.37182	-3.38144	7.19383	-2.79856
2044.000	8.36408	-3.35797	7.26972	-2.79022
2045.000	8.37376	-3.36573	7.19189	-2.79857
2046.000	8.33893	-3.32679	7.25026	-2.77655
2047.000	8.35634	-3.32861	7.27361	-2.77641
2048.000	8.35634	-3.35019	7.29306	-2.87078
2049.000	8.36021	-3.37565	7.22691	-2.73732
2050.000	8.40278	-3.36940	7.26193	-2.76861
2051.000	8.37763	-3.37746	7.20940	-2.82800
2052.000	8.40472	-3.36742	7.22691	-2.75504
2053.000	8.38924	-3.35775	7.25804	-2.80801
2054.000	8.37569	-3.38729	7.24832	-2.81791
2055.000	8.37956	-3.40294	7.26193	-2.81192
2056.000	8.36795	-3.40501	7.18605	-2.79861
2057.000	8.38537	-3.32836	7.28722	-2.80192
2058.000	8.36215	-3.38348	7.25221	-2.77851
2059.000	8.35054	-3.31689	7.20940	-2.88509
2060.000	8.36408	-3.35600	7.28722	-2.82948
2061.000	8.28279	-3.29980	7.31445	-2.78600
2062.000	8.24019	-3.27857	7.15296	-2.73382
2063.000	8.15691	-3.19092	7.08873	-2.78148
2064.000	8.12785	-3.19704	7.04394	-2.76205
2065.000	8.00769	-3.09782	6.94266	-2.72324
2066.000	7.92237	-3.02773	6.92318	-2.75882
2067.000	7.86030	-2.96922	6.80236	-2.68462
2068.000	7.78657	-2.88521	6.77702	-2.64534
2069.000	7.67980	-2.81120	6.73997	-2.58639
2070.000	7.63902	-2.79180	6.56248	-2.54590
2071.000	7.59629	-2.70945	6.62101	-2.51405
2072.000	7.56715	-2.70963	6.50589	-2.40414
2073.000	7.56521	-2.59551	6.61320	-2.45491
2074.000	7.60795	-2.60902	6.63076	-2.39368
2075.000	7.62543	-2.58530	6.55663	-2.35063
2076.000	7.67980	-2.61842	6.69707	-2.32431
2077.000	7.73222	-2.63777	6.64246	-2.40348
2078.000	7.74775	-2.67505	6.74387	-2.39904
2079.000	7.84284	-2.72164	6.81600	-2.41445
2080.000	7.91849	-2.74670	6.83939	-2.41237
2081.000	7.94565	-2.81531	6.86667	-2.50095
2082.000	7.93401	-2.84488	6.91344	-2.42973
2083.000	7.97473	-2.90159	6.87252	-2.53640
2084.000	7.98830	-2.90739	6.92123	-2.54402
2085.000	8.00963	-2.93474	6.88616	-2.59743
2086.000	7.98443	-2.98208	6.85693	-2.59168
2087.000	7.95728	-2.99014	6.90175	-2.66041
2088.000	7.95534	-2.98426	6.89396	-2.65257
2089.000	7.90686	-3.01212	6.88421	-2.61715
2090.000	7.93983	-3.03153	6.90175	-2.58552
2091.000	7.87000	-2.99863	6.84524	-2.60160
2092.000	7.88164	-2.99658	6.89980	-2.61904
2093.000	7.88746	-3.01030	6.87057	-2.62314
2094.000	7.86612	-2.96132	6.88811	-2.60531
2095.000	7.88358	-2.98085	6.84134	-2.61542
2096.000	7.88552	-2.96315	6.87252	-2.53246
2097.000	7.86224	-2.93383	6.89980	-2.58947
2098.000	7.83896	-2.94186	6.86083	-2.52858
2099.000	7.82732	-2.94784	6.84719	-2.56019
2100.000	7.80015	-2.93623	6.82965	-2.51297
2101.000	7.83896	-2.95168	6.76727	-2.54879
2102.000	7.81568	-2.92040	6.82380	-2.53666
2103.000	7.84866	-2.88675	6.81990	-2.59976
2104.000	7.81180	-2.88700	6.86083	-2.56012
2105.000	7.84478	-2.89267	6.87447	-2.47922
2106.000	7.82538	-2.92229	6.84719	-2.45373
2107.000	7.80986	-2.93027	6.82575	-2.47553
2108.000	7.84672	-2.88480	6.87057	-2.48515
2109.000	7.85254	-2.94176	6.79846	-2.50525
2110.000	7.82150	-2.93215	6.79261	-2.53682
2111.000	7.81568	-2.89484	6.81210	-2.40659
2112.000	7.82732	-2.91049	6.80041	-2.46186
2113.000	7.80986	-2.92240	6.93487	-2.53212
2114.000	7.85254	-2.94176	6.80626	-2.47563
2115.000	7.81956	-2.86532	6.77117	-2.53694
2116.000	7.85836	-2.92993	6.82965	-2.51888
2117.000	7.83508	-2.91240	6.81795	-2.53472
2118.000	7.82344	-2.91444	6.83549	-2.50900
2119.000	7.80209	-2.94212	6.79456	-2.51315
2120.000	7.83120	-2.95960	6.84524	-2.51683
2121.000	7.78075	-2.95406	6.88032	-2.54424
2122.000	7.82150	-2.95377	6.86278	-2.51871
2123.000	7.81568	-2.94399	6.86667	-2.56009
2124.000	7.82150	-2.94001	6.87837	-2.57776
2125.000	7.82926	-2.94389	6.94071	-2.61093
2126.000	7.80597	-2.93029	6.87837	-2.56002
2127.000	7.79433	-2.93431	6.88811	-2.55406
2128.000	7.81762	-2.96953	6.85303	-2.57002
2129.000	7.78463	-2.93831	6.86473	-2.57390
2130.000	7.84284	-2.97524	6.89201	-2.56192
2131.000	7.82538	-3.00092	6.90954	-2.60125
2132.000	7.82926	-2.98320	6.88032	-2.65462
2133.000	7.83702	-2.93794	6.93487	-2.65826
2134.000	7.80209	-2.99126	6.95435	-2.64829
2135.000	7.80597	-2.98337	6.87837	-2.63295
2136.000	7.83508	-2.96351	6.99526	-2.72293
2137.000	7.80015	-2.96375	6.89785	-2.60919
2138.000	7.81568	-2.96954	6.93877	-2.66415
2139.000	7.81762	-2.91449	6.91344	-2.63079
2140.000	7.80209	-2.92639	6.89590	-2.69789
2141.000	7.82732	-2.92228	6.89785	-2.64270
2142.000	7.79433	-2.94020	6.85108	-2.66070
2143.000	7.79821	-2.92248	6.89201	-2.65061
2144.000	7.77881	-2.93245	6.90954	-2.63869
2145.000	7.78075	-2.90295	6.93877	-2.69371
2146.000	7.80209	-2.94998	6.93292	-2.70950
2147.000	7.77492	-2.89709	6.91344	-2.73523
2148.000	7.80015	-2.95589	6.96799	-2.72703
2149.000	7.82344	-2.90855	6.98357	-2.67177
2150.000	7.82344	-2.90068	7.01084	-2.67162
2151.000	7.80791	-2.90866	6.91539	-2.61501
2152.000	7.83702	-2.90452	6.94851	-2.66606
2153.000	7.83896	-2.89075	6.94266	-2.60698
2154.000	7.80791	-2.91652	6.97188	-2.63637
2155.000	7.79821	-2.90676	6.94656	-2.56163
2156.000	7.77686	-2.92067	6.98941	-2.67765
2157.000	7.78463	-2.91078	6.99526	-2.61062
2158.000	7.80597	-2.87131	6.95046	-2.61876
2159.000	7.78269	-2.88524	6.93877	-2.64247
2160.000	7.79821	-2.90086	6.95046	-2.64438
2161.000	7.79627	-2.90874	6.96409	-2.64233
2162.000	7.77298	-2.91676	6.96020	-2.62067
2163.000	7.77104	-2.91088	6.99915	-2.57513
2164.000	7.74969	-2.94248	6.98747	-2.69343
2165.000	7.78657	-2.91863	6.94656	-2.67396
2166.000	7.75746	-2.93850	6.95825	-2.68965
2167.000	7.78075	-2.93440	6.96409	-2.64627
2168.000	7.76134	-2.92471	6.92123	-2.64454
2169.000	7.77686	-2.90101	6.95630	-2.62858
2170.000	7.76716	-2.91484	6.96604	-2.70143
2171.000	7.76910	-2.94235	6.96214	-2.64431
2172.000	7.78657	-2.94222	6.87837	-2.65463
2173.000	7.75551	-2.89722	6.86862	-2.59359
2174.000	7.74969	-2.92086	6.99526	-2.60077
2175.000	7.74387	-2.94252	6.91149	-2.64262
2176.000	7.78463	-2.94814	6.92318	-2.65438
2177.000	7.76134	-2.93257	6.93487	-2.64446
2178.000	7.74387	-2.93662	6.94656	-2.73898
2179.000	7.78075	-2.92457	6.93292	-2.59323
2180.000	7.73416	-2.93473	7.04784	-2.66353
2181.000	7.75357	-2.91493	6.96409	-2.65021
2182.000	7.73028	-2.95441	7.03226	-2.69317
2183.000	7.75551	-2.95620	6.90954	-2.65643
2184.000	7.74193	-2.98776	7.00694	-2.68346
2185.000	7.71669	-2.91125	6.97383	-2.64818
2186.000	7.76522	-2.92665	6.89980	-2.66831
2187.000	7.74193	-2.97596	6.91928	-2.64455
2188.000	7.78075	-2.96586	6.96994	-2.61668
2189.000	7.72057	-2.89746	6.99526	-2.58501
2190.000	7.75551	-2.92868	6.95630	-2.59310
2191.000	7.79627	-2.92840	6.99136	-2.56729
2192.000	7.78269	-2.92456	6.99720	-2.64608
2193.000	7.76328	-2.92666	6.96020	-2.58520
2194.000	7.76134	-2.95616	7.04784	-2.67929
2195.000	7.75551	-2.97390	6.96604	-2.54772
2196.000	7.73222	-2.95440	6.89590	-2.67621
2197.000	7.72057	-2.92696	6.91149	-2.67613
2198.000	7.69728	-2.98807	6.96604	-2.67976
2199.000	7.69145	-2.99204	6.95825	-2.69951
2200.000	7.74581	-2.95824	7.05563	-2.73834
2201.000	7.69922	-2.96643	7.02252	-2.69125
2202.000	7.72446	-2.94856	6.95435	-2.67982
2203.000	7.71281	-2.99583	6.91734	-2.67806
2204.000	7.73222	-2.96816	6.98162	-2.61858
2205.000	7.71863	-2.95253	6.99720	-2.72489
2206.000	7.72834	-2.95050	6.96799	-2.59304
2207.000	7.74969	-2.92282	6.99915	-2.59484
2208.000	7.72251	-2.98396	6.96994	-2.70338
2209.000	7.74775	-2.94446	6.99526	-2.68944
2210.000	7.75163	-2.96999	6.99526	-2.61260
2211.000	7.70116	-2.94085	6.98747	-2.73283
2212.000	7.69922	-2.93693	6.94071	-2.62472
2213.000	7.72251	-2.95250	6.96994	-2.60880
2214.000	7.73610	-2.95831	6.99136	-2.64020
2215.000	7.72251	-2.96233	6.98552	-2.61462
2216.000	7.69533	-2.96252	6.89590	-2.72351
2217.000	7.68174	-2.96852	7.03421	-2.69119
2218.000	7.73610	-2.96224	7.02057	-2.67944
2219.000	7.72251	-2.96627	6.94266	-2.63062
2220.000	7.70893	-2.94277	6.89980	-2.70772
2221.000	7.72640	-3.00359	6.94071	-2.63852
2222.000	7.70310	-2.93298	6.98941	-2.70327
2223.000	7.68369	-3.01176	6.99136	-2.69340
2224.000	7.69533	-3.00578	6.88421	-2.65263
2225.000	7.72640	-3.04291	6.89785	-2.64467
2226.000	7.68951	-2.99206	6.87837	-2.67237
2227.000	7.68369	-2.97244	6.89590	-2.60329
2228.000	7.69533	-2.98022	6.93877	-2.71538
2229.000	7.73804	-2.98385	7.02252	-2.68928
2230.000	7.68563	-3.00388	6.99331	-2.69339
2231.000	7.73610	-2.99959	7.01278	-2.62826
2232.000	7.73416	-2.98978	7.02252	-2.71096
2233.000	7.71475	-3.00761	6.98552	-2.61462
2234.000	7.71863	-3.01348	7.00694	-2.69528
2235.000	7.72834	-3.02520	6.93097	-2.60507
2236.000	7.70893	-3.02731	6.90759	-2.66432
2237.000	7.72057	-3.02329	6.92513	-2.69181
2238.000	7.71669	-3.00956	6.94461	-2.77840
2239.000	7.73222	-2.96227	7.02252	-2.68140
2240.000	7.70310	-3.03128	6.99331	-2.74462
2241.000	7.72446	-2.96035	6.93682	-2.69766
2242.000	7.68757	-2.94291	6.98747	-2.60082
2243.000	7.73610	-3.00352	6.94071	-2.65428
2244.000	7.75357	-3.00733	7.05563	-2.63787
2245.000	7.72446	-3.00361	6.95825	-2.65418
2246.000	7.69533	-3.01758	6.92318	-2.69971
2247.000	7.70504	-2.99391	6.90565	-2.68207
2248.000	7.73999	-2.97204	6.97383	-2.62454
2249.000	7.69728	-2.99397	6.95240	-2.67392
2250.000	7.72057	-2.99774	6.89980	-2.61904
2251.000	7.69339	-2.99203	6.91734	-2.68397
2252.000	7.70310	-3.01162	6.94656	-2.61484
2253.000	7.68369	-3.02356	6.99720	-2.59682
2254.000	7.71669	-2.98597	6.88032	-2.61126
2255.000	7.73222	-2.97013	7.04978	-2.64184
2256.000	7.71087	-2.98404	7.01084	-2.62433
2257.000	7.69533	-2.97629	6.97578	-2.56738
2258.000	7.73610	-3.00352	6.99136	-2.66188
2259.000	7.73999	-3.00939	6.99331	-2.67763
2260.000	7.71863	-2.97612	7.04589	-2.63792
2261.000	7.74193	-2.97596	6.98162	-2.64617
2262.000	7.71669	-3.00170	7.01084	-2.66965
2263.000	7.69922	-2.99592	6.98357	-2.75059
2264.000	7.70504	-3.05289	6.99720	-2.62835
2265.000	7.71281	-2.99976	7.00305	-2.70122
2266.000	7.71087	-2.98601	6.98552	-2.70526
2267.000	7.67203	-3.03937	7.01668	-2.65582
2268.000	7.72446	-3.02916	6.93682	-2.66810
2269.000	7.67592	-3.01968	7.01473	-2.64598
2270.000	7.67203	-3.02561	7.01473	-2.69918
2271.000	7.72251	-3.06849	6.93487	-2.67796
2272.000	7.68757	-2.97634	6.93877	-2.67006
2273.000	7.68369	-3.01962	6.92513	-2.64846
2274.000	7.73028	-3.03699	7.03226	-2.62421
2275.000	7.71669	-2.98597	7.03031	-2.64392
2276.000	7.68563	-2.99012	6.98941	-2.62642
2277.000	7.68757	-3.03729	6.98747	-2.63628
2278.000	7.70698	-3.04108	7.00110	-2.66970
2279.000	7.72446	-3.03113	6.96604	-2.69355
2280.000	7.66427	-3.06302	6.93292	-2.70950
2281.000	7.67592	-3.02951	6.97773	-2.67378
2282.000	7.68951	-3.06873	6.99720	-2.72095
2283.000	7.68757	-3.05892	6.96994	-2.64032
2284.000	7.72057	-3.04688	6.96020	-2.67191
2285.000	7.65262	-3.03164	6.93097	-2.68587
2286.000	7.67009	-3.02169	7.06926	-2.68901
2287.000	7.67203	-3.02757	6.92903	-2.68785
2288.000	7.66233	-3.02567	6.97967	-2.68165
2289.000	7.65650	-3.02768	6.94071	-2.61684
2290.000	7.66038	-3.08860	6.94656	-2.67001
2291.000	7.68563	-3.02158	6.96409	-2.65612
2292.000	7.73028	-3.01340	6.97773	-2.66393
2293.000	7.68951	-3.03728	7.00694	-2.69528
2294.000	7.68757	-2.99994	6.94656	-2.62666
2295.000	7.70116	-3.08241	7.01863	-2.71886
2296.000	7.66621	-3.09053	6.89980	-2.73531
2297.000	7.67203	-3.03937	6.95630	-2.67390
2298.000	7.67980	-3.05504	6.98747	-2.64811
2299.000	7.71281	-3.06070	6.96799	-2.70930
2300.000	7.68951	-3.07266	6.92318	-2.76473
2301.000	7.66427	-3.02369	6.98552	-2.64418
2302.000	7.67592	-3.05703	7.00305	-2.73077
2303.000	7.66427	-3.05908	7.02252	-2.64988
2304.000	7.69922	-3.03721	6.93487	-2.66614
2305.000	7.63708	-3.02192	6.97967	-2.61268
2306.000	7.65844	-3.04536	7.01863	-2.67551
2307.000	7.66815	-3.03940	6.95435	-2.66603
2308.000	7.64873	-3.05526	6.92708	-2.73515
2309.000	7.66427	-3.06498	6.96020	-2.68767
2310.000	7.65650	-3.03751	6.94266	-2.65427
2311.000	7.65844	-3.05323	6.97578	-2.66197
2312.000	7.65456	-3.07488	6.92123	-2.57556
2313.000	7.68369	-3.11202	6.93097	-2.65434
2314.000	7.67980	-3.05897	6.99915	-2.71306
2315.000	7.69728	-3.07457	6.94656	-2.58133
2316.000	7.64873	-3.10245	6.96214	-2.70736
2317.000	7.68563	-3.06090	6.96020	-2.66994
2318.000	7.66427	-3.11806	7.07899	-2.71260
2319.000	7.68369	-3.05305	7.01084	-2.65389
2320.000	7.63902	-3.06516	6.95435	-2.63056
2321.000	7.66427	-3.09251	6.87447	-2.64086
2322.000	7.67980	-3.08846	7.01473	-2.72085
2323.000	7.65262	-3.08669	6.98162	-2.70725
2324.000	7.69533	-3.08638	6.90954	-2.72146
2325.000	7.70310	-3.05684	6.97578	-2.65803
2326.000	7.67398	-3.06688	7.04394	-2.68719
2327.000	7.66621	-3.08659	6.96799	-2.67975
2328.000	7.67592	-3.07080	6.90954	-2.69781
2329.000	7.65456	-3.05522	7.02252	-2.69125
2330.000	7.67009	-3.03938	6.88032	-2.68024
2331.000	7.65844	-3.10631	6.88226	-2.66249
2332.000	7.65067	-3.05525	6.93682	-2.67598
2333.000	7.65262	-3.07883	6.93487	-2.63461
2334.000	7.65456	-3.06112	6.96409	-2.70538
2335.000	7.68174	-3.07075	6.95240	-2.69363
2336.000	7.65262	-3.05524	7.00694	-2.71302
2337.000	7.66427	-3.05122	7.02252	-2.62032
2338.000	7.67980	-3.05308	6.90759	-2.66038
2339.000	7.65650	-3.06307	7.03226	-2.66953
2340.000	7.62931	-3.04754	6.95630	-2.74877
2341.000	7.69533	-3.09621	6.99720	-2.67367
2342.000	7.68174	-3.03143	7.05173	-2.64577
2343.000	7.66621	-3.09053	6.90759	-2.69979
2344.000	7.65650	-3.11026	6.96214	-2.62263
2345.000	7.67009	-3.09246	6.97967	-2.74470
2346.000	7.61377	-3.10663	6.94851	-2.67986
2347.000	7.65067	-3.09064	7.01473	-2.65386
2348.000	7.65456	-3.05719	6.97967	-2.70332
2349.000	7.64096	-3.10251	6.96799	-2.67186
2350.000	7.60018	-3.07921	6.99720	-2.67761
2351.000	7.62737	-3.05148	6.98552	-2.67965
2352.000	7.65262	-3.07490	6.96409	-2.79995
2353.000	7.64096	-3.07891	6.97188	-2.75853
2354.000	7.63514	-3.08289	6.99915	-2.73473
2355.000	7.65262	-3.04737	6.97578	-2.66394
2356.000	7.64291	-3.11035	7.02836	-2.72471
2357.000	7.68369	-3.07860	6.96799	-2.73886
2358.000	7.67398	-3.06295	7.00694	-2.73666
2359.000	7.66038	-3.02176	7.01668	-2.68341
2360.000	7.62154	-3.09282	7.02642	-2.65380
2361.000	7.66815	-3.11214	7.02642	-2.67547
2362.000	7.62931	-3.06720	6.93487	-2.72526
2363.000	7.67203	-3.10031	6.99331	-2.71310
2364.000	7.65456	-3.08471	7.06147	-2.70088
2365.000	7.64485	-3.11820	6.97188	-2.68760
2366.000	7.66427	-3.10627	6.96409	-2.67189
2367.000	7.64873	-3.08475	6.99136	-2.66779
2368.000	7.64679	-3.11033	6.90565	-2.67813
2369.000	7.63514	-3.08485	6.96799	-2.74477
2370.000	7.62737	-3.09671	6.98747	-2.73677
2371.000	7.61960	-3.11446	6.94071	-2.69369
2372.000	7.66233	-3.11611	7.00305	-2.70516
2373.000	7.63514	-3.08485	7.01278	-2.75238
2374.000	7.62931	-3.06130	6.98941	-2.64613
2375.000	7.65456	-3.09061	6.91539	-2.67413
2376.000	7.63320	-3.09666	6.94851	-2.65030
2377.000	7.62543	-3.10262	7.00499	-2.69530
2378.000	7.65844	-3.11417	7.02447	-2.75034
2379.000	7.66815	-3.07478	7.00305	-2.73274
2380.000	7.66815	-3.10821	7.02057	-2.72082
2381.000	7.65650	-3.06307	6.99526	-2.70520
2382.000	7.66233	-3.05320	6.99526	-2.74461
2383.000	7.65650	-3.06307	6.99526	-2.72688
2384.000	7.68563	-3.05500	7.05173	-2.68517
2385.000	7.67786	-3.09437	7.03810	-2.71677
2386.000	7.65262	-3.05524	6.98747	-2.76435
2387.000	7.66038	-3.09057	6.99136	-2.75054
2388.000	7.64096	-3.09661	7.04978	-2.73838
2389.000	7.68757	-3.07071	7.03226	-2.64982
2390.000	7.66038	-3.09647	7.01863	-2.69916
2391.000	7.66233	-3.07679	6.99526	-2.70914
2392.000	7.68951	-3.11788	7.03226	-2.69120
2393.000	7.64679	-3.09656	6.92318	-2.64256
2394.000	7.70116	-3.08044	7.01278	-2.71101
2395.000	7.67398	-3.13372	7.03421	-2.66951
2396.000	7.67592	-3.10815	6.98552	-2.67570
2397.000	7.62543	-3.11441	6.96799	-2.73491
2398.000	7.54773	-3.14250	6.96799	-2.68369
2399.000	7.46222	-3.11559	6.82770	-2.75937
2400.000	7.30862	-3.06551	6.56833	-2.64449
2401.000	7.04589	-3.04562	6.46295	-2.72592
2402.000	6.62491	-3.00298	6.17976	-2.74319
2403.000	6.22079	-2.96591	5.79257	-2.74514
2404.000	5.81801	-2.97403	5.52044	-2.70494
2405.000	5.34606	-2.84602	5.07941	-2.76420
2406.000	4.77916	-2.74567	4.56314	-2.69705
2407.000	4.14643	-2.75793	4.03628	-2.79197
2408.000	3.63478	-2.58527	3.59343	-2.67851
2409.000	3.00032	-2.48382	3.00426	-2.60476
2410.000	2.28618	-2.35626	2.51116	-2.47690
2411.000	1.65824	-2.26781	1.88143	-2.30923
2412.000	1.27496	-2.24437	1.28681	-2.26223
2413.000	0.80854	-2.09970	0.84412	-1.95663
2414.000	0.37958	-2.00449	0.26492	-1.86939
2415.000	0.03756	-1.96678	-0.13444	-1.70444
2416.000	-0.41516	-1.81570	-0.48040	-1.56524
2417.000	-0.84610	-1.77183	-0.80854	-1.51147
2418.000	-1.08327	-1.69420	-1.15244	-1.50138
2419.000	-1.39351	-1.66619	-1.45871	-1.37797
2420.000	-1.64639	-1.61830	-1.67997	-1.31820
2421.000	-1.78663	-1.52877	-1.98412	-1.23650
2422.000	-1.93475	-1.54255	-2.27433	-1.16274
2423.000	-2.27828	-1.38726	-2.63349	-1.17435
2424.000	-2.58022	-1.38496	-2.82877	-1.11457
2425.000	-2.70648	-1.24182	-3.16394	-1.09835
2426.000	-3.11269	-1.24335	-3.53631	-1.09793
2427.000	-3.36100	-1.19342	-3.81589	-1.15116
2428.000	-3.60721	-1.15342	-4.13660	-1.10113
2429.000	-3.82770	-1.11940	-4.50223	-1.16602
2430.000	-4.13070	-1.12097	-4.78898	-1.11997
2431.000	-4.37843	-1.04724	-5.04018	-1.04426
2432.000	-4.59260	-1.06676	-5.32450	-1.09132
2433.000	-4.65349	-1.02306	-5.49693	-1.08111
2434.000	-4.82628	-1.06244	-5.61836	-0.97401
2435.000	-4.95777	-1.02260	-5.81214	-0.85100
2436.000	-5.07156	-1.01648	-5.98819	-0.81710
2437.000	-5.12256	-0.92726	-6.03903	-0.80120
2438.000	-5.13629	-0.90545	-6.05858	-0.81897
2439.000	-5.14217	-0.89553	-6.07813	-0.78334
2440.000	-5.12452	-0.88367	-6.07617	-0.76752
2441.000	-5.04606	-0.90161	-6.04880	-0.81503
2442.000	-4.94208	-0.90175	-5.90800	-0.80733
2443.000	-4.84198	-0.89991	-5.81997	-0.79558
2444.000	-4.71044	-0.88422	-5.67514	-0.90662
2445.000	-4.65153	-0.93782	-5.53023	-0.87319
2446.000	-4.57296	-0.93396	-5.41073	-0.92485
2447.000	-4.46686	-0.92815	-5.30882	-1.02798
2448.000	-4.43935	-0.99164	-5.17551	-0.96680
2449.000	-4.35877	-0.99571	-5.00094	-1.09187
2450.000	-4.36270	-0.99570	-4.99113	-1.15331
2451.000	-4.38432	-1.07698	-4.95974	-1.08996
2452.000	-4.42953	-1.04915	-4.85572	-1.12382
2453.000	-4.52384	-1.02523	-4.86750	-1.12776
2454.000	-4.55528	-1.03708	-4.91656	-1.11975
2455.000	-4.68884	-1.05868	-5.00290	-1.07800
2456.000	-4.74971	-1.06255	-5.09314	-0.98475
2457.000	-4.88320	-1.02470	-5.15394	-1.01239
2458.000	-4.91656	-0.98105	-5.28530	-0.96068
2459.000	-5.01467	-0.93930	-5.45775	-0.95645
2460.000	-5.05587	-0.90556	-5.51064	-0.91479
2461.000	-5.08333	-0.88967	-5.61444	-0.84337
2462.000	-5.13041	-0.86782	-5.68884	-0.84327
2463.000	-5.12844	-0.86386	-5.71037	-0.83334
2464.000	-5.17551	-0.91331	-5.89627	-0.76579
2465.000	-5.13237	-0.77867	-5.92756	-0.78356
2466.000	-5.18531	-0.83010	-5.94125	-0.80728
2467.000	-5.20296	-0.87564	-5.97450	-0.84679
2468.000	-5.11275	-0.86190	-5.90800	-0.79150
2469.000	-5.13237	-0.85989	-5.95690	-0.82506
2470.000	-5.11472	-0.86189	-5.94125	-0.83893
2471.000	-5.10687	-0.88568	-5.94908	-0.81716
2472.000	-5.13237	-0.89555	-6.03316	-0.84472
2473.000	-5.16374	-0.87768	-5.97255	-0.81712
2474.000	-5.11275	-0.89756	-5.90605	-0.81722
2475.000	-5.11079	-0.87973	-5.89431	-0.83109
2476.000	-5.10491	-0.85795	-5.81997	-0.81141
2477.000	-5.12060	-0.89358	-5.87084	-0.84299
2478.000	-5.12452	-0.89358	-5.74560	-0.77787
2479.000	-5.14806	-0.83412	-5.81214	-0.73820
2480.000	-5.08922	-0.91542	-5.75930	-0.79369
2481.000	-5.09314	-0.88173	-5.68688	-0.79775
2482.000	-5.07156	-0.86393	-5.75147	-0.82338
2483.000	-5.07941	-0.89562	-5.64185	-0.80177
2484.000	-5.05783	-0.87782	-5.66730	-0.83538
2485.000	-5.06176	-0.83027	-5.70450	-0.84324
2486.000	-5.08137	-0.86392	-5.74952	-0.80360
2487.000	-5.08529	-0.88571	-5.63794	-0.83344
2488.000	-5.07353	-0.86591	-5.70841	-0.88282
2489.000	-5.06960	-0.85799	-5.61640	-0.81368
2490.000	-5.08529	-0.88967	-5.68101	-0.83338
2491.000	-5.09510	-0.85003	-5.69863	-0.83335
2492.000	-5.08726	-0.92731	-5.68688	-0.88681
2493.000	-5.04999	-0.89566	-5.65360	-0.85915
2494.000	-5.07549	-0.91544	-5.66339	-0.83539
2495.000	-5.08333	-0.89363	-5.69471	-0.91451
2496.000	-5.05195	-0.90755	-5.73777	-0.92433
2497.000	-5.07745	-0.93128	-5.71624	-0.85510
2498.000	-5.06764	-0.89960	-5.67514	-0.84526
2499.000	-5.12844	-0.89555	-5.56157	-0.89294
2500.000	-5.06764	-0.87979	-5.71429	-0.88281
2501.000	-5.05979	-0.88772	-5.69275	-0.86305
2502.000	-5.04410	-0.91350	-5.73386	-0.89267
2503.000	-5.07941	-0.84807	-5.74169	-0.92630
2504.000	-5.14413	-0.88761	-5.71429	-0.91052
2505.000	-5.10099	-0.87380	-5.78083	-0.93020
2506.000	-5.06764	-0.87384	-5.66143	-0.89477
2507.000	-5.11864	-0.91340	-5.66535	-0.82153
2508.000	-5.06372	-0.86196	-5.78279	-0.85500
2509.000	-5.10295	-0.87182	-5.71233	-0.85511
2510.000	-5.08922	-0.89759	-5.72799	-0.89466
2511.000	-5.06568	-0.86196	-5.74952	-0.88869
2512.000	-5.09706	-0.90946	-5.69471	-0.84326
2513.000	-5.06176	-0.91348	-5.71233	-0.92239
2514.000	-5.07353	-0.89563	-5.75343	-0.87879
2515.000	-5.09902	-0.90550	-5.72407	-0.90852
2516.000	-5.09706	-0.89362	-5.70646	-0.89865
2517.000	-5.08726	-0.89759	-5.66535	-0.90466
2518.000	-5.10491	-0.88568	-5.75735	-0.95794
2519.000	-5.03822	-0.91747	-5.70254	-0.88877
2520.000	-5.06372	-0.89961	-5.74560	-0.93619
2521.000	-5.05783	-0.90754	-5.75930	-0.85701
2522.000	-5.10295	-0.95304	-5.81214	-0.93806
2523.000	-5.06372	-0.91744	-5.68101	-0.89672
2524.000	-5.09314	-0.97286	-5.68884	-0.89472
2525.000	-5.05391	-0.91547	-5.66730	-0.91851
2526.000	-5.08137	-0.87977	-5.69863	-0.90263
2527.000	-5.02841	-0.86597	-5.72016	-0.87488
2528.000	-5.01860	-0.91750	-5.68884	-0.83931
2529.000	-5.04802	-0.92340	-5.84345	-0.89646
2530.000	-4.99898	-0.89969	-5.77300	-0.86491
2531.000	-5.03822	-0.92540	-5.76713	-0.85304
2532.000	-5.02645	-0.92541	-5.75147	-0.92233
2533.000	-4.99113	-0.90565	-5.79061	-0.85499
2534.000	-5.02448	-0.94919	-5.75735	-0.86691
2535.000	-5.05587	-0.97886	-5.72799	-0.85112
2536.000	-5.05391	-0.97490	-5.77692	-0.83324
2537.000	-5.02841	-0.89173	-5.72212	-0.87884
2538.000	-5.01860	-0.92741	-5.71820	-0.86697
2539.000	-5.01271	-0.92741	-5.75930	-0.94804
2540.000	-5.08922	-0.97683	-5.68688	-0.91254
2541.000	-5.07353	-0.89365	-5.69667	-0.93034
2542.000	-5.03429	-0.98088	-5.78083	-0.85896
2543.000	-5.07745	-0.91940	-5.72799	-0.89862
2544.000	-5.00486	-0.92743	-5.72212	-0.85113
2545.000	-4.99505	-0.90763	-5.69080	-0.90857
2546.000	-5.00683	-0.91157	-5.72407	-0.86103
2547.000	-4.97151	-0.95918	-5.68492	-0.85119
2548.000	-4.98132	-0.92746	-5.74952	-0.85901
2549.000	-4.94011	-0.96517	-5.75147	-0.84713
2550.000	-5.00683	-0.91157	-5.76713	-0.86294
2551.000	-5.00486	-0.94922	-5.72212	-0.85905
2552.000	-4.97936	-0.95916	-5.74952	-0.85307
2553.000	-4.99113	-0.95717	-5.80040	-0.87278
2554.000	-4.95974	-0.96316	-5.71429	-0.85114
2555.000	-4.95777	-0.97108	-5.70254	-0.84720
2556.000	-4.97543	-0.95719	-5.70646	-0.89074
2557.000	-4.96366	-0.96909	-5.71624	-0.89072
2558.000	-4.98328	-0.95520	-5.72016	-0.86697
2559.000	-5.02056	-0.97693	-5.73582	-0.91840
2560.000	-4.97151	-0.96314	-5.67709	-0.85120
2561.000	-4.99505	-0.95518	-5.70646	-0.82345
2562.000	-5.01075	-0.98686	-5.73777	-0.79174
2563.000	-5.03429	-1.00861	-5.74169	-0.81350
2564.000	-4.99505	-0.98094	-5.67905	-0.83338
2565.000	-5.00683	-0.93337	-5.74169	-0.88277
2566.000	-4.96759	-0.92748	-5.72995	-0.78185
2567.000	-5.03037	-0.94918	-5.73386	-0.86497
2568.000	-5.03233	-0.96107	-5.77105	-0.77586
2569.000	-5.03625	-0.95710	-5.70254	-0.88481
2570.000	-4.95189	-0.96317	-5.65556	-0.84133
2571.000	-4.95974	-0.98297	-5.66926	-0.81163
2572.000	-4.96170	-0.96315	-5.72995	-0.81946
2573.000	-4.93226	-0.90771	-5.70058	-0.80366
2574.000	-4.95385	-0.96118	-5.74952	-0.82734
2575.000	-4.99309	-0.99481	-5.70254	-0.85512
2576.000	-4.92638	-0.98500	-5.77692	-0.87084
2577.000	-4.98721	-0.94528	-5.71429	-0.82146
2578.000	-4.94208	-1.00281	-5.64381	-0.87500
2579.000	-4.96759	-0.99881	-5.75343	-0.81942
2580.000	-5.00290	-1.02253	-5.67709	-0.85516
2581.000	-4.96366	-1.01268	-5.76517	-0.97376
2582.000	-4.94011	-1.00083	-5.69275	-0.87295
2583.000	-4.98524	-1.00473	-5.72799	-0.89664
2584.000	-4.95385	-1.04242	-5.77496	-0.88469
2585.000	-5.01664	-0.97298	-5.76126	-0.90451
2586.000	-4.97347	-1.00673	-5.73190	-0.82143
2587.000	-4.96562	-0.96909	-5.73190	-0.84914
2588.000	-5.02056	-1.00269	-5.73386	-0.84716
2589.000	-4.95581	-1.00675	-5.67514	-0.83537
2590.000	-4.97740	-0.96907	-5.73190	-0.83529
2591.000	-4.97347	-1.01267	-5.73190	-0.91247
2592.000	-4.94993	-0.95524	-5.80236	-0.91235
2593.000	-4.93423	-0.95130	-5.77105	-0.87679
2594.000	-4.97543	-1.00474	-5.71429	-0.87687
2595.000	-4.98524	-1.02256	-5.73386	-0.90059
2596.000	-4.97936	-1.01068	-5.82779	-0.91825
2597.000	-5.01271	-1.01063	-5.75147	-0.87879
2598.000	-5.00683	-1.03639	-5.75735	-0.92232
2599.000	-4.97151	-0.99682	-5.75930	-0.87680
2600.000	-4.96170	-0.98693	-5.80823	-0.87673
2601.000	-4.94796	-1.01865	-5.75539	-0.84910
2602.000	-4.93619	-1.03056	-5.75147	-0.90650
2603.000	-4.96955	-1.00475	-5.78083	-0.83917
2604.000	-4.94796	-0.99488	-5.75147	-0.86098
2605.000	-4.93815	-1.00678	-5.76322	-0.88471
2606.000	-4.95974	-0.98693	-5.81214	-0.88464
2607.000	-5.01075	-1.00271	-5.76322	-0.78379
2608.000	-4.94993	-0.94335	-5.78083	-0.87281
2609.000	-4.97936	-1.01068	-5.73973	-0.88277
2610.000	-5.02645	-0.98485	-5.76713	-0.81742
2611.000	-4.98524	-0.96114	-5.74365	-0.87683
2612.000	-5.03037	-0.99475	-5.76909	-0.80950
2613.000	-4.98524	-1.01661	-5.83366	-0.86482
2614.000	-5.00290	-0.96507	-5.79649	-0.88466
2615.000	-4.98328	-0.96510	-5.74365	-0.88079
2616.000	-5.02056	-0.98288	-5.73190	-0.87487
2617.000	-5.00094	-1.01263	-5.76126	-0.92825
2618.000	-5.02448	-0.98882	-5.69471	-0.84524
2619.000	-4.97936	-0.99483	-5.74560	-0.88870
2620.000	-4.98132	-1.02256	-5.71233	-0.90062
2621.000	-5.04214	-1.03039	-5.72212	-0.87488
2622.000	-5.01271	-1.01261	-5.72407	-0.88082
2623.000	-4.99309	-0.99877	-5.75735	-0.89264
2624.000	-5.01664	-0.97100	-5.73973	-0.82340
2625.000	-4.97543	-1.00474	-5.73386	-0.81549
2626.000	-5.02645	-1.00862	-5.74560	-0.86297
2627.000	-5.00683	-1.00271	-5.71624	-0.86697
2628.000	-4.99505	-0.95122	-5.73973	-0.81153
2629.000	-5.00094	-0.98093	-5.69863	-0.80960
2630.000	-5.02841	-0.99277	-5.75539	-0.87879
2631.000	-4.97347	-1.01267	-5.69863	-0.85710
2632.000	-4.94993	-0.97704	-5.74169	-0.90454
2633.000	-4.96366	-0.96513	-5.73386	-0.83330
2634.000	-5.00879	-1.00469	-5.73386	-0.84914
2635.000	-5.03429	-1.01059	-5.65556	-0.87498
2636.000	-4.97543	-1.01861	-5.75930	-0.83722
2637.000	-4.96562	-1.00079	-5.63598	-0.82751
2638.000	-5.00683	-1.04630	-5.71037	-0.83136
2639.000	-4.97740	-0.98889	-5.70841	-0.84917
2640.000	-4.98721	-0.97104	-5.66926	-0.86507
2641.000	-4.95189	-0.99487	-5.70254	-0.88085
2642.000	-5.00879	-1.00271	-5.70058	-0.85908
2643.000	-4.98524	-1.01067	-5.72799	-0.92039
2644.000	-4.99898	-0.97697	-5.74365	-0.80360
2645.000	-4.99898	-0.99282	-5.71037	-0.88084
2646.000	-4.94796	-1.02262	-5.72212	-0.90259
2647.000	-4.98328	-1.01067	-5.75147	-0.83724
2648.000	-4.98721	-1.04039	-5.70841	-0.86105
2649.000	-4.93815	-0.95724	-5.72799	-0.79175
2650.000	-4.98524	-0.98095	-5.70841	-0.86501
2651.000	-4.97740	-1.00474	-5.73582	-0.84913
2652.000	-5.04802	-0.95708	-5.72799	-0.83331
2653.000	-4.96562	-0.98890	-5.76322	-0.83326
2654.000	-4.95581	-0.96911	-5.70450	-0.92636
2655.000	-4.98328	-1.00275	-5.80823	-0.88069
2656.000	-5.01075	-1.01261	-5.72995	-0.82539
2657.000	-4.98524	-1.00274	-5.72995	-0.85706
2658.000	-4.99113	-0.97103	-5.69080	-0.89076
2659.000	-5.00094	-0.99678	-5.72603	-0.88675
2660.000	-4.95974	-1.00476	-5.76909	-0.85106
2661.000	-4.97936	-0.99285	-5.74365	-0.89464
2662.000	-4.97543	-0.98493	-5.74756	-0.90453
2663.000	-4.95385	-0.96515	-5.77300	-0.85699
2664.000	-5.00879	-1.00469	-5.76126	-0.83128
2665.000	-4.99309	-0.98490	-5.77496	-0.83324
2666.000	-4.98328	-0.94727	-5.78670	-0.90644
2667.000	-4.96170	-1.04835	-5.74756	-0.87682
2668.000	-4.97740	-1.02257	-5.74560	-0.84120
2669.000	-4.96562	-0.99881	-5.71624	-0.82343
2670.000	-4.94600	-0.99686	-5.74756	-0.87484
2671.000	-4.99309	-0.98886	-5.72407	-0.87290
2672.000	-4.99898	-0.98489	-5.68884	-0.88879
2673.000	-4.94404	-1.00479	-5.70646	-0.87095
2674.000	-4.95189	-1.02063	-5.72407	-0.87092
2675.000	-4.97740	-0.96511	-5.75147	-0.89463
2676.000	-4.94404	-1.04045	-5.74756	-0.90651
2677.000	-4.96170	-0.98297	-5.75539	-0.85306
2678.000	-4.99309	-1.00273	-5.71429	-0.86896
2679.000	-4.96759	-0.99881	-5.74169	-0.77590
2680.000	-4.94796	-0.96912	-5.72995	-0.88476
2681.000	-4.97151	-0.94531	-5.71233	-0.79177
2682.000	-4.94208	-1.00083	-5.76909	-0.84513
2683.000	-4.91460	-1.02267	-5.70841	-0.83136
2684.000	-4.93226	-0.97905	-5.71429	-0.80167
2685.000	-4.95974	-0.95325	-5.78474	-0.87083
2686.000	-4.97151	-1.00277	-5.74169	-0.84319
2687.000	-4.94404	-1.01073	-5.62423	-0.90670
2688.000	-4.95189	-0.97307	-5.75147	-0.86296
2689.000	-4.91460	-0.97907	-5.71624	-0.96197
2690.000	-4.93423	-1.00282	-5.69275	-0.85118
2691.000	-4.92834	-0.99689	-5.74952	-0.83328
2692.000	-4.91068	-1.01078	-5.70254	-0.80960
2693.000	-4.91068	-0.98106	-5.73190	-0.79372
2694.000	-4.94208	-0.99885	-5.73386	-0.87288
2695.000	-4.91460	-0.99889	-5.73582	-0.86299
2696.000	-4.86946	-1.00688	-5.69471	-0.81357
2697.000	-4.91656	-0.98501	-5.74952	-0.83130
2698.000	-4.92638	-0.97906	-5.67905	-0.88286
2699.000	-4.94208	-0.96120	-5.70254	-0.84522
2700.000	-4.88124	-1.01677	-5.79061	-0.81937
2701.000	-4.90479	-1.02466	-5.67122	-0.90663
2702.000	-4.87339	-0.99102	-5.69471	-0.84919
2703.000	-4.95777	-0.98892	-5.72016	-0.83530
2704.000	-4.88124	-1.00290	-5.66143	-0.81955
2705.000	-4.87731	-0.98904	-5.70450	-0.88480
2706.000	-4.97151	-1.00475	-5.70646	-0.82939
2707.000	-4.91853	-1.02662	-5.70646	-0.85907
2708.000	-4.91656	-1.01870	-5.67905	-0.88088
2709.000	-4.90675	-1.00683	-5.66143	-0.88487
2710.000	-4.91853	-1.03851	-5.71037	-0.87886
2711.000	-4.89105	-1.06233	-5.74952	-0.84318
2712.000	-4.83806	-0.96729	-5.75539	-0.85702
2713.000	-4.89301	-1.01676	-5.70058	-0.83731
2714.000	-4.88320	-1.00290	-5.67318	-0.85121
2715.000	-4.90283	-1.04250	-5.78083	-0.87875
2716.000	-4.88320	-1.03262	-5.72603	-0.83727
2717.000	-4.86946	-1.00886	-5.70646	-0.84324
2718.000	-4.87731	-1.02669	-5.67709	-0.86703
2719.000	-4.84787	-1.01088	-5.72016	-0.84124
2720.000	-4.91068	-1.03654	-5.70058	-0.86700
2721.000	-4.90675	-1.02862	-5.77692	-0.91042
2722.000	-4.91068	-1.00088	-5.67514	-0.85120
2723.000	-4.94600	-1.05828	-5.75930	-0.93419
2724.000	-4.92441	-1.01274	-5.70254	-0.87689
2725.000	-4.91264	-1.01276	-5.66730	-0.86111
2726.000	-4.94208	-1.00281	-5.66339	-0.85716
2727.000	-4.89301	-0.93155	-5.61248	-0.77211
2728.000	-4.81254	-0.91977	-5.50477	-0.70098
2729.000	-4.57296	-0.84871	-5.26178	-0.58835
2730.000	-4.18576	-0.69441	-5.04018	-0.32897
2731.000	-4.00874	-0.48025	-4.70259	-0.04759
2732.000	-3.71156	-0.17867	-4.28014	0.22815
2733.000	-3.28218	0.15492	-3.93004	0.70852
2734.000	-2.88201	0.54043	-3.51465	1.18132
2735.000	-2.42039	0.95598	-3.09101	1.60272
2736.000	-1.94265	1.32397	-2.69662	2.01422
2737.000	-1.58120	1.74155	-2.27631	2.55272
2738.000	-1.12082	2.28620	-1.85773	3.07904
2739.000	-0.65041	2.82452	-1.42908	3.56532
2740.000	-0.25701	3.25516	-1.14848	4.07066
2741.000	0.00989	3.65560	-0.80261	4.36390
2742.000	0.40330	4.09117	-0.51796	4.78123
2743.000	0.66622	4.46093	-0.33213	5.09729
2744.000	0.85796	4.75521	-0.11664	5.31834
2745.000	1.04374	5.05114	0.04745	5.57465
2746.000	1.13663	5.26012	0.21747	5.67903
2747.000	1.18010	5.34287	0.32620	5.70656
2748.000	1.27693	5.42942	0.44284	5.69861
2749.000	1.33424	5.42732	0.57727	5.70637
2750.000	1.31250	5.33668	0.57727	5.67485
2751.000	1.37968	5.24977	0.63459	5.71221
2752.000	1.44686	5.11549	0.73145	5.52690
2753.000	1.48045	5.03253	0.82831	5.31188
2754.000	1.55749	4.86852	0.90342	5.18159
2755.000	1.59503	4.74995	0.94492	5.00589
2756.000	1.59503	4.61563	0.97654	4.92885
2757.000	1.63651	4.49697	0.93504	4.86572
2758.000	1.58910	4.41998	0.92318	4.74130
2759.000	1.57330	4.30139	0.88563	4.74727
2760.000	1.43105	4.24431	0.82831	4.65052
2761.000	1.34807	4.19105	0.79273	4.60906
2762.000	1.23939	4.17540	0.66029	4.53408
2763.000	1.15244	4.10826	0.68006	4.54000
2764.000	1.01212	4.11636	0.60889	4.53017
2765.000	0.90342	4.10660	0.58122	4.58950
2766.000	0.89749	4.10858	0.54366	4.59151
2767.000	0.79668	4.13046	0.46854	4.59947
2768.000	0.77691	4.12058	0.42307	4.62321
2769.000	0.75122	4.09686	0.42307	4.66867
2770.000	0.79866	4.14233	0.55947	4.72785
2771.000	0.81249	4.14232	0.60889	4.78115
2772.000	0.88563	4.16400	0.63657	4.89569
2773.000	0.99631	4.26477	0.76308	4.95677
2774.000	1.12675	4.31799	0.75319	4.94493
2775.000	1.25717	4.37316	0.91132	5.05726
2776.000	1.33621	4.47583	0.93702	5.13813
2777.000	1.47649	4.54079	0.93306	5.22100
2778.000	1.56737	4.60186	1.06746	5.26024
2779.000	1.67207	4.75767	1.03781	5.34904
2780.000	1.68392	4.75962	0.98840	5.41221
2781.000	1.74713	4.83845	1.11094	5.37257
2782.000	1.77083	4.83444	1.16825	5.45132
2783.000	1.84193	4.89939	1.13860	5.49868
2784.000	1.87946	4.94863	1.15837	5.45725
2785.000	1.85378	4.95660	1.16429	5.48089
2786.000	1.86366	4.99999	1.09315	5.46920
2787.000	1.89328	4.96043	1.21963	5.46304
2788.000	1.84983	4.97437	1.13860	5.46517
2789.000	1.87353	4.99996	1.06153	5.40026
2790.000	1.86366	4.97828	1.18801	5.35468
2791.000	1.78861	4.93112	1.08722	5.37064
2792.000	1.78663	4.90152	1.09513	5.26808
2793.000	1.74318	4.85623	1.03386	5.32144
2794.000	1.76293	4.91540	0.97457	5.21897
2795.000	1.75898	4.87000	0.99038	5.27615
2796.000	1.75305	4.86410	1.02991	5.29581
2797.000	1.69972	4.86621	0.94097	5.27228
2798.000	1.70960	4.80497	0.93109	5.26046
2799.000	1.66219	4.82879	0.98050	5.27813
2800.000	1.64046	4.82094	0.89946	5.22697
2801.000	1.65232	4.75772	0.90737	5.23288
2802.000	1.64639	4.78538	0.97852	5.23277
2803.000	1.62269	4.80519	0.96271	5.27225
2804.000	1.61478	4.76571	0.92516	5.19142
2805.000	1.58713	4.75985	0.97062	5.12624
2806.000	1.62071	4.76767	0.96469	5.15585
2807.000	1.64441	4.74786	0.89156	5.18753
2808.000	1.59305	4.72823	1.01805	5.18536
2809.000	1.62664	4.77753	0.94492	5.18350
2810.000	1.68195	4.76950	0.97062	5.20319
2811.000	1.59700	4.75390	1.02398	5.24059
2812.000	1.66022	4.79127	0.98445	5.22290
2813.000	1.64837	4.77945	0.87772	5.24870
2814.000	1.69380	4.82279	0.88760	5.22502
2815.000	1.69972	4.77933	0.88760	5.16780
2816.000	1.68985	4.80107	0.93504	5.18746
2817.000	1.72343	4.80889	0.94295	5.15983
2818.000	1.69775	4.78723	0.90144	5.28023
2819.000	1.68392	4.83466	0.94492	5.19929
2820.000	1.68392	4.79911	0.92318	5.26047
2821.000	1.71158	4.79312	0.92120	5.26836
2822.000	1.70565	4.83855	0.98247	5.24066
2823.000	1.73133	4.85823	0.92911	5.23482
2824.000	1.73725	4.87796	0.94097	5.23677
2825.000	1.71553	4.84248	0.94887	5.21901
2826.000	1.67404	4.82283	1.03781	5.21492
2827.000	1.67800	4.81888	0.95480	5.28212
2828.000	1.69380	4.82673	1.04177	5.27409
2829.000	1.69972	4.85041	0.90934	5.38079
2830.000	1.70762	4.86224	0.95085	5.27621
2831.000	1.74910	4.86213	0.98445	5.25643
2832.000	1.65627	4.85644	0.99631	5.27811
2833.000	1.65627	4.80708	0.92516	5.24271
2834.000	1.71553	4.83853	0.94690	5.25452
2835.000	1.66219	4.82879	1.03386	5.28791
2836.000	1.72343	4.84246	0.93504	5.29004
2837.000	1.66812	4.81692	0.85598	5.22703
2838.000	1.67009	4.88997	0.96271	5.30183
2839.000	1.67997	4.80307	0.87179	5.29605
2840.000	1.67997	4.84454	0.91725	5.22892
2841.000	1.67602	4.80506	0.92713	5.32555
2842.000	1.65627	4.82683	1.00026	5.33727
2843.000	1.64244	4.85253	0.91725	5.25851
2844.000	1.66614	4.82088	0.95876	5.29395
2845.000	1.67207	4.82284	1.00224	5.29782
2846.000	1.67800	4.83270	0.97062	5.31759
2847.000	1.65232	4.83276	1.03781	5.31354
2848.000	1.69775	4.87411	0.95283	5.23478
2849.000	1.67404	4.84653	1.03979	5.22676
2850.000	1.72935	4.86613	0.94690	5.29002
2851.000	1.71158	4.89184	0.92713	5.24863
2852.000	1.66812	4.86234	0.99829	5.27416
2853.000	1.72145	4.86813	1.04769	5.31944
2854.000	1.69775	4.83857	1.04572	5.27211
2855.000	1.65232	4.85843	1.02793	5.24453
2856.000	1.67602	4.81493	0.99829	5.29980
2857.000	1.68590	4.86427	0.98840	5.31362
2858.000	1.66219	4.86038	1.07734	5.23261
2859.000	1.70762	4.87211	0.96666	5.32746
2860.000	1.70565	4.84250	0.96469	5.25844
2861.000	1.68392	4.84058	0.95876	5.30972
2862.000	1.68195	4.83466	1.00619	5.26823
2863.000	1.68787	4.84254	0.94887	5.20717
2864.000	1.72540	4.82271	0.99236	5.26628
2865.000	1.64837	4.84856	0.96469	5.27027
2866.000	1.69182	4.81094	0.94887	5.23479
2867.000	1.64441	4.82685	1.00224	5.21498
2868.000	1.69775	4.83660	0.92911	5.25849
2869.000	1.74515	4.79699	1.00421	5.24062
2870.000	1.67997	4.80702	0.96271	5.28211
2871.000	1.68787	4.85242	1.00026	5.20709
2872.000	1.66219	4.83866	1.01212	5.28597
2873.000	1.69577	4.83660	0.94690	5.38073
2874.000	1.61676	4.82890	0.98247	5.35701
2875.000	1.69380	4.80896	1.02398	5.22678
2876.000	1.66022	4.82287	1.00817	5.34909
2877.000	1.70367	4.84843	0.95876	5.23083
2878.000	1.67009	4.86036	1.09513	5.36471
2879.000	1.69775	4.86621	1.04967	5.22477
2880.000	1.67997	4.88008	0.99829	5.29783
2881.000	1.67207	4.85838	1.00421	5.22879
2882.000	1.70565	4.85829	0.95480	5.28804
2883.000	1.68985	4.84057	0.94690	5.26438
2884.000	1.72343	4.87602	0.97457	5.26039
2885.000	1.66614	4.85839	0.99433	5.31164
2886.000	1.73725	4.83847	0.98247	5.26827
2887.000	1.67800	4.83862	1.06351	5.29378
2888.000	1.71750	4.85234	0.97457	5.25053
2889.000	1.74515	4.87794	0.97259	5.29195
2890.000	1.67800	4.85047	1.04967	5.24646
2891.000	1.72935	4.86613	1.02398	5.25242
2892.000	1.71948	4.84641	0.99829	5.22485
2893.000	1.69775	4.81488	0.99631	5.30178
2894.000	1.69182	4.80502	0.95678	5.31170
2895.000	1.70960	4.82867	1.03386	5.23466
2896.000	1.66614	4.84655	1.02991	5.37271
2897.000	1.70762	4.89580	1.06746	5.27405
2898.000	1.67404	4.84653	1.03188	5.28002
2899.000	1.74910	4.87003	1.01607	5.24060
2900.000	1.70762	4.85434	1.02991	5.23466
2901.000	1.72540	4.85430	1.00619	5.31359
2902.000	1.69380	4.84450	0.98840	5.24459
2903.000	1.71158	4.83064	1.01607	5.27611
2904.000	1.69182	4.85043	1.01212	5.25639
2905.000	1.69775	4.87608	1.05955	5.24842
2906.000	1.70565	4.83263	1.04374	5.25436
2907.000	1.65232	4.85250	1.03781	5.22873
2908.000	1.70565	4.84447	1.04572	5.21688
2909.000	1.72540	4.86812	1.00817	5.30373
2910.000	1.68195	4.90771	1.01410	5.27611
2911.000	1.66219	4.85445	1.06351	5.25433
2912.000	1.69182	4.80304	0.99631	5.32544
2913.000	1.67800	4.87021	1.01014	5.28598
2914.000	1.68590	4.84057	0.98643	5.23276
2915.000	1.67207	4.86825	1.03584	5.31946
2916.000	1.65232	4.81104	1.05758	5.26618
2917.000	1.69380	4.82871	0.96271	5.26436
2918.000	1.73923	4.87993	1.03584	5.28002
2919.000	1.64837	4.82882	1.05362	5.29379
2920.000	1.70960	4.88000	1.01014	5.27809
2921.000	1.71750	4.88393	1.04177	5.25437
2922.000	1.70367	4.85830	1.06548	5.23855
2923.000	1.67997	4.86626	1.04769	5.20504
2924.000	1.66614	4.87814	1.05955	5.23067
2925.000	1.66812	4.88011	1.04177	5.22872
2926.000	1.68787	4.86624	1.06351	5.24447
2927.000	1.71948	4.88195	1.06943	5.21487
2928.000	1.69380	4.85832	1.03386	5.22677
2929.000	1.72145	4.87997	1.13465	5.26012
2930.000	1.66417	4.86827	1.01607	5.18339
2931.000	1.68590	4.83860	1.06746	5.23263
2932.000	1.73923	4.88190	1.07339	5.16357
2933.000	1.70565	4.89580	1.12279	5.22464
2934.000	1.66417	4.84853	1.05165	5.25830
2935.000	1.67009	4.86233	1.09117	5.31148
2936.000	1.66219	4.86235	1.14453	5.22460
2937.000	1.69380	4.85832	1.11687	5.25029
2938.000	1.69182	4.86623	1.12279	5.26803
2939.000	1.68392	4.83466	1.11687	5.16941
2940.000	1.72738	4.88193	1.06746	5.24052
2941.000	1.71750	4.84247	1.10501	5.22862
2942.000	1.73133	4.83454	1.05560	5.26223
2943.000	1.70960	4.83262	1.06943	5.26024
2944.000	1.73330	4.84440	1.07141	5.23459
2945.000	1.72935	4.85034	1.03386	5.26227
2946.000	1.72145	4.81482	1.05362	5.22476
2947.000	1.70762	4.84644	0.99236	5.21105
2948.000	1.68392	4.82281	1.04177	5.23859
2949.000	1.71948	4.83654	1.03188	5.29777
2950.000	1.67997	4.81097	1.09710	5.31147
2951.000	1.69380	4.83661	1.02595	5.24453
2952.000	1.73133	4.84836	1.07734	5.30164
2953.000	1.70960	4.81090	1.00619	5.26429
2954.000	1.74910	4.91741	1.00817	5.28401
2955.000	1.71750	4.89972	1.07141	5.29771
2956.000	1.72343	4.89379	1.04177	5.26226
2957.000	1.77083	4.83839	1.04177	5.32142
2958.000	1.79453	4.89952	1.08722	5.21879
2959.000	1.76886	4.87393	1.10303	5.27399
2960.000	1.76293	4.87592	1.16232	5.21076
2961.000	1.73133	4.90758	1.13268	5.21279
2962.000	1.76293	4.90158	1.13465	5.17925
2963.000	1.70565	4.86224	1.06746	5.20304
2964.000	1.78663	4.91731	1.11884	5.16941
2965.000	1.72145	4.85036	1.09117	5.19313
2966.000	1.76293	4.89566	1.16627	5.21470
2967.000	1.70565	4.88199	1.16232	5.17525
2968.000	1.73133	4.83849	1.16232	5.19301
2969.000	1.72343	4.87602	1.08524	5.20498
2970.000	1.77083	4.88971	1.18998	5.18507
2971.000	1.76491	4.88578	1.17418	5.19299
2972.000	1.76293	4.86802	1.09117	5.20892
2973.000	1.73725	4.84637	1.12477	5.23647
2974.000	1.73330	4.87402	1.08327	5.16158
2975.000	1.73528	4.92929	1.09117	5.20497
2976.000	1.73330	4.89573	1.00224	5.20117
2977.000	1.71355	4.81089	1.12082	5.19111
2978.000	1.71750	4.84839	1.07932	5.22669
2979.000	1.74713	4.90952	1.11687	5.13390
2980.000	1.76886	4.87787	1.06153	5.17346
2981.000	1.75700	4.80880	1.11884	5.19506
2982.000	1.77873	4.90154	1.06746	5.24249
2983.000	1.78861	4.92322	1.10896	5.14575
2984.000	1.78861	4.85018	1.12675	5.16151
2985.000	1.79651	4.86201	1.12279	5.19702
2986.000	1.76095	4.82064	1.11094	5.10629
2987.000	1.73528	4.85230	1.16429	5.14171
2988.000	1.73133	4.84441	1.09117	5.12013
2989.000	1.78663	4.82255	1.09513	5.10434
2990.000	1.75503	4.83843	1.18603	5.17324
2991.000	1.78861	4.83439	1.13268	5.17728
2992.000	1.78071	4.84033	1.09908	5.13985
2993.000	1.74515	4.86017	1.13268	5.16544
2994.000	1.73133	4.81084	1.12477	5.15954
2995.000	1.69577	4.79711	1.13070	5.19701
2996.000	1.74910	4.82067	1.12872	5.17334
2997.000	1.71355	4.86025	1.22358	5.11200
2998.000	1.77083	4.86602	1.08129	5.11423
2999.000	1.75898	4.84829	1.14651	5.15950
3000.000	1.69182	4.81884	1.12872	5.16348
3001.000	1.72935	4.83652	1.13268	5.13190
3002.000	1.74910	4.84436	1.13465	5.12400
3003.000	1.78268	4.86402	1.16627	5.19497
3004.000	1.73330	4.87204	1.12675	5.20096
3005.000	1.70170	4.85436	1.12279	5.15362
3006.000	1.75898	4.85816	1.14848	5.13779
3007.000	1.73725	4.84439	1.16825	5.13776
3008.000	1.71948	4.84444	1.19789	5.24028
3009.000	1.73133	4.88587	1.18406	5.17127
3010.000	1.72935	4.90167	1.08722	5.09449
3011.000	1.73725	4.84637	1.10106	5.16155
3012.000	1.73725	4.82268	1.10698	5.18521
3013.000	1.75108	4.86805	1.20975	5.14952
3014.000	1.68590	4.92941	1.07141	5.15765
3015.000	1.80638	4.85606	1.16232	5.17723
3016.000	1.74120	4.88189	1.18801	5.15942
3017.000	1.78268	4.88376	1.15244	5.15357
3018.000	1.71158	4.84249	1.08722	5.14579
3019.000	1.77676	4.87193	1.12872	5.03916
3020.000	1.74120	4.86413	1.16825	5.07461
3021.000	1.73923	4.89769	1.06943	5.12609
3022.000	1.71948	4.87998	1.17615	5.11012
3023.000	1.73725	4.88783	1.14651	5.09044
3024.000	1.75898	4.90751	1.14848	5.11806
3025.000	1.71948	4.83654	1.13070	5.10822
3026.000	1.75700	4.87593	1.11489	5.09444
3027.000	1.74713	4.88188	1.19987	5.06666
3028.000	1.75108	4.87002	1.13663	5.10624
3029.000	1.76688	4.86604	1.15837	5.06673
3030.000	1.76095	4.85026	1.14256	5.08650
3031.000	1.78268	4.86402	1.17615	5.09828
3032.000	1.78268	4.88573	1.13663	5.18122
3033.000	1.79058	4.84031	1.17615	5.11209
3034.000	1.80441	4.87581	1.18801	5.14167
3035.000	1.78071	4.80085	1.15639	5.18907
3036.000	1.79453	4.84227	1.16627	5.14960
3037.000	1.76886	4.84036	1.13860	5.16148
3038.000	1.73528	4.84835	1.16034	5.14172
3039.000	1.72935	4.84047	1.11884	5.14771
3040.000	1.80638	4.85014	1.17220	5.16340
3041.000	1.76293	4.82656	1.15046	5.19303
3042.000	1.74515	4.83055	1.08327	5.11225
3043.000	1.74318	4.86807	1.13268	5.19503
3044.000	1.78663	4.83242	1.12477	5.18321
3045.000	1.79256	4.86992	1.08129	5.07081
3046.000	1.75503	4.81276	1.13268	5.08849
3047.000	1.78071	4.82256	1.21963	5.17515
3048.000	1.78268	4.85217	1.22160	5.12187
3049.000	1.74515	4.84043	1.15046	5.10030
3050.000	1.76688	4.84037	1.12279	5.20886
3051.000	1.73528	4.84243	1.09710	5.16550
3052.000	1.77478	4.86009	1.18208	5.10616
3053.000	1.76886	4.78113	1.18801	5.17718
3054.000	1.77083	4.79297	1.24729	5.11985
3055.000	1.73725	4.81478	1.15837	5.11607
3056.000	1.76886	4.85221	1.16825	5.15551
3057.000	1.73528	4.80491	1.18208	5.07064
3058.000	1.76095	4.77523	1.14848	5.11609
3059.000	1.75108	4.80487	1.16825	5.14170
3060.000	1.77281	4.80876	1.17022	5.20286
3061.000	1.74515	4.82266	1.21765	5.12188
3062.000	1.79058	4.84426	1.15441	5.10424
3063.000	1.75108	4.81079	1.13860	5.16938
3064.000	1.81823	4.80667	1.19789	5.16335
3065.000	1.80441	4.83237	1.10501	5.14971
3066.000	1.76886	4.85418	1.22358	5.17119
3067.000	1.82021	4.87774	1.16825	5.13973
3068.000	1.74515	4.79501	1.26903	5.09810
3069.000	1.75898	4.85618	1.17418	5.09236
3070.000	1.83996	4.84412	1.21765	5.15937
3071.000	1.80046	4.78895	1.19196	5.11009
3072.000	1.78861	4.81662	1.26705	5.10797
3073.000	1.82416	4.89155	1.12675	5.16940
3074.000	1.77281	4.81271	1.15441	5.21078
3075.000	1.77281	4.80087	1.18208	5.10616
3076.000	1.74120	4.79700	1.14848	5.19698
3077.000	1.82218	4.85997	1.22358	5.10214
3078.000	1.78268	4.81071	1.11489	5.12009
3079.000	1.75700	4.85224	1.21765	5.11399
3080.000	1.77478	4.82653	1.16825	5.16735
3081.000	1.76491	4.83248	1.14453	5.11017
3082.000	1.78663	4.85216	1.16429	5.10816
3083.000	1.81428	4.83827	1.14848	5.10030
3084.000	1.77873	4.78308	1.20975	5.05085
3085.000	1.79256	4.84623	1.14651	5.09833
3086.000	1.77281	4.84628	1.23741	5.11789
3087.000	1.76095	4.86210	1.22753	5.12581
3088.000	1.81231	4.84420	1.21567	5.19488
3089.000	1.80836	4.86198	1.16429	5.21273
3090.000	1.80046	4.85015	1.15837	5.03910
3091.000	1.85181	4.87963	1.18603	5.09431
3092.000	1.78861	4.83044	1.23939	5.19483
3093.000	1.81428	4.85604	1.14651	5.18514
3094.000	1.79256	4.83241	1.18801	5.16731
3095.000	1.77083	4.83246	1.13268	5.18122
3096.000	1.80243	4.88173	1.20184	5.15150
3097.000	1.81033	4.86000	1.18208	5.09432
3098.000	1.78268	4.85020	1.22555	5.10805
3099.000	1.79848	4.83042	1.23741	5.09224
3100.000	1.80243	4.81856	1.13860	5.12005
3101.000	1.81626	4.88367	1.19394	5.09627
3102.000	1.75108	4.83054	1.11291	5.08852
3103.000	1.81231	4.84815	1.16429	5.12790
3104.000	1.82416	4.89352	1.23544	5.00936
3105.000	1.81033	4.84618	1.17022	5.05882
3106.000	1.81428	4.83630	1.19394	5.07851
3107.000	1.81626	4.83629	1.22160	5.09227
3108.000	1.82021	4.85997	1.19394	5.06667
3109.000	1.79058	4.80674	1.28088	5.14149
3110.000	1.85576	4.88949	1.23741	5.07448
3111.000	1.80836	4.81854	1.23741	5.04488
3112.000	1.78268	4.81861	1.18603	5.05484
3113.000	1.77281	4.85220	1.18603	5.06076
3114.000	1.86761	4.86182	1.23741	5.09619
3115.000	1.79453	4.79489	1.19789	5.12389
3116.000	1.85773	4.82631	1.23148	5.01923
3117.000	1.80441	4.86199	1.21172	5.19883
3118.000	1.82811	4.88956	1.22555	5.04688
3119.000	1.84983	4.87568	1.23939	5.09027
3120.000	1.83996	4.83228	1.20579	5.07257
3121.000	1.88735	4.85189	1.17813	5.03117
3122.000	1.81231	4.84617	1.22951	5.11988
3123.000	1.80243	4.84225	1.16825	5.11605
3124.000	1.82021	4.83036	1.16232	5.02923
3125.000	1.82021	4.84023	1.23939	5.11000
3126.000	1.83206	4.84217	1.26705	5.05666
3127.000	1.82218	4.86391	1.22951	5.01726
3128.000	1.85181	4.88752	1.19789	5.05087
3129.000	1.77281	4.81271	1.24729	5.10012
3130.000	1.80046	4.83436	1.24532	5.04092
3131.000	1.79058	4.84623	1.23148	5.14158
3132.000	1.84193	4.84412	1.17220	5.11604
3133.000	1.80638	4.81855	1.25124	5.05275
3134.000	1.81428	4.88565	1.25322	5.13168
3135.000	1.83996	4.86584	1.30064	5.12764
3136.000	1.85181	4.89542	1.27891	5.14149
3137.000	1.82218	4.85207	1.29669	5.06450
3138.000	1.83008	4.90337	1.20975	5.03506
3139.000	1.85181	4.87173	1.29076	5.03096
3140.000	1.82021	4.86984	1.16825	5.10026
3141.000	1.87748	4.87363	1.27891	5.07046
3142.000	1.87353	4.90523	1.23939	5.01330
3143.000	1.82416	4.85799	1.21963	5.12187
3144.000	1.85181	4.82238	1.20579	5.02520
3145.000	1.82218	4.87576	1.24136	5.05869
3146.000	1.82021	4.85207	1.26903	5.08824
3147.000	1.84983	4.89345	1.19394	5.04299
3148.000	1.81033	4.83038	1.20579	5.07849
3149.000	1.84588	4.85595	1.21567	5.06860
3150.000	1.84786	4.82239	1.21172	5.08045
3151.000	1.84983	4.86187	1.26903	5.11981
3152.000	1.84588	4.89149	1.15639	5.16343
3153.000	1.82613	4.82837	1.21963	5.12779
3154.000	1.80441	4.80868	1.23148	5.08239
3155.000	1.87353	4.85983	1.32633	5.09601
3156.000	1.84588	4.89149	1.26310	5.07049
3157.000	1.75503	4.83250	1.16232	5.08844
3158.000	1.86958	4.87760	1.23741	5.14749
3159.000	1.84391	4.84806	1.20975	5.13965
3160.000	1.83996	4.86387	1.21172	5.08637
3161.000	1.82416	4.86194	1.21765	5.09425
3162.000	1.86366	4.86972	1.24729	5.02512
3163.000	1.86563	4.84405	1.23148	5.06463
3164.000	1.83206	4.83822	1.24532	5.02315
3165.000	1.86958	4.85786	1.23741	5.02514
3166.000	1.86366	4.81642	1.23346	5.03897
3167.000	1.87946	4.89337	1.24334	5.04684
3168.000	1.90118	4.85185	1.24334	5.03697
3169.000	1.89130	4.84596	1.25124	4.95603
3170.000	1.87946	4.86573	1.18603	4.98576
3171.000	1.86761	4.84010	1.30460	5.06054
3172.000	1.89130	4.84596	1.20777	4.98572
3173.000	1.84193	4.88952	1.26310	4.99944
3174.000	1.87748	4.87363	1.20975	4.96598
3175.000	1.90710	4.83604	1.25520	4.99748
3176.000	1.91303	4.87551	1.22753	5.06858
3177.000	1.86958	4.85194	1.25717	5.05866
3178.000	1.82811	4.84416	1.26508	4.99548
3179.000	1.90315	4.89133	1.22555	4.96990
3180.000	1.89328	4.85780	1.19196	4.99167
3181.000	1.88735	4.88545	1.17813	4.99170
3182.000	1.93672	4.85965	1.30460	5.00725
3183.000	1.89130	4.86373	1.26310	4.96983
3184.000	1.94265	4.90701	1.13860	5.05887
3185.000	1.86958	4.86181	1.13465	5.05493
3186.000	1.87156	4.86773	1.22160	5.03899
3187.000	1.90315	4.91107	1.19394	4.99759
3188.000	1.91895	4.89326	1.22358	5.01333
3189.000	1.86366	4.85788	1.18406	5.03116
3190.000	1.89525	4.87161	1.21765	4.96596
3191.000	1.84193	4.87768	1.21567	5.02321
3192.000	1.95647	4.88920	1.24136	5.11591
3193.000	1.91698	4.89326	1.26903	5.03495
3194.000	1.89920	4.89331	1.26903	4.99548
3195.000	1.86958	4.82035	1.22358	4.99951
3196.000	1.90315	4.84593	1.21765	4.99755
3197.000	1.89525	4.85977	1.20382	5.00349
3198.000	1.89525	4.85582	1.23544	5.05475
3199.000	1.88735	4.87361	1.18801	5.05681
3200.000	1.90908	4.90513	1.16627	5.00948
3201.000	1.90315	4.88935	1.19987	5.03706
3202.000	1.87946	4.88350	1.31448	5.02302
3203.000	1.91698	4.85378	1.28879	5.03491
3204.000	1.90908	4.84393	1.26903	5.03298
3205.000	1.90118	4.88344	1.20184	5.02916
3206.000	1.89920	4.82817	1.18801	4.99958
3207.000	1.87353	4.86180	1.20579	5.05086
3208.000	1.92685	4.86560	1.19196	5.00746
3209.000	1.88143	4.89139	1.22753	4.97779
3210.000	1.87748	4.84600	1.19789	5.01930
3211.000	1.89920	4.85778	1.23346	5.02515
3212.000	1.88538	4.84992	1.24729	5.01328
3213.000	1.90118	4.84396	1.25520	5.08234
3214.000	1.88341	4.84795	1.29472	4.98951
3215.000	1.90710	4.82222	1.22358	4.95016
3216.000	1.90315	4.82026	1.19789	4.97390
3217.000	1.91105	4.82814	1.25520	5.01129
3218.000	1.88538	4.82228	1.20777	4.97388
3219.000	1.89723	4.80646	1.24136	5.09816
3220.000	1.90513	4.83407	1.19789	4.96008
3221.000	1.91500	4.84787	1.27693	5.10993
3222.000	1.91698	4.80640	1.17615	5.01341
3223.000	1.90710	4.80445	1.25124	4.96393
3224.000	1.89328	4.83806	1.23741	4.97777
3225.000	1.89723	4.81830	1.21765	5.05676
3226.000	1.88538	4.85387	1.22951	5.04095
3227.000	1.87748	4.82033	1.28088	5.04282
3228.000	1.92883	4.86757	1.26310	5.05865
3229.000	1.91500	4.83207	1.28879	5.03097
3230.000	1.90315	4.82421	1.25915	5.00142
3231.000	1.88538	4.85190	1.35202	4.97952
3232.000	1.93080	4.84782	1.25124	4.94024
3233.000	1.88341	4.86375	1.23148	5.05871
3234.000	1.93475	4.87545	1.23346	4.94027
3235.000	1.87946	4.85389	1.27693	4.99546
3236.000	1.94265	4.87345	1.20975	4.99756
3237.000	1.94067	4.88530	1.22555	4.95213
3238.000	1.93870	4.85964	1.30657	4.99146
3239.000	1.93278	4.84189	1.29274	4.96187
3240.000	1.94462	4.87542	1.25322	4.97182
3241.000	1.93278	4.86756	1.29867	4.96976
3242.000	1.89920	4.87357	1.19987	4.92651
3243.000	1.91500	4.85774	1.27100	5.00139
3244.000	1.92093	4.87351	1.25717	5.00734
3245.000	1.86761	4.84800	1.26508	5.07443
3246.000	1.93672	4.84583	1.28088	4.98953
3247.000	1.87353	4.84008	1.26112	4.95404
3248.000	1.86563	4.87564	1.28484	5.03492
3249.000	1.90710	4.86171	1.29472	4.97569
3250.000	1.91500	4.84787	1.24729	4.94222
3251.000	1.89723	4.83212	1.28286	4.97966
3252.000	1.88143	4.81835	1.22753	4.93238
3253.000	1.88143	4.85586	1.29076	4.93819
3254.000	1.86366	4.85393	1.27100	5.03297
3255.000	1.89130	4.88149	1.29274	4.96582
3256.000	1.86563	4.82629	1.23544	5.01923
3257.000	1.89328	4.84793	1.26112	4.89283
3258.000	1.91303	4.84787	1.25322	4.95208
3259.000	1.85576	4.83026	1.24532	4.99552
3260.000	1.87748	4.83020	1.25717	4.90864
3261.000	1.91105	4.83406	1.24927	4.94222
3262.000	1.90908	4.84196	1.31250	4.92038
3263.000	1.85378	4.85988	1.31645	4.96577
3264.000	1.91500	4.88142	1.25322	4.88693
3265.000	1.93672	4.86754	1.25717	5.00142
3266.000	1.90513	4.87553	1.32436	4.98352
3267.000	1.88933	4.84596	1.33819	4.96771
3268.000	1.93870	4.82213	1.32436	4.94997
3269.000	1.92290	4.84982	1.30657	4.93421
3270.000	1.91500	4.84392	1.29867	4.98358
3271.000	1.90908	4.85381	1.29867	4.95594
3272.000	1.88341	4.86177	1.26508	4.95403
3273.000	1.90513	4.85579	1.21765	4.91266
3274.000	1.88538	4.78477	1.25520	4.94418
3275.000	1.86958	4.85786	1.31448	5.04473
3276.000	1.88341	4.81834	1.32040	4.94997
3277.000	1.87551	4.84008	1.26508	4.98167
3278.000	1.91698	4.83404	1.22358	4.97582
3279.000	1.89920	4.85975	1.24532	4.96394
3280.000	1.84391	4.82042	1.26705	4.89085
3281.000	1.86366	4.86578	1.17418	5.00552
3282.000	1.89130	4.82622	1.17220	4.92261
3283.000	1.85773	4.83421	1.29669	5.01319
3284.000	1.87551	4.80652	1.24532	4.98170
3285.000	1.86366	4.82234	1.23544	5.00541
3286.000	1.86563	4.82826	1.22160	5.01530
3287.000	1.85773	4.79669	1.21567	4.96992
3288.000	1.85773	4.80459	1.23939	4.96987
3289.000	1.84786	4.76513	1.22358	5.01530
3290.000	1.83798	4.84018	1.21963	4.97978
3291.000	1.87748	4.77887	1.29867	5.04081
3292.000	1.84786	4.81449	1.29274	4.96385
3293.000	1.82811	4.80270	1.30460	4.91842
3294.000	1.83403	4.80268	1.28681	4.93227
3295.000	1.88341	4.76898	1.32436	4.96576
3296.000	1.87156	4.79665	1.25717	4.90864
3297.000	1.84588	4.79870	1.23544	4.97185
3298.000	1.83206	4.81256	1.23939	4.95605
3299.000	1.83996	4.82636	1.15837	4.94830
3300.000	1.88341	4.81044	1.19591	5.01535
3301.000	1.86761	4.82826	1.20184	4.96007
3302.000	1.84983	4.79079	1.24136	4.93631
3303.000	1.87946	4.82625	1.28286	4.94413
3304.000	1.86761	4.82826	1.28681	4.99149
3305.000	1.88735	4.84202	1.22555	4.94423
3306.000	1.87353	4.82824	1.23148	5.04884
3307.000	1.85576	4.84408	1.23346	4.97778
3308.000	1.84588	4.84806	1.23346	5.01726
3309.000	1.86168	4.82037	1.24532	4.99355
3310.000	1.86366	4.79075	1.30657	4.90657
3311.000	1.83798	4.77502	1.26310	4.95601
3312.000	1.87156	4.82627	1.22555	4.97779
3313.000	1.85576	4.83224	1.25915	4.96589
3314.000	1.83206	4.84020	1.22555	4.94621
3315.000	1.86761	4.79469	1.25322	5.02511
3316.000	1.86366	4.81839	1.16627	4.94631
3317.000	1.86168	4.76904	1.28484	4.93425
3318.000	1.89723	4.81633	1.25124	4.96195
3319.000	1.83798	4.80662	1.30064	4.91053
3320.000	1.87156	4.78678	1.23544	4.96988
3321.000	1.82021	4.77705	1.27693	4.95203
3322.000	1.85378	4.78091	1.23741	4.91065
3323.000	1.84588	4.76711	1.29867	4.93817
3324.000	1.84588	4.83424	1.29669	4.99542
3325.000	1.84193	4.81056	1.30262	4.96975
3326.000	1.85576	4.80657	1.28681	4.94214
3327.000	1.82416	4.81455	1.24334	4.90669
3328.000	1.87353	4.78875	1.28681	4.95991
3329.000	1.89130	4.79857	1.23544	5.00738
3330.000	1.85181	4.77696	1.27496	4.93230
3331.000	1.86958	4.80653	1.19987	4.95218
3332.000	1.84983	4.75722	1.26112	4.94812
3333.000	1.88735	4.80648	1.22160	4.89686
3334.000	1.85576	4.78682	1.30855	4.98948
3335.000	1.83601	4.77503	1.20777	4.93439
3336.000	1.84786	4.79277	1.23346	4.87906
3337.000	1.85576	4.77498	1.18998	4.97588
3338.000	1.82613	4.77506	1.23148	4.91066
3339.000	1.84391	4.78488	1.28088	4.96979
3340.000	1.84193	4.78489	1.22951	4.88894
3341.000	1.86168	4.79273	1.25322	4.96590
3342.000	1.91303	4.77680	1.28879	4.94411
3343.000	2.02361	4.82584	1.33819	4.98350
3344.000	2.14010	4.83338	1.51008	4.98510
3345.000	2.34342	4.89191	1.65627	5.03014
3346.000	2.53879	4.97012	1.87748	5.14594
3347.000	2.82088	5.01631	2.14997	5.16874
3348.000	3.09101	5.08211	2.37105	5.21922
3349.000	3.40828	5.19478	2.65716	5.33434
3350.000	3.77259	5.31477	2.86427	5.40629
3351.000	4.10316	5.44052	3.28415	5.59309
3352.000	4.40201	5.53080	3.55207	5.69380
3353.000	4.79291	5.70646	3.85723	5.85100
3354.000	5.08137	5.86288	4.12676	6.01988
3355.000	5.37546	5.96792	4.47079	6.12113
3356.000	5.64577	6.17469	4.67902	6.25459
3357.000	5.86105	6.30341	4.99702	6.39459
3358.000	5.96863	6.45853	4.97936	6.42412
3359.000	6.08595	6.54502	5.08529	6.52091
3360.000	6.08399	6.68364	5.19120	6.62737
3361.000	6.10549	6.75946	5.23825	6.73242
3362.000	5.99797	6.85248	5.17747	6.74088
3363.000	5.93734	6.92149	5.18728	6.79352
3364.000	5.79061	7.04614	5.06372	6.90227
3365.000	5.65752	7.03997	5.03233	6.91041
3366.000	5.57919	7.13645	4.90283	6.95278
3367.000	5.48910	7.19211	4.84395	6.99439
3368.000	5.44208	7.19462	4.81646	7.09035
3369.000	5.41073	7.20084	4.81450	7.11380
3370.000	5.36762	7.16820	4.66724	7.12701
3371.000	5.35390	7.17031	4.68491	7.10341
3372.000	5.33234	7.17056	4.58082	7.17278
3373.000	5.33234	7.17056	4.62796	7.29135
3374.000	5.28138	7.14774	4.53760	7.19468
3375.000	5.29510	7.09492	4.53563	7.16932
3376.000	5.20688	7.05104	4.60439	7.14716
3377.000	5.20884	7.07443	4.43739	7.20151
3378.000	5.15590	7.01062	4.54742	7.20434
3379.000	5.12648	6.95042	4.40201	7.14718
3380.000	5.07941	6.97045	4.43739	7.15856
3381.000	5.09510	6.89998	4.46490	7.09580
3382.000	5.10295	6.93700	4.45704	7.07049
3383.000	5.11275	6.86464	4.49241	7.03108
3384.000	5.11864	6.83332	4.63974	7.07066
3385.000	5.14413	6.77054	4.59064	7.01646
3386.000	5.19708	6.75044	4.64760	6.98074
3387.000	5.25786	6.73611	4.67313	6.93750
3388.000	5.33430	6.71184	4.71830	6.92924
3389.000	5.41661	6.74806	4.71633	6.83546
3390.000	5.48126	6.72390	4.79094	6.79759
3391.000	5.55765	6.72109	4.84983	6.87908
3392.000	5.58507	6.70906	4.98328	6.83669
3393.000	5.63990	6.73382	4.97936	6.83673
3394.000	5.67122	6.77836	4.92834	6.86070
3395.000	5.71037	6.79743	5.01271	6.93405
3396.000	5.70841	6.80135	4.96955	6.87395
3397.000	5.71233	6.83448	4.95777	6.98345
3398.000	5.72995	6.91037	4.98328	7.05737
3399.000	5.71820	6.91051	4.99702	7.02990
3400.000	5.70058	6.95949	4.96955	7.10631
3401.000	5.71820	7.02559	4.96759	7.07511
3402.000	5.64968	7.04006	4.91460	7.10299
3403.000	5.63598	7.03438	4.95385	7.15136
3404.000	5.60465	7.02500	4.87339	7.12685
3405.000	5.61444	7.08534	4.88516	7.23014
3406.000	5.60465	7.06400	4.85769	7.17385
3407.000	5.57528	7.07411	4.84983	7.06853
3408.000	5.60465	7.07375	4.82824	7.16635
3409.000	5.57136	7.10535	4.82824	7.18977
3410.000	5.48714	7.08100	4.89498	7.06221
3411.000	5.54394	7.07448	4.82824	7.09609
3412.000	5.52631	7.04933	4.79094	7.19797
3413.000	5.51260	7.03779	4.80861	7.07872
3414.000	5.52827	7.03956	4.83609	7.13700
3415.000	5.50085	7.03988	4.82628	7.12148
3416.000	5.52436	7.03375	4.79291	7.13940
3417.000	5.51848	7.02602	4.84002	7.15257
3418.000	5.49497	7.01069	4.85180	7.07437
3419.000	5.52240	6.99086	4.85769	7.11140
3420.000	5.54982	6.98859	4.84002	7.08230
3421.000	5.51456	6.98705	4.78702	7.09066
3422.000	5.50673	7.03201	4.85769	7.09969
3423.000	5.51456	7.00461	4.84395	7.07836
3424.000	5.52240	7.01232	4.83217	7.04138
3425.000	5.54003	6.98480	4.82432	7.08246
3426.000	5.52044	6.98893	4.84787	7.06270
3427.000	5.49302	6.95608	4.86554	7.06642
3428.000	5.55569	6.94755	4.76346	7.07918
3429.000	5.52631	6.96545	4.85572	7.05090
3430.000	5.56940	6.95324	4.78505	6.98132
3431.000	5.54394	6.91647	4.86750	7.03516
3432.000	5.57332	6.93174	4.85376	7.01773
3433.000	5.58115	6.92189	4.82628	7.01606
3434.000	5.56549	6.90256	4.79880	6.99681
3435.000	5.53415	6.95170	4.82039	7.05517
3436.000	5.58115	6.92774	4.86946	6.96679
3437.000	5.57136	6.92200	4.87928	7.01942
3438.000	5.57919	6.92972	4.87928	7.04285
3439.000	5.54982	6.91640	4.94208	7.06171
3440.000	5.54982	6.92225	4.76149	6.95226
3441.000	5.56940	6.92398	4.88124	7.06430
3442.000	5.53219	6.92831	4.85965	6.96884
3443.000	5.55765	6.93777	4.86357	7.02348
3444.000	5.57724	6.93754	4.87731	7.02725
3445.000	5.54394	6.94183	4.84591	7.05100
3446.000	5.55373	6.93001	4.78898	7.04182
3447.000	5.55373	6.94172	4.83217	7.05895
3448.000	5.52240	6.89915	4.88713	7.03886
3449.000	5.54982	6.92811	4.85180	7.01579
3450.000	5.55373	6.95343	4.88320	7.05062
3451.000	5.57919	6.93362	4.79291	7.01054
3452.000	5.54982	6.93786	4.80665	7.01626
3453.000	5.55373	6.92026	4.94011	7.09101
3454.000	5.55178	6.91442	4.93030	7.02474
3455.000	5.52240	6.91672	4.85769	7.05479
3456.000	5.53415	6.96731	4.93226	7.06962
3457.000	5.58703	6.97645	4.83217	6.93201
3458.000	5.54394	6.93403	4.81254	7.03572
3459.000	5.58703	6.93157	4.82235	7.00829
3460.000	5.53611	6.90875	4.85965	7.04110
3461.000	5.55178	6.92418	4.81843	7.00051
3462.000	5.54003	6.94773	4.80076	7.01241
3463.000	5.56744	6.94936	4.83806	7.05694
3464.000	5.54786	6.91447	4.86357	7.08596
3465.000	5.57724	6.95705	4.79880	7.03001
3466.000	5.53219	6.97709	4.86750	7.08397
3467.000	5.53611	6.92436	4.89498	7.00559
3468.000	5.54003	6.94773	4.77131	7.11424
3469.000	5.53415	6.95561	4.86946	6.97851
3470.000	5.53611	6.94583	4.75168	7.06368
3471.000	5.49889	6.91504	4.89890	7.02117
3472.000	5.52436	6.96743	4.90283	7.00941
3473.000	5.52044	6.94991	4.81057	7.06113
3474.000	5.52240	6.91867	4.90871	7.03278
3475.000	5.50869	6.94419	4.78113	7.10438
3476.000	5.53611	6.92046	4.84395	7.06274
3477.000	5.50281	6.95402	4.88124	7.10334
3478.000	5.52436	6.96352	4.84787	6.99240
3479.000	5.52240	6.94013	4.80076	6.98898
3480.000	5.47734	6.94456	4.90086	7.00552
3481.000	5.51260	6.94025	4.86946	7.05076
3482.000	5.50085	6.90330	4.89890	7.03679
3483.000	5.50085	6.94624	4.80076	7.04951
3484.000	5.52240	6.91672	4.85572	6.98256
3485.000	5.50673	6.94031	4.85572	7.09190
3486.000	5.50085	6.95209	4.87928	6.92763
3487.000	5.49693	6.96970	4.86357	7.01763
3488.000	5.51064	6.95003	4.82824	7.11756
3489.000	5.47147	6.92511	4.87928	7.00379
3490.000	5.49302	6.89168	4.80665	7.03969
3491.000	5.48910	6.94052	4.90283	6.99183
3492.000	5.52827	6.95567	4.86554	7.04689
3493.000	5.48518	6.93081	4.77327	6.99707
3494.000	5.49693	6.95409	4.80468	7.00847
3495.000	5.52240	6.93428	4.77720	7.08490
3496.000	5.50281	6.95792	4.83413	7.04917
3497.000	5.51652	6.91483	4.80076	7.00851
3498.000	5.49302	6.92876	4.76542	7.05573
3499.000	5.50869	6.95200	4.75757	7.04995
3500.000	5.54982	6.92225	4.74971	7.05003
3501.000	5.55961	6.94750	4.83806	7.12136
3502.000	5.52044	6.96162	4.89301	7.04661
3503.000	5.51064	6.94222	4.76346	7.08504
3504.000	5.51064	6.93637	4.78505	7.11020
3505.000	5.50281	6.93841	4.79487	7.03200
3506.000	5.52240	6.91672	4.80468	7.08462
3507.000	5.51848	6.89920	4.76935	7.04007
3508.000	5.52436	6.88742	4.75364	7.08514
3509.000	5.51652	6.90117	4.73400	7.05410
3510.000	5.50281	6.90718	4.73990	7.05599
3511.000	5.49497	6.90337	4.87142	7.08002
3512.000	5.49889	6.94431	4.77131	7.06739
3513.000	5.51064	6.90124	4.83413	7.01012
3514.000	5.51064	6.91295	4.83609	7.08039
3515.000	5.51260	6.90122	4.82235	7.06101
3516.000	5.49889	6.93260	4.83413	7.05503
3517.000	5.52044	6.90113	4.81843	7.05129
3518.000	5.53219	6.90685	4.79291	7.12183
3519.000	5.54003	6.90871	4.90283	7.11092
3520.000	5.49302	6.93462	4.84591	6.99047
3521.000	5.49106	6.91317	4.87731	7.02920
3522.000	5.54786	6.93789	4.77916	6.95208
3523.000	5.50281	6.93255	4.91656	7.04246
3524.000	5.51064	6.90319	4.80861	7.04748
3525.000	5.55961	6.89092	4.79487	7.02224
3526.000	5.49497	6.89361	4.87142	7.01559
3527.000	5.52827	6.93616	4.81646	7.06888
3528.000	5.53807	6.92824	4.90086	7.05434
3529.000	5.51456	6.95193	4.81646	7.06888
3530.000	5.53611	6.92436	4.86946	7.09956
3531.000	5.53415	6.92048	4.85769	7.00792
3532.000	5.52436	6.90694	4.82039	7.01807
3533.000	5.49889	6.92870	4.88124	7.05649
3534.000	5.49302	6.93267	4.88320	7.09356
3535.000	5.49106	6.91513	4.86161	7.01179
3536.000	5.47343	6.92313	4.89105	7.05444
3537.000	5.50085	6.96575	4.83217	7.06676
3538.000	5.48714	6.92298	4.86750	7.02149
3539.000	5.46363	6.92715	4.86161	7.09184
3540.000	5.50085	6.93453	4.85965	7.04305
3541.000	5.47538	6.92702	4.87928	7.02723
3542.000	5.50673	6.98324	4.84198	6.98465
3543.000	5.52631	6.95570	4.86946	7.04685
3544.000	5.52827	6.94982	4.87535	7.00969
3545.000	5.49889	6.95211	4.85572	7.04309
3546.000	5.47734	6.92504	4.88320	7.09161
3547.000	5.46559	6.90956	4.80665	7.05141
3548.000	5.49302	6.95999	4.77131	7.04005
3549.000	5.49497	6.92874	4.85180	7.05680
3550.000	5.48714	6.98347	4.86750	7.05273
3551.000	5.53023	6.95760	4.86750	7.03516
3552.000	5.47343	6.97192	4.83413	7.01988
3553.000	5.47147	6.93292	4.76542	7.03620
3554.000	5.51064	6.98124	4.76738	7.02642
3555.000	5.46951	6.94465	4.81254	7.04549
3556.000	5.51260	6.91683	4.78505	7.05358
3557.000	5.47147	6.96999	4.76935	7.03812
3558.000	5.52631	6.96740	4.84395	7.01002
3559.000	5.53023	6.93614	4.72222	7.04640
3560.000	5.48518	6.95032	4.81254	7.10406
3561.000	5.45579	6.99163	4.78702	7.09261
3562.000	5.49693	6.96775	4.87731	7.02139
3563.000	5.50869	6.93834	4.79880	7.09053
3564.000	5.48910	6.93662	4.84198	7.08033
3565.000	5.49889	6.94821	4.78898	7.01253
3566.000	5.50673	6.92665	4.87928	6.98427
3567.000	5.50673	6.95007	4.80665	7.06507
3568.000	5.48322	6.92107	4.79683	7.02612
3569.000	5.50869	6.91492	4.76738	7.00103
3570.000	5.50085	6.92282	4.84983	6.92402
3571.000	5.54394	6.83840	4.86946	6.95898
3572.000	5.65947	6.73945	5.03233	6.84986
3573.000	5.78279	6.64039	5.09510	6.74174
3574.000	5.90996	6.47289	5.30294	6.50303
3575.000	6.05662	6.31486	5.36958	6.46518
3576.000	6.19930	6.09426	5.56549	6.32619
3577.000	6.37510	5.83992	5.89235	5.97048
3578.000	6.51955	5.55449	5.94321	5.69577
3579.000	6.64832	5.23381	6.18758	5.43067
3580.000	6.75947	4.91704	6.27940	5.13561
3581.000	6.89006	4.62345	6.44343	4.88876
3582.000	6.99915	4.33781	6.56248	4.69135
3583.000	7.11014	4.12669	6.66977	4.34276
3584.000	7.12182	3.92623	6.79651	4.11372
3585.000	7.15102	3.73339	6.82770	3.96014
3586.000	7.16075	3.62126	6.85693	3.68263
3587.000	7.16853	3.45996	6.89785	3.53084
3588.000	7.16270	3.38920	6.83549	3.48801
3589.000	7.18800	3.36344	6.78091	3.43920
3590.000	7.18410	3.32806	6.81015	3.33269
3591.000	7.16270	3.34789	6.63466	3.44023
3592.000	7.17048	3.33012	6.57809	3.44259
3593.000	7.19967	3.39285	6.63271	3.39101
3594.000	7.17827	3.39105	6.50784	3.42534
3595.000	7.14323	3.41294	6.46685	3.38229
3596.000	7.10430	3.41717	6.40243	3.48909
3597.000	7.11793	3.40330	6.41219	3.48509
3598.000	7.06731	3.39580	6.43952	3.53020
3599.000	7.05757	3.42735	6.44148	3.46913
3600.000	7.04784	3.43923	6.37510	3.64093
3601.000	7.05173	3.44707	6.29893	3.65328
3602.000	7.00110	3.45334	6.34971	3.66671
3603.000	7.02642	3.50037	6.39462	3.67820
3604.000	7.03421	3.57309	6.28721	3.74395
3605.000	7.00694	3.62050	6.32628	3.77714
3606.000	7.00305	3.66576	6.41024	3.91626
3607.000	7.02447	3.76194	6.34190	3.88922
3608.000	7.04005	3.80703	6.30089	3.93086
3609.000	7.06147	3.85402	6.35752	3.87926
3610.000	7.11987	3.87319	6.49223	3.96087
3611.000	7.10819	3.89294	6.46100	3.91193
3612.000	7.13934	3.91429	6.48247	3.96292
3613.000	7.17632	3.90022	6.49418	3.95692
3614.000	7.18021	3.87268	6.47661	3.96690
3615.000	7.20551	3.85478	6.51955	3.84261
3616.000	7.21135	3.78989	6.53711	3.82477
3617.000	7.23470	3.76022	6.53516	3.73820
3618.000	7.24637	3.71099	6.56638	3.69073
3619.000	7.27361	3.66360	6.66977	3.69783
3620.000	7.26388	3.61847	6.58004	3.61977
3621.000	7.26388	3.56343	6.66977	3.60140
3622.000	7.24832	3.54390	6.60345	3.51329
3623.000	7.24442	3.48691	6.57809	3.53316
3624.000	7.25610	3.47699	6.58979	3.57245
3625.000	7.25221	3.43966	6.66197	3.48925
3626.000	7.22497	3.43790	6.59955	3.43653
3627.000	7.24637	3.38070	6.56443	3.43087
3628.000	7.26972	3.41003	6.51565	3.48044
3629.000	7.26777	3.36284	6.56638	3.45842
3630.000	7.22886	3.33560	6.55077	3.38566
3631.000	7.21913	3.37107	6.56053	3.43680
3632.000	7.22302	3.36514	6.56053	3.46634
3633.000	7.19383	3.33389	6.62686	3.34773
3634.000	7.23275	3.34737	6.47076	3.39999
3635.000	7.21135	3.32786	6.52931	3.40747
3636.000	7.19189	3.33390	6.63661	3.51897
3637.000	7.18216	3.33004	6.64246	3.40276
3638.000	7.20162	3.35350	6.53321	3.43502
3639.000	7.18410	3.34183	6.55467	3.38761
3640.000	7.21135	3.36130	6.51369	3.40758
3641.000	7.19773	3.33779	6.55467	3.33639
3642.000	7.21524	3.30619	6.59760	3.43458
3643.000	7.18410	3.32019	6.52931	3.37005
3644.000	7.18994	3.33392	6.51369	3.36622
3645.000	7.19189	3.33784	6.52540	3.42523
3646.000	7.18216	3.32807	6.60930	3.38133
3647.000	7.20162	3.34760	6.63271	3.38313
3648.000	7.17632	3.38516	6.51369	3.42924
3649.000	7.18800	3.38311	6.58589	3.40709
3650.000	7.22497	3.40053	6.54102	3.42512
3651.000	7.17632	3.39106	6.48637	3.47670
3652.000	7.18021	3.37530	6.58979	3.48976
3653.000	7.18994	3.40276	6.61711	3.44822
3654.000	7.18216	3.41659	6.56248	3.42694
3655.000	7.18800	3.42834	6.56053	3.45059
3656.000	7.17827	3.41072	6.52345	3.45281
3657.000	7.18410	3.43034	6.55272	3.43685
3658.000	7.20746	3.42623	6.67952	3.44385
3659.000	7.16853	3.41079	6.51565	3.47059
3660.000	7.18410	3.42247	6.54102	3.45466
3661.000	7.16659	3.41867	6.66782	3.42031
3662.000	7.21329	3.39472	6.48832	3.47078
3663.000	7.21135	3.39867	6.50199	3.47068
3664.000	7.20940	3.38098	6.56638	3.43282
3665.000	7.19578	3.37321	6.64051	3.39687
3666.000	7.18410	3.34379	6.65612	3.42826
3667.000	7.17827	3.32417	6.56833	3.38357
3668.000	7.16659	3.31638	6.54297	3.39359
3669.000	7.17048	3.37930	6.51760	3.44497
3670.000	7.17632	3.32811	6.52540	3.38189
3671.000	7.19578	3.35945	6.55467	3.38564
3672.000	7.18800	3.37327	6.55077	3.43096
3673.000	7.17632	3.35959	6.57419	3.39338
3674.000	7.17632	3.32615	6.58199	3.40318
3675.000	7.14518	3.33621	6.55077	3.40930
3676.000	7.18216	3.36741	6.61320	3.33403
3677.000	7.18216	3.38118	6.58784	3.47403
3678.000	7.18800	3.35360	6.60540	3.42074
3679.000	7.13155	3.34418	6.58004	3.44257
3680.000	7.19967	3.33385	6.52150	3.46464
3681.000	7.20162	3.33383	6.54882	3.31280
3682.000	7.19383	3.33979	6.55467	3.36397
3683.000	7.18605	3.34181	6.55663	3.39941
3684.000	7.22886	3.34150	6.56833	3.43675
3685.000	7.18216	3.36545	6.55077	3.37778
3686.000	7.16853	3.36948	6.62881	3.43830
3687.000	7.22886	3.30216	6.52540	3.40947
3688.000	7.21719	3.35732	6.57223	3.40521
3689.000	7.17827	3.35761	6.58589	3.36179
3690.000	7.22691	3.39068	6.61125	3.30647
3691.000	7.21719	3.33962	6.53126	3.43503
3692.000	7.19383	3.36339	6.61906	3.36157
3693.000	7.22691	3.32578	6.54102	3.37391
3694.000	7.19773	3.33189	6.56248	3.29301
3695.000	7.22108	3.33762	6.56053	3.38166
3696.000	7.19773	3.31812	6.54492	3.46448
3697.000	7.24248	3.33746	6.49027	3.38016
3698.000	7.20746	3.35149	6.48442	3.38414
3699.000	7.18216	3.30447	6.53321	3.46456
3700.000	7.19578	3.29650	6.54492	3.41131
3701.000	7.20162	3.34563	6.48052	3.36250
3702.000	7.19773	3.37123	6.58589	3.39330
3703.000	7.21329	3.32981	6.50979	3.37215
3704.000	7.19967	3.37909	6.62101	3.40685
3705.000	7.20940	3.34164	6.56638	3.38162
3706.000	7.20356	3.33578	6.54882	3.37977
3707.000	7.17632	3.31631	6.52931	3.42126
3708.000	7.20356	3.35152	6.55467	3.31670
3709.000	7.17827	3.37728	6.66002	3.38098
3710.000	7.19773	3.36336	6.53711	3.36803
3711.000	7.22108	3.33762	6.57028	3.37765
3712.000	7.18410	3.33396	6.55272	3.32853
3713.000	7.20162	3.36727	6.55272	3.29504
3714.000	7.18605	3.34771	6.58979	3.38934
3715.000	7.18021	3.34972	6.58394	3.37362
3716.000	7.17827	3.34777	6.63466	3.31222
3717.000	7.17827	3.34777	6.57028	3.28705
3718.000	7.16270	3.30854	6.63466	3.38312
3719.000	7.19189	3.32603	6.54297	3.39950
3720.000	7.20162	3.30629	6.52931	3.39763
3721.000	7.17243	3.33011	6.47661	3.28963
3722.000	7.17437	3.29272	6.50003	3.38797
3723.000	7.18021	3.30251	6.56053	3.40135
3724.000	7.18994	3.35359	6.47466	3.39996
3725.000	7.14907	3.32438	6.51174	3.29925
3726.000	7.14907	3.30274	6.57809	3.35003
3727.000	7.17437	3.34780	6.56248	3.40725
3728.000	7.18994	3.31031	6.55858	3.27136
3729.000	7.17437	3.32026	6.55272	3.33050
3730.000	7.18994	3.33392	6.60540	3.37151
3731.000	7.18410	3.36740	6.59955	3.32822
3732.000	7.18216	3.32807	6.59760	3.25338
3733.000	7.21135	3.32392	6.53711	3.35227
3734.000	7.21719	3.33175	6.60540	3.30848
3735.000	7.21524	3.31013	6.63271	3.31618
3736.000	7.23081	3.32181	6.58979	3.40509
3737.000	7.19383	3.33979	6.60930	3.37739
3738.000	7.20746	3.34756	6.53711	3.34636
3739.000	7.17827	3.30646	6.59760	3.40307
3740.000	7.20746	3.33576	6.61516	3.36553
3741.000	7.19383	3.30832	6.57614	3.36580
3742.000	7.20551	3.29053	6.59565	3.33218
3743.000	7.19189	3.33980	6.55663	3.35805
3744.000	7.19383	3.28077	6.49418	3.33089
3745.000	7.16853	3.32817	6.51369	3.29924
3746.000	7.21135	3.29245	6.55077	3.33839
3747.000	7.21913	3.28256	6.52736	3.27945
3748.000	7.21135	3.27278	6.66392	3.25688
3749.000	7.16853	3.29079	6.56638	3.32450
3750.000	7.21135	3.25901	6.49808	3.28358
3751.000	7.20940	3.32394	6.61125	3.30450
3752.000	7.18994	3.28670	6.55467	3.29109
3753.000	7.19773	3.30042	6.50394	3.35052
3754.000	7.20162	3.28072	6.55858	3.26939
3755.000	7.19383	3.33586	6.55858	3.36985
3756.000	7.22302	3.30810	6.58979	3.35586
3757.000	7.20162	3.30236	6.57419	3.30278
3758.000	7.20162	3.31809	6.57809	3.38351
3759.000	7.23081	3.32378	6.59370	3.37946
3760.000	7.25610	3.32360	6.51369	3.25984
3761.000	7.22497	3.32186	6.57419	3.34020
3762.000	7.21913	3.32977	6.61711	3.29462
3763.000	7.20940	3.28066	6.54297	3.36799
3764.000	7.22886	3.29036	6.57028	3.32250
3765.000	7.22497	3.29432	6.64051	3.29840
3766.000	7.14907	3.28110	6.65027	3.28455
3767.000	7.21329	3.30817	6.63271	3.25512
3768.000	7.20356	3.28464	6.62881	3.33787
3769.000	7.18021	3.24743	6.55663	3.31077
3770.000	7.19578	3.27486	6.59370	3.30068
3771.000	7.22108	3.28254	6.56833	3.30676
3772.000	7.21719	3.27667	6.62686	3.32015
3773.000	7.20551	3.29249	6.62491	3.26896
3774.000	7.21719	3.28847	6.67172	3.30607
3775.000	7.21913	3.30616	6.57809	3.31260
3776.000	7.22691	3.27267	6.62101	3.31232
3777.000	7.21719	3.29044	6.59760	3.35383
3778.000	7.18800	3.27885	6.61320	3.34585
3779.000	7.20356	3.28070	6.66197	3.36718
3780.000	7.18605	3.32411	6.63856	3.32008
3781.000	7.24637	3.33547	6.55077	3.36794
3782.000	7.21524	3.33570	6.67562	3.34740
3783.000	7.21524	3.32783	6.62881	3.31620
3784.000	7.27750	3.32737	6.66002	3.35932
3785.000	7.22886	3.31986	6.65612	3.31996
3786.000	7.24637	3.29613	6.64246	3.34171
3787.000	7.19967	3.31811	6.59760	3.26323
3788.000	7.26777	3.33924	6.65807	3.29828
3789.000	7.25026	3.29807	6.62296	3.31821
3790.000	7.23859	3.32372	6.66782	3.38486
3791.000	7.24442	3.31581	6.72632	3.40021
3792.000	7.21913	3.32780	6.68927	3.31776
3793.000	7.13350	3.33433	6.61711	3.28083
3794.000	7.07899	3.28553	6.55467	3.29503
3795.000	6.97383	3.24494	6.46685	3.24437
3796.000	6.81600	3.19679	6.47856	3.15168
3797.000	6.63271	3.01869	6.27549	2.95771
3798.000	6.40829	2.90371	5.94712	2.84703
3799.000	6.13677	2.73157	5.75539	2.56953
3800.000	5.86301	2.51768	5.55765	2.44392
3801.000	5.60857	2.34686	5.33234	2.24115
3802.000	5.28334	2.11869	5.20884	2.06552
3803.000	5.01467	1.88007	4.95777	1.69609
3804.000	4.71830	1.62339	4.78505	1.41324
3805.000	4.45704	1.30090	4.63581	1.21535
3806.000	4.28211	1.07514	4.48258	1.01537
3807.000	4.13070	0.90277	4.27031	0.92046
3808.000	4.03038	0.70447	4.15626	0.69444
3809.000	4.00677	0.58146	4.16610	0.55158
3810.000	3.98119	0.50607	4.03628	0.50603
3811.000	4.01071	0.46041	4.20542	0.35515
3812.000	4.09529	0.42464	4.13856	0.40875
3813.000	4.10119	0.44448	4.10119	0.43853
3814.000	4.19756	0.45633	4.06382	0.46435
3815.000	4.22902	0.50591	4.14643	0.52382
3816.000	4.29194	0.53166	4.05989	0.56952
3817.000	4.32732	0.59312	4.09333	0.61910
3818.000	4.37646	0.59904	3.97923	0.65292
3819.000	4.37450	0.63077	3.93594	0.60136
3820.000	4.35681	0.61492	3.99890	0.58940
3821.000	4.33715	0.65461	3.93201	0.59739
3822.000	4.33911	0.64270	3.89659	0.48826
3823.000	4.24475	0.60311	3.94578	0.54380
3824.000	4.26441	0.62095	3.93004	0.51404
3825.000	4.26245	0.60111	3.87297	0.57362
3826.000	4.30373	0.60901	3.97333	0.57553
3827.000	4.32142	0.64867	4.00284	0.54773
3828.000	4.34108	0.64270	3.88084	0.53789
3829.000	4.35091	0.64666	4.06972	0.62110
3830.000	4.39218	0.69224	4.01464	0.62313
3831.000	4.37646	0.73986	4.05399	0.62310
3832.000	4.42363	0.76361	3.96349	0.65888
3833.000	4.41577	0.76758	4.03628	0.74018
3834.000	4.44918	0.78738	3.98906	0.68664
3835.000	4.44721	0.81514	3.97923	0.73428
3836.000	4.42363	0.82508	3.93594	0.79980
3837.000	4.41184	0.80526	3.83558	0.71853
3838.000	4.39022	0.81917	3.96152	0.74025
3839.000	4.36860	0.85886	3.99497	0.72236
3840.000	4.32339	0.78949	3.88478	0.77604
3841.000	4.34894	0.80137	3.84739	0.71256
3842.000	4.28604	0.73201	3.89462	0.61925
3843.000	4.28407	0.77962	3.88084	0.69467
3844.000	4.25458	0.69633	3.81786	0.58953
3845.000	4.19363	0.66465	3.80802	0.56175
3846.000	4.17199	0.65276	3.72141	0.55387
3847.000	4.15626	0.59921	3.81196	0.44662
3848.000	4.14053	0.59922	3.82770	0.51013
3849.000	4.14840	0.55953	3.69385	0.43279
3850.000	4.13266	0.53970	3.72338	0.37520
3851.000	4.10316	0.50996	3.84148	0.39699
3852.000	4.09333	0.47028	3.80408	0.48037
3853.000	4.09726	0.45639	3.75684	0.41688
3854.000	4.09923	0.45441	3.67416	0.38317
3855.000	4.08152	0.43656	3.78243	0.36922
3856.000	4.11693	0.44448	3.75094	0.42085
3857.000	4.09923	0.45837	3.79031	0.38113
3858.000	4.09726	0.43853	3.76275	0.37320
3859.000	4.09529	0.43457	3.78440	0.47046
3860.000	4.13070	0.45240	3.82180	0.41089
3861.000	4.17396	0.43254	3.81393	0.43273
3862.000	4.13070	0.45042	3.80212	0.47045
3863.000	4.14643	0.43057	3.82180	0.42478
3864.000	4.14250	0.41271	3.82377	0.40692
3865.000	4.14446	0.42660	3.84542	0.38309
3866.000	4.10119	0.42861	3.65250	0.40104
3867.000	4.14446	0.44843	3.89855	0.40887
3868.000	4.14840	0.42065	3.79424	0.44266
3869.000	4.14643	0.43851	3.83164	0.39699
3870.000	4.15430	0.44247	3.83361	0.41485
3871.000	4.13070	0.45240	3.85132	0.38904
3872.000	4.13856	0.44248	3.80408	0.37715
3873.000	4.17396	0.43849	3.84345	0.39103
3874.000	4.15823	0.43850	3.80999	0.42678
3875.000	4.15430	0.45239	3.87887	0.39102
3876.000	4.17199	0.47222	3.84542	0.38905
3877.000	4.17396	0.46627	3.82770	0.42875
3878.000	4.17396	0.47024	3.86313	0.42079
3879.000	4.17789	0.42262	3.82967	0.47043
3880.000	4.17986	0.45634	3.91233	0.45451
3881.000	4.17396	0.43849	3.84542	0.38508
3882.000	4.17593	0.44444	3.85723	0.40095
3883.000	4.18576	0.47023	3.86903	0.35132
3884.000	4.17199	0.44841	3.86707	0.49224
3885.000	4.16806	0.49206	3.85329	0.44859
3886.000	4.19166	0.48213	3.93201	0.39893
3887.000	4.18773	0.49205	3.83754	0.44860
3888.000	4.13856	0.45438	3.91626	0.37314
3889.000	4.13660	0.44248	3.84542	0.44859
3890.000	4.15823	0.48413	3.86510	0.44858
3891.000	4.16413	0.45635	3.86313	0.44064
3892.000	4.16413	0.46231	3.93201	0.41481
3893.000	4.13463	0.44843	3.90642	0.33146
3894.000	4.17986	0.50198	3.93988	0.40686
3895.000	4.14446	0.42660	3.89462	0.40689
3896.000	4.15233	0.43850	3.89855	0.39895
3897.000	4.12086	0.51392	3.86707	0.36522
3898.000	4.14840	0.44446	3.91626	0.41878
3899.000	4.16413	0.45834	3.92020	0.42275
3900.000	4.13856	0.45240	3.82770	0.48234
3901.000	4.14643	0.45438	3.84345	0.40493
3902.000	4.13070	0.45042	3.93201	0.45648
3903.000	4.12086	0.49209	3.86313	0.36323
3904.000	4.12480	0.47820	3.86903	0.40293
3905.000	4.12086	0.49805	3.90642	0.39100
3906.000	4.16020	0.48215	3.89659	0.39101
3907.000	4.14643	0.51589	3.87494	0.45850
3908.000	4.09333	0.51195	3.84935	0.41882
3909.000	4.12283	0.45836	3.83164	0.41883
3910.000	4.14250	0.47819	3.93397	0.33939
3911.000	4.10513	0.48417	3.90446	0.40688
3912.000	4.10906	0.48218	3.93201	0.40091
3913.000	4.10709	0.46631	3.90839	0.41482
3914.000	4.12676	0.43256	3.88871	0.40292
3915.000	4.10513	0.48020	3.92413	0.34138
3916.000	4.10316	0.46829	3.92413	0.33542
3917.000	4.12480	0.45241	3.89462	0.39498
3918.000	4.12873	0.44645	3.91430	0.42077
3919.000	4.12480	0.42066	3.85526	0.35331
3920.000	4.09529	0.46830	3.92807	0.35130
3921.000	4.12873	0.46034	3.94971	0.31755
3922.000	4.12480	0.47225	3.95168	0.35724
3923.000	4.11299	0.47622	3.90446	0.32154
3924.000	4.08939	0.43854	3.90839	0.39100
3925.000	4.11496	0.46035	3.92610	0.31756
3926.000	4.09529	0.45441	3.87887	0.30567
3927.000	4.12676	0.46431	3.90249	0.35131
3928.000	4.09529	0.47822	3.84542	0.34339
3929.000	4.10513	0.50599	3.92610	0.34336
3930.000	4.12676	0.46630	3.85132	0.28384
3931.000	4.10709	0.50599	3.92413	0.26794
3932.000	4.11103	0.44845	3.90446	0.35131
3933.000	4.13660	0.48811	3.91233	0.28779
3934.000	4.11103	0.50996	3.85329	0.34736
3935.000	4.11889	0.46432	3.89855	0.35925
3936.000	4.09136	0.51592	3.93201	0.30962
3937.000	4.07956	0.44450	3.89462	0.33345
3938.000	4.13266	0.48812	3.83361	0.33943
3939.000	4.09726	0.49012	3.85329	0.32950
3940.000	4.16216	0.48810	3.89265	0.37712
3941.000	4.13070	0.49209	3.87297	0.30170
3942.000	4.14446	0.45636	3.87100	0.29575
3943.000	4.10119	0.51195	3.90052	0.31162
3944.000	4.14840	0.49406	3.87691	0.37117
3945.000	4.10316	0.49012	3.91036	0.36123
3946.000	4.09333	0.45243	3.90642	0.39299
3947.000	4.12480	0.49606	3.81589	0.35333
3948.000	4.10709	0.44051	3.89855	0.30963
3949.000	4.11299	0.46829	3.93201	0.40091
3950.000	4.13660	0.45042	3.85329	0.36125
3951.000	4.13660	0.47819	3.88084	0.31758
3952.000	4.14446	0.46628	3.86116	0.33148
3953.000	4.12283	0.43257	3.89462	0.40689
3954.000	4.12873	0.45241	3.84345	0.37317
3955.000	4.13266	0.44447	3.85329	0.34935
3956.000	4.13463	0.42661	3.90249	0.33345
3957.000	4.13266	0.41669	3.86510	0.33346
3958.000	4.15626	0.42461	3.88478	0.32750
3959.000	4.13266	0.44843	3.89462	0.35528
3960.000	4.10906	0.41472	3.86116	0.38507
3961.000	4.13660	0.44645	3.91233	0.37711
3962.000	4.14250	0.46827	3.92217	0.30764
3963.000	4.13266	0.45836	3.87887	0.36323
3964.000	4.16806	0.45238	3.91430	0.44062
3965.000	4.18183	0.45634	3.86707	0.35926
3966.000	4.13660	0.46034	3.90839	0.31757
3967.000	4.10513	0.44051	3.91233	0.30367
3968.000	4.14446	0.43255	3.90446	0.30367
3969.000	4.12480	0.45439	3.92413	0.34336
3970.000	4.12676	0.41669	3.94184	0.32748
3971.000	4.12283	0.43852	3.88871	0.31757
3972.000	4.13266	0.41867	3.90446	0.30764
3973.000	4.14840	0.43255	3.85723	0.37118
3974.000	4.12676	0.44447	4.00480	0.38699
3975.000	4.13660	0.41867	3.83754	0.32355
3976.000	4.13463	0.46431	3.83951	0.31362
3977.000	4.10316	0.41075	3.85526	0.34736
3978.000	4.14446	0.44248	3.89855	0.37314
3979.000	4.13266	0.41867	3.94971	0.38900
3980.000	4.11496	0.42860	3.91626	0.36321
3981.000	4.14840	0.45438	3.95168	0.36518
3982.000	4.17003	0.42659	3.88478	0.37513
3983.000	4.14840	0.47025	3.95365	0.33740
3984.000	4.15626	0.44048	3.86903	0.36919
3985.000	4.10906	0.46631	3.88871	0.34735
3986.000	4.09136	0.43457	3.87100	0.27590
3987.000	4.13856	0.43454	3.81786	0.42280
3988.000	4.16216	0.44048	3.92610	0.40290
3989.000	4.11496	0.47622	3.87100	0.34140
3990.000	4.15626	0.44048	3.89462	0.39696
3991.000	4.13660	0.46827	3.90052	0.32551
3992.000	4.12480	0.46034	3.89068	0.29971
3993.000	4.11496	0.43654	3.90249	0.37314
3994.000	4.10906	0.45638	3.85329	0.41683
3995.000	4.14446	0.44248	3.90446	0.37314
3996.000	4.15823	0.44644	3.84935	0.40492
3997.000	4.10906	0.44250	3.83164	0.37317
3998.000	4.10513	0.44448	3.90642	0.37512
3999.000	4.10513	0.41670	3.83164	0.39104
4000.000	4.10119	0.44250	3.85329	0.37515
4001.000	4.12283	0.39090	3.79818	0.38907
4002.000	4.09726	0.42068	3.81983	0.43868
4003.000	4.12283	0.43455	3.72338	0.38315
4004.000	4.09726	0.41671	3.83558	0.34737
4005.000	4.09333	0.44250	3.92020	0.46046
4006.000	4.10316	0.43655	3.91823	0.44855
4007.000	4.09136	0.46433	3.82770	0.45456
4008.000	4.05595	0.48221	3.89855	0.42872
4009.000	4.11103	0.43059	3.76472	0.43474
4010.000	4.11889	0.43852	3.84148	0.39302
4011.000	4.11889	0.45043	3.86313	0.45851
4012.000	4.09529	0.45838	3.81196	0.41288
4013.000	4.09726	0.43655	3.85526	0.48034
4014.000	4.09333	0.43258	3.92610	0.40092
4015.000	4.10906	0.45043	3.79227	0.48038
4016.000	4.11496	0.45241	3.81393	0.45655
4017.000	4.07366	0.43259	3.80408	0.46648
4018.000	4.10513	0.45242	3.87100	0.43270
4019.000	4.11496	0.47821	3.80015	0.39899
4020.000	4.09726	0.44647	3.82180	0.49227
4021.000	4.08349	0.44053	3.77259	0.39503
4022.000	4.10316	0.41472	3.82770	0.41486
4023.000	4.08546	0.43656	3.79621	0.40892
4024.000	4.11103	0.45837	3.88675	0.45254
4025.000	4.08349	0.43457	3.80802	0.41090
4026.000	4.12086	0.41471	3.84148	0.48631
4027.000	4.09726	0.40480	3.83361	0.43272
4028.000	4.13463	0.42661	3.83164	0.41684
4029.000	4.09136	0.40679	3.87691	0.43667
4030.000	4.08939	0.41076	3.82377	0.42478
4031.000	4.08546	0.40481	3.94775	0.45449
4032.000	4.08939	0.41671	3.84345	0.48233
4033.000	4.13266	0.45042	3.78440	0.37518
4034.000	4.13070	0.39288	3.89462	0.43070
4035.000	4.11496	0.40479	3.76275	0.46650
4036.000	4.12873	0.43058	3.83754	0.42875
4037.000	4.12480	0.45042	3.87100	0.36919
4038.000	4.12283	0.45241	3.87691	0.51010
4039.000	4.14053	0.40478	3.88871	0.46445
4040.000	4.10119	0.41670	3.87297	0.38308
4041.000	4.11103	0.43456	3.84739	0.44859
4042.000	4.11496	0.42067	3.75684	0.39504
4043.000	4.14643	0.44644	3.78637	0.34937
4044.000	4.10513	0.43654	3.80408	0.44464
4045.000	4.12676	0.42661	3.91626	0.40092
4046.000	4.09136	0.44846	3.83164	0.39699
4047.000	4.10119	0.43059	3.79818	0.43869
4048.000	4.08939	0.43060	3.76472	0.43474
4049.000	4.10709	0.42861	3.87887	0.44460
4050.000	4.08152	0.40878	3.83558	0.53593
4051.000	4.13660	0.39288	3.82770	0.37317
4052.000	4.15233	0.42263	3.93201	0.32748
4053.000	4.14840	0.39684	3.87100	0.41682
4054.000	4.14643	0.39486	3.79424	0.37120
4055.000	4.13070	0.39685	3.85919	0.40889
4056.000	4.09923	0.40480	3.87297	0.37911
4057.000	4.09726	0.38694	3.96742	0.35128
4058.000	4.09923	0.33734	3.88675	0.43071
4059.000	4.13660	0.37303	3.79818	0.34540
4060.000	4.14446	0.38692	3.88084	0.37514
4061.000	4.16216	0.37302	3.89462	0.40887
4062.000	4.10119	0.36710	3.95168	0.38503
4063.000	4.15430	0.36906	3.85526	0.40889
4064.000	4.14250	0.39684	3.80605	0.36326
4065.000	4.12873	0.37105	3.85132	0.36721
4066.000	4.15036	0.35120	3.85919	0.36522
4067.000	4.12873	0.36709	3.89462	0.42078
4068.000	4.10513	0.37702	3.83164	0.42875
4069.000	4.10709	0.34924	3.93201	0.37313
4070.000	4.11496	0.33534	3.80212	0.42281
4071.000	4.09923	0.34726	3.85723	0.51011
4072.000	4.14250	0.35121	3.88084	0.38704
4073.000	4.15626	0.32541	3.90249	0.38902
4074.000	4.12283	0.36114	3.87100	0.35132
4075.000	4.14250	0.35319	3.87887	0.40094
4076.000	4.14446	0.33732	3.86510	0.32552
4077.000	4.13660	0.32343	3.90052	0.30368
4078.000	4.15626	0.34326	3.91626	0.31359
4079.000	4.16413	0.33532	3.90839	0.35131
4080.000	4.16610	0.33135	3.85329	0.38110
4081.000	4.12873	0.32939	3.85132	0.35927
4082.000	4.17789	0.35119	3.77062	0.42084
4083.000	4.16020	0.30953	3.91430	0.40886
4084.000	4.12873	0.34129	3.82180	0.38509
4085.000	4.14446	0.30557	3.92413	0.34932
4086.000	4.17199	0.30357	3.87691	0.34934
4087.000	4.14053	0.29168	3.86313	0.42278
4088.000	4.16216	0.33532	3.83951	0.38706
4089.000	4.13856	0.31351	3.85526	0.40690
4090.000	4.17396	0.30556	3.81196	0.37715
4091.000	4.15036	0.32938	3.95365	0.40289
4092.000	4.14053	0.31946	3.86903	0.43865
4093.000	4.14643	0.33533	3.89265	0.39101
4094.000	4.16020	0.34326	3.77653	0.43275
4095.000	4.16216	0.37897	3.83951	0.43867
4096.000	4.15233	0.37104	3.83558	0.41684
4097.000	4.16806	0.35119	3.83361	0.46845
4098.000	4.13070	0.34724	3.85526	0.35331
4099.000	4.16806	0.34723	3.84542	0.44264
4100.000	4.13856	0.32740	3.83754	0.33744
4101.000	4.12086	0.35122	3.86116	0.37514
4102.000	4.16610	0.37897	3.78637	0.46847
4103.000	4.18379	0.36904	3.82180	0.42875
4104.000	4.16806	0.34921	3.87691	0.44857
4105.000	4.15626	0.37699	3.81393	0.50220
4106.000	4.16020	0.35715	3.86707	0.47240
4107.000	4.13266	0.38891	3.76275	0.45062
4108.000	4.11496	0.38693	3.77653	0.46649
4109.000	4.13660	0.40280	3.84148	0.46646
4110.000	4.15036	0.37898	3.84739	0.48829
4111.000	4.15823	0.35517	3.79621	0.48038
4112.000	4.13463	0.36311	3.81589	0.49029
4113.000	4.13856	0.39288	3.88478	0.46643
4114.000	4.16413	0.33334	3.79818	0.51610
4115.000	4.15036	0.37104	3.87100	0.46644
4116.000	4.14250	0.35517	3.77456	0.48237
4117.000	4.19363	0.37102	3.84148	0.51806
4118.000	4.14446	0.34922	3.85723	0.44859
4119.000	4.16610	0.34524	3.82377	0.43868
4120.000	4.13266	0.38494	3.84148	0.42676
4121.000	4.16216	0.36509	3.86510	0.46247
4122.000	4.13463	0.35319	3.83558	0.46249
4123.000	4.12873	0.36312	3.86313	0.57164
4124.000	4.12873	0.37105	3.82377	0.48036
4125.000	4.18379	0.42261	3.75487	0.44864
4126.000	4.12873	0.39288	3.87494	0.51010
4127.000	4.17593	0.42857	3.85132	0.42477
4128.000	4.16806	0.38294	3.81393	0.47441
4129.000	4.12676	0.38891	3.83558	0.48035
4130.000	4.16413	0.39485	3.77062	0.51017
4131.000	4.17396	0.35318	3.80605	0.46251
4132.000	4.15430	0.38096	3.86903	0.51805
4133.000	4.10316	0.37503	3.90642	0.40886
4134.000	4.13660	0.36708	3.88281	0.43468
4135.000	4.14643	0.37105	3.88084	0.45056
4136.000	4.15823	0.36509	3.88281	0.44262
4137.000	4.16610	0.33135	3.89659	0.47437
4138.000	4.16216	0.36707	3.87887	0.39895
4139.000	4.14053	0.37899	3.81786	0.44662
4140.000	4.13463	0.37502	3.84935	0.45256
4141.000	4.17396	0.38889	3.82377	0.43868
4142.000	4.16413	0.40675	3.90446	0.44459
4143.000	4.17199	0.38889	3.85526	0.43072
4144.000	4.14053	0.39883	3.84148	0.39699
4145.000	4.09529	0.36512	3.95562	0.37510
4146.000	4.06579	0.40283	3.85329	0.41286
4147.000	3.96545	0.43464	3.83951	0.43669
4148.000	3.84148	0.43668	3.71944	0.43079
4149.000	3.70960	0.48042	3.54025	0.47654
4150.000	3.53435	0.52420	3.32356	0.54020
4151.000	3.34524	0.59976	3.21124	0.53827
4152.000	3.13240	0.61975	2.96286	0.58012
4153.000	2.86821	0.62586	2.75382	0.64579
4154.000	2.67492	0.72134	2.50327	0.61810
4155.000	2.47564	0.71748	2.41249	0.68373
4156.000	2.20919	0.69774	2.25854	0.70567
4157.000	2.06507	0.75545	2.10061	0.73953
4158.000	1.86366	0.71578	1.87946	0.87084
4159.000	1.77083	0.71184	1.77676	0.92258
4160.000	1.72145	0.70590	1.71355	0.87489
4161.000	1.73133	0.75162	1.71750	0.93851
4162.000	1.71355	0.75163	1.70367	0.95442
4163.000	1.77083	0.74564	1.86563	1.01198
4164.000	1.92093	0.79726	1.87353	0.95234
4165.000	2.01571	0.81511	2.01769	0.92642
4166.000	2.19735	0.78520	2.05323	1.03572
4167.000	2.35131	0.87852	2.17366	0.97403
4168.000	2.49735	0.87048	2.33750	0.94014
4169.000	2.63743	0.88230	2.38289	0.98978
4170.000	2.82877	0.88415	2.45591	1.04934
4171.000	2.89582	0.87417	2.59600	1.00552
4172.000	2.96089	0.86418	2.80707	1.01329
4173.000	3.03778	0.84426	2.67294	0.96374
4174.000	3.08312	0.88395	2.81299	0.92787
4175.000	3.10086	0.80449	2.80313	0.93781
4176.000	3.08509	0.79656	2.85046	0.97154
4177.000	3.08706	0.74293	2.78932	0.93384
4178.000	3.05749	0.72507	2.71634	0.83854
4179.000	3.01018	0.72113	2.80116	0.85239
4180.000	2.94511	0.68144	2.72620	0.81668
4181.000	2.87807	0.68744	2.65322	0.77699
4182.000	2.86821	0.71725	2.67492	0.78095
4183.000	2.77749	0.68552	2.57627	0.70749
4184.000	2.75185	0.65970	2.59008	0.76709
4185.000	2.72423	0.67959	2.48946	0.73337
4186.000	2.67097	0.74320	2.46183	0.68768
4187.000	2.65322	0.74520	2.52497	0.82873
4188.000	2.58417	0.73729	2.49143	0.78305
4189.000	2.57035	0.75319	2.38881	0.75926
4190.000	2.60390	0.75516	2.39868	0.84073
4191.000	2.58614	0.74524	2.31973	0.77917
4192.000	2.60981	0.75715	2.34342	0.79108
4193.000	2.59206	0.77901	2.32565	0.86463
4194.000	2.59995	0.79093	2.36513	0.86063
4195.000	2.59403	0.77901	2.37500	0.94607
4196.000	2.60587	0.81676	2.36315	0.89441
4197.000	2.57233	0.77306	2.32763	0.96399
4198.000	2.57233	0.77903	2.37302	0.95402
4199.000	2.58022	0.79293	2.39868	0.91426
4200.000	2.56641	0.79294	2.34934	0.96199
4201.000	2.58811	0.81876	2.35131	0.93814
4202.000	2.58022	0.76312	2.43223	0.98577
4203.000	2.55654	0.78500	2.30986	0.89246
4204.000	2.59008	0.80087	2.39276	0.84074
4205.000	2.58219	0.81479	2.33750	0.92623
4206.000	2.62362	0.84258	2.30986	0.93022
4207.000	2.56838	0.83467	2.32368	0.92623
4208.000	2.62757	0.82867	2.33750	0.87456
4209.000	2.57627	0.80088	2.40065	0.95798
4210.000	2.63743	0.82866	2.37500	0.97389
4211.000	2.63546	0.84257	2.45591	0.89833
4212.000	2.64533	0.88627	2.47959	0.94799
4213.000	2.65124	0.84454	2.40263	0.98381
4214.000	2.67886	0.84651	2.40657	0.92022
4215.000	2.65322	0.84653	2.40065	0.90432
4216.000	2.67097	0.84850	2.43223	0.88841
4217.000	2.66111	0.83659	2.44407	0.90430
4218.000	2.68478	0.86042	2.42433	0.96790
4219.000	2.70451	0.83060	2.50130	1.00559
4220.000	2.64927	0.87236	2.37697	0.88645
4221.000	2.64138	0.79687	2.47564	0.93011
4222.000	2.65322	0.85050	2.41841	0.91822
4223.000	2.66111	0.80877	2.48946	0.93606
4224.000	2.62560	0.75714	2.38289	0.96196
4225.000	2.68083	0.78293	2.39473	0.94805
4226.000	2.67886	0.80479	2.45394	0.89435
4227.000	2.67294	0.80479	2.42039	0.92816
4228.000	2.67294	0.77102	2.41447	0.91425
4229.000	2.66505	0.79685	2.32171	0.91630
4230.000	2.66505	0.73128	2.49735	0.85458
4231.000	2.67097	0.78691	2.37105	0.87056
4232.000	2.67492	0.80479	2.42433	0.90828
4233.000	2.68478	0.78094	2.36513	0.87255
4234.000	2.66703	0.82665	2.38289	0.90434
4235.000	2.62757	0.78893	2.48156	0.90030
4236.000	2.66505	0.80480	2.41841	0.86059
4237.000	2.70253	0.83458	2.33947	0.88648
4238.000	2.67097	0.81473	2.45788	0.83275
4239.000	2.67294	0.83460	2.39868	0.90234
4240.000	2.62560	0.76508	2.43618	0.91026
4241.000	2.65322	0.78494	2.39671	0.91426
4242.000	2.66505	0.83261	2.50327	0.86253
4243.000	2.70056	0.83259	2.38486	0.95401
4244.000	2.64730	0.78693	2.43420	0.86853
4245.000	2.69267	0.80677	2.42236	0.92418
4246.000	2.72029	0.81867	2.44407	0.89039
4247.000	2.68873	0.83657	2.40065	0.90631
4248.000	2.70056	0.83458	2.43815	0.89635
4249.000	2.68675	0.82266	2.40460	0.90830
4250.000	2.70845	0.79086	2.40065	0.91029
4251.000	2.69070	0.82266	2.39276	0.93016
4252.000	2.70253	0.81073	2.44012	0.94603
4253.000	2.68873	0.80677	2.45788	0.95794
4254.000	2.71437	0.81867	2.45788	0.82877
4255.000	2.69070	0.78690	2.43815	0.91821
4256.000	2.72226	0.78887	2.49538	0.93804
4257.000	2.70648	0.83457	2.43025	0.85065
4258.000	2.71634	0.82861	2.48748	0.89234
4259.000	2.68083	0.79088	2.42236	0.96988
4260.000	2.72226	0.79880	2.38289	0.91427
4261.000	2.67097	0.80678	2.43815	0.89834
4262.000	2.71240	0.81669	2.43815	0.91225
4263.000	2.70253	0.83458	2.46775	0.95992
4264.000	2.70253	0.78888	2.44802	0.88442
4265.000	2.69859	0.79881	2.47564	0.88440
4266.000	2.69464	0.81273	2.37500	0.91229
4267.000	2.71634	0.81470	2.48156	0.85857
4268.000	2.70253	0.80080	2.50130	0.83670
4269.000	2.73804	0.83852	2.46972	0.83075
4270.000	2.72620	0.79085	2.42433	0.85662
4271.000	2.69464	0.76107	2.46972	0.89633
4272.000	2.75776	0.81666	2.49143	0.87247
4273.000	2.74396	0.83057	2.42236	0.86059
4274.000	2.72029	0.84450	2.47959	0.83472
4275.000	2.74198	0.79283	2.51116	0.92412
4276.000	2.70845	0.78887	2.44407	0.84468
4277.000	2.77552	0.79280	2.49143	0.84664
4278.000	2.72226	0.77893	2.41447	0.85066
4279.000	2.72423	0.81271	2.44407	0.85462
4280.000	2.72423	0.80078	2.45986	0.84864
4281.000	2.69662	0.78093	2.42039	0.88046
4282.000	2.72818	0.78290	2.52892	0.88437
4283.000	2.71831	0.81668	2.59403	0.77901
4284.000	2.67492	0.79088	2.50919	0.95790
4285.000	2.70253	0.77497	2.48748	0.87446
4286.000	2.72029	0.78291	2.57825	0.82870
4287.000	2.72620	0.75310	2.45394	0.92416
4288.000	2.67886	0.78095	2.51511	0.89034
4289.000	2.70648	0.77099	2.46775	0.90229
4290.000	2.70253	0.76901	2.50919	0.85259
4291.000	2.73212	0.81866	2.46380	0.76319
4292.000	2.75185	0.75507	2.45196	0.83474
4293.000	2.70451	0.81073	2.42631	0.84072
4294.000	2.74001	0.78885	2.45591	0.87249
4295.000	2.74593	0.81070	2.41249	0.89438
4296.000	2.73607	0.79879	2.44210	0.87449
4297.000	2.72818	0.81469	2.45591	0.86454
4298.000	2.75579	0.79679	2.49143	0.85061
4299.000	2.76368	0.78288	2.41447	0.88246
4300.000	2.78735	0.83054	2.41644	0.89239
4301.000	2.74593	0.77693	2.45591	0.88839
4302.000	2.77946	0.77492	2.49340	0.87446
4303.000	2.73409	0.80078	2.55260	0.82275
4304.000	2.74987	0.75706	2.45196	0.75922
4305.000	2.75382	0.75507	2.44999	0.82679
4306.000	2.74987	0.75905	2.50327	0.80887
4307.000	2.75776	0.77891	2.47170	0.84466
4308.000	2.76171	0.75705	2.44012	0.88443
4309.000	2.73607	0.75905	2.44407	0.81686
4310.000	2.73804	0.74912	2.46972	0.84069
4311.000	2.74790	0.79481	2.47564	0.88242
4312.000	2.75776	0.74712	2.44407	0.87250
4313.000	2.72423	0.73919	2.44210	0.82878
4314.000	2.75382	0.82461	2.33947	0.88449
4315.000	2.70845	0.77894	2.44604	0.85859
4316.000	2.73015	0.80078	2.39473	0.83080
4317.000	2.70648	0.83259	2.41447	0.91425
4318.000	2.74001	0.82859	2.37302	0.88050
4319.000	2.70648	0.81470	2.42433	0.88046
4320.000	2.70253	0.82861	2.37302	0.86658
4321.000	2.73212	0.82263	2.41052	0.90630
4322.000	2.71042	0.80278	2.39078	0.83080
4323.000	2.73409	0.77495	2.43025	0.91821
4324.000	2.71437	0.79880	2.46972	0.85261
4325.000	2.73212	0.79085	2.38881	0.80696
4326.000	2.72818	0.78489	2.41249	0.87650
4327.000	2.70253	0.78490	2.42828	0.87649
4328.000	2.73607	0.80674	2.38486	0.91825
4329.000	2.74396	0.80276	2.44999	0.90429
4330.000	2.71042	0.79682	2.42631	0.88245
4331.000	2.77749	0.80274	2.42236	0.80694
4332.000	2.73015	0.81866	2.39473	0.95599
4333.000	2.73804	0.81468	2.47762	0.84068
4334.000	2.71831	0.81271	2.34539	0.89641
4335.000	2.71831	0.76503	2.43223	0.85264
4336.000	2.73409	0.79283	2.38881	0.92222
4337.000	2.73804	0.76501	2.46183	0.83275
4338.000	2.73607	0.81667	2.42433	0.88642
4339.000	2.74198	0.80276	2.38881	0.89042
4340.000	2.75185	0.79878	2.39276	0.89837
4341.000	2.78143	0.82061	2.43223	0.88046
4342.000	2.74593	0.82064	2.41052	0.85662
4343.000	2.75579	0.75705	2.43815	0.84667
4344.000	2.75776	0.77295	2.46972	0.88639
4345.000	2.77946	0.79479	2.43618	0.90827
4346.000	2.76171	0.79083	2.40657	0.86656
4347.000	2.72029	0.78092	2.43025	0.89636
4348.000	2.71042	0.78291	2.38486	0.84074
4349.000	2.73212	0.80674	2.41447	0.90829
4350.000	2.70451	0.79881	2.44999	0.85461
4351.000	2.74198	0.80475	2.41841	0.88047
4352.000	2.73607	0.73919	2.37894	0.85664
4353.000	2.75974	0.80871	2.47762	0.92216
4354.000	2.76565	0.80274	2.37302	0.86857
4355.000	2.78932	0.84445	2.35526	0.89044
4356.000	2.77946	0.79876	2.43025	0.87450
4357.000	2.77749	0.82260	2.32763	0.87456
