time (ms)	lx (deg)	ly (deg)	rx (deg)	ry (deg)
0.000	2.27236	-0.24252	1.84786	-0.07556
1.000	2.25262	-0.26638	1.82416	-0.03181
2.000	2.27433	-0.30414	1.77478	-0.13919
3.000	2.25460	-0.28228	1.76095	-0.09545
4.000	2.18550	-0.30814	1.74120	-0.11931
5.000	2.16576	-0.35983	1.71158	-0.13920
6.000	2.17366	-0.30615	1.74120	-0.08948
7.000	2.11838	-0.33996	1.71158	-0.08153
8.000	2.13812	-0.30218	1.71158	-0.13124
9.000	2.05915	-0.33003	1.73330	-0.13721
10.000	2.04928	-0.39961	1.68985	-0.10937
11.000	2.04928	-0.34792	1.62861	-0.08551
12.000	2.09271	-0.38370	1.67800	-0.07755
13.000	2.04138	-0.35985	1.66417	-0.11733
14.000	2.05323	-0.36184	1.63059	-0.11534
15.000	2.04138	-0.38769	1.60491	-0.08153
16.000	2.02163	-0.36582	1.57725	-0.03580
17.000	2.06310	-0.33599	1.69380	-0.00199
18.000	2.03941	-0.29425	1.66417	0.03381
19.000	2.04335	-0.30816	1.69380	-0.06562
20.000	2.05915	-0.25846	1.63849	-0.04773
21.000	2.06112	-0.30617	1.64837	-0.03778
22.000	2.06112	-0.25249	1.59503	-0.00597
23.000	2.04928	-0.25051	1.60688	-0.06165
24.000	2.02953	-0.27636	1.68985	-0.03977
25.000	2.04533	-0.22267	1.65627	-0.10142
26.000	2.03151	-0.25051	1.67800	-0.00398
27.000	2.04138	-0.28828	1.74713	-0.07556
28.000	2.08877	-0.22466	1.71553	-0.07556
29.000	2.07297	-0.25448	1.62664	0.03381
30.000	2.05718	-0.25448	1.66022	-0.03778
31.000	2.04335	-0.24852	1.65429	-0.03182
32.000	2.01571	-0.25846	1.65824	-0.06165
33.000	2.07297	-0.19285	1.58318	-0.05966
34.000	2.05125	-0.24454	1.61281	-0.08153
35.000	2.05915	-0.25249	1.66614	-0.08551
36.000	2.05718	-0.25647	1.60688	-0.03977
37.000	2.05125	-0.20677	1.64837	-0.09346
38.000	2.05125	-0.24653	1.73330	0.00597
39.000	2.08877	-0.23460	1.65232	-0.09545
40.000	2.06310	-0.23659	1.69182	-0.06960
41.000	2.08284	-0.20080	1.67800	-0.09545
42.000	2.06902	-0.27039	1.63651	-0.09347
43.000	2.06112	-0.24056	1.66417	-0.14716
44.000	2.04335	-0.24852	1.73923	-0.05170
45.000	2.04730	-0.26244	1.56540	-0.04375
46.000	2.08877	-0.22068	1.67207	-0.15511
47.000	2.04730	-0.23858	1.70170	-0.02983
48.000	2.04138	-0.26443	1.66219	-0.04574
49.000	2.04730	-0.25051	1.71355	-0.07159
50.000	2.05915	-0.23062	1.57923	-0.04972
51.000	1.99399	-0.24256	1.68195	-0.06165
52.000	2.06507	-0.19285	1.64837	-0.09744
53.000	2.07889	-0.22665	1.66417	-0.10540
54.000	2.05125	-0.24653	1.74910	-0.03380
55.000	2.08087	-0.20676	1.72935	-0.05568
56.000	2.05520	-0.25051	1.67997	-0.06562
57.000	2.03743	-0.23460	1.72145	-0.11732
58.000	2.04533	-0.25448	1.62466	-0.07557
59.000	2.06705	-0.24852	1.70367	-0.08949
60.000	2.07889	-0.20676	1.69972	-0.11136
61.000	1.99794	-0.23859	1.63059	-0.14119
62.000	2.02361	-0.25449	1.72540	-0.12130
63.000	2.04138	-0.28033	1.71750	-0.08352
64.000	2.06705	-0.26641	1.67997	-0.08551
65.000	2.03348	-0.28431	1.70367	-0.10142
66.000	2.02361	-0.27437	1.63454	-0.05966
67.000	1.99399	-0.30420	1.64837	-0.09943
68.000	1.99991	-0.30022	1.65429	-0.07557
69.000	2.02163	-0.28630	1.65627	-0.09346
70.000	2.02756	-0.28033	1.76886	-0.11136
71.000	2.01966	-0.26244	1.65429	-0.10738
72.000	1.99597	-0.30022	1.68195	-0.12727
73.000	2.01374	-0.27835	1.62269	-0.05767
74.000	2.00584	-0.25449	1.62664	-0.06165
75.000	2.02361	-0.26840	1.71355	-0.16306
76.000	2.03743	-0.26641	1.62664	-0.08153
77.000	2.03546	-0.26840	1.61083	-0.10142
78.000	2.03743	-0.23262	1.67207	-0.07159
79.000	2.05520	-0.25647	1.60293	-0.10739
80.000	2.05520	-0.25249	1.66812	-0.06562
81.000	2.02756	-0.24057	1.72540	-0.19488
82.000	2.01966	-0.25846	1.71355	-0.09346
83.000	2.02756	-0.28033	1.68392	-0.12727
84.000	2.02163	-0.24852	1.59898	-0.14318
85.000	2.05323	-0.27834	1.74515	-0.12925
86.000	1.98214	-0.31016	1.65824	-0.04972
87.000	2.05520	-0.27436	1.65627	-0.09148
88.000	2.04730	-0.23460	1.57923	-0.04574
89.000	2.07297	-0.23062	1.67009	-0.08352
90.000	2.01374	-0.24256	1.70170	-0.15312
91.000	2.02558	-0.30618	1.63256	-0.05170
92.000	2.01769	-0.28232	1.63059	-0.13523
93.000	2.04533	-0.24653	1.62071	-0.09545
94.000	2.03546	-0.22466	1.62861	-0.12330
95.000	2.05718	-0.25448	1.65034	-0.13920
96.000	2.04730	-0.25647	1.61478	-0.13722
97.000	2.03743	-0.24057	1.62269	-0.11335
98.000	2.05323	-0.27635	1.64837	-0.08750
99.000	1.99991	-0.24256	1.68787	-0.14318
100.000	2.02558	-0.24852	1.69380	-0.15113
101.000	2.01966	-0.26045	1.63849	-0.15909
102.000	2.06310	-0.23460	1.70762	-0.10539
103.000	2.01769	-0.27835	1.65627	-0.10937
104.000	2.07495	-0.25846	1.61478	-0.14318
105.000	2.05125	-0.27039	1.67997	-0.07557
106.000	2.06507	-0.24454	1.67997	-0.15511
107.000	2.05125	-0.30419	1.67997	-0.15312
108.000	2.03743	-0.25051	1.74713	-0.15113
109.000	2.05323	-0.27436	1.72738	-0.15908
110.000	2.07100	-0.23062	1.66219	-0.22073
111.000	2.11641	-0.23459	1.63454	-0.17500
112.000	2.06902	-0.29225	1.65627	-0.15710
113.000	2.08679	-0.21869	1.62664	-0.13324
114.000	2.05915	-0.25249	1.65824	-0.16903
115.000	2.07495	-0.22068	1.69775	-0.12329
116.000	2.14010	-0.18688	1.70762	-0.08750
117.000	2.06310	-0.18887	1.73528	-0.11732
118.000	2.09271	-0.25050	1.73330	-0.05170
119.000	2.04533	-0.24256	1.70367	-0.13721
120.000	1.99399	-0.24654	1.69775	-0.09744
121.000	1.88538	-0.23065	1.48242	-0.05569
122.000	1.75305	-0.25652	1.44883	-0.04773
123.000	1.63256	-0.29034	1.30064	-0.15116
124.000	1.41327	-0.24661	1.13070	-0.10741
125.000	1.18998	-0.27846	0.92120	-0.16709
126.000	0.94097	-0.23074	0.75122	-0.12532
127.000	0.61285	-0.24866	0.39144	-0.17109
128.000	0.32225	-0.26857	0.21945	-0.21884
129.000	0.04943	-0.30637	-0.09292	-0.15716
130.000	-0.22142	-0.31234	-0.36969	-0.19098
131.000	-0.47842	-0.32028	-0.67610	-0.20490
132.000	-0.73738	-0.35011	-0.82633	-0.24865
133.000	-0.90737	-0.33816	-1.05362	-0.15117
134.000	-1.03584	-0.40975	-1.17022	-0.12730
135.000	-1.17022	-0.40575	-1.27496	-0.16906
136.000	-1.13860	-0.41371	-1.24729	-0.12530
137.000	-1.08327	-0.36797	-1.18406	-0.16708
138.000	-0.98050	-0.42766	-1.07339	-0.05172
139.000	-0.80459	-0.39187	-0.96073	-0.01591
140.000	-0.60889	-0.37996	-0.77296	0.00199
141.000	-0.37760	-0.37798	-0.55552	0.04178
142.000	-0.08501	-0.33024	-0.35783	0.04775
143.000	0.10083	-0.32427	-0.18781	0.06963
144.000	0.28271	-0.30637	0.00791	-0.00796
145.000	0.44086	-0.33620	0.16211	0.10942
146.000	0.60296	-0.29840	0.28666	-0.02586
147.000	0.69587	-0.28447	0.37167	-0.02188
148.000	0.72947	-0.28446	0.44679	-0.04576
149.000	0.77691	-0.27451	0.50215	-0.11936
150.000	0.69389	-0.29441	0.45668	-0.07361
151.000	0.68994	-0.30237	0.40133	-0.11936
152.000	0.62668	-0.34216	0.39144	-0.19496
153.000	0.51203	-0.32426	0.25503	-0.20889
154.000	0.42505	-0.33819	0.16211	-0.22281
155.000	0.38551	-0.34814	0.12257	-0.16910
156.000	0.21549	-0.34417	0.07710	-0.21884
157.000	0.18979	-0.34417	-0.03756	-0.20093
158.000	0.12455	-0.33024	-0.08106	-0.19297
159.000	0.06722	-0.27255	-0.15421	-0.17109
160.000	0.08303	-0.28250	-0.15223	-0.20491
161.000	0.04349	-0.27454	-0.27085	-0.14921
162.000	0.04745	-0.25266	-0.21945	-0.15120
163.000	0.02372	-0.33024	-0.31829	-0.14722
164.000	0.01384	-0.29841	-0.27282	-0.15915
165.000	0.02175	-0.29244	-0.33609	-0.08753
166.000	-0.01582	-0.32030	-0.37365	-0.11340
167.000	-0.01582	-0.30239	-0.37365	-0.00995
168.000	-0.01977	-0.37003	-0.32027	-0.11539
169.000	0.01779	-0.32825	-0.32818	-0.03979
170.000	0.02966	-0.31632	-0.37563	-0.09947
171.000	0.04943	-0.30438	-0.31632	-0.10544
172.000	0.03756	-0.32030	-0.33411	-0.02188
173.000	0.01779	-0.33621	-0.26294	-0.11141
174.000	0.00395	-0.30239	-0.23131	-0.14125
175.000	0.05536	-0.29244	-0.26492	-0.11936
176.000	0.05536	-0.32030	-0.26492	-0.11141
177.000	0.06920	-0.27653	-0.30643	-0.09748
178.000	0.08106	-0.28250	-0.26294	-0.11936
179.000	0.06524	-0.31831	-0.23922	-0.10743
180.000	0.05536	-0.30239	-0.30050	-0.11539
181.000	0.06920	-0.30836	-0.31039	-0.08554
182.000	0.04152	-0.26260	-0.21154	-0.07560
183.000	0.09292	-0.34815	-0.30248	-0.17308
184.000	0.08897	-0.29841	-0.24317	-0.13727
185.000	0.05536	-0.29443	-0.26294	-0.10146
186.000	0.04745	-0.29046	-0.17991	-0.12135
187.000	0.09292	-0.29443	-0.26096	-0.10544
188.000	0.09292	-0.32427	-0.21747	-0.13528
189.000	0.04349	-0.32229	-0.17002	-0.15716
190.000	0.12653	-0.30239	-0.17595	-0.10942
191.000	0.05733	-0.30637	-0.20758	-0.09151
192.000	0.08897	-0.29045	-0.24317	-0.15915
193.000	0.11862	-0.31831	-0.23724	-0.15517
194.000	0.10083	-0.32427	-0.20956	-0.08952
195.000	0.07710	-0.29841	-0.20956	-0.15716
196.000	0.10874	-0.28449	-0.23724	-0.13130
197.000	0.13641	-0.32427	-0.27480	-0.15716
198.000	0.07513	-0.31433	-0.24119	-0.16512
199.000	0.10083	-0.33422	-0.23329	-0.11340
200.000	0.10280	-0.31234	-0.26887	-0.16512
201.000	0.10676	-0.32228	-0.18979	-0.19695
202.000	0.13048	-0.33422	-0.27876	-0.08554
203.000	0.12060	-0.32228	-0.14432	-0.15915
204.000	0.09490	-0.30239	-0.19968	-0.17706
205.000	0.11071	-0.35411	-0.21352	-0.10345
206.000	0.09094	-0.33024	-0.26492	-0.10544
207.000	0.08303	-0.26658	-0.32620	-0.05968
208.000	0.11862	-0.31035	-0.26492	-0.11141
209.000	0.10083	-0.31831	-0.28864	-0.21088
210.000	0.08106	-0.28449	-0.22735	-0.21486
211.000	0.11467	-0.34616	-0.25701	-0.11141
212.000	0.11467	-0.29443	-0.32027	-0.15119
213.000	0.10280	-0.33223	-0.29852	-0.05968
214.000	0.09292	-0.32626	-0.26492	-0.07361
215.000	0.08699	-0.31035	-0.20956	-0.11937
216.000	0.10280	-0.29642	-0.23329	-0.14324
217.000	0.09490	-0.27056	-0.23922	-0.10146
218.000	0.10874	-0.30040	-0.24119	-0.14523
219.000	0.11467	-0.32228	-0.24317	-0.12732
220.000	0.13246	-0.31831	-0.30248	-0.12334
221.000	0.12850	-0.33223	-0.13246	-0.13926
222.000	0.10478	-0.36207	-0.22735	-0.14722
223.000	0.11664	-0.35213	-0.23526	-0.09748
224.000	0.11862	-0.32228	-0.17002	-0.12533
225.000	0.11664	-0.37401	-0.26689	-0.12533
226.000	0.10676	-0.33223	-0.25503	-0.14324
227.000	0.09490	-0.31433	-0.16014	-0.16512
228.000	0.09490	-0.35213	-0.24119	-0.15716
229.000	0.12653	-0.34218	-0.21154	-0.19496
230.000	0.12455	-0.36804	-0.16211	-0.15319
231.000	0.15223	-0.35411	-0.16804	-0.15716
232.000	0.12257	-0.33621	-0.17002	-0.13130
233.000	0.13246	-0.37799	-0.21945	-0.19496
234.000	0.15025	-0.33422	-0.20561	-0.14324
235.000	0.13246	-0.35610	-0.18979	-0.14722
236.000	0.13444	-0.34218	-0.17200	-0.18899
237.000	0.16014	-0.35411	-0.12257	-0.17308
238.000	0.13246	-0.38395	-0.19375	-0.05968
239.000	0.13444	-0.33422	-0.17595	-0.14324
240.000	0.17002	-0.34417	-0.26492	-0.13926
241.000	0.16804	-0.36605	-0.22933	-0.07759
242.000	0.15421	-0.35212	-0.24317	-0.13130
243.000	0.18584	-0.30239	-0.16607	-0.14722
244.000	0.14630	-0.33223	-0.16607	-0.14921
245.000	0.14037	-0.32825	-0.18386	-0.18899
246.000	0.13246	-0.34218	-0.15223	-0.20292
247.000	0.14037	-0.35809	-0.08106	-0.24470
248.000	0.16014	-0.33223	-0.09292	-0.13329
249.000	0.15816	-0.33820	-0.18979	-0.17905
250.000	0.18584	-0.31830	-0.07710	-0.13926
251.000	0.14037	-0.33820	-0.18188	-0.16512
252.000	0.16804	-0.31035	-0.21747	-0.12334
253.000	0.19177	-0.25663	-0.13641	-0.18104
254.000	0.13839	-0.32427	-0.10280	-0.18701
255.000	0.19572	-0.30040	-0.13444	-0.12136
256.000	0.14630	-0.33024	-0.03756	-0.11738
257.000	0.15025	-0.33422	-0.18386	-0.11539
258.000	0.15618	-0.31632	-0.12060	-0.10345
259.000	0.17398	-0.33820	-0.18584	-0.13528
260.000	0.17398	-0.32427	-0.12653	-0.13727
261.000	0.14827	-0.33621	-0.09490	-0.19098
262.000	0.14432	-0.33820	-0.15025	-0.13926
263.000	0.17793	-0.30637	-0.20956	-0.16114
264.000	0.16607	-0.35014	-0.15618	-0.09151
265.000	0.17793	-0.32029	-0.09094	-0.11539
266.000	0.15816	-0.37003	-0.10280	-0.16512
267.000	0.17595	-0.31831	-0.14827	-0.11141
268.000	0.17200	-0.33820	-0.13641	-0.15319
269.000	0.21352	-0.32228	-0.10083	-0.12732
270.000	0.17398	-0.37202	-0.02768	-0.11141
271.000	0.20165	-0.35013	-0.13641	-0.10743
272.000	0.20758	-0.34417	-0.06920	-0.15319
273.000	0.20956	-0.38793	-0.05338	-0.14324
274.000	0.18188	-0.40385	-0.08501	-0.12136
275.000	0.19177	-0.34815	-0.05536	-0.13329
276.000	0.20561	-0.34417	-0.08897	-0.15518
277.000	0.20956	-0.32029	-0.14630	-0.11738
278.000	0.20165	-0.35411	-0.11269	-0.12334
279.000	0.21352	-0.38196	-0.06722	-0.10942
280.000	0.17595	-0.35809	-0.16409	-0.09151
281.000	0.19177	-0.33223	-0.19770	-0.12334
282.000	0.20363	-0.37003	-0.05733	-0.11937
283.000	0.21352	-0.34616	-0.07908	-0.13130
284.000	0.19968	-0.38196	-0.14432	-0.10146
285.000	0.21549	-0.35809	-0.10676	-0.07361
286.000	0.21747	-0.36008	-0.07315	-0.07759
287.000	0.17991	-0.38594	-0.18188	-0.15120
288.000	0.20561	-0.41777	-0.09885	-0.06764
289.000	0.21549	-0.41180	-0.13641	-0.04576
290.000	0.20363	-0.37799	-0.15025	-0.08952
291.000	0.22735	-0.38992	-0.06129	-0.06963
292.000	0.17398	-0.39788	-0.04349	-0.09151
293.000	0.17991	-0.39191	-0.06524	-0.09151
294.000	0.24317	-0.38196	-0.12257	-0.17905
295.000	0.16211	-0.42175	-0.13444	-0.11141
296.000	0.21352	-0.39788	-0.11664	-0.10544
297.000	0.17200	-0.37799	-0.04152	-0.10942
298.000	0.17793	-0.42374	-0.09490	-0.12732
299.000	0.18584	-0.35212	-0.06524	-0.12334
300.000	0.25305	-0.36207	-0.05140	-0.13130
301.000	0.19177	-0.38196	-0.09094	-0.10743
302.000	0.21747	-0.42573	-0.03559	-0.14523
303.000	0.20758	-0.38594	-0.01186	-0.12533
304.000	0.22538	-0.38395	-0.05338	-0.10345
305.000	0.18979	-0.35610	-0.05140	-0.06167
306.000	0.24119	-0.35809	-0.06524	-0.00597
307.000	0.20363	-0.39589	-0.06722	-0.02188
308.000	0.20165	-0.39390	-0.08501	-0.05968
309.000	0.20561	-0.39589	-0.08501	-0.11340
310.000	0.23131	-0.38196	-0.06326	-0.13130
311.000	0.23329	-0.38793	-0.05338	-0.12334
312.000	0.22142	-0.34814	-0.04349	-0.14523
313.000	0.22340	-0.32427	-0.04152	-0.10146
314.000	0.22142	-0.37997	0.01779	-0.15518
315.000	0.22538	-0.36406	-0.10676	-0.06963
316.000	0.24317	-0.36207	-0.04152	-0.10544
317.000	0.21154	-0.37600	-0.00198	-0.09947
318.000	0.25503	-0.43170	-0.08303	-0.15518
319.000	0.23724	-0.39390	-0.05931	-0.18900
320.000	0.24119	-0.37202	-0.03954	-0.18701
321.000	0.20956	-0.38196	-0.02768	-0.11141
322.000	0.25899	-0.37003	-0.03163	-0.12931
323.000	0.22933	-0.38594	-0.01582	-0.16910
324.000	0.22735	-0.39788	-0.00395	-0.12136
325.000	0.23526	-0.36804	-0.04547	-0.17109
326.000	0.25305	-0.37003	0.00000	-0.13727
327.000	0.24910	-0.40981	-0.06129	-0.11539
328.000	0.25503	-0.42971	-0.03559	-0.15120
329.000	0.23922	-0.42175	-0.06326	-0.17507
330.000	0.27282	-0.37997	0.02768	-0.14324
331.000	0.24317	-0.38992	-0.04547	-0.13926
332.000	0.23526	-0.42971	0.01977	-0.13727
333.000	0.22538	-0.39191	-0.05338	-0.11539
334.000	0.23526	-0.43369	-0.02175	-0.09350
335.000	0.24515	-0.39191	0.00989	-0.18502
336.000	0.25108	-0.42374	0.03361	-0.07560
337.000	0.24712	-0.37599	0.00198	-0.06963
338.000	0.25899	-0.40782	-0.02372	-0.13130
339.000	0.24515	-0.37003	-0.05140	-0.14125
340.000	0.28666	-0.39788	0.03756	-0.13329
341.000	0.23131	-0.45159	0.03954	-0.14523
342.000	0.23724	-0.40782	-0.02175	-0.13130
343.000	0.28073	-0.37400	0.06920	-0.12732
344.000	0.25108	-0.41578	0.00000	-0.15120
345.000	0.27480	-0.37202	0.01384	-0.16114
346.000	0.22340	-0.42175	-0.00791	-0.17308
347.000	0.23329	-0.41777	-0.01186	-0.09947
348.000	0.23131	-0.40584	-0.03756	-0.10942
349.000	0.23526	-0.45358	-0.01779	-0.17308
350.000	0.21945	-0.42772	-0.00198	-0.21088
351.000	0.23329	-0.41379	-0.02966	-0.12732
352.000	0.19770	-0.40783	0.03954	-0.21088
353.000	0.20561	-0.41578	-0.00593	-0.13727
354.000	0.22735	-0.43567	-0.07710	-0.16313
355.000	0.23526	-0.44164	0.00000	-0.17507
356.000	0.26294	-0.44164	-0.02966	-0.13926
357.000	0.24119	-0.41578	0.03954	-0.13926
358.000	0.27282	-0.41180	-0.03756	-0.10544
359.000	0.25108	-0.41777	0.02570	-0.18303
360.000	0.24119	-0.44164	0.05931	-0.17706
361.000	0.24515	-0.39589	-0.04745	-0.20690
362.000	0.21747	-0.43369	0.05733	-0.18701
363.000	0.22142	-0.42374	0.00593	-0.13727
364.000	0.20956	-0.42374	-0.03163	-0.15915
365.000	0.23922	-0.38196	0.03954	-0.08952
366.000	0.20561	-0.42573	-0.03361	-0.16512
367.000	0.20363	-0.40981	-0.07315	-0.13130
368.000	0.22142	-0.37798	-0.04349	-0.17706
369.000	0.24119	-0.39390	-0.03756	-0.15518
370.000	0.23131	-0.39191	-0.05733	-0.18303
371.000	0.21747	-0.43766	-0.09687	-0.12931
372.000	0.23131	-0.44761	0.04745	-0.18900
373.000	0.24515	-0.39390	-0.02966	-0.13329
374.000	0.21747	-0.40782	-0.04349	-0.15717
375.000	0.24119	-0.39589	0.05536	-0.10345
376.000	0.21154	-0.41578	-0.06920	-0.11937
377.000	0.20758	-0.42374	-0.06920	-0.16711
378.000	0.19572	-0.41976	-0.00989	-0.15915
379.000	0.22933	-0.41379	0.01186	-0.12931
380.000	0.20363	-0.41180	-0.04745	-0.12533
381.000	0.23724	-0.43170	0.03559	-0.13926
382.000	0.22735	-0.44562	0.00989	-0.12334
383.000	0.22340	-0.40981	-0.03756	-0.13926
384.000	0.19770	-0.45557	-0.03559	-0.14125
385.000	0.24712	-0.43965	-0.00593	-0.12732
386.000	0.22735	-0.46949	0.03756	-0.11141
387.000	0.20165	-0.42772	-0.02570	-0.17507
388.000	0.21154	-0.42573	0.05536	-0.12732
389.000	0.23922	-0.40782	0.04745	-0.11340
390.000	0.22142	-0.46551	0.01582	-0.19297
391.000	0.19572	-0.44363	-0.00791	-0.15120
392.000	0.24910	-0.44960	0.04152	-0.14523
393.000	0.21549	-0.42971	0.05733	-0.09549
394.000	0.19770	-0.44363	0.01384	-0.19297
395.000	0.22340	-0.46551	0.02768	-0.10544
396.000	0.22735	-0.43766	0.10083	-0.12931
397.000	0.21747	-0.45358	0.00395	-0.08356
398.000	0.22933	-0.45756	-0.01582	-0.15915
399.000	0.25305	-0.45756	-0.01384	-0.07560
400.000	0.21945	-0.45358	-0.07710	-0.17109
401.000	0.22735	-0.44761	-0.02372	-0.12533
402.000	0.22538	-0.45557	0.00000	-0.19496
403.000	0.21154	-0.43170	-0.03559	-0.08356
404.000	0.22340	-0.44363	0.01384	-0.14921
405.000	0.26492	-0.45557	0.05338	-0.14125
406.000	0.21154	-0.45756	0.01977	-0.13528
407.000	0.23922	-0.46154	0.03361	-0.10942
408.000	0.22735	-0.46154	0.08699	-0.14921
409.000	0.25108	-0.42573	-0.06326	-0.13727
410.000	0.24910	-0.42573	0.05733	-0.14722
411.000	0.26096	-0.43368	0.00989	-0.09947
412.000	0.23329	-0.42175	0.04152	-0.19894
413.000	0.26887	-0.44562	0.03361	-0.14921
414.000	0.26294	-0.46153	0.05536	-0.13329
415.000	0.28271	-0.42772	0.03954	-0.13926
416.000	0.29852	-0.43766	0.02570	-0.16711
417.000	0.24317	-0.43369	0.01186	-0.15518
418.000	0.28271	-0.44363	0.07117	-0.17109
419.000	0.28864	-0.48938	0.00395	-0.19894
420.000	0.24119	-0.44562	0.00000	-0.11340
421.000	0.30841	-0.44960	0.01582	-0.24470
422.000	0.27876	-0.44562	0.02768	-0.08754
423.000	0.28073	-0.41578	0.01977	-0.07162
424.000	0.28666	-0.41777	0.04943	-0.14523
425.000	0.27282	-0.47745	0.04152	-0.17109
426.000	0.27480	-0.45159	0.02570	-0.11539
427.000	0.26294	-0.45557	0.02175	-0.15120
428.000	0.27678	-0.44164	-0.05931	-0.16313
429.000	0.30643	-0.42175	0.02570	-0.12334
430.000	0.24910	-0.43965	0.00198	-0.16910
431.000	0.29457	-0.42970	0.07117	-0.16711
432.000	0.26887	-0.40186	0.10676	-0.21685
433.000	0.28073	-0.40981	0.02966	-0.16910
434.000	0.28666	-0.41976	0.05536	-0.15717
435.000	0.30643	-0.39788	0.03559	-0.15717
436.000	0.29062	-0.38594	0.09885	-0.17706
437.000	0.32027	-0.39390	0.05931	-0.19695
438.000	0.29852	-0.40583	0.00198	-0.23276
439.000	0.32225	-0.44960	0.08699	-0.15716
440.000	0.30248	-0.41578	0.10478	-0.15915
441.000	0.33016	-0.41379	0.13839	-0.19496
442.000	0.33016	-0.42771	0.03559	-0.21287
443.000	0.33213	-0.40185	0.07315	-0.16313
444.000	0.34399	-0.44363	0.09687	-0.16910
445.000	0.33609	-0.48142	0.03954	-0.16114
446.000	0.30841	-0.45556	0.05140	-0.14324
447.000	0.31236	-0.46949	0.04152	-0.21287
448.000	0.31039	-0.46551	-0.02768	-0.21884
449.000	0.36179	-0.45954	0.03954	-0.20491
450.000	0.33806	-0.50132	0.02966	-0.15120
451.000	0.34004	-0.43368	0.05931	-0.23276
452.000	0.36179	-0.45954	0.10874	-0.18701
453.000	0.33016	-0.45159	0.09490	-0.17308
454.000	0.29852	-0.46949	0.09885	-0.16512
455.000	0.32818	-0.44960	0.13246	-0.14722
456.000	0.34004	-0.45755	0.10676	-0.22878
457.000	0.36772	-0.44760	0.06722	-0.21287
458.000	0.36772	-0.42970	0.14234	-0.15915
459.000	0.30643	-0.44363	0.05536	-0.20889
460.000	0.36179	-0.42970	0.01582	-0.21685
461.000	0.33609	-0.41976	0.03756	-0.13926
462.000	0.35586	-0.43368	0.08106	-0.12136
463.000	0.35190	-0.42970	0.08303	-0.16910
464.000	0.37167	-0.42174	0.09687	-0.13130
465.000	0.32422	-0.43766	0.10874	-0.16711
466.000	0.38353	-0.41180	0.01384	-0.16313
467.000	0.36969	-0.43368	0.17002	-0.19894
468.000	0.37958	-0.46352	0.14234	-0.15518
469.000	0.34004	-0.44761	0.04349	-0.10544
470.000	0.36574	-0.46352	0.06326	-0.21685
471.000	0.36969	-0.45954	0.10676	-0.19496
472.000	0.34993	-0.42175	0.10083	-0.10146
473.000	0.35190	-0.46153	0.12653	-0.15518
474.000	0.36179	-0.44959	0.05140	-0.16313
475.000	0.34399	-0.42970	0.11862	-0.20292
476.000	0.33806	-0.43567	0.12257	-0.16711
477.000	0.32225	-0.43169	0.07513	-0.18701
478.000	0.35586	-0.50132	0.07710	-0.19894
479.000	0.35190	-0.49734	0.12850	-0.17109
480.000	0.34004	-0.46153	0.07908	-0.15120
481.000	0.36574	-0.44959	0.00791	-0.14523
482.000	0.32620	-0.47944	0.08897	-0.22480
483.000	0.31434	-0.47148	0.00395	-0.19894
484.000	0.32620	-0.46750	0.05140	-0.14324
485.000	0.31434	-0.46153	0.05536	-0.18701
486.000	0.27085	-0.46551	0.09687	-0.18701
487.000	0.27085	-0.49137	0.04547	-0.09947
488.000	0.31236	-0.51126	0.00198	-0.21287
489.000	0.29852	-0.50132	0.09687	-0.12533
490.000	0.28864	-0.51524	0.07117	-0.09748
491.000	0.27480	-0.49933	0.09094	-0.15518
492.000	0.31632	-0.50729	0.00791	-0.15120
493.000	0.25701	-0.50530	0.02372	-0.14125
494.000	0.28864	-0.48143	0.04943	-0.21088
495.000	0.29852	-0.47944	0.06722	-0.15915
496.000	0.29457	-0.51922	0.07513	-0.10345
497.000	0.26689	-0.53116	0.19177	-0.11141
498.000	0.27085	-0.48143	0.08897	-0.04974
499.000	0.28073	-0.52121	0.10478	-0.11539
500.000	0.27678	-0.48342	0.06129	-0.09350
501.000	0.30643	-0.48143	0.08699	-0.11738
502.000	0.30248	-0.51325	0.12653	-0.05173
503.000	0.28864	-0.48342	0.14234	-0.07162
504.000	0.24712	-0.46949	0.15421	-0.13528
505.000	0.29259	-0.48739	0.11664	-0.09549
506.000	0.30643	-0.51922	0.17991	-0.10942
507.000	0.28271	-0.47944	0.06722	-0.18104
508.000	0.29457	-0.49933	0.08106	-0.12334
509.000	0.27282	-0.49933	0.06920	-0.10345
510.000	0.29852	-0.52320	0.09885	-0.10942
511.000	0.28469	-0.47148	0.10280	-0.19695
512.000	0.31236	-0.49734	0.07710	-0.17706
513.000	0.29457	-0.54309	0.14630	-0.16711
514.000	0.25305	-0.50729	0.16014	-0.17308
515.000	0.31829	-0.50729	0.08897	-0.19496
516.000	0.29655	-0.46352	0.04745	-0.16910
517.000	0.30248	-0.47944	0.13246	-0.18104
518.000	0.26492	-0.47546	0.17793	-0.19098
519.000	0.33806	-0.52121	0.06524	-0.11937
520.000	0.31434	-0.47944	0.12653	-0.19098
521.000	0.33411	-0.45755	0.15816	-0.16910
522.000	0.30050	-0.46750	0.09292	-0.19098
523.000	0.30050	-0.43766	0.20363	-0.25464
524.000	0.33016	-0.44363	0.15223	-0.24868
525.000	0.31829	-0.44761	0.11269	-0.21685
526.000	0.34004	-0.41976	0.15223	-0.26061
527.000	0.32620	-0.42970	0.13246	-0.19894
528.000	0.35981	-0.45954	0.06129	-0.18303
529.000	0.33806	-0.42373	0.09687	-0.20292
530.000	0.36179	-0.40185	0.10083	-0.16512
531.000	0.36376	-0.39389	0.13444	-0.21088
532.000	0.35586	-0.40583	0.09094	-0.18502
533.000	0.37167	-0.39588	0.12060	-0.16910
534.000	0.34202	-0.40782	0.13839	-0.15915
535.000	0.35783	-0.40384	0.13048	-0.21685
536.000	0.32225	-0.42970	0.20363	-0.20292
537.000	0.36772	-0.42771	0.08699	-0.09947
538.000	0.35586	-0.40185	0.13444	-0.13727
539.000	0.37563	-0.41975	0.15223	-0.10345
540.000	0.35388	-0.46153	0.17595	-0.16910
541.000	0.31632	-0.40384	0.13246	-0.13926
542.000	0.34399	-0.43567	0.15223	-0.14324
543.000	0.33411	-0.41777	0.08699	-0.08555
544.000	0.34399	-0.40384	0.11862	-0.16313
545.000	0.32620	-0.44562	0.11862	-0.12334
546.000	0.34993	-0.44164	0.03756	-0.14523
547.000	0.33806	-0.41777	0.11071	-0.13926
548.000	0.34202	-0.45158	0.11467	-0.16512
549.000	0.34993	-0.43965	0.05733	-0.19695
550.000	0.34004	-0.44562	0.10478	-0.10146
551.000	0.32027	-0.43567	0.12257	-0.10942
552.000	0.33609	-0.44562	0.16409	-0.21088
553.000	0.34202	-0.44960	0.16211	-0.14722
554.000	0.35586	-0.40583	0.14037	-0.10146
555.000	0.39935	-0.40981	0.11071	-0.14125
556.000	0.34202	-0.41180	0.15223	-0.19098
557.000	0.35388	-0.43965	0.15223	-0.15518
558.000	0.35388	-0.45158	0.15223	-0.14921
559.000	0.36969	-0.43965	0.15618	-0.10544
560.000	0.35190	-0.51723	0.04943	-0.15518
561.000	0.41912	-0.45357	0.17200	-0.20690
562.000	0.39737	-0.44959	0.21154	-0.25862
563.000	0.41912	-0.50529	0.22142	-0.15716
564.000	0.38353	-0.51126	0.23526	-0.22679
565.000	0.38353	-0.48938	0.24119	-0.16711
566.000	0.36179	-0.42174	0.15816	-0.17308
567.000	0.42900	-0.49137	0.23131	-0.19297
568.000	0.39539	-0.50927	0.25108	-0.16512
569.000	0.37563	-0.53513	0.17991	-0.17905
570.000	0.39935	-0.50529	0.22538	-0.14722
571.000	0.37760	-0.52320	0.16409	-0.22480
572.000	0.36376	-0.55502	0.17200	-0.20889
573.000	0.37760	-0.54707	0.14234	-0.25663
574.000	0.34993	-0.57492	0.12653	-0.21287
575.000	0.36376	-0.56895	0.16804	-0.22281
576.000	0.33806	-0.59083	0.14037	-0.21486
577.000	0.34399	-0.60078	0.13641	-0.25067
578.000	0.34399	-0.57691	0.18979	-0.14324
579.000	0.32620	-0.57691	0.15223	-0.24470
580.000	0.39539	-0.54707	0.18781	-0.20889
581.000	0.35783	-0.55304	0.17991	-0.24470
582.000	0.35586	-0.55304	0.09094	-0.23873
583.000	0.36969	-0.54906	0.07710	-0.19099
584.000	0.34993	-0.52917	0.19968	-0.26658
585.000	0.40330	-0.55701	0.12257	-0.24470
586.000	0.35190	-0.56099	0.19968	-0.23077
587.000	0.35586	-0.54508	0.13641	-0.19297
588.000	0.32225	-0.55105	0.15618	-0.20292
589.000	0.36772	-0.56298	0.12850	-0.18900
590.000	0.36574	-0.55900	0.18188	-0.13727
591.000	0.35190	-0.55105	0.09292	-0.20690
592.000	0.34597	-0.59680	0.09292	-0.18900
593.000	0.38551	-0.56298	0.15025	-0.23077
594.000	0.35586	-0.53314	0.12455	-0.23077
595.000	0.37365	-0.57492	0.16607	-0.22281
596.000	0.37563	-0.51524	0.12850	-0.24470
597.000	0.34795	-0.55105	0.11862	-0.21088
598.000	0.33411	-0.53911	0.17793	-0.23276
599.000	0.33806	-0.55900	0.14432	-0.20292
600.000	0.35388	-0.56497	0.14432	-0.14125
601.000	0.36772	-0.54906	0.20758	-0.18303
602.000	0.36969	-0.58486	0.17595	-0.24072
603.000	0.40726	-0.49534	0.15223	-0.21685
604.000	0.39737	-0.55104	0.16607	-0.21685
605.000	0.39935	-0.53314	0.11664	-0.25465
606.000	0.36376	-0.58486	0.19177	-0.17905
607.000	0.39737	-0.49535	0.20758	-0.16910
608.000	0.39144	-0.50330	0.16014	-0.22878
609.000	0.39737	-0.58287	0.12257	-0.17109
610.000	0.35783	-0.52121	0.12455	-0.19496
611.000	0.39342	-0.52121	0.18979	-0.26459
612.000	0.37958	-0.53513	0.19968	-0.17109
613.000	0.38551	-0.55701	0.14234	-0.22282
614.000	0.36574	-0.59879	0.16409	-0.25266
615.000	0.39539	-0.51922	0.09094	-0.26857
616.000	0.40726	-0.49534	0.12850	-0.19297
617.000	0.38749	-0.54508	0.15618	-0.14722
618.000	0.40923	-0.50728	0.14432	-0.21884
619.000	0.40528	-0.51723	0.12060	-0.21088
620.000	0.40330	-0.47943	0.18188	-0.23276
621.000	0.39144	-0.53712	0.21945	-0.20292
622.000	0.39144	-0.54309	0.16409	-0.22679
623.000	0.35783	-0.53712	0.14827	-0.25266
624.000	0.37760	-0.55900	0.19375	-0.24271
625.000	0.36179	-0.54508	0.17398	-0.17507
626.000	0.34993	-0.50728	0.23922	-0.24868
627.000	0.38156	-0.54906	0.15816	-0.18701
628.000	0.36969	-0.55105	0.15025	-0.18303
629.000	0.36376	-0.53712	0.16211	-0.20889
630.000	0.36772	-0.51723	0.17002	-0.23873
631.000	0.35783	-0.54110	0.18584	-0.19894
632.000	0.38156	-0.52916	0.14037	-0.17507
633.000	0.31632	-0.54707	0.16211	-0.18104
634.000	0.34399	-0.54906	0.23329	-0.25067
635.000	0.36969	-0.50529	0.19177	-0.19894
636.000	0.34399	-0.49933	0.22340	-0.22480
637.000	0.39144	-0.53513	0.17595	-0.19297
638.000	0.34399	-0.51922	0.17595	-0.21884
639.000	0.40133	-0.53513	0.18584	-0.12732
640.000	0.36179	-0.54309	0.17991	-0.14722
641.000	0.34993	-0.50331	0.16804	-0.22083
642.000	0.35388	-0.53712	0.12060	-0.26459
643.000	0.33411	-0.51524	0.11467	-0.18701
644.000	0.39144	-0.54905	0.12653	-0.20889
645.000	0.36969	-0.51126	0.16804	-0.15319
646.000	0.33016	-0.49535	0.17595	-0.17109
647.000	0.35783	-0.50132	0.15618	-0.17308
648.000	0.36376	-0.49933	0.15618	-0.20889
649.000	0.36574	-0.49336	0.19572	-0.17507
650.000	0.37365	-0.52121	0.14827	-0.16512
651.000	0.35190	-0.48739	0.21945	-0.17308
652.000	0.38946	-0.50330	0.11664	-0.17507
653.000	0.40528	-0.50728	0.15025	-0.21287
654.000	0.34993	-0.49336	0.16409	-0.19297
655.000	0.38946	-0.50330	0.13444	-0.16910
656.000	0.37958	-0.52916	0.12653	-0.14921
657.000	0.36376	-0.52916	0.18781	-0.18899
658.000	0.40330	-0.51922	0.11467	-0.24271
659.000	0.36376	-0.54309	0.12257	-0.19098
660.000	0.37365	-0.54508	0.13444	-0.20093
661.000	0.35190	-0.53911	0.16804	-0.18701
662.000	0.38946	-0.51524	0.13246	-0.22282
663.000	0.36772	-0.53314	0.14630	-0.23077
664.000	0.33609	-0.55702	0.12455	-0.25465
665.000	0.37365	-0.55900	0.18979	-0.24669
666.000	0.40726	-0.59878	0.19968	-0.28250
667.000	0.45865	-0.64254	0.27678	-0.33223
668.000	0.53971	-0.76983	0.38946	-0.33222
669.000	0.63855	-0.88319	0.34004	-0.43965
670.000	0.82831	-1.00048	0.61482	-0.51522
671.000	1.01212	-1.26090	0.72157	-0.73798
672.000	1.13663	-1.42784	0.92318	-0.98455
673.000	1.30657	-1.60066	1.10303	-1.20719
674.000	1.51403	-1.80518	1.35795	-1.43169
675.000	1.67404	-2.05333	1.65824	-1.70572
676.000	1.86761	-2.31322	1.83798	-1.94591
677.000	2.07495	-2.60861	2.00979	-2.10060
678.000	2.18550	-2.87421	2.22499	-2.39209
679.000	2.34934	-3.06816	2.33552	-2.59824
680.000	2.47564	-3.26206	2.49143	-2.92513
681.000	2.55654	-3.50151	2.59600	-3.16865
682.000	2.58614	-3.72115	2.72226	-3.39610
683.000	2.68478	-3.85540	2.72818	-3.52280
684.000	2.68675	-3.97605	2.70451	-3.62778
685.000	2.72423	-4.06294	2.74790	-3.77409
686.000	2.70056	-4.18559	2.70845	-3.82763
687.000	2.78735	-4.24655	2.69662	-3.97404
688.000	2.76565	-4.33160	2.70056	-4.02545
689.000	2.77749	-4.34143	2.60192	-4.08114
690.000	2.76565	-4.38494	2.65322	-4.04340
691.000	2.74396	-4.34946	2.66111	-4.14223
692.000	2.76960	-4.37900	2.63941	-4.10079
693.000	2.82088	-4.36300	2.49538	-4.01423
694.000	2.84060	-4.32539	2.60784	-3.95455
695.000	2.79129	-4.32558	2.63743	-3.85951
696.000	2.83468	-4.23848	2.60784	-3.82003
697.000	2.83468	-4.17523	2.56049	-3.76872
698.000	2.79129	-4.16551	2.55260	-3.61635
699.000	2.78538	-4.04494	2.56641	-3.58266
700.000	2.73212	-4.00557	2.48354	-3.55516
701.000	2.71240	-3.95619	2.49538	-3.43038
702.000	2.68083	-3.85739	2.48946	-3.43832
703.000	2.63152	-3.81996	2.50327	-3.26596
704.000	2.63941	-3.73485	2.43420	-3.33745
705.000	2.59995	-3.70726	2.43223	-3.25623
706.000	2.60192	-3.71517	2.41052	-3.26222
707.000	2.58022	-3.73898	2.39078	-3.23057
708.000	2.58417	-3.73105	2.48354	-3.29770
709.000	2.63941	-3.68735	2.48354	-3.26006
710.000	2.64927	-3.75263	2.48748	-3.30562
711.000	2.67689	-3.77035	2.58417	-3.31924
712.000	2.71042	-3.84345	2.56641	-3.39851
713.000	2.77157	-3.89469	2.55654	-3.42230
714.000	2.73804	-3.91458	2.60981	-3.47958
715.000	2.77157	-3.93820	2.59206	-3.52319
716.000	2.79129	-3.93418	2.63152	-3.56267
717.000	2.78341	-3.96189	2.72029	-3.53866
718.000	2.83271	-4.03489	2.63546	-3.51317
719.000	2.83666	-4.05464	2.66900	-3.55663
720.000	2.86427	-4.04664	2.69070	-3.59616
721.000	2.85441	-4.12180	2.68873	-3.58824
722.000	2.86821	-4.13163	2.68873	-3.70502
723.000	2.86821	-4.15337	2.71437	-3.65348
724.000	2.86624	-4.15733	2.71240	-3.72078
725.000	2.85835	-4.15736	2.72423	-3.66731
726.000	2.85835	-4.19886	2.70451	-3.69112
727.000	2.85441	-4.16133	2.65913	-3.69125
728.000	2.84652	-4.20879	2.74593	-3.70682
729.000	2.86427	-4.20082	2.69070	-3.71095
730.000	2.88201	-4.18692	2.71240	-3.71088
731.000	2.87215	-4.19486	2.71634	-3.69702
732.000	2.88596	-4.18493	2.67886	-3.71890
733.000	2.87610	-4.21066	2.66703	-3.68925
734.000	2.87413	-4.23635	2.69464	-3.75447
735.000	2.88201	-4.19680	2.68478	-3.68722
736.000	2.87215	-4.21660	2.62757	-3.70916
737.000	2.84257	-4.19497	2.59995	-3.69341
738.000	2.88596	-4.20469	2.64927	-3.70316
739.000	2.84257	-4.19892	2.73804	-3.64550
740.000	2.89582	-4.18885	2.70648	-3.63767
741.000	2.85441	-4.13168	2.63152	-3.58841
742.000	2.88004	-4.17507	2.64335	-3.63984
743.000	2.85835	-4.15538	2.68873	-3.60210
744.000	2.88596	-4.17307	2.65716	-3.67147
745.000	2.88596	-4.15331	2.61771	-3.59835
746.000	2.89976	-4.15721	2.67097	-3.64174
747.000	2.87413	-4.10196	2.61376	-3.59044
748.000	2.90371	-4.12557	2.62757	-3.67749
749.000	2.89582	-4.10583	2.60587	-3.64985
750.000	2.92737	-4.14130	2.65322	-3.71106
751.000	2.91357	-4.15321	2.60981	-3.69140
752.000	2.91159	-4.14728	2.62954	-3.74082
753.000	2.89187	-4.13945	2.70648	-3.73267
754.000	2.92737	-4.12351	2.72226	-3.77813
755.000	2.90962	-4.11764	2.65124	-3.72294
756.000	2.91554	-4.17099	2.58219	-3.78053
757.000	2.91159	-4.15914	2.71240	-3.72473
758.000	2.92342	-4.15119	2.65124	-3.70513
759.000	2.91751	-4.12552	2.71437	-3.71879
760.000	2.85638	-4.10993	2.62757	-3.75467
761.000	2.91751	-4.11761	2.67294	-3.76047
762.000	2.94314	-4.12345	2.68675	-3.75647
763.000	2.90568	-4.07022	2.65913	-3.75854
764.000	2.91751	-4.13145	2.73804	-3.73455
765.000	2.89187	-4.06631	2.67294	-3.68132
766.000	2.88990	-4.13353	2.65913	-3.61802
767.000	2.94906	-4.11355	2.73015	-3.78008
768.000	2.92737	-4.12944	2.68281	-3.68722
769.000	2.89976	-4.09791	2.67294	-3.74662
770.000	2.90765	-4.09195	2.73015	-3.72864
771.000	2.95497	-4.07399	2.68281	-3.75648
772.000	2.94511	-4.08391	2.72226	-3.71481
773.000	2.95892	-4.10165	2.68873	-3.75251
774.000	2.96089	-4.07595	2.70451	-3.76235
775.000	2.93131	-4.09977	2.62954	-3.79424
776.000	2.91159	-4.11368	2.67689	-3.78420
777.000	2.94906	-4.14517	2.68083	-3.78221
778.000	2.93131	-4.12152	2.72423	-3.83550
779.000	2.95497	-4.11155	2.68478	-3.81979
780.000	2.95892	-4.12932	2.68675	-3.78615
781.000	2.95892	-4.08584	2.66703	-3.87524
782.000	2.95892	-4.08188	2.73015	-3.81965
783.000	2.94511	-4.08984	2.69070	-3.80988
784.000	2.97075	-4.12137	2.58219	-3.78845
785.000	2.97075	-4.10556	2.64730	-3.78232
786.000	2.99638	-4.07581	2.62560	-3.79030
787.000	2.96286	-4.09570	2.65913	-3.80998
788.000	2.92342	-4.07806	2.67097	-3.84951
789.000	2.94314	-4.07008	2.68478	-3.83364
790.000	2.93328	-4.04837	2.72029	-3.84144
791.000	2.96089	-4.08385	2.70253	-3.85733
792.000	2.97469	-4.09764	2.63743	-3.83972
793.000	2.93526	-4.03650	2.60587	-3.80421
794.000	2.94906	-4.06413	2.68675	-3.85738
795.000	2.96286	-4.06408	2.65322	-3.81000
796.000	2.99046	-4.05805	2.64335	-3.82388
797.000	2.97075	-4.06405	2.65716	-3.83768
798.000	2.96878	-4.08580	2.77354	-3.81358
799.000	2.96483	-4.09570	2.66703	-3.80996
800.000	2.97272	-4.02846	2.74198	-3.85918
801.000	3.01215	-4.04413	2.66308	-3.78425
802.000	2.96089	-4.05025	2.71437	-3.79002
803.000	2.95892	-4.06805	2.62560	-3.82789
804.000	2.97469	-4.04229	2.63941	-3.80806
805.000	2.95892	-4.01862	2.73607	-3.80974
806.000	2.94709	-4.01471	2.66111	-3.85350
807.000	2.96483	-4.02058	2.75382	-3.78990
808.000	2.97469	-4.01857	2.64730	-3.81793
809.000	2.98061	-4.02052	2.65519	-3.85154
810.000	2.97666	-3.97506	2.73607	-3.80578
811.000	2.93920	-3.99695	2.69267	-3.81383
812.000	2.95695	-4.03840	2.59600	-3.79632
813.000	2.95695	-4.00479	2.64335	-3.81399
814.000	2.99046	-4.01851	2.66505	-3.81590
815.000	3.02595	-4.05396	2.64138	-3.78629
816.000	2.95892	-4.02653	2.64138	-3.79025
817.000	2.98061	-4.05017	2.58417	-3.79240
818.000	2.94314	-4.01868	2.65913	-3.81394
819.000	2.97469	-4.05613	2.62954	-3.80809
820.000	2.91357	-4.00495	2.70845	-3.83357
821.000	2.98652	-3.98294	2.64730	-3.82189
822.000	2.97469	-4.03636	2.64927	-3.75857
823.000	2.99244	-4.01652	2.60192	-3.83785
824.000	3.00229	-4.00265	2.63743	-3.81598
825.000	2.97666	-3.97506	2.68281	-3.81782
826.000	2.96089	-3.95930	2.71437	-3.81970
827.000	3.01215	-3.97296	2.64533	-3.78232
828.000	2.98652	-4.00073	2.65519	-3.80406
829.000	3.03187	-3.97091	2.61968	-3.82395
830.000	2.98652	-3.97700	2.62165	-3.77844
831.000	2.99638	-3.97697	2.60981	-3.79430
832.000	3.01807	-3.97491	2.69267	-3.80790
833.000	2.99638	-4.01849	2.65913	-3.77041
834.000	3.00229	-3.98288	2.69070	-3.77427
835.000	2.97666	-3.92167	2.62362	-3.80811
836.000	3.02004	-3.98281	2.60390	-3.87346
837.000	3.00229	-3.95717	2.63152	-3.81600
838.000	3.02398	-3.98280	2.62560	-3.79228
839.000	2.97075	-4.00869	2.63743	-3.78828
840.000	3.01018	-3.99669	2.58614	-3.82603
841.000	3.00426	-3.96705	2.61573	-3.77252
842.000	3.00624	-3.99473	2.61771	-3.83385
843.000	2.96878	-4.01266	2.61573	-3.82792
844.000	2.98652	-4.00271	2.56444	-3.87358
845.000	3.02989	-3.98080	2.52695	-3.77278
846.000	3.01412	-3.93340	2.58417	-3.80427
847.000	3.01807	-3.98282	2.63941	-3.85357
848.000	3.02201	-3.92547	2.65124	-3.83177
849.000	3.03975	-3.98670	2.64533	-3.88124
850.000	3.00032	-3.91764	2.63546	-3.83182
851.000	3.02201	-3.95710	2.57035	-3.78453
852.000	3.00821	-3.94727	2.53287	-3.85389
853.000	3.01412	-3.94329	2.59008	-3.76270
854.000	3.03384	-3.92938	2.56641	-3.79641
855.000	3.01412	-3.92352	2.59600	-3.78643
856.000	3.03581	-3.94914	2.52695	-3.80444
857.000	3.01018	-3.95121	2.60587	-3.83388
858.000	3.02004	-3.92547	2.55852	-3.82216
859.000	3.00821	-4.00263	2.59206	-3.81018
860.000	3.00624	-3.94925	2.61968	-3.82395
861.000	3.04567	-3.93922	2.60784	-3.84575
862.000	3.00624	-3.94134	2.59008	-3.81217
863.000	3.07721	-3.93317	2.63546	-3.80610
864.000	3.01412	-3.91759	2.58219	-3.84978
865.000	3.03581	-3.92542	2.57430	-3.89927
866.000	3.01609	-3.94724	2.63152	-3.82787
867.000	3.01412	-3.95713	2.62560	-3.78436
868.000	3.04567	-3.91945	2.52300	-3.83215
869.000	3.04172	-3.90760	2.59798	-3.85765
870.000	3.01609	-3.95317	2.52300	-3.81039
871.000	3.04961	-3.89768	2.54273	-3.85386
872.000	3.04172	-3.95703	2.54273	-3.81825
873.000	3.02595	-3.93732	2.58022	-3.82803
874.000	3.04764	-3.90560	2.53681	-3.81233
875.000	3.02398	-3.92546	2.56246	-3.88150
876.000	3.03384	-3.94915	2.56444	-3.79246
877.000	3.05552	-3.94709	2.65716	-3.87923
878.000	3.04764	-3.91153	2.54471	-3.83803
879.000	3.06144	-3.93126	2.51511	-3.82031
880.000	3.01215	-3.95121	2.56641	-3.84588
881.000	3.05947	-3.92335	2.58219	-3.80032
882.000	3.04369	-3.92737	2.55852	-3.79841
883.000	3.06144	-3.93126	2.53681	-3.87564
884.000	3.06144	-3.91148	2.60981	-3.78639
885.000	3.06538	-3.95299	2.52497	-3.83413
886.000	3.07327	-3.87387	2.52497	-3.84798
887.000	3.07327	-3.89364	2.52103	-3.83810
888.000	3.09298	-3.90148	2.57035	-3.84586
889.000	3.10283	-3.91924	2.51905	-3.82821
890.000	3.06144	-3.90357	2.61573	-3.88529
891.000	3.07327	-3.92528	2.53681	-3.86575
892.000	3.07129	-3.93320	2.54865	-3.86571
893.000	3.03187	-3.90566	2.59403	-3.89327
894.000	3.05947	-3.92335	2.54273	-3.88354
895.000	3.05355	-3.90558	2.53287	-3.81432
896.000	3.07129	-3.93122	2.53287	-3.77276
897.000	3.05552	-3.91941	2.55852	-3.86370
898.000	3.06341	-3.89566	2.53287	-3.85587
899.000	3.03975	-3.90761	2.63349	-3.85556
900.000	3.03581	-3.92937	2.55457	-3.83800
901.000	3.06341	-3.87984	2.53287	-3.81036
902.000	3.07918	-3.93910	2.63349	-3.84171
903.000	3.06932	-3.92925	2.53089	-3.92709
904.000	3.09101	-3.86985	2.57430	-3.89333
905.000	3.12255	-3.92708	2.53287	-3.83410
906.000	3.08115	-3.93316	2.57430	-3.90520
907.000	3.08509	-3.89755	2.50722	-3.84407
908.000	3.13437	-3.90330	2.55457	-3.84987
909.000	3.07327	-3.86398	2.50524	-3.86782
910.000	3.08509	-3.87185	2.50524	-3.90343
911.000	3.08706	-3.87777	2.56641	-3.83005
912.000	3.11072	-3.84407	2.49340	-3.84213
913.000	3.09692	-3.86389	2.54668	-3.81428
914.000	3.10086	-3.84608	2.47564	-3.84812
915.000	3.07918	-3.86791	2.52103	-3.87767
916.000	3.07918	-3.85605	2.52892	-3.86577
917.000	3.08706	-3.84613	2.54076	-3.89541
918.000	3.08904	-3.86788	2.48946	-3.85797
919.000	3.08115	-3.87977	2.54076	-3.84002
920.000	3.07918	-3.87780	2.48551	-3.91536
921.000	3.05355	-3.86998	2.50130	-3.85003
922.000	3.12649	-3.85390	2.52695	-3.82027
923.000	3.06144	-3.87391	2.50524	-3.83814
924.000	3.07721	-3.84419	2.50130	-3.79462
925.000	3.07721	-3.90549	2.46380	-3.82045
926.000	3.06735	-3.89564	2.48748	-3.86589
927.000	3.10875	-3.83023	2.53089	-3.84202
928.000	3.09889	-3.84411	2.49735	-3.89356
929.000	3.10481	-3.82036	2.46578	-3.86398
930.000	3.08706	-3.85800	2.50722	-3.86386
931.000	3.12452	-3.85193	2.54865	-3.84593
932.000	3.07327	-3.86794	2.53879	-3.85981
933.000	3.09889	-3.83818	2.43815	-3.87395
934.000	3.08312	-3.83824	2.49735	-3.87378
935.000	3.10678	-3.83815	2.52300	-3.90338
936.000	3.11466	-3.86185	2.57035	-3.89730
937.000	3.06144	-3.82843	2.50722	-3.87573
938.000	3.12058	-3.83019	2.49340	-3.79069
939.000	3.11269	-3.83220	2.48156	-3.83227
940.000	3.07918	-3.82836	2.51313	-3.83416
941.000	3.10481	-3.84805	2.53681	-3.78265
942.000	3.13437	-3.81036	2.49538	-3.82036
943.000	3.12649	-3.84994	2.46972	-3.85605
944.000	3.10875	-3.85001	2.50919	-3.87374
945.000	3.07524	-3.83233	2.48156	-3.81249
946.000	3.13437	-3.82223	2.48354	-3.88371
947.000	3.08312	-3.81846	2.50524	-3.87771
948.000	3.08115	-3.84220	2.46972	-3.82439
949.000	3.10283	-3.81839	2.54076	-3.83804
950.000	3.08115	-3.79078	2.53879	-3.81034
951.000	3.16985	-3.80628	2.54668	-3.80636
952.000	3.26445	-3.75847	2.62560	-3.79228
953.000	3.35115	-3.80559	2.75776	-3.74834
954.000	3.49101	-3.76748	2.87413	-3.73016
955.000	3.75487	-3.70708	3.15211	-3.73910
956.000	4.06579	-3.68990	3.29204	-3.66145
957.000	4.32535	-3.64324	3.47329	-3.62912
958.000	4.64956	-3.65545	3.77653	-3.51322
959.000	4.97347	-3.55501	4.06972	-3.50210
960.000	5.24806	-3.50809	4.42166	-3.38786
961.000	5.59682	-3.44689	4.64367	-3.30580
962.000	5.88062	-3.40969	4.95581	-3.26873
963.000	6.09963	-3.32356	5.17551	-3.28145
964.000	6.23251	-3.31287	5.32254	-3.25106
965.000	6.34580	-3.23726	5.39310	-3.22107
966.000	6.35947	-3.21549	5.55961	-3.18267
967.000	6.32432	-3.16840	5.57136	-3.17471
968.000	6.16999	-3.10820	5.42249	-3.14588
969.000	6.04685	-3.08130	5.36958	-3.14813
970.000	5.84736	-3.05084	5.27746	-3.21772
971.000	5.67905	-3.01226	5.07549	-3.21875
972.000	5.50281	-3.03292	4.84395	-3.28311
973.000	5.36370	-3.00596	4.70455	-3.27389
974.000	5.22453	-2.97305	4.61814	-3.23674
975.000	5.11864	-3.04468	4.55135	-3.29634
976.000	5.06568	-3.04691	4.48455	-3.25315
977.000	4.98721	-3.12237	4.46883	-3.29474
978.000	5.00879	-3.13807	4.45311	-3.33237
979.000	4.98132	-3.20143	4.44132	-3.33242
980.000	5.07353	-3.21678	4.46686	-3.35998
981.000	5.09902	-3.27394	4.50420	-3.35783
982.000	5.13041	-3.31920	4.49437	-3.29462
983.000	5.22061	-3.33650	4.65153	-3.44408
984.000	5.25198	-3.33041	4.66920	-3.27010
985.000	5.26766	-3.35007	4.65742	-3.31561
986.000	5.35194	-3.32987	4.63778	-3.29990
987.000	5.37350	-3.31001	4.71633	-3.35881
988.000	5.39114	-3.34742	4.81450	-3.32474
989.000	5.34410	-3.35360	4.77327	-3.35063
990.000	5.44012	-3.34518	4.83806	-3.33648
991.000	5.42445	-3.32750	4.83806	-3.30092
992.000	5.47343	-3.24235	4.78702	-3.28141
993.000	5.45971	-3.25625	4.81254	-3.30104
994.000	5.51652	-3.23028	4.85965	-3.25932
995.000	5.51260	-3.18884	4.81057	-3.25956
996.000	5.53023	-3.17690	4.83020	-3.23970
997.000	5.55961	-3.17872	4.80468	-3.22204
998.000	5.57724	-3.19047	4.84591	-3.25544
999.000	5.63011	-3.20400	4.84787	-3.20405
1000.000	5.60661	-3.17452	4.83413	-3.25747
1001.000	5.60661	-3.17057	4.87339	-3.25530
1002.000	5.64381	-3.16839	4.94993	-3.26283
1003.000	5.61053	-3.13699	4.85965	-3.25735
1004.000	5.63011	-3.15268	4.78309	-3.21819
1005.000	5.62815	-3.19414	4.86161	-3.30871
1006.000	5.57528	-3.16284	4.79094	-3.22803
1007.000	5.58311	-3.14504	4.83217	-3.23772
1008.000	5.58899	-3.18843	4.78309	-3.26166
1009.000	5.56744	-3.20237	4.81254	-3.34253
1010.000	5.55373	-3.17875	4.84983	-3.33642
1011.000	5.52044	-3.19472	4.87535	-3.31654
1012.000	5.53023	-3.17098	4.74775	-3.27171
1013.000	5.57136	-3.18261	4.79094	-3.26953
1014.000	5.54394	-3.17288	4.77327	-3.26566
1015.000	5.52827	-3.21245	4.77524	-3.31703
1016.000	5.53415	-3.16899	4.84983	-3.34433
1017.000	5.55178	-3.23206	4.83413	-3.31477
1018.000	5.54394	-3.18670	4.77916	-3.29725
1019.000	5.51456	-3.19278	4.68491	-3.34710
1020.000	5.52436	-3.15325	4.79291	-3.26755
1021.000	5.53023	-3.16309	4.75560	-3.24203
1022.000	5.51848	-3.18289	4.76935	-3.34472
1023.000	5.50281	-3.19877	4.69080	-3.29570
1024.000	5.53023	-3.16901	4.83217	-3.30490
1025.000	5.53023	-3.21836	4.76149	-3.25979
1026.000	5.53415	-3.22821	4.74579	-3.25986
1027.000	5.50869	-3.23032	4.79880	-3.28925
1028.000	5.52240	-3.24406	4.72811	-3.28959
1029.000	5.50281	-3.25009	4.80468	-3.25366
1030.000	5.52631	-3.21048	4.85572	-3.29490
1031.000	5.53219	-3.20256	4.79880	-3.23590
1032.000	5.47538	-3.21471	4.79487	-3.32484
1033.000	5.47538	-3.21865	4.74382	-3.23221
1034.000	5.51260	-3.21648	4.78113	-3.25574
1035.000	5.53611	-3.21241	4.79094	-3.28929
1036.000	5.54786	-3.21432	4.77916	-3.35455
1037.000	5.53807	-3.17291	4.74971	-3.31122
1038.000	5.55765	-3.22413	4.82628	-3.38000
1039.000	5.53611	-3.21438	4.82432	-3.26739
1040.000	5.54590	-3.21827	4.75757	-3.24598
1041.000	5.54590	-3.25578	4.72026	-3.29358
1042.000	5.53023	-3.19072	4.74579	-3.26579
1043.000	5.56744	-3.19250	4.74775	-3.21440
1044.000	5.52044	-3.18288	4.70651	-3.27784
1045.000	5.57724	-3.13915	4.75560	-3.27365
1046.000	5.57724	-3.11743	4.78505	-3.35650
1047.000	5.57136	-3.18655	4.71241	-3.24223
1048.000	5.56744	-3.13722	4.76149	-3.28548
1049.000	5.55569	-3.16295	4.75560	-3.28551
1050.000	5.58899	-3.17264	4.77131	-3.33681
1051.000	5.57136	-3.18063	4.76346	-3.25583
1052.000	5.55765	-3.16886	4.74971	-3.24996
1053.000	5.57332	-3.18062	4.72222	-3.24614
1054.000	5.55373	-3.17283	4.73793	-3.30338
1055.000	5.59878	-3.17259	4.76346	-3.28152
1056.000	5.56353	-3.16291	4.75560	-3.27563
1057.000	5.56940	-3.17077	4.71437	-3.25606
1058.000	5.57919	-3.13519	4.80468	-3.32677
1059.000	5.59094	-3.16868	4.72222	-3.29357
1060.000	5.54786	-3.11166	4.70259	-3.32528
1061.000	5.59290	-3.12524	4.80272	-3.29714
1062.000	5.55961	-3.13529	4.72222	-3.27578
1063.000	5.53415	-3.16504	4.79291	-3.27545
1064.000	5.55961	-3.11950	4.77524	-3.20439
1065.000	5.55178	-3.11559	4.71241	-3.24619
1066.000	5.57332	-3.13917	4.68099	-3.21076
1067.000	5.55961	-3.14121	4.69080	-3.19292
1068.000	5.60465	-3.16861	4.73204	-3.16506
1069.000	5.53219	-3.16308	4.68295	-3.27004
1070.000	5.58507	-3.11344	4.69473	-3.27591
1071.000	5.55765	-3.15504	4.66724	-3.23454
1072.000	5.54198	-3.11564	4.70848	-3.22446
1073.000	5.54590	-3.14129	4.71044	-3.26794
1074.000	5.54198	-3.14920	4.72811	-3.19275
1075.000	5.53611	-3.20056	4.71044	-3.22446
1076.000	5.55178	-3.18468	4.70651	-3.20471
1077.000	5.56940	-3.16090	4.73008	-3.30934
1078.000	5.52631	-3.18482	4.75953	-3.27758
1079.000	5.52240	-3.17892	4.70651	-3.27388
1080.000	5.57919	-3.14111	4.77524	-3.21427
1081.000	5.58311	-3.13714	4.72222	-3.21057
1082.000	5.56744	-3.16289	4.75168	-3.24403
1083.000	5.54982	-3.13337	4.71437	-3.20863
1084.000	5.52436	-3.18286	4.75364	-3.21635
1085.000	5.53611	-3.12357	4.74186	-3.24803
1086.000	5.58311	-3.11740	4.73400	-3.24609
1087.000	5.55961	-3.20636	4.82039	-3.26149
1088.000	5.59094	-3.14105	4.75560	-3.23413
1089.000	5.56157	-3.15897	4.79487	-3.20628
1090.000	5.55569	-3.15110	4.68884	-3.26211
1091.000	5.49693	-3.18103	4.73793	-3.26781
1092.000	5.53415	-3.15517	4.72615	-3.17892
1093.000	5.53611	-3.19661	4.76346	-3.28547
1094.000	5.54982	-3.19259	4.77916	-3.26563
1095.000	5.56353	-3.19252	4.72615	-3.27181
1096.000	5.55765	-3.17478	4.69080	-3.23443
1097.000	5.57724	-3.17468	4.83020	-3.22982
1098.000	5.56940	-3.11945	4.74579	-3.27765
1099.000	5.60073	-3.14692	4.79683	-3.28729
1100.000	5.56940	-3.16485	4.79291	-3.24778
1101.000	5.59094	-3.13907	4.74579	-3.17686
1102.000	5.60269	-3.16862	4.73400	-3.35279
1103.000	5.55569	-3.13926	4.77524	-3.25182
1104.000	5.60073	-3.21995	4.80861	-3.30501
1105.000	5.56157	-3.16292	4.74971	-3.26380
1106.000	5.56157	-3.14318	4.73597	-3.25596
1107.000	5.55765	-3.14715	4.80861	-3.32279
1108.000	5.56940	-3.19841	4.79487	-3.33076
1109.000	5.56549	-3.17079	4.80468	-3.25563
1110.000	5.56744	-3.17868	4.72615	-3.30936
1111.000	5.55373	-3.17283	4.78505	-3.25770
1112.000	5.57528	-3.19443	4.78113	-3.28934
1113.000	5.57528	-3.19838	4.75757	-3.21633
1114.000	5.58507	-3.19043	4.68295	-3.24632
1115.000	5.57724	-3.17073	4.75953	-3.24201
1116.000	5.60465	-3.14887	4.69277	-3.25023
1117.000	5.54590	-3.15708	4.84395	-3.19023
1118.000	5.59682	-3.09561	4.79683	-3.25962
1119.000	5.55765	-3.14912	4.79291	-3.30114
1120.000	5.60465	-3.17650	4.76542	-3.30917
1121.000	5.57919	-3.12926	4.80468	-3.22401
1122.000	5.61836	-3.09550	4.73400	-3.30340
1123.000	5.59290	-3.14104	4.78898	-3.24583
1124.000	5.60269	-3.11927	4.77916	-3.31108
1125.000	5.58899	-3.12132	4.68295	-3.25423
1126.000	5.60269	-3.16664	4.71044	-3.26794
1127.000	5.61640	-3.16460	4.73597	-3.29746
1128.000	5.61640	-3.12314	4.70848	-3.27190
1129.000	5.59878	-3.14100	4.75757	-3.22819
1130.000	5.61248	-3.08566	4.73793	-3.30535
1131.000	5.59486	-3.18248	4.72026	-3.29951
1132.000	5.63402	-3.14871	4.74382	-3.23813
1133.000	5.58899	-3.15882	4.72419	-3.27578
1134.000	5.59094	-3.15881	4.75560	-3.23610
1135.000	5.58115	-3.12925	4.82039	-3.25753
1136.000	5.62032	-3.12510	4.75560	-3.23808
1137.000	5.61053	-3.12712	4.75953	-3.24794
1138.000	5.61248	-3.11922	4.77524	-3.27751
1139.000	5.58507	-3.12134	4.78702	-3.27943
1140.000	5.61444	-3.15276	4.82432	-3.31877
1141.000	5.59290	-3.09958	4.66920	-3.30370
1142.000	5.60857	-3.08370	4.67313	-3.23649
1143.000	5.63011	-3.09346	4.66724	-3.25430
1144.000	5.59878	-3.10745	4.70259	-3.23042
1145.000	5.63794	-3.11118	4.78702	-3.27153
1146.000	5.60073	-3.08967	4.73204	-3.25598
1147.000	5.60465	-3.11136	4.70651	-3.34305
1148.000	5.57724	-3.13520	4.78505	-3.27746
1149.000	5.57136	-3.18458	4.69670	-3.29567
1150.000	5.63402	-3.11515	4.70651	-3.28179
1151.000	5.64185	-3.11116	4.72419	-3.22044
1152.000	5.61444	-3.11131	4.71633	-3.23431
1153.000	5.58703	-3.12922	4.73793	-3.30338
1154.000	5.62423	-3.10534	4.72026	-3.31729
1155.000	5.61640	-3.16460	4.76149	-3.29734
1156.000	5.61444	-3.11131	4.69277	-3.27197
1157.000	5.61640	-3.14288	4.74775	-3.26776
1158.000	5.57528	-3.11547	4.76346	-3.32894
1159.000	5.63206	-3.14083	4.67706	-3.30959
1160.000	5.63990	-3.16842	4.73008	-3.28958
1161.000	5.62423	-3.13297	4.72419	-3.20067
1162.000	5.62032	-3.18037	4.72026	-3.26196
1163.000	5.62423	-3.13692	4.73400	-3.24806
1164.000	5.62423	-3.12113	4.62992	-3.28807
1165.000	5.60661	-3.14294	4.76935	-3.18268
1166.000	5.63794	-3.08552	4.76346	-3.34870
1167.000	5.65164	-3.15256	4.70848	-3.25016
1168.000	5.63990	-3.13486	4.71437	-3.30942
1169.000	5.62619	-3.09743	4.76346	-3.24792
1170.000	5.67318	-3.13271	4.83217	-3.29502
1171.000	5.65947	-3.13476	4.69473	-3.24232
1172.000	5.65360	-3.13676	4.75757	-3.30921
1173.000	5.65752	-3.16043	4.73204	-3.33304
1174.000	5.70254	-3.08320	4.63581	-3.23666
1175.000	5.65947	-3.15055	4.73400	-3.38046
1176.000	5.66926	-3.14062	4.75364	-3.22228
1177.000	5.64381	-3.11905	4.72615	-3.30146
1178.000	5.65556	-3.16044	4.64171	-3.33743
1179.000	5.63206	-3.11911	4.66135	-3.36500
1180.000	5.65164	-3.13875	4.75364	-3.32109
1181.000	5.62423	-3.12113	4.69670	-3.35297
1182.000	5.64185	-3.13288	4.74775	-3.26381
1183.000	5.67514	-3.12283	4.69080	-3.23048
1184.000	5.61836	-3.09352	4.80272	-3.28528
1185.000	5.63598	-3.13488	4.64367	-3.26627
1186.000	5.63794	-3.18027	4.67509	-3.29182
1187.000	5.64381	-3.13484	4.81057	-3.35242
1188.000	5.63598	-3.12896	4.68884	-3.30361
1189.000	5.64381	-3.10918	4.74186	-3.30731
1190.000	5.62227	-3.14088	4.63581	-3.30781
1191.000	5.64577	-3.11114	4.72419	-3.27578
1192.000	5.63794	-3.11908	4.65153	-3.30181
1193.000	5.63794	-3.09934	4.71437	-3.30151
1194.000	5.62815	-3.12703	4.68099	-3.27598
1195.000	5.65164	-3.13085	4.65742	-3.36304
1196.000	5.64773	-3.09337	4.71437	-3.30151
1197.000	5.63206	-3.11911	4.70259	-3.34109
1198.000	5.66535	-3.12091	4.71437	-3.29361
1199.000	5.63990	-3.09538	4.80468	-3.33269
1200.000	5.62032	-3.14089	4.79094	-3.39005
1201.000	5.66339	-3.20776	4.77720	-3.39802
1202.000	5.63206	-3.17241	4.72026	-3.36274
1203.000	5.64381	-3.11313	4.78113	-3.33478
1204.000	5.64968	-3.10520	4.83413	-3.33255
1205.000	5.62227	-3.13890	4.84198	-3.43128
1206.000	5.63402	-3.13094	4.72222	-3.41212
1207.000	5.63794	-3.11908	4.75953	-3.29142
1208.000	5.62032	-3.17247	4.79487	-3.31693
1209.000	5.62815	-3.10137	4.76935	-3.40794
1210.000	5.66143	-3.10316	4.70848	-3.34897
1211.000	5.64185	-3.15064	4.78113	-3.33873
1212.000	5.61444	-3.19421	4.73793	-3.34290
1213.000	5.65752	-3.17621	4.84395	-3.41942
1214.000	5.62032	-3.12904	4.79291	-3.40782
1215.000	5.62619	-3.15665	4.77131	-3.35854
1216.000	5.61053	-3.16858	4.69670	-3.36483
1217.000	5.68297	-3.15042	4.78898	-3.34660
1218.000	5.66143	-3.15251	4.74186	-3.33695
1219.000	5.63402	-3.14871	4.75168	-3.34085
1220.000	5.61444	-3.15079	4.70848	-3.39046
1221.000	5.64185	-3.17827	4.70651	-3.36676
1222.000	5.66535	-3.12485	4.74971	-3.40409
1223.000	5.63794	-3.14671	4.72615	-3.34493
1224.000	5.64381	-3.19405	4.70062	-3.36679
1225.000	5.66535	-3.15643	4.73990	-3.31720
1226.000	5.63011	-3.16847	4.71830	-3.38844
1227.000	5.62032	-3.16655	4.82432	-3.34643
1228.000	5.62619	-3.09151	4.79487	-3.34460
1229.000	5.65360	-3.13873	4.81057	-3.41564
1230.000	5.63990	-3.15657	4.79683	-3.34854
1231.000	5.64577	-3.14272	4.83806	-3.34833
1232.000	5.65164	-3.13875	4.73597	-3.30339
1233.000	5.64381	-3.08746	4.80272	-3.35839
1234.000	5.66143	-3.12882	4.85180	-3.38383
1235.000	5.62619	-3.13493	4.72615	-3.40815
1236.000	5.62815	-3.10729	4.80665	-3.40380
1237.000	5.59682	-3.17852	4.71830	-3.30742
1238.000	5.67318	-3.18600	4.78702	-3.31697
1239.000	5.63206	-3.12701	4.75953	-3.35662
1240.000	5.66926	-3.14852	4.77524	-3.33284
1241.000	5.63598	-3.14080	4.81843	-3.32867
1242.000	5.67905	-3.11689	4.76738	-3.26569
1243.000	5.63598	-3.17831	4.78702	-3.32883
1244.000	5.63402	-3.18226	4.80861	-3.39589
1245.000	5.66535	-3.14854	4.80665	-3.32873
1246.000	5.60857	-3.18635	4.74775	-3.35273
1247.000	5.63011	-3.15860	4.78309	-3.36639
1248.000	5.54982	-3.15311	4.73400	-3.37058
1249.000	5.46559	-3.10419	4.68884	-3.29570
1250.000	5.34802	-3.04554	4.63189	-3.37700
1251.000	5.26570	-3.03212	4.36663	-3.34857
1252.000	4.99505	-2.94644	4.23689	-3.24829
1253.000	4.70455	-2.87058	3.95758	-3.18018
1254.000	4.36074	-2.76904	3.70960	-3.12370
1255.000	3.99497	-2.59805	3.30583	-3.00028
1256.000	3.58949	-2.45857	2.90173	-2.84487
1257.000	3.14423	-2.27725	2.45196	-2.63372
1258.000	2.72029	-2.07174	1.99991	-2.46785
1259.000	2.29407	-1.82025	1.70960	-2.30945
1260.000	1.90908	-1.61807	1.22555	-2.06764
1261.000	1.50810	-1.32029	0.81645	-1.75793
1262.000	1.18406	-1.13160	0.48238	-1.56325
1263.000	0.81842	-0.94480	0.12653	-1.14377
1264.000	0.55947	-0.64452	-0.19968	-0.89915
1265.000	0.33213	-0.35411	-0.42109	-0.63658
1266.000	0.11071	-0.21287	-0.73343	-0.45951
1267.000	-0.14234	-0.10942	-0.84412	-0.15118
1268.000	-0.32225	0.00796	-1.04967	0.01989
1269.000	-0.45865	0.03780	-1.31448	0.02784
1270.000	-0.67215	0.15914	-1.47254	0.09944
1271.000	-0.72354	0.21484	-1.62071	0.15312
1272.000	-0.94492	0.22477	-1.77281	0.15709
1273.000	-1.11291	0.21880	-2.06310	0.11730
1274.000	-1.27100	0.15116	-2.19340	0.05566
1275.000	-1.41129	0.17701	-2.24670	0.05367
1276.000	-1.47452	0.13723	-2.32171	-0.08150
1277.000	-1.48835	0.15711	-2.31973	-0.06957
1278.000	-1.45674	0.03779	-2.42236	-0.07951
1279.000	-1.39351	0.12530	-2.43815	-0.12125
1280.000	-1.36783	0.07160	-2.30394	-0.26835
1281.000	-1.28879	0.05569	-2.19735	-0.18488
1282.000	-1.13860	0.00995	-2.21512	-0.21072
1283.000	-1.03979	-0.05172	-1.94660	-0.12327
1284.000	-0.97259	-0.03779	-1.78466	-0.19089
1285.000	-0.88958	-0.02188	-1.69182	-0.15909
1286.000	-0.82831	-0.03581	-1.61478	-0.11136
1287.000	-0.84412	-0.07758	-1.44093	-0.08751
1288.000	-0.72947	-0.05570	-1.39549	-0.11336
1289.000	-0.72947	-0.04774	-1.26903	-0.07757
1290.000	-0.77691	-0.05769	-1.36190	-0.12331
1291.000	-0.83424	-0.04973	-1.34214	-0.12530
1292.000	-0.88563	-0.06962	-1.39944	-0.08552
1293.000	-0.95283	-0.00199	-1.54762	-0.11336
1294.000	-0.97457	-0.06166	-1.46662	-0.17104
1295.000	-1.11489	0.02387	-1.62071	-0.13324
1296.000	-1.15639	0.03381	-1.70960	-0.13323
1297.000	-1.22555	0.03580	-1.83996	-0.08550
1298.000	-1.30855	0.02586	-1.91698	-0.05965
1299.000	-1.30064	0.11337	-1.92290	0.03977
1300.000	-1.30657	0.14917	-1.94660	0.04971
1301.000	-1.35992	0.14320	-2.01571	0.06959
1302.000	-1.34214	0.19889	-2.14405	0.12922
1303.000	-1.39746	0.19292	-2.14010	0.16898
1304.000	-1.39351	0.28639	-2.10259	0.22267
1305.000	-1.37178	0.33214	-2.13615	0.26839
1306.000	-1.39351	0.25059	-2.15589	0.26043
1307.000	-1.38166	0.29435	-2.13615	0.23260
1308.000	-1.43500	0.32218	-2.25657	0.27433
1309.000	-1.43698	0.28838	-2.14997	0.29025
1310.000	-1.40142	0.28838	-2.18748	0.32205
1311.000	-1.41129	0.30230	-2.13220	0.27634
1312.000	-1.39746	0.28440	-2.10061	0.25845
1313.000	-1.37968	0.31026	-2.06310	0.20279
1314.000	-1.38166	0.24861	-2.06507	0.23858
1315.000	-1.35795	0.27049	-2.08284	0.22863
1316.000	-1.28286	0.27646	-2.03743	0.22267
1317.000	-1.30064	0.21480	-2.07692	0.20875
1318.000	-1.30855	0.25856	-2.05520	0.21671
1319.000	-1.26903	0.25657	-2.02953	0.28630
1320.000	-1.26903	0.29237	-1.99399	0.23660
1321.000	-1.28681	0.33812	-2.04533	0.20080
1322.000	-1.26705	0.26652	-1.96832	0.20081
1323.000	-1.24334	0.26055	-1.99597	0.26443
1324.000	-1.24532	0.25856	-2.05915	0.24653
1325.000	-1.24927	0.21481	-1.99794	0.21274
1326.000	-1.25717	0.25856	-1.99399	0.22069
1327.000	-1.22358	0.20685	-1.96832	0.17298
1328.000	-1.27891	0.22674	-2.03546	0.18490
1329.000	-1.20579	0.16906	-1.95252	0.22070
1330.000	-1.22358	0.19094	-1.98214	0.19087
1331.000	-1.22753	0.18497	-1.95450	0.21076
1332.000	-1.19394	0.25459	-1.97622	0.21672
1333.000	-1.21172	0.25260	-1.90908	0.16901
1334.000	-1.20184	0.16509	-1.97819	0.21871
1335.000	-1.24927	0.17901	-2.00386	0.23461
1336.000	-1.24334	0.16508	-1.89328	0.15310
1337.000	-1.22753	0.21282	-1.97029	0.15906
1338.000	-1.23148	0.21083	-1.90710	0.19287
1339.000	-1.20382	0.23470	-1.92488	0.24058
1340.000	-1.23346	0.24663	-1.97622	0.21672
1341.000	-1.20382	0.22674	-2.04928	0.22267
1342.000	-1.27891	0.21282	-1.92290	0.23462
1343.000	-1.27891	0.17304	-1.97819	0.28631
1344.000	-1.21567	0.24862	-2.01571	0.23858
1345.000	-1.24532	0.16707	-2.04730	0.19882
1346.000	-1.26310	0.20884	-2.00386	0.23461
1347.000	-1.23346	0.21481	-2.03743	0.26443
1348.000	-1.25717	0.23271	-2.02163	0.20081
1349.000	-1.24532	0.23669	-2.09074	0.27436
1350.000	-1.22160	0.23072	-2.00386	0.23461
1351.000	-1.27298	0.23668	-1.95647	0.16304
1352.000	-1.28088	0.24663	-2.00979	0.17496
1353.000	-1.26705	0.27248	-2.02361	0.15906
1354.000	-1.25520	0.29237	-1.99991	0.22666
1355.000	-1.23148	0.27448	-2.02361	0.19882
1356.000	-1.20975	0.28243	-2.00386	0.23859
1357.000	-1.24334	0.25459	-1.99794	0.22268
1358.000	-1.22358	0.26652	-2.04533	0.22069
1359.000	-1.23939	0.25658	-1.96240	0.17894
1360.000	-1.30460	0.25657	-1.95647	0.24853
1361.000	-1.27496	0.25061	-2.00781	0.22666
1362.000	-1.22555	0.21879	-2.00189	0.26046
1363.000	-1.21172	0.24464	-2.03941	0.24852
1364.000	-1.23741	0.25260	-2.06112	0.21671
1365.000	-1.24532	0.28044	-1.98609	0.22467
1366.000	-1.28681	0.21878	-2.00189	0.21473
1367.000	-1.30855	0.25856	-1.99004	0.24058
1368.000	-1.27298	0.23271	-1.91698	0.20082
1369.000	-1.26508	0.30828	-2.05718	0.20478
1370.000	-1.31843	0.21480	-1.96635	0.21871
1371.000	-1.24927	0.25459	-1.96635	0.21076
1372.000	-1.28484	0.23072	-2.04928	0.22466
1373.000	-1.25322	0.24066	-1.97622	0.18491
1374.000	-1.27100	0.21878	-1.97622	0.23660
1375.000	-1.28879	0.20685	-1.95845	0.18292
1376.000	-1.27693	0.20685	-2.02756	0.17098
1377.000	-1.26508	0.24265	-2.00979	0.18093
1378.000	-1.26310	0.22475	-2.05520	0.19086
1379.000	-1.28088	0.22276	-1.91698	0.23064
1380.000	-1.24532	0.23867	-1.96240	0.26245
1381.000	-1.24927	0.20884	-2.05125	0.25846
1382.000	-1.29274	0.17701	-1.95647	0.20280
1383.000	-1.25322	0.20884	-1.99597	0.23262
1384.000	-1.23939	0.23868	-1.99202	0.17496
1385.000	-1.29076	0.19491	-2.01966	0.19087
1386.000	-1.30657	0.20486	-2.09864	0.26243
1387.000	-1.24729	0.21680	-2.02361	0.17098
1388.000	-1.26903	0.24663	-2.01374	0.21671
1389.000	-1.22358	0.19890	-2.02953	0.23659
1390.000	-1.25124	0.23072	-1.97029	0.22268
1391.000	-1.25915	0.24265	-2.01374	0.24057
1392.000	-1.26705	0.23469	-2.00781	0.24455
1393.000	-1.23741	0.24265	-1.99991	0.23063
1394.000	-1.26903	0.22674	-2.02558	0.20876
1395.000	-1.31448	0.27049	-2.01966	0.13719
1396.000	-1.30262	0.22475	-2.03348	0.16303
1397.000	-1.22555	0.29636	-2.02953	0.23460
1398.000	-1.28088	0.26850	-2.05125	0.21671
1399.000	-1.26705	0.26055	-1.95450	0.24853
1400.000	-1.26112	0.23867	-2.01769	0.18490
1401.000	-1.31052	0.21082	-2.06507	0.20279
1402.000	-1.31645	0.22077	-1.96240	0.15111
1403.000	-1.31250	0.23668	-2.04138	0.26244
1404.000	-1.30262	0.22674	-2.03743	0.20677
1405.000	-1.30460	0.21082	-1.92093	0.18889
1406.000	-1.27298	0.25458	-2.03151	0.21273
1407.000	-1.29669	0.18497	-1.99202	0.16303
1408.000	-1.32633	0.23071	-1.98807	0.15508
1409.000	-1.31250	0.24464	-2.02953	0.21472
1410.000	-1.28681	0.22674	-1.91303	0.19088
1411.000	-1.32238	0.21082	-2.03546	0.20876
1412.000	-1.26903	0.22276	-2.01571	0.20081
1413.000	-1.32436	0.19491	-2.06507	0.18887
1414.000	-1.31448	0.19093	-2.05520	0.17893
1415.000	-1.32040	0.23469	-1.95055	0.20877
1416.000	-1.30855	0.19889	-1.92290	0.11333
1417.000	-1.33226	0.21480	-1.99399	0.21672
1418.000	-1.28484	0.19690	-1.96635	0.21672
1419.000	-1.35399	0.22673	-1.93278	0.12526
1420.000	-1.30657	0.21878	-1.91500	0.24655
1421.000	-1.36190	0.19292	-1.92685	0.14713
1422.000	-1.35597	0.16905	-1.94857	0.15707
1423.000	-1.26310	0.16707	-1.99991	0.20479
1424.000	-1.38166	0.20087	-2.03743	0.21075
1425.000	-1.32238	0.25060	-1.93475	0.24058
1426.000	-1.35795	0.18099	-2.01966	0.23063
1427.000	-1.36190	0.18894	-1.92488	0.18491
1428.000	-1.37968	0.17900	-2.06705	0.22665
1429.000	-1.29867	0.22475	-2.00584	0.21075
1430.000	-1.31052	0.22276	-1.98214	0.17894
1431.000	-1.32436	0.19292	-1.95845	0.17497
1432.000	-1.31843	0.17502	-1.95450	0.19684
1433.000	-1.34214	0.21082	-2.01176	0.24654
1434.000	-1.32831	0.23469	-1.94067	0.17099
1435.000	-1.34412	0.19491	-1.99004	0.16105
1436.000	-1.34412	0.17701	-2.01966	0.19285
1437.000	-1.35399	0.16707	-1.94462	0.23263
1438.000	-1.39351	0.15513	-1.97029	0.23660
1439.000	-1.34609	0.16707	-1.97227	0.17894
1440.000	-1.32633	0.15315	-1.96635	0.17099
1441.000	-1.32436	0.15712	-1.99597	0.21274
1442.000	-1.34807	0.14917	-2.02953	0.20279
1443.000	-1.40932	0.18496	-2.00979	0.18291
1444.000	-1.37573	0.15314	-1.97819	0.19485
1445.000	-1.32633	0.15513	-1.96042	0.22467
1446.000	-1.35795	0.11138	-1.93080	0.25649
1447.000	-1.36585	0.17502	-1.96042	0.19286
1448.000	-1.37178	0.13524	-1.90118	0.21673
1449.000	-1.33819	0.19889	-1.96635	0.24257
1450.000	-1.37178	0.15911	-1.99399	0.22467
1451.000	-1.42315	0.23070	-2.03348	0.26641
1452.000	-1.51008	0.21677	-2.12628	0.28032
1453.000	-1.53774	0.32416	-2.15392	0.31411
1454.000	-1.63651	0.40766	-2.27039	0.41546
1455.000	-1.71553	0.43349	-2.39276	0.47306
1456.000	-1.75898	0.54483	-2.52497	0.58232
1457.000	-1.88933	0.57064	-2.58417	0.60216
1458.000	-1.98017	0.64019	-2.72423	0.77098
1459.000	-2.05718	0.73160	-2.87413	0.77684
1460.000	-2.17366	0.74148	-2.86032	0.87419
1461.000	-2.15984	0.88261	-2.89582	0.92581
1462.000	-2.24867	0.89051	-2.94117	0.96947
1463.000	-2.17169	0.93229	-3.01412	1.01112
1464.000	-2.21906	1.00580	-2.94117	1.06680
1465.000	-2.24867	0.93225	-2.99046	1.07867
1466.000	-2.23683	0.95809	-2.88399	1.08671
1467.000	-2.17169	0.89453	-2.87018	1.00926
1468.000	-2.12825	0.84685	-2.84060	1.15627
1469.000	-2.05915	0.88665	-2.74001	0.97958
1470.000	-1.97819	0.87476	-2.77749	0.97557
1471.000	-1.98807	0.81910	-2.58417	0.95784
1472.000	-1.98609	0.80717	-2.57233	0.87838
1473.000	-1.94462	0.71376	-2.52892	0.79892
1474.000	-1.94265	0.72370	-2.66703	0.85645
1475.000	-1.92093	0.72967	-2.55062	0.81679
1476.000	-1.88143	0.69391	-2.48551	0.80292
1477.000	-1.90513	0.66805	-2.50327	0.78105
1478.000	-1.97227	0.67200	-2.54273	0.72539
1479.000	-1.95647	0.65411	-2.61573	0.73131
1480.000	-1.95252	0.68592	-2.57627	0.71742
1481.000	-1.96042	0.64815	-2.61968	0.72137
1482.000	-1.96437	0.65809	-2.66111	0.77897
1483.000	-1.99794	0.64217	-2.65124	0.66174
1484.000	-2.05125	0.69980	-2.64138	0.78693
1485.000	-2.01571	0.69584	-2.60587	0.76907
1486.000	-2.01571	0.65807	-2.67294	0.83857
1487.000	-2.07100	0.66202	-2.61179	0.82073
1488.000	-1.98017	0.70182	-2.61968	0.85450
1489.000	-2.01374	0.69584	-2.65913	0.81672
1490.000	-2.03546	0.71571	-2.62560	0.76707
1491.000	-2.00781	0.73361	-2.71240	0.78291
1492.000	-2.02756	0.74354	-2.67492	0.82466
1493.000	-2.08877	0.78923	-2.61179	0.87438
1494.000	-2.08679	0.78128	-2.67097	0.81473
1495.000	-2.08877	0.73954	-2.69859	0.91405
1496.000	-2.09271	0.77134	-2.75185	0.89414
1497.000	-2.07692	0.77930	-2.69464	0.84849
1498.000	-2.10654	0.79717	-2.72620	0.85045
1499.000	-2.07100	0.79719	-2.72818	0.84648
1500.000	-2.06310	0.80713	-2.67492	0.91009
1501.000	-2.06705	0.80713	-2.77157	0.87823
1502.000	-2.10851	0.78326	-2.71240	0.91404
1503.000	-2.09271	0.76736	-2.72029	0.89615
1504.000	-2.07692	0.79321	-2.64335	0.82269
1505.000	-2.08877	0.73357	-2.71042	0.82066
1506.000	-2.12036	0.79120	-2.74396	0.87428
1507.000	-2.09469	0.82103	-2.62560	0.79091
1508.000	-2.12628	0.79120	-2.72226	0.84052
1509.000	-2.14997	0.74348	-2.69662	0.81868
1510.000	-2.15194	0.75342	-2.74198	0.85243
1511.000	-2.11443	0.71368	-2.65124	0.82468
1512.000	-2.06112	0.79521	-2.75776	0.88818
1513.000	-2.08284	0.74948	-2.59600	0.84061
1514.000	-2.09864	0.74351	-2.73607	0.82462
1515.000	-2.08877	0.78923	-2.70451	0.78093
1516.000	-2.07889	0.77333	-2.64533	0.87435
1517.000	-2.11838	0.71567	-2.75382	0.81865
1518.000	-2.07100	0.77731	-2.76171	0.82460
1519.000	-2.05323	0.78329	-2.70845	0.83457
1520.000	-2.01374	0.76343	-2.76763	0.82062
1521.000	-2.08087	0.74749	-2.64533	0.90018
1522.000	-2.06310	0.77533	-2.71831	0.88622
1523.000	-2.06310	0.77732	-2.76565	0.85241
1524.000	-2.06902	0.78129	-2.67294	0.88427
1525.000	-2.05520	0.81111	-2.73015	0.85442
1526.000	-2.08679	0.75544	-2.72423	0.94780
1527.000	-2.05520	0.78726	-2.70845	0.84252
1528.000	-2.06310	0.80316	-2.71240	0.89417
1529.000	-2.08284	0.75147	-2.71831	0.82860
1530.000	-2.07889	0.77333	-2.67492	0.80876
1531.000	-2.08877	0.78327	-2.64927	0.84653
1532.000	-2.10654	0.76935	-2.65124	0.78494
1533.000	-2.05520	0.81310	-2.63152	0.82866
1534.000	-2.04928	0.76540	-2.71437	0.80675
1535.000	-2.11048	0.76537	-2.61771	0.87437
1536.000	-2.09074	0.73755	-2.66703	0.84851
1537.000	-2.10456	0.77332	-2.64927	0.78295
1538.000	-2.06112	0.76142	-2.64927	0.81872
1539.000	-2.08087	0.75544	-2.69464	0.86240
1540.000	-2.06705	0.80912	-2.68281	0.81075
1541.000	-2.07692	0.76340	-2.65124	0.83064
1542.000	-2.07495	0.76340	-2.66111	0.86639
1543.000	-2.06310	0.78726	-2.65124	0.82468
1544.000	-2.06902	0.76340	-2.66900	0.87235
1545.000	-2.12233	0.75741	-2.69662	0.85445
1546.000	-2.06507	0.75943	-2.65519	0.81474
1547.000	-2.06507	0.78726	-2.66703	0.83063
1548.000	-2.09469	0.78923	-2.58417	0.80684
1549.000	-2.06705	0.72961	-2.69267	0.81471
1550.000	-2.02756	0.77932	-2.71634	0.84053
1551.000	-2.09469	0.73357	-2.69267	0.87432
1552.000	-2.11246	0.75543	-2.62362	0.85052
1553.000	-2.03941	0.74552	-2.66703	0.80678
1554.000	-2.08482	0.75147	-2.66505	0.84652
1555.000	-2.07889	0.79321	-2.66703	0.82467
1556.000	-2.04138	0.74552	-2.65322	0.81474
1557.000	-2.03546	0.76540	-2.60390	0.80682
1558.000	-2.06902	0.80514	-2.64730	0.74719
1559.000	-2.08482	0.74749	-2.64335	0.84852
1560.000	-2.04533	0.72962	-2.62954	0.81476
1561.000	-2.08679	0.75743	-2.62165	0.77502
1562.000	-2.04533	0.72763	-2.68083	0.82466
1563.000	-2.07100	0.70575	-2.68873	0.81670
1564.000	-2.09469	0.70574	-2.68281	0.73326
1565.000	-2.04533	0.73956	-2.66505	0.77499
1566.000	-2.07495	0.76936	-2.66308	0.78096
1567.000	-2.11641	0.74350	-2.67097	0.76307
1568.000	-2.03546	0.77336	-2.68873	0.81074
1569.000	-2.05323	0.76738	-2.66111	0.76904
1570.000	-2.07297	0.77135	-2.61968	0.76707
1571.000	-2.04335	0.74552	-2.66703	0.71936
1572.000	-2.09469	0.73953	-2.67689	0.81075
1573.000	-2.07889	0.77333	-2.61573	0.85252
1574.000	-2.04730	0.69980	-2.62757	0.78495
1575.000	-2.06310	0.76539	-2.63152	0.84257
1576.000	-2.07889	0.76737	-2.65124	0.77699
1577.000	-2.07692	0.77731	-2.58417	0.79094
1578.000	-2.09666	0.75742	-2.63743	0.81872
1579.000	-2.04730	0.72167	-2.62757	0.76310
1580.000	-2.08087	0.75147	-2.64138	0.79885
1581.000	-2.04928	0.72962	-2.62165	0.85251
1582.000	-2.05520	0.73757	-2.64533	0.73527
1583.000	-2.10259	0.72363	-2.64138	0.72335
1584.000	-2.11641	0.75344	-2.70648	0.82265
1585.000	-2.05520	0.79521	-2.70056	0.82464
1586.000	-2.09271	0.77929	-2.67886	0.87035
1587.000	-2.08482	0.77731	-2.69070	0.83856
1588.000	-2.08284	0.76936	-2.61968	0.81675
1589.000	-2.11246	0.73953	-2.58614	0.73530
1590.000	-2.09666	0.71966	-2.62560	0.81078
1591.000	-2.06902	0.76738	-2.65716	0.77500
1592.000	-2.04138	0.73956	-2.63152	0.73925
1593.000	-2.09864	0.70375	-2.54273	0.85654
1594.000	-2.08877	0.75743	-2.58022	0.77107
1595.000	-2.10061	0.76537	-2.67886	0.73326
1596.000	-2.08679	0.74948	-2.60390	0.77702
1597.000	-2.05125	0.76937	-2.65519	0.74321
1598.000	-2.05323	0.73757	-2.54076	0.70751
1599.000	-2.12430	0.76536	-2.67689	0.81870
1600.000	-2.09864	0.72959	-2.59008	0.79094
1601.000	-2.07297	0.72762	-2.65322	0.77103
1602.000	-2.11641	0.70374	-2.63941	0.77302
1603.000	-2.13023	0.74349	-2.60192	0.77106
1604.000	-2.10654	0.69580	-2.60784	0.81477
1605.000	-2.11048	0.66598	-2.59995	0.78100
1606.000	-2.08679	0.74749	-2.74001	0.77693
1607.000	-2.11048	0.71170	-2.69859	0.76703
1608.000	-2.11048	0.71567	-2.64730	0.78693
1609.000	-2.09469	0.66996	-2.61179	0.81477
1610.000	-2.08679	0.73358	-2.61573	0.83265
1611.000	-2.12233	0.69182	-2.64138	0.76110
1612.000	-2.12233	0.68585	-2.62362	0.77899
1613.000	-2.11641	0.71368	-2.63546	0.73726
1614.000	-2.13812	0.70572	-2.63546	0.75713
1615.000	-2.09469	0.69779	-2.70056	0.81868
1616.000	-2.15194	0.67988	-2.63349	0.80482
1617.000	-2.12825	0.74151	-2.64730	0.76308
1618.000	-2.14207	0.66398	-2.65322	0.79686
1619.000	-2.12825	0.69181	-2.70648	0.73920
1620.000	-2.14997	0.71566	-2.57825	0.78498
1621.000	-2.13220	0.70175	-2.59798	0.74920
1622.000	-2.11641	0.73356	-2.68478	0.81075
1623.000	-2.09074	0.66599	-2.62954	0.82072
1624.000	-2.11641	0.68983	-2.58417	0.76908
1625.000	-2.10654	0.71568	-2.68675	0.79088
1626.000	-2.10061	0.67393	-2.63152	0.82071
1627.000	-2.14207	0.68386	-2.60784	0.73131
1628.000	-2.14010	0.69777	-2.60981	0.79887
1629.000	-2.15787	0.71764	-2.58614	0.80087
1630.000	-2.13023	0.67790	-2.69464	0.85047
1631.000	-2.16379	0.68385	-2.66900	0.82864
1632.000	-2.14207	0.69777	-2.68083	0.82466
1633.000	-2.12430	0.70175	-2.66308	0.83659
1634.000	-2.20327	0.64606	-2.58219	0.78697
1635.000	-2.15392	0.68385	-2.71831	0.77297
1636.000	-2.18945	0.71961	-2.61771	0.83066
1637.000	-2.19143	0.69178	-2.70056	0.76702
1638.000	-2.18156	0.69775	-2.64730	0.73725
1639.000	-2.20919	0.67985	-2.57430	0.88632
1640.000	-2.16379	0.68782	-2.57233	0.80883
1641.000	-2.15392	0.68783	-2.61968	0.81675
1642.000	-2.19735	0.67588	-2.64730	0.80084
1643.000	-2.17169	0.68185	-2.58614	0.80087
1644.000	-2.18945	0.64010	-2.71042	0.83656
1645.000	-2.22499	0.65997	-2.62362	0.78098
1646.000	-2.16774	0.67391	-2.63941	0.80481
1647.000	-2.20327	0.68184	-2.63743	0.77104
1648.000	-2.22104	0.69376	-2.56838	0.82672
1649.000	-2.18748	0.63812	-2.61376	0.79887
1650.000	-2.14997	0.65404	-2.59995	0.75119
1651.000	-2.19143	0.61625	-2.57035	0.74922
1652.000	-2.17761	0.61228	-2.59008	0.80087
1653.000	-2.12233	0.61429	-2.60390	0.77702
1654.000	-2.17761	0.64408	-2.62560	0.81674
1655.000	-2.23091	0.59834	-2.62757	0.78297
1656.000	-2.17563	0.61824	-2.60192	0.76510
1657.000	-2.23288	0.59834	-2.64730	0.86442
1658.000	-2.21512	0.64009	-2.54668	0.76314
1659.000	-2.18353	0.65005	-2.59008	0.75716
1660.000	-2.23288	0.62418	-2.62362	0.82668
1661.000	-2.19340	0.65402	-2.58219	0.85850
1662.000	-2.19735	0.64408	-2.64730	0.74520
1663.000	-2.24078	0.62816	-2.63743	0.78892
1664.000	-2.20130	0.66594	-2.57430	0.81877
1665.000	-2.21709	0.66593	-2.65322	0.77500
1666.000	-2.20722	0.64606	-2.58219	0.84062
1667.000	-2.22499	0.62816	-2.48156	0.78305
1668.000	-2.23486	0.62816	-2.55852	0.82275
1669.000	-2.21906	0.60431	-2.57825	0.80485
1670.000	-2.22499	0.61822	-2.65519	0.80878
1671.000	-2.18156	0.62818	-2.64730	0.78295
1672.000	-2.21117	0.62419	-2.61179	0.83066
1673.000	-2.19932	0.64408	-2.60981	0.82073
1674.000	-2.23091	0.61822	-2.60784	0.91809
1675.000	-2.23880	0.62617	-2.60192	0.77305
1676.000	-2.24867	0.60828	-2.57430	0.85851
1677.000	-2.24078	0.62617	-2.62560	0.81078
1678.000	-2.24867	0.59834	-2.57430	0.77108
1679.000	-2.27631	0.60031	-2.59403	0.81080
1680.000	-2.23288	0.63611	-2.61376	0.80682
1681.000	-2.25854	0.62616	-2.61376	0.79291
1682.000	-2.23091	0.65599	-2.57035	0.82473
1683.000	-2.23880	0.64008	-2.58417	0.81081
1684.000	-2.24473	0.57846	-2.61573	0.80086
1685.000	-2.22301	0.59437	-2.68083	0.76505
1686.000	-2.20327	0.61227	-2.63941	0.78296
1687.000	-2.20327	0.60829	-2.61771	0.84258
1688.000	-2.22893	0.62419	-2.54471	0.79693
1689.000	-2.24867	0.61424	-2.64335	0.86044
1690.000	-2.25065	0.65002	-2.64138	0.84654
1691.000	-2.19143	0.60035	-2.58614	0.78895
1692.000	-2.25854	0.63411	-2.63349	0.82469
1693.000	-2.24078	0.57250	-2.57233	0.78499
1694.000	-2.21117	0.61624	-2.59206	0.82273
1695.000	-2.21906	0.59835	-2.58022	0.79094
1696.000	-2.23880	0.55660	-2.66703	0.75711
1697.000	-2.27236	0.58044	-2.63743	0.69553
1698.000	-2.23683	0.64207	-2.58022	0.80287
1699.000	-2.23683	0.59437	-2.62757	0.81873
1700.000	-2.24473	0.59635	-2.60587	0.81278
1701.000	-2.28815	0.58640	-2.66308	0.77102
1702.000	-2.25854	0.60827	-2.56838	0.84063
1703.000	-2.22301	0.59040	-2.60981	0.77503
1704.000	-2.23880	0.58840	-2.62757	0.73528
1705.000	-2.23486	0.59039	-2.58614	0.82869
1706.000	-2.24078	0.60232	-2.55654	0.80089
1707.000	-2.28815	0.58043	-2.59600	0.76311
1708.000	-2.26447	0.58839	-2.57035	0.77307
1709.000	-2.26644	0.57249	-2.55654	0.85256
1710.000	-2.25657	0.63610	-2.59206	0.82273
1711.000	-2.26052	0.60628	-2.56838	0.82076
1712.000	-2.22499	0.62021	-2.61179	0.79688
1713.000	-2.24867	0.58442	-2.60981	0.84060
1714.000	-2.25854	0.57249	-2.54865	0.79494
1715.000	-2.23288	0.56853	-2.58417	0.77504
1716.000	-2.21512	0.64407	-2.60390	0.80086
1717.000	-2.21117	0.62618	-2.65322	0.80083
1718.000	-2.23091	0.60630	-2.57825	0.77306
1719.000	-2.18945	0.63613	-2.54471	0.83071
1720.000	-2.23486	0.58840	-2.60390	0.79888
1721.000	-2.21906	0.62021	-2.62757	0.77899
1722.000	-2.26447	0.61821	-2.58811	0.77504
1723.000	-2.20327	0.66395	-2.57233	0.83466
1724.000	-2.24275	0.63412	-2.59403	0.77703
1725.000	-2.21117	0.59835	-2.56641	0.79294
1726.000	-2.22301	0.62220	-2.61376	0.80483
1727.000	-2.22499	0.58046	-2.61771	0.79489
1728.000	-2.25854	0.60430	-2.56049	0.78301
1729.000	-2.23683	0.58443	-2.65124	0.86839
1730.000	-2.24670	0.63014	-2.60784	0.87040
1731.000	-2.23288	0.65201	-2.64533	0.84654
1732.000	-2.24473	0.60629	-2.59995	0.78894
1733.000	-2.22893	0.61822	-2.59403	0.80683
1734.000	-2.19735	0.61426	-2.58417	0.85850
1735.000	-2.24275	0.59635	-2.56641	0.84261
1736.000	-2.21906	0.59835	-2.65913	0.85447
1737.000	-2.23683	0.57847	-2.55457	0.87640
1738.000	-2.18550	0.64607	-2.56641	0.82473
1739.000	-2.20919	0.64805	-2.66703	0.84652
1740.000	-2.19932	0.65799	-2.61376	0.79291
1741.000	-2.22893	0.63214	-2.56246	0.74923
1742.000	-2.19538	0.60035	-2.56838	0.82672
1743.000	-2.21117	0.65202	-2.64138	0.74322
1744.000	-2.26052	0.65001	-2.56641	0.76711
1745.000	-2.27236	0.62814	-2.56246	0.77903
1746.000	-2.26644	0.60429	-2.57825	0.80287
1747.000	-2.21906	0.63015	-2.58811	0.78100
1748.000	-2.24275	0.63611	-2.58417	0.79293
1749.000	-2.19143	0.58246	-2.56444	0.79294
1750.000	-2.21709	0.63612	-2.49735	0.74728
1751.000	-2.20327	0.59438	-2.61376	0.81675
1752.000	-2.19340	0.59438	-2.53879	0.74129
1753.000	-2.23288	0.56058	-2.53484	0.73732
1754.000	-2.17958	0.63415	-2.58417	0.74325
1755.000	-2.22499	0.56058	-2.56444	0.76313
1756.000	-2.22499	0.59040	-2.58022	0.74127
1757.000	-2.21117	0.58444	-2.54076	0.79693
1758.000	-2.25065	0.60629	-2.62954	0.78098
1759.000	-2.25657	0.60430	-2.59600	0.72536
1760.000	-2.24473	0.62617	-2.54471	0.82475
1761.000	-2.24275	0.57648	-2.60784	0.79490
1762.000	-2.18748	0.57252	-2.55457	0.84461
1763.000	-2.18550	0.61824	-2.48551	0.90228
1764.000	-1.99004	0.61037	-2.27433	0.86466
1765.000	-1.79651	0.63230	-2.11838	0.82897
1766.000	-1.58318	0.63237	-1.90710	0.87082
1767.000	-1.40537	0.64436	-1.68787	0.93057
1768.000	-0.99433	0.69219	-1.42710	0.85911
1769.000	-0.61878	0.71612	-1.01607	0.96265
1770.000	-0.25899	0.70024	-0.71366	0.91897
1771.000	0.17398	0.71019	-0.34597	0.97272
1772.000	0.64843	0.74197	0.13641	1.04632
1773.000	1.11687	0.74983	0.58122	0.93093
1774.000	1.53971	0.81134	1.02398	1.04218
1775.000	1.94857	0.80719	1.35399	1.06989
1776.000	2.39276	0.83279	1.77281	1.02197
1777.000	2.70253	0.90809	2.02953	0.98604
1778.000	2.97469	0.93369	2.37105	0.94409
1779.000	3.15803	1.01098	2.54076	0.95390
1780.000	3.32553	0.94926	2.69662	1.04120
1781.000	3.42010	0.97299	2.82088	0.85833
1782.000	3.35706	0.92739	2.83666	0.93778
1783.000	3.29992	0.87383	2.78932	0.84842
1784.000	3.16985	0.90969	2.61573	0.73528
1785.000	2.94314	0.85029	2.49143	0.81484
1786.000	2.69662	0.84253	2.17761	0.70372
1787.000	2.43618	0.76917	2.03941	0.75745
1788.000	2.18550	0.72757	1.78861	0.75160
1789.000	1.99991	0.70181	1.63059	0.76757
1790.000	1.78466	0.68201	1.43896	0.73383
1791.000	1.64441	0.62241	1.30657	0.76171
1792.000	1.53774	0.56876	1.19196	0.78561
1793.000	1.41129	0.57078	1.04374	0.72599
1794.000	1.41920	0.50913	1.00421	0.76577
1795.000	1.40734	0.51311	0.99038	0.73196
1796.000	1.36585	0.48527	0.93702	0.88511
1797.000	1.47452	0.53695	1.03781	0.82940
1798.000	1.54169	0.56875	1.04374	0.90099
1799.000	1.57923	0.55482	1.17418	0.88902
1800.000	1.70762	0.61245	1.29274	0.88898
1801.000	1.80638	0.59651	1.32831	0.90885
1802.000	1.87748	0.61239	1.46464	0.92868
1803.000	1.96832	0.61037	1.58120	0.96044
1804.000	2.05520	0.64811	1.68392	0.99419
1805.000	2.10654	0.67592	1.72540	0.99417
1806.000	2.19538	0.70371	1.78466	0.98221
1807.000	2.27236	0.74342	1.79256	1.04979
1808.000	2.33947	0.73544	1.85773	0.98614
1809.000	2.33355	0.78314	1.88735	1.01594
1810.000	2.37500	0.81889	1.95252	0.98410
1811.000	2.41841	0.75527	2.02756	0.97213
1812.000	2.42433	0.75725	1.94265	0.97417
1813.000	2.44012	0.77115	1.95055	0.99802
1814.000	2.49735	0.80689	1.95845	0.95826
1815.000	2.51708	0.78899	1.87946	0.99011
1816.000	2.50327	0.79894	1.97622	0.98210
1817.000	2.52695	0.75719	1.91698	0.94437
1818.000	2.54076	0.78898	1.87156	0.88674
1819.000	2.47170	0.81486	1.86563	0.94241
1820.000	2.51905	0.78701	1.94067	0.95032
1821.000	2.46578	0.68966	1.87946	0.90463
1822.000	2.49538	0.78901	1.88735	0.94240
1823.000	2.47367	0.74928	1.88143	0.89867
1824.000	2.48946	0.73536	1.86563	0.87283
1825.000	2.48551	0.76715	1.93870	0.90460
1826.000	2.51905	0.74726	1.86168	0.89271
1827.000	2.47762	0.77511	1.91500	0.82709
1828.000	2.49932	0.78106	1.85971	0.88874
1829.000	2.51313	0.77906	1.79848	0.90666
1830.000	2.44012	0.76321	1.89525	0.91456
1831.000	2.43618	0.76917	1.83601	0.83110
1832.000	2.42039	0.73341	1.80046	0.85497
1833.000	2.42433	0.75328	1.84391	0.85694
1834.000	2.41052	0.76322	1.76293	0.92855
1835.000	2.40263	0.75329	1.87748	0.94638
1836.000	2.40855	0.75925	1.78663	0.86492
1837.000	2.36908	0.76325	1.79453	0.93847
1838.000	2.41841	0.77514	1.84983	0.85694
1839.000	2.36908	0.74536	1.86761	0.87084
1840.000	2.36908	0.77716	1.76491	0.87089
1841.000	2.42039	0.71353	1.79058	0.86889
1842.000	2.36513	0.74934	1.81823	0.85496
1843.000	2.40657	0.77714	1.78466	0.84305
1844.000	2.40263	0.80099	1.79453	0.93251
1845.000	2.35921	0.77120	1.88933	0.91457
1846.000	2.37697	0.80299	1.83601	0.86490
1847.000	2.35921	0.79107	1.83206	0.86688
1848.000	2.36908	0.85069	1.85971	0.85296
1849.000	2.40065	0.85464	1.80243	0.84105
1850.000	2.40263	0.81092	1.83206	0.83110
1851.000	2.42039	0.81489	1.85576	0.84302
1852.000	2.43223	0.80892	1.83996	0.86887
1853.000	2.44210	0.80891	1.86563	0.85494
1854.000	2.43025	0.86456	1.93080	0.83702
1855.000	2.42039	0.81489	1.91895	0.83305
1856.000	2.49735	0.86253	1.80243	0.86690
1857.000	2.45986	0.82877	1.85181	0.82712
1858.000	2.42236	0.86457	1.83996	0.86688
1859.000	2.41644	0.85066	1.92685	0.85292
1860.000	2.37500	0.80895	1.86366	0.90066
1861.000	2.43025	0.85463	1.88735	0.88475
1862.000	2.40263	0.85464	1.81033	0.91461
1863.000	2.41052	0.83477	1.80441	0.85895
1864.000	2.43223	0.89437	1.82021	0.85695
1865.000	2.45394	0.87846	1.87748	0.82710
1866.000	2.40460	0.81291	1.78861	0.87287
1867.000	2.42828	0.85463	1.85181	0.81718
1868.000	2.43815	0.82879	1.81626	0.80725
1869.000	2.45196	0.84269	1.83798	0.85893
1870.000	2.41447	0.80098	1.83798	0.89273
1871.000	2.42433	0.79899	1.83403	0.86490
1872.000	2.42433	0.78706	1.84786	0.83905
1873.000	2.40263	0.83080	1.90908	0.87480
1874.000	2.45196	0.86455	1.85181	0.81320
1875.000	2.43420	0.86456	1.86761	0.86886
1876.000	2.42631	0.83277	1.86168	0.83506
1877.000	2.40460	0.77118	1.80243	0.85696
1878.000	2.42828	0.82482	1.81231	0.83707
1879.000	2.42433	0.82482	1.87551	0.81915
1880.000	2.46775	0.85063	1.86761	0.82910
1881.000	2.38486	0.82683	1.81231	0.77346
1882.000	2.39078	0.78112	1.90513	0.83305
1883.000	2.41052	0.80893	1.83206	0.84303
1884.000	2.44407	0.83474	1.84786	0.82911
1885.000	2.39671	0.80894	1.85971	0.78139
1886.000	2.43025	0.80296	1.89525	0.82908
1887.000	2.42631	0.79104	1.87748	0.81716
1888.000	2.44802	0.83673	1.91698	0.80721
1889.000	2.40263	0.77714	1.80046	0.81720
1890.000	2.41841	0.84668	1.88538	0.79529
1891.000	2.43223	0.79302	1.84193	0.84302
1892.000	2.41447	0.81688	1.84588	0.81718
1893.000	2.43420	0.81488	1.89328	0.84896
1894.000	2.42433	0.82681	1.86366	0.88675
1895.000	2.41249	0.82483	1.87551	0.88475
1896.000	2.43223	0.84667	1.88538	0.84499
1897.000	2.41249	0.82483	1.82811	0.88478
1898.000	2.39671	0.76124	1.84786	0.82513
1899.000	2.44999	0.82083	1.84983	0.88676
1900.000	2.39868	0.81490	1.76293	0.86493
1901.000	2.41841	0.78905	1.86761	0.84699
1902.000	2.36513	0.78113	1.83403	0.87682
1903.000	2.37894	0.77715	1.92093	0.94635
1904.000	2.39078	0.76125	1.82811	0.87086
1905.000	2.37302	0.82286	1.87353	0.88078
1906.000	2.39078	0.75528	1.86563	0.82910
1907.000	2.43815	0.79302	1.85378	0.86687
1908.000	2.37894	0.81889	1.89525	0.87679
1909.000	2.40460	0.77912	1.88341	0.79529
1910.000	2.43223	0.76321	1.94067	0.86484
1911.000	2.40657	0.77117	1.90513	0.82510
1912.000	2.41052	0.80098	1.86168	0.86886
1913.000	2.38092	0.73343	1.88933	0.85095
1914.000	2.43223	0.69365	1.85181	0.81519
1915.000	2.42039	0.74334	1.87353	0.85692
1916.000	2.43223	0.74135	1.91500	0.87082
1917.000	2.46775	0.75922	1.91500	0.78534
1918.000	2.41447	0.73341	1.83206	0.86291
1919.000	2.40065	0.70957	1.83798	0.86887
1920.000	2.41841	0.75328	1.82811	0.85893
1921.000	2.41447	0.78906	1.91500	0.84697
1922.000	2.40065	0.73143	1.90315	0.81318
1923.000	2.41249	0.72347	1.86168	0.91657
1924.000	2.37105	0.78709	1.89525	0.77938
1925.000	2.40460	0.77714	1.85181	0.88079
1926.000	2.40657	0.79701	1.87551	0.95035
1927.000	2.43618	0.78507	1.88538	0.91854
1928.000	2.44210	0.76519	1.89130	0.83306
1929.000	2.43420	0.79501	1.90315	0.91058
1930.000	2.41249	0.75726	1.83601	0.87682
1931.000	2.46578	0.78704	1.78268	0.89474
1932.000	2.44999	0.78705	1.89130	0.94239
1933.000	2.45788	0.76320	1.89130	0.92649
1934.000	2.45788	0.77512	1.83798	0.88477
1935.000	2.44604	0.79897	1.85576	0.95633
1936.000	2.46380	0.83274	1.84193	0.91260
1937.000	2.46775	0.78704	1.82811	0.94839
1938.000	2.47564	0.79101	1.82021	0.98815
1939.000	2.44604	0.79897	1.84391	0.96826
1940.000	2.44210	0.80295	1.86366	0.98415
1941.000	2.47367	0.76319	1.81231	0.98219
1942.000	2.47564	0.77511	1.87748	0.94638
1943.000	2.45196	0.78307	1.88735	0.94041
1944.000	2.46972	0.70755	1.88538	0.95830
1945.000	2.46183	0.76717	1.84391	0.93049
1946.000	2.43420	0.72744	1.82218	0.93050
1947.000	2.43025	0.75129	1.90118	0.93841
1948.000	2.44802	0.73935	1.86958	0.96825
1949.000	2.45788	0.68768	1.82416	0.92056
1950.000	2.46578	0.72742	1.85971	0.94241
1951.000	2.42631	0.73340	1.80243	0.94244
1952.000	2.43025	0.72347	1.83206	0.97622
1953.000	2.38881	0.69566	1.79058	0.85895
1954.000	2.44012	0.76519	1.91500	0.89865
1955.000	2.38881	0.71156	1.89525	0.91854
1956.000	2.41249	0.72347	1.85971	0.96030
1957.000	2.39276	0.72547	1.93080	0.92051
1958.000	2.40855	0.73540	1.80243	0.88082
1959.000	2.41841	0.77514	1.85576	1.02391
1960.000	2.42236	0.79501	1.91303	0.97419
1961.000	2.47170	0.78505	1.94660	1.00001
1962.000	2.44012	0.74532	1.91303	0.95828
1963.000	2.42828	0.78309	1.87748	0.95830
1964.000	2.44999	0.78506	1.83798	1.00405
1965.000	2.47762	0.72741	1.94265	0.88472
1966.000	2.49143	0.79696	1.84983	0.94440
1967.000	2.46578	0.75326	1.87353	1.00999
1968.000	2.45196	0.76519	1.80836	0.95834
1969.000	2.44210	0.77115	1.88341	0.93445
1970.000	2.44802	0.74532	1.82021	0.96430
1971.000	2.43815	0.74930	1.79453	0.92257
1972.000	2.45788	0.75525	1.85971	1.00602
1973.000	2.41052	0.76720	1.93080	0.93243
1974.000	2.43420	0.78109	1.88143	0.92848
1975.000	2.43815	0.81289	1.97819	1.00595
1976.000	2.38684	0.70958	1.83601	0.98019
1977.000	2.43025	0.80892	1.90118	1.00401
1978.000	2.41447	0.79502	1.82811	0.94839
1979.000	2.44407	0.79500	1.86958	0.91259
1980.000	2.42236	0.75527	1.89525	0.99606
1981.000	2.45788	0.74531	1.82811	0.93845
1982.000	2.45196	0.76717	1.90118	0.96227
1983.000	2.45394	0.76121	1.80243	0.94443
1984.000	2.47170	0.73735	1.85576	0.91061
1985.000	2.44999	0.77115	1.86563	0.94241
1986.000	2.46380	0.79300	1.82416	1.00405
1987.000	2.43815	0.76519	1.82613	0.93647
1988.000	2.46972	0.84268	1.83601	0.90664
1989.000	2.47564	0.77511	1.84588	1.01199
1990.000	2.46380	0.79499	1.82613	0.89472
1991.000	2.44604	0.82679	1.85773	0.98416
1992.000	2.48551	0.78504	1.88933	0.86487
1993.000	2.49340	0.78702	1.88143	0.93842
1994.000	2.43223	0.84270	1.88735	0.96625
1995.000	2.45591	0.81288	1.88341	0.96029
1996.000	2.47170	0.78107	1.88341	0.91656
1997.000	2.46972	0.81486	1.89525	0.86884
1998.000	2.47170	0.85062	1.82021	1.01201
1999.000	2.48748	0.85459	1.81626	0.91858
2000.000	2.43025	0.78308	1.88341	0.96824
2001.000	2.49340	0.82279	1.86761	0.98614
2002.000	2.43815	0.79699	1.94462	0.92646
2003.000	2.44999	0.78903	1.86761	0.88675
2004.000	2.46972	0.79300	1.85181	0.91459
2005.000	2.46775	0.85460	1.96635	0.99801
2006.000	2.46775	0.80095	1.90908	0.85492
2007.000	2.42039	0.78706	1.91500	0.90660
2008.000	2.45196	0.81685	1.85378	0.92254
2009.000	2.48748	0.85658	1.86761	0.92650
2010.000	2.43223	0.79898	1.80638	0.93449
2011.000	2.46972	0.81287	1.91895	0.94437
2012.000	2.46380	0.82082	1.87551	0.90265
2013.000	2.42236	0.78508	1.87748	0.93246
2014.000	2.46775	0.80095	1.86366	0.83904
2015.000	2.46183	0.80890	1.83996	0.92453
2016.000	2.46775	0.76915	1.78071	0.89872
2017.000	2.51313	0.81483	1.89920	0.93841
2018.000	2.44999	0.81089	1.85181	0.90663
2019.000	2.44999	0.81884	1.87946	0.89270
2020.000	2.45788	0.82083	1.85971	0.87284
2021.000	2.44999	0.82878	1.88341	0.92053
2022.000	2.43815	0.82680	1.92488	0.90461
2023.000	2.43420	0.79898	1.90315	0.83902
2024.000	2.41447	0.85662	1.92883	0.83702
2025.000	2.44407	0.80891	1.86958	0.90464
2026.000	2.41644	0.79700	1.89723	0.88673
2027.000	2.48354	0.78703	1.87946	0.87283
2028.000	2.48748	0.83670	1.78861	0.91064
2029.000	2.45394	0.82480	1.84193	0.96628
2030.000	2.45788	0.79102	1.84588	0.98019
2031.000	2.47367	0.77312	1.91698	0.94636
2032.000	2.53089	0.73732	1.82811	0.89869
2033.000	2.55062	0.66378	1.94265	0.79328
2034.000	2.64730	0.50874	2.08482	0.80116
2035.000	2.77354	0.40735	2.18353	0.61029
2036.000	2.93328	0.24835	2.39473	0.41741
2037.000	3.16000	0.06952	2.58811	0.25041
2038.000	3.35509	-0.18867	2.89385	-0.08742
2039.000	3.56586	-0.47454	3.08509	-0.33175
2040.000	3.73519	-0.82778	3.37282	-0.58188
2041.000	3.87494	-1.10545	3.56783	-0.87557
2042.000	4.05792	-1.48800	3.78046	-1.27621
2043.000	4.15823	-1.83278	3.97136	-1.75389
2044.000	4.26048	-2.18326	4.13463	-2.09246
2045.000	4.37646	-2.46216	4.30176	-2.43864
2046.000	4.38629	-2.80457	4.25851	-2.78525
2047.000	4.48455	-3.11079	4.33911	-3.11140
2048.000	4.44132	-3.34824	4.42756	-3.40562
2049.000	4.46293	-3.59713	4.37646	-3.75756
2050.000	4.43149	-3.71778	4.35091	-3.96306
2051.000	4.39218	-3.87992	4.33322	-4.12501
2052.000	4.35877	-4.00250	4.25261	-4.23793
2053.000	4.33518	-4.10132	4.24868	-4.41549
2054.000	4.33322	-4.14080	4.15430	-4.41602
2055.000	4.34305	-4.19402	4.09136	-4.53076
2056.000	4.34501	-4.23939	4.12086	-4.56806
2057.000	4.35287	-4.19594	4.11496	-4.52077
2058.000	4.35091	-4.13478	4.13070	-4.40432
2059.000	4.38432	-4.05763	3.95562	-4.23358
2060.000	4.30373	-3.90604	4.02841	-4.01998
2061.000	4.31749	-3.73810	3.99103	-3.90956
2062.000	4.30963	-3.60577	3.87297	-3.62948
2063.000	4.28211	-3.42605	3.93397	-3.44336
2064.000	4.28407	-3.31730	3.88871	-3.22595
2065.000	4.26441	-3.15522	3.84148	-3.10343
2066.000	4.25851	-3.05040	3.87297	-2.98456
2067.000	4.24868	-2.90403	3.89659	-2.78254
2068.000	4.25655	-2.86640	3.86903	-2.70341
2069.000	4.25851	-2.86243	3.86903	-2.73114
2070.000	4.27031	-2.81093	3.92217	-2.70522
2071.000	4.26834	-2.81490	3.89265	-2.79245
2072.000	4.28014	-2.88412	3.87494	-2.80439
2073.000	4.35681	-2.94121	3.95168	-2.93084
2074.000	4.31749	-3.01258	3.98316	-3.02375
2075.000	4.40594	-3.07948	4.01071	-3.11666
2076.000	4.42166	-3.16248	4.02251	-3.27290
2077.000	4.46883	-3.23543	4.05595	-3.27079
2078.000	4.45704	-3.33828	4.08939	-3.39327
2079.000	4.49830	-3.40727	4.15233	-3.48000
2080.000	4.50027	-3.43295	4.22312	-3.59036
2081.000	4.52188	-3.47830	4.17986	-3.63207
2082.000	4.52974	-3.50790	4.19559	-3.68732
2083.000	4.56510	-3.53539	4.12086	-3.71731
2084.000	4.55331	-3.59866	4.16806	-3.69140
2085.000	4.56510	-3.57490	4.16020	-3.72898
2086.000	4.51991	-3.54548	4.14446	-3.67768
2087.000	4.55135	-3.55521	4.08546	-3.73526
2088.000	4.55724	-3.58481	4.06185	-3.80452
2089.000	4.56706	-3.54723	4.08349	-3.75700
2090.000	4.54742	-3.56313	4.03628	-3.72758
2091.000	4.53956	-3.55724	4.09136	-3.69571
2092.000	4.52974	-3.56519	4.06185	-3.75118
2093.000	4.57885	-3.56495	4.04021	-3.72163
2094.000	4.56314	-3.53737	4.07759	-3.67996
2095.000	4.57492	-3.53929	4.04612	-3.68208
2096.000	4.55724	-3.50776	4.09923	-3.73322
2097.000	4.51205	-3.53169	4.10513	-3.64031
2098.000	4.52581	-3.49409	4.03431	-3.65249
2099.000	4.54349	-3.48807	4.01464	-3.59526
2100.000	4.56706	-3.46227	4.03628	-3.55760
2101.000	4.55331	-3.44258	4.05792	-3.55158
2102.000	4.55528	-3.44059	3.98513	-3.57759
2103.000	4.53367	-3.41896	4.04808	-3.39542
2104.000	4.53956	-3.44265	4.02841	-3.40341
2105.000	4.57296	-3.41482	3.99300	-3.37785
2106.000	4.50813	-3.39536	3.97529	-3.34232
2107.000	4.52974	-3.46443	4.01267	-3.35602
2108.000	4.53170	-3.44663	4.00677	-3.37582
2109.000	4.54349	-3.42287	4.08742	-3.42689
2110.000	4.53956	-3.48414	3.99300	-3.45300
2111.000	4.51402	-3.50797	4.10513	-3.42286
2112.000	4.51991	-3.58105	4.00677	-3.54587
2113.000	4.56510	-3.54329	4.04021	-3.57340
2114.000	4.56117	-3.55318	4.09726	-3.53757
2115.000	4.56314	-3.52749	4.10906	-3.63832
2116.000	4.58278	-3.57481	4.10709	-3.67785
2117.000	4.55135	-3.56509	4.10906	-3.74898
2118.000	4.57099	-3.58277	4.10513	-3.69762
2119.000	4.56117	-3.53540	4.11889	-3.80425
2120.000	4.57099	-3.54918	4.20149	-3.76830
2121.000	4.56903	-3.49190	4.12283	-3.72916
2122.000	4.56117	-3.48206	4.13660	-3.73502
2123.000	4.54349	-3.44460	4.11496	-3.75488
2124.000	4.54153	-3.46635	4.09923	-3.66801
2125.000	4.53170	-3.43873	4.05202	-3.60695
2126.000	4.53760	-3.43277	4.09923	-3.64232
2127.000	4.57296	-3.38716	4.01858	-3.58733
2128.000	4.54349	-3.38729	3.99693	-3.52812
2129.000	4.56706	-3.37335	4.06382	-3.55551
2130.000	4.53956	-3.43079	3.98513	-3.53212
2131.000	4.50616	-3.42107	3.99890	-3.50636
2132.000	4.52188	-3.36961	3.98316	-3.51829
2133.000	4.52974	-3.42293	4.04218	-3.55560
2134.000	4.59653	-3.40878	4.02841	-3.56159
2135.000	4.55135	-3.39714	3.97136	-3.57172
2136.000	4.55724	-3.40502	4.05989	-3.55948
2137.000	4.56706	-3.44647	4.11889	-3.56712
2138.000	4.56117	-3.41685	4.08546	-3.63447
2139.000	4.59260	-3.40287	4.08939	-3.59690
2140.000	4.62403	-3.45212	4.03825	-3.58725
2141.000	4.56314	-3.43660	4.10906	-3.64622
2142.000	4.56706	-3.45239	4.05202	-3.54963
2143.000	4.56314	-3.46427	4.09529	-3.60478
2144.000	4.55528	-3.44257	4.06185	-3.56935
2145.000	4.58082	-3.46813	4.06579	-3.70966
2146.000	4.53170	-3.40514	4.09529	-3.62850
2147.000	4.54742	-3.41890	4.05989	-3.54366
2148.000	4.55724	-3.43070	4.05399	-3.61485
2149.000	4.54938	-3.44260	4.03431	-3.59715
2150.000	4.56706	-3.44449	4.12873	-3.56905
2151.000	4.54545	-3.46238	4.10316	-3.54149
2152.000	4.55331	-3.42282	4.08546	-3.58111
2153.000	4.52974	-3.40515	4.06972	-3.53966
2154.000	4.54938	-3.41098	4.09333	-3.62258
2155.000	4.55921	-3.42279	4.00284	-3.58542
2156.000	4.55528	-3.39910	4.04415	-3.51408
2157.000	4.56706	-3.37928	4.02448	-3.48648
2158.000	4.54153	-3.41892	4.10316	-3.54149
2159.000	4.52777	-3.41504	4.05792	-3.52588
2160.000	4.53760	-3.42882	3.94578	-3.59951
2161.000	4.60832	-3.42453	4.00677	-3.44701
2162.000	4.62599	-3.39283	4.03825	-3.56352
2163.000	4.56706	-3.40102	4.08939	-3.60678
2164.000	4.58278	-3.43849	4.03235	-3.52599
2165.000	4.56314	-3.40499	4.10513	-3.50986
2166.000	4.55331	-3.40108	4.03235	-3.52797
2167.000	4.56706	-3.38126	4.09136	-3.58899
2168.000	4.56903	-3.40298	3.99497	-3.59139
2169.000	4.59064	-3.40683	4.04415	-3.52198
2170.000	4.58671	-3.39104	4.07759	-3.54951
2171.000	4.58278	-3.44639	4.06579	-3.53375
2172.000	4.55921	-3.38327	4.06382	-3.57132
2173.000	4.59064	-3.41474	4.01464	-3.58340
2174.000	4.56314	-3.41289	4.10513	-3.65415
2175.000	4.62010	-3.37508	4.05202	-3.64253
2176.000	4.60242	-3.41073	4.04021	-3.58724
2177.000	4.63778	-3.42044	4.01071	-3.59132
2178.000	4.60046	-3.41074	4.07366	-3.58709
2179.000	4.61814	-3.42449	4.01661	-3.66048
2180.000	4.59653	-3.40285	4.00874	-3.60517
2181.000	4.61814	-3.40473	4.05595	-3.64251
2182.000	4.58278	-3.41873	4.09529	-3.62652
2183.000	4.59849	-3.41075	4.10906	-3.59681
2184.000	4.62403	-3.41655	3.99300	-3.59140
2185.000	4.60635	-3.42849	4.11103	-3.58099
2186.000	4.62796	-3.42049	4.07169	-3.63453
2187.000	4.62010	-3.41064	4.07562	-3.61080
2188.000	4.60242	-3.44630	4.05595	-3.59310
2189.000	4.62599	-3.42642	4.01464	-3.60514
2190.000	4.61617	-3.39486	4.08546	-3.59297
2191.000	4.60439	-3.41862	4.13070	-3.58683
2192.000	4.58867	-3.40289	4.09136	-3.65223
2193.000	4.62599	-3.42050	4.06382	-3.59504
2194.000	4.55921	-3.42477	4.07366	-3.60883
2195.000	4.60242	-3.42061	4.02841	-3.65647
2196.000	4.63385	-3.42046	4.02644	-3.52008
2197.000	4.61224	-3.38895	4.00284	-3.63287
2198.000	4.62796	-3.39875	4.09529	-3.68384
2199.000	4.62010	-3.42448	4.05595	-3.58914
2200.000	4.56117	-3.39314	4.06972	-3.62466
2201.000	4.57885	-3.43455	4.03825	-3.62678
2202.000	4.58867	-3.41079	4.09136	-3.59294
2203.000	4.62010	-3.44423	3.96545	-3.64884
2204.000	4.59064	-3.37324	4.09333	-3.57119
2205.000	4.62599	-3.41062	4.05202	-3.61881
2206.000	4.57296	-3.36146	4.10513	-3.62055
2207.000	4.59260	-3.40485	3.99103	-3.60129
2208.000	4.60046	-3.39691	4.01464	-3.61107
2209.000	4.57885	-3.35748	4.06972	-3.59897
2210.000	4.59849	-3.38308	4.01661	-3.51222
2211.000	4.59849	-3.37913	4.01661	-3.57943
2212.000	4.58671	-3.34164	4.00480	-3.51622
2213.000	4.57492	-3.36541	4.02251	-3.55766
2214.000	4.59064	-3.41079	4.09136	-3.51980
2215.000	4.60635	-3.38897	3.98513	-3.46885
2216.000	4.61617	-3.37114	4.01267	-3.56364
2217.000	4.57689	-3.43852	3.96939	-3.53614
2218.000	4.56314	-3.36546	4.11889	-3.57503
2219.000	4.58671	-3.38511	3.97726	-3.56577
2220.000	4.58671	-3.41871	4.05792	-3.57332
2221.000	4.58671	-3.39697	4.08546	-3.63052
2222.000	4.59653	-3.38507	4.05989	-3.65633
2223.000	4.59457	-3.40484	4.08742	-3.62656
2224.000	4.57296	-3.39506	4.01858	-3.61698
2225.000	4.59260	-3.36730	4.08349	-3.60088
2226.000	4.58278	-3.42465	4.10119	-3.67195
2227.000	4.59653	-3.37321	4.06775	-3.65234
2228.000	4.57492	-3.38912	4.02644	-3.61300
2229.000	4.60242	-3.36923	3.98513	-3.59736
2230.000	4.61814	-3.39287	4.08742	-3.63249
2231.000	4.62992	-3.40467	4.11693	-3.62247
2232.000	4.60439	-3.40479	4.03235	-3.72562
2233.000	4.59457	-3.34753	4.09726	-3.65616
2234.000	4.59653	-3.39495	4.09726	-3.63047
2235.000	4.58867	-3.36534	4.08742	-3.66016
2236.000	4.56117	-3.37535	4.01071	-3.60120
2237.000	4.58867	-3.37522	4.07562	-3.68788
2238.000	4.57689	-3.42468	4.09333	-3.60874
2239.000	4.56706	-3.44054	4.02644	-3.67822
2240.000	4.58278	-3.41477	4.05989	-3.66226
2241.000	4.59064	-3.41671	4.04415	-3.69988
2242.000	4.62796	-3.37899	4.04218	-3.66827
2243.000	4.62403	-3.38296	4.08152	-3.67402
2244.000	4.58278	-3.38316	4.03825	-3.69002
2245.000	4.60635	-3.39688	4.12086	-3.75288
2246.000	4.60832	-3.40477	4.06579	-3.68199
2247.000	4.62599	-3.39086	4.05399	-3.69193
2248.000	4.59653	-3.36926	3.99890	-3.66451
2249.000	4.60242	-3.39492	4.03038	-3.62879
2250.000	4.62207	-3.36123	4.06579	-3.63061
2251.000	4.63385	-3.37303	4.05399	-3.67217
2252.000	4.58474	-3.37327	4.11103	-3.71933
2253.000	4.62403	-3.37901	4.04218	-3.69396
2254.000	4.61224	-3.36128	4.07366	-3.63057
2255.000	4.60439	-3.39096	4.06775	-3.64048
2256.000	4.63778	-3.39673	4.06579	-3.67211
2257.000	4.63581	-3.37105	4.00874	-3.70794
2258.000	4.64563	-3.37495	4.07759	-3.66020
2259.000	4.60635	-3.40083	4.02841	-3.68809
2260.000	4.63974	-3.35720	4.01661	-3.64466
2261.000	4.63189	-3.39083	4.04021	-3.69594
2262.000	4.64171	-3.35916	4.05202	-3.71170
2263.000	4.62403	-3.38494	4.05792	-3.68203
2264.000	4.61421	-3.37906	3.96152	-3.66863
2265.000	4.57099	-3.37333	4.06775	-3.64443
2266.000	4.58082	-3.38514	4.05989	-3.68597
2267.000	4.58278	-3.40094	4.01267	-3.66049
2268.000	4.59849	-3.41272	4.04415	-3.67814
2269.000	4.62010	-3.41855	4.05989	-3.60099
2270.000	4.64563	-3.36310	3.98316	-3.61319
2271.000	4.57099	-3.38519	4.10906	-3.61460
2272.000	4.61224	-3.40278	4.01858	-3.65651
2273.000	4.66527	-3.40055	4.07366	-3.65231
2274.000	4.64563	-3.38286	4.02251	-3.59918
2275.000	4.65545	-3.39664	4.05792	-3.59111
2276.000	4.63778	-3.36116	4.06185	-3.58714
2277.000	4.66724	-3.36299	3.99693	-3.63289
2278.000	4.63778	-3.37697	3.99890	-3.61509
2279.000	4.63189	-3.38095	4.01858	-3.66640
2280.000	4.62992	-3.40072	4.06185	-3.68201
2281.000	4.62403	-3.36518	3.97923	-3.67448
2282.000	4.64760	-3.39866	4.00284	-3.70402
2283.000	4.63974	-3.35522	4.01267	-3.67631
2284.000	4.64171	-3.38683	4.03038	-3.58926
2285.000	4.64171	-3.39276	4.05202	-3.65043
2286.000	4.63189	-3.40466	4.03235	-3.65052
2287.000	4.62403	-3.37308	3.96939	-3.60138
2288.000	4.63974	-3.39474	4.03628	-3.61690
2289.000	4.64367	-3.36706	4.09136	-3.63445
2290.000	4.64367	-3.33149	3.99890	-3.63881
2291.000	4.62992	-3.34539	4.03825	-3.58132
2292.000	4.69866	-3.36877	4.01071	-3.60516
2293.000	4.66920	-3.39658	4.03628	-3.62679
2294.000	4.66135	-3.37488	4.00087	-3.58148
2295.000	4.68688	-3.39056	4.09923	-3.62255
2296.000	4.71241	-3.36080	4.05989	-3.55948
2297.000	4.67902	-3.36689	4.00480	-3.62890
2298.000	4.70455	-3.36479	4.09726	-3.59884
2299.000	4.68295	-3.38861	4.03431	-3.59912
2300.000	4.62403	-3.36320	3.97726	-3.62112
2301.000	4.57492	-3.37727	3.94775	-3.63904
2302.000	4.49830	-3.41320	3.88675	-3.63337
2303.000	4.36270	-3.40592	3.76472	-3.63587
2304.000	4.22902	-3.31358	3.64659	-3.63635
2305.000	4.02448	-3.33026	3.40040	-3.74806
2306.000	3.81786	-3.32712	3.18759	-3.64402
2307.000	3.58752	-3.30028	2.85243	-3.62139
2308.000	3.28612	-3.31122	2.62954	-3.67155
2309.000	2.94511	-3.28655	2.37105	-3.57328
2310.000	2.70845	-3.22581	2.12430	-3.54022
2311.000	2.45788	-3.20267	1.87551	-3.50510
2312.000	2.25262	-3.22494	1.63454	-3.58875
2313.000	2.08284	-3.16782	1.54959	-3.45616
2314.000	2.04138	-3.21349	1.41920	-3.47221
2315.000	2.03546	-3.18972	1.42117	-3.43852
2316.000	2.04533	-3.15799	1.46464	-3.45827
2317.000	2.18353	-3.15374	1.45871	-3.39883
2318.000	2.24078	-3.19326	1.57132	-3.46405
2319.000	2.45394	-3.21259	1.67207	-3.36678
2320.000	2.54471	-3.24010	1.93278	-3.39602
2321.000	2.75776	-3.26727	2.04730	-3.30860
2322.000	2.91554	-3.27475	2.19143	-3.36773
2323.000	3.07918	-3.26238	2.31973	-3.34168
2324.000	3.17971	-3.28385	2.45196	-3.45426
2325.000	3.30977	-3.35469	2.56246	-3.41832
2326.000	3.32947	-3.35066	2.60390	-3.48356
2327.000	3.40237	-3.30885	2.67492	-3.56453
2328.000	3.37085	-3.32677	2.69070	-3.52291
2329.000	3.41025	-3.36820	2.69267	-3.56052
2330.000	3.34130	-3.37833	2.74198	-3.54850
2331.000	3.32356	-3.34276	2.67689	-3.60213
2332.000	3.22898	-3.35496	2.57627	-3.54897
2333.000	3.16394	-3.33735	2.43223	-3.58104
2334.000	3.15014	-3.32750	2.48551	-3.63435
2335.000	3.07918	-3.29604	2.43025	-3.59886
2336.000	3.01609	-3.26257	2.38684	-3.51186
2337.000	2.94709	-3.30832	2.36118	-3.50994
2338.000	2.95300	-3.28058	2.30197	-3.53583
2339.000	2.94117	-3.28062	2.24275	-3.48448
2340.000	2.92737	-3.24105	2.24867	-3.49635
2341.000	2.90765	-3.27675	2.23288	-3.49045
2342.000	2.87215	-3.27290	2.22104	-3.49444
2343.000	2.87807	-3.26298	2.26249	-3.47255
2344.000	2.87413	-3.24516	2.21709	-3.47068
2345.000	2.83863	-3.25319	2.21314	-3.45683
2346.000	2.87610	-3.21545	2.09074	-3.54821
2347.000	2.83468	-3.26508	2.12430	-3.47287
2348.000	2.89187	-3.24907	2.11246	-3.54222
2349.000	2.84257	-3.23337	2.16971	-3.50050
2350.000	2.86821	-3.24122	2.17563	-3.49256
2351.000	2.86229	-3.22341	2.12036	-3.47684
2352.000	2.84257	-3.25317	2.10654	-3.54818
2353.000	2.82877	-3.27698	2.19932	-3.56183
2354.000	2.82680	-3.24728	2.17169	-3.48069
2355.000	2.80313	-3.24734	2.19735	-3.47865
2356.000	2.80313	-3.26319	2.18748	-3.55393
2357.000	2.82088	-3.24729	2.19143	-3.49253
2358.000	2.84257	-3.24327	2.12825	-3.49861
2359.000	2.90173	-3.20745	2.21906	-3.56574
2360.000	2.89779	-3.27876	2.22499	-3.60137
2361.000	2.84652	-3.27693	2.20525	-3.55587
2362.000	2.87215	-3.23130	2.16971	-3.48466
2363.000	2.83468	-3.24131	2.19143	-3.54996
2364.000	2.87807	-3.21346	2.15392	-3.51242
2365.000	2.89779	-3.27876	2.20525	-3.55983
2366.000	2.88201	-3.28673	2.21117	-3.47862
2367.000	2.83271	-3.26905	2.17958	-3.55791
2368.000	2.83468	-3.27696	2.20919	-3.62319
2369.000	2.85835	-3.26303	2.17958	-3.51830
2370.000	2.89385	-3.24709	2.25065	-3.57358
2371.000	2.85638	-3.24719	2.18156	-3.57375
2372.000	2.87215	-3.26893	2.17563	-3.59357
2373.000	2.86821	-3.23132	2.20327	-3.56776
2374.000	2.88596	-3.26493	2.16971	-3.51436
2375.000	2.90962	-3.24506	2.17366	-3.54010
2376.000	2.91554	-3.28465	2.17366	-3.57575
2377.000	2.89187	-3.27878	2.22893	-3.60928
2378.000	2.90173	-3.28865	2.17761	-3.63910
2379.000	2.85638	-3.26502	2.19538	-3.65094
2380.000	2.88596	-3.22136	2.20919	-3.54002
2381.000	2.88399	-3.29267	2.17169	-3.59555
2382.000	2.87413	-3.25705	2.23880	-3.53797
2383.000	2.90962	-3.27081	2.18353	-3.62721
2384.000	2.89187	-3.26888	2.22301	-3.54989
2385.000	2.89976	-3.26688	2.22696	-3.56968
2386.000	2.87807	-3.25307	2.17563	-3.52029
2387.000	2.91357	-3.28466	2.21906	-3.62514
2388.000	2.89779	-3.23717	2.21906	-3.56970
2389.000	2.90173	-3.28865	2.16971	-3.62922
2390.000	2.89187	-3.29264	2.26447	-3.57751
2391.000	2.91357	-3.26485	2.19538	-3.64500
2392.000	2.86032	-3.26897	2.17958	-3.63514
2393.000	2.83074	-3.28292	2.08679	-3.58783
2394.000	2.89582	-3.26689	2.13418	-3.63525
2395.000	2.86821	-3.25508	2.16379	-3.59557
2396.000	2.87018	-3.27884	2.12628	-3.60358
2397.000	2.84849	-3.27890	2.23288	-3.58353
2398.000	2.85638	-3.31255	2.21709	-3.62317
2399.000	2.85638	-3.27096	2.18550	-3.61136
2400.000	2.89582	-3.30847	2.13615	-3.61346
2401.000	2.84257	-3.27892	2.24275	-3.56172
2402.000	2.90371	-3.28667	2.22499	-3.61919
2403.000	2.86229	-3.27292	2.19735	-3.62124
2404.000	2.89187	-3.26888	2.20327	-3.59152
2405.000	2.83271	-3.30470	2.25854	-3.58346
2406.000	2.89779	-3.29263	2.19143	-3.58759
2407.000	2.88201	-3.26891	2.22301	-3.62117
2408.000	2.87610	-3.29071	2.19932	-3.59351
2409.000	2.86427	-3.31253	2.24078	-3.60331
2410.000	2.88596	-3.28870	2.19538	-3.60738
2411.000	2.88793	-3.25899	2.20919	-3.54992
2412.000	2.84060	-3.31061	2.12628	-3.61744
2413.000	2.88201	-3.30059	2.16576	-3.56388
2414.000	2.91554	-3.23910	2.20525	-3.52022
2415.000	2.85835	-3.24521	2.16379	-3.54211
2416.000	2.88201	-3.23128	2.12430	-3.55408
2417.000	2.85638	-3.25314	2.19932	-3.59153
2418.000	2.81496	-3.28098	2.18748	-3.51432
2419.000	2.83863	-3.24724	2.15787	-3.53816
2420.000	2.86427	-3.28876	2.11246	-3.51846
2421.000	2.89582	-3.25104	2.21709	-3.50633
2422.000	2.86427	-3.26500	2.14207	-3.57384
2423.000	2.88793	-3.25899	2.18945	-3.53808
2424.000	2.85441	-3.31850	2.18156	-3.61929
2425.000	2.87610	-3.25308	2.29013	-3.58933
2426.000	2.85441	-3.30067	2.09666	-3.56008
2427.000	2.83468	-3.29281	2.21906	-3.59940
2428.000	2.85638	-3.31255	2.13812	-3.63722
2429.000	2.85638	-3.30463	2.19932	-3.52816
2430.000	2.86821	-3.30855	2.24670	-3.59735
2431.000	2.84652	-3.32842	2.18748	-3.55789
2432.000	2.88793	-3.30058	2.11048	-3.50460
2433.000	2.86821	-3.32638	2.17958	-3.57375
2434.000	2.84454	-3.32645	2.18550	-3.60146
2435.000	2.81693	-3.31266	2.19538	-3.59352
2436.000	2.87215	-3.30458	2.20525	-3.49448
2437.000	2.84454	-3.28486	2.20919	-3.58754
2438.000	2.81693	-3.25721	2.17958	-3.49057
2439.000	2.82877	-3.26510	2.19538	-3.48658
2440.000	2.88990	-3.31641	2.23683	-3.63302
2441.000	2.85243	-3.29078	2.20327	-3.49448
2442.000	2.86624	-3.26499	2.19143	-3.52422
2443.000	2.88004	-3.29268	2.19735	-3.54005
2444.000	2.87807	-3.26100	2.21512	-3.57367
2445.000	2.83863	-3.28685	2.17366	-3.55396
2446.000	2.84652	-3.28089	2.22893	-3.62908
2447.000	2.85046	-3.28088	2.18945	-3.50442
2448.000	2.90173	-3.29063	2.21117	-3.56378
2449.000	2.87807	-3.29466	2.20919	-3.57566
2450.000	2.84060	-3.28685	2.18748	-3.54007
2451.000	2.81102	-3.30278	2.21314	-3.57961
2452.000	2.83863	-3.27695	2.19538	-3.59352
2453.000	2.81496	-3.28692	2.13418	-3.52435
2454.000	2.84257	-3.30665	2.23486	-3.59936
2455.000	2.78735	-3.31869	2.26841	-3.62700
2456.000	2.81299	-3.30673	2.27039	-3.60126
2457.000	2.80905	-3.31268	2.21906	-3.56772
2458.000	2.78538	-3.30087	2.29605	-3.55763
2459.000	2.82482	-3.26511	2.28618	-3.56359
2460.000	2.81102	-3.28693	2.23091	-3.60729
2461.000	2.85243	-3.28880	2.19143	-3.59749
2462.000	2.83863	-3.27497	2.19143	-3.57967
2463.000	2.80905	-3.33447	2.26052	-3.55574
2464.000	2.82877	-3.26708	2.20130	-3.52023
2465.000	2.81496	-3.25127	2.24867	-3.60725
2466.000	2.80707	-3.28892	2.18550	-3.66086
2467.000	2.79721	-3.26717	2.28618	-3.58538
2468.000	2.77946	-3.27910	2.19538	-3.63510
2469.000	2.77946	-3.27712	2.21117	-3.60338
2470.000	2.81693	-3.28890	2.28420	-3.61508
2471.000	2.81102	-3.24138	2.17761	-3.61138
2472.000	2.84454	-3.29080	2.17563	-3.61535
2473.000	2.81299	-3.31069	2.22893	-3.61720
2474.000	2.81891	-3.24334	2.21314	-3.64100
2475.000	2.85441	-3.31255	2.20722	-3.54596
2476.000	2.84849	-3.30069	2.14207	-3.57384
2477.000	2.82877	-3.31659	2.25460	-3.58941
2478.000	2.85046	-3.30861	2.22301	-3.59741
2479.000	2.87413	-3.24516	2.22696	-3.55186
2480.000	2.80707	-3.30081	2.19538	-3.62718
2481.000	2.83666	-3.30270	2.16379	-3.58171
2482.000	2.83863	-3.26309	2.23683	-3.57956
2483.000	2.86032	-3.29669	2.16971	-3.65298
2484.000	2.85638	-3.25512	2.27236	-3.59729
2485.000	2.84652	-3.26703	2.21314	-3.62912
2486.000	2.85243	-3.27889	2.28618	-3.59924
2487.000	2.85441	-3.26106	2.26249	-3.54385
2488.000	2.83468	-3.30469	2.29802	-3.56158
2489.000	2.85441	-3.26304	2.23091	-3.53601
2490.000	2.84849	-3.33039	2.20130	-3.51429
2491.000	2.82877	-3.27500	2.18156	-3.50047
2492.000	2.80707	-3.29685	2.24078	-3.50628
2493.000	2.88004	-3.26891	2.16181	-3.42525
2494.000	2.83666	-3.29478	2.15787	-3.56390
2495.000	2.83074	-3.24132	2.15787	-3.52628
2496.000	2.79129	-3.27510	2.24670	-3.51022
2497.000	2.84257	-3.28882	2.19538	-3.46677
2498.000	2.82482	-3.32056	2.25065	-3.53398
2499.000	2.83468	-3.26904	2.16774	-3.50843
2500.000	2.81891	-3.27503	2.22104	-3.53801
2501.000	2.82285	-3.27304	2.15194	-3.49658
2502.000	2.86624	-3.27093	2.15194	-3.54411
2503.000	2.83074	-3.28490	2.21117	-3.43900
2504.000	2.82482	-3.24926	2.14405	-3.46887
2505.000	2.82877	-3.29282	2.09271	-3.49671
2506.000	2.84257	-3.28090	2.17169	-3.41928
2507.000	2.84060	-3.29675	2.08087	-3.53041
2508.000	2.81102	-3.29683	2.15589	-3.47478
2509.000	2.83666	-3.31459	2.15392	-3.54411
2510.000	2.78932	-3.33254	2.16971	-3.58170
2511.000	2.81102	-3.31070	2.18550	-3.55394
2512.000	2.83271	-3.33440	2.14405	-3.58176
2513.000	2.80510	-3.33052	2.19538	-3.53015
2514.000	2.82877	-3.32253	2.22499	-3.60929
2515.000	2.80116	-3.34043	2.10456	-3.60759
2516.000	2.83468	-3.33439	2.19538	-3.62520
2517.000	2.83271	-3.31460	2.13023	-3.64516
2518.000	2.85441	-3.25512	2.16181	-3.53617
2519.000	2.83074	-3.29480	2.13812	-3.58177
2520.000	2.82482	-3.32056	2.17958	-3.68464
2521.000	2.81299	-3.27504	2.21512	-3.59545
2522.000	2.83074	-3.23340	2.16576	-3.57973
2523.000	2.85441	-3.29275	2.17761	-3.58168
2524.000	2.83666	-3.28488	2.17761	-3.54999
2525.000	2.81693	-3.24532	2.18945	-3.54601
2526.000	2.81891	-3.27899	2.12036	-3.59568
2527.000	2.80116	-3.24141	2.15787	-3.58371
2528.000	2.84652	-3.26703	2.17761	-3.59554
2529.000	2.82877	-3.27104	2.19735	-3.58757
2530.000	2.88399	-3.25504	2.17958	-3.57969
2531.000	2.85243	-3.23136	2.14800	-3.57779
2532.000	2.86032	-3.25709	2.16181	-3.55201
2533.000	2.80707	-3.29289	2.17169	-3.53417
2534.000	2.81693	-3.26513	2.12036	-3.52834
2535.000	2.82482	-3.27105	2.08284	-3.59576
2536.000	2.84652	-3.23138	2.17366	-3.55396
2537.000	2.84849	-3.23335	2.11641	-3.47289
2538.000	2.81496	-3.26117	2.17563	-3.55198
2539.000	2.83468	-3.28885	2.17169	-3.57575
2540.000	2.77552	-3.29297	2.16971	-3.57180
2541.000	2.85243	-3.23334	2.18550	-3.51433
2542.000	2.83863	-3.26903	2.18353	-3.62127
2543.000	2.81299	-3.29287	2.29013	-3.53784
2544.000	2.85835	-3.26303	2.14800	-3.57779
2545.000	2.83863	-3.25715	2.18550	-3.58562
2546.000	2.81693	-3.27899	2.25065	-3.58348
2547.000	2.86229	-3.27094	2.14207	-3.58968
2548.000	2.87610	-3.25110	2.16379	-3.59557
2549.000	2.85835	-3.29472	2.21512	-3.64099
2550.000	2.86427	-3.26896	2.20722	-3.65685
2551.000	2.85638	-3.25908	2.18550	-3.61136
2552.000	2.85243	-3.26503	2.23486	-3.60134
2553.000	2.83863	-3.27101	2.16379	-3.64112
2554.000	2.83271	-3.26112	2.20525	-3.58359
2555.000	2.82680	-3.26510	2.21117	-3.54001
2556.000	2.84060	-3.27101	2.20327	-3.62914
2557.000	2.79524	-3.27113	2.17563	-3.59951
2558.000	2.81496	-3.25325	2.18353	-3.63315
2559.000	2.82482	-3.26709	2.26447	-3.57949
2560.000	2.77552	-3.28703	2.15984	-3.57974
2561.000	2.78735	-3.25135	2.19735	-3.54797
2562.000	2.76960	-3.25932	2.09864	-3.64325
2563.000	2.82482	-3.28491	2.18748	-3.66878
2564.000	2.81496	-3.24731	2.23091	-3.68055
2565.000	2.83666	-3.19179	2.14602	-3.68868
2566.000	2.81693	-3.23344	2.15984	-3.63519
2567.000	2.82482	-3.25124	2.14010	-3.66295
2568.000	2.81693	-3.23146	2.27039	-3.60324
2569.000	2.81102	-3.26317	2.21314	-3.63902
2570.000	2.78538	-3.27710	2.18945	-3.60343
2571.000	2.81496	-3.21166	2.20130	-3.60935
2572.000	2.81693	-3.22948	2.14405	-3.64512
2573.000	2.79721	-3.26518	2.26249	-3.67255
2574.000	2.80707	-3.27902	2.15392	-3.60946
2575.000	2.83074	-3.32648	2.17958	-3.56979
2576.000	2.80510	-3.31864	2.11048	-3.72242
2577.000	2.82482	-3.32056	2.17761	-3.64900
2578.000	2.82877	-3.32055	2.19735	-3.61133
2579.000	2.80510	-3.28101	2.18156	-3.63117
2580.000	2.82285	-3.28690	2.15194	-3.58768
2581.000	2.81102	-3.26515	2.17169	-3.58367
2582.000	2.81693	-3.26711	2.14997	-3.65105
2583.000	2.82088	-3.27304	2.11838	-3.64914
2584.000	2.81299	-3.29683	2.16971	-3.69258
2585.000	2.82285	-3.28294	2.16379	-3.69457
2586.000	2.84849	-3.22939	2.11838	-3.60360
2587.000	2.83666	-3.26507	2.17563	-3.66683
2588.000	2.85638	-3.23135	2.10456	-3.60957
2589.000	2.82088	-3.20372	2.13812	-3.66098
2590.000	2.77946	-3.24543	2.12430	-3.64319
2591.000	2.81891	-3.27305	2.21117	-3.59546
2592.000	2.79721	-3.24538	2.22301	-3.67661
2593.000	2.79918	-3.26914	2.21512	-3.65881
2594.000	2.77552	-3.27515	2.14405	-3.66294
2595.000	2.82680	-3.29283	2.22104	-3.63504
2596.000	2.78932	-3.22559	2.22893	-3.63502
2597.000	2.78538	-3.28304	2.23486	-3.68846
2598.000	2.77946	-3.26325	2.13615	-3.67286
2599.000	2.81891	-3.27899	2.16774	-3.66883
2600.000	2.82088	-3.26116	2.15984	-3.68864
2601.000	2.80510	-3.28101	2.23880	-3.65677
2602.000	2.78735	-3.32859	2.18748	-3.64898
2603.000	2.81693	-3.26711	2.20327	-3.60934
2604.000	2.78538	-3.28106	2.12825	-3.60358
2605.000	2.75382	-3.33858	2.17563	-3.66881
2606.000	2.81496	-3.30277	2.18748	-3.72817
2607.000	2.79129	-3.28303	2.16774	-3.63121
2608.000	2.79129	-3.25728	2.13418	-3.56990
2609.000	2.80313	-3.31072	2.15392	-3.61738
2610.000	2.77946	-3.28702	2.14997	-3.70055
2611.000	2.77552	-3.27911	2.21709	-3.60337
2612.000	2.78538	-3.29493	2.15392	-3.64510
2613.000	2.79524	-3.29094	2.17958	-3.63910
2614.000	2.79918	-3.24735	2.23486	-3.64094
2615.000	2.77749	-3.28703	2.12825	-3.66694
2616.000	2.73804	-3.31684	2.25657	-3.60327
2617.000	2.83468	-3.26508	2.26052	-3.66860
2618.000	2.80313	-3.32260	2.23880	-3.63499
2619.000	2.81693	-3.26117	2.16576	-3.69457
2620.000	2.81102	-3.26911	2.20722	-3.64101
2621.000	2.80510	-3.26120	2.26447	-3.68244
2622.000	2.83468	-3.24131	2.11048	-3.61550
2623.000	2.86032	-3.25510	2.27039	-3.60126
2624.000	2.82088	-3.27304	2.21117	-3.63704
2625.000	2.83468	-3.26904	2.18353	-3.63117
2626.000	2.81891	-3.32058	2.17761	-3.67078
2627.000	2.78143	-3.30286	2.24867	-3.67457
2628.000	2.77552	-3.32664	2.17761	-3.69652
2629.000	2.82877	-3.28688	2.19143	-3.68461
2630.000	2.77157	-3.26129	2.16774	-3.64705
2631.000	2.80905	-3.26119	2.09864	-3.63533
2632.000	2.78735	-3.31275	2.20130	-3.66676
2633.000	2.79721	-3.26122	2.21117	-3.65486
2634.000	2.79721	-3.21171	2.15984	-3.64707
2635.000	2.77946	-3.25929	2.11048	-3.65906
2636.000	2.79129	-3.22163	2.13418	-3.65109
2637.000	2.82088	-3.18391	2.23683	-3.65876
2638.000	2.73409	-3.21782	2.17563	-3.67673
2639.000	2.76368	-3.22566	2.17563	-3.66881
2640.000	2.80116	-3.23348	2.19735	-3.57173
2641.000	2.76960	-3.24942	2.12825	-3.56397
2642.000	2.76763	-3.22169	2.20722	-3.55785
2643.000	2.78735	-3.18796	2.22893	-3.54987
2644.000	2.79129	-3.18003	2.18945	-3.60145
2645.000	2.80116	-3.18000	2.21314	-3.56179
2646.000	2.78538	-3.14637	2.22499	-3.61919
2647.000	2.75185	-3.10485	2.16379	-3.53814
2648.000	2.75579	-3.12465	2.25460	-3.53397
2649.000	2.74790	-3.15241	2.23880	-3.58549
2650.000	2.73804	-3.14451	2.13023	-3.46890
2651.000	2.79129	-3.11267	2.21117	-3.49050
2652.000	2.76763	-3.07311	2.24670	-3.53003
2653.000	2.77354	-3.15234	2.21906	-3.42512
2654.000	2.76960	-3.16226	2.17366	-3.48069
2655.000	2.74593	-3.09099	2.17958	-3.42917
2656.000	2.77157	-3.07111	2.22696	-3.34190
2657.000	2.71831	-3.05738	2.23486	-3.30820
2658.000	2.69662	-2.98609	2.25460	-3.35967
2659.000	2.63941	-2.89902	2.29802	-3.23871
2660.000	2.62362	-2.78011	2.18156	-3.10816
2661.000	2.53089	-2.65736	2.14602	-2.98136
2662.000	2.55260	-2.45103	2.14997	-2.91988
2663.000	2.44802	-2.26669	1.98807	-2.62661
2664.000	2.33552	-2.11007	1.93870	-2.44611
2665.000	2.27828	-1.77261	1.86958	-2.15041
2666.000	2.18945	-1.50853	1.71355	-1.93412
2667.000	2.08087	-1.23046	1.55749	-1.43157
2668.000	1.99202	-0.93041	1.44488	-1.08973
2669.000	1.93080	-0.58454	1.42513	-0.69406
2670.000	1.81428	-0.20282	1.20975	-0.35205
2671.000	1.63651	0.17301	1.12872	-0.03779
2672.000	1.51798	0.57075	1.02991	0.39185
2673.000	1.42908	0.94460	0.89946	0.79364
2674.000	1.30262	1.28264	0.76505	1.13771
2675.000	1.27298	1.54305	0.60099	1.42407
2676.000	1.17220	1.82729	0.58320	1.79975
2677.000	1.22753	2.16100	0.52191	2.01041
2678.000	1.20382	2.41520	0.50412	2.20710
2679.000	1.30262	2.69301	0.45075	2.37395
2680.000	1.30262	2.90730	0.55354	2.55660
2681.000	1.38363	2.96671	0.51401	2.80474
2682.000	1.54367	3.19256	0.53378	3.02696
2683.000	1.56737	3.40659	0.59110	3.32640
2684.000	1.62071	3.68979	0.57727	3.44337
2685.000	1.70170	3.98856	0.68203	3.65137
2686.000	1.73133	4.21008	0.75912	3.95235
2687.000	1.76293	4.40773	0.72354	4.12063
2688.000	1.91500	4.67212	0.79075	4.41730
2689.000	1.91105	4.92881	0.89353	4.67021
2690.000	1.95252	5.17924	0.84017	4.90929
2691.000	1.99004	5.39794	0.92911	5.14012
2692.000	2.03151	5.62237	0.95283	5.34523
2693.000	2.04928	5.73255	0.97852	5.51275
2694.000	2.11443	5.97431	1.00817	5.71168
2695.000	2.19538	6.21772	1.01410	5.98529
2696.000	2.18748	6.43967	0.99038	6.18595
2697.000	2.18353	6.63395	0.98840	6.41391
2698.000	2.10851	6.75978	0.99433	6.49442
2699.000	2.14207	6.85372	1.02595	6.64944
2700.000	2.12628	7.01051	0.95085	6.79870
2701.000	2.07100	7.14781	1.01410	6.99069
2702.000	2.13615	7.29231	0.99829	7.08673
2703.000	2.08482	7.39033	1.01410	7.17874
2704.000	2.06310	7.50185	0.95085	7.31395
2705.000	1.99202	7.58034	0.96666	7.37848
2706.000	2.00189	7.59397	0.99236	7.38038
2707.000	1.97227	7.58238	0.89353	7.36103
2708.000	1.95450	7.58246	0.93702	7.37463
2709.000	1.88143	7.52416	0.97259	7.36282
2710.000	1.88933	7.47527	0.99631	7.39211
2711.000	1.83008	7.46183	0.97062	7.36087
2712.000	1.88341	7.40491	0.87179	7.39628
2713.000	1.89525	7.43223	0.91725	7.34728
2714.000	1.94265	7.40466	1.02595	7.38618
2715.000	1.91895	7.42040	1.12082	7.31747
2716.000	2.01769	7.40824	1.08327	7.30974
2717.000	2.04335	7.45699	1.10698	7.37229
2718.000	2.04138	7.48046	1.12279	7.34877
2719.000	2.03743	7.50197	1.14848	7.28414
2720.000	2.03546	7.53911	1.20975	7.36811
2721.000	2.00189	7.61741	1.09315	7.34298
2722.000	2.03348	7.57820	1.08524	7.36452
2723.000	1.99202	7.66238	1.07339	7.42127
2724.000	1.98609	7.65264	1.05362	7.37242
2725.000	1.93278	7.66264	0.98445	7.52512
2726.000	1.99991	7.65062	1.00619	7.38035
2727.000	1.91895	7.57676	0.93702	7.35507
2728.000	1.96437	7.53357	1.04967	7.42915
2729.000	1.96437	7.53162	1.00817	7.41556
2730.000	1.99202	7.48264	1.12279	7.35856
2731.000	1.96635	7.47102	1.03781	7.27070
2732.000	1.99202	7.42595	1.09315	7.30189
2733.000	1.97819	7.45142	1.05955	7.19626
2734.000	1.96832	7.42801	1.13268	7.21371
2735.000	1.99202	7.35751	1.14058	7.13733
2736.000	2.03348	7.35146	1.12477	7.11387
2737.000	2.02953	7.37885	1.16232	7.04717
2738.000	2.01769	7.34175	1.15046	7.07071
2739.000	2.04138	7.38858	1.17418	7.02951
2740.000	2.05125	7.36898	1.12279	7.00025
2741.000	2.00189	7.36724	1.17022	6.98250
2742.000	2.01966	7.39845	1.04769	6.88674
2743.000	2.01966	7.43169	1.17022	6.99229
2744.000	2.02361	7.45317	1.19196	6.98440
2745.000	2.03941	7.45310	1.17220	7.10004
2746.000	2.02163	7.47468	1.07734	7.08068
2747.000	1.98017	7.46901	1.13268	7.13343
2748.000	2.01966	7.53332	1.09315	7.18444
2749.000	2.05125	7.52341	1.07932	7.15902
2750.000	2.02361	7.55870	1.09117	7.18053
2751.000	2.01176	7.57048	1.13663	7.25285
2752.000	1.97029	7.60193	1.07734	7.29018
2753.000	1.96240	7.56875	1.15837	7.23909
2754.000	1.94857	7.55514	1.09710	7.17855
2755.000	1.94857	7.51996	1.06351	7.31370
2756.000	1.97424	7.55893	1.07536	7.28431
2757.000	1.96240	7.54726	1.11291	7.22550
2758.000	1.95450	7.48085	1.08920	7.17857
2759.000	1.94067	7.52000	1.08920	7.16095
2760.000	1.98017	7.51982	1.03584	7.20219
2761.000	1.94067	7.46527	1.12872	7.20393
2762.000	1.96042	7.44564	1.13268	7.14714
2763.000	1.99399	7.44353	1.05560	7.16299
2764.000	2.00979	7.45715	1.18603	7.09609
2765.000	1.98214	7.50027	1.12477	7.17849
2766.000	1.96437	7.46517	1.08327	7.13159
2767.000	1.98609	7.45530	1.12675	7.12169
2768.000	1.97227	7.45536	1.11094	7.12173
2769.000	1.98609	7.47875	1.05758	7.17081
2770.000	1.97424	7.46512	1.08327	7.12571
2771.000	1.91698	7.45951	1.16034	6.98840
2772.000	1.97819	7.48856	1.11884	7.05707
2773.000	1.95450	7.43980	1.08722	7.11983
2774.000	1.93475	7.46530	1.10896	7.13153
2775.000	1.94067	7.47895	1.12872	7.06489
2776.000	1.92488	7.39691	1.13663	7.11775
2777.000	1.93672	7.42228	1.15639	7.03739
2778.000	1.94067	7.40076	1.13070	7.13539
2779.000	1.96635	7.44561	1.12279	7.04335
2780.000	1.96437	7.34590	1.13465	7.09425
2781.000	2.00781	7.38873	1.17418	7.02559
2782.000	2.00584	7.36918	1.15046	7.14318
2783.000	1.97819	7.43969	1.20777	7.06861
2784.000	1.98017	7.36734	1.20579	7.07449
2785.000	1.99597	7.41615	1.10501	7.06103
2786.000	2.00781	7.43956	1.19591	7.16656
2787.000	2.00189	7.43372	1.17813	7.05693
2788.000	1.94265	7.44767	1.15244	7.06287
2789.000	1.97029	7.46123	1.08920	7.10220
2790.000	1.90315	7.47716	1.15639	7.13533
2791.000	1.93080	7.44381	1.15441	7.09225
2792.000	1.92685	7.42037	1.07536	7.12769
2793.000	1.90118	7.43025	1.13663	7.05507
2794.000	1.95647	7.41242	1.08524	7.11004
2795.000	1.92488	7.48098	1.10501	7.11783
2796.000	1.92488	7.44188	1.10303	7.09825
2797.000	1.93672	7.43988	1.11489	7.14131
2798.000	1.97424	7.44362	1.16627	7.06284
2799.000	1.97029	7.46905	1.09513	7.12960
2800.000	1.99202	7.40640	1.12279	7.04727
2801.000	1.99004	7.40445	1.11489	7.09430
2802.000	1.96240	7.42608	1.10501	7.10216
2803.000	1.99202	7.39858	1.07734	7.15510
2804.000	1.97819	7.39082	1.14848	7.08051
2805.000	1.96437	7.36937	1.10896	7.07865
2806.000	1.95450	7.37332	1.19196	7.08824
2807.000	1.96437	7.41238	1.15244	7.15296
2808.000	1.98214	7.41231	1.08327	7.07675
2809.000	1.95845	7.39286	1.16825	7.03540
2810.000	1.95252	7.39679	1.12279	7.08057
2811.000	1.94462	7.32838	1.11094	7.10215
2812.000	1.93278	7.34603	1.12279	7.01396
2813.000	1.94067	7.33818	1.14651	7.04917
2814.000	1.97424	7.37323	1.14058	7.10208
2815.000	1.96635	7.31851	1.18603	7.04124
2816.000	1.93475	7.30691	1.12675	6.99828
2817.000	1.94067	7.36360	1.21963	6.95493
2818.000	1.92685	7.31281	1.14453	7.05114
2819.000	1.92488	7.34607	1.15639	7.09420
2820.000	1.95845	7.27355	1.25915	7.00578
2821.000	1.92883	7.28933	1.16034	7.06285
2822.000	1.92685	7.31476	1.13663	7.02177
2823.000	1.93870	7.32449	1.20777	6.99024
2824.000	1.90513	7.35006	1.16825	6.89822
2825.000	1.92093	7.31088	1.12279	6.91989
2826.000	1.88735	7.34231	1.18801	7.06278
2827.000	1.90710	7.35201	1.18010	6.97267
2828.000	1.89328	7.34033	1.23346	6.94510
2829.000	1.90908	7.34418	1.17418	7.00012
2830.000	1.90513	7.33637	1.25717	7.04105
2831.000	1.87551	7.32085	1.25520	7.01951
2832.000	1.89328	7.31882	1.19987	7.08430
2833.000	1.88538	7.33254	1.21370	7.07839
2834.000	1.87748	7.34236	1.17813	7.07064
2835.000	1.87748	7.30715	1.19394	7.09019
2836.000	1.90908	7.35200	1.23544	6.94314
2837.000	1.88538	7.35015	1.23741	6.96861
2838.000	1.88933	7.31883	1.20382	6.95106
2839.000	1.84588	7.29554	1.14256	7.02175
2840.000	1.87156	7.31891	1.20579	7.02159
2841.000	1.85181	7.31508	1.18208	6.96875
2842.000	1.82218	7.31715	1.20777	6.99024
2843.000	1.86168	7.31699	1.13465	6.93359
2844.000	1.81231	7.31719	1.18801	6.91581
2845.000	1.86563	7.33067	1.20975	6.92360
2846.000	1.85971	7.34243	1.16034	7.04130
2847.000	1.84588	7.37965	1.20382	6.98829
2848.000	1.84588	7.36791	1.20184	7.07058
2849.000	1.85378	7.32876	1.18998	6.95893
2850.000	1.86761	7.30719	1.16034	6.96096
2851.000	1.86168	7.32873	1.16627	7.10397
2852.000	1.86168	7.33460	1.14256	7.00804
2853.000	1.88341	7.30321	1.27891	7.06450
2854.000	1.88538	7.32668	1.23148	7.06855
2855.000	1.90908	7.32462	1.19591	7.02162
2856.000	1.87748	7.33062	1.24334	6.95879
2857.000	1.87353	7.31890	1.23544	6.99801
2858.000	1.87946	7.33648	1.19987	6.99810
2859.000	1.84588	7.27989	1.15837	6.99820
2860.000	1.85773	7.30918	1.25322	6.95877
2861.000	1.91500	7.30699	1.22951	6.96667
2862.000	1.88735	7.28167	1.18998	6.97461
2863.000	1.85576	7.35222	1.24334	6.94899
2864.000	1.85773	7.30723	1.22160	6.87652
2865.000	1.85773	7.29353	1.23939	6.82942
2866.000	1.86761	7.29545	1.20579	6.97653
2867.000	1.87156	7.33456	1.24927	6.95290
2868.000	1.89723	7.29924	1.17813	6.93936
2869.000	1.83601	7.29949	1.30262	6.92140
2870.000	1.86563	7.33067	1.23346	6.94118
2871.000	1.86366	7.32676	1.19987	6.93735
2872.000	1.83206	7.33472	1.14058	7.02372
2873.000	1.85181	7.31508	1.13663	6.96886
2874.000	1.85773	7.30136	1.17813	6.97660
2875.000	1.88143	7.30713	1.22160	6.98041
2876.000	1.84391	7.27403	1.19196	6.99812
2877.000	1.83996	7.27209	1.15837	6.99428
2878.000	1.83206	7.27016	1.19394	7.03142
2879.000	1.85378	7.28377	1.29076	7.00374
2880.000	1.88143	7.27192	1.18603	6.90602
2881.000	1.81033	7.28394	1.30855	6.92138
2882.000	1.82416	7.26824	1.28681	6.81165
2883.000	1.86168	7.27591	1.14651	6.92376
2884.000	1.84391	7.26033	1.22951	6.90395
2885.000	1.85971	7.25831	1.18010	6.88839
2886.000	1.88538	7.25038	1.26903	6.91757
2887.000	1.85181	7.30138	1.18801	6.92366
2888.000	1.84983	7.27987	1.26508	6.96070
2889.000	1.86958	7.28762	1.25717	6.91956
2890.000	1.84983	7.25444	1.24927	6.92154
2891.000	1.83798	7.25840	1.20975	6.95496
2892.000	1.83403	7.29167	1.25124	6.89409
2893.000	1.82613	7.26040	1.21963	6.90397
2894.000	1.80836	7.28591	1.32831	6.96836
2895.000	1.84588	7.26032	1.19789	6.96675
2896.000	1.83996	7.23882	1.23939	6.85491
2897.000	1.83798	7.27601	1.21765	6.99609
2898.000	1.83206	7.26038	1.25520	6.87644
2899.000	1.80046	7.23898	1.21370	6.84714
2900.000	1.79058	7.27815	1.24927	6.96074
2901.000	1.81428	7.24284	1.21567	6.85889
2902.000	1.77281	7.27039	1.18406	6.85309
2903.000	1.79848	7.20767	1.19394	6.86091
2904.000	1.80243	7.25462	1.24927	6.91370
2905.000	1.80441	7.20961	1.23346	6.85885
2906.000	1.82811	7.22321	1.29867	6.85476
2907.000	1.82218	7.19192	1.20975	6.92164
2908.000	1.86366	7.24068	1.31448	6.86060
2909.000	1.83601	7.18795	1.29669	6.90573
2910.000	1.80441	7.20374	1.20184	6.78637
2911.000	1.81428	7.18804	1.19987	6.88050
2912.000	1.86168	7.18785	1.26705	6.91169
2913.000	1.83798	7.19773	1.24729	6.75096
2914.000	1.86958	7.19956	1.18406	6.87858
2915.000	1.83601	7.14293	1.18603	6.87661
2916.000	1.87551	7.12907	1.36190	6.86439
2917.000	1.80441	7.19395	1.24136	6.86079
2918.000	1.87551	7.12320	1.21567	6.82556
2919.000	1.81626	7.18607	1.25717	6.87055
2920.000	1.84391	7.17226	1.26705	6.93129
2921.000	1.84983	7.23878	1.16825	6.90018
2922.000	1.83206	7.19971	1.24136	6.78039
2923.000	1.88143	7.16233	1.30460	6.86062
2924.000	1.86366	7.22698	1.18208	6.86486
2925.000	1.89525	7.23077	1.23544	6.84512
2926.000	1.90710	7.17788	1.34609	6.85071
2927.000	1.92290	7.20130	1.22160	6.91769
2928.000	1.91303	7.21113	1.26508	6.86073
2929.000	1.89130	7.21709	1.33226	6.88015
2930.000	1.85971	7.18003	1.22753	6.85102
2931.000	1.89130	7.22100	1.20975	6.94712
2932.000	1.85773	7.18591	1.32238	6.86057
2933.000	1.86366	7.19371	1.20777	6.86676
2934.000	1.87748	7.21910	1.24927	6.88429
2935.000	1.86958	7.21326	1.26903	6.86072
2936.000	1.89525	7.21511	1.33621	6.85465
2937.000	1.88933	7.17208	1.24334	6.86863
2938.000	1.89130	7.18773	1.22160	6.86868
2939.000	1.89130	7.23078	1.26310	6.86661
2940.000	1.88143	7.19168	1.20382	6.79814
2941.000	1.91698	7.19545	1.24334	6.90391
2942.000	1.83798	7.20947	1.24927	6.87645
2943.000	1.88538	7.16427	1.24927	6.75291
2944.000	1.88143	7.16233	1.28879	6.88223
2945.000	1.90908	7.22093	1.23544	6.89217
2946.000	1.88538	7.14861	1.22555	6.81377
2947.000	1.87946	7.15059	1.26310	6.88034
2948.000	1.88341	7.16427	1.18208	6.93543
2949.000	1.86761	7.17804	1.24334	6.93723
2950.000	1.92093	7.17782	1.18406	6.84917
2951.000	1.92488	7.17389	1.24136	6.85687
2952.000	1.86168	7.18785	1.22555	6.85495
2953.000	1.87946	7.17995	1.22160	6.85692
2954.000	1.90908	7.16417	1.26310	6.81956
2955.000	1.87748	7.19953	1.33226	6.90956
2956.000	1.88538	7.19754	1.29669	6.80966
2957.000	1.89920	7.17204	1.23939	6.89804
2958.000	1.86761	7.19174	1.30657	6.80572
2959.000	1.87156	7.22695	1.24927	6.87841
2960.000	1.89130	7.16033	1.28286	6.94105
2961.000	1.90513	7.19942	1.19789	6.86678
2962.000	1.90908	7.17983	1.22753	6.84710
2963.000	1.90710	7.17005	1.24927	6.86469
2964.000	1.90315	7.17790	1.25322	6.89017
2965.000	1.88735	7.17992	1.21172	6.89223
2966.000	1.90710	7.21311	1.33226	6.89583
2967.000	1.87748	7.21323	1.28681	6.86655
2968.000	1.90118	7.17007	1.22753	6.89415
2969.000	1.92685	7.16997	1.19591	6.91580
2970.000	1.90513	7.21312	1.16825	6.80999
2971.000	1.87353	7.22890	1.27496	6.81953
2972.000	1.89920	7.22684	1.14651	6.84926
2973.000	1.86563	7.23089	1.24729	6.81568
2974.000	1.89723	7.25033	1.15441	6.86493
2975.000	1.88933	7.26210	1.19394	6.84326
2976.000	1.89130	7.28166	1.24729	6.79803
2977.000	1.88341	7.19363	1.15837	6.77471
2978.000	1.88933	7.19361	1.23148	6.80591
2979.000	1.90513	7.23073	1.27693	6.85678
2980.000	1.89920	7.21901	1.22753	6.75689
2981.000	1.88735	7.21710	1.25717	6.86663
2982.000	1.94265	7.16207	1.20184	6.79618
2983.000	1.92883	7.20323	1.21370	6.78438
2984.000	1.89328	7.21904	1.08920	6.88272
2985.000	1.90710	7.15831	1.19987	6.84325
2986.000	1.91105	7.21700	1.14848	6.87278
2987.000	1.87946	7.23475	1.19987	6.90206
2988.000	1.86761	7.21718	1.25717	6.83330
2989.000	1.88735	7.24450	1.20382	6.87265
2990.000	1.85576	7.25832	1.26705	6.84308
2991.000	1.89328	7.19751	1.24927	6.86077
2992.000	1.85773	7.22897	1.24136	6.82354
2993.000	1.90315	7.19551	1.23544	6.86865
2994.000	1.88538	7.23864	1.27693	6.89206
2995.000	1.88341	7.21516	1.29274	6.84693
2996.000	1.86366	7.18589	1.26310	6.82936
2997.000	1.89130	7.23078	1.31645	6.86255
2998.000	1.89328	7.21121	1.17418	6.80213
2999.000	1.93475	7.18951	1.28879	6.88419
3000.000	1.90118	7.23857	1.20777	6.89812
3001.000	1.95647	7.21877	1.19987	6.81972
3002.000	1.93080	7.19735	1.26112	6.85878
3003.000	1.90908	7.17396	1.18010	6.88447
3004.000	1.91303	7.13675	1.24532	6.81960
3005.000	1.94067	7.17970	1.28879	6.78027
3006.000	1.90118	7.18573	1.20777	6.85107
3007.000	1.86958	7.15846	1.24334	6.85098
3008.000	1.91500	7.19350	1.24927	6.78037
3009.000	1.90710	7.14852	1.27100	6.79208
3010.000	1.90908	7.18374	1.33028	6.80565
3011.000	1.97424	7.17564	1.29669	6.74102
3012.000	1.95647	7.17180	1.35992	6.84479
3013.000	1.89920	7.17595	1.23544	6.75883
3014.000	1.92488	7.13474	1.26705	6.79602
3015.000	1.96437	7.12870	1.23544	6.78237
3016.000	1.95647	7.18159	1.27298	6.81953
3017.000	1.94857	7.12681	1.20975	6.80008
3018.000	1.91500	7.11129	1.29274	6.80183
3019.000	1.96635	7.11891	1.24927	6.81567
3020.000	1.95450	7.12483	1.19196	6.81778
3021.000	1.95647	7.16201	1.24334	6.77843
3022.000	1.92488	7.09363	1.28879	6.78027
3023.000	1.95252	7.10526	1.25915	6.85290
3024.000	1.92685	7.10341	1.26705	6.86856
3025.000	1.90513	7.11133	1.21963	6.82751
3026.000	1.91500	7.12108	1.27693	6.87638
3027.000	1.92685	7.13082	1.23939	6.83138
3028.000	1.92685	7.12690	1.20579	6.84715
3029.000	1.94265	7.14837	1.21172	6.82165
3030.000	1.91698	7.14848	1.23544	6.76668
3031.000	1.93278	7.12688	1.27298	6.89795
3032.000	1.94067	7.16795	1.26705	6.82543
3033.000	1.93870	7.11315	1.22753	6.78827
3034.000	1.93870	7.10923	1.33226	6.82722
3035.000	1.88538	7.13099	1.21370	6.84321
3036.000	1.90513	7.11524	1.28879	6.79204
3037.000	1.91895	7.10931	1.36190	6.78007
3038.000	1.93672	7.11316	1.24532	6.87058
3039.000	1.91105	7.10347	1.23148	6.90982
3040.000	1.93475	7.15232	1.24532	6.77254
3041.000	1.90118	7.07023	1.24136	6.88432
3042.000	1.91303	7.14458	1.29472	6.76456
3043.000	1.90118	7.09177	1.32436	6.85273
3044.000	1.91698	7.11324	1.32633	6.84292
3045.000	1.89525	7.10941	1.27100	6.77835
3046.000	1.88143	7.09185	1.21370	6.83341
3047.000	1.89130	7.06243	1.24927	6.84704
3048.000	1.87748	7.10165	1.42908	6.77400
3049.000	1.89328	7.08788	1.30262	6.69392
3050.000	1.91698	7.10149	1.24136	6.73332
3051.000	1.91303	7.09955	1.32238	6.81156
3052.000	1.90908	7.07411	1.31250	6.76648
3053.000	1.94265	7.05243	1.31250	6.75471
3054.000	1.89920	7.07219	1.28879	6.75085
3055.000	1.90315	7.07022	1.25717	6.78623
3056.000	1.89328	7.15249	1.30855	6.77041
3057.000	1.91895	7.09365	1.28286	6.82343
3058.000	1.85773	7.12327	1.21963	6.81967
3059.000	1.90710	7.10741	1.35202	6.85461
3060.000	1.91105	7.15046	1.18998	6.77071
3061.000	1.87551	7.11928	1.35597	6.94281
3062.000	1.89920	7.10940	1.32633	6.86252
3063.000	1.90710	7.14656	1.31645	6.82726
3064.000	1.88143	7.15841	1.37375	6.87415
3065.000	1.87156	7.11734	1.29669	6.83123
3066.000	1.91895	7.16804	1.22951	6.84710
3067.000	1.91105	7.14654	1.29076	6.83713
3068.000	1.86958	7.15454	1.26705	6.86464
3069.000	1.92093	7.13280	1.28286	6.86460
3070.000	1.95055	7.03282	1.30855	6.76453
3071.000	2.00386	6.90722	1.29076	6.76457
3072.000	1.97424	6.78190	1.39746	6.65835
3073.000	2.00584	6.56799	1.44883	6.47959
3074.000	2.08679	6.32227	1.58318	6.29261
3075.000	2.13418	6.12758	1.71158	5.99144
3076.000	2.24867	5.81643	1.72343	5.66471
3077.000	2.30197	5.45595	1.86168	5.25839
3078.000	2.36315	5.02206	2.00781	4.85155
3079.000	2.39473	4.65486	2.08087	4.46423
3080.000	2.46578	4.24369	2.32565	4.00089
3081.000	2.57627	3.75285	2.41447	3.49990
3082.000	2.59008	3.25385	2.54865	3.12319
3083.000	2.60587	2.90901	2.59798	2.71473
3084.000	2.65519	2.60951	2.56641	2.32602
3085.000	2.67097	2.13930	2.72818	1.80972
3086.000	2.62165	1.76421	2.62165	1.41868
3087.000	2.55062	1.52005	2.65519	1.03527
3088.000	2.58811	1.22008	2.58614	0.72934
3089.000	2.47959	0.82081	2.56641	0.49287
3090.000	2.45591	0.44522	2.57233	0.07751
3091.000	2.45986	0.23056	2.46380	-0.15304
3092.000	2.38289	0.00795	2.46775	-0.36372
3093.000	2.34737	-0.30015	2.44604	-0.66980
3094.000	2.40855	-0.56250	2.51905	-0.99763
3095.000	2.33355	-0.78314	2.39473	-1.18450
3096.000	2.33355	-0.95206	2.44012	-1.30168
3097.000	2.27433	-1.16871	2.41052	-1.59371
3098.000	2.29210	-1.38327	2.44999	-1.66317
3099.000	2.28420	-1.52631	2.48551	-1.80213
3100.000	2.24670	-1.72895	2.44999	-1.91535
3101.000	2.19932	-1.78065	2.39276	-1.91742
3102.000	2.20130	-1.80845	2.39276	-1.90153
3103.000	2.17958	-1.92962	2.38684	-1.89956
3104.000	2.18550	-1.87798	2.37105	-1.97105
3105.000	2.20130	-1.93157	2.34342	-1.83210
3106.000	2.21709	-1.86999	2.35329	-1.83010
3107.000	2.25065	-1.82428	2.37894	-1.79433
3108.000	2.24670	-1.73293	2.33750	-1.67721
3109.000	2.25657	-1.67730	2.38289	-1.55600
3110.000	2.31381	-1.58190	2.36908	-1.48252
3111.000	2.34539	-1.44282	2.39276	-1.43085
3112.000	2.36710	-1.30572	2.38684	-1.35735
3113.000	2.35131	-1.21235	2.31776	-1.28590
3114.000	2.42828	-1.06526	2.35329	-1.11897
3115.000	2.48551	-0.95990	2.39473	-1.07919
3116.000	2.47959	-0.91222	2.38486	-0.91825
3117.000	2.49143	-0.85657	2.42828	-0.94802
3118.000	2.57430	-0.83267	2.39473	-0.89837
3119.000	2.52103	-0.79098	2.36513	-0.91826
3120.000	2.51313	-0.79893	2.35131	-0.84672
3121.000	2.54471	-0.82077	2.43223	-0.90828
3122.000	2.54668	-0.86250	2.42236	-0.98777
3123.000	2.57825	-0.94394	2.34934	-1.04942
3124.000	2.52300	-1.05723	2.39078	-1.19245
3125.000	2.53681	-1.12477	2.43223	-1.29175
3126.000	2.53879	-1.21020	2.42828	-1.38314
3127.000	2.56641	-1.32936	2.40657	-1.43481
3128.000	2.52892	-1.45056	2.37500	-1.55799
3129.000	2.51511	-1.49626	2.33947	-1.55009
3130.000	2.47564	-1.58171	2.35131	-1.64144
3131.000	2.53287	-1.66704	2.40263	-1.72678
3132.000	2.49538	-1.63730	2.34144	-1.72090
3133.000	2.52497	-1.71868	2.38289	-1.76056
3134.000	2.50524	-1.73657	2.25854	-1.81037
3135.000	2.49932	-1.81601	2.32368	-1.83411
3136.000	2.53681	-1.81595	2.30197	-1.80237
3137.000	2.49538	-1.75446	2.35723	-1.81421
3138.000	2.48354	-1.81007	2.32565	-1.85397
3139.000	2.52892	-1.77626	2.22696	-1.81041
3140.000	2.52300	-1.78818	2.30789	-1.79243
3141.000	2.54471	-1.80205	2.31776	-1.75866
3142.000	2.53089	-1.76831	2.29605	-1.74081
3143.000	2.51708	-1.75244	2.30197	-1.71499
3144.000	2.54865	-1.72460	2.27433	-1.71502
3145.000	2.52497	-1.73456	2.25657	-1.68723
3146.000	2.54076	-1.72660	2.28815	-1.65939
3147.000	2.53879	-1.70476	2.30394	-1.65739
3148.000	2.56049	-1.74643	2.41841	-1.66519
3149.000	2.58022	-1.67492	2.35526	-1.65931
3150.000	2.50722	-1.67104	2.23683	-1.69322
3151.000	2.55654	-1.63722	2.37894	-1.68312
3152.000	2.55457	-1.65509	2.26644	-1.64948
3153.000	2.54471	-1.65113	2.30592	-1.68519
3154.000	2.56641	-1.64316	2.33355	-1.66132
3155.000	2.54273	-1.62731	2.27039	-1.69715
3156.000	2.54076	-1.61539	2.36118	-1.69903
3157.000	2.55852	-1.61537	2.29407	-1.63754
3158.000	2.54668	-1.62532	2.40855	-1.67712
3159.000	2.55457	-1.60148	2.37697	-1.64340
3160.000	2.58417	-1.64910	2.34934	-1.73280
3161.000	2.55062	-1.64120	2.36513	-1.60369
3162.000	2.52892	-1.62931	2.33947	-1.65139
3163.000	2.56246	-1.59352	2.31579	-1.63751
3164.000	2.55852	-1.63722	2.27236	-1.66934
3165.000	2.59206	-1.63717	2.23486	-1.57007
3166.000	2.54076	-1.66703	2.32171	-1.64346
3167.000	2.53879	-1.64121	2.34144	-1.63351
3168.000	2.54076	-1.63327	2.37894	-1.65730
3169.000	2.56641	-1.65508	2.28420	-1.61768
3170.000	2.60784	-1.65304	2.30197	-1.58787
3171.000	2.55654	-1.63325	2.28026	-1.56406
3172.000	2.58614	-1.66498	2.33750	-1.70303
3173.000	2.58614	-1.63321	2.31973	-1.60771
3174.000	2.56049	-1.66104	2.30394	-1.62958
3175.000	2.58219	-1.66896	2.35921	-1.62952
3176.000	2.58022	-1.64513	2.30789	-1.70703
3177.000	2.59995	-1.66496	2.36710	-1.66128
3178.000	2.62954	-1.63911	2.33750	-1.69111
3179.000	2.60784	-1.65304	2.29605	-1.76266
3180.000	2.59403	-1.66894	2.36315	-1.69505
3181.000	2.60390	-1.68879	2.31973	-1.70106
3182.000	2.58811	-1.65902	2.27631	-1.71502
3183.000	2.57825	-1.63719	2.29802	-1.71300
3184.000	2.57233	-1.69280	2.27631	-1.70707
3185.000	2.60784	-1.65105	2.30986	-1.72093
3186.000	2.60390	-1.63120	2.29605	-1.76862
3187.000	2.56641	-1.63323	2.23288	-1.70712
3188.000	2.61376	-1.63714	2.28420	-1.67330
3189.000	2.59798	-1.64908	2.26249	-1.69716
3190.000	2.58219	-1.66896	2.34737	-1.68514
3191.000	2.58811	-1.67491	2.30394	-1.65341
3192.000	2.64730	-1.63114	2.30000	-1.71499
3193.000	2.61179	-1.65303	2.30986	-1.63553
3194.000	2.60192	-1.68085	2.30986	-1.66334
3195.000	2.64533	-1.67483	2.23683	-1.69719
3196.000	2.59206	-1.62923	2.32960	-1.65537
3197.000	2.60390	-1.69077	2.24670	-1.67334
3198.000	2.56444	-1.64912	2.33355	-1.69112
3199.000	2.56444	-1.67097	2.33947	-1.67721
3200.000	2.58219	-1.63719	2.30394	-1.68321
3201.000	2.55852	-1.67097	2.31776	-1.69908
3202.000	2.54865	-1.67694	2.33355	-1.68317
3203.000	2.54865	-1.65510	2.27631	-1.69317
3204.000	2.55260	-1.66502	2.29210	-1.71698
3205.000	2.58417	-1.68484	2.31973	-1.73284
3206.000	2.58022	-1.67492	2.34539	-1.71493
3207.000	2.58022	-1.71066	2.34144	-1.66926
3208.000	2.58614	-1.68484	2.29013	-1.66932
3209.000	2.61376	-1.70069	2.23091	-1.68925
3210.000	2.59403	-1.70866	2.32565	-1.69907
3211.000	2.58219	-1.68286	2.25065	-1.61971
3212.000	2.59008	-1.70072	2.32565	-1.67524
3213.000	2.58614	-1.67491	2.26249	-1.65942
3214.000	2.54273	-1.66702	2.32565	-1.72092
3215.000	2.58417	-1.67690	2.27828	-1.74282
3216.000	2.57825	-1.67492	2.26841	-1.74085
3217.000	2.56049	-1.69877	2.31381	-1.67525
3218.000	2.57233	-1.70074	2.24473	-1.72101
3219.000	2.58811	-1.66299	2.28618	-1.68720
3220.000	2.56838	-1.68486	2.36315	-1.70101
3221.000	2.60587	-1.69474	2.29013	-1.73486
3222.000	2.57430	-1.67890	2.31381	-1.74675
3223.000	2.54865	-1.78020	2.28026	-1.72891
3224.000	2.58417	-1.71463	2.29407	-1.72095
3225.000	2.59600	-1.73248	2.27433	-1.73488
3226.000	2.58811	-1.70072	2.32960	-1.65736
3227.000	2.57825	-1.74045	2.27631	-1.70707
3228.000	2.59008	-1.72455	2.26644	-1.71900
3229.000	2.60784	-1.72651	2.29605	-1.72691
3230.000	2.54865	-1.74446	2.28026	-1.77062
3231.000	2.61573	-1.73047	2.27828	-1.70707
3232.000	2.57430	-1.68485	2.26249	-1.72298
3233.000	2.58811	-1.69278	2.26841	-1.67928
3234.000	2.60981	-1.70466	2.29013	-1.76266
3235.000	2.60981	-1.65701	2.33552	-1.74871
3236.000	2.58417	-1.68484	2.30394	-1.66533
3237.000	2.62165	-1.69869	2.29210	-1.67130
3238.000	2.59206	-1.70667	2.35131	-1.71890
3239.000	2.60587	-1.68084	2.23880	-1.64356
3240.000	2.62362	-1.67883	2.34342	-1.74870
3241.000	2.60192	-1.70269	2.26644	-1.70510
3242.000	2.59403	-1.73050	2.28420	-1.64549
3243.000	2.59206	-1.67093	2.34342	-1.71692
3244.000	2.61376	-1.66097	2.27039	-1.68523
3245.000	2.58614	-1.70072	2.28815	-1.66734
3246.000	2.58417	-1.73051	2.33355	-1.65139
3247.000	2.57233	-1.79406	2.32171	-1.69510
3248.000	2.59403	-1.74241	2.31776	-1.66333
3249.000	2.57825	-1.70073	2.34144	-1.66926
3250.000	2.58022	-1.72853	2.30394	-1.69711
3251.000	2.53681	-1.68887	2.34737	-1.67124
3252.000	2.58811	-1.71264	2.33750	-1.67919
3253.000	2.57430	-1.68684	2.30000	-1.61965
3254.000	2.58417	-1.73250	2.27433	-1.57996
3255.000	2.60587	-1.69275	2.35723	-1.69704
3256.000	2.57233	-1.74641	2.31381	-1.66333
3257.000	2.63941	-1.71058	2.28223	-1.69515
3258.000	2.57627	-1.73251	2.22104	-1.73296
3259.000	2.57825	-1.73449	2.33750	-1.72090
3260.000	2.56641	-1.76032	2.32565	-1.68914
3261.000	2.56641	-1.75635	2.21117	-1.71708
3262.000	2.61573	-1.73245	2.25065	-1.72895
3263.000	2.56444	-1.74642	2.33552	-1.71495
3264.000	2.60390	-1.70864	2.32763	-1.69509
3265.000	2.56444	-1.74444	2.31973	-1.75667
3266.000	2.58614	-1.76823	2.39078	-1.68310
3267.000	2.59995	-1.76424	2.28815	-1.71500
3268.000	2.58022	-1.76030	2.31776	-1.60176
3269.000	2.60587	-1.74041	2.29802	-1.73684
3270.000	2.59798	-1.77417	2.32763	-1.70304
3271.000	2.59206	-1.75433	2.34144	-1.67720
3272.000	2.62165	-1.68876	2.27631	-1.72693
3273.000	2.62954	-1.70662	2.30394	-1.64547
3274.000	2.60784	-1.72651	2.32565	-1.76063
3275.000	2.60981	-1.73643	2.30592	-1.69909
3276.000	2.62560	-1.74038	2.31776	-1.73681
3277.000	2.61771	-1.72054	2.31579	-1.71696
3278.000	2.60784	-1.73445	2.31381	-1.66532
3279.000	2.55260	-1.74644	2.37500	-1.69901
3280.000	2.60192	-1.71857	2.29407	-1.71897
3281.000	2.59798	-1.69277	2.19143	-1.61779
3282.000	2.61573	-1.67686	2.26644	-1.70113
3283.000	2.60784	-1.69474	2.31973	-1.62956
3284.000	2.57627	-1.68882	2.31381	-1.71497
3285.000	2.57233	-1.72656	2.27433	-1.69714
3286.000	2.55062	-1.71864	2.31973	-1.71695
3287.000	2.56246	-1.71664	2.34539	-1.65932
3288.000	2.58417	-1.72058	2.33947	-1.62557
3289.000	2.59206	-1.71660	2.27039	-1.70311
3290.000	2.61573	-1.74040	2.40263	-1.72082
3291.000	2.55457	-1.76232	2.37500	-1.69702
3292.000	2.59995	-1.73446	2.34144	-1.73877
3293.000	2.60784	-1.69077	2.28026	-1.70508
3294.000	2.62165	-1.70465	2.33947	-1.69905
3295.000	2.57430	-1.77222	2.32368	-1.74475
3296.000	2.63152	-1.73442	2.32763	-1.75666
3297.000	2.62757	-1.73641	2.30592	-1.72888
3298.000	2.62362	-1.70464	2.32763	-1.66332
3299.000	2.59798	-1.75035	2.31973	-1.72887
3300.000	2.61968	-1.71061	2.36513	-1.69704
3301.000	2.60784	-1.72452	2.28420	-1.69515
3302.000	2.61968	-1.73046	2.28815	-1.71699
3303.000	2.57627	-1.71464	2.31973	-1.76064
3304.000	2.59008	-1.72455	2.31776	-1.69113
3305.000	2.58811	-1.70469	2.26644	-1.68325
3306.000	2.62757	-1.71457	2.26447	-1.67531
3307.000	2.61573	-1.74834	2.34144	-1.72487
3308.000	2.58811	-1.75036	2.23091	-1.65747
3309.000	2.62165	-1.71457	2.23288	-1.66541
3310.000	2.58811	-1.70469	2.29605	-1.64548
3311.000	2.59403	-1.71461	2.38881	-1.70098
3312.000	2.60192	-1.73247	2.30000	-1.64945
3313.000	2.58219	-1.71661	2.36710	-1.70895
3314.000	2.60587	-1.73445	2.26249	-1.64949
3315.000	2.65913	-1.71651	2.30000	-1.68321
3316.000	2.63349	-1.69272	2.28618	-1.71898
3317.000	2.62165	-1.74634	2.25065	-1.70512
3318.000	2.63349	-1.76817	2.26644	-1.71503
3319.000	2.60784	-1.76423	2.27236	-1.70310
3320.000	2.62954	-1.75229	2.25460	-1.71306
3321.000	2.64730	-1.74829	2.30986	-1.77257
3322.000	2.61376	-1.72848	2.28026	-1.68721
3323.000	2.60192	-1.76027	2.18945	-1.62176
3324.000	2.60192	-1.72254	2.32960	-1.69311
3325.000	2.61771	-1.70862	2.31184	-1.74874
3326.000	2.61573	-1.72253	2.31776	-1.63155
3327.000	2.58614	-1.73051	2.30000	-1.70109
3328.000	2.59206	-1.75631	2.36315	-1.63746
3329.000	2.60192	-1.74836	2.31973	-1.70106
3330.000	2.57627	-1.75038	2.25262	-1.71107
3331.000	2.59995	-1.76821	2.31579	-1.59183
3332.000	2.64533	-1.72447	2.30789	-1.68916
3333.000	2.61968	-1.73245	2.32368	-1.65935
3334.000	2.61376	-1.77217	2.41447	-1.69499
3335.000	2.59008	-1.75830	2.34342	-1.63549
3336.000	2.63152	-1.75427	2.33552	-1.63352
3337.000	2.60390	-1.74041	2.39078	-1.68310
3338.000	2.61968	-1.73046	2.29013	-1.68124
3339.000	2.62954	-1.75030	2.29802	-1.67328
3340.000	2.58417	-1.71065	2.33355	-1.70502
3341.000	2.59995	-1.72652	2.31381	-1.67922
3342.000	2.60390	-1.71460	2.32763	-1.62757
3343.000	2.60784	-1.67885	2.27631	-1.67132
3344.000	2.62362	-1.71457	2.22893	-1.70911
3345.000	2.59206	-1.70469	2.34539	-1.66330
3346.000	2.60587	-1.73445	2.32565	-1.66729
3347.000	2.57627	-1.74442	2.30592	-1.65937
3348.000	2.57430	-1.71861	2.30000	-1.66931
3349.000	2.55260	-1.73055	2.32565	-1.61367
3350.000	2.56246	-1.74245	2.31579	-1.65141
3351.000	2.58022	-1.79008	2.25065	-1.64752
3352.000	2.58022	-1.72059	2.20722	-1.66147
3353.000	2.56049	-1.75636	2.30394	-1.67129
3354.000	2.58219	-1.72853	2.34144	-1.65536
3355.000	2.57430	-1.74641	2.33552	-1.68118
3356.000	2.54865	-1.78417	2.31776	-1.65737
3357.000	2.59403	-1.75234	2.27039	-1.63558
3358.000	2.58417	-1.73448	2.29210	-1.66535
3359.000	2.56641	-1.78216	2.33552	-1.69707
3360.000	2.56246	-1.81592	2.33947	-1.74274
3361.000	2.56246	-1.75834	2.24867	-1.67135
3362.000	2.52892	-1.78420	2.25854	-1.62963
3363.000	2.56049	-1.77025	2.27828	-1.68919
3364.000	2.58614	-1.76625	2.26841	-1.71701
3365.000	2.56838	-1.79606	2.26841	-1.74085
3366.000	2.53484	-1.78022	2.35329	-1.70698
3367.000	2.54076	-1.79808	2.34737	-1.70699
3368.000	2.58417	-1.77022	2.30000	-1.63157
3369.000	2.54865	-1.76034	2.30197	-1.66533
3370.000	2.55260	-1.77424	2.27631	-1.67728
3371.000	2.53681	-1.78022	2.30592	-1.71697
3372.000	2.58417	-1.76228	2.37105	-1.60964
3373.000	2.59403	-1.79006	2.34539	-1.72089
3374.000	2.55457	-1.73254	2.31184	-1.69511
3375.000	2.57825	-1.74640	2.33947	-1.64741
3376.000	2.56246	-1.77621	2.29407	-1.66733
3377.000	2.55260	-1.75240	2.29407	-1.64349
3378.000	2.55852	-1.78614	2.32368	-1.69709
3379.000	2.57627	-1.78413	2.31776	-1.70901
3380.000	2.57233	-1.79804	2.29605	-1.65938
3381.000	2.58614	-1.76426	2.29210	-1.69911
3382.000	2.57825	-1.76427	2.22104	-1.62173
3383.000	2.57035	-1.77223	2.26249	-1.62367
3384.000	2.54471	-1.78020	2.29013	-1.69117
3385.000	2.57825	-1.77023	2.35329	-1.68513
3386.000	2.54471	-1.74645	2.32763	-1.71893
3387.000	2.57233	-1.73450	2.26644	-1.60380
3388.000	2.53089	-1.81199	2.29013	-1.72096
3389.000	2.53484	-1.79015	2.34539	-1.70898
3390.000	2.57627	-1.76825	2.30986	-1.71299
3391.000	2.57627	-1.80399	2.25657	-1.69121
3392.000	2.56444	-1.79010	2.34539	-1.60768
3393.000	2.59008	-1.76227	2.29605	-1.67329
3394.000	2.54076	-1.79212	2.30000	-1.65739
3395.000	2.59008	-1.75433	2.26052	-1.62566
3396.000	2.56246	-1.75040	2.34934	-1.67719
3397.000	2.58811	-1.76029	2.28618	-1.66932
3398.000	2.53879	-1.72263	2.31381	-1.68717
3399.000	2.52497	-1.79810	2.30789	-1.65937
3400.000	2.55062	-1.76828	2.29802	-1.63356
3401.000	2.54865	-1.75439	2.28420	-1.66138
3402.000	2.51116	-1.79018	2.28223	-1.65344
3403.000	2.55457	-1.75438	2.31973	-1.69113
3404.000	2.59403	-1.78609	2.29407	-1.66932
3405.000	2.57035	-1.77024	2.29013	-1.66932
3406.000	2.56641	-1.71465	2.27433	-1.68126
3407.000	2.56246	-1.76430	2.33355	-1.63153
3408.000	2.57825	-1.75435	2.27828	-1.70310
3409.000	2.53681	-1.75639	2.32171	-1.63353
3410.000	2.56246	-1.76430	2.30000	-1.63157
3411.000	2.58022	-1.79207	2.34144	-1.67323
3412.000	2.54668	-1.78814	2.19538	-1.71710
3413.000	2.57627	-1.74641	2.29605	-1.67130
3414.000	2.56641	-1.76628	2.27236	-1.65146
3415.000	2.56246	-1.75238	2.23486	-1.66342
3416.000	2.55852	-1.79210	2.30197	-1.61766
3417.000	2.53879	-1.73851	2.27236	-1.69516
3418.000	2.60981	-1.72849	2.27433	-1.71105
3419.000	2.57035	-1.77818	2.35526	-1.66924
3420.000	2.58811	-1.75830	2.28618	-1.67330
3421.000	2.58811	-1.79801	2.26052	-1.68326
3422.000	2.59798	-1.73645	2.31381	-1.67326
3423.000	2.56049	-1.74246	2.25065	-1.67334
3424.000	2.55062	-1.74247	2.25854	-1.62367
3425.000	2.55654	-1.77622	2.24670	-1.62369
3426.000	2.55457	-1.72459	2.27433	-1.67331
3427.000	2.59995	-1.78211	2.26052	-1.66340
3428.000	2.57035	-1.70273	2.25065	-1.67334
3429.000	2.56444	-1.77422	2.27828	-1.68522
3430.000	2.55654	-1.74842	2.27039	-1.61770
3431.000	2.56444	-1.79010	2.24867	-1.75080
3432.000	2.57430	-1.71265	2.26644	-1.64353
3433.000	2.57825	-1.80001	2.28815	-1.60179
3434.000	2.56444	-1.75635	2.31776	-1.66134
3435.000	2.56838	-1.78017	2.21512	-1.62769
3436.000	2.57035	-1.72259	2.32763	-1.68318
3437.000	2.59600	-1.75829	2.31776	-1.66730
3438.000	2.55654	-1.73849	2.33158	-1.59777
3439.000	2.58614	-1.78213	2.27828	-1.66139
3440.000	2.60390	-1.78012	2.35723	-1.62555
3441.000	2.59798	-1.71461	2.31973	-1.65340
3442.000	2.57627	-1.71265	2.35131	-1.61959
3443.000	2.57233	-1.72854	2.30394	-1.65739
3444.000	2.57430	-1.71464	2.32171	-1.66332
3445.000	2.58219	-1.78809	2.24473	-1.70314
3446.000	2.54865	-1.74843	2.28026	-1.64152
3447.000	2.56246	-1.77025	2.21512	-1.63365
3448.000	2.56246	-1.74245	2.27631	-1.68125
3449.000	2.55260	-1.76828	2.24473	-1.68923
3450.000	2.55654	-1.73651	2.30197	-1.64150
3451.000	2.52497	-1.79413	2.20919	-1.60784
3452.000	2.53089	-1.75838	2.31973	-1.59182
3453.000	2.56246	-1.80003	2.29013	-1.71699
3454.000	2.57430	-1.78612	2.34342	-1.67323
3455.000	2.57825	-1.75037	2.35723	-1.68513
3456.000	2.56641	-1.76628	2.37105	-1.63745
3457.000	2.54076	-1.78418	2.27039	-1.66537
3458.000	2.54865	-1.82785	2.33947	-1.60769
3459.000	2.53287	-1.79809	2.30592	-1.75669
3460.000	2.53287	-1.77228	2.33750	-1.65536
3461.000	2.56838	-1.75436	2.29407	-1.71500
3462.000	2.53287	-1.78618	2.27631	-1.70111
3463.000	2.58811	-1.77022	2.32763	-1.62955
3464.000	2.56049	-1.78415	2.30197	-1.65540
3465.000	2.53879	-1.75639	2.28420	-1.63556
3466.000	2.54273	-1.72461	2.30197	-1.70903
3467.000	2.52892	-1.79413	2.31381	-1.68915
3468.000	2.52892	-1.75640	2.36118	-1.59773
3469.000	2.55852	-1.76629	2.37302	-1.65333
3470.000	2.54273	-1.77822	2.31579	-1.66929
3471.000	2.54471	-1.74248	2.27828	-1.72892
3472.000	2.54273	-1.74645	2.23683	-1.67733
3473.000	2.55852	-1.78813	2.25854	-1.68922
3474.000	2.59403	-1.75830	2.42631	-1.71086
3475.000	2.56246	-1.81393	2.28420	-1.63755
3476.000	2.57627	-1.75832	2.30394	-1.69711
3477.000	2.59600	-1.80396	2.27828	-1.69714
3478.000	2.57035	-1.76826	2.29013	-1.74082
3479.000	2.56444	-1.81790	2.29802	-1.68520
3480.000	2.59403	-1.82779	2.30394	-1.69910
3481.000	2.55062	-1.82983	2.31776	-1.67525
3482.000	2.57430	-1.82781	2.33947	-1.69111
3483.000	2.56641	-1.83180	2.27828	-1.69913
3484.000	2.59403	-1.81389	2.31184	-1.67525
3485.000	2.53879	-1.80205	2.26841	-1.69914
3486.000	2.58811	-1.82978	2.30197	-1.67924
3487.000	2.53287	-1.79611	2.29407	-1.66733
3488.000	2.55062	-1.80799	2.28026	-1.69714
3489.000	2.56444	-1.81393	2.31184	-1.63156
3490.000	2.52892	-1.80008	2.31579	-1.66532
3491.000	2.55260	-1.83579	2.31973	-1.61764
3492.000	2.55260	-1.79608	2.28223	-1.58392
3493.000	2.54471	-1.78219	2.23683	-1.57205
3494.000	2.56641	-1.77223	2.38092	-1.66325
3495.000	2.53484	-1.76830	2.29802	-1.62363
3496.000	2.51313	-1.79216	2.33947	-1.64543
3497.000	2.53681	-1.81198	2.30000	-1.66732
3498.000	2.58417	-1.82979	2.22893	-1.61179
3499.000	2.52892	-1.76633	2.32565	-1.65140
3500.000	2.53879	-1.75837	2.28026	-1.60974
3501.000	2.50722	-1.76040	2.24473	-1.59191
3502.000	2.52695	-1.67697	2.26644	-1.55215
3503.000	2.52497	-1.61740	2.23880	-1.56609
3504.000	2.52497	-1.54193	2.24867	-1.38927
3505.000	2.48354	-1.37911	2.16379	-1.26219
3506.000	2.52497	-1.24796	2.15787	-1.19662
3507.000	2.48946	-1.05130	2.15589	-1.11117
3508.000	2.49932	-0.83670	2.15194	-0.93429
3509.000	2.51511	-0.61809	2.06705	-0.70178
3510.000	2.49538	-0.43725	2.02953	-0.50896
3511.000	2.49340	-0.23055	1.92488	-0.33006
3512.000	2.43618	-0.05963	1.97227	-0.06362
3513.000	2.40657	0.04770	1.89525	0.06562
3514.000	2.41644	0.18485	1.85576	0.13919
3515.000	2.36315	0.27629	1.85773	0.21276
3516.000	2.32763	0.29220	1.81823	0.25253
3517.000	2.29013	0.30016	1.84786	0.26446
3518.000	2.25262	0.21867	1.74713	0.29827
3519.000	2.24275	0.28228	1.83206	0.23264
3520.000	2.22301	0.12524	1.80441	0.19884
3521.000	2.22104	0.05367	1.77478	0.09744
3522.000	2.25657	-0.02584	1.77281	0.04574
3523.000	2.23880	-0.13915	1.94462	-0.09345
3524.000	2.23288	-0.23457	1.85378	-0.21077
3525.000	2.31184	-0.38563	1.94462	-0.31415
3526.000	2.27236	-0.45323	1.92685	-0.44338
3527.000	2.36315	-0.54065	1.95055	-0.57062
3528.000	2.32171	-0.65595	2.05520	-0.60637
3529.000	2.31381	-0.71955	2.00584	-0.63819
3530.000	2.32565	-0.72551	2.04138	-0.68390
3531.000	2.32763	-0.79904	2.07495	-0.69382
3532.000	2.33355	-0.78910	2.09864	-0.79519
3533.000	2.36315	-0.83479	2.06705	-0.76340
3534.000	2.32171	-0.72750	2.15392	-0.72957
3535.000	2.32960	-0.75929	2.11838	-0.74946
3536.000	2.33552	-0.72351	2.11838	-0.69778
3537.000	2.35723	-0.68177	2.07889	-0.60437
3538.000	2.37302	-0.65195	2.03151	-0.63818
3539.000	2.37105	-0.58437	2.06902	-0.61829
3540.000	2.32960	-0.56650	2.12233	-0.46719
3541.000	2.35131	-0.56053	2.04533	-0.47317
3542.000	2.32565	-0.53073	2.03348	-0.41354
3543.000	2.36118	-0.49494	2.02558	-0.39763
3544.000	2.35526	-0.47506	1.97622	-0.34794
3545.000	2.34342	-0.43531	2.00584	-0.30022
3546.000	2.34539	-0.43730	1.95845	-0.33005
3547.000	2.37697	-0.41543	1.97227	-0.25052
3548.000	2.34737	-0.37369	1.95450	-0.23660
3549.000	2.35329	-0.39755	1.85181	-0.25252
3550.000	2.32565	-0.39954	1.90118	-0.22269
3551.000	2.33552	-0.36376	1.91500	-0.29029
3552.000	2.32368	-0.34786	1.93672	-0.22865
3553.000	2.36118	-0.34785	1.95055	-0.14316
3554.000	2.31381	-0.36575	1.91500	-0.25053
3555.000	2.34737	-0.33990	1.95450	-0.17298
3556.000	2.27828	-0.32203	1.91303	-0.22667
3557.000	2.30394	-0.36774	1.96635	-0.35788
3558.000	2.30592	-0.33594	1.95450	-0.21871
3559.000	2.28618	-0.37172	1.95055	-0.28233
3560.000	2.30197	-0.34588	1.94660	-0.30023
3561.000	2.30197	-0.35979	1.95845	-0.31216
3562.000	2.29210	-0.37371	1.90908	-0.33602
3563.000	2.28420	-0.34588	1.96042	-0.35590
3564.000	2.30592	-0.39557	1.96832	-0.33601
3565.000	2.28815	-0.32600	1.99794	-0.39366
3566.000	2.25657	-0.36974	1.93278	-0.31017
3567.000	2.28815	-0.37769	1.92488	-0.33602
3568.000	2.29802	-0.33594	2.04335	-0.30618
3569.000	2.29605	-0.34986	1.98609	-0.29227
3570.000	2.26841	-0.42341	2.02163	-0.28630
3571.000	2.27433	-0.43136	1.98412	-0.34396
3572.000	2.29210	-0.42340	1.96635	-0.37578
3573.000	2.26841	-0.40154	1.91500	-0.37181
3574.000	2.24275	-0.40950	1.97029	-0.34396
3575.000	2.25262	-0.43733	1.99202	-0.33004
3576.000	2.28026	-0.40154	1.95845	-0.33800
3577.000	2.28815	-0.40949	1.92093	-0.36783
3578.000	2.30000	-0.36973	1.92883	-0.35193
3579.000	2.29605	-0.40551	1.98807	-0.34197
3580.000	2.29605	-0.39160	1.96437	-0.37180
3581.000	2.28618	-0.42142	1.95252	-0.41554
3582.000	2.26052	-0.43335	1.93475	-0.33005
3583.000	2.30000	-0.40750	1.89328	-0.32012
3584.000	2.28420	-0.42341	1.94067	-0.39765
3585.000	2.27631	-0.45322	1.96240	-0.35788
3586.000	2.27631	-0.43533	1.99004	-0.34197
3587.000	2.31579	-0.44725	1.96832	-0.36186
3588.000	2.29605	-0.41346	1.98412	-0.32806
3589.000	2.24867	-0.44727	1.98214	-0.28829
3590.000	2.29802	-0.44527	1.94660	-0.33999
3591.000	2.30789	-0.45719	1.94462	-0.33005
3592.000	2.32171	-0.46116	1.97819	-0.28829
3593.000	2.30394	-0.47110	1.99794	-0.38969
3594.000	2.31184	-0.43930	1.97819	-0.39764
3595.000	2.33158	-0.45122	1.95055	-0.33403
3596.000	2.29802	-0.46316	1.95450	-0.31812
3597.000	2.33552	-0.43929	1.88341	-0.32808
3598.000	2.32565	-0.43333	1.88735	-0.29229
3599.000	2.32368	-0.42737	2.00386	-0.31612
3600.000	2.32565	-0.46513	1.97819	-0.33999
3601.000	2.31381	-0.46116	1.91303	-0.34199
3602.000	2.32171	-0.44923	1.94067	-0.25251
3603.000	2.30394	-0.42539	1.85971	-0.33802
3604.000	2.32960	-0.42538	1.94660	-0.33801
3605.000	2.30197	-0.44129	1.98017	-0.28829
3606.000	2.32960	-0.43532	1.93080	-0.32011
3607.000	2.32171	-0.43333	1.90118	-0.36187
3608.000	2.31381	-0.49098	1.88538	-0.38574
3609.000	2.34539	-0.46115	1.95845	-0.34993
3610.000	2.27236	-0.47907	1.94857	-0.38771
3611.000	2.31579	-0.44129	1.89525	-0.27638
3612.000	2.26644	-0.48106	1.94067	-0.33801
3613.000	2.30000	-0.52477	1.94857	-0.30023
3614.000	2.29210	-0.49099	1.96240	-0.37379
3615.000	2.34144	-0.51283	1.88538	-0.33205
3616.000	2.30000	-0.46514	2.01176	-0.31612
3617.000	2.32368	-0.54464	1.96042	-0.28432
3618.000	2.31776	-0.50489	1.99399	-0.35589
3619.000	2.31579	-0.48899	1.97424	-0.36981
3620.000	2.31579	-0.48501	2.07297	-0.31213
3621.000	2.31973	-0.49296	1.95845	-0.32409
3622.000	2.30592	-0.47110	2.00189	-0.26244
3623.000	2.30197	-0.49893	1.97622	-0.28233
3624.000	2.33158	-0.48898	1.93870	-0.31216
3625.000	2.27631	-0.49099	1.96437	-0.26841
3626.000	2.30197	-0.50291	1.97424	-0.29028
3627.000	2.28223	-0.49894	1.96240	-0.25450
3628.000	2.29802	-0.49893	1.94660	-0.33403
3629.000	2.31579	-0.49297	1.98017	-0.31016
3630.000	2.30197	-0.48899	1.92883	-0.35193
3631.000	2.30592	-0.46912	1.90315	-0.39170
3632.000	2.28618	-0.53472	1.91698	-0.31018
3633.000	2.29802	-0.45918	1.95450	-0.33005
3634.000	2.32171	-0.47507	1.90118	-0.38772
3635.000	2.27631	-0.45720	1.90710	-0.35988
3636.000	2.28618	-0.49695	1.95647	-0.34993
3637.000	2.31579	-0.52874	1.93475	-0.39765
3638.000	2.31381	-0.50887	2.05323	-0.39564
3639.000	2.32171	-0.47110	2.01176	-0.35787
3640.000	2.29407	-0.47310	1.96437	-0.33601
3641.000	2.27828	-0.49099	1.95450	-0.29625
3642.000	2.32171	-0.51085	1.98017	-0.34993
3643.000	2.28815	-0.48900	1.93870	-0.34596
3644.000	2.33552	-0.51482	1.91500	-0.36784
3645.000	2.29605	-0.44328	1.96832	-0.36981
3646.000	2.27236	-0.49099	1.92685	-0.33403
3647.000	2.28815	-0.48304	1.92488	-0.36584
3648.000	2.33158	-0.49495	1.95450	-0.35789
3649.000	2.29605	-0.49496	1.97819	-0.30022
3650.000	2.33947	-0.47904	1.93475	-0.31017
3651.000	2.30789	-0.47508	1.92290	-0.34795
3652.000	2.30986	-0.47309	1.96832	-0.27040
3653.000	2.28420	-0.51285	1.99004	-0.32607
3654.000	2.28618	-0.52677	1.90908	-0.32409
3655.000	2.32171	-0.48700	1.93672	-0.34596
3656.000	2.31973	-0.52278	1.93870	-0.33403
3657.000	2.33355	-0.49693	1.94857	-0.31216
3658.000	2.26447	-0.48106	1.92290	-0.35392
3659.000	2.31973	-0.49893	1.98214	-0.27438
3660.000	2.32368	-0.48104	1.97424	-0.32806
3661.000	2.30000	-0.47309	1.91105	-0.37977
3662.000	2.34342	-0.47904	1.92488	-0.27041
3663.000	2.32171	-0.52675	1.97029	-0.34396
3664.000	2.34539	-0.44724	1.98017	-0.35390
3665.000	2.31184	-0.52874	1.88143	-0.36585
3666.000	2.29407	-0.57248	1.94067	-0.34596
3667.000	2.32171	-0.48104	1.89525	-0.35193
3668.000	2.30197	-0.49098	1.98017	-0.28631
3669.000	2.30197	-0.48899	1.93080	-0.27438
3670.000	2.29013	-0.48701	1.95252	-0.28830
3671.000	2.33355	-0.48700	1.91500	-0.33801
3672.000	2.33552	-0.48302	1.95450	-0.33403
3673.000	2.31579	-0.47110	1.90908	-0.31813
3674.000	2.34144	-0.50488	1.96240	-0.23461
3675.000	2.35526	-0.44127	1.91895	-0.30819
3676.000	2.36908	-0.46512	1.99794	-0.30221
3677.000	2.32565	-0.49694	1.97029	-0.30420
3678.000	2.35921	-0.48102	1.91698	-0.29626
3679.000	2.31973	-0.48899	1.94462	-0.31216
3680.000	2.32368	-0.48302	1.92093	-0.33205
3681.000	2.30000	-0.44725	2.01374	-0.27636
3682.000	2.36118	-0.44922	2.03546	-0.34395
3683.000	2.27433	-0.49497	1.99991	-0.30618
3684.000	2.31381	-0.47706	1.92290	-0.30421
3685.000	2.33158	-0.45917	1.97622	-0.30022
3686.000	2.31579	-0.46315	1.99991	-0.29624
3687.000	2.32368	-0.45917	1.94857	-0.40958
3688.000	2.36118	-0.47307	1.92685	-0.31017
3689.000	2.30986	-0.45520	1.99597	-0.32209
3690.000	2.29013	-0.49894	1.98017	-0.31215
3691.000	2.31184	-0.46116	1.97622	-0.32011
3692.000	2.34342	-0.47705	1.96635	-0.32806
3693.000	2.33750	-0.47904	1.97029	-0.31613
3694.000	2.31579	-0.48700	1.87353	-0.26644
3695.000	2.34144	-0.48302	1.99597	-0.37776
3696.000	2.26249	-0.49895	1.97029	-0.36186
3697.000	2.28420	-0.54863	1.92685	-0.30421
3698.000	2.32368	-0.51483	1.94462	-0.30619
3699.000	2.30789	-0.52676	2.06507	-0.37973
3700.000	2.33355	-0.51681	2.01966	-0.36185
3701.000	2.32960	-0.50489	1.93870	-0.33204
3702.000	2.35329	-0.46513	1.98609	-0.30619
3703.000	2.31184	-0.47905	2.06310	-0.28828
3704.000	2.31579	-0.43532	1.93870	-0.33801
3705.000	2.30592	-0.47508	1.88735	-0.35392
3706.000	2.31579	-0.47110	1.97819	-0.37379
3707.000	2.34737	-0.48898	1.99794	-0.26642
3708.000	2.31381	-0.45122	1.91698	-0.36187
3709.000	2.33947	-0.48302	1.96240	-0.37975
3710.000	2.36118	-0.48699	1.96240	-0.32210
3711.000	2.33158	-0.49296	1.87946	-0.35989
3712.000	2.31973	-0.46514	1.91698	-0.30421
3713.000	2.31381	-0.47706	2.00189	-0.25051
3714.000	2.34539	-0.47109	1.91105	-0.33006
3715.000	2.31184	-0.47309	1.94857	-0.32608
3716.000	2.32565	-0.44128	1.91500	-0.33403
3717.000	2.30592	-0.47309	1.93475	-0.25450
3718.000	2.30197	-0.44328	1.97424	-0.35192
3719.000	2.29407	-0.43930	1.90710	-0.31614
3720.000	2.33552	-0.47308	1.95252	-0.28035
3721.000	2.29802	-0.44725	2.04138	-0.22665
3722.000	2.29802	-0.45521	1.98017	-0.29227
3723.000	2.31776	-0.47905	1.93278	-0.37181
3724.000	2.30986	-0.45719	1.94067	-0.31415
3725.000	2.31776	-0.47309	1.98017	-0.26841
3726.000	2.32763	-0.47110	1.95252	-0.27836
3727.000	2.30986	-0.46116	1.97622	-0.33601
3728.000	2.32960	-0.46911	1.93278	-0.34000
3729.000	2.32368	-0.47706	1.87748	-0.21872
3730.000	2.33750	-0.51482	1.94067	-0.27239
3731.000	2.33947	-0.49296	2.05125	-0.36383
3732.000	2.27236	-0.49696	2.01374	-0.36980
3733.000	2.28026	-0.45919	1.99991	-0.36185
3734.000	2.31579	-0.51682	1.93080	-0.26245
3735.000	2.30197	-0.49893	1.93475	-0.33801
3736.000	2.30197	-0.50291	1.96240	-0.32210
3737.000	2.29605	-0.49496	1.97819	-0.29227
3738.000	2.29802	-0.50092	1.92488	-0.34000
3739.000	2.30789	-0.49496	1.94660	-0.35590
3740.000	2.36118	-0.49096	1.95055	-0.28631
3741.000	2.32171	-0.42737	1.95450	-0.30222
3742.000	2.33355	-0.49892	1.98017	-0.36583
3743.000	2.30197	-0.47906	1.93672	-0.29824
3744.000	2.34539	-0.47507	1.98017	-0.33601
3745.000	2.32763	-0.47507	1.92883	-0.33006
3746.000	2.40263	-0.46710	2.04138	-0.33401
3747.000	2.35723	-0.45916	1.93080	-0.31216
3748.000	2.33552	-0.50290	1.95252	-0.29824
3749.000	2.31579	-0.47110	1.95450	-0.31812
3750.000	2.33750	-0.47308	1.96042	-0.28830
3751.000	2.32763	-0.48899	1.94265	-0.30818
3752.000	2.31579	-0.50290	1.93475	-0.26047
3753.000	2.32171	-0.45917	1.95450	-0.30023
3754.000	2.32368	-0.49097	1.94857	-0.32608
3755.000	2.30592	-0.48104	1.98609	-0.30817
3756.000	2.27433	-0.49894	1.99399	-0.33402
3757.000	2.29802	-0.53471	1.91105	-0.29626
3758.000	2.26447	-0.53075	2.00189	-0.37179
3759.000	2.29013	-0.47310	2.09469	-0.29623
3760.000	2.32763	-0.52476	1.98412	-0.34595
3761.000	2.29407	-0.53273	1.99794	-0.37179
3762.000	2.30394	-0.48899	1.96832	-0.30818
3763.000	2.31381	-0.52874	1.98609	-0.33800
3764.000	2.31381	-0.49297	2.07297	-0.33201
3765.000	2.28420	-0.50291	2.00189	-0.29425
3766.000	2.29407	-0.51285	1.99202	-0.35191
3767.000	2.31579	-0.52676	1.99597	-0.26046
3768.000	2.28223	-0.50888	1.96240	-0.32210
3769.000	2.32763	-0.50886	2.04138	-0.31015
3770.000	2.33750	-0.51482	2.01571	-0.32805
3771.000	2.30592	-0.50688	1.99597	-0.21075
3772.000	2.30394	-0.51285	1.96437	-0.30221
3773.000	2.27433	-0.46913	1.98807	-0.38174
3774.000	2.33750	-0.54662	2.11838	-0.31411
3775.000	2.31776	-0.49098	1.96832	-0.28034
3776.000	2.30592	-0.52875	1.98807	-0.26841
3777.000	2.31776	-0.48899	2.04730	-0.32407
3778.000	2.30197	-0.48303	1.97029	-0.36385
3779.000	2.32565	-0.50886	1.99991	-0.37378
3780.000	2.30986	-0.53073	2.04138	-0.37178
3781.000	2.31776	-0.51284	1.93278	-0.23462
3782.000	2.33552	-0.47904	1.98214	-0.30619
3783.000	2.32960	-0.50886	1.99794	-0.34197
3784.000	2.34539	-0.46910	1.89130	-0.28036
3785.000	2.28815	-0.52875	1.95252	-0.30420
3786.000	2.34144	-0.49693	1.97227	-0.32607
3787.000	2.36513	-0.49692	1.97029	-0.21473
3788.000	2.34539	-0.50091	1.98412	-0.30221
3789.000	2.35329	-0.48699	1.99399	-0.33402
3790.000	2.32565	-0.48899	1.97424	-0.32209
3791.000	2.36315	-0.51084	1.90908	-0.33006
3792.000	2.36315	-0.48500	1.95647	-0.34397
3793.000	2.34934	-0.49693	1.96832	-0.29227
3794.000	2.34934	-0.53072	1.99794	-0.34396
3795.000	2.31381	-0.52079	2.00584	-0.35986
3796.000	2.34144	-0.47706	2.08679	-0.31412
3797.000	2.35723	-0.46512	1.96635	-0.31613
3798.000	2.31579	-0.48700	1.99991	-0.36782
3799.000	2.31184	-0.49495	2.01966	-0.29425
3800.000	2.30789	-0.49098	2.03348	-0.33401
3801.000	2.31776	-0.48501	2.02163	-0.33600
3802.000	2.35526	-0.47705	1.96635	-0.26444
3803.000	2.31381	-0.52676	1.96437	-0.33403
3804.000	2.34342	-0.47109	2.00584	-0.29823
3805.000	2.33947	-0.48501	1.99991	-0.33601
3806.000	2.32565	-0.50489	1.95055	-0.32011
3807.000	2.39671	-0.50089	2.02756	-0.26244
3808.000	2.33552	-0.46712	2.01769	-0.28431
3809.000	2.35723	-0.46711	2.02163	-0.26642
3810.000	2.35526	-0.47506	1.92883	-0.30222
3811.000	2.38289	-0.48698	2.01571	-0.32407
3812.000	2.36710	-0.51481	2.02361	-0.28232
3813.000	2.35131	-0.47109	2.01769	-0.34793
3814.000	2.37894	-0.45915	1.99991	-0.34992
3815.000	2.35526	-0.46512	1.99202	-0.31016
3816.000	2.38684	-0.51480	2.06507	-0.30021
3817.000	2.41052	-0.48896	2.02163	-0.22268
3818.000	2.35131	-0.47109	2.02953	-0.30419
3819.000	2.35921	-0.46910	2.01374	-0.28232
3820.000	2.39868	-0.50287	1.95450	-0.31812
3821.000	2.41052	-0.48697	1.93870	-0.33999
3822.000	2.38092	-0.47704	2.11443	-0.24254
3823.000	2.42631	-0.47504	1.96832	-0.28233
3824.000	2.36710	-0.46313	1.98214	-0.21274
3825.000	2.38881	-0.49294	2.00584	-0.28034
3826.000	2.40065	-0.51679	2.03348	-0.29822
3827.000	2.37697	-0.48301	1.96437	-0.29426
3828.000	2.37894	-0.51878	2.03151	-0.26244
3829.000	2.38881	-0.53269	2.01374	-0.27835
3830.000	2.39276	-0.48101	2.00979	-0.31413
3831.000	2.38684	-0.52077	1.97029	-0.22268
3832.000	2.33750	-0.53470	2.05125	-0.24653
3833.000	2.34539	-0.49693	2.09469	-0.24652
3834.000	2.32960	-0.50886	1.99794	-0.19683
3835.000	2.38486	-0.53269	1.98807	-0.21871
3836.000	2.37894	-0.51679	2.03743	-0.23262
3837.000	2.35921	-0.51481	2.08482	-0.23658
3838.000	2.36118	-0.51481	1.96635	-0.29625
3839.000	2.38486	-0.55058	1.92685	-0.22468
3840.000	2.38881	-0.54660	2.03151	-0.25051
3841.000	2.39671	-0.51480	2.00781	-0.29624
3842.000	2.36710	-0.55059	1.94265	-0.27438
3843.000	2.36118	-0.54463	2.01571	-0.25449
3844.000	2.37105	-0.53270	2.03546	-0.20677
3845.000	2.39868	-0.53666	1.94462	-0.21076
3846.000	2.35921	-0.57245	2.07297	-0.22466
3847.000	2.40065	-0.53269	2.04533	-0.23460
3848.000	2.32368	-0.57048	1.95845	-0.25052
3849.000	2.38684	-0.55455	2.02361	-0.19683
3850.000	2.37500	-0.55655	2.01769	-0.29425
3851.000	2.37105	-0.54860	2.07495	-0.25249
3852.000	2.36710	-0.53866	2.05520	-0.24653
3853.000	2.40657	-0.57641	2.02953	-0.30817
3854.000	2.39078	-0.56250	2.03348	-0.18291
3855.000	2.39078	-0.61418	1.98609	-0.19882
3856.000	2.40657	-0.54858	1.96635	-0.24853
3857.000	2.39473	-0.56846	1.98609	-0.23660
3858.000	2.42433	-0.54063	2.03941	-0.18490
3859.000	2.35526	-0.55059	1.98017	-0.22865
3860.000	2.40657	-0.56448	2.04928	-0.17297
3861.000	2.40855	-0.57840	1.97029	-0.15906
3862.000	2.37894	-0.56251	2.04138	-0.18092
3863.000	2.39671	-0.55853	2.02953	-0.18291
3864.000	2.37500	-0.54462	2.08284	-0.20080
3865.000	2.38289	-0.54661	2.05915	-0.22864
3866.000	2.37894	-0.51282	2.01176	-0.26841
3867.000	2.38684	-0.49692	2.04335	-0.25051
3868.000	2.39671	-0.57244	2.02756	-0.28232
3869.000	2.43420	-0.53069	1.98807	-0.17298
3870.000	2.42039	-0.51479	2.06310	-0.27436
3871.000	2.43420	-0.56845	2.02756	-0.18689
3872.000	2.41447	-0.56051	1.99004	-0.18491
3873.000	2.42039	-0.49690	2.11641	-0.10338
3874.000	2.41447	-0.52871	2.07100	-0.12525
3875.000	2.39473	-0.55256	2.05915	-0.21671
3876.000	2.42236	-0.56646	1.95252	-0.19684
3877.000	2.40657	-0.55256	2.10456	-0.22863
3878.000	2.42236	-0.52274	2.11443	-0.18290
3879.000	2.38881	-0.59232	1.99991	-0.20677
3880.000	2.41841	-0.55255	2.04138	-0.19683
3881.000	2.43025	-0.51876	2.00781	-0.19286
3882.000	2.41841	-0.52075	2.13023	-0.22863
3883.000	2.44407	-0.49093	2.02558	-0.19683
3884.000	2.41447	-0.51082	2.08284	-0.29623
3885.000	2.42039	-0.56448	2.06112	-0.13321
3886.000	2.40855	-0.49889	2.04138	-0.17894
3887.000	2.41052	-0.56448	2.07495	-0.17098
3888.000	2.40657	-0.49095	2.04928	-0.22864
3889.000	2.41644	-0.53069	2.01769	-0.20280
3890.000	2.39671	-0.52275	2.06112	-0.17496
3891.000	2.39473	-0.53865	2.01966	-0.14514
3892.000	2.37105	-0.57046	2.06902	-0.22665
3893.000	2.41447	-0.54063	2.00781	-0.20081
3894.000	2.40263	-0.54859	2.04335	-0.18689
3895.000	2.39473	-0.59828	2.09271	-0.25249
3896.000	2.41841	-0.53268	2.04928	-0.22069
3897.000	2.44210	-0.55254	2.01176	-0.29425
3898.000	2.38684	-0.57642	2.01571	-0.22467
3899.000	2.42433	-0.56845	1.98017	-0.24058
3900.000	2.42828	-0.53069	2.02163	-0.23659
3901.000	2.42236	-0.55255	2.07297	-0.16303
3902.000	2.42631	-0.55454	2.05520	-0.21273
3903.000	2.39671	-0.54461	2.03941	-0.26840
3904.000	2.41052	-0.56448	2.04730	-0.13718
3905.000	2.40657	-0.56448	2.04138	-0.19285
3906.000	2.42631	-0.52274	2.07297	-0.22466
3907.000	2.37894	-0.55456	2.03941	-0.16502
3908.000	2.40657	-0.50486	2.12430	-0.22266
3909.000	2.42631	-0.52075	2.12036	-0.22465
3910.000	2.43815	-0.52075	2.01374	-0.18689
3911.000	2.41052	-0.54461	2.02163	-0.23063
3912.000	2.42828	-0.55851	2.09666	-0.21869
3913.000	2.44407	-0.55652	2.06112	-0.18092
