time (ms)	lx (deg)	ly (deg)	rx (deg)	ry (deg)
0.000	0.98247	-0.13725	0.69389	-0.63456
1.000	0.96271	-0.11935	0.69587	-0.50726
2.000	0.92911	-0.09548	0.60494	-0.59678
3.000	0.92120	-0.07758	0.55552	-0.55899
4.000	0.84807	-0.08156	0.50610	-0.62861
5.000	0.80261	-0.00796	0.35190	-0.57691
6.000	0.72354	-0.02984	0.15025	-0.53116
7.000	0.56738	-0.00796	-0.00198	-0.51923
8.000	0.43098	0.08952	-0.11071	-0.53116
9.000	0.19968	0.06167	-0.43296	-0.47147
10.000	-0.02570	0.07162	-0.58320	-0.42173
11.000	-0.21945	0.10345	-0.81249	-0.42171
12.000	-0.37958	0.16114	-0.88563	-0.32821
13.000	-0.57133	0.19694	-1.07734	-0.33814
14.000	-0.65436	0.23275	-1.24927	-0.17901
15.000	-0.71168	0.33619	-1.27693	-0.10740
16.000	-0.70180	0.34613	-1.24532	-0.10939
17.000	-0.67808	0.40382	-1.34609	-0.00199
18.000	-0.54564	0.47544	-1.12872	0.12133
19.000	-0.47645	0.54507	-1.04769	0.17902
20.000	-0.34795	0.55304	-0.97062	0.23671
21.000	-0.16014	0.56896	-0.77296	0.27054
22.000	-0.04745	0.62864	-0.68796	0.32226
23.000	0.08501	0.66842	-0.52389	0.28448
24.000	0.19375	0.63062	-0.34795	0.30835
25.000	0.32027	0.58884	-0.34597	0.31233
26.000	0.43296	0.57491	-0.20758	0.23873
27.000	0.46854	0.49733	-0.11269	0.21287
28.000	0.50215	0.53711	-0.17991	0.01592
29.000	0.48633	0.45357	-0.10676	0.02188
30.000	0.46459	0.42174	-0.14037	-0.07759
31.000	0.42900	0.36604	-0.17398	-0.14125
32.000	0.37760	0.29045	-0.19572	-0.19894
33.000	0.32818	0.23077	-0.24712	-0.24868
34.000	0.31829	0.19496	-0.27085	-0.31631
35.000	0.23526	0.20093	-0.31236	-0.29841
36.000	0.19770	0.21088	-0.29259	-0.32029
37.000	0.16211	0.18900	-0.36574	-0.32427
38.000	0.14234	0.17706	-0.42900	-0.27055
39.000	0.10083	0.20292	-0.49226	-0.27254
40.000	0.12455	0.22878	-0.42900	-0.24867
41.000	0.09292	0.21884	-0.55552	-0.18302
42.000	0.10874	0.27056	-0.42505	-0.18103
43.000	0.06326	0.24868	-0.53773	-0.19694
44.000	0.04745	0.29046	-0.53180	-0.17108
45.000	0.05536	0.27255	-0.54168	-0.12931
46.000	0.07513	0.32030	-0.59506	-0.09151
47.000	0.05536	0.33621	-0.59901	-0.04973
48.000	0.06129	0.32229	-0.61482	-0.04973
49.000	0.07315	0.34218	-0.59506	-0.02984
50.000	0.07710	0.34019	-0.57727	-0.00995
51.000	0.09687	0.36406	-0.61285	0.03581
52.000	0.05733	0.34019	-0.56738	-0.05172
53.000	0.05536	0.39390	-0.61878	-0.01393
54.000	0.08501	0.42971	-0.55157	-0.05968
55.000	0.08303	0.40584	-0.50017	-0.00398
56.000	0.10280	0.41379	-0.53773	-0.02785
57.000	0.08106	0.38197	-0.52587	-0.03581
58.000	0.08303	0.38992	-0.49819	-0.13329
59.000	0.06920	0.39390	-0.56145	-0.04178
60.000	0.07315	0.38992	-0.56343	-0.07559
61.000	0.12455	0.42573	-0.54761	-0.04973
62.000	0.07908	0.42971	-0.53575	-0.04178
63.000	0.14630	0.41777	-0.51994	-0.12732
64.000	0.17200	0.40783	-0.49226	-0.09748
65.000	0.15816	0.42374	-0.56540	-0.06366
66.000	0.11269	0.40783	-0.52389	-0.10544
67.000	0.08303	0.40982	-0.55750	-0.01989
68.000	0.16014	0.37799	-0.49819	-0.06963
69.000	0.11071	0.37202	-0.49424	-0.08156
70.000	0.14827	0.41379	-0.57529	-0.06565
71.000	0.16607	0.38992	-0.44877	-0.10942
72.000	0.15025	0.37202	-0.55750	-0.07758
73.000	0.12653	0.38395	-0.52389	-0.05172
74.000	0.11862	0.35610	-0.50215	-0.07759
75.000	0.10478	0.37202	-0.48633	-0.07560
76.000	0.12060	0.34616	-0.52587	-0.09947
77.000	0.10478	0.34616	-0.53180	-0.10544
78.000	0.17002	0.39788	-0.53180	-0.02984
79.000	0.11862	0.39191	-0.52784	-0.08554
80.000	0.09885	0.33024	-0.43098	0.00796
81.000	0.15421	0.36804	-0.55157	-0.09947
82.000	0.11071	0.35610	-0.40330	-0.10146
83.000	0.08699	0.32825	-0.48435	-0.08156
84.000	0.08501	0.34616	-0.55552	-0.15915
85.000	0.10083	0.33820	-0.48831	-0.15318
86.000	0.10676	0.35411	-0.43493	-0.04576
87.000	0.10874	0.32626	-0.45668	-0.05968
88.000	0.10874	0.32228	-0.46459	-0.05172
89.000	0.13048	0.36207	-0.47249	-0.06565
90.000	0.09687	0.36406	-0.53180	-0.07361
91.000	0.11467	0.32228	-0.48040	-0.11737
92.000	0.11664	0.33820	-0.50017	-0.07957
93.000	0.13641	0.33820	-0.46656	-0.09549
94.000	0.13839	0.33024	-0.56936	-0.06167
95.000	0.10874	0.33024	-0.52587	-0.06764
96.000	0.12257	0.34019	-0.53378	-0.07162
97.000	0.11467	0.33422	-0.52587	-0.09151
98.000	0.14037	0.31035	-0.50808	-0.12931
99.000	0.09885	0.36804	-0.53575	-0.13726
100.000	0.11862	0.33024	-0.53575	-0.03979
101.000	0.13246	0.30637	-0.53180	-0.11538
102.000	0.10280	0.32427	-0.54959	-0.07361
103.000	0.12653	0.31831	-0.61285	-0.05769
104.000	0.16804	0.37202	-0.56540	-0.09549
105.000	0.16014	0.33024	-0.47447	-0.07162
106.000	0.13839	0.35411	-0.54168	-0.09151
107.000	0.11862	0.35809	-0.56145	-0.04178
108.000	0.16607	0.34218	-0.52191	-0.08355
109.000	0.15025	0.33223	-0.53180	-0.06366
110.000	0.13641	0.35014	-0.53180	-0.09947
111.000	0.11862	0.32825	-0.44877	-0.06764
112.000	0.14827	0.36605	-0.51598	-0.06565
113.000	0.19375	0.33820	-0.57133	-0.06167
114.000	0.14630	0.33820	-0.48435	-0.09549
115.000	0.11467	0.31035	-0.51994	-0.09549
116.000	0.11862	0.33223	-0.55354	-0.07361
117.000	0.13048	0.33621	-0.46656	-0.07759
118.000	0.17793	0.34019	-0.51598	-0.06764
119.000	0.12850	0.32626	-0.47645	-0.04973
120.000	0.14234	0.35411	-0.48435	-0.07759
121.000	0.14234	0.33223	-0.44482	-0.15716
122.000	0.13839	0.35411	-0.43889	-0.18103
123.000	0.17793	0.30836	-0.46261	-0.12334
124.000	0.13444	0.30637	-0.60692	-0.07162
125.000	0.16409	0.36406	-0.52389	-0.11936
126.000	0.15421	0.33621	-0.51401	-0.13528
127.000	0.10280	0.34815	-0.53575	-0.08355
128.000	0.15816	0.33422	-0.49622	-0.05968
129.000	0.16014	0.36406	-0.53575	-0.07560
130.000	0.14827	0.29841	-0.52389	-0.16711
131.000	0.18979	0.36008	-0.45668	-0.05769
132.000	0.17595	0.38793	-0.52389	-0.13727
133.000	0.15816	0.36406	-0.49819	-0.09947
134.000	0.17793	0.30836	-0.54366	-0.09350
135.000	0.18979	0.35809	-0.51598	-0.05570
136.000	0.14432	0.33223	-0.58320	-0.06764
137.000	0.15223	0.31831	-0.57331	-0.09748
138.000	0.15816	0.31433	-0.54761	-0.18103
139.000	0.14827	0.34019	-0.52587	-0.10544
140.000	0.18979	0.33024	-0.51994	-0.09947
141.000	0.12850	0.34417	-0.57133	-0.08753
142.000	0.17595	0.32626	-0.51401	-0.07758
143.000	0.13246	0.33223	-0.53971	-0.06963
144.000	0.14432	0.33820	-0.59110	-0.05172
145.000	0.15618	0.33422	-0.47645	-0.08156
146.000	0.16014	0.34218	-0.45865	-0.08952
147.000	0.16014	0.38395	-0.44877	-0.04973
148.000	0.18386	0.37799	-0.50412	-0.10146
149.000	0.12455	0.38197	-0.44086	-0.10146
150.000	0.19968	0.38992	-0.52784	-0.11936
151.000	0.18188	0.37003	-0.52191	-0.12732
152.000	0.17793	0.34417	-0.54168	-0.16710
153.000	0.20956	0.37401	-0.45865	-0.08355
154.000	0.20561	0.33024	-0.43296	-0.15318
155.000	0.17991	0.35013	-0.52191	-0.12135
156.000	0.16409	0.32626	-0.50412	-0.15517
157.000	0.14234	0.32825	-0.48831	-0.15119
158.000	0.16607	0.33223	-0.55552	-0.13925
159.000	0.17200	0.35411	-0.52587	-0.11339
160.000	0.14234	0.34417	-0.56145	-0.15517
161.000	0.15618	0.35014	-0.49226	-0.11140
162.000	0.17991	0.34019	-0.53180	-0.14522
163.000	0.17793	0.29642	-0.56738	-0.07957
164.000	0.12455	0.31831	-0.57529	0.00796
165.000	0.20561	0.31234	-0.51005	-0.15318
166.000	0.18979	0.34616	-0.52784	-0.15716
167.000	0.14432	0.35014	-0.49622	-0.10345
168.000	0.14432	0.33820	-0.43098	-0.16313
169.000	0.15025	0.29045	-0.48831	-0.21286
170.000	0.11862	0.29642	-0.47447	-0.10544
171.000	0.17398	0.30836	-0.53180	-0.05968
172.000	0.13246	0.29443	-0.50808	-0.12533
173.000	0.16804	0.31035	-0.45272	-0.11936
174.000	0.19177	0.31830	-0.47447	-0.15716
175.000	0.18386	0.29642	-0.46656	-0.15716
176.000	0.20363	0.28449	-0.44482	-0.05172
177.000	0.18584	0.28846	-0.53180	-0.05371
178.000	0.19968	0.33422	-0.44877	-0.17705
179.000	0.16014	0.29244	-0.48831	-0.16114
180.000	0.19177	0.31234	-0.40923	-0.16910
181.000	0.18584	0.32029	-0.40528	-0.06366
182.000	0.18188	0.34417	-0.43691	-0.16711
183.000	0.19375	0.31830	-0.52587	-0.10941
184.000	0.20758	0.29841	-0.49028	-0.09947
185.000	0.16804	0.30438	-0.48831	-0.11538
186.000	0.20561	0.26061	-0.45272	-0.08753
187.000	0.19375	0.30438	-0.45668	-0.13926
188.000	0.15618	0.31831	-0.48040	-0.12533
189.000	0.20363	0.31632	-0.45470	-0.13727
190.000	0.17398	0.32427	-0.53971	-0.01790
191.000	0.19375	0.31830	-0.51994	-0.13925
192.000	0.18386	0.33024	-0.47842	-0.15517
193.000	0.17200	0.34616	-0.46459	-0.13727
194.000	0.19177	0.34218	-0.37760	-0.13926
195.000	0.20956	0.33024	-0.45075	-0.11936
196.000	0.16607	0.33820	-0.47249	-0.11737
197.000	0.17398	0.31632	-0.50808	-0.08156
198.000	0.15816	0.30239	-0.51401	-0.11737
199.000	0.18188	0.33422	-0.49226	-0.14124
200.000	0.18386	0.34417	-0.49028	-0.15716
201.000	0.15618	0.37202	-0.53575	-0.09151
202.000	0.19572	0.30637	-0.45470	-0.07361
203.000	0.18584	0.32029	-0.48831	-0.12931
204.000	0.19770	0.30239	-0.46063	-0.11936
205.000	0.16607	0.29841	-0.40133	-0.18700
206.000	0.18386	0.30438	-0.47447	-0.15318
207.000	0.18386	0.28250	-0.46854	-0.20093
208.000	0.21352	0.27653	-0.41714	-0.20491
209.000	0.20363	0.30438	-0.50215	-0.22878
210.000	0.20363	0.29642	-0.41912	-0.14125
211.000	0.17398	0.31234	-0.41516	-0.11141
212.000	0.21549	0.30438	-0.39539	-0.17308
213.000	0.21352	0.30836	-0.46656	-0.09748
214.000	0.18386	0.27056	-0.42702	-0.10544
215.000	0.17793	0.34019	-0.50215	-0.11140
216.000	0.23131	0.31631	-0.52982	-0.10742
217.000	0.20758	0.29642	-0.43098	-0.12931
218.000	0.19968	0.30239	-0.46459	-0.09151
219.000	0.21352	0.30637	-0.42109	-0.12533
220.000	0.21747	0.31234	-0.44877	-0.21485
221.000	0.17991	0.28449	-0.48040	-0.15318
222.000	0.18386	0.25464	-0.42307	-0.21286
223.000	0.18584	0.28449	-0.46459	-0.20093
224.000	0.23526	0.32029	-0.41714	-0.14721
225.000	0.17398	0.26857	-0.43098	-0.17705
226.000	0.18386	0.30239	-0.48831	-0.12732
227.000	0.23131	0.33223	-0.50412	-0.13925
228.000	0.21154	0.31830	-0.50412	-0.15915
229.000	0.17002	0.32626	-0.42109	-0.17904
230.000	0.25701	0.32427	-0.42307	-0.11538
231.000	0.18386	0.33621	-0.47052	-0.17109
232.000	0.20956	0.32427	-0.39935	-0.28249
233.000	0.18584	0.29841	-0.42505	-0.13727
234.000	0.15223	0.25663	-0.48238	-0.19496
235.000	0.21747	0.29244	-0.41912	-0.19496
236.000	0.15025	0.27454	-0.48831	-0.13926
237.000	0.20165	0.29045	-0.43296	-0.18899
238.000	0.18584	0.29244	-0.42307	-0.16114
239.000	0.17002	0.27454	-0.35586	-0.12732
240.000	0.20165	0.24470	-0.38353	-0.15915
241.000	0.19770	0.30239	-0.49226	-0.19695
242.000	0.18386	0.32626	-0.44679	-0.09748
243.000	0.19375	0.27454	-0.53575	-0.17904
244.000	0.16804	0.31433	-0.38551	-0.25066
245.000	0.17991	0.28648	-0.46459	-0.15915
246.000	0.18188	0.30239	-0.37167	-0.12533
247.000	0.18979	0.29841	-0.54168	-0.16114
248.000	0.18584	0.30836	-0.38551	-0.16711
249.000	0.19177	0.27653	-0.40133	-0.19695
250.000	0.21747	0.32228	-0.36574	-0.19496
251.000	0.17991	0.30836	-0.40133	-0.19496
252.000	0.23526	0.27056	-0.42109	-0.08952
253.000	0.20561	0.26459	-0.40133	-0.18700
254.000	0.23922	0.29642	-0.36969	-0.11141
255.000	0.23526	0.31631	-0.39539	-0.16711
256.000	0.21945	0.32228	-0.41121	-0.14721
257.000	0.20956	0.30637	-0.38353	-0.11936
258.000	0.23329	0.30239	-0.36376	-0.14523
259.000	0.25899	0.29443	-0.43296	-0.08952
260.000	0.25899	0.32825	-0.38946	-0.16114
261.000	0.24515	0.31234	-0.36376	-0.15716
262.000	0.24515	0.32825	-0.35586	-0.10743
263.000	0.25108	0.24271	-0.54564	-0.14721
264.000	0.19968	0.31632	-0.47052	-0.15716
265.000	0.20363	0.29045	-0.43098	-0.23673
266.000	0.22142	0.31433	-0.42702	-0.17705
267.000	0.19770	0.30040	-0.37958	-0.06366
268.000	0.21747	0.33024	-0.36376	-0.14722
269.000	0.21945	0.34019	-0.37760	-0.17109
270.000	0.17595	0.34417	-0.42900	-0.16313
271.000	0.22142	0.29841	-0.38946	-0.17109
272.000	0.21747	0.34019	-0.42702	-0.15517
273.000	0.22340	0.32626	-0.34202	-0.22878
274.000	0.21945	0.29841	-0.40923	-0.18103
275.000	0.23724	0.29244	-0.35388	-0.12732
276.000	0.22340	0.35610	-0.37760	-0.25464
277.000	0.24317	0.35212	-0.37958	-0.15716
278.000	0.20956	0.31830	-0.39342	-0.13329
279.000	0.20956	0.31433	-0.37760	-0.15119
280.000	0.23526	0.34615	-0.34399	-0.13329
281.000	0.23526	0.29841	-0.35388	-0.11737
282.000	0.25503	0.32626	-0.39539	-0.19098
283.000	0.27282	0.34019	-0.38551	-0.21485
284.000	0.22340	0.29244	-0.38353	-0.18103
285.000	0.26096	0.30836	-0.37958	-0.21286
286.000	0.26887	0.30438	-0.39737	-0.18103
287.000	0.21747	0.29045	-0.37563	-0.16313
288.000	0.25305	0.35610	-0.35190	-0.22878
289.000	0.27085	0.29443	-0.36574	-0.26061
290.000	0.24712	0.27255	-0.34004	-0.15119
291.000	0.20561	0.28051	-0.34004	-0.25862
292.000	0.24910	0.28846	-0.32422	-0.14921
293.000	0.23526	0.26658	-0.31434	-0.23276
294.000	0.25305	0.27653	-0.31434	-0.22082
295.000	0.28666	0.26857	-0.35190	-0.18899
296.000	0.23922	0.30836	-0.28864	-0.16711
297.000	0.24119	0.28051	-0.32422	-0.17507
298.000	0.27282	0.29045	-0.29852	-0.19695
299.000	0.23526	0.29244	-0.36969	-0.16512
300.000	0.23724	0.31433	-0.42307	-0.18103
301.000	0.25899	0.28249	-0.32422	-0.24271
302.000	0.24910	0.33024	-0.37365	-0.20292
303.000	0.22933	0.32825	-0.31236	-0.19894
304.000	0.23329	0.31830	-0.34993	-0.24271
305.000	0.28666	0.33422	-0.35190	-0.15119
306.000	0.22933	0.29443	-0.35783	-0.20690
307.000	0.26096	0.25663	-0.30841	-0.20093
308.000	0.23526	0.24072	-0.40133	-0.17308
309.000	0.22933	0.26061	-0.37563	-0.17706
310.000	0.20758	0.25067	-0.34795	-0.20889
311.000	0.21352	0.23077	-0.30643	-0.16313
312.000	0.21154	0.25663	-0.36772	-0.19496
313.000	0.21747	0.25862	-0.44482	-0.14125
314.000	0.22142	0.28846	-0.31039	-0.14324
315.000	0.23526	0.24271	-0.35586	-0.17706
316.000	0.25305	0.28051	-0.37365	-0.08753
317.000	0.23131	0.28448	-0.40330	-0.13926
318.000	0.23724	0.27653	-0.35981	-0.13130
319.000	0.24910	0.28051	-0.37958	-0.14721
320.000	0.19572	0.31035	-0.32422	-0.13528
321.000	0.15618	0.25266	-0.39737	-0.17308
322.000	0.20758	0.25266	-0.27282	-0.08157
323.000	0.20956	0.24271	-0.27678	-0.14125
324.000	0.17991	0.26260	-0.31632	-0.16910
325.000	0.17991	0.27255	-0.29457	-0.13727
326.000	0.23922	0.24669	-0.16607	-0.21884
327.000	0.23922	0.26857	-0.27282	-0.16313
328.000	0.19968	0.30438	-0.30050	-0.20491
329.000	0.20956	0.29244	-0.40330	-0.21684
330.000	0.23724	0.28051	-0.27085	-0.14523
331.000	0.25108	0.25862	-0.36574	-0.18302
332.000	0.23922	0.25067	-0.31829	-0.15517
333.000	0.22142	0.25663	-0.33609	-0.10544
334.000	0.27282	0.24669	-0.33411	-0.16910
335.000	0.21352	0.25266	-0.39342	-0.20093
336.000	0.20363	0.22082	-0.38353	-0.12931
337.000	0.20758	0.20889	-0.39539	-0.15915
338.000	0.23526	0.21287	-0.36179	-0.18700
339.000	0.23724	0.23475	-0.35190	-0.17109
340.000	0.22538	0.19496	-0.30446	-0.23077
341.000	0.23329	0.20690	-0.30050	-0.09549
342.000	0.23922	0.20093	-0.28864	-0.11141
343.000	0.21945	0.21685	-0.26294	-0.19894
344.000	0.24317	0.24271	-0.27876	-0.16711
345.000	0.21549	0.21287	-0.35586	-0.17706
346.000	0.20165	0.20292	-0.32422	-0.16313
347.000	0.20758	0.20889	-0.35586	-0.15517
348.000	0.24119	0.20292	-0.33213	-0.18104
349.000	0.20165	0.21486	-0.33016	-0.11340
350.000	0.18979	0.18899	-0.25108	-0.10743
351.000	0.21945	0.27056	-0.44482	-0.09748
352.000	0.17793	0.20690	-0.33411	-0.08157
353.000	0.24515	0.20093	-0.29062	-0.14722
354.000	0.19177	0.23475	-0.32225	-0.12931
355.000	0.22538	0.20690	-0.30841	-0.19695
356.000	0.20956	0.25862	-0.30446	-0.08157
357.000	0.21945	0.17905	-0.35388	-0.13329
358.000	0.21154	0.21685	-0.32027	-0.18302
359.000	0.22340	0.21685	-0.41516	-0.07958
360.000	0.22142	0.22679	-0.33213	-0.12533
361.000	0.24119	0.21884	-0.34597	-0.15318
362.000	0.23724	0.27454	-0.27480	-0.12732
363.000	0.26096	0.24072	-0.29852	-0.11738
364.000	0.21352	0.25862	-0.24515	-0.20093
365.000	0.22142	0.23674	-0.30446	-0.13329
366.000	0.25305	0.23873	-0.28864	-0.15517
367.000	0.25108	0.23276	-0.32620	-0.12533
368.000	0.25701	0.21883	-0.30050	-0.15119
369.000	0.20956	0.21486	-0.31236	-0.18104
370.000	0.23329	0.25265	-0.28073	-0.15318
371.000	0.22340	0.25862	-0.27085	-0.15318
372.000	0.21945	0.23674	-0.33609	-0.20292
373.000	0.24910	0.24868	-0.34597	-0.19496
374.000	0.23526	0.22679	-0.33609	-0.19098
375.000	0.28469	0.24470	-0.28666	-0.15716
376.000	0.24515	0.22679	-0.26294	-0.25862
377.000	0.22933	0.24072	-0.27480	-0.22679
378.000	0.26887	0.23276	-0.25305	-0.19496
379.000	0.22538	0.25464	-0.22933	-0.19894
380.000	0.21352	0.27056	-0.25899	-0.18303
381.000	0.26294	0.26260	-0.34202	-0.20889
382.000	0.26096	0.24669	-0.32027	-0.19894
383.000	0.20956	0.21884	-0.30248	-0.21287
384.000	0.23131	0.25663	-0.20363	-0.14324
385.000	0.23922	0.25067	-0.25503	-0.17109
386.000	0.25108	0.21685	-0.30446	-0.18302
387.000	0.22142	0.23674	-0.25305	-0.18303
388.000	0.25701	0.23475	-0.29655	-0.17706
389.000	0.27085	0.23674	-0.20758	-0.17109
390.000	0.31632	0.18899	-0.15618	-0.27255
391.000	0.33609	0.22281	-0.09490	-0.26061
392.000	0.40923	0.15517	-0.05733	-0.26260
393.000	0.48435	0.13926	-0.05536	-0.36207
394.000	0.55947	0.12135	-0.03163	-0.38396
395.000	0.58122	0.09748	0.06524	-0.37003
396.000	0.62866	0.11538	0.10280	-0.36605
397.000	0.59506	0.09350	0.08501	-0.36406
398.000	0.61482	0.06167	0.07513	-0.39987
399.000	0.57529	0.04973	0.16607	-0.45756
400.000	0.54761	0.03780	0.06920	-0.46950
401.000	0.51598	0.03780	0.01384	-0.49934
402.000	0.46063	-0.00398	-0.00593	-0.49934
403.000	0.36772	0.00398	-0.08897	-0.52122
404.000	0.36179	0.06764	-0.08699	-0.44165
405.000	0.25503	0.04178	-0.15025	-0.51923
406.000	0.23922	0.01592	-0.18386	-0.42573
407.000	0.23131	0.03183	-0.21154	-0.40385
408.000	0.22735	0.08753	-0.22340	-0.42772
409.000	0.28666	0.08356	-0.25701	-0.43170
410.000	0.24910	0.05172	-0.25701	-0.37202
411.000	0.26096	0.09748	-0.24317	-0.36008
412.000	0.29852	0.09748	-0.17595	-0.33024
413.000	0.33806	0.12533	-0.20956	-0.39390
414.000	0.30643	0.12334	-0.15025	-0.35809
415.000	0.32620	0.07560	-0.18781	-0.33024
416.000	0.38749	0.11340	-0.13641	-0.35212
417.000	0.34202	0.15915	-0.07315	-0.37202
418.000	0.34993	0.11340	-0.10478	-0.31433
419.000	0.36574	0.12732	-0.08303	-0.31632
420.000	0.39539	0.14324	-0.17002	-0.31035
421.000	0.38551	0.09549	-0.10083	-0.31234
422.000	0.39144	0.12533	-0.06326	-0.31632
423.000	0.39737	0.09549	-0.06722	-0.34417
424.000	0.36574	0.10942	-0.05733	-0.32825
425.000	0.42307	0.09947	-0.05931	-0.37202
426.000	0.37563	0.08952	-0.09292	-0.35411
427.000	0.36376	0.11538	-0.01779	-0.42374
428.000	0.37760	0.11936	-0.04349	-0.40584
429.000	0.35586	0.07958	0.02966	-0.41777
430.000	0.38749	0.10345	-0.08897	-0.37401
431.000	0.37958	0.10743	-0.08897	-0.31433
432.000	0.37563	0.07958	-0.02175	-0.40982
433.000	0.38353	0.10544	-0.06920	-0.38197
434.000	0.39737	0.05769	-0.01186	-0.34019
435.000	0.39737	0.08355	-0.09490	-0.32030
436.000	0.34993	0.07958	-0.10676	-0.36008
437.000	0.39539	0.08753	-0.04943	-0.41777
438.000	0.37563	0.04973	-0.08501	-0.37401
439.000	0.34597	0.07759	-0.02175	-0.41380
440.000	0.39144	0.10743	-0.04349	-0.40186
441.000	0.39144	0.09151	-0.07513	-0.35213
442.000	0.37958	0.08355	-0.05733	-0.35014
443.000	0.34795	0.07958	-0.12850	-0.32626
444.000	0.34004	0.08554	-0.04152	-0.38594
445.000	0.39539	0.08355	-0.10676	-0.33820
446.000	0.36772	0.04377	-0.00593	-0.36008
447.000	0.35981	0.07759	-0.11467	-0.31831
448.000	0.37958	0.08355	-0.03756	-0.27056
449.000	0.35981	0.08554	-0.03361	-0.36207
450.000	0.36574	0.07958	-0.02372	-0.38396
451.000	0.32027	0.07162	-0.07908	-0.43369
452.000	0.35981	0.10942	0.00989	-0.33422
453.000	0.33213	0.07958	-0.05536	-0.37003
454.000	0.35981	0.07759	-0.08699	-0.35014
455.000	0.33016	0.10743	-0.09094	-0.28250
456.000	0.37167	0.07361	-0.04745	-0.28449
457.000	0.36376	0.10345	-0.07908	-0.35809
458.000	0.33806	0.08355	-0.01779	-0.35014
459.000	0.34795	0.10146	-0.01186	-0.29642
460.000	0.35190	0.11936	0.00000	-0.32030
461.000	0.36179	0.08355	-0.02966	-0.38197
462.000	0.33213	0.08753	-0.03954	-0.32427
463.000	0.35586	0.09151	-0.02372	-0.34019
464.000	0.37167	0.09947	-0.03756	-0.30438
465.000	0.34399	0.10743	-0.06722	-0.33024
466.000	0.35783	0.10345	-0.10874	-0.27454
467.000	0.35586	0.10345	-0.01779	-0.31831
468.000	0.34795	0.08157	-0.11862	-0.37003
469.000	0.29457	0.07560	-0.06920	-0.31433
470.000	0.34993	0.06764	-0.06920	-0.33024
471.000	0.38551	0.08355	0.00593	-0.30239
472.000	0.36179	0.09947	-0.03954	-0.36406
473.000	0.38946	0.06764	-0.06920	-0.32427
474.000	0.36376	0.10942	0.02966	-0.30637
475.000	0.34993	0.09549	-0.08303	-0.34218
476.000	0.36376	0.12334	-0.02175	-0.30637
477.000	0.36772	0.09350	-0.05338	-0.28250
478.000	0.34202	0.13727	-0.13048	-0.31433
479.000	0.35388	0.12135	-0.11664	-0.31234
480.000	0.37760	0.13130	-0.01186	-0.29244
481.000	0.36376	0.12334	-0.03163	-0.25862
482.000	0.31039	0.09748	0.02372	-0.25465
483.000	0.38353	0.16512	-0.05931	-0.25266
484.000	0.36772	0.13329	-0.07117	-0.32030
485.000	0.36179	0.14523	0.01582	-0.42971
486.000	0.35388	0.13329	-0.14630	-0.29443
487.000	0.36179	0.15318	-0.05931	-0.34815
488.000	0.35190	0.12732	-0.06326	-0.27255
489.000	0.33806	0.14125	-0.00791	-0.32229
490.000	0.38156	0.10544	-0.02175	-0.23674
491.000	0.34004	0.12732	-0.05733	-0.33422
492.000	0.34399	0.14722	-0.10280	-0.30040
493.000	0.34993	0.13130	-0.14432	-0.20889
494.000	0.35981	0.12533	-0.09094	-0.29244
495.000	0.32818	0.10544	-0.05338	-0.14523
496.000	0.36772	0.11936	-0.09094	-0.19496
497.000	0.33609	0.14920	-0.08501	-0.19695
498.000	0.35388	0.11538	-0.10083	-0.26061
499.000	0.39935	0.14721	-0.02570	-0.19894
500.000	0.35783	0.12334	-0.02175	-0.29244
501.000	0.35190	0.15119	-0.03756	-0.30836
502.000	0.39342	0.14125	-0.05536	-0.22679
503.000	0.36969	0.10743	-0.05140	-0.28449
504.000	0.33609	0.10544	-0.02570	-0.27454
505.000	0.33806	0.11141	-0.03756	-0.26459
506.000	0.33609	0.12732	-0.17398	-0.22083
507.000	0.32422	0.14125	0.00791	-0.21685
508.000	0.34795	0.10544	-0.01977	-0.27852
509.000	0.37760	0.09350	-0.11269	-0.25862
510.000	0.34795	0.09748	-0.00395	-0.23475
511.000	0.34597	0.11340	-0.05140	-0.24470
512.000	0.33806	0.13926	-0.02372	-0.28250
513.000	0.34399	0.15716	-0.02570	-0.24669
514.000	0.35190	0.09748	-0.00791	-0.22679
515.000	0.34202	0.13329	-0.02175	-0.24470
516.000	0.33016	0.09549	0.08106	-0.26857
517.000	0.38749	0.19098	-0.09490	-0.30239
518.000	0.30841	0.10544	-0.11664	-0.23873
519.000	0.36969	0.13329	-0.05536	-0.25862
520.000	0.31236	0.10743	-0.07117	-0.35411
521.000	0.33016	0.09549	-0.05536	-0.21884
522.000	0.34004	0.14324	-0.10083	-0.32427
523.000	0.33213	0.13926	-0.04152	-0.20292
524.000	0.33213	0.12931	-0.09885	-0.23475
525.000	0.36376	0.15716	-0.06722	-0.20093
526.000	0.38946	0.14920	-0.01582	-0.25067
527.000	0.34202	0.14523	-0.04745	-0.22878
528.000	0.38156	0.14125	-0.01779	-0.24271
529.000	0.31829	0.13528	-0.06722	-0.28847
530.000	0.36376	0.15915	-0.05733	-0.29244
531.000	0.33609	0.16512	0.02372	-0.24072
532.000	0.34399	0.15915	-0.00593	-0.25067
533.000	0.34795	0.16512	-0.06129	-0.27255
534.000	0.35190	0.16313	-0.09687	-0.26260
535.000	0.32422	0.15915	-0.00593	-0.25465
536.000	0.34202	0.17308	-0.04547	-0.35809
537.000	0.33411	0.16313	-0.06129	-0.27255
538.000	0.31434	0.17507	0.01186	-0.36406
539.000	0.35190	0.11936	-0.06524	-0.28847
540.000	0.34004	0.13528	-0.08897	-0.30040
541.000	0.34597	0.17706	-0.02966	-0.26459
542.000	0.35388	0.14920	-0.04745	-0.28250
543.000	0.32422	0.14921	-0.00593	-0.29046
544.000	0.34004	0.12931	-0.04745	-0.29841
545.000	0.37958	0.15119	-0.09885	-0.25465
546.000	0.37365	0.16512	-0.11664	-0.27653
547.000	0.32620	0.13727	0.06524	-0.30438
548.000	0.34399	0.16910	-0.03559	-0.29841
549.000	0.33213	0.17109	-0.07908	-0.35411
550.000	0.32422	0.15716	-0.01977	-0.25664
551.000	0.33016	0.13926	0.02175	-0.30438
552.000	0.30248	0.14523	-0.05931	-0.35809
553.000	0.32818	0.11539	0.01582	-0.34218
554.000	0.31632	0.13727	0.02570	-0.39788
555.000	0.31434	0.10942	0.00791	-0.36207
556.000	0.33806	0.14523	-0.00198	-0.30836
557.000	0.33411	0.17109	0.00593	-0.37401
558.000	0.35586	0.13329	-0.07315	-0.34218
559.000	0.32818	0.12135	0.01186	-0.35014
560.000	0.34597	0.15119	-0.07513	-0.30637
561.000	0.35981	0.15517	-0.05931	-0.34019
562.000	0.32027	0.17507	0.01582	-0.28449
563.000	0.31632	0.16114	-0.05338	-0.34019
564.000	0.29852	0.17507	-0.05536	-0.26857
565.000	0.30050	0.18899	-0.03559	-0.27056
566.000	0.28864	0.16313	-0.03163	-0.33820
567.000	0.25701	0.16313	0.01582	-0.33621
568.000	0.29259	0.13926	-0.05536	-0.30438
569.000	0.30050	0.11539	0.02768	-0.31234
570.000	0.28666	0.12533	-0.04943	-0.29443
571.000	0.27876	0.15517	0.02966	-0.30040
572.000	0.27678	0.13926	-0.02768	-0.30836
573.000	0.28864	0.15318	0.04349	-0.34417
574.000	0.27480	0.16711	0.00198	-0.35014
575.000	0.24712	0.19496	-0.02570	-0.29841
576.000	0.24910	0.15517	0.00000	-0.30836
577.000	0.29457	0.14125	-0.01977	-0.28648
578.000	0.30248	0.15915	-0.09687	-0.29443
579.000	0.30050	0.21684	-0.03954	-0.35809
580.000	0.32027	0.18104	-0.01582	-0.33024
581.000	0.26096	0.16910	-0.01384	-0.33621
582.000	0.30248	0.15318	-0.04349	-0.35809
583.000	0.30841	0.18104	-0.02372	-0.36008
584.000	0.26887	0.17308	-0.04547	-0.34417
585.000	0.29457	0.15716	-0.02570	-0.32825
586.000	0.25305	0.12135	0.00198	-0.31433
587.000	0.28073	0.13727	-0.00395	-0.30239
588.000	0.26096	0.15915	-0.06524	-0.34218
589.000	0.25503	0.10743	-0.01977	-0.26260
590.000	0.26294	0.15120	-0.00593	-0.34815
591.000	0.25108	0.16114	-0.00989	-0.25664
592.000	0.30446	0.16512	0.04152	-0.34218
593.000	0.34993	0.13727	0.00791	-0.27852
594.000	0.28073	0.18303	-0.03163	-0.25664
595.000	0.28469	0.13528	0.03361	-0.24868
596.000	0.33609	0.18700	0.00593	-0.27255
597.000	0.29655	0.18700	-0.00989	-0.28847
598.000	0.29852	0.17706	0.03163	-0.28847
599.000	0.30446	0.20292	-0.06129	-0.39191
600.000	0.31236	0.15915	0.00989	-0.35809
601.000	0.30050	0.17905	0.01186	-0.27454
602.000	0.28469	0.15119	-0.05733	-0.24271
603.000	0.34795	0.17308	0.07117	-0.37799
604.000	0.31632	0.18501	0.12257	-0.29045
605.000	0.33213	0.17905	0.00791	-0.26857
606.000	0.31632	0.19297	0.02372	-0.26260
607.000	0.31434	0.20292	0.00198	-0.22083
608.000	0.28073	0.21486	0.04349	-0.27653
609.000	0.32027	0.19297	-0.02570	-0.34019
610.000	0.28864	0.17507	0.05338	-0.20690
611.000	0.26096	0.14722	-0.04349	-0.31234
612.000	0.24515	0.14125	-0.01977	-0.29841
613.000	0.27282	0.18700	-0.00593	-0.25067
614.000	0.29259	0.20491	0.02570	-0.28648
615.000	0.33016	0.17109	0.03954	-0.26459
616.000	0.26492	0.17109	0.01582	-0.22282
617.000	0.27678	0.20093	0.07117	-0.26260
618.000	0.28666	0.18899	0.11269	-0.24470
619.000	0.31829	0.17308	0.00000	-0.26459
620.000	0.27282	0.16512	-0.02768	-0.30239
621.000	0.27876	0.17507	0.00395	-0.30836
622.000	0.30248	0.16313	0.03163	-0.23276
623.000	0.28666	0.14722	0.02570	-0.35213
624.000	0.34597	0.19098	0.03361	-0.25862
625.000	0.32027	0.19894	0.06524	-0.28648
626.000	0.33213	0.20292	0.03361	-0.23873
627.000	0.34399	0.15716	0.05140	-0.22679
628.000	0.30643	0.15119	0.01977	-0.22083
629.000	0.33411	0.19894	0.01582	-0.25465
630.000	0.27282	0.18899	-0.02570	-0.24669
631.000	0.29259	0.16512	-0.01186	-0.22282
632.000	0.33411	0.19894	0.00593	-0.23873
633.000	0.32027	0.19496	0.00791	-0.30836
634.000	0.29852	0.17706	0.00989	-0.34218
635.000	0.30248	0.20292	0.07710	-0.35610
636.000	0.26096	0.15517	0.00000	-0.28648
637.000	0.28864	0.18303	0.04745	-0.28051
638.000	0.31039	0.19297	-0.01977	-0.26658
639.000	0.31039	0.17109	0.03163	-0.26857
640.000	0.28271	0.18104	0.00000	-0.33024
641.000	0.27678	0.14921	-0.01186	-0.27653
642.000	0.29259	0.12135	-0.01977	-0.28847
643.000	0.28271	0.16910	0.00000	-0.30239
644.000	0.28666	0.18501	0.02966	-0.26061
645.000	0.29259	0.19894	0.03163	-0.22083
646.000	0.30248	0.14722	0.01186	-0.26658
647.000	0.28271	0.17905	0.00198	-0.27653
648.000	0.31829	0.21684	-0.02175	-0.30438
649.000	0.29062	0.18700	0.09490	-0.27056
650.000	0.33806	0.22281	-0.06524	-0.26459
651.000	0.27678	0.22281	0.05733	-0.23475
652.000	0.28666	0.19098	-0.03163	-0.24868
653.000	0.27876	0.17507	-0.03559	-0.29244
654.000	0.25701	0.18899	0.03954	-0.20093
655.000	0.27876	0.19496	-0.03756	-0.23475
656.000	0.29457	0.17109	-0.00791	-0.30040
657.000	0.24317	0.20093	-0.01384	-0.26857
658.000	0.27085	0.17905	-0.00989	-0.24470
659.000	0.32027	0.23873	-0.04349	-0.24868
660.000	0.30446	0.19098	0.00791	-0.33223
661.000	0.33609	0.15119	-0.01186	-0.27454
662.000	0.27085	0.14125	-0.03163	-0.26260
663.000	0.28666	0.21486	0.04349	-0.22679
664.000	0.26492	0.18303	-0.04745	-0.28847
665.000	0.25108	0.22082	-0.02175	-0.24271
666.000	0.26096	0.16910	-0.05931	-0.23674
667.000	0.26096	0.17905	0.05931	-0.28648
668.000	0.29062	0.16711	-0.02175	-0.26857
669.000	0.27085	0.17905	0.00395	-0.28648
670.000	0.27876	0.20093	-0.00395	-0.21685
671.000	0.24515	0.16910	-0.08303	-0.23276
672.000	0.28864	0.18501	0.05338	-0.28250
673.000	0.23922	0.19496	-0.00593	-0.27056
674.000	0.28469	0.15318	0.07908	-0.28449
675.000	0.27480	0.22480	-0.02966	-0.27056
676.000	0.26492	0.15915	0.01384	-0.23077
677.000	0.24712	0.18502	-0.02372	-0.24271
678.000	0.26492	0.17905	0.04152	-0.22679
679.000	0.27480	0.19496	-0.03559	-0.30040
680.000	0.28271	0.18700	0.03361	-0.17308
681.000	0.24515	0.15120	-0.01384	-0.26658
682.000	0.29655	0.21088	0.00395	-0.30836
683.000	0.24910	0.17706	-0.03756	-0.32229
684.000	0.24515	0.16114	-0.01582	-0.25863
685.000	0.27085	0.18501	0.03756	-0.27454
686.000	0.28271	0.23674	-0.04349	-0.26658
687.000	0.26492	0.20690	-0.06326	-0.22679
688.000	0.27282	0.24271	0.01384	-0.27653
689.000	0.25108	0.16711	-0.00395	-0.25266
690.000	0.29457	0.18303	-0.04547	-0.25465
691.000	0.29062	0.18899	0.00000	-0.23674
692.000	0.24712	0.25067	-0.03163	-0.31234
693.000	0.21549	0.17905	-0.06326	-0.25067
694.000	0.23922	0.20889	-0.04547	-0.20491
695.000	0.24712	0.17109	-0.07117	-0.30637
696.000	0.28469	0.18104	-0.00395	-0.26857
697.000	0.25108	0.18700	-0.01186	-0.24271
698.000	0.31632	0.22480	-0.02570	-0.28847
699.000	0.24317	0.20292	-0.01384	-0.25465
700.000	0.30446	0.17905	-0.04943	-0.26658
701.000	0.29852	0.18700	-0.02570	-0.24669
702.000	0.28666	0.20690	0.01779	-0.28847
703.000	0.26689	0.22878	-0.05931	-0.24868
704.000	0.22340	0.14722	0.03756	-0.34218
705.000	0.25305	0.16512	-0.01977	-0.29443
706.000	0.20956	0.12334	0.00000	-0.29046
707.000	0.23724	0.16711	0.02570	-0.28449
708.000	0.24712	0.18303	-0.01977	-0.24271
709.000	0.23131	0.13926	-0.04349	-0.35213
710.000	0.26887	0.15517	0.02175	-0.26658
711.000	0.27678	0.15716	0.02372	-0.33223
712.000	0.24712	0.19695	-0.01582	-0.25266
713.000	0.21747	0.12533	-0.04152	-0.25862
714.000	0.22142	0.18700	0.00198	-0.23674
715.000	0.26294	0.17109	0.10280	-0.29045
716.000	0.24712	0.18700	-0.01977	-0.29046
717.000	0.26294	0.12931	-0.02175	-0.36207
718.000	0.21549	0.12931	-0.08303	-0.34815
719.000	0.23526	0.12732	-0.05536	-0.27653
720.000	0.24910	0.11340	-0.00989	-0.32825
721.000	0.21549	0.17905	-0.03756	-0.31831
722.000	0.21352	0.16313	-0.01977	-0.35014
723.000	0.26689	0.17905	-0.08897	-0.25266
724.000	0.23724	0.12931	0.04745	-0.33223
725.000	0.25108	0.16711	0.04943	-0.21287
726.000	0.23724	0.14722	-0.00593	-0.27653
727.000	0.21154	0.18502	-0.05338	-0.28449
728.000	0.23922	0.14324	-0.02966	-0.27852
729.000	0.19375	0.17109	-0.03756	-0.31035
730.000	0.24515	0.10942	0.03163	-0.31632
731.000	0.24712	0.15915	-0.00791	-0.33024
732.000	0.26294	0.19496	-0.00395	-0.24470
733.000	0.22142	0.16512	0.01186	-0.29642
734.000	0.22340	0.16114	0.03954	-0.31433
735.000	0.23131	0.17706	-0.04349	-0.31632
736.000	0.22538	0.14523	-0.06326	-0.28250
737.000	0.21549	0.14523	-0.04943	-0.23873
738.000	0.23724	0.19098	-0.00989	-0.28250
739.000	0.23724	0.16910	-0.01779	-0.25465
740.000	0.23131	0.16711	-0.02966	-0.31234
741.000	0.18188	0.15716	-0.04152	-0.31632
742.000	0.18979	0.16910	0.02570	-0.30239
743.000	0.19572	0.18502	0.01384	-0.29443
744.000	0.17991	0.13727	0.05338	-0.36207
745.000	0.21549	0.14324	-0.03163	-0.28051
746.000	0.18781	0.15319	-0.01186	-0.29443
747.000	0.19968	0.16114	-0.03163	-0.34815
748.000	0.18188	0.14921	-0.01977	-0.30637
749.000	0.19770	0.12135	-0.06326	-0.34815
750.000	0.21747	0.18502	-0.08501	-0.32626
751.000	0.17793	0.14523	-0.08303	-0.28051
752.000	0.18584	0.15120	-0.05536	-0.30239
753.000	0.16804	0.16313	-0.04349	-0.33223
754.000	0.22142	0.11937	-0.01384	-0.32427
755.000	0.23724	0.15120	-0.08303	-0.23077
756.000	0.18386	0.16114	-0.01384	-0.25067
757.000	0.19770	0.16910	0.00000	-0.26857
758.000	0.20561	0.17308	-0.04745	-0.17905
759.000	0.24712	0.18700	-0.04152	-0.24072
760.000	0.26492	0.11738	-0.02966	-0.26061
761.000	0.20956	0.11738	0.02570	-0.36008
762.000	0.25108	0.05570	0.07513	-0.37401
763.000	0.31632	0.01393	0.09490	-0.49934
764.000	0.32027	-0.13528	0.19770	-0.57890
765.000	0.46459	-0.22878	0.30446	-0.71217
766.000	0.57331	-0.44162	0.35388	-0.91306
767.000	0.68401	-0.58284	0.50017	-1.04032
768.000	0.77296	-0.81156	0.60099	-1.16161
769.000	0.86388	-0.98655	0.68203	-1.33458
770.000	0.97259	-1.13764	0.71366	-1.51548
771.000	1.04967	-1.34637	0.96073	-1.72805
772.000	1.17813	-1.47552	0.94295	-1.84531
773.000	1.25520	-1.58678	1.11687	-2.08361
774.000	1.36980	-1.69601	1.20382	-2.14115
775.000	1.45279	-1.82907	1.28879	-2.30393
776.000	1.51798	-1.87471	1.27891	-2.42506
777.000	1.56737	-1.90248	1.34807	-2.43095
778.000	1.63059	-1.94413	1.38561	-2.43687
779.000	1.65627	-1.90240	1.42710	-2.43285
780.000	1.68392	-1.87456	1.36980	-2.44482
781.000	1.67207	-1.84080	1.33819	-2.38132
782.000	1.69182	-1.81893	1.34214	-2.39125
783.000	1.73133	-1.68976	1.24136	-2.17290
784.000	1.70170	-1.60037	1.23544	-2.18284
785.000	1.67404	-1.57258	1.15244	-2.07366
786.000	1.68195	-1.46924	1.15441	-2.03393
787.000	1.65627	-1.44938	1.16825	-1.92664
788.000	1.63059	-1.43549	1.07536	-1.80152
789.000	1.54564	-1.36599	1.02793	-1.73001
790.000	1.54959	-1.36797	1.04177	-1.79756
791.000	1.53971	-1.30636	1.11291	-1.78361
792.000	1.58713	-1.25664	1.07339	-1.73594
793.000	1.57923	-1.28050	1.07339	-1.72004
794.000	1.52786	-1.29842	1.04967	-1.71608
795.000	1.46859	-1.33423	1.09513	-1.73196
796.000	1.51206	-1.32228	0.99829	-1.70419
797.000	1.52984	-1.35208	1.16232	-1.77166
798.000	1.53774	-1.38786	1.06943	-1.68626
799.000	1.51008	-1.39384	1.09908	-1.76971
800.000	1.53181	-1.42165	1.17418	-1.74979
801.000	1.50415	-1.44750	1.09710	-1.74189
802.000	1.54367	-1.41568	1.12477	-1.80745
803.000	1.53379	-1.43755	1.16232	-1.86306
804.000	1.55552	-1.38983	1.16429	-1.88094
805.000	1.60293	-1.41166	1.16627	-1.83325
806.000	1.59503	-1.43750	1.17022	-1.90478
807.000	1.57330	-1.48522	1.22160	-1.84514
808.000	1.61083	-1.48916	1.23148	-1.93653
809.000	1.61083	-1.47923	1.25520	-1.87691
810.000	1.64639	-1.48119	1.19394	-1.90476
811.000	1.58120	-1.52098	1.19789	-1.89483
812.000	1.60688	-1.53090	1.15046	-1.99618
813.000	1.64639	-1.57260	1.19591	-1.97430
814.000	1.60886	-1.55872	1.31448	-1.95633
815.000	1.60293	-1.57661	1.16825	-1.97630
816.000	1.61676	-1.59448	1.23939	-1.98221
817.000	1.65627	-1.56862	1.22555	-1.95044
818.000	1.67207	-1.56662	1.27100	-2.05172
819.000	1.66614	-1.60835	1.19789	-1.97628
820.000	1.65627	-1.55670	1.22160	-1.99017
821.000	1.64837	-1.54080	1.18406	-2.01205
822.000	1.68787	-1.54475	1.22160	-1.99216
823.000	1.63849	-1.56664	1.24927	-2.01200
824.000	1.63651	-1.56267	1.22160	-1.92660
825.000	1.64639	-1.57856	1.23939	-1.95837
826.000	1.62861	-1.55672	1.18603	-2.01602
827.000	1.66219	-1.53881	1.23148	-2.00606
828.000	1.63849	-1.54280	1.26310	-1.98220
829.000	1.67997	-1.55270	1.26508	-1.97425
830.000	1.65034	-1.52490	1.19789	-2.00012
831.000	1.64244	-1.51497	1.18010	-2.00212
832.000	1.62269	-1.52095	1.15837	-2.01406
833.000	1.63059	-1.54082	1.18998	-1.96636
834.000	1.63454	-1.49710	1.19987	-1.93655
835.000	1.62664	-1.51896	1.20184	-1.99217
836.000	1.62466	-1.54877	1.23741	-2.02195
837.000	1.65034	-1.52490	1.17615	-2.00411
838.000	1.61083	-1.48320	1.22160	-1.99415
839.000	1.65232	-1.49112	1.22160	-2.01004
840.000	1.66614	-1.49310	1.21963	-1.99415
841.000	1.61873	-1.49909	1.20382	-1.98621
842.000	1.63454	-1.49908	1.16429	-1.94651
843.000	1.61281	-1.51102	1.18603	-1.93259
844.000	1.61676	-1.48717	1.09117	-1.96046
845.000	1.60293	-1.48122	1.13860	-1.92268
846.000	1.65232	-1.48317	1.21765	-1.94846
847.000	1.66417	-1.46528	1.17220	-1.98624
848.000	1.67404	-1.48117	1.16429	-2.01803
849.000	1.64441	-1.46927	1.19987	-1.96834
850.000	1.65429	-1.44740	1.17615	-1.97630
851.000	1.63454	-1.43350	1.18010	-2.03987
852.000	1.66022	-1.44342	1.14058	-1.99023
853.000	1.70565	-1.43742	1.15639	-1.98823
854.000	1.64046	-1.47921	1.14256	-1.99619
855.000	1.66219	-1.43746	1.15639	-2.00214
856.000	1.65824	-1.44938	1.19394	-1.96039
857.000	1.63849	-1.48318	1.18603	-1.98424
858.000	1.61676	-1.44941	1.15639	-1.98227
859.000	1.63059	-1.41164	1.22555	-1.98818
860.000	1.65429	-1.44740	1.13465	-2.02997
861.000	1.66614	-1.45534	1.15046	-2.06174
862.000	1.66614	-1.43745	1.11884	-2.03395
863.000	1.69380	-1.44936	1.22358	-1.99017
864.000	1.64837	-1.42952	1.08722	-2.00417
865.000	1.64639	-1.44740	1.08722	-2.05582
866.000	1.67602	-1.47719	1.11489	-2.01210
867.000	1.65627	-1.44740	1.05165	-2.04790
868.000	1.68392	-1.43545	1.14256	-2.00414
869.000	1.64837	-1.46330	1.15639	-2.03194
870.000	1.67207	-1.48117	1.15837	-1.99618
871.000	1.62664	-1.45934	1.14058	-2.05380
872.000	1.64244	-1.43946	1.11094	-2.06375
873.000	1.63256	-1.44940	1.08920	-2.05781
874.000	1.68392	-1.46526	1.08722	-2.01013
875.000	1.66417	-1.41957	1.18801	-2.10144
876.000	1.67207	-1.47322	1.07141	-2.11940
877.000	1.65627	-1.44938	1.19987	-2.05574
878.000	1.72145	-1.41158	1.13663	-2.10346
879.000	1.71948	-1.45530	1.10501	-2.04787
880.000	1.68787	-1.42750	1.15244	-2.08756
881.000	1.65429	-1.43945	1.18998	-2.05178
882.000	1.69775	-1.44339	1.16627	-2.07762
883.000	1.67404	-1.46924	1.16034	-2.10543
884.000	1.70960	-1.45332	1.15639	-2.10146
885.000	1.69775	-1.41954	1.20382	-2.16102
886.000	1.68590	-1.44340	1.18406	-2.17096
887.000	1.68787	-1.47122	1.11884	-2.10348
888.000	1.69182	-1.43147	1.07339	-2.11145
889.000	1.70170	-1.48910	1.21172	-2.15505
890.000	1.70565	-1.44140	1.20184	-2.11533
891.000	1.67800	-1.40167	1.24136	-2.14510
892.000	1.70960	-1.41159	1.19789	-2.13123
893.000	1.70367	-1.46525	1.20382	-2.07958
894.000	1.73923	-1.42349	1.14058	-2.07764
895.000	1.69775	-1.45333	1.17022	-2.15310
896.000	1.75305	-1.39367	1.18208	-2.08555
897.000	1.68195	-1.42750	1.15046	-2.10147
898.000	1.72540	-1.42747	1.13663	-2.13525
899.000	1.73528	-1.39169	1.14256	-2.19483
900.000	1.70367	-1.39569	1.17022	-2.18686
901.000	1.75503	-1.43540	1.16627	-2.14118
902.000	1.75305	-1.39565	1.16429	-2.13920
903.000	1.77873	-1.41153	1.17022	-2.21467
904.000	1.74120	-1.43938	1.12675	-2.19881
905.000	1.76095	-1.41155	1.13268	-2.16306
906.000	1.70367	-1.38575	1.14651	-2.18092
907.000	1.76886	-1.38571	1.18406	-2.15904
908.000	1.73923	-1.40361	1.22160	-2.21661
909.000	1.74318	-1.37976	1.23939	-2.19872
910.000	1.73725	-1.40362	1.18406	-2.20870
911.000	1.71158	-1.40761	1.15837	-2.19879
912.000	1.74318	-1.40560	1.14453	-2.12729
913.000	1.75700	-1.41751	1.10106	-2.23259
914.000	1.75898	-1.39764	1.20777	-2.18087
915.000	1.73133	-1.39766	1.13465	-2.16901
916.000	1.74515	-1.39765	1.16627	-2.22659
917.000	1.74120	-1.39169	1.14651	-2.24249
918.000	1.76293	-1.42148	1.14453	-2.21469
919.000	1.73528	-1.41952	1.15441	-2.22660
920.000	1.75898	-1.40559	1.19394	-2.24245
921.000	1.78071	-1.45724	1.19987	-2.28018
922.000	1.73725	-1.39964	1.18998	-2.20671
923.000	1.78663	-1.38967	1.16627	-2.23453
924.000	1.74910	-1.43540	1.16034	-2.20872
925.000	1.73528	-1.39964	1.16232	-2.22460
926.000	1.75305	-1.40162	1.11884	-2.23457
927.000	1.78861	-1.38172	1.13860	-2.22661
928.000	1.75898	-1.40559	1.17220	-2.17494
929.000	1.70762	-1.37581	1.11884	-2.21471
930.000	1.74910	-1.42547	1.03781	-2.13929
931.000	1.73923	-1.38573	1.14256	-2.17099
932.000	1.76095	-1.34795	1.17022	-2.17494
933.000	1.73725	-1.38176	1.22555	-2.23250
934.000	1.72540	-1.37381	1.11687	-2.11738
935.000	1.72343	-1.39170	1.09710	-2.19685
936.000	1.76293	-1.41353	1.12675	-2.18292
937.000	1.73528	-1.42150	1.11687	-2.13129
938.000	1.74318	-1.41554	1.12477	-2.27428
939.000	1.72935	-1.37381	1.09908	-2.20678
940.000	1.77281	-1.37974	1.09908	-2.24253
941.000	1.75305	-1.36187	1.11094	-2.22067
942.000	1.75108	-1.37976	1.15837	-2.18290
943.000	1.71553	-1.41556	1.10698	-2.20280
944.000	1.74120	-1.39964	1.11291	-2.26238
945.000	1.71158	-1.38376	1.16034	-2.08954
946.000	1.72935	-1.44337	1.11687	-2.21669
947.000	1.72738	-1.40959	1.16429	-2.12132
948.000	1.78861	-1.38569	1.08920	-2.20877
949.000	1.72145	-1.41356	1.17022	-2.29609
950.000	1.74910	-1.38771	1.12675	-2.19087
951.000	1.78071	-1.36980	1.13663	-2.18490
952.000	1.72738	-1.37381	1.14256	-2.20476
953.000	1.72540	-1.39965	1.14256	-2.22263
954.000	1.76491	-1.38571	1.10501	-2.23458
955.000	1.70367	-1.36389	1.15837	-2.17098
956.000	1.75305	-1.35392	1.09513	-2.16706
957.000	1.70170	-1.35396	1.10303	-2.21273
958.000	1.76886	-1.41750	1.14453	-2.18688
959.000	1.74318	-1.37380	1.19394	-2.21465
960.000	1.77873	-1.42147	1.14256	-2.23455
961.000	1.80638	-1.37574	1.17418	-2.21069
962.000	1.82416	-1.36182	1.20382	-2.15108
963.000	1.84983	-1.42141	1.25915	-2.25630
964.000	1.93672	-1.40147	1.23148	-2.24838
965.000	2.00584	-1.42526	1.31843	-2.18475
966.000	2.09271	-1.44902	1.49823	-2.27791
967.000	2.14207	-1.43904	1.53774	-2.31758
968.000	2.22104	-1.43499	1.53576	-2.33943
969.000	2.23288	-1.45882	1.59503	-2.31156
970.000	2.23880	-1.54027	1.57527	-2.34335
971.000	2.30197	-1.48855	1.63059	-2.41277
972.000	2.27039	-1.51838	1.62861	-2.40483
973.000	2.22696	-1.49459	1.64639	-2.41672
974.000	2.30394	-1.53225	1.59898	-2.42472
975.000	2.17761	-1.51848	1.62861	-2.37704
976.000	2.16576	-1.50458	1.51008	-2.42879
977.000	2.14010	-1.51454	1.51996	-2.41091
978.000	2.09864	-1.51259	1.51996	-2.41488
979.000	2.06507	-1.47686	1.42513	-2.49241
980.000	2.06507	-1.51859	1.41722	-2.42492
981.000	2.05915	-1.49078	1.47847	-2.37721
982.000	2.02756	-1.46299	1.48242	-2.44073
983.000	2.06310	-1.44706	1.39351	-2.39517
984.000	2.06705	-1.46494	1.45871	-2.38914
985.000	2.09271	-1.43313	1.44093	-2.36931
986.000	2.08284	-1.46691	1.49032	-2.38911
987.000	2.08679	-1.45896	1.45279	-2.32760
988.000	2.11641	-1.46688	1.51601	-2.34739
989.000	2.11443	-1.43907	1.43500	-2.34350
990.000	2.10851	-1.43907	1.42710	-2.32366
991.000	2.10851	-1.40530	1.43105	-2.34946
992.000	2.11838	-1.43708	1.51206	-2.38114
993.000	2.12628	-1.41720	1.50415	-2.35137
994.000	2.12628	-1.41522	1.43303	-2.34946
995.000	2.13615	-1.40329	1.46662	-2.34744
996.000	2.13220	-1.39733	1.43698	-2.36534
997.000	2.12430	-1.42317	1.44686	-2.36334
998.000	2.07495	-1.40334	1.50218	-2.47446
999.000	2.14602	-1.38937	1.50415	-2.31960
1000.000	2.11838	-1.42516	1.47254	-2.36133
1001.000	2.14997	-1.41321	1.47452	-2.40501
1002.000	2.15984	-1.42909	1.47254	-2.37920
1003.000	2.16971	-1.41518	1.45674	-2.33752
1004.000	2.14800	-1.42513	1.50020	-2.33748
1005.000	2.13023	-1.50263	1.59108	-2.41083
1006.000	2.14010	-1.43904	1.49032	-2.34344
1007.000	2.15984	-1.47081	1.48637	-2.37720
1008.000	2.16774	-1.42511	1.52193	-2.39503
1009.000	2.15194	-1.38936	1.51403	-2.37519
1010.000	2.15392	-1.43506	1.42710	-2.36535
1011.000	2.18353	-1.42311	1.41722	-2.39316
1012.000	2.16576	-1.43902	1.48637	-2.37919
1013.000	2.19340	-1.40919	1.51601	-2.45459
1014.000	2.22499	-1.43896	1.54169	-2.29971
1015.000	2.18945	-1.46880	1.46859	-2.39310
1016.000	2.18156	-1.45291	1.56145	-2.39896
1017.000	2.17366	-1.43107	1.52589	-2.42282
1018.000	2.23683	-1.47074	1.43698	-2.41299
1019.000	2.17563	-1.45292	1.50218	-2.41689
1020.000	2.18353	-1.45291	1.51601	-2.39702
1021.000	2.20919	-1.49461	1.49823	-2.46454
1022.000	2.19340	-1.40522	1.50218	-2.44667
1023.000	2.18945	-1.40920	1.42117	-2.42293
1024.000	2.16971	-1.40325	1.45871	-2.42488
1025.000	2.16774	-1.44697	1.47847	-2.46456
1026.000	2.19538	-1.40720	1.60096	-2.44854
1027.000	2.19538	-1.40522	1.49823	-2.43079
1028.000	2.16181	-1.39929	1.55552	-2.49028
1029.000	2.18353	-1.40324	1.47452	-2.48044
1030.000	2.18156	-1.44894	1.50218	-2.39902
1031.000	2.15984	-1.40525	1.55354	-2.45653
1032.000	2.14405	-1.43308	1.50613	-2.43475
1033.000	2.18748	-1.43304	1.51996	-2.50421
1034.000	2.15194	-1.42910	1.46662	-2.49435
1035.000	2.15194	-1.44499	1.52786	-2.46649
1036.000	2.16774	-1.42908	1.48835	-2.40896
1037.000	2.14207	-1.40527	1.45476	-2.50429
1038.000	2.15589	-1.46684	1.45871	-2.48046
1039.000	2.13812	-1.44103	1.53181	-2.49824
1040.000	2.13615	-1.44501	1.58318	-2.44856
1041.000	2.14997	-1.44102	1.52391	-2.44267
1042.000	2.15392	-1.50062	1.46859	-2.54198
1043.000	2.15194	-1.48274	1.52193	-2.47245
1044.000	2.14405	-1.47480	1.55552	-2.47241
1045.000	2.16181	-1.48671	1.44291	-2.49437
1046.000	2.18550	-1.47476	1.51403	-2.43077
1047.000	2.13615	-1.47680	1.51008	-2.48040
1048.000	2.11048	-1.48477	1.51996	-2.44863
1049.000	2.13615	-1.48276	1.54762	-2.47044
1050.000	2.12628	-1.50462	1.56145	-2.50019
1051.000	2.14207	-1.46884	1.52391	-2.51215
1052.000	2.17761	-1.44497	1.44488	-2.45269
1053.000	2.12430	-1.48476	1.49823	-2.48042
1054.000	2.12430	-1.49668	1.51206	-2.54193
1055.000	2.11641	-1.51655	1.46859	-2.56183
1056.000	2.14997	-1.51254	1.51403	-2.49032
1057.000	2.13418	-1.45494	1.43303	-2.50034
1058.000	2.10456	-1.48080	1.44291	-2.39512
1059.000	2.14602	-1.46685	1.45081	-2.54796
1060.000	2.12233	-1.43906	1.49032	-2.42087
1061.000	2.16774	-1.46286	1.51206	-2.47246
1062.000	2.15194	-1.45095	1.42908	-2.49439
1063.000	2.18748	-1.46681	1.45674	-2.47252
1064.000	2.17958	-1.49861	1.49032	-2.45859
1065.000	2.17958	-1.48272	1.50415	-2.46255
1066.000	2.15589	-1.47678	1.41129	-2.49838
1067.000	2.15589	-1.45294	1.47847	-2.46654
1068.000	2.15194	-1.45691	1.51996	-2.55780
1069.000	2.14997	-1.49069	1.46859	-2.53206
1070.000	2.18748	-1.45887	1.44093	-2.54003
1071.000	2.15392	-1.44897	1.52984	-2.53794
1072.000	2.14010	-1.48673	1.48045	-2.52212
1073.000	2.14405	-1.48275	1.48045	-2.56579
1074.000	2.15589	-1.47082	1.45871	-2.55986
1075.000	2.16774	-1.44895	1.46859	-2.48045
1076.000	2.19932	-1.42309	1.43698	-2.49240
1077.000	2.17366	-1.45292	1.40339	-2.44280
1078.000	2.16774	-1.47875	1.52786	-2.52604
1079.000	2.14010	-1.44302	1.46662	-2.48244
1080.000	2.14602	-1.46685	1.43698	-2.50629
1081.000	2.12036	-1.48873	1.48637	-2.52807
1082.000	2.14010	-1.46686	1.46266	-2.46656
1083.000	2.14997	-1.47281	1.46266	-2.47847
1084.000	2.18945	-1.46284	1.56342	-2.49424
1085.000	2.17366	-1.45292	1.48045	-2.50624
1086.000	2.13615	-1.47481	1.45871	-2.45664
1087.000	2.18550	-1.47476	1.48242	-2.49433
1088.000	2.16971	-1.49862	1.47254	-2.48442
1089.000	2.14010	-1.45891	1.50020	-2.58760
1090.000	2.15787	-1.43108	1.48242	-2.51220
1091.000	2.15194	-1.45294	1.50020	-2.43674
1092.000	2.14405	-1.48672	1.54169	-2.46647
1093.000	2.18748	-1.45688	1.45674	-2.47848
1094.000	2.17958	-1.45291	1.45081	-2.46459
1095.000	2.16379	-1.45492	1.59108	-2.49023
1096.000	2.14405	-1.49467	1.53774	-2.51213
1097.000	2.16971	-1.43703	1.47057	-2.54794
1098.000	2.19538	-1.43701	1.49823	-2.52012
1099.000	2.16971	-1.48471	1.50020	-2.46851
1100.000	2.18945	-1.46880	1.43896	-2.53408
1101.000	2.18748	-1.50059	1.54762	-2.56372
1102.000	2.16379	-1.46286	1.53379	-2.53198
1103.000	2.17563	-1.46087	1.48242	-2.54792
1104.000	2.15194	-1.43506	1.46464	-2.54199
1105.000	2.17563	-1.42510	1.50415	-2.46056
1106.000	2.17169	-1.49663	1.58120	-2.55178
1107.000	2.17761	-1.48470	1.38561	-2.52818
1108.000	2.19143	-1.43900	1.45081	-2.49040
1109.000	2.22104	-1.46082	1.59503	-2.55970
1110.000	2.18550	-1.50258	1.61083	-2.50807
1111.000	2.20327	-1.45885	1.57132	-2.51805
1112.000	2.21709	-1.43897	1.52786	-2.44664
1113.000	2.20130	-1.47872	1.59700	-2.52992
1114.000	2.17366	-1.48868	1.56342	-2.55180
1115.000	2.21906	-1.44692	1.47057	-2.58763
1116.000	2.22301	-1.44493	1.54564	-2.60144
1117.000	2.23880	-1.48862	1.48242	-2.44470
1118.000	2.20919	-1.43898	1.52391	-2.52604
1119.000	2.20130	-1.42905	1.56540	-2.49622
1120.000	2.20919	-1.48666	1.61281	-2.57555
1121.000	2.20722	-1.46878	1.62071	-2.60531
1122.000	2.22301	-1.47075	1.53971	-2.55183
1123.000	2.19932	-1.49064	1.54367	-2.52205
1124.000	2.22499	-1.44492	1.48440	-2.42882
1125.000	2.28026	-1.46076	1.59700	-2.53588
1126.000	2.26447	-1.42899	1.52786	-2.45458
1127.000	2.22893	-1.47273	1.56342	-2.52600
1128.000	2.15787	-1.46088	1.52589	-2.48237
1129.000	2.08087	-1.45102	1.50020	-2.43873
1130.000	2.00979	-1.39148	1.23741	-2.54223
1131.000	1.78268	-1.42147	1.05165	-2.60790
1132.000	1.48637	-1.48329	1.02200	-2.59601
1133.000	1.20382	-1.44371	0.74133	-2.65179
1134.000	0.86191	-1.47368	0.41319	-2.69363
1135.000	0.45075	-1.57519	0.03361	-2.84851
1136.000	0.03361	-1.66270	-0.31632	-2.95959
1137.000	-0.37760	-1.75211	-0.66424	-3.07251
1138.000	-0.73738	-1.87521	-1.20777	-3.11567
1139.000	-1.17813	-1.99020	-1.46464	-3.34729
1140.000	-1.58120	-2.06336	-1.92883	-3.38018
1141.000	-1.99399	-2.13040	-2.31973	-3.51004
1142.000	-2.38486	-2.33824	-2.62560	-3.61812
1143.000	-2.63743	-2.42111	-2.98455	-3.67242
1144.000	-3.01018	-2.52544	-3.23292	-3.69727
1145.000	-3.29598	-2.64961	-3.56192	-3.77905
1146.000	-3.53238	-2.69652	-3.66825	-3.84977
1147.000	-3.58949	-2.77955	-3.95955	-3.89588
1148.000	-3.77850	-2.87203	-4.13266	-3.91875
1149.000	-3.97923	-2.96439	-4.30570	-3.95737
1150.000	-4.07759	-2.99372	-4.41184	-3.90154
1151.000	-4.18379	-3.00321	-4.57885	-3.95394
1152.000	-4.37253	-3.00049	-4.89105	-4.00147
1153.000	-4.51598	-3.00585	-5.04018	-3.99268
1154.000	-4.72615	-3.00496	-5.29118	-3.89844
1155.000	-4.85180	-2.92137	-5.58115	-3.83350
1156.000	-5.05195	-2.96199	-5.84736	-3.86522
1157.000	-5.17551	-2.96735	-5.95690	-3.86446
1158.000	-5.32842	-2.90340	-6.23056	-3.82312
1159.000	-5.34018	-2.89940	-6.26963	-3.76573
1160.000	-5.41073	-2.85955	-6.34190	-3.67661
1161.000	-5.35390	-2.80844	-6.31651	-3.72011
1162.000	-5.24413	-2.82475	-6.30674	-3.68276
1163.000	-5.09510	-2.76809	-6.21884	-3.61641
1164.000	-4.96170	-2.68758	-6.11918	-3.59345
1165.000	-4.86161	-2.75720	-5.93147	-3.54344
1166.000	-4.74775	-2.72601	-5.81605	-3.59346
1167.000	-4.59457	-2.72067	-5.61836	-3.54145
1168.000	-4.55331	-2.74062	-5.53611	-3.56956
1169.000	-4.47079	-2.73895	-5.45579	-3.63119
1170.000	-4.48651	-2.68348	-5.34410	-3.65948
1171.000	-4.47865	-2.71715	-5.40877	-3.68670
1172.000	-4.53563	-2.74860	-5.28530	-3.71506
1173.000	-4.57689	-2.75833	-5.31470	-3.71489
1174.000	-4.63778	-2.75810	-5.37154	-3.72046
1175.000	-4.66331	-2.81339	-5.36958	-3.77964
1176.000	-4.85180	-2.83832	-5.42249	-3.83058
1177.000	-4.84591	-2.82055	-5.54590	-3.88695
1178.000	-4.93226	-2.86764	-5.60269	-3.94373
1179.000	-4.98917	-2.87332	-5.73777	-3.92507
1180.000	-5.04410	-2.92448	-5.72212	-3.92912
1181.000	-5.10883	-2.91825	-5.85518	-3.95381
1182.000	-5.10099	-2.90643	-5.93539	-3.97687
1183.000	-5.14413	-2.91612	-5.97255	-3.91161
1184.000	-5.16374	-2.92591	-5.92952	-3.99070
1185.000	-5.12648	-2.92015	-6.00188	-3.89171
1186.000	-5.16571	-2.94961	-5.94125	-3.89017
1187.000	-5.13629	-2.90034	-5.99797	-3.90552
1188.000	-5.13629	-2.88651	-6.04489	-3.83035
1189.000	-5.16963	-2.88833	-6.05467	-3.84210
1190.000	-5.17551	-2.91004	-5.99406	-3.87995
1191.000	-5.16178	-2.87256	-6.01948	-3.81674
1192.000	-5.15002	-2.87063	-5.98819	-3.82878
1193.000	-5.13629	-2.86674	-5.99210	-3.78739
1194.000	-5.22257	-2.92366	-6.00774	-3.80895
1195.000	-5.16178	-2.87651	-5.96081	-3.75805
1196.000	-5.18728	-2.88232	-5.94321	-3.76211
1197.000	-5.12452	-2.85691	-6.05271	-3.83227
1198.000	-5.10099	-2.90643	-5.95886	-3.72063
1199.000	-5.09706	-2.86099	-5.96668	-3.78362
1200.000	-5.05783	-2.86116	-5.91583	-3.81549
1201.000	-5.08726	-2.84719	-5.85518	-3.83561
1202.000	-5.01664	-2.78622	-5.89431	-3.78215
1203.000	-5.05195	-2.82363	-5.84149	-3.74309
1204.000	-5.05587	-2.83943	-5.85323	-3.78834
1205.000	-5.05391	-2.85130	-5.81214	-3.75905
1206.000	-4.99113	-2.82785	-5.85127	-3.82579
1207.000	-5.01664	-2.82180	-5.87670	-3.82955
1208.000	-5.09118	-2.81555	-5.78866	-3.79665
1209.000	-5.02841	-2.81978	-5.80236	-3.79065
1210.000	-5.02252	-2.80992	-5.88649	-3.75067
1211.000	-5.02448	-2.81782	-5.83366	-3.76876
1212.000	-5.01860	-2.81784	-5.78279	-3.76516
1213.000	-5.01860	-2.81389	-5.84345	-3.79234
1214.000	-5.00094	-2.79617	-5.82779	-3.75107
1215.000	-5.00486	-2.81988	-5.79649	-3.81631
1216.000	-5.03233	-2.86325	-5.85910	-3.77647
1217.000	-5.01467	-2.79809	-5.81410	-3.83786
1218.000	-5.06568	-2.84729	-5.75147	-3.83631
1219.000	-5.05587	-2.82361	-5.85127	-3.77653
1220.000	-5.00879	-2.79811	-5.87084	-3.83747
1221.000	-5.02056	-2.83563	-5.86497	-3.82372
1222.000	-5.03429	-2.85731	-5.82388	-3.83779
1223.000	-5.04606	-2.82563	-5.88062	-3.83741
1224.000	-5.04410	-2.87111	-5.84932	-3.82580
1225.000	-5.02645	-2.83165	-5.80040	-3.77884
1226.000	-5.00879	-2.83765	-5.80823	-3.80637
1227.000	-5.04606	-2.82365	-5.87670	-3.79015
1228.000	-5.00290	-2.80407	-5.85910	-3.74692
1229.000	-5.03822	-2.81973	-5.81410	-3.80634
1230.000	-5.03822	-2.84543	-5.79453	-3.78873
1231.000	-5.06568	-2.83741	-5.91192	-3.79779
1232.000	-5.09706	-2.86099	-5.94321	-3.79954
1233.000	-5.02448	-2.82770	-5.86105	-3.78040
1234.000	-5.05391	-2.83153	-5.87279	-3.77441
1235.000	-5.08137	-2.85315	-5.93539	-3.78581
1236.000	-5.04410	-2.82959	-5.94712	-3.86255
1237.000	-5.05391	-2.80978	-5.85127	-3.84549
1238.000	-5.06568	-2.82555	-5.81214	-3.83393
1239.000	-5.09314	-2.86101	-5.89431	-3.77230
1240.000	-5.07745	-2.84328	-5.84932	-3.79033
1241.000	-5.10687	-2.89455	-5.92756	-3.82723
1242.000	-5.07353	-2.81958	-5.88453	-3.84132
1243.000	-5.05783	-2.86512	-5.81214	-3.77285
1244.000	-5.07941	-2.83142	-5.90800	-3.83525
1245.000	-5.06764	-2.79588	-5.86888	-3.81779
1246.000	-5.08137	-2.81164	-5.92561	-3.78587
1247.000	-5.06372	-2.82555	-5.85323	-3.83956
1248.000	-5.07549	-2.84922	-5.84932	-3.82383
1249.000	-5.11864	-2.82729	-5.81997	-3.85555
1250.000	-5.07941	-2.88281	-5.83562	-3.84166
1251.000	-5.07156	-2.83343	-5.87084	-3.79610
1252.000	-5.05783	-2.80186	-5.83758	-3.80224
1253.000	-5.07353	-2.82749	-5.90409	-3.78799
1254.000	-5.09510	-2.89065	-5.87279	-3.83746
1255.000	-5.08529	-2.87092	-5.86105	-3.72129
1256.000	-5.08726	-2.83336	-5.85518	-3.85334
1257.000	-5.04606	-2.82958	-5.86692	-3.84341
1258.000	-5.05391	-2.87897	-5.92170	-3.84303
1259.000	-5.08922	-2.83137	-5.81214	-3.87334
1260.000	-5.04018	-2.83356	-5.75735	-3.79292
1261.000	-5.07156	-2.80180	-5.82388	-3.82991
1262.000	-5.11668	-2.91427	-5.93734	-3.82913
1263.000	-5.01664	-2.85937	-5.90409	-3.83527
1264.000	-5.09510	-2.84716	-5.86692	-3.84735
1265.000	-5.06764	-2.82949	-5.91778	-3.87655
1266.000	-5.06176	-2.81963	-5.83953	-3.81601
1267.000	-5.13825	-2.90033	-5.81410	-3.85165
1268.000	-5.08137	-2.83536	-5.83171	-3.77469
1269.000	-5.10883	-2.86687	-5.81605	-3.82209
1270.000	-5.07941	-2.86897	-5.87670	-3.90047
1271.000	-5.11079	-2.89650	-5.85714	-3.85530
1272.000	-5.08726	-2.82347	-5.88649	-3.77432
1273.000	-5.04018	-2.83752	-5.94125	-3.80941
1274.000	-5.02056	-2.82574	-5.90605	-3.76433
1275.000	-5.05195	-2.83154	-5.86692	-3.82371
1276.000	-5.07745	-2.84921	-5.85910	-3.77450
1277.000	-5.11079	-2.85500	-5.84540	-3.79036
1278.000	-5.04214	-2.81972	-5.81214	-3.76300
1279.000	-5.12060	-2.86088	-5.85127	-3.82185
1280.000	-5.09314	-2.86298	-5.88844	-3.85114
1281.000	-5.07353	-2.88481	-5.89040	-3.81370
1282.000	-5.04802	-2.89086	-5.86692	-3.81583
1283.000	-5.06960	-2.86506	-5.83758	-3.80618
1284.000	-5.06568	-2.89078	-5.84149	-3.84950
1285.000	-5.07549	-2.85318	-5.91778	-3.80563
1286.000	-5.08726	-2.85313	-5.88844	-3.81371
1287.000	-5.04214	-2.88495	-5.91583	-3.83125
1288.000	-5.09314	-2.84322	-5.93147	-3.86660
1289.000	-5.10687	-2.87280	-5.87279	-3.90050
1290.000	-5.09902	-2.88075	-5.92561	-3.81346
1291.000	-5.06764	-2.90856	-5.97059	-3.85057
1292.000	-5.08333	-2.85907	-5.93539	-3.81930
1293.000	-5.07353	-2.91051	-5.87670	-3.80788
1294.000	-5.08137	-2.92233	-5.89040	-3.76247
1295.000	-5.07745	-2.83538	-5.87084	-3.82368
1296.000	-5.05783	-2.86907	-5.91583	-3.80564
1297.000	-4.98524	-2.88323	-5.91583	-3.80367
1298.000	-5.03625	-2.90870	-5.94712	-3.82710
1299.000	-5.11275	-2.90638	-5.90996	-3.82735
1300.000	-5.11668	-2.90834	-5.86301	-3.81783
1301.000	-5.06372	-2.89079	-5.94125	-3.79956
1302.000	-5.09706	-2.86692	-5.92170	-3.86470
1303.000	-5.07353	-2.87691	-5.86301	-3.89269
1304.000	-5.11275	-2.94986	-5.89627	-3.77819
1305.000	-5.12256	-2.90831	-5.91778	-3.80366
1306.000	-5.07549	-2.89864	-5.87866	-3.90046
1307.000	-5.09902	-2.89260	-5.98819	-3.81105
1308.000	-5.09118	-2.86101	-5.98037	-3.86035
1309.000	-5.09118	-2.88869	-5.93734	-3.81338
1310.000	-5.08333	-2.91837	-5.94125	-3.80547
1311.000	-5.09902	-2.86493	-5.91974	-3.78788
1312.000	-5.01664	-2.88902	-5.84932	-3.81004
1313.000	-5.07156	-2.88877	-5.90800	-3.78599
1314.000	-5.10295	-2.86689	-5.91583	-3.87262
1315.000	-5.03233	-2.87511	-5.92170	-3.78590
1316.000	-5.10099	-2.88074	-5.93147	-3.83509
1317.000	-5.07549	-2.93422	-5.93734	-3.76018
1318.000	-4.99702	-2.85945	-5.97646	-3.83083
1319.000	-5.10491	-2.90839	-5.90213	-3.82544
1320.000	-5.08137	-2.92431	-5.94908	-3.79359
1321.000	-5.03822	-2.91462	-6.01752	-3.84236
1322.000	-5.09706	-2.90052	-5.93734	-3.81929
1323.000	-5.10687	-2.89455	-5.89431	-3.86292
1324.000	-5.10295	-2.89259	-5.95299	-3.74431
1325.000	-5.08726	-2.84917	-5.95103	-3.83298
1326.000	-5.04802	-2.87504	-5.88453	-3.73492
1327.000	-5.03625	-2.86323	-5.90213	-3.84317
1328.000	-5.06176	-2.90068	-5.93734	-3.83504
1329.000	-5.08137	-2.84920	-5.94125	-3.86063
1330.000	-5.08137	-2.88675	-5.87670	-3.81576
1331.000	-5.04802	-2.88295	-5.88257	-3.83936
1332.000	-5.05587	-2.88884	-5.92756	-3.82920
1333.000	-5.07745	-2.87491	-5.91974	-3.82926
1334.000	-5.04999	-2.92445	-5.91192	-3.80173
1335.000	-5.06960	-2.91053	-5.96668	-3.81120
1336.000	-5.03625	-2.83951	-5.94321	-3.83894
1337.000	-5.08137	-2.83141	-5.97646	-3.86235
1338.000	-5.04606	-2.86912	-5.99015	-3.80513
1339.000	-5.11864	-2.88461	-5.94712	-3.77391
1340.000	-5.04606	-2.86714	-5.90605	-3.81950
1341.000	-5.10491	-2.86293	-6.00383	-3.82079
1342.000	-5.08529	-2.89464	-5.91974	-3.80956
1343.000	-5.10687	-2.87873	-5.89235	-3.82551
1344.000	-5.07353	-2.86505	-5.89040	-3.76050
1345.000	-5.09118	-2.82741	-5.90409	-3.83133
1346.000	-5.05391	-2.89281	-5.97059	-3.80527
1347.000	-5.06176	-2.86510	-5.92756	-3.85087
1348.000	-5.05195	-2.86316	-5.92952	-3.74841
1349.000	-5.07353	-2.84528	-5.90018	-3.78802
1350.000	-5.07353	-2.86702	-5.98037	-3.81111
1351.000	-5.08922	-2.87091	-5.87866	-3.79408
1352.000	-5.07745	-2.87689	-5.88453	-3.82950
1353.000	-5.08333	-2.87884	-5.91192	-3.84704
1354.000	-5.05783	-2.86709	-5.90018	-3.76437
1355.000	-5.07156	-2.87691	-5.90800	-3.78994
1356.000	-5.06764	-2.85321	-5.95886	-3.85459
1357.000	-5.10491	-2.85305	-5.92952	-3.83116
1358.000	-5.07549	-2.85911	-5.83366	-3.86531
1359.000	-5.06960	-2.85320	-5.94712	-3.81331
1360.000	-5.05195	-2.89479	-5.90605	-3.87466
1361.000	-5.07156	-2.86505	-5.90213	-3.86681
1362.000	-5.04214	-2.88495	-5.96668	-3.83090
1363.000	-5.10295	-2.90247	-5.91778	-3.81351
1364.000	-5.04018	-2.87903	-5.94908	-3.83890
1365.000	-5.06960	-2.86506	-5.91387	-3.81945
1366.000	-5.09510	-2.85704	-5.83171	-3.82592
1367.000	-5.04018	-2.86915	-5.83758	-3.86922
1368.000	-5.06764	-2.89670	-5.91192	-3.86083
1369.000	-5.07156	-2.91052	-5.95103	-3.78176
1370.000	-5.06568	-2.88485	-5.93930	-3.79169
1371.000	-5.05391	-2.87502	-5.90409	-3.80966
1372.000	-5.08726	-2.88475	-5.90213	-3.81165
1373.000	-5.13825	-2.93986	-5.91974	-3.85684
1374.000	-5.14021	-2.95171	-5.94712	-3.79755
1375.000	-5.08333	-2.88675	-5.91778	-3.84109
1376.000	-5.09706	-2.90447	-5.86105	-3.78040
1377.000	-5.05587	-2.91454	-5.90018	-3.85106
1378.000	-5.11668	-2.89450	-5.90409	-3.78011
1379.000	-5.11275	-2.94393	-5.94712	-3.81528
1380.000	-5.04410	-2.92250	-5.91387	-3.73670
1381.000	-5.11864	-2.92414	-5.89040	-3.90235
1382.000	-5.06764	-2.90658	-5.87866	-3.83742
1383.000	-5.10295	-2.94397	-5.97646	-3.85250
1384.000	-5.06764	-2.93821	-5.88257	-3.77829
1385.000	-5.14609	-2.95958	-5.82192	-3.82402
1386.000	-5.10295	-2.90247	-5.90213	-3.83332
1387.000	-5.07156	-2.92831	-5.89822	-3.75454
1388.000	-5.12256	-2.93993	-5.91387	-3.82339
1389.000	-5.09118	-2.84322	-5.93147	-3.83509
1390.000	-5.07941	-2.87095	-5.91778	-3.76031
1391.000	-5.07549	-2.87097	-5.94125	-3.78774
1392.000	-5.11472	-2.91823	-5.92170	-3.83121
1393.000	-5.10883	-2.90244	-5.95886	-3.84080
1394.000	-5.14217	-2.94182	-5.84932	-3.76866
1395.000	-5.08333	-2.90849	-5.90800	-3.87071
1396.000	-5.07353	-2.92632	-5.90800	-3.85101
1397.000	-5.08529	-2.88674	-5.96081	-3.82306
1398.000	-5.06176	-2.89079	-5.88844	-3.84326
1399.000	-5.07156	-2.88877	-5.91583	-3.83125
1400.000	-5.10295	-2.90049	-5.90605	-3.85890
1401.000	-5.11079	-2.88662	-5.92952	-3.77009
1402.000	-5.07353	-2.86702	-5.93539	-3.82521
1403.000	-5.14609	-2.90820	-5.90018	-3.75649
1404.000	-5.10491	-2.90246	-5.90018	-3.82348
1405.000	-5.14021	-2.88056	-5.91387	-3.77610
1406.000	-5.08529	-2.87290	-5.83758	-3.75691
1407.000	-5.05979	-2.91452	-5.95103	-3.84283
1408.000	-5.11472	-2.88265	-5.88257	-3.79208
1409.000	-5.12648	-2.95572	-5.91192	-3.82143
1410.000	-5.06960	-2.88088	-5.98232	-3.78745
1411.000	-5.12648	-2.91817	-5.92561	-3.75632
1412.000	-5.11472	-2.92416	-5.96472	-3.82304
1413.000	-5.12452	-2.92609	-5.89627	-3.79987
1414.000	-5.10687	-2.92222	-5.88649	-3.81964
1415.000	-5.13237	-2.94581	-5.92365	-3.78983
1416.000	-5.08529	-2.90453	-5.90018	-3.80772
1417.000	-5.16374	-2.93184	-5.90605	-3.83132
1418.000	-5.11275	-2.87871	-5.97841	-3.80521
1419.000	-5.09510	-2.93808	-5.88062	-3.80391
1420.000	-5.14021	-2.93787	-5.89627	-3.81957
1421.000	-5.06176	-2.93823	-5.98819	-3.84848
1422.000	-5.10295	-2.93607	-5.91974	-3.81350
1423.000	-5.09510	-2.93610	-5.89627	-3.79987
1424.000	-5.09902	-2.95190	-5.85714	-3.78043
1425.000	-5.09902	-2.90644	-5.94321	-3.78378
1426.000	-5.09706	-2.93017	-5.86497	-3.81781
1427.000	-5.05587	-2.90663	-5.91583	-3.79973
1428.000	-5.14413	-2.92205	-5.98232	-3.80912
1429.000	-5.06568	-2.94414	-5.93734	-3.74639
1430.000	-5.15002	-2.92004	-5.91974	-3.80956
1431.000	-5.13825	-2.92603	-5.90996	-3.80174
1432.000	-5.11472	-2.91625	-5.78866	-3.87153
1433.000	-5.06764	-2.89275	-5.80627	-3.75318
1434.000	-4.90871	-2.85786	-5.71429	-3.71436
1435.000	-4.71437	-2.83296	-5.48714	-3.77299
1436.000	-4.40987	-2.83020	-5.25198	-3.71723
1437.000	-4.28407	-2.78713	-4.94993	-3.63213
1438.000	-3.98513	-2.73274	-4.64956	-3.55274
1439.000	-3.59343	-2.63888	-4.43739	-3.56762
1440.000	-3.20730	-2.53884	-4.12480	-3.44848
1441.000	-2.91751	-2.47210	-3.59736	-3.30420
1442.000	-2.44999	-2.34607	-3.14620	-3.15920
1443.000	-2.00584	-2.29715	-2.82088	-3.10269
1444.000	-1.69972	-2.19430	-2.34144	-3.09593
1445.000	-1.17220	-2.01007	-1.93080	-3.01150
1446.000	-0.74529	-1.95668	-1.63651	-2.90091
1447.000	-0.46459	-1.82165	-1.14256	-2.85787
1448.000	-0.07908	-1.81972	-0.78087	-2.80062
1449.000	0.19375	-1.75015	-0.48435	-2.81269
1450.000	0.44679	-1.68054	-0.18386	-2.74133
1451.000	0.71168	-1.69239	0.13444	-2.70560
1452.000	0.92120	-1.69031	0.41319	-2.70951
1453.000	1.14848	-1.68025	0.60692	-2.77096
1454.000	1.33424	-1.65033	0.67017	-2.86816
1455.000	1.46859	-1.68998	0.94295	-2.85210
1456.000	1.67207	-1.74743	1.06351	-2.91151
1457.000	1.75305	-1.77715	1.19394	-3.03437
1458.000	1.84193	-1.79296	1.21567	-2.97881
1459.000	1.72145	-1.83281	1.19987	-3.08990
1460.000	1.62071	-1.86866	1.01805	-3.03058
1461.000	1.51206	-1.88266	0.83819	-3.11801
1462.000	1.37968	-1.84900	0.72157	-3.19148
1463.000	1.20777	-1.86899	0.50215	-3.13012
1464.000	1.06746	-1.85517	0.39737	-3.14802
1465.000	0.87574	-1.83541	0.26887	-3.16195
1466.000	0.72947	-1.89111	0.21549	-3.11039
1467.000	0.66029	-1.85736	0.04349	-3.16793
1468.000	0.58715	-1.90707	0.08303	-3.13024
1469.000	0.56936	-1.84746	-0.05338	-3.05288
1470.000	0.50610	-1.87331	0.00593	-3.12429
1471.000	0.56343	-1.93887	0.05338	-2.99932
1472.000	0.64448	-1.88320	0.17200	-3.03501
1473.000	0.68599	-1.91299	0.17793	-2.93383
1474.000	0.75912	-1.96859	0.28469	-2.92388
1475.000	0.84610	-1.96657	0.43098	-2.99130
1476.000	0.93702	-1.94864	0.44679	-2.92383
1477.000	1.06746	-1.93664	0.64843	-2.92572
1478.000	1.13663	-1.91275	0.65041	-2.90786
1479.000	1.21370	-1.88290	0.77889	-2.83039
1480.000	1.28088	-1.92457	0.76703	-2.87405
1481.000	1.33424	-1.92453	0.78877	-2.84626
1482.000	1.40537	-1.84302	0.85005	-2.87598
1483.000	1.44093	-1.89266	0.83819	-2.87599
1484.000	1.46069	-1.81118	0.84412	-2.87202
1485.000	1.50810	-1.83697	0.82633	-2.79861
1486.000	1.53379	-1.79126	0.89749	-2.87991
1487.000	1.51601	-1.73763	0.87772	-2.88786
1488.000	1.56737	-1.79321	0.88563	-2.84817
1489.000	1.57132	-1.77136	0.82633	-2.84623
1490.000	1.53181	-1.75947	0.85993	-2.86605
1491.000	1.52589	-1.79325	0.86981	-2.76087
1492.000	1.50020	-1.78930	0.81052	-2.85418
1493.000	1.53181	-1.78132	0.88563	-2.88191
1494.000	1.50020	-1.78532	0.73343	-2.89194
1495.000	1.55354	-1.77535	0.79866	-2.89388
1496.000	1.51601	-1.76346	0.79075	-2.92364
1497.000	1.46662	-1.79330	0.83226	-2.92956
1498.000	1.46266	-1.76350	0.78087	-2.89984
1499.000	1.48637	-1.77540	0.80459	-2.87800
1500.000	1.46266	-1.81516	0.82633	-2.94147
1501.000	1.44291	-1.82113	0.80656	-2.89585
1502.000	1.44093	-1.80921	0.70575	-2.88798
1503.000	1.41129	-1.78937	0.76901	-2.84826
1504.000	1.36387	-1.86292	0.70378	-2.87410
1505.000	1.40339	-1.79732	0.73145	-2.90781
1506.000	1.34609	-1.78743	0.73145	-2.94948
1507.000	1.34609	-1.81922	0.67808	-2.88800
1508.000	1.33424	-1.83910	0.68994	-2.84235
1509.000	1.38956	-1.83906	0.69587	-2.83044
1510.000	1.34807	-1.86690	0.74726	-2.91574
1511.000	1.36585	-1.79934	0.69785	-2.88799
1512.000	1.33028	-1.78148	0.63262	-2.88009
1513.000	1.32436	-1.80930	0.72552	-2.88003
1514.000	1.31250	-1.82521	0.72157	-2.88401
1515.000	1.33621	-1.80731	0.72157	-2.87607
1516.000	1.30855	-1.80137	0.67017	-2.87015
1517.000	1.32633	-1.81725	0.65238	-2.90191
1518.000	1.33621	-1.82320	0.66622	-2.92968
1519.000	1.33226	-1.81526	0.67215	-2.89396
1520.000	1.32040	-1.85699	0.70971	-2.84830
1521.000	1.33819	-1.79340	0.67808	-2.84633
1522.000	1.36980	-1.83907	0.69587	-2.88204
1523.000	1.33621	-1.84108	0.66227	-2.93365
1524.000	1.35399	-1.82518	0.66227	-2.84435
1525.000	1.33424	-1.83910	0.69587	-2.94156
1526.000	1.35597	-1.86094	0.78284	-2.90381
1527.000	1.36190	-1.80133	0.64250	-2.88207
1528.000	1.37573	-1.86291	0.71761	-2.86020
1529.000	1.34609	-1.83114	0.76110	-2.91573
1530.000	1.35202	-1.83710	0.73738	-2.86415
1531.000	1.34214	-1.85499	0.67610	-2.84633
1532.000	1.34016	-1.88678	0.73936	-2.92368
1533.000	1.36190	-1.85299	0.64052	-2.89794
1534.000	1.30657	-1.85501	0.67808	-2.95149
1535.000	1.32436	-1.85897	0.76308	-2.89787
1536.000	1.34214	-1.82121	0.71564	-2.94750
1537.000	1.35399	-1.85696	0.73738	-2.82447
1538.000	1.36585	-1.83113	0.72750	-2.86813
1539.000	1.36980	-1.85298	0.74133	-2.94550
1540.000	1.42710	-1.83505	0.74726	-2.91970
1541.000	1.36387	-1.82715	0.75517	-2.90184
1542.000	1.39746	-1.83706	0.64448	-2.89199
1543.000	1.37771	-1.84105	0.78284	-2.87404
1544.000	1.39351	-1.86885	0.78482	-2.91968
1545.000	1.41129	-1.85891	0.70773	-2.92965
1546.000	1.42513	-1.83108	0.69982	-2.88600
1547.000	1.40537	-1.82514	0.62471	-2.91383
1548.000	1.37375	-1.81721	0.65831	-2.86619
1549.000	1.41129	-1.83308	0.69982	-2.88799
1550.000	1.41722	-1.84897	0.75715	-2.92962
1551.000	1.37968	-1.83906	0.68796	-2.89196
1552.000	1.43303	-1.82313	0.72552	-2.89789
1553.000	1.43105	-1.80326	0.74133	-2.88995
1554.000	1.46266	-1.79926	0.75122	-2.81652
1555.000	1.40142	-1.83110	0.68006	-2.93364
1556.000	1.43303	-1.81717	0.72947	-2.89987
1557.000	1.42513	-1.84499	0.59703	-2.92575
1558.000	1.47649	-1.81912	0.71564	-2.92568
1559.000	1.40339	-1.83706	0.73738	-2.90979
1560.000	1.43698	-1.81120	0.72354	-2.94353
1561.000	1.42908	-1.84697	0.68599	-2.85625
1562.000	1.42908	-1.78935	0.68401	-2.91776
1563.000	1.41525	-1.79731	0.74331	-2.94550
1564.000	1.39944	-1.78739	0.67610	-2.89395
1565.000	1.37573	-1.77350	0.64448	-2.91382
1566.000	1.39549	-1.78342	0.73738	-2.90979
1567.000	1.37573	-1.81125	0.73343	-2.91773
1568.000	1.39944	-1.82514	0.66227	-2.89992
1569.000	1.40932	-1.78937	0.65436	-2.99714
1570.000	1.43105	-1.80127	0.73540	-2.80859
1571.000	1.41722	-1.81321	0.70575	-2.85227
1572.000	1.44488	-1.81914	0.69192	-2.86021
1573.000	1.41525	-1.82910	0.73936	-2.86812
1574.000	1.37771	-1.81324	0.77889	-2.91175
1575.000	1.37968	-1.79337	0.70575	-2.86219
1576.000	1.42117	-1.78936	0.68599	-2.82648
1577.000	1.39351	-1.83508	0.77296	-2.91175
1578.000	1.41327	-1.84102	0.79075	-2.94944
1579.000	1.44883	-1.79729	0.78680	-2.90777
1580.000	1.40339	-1.84898	0.75912	-2.95739
1581.000	1.43698	-1.84101	0.71564	-2.87409
1582.000	1.36980	-1.80529	0.74726	-2.94153
1583.000	1.44883	-1.81715	0.71564	-2.85226
1584.000	1.41525	-1.84301	0.73738	-2.89193
1585.000	1.40734	-1.80725	0.69587	-2.85823
1586.000	1.40932	-1.81917	0.70773	-2.89394
1587.000	1.39746	-1.87084	0.72947	-2.84828
1588.000	1.38363	-1.82515	0.75715	-2.93557
1589.000	1.41327	-1.83705	0.82633	-2.83036
1590.000	1.43303	-1.81717	0.70575	-2.87806
1591.000	1.37178	-1.84900	0.66622	-2.83642
1592.000	1.41327	-1.82910	0.72552	-2.83836
1593.000	1.36980	-1.83510	0.76703	-2.91572
1594.000	1.36980	-1.78940	0.66820	-2.82054
1595.000	1.39746	-1.84700	0.71366	-2.85821
1596.000	1.33819	-1.83115	0.74529	-2.87208
1597.000	1.38561	-1.84303	0.77098	-2.91374
1598.000	1.37771	-1.81920	0.77889	-2.87603
1599.000	1.35597	-1.85895	0.79866	-2.91173
1600.000	1.35597	-1.80531	0.77691	-2.87008
1601.000	1.35992	-1.83113	0.75319	-2.93359
1602.000	1.36585	-1.83907	0.76703	-2.89985
1603.000	1.36980	-1.84304	0.68401	-2.89792
1604.000	1.35795	-1.85895	0.79075	-2.81252
1605.000	1.34214	-1.85896	0.84214	-2.89384
1606.000	1.35597	-1.82716	0.77889	-2.82841
1607.000	1.34412	-1.89472	0.81447	-2.89585
1608.000	1.38363	-1.84303	0.70575	-2.87211
1609.000	1.36783	-1.87086	0.80854	-2.82045
1610.000	1.37573	-1.86092	0.77494	-2.88397
1611.000	1.35795	-1.85299	0.79866	-2.81847
1612.000	1.35004	-1.85697	0.72947	-2.83439
1613.000	1.31448	-1.89077	0.74529	-2.89986
1614.000	1.29076	-1.89079	0.77296	-2.88794
1615.000	1.33226	-1.92652	0.77098	-2.78674
1616.000	1.32633	-1.92056	0.81249	-2.76091
1617.000	1.36387	-1.87881	0.84214	-2.83432
1618.000	1.47452	-1.86482	0.99236	-2.79848
1619.000	1.52589	-1.86477	0.94295	-2.77471
1620.000	1.63256	-1.79713	1.07932	-2.73688
1621.000	1.79651	-1.81684	1.18208	-2.69313
1622.000	1.91105	-1.79686	1.28879	-2.74660
1623.000	2.08482	-1.81455	1.38363	-2.72268
1624.000	2.31184	-1.69114	1.46662	-2.65313
1625.000	2.39671	-1.68905	1.70762	-2.55161
1626.000	2.49932	-1.64722	1.78268	-2.48602
1627.000	2.59600	-1.61731	1.94660	-2.44014
1628.000	2.66505	-1.53382	1.98214	-2.34681
1629.000	2.66308	-1.51793	2.00979	-2.38051
1630.000	2.70845	-1.46624	2.02953	-2.34674
1631.000	2.62560	-1.41669	1.99597	-2.35870
1632.000	2.59600	-1.45446	2.02558	-2.40033
1633.000	2.45591	-1.43078	1.83601	-2.42442
1634.000	2.34144	-1.42494	1.86366	-2.38468
1635.000	2.21314	-1.47672	1.75305	-2.45827
1636.000	2.11246	-1.49470	1.59503	-2.45053
1637.000	2.01176	-1.52460	1.57527	-2.53194
1638.000	1.89525	-1.53861	1.49428	-2.46653
1639.000	1.89723	-1.61014	1.48835	-2.52410
1640.000	1.82218	-1.60822	1.46266	-2.62734
1641.000	1.84588	-1.63601	1.34807	-2.58777
1642.000	1.82021	-1.64796	1.45674	-2.58963
1643.000	1.86563	-1.64791	1.42513	-2.65516
1644.000	1.87156	-1.68367	1.43698	-2.58172
1645.000	1.91500	-1.64787	1.46069	-2.56780
1646.000	2.00189	-1.69149	1.50218	-2.68285
1647.000	1.97622	-1.72131	1.52193	-2.55185
1648.000	2.00979	-1.68353	1.57923	-2.55972
1649.000	2.04335	-1.66165	1.50218	-2.59553
1650.000	2.05718	-1.67156	1.55749	-2.57165
1651.000	2.09666	-1.68940	1.59700	-2.52198
1652.000	2.07100	-1.69737	1.60096	-2.57557
1653.000	2.10061	-1.65563	1.59700	-2.55176
1654.000	2.12430	-1.68540	1.72145	-2.53373
1655.000	2.16971	-1.64761	1.64244	-2.48223
1656.000	2.14800	-1.64366	1.49032	-2.53204
1657.000	2.11838	-1.62780	1.56737	-2.52599
1658.000	2.10456	-1.63178	1.62664	-2.47034
1659.000	2.17563	-1.61979	1.65824	-2.47626
1660.000	2.12036	-1.58608	1.69972	-2.49010
1661.000	2.15589	-1.58406	1.67404	-2.59929
1662.000	2.14405	-1.61982	1.66614	-2.52388
1663.000	2.15984	-1.56419	1.68392	-2.53180
1664.000	2.20130	-1.57805	1.67800	-2.53776
1665.000	2.13220	-1.56819	1.66614	-2.53579
1666.000	2.14010	-1.54434	1.65232	-2.57947
1667.000	2.21906	-1.60783	1.65429	-2.60328
1668.000	2.17958	-1.59198	1.69182	-2.46034
1669.000	2.14800	-1.60591	1.72343	-2.50992
1670.000	2.14405	-1.58009	1.68590	-2.48019
1671.000	2.16181	-1.60789	1.67800	-2.44447
1672.000	2.21512	-1.60584	1.70367	-2.57147
1673.000	2.17169	-1.59794	1.68787	-2.58935
1674.000	2.16576	-1.63967	1.72738	-2.55754
1675.000	2.19735	-1.61778	1.65627	-2.52191
1676.000	2.14800	-1.61386	1.69182	-2.52385
1677.000	2.17169	-1.58603	1.72343	-2.49801
1678.000	2.15589	-1.59995	1.61083	-2.50410
1679.000	2.12825	-1.61388	1.64837	-2.60329
1680.000	2.09271	-1.61789	1.68392	-2.48019
1681.000	2.16181	-1.59795	1.65627	-2.56954
1682.000	2.12036	-1.61389	1.66417	-2.57350
1683.000	2.14207	-1.59003	1.57725	-2.46445
1684.000	2.13418	-1.62579	1.58713	-2.55177
1685.000	2.12825	-1.62183	1.70762	-2.61710
1686.000	2.14010	-1.63572	1.72935	-2.56548
1687.000	2.14405	-1.61386	1.72343	-2.53175
1688.000	2.13615	-1.64566	1.70960	-2.49802
1689.000	2.06310	-1.61991	1.65627	-2.50206
1690.000	2.10259	-1.60994	1.59305	-2.51802
1691.000	2.11838	-1.62978	1.64639	-2.49811
1692.000	2.17761	-1.62575	1.61873	-2.50806
1693.000	2.16971	-1.61582	1.69577	-2.54369
1694.000	2.15787	-1.59200	1.68392	-2.56157
1695.000	2.15589	-1.59796	1.67009	-2.54968
1696.000	2.16379	-1.61186	1.61478	-2.47433
1697.000	2.13812	-1.62579	1.58120	-2.53590
1698.000	2.17169	-1.60589	1.64639	-2.53780
1699.000	2.16576	-1.61186	1.68787	-2.54966
1700.000	2.16774	-1.60589	1.65627	-2.47427
1701.000	2.18353	-1.60985	1.65232	-2.51596
1702.000	2.09666	-1.66954	1.62861	-2.54179
1703.000	2.13812	-1.61983	1.59305	-2.52199
1704.000	2.12825	-1.60196	1.69775	-2.45636
1705.000	2.15194	-1.63769	1.61083	-2.48227
1706.000	2.17958	-1.60787	1.74318	-2.47019
1707.000	2.18156	-1.61978	1.62466	-2.47233
1708.000	2.19538	-1.58203	1.66614	-2.55167
1709.000	2.16971	-1.62178	1.66219	-2.52190
1710.000	2.14800	-1.62578	1.70170	-2.53971
1711.000	2.17366	-1.62972	1.71355	-2.54168
1712.000	2.17761	-1.59198	1.72935	-2.49800
1713.000	2.16576	-1.59398	1.75305	-2.58132
1714.000	2.15589	-1.63769	1.66219	-2.47625
1715.000	2.18550	-1.61183	1.65034	-2.52787
1716.000	2.16774	-1.64562	1.64639	-2.51398
1717.000	2.17366	-1.59596	1.67009	-2.45639
1718.000	2.15194	-1.59399	1.64441	-2.54574
1719.000	2.15392	-1.57214	1.63256	-2.49812
1720.000	2.13812	-1.59997	1.64441	-2.52788
1721.000	2.13220	-1.59997	1.69577	-2.52384
1722.000	2.15194	-1.61783	1.58318	-2.48230
1723.000	2.15392	-1.58803	1.65627	-2.50405
1724.000	2.16181	-1.63967	1.67602	-2.44646
1725.000	2.11838	-1.62382	1.68590	-2.47225
1726.000	2.15194	-1.61783	1.67009	-2.50998
1727.000	2.18945	-1.61580	1.62269	-2.46439
1728.000	2.14010	-1.64764	1.64441	-2.46635
1729.000	2.13812	-1.62182	1.74713	-2.50790
1730.000	2.15392	-1.58406	1.69380	-2.46232
1731.000	2.13023	-1.60395	1.57923	-2.45650
1732.000	2.14405	-1.62181	1.68985	-2.49805
1733.000	2.11838	-1.62581	1.64639	-2.42863
1734.000	2.12825	-1.63772	1.68590	-2.45637
1735.000	2.17169	-1.57609	1.73923	-2.39279
1736.000	2.12825	-1.57812	1.60096	-2.49816
1737.000	2.15194	-1.62776	1.60886	-2.43066
1738.000	2.13615	-1.58209	1.64639	-2.48818
1739.000	2.10456	-1.62781	1.72738	-2.48609
1740.000	2.16971	-1.63569	1.63651	-2.51598
1741.000	2.13812	-1.59401	1.69182	-2.49011
1742.000	2.12628	-1.57415	1.65824	-2.51397
1743.000	2.09271	-1.65166	1.61676	-2.48028
1744.000	2.12825	-1.64964	1.66417	-2.51396
1745.000	2.12825	-1.62381	1.66219	-2.59732
1746.000	2.09666	-1.60994	1.73528	-2.45036
1747.000	2.13418	-1.60593	1.68787	-2.52981
1748.000	2.10456	-1.60199	1.70367	-2.47421
1749.000	2.11443	-1.62581	1.66812	-2.44052
1750.000	2.11838	-1.61786	1.69380	-2.47026
1751.000	2.06705	-1.66162	1.74120	-2.47020
1752.000	2.10061	-1.61590	1.67009	-2.53380
1753.000	2.10456	-1.60596	1.63454	-2.48026
1754.000	2.11246	-1.63178	1.80243	-2.56339
1755.000	2.09864	-1.66953	1.69577	-2.48812
1756.000	2.11641	-1.61985	1.71750	-2.54962
1757.000	2.15392	-1.66550	1.68787	-2.49011
1758.000	2.14800	-1.59996	1.71355	-2.45832
1759.000	2.12825	-1.64368	1.72935	-2.53174
1760.000	2.13220	-1.61785	1.66614	-2.52984
1761.000	2.12628	-1.65361	1.71948	-2.45236
1762.000	2.16576	-1.64562	1.67009	-2.45838
1763.000	2.09666	-1.64570	1.71948	-2.51587
1764.000	2.11838	-1.61389	1.67997	-2.49608
1765.000	2.11838	-1.64170	1.71948	-2.45236
1766.000	2.11838	-1.60396	1.71158	-2.53375
1767.000	2.11048	-1.62781	1.67997	-2.49806
1768.000	2.12825	-1.67943	1.66219	-2.47427
1769.000	2.12430	-1.61587	1.71355	-2.49207
1770.000	2.08877	-1.64372	1.64441	-2.50009
1771.000	2.09666	-1.58610	1.73923	-2.54959
1772.000	2.11246	-1.60992	1.70170	-2.49010
1773.000	2.06112	-1.59210	1.73725	-2.51784
1774.000	2.04928	-1.64177	1.68392	-2.55561
1775.000	2.09469	-1.69139	1.70367	-2.47223
1776.000	2.05323	-1.68547	1.68985	-2.51790
1777.000	2.08877	-1.66756	1.78268	-2.52968
1778.000	2.05915	-1.66759	1.70170	-2.49010
1779.000	2.07692	-1.62387	1.74120	-2.55951
1780.000	2.07495	-1.63976	1.80243	-2.49790
1781.000	2.07100	-1.67155	1.71750	-2.53969
1782.000	2.06112	-1.66163	1.68590	-2.47821
1783.000	2.10654	-1.65761	1.73923	-2.38882
1784.000	2.07297	-1.60599	1.77281	-2.46817
1785.000	2.03546	-1.66761	1.75898	-2.43445
1786.000	2.06112	-1.62587	1.67800	-2.43852
1787.000	2.05915	-1.62786	1.68392	-2.47622
1788.000	2.07297	-1.61990	1.73133	-2.48609
1789.000	2.07297	-1.62586	1.63651	-2.43261
1790.000	2.05915	-1.58217	1.73133	-2.47616
1791.000	2.05520	-1.62190	1.68985	-2.48813
1792.000	2.02756	-1.64776	1.67207	-2.52784
1793.000	2.04533	-1.70137	1.72343	-2.53175
1794.000	2.03348	-1.64378	1.69775	-2.56552
1795.000	2.00781	-1.63188	1.71750	-2.51389
1796.000	2.02361	-1.61399	1.71158	-2.55558
1797.000	2.07297	-1.63778	1.76095	-2.50590
1798.000	2.02361	-1.65968	1.68392	-2.48019
1799.000	2.06507	-1.64573	1.70762	-2.53971
1800.000	2.01966	-1.63187	1.68590	-2.56752
1801.000	2.00189	-1.65573	1.71553	-2.57542
1802.000	2.02756	-1.61994	1.70565	-2.46032
1803.000	2.05718	-1.65964	1.79453	-2.51776
1804.000	2.04138	-1.61993	1.71948	-2.50595
1805.000	2.03546	-1.65371	1.76886	-2.51382
1806.000	2.07889	-1.62784	1.75700	-2.60513
1807.000	2.06112	-1.61594	1.68392	-2.54768
1808.000	2.03941	-1.64973	1.70960	-2.60718
1809.000	2.03941	-1.64377	1.77676	-2.54954
1810.000	1.99597	-1.66368	1.64046	-2.47429
1811.000	2.04730	-1.64376	1.72343	-2.47816
1812.000	2.04730	-1.70336	1.73528	-2.49799
1813.000	2.03941	-1.67556	1.66812	-2.48021
1814.000	2.04533	-1.65568	1.74910	-2.51187
1815.000	2.02756	-1.69941	1.70762	-2.51986
1816.000	2.03743	-1.65569	1.72540	-2.52381
1817.000	1.99202	-1.69150	1.70762	-2.52184
1818.000	2.06902	-1.63778	1.78268	-2.47411
1819.000	2.01571	-1.63982	1.73528	-2.55753
1820.000	2.00979	-1.68353	1.71948	-2.51786
1821.000	2.04138	-1.64178	1.76293	-2.57535
1822.000	2.02361	-1.65769	1.71553	-2.48214
1823.000	2.04730	-1.63979	1.68787	-2.51393
1824.000	2.03546	-1.68946	1.71355	-2.52184
1825.000	2.00584	-1.65771	1.74120	-2.54760
1826.000	2.01176	-1.67757	1.72145	-2.49007
1827.000	2.01374	-1.72127	1.69972	-2.52582
1828.000	2.00781	-1.70141	1.73923	-2.47020
1829.000	2.02163	-1.67557	1.67207	-2.53181
1830.000	2.00979	-1.68949	1.74515	-2.56546
1831.000	2.03348	-1.68748	1.74910	-2.53568
1832.000	2.02953	-1.67954	1.68787	-2.48416
1833.000	2.03151	-1.63385	1.62664	-2.46836
1834.000	2.00979	-1.70340	1.76491	-2.49994
1835.000	1.99794	-1.66567	1.71948	-2.52183
1836.000	1.97424	-1.69747	1.65627	-2.58740
1837.000	2.06310	-1.63381	1.67800	-2.51196
1838.000	2.04928	-1.66164	1.77676	-2.48007
1839.000	2.02361	-1.67954	1.69577	-2.47621
1840.000	2.02953	-1.64577	1.64441	-2.55567
1841.000	2.02756	-1.67755	1.71158	-2.49207
1842.000	2.03151	-1.67556	1.61083	-2.45845
1843.000	2.05125	-1.68945	1.71750	-2.50992
1844.000	2.05323	-1.64972	1.67009	-2.41868
1845.000	2.03743	-1.68549	1.67602	-2.51395
1846.000	2.04928	-1.66164	1.69775	-2.47025
1847.000	2.07495	-1.67949	1.67009	-2.51991
1848.000	2.06705	-1.65765	1.70960	-2.55955
1849.000	2.04138	-1.64973	1.72145	-2.48213
1850.000	2.10851	-1.68740	1.76886	-2.47611
1851.000	2.06507	-1.69937	1.71750	-2.50595
1852.000	2.10259	-1.68741	1.69182	-2.47225
1853.000	2.06310	-1.67553	1.70367	-2.51986
1854.000	2.09074	-1.61988	1.71750	-2.47420
1855.000	2.11048	-1.67548	1.67404	-2.43257
1856.000	2.12430	-1.68540	1.70565	-2.50994
1857.000	2.07495	-1.68148	1.69577	-2.57346
1858.000	2.10061	-1.65563	1.68590	-2.49210
1859.000	2.10851	-1.66158	1.66219	-2.47427
1860.000	2.08284	-1.64969	1.61873	-2.49616
1861.000	2.09074	-1.62584	1.62071	-2.44057
1862.000	2.09666	-1.64371	1.73725	-2.49799
1863.000	2.14800	-1.65955	1.63454	-2.51201
1864.000	2.08877	-1.62385	1.72343	-2.48213
1865.000	2.08284	-1.68147	1.63059	-2.38498
1866.000	2.09469	-1.66954	1.59898	-2.44258
1867.000	2.11641	-1.65561	1.65824	-2.41075
1868.000	2.14800	-1.66153	1.63651	-2.37306
1869.000	2.10654	-1.62384	1.65627	-2.53977
1870.000	2.10456	-1.60993	1.65429	-2.46038
1871.000	2.12036	-1.65561	1.64046	-2.43062
1872.000	2.08284	-1.65962	1.65627	-2.48618
1873.000	2.13023	-1.66950	1.67404	-2.48616
1874.000	2.13220	-1.62580	1.70170	-2.52384
1875.000	2.08482	-1.68743	1.66022	-2.48816
1876.000	2.12233	-1.66355	1.72145	-2.51984
1877.000	2.10061	-1.66953	1.68590	-2.41072
1878.000	2.09864	-1.63974	1.68787	-2.50996
1879.000	2.09271	-1.63974	1.67800	-2.53379
1880.000	2.11641	-1.63773	1.62071	-2.47630
1881.000	2.06705	-1.67553	1.68985	-2.45240
1882.000	2.07889	-1.66757	1.69380	-2.41468
1883.000	2.11048	-1.68740	1.64837	-2.47825
1884.000	2.09864	-1.61590	1.70960	-2.49009
1885.000	2.08877	-1.62783	1.68590	-2.48416
1886.000	2.11443	-1.65561	1.72935	-2.43448
1887.000	2.07495	-1.62784	1.63849	-2.45246
1888.000	2.07495	-1.64771	1.71948	-2.47419
1889.000	2.09864	-1.63974	1.60293	-2.43067
1890.000	2.11048	-1.60595	1.72935	-2.47021
1891.000	2.03743	-1.67158	1.65034	-2.50604
1892.000	2.07297	-1.67155	1.62269	-2.48821
1893.000	2.04928	-1.66561	1.67009	-2.46830
1894.000	2.09271	-1.65762	1.77873	-2.44831
1895.000	2.07100	-1.67354	1.69182	-2.48018
1896.000	2.04335	-1.70535	1.62269	-2.41874
1897.000	2.07297	-1.64175	1.59305	-2.50810
1898.000	2.08087	-1.65565	1.66812	-2.46037
1899.000	2.05718	-1.70533	1.63059	-2.51003
1900.000	2.05718	-1.68150	1.66022	-2.46038
1901.000	2.07889	-1.69935	1.72343	-2.42854
1902.000	2.06310	-1.63779	1.67009	-2.48617
1903.000	2.09074	-1.70132	1.65824	-2.44251
1904.000	2.04928	-1.66959	1.65824	-2.44847
1905.000	2.09271	-1.65563	1.61676	-2.54181
1906.000	2.05915	-1.73711	1.67404	-2.39882
1907.000	2.08679	-1.70729	1.64244	-2.50803
1908.000	2.08482	-1.66359	1.64046	-2.51399
1909.000	2.04335	-1.67754	1.63256	-2.49018
1910.000	2.07100	-1.65764	1.62664	-2.46042
1911.000	2.01571	-1.70736	1.75898	-2.45429
1912.000	2.04730	-1.64575	1.67009	-2.49212
1913.000	2.01176	-1.66764	1.62861	-2.39689
1914.000	2.01769	-1.68948	1.68787	-2.45637
1915.000	2.05125	-1.64376	1.68590	-2.50599
1916.000	2.09271	-1.71721	1.67602	-2.40081
1917.000	2.01176	-1.67956	1.65627	-2.45641
1918.000	2.01769	-1.71133	1.67404	-2.44646
1919.000	2.04138	-1.68151	1.60688	-2.42074
1920.000	2.08087	-1.67353	1.66219	-2.44846
1921.000	2.02558	-1.66365	1.70170	-2.52185
1922.000	2.03348	-1.65570	1.63454	-2.45842
1923.000	2.10654	-1.66357	1.69380	-2.50201
1924.000	2.01769	-1.62393	1.69577	-2.47422
1925.000	2.05718	-1.65964	1.62664	-2.54378
1926.000	2.04928	-1.66164	1.61676	-2.44653
1927.000	2.05718	-1.65766	1.64441	-2.49215
1928.000	2.03348	-1.69145	1.65232	-2.57947
1929.000	2.07100	-1.66956	1.63849	-2.51399
1930.000	2.06310	-1.64375	1.66219	-2.50007
1931.000	2.01966	-1.65968	1.67207	-2.49410
1932.000	2.03348	-1.65967	1.65034	-2.52589
1933.000	2.02361	-1.67358	1.72343	-2.54961
1934.000	2.02163	-1.67955	1.58713	-2.50413
1935.000	2.06705	-1.65765	1.65232	-2.50604
1936.000	2.07495	-1.65168	1.67602	-2.53578
1937.000	2.04730	-1.68747	1.61281	-2.47830
1938.000	2.05323	-1.65965	1.66812	-2.48815
1939.000	2.03546	-1.66761	1.70960	-2.51192
1940.000	2.03348	-1.69543	1.69775	-2.55758
1941.000	2.02558	-1.65173	1.61873	-2.53784
1942.000	2.04138	-1.66363	1.66022	-2.50801
1943.000	2.03151	-1.66762	1.64837	-2.48024
1944.000	2.05718	-1.66163	1.63059	-2.53782
1945.000	2.02163	-1.63187	1.69182	-2.51194
1946.000	2.04928	-1.65171	1.67009	-2.51594
1947.000	2.03151	-1.66762	1.68985	-2.46232
1948.000	2.06902	-1.62983	1.64244	-2.50208
1949.000	2.03151	-1.69146	1.69972	-2.51590
1950.000	2.03743	-1.65768	1.65627	-2.51397
1951.000	1.99991	-1.68156	1.63849	-2.52987
1952.000	2.01571	-1.66763	1.55947	-2.55379
1953.000	2.01176	-1.68552	1.63454	-2.53782
1954.000	2.04335	-1.69939	1.65824	-2.50206
1955.000	2.03941	-1.68549	1.67602	-2.50204
1956.000	2.02756	-1.67358	1.67800	-2.52982
1957.000	2.03151	-1.66563	1.72540	-2.52381
1958.000	2.05125	-1.67157	1.62664	-2.57752
1959.000	2.06112	-1.69341	1.57527	-2.49224
1960.000	2.05915	-1.66560	1.71948	-2.45435
1961.000	2.04730	-1.67555	1.63651	-2.47827
1962.000	2.04533	-1.68151	1.66022	-2.49412
1963.000	2.06310	-1.66758	1.59898	-2.46045
1964.000	2.05125	-1.68150	1.66812	-2.50205
1965.000	2.06310	-1.65964	1.67602	-2.49807
1966.000	2.02953	-1.72324	1.64046	-2.51399
1967.000	2.05323	-1.63978	1.69972	-2.49407
1968.000	2.00979	-1.67559	1.61676	-2.48822
1969.000	2.02953	-1.67358	1.61676	-2.50410
1970.000	2.01966	-1.66167	1.64244	-2.58742
1971.000	2.02953	-1.68152	1.66812	-2.49212
1972.000	2.03941	-1.68151	1.58318	-2.51406
1973.000	2.03941	-1.65569	1.61478	-2.52395
1974.000	2.04533	-1.65966	1.66812	-2.57747
1975.000	2.04928	-1.67356	1.57527	-2.54980
1976.000	2.01966	-1.65770	1.64639	-2.53383
1977.000	2.00584	-1.65970	1.64639	-2.52192
1978.000	2.04928	-1.68150	1.68195	-2.58142
1979.000	2.01374	-1.65373	1.74120	-2.59523
1980.000	2.05718	-1.65567	1.60688	-2.44655
1981.000	2.04928	-1.68349	1.68392	-2.54371
1982.000	2.00386	-1.64579	1.61676	-2.53982
1983.000	2.05520	-1.69143	1.58515	-2.56368
1984.000	2.02558	-1.71530	1.57923	-2.55178
1985.000	2.03348	-1.63980	1.62861	-2.58744
1986.000	2.04928	-1.61198	1.61676	-2.51998
1987.000	2.00979	-1.64579	1.64837	-2.52391
1988.000	2.04533	-1.65171	1.66614	-2.58144
1989.000	2.02361	-1.62988	1.65034	-2.58146
1990.000	2.05520	-1.65369	1.60886	-2.50014
1991.000	2.04730	-1.67952	1.63256	-2.52789
1992.000	2.05915	-1.65766	1.66417	-2.54572
1993.000	2.05125	-1.69541	1.67009	-2.55762
1994.000	2.00979	-1.67956	1.63651	-2.51995
1995.000	2.06507	-1.67354	1.64244	-2.50010
1996.000	2.04533	-1.69343	1.64441	-2.52788
1997.000	2.05520	-1.66759	1.60688	-2.53587
1998.000	2.06310	-1.64971	1.59898	-2.61328
1999.000	2.02163	-1.68551	1.60491	-2.50808
2000.000	2.04533	-1.70535	1.58515	-2.54780
2001.000	2.06507	-1.68149	1.60096	-2.46640
2002.000	1.99004	-1.70540	1.63059	-2.54774
2003.000	2.03151	-1.69543	1.67602	-2.49608
2004.000	2.04928	-1.68746	1.60886	-2.52991
2005.000	2.02163	-1.64776	1.59503	-2.49221
2006.000	2.01374	-1.67161	1.61083	-2.51800
2007.000	2.04928	-1.63383	1.60688	-2.45052
2008.000	2.08087	-1.62784	1.69182	-2.51393
2009.000	2.08284	-1.64571	1.65034	-2.50604
2010.000	2.02953	-1.67358	1.60491	-2.42074
2011.000	2.03743	-1.69344	1.67997	-2.48020
2012.000	2.05125	-1.69541	1.60688	-2.50808
2013.000	2.08284	-1.67352	1.64441	-2.43261
2014.000	2.08087	-1.67750	1.62861	-2.46637
2015.000	2.03941	-1.69741	1.58318	-2.45253
2016.000	2.04730	-1.66959	1.63256	-2.46041
2017.000	1.99399	-1.62594	1.47057	-2.48839
2018.000	1.92883	-1.57434	1.34412	-2.49249
2019.000	1.72540	-1.59439	1.22555	-2.55415
2020.000	1.47254	-1.52702	0.97062	-2.67744
2021.000	1.17615	-1.59876	0.78482	-2.54854
2022.000	0.84610	-1.55718	0.47249	-2.57450
2023.000	0.48435	-1.49566	0.12455	-2.62620
2024.000	0.08501	-1.51162	-0.20758	-2.63611
2025.000	-0.25899	-1.44600	-0.51994	-2.60625
2026.000	-0.66820	-1.42206	-0.95480	-2.57224
2027.000	-1.03188	-1.38614	-1.28088	-2.56005
2028.000	-1.39746	-1.35415	-1.69182	-2.46629
2029.000	-1.66812	-1.40764	-2.00584	-2.44799
2030.000	-1.88538	-1.36773	-2.17958	-2.44971
2031.000	-2.09469	-1.40134	-2.36315	-2.36606
2032.000	-2.31184	-1.36736	-2.53287	-2.31615
2033.000	-2.41052	-1.38117	-2.64335	-2.27032
2034.000	-2.44210	-1.40895	-2.68281	-2.18691
2035.000	-2.40657	-1.36329	-2.77354	-2.25222
2036.000	-2.33750	-1.34747	-2.68083	-2.22263
2037.000	-2.19932	-1.38932	-2.57035	-2.19107
2038.000	-1.98609	-1.38156	-2.38486	-2.21520
2039.000	-1.78663	-1.36383	-2.30197	-2.17761
2040.000	-1.65232	-1.34207	-2.09666	-2.11637
2041.000	-1.53181	-1.31630	-2.06902	-2.07868
2042.000	-1.39351	-1.28061	-1.88538	-2.15635
2043.000	-1.26705	-1.26079	-1.85378	-2.17426
2044.000	-1.20382	-1.31052	-1.80638	-2.09886
2045.000	-1.14651	-1.30657	-1.69972	-2.20026
2046.000	-1.11489	-1.35231	-1.66417	-2.24001
2047.000	-1.06943	-1.33444	-1.58120	-2.26790
2048.000	-1.06746	-1.37221	-1.59700	-2.25398
2049.000	-1.03188	-1.35235	-1.62071	-2.33139
2050.000	-1.04967	-1.37421	-1.55552	-2.36124
2051.000	-1.08327	-1.35034	-1.53774	-2.39501
2052.000	-1.16825	-1.39204	-1.63256	-2.40284
2053.000	-1.20184	-1.39004	-1.58910	-2.34929
2054.000	-1.24136	-1.40194	-1.65824	-2.39090
2055.000	-1.28879	-1.40788	-1.67207	-2.37103
2056.000	-1.34609	-1.39394	-1.75898	-2.41658
2057.000	-1.35202	-1.39791	-1.86761	-2.49384
2058.000	-1.42513	-1.41575	-1.91500	-2.36675
2059.000	-1.45279	-1.38393	-1.94857	-2.42228
2060.000	-1.51206	-1.37396	-1.98214	-2.35872
2061.000	-1.51798	-1.37793	-2.05915	-2.39830
2062.000	-1.56342	-1.39778	-2.09666	-2.35259
2063.000	-1.55552	-1.31828	-2.17169	-2.35446
2064.000	-1.62071	-1.33215	-2.19735	-2.37228
2065.000	-1.60688	-1.31626	-2.22301	-2.32858
2066.000	-1.66219	-1.34007	-2.15589	-2.34456
2067.000	-1.64441	-1.30828	-2.21709	-2.31271
2068.000	-1.64244	-1.28841	-2.27433	-2.31262
2069.000	-1.62861	-1.33413	-2.31579	-2.32843
2070.000	-1.65429	-1.35598	-2.23683	-2.32062
2071.000	-1.60293	-1.31427	-2.25460	-2.30670
2072.000	-1.65034	-1.29238	-2.21906	-2.29485
2073.000	-1.64441	-1.35201	-2.21117	-2.31868
2074.000	-1.64639	-1.31424	-2.24078	-2.32657
2075.000	-1.62664	-1.36593	-2.21709	-2.36035
2076.000	-1.64837	-1.35002	-2.20130	-2.29289
2077.000	-1.64441	-1.34207	-2.16971	-2.31279
2078.000	-1.69182	-1.33806	-2.21512	-2.37623
2079.000	-1.67602	-1.35199	-2.23880	-2.29879
2080.000	-1.67404	-1.36988	-2.16971	-2.26714
2081.000	-1.65627	-1.29635	-2.23288	-2.40001
2082.000	-1.66812	-1.36591	-2.19143	-2.32069
2083.000	-1.68985	-1.35595	-2.18156	-2.36239
2084.000	-1.62071	-1.30234	-2.12233	-2.30293
2085.000	-1.65627	-1.32418	-2.17761	-2.29094
2086.000	-1.66812	-1.39174	-2.18156	-2.36834
2087.000	-1.63256	-1.32419	-2.16576	-2.35050
2088.000	-1.63454	-1.36792	-2.22301	-2.29286
2089.000	-1.62269	-1.35401	-2.12825	-2.31285
2090.000	-1.68392	-1.34204	-2.12628	-2.29896
2091.000	-1.64046	-1.32617	-2.10851	-2.37639
2092.000	-1.65034	-1.37784	-2.14800	-2.33862
2093.000	-1.60293	-1.39576	-2.13615	-2.35055
2094.000	-1.62664	-1.36395	-2.13418	-2.34063
2095.000	-1.61281	-1.33017	-2.12036	-2.31683
2096.000	-1.61281	-1.33215	-2.06902	-2.41019
2097.000	-1.60491	-1.31228	-2.08877	-2.36650
2098.000	-1.61478	-1.34010	-2.16774	-2.36638
2099.000	-1.63849	-1.35003	-2.14405	-2.30489
2100.000	-1.61281	-1.32420	-2.12233	-2.34858
2101.000	-1.63849	-1.38978	-2.13023	-2.42200
2102.000	-1.60491	-1.34011	-2.11246	-2.37837
2103.000	-1.61281	-1.35998	-2.13615	-2.42795
2104.000	-1.64244	-1.30431	-2.13220	-2.33666
2105.000	-1.62861	-1.29438	-2.15589	-2.30288
2106.000	-1.64046	-1.30034	-2.21709	-2.35241
2107.000	-1.60293	-1.30831	-2.25854	-2.37615
2108.000	-1.62466	-1.35003	-2.13220	-2.35651
2109.000	-1.60096	-1.28048	-2.12825	-2.32476
2110.000	-1.62269	-1.31823	-2.18353	-2.30880
2111.000	-1.62269	-1.37190	-2.18156	-2.42192
2112.000	-1.61873	-1.35600	-2.18156	-2.44177
2113.000	-1.58120	-1.30634	-2.14207	-2.35451
2114.000	-1.61873	-1.32221	-2.16971	-2.39217
2115.000	-1.61083	-1.35203	-2.22893	-2.38811
2116.000	-1.62664	-1.34805	-2.22893	-2.39803
2117.000	-1.64244	-1.31027	-2.19538	-2.33061
2118.000	-1.61478	-1.36197	-2.14010	-2.39024
2119.000	-1.59108	-1.33217	-2.19932	-2.37823
2120.000	-1.62664	-1.35600	-2.20919	-2.32860
2121.000	-1.61478	-1.36992	-2.20130	-2.38419
2122.000	-1.62071	-1.38780	-2.16576	-2.37630
2123.000	-1.59305	-1.34608	-2.23091	-2.33651
2124.000	-1.61478	-1.37389	-2.23683	-2.37222
2125.000	-1.64837	-1.35002	-2.16971	-2.33263
2126.000	-1.64244	-1.33213	-2.24670	-2.33648
2127.000	-1.64441	-1.38580	-2.18353	-2.40009
2128.000	-1.63849	-1.38779	-2.13220	-2.30689
2129.000	-1.60688	-1.33415	-2.19340	-2.39809
2130.000	-1.63059	-1.36196	-2.21512	-2.39210
2131.000	-1.64441	-1.33810	-2.16181	-2.34852
2132.000	-1.66022	-1.35001	-2.25065	-2.39006
2133.000	-1.60293	-1.39179	-2.13812	-2.43588
2134.000	-1.63849	-1.31027	-2.20327	-2.45761
2135.000	-1.63454	-1.34407	-2.11641	-2.34859
2136.000	-1.58515	-1.30435	-2.18353	-2.39017
2137.000	-1.64244	-1.33213	-2.17366	-2.36240
2138.000	-1.65429	-1.34803	-2.21906	-2.39606
2139.000	-1.63849	-1.35996	-2.20722	-2.33655
2140.000	-1.64441	-1.30431	-2.21314	-2.33257
2141.000	-1.66812	-1.36392	-2.19143	-2.34649
2142.000	-1.62269	-1.34010	-2.17761	-2.30285
2143.000	-1.62269	-1.31227	-2.13220	-2.27910
2144.000	-1.59700	-1.34210	-2.18353	-2.25124
2145.000	-1.61478	-1.29439	-2.15787	-2.30288
2146.000	-1.59503	-1.32620	-2.23683	-2.34444
2147.000	-1.59108	-1.35403	-2.08284	-2.29108
2148.000	-1.58120	-1.28248	-2.18550	-2.36040
2149.000	-1.55749	-1.29840	-2.18156	-2.32666
2150.000	-1.56737	-1.30436	-2.09666	-2.26724
2151.000	-1.60886	-1.29240	-2.10456	-2.32281
2152.000	-1.57527	-1.33019	-2.16774	-2.29691
2153.000	-1.59108	-1.31826	-2.13023	-2.27712
2154.000	-1.58120	-1.29441	-2.13220	-2.30094
2155.000	-1.57132	-1.32026	-2.17169	-2.32271
2156.000	-1.56737	-1.30038	-2.10061	-2.26922
2157.000	-1.58713	-1.32820	-2.12233	-2.27515
2158.000	-1.56935	-1.25864	-2.15194	-2.25922
2159.000	-1.61083	-1.33613	-2.09864	-2.26526
2160.000	-1.59305	-1.29639	-2.16379	-2.29493
2161.000	-1.60293	-1.30036	-2.18156	-2.32666
2162.000	-1.58515	-1.31230	-2.13418	-2.30490
2163.000	-1.57527	-1.31628	-2.12825	-2.25529
2164.000	-1.55354	-1.31033	-2.15392	-2.24533
2165.000	-1.59108	-1.28844	-2.15392	-2.27907
2166.000	-1.58713	-1.30037	-2.11443	-2.33272
2167.000	-1.65627	-1.35995	-2.18550	-2.33063
2168.000	-1.65429	-1.32815	-2.15589	-2.32869
2169.000	-1.59305	-1.31825	-2.13220	-2.32078
2170.000	-1.63849	-1.33413	-2.17958	-2.29292
2171.000	-1.59700	-1.31030	-2.12825	-2.34262
2172.000	-1.58120	-1.35404	-2.16181	-2.32471
2173.000	-1.63059	-1.31823	-2.08679	-2.26527
2174.000	-1.60886	-1.35601	-2.18156	-2.33262
2175.000	-1.59700	-1.27850	-2.12825	-2.28109
2176.000	-1.66219	-1.38976	-2.12628	-2.34659
2177.000	-1.63651	-1.33015	-2.18945	-2.27902
2178.000	-1.66614	-1.32417	-2.08087	-2.33872
2179.000	-1.61478	-1.32420	-2.06310	-2.32486
2180.000	-1.64046	-1.33412	-2.14602	-2.35252
2181.000	-1.63651	-1.32021	-2.09864	-2.35457
2182.000	-1.61281	-1.34607	-2.15589	-2.33067
2183.000	-1.64046	-1.37189	-2.09074	-2.31092
2184.000	-1.67009	-1.33609	-2.11641	-2.39424
2185.000	-1.55749	-1.32821	-2.19538	-2.29092
2186.000	-1.66417	-1.33808	-2.10456	-2.32479
2187.000	-1.64441	-1.35996	-2.11246	-2.34265
2188.000	-1.63256	-1.37984	-2.21709	-2.36431
2189.000	-1.62664	-1.31028	-2.10061	-2.35457
2190.000	-1.60293	-1.30632	-2.07100	-2.33080
2191.000	-1.61676	-1.31625	-2.16379	-2.38623
2192.000	-1.64244	-1.34207	-2.08679	-2.37841
2193.000	-1.67997	-1.32813	-2.16774	-2.32470
2194.000	-1.70170	-1.34203	-2.14405	-2.39618
2195.000	-1.66417	-1.38777	-2.15984	-2.36639
2196.000	-1.68195	-1.32813	-2.12036	-2.34065
2197.000	-1.67207	-1.30826	-2.11443	-2.33073
2198.000	-1.64244	-1.35599	-2.14405	-2.33664
2199.000	-1.65429	-1.34008	-2.09271	-2.35061
2200.000	-1.63849	-1.36195	-2.08877	-2.34268
2201.000	-1.68787	-1.35595	-2.13615	-2.31482
2202.000	-1.65824	-1.32417	-2.05520	-2.33281
2203.000	-1.68195	-1.32615	-2.17958	-2.34850
2204.000	-1.70367	-1.30824	-2.02953	-2.37651
2205.000	-1.67404	-1.32218	-2.11641	-2.29897
2206.000	-1.68590	-1.33012	-2.08482	-2.33078
2207.000	-1.67800	-1.29435	-2.14800	-2.33267
2208.000	-1.64837	-1.32021	-2.16181	-2.35051
2209.000	-1.64046	-1.30034	-2.04533	-2.37450
2210.000	-1.67800	-1.33211	-2.10456	-2.35258
2211.000	-1.68590	-1.31422	-2.13812	-2.38428
2212.000	-1.61281	-1.34010	-2.04335	-2.29710
2213.000	-1.65824	-1.33014	-2.10654	-2.36449
2214.000	-1.67602	-1.30826	-2.11443	-2.32478
2215.000	-1.66812	-1.32616	-2.14997	-2.37037
2216.000	-1.68195	-1.34403	-2.14800	-2.32473
2217.000	-1.64837	-1.32219	-2.10061	-2.39625
2218.000	-1.65429	-1.33610	-2.16379	-2.39814
2219.000	-1.62861	-1.29836	-2.19735	-2.34648
2220.000	-1.65429	-1.33213	-2.17761	-2.26911
2221.000	-1.69182	-1.35595	-2.17761	-2.36041
2222.000	-1.63454	-1.29438	-2.14997	-2.35847
2223.000	-1.68787	-1.32415	-2.16379	-2.33661
2224.000	-1.65824	-1.33809	-2.19932	-2.41396
2225.000	-1.64441	-1.29834	-2.19143	-2.39611
2226.000	-1.64244	-1.30630	-2.13418	-2.40811
2227.000	-1.67207	-1.36391	-2.14800	-2.44777
2228.000	-1.65034	-1.32617	-2.10654	-2.33869
2229.000	-1.66417	-1.30231	-2.15194	-2.35251
2230.000	-1.68195	-1.36391	-2.13220	-2.41406
2231.000	-1.64244	-1.32418	-2.13220	-2.40216
2232.000	-1.67997	-1.36590	-2.22893	-2.39803
2233.000	-1.63849	-1.29636	-2.11246	-2.34662
2234.000	-1.66417	-1.27846	-2.10259	-2.36449
2235.000	-1.70367	-1.31023	-2.06507	-2.40226
2236.000	-1.63256	-1.34009	-2.09271	-2.30695
2237.000	-1.67602	-1.35596	-2.16576	-2.35844
2238.000	-1.63849	-1.31822	-2.06310	-2.32486
2239.000	-1.66812	-1.34603	-2.11246	-2.33669
2240.000	-1.65627	-1.32219	-2.14010	-2.33665
2241.000	-1.70960	-1.33408	-2.08679	-2.38039
2242.000	-1.68985	-1.33012	-2.10654	-2.37639
2243.000	-1.67009	-1.33609	-2.12628	-2.30690
2244.000	-1.67404	-1.36193	-2.14602	-2.35252
2245.000	-1.68392	-1.35397	-2.14602	-2.34061
2246.000	-1.67602	-1.39571	-2.19340	-2.33657
2247.000	-1.67997	-1.31025	-2.12430	-2.36644
2248.000	-1.66614	-1.36193	-2.15787	-2.38624
2249.000	-1.65429	-1.30430	-2.11443	-2.36249
2250.000	-1.67207	-1.37385	-2.08482	-2.36055
2251.000	-1.61873	-1.32818	-2.09271	-2.34069
2252.000	-1.67602	-1.33807	-2.21709	-2.36233
2253.000	-1.71355	-1.36190	-2.10061	-2.45579
2254.000	-1.70170	-1.36787	-2.09666	-2.32481
2255.000	-1.68392	-1.30428	-2.10259	-2.37640
2256.000	-1.65232	-1.33213	-2.05915	-2.34669
2257.000	-1.67207	-1.35596	-2.07495	-2.31690
2258.000	-1.64639	-1.35598	-2.04730	-2.34870
2259.000	-1.66219	-1.37386	-2.09469	-2.36450
2260.000	-1.65034	-1.32219	-2.02361	-2.32888
2261.000	-1.62071	-1.32817	-2.12628	-2.35850
2262.000	-1.65429	-1.32219	-2.12233	-2.39026
2263.000	-1.68787	-1.37583	-2.14010	-2.29894
2264.000	-1.66614	-1.31622	-2.11443	-2.36844
2265.000	-1.60293	-1.36197	-2.12036	-2.33469
2266.000	-1.69577	-1.33607	-2.10654	-2.39029
2267.000	-1.69182	-1.38974	-2.11838	-2.35256
2268.000	-1.65429	-1.34604	-2.15589	-2.31082
2269.000	-1.66022	-1.36790	-2.13615	-2.41803
2270.000	-1.64244	-1.35599	-2.12430	-2.34858
2271.000	-1.64441	-1.31425	-2.14207	-2.35649
2272.000	-1.61676	-1.32023	-2.07297	-2.36851
2273.000	-1.61478	-1.35004	-2.18156	-2.38819
2274.000	-1.68392	-1.31422	-2.17761	-2.40407
2275.000	-1.65034	-1.33809	-2.07297	-2.37645
2276.000	-1.66219	-1.35796	-2.07495	-2.30300
2277.000	-1.67207	-1.37783	-2.15589	-2.31678
2278.000	-1.70565	-1.34998	-2.06902	-2.37645
2279.000	-1.65627	-1.33014	-2.14405	-2.31878
2280.000	-1.63651	-1.31624	-2.17366	-2.35446
2281.000	-1.63059	-1.35202	-2.11838	-2.30096
2282.000	-1.67602	-1.32019	-2.10061	-2.30694
2283.000	-1.62861	-1.31227	-2.16971	-2.39217
2284.000	-1.63651	-1.34804	-2.11246	-2.36448
2285.000	-1.68195	-1.33807	-2.05520	-2.41617
2286.000	-1.66022	-1.33212	-2.13418	-2.42001
2287.000	-1.66614	-1.34007	-2.13418	-2.33864
2288.000	-1.63059	-1.35202	-2.11048	-2.30891
2289.000	-1.67800	-1.35795	-2.09666	-2.38633
2290.000	-1.66812	-1.33013	-2.11641	-2.41409
2291.000	-1.64639	-1.35002	-2.20919	-2.36433
2292.000	-1.64244	-1.32617	-2.14800	-2.38030
2293.000	-1.64837	-1.34207	-2.15787	-2.32273
2294.000	-1.64639	-1.32617	-2.12430	-2.41011
2295.000	-1.68392	-1.31819	-2.16971	-2.38622
2296.000	-1.63454	-1.30233	-2.13220	-2.38628
2297.000	-1.67800	-1.34006	-2.07889	-2.37644
2298.000	-1.66812	-1.34404	-2.13615	-2.38230
2299.000	-1.68787	-1.37185	-2.12036	-2.40416
2300.000	-1.70367	-1.33408	-2.21314	-2.44568
2301.000	-1.67602	-1.34404	-2.09074	-2.41810
2302.000	-1.63454	-1.33214	-2.15589	-2.35647
2303.000	-1.65429	-1.35001	-2.06902	-2.38439
2304.000	-1.67800	-1.36590	-2.14800	-2.31877
2305.000	-1.60688	-1.30831	-2.14602	-2.36244
2306.000	-1.66022	-1.32417	-2.14602	-2.31679
2307.000	-1.64639	-1.33809	-2.12430	-2.37240
2308.000	-1.66219	-1.38578	-2.12036	-2.42003
2309.000	-1.66812	-1.31820	-2.18550	-2.38818
2310.000	-1.66812	-1.37187	-2.17958	-2.37827
2311.000	-1.62466	-1.35798	-2.16181	-2.37631
2312.000	-1.64441	-1.29834	-2.12233	-2.41805
2313.000	-1.66614	-1.32814	-2.20130	-2.40006
2314.000	-1.63059	-1.31028	-2.10456	-2.39029
2315.000	-1.63059	-1.36593	-2.14405	-2.38626
2316.000	-1.69577	-1.33806	-2.06507	-2.39035
2317.000	-1.66022	-1.35399	-2.10259	-2.39228
2318.000	-1.64639	-1.37387	-2.12825	-2.40216
2319.000	-1.64837	-1.34008	-2.17958	-2.37628
2320.000	-1.67207	-1.32218	-2.14010	-2.48549
2321.000	-1.65429	-1.34008	-2.14800	-2.36839
2322.000	-1.63849	-1.34804	-2.19538	-2.42190
2323.000	-1.68392	-1.35397	-2.14405	-2.40611
2324.000	-1.67997	-1.30826	-2.12233	-2.40416
2325.000	-1.66417	-1.35001	-2.14800	-2.36442
2326.000	-1.70367	-1.35197	-2.17366	-2.38026
2327.000	-1.67997	-1.34403	-2.19340	-2.38221
2328.000	-1.66812	-1.35398	-2.13812	-2.38825
2329.000	-1.72145	-1.35792	-2.10456	-2.36250
2330.000	-1.68590	-1.35596	-2.13418	-2.37437
2331.000	-1.66219	-1.35995	-2.11443	-2.39821
2332.000	-1.67207	-1.35596	-2.14997	-2.36045
2333.000	-1.64244	-1.35400	-2.20130	-2.40800
2334.000	-1.64441	-1.34207	-2.14997	-2.41800
2335.000	-1.66614	-1.37584	-2.18353	-2.37231
2336.000	-1.66417	-1.33212	-2.10851	-2.44387
2337.000	-1.70170	-1.32414	-2.11048	-2.38234
2338.000	-1.67602	-1.34404	-2.20130	-2.40006
2339.000	-1.64441	-1.36791	-2.12430	-2.38232
2340.000	-1.68985	-1.39173	-2.15589	-2.38029
2341.000	-1.68195	-1.38577	-2.10851	-2.43791
2342.000	-1.68787	-1.38577	-2.14997	-2.42594
2343.000	-1.68590	-1.38179	-2.13220	-2.41605
2344.000	-1.69577	-1.39570	-2.19340	-2.34848
2345.000	-1.70960	-1.38774	-2.16181	-2.43585
2346.000	-1.64837	-1.32816	-2.04533	-2.38840
2347.000	-1.65627	-1.35001	-2.05520	-2.33678
2348.000	-1.65034	-1.37188	-2.04533	-2.39435
2349.000	-1.66614	-1.38976	-2.01374	-2.37852
2350.000	-1.64244	-1.40368	-2.09271	-2.32084
2351.000	-1.62861	-1.32419	-2.05323	-2.39632
2352.000	-1.62466	-1.40767	-2.11443	-2.38234
2353.000	-1.66417	-1.38181	-2.10456	-2.34464
2354.000	-1.63256	-1.36792	-2.10259	-2.41411
2355.000	-1.64441	-1.36791	-2.04533	-2.35862
2356.000	-1.64441	-1.37586	-2.10654	-2.39227
2357.000	-1.65627	-1.40566	-2.06310	-2.37646
2358.000	-1.64639	-1.38182	-2.09864	-2.38435
2359.000	-1.64837	-1.38182	-2.12825	-2.32476
2360.000	-1.67800	-1.35199	-2.08087	-2.36849
2361.000	-1.72935	-1.38176	-2.12036	-2.40416
2362.000	-1.69972	-1.33408	-2.07495	-2.42804
2363.000	-1.66417	-1.36392	-2.01176	-2.46188
2364.000	-1.51403	-1.35011	-1.88341	-2.32312
2365.000	-1.27891	-1.33036	-1.68787	-2.33925
2366.000	-1.10303	-1.38412	-1.45279	-2.27796
2367.000	-0.81052	-1.43394	-1.15837	-2.32390
2368.000	-0.47645	-1.43602	-0.73936	-2.32815
2369.000	-0.06129	-1.48180	-0.31039	-2.38194
2370.000	0.41714	-1.56526	0.06326	-2.50906
2371.000	0.98445	-1.63463	0.59901	-2.49503
2372.000	1.52589	-1.83894	1.17220	-2.55817
2373.000	2.05125	-1.97346	1.71553	-2.66075
2374.000	2.47564	-2.08008	2.20919	-2.76906
2375.000	2.97469	-2.20818	2.73804	-2.90275
2376.000	3.35706	-2.36005	3.12058	-3.06223
2377.000	3.81983	-2.48170	3.61903	-3.22100
2378.000	4.25261	-2.63086	4.11693	-3.41293
2379.000	4.62796	-2.79177	4.51598	-3.63440
2380.000	5.04410	-2.94029	4.81254	-3.69407
2381.000	5.39897	-3.11046	5.28922	-3.78013
2382.000	5.72799	-3.22516	5.62227	-3.95936
2383.000	5.99406	-3.42082	5.96472	-4.10857
2384.000	6.23838	-3.44488	6.05662	-4.10394
2385.000	6.47856	-3.55552	6.34190	-4.23744
2386.000	6.74777	-3.61657	6.50199	-4.29115
2387.000	6.97383	-3.71122	6.72632	-4.34815
2388.000	7.21135	-3.76041	6.89006	-4.35256
2389.000	7.52052	-3.79904	6.95825	-4.27143
2390.000	7.73999	-3.85989	7.15491	-4.24214
2391.000	7.86224	-3.79795	7.22691	-4.38080
2392.000	8.03871	-3.84535	7.45056	-4.33350
2393.000	8.24794	-3.82178	7.64291	-4.42371
2394.000	8.39698	-3.81642	7.78075	-4.38113
2395.000	8.51497	-3.80742	7.88358	-4.31539
2396.000	8.60196	-3.81634	7.95728	-4.20294
2397.000	8.77969	-3.81649	7.97861	-4.17920
2398.000	8.86271	-3.70799	8.01932	-4.21014
2399.000	8.92060	-3.64477	8.06972	-4.19198
2400.000	8.92832	-3.58989	8.10266	-4.19164
2401.000	8.93603	-3.57611	8.10072	-4.11525
2402.000	8.85113	-3.51623	8.05034	-4.13144
2403.000	8.77004	-3.54050	7.99606	-4.14375
2404.000	8.66380	-3.51604	7.85642	-4.13535
2405.000	8.53237	-3.53097	7.83896	-4.22962
2406.000	8.41633	-3.44576	7.77492	-4.22242
2407.000	8.35054	-3.47184	7.77492	-4.18125
2408.000	8.25956	-3.47068	7.85642	-4.22356
2409.000	8.21889	-3.53381	7.90298	-4.25836
2410.000	8.16660	-3.51858	7.78075	-4.32233
2411.000	8.19372	-3.55954	7.87000	-4.30574
2412.000	8.19372	-3.54384	7.92043	-4.28562
2413.000	8.24407	-3.58262	7.92043	-4.23075
2414.000	8.32538	-3.60149	8.07166	-4.25074
2415.000	8.41439	-3.64575	8.07747	-4.33098
2416.000	8.51884	-3.66436	8.14335	-4.23235
2417.000	8.62322	-3.70449	8.25375	-4.29580
2418.000	8.71789	-3.72314	8.42407	-4.35850
2419.000	8.78549	-3.74596	8.38924	-4.27279
2420.000	8.90709	-3.77604	8.45115	-4.29363
2421.000	8.97269	-3.75580	8.42213	-4.28612
2422.000	9.05754	-3.78426	8.35054	-4.37694
2423.000	9.02669	-3.81197	8.42407	-4.28415
2424.000	9.08260	-3.77617	8.44148	-4.39157
2425.000	9.08067	-3.78206	8.42213	-4.33700
2426.000	9.03633	-3.80600	8.35247	-4.40236
2427.000	9.05754	-3.80186	8.38150	-4.28266
2428.000	9.07682	-3.74102	8.29053	-4.37956
2429.000	9.04404	-3.75310	8.34473	-4.32025
2430.000	9.01705	-3.72208	8.33312	-4.29885
2431.000	9.02283	-3.71419	8.34086	-4.31050
2432.000	9.03247	-3.69061	8.28473	-4.32482
2433.000	9.02669	-3.72002	8.33312	-4.26165
2434.000	9.00355	-3.72026	8.14916	-4.30280
2435.000	8.97076	-3.72451	8.34667	-4.27325
2436.000	8.98619	-3.73413	8.17047	-4.28886
2437.000	8.96304	-3.74024	8.21115	-4.24339
2438.000	8.99969	-3.69682	8.22470	-4.34897
2439.000	8.97269	-3.70883	8.23438	-4.28622
2440.000	8.97462	-3.67946	8.06584	-4.27039
2441.000	8.93796	-3.73071	8.12204	-4.27763
2442.000	8.93025	-3.68187	8.11235	-4.34040
2443.000	8.93411	-3.67791	8.07359	-4.25072
2444.000	8.95533	-3.68944	8.07941	-4.19972
2445.000	8.90902	-3.70948	8.09104	-4.22311
2446.000	8.92446	-3.71128	8.06390	-4.24494
2447.000	8.95340	-3.74230	8.10848	-4.19942
2448.000	8.92253	-3.70152	8.02708	-4.28646
2449.000	8.91481	-3.68594	8.17822	-4.30248
2450.000	8.92253	-3.67607	8.14335	-4.28915
2451.000	8.94761	-3.66016	8.08910	-4.23292
2452.000	8.90516	-3.74475	8.09879	-4.22890
2453.000	8.92832	-3.67601	8.16272	-4.22823
2454.000	8.93603	-3.71704	8.12591	-4.20120
2455.000	8.92639	-3.67212	8.12398	-4.25214
2456.000	8.94375	-3.62105	7.94759	-4.20304
2457.000	8.91288	-3.70161	8.10654	-4.19748
2458.000	8.90516	-3.61165	8.07747	-4.17623
2459.000	8.92253	-3.61539	8.04840	-4.21767
2460.000	8.93603	-3.65049	8.08522	-4.19182
2461.000	8.96690	-3.65214	8.11429	-4.20132
2462.000	8.91674	-3.65264	8.05034	-4.23529
2463.000	8.93025	-3.65446	8.05228	-4.15885
2464.000	8.96111	-3.69134	8.12979	-4.18157
2465.000	8.96111	-3.63654	8.07941	-4.20364
2466.000	8.97076	-3.67167	8.18790	-4.19271
2467.000	8.95919	-3.64243	8.11235	-4.15824
2468.000	8.96111	-3.71678	8.07166	-4.17237
2469.000	8.98619	-3.69500	8.06197	-4.18423
2470.000	8.94954	-3.67384	8.04840	-4.21963
2471.000	8.97076	-3.70494	8.12591	-4.21687
2472.000	8.98233	-3.68134	8.12010	-4.17383
2473.000	8.94375	-3.73066	8.02514	-4.23163
2474.000	8.92639	-3.71909	8.13173	-4.24815
2475.000	8.95533	-3.69727	8.10072	-4.24064
2476.000	8.92060	-3.69175	8.12398	-4.23452
2477.000	8.96111	-3.61697	8.07553	-4.21347
2478.000	8.95533	-3.69140	8.11429	-4.27575
2479.000	8.98812	-3.67737	8.15304	-4.28709
2480.000	8.98812	-3.67150	8.04840	-4.20592
2481.000	8.95340	-3.65815	8.06003	-4.20384
2482.000	8.98426	-3.68915	8.08910	-4.22901
2483.000	8.96111	-3.66198	7.96698	-4.18716
2484.000	8.96497	-3.68739	8.11235	-4.17195
2485.000	8.97269	-3.66578	8.15304	-4.21266
2486.000	8.97847	-3.72443	8.07166	-4.22135
2487.000	8.98233	-3.65981	8.11041	-4.16218
2488.000	8.97269	-3.69905	8.08910	-4.23880
2489.000	8.98233	-3.70874	8.11429	-4.26792
2490.000	8.97076	-3.67167	8.06584	-4.19594
2491.000	8.94761	-3.68560	8.10654	-4.20727
2492.000	8.97462	-3.68142	8.10266	-4.20536
2493.000	8.94761	-3.68560	8.11623	-4.24243
2494.000	8.98812	-3.69107	8.18403	-4.23388
2495.000	8.96111	-3.65611	8.15885	-4.21456
2496.000	8.98233	-3.67938	8.12010	-4.25023
2497.000	8.96883	-3.61689	8.15497	-4.20089
2498.000	8.96497	-3.64237	8.20146	-4.26699
2499.000	8.95919	-3.65809	8.16272	-4.23215
2500.000	8.96111	-3.62480	8.13560	-4.18151
2501.000	8.97462	-3.64032	8.13366	-4.23833
2502.000	8.95919	-3.64830	8.17435	-4.21244
2503.000	8.97655	-3.64421	8.18403	-4.19863
2504.000	8.95919	-3.64439	8.11235	-4.16607
2505.000	8.95340	-3.64249	8.14723	-4.15984
2506.000	8.95919	-3.63656	8.18597	-4.22799
2507.000	8.97847	-3.67159	8.10266	-4.15050
2508.000	9.00933	-3.66737	8.13366	-4.16389
2509.000	8.97847	-3.65594	8.13173	-4.24619
2510.000	8.97076	-3.65210	8.20340	-4.30809
2511.000	8.96304	-3.69132	8.16272	-4.16359
2512.000	8.97655	-3.66574	8.16272	-4.23019
2513.000	8.98040	-3.68919	8.16660	-4.24973
2514.000	8.96497	-3.64824	8.13948	-4.18930
2515.000	8.94954	-3.66993	8.10072	-4.22692
2516.000	8.99198	-3.66363	8.16660	-4.23798
2517.000	8.93989	-3.72482	8.14723	-4.15788
2518.000	8.94761	-3.66995	8.11623	-4.13861
2519.000	8.98619	-3.71848	8.15497	-4.22440
2520.000	8.96304	-3.68349	8.23632	-4.26661
2521.000	8.98233	-3.65786	8.17822	-4.23786
2522.000	8.96690	-3.63061	8.21308	-4.22182
2523.000	8.97655	-3.69510	8.18403	-4.22409
2524.000	8.96497	-3.65020	8.14916	-4.16569
2525.000	8.95919	-3.66787	8.26924	-4.24277
2526.000	8.97655	-3.70684	8.15110	-4.31648
2527.000	8.99198	-3.67146	8.19953	-4.19847
2528.000	8.98040	-3.64222	8.13754	-4.25592
2529.000	8.98040	-3.69506	8.20534	-4.15727
2530.000	8.97462	-3.71273	8.24600	-4.20777
2531.000	8.92253	-3.69760	8.22664	-4.18251
2532.000	8.94954	-3.68363	8.11816	-4.23458
2533.000	8.90902	-3.68404	8.18209	-4.18298
2534.000	8.96304	-3.69328	8.19372	-4.20244
2535.000	8.95147	-3.65817	8.23245	-4.16091
2536.000	8.98233	-3.67351	8.16079	-4.24784
2537.000	8.97269	-3.66187	8.16660	-4.22232
2538.000	8.94568	-3.67780	8.21889	-4.22176
2539.000	8.96497	-3.65020	8.20340	-4.22193
2540.000	8.94568	-3.68954	8.22277	-4.23347
2541.000	8.97269	-3.65795	8.14335	-4.26761
2542.000	8.91674	-3.66830	8.17241	-4.23596
2543.000	8.92253	-3.68194	8.14141	-4.20299
2544.000	8.96304	-3.69132	8.21308	-4.24337
2545.000	8.92253	-3.67999	8.25375	-4.24293
2546.000	8.94182	-3.67392	8.20146	-4.14556
2547.000	8.89744	-3.66849	8.20534	-4.25716
2548.000	8.92060	-3.66435	8.18597	-4.16139
2549.000	8.89937	-3.66456	8.24019	-4.10990
2550.000	8.95919	-3.68549	8.27505	-4.20942
2551.000	8.93411	-3.66225	8.13560	-4.28336
2552.000	8.94182	-3.68762	8.15110	-4.15392
2553.000	8.90516	-3.67429	8.22083	-4.24132
2554.000	8.94182	-3.71698	8.24988	-4.29780
2555.000	8.91288	-3.67617	8.16466	-4.16945
2556.000	8.92639	-3.68778	8.18984	-4.14960
2557.000	8.94954	-3.68950	8.19178	-4.20051
2558.000	8.93411	-3.71901	8.25956	-4.16258
2559.000	8.94182	-3.71893	8.26343	-4.18212
2560.000	8.95533	-3.69727	8.19178	-4.15350
2561.000	8.93025	-3.69557	8.23632	-4.19808
2562.000	8.93025	-3.69361	8.14141	-4.25196
2563.000	8.93989	-3.71700	8.17822	-4.21044
2564.000	8.96111	-3.71091	8.19372	-4.14564
2565.000	8.95340	-3.68359	8.24019	-4.27245
2566.000	8.97076	-3.68537	8.20340	-4.13575
2567.000	8.96883	-3.69909	8.28085	-4.19173
2568.000	8.97655	-3.73032	8.21115	-4.20226
2569.000	8.97269	-3.69122	8.29247	-4.17398
2570.000	8.95726	-3.68355	8.20146	-4.14948
2571.000	8.95726	-3.71095	8.32344	-4.17170
2572.000	8.94761	-3.69735	8.25181	-4.16658
2573.000	8.92060	-3.70349	8.21889	-4.24722
2574.000	8.92639	-3.73475	8.16466	-4.27326
2575.000	8.96497	-3.68347	8.18984	-4.18682
2576.000	8.92446	-3.70345	8.25568	-4.26641
2577.000	8.93025	-3.69948	8.22277	-4.16688
2578.000	8.94761	-3.73062	8.18209	-4.19865
2579.000	8.92639	-3.74062	8.19178	-4.23772
2580.000	8.89166	-3.71357	8.24407	-4.23129
2581.000	8.96111	-3.69330	8.13366	-4.23050
2582.000	8.92639	-3.68190	8.03871	-4.16879
2583.000	8.92446	-3.73281	8.22858	-4.25691
2584.000	8.91481	-3.71921	8.15691	-4.24592
2585.000	8.88394	-3.69016	8.26149	-4.19390
2586.000	8.92446	-3.72107	8.30408	-4.26001
2587.000	8.91867	-3.71525	8.17822	-4.17519
2588.000	8.90902	-3.72710	8.17047	-4.26144
2589.000	8.88008	-3.73326	8.19178	-4.22205
2590.000	8.92060	-3.72893	8.21308	-4.12389
2591.000	8.93796	-3.74637	8.16079	-4.19691
2592.000	8.92060	-3.75242	8.22277	-4.15513
2593.000	8.96111	-3.74222	8.19565	-4.15150
2594.000	8.92060	-3.74655	8.29828	-4.14063
2595.000	8.96883	-3.70692	8.12785	-4.16396
2596.000	8.94375	-3.76197	8.19953	-4.17496
2597.000	8.96497	-3.72065	8.24794	-4.19796
2598.000	8.97847	-3.75182	8.21308	-4.19049
2599.000	8.96111	-3.69721	8.25375	-4.15873
2600.000	8.94375	-3.74044	8.14141	-4.21475
2601.000	8.96497	-3.66586	8.14335	-4.19122
2602.000	8.99198	-3.70668	8.16660	-4.21252
2603.000	8.95340	-3.73251	8.27311	-4.20748
2604.000	8.94761	-3.68365	8.16466	-4.21450
2605.000	8.90516	-3.73301	8.22664	-4.17468
2606.000	8.95726	-3.74226	8.19953	-4.23372
2607.000	8.92446	-3.70541	8.23632	-4.20004
2608.000	8.92639	-3.69560	8.16853	-4.14394
2609.000	8.94954	-3.65427	8.21696	-4.17086
2610.000	8.89359	-3.69006	8.20921	-4.18270
2611.000	8.94761	-3.70126	8.21308	-4.21987
2612.000	8.94761	-3.75410	8.22664	-4.14922
2613.000	8.95726	-3.72856	8.19953	-4.23568
2614.000	8.93411	-3.68966	8.29247	-4.16419
2615.000	8.94568	-3.67780	8.19372	-4.18482
2616.000	8.93989	-3.72091	8.17435	-4.15760
2617.000	8.95340	-3.74425	8.18209	-4.17319
2618.000	8.94375	-3.76001	8.17047	-4.21052
2619.000	8.94375	-3.70521	8.19565	-4.17696
2620.000	8.94375	-3.69739	8.24600	-4.19798
2621.000	8.93603	-3.71508	8.17628	-4.19871
2622.000	8.96304	-3.71480	8.15691	-4.13819
2623.000	8.95533	-3.71097	8.17435	-4.15564
2624.000	8.95726	-3.68746	8.14529	-4.10304
2625.000	8.91481	-3.70942	8.20921	-4.15527
2626.000	8.90130	-3.68020	8.12785	-4.20509
2627.000	8.92832	-3.71124	8.26537	-4.17623
2628.000	8.91867	-3.71721	8.18984	-4.17702
2629.000	8.93603	-3.68964	8.16079	-4.21258
2630.000	8.91674	-3.71332	8.23245	-4.15699
2631.000	8.89552	-3.68613	8.20727	-4.19251
2632.000	8.94375	-3.70913	8.10654	-4.11715
2633.000	8.91288	-3.71531	8.12398	-4.17967
2634.000	8.93603	-3.71704	8.17822	-4.22023
2635.000	8.93218	-3.69359	8.18790	-4.20642
2636.000	8.93025	-3.68187	8.20921	-4.16703
2637.000	8.94375	-3.68369	8.23826	-4.17652
2638.000	8.93218	-3.65640	8.17435	-4.16151
2639.000	8.93796	-3.70332	8.15885	-4.23023
2640.000	8.93796	-3.73659	8.22470	-4.20799
2641.000	8.92639	-3.68582	8.12398	-4.16791
2642.000	8.94568	-3.64061	8.22664	-4.11396
2643.000	8.91674	-3.68787	8.16660	-4.20273
2644.000	8.94761	-3.67778	8.23051	-4.14526
2645.000	8.92446	-3.70150	8.24600	-4.29784
2646.000	8.91481	-3.66245	8.17822	-4.19869
2647.000	8.92253	-3.68782	8.15497	-4.17347
2648.000	8.93796	-3.69940	8.19565	-4.19851
2649.000	8.94182	-3.73459	8.16079	-4.15186
2650.000	8.90323	-3.70171	8.14723	-4.23623
2651.000	8.89166	-3.71553	8.17435	-4.14976
2652.000	8.92639	-3.73279	8.18597	-4.20057
2653.000	8.96883	-3.74410	8.20340	-4.09461
2654.000	8.94761	-3.71692	8.11235	-4.20330
2655.000	8.90516	-3.71148	8.12591	-4.22274
2656.000	8.94182	-3.71893	8.25375	-4.18614
2657.000	8.92060	-3.71132	8.13754	-4.16973
2658.000	8.94761	-3.70909	8.19372	-4.20440
2659.000	8.96690	-3.73238	8.08135	-4.16443
2660.000	8.89744	-3.71156	8.15691	-4.22046
2661.000	8.96111	-3.69721	8.17047	-4.18114
2662.000	8.95147	-3.73449	8.12979	-4.10908
2663.000	8.94954	-3.70907	8.23051	-4.20597
2664.000	8.92832	-3.72298	8.24213	-4.24501
2665.000	8.95533	-3.73836	8.17628	-4.15170
2666.000	8.94182	-3.71893	8.16660	-4.12633
2667.000	8.95147	-3.75015	8.19953	-4.18280
2668.000	8.94182	-3.72480	8.16466	-4.19687
2669.000	8.91674	-3.67417	8.18597	-4.09283
2670.000	8.98040	-3.68136	8.17047	-4.22227
2671.000	8.96111	-3.69721	8.18984	-4.11434
2672.000	8.96883	-3.69909	8.20534	-4.18861
2673.000	8.99969	-3.69486	8.18790	-4.14962
2674.000	8.98233	-3.75178	8.18597	-4.15552
2675.000	8.99583	-3.73012	8.20921	-4.11022
2676.000	8.98619	-3.69109	8.23051	-4.16485
2677.000	8.96690	-3.68932	8.18403	-4.14574
2678.000	8.95533	-3.72075	8.21889	-4.14538
2679.000	8.98426	-3.72241	8.18209	-4.20844
2680.000	8.98233	-3.71069	8.18016	-4.13207
2681.000	8.97462	-3.75382	8.22858	-4.06888
2682.000	8.99198	-3.68907	8.14916	-4.15590
2683.000	8.98233	-3.73417	8.24600	-4.16664
2684.000	8.96690	-3.72651	8.16466	-4.16161
2685.000	8.96497	-3.73044	8.20340	-4.07110
2686.000	8.98812	-3.75564	8.21502	-4.08470
2687.000	8.97076	-3.72060	8.12398	-4.06603
2688.000	8.94954	-3.74625	8.24213	-4.16472
2689.000	8.94761	-3.72083	8.17628	-4.20067
2690.000	8.97655	-3.70684	8.22277	-4.26480
2691.000	8.94761	-3.71887	8.16853	-4.19292
2692.000	8.82217	-3.76712	8.10460	-4.19554
2693.000	8.70244	-3.69001	7.99606	-4.16727
2694.000	8.50917	-3.72323	8.06584	-4.34873
2695.000	8.31957	-3.76621	7.77686	-4.38117
2696.000	8.01545	-3.83380	7.53995	-4.27182
2697.000	7.66233	-3.80171	7.20162	-4.36535
2698.000	7.25026	-3.80135	6.82770	-4.46898
2699.000	6.75167	-3.84474	6.54492	-4.56977
2700.000	6.35166	-3.87931	6.17390	-4.66345
2701.000	5.91583	-3.88247	5.69667	-4.73039
2702.000	5.36566	-3.91769	5.24021	-4.76940
2703.000	4.87731	-3.96210	4.83020	-4.90427
2704.000	4.51991	-4.07267	4.37450	-4.90149
2705.000	3.92807	-4.15673	3.93201	-5.04014
2706.000	3.39449	-4.23426	3.62099	-5.05573
2707.000	2.94906	-4.31115	3.15014	-5.03847
2708.000	2.66505	-4.34579	2.80905	-5.08931
2709.000	2.31184	-4.36869	2.60390	-5.15523
2710.000	1.97029	-4.45860	2.28026	-5.17618
2711.000	1.82021	-4.46887	1.98214	-5.07658
2712.000	1.53181	-4.47545	1.70960	-5.14838
2713.000	1.31448	-4.56482	1.53774	-5.11725
2714.000	1.23346	-4.57879	1.29867	-5.12369
2715.000	1.05560	-4.55734	1.17220	-5.10420
2716.000	0.85005	-4.55958	0.94690	-5.14996
2717.000	0.62273	-4.51237	0.87970	-5.07309
2718.000	0.59506	-4.57565	0.55947	-5.09910
2719.000	0.50412	-4.45710	0.41714	-5.09724
2720.000	0.35586	-4.54023	0.25503	-5.12693
2721.000	0.24515	-4.47700	-0.01582	-5.19012
2722.000	0.19177	-4.45527	-0.18188	-5.14274
2723.000	0.15618	-4.45726	-0.20363	-5.16641
2724.000	0.15816	-4.52250	-0.38353	-5.21566
2725.000	0.26294	-4.49282	-0.34202	-5.21568
2726.000	0.32818	-4.48488	-0.26492	-5.28674
2727.000	0.45865	-4.53226	-0.16804	-5.22956
2728.000	0.62273	-4.52226	-0.08897	-5.22169
2729.000	0.68401	-4.52418	0.11467	-5.23944
2730.000	0.85400	-4.55365	0.19375	-5.17826
2731.000	0.95678	-4.54759	0.39539	-5.09528
2732.000	1.07734	-4.57905	0.51203	-5.07348
2733.000	1.15441	-4.53742	0.56540	-5.04383
2734.000	1.16232	-4.51764	0.68006	-5.06741
2735.000	1.15046	-4.53150	0.81249	-5.01396
2736.000	1.12872	-4.53746	0.77494	-5.11270
2737.000	1.07932	-4.52172	0.74726	-5.13246
2738.000	0.98445	-4.51000	0.75517	-5.11864
2739.000	0.85400	-4.54574	0.67413	-5.22528
2740.000	0.76703	-4.47862	0.58715	-5.16618
2741.000	0.72750	-4.55774	0.50610	-5.17808
2742.000	0.57924	-4.51043	0.30248	-5.27489
2743.000	0.51401	-4.51839	0.26887	-5.24334
2744.000	0.46656	-4.53423	0.16409	-5.25126
2745.000	0.38353	-4.51649	0.06524	-5.37751
2746.000	0.33411	-4.56791	0.03954	-5.33019
2747.000	0.27876	-4.52049	-0.09094	-5.30454
2748.000	0.26294	-4.54620	-0.15025	-5.39130
2749.000	0.26887	-4.51061	-0.12850	-5.32031
2750.000	0.32027	-4.53431	-0.26689	-5.31830
2751.000	0.27480	-4.57782	-0.14234	-5.33214
2752.000	0.28469	-4.55410	-0.20561	-5.36368
2753.000	0.34399	-4.54616	-0.18781	-5.22166
2754.000	0.29655	-4.60153	-0.26294	-5.23742
2755.000	0.31829	-4.57780	-0.19770	-5.31635
2756.000	0.34202	-4.52244	-0.25503	-5.23742
2757.000	0.36969	-4.58173	-0.19375	-5.21969
2758.000	0.36376	-4.57778	-0.19770	-5.23547
2759.000	0.37760	-4.58568	-0.20758	-5.32226
2760.000	0.42900	-4.54810	-0.10478	-5.25720
2761.000	0.38749	-4.57777	-0.18188	-5.30057
2762.000	0.41516	-4.53426	-0.08106	-5.23155
2763.000	0.38946	-4.57777	-0.08501	-5.22366
2764.000	0.44482	-4.57378	-0.05338	-5.27101
2765.000	0.47052	-4.55795	-0.03559	-5.18815
2766.000	0.46854	-4.54609	-0.10280	-5.24733
2767.000	0.53180	-4.46301	-0.01977	-5.23550
2768.000	0.50215	-4.49862	-0.05338	-5.22564
2769.000	0.50610	-4.54805	-0.00791	-5.22367
2770.000	0.54564	-4.48278	-0.00198	-5.18815
2771.000	0.59308	-4.46494	-0.01582	-5.18026
2772.000	0.59110	-4.50449	-0.01186	-5.26312
2773.000	0.58320	-4.45506	-0.09094	-5.21774
2774.000	0.52587	-4.50652	-0.04349	-5.17434
2775.000	0.57529	-4.50252	-0.00395	-5.22958
2776.000	0.51994	-4.47291	-0.08897	-5.25720
2777.000	0.58913	-4.48274	-0.02768	-5.23748
2778.000	0.53773	-4.48080	-0.00593	-5.25720
2779.000	0.58517	-4.44913	-0.09094	-5.23352
2780.000	0.59110	-4.41946	-0.07117	-5.26706
2781.000	0.53378	-4.48081	0.04152	-5.21183
2782.000	0.58715	-4.45111	-0.07315	-5.18815
2783.000	0.61285	-4.48272	-0.06920	-5.21577
2784.000	0.56936	-4.44123	-0.04943	-5.24142
2785.000	0.57529	-4.47682	0.00593	-5.24734
2786.000	0.56540	-4.52230	-0.09687	-5.20985
2787.000	0.53971	-4.49464	-0.08501	-5.20788
2788.000	0.58715	-4.45704	-0.04745	-5.15658
2789.000	0.54366	-4.46498	-0.06326	-5.22761
2790.000	0.58517	-4.46495	-0.11071	-5.25917
2791.000	0.53180	-4.48872	-0.05733	-5.21577
2792.000	0.50610	-4.45710	-0.06326	-5.23353
2793.000	0.50808	-4.49862	-0.00989	-5.20985
2794.000	0.56936	-4.47485	-0.10676	-5.18814
2795.000	0.51796	-4.43929	-0.11071	-5.23747
2796.000	0.46656	-4.43735	-0.06326	-5.16447
2797.000	0.52191	-4.43138	-0.11862	-5.19209
2798.000	0.51796	-4.44720	-0.10478	-5.23747
2799.000	0.49226	-4.43536	-0.03361	-5.22958
2800.000	0.50215	-4.45710	-0.04943	-5.19999
2801.000	0.51005	-4.47687	-0.04152	-5.19210
2802.000	0.49819	-4.50060	0.02372	-5.26509
2803.000	0.50412	-4.51246	-0.02372	-5.22761
2804.000	0.50215	-4.50455	-0.13048	-5.21971
2805.000	0.52982	-4.49860	-0.02570	-5.26312
2806.000	0.54959	-4.50847	-0.05140	-5.21183
2807.000	0.47842	-4.49271	-0.03559	-5.19802
2808.000	0.48238	-4.51841	-0.11467	-5.19209
2809.000	0.51796	-4.52234	-0.06326	-5.21774
2810.000	0.49028	-4.45711	-0.14234	-5.25916
2811.000	0.51994	-4.47093	-0.11467	-5.25325
2812.000	0.46854	-4.49667	-0.05140	-5.20985
2813.000	0.48831	-4.48875	-0.09292	-5.24141
2814.000	0.51401	-4.46105	-0.04745	-5.25523
2815.000	0.49226	-4.46106	-0.10478	-5.11315
2816.000	0.45865	-4.48481	-0.03361	-5.16842
2817.000	0.47052	-4.44526	-0.11862	-5.14867
2818.000	0.44086	-4.49075	-0.08106	-5.22958
2819.000	0.47052	-4.48085	-0.10083	-5.18420
2820.000	0.48238	-4.46700	-0.10083	-5.20590
2821.000	0.49424	-4.45513	-0.10280	-5.21774
2822.000	0.48831	-4.47688	0.00198	-5.25326
2823.000	0.50412	-4.45710	-0.10083	-5.24930
2824.000	0.47447	-4.47492	-0.04745	-5.15658
2825.000	0.48831	-4.46304	-0.01384	-5.22761
2826.000	0.50610	-4.47094	-0.05733	-5.18617
2827.000	0.47249	-4.45712	-0.01582	-5.19999
2828.000	0.51401	-4.45709	-0.08106	-5.20985
2829.000	0.48238	-4.42152	-0.01779	-5.21577
2830.000	0.46261	-4.46899	-0.03954	-5.20985
2831.000	0.49622	-4.48281	-0.10478	-5.22168
2832.000	0.49819	-4.45315	-0.01977	-5.20394
2833.000	0.45865	-4.45911	-0.07315	-5.20788
2834.000	0.48238	-4.47689	-0.07908	-5.18223
2835.000	0.46261	-4.49272	-0.13048	-5.24338
2836.000	0.47249	-4.44526	-0.01186	-5.18420
2837.000	0.48633	-4.44327	-0.14037	-5.21773
2838.000	0.49226	-4.46106	-0.11862	-5.20195
2839.000	0.50215	-4.44721	-0.06129	-5.14079
2840.000	0.48831	-4.50852	0.01977	-5.21775
2841.000	0.46656	-4.52039	-0.02175	-5.22169
2842.000	0.42702	-4.50856	-0.07908	-5.24142
2843.000	0.47447	-4.53027	-0.03163	-5.16052
2844.000	0.42307	-4.46111	-0.06920	-5.16644
2845.000	0.45075	-4.51250	-0.05733	-5.19407
2846.000	0.45865	-4.46306	-0.01384	-5.21577
2847.000	0.44679	-4.50854	-0.06722	-5.27890
2848.000	0.44877	-4.51645	-0.02768	-5.21380
2849.000	0.44086	-4.46110	-0.10083	-5.20393
2850.000	0.46854	-4.46899	-0.13048	-5.22760
2851.000	0.45668	-4.45713	-0.08303	-5.20393
2852.000	0.44284	-4.46109	-0.11467	-5.26903
2853.000	0.44877	-4.43143	0.00791	-5.19999
2854.000	0.43493	-4.48087	-0.07315	-5.19012
2855.000	0.43691	-4.50064	-0.13839	-5.16840
2856.000	0.49028	-4.48677	-0.13839	-5.20589
2857.000	0.41714	-4.44134	-0.05338	-5.17434
2858.000	0.40330	-4.48089	-0.11664	-5.14670
2859.000	0.43098	-4.44924	-0.07513	-5.19407
2860.000	0.45075	-4.47691	-0.13444	-5.19208
2861.000	0.46261	-4.47492	-0.07315	-5.23944
2862.000	0.44086	-4.48482	-0.10874	-5.19011
2863.000	0.39144	-4.51451	-0.17398	-5.18418
2864.000	0.43691	-4.50262	-0.04349	-5.20196
2865.000	0.42109	-4.50461	-0.09687	-5.17433
2866.000	0.39539	-4.47892	-0.11664	-5.12499
2867.000	0.43493	-4.50262	-0.08897	-5.25522
2868.000	0.43889	-4.49076	-0.11664	-5.18025
2869.000	0.47052	-4.46503	-0.06722	-5.20788
2870.000	0.46261	-4.45515	-0.04349	-5.21775
2871.000	0.48831	-4.51445	-0.10478	-5.23549
2872.000	0.45075	-4.47295	-0.06722	-5.14079
2873.000	0.41516	-4.50263	-0.07710	-5.21380
2874.000	0.45470	-4.45911	0.01582	-5.25918
2875.000	0.45272	-4.49866	-0.02175	-5.16447
2876.000	0.42702	-4.44528	-0.13839	-5.21970
2877.000	0.46656	-4.46899	0.00791	-5.17631
2878.000	0.42307	-4.48681	-0.02966	-5.18815
2879.000	0.50215	-4.49862	-0.04745	-5.15066
2880.000	0.44284	-4.48878	-0.05140	-5.15855
2881.000	0.45470	-4.46702	0.00198	-5.13882
2882.000	0.40528	-4.50264	-0.06920	-5.17828
2883.000	0.41714	-4.47100	-0.10874	-5.15262
2884.000	0.40528	-4.48682	-0.09490	-5.24141
2885.000	0.46854	-4.45910	-0.00593	-5.21972
2886.000	0.46854	-4.48678	-0.09687	-5.18222
2887.000	0.39539	-4.49473	-0.04152	-5.18026
2888.000	0.42505	-4.47890	0.05338	-5.18618
2889.000	0.44086	-4.50064	-0.03559	-5.14868
2890.000	0.48435	-4.46898	-0.06129	-5.24142
2891.000	0.48633	-4.46700	-0.01582	-5.15263
2892.000	0.46459	-4.49272	-0.04547	-5.18815
2893.000	0.43691	-4.48087	0.00198	-5.22367
2894.000	0.43691	-4.47494	-0.04943	-5.19012
2895.000	0.44679	-4.47296	-0.07513	-5.22169
2896.000	0.42109	-4.46902	-0.08897	-5.18420
2897.000	0.49424	-4.43536	-0.07513	-5.15065
2898.000	0.40528	-4.50264	-0.01779	-5.20394
2899.000	0.47645	-4.53818	-0.02570	-5.16842
2900.000	0.44877	-4.50064	-0.00395	-5.17828
2901.000	0.46261	-4.48876	-0.02175	-5.25523
2902.000	0.42900	-4.49076	0.02372	-5.18618
2903.000	0.44482	-4.51052	0.04152	-5.26509
2904.000	0.45470	-4.44329	-0.01779	-5.18026
2905.000	0.40133	-4.49275	0.01977	-5.20394
2906.000	0.45470	-4.45120	-0.08699	-5.13684
2907.000	0.43098	-4.46901	-0.03559	-5.21775
2908.000	0.41912	-4.49077	-0.03756	-5.13882
2909.000	0.44482	-4.49471	-0.04547	-5.15658
2910.000	0.43296	-4.50064	-0.11269	-5.20787
2911.000	0.40726	-4.46309	-0.08897	-5.14276
2912.000	0.42702	-4.49274	-0.02768	-5.10329
2913.000	0.42307	-4.43935	0.00395	-5.11316
2914.000	0.44877	-4.50854	-0.06524	-5.17828
2915.000	0.44679	-4.51448	-0.03954	-5.14671
2916.000	0.44679	-4.45911	-0.05931	-5.23550
2917.000	0.41516	-4.49472	-0.02372	-5.16842
2918.000	0.47249	-4.47096	0.05140	-5.23156
2919.000	0.46459	-4.49074	0.00593	-5.16053
2920.000	0.44877	-4.50261	-0.04943	-5.16842
2921.000	0.49028	-4.48677	-0.02966	-5.18223
2922.000	0.50808	-4.47687	-0.00791	-5.22367
2923.000	0.47645	-4.45119	-0.12060	-5.17433
2924.000	0.46656	-4.49272	-0.14037	-5.19011
2925.000	0.48831	-4.46304	-0.08106	-5.20985
2926.000	0.42702	-4.52240	-0.08303	-5.17039
2927.000	0.41714	-4.47297	-0.05338	-5.17434
2928.000	0.41912	-4.48088	-0.00198	-5.20196
2929.000	0.44284	-4.45318	-0.06129	-5.19604
2930.000	0.46261	-4.46306	-0.07908	-5.25523
2931.000	0.47447	-4.49469	0.03559	-5.17236
2932.000	0.48435	-4.45514	-0.06524	-5.17433
2933.000	0.49226	-4.51840	-0.01186	-5.15855
2934.000	0.44877	-4.48680	0.02175	-5.18026
2935.000	0.44482	-4.48680	0.01582	-5.20591
2936.000	0.50412	-4.44128	-0.04745	-5.09342
2937.000	0.46656	-4.43933	-0.03756	-5.21972
2938.000	0.46656	-4.47888	0.05140	-5.24931
2939.000	0.41121	-4.45914	-0.03559	-5.17236
2940.000	0.45865	-4.48877	-0.04547	-5.18618
2941.000	0.46063	-4.49470	-0.04349	-5.13487
2942.000	0.45668	-4.46702	-0.03756	-5.24734
2943.000	0.48040	-4.47293	0.00198	-5.22958
2944.000	0.43889	-4.42748	-0.04349	-5.28285
2945.000	0.48040	-4.47689	-0.06920	-5.17828
2946.000	0.48435	-4.41954	-0.02372	-5.18815
2947.000	0.46261	-4.47295	0.00198	-5.22958
2948.000	0.47447	-4.46305	-0.05733	-5.20196
2949.000	0.44679	-4.45120	0.08106	-5.24339
2950.000	0.48040	-4.46503	-0.03756	-5.16842
2951.000	0.47645	-4.45514	-0.02570	-5.16644
2952.000	0.43296	-4.44330	0.05931	-5.20591
2953.000	0.46854	-4.48481	-0.04547	-5.17434
2954.000	0.46063	-4.47690	0.01384	-5.18815
2955.000	0.50017	-4.48478	0.00000	-5.16447
2956.000	0.48435	-4.46700	-0.04152	-5.21577
2957.000	0.43889	-4.49076	-0.01977	-5.23550
2958.000	0.44086	-4.47691	-0.00198	-5.22564
2959.000	0.42900	-4.51449	-0.03559	-5.21972
2960.000	0.47052	-4.49864	-0.07908	-5.18420
2961.000	0.45272	-4.47295	-0.05931	-5.21972
2962.000	0.41714	-4.46506	-0.00989	-5.19802
2963.000	0.51005	-4.46303	-0.02570	-5.23353
2964.000	0.43296	-4.47692	0.01186	-5.21183
2965.000	0.47842	-4.42350	-0.04349	-5.25523
2966.000	0.44679	-4.42748	0.00791	-5.18223
2967.000	0.43889	-4.46307	-0.02570	-5.21775
2968.000	0.47052	-4.43735	-0.01779	-5.19210
2969.000	0.46656	-4.46306	-0.00791	-5.16447
2970.000	0.48238	-4.45316	-0.03954	-5.21775
2971.000	0.47645	-4.43932	-0.04943	-5.23353
2972.000	0.42900	-4.48285	-0.00791	-5.20985
2973.000	0.48831	-4.45711	-0.00791	-5.19012
2974.000	0.47052	-4.46108	-0.03954	-5.20196
2975.000	0.46656	-4.46306	0.01582	-5.27890
2976.000	0.44482	-4.49866	-0.00593	-5.23550
2977.000	0.47842	-4.52434	-0.01384	-5.18618
2978.000	0.42900	-4.44726	-0.02175	-5.15460
2979.000	0.47842	-4.49073	0.01977	-5.28285
2980.000	0.43889	-4.49471	0.02372	-5.30652
2981.000	0.45272	-4.51645	0.01977	-5.25129
2982.000	0.49226	-4.50061	0.02175	-5.22169
2983.000	0.45470	-4.47097	0.05536	-5.27890
2984.000	0.44482	-4.50064	0.01384	-5.28285
2985.000	0.49226	-4.47688	0.11664	-5.20590
2986.000	0.48435	-4.43338	0.02372	-5.29666
2987.000	0.49028	-4.45711	-0.00791	-5.19210
2988.000	0.50808	-4.45710	0.00989	-5.20196
2989.000	0.44877	-4.45911	-0.04745	-5.22169
2990.000	0.48633	-4.42350	-0.06722	-5.18617
2991.000	0.48238	-4.47886	0.05338	-5.16052
2992.000	0.53180	-4.41951	0.02175	-5.20591
2993.000	0.50017	-4.44524	0.05338	-5.27693
2994.000	0.50610	-4.42546	0.00593	-5.24537
2995.000	0.53575	-4.44521	0.06129	-5.25523
2996.000	0.54168	-4.44125	-0.05733	-5.25128
2997.000	0.52389	-4.41952	0.00198	-5.26904
2998.000	0.54761	-4.43927	0.01779	-5.21183
2999.000	0.54168	-4.42148	0.02570	-5.21577
3000.000	0.53575	-4.36413	-0.03559	-5.24339
3001.000	0.49028	-4.45513	0.00791	-5.25129
3002.000	0.48435	-4.42943	0.03361	-5.27693
3003.000	0.51598	-4.43139	0.10478	-5.29073
3004.000	0.44679	-4.44923	-0.00593	-5.24537
3005.000	0.47249	-4.41362	-0.02175	-5.27496
3006.000	0.50412	-4.42546	0.05733	-5.23945
3007.000	0.50610	-4.40766	0.09687	-5.24141
3008.000	0.49622	-4.40767	0.02570	-5.21577
3009.000	0.53378	-4.42544	0.03954	-5.26115
3010.000	0.48831	-4.36614	0.00989	-5.30455
3011.000	0.53378	-4.42149	0.02372	-5.26509
3012.000	0.52784	-4.44324	0.06129	-5.31243
3013.000	0.50215	-4.48083	0.07117	-5.28679
3014.000	0.48831	-4.41756	0.05140	-5.28087
3015.000	0.51598	-4.44127	-0.00989	-5.28482
3016.000	0.48238	-4.46502	-0.04547	-5.29468
3017.000	0.47842	-4.47887	-0.03559	-5.23353
3018.000	0.51796	-4.46500	0.07513	-5.32624
3019.000	0.56145	-4.42740	-0.05140	-5.27890
3020.000	0.53575	-4.45708	0.03163	-5.25918
3021.000	0.51598	-4.45314	0.01186	-5.31244
3022.000	0.51796	-4.49466	0.00000	-5.29271
3023.000	0.52982	-4.43731	-0.05536	-5.25917
3024.000	0.50808	-4.48873	-0.09687	-5.28284
3025.000	0.52191	-4.44720	-0.05338	-5.27101
3026.000	0.46459	-4.44328	-0.08897	-5.24142
3027.000	0.49028	-4.44920	-0.04745	-5.22761
3028.000	0.49819	-4.49467	-0.06524	-5.20393
3029.000	0.53971	-4.42741	-0.04349	-5.31638
3030.000	0.44284	-4.43737	-0.07908	-5.19801
3031.000	0.47447	-4.53818	0.02768	-5.26904
3032.000	0.47842	-4.50852	-0.04349	-5.26707
3033.000	0.45865	-4.48086	-0.02966	-5.30652
3034.000	0.49226	-4.50654	-0.02768	-5.26904
3035.000	0.48435	-4.47886	-0.01384	-5.23945
3036.000	0.46656	-4.45712	-0.00791	-5.29074
3037.000	0.48633	-4.46107	-0.03954	-5.21380
3038.000	0.49424	-4.50456	-0.01977	-5.24931
3039.000	0.40726	-4.47693	-0.00198	-5.26904
3040.000	0.48831	-4.44722	-0.01977	-5.22564
3041.000	0.46854	-4.49271	-0.06722	-5.25720
3042.000	0.46063	-4.50854	-0.07908	-5.30849
3043.000	0.45470	-4.46109	0.00791	-5.19012
3044.000	0.46854	-4.47294	-0.04745	-5.23945
3045.000	0.44679	-4.43341	-0.03361	-5.16644
3046.000	0.46854	-4.50062	0.04943	-5.24339
3047.000	0.45865	-4.50261	-0.03163	-5.26115
3048.000	0.44679	-4.50261	0.01977	-5.27496
3049.000	0.47249	-4.50853	-0.01977	-5.21380
3050.000	0.46854	-4.50260	0.00791	-5.24931
3051.000	0.43691	-4.47692	0.00198	-5.28088
3052.000	0.44679	-4.51052	-0.10083	-5.25522
3053.000	0.45470	-4.49865	0.02966	-5.23156
3054.000	0.47249	-4.45119	-0.05338	-5.27101
3055.000	0.42109	-4.48483	-0.01384	-5.27496
3056.000	0.43296	-4.49076	0.01977	-5.28877
3057.000	0.48831	-4.49468	0.00395	-5.21380
3058.000	0.48040	-4.48678	-0.00791	-5.24931
3059.000	0.42307	-4.53821	0.01977	-5.29074
3060.000	0.43296	-4.51844	0.00989	-5.25129
3061.000	0.43889	-4.49076	0.02372	-5.30652
3062.000	0.42900	-4.46901	-0.04745	-5.27101
3063.000	0.44482	-4.54018	-0.07908	-5.28284
3064.000	0.41516	-4.47693	-0.02768	-5.31835
3065.000	0.40133	-4.52834	0.05536	-5.33018
3066.000	0.41121	-4.50066	-0.05733	-5.24931
3067.000	0.39935	-4.48485	-0.04943	-5.22564
3068.000	0.42702	-4.48681	0.04547	-5.25720
3069.000	0.42307	-4.40771	0.07315	-5.26904
3070.000	0.45075	-4.43341	0.03559	-5.26312
3071.000	0.37365	-4.48486	0.00791	-5.25523
3072.000	0.40726	-4.44530	0.00791	-5.23156
3073.000	0.41912	-4.43738	-0.01186	-5.21380
3074.000	0.39539	-4.42750	-0.06326	-5.14276
3075.000	0.37760	-4.44136	-0.00593	-5.16053
3076.000	0.41319	-4.37014	0.05931	-5.20196
3077.000	0.38353	-4.37214	-0.00593	-5.15855
3078.000	0.36376	-4.39390	-0.05338	-5.12500
3079.000	0.38156	-4.28510	0.00395	-5.06974
3080.000	0.43889	-4.23165	0.06722	-5.07171
3081.000	0.34993	-4.22379	0.00989	-4.95918
3082.000	0.36969	-4.16243	0.08106	-5.01841
3083.000	0.40330	-4.16638	0.05338	-5.03026
3084.000	0.40528	-4.12086	0.03756	-4.91969
3085.000	0.43098	-4.01990	0.10280	-4.86043
3086.000	0.50215	-3.98620	0.11664	-4.83673
3087.000	0.57331	-3.89310	0.22340	-4.79917
3088.000	0.70180	-3.87320	0.33213	-4.71417
3089.000	0.73343	-3.81772	0.41319	-4.61531
3090.000	0.88167	-3.72648	0.50412	-4.55398
3091.000	0.92516	-3.72049	0.75517	-4.35208
3092.000	1.04769	-3.54800	0.85598	-4.21350
3093.000	1.24334	-3.36147	0.94097	-4.10853
3094.000	1.40339	-3.08370	1.16429	-3.94594
3095.000	1.46464	-2.94280	1.26508	-3.76562
3096.000	1.57132	-2.72047	1.44686	-3.58114
3097.000	1.64046	-2.53582	1.51008	-3.40866
3098.000	1.77281	-2.33319	1.65034	-3.18446
3099.000	1.92685	-2.11659	1.72145	-2.95434
3100.000	1.97424	-1.89213	1.69380	-2.85917
3101.000	2.00979	-1.70737	1.86168	-2.71212
3102.000	2.07100	-1.63579	1.95450	-2.56515
3103.000	2.15984	-1.43903	2.07297	-2.34270
3104.000	2.26447	-1.34356	2.15589	-2.20761
3105.000	2.37894	-1.21432	2.22893	-2.10824
3106.000	2.48551	-1.08905	2.29013	-1.93344
3107.000	2.56838	-0.93600	2.30986	-1.79044
3108.000	2.64927	-0.79686	2.36513	-1.63745
3109.000	2.60784	-0.68760	2.35723	-1.46267
3110.000	2.61771	-0.53657	2.36118	-1.30374
3111.000	2.57233	-0.43325	2.23683	-1.14092
3112.000	2.45986	-0.26634	2.21117	-0.96208
3113.000	2.35723	-0.11927	2.12036	-0.93829
3114.000	2.14405	-0.04573	1.93672	-0.82509
3115.000	2.02953	0.08350	1.86168	-0.70982
3116.000	1.88933	0.21474	1.74713	-0.56273
3117.000	1.80836	0.34201	1.61478	-0.52897
3118.000	1.69380	0.41361	1.49032	-0.33013
3119.000	1.60688	0.47925	1.49625	-0.26649
3120.000	1.49428	0.55485	1.46464	-0.06762
3121.000	1.54959	0.65426	1.46266	0.02784
3122.000	1.50810	0.67813	1.38363	0.13922
3123.000	1.60688	0.79143	1.54762	0.23864
3124.000	1.68787	0.85105	1.59898	0.35994
3125.000	1.77676	0.96830	1.70170	0.41361
3126.000	1.92093	1.01195	1.86563	0.49509
3127.000	2.03546	1.10529	1.89920	0.59648
3128.000	2.17563	1.23635	2.01769	0.73957
3129.000	2.25065	1.34755	1.99991	0.81909
3130.000	2.31381	1.45477	1.99794	0.87674
3131.000	2.42236	1.60561	2.00979	1.01190
3132.000	2.44012	1.69496	2.05520	1.14304
3133.000	2.45986	1.77436	2.03348	1.22652
3134.000	2.52300	1.96885	2.00781	1.32392
3135.000	2.45196	1.97094	1.92290	1.42732
3136.000	2.55062	2.09584	1.94462	1.48691
3137.000	2.53484	2.17526	2.00189	1.60805
3138.000	2.53287	2.24670	1.97622	1.78885
3139.000	2.51905	2.39158	1.95252	1.81072
3140.000	2.51511	2.51459	1.88538	1.97565
3141.000	2.47959	2.57218	1.87156	2.10276
3142.000	2.54273	2.68907	1.87551	2.20799
3143.000	2.49340	2.79625	1.91303	2.21191
3144.000	2.50524	2.87752	1.88143	2.29732
3145.000	2.46380	2.92320	1.83206	2.40259
3146.000	2.41447	2.97684	1.81231	2.41254
3147.000	2.38881	2.99870	1.80243	2.52370
3148.000	2.39868	3.09382	1.71355	2.59130
3149.000	2.37105	3.04829	1.67404	2.58341
3150.000	2.34144	3.10782	1.72738	2.57143
3151.000	2.31184	3.02860	1.70762	2.55955
3152.000	2.28026	2.97117	1.67207	2.53181
3153.000	2.25262	2.95537	1.66219	2.47228
3154.000	2.24473	2.87806	1.62466	2.43064
3155.000	2.22893	2.89990	1.63256	2.49018
3156.000	2.26841	2.80067	1.73133	2.37096
3157.000	2.24867	2.88797	1.63651	2.53781
3158.000	2.27039	2.88792	1.66417	2.48419
3159.000	2.28223	2.92359	1.70762	2.45436
3160.000	2.22499	2.92767	1.70960	2.48612
3161.000	2.22696	3.00102	1.69577	2.55758
3162.000	2.22499	3.02481	1.72540	2.50793
3163.000	2.17958	3.06059	1.69972	2.57742
3164.000	2.23683	3.07038	1.63454	2.55369
3165.000	2.18748	3.08238	1.75898	2.56345
3166.000	2.20919	3.11801	1.61478	2.61326
3167.000	2.17169	3.15377	1.62269	2.57554
3168.000	2.18550	3.11013	1.68392	2.59927
3169.000	2.20722	3.09820	1.62664	2.58546
3170.000	2.23288	3.10409	1.69182	2.55759
3171.000	2.25854	3.06241	1.63651	2.64895
3172.000	2.24867	3.02477	1.63454	2.58942
3173.000	2.27236	3.03265	1.62071	2.55570
3174.000	2.31579	3.01868	1.64639	2.50208
3175.000	2.30394	3.03258	1.62269	2.55172
3176.000	2.31579	3.05436	1.64441	2.54971
3177.000	2.29605	3.02070	1.64244	2.51200
3178.000	2.29407	3.04846	1.67800	2.51990
3179.000	2.33947	3.08602	1.63059	2.48820
3180.000	2.30197	2.98501	1.66417	2.50007
3181.000	2.30986	3.13960	1.70170	2.59727
3182.000	2.29210	3.06036	1.62861	2.57355
3183.000	2.29210	3.07819	1.62466	2.61126
3184.000	2.28026	3.08813	1.74713	2.59919
3185.000	2.23091	3.09815	1.59700	2.50809
3186.000	2.25065	3.09018	1.69972	2.57346
3187.000	2.28618	3.10199	1.64441	2.54971
3188.000	2.28420	3.14164	1.73528	2.63294
3189.000	2.24670	3.06640	1.62269	2.58943
3190.000	2.26447	3.10402	1.67602	2.65286
3191.000	2.22104	3.09420	1.66614	2.64296
3192.000	2.23880	3.07633	1.72343	2.62899
3193.000	2.20722	3.10612	1.65232	2.65290
3194.000	2.22301	3.07636	1.67800	2.58539
3195.000	2.21906	3.06249	1.62664	2.58149
3196.000	2.26052	3.12187	1.60886	2.61922
3197.000	2.21709	3.07042	1.58713	2.61528
3198.000	2.22104	3.05258	1.70565	2.65878
3199.000	2.20525	3.05657	1.65429	2.52985
3200.000	2.20327	3.04468	1.61873	2.54776
3201.000	2.21709	3.00302	1.61873	2.56959
3202.000	2.22893	2.94749	1.67009	2.57746
3203.000	2.25262	3.06639	1.60293	2.58549
3204.000	2.26644	3.02869	1.70367	2.55956
3205.000	2.24670	3.01089	1.67602	2.56952
3206.000	2.29407	3.01278	1.61478	2.50807
3207.000	2.25065	3.03666	1.62269	2.54775
3208.000	2.27828	3.01083	1.72343	2.53969
3209.000	2.23486	2.99506	1.57725	2.46246
3210.000	2.23683	3.00695	1.57725	2.52201
3211.000	2.18550	3.03084	1.61281	2.50609
3212.000	2.20722	3.03476	1.67009	2.43456
3213.000	2.22301	3.02680	1.66219	2.52190
3214.000	2.21314	3.03872	1.68985	2.52782
3215.000	2.21512	2.99113	1.65232	2.49810
3216.000	2.22893	3.00498	1.70367	2.54963
3217.000	2.18550	3.01696	1.66219	2.49015
3218.000	2.23091	2.99705	1.68195	2.49409
3219.000	2.24275	3.00694	1.72738	2.45632
3220.000	2.25657	3.01286	1.70367	2.50399
3221.000	2.25065	2.98710	1.74910	2.45431
3222.000	2.27039	3.02076	1.63059	2.46240
3223.000	2.24867	2.97322	1.68590	2.50798
3224.000	2.26052	3.00690	1.64639	2.45047
3225.000	2.27039	2.98111	1.62861	2.46240
3226.000	2.21314	2.93364	1.66022	2.52389
3227.000	2.25657	3.00096	1.72145	2.49007
3228.000	2.29013	2.98900	1.72145	2.46228
3229.000	2.27039	2.97318	1.65232	2.34525
3230.000	2.22301	2.98517	1.65429	2.38694
3231.000	2.24078	2.99108	1.70565	2.48612
3232.000	2.26447	2.99698	1.66022	2.42465
3233.000	2.19735	3.00108	1.59503	2.44060
3234.000	2.17169	2.98725	1.65232	2.48619
3235.000	2.16181	2.96546	1.66812	2.43655
3236.000	2.18748	2.99515	1.65627	2.51993
3237.000	2.25657	2.99700	1.73923	2.45829
3238.000	2.20327	3.00702	1.61083	2.48823
3239.000	2.23091	2.99903	1.61478	2.42669
3240.000	2.19143	2.99316	1.56935	2.44460
3241.000	2.21314	2.96735	1.57330	2.44857
3242.000	2.21314	3.02880	1.59898	2.46839
3243.000	2.22893	2.97326	1.64639	2.47032
3244.000	2.18353	3.01895	1.68590	2.45240
3245.000	2.21512	2.96932	1.62071	2.48424
3246.000	2.19932	2.98522	1.66417	2.43457
3247.000	2.22696	2.98714	1.65232	2.43855
3248.000	2.17169	2.97734	1.63059	2.42270
3249.000	2.21512	3.00699	1.67009	2.45044
3250.000	2.23683	3.02281	1.68590	2.44049
3251.000	2.17958	2.97931	1.67997	2.40676
3252.000	2.25262	2.94546	1.68985	2.40476
3253.000	2.21117	3.06251	1.61281	2.44852
3254.000	2.23880	2.99505	1.68195	2.39881
3255.000	2.22499	2.96930	1.70762	2.45635
3256.000	2.20722	3.01097	1.62861	2.42270
3257.000	2.21709	2.97329	1.70960	2.41863
3258.000	2.15787	2.93177	1.66219	2.42861
3259.000	2.25657	2.98708	1.69182	2.45240
3260.000	2.24275	2.93953	1.66417	2.41075
3261.000	2.23091	2.91774	1.71158	2.47619
3262.000	2.22893	2.90783	1.65824	2.43656
3263.000	2.18353	2.94163	1.64837	2.38496
3264.000	2.18550	2.94559	1.70565	2.42856
3265.000	2.22499	2.94155	1.68392	2.46035
3266.000	2.27828	2.95334	1.73725	2.45234
3267.000	2.21512	2.98717	1.65429	2.46832
3268.000	2.24275	2.96729	1.72343	2.45633
3269.000	2.22301	2.97724	1.69380	2.44048
3270.000	2.24867	2.92564	1.62071	2.45844
3271.000	2.22499	2.95146	1.70170	2.40474
3272.000	2.21512	2.92174	1.70170	2.45238
3273.000	2.17169	2.91389	1.67009	2.46036
3274.000	2.21512	2.92769	1.68590	2.46630
3275.000	2.17366	2.97337	1.76095	2.42650
3276.000	2.17761	2.89802	1.64837	2.47428
3277.000	2.18156	2.89801	1.75108	2.45629
3278.000	2.18748	2.87222	1.68195	2.41866
3279.000	2.18945	2.89403	1.67009	2.44051
3280.000	2.17563	2.87819	1.79256	2.42249
3281.000	2.18156	2.85438	1.77083	2.47810
3282.000	2.18748	2.90395	1.68985	2.38888
3283.000	2.18353	2.89999	1.66022	2.47625
3284.000	2.19538	2.87617	1.68195	2.37301
3285.000	2.20525	2.90193	1.66219	2.43258
3286.000	2.20525	2.89003	1.67800	2.39683
3287.000	2.22893	2.93163	1.63849	2.47430
3288.000	2.19735	2.90591	1.65627	2.40281
3289.000	2.21709	2.90389	1.67800	2.47226
3290.000	2.16576	2.88614	1.79058	2.40463
3291.000	2.19932	2.89203	1.71553	2.46229
3292.000	2.17958	2.88612	1.66417	2.46831
3293.000	2.19932	2.85832	1.65429	2.43656
3294.000	2.21117	2.87812	1.70367	2.45437
3295.000	2.23091	2.84834	1.67997	2.44447
3296.000	2.21512	2.88803	1.64837	2.47627
3297.000	2.22696	2.88801	1.71355	2.42656
3298.000	2.23486	2.88601	1.73725	2.42058
3299.000	2.26249	2.88794	1.69380	2.44247
3300.000	2.22696	2.98318	1.69775	2.41864
3301.000	2.22696	2.92568	1.70367	2.33923
3302.000	2.21117	2.91976	1.68590	2.41469
3303.000	2.21906	2.91578	1.71750	2.43847
3304.000	2.23288	2.89196	1.69380	2.38093
3305.000	2.25460	2.91571	1.59503	2.39495
3306.000	2.20130	2.89996	1.71948	2.41465
3307.000	2.22104	2.84439	1.66812	2.47228
3308.000	2.19538	2.90790	1.70170	2.47025
3309.000	2.21512	2.88407	1.65034	2.46833
3310.000	2.22104	2.92173	1.68787	2.44843
3311.000	2.23880	2.88798	1.73133	2.43051
3312.000	2.25065	2.90779	1.77281	2.47214
3313.000	2.23880	2.88600	1.64441	2.44452
3314.000	2.23288	2.87412	1.70565	2.39481
3315.000	2.21117	2.88407	1.71158	2.42657
3316.000	2.24670	2.91573	1.68590	2.43652
3317.000	2.21117	2.85433	1.73330	2.43051
3318.000	2.17169	2.85440	1.73133	2.35508
3319.000	2.22499	2.84240	1.71948	2.45236
3320.000	2.21117	2.87218	1.64441	2.41871
3321.000	2.18748	2.91585	1.67207	2.39883
3322.000	2.23683	2.87411	1.62071	2.43462
3323.000	2.22893	2.90387	1.68787	2.45836
3324.000	2.22499	2.90982	1.63849	2.40482
3325.000	2.22696	2.90387	1.67800	2.45837
3326.000	2.19143	2.86825	1.63059	2.48423
3327.000	2.17761	2.89207	1.68392	2.37102
3328.000	2.20722	2.86029	1.67009	2.41471
3329.000	2.24670	2.91375	1.71948	2.43450
3330.000	2.24275	2.84039	1.69775	2.38688
3331.000	2.23683	2.88601	1.69972	2.37497
3332.000	2.26841	2.87206	1.62861	2.40086
3333.000	2.27433	2.88395	1.67602	2.47822
3334.000	2.26447	2.88992	1.67009	2.44845
3335.000	2.21906	2.88604	1.66022	2.37899
3336.000	2.21709	2.91777	1.65232	2.36907
3337.000	2.26447	2.93949	1.72540	2.39479
3338.000	2.23486	2.86023	1.62861	2.43659
3339.000	2.28026	2.92954	1.69182	2.39880
3340.000	2.22301	2.87017	1.71158	2.37098
3341.000	2.24473	2.86220	1.72145	2.36502
3342.000	2.28420	2.90376	1.70565	2.34916
3343.000	2.28618	2.92358	1.70170	2.34717
3344.000	2.27631	2.88989	1.68590	2.26977
3345.000	2.25065	2.92762	1.75898	2.36299
3346.000	2.23683	2.84833	1.71553	2.37297
3347.000	2.25657	2.88993	1.61676	2.42867
3348.000	2.21117	2.89200	1.67009	2.35515
3349.000	2.23288	2.93955	1.72738	2.37494
3350.000	2.27631	2.89188	1.70170	2.37497
3351.000	2.23880	2.85824	1.69577	2.41071
3352.000	2.26447	2.94345	1.74515	2.38285
3353.000	2.23486	2.89394	1.65429	2.41671
3354.000	2.25460	2.90183	1.66812	2.33332
3355.000	2.24867	2.88797	1.67997	2.41668
3356.000	2.22893	2.86223	1.68590	2.43454
3357.000	2.26841	2.85025	1.78071	2.37884
3358.000	2.23486	2.88204	1.71355	2.26378
3359.000	2.25657	2.90976	1.78861	2.39074
3360.000	2.27236	2.91766	1.70565	2.34518
3361.000	2.22893	2.87214	1.78071	2.39472
3362.000	2.25460	2.88002	1.78268	2.36693
3363.000	2.25657	2.92364	1.73923	2.37294
3364.000	2.26052	2.88199	1.74713	2.36896
3365.000	2.24078	2.90583	1.74318	2.30940
3366.000	2.23091	2.84438	1.76886	2.42054
3367.000	2.22104	2.88207	1.75503	2.35306
3368.000	2.24473	2.86418	1.73133	2.32530
3369.000	2.18353	2.85835	1.72343	2.41663
3370.000	2.21117	2.86424	1.73528	2.36699
3371.000	2.22104	2.90983	1.73725	2.34713
3372.000	2.18748	2.87024	1.74515	2.35705
3373.000	2.15194	2.80883	1.76095	2.31931
3374.000	2.23486	2.88799	1.70170	2.37695
3375.000	2.17563	2.86431	1.68985	2.36109
3376.000	2.22499	2.86620	1.71948	2.38090
3377.000	2.16971	2.84251	1.77083	2.29944
3378.000	2.16971	2.86036	1.78663	2.35699
3379.000	2.17169	2.81474	1.85378	2.38867
3380.000	2.20525	2.84839	1.75700	2.36696
3381.000	2.15589	2.84055	1.70170	2.31343
3382.000	2.19735	2.85435	1.69182	2.27770
3383.000	2.16971	2.89803	1.82613	2.25173
3384.000	2.18748	2.87222	1.78663	2.29545
3385.000	2.14997	2.84651	1.78663	2.29347
3386.000	2.17958	2.86629	1.75898	2.29747
3387.000	2.19538	2.86626	1.70367	2.27570
3388.000	2.19932	2.84642	1.76886	2.32525
3389.000	2.16971	2.88812	1.80836	2.36888
3390.000	2.17366	2.85043	1.83008	2.34900
3391.000	2.21906	2.85630	1.77478	2.27164
3392.000	2.21906	2.84043	1.77873	2.28554
3393.000	2.18353	2.88214	1.77083	2.36694
3394.000	2.17366	2.85043	1.75700	2.37291
3395.000	2.18748	2.86032	1.80441	2.27161
3396.000	2.18945	2.87023	1.77281	2.35900
3397.000	2.20327	2.82856	1.77873	2.33715
3398.000	2.22301	2.85629	1.76491	2.31136
3399.000	2.18353	2.80679	1.68787	2.34521
3400.000	2.18748	2.89602	1.73528	2.33721
3401.000	2.13615	2.88025	1.70960	2.31937
3402.000	2.17761	2.80481	1.69972	2.32335
3403.000	2.22301	2.88207	1.73528	2.29155
3404.000	2.16379	2.86830	1.84786	2.34103
3405.000	2.19340	2.87419	1.75305	2.33917
3406.000	2.17169	2.87027	1.70367	2.34916
3407.000	2.19932	2.87815	1.79848	2.31331
3408.000	2.22499	2.89198	1.75503	2.30740
3409.000	2.23288	2.87808	1.77281	2.26966
3410.000	2.23288	2.83247	1.82811	2.31525
3411.000	2.22104	2.86224	1.75305	2.38284
3412.000	2.23683	2.84833	1.70762	2.41863
3413.000	2.22499	2.87017	1.79651	2.38676
3414.000	2.21117	2.85036	1.74120	2.28558
3415.000	2.22499	2.87611	1.76688	2.36099
3416.000	2.22893	2.88404	1.79651	2.31331
3417.000	2.25657	2.88993	1.75898	2.28159
3418.000	2.20327	2.88409	1.75108	2.31535
3419.000	2.16379	2.80682	1.74515	2.31337
3420.000	2.19143	2.82462	1.75108	2.36498
3421.000	2.15589	2.80485	1.75898	2.42651
3422.000	2.13220	2.81085	1.78663	2.31531
3423.000	2.12036	2.79699	1.70170	2.35909
3424.000	2.14800	2.83065	1.74713	2.39278
3425.000	2.16379	2.83260	1.75108	2.34711
3426.000	2.19143	2.77901	1.80638	2.35498
3427.000	2.19538	2.83849	1.74120	2.40469
3428.000	2.18156	2.87223	1.78268	2.35303
3429.000	2.20525	2.87417	1.77873	2.39075
3430.000	2.18550	2.84248	1.81231	2.37681
3431.000	2.22301	2.84439	1.78663	2.45823
3432.000	2.20130	2.85038	1.80243	2.39469
3433.000	2.20130	2.85831	1.81231	2.37681
3434.000	2.26249	2.88596	1.74318	2.35705
3435.000	2.22301	2.90190	1.83798	2.23781
3436.000	2.22104	2.88604	1.75108	2.40071
3437.000	2.26052	2.82449	1.76095	2.32129
3438.000	2.19932	2.82857	1.76491	2.29350
3439.000	2.20722	2.85632	1.80441	2.36491
3440.000	2.22893	2.82058	1.79058	2.30935
3441.000	2.24473	2.84237	1.76095	2.29350
3442.000	2.21117	2.86226	1.82021	2.26960
3443.000	2.26052	2.83044	1.80243	2.42049
3444.000	2.25065	2.85623	1.76293	2.32526
3445.000	2.26447	2.81456	1.85181	2.34103
3446.000	2.24473	2.86220	1.84193	2.40853
3447.000	2.21709	2.85432	1.73725	2.35706
3448.000	2.20722	2.79088	1.83403	2.31326
3449.000	2.20130	2.75519	1.81626	2.37284
3450.000	2.18156	2.84050	1.83798	2.39464
3451.000	2.19143	2.84048	1.84786	2.40058
3452.000	2.21512	2.82259	1.79651	2.37882
3453.000	2.14010	2.79497	1.85181	2.39661
3454.000	2.19932	2.80279	1.77676	2.40663
3455.000	2.17761	2.79490	1.79651	2.38477
3456.000	2.20130	2.80279	1.79058	2.35103
3457.000	2.24867	2.81063	1.82416	2.42047
3458.000	2.20919	2.77897	1.74120	2.35705
3459.000	2.21709	2.86027	1.79058	2.36890
3460.000	2.17761	2.81473	1.73725	2.42256
3461.000	2.18353	2.81274	1.84193	2.39464
3462.000	2.22499	2.79877	1.80441	2.38278
3463.000	2.18353	2.81274	1.78663	2.35501
3464.000	2.21117	2.77699	1.76095	2.35703
3465.000	2.23683	2.80669	1.77281	2.38282
3466.000	2.21512	2.79284	1.77281	2.37488
3467.000	2.23683	2.80074	1.79651	2.39668
3468.000	2.23486	2.81264	1.77083	2.34113
3469.000	2.22499	2.83051	1.87353	2.38864
3470.000	2.20722	2.79484	1.85576	2.36286
3471.000	2.23288	2.78686	1.74120	2.36102
3472.000	2.22104	2.78688	1.86958	2.38468
3473.000	2.24078	2.80271	1.79058	2.41456
3474.000	2.26249	2.81259	1.81231	2.37880
3475.000	2.21117	2.77302	1.77676	2.39869
3476.000	2.21709	2.81466	1.81033	2.38078
3477.000	2.23091	2.84438	1.76886	2.33121
3478.000	2.24670	2.82650	1.80243	2.37285
3479.000	2.24078	2.84237	1.82613	2.39466
3480.000	2.26249	2.82845	1.76688	2.36099
3481.000	2.21512	2.81466	1.83403	2.43236
3482.000	2.23880	2.82056	1.77873	2.42648
3483.000	2.25262	2.85227	1.80046	2.37683
3484.000	2.23288	2.81264	1.77083	2.38679
3485.000	2.28223	2.81850	1.75305	2.44041
3486.000	2.24867	2.78881	1.75108	2.38880
3487.000	2.25460	2.81260	1.88933	2.42236
3488.000	2.22696	2.82257	1.82613	2.36488
3489.000	2.22893	2.79480	1.83403	2.34701
3490.000	2.25460	2.80268	1.81033	2.36292
3491.000	2.25065	2.81261	1.76491	2.33717
3492.000	2.18945	2.81272	1.89328	2.39060
3493.000	2.25262	2.77691	1.77676	2.34311
3494.000	2.23091	2.78091	1.79058	2.31530
3495.000	2.21117	2.80277	1.86168	2.37079
3496.000	2.24473	2.81262	1.84983	2.39264
3497.000	2.25262	2.83640	1.87156	2.34894
3498.000	2.23486	2.81462	1.79058	2.37486
3499.000	2.25854	2.77491	1.82021	2.35894
3500.000	2.20919	2.80674	1.82613	2.40855
3501.000	2.19735	2.82857	1.78861	2.39471
3502.000	2.16971	2.77905	1.76293	2.39474
3503.000	2.24867	2.80468	1.79256	2.41257
3504.000	2.28026	2.84031	1.81231	2.42247
3505.000	2.20722	2.78889	1.78663	2.42845
3506.000	2.25854	2.84234	1.76491	2.44238
3507.000	2.24078	2.78090	1.82811	2.43237
3508.000	2.22301	2.79680	1.81033	2.47804
3509.000	2.25065	2.81062	1.78071	2.37884
3510.000	2.25262	2.81459	1.79453	2.43440
3511.000	2.22499	2.81266	1.87946	2.44619
3512.000	2.23683	2.76107	1.81626	2.39864
3513.000	2.24275	2.82452	1.87156	2.44223
3514.000	2.23486	2.78686	1.85773	2.41050
3515.000	2.22893	2.81067	1.74515	2.34911
3516.000	2.21117	2.80277	1.84391	2.36089
3517.000	2.23486	2.80074	1.79453	2.36294
3518.000	2.22301	2.80275	1.83601	2.32715
3519.000	2.22696	2.82455	1.78268	2.36097
3520.000	2.24275	2.80866	1.87551	2.32710
3521.000	2.22499	2.82059	1.81033	2.36292
3522.000	2.27039	2.79076	1.78466	2.39074
3523.000	2.25460	2.79475	1.87353	2.42238
3524.000	2.22499	2.82059	1.84983	2.36485
3525.000	2.27828	2.79471	1.76688	2.39474
3526.000	2.23486	2.81066	1.89130	2.40251
3527.000	2.29407	2.75501	1.81231	2.35895
3528.000	2.24473	2.79080	1.85378	2.41249
3529.000	2.24473	2.79675	1.88341	2.37076
3530.000	2.19735	2.76908	1.83798	2.28745
3531.000	2.25657	2.71740	1.92488	2.36277
3532.000	2.25065	2.81657	1.92290	2.36872
3533.000	2.24078	2.79478	1.83996	2.41250
3534.000	2.24473	2.80865	1.83601	2.45816
3535.000	2.23683	2.75909	1.84588	2.41250
3536.000	2.26644	2.78283	1.85378	2.36088
3537.000	2.23486	2.74521	1.88933	2.43030
3538.000	2.21314	2.78095	1.89328	2.36082
3539.000	2.24670	2.78882	1.89130	2.37671
3540.000	2.25262	2.81260	1.85971	2.38866
3541.000	2.24275	2.77296	1.85181	2.41249
3542.000	2.23683	2.81660	1.80243	2.43836
3543.000	2.26644	2.79076	1.84391	2.41250
3544.000	2.21709	2.73532	1.87551	2.40253
3545.000	2.22696	2.81067	1.82416	2.41253
3546.000	2.23486	2.74322	1.87156	2.50773
3547.000	2.20722	2.80476	1.81033	2.45026
3548.000	2.19735	2.75123	1.83798	2.43831
3549.000	2.23683	2.78090	1.86168	2.43431
3550.000	2.22104	2.76903	1.76688	2.43047
3551.000	2.26841	2.77886	1.84786	2.47601
3552.000	2.23288	2.75711	1.83601	2.42442
3553.000	2.23880	2.76702	1.86366	2.31124
3554.000	2.21512	2.76111	1.85378	2.40653
3555.000	2.22696	2.74324	1.79256	2.49196
3556.000	2.20327	2.80477	1.91698	2.40247
3557.000	2.19932	2.77899	1.85576	2.40851
3558.000	2.22104	2.74722	1.88341	2.41046
3559.000	2.21906	2.77102	1.86563	2.40056
3560.000	2.18748	2.69174	1.89525	2.43426
3561.000	2.23486	2.81264	1.88341	2.45809
3562.000	2.22893	2.76704	1.88341	2.43229
3563.000	2.19932	2.74527	1.92093	2.40247
3564.000	2.22499	2.77696	1.85181	2.44028
3565.000	2.20327	2.72742	1.88143	2.43031
3566.000	2.23486	2.75314	2.03546	2.42016
3567.000	2.22301	2.78490	1.86366	2.44621
3568.000	2.22104	2.71945	1.90118	2.51959
3569.000	2.22301	2.74126	2.02756	2.42216
3570.000	2.23880	2.72338	1.90315	2.47593
3571.000	2.23486	2.72537	1.92685	2.46002
3572.000	2.20919	2.72344	1.88933	2.41442
3573.000	2.22301	2.75515	1.85773	2.37675
3574.000	2.21906	2.75912	1.92685	2.36872
3575.000	2.19340	2.74528	1.94067	2.38855
3576.000	2.20919	2.72344	1.87946	2.40054
3577.000	2.22104	2.74920	1.95450	2.41433
3578.000	2.23683	2.78487	1.92685	2.33497
3579.000	2.20130	2.72345	1.89525	2.39258
3580.000	2.22696	2.74721	1.87946	2.32908
3581.000	2.22104	2.70358	1.91105	2.45806
3582.000	2.25460	2.75707	1.91698	2.41835
3583.000	2.24078	2.75313	1.88735	2.36679
3584.000	2.25065	2.75509	1.90710	2.33500
3585.000	2.25854	2.76301	1.84786	2.36485
3586.000	2.23091	2.72538	1.88933	2.37671
3587.000	2.24078	2.76106	1.89920	2.46403
3588.000	2.24078	2.73726	1.93672	2.34687
3589.000	2.24078	2.72933	1.91698	2.33697
3590.000	2.22301	2.71945	1.83206	2.36885
3591.000	2.25065	2.72138	1.89130	2.33304
3592.000	2.24078	2.71743	1.91698	2.35484
3593.000	2.28223	2.76693	1.86168	2.34300
3594.000	2.23880	2.70950	1.91500	2.33102
3595.000	2.27236	2.79868	1.97424	2.40239
3596.000	2.29605	2.75501	1.96240	2.33889
3597.000	2.28618	2.71933	2.04533	2.40427
3598.000	2.31184	2.77084	1.92093	2.36476
3599.000	2.30592	2.77482	1.89525	2.37869
3600.000	2.26644	2.72135	1.85181	2.38073
3601.000	2.27828	2.78876	1.89723	2.34891
3602.000	2.28815	2.75502	1.93080	2.40245
3603.000	2.29210	2.74113	1.87353	2.39261
3604.000	2.27828	2.78281	1.90710	2.39653
3605.000	2.31776	2.81446	1.96240	2.41432
3606.000	2.28420	2.78081	1.94857	2.36075
3607.000	2.26447	2.79275	1.85773	2.41050
3608.000	2.24867	2.80468	1.89328	2.38464
3609.000	2.26052	2.77094	1.88735	2.38068
3610.000	2.29013	2.77287	1.94857	2.35082
3611.000	2.28223	2.76892	1.91105	2.36675
3612.000	2.29013	2.77485	1.87156	2.30726
3613.000	2.30394	2.76888	1.94067	2.37862
3614.000	2.26841	2.73721	1.96437	2.37660
3615.000	2.25262	2.75707	1.96437	2.46790
3616.000	2.29013	2.73915	1.90315	2.49577
3617.000	2.29802	2.76294	1.95450	2.38059
3618.000	2.29013	2.74510	1.95845	2.34287
3619.000	2.26644	2.71540	1.94067	2.40046
3620.000	2.30000	2.74707	1.93080	2.33298
3621.000	2.26841	2.73721	1.92093	2.40445
3622.000	2.28618	2.74908	1.88538	2.43428
3623.000	2.31381	2.78274	1.89920	2.36876
3624.000	2.30394	2.74309	1.93080	2.41039
3625.000	2.29802	2.79268	1.89130	2.38068
3626.000	2.32171	2.77677	1.93870	2.39252
3627.000	2.29605	2.74708	1.88933	2.38465
3628.000	2.30592	2.78870	1.84786	2.40654
3629.000	2.30197	2.75103	1.93870	2.36672
3630.000	2.30197	2.74706	2.02558	2.37652
3631.000	2.37302	2.76081	1.93080	2.31909
3632.000	2.30986	2.73713	1.89130	2.43625
3633.000	2.30394	2.75698	1.91698	2.44415
3634.000	2.29802	2.75500	1.87551	2.32710
3635.000	2.30197	2.77483	1.95055	2.43220
3636.000	2.30789	2.75102	1.99004	2.39642
3637.000	2.29210	2.75105	1.94462	2.41831
3638.000	2.32763	2.79263	1.87156	2.44819
3639.000	2.27631	2.75108	1.97819	2.44407
3640.000	2.28618	2.78081	1.89328	2.44617
3641.000	2.26644	2.76101	1.93080	2.44016
3642.000	2.24867	2.73328	1.99794	2.41427
3643.000	2.29605	2.71534	1.97227	2.42224
3644.000	2.29210	2.72527	1.94462	2.36075
3645.000	2.27631	2.75306	1.94067	2.42229
3646.000	2.30000	2.73318	1.99004	2.42222
3647.000	2.31381	2.73316	1.87551	2.34298
3648.000	2.28223	2.75702	1.92290	2.42430
3649.000	2.31184	2.75894	1.94660	2.37464
3650.000	2.35526	2.74299	1.92488	2.41040
3651.000	2.33750	2.78864	1.98017	2.43215
3652.000	2.29605	2.77682	1.97227	2.44010
3653.000	2.31381	2.76886	1.88735	2.41045
3654.000	2.24078	2.71743	1.94462	2.43022
3655.000	2.26841	2.71143	1.94857	2.42228
3656.000	2.24078	2.73528	1.93475	2.38062
3657.000	2.32368	2.76685	1.94067	2.37068
3658.000	2.32763	2.69346	1.92883	2.31909
3659.000	2.27433	2.72927	1.93080	2.40245
3660.000	2.26644	2.72928	1.87748	2.39657
3661.000	2.25657	2.69360	1.90710	2.39852
3662.000	2.31776	2.72720	1.92488	2.42033
3663.000	2.26644	2.73920	1.95450	2.44013
3664.000	2.30592	2.79862	1.89328	2.45411
3665.000	2.29802	2.74905	1.90118	2.41837
3666.000	2.29210	2.74907	1.96635	2.37859
3667.000	2.29605	2.79071	1.99399	2.38847
3668.000	2.35723	2.75291	1.96042	2.53339
3669.000	2.33947	2.81045	1.97227	2.45003
3670.000	2.31184	2.74506	2.01769	2.38248
3671.000	2.27433	2.74315	1.94857	2.46396
3672.000	2.36710	2.76479	1.98807	2.48771
3673.000	2.31973	2.71331	1.96832	2.45202
3674.000	2.25657	2.76698	1.98017	2.40040
3675.000	2.35131	2.75688	2.00979	2.36265
3676.000	2.30000	2.75698	2.00386	2.42418
3677.000	2.32368	2.78867	1.94462	2.40243
3678.000	2.31776	2.75695	1.97227	2.38056
3679.000	2.32565	2.78470	1.99004	2.42023
3680.000	2.33552	2.76485	1.99794	2.40434
3681.000	2.34342	2.73707	2.02558	2.41224
3682.000	2.32763	2.71528	1.99202	2.41428
3683.000	2.35723	2.81240	1.93278	2.38459
3684.000	2.36908	2.76081	1.93672	2.40046
3685.000	2.33552	2.75097	1.96240	2.37264
3686.000	2.35526	2.77274	2.00189	2.36861
3687.000	2.36118	2.74100	2.02163	2.43805
3688.000	2.33552	2.78071	1.97029	2.45598
3689.000	2.33552	2.76881	1.99794	2.42816
3690.000	2.26644	2.70151	1.97622	2.42422
3691.000	2.38092	2.80838	1.96437	2.47584
3692.000	2.31381	2.74704	2.04138	2.41420
3693.000	2.38289	2.76872	1.91105	2.36675
3694.000	2.33158	2.75891	1.94067	2.39450
3695.000	2.34934	2.75094	1.89130	2.44618
3696.000	2.31973	2.70538	1.95450	2.44807
3697.000	2.35131	2.76680	1.99399	2.41824
3698.000	2.35723	2.78662	1.95647	2.39249
3699.000	2.37105	2.75684	1.94265	2.43419
3700.000	2.33552	2.76088	2.01176	2.41425
3701.000	2.33947	2.78467	2.00584	2.42021
3702.000	2.30789	2.71135	1.97227	2.41629
3703.000	2.31381	2.76687	2.07889	2.39033
3704.000	2.30986	2.75895	1.99004	2.41229
3705.000	2.31579	2.74704	2.00189	2.44998
3706.000	2.34342	2.76483	2.01966	2.42416
3707.000	2.28223	2.73719	2.01966	2.42614
3708.000	2.36315	2.76281	2.07692	2.37049
3709.000	2.35329	2.73110	1.96240	2.55522
3710.000	2.31381	2.71531	2.01571	2.43012
3711.000	2.37500	2.76874	2.03941	2.47771
3712.000	2.38881	2.78656	2.00386	2.45395
3713.000	2.35131	2.76482	1.99794	2.44602
3714.000	2.42039	2.80632	2.03546	2.41223
3715.000	2.38486	2.78855	2.01966	2.41820
3716.000	2.36315	2.73108	2.04335	2.38840
3717.000	2.39868	2.77265	2.09074	2.36054
3718.000	2.35526	2.75489	2.04138	2.39436
3719.000	2.35723	2.75291	2.03151	2.33880
3720.000	2.43025	2.71508	1.98214	2.43414
3721.000	2.37105	2.71123	1.94067	2.47191
3722.000	2.38486	2.73500	1.93080	2.45406
3723.000	2.36315	2.73703	2.03151	2.40032
3724.000	2.36513	2.75091	2.02558	2.39239
3725.000	2.39473	2.78258	2.11641	2.50735
3726.000	2.42631	2.74682	2.02756	2.42018
3727.000	2.37105	2.75090	2.00386	2.44998
3728.000	2.35723	2.70134	1.98609	2.39444
3729.000	2.36908	2.74892	2.06310	2.40425
3730.000	2.36513	2.71719	2.05323	2.38441
3731.000	2.41447	2.73098	2.05125	2.37251
3732.000	2.40065	2.73695	2.11838	2.43194
3733.000	2.39671	2.77464	2.08284	2.45780
3734.000	2.32565	2.73512	1.98412	2.39245
3735.000	2.37302	2.73701	2.05125	2.46380
3736.000	2.39671	2.74291	2.00584	2.42418
3737.000	2.38881	2.73301	2.04928	2.40228
3738.000	2.34144	2.68947	2.03546	2.38246
3739.000	2.40263	2.73893	2.01769	2.49164
3740.000	2.37500	2.75485	1.99202	2.36664
3741.000	2.40065	2.74092	1.97227	2.45995
3742.000	2.39868	2.75282	2.01176	2.43012
3743.000	2.33158	2.68354	2.05915	2.41616
3744.000	2.37697	2.73700	2.08679	2.44390
3745.000	2.40065	2.76273	2.12233	2.39622
3746.000	2.37500	2.71321	2.04533	2.36458
3747.000	2.36513	2.73702	2.04335	2.37054
3748.000	2.37894	2.69932	2.04335	2.43603
3749.000	2.38289	2.72509	2.02163	2.47575
3750.000	2.39671	2.75084	2.00189	2.41426
3751.000	2.35921	2.72514	2.02756	2.42216
3752.000	2.28026	2.66182	2.06507	2.48561
3753.000	2.37302	2.70924	2.08087	2.44986
3754.000	2.41249	2.74486	1.97819	2.37857
3755.000	2.39868	2.70721	1.97622	2.45002
3756.000	2.36315	2.70133	1.99991	2.46189
3757.000	2.36315	2.67753	1.98807	2.41031
3758.000	2.37105	2.72908	2.11048	2.51332
3759.000	2.37500	2.69932	2.09666	2.41213
3760.000	2.35131	2.75292	2.04335	2.49358
3761.000	2.39078	2.73697	2.03546	2.51145
3762.000	2.39868	2.72903	2.04730	2.44595
3763.000	2.36513	2.72513	2.03941	2.47374
3764.000	2.40460	2.69927	2.08087	2.51733
3765.000	2.37894	2.73303	2.05718	2.48562
3766.000	2.42039	2.71907	2.12825	2.46368
3767.000	2.41052	2.76073	2.06705	2.44592
3768.000	2.40065	2.71514	2.06507	2.44393
3769.000	2.41052	2.72900	2.08877	2.47962
3770.000	2.38684	2.73103	2.01176	2.39241
3771.000	2.42631	2.74087	2.03348	2.35864
3772.000	2.42039	2.71907	2.05915	2.46577
3773.000	2.38289	2.70922	2.04533	2.44198
3774.000	2.35723	2.71522	2.06112	2.46775
3775.000	2.38684	2.73103	2.10259	2.50936
3776.000	2.40855	2.71116	2.08482	2.48558
3777.000	2.41644	2.72502	2.00584	2.47975
3778.000	2.37302	2.73503	2.01966	2.37851
3779.000	2.41644	2.70519	2.09666	2.42007
3780.000	2.39078	2.69533	2.02756	2.47971
3781.000	2.37894	2.72906	2.07100	2.44194
3782.000	2.42039	2.72502	2.05125	2.41220
3783.000	2.37500	2.71519	2.04533	2.41023
3784.000	2.41644	2.69528	2.18550	2.34452
3785.000	2.38289	2.74492	2.12628	2.42201
3786.000	2.39473	2.70523	2.05915	2.42608
3787.000	2.41841	2.70122	2.15392	2.46761
3788.000	2.42236	2.77459	2.12628	2.42598
3789.000	2.38486	2.69534	1.98807	2.42023
3790.000	2.38092	2.70526	2.08679	2.43199
3791.000	2.38881	2.66161	2.02558	2.40232
3792.000	2.36118	2.67952	2.06507	2.50942
3793.000	2.36315	2.70331	2.00189	2.43411
3794.000	2.32960	2.65776	2.10061	2.43991
3795.000	2.34737	2.68153	2.00386	2.39640
3796.000	2.36315	2.67753	2.06112	2.37845
3797.000	2.34342	2.66765	2.09271	2.37443
3798.000	2.39473	2.70523	2.05520	2.44197
3799.000	2.35921	2.66167	2.07297	2.41018
3800.000	2.38881	2.69335	1.97424	2.46193
3801.000	2.35723	2.66366	2.21314	2.44767
3802.000	2.39868	2.64969	2.07692	2.44987
3803.000	2.37105	2.67156	2.03743	2.38047
3804.000	2.36908	2.67157	2.14800	2.43984
3805.000	2.35921	2.66762	2.18748	2.37428
3806.000	2.34737	2.64384	2.12233	2.43789
3807.000	2.38881	2.63781	2.09864	2.45777
3808.000	2.37302	2.64776	2.06705	2.38042
3809.000	2.34539	2.68153	2.07889	2.46574
3810.000	2.37302	2.66363	2.06507	2.40226
3811.000	2.39078	2.64177	2.10061	2.41213
3812.000	2.37697	2.64378	2.04928	2.39633
3813.000	2.40460	2.69133	2.12430	2.41407
3814.000	2.35131	2.65177	2.09469	2.45778
3815.000	2.35921	2.66762	2.12628	2.42995
3816.000	2.35131	2.63193	2.10259	2.41014
3817.000	2.34737	2.68351	2.09469	2.45183
3818.000	2.32960	2.70536	2.09074	2.52327
3819.000	2.33552	2.67163	2.10456	2.39624
3820.000	2.35526	2.67556	2.01176	2.36661
3821.000	2.35921	2.69935	2.02953	2.36460
3822.000	2.37105	2.65768	2.09666	2.42007
3823.000	2.38486	2.65567	2.08877	2.43001
3824.000	2.38092	2.65964	2.08877	2.39825
3825.000	2.38289	2.66162	2.14207	2.40611
3826.000	2.38289	2.67947	2.13220	2.45772
3827.000	2.38881	2.66161	2.08087	2.43597
3828.000	2.37500	2.65371	2.09864	2.48754
3829.000	2.40065	2.65961	2.05323	2.43601
3830.000	2.37105	2.64776	2.15194	2.40212
3831.000	2.39078	2.67748	2.08482	2.46970
3832.000	2.35526	2.66168	2.14010	2.42000
3833.000	2.41841	2.67345	2.11048	2.40219
3834.000	2.39078	2.70128	2.06902	2.43401
3835.000	2.39671	2.61003	2.13812	2.47557
3836.000	2.40657	2.66753	2.11443	2.48355
3837.000	2.37697	2.66362	2.11246	2.43195
3838.000	2.39868	2.66754	2.14800	2.48746
3839.000	2.38684	2.66558	2.10654	2.38036
3840.000	2.37697	2.70329	2.08087	2.40223
3841.000	2.37894	2.68543	2.10061	2.48555
3842.000	2.33355	2.64585	2.10061	2.41014
3843.000	2.38289	2.66559	2.11246	2.44585
3844.000	2.38684	2.65170	2.11048	2.44386
3845.000	2.36315	2.60811	2.08482	2.36055
3846.000	2.36513	2.65174	2.12825	2.42598
3847.000	2.37894	2.64973	2.10851	2.45181
3848.000	2.37697	2.61006	2.09469	2.38237
3849.000	2.33158	2.60023	2.13418	2.37834
3850.000	2.38289	2.61005	2.11838	2.45377
3851.000	2.35723	2.62597	2.13812	2.52915
3852.000	2.35921	2.63192	2.16181	2.43783
3853.000	2.39276	2.61003	2.14207	2.41405
3854.000	2.37302	2.64578	2.14800	2.40213
3855.000	2.39473	2.64573	2.08087	2.44589
3856.000	2.39671	2.68540	2.14405	2.39420
3857.000	2.35723	2.64581	2.20722	2.50522
3858.000	2.36513	2.60414	2.12233	2.45972
3859.000	2.36908	2.65967	2.17761	2.31278
3860.000	2.40460	2.65563	2.14405	2.36244
3861.000	2.39276	2.62987	2.10851	2.41013
3862.000	2.38684	2.68343	2.10851	2.39624
3863.000	2.38486	2.65567	2.11048	2.41807
3864.000	2.38092	2.64774	2.14405	2.41404
3865.000	2.42236	2.67741	2.17761	2.37430
3866.000	2.37894	2.61998	2.16181	2.40806
3867.000	2.40460	2.67348	2.11443	2.37837
3868.000	2.43025	2.64566	2.14800	2.36839
3869.000	2.41052	2.64570	2.10061	2.40022
3870.000	2.42433	2.70716	2.18353	2.45764
3871.000	2.40657	2.65166	2.17563	2.41796
3872.000	2.42039	2.65560	2.17563	2.41796
3873.000	2.40460	2.65166	2.08877	2.47565
3874.000	2.39473	2.69135	2.16576	2.47949
3875.000	2.44210	2.68134	2.21906	2.47941
3876.000	2.43815	2.67937	2.11246	2.44981
3877.000	2.43420	2.65756	2.18353	2.44375
3878.000	2.39078	2.68343	2.16379	2.42989
3879.000	2.38881	2.68343	2.12430	2.46766
3880.000	2.42631	2.69724	2.14207	2.45175
3881.000	2.43815	2.69920	2.16181	2.41005
3882.000	2.43815	2.70713	2.12036	2.45972
3883.000	2.42039	2.68733	2.18748	2.48541
3884.000	2.43815	2.68928	2.06310	2.44592
3885.000	2.45394	2.70115	2.10259	2.44983
3886.000	2.41447	2.67743	2.18945	2.45961
3887.000	2.43618	2.67540	2.13615	2.47756
3888.000	2.39276	2.68144	2.12430	2.44980
3889.000	2.38289	2.66162	2.08482	2.46970
3890.000	2.41841	2.67147	2.18748	2.46954
3891.000	2.41052	2.64967	2.14602	2.42793
3892.000	2.36710	2.67157	2.19538	2.37626
3893.000	2.43815	2.65557	2.16971	2.37431
3894.000	2.41052	2.61595	2.17761	2.40010
3895.000	2.41447	2.61793	2.18156	2.47153
3896.000	2.39473	2.64177	2.15984	2.37036
3897.000	2.37105	2.63189	2.13615	2.39024
3898.000	2.35329	2.63589	2.14010	2.41207
3899.000	2.36315	2.64778	2.15589	2.42990
3900.000	2.33947	2.60815	2.15589	2.48149
3901.000	2.35723	2.68349	2.09666	2.42007
3902.000	2.36908	2.62000	2.14602	2.44381
3903.000	2.37302	2.62396	2.21117	2.46950
3904.000	2.31381	2.62605	2.25657	2.45355
3905.000	2.32171	2.61810	2.15392	2.41006
3906.000	2.34934	2.62598	2.10851	2.49745
3907.000	2.37105	2.64181	2.10851	2.43196
3908.000	2.33355	2.61610	2.15984	2.44180
3909.000	2.31776	2.62604	2.12233	2.44781
3910.000	2.35329	2.58829	2.21906	2.41988
3911.000	2.35329	2.66168	2.13220	2.49741
3912.000	2.34737	2.66963	2.14010	2.44382
3913.000	2.34144	2.63790	2.09271	2.47763
3914.000	2.35723	2.66961	2.19143	2.42786
3915.000	2.37894	2.61204	2.16379	2.46561
3916.000	2.30394	2.64392	2.18353	2.37826
3917.000	2.32763	2.64983	2.08877	2.47366
3918.000	2.36710	2.63389	2.15787	2.46562
3919.000	2.32368	2.64785	2.15787	2.35845
3920.000	2.32171	2.60620	2.15787	2.38822
3921.000	2.33552	2.61014	2.16774	2.42591
3922.000	2.34539	2.65773	2.14405	2.48747
3923.000	2.34342	2.61013	2.10259	2.43594
3924.000	2.31579	2.62406	2.12036	2.46568
3925.000	2.35131	2.60019	2.04730	2.34870
3926.000	2.27236	2.53090	2.11048	2.36448
3927.000	2.34144	2.59624	2.18156	2.46558
3928.000	2.36908	2.59024	2.08679	2.42604
3929.000	2.32171	2.58636	2.04730	2.44396
3930.000	2.33552	2.60617	2.10061	2.39824
3931.000	2.38881	2.61599	2.13418	2.44780
3932.000	2.33552	2.61212	2.11048	2.45577
3933.000	2.37500	2.58825	2.05520	2.45387
3934.000	2.35921	2.63390	2.14997	2.51722
3935.000	2.34934	2.63987	2.10061	2.50738
3936.000	2.35723	2.63787	2.10654	2.45578
3937.000	2.34737	2.64781	2.10851	2.43196
3938.000	2.35329	2.61209	2.14602	2.45571
3939.000	2.33158	2.62800	2.08877	2.45184
3940.000	2.34342	2.63591	2.15392	2.45173
3941.000	2.33158	2.60618	2.18353	2.47153
3942.000	2.33750	2.62006	2.15984	2.44577
3943.000	2.35329	2.62201	2.10259	2.42999
3944.000	2.35723	2.57836	2.12430	2.49147
3945.000	2.35131	2.59424	2.13220	2.47558
3946.000	2.30986	2.55663	2.12628	2.45971
3947.000	2.34737	2.63591	2.14010	2.51327
3948.000	2.38486	2.60410	2.10851	2.43791
3949.000	2.37697	2.61800	2.11048	2.42997
3950.000	2.33355	2.65775	2.11641	2.41806
3951.000	2.32368	2.64190	2.07495	2.48361
3952.000	2.34539	2.63591	2.02953	2.45590
3953.000	2.33552	2.63593	2.12628	2.47757
3954.000	2.38092	2.62196	2.10654	2.52126
3955.000	2.33552	2.62204	2.14800	2.46563
3956.000	2.33355	2.61808	2.04138	2.48168
3957.000	2.31973	2.61215	2.16181	2.45569
3958.000	2.36513	2.65571	2.11246	2.50736
3959.000	2.37697	2.62395	2.14405	2.47358
3960.000	2.35526	2.62399	2.20525	2.51118
3961.000	2.37500	2.58825	2.09864	2.46373
3962.000	2.34342	2.59029	2.09271	2.42405
3963.000	2.34144	2.58434	2.11048	2.44585
3964.000	2.32368	2.59033	2.10654	2.43593
3965.000	2.40460	2.59613	2.15392	2.46761
3966.000	2.40460	2.57827	2.14207	2.42397
3967.000	2.37894	2.61998	2.17366	2.53901
3968.000	2.36315	2.58629	2.12628	2.48353
3969.000	2.39078	2.60805	2.18156	2.57471
3970.000	2.38289	2.60410	2.10654	2.46570
3971.000	2.35723	2.58828	2.07495	2.46376
3972.000	2.36710	2.59223	2.18748	2.44573
3973.000	2.35131	2.60614	2.10061	2.50936
3974.000	2.33750	2.57046	2.09469	2.54906
3975.000	2.34144	2.61410	2.07100	2.57092
3976.000	2.32763	2.59230	2.18353	2.47947
3977.000	2.36908	2.60611	2.15589	2.48149
3978.000	2.37105	2.59222	2.09666	2.55898
3979.000	2.36118	2.61803	2.14405	2.50136
3980.000	2.32171	2.58636	2.09666	2.46175
3981.000	2.33552	2.57443	2.07297	2.55703
3982.000	2.36118	2.60018	2.12036	2.55298
3983.000	2.36710	2.65967	2.08877	2.54708
3984.000	2.35921	2.62993	2.09271	2.51136
3985.000	2.33355	2.61808	2.08679	2.48756
3986.000	2.36315	2.57042	2.09469	2.52723
3987.000	2.34144	2.57839	2.13812	2.54303
3988.000	2.29407	2.57649	2.14800	2.47952
3989.000	2.34342	2.56252	2.15589	2.45173
3990.000	2.30197	2.54077	2.09864	2.42205
3991.000	2.33750	2.60022	2.06112	2.42806
3992.000	2.29210	2.55071	2.07495	2.46575
3993.000	2.29407	2.53880	2.10259	2.52127
3994.000	2.28618	2.52096	2.11048	2.55102
3995.000	2.31579	2.59232	2.06705	2.51140
3996.000	2.29210	2.55666	2.13023	2.48352
3997.000	2.31579	2.56654	2.05915	2.43601
3998.000	2.30592	2.55267	2.10654	2.48356
3999.000	2.30592	2.55267	2.04730	2.52334
4000.000	2.30789	2.53282	2.12628	2.43789
4001.000	2.28618	2.60825	2.07495	2.53123
4002.000	2.32960	2.55461	2.13812	2.51922
4003.000	2.31381	2.57249	2.15392	2.55491
4004.000	2.30000	2.58839	2.06705	2.47767
4005.000	2.28420	2.59040	2.16181	2.43783
4006.000	2.36513	2.57041	2.20525	2.54094
4007.000	2.32763	2.58635	2.04138	2.41817
4008.000	2.36315	2.58033	2.11443	2.50141
4009.000	2.29407	2.53285	2.10456	2.42800
4010.000	2.32171	2.54867	2.20722	2.48339
4011.000	2.30789	2.62606	2.13812	2.48152
4012.000	2.34737	2.58433	2.06902	2.48163
4013.000	2.36908	2.57239	2.13023	2.49543
4014.000	2.34144	2.58633	2.15589	2.46959
4015.000	2.32171	2.57049	2.12430	2.47559
4016.000	2.33158	2.60023	2.10259	2.49150
4017.000	2.33750	2.56650	2.13418	2.50137
4018.000	2.33355	2.58436	2.04533	2.53922
4019.000	2.30592	2.57052	2.13812	2.40413
4020.000	2.31973	2.58637	2.20525	2.54887
4021.000	2.29605	2.53284	2.11641	2.46965
4022.000	2.32565	2.57842	2.12628	2.55893
4023.000	2.30197	2.61615	2.15589	2.47951
4024.000	2.34342	2.58434	2.13615	2.47954
4025.000	2.28618	2.57651	2.13418	2.50931
4026.000	2.34539	2.57838	2.14602	2.39023
4027.000	2.31579	2.59828	2.11048	2.49943
4028.000	2.30986	2.59630	2.15984	2.46561
4029.000	2.31973	2.58240	2.06310	2.50347
4030.000	2.31579	2.59232	2.14602	2.45373
4031.000	2.35329	2.61209	2.14405	2.46762
4032.000	2.31184	2.57646	2.11246	2.49347
4033.000	2.34539	2.56450	2.13220	2.54106
4034.000	2.29210	2.53484	2.10851	2.45776
4035.000	2.34934	2.56449	2.07495	2.46575
4036.000	2.29407	2.51698	2.19143	2.52112
4037.000	2.32565	2.57048	2.12825	2.49940
4038.000	2.33552	2.54468	2.13023	2.55098
4039.000	2.31973	2.53875	2.07692	2.52329
4040.000	2.32565	2.58437	2.08877	2.53121
4041.000	2.29605	2.53681	2.08482	2.53915
4042.000	2.31579	2.54074	2.10456	2.48158
4043.000	2.32171	2.57049	2.14800	2.48746
4044.000	2.29605	2.59236	2.10061	2.45182
4045.000	2.31973	2.58438	2.04138	2.46977
4046.000	2.28420	2.56659	2.15194	2.47158
4047.000	2.30789	2.56655	2.12430	2.46369
4048.000	2.30000	2.55466	2.09271	2.46175
4049.000	2.29605	2.56855	2.14602	2.46365
4050.000	2.32171	2.56256	2.08482	2.53320
4051.000	2.30394	2.60822	2.11048	2.53911
4052.000	2.30000	2.57450	2.16971	2.39217
4053.000	2.34934	2.55854	2.11246	2.49546
4054.000	2.32368	2.56255	2.14800	2.43984
4055.000	2.32960	2.52683	2.15589	2.52912
4056.000	2.30394	2.58044	2.13418	2.48153
4057.000	2.31184	2.55464	2.12036	2.48354
4058.000	2.32565	2.58239	2.10654	2.41609
4059.000	2.30592	2.55663	2.17366	2.48940
4060.000	2.24078	2.54881	2.05718	2.42013
4061.000	2.31579	2.55662	2.06705	2.45782
4062.000	2.30592	2.58441	2.11838	2.37241
4063.000	2.26447	2.56663	2.19340	2.42587
4064.000	2.30394	2.54473	2.15392	2.46562
4065.000	2.28618	2.54675	2.09469	2.46770
4066.000	2.29013	2.53881	2.10456	2.53317
4067.000	2.28223	2.52692	2.11443	2.46767
4068.000	2.32368	2.54867	2.15589	2.51523
4069.000	2.26644	2.49917	2.07889	2.45384
4070.000	2.30000	2.51895	2.13220	2.49542
4071.000	2.30789	2.52092	2.14010	2.47557
4072.000	2.29013	2.50111	2.05520	2.43006
4073.000	2.31776	2.52685	2.15194	2.52714
4074.000	2.29802	2.53482	2.08284	2.52725
4075.000	2.27828	2.51502	2.14997	2.47158
4076.000	2.29802	2.50308	2.10456	2.44784
4077.000	2.30394	2.50902	2.14207	2.44183
4078.000	2.30000	2.56260	2.12628	2.51131
4079.000	2.28420	2.51501	2.17366	2.49734
4080.000	2.27236	2.53685	2.17366	2.48742
4081.000	2.26841	2.53488	2.12430	2.47758
4082.000	2.27433	2.57256	2.09666	2.46571
4083.000	2.28815	2.58246	2.13220	2.48749
4084.000	2.27236	2.54876	2.14010	2.52716
4085.000	2.27039	2.52099	2.13418	2.50336
4086.000	2.30592	2.52687	2.10259	2.42403
4087.000	2.25262	2.50911	2.11246	2.47760
4088.000	2.29013	2.53682	2.06112	2.47371
4089.000	2.28815	2.52691	2.11048	2.50736
4090.000	2.32763	2.50501	2.05520	2.45189
4091.000	2.26841	2.49321	2.10851	2.50935
4092.000	2.28223	2.46938	2.08482	2.46176
4093.000	2.27631	2.53685	2.09271	2.45580
4094.000	2.27631	2.51304	2.06507	2.46775
4095.000	2.29210	2.50508	2.11048	2.42005
4096.000	2.28420	2.54278	2.05520	2.52333
4097.000	2.27828	2.49716	2.09074	2.49747
4098.000	2.32960	2.54270	2.04533	2.45190
4099.000	2.27631	2.49717	2.12233	2.41011
4100.000	2.29802	2.52292	2.12825	2.48352
4101.000	2.32171	2.51494	2.15787	2.40608
4102.000	2.34342	2.52879	2.11838	2.46370
4103.000	2.34934	2.50497	2.13418	2.45176
4104.000	2.28223	2.51700	2.10851	2.43196
4105.000	2.31381	2.49313	2.14602	2.39023
4106.000	2.32171	2.48320	2.12036	2.48155
4107.000	2.31381	2.49908	2.14602	2.46961
4108.000	2.30000	2.47728	2.14010	2.51128
4109.000	2.29210	2.47531	2.08482	2.41215
4110.000	2.28815	2.49119	2.06310	2.43005
4111.000	2.32763	2.50501	2.11048	2.49347
4112.000	2.28815	2.49516	1.97622	2.43415
4113.000	2.30986	2.52687	2.13418	2.47161
4114.000	2.31184	2.49710	2.06310	2.47371
4115.000	2.29802	2.44951	2.02361	2.43011
4116.000	2.29210	2.48920	2.11641	2.49148
4117.000	2.28420	2.45152	2.13023	2.46566
4118.000	2.33158	2.47326	2.07692	2.45781
4119.000	2.29210	2.47928	2.08087	2.37246
4120.000	2.33158	2.44945	2.15589	2.44379
4121.000	2.32368	2.45939	2.09666	2.39626
4122.000	2.30000	2.46340	2.08877	2.42207
4123.000	2.33355	2.49707	2.09074	2.44786
4124.000	2.32763	2.46533	2.17169	2.48941
4125.000	2.26841	2.51107	2.14207	2.38825
4126.000	2.30394	2.51101	2.05520	2.45586
4127.000	2.29605	2.48324	2.11838	2.44584
4128.000	2.33158	2.49509	2.09864	2.42007
4129.000	2.30197	2.49514	2.03743	2.50550
4130.000	2.30986	2.49512	2.11443	2.47958
4131.000	2.27433	2.47336	2.06902	2.45980
4132.000	2.31776	2.48519	2.06507	2.53125
4133.000	2.30394	2.50505	2.03151	2.42216
4134.000	2.29605	2.49316	1.98807	2.48374
4135.000	2.28420	2.45549	2.06112	2.54316
4136.000	2.26841	2.48924	2.09271	2.41611
4137.000	2.30000	2.48324	2.12825	2.48352
4138.000	2.31776	2.51495	2.01571	2.50950
4139.000	2.32763	2.46930	2.09271	2.47564
4140.000	2.32171	2.46733	2.06112	2.44394
4141.000	2.32565	2.46533	2.04730	2.40824
4142.000	2.32368	2.44351	2.09666	2.43396
4143.000	2.31776	2.44948	2.12628	2.35652
4144.000	2.31184	2.47330	2.04928	2.43205
4145.000	2.29210	2.45547	2.11641	2.45179
4146.000	2.34737	2.45339	2.03941	2.45390
4147.000	2.31973	2.44352	2.11838	2.37241
4148.000	2.31381	2.50901	2.07692	2.46376
4149.000	2.33552	2.39389	2.05323	2.43403
4150.000	2.30592	2.39394	2.09864	2.45579
4151.000	2.31579	2.45543	2.04335	2.41618
4152.000	2.29802	2.45348	2.07692	2.42010
4153.000	2.30197	2.45942	2.12825	2.43590
4154.000	2.30394	2.44355	2.10456	2.41807
4155.000	2.31973	2.42368	2.09271	2.39428
4156.000	2.31579	2.46138	2.02558	2.42812
4157.000	2.31381	2.46139	2.09074	2.42603
4158.000	2.31184	2.49909	2.01571	2.48965
4159.000	2.30986	2.44155	2.07495	2.41217
4160.000	2.31973	2.46931	2.13220	2.44978
4161.000	2.30394	2.44752	1.99004	2.46588
4162.000	2.32763	2.43755	2.12036	2.42996
4163.000	2.30394	2.46140	2.02163	2.39240
4164.000	2.30197	2.45347	2.14207	2.34855
4165.000	2.32960	2.39588	2.14207	2.42000
4166.000	2.32171	2.40978	2.03151	2.47177
4167.000	2.30197	2.45347	2.05520	2.38640
4168.000	2.35723	2.43552	2.09666	2.34068
4169.000	2.31776	2.46535	1.99597	2.35870
4170.000	2.29802	2.42371	2.11838	2.35455
4171.000	2.32960	2.44152	2.06705	2.42607
4172.000	2.32565	2.44351	2.07297	2.39431
4173.000	2.34539	2.40379	2.12036	2.37637
4174.000	2.33750	2.42762	2.10654	2.36846
4175.000	2.29210	2.50111	2.04138	2.30702
4176.000	2.32368	2.41970	1.99794	2.41824
4177.000	2.33947	2.42166	2.08482	2.46772
4178.000	2.32368	2.41375	2.10061	2.42602
4179.000	2.30789	2.42370	2.03941	2.37054
4180.000	2.32171	2.43558	2.09666	2.36450
4181.000	2.33158	2.44945	2.03743	2.38047
4182.000	2.34934	2.40974	2.06705	2.35264
4183.000	2.31973	2.43360	2.12233	2.35255
4184.000	2.32368	2.38002	2.13023	2.39224
4185.000	2.34737	2.45141	2.10259	2.40220
4186.000	2.37697	2.43350	2.04138	2.35069
4187.000	2.33552	2.42563	2.10851	2.37639
4188.000	2.32763	2.43755	1.97622	2.33887
4189.000	2.30789	2.38203	2.05323	2.37251
4190.000	2.34539	2.40974	2.12036	2.36050
4191.000	2.33947	2.41174	2.08284	2.38635
4192.000	2.32565	2.44549	2.10456	2.41212
4193.000	2.34342	2.42760	2.11048	2.36051
4194.000	2.34342	2.41967	2.08482	2.36055
4195.000	2.32763	2.36215	2.04928	2.39831
4196.000	2.33158	2.41770	2.05125	2.43602
4197.000	2.29605	2.40387	2.10061	2.43197
4198.000	2.30394	2.40188	2.05125	2.33480
4199.000	2.33158	2.42167	2.03546	2.37253
4200.000	2.34144	2.41372	2.08284	2.35460
4201.000	2.32763	2.38596	2.06902	2.36851
4202.000	2.34539	2.42363	2.13023	2.36644
4203.000	2.37302	2.41168	2.03546	2.48565
4204.000	2.33947	2.38594	2.09469	2.35061
4205.000	2.36908	2.38192	2.05718	2.42212
4206.000	2.33947	2.40380	1.99399	2.43809
4207.000	2.33355	2.35817	2.08087	2.41017
4208.000	2.34934	2.38196	2.09864	2.34068
4209.000	2.32763	2.39192	2.07889	2.33674
4210.000	2.29605	2.37609	2.10061	2.36053
4211.000	2.38289	2.39976	2.02163	2.36461
4212.000	2.30986	2.37409	2.12430	2.35057
4213.000	2.34144	2.37205	2.06112	2.41814
4214.000	2.34539	2.38792	2.07297	2.35461
4215.000	2.32368	2.39787	2.06902	2.31691
4216.000	2.35131	2.38791	2.02953	2.40827
4217.000	2.35131	2.40576	2.07100	2.32683
4218.000	2.31973	2.36415	2.12036	2.34660
4219.000	2.36513	2.39582	2.05718	2.38441
4220.000	2.35723	2.40972	2.04138	2.35664
4221.000	2.35329	2.40576	2.12036	2.35454
4222.000	2.37105	2.38589	2.03743	2.38841
4223.000	2.35131	2.38592	1.96042	2.28332
4224.000	2.36908	2.36803	2.03941	2.35665
4225.000	2.35921	2.36408	2.03941	2.37054
4226.000	2.36118	2.36209	2.05718	2.36655
4227.000	2.33552	2.38992	2.05323	2.32884
4228.000	2.32171	2.36017	1.96832	2.36072
4229.000	2.33947	2.38594	1.99991	2.37060
4230.000	2.37302	2.36009	2.10851	2.40219
4231.000	2.33947	2.37800	2.10061	2.35656
4232.000	2.34737	2.34426	2.01374	2.36264
4233.000	2.34539	2.38593	2.04533	2.36061
4234.000	2.36513	2.34820	2.09074	2.31688
4235.000	2.31184	2.36614	2.02953	2.40430
4236.000	2.35723	2.34027	2.03941	2.35466
4237.000	2.38486	2.39975	2.06507	2.36058
4238.000	2.34144	2.36411	2.00979	2.33287
4239.000	2.37500	2.38588	2.13418	2.35254
4240.000	2.34342	2.43554	2.00979	2.37455
4241.000	2.35526	2.38195	2.10456	2.34861
4242.000	2.41052	2.40169	2.05323	2.37846
4243.000	2.37894	2.37000	2.05718	2.34670
4244.000	2.35131	2.36806	2.03348	2.34475
4245.000	2.38684	2.37991	2.10061	2.35854
4246.000	2.37697	2.36802	2.09666	2.31488
4247.000	2.36710	2.34422	2.07692	2.28911
4248.000	2.39078	2.36403	2.10654	2.35853
4249.000	2.35526	2.33631	2.05323	2.37251
4250.000	2.37500	2.37199	2.07692	2.36850
4251.000	2.42828	2.36198	2.07100	2.32484
4252.000	2.42039	2.35405	2.02558	2.35270
4253.000	2.38092	2.36603	2.08284	2.37246
4254.000	2.34737	2.37005	2.10259	2.32083
4255.000	2.38881	2.35411	2.05125	2.31098
4256.000	2.35723	2.31447	2.06705	2.31691
4257.000	2.36315	2.32835	2.06310	2.27920
4258.000	2.35329	2.33036	2.00979	2.37654
4259.000	2.37894	2.36405	2.07100	2.27919
4260.000	2.38092	2.34023	2.08877	2.27321
4261.000	2.38092	2.39778	2.01966	2.34278
4262.000	2.43223	2.34610	2.02756	2.33285
4263.000	2.37500	2.33429	2.05323	2.32487
4264.000	2.37500	2.34421	2.02163	2.35469
4265.000	2.37105	2.35215	2.00584	2.39044
4266.000	2.42433	2.35008	2.06507	2.36256
4267.000	2.41052	2.34613	2.06705	2.35462
4268.000	2.39078	2.33426	2.18156	2.39811
4269.000	2.39671	2.33227	2.04533	2.26136
4270.000	2.37697	2.33032	2.01571	2.36859
4271.000	2.37894	2.35611	2.07495	2.28911
4272.000	2.38881	2.33426	2.09666	2.31290
4273.000	2.38289	2.32038	2.15984	2.31479
4274.000	2.33158	2.32245	2.03151	2.36261
4275.000	2.37105	2.35215	1.98214	2.28726
4276.000	2.35329	2.33631	2.05915	2.26928
4277.000	2.38092	2.32436	2.08877	2.31489
4278.000	2.35131	2.30456	2.10456	2.32479
4279.000	2.42039	2.31635	2.15589	2.38029
4280.000	2.38486	2.35808	1.95845	2.26347
4281.000	2.39671	2.34219	2.10259	2.27914
4282.000	2.40065	2.32432	2.04730	2.28716
4283.000	2.40657	2.36797	2.08877	2.33871
4284.000	2.39473	2.36600	2.05520	2.37052
4285.000	2.37697	2.33428	1.99597	2.29518
4286.000	2.36908	2.35017	2.11048	2.30295
4287.000	2.39671	2.30647	2.09864	2.30098
4288.000	2.39868	2.31837	2.08284	2.32681
4289.000	2.34342	2.31648	2.05718	2.28120
4290.000	2.36315	2.30653	2.08877	2.32879
4291.000	2.39276	2.34616	2.02361	2.25941
4292.000	2.38092	2.32039	2.06705	2.28515
4293.000	2.37894	2.31642	2.04533	2.33878
4294.000	2.36315	2.31049	2.06902	2.30698
4295.000	2.35329	2.29662	2.01966	2.35668
4296.000	2.37302	2.29659	2.06112	2.40623
4297.000	2.39868	2.29456	1.99597	2.30907
4298.000	2.40263	2.34416	1.98807	2.29916
4299.000	2.37697	2.32039	2.07495	2.30300
4300.000	2.42828	2.29252	1.98412	2.33688
4301.000	2.37894	2.32436	2.05915	2.29707
4302.000	2.38289	2.30451	2.03348	2.37253
4303.000	2.41249	2.29255	2.11048	2.30295
4304.000	2.38289	2.31443	2.08679	2.32482
4305.000	2.38881	2.27671	2.03151	2.32689
4306.000	2.37105	2.29659	2.08087	2.34071
4307.000	2.34342	2.31450	2.05718	2.31692
4308.000	2.35723	2.31646	2.06507	2.34073
4309.000	2.38486	2.28466	2.04730	2.31098
4310.000	2.40263	2.31043	2.06902	2.27324
4311.000	2.39473	2.30250	2.09666	2.28908
4312.000	2.38684	2.28069	2.05323	2.26135
4313.000	2.38684	2.32831	1.97227	2.38255
4314.000	2.35329	2.28273	2.03743	2.36062
4315.000	2.37500	2.28864	1.98017	2.28130
4316.000	2.39276	2.29655	1.95845	2.37860
4317.000	2.37500	2.30055	1.97227	2.35873
4318.000	2.37302	2.28269	2.09864	2.27717
4319.000	2.39078	2.27671	2.05125	2.26731
4320.000	2.37894	2.31642	2.07100	2.26133
4321.000	2.37500	2.29658	2.06310	2.28913
4322.000	2.33947	2.27878	2.08284	2.21565
4323.000	2.36710	2.30453	2.03151	2.24550
4324.000	2.39078	2.28068	2.05520	2.23951
4325.000	2.35131	2.28868	2.04730	2.25342
4326.000	2.37500	2.26681	2.02163	2.31499
4327.000	2.39276	2.28862	2.06705	2.30897
4328.000	2.38684	2.30053	2.07100	2.24942
4329.000	2.39473	2.26083	2.04138	2.29710
4330.000	2.39868	2.32036	2.02756	2.25940
4331.000	2.43420	2.27862	2.11838	2.27912
4332.000	2.40855	2.29851	2.10851	2.27318
4333.000	2.42631	2.31634	2.05323	2.26334
4334.000	2.43025	2.32427	2.07297	2.22361
4335.000	2.40657	2.28859	2.11641	2.22354
4336.000	2.41644	2.30247	2.04730	2.27128
4337.000	2.41447	2.26080	2.07495	2.26529
4338.000	2.42039	2.27865	2.09666	2.23945
4339.000	2.40460	2.26677	1.97622	2.21778
4340.000	2.40855	2.29256	2.08482	2.24146
4341.000	2.42039	2.28063	2.02756	2.26337
4342.000	2.37302	2.25888	1.97029	2.25750
4343.000	2.39078	2.24496	2.10259	2.29502
4344.000	2.38881	2.25091	2.06705	2.26332
4345.000	2.39671	2.30845	2.09864	2.26526
4346.000	2.40657	2.27668	2.07889	2.17000
4347.000	2.41447	2.24889	2.05915	2.18591
4348.000	2.40657	2.28065	2.05915	2.17399
4349.000	2.44802	2.30837	2.01571	2.26934
4350.000	2.41841	2.28262	2.04335	2.30106
4351.000	2.39078	2.31243	2.10654	2.20768
4352.000	2.41644	2.28461	2.06310	2.24943
4353.000	2.41249	2.29850	2.08877	2.21763
4354.000	2.40065	2.28860	2.09074	2.26924
4355.000	2.43618	2.30442	2.04730	2.23952
4356.000	2.44012	2.28854	2.04533	2.27129
4357.000	2.40460	2.28066	2.07692	2.20573
4358.000	2.43223	2.28458	2.11641	2.26920
4359.000	2.42433	2.33024	2.05520	2.25341
4360.000	2.40855	2.28859	2.05125	2.25937
4361.000	2.42828	2.28856	2.02953	2.17999
4362.000	2.40065	2.26479	1.99399	2.17408
4363.000	2.38684	2.31244	1.99991	2.18202
4364.000	2.38092	2.28268	2.04533	2.20776
4365.000	2.42631	2.30840	2.07495	2.17993
4366.000	2.42828	2.29451	1.97227	2.24558
4367.000	2.40460	2.29256	1.99991	2.27532
4368.000	2.41052	2.31637	2.06112	2.18193
4369.000	2.38092	2.27673	2.03151	2.25543
4370.000	2.34539	2.27083	2.05520	2.20179
4371.000	2.40460	2.30050	2.04138	2.26137
4372.000	2.39868	2.30051	2.00189	2.15422
4373.000	2.35526	2.29662	2.06507	2.15413
4374.000	2.37697	2.29658	1.99794	2.32296
4375.000	2.41841	2.27865	2.03743	2.25740
4376.000	2.41249	2.26874	1.98017	2.24756
4377.000	2.41447	2.25683	2.06507	2.27126
