time (ms)	lx (deg)	ly (deg)	rx (deg)	ry (deg)
0.000	2.77552	0.84644	2.35526	0.88249
1.000	2.75974	0.86632	2.40657	0.94804
2.000	2.73409	0.85839	2.41052	0.86259
3.000	2.79327	0.83253	2.36513	0.87851
4.000	2.78932	0.90206	2.33947	0.94610
5.000	2.77552	0.84843	2.36118	0.90832
6.000	2.77749	0.83850	2.36710	0.93415
7.000	2.75382	0.82262	2.39671	0.92420
8.000	2.75382	0.81865	2.39671	0.93215
9.000	2.81496	0.83648	2.35131	0.96596
10.000	2.77946	0.86432	2.38092	0.88049
11.000	2.77946	0.86829	2.41644	0.89637
12.000	2.79918	0.81861	2.39473	0.87452
13.000	2.76960	0.84844	2.40855	0.89637
14.000	2.75382	0.84646	2.47959	0.93408
15.000	2.78538	0.82856	2.40263	0.92419
16.000	2.79129	0.82855	2.40460	0.80098
17.000	2.78341	0.81863	2.37302	0.90037
18.000	2.76368	0.84645	2.41249	0.82483
19.000	2.77157	0.84645	2.35723	0.93615
20.000	2.77749	0.81267	2.40460	0.92419
21.000	2.79721	0.80272	2.35921	0.88647
22.000	2.76763	0.82261	2.35921	0.90236
23.000	2.79327	0.83054	2.40657	0.91227
24.000	2.78143	0.86035	2.35921	0.90435
25.000	2.76960	0.83652	2.43025	0.92418
26.000	2.78735	0.83849	2.49538	0.88042
27.000	2.77749	0.82062	2.41447	0.91823
28.000	2.77946	0.78287	2.34539	0.89244
29.000	2.74593	0.83057	2.40065	0.82881
30.000	2.77157	0.79678	2.33947	0.93815
31.000	2.77157	0.82459	2.42433	0.95796
32.000	2.75185	0.77693	2.42433	0.95001
33.000	2.79129	0.77690	2.39078	0.95401
34.000	2.78932	0.79677	2.35723	0.82685
35.000	2.77552	0.79678	2.37697	0.89242
36.000	2.76960	0.76102	2.33947	0.92622
37.000	2.77749	0.81863	2.40460	0.90631
38.000	2.77946	0.82459	2.36315	0.96397
39.000	2.72029	0.77496	2.42631	0.96193
40.000	2.73607	0.78488	2.41644	0.90431
41.000	2.71437	0.78490	2.40657	0.87451
42.000	2.76171	0.76102	2.40065	0.89836
43.000	2.75185	0.78885	2.43618	0.90231
44.000	2.74987	0.79083	2.35526	0.82287
45.000	2.74593	0.78090	2.45591	0.87647
46.000	2.74593	0.80077	2.37894	0.85267
47.000	2.76171	0.82659	2.36710	0.91627
48.000	2.74396	0.79680	2.35723	0.92025
49.000	2.74790	0.78090	2.37105	0.84075
50.000	2.74001	0.76303	2.47170	0.83075
51.000	2.71634	0.77099	2.35526	0.88647
52.000	2.73409	0.82263	2.32171	0.86463
53.000	2.78143	0.80671	2.37894	0.89440
54.000	2.70845	0.78291	2.41052	0.85662
55.000	2.74001	0.76104	2.36908	0.84473
56.000	2.71831	0.76105	2.29210	0.85074
57.000	2.73804	0.77296	2.40657	0.82483
58.000	2.73409	0.79084	2.40460	0.81688
59.000	2.73015	0.80873	2.45196	0.84666
60.000	2.75185	0.78090	2.36513	0.88249
61.000	2.71831	0.80278	2.41249	0.88246
62.000	2.74396	0.85441	2.38881	0.87055
63.000	2.77354	0.83055	2.42433	0.86854
64.000	2.75776	0.83454	2.40263	0.83080
65.000	2.75579	0.81864	2.34144	0.83083
66.000	2.74198	0.84249	2.34934	0.86461
67.000	2.79129	0.81465	2.39078	0.88247
68.000	2.77749	0.78684	2.42433	0.84469
69.000	2.76171	0.79877	2.46380	0.86057
70.000	2.77354	0.79678	2.46578	0.84069
71.000	2.81693	0.78284	2.34539	0.89045
72.000	2.79918	0.80471	2.45591	0.88044
73.000	2.79524	0.84047	2.46775	0.85858
74.000	2.80510	0.80669	2.38881	0.91427
75.000	2.76368	0.82857	2.39868	0.80298
76.000	2.72423	0.82860	2.37894	0.90831
77.000	2.61968	0.81675	2.29210	0.88452
78.000	2.50524	0.75721	2.17761	0.78322
79.000	2.31184	0.68974	1.97819	0.73362
80.000	2.10851	0.65008	1.85971	0.67403
81.000	1.88735	0.63625	1.67207	0.53094
82.000	1.63454	0.51504	1.35399	0.55886
83.000	1.28286	0.41568	1.16825	0.50122
84.000	1.02200	0.36599	0.80459	0.43564
85.000	0.77691	0.26656	0.62866	0.39985
86.000	0.48831	0.29243	0.32225	0.32427
87.000	0.25305	0.17109	0.15816	0.30040
88.000	0.00989	0.08754	-0.04152	0.17507
89.000	-0.07513	-0.00597	-0.16607	0.14523
90.000	-0.20165	-0.06565	-0.20165	0.20889
91.000	-0.25503	-0.08157	-0.34004	0.18103
92.000	-0.24712	-0.15318	-0.37958	0.14721
93.000	-0.18584	-0.13727	-0.33411	0.08157
94.000	-0.07908	-0.10544	-0.22933	0.12533
95.000	0.04745	-0.10345	-0.09094	0.18701
96.000	0.19375	-0.12533	-0.04547	0.20491
97.000	0.39342	-0.09350	0.12257	0.24669
98.000	0.52784	-0.06167	0.19770	0.25067
99.000	0.68994	-0.04178	0.35783	0.29045
100.000	0.84807	0.04774	0.48040	0.30835
101.000	0.94295	0.07758	0.60099	0.29840
102.000	1.04374	0.05967	0.72947	0.33419
103.000	1.08920	0.14719	0.73145	0.35806
104.000	1.10501	0.10542	0.78680	0.40182
105.000	1.14058	0.15713	0.77494	0.36403
106.000	1.08327	0.14918	0.70773	0.38790
107.000	1.09710	0.20288	0.75517	0.33618
108.000	1.06548	0.17703	0.73145	0.29043
109.000	1.03188	0.19891	0.68796	0.40382
110.000	0.98445	0.18499	0.64843	0.31431
111.000	0.92911	0.18698	0.60296	0.32227
112.000	0.88167	0.20688	0.57924	0.30834
113.000	0.85993	0.15715	0.58517	0.23474
114.000	0.82040	0.16312	0.44482	0.33421
115.000	0.75715	0.13925	0.48831	0.31830
116.000	0.75715	0.16909	0.53773	0.28249
117.000	0.65238	0.14920	0.39935	0.30636
118.000	0.68006	0.08952	0.40330	0.32228
119.000	0.63657	0.06167	0.42109	0.27851
120.000	0.62866	0.09350	0.29062	0.35411
121.000	0.60099	0.09947	0.34993	0.30835
122.000	0.58913	0.04178	0.34795	0.33620
123.000	0.64052	0.06167	0.33016	0.30637
124.000	0.57331	0.04774	0.36969	0.32626
125.000	0.57529	0.06565	0.29655	0.33024
126.000	0.58715	0.09748	0.31039	0.26857
127.000	0.55552	0.03979	0.25701	0.36605
128.000	0.58320	0.11936	0.35190	0.23873
129.000	0.58122	0.05371	0.35388	0.27453
130.000	0.55552	0.04774	0.26096	0.36207
131.000	0.58320	0.02188	0.30643	0.31034
132.000	0.59308	0.06366	0.34399	0.26260
133.000	0.55157	0.03183	0.37563	0.25663
134.000	0.56145	0.03382	0.34004	0.25066
135.000	0.60494	0.01393	0.33016	0.23674
136.000	0.56145	0.03581	0.32818	0.26658
137.000	0.56936	0.02785	0.29852	0.21088
138.000	0.62471	0.04973	0.38749	0.23276
139.000	0.60494	0.05769	0.36969	0.30636
140.000	0.63459	0.07360	0.45470	0.24867
141.000	0.62273	0.06764	0.39935	0.15517
142.000	0.64052	0.05172	0.34597	0.23077
143.000	0.62668	0.03979	0.41714	0.21883
144.000	0.63657	0.01989	0.42505	0.20491
145.000	0.64645	0.02387	0.35190	0.25464
146.000	0.67017	0.09946	0.42900	0.23872
147.000	0.62273	0.03382	0.34202	0.22281
148.000	0.64645	0.08355	0.38749	0.23674
149.000	0.68796	0.04774	0.35388	0.26857
150.000	0.63459	0.05172	0.32027	0.27454
151.000	0.67413	0.06963	0.37958	0.23873
152.000	0.65041	0.07162	0.39737	0.17706
153.000	0.63657	0.09549	0.37563	0.23276
154.000	0.62866	0.07162	0.34993	0.21485
155.000	0.62471	0.04178	0.34993	0.27652
156.000	0.64052	0.03780	0.30050	0.30239
157.000	0.62075	0.06963	0.35981	0.23077
158.000	0.63657	0.05769	0.37958	0.27851
159.000	0.61878	0.07758	0.36969	0.23077
160.000	0.66820	0.03780	0.41121	0.26061
161.000	0.65831	0.08952	0.37563	0.26857
162.000	0.60296	0.09748	0.42702	0.25066
163.000	0.63657	0.08753	0.34795	0.21684
164.000	0.64052	0.05172	0.35981	0.30437
165.000	0.61087	0.10941	0.37563	0.20491
166.000	0.66029	0.07957	0.39342	0.19894
167.000	0.62866	0.07360	0.38156	0.27254
168.000	0.67017	0.10344	0.38353	0.21883
169.000	0.61878	0.06565	0.36772	0.22082
170.000	0.69192	0.08952	0.37167	0.26061
171.000	0.66424	0.07559	0.32225	0.22281
172.000	0.61878	0.09350	0.36772	0.22679
173.000	0.63657	0.07162	0.38353	0.19297
174.000	0.64250	0.08952	0.40726	0.25464
175.000	0.58715	0.06366	0.39144	0.24270
176.000	0.63459	0.06565	0.38749	0.20690
177.000	0.62866	0.06366	0.32422	0.20292
178.000	0.60099	0.06764	0.46459	0.22480
179.000	0.64052	0.05769	0.41912	0.23872
180.000	0.60889	0.03382	0.31039	0.23674
181.000	0.64843	0.06565	0.30643	0.23077
182.000	0.61680	0.07360	0.33016	0.33024
183.000	0.66227	0.07360	0.38551	0.19894
184.000	0.59901	0.08554	0.32027	0.23674
185.000	0.58517	0.07162	0.39737	0.25663
186.000	0.62668	0.09350	0.39539	0.19297
187.000	0.60692	0.07360	0.33016	0.25862
188.000	0.62471	0.06366	0.37958	0.27851
189.000	0.62668	0.00597	0.36179	0.28448
190.000	0.60099	0.06963	0.36772	0.21684
191.000	0.60494	0.08355	0.30841	0.27255
192.000	0.58320	0.06764	0.33213	0.23276
193.000	0.62668	0.09748	0.35783	0.27255
194.000	0.62471	0.05968	0.37958	0.24072
195.000	0.61285	0.04575	0.30050	0.24072
196.000	0.60692	0.01790	0.41516	0.18103
197.000	0.63657	0.06764	0.37958	0.30636
198.000	0.63657	0.07162	0.34202	0.27255
199.000	0.60692	0.06963	0.35190	0.27453
200.000	0.55947	0.07162	0.35586	0.22679
201.000	0.61482	0.06366	0.33016	0.30835
202.000	0.63064	0.05371	0.41319	0.26061
203.000	0.56540	0.04575	0.28271	0.25464
204.000	0.60296	0.07559	0.35981	0.26459
205.000	0.61680	0.05570	0.32620	0.31432
206.000	0.58715	0.08554	0.36574	0.20292
207.000	0.61087	0.08952	0.34597	0.29244
208.000	0.57529	0.08355	0.27085	0.28249
209.000	0.60296	0.03382	0.34597	0.26857
210.000	0.56936	0.04377	0.35981	0.28050
211.000	0.58517	0.05371	0.25899	0.26857
212.000	0.57924	0.07957	0.33806	0.29841
213.000	0.57331	0.04575	0.36376	0.23873
214.000	0.56738	0.03382	0.31039	0.23873
215.000	0.58715	0.06963	0.38156	0.22878
216.000	0.54168	-0.00597	0.29655	0.24669
217.000	0.54959	0.05769	0.28666	0.27056
218.000	0.58517	0.06963	0.28864	0.28050
219.000	0.56343	0.04774	0.29062	0.29045
220.000	0.56936	0.06167	0.27480	0.27653
221.000	0.56540	0.04575	0.39935	0.22679
222.000	0.54168	0.04575	0.32027	0.28846
223.000	0.51994	0.03183	0.32422	0.26459
224.000	0.54761	0.06764	0.34795	0.26857
225.000	0.58715	0.09549	0.28666	0.26857
226.000	0.58517	0.04973	0.33806	0.25862
227.000	0.54761	0.08753	0.36969	0.26260
228.000	0.55552	0.02984	0.34993	0.28846
229.000	0.58517	0.03581	0.29852	0.33820
230.000	0.52191	0.01989	0.35388	0.20690
231.000	0.56540	0.01989	0.39935	0.27652
232.000	0.51598	0.03581	0.33806	0.22082
233.000	0.59506	-0.01989	0.34597	0.24668
234.000	0.51598	0.02785	0.32225	0.28448
235.000	0.58320	0.02188	0.26887	0.29443
236.000	0.52191	0.00398	0.33806	0.25066
237.000	0.52389	-0.00398	0.33411	0.25464
238.000	0.50808	-0.01194	0.40133	0.24469
239.000	0.52784	0.04774	0.34795	0.30040
240.000	0.55157	0.03979	0.34993	0.29841
241.000	0.51994	0.02785	0.32422	0.30239
242.000	0.55947	-0.00995	0.34597	0.31830
243.000	0.54959	0.04178	0.39539	0.28448
244.000	0.57133	0.04973	0.37760	0.31830
245.000	0.53180	0.03183	0.33411	0.23674
246.000	0.51005	0.04576	0.37958	0.31830
247.000	0.52784	0.02586	0.30841	0.26260
248.000	0.51796	0.00796	0.35190	0.26857
249.000	0.51598	0.04178	0.37563	0.23873
250.000	0.51796	0.03581	0.41121	0.30437
251.000	0.52982	0.04576	0.40330	0.24867
252.000	0.51401	0.03382	0.34004	0.31830
253.000	0.52389	0.02586	0.38353	0.26857
254.000	0.53773	0.00796	0.27282	0.28051
255.000	0.52982	0.00199	0.39342	0.17904
256.000	0.49424	0.02984	0.36179	0.32626
257.000	0.53378	0.03382	0.38749	0.27652
258.000	0.52587	0.02188	0.42900	0.25464
259.000	0.51598	0.00199	0.39342	0.25464
260.000	0.52389	0.00199	0.38551	0.29841
261.000	0.53180	-0.01989	0.39144	0.25066
262.000	0.52191	0.01591	0.43691	0.26061
263.000	0.52982	0.00995	0.39539	0.26260
264.000	0.54761	0.02586	0.39737	0.22878
265.000	0.51598	0.00995	0.39935	0.24270
266.000	0.53180	-0.02387	0.35388	0.28249
267.000	0.54761	0.00796	0.33213	0.27454
268.000	0.50017	-0.00796	0.36969	0.23475
269.000	0.51796	0.03979	0.37760	0.26459
270.000	0.51401	0.01393	0.42505	0.25663
271.000	0.50610	0.03382	0.31632	0.24072
272.000	0.49226	0.00398	0.35190	0.21684
273.000	0.53575	-0.01393	0.41121	0.35212
274.000	0.47447	0.00796	0.38946	0.25663
275.000	0.52191	0.01591	0.40726	0.27055
276.000	0.46459	-0.00199	0.32818	0.24867
277.000	0.46854	-0.00597	0.35783	0.26260
278.000	0.51598	0.00398	0.38946	0.29642
279.000	0.50215	-0.00597	0.42505	0.33421
280.000	0.49622	-0.04774	0.34795	0.27652
281.000	0.51994	-0.03979	0.40133	0.31432
282.000	0.52389	-0.01194	0.38156	0.26459
283.000	0.51598	-0.03581	0.40133	0.29841
284.000	0.52191	-0.01393	0.37167	0.26658
285.000	0.51401	-0.00398	0.35190	0.26857
286.000	0.50017	-0.01194	0.41516	0.24867
287.000	0.49424	-0.06167	0.44679	0.28647
288.000	0.50610	0.04178	0.38749	0.30040
289.000	0.49028	0.00796	0.40923	0.32427
290.000	0.52587	-0.01194	0.45075	0.34814
291.000	0.50610	0.00199	0.35190	0.33024
292.000	0.49028	0.00995	0.35783	0.31034
293.000	0.53773	0.00597	0.42109	0.27851
294.000	0.50610	-0.01989	0.38551	0.27652
295.000	0.53180	-0.01591	0.38551	0.19496
296.000	0.49819	0.00796	0.42307	0.31233
297.000	0.53773	0.01790	0.40726	0.26260
298.000	0.49622	-0.02984	0.35586	0.31830
299.000	0.51598	-0.01790	0.38551	0.28249
300.000	0.53575	-0.01393	0.36969	0.26260
301.000	0.54366	-0.01194	0.42702	0.26459
302.000	0.49819	-0.06565	0.39935	0.27254
303.000	0.47447	-0.02586	0.39935	0.20292
304.000	0.46459	-0.04178	0.34597	0.25862
305.000	0.50808	0.00398	0.43493	0.22878
306.000	0.52784	0.02387	0.44877	0.28647
307.000	0.52784	-0.01393	0.45668	0.28249
308.000	0.54564	-0.01989	0.37958	0.34217
309.000	0.52784	-0.02984	0.38353	0.28050
310.000	0.52389	-0.03382	0.37760	0.28448
311.000	0.49819	-0.03780	0.40330	0.28647
312.000	0.48435	-0.03183	0.33213	0.31830
313.000	0.50412	-0.00995	0.41714	0.31432
314.000	0.48435	-0.03780	0.43296	0.21087
315.000	0.51598	-0.04576	0.40133	0.31034
316.000	0.51598	-0.03581	0.43493	0.30039
317.000	0.46261	-0.02984	0.44284	0.24469
318.000	0.49424	-0.06963	0.44086	0.28846
319.000	0.48238	-0.01989	0.43493	0.22281
320.000	0.49226	-0.01989	0.46854	0.28846
321.000	0.49424	-0.01591	0.47052	0.28448
322.000	0.52784	-0.05769	0.46261	0.22679
323.000	0.50808	-0.02785	0.40330	0.29642
324.000	0.45272	-0.03979	0.50215	0.19695
325.000	0.48435	-0.03183	0.42505	0.25265
326.000	0.48633	-0.03979	0.42900	0.24867
327.000	0.49028	-0.06167	0.42505	0.26459
328.000	0.50412	-0.04178	0.44679	0.24867
329.000	0.44086	-0.01393	0.40133	0.29443
330.000	0.50215	-0.02586	0.42702	0.21684
331.000	0.47842	-0.01790	0.35783	0.29642
332.000	0.47447	-0.04774	0.43493	0.26061
333.000	0.46459	-0.02387	0.42109	0.28050
334.000	0.45668	-0.03183	0.40923	0.27254
335.000	0.50610	-0.01790	0.38156	0.30040
336.000	0.50412	-0.01790	0.50215	0.37996
337.000	0.48435	-0.03581	0.53773	0.30238
338.000	0.48435	-0.02188	0.41714	0.31233
339.000	0.50215	-0.05172	0.38749	0.30437
340.000	0.47645	-0.07560	0.43691	0.33421
341.000	0.48831	-0.07162	0.37167	0.31233
342.000	0.45272	-0.05172	0.41714	0.25066
343.000	0.52982	-0.03581	0.39342	0.26857
344.000	0.47447	-0.06565	0.42702	0.30039
345.000	0.51401	-0.04973	0.29655	0.28249
346.000	0.47447	-0.07560	0.38353	0.29841
347.000	0.47447	-0.05172	0.44284	0.28647
348.000	0.48633	-0.04973	0.38946	0.33222
349.000	0.47447	-0.06366	0.41912	0.21883
350.000	0.49226	-0.09350	0.46459	0.28050
351.000	0.49819	-0.03581	0.48831	0.21286
352.000	0.49028	-0.04178	0.41912	0.30039
353.000	0.51598	-0.05371	0.41319	0.30636
354.000	0.47447	-0.05968	0.37365	0.28846
355.000	0.50215	-0.03382	0.41319	0.29244
356.000	0.51796	-0.00995	0.45865	0.33222
357.000	0.48238	-0.06963	0.45470	0.25464
358.000	0.48040	-0.03979	0.40726	0.29244
359.000	0.49226	-0.04377	0.40528	0.33222
360.000	0.43493	-0.09151	0.53378	0.33421
361.000	0.49622	-0.04973	0.48633	0.33222
362.000	0.51994	-0.04973	0.36772	0.28448
363.000	0.46261	-0.03780	0.43889	0.29244
364.000	0.47249	-0.08952	0.38749	0.27851
365.000	0.45470	-0.07957	0.39144	0.29642
366.000	0.47842	-0.03979	0.40330	0.34416
367.000	0.48435	-0.03581	0.40330	0.30835
368.000	0.48040	-0.04377	0.36772	0.29841
369.000	0.48435	-0.10146	0.43691	0.28647
370.000	0.48633	-0.06167	0.34597	0.28846
371.000	0.45272	-0.09350	0.38551	0.29841
372.000	0.47249	-0.08753	0.37563	0.35212
373.000	0.47842	-0.09350	0.38551	0.34217
374.000	0.48040	-0.07759	0.44284	0.29840
375.000	0.50215	-0.07560	0.38749	0.32029
376.000	0.51994	-0.07560	0.38551	0.30835
377.000	0.45865	-0.09151	0.44284	0.29244
378.000	0.46854	-0.09151	0.38353	0.33024
379.000	0.48435	-0.09947	0.42702	0.27453
380.000	0.47842	-0.08952	0.41319	0.35610
381.000	0.46261	-0.09748	0.44679	0.32228
382.000	0.46261	-0.06366	0.45668	0.26061
383.000	0.45470	-0.07162	0.47249	0.36206
384.000	0.45668	-0.07560	0.38156	0.33819
385.000	0.51005	-0.10941	0.43296	0.28846
386.000	0.49424	-0.05570	0.40528	0.25862
387.000	0.48435	-0.05769	0.44086	0.27055
388.000	0.49622	-0.07957	0.41516	0.38991
389.000	0.49028	-0.10743	0.44877	0.31631
390.000	0.50808	-0.08156	0.37958	0.37400
391.000	0.50412	-0.05371	0.43493	0.32228
392.000	0.45075	-0.09350	0.44877	0.28846
393.000	0.45470	-0.09350	0.46854	0.31034
394.000	0.46261	-0.08952	0.41319	0.25265
395.000	0.50215	-0.07560	0.40330	0.33620
396.000	0.47249	-0.09350	0.50017	0.31829
397.000	0.51005	-0.07957	0.45272	0.38195
398.000	0.45668	-0.09947	0.38353	0.34615
399.000	0.43098	-0.12135	0.47249	0.31631
400.000	0.50215	-0.12732	0.44679	0.31233
401.000	0.45865	-0.13329	0.34795	0.25066
402.000	0.48633	-0.11538	0.40133	0.30636
403.000	0.44679	-0.11737	0.41912	0.30437
404.000	0.42505	-0.12334	0.52389	0.38792
405.000	0.44482	-0.12732	0.43098	0.31830
406.000	0.40330	-0.12732	0.44482	0.30238
407.000	0.44877	-0.08952	0.44482	0.28846
408.000	0.44877	-0.09151	0.44679	0.34814
409.000	0.45272	-0.12931	0.41121	0.37798
410.000	0.46063	-0.12135	0.44284	0.29443
411.000	0.40726	-0.16114	0.41121	0.40583
412.000	0.44086	-0.15517	0.41319	0.30039
413.000	0.42900	-0.14324	0.44284	0.38195
414.000	0.43493	-0.13926	0.45865	0.33222
415.000	0.44482	-0.10544	0.43098	0.32228
416.000	0.40726	-0.11737	0.38946	0.38793
417.000	0.44086	-0.14323	0.38551	0.33819
418.000	0.45668	-0.07560	0.44679	0.33620
419.000	0.42109	-0.09748	0.44482	0.38394
420.000	0.41912	-0.11936	0.39539	0.35212
421.000	0.42900	-0.11141	0.39737	0.25464
422.000	0.42307	-0.13727	0.40726	0.36803
423.000	0.43098	-0.15517	0.44086	0.30039
424.000	0.42702	-0.10345	0.35981	0.36008
425.000	0.43098	-0.09549	0.44877	0.33023
426.000	0.45075	-0.14125	0.40330	0.34814
427.000	0.39737	-0.13130	0.38946	0.33620
428.000	0.41912	-0.11339	0.39737	0.29841
429.000	0.37365	-0.11737	0.32225	0.30438
430.000	0.30841	-0.08356	0.26887	0.34019
431.000	0.24317	-0.12533	0.23131	0.35212
432.000	0.20561	-0.09549	0.17002	0.33820
433.000	0.15025	-0.05371	0.16409	0.27454
434.000	0.05536	-0.07759	0.02570	0.31831
435.000	-0.04943	-0.08157	-0.00791	0.37998
436.000	0.01186	-0.04974	-0.05733	0.39589
437.000	0.00395	-0.04576	-0.02372	0.42573
438.000	-0.03756	-0.02188	-0.05733	0.42772
439.000	0.00791	0.00796	0.00989	0.44562
440.000	0.01779	0.00995	-0.01384	0.48541
441.000	0.07710	-0.04974	0.07315	0.44364
442.000	0.08303	-0.00796	0.17398	0.46552
443.000	0.18979	-0.01989	0.16014	0.40982
444.000	0.17595	-0.02188	0.12455	0.41777
445.000	0.24515	-0.06963	0.13048	0.45159
446.000	0.23922	-0.10544	0.24515	0.42772
447.000	0.28271	-0.09549	0.28864	0.37201
448.000	0.30050	-0.14324	0.23131	0.36008
449.000	0.31434	-0.13130	0.25305	0.37401
450.000	0.31829	-0.11936	0.24119	0.30438
451.000	0.32225	-0.14125	0.22340	0.31234
452.000	0.31632	-0.13727	0.22538	0.31830
453.000	0.28666	-0.16910	0.21549	0.30836
454.000	0.29062	-0.17308	0.19572	0.28449
455.000	0.29655	-0.17706	0.25503	0.32825
456.000	0.26294	-0.15716	0.20363	0.30637
457.000	0.27282	-0.11340	0.28666	0.31830
458.000	0.19177	-0.15319	0.17200	0.32228
459.000	0.25305	-0.15120	0.19375	0.31234
460.000	0.25108	-0.15517	0.19968	0.32825
461.000	0.21154	-0.11340	0.21945	0.37997
462.000	0.25503	-0.13926	0.22735	0.31035
463.000	0.23526	-0.11539	0.22142	0.37401
464.000	0.23724	-0.05769	0.23131	0.32626
465.000	0.21352	-0.16910	0.20956	0.39191
466.000	0.18386	-0.09748	0.26096	0.42374
467.000	0.20165	-0.15319	0.17991	0.34417
468.000	0.20758	-0.08555	0.19968	0.37202
469.000	0.20165	-0.12732	0.16211	0.37998
470.000	0.19968	-0.07162	0.08897	0.36207
471.000	0.20165	-0.14523	0.14827	0.40385
472.000	0.21154	-0.09350	0.17991	0.33820
473.000	0.19177	-0.10743	0.12257	0.36207
474.000	0.22538	-0.12135	0.16409	0.34417
475.000	0.22735	-0.04377	0.23329	0.33024
476.000	0.21154	-0.13329	0.21747	0.37202
477.000	0.21352	-0.07759	0.19770	0.38594
478.000	0.23526	-0.08753	0.19375	0.28647
479.000	0.24515	-0.05968	0.21945	0.31035
480.000	0.24317	-0.09350	0.16014	0.32228
481.000	0.21352	-0.12533	0.03163	0.37202
482.000	0.24119	-0.08356	0.15421	0.32228
483.000	0.21352	-0.08555	0.16409	0.28449
484.000	0.22538	-0.12135	0.13246	0.37202
485.000	0.21945	-0.09748	0.14630	0.31234
486.000	0.22538	-0.10743	0.17002	0.32626
487.000	0.22538	-0.11340	0.23329	0.36207
488.000	0.24317	-0.12334	0.16804	0.25266
489.000	0.23329	-0.10544	0.15223	0.32029
490.000	0.23131	-0.10146	0.19572	0.32029
491.000	0.22340	-0.11141	0.09490	0.33024
492.000	0.22933	-0.08952	0.24119	0.34019
493.000	0.23131	-0.11738	0.21747	0.31035
494.000	0.24317	-0.13528	0.16607	0.36406
495.000	0.22735	-0.12931	0.15025	0.37600
496.000	0.23329	-0.08952	0.19968	0.34218
497.000	0.22933	-0.12533	0.17991	0.28051
498.000	0.25701	-0.11340	0.13839	0.36207
499.000	0.22538	-0.09350	0.17991	0.34019
500.000	0.21352	-0.13528	0.23526	0.25663
501.000	0.21747	-0.11937	0.14037	0.35411
502.000	0.24317	-0.11340	0.18781	0.34815
503.000	0.22933	-0.11937	0.17200	0.39191
504.000	0.22142	-0.10743	0.14630	0.32427
505.000	0.23922	-0.09748	0.09094	0.26857
506.000	0.23131	-0.13329	0.15025	0.32626
507.000	0.19572	-0.11141	0.13048	0.35411
508.000	0.22340	-0.11539	0.11071	0.38992
509.000	0.24515	-0.10345	0.12060	0.33422
510.000	0.19968	-0.08356	0.19572	0.34815
511.000	0.21549	-0.11141	0.18979	0.37003
512.000	0.20363	-0.08356	0.20363	0.37202
513.000	0.21747	-0.15120	0.18188	0.36804
514.000	0.23724	-0.13329	0.18188	0.39987
515.000	0.20165	-0.10345	0.24317	0.39191
516.000	0.18781	-0.11141	0.25899	0.39987
517.000	0.22142	-0.09350	0.17595	0.30836
518.000	0.22933	-0.14523	0.19375	0.37997
519.000	0.18979	-0.14523	0.16804	0.32427
520.000	0.23329	-0.10942	0.15025	0.35212
521.000	0.21154	-0.11340	0.11071	0.35610
522.000	0.20561	-0.10146	0.21154	0.39987
523.000	0.18188	-0.10942	0.18188	0.41180
524.000	0.16804	-0.07162	0.17595	0.48740
525.000	0.18584	-0.11141	0.15816	0.38196
526.000	0.17200	-0.12732	0.19177	0.34218
527.000	0.20758	-0.11738	0.19770	0.42772
528.000	0.18584	-0.15716	0.17398	0.33223
529.000	0.23724	-0.12533	0.17002	0.48342
530.000	0.23131	-0.12732	0.14037	0.40385
531.000	0.16804	-0.16711	0.14234	0.49933
532.000	0.14827	-0.13329	0.15223	0.38992
533.000	0.16804	-0.13329	0.26689	0.45955
534.000	0.13641	-0.13727	0.24910	0.36406
535.000	0.16607	-0.13329	0.17595	0.32626
536.000	0.16014	-0.16114	0.13444	0.46154
537.000	0.19177	-0.17507	0.17991	0.44363
538.000	0.19177	-0.13727	0.15816	0.44562
539.000	0.17991	-0.12732	0.17002	0.38793
540.000	0.18781	-0.11937	0.16409	0.44960
541.000	0.21352	-0.09947	0.14037	0.45159
542.000	0.20956	-0.11539	0.12653	0.45557
543.000	0.21154	-0.07162	0.15025	0.40186
544.000	0.23131	-0.08952	0.14432	0.44562
545.000	0.20363	-0.04576	0.17200	0.47944
546.000	0.18386	-0.13130	0.24317	0.44164
547.000	0.20165	-0.12931	0.15421	0.44562
548.000	0.20165	-0.12334	0.16409	0.41976
549.000	0.20363	-0.12334	0.15618	0.35411
550.000	0.19177	-0.11539	0.19770	0.42573
551.000	0.21549	-0.11937	0.13444	0.44562
552.000	0.20956	-0.08753	0.13839	0.39390
553.000	0.22340	-0.12334	0.15223	0.43369
554.000	0.18386	-0.13528	0.28864	0.39191
555.000	0.17200	-0.13130	0.14037	0.44363
556.000	0.18781	-0.15517	0.16409	0.47347
557.000	0.23329	-0.08753	0.14827	0.49337
558.000	0.20363	-0.12533	0.13641	0.43170
559.000	0.23526	-0.08952	0.19572	0.44363
560.000	0.18781	-0.09350	0.19572	0.39589
561.000	0.18979	-0.09350	0.17991	0.41379
562.000	0.22340	-0.15319	0.15421	0.46353
563.000	0.19572	-0.08952	0.17991	0.43568
564.000	0.18386	-0.12334	0.07315	0.48143
565.000	0.19375	-0.10942	0.17793	0.40783
566.000	0.20758	-0.09549	0.16211	0.41379
567.000	0.20758	-0.12533	0.15223	0.44164
568.000	0.18584	-0.07958	0.13048	0.39589
569.000	0.21549	-0.10146	0.23329	0.44761
570.000	0.17200	-0.14921	0.17398	0.42573
571.000	0.17398	-0.14921	0.25503	0.44164
572.000	0.23724	-0.10146	0.17793	0.45358
573.000	0.15618	-0.14921	0.15618	0.53912
574.000	0.16014	-0.12334	0.20956	0.41379
575.000	0.20758	-0.11738	0.15421	0.47944
576.000	0.19177	-0.14125	0.12850	0.43369
577.000	0.16804	-0.13130	0.19177	0.41976
578.000	0.20165	-0.15120	0.17398	0.41777
579.000	0.19968	-0.14125	0.16014	0.42772
580.000	0.15421	-0.09151	0.09490	0.40186
581.000	0.20956	-0.07560	0.17991	0.37003
582.000	0.20561	-0.11539	0.16211	0.37799
583.000	0.20561	-0.12334	0.12060	0.41976
584.000	0.18188	-0.13329	0.17002	0.45955
585.000	0.20165	-0.15716	0.20758	0.42573
586.000	0.21945	-0.11340	0.17398	0.38594
587.000	0.23724	-0.10146	0.12653	0.46552
588.000	0.21747	-0.08157	0.17991	0.44562
589.000	0.18386	-0.11141	0.17793	0.43170
590.000	0.21747	-0.15517	0.11862	0.44960
591.000	0.24317	-0.08554	0.20956	0.44164
592.000	0.23526	-0.10942	0.19375	0.41777
593.000	0.25701	-0.06764	0.16211	0.41578
594.000	0.25305	-0.07958	0.19968	0.46750
595.000	0.23329	-0.12931	0.18584	0.38793
596.000	0.21945	-0.13926	0.24119	0.45358
597.000	0.23329	-0.10743	0.14037	0.43767
598.000	0.24515	-0.10942	0.19177	0.47546
599.000	0.23526	-0.10544	0.18781	0.47546
600.000	0.25503	-0.16512	0.19770	0.40186
601.000	0.21747	-0.11340	0.21747	0.41578
602.000	0.24515	-0.13329	0.22340	0.32626
603.000	0.24712	-0.12334	0.21352	0.42971
604.000	0.20165	-0.10345	0.12455	0.41578
605.000	0.23329	-0.14324	0.20363	0.45159
606.000	0.21747	-0.11141	0.20165	0.39390
607.000	0.23922	-0.12931	0.22340	0.37003
608.000	0.22538	-0.13926	0.17200	0.41180
609.000	0.23329	-0.13130	0.23131	0.35212
610.000	0.26096	-0.11936	0.15816	0.37003
611.000	0.24515	-0.10942	0.25899	0.38196
612.000	0.23922	-0.07162	0.21747	0.38992
613.000	0.20561	-0.13528	0.11269	0.35809
614.000	0.25108	-0.09748	0.19375	0.44363
615.000	0.23131	-0.06366	0.19375	0.45557
616.000	0.21352	-0.12533	0.20165	0.39390
617.000	0.23131	-0.10743	0.20758	0.37003
618.000	0.22340	-0.12135	0.22142	0.37401
619.000	0.21352	-0.10146	0.17002	0.44562
620.000	0.20561	-0.13329	0.19968	0.44164
621.000	0.20956	-0.11539	0.19770	0.46353
622.000	0.22933	-0.08753	0.23131	0.40385
623.000	0.18979	-0.07958	0.24515	0.49137
624.000	0.19375	-0.09748	0.19770	0.39191
625.000	0.19968	-0.10345	0.17595	0.38793
626.000	0.21352	-0.09151	0.24712	0.45955
627.000	0.21549	-0.09151	0.19770	0.39987
628.000	0.22735	-0.07958	0.18584	0.51127
629.000	0.23724	-0.05570	0.17200	0.40385
630.000	0.23922	-0.11738	0.25305	0.39788
631.000	0.21352	-0.13528	0.16211	0.40783
632.000	0.22933	-0.11141	0.17595	0.44761
633.000	0.26689	-0.16711	0.24515	0.49734
634.000	0.25108	-0.09549	0.18781	0.39788
635.000	0.22340	-0.07361	0.18979	0.40584
636.000	0.21945	-0.07162	0.17595	0.48939
637.000	0.22735	-0.05172	0.18188	0.44363
638.000	0.25305	-0.05172	0.08106	0.49138
639.000	0.24515	-0.06963	0.11071	0.47944
640.000	0.23922	-0.08554	0.14827	0.45756
641.000	0.24119	-0.00995	0.14432	0.48740
642.000	0.26492	-0.09748	0.13839	0.49735
643.000	0.24712	-0.05769	0.14234	0.48740
644.000	0.27085	-0.10146	0.17200	0.51724
645.000	0.25899	-0.05769	0.17793	0.48342
646.000	0.19968	-0.03581	0.20165	0.46154
647.000	0.24910	-0.09748	0.17398	0.48342
648.000	0.20561	-0.04377	0.17398	0.40783
649.000	0.20956	-0.08157	0.21747	0.54906
650.000	0.24317	-0.09350	0.20165	0.50331
651.000	0.19770	-0.11141	0.11269	0.48740
652.000	0.24515	-0.08157	0.19572	0.46750
653.000	0.20363	-0.08356	0.26887	0.52917
654.000	0.26096	-0.08952	0.13246	0.47745
655.000	0.24119	-0.05968	0.17793	0.42573
656.000	0.27876	-0.08356	0.18781	0.48342
657.000	0.21945	-0.06366	0.18781	0.47944
658.000	0.23131	-0.05172	0.19375	0.42374
659.000	0.25108	-0.05968	0.07117	0.41976
660.000	0.21154	-0.05968	0.17991	0.49535
661.000	0.25503	-0.04576	0.23922	0.53315
662.000	0.21747	-0.06764	0.15816	0.47148
663.000	0.23329	-0.02586	0.18781	0.48342
664.000	0.23329	-0.05769	0.20956	0.48342
665.000	0.21945	-0.07958	0.20165	0.46154
666.000	0.18188	-0.06565	0.17200	0.44761
667.000	0.18979	-0.07759	0.21549	0.50928
668.000	0.22933	-0.07361	0.21352	0.45955
669.000	0.24712	-0.07560	0.17398	0.48541
670.000	0.22735	-0.07759	0.13246	0.48939
671.000	0.21352	-0.07560	0.17002	0.54708
672.000	0.22933	-0.07560	0.14630	0.50729
673.000	0.22933	-0.04974	0.15816	0.51525
674.000	0.26887	-0.06565	0.17595	0.49138
675.000	0.26294	-0.05172	0.14827	0.52917
676.000	0.24317	-0.04178	0.19572	0.52917
677.000	0.26294	-0.06963	0.21549	0.56100
678.000	0.29457	-0.02188	0.14037	0.56896
679.000	0.26689	-0.02984	0.16607	0.52718
680.000	0.25108	-0.05968	0.16211	0.61471
681.000	0.27282	-0.05769	0.26492	0.57492
682.000	0.26294	-0.03780	0.17002	0.56697
683.000	0.30446	-0.02984	0.12257	0.53116
684.000	0.29852	-0.04974	0.16014	0.57095
685.000	0.29457	-0.05172	0.20956	0.54509
686.000	0.28469	-0.01790	0.17793	0.53912
687.000	0.28073	-0.03581	0.20758	0.54111
688.000	0.26492	-0.05769	0.16804	0.60277
689.000	0.30643	-0.04178	0.21747	0.56100
690.000	0.29852	-0.06366	0.18188	0.52519
691.000	0.30050	-0.01393	0.19177	0.52122
692.000	0.24712	-0.08952	0.25701	0.53912
693.000	0.31632	-0.07759	0.18979	0.53116
694.000	0.32422	-0.03581	0.17991	0.55503
695.000	0.32422	-0.03780	0.13246	0.53912
696.000	0.31236	-0.04377	0.23526	0.51525
697.000	0.30643	-0.00199	0.17595	0.49138
698.000	0.29457	-0.01592	0.18781	0.50729
699.000	0.32225	-0.04178	0.18584	0.53514
700.000	0.29852	-0.03183	0.13444	0.55503
701.000	0.31632	-0.05968	0.27480	0.56895
702.000	0.27876	-0.02387	0.25108	0.53713
703.000	0.29655	-0.04377	0.17200	0.49138
704.000	0.27678	-0.03382	0.17793	0.57294
705.000	0.33016	-0.00199	0.21352	0.51923
706.000	0.31829	-0.00199	0.20165	0.57691
707.000	0.30248	-0.02586	0.20758	0.56100
708.000	0.26887	-0.04377	0.17398	0.56100
709.000	0.28073	-0.00995	0.21549	0.52718
710.000	0.33609	-0.05172	0.23329	0.55105
711.000	0.31236	-0.05172	0.17398	0.57493
712.000	0.31632	-0.06366	0.17398	0.54708
713.000	0.30643	-0.06565	0.21154	0.55304
714.000	0.32422	-0.02586	0.17793	0.60277
715.000	0.31434	-0.03382	0.09687	0.54509
716.000	0.32027	-0.03382	0.19572	0.52122
717.000	0.31434	-0.04576	0.15816	0.53514
718.000	0.33609	-0.02387	0.12257	0.49735
719.000	0.32225	-0.01989	0.18584	0.56498
720.000	0.30050	-0.04377	0.10874	0.57891
721.000	0.32422	-0.05371	0.17793	0.53315
722.000	0.30841	-0.00398	0.21549	0.52917
723.000	0.33213	-0.03382	0.17398	0.58487
724.000	0.29062	-0.04775	0.14827	0.52917
725.000	0.33609	-0.00796	0.15618	0.53912
726.000	0.31236	-0.03979	0.15618	0.53116
727.000	0.30841	-0.02586	0.19770	0.60078
728.000	0.30841	-0.04377	0.16607	0.54907
729.000	0.30248	-0.04377	0.17002	0.52519
730.000	0.33806	-0.03183	0.17991	0.50530
731.000	0.31039	-0.01592	0.15421	0.56100
732.000	0.28864	-0.03581	0.14037	0.58686
733.000	0.31236	-0.06764	0.18781	0.49138
734.000	0.33411	-0.02984	0.20561	0.49336
735.000	0.28073	-0.03780	0.17595	0.57095
736.000	0.27480	-0.04377	0.17595	0.51923
737.000	0.30643	-0.04974	0.18781	0.52917
738.000	0.36772	-0.01989	0.19572	0.54111
739.000	0.31434	-0.07162	0.17200	0.54111
740.000	0.26887	-0.06565	0.22933	0.58288
741.000	0.30050	-0.07958	0.24712	0.54508
742.000	0.27480	-0.03979	0.24317	0.51922
743.000	0.30643	-0.04377	0.18386	0.53912
744.000	0.30643	-0.00199	0.22142	0.55901
745.000	0.37167	-0.00995	0.16804	0.55503
746.000	0.31039	-0.02188	0.17398	0.52519
747.000	0.33213	-0.02387	0.21945	0.57492
748.000	0.30841	-0.01592	0.17991	0.55503
749.000	0.32225	-0.02188	0.16409	0.58487
750.000	0.33411	-0.02188	0.09094	0.51724
751.000	0.31039	-0.01194	0.16804	0.52321
752.000	0.34993	-0.01194	0.16607	0.58288
753.000	0.32027	-0.02785	0.17793	0.45955
754.000	0.33806	-0.00995	0.16607	0.53912
755.000	0.33806	-0.00995	0.13048	0.59283
756.000	0.30841	-0.02785	0.19375	0.55901
757.000	0.36179	-0.03382	0.17991	0.52320
758.000	0.32225	-0.04576	0.18584	0.54509
759.000	0.32620	-0.01790	0.12455	0.56896
760.000	0.29852	-0.05371	0.18781	0.56100
761.000	0.35388	-0.01592	0.11467	0.49337
762.000	0.33609	-0.01592	0.23526	0.51326
763.000	0.30446	-0.05769	0.17595	0.52320
764.000	0.31434	-0.07361	0.18979	0.53514
765.000	0.34597	-0.07958	0.12060	0.57891
766.000	0.37365	-0.01194	0.21747	0.51525
767.000	0.33016	-0.03382	0.21154	0.54707
768.000	0.37563	-0.02785	0.20561	0.56299
769.000	0.34202	-0.01194	0.09490	0.58288
770.000	0.32027	-0.02785	0.20758	0.51525
771.000	0.36772	-0.00398	0.13839	0.55106
772.000	0.34795	-0.04973	0.17398	0.52320
773.000	0.33016	-0.03581	0.13444	0.55702
774.000	0.34993	0.02785	0.19572	0.51326
775.000	0.34993	0.01393	0.11664	0.57692
776.000	0.33806	0.00796	0.18188	0.57095
777.000	0.35783	0.02785	0.15223	0.55702
778.000	0.35586	0.01592	0.15223	0.54310
779.000	0.37365	-0.03382	0.14037	0.55106
780.000	0.35190	0.01790	0.22933	0.47944
781.000	0.34795	0.01592	0.14827	0.54310
782.000	0.36969	-0.01393	0.22538	0.54509
783.000	0.36772	-0.00398	0.28073	0.57293
784.000	0.39737	-0.01989	0.13048	0.55503
785.000	0.38353	-0.01393	0.17398	0.57095
786.000	0.35783	0.01194	0.19968	0.55503
787.000	0.35586	0.01592	0.23526	0.55105
788.000	0.38353	-0.04377	0.22142	0.58885
789.000	0.38946	-0.02984	0.19770	0.52121
790.000	0.36772	0.00000	0.15816	0.54111
791.000	0.36376	-0.02188	0.17398	0.53315
792.000	0.38353	-0.07560	0.21549	0.55105
793.000	0.39144	-0.01393	0.09885	0.56299
794.000	0.38749	-0.04775	0.15223	0.53912
795.000	0.38353	-0.05570	0.16409	0.60079
796.000	0.39342	-0.07759	0.11664	0.55503
797.000	0.40330	-0.03382	0.15816	0.53315
798.000	0.39539	-0.03581	0.17793	0.56299
799.000	0.42109	-0.07162	0.06722	0.56299
800.000	0.38749	-0.06565	0.27876	0.55901
801.000	0.39935	-0.05172	0.17991	0.55304
802.000	0.42307	-0.01790	0.19968	0.58487
803.000	0.39737	-0.04576	0.10874	0.47149
804.000	0.39539	-0.02387	0.15025	0.50928
805.000	0.41516	-0.04377	0.26096	0.52121
806.000	0.36376	-0.08355	0.15816	0.51127
807.000	0.40726	-0.07361	0.15816	0.58885
808.000	0.42109	-0.05769	0.14234	0.55901
809.000	0.37563	-0.05769	0.13444	0.53713
810.000	0.40726	-0.03780	0.19572	0.52519
811.000	0.39342	-0.08952	0.17991	0.51724
812.000	0.36376	-0.06565	0.21945	0.50132
813.000	0.40923	-0.03581	0.11862	0.53514
814.000	0.43493	-0.04377	0.20363	0.52718
815.000	0.37760	-0.05371	0.17793	0.60476
816.000	0.37365	-0.02785	0.17793	0.52519
817.000	0.44086	-0.07162	0.13444	0.52321
818.000	0.41714	-0.03979	0.11862	0.49735
819.000	0.40133	-0.03780	0.18584	0.53912
820.000	0.37760	-0.01592	0.16409	0.47745
821.000	0.38353	-0.07759	0.22933	0.55702
822.000	0.42505	-0.03780	0.16804	0.59482
823.000	0.40726	-0.08156	0.24910	0.55503
824.000	0.39935	-0.06764	0.18386	0.48939
825.000	0.41714	-0.03581	0.21352	0.57492
826.000	0.39144	-0.06366	0.19177	0.55901
827.000	0.36179	-0.08753	0.18979	0.50331
828.000	0.37760	-0.05172	0.11862	0.55305
829.000	0.38749	-0.06963	0.17002	0.54310
830.000	0.39737	-0.01790	0.19375	0.61869
831.000	0.41319	-0.03780	0.19968	0.54906
832.000	0.41516	-0.06366	0.16804	0.58288
833.000	0.37958	-0.02387	0.11071	0.54111
834.000	0.39737	-0.02387	0.20561	0.57890
835.000	0.37563	-0.03382	0.12455	0.59084
836.000	0.40726	-0.01790	0.19770	0.53912
837.000	0.44679	-0.01790	0.14037	0.53315
838.000	0.41121	-0.01790	0.17200	0.59283
839.000	0.43296	0.01194	0.20363	0.59283
840.000	0.40726	-0.01393	0.19770	0.54310
841.000	0.44877	0.00995	0.14827	0.57493
842.000	0.39737	-0.01790	0.15025	0.50331
843.000	0.43296	-0.00995	0.22933	0.56697
844.000	0.39935	-0.02387	0.12257	0.55503
845.000	0.40726	-0.01393	0.23329	0.60874
846.000	0.37958	-0.03382	0.17991	0.59681
847.000	0.40330	-0.01194	0.06920	0.62665
848.000	0.40528	0.00597	0.13048	0.53912
849.000	0.40133	-0.05172	0.18584	0.54906
850.000	0.41121	-0.03183	0.15618	0.50729
851.000	0.40330	-0.01790	0.17002	0.58288
852.000	0.40528	-0.01592	0.18188	0.52519
853.000	0.43493	-0.02188	0.17398	0.56697
854.000	0.39144	-0.00995	0.14630	0.51923
855.000	0.39737	-0.02586	0.12257	0.61869
856.000	0.43098	0.01989	0.19375	0.56100
857.000	0.39935	-0.01194	0.16804	0.57691
858.000	0.39342	-0.04377	0.17793	0.53912
859.000	0.39737	-0.04576	0.11071	0.59283
860.000	0.40528	-0.02188	0.24317	0.51127
861.000	0.37958	-0.02984	0.08501	0.57095
862.000	0.40330	-0.01592	0.17002	0.49933
863.000	0.39144	-0.03780	0.12653	0.51923
864.000	0.40330	-0.02984	0.18584	0.49337
865.000	0.39737	-0.04178	0.14234	0.51724
866.000	0.44679	-0.06167	0.10280	0.59084
867.000	0.43098	-0.00199	0.16409	0.52321
868.000	0.41121	-0.08156	0.19572	0.51923
869.000	0.41516	-0.05769	0.15421	0.59084
870.000	0.41912	-0.05968	0.14432	0.57692
871.000	0.43098	-0.06565	0.10676	0.57493
872.000	0.40528	-0.02586	0.15025	0.53315
873.000	0.44086	-0.00995	0.18386	0.53514
874.000	0.44086	0.01194	0.19177	0.53912
875.000	0.48040	0.03183	0.23526	0.52320
876.000	0.43098	-0.04377	0.22340	0.60277
877.000	0.43889	0.00398	0.17398	0.52320
878.000	0.41516	-0.05371	0.17398	0.51525
879.000	0.41714	-0.01592	0.22142	0.53116
880.000	0.43493	-0.00796	0.18188	0.63261
881.000	0.40923	-0.02188	0.10280	0.56697
882.000	0.46656	-0.01790	0.15618	0.54708
883.000	0.46459	0.01790	0.26689	0.57492
884.000	0.42505	-0.01989	0.23922	0.48939
885.000	0.45668	-0.02984	0.17595	0.53116
886.000	0.43691	-0.01790	0.23922	0.61670
887.000	0.40923	-0.01194	0.23131	0.53514
888.000	0.47447	-0.01194	0.19770	0.49933
889.000	0.42702	-0.02785	0.12653	0.56896
890.000	0.46261	-0.05570	0.15223	0.57692
891.000	0.42702	-0.05769	0.15816	0.54111
892.000	0.47052	-0.04973	0.24119	0.52718
893.000	0.41516	-0.04576	0.18979	0.50530
894.000	0.43296	-0.03183	0.19375	0.53912
895.000	0.42702	-0.01989	0.13246	0.53912
896.000	0.43493	-0.02387	0.13641	0.55106
897.000	0.44877	-0.05769	0.18386	0.55702
898.000	0.43296	-0.04576	0.14630	0.55702
899.000	0.43691	-0.03979	0.21154	0.54310
900.000	0.44284	-0.01393	0.12850	0.56697
901.000	0.43889	-0.02984	0.15816	0.59084
902.000	0.49028	-0.04973	0.09885	0.51326
903.000	0.48040	-0.05172	0.19177	0.50928
904.000	0.47249	-0.03382	0.10478	0.55106
905.000	0.46261	-0.00199	0.13444	0.60278
906.000	0.49226	-0.01393	0.15421	0.60675
907.000	0.47447	-0.01194	0.17002	0.51923
908.000	0.49622	-0.00398	0.09687	0.56697
909.000	0.44086	0.00995	0.14630	0.56100
910.000	0.46261	-0.06963	0.18386	0.60675
911.000	0.48633	-0.02387	0.09094	0.57692
912.000	0.49819	-0.02785	0.09490	0.55106
913.000	0.46261	-0.05769	0.19375	0.54310
914.000	0.45668	-0.00796	0.14432	0.53315
915.000	0.47052	-0.05769	0.14234	0.58686
916.000	0.48633	0.01393	0.11664	0.55702
917.000	0.46261	-0.04576	0.18188	0.55901
918.000	0.44086	0.00398	0.10280	0.53713
919.000	0.49028	-0.01194	0.13641	0.57692
920.000	0.46459	-0.03382	0.18188	0.56100
921.000	0.44877	-0.04178	0.20758	0.54509
922.000	0.46854	0.01393	0.18386	0.61670
923.000	0.49028	-0.00199	0.05536	0.57294
924.000	0.45668	0.00796	0.15223	0.62068
925.000	0.47052	0.02188	0.17595	0.60874
926.000	0.47645	-0.02785	0.07513	0.62665
927.000	0.50215	-0.00995	0.10280	0.62466
928.000	0.48831	0.02188	0.14234	0.60874
929.000	0.50610	0.02387	0.08897	0.61869
930.000	0.45865	0.01591	0.16211	0.68433
931.000	0.54959	0.00796	0.17002	0.62068
932.000	0.63064	0.01393	0.24712	0.65250
933.000	0.76901	-0.00796	0.34993	0.62266
934.000	0.83424	-0.07957	0.44877	0.64453
935.000	0.99829	-0.16112	0.63262	0.52516
936.000	1.23939	-0.27845	0.82831	0.42569
937.000	1.43698	-0.39577	1.06351	0.30035
938.000	1.71948	-0.51900	1.38166	0.20684
939.000	2.02558	-0.72168	1.61676	0.07955
940.000	2.28618	-0.88850	1.83403	-0.10141
941.000	2.52103	-1.08108	2.16379	-0.39760
942.000	2.65124	-1.33324	2.35921	-0.51879
943.000	2.78932	-1.50983	2.53287	-0.72540
944.000	2.97075	-1.69819	2.81299	-1.06294
945.000	3.12846	-1.82892	3.01807	-1.31694
946.000	3.13240	-2.01146	2.96483	-1.51555
947.000	3.18365	-2.23155	3.09298	-1.74563
948.000	3.22109	-2.36235	3.09101	-1.98773
949.000	3.23095	-2.58041	3.18365	-2.25138
950.000	3.25065	-2.75279	3.16788	-2.39023
951.000	3.29795	-2.94682	3.11269	-2.60053
952.000	3.37873	-3.05353	3.16985	-2.86200
953.000	3.40828	-3.21975	3.16591	-2.98286
954.000	3.52647	-3.36778	3.31371	-3.10918
955.000	3.59343	-3.53570	3.35509	-3.27140
956.000	3.64265	-3.67591	3.40828	-3.40976
957.000	3.71550	-3.83178	3.42404	-3.58975
958.000	3.73322	-3.97397	3.49495	-3.60135
959.000	3.79621	-4.06653	3.51859	-3.80493
960.000	3.82574	-4.15130	3.51071	-3.79903
961.000	3.84739	-4.20846	3.57767	-3.79678
962.000	3.87691	-4.25964	3.49495	-3.86828
963.000	3.87494	-4.26557	3.61115	-3.89744
964.000	3.87297	-4.28334	3.52647	-3.94919
965.000	3.83754	-4.26773	3.51268	-3.90577
966.000	3.81196	-4.21455	3.56586	-3.87392
967.000	3.81393	-4.19480	3.45359	-3.82101
968.000	3.80015	-4.11588	3.49692	-3.71011
969.000	3.76472	-4.07655	3.41025	-3.75791
970.000	3.76078	-4.01138	3.40434	-3.70058
971.000	3.76865	-4.02320	3.37282	-3.57609
972.000	3.80605	-3.97759	3.37873	-3.54639
973.000	3.77850	-3.90659	3.37282	-3.50487
974.000	3.81983	-3.93407	3.38070	-3.42371
975.000	3.80408	-3.88672	3.34918	-3.43965
976.000	3.83951	-3.86482	3.46738	-3.47880
977.000	3.89659	-3.86259	3.37085	-3.45145
978.000	3.92610	-3.89406	3.45753	-3.46499
979.000	3.92807	-3.90986	3.47920	-3.39764
980.000	3.95168	-3.92160	3.44571	-3.41359
981.000	3.96349	-3.92549	3.49889	-3.47869
982.000	4.04218	-3.88956	3.50874	-3.47074
983.000	4.06775	-3.92697	3.48904	-3.54401
984.000	4.06382	-3.95661	3.57570	-3.55752
985.000	4.06185	-4.00205	3.49101	-3.55785
986.000	4.11103	-4.06104	3.51662	-3.57555
987.000	4.08742	-4.05128	3.55207	-3.59717
988.000	4.11299	-4.06695	3.57964	-3.66430
989.000	4.13070	-4.10634	3.54419	-3.73563
990.000	4.15430	-4.08056	3.53238	-3.72183
991.000	4.13856	-4.12802	3.46738	-3.68056
992.000	4.11299	-4.18737	3.56783	-3.71378
993.000	4.14840	-4.20100	3.54025	-3.74355
994.000	4.09923	-4.20915	3.56192	-3.74347
995.000	4.11103	-4.20711	3.50677	-3.80695
996.000	4.11496	-4.17354	3.49692	-3.80502
997.000	4.14250	-4.18129	3.57373	-3.81656
998.000	4.14053	-4.21091	3.50874	-3.84055
999.000	4.11496	-4.22288	3.57964	-3.83235
1000.000	4.09136	-4.19340	3.48117	-3.83474
1001.000	4.09333	-4.21313	3.53041	-3.83058
1002.000	4.10119	-4.16966	3.46738	-3.76164
1003.000	4.12676	-4.18532	3.50086	-3.83268
1004.000	4.11103	-4.15382	3.44768	-3.85266
1005.000	4.11496	-4.18538	3.53435	-3.84242
1006.000	4.08349	-4.19344	3.42010	-3.77171
1007.000	4.10316	-4.16768	3.50874	-3.74170
1008.000	4.09333	-4.22102	3.49495	-3.75362
1009.000	4.13070	-4.21490	3.45950	-3.78144
1010.000	4.11299	-4.20710	3.50480	-3.75754
1011.000	4.08152	-4.17766	3.43783	-3.75582
1012.000	4.11103	-4.17356	3.45359	-3.75378
1013.000	4.09726	-4.15784	3.46147	-3.73793
1014.000	4.07169	-4.18166	3.45162	-3.78345
1015.000	4.11103	-4.16961	3.49692	-3.82083
1016.000	4.16610	-4.19103	3.42995	-3.75190
1017.000	4.16020	-4.17528	3.41025	-3.75198
1018.000	4.15430	-4.14767	3.46344	-3.81899
1019.000	4.11889	-4.15970	3.47329	-3.75371
1020.000	4.14840	-4.16350	3.43783	-3.77757
1021.000	4.14446	-4.12404	3.45359	-3.70633
1022.000	4.17199	-4.15153	3.46541	-3.71815
1023.000	4.12086	-4.10837	3.46344	-3.71618
1024.000	4.14446	-4.12799	3.47132	-3.75569
1025.000	4.13463	-4.13396	3.31568	-3.74047
1026.000	4.12283	-4.12613	3.39252	-3.68876
1027.000	4.16216	-4.14369	3.38858	-3.74217
1028.000	4.16806	-4.09036	3.41616	-3.77964
1029.000	4.13463	-4.11027	3.37085	-3.70269
1030.000	4.15036	-4.10427	3.49298	-3.74770
1031.000	4.15036	-4.12598	3.41813	-3.75986
1032.000	4.20149	-4.12769	3.36691	-3.82728
1033.000	4.18183	-4.07252	3.44965	-3.71821
1034.000	4.15430	-4.15557	3.43980	-3.70440
1035.000	4.14250	-4.13984	3.39449	-3.75599
1036.000	4.16413	-4.10025	3.43980	-3.77954
1037.000	4.18969	-4.07445	3.35312	-3.74429
1038.000	4.18183	-4.12582	3.48708	-3.83669
1039.000	4.17199	-4.17521	3.36691	-3.78774
1040.000	4.19559	-4.10206	3.37676	-3.71453
1041.000	4.16610	-4.13577	3.47132	-3.79524
1042.000	4.16806	-4.15550	3.37282	-3.76596
1043.000	4.19166	-4.15143	3.41616	-3.80139
1044.000	4.19756	-4.09218	3.37282	-3.79167
1045.000	4.18183	-4.12977	3.42601	-3.84287
1046.000	4.17593	-4.15151	3.36100	-3.85894
1047.000	4.19363	-4.11391	3.35115	-3.79175
1048.000	4.23885	-4.09788	3.44571	-3.81313
1049.000	4.18773	-4.09420	3.37282	-3.86482
1050.000	4.20346	-4.04477	3.34721	-3.84713
1051.000	4.19363	-4.04679	3.43980	-3.81909
1052.000	4.20542	-4.08424	3.40237	-3.82517
1053.000	4.21526	-4.08222	3.34918	-3.84515
1054.000	4.18969	-4.04879	3.39449	-3.78565
1055.000	4.22116	-4.10785	3.40040	-3.83308
1056.000	4.19953	-4.05466	3.44177	-3.78547
1057.000	4.21329	-4.06446	3.37479	-3.82132
1058.000	4.21329	-4.07038	3.40434	-3.85481
1059.000	4.20739	-4.09213	3.34524	-3.76607
1060.000	4.23295	-4.09002	3.39449	-3.79752
1061.000	4.22705	-4.03872	3.39252	-3.78171
1062.000	4.21132	-4.07237	3.39843	-3.83507
1063.000	4.26048	-4.10369	3.40040	-3.80343
1064.000	4.20542	-4.06648	3.38267	-3.77977
1065.000	4.18576	-4.11790	3.42207	-3.74798
1066.000	4.23689	-4.05447	3.34130	-3.82145
1067.000	4.21919	-4.09207	3.35706	-3.81348
1068.000	4.21132	-4.05460	3.40040	-3.76388
1069.000	4.26245	-4.06223	3.34524	-3.69685
1070.000	4.24278	-4.03667	3.39646	-3.80937
1071.000	4.24672	-4.07416	3.35903	-3.81743
1072.000	4.22509	-4.11177	3.37873	-3.76396
1073.000	4.24082	-4.07419	3.34130	-3.79772
1074.000	4.23689	-4.09197	3.38464	-3.75801
1075.000	4.22705	-4.02096	3.36888	-3.83914
1076.000	4.25458	-4.08991	3.34327	-3.80365
1077.000	4.25261	-4.08794	3.40631	-3.79945
1078.000	4.24278	-4.07812	3.36691	-3.82333
1079.000	4.24082	-4.08208	3.37282	-3.70466
1080.000	4.22509	-4.05650	3.32159	-3.77012
1081.000	4.23492	-4.07224	3.29992	-3.79195
1082.000	4.24082	-4.10774	3.36691	-3.72248
1083.000	4.25851	-4.11357	3.34130	-3.77004
1084.000	4.25655	-4.06226	3.33144	-3.78392
1085.000	4.24082	-4.05642	3.38858	-3.71844
1086.000	4.23689	-4.09000	3.27627	-3.76040
1087.000	4.22902	-4.10978	3.33144	-3.76415
1088.000	4.21722	-4.12168	3.25263	-3.78026
1089.000	4.23099	-4.10187	3.33736	-3.74830
1090.000	4.26245	-4.05236	3.33736	-3.80169
1091.000	4.25458	-4.10767	3.35115	-3.77989
1092.000	4.30176	-4.11729	3.22504	-3.74872
1093.000	4.24868	-4.11954	3.36100	-3.76403
1094.000	4.24672	-4.02875	3.34721	-3.75420
1095.000	4.28211	-4.06607	3.30780	-3.79785
1096.000	4.26245	-4.08197	3.27233	-3.73075
1097.000	4.24868	-4.07612	3.30583	-3.72469
1098.000	4.26441	-4.08985	3.33933	-3.80169
1099.000	4.25065	-4.09585	3.31765	-3.76420
1100.000	4.25261	-4.08399	3.30189	-3.76821
1101.000	4.26048	-4.12145	3.35706	-3.75811
1102.000	4.27228	-4.09179	3.33933	-3.78982
1103.000	4.25851	-4.08791	3.29598	-3.78406
1104.000	4.26245	-4.07605	3.33144	-3.76217
1105.000	4.28997	-4.11932	3.35509	-3.75021
1106.000	4.27228	-4.07007	3.35509	-3.76603
1107.000	4.24868	-4.07809	3.33144	-3.75624
1108.000	4.29980	-4.06598	3.24474	-3.73085
1109.000	4.24475	-4.07417	3.33933	-3.74829
1110.000	4.26441	-4.08591	3.33538	-3.75820
1111.000	4.29783	-4.07191	3.35312	-3.68298
1112.000	4.26441	-4.08196	3.31568	-3.76025
1113.000	4.29783	-4.06402	3.39646	-3.79158
1114.000	4.26834	-4.08983	3.27233	-3.72284
1115.000	4.26834	-4.09970	3.29401	-3.70100
1116.000	4.28211	-4.09568	3.37479	-3.80946
1117.000	4.29980	-4.07980	3.33144	-3.79381
1118.000	4.26638	-4.09182	3.29795	-3.76427
1119.000	4.27228	-4.07402	3.37085	-3.74224
1120.000	4.29194	-4.10352	3.31371	-3.82749
1121.000	4.29390	-4.09167	3.38070	-3.78571
1122.000	4.29194	-4.06405	3.31765	-3.74047
1123.000	4.31159	-4.06197	3.35115	-3.76605
1124.000	4.24278	-4.07220	3.29204	-3.78803
1125.000	4.29980	-4.05414	3.31371	-3.81563
1126.000	4.28997	-4.04234	3.29204	-3.76429
1127.000	4.27621	-4.06808	3.33144	-3.76019
1128.000	4.27424	-4.09572	3.29007	-3.75441
1129.000	4.28014	-4.06411	3.25657	-3.77827
1130.000	4.27228	-4.08586	3.30977	-3.75236
1131.000	4.27031	-4.02665	3.24277	-3.78821
1132.000	4.27031	-4.06416	3.28810	-3.77617
1133.000	4.24672	-4.05244	3.28810	-3.80584
1134.000	4.29980	-4.02650	3.29992	-3.76624
1135.000	4.32732	-4.04807	3.30583	-3.74644
1136.000	4.30570	-4.09555	3.25657	-3.80200
1137.000	4.33125	-4.03423	3.31174	-3.82947
1138.000	4.27424	-4.02071	3.34327	-3.77201
1139.000	4.27228	-4.03651	3.30977	-3.76225
1140.000	4.27817	-4.04635	3.33538	-3.85706
1141.000	4.27424	-4.07006	3.31962	-3.80572
1142.000	4.27424	-4.05624	3.26051	-3.81781
1143.000	4.29980	-4.01268	3.37085	-3.76399
1144.000	4.28800	-4.04433	3.31568	-3.82353
1145.000	4.34698	-4.01243	3.26445	-3.82372
1146.000	4.30373	-4.05017	3.35903	-3.82534
1147.000	4.31159	-4.00275	3.35115	-3.85305
1148.000	4.29390	-4.02456	3.41419	-3.83896
1149.000	4.30373	-4.04622	3.28415	-3.76432
1150.000	4.31159	-4.05999	3.32947	-3.79975
1151.000	4.27621	-4.04439	3.31174	-3.83541
1152.000	4.27621	-4.04636	3.32356	-3.79384
1153.000	4.29783	-4.03243	3.38070	-3.77187
1154.000	4.28997	-4.04432	3.31174	-3.83541
1155.000	4.29783	-3.99690	3.26642	-3.78614
1156.000	4.29783	-4.04230	3.34918	-3.80560
1157.000	4.29980	-4.05019	3.25263	-3.73280
1158.000	4.29783	-4.05217	3.30780	-3.81367
1159.000	4.28407	-4.02263	3.41616	-3.75789
1160.000	4.31946	-4.03824	3.33933	-3.76807
1161.000	4.28997	-4.02260	3.33736	-3.81553
1162.000	4.29194	-4.03049	3.35312	-3.81547
1163.000	4.29390	-4.05417	3.33341	-3.73645
1164.000	4.29587	-4.03244	3.30386	-3.82555
1165.000	4.27424	-4.01479	3.32553	-3.78592
1166.000	4.30570	-4.06595	3.27824	-3.72281
1167.000	4.34305	-4.02627	3.34130	-3.84320
1168.000	4.35091	-4.06768	3.27824	-3.79401
1169.000	4.35091	-4.06176	3.28218	-3.75247
1170.000	4.33518	-4.03026	3.41419	-3.81721
1171.000	4.28997	-4.07393	3.38858	-3.77183
1172.000	4.31946	-4.04219	3.28810	-3.83747
1173.000	4.31356	-4.05604	3.33736	-3.77203
1174.000	4.29783	-4.05217	3.37085	-3.83913
1175.000	4.30373	-4.06004	3.27036	-3.84545
1176.000	4.33715	-4.06183	3.32159	-3.80373
1177.000	4.28800	-4.02261	3.36691	-3.83519
1178.000	4.29587	-4.04034	3.28415	-3.77817
1179.000	4.29587	-4.07390	3.27233	-3.84742
1180.000	4.31553	-4.02444	3.29992	-3.81370
1181.000	4.31553	-4.04813	3.24277	-3.82974
1182.000	4.30570	-4.04423	3.30189	-3.81567
1183.000	4.28997	-4.03247	3.29007	-3.84340
1184.000	4.30766	-4.04225	3.29598	-3.75637
1185.000	4.32929	-3.99476	3.34721	-3.84911
1186.000	4.31356	-4.01656	3.32750	-3.78393
1187.000	4.27817	-4.02859	3.37282	-3.77981
1188.000	4.31159	-4.04420	3.29401	-3.84338
1189.000	4.34501	-4.05982	3.34327	-3.82144
1190.000	4.26834	-4.03061	3.31568	-3.82946
1191.000	4.30373	-4.04424	3.34721	-3.86097
1192.000	4.29194	-4.03049	3.35706	-3.87872
1193.000	4.29783	-3.99295	3.31371	-3.80376
1194.000	4.32535	-4.08163	3.37085	-3.80552
1195.000	4.34894	-3.99860	3.29007	-3.76826
1196.000	4.27424	-4.04637	3.42601	-3.79146
1197.000	4.31159	-4.02841	3.27430	-3.87707
1198.000	4.29587	-4.04231	3.34130	-3.81947
1199.000	4.29783	-4.02059	3.35115	-3.77593
1200.000	4.35091	-4.03807	3.30780	-3.82751
1201.000	4.33518	-4.00460	3.28218	-3.81179
1202.000	4.31159	-4.01854	3.31962	-3.84922
1203.000	4.28014	-4.05029	3.36297	-3.75611
1204.000	4.30373	-4.08964	3.25657	-3.82969
1205.000	4.25851	-4.08001	3.28218	-3.85134
1206.000	4.28211	-4.04436	3.30189	-3.81172
1207.000	4.28800	-4.09368	3.30977	-3.80773
1208.000	4.29390	-4.05219	3.29007	-3.79792
1209.000	4.25458	-4.03463	3.26248	-3.75847
1210.000	4.27621	-4.03847	3.25460	-3.80201
1211.000	4.27228	-4.05231	3.30583	-3.84136
1212.000	4.27817	-4.05228	3.27627	-3.80786
1213.000	4.30373	-3.99094	3.34327	-3.80760
1214.000	4.32142	-4.01454	3.27627	-3.78611
1215.000	4.27817	-4.02464	3.34721	-3.84911
1216.000	4.29587	-3.97519	3.26839	-3.79800
1217.000	4.29783	-3.99690	3.29795	-3.78800
1218.000	4.25851	-4.07607	3.35115	-3.78187
1219.000	4.26441	-4.02274	3.33538	-3.78193
1220.000	4.30176	-4.05018	3.29992	-3.76229
1221.000	4.29783	-4.05415	3.33341	-3.80566
1222.000	4.27031	-4.06219	3.32356	-3.75824
1223.000	4.25655	-4.10174	3.18365	-3.78447
1224.000	4.30766	-4.02843	3.28810	-3.84341
1225.000	4.27621	-4.06413	3.31962	-3.76617
1226.000	4.25065	-4.03465	3.25657	-3.84748
1227.000	4.29390	-4.03245	3.12255	-3.78470
1228.000	4.28014	-4.02660	3.27036	-3.75844
1229.000	4.30766	-4.09949	3.31568	-3.84923
1230.000	4.27621	-4.06610	3.36297	-3.82334
1231.000	4.27817	-4.00292	3.33144	-3.85906
1232.000	4.29980	-4.03637	3.34721	-3.79177
1233.000	4.28997	-4.00878	3.27430	-3.79798
1234.000	4.27424	-4.04243	3.28612	-3.83550
1235.000	4.26638	-4.05431	3.33144	-3.77008
1236.000	4.28211	-4.05818	3.37676	-3.77781
1237.000	4.25851	-4.03856	3.27430	-3.80193
1238.000	4.25065	-4.07216	3.24671	-3.79215
1239.000	4.29194	-4.00483	3.31371	-3.78597
1240.000	4.29194	-4.06602	3.27627	-3.82763
1241.000	4.28014	-4.02660	3.28612	-3.73267
1242.000	4.30176	-4.03044	3.29795	-3.77218
1243.000	4.25851	-4.04646	3.36100	-3.74426
1244.000	4.30176	-4.02254	3.29598	-3.76230
1245.000	4.30176	-4.07979	3.30386	-3.73854
1246.000	4.29194	-4.04431	3.31371	-3.72862
1247.000	4.23492	-4.03276	3.31371	-3.81760
1248.000	4.17789	-3.97777	3.30977	-3.74841
1249.000	4.07169	-3.93880	3.22504	-3.68147
1250.000	3.90446	-3.92577	3.11072	-3.67990
1251.000	3.78046	-3.74255	3.02792	-3.65644
1252.000	3.55798	-3.55166	2.64730	-3.49730
1253.000	3.21715	-3.34510	2.34934	-3.27822
1254.000	2.87018	-3.14415	1.95055	-3.12843
1255.000	2.44407	-2.87567	1.64837	-2.91875
1256.000	2.00386	-2.57103	1.25124	-2.69703
1257.000	1.61478	-2.15269	0.79075	-2.30032
1258.000	1.19394	-1.71600	0.33213	-1.81174
1259.000	0.73540	-1.33456	-0.15421	-1.43806
1260.000	0.33609	-0.83947	-0.61482	-1.04030
1261.000	-0.10280	-0.35014	-1.05165	-0.62256
1262.000	-0.53575	0.13130	-1.47847	-0.08751
1263.000	-0.86784	0.57685	-1.89328	0.49310
1264.000	-1.16627	0.94669	-2.33552	0.83282
1265.000	-1.45871	1.37797	-2.56641	1.27573
1266.000	-1.76491	1.67582	-2.88793	1.68838
1267.000	-2.00386	2.00331	-3.28021	2.00919
1268.000	-2.17169	2.35049	-3.45950	2.44900
1269.000	-2.54865	2.50460	-3.84148	2.60843
1270.000	-2.80510	2.71229	-4.02251	2.87912
1271.000	-3.03975	2.90000	-4.42756	3.13477
1272.000	-3.27233	3.01820	-4.61617	3.39881
1273.000	-3.42010	3.20189	-4.86946	3.57136
1274.000	-3.71156	3.31170	-5.17551	3.81632
1275.000	-3.96152	3.44522	-5.41465	3.86809
1276.000	-4.16610	3.59853	-5.52631	4.10581
1277.000	-4.33715	3.75183	-5.73777	4.33467
1278.000	-4.44918	3.93490	-5.90409	4.41995
1279.000	-4.57296	4.11775	-5.99210	4.60998
1280.000	-4.61814	4.21809	-6.06444	4.85301
1281.000	-4.69866	4.33591	-6.08595	4.93137
1282.000	-4.74971	4.51494	-6.12504	5.05076
1283.000	-4.75757	4.61339	-6.05076	5.16922
1284.000	-4.78113	4.80424	-6.03121	5.23611
1285.000	-4.78702	4.94197	-6.03707	5.30276
1286.000	-4.78702	4.96165	-6.02730	5.36561
1287.000	-4.87339	4.98856	-5.82779	5.35970
1288.000	-4.79683	5.04814	-5.84540	5.33010
1289.000	-4.83413	5.01442	-5.80823	5.43835
1290.000	-4.78113	5.04432	-5.77887	5.35231
1291.000	-4.82432	5.01843	-5.73777	5.32326
1292.000	-4.87339	4.98856	-5.72212	5.32929
1293.000	-4.85376	4.94936	-5.61836	5.28117
1294.000	-4.89498	4.86838	-5.49889	5.24493
1295.000	-4.89301	4.81329	-5.58899	5.25984
1296.000	-4.91068	4.82694	-5.50281	5.24882
1297.000	-4.94796	4.79715	-5.62815	5.19862
1298.000	-4.99505	4.79287	-5.61053	5.25965
1299.000	-4.97936	4.79692	-5.65360	5.26711
1300.000	-5.05391	4.78850	-5.69471	5.27655
1301.000	-5.06764	4.79824	-5.73386	5.31152
1302.000	-5.11472	4.85298	-5.71429	5.40393
1303.000	-5.08726	4.92794	-5.72016	5.42349
1304.000	-5.14609	4.92552	-5.82584	5.47152
1305.000	-5.11079	4.98676	-5.77887	5.58571
1306.000	-5.14609	5.02778	-5.82975	5.60089
1307.000	-5.19708	5.07456	-5.85910	5.70447
1308.000	-5.28138	5.09550	-5.83562	5.70275
1309.000	-5.28726	5.16227	-5.96081	5.67600
1310.000	-5.21473	5.22181	-5.91387	5.74310
1311.000	-5.22257	5.22568	-5.90605	5.80194
1312.000	-5.27942	5.21145	-5.95103	5.80343
1313.000	-5.28530	5.24676	-5.92952	5.74293
1314.000	-5.22257	5.28854	-5.99992	5.73633
1315.000	-5.22061	5.23159	-5.95299	5.77991
1316.000	-5.20100	5.22979	-5.97841	5.76985
1317.000	-5.21080	5.26703	-5.91192	5.73724
1318.000	-5.19904	5.24159	-5.92365	5.80959
1319.000	-5.18531	5.22991	-5.91387	5.79794
1320.000	-5.21473	5.23753	-5.90213	5.81961
1321.000	-5.18924	5.28686	-5.88257	5.82961
1322.000	-5.15198	5.25180	-5.90018	5.76675
1323.000	-5.14609	5.22631	-5.89431	5.69236
1324.000	-5.15786	5.29105	-5.80236	5.70504
1325.000	-5.17943	5.22407	-5.84345	5.69679
1326.000	-5.13825	5.22637	-5.90996	5.70591
1327.000	-5.12256	5.21667	-5.86301	5.68680
1328.000	-5.08333	5.21699	-5.83366	5.70081
1329.000	-5.11079	5.21873	-5.84736	5.67128
1330.000	-5.09118	5.24247	-5.82192	5.61077
1331.000	-5.09706	5.20312	-5.77105	5.67204
1332.000	-5.20296	5.15903	-5.81018	5.61285
1333.000	-5.11668	5.19314	-5.78866	5.63658
1334.000	-5.09902	5.12842	-5.71820	5.66668
1335.000	-5.15982	5.10434	-5.72799	5.58621
1336.000	-5.15002	5.12211	-5.77300	5.57400
1337.000	-5.11668	5.14793	-5.75930	5.58002
1338.000	-5.10883	5.12441	-5.84540	5.65758
1339.000	-5.10687	5.14998	-5.86888	5.66126
1340.000	-5.07941	5.07156	-5.81605	5.61279
1341.000	-5.11668	5.11059	-5.77887	5.59551
1342.000	-5.06176	5.11692	-5.80627	5.62073
1343.000	-5.02252	5.14278	-5.80627	5.61485
1344.000	-5.04214	5.11314	-5.85910	5.65744
1345.000	-5.07156	5.15026	-5.83758	5.65962
1346.000	-5.07353	5.09520	-5.83953	5.63412
1347.000	-5.08726	5.11475	-5.82192	5.67937
1348.000	-5.09314	5.15205	-5.89431	5.70999
1349.000	-5.10295	5.12446	-5.81801	5.67941
1350.000	-5.11275	5.14403	-5.84540	5.63602
1351.000	-5.08333	5.09905	-5.80823	5.68343
1352.000	-5.08529	5.13639	-5.91778	5.68036
1353.000	-5.16767	5.12394	-5.81997	5.69311
1354.000	-5.12256	5.14199	-5.84736	5.69283
1355.000	-5.04018	5.16623	-5.80627	5.74224
1356.000	-5.02252	5.16441	-5.80431	5.73442
1357.000	-5.09314	5.16581	-5.81214	5.71474
1358.000	-5.09314	5.16974	-5.81018	5.67949
1359.000	-5.09510	5.21886	-5.89431	5.72762
1360.000	-5.14021	5.17526	-5.83953	5.72035
1361.000	-5.05979	5.15428	-5.86888	5.64754
1362.000	-5.10687	5.13425	-5.88062	5.66114
1363.000	-5.08333	5.13051	-5.84540	5.66738
1364.000	-5.10687	5.17749	-5.90996	5.67848
1365.000	-5.09902	5.15201	-5.81801	5.61081
1366.000	-5.06372	5.18963	-5.87475	5.66904
1367.000	-5.09902	5.19721	-5.79844	5.71292
1368.000	-5.06764	5.13456	-5.87670	5.73564
1369.000	-5.16178	5.21046	-5.81997	5.68331
1370.000	-5.08726	5.13048	-5.90996	5.65888
1371.000	-5.04606	5.16619	-5.84149	5.69877
1372.000	-5.07549	5.16595	-5.81605	5.71666
1373.000	-5.06176	5.17196	-5.88062	5.67682
1374.000	-5.13629	5.18905	-5.86301	5.64956
1375.000	-5.12844	5.17929	-5.80627	5.69325
1376.000	-5.12060	5.17738	-5.87866	5.62588
1377.000	-5.12256	5.14396	-5.86497	5.62798
1378.000	-5.09902	5.15790	-5.83366	5.61849
1379.000	-5.12844	5.18715	-5.90605	5.72750
1380.000	-5.15786	5.17708	-5.86105	5.65154
1381.000	-5.11668	5.16169	-5.91974	5.72736
1382.000	-5.08333	5.14820	-5.85518	5.68687
1383.000	-5.11472	5.16171	-5.91778	5.73326
1384.000	-5.12648	5.16554	-5.90996	5.69024
1385.000	-5.05391	5.20740	-5.88453	5.71009
1386.000	-5.11472	5.15974	-5.79649	5.71882
1387.000	-5.12452	5.10659	-5.84932	5.68106
1388.000	-5.12060	5.09483	-5.85714	5.66530
1389.000	-5.18728	5.07071	-5.90409	5.73144
1390.000	-5.09510	5.10486	-5.94125	5.73106
1391.000	-5.12060	5.05354	-5.89040	5.65712
1392.000	-5.10491	5.13230	-5.85714	5.70057
1393.000	-5.10295	5.10676	-5.91387	5.66864
1394.000	-5.15002	5.15749	-5.89431	5.71783
1395.000	-5.11472	5.13419	-5.92365	5.62151
1396.000	-5.19120	5.07854	-5.89235	5.62575
1397.000	-5.11472	5.11060	-5.79649	5.65219
1398.000	-5.18531	5.14542	-5.90996	5.66476
1399.000	-5.08726	5.09902	-5.89040	5.67280
1400.000	-5.11275	5.11455	-5.91778	5.62941
1401.000	-5.11275	5.12438	-5.95103	5.64867
1402.000	-5.10295	5.12839	-5.88257	5.62585
1403.000	-5.17747	5.15727	-5.90996	5.63929
1404.000	-5.19316	5.08835	-6.03903	5.71633
1405.000	-5.11864	5.09484	-5.91387	5.66080
1406.000	-5.11864	5.09878	-5.95494	5.65451
1407.000	-5.15394	5.13388	-5.91974	5.69406
1408.000	-5.18139	5.05503	-5.88257	5.67680
1409.000	-5.14217	5.11628	-5.87670	5.69058
1410.000	-5.13825	5.14383	-5.87475	5.66512
1411.000	-5.17551	5.12191	-5.87866	5.65528
1412.000	-5.14806	5.10247	-5.89431	5.56888
1413.000	-5.15590	5.09848	-5.92561	5.59405
1414.000	-5.14413	5.09464	-5.96081	5.63681
1415.000	-5.13629	5.12616	-5.96863	5.72686
1416.000	-5.08726	5.11475	-5.93734	5.62137
1417.000	-5.16374	5.11218	-5.94517	5.70163
1418.000	-5.15198	5.11030	-5.85910	5.70447
1419.000	-5.17551	5.13370	-5.98232	5.62287
1420.000	-5.16178	5.07288	-5.89822	5.63941
1421.000	-5.14806	5.09461	-5.95299	5.61337
1422.000	-5.13041	5.12031	-5.87866	5.59844
1423.000	-5.15786	5.07684	-5.87866	5.64548
1424.000	-5.15786	5.11026	-5.92170	5.62349
1425.000	-5.11275	5.11651	-5.99797	5.71480
1426.000	-5.20296	5.10400	-5.99210	5.63845
1427.000	-5.19316	5.07656	-5.82388	5.57546
1428.000	-5.13629	5.07111	-5.83758	5.68705
1429.000	-5.15002	5.09066	-5.80823	5.61875
1430.000	-5.11668	5.08896	-5.85518	5.60260
1431.000	-5.11668	5.13417	-5.92365	5.60387
1432.000	-5.11472	5.10667	-5.92365	5.70577
1433.000	-5.15786	5.08863	-5.92365	5.68226
1434.000	-5.12648	5.13606	-5.92952	5.72334
1435.000	-5.18531	5.04713	-5.87670	5.71213
1436.000	-5.14413	5.15558	-5.93147	5.68610
1437.000	-5.12844	5.10263	-5.90800	5.72357
1438.000	-5.17551	5.07866	-5.83366	5.66357
1439.000	-5.09314	5.11077	-5.94125	5.64289
1440.000	-5.11864	5.09484	-5.95690	5.63685
1441.000	-5.14217	5.13790	-5.89040	5.68456
1442.000	-5.17747	5.06685	-5.96668	5.66222
1443.000	-5.11079	5.10277	-5.92365	5.65875
1444.000	-5.19120	5.07461	-5.88844	5.67086
1445.000	-5.17355	5.07278	-5.92952	5.66065
1446.000	-5.18924	5.13949	-5.95690	5.69955
1447.000	-5.11668	5.13024	-5.82388	5.66563
1448.000	-5.22845	5.12345	-5.86301	5.62016
1449.000	-5.19120	5.10213	-5.84345	5.66348
1450.000	-5.14806	5.04546	-5.93539	5.69781
1451.000	-5.19316	5.15125	-5.96277	5.66422
1452.000	-5.18531	5.13166	-5.94125	5.64289
1453.000	-5.20100	5.03325	-5.89040	5.65124
1454.000	-5.18924	5.06873	-5.87866	5.63176
1455.000	-5.15198	5.05329	-5.86692	5.64952
1456.000	-5.17551	5.07866	-5.94908	5.63105
1457.000	-5.19120	5.05495	-5.87084	5.64164
1458.000	-5.11864	5.07322	-5.90605	5.68440
1459.000	-5.12452	5.04565	-5.87866	5.67488
1460.000	-5.10883	5.05757	-5.88844	5.64930
1461.000	-5.15002	5.06511	-5.88453	5.59447
1462.000	-5.11472	5.07522	-5.86497	5.66130
1463.000	-5.13041	5.04167	-5.87866	5.63176
1464.000	-5.12648	5.08495	-5.84932	5.61834
1465.000	-5.17551	5.09243	-5.84540	5.65954
1466.000	-5.14413	5.05139	-5.86105	5.61430
1467.000	-5.15982	5.08076	-5.94125	5.68600
1468.000	-5.21669	5.06654	-5.95103	5.65455
1469.000	-5.16571	5.08464	-5.82388	5.61271
1470.000	-5.12452	5.10659	-5.91974	5.65487
1471.000	-5.12060	5.12825	-5.88453	5.56898
1472.000	-5.13041	5.05740	-5.84540	5.57329
1473.000	-5.19904	5.06472	-5.88649	5.65324
1474.000	-5.14217	5.09466	-5.91192	5.63927
1475.000	-5.16178	5.03552	-5.78866	5.57777
1476.000	-5.14413	5.10250	-5.90018	5.60215
1477.000	-5.13825	5.10059	-5.80236	5.55999
1478.000	-5.10883	5.06347	-5.80040	5.58942
1479.000	-5.15394	5.05328	-5.77105	5.58775
1480.000	-5.14806	5.04939	-5.84736	5.60660
1481.000	-5.17551	5.04918	-5.84736	5.54975
1482.000	-5.13629	5.09077	-5.79649	5.55417
1483.000	-5.11668	5.04964	-5.85323	5.62222
1484.000	-5.16767	5.08462	-5.86301	5.63388
1485.000	-5.15982	5.06896	-5.77300	5.60145
1486.000	-5.10099	5.02224	-5.79844	5.58356
1487.000	-5.17355	5.01184	-5.78474	5.69542
1488.000	-5.07745	5.07158	-5.80040	5.57177
1489.000	-5.14413	5.06909	-5.76126	5.58784
1490.000	-5.08333	5.11085	-5.77887	5.66216
1491.000	-5.10883	5.10082	-5.75930	5.64275
1492.000	-5.14806	5.08478	-5.75735	5.59768
1493.000	-5.06568	5.05397	-5.79453	5.59732
1494.000	-5.09118	5.05377	-5.79453	5.59928
1495.000	-5.11668	5.12828	-5.79061	5.62676
1496.000	-5.11472	5.05752	-5.76909	5.59757
1497.000	-5.09510	5.04784	-5.73582	5.65671
1498.000	-5.10491	5.08119	-5.75930	5.67804
1499.000	-5.11864	5.07518	-5.79061	5.67772
1500.000	-5.17159	5.08066	-5.78866	5.64246
1501.000	-5.10491	5.04187	-5.81801	5.69901
1502.000	-5.08333	5.03810	-5.77692	5.63278
1503.000	-5.12844	5.07314	-5.73777	5.68413
1504.000	-5.07745	5.04995	-5.76322	5.61723
1505.000	-5.08922	5.08328	-5.74169	5.65469
1506.000	-5.11079	5.06935	-5.70646	5.65111
1507.000	-5.08137	5.07548	-5.74952	5.58011
1508.000	-5.07353	5.04015	-5.70058	5.64137
1509.000	-5.07549	5.07159	-5.72212	5.63332
1510.000	-5.08137	5.06958	-5.81605	5.64611
1511.000	-5.08922	5.09508	-5.77105	5.72692
1512.000	-5.07353	5.06178	-5.71037	5.62951
1513.000	-5.14806	5.03760	-5.79061	5.66793
1514.000	-5.12256	5.04763	-5.77105	5.65636
1515.000	-5.05979	5.07958	-5.75735	5.62121
1516.000	-5.05587	5.06978	-5.75930	5.60747
1517.000	-5.11079	5.06738	-5.73190	5.68419
1518.000	-5.10491	5.06153	-5.74560	5.57623
1519.000	-5.09902	5.05764	-5.72016	5.63334
1520.000	-5.11275	5.05557	-5.71624	5.60397
1521.000	-5.14217	5.08090	-5.72407	5.64506
1522.000	-5.07353	5.06571	-5.73386	5.68025
1523.000	-5.14609	5.04548	-5.78083	5.63078
1524.000	-5.06960	5.03428	-5.66730	5.67306
1525.000	-5.15590	5.05130	-5.72603	5.58819
1526.000	-5.10491	5.02024	-5.68297	5.65134
1527.000	-5.08137	5.09907	-5.78279	5.59743
1528.000	-5.09902	5.06354	-5.80627	5.68933
1529.000	-5.14217	5.04354	-5.79257	5.67771
1530.000	-5.11864	5.04766	-5.64773	5.58306
1531.000	-5.09314	5.04589	-5.75147	5.65851
1532.000	-5.13629	5.04752	-5.84345	5.64780
1533.000	-5.10295	5.06155	-5.75735	5.63885
1534.000	-5.11668	5.06537	-5.79257	5.63262
1535.000	-5.13433	4.98658	-5.74169	5.60372
1536.000	-5.10883	5.03397	-5.74365	5.64879
1537.000	-5.11864	5.02603	-5.75930	5.65844
1538.000	-5.10099	5.01634	-5.78866	5.63462
1539.000	-5.12844	4.98466	-5.80236	5.59724
1540.000	-5.10687	5.01236	-5.75147	5.61146
1541.000	-5.11472	5.02999	-5.76322	5.60155
1542.000	-5.13237	5.05148	-5.71233	5.62165
1543.000	-5.13825	5.05144	-5.68688	5.58857
1544.000	-5.10883	5.04774	-5.72799	5.54699
1545.000	-5.06372	5.03432	-5.72407	5.67250
1546.000	-5.12256	5.01224	-5.72603	5.56270
1547.000	-5.11668	5.02015	-5.78866	5.56797
1548.000	-5.10491	5.02024	-5.71429	5.62359
1549.000	-5.10491	4.96714	-5.73582	5.56652
1550.000	-5.17355	4.98234	-5.77887	5.52885
1551.000	-5.14413	4.98257	-5.79257	5.68358
1552.000	-5.08137	4.98306	-5.79061	5.55030
1553.000	-5.17551	4.98823	-5.80627	5.62465
1554.000	-5.10491	5.03007	-5.79649	5.61690
1555.000	-5.10491	5.01827	-5.67318	5.63968
1556.000	-4.99113	5.04275	-5.57919	5.58959
1557.000	-4.88909	5.05335	-5.37350	5.65624
1558.000	-4.70455	5.05471	-5.11472	5.74294
1559.000	-4.37450	5.10818	-4.79487	5.81046
1560.000	-4.04808	5.18709	-4.43149	5.83697
1561.000	-3.72338	5.24026	-3.99103	5.81668
1562.000	-3.19941	5.30617	-3.56389	5.91580
1563.000	-2.62165	5.37586	-2.99046	5.96830
1564.000	-2.12628	5.40142	-2.37302	6.08138
1565.000	-1.47057	5.51569	-1.80638	6.19560
1566.000	-0.90934	5.52272	-1.23544	6.15595
1567.000	-0.29457	5.57852	-0.63262	6.22188
1568.000	0.26492	5.60809	-0.12653	6.30480
1569.000	0.78877	5.73763	0.30050	6.29883
1570.000	1.30855	5.75834	0.90539	6.24704
1571.000	1.75305	5.78078	1.33226	6.25400
1572.000	2.17366	5.82656	1.76293	6.24095
1573.000	2.51905	5.85266	2.01374	6.09463
1574.000	2.90173	5.83706	2.38289	6.25817
1575.000	3.26051	5.81742	2.69267	6.12115
1576.000	3.63281	5.88982	2.98258	6.11570
1577.000	3.95758	5.84441	3.27233	6.11599
1578.000	4.27031	5.83821	3.40828	6.06213
1579.000	4.64367	5.81956	3.82574	6.14767
1580.000	5.02645	5.82218	4.02644	6.14228
1581.000	5.36566	5.82495	4.30570	6.19307
1582.000	5.77105	5.83272	4.65742	6.12543
1583.000	6.07031	5.77084	4.87928	6.14698
1584.000	6.36924	5.73626	5.18139	6.18136
1585.000	6.62686	5.72552	5.31274	6.12133
1586.000	6.89980	5.69297	5.57724	6.17150
1587.000	7.07510	5.70258	5.82779	6.18839
1588.000	7.27361	5.69034	6.01165	6.08660
1589.000	7.39418	5.71811	6.13090	6.06374
1590.000	7.53218	5.77490	6.24619	6.18560
1591.000	7.67980	5.78854	6.43367	6.22636
1592.000	7.70893	5.82131	6.54492	6.24648
1593.000	7.87776	5.85214	6.69902	6.29921
1594.000	7.92431	5.93337	6.79651	6.30185
1595.000	7.95922	5.95431	6.85693	6.37521
1596.000	8.04452	6.00763	6.89006	6.32599
1597.000	8.02126	6.05668	6.82770	6.33267
1598.000	7.93983	6.05008	6.81990	6.41276
1599.000	7.85836	6.10583	6.81600	6.50253
1600.000	7.75357	6.12878	6.74192	6.44501
1601.000	7.64679	6.13421	6.71072	6.51564
1602.000	7.56910	6.11387	6.57614	6.42375
1603.000	7.38641	6.12811	6.51955	6.46936
1604.000	7.31056	6.11159	6.49613	6.52820
1605.000	7.24248	6.07739	6.37705	6.44578
1606.000	7.17827	6.07044	6.30089	6.47601
1607.000	7.16075	6.02382	6.35557	6.51242
1608.000	7.15296	6.00635	6.38681	6.42809
1609.000	7.16659	6.00422	6.43367	6.46654
1610.000	7.18216	5.95326	6.56053	6.47078
1611.000	7.25804	5.95422	6.61125	6.54231
1612.000	7.35529	5.94122	6.56638	6.39655
1613.000	7.46805	5.93386	6.67952	6.40875
1614.000	7.58658	5.98687	6.86083	6.44537
1615.000	7.70698	5.96179	6.81210	6.36995
1616.000	7.80986	5.94864	6.89201	6.46836
1617.000	7.93013	5.92939	6.98552	6.28765
1618.000	8.00769	5.96335	7.04200	6.40002
1619.000	8.10072	5.95225	6.98941	6.40268
1620.000	8.16660	5.99024	6.98552	6.41639
1621.000	8.15885	5.94750	7.05563	6.35108
1622.000	8.17435	5.96285	7.05952	6.31787
1623.000	8.19759	5.99756	6.97773	6.31117
1624.000	8.14723	5.99052	6.92513	6.42501
1625.000	8.14529	5.95354	6.95825	6.36800
1626.000	8.13560	5.99265	6.92513	6.35674
1627.000	8.14723	5.93403	6.87837	6.40223
1628.000	8.10654	5.96775	6.91539	6.39003
1629.000	8.09491	6.01662	6.90370	6.31606
1630.000	8.07941	5.97984	6.81405	6.43430
1631.000	8.06197	5.98594	6.87057	6.39843
1632.000	8.03095	5.97081	6.82380	6.37369
1633.000	7.99412	6.01226	6.76142	6.35500
1634.000	7.91656	5.96272	6.73217	6.41197
1635.000	7.95340	5.99337	6.85498	6.33036
1636.000	7.94952	5.98563	6.78286	6.39960
1637.000	7.89910	5.95712	6.81015	6.40704
1638.000	7.90298	5.99215	6.69902	6.45337
1639.000	7.90880	5.99207	6.71657	6.43949
1640.000	7.86806	5.97316	6.68927	6.45155
1641.000	7.85448	5.97530	6.69317	6.41638
1642.000	7.89716	5.94740	6.65807	6.48707
1643.000	7.86612	5.93030	6.66392	6.40115
1644.000	7.85642	5.92069	6.69902	6.40850
1645.000	7.85448	5.94606	6.73022	6.45686
1646.000	7.83508	5.99313	6.66977	6.35814
1647.000	7.88746	5.99432	6.68147	6.42629
1648.000	7.85836	5.97135	6.75557	6.35703
1649.000	7.85642	5.95578	6.76922	6.48951
1650.000	7.87000	5.94779	6.72827	6.42177
1651.000	7.84284	5.95402	6.70877	6.40252
1652.000	7.86224	5.95960	6.72632	6.34960
1653.000	7.87582	5.97890	6.80626	6.42855
1654.000	7.84284	5.95208	6.82185	6.41664
1655.000	7.85836	5.96745	6.70877	6.33617
1656.000	7.87776	6.00421	6.75167	6.39610
1657.000	7.84866	5.97929	6.85498	6.38694
1658.000	7.88552	5.98655	6.81600	6.40501
1659.000	7.91268	6.00760	6.82575	6.38147
1660.000	7.86224	5.95570	6.79846	6.39549
1661.000	7.87388	5.96333	6.81405	6.32114
1662.000	7.86030	5.94013	6.75362	6.36681
1663.000	7.89522	5.93963	6.69122	6.39884
1664.000	7.86224	5.91671	6.75557	6.39605
1665.000	7.90686	5.96481	6.76922	6.34904
1666.000	7.89910	5.95907	6.77117	6.30804
1667.000	7.85254	5.95779	6.80626	6.34075
1668.000	7.87194	5.93217	6.74777	6.35127
1669.000	7.85060	5.95391	6.71462	6.38488
1670.000	7.86612	5.95369	6.73997	6.38260
1671.000	7.91268	5.99396	6.74387	6.25373
1672.000	7.86224	5.93620	6.77702	6.36260
1673.000	7.90104	5.95319	6.76727	6.36468
1674.000	7.88940	5.94166	6.73217	6.35928
1675.000	7.87582	5.92431	6.81015	6.31143
1676.000	7.86224	5.92840	6.76532	6.29835
1677.000	7.89134	5.93579	6.72047	6.35553
1678.000	7.93789	5.97216	6.68927	6.34618
1679.000	7.95146	5.98755	6.74777	6.37469
1680.000	7.90104	5.95319	6.72632	6.34960
1681.000	7.87582	5.92821	6.73022	6.35150
1682.000	7.90104	5.93175	6.73997	6.36308
1683.000	7.88746	5.96703	6.75557	6.33361
1684.000	7.87582	5.93796	6.66782	6.29375
1685.000	7.89522	5.96692	6.82575	6.34635
1686.000	7.84090	5.94625	6.77312	6.39387
1687.000	7.87194	5.88927	6.80041	6.39546
1688.000	7.87776	5.94768	6.72827	6.30469
1689.000	7.86224	5.93815	6.79456	6.35066
1690.000	7.91268	5.91794	6.77896	6.34501
1691.000	7.92625	5.95673	6.74972	6.37467
1692.000	7.89328	5.91432	6.87837	6.29493
1693.000	7.92043	5.92368	6.77702	6.30406
1694.000	7.86806	5.95367	6.81795	6.29181
1695.000	7.87776	5.92818	6.84329	6.29734
1696.000	7.87194	5.94581	6.86862	6.29896
1697.000	7.88164	5.93983	6.71267	6.29708
1698.000	7.88164	5.94957	6.76337	6.31594
1699.000	7.90104	5.94540	6.79066	6.28241
1700.000	7.87388	5.91069	6.66782	6.30156
1701.000	7.84866	5.93834	6.79456	6.39749
1702.000	7.89910	5.94737	6.72242	6.27743
1703.000	7.85254	5.96363	6.70877	6.34202
1704.000	7.88746	5.94754	6.67952	6.30336
1705.000	7.87970	5.97299	6.72242	6.29695
1706.000	7.84866	5.90520	6.79261	6.28824
1707.000	7.88358	5.96319	6.72242	6.32818
1708.000	7.86418	5.92643	6.78871	6.31952
1709.000	7.87194	5.94776	6.75557	6.26725
1710.000	7.87388	5.93214	6.69902	6.28749
1711.000	7.89134	5.92799	6.73412	6.37487
1712.000	7.83896	5.95993	6.70487	6.28156
1713.000	7.89134	5.92019	6.73217	6.29878
1714.000	7.84672	5.93252	6.73412	6.25386
1715.000	7.86612	5.95369	6.69317	6.27195
1716.000	7.86030	5.96157	6.73022	6.27148
1717.000	7.83896	5.92288	6.79261	6.29410
1718.000	7.83120	5.92494	6.75167	6.32781
1719.000	7.83508	5.92489	6.75167	6.34732
1720.000	7.85254	5.94414	6.79456	6.28821
1721.000	7.82344	5.92700	6.74387	6.26349
1722.000	7.83508	5.96778	6.74387	6.34157
1723.000	7.82732	5.91135	6.77312	6.36460
1724.000	7.87000	5.92439	6.73607	6.24212
1725.000	7.84866	5.92860	6.71462	6.26192
1726.000	7.83120	5.92104	6.72047	6.34968
1727.000	7.87000	5.94779	6.73802	6.30846
1728.000	7.82926	5.96007	6.75947	6.28672
1729.000	7.82732	5.95425	6.81990	6.32106
1730.000	7.86224	5.93425	6.73412	6.36121
1731.000	7.80986	5.96229	6.76727	6.31980
1732.000	7.83314	5.93272	6.75557	6.27896
1733.000	7.82732	5.90940	6.72047	6.30869
1734.000	7.82150	5.94263	6.85693	6.28155
1735.000	7.80791	5.95062	6.74582	6.32788
1736.000	7.82538	5.92893	6.76727	6.34126
1737.000	7.76716	5.91999	6.74777	6.28296
1738.000	7.81180	5.91352	6.80236	6.25103
1739.000	7.79239	5.89429	6.81405	6.31919
1740.000	7.80403	5.90778	6.78481	6.23759
1741.000	7.81956	5.94071	6.79261	6.31361
1742.000	7.79627	5.89618	6.76922	6.33343
1743.000	7.80403	5.89802	6.81015	6.32704
1744.000	7.78657	5.92362	6.75947	6.21839
1745.000	7.79239	5.87673	6.73997	6.28697
1746.000	7.82538	5.93088	6.77896	6.26109
1747.000	7.80986	5.89404	6.77702	6.24745
1748.000	7.81568	5.92126	6.75167	6.36488
1749.000	7.82150	5.90948	6.81210	6.30750
1750.000	7.81956	5.89976	6.83354	6.27405
1751.000	7.81956	5.92121	6.77117	6.23386
1752.000	7.80209	5.89805	6.84913	6.34019
1753.000	7.83314	5.92102	6.78286	6.25128
1754.000	7.79821	5.89421	6.87252	6.26378
1755.000	7.75940	5.91035	6.83159	6.30530
1756.000	7.80986	5.89404	6.84524	6.24071
1757.000	7.76328	5.88494	6.74582	6.26152
1758.000	7.77881	5.88082	6.81210	6.28018
1759.000	7.77686	5.86720	6.76532	6.24760
1760.000	7.79045	5.91187	6.80236	6.29397
1761.000	7.77298	5.86920	6.80820	6.27438
1762.000	7.77298	5.87310	6.84524	6.31878
1763.000	7.76522	5.87711	6.88616	6.25775
1764.000	7.75163	5.88120	6.77507	6.37824
1765.000	7.75357	5.86947	6.93292	6.22786
1766.000	7.78657	5.88462	6.78481	6.24345
1767.000	7.76134	5.90057	6.83159	6.44186
1768.000	7.81180	5.88231	6.77896	6.26695
1769.000	7.77686	5.87890	6.78091	6.39377
1770.000	7.76716	5.86148	6.82770	6.28974
1771.000	7.80986	5.87649	6.87252	6.32622
1772.000	7.80015	5.93513	6.74387	6.30449
1773.000	7.76910	5.83219	6.80626	6.30368
1774.000	7.79627	5.93129	6.80820	6.32902
1775.000	7.80791	5.85506	6.79261	6.36435
1776.000	7.79627	5.87863	6.77507	6.37824
1777.000	7.85254	5.92074	6.72632	6.46472
1778.000	7.85060	5.91882	6.84719	6.34412
1779.000	7.80403	5.90388	6.89201	6.32402
1780.000	7.81374	5.93104	6.74387	6.32010
1781.000	7.74775	5.87150	6.75752	6.17155
1782.000	7.79045	5.79093	6.94266	6.19650
1783.000	7.76134	5.59224	6.93682	6.01109
1784.000	7.82926	5.33354	6.93292	5.86070
1785.000	7.80986	5.09923	6.98357	5.59028
1786.000	7.85836	4.81110	7.04978	5.26663
1787.000	7.80015	4.42403	7.16659	4.90103
1788.000	7.80015	3.99863	7.04784	4.46887
1789.000	7.74193	3.54971	7.11014	4.05795
1790.000	7.71281	3.04891	7.06147	3.60041
1791.000	7.60212	2.61890	7.15102	2.95831
1792.000	7.54967	2.01475	7.09067	2.53719
1793.000	7.46805	1.51063	7.23859	1.87818
1794.000	7.34363	1.07325	7.22886	1.29645
1795.000	7.24442	0.53482	7.09651	0.76199
1796.000	7.10235	0.00000	7.03810	0.42647
1797.000	7.01473	-0.45216	6.89590	-0.04345
1798.000	6.88811	-0.85120	6.93292	-0.43052
1799.000	6.81795	-1.28180	6.86667	-0.71892
1800.000	6.69512	-1.61978	6.82770	-1.20477
1801.000	6.67562	-1.93569	6.83744	-1.55614
1802.000	6.62491	-2.21811	6.83744	-1.72588
1803.000	6.58004	-2.51623	6.72827	-2.09137
1804.000	6.52736	-2.78670	6.73217	-2.47601
1805.000	6.53516	-3.04097	6.72437	-2.76785
1806.000	6.42586	-3.31754	6.53516	-2.92467
1807.000	6.42391	-3.46334	6.54882	-3.14336
1808.000	6.41415	-3.75484	6.58004	-3.35198
1809.000	6.39853	-3.87699	6.50394	-3.53959
1810.000	6.34385	-4.01909	6.44928	-3.52225
1811.000	6.35947	-4.15273	6.40048	-3.70769
1812.000	6.32237	-4.25136	6.30674	-3.67489
1813.000	6.31846	-4.24550	6.26182	-3.75594
1814.000	6.32237	-4.30446	6.20907	-3.72875
1815.000	6.30870	-4.22001	6.19344	-3.67765
1816.000	6.26768	-4.21444	6.14263	-3.55782
1817.000	6.29893	-4.08043	6.05858	-3.60962
1818.000	6.28917	-3.94670	6.07617	-3.37299
1819.000	6.28917	-3.86993	6.06835	-3.17783
1820.000	6.33995	-3.66087	6.00188	-3.01448
1821.000	6.35557	-3.51305	6.09377	-2.89362
1822.000	6.37119	-3.37110	6.02143	-2.68873
1823.000	6.43757	-3.22289	6.18562	-2.51619
1824.000	6.49223	-3.11612	6.01948	-2.47550
1825.000	6.51369	-2.99970	6.14067	-2.35055
1826.000	6.50589	-2.98201	6.27549	-2.38548
1827.000	6.56053	-2.97577	6.27159	-2.29469
1828.000	6.56638	-2.96391	6.26377	-2.27892
1829.000	6.56638	-2.98362	6.42000	-2.35718
1830.000	6.55858	-3.07433	6.43562	-2.48735
1831.000	6.61516	-3.16461	6.38095	-2.57050
1832.000	6.58979	-3.28495	6.41024	-2.75973
1833.000	6.55858	-3.35804	6.46490	-2.87578
1834.000	6.53711	-3.52558	6.36924	-3.02027
1835.000	6.53906	-3.62597	6.32432	-3.17235
1836.000	6.52345	-3.70482	6.36924	-3.32579
1837.000	6.51760	-3.86427	6.26573	-3.35996
1838.000	6.51174	-3.91744	6.30674	-3.47792
1839.000	6.52345	-3.98423	6.28721	-3.55685
1840.000	6.49223	-4.05136	6.19148	-3.53582
1841.000	6.51174	-4.12986	6.21688	-3.63219
1842.000	6.50394	-4.13582	6.13090	-3.68399
1843.000	6.51174	-4.18688	6.06444	-3.66278
1844.000	6.55663	-4.22386	6.04098	-3.67082
1845.000	6.53516	-4.24370	6.08595	-3.67248
1846.000	6.54882	-4.21606	6.06053	-3.68053
1847.000	6.54687	-4.18462	6.11136	-3.67625
1848.000	6.57223	-4.18048	5.98232	-3.62983
1849.000	6.57223	-4.16279	6.05858	-3.56035
1850.000	6.57809	-4.14504	6.00579	-3.62179
1851.000	6.57223	-4.12543	6.01948	-3.48965
1852.000	6.59370	-4.11542	6.01557	-3.52319
1853.000	6.61516	-4.09952	5.98819	-3.44057
1854.000	6.59370	-4.06430	6.00579	-3.53113
1855.000	6.58199	-4.11552	6.01557	-3.56063
1856.000	6.62686	-4.08566	5.91387	-3.43906
1857.000	6.63466	-4.05413	5.95299	-3.43882
1858.000	6.63271	-4.02662	5.95103	-3.49403
1859.000	6.59565	-4.02889	5.94125	-3.46255
1860.000	6.66197	-3.97132	5.97059	-3.39336
1861.000	6.61125	-4.03073	6.00579	-3.38526
1862.000	6.60930	-3.98748	5.97646	-3.40713
1863.000	6.67172	-3.99681	5.99992	-3.44641
1864.000	6.64051	-3.97740	5.91192	-3.38189
1865.000	6.63856	-3.96758	5.91387	-3.37399
1866.000	6.62296	-3.98147	6.01557	-3.37731
1867.000	6.66782	-3.95751	5.91974	-3.44297
1868.000	6.63466	-3.98334	5.99015	-3.37747
1869.000	6.63076	-3.96961	6.02925	-3.40285
1870.000	6.60150	-3.93641	5.95886	-3.32442
1871.000	6.63856	-3.98724	6.03903	-3.38702
1872.000	6.64441	-4.01669	6.00188	-3.35373
1873.000	6.65027	-3.99502	6.02143	-3.35361
1874.000	6.65417	-3.96942	5.97450	-3.34601
1875.000	6.65417	-3.97729	5.97841	-3.37162
1876.000	6.64051	-3.97346	5.98232	-3.36371
1877.000	6.64637	-3.98522	5.97255	-3.33617
1878.000	6.63271	-3.98729	6.08790	-3.38869
1879.000	6.68147	-3.98493	5.98623	-3.36369
1880.000	6.63076	-3.98337	5.95886	-3.26525
1881.000	6.68732	-3.99275	5.92170	-3.31083
1882.000	6.66197	-4.03032	6.01752	-3.37730
1883.000	6.62296	-3.98540	5.90213	-3.36420
1884.000	6.64246	-3.99508	5.90996	-3.39768
1885.000	6.63856	-3.98528	5.96668	-3.39930
1886.000	6.63271	-3.95976	5.99015	-3.43070
1887.000	6.61516	-4.01103	5.97059	-3.43674
1888.000	6.66977	-3.97519	6.00383	-3.40893
1889.000	6.64832	-4.00290	6.08008	-3.35522
1890.000	6.66977	-3.99682	5.95886	-3.45258
1891.000	6.66977	-3.97913	5.99601	-3.37546
1892.000	6.65027	-3.98912	5.96277	-3.40130
1893.000	6.68537	-3.96130	6.03316	-3.40283
1894.000	6.67952	-4.00658	5.96668	-3.46042
1895.000	6.69122	-3.98289	6.02534	-3.41471
1896.000	6.71267	-4.04759	6.01752	-3.44038
1897.000	6.67952	-3.98298	5.98623	-3.48789
1898.000	6.71657	-3.99644	6.03512	-3.37127
1899.000	6.68342	-3.98492	6.03316	-3.40480
1900.000	6.68927	-4.00060	5.96863	-3.41900
1901.000	6.66977	-3.98109	6.08399	-3.45770
1902.000	6.69317	-3.97697	5.98428	-3.40511
1903.000	6.66197	-4.00082	5.99992	-3.48781
1904.000	6.69317	-4.00843	5.94908	-3.46447
1905.000	6.64637	-3.98325	6.04294	-3.47176
1906.000	6.64832	-4.01076	5.97841	-3.43472
1907.000	6.68537	-3.98293	6.03512	-3.47575
1908.000	6.69707	-4.02609	5.98623	-3.38735
1909.000	6.68147	-4.03605	6.08595	-3.41432
1910.000	6.70682	-3.96899	6.09572	-3.45171
1911.000	6.71462	-4.01022	6.00970	-3.41480
1912.000	6.72047	-4.01017	6.01752	-3.43447
1913.000	6.72632	-4.04748	6.03707	-3.44617
1914.000	6.68342	-3.98885	5.96668	-3.43085
1915.000	6.71852	-4.01019	6.02534	-3.44625
1916.000	6.68537	-3.96720	6.07813	-3.44985
1917.000	6.68927	-4.02026	6.00383	-3.47595
1918.000	6.70877	-4.00240	6.06444	-3.38292
1919.000	6.72827	-4.00028	5.98819	-3.45043
1920.000	6.75167	-4.00795	5.99406	-3.37547
1921.000	6.71072	-4.00436	6.06249	-3.36124
1922.000	6.71852	-3.97283	5.97059	-3.42293
1923.000	6.70877	-3.98864	6.01361	-3.41281
1924.000	6.71852	-4.00626	5.97841	-3.43669
1925.000	6.72242	-4.01606	6.02534	-3.48370
1926.000	6.70682	-3.99456	6.04489	-3.39684
1927.000	6.70097	-4.01427	5.99406	-3.46222
1928.000	6.73607	-3.98842	5.98623	-3.40706
1929.000	6.70682	-3.99259	6.06640	-3.44796
1930.000	6.72437	-4.02390	5.96668	-3.46436
1931.000	6.69512	-3.97499	6.02534	-3.41668
1932.000	6.72632	-4.01799	6.04489	-3.53679
1933.000	6.70682	-3.97883	6.07813	-3.45183
1934.000	6.71072	-3.99846	6.09767	-3.48324
1935.000	6.72437	-3.97475	6.01752	-3.46404
1936.000	6.69122	-4.00648	5.99601	-3.45826
1937.000	6.72827	-3.98258	6.10354	-3.53050
1938.000	6.73217	-3.96879	6.16803	-3.49263
1939.000	6.73412	-4.00416	6.01361	-3.52714
1940.000	6.73412	-3.98254	6.03903	-3.52303
1941.000	6.75362	-3.98827	6.02534	-3.46202
1942.000	6.76142	-3.96068	6.09377	-3.45370
1943.000	6.73607	-3.94516	6.07422	-3.44988
1944.000	6.73412	-3.98057	5.98819	-3.48985
1945.000	6.72437	-3.93542	5.99210	-3.39126
1946.000	6.69512	-3.98482	6.02339	-3.42260
1947.000	6.66392	-3.95754	6.01948	-3.47585
1948.000	6.73802	-4.03952	5.98037	-3.46625
1949.000	6.73022	-3.99830	6.05076	-3.39483
1950.000	6.75752	-3.99807	6.02925	-3.47776
1951.000	6.71657	-3.97088	6.05662	-3.36720
1952.000	6.73412	-3.94911	6.02143	-3.41473
1953.000	6.74387	-3.96869	6.04880	-3.43624
1954.000	6.71267	-3.96305	6.01752	-3.39701
1955.000	6.74777	-3.99422	6.06640	-3.39473
1956.000	6.76532	-3.92329	6.05858	-3.41844
1957.000	6.75557	-3.96860	6.10940	-3.42600
1958.000	6.72632	-3.95311	6.10549	-3.41223
1959.000	6.73217	-3.96879	6.08595	-3.38081
1960.000	6.77312	-3.92913	6.07422	-3.40848
1961.000	6.72632	-3.94327	6.05467	-3.41846
1962.000	6.73607	-3.94713	6.13286	-3.47118
1963.000	6.75362	-3.91356	5.95886	-3.47427
1964.000	6.77117	-3.97240	6.06053	-3.48939
1965.000	6.76142	-3.93709	6.10354	-3.44378
1966.000	6.74387	-3.91757	6.15435	-3.43951
1967.000	6.73022	-3.95897	6.08008	-3.47744
1968.000	6.72437	-3.98851	6.05662	-3.46182
1969.000	6.70682	-3.95130	6.05467	-3.45789
1970.000	6.72047	-3.99248	6.02534	-3.49750
1971.000	6.72632	-3.98063	6.10940	-3.47331
1972.000	6.71657	-3.96892	6.03316	-3.46985
1973.000	6.71852	-3.93744	6.09181	-3.41626
1974.000	6.73217	-3.93733	6.03121	-3.38904
1975.000	6.68147	-3.99083	6.06640	-3.38291
1976.000	6.68927	-3.95537	6.08204	-3.45180
1977.000	6.70877	-3.93555	6.04685	-3.40471
1978.000	6.73217	-3.90193	6.04880	-3.49144
1979.000	6.71462	-3.97483	5.99797	-3.40896
1980.000	6.73217	-3.91570	6.07226	-3.52085
1981.000	6.74387	-3.98835	6.15435	-3.43360
1982.000	6.77507	-3.91338	6.09572	-3.40835
1983.000	6.70877	-3.96505	6.03512	-3.46393
1984.000	6.76337	-3.95084	6.08399	-3.41237
1985.000	6.71267	-3.97878	6.10940	-3.39643
1986.000	6.70097	-3.97297	6.13481	-3.45343
1987.000	6.72437	-3.92559	6.07226	-3.45581
1988.000	6.73022	-3.97864	6.05271	-3.35736
1989.000	6.65807	-4.00675	6.05076	-3.42440
1990.000	6.70877	-3.96898	6.11918	-3.46536
1991.000	6.72242	-3.94920	6.06444	-3.44994
1992.000	6.67757	-3.98496	6.11918	-3.42003
1993.000	6.71462	-3.97286	6.12504	-3.47320
1994.000	6.68537	-3.97310	6.02730	-3.44821
1995.000	6.71852	-3.97087	6.08008	-3.54444
1996.000	6.71852	-3.93744	6.05076	-3.46777
1997.000	6.75947	-3.92137	6.04685	-3.41457
1998.000	6.73217	-3.95109	6.09767	-3.34723
1999.000	6.72632	-3.94131	6.08790	-3.45768
2000.000	6.70682	-3.94540	6.12308	-3.37861
2001.000	6.74777	-3.94113	6.11136	-3.38854
2002.000	6.73217	-3.90980	6.14067	-3.44945
2003.000	6.73217	-3.90783	6.11136	-3.42402
2004.000	6.71852	-3.94137	6.10940	-3.46542
2005.000	6.75362	-3.92929	6.05858	-3.44604
2006.000	6.71072	-3.88440	6.08399	-3.40251
2007.000	6.71657	-3.93549	6.14654	-3.39423
2008.000	6.71852	-3.93940	6.13090	-3.45937
2009.000	6.72827	-3.96095	6.06053	-3.44997
2010.000	6.74387	-3.98639	6.04880	-3.41850
2011.000	6.73997	-3.93726	6.04489	-3.50920
2012.000	6.75947	-3.91744	6.08399	-3.35717
2013.000	6.75362	-3.98041	6.01361	-3.45815
2014.000	6.71852	-3.95317	5.99992	-3.43458
2015.000	6.73022	-3.98060	6.03903	-3.40279
2016.000	6.71657	-3.96498	6.12699	-3.40027
2017.000	6.69512	-4.02414	6.10158	-3.48912
2018.000	6.71072	-3.99846	6.13286	-3.43176
2019.000	6.69317	-4.01236	6.11527	-3.47524
2020.000	6.69122	-3.99468	6.01165	-3.43056
2021.000	6.70292	-4.01032	6.04685	-3.37317
2022.000	6.67757	-4.01839	6.08008	-3.39268
2023.000	6.69317	-3.99663	6.07422	-3.39666
2024.000	6.69122	-3.99665	5.99601	-3.38532
2025.000	6.71072	-3.98273	6.05858	-3.43618
2026.000	6.69512	-3.98285	6.11136	-3.40234
2027.000	6.68732	-3.95342	6.10158	-3.43394
2028.000	6.68147	-3.96330	6.04685	-3.42049
2029.000	6.73412	-3.97270	6.17194	-3.39012
2030.000	6.70877	-3.95718	6.12113	-3.48702
2031.000	6.70487	-3.94541	6.07031	-3.46962
2032.000	6.70097	-3.99657	6.05076	-3.35737
2033.000	6.71267	-3.98861	6.06249	-3.45390
2034.000	6.74972	-4.00797	6.12308	-3.43380
2035.000	6.73022	-3.97274	6.08204	-3.41435
2036.000	6.70292	-3.94740	6.13481	-3.45737
2037.000	6.71852	-3.95513	6.08986	-3.44387
2038.000	6.70682	-3.97096	6.13090	-3.44952
2039.000	6.68342	-3.99081	6.06249	-3.45390
2040.000	6.71267	-3.96501	6.13481	-3.44161
2041.000	6.71657	-4.02790	6.08790	-3.48724
2042.000	6.70292	-3.97492	6.16608	-3.41578
2043.000	6.73412	-3.96287	6.13872	-3.45144
2044.000	6.72632	-3.96097	6.10354	-3.42801
2045.000	6.76142	-3.97838	6.10158	-3.48124
2046.000	6.71462	-3.97483	6.17976	-3.51423
2047.000	6.72047	-3.96298	6.11136	-3.44176
2048.000	6.75947	-3.95677	6.17585	-3.45514
2049.000	6.75752	-3.99217	6.12699	-3.48305
2050.000	6.73022	-3.96094	6.14263	-3.42185
2051.000	6.77312	-3.93110	6.04489	-3.39684
2052.000	6.76337	-3.98033	6.10745	-3.42207
2053.000	6.68342	-3.93182	6.09377	-3.47538
2054.000	6.63661	-3.94793	6.00188	-3.35373
2055.000	6.54492	-3.94866	5.90996	-3.47655
2056.000	6.38095	-4.05027	5.80431	-3.58565
2057.000	6.20516	-4.09296	5.59486	-3.72301
2058.000	5.93539	-4.18949	5.40485	-3.85041
2059.000	5.65360	-4.32743	5.22845	-4.01320
2060.000	5.35586	-4.50680	4.88516	-4.12773
2061.000	5.03429	-4.63511	4.59653	-4.30696
2062.000	4.72419	-4.71406	4.34501	-4.53323
2063.000	4.44525	-4.90693	4.00677	-4.76782
2064.000	4.08152	-5.13373	3.81589	-4.87139
2065.000	3.75291	-5.25387	3.42404	-4.97994
2066.000	3.52450	-5.35560	3.21124	-5.16035
2067.000	3.34130	-5.45701	3.15014	-5.32415
2068.000	3.21518	-5.58364	2.93131	-5.40991
2069.000	3.12649	-5.69625	2.82285	-5.50297
2070.000	3.09692	-5.77114	2.79721	-5.53655
2071.000	3.09101	-5.79280	2.77157	-5.55833
2072.000	3.22898	-5.81367	2.83074	-5.52262
2073.000	3.36494	-5.81091	2.97469	-5.41954
2074.000	3.51859	-5.75494	3.08312	-5.39144
2075.000	3.71353	-5.65543	3.17774	-5.36339
2076.000	3.92413	-5.56166	3.31371	-5.15588
2077.000	4.10119	-5.51132	3.44571	-5.06259
2078.000	4.25458	-5.39228	3.66628	-5.00819
2079.000	4.40987	-5.35186	3.72928	-4.91523
2080.000	4.47472	-5.29437	3.84542	-4.89684
2081.000	4.59064	-5.24633	3.82180	-4.79449
2082.000	4.63385	-5.20472	3.83951	-4.79834
2083.000	4.63974	-5.17124	3.89068	-4.70934
2084.000	4.64563	-5.16530	3.84345	-4.72538
2085.000	4.62599	-5.12610	3.90249	-4.75659
2086.000	4.54938	-5.13452	3.81786	-4.74523
2087.000	4.53956	-5.11688	3.83361	-4.75303
2088.000	4.45900	-5.12925	3.89265	-4.81183
2089.000	4.40398	-5.21226	3.84345	-4.86335
2090.000	4.32732	-5.20295	3.76472	-4.87759
2091.000	4.29783	-5.20119	3.69188	-4.92135
2092.000	4.23295	-5.22917	3.74306	-4.91713
2093.000	4.18183	-5.26690	3.69778	-4.99423
2094.000	4.15036	-5.28678	3.61312	-5.00849
2095.000	4.08152	-5.26559	3.65053	-4.97479
2096.000	4.09529	-5.26944	3.57964	-5.00079
2097.000	4.02448	-5.28564	3.59146	-5.02634
2098.000	4.03235	-5.33084	3.51071	-5.06027
2099.000	3.97923	-5.30560	3.45950	-5.01917
2100.000	3.99890	-5.33106	3.52253	-5.04642
2101.000	3.99300	-5.32519	3.46344	-5.04476
2102.000	4.00677	-5.34281	3.45556	-5.09603
2103.000	3.97529	-5.30563	3.32750	-5.08291
2104.000	3.97333	-5.30368	3.34918	-5.06507
2105.000	3.97333	-5.32335	3.40631	-5.12191
2106.000	3.97333	-5.34893	3.35115	-5.06900
2107.000	3.99103	-5.40193	3.35312	-5.10642
2108.000	3.99103	-5.40193	3.38661	-5.10822
2109.000	3.94971	-5.36875	3.39843	-5.09634
2110.000	4.00284	-5.40382	3.36100	-5.17731
2111.000	3.99890	-5.38811	3.33144	-5.13412
2112.000	4.02054	-5.39190	3.44768	-5.13745
2113.000	3.96152	-5.40015	3.49298	-5.10765
2114.000	3.99300	-5.42355	3.37085	-5.13785
2115.000	4.02054	-5.42730	3.44571	-5.12170
2116.000	4.02841	-5.41152	3.36494	-5.14774
2117.000	4.02841	-5.39972	3.49889	-5.11550
2118.000	4.01267	-5.44506	3.39449	-5.09439
2119.000	4.04021	-5.37407	3.43389	-5.08630
2120.000	4.01661	-5.40766	3.39646	-5.06285
2121.000	4.10316	-5.35791	3.38267	-5.06883
2122.000	4.05792	-5.34051	3.48708	-5.07813
2123.000	4.06579	-5.36013	3.42404	-5.01147
2124.000	4.07562	-5.30695	3.44571	-5.04289
2125.000	4.05792	-5.34641	3.37282	-5.09647
2126.000	4.04415	-5.30715	3.46344	-5.02506
2127.000	4.04218	-5.34651	3.43389	-5.00748
2128.000	4.06185	-5.31491	3.45950	-5.01917
2129.000	4.05005	-5.27957	3.42404	-4.97994
2130.000	4.06185	-5.28343	3.45162	-4.98965
2131.000	4.06972	-5.31092	3.45753	-5.02903
2132.000	4.07956	-5.29905	3.46541	-4.97381
2133.000	4.05595	-5.30511	3.39843	-5.00175
2134.000	4.05792	-5.33264	3.41616	-5.02531
2135.000	4.10119	-5.32449	3.50677	-4.94797
2136.000	4.06382	-5.31489	3.37873	-4.96637
2137.000	4.04612	-5.32288	3.46147	-5.04280
2138.000	4.02644	-5.32104	3.46738	-4.93832
2139.000	4.07759	-5.32071	3.38070	-4.91905
2140.000	4.05989	-5.33263	3.43389	-4.97989
2141.000	4.04415	-5.35240	3.45950	-5.00340
2142.000	4.06382	-5.36408	3.42404	-5.00359
2143.000	4.08939	-5.31669	3.39843	-5.00963
2144.000	4.02054	-5.29944	3.43783	-4.98578
2145.000	4.05005	-5.31498	3.41616	-5.02137
2146.000	4.01071	-5.30343	3.41419	-4.97605
2147.000	4.06972	-5.29518	3.42207	-5.01148
2148.000	4.04808	-5.29139	3.42404	-4.99768
2149.000	4.07759	-5.30103	3.38267	-5.03336
2150.000	4.05595	-5.33265	3.49101	-5.00324
2151.000	4.05792	-5.31690	3.37085	-4.97627
2152.000	4.08742	-5.28326	3.37282	-4.99006
2153.000	4.08349	-5.28919	3.39252	-5.02937
2154.000	4.06579	-5.35029	3.36297	-4.96842
2155.000	4.09333	-5.31470	3.38070	-5.02549
2156.000	4.10119	-5.29104	3.36691	-4.97629
2157.000	4.11496	-5.33423	3.43192	-4.90499
2158.000	4.09136	-5.33635	3.31371	-4.98247
2159.000	4.05792	-5.28739	3.47526	-4.90674
2160.000	4.10513	-5.36970	3.43980	-4.97591
2161.000	4.08742	-5.33048	3.42404	-4.96614
2162.000	4.07169	-5.33255	3.34524	-4.99414
2163.000	4.07956	-5.32856	3.39055	-4.98208
2164.000	4.08546	-5.32656	3.35509	-5.00394
2165.000	4.10119	-5.35006	3.39449	-4.96235
2166.000	4.07562	-5.31678	3.44374	-4.92070
2167.000	4.12086	-5.32829	3.38661	-4.93085
2168.000	4.11889	-5.34601	3.36100	-4.99997
2169.000	4.09136	-5.29504	3.40237	-4.98596
2170.000	4.07956	-5.34823	3.41025	-4.97212
2171.000	4.09726	-5.30484	3.47329	-5.02304
2172.000	4.08939	-5.29702	3.39449	-5.00768
2173.000	4.08349	-5.33247	3.51268	-4.97159
2174.000	4.05989	-5.30508	3.39055	-4.95054
2175.000	4.08349	-5.30296	3.35706	-4.96648
2176.000	4.07562	-5.28531	3.43389	-5.00354
2177.000	4.09529	-5.30682	3.35903	-5.00984
2178.000	4.09333	-5.28716	3.39449	-4.98009
2179.000	4.10119	-5.36579	3.48904	-4.95989
2180.000	4.13266	-5.31247	3.37085	-4.99598
2181.000	4.07562	-5.32662	3.39252	-5.03134
2182.000	4.08349	-5.32657	3.38464	-5.04321
2183.000	4.11103	-5.28507	3.39449	-4.95249
2184.000	4.06382	-5.33063	3.35312	-5.03352
2185.000	4.10119	-5.30284	3.39055	-5.00967
2186.000	4.05989	-5.32672	3.34918	-4.95470
2187.000	4.11103	-5.29098	3.37479	-5.00581
2188.000	4.07956	-5.35610	3.38464	-5.04124
2189.000	4.06972	-5.28928	3.39449	-4.95644
2190.000	4.08349	-5.33641	3.46147	-5.01325
2191.000	4.09333	-5.31667	3.42995	-4.95823
2192.000	4.10316	-5.31070	3.42601	-4.92671
2193.000	4.11889	-5.30863	3.37282	-5.03933
2194.000	4.03825	-5.33080	3.42404	-4.99570
2195.000	4.04808	-5.34844	3.39646	-5.00767
2196.000	4.08152	-5.33052	3.39252	-5.01163
2197.000	4.08939	-5.33833	3.42010	-5.00361
2198.000	4.05989	-5.34443	3.40040	-4.97809
2199.000	4.13070	-5.34199	3.37676	-5.02748
2200.000	4.09923	-5.37171	3.42207	-5.02922
2201.000	4.05792	-5.35428	3.43783	-5.03111
2202.000	4.09726	-5.35008	3.34524	-4.94880
2203.000	4.11299	-5.26932	3.42207	-5.00163
2204.000	4.09923	-5.34024	3.41025	-5.05096
2205.000	4.08349	-5.32657	3.48117	-5.09590
2206.000	4.07956	-5.30299	3.33933	-5.06118
2207.000	4.07562	-5.32072	3.38267	-5.03139
2208.000	4.04021	-5.32685	3.45753	-5.07829
2209.000	4.04808	-5.27368	3.44374	-5.06063
2210.000	4.04021	-5.30128	3.42207	-5.07454
2211.000	4.06972	-5.33256	3.38858	-5.14170
2212.000	4.06382	-5.29522	3.43586	-5.07644
2213.000	4.02448	-5.29941	3.33538	-5.03361
2214.000	4.04218	-5.28552	3.41616	-5.04501
2215.000	4.02054	-5.28173	3.39449	-5.04316
2216.000	4.02251	-5.31123	3.37085	-5.07284
2217.000	4.02644	-5.34071	3.35509	-5.03548
2218.000	4.04808	-5.27565	3.39646	-5.01556
2219.000	4.03431	-5.28361	3.43586	-5.02717
2220.000	4.02644	-5.28562	3.32750	-5.06321
2221.000	4.07956	-5.30889	3.39843	-5.12786
2222.000	4.03628	-5.31507	3.41616	-5.06275
2223.000	4.05202	-5.32874	3.34918	-5.05915
2224.000	4.05202	-5.33071	3.37085	-5.10830
2225.000	4.04612	-5.33862	3.40237	-5.05100
2226.000	4.05595	-5.32085	3.43192	-5.06463
2227.000	4.05595	-5.31101	3.40434	-5.07660
2228.000	4.03628	-5.32294	3.40828	-5.06870
2229.000	4.03038	-5.35643	3.37873	-5.05506
2230.000	4.06775	-5.31487	3.25854	-5.04582
2231.000	4.06972	-5.30502	3.38661	-5.00575
2232.000	4.04415	-5.32289	3.37676	-5.03733
2233.000	4.03825	-5.33867	3.37282	-5.05903
2234.000	4.05399	-5.32480	3.40237	-5.03720
2235.000	4.07562	-5.29908	3.40434	-5.11404
2236.000	4.05005	-5.29924	3.38464	-5.10232
2237.000	4.05202	-5.30120	3.39843	-5.08451
2238.000	4.00284	-5.30742	3.41222	-5.08050
2239.000	4.06972	-5.33256	3.42010	-5.03908
2240.000	4.05399	-5.25790	3.35903	-5.06501
2241.000	4.05792	-5.30903	3.34130	-5.13604
2242.000	4.05202	-5.29726	3.39055	-5.06682
2243.000	4.04808	-5.27565	3.34130	-5.03752
2244.000	4.02644	-5.32104	3.31765	-5.06129
2245.000	4.05792	-5.27755	3.40631	-5.05689
2246.000	4.02841	-5.29348	3.41025	-5.04701
2247.000	4.05989	-5.32279	3.40828	-5.02141
2248.000	4.04218	-5.30126	3.36494	-5.06498
2249.000	4.02841	-5.28561	3.31174	-5.07511
2250.000	4.05005	-5.30515	3.39449	-5.07862
2251.000	4.07759	-5.26955	3.41025	-5.14553
2252.000	4.08546	-5.30098	3.35312	-5.09460
2253.000	4.06579	-5.30308	3.40040	-5.09239
2254.000	4.03825	-5.33867	3.41813	-5.08244
2255.000	4.06185	-5.35229	3.35115	-5.08870
2256.000	4.06972	-5.31486	3.43586	-5.06658
2257.000	4.01858	-5.31125	3.40040	-5.08056
2258.000	4.04415	-5.30912	3.43389	-5.05871
2259.000	4.01858	-5.31125	3.38070	-5.12204
2260.000	4.06185	-5.32081	3.33341	-5.15578
2261.000	4.06185	-5.30310	3.41419	-5.05685
2262.000	4.01071	-5.31327	3.42404	-5.00556
2263.000	4.05989	-5.26770	3.42601	-5.10210
2264.000	4.04218	-5.27568	3.40040	-5.05692
2265.000	4.04021	-5.28750	3.33341	-5.03362
2266.000	4.02644	-5.29350	3.38858	-5.07865
2267.000	4.05989	-5.29918	3.44768	-5.06258
2268.000	4.02644	-5.26201	3.38267	-5.10627
2269.000	4.03038	-5.30921	3.40434	-5.11601
2270.000	4.04218	-5.29143	3.41813	-5.11396
2271.000	4.09333	-5.26748	3.33341	-5.11047
2272.000	4.04808	-5.29335	3.32947	-5.10064
2273.000	4.04612	-5.29140	3.33341	-5.09667
2274.000	4.05792	-5.27361	3.36297	-5.09849
2275.000	4.02841	-5.27971	3.33933	-5.14590
2276.000	4.05989	-5.25983	3.33144	-5.12427
2277.000	4.04415	-5.27567	3.48314	-5.12544
2278.000	4.04415	-5.27961	3.41813	-5.10805
2279.000	4.02841	-5.28168	3.39252	-5.03725
2280.000	4.09529	-5.30485	3.36297	-5.08667
2281.000	4.02251	-5.33090	3.45162	-5.13546
2282.000	4.03431	-5.31902	3.40828	-5.07264
2283.000	4.00480	-5.30741	3.27824	-5.03784
2284.000	4.07759	-5.27545	3.38661	-5.02940
2285.000	4.06579	-5.27750	3.37676	-5.08266
2286.000	4.08152	-5.27543	3.29401	-5.06929
2287.000	4.05989	-5.26967	3.33933	-5.07891
2288.000	4.08742	-5.28916	3.40631	-5.00762
2289.000	4.06972	-5.29715	3.42798	-5.09618
2290.000	4.04808	-5.28548	3.36297	-5.11228
2291.000	4.10316	-5.29103	3.33736	-5.13606
2292.000	4.07366	-5.28138	3.43192	-5.07252
2293.000	4.06972	-5.25976	3.36888	-5.11619
2294.000	4.06972	-5.27157	3.40434	-5.08448
2295.000	4.06579	-5.25389	3.33538	-5.11440
2296.000	4.05595	-5.26772	3.36100	-4.99800
2297.000	4.03038	-5.25411	3.44768	-5.14139
2298.000	4.02251	-5.28565	3.40631	-4.97806
2299.000	4.05005	-5.27367	3.33736	-5.05724
2300.000	4.04415	-5.27370	3.30977	-4.97658
2301.000	4.04612	-5.29140	3.32750	-5.07306
2302.000	4.05399	-5.27758	3.36691	-5.09453
2303.000	4.07956	-5.27347	3.32750	-5.08094
2304.000	4.03825	-5.32490	3.33933	-5.08482
2305.000	4.05202	-5.27759	3.38267	-5.06883
2306.000	4.04021	-5.27766	3.35312	-5.10642
2307.000	4.03038	-5.33479	3.34327	-5.07889
2308.000	4.04021	-5.26389	3.40040	-5.04509
2309.000	4.07169	-5.26369	3.41222	-5.15537
2310.000	4.04218	-5.26978	3.42601	-5.12180
2311.000	4.08349	-5.31083	3.41025	-5.12977
2312.000	4.07366	-5.28729	3.37085	-5.09057
2313.000	4.07956	-5.25183	3.39449	-5.07468
2314.000	4.04612	-5.33075	3.33341	-5.05529
2315.000	4.06382	-5.25587	3.40631	-5.07462
2316.000	4.03038	-5.28560	3.35706	-5.09655
2317.000	4.05989	-5.26967	3.34918	-5.08477
2318.000	4.05202	-5.25791	3.33538	-5.09863
2319.000	4.07562	-5.26760	3.42995	-5.09420
2320.000	4.04415	-5.25599	3.36691	-5.08468
2321.000	4.04415	-5.23828	3.34918	-5.04733
2322.000	4.06185	-5.26178	3.30189	-5.05348
2323.000	4.05989	-5.28934	3.44571	-5.10594
2324.000	4.09136	-5.32062	3.43192	-5.07449
2325.000	4.04218	-5.29733	3.38858	-5.04910
2326.000	4.08152	-5.27936	3.35115	-5.08673
2327.000	4.08152	-5.26756	3.35903	-5.08078
2328.000	4.06972	-5.25386	3.33933	-5.08679
2329.000	4.04415	-5.29535	3.35312	-5.12219
2330.000	4.08349	-5.25574	3.36888	-5.06299
2331.000	4.07562	-5.29514	3.32159	-5.05930
2332.000	4.05595	-5.21459	3.35509	-5.06306
2333.000	4.05005	-5.27760	3.37479	-5.03340
2334.000	4.07562	-5.24398	3.34327	-5.08874
2335.000	4.04612	-5.27763	3.39055	-5.09638
2336.000	4.07562	-5.28924	3.37479	-5.04129
2337.000	4.02251	-5.29155	3.37085	-5.14770
2338.000	4.01267	-5.33490	3.34327	-5.07101
2339.000	4.04021	-5.29537	3.44177	-5.08429
2340.000	4.02841	-5.31513	3.35509	-5.11430
2341.000	4.04218	-5.31504	3.39055	-5.09047
2342.000	4.03431	-5.30328	3.39843	-5.14559
2343.000	4.04415	-5.30519	3.37282	-5.13390
2344.000	4.01071	-5.34278	3.33538	-5.19320
2345.000	4.04808	-5.33861	3.33538	-5.13410
2346.000	4.01858	-5.31716	3.43980	-5.10203
2347.000	4.05202	-5.33071	3.46344	-5.12554
2348.000	4.02644	-5.31907	3.31962	-5.10266
2349.000	4.06775	-5.32077	3.29598	-5.07322
2350.000	4.02251	-5.33484	3.39055	-5.09638
2351.000	4.05005	-5.27957	3.40237	-5.13572
2352.000	4.04415	-5.31502	3.41616	-5.09427
2353.000	4.03628	-5.27572	3.32947	-5.03166
2354.000	4.01464	-5.33489	3.40434	-5.06084
2355.000	4.01267	-5.28178	3.36100	-5.14382
2356.000	4.03825	-5.32490	3.45950	-5.03690
2357.000	4.01071	-5.34672	3.32750	-5.11247
2358.000	4.03431	-5.30918	3.43980	-5.14537
2359.000	4.00284	-5.30152	3.37676	-5.08266
2360.000	4.03235	-5.31510	3.33538	-5.14395
2361.000	4.01858	-5.29748	3.36100	-5.12215
2362.000	4.05595	-5.29724	3.37282	-5.05706
2363.000	4.03038	-5.29740	3.37085	-5.05510
2364.000	4.08349	-5.28329	3.42798	-5.08633
2365.000	4.04612	-5.25008	3.39055	-5.12002
2366.000	4.09333	-5.28716	3.42207	-5.05286
2367.000	4.06382	-5.24406	3.42010	-5.09819
2368.000	4.06579	-5.27947	3.42207	-5.10409
2369.000	4.06382	-5.26177	3.44768	-5.07834
2370.000	4.07366	-5.26564	3.44177	-5.10596
2371.000	4.09923	-5.28318	3.36691	-5.10044
2372.000	4.06775	-5.28732	3.36691	-5.11620
2373.000	4.08742	-5.26752	3.44965	-5.12365
2374.000	4.09136	-5.28717	3.35706	-5.05320
2375.000	4.07562	-5.28924	3.42995	-5.12572
2376.000	4.09333	-5.26158	3.46344	-5.06250
2377.000	4.06775	-5.27355	3.42207	-5.06863
2378.000	4.05005	-5.28547	3.37479	-5.09449
2379.000	4.03628	-5.30524	3.43783	-5.09416
2380.000	4.05399	-5.29528	3.40040	-4.99780
2381.000	4.06382	-5.29128	3.33736	-5.03754
2382.000	4.04612	-5.26385	3.38661	-5.08655
2383.000	4.05202	-5.31891	3.49495	-5.05051
2384.000	4.09333	-5.30093	3.38858	-5.01954
2385.000	4.05202	-5.33268	3.38661	-5.07867
2386.000	4.05792	-5.29919	3.48511	-5.09390
2387.000	4.05989	-5.29131	3.39646	-5.15545
2388.000	4.09333	-5.31667	3.44768	-5.06258
2389.000	4.06972	-5.29912	3.38661	-5.10822
2390.000	4.04218	-5.29536	3.38661	-5.11807
2391.000	4.12676	-5.25939	3.33736	-5.07301
2392.000	4.05792	-5.28739	3.42010	-5.04696
2393.000	4.03628	-5.26588	3.37873	-5.14766
2394.000	4.05792	-5.29329	3.43980	-5.15325
2395.000	4.01858	-5.26009	3.38267	-5.07672
2396.000	4.03038	-5.23247	3.46738	-5.05262
2397.000	3.98316	-5.29968	3.45950	-5.09995
2398.000	4.05399	-5.24609	3.42404	-5.01147
2399.000	4.02644	-5.27382	3.39055	-5.06091
2400.000	4.02841	-5.23445	3.37676	-5.05310
2401.000	4.02251	-5.28762	3.42995	-5.10602
2402.000	4.04415	-5.28551	3.41025	-5.08642
2403.000	4.03628	-5.27375	3.42010	-5.04893
2404.000	4.04021	-5.28160	3.32553	-5.00606
2405.000	4.05595	-5.25395	3.38661	-5.10428
2406.000	4.01858	-5.26993	3.38267	-5.06883
2407.000	4.02841	-5.29348	3.38464	-5.04912
2408.000	4.08349	-5.26755	3.40828	-5.02732
2409.000	4.09136	-5.26946	3.41813	-5.14548
2410.000	4.04415	-5.30715	3.40040	-5.09042
2411.000	4.06382	-5.26571	3.31568	-5.05144
2412.000	4.04808	-5.25006	3.45359	-5.10589
2413.000	4.03628	-5.31311	3.42207	-5.05483
2414.000	4.04021	-5.27963	3.40040	-5.09042
2415.000	4.03825	-5.26194	3.42404	-5.11590
2416.000	4.02841	-5.29742	3.42010	-5.07258
2417.000	4.03038	-5.26986	3.40828	-5.10022
2418.000	4.04808	-5.26384	3.43980	-5.11582
2419.000	4.04808	-5.25597	3.33933	-5.08876
2420.000	4.03235	-5.26394	3.44374	-5.03896
2421.000	4.03038	-5.29150	3.42601	-5.05087
2422.000	4.03038	-5.30134	3.35509	-5.08080
2423.000	4.03431	-5.37804	3.35706	-5.00590
2424.000	4.03825	-5.32490	3.40828	-5.18690
2425.000	4.01071	-5.33688	3.43192	-5.12965
2426.000	4.03038	-5.34856	3.41616	-5.13958
2427.000	4.03235	-5.31313	3.44374	-5.13550
2428.000	4.00677	-5.33297	3.44768	-5.15714
2429.000	4.06579	-5.32865	3.38464	-5.15945
2430.000	3.98906	-5.36063	3.42798	-5.19861
2431.000	3.96545	-5.34308	3.42010	-5.15926
2432.000	4.03431	-5.31509	3.39843	-5.17120
2433.000	4.02054	-5.32895	3.49101	-5.15100
2434.000	3.99103	-5.34685	3.41419	-5.14945
2435.000	3.96742	-5.34503	3.48117	-5.17666
2436.000	3.99890	-5.33696	3.36691	-5.12408
2437.000	3.99890	-5.35270	3.47723	-5.14320
2438.000	4.02841	-5.34070	3.47132	-5.20626
2439.000	4.00677	-5.31723	3.43389	-5.16707
2440.000	3.99890	-5.37040	3.40828	-5.16721
2441.000	4.02644	-5.34465	3.51071	-5.18635
2442.000	4.02448	-5.35253	3.47920	-5.22394
2443.000	4.00677	-5.32510	3.44571	-5.20049
2444.000	4.04612	-5.33272	3.43783	-5.17887
2445.000	4.04612	-5.31304	3.42798	-5.12376
2446.000	4.05595	-5.32478	3.47723	-5.07819
2447.000	4.03628	-5.31901	3.46344	-5.14524
2448.000	4.04612	-5.28156	3.38858	-5.08457
2449.000	4.01464	-5.25225	3.46935	-5.07429
2450.000	4.04808	-5.29139	3.44177	-5.11187
2451.000	4.04218	-5.22846	3.35706	-5.04532
2452.000	4.02448	-5.24825	3.48511	-5.10376
2453.000	4.04218	-5.17335	3.44768	-5.05273
2454.000	4.02644	-5.14786	3.36100	-5.07289
2455.000	4.00480	-5.12437	3.37873	-4.94075
2456.000	3.97333	-5.07731	3.32553	-4.85624
2457.000	3.94971	-4.97898	3.28021	-4.76376
2458.000	3.92610	-4.86682	3.28415	-4.56644
2459.000	3.80999	-4.69007	3.15803	-4.45448
2460.000	3.69581	-4.47764	3.05158	-4.18430
2461.000	3.53435	-4.18623	2.92934	-4.00093
2462.000	3.39646	-4.01297	2.78143	-3.81355
2463.000	3.26051	-3.73079	2.63743	-3.54286
2464.000	3.10283	-3.41673	2.59798	-3.32316
2465.000	2.97863	-3.12999	2.37302	-3.02648
2466.000	2.83271	-2.78359	2.21709	-2.64606
2467.000	2.75974	-2.47839	2.23683	-2.29284
2468.000	2.60981	-2.20886	2.11838	-1.98728
2469.000	2.50327	-1.90138	1.99004	-1.66369
2470.000	2.56641	-1.67494	1.92883	-1.38558
2471.000	2.50327	-1.42080	1.94660	-1.02386
2472.000	2.47367	-1.11291	1.93672	-0.73165
2473.000	2.49735	-0.96586	1.91500	-0.45731
2474.000	2.51313	-0.81086	1.83403	-0.24060
2475.000	2.53089	-0.68963	1.90710	-0.04772
2476.000	2.52892	-0.58629	1.85181	0.02585
2477.000	2.60784	-0.43324	1.96437	0.09146
2478.000	2.63349	-0.23252	1.93475	0.25649
2479.000	2.72226	-0.08346	1.97227	0.23064
2480.000	2.72620	0.01987	1.98807	0.51096
2481.000	2.76171	0.12519	2.07100	0.54473
2482.000	2.78341	0.30800	1.99991	0.76343
2483.000	2.79524	0.43516	2.03743	0.83696
2484.000	2.77552	0.65174	1.98214	0.95626
2485.000	2.75974	0.79480	1.96042	1.06559
2486.000	2.72226	0.99350	2.03546	1.24043
2487.000	2.71240	1.13057	1.95252	1.30607
2488.000	2.65124	1.17235	1.91105	1.42733
2489.000	2.64138	1.34716	1.82811	1.57642
2490.000	2.59600	1.31344	1.87551	1.54062
2491.000	2.55260	1.37506	1.77478	1.59236
2492.000	2.54471	1.37507	1.77281	1.55660
2493.000	2.51905	1.27180	1.78663	1.51486
2494.000	2.49340	1.18839	1.81231	1.51683
2495.000	2.48946	1.08905	1.82416	1.42541
2496.000	2.48156	0.98574	1.90315	1.33791
2497.000	2.45591	0.80095	1.84786	1.21473
2498.000	2.47564	0.70556	1.88735	1.10141
2499.000	2.45788	0.57639	2.00781	1.03177
2500.000	2.49340	0.50284	1.99004	0.86283
2501.000	2.44999	0.43528	1.95647	0.88869
2502.000	2.46183	0.33590	2.03348	0.77733
2503.000	2.49538	0.32993	2.10456	0.68387
2504.000	2.48156	0.35577	2.09469	0.72363
2505.000	2.47564	0.36571	2.01176	0.72566
2506.000	2.49538	0.38160	2.02953	0.77733
2507.000	2.44012	0.42535	2.04335	0.77136
2508.000	2.42828	0.50684	1.94660	0.85490
2509.000	2.43618	0.57640	2.04335	0.98206
2510.000	2.37697	0.67778	1.99202	1.12917
2511.000	2.37894	0.72349	1.92488	1.21070
2512.000	2.38289	0.78907	1.90513	1.24649
2513.000	2.40855	0.91425	1.89130	1.34587
2514.000	2.38881	0.98978	1.81231	1.39362
2515.000	2.45394	1.07517	1.85971	1.44525
2516.000	2.40263	1.08117	1.90710	1.54258
2517.000	2.40460	1.09111	1.87946	1.48895
2518.000	2.39473	1.06926	1.82811	1.64398
2519.000	2.42828	1.18050	1.85971	1.56845
2520.000	2.44802	1.12485	1.89525	1.57835
2521.000	2.43420	1.20433	1.89723	1.65583
2522.000	2.44407	1.14671	1.86563	1.56844
2523.000	2.40460	1.12290	1.89130	1.56444
2524.000	2.47762	1.11489	1.84786	1.55455
2525.000	2.44802	1.13677	1.93475	1.51871
2526.000	2.44604	1.11690	1.87946	1.53863
2527.000	2.41447	1.07520	1.89920	1.52271
2528.000	2.44999	1.12286	1.87946	1.49491
2529.000	2.45196	1.07120	1.87946	1.50286
2530.000	2.43223	1.04936	1.92883	1.41936
2531.000	2.45394	1.04736	1.87156	1.43133
2532.000	2.42236	1.03546	1.90118	1.45714
2533.000	2.42236	1.04937	1.94462	1.42928
2534.000	2.41644	1.01758	1.99004	1.42925
2535.000	2.42433	1.03148	1.91105	1.41739
2536.000	2.41249	1.00963	1.96042	1.40145
2537.000	2.43025	1.02750	1.94660	1.46902
2538.000	2.44407	1.07915	1.88538	1.37568
2539.000	2.42433	1.01161	1.93080	1.33789
2540.000	2.41249	0.99970	1.93080	1.39750
2541.000	2.40263	1.02554	1.92883	1.32000
2542.000	2.43815	0.96987	1.88143	1.32203
2543.000	2.43223	0.97783	1.89328	1.30413
2544.000	2.44999	0.99768	1.89328	1.42933
2545.000	2.39276	0.98978	1.95647	1.37364
2546.000	2.39078	0.97984	1.88933	1.34388
2547.000	2.44604	0.99173	1.86563	1.39557
2548.000	2.42236	1.02552	1.95450	1.40941
2549.000	2.40065	0.94804	1.88538	1.34190
2550.000	2.39868	0.98779	1.88735	1.42735
2551.000	2.40263	0.97586	1.94660	1.34384
2552.000	2.39868	0.96394	1.84193	1.44328
2553.000	2.42236	0.99770	1.83996	1.40950
2554.000	2.46183	1.00761	1.91500	1.40944
2555.000	2.42236	1.03148	1.84588	1.42142
2556.000	2.42236	1.03943	1.93278	1.41340
2557.000	2.42631	1.02353	1.88735	1.45119
2558.000	2.46972	1.05132	1.86563	1.37371
2559.000	2.44210	1.02153	1.84588	1.42539
2560.000	2.42236	1.04341	1.93475	1.43525
2561.000	2.38881	1.04144	1.90513	1.41541
2562.000	2.44802	1.00762	1.96635	1.45708
2563.000	2.43420	1.04538	1.89723	1.39952
2564.000	2.42828	0.98379	1.91303	1.35976
2565.000	2.47762	1.00561	1.90315	1.46310
2566.000	2.41644	1.00566	1.94660	1.38954
2567.000	2.45591	1.02152	1.85378	1.42737
2568.000	2.45196	1.02947	1.89130	1.38164
2569.000	2.47367	1.00363	1.86366	1.38961
2570.000	2.42039	0.98777	1.83996	1.41347
2571.000	2.43223	0.95796	1.89328	1.38164
2572.000	2.41644	1.03149	1.89525	1.40747
2573.000	2.43025	0.97187	1.82613	1.44131
2574.000	2.42828	0.96591	1.90118	1.46509
2575.000	2.44210	0.99769	1.85773	1.42538
2576.000	2.41644	1.02751	1.86366	1.43730
2577.000	2.40065	0.98580	1.90710	1.41342
2578.000	2.40065	1.01560	1.95450	1.38556
2579.000	2.39078	1.00766	1.83403	1.41149
2580.000	2.41249	1.00367	1.84391	1.47905
2581.000	2.44802	0.96788	1.85378	1.45321
2582.000	2.40460	0.99970	1.87748	1.44921
2583.000	2.38881	0.99972	1.88735	1.42536
2584.000	2.41841	0.96790	1.83798	1.48303
2585.000	2.42039	0.97783	1.90315	1.42932
2586.000	2.47367	0.98177	1.81428	1.36580
2587.000	2.43420	0.94007	1.91500	1.39950
2588.000	2.46578	0.93409	1.83403	1.39361
2589.000	2.42236	0.91027	1.83403	1.40950
2590.000	2.42236	0.95796	1.85378	1.40154
2591.000	2.46578	0.92614	1.86958	1.44922
2592.000	2.44012	0.94404	1.95252	1.40543
2593.000	2.43223	0.91623	1.89723	1.42138
2594.000	2.39671	0.97586	1.80836	1.41747
2595.000	2.44210	0.94801	1.91303	1.38559
2596.000	2.40657	0.93214	1.93870	1.41935
2597.000	2.43618	0.92218	1.98412	1.37759
2598.000	2.42039	0.95200	1.86958	1.41544
2599.000	2.40460	0.91227	1.93278	1.39353
2600.000	2.40657	0.95201	1.92093	1.39950
2601.000	2.39473	0.94407	1.98412	1.44316
2602.000	2.38092	0.90235	1.85181	1.41545
2603.000	2.38881	0.91029	1.94660	1.46704
2604.000	2.36710	0.92422	1.84391	1.42142
2605.000	2.41052	0.90432	1.92883	1.35379
2606.000	2.38684	0.90632	1.92093	1.30809
2607.000	2.39868	0.89638	1.90908	1.39355
2608.000	2.36315	0.93614	1.87748	1.36973
2609.000	2.39473	0.92619	1.95647	1.40344
2610.000	2.41052	0.87252	1.90710	1.32996
2611.000	2.37302	0.90236	2.00781	1.35770
2612.000	2.42236	0.89437	1.97424	1.37958
2613.000	2.44210	0.92814	1.89328	1.35580
2614.000	2.45394	0.91025	2.04533	1.34574
2615.000	2.45986	0.94204	1.94265	1.35974
2616.000	2.42433	0.92021	1.94265	1.31204
2617.000	2.42631	0.98975	1.87551	1.36376
2618.000	2.40263	0.94009	1.90710	1.38560
2619.000	2.41052	0.92816	1.90315	1.32400
2620.000	2.42039	0.97187	1.95647	1.39152
2621.000	2.41052	0.91028	1.87946	1.31805
2622.000	2.43618	0.95199	1.92685	1.32001
2623.000	2.39868	0.91426	1.91105	1.32399
2624.000	2.48156	0.95196	1.97424	1.36567
2625.000	2.45591	0.92217	1.84391	1.32603
2626.000	2.39868	0.92221	1.90513	1.32201
2627.000	2.40657	0.92817	1.85576	1.35782
2628.000	2.42039	0.89636	1.94265	1.40544
2629.000	2.43618	0.93411	1.94067	1.31801
2630.000	2.43618	0.92218	1.94067	1.37961
2631.000	2.45196	0.94403	1.99991	1.35770
2632.000	2.42236	0.93809	1.83798	1.39559
2633.000	2.38881	0.95997	1.92488	1.39155
2634.000	2.39078	0.92222	1.86958	1.39755
2635.000	2.40855	0.93015	2.01769	1.36762
2636.000	2.40263	0.93810	1.86761	1.37569
2637.000	2.40460	0.91227	1.86958	1.34787
2638.000	2.40855	0.88047	1.88933	1.39158
2639.000	2.43815	0.97782	2.00979	1.36167
2640.000	2.42236	0.88245	1.90118	1.36573
2641.000	2.42828	0.94802	1.90513	1.29220
2642.000	2.41447	0.94605	1.90315	1.37567
2643.000	2.40460	0.93612	1.89525	1.38362
2644.000	2.41249	0.94207	1.96240	1.41536
2645.000	2.39868	0.94606	1.87551	1.44126
2646.000	2.41644	0.92816	1.89525	1.33394
2647.000	2.41052	0.95996	1.87946	1.39158
2648.000	2.42039	0.87450	1.93475	1.37365
2649.000	2.43618	0.94404	1.96437	1.40542
2650.000	2.41644	0.94406	1.91500	1.41937
2651.000	2.40855	0.89041	1.92883	1.47500
2652.000	2.41841	0.97386	1.89525	1.36375
2653.000	2.43025	0.96988	1.92883	1.35975
2654.000	2.40657	0.90829	1.96832	1.40741
2655.000	2.39473	0.92023	1.88933	1.38561
2656.000	2.44999	0.92019	1.87156	1.39954
2657.000	2.43815	0.92417	1.93672	1.32795
2658.000	2.43025	0.95200	1.84786	1.41347
2659.000	2.43420	0.96988	1.87156	1.32800
2660.000	2.42039	0.93213	1.92290	1.36571
2661.000	2.44407	0.95199	1.91105	1.40348
2662.000	2.45394	0.97185	1.85576	1.31807
2663.000	2.44210	0.94801	1.96240	1.39549
2664.000	2.42631	0.94405	1.88341	1.40946
2665.000	2.42433	0.91623	1.95055	1.37762
2666.000	2.40657	0.96592	1.97029	1.36965
2667.000	2.41841	0.93611	1.87156	1.38165
2668.000	2.41447	0.94207	1.94857	1.42133
2669.000	2.44802	0.95198	1.97819	1.31599
2670.000	2.40065	0.91625	1.85576	1.40551
2671.000	2.46380	0.94601	1.88341	1.42735
2672.000	2.44604	0.95000	1.96832	1.35773
2673.000	2.43025	0.94405	1.92488	1.36969
2674.000	2.42828	0.93610	1.89130	1.44721
2675.000	2.41447	0.93015	1.90710	1.34784
2676.000	2.41447	0.94207	1.87946	1.40152
2677.000	2.42828	0.93610	1.92093	1.38758
2678.000	2.43815	0.92218	1.93278	1.43526
2679.000	2.41447	0.92816	1.94857	1.39351
2680.000	2.41447	0.96393	1.94067	1.32596
2681.000	2.43420	0.92815	1.88341	1.39754
2682.000	2.44210	0.96391	1.94660	1.29416
2683.000	2.42631	0.96193	1.94265	1.28422
2684.000	2.43815	0.96987	1.93475	1.37564
2685.000	2.38684	0.89440	1.94462	1.35974
2686.000	2.47564	0.96587	1.92093	1.32200
2687.000	2.42039	0.91027	1.93278	1.33789
2688.000	2.43420	0.96590	1.98609	1.32592
2689.000	2.43618	0.94007	1.95055	1.33787
2690.000	2.46183	0.96986	1.95055	1.35973
2691.000	2.46183	0.94204	1.88933	1.31209
2692.000	2.43420	0.94206	1.89328	1.38958
2693.000	2.46183	0.95197	1.92685	1.40545
2694.000	2.40855	0.92220	1.90710	1.38560
2695.000	2.41447	0.93412	1.93080	1.35577
2696.000	2.43223	0.91623	1.90513	1.36374
2697.000	2.38486	0.95203	1.84588	1.35981
2698.000	2.40263	0.90035	1.95055	1.36967
2699.000	2.44210	0.91622	1.93475	1.36372
2700.000	2.40263	0.90631	1.86366	1.37172
2701.000	2.42631	0.93014	1.89920	1.36176
2702.000	2.42631	0.90629	1.86366	1.43531
2703.000	2.41447	0.90829	1.87946	1.37569
2704.000	2.38486	0.89440	1.96240	1.35972
2705.000	2.41249	0.90034	1.91895	1.25840
2706.000	2.38092	0.85068	1.95055	1.34781
2707.000	2.42631	0.82084	1.94265	1.30807
2708.000	2.44012	0.87449	2.01769	1.39942
2709.000	2.41447	0.87053	2.02756	1.33384
2710.000	2.42039	0.93412	1.91698	1.25244
2711.000	2.43025	0.89834	1.95647	1.38953
2712.000	2.43815	0.91423	1.93080	1.39353
2713.000	2.37894	0.90633	1.87748	1.31209
2714.000	2.39276	0.91824	1.90513	1.33791
2715.000	2.43223	0.94405	1.94265	1.35179
2716.000	2.46380	0.92614	1.92883	1.40943
2717.000	2.40263	0.92618	1.90118	1.33394
2718.000	2.43618	0.91225	1.91105	1.36572
2719.000	2.46183	0.91223	1.90710	1.41143
2720.000	2.43618	0.95199	1.94857	1.31999
2721.000	2.39276	0.90035	1.83403	1.40950
2722.000	2.42433	0.92418	1.86366	1.34390
2723.000	2.46578	0.89832	1.90710	1.36374
2724.000	2.42039	0.90829	1.93080	1.30212
2725.000	2.39868	0.90234	1.86366	1.34589
2726.000	2.41052	0.87848	1.93475	1.37365
2727.000	2.41249	0.90829	1.96832	1.38952
2728.000	2.38289	0.90036	1.89130	1.33792
2729.000	2.37697	0.90235	1.87946	1.41940
2730.000	2.41644	0.90431	1.86761	1.37569
2731.000	2.40065	0.89439	1.87946	1.37569
2732.000	2.39671	0.89240	1.97424	1.34381
2733.000	2.40460	0.92022	1.88341	1.30017
2734.000	2.37697	0.89440	1.93278	1.37962
2735.000	2.44012	0.92218	1.90315	1.36374
2736.000	2.40460	0.90432	1.93870	1.35577
2737.000	2.40657	0.91823	1.84786	1.31013
2738.000	2.42631	0.91424	1.90315	1.37765
2739.000	2.37500	0.91626	1.89130	1.37766
2740.000	2.41644	0.88444	1.89920	1.37368
2741.000	2.43815	0.88840	1.91895	1.43328
2742.000	2.39868	0.90035	1.93080	1.33987
2743.000	2.38486	0.88446	1.88341	1.29619
2744.000	2.38486	0.87850	1.93672	1.35775
2745.000	2.42039	0.89835	1.91500	1.38361
2746.000	2.43223	0.91225	1.91698	1.37963
2747.000	2.41052	0.91425	1.94067	1.31205
2748.000	2.40855	0.88246	1.98214	1.39150
2749.000	2.40263	0.86458	1.88933	1.34388
2750.000	2.38486	0.94010	1.97227	1.36965
2751.000	2.39671	0.92022	1.92290	1.31802
2752.000	2.42433	0.90630	1.99597	1.30207
2753.000	2.39868	0.88445	1.94265	1.36570
2754.000	2.39671	0.89042	1.89525	1.36772
2755.000	2.41644	0.90829	1.93080	1.34584
2756.000	2.41644	0.94803	1.86958	1.34191
2757.000	2.40855	0.90233	1.91698	1.39155
2758.000	2.41249	0.91028	1.93080	1.38161
2759.000	2.41841	0.92418	1.92685	1.31206
2760.000	2.38486	0.83478	1.87551	1.46908
2761.000	2.37894	0.91427	1.94660	1.36768
2762.000	2.40855	0.91624	1.89130	1.36971
2763.000	2.45394	0.91422	1.94067	1.37166
2764.000	2.40460	0.89836	1.94462	1.38557
2765.000	2.39473	0.90035	1.96437	1.32991
2766.000	2.40065	0.92221	1.91698	1.34783
2767.000	2.42039	0.89636	1.87551	1.35979
2768.000	2.37894	0.86857	1.95055	1.39749
2769.000	2.34934	0.86262	1.90513	1.31605
2770.000	2.39868	0.90830	1.95450	1.33787
2771.000	2.35526	0.89839	1.88538	1.32799
2772.000	2.39276	0.88644	1.90513	1.37964
2773.000	2.38684	0.87651	1.89328	1.34189
2774.000	2.37302	0.85864	1.91500	1.32598
2775.000	2.39868	0.90234	1.91698	1.37963
2776.000	2.39473	0.91029	1.91500	1.33790
2777.000	2.37894	0.89043	1.91698	1.33392
2778.000	2.37894	0.87056	1.88341	1.30811
2779.000	2.40263	0.89439	1.89525	1.31606
2780.000	2.39868	0.87849	1.98017	1.39150
2781.000	2.41249	0.92419	1.93672	1.42532
2782.000	2.40263	0.88843	1.87353	1.40351
2783.000	2.37302	0.85267	1.94265	1.38756
2784.000	2.35921	0.87653	1.89130	1.38760
2785.000	2.37894	0.91626	1.92093	1.39552
2786.000	2.38486	0.87254	1.89525	1.39952
2787.000	2.40855	0.91028	1.95647	1.36370
2788.000	2.40263	0.91028	1.89328	1.38958
2789.000	2.36315	0.87255	1.87748	1.37171
2790.000	2.38092	0.87850	1.86958	1.35781
2791.000	2.40657	0.90829	1.88735	1.31805
2792.000	2.44012	0.93013	1.90513	1.35182
2793.000	2.39276	0.92420	1.85773	1.36577
2794.000	2.36513	0.87653	1.89920	1.41343
2795.000	2.41249	0.95598	1.83403	1.33796
2796.000	2.38289	0.96196	1.92685	1.33988
2797.000	2.42828	0.93411	1.92488	1.40943
2798.000	2.52300	0.91815	2.03151	1.36960
2799.000	2.60390	0.95187	2.08087	1.36757
2800.000	2.72818	0.89217	2.24078	1.37339
2801.000	2.90173	0.81854	2.44012	1.34141
2802.000	3.20139	0.75675	2.68281	1.35903
2803.000	3.48708	0.65726	2.93526	1.20583
2804.000	3.79818	0.57367	3.13240	1.16788
2805.000	4.15430	0.47620	3.54222	0.97684
2806.000	4.56510	0.33911	3.93988	0.86726
2807.000	4.92441	0.17641	4.18576	0.75789
2808.000	5.32254	0.13470	4.56510	0.68018
2809.000	5.59094	-0.08316	4.96366	0.52521
2810.000	5.94517	-0.20381	5.35194	0.37238
2811.000	6.29112	-0.37967	5.56549	0.32077
2812.000	6.53126	-0.47436	5.89431	0.06530
2813.000	6.72632	-0.57887	6.06444	-0.13650
2814.000	6.80626	-0.64396	6.35166	-0.35985
2815.000	6.95825	-0.77012	6.47271	-0.49220
2816.000	6.96409	-0.80565	6.58394	-0.55730
2817.000	6.98162	-0.84510	6.66197	-0.65205
2818.000	6.99331	-0.88852	6.56248	-0.68380
2819.000	6.93682	-0.92021	6.55663	-0.69172
2820.000	6.89980	-0.91041	6.51565	-0.73525
2821.000	6.80820	-0.91651	6.36924	-0.76314
2822.000	6.72242	-0.96013	6.27159	-0.69408
2823.000	6.61516	-0.96034	6.11136	-0.61122
2824.000	6.55467	-0.93082	5.94712	-0.63515
2825.000	6.42000	-0.99234	5.79453	-0.60563
2826.000	6.30479	-1.02419	5.59290	-0.52864
2827.000	6.21298	-1.03425	5.55178	-0.44551
2828.000	6.11918	-1.00477	5.49302	-0.52873
2829.000	6.07422	-1.05232	5.35194	-0.37040
2830.000	6.01948	-1.08012	5.37938	-0.39613
2831.000	5.95886	-1.09210	5.29706	-0.34072
2832.000	5.93734	-1.07632	5.28334	-0.32290
2833.000	5.95103	-1.09014	5.30882	-0.33081
2834.000	6.00579	-1.01685	5.30882	-0.33675
2835.000	5.95494	-1.07233	5.40681	-0.33273
2836.000	6.02730	-0.99308	5.37154	-0.21590
2837.000	6.04489	-0.94162	5.41073	-0.24757
2838.000	6.12699	-0.91181	5.52631	-0.25742
2839.000	6.15435	-0.90584	5.59486	-0.18414
2840.000	6.18758	-0.93346	5.58115	-0.20988
2841.000	6.27940	-0.87003	5.55373	-0.26533
2842.000	6.34971	-0.86992	5.69275	-0.27319
2843.000	6.36143	-0.87385	5.75539	-0.25930
2844.000	6.42586	-0.82037	5.82192	-0.17417
2845.000	6.45905	-0.85392	5.84932	-0.23947
2846.000	6.50784	-0.79653	5.80823	-0.29688
2847.000	6.52345	-0.83800	5.90018	-0.27506
2848.000	6.57809	-0.86557	5.95494	-0.24140
2849.000	6.58004	-0.91694	5.90605	-0.27902
2850.000	6.60930	-0.88330	5.94125	-0.37794
2851.000	6.64246	-0.98399	5.98623	-0.31064
2852.000	6.66587	-0.90690	5.91192	-0.45513
2853.000	6.64051	-0.98992	5.99015	-0.43132
2854.000	6.65612	-0.93853	5.99992	-0.42340
2855.000	6.70097	-1.00758	6.00188	-0.42340
2856.000	6.67172	-0.99184	5.95494	-0.51049
2857.000	6.65027	-0.99780	6.03512	-0.51437
2858.000	6.60930	-1.04333	6.01361	-0.60737
2859.000	6.62296	-1.03342	5.98819	-0.54409
2860.000	6.59565	-1.02557	5.98232	-0.61136
2861.000	6.55663	-1.05727	5.94712	-0.58964
2862.000	6.61906	-1.06109	5.89040	-0.58179
2863.000	6.59760	-1.05916	5.88257	-0.51056
2864.000	6.58979	-1.10264	5.96081	-0.54412
2865.000	6.56638	-1.05132	5.89235	-0.48878
2866.000	6.57223	-1.01772	5.93539	-0.50853
2867.000	6.56638	-1.00588	5.87475	-0.46109
2868.000	6.60150	-1.03544	5.98232	-0.47485
2869.000	6.58589	-1.04338	5.94517	-0.48478
2870.000	6.55858	-1.02960	5.93343	-0.49270
2871.000	6.55077	-1.01579	5.85518	-0.47101
2872.000	6.55858	-0.96835	5.92365	-0.43137
2873.000	6.57809	-0.94658	5.87670	-0.42943
2874.000	6.53321	-1.00990	5.92170	-0.43929
2875.000	6.50199	-0.98822	5.88257	-0.38391
2876.000	6.51369	-0.95856	5.90213	-0.49273
2877.000	6.49808	-1.01194	5.84736	-0.44924
2878.000	6.54102	-0.99210	5.83953	-0.60361
2879.000	6.50979	-1.03761	5.92561	-0.58571
2880.000	6.54102	-1.05730	5.90800	-0.58968
2881.000	6.49027	-1.09693	5.83758	-0.55414
2882.000	6.47856	-1.06929	5.88257	-0.45119
2883.000	6.48052	-1.12856	5.81605	-0.53041
2884.000	6.49223	-1.14039	5.91387	-0.47293
2885.000	6.51369	-1.15220	5.85910	-0.53235
2886.000	6.48052	-1.14437	5.89235	-0.49868
2887.000	6.50394	-1.14629	5.82779	-0.46707
2888.000	6.45905	-1.19184	5.87279	-0.36017
2889.000	6.49808	-1.11074	5.80627	-0.40376
2890.000	6.45905	-1.12466	5.81605	-0.44531
2891.000	6.50979	-1.13047	5.85910	-0.43736
2892.000	6.52736	-1.12451	5.79649	-0.41168
2893.000	6.52345	-1.06327	5.79257	-0.43345
2894.000	6.53711	-1.04348	5.86692	-0.35226
2895.000	6.53321	-1.04151	5.86692	-0.44131
2896.000	6.54687	-1.02370	5.78866	-0.37408
2897.000	6.53516	-1.02767	5.90605	-0.32057
2898.000	6.55467	-0.98417	5.93343	-0.37596
2899.000	6.53126	-0.98619	5.82779	-0.48488
2900.000	6.53126	-0.97828	5.85910	-0.47298
2901.000	6.55467	-0.94860	5.89235	-0.44327
2902.000	6.57028	-0.96438	5.95299	-0.47290
2903.000	6.59760	-0.94062	5.80823	-0.40771
2904.000	6.57028	-0.96635	5.84932	-0.40175
2905.000	6.53906	-0.98222	5.88649	-0.47494
2906.000	6.56833	-0.97031	5.92952	-0.39377
2907.000	6.52345	-1.03560	5.88062	-0.43141
2908.000	6.54297	-1.00197	5.86692	-0.48287
2909.000	6.53711	-0.98223	5.91974	-0.45908
2910.000	6.52150	-1.04351	5.94125	-0.50655
2911.000	6.52345	-1.02375	5.89040	-0.45910
2912.000	6.50979	-1.04946	5.84345	-0.41165
2913.000	6.53906	-1.01581	5.92756	-0.41950
2914.000	6.51760	-1.01190	5.87084	-0.42548
2915.000	6.49418	-1.03566	5.86888	-0.43339
2916.000	6.49027	-1.06136	5.93147	-0.47688
2917.000	6.51955	-0.97831	5.86692	-0.41757
2918.000	6.48052	-1.03964	5.81801	-0.43343
2919.000	6.50589	-1.07516	5.82388	-0.44728
2920.000	6.50589	-1.04749	5.85323	-0.46111
2921.000	6.51955	-0.99807	5.91192	-0.44325
2922.000	6.50589	-1.08109	5.81018	-0.37802
2923.000	6.49223	-1.05148	5.91583	-0.47095
2924.000	6.53516	-1.06917	5.96081	-0.43530
2925.000	6.47661	-1.04360	5.84736	-0.43935
2926.000	6.49027	-1.05741	5.87475	-0.52046
2927.000	6.51565	-1.07119	5.78474	-0.44533
2928.000	6.49613	-1.05542	5.89627	-0.47097
2929.000	6.50979	-1.08503	5.84736	-0.43341
2930.000	6.53516	-1.03163	5.85323	-0.37602
2931.000	6.50784	-1.06330	5.85518	-0.42549
2932.000	6.50979	-1.02575	5.89431	-0.41161
2933.000	6.50589	-1.04552	5.81605	-0.51458
2934.000	6.49613	-1.06332	5.93539	-0.47687
2935.000	6.49223	-1.01788	5.87084	-0.44922
2936.000	6.50784	-1.04354	5.84540	-0.40769
2937.000	6.50199	-1.03565	5.81410	-0.42156
2938.000	6.48637	-1.07125	5.82584	-0.48092
2939.000	6.50003	-1.03170	5.93930	-0.43532
2940.000	6.47661	-1.02977	5.94125	-0.49270
2941.000	6.47076	-1.02583	5.89040	-0.49274
2942.000	6.49223	-1.02381	5.96277	-0.46498
2943.000	6.45514	-1.04167	5.89235	-0.48483
2944.000	6.49418	-1.03171	5.88062	-0.42151
2945.000	6.48832	-1.01196	5.89235	-0.47097
2946.000	6.49808	-1.02577	5.95299	-0.49466
2947.000	6.50394	-1.01786	5.91192	-0.39576
2948.000	6.47661	-1.04360	5.94125	-0.53623
2949.000	6.49808	-1.02380	5.94517	-0.52039
2950.000	6.49613	-1.03961	5.81997	-0.47895
2951.000	6.48442	-1.02975	5.90213	-0.50460
2952.000	6.49808	-1.03763	5.90800	-0.42149
2953.000	6.46490	-1.01201	5.83366	-0.46904
2954.000	6.46295	-1.02387	5.88257	-0.49077
2955.000	6.48442	-1.00407	5.85127	-0.44330
2956.000	6.46490	-1.05351	5.85518	-0.41559
2957.000	6.49223	-1.02974	5.89627	-0.42348
2958.000	6.47271	-1.03768	5.79453	-0.36022
2959.000	6.47271	-1.05349	5.88062	-0.40172
2960.000	6.51369	-1.02179	5.89627	-0.38192
2961.000	6.50199	-1.07714	5.89822	-0.48878
2962.000	6.48442	-1.02975	5.85323	-0.44330
2963.000	6.45709	-1.00017	5.82192	-0.47103
2964.000	6.47466	-1.00409	5.85323	-0.44132
2965.000	6.49223	-1.01788	5.83758	-0.44925
2966.000	6.47076	-1.02781	5.88257	-0.40370
2967.000	6.48052	-1.03767	5.86497	-0.48683
2968.000	6.47661	-1.04558	5.87866	-0.49473
2969.000	6.48247	-1.01395	5.86301	-0.45715
2970.000	6.43952	-1.03577	5.87084	-0.39382
2971.000	6.49223	-0.99022	5.86497	-0.48287
2972.000	6.48247	-1.01593	5.83171	-0.41957
2973.000	6.44343	-1.00612	5.83562	-0.46113
2974.000	6.46100	-1.03573	5.88844	-0.45119
2975.000	6.44148	-1.07332	5.84345	-0.46706
2976.000	6.46295	-1.04363	5.88649	-0.53628
2977.000	6.43367	-1.05753	5.86692	-0.47495
2978.000	6.45124	-1.02192	5.92170	-0.45116
2979.000	6.48637	-1.08113	5.91387	-0.46304
2980.000	6.44733	-1.04959	5.87670	-0.47099
2981.000	6.44733	-1.08121	5.85518	-0.50860
2982.000	6.43562	-1.04566	5.87279	-0.45912
2983.000	6.44733	-1.07331	5.91192	-0.44919
2984.000	6.45709	-1.07131	5.87475	-0.57784
2985.000	6.44928	-1.07133	5.87670	-0.47494
2986.000	6.44343	-1.04762	5.92170	-0.46106
2987.000	6.43952	-1.06542	5.91974	-0.48084
2988.000	6.43757	-1.04171	5.89040	-0.50857
2989.000	6.44148	-1.01403	5.86692	-0.50068
2990.000	6.46490	-1.05746	5.91583	-0.49074
2991.000	6.43172	-1.07532	5.81410	-0.50073
2992.000	6.45124	-1.03180	5.90800	-0.53824
2993.000	6.44343	-1.04960	5.94712	-0.55996
2994.000	6.45514	-1.01598	5.89822	-0.42546
2995.000	6.45709	-0.97448	5.88453	-0.49670
2996.000	6.46685	-1.00015	5.85910	-0.42944
2997.000	6.43367	-0.99428	5.86497	-0.43538
2998.000	6.47271	-1.02187	5.95886	-0.52038
2999.000	6.46295	-0.99818	5.91583	-0.45710
3000.000	6.45319	-1.00610	5.89040	-0.41557
3001.000	6.45319	-1.00413	5.84736	-0.48091
3002.000	6.40829	-1.04177	5.89431	-0.46306
3003.000	6.43757	-1.04566	5.87866	-0.43734
3004.000	6.43757	-1.04961	5.81997	-0.46708
3005.000	6.43172	-1.04962	5.90213	-0.46503
3006.000	6.42976	-0.98441	5.92756	-0.39575
3007.000	6.48247	-1.03569	5.84149	-0.42550
3008.000	6.42586	-1.01406	5.84149	-0.40175
3009.000	6.42781	-1.01999	5.85518	-0.39383
3010.000	6.44148	-0.98439	5.90409	-0.52835
3011.000	6.47076	-1.05745	5.96472	-0.40760
3012.000	6.44148	-0.98636	5.90605	-0.47096
3013.000	6.48052	-1.00210	5.91778	-0.48085
3014.000	6.43367	-1.05160	5.86888	-0.43735
3015.000	6.45124	-0.96263	5.85910	-0.44725
3016.000	6.45124	-1.02982	5.87475	-0.51057
3017.000	6.44733	-0.99426	5.97059	-0.51839
3018.000	6.42195	-1.03186	5.95886	-0.47290
3019.000	6.41805	-1.04570	5.89822	-0.49471
3020.000	6.48637	-0.97047	5.91387	-0.47293
3021.000	6.47856	-1.01791	5.96472	-0.48080
3022.000	6.47856	-1.02384	5.80236	-0.43543
3023.000	6.45905	-1.01004	5.81997	-0.52843
3024.000	6.47661	-1.05348	5.87084	-0.52046
3025.000	6.46685	-0.98631	5.89040	-0.50659
3026.000	6.45709	-0.99819	5.86497	-0.48485
3027.000	6.50784	-0.97635	5.81605	-0.54426
3028.000	6.51174	-0.94473	5.90409	-0.42347
3029.000	6.49223	-0.95267	5.89040	-0.50066
3030.000	6.47466	-0.94678	5.82584	-0.53634
3031.000	6.44538	-0.99624	5.83171	-0.47102
3032.000	6.42586	-0.94291	5.83758	-0.50070
3033.000	6.47271	-0.98828	5.87084	-0.44922
3034.000	6.45514	-0.95077	5.92561	-0.50260
3035.000	6.46685	-0.97051	5.81214	-0.48885
3036.000	6.42976	-1.01208	5.82192	-0.47103
3037.000	6.43952	-0.97649	5.87866	-0.47692
3038.000	6.43757	-0.97451	5.91192	-0.52042
3039.000	6.43952	-0.95870	5.79453	-0.50668
3040.000	6.47856	-0.97839	5.85127	-0.52246
3041.000	6.43952	-1.04368	5.92365	-0.49667
3042.000	6.48442	-1.02383	5.88257	-0.53628
3043.000	6.44538	-1.02391	5.91583	-0.54614
3044.000	6.44343	-1.02589	5.88649	-0.49077
3045.000	6.41805	-0.98839	5.87475	-0.48880
3046.000	6.42391	-0.99233	5.84736	-0.53038
3047.000	6.42391	-1.04371	5.87670	-0.48682
3048.000	6.43172	-1.03184	5.80627	-0.44136
3049.000	6.40438	-1.03585	5.87084	-0.46901
3050.000	6.41610	-1.04570	5.82779	-0.51655
3051.000	6.40243	-1.03980	5.90605	-0.48086
3052.000	6.43367	-1.01207	5.87670	-0.52837
3053.000	6.36924	-1.07149	5.89431	-0.50263
3054.000	6.35362	-0.98456	5.78083	-0.53242
3055.000	6.38095	-0.99043	5.78279	-0.50669
3056.000	6.42000	-1.03779	5.75735	-0.58390
3057.000	6.43562	-1.00219	5.84540	-0.46903
3058.000	6.38876	-0.94496	5.78083	-0.55221
3059.000	6.41219	-0.96073	5.87279	-0.46110
3060.000	6.41610	-1.03187	5.85714	-0.55016
3061.000	6.39072	-1.00623	5.78083	-0.53242
3062.000	6.44538	-0.95474	5.85518	-0.51850
3063.000	6.41610	-1.02792	5.77887	-0.60169
3064.000	6.34776	-1.05177	5.88649	-0.48681
3065.000	6.39462	-1.04772	5.79649	-0.54428
3066.000	6.38681	-1.04379	5.82584	-0.51853
3067.000	6.37510	-1.02207	5.77887	-0.48888
3068.000	6.34580	-1.02608	5.78474	-0.56408
3069.000	6.41415	-0.99828	5.82779	-0.53634
3070.000	6.42976	-1.03975	5.81214	-0.51854
3071.000	6.42195	-1.01012	5.85127	-0.55214
3072.000	6.40048	-1.02004	5.84149	-0.48883
3073.000	6.39462	-0.99238	5.85323	-0.51059
3074.000	6.41219	-1.02595	5.77692	-0.56013
3075.000	6.40829	-1.02003	5.78670	-0.52450
3076.000	6.41610	-0.96270	5.83953	-0.51851
3077.000	6.40243	-0.95679	5.82584	-0.52842
3078.000	6.41219	-1.03385	5.83953	-0.56799
3079.000	6.40048	-0.99633	5.69667	-0.55625
3080.000	6.38681	-1.02007	5.80431	-0.53240
3081.000	6.37900	-1.01020	5.80040	-0.53636
3082.000	6.39657	-0.96471	5.80236	-0.55021
3083.000	6.39657	-0.99436	5.81605	-0.45916
3084.000	6.39462	-0.99238	5.83758	-0.59371
3085.000	6.36729	-1.03394	5.89431	-0.56002
3086.000	6.41610	-1.01606	5.85323	-0.58776
3087.000	6.42000	-1.04767	5.80236	-0.52449
3088.000	6.40438	-0.99829	5.86105	-0.59369
3089.000	6.41024	-1.02398	5.86888	-0.55411
3090.000	6.41805	-1.01013	5.85127	-0.53038
3091.000	6.36143	-1.00036	5.80236	-0.54625
3092.000	6.37119	-1.02208	5.86692	-0.58973
3093.000	6.33018	-1.03995	5.74952	-0.59777
3094.000	6.38681	-0.97856	5.75735	-0.55619
3095.000	6.36729	-0.98255	5.84149	-0.55017
3096.000	6.36924	-1.01813	5.79453	-0.55814
3097.000	6.36338	-1.01023	5.81605	-0.51854
3098.000	6.39072	-0.97856	5.80236	-0.56209
3099.000	6.39853	-1.03783	5.77496	-0.63336
3100.000	6.40048	-1.01214	5.81410	-0.56603
3101.000	6.39267	-1.02401	5.80431	-0.61354
3102.000	6.40048	-1.00423	5.81214	-0.56604
3103.000	6.39462	-0.98250	5.80236	-0.55615
3104.000	6.38486	-1.00031	5.90605	-0.56990
3105.000	6.40048	-0.99435	5.83366	-0.55414
3106.000	6.42781	-0.98046	5.82584	-0.59966
3107.000	6.38291	-1.02798	5.89040	-0.61345
3108.000	6.40048	-1.01609	5.84540	-0.63724
3109.000	6.36143	-1.00431	5.78083	-0.58190
3110.000	6.36924	-0.97267	5.86497	-0.63722
3111.000	6.39657	-0.99040	5.84540	-0.57985
3112.000	6.42195	-0.98047	5.83953	-0.63527
3113.000	6.39267	-0.97855	5.87670	-0.62335
3114.000	6.37119	-0.97859	5.88844	-0.68864
3115.000	6.37510	-0.97463	5.82192	-0.65508
3116.000	6.38876	-0.99042	5.80627	-0.62145
3117.000	6.33995	-0.92331	5.79453	-0.62542
3118.000	6.25596	-0.96102	5.75930	-0.67890
3119.000	6.08595	-0.99692	5.60857	-0.70085
3120.000	5.94712	-0.97344	5.48910	-0.71882
3121.000	5.79453	-1.04098	5.34802	-0.71106
3122.000	5.62423	-1.07296	5.17943	-0.77465
3123.000	5.41857	-1.15648	4.95777	-0.76302
3124.000	5.17747	-1.14505	4.88516	-0.76905
3125.000	4.97543	-1.20286	4.64171	-0.84862
3126.000	4.73400	-1.25482	4.51402	-0.88050
3127.000	4.57296	-1.30466	4.35287	-0.99175
3128.000	4.36860	-1.38829	4.17986	-1.07528
3129.000	4.20542	-1.40445	3.97333	-0.98429
3130.000	4.03431	-1.51383	3.94381	-1.07361
3131.000	3.97136	-1.50998	3.84345	-1.06382
3132.000	3.90839	-1.54778	3.88281	-1.06774
3133.000	3.88478	-1.57757	3.86116	-1.02411
3134.000	3.92807	-1.58939	3.87297	-0.98838
3135.000	4.02841	-1.58721	3.92413	-1.03594
3136.000	4.13660	-1.58700	3.95365	-0.99225
3137.000	4.26638	-1.57087	4.05005	-0.94452
3138.000	4.40398	-1.53689	4.20739	-0.98202
3139.000	4.54153	-1.51877	4.25261	-0.93238
3140.000	4.64563	-1.53044	4.31159	-0.95611
3141.000	4.82628	-1.43693	4.43739	-0.96189
3142.000	4.93619	-1.42481	4.56903	-0.91216
3143.000	5.04606	-1.47210	4.63385	-0.88234
3144.000	5.17159	-1.44607	4.68491	-0.93778
3145.000	5.22061	-1.43210	4.70651	-0.96550
3146.000	5.24609	-1.43402	4.81254	-0.93958
3147.000	5.28726	-1.41017	4.72811	-0.92781
3148.000	5.26374	-1.39042	4.68688	-0.98336
3149.000	5.23041	-1.36278	4.69277	-0.97741
3150.000	5.17159	-1.32726	4.66527	-0.98934
3151.000	5.12648	-1.36498	4.67706	-0.96356
3152.000	5.09902	-1.35910	4.50616	-0.97767
3153.000	5.03037	-1.33745	4.57099	-0.95974
3154.000	5.02056	-1.35134	4.59653	-0.93789
3155.000	4.91264	-1.33967	4.43149	-0.87862
3156.000	4.91068	-1.33572	4.42756	-0.97380
3157.000	4.85572	-1.35564	4.42166	-0.99761
3158.000	4.83806	-1.36558	4.32929	-0.97790
3159.000	4.84198	-1.31604	4.34305	-1.00366
3160.000	4.77720	-1.36174	4.35287	-0.98778
3161.000	4.77131	-1.34788	4.32535	-0.96204
3162.000	4.75364	-1.36377	4.34501	-0.99374
3163.000	4.73008	-1.36579	4.20739	-1.02169
3164.000	4.72419	-1.38166	4.26441	-1.02955
3165.000	4.74186	-1.35586	4.24868	-1.05139
3166.000	4.73400	-1.36777	4.26441	-1.01368
3167.000	4.73204	-1.38957	4.24868	-0.98792
3168.000	4.73400	-1.41731	4.24672	-0.97999
3169.000	4.73990	-1.42126	4.24278	-1.04941
3170.000	4.75757	-1.41329	4.24278	-1.01173
3171.000	4.70062	-1.40350	4.26245	-0.97997
3172.000	4.75560	-1.41528	4.27228	-0.99384
3173.000	4.71044	-1.45896	4.25458	-1.06526
3174.000	4.73400	-1.39551	4.29783	-1.08503
3175.000	4.70455	-1.42727	4.39415	-1.09282
3176.000	4.75953	-1.42518	4.30570	-1.06122
3177.000	4.73400	-1.41532	4.33125	-1.09688
3178.000	4.72026	-1.47083	4.32732	-1.06119
3179.000	4.75364	-1.46680	4.31553	-1.09889
3180.000	4.75560	-1.44104	4.34501	-1.10876
3181.000	4.77524	-1.45090	4.28014	-1.06721
3182.000	4.74971	-1.43709	4.21329	-1.07127
3183.000	4.75757	-1.43707	4.34108	-1.11670
3184.000	4.76542	-1.44102	4.26638	-1.08309
3185.000	4.77131	-1.47270	4.26638	-1.01170
3186.000	4.76149	-1.43508	4.22509	-1.07522
3187.000	4.81843	-1.45675	4.26638	-1.06921
3188.000	4.76149	-1.44895	4.28211	-0.99184
3189.000	4.78309	-1.46277	4.25458	-1.02163
3190.000	4.82824	-1.43692	4.24475	-1.05139
3191.000	4.81254	-1.44092	4.31946	-1.06517
3192.000	4.78505	-1.43899	4.25851	-1.02361
3193.000	4.74971	-1.44898	4.29587	-1.03546
3194.000	4.77131	-1.46280	4.37056	-1.14045
3195.000	4.83020	-1.46267	4.26441	-1.08111
3196.000	4.77916	-1.42910	4.28604	-1.06323
3197.000	4.76935	-1.46677	4.31159	-1.06320
3198.000	4.78505	-1.42909	4.25261	-1.02956
3199.000	4.76542	-1.40932	4.33518	-1.03342
3200.000	4.79487	-1.44888	4.22116	-0.95424
3201.000	4.77720	-1.43307	4.28014	-1.00771
3202.000	4.76935	-1.43110	4.24082	-1.07916
3203.000	4.79291	-1.42907	4.33125	-1.04731
3204.000	4.81254	-1.42507	4.30373	-1.05329
3205.000	4.76346	-1.43706	4.27228	-1.04739
3206.000	4.78898	-1.39342	4.22116	-1.03357
3207.000	4.76935	-1.38553	4.31553	-1.00172
3208.000	4.79291	-1.40728	4.33715	-1.09687
3209.000	4.79291	-1.40926	4.27621	-1.11283
3210.000	4.77524	-1.45090	4.24868	-1.03354
3211.000	4.77720	-1.45090	4.25458	-1.07319
3212.000	4.79094	-1.45087	4.24672	-1.05536
3213.000	4.78505	-1.39937	4.29783	-1.04934
3214.000	4.80861	-1.39536	4.21722	-1.08316
3215.000	4.79487	-1.41322	4.19166	-1.07328
3216.000	4.75168	-1.44897	4.28407	-1.12471
3217.000	4.79487	-1.42114	4.29980	-1.09098
3218.000	4.74971	-1.40538	4.16806	-1.05149
3219.000	4.73400	-1.42523	4.21722	-1.07126
3220.000	4.75364	-1.36971	4.23492	-1.12677
3221.000	4.78113	-1.43306	4.26245	-1.04145
3222.000	4.75168	-1.40736	4.25655	-1.10294
3223.000	4.73990	-1.42126	4.28014	-1.10687
3224.000	4.73793	-1.39550	4.16806	-1.05149
3225.000	4.73793	-1.42126	4.20936	-1.13871
3226.000	4.76346	-1.40338	4.13856	-1.08129
3227.000	4.74579	-1.48267	4.21526	-1.07722
3228.000	4.76935	-1.43506	4.21919	-1.13076
3229.000	4.78505	-1.42314	4.24672	-1.05139
3230.000	4.75168	-1.42519	4.36663	-1.03932
3231.000	4.78702	-1.43107	4.22509	-1.13075
3232.000	4.74775	-1.43511	4.28407	-1.15843
3233.000	4.75953	-1.38555	4.34501	-1.11471
3234.000	4.77524	-1.39741	4.28800	-1.15644
3235.000	4.76149	-1.44301	4.24868	-1.05535
3236.000	4.71241	-1.39753	4.36467	-1.10080
3237.000	4.75364	-1.38953	4.26441	-1.08508
3238.000	4.72222	-1.41931	4.27228	-1.12077
3239.000	4.76346	-1.39941	4.27817	-1.08704
3240.000	4.73597	-1.38164	4.30963	-1.12666
3241.000	4.73990	-1.35785	4.32142	-1.10880
3242.000	4.73597	-1.38956	4.25851	-1.05732
3243.000	4.71044	-1.42330	4.26638	-1.07318
3244.000	4.74775	-1.36378	4.28407	-1.14256
3245.000	4.73204	-1.39551	4.30176	-1.19013
3246.000	4.66331	-1.37583	4.25261	-1.09501
3247.000	4.72222	-1.40742	4.29980	-1.08701
3248.000	4.76738	-1.40535	4.32142	-1.18018
3249.000	4.76738	-1.36176	4.27424	-1.07912
3250.000	4.73400	-1.38758	4.28014	-1.11480
3251.000	4.77524	-1.33995	4.29390	-1.08305
3252.000	4.77327	-1.34590	4.25261	-1.09303
3253.000	4.74579	-1.35189	4.34501	-1.10479
3254.000	4.78702	-1.32407	4.35681	-1.09288
3255.000	4.74971	-1.39944	4.32339	-1.12267
3256.000	4.70062	-1.41737	4.28211	-1.10687
3257.000	4.74382	-1.35586	4.32142	-1.11276
3258.000	4.79880	-1.33990	4.30963	-1.16434
3259.000	4.74775	-1.38954	4.23492	-1.09107
3260.000	4.76738	-1.35780	4.34894	-1.15238
3261.000	4.74579	-1.35982	4.26048	-1.16640
3262.000	4.77327	-1.38552	4.32732	-1.11870
3263.000	4.80468	-1.34781	4.29194	-1.14850
3264.000	4.79094	-1.38152	4.23885	-1.13271
3265.000	4.77720	-1.37957	4.36467	-1.15037
3266.000	4.78702	-1.34983	4.27621	-1.09300
3267.000	4.81057	-1.37554	4.29194	-1.19808
3268.000	4.79880	-1.34386	4.27817	-1.13464
3269.000	4.76346	-1.34790	4.31356	-1.15838
3270.000	4.80272	-1.32404	4.21722	-1.15853
3271.000	4.80272	-1.34584	4.29587	-1.19609
3272.000	4.76346	-1.29043	4.35287	-1.12263
3273.000	4.81843	-1.31014	4.20149	-1.17838
3274.000	4.78702	-1.34191	4.29980	-1.07115
3275.000	4.78702	-1.34785	4.31946	-1.19407
3276.000	4.80861	-1.34384	4.30373	-1.18021
3277.000	4.76738	-1.32015	4.29390	-1.21592
3278.000	4.78309	-1.34588	4.32929	-1.13655
3279.000	4.74579	-1.33802	4.22509	-1.20016
3280.000	4.78309	-1.36965	4.24475	-1.15055
3281.000	4.77720	-1.36966	4.31356	-1.13855
3282.000	4.76542	-1.35780	4.24082	-1.12676
3283.000	4.76738	-1.36374	4.28604	-1.10091
3284.000	4.77524	-1.40137	4.27621	-1.24371
3285.000	4.74382	-1.34595	4.28604	-1.14256
3286.000	4.74775	-1.37567	4.24278	-1.18824
3287.000	4.73990	-1.36974	4.29194	-1.16635
3288.000	4.72026	-1.36978	4.25065	-1.09303
3289.000	4.73597	-1.40145	4.27031	-1.07714
3290.000	4.71830	-1.36384	4.28407	-1.19214
3291.000	4.72026	-1.32618	4.31946	-1.17622
3292.000	4.73597	-1.38560	4.16806	-1.18042
3293.000	4.74579	-1.32811	4.18576	-1.16254
3294.000	4.72419	-1.35392	4.29783	-1.18022
3295.000	4.75757	-1.32017	4.23295	-1.21602
3296.000	4.76346	-1.35384	4.39612	-1.20188
3297.000	4.77524	-1.39939	4.27031	-1.17630
3298.000	4.73008	-1.35787	4.29980	-1.14650
3299.000	4.73008	-1.36778	4.35091	-1.19005
3300.000	4.75953	-1.38753	4.24082	-1.21799
3301.000	4.73597	-1.35588	4.27817	-1.18422
3302.000	4.74382	-1.38955	4.27817	-1.18620
3303.000	4.74186	-1.41729	4.27228	-1.20207
3304.000	4.72615	-1.37769	4.23689	-1.15255
3305.000	4.73793	-1.40541	4.29194	-1.18221
3306.000	4.74775	-1.40737	4.26638	-1.14854
3307.000	4.72026	-1.37770	4.33518	-1.13852
3308.000	4.72615	-1.39553	4.31553	-1.18812
3309.000	4.73597	-1.36975	4.18183	-1.15461
3310.000	4.73008	-1.35589	4.23689	-1.14065
3311.000	4.72615	-1.37571	4.26638	-1.10888
3312.000	4.75560	-1.32810	4.25261	-1.21400
3313.000	4.75953	-1.38753	4.20542	-1.16251
3314.000	4.77916	-1.35183	4.26834	-1.15845
3315.000	4.75364	-1.36575	4.25261	-1.16046
3316.000	4.77720	-1.33004	4.30373	-1.14848
3317.000	4.74971	-1.33603	4.25458	-1.11088
3318.000	4.81057	-1.29034	4.33322	-1.15439
3319.000	4.78309	-1.30427	4.31946	-1.14053
3320.000	4.77720	-1.27654	4.26834	-1.18026
3321.000	4.76935	-1.32609	4.25851	-1.15252
3322.000	4.75560	-1.30828	4.17593	-1.15661
3323.000	4.70651	-1.37179	4.26834	-1.17432
3324.000	4.77916	-1.34588	4.28014	-1.15843
3325.000	4.72026	-1.37374	4.23689	-1.13272
3326.000	4.73008	-1.36579	4.27817	-1.10291
3327.000	4.72026	-1.32618	4.26441	-1.17829
3328.000	4.69473	-1.36190	4.28997	-1.16635
3329.000	4.73400	-1.34201	4.23689	-1.11288
3330.000	4.73597	-1.36578	4.22116	-1.11291
3331.000	4.69473	-1.36983	4.22116	-1.14067
3332.000	4.68884	-1.38767	4.16413	-1.11299
3333.000	4.73990	-1.35389	4.23492	-1.07322
3334.000	4.69866	-1.36189	4.27424	-1.09696
3335.000	4.73400	-1.36182	4.17593	-1.15264
3336.000	4.73990	-1.31822	4.23689	-1.13470
3337.000	4.71437	-1.34601	4.22116	-1.13671
3338.000	4.73793	-1.32219	4.21329	-1.10697
3339.000	4.72615	-1.32419	4.23689	-1.14462
3340.000	4.72222	-1.34005	4.24672	-1.11287
3341.000	4.73793	-1.35191	4.25458	-1.08509
3342.000	4.76738	-1.33600	4.30176	-1.13659
3343.000	4.73400	-1.33805	4.27424	-1.12671
3344.000	4.75560	-1.31224	4.24278	-1.20014
3345.000	4.73400	-1.34993	4.23885	-1.12676
3346.000	4.69277	-1.33614	4.20739	-1.11094
3347.000	4.67902	-1.32230	4.21132	-1.18035
3348.000	4.67706	-1.30843	4.16806	-1.14868
3349.000	4.69473	-1.34407	4.28211	-1.13067
3350.000	4.69866	-1.33217	4.20542	-1.18036
3351.000	4.70455	-1.33612	4.13070	-1.11105
3352.000	4.71437	-1.36384	4.18576	-1.15064
3353.000	4.72026	-1.37176	4.25065	-1.14856
3354.000	4.70848	-1.35197	4.23492	-1.12280
3355.000	4.73204	-1.37768	4.17199	-1.18636
3356.000	4.71633	-1.36780	4.26441	-1.13466
3357.000	4.72419	-1.33410	4.26638	-1.18423
3358.000	4.72419	-1.35590	4.23295	-1.20610
3359.000	4.73793	-1.34398	4.22116	-1.19422
3360.000	4.70259	-1.36387	4.32142	-1.15639
3361.000	4.70848	-1.32422	4.27031	-1.18423
3362.000	4.68688	-1.35795	4.21329	-1.18828
3363.000	4.69277	-1.38767	4.29783	-1.25557
3364.000	4.67902	-1.32626	4.23885	-1.12875
3365.000	4.71241	-1.31827	4.29783	-1.07710
3366.000	4.75560	-1.25874	4.29194	-1.10685
3367.000	4.75757	-1.22307	4.27424	-0.98194
3368.000	4.83609	-1.11394	4.34698	-0.92433
3369.000	4.89301	-1.04648	4.36270	-0.85887
3370.000	5.01075	-0.94327	4.34501	-0.79344
3371.000	5.07941	-0.79656	4.44918	-0.70607
3372.000	5.17159	-0.59438	4.43149	-0.60494
3373.000	5.20688	-0.52303	4.54153	-0.48984
3374.000	5.24021	-0.40612	4.51795	-0.40854
3375.000	5.30098	-0.27337	4.53563	-0.25187
3376.000	5.29902	-0.15847	4.46686	-0.20627
3377.000	5.30686	-0.04160	4.44328	-0.17653
3378.000	5.26178	0.04556	4.50813	-0.04562
3379.000	5.26962	0.09509	4.50223	0.03372
3380.000	5.27158	0.12679	4.46293	0.08330
3381.000	5.19120	0.18030	4.38432	0.16662
3382.000	5.10295	0.14862	4.31553	0.14283
3383.000	5.10491	0.15456	4.35877	0.06943
3384.000	5.06372	0.11692	4.34108	0.04166
3385.000	4.99309	0.04955	4.36074	0.03372
3386.000	4.97543	0.02775	4.27424	-0.01587
3387.000	4.95777	-0.00991	4.37253	-0.19836
3388.000	4.93226	-0.11298	4.39808	-0.12695
3389.000	4.91264	-0.17443	4.26048	-0.21030
3390.000	4.93030	-0.28145	4.33518	-0.28169
3391.000	4.92049	-0.36272	4.35287	-0.36103
3392.000	4.89105	-0.46382	4.36663	-0.46417
3393.000	4.91264	-0.51138	4.39022	-0.49985
3394.000	4.95581	-0.49351	4.40594	-0.51174
3395.000	4.99898	-0.56878	4.43542	-0.47801
3396.000	4.96955	-0.59258	4.49634	-0.56324
3397.000	5.03037	-0.56281	4.50420	-0.49779
3398.000	5.03233	-0.55290	4.52384	-0.52158
3399.000	5.02056	-0.53111	4.43739	-0.50776
3400.000	5.05391	-0.52514	4.43935	-0.50180
3401.000	5.05587	-0.50334	4.44328	-0.45817
3402.000	5.07353	-0.45577	4.45507	-0.48394
3403.000	5.06568	-0.46964	4.47669	-0.33915
3404.000	5.07745	-0.39632	4.43935	-0.42049
3405.000	5.10295	-0.40621	4.48651	-0.33518
3406.000	5.10295	-0.32893	4.49044	-0.32526
3407.000	5.08726	-0.31705	4.41773	-0.32331
3408.000	5.10099	-0.30912	4.40987	-0.29951
3409.000	5.09510	-0.25760	4.46490	-0.27966
3410.000	5.10099	-0.27543	4.46883	-0.29949
3411.000	5.09314	-0.24571	4.44132	-0.26380
3412.000	5.08726	-0.27346	4.40791	-0.27174
3413.000	5.08333	-0.24374	4.38432	-0.33324
3414.000	5.09510	-0.23382	4.38039	-0.29952
3415.000	5.08529	-0.26751	4.47276	-0.28560
3416.000	5.07549	-0.25563	4.48258	-0.22808
3417.000	5.08137	-0.26355	4.43346	-0.29950
3418.000	5.09118	-0.21203	4.36663	-0.30746
3419.000	5.08726	-0.26355	4.50616	-0.27171
3420.000	5.08529	-0.27544	4.46293	-0.30544
3421.000	5.06764	-0.25563	4.41184	-0.30943
3422.000	5.10295	-0.30516	4.44132	-0.27372
3423.000	5.10099	-0.28336	4.45311	-0.30148
3424.000	5.09118	-0.29724	4.51009	-0.34112
3425.000	5.08137	-0.27346	4.45311	-0.34115
3426.000	5.08137	-0.26752	4.47079	-0.33320
3427.000	5.07745	-0.27346	4.47276	-0.31337
3428.000	5.06764	-0.29328	4.52384	-0.23204
3429.000	5.07156	-0.29724	4.49634	-0.27568
3430.000	5.04606	-0.27348	4.56314	-0.31333
3431.000	5.05587	-0.28734	4.46686	-0.23206
3432.000	5.07549	-0.27743	4.47865	-0.24197
3433.000	5.08333	-0.27941	4.41773	-0.35703
3434.000	5.10099	-0.29525	4.48651	-0.40063
3435.000	5.08922	-0.31903	4.52581	-0.35896
3436.000	5.09118	-0.33092	4.49241	-0.36691
3437.000	5.10687	-0.30515	4.50813	-0.30344
3438.000	5.07353	-0.29328	4.45311	-0.37288
3439.000	5.09314	-0.29723	4.47865	-0.35502
3440.000	5.05195	-0.32302	4.40791	-0.32332
3441.000	5.10295	-0.30912	4.48062	-0.30147
3442.000	5.07156	-0.31508	4.46293	-0.28561
3443.000	5.09510	-0.28534	4.54349	-0.31136
3444.000	5.08726	-0.31507	4.46293	-0.35502
3445.000	5.10883	-0.32497	4.49044	-0.30345
3446.000	5.11079	-0.30515	4.46686	-0.33122
3447.000	5.07745	-0.34876	4.45900	-0.28561
3448.000	5.10295	-0.32497	4.42953	-0.40661
3449.000	5.08333	-0.30517	4.41577	-0.34513
3450.000	5.09902	-0.32695	4.49044	-0.32923
3451.000	5.09706	-0.32894	4.54742	-0.34110
3452.000	5.10099	-0.33686	4.45704	-0.31338
3453.000	5.11079	-0.29326	4.51402	-0.37087
3454.000	5.09706	-0.29723	4.45507	-0.33123
3455.000	5.08726	-0.33885	4.51402	-0.33913
3456.000	5.13237	-0.30118	4.48258	-0.33717
3457.000	5.09706	-0.31308	4.49241	-0.29948
3458.000	5.08726	-0.34678	4.49437	-0.35104
3459.000	5.08333	-0.36461	4.59457	-0.30539
3460.000	5.09314	-0.33092	4.50616	-0.30939
3461.000	5.05587	-0.31905	4.49634	-0.39269
3462.000	5.07549	-0.35273	4.51991	-0.32525
3463.000	5.13629	-0.36062	4.52777	-0.32128
3464.000	5.07941	-0.32498	4.61028	-0.37676
3465.000	5.08529	-0.38046	4.51402	-0.27964
3466.000	5.06764	-0.29130	4.58082	-0.37083
3467.000	5.09118	-0.35866	4.46490	-0.43832
3468.000	5.07745	-0.33687	4.46490	-0.37089
3469.000	5.07156	-0.34480	4.52188	-0.34706
3470.000	5.05195	-0.36067	4.44132	-0.34710
3471.000	5.06176	-0.34084	4.44721	-0.37883
3472.000	5.07156	-0.35867	4.42756	-0.30546
3473.000	5.06960	-0.32895	4.46293	-0.42246
3474.000	5.09510	-0.28534	4.55135	-0.26574
3475.000	5.08333	-0.32102	4.50223	-0.35104
3476.000	5.09706	-0.29723	4.49044	-0.38079
3477.000	5.09706	-0.32696	4.56117	-0.33118
3478.000	5.08137	-0.27941	4.53760	-0.38474
3479.000	5.13237	-0.29920	4.50027	-0.39864
3480.000	5.11079	-0.30119	4.51795	-0.38078
3481.000	5.10295	-0.28138	4.49830	-0.28758
3482.000	5.11864	-0.34478	4.50813	-0.38475
3483.000	5.11079	-0.32695	4.55921	-0.34903
3484.000	5.07549	-0.29922	4.46293	-0.38279
3485.000	5.11668	-0.33883	4.51795	-0.34112
3486.000	5.10883	-0.33488	4.49634	-0.38277
3487.000	5.08137	-0.35074	4.43149	-0.35107
3488.000	5.12060	-0.35468	4.58082	-0.42041
3489.000	5.10491	-0.33884	4.45507	-0.35305
3490.000	5.09510	-0.35073	4.51598	-0.43631
3491.000	5.10491	-0.33686	4.53563	-0.42836
3492.000	5.04999	-0.38247	4.45114	-0.41651
3493.000	5.10687	-0.38838	4.47276	-0.34312
3494.000	5.06176	-0.33490	4.57689	-0.43231
3495.000	5.10099	-0.35866	4.54742	-0.41249
3496.000	5.05979	-0.33292	4.56314	-0.46206
3497.000	5.11472	-0.34280	4.54938	-0.39068
3498.000	5.07941	-0.33885	4.45311	-0.37883
3499.000	5.08529	-0.35470	4.57689	-0.45412
3500.000	5.07941	-0.34282	4.50027	-0.36294
3501.000	5.10687	-0.32893	4.44132	-0.40065
3502.000	5.09902	-0.36658	4.59457	-0.38074
3503.000	5.08922	-0.35866	4.45311	-0.33916
3504.000	5.07353	-0.34282	4.52777	-0.43035
3505.000	5.06960	-0.35471	4.46686	-0.38676
3506.000	5.11864	-0.35865	4.47472	-0.44228
3507.000	5.12452	-0.36261	4.54742	-0.36688
3508.000	5.09902	-0.34875	4.53170	-0.37284
3509.000	5.12060	-0.35270	4.47865	-0.33320
3510.000	5.09314	-0.35470	4.51402	-0.36293
3511.000	5.10883	-0.36262	4.49634	-0.37881
3512.000	5.08529	-0.33291	4.46883	-0.36692
3513.000	5.10687	-0.36460	4.58671	-0.37678
3514.000	5.10099	-0.33092	4.49044	-0.38079
3515.000	5.04606	-0.32896	4.50616	-0.45020
3516.000	5.08137	-0.35867	4.55528	-0.29152
3517.000	5.05979	-0.30914	4.47276	-0.34907
3518.000	5.10099	-0.33884	4.49634	-0.36691
3519.000	5.09118	-0.36263	4.48258	-0.35700
3520.000	5.08137	-0.29526	4.48848	-0.27568
3521.000	5.09510	-0.37848	4.44328	-0.36297
3522.000	5.07549	-0.33687	4.40398	-0.36497
3523.000	5.10099	-0.33884	4.51009	-0.34509
3524.000	5.08137	-0.36065	4.62992	-0.32917
3525.000	5.10883	-0.31704	4.54349	-0.34110
3526.000	5.08726	-0.33885	4.53170	-0.37284
3527.000	5.09510	-0.36461	4.48848	-0.43236
3528.000	5.06176	-0.34481	4.51598	-0.44424
3529.000	5.07745	-0.34876	4.48062	-0.35502
3530.000	5.07745	-0.35471	4.51598	-0.39070
3531.000	5.05979	-0.37651	4.49044	-0.28956
3532.000	5.08726	-0.33291	4.53563	-0.34507
3533.000	5.08137	-0.38443	4.50616	-0.27369
3534.000	5.08529	-0.33489	4.52974	-0.38871
3535.000	5.09118	-0.33092	4.52581	-0.29550
3536.000	5.08726	-0.36065	4.49634	-0.33914
3537.000	5.05195	-0.37454	4.52974	-0.35896
3538.000	5.08333	-0.35272	4.51402	-0.36888
3539.000	5.08137	-0.37848	4.52188	-0.26377
3540.000	5.08726	-0.36461	4.44525	-0.41652
3541.000	5.07941	-0.38245	4.55921	-0.32721
3542.000	5.08922	-0.36263	4.48455	-0.32923
3543.000	5.14217	-0.31108	4.54153	-0.32921
3544.000	5.12452	-0.34279	4.46293	-0.35106
3545.000	5.11079	-0.32299	4.58082	-0.34109
3546.000	5.09314	-0.34875	4.50223	-0.32526
3547.000	5.04018	-0.33491	4.56903	-0.39463
3548.000	5.10883	-0.33686	4.46490	-0.41254
3549.000	5.08333	-0.35470	4.55921	-0.35696
3550.000	5.08529	-0.32498	4.55135	-0.31532
3551.000	5.07941	-0.34876	4.48651	-0.42046
3552.000	5.07745	-0.33093	4.51795	-0.41648
3553.000	5.08726	-0.31507	4.59849	-0.35496
3554.000	5.11275	-0.40026	4.57296	-0.36489
3555.000	5.07745	-0.34480	4.51009	-0.30542
3556.000	5.07941	-0.39434	4.41773	-0.29554
3557.000	5.08922	-0.35866	4.50813	-0.34310
3558.000	5.04606	-0.35869	4.45114	-0.36098
3559.000	5.09314	-0.34479	4.44328	-0.32330
3560.000	5.08726	-0.35668	4.56706	-0.26375
3561.000	5.08137	-0.40226	4.49830	-0.30543
3562.000	5.08529	-0.39037	4.56510	-0.31730
3563.000	5.09510	-0.38244	4.46686	-0.33321
3564.000	5.06764	-0.36858	4.51205	-0.28559
3565.000	5.09706	-0.31903	4.44918	-0.35503
3566.000	5.10295	-0.33686	4.47472	-0.31337
3567.000	5.12256	-0.35072	4.63385	-0.33115
3568.000	5.11079	-0.31308	4.58474	-0.29746
3569.000	5.07353	-0.40821	4.62796	-0.28951
3570.000	5.06960	-0.34877	4.57492	-0.27565
3571.000	5.12060	-0.36063	4.48651	-0.35303
3572.000	5.10099	-0.33290	4.56510	-0.27764
3573.000	5.08726	-0.35272	4.54545	-0.29747
3574.000	5.10295	-0.34082	4.55724	-0.36291
3575.000	5.06764	-0.35669	4.54153	-0.30343
3576.000	5.09510	-0.36064	4.52188	-0.30938
3577.000	5.09510	-0.36659	4.53760	-0.29748
3578.000	5.08529	-0.36659	4.53367	-0.29351
3579.000	5.07941	-0.37650	4.58278	-0.32919
3580.000	5.12060	-0.36855	4.51795	-0.29947
3581.000	5.08529	-0.35074	4.58671	-0.30539
3582.000	5.13237	-0.36855	4.53170	-0.34904
3583.000	5.06568	-0.37453	4.53956	-0.36292
3584.000	5.07941	-0.39037	4.48258	-0.35502
3585.000	5.09902	-0.33092	4.52384	-0.29550
3586.000	5.12452	-0.34279	4.48062	-0.32130
3587.000	5.08529	-0.38839	4.59064	-0.35496
3588.000	5.11864	-0.35865	4.53170	-0.34706
3589.000	5.08726	-0.36857	4.54742	-0.35300
3590.000	5.07353	-0.39434	4.48455	-0.33320
3591.000	5.12060	-0.37252	4.53760	-0.36689
3592.000	5.07156	-0.37453	4.50616	-0.34707
3593.000	5.08529	-0.36857	4.55331	-0.28557
3594.000	5.06764	-0.36066	4.62599	-0.36684
3595.000	5.09902	-0.38640	4.48651	-0.29353
3596.000	5.09706	-0.40027	4.58278	-0.31729
3597.000	5.11472	-0.37054	4.47669	-0.24792
3598.000	5.07353	-0.35075	4.55528	-0.29747
3599.000	5.11472	-0.35865	4.53367	-0.33913
3600.000	5.10491	-0.38045	4.60046	-0.28357
3601.000	5.09706	-0.40423	4.59260	-0.36289
3602.000	5.05391	-0.37454	4.62796	-0.31925
3603.000	5.10491	-0.37847	4.46293	-0.41452
3604.000	5.10099	-0.36064	4.45114	-0.31140
3605.000	5.08137	-0.39434	4.50223	-0.40657
3606.000	5.10295	-0.37253	4.50813	-0.40458
3607.000	5.08137	-0.39830	4.59260	-0.31728
3608.000	5.10883	-0.38639	4.54938	-0.34507
3609.000	5.11079	-0.40621	4.54742	-0.33714
3610.000	5.14217	-0.38835	4.59457	-0.36686
3611.000	5.11079	-0.42008	4.56706	-0.32919
3612.000	5.11864	-0.40224	4.54938	-0.38473
3613.000	5.10687	-0.40423	4.61617	-0.37081
3614.000	5.08922	-0.41415	4.56706	-0.33514
3615.000	5.11079	-0.40026	4.56510	-0.38075
3616.000	5.08137	-0.39830	4.50223	-0.42838
3617.000	5.12256	-0.40818	4.52581	-0.36094
3618.000	5.12844	-0.38836	4.56903	-0.33911
3619.000	5.09706	-0.41018	4.58867	-0.39066
3620.000	5.06372	-0.40624	4.49830	-0.38872
3621.000	5.10491	-0.41017	4.50027	-0.26973
3622.000	5.08922	-0.40622	4.55724	-0.35101
3623.000	5.11668	-0.39431	4.42953	-0.35702
3624.000	5.09118	-0.38839	4.57492	-0.38868
3625.000	5.10491	-0.41414	4.58082	-0.37480
3626.000	5.12060	-0.39035	4.60832	-0.28555
3627.000	5.12256	-0.42799	4.53563	-0.38474
3628.000	5.09902	-0.40423	4.56510	-0.34109
3629.000	5.10491	-0.41017	4.56117	-0.36489
3630.000	5.09902	-0.42999	4.56903	-0.37679
3631.000	5.15198	-0.42996	4.58082	-0.37281
3632.000	5.10099	-0.44188	4.57296	-0.39860
3633.000	5.08137	-0.43000	4.61421	-0.39659
3634.000	5.11275	-0.42404	4.57885	-0.32919
3635.000	5.09314	-0.43792	4.49437	-0.33319
3636.000	5.11275	-0.44583	4.57492	-0.35695
3637.000	5.07941	-0.43000	4.55921	-0.39067
3638.000	5.09706	-0.41018	4.62207	-0.33313
3639.000	5.10491	-0.40621	4.58671	-0.40256
3640.000	5.11079	-0.38639	4.53563	-0.36491
3641.000	5.09510	-0.41414	4.47276	-0.39270
3642.000	5.09314	-0.44188	4.53760	-0.36094
3643.000	5.14021	-0.39628	4.55528	-0.32920
3644.000	5.07941	-0.42604	4.62403	-0.34503
3645.000	5.10099	-0.40423	4.58082	-0.35298
3646.000	5.07549	-0.42406	4.62207	-0.34701
3647.000	5.08137	-0.42802	4.57296	-0.24194
3648.000	5.06764	-0.42605	4.60242	-0.33513
3649.000	5.07353	-0.41416	4.56903	-0.37084
3650.000	5.05195	-0.40426	4.60439	-0.34901
3651.000	5.07745	-0.40425	4.55724	-0.31532
3652.000	5.07156	-0.44586	4.54742	-0.29549
3653.000	5.06960	-0.42605	4.52581	-0.39862
3654.000	5.09706	-0.46764	4.55921	-0.41447
3655.000	5.08529	-0.46369	4.51991	-0.43036
3656.000	5.11668	-0.46961	4.54742	-0.39663
3657.000	5.12844	-0.43790	4.53367	-0.37879
3658.000	5.11275	-0.43593	4.58278	-0.34902
3659.000	5.11079	-0.40224	4.57296	-0.35299
3660.000	5.11668	-0.43791	4.62599	-0.41641
3661.000	5.10883	-0.47754	4.52581	-0.41845
3662.000	5.11079	-0.42206	4.58278	-0.35298
3663.000	5.05587	-0.45578	4.58278	-0.35100
3664.000	5.09902	-0.41612	4.56510	-0.36489
3665.000	5.08726	-0.44585	4.54545	-0.34110
3666.000	5.15786	-0.48345	4.57885	-0.30936
3667.000	5.10883	-0.45574	4.51402	-0.41053
3668.000	5.07353	-0.46568	4.66920	-0.32915
3669.000	5.07156	-0.42803	4.63974	-0.34899
3670.000	5.08137	-0.43000	4.49437	-0.34113
3671.000	5.09902	-0.44782	4.52777	-0.37482
3672.000	5.09314	-0.46962	4.60046	-0.35099
3673.000	5.07156	-0.43397	4.53563	-0.38077
3674.000	5.10099	-0.45971	4.62599	-0.31925
3675.000	5.11079	-0.44187	4.66920	-0.31527
3676.000	5.11079	-0.42008	4.51991	-0.33913
3677.000	5.12060	-0.43196	4.57492	-0.39661
3678.000	5.08922	-0.43198	4.51598	-0.37086
3679.000	5.12844	-0.41412	4.54153	-0.35697
3680.000	5.09706	-0.44188	4.60046	-0.37280
3681.000	5.11079	-0.39432	4.62403	-0.33115
3682.000	5.11472	-0.43791	4.56510	-0.30540
3683.000	5.09314	-0.45575	4.58278	-0.41049
3684.000	5.13433	-0.46959	4.58867	-0.34108
3685.000	5.11079	-0.48150	4.60635	-0.40056
3686.000	5.11079	-0.44980	4.53367	-0.40259
3687.000	5.11864	-0.45574	4.59260	-0.40255
3688.000	5.10295	-0.47160	4.62599	-0.32917
3689.000	5.11668	-0.46564	4.68491	-0.34302
3690.000	5.12256	-0.42799	4.61617	-0.34107
3691.000	5.10099	-0.45773	4.53367	-0.37680
3692.000	5.09902	-0.47556	4.65742	-0.34700
3693.000	5.13041	-0.47950	4.56314	-0.29548
3694.000	5.12844	-0.49734	4.59849	-0.34108
3695.000	5.15590	-0.43590	4.63581	-0.42830
3696.000	5.11275	-0.42800	4.57492	-0.31928
3697.000	5.13041	-0.46365	4.58671	-0.32720
3698.000	5.12648	-0.46167	4.58278	-0.36488
3699.000	5.09118	-0.47755	4.61421	-0.30538
3700.000	5.10883	-0.44584	4.55528	-0.39662
3701.000	5.12648	-0.45177	4.60635	-0.32124
3702.000	5.13237	-0.39827	4.58867	-0.37479
3703.000	5.13433	-0.46959	4.65153	-0.34502
3704.000	5.13237	-0.43195	4.59653	-0.37082
3705.000	5.13433	-0.44186	4.58671	-0.36686
3706.000	5.11079	-0.43593	4.60832	-0.38271
3707.000	5.13041	-0.40818	4.52974	-0.41845
3708.000	5.13629	-0.47950	4.54545	-0.45810
3709.000	5.14217	-0.44779	4.66527	-0.34699
3710.000	5.13237	-0.45771	4.57689	-0.31531
3711.000	5.12060	-0.41611	4.66724	-0.38665
3712.000	5.13237	-0.42402	4.55921	-0.34903
3713.000	5.11668	-0.45970	4.60635	-0.33909
3714.000	5.08137	-0.43000	4.59260	-0.33513
3715.000	5.08922	-0.46170	4.57296	-0.31928
3716.000	5.09118	-0.44189	4.60635	-0.34901
3717.000	5.13041	-0.47158	4.69670	-0.36879
3718.000	5.11079	-0.45376	4.70651	-0.42628
3719.000	5.08529	-0.48350	4.60635	-0.35892
3720.000	5.15394	-0.46165	4.63189	-0.35692
3721.000	5.11275	-0.46763	4.61224	-0.38271
3722.000	5.09902	-0.49142	4.58474	-0.33117
3723.000	5.11472	-0.46366	4.62992	-0.41641
3724.000	5.11864	-0.48744	4.63189	-0.38270
3725.000	5.10687	-0.46565	4.64760	-0.39062
3726.000	5.12648	-0.49536	4.55135	-0.40456
3727.000	5.14609	-0.43788	4.58671	-0.35893
3728.000	5.11668	-0.46366	4.56706	-0.33316
3729.000	5.11079	-0.45376	4.62599	-0.37081
3730.000	5.12452	-0.46564	4.65742	-0.36088
3731.000	5.11275	-0.47159	4.56314	-0.33316
3732.000	5.11472	-0.46366	4.62010	-0.36883
3733.000	5.11864	-0.44583	4.59064	-0.42238
3734.000	5.15590	-0.45769	4.67117	-0.32518
3735.000	5.11275	-0.46168	4.63189	-0.38072
3736.000	5.11275	-0.44385	4.64171	-0.36485
3737.000	5.11668	-0.44187	4.60439	-0.40651
3738.000	5.12844	-0.47554	4.56314	-0.40653
3739.000	5.10687	-0.44782	4.59260	-0.43428
3740.000	5.09510	-0.49340	4.64956	-0.36485
3741.000	5.09314	-0.46170	4.60635	-0.36487
3742.000	5.12452	-0.45375	4.56706	-0.36886
3743.000	5.12256	-0.42998	4.62207	-0.43030
3744.000	5.11079	-0.46763	4.58474	-0.44222
3745.000	5.09706	-0.46764	4.61814	-0.43228
3746.000	5.11668	-0.49140	4.68884	-0.41241
3747.000	5.12648	-0.47951	4.67902	-0.42035
3748.000	5.13237	-0.44780	4.61814	-0.44814
3749.000	5.09118	-0.48944	4.69080	-0.45405
3750.000	5.13041	-0.48743	4.63385	-0.50365
3751.000	5.11864	-0.47555	4.61224	-0.32521
3752.000	5.12648	-0.49734	4.62599	-0.43426
3753.000	5.12060	-0.49140	4.64760	-0.44019
3754.000	5.09118	-0.47953	4.56117	-0.49181
3755.000	5.11472	-0.45376	4.63581	-0.37675
3756.000	5.10491	-0.47358	4.55331	-0.44422
3757.000	5.11472	-0.48744	4.63778	-0.38468
3758.000	5.11079	-0.48150	4.61617	-0.42832
3759.000	5.16767	-0.47155	4.56314	-0.41050
3760.000	5.13433	-0.45176	4.60046	-0.32720
3761.000	5.10295	-0.48547	4.56314	-0.44818
3762.000	5.12060	-0.45375	4.55331	-0.38473
3763.000	5.11079	-0.45178	4.58671	-0.40454
3764.000	5.09314	-0.44783	4.63385	-0.35097
3765.000	5.12060	-0.48546	4.62992	-0.41839
3766.000	5.13825	-0.44185	4.59849	-0.43626
3767.000	5.13041	-0.49932	4.69866	-0.40447
3768.000	5.11079	-0.46565	4.55724	-0.42439
3769.000	5.13825	-0.46167	4.59849	-0.39858
3770.000	5.12256	-0.45771	4.58082	-0.37480
3771.000	5.17551	-0.48343	4.63581	-0.40253
3772.000	5.12060	-0.47951	4.64171	-0.40649
3773.000	5.13825	-0.46365	4.63581	-0.40055
3774.000	5.11668	-0.45177	4.64956	-0.39062
3775.000	5.15590	-0.46363	4.68491	-0.36681
3776.000	5.17355	-0.47947	4.59064	-0.47791
3777.000	5.12648	-0.45375	4.66920	-0.43820
3778.000	5.13041	-0.46563	4.67313	-0.38863
3779.000	5.14806	-0.41807	4.57492	-0.36489
3780.000	5.15002	-0.44977	4.57296	-0.38670
