time (ms)	lx (deg)	ly (deg)	rx (deg)	ry (deg)
0.000	2.39473	-0.53468	2.10061	-0.23261
1.000	2.39868	-0.50884	2.13615	-0.25447
2.000	2.38092	-0.53667	2.10851	-0.20676
3.000	2.41052	-0.49293	2.12430	-0.24254
4.000	2.37894	-0.50686	2.10259	-0.26243
5.000	2.40657	-0.53268	2.12628	-0.20278
6.000	2.41644	-0.49492	2.08284	-0.23659
7.000	2.37500	-0.48301	2.17563	-0.24850
8.000	2.40065	-0.51480	2.04533	-0.29226
9.000	2.40263	-0.47703	2.08087	-0.25249
10.000	2.40657	-0.53070	2.09074	-0.14513
11.000	2.43223	-0.46907	2.08679	-0.20478
12.000	2.42433	-0.46113	2.11443	-0.30616
13.000	2.40460	-0.48896	2.07100	-0.24255
14.000	2.42236	-0.51876	2.12036	-0.27833
15.000	2.37894	-0.48499	2.12825	-0.18887
16.000	2.37105	-0.51481	2.12233	-0.25050
17.000	2.39671	-0.51877	2.02558	-0.26840
18.000	2.34934	-0.49693	2.10456	-0.25646
19.000	2.36908	-0.47705	2.13418	-0.24851
20.000	2.40460	-0.52672	2.07692	-0.14712
21.000	2.37894	-0.49096	2.10259	-0.17694
22.000	2.39078	-0.50685	2.17958	-0.20079
23.000	2.37894	-0.52872	2.17169	-0.16302
24.000	2.36118	-0.51879	2.13812	-0.23061
25.000	2.37697	-0.48897	2.13023	-0.21272
26.000	2.36710	-0.51084	2.12233	-0.20278
27.000	2.38684	-0.50288	2.15787	-0.25049
28.000	2.36710	-0.49295	2.08877	-0.22466
29.000	2.37500	-0.48897	2.11838	-0.18091
30.000	2.39078	-0.55654	2.12628	-0.23260
31.000	2.36908	-0.54264	2.08087	-0.25448
32.000	2.36908	-0.52475	2.13812	-0.16898
33.000	2.36908	-0.49692	2.07100	-0.22068
34.000	2.37894	-0.55853	2.11838	-0.16899
35.000	2.35329	-0.50687	2.08877	-0.18887
36.000	2.39868	-0.46909	2.08679	-0.26243
37.000	2.39868	-0.52871	2.18945	-0.23259
38.000	2.38092	-0.56648	2.17761	-0.19085
39.000	2.38092	-0.50686	2.12430	-0.20477
40.000	2.39276	-0.49691	2.10654	-0.21869
41.000	2.43618	-0.46907	2.18945	-0.26241
42.000	2.38486	-0.55455	2.10851	-0.17893
43.000	2.38684	-0.51480	2.15589	-0.15904
44.000	2.38289	-0.51679	2.16971	-0.23458
45.000	2.39276	-0.52871	2.14602	-0.21272
46.000	2.41841	-0.53665	2.09074	-0.29623
47.000	2.39671	-0.52076	2.14010	-0.20676
48.000	2.40855	-0.53467	2.10456	-0.15507
49.000	2.47564	-0.52471	2.16576	-0.19482
50.000	2.42631	-0.50883	2.16576	-0.26242
51.000	2.42236	-0.51876	2.12430	-0.23658
52.000	2.42039	-0.52473	2.18353	-0.26838
53.000	2.42828	-0.48696	2.12825	-0.24055
54.000	2.43025	-0.53069	2.20130	-0.26241
55.000	2.43223	-0.51677	2.17366	-0.21470
56.000	2.43025	-0.56646	2.14405	-0.24652
57.000	2.43223	-0.53665	2.18156	-0.20874
58.000	2.42631	-0.45914	2.23091	-0.22463
59.000	2.40855	-0.52473	2.18945	-0.24054
60.000	2.41052	-0.54659	2.19340	-0.24054
61.000	2.43223	-0.50286	2.14010	-0.22465
62.000	2.44407	-0.53664	2.28026	-0.17692
63.000	2.44999	-0.50484	2.16379	-0.18886
64.000	2.43815	-0.49292	2.16379	-0.23458
65.000	2.44210	-0.51478	2.16181	-0.23459
66.000	2.44210	-0.49690	2.14997	-0.17693
67.000	2.42236	-0.51479	2.21117	-0.20078
68.000	2.43815	-0.54658	2.15194	-0.23856
69.000	2.44210	-0.52273	2.12430	-0.21670
70.000	2.49735	-0.50482	2.21117	-0.21669
71.000	2.42236	-0.52075	2.20130	-0.20675
72.000	2.46775	-0.58036	2.21709	-0.21867
73.000	2.42433	-0.53665	2.17563	-0.26043
74.000	2.38881	-0.53070	2.18156	-0.21470
75.000	2.35723	-0.50090	2.27236	-0.23854
76.000	2.28420	-0.54466	2.21512	-0.25446
77.000	2.21117	-0.51288	2.09666	-0.17495
78.000	2.15984	-0.44730	2.03941	-0.26840
79.000	2.06902	-0.37973	1.88341	-0.19685
80.000	1.91698	-0.30421	1.81231	-0.20282
81.000	1.70367	-0.26845	1.66812	-0.13125
82.000	1.48637	-0.13722	1.33819	-0.06166
83.000	1.27298	-0.09547	1.11489	0.03182
84.000	0.96666	0.02188	0.84610	0.10941
85.000	0.68203	0.10742	0.63855	0.08753
86.000	0.42505	0.17904	0.40528	0.22878
87.000	0.22142	0.24271	0.07710	0.25465
88.000	-0.00593	0.26658	-0.03361	0.34815
89.000	-0.16607	0.28648	-0.23922	0.35411
90.000	-0.31829	0.36605	-0.41319	0.47744
91.000	-0.43098	0.31830	-0.54959	0.53910
92.000	-0.41516	0.34814	-0.45865	0.52319
93.000	-0.40726	0.34018	-0.44877	0.55900
94.000	-0.27480	0.37400	-0.41319	0.57690
95.000	-0.17002	0.33223	-0.26689	0.56498
96.000	0.01779	0.28648	-0.25503	0.56299
97.000	0.10083	0.22878	-0.02372	0.49735
98.000	0.26887	0.19297	0.04152	0.44761
99.000	0.41319	0.16711	0.27282	0.38395
100.000	0.54564	0.13528	0.39935	0.34615
101.000	0.64448	0.09947	0.49622	0.32028
102.000	0.68796	0.02785	0.57331	0.32625
103.000	0.73936	-0.02387	0.67017	0.20689
104.000	0.74924	-0.07360	0.69389	0.13925
105.000	0.72750	-0.04774	0.78482	0.13129
106.000	0.70971	-0.07559	0.74133	0.05769
107.000	0.70773	-0.09946	0.67215	0.05968
108.000	0.65238	-0.09549	0.77296	-0.00199
109.000	0.62075	-0.09748	0.68401	-0.02984
110.000	0.59703	-0.08156	0.66227	0.02586
111.000	0.55750	-0.10941	0.57331	-0.06167
112.000	0.51203	-0.07361	0.56540	-0.02984
113.000	0.50017	-0.05570	0.59308	0.01591
114.000	0.45470	-0.05570	0.45075	0.06565
115.000	0.38156	-0.00796	0.42307	0.04973
116.000	0.36376	0.00597	0.35388	0.11141
117.000	0.36772	-0.01393	0.33411	0.17109
118.000	0.35388	0.00199	0.36969	0.15517
119.000	0.36772	0.04178	0.33609	0.20491
120.000	0.32620	0.01989	0.27282	0.22281
121.000	0.31434	0.04576	0.28271	0.25663
122.000	0.32422	0.07560	0.18781	0.24271
123.000	0.31039	0.06764	0.19572	0.28449
124.000	0.32818	0.05371	0.34993	0.19894
125.000	0.31236	0.08157	0.19177	0.25464
126.000	0.30841	0.12135	0.20956	0.29443
127.000	0.28469	0.06167	0.22933	0.28051
128.000	0.29062	0.06565	0.24712	0.30239
129.000	0.33016	0.06565	0.21549	0.27056
130.000	0.32225	0.06366	0.21154	0.25464
131.000	0.28864	0.08952	0.24119	0.24470
132.000	0.29259	0.10544	0.21154	0.24271
133.000	0.28666	0.09549	0.20561	0.20491
134.000	0.22933	0.09748	0.33609	0.24867
135.000	0.30446	0.08952	0.24910	0.21287
136.000	0.25701	0.03581	0.29062	0.22878
137.000	0.27678	0.04974	0.27282	0.18700
138.000	0.30643	0.09151	0.30050	0.19894
139.000	0.27480	0.06963	0.29457	0.19894
140.000	0.24910	0.05172	0.28271	0.20889
141.000	0.26689	0.05769	0.24515	0.21287
142.000	0.30248	0.02387	0.26689	0.16512
143.000	0.26492	0.01989	0.33016	0.23674
144.000	0.29655	0.01989	0.28271	0.13727
145.000	0.25899	0.05570	0.33411	0.19297
146.000	0.24515	0.02586	0.35783	0.22281
147.000	0.24317	-0.01194	0.35388	0.12931
148.000	0.21549	0.03581	0.32225	0.16114
149.000	0.24515	0.00995	0.26492	0.21685
150.000	0.28666	0.03780	0.36376	0.11737
151.000	0.25305	0.04377	0.32818	0.14125
152.000	0.24712	0.00000	0.34004	0.15119
153.000	0.25899	0.07361	0.36574	0.18302
154.000	0.27876	0.02188	0.36969	0.25066
155.000	0.27480	0.01790	0.38156	0.17308
156.000	0.26492	0.05371	0.36179	0.19297
157.000	0.25899	0.03979	0.25305	0.15318
158.000	0.31236	0.04974	0.37958	0.13329
159.000	0.30841	0.03183	0.34597	0.13926
160.000	0.30643	0.04775	0.30446	0.13130
161.000	0.31632	0.03581	0.32225	0.20889
162.000	0.31632	0.08157	0.30446	0.17308
163.000	0.33609	0.06565	0.35981	0.10743
164.000	0.26887	0.02586	0.29852	0.22281
165.000	0.26294	0.05968	0.34795	0.13727
166.000	0.26294	0.03183	0.25108	0.15716
167.000	0.28073	0.04377	0.34004	0.14920
168.000	0.27282	0.02785	0.29852	0.17109
169.000	0.26689	0.01393	0.39539	0.16910
170.000	0.25305	0.03382	0.28073	0.13528
171.000	0.27876	0.07958	0.35190	0.17706
172.000	0.27480	0.07759	0.32620	0.13528
173.000	0.27085	-0.00398	0.39737	0.13727
174.000	0.24119	0.04576	0.35190	0.16114
175.000	0.27085	0.01989	0.29259	0.16711
176.000	0.25503	0.04974	0.36772	0.19695
177.000	0.24515	0.00597	0.34202	0.17706
178.000	0.29259	0.01989	0.20956	0.18303
179.000	0.24515	0.00796	0.31236	0.17308
180.000	0.24910	0.01592	0.32620	0.24470
181.000	0.25305	0.01592	0.37167	0.09947
182.000	0.33609	0.02387	0.37365	0.13926
183.000	0.29852	0.02586	0.35190	0.12931
184.000	0.31434	0.03581	0.33016	0.21088
185.000	0.28666	0.06167	0.30643	0.19496
186.000	0.26887	0.00597	0.34993	0.09748
187.000	0.29655	0.01393	0.30248	0.13727
188.000	0.29655	0.02387	0.33411	0.08355
189.000	0.28864	0.05172	0.32620	0.10544
190.000	0.28864	0.02984	0.34993	0.20889
191.000	0.29457	0.07759	0.33411	0.12533
192.000	0.27876	0.07162	0.39935	0.11936
193.000	0.27876	0.01790	0.39144	0.14721
194.000	0.32225	0.06167	0.32818	0.19695
195.000	0.29062	0.01393	0.41121	0.15517
196.000	0.29655	0.04178	0.36179	0.15915
197.000	0.29852	0.06366	0.28469	0.10743
198.000	0.26689	0.04775	0.32620	0.16313
199.000	0.32225	0.00796	0.35388	0.15915
200.000	0.27085	0.03382	0.35783	0.16711
201.000	0.29062	0.02984	0.38551	0.17308
202.000	0.26887	0.03183	0.29457	0.14125
203.000	0.27480	-0.00796	0.33213	0.06167
204.000	0.24515	0.02984	0.34795	0.07958
205.000	0.26689	-0.00995	0.32818	0.14324
206.000	0.26887	0.03581	0.35586	0.13528
207.000	0.29259	0.01989	0.33411	0.15915
208.000	0.27085	0.00995	0.36772	0.20093
209.000	0.26294	0.03382	0.37365	0.13727
210.000	0.27085	0.01790	0.29655	0.17109
211.000	0.25899	-0.04775	0.38551	0.17109
212.000	0.26689	-0.02387	0.37760	0.14523
213.000	0.22142	0.00597	0.33016	0.18501
214.000	0.24317	-0.02586	0.35783	0.19894
215.000	0.22933	0.02984	0.31632	0.15716
216.000	0.21549	0.00398	0.34795	0.14125
217.000	0.24515	-0.01989	0.30841	0.13528
218.000	0.24910	-0.02188	0.25701	0.12135
219.000	0.21945	0.00398	0.31632	0.21684
220.000	0.23922	-0.01790	0.33213	0.11539
221.000	0.27085	0.00398	0.36772	0.14523
222.000	0.24515	-0.02586	0.29457	0.12135
223.000	0.26492	-0.02586	0.37760	0.16910
224.000	0.26096	-0.03382	0.31236	0.19297
225.000	0.23131	-0.02785	0.37563	0.21286
226.000	0.25108	-0.00597	0.33213	0.13926
227.000	0.25108	-0.00597	0.37563	0.09350
228.000	0.24712	-0.01989	0.39935	0.17308
229.000	0.24317	-0.01989	0.32620	0.13926
230.000	0.23526	0.02188	0.39144	0.09151
231.000	0.23329	-0.03581	0.31829	0.11539
232.000	0.22142	-0.01194	0.29457	0.11340
233.000	0.20561	-0.00398	0.36179	0.08355
234.000	0.22142	-0.01194	0.35981	0.15915
235.000	0.23131	-0.05371	0.37563	0.14125
236.000	0.22933	-0.02188	0.34795	0.11539
237.000	0.23526	-0.01592	0.42702	0.13528
238.000	0.26096	-0.00199	0.45865	-0.01989
239.000	0.29457	0.01393	0.32818	0.06963
240.000	0.26689	0.01790	0.37167	0.08753
241.000	0.24119	-0.02586	0.39935	0.16711
242.000	0.28469	-0.01393	0.41319	0.12732
243.000	0.30643	-0.02984	0.33609	0.12135
244.000	0.25305	-0.01790	0.30841	0.10942
245.000	0.26887	0.00199	0.32225	0.08952
246.000	0.26492	0.00000	0.30643	0.06565
247.000	0.25899	-0.01989	0.34399	0.15915
248.000	0.24910	0.05172	0.35981	0.13528
249.000	0.30446	0.00995	0.40330	0.11737
250.000	0.26294	0.02785	0.34795	0.15716
251.000	0.29259	-0.00995	0.36772	0.13926
252.000	0.31632	0.00597	0.33806	0.17308
253.000	0.33609	0.05371	0.37760	0.13528
254.000	0.31434	0.04775	0.27876	0.13926
255.000	0.28864	0.03183	0.33609	0.14920
256.000	0.26689	0.02785	0.44482	0.12533
257.000	0.26887	0.02188	0.41912	0.11141
258.000	0.26096	0.03382	0.33411	0.10345
259.000	0.30050	0.01393	0.36574	0.11340
260.000	0.26294	0.00000	0.37958	0.03183
261.000	0.30248	0.02387	0.34795	0.16910
262.000	0.25108	-0.01989	0.43889	0.07162
263.000	0.27678	0.03979	0.39737	0.08952
264.000	0.26492	-0.03581	0.33016	0.12135
265.000	0.27085	-0.00597	0.37958	0.08753
266.000	0.27876	-0.03183	0.32620	0.18302
267.000	0.28073	-0.00199	0.33411	0.17706
268.000	0.28864	-0.04178	0.37563	0.13130
269.000	0.26887	0.01393	0.38156	0.11538
270.000	0.29259	-0.01194	0.34597	0.14125
271.000	0.31434	0.01393	0.35981	0.12533
272.000	0.30643	-0.05769	0.34795	0.13329
273.000	0.30446	0.03979	0.47249	0.08952
274.000	0.28864	0.00796	0.33016	0.11340
275.000	0.29062	0.00199	0.35783	0.11936
276.000	0.29062	-0.01194	0.33609	0.15318
277.000	0.27085	0.00398	0.30446	0.05371
278.000	0.27480	-0.01592	0.38946	0.07958
279.000	0.26689	-0.05172	0.31236	0.10544
280.000	0.25305	-0.03183	0.35981	0.10942
281.000	0.27085	0.00398	0.33411	0.08355
282.000	0.29259	0.00995	0.35783	0.14523
283.000	0.27480	-0.09151	0.36574	0.05769
284.000	0.27678	-0.02188	0.41121	0.09947
285.000	0.28271	-0.04576	0.36772	0.08157
286.000	0.27480	-0.02586	0.40330	0.09947
287.000	0.27678	-0.02586	0.37167	0.07560
288.000	0.26294	-0.01790	0.37760	0.08355
289.000	0.28666	-0.00597	0.33806	0.07162
290.000	0.29457	-0.06167	0.40528	0.09748
291.000	0.32818	-0.02984	0.34993	0.11340
292.000	0.27282	-0.01989	0.33016	0.03581
293.000	0.27282	-0.03183	0.37365	0.08753
294.000	0.28864	-0.01194	0.43889	0.09151
295.000	0.29062	-0.03979	0.36376	0.03979
296.000	0.30050	-0.03780	0.29259	0.09947
297.000	0.27678	-0.01989	0.40528	0.11936
298.000	0.27282	-0.00398	0.37760	0.15318
299.000	0.28864	-0.00995	0.36179	0.14324
300.000	0.27282	-0.00199	0.37760	0.09748
301.000	0.32225	-0.02984	0.36376	0.08355
302.000	0.31236	-0.01989	0.39144	0.09748
303.000	0.29259	-0.02586	0.38156	0.10743
304.000	0.29259	0.01790	0.44877	0.08355
305.000	0.29062	-0.00796	0.36376	0.13130
306.000	0.26689	-0.01393	0.37365	0.07361
307.000	0.24910	-0.01194	0.38551	0.09549
308.000	0.26887	-0.04974	0.38156	0.15517
309.000	0.27282	-0.02984	0.44679	0.09151
310.000	0.31039	0.00796	0.36574	0.08355
311.000	0.27876	-0.05371	0.39144	0.01989
312.000	0.27085	-0.05570	0.42702	0.03382
313.000	0.28469	-0.03382	0.39342	0.04576
314.000	0.26096	-0.02785	0.36969	0.11538
315.000	0.26689	-0.05172	0.38156	0.07560
316.000	0.27282	-0.08554	0.39144	0.06565
317.000	0.24910	-0.07361	0.42702	0.06764
318.000	0.22735	-0.05968	0.39342	0.09947
319.000	0.27480	-0.04178	0.39342	0.04973
320.000	0.28864	-0.05968	0.38353	0.11340
321.000	0.27282	-0.06565	0.34202	0.06565
322.000	0.26689	-0.03780	0.36574	0.05172
323.000	0.27085	-0.02785	0.37365	0.14523
324.000	0.26096	-0.08356	0.35981	0.05371
325.000	0.26887	-0.04377	0.42109	0.08753
326.000	0.28864	-0.06963	0.41714	0.03183
327.000	0.23131	-0.05172	0.41319	0.08355
328.000	0.23329	-0.03382	0.38353	0.10743
329.000	0.26294	-0.04377	0.37563	0.10743
330.000	0.28864	-0.02984	0.43493	0.07759
331.000	0.23922	-0.04377	0.40133	0.13130
332.000	0.26096	-0.02586	0.41912	0.07958
333.000	0.24119	-0.06963	0.47249	0.08753
334.000	0.23526	-0.04377	0.41714	0.04178
335.000	0.26492	-0.05968	0.38749	0.05172
336.000	0.23526	-0.10146	0.41121	0.07560
337.000	0.25701	-0.07759	0.39737	0.06167
338.000	0.25503	-0.10146	0.34399	0.05371
339.000	0.24910	-0.04178	0.36772	0.05968
340.000	0.26887	-0.08356	0.32225	0.01393
341.000	0.25503	-0.07759	0.41121	0.01393
342.000	0.24712	-0.10345	0.41912	0.07958
343.000	0.27085	-0.10146	0.40528	0.09748
344.000	0.24119	-0.05968	0.40133	0.05172
345.000	0.22142	-0.07560	0.40133	0.03183
346.000	0.21549	-0.09748	0.41516	0.06963
347.000	0.24317	-0.10743	0.35783	0.05172
348.000	0.25503	-0.06764	0.38946	0.07958
349.000	0.27480	-0.10345	0.40330	0.03382
350.000	0.27085	-0.06565	0.32818	0.11936
351.000	0.26294	-0.05570	0.40528	0.10544
352.000	0.27678	-0.10345	0.39342	0.04576
353.000	0.29457	-0.10146	0.36574	0.07361
354.000	0.29457	-0.09350	0.43098	0.13329
355.000	0.23131	-0.12135	0.41121	0.06366
356.000	0.24910	-0.11340	0.34004	0.05968
357.000	0.28073	-0.08356	0.45668	0.10942
358.000	0.23724	-0.07361	0.36772	-0.01194
359.000	0.24712	-0.07958	0.41121	0.00597
360.000	0.24515	-0.09549	0.42109	0.06764
361.000	0.23526	-0.11539	0.39144	0.05371
362.000	0.29852	-0.06963	0.41516	0.06167
363.000	0.24910	-0.04576	0.33609	-0.00597
364.000	0.25701	-0.07162	0.38156	0.08157
365.000	0.27876	-0.05769	0.39539	0.04377
366.000	0.25503	-0.08554	0.35190	0.05570
367.000	0.29655	-0.05769	0.34993	0.09549
368.000	0.28666	-0.08554	0.37563	0.13727
369.000	0.28469	-0.08753	0.41121	0.09549
370.000	0.26887	-0.10743	0.41912	0.06963
371.000	0.28666	-0.03382	0.39539	0.15915
372.000	0.27678	-0.11340	0.39144	0.09549
373.000	0.25899	-0.07958	0.37167	0.09350
374.000	0.29655	-0.05769	0.38156	0.10544
375.000	0.26492	-0.07361	0.40133	0.09549
376.000	0.25503	-0.08952	0.41319	0.03581
377.000	0.26689	-0.06764	0.38551	0.13528
378.000	0.22538	-0.08157	0.37365	0.08157
379.000	0.27678	-0.09947	0.33213	0.07162
380.000	0.25503	-0.09748	0.35190	0.09947
381.000	0.29655	-0.12732	0.30841	0.12533
382.000	0.28073	-0.07560	0.35190	0.14920
383.000	0.27876	-0.08356	0.41319	0.17308
384.000	0.25108	-0.10146	0.40923	0.13727
385.000	0.26887	-0.05968	0.44877	0.10544
386.000	0.31039	-0.09748	0.38353	0.11936
387.000	0.26096	-0.05570	0.44482	0.10544
388.000	0.28073	-0.09350	0.42505	0.09350
389.000	0.27876	-0.10544	0.38749	0.10942
390.000	0.27678	-0.11936	0.45668	0.11538
391.000	0.26887	-0.10743	0.34597	0.12533
392.000	0.26689	-0.08356	0.35190	0.07759
393.000	0.28073	-0.11936	0.43493	0.03382
394.000	0.32422	-0.09947	0.45272	0.06764
395.000	0.31039	-0.10544	0.36179	0.05769
396.000	0.28864	-0.10942	0.40726	0.05769
397.000	0.30841	-0.09151	0.46459	0.07560
398.000	0.27085	-0.11738	0.42702	0.10544
399.000	0.25108	-0.08356	0.39144	0.08554
400.000	0.25305	-0.11539	0.35981	0.15716
401.000	0.22538	-0.07162	0.36376	0.07958
402.000	0.31434	-0.10743	0.38156	0.07361
403.000	0.25899	-0.13926	0.36179	0.13130
404.000	0.23922	-0.14523	0.36179	0.08157
405.000	0.28469	-0.11141	0.39737	0.11141
406.000	0.27876	-0.12732	0.41319	0.12931
407.000	0.30248	-0.11737	0.39342	0.05371
408.000	0.25503	-0.08952	0.43889	0.17506
409.000	0.30446	-0.11936	0.42505	0.02586
410.000	0.30050	-0.09350	0.42702	0.09748
411.000	0.28666	-0.12931	0.40726	0.07759
412.000	0.27480	-0.09151	0.43296	0.05968
413.000	0.28666	-0.14523	0.41121	0.06565
414.000	0.28666	-0.15915	0.35586	0.05968
415.000	0.29852	-0.15517	0.40528	0.02984
416.000	0.30050	-0.13329	0.41912	0.02785
417.000	0.28864	-0.14523	0.41319	0.00796
418.000	0.31434	-0.16114	0.38353	0.08753
419.000	0.32422	-0.12533	0.37365	0.10345
420.000	0.34399	-0.14722	0.38749	0.05570
421.000	0.31236	-0.15716	0.38946	0.00796
422.000	0.29457	-0.15716	0.48435	0.07361
423.000	0.29457	-0.15716	0.42505	0.09350
424.000	0.30446	-0.16910	0.40923	0.07361
425.000	0.27282	-0.11936	0.33806	0.03979
426.000	0.28271	-0.12135	0.36179	0.08554
427.000	0.29062	-0.18501	0.38551	0.04576
428.000	0.26689	-0.13727	0.35981	0.01989
429.000	0.29062	-0.08356	0.36574	0.03780
430.000	0.29457	-0.10942	0.45075	0.04178
431.000	0.26887	-0.12533	0.42505	-0.03780
432.000	0.26887	-0.15716	0.38353	0.05371
433.000	0.28469	-0.17109	0.34399	0.08157
434.000	0.26887	-0.15517	0.44086	0.13528
435.000	0.29062	-0.14324	0.37563	0.08355
436.000	0.25108	-0.14324	0.37365	0.04576
437.000	0.27876	-0.15915	0.48831	0.05570
438.000	0.32422	-0.16711	0.39342	0.06167
439.000	0.29655	-0.19695	0.41516	0.11339
440.000	0.29852	-0.19695	0.48633	0.06963
441.000	0.27480	-0.19894	0.39935	0.01592
442.000	0.30446	-0.16313	0.46656	0.03382
443.000	0.26492	-0.20889	0.39737	-0.00796
444.000	0.29259	-0.17706	0.40923	0.06565
445.000	0.30643	-0.17109	0.29457	0.10942
446.000	0.31632	-0.13727	0.38946	0.02984
447.000	0.28666	-0.17905	0.36772	0.10345
448.000	0.32818	-0.17706	0.34202	0.10544
449.000	0.28864	-0.15517	0.32027	0.05172
450.000	0.29655	-0.15915	0.41714	0.04377
451.000	0.29259	-0.13926	0.34993	0.03979
452.000	0.32620	-0.12732	0.42702	0.10743
453.000	0.33806	-0.17308	0.41714	0.00597
454.000	0.29259	-0.11340	0.44482	0.05570
455.000	0.30446	-0.14324	0.40923	0.12533
456.000	0.34597	-0.11340	0.37365	0.02586
457.000	0.31632	-0.11141	0.32422	0.11340
458.000	0.32027	-0.13329	0.38551	0.05371
459.000	0.28073	-0.12334	0.37365	0.06366
460.000	0.29259	-0.14523	0.40330	0.04973
461.000	0.31434	-0.13528	0.40330	0.06565
462.000	0.30050	-0.14722	0.34597	0.16711
463.000	0.32422	-0.15318	0.31236	0.11141
464.000	0.29457	-0.11738	0.35190	0.08157
465.000	0.30446	-0.15915	0.35190	0.04775
466.000	0.32422	-0.10544	0.37365	0.08753
467.000	0.29457	-0.14722	0.41319	0.10942
468.000	0.30446	-0.14523	0.32620	0.13130
469.000	0.30050	-0.17706	0.36574	0.07560
470.000	0.26294	-0.09947	0.36969	0.04377
471.000	0.25503	-0.13329	0.42109	0.13926
472.000	0.31434	-0.14324	0.37365	0.05570
473.000	0.26294	-0.15716	0.36574	0.10146
474.000	0.31632	-0.11141	0.44284	0.10942
475.000	0.34795	-0.15915	0.33806	0.11936
476.000	0.29062	-0.12334	0.36574	0.13926
477.000	0.32620	-0.17706	0.35981	0.11141
478.000	0.29852	-0.20093	0.37760	0.11936
479.000	0.26492	-0.15318	0.34202	0.06565
480.000	0.30446	-0.17507	0.39737	0.07958
481.000	0.30050	-0.16711	0.37760	0.02984
482.000	0.29852	-0.17905	0.38551	0.12533
483.000	0.26689	-0.16313	0.37563	0.07759
484.000	0.31236	-0.14324	0.35981	0.10544
485.000	0.26492	-0.17109	0.37365	0.08753
486.000	0.26294	-0.17109	0.32818	0.12931
487.000	0.30446	-0.16910	0.34795	0.10544
488.000	0.30643	-0.15318	0.35388	0.09748
489.000	0.30841	-0.15318	0.35981	0.06565
490.000	0.34993	-0.13329	0.37167	0.06565
491.000	0.30248	-0.16313	0.29852	0.08157
492.000	0.30248	-0.12931	0.40330	0.09151
493.000	0.29062	-0.13528	0.36179	0.12334
494.000	0.31039	-0.07361	0.32818	0.09549
495.000	0.28864	-0.17308	0.37365	0.07958
496.000	0.31434	-0.16711	0.34795	0.04178
497.000	0.30841	-0.17507	0.35783	0.15915
498.000	0.32818	-0.15716	0.33016	0.13926
499.000	0.32225	-0.16711	0.39935	0.13130
500.000	0.29259	-0.17507	0.40923	0.10942
501.000	0.32027	-0.15318	0.33609	0.06963
502.000	0.34202	-0.18103	0.36772	0.11538
503.000	0.30841	-0.16711	0.34993	0.13130
504.000	0.27480	-0.18104	0.41319	0.05570
505.000	0.32027	-0.11539	0.36969	0.13528
506.000	0.33609	-0.12533	0.38749	0.08753
507.000	0.32818	-0.11737	0.39737	0.11737
508.000	0.31434	-0.17109	0.42109	0.09549
509.000	0.30841	-0.15915	0.39342	0.11141
510.000	0.33213	-0.15119	0.43098	0.10743
511.000	0.32818	-0.14125	0.36376	0.08753
512.000	0.32818	-0.15915	0.43493	0.12135
513.000	0.34004	-0.16910	0.42702	0.02586
514.000	0.34795	-0.16910	0.40923	0.05570
515.000	0.28469	-0.17706	0.37563	0.06167
516.000	0.30446	-0.14125	0.38551	0.06167
517.000	0.31236	-0.17706	0.38353	0.15318
518.000	0.31236	-0.20889	0.41912	0.09947
519.000	0.30050	-0.21486	0.33609	0.11737
520.000	0.32027	-0.21088	0.41714	0.03979
521.000	0.32422	-0.22480	0.44284	0.11936
522.000	0.27085	-0.20292	0.36772	0.09549
523.000	0.34004	-0.23276	0.43296	0.17308
524.000	0.30248	-0.21883	0.38156	0.13130
525.000	0.32225	-0.23873	0.33411	0.07958
526.000	0.30643	-0.22281	0.31829	0.12135
527.000	0.31434	-0.22480	0.40330	0.08952
528.000	0.30446	-0.18899	0.34399	0.09549
529.000	0.31236	-0.26459	0.38156	0.11141
530.000	0.35190	-0.22878	0.34202	0.07560
531.000	0.33213	-0.25464	0.34597	0.06764
532.000	0.34202	-0.23873	0.37365	0.09151
533.000	0.33609	-0.19894	0.39144	0.05968
534.000	0.31434	-0.21684	0.38551	0.08952
535.000	0.33016	-0.21287	0.41319	0.10345
536.000	0.31039	-0.21883	0.34597	0.17109
537.000	0.33016	-0.23077	0.37365	0.15119
538.000	0.32225	-0.20889	0.36574	0.16313
539.000	0.38353	-0.23276	0.29062	0.12931
540.000	0.35190	-0.19496	0.30643	0.20690
541.000	0.37563	-0.22281	0.33609	0.14722
542.000	0.35190	-0.25464	0.38353	0.19098
543.000	0.37167	-0.23475	0.33411	0.08952
544.000	0.35586	-0.26857	0.31829	0.24072
545.000	0.35586	-0.26857	0.32027	0.14125
546.000	0.31632	-0.25265	0.35388	0.18103
547.000	0.31829	-0.28249	0.35190	0.14920
548.000	0.32027	-0.24867	0.32620	0.14523
549.000	0.32027	-0.26459	0.39935	0.13727
550.000	0.33016	-0.22281	0.34795	0.18899
551.000	0.31039	-0.25862	0.30841	0.18302
552.000	0.34004	-0.22878	0.39935	0.12135
553.000	0.31632	-0.24072	0.35783	0.14125
554.000	0.28073	-0.24271	0.32620	0.09549
555.000	0.32225	-0.26260	0.33806	0.09549
556.000	0.29852	-0.23077	0.34795	0.11141
557.000	0.32818	-0.23873	0.37958	0.06167
558.000	0.31632	-0.23873	0.32027	0.08355
559.000	0.28864	-0.24470	0.42505	0.06565
560.000	0.29062	-0.25066	0.39539	0.05371
561.000	0.26689	-0.23674	0.34202	0.06764
562.000	0.30841	-0.21287	0.40528	0.08156
563.000	0.31236	-0.19496	0.34399	0.06366
564.000	0.29259	-0.15915	0.39342	0.08554
565.000	0.29062	-0.19496	0.38749	0.05769
566.000	0.27678	-0.18501	0.33213	0.05172
567.000	0.29259	-0.22878	0.38353	0.06963
568.000	0.29457	-0.22878	0.36772	0.09350
569.000	0.31039	-0.17905	0.36969	0.11340
570.000	0.32422	-0.24271	0.35190	0.13130
571.000	0.32818	-0.22281	0.35981	0.17109
572.000	0.27085	-0.23475	0.37958	0.14523
573.000	0.30643	-0.25464	0.36179	0.11340
574.000	0.29457	-0.21486	0.33411	0.08952
575.000	0.32027	-0.22480	0.36376	0.07162
576.000	0.26887	-0.21088	0.36574	0.14523
577.000	0.25503	-0.24868	0.36969	0.08355
578.000	0.29259	-0.24669	0.39144	0.12732
579.000	0.27282	-0.24470	0.40726	0.14125
580.000	0.27085	-0.26260	0.46656	0.11339
581.000	0.25503	-0.25464	0.38551	0.16711
582.000	0.25108	-0.24470	0.41714	0.16910
583.000	0.27678	-0.26857	0.36969	0.05172
584.000	0.27085	-0.23674	0.37365	0.13329
585.000	0.23526	-0.25067	0.35388	0.06963
586.000	0.29457	-0.27255	0.40528	0.18700
587.000	0.27282	-0.24271	0.41319	0.15517
588.000	0.27678	-0.23873	0.36179	0.14920
589.000	0.26492	-0.25265	0.38749	0.12931
590.000	0.32818	-0.23276	0.31829	0.14125
591.000	0.26294	-0.24271	0.38749	0.14125
592.000	0.28469	-0.23674	0.39737	0.13329
593.000	0.28469	-0.20292	0.34202	0.13130
594.000	0.28864	-0.17905	0.38946	0.05769
595.000	0.27876	-0.15517	0.35388	0.10544
596.000	0.27480	-0.19496	0.36772	0.07560
597.000	0.28864	-0.19098	0.34795	0.07162
598.000	0.26887	-0.15517	0.38749	0.14920
599.000	0.28073	-0.17109	0.30841	0.08157
600.000	0.29655	-0.16910	0.42900	0.16512
601.000	0.30446	-0.18700	0.42307	0.16114
602.000	0.27876	-0.17905	0.35981	0.12533
603.000	0.27282	-0.17109	0.37563	0.12334
604.000	0.30050	-0.14125	0.44086	0.10544
605.000	0.29457	-0.16313	0.44482	0.03581
606.000	0.30643	-0.17507	0.36969	0.18302
607.000	0.34399	-0.14523	0.38353	0.11737
608.000	0.30050	-0.15915	0.40133	0.09947
609.000	0.31829	-0.16313	0.42109	0.23674
610.000	0.29457	-0.18104	0.37365	0.04775
611.000	0.32818	-0.16313	0.36574	0.12334
612.000	0.31434	-0.16114	0.42109	0.15318
613.000	0.32422	-0.18501	0.35190	0.14324
614.000	0.30841	-0.17706	0.39539	0.16711
615.000	0.31434	-0.17905	0.40330	0.11936
616.000	0.33016	-0.16313	0.41319	0.11936
617.000	0.32027	-0.18700	0.38946	0.11538
618.000	0.32818	-0.17308	0.42702	0.19894
619.000	0.33213	-0.15318	0.35783	0.11141
620.000	0.32818	-0.12135	0.39935	0.12135
621.000	0.30248	-0.17706	0.41516	0.15915
622.000	0.29655	-0.12732	0.37365	0.10544
623.000	0.27678	-0.17109	0.34202	0.08952
624.000	0.27876	-0.20093	0.48831	0.14522
625.000	0.32027	-0.17109	0.36574	0.13528
626.000	0.33411	-0.16711	0.30841	0.16910
627.000	0.33411	-0.16512	0.35190	0.14125
628.000	0.29062	-0.15716	0.33411	0.12931
629.000	0.33016	-0.18302	0.31039	0.20093
630.000	0.35981	-0.18899	0.39539	0.17904
631.000	0.30248	-0.16711	0.39539	0.20093
632.000	0.32225	-0.18302	0.41121	0.17109
633.000	0.32422	-0.16910	0.43889	0.16910
634.000	0.31829	-0.18104	0.36376	0.16512
635.000	0.34795	-0.20690	0.42109	0.18302
636.000	0.33213	-0.18700	0.42900	0.19894
637.000	0.33609	-0.13130	0.34399	0.12533
638.000	0.34993	-0.18302	0.43296	0.11936
639.000	0.32620	-0.19297	0.45075	0.18302
640.000	0.28864	-0.15716	0.39342	0.14721
641.000	0.32422	-0.18700	0.46656	0.17109
642.000	0.29655	-0.18501	0.40528	0.18302
643.000	0.30643	-0.22878	0.40330	0.22878
644.000	0.29259	-0.22480	0.38353	0.10942
645.000	0.31632	-0.23873	0.39144	0.22082
646.000	0.30841	-0.18899	0.46063	0.17705
647.000	0.31829	-0.25663	0.43493	0.16910
648.000	0.32027	-0.23873	0.39342	0.22281
649.000	0.33411	-0.23674	0.43493	0.20689
650.000	0.28864	-0.24867	0.36179	0.25265
651.000	0.31039	-0.20292	0.33806	0.25862
652.000	0.30050	-0.22480	0.34399	0.24072
653.000	0.31632	-0.24470	0.36772	0.20491
654.000	0.34597	-0.23475	0.36179	0.20093
655.000	0.31434	-0.22480	0.35981	0.28448
656.000	0.29259	-0.23674	0.31434	0.23077
657.000	0.32818	-0.22878	0.36376	0.21088
658.000	0.31632	-0.19894	0.35388	0.19496
659.000	0.37760	-0.19496	0.39737	0.17706
660.000	0.35981	-0.19894	0.37365	0.13528
661.000	0.35981	-0.21286	0.39342	0.17904
662.000	0.38946	-0.19496	0.46656	0.14125
663.000	0.40528	-0.15716	0.41516	0.16910
664.000	0.35388	-0.21286	0.42505	0.19496
665.000	0.36969	-0.16512	0.38946	0.11340
666.000	0.34399	-0.19297	0.38551	0.16910
667.000	0.36376	-0.19297	0.46063	0.14920
668.000	0.35783	-0.20292	0.40923	0.12732
669.000	0.36376	-0.22679	0.39935	0.21485
670.000	0.32620	-0.21883	0.43691	0.17308
671.000	0.35388	-0.20491	0.36179	0.14324
672.000	0.33016	-0.20292	0.39737	0.11141
673.000	0.33806	-0.15318	0.41319	0.12135
674.000	0.34399	-0.21286	0.36574	0.08554
675.000	0.34202	-0.19695	0.35190	0.12334
676.000	0.33411	-0.20093	0.36179	0.11737
677.000	0.35981	-0.19695	0.33411	0.07361
678.000	0.35783	-0.18899	0.43098	0.19297
679.000	0.37365	-0.13528	0.38946	0.14125
680.000	0.34202	-0.20093	0.36772	0.10942
681.000	0.39144	-0.19695	0.39539	0.07361
682.000	0.34399	-0.17109	0.41319	0.14125
683.000	0.34597	-0.17706	0.41121	0.15119
684.000	0.36574	-0.16711	0.38551	0.08952
685.000	0.37167	-0.18899	0.36574	0.12931
686.000	0.32027	-0.23873	0.39539	0.11538
687.000	0.37958	-0.19098	0.42505	0.11936
688.000	0.35190	-0.17308	0.38749	0.13727
689.000	0.32818	-0.18899	0.39144	0.04178
690.000	0.34399	-0.20093	0.40528	0.09748
691.000	0.34795	-0.19297	0.35981	0.10544
692.000	0.35388	-0.21684	0.40133	0.10544
693.000	0.34795	-0.20491	0.44877	0.16313
694.000	0.32225	-0.16711	0.39144	0.11936
695.000	0.33609	-0.19297	0.41121	0.09748
696.000	0.35190	-0.19496	0.44877	0.16910
697.000	0.34399	-0.22679	0.47842	0.10544
698.000	0.36574	-0.20889	0.41121	0.15119
699.000	0.38551	-0.15716	0.37958	0.11538
700.000	0.34795	-0.19098	0.38156	0.23674
701.000	0.38353	-0.16512	0.42702	0.12533
702.000	0.35388	-0.15318	0.36574	0.25066
703.000	0.34795	-0.17706	0.40528	0.21087
704.000	0.35783	-0.16910	0.42307	0.22480
705.000	0.30841	-0.18104	0.42505	0.25663
706.000	0.33806	-0.21684	0.43691	0.06565
707.000	0.31434	-0.20093	0.44086	0.18103
708.000	0.32027	-0.16910	0.40528	0.16910
709.000	0.37365	-0.13926	0.42900	0.24867
710.000	0.31434	-0.17507	0.41912	0.18899
711.000	0.32818	-0.17507	0.40726	0.20491
712.000	0.38156	-0.18700	0.50215	0.14522
713.000	0.35190	-0.18103	0.38353	0.29244
714.000	0.34993	-0.23475	0.38551	0.20690
715.000	0.33016	-0.21287	0.41319	0.26857
716.000	0.35981	-0.22679	0.41714	0.22480
717.000	0.33411	-0.15915	0.46261	0.23872
718.000	0.34993	-0.20690	0.35981	0.22679
719.000	0.31829	-0.15716	0.37563	0.18103
720.000	0.24910	-0.19496	0.33411	0.19894
721.000	0.15618	-0.31035	0.31236	0.09549
722.000	0.14234	-0.31632	0.19375	0.08356
723.000	0.03559	-0.33820	0.21352	-0.06565
724.000	-0.11269	-0.44363	0.03163	-0.29046
725.000	-0.23922	-0.57890	-0.07710	-0.36804
726.000	-0.36574	-0.67636	-0.26096	-0.45159
727.000	-0.48831	-0.79967	-0.36574	-0.54508
728.000	-0.66029	-0.94086	-0.48435	-0.66243
729.000	-0.81249	-1.07605	-0.58913	-0.88916
730.000	-0.95480	-1.12771	-0.78087	-0.86128
731.000	-1.04177	-1.23504	-0.82633	-0.90701
732.000	-1.15046	-1.29265	-0.81447	-1.00645
733.000	-1.13663	-1.37814	-0.97654	-1.05612
734.000	-1.09710	-1.39406	-0.94492	-0.96863
735.000	-1.07339	-1.39209	-0.87377	-0.92888
736.000	-0.99829	-1.33049	-0.85005	-0.92093
737.000	-0.90342	-1.33053	-0.76901	-0.87719
738.000	-0.81052	-1.25700	-0.64448	-0.76584
739.000	-0.73738	-1.14766	-0.63657	-0.65843
740.000	-0.64645	-1.10791	-0.56343	-0.62264
741.000	-0.53971	-1.07611	-0.50215	-0.58485
742.000	-0.47645	-0.97669	-0.34993	-0.57492
743.000	-0.41319	-0.92299	-0.45470	-0.44760
744.000	-0.35388	-0.85936	-0.36969	-0.45556
745.000	-0.30643	-0.83151	-0.34597	-0.39787
746.000	-0.36574	-0.87129	-0.33411	-0.40185
747.000	-0.30050	-0.79770	-0.32225	-0.47546
748.000	-0.35388	-0.83151	-0.33806	-0.40782
749.000	-0.36376	-0.81958	-0.40726	-0.43169
750.000	-0.36969	-0.81957	-0.39935	-0.46551
751.000	-0.45075	-0.81758	-0.42702	-0.47147
752.000	-0.46063	-0.89713	-0.44086	-0.48540
753.000	-0.46261	-0.83150	-0.44482	-0.46948
754.000	-0.49424	-0.89713	-0.52389	-0.46550
755.000	-0.52587	-0.91502	-0.46854	-0.52717
756.000	-0.54959	-0.89115	-0.47842	-0.51523
757.000	-0.54564	-0.90110	-0.42505	-0.52319
758.000	-0.53378	-0.90508	-0.47052	-0.56297
759.000	-0.52191	-0.89315	-0.55750	-0.54307
760.000	-0.54564	-0.90110	-0.49819	-0.48738
761.000	-0.61878	-0.94285	-0.50017	-0.46550
762.000	-0.59506	-0.93291	-0.55552	-0.53313
763.000	-0.60692	-0.92893	-0.57133	-0.55700
764.000	-0.60099	-0.92893	-0.52784	-0.57490
765.000	-0.56343	-0.92099	-0.61878	-0.51522
766.000	-0.60296	-0.93490	-0.57529	-0.50926
767.000	-0.61680	-0.94683	-0.60099	-0.52915
768.000	-0.57331	-0.96871	-0.60692	-0.52915
769.000	-0.59110	-0.90706	-0.62273	-0.51721
770.000	-0.63459	-0.93887	-0.60296	-0.56694
771.000	-0.59703	-0.95280	-0.54366	-0.61468
772.000	-0.60296	-0.98064	-0.54366	-0.60673
773.000	-0.57924	-0.98065	-0.58913	-0.62661
774.000	-0.52191	-0.94287	-0.55750	-0.56297
775.000	-0.56738	-0.95281	-0.58913	-0.61468
776.000	-0.56936	-1.00451	-0.57331	-0.62065
777.000	-0.58320	-0.94684	-0.53575	-0.63855
778.000	-0.57529	-0.94286	-0.55947	-0.59280
779.000	-0.55947	-0.92099	-0.56540	-0.64054
780.000	-0.55552	-0.94485	-0.60099	-0.64451
781.000	-0.58715	-0.95081	-0.54366	-0.66839
782.000	-0.58517	-0.96672	-0.55552	-0.58286
783.000	-0.56540	-0.93292	-0.54366	-0.67237
784.000	-0.58122	-0.94087	-0.53971	-0.63458
785.000	-0.59901	-0.95081	-0.58122	-0.68430
786.000	-0.55552	-0.90110	-0.55947	-0.63259
787.000	-0.53971	-0.92894	-0.56145	-0.66043
788.000	-0.61878	-0.94285	-0.64448	-0.66241
789.000	-0.57727	-0.90109	-0.58320	-0.63855
790.000	-0.55157	-0.87922	-0.55157	-0.49533
791.000	-0.59308	-0.94882	-0.49819	-0.62066
792.000	-0.57924	-0.94286	-0.56738	-0.63457
793.000	-0.60494	-0.94087	-0.51994	-0.63856
794.000	-0.57529	-0.92894	-0.41319	-0.61470
795.000	-0.56540	-0.90706	-0.53575	-0.56297
796.000	-0.55947	-0.95281	-0.49819	-0.62662
797.000	-0.53575	-0.96275	-0.56145	-0.56297
798.000	-0.54959	-0.95877	-0.51005	-0.60275
799.000	-0.52784	-0.93292	-0.56540	-0.63656
800.000	-0.53378	-0.93093	-0.62471	-0.52914
801.000	-0.53773	-0.96077	-0.62866	-0.61865
802.000	-0.54168	-0.92099	-0.55552	-0.60673
803.000	-0.57727	-0.90308	-0.53180	-0.61469
804.000	-0.52587	-0.89315	-0.56540	-0.58087
805.000	-0.53575	-0.93491	-0.65436	-0.56892
806.000	-0.52191	-0.91701	-0.45470	-0.67039
807.000	-0.56343	-0.94286	-0.63064	-0.61666
808.000	-0.60099	-0.95280	-0.64645	-0.59876
809.000	-0.56540	-0.93093	-0.62075	-0.68429
810.000	-0.52982	-0.89315	-0.63262	-0.60274
811.000	-0.56343	-0.93093	-0.56540	-0.58683
812.000	-0.57924	-0.87126	-0.64250	-0.57489
813.000	-0.52982	-0.89315	-0.58320	-0.65645
814.000	-0.55947	-0.91900	-0.59506	-0.59479
815.000	-0.53971	-0.87127	-0.60099	-0.59877
816.000	-0.55354	-0.86331	-0.59703	-0.68430
817.000	-0.55354	-0.87325	-0.59703	-0.55898
818.000	-0.50215	-0.88122	-0.52587	-0.57291
819.000	-0.53575	-0.86928	-0.64843	-0.58484
820.000	-0.50808	-0.85536	-0.61087	-0.58285
821.000	-0.50808	-0.89315	-0.62668	-0.56296
822.000	-0.53378	-0.84740	-0.64448	-0.60672
823.000	-0.52784	-0.86530	-0.57727	-0.59280
824.000	-0.52587	-0.85337	-0.58913	-0.55700
825.000	-0.52191	-0.90707	-0.60494	-0.62661
826.000	-0.49028	-0.88719	-0.65041	-0.61865
827.000	-0.48040	-0.83746	-0.64645	-0.56495
828.000	-0.49028	-0.86531	-0.63262	-0.60871
829.000	-0.44482	-0.84940	-0.64052	-0.57887
830.000	-0.47447	-0.87327	-0.65634	-0.53113
831.000	-0.50017	-0.87724	-0.64645	-0.64849
832.000	-0.43691	-0.84940	-0.61285	-0.60274
833.000	-0.51401	-0.84144	-0.63459	-0.57290
834.000	-0.48040	-0.86929	-0.63855	-0.61467
835.000	-0.48238	-0.84144	-0.65831	-0.60274
836.000	-0.46261	-0.79968	-0.61878	-0.59081
837.000	-0.49226	-0.82951	-0.64448	-0.61666
838.000	-0.47645	-0.78973	-0.70180	-0.60472
839.000	-0.46063	-0.84542	-0.65831	-0.57091
840.000	-0.47249	-0.81559	-0.62866	-0.62860
841.000	-0.51203	-0.81757	-0.67413	-0.59677
842.000	-0.46261	-0.77581	-0.59901	-0.56097
843.000	-0.46854	-0.75393	-0.67413	-0.55500
844.000	-0.46261	-0.82354	-0.69587	-0.55897
845.000	-0.50215	-0.80166	-0.68599	-0.63058
846.000	-0.47645	-0.80962	-0.71168	-0.52516
847.000	-0.50215	-0.79967	-0.70971	-0.57886
848.000	-0.45272	-0.80962	-0.65436	-0.66241
849.000	-0.47447	-0.76785	-0.68796	-0.65644
850.000	-0.42505	-0.78576	-0.67215	-0.59876
851.000	-0.44679	-0.75393	-0.70180	-0.58881
852.000	-0.44877	-0.80962	-0.67808	-0.53511
853.000	-0.43889	-0.77183	-0.65436	-0.66838
854.000	-0.46854	-0.76188	-0.61482	-0.61667
855.000	-0.44679	-0.77382	-0.60099	-0.60473
856.000	-0.44284	-0.78178	-0.72354	-0.62859
857.000	-0.44482	-0.75990	-0.71168	-0.59279
858.000	-0.44086	-0.75393	-0.73540	-0.61864
859.000	-0.45865	-0.78575	-0.71959	-0.59080
860.000	-0.42307	-0.76388	-0.65634	-0.57489
861.000	-0.44679	-0.77581	-0.70971	-0.55499
862.000	-0.44482	-0.76586	-0.70971	-0.58881
863.000	-0.45075	-0.74398	-0.67017	-0.67434
864.000	-0.42307	-0.78178	-0.72157	-0.58881
865.000	-0.41912	-0.73006	-0.73738	-0.52316
866.000	-0.41714	-0.71813	-0.66820	-0.61865
867.000	-0.37958	-0.75593	-0.71564	-0.58682
868.000	-0.40330	-0.75195	-0.75715	-0.56493
869.000	-0.38946	-0.75990	-0.70971	-0.58483
870.000	-0.38551	-0.74399	-0.69587	-0.55301
871.000	-0.35981	-0.74399	-0.70575	-0.58284
872.000	-0.40133	-0.73205	-0.72157	-0.56295
873.000	-0.44679	-0.76984	-0.72157	-0.57488
874.000	-0.39144	-0.74200	-0.68401	-0.54903
875.000	-0.42505	-0.69028	-0.70575	-0.53311
876.000	-0.43098	-0.73404	-0.71564	-0.58085
877.000	-0.40726	-0.71813	-0.68006	-0.54704
878.000	-0.44877	-0.72409	-0.73145	-0.52515
879.000	-0.40330	-0.65249	-0.65831	-0.56494
880.000	-0.44877	-0.72608	-0.69785	-0.59875
881.000	-0.40923	-0.70620	-0.72947	-0.52515
882.000	-0.43296	-0.72807	-0.70378	-0.61069
883.000	-0.44482	-0.75393	-0.67413	-0.59677
884.000	-0.41516	-0.73205	-0.71761	-0.54902
885.000	-0.40726	-0.74399	-0.71959	-0.54505
886.000	-0.42109	-0.75194	-0.73738	-0.57687
887.000	-0.40528	-0.74399	-0.67413	-0.54903
888.000	-0.45470	-0.73603	-0.68401	-0.60075
889.000	-0.42307	-0.74001	-0.74331	-0.52117
890.000	-0.43098	-0.70421	-0.73145	-0.59676
891.000	-0.41319	-0.72410	-0.83028	-0.58879
892.000	-0.38551	-0.75195	-0.81052	-0.64051
893.000	-0.40726	-0.73007	-0.78087	-0.56891
894.000	-0.42109	-0.73603	-0.79075	-0.62460
895.000	-0.37365	-0.75195	-0.71366	-0.57886
896.000	-0.39539	-0.73603	-0.75715	-0.60272
897.000	-0.43098	-0.70619	-0.78284	-0.60869
898.000	-0.41912	-0.75791	-0.73936	-0.58880
899.000	-0.45075	-0.71614	-0.71168	-0.59080
900.000	-0.40133	-0.72609	-0.69587	-0.54505
901.000	-0.40528	-0.70023	-0.68599	-0.58284
902.000	-0.39342	-0.68233	-0.73145	-0.63654
903.000	-0.40528	-0.69227	-0.77691	-0.59874
904.000	-0.41319	-0.72012	-0.80261	-0.60272
905.000	-0.38551	-0.74399	-0.81447	-0.62460
906.000	-0.39935	-0.69426	-0.72354	-0.62262
907.000	-0.44086	-0.74597	-0.76505	-0.60670
908.000	-0.40923	-0.71216	-0.77889	-0.62659
909.000	-0.43098	-0.68034	-0.78680	-0.59278
910.000	-0.41714	-0.75592	-0.79470	-0.60272
911.000	-0.44679	-0.70420	-0.77691	-0.57488
912.000	-0.41714	-0.73404	-0.68994	-0.58881
913.000	-0.46656	-0.68232	-0.75912	-0.57687
914.000	-0.43691	-0.64453	-0.69587	-0.61666
915.000	-0.40133	-0.67437	-0.83028	-0.51520
916.000	-0.42109	-0.70818	-0.73343	-0.60273
917.000	-0.41714	-0.72211	-0.73738	-0.53510
918.000	-0.40726	-0.67437	-0.73936	-0.58284
919.000	-0.40330	-0.68829	-0.76308	-0.58681
920.000	-0.42307	-0.66442	-0.71959	-0.51521
921.000	-0.38749	-0.68631	-0.80854	-0.58283
922.000	-0.41319	-0.69426	-0.79866	-0.59874
923.000	-0.34004	-0.62067	-0.77296	-0.59278
924.000	-0.40528	-0.67437	-0.78087	-0.61466
925.000	-0.41121	-0.71216	-0.80063	-0.65841
926.000	-0.41912	-0.66442	-0.81842	-0.58680
927.000	-0.36574	-0.66244	-0.82238	-0.55498
928.000	-0.43098	-0.69227	-0.77098	-0.56493
929.000	-0.40923	-0.65846	-0.76110	-0.53311
930.000	-0.43296	-0.67835	-0.77691	-0.58084
931.000	-0.43889	-0.63061	-0.77296	-0.58482
932.000	-0.35981	-0.64653	-0.74529	-0.47940
933.000	-0.39342	-0.65249	-0.82633	-0.56492
934.000	-0.42900	-0.66641	-0.85796	-0.59078
935.000	-0.43889	-0.69028	-0.83028	-0.51917
936.000	-0.40330	-0.63061	-0.78482	-0.53111
937.000	-0.39144	-0.62663	-0.81447	-0.51321
938.000	-0.42702	-0.67636	-0.78482	-0.51122
939.000	-0.42109	-0.64453	-0.79470	-0.53310
940.000	-0.39737	-0.64255	-0.83424	-0.51718
941.000	-0.38946	-0.66443	-0.80261	-0.62460
942.000	-0.40923	-0.60276	-0.79668	-0.50724
943.000	-0.38946	-0.63260	-0.85598	-0.54901
944.000	-0.39144	-0.58884	-0.78482	-0.55299
945.000	-0.39539	-0.62265	-0.83621	-0.57487
946.000	-0.38946	-0.61868	-0.86191	-0.50724
947.000	-0.37167	-0.64056	-0.83621	-0.57686
948.000	-0.38156	-0.64056	-0.76703	-0.55300
949.000	-0.36772	-0.61669	-0.82238	-0.54503
950.000	-0.40330	-0.61669	-0.79866	-0.60073
951.000	-0.41319	-0.61669	-0.86784	-0.59873
952.000	-0.35586	-0.62465	-0.85005	-0.59277
953.000	-0.38156	-0.63459	-0.83621	-0.62658
954.000	-0.39737	-0.64652	-0.83819	-0.52713
955.000	-0.42109	-0.65050	-0.81645	-0.54106
956.000	-0.37760	-0.62464	-0.80261	-0.58084
957.000	-0.39539	-0.64255	-0.84412	-0.54304
958.000	-0.40133	-0.63260	-0.79075	-0.55100
959.000	-0.41912	-0.62663	-0.79866	-0.59277
960.000	-0.42702	-0.61668	-0.78087	-0.57885
961.000	-0.40923	-0.59878	-0.79668	-0.55100
962.000	-0.44877	-0.66442	-0.85993	-0.52315
963.000	-0.40528	-0.65448	-0.78482	-0.63256
964.000	-0.45272	-0.63458	-0.85005	-0.65045
965.000	-0.38551	-0.65846	-0.85796	-0.58282
966.000	-0.39935	-0.62265	-0.74331	-0.67035
967.000	-0.42109	-0.59679	-0.81645	-0.67233
968.000	-0.41319	-0.61669	-0.80261	-0.67034
969.000	-0.38156	-0.61470	-0.82040	-0.66835
970.000	-0.41319	-0.56497	-0.85400	-0.69420
971.000	-0.43691	-0.59480	-0.86981	-0.67033
972.000	-0.42109	-0.65050	-0.82633	-0.67432
973.000	-0.39539	-0.63459	-0.83819	-0.60072
974.000	-0.42109	-0.58685	-0.86784	-0.63851
975.000	-0.40923	-0.61868	-0.82435	-0.71012
976.000	-0.39144	-0.60475	-0.83424	-0.72404
977.000	-0.45075	-0.61270	-0.82040	-0.73598
978.000	-0.40528	-0.59282	-0.86981	-0.70414
979.000	-0.42702	-0.64254	-0.83621	-0.70415
980.000	-0.40726	-0.64056	-0.85005	-0.77376
981.000	-0.43493	-0.59082	-0.83424	-0.65443
982.000	-0.36772	-0.64056	-0.84214	-0.71807
983.000	-0.43098	-0.61668	-0.79866	-0.70018
984.000	-0.39737	-0.60077	-0.83424	-0.66835
985.000	-0.39144	-0.59282	-0.83226	-0.75984
986.000	-0.45075	-0.57491	-0.85796	-0.72205
987.000	-0.39737	-0.60674	-0.91330	-0.73198
988.000	-0.40133	-0.65448	-0.87179	-0.72005
989.000	-0.41714	-0.64055	-0.84807	-0.73796
990.000	-0.38353	-0.65846	-0.79866	-0.74990
991.000	-0.39342	-0.58685	-0.91330	-0.74590
992.000	-0.37958	-0.57889	-0.86981	-0.69221
993.000	-0.41516	-0.59679	-0.84412	-0.74790
994.000	-0.42307	-0.60077	-0.94295	-0.71606
995.000	-0.42900	-0.63061	-0.93306	-0.67828
996.000	-0.41516	-0.62066	-0.84017	-0.73001
997.000	-0.38749	-0.56895	-0.86586	-0.73796
998.000	-0.46261	-0.59480	-0.86191	-0.74591
999.000	-0.39539	-0.59083	-0.81645	-0.71410
1000.000	-0.41714	-0.56497	-0.87772	-0.80557
1001.000	-0.38946	-0.60674	-0.83028	-0.73398
1002.000	-0.42109	-0.61470	-0.85203	-0.81155
1003.000	-0.45075	-0.63061	-0.83819	-0.79763
1004.000	-0.38156	-0.61868	-0.89156	-0.77176
1005.000	-0.41714	-0.61271	-0.85598	-0.82547
1006.000	-0.41714	-0.58486	-0.89946	-0.80557
1007.000	-0.43889	-0.59082	-0.81447	-0.80360
1008.000	-0.42307	-0.59083	-0.90934	-0.78568
1009.000	-0.42900	-0.61867	-0.82435	-0.79365
1010.000	-0.41516	-0.62464	-0.87970	-0.80359
1011.000	-0.42307	-0.60674	-0.92713	-0.77971
1012.000	-0.40528	-0.60475	-0.89551	-0.80159
1013.000	-0.40330	-0.58486	-0.87970	-0.75784
1014.000	-0.44877	-0.60276	-0.86784	-0.74591
1015.000	-0.41516	-0.57491	-0.89749	-0.80557
1016.000	-0.40330	-0.58088	-0.92120	-0.81750
1017.000	-0.41319	-0.60475	-0.95085	-0.75186
1018.000	-0.36969	-0.57293	-0.84412	-0.83144
1019.000	-0.37365	-0.59282	-0.85400	-0.79564
1020.000	-0.36574	-0.55303	-0.91330	-0.80358
1021.000	-0.41912	-0.57491	-0.82831	-0.86724
1022.000	-0.38353	-0.61271	-0.90539	-0.81352
1023.000	-0.39342	-0.61470	-0.92120	-0.84335
1024.000	-0.35586	-0.59083	-0.95283	-0.86721
1025.000	-0.44086	-0.56497	-0.86191	-0.77972
1026.000	-0.42505	-0.58486	-0.96666	-0.78567
1027.000	-0.38551	-0.52916	-0.85400	-0.85928
1028.000	-0.37365	-0.51922	-0.89946	-0.78767
1029.000	-0.41912	-0.56894	-0.92911	-0.83341
1030.000	-0.39737	-0.57690	-0.93109	-0.81352
1031.000	-0.39935	-0.53911	-0.89551	-0.76579
1032.000	-0.37563	-0.56099	-0.89353	-0.83540
1033.000	-0.38946	-0.54508	-0.96864	-0.79760
1034.000	-0.34202	-0.55105	-0.88167	-0.86325
1035.000	-0.38551	-0.54906	-0.92911	-0.85329
1036.000	-0.39737	-0.52717	-0.96666	-0.78368
1037.000	-0.36574	-0.53712	-0.86586	-0.81552
1038.000	-0.40133	-0.52121	-0.96469	-0.81351
1039.000	-0.38749	-0.48142	-0.98247	-0.78964
1040.000	-0.37167	-0.54707	-0.88365	-0.83739
1041.000	-0.37760	-0.51126	-0.94492	-0.81749
1042.000	-0.40133	-0.54508	-0.85005	-0.81751
1043.000	-0.40923	-0.56298	-0.91527	-0.80159
1044.000	-0.39737	-0.52319	-0.97852	-0.78169
1045.000	-0.35388	-0.51723	-0.93899	-0.83340
1046.000	-0.33806	-0.50927	-0.89749	-0.75187
1047.000	-0.35981	-0.53115	-0.97062	-0.76777
1048.000	-0.31236	-0.50132	-0.83819	-0.78768
1049.000	-0.34597	-0.57094	-0.89353	-0.73198
1050.000	-0.34795	-0.54110	-0.98840	-0.78566
1051.000	-0.38353	-0.56696	-0.99236	-0.86919
1052.000	-0.34993	-0.54309	-0.91132	-0.85330
1053.000	-0.37167	-0.56497	-0.93702	-0.86920
1054.000	-0.33806	-0.53116	-0.94295	-0.75584
1055.000	-0.38551	-0.52518	-0.98445	-0.80356
1056.000	-0.37365	-0.53911	-1.00421	-0.84333
1057.000	-0.34993	-0.51325	-0.92911	-0.80357
1058.000	-0.36574	-0.52718	-0.93702	-0.78368
1059.000	-0.38353	-0.53115	-0.91330	-0.79562
1060.000	-0.34202	-0.51126	-1.03386	-0.80355
1061.000	-0.34202	-0.54309	-0.90539	-0.83739
1062.000	-0.37365	-0.51524	-0.90737	-0.82943
1063.000	-0.36574	-0.56298	-0.92318	-0.79164
1064.000	-0.36574	-0.54110	-0.91132	-0.84932
1065.000	-0.39539	-0.56099	-0.89353	-0.77375
1066.000	-0.34399	-0.51922	-0.89749	-0.77972
1067.000	-0.34399	-0.53115	-0.92516	-0.80556
1068.000	-0.35783	-0.53513	-0.98247	-0.78765
1069.000	-0.33411	-0.52519	-0.95283	-0.78766
1070.000	-0.35190	-0.55900	-0.97062	-0.77572
1071.000	-0.32225	-0.53513	-0.92713	-0.82147
1072.000	-0.38156	-0.61868	-0.94887	-0.73595
1073.000	-0.33806	-0.55105	-0.99433	-0.77572
1074.000	-0.35190	-0.50529	-0.93702	-0.75982
1075.000	-0.34399	-0.55503	-0.95283	-0.75783
1076.000	-0.35388	-0.54508	-0.93504	-0.83738
1077.000	-0.37365	-0.54707	-0.96271	-0.83539
1078.000	-0.38156	-0.52916	-0.86586	-0.77177
1079.000	-0.31434	-0.51524	-0.90539	-0.83938
1080.000	-0.30446	-0.48540	-0.88958	-0.78568
1081.000	-0.36179	-0.55105	-0.91725	-0.73397
1082.000	-0.34993	-0.49933	-0.93702	-0.77971
1083.000	-0.36179	-0.51922	-0.90737	-0.73994
1084.000	-0.35388	-0.57691	-0.92318	-0.76579
1085.000	-0.34795	-0.51325	-0.97852	-0.75384
1086.000	-0.32620	-0.53315	-0.92120	-0.75982
1087.000	-0.38749	-0.55303	-0.98445	-0.79163
1088.000	-0.36772	-0.57094	-0.93899	-0.79363
1089.000	-0.40133	-0.51922	-0.89551	-0.76778
1090.000	-0.40528	-0.52916	-0.96073	-0.79163
1091.000	-0.36574	-0.52718	-0.88365	-0.74790
1092.000	-0.36772	-0.50728	-0.92911	-0.73794
1093.000	-0.32225	-0.56895	-0.96469	-0.78567
1094.000	-0.36772	-0.54508	-0.94690	-0.75385
1095.000	-0.37760	-0.51723	-0.91132	-0.81551
1096.000	-0.38551	-0.51524	-0.94887	-0.76180
1097.000	-0.40726	-0.53712	-0.94887	-0.79959
1098.000	-0.33806	-0.48142	-0.88563	-0.81949
1099.000	-0.40330	-0.53712	-0.93504	-0.77573
1100.000	-0.34202	-0.53911	-0.90934	-0.81153
1101.000	-0.34202	-0.51723	-0.88563	-0.79762
1102.000	-0.32818	-0.51524	-0.92911	-0.83937
1103.000	-0.31039	-0.48341	-0.93702	-0.81948
1104.000	-0.34597	-0.51325	-0.91527	-0.74988
1105.000	-0.39935	-0.51723	-1.03979	-0.77968
1106.000	-0.46459	-0.53115	-1.02003	-0.79560
1107.000	-0.53180	-0.46948	-1.05165	-0.81747
1108.000	-0.59110	-0.41775	-1.19394	-0.79953
1109.000	-0.71761	-0.37199	-1.29076	-0.64439
1110.000	-0.89353	-0.31429	-1.43303	-0.58270
1111.000	-1.06548	-0.16112	-1.76491	-0.48916
1112.000	-1.25915	-0.09348	-1.94857	-0.32210
1113.000	-1.52589	0.11535	-2.20919	-0.18488
1114.000	-1.76491	0.24856	-2.50130	0.00596
1115.000	-1.98017	0.42548	-2.74198	0.19673
1116.000	-2.15984	0.61030	-2.93131	0.38345
1117.000	-2.40460	0.71155	-3.06538	0.53040
1118.000	-2.42631	0.84668	-3.24277	0.68920
1119.000	-2.59206	0.97969	-3.25263	0.88579
1120.000	-2.59995	1.02737	-3.38661	1.05641
1121.000	-2.49932	1.15659	-3.39252	1.16758
1122.000	-2.47959	1.22615	-3.22701	1.23131
1123.000	-2.36710	1.23618	-3.17182	1.16188
1124.000	-2.29605	1.13491	-3.06538	1.27319
1125.000	-2.12825	1.13106	-2.92145	1.20981
1126.000	-2.07100	1.09533	-2.87215	1.15823
1127.000	-1.98017	1.00595	-2.73804	1.05308
1128.000	-1.88538	0.97023	-2.70056	1.05113
1129.000	-1.81231	0.89671	-2.65322	0.88031
1130.000	-1.78268	0.77943	-2.64730	0.71738
1131.000	-1.81033	0.73966	-2.52497	0.67175
1132.000	-1.78466	0.67207	-2.47564	0.54856
1133.000	-1.79256	0.64026	-2.56838	0.45114
1134.000	-1.81626	0.61043	-2.48748	0.44123
1135.000	-1.89525	0.57263	-2.55852	0.39351
1136.000	-1.91105	0.50900	-2.44407	0.30410
1137.000	-1.87353	0.60842	-2.52103	0.40346
1138.000	-1.88341	0.55672	-2.54273	0.39749
1139.000	-1.89920	0.62829	-2.51708	0.38160
1140.000	-1.97029	0.60838	-2.49932	0.50085
1141.000	-2.00189	0.63223	-2.55654	0.45114
1142.000	-1.96042	0.64616	-2.59600	0.47299
1143.000	-1.97227	0.67598	-2.52892	0.51475
1144.000	-2.03743	0.67197	-2.65124	0.61803
1145.000	-1.97622	0.70182	-2.59995	0.65581
1146.000	-2.04928	0.71769	-2.67689	0.65378
1147.000	-2.07692	0.75346	-2.64533	0.73725
1148.000	-2.05718	0.81111	-2.74593	0.61401
1149.000	-2.08679	0.78724	-2.83666	0.71926
1150.000	-2.03941	0.83498	-2.78143	0.77293
1151.000	-2.11641	0.77530	-2.81299	0.73318
1152.000	-2.09469	0.81706	-2.82680	0.71330
1153.000	-2.11048	0.86078	-2.78341	0.86233
1154.000	-2.09271	0.83097	-2.78735	0.81266
1155.000	-2.12430	0.85083	-2.78538	0.81664
1156.000	-2.05718	0.86876	-2.73015	0.76502
1157.000	-2.07889	0.89856	-2.75974	0.79877
1158.000	-2.09074	0.89458	-2.85835	0.86824
1159.000	-2.14602	0.87268	-2.80510	0.77093
1160.000	-2.10456	0.86277	-2.77552	0.79876
1161.000	-2.06507	0.85484	-2.80116	0.86629
1162.000	-2.06705	0.88068	-2.80707	0.86231
1163.000	-2.04730	0.89659	-2.73015	0.81668
1164.000	-2.06705	0.88068	-2.68478	0.80280
1165.000	-2.09271	0.86874	-2.72620	0.85045
1166.000	-2.05125	0.84888	-2.83468	0.79078
1167.000	-2.07297	0.90055	-2.79721	0.82855
1168.000	-2.09074	0.83892	-2.81299	0.75702
1169.000	-2.06112	0.84093	-2.68873	0.77299
1170.000	-2.10061	0.88066	-2.68281	0.73524
1171.000	-2.07889	0.84092	-2.72818	0.71137
1172.000	-2.05520	0.84093	-2.79524	0.76299
1173.000	-2.05323	0.84689	-2.76368	0.74116
1174.000	-2.06902	0.82105	-2.73804	0.76104
1175.000	-2.04335	0.92044	-2.70845	0.71536
1176.000	-1.99399	0.88072	-2.74593	0.68951
1177.000	-2.06310	0.84888	-2.69464	0.72133
1178.000	-2.00979	0.85288	-2.79327	0.68352
1179.000	-2.05915	0.83695	-2.71634	0.71933
1180.000	-2.05520	0.81509	-2.75579	0.65970
1181.000	-2.02756	0.85685	-2.76565	0.75307
1182.000	-2.03348	0.84094	-2.77157	0.77095
1183.000	-2.03546	0.81709	-2.79524	0.65769
1184.000	-2.02361	0.88468	-2.83074	0.68350
1185.000	-2.02953	0.88269	-2.76368	0.69745
1186.000	-2.07495	0.88266	-2.74987	0.71136
1187.000	-2.01966	0.81908	-2.79129	0.77094
1188.000	-1.99597	0.87674	-2.79129	0.70140
1189.000	-1.99991	0.85289	-2.77354	0.72923
1190.000	-2.04335	0.87075	-2.71831	0.68555
1191.000	-2.11048	0.87072	-2.81299	0.74708
1192.000	-2.09666	0.87470	-2.81102	0.66166
1193.000	-2.05520	0.84689	-2.78538	0.79081
1194.000	-2.08284	0.85284	-2.71240	0.79086
1195.000	-2.06902	0.86875	-2.79918	0.69345
1196.000	-2.05718	0.84093	-2.82680	0.77290
1197.000	-2.11246	0.87469	-2.75185	0.71732
1198.000	-2.09469	0.87669	-2.82088	0.74311
1199.000	-2.04928	0.83895	-2.72620	0.74913
1200.000	-2.09271	0.84489	-2.78143	0.67161
1201.000	-2.10259	0.86277	-2.78341	0.71134
1202.000	-2.06112	0.89062	-2.75382	0.72129
1203.000	-2.05125	0.83696	-2.79524	0.79279
1204.000	-2.07495	0.88067	-2.72620	0.70740
1205.000	-2.11246	0.83891	-2.75382	0.73520
1206.000	-2.11048	0.86674	-2.79918	0.74511
1207.000	-2.08679	0.89060	-2.75382	0.70739
1208.000	-2.07692	0.87471	-2.78932	0.77889
1209.000	-2.07495	0.87670	-2.76763	0.76897
1210.000	-2.08877	0.87470	-2.78143	0.75306
1211.000	-2.06310	0.88863	-2.76763	0.81466
1212.000	-2.07100	0.88863	-2.83074	0.74906
1213.000	-2.08877	0.86476	-2.79327	0.79875
1214.000	-2.11838	0.89854	-2.83863	0.69144
1215.000	-2.11838	0.89854	-2.81299	0.77092
1216.000	-2.07297	0.92241	-2.79327	0.76100
1217.000	-2.09074	0.91644	-2.80116	0.69941
1218.000	-2.12628	0.88859	-2.78735	0.75703
1219.000	-2.13220	0.83691	-2.79721	0.73716
1220.000	-2.14010	0.89057	-2.77749	0.75108
1221.000	-2.13023	0.92238	-2.79918	0.83649
1222.000	-2.09666	0.87867	-2.80116	0.71332
1223.000	-2.09864	0.86675	-2.78538	0.69346
1224.000	-2.13220	0.90052	-2.84454	0.75302
1225.000	-2.13023	0.87468	-2.81891	0.76099
1226.000	-2.07692	0.87272	-2.76368	0.81268
1227.000	-2.09469	0.86675	-2.86624	0.76294
1228.000	-2.08679	0.88663	-2.91357	0.76291
1229.000	-2.10259	0.87271	-2.83271	0.78084
1230.000	-2.10259	0.91445	-2.82482	0.72721
1231.000	-2.12628	0.87667	-2.86032	0.71527
1232.000	-2.10456	0.94426	-2.83271	0.80866
1233.000	-2.03348	0.90256	-2.81693	0.77092
1234.000	-2.11246	0.84686	-2.78932	0.78087
1235.000	-2.13220	0.89455	-2.77552	0.75903
1236.000	-2.12825	0.85480	-2.82680	0.67357
1237.000	-2.13812	0.84486	-2.80905	0.81463
1238.000	-2.09469	0.87669	-2.86229	0.75699
1239.000	-2.09864	0.85482	-2.85441	0.70931
1240.000	-2.07889	0.92042	-2.80116	0.81663
1241.000	-2.10061	0.88861	-2.82285	0.74509
1242.000	-2.08877	0.88663	-2.82482	0.75701
1243.000	-2.09074	0.90054	-2.82877	0.78085
1244.000	-2.09074	0.83296	-2.84257	0.70137
1245.000	-2.07495	0.91049	-2.84257	0.69541
1246.000	-2.10259	0.89258	-2.81693	0.67755
1247.000	-2.07100	0.92242	-2.83074	0.71529
1248.000	-2.07889	0.94825	-2.86624	0.71924
1249.000	-2.10851	0.90252	-2.83863	0.72124
1250.000	-2.10456	0.91445	-2.90962	0.72716
1251.000	-2.07889	0.92241	-2.88990	0.69340
1252.000	-2.14602	0.90448	-2.81102	0.76695
1253.000	-2.15787	0.89454	-2.87413	0.71327
1254.000	-2.08679	0.93433	-2.84849	0.72720
1255.000	-2.13812	0.90846	-2.83666	0.72522
1256.000	-2.12233	0.82698	-2.83074	0.65370
1257.000	-2.11246	0.86873	-2.86229	0.67553
1258.000	-2.17169	0.85080	-2.87807	0.69340
1259.000	-2.15589	0.85081	-2.84060	0.77091
1260.000	-2.10851	0.90451	-2.82285	0.65569
1261.000	-2.15194	0.87467	-2.83074	0.66760
1262.000	-2.12233	0.86673	-2.79524	0.64180
1263.000	-2.11048	0.89854	-2.83271	0.65171
1264.000	-2.10654	0.87469	-2.85638	0.68348
1265.000	-2.12628	0.86872	-2.82285	0.70337
1266.000	-2.07889	0.84291	-2.83666	0.67555
1267.000	-2.15194	0.91044	-2.86229	0.74904
1268.000	-2.07692	0.88465	-2.82088	0.73715
1269.000	-2.12036	0.91245	-2.82088	0.67754
1270.000	-2.14207	0.90449	-2.85835	0.72322
1271.000	-2.11443	0.87866	-2.88004	0.69340
1272.000	-2.13812	0.85082	-2.81102	0.73318
1273.000	-2.08482	0.92241	-2.88399	0.70333
1274.000	-2.09666	0.86277	-2.90371	0.64571
1275.000	-2.05125	0.88864	-2.82877	0.69343
1276.000	-2.06902	0.88664	-2.87215	0.71923
1277.000	-2.11048	0.87867	-2.92737	0.76290
1278.000	-2.12036	0.91245	-2.85835	0.62984
1279.000	-2.07495	0.86477	-2.83666	0.62787
1280.000	-2.06112	0.92043	-2.94709	0.74104
1281.000	-2.14405	0.85678	-2.91357	0.65365
1282.000	-2.08877	0.90849	-2.88004	0.67354
1283.000	-2.03546	0.86281	-2.75974	0.71136
1284.000	-2.14997	0.82100	-2.88201	0.72320
1285.000	-2.14010	0.84685	-2.88201	0.68545
1286.000	-2.09469	0.87271	-2.94117	0.69535
1287.000	-2.08087	0.86477	-2.89582	0.70134
1288.000	-2.07495	0.88664	-2.89187	0.67353
1289.000	-2.11048	0.90053	-2.90568	0.73312
1290.000	-2.10456	0.84885	-2.82877	0.66165
1291.000	-2.16774	0.82894	-2.85046	0.69739
1292.000	-2.13023	0.84487	-2.82088	0.71728
1293.000	-2.10851	0.93432	-2.84652	0.63978
1294.000	-2.10061	0.88463	-2.85441	0.71924
1295.000	-2.12233	0.84089	-2.90962	0.69537
1296.000	-2.11246	0.86674	-2.82482	0.70337
1297.000	-2.09271	0.85085	-2.82285	0.68350
1298.000	-2.13615	0.91045	-2.87807	0.76889
1299.000	-2.12430	0.84288	-2.86624	0.68348
1300.000	-2.14207	0.84685	-2.83074	0.72919
1301.000	-2.10654	0.88066	-2.84849	0.73514
1302.000	-2.10259	0.88463	-2.87413	0.75499
1303.000	-2.11641	0.88860	-2.93131	0.70529
1304.000	-2.11838	0.82897	-2.87018	0.75301
1305.000	-2.13812	0.88263	-2.86624	0.69540
1306.000	-2.12825	0.89853	-2.88399	0.67552
1307.000	-2.13812	0.86474	-2.90962	0.67948
1308.000	-2.13220	0.90449	-2.86624	0.73314
1309.000	-2.09271	0.91247	-2.90173	0.75299
1310.000	-2.12036	0.88264	-2.83271	0.68350
1311.000	-2.11048	0.86674	-2.87413	0.71725
1312.000	-2.12430	0.87071	-2.81891	0.76893
1313.000	-2.07495	0.87073	-2.84652	0.72720
1314.000	-2.12430	0.87866	-2.76763	0.66764
1315.000	-2.17563	0.90447	-2.94511	0.67151
1316.000	-2.09666	0.87072	-2.87413	0.72321
1317.000	-2.13812	0.84287	-2.86427	0.68944
1318.000	-2.17958	0.84285	-2.83468	0.68350
1319.000	-2.16774	0.79714	-2.85441	0.71527
1320.000	-2.10851	0.86277	-2.86427	0.69341
1321.000	-2.12430	0.84884	-2.86229	0.69937
1322.000	-2.12233	0.87866	-2.86427	0.76294
1323.000	-2.13812	0.85281	-2.83271	0.73714
1324.000	-2.17563	0.82894	-2.78143	0.69942
1325.000	-2.16971	0.79714	-2.85638	0.68150
1326.000	-2.15194	0.84485	-2.86624	0.73116
1327.000	-2.14997	0.84883	-2.85638	0.67951
1328.000	-2.15589	0.88261	-2.94511	0.77084
1329.000	-2.17169	0.86671	-2.88399	0.71724
1330.000	-2.17169	0.86671	-2.85441	0.76096
1331.000	-2.15392	0.87268	-2.77157	0.77691
1332.000	-2.13023	0.93629	-2.85638	0.73712
1333.000	-2.11641	0.87866	-2.88596	0.69936
1334.000	-2.12430	0.87667	-2.91357	0.74305
1335.000	-2.12628	0.90251	-2.88793	0.72320
1336.000	-2.15787	0.84883	-2.87215	0.72519
1337.000	-2.11246	0.85283	-2.89385	0.70333
1338.000	-2.10259	0.87469	-2.84652	0.76892
1339.000	-2.18353	0.83092	-2.83074	0.69145
1340.000	-2.13220	0.92039	-2.92934	0.70728
1341.000	-2.13418	0.91443	-2.77749	0.70538
1342.000	-2.13220	0.90648	-2.86427	0.78281
1343.000	-2.16576	0.88857	-2.87610	0.75499
1344.000	-2.12628	0.88661	-2.90765	0.72120
1345.000	-2.14405	0.89256	-2.84454	0.74706
1346.000	-2.08482	0.87073	-2.98455	0.76485
1347.000	-2.15589	0.88063	-2.81891	0.69940
1348.000	-2.14997	0.84883	-2.90765	0.69537
1349.000	-2.15984	0.89255	-2.86624	0.73712
1350.000	-2.12430	0.91443	-2.86032	0.70732
1351.000	-2.10654	0.83494	-2.89976	0.71524
1352.000	-2.17761	0.84086	-2.87413	0.76095
1353.000	-2.15392	0.87467	-2.83271	0.74509
1354.000	-2.14800	0.91243	-2.92342	0.72119
1355.000	-2.17563	0.83490	-2.92737	0.74701
1356.000	-2.21709	0.87860	-2.85046	0.73514
1357.000	-2.16774	0.83689	-2.84454	0.69938
1358.000	-2.11838	0.90450	-2.79721	0.70537
1359.000	-2.18748	0.90843	-2.87413	0.71327
1360.000	-2.16576	0.87466	-2.82482	0.70337
1361.000	-2.20327	0.87662	-2.89582	0.67353
1362.000	-2.15392	0.91044	-2.87018	0.67354
1363.000	-2.22499	0.89052	-2.89976	0.65962
1364.000	-2.18748	0.89850	-2.93920	0.67747
1365.000	-2.13615	0.92238	-2.82877	0.72919
1366.000	-2.13023	0.88462	-2.83468	0.69939
1367.000	-2.14010	0.88064	-2.84849	0.74110
1368.000	-2.21709	0.81898	-2.88201	0.74307
1369.000	-2.20919	0.86271	-2.81891	0.75304
1370.000	-2.19340	0.83092	-2.82088	0.77489
1371.000	-2.20722	0.83886	-2.90765	0.71524
1372.000	-2.16379	0.86273	-2.85243	0.75501
1373.000	-2.14602	0.85082	-2.81299	0.72920
1374.000	-2.18945	0.84284	-2.88596	0.70135
1375.000	-2.22104	0.83090	-2.87807	0.78280
1376.000	-2.17761	0.82695	-2.86229	0.75897
1377.000	-2.16379	0.88857	-2.92342	0.68543
1378.000	-2.23486	0.88456	-2.87807	0.78081
1379.000	-2.14010	0.89455	-2.88201	0.76691
1380.000	-2.20130	0.86669	-2.88004	0.70334
1381.000	-2.18353	0.89452	-2.84060	0.73912
1382.000	-2.16774	0.86870	-2.77946	0.71730
1383.000	-2.16576	0.89255	-2.82680	0.75900
1384.000	-2.17366	0.85478	-2.88793	0.82451
1385.000	-2.21117	0.84084	-2.82285	0.78681
1386.000	-2.19932	0.87663	-2.81693	0.73516
1387.000	-2.14997	0.87467	-2.74987	0.72527
1388.000	-2.17169	0.86671	-2.82285	0.79476
1389.000	-2.19932	0.83290	-2.91948	0.80065
1390.000	-2.22499	0.84282	-2.84257	0.81461
1391.000	-2.19932	0.91439	-2.82680	0.68350
1392.000	-2.16576	0.86273	-2.83074	0.71727
1393.000	-2.14800	0.90448	-2.89187	0.79471
1394.000	-2.21906	0.87860	-2.89385	0.70333
1395.000	-2.19340	0.91042	-2.81891	0.74509
1396.000	-2.16379	0.86472	-2.89976	0.71922
1397.000	-2.16971	0.91441	-2.83271	0.77290
1398.000	-2.19538	0.86669	-2.83863	0.81064
1399.000	-2.17169	0.89851	-2.79524	0.73319
1400.000	-2.17169	0.91441	-2.78932	0.71929
1401.000	-2.16576	0.89453	-2.85441	0.74507
1402.000	-2.14207	0.82697	-2.78538	0.77889
1403.000	-2.13615	0.81902	-2.79918	0.80272
1404.000	-2.19932	0.81303	-2.82482	0.76893
1405.000	-2.19143	0.85079	-2.83666	0.73118
1406.000	-2.17563	0.84882	-2.81299	0.65967
1407.000	-2.17366	0.85875	-2.88596	0.70731
1408.000	-2.16181	0.85677	-2.88596	0.80067
1409.000	-2.20130	0.84681	-2.86229	0.69341
1410.000	-2.17563	0.86670	-2.90173	0.71921
1411.000	-2.14010	0.89455	-2.89385	0.75696
1412.000	-2.18748	0.89651	-2.76960	0.73122
1413.000	-2.17958	0.86273	-2.84849	0.76097
1414.000	-2.11048	0.88860	-2.78341	0.77094
1415.000	-2.17761	0.88061	-2.80510	0.80073
1416.000	-2.16971	0.81304	-2.90173	0.77285
1417.000	-2.19340	0.85278	-2.90568	0.70531
1418.000	-2.28026	0.84875	-2.83863	0.72323
1419.000	-2.35921	0.94211	-3.05749	0.72904
1420.000	-2.56838	0.92010	-3.13240	0.77269
1421.000	-2.83468	0.91394	-3.35115	0.65735
1422.000	-3.04172	0.92172	-3.59540	0.66909
1423.000	-3.30780	0.96914	-3.87887	0.67681
1424.000	-3.73716	1.00441	-4.29194	0.69432
1425.000	-4.16020	1.01977	-4.76346	0.57294
1426.000	-4.61814	1.01121	-5.16963	0.62212
1427.000	-5.03429	1.04824	-5.57724	0.66922
1428.000	-5.44796	1.14455	-6.00188	0.72806
1429.000	-5.92561	1.16140	-6.49418	0.79457
1430.000	-6.40438	1.10502	-6.93097	0.83532
1431.000	-6.77117	1.12592	-7.33779	0.88982
1432.000	-7.10041	1.14487	-7.76910	0.92440
1433.000	-7.60212	1.05882	-8.13366	0.88617
1434.000	-7.88358	1.00886	-8.42987	0.87567
1435.000	-8.19178	0.99038	-8.78549	0.87091
1436.000	-8.41439	0.99572	-9.06332	0.84275
1437.000	-8.67733	0.88493	-9.38115	0.80471
1438.000	-9.02283	0.77213	-9.66574	0.84129
1439.000	-9.09802	0.73268	-9.83664	0.70759
1440.000	-9.48119	0.64948	-10.23537	0.68519
1441.000	-9.79057	0.60968	-10.36359	0.66730
1442.000	-10.09554	0.48377	-10.68656	0.58060
1443.000	-10.39802	0.40113	-10.99931	0.56632
1444.000	-10.70374	0.28931	-11.18208	0.50157
1445.000	-10.98217	0.24998	-11.51846	0.45614
1446.000	-11.23344	0.21855	-11.70814	0.36428
1447.000	-11.45580	0.10334	-11.82183	0.35050
1448.000	-11.67402	0.15586	-12.09430	0.27039
1449.000	-11.88053	0.17716	-12.35489	0.20211
1450.000	-12.06972	0.11089	-12.66579	0.23874
1451.000	-12.17555	0.12640	-12.69213	0.32023
1452.000	-12.34735	0.11466	-12.86888	0.34910
1453.000	-12.41336	0.12629	-12.99846	0.37218
1454.000	-12.56601	0.12427	-13.20101	0.29827
1455.000	-12.53964	0.14565	-13.23848	0.32921
1456.000	-12.52645	0.18255	-13.26470	0.42986
1457.000	-12.48876	0.22726	-13.28905	0.42401
1458.000	-12.40959	0.21761	-13.18227	0.51136
1459.000	-12.32282	0.24878	-13.08477	0.48056
1460.000	-12.17744	0.27031	-13.02849	0.54269
1461.000	-12.12832	0.24118	-12.84633	0.50041
1462.000	-12.01110	0.34442	-12.71283	0.63069
1463.000	-11.99219	0.34833	-12.65450	0.60366
1464.000	-12.01299	0.32496	-12.59990	0.61544
1465.000	-12.00921	0.41836	-12.52833	0.60590
1466.000	-12.05649	0.39883	-12.41525	0.57703
1467.000	-12.06405	0.40466	-12.47557	0.58466
1468.000	-12.06216	0.38521	-12.43599	0.57892
1469.000	-12.18689	0.38503	-12.48311	0.54580
1470.000	-12.20200	0.33834	-12.55094	0.46216
1471.000	-12.31150	0.33820	-12.57166	0.54173
1472.000	-12.37376	0.39641	-12.65262	0.46198
1473.000	-12.42090	0.36720	-12.66203	0.36297
1474.000	-12.41713	0.35749	-12.81062	0.38216
1475.000	-12.48123	0.32050	-12.88391	0.43053
1476.000	-12.50007	0.34572	-12.86324	0.44608
1477.000	-12.58672	0.34755	-13.02661	0.44191
1478.000	-12.57542	0.32620	-12.97593	0.40323
1479.000	-12.59990	0.33976	-13.03787	0.40313
1480.000	-12.59614	0.30094	-13.08289	0.47087
1481.000	-12.59426	0.30871	-13.06601	0.44378
1482.000	-12.58861	0.27765	-13.00409	0.45746
1483.000	-12.58484	0.32425	-13.00972	0.43225
1484.000	-12.54152	0.34178	-13.00221	0.50398
1485.000	-12.55659	0.27186	-13.04162	0.53297
1486.000	-12.56977	0.35145	-13.08289	0.46700
1487.000	-12.58484	0.30872	-13.04537	0.46126
1488.000	-12.59990	0.28540	-13.07727	0.49220
1489.000	-12.55659	0.33982	-13.04537	0.41668
1490.000	-12.57919	0.29902	-12.96842	0.52731
1491.000	-12.50761	0.29133	-13.01723	0.46906
1492.000	-12.56601	0.30292	-13.04725	0.58722
1493.000	-12.50761	0.34765	-12.97030	0.46527
1494.000	-12.56036	0.30875	-13.00597	0.48653
1495.000	-12.46992	0.33799	-12.96467	0.52150
1496.000	-12.47557	0.28942	-12.93087	0.49637
1497.000	-12.49819	0.31853	-12.91960	0.49445
1498.000	-12.50761	0.35736	-12.94589	0.52154
1499.000	-12.44541	0.32637	-12.91021	0.53907
1500.000	-12.38884	0.31284	-12.87827	0.54689
1501.000	-12.40205	0.33808	-12.91397	0.58172
1502.000	-12.44541	0.31860	-12.90082	0.55072
1503.000	-12.42467	0.35359	-12.83693	0.55474
1504.000	-12.39073	0.33227	-12.87827	0.53914
1505.000	-12.39827	0.35557	-12.81062	0.51600
1506.000	-12.37564	0.34589	-12.91772	0.53905
1507.000	-12.38130	0.29342	-12.81250	0.47333
1508.000	-12.41336	0.37109	-12.82002	0.60133
1509.000	-12.33791	0.33622	-12.86512	0.52365
1510.000	-12.35112	0.36730	-12.89894	0.55848
1511.000	-12.35489	0.33620	-12.86888	0.51976
1512.000	-12.37564	0.32257	-12.78994	0.55872
1513.000	-12.36244	0.36145	-12.82378	0.52955
1514.000	-12.36244	0.33425	-12.81814	0.52569
1515.000	-12.35678	0.37506	-12.85760	0.49845
1516.000	-12.35301	0.34203	-12.86512	0.51589
1517.000	-12.43033	0.39827	-12.90269	0.48673
1518.000	-12.39639	0.34780	-12.86136	0.49457
1519.000	-12.36244	0.36339	-12.90833	0.54877
1520.000	-12.38884	0.33421	-12.95904	0.49050
1521.000	-12.44353	0.34385	-12.88767	0.52166
1522.000	-12.39073	0.34781	-12.93462	0.51769
1523.000	-12.42467	0.32251	-12.96467	0.47691
1524.000	-12.41902	0.35943	-12.94401	0.53706
1525.000	-12.43599	0.32444	-12.89894	0.52358
1526.000	-12.44164	0.34968	-12.93462	0.52350
1527.000	-12.41525	0.32641	-12.89142	0.48675
1528.000	-12.44918	0.38076	-12.96655	0.49436
1529.000	-12.40016	0.28562	-12.94214	0.47308
1530.000	-12.42656	0.31862	-12.93838	0.46145
1531.000	-12.39450	0.33420	-12.93650	0.42268
1532.000	-12.39827	0.33031	-12.94214	0.46339
1533.000	-12.41336	0.28367	-12.89330	0.41888
1534.000	-12.39827	0.31671	-12.93650	0.49054
1535.000	-12.40393	0.28562	-12.92148	0.48281
1536.000	-12.39073	0.31089	-12.93275	0.53320
1537.000	-12.38130	0.43720	-12.89330	0.58176
1538.000	-12.40959	0.28561	-12.92148	0.53516
1539.000	-12.37941	0.32839	-12.92523	0.50607
1540.000	-12.35489	0.36729	-12.91960	0.50415
1541.000	-12.42844	0.35165	-12.82190	0.46749
1542.000	-12.36055	0.33425	-12.82002	0.53344
1543.000	-12.37753	0.30314	-12.91397	0.54488
1544.000	-12.39073	0.29146	-12.88391	0.51391
1545.000	-12.38507	0.31673	-12.82941	0.52178
1546.000	-12.39450	0.32838	-12.93650	0.49830
1547.000	-12.37941	0.31285	-12.92523	0.51189
1548.000	-12.36432	0.33230	-12.88955	0.54105
1549.000	-12.43033	0.29530	-12.93087	0.50994
1550.000	-12.41336	0.28561	-12.87264	0.50230
1551.000	-12.46426	0.30303	-12.87452	0.43830
1552.000	-12.37376	0.29342	-12.85385	0.42476
1553.000	-12.39639	0.34197	-12.98720	0.46330
1554.000	-12.40959	0.28561	-12.87264	0.42473
1555.000	-12.40770	0.31087	-12.84633	0.46356
1556.000	-12.49065	0.33020	-12.91960	0.47506
1557.000	-12.43976	0.33415	-12.91397	0.52743
1558.000	-12.42467	0.32834	-12.90645	0.52550
1559.000	-12.39073	0.37307	-12.91772	0.49252
1560.000	-12.47557	0.37683	-12.81062	0.47139
1561.000	-12.40205	0.34779	-12.88767	0.49451
1562.000	-12.40205	0.34585	-12.85197	0.55083
1563.000	-12.45861	0.28362	-12.93462	0.49830
1564.000	-12.39262	0.34198	-12.90833	0.54295
1565.000	-12.41713	0.31669	-12.95716	0.50795
1566.000	-12.47180	0.34964	-12.84633	0.53145
1567.000	-12.46238	0.35548	-12.91021	0.53519
1568.000	-12.50384	0.32629	-12.86136	0.43057
1569.000	-12.45107	0.36910	-12.89518	0.49644
1570.000	-12.40770	0.28756	-12.88955	0.53135
1571.000	-12.42844	0.34387	-12.88391	0.49452
1572.000	-12.43033	0.34581	-12.89894	0.50225
1573.000	-12.42279	0.31085	-12.92711	0.46341
1574.000	-12.41147	0.37304	-12.92148	0.49251
1575.000	-12.43410	0.38855	-12.92336	0.50996
1576.000	-12.43599	0.34775	-12.84821	0.50817
1577.000	-12.37187	0.29343	-12.92148	0.51578
1578.000	-12.43787	0.34192	-12.82190	0.49270
1579.000	-12.44353	0.28557	-12.83881	0.51207
1580.000	-12.45484	0.33024	-12.91397	0.55457
1581.000	-12.45107	0.31276	-12.87076	0.47515
1582.000	-12.45295	0.28556	-12.92148	0.48088
1583.000	-12.45484	0.30693	-12.84821	0.51787
1584.000	-12.44918	0.33025	-12.87264	0.44218
1585.000	-12.40959	0.26618	-12.88579	0.49840
1586.000	-12.40205	0.34002	-12.91021	0.48090
1587.000	-12.44353	0.26615	-12.85197	0.53919
1588.000	-12.38884	0.33421	-12.89142	0.46930
1589.000	-12.42656	0.38856	-12.94777	0.45562
1590.000	-12.33037	0.34595	-12.92148	0.55455
1591.000	-12.41713	0.34000	-12.95904	0.50213
1592.000	-12.41713	0.36915	-12.85009	0.48683
1593.000	-12.43033	0.31085	-12.87639	0.52944
1594.000	-12.42279	0.34777	-12.86888	0.56243
1595.000	-12.42090	0.34000	-12.90269	0.55653
1596.000	-12.43033	0.31667	-12.93650	0.53126
1597.000	-12.41902	0.29726	-12.93650	0.53319
1598.000	-12.42090	0.26617	-12.89330	0.51971
1599.000	-12.46426	0.28167	-12.86324	0.49456
1600.000	-12.43787	0.30307	-12.84445	0.49848
1601.000	-12.42279	0.33611	-12.87639	0.53526
1602.000	-12.46992	0.24475	-12.87639	0.48484
1603.000	-12.42656	0.33999	-12.89142	0.52166
1604.000	-12.43033	0.29530	-12.91397	0.52936
1605.000	-12.49819	0.35738	-12.92523	0.53710
1606.000	-12.49442	0.32825	-12.88203	0.56434
1607.000	-12.41713	0.31086	-12.91209	0.53131
1608.000	-12.43976	0.29918	-12.90833	0.49835
1609.000	-12.41902	0.30114	-12.89706	0.50031
1610.000	-12.41525	0.31475	-12.89142	0.52359
1611.000	-12.42279	0.29337	-12.90833	0.50805
1612.000	-12.44918	0.27780	-12.95152	0.54673
1613.000	-12.46049	0.28361	-12.87076	0.51200
1614.000	-12.44353	0.31860	-12.88203	0.52361
1615.000	-12.43410	0.26810	-12.84633	0.50429
1616.000	-12.43599	0.28364	-12.83505	0.47328
1617.000	-12.46426	0.29915	-12.88767	0.50615
1618.000	-12.46803	0.34576	-12.84257	0.54891
1619.000	-12.44541	0.35356	-12.89518	0.46347
1620.000	-12.45484	0.29528	-12.88579	0.54300
1621.000	-12.43033	0.30113	-12.96467	0.58547
1622.000	-12.46426	0.26418	-12.90082	0.50806
1623.000	-12.41902	0.29532	-12.91397	0.56039
1624.000	-12.40959	0.34001	-12.89706	0.51001
1625.000	-12.44918	0.27974	-12.91209	0.50222
1626.000	-12.44730	0.31082	-12.86888	0.53528
1627.000	-12.45295	0.26225	-12.88767	0.50615
1628.000	-12.46426	0.28749	-12.92711	0.49444
1629.000	-12.42844	0.30890	-12.89518	0.50032
1630.000	-12.43222	0.35941	-12.86136	0.52754
1631.000	-12.45107	0.30888	-12.86324	0.45771
1632.000	-12.49630	0.34378	-12.80122	0.46171
1633.000	-12.47557	0.27777	-12.85948	0.48099
1634.000	-12.48311	0.29330	-12.88579	0.49840
1635.000	-12.42279	0.27977	-12.89142	0.54492
1636.000	-12.46049	0.28750	-12.92148	0.49251
1637.000	-12.44730	0.28169	-12.92711	0.47893
1638.000	-12.47180	0.29720	-12.87452	0.50618
1639.000	-12.45672	0.29333	-12.96091	0.47111
1640.000	-12.41147	0.33418	-12.88579	0.54106
1641.000	-12.47934	0.32827	-12.96842	0.58934
1642.000	-12.51138	0.31075	-12.91584	0.55844
1643.000	-12.44918	0.27003	-12.93087	0.48473
1644.000	-12.49630	0.29329	-12.91397	0.50804
1645.000	-12.44164	0.36134	-12.89894	0.48480
1646.000	-12.46992	0.31080	-12.87264	0.46158
1647.000	-12.45107	0.26808	-12.89894	0.49255
1648.000	-12.50196	0.34378	-12.86324	0.52559
1649.000	-12.43410	0.30696	-12.91584	0.50609
1650.000	-12.40959	0.27590	-12.90645	0.51581
1651.000	-12.45861	0.30693	-12.84821	0.50623
1652.000	-12.47934	0.27388	-12.94401	0.43042
1653.000	-12.41525	0.29143	-12.90269	0.47509
1654.000	-12.45295	0.25448	-12.80310	0.54900
1655.000	-12.47369	0.30108	-12.82378	0.44809
1656.000	-12.47180	0.30108	-12.84445	0.48296
1657.000	-12.49630	0.28357	-12.88015	0.49259
1658.000	-12.47934	0.27194	-12.85197	0.45580
1659.000	-12.46992	0.30886	-12.90457	0.53520
1660.000	-12.47369	0.28943	-12.88203	0.46932
1661.000	-12.44541	0.34191	-12.86512	0.57601
1662.000	-12.46238	0.27778	-12.87827	0.43054
1663.000	-12.48688	0.28747	-12.88203	0.45380
1664.000	-12.45484	0.35161	-12.91772	0.47119
1665.000	-12.46992	0.35742	-12.88955	0.46348
1666.000	-12.49442	0.27969	-12.89142	0.44797
1667.000	-12.48688	0.24862	-12.91021	0.43048
1668.000	-12.43033	0.23896	-12.85948	0.45772
1669.000	-12.48123	0.28165	-12.86324	0.52947
1670.000	-12.46992	0.30303	-12.91209	0.47508
1671.000	-12.43976	0.27781	-12.91584	0.45180
1672.000	-12.43033	0.34581	-12.88955	0.43634
1673.000	-12.48688	0.31078	-12.85760	0.49651
1674.000	-12.50761	0.27191	-12.88579	0.55269
1675.000	-12.46426	0.27390	-12.85573	0.45773
1676.000	-12.48688	0.30495	-12.91397	0.54488
1677.000	-12.45107	0.33996	-12.89706	0.53522
1678.000	-12.42656	0.30502	-12.88391	0.47513
1679.000	-12.47180	0.33216	-12.86512	0.51007
1680.000	-12.42467	0.27394	-12.89330	0.57595
1681.000	-12.46426	0.28944	-12.91772	0.54681
1682.000	-12.47934	0.29331	-12.84445	0.52175
1683.000	-12.44353	0.28557	-12.89706	0.56236
1684.000	-12.46238	0.27973	-12.92148	0.41883
1685.000	-12.46238	0.27390	-12.81438	0.44810
1686.000	-12.42467	0.27394	-12.87264	0.43055
1687.000	-12.44541	0.25061	-12.85573	0.44415
1688.000	-12.43599	0.27976	-12.86136	0.46935
1689.000	-12.44353	0.31666	-12.82378	0.49852
1690.000	-12.49442	0.30300	-12.84069	0.49849
1691.000	-12.49065	0.26998	-12.92148	0.50220
1692.000	-12.40770	0.30116	-12.81814	0.48495
1693.000	-12.50761	0.31269	-12.82754	0.44808
1694.000	-12.48500	0.28941	-12.98156	0.45362
1695.000	-12.43787	0.31666	-12.89330	0.47705
1696.000	-12.43599	0.28753	-12.87639	0.50035
1697.000	-12.46238	0.25836	-12.88579	0.45573
1698.000	-12.37753	0.28370	-12.87827	0.48290
1699.000	-12.35112	0.27013	-12.77114	0.43848
1700.000	-12.20577	0.24889	-12.72412	0.43080
1701.000	-12.14344	0.30340	-12.51515	0.48747
1702.000	-11.92218	0.32117	-12.35678	0.60630
1703.000	-11.64747	0.28447	-12.08863	0.60692
1704.000	-11.33611	0.26918	-11.76500	0.57064
1705.000	-10.92881	0.23635	-11.37412	0.52853
1706.000	-10.47642	0.32669	-10.86781	0.54704
1707.000	-9.84240	0.34498	-10.38081	0.56747
1708.000	-9.28683	0.40445	-9.90764	0.53500
1709.000	-8.83568	0.37154	-9.43503	0.55341
1710.000	-8.32731	0.31298	-8.80866	0.51310
1711.000	-7.83702	0.39022	-8.27505	0.45083
1712.000	-7.47388	0.35900	-7.84672	0.46510
1713.000	-6.92708	0.38708	-7.34363	0.35318
1714.000	-6.54687	0.35576	-6.81600	0.24890
1715.000	-6.07031	0.26113	-6.50589	0.19371
1716.000	-5.74365	0.18805	-6.01557	0.03363
1717.000	-5.39310	0.13666	-5.51652	-0.05743
1718.000	-5.03822	0.05549	-5.15590	-0.17832
1719.000	-4.76935	-0.00595	-4.87142	-0.34689
1720.000	-4.51598	-0.08726	-4.56117	-0.37877
1721.000	-4.25458	-0.10713	-4.33715	-0.42451
1722.000	-4.07956	-0.22622	-4.17986	-0.58133
1723.000	-3.94381	-0.26794	-3.98906	-0.55568
1724.000	-3.85526	-0.32553	-3.90052	-0.73832
1725.000	-3.80212	-0.30570	-3.93004	-0.73630
1726.000	-3.78834	-0.37121	-3.85723	-0.73041
1727.000	-3.78637	-0.34143	-3.93988	-0.80773
1728.000	-3.80605	-0.41685	-4.08546	-0.75402
1729.000	-3.67810	-0.42485	-4.16610	-0.74601
1730.000	-3.60721	-0.36533	-4.14446	-0.72421
1731.000	-3.58949	-0.34746	-4.18969	-0.70036
1732.000	-3.45950	-0.24822	-4.23689	-0.55749
1733.000	-3.36888	-0.20257	-4.14446	-0.50001
1734.000	-3.35312	-0.13902	-4.11889	-0.53971
1735.000	-3.32947	-0.16484	-4.11889	-0.46828
1736.000	-3.30189	-0.19067	-4.00480	-0.41675
1737.000	-3.27627	-0.13109	-3.95758	-0.41678
1738.000	-3.24868	-0.09733	-3.97726	-0.31754
1739.000	-3.29204	-0.08739	-3.90642	-0.32948
1740.000	-3.29795	-0.08342	-3.88478	-0.34933
1741.000	-3.28218	-0.09931	-3.83754	-0.34737
1742.000	-3.38858	-0.20455	-3.83164	-0.42875
1743.000	-3.36888	-0.13306	-3.79424	-0.46450
1744.000	-3.42995	-0.13305	-3.79621	-0.35334
1745.000	-3.41025	-0.17277	-3.78243	-0.41091
1746.000	-3.43192	-0.18071	-3.75487	-0.40100
1747.000	-3.31962	-0.12711	-3.73519	-0.52408
1748.000	-3.30189	-0.17478	-3.75291	-0.49231
1749.000	-3.27430	-0.12116	-3.69188	-0.50823
1750.000	-3.17971	-0.17083	-3.62099	-0.46260
1751.000	-3.11860	-0.20858	-3.61903	-0.47253
1752.000	-3.04369	-0.22051	-3.54025	-0.45867
1753.000	-2.92540	-0.24438	-3.38661	-0.48059
1754.000	-2.87807	-0.19472	-3.41616	-0.45476
1755.000	-2.82877	-0.20665	-3.30780	-0.44885
1756.000	-2.75185	-0.18679	-3.31568	-0.50247
1757.000	-2.71240	-0.19077	-3.36888	-0.51237
1758.000	-2.73212	-0.20070	-3.27233	-0.42901
1759.000	-2.69070	-0.22853	-3.30977	-0.55808
1760.000	-2.64533	-0.23450	-3.37282	-0.54017
1761.000	-2.63941	-0.22059	-3.31765	-0.54020
1762.000	-2.64533	-0.22059	-3.34721	-0.56998
1763.000	-2.67097	-0.21264	-3.43192	-0.56993
1764.000	-2.67294	-0.21264	-3.31765	-0.55212
1765.000	-2.66308	-0.25040	-3.49101	-0.55798
1766.000	-2.66308	-0.16693	-3.38661	-0.52229
1767.000	-2.65716	-0.24444	-3.41813	-0.58979
1768.000	-2.66308	-0.19873	-3.41813	-0.57391
1769.000	-2.72818	-0.18282	-3.47723	-0.46268
1770.000	-2.69464	-0.20071	-3.44768	-0.49248
1771.000	-2.65322	-0.17886	-3.45556	-0.49843
1772.000	-2.72818	-0.20269	-3.44177	-0.52822
1773.000	-2.71042	-0.22853	-3.48708	-0.54607
1774.000	-2.70253	-0.18084	-3.45556	-0.56793
1775.000	-2.68873	-0.15302	-3.44965	-0.50439
1776.000	-2.72029	-0.23250	-3.44374	-0.56595
1777.000	-2.71831	-0.19474	-3.46147	-0.54211
1778.000	-2.75776	-0.22454	-3.42207	-0.49845
1779.000	-2.67886	-0.18680	-3.48708	-0.51231
1780.000	-2.74396	-0.21660	-3.47329	-0.52225
1781.000	-2.75382	-0.21064	-3.47920	-0.47657
1782.000	-2.72029	-0.22853	-3.50480	-0.44479
1783.000	-2.73804	-0.23448	-3.50283	-0.40111
1784.000	-2.74198	-0.19872	-3.42798	-0.46667
1785.000	-2.71042	-0.21064	-3.44768	-0.38525
1786.000	-2.74790	-0.21660	-3.46147	-0.44481
1787.000	-2.72818	-0.22058	-3.52253	-0.55597
1788.000	-2.72423	-0.14904	-3.48314	-0.43090
1789.000	-2.79721	-0.20467	-3.45556	-0.41900
1790.000	-2.78932	-0.19275	-3.50677	-0.42096
1791.000	-2.71240	-0.21064	-3.44177	-0.43688
1792.000	-2.75776	-0.18679	-3.50086	-0.50436
1793.000	-2.78538	-0.20069	-3.44768	-0.43489
1794.000	-2.73212	-0.20468	-3.47723	-0.48253
1795.000	-2.76368	-0.20467	-3.44768	-0.43290
1796.000	-2.76171	-0.17884	-3.45753	-0.43886
1797.000	-2.70253	-0.12917	-3.51071	-0.45670
1798.000	-2.74198	-0.19077	-3.44965	-0.44283
1799.000	-2.73409	-0.20269	-3.42601	-0.48256
1800.000	-2.72423	-0.19276	-3.44965	-0.51630
1801.000	-2.71437	-0.18878	-3.50677	-0.58179
1802.000	-2.71634	-0.23051	-3.52647	-0.47854
1803.000	-2.70451	-0.18481	-3.47920	-0.43488
1804.000	-2.70253	-0.19872	-3.42404	-0.51433
1805.000	-2.70648	-0.18084	-3.45753	-0.38326
1806.000	-2.69662	-0.20667	-3.45950	-0.43687
1807.000	-2.67689	-0.22456	-3.48904	-0.44281
1808.000	-2.68083	-0.23251	-3.37085	-0.48060
1809.000	-2.66703	-0.19078	-3.46738	-0.46268
1810.000	-2.68675	-0.18680	-3.39646	-0.41505
1811.000	-2.68873	-0.24046	-3.44768	-0.46468
1812.000	-2.68083	-0.19674	-3.42010	-0.48455
1813.000	-2.66308	-0.21264	-3.47920	-0.43488
1814.000	-2.71042	-0.23052	-3.42995	-0.40313
1815.000	-2.68675	-0.27225	-3.35115	-0.43096
1816.000	-2.68873	-0.26629	-3.49495	-0.45472
1817.000	-2.68478	-0.24046	-3.55207	-0.47852
1818.000	-2.66505	-0.28617	-3.45556	-0.48254
1819.000	-2.68083	-0.25238	-3.42601	-0.44086
1820.000	-2.65913	-0.25040	-3.41222	-0.43689
1821.000	-2.71437	-0.25039	-3.40631	-0.51831
1822.000	-2.68281	-0.21661	-3.44965	-0.49446
1823.000	-2.67097	-0.26431	-3.46147	-0.43885
1824.000	-2.66900	-0.23450	-3.52844	-0.49243
1825.000	-2.67689	-0.25636	-3.40434	-0.45675
1826.000	-2.66111	-0.26630	-3.47920	-0.42892
1827.000	-2.66505	-0.21661	-3.40237	-0.39321
1828.000	-2.69662	-0.26033	-3.34327	-0.43295
1829.000	-2.70845	-0.21462	-3.39843	-0.41108
1830.000	-2.64533	-0.22854	-3.37676	-0.46471
1831.000	-2.65519	-0.20867	-3.44374	-0.44085
1832.000	-2.70056	-0.19077	-3.34130	-0.47466
1833.000	-2.69070	-0.26231	-3.39055	-0.42300
1834.000	-2.70056	-0.31994	-3.41813	-0.49249
1835.000	-2.70648	-0.21263	-3.53041	-0.36139
1836.000	-2.69464	-0.24840	-3.40237	-0.39321
1837.000	-2.67097	-0.23847	-3.40237	-0.39122
1838.000	-2.66505	-0.25040	-3.34918	-0.41507
1839.000	-2.68281	-0.25039	-3.40631	-0.45079
1840.000	-2.70648	-0.25635	-3.36888	-0.44287
1841.000	-2.66703	-0.22655	-3.44177	-0.48851
1842.000	-2.65322	-0.27822	-3.33736	-0.39721
1843.000	-2.68873	-0.25039	-3.31962	-0.39920
1844.000	-2.67689	-0.24443	-3.42798	-0.37731
1845.000	-2.65124	-0.26431	-3.34524	-0.36146
1846.000	-2.65913	-0.26033	-3.33144	-0.35153
1847.000	-2.70253	-0.25039	-3.35903	-0.41308
1848.000	-2.70056	-0.26827	-3.33538	-0.41707
1849.000	-2.68873	-0.28020	-3.37282	-0.38130
1850.000	-2.73409	-0.25833	-3.41616	-0.43888
1851.000	-2.69464	-0.26828	-3.40237	-0.43690
1852.000	-2.65519	-0.28617	-3.35509	-0.35748
1853.000	-2.66900	-0.23648	-3.37479	-0.43691
1854.000	-2.67689	-0.26629	-3.36100	-0.39521
1855.000	-2.68083	-0.25635	-3.31765	-0.42105
1856.000	-2.69859	-0.31597	-3.35509	-0.36542
1857.000	-2.73804	-0.28615	-3.45556	-0.46666
1858.000	-2.67886	-0.29610	-3.35115	-0.43096
1859.000	-2.64138	-0.25040	-3.40434	-0.45675
1860.000	-2.70253	-0.30007	-3.42798	-0.39121
1861.000	-2.73015	-0.25833	-3.45556	-0.43886
1862.000	-2.74001	-0.29410	-3.39055	-0.34357
1863.000	-2.72620	-0.25237	-3.38661	-0.40116
1864.000	-2.65322	-0.27623	-3.31568	-0.35551
1865.000	-2.60981	-0.28817	-3.25657	-0.41313
1866.000	-2.50722	-0.26831	-3.09101	-0.39134
1867.000	-2.33750	-0.30214	-2.82680	-0.37157
1868.000	-2.09469	-0.29623	-2.59600	-0.26830
1869.000	-1.77478	-0.26049	-2.20722	-0.29024
1870.000	-1.38956	-0.23071	-1.85378	-0.23662
1871.000	-0.89551	-0.28047	-1.33819	-0.21281
1872.000	-0.38353	-0.30636	-0.75715	-0.22280
1873.000	0.13839	-0.35411	-0.27876	-0.33024
1874.000	0.77296	-0.39387	0.39935	-0.41776
1875.000	1.27298	-0.51711	1.05560	-0.55693
1876.000	1.96437	-0.55869	1.58120	-0.62840
1877.000	2.53089	-0.64392	2.17563	-0.71962
1878.000	3.05158	-0.80651	2.75382	-0.84447
1879.000	3.57767	-0.89144	3.17576	-0.97522
1880.000	3.97529	-1.13309	3.72731	-1.20486
1881.000	4.43935	-1.25930	4.18183	-1.38863
1882.000	4.85965	-1.49430	4.59064	-1.61180
1883.000	5.19512	-1.65786	5.10295	-1.89763
1884.000	5.51456	-1.80141	5.37546	-2.08672
1885.000	5.76126	-1.96872	5.77887	-2.36988
1886.000	6.07813	-2.11379	5.99992	-2.44202
1887.000	6.38876	-2.28035	6.30674	-2.66756
1888.000	6.73997	-2.35172	6.54687	-2.68602
1889.000	7.09846	-2.46621	6.82965	-2.76724
1890.000	7.43890	-2.53720	7.11209	-2.81088
1891.000	7.76134	-2.58448	7.42529	-2.88173
1892.000	8.10654	-2.60786	7.65650	-2.94706
1893.000	8.51303	-2.68959	7.93401	-2.93529
1894.000	8.89552	-2.69077	8.30215	-2.93849
1895.000	9.20401	-2.70218	8.66573	-2.94356
1896.000	9.60617	-2.67947	8.91095	-2.82007
1897.000	9.95176	-2.67278	9.19630	-2.85506
1898.000	10.28131	-2.59972	9.48696	-2.73327
1899.000	10.64646	-2.65520	9.72721	-2.70981
1900.000	10.91737	-2.53780	9.97094	-2.62765
1901.000	11.18779	-2.46923	10.45348	-2.53386
1902.000	11.53744	-2.44092	10.66556	-2.39747
1903.000	11.83320	-2.33335	11.01074	-2.31673
1904.000	12.09619	-2.18930	11.14973	-2.14607
1905.000	12.37187	-2.20449	11.26007	-2.04978
1906.000	12.68837	-2.12620	11.62092	-1.97321
1907.000	12.93275	-2.05249	11.85781	-1.83732
1908.000	13.12790	-2.03927	12.21144	-1.84074
1909.000	13.33772	-1.93504	12.32659	-1.77586
1910.000	13.46120	-1.87414	12.38319	-1.70947
1911.000	13.58268	-1.86932	12.39450	-1.68027
1912.000	13.65924	-1.82623	12.39827	-1.77343
1913.000	13.70590	-1.88765	12.55847	-1.76263
1914.000	13.62563	-1.87670	12.37753	-1.80269
1915.000	13.50420	-1.88153	12.43410	-1.86829
1916.000	13.35083	-1.90400	12.38507	-1.91522
1917.000	13.14853	-1.97911	12.26053	-2.05399
1918.000	12.96655	-1.97670	12.07350	-2.09624
1919.000	12.73728	-2.01726	12.02245	-2.18213
1920.000	12.55471	-2.10210	11.85403	-2.08044
1921.000	12.38507	-2.14422	11.82373	-2.33732
1922.000	12.26431	-2.21315	11.78963	-2.25789
1923.000	12.21333	-2.23882	11.84267	-2.36243
1924.000	12.15288	-2.24515	11.83698	-2.35859
1925.000	12.16044	-2.33829	11.80668	-2.38996
1926.000	12.20955	-2.39221	11.88811	-2.38341
1927.000	12.23788	-2.40554	11.89757	-2.37944
1928.000	12.35301	-2.49178	11.97895	-2.39622
1929.000	12.49065	-2.52342	12.12454	-2.34443
1930.000	12.61120	-2.48930	12.20766	-2.29129
1931.000	12.81626	-2.52795	12.26053	-2.37622
1932.000	12.95716	-2.52460	12.26242	-2.26558
1933.000	13.10728	-2.51340	12.38507	-2.27422
1934.000	13.24410	-2.46367	12.49065	-2.29269
1935.000	13.33960	-2.47043	12.46992	-2.16486
1936.000	13.39012	-2.50662	12.46238	-2.26773
1937.000	13.39948	-2.44471	12.51138	-2.21882
1938.000	13.46307	-2.44213	12.44918	-2.19801
1939.000	13.43128	-2.41155	12.40393	-2.19839
1940.000	13.44998	-2.42102	12.36244	-2.23755
1941.000	13.39761	-2.35200	12.48876	-2.27719
1942.000	13.36580	-2.40448	12.41902	-2.22737
1943.000	13.38638	-2.35017	12.45484	-2.25228
1944.000	13.33398	-2.27338	12.31904	-2.22240
1945.000	13.30028	-2.26016	12.27186	-2.22668
1946.000	13.27594	-2.25072	12.37941	-2.16173
1947.000	13.27781	-2.24684	12.41336	-2.22936
1948.000	13.25534	-2.26058	12.36998	-2.19480
1949.000	13.21600	-2.20873	12.27375	-2.11990
1950.000	13.21225	-2.20877	12.19633	-2.19042
1951.000	13.22536	-2.22992	12.35489	-2.13089
1952.000	13.19913	-2.20308	12.28319	-2.26540
1953.000	13.21600	-2.19906	12.25298	-2.11618
1954.000	13.20288	-2.22239	12.25298	-2.12977
1955.000	13.19164	-2.22443	12.28130	-2.15672
1956.000	13.18601	-2.24382	12.26431	-2.08891
1957.000	13.09790	-2.25430	12.17555	-2.07990
1958.000	13.08289	-2.22541	12.19255	-2.18074
1959.000	13.08289	-2.21187	12.20011	-2.23311
1960.000	13.10352	-2.20975	12.20200	-2.16513
1961.000	13.09040	-2.21760	12.14155	-2.22389
1962.000	13.09040	-2.24082	12.07161	-2.19145
1963.000	13.04350	-2.23351	12.22088	-2.16110
1964.000	13.09602	-2.22142	12.15855	-2.19073
1965.000	13.07914	-2.19835	12.13777	-2.16954
1966.000	13.04537	-2.19285	12.14721	-2.19277
1967.000	13.07164	-2.26808	12.21522	-2.21551
1968.000	13.05851	-2.22176	12.12076	-2.16968
1969.000	13.09602	-2.22529	12.25676	-2.12974
1970.000	13.07351	-2.26032	12.19633	-2.20790
1971.000	13.07914	-2.24092	12.18311	-2.14975
1972.000	13.08102	-2.26025	12.12454	-2.20849
1973.000	13.09790	-2.20399	12.02623	-2.21707
1974.000	13.09977	-2.22913	12.12643	-2.16963
1975.000	13.11103	-2.24063	12.12832	-2.16573
1976.000	13.13915	-2.23457	12.14344	-2.09957
1977.000	13.12040	-2.24055	12.28130	-2.23824
1978.000	13.13915	-2.22297	12.13399	-2.23949
1979.000	13.12790	-2.25596	12.13966	-2.21614
1980.000	13.15227	-2.27121	12.17744	-2.28184
1981.000	13.09227	-2.26982	12.23788	-2.28132
1982.000	13.12603	-2.33528	12.14910	-2.21023
1983.000	13.15040	-2.31377	12.15855	-2.18491
1984.000	13.11103	-2.32962	12.14910	-2.22188
1985.000	13.14290	-2.28290	12.16422	-2.30331
1986.000	13.15415	-2.29246	12.20577	-2.20976
1987.000	13.18414	-2.33086	12.12076	-2.24931
1988.000	13.15602	-2.28664	12.25865	-2.23455
1989.000	13.15602	-2.27504	12.17366	-2.24498
1990.000	13.17664	-2.29999	12.07918	-2.24772
1991.000	13.14290	-2.28870	12.08485	-2.19328
1992.000	13.18227	-2.34055	12.09619	-2.21261
1993.000	13.19913	-2.32492	12.14910	-2.32480
1994.000	13.23660	-2.35356	12.15288	-2.20632
1995.000	13.19913	-2.34619	12.18311	-2.19441
1996.000	13.15415	-2.34082	12.10375	-2.20090
1997.000	13.22349	-2.31115	12.20766	-2.17480
1998.000	13.20288	-2.37515	12.17177	-2.23140
1999.000	13.20850	-2.40410	12.15477	-2.17523
2000.000	13.17477	-2.35609	12.15288	-2.19855
2001.000	13.19351	-2.35784	12.20955	-2.18449
2002.000	13.18039	-2.38117	12.33414	-2.23779
2003.000	13.18414	-2.34440	12.19633	-2.25061
2004.000	13.17289	-2.33677	12.20577	-2.24471
2005.000	13.17852	-2.37926	12.18122	-2.24492
2006.000	13.19726	-2.36554	12.25109	-2.18415
2007.000	13.16165	-2.36975	12.18311	-2.22937
2008.000	13.19164	-2.37333	12.23788	-2.23667
2009.000	13.16915	-2.35228	12.10942	-2.20085
2010.000	13.16165	-2.35235	12.25676	-2.24622
2011.000	13.14103	-2.36995	12.23599	-2.17650
2012.000	13.18789	-2.35983	12.26053	-2.25201
2013.000	13.21412	-2.35958	12.19822	-2.20400
2014.000	13.18414	-2.35020	12.13966	-2.16564
2015.000	13.16540	-2.33491	12.19066	-2.17882
2016.000	13.15227	-2.34470	12.16800	-2.19260
2017.000	13.19164	-2.32112	12.09619	-2.17959
2018.000	13.16165	-2.32527	12.23032	-2.19791
2019.000	13.21225	-2.32673	12.15099	-2.21993
2020.000	13.16352	-2.32719	12.23410	-2.20370
2021.000	13.17477	-2.35609	12.22088	-2.23099
2022.000	13.14665	-2.31188	12.13777	-2.18119
2023.000	13.18601	-2.34245	12.16422	-2.18292
2024.000	13.16915	-2.32907	12.27186	-2.24026
2025.000	13.14103	-2.35641	12.24921	-2.24822
2026.000	13.13540	-2.34293	12.34923	-2.28423
2027.000	13.13353	-2.34101	12.17744	-2.27213
2028.000	13.11290	-2.36442	12.18122	-2.25851
2029.000	13.12790	-2.41456	12.24921	-2.22687
2030.000	13.14478	-2.36992	12.23221	-2.30660
2031.000	13.12978	-2.37780	12.18689	-2.23322
2032.000	13.15227	-2.37951	12.23221	-2.20372
2033.000	13.14103	-2.34288	12.33414	-2.22615
2034.000	13.13353	-2.39517	12.28885	-2.31193
2035.000	13.12790	-2.40102	12.36055	-2.27637
2036.000	13.18039	-2.41598	12.31150	-2.28068
2037.000	13.18039	-2.37924	12.30017	-2.22644
2038.000	13.15977	-2.42585	12.42090	-2.29913
2039.000	13.16727	-2.39677	12.29451	-2.26142
2040.000	13.17102	-2.37353	12.31338	-2.28843
2041.000	13.18976	-2.43135	12.35866	-2.23952
2042.000	13.18789	-2.41397	12.26242	-2.30246
2043.000	13.15602	-2.39108	12.31716	-2.23600
2044.000	13.16352	-2.34266	12.32093	-2.19133
2045.000	13.18039	-2.37537	12.33980	-2.25909
2046.000	13.12790	-2.36814	12.25865	-2.28696
2047.000	13.18789	-2.37917	12.26620	-2.24808
2048.000	13.15040	-2.37373	12.22655	-2.26977
2049.000	13.17102	-2.40060	12.29074	-2.21099
2050.000	13.17477	-2.35996	12.25109	-2.24432
2051.000	13.12790	-2.39716	12.31527	-2.25930
2052.000	13.16727	-2.42964	12.19444	-2.27393
2053.000	13.18789	-2.39270	12.30583	-2.26521
2054.000	13.16352	-2.42581	12.28319	-2.26928
2055.000	13.18039	-2.39084	12.34923	-2.24737
2056.000	13.17664	-2.38895	12.28507	-2.29644
2057.000	13.18789	-2.43911	12.25487	-2.31805
2058.000	13.19538	-2.39650	12.25109	-2.27926
2059.000	13.17852	-2.44500	12.29640	-2.26140
2060.000	13.17852	-2.41600	12.26431	-2.20927
2061.000	13.14290	-2.43375	12.31904	-2.26703
2062.000	13.16352	-2.42388	12.36244	-2.23755
2063.000	13.15790	-2.40653	12.18878	-2.28951
2064.000	13.17664	-2.44695	12.31338	-2.27678
2065.000	13.15227	-2.40659	12.29262	-2.25756
2066.000	13.15790	-2.42394	12.33037	-2.20289
2067.000	13.17102	-2.42767	12.35866	-2.28027
2068.000	13.18976	-2.43329	12.29074	-2.30415
2069.000	13.19351	-2.40038	12.30772	-2.25160
2070.000	13.18227	-2.38696	12.36810	-2.29959
2071.000	13.17289	-2.41799	12.28696	-2.27119
2072.000	13.15790	-2.40653	12.37564	-2.25878
2073.000	13.18789	-2.42944	12.26053	-2.31606
2074.000	13.16915	-2.45283	12.24732	-2.28124
2075.000	13.17102	-2.43347	12.42656	-2.27968
2076.000	13.17852	-2.45080	12.34357	-2.28040
2077.000	13.16915	-2.43736	12.29829	-2.25751
2078.000	13.18227	-2.46430	12.33603	-2.27853
2079.000	13.16727	-2.45091	12.35301	-2.29196
2080.000	13.17289	-2.40445	12.19444	-2.25839
2081.000	13.17852	-2.41793	12.35301	-2.23375
2082.000	13.19351	-2.46225	12.39639	-2.25472
2083.000	13.18601	-2.43913	12.29074	-2.27698
2084.000	13.18789	-2.47391	12.27375	-2.21890
2085.000	13.21600	-2.46203	12.28885	-2.27506
2086.000	13.21600	-2.44076	12.28696	-2.28478
2087.000	13.21412	-2.42918	12.34169	-2.26684
2088.000	13.16540	-2.45867	12.30017	-2.20703
2089.000	13.15040	-2.42594	12.38130	-2.22187
2090.000	13.17477	-2.41217	12.30395	-2.25358
2091.000	13.16165	-2.41616	12.22277	-2.21350
2092.000	13.15602	-2.41235	12.33037	-2.25335
2093.000	13.16915	-2.38708	12.28885	-2.19160
2094.000	13.16165	-2.45290	12.32848	-2.21261
2095.000	13.16165	-2.44904	12.22844	-2.16686
2096.000	13.21225	-2.44080	12.25298	-2.18219
2097.000	13.15227	-2.44333	12.32470	-2.19130
2098.000	13.19538	-2.42937	12.32282	-2.25730
2099.000	13.21412	-2.46204	12.29074	-2.19740
2100.000	13.18039	-2.44498	12.35112	-2.21242
2101.000	13.17852	-2.43533	12.22466	-2.19990
2102.000	13.18601	-2.45459	12.22844	-2.29305
2103.000	13.14478	-2.41246	12.25676	-2.23263
2104.000	13.18601	-2.41206	12.28130	-2.20913
2105.000	13.17852	-2.42180	12.22844	-2.15715
2106.000	13.16915	-2.43929	12.26242	-2.25199
2107.000	13.14665	-2.43952	12.29640	-2.29052
2108.000	13.16915	-2.43736	12.28507	-2.30614
2109.000	13.15790	-2.42780	12.26431	-2.26168
2110.000	13.15602	-2.43362	12.28319	-2.20717
2111.000	13.15977	-2.42198	12.20577	-2.14957
2112.000	13.14665	-2.39891	12.21333	-2.18834
2113.000	13.17102	-2.42381	12.26431	-2.21121
2114.000	13.16352	-2.41228	12.23410	-2.21341
2115.000	13.15227	-2.42399	12.19066	-2.19435
2116.000	13.18227	-2.40436	12.25676	-2.16857
2117.000	13.16352	-2.41421	12.26053	-2.18018
2118.000	13.16540	-2.42580	12.20011	-2.17292
2119.000	13.16352	-2.41808	12.29451	-2.21096
2120.000	13.20101	-2.43318	12.28507	-2.22268
2121.000	13.17289	-2.40445	12.25298	-2.19578
2122.000	13.17102	-2.39480	12.38884	-2.17524
2123.000	13.16165	-2.45290	12.20955	-2.13012
2124.000	13.18601	-2.44299	12.27375	-2.23443
2125.000	13.15602	-2.45683	12.33037	-2.22812
2126.000	13.16352	-2.44322	12.33225	-2.16795
2127.000	13.11665	-2.45142	12.34546	-2.29397
2128.000	13.13353	-2.40484	12.34169	-2.26878
2129.000	13.14478	-2.42213	12.32282	-2.24565
2130.000	13.15415	-2.46265	12.23410	-2.15905
2131.000	13.15040	-2.46268	12.26620	-2.23837
2132.000	13.13353	-2.42418	12.28319	-2.20523
2133.000	13.14478	-2.43180	12.29829	-2.18181
2134.000	13.15040	-2.42981	12.32093	-2.22238
2135.000	13.13353	-2.41451	12.39450	-2.23340
2136.000	13.14290	-2.43955	12.44164	-2.24269
2137.000	13.16540	-2.45480	12.22088	-2.20769
2138.000	13.15227	-2.46653	12.37941	-2.33247
2139.000	13.13353	-2.38936	12.30017	-2.30601
2140.000	13.17289	-2.38511	12.26620	-2.15102
2141.000	13.18976	-2.38108	12.25109	-2.26762
2142.000	13.16352	-2.38714	12.29262	-2.20709
2143.000	13.13915	-2.40672	12.33980	-2.21446
2144.000	13.15602	-2.43942	12.29262	-2.29637
2145.000	13.18039	-2.42758	12.33791	-2.23582
2146.000	13.15602	-2.38334	12.34923	-2.26677
2147.000	13.14103	-2.39896	12.44730	-2.29113
2148.000	13.13915	-2.37964	12.34357	-2.20278
2149.000	13.12228	-2.42235	12.32659	-2.30384
2150.000	13.15790	-2.43360	12.47557	-2.28119
2151.000	13.12790	-2.37201	12.40582	-2.23330
2152.000	13.11290	-2.41278	12.36998	-2.27435
2153.000	13.13540	-2.44930	12.32470	-2.24370
2154.000	13.11853	-2.38371	12.27375	-2.31788
2155.000	13.11853	-2.40112	12.37376	-2.22193
2156.000	13.14290	-2.41828	12.40393	-2.27212
2157.000	13.12978	-2.34492	12.22277	-2.21544
2158.000	13.13165	-2.35844	12.22277	-2.25621
2159.000	13.14290	-2.39314	12.38319	-2.23931
2160.000	13.13728	-2.36999	12.39639	-2.35754
2161.000	13.10728	-2.38188	12.38696	-2.14615
2162.000	13.14290	-2.40281	12.43976	-2.28150
2163.000	13.16727	-2.42964	12.28885	-2.21295
2164.000	13.15977	-2.41812	12.33037	-2.31156
2165.000	13.15790	-2.42974	12.41525	-2.27978
2166.000	13.17477	-2.37929	12.36244	-2.25307
2167.000	13.15227	-2.35824	12.40016	-2.30901
2168.000	13.12790	-2.35461	12.43222	-2.23501
2169.000	13.10540	-2.30839	12.31716	-2.24376
2170.000	13.10352	-2.29874	12.42279	-2.21182
2171.000	13.01160	-2.21057	12.26808	-2.25194
2172.000	12.91397	-2.16109	12.24732	-2.07157
2173.000	12.85385	-2.15386	12.15099	-2.09757
2174.000	12.75233	-2.04428	12.02245	-1.97809
2175.000	12.64885	-1.88806	11.89947	-1.84676
2176.000	12.54906	-1.72778	11.73468	-1.69025
2177.000	12.43787	-1.58488	11.53554	-1.52006
2178.000	12.31716	-1.39720	11.50707	-1.32929
2179.000	12.21144	-1.23257	11.40262	-1.24011
2180.000	12.09619	-1.06199	11.35702	-1.04924
2181.000	12.03947	-0.91439	11.18018	-1.03428
2182.000	12.01110	-0.79581	11.15544	-0.85680
2183.000	11.95624	-0.74344	11.24485	-0.81166
2184.000	11.99408	-0.66161	11.31901	-0.72369
2185.000	12.00732	-0.63240	11.25817	-0.64971
2186.000	12.05460	-0.65368	11.32091	-0.65152
2187.000	12.07729	-0.65557	11.31901	-0.70223
2188.000	12.15099	-0.74290	11.46720	-0.71941
2189.000	12.25298	-0.85535	11.46150	-0.77596
2190.000	12.30395	-0.93291	11.51466	-0.81869
2191.000	12.32659	-1.02610	11.57918	-0.91398
2192.000	12.37753	-1.10943	11.62471	-1.05604
2193.000	12.43599	-1.18491	11.75553	-1.17041
2194.000	12.45861	-1.31684	11.73657	-1.12766
2195.000	12.45484	-1.38870	11.74416	-1.27559
2196.000	12.48688	-1.45647	11.64558	-1.28578
2197.000	12.46049	-1.49156	11.62282	-1.40274
2198.000	12.40959	-1.48409	11.62851	-1.50592
2199.000	12.42844	-1.48592	11.76879	-1.42536
2200.000	12.40393	-1.52295	11.72331	-1.47426
2201.000	12.38884	-1.50556	11.66075	-1.56221
2202.000	12.39450	-1.49971	11.66075	-1.44150
2203.000	12.37564	-1.44544	11.63989	-1.49418
2204.000	12.38884	-1.44148	11.60195	-1.34442
2205.000	12.36055	-1.36784	11.61523	-1.33267
2206.000	12.36998	-1.31341	11.64178	-1.30333
2207.000	12.34169	-1.31549	11.67781	-1.30900
2208.000	12.36998	-1.28233	11.63609	-1.20013
2209.000	12.36244	-1.21827	11.60574	-1.24312
2210.000	12.35678	-1.20081	11.61902	-1.22942
2211.000	12.34357	-1.24361	11.56211	-1.22578
2212.000	12.35866	-1.19692	11.57729	-1.25298
2213.000	12.34923	-1.21056	11.64178	-1.18453
2214.000	12.35112	-1.21444	11.60385	-1.21975
2215.000	12.28696	-1.16033	11.57539	-1.15948
2216.000	12.27752	-1.14677	11.61143	-1.10089
2217.000	12.26808	-1.15458	11.52605	-1.11682
2218.000	12.20766	-1.13152	11.58298	-1.15945
2219.000	12.26620	-1.10990	11.49757	-1.13837
2220.000	12.27941	-1.10012	11.55831	-1.18293
2221.000	12.26620	-1.10212	11.60574	-1.18273
2222.000	12.26620	-1.12739	11.60005	-1.18081
2223.000	12.27752	-1.08264	11.57729	-1.14194
2224.000	12.29640	-1.10588	11.58298	-1.06594
2225.000	12.29262	-1.09230	11.52605	-1.16358
2226.000	12.27186	-1.04769	11.44251	-1.12105
2227.000	12.27564	-1.03018	11.46909	-1.30023
2228.000	12.28507	-1.10010	11.50517	-1.19680
2229.000	12.31150	-1.07279	11.62471	-1.14759
2230.000	12.28696	-1.04763	11.61143	-1.29373
2231.000	12.29829	-1.09227	11.53744	-1.24147
2232.000	12.31338	-1.12136	11.55831	-1.24527
2233.000	12.29640	-1.06119	11.56400	-1.16732
2234.000	12.29640	-1.11366	11.61713	-1.09308
2235.000	12.28130	-1.08846	11.49757	-1.15396
2236.000	12.25109	-1.02445	11.61333	-1.18465
2237.000	12.29262	-1.09813	11.60385	-1.25676
2238.000	12.27375	-1.08072	11.71762	-1.29908
2239.000	12.31150	-1.12719	11.60954	-1.27037
2240.000	12.31150	-1.10193	11.62471	-1.20992
2241.000	12.33225	-1.08436	11.55831	-1.15955
2242.000	12.33980	-1.06490	11.56021	-1.27059
2243.000	12.30583	-1.09224	11.61713	-1.18853
2244.000	12.32848	-1.07466	11.56021	-1.25501
2245.000	12.33414	-1.13098	11.60195	-1.27040
2246.000	12.30206	-1.09809	11.68919	-1.25443
2247.000	12.32848	-1.09021	11.56780	-1.24328
2248.000	12.31527	-1.09997	11.67402	-1.31681
2249.000	12.30583	-1.13887	11.64558	-1.23710
2250.000	12.32848	-1.06106	11.52795	-1.28048
2251.000	12.32848	-1.10963	11.58677	-1.17502
2252.000	12.31338	-1.11358	11.50517	-1.24746
2253.000	12.30772	-1.13887	11.53744	-1.28823
2254.000	12.32093	-1.08052	11.55072	-1.32129
2255.000	12.30395	-1.10974	11.56970	-1.24133
2256.000	12.31904	-1.10773	11.47669	-1.35476
2257.000	12.33037	-1.06883	11.60764	-1.23726
2258.000	12.29074	-1.07482	11.67971	-1.29536
2259.000	12.32659	-1.09021	11.58108	-1.26660
2260.000	12.31527	-1.08443	11.64747	-1.23514
2261.000	12.33791	-1.15622	11.57729	-1.26857
2262.000	12.36244	-1.09978	11.63040	-1.28780
2263.000	12.34546	-1.10956	11.53933	-1.16548
2264.000	12.30395	-1.10002	11.59246	-1.18084
2265.000	12.33225	-1.05716	11.53364	-1.24928
2266.000	12.32659	-1.11547	11.58108	-1.34841
2267.000	12.32470	-1.10576	11.57729	-1.23155
2268.000	12.32470	-1.12714	11.67592	-1.27396
2269.000	12.29451	-1.12921	11.61143	-1.22946
2270.000	12.31716	-1.14077	11.46340	-1.27688
2271.000	12.30206	-1.12335	11.50137	-1.31373
2272.000	12.35112	-1.13868	11.46530	-1.10147
2273.000	12.30017	-1.09421	11.65126	-1.23123
2274.000	12.33414	-1.18343	11.57539	-1.21793
2275.000	12.29640	-1.17389	11.52225	-1.24738
2276.000	12.33603	-1.13874	11.43111	-1.19126
2277.000	12.33603	-1.15040	11.55831	-1.20436
2278.000	12.37564	-1.16188	11.57729	-1.19454
2279.000	12.32659	-1.14267	11.41212	-1.27906
2280.000	12.35489	-1.15226	11.61333	-1.21581
2281.000	12.35301	-1.18723	11.53933	-1.29017
2282.000	12.34357	-1.22030	11.49568	-1.25919
2283.000	12.31716	-1.21071	11.50707	-1.13053
2284.000	12.32093	-1.21458	11.49757	-1.19683
2285.000	12.34735	-1.19697	11.54693	-1.20051
2286.000	12.35112	-1.18530	11.55072	-1.21024
2287.000	12.31150	-1.13885	11.47289	-1.08779
2288.000	12.32659	-1.17375	11.48998	-1.14424
2289.000	12.32470	-1.18736	11.45010	-1.16195
2290.000	12.33414	-1.20286	11.48618	-1.18324
2291.000	12.34923	-1.17171	11.42731	-1.21857
2292.000	12.29262	-1.17779	11.59057	-1.22370
2293.000	12.35866	-1.22994	11.47669	-1.24564
2294.000	12.34546	-1.18727	11.55072	-1.16348
2295.000	12.33980	-1.21061	11.50137	-1.17927
2296.000	12.34735	-1.19503	11.47289	-1.16965
2297.000	12.31527	-1.16798	11.52605	-1.19671
2298.000	12.36244	-1.19496	11.52984	-1.14603
2299.000	12.34546	-1.14842	11.42541	-1.16595
2300.000	12.34735	-1.18726	11.44251	-1.13664
2301.000	12.35678	-1.15225	11.44821	-1.20873
2302.000	12.35112	-1.15228	11.53364	-1.24149
2303.000	12.35112	-1.11537	11.49757	-1.14226
2304.000	12.35866	-1.19692	11.49568	-1.13058
2305.000	12.32659	-1.17570	11.55641	-1.14397
2306.000	12.36432	-1.17941	11.52225	-1.16750
2307.000	12.36810	-1.16968	11.48618	-1.15205
2308.000	12.37376	-1.18520	11.55072	-1.23752
2309.000	12.34546	-1.19504	11.53554	-1.01545
2310.000	12.35489	-1.17946	11.44061	-1.12300
2311.000	12.40959	-1.22582	11.45770	-1.09565
2312.000	12.37564	-1.18713	11.39122	-1.09980
2313.000	12.40770	-1.21806	11.53364	-1.10120
2314.000	12.38130	-1.19876	11.47479	-1.09363
2315.000	12.38884	-1.22592	11.48808	-1.17348
2316.000	12.37753	-1.22208	11.58108	-1.14972
2317.000	12.36244	-1.18719	11.53364	-1.18304
2318.000	12.35678	-1.16196	11.55072	-1.19465
2319.000	12.36810	-1.20076	11.52605	-1.28244
2320.000	12.38507	-1.19874	11.45390	-1.19701
2321.000	12.37376	-1.19102	11.48808	-1.10917
2322.000	12.41713	-1.17917	11.53554	-1.17134
2323.000	12.37941	-1.20071	11.66454	-1.18443
2324.000	12.42656	-1.19467	11.54313	-1.17131
2325.000	12.38696	-1.14435	11.72141	-1.18419
2326.000	12.41525	-1.21026	11.54882	-1.18102
2327.000	12.41147	-1.19668	11.54123	-1.14404
2328.000	12.39073	-1.22202	11.46530	-1.14434
2329.000	12.40016	-1.22198	11.52415	-1.17918
2330.000	12.39262	-1.16375	11.49757	-1.14616
2331.000	12.39827	-1.24335	11.44061	-1.20487
2332.000	12.40959	-1.13842	11.55262	-1.19854
2333.000	12.41336	-1.17725	11.55452	-1.21412
2334.000	12.37753	-1.19878	11.56590	-1.25888
2335.000	12.40393	-1.19477	11.56780	-1.23354
2336.000	12.42467	-1.20050	11.53174	-1.25124
2337.000	12.37941	-1.20459	11.59626	-1.15550
2338.000	12.40393	-1.19089	11.49947	-1.23969
2339.000	12.40393	-1.13262	11.52415	-1.15385
2340.000	12.41902	-1.19276	11.56211	-1.20240
2341.000	12.42090	-1.11895	11.57349	-1.22378
2342.000	12.41525	-1.16365	11.59436	-1.19836
2343.000	12.39639	-1.18315	11.55262	-1.21997
2344.000	12.40959	-1.14813	11.54313	-1.21027
2345.000	12.43033	-1.14610	11.55452	-1.27841
2346.000	12.44353	-1.22760	11.66643	-1.25063
2347.000	12.41525	-1.16753	11.56970	-1.21211
2348.000	12.39450	-1.18316	11.67971	-1.14542
2349.000	12.39639	-1.16761	11.49757	-1.18903
2350.000	12.40016	-1.21809	11.55452	-1.24140
2351.000	12.39639	-1.21423	11.49568	-1.17150
2352.000	12.43222	-1.17716	11.45960	-1.15411
2353.000	12.39639	-1.19092	11.54882	-1.20440
2354.000	12.40770	-1.20835	11.47859	-1.21055
2355.000	12.43976	-1.18295	11.43111	-1.17567
2356.000	12.39262	-1.19288	11.58488	-1.13606
2357.000	12.40016	-1.19867	11.56211	-1.21409
2358.000	12.38884	-1.14046	11.50896	-1.16560
2359.000	12.39450	-1.17733	11.49947	-1.22800
2360.000	12.37376	-1.16966	11.59816	-1.17302
2361.000	12.40016	-1.13846	11.52415	-1.11683
2362.000	12.41147	-1.09763	11.48239	-1.09360
2363.000	12.41336	-1.18113	11.56400	-1.15563
2364.000	12.41147	-1.16172	11.51656	-1.13634
2365.000	12.39262	-1.18900	11.56970	-1.18094
2366.000	12.40582	-1.16175	11.57539	-1.14390
2367.000	12.43222	-1.20047	11.49378	-1.18905
2368.000	12.42090	-1.18887	11.52984	-1.25125
2369.000	12.43222	-1.21600	11.56211	-1.24526
2370.000	12.43033	-1.16746	11.50896	-1.15976
2371.000	12.39450	-1.16568	11.45960	-1.18724
2372.000	12.42090	-1.18498	11.53744	-1.23952
2373.000	12.43976	-1.16159	11.62092	-1.24694
2374.000	12.38319	-1.17156	11.53744	-1.23757
2375.000	12.43222	-1.22571	11.46150	-1.21842
2376.000	12.44730	-1.17321	11.44441	-1.19900
2377.000	12.42279	-1.15779	11.45580	-1.22234
2378.000	12.43222	-1.13832	11.41212	-1.23812
2379.000	12.43033	-1.21213	11.47669	-1.15014
2380.000	12.45107	-1.21786	11.48808	-1.19687
2381.000	12.42467	-1.17137	11.55072	-1.21219
2382.000	12.40770	-1.12095	11.49757	-1.17539
2383.000	12.43033	-1.15775	11.49757	-1.06236
2384.000	12.43410	-1.16550	11.44441	-1.15028
2385.000	12.42279	-1.21993	11.40452	-1.17578
2386.000	12.46803	-1.23331	11.48239	-1.17156
2387.000	12.43410	-1.15774	11.48239	-1.20079
2388.000	12.43410	-1.15774	11.41212	-1.17770
2389.000	12.39073	-1.19095	11.45960	-1.09954
2390.000	12.43976	-1.15965	11.43111	-1.14838
2391.000	12.37941	-1.15798	11.52035	-1.19089
2392.000	12.40770	-1.18116	11.53554	-1.21615
2393.000	12.41147	-1.20639	11.45580	-1.23014
2394.000	12.42279	-1.16750	11.53174	-1.18694
2395.000	12.41336	-1.18502	11.51086	-1.21626
2396.000	12.38507	-1.19291	11.49947	-1.19487
2397.000	12.40205	-1.14234	11.58867	-1.19254
2398.000	12.38884	-1.17153	11.48618	-1.15400
2399.000	12.40582	-1.18117	11.41402	-1.18744
2400.000	12.39827	-1.17343	11.45010	-1.19118
2401.000	12.41902	-1.21024	11.46530	-1.14629
2402.000	12.38884	-1.21426	11.37412	-1.15056
2403.000	12.40959	-1.15396	11.52035	-1.20647
2404.000	12.43033	-1.15581	11.39312	-1.17193
2405.000	12.42656	-1.16359	11.39692	-1.19141
2406.000	12.43976	-1.17907	11.45770	-1.19115
2407.000	12.42656	-1.14806	11.48049	-1.15208
2408.000	12.42844	-1.15388	11.50517	-1.20654
2409.000	12.40770	-1.19670	11.48808	-1.14815
2410.000	12.39450	-1.17928	11.47289	-1.22811
2411.000	12.41525	-1.17724	11.52225	-1.15970
2412.000	12.40582	-1.14232	11.52984	-1.23956
2413.000	12.37941	-1.23567	11.42351	-1.14256
2414.000	12.37941	-1.19100	11.50327	-1.09352
2415.000	12.36055	-1.19303	11.56590	-1.17316
2416.000	12.38696	-1.17543	11.51656	-1.21623
2417.000	12.40770	-1.19475	11.39312	-1.20897
2418.000	12.41713	-1.19471	11.36082	-1.19546
2419.000	12.39639	-1.19675	11.43111	-1.16592
2420.000	12.42279	-1.19857	11.42541	-1.20883
2421.000	12.39262	-1.21036	11.37032	-1.18177
2422.000	12.38507	-1.18515	11.42921	-1.19322
2423.000	12.38884	-1.19290	11.41782	-1.10165
2424.000	12.42656	-1.22185	11.43871	-1.14250
2425.000	12.43976	-1.22568	11.45770	-1.22233
2426.000	12.43599	-1.24900	11.42351	-1.16985
2427.000	12.43410	-1.21017	11.46340	-1.16969
2428.000	12.40959	-1.24912	11.48428	-1.20468
2429.000	12.41336	-1.21609	11.47099	-1.18720
2430.000	12.40205	-1.22780	11.53364	-1.11484
2431.000	12.35112	-1.18141	11.37602	-1.06087
2432.000	12.32093	-1.18544	11.41022	-1.15236
2433.000	12.20577	-1.12764	11.36652	-1.13109
2434.000	12.00165	-1.06042	11.28098	-1.08853
2435.000	11.74605	-1.01469	10.98217	-1.07207
2436.000	11.45010	-0.76624	10.74954	-0.96544
2437.000	11.05264	-0.69116	10.35211	-0.98039
2438.000	10.62928	-0.46731	9.92491	-0.88766
2439.000	10.14153	-0.24283	9.41194	-0.65157
2440.000	9.61578	0.04904	8.95340	-0.53845
2441.000	9.11344	0.32018	8.48209	-0.29121
2442.000	8.54010	0.58232	7.87970	0.05124
2443.000	7.96504	0.88063	7.45445	0.19726
2444.000	7.33390	1.11864	6.84524	0.44837
2445.000	6.80041	1.41808	6.43757	0.78082
2446.000	6.32432	1.66642	5.77105	0.99354
2447.000	5.90409	1.88915	5.31078	1.42001
2448.000	5.50673	1.93793	4.89498	1.63287
2449.000	5.12060	2.11726	4.60439	1.65734
2450.000	4.73990	2.16401	4.30766	1.88395
2451.000	4.52974	2.29138	4.02448	1.98968
2452.000	4.21132	2.30424	3.75881	1.98436
2453.000	4.08939	2.35610	3.59736	2.09974
2454.000	3.84148	2.38059	3.34721	2.09831
2455.000	3.71156	2.35122	3.19547	1.96174
2456.000	3.49101	2.29429	3.08115	2.03934
2457.000	3.38661	2.23903	2.87610	1.96232
2458.000	3.21124	2.20372	2.86032	1.98616
2459.000	3.09495	2.17024	2.66505	1.94282
2460.000	2.89779	2.10913	2.53484	2.00853
2461.000	2.84849	2.15287	2.40065	1.92535
2462.000	2.79129	2.13710	2.33750	1.97706
2463.000	2.77354	2.13118	2.33355	2.05052
2464.000	2.76565	2.17485	2.28815	2.14786
2465.000	2.93131	2.26976	2.32960	2.09619
2466.000	2.97469	2.27761	2.32171	2.19346
2467.000	3.09495	2.32694	2.42433	2.23101
2468.000	3.20533	2.37428	2.49143	2.35591
2469.000	3.26642	2.41578	2.57233	2.29227
2470.000	3.39646	2.47493	2.74987	2.37923
2471.000	3.46541	2.49854	2.76960	2.36531
2472.000	3.54222	2.50824	2.83074	2.39494
2473.000	3.59540	2.55565	2.95892	2.36095
2474.000	3.59146	2.54378	3.08312	2.15837
2475.000	3.57176	2.48636	2.99441	2.25972
2476.000	3.50874	2.43698	3.06932	2.14252
2477.000	3.42404	2.38367	3.00624	2.24977
2478.000	3.37676	2.40361	2.88596	2.12304
2479.000	3.27036	2.32654	2.95300	2.20624
2480.000	3.15014	2.32483	2.81102	2.05968
2481.000	3.04172	2.29730	2.68083	2.15516
2482.000	2.95695	2.32922	2.63349	2.07189
2483.000	2.86229	2.31950	2.54273	2.13356
2484.000	2.76763	2.31968	2.39671	2.06432
2485.000	2.78735	2.33552	2.30394	2.13394
2486.000	2.71437	2.36740	2.18748	2.23138
2487.000	2.71240	2.40113	2.14997	2.23144
2488.000	2.67492	2.45675	2.06310	2.31692
2489.000	2.68281	2.52417	2.12825	2.35453
2490.000	2.66900	2.58171	2.01571	2.37455
2491.000	2.65519	2.51629	2.09864	2.45182
2492.000	2.66308	2.61346	2.04138	2.42214
2493.000	2.65124	2.59563	1.94462	2.43221
2494.000	2.70451	2.59155	1.98017	2.49566
2495.000	2.67294	2.61740	1.98017	2.50360
2496.000	2.70253	2.62329	2.03348	2.53725
2497.000	2.73409	2.62124	2.04533	2.48762
2498.000	2.72423	2.60936	2.06705	2.45584
2499.000	2.71042	2.55584	2.10061	2.42602
2500.000	2.69859	2.58760	2.12628	2.48551
2501.000	2.71831	2.51418	2.14207	2.40611
2502.000	2.74396	2.54586	2.12036	2.51529
2503.000	2.78143	2.52396	2.16379	2.40607
2504.000	2.79524	2.52790	2.11443	2.42798
2505.000	2.81102	2.58934	2.19932	2.42189
2506.000	2.81496	2.53777	2.20525	2.36235
2507.000	2.88596	2.56934	2.17761	2.43384
2508.000	2.86032	2.51784	2.21512	2.37424
2509.000	2.83863	2.57540	2.24078	2.33649
2510.000	2.89385	2.51975	2.26052	2.34837
2511.000	2.92934	2.60097	2.27631	2.38009
2512.000	2.87215	2.59515	2.28420	2.41580
2513.000	2.87018	2.57731	2.26052	2.36226
2514.000	2.88793	2.57925	2.24867	2.37220
2515.000	2.85243	2.56545	2.34539	2.33037
2516.000	2.88201	2.58720	2.21117	2.33455
2517.000	2.82680	2.53378	2.28815	2.41579
2518.000	2.88201	2.54754	2.25065	2.32457
2519.000	2.86229	2.56345	2.23683	2.36825
2520.000	2.87807	2.56143	2.27236	2.32255
2521.000	2.83468	2.54368	2.24670	2.36427
2522.000	2.86624	2.50791	2.28026	2.39993
2523.000	2.84849	2.55356	2.22301	2.39804
2524.000	2.85441	2.54562	2.28618	2.35230
2525.000	2.87018	2.53170	2.21117	2.38814
2526.000	2.80510	2.51796	2.26249	2.35432
2527.000	2.83074	2.51989	2.15194	2.37434
2528.000	2.82680	2.57344	2.29605	2.40784
2529.000	2.81299	2.56157	2.25065	2.43570
2530.000	2.82680	2.52981	2.26644	2.41583
2531.000	2.81102	2.55563	2.22696	2.35835
2532.000	2.79327	2.50212	2.15392	2.39617
2533.000	2.79129	2.54179	2.23486	2.39008
2534.000	2.80313	2.50805	2.22696	2.37819
2535.000	2.80313	2.50210	2.22301	2.47146
2536.000	2.76960	2.49225	2.22104	2.46154
2537.000	2.77749	2.54579	2.25460	2.43966
2538.000	2.83074	2.53377	2.15787	2.37830
2539.000	2.85243	2.55157	2.22301	2.44567
2540.000	2.79327	2.55963	2.20327	2.39410
2541.000	2.78143	2.54181	2.22893	2.42185
2542.000	2.80905	2.55762	2.21512	2.33852
2543.000	2.78538	2.52990	2.09864	2.34068
2544.000	2.81693	2.56156	2.18353	2.34651
2545.000	2.80510	2.52193	2.23091	2.39604
2546.000	2.85046	2.55951	2.16379	2.33264
2547.000	2.80510	2.55366	2.13220	2.39819
2548.000	2.80510	2.55762	2.19143	2.36832
2549.000	2.82285	2.55164	2.14602	2.42198
2550.000	2.78143	2.55966	2.15392	2.39617
2551.000	2.82482	2.53973	2.24867	2.43570
2552.000	2.81693	2.51992	2.22696	2.43177
2553.000	2.83074	2.59723	2.18353	2.38421
2554.000	2.80707	2.55167	2.11246	2.32478
2555.000	2.78538	2.51602	2.16379	2.36837
2556.000	2.80707	2.55762	2.20130	2.39014
2557.000	2.80313	2.57349	2.18748	2.36238
2558.000	2.84454	2.61108	2.25657	2.32059
2559.000	2.79524	2.53583	2.19932	2.30480
2560.000	2.82482	2.55163	2.12628	2.35850
2561.000	2.83863	2.54565	2.17761	2.40605
2562.000	2.80116	2.54573	2.22893	2.33651
2563.000	2.81693	2.55165	2.23091	2.36826
2564.000	2.78932	2.51205	2.16181	2.37036
2565.000	2.80313	2.53185	2.18156	2.45367
2566.000	2.75579	2.52600	2.15392	2.29495
2567.000	2.81299	2.54967	2.17366	2.37828
2568.000	2.82285	2.55164	2.13418	2.39421
2569.000	2.80905	2.55762	2.11641	2.34264
2570.000	2.78538	2.50809	2.15194	2.31678
2571.000	2.79721	2.56756	2.20130	2.36434
2572.000	2.81693	2.51794	2.15589	2.41006
2573.000	2.81496	2.55562	2.20525	2.30678
2574.000	2.81693	2.55958	2.28815	2.29871
2575.000	2.80313	2.57349	2.24670	2.39800
2576.000	2.80707	2.55167	2.23486	2.32658
2577.000	2.79327	2.50807	2.16774	2.31478
2578.000	2.82877	2.54171	2.22499	2.31667
2579.000	2.79721	2.54971	2.06507	2.40027
2580.000	2.76960	2.54977	2.17169	2.35049
2581.000	2.73607	2.50621	2.19932	2.32862
2582.000	2.78143	2.50215	2.05125	2.38442
2583.000	2.79721	2.55368	2.14997	2.30091
2584.000	2.75776	2.56963	2.17563	2.35446
2585.000	2.80905	2.54968	2.18748	2.36039
2586.000	2.77946	2.54578	2.16379	2.28104
2587.000	2.79918	2.57548	2.23091	2.38414
2588.000	2.77157	2.55571	2.21314	2.33058
2589.000	2.78143	2.49620	2.22301	2.38812
2590.000	2.81693	2.60122	2.13418	2.41208
2591.000	2.79129	2.53187	2.22893	2.39208
2592.000	2.76960	2.53192	2.17958	2.34453
2593.000	2.81496	2.54372	2.17958	2.34453
2594.000	2.78932	2.53981	2.19932	2.30877
2595.000	2.78341	2.52991	2.25262	2.34441
2596.000	2.83271	2.54567	2.07889	2.34071
2597.000	2.84849	2.56546	2.17169	2.31477
2598.000	2.82088	2.56552	2.17958	2.29888
2599.000	2.79918	2.58143	2.19340	2.29886
2600.000	2.85046	2.59718	2.16774	2.38225
2601.000	2.82088	2.56949	2.11048	2.34662
2602.000	2.80510	2.58340	2.19932	2.36633
2603.000	2.86229	2.57733	2.18550	2.38620
2604.000	2.84652	2.59323	2.16379	2.29295
2605.000	2.86821	2.61499	2.11641	2.36646
2606.000	2.80116	2.61514	2.06902	2.48560
2607.000	2.88596	2.56736	2.19143	2.26313
2608.000	2.84652	2.58133	2.20130	2.39411
2609.000	2.85638	2.59717	2.14602	2.31878
2610.000	2.80313	2.61117	2.14800	2.35450
2611.000	2.84454	2.62694	2.12825	2.31285
2612.000	2.84849	2.57736	2.19932	2.36434
2613.000	2.82285	2.59725	2.15589	2.39418
2614.000	2.81299	2.54967	2.14997	2.30091
2615.000	2.81496	2.59528	2.11641	2.36050
2616.000	2.81496	2.58338	2.04533	2.40824
2617.000	2.82482	2.55956	2.09469	2.38038
2618.000	2.78735	2.54973	2.12036	2.37439
2619.000	2.78538	2.54775	2.13220	2.44780
2620.000	2.79327	2.52592	2.18353	2.45764
2621.000	2.80905	2.62107	2.10654	2.40616
2622.000	2.79918	2.57747	2.19143	2.34649
2623.000	2.80313	2.58143	2.18550	2.33063
2624.000	2.82285	2.58931	2.08679	2.37642
2625.000	2.82877	2.56352	2.14207	2.36840
2626.000	2.82877	2.54567	2.10259	2.36648
2627.000	2.80116	2.59333	2.13418	2.36643
2628.000	2.81891	2.57941	2.14997	2.36839
2629.000	2.81299	2.59528	2.04730	2.46182
2630.000	2.82482	2.58534	2.15589	2.33663
2631.000	2.78143	2.53983	2.14010	2.48549
2632.000	2.78341	2.53784	2.14010	2.34856
2633.000	2.81891	2.61510	2.13812	2.38825
2634.000	2.77552	2.57950	2.09469	2.41809
2635.000	2.85243	2.55752	2.16971	2.38622
2636.000	2.81102	2.55563	2.16181	2.35051
2637.000	2.81891	2.58139	2.10061	2.42800
2638.000	2.82877	2.56550	2.13023	2.41407
2639.000	2.81299	2.54174	2.12233	2.39622
2640.000	2.80707	2.57150	2.09864	2.38633
2641.000	2.80905	2.53183	2.10259	2.37243
2642.000	2.83666	2.58532	2.08679	2.40421
2643.000	2.82285	2.56353	2.16181	2.43188
2644.000	2.81299	2.60520	2.08679	2.43199
2645.000	2.82877	2.56947	2.14405	2.42198
2646.000	2.85441	2.53769	2.10259	2.43594
2647.000	2.82877	2.57939	2.15984	2.32074
2648.000	2.80707	2.60323	2.15194	2.40808
2649.000	2.80707	2.56952	2.06705	2.44592
2650.000	2.78538	2.55965	2.12825	2.35255
2651.000	2.78735	2.56560	2.13812	2.39619
2652.000	2.80116	2.57350	2.14405	2.32870
2653.000	2.80905	2.54968	2.13023	2.43590
2654.000	2.80510	2.56159	2.10851	2.40219
2655.000	2.81299	2.54967	2.12233	2.31881
2656.000	2.80510	2.53581	2.11838	2.40218
2657.000	2.79524	2.54971	2.09666	2.38633
2658.000	2.80905	2.54175	2.22301	2.35438
2659.000	2.83074	2.55360	2.12825	2.30690
2660.000	2.77946	2.49818	2.07692	2.29109
2661.000	2.76763	2.50812	2.15194	2.32075
2662.000	2.75382	2.52997	2.10456	2.33075
2663.000	2.80707	2.53581	2.20722	2.37425
2664.000	2.77946	2.53388	2.18353	2.29689
2665.000	2.75382	2.48832	2.10259	2.34266
2666.000	2.79129	2.48427	2.14207	2.33863
2667.000	2.72423	2.50227	2.19735	2.28496
2668.000	2.77749	2.52794	2.05718	2.35662
2669.000	2.76565	2.53589	2.11443	2.25332
2670.000	2.73607	2.50621	2.13418	2.25726
2671.000	2.80116	2.49219	2.10061	2.31885
2672.000	2.75974	2.55177	2.10654	2.30891
2673.000	2.79721	2.58739	2.09074	2.32481
2674.000	2.75776	2.56963	2.11838	2.30493
2675.000	2.79327	2.56955	2.10259	2.26128
2676.000	2.79327	2.58541	2.14207	2.29298
2677.000	2.77946	2.58743	2.07889	2.36056
2678.000	2.77946	2.55768	2.11838	2.34859
2679.000	2.71831	2.58756	2.14997	2.32076
2680.000	2.74396	2.59742	2.20722	2.31670
2681.000	2.74593	2.58948	2.14800	2.36045
2682.000	2.76763	2.63108	2.17169	2.38423
2683.000	2.73804	2.57165	2.13615	2.43192
2684.000	2.75974	2.60135	2.11641	2.28706
2685.000	2.74198	2.61725	2.20327	2.31274
2686.000	2.77552	2.60925	2.10259	2.34663
2687.000	2.78538	2.57155	2.16181	2.40806
2688.000	2.79129	2.60921	2.09074	2.45977
2689.000	2.76763	2.58745	2.15392	2.39021
2690.000	2.81299	2.59727	2.13812	2.31482
2691.000	2.80707	2.58142	2.14010	2.39619
2692.000	2.73409	2.53596	2.07495	2.47567
2693.000	2.76565	2.56168	2.08482	2.32879
2694.000	2.78538	2.53585	2.07297	2.33080
2695.000	2.79524	2.52988	2.06310	2.34470
2696.000	2.78735	2.51998	2.07297	2.39431
2697.000	2.78735	2.53585	2.01374	2.34875
2698.000	2.78538	2.53784	2.08482	2.41414
2699.000	2.76960	2.50614	2.18748	2.33658
2700.000	2.80116	2.51004	2.14997	2.33862
2701.000	2.75776	2.49823	2.07495	2.37247
2702.000	2.78932	2.46841	2.16576	2.34653
2703.000	2.77157	2.50415	2.15787	2.24532
2704.000	2.79129	2.48824	2.05718	2.28517
2705.000	2.77354	2.48035	2.16971	2.26118
2706.000	2.79327	2.51204	2.02953	2.33880
2707.000	2.79918	2.46046	2.11246	2.30692
2708.000	2.76565	2.46053	2.09271	2.33871
2709.000	2.76368	2.45458	2.04335	2.34076
2710.000	2.79524	2.49022	2.09074	2.24542
2711.000	2.77946	2.52992	2.03743	2.29909
2712.000	2.84257	2.51788	2.10259	2.35060
2713.000	2.77157	2.46845	2.07100	2.28713
2714.000	2.80707	2.52787	2.05125	2.29907
2715.000	2.79524	2.50410	2.05125	2.31495
2716.000	2.82285	2.48619	2.05520	2.28715
2717.000	2.83271	2.51790	2.10851	2.26723
2718.000	2.86624	2.54361	2.16774	2.30882
2719.000	2.86821	2.54360	2.08087	2.25536
2720.000	2.81693	2.55363	2.23880	2.26902
2721.000	2.79918	2.48624	2.08877	2.31092
2722.000	2.79918	2.52392	2.13023	2.34063
2723.000	2.77552	2.47637	2.10061	2.26724
2724.000	2.78538	2.52594	2.16971	2.29492
2725.000	2.81891	2.50207	2.10061	2.34068
2726.000	2.74593	2.45858	2.04928	2.26930
2727.000	2.76763	2.51011	2.01769	2.36263
2728.000	2.72226	2.47252	2.02756	2.33086
2729.000	2.75185	2.49229	2.09666	2.26526
2730.000	2.74001	2.49232	2.03348	2.25145
2731.000	2.69662	2.50629	2.01374	2.33882
2732.000	2.72620	2.48243	2.15194	2.38029
2733.000	2.72029	2.51417	2.12233	2.38034
2734.000	2.73409	2.48043	2.13615	2.38627
2735.000	2.69267	2.47853	2.09864	2.35457
2736.000	2.69070	2.41902	2.14602	2.39221
2737.000	2.69070	2.45473	2.11246	2.37837
2738.000	2.69267	2.45473	2.10061	2.33869
2739.000	2.67689	2.44484	2.02361	2.28124
2740.000	2.71831	2.45071	2.05125	2.38640
2741.000	2.67097	2.44287	2.05520	2.39037
2742.000	2.75185	2.48634	2.09864	2.23350
2743.000	2.72029	2.47451	2.01571	2.36264
2744.000	2.70056	2.49636	2.08482	2.34070
2745.000	2.73212	2.51613	2.05718	2.36655
2746.000	2.70845	2.47453	2.06507	2.37844
2747.000	2.70253	2.47454	1.96635	2.33690
2748.000	2.74790	2.44470	2.06112	2.38440
2749.000	2.67689	2.45476	2.09469	2.35458
2750.000	2.73015	2.48639	2.18353	2.39612
2751.000	2.66505	2.49445	2.15589	2.34258
2752.000	2.68083	2.48450	2.07889	2.37445
2753.000	2.75382	2.49625	2.04730	2.40427
2754.000	2.74001	2.48835	2.11048	2.42997
2755.000	2.73409	2.48439	2.13418	2.38032
2756.000	2.72818	2.46854	2.11443	2.40417
2757.000	2.66900	2.51428	2.08087	2.32483
2758.000	2.66505	2.47858	2.07692	2.38636
2759.000	2.74198	2.47248	2.06705	2.23950
2760.000	2.69859	2.49042	2.10851	2.40219
2761.000	2.67689	2.41310	2.02558	2.37850
2762.000	2.72029	2.43880	2.17563	2.34056
2763.000	2.70451	2.45272	2.04928	2.38244
2764.000	2.75579	2.48832	2.05718	2.30303
2765.000	2.69070	2.47655	1.94265	2.36274
2766.000	2.71240	2.45667	2.04335	2.34076
2767.000	2.70845	2.45271	2.12430	2.36843
2768.000	2.69267	2.47655	2.03348	2.34872
2769.000	2.70253	2.51223	2.13418	2.29101
2770.000	2.69464	2.42893	2.11048	2.30295
2771.000	2.72818	2.50821	2.08087	2.31689
2772.000	2.73409	2.49629	2.11246	2.36646
2773.000	2.69464	2.47257	2.05323	2.29907
2774.000	2.72620	2.48441	2.07692	2.32484
2775.000	2.72620	2.49433	2.08679	2.30894
2776.000	2.69662	2.50034	2.11048	2.37043
2777.000	2.68873	2.49242	2.07889	2.29109
2778.000	2.70451	2.50429	2.04138	2.33680
2779.000	2.69267	2.48448	2.03348	2.34872
2780.000	2.69464	2.49439	1.98807	2.28328
2781.000	2.71831	2.49434	2.08482	2.23947
2782.000	2.72423	2.48838	1.99399	2.30907
2783.000	2.73409	2.50026	2.08877	2.31489
2784.000	2.71634	2.50625	2.06507	2.29905
2785.000	2.74790	2.45858	2.03546	2.36062
2786.000	2.71634	2.46261	2.06112	2.34868
2787.000	2.71437	2.45071	2.05718	2.34273
2788.000	2.76171	2.49227	2.07495	2.31094
2789.000	2.74396	2.48437	2.08087	2.40025
2790.000	2.74001	2.49033	2.01571	2.34874
2791.000	2.71042	2.47453	2.04928	2.29907
2792.000	2.73212	2.51812	2.08284	2.27917
2793.000	2.72620	2.50623	2.09666	2.35656
2794.000	2.72226	2.45665	2.07889	2.28910
2795.000	2.75776	2.49426	2.03348	2.26138
2796.000	2.76171	2.52995	2.09666	2.25930
2797.000	2.75382	2.46254	2.11443	2.24935
2798.000	2.74790	2.44470	2.01966	2.22368
2799.000	2.76763	2.35738	2.11838	2.11237
2800.000	2.72029	2.21065	2.06705	1.97344
2801.000	2.70253	2.13726	2.07297	1.88209
2802.000	2.69070	1.97454	2.01571	1.79079
2803.000	2.60587	1.75629	2.09074	1.60597
2804.000	2.59403	1.54781	1.98214	1.43323
2805.000	2.48354	1.33342	2.12036	1.21851
2806.000	2.47762	1.19833	2.00979	1.04568
2807.000	2.39671	0.97586	2.01966	0.86281
2808.000	2.38684	0.89241	2.06310	0.70377
2809.000	2.31973	0.78116	1.95055	0.46922
2810.000	2.31381	0.64999	1.84588	0.37978
2811.000	2.32763	0.59035	1.91500	0.34596
2812.000	2.33355	0.49693	1.93870	0.23064
2813.000	2.35723	0.41146	1.88341	0.27240
2814.000	2.44604	0.34783	1.96042	0.29227
2815.000	2.44012	0.31802	1.94857	0.22468
2816.000	2.54076	0.33588	1.97424	0.30619
2817.000	2.56838	0.36171	1.93080	0.31017
2818.000	2.61573	0.36170	2.00979	0.37378
2819.000	2.64730	0.40938	1.99794	0.42945
2820.000	2.69267	0.43718	2.01769	0.37378
2821.000	2.76368	0.45902	2.00386	0.41354
2822.000	2.71437	0.45109	2.04138	0.50300
2823.000	2.75382	0.59016	1.97622	0.56266
2824.000	2.75776	0.56433	2.05323	0.57853
2825.000	2.78143	0.58220	1.94660	0.62231
2826.000	2.81496	0.65371	1.97819	0.61832
2827.000	2.77552	0.61399	2.01571	0.65012
2828.000	2.73607	0.66368	1.99794	0.64615
2829.000	2.76171	0.71732	1.90908	0.70781
2830.000	2.73212	0.73124	1.90908	0.73962
2831.000	2.72029	0.73721	1.97622	0.76543
2832.000	2.73212	0.75508	1.89328	0.66209
2833.000	2.73015	0.76303	1.83601	0.74164
2834.000	2.68281	0.83658	1.90513	0.72173
2835.000	2.70845	0.74516	1.86563	0.70186
2836.000	2.68083	0.76306	1.86761	0.72771
2837.000	2.68478	0.74915	1.90908	0.78534
2838.000	2.68873	0.75511	1.91500	0.62431
2839.000	2.67097	0.74519	1.90513	0.67004
2840.000	2.68873	0.71537	1.88538	0.66607
2841.000	2.67492	0.66769	1.86563	0.61041
2842.000	2.65322	0.65578	1.87156	0.61637
2843.000	2.67689	0.64583	1.87551	0.51497
2844.000	2.66703	0.64783	1.87551	0.55275
2845.000	2.64533	0.60015	1.89723	0.58058
2846.000	2.67492	0.53853	1.89525	0.54081
2847.000	2.62954	0.56041	1.92093	0.48315
2848.000	2.65716	0.55643	1.99004	0.52488
2849.000	2.67097	0.57430	1.93278	0.52291
2850.000	2.62560	0.53458	1.88341	0.50304
2851.000	2.59008	0.47100	1.97819	0.48115
2852.000	2.62165	0.45112	1.93870	0.45531
2853.000	2.62560	0.46702	1.85971	0.46130
2854.000	2.60784	0.44119	1.92093	0.41157
2855.000	2.63152	0.44118	1.96240	0.44735
2856.000	2.63349	0.45906	1.98807	0.51096
2857.000	2.59008	0.43126	1.99597	0.43144
2858.000	2.62560	0.46900	1.85773	0.46925
2859.000	2.60390	0.44516	1.95252	0.51893
2860.000	2.63743	0.48490	1.86761	0.47124
2861.000	2.61376	0.47696	1.92093	0.46724
2862.000	2.66900	0.48687	2.00781	0.47716
2863.000	2.64533	0.44316	1.95055	0.52489
2864.000	2.65716	0.48886	1.95055	0.48513
2865.000	2.65124	0.46899	1.99399	0.55868
2866.000	2.65519	0.48489	2.02361	0.45926
2867.000	2.66308	0.47296	1.98412	0.54675
2868.000	2.67294	0.47892	1.94265	0.54080
2869.000	2.67097	0.48290	1.90710	0.46725
2870.000	2.63941	0.49483	1.96832	0.49904
2871.000	2.64138	0.50477	1.90315	0.46327
2872.000	2.64730	0.49880	1.87551	0.51497
2873.000	2.61376	0.49484	1.87353	0.48913
2874.000	2.63152	0.51272	1.84983	0.46726
2875.000	2.66900	0.50674	1.93870	0.51098
2876.000	2.62757	0.48490	1.92290	0.40959
2877.000	2.63349	0.52265	1.90710	0.51099
2878.000	2.60981	0.53061	1.95055	0.45730
2879.000	2.66111	0.53854	1.90710	0.45532
2880.000	2.63152	0.52663	1.90315	0.56666
2881.000	2.62757	0.50477	1.94067	0.48712
2882.000	2.64138	0.52861	1.97622	0.49705
2883.000	2.63743	0.53060	1.96832	0.51693
2884.000	2.62362	0.49484	1.86761	0.51895
2885.000	2.58417	0.49883	1.98807	0.46325
2886.000	2.65519	0.48489	1.89130	0.55871
2887.000	2.67689	0.50475	1.86366	0.50305
2888.000	2.62757	0.48689	2.10061	0.51888
2889.000	2.65519	0.50675	1.92093	0.54478
2890.000	2.61968	0.52266	1.90315	0.55274
2891.000	2.64335	0.48688	2.01176	0.48114
2892.000	2.63152	0.49086	1.95055	0.52290
2893.000	2.65913	0.50873	2.03546	0.45926
2894.000	2.68873	0.50077	1.94660	0.51098
2895.000	2.60784	0.48491	2.01176	0.49108
2896.000	2.65519	0.49284	1.93672	0.46525
2897.000	2.63546	0.47496	1.96240	0.51892
2898.000	2.65519	0.51271	1.96437	0.43542
2899.000	2.64138	0.44714	1.98412	0.42548
2900.000	2.65322	0.47893	1.94462	0.43145
2901.000	2.63941	0.47496	2.00979	0.45529
2902.000	2.63546	0.47496	2.08877	0.43141
2903.000	2.66308	0.45508	1.99399	0.44933
2904.000	2.66505	0.50873	1.92488	0.50701
2905.000	2.67689	0.50873	1.96240	0.53483
2906.000	2.65519	0.50476	1.93870	0.49110
2907.000	2.67492	0.46104	1.94067	0.48911
2908.000	2.67294	0.47495	1.93278	0.53881
2909.000	2.67886	0.50873	1.85773	0.44738
2910.000	2.66111	0.47893	1.88538	0.54877
2911.000	2.64335	0.46502	1.85378	0.47323
2912.000	2.67689	0.46104	2.01374	0.49704
2913.000	2.68281	0.48687	2.06507	0.47317
2914.000	2.70845	0.45705	1.94462	0.44338
2915.000	2.67492	0.46899	1.94067	0.41753
2916.000	2.62954	0.50477	1.95450	0.48513
2917.000	2.59995	0.48491	1.95055	0.47519
2918.000	2.66505	0.47098	2.02756	0.46523
2919.000	2.65913	0.53258	2.02361	0.48710
2920.000	2.67097	0.46899	2.00189	0.45529
2921.000	2.66308	0.46502	2.07100	0.50100
2922.000	2.65716	0.49482	1.96832	0.41952
2923.000	2.65519	0.46303	1.99202	0.44337
2924.000	2.65716	0.44117	1.95845	0.51296
2925.000	2.62954	0.44317	1.92488	0.48514
2926.000	2.60784	0.41933	1.96240	0.43343
2927.000	2.67294	0.41533	1.94857	0.51694
2928.000	2.64730	0.42329	1.97622	0.45331
2929.000	2.63743	0.42727	1.95450	0.51097
2930.000	2.65913	0.39944	1.99399	0.45331
2931.000	2.62954	0.38156	2.04730	0.47516
2932.000	2.60784	0.37561	1.94857	0.46923
2933.000	2.61376	0.35573	1.98214	0.47120
2934.000	2.59600	0.38754	1.99202	0.42746
2935.000	2.61376	0.44317	2.09074	0.43539
2936.000	2.61771	0.35971	2.06507	0.46124
2937.000	2.61179	0.39151	1.95450	0.50899
2938.000	2.66703	0.45905	2.02361	0.47119
2939.000	2.61968	0.41336	2.06112	0.45130
2940.000	2.64533	0.45310	2.05915	0.49703
2941.000	2.66111	0.43123	1.97622	0.41554
2942.000	2.67294	0.50674	2.04335	0.45329
2943.000	2.68478	0.45308	2.02558	0.41155
2944.000	2.63743	0.41733	2.02953	0.45330
2945.000	2.69662	0.51269	1.92883	0.44736
2946.000	2.65716	0.44316	2.03348	0.36582
2947.000	2.61179	0.44516	2.03743	0.38371
2948.000	2.67492	0.45905	2.07100	0.43539
2949.000	2.61179	0.46106	2.05718	0.44136
2950.000	2.62165	0.46901	2.09864	0.43141
2951.000	2.64730	0.47098	1.99794	0.45728
2952.000	2.58614	0.44517	2.11246	0.47713
2953.000	2.64730	0.47098	1.98017	0.44536
2954.000	2.60587	0.42132	2.01769	0.36980
2955.000	2.61573	0.45311	2.00979	0.41752
2956.000	2.62757	0.47298	2.05718	0.48907
2957.000	2.63941	0.42528	2.01176	0.39962
2958.000	2.67689	0.41334	2.02361	0.44734
2959.000	2.63743	0.48490	2.04928	0.51094
2960.000	2.59206	0.43921	2.02953	0.46920
2961.000	2.60587	0.47497	2.04335	0.44137
2962.000	2.59403	0.42132	1.99399	0.45530
2963.000	2.65519	0.43918	1.93475	0.44139
2964.000	2.67097	0.50277	1.93672	0.46326
2965.000	2.61376	0.47497	1.96437	0.48910
2966.000	2.59403	0.46107	2.09469	0.38171
2967.000	2.64335	0.48291	2.00781	0.48114
2968.000	2.63743	0.51868	2.01374	0.42547
2969.000	2.63349	0.46304	2.03941	0.47119
2970.000	2.60981	0.49286	2.08679	0.42147
2971.000	2.62560	0.46304	2.04335	0.47119
2972.000	2.59995	0.46703	2.01769	0.48113
2973.000	2.64138	0.45906	1.99991	0.51891
2974.000	2.60981	0.43523	1.95055	0.38771
2975.000	2.66703	0.43322	2.03743	0.41751
2976.000	2.59995	0.42927	2.05125	0.41949
2977.000	2.60587	0.44119	2.03151	0.48113
2978.000	2.64533	0.41137	2.04533	0.42944
2979.000	2.68478	0.45507	1.98214	0.34794
2980.000	2.65519	0.41534	1.98807	0.45132
2981.000	2.63349	0.43721	2.01374	0.43143
2982.000	2.64335	0.38355	2.02163	0.41155
2983.000	2.63546	0.41733	1.98609	0.39168
2984.000	2.64138	0.42925	2.02558	0.36383
2985.000	2.60390	0.48690	2.05520	0.40955
2986.000	2.60192	0.39946	2.03743	0.40757
2987.000	2.61376	0.40939	2.04730	0.44136
2988.000	2.62165	0.37163	2.06310	0.31214
2989.000	2.59600	0.46703	2.04335	0.37775
2990.000	2.59995	0.42927	2.06310	0.39564
2991.000	2.62362	0.43323	2.12233	0.34990
2992.000	2.58417	0.43126	1.97424	0.38969
2993.000	2.59206	0.43921	2.02558	0.34395
2994.000	2.58614	0.45113	2.01769	0.33401
2995.000	2.61771	0.40541	2.06507	0.37178
2996.000	2.60784	0.39747	2.08679	0.36382
2997.000	2.57233	0.39947	1.93870	0.39567
2998.000	2.59403	0.42132	2.03546	0.40161
2999.000	2.62757	0.45311	2.02163	0.39366
3000.000	2.61573	0.43721	1.98412	0.35589
3001.000	2.62165	0.43522	1.97819	0.33999
3002.000	2.58022	0.41735	2.09666	0.36382
3003.000	2.63152	0.45112	2.12233	0.33002
3004.000	2.62954	0.39547	1.98609	0.34993
3005.000	2.59798	0.41933	2.02558	0.36185
3006.000	2.61179	0.38952	2.02558	0.35787
3007.000	2.60192	0.39946	2.02361	0.30817
3008.000	2.62362	0.40343	1.99794	0.29624
3009.000	2.59600	0.42331	2.03348	0.36184
3010.000	2.60192	0.40741	2.05520	0.37377
3011.000	2.55062	0.37364	2.03941	0.40757
3012.000	2.62954	0.42131	2.00386	0.40559
3013.000	2.60981	0.40144	2.00979	0.25648
3014.000	2.65519	0.47694	2.03348	0.39564
3015.000	2.61573	0.40542	1.99794	0.32408
3016.000	2.64138	0.45310	2.01966	0.31811
3017.000	2.61968	0.40541	2.09469	0.36183
3018.000	2.68478	0.46699	2.08087	0.35189
3019.000	2.62757	0.40541	2.06310	0.32208
3020.000	2.68281	0.43123	2.03743	0.39564
3021.000	2.63152	0.37361	2.04730	0.30021
3022.000	2.62560	0.43125	1.98807	0.36185
3023.000	2.62165	0.40740	1.96635	0.39168
3024.000	2.62560	0.40144	2.04138	0.30816
3025.000	2.68675	0.42725	2.10851	0.30815
3026.000	2.69070	0.40142	2.02163	0.37974
3027.000	2.68083	0.42328	2.03743	0.36781
3028.000	2.65716	0.38950	2.02558	0.34594
3029.000	2.67097	0.40540	2.00781	0.36980
3030.000	2.64138	0.39945	2.06507	0.30021
3031.000	2.68478	0.42924	1.99597	0.36981
3032.000	2.65519	0.38950	2.00189	0.32606
3033.000	2.67689	0.42527	2.06705	0.39961
3034.000	2.64730	0.42925	2.02163	0.38173
3035.000	2.67097	0.45706	2.03151	0.38173
3036.000	2.66111	0.42925	2.03941	0.44932
3037.000	2.68873	0.42725	1.97622	0.35390
3038.000	2.66703	0.39745	2.00386	0.38969
3039.000	2.67492	0.39347	2.09271	0.32605
3040.000	2.66900	0.43918	1.96437	0.31215
3041.000	2.62757	0.34579	2.04138	0.29822
3042.000	2.64138	0.43323	2.00979	0.32209
3043.000	2.66900	0.37559	2.01966	0.35191
3044.000	2.66900	0.40142	1.98017	0.36782
3045.000	2.65716	0.42130	2.00189	0.27636
3046.000	2.68675	0.43321	2.06705	0.35985
3047.000	2.66111	0.43918	2.03348	0.35588
3048.000	2.67492	0.36764	2.01769	0.32209
3049.000	2.66900	0.39546	2.11048	0.36779
3050.000	2.69267	0.39744	2.04533	0.33798
3051.000	2.63743	0.38554	1.99202	0.34794
3052.000	2.65913	0.37559	2.08877	0.36183
3053.000	2.66505	0.41534	1.98807	0.33800
3054.000	2.66308	0.41335	2.00386	0.37179
3055.000	2.68675	0.38751	2.10061	0.37773
3056.000	2.67886	0.42725	1.99794	0.39565
3057.000	2.68083	0.43123	2.04730	0.35985
3058.000	2.65322	0.41534	2.06112	0.34593
3059.000	2.69070	0.41135	1.99399	0.42547
3060.000	2.67886	0.44514	2.07100	0.35388
3061.000	2.65913	0.43720	2.10259	0.37575
3062.000	2.66111	0.40341	2.08679	0.40358
3063.000	2.65716	0.45508	2.00386	0.39565
3064.000	2.70451	0.41532	2.00979	0.42149
3065.000	2.68873	0.45308	1.99202	0.37378
3066.000	2.68478	0.45507	2.03546	0.39962
3067.000	2.68478	0.41533	2.00979	0.42149
3068.000	2.68478	0.43719	2.03348	0.43938
3069.000	2.65913	0.45707	2.06310	0.45329
3070.000	2.64927	0.43720	2.10061	0.33201
3071.000	2.66900	0.41335	2.06310	0.37377
3072.000	2.66900	0.44315	2.03546	0.39564
3073.000	2.66111	0.45508	1.98807	0.39367
3074.000	2.62757	0.42330	1.97424	0.34198
3075.000	2.70451	0.45705	2.02361	0.41950
3076.000	2.65913	0.44515	2.06902	0.38172
3077.000	2.68083	0.41533	1.97819	0.35192
3078.000	2.66900	0.41335	2.04335	0.39365
3079.000	2.64533	0.39547	2.09469	0.33797
3080.000	2.66703	0.41931	2.05718	0.34196
3081.000	2.67294	0.43719	1.99991	0.31612
3082.000	2.67492	0.39943	1.97622	0.40957
3083.000	2.65716	0.40143	1.97819	0.42150
3084.000	2.65124	0.40739	2.05520	0.37377
3085.000	2.66703	0.40341	2.03348	0.40956
3086.000	2.65519	0.40342	2.05125	0.36780
3087.000	2.67294	0.43520	1.99202	0.38571
3088.000	2.58219	0.42729	2.04138	0.35787
3089.000	2.65124	0.44714	1.98017	0.37776
3090.000	2.63152	0.40541	1.95647	0.41952
3091.000	2.64533	0.41137	2.00386	0.38571
3092.000	2.65519	0.42527	1.99202	0.37378
3093.000	2.67492	0.44315	2.04138	0.42944
3094.000	2.64927	0.42329	2.02163	0.38769
3095.000	2.67886	0.46700	2.06902	0.39166
3096.000	2.62757	0.43522	1.90908	0.35392
3097.000	2.66505	0.44514	1.97227	0.38770
3098.000	2.66111	0.47495	2.08482	0.36581
3099.000	2.60981	0.40939	1.94857	0.39367
3100.000	2.63743	0.43323	2.02756	0.43739
3101.000	2.63941	0.42925	2.00781	0.37974
3102.000	2.62362	0.41535	1.98609	0.42349
3103.000	2.64730	0.45707	1.98017	0.42548
3104.000	2.64335	0.42329	2.00386	0.37776
3105.000	2.59600	0.45113	1.98412	0.38969
3106.000	2.63941	0.38355	2.05520	0.39961
3107.000	2.63152	0.40342	2.01769	0.36781
3108.000	2.68281	0.43520	1.99794	0.40758
3109.000	2.64730	0.46303	2.02163	0.41155
3110.000	2.67097	0.42129	2.03743	0.36582
3111.000	2.62954	0.44317	1.90118	0.39965
3112.000	2.64335	0.39746	2.03743	0.39962
3113.000	2.66505	0.44514	2.00386	0.38969
3114.000	2.66703	0.45508	2.06310	0.32208
3115.000	2.66505	0.39944	2.00189	0.41951
3116.000	2.62757	0.41932	2.01374	0.41950
3117.000	2.65913	0.45508	1.98017	0.38770
3118.000	2.65913	0.44713	1.99399	0.35589
3119.000	2.63152	0.37560	2.01769	0.34396
3120.000	2.63152	0.40740	1.97622	0.37975
3121.000	2.63349	0.44515	2.02953	0.32010
3122.000	2.63941	0.43720	2.06705	0.39166
3123.000	2.65124	0.46303	1.97029	0.40560
3124.000	2.63546	0.44317	1.93870	0.39368
3125.000	2.63743	0.43323	1.98609	0.35191
3126.000	2.63743	0.44317	1.93278	0.41555
3127.000	2.61573	0.42330	1.94067	0.46127
3128.000	2.67097	0.46104	2.01176	0.42547
3129.000	2.69267	0.41930	1.96635	0.50501
3130.000	2.65322	0.41733	2.02163	0.39366
3131.000	2.65716	0.41931	1.99399	0.40559
3132.000	2.67689	0.43918	2.01966	0.40161
3133.000	2.68281	0.41930	2.04533	0.43540
3134.000	2.67689	0.46501	2.01176	0.33402
3135.000	2.66900	0.45309	2.03743	0.40359
3136.000	2.64533	0.45111	1.93080	0.42748
3137.000	2.68675	0.40937	2.00189	0.38372
3138.000	2.67294	0.39745	2.03348	0.41155
3139.000	2.69464	0.46500	2.04335	0.44137
3140.000	2.73804	0.49479	1.98807	0.34794
3141.000	2.69464	0.45507	1.96832	0.45928
3142.000	2.70253	0.44712	2.10456	0.41153
3143.000	2.69859	0.47891	2.02558	0.42348
3144.000	2.65519	0.46303	2.05323	0.35588
3145.000	2.66900	0.45309	2.02163	0.47119
3146.000	2.71831	0.45705	1.98412	0.41752
3147.000	2.68873	0.43917	2.04138	0.49107
3148.000	2.69070	0.48289	1.99991	0.39167
3149.000	2.71042	0.55243	1.96042	0.37180
3150.000	2.68478	0.46103	1.99004	0.35191
3151.000	2.69070	0.49680	1.93475	0.46128
3152.000	2.70648	0.49878	2.01374	0.38571
3153.000	2.70451	0.52859	1.98214	0.43144
3154.000	2.68281	0.47097	1.94265	0.41753
3155.000	2.66111	0.49085	1.99597	0.50897
3156.000	2.70056	0.48686	1.99399	0.42150
3157.000	2.71831	0.49083	1.97029	0.41952
3158.000	2.73212	0.53255	2.06507	0.44732
3159.000	2.67492	0.53456	2.02756	0.49107
3160.000	2.70648	0.47692	2.00979	0.41752
3161.000	2.76960	0.57227	2.07495	0.33201
3162.000	2.76565	0.50074	2.02163	0.37974
3163.000	2.79327	0.51464	2.12825	0.24851
3164.000	2.81693	0.39939	2.17169	0.30217
3165.000	2.90568	0.42717	2.22893	0.24650
3166.000	2.99046	0.32781	2.31381	0.18288
3167.000	3.05158	0.28806	2.30986	0.12523
3168.000	3.12649	0.13707	2.39868	0.00398
3169.000	3.14817	0.02781	2.41052	-0.03180
3170.000	3.15605	-0.04966	2.48354	-0.17888
3171.000	3.22109	-0.15294	2.61179	-0.26233
3172.000	3.22898	-0.27609	2.67492	-0.38155
3173.000	3.24080	-0.39724	2.68873	-0.44116
3174.000	3.26839	-0.54817	2.75185	-0.52658
3175.000	3.24080	-0.55018	2.81102	-0.64775
3176.000	3.24080	-0.66537	2.82088	-0.70139
3177.000	3.18168	-0.71704	2.73607	-0.69150
3178.000	3.17774	-0.70116	2.74198	-0.74117
3179.000	3.12846	-0.72502	2.65913	-0.79884
3180.000	3.08706	-0.71711	2.63349	-0.77501
3181.000	3.04172	-0.71316	2.60981	-0.70946
3182.000	3.03778	-0.68734	2.43815	-0.70160
3183.000	2.98455	-0.62977	2.45591	-0.64992
3184.000	2.96286	-0.48675	2.40657	-0.57243
3185.000	2.94314	-0.48477	2.33750	-0.48103
3186.000	2.92145	-0.39140	2.30592	-0.47309
3187.000	2.94709	-0.33974	2.36513	-0.35381
3188.000	2.95892	-0.29801	2.21709	-0.31807
3189.000	2.93920	-0.28411	2.30394	-0.29420
3190.000	2.96089	-0.22451	2.27433	-0.17294
3191.000	2.95892	-0.21656	2.21906	-0.17693
3192.000	3.02004	-0.14105	2.37500	-0.14709
3193.000	3.00032	-0.18675	2.34934	-0.22462
3194.000	3.05552	-0.14105	2.36513	-0.13517
3195.000	3.06341	-0.13906	2.35526	-0.11728
3196.000	3.09889	-0.13707	2.34934	-0.21070
3197.000	3.04172	-0.15694	2.37894	-0.19281
3198.000	3.11072	-0.17878	2.36908	-0.19877
3199.000	3.13437	-0.15097	2.39078	-0.24647
3200.000	3.07918	-0.22249	2.33552	-0.22859
3201.000	3.06538	-0.20859	2.45196	-0.27628
3202.000	3.08115	-0.23243	2.42631	-0.33988
3203.000	3.06144	-0.25826	2.55260	-0.31004
3204.000	3.07327	-0.26819	2.53287	-0.40743
3205.000	3.05355	-0.31984	2.44802	-0.37566
3206.000	3.07327	-0.29401	2.45591	-0.44919
3207.000	3.02004	-0.25827	2.49932	-0.41936
3208.000	3.05947	-0.34566	2.38684	-0.44921
3209.000	3.08904	-0.29003	2.53681	-0.39749
3210.000	3.08312	-0.31387	2.53089	-0.45314
3211.000	3.06538	-0.32580	2.48551	-0.45117
3212.000	3.07327	-0.32977	2.53484	-0.51872
3213.000	3.05552	-0.39136	2.53484	-0.44121
3214.000	3.02792	-0.40726	2.48946	-0.44918
3215.000	3.04567	-0.37944	2.45986	-0.45913
3216.000	3.07327	-0.38142	2.43618	-0.49292
3217.000	3.06144	-0.39135	2.50130	-0.46507
3218.000	3.08904	-0.41915	2.44802	-0.39951
3219.000	3.10086	-0.40524	2.43618	-0.40150
3220.000	3.04567	-0.38143	2.54076	-0.57834
3221.000	3.08312	-0.41320	2.53287	-0.48692
3222.000	3.04172	-0.41917	2.43815	-0.42932
3223.000	3.07721	-0.43902	2.45788	-0.45913
3224.000	3.04172	-0.38540	2.37500	-0.39754
3225.000	3.08115	-0.39135	2.44802	-0.48099
3226.000	3.08509	-0.37943	2.38881	-0.41344
3227.000	3.09101	-0.36751	2.43815	-0.42733
3228.000	3.08706	-0.38737	2.47959	-0.47502
3229.000	3.07918	-0.40724	2.49932	-0.41539
3230.000	3.09692	-0.40723	2.43025	-0.42734
3231.000	3.10283	-0.41716	2.53287	-0.37364
3232.000	3.07129	-0.36354	2.40065	-0.39952
3233.000	3.09101	-0.40128	2.52497	-0.29614
3234.000	3.08904	-0.33970	2.46380	-0.38956
3235.000	3.06341	-0.38738	2.51511	-0.45911
3236.000	3.09692	-0.37942	2.44210	-0.37367
3237.000	3.09692	-0.35757	2.40065	-0.38362
3238.000	3.09692	-0.34565	2.48156	-0.42732
3239.000	3.07129	-0.33573	2.44407	-0.48298
3240.000	3.11663	-0.35161	2.39276	-0.38561
3241.000	3.09101	-0.34168	2.43618	-0.34982
3242.000	3.10481	-0.37346	2.48946	-0.45315
3243.000	3.11072	-0.38736	2.39671	-0.41343
3244.000	3.08115	-0.33771	2.41644	-0.39355
3245.000	3.08312	-0.36354	2.48156	-0.37167
3246.000	3.10875	-0.36353	2.45196	-0.40348
3247.000	3.13240	-0.32776	2.37302	-0.42139
3248.000	3.10875	-0.32976	2.45591	-0.39354
3249.000	3.10086	-0.30989	2.42631	-0.40945
3250.000	3.11663	-0.36948	2.39078	-0.43927
3251.000	3.08904	-0.34565	2.40460	-0.43728
3252.000	3.12649	-0.35955	2.43223	-0.38361
3253.000	3.11072	-0.37544	2.44407	-0.42733
3254.000	3.08904	-0.38340	2.49340	-0.41539
3255.000	3.10481	-0.41517	2.43815	-0.47901
3256.000	3.12846	-0.36948	2.49340	-0.42930
3257.000	3.14029	-0.34762	2.34539	-0.36773
3258.000	3.10086	-0.39928	2.38486	-0.43729
3259.000	3.12255	-0.32379	2.44999	-0.45516
3260.000	3.10875	-0.33373	2.43025	-0.40746
3261.000	3.13043	-0.35756	2.42236	-0.46113
3262.000	3.07129	-0.35758	2.46380	-0.42931
3263.000	3.12452	-0.34564	2.42039	-0.52075
3264.000	3.10283	-0.35558	2.39473	-0.48499
3265.000	3.11269	-0.38935	2.42631	-0.45119
3266.000	3.13043	-0.33174	2.53484	-0.46109
3267.000	3.07918	-0.36552	2.48156	-0.45117
3268.000	3.12255	-0.36551	2.50327	-0.47302
3269.000	3.13043	-0.33968	2.52300	-0.43327
3270.000	3.12846	-0.37345	2.42631	-0.46510
3271.000	3.13240	-0.35756	2.39473	-0.39952
3272.000	3.13043	-0.40126	2.40855	-0.36573
3273.000	3.12058	-0.36551	2.43025	-0.39951
3274.000	3.14620	-0.35954	2.45196	-0.37764
3275.000	3.12058	-0.38935	2.44999	-0.42335
3276.000	3.09889	-0.38141	2.36513	-0.39158
3277.000	3.10086	-0.38141	2.43025	-0.40746
3278.000	3.11269	-0.34366	2.49143	-0.45117
3279.000	3.09692	-0.37346	2.49735	-0.43924
3280.000	3.07918	-0.36552	2.43420	-0.45715
3281.000	3.09692	-0.38935	2.41052	-0.41939
3282.000	3.11269	-0.36352	2.52300	-0.44718
3283.000	3.09889	-0.40723	2.48551	-0.40943
3284.000	3.09692	-0.39333	2.48156	-0.41540
3285.000	3.08706	-0.32976	2.41249	-0.47504
3286.000	3.07129	-0.36155	2.40065	-0.40349
3287.000	3.06341	-0.37347	2.40460	-0.40548
3288.000	3.10086	-0.40524	2.42039	-0.43529
3289.000	3.15605	-0.32577	2.44604	-0.44124
3290.000	3.10283	-0.41518	2.39276	-0.45716
3291.000	3.08312	-0.38539	2.47762	-0.44322
3292.000	3.08115	-0.38936	2.52103	-0.46308
3293.000	3.08904	-0.41717	2.44802	-0.46907
3294.000	3.07918	-0.41518	2.42236	-0.45516
3295.000	3.04369	-0.41917	2.50919	-0.47302
3296.000	3.07327	-0.38738	2.43025	-0.43926
3297.000	3.07524	-0.39334	2.43025	-0.46709
3298.000	3.06144	-0.40725	2.40460	-0.41542
3299.000	3.04369	-0.44698	2.40460	-0.42734
3300.000	3.09889	-0.41716	2.51116	-0.48892
3301.000	3.07327	-0.39930	2.39276	-0.41741
3302.000	3.03187	-0.38342	2.38092	-0.42338
3303.000	3.08509	-0.36751	2.41644	-0.47504
3304.000	3.06735	-0.41122	2.44802	-0.45913
3305.000	3.04369	-0.40328	2.43025	-0.45914
3306.000	3.06341	-0.37347	2.39276	-0.41343
3307.000	3.06341	-0.39533	2.46380	-0.38360
3308.000	3.10678	-0.34764	2.44210	-0.42733
3309.000	3.09889	-0.34962	2.44802	-0.45913
3310.000	3.09889	-0.39134	2.38486	-0.42735
3311.000	3.07721	-0.37943	2.47959	-0.48496
3312.000	3.09298	-0.40723	2.46578	-0.48496
3313.000	3.11860	-0.41517	2.39473	-0.39952
3314.000	3.07524	-0.40327	2.47367	-0.53266
3315.000	3.10283	-0.33969	2.49143	-0.44322
3316.000	3.13437	-0.36550	2.42828	-0.48895
3317.000	3.10086	-0.40326	2.42039	-0.47107
3318.000	3.11663	-0.36551	2.37302	-0.43530
3319.000	3.07524	-0.40724	2.42236	-0.49690
3320.000	3.12846	-0.35955	2.40263	-0.42933
3321.000	3.09889	-0.38737	2.46183	-0.44323
3322.000	3.08904	-0.42114	2.47367	-0.50086
3323.000	3.07129	-0.43307	2.37697	-0.46711
3324.000	3.09298	-0.34565	2.41052	-0.48299
3325.000	3.09101	-0.33572	2.47564	-0.49291
3326.000	3.08509	-0.35956	2.48946	-0.55252
3327.000	3.07721	-0.38340	2.47367	-0.49490
3328.000	3.12846	-0.37345	2.40855	-0.45914
3329.000	3.12846	-0.36352	2.41644	-0.41343
3330.000	3.13634	-0.29201	2.45591	-0.43130
3331.000	3.08904	-0.37545	2.42433	-0.54659
3332.000	3.12846	-0.32975	2.45788	-0.44124
3333.000	3.10678	-0.35757	2.45196	-0.51080
3334.000	3.14817	-0.34762	2.39078	-0.47306
3335.000	3.05749	-0.38738	2.44407	-0.52273
3336.000	3.02989	-0.35958	2.54076	-0.54654
3337.000	3.08312	-0.32778	2.40460	-0.46908
3338.000	3.08115	-0.35360	2.45788	-0.49490
3339.000	3.05749	-0.36950	2.45788	-0.43925
3340.000	3.08706	-0.36949	2.44407	-0.49292
3341.000	3.07327	-0.41320	2.40263	-0.62013
3342.000	3.06538	-0.42115	2.37105	-0.48698
3343.000	3.08509	-0.34168	2.37302	-0.46114
3344.000	3.03778	-0.37150	2.44604	-0.54658
3345.000	3.04172	-0.41321	2.42236	-0.53466
3346.000	3.09495	-0.31188	2.44210	-0.51279
3347.000	3.06932	-0.33573	2.39671	-0.49095
3348.000	3.04172	-0.37944	2.37697	-0.46313
3349.000	3.05552	-0.39334	2.45788	-0.44124
3350.000	3.08312	-0.31785	2.35921	-0.52078
3351.000	3.07524	-0.33175	2.38289	-0.53071
3352.000	3.08312	-0.36552	2.45986	-0.47304
3353.000	3.11466	-0.29201	2.38881	-0.44325
3354.000	3.08509	-0.31785	2.44999	-0.52472
3355.000	3.07918	-0.29997	2.42039	-0.45914
3356.000	3.09101	-0.31983	2.43420	-0.58832
3357.000	3.09495	-0.21852	2.39276	-0.55256
3358.000	3.08509	-0.34168	2.39868	-0.53666
3359.000	3.08312	-0.32381	2.39276	-0.50685
3360.000	3.04369	-0.36554	2.37894	-0.50487
3361.000	3.06932	-0.31586	2.45591	-0.56446
3362.000	3.09889	-0.34168	2.41841	-0.52870
3363.000	3.08509	-0.37347	2.37500	-0.49493
3364.000	3.08115	-0.35758	2.42039	-0.55255
3365.000	3.04961	-0.38738	2.49340	-0.46905
3366.000	3.08312	-0.35162	2.42828	-0.42535
3367.000	3.02595	-0.35163	2.55062	-0.52468
3368.000	3.06144	-0.42115	2.38092	-0.54263
3369.000	3.03581	-0.38143	2.40460	-0.52672
3370.000	3.09298	-0.31784	2.45394	-0.50484
3371.000	3.03778	-0.39335	2.39671	-0.47704
3372.000	3.08312	-0.34566	2.43420	-0.49491
3373.000	3.06144	-0.35758	2.42236	-0.55653
3374.000	3.04961	-0.35163	2.41052	-0.56249
3375.000	3.06538	-0.36950	2.46578	-0.50682
3376.000	3.07524	-0.30990	2.43223	-0.52671
3377.000	3.08312	-0.34168	2.46183	-0.50682
3378.000	3.04961	-0.37348	2.47367	-0.51080
3379.000	3.06144	-0.36752	2.43223	-0.51677
3380.000	3.04567	-0.39335	2.45986	-0.48099
3381.000	3.09101	-0.38141	2.46972	-0.55055
3382.000	3.09889	-0.34168	2.44210	-0.57242
3383.000	3.09692	-0.32380	2.46972	-0.57042
3384.000	3.07524	-0.33374	2.53879	-0.46904
3385.000	3.09692	-0.36949	2.44999	-0.50683
3386.000	3.08312	-0.33970	2.46775	-0.54260
3387.000	3.03384	-0.42315	2.37697	-0.51481
3388.000	3.06932	-0.35361	2.42433	-0.57839
3389.000	3.06735	-0.35162	2.42236	-0.48498
3390.000	3.07524	-0.37943	2.43025	-0.56845
3391.000	3.04764	-0.40725	2.45986	-0.56645
3392.000	3.13240	-0.28208	2.41249	-0.53069
3393.000	3.09298	-0.33969	2.40263	-0.52672
3394.000	3.04764	-0.33772	2.42433	-0.50088
3395.000	3.05552	-0.33176	2.44210	-0.59229
3396.000	3.05947	-0.37149	2.48946	-0.55849
3397.000	3.08706	-0.33374	2.48156	-0.51079
3398.000	3.03975	-0.38739	2.40065	-0.51877
3399.000	3.07129	-0.37546	2.44012	-0.60024
3400.000	3.09101	-0.31387	2.48748	-0.51079
3401.000	3.05947	-0.35162	2.48354	-0.54656
3402.000	3.10481	-0.32181	2.39868	-0.57641
3403.000	3.07129	-0.35361	2.46380	-0.53266
3404.000	3.09101	-0.39134	2.47564	-0.51477
3405.000	3.08115	-0.34764	2.48156	-0.53265
3406.000	3.06144	-0.38142	2.54668	-0.56641
3407.000	3.06341	-0.36156	2.46775	-0.57439
3408.000	3.06144	-0.35162	2.41841	-0.53069
3409.000	3.06538	-0.35957	2.45394	-0.57838
3410.000	3.04567	-0.37348	2.42039	-0.50883
3411.000	3.02398	-0.39931	2.46972	-0.57439
3412.000	3.07129	-0.33573	2.48156	-0.51079
3413.000	3.09495	-0.30195	2.43618	-0.47901
3414.000	3.09692	-0.35558	2.41249	-0.58038
3415.000	3.08706	-0.36552	2.46972	-0.54657
3416.000	3.06932	-0.39135	2.51905	-0.55251
3417.000	3.05749	-0.36553	2.44999	-0.54857
3418.000	3.06932	-0.36950	2.46578	-0.51676
3419.000	3.08706	-0.33572	2.44802	-0.52074
3420.000	3.08904	-0.35360	2.47959	-0.55054
3421.000	3.10283	-0.35558	2.43420	-0.56050
3422.000	3.11072	-0.34763	2.42236	-0.50684
3423.000	3.05552	-0.37348	2.42433	-0.56050
3424.000	3.13634	-0.35557	2.44012	-0.43330
3425.000	3.06932	-0.34963	2.46972	-0.47900
3426.000	3.06735	-0.34963	2.47564	-0.53464
3427.000	3.13043	-0.30989	2.48551	-0.51477
3428.000	3.11072	-0.33770	2.52892	-0.52270
3429.000	3.12058	-0.35160	2.49340	-0.50483
3430.000	3.12255	-0.35558	2.45394	-0.53068
3431.000	3.11860	-0.36948	2.41052	-0.48498
3432.000	3.15408	-0.33570	2.44999	-0.47900
3433.000	3.12255	-0.33373	2.38881	-0.56250
3434.000	3.10678	-0.33174	2.46380	-0.56843
3435.000	3.13832	-0.32379	2.47959	-0.51477
3436.000	3.11466	-0.38140	2.48354	-0.55253
3437.000	3.12058	-0.40126	2.44210	-0.50087
3438.000	3.06735	-0.39731	2.47959	-0.54855
3439.000	3.11269	-0.37544	2.46183	-0.54459
3440.000	3.13634	-0.33769	2.48946	-0.55650
3441.000	3.08706	-0.42114	2.41447	-0.53666
3442.000	3.11269	-0.40921	2.39473	-0.51480
3443.000	3.07327	-0.42313	2.50524	-0.54258
3444.000	3.08706	-0.37545	2.42433	-0.53268
3445.000	3.11269	-0.35955	2.51511	-0.51078
3446.000	3.11466	-0.31982	2.44012	-0.51081
3447.000	3.06932	-0.39532	2.45591	-0.48099
3448.000	3.14029	-0.35557	2.39078	-0.54660
3449.000	3.15605	-0.31186	2.46578	-0.47502
3450.000	3.08509	-0.36751	2.48551	-0.51079
3451.000	3.09889	-0.39929	2.45986	-0.51279
3452.000	3.09692	-0.38538	2.41249	-0.58833
3453.000	3.08706	-0.43703	2.53681	-0.62802
3454.000	3.10481	-0.40326	2.41447	-0.51082
3455.000	3.13634	-0.40126	2.49932	-0.54656
3456.000	3.11663	-0.38736	2.47170	-0.55849
3457.000	3.10678	-0.38339	2.50524	-0.50681
3458.000	3.10086	-0.36353	2.44802	-0.60819
3459.000	3.06932	-0.42115	2.41841	-0.56448
3460.000	3.11072	-0.39134	2.50919	-0.54059
3461.000	3.04961	-0.36553	2.48551	-0.60420
3462.000	3.10481	-0.39134	2.43815	-0.53466
3463.000	3.10678	-0.38538	2.48551	-0.54060
3464.000	3.13437	-0.39133	2.47170	-0.48893
3465.000	3.13043	-0.34167	2.47959	-0.50682
3466.000	3.11466	-0.39332	2.47959	-0.49092
3467.000	3.04764	-0.43308	2.42631	-0.51280
3468.000	3.13634	-0.30790	2.40855	-0.53467
3469.000	3.07524	-0.38738	2.43420	-0.52075
3470.000	3.11072	-0.33770	2.43025	-0.55255
3471.000	3.08904	-0.36353	2.46775	-0.54458
3472.000	3.09298	-0.37744	2.40460	-0.53865
3473.000	3.10875	-0.35359	2.46578	-0.54856
3474.000	3.09101	-0.37346	2.56246	-0.52070
3475.000	3.12649	-0.32379	2.45591	-0.57043
3476.000	3.09298	-0.33373	2.50130	-0.56444
3477.000	3.09101	-0.35360	2.49932	-0.48892
3478.000	3.11860	-0.35359	2.42433	-0.56646
3479.000	3.06144	-0.37745	2.44604	-0.53664
3480.000	3.08509	-0.40922	2.44407	-0.51279
3481.000	3.13634	-0.34564	2.56838	-0.47896
3482.000	3.08509	-0.38539	2.43420	-0.54658
3483.000	3.10086	-0.36353	2.39276	-0.59629
3484.000	3.08706	-0.38340	2.48551	-0.57637
3485.000	3.09101	-0.34367	2.50722	-0.47700
3486.000	3.09889	-0.36949	2.48748	-0.55253
3487.000	3.07524	-0.38340	2.47762	-0.52868
3488.000	3.11072	-0.36551	2.41447	-0.54063
3489.000	3.06144	-0.39135	2.42828	-0.53466
3490.000	3.08904	-0.35161	2.44604	-0.50882
3491.000	3.09889	-0.37346	2.51313	-0.53662
3492.000	3.10481	-0.36750	2.45986	-0.58235
3493.000	3.09101	-0.39532	2.46183	-0.58632
3494.000	3.10481	-0.36750	2.50130	-0.57041
3495.000	3.11072	-0.37942	2.46775	-0.56446
3496.000	3.08509	-0.36353	2.38092	-0.52276
3497.000	3.07721	-0.39929	2.44012	-0.49690
3498.000	3.12649	-0.36153	2.44604	-0.52273
3499.000	3.11860	-0.37941	2.46775	-0.55651
3500.000	3.08312	-0.36155	2.44999	-0.56049
3501.000	3.06735	-0.38936	2.54865	-0.54455
3502.000	3.05158	-0.44897	2.46972	-0.56048
3503.000	3.08115	-0.39532	2.41841	-0.55255
3504.000	3.05158	-0.43307	2.47762	-0.57837
3505.000	3.10678	-0.41915	2.44604	-0.55850
3506.000	3.03778	-0.39335	2.45986	-0.56645
3507.000	3.09101	-0.39532	2.39276	-0.56250
3508.000	3.07524	-0.38738	2.41841	-0.56050
3509.000	3.09101	-0.41717	2.47762	-0.57042
3510.000	3.12452	-0.43304	2.42039	-0.56448
3511.000	3.08904	-0.44696	2.47959	-0.59625
3512.000	3.06538	-0.39930	2.40263	-0.51480
3513.000	3.06735	-0.36354	2.40263	-0.51281
3514.000	3.09298	-0.43306	2.43025	-0.56050
3515.000	3.07721	-0.44300	2.45591	-0.55254
3516.000	3.11466	-0.40921	2.51511	-0.55053
3517.000	3.08706	-0.38936	2.48748	-0.50284
3518.000	3.11663	-0.38935	2.40065	-0.53070
3519.000	3.09692	-0.39531	2.41644	-0.56249
3520.000	3.08706	-0.41320	2.42236	-0.54063
3521.000	3.11663	-0.41517	2.44604	-0.53664
3522.000	3.11072	-0.44298	2.44210	-0.51081
3523.000	3.10283	-0.42312	2.48551	-0.54259
3524.000	3.10481	-0.38538	2.46183	-0.60620
3525.000	3.13240	-0.40325	2.45986	-0.47304
3526.000	3.09298	-0.45689	2.39671	-0.51281
3527.000	3.07129	-0.41121	2.40460	-0.48896
3528.000	3.09889	-0.41518	2.48748	-0.52271
3529.000	3.06932	-0.43108	2.45788	-0.46708
3530.000	3.07524	-0.42909	2.35131	-0.56053
3531.000	3.09495	-0.45292	2.43815	-0.46112
3532.000	3.09495	-0.46484	2.45788	-0.51279
3533.000	3.12452	-0.41318	2.43025	-0.53665
3534.000	3.07327	-0.42115	2.43025	-0.51876
3535.000	3.07129	-0.45492	2.48551	-0.60022
3536.000	3.14029	-0.46482	2.45196	-0.49689
3537.000	3.09101	-0.40525	2.47564	-0.52669
3538.000	3.10283	-0.41716	2.48551	-0.46111
3539.000	3.07327	-0.43704	2.45788	-0.49291
3540.000	3.07524	-0.44697	2.43223	-0.51081
3541.000	3.07327	-0.47677	2.47762	-0.50483
3542.000	3.08509	-0.44498	2.45196	-0.58434
3543.000	3.09101	-0.42909	2.41644	-0.53069
3544.000	3.09101	-0.44299	2.46183	-0.55452
3545.000	3.12452	-0.42113	2.45591	-0.51875
3546.000	3.12058	-0.44695	2.42236	-0.50684
3547.000	3.08706	-0.44299	2.42236	-0.51081
3548.000	3.12452	-0.44496	2.47367	-0.53266
3549.000	3.10481	-0.41716	2.53681	-0.54058
3550.000	3.10086	-0.40326	2.46183	-0.45118
3551.000	3.11269	-0.39928	2.42631	-0.51280
3552.000	3.13832	-0.39927	2.38289	-0.49294
3553.000	3.06735	-0.41916	2.42236	-0.46510
3554.000	3.09692	-0.40525	2.44802	-0.44323
3555.000	3.01807	-0.41918	2.38289	-0.40748
3556.000	2.97666	-0.36953	2.31381	-0.41147
3557.000	2.91948	-0.36558	2.28618	-0.45322
3558.000	2.86624	-0.34175	2.10456	-0.47316
3559.000	2.75185	-0.35967	2.06902	-0.41551
3560.000	2.68083	-0.33584	2.00781	-0.34197
3561.000	2.50524	-0.31800	1.85378	-0.43147
3562.000	2.35329	-0.30810	1.89328	-0.37380
3563.000	2.23486	-0.29819	1.69972	-0.35396
3564.000	2.12825	-0.29821	1.52786	-0.34802
3565.000	2.01769	-0.29624	1.43500	-0.32020
3566.000	1.83403	-0.36189	1.31448	-0.31623
3567.000	1.84193	-0.35393	1.29472	-0.37391
3568.000	1.75108	-0.34003	1.28879	-0.29834
3569.000	1.73528	-0.35395	1.26508	-0.33414
3570.000	1.75700	-0.34003	1.25322	-0.34806
3571.000	1.80243	-0.36786	1.27496	-0.23072
3572.000	1.82218	-0.36388	1.31250	-0.28043
3573.000	1.94462	-0.37578	1.37771	-0.26253
3574.000	2.04730	-0.33798	1.49625	-0.30825
3575.000	2.13615	-0.40556	1.60886	-0.30426
3576.000	2.22499	-0.37571	1.63849	-0.30227
3577.000	2.27631	-0.40751	1.76095	-0.32014
3578.000	2.46380	-0.31205	1.87156	-0.26048
3579.000	2.48156	-0.32198	1.83996	-0.26446
3580.000	2.56444	-0.33587	1.88933	-0.33006
3581.000	2.51511	-0.34582	1.91500	-0.33602
3582.000	2.58614	-0.32196	1.81626	-0.32014
3583.000	2.55654	-0.34581	1.89723	-0.36784
3584.000	2.54076	-0.30408	1.84391	-0.33206
3585.000	2.54076	-0.33986	1.87748	-0.37580
3586.000	2.54668	-0.34184	1.80836	-0.44938
3587.000	2.45196	-0.38559	1.84983	-0.37183
3588.000	2.44407	-0.39752	1.81428	-0.34996
3589.000	2.42828	-0.31405	1.77083	-0.28037
3590.000	2.38289	-0.36375	1.78268	-0.34201
3591.000	2.32960	-0.33395	1.75108	-0.31219
3592.000	2.33552	-0.37966	1.71948	-0.33407
3593.000	2.35526	-0.39556	1.77083	-0.32810
3594.000	2.34342	-0.37767	1.70170	-0.25056
3595.000	2.31579	-0.34389	1.74910	-0.35793
3596.000	2.28815	-0.35185	1.67404	-0.31618
3597.000	2.27433	-0.38564	1.61676	-0.30625
3598.000	2.27631	-0.32998	1.63059	-0.34403
3599.000	2.28223	-0.36377	1.58120	-0.28637
3600.000	2.25065	-0.34987	1.61083	-0.30028
3601.000	2.23683	-0.37770	1.61873	-0.30824
3602.000	2.25854	-0.33595	1.61083	-0.31818
3603.000	2.24275	-0.39161	1.61478	-0.30227
3604.000	2.26249	-0.34788	1.53971	-0.29831
3605.000	2.21906	-0.39758	1.66219	-0.28238
3606.000	2.20722	-0.36379	1.67404	-0.26448
3607.000	2.23288	-0.34391	1.67602	-0.30027
3608.000	2.23880	-0.36975	1.65034	-0.25255
3609.000	2.23288	-0.41149	1.58318	-0.34205
3610.000	2.24078	-0.38963	1.62071	-0.30028
3611.000	2.25065	-0.36776	1.59898	-0.26648
3612.000	2.28223	-0.33594	1.58120	-0.31620
3613.000	2.28223	-0.37968	1.61873	-0.26846
3614.000	2.26249	-0.40552	1.63454	-0.30227
3615.000	2.28026	-0.44726	1.60293	-0.30227
3616.000	2.25460	-0.41348	1.59898	-0.26051
3617.000	2.25657	-0.38366	1.60096	-0.31619
3618.000	2.25262	-0.42540	1.55552	-0.24063
3619.000	2.27039	-0.41745	1.61083	-0.29034
3620.000	2.28223	-0.40949	1.59898	-0.32216
3621.000	2.30789	-0.42340	1.62861	-0.29829
3622.000	2.33158	-0.40749	1.63059	-0.26846
3623.000	2.30197	-0.32998	1.63849	-0.34403
3624.000	2.28420	-0.38763	1.62466	-0.29233
3625.000	2.30592	-0.37768	1.66614	-0.25852
3626.000	2.33552	-0.35382	1.64639	-0.22670
3627.000	2.29210	-0.36576	1.67207	-0.33607
3628.000	2.36118	-0.35381	1.66219	-0.29232
3629.000	2.32368	-0.32401	1.64639	-0.33210
3630.000	2.30197	-0.34588	1.67997	-0.31022
3631.000	2.29210	-0.37769	1.57330	-0.30625
3632.000	2.31184	-0.35581	1.58515	-0.24858
3633.000	2.28815	-0.36576	1.61676	-0.30824
3634.000	2.29605	-0.37371	1.60293	-0.38182
3635.000	2.31973	-0.32997	1.64244	-0.30028
3636.000	2.31381	-0.35979	1.60096	-0.25852
3637.000	2.28420	-0.39955	1.68787	-0.32612
3638.000	2.31381	-0.31805	1.64244	-0.28238
3639.000	2.34539	-0.32798	1.68590	-0.32016
3640.000	2.36710	-0.31605	1.74515	-0.31418
3641.000	2.34144	-0.36177	1.65627	-0.29232
3642.000	2.32960	-0.32599	1.66022	-0.27045
3643.000	2.30789	-0.36774	1.63256	-0.32215
3644.000	2.27236	-0.34787	1.61281	-0.30227
3645.000	2.29210	-0.33594	1.63256	-0.25255
3646.000	2.32368	-0.37569	1.66417	-0.30028
3647.000	2.31776	-0.34587	1.66022	-0.29232
3648.000	2.31381	-0.34786	1.62269	-0.28238
3649.000	2.32368	-0.35979	1.67009	-0.28039
3650.000	2.33158	-0.31009	1.66614	-0.28437
3651.000	2.32565	-0.31009	1.70367	-0.31220
3652.000	2.33750	-0.33991	1.61478	-0.28437
3653.000	2.32368	-0.34389	1.68392	-0.29828
3654.000	2.32763	-0.34587	1.71553	-0.28038
3655.000	2.34539	-0.33990	1.62861	-0.23267
3656.000	2.32171	-0.29220	1.60293	-0.23068
3657.000	2.29407	-0.34986	1.67602	-0.28437
3658.000	2.31973	-0.34190	1.54959	-0.36592
3659.000	2.32565	-0.31804	1.63651	-0.20682
3660.000	2.30197	-0.32203	1.65034	-0.27641
3661.000	2.31381	-0.31010	1.63256	-0.34005
3662.000	2.29605	-0.32998	1.70170	-0.31220
3663.000	2.30000	-0.32998	1.63059	-0.27841
3664.000	2.30197	-0.34985	1.66022	-0.30028
3665.000	2.30789	-0.37172	1.68590	-0.27442
3666.000	2.31184	-0.34786	1.66614	-0.25056
3667.000	2.33552	-0.35978	1.58318	-0.24659
3668.000	2.32171	-0.35184	1.63849	-0.27841
3669.000	2.30986	-0.35582	1.67009	-0.20284
3670.000	2.33158	-0.31606	1.58515	-0.23665
3671.000	2.30000	-0.32600	1.64244	-0.26051
3672.000	2.34144	-0.33195	1.64639	-0.24858
3673.000	2.32565	-0.32003	1.61676	-0.27244
3674.000	2.30986	-0.33793	1.64639	-0.23068
3675.000	2.30789	-0.36774	1.62861	-0.26647
3676.000	2.32565	-0.34587	1.69380	-0.22272
3677.000	2.30394	-0.33594	1.59898	-0.33608
3678.000	2.31381	-0.32997	1.65429	-0.21477
3679.000	2.33552	-0.37569	1.64244	-0.23664
3680.000	2.32368	-0.33395	1.71948	-0.29032
3681.000	2.31776	-0.36376	1.67009	-0.26050
3682.000	2.36513	-0.34388	1.64244	-0.28039
3683.000	2.32368	-0.33593	1.70367	-0.27044
3684.000	2.30000	-0.39557	1.70565	-0.33805
3685.000	2.32960	-0.39358	1.67602	-0.27243
3686.000	2.33750	-0.39357	1.60096	-0.22273
3687.000	2.31381	-0.36377	1.63849	-0.21079
3688.000	2.35526	-0.37369	1.72738	-0.29032
3689.000	2.30789	-0.35383	1.56540	-0.26052
3690.000	2.29802	-0.36178	1.60886	-0.24261
3691.000	2.31776	-0.39557	1.60886	-0.27244
3692.000	2.33552	-0.37171	1.60293	-0.26847
3693.000	2.31579	-0.32202	1.57132	-0.29631
3694.000	2.33355	-0.35183	1.65429	-0.22869
3695.000	2.29407	-0.38166	1.64441	-0.26448
3696.000	2.31184	-0.37370	1.64441	-0.23267
3697.000	2.33158	-0.34985	1.68787	-0.21476
3698.000	2.31776	-0.41346	1.64244	-0.24062
3699.000	2.31973	-0.36774	1.65232	-0.29033
3700.000	2.33750	-0.38364	1.62861	-0.23863
3701.000	2.30986	-0.41346	1.61478	-0.32415
3702.000	2.33158	-0.37966	1.61281	-0.27443
3703.000	2.35723	-0.36375	1.59108	-0.22472
3704.000	2.30986	-0.39955	1.70367	-0.18692
3705.000	2.33158	-0.37569	1.64639	-0.17699
3706.000	2.33552	-0.40749	1.65824	-0.28437
3707.000	2.29802	-0.39557	1.70170	-0.29232
3708.000	2.31381	-0.41743	1.66417	-0.25852
3709.000	2.33947	-0.36177	1.64639	-0.17699
3710.000	2.30394	-0.36377	1.64837	-0.28039
3711.000	2.31776	-0.39756	1.61873	-0.24659
3712.000	2.34737	-0.41742	1.63059	-0.28636
3713.000	2.34144	-0.42140	1.67800	-0.24857
3714.000	2.28420	-0.42142	1.60886	-0.24063
3715.000	2.30789	-0.39756	1.64639	-0.25454
3716.000	2.30000	-0.40154	1.64046	-0.22869
3717.000	2.31579	-0.36973	1.68195	-0.26647
3718.000	2.29210	-0.36973	1.62664	-0.23665
3719.000	2.28815	-0.40949	1.67009	-0.18693
3720.000	2.30592	-0.36575	1.62861	-0.30028
3721.000	2.31184	-0.37172	1.59503	-0.23665
3722.000	2.33355	-0.40948	1.65429	-0.30823
3723.000	2.32960	-0.34587	1.62071	-0.25256
3724.000	2.33158	-0.39159	1.63454	-0.29034
3725.000	2.31579	-0.35979	1.60886	-0.29432
3726.000	2.32171	-0.38563	1.60886	-0.25653
3727.000	2.33552	-0.39159	1.59700	-0.26449
3728.000	2.33158	-0.38761	1.61676	-0.22472
3729.000	2.31184	-0.39557	1.66417	-0.25454
3730.000	2.31776	-0.33395	1.59503	-0.20483
3731.000	2.31184	-0.37768	1.67800	-0.27641
3732.000	2.30592	-0.36973	1.63059	-0.24858
3733.000	2.32565	-0.38761	1.55354	-0.20484
3734.000	2.29605	-0.37371	1.60096	-0.23864
3735.000	2.30000	-0.36576	1.64441	-0.22074
3736.000	2.31973	-0.40153	1.66219	-0.28437
3737.000	2.35131	-0.36574	1.67997	-0.31419
3738.000	2.32368	-0.39358	1.61676	-0.25852
3739.000	2.32368	-0.39557	1.62861	-0.19091
3740.000	2.34342	-0.41345	1.65034	-0.22471
3741.000	2.30986	-0.39955	1.62466	-0.33608
3742.000	2.31973	-0.39358	1.69775	-0.29232
3743.000	2.31973	-0.35581	1.68590	-0.25454
3744.000	2.32171	-0.37569	1.55749	-0.23864
3745.000	2.29210	-0.36576	1.63059	-0.20085
3746.000	2.34539	-0.36177	1.65429	-0.17500
3747.000	2.33552	-0.38562	1.68392	-0.23266
3748.000	2.37105	-0.33990	1.63849	-0.25653
3749.000	2.33158	-0.37370	1.63651	-0.27244
3750.000	2.31381	-0.37172	1.60491	-0.24261
3751.000	2.30394	-0.38762	1.68392	-0.25056
3752.000	2.30197	-0.37967	1.60688	-0.27443
3753.000	2.32763	-0.35979	1.60886	-0.26250
3754.000	2.31973	-0.37569	1.68590	-0.19886
3755.000	2.30986	-0.36575	1.56737	-0.23069
3756.000	2.32960	-0.35979	1.69775	-0.27840
3757.000	2.31579	-0.34190	1.71750	-0.23266
3758.000	2.35526	-0.30810	1.65627	-0.24460
3759.000	2.33947	-0.38165	1.64244	-0.24261
3760.000	2.31184	-0.38762	1.65034	-0.25653
3761.000	2.32565	-0.37171	1.60293	-0.20682
3762.000	2.32960	-0.31208	1.63256	-0.25852
3763.000	2.34737	-0.32003	1.67800	-0.19488
3764.000	2.35329	-0.31208	1.62269	-0.27244
3765.000	2.35131	-0.33195	1.74515	-0.25055
3766.000	2.35526	-0.35382	1.70565	-0.16306
3767.000	2.34342	-0.37171	1.63651	-0.22869
3768.000	2.35921	-0.32599	1.68590	-0.24062
3769.000	2.35921	-0.35779	1.66219	-0.22471
3770.000	2.34342	-0.37171	1.73923	-0.24657
3771.000	2.38684	-0.34586	1.69380	-0.22272
3772.000	2.31776	-0.35979	1.61873	-0.18892
3773.000	2.33158	-0.34587	1.62664	-0.21278
3774.000	2.32565	-0.39358	1.61873	-0.24858
3775.000	2.27828	-0.33595	1.70565	-0.23664
3776.000	2.34144	-0.34388	1.65824	-0.27641
3777.000	2.30789	-0.36575	1.60886	-0.27841
3778.000	2.35131	-0.37171	1.74120	-0.21078
3779.000	2.34934	-0.35779	1.62466	-0.20881
3780.000	2.35329	-0.36574	1.64244	-0.21875
3781.000	2.35723	-0.33791	1.69182	-0.19090
3782.000	2.33750	-0.31804	1.66219	-0.29431
3783.000	2.33947	-0.32003	1.70762	-0.20283
3784.000	2.33552	-0.32599	1.65824	-0.25255
3785.000	2.32368	-0.34786	1.69775	-0.22073
3786.000	2.35921	-0.32400	1.65627	-0.26051
3787.000	2.31973	-0.34389	1.70762	-0.23664
3788.000	2.31579	-0.33196	1.59503	-0.21676
3789.000	2.35526	-0.33593	1.68392	-0.20085
3790.000	2.35131	-0.36177	1.63454	-0.25852
3791.000	2.33947	-0.34786	1.71158	-0.22669
3792.000	2.32960	-0.36177	1.65034	-0.27641
3793.000	2.33947	-0.33394	1.67207	-0.21079
3794.000	2.35131	-0.34189	1.68195	-0.23465
3795.000	2.32368	-0.33593	1.66614	-0.27641
3796.000	2.35131	-0.34984	1.67404	-0.17102
3797.000	2.31579	-0.33594	1.64441	-0.18494
3798.000	2.34342	-0.33195	1.73528	-0.20482
3799.000	2.36315	-0.28822	1.63256	-0.23863
3800.000	2.32763	-0.32003	1.65627	-0.17699
3801.000	2.38092	-0.30412	1.69972	-0.18494
3802.000	2.32960	-0.32401	1.64639	-0.22670
3803.000	2.31381	-0.31208	1.63059	-0.17102
3804.000	2.36710	-0.29220	1.56342	-0.25853
3805.000	2.34737	-0.27033	1.66812	-0.22073
3806.000	2.37697	-0.27232	1.75898	-0.21078
3807.000	2.30592	-0.28823	1.62664	-0.23466
3808.000	2.32960	-0.29220	1.65034	-0.22073
3809.000	2.37697	-0.31605	1.66812	-0.27641
3810.000	2.35921	-0.32400	1.69775	-0.17499
3811.000	2.35526	-0.32798	1.67602	-0.17499
3812.000	2.35526	-0.29021	1.73133	-0.23465
3813.000	2.34737	-0.32997	1.68392	-0.11136
3814.000	2.35131	-0.34189	1.67602	-0.20085
3815.000	2.35131	-0.30810	1.62861	-0.17699
3816.000	2.35921	-0.27828	1.64639	-0.23664
3817.000	2.35723	-0.31804	1.75305	-0.15908
3818.000	2.39276	-0.31803	1.66219	-0.18693
3819.000	2.33355	-0.28624	1.67009	-0.22869
3820.000	2.37302	-0.27232	1.59503	-0.20881
3821.000	2.36908	-0.29021	1.71948	-0.15908
3822.000	2.37697	-0.30611	1.63454	-0.20284
3823.000	2.37302	-0.34586	1.72343	-0.24857
3824.000	2.35723	-0.31406	1.73923	-0.14914
3825.000	2.35921	-0.29220	1.62861	-0.24460
3826.000	2.34539	-0.31208	1.67800	-0.18693
3827.000	2.33947	-0.29419	1.67404	-0.17698
3828.000	2.31579	-0.27432	1.65034	-0.19289
3829.000	2.34934	-0.29816	1.66417	-0.25653
3830.000	2.39473	-0.27033	1.71158	-0.23465
3831.000	2.37894	-0.32996	1.72145	-0.17101
3832.000	2.36710	-0.27232	1.69182	-0.21874
3833.000	2.33947	-0.31208	1.71750	-0.16505
3834.000	2.34342	-0.29419	1.69577	-0.17698
3835.000	2.36710	-0.30015	1.73528	-0.22470
3836.000	2.36513	-0.31207	1.65232	-0.18494
3837.000	2.37105	-0.29617	1.68392	-0.18494
3838.000	2.37302	-0.28226	1.65232	-0.20284
3839.000	2.37500	-0.30611	1.71948	-0.19686
3840.000	2.34144	-0.32798	1.69775	-0.24260
3841.000	2.33552	-0.29419	1.64244	-0.14915
3842.000	2.34342	-0.26636	1.74713	-0.11136
3843.000	2.33750	-0.29021	1.69380	-0.19886
3844.000	2.32171	-0.32401	1.70762	-0.21874
3845.000	2.33947	-0.31407	1.69775	-0.20880
3846.000	2.32368	-0.29220	1.72145	-0.14317
3847.000	2.34934	-0.29816	1.67602	-0.25255
3848.000	2.34934	-0.30214	1.67997	-0.16306
3849.000	2.36513	-0.29816	1.67997	-0.18494
3850.000	2.35723	-0.30810	1.68787	-0.16107
3851.000	2.32960	-0.32202	1.70565	-0.22471
3852.000	2.39078	-0.31008	1.67009	-0.19687
3853.000	2.34342	-0.32003	1.69577	-0.17897
3854.000	2.35723	-0.28623	1.72145	-0.18096
3855.000	2.34737	-0.27630	1.67800	-0.21079
3856.000	2.34144	-0.28226	1.70170	-0.17698
3857.000	2.36710	-0.28623	1.69775	-0.16903
3858.000	2.32565	-0.29817	1.67404	-0.19090
3859.000	2.31381	-0.30811	1.65824	-0.24857
3860.000	2.34342	-0.29220	1.65429	-0.12329
3861.000	2.35723	-0.29021	1.69577	-0.19488
3862.000	2.35921	-0.27431	1.68590	-0.14715
3863.000	2.32171	-0.31407	1.68787	-0.23465
3864.000	2.33750	-0.30612	1.76293	-0.20879
3865.000	2.31973	-0.28425	1.69182	-0.18494
3866.000	2.34539	-0.29220	1.72540	-0.12528
3867.000	2.33158	-0.32599	1.72540	-0.23067
3868.000	2.35723	-0.31207	1.71355	-0.24061
3869.000	2.38486	-0.28424	1.71158	-0.19289
3870.000	2.38092	-0.32201	1.77676	-0.16107
3871.000	2.36118	-0.29220	1.70762	-0.21874
3872.000	2.33158	-0.27630	1.67009	-0.19488
3873.000	2.35131	-0.29816	1.70565	-0.18494
3874.000	2.34539	-0.25642	1.70565	-0.21675
3875.000	2.32960	-0.31009	1.70762	-0.18295
3876.000	2.30789	-0.28227	1.70960	-0.25652
3877.000	2.36118	-0.31605	1.72540	-0.21874
3878.000	2.32763	-0.27630	1.73133	-0.20084
3879.000	2.35131	-0.29617	1.71750	-0.19885
3880.000	2.32960	-0.29022	1.76886	-0.21674
3881.000	2.35329	-0.30810	1.69972	-0.30822
3882.000	2.36118	-0.30015	1.73923	-0.16107
3883.000	2.33355	-0.32003	1.68787	-0.24857
3884.000	2.37500	-0.27828	1.67404	-0.11733
3885.000	2.33158	-0.33394	1.72145	-0.22868
3886.000	2.38684	-0.30809	1.73528	-0.16902
3887.000	2.35329	-0.29816	1.70762	-0.26448
3888.000	2.36710	-0.29816	1.68590	-0.16306
3889.000	2.37894	-0.25244	1.70367	-0.27243
3890.000	2.31973	-0.28425	1.67009	-0.18494
3891.000	2.35921	-0.30412	1.74318	-0.24061
3892.000	2.35526	-0.26437	1.71750	-0.17101
3893.000	2.38289	-0.26238	1.73133	-0.23663
3894.000	2.34144	-0.31009	1.60886	-0.15909
3895.000	2.33355	-0.26040	1.76491	-0.19686
3896.000	2.39473	-0.27033	1.69182	-0.14517
3897.000	2.36908	-0.31605	1.76688	-0.24061
3898.000	2.38486	-0.27231	1.73330	-0.26447
3899.000	2.36315	-0.29816	1.76095	-0.23464
3900.000	2.39276	-0.26039	1.73923	-0.26646
3901.000	2.35723	-0.32400	1.72145	-0.21476
3902.000	2.36315	-0.32599	1.74318	-0.21476
3903.000	2.35723	-0.31804	1.73528	-0.27839
3904.000	2.33158	-0.29220	1.77478	-0.16504
3905.000	2.32171	-0.29022	1.66417	-0.24261
3906.000	2.35723	-0.31009	1.66022	-0.20085
3907.000	2.34539	-0.28822	1.76688	-0.20283
3908.000	2.33947	-0.29618	1.71158	-0.19687
3909.000	2.33947	-0.31407	1.71355	-0.21874
3910.000	2.35329	-0.32798	1.75108	-0.22669
3911.000	2.30986	-0.32202	1.73330	-0.18493
3912.000	2.33947	-0.30015	1.75305	-0.21675
3913.000	2.36513	-0.32201	1.75503	-0.21277
3914.000	2.38486	-0.28027	1.76095	-0.20084
3915.000	2.33947	-0.33593	1.69775	-0.17102
3916.000	2.34934	-0.31406	1.71553	-0.15312
3917.000	2.33355	-0.29419	1.77281	-0.12329
3918.000	2.32565	-0.32003	1.76293	-0.20680
3919.000	2.32368	-0.31606	1.80441	-0.20680
3920.000	2.33552	-0.32997	1.73330	-0.11335
3921.000	2.34144	-0.31605	1.66219	-0.21477
3922.000	2.37105	-0.29816	1.76491	-0.18692
3923.000	2.32368	-0.33395	1.73330	-0.21874
3924.000	2.32763	-0.30811	1.77676	-0.17300
3925.000	2.30789	-0.29817	1.68787	-0.15710
3926.000	2.35723	-0.35382	1.66614	-0.24658
3927.000	2.33355	-0.33394	1.68195	-0.16107
3928.000	2.36513	-0.30810	1.66417	-0.20085
3929.000	2.41841	-0.33392	1.78663	-0.23265
3930.000	2.38486	-0.29815	1.72145	-0.21476
3931.000	2.34737	-0.30611	1.69182	-0.14318
3932.000	2.35921	-0.32599	1.82811	-0.20083
3933.000	2.34737	-0.34189	1.74515	-0.14914
3934.000	2.34342	-0.31406	1.66812	-0.22073
3935.000	2.35329	-0.30412	1.74120	-0.16704
3936.000	2.30986	-0.35582	1.78071	-0.17101
3937.000	2.33947	-0.35382	1.73725	-0.21874
3938.000	2.34539	-0.35382	1.72935	-0.21078
3939.000	2.34737	-0.31804	1.66812	-0.23863
3940.000	2.34934	-0.31009	1.70762	-0.18295
3941.000	2.34934	-0.27828	1.73725	-0.20482
3942.000	2.37105	-0.30611	1.78663	-0.22668
3943.000	2.31776	-0.29618	1.77478	-0.16703
3944.000	2.34737	-0.27431	1.75898	-0.17300
3945.000	2.36315	-0.29617	1.72145	-0.14715
3946.000	2.34737	-0.31804	1.70367	-0.22868
3947.000	2.34342	-0.28027	1.74713	-0.20680
3948.000	2.35921	-0.30015	1.73528	-0.23464
3949.000	2.38684	-0.31803	1.74120	-0.17698
3950.000	2.35131	-0.32400	1.71355	-0.12130
3951.000	2.37302	-0.33393	1.69380	-0.17698
3952.000	2.36513	-0.32201	1.74713	-0.16306
3953.000	2.36710	-0.30015	1.77873	-0.16703
3954.000	2.37500	-0.32002	1.80441	-0.23066
3955.000	2.37500	-0.31406	1.70565	-0.19289
3956.000	2.36908	-0.31008	1.71158	-0.18493
3957.000	2.35329	-0.29816	1.74713	-0.21874
3958.000	2.39276	-0.28225	1.76293	-0.22669
3959.000	2.39276	-0.30412	1.75305	-0.19487
3960.000	2.37500	-0.31207	1.73725	-0.25453
3961.000	2.33750	-0.28624	1.71158	-0.26646
3962.000	2.34934	-0.30810	1.78268	-0.16902
3963.000	2.34737	-0.30015	1.76293	-0.24061
3964.000	2.32960	-0.31606	1.74120	-0.20680
3965.000	2.32368	-0.34190	1.77083	-0.20879
3966.000	2.31973	-0.29221	1.75503	-0.22271
3967.000	2.34737	-0.28425	1.72540	-0.25652
3968.000	2.35526	-0.26238	1.69775	-0.21278
3969.000	2.34539	-0.29419	1.73528	-0.20283
3970.000	2.36513	-0.27431	1.70367	-0.16107
3971.000	2.33355	-0.27431	1.74318	-0.23266
3972.000	2.34539	-0.26835	1.78268	-0.15908
3973.000	2.34737	-0.28822	1.78466	-0.27043
3974.000	2.33552	-0.28823	1.77676	-0.24856
3975.000	2.33355	-0.26040	1.79848	-0.21674
3976.000	2.32960	-0.28226	1.79058	-0.21674
3977.000	2.34342	-0.25443	1.80638	-0.26048
3978.000	2.37894	-0.26238	1.83601	-0.23264
3979.000	2.35131	-0.24648	1.82218	-0.27241
3980.000	2.34737	-0.27033	1.78071	-0.22470
3981.000	2.33947	-0.22859	1.81033	-0.21475
3982.000	2.34342	-0.24251	1.81823	-0.22072
3983.000	2.35526	-0.24847	1.75898	-0.20879
3984.000	2.37894	-0.26238	1.71948	-0.19686
3985.000	2.37105	-0.28027	1.74515	-0.23067
3986.000	2.35329	-0.26238	1.81626	-0.19884
3987.000	2.37500	-0.24449	1.80441	-0.23464
3988.000	2.36513	-0.30412	1.81231	-0.13323
3989.000	2.39473	-0.25244	1.76886	-0.21476
3990.000	2.38092	-0.25045	1.78663	-0.20083
3991.000	2.33355	-0.23655	1.75108	-0.17101
3992.000	2.35526	-0.25841	1.76491	-0.18095
3993.000	2.36710	-0.22064	1.76688	-0.19089
3994.000	2.32171	-0.25046	1.82416	-0.21674
3995.000	2.32368	-0.25642	1.80836	-0.27440
3996.000	2.34737	-0.20673	1.81231	-0.16902
3997.000	2.35723	-0.26834	1.73923	-0.24260
3998.000	2.32565	-0.26636	1.80638	-0.28633
3999.000	2.35723	-0.23654	1.77873	-0.19686
4000.000	2.34144	-0.20872	1.79848	-0.20083
4001.000	2.38289	-0.22262	1.78466	-0.25850
4002.000	2.34539	-0.20275	1.79651	-0.24259
4003.000	2.36315	-0.26039	1.80638	-0.27043
4004.000	2.34539	-0.22263	1.80638	-0.23066
4005.000	2.38289	-0.24051	1.83798	-0.18691
4006.000	2.34144	-0.28823	1.80441	-0.24259
4007.000	2.37105	-0.28822	1.81231	-0.20481
4008.000	2.36513	-0.26238	1.79256	-0.16504
4009.000	2.36513	-0.21865	1.80046	-0.20680
4010.000	2.36513	-0.25045	1.85971	-0.22270
4011.000	2.37105	-0.26039	1.77478	-0.30423
4012.000	2.33552	-0.22064	1.84786	-0.22867
4013.000	2.36710	-0.24648	1.79651	-0.18691
4014.000	2.36315	-0.22859	1.80243	-0.21873
4015.000	2.31579	-0.25444	1.82811	-0.23463
4016.000	2.35526	-0.23058	1.81033	-0.28236
4017.000	2.32960	-0.24450	1.83601	-0.20878
4018.000	2.38092	-0.24449	1.80638	-0.21276
4019.000	2.35723	-0.23654	1.78466	-0.17697
4020.000	2.34934	-0.27033	1.74318	-0.19090
4021.000	2.35723	-0.27033	1.80046	-0.24458
4022.000	2.37697	-0.27232	1.83403	-0.20679
4023.000	2.30789	-0.25245	1.79058	-0.21674
4024.000	2.31973	-0.24052	1.82613	-0.14913
4025.000	2.31381	-0.27630	1.73725	-0.23266
4026.000	2.36908	-0.24449	1.76886	-0.23663
4027.000	2.32763	-0.28624	1.82416	-0.18890
4028.000	2.32565	-0.27034	1.82613	-0.17299
4029.000	2.35921	-0.26636	1.82613	-0.22668
4030.000	2.33947	-0.26238	1.84983	-0.21673
4031.000	2.35131	-0.23853	1.81823	-0.18691
4032.000	2.33750	-0.29618	1.79256	-0.22470
4033.000	2.36315	-0.27033	1.80441	-0.22072
4034.000	2.36315	-0.27232	1.76293	-0.18493
4035.000	2.33947	-0.27034	1.88341	-0.30422
4036.000	2.37105	-0.27431	1.77478	-0.27839
4037.000	2.35526	-0.27232	1.85181	-0.19089
4038.000	2.35921	-0.22461	1.84786	-0.22867
4039.000	2.35526	-0.28027	1.79256	-0.19487
4040.000	2.33947	-0.24450	1.86958	-0.15310
4041.000	2.34934	-0.26437	1.75503	-0.19288
4042.000	2.33552	-0.30612	1.75898	-0.28236
4043.000	2.33355	-0.29419	1.74713	-0.25254
4044.000	2.38486	-0.25244	1.80046	-0.23662
4045.000	2.36908	-0.29021	1.77281	-0.13323
4046.000	2.31973	-0.27034	1.91303	-0.24257
4047.000	2.34342	-0.29618	1.78663	-0.18890
4048.000	2.37105	-0.29219	1.82811	-0.21873
4049.000	2.38881	-0.27033	1.81626	-0.19089
4050.000	2.38486	-0.30610	1.84193	-0.19089
4051.000	2.37302	-0.29021	1.80836	-0.22469
4052.000	2.34934	-0.28425	1.80441	-0.22668
4053.000	2.34342	-0.28425	1.89130	-0.19883
4054.000	2.38092	-0.31803	1.83403	-0.20481
4055.000	2.36315	-0.28027	1.77676	-0.24458
4056.000	2.35526	-0.27431	1.85971	-0.24258
4057.000	2.35526	-0.28425	1.80046	-0.22271
4058.000	2.39473	-0.28026	1.80638	-0.23662
4059.000	2.35921	-0.30412	1.82416	-0.18293
4060.000	2.36908	-0.30412	1.82811	-0.15112
4061.000	2.36315	-0.32201	1.78268	-0.21475
4062.000	2.35921	-0.28226	1.80836	-0.15709
4063.000	2.39473	-0.30610	1.75108	-0.18692
4064.000	2.40263	-0.28622	1.84391	-0.18492
4065.000	2.42631	-0.28622	1.82416	-0.21674
4066.000	2.36908	-0.30412	1.79848	-0.16106
4067.000	2.38289	-0.30611	1.83206	-0.19288
4068.000	2.38684	-0.27828	1.80243	-0.19884
4069.000	2.38092	-0.29617	1.88341	-0.19685
4070.000	2.36315	-0.29816	1.80836	-0.17896
4071.000	2.36908	-0.29021	1.79453	-0.18493
4072.000	2.37302	-0.28226	1.72935	-0.15709
4073.000	2.38684	-0.32002	1.90118	-0.18690
4074.000	2.36513	-0.27431	1.92290	-0.25848
4075.000	2.40460	-0.27430	1.88933	-0.19685
4076.000	2.37697	-0.33990	1.79651	-0.14118
4077.000	2.38092	-0.26238	1.92883	-0.24456
4078.000	2.41052	-0.28026	1.85181	-0.17697
4079.000	2.38092	-0.29020	1.84983	-0.19089
4080.000	2.40855	-0.27032	1.78861	-0.20282
4081.000	2.38881	-0.30213	1.80046	-0.19884
4082.000	2.39671	-0.28623	1.91303	-0.23263
4083.000	2.38684	-0.26834	1.78071	-0.22470
4084.000	2.37500	-0.30213	1.76886	-0.18294
4085.000	2.42236	-0.27827	1.82021	-0.32411
4086.000	2.38289	-0.28822	1.85378	-0.22071
4087.000	2.40657	-0.30809	1.90315	-0.21673
4088.000	2.41052	-0.30212	1.89920	-0.24059
4089.000	2.34737	-0.30015	1.83601	-0.19685
4090.000	2.40855	-0.28821	1.89328	-0.19685
4091.000	2.38289	-0.25641	1.83008	-0.26247
4092.000	2.40855	-0.26237	1.83798	-0.21077
4093.000	2.37697	-0.26834	1.82811	-0.29428
4094.000	2.40855	-0.31206	1.87946	-0.19685
4095.000	2.37894	-0.24250	1.89920	-0.21076
4096.000	2.42039	-0.24448	1.87946	-0.18492
4097.000	2.40263	-0.26635	1.84391	-0.21475
4098.000	2.40263	-0.29020	1.90908	-0.25053
4099.000	2.43223	-0.23653	1.85971	-0.20480
4100.000	2.40460	-0.25840	1.86366	-0.28036
