time (ms)	lx (deg)	ly (deg)	rx (deg)	ry (deg)
0.000	0.02966	0.71019	0.10676	0.56896
1.000	0.01384	0.69229	0.12257	0.53514
2.000	-0.00395	0.72412	0.15223	0.48342
3.000	0.01186	0.69826	0.08501	0.47149
4.000	0.02372	0.72014	0.16014	0.49536
5.000	-0.02372	0.70820	0.05931	0.51127
6.000	0.01186	0.70621	0.16409	0.52718
7.000	-0.00593	0.69826	0.12060	0.49735
8.000	-0.02966	0.70025	0.18188	0.51525
9.000	-0.03361	0.69826	0.07315	0.52520
10.000	-0.00593	0.69826	0.16211	0.51923
11.000	0.03163	0.70820	0.17793	0.44761
12.000	0.00989	0.72611	0.13839	0.45358
13.000	-0.00198	0.74600	0.09490	0.42573
14.000	0.01779	0.72213	0.07117	0.58090
15.000	-0.01977	0.72412	0.18188	0.53116
16.000	0.00395	0.69826	0.18188	0.47347
17.000	-0.03954	0.72014	0.12257	0.52321
18.000	-0.00791	0.68831	0.15816	0.52718
19.000	0.00593	0.70224	0.18979	0.46154
20.000	0.05338	0.75594	0.21945	0.53116
21.000	-0.00593	0.72412	0.17002	0.46154
22.000	-0.01384	0.68831	0.20956	0.46551
23.000	-0.01779	0.76987	0.17200	0.48342
24.000	-0.01582	0.73207	0.18979	0.48541
25.000	-0.04547	0.69030	0.22142	0.47944
26.000	-0.01779	0.68831	0.16607	0.44164
27.000	-0.01582	0.67439	0.15025	0.45358
28.000	-0.00395	0.70621	0.15618	0.41379
29.000	-0.02768	0.73406	0.13839	0.37799
30.000	-0.01384	0.69826	0.16804	0.44164
31.000	-0.01977	0.68831	0.13246	0.48740
32.000	-0.00791	0.68632	0.17991	0.44761
33.000	0.00791	0.66046	0.17595	0.40584
34.000	0.04152	0.68632	0.14827	0.48143
35.000	-0.02175	0.74401	0.18188	0.48939
36.000	0.00198	0.65450	0.17398	0.54708
37.000	-0.01384	0.70025	0.13048	0.44761
38.000	0.00593	0.65649	0.22735	0.41578
39.000	-0.05140	0.64853	0.21549	0.49138
40.000	-0.00989	0.71417	0.17398	0.41578
41.000	-0.02175	0.68433	0.17991	0.37997
42.000	-0.00791	0.68433	0.17002	0.42772
43.000	-0.00791	0.67439	0.16804	0.40385
44.000	0.00000	0.74003	0.18979	0.40783
45.000	-0.02175	0.72213	0.20956	0.43766
46.000	0.00198	0.70224	0.16014	0.46353
47.000	-0.02570	0.70621	0.14234	0.49933
48.000	-0.02570	0.73207	0.17002	0.50331
49.000	-0.01779	0.72809	0.10676	0.43767
50.000	-0.02372	0.67240	0.15618	0.46552
51.000	-0.02768	0.70621	0.15618	0.50530
52.000	-0.01779	0.72809	0.14037	0.45557
53.000	-0.03163	0.68831	0.11664	0.42971
54.000	-0.01779	0.70224	0.19375	0.40584
55.000	-0.00791	0.71019	0.18979	0.43767
56.000	0.00198	0.70621	0.16804	0.46353
57.000	0.01977	0.72809	0.15421	0.46154
58.000	-0.01582	0.72412	0.14827	0.51326
59.000	0.00198	0.76191	0.15618	0.41976
60.000	0.01977	0.71019	0.15618	0.46353
61.000	-0.00593	0.70423	0.15618	0.44363
62.000	-0.01779	0.71417	0.17991	0.46750
63.000	-0.02175	0.76390	0.17200	0.41379
64.000	-0.02966	0.72611	0.13048	0.44562
65.000	-0.02768	0.76191	0.14432	0.41777
66.000	-0.05338	0.71616	0.13839	0.42573
67.000	0.00791	0.72412	0.12455	0.44761
68.000	0.01384	0.71815	0.27282	0.41379
69.000	-0.02966	0.68831	0.22735	0.43170
70.000	-0.02372	0.70820	0.18781	0.43568
71.000	0.00791	0.70820	0.19375	0.45557
72.000	-0.02372	0.70423	0.10874	0.42573
73.000	0.02175	0.71616	0.17793	0.37600
74.000	0.04943	0.73008	0.14432	0.43369
75.000	-0.01582	0.68036	0.17595	0.50331
76.000	-0.00395	0.72213	0.11269	0.37998
77.000	-0.01977	0.70621	0.15025	0.45159
78.000	-0.01779	0.74799	0.19375	0.37600
79.000	0.00791	0.66245	0.17595	0.41777
80.000	-0.02372	0.75196	0.20165	0.45557
81.000	-0.00198	0.76390	0.12850	0.45557
82.000	-0.02570	0.74799	0.20165	0.42971
83.000	-0.01977	0.74997	0.17398	0.41777
84.000	-0.03756	0.73804	0.16409	0.43966
85.000	0.02175	0.75594	0.19375	0.44363
86.000	0.01186	0.70025	0.16607	0.41578
87.000	-0.00395	0.66842	0.14432	0.35809
88.000	0.03163	0.61471	0.22735	0.28051
89.000	0.00198	0.60278	0.19572	0.26260
90.000	0.05338	0.47745	0.25701	0.13727
91.000	0.10083	0.43369	0.23724	0.09151
92.000	0.08897	0.35610	0.30248	0.01393
93.000	0.07908	0.25862	0.31039	-0.08157
94.000	0.08501	0.19297	0.27876	-0.23077
95.000	0.10874	0.08157	0.31632	-0.30637
96.000	0.08106	0.06565	0.31039	-0.36207
97.000	0.06722	-0.01393	0.31434	-0.42573
98.000	0.01977	-0.06366	0.25899	-0.52519
99.000	0.03954	-0.09151	0.34399	-0.61669
100.000	0.02175	-0.11340	0.19572	-0.53912
101.000	-0.01186	-0.11141	0.25108	-0.55105
102.000	-0.06129	-0.10544	0.17991	-0.53116
103.000	-0.07315	-0.07560	0.18584	-0.50928
104.000	-0.03559	-0.08952	0.15025	-0.48939
105.000	-0.11071	-0.00398	0.16211	-0.37202
106.000	-0.07315	0.02188	0.07513	-0.38197
107.000	-0.08897	0.05968	0.02966	-0.32825
108.000	-0.06129	0.09151	0.05733	-0.22878
109.000	-0.05338	0.15120	0.07315	-0.25862
110.000	-0.03954	0.16512	0.10676	-0.30637
111.000	-0.01977	0.20690	0.05140	-0.17905
112.000	-0.02175	0.27852	0.08699	-0.19297
113.000	-0.01977	0.24271	0.09292	-0.22679
114.000	0.02768	0.27653	0.05931	-0.07361
115.000	0.04152	0.27454	0.12455	-0.12931
116.000	0.02372	0.27653	0.05536	-0.15518
117.000	0.03559	0.29046	0.10676	-0.08753
118.000	0.03361	0.26260	0.19177	-0.10743
119.000	0.04547	0.26061	0.13839	-0.14324
120.000	0.05733	0.28648	0.18584	-0.16313
121.000	0.01384	0.28449	0.16409	-0.18104
122.000	0.02768	0.24470	0.18386	-0.19098
123.000	0.03361	0.29443	0.13444	-0.24868
124.000	0.02175	0.24072	0.19968	-0.26658
125.000	0.03163	0.24271	0.19375	-0.20491
126.000	0.00395	0.27056	0.15421	-0.18900
127.000	-0.04349	0.20889	0.13444	-0.21884
128.000	-0.02966	0.21486	0.15618	-0.30239
129.000	-0.01977	0.21884	0.20956	-0.23077
130.000	0.00593	0.18303	0.20165	-0.25862
131.000	-0.02966	0.22679	0.17200	-0.28648
132.000	-0.00989	0.15518	0.17595	-0.31234
133.000	-0.00395	0.15120	0.12850	-0.28648
134.000	-0.02570	0.13926	0.07117	-0.24271
135.000	-0.04349	0.12136	0.13246	-0.27852
136.000	-0.03361	0.14722	0.14234	-0.24868
137.000	-0.03954	0.14523	0.13048	-0.29045
138.000	-0.04152	0.10544	0.12060	-0.25266
139.000	-0.05733	0.12732	0.21549	-0.34417
140.000	-0.01582	0.14722	0.17398	-0.22083
141.000	-0.03361	0.12533	0.13641	-0.34616
142.000	-0.02570	0.05769	0.14432	-0.29443
143.000	-0.02570	0.08356	0.08699	-0.30836
144.000	-0.04547	0.14324	0.16014	-0.34019
145.000	-0.01779	0.13329	0.10280	-0.26459
146.000	-0.00989	0.16114	0.24910	-0.24669
147.000	-0.03954	0.13926	0.16804	-0.26857
148.000	-0.02966	0.11141	0.18979	-0.26061
149.000	0.02570	0.13528	0.16804	-0.32427
150.000	-0.01582	0.16910	0.18781	-0.31830
151.000	-0.00198	0.17308	0.09687	-0.32427
152.000	-0.03756	0.13727	0.10676	-0.28648
153.000	-0.00593	0.15120	0.15025	-0.31234
154.000	0.00395	0.16313	0.17793	-0.25266
155.000	0.00593	0.13528	0.12850	-0.25663
156.000	-0.00593	0.17706	0.15025	-0.30239
157.000	-0.00791	0.14324	0.14234	-0.23276
158.000	-0.01779	0.17507	0.24515	-0.29045
159.000	0.01582	0.14324	0.15816	-0.28449
160.000	0.02570	0.18900	0.16607	-0.28648
161.000	0.03163	0.17308	0.16607	-0.31035
162.000	-0.03559	0.22481	0.17991	-0.29642
163.000	0.01582	0.19695	0.19572	-0.33621
164.000	-0.00395	0.16910	0.15223	-0.30239
165.000	-0.03163	0.19297	0.17398	-0.28449
166.000	-0.02175	0.17706	0.14827	-0.30637
167.000	0.02372	0.14722	0.14037	-0.31831
168.000	0.01186	0.18502	0.19375	-0.28250
169.000	0.03756	0.18502	0.19572	-0.30438
170.000	0.00989	0.14921	0.15223	-0.27852
171.000	0.03954	0.17507	0.18781	-0.29443
172.000	0.03756	0.17308	0.23131	-0.30239
173.000	0.04349	0.21088	0.19770	-0.32029
174.000	0.03361	0.19894	0.17991	-0.31632
175.000	0.00198	0.19099	0.20956	-0.30836
176.000	-0.01384	0.21287	0.14234	-0.28250
177.000	0.01582	0.21884	0.19968	-0.33024
178.000	0.06326	0.18900	0.22933	-0.28250
179.000	0.02570	0.16114	0.23329	-0.36406
180.000	0.00198	0.20690	0.13048	-0.30836
181.000	0.02175	0.21884	0.12850	-0.34616
182.000	0.04547	0.16313	0.21549	-0.33422
183.000	0.05536	0.18502	0.19968	-0.33621
184.000	0.05733	0.18104	0.14037	-0.33621
185.000	0.05931	0.18502	0.13839	-0.29841
186.000	0.03954	0.18502	0.18781	-0.35212
187.000	0.02966	0.18303	0.17002	-0.34218
188.000	0.01582	0.19099	0.22538	-0.30040
189.000	0.02570	0.18900	0.11269	-0.32825
190.000	-0.01779	0.19099	0.14234	-0.35809
191.000	0.03361	0.18900	0.18979	-0.32427
192.000	0.02768	0.16910	0.12850	-0.37202
193.000	0.04349	0.16711	0.23526	-0.33024
194.000	0.03559	0.20093	0.17200	-0.33223
195.000	0.03361	0.19297	0.17002	-0.33621
196.000	0.02175	0.22481	0.10676	-0.36207
197.000	0.01384	0.17109	0.19572	-0.29841
198.000	0.02768	0.18900	0.20165	-0.37401
199.000	0.03559	0.19496	0.17793	-0.27255
200.000	0.00395	0.22282	0.16211	-0.37003
201.000	0.02570	0.18502	0.20758	-0.39191
202.000	0.03361	0.18104	0.23329	-0.37401
203.000	0.06722	0.23873	0.16211	-0.34019
204.000	0.04349	0.22878	0.20165	-0.30040
205.000	0.04547	0.22083	0.15816	-0.30836
206.000	0.00989	0.22282	0.21154	-0.37600
207.000	0.02570	0.19297	0.25108	-0.35212
208.000	0.03954	0.16910	0.20165	-0.36804
209.000	-0.01186	0.19099	0.20561	-0.31234
210.000	0.02175	0.21884	0.13444	-0.32030
211.000	0.01384	0.16711	0.16409	-0.36207
212.000	0.01977	0.21287	0.09885	-0.28847
213.000	0.04745	0.18502	0.09490	-0.32427
214.000	0.01186	0.19099	0.22933	-0.32427
215.000	-0.02768	0.21486	0.19968	-0.31830
216.000	0.01384	0.20889	0.12653	-0.34815
217.000	0.04943	0.22282	0.22538	-0.33621
218.000	0.01582	0.19496	0.20165	-0.40584
219.000	0.01582	0.25465	0.14630	-0.28648
220.000	0.00791	0.18303	0.23329	-0.37202
221.000	0.06129	0.19695	0.21549	-0.39788
222.000	-0.01186	0.19099	0.14630	-0.38793
223.000	-0.00198	0.21685	0.22142	-0.29443
224.000	0.03756	0.21088	0.18386	-0.33820
225.000	-0.00989	0.26658	0.16211	-0.38793
226.000	0.04547	0.23475	0.14827	-0.28250
227.000	0.00791	0.21884	0.18584	-0.31035
228.000	0.01779	0.21287	0.21154	-0.30637
229.000	0.04547	0.19297	0.14234	-0.36804
230.000	0.02570	0.18701	0.20363	-0.36008
231.000	-0.00989	0.20491	0.23526	-0.37798
232.000	-0.01977	0.25664	0.15618	-0.34815
233.000	0.01384	0.23674	0.23131	-0.34615
234.000	0.03361	0.20292	0.18386	-0.29045
235.000	-0.02570	0.21486	0.20363	-0.29443
236.000	0.01582	0.22679	0.21747	-0.27056
237.000	0.03756	0.21088	0.17002	-0.31632
238.000	0.05536	0.22083	0.13641	-0.32030
239.000	0.02175	0.25067	0.16014	-0.30040
240.000	0.06722	0.26658	0.15421	-0.34616
241.000	0.02768	0.27056	0.17398	-0.29443
242.000	0.00791	0.25465	0.20758	-0.33422
243.000	0.02372	0.25465	0.20165	-0.37202
244.000	0.00198	0.21884	0.19572	-0.34417
245.000	0.01186	0.23873	0.20758	-0.32228
246.000	0.02372	0.23674	0.21352	-0.35013
247.000	0.01779	0.24669	0.20561	-0.36605
248.000	0.05338	0.23077	0.09885	-0.37003
249.000	0.01977	0.24072	0.18584	-0.34019
250.000	-0.01779	0.24271	0.18781	-0.34616
251.000	-0.00593	0.27653	0.11862	-0.35213
252.000	0.03756	0.24271	0.19572	-0.28250
253.000	0.02175	0.23873	0.15816	-0.30239
254.000	0.04745	0.24669	0.17398	-0.28648
255.000	-0.00791	0.24072	0.13839	-0.29244
256.000	0.01186	0.28250	0.13444	-0.32427
257.000	0.00593	0.20889	0.21549	-0.32228
258.000	0.01186	0.23276	0.21154	-0.38992
259.000	0.03361	0.26658	0.22340	-0.37997
260.000	0.03163	0.26260	0.14037	-0.35809
261.000	0.03163	0.23276	0.15618	-0.32427
262.000	0.01186	0.21287	0.11269	-0.31234
263.000	0.04943	0.24271	0.20561	-0.34218
264.000	-0.02372	0.22481	0.12455	-0.38594
265.000	0.00000	0.28051	0.13641	-0.36406
266.000	0.02570	0.24669	0.17991	-0.30040
267.000	-0.01186	0.22481	0.17002	-0.24470
268.000	0.01779	0.26061	0.12257	-0.25067
269.000	0.01977	0.25863	0.15618	-0.27255
270.000	-0.00791	0.25863	0.13444	-0.24072
271.000	0.02570	0.24470	0.08501	-0.28847
272.000	0.01384	0.27454	0.15421	-0.24868
273.000	0.02570	0.25664	0.17595	-0.25067
274.000	0.02372	0.27454	0.11664	-0.29045
275.000	0.03163	0.28051	0.11071	-0.28847
276.000	0.00395	0.26459	0.13048	-0.31433
277.000	-0.00395	0.25664	0.10676	-0.30040
278.000	0.01186	0.26459	0.07710	-0.23873
279.000	0.03954	0.30239	0.09490	-0.34218
280.000	0.05733	0.26459	0.13444	-0.27852
281.000	0.02175	0.27653	0.09885	-0.26658
282.000	0.01384	0.29046	0.18386	-0.32029
283.000	0.04745	0.24072	0.15223	-0.31035
284.000	0.03163	0.26061	0.15421	-0.29443
285.000	0.00000	0.24072	0.21549	-0.28846
286.000	0.04152	0.28250	0.19375	-0.30836
287.000	0.01582	0.22282	0.20758	-0.30438
288.000	0.02372	0.25664	0.14037	-0.27852
289.000	0.03163	0.28250	0.22142	-0.27454
290.000	0.04745	0.25862	0.17595	-0.26857
291.000	0.00198	0.25067	0.04547	-0.29046
292.000	0.00198	0.25664	0.16804	-0.30836
293.000	0.05140	0.31234	0.17398	-0.26658
294.000	0.02175	0.31433	0.10676	-0.27056
295.000	0.00395	0.27852	0.17595	-0.29841
296.000	0.01779	0.25465	0.14827	-0.29244
297.000	0.03559	0.27255	0.13444	-0.24669
298.000	0.01582	0.33422	0.20165	-0.26658
299.000	0.02966	0.28449	0.10083	-0.24669
300.000	0.01384	0.30040	0.11862	-0.31433
301.000	-0.00395	0.29841	0.18584	-0.32626
302.000	0.02966	0.26061	0.16607	-0.23873
303.000	0.03361	0.26061	0.06920	-0.25465
304.000	0.00000	0.26658	0.22735	-0.35411
305.000	0.05536	0.27056	0.15025	-0.35610
306.000	0.02570	0.28648	0.23922	-0.29841
307.000	0.03163	0.25862	0.14234	-0.31234
308.000	0.01186	0.26260	0.15816	-0.32427
309.000	-0.01186	0.26857	0.10478	-0.32427
310.000	0.02570	0.22878	0.14827	-0.26260
311.000	0.01779	0.31433	0.14827	-0.29244
312.000	0.03163	0.26061	0.20165	-0.28846
313.000	0.06129	0.23674	0.13048	-0.36605
314.000	0.06722	0.29244	0.08699	-0.29841
315.000	0.02570	0.28449	0.15223	-0.34019
316.000	-0.00395	0.28051	0.11664	-0.34218
317.000	0.04349	0.30438	0.17595	-0.36605
318.000	0.02175	0.25266	0.14234	-0.25465
319.000	-0.01186	0.29642	0.04152	-0.29642
320.000	0.05140	0.31234	0.11862	-0.29642
321.000	0.03163	0.29244	0.14630	-0.30239
322.000	0.01384	0.26658	0.19177	-0.31830
323.000	0.03756	0.24072	0.13839	-0.36008
324.000	0.05338	0.29642	0.18979	-0.22480
325.000	0.01384	0.25067	0.16804	-0.23674
326.000	0.02966	0.25664	0.11862	-0.34019
327.000	0.00791	0.30239	0.13641	-0.30239
328.000	0.04547	0.26459	0.19177	-0.27653
329.000	0.04547	0.28648	0.16804	-0.23873
330.000	0.07908	0.26857	0.11664	-0.29841
331.000	0.02372	0.27255	0.19770	-0.30040
332.000	0.01186	0.28051	0.17200	-0.27454
333.000	0.04943	0.26857	0.17200	-0.29045
334.000	0.05338	0.23873	0.17595	-0.36207
335.000	0.03954	0.27454	0.12850	-0.32825
336.000	0.05931	0.30836	0.14234	-0.35014
337.000	0.04349	0.29244	0.15223	-0.22480
338.000	0.03361	0.25664	0.24119	-0.33223
339.000	0.04943	0.28847	0.14827	-0.31831
340.000	0.05140	0.30040	0.15816	-0.31433
341.000	0.03954	0.28051	0.19968	-0.27056
342.000	0.05338	0.24470	0.14630	-0.31831
343.000	0.04745	0.28449	0.17595	-0.29045
344.000	0.02372	0.27653	0.14037	-0.31433
345.000	0.02570	0.27454	0.14037	-0.33820
346.000	0.02966	0.30836	0.27678	-0.33820
347.000	0.06326	0.25266	0.16607	-0.30040
348.000	0.03163	0.26857	0.12060	-0.34616
349.000	0.06129	0.30239	0.15421	-0.26658
350.000	0.02966	0.21486	0.16804	-0.32228
351.000	0.06129	0.29046	0.14037	-0.29244
352.000	0.03361	0.30637	0.15618	-0.29045
353.000	0.04943	0.31234	0.13246	-0.29045
354.000	0.07908	0.31831	0.14432	-0.24868
355.000	0.04547	0.28449	0.16211	-0.33024
356.000	0.07710	0.28847	0.21549	-0.27852
357.000	0.07513	0.31632	0.18781	-0.33820
358.000	0.07315	0.30239	0.16804	-0.25862
359.000	0.06129	0.25862	0.26492	-0.36804
360.000	0.05140	0.22878	0.19375	-0.30438
361.000	0.05733	0.28250	0.18979	-0.30836
362.000	0.02768	0.23077	0.20165	-0.33223
363.000	0.05733	0.30040	0.16211	-0.35809
364.000	0.03954	0.25664	0.11664	-0.30040
365.000	0.04745	0.27852	0.17595	-0.31632
366.000	0.06920	0.23873	0.16804	-0.25465
367.000	0.04349	0.24470	0.14234	-0.29642
368.000	0.04349	0.26061	0.23526	-0.35411
369.000	0.05140	0.23276	0.10676	-0.27056
370.000	0.03756	0.28250	0.19572	-0.26658
371.000	0.05536	0.26260	0.18979	-0.32626
372.000	0.05140	0.25465	0.19968	-0.29244
373.000	0.05536	0.24868	0.15618	-0.26658
374.000	0.04547	0.27852	0.16607	-0.28250
375.000	0.08303	0.26857	0.12257	-0.25067
376.000	0.04745	0.26459	0.13641	-0.33820
377.000	0.06920	0.32825	0.12653	-0.30040
378.000	0.04349	0.26857	0.13839	-0.26061
379.000	0.05931	0.27056	0.13444	-0.35212
380.000	0.04943	0.27454	0.11862	-0.34616
381.000	0.04745	0.25067	0.10874	-0.25664
382.000	0.05733	0.28648	0.17200	-0.36207
383.000	0.10478	0.25266	0.17002	-0.33422
384.000	0.06524	0.29841	0.16804	-0.33223
385.000	0.07315	0.27454	0.13839	-0.29045
386.000	0.05140	0.25465	0.22735	-0.31035
387.000	0.06524	0.25664	0.16409	-0.28648
388.000	0.06326	0.28449	0.20363	-0.19894
389.000	0.07908	0.23674	0.16409	-0.34815
390.000	0.02372	0.26459	0.14037	-0.30239
391.000	0.08501	0.26459	0.15223	-0.32626
392.000	0.06129	0.27454	0.18979	-0.26857
393.000	0.09490	0.24072	0.19177	-0.29045
394.000	0.10280	0.29443	0.22735	-0.34019
395.000	0.05536	0.29443	0.14630	-0.30239
396.000	0.08699	0.23674	0.16804	-0.33621
397.000	0.08303	0.23475	0.19770	-0.32029
398.000	0.09094	0.25266	0.16211	-0.32626
399.000	0.05931	0.26061	0.14630	-0.30836
400.000	0.08501	0.26658	0.21154	-0.30836
401.000	0.09687	0.28250	0.20561	-0.21884
402.000	0.11071	0.28250	0.11664	-0.29244
403.000	0.10478	0.27653	0.12653	-0.21884
404.000	0.11467	0.25862	0.16211	-0.34218
405.000	0.09094	0.27454	0.15025	-0.27056
406.000	0.08699	0.27255	0.10083	-0.26061
407.000	0.09885	0.30836	0.14630	-0.25067
408.000	0.10280	0.31433	0.13048	-0.30239
409.000	0.05733	0.29046	0.13048	-0.30040
410.000	0.10280	0.28051	0.12455	-0.27255
411.000	0.09490	0.27653	0.21549	-0.27255
412.000	0.08106	0.28250	0.06129	-0.27255
413.000	0.08303	0.29045	0.14827	-0.30836
414.000	0.08501	0.27056	0.13839	-0.29045
415.000	0.12060	0.28051	0.17398	-0.29841
416.000	0.09490	0.31632	0.14827	-0.32626
417.000	0.08106	0.28847	0.14234	-0.32626
418.000	0.06326	0.27454	0.17991	-0.28250
419.000	0.08106	0.24470	0.14827	-0.33223
420.000	0.06920	0.29244	0.17991	-0.22281
421.000	0.08303	0.32825	0.15223	-0.29841
422.000	0.06920	0.26061	0.15223	-0.26658
423.000	0.07513	0.28449	0.18979	-0.22878
424.000	0.02372	0.23873	0.12653	-0.25664
425.000	0.07315	0.26857	0.11862	-0.35213
426.000	0.07117	0.27255	0.13641	-0.27653
427.000	0.07908	0.26459	0.19375	-0.31632
428.000	0.10676	0.28250	0.13444	-0.37998
429.000	0.10280	0.28449	0.16607	-0.25266
430.000	0.12455	0.27852	0.14827	-0.24271
431.000	0.14037	0.27255	0.16014	-0.29244
432.000	0.08897	0.27653	0.15618	-0.28250
433.000	0.11269	0.29045	0.14432	-0.30040
434.000	0.09094	0.28449	0.18584	-0.26459
435.000	0.13641	0.28051	0.27085	-0.32825
436.000	0.10874	0.26857	0.22340	-0.27255
437.000	0.09490	0.26061	0.14827	-0.26857
438.000	0.10083	0.27056	0.24910	-0.25265
439.000	0.08897	0.26260	0.19572	-0.33422
440.000	0.09687	0.26857	0.17200	-0.35212
441.000	0.07513	0.27056	0.11071	-0.34019
442.000	0.07513	0.27056	0.16409	-0.35212
443.000	0.11071	0.30040	0.15421	-0.34218
444.000	0.13444	0.26260	0.22933	-0.36008
445.000	0.10478	0.35014	0.18386	-0.33024
446.000	0.10083	0.27454	0.19375	-0.28051
447.000	0.14234	0.30438	0.16211	-0.30438
448.000	0.10676	0.27255	0.21747	-0.36406
449.000	0.12455	0.27454	0.14630	-0.27255
450.000	0.10083	0.28250	0.16804	-0.35212
451.000	0.13048	0.27255	0.23922	-0.24072
452.000	0.08106	0.28847	0.27085	-0.30836
453.000	0.06129	0.34417	0.12850	-0.30040
454.000	0.11467	0.32626	0.18386	-0.27653
455.000	0.10676	0.30836	0.22142	-0.30040
456.000	0.11269	0.29443	0.21945	-0.29244
457.000	0.15421	0.32825	0.14037	-0.31234
458.000	0.14037	0.33024	0.16211	-0.25862
459.000	0.16014	0.29244	0.14432	-0.32427
460.000	0.13444	0.28648	0.18584	-0.36008
461.000	0.12257	0.29443	0.17398	-0.32825
462.000	0.11269	0.31632	0.19375	-0.25663
463.000	0.11269	0.25465	0.13839	-0.24470
464.000	0.13444	0.29443	0.17793	-0.34417
465.000	0.13048	0.28250	0.17398	-0.27454
466.000	0.11071	0.32825	0.19968	-0.31035
467.000	0.08303	0.31035	0.09094	-0.26061
468.000	0.08106	0.27454	0.08501	-0.22480
469.000	0.10874	0.28847	0.15025	-0.33422
470.000	0.11071	0.29244	0.18781	-0.24868
471.000	0.12257	0.30239	0.09885	-0.28449
472.000	0.11664	0.33223	0.13444	-0.20292
473.000	0.06326	0.29244	0.12060	-0.23276
474.000	0.09885	0.31234	0.13839	-0.32427
475.000	0.11467	0.24072	0.14630	-0.25862
476.000	0.07710	0.31234	0.11862	-0.27852
477.000	0.12257	0.29841	0.08897	-0.24868
478.000	0.09687	0.29642	0.12653	-0.20889
479.000	0.12850	0.30836	0.04547	-0.26857
480.000	0.13641	0.30040	0.09094	-0.22083
481.000	0.14037	0.30836	0.14432	-0.30239
482.000	0.12850	0.29045	0.11862	-0.23475
483.000	0.10478	0.31831	0.10478	-0.20690
484.000	0.14037	0.28648	0.07315	-0.29841
485.000	0.16211	0.32427	0.01779	-0.23475
486.000	0.09687	0.22282	0.11862	-0.22679
487.000	0.13641	0.30836	0.17595	-0.26658
488.000	0.08303	0.28250	0.04745	-0.29046
489.000	0.10280	0.27852	0.05338	-0.29046
490.000	0.07315	0.27852	0.06722	-0.21088
491.000	0.11664	0.30040	0.12257	-0.24072
492.000	0.07117	0.29443	0.10478	-0.27255
493.000	0.11269	0.25465	0.10478	-0.25465
494.000	0.04547	0.24669	0.04349	-0.26459
495.000	0.04943	0.29443	0.12455	-0.28250
496.000	0.07710	0.27852	0.15421	-0.23674
497.000	0.07117	0.31632	0.05140	-0.28449
498.000	0.07117	0.26260	0.14234	-0.27653
499.000	0.04152	0.29244	0.14827	-0.27056
500.000	0.06129	0.30438	0.21154	-0.28051
501.000	0.05140	0.31632	0.10083	-0.25067
502.000	0.05931	0.28449	0.11071	-0.32030
503.000	0.08106	0.25664	0.11269	-0.27653
504.000	0.07315	0.31035	0.12653	-0.24271
505.000	0.06326	0.32229	0.21945	-0.28449
506.000	0.09885	0.32030	0.14037	-0.23276
507.000	0.10478	0.31831	0.16211	-0.19695
508.000	0.11071	0.31234	0.10478	-0.24669
509.000	0.07908	0.28847	0.16409	-0.25465
510.000	0.05536	0.31234	0.15421	-0.28648
511.000	0.06129	0.31831	0.17595	-0.24470
512.000	0.05733	0.31035	0.15816	-0.25862
513.000	0.07513	0.29841	0.15618	-0.31035
514.000	0.05140	0.29841	0.07908	-0.23873
515.000	0.09490	0.29443	0.14037	-0.27255
516.000	0.00989	0.29841	0.14432	-0.28051
517.000	0.02372	0.32626	0.20363	-0.30040
518.000	0.10478	0.32228	0.15421	-0.18303
519.000	0.05536	0.29642	0.15223	-0.27454
520.000	0.03954	0.32229	0.11664	-0.27255
521.000	0.05931	0.28051	0.17002	-0.25663
522.000	0.01779	0.25863	0.16607	-0.22878
523.000	0.06722	0.25067	0.17200	-0.26260
524.000	0.06129	0.25465	0.12850	-0.26658
525.000	0.04547	0.21287	0.08106	-0.21088
526.000	0.06920	0.27653	0.08106	-0.23674
527.000	0.02372	0.27056	0.08897	-0.23475
528.000	0.06524	0.25862	0.11071	-0.28250
529.000	0.10083	0.24072	0.10478	-0.24868
530.000	0.07117	0.26857	0.17398	-0.16711
531.000	0.09885	0.25067	0.06129	-0.20093
532.000	0.02570	0.27056	0.02966	-0.20093
533.000	0.08501	0.32229	0.17398	-0.22083
534.000	0.08501	0.29642	0.15618	-0.19894
535.000	0.08699	0.26459	0.11664	-0.23276
536.000	0.05733	0.30239	0.19375	-0.21884
537.000	0.05733	0.27255	0.12850	-0.21486
538.000	0.08501	0.27653	0.18584	-0.20292
539.000	0.08501	0.28648	0.09490	-0.21287
540.000	0.09885	0.28449	0.09885	-0.24470
541.000	0.09687	0.29841	0.10280	-0.19695
542.000	0.08501	0.32427	0.14630	-0.17905
543.000	0.12257	0.26857	0.07710	-0.24669
544.000	0.09292	0.32825	0.08501	-0.22679
545.000	0.09292	0.26459	0.12850	-0.19297
546.000	0.13048	0.30637	0.08106	-0.27454
547.000	0.10280	0.26658	0.12850	-0.24868
548.000	0.07908	0.30637	0.13641	-0.26260
549.000	0.07908	0.29841	0.13246	-0.25266
550.000	0.10280	0.28051	0.20956	-0.27454
551.000	0.08699	0.29244	0.13246	-0.26061
552.000	0.10280	0.34616	0.11862	-0.33024
553.000	0.13048	0.31831	0.18386	-0.23674
554.000	0.11071	0.26061	0.11071	-0.21884
555.000	0.12850	0.30637	0.12455	-0.25465
556.000	0.10874	0.30239	0.11071	-0.25067
557.000	0.13048	0.29443	0.23922	-0.30040
558.000	0.09490	0.32626	0.12850	-0.25266
559.000	0.12850	0.33422	0.23922	-0.30239
560.000	0.12850	0.28648	0.12653	-0.26658
561.000	0.11862	0.29045	0.16014	-0.24470
562.000	0.12257	0.30438	0.10676	-0.29443
563.000	0.13444	0.32825	0.14234	-0.27653
564.000	0.14432	0.29244	0.13246	-0.27653
565.000	0.12653	0.30040	0.14827	-0.26260
566.000	0.12850	0.28051	0.14630	-0.29443
567.000	0.14234	0.28847	0.14037	-0.33621
568.000	0.16804	0.30438	0.13839	-0.30239
569.000	0.14630	0.27852	0.16804	-0.25862
570.000	0.15618	0.33024	0.17002	-0.25067
571.000	0.13641	0.30438	0.12850	-0.24271
572.000	0.15025	0.32427	0.13641	-0.25465
573.000	0.13641	0.32228	0.12257	-0.26459
574.000	0.09094	0.34019	0.18386	-0.28250
575.000	0.10478	0.30040	0.15223	-0.25465
576.000	0.08699	0.29443	0.19177	-0.21884
577.000	0.09094	0.31831	0.14234	-0.33223
578.000	0.10478	0.30438	0.11269	-0.25664
579.000	0.14827	0.29443	0.09687	-0.25664
580.000	0.11269	0.30040	0.18781	-0.22480
581.000	0.13444	0.32030	0.16211	-0.21884
582.000	0.15618	0.32626	0.13048	-0.25266
583.000	0.12850	0.33621	0.11071	-0.23077
584.000	0.11467	0.35411	0.15421	-0.15716
585.000	0.12653	0.32825	0.06326	-0.19695
586.000	0.11467	0.32626	0.16607	-0.23077
587.000	0.08501	0.33024	0.16804	-0.15915
588.000	0.13048	0.30637	0.08501	-0.17905
589.000	0.14630	0.30637	0.09885	-0.20093
590.000	0.13641	0.30239	0.06129	-0.13329
591.000	0.12455	0.29841	0.09885	-0.26260
592.000	0.07908	0.25664	-0.04547	-0.16910
593.000	0.12455	0.32825	0.15421	-0.19098
594.000	0.11664	0.30836	0.14827	-0.14125
595.000	0.09885	0.26857	0.15025	-0.16114
596.000	0.09094	0.28847	0.20561	-0.24271
597.000	0.11862	0.28847	0.20165	-0.18303
598.000	0.10478	0.27653	0.23131	-0.20491
599.000	0.07908	0.26459	0.14234	-0.17706
600.000	0.12257	0.28449	0.08501	-0.10146
601.000	0.06722	0.26459	0.22538	-0.17507
602.000	0.10280	0.29443	0.19375	-0.15319
603.000	0.09292	0.28250	0.14630	-0.20292
604.000	0.11269	0.29244	0.15025	-0.20491
605.000	0.10280	0.30438	0.21154	-0.14921
606.000	0.12455	0.27255	0.10478	-0.15120
607.000	0.08897	0.25067	0.14037	-0.18900
608.000	0.09292	0.27255	0.14234	-0.15518
609.000	0.09292	0.30239	0.14234	-0.20292
610.000	0.11862	0.30637	0.10676	-0.23475
611.000	0.08303	0.29244	0.08897	-0.16114
612.000	0.03559	0.30836	0.11269	-0.14523
613.000	0.10083	0.29841	0.10083	-0.21287
614.000	0.09490	0.29642	0.16607	-0.18502
615.000	0.08501	0.27454	0.16409	-0.18900
616.000	0.11269	0.28250	0.15421	-0.22878
617.000	0.12060	0.30040	0.16409	-0.18900
618.000	0.08897	0.30637	0.16607	-0.14523
619.000	0.07710	0.34815	0.07513	-0.19099
620.000	0.12257	0.33024	0.06920	-0.14523
621.000	0.11862	0.31632	0.10083	-0.22083
622.000	0.06326	0.30239	0.09687	-0.20889
623.000	0.13048	0.30040	0.12257	-0.20093
624.000	0.05338	0.32030	0.10083	-0.18104
625.000	0.10478	0.29841	0.10676	-0.20292
626.000	0.13641	0.32228	0.12653	-0.18303
627.000	0.11071	0.29443	0.14037	-0.13329
628.000	0.05140	0.31433	0.16211	-0.16910
629.000	0.13048	0.33422	0.09885	-0.15716
630.000	0.12455	0.31433	0.14432	-0.10743
631.000	0.08897	0.30239	0.06722	-0.20292
632.000	0.14432	0.30836	0.17991	-0.14722
633.000	0.08897	0.36008	0.24910	-0.21685
634.000	0.12060	0.30836	0.12060	-0.17507
635.000	0.10874	0.33820	0.21154	-0.17507
636.000	0.09687	0.31433	0.18979	-0.22679
637.000	0.11071	0.30438	0.09885	-0.16114
638.000	0.16804	0.31234	0.11071	-0.14324
639.000	0.13048	0.32228	0.19375	-0.21088
640.000	0.10280	0.36804	0.11664	-0.18303
641.000	0.13246	0.30836	0.17595	-0.15517
642.000	0.11862	0.34417	0.13641	-0.17905
643.000	0.10083	0.37003	0.15223	-0.20093
644.000	0.13246	0.35610	0.12653	-0.10743
645.000	0.17200	0.36605	0.12653	-0.17507
646.000	0.16409	0.34019	0.11467	-0.19496
647.000	0.12653	0.35610	0.13246	-0.22282
648.000	0.14037	0.35212	0.15421	-0.15120
649.000	0.15421	0.32228	0.18781	-0.18104
650.000	0.12653	0.36008	0.15618	-0.15716
651.000	0.18188	0.36207	0.17793	-0.18104
652.000	0.19375	0.33223	0.10676	-0.16114
653.000	0.13048	0.37401	0.07513	-0.17507
654.000	0.19177	0.38196	0.15816	-0.14324
655.000	0.13641	0.36406	0.15223	-0.21088
656.000	0.14432	0.37401	0.13641	-0.16512
657.000	0.18386	0.33820	0.14827	-0.21287
658.000	0.10676	0.33024	0.12257	-0.18303
659.000	0.17398	0.33621	0.15816	-0.26061
660.000	0.16211	0.33024	0.20165	-0.19695
661.000	0.16211	0.30239	0.11467	-0.15915
662.000	0.15223	0.33024	0.12257	-0.26459
663.000	0.17793	0.31234	0.19968	-0.24072
664.000	0.16014	0.37600	0.14630	-0.27255
665.000	0.16014	0.31433	0.13641	-0.19894
666.000	0.15816	0.36008	0.10280	-0.22679
667.000	0.13839	0.36406	0.20165	-0.24669
668.000	0.15025	0.29642	0.15025	-0.24669
669.000	0.13444	0.32030	0.18188	-0.27653
670.000	0.16014	0.31831	0.08106	-0.21287
671.000	0.15816	0.31433	0.16014	-0.23674
672.000	0.13641	0.31433	0.13444	-0.22679
673.000	0.17595	0.29443	0.15223	-0.30040
674.000	0.12257	0.27653	0.13839	-0.22282
675.000	0.17398	0.34616	0.14234	-0.23674
676.000	0.15223	0.32825	0.17002	-0.25067
677.000	0.15618	0.35212	0.16804	-0.28250
678.000	0.15025	0.35411	0.19770	-0.26061
679.000	0.15816	0.32626	0.21154	-0.30637
680.000	0.16211	0.33024	0.11664	-0.22878
681.000	0.14827	0.33820	0.15223	-0.20889
682.000	0.17002	0.32626	0.14234	-0.19894
683.000	0.17002	0.35212	0.18781	-0.23276
684.000	0.14037	0.34616	0.10280	-0.25862
685.000	0.17991	0.36008	0.13444	-0.26459
686.000	0.16804	0.38594	0.12257	-0.16114
687.000	0.16409	0.33621	0.15223	-0.23077
688.000	0.16804	0.33024	0.07513	-0.26260
689.000	0.17595	0.32626	0.18979	-0.24868
690.000	0.17200	0.32626	0.08699	-0.23276
691.000	0.16409	0.33621	0.16409	-0.18900
692.000	0.14630	0.34417	0.17200	-0.21287
693.000	0.15223	0.36804	0.09292	-0.19297
694.000	0.17398	0.34616	0.15816	-0.18701
695.000	0.16211	0.37600	0.20165	-0.21685
696.000	0.17793	0.36207	0.01977	-0.22878
697.000	0.14432	0.37600	0.14827	-0.20889
698.000	0.16607	0.37998	0.12455	-0.22480
699.000	0.18188	0.33422	0.14630	-0.18104
700.000	0.20956	0.35809	0.09292	-0.25664
701.000	0.16014	0.33422	0.14234	-0.20690
702.000	0.18188	0.33820	0.10874	-0.14324
703.000	0.18386	0.34815	0.09885	-0.30040
704.000	0.17398	0.31035	0.07315	-0.22282
705.000	0.14827	0.33820	0.15223	-0.29443
706.000	0.16607	0.34417	0.09885	-0.27056
707.000	0.15421	0.31433	0.09094	-0.24868
708.000	0.15223	0.35212	0.13246	-0.23276
709.000	0.16409	0.31632	0.13048	-0.16711
710.000	0.17991	0.34218	0.14037	-0.21088
711.000	0.15421	0.37799	0.16211	-0.23276
712.000	0.16804	0.38196	0.03954	-0.24669
713.000	0.16211	0.39589	0.08106	-0.22282
714.000	0.18386	0.33820	0.18386	-0.23475
715.000	0.17200	0.36008	0.11071	-0.20292
716.000	0.14827	0.35411	0.06524	-0.21884
717.000	0.10874	0.34815	0.07117	-0.22282
718.000	0.15223	0.37003	0.11664	-0.21088
719.000	0.16014	0.33422	0.09687	-0.18502
720.000	0.11071	0.32228	0.07908	-0.24470
721.000	0.15816	0.32427	0.09292	-0.19098
722.000	0.19375	0.35013	0.06129	-0.24868
723.000	0.13641	0.36406	0.17793	-0.26857
724.000	0.13246	0.33024	0.08303	-0.22878
725.000	0.17398	0.36605	0.08897	-0.22878
726.000	0.16014	0.34417	0.08106	-0.21088
727.000	0.17793	0.35809	0.06129	-0.20889
728.000	0.15223	0.32825	0.11269	-0.14722
729.000	0.14234	0.33024	0.15223	-0.25663
730.000	0.17991	0.38594	0.14630	-0.24470
731.000	0.15223	0.34616	0.06326	-0.17308
732.000	0.19177	0.34815	0.14234	-0.26459
733.000	0.13444	0.37998	0.12653	-0.17308
734.000	0.18584	0.36008	0.10478	-0.16313
735.000	0.17002	0.35411	0.09094	-0.12931
736.000	0.15421	0.35212	0.15223	-0.22878
737.000	0.14432	0.35014	0.04745	-0.24669
738.000	0.17793	0.33024	0.10676	-0.17905
739.000	0.17398	0.33422	0.04745	-0.22083
740.000	0.12257	0.33820	0.12850	-0.24868
741.000	0.14827	0.38395	0.08303	-0.19695
742.000	0.15223	0.37202	0.13246	-0.16910
743.000	0.16014	0.34815	0.17002	-0.21088
744.000	0.20165	0.36207	0.20561	-0.15120
745.000	0.18386	0.37997	0.05140	-0.15717
746.000	0.18979	0.36804	0.14827	-0.29443
747.000	0.18188	0.41777	0.06722	-0.21287
748.000	0.15618	0.33621	0.16409	-0.23276
749.000	0.18781	0.35610	0.11269	-0.29841
750.000	0.17793	0.37003	0.10083	-0.19496
751.000	0.16804	0.36605	0.11862	-0.25465
752.000	0.18386	0.35411	0.14827	-0.28449
753.000	0.17002	0.36804	0.07117	-0.16910
754.000	0.20561	0.42374	0.08106	-0.20093
755.000	0.21747	0.36605	0.07513	-0.19695
756.000	0.22340	0.40584	0.01779	-0.20690
757.000	0.21549	0.43568	0.05536	-0.21287
758.000	0.25701	0.40186	0.10874	-0.15716
759.000	0.23922	0.36207	0.22340	-0.24470
760.000	0.26887	0.38395	0.22735	-0.17905
761.000	0.42109	0.38792	0.31236	-0.19496
762.000	0.52389	0.40980	0.38946	-0.14920
763.000	0.76703	0.36602	0.59901	-0.06565
764.000	0.96469	0.46545	0.73540	-0.04575
765.000	1.23148	0.49524	1.07339	0.01591
766.000	1.56540	0.51705	1.41525	0.01989
767.000	1.91500	0.59250	1.68392	0.02386
768.000	2.31184	0.65993	1.99004	0.19882
769.000	2.65519	0.70943	2.28618	0.23854
770.000	3.13240	0.85412	2.62560	0.37958
771.000	3.51071	1.03642	3.01807	0.48275
772.000	3.82180	1.13726	3.31371	0.53028
773.000	4.06775	1.23611	3.52450	0.59568
774.000	4.35287	1.46167	3.63084	0.62738
775.000	4.53170	1.58815	3.85132	0.75027
776.000	4.58278	1.68513	3.97726	0.73428
777.000	4.57099	1.70497	4.00480	0.78386
778.000	4.49830	1.76062	3.96349	0.80374
779.000	4.33322	1.70354	3.87887	0.77604
780.000	4.10119	1.71198	3.72141	0.79802
781.000	3.91036	1.74410	3.54025	0.77435
782.000	3.68991	1.63545	3.38464	0.76058
783.000	3.51662	1.55243	3.18168	0.76868
784.000	3.28612	1.45952	3.05158	0.72309
785.000	3.18562	1.45371	2.88399	0.60797
786.000	3.06341	1.30497	2.82482	0.59807
787.000	2.96089	1.18792	2.74790	0.50671
788.000	2.92145	1.10455	2.72620	0.50672
789.000	2.87807	1.07083	2.78341	0.47888
790.000	2.88004	0.98542	2.69662	0.41731
791.000	2.94511	0.94961	2.81693	0.33779
792.000	3.00426	0.91579	2.90962	0.30200
793.000	3.09101	0.91572	2.98061	0.28609
794.000	3.15408	0.94347	3.00821	0.33773
795.000	3.22109	0.95730	3.11663	0.41517
796.000	3.30386	1.01878	3.11269	0.41319
797.000	3.40237	1.05640	3.18365	0.42110
798.000	3.40434	1.09213	3.27627	0.47469
799.000	3.51465	1.15552	3.32947	0.50048
800.000	3.56586	1.22293	3.37479	0.53223
801.000	3.58358	1.26062	3.27233	0.61967
802.000	3.66825	1.27042	3.37085	0.57989
803.000	3.61706	1.30026	3.35903	0.57593
804.000	3.62296	1.32208	3.43783	0.57985
805.000	3.66431	1.33393	3.38070	0.59577
806.000	3.64069	1.33396	3.36297	0.63947
807.000	3.66628	1.30416	3.34721	0.67721
808.000	3.72141	1.34971	3.38464	0.63548
809.000	3.68400	1.34382	3.33341	0.63949
810.000	3.73716	1.36358	3.34918	0.64544
811.000	3.71156	1.33584	3.34327	0.62558
812.000	3.77456	1.34368	3.27036	0.65542
813.000	3.77653	1.39923	3.31174	0.58191
814.000	3.78243	1.34168	3.36494	0.60571
815.000	3.72535	1.35963	3.28218	0.54022
816.000	3.74503	1.30603	3.30780	0.58787
817.000	3.72535	1.35765	3.24080	0.50052
818.000	3.76865	1.32187	3.37282	0.58982
819.000	3.74503	1.33381	3.27824	0.55214
820.000	3.73519	1.35366	3.29007	0.55213
821.000	3.74897	1.31594	3.33736	0.55409
822.000	3.75291	1.36157	3.27430	0.53228
823.000	3.72928	1.35169	3.25460	0.64748
824.000	3.69385	1.32991	3.31568	0.58390
825.000	3.73322	1.35962	3.30780	0.57794
826.000	3.74109	1.33381	3.22701	0.62963
827.000	3.70566	1.28029	3.26445	0.56407
828.000	3.73125	1.35764	3.29204	0.57597
829.000	3.72141	1.29217	3.30386	0.66532
830.000	3.70566	1.34180	3.34130	0.55211
831.000	3.73913	1.36953	3.33341	0.59580
832.000	3.75684	1.34966	3.27627	0.56009
833.000	3.72928	1.34573	3.30189	0.63554
834.000	3.71156	1.27830	3.36494	0.60174
835.000	3.69975	1.32594	3.25065	0.58592
836.000	3.71156	1.31005	3.23292	0.59785
837.000	3.68991	1.29619	3.27627	0.60775
838.000	3.66038	1.31012	3.33538	0.57594
839.000	3.68597	1.28230	3.18956	0.64951
840.000	3.71944	1.32392	3.27233	0.60577
841.000	3.70369	1.28426	3.26445	0.55016
842.000	3.67022	1.30812	3.19350	0.57999
843.000	3.66038	1.30218	3.20533	0.57601
844.000	3.68794	1.29222	3.24671	0.60777
845.000	3.69188	1.31008	3.29007	0.58590
846.000	3.69385	1.29817	3.32553	0.56204
847.000	3.70763	1.31005	3.34524	0.57991
848.000	3.72731	1.32391	3.25460	0.55414
849.000	3.67613	1.30811	3.25065	0.59188
850.000	3.70369	1.28228	3.26839	0.60180
851.000	3.64069	1.28832	3.29795	0.64547
852.000	3.72535	1.30804	3.27824	0.53427
853.000	3.77259	1.28416	3.25263	0.60578
854.000	3.68991	1.30016	3.24080	0.59784
855.000	3.73716	1.28620	3.31371	0.61368
856.000	3.72141	1.27035	3.16000	0.57405
857.000	3.70763	1.29815	3.30189	0.64745
858.000	3.71944	1.27630	3.27430	0.55413
859.000	3.69188	1.25055	3.27824	0.57200
860.000	3.68991	1.27436	3.27430	0.52434
861.000	3.71550	1.26242	3.21124	0.63758
862.000	3.75881	1.25839	3.26445	0.51640
863.000	3.74109	1.29214	3.29204	0.61171
864.000	3.75684	1.24847	3.20139	0.53629
865.000	3.75291	1.28419	3.23292	0.59983
866.000	3.72141	1.25050	3.22701	0.57203
867.000	3.76669	1.26036	3.25854	0.58393
868.000	3.73322	1.29811	3.27233	0.56009
869.000	3.76078	1.22267	3.19350	0.66341
870.000	3.77259	1.26035	3.24474	0.57599
871.000	3.71747	1.24853	3.27233	0.50647
872.000	3.75684	1.26037	3.23686	0.60777
873.000	3.79031	1.28612	3.30977	0.55014
874.000	3.68400	1.27437	3.26051	0.57400
875.000	3.78046	1.29605	3.28021	0.53427
876.000	3.75684	1.28022	3.24474	0.53429
877.000	3.77456	1.26630	3.32947	0.58587
878.000	3.71156	1.28425	3.26248	0.63953
879.000	3.76078	1.30005	3.24868	0.56606
880.000	3.76078	1.30005	3.24277	0.56805
881.000	3.77456	1.28813	3.25854	0.58989
882.000	3.70369	1.29617	3.21321	0.64751
883.000	3.73125	1.30208	3.17971	0.59192
884.000	3.74503	1.27230	3.30189	0.53823
885.000	3.76078	1.29608	3.21124	0.55019
886.000	3.79818	1.30198	3.20139	0.53629
887.000	3.74306	1.29809	3.15605	0.61378
888.000	3.78637	1.29009	3.22898	0.55217
889.000	3.76472	1.29211	3.22109	0.57998
890.000	3.76472	1.27028	3.28810	0.53029
891.000	3.76669	1.29012	3.16985	0.57405
892.000	3.75291	1.27824	3.13043	0.56215
893.000	3.77850	1.23852	3.17774	0.47871
894.000	3.76275	1.26037	3.13240	0.57407
895.000	3.77850	1.30796	3.24868	0.54223
896.000	3.76472	1.26830	3.31962	0.52034
897.000	3.80212	1.27023	3.16197	0.59391
898.000	3.75487	1.27427	3.28612	0.55214
899.000	3.77259	1.26035	3.21912	0.54820
900.000	3.75684	1.31196	3.17774	0.57603
901.000	3.75684	1.30403	3.14226	0.55619
902.000	3.74897	1.30999	3.25657	0.63159
903.000	3.77850	1.26828	3.21124	0.56012
904.000	3.80802	1.28212	3.17774	0.59391
905.000	3.81786	1.33766	3.16394	0.54624
906.000	3.77653	1.28416	3.14620	0.53632
907.000	3.81196	1.33370	3.12255	0.49264
908.000	3.78637	1.24843	3.25263	0.46477
909.000	3.80802	1.27617	3.19350	0.51445
910.000	3.80605	1.26824	3.28612	0.50249
911.000	3.80802	1.33371	3.23686	0.52833
912.000	3.81983	1.30988	3.18956	0.60582
913.000	3.78243	1.29010	3.17576	0.49857
914.000	3.80999	1.31387	3.21518	0.47472
915.000	3.81983	1.32377	3.21715	0.53430
916.000	3.83164	1.32375	3.18956	0.54027
917.000	3.83951	1.29200	3.19153	0.47075
918.000	3.79818	1.32380	3.19744	0.59588
919.000	3.82377	1.33368	3.17379	0.54227
920.000	3.80802	1.26625	3.18365	0.47473
921.000	3.81983	1.30988	3.23686	0.48066
922.000	3.79424	1.30794	3.16788	0.58199
923.000	3.81983	1.30790	3.16197	0.53631
924.000	3.86510	1.31775	3.28810	0.54022
925.000	3.84542	1.32572	3.25263	0.61968
926.000	3.80015	1.29602	3.25065	0.50250
927.000	3.81589	1.29005	3.16591	0.50652
928.000	3.82967	1.26820	3.22898	0.49258
929.000	3.82180	1.29202	3.26445	0.56208
930.000	3.83164	1.27415	3.24277	0.48463
931.000	3.84542	1.25826	3.27036	0.46476
932.000	3.86707	1.32171	3.21518	0.53033
933.000	3.83164	1.30590	3.22504	0.53827
934.000	3.80999	1.29006	3.19547	0.53034
935.000	3.84542	1.30191	3.19350	0.48863
936.000	3.85132	1.33166	3.20730	0.47671
937.000	3.83558	1.32573	3.20336	0.47869
938.000	3.84542	1.27413	3.17971	0.52439
939.000	3.86707	1.31576	3.25263	0.45087
940.000	3.83951	1.25033	3.19350	0.53431
941.000	3.84739	1.29000	3.20139	0.58793
942.000	3.81786	1.28211	3.25263	0.47470
943.000	3.86116	1.24832	3.24474	0.51442
944.000	3.85723	1.30387	3.15014	0.49064
945.000	3.83164	1.29995	3.14423	0.44893
946.000	3.83558	1.28407	3.14226	0.49461
947.000	3.92020	1.32957	3.21321	0.56608
948.000	3.83951	1.28009	3.19350	0.50253
949.000	3.87691	1.26417	3.16197	0.50851
950.000	3.86116	1.26419	3.21321	0.51245
951.000	3.84542	1.27810	3.21912	0.57402
952.000	3.85329	1.29991	3.16394	0.43303
953.000	3.83164	1.26027	3.21124	0.44493
954.000	3.86510	1.24831	3.20336	0.44890
955.000	3.79818	1.26230	3.16197	0.43303
956.000	3.82967	1.26027	3.20533	0.50054
957.000	3.81983	1.25631	3.22109	0.50053
958.000	3.87100	1.28203	3.28021	0.40915
959.000	3.83361	1.24637	3.10678	0.38538
960.000	3.85132	1.25825	3.26642	0.42703
961.000	3.81983	1.29798	3.28415	0.40517
962.000	3.84739	1.25231	3.21912	0.39328
963.000	3.85919	1.25626	3.16788	0.43899
964.000	3.85329	1.22254	3.08509	0.39532
965.000	3.81589	1.24640	3.27233	0.42702
966.000	3.86510	1.25228	3.21912	0.43896
967.000	3.86903	1.26021	3.16394	0.49659
968.000	3.84148	1.24041	3.27036	0.38929
969.000	3.83361	1.28209	3.27824	0.44490
970.000	3.83558	1.30788	3.21321	0.40123
971.000	3.84542	1.25628	3.19153	0.36548
972.000	3.82574	1.22853	3.20139	0.40520
973.000	3.85526	1.24634	3.21715	0.36746
974.000	3.85329	1.27214	3.28612	0.36346
975.000	3.84345	1.23842	3.26839	0.34162
976.000	3.85132	1.29000	3.26839	0.31978
977.000	3.89855	1.25223	3.20533	0.41315
978.000	3.85329	1.24635	3.22701	0.29595
979.000	3.86510	1.25228	3.26445	0.34758
980.000	3.82770	1.21861	3.24277	0.35156
981.000	3.89068	1.29192	3.28021	0.35552
982.000	3.86313	1.28006	3.21715	0.41116
983.000	3.88281	1.28400	3.17774	0.33569
984.000	3.85329	1.22849	3.21912	0.28205
985.000	3.90249	1.27603	3.21912	0.36349
986.000	3.85723	1.24436	3.19153	0.31583
987.000	3.85723	1.27610	3.17379	0.35159
988.000	3.86903	1.26616	3.20139	0.34165
989.000	3.90446	1.31769	3.21518	0.40321
990.000	3.93594	1.32161	3.22898	0.32177
991.000	3.90446	1.31174	3.14620	0.26618
992.000	3.86116	1.28006	3.19350	0.31980
993.000	3.89265	1.32366	3.24277	0.34560
994.000	3.87494	1.30583	3.20336	0.29993
995.000	3.86903	1.29195	3.23489	0.28602
996.000	3.88084	1.29193	3.17576	0.29200
997.000	3.87887	1.30186	3.18956	0.33172
998.000	3.86313	1.32370	3.19153	0.27411
999.000	3.89855	1.30183	3.22898	0.35355
1000.000	3.89068	1.29787	3.18562	0.33966
1001.000	3.87297	1.25624	3.16394	0.34166
1002.000	3.83754	1.29398	3.18168	0.31583
1003.000	3.88675	1.27407	3.24080	0.34163
1004.000	3.85723	1.29594	3.27430	0.32375
1005.000	3.84148	1.28604	3.16788	0.30987
1006.000	3.85919	1.28998	3.29401	0.34956
1007.000	3.84739	1.23842	3.11269	0.26420
1008.000	3.82770	1.24241	3.31765	0.32373
1009.000	3.86116	1.26419	3.20730	0.26219
1010.000	3.87100	1.31377	3.24474	0.21650
1011.000	3.85526	1.23642	3.23095	0.21054
1012.000	3.87494	1.26417	3.22504	0.23438
1013.000	3.85919	1.27808	3.26248	0.29793
1014.000	3.88478	1.24630	3.21321	0.24630
1015.000	3.84345	1.22057	3.20336	0.23041
1016.000	3.83164	1.26820	3.24671	0.25027
1017.000	3.86903	1.26815	3.16394	0.25426
1018.000	3.93988	1.27201	3.29401	0.25423
1019.000	3.91036	1.28197	3.14620	0.33173
1020.000	3.86707	1.23045	3.18168	0.35158
1021.000	3.89462	1.30580	3.16591	0.33173
1022.000	3.88478	1.29391	3.15408	0.35755
1023.000	3.86707	1.31973	3.16000	0.33769
1024.000	3.92807	1.30773	3.18759	0.33768
1025.000	3.85919	1.32966	3.29598	0.26813
1026.000	3.87887	1.26020	3.23883	0.33766
1027.000	3.89462	1.27803	3.16197	0.31186
1028.000	3.87494	1.24433	3.28415	0.29196
1029.000	3.88281	1.25424	3.19744	0.31781
1030.000	3.99497	1.26795	3.30977	0.28203
1031.000	4.06972	1.28966	3.36888	0.31776
1032.000	4.25261	1.29530	3.55010	0.29188
1033.000	4.32535	1.19406	3.54222	0.32167
1034.000	4.51598	1.24133	3.74109	0.30770
1035.000	4.72026	1.24890	3.91430	0.22230
1036.000	4.93619	1.14350	3.99300	0.24014
1037.000	5.18139	1.17871	4.35681	0.24399
1038.000	5.43032	1.12676	4.48062	0.23403
1039.000	5.61836	1.07099	4.77327	0.23196
1040.000	5.79257	1.10034	4.92441	0.09712
1041.000	6.01165	1.01288	5.00290	0.05747
1042.000	6.09572	1.05821	5.17551	0.09708
1043.000	6.20321	1.07381	5.24806	0.05745
1044.000	6.20125	1.00462	5.40681	0.06536
1045.000	6.21493	1.06588	5.34606	0.06933
1046.000	6.13677	1.12338	5.29118	0.00594
1047.000	6.05858	1.08202	5.23629	-0.01783
1048.000	5.95886	1.04859	5.15198	-0.09511
1049.000	5.86301	1.10416	5.02252	0.03171
1050.000	5.72799	1.09255	5.02252	0.02775
1051.000	5.63990	1.13428	4.89105	0.01982
1052.000	5.55178	1.12258	4.76346	-0.04163
1053.000	5.51064	1.11276	4.78113	-0.00397
1054.000	5.40093	1.13078	4.72222	0.03965
1055.000	5.42445	1.14459	4.76149	0.07732
1056.000	5.39114	1.12882	4.73204	0.15266
1057.000	5.43228	1.10894	4.63385	0.06544
1058.000	5.40485	1.05752	4.62992	0.03173
1059.000	5.45188	1.07327	4.78309	0.03767
1060.000	5.45579	1.04555	4.72026	0.10707
1061.000	5.44012	1.05349	4.72811	0.09517
1062.000	5.50673	1.11672	4.71830	0.11103
1063.000	5.55569	1.04339	4.81254	0.04956
1064.000	5.56940	1.04337	4.77524	0.05353
1065.000	5.53415	1.08104	4.74775	0.09318
1066.000	5.58115	1.07898	4.87928	0.05154
1067.000	5.55178	1.08497	4.73204	0.11301
1068.000	5.61444	1.08881	4.86946	0.09911
1069.000	5.61053	1.08288	4.91264	0.11298
1070.000	5.64185	1.07491	4.84591	0.13480
1071.000	5.61248	1.09079	4.90675	-0.00991
1072.000	5.67709	1.12233	4.87142	0.02180
1073.000	5.66535	1.05507	4.91460	0.05352
1074.000	5.69863	1.10250	4.92049	0.07532
1075.000	5.71820	1.08070	5.01075	0.07333
1076.000	5.67514	1.04714	4.96562	0.00793
1077.000	5.70254	1.04709	4.89301	0.03568
1078.000	5.67709	1.02339	4.92049	0.17244
1079.000	5.72016	1.03518	4.88124	0.08920
1080.000	5.72407	1.08860	4.90479	0.08721
1081.000	5.72995	1.07672	4.88516	0.06145
1082.000	5.70254	1.07083	4.90283	0.11695
1083.000	5.71820	1.06487	4.88713	0.07731
1084.000	5.75539	1.10239	4.97936	0.06540
1085.000	5.69863	1.04512	4.93815	0.04162
1086.000	5.69667	1.03522	4.87142	0.09911
1087.000	5.74756	1.03513	4.89301	0.11497
1088.000	5.70450	1.03125	4.97740	0.05748
1089.000	5.76126	1.04302	4.95385	-0.02973
1090.000	5.71624	0.98967	4.90479	0.10505
1091.000	5.70646	1.04510	4.86161	0.02577
1092.000	5.73582	1.01932	4.88124	0.05748
1093.000	5.68884	1.06097	4.96170	0.11297
1094.000	5.69667	1.05501	4.89498	0.07532
1095.000	5.70450	1.03719	4.70455	0.07534
1096.000	5.65164	1.05708	4.89301	0.13479
1097.000	5.68884	1.15595	4.84198	0.13480
1098.000	5.65947	1.12435	4.89498	0.20813
1099.000	5.66926	1.16589	4.80076	0.17049
1100.000	5.61444	1.14818	4.84395	0.20021
1101.000	5.62619	1.14024	4.78113	0.32513
1102.000	5.63011	1.18180	4.82824	0.28150
1103.000	5.63402	1.12638	4.84395	0.25968
1104.000	5.64773	1.10656	4.84983	0.26166
1105.000	5.63206	1.06107	4.74971	0.21809
1106.000	5.62619	1.06702	4.79880	0.13481
1107.000	5.64577	1.03532	4.96562	0.14865
1108.000	5.62032	1.04328	4.94600	0.08126
1109.000	5.65360	0.97791	4.90675	0.06343
1110.000	5.67122	0.99569	4.84002	0.00991
1111.000	5.64968	1.00364	4.91264	0.04162
1112.000	5.71624	0.96790	4.97740	-0.08324
1113.000	5.68688	1.00951	4.97740	-0.12486
1114.000	5.70058	1.05699	4.88124	-0.13876
1115.000	5.68688	1.07482	4.95581	-0.09315
1116.000	5.69667	1.05699	5.00879	-0.18035
1117.000	5.64577	1.08677	4.85572	-0.04956
1118.000	5.65164	1.07489	4.90871	-0.04162
1119.000	5.67122	1.05110	4.92245	0.03568
1120.000	5.68492	1.06097	4.84395	0.04758
1121.000	5.69471	1.08470	4.93030	0.05550
1122.000	5.67905	1.11441	4.97347	0.00198
1123.000	5.72016	1.05695	4.83609	0.07335
1124.000	5.68297	1.04514	4.87928	0.04361
1125.000	5.69863	1.07084	4.87731	0.14470
1126.000	5.68297	1.07483	4.77524	0.14472
1127.000	5.72799	1.08266	4.85965	0.08127
1128.000	5.69863	1.03126	4.87731	0.04956
1129.000	5.73190	1.04505	4.96759	0.04757
1130.000	5.68884	1.06492	4.81646	0.00595
1131.000	5.68101	1.03723	4.85769	-0.03766
1132.000	5.70450	1.07875	4.92834	-0.01189
1133.000	5.72016	1.04706	4.80468	0.02181
1134.000	5.64577	0.97396	4.86750	0.02379
1135.000	5.69667	1.07085	4.87928	-0.00793
1136.000	5.69080	1.03523	4.83413	0.00793
1137.000	5.68101	1.06098	4.87339	0.05352
1138.000	5.65164	1.04322	4.90871	0.03568
1139.000	5.64577	1.06896	4.82824	0.04956
1140.000	5.64968	1.02937	4.84787	0.04163
1141.000	5.68101	1.05306	4.88713	0.02775
1142.000	5.70058	0.99762	4.85572	0.01784
1143.000	5.62619	1.06108	4.84787	0.02775
1144.000	5.68492	1.04910	4.93619	0.01784
1145.000	5.65360	1.10061	4.82628	0.07930
1146.000	5.66730	1.07486	4.89498	-0.01586
1147.000	5.65360	1.06697	4.85180	0.07335
1148.000	5.65360	1.08082	4.85965	-0.01586
1149.000	5.64577	1.07094	4.87535	0.05154
1150.000	5.63598	1.05315	4.90675	0.01982
1151.000	5.66730	1.04913	4.90675	0.04955
1152.000	5.68101	1.04515	4.91264	-0.04559
1153.000	5.64577	1.05115	4.94600	0.02775
1154.000	5.68492	1.06295	4.81057	-0.03370
1155.000	5.67318	1.07485	4.82235	0.05749
1156.000	5.60857	0.97600	4.91068	0.00991
1157.000	5.65164	1.06103	4.84395	0.03965
1158.000	5.67318	1.03329	4.86554	0.00595
1159.000	5.67514	1.06891	4.91460	0.03766
1160.000	5.71820	1.06685	4.87928	0.03568
1161.000	5.65752	1.04519	4.81646	0.04163
1162.000	5.68101	1.02338	4.92834	0.05153
1163.000	5.69080	1.09065	4.88713	0.00000
1164.000	5.66339	1.03330	4.96562	-0.03568
1165.000	5.63794	1.07293	4.81843	0.08723
1166.000	5.66143	1.03529	4.90086	0.01388
1167.000	5.66143	1.02539	4.82039	0.04163
1168.000	5.65360	1.04916	4.81450	-0.01784
1169.000	5.62423	1.06702	4.86554	0.00793
1170.000	5.65164	1.07885	4.84983	0.03965
1171.000	5.64773	1.01948	4.84591	0.05352
1172.000	5.65164	1.05708	4.87339	0.02180
1173.000	5.70254	1.05500	4.86357	0.03370
1174.000	5.63402	1.05711	4.85572	0.07334
1175.000	5.64185	1.00959	4.88909	0.01388
1176.000	5.63206	1.05315	4.87339	0.09713
1177.000	5.65556	1.05113	4.88516	0.03964
1178.000	5.69471	1.07679	4.83217	0.00595
1179.000	5.67905	1.05505	4.83020	0.01982
1180.000	5.66339	1.08674	4.89498	-0.05550
1181.000	5.64381	1.04324	4.86161	0.04956
1182.000	5.68492	1.06493	4.88124	0.02379
1183.000	5.66926	1.08079	4.84787	0.05947
1184.000	5.66926	1.04517	4.91656	0.02180
1185.000	5.67122	1.09860	4.84395	0.15462
1186.000	5.71624	1.12819	4.91068	-0.00991
1187.000	5.67709	1.13025	4.83806	-0.04163
1188.000	5.68492	1.09066	4.88909	0.01784
1189.000	5.70254	1.09854	4.82235	-0.03965
1190.000	5.68884	1.12429	4.81843	-0.00793
1191.000	5.71429	1.11237	4.87928	0.07929
1192.000	5.68101	1.10452	4.84983	0.08722
1193.000	5.72799	1.09255	4.89498	0.09713
1194.000	5.69863	1.11438	4.87928	-0.00793
1195.000	5.68492	1.08076	4.81843	0.02775
1196.000	5.66143	1.11445	4.89890	0.02180
1197.000	5.65360	1.06895	4.93619	-0.11298
1198.000	5.70058	1.09063	4.91264	-0.06343
1199.000	5.66926	1.06496	4.84983	-0.08326
1200.000	5.66926	1.11839	4.86946	-0.01189
1201.000	5.64577	1.06104	4.87339	0.00198
1202.000	5.66143	1.01550	4.82628	-0.01982
1203.000	5.71037	1.11633	4.79487	-0.04758
1204.000	5.68492	1.02139	4.82432	-0.07731
1205.000	5.72995	1.05891	4.76542	-0.04163
1206.000	5.64968	1.09270	4.88909	-0.01784
1207.000	5.66339	1.03924	4.82628	0.00396
1208.000	5.70254	1.03126	4.83609	0.03965
1209.000	5.66730	1.06298	4.90871	0.00595
1210.000	5.74365	1.07867	4.83609	-0.04163
1211.000	5.73190	1.08265	4.83217	-0.01388
1212.000	5.70254	1.12228	4.86750	0.00396
1213.000	5.72799	1.04704	4.91656	-0.06541
1214.000	5.72995	1.08859	4.89301	-0.07334
1215.000	5.70841	1.07280	4.91460	0.02180
1216.000	5.75735	1.13603	4.81843	-0.00595
1217.000	5.72407	1.08069	4.87142	-0.11101
1218.000	5.70450	1.05104	4.87928	-0.01388
1219.000	5.69863	1.08074	4.95385	-0.11297
1220.000	5.71429	1.10643	4.87142	-0.00396
1221.000	5.69080	1.07481	4.92638	-0.00396
1222.000	5.73386	1.05890	4.82824	-0.00595
1223.000	5.70058	1.03126	4.82628	-0.07930
1224.000	5.69080	1.06888	4.86946	-0.04956
1225.000	5.70646	1.03323	4.85769	0.03172
1226.000	5.68492	1.08076	4.85376	-0.06938
1227.000	5.69275	1.03523	4.92834	0.00396
1228.000	5.70058	1.05896	4.94208	-0.02378
1229.000	5.67709	1.05703	4.81450	-0.02379
1230.000	5.71624	1.03519	4.88713	-0.00793
1231.000	5.68492	1.06097	4.90479	-0.05748
1232.000	5.65164	1.05905	4.82628	-0.08128
1233.000	5.69863	1.06688	4.81843	-0.05749
1234.000	5.70254	1.10448	4.83609	0.00396
1235.000	5.66535	1.08674	4.80468	-0.06344
1236.000	5.68297	1.05504	4.85376	-0.06740
1237.000	5.66339	1.03133	4.88713	-0.06739
1238.000	5.71624	1.04904	4.83609	-0.02577
1239.000	5.64773	1.05906	4.87142	-0.04163
1240.000	5.71037	1.04707	4.91068	-0.05352
1241.000	5.67905	1.03328	4.86750	-0.03370
1242.000	5.65164	1.02541	4.89301	-0.01982
1243.000	5.67709	0.98776	4.97151	-0.02577
1244.000	5.66143	0.97393	4.80861	0.08128
1245.000	5.67514	1.02537	4.86161	-0.02181
1246.000	5.69863	1.03918	4.88909	-0.04757
1247.000	5.66535	0.98382	4.85572	0.00000
1248.000	5.62227	1.01754	4.88124	0.03568
1249.000	5.69471	1.04116	4.83609	0.07731
1250.000	5.63206	1.09274	4.80665	-0.02181
1251.000	5.48910	1.05143	4.70848	-0.06146
1252.000	5.38526	1.04963	4.63385	-0.05751
1253.000	5.15786	0.97871	4.50616	-0.22014
1254.000	4.91656	0.81460	4.30570	-0.31146
1255.000	4.63974	0.67218	4.05202	-0.38696
1256.000	4.29980	0.50190	3.90446	-0.64107
1257.000	3.99890	0.26792	3.58358	-0.88747
1258.000	3.59540	0.01986	3.28021	-1.23124
1259.000	3.26248	-0.23437	3.03581	-1.50752
1260.000	2.86229	-0.49871	2.80707	-1.97236
1261.000	2.52892	-0.77110	2.51511	-2.19514
1262.000	2.15194	-1.16284	2.26447	-2.35233
1263.000	1.87946	-1.44722	2.11641	-2.61648
1264.000	1.65824	-1.65605	1.85773	-2.98585
1265.000	1.43500	-1.85491	1.63454	-3.22215
1266.000	1.19196	-2.11137	1.50810	-3.38885
1267.000	1.04769	-2.34782	1.30657	-3.51597
1268.000	0.88958	-2.65765	1.06351	-3.74410
1269.000	0.82238	-2.75495	0.96864	-3.93630
1270.000	0.77296	-2.88794	0.93109	-4.19957
1271.000	0.63459	-3.06856	0.64645	-4.42535
1272.000	0.59308	-3.25502	0.51005	-4.52234
1273.000	0.47842	-3.47514	0.25108	-4.62329
1274.000	0.46063	-3.54451	0.16211	-4.72608
1275.000	0.42900	-3.62379	0.06326	-4.79722
1276.000	0.40133	-3.71692	-0.09885	-4.97892
1277.000	0.38156	-3.86944	-0.19177	-5.13484
1278.000	0.37167	-3.87737	-0.26492	-5.08153
1279.000	0.36179	-3.98628	-0.27085	-5.12889
1280.000	0.42702	-3.93873	-0.34597	-5.05188
1281.000	0.49622	-3.99017	-0.33609	-5.06176
1282.000	0.52191	-3.98421	-0.22340	-5.03022
1283.000	0.61482	-3.88119	-0.22340	-4.96902
1284.000	0.62273	-3.88514	-0.16014	-4.91572
1285.000	0.68994	-3.84945	-0.04547	-4.87426
1286.000	0.73936	-3.72661	-0.09687	-4.85056
1287.000	0.72947	-3.66917	-0.06722	-4.76166
1288.000	0.77098	-3.65328	0.01779	-4.78932
1289.000	0.72552	-3.60379	-0.03163	-4.74191
1290.000	0.74529	-3.60972	0.06524	-4.67472
1291.000	0.71761	-3.50471	0.01384	-4.69844
1292.000	0.74133	-3.53244	0.03559	-4.67275
1293.000	0.68994	-3.54635	0.03163	-4.69251
1294.000	0.68401	-3.55428	0.00989	-4.73796
1295.000	0.67413	-3.52456	-0.03756	-4.77154
1296.000	0.61878	-3.51668	-0.09490	-4.85056
1297.000	0.58320	-3.59795	-0.07710	-4.82488
1298.000	0.53180	-3.61185	-0.11269	-4.92165
1299.000	0.50808	-3.69309	-0.19968	-4.88806
1300.000	0.54761	-3.70694	-0.18781	-4.90979
1301.000	0.52784	-3.71091	-0.27480	-4.99861
1302.000	0.46063	-3.76642	-0.35388	-4.94921
1303.000	0.46656	-3.76641	-0.35981	-4.95513
1304.000	0.44086	-3.78425	-0.34993	-4.91367
1305.000	0.46656	-3.79810	-0.40528	-4.98275
1306.000	0.43493	-3.77831	-0.41319	-4.98867
1307.000	0.41121	-3.87141	-0.46854	-5.03206
1308.000	0.46656	-3.82979	-0.50412	-4.99255
1309.000	0.42702	-3.91101	-0.41516	-5.04789
1310.000	0.40726	-3.86349	-0.45865	-4.99456
1311.000	0.43493	-3.84763	-0.46459	-5.01233
1312.000	0.44482	-3.89318	-0.52784	-5.06755
1313.000	0.41516	-3.86745	-0.44679	-4.98075
1314.000	0.49028	-3.88523	-0.50610	-5.02414
1315.000	0.49424	-3.89909	-0.45470	-4.99062
1316.000	0.45075	-3.93871	-0.45272	-5.01431
1317.000	0.47249	-3.91296	-0.49028	-4.96690
1318.000	0.44284	-3.91892	-0.37167	-5.05187
1319.000	0.50808	-3.89908	-0.34993	-5.04793
1320.000	0.49028	-3.96443	-0.40133	-5.09330
1321.000	0.46854	-3.93871	-0.38749	-5.03409
1322.000	0.50017	-3.91493	-0.37958	-5.02225
1323.000	0.54366	-3.86341	-0.35783	-5.04595
1324.000	0.55750	-3.83370	-0.39935	-5.01829
1325.000	0.52389	-3.87531	-0.35190	-5.00845
1326.000	0.52191	-3.81788	-0.37365	-5.02028
1327.000	0.52982	-3.79609	-0.36574	-4.94921
1328.000	0.54366	-3.82579	-0.36574	-4.91959
1329.000	0.57331	-3.80002	-0.31236	-4.97293
1330.000	0.51401	-3.84957	-0.28666	-4.97097
1331.000	0.56343	-3.80003	-0.29062	-4.98281
1332.000	0.53971	-3.77033	-0.35586	-4.99660
1333.000	0.56936	-3.78418	-0.36772	-5.00449
1334.000	0.53575	-3.81391	-0.31829	-4.95516
1335.000	0.57529	-3.78021	-0.35388	-4.97686
1336.000	0.51994	-3.78025	-0.29259	-4.89988
1337.000	0.51005	-3.76243	-0.30643	-4.96898
1338.000	0.44877	-3.79811	-0.34993	-4.93539
1339.000	0.51401	-3.78421	-0.24515	-4.96111
1340.000	0.46656	-3.82187	-0.33806	-5.00451
1341.000	0.52982	-3.77628	-0.32422	-4.99662
1342.000	0.49424	-3.78819	-0.32422	-4.95910
1343.000	0.43493	-3.80802	-0.36969	-4.91761
1344.000	0.48633	-3.77829	-0.42109	-4.96300
1345.000	0.46854	-3.76245	-0.33016	-4.91171
1346.000	0.46459	-3.72878	-0.38156	-5.01633
1347.000	0.50412	-3.75253	-0.39342	-4.90377
1348.000	0.43296	-3.77237	-0.32818	-4.97095
1349.000	0.43493	-3.80010	-0.34202	-5.02425
1350.000	0.43889	-3.78227	-0.33609	-4.96107
1351.000	0.43889	-3.81792	-0.39737	-4.92747
1352.000	0.46459	-3.77830	-0.43493	-5.03209
1353.000	0.46261	-3.79613	-0.40726	-5.04987
1354.000	0.40923	-3.84963	-0.40330	-4.95511
1355.000	0.46261	-3.79414	-0.26294	-4.99664
1356.000	0.43098	-3.81397	-0.41714	-4.97485
1357.000	0.43889	-3.82585	-0.37563	-4.96895
1358.000	0.44284	-3.82386	-0.41319	-4.98275
1359.000	0.44086	-3.83377	-0.39342	-4.95314
1360.000	0.48040	-3.83573	-0.35981	-4.92946
1361.000	0.44482	-3.77831	-0.41121	-4.98867
1362.000	0.41714	-3.84170	-0.43098	-4.95707
1363.000	0.40330	-3.84171	-0.43493	-4.98273
1364.000	0.41912	-3.83378	-0.43296	-5.03012
1365.000	0.46656	-3.81395	-0.37760	-5.02620
1366.000	0.41714	-3.83576	-0.36376	-4.94526
1367.000	0.43889	-3.82387	-0.40330	-4.91957
1368.000	0.38946	-3.81003	-0.43098	-4.96497
1369.000	0.42505	-3.80803	-0.28271	-4.94727
1370.000	0.43691	-3.85753	-0.39935	-4.92154
1371.000	0.42307	-3.75653	-0.34202	-4.92750
1372.000	0.42900	-3.81595	-0.42109	-4.94720
1373.000	0.44877	-3.82584	-0.38749	-4.95117
1374.000	0.43493	-3.82387	-0.38156	-4.99264
1375.000	0.43296	-3.77039	-0.37167	-4.99264
1376.000	0.44086	-3.79416	-0.35586	-4.90379
1377.000	0.40528	-3.83379	-0.40133	-4.98473
1378.000	0.42307	-3.77832	-0.39737	-4.98473
1379.000	0.42702	-3.85358	-0.41121	-4.98077
1380.000	0.41319	-3.86151	-0.49622	-4.92938
1381.000	0.43691	-3.84367	-0.46459	-4.96889
1382.000	0.42307	-3.84764	-0.38946	-4.97289
1383.000	0.44482	-3.80208	-0.38749	-4.97289
1384.000	0.43691	-3.81594	-0.38156	-4.90970
1385.000	0.45865	-3.80999	-0.39935	-5.02816
1386.000	0.47052	-3.81791	-0.39144	-4.97684
1387.000	0.49226	-3.81988	-0.34202	-4.96502
1388.000	0.50017	-3.83572	-0.45865	-4.94915
1389.000	0.46063	-3.84762	-0.39737	-4.88600
1390.000	0.49424	-3.86344	-0.35388	-5.03411
1391.000	0.48435	-3.82186	-0.44482	-5.01431
1392.000	0.52982	-3.81589	-0.39737	-4.95314
1393.000	0.50017	-3.77828	-0.35783	-4.90972
1394.000	0.49226	-3.72876	-0.48435	-5.02613
1395.000	0.47842	-3.81592	-0.39539	-4.99658
1396.000	0.52587	-3.78222	-0.42702	-4.97287
1397.000	0.46656	-3.78622	-0.36574	-5.01831
1398.000	0.48435	-3.77036	-0.36574	-5.01239
1399.000	0.49226	-3.79611	-0.41319	-4.96103
1400.000	0.53971	-3.82777	-0.34993	-4.99463
1401.000	0.56738	-3.74456	-0.40330	-5.01434
1402.000	0.50808	-3.75054	-0.39342	-4.91365
1403.000	0.52389	-3.81194	-0.49622	-4.97677
1404.000	0.52389	-3.80005	-0.45668	-5.01233
1405.000	0.52191	-3.80005	-0.39737	-4.99460
1406.000	0.54761	-3.80796	-0.36772	-4.93144
1407.000	0.53180	-3.78420	-0.40726	-4.95116
1408.000	0.51796	-3.77233	-0.40133	-5.02026
1409.000	0.49028	-3.83572	-0.37958	-5.00448
1410.000	0.47249	-3.82979	-0.43691	-4.95311
1411.000	0.52982	-3.77034	-0.45668	-4.93335
1412.000	0.49424	-3.77036	-0.36376	-4.94921
1413.000	0.47052	-3.80999	-0.40330	-5.01632
1414.000	0.49226	-3.83968	-0.39737	-5.03211
1415.000	0.45865	-3.82980	-0.40528	-4.94919
1416.000	0.48831	-3.84166	-0.43296	-4.93337
1417.000	0.47052	-3.79216	-0.42307	-4.96300
1418.000	0.49424	-3.82384	-0.35981	-4.90577
1419.000	0.49622	-3.84166	-0.42702	-4.96694
1420.000	0.49226	-3.78819	-0.42505	-4.95510
1421.000	0.46459	-3.83574	-0.38946	-4.96894
1422.000	0.48633	-3.79809	-0.35586	-4.94329
1423.000	0.49622	-3.83374	-0.40528	-4.98078
1424.000	0.50215	-3.80799	-0.35388	-4.99858
1425.000	0.50412	-3.81195	-0.38946	-4.91562
1426.000	0.44877	-3.81792	-0.40923	-4.95511
1427.000	0.46261	-3.80009	-0.36376	-4.95316
1428.000	0.49424	-3.83770	-0.41714	-4.99459
1429.000	0.39539	-3.81993	-0.41121	-5.00841
1430.000	0.45865	-3.80801	-0.42505	-4.94522
1431.000	0.46854	-3.76443	-0.37760	-4.99461
1432.000	0.48435	-3.79413	-0.34795	-4.95119
1433.000	0.47249	-3.78820	-0.41714	-4.95313
1434.000	0.42307	-3.79416	-0.34795	-4.93145
1435.000	0.45272	-3.80405	-0.39144	-4.97684
1436.000	0.43098	-3.77633	-0.39342	-4.90180
1437.000	0.44086	-3.74662	-0.41121	-4.95708
1438.000	0.44877	-3.77434	-0.41714	-4.99459
1439.000	0.41912	-3.81793	-0.34004	-4.94527
1440.000	0.40528	-3.80408	-0.30248	-4.96899
1441.000	0.43493	-3.81397	-0.38353	-4.98079
1442.000	0.43296	-3.78030	-0.43493	-4.98273
1443.000	0.42307	-3.78030	-0.33213	-4.97687
1444.000	0.39342	-3.83775	-0.36376	-5.04595
1445.000	0.44679	-3.74860	-0.42702	-4.98669
1446.000	0.44284	-3.72681	-0.44284	-4.99852
1447.000	0.40528	-3.79219	-0.39935	-5.05185
1448.000	0.40133	-3.78229	-0.42109	-4.96892
1449.000	0.42307	-3.78426	-0.46063	-4.97482
1450.000	0.40923	-3.80804	-0.39144	-4.92155
1451.000	0.44679	-3.83178	-0.37365	-4.97092
1452.000	0.38156	-3.81795	-0.32818	-4.98674
1453.000	0.47842	-3.77631	-0.42505	-4.96694
1454.000	0.44482	-3.81198	-0.36574	-4.99067
1455.000	0.41319	-3.79813	-0.45272	-5.04392
1456.000	0.40133	-3.84963	-0.44284	-4.93336
1457.000	0.43889	-3.79812	-0.41516	-4.99262
1458.000	0.38353	-3.81201	-0.40133	-4.97091
1459.000	0.41319	-3.83774	-0.41516	-4.97287
1460.000	0.38749	-3.80210	-0.34795	-5.04201
1461.000	0.43493	-3.81000	-0.36179	-4.99462
1462.000	0.43691	-3.81000	-0.35388	-4.92552
1463.000	0.39342	-3.78428	-0.37760	-5.00251
1464.000	0.43493	-3.82387	-0.32422	-5.02820
1465.000	0.43493	-3.77435	-0.32818	-4.98082
1466.000	0.40923	-3.77833	-0.36376	-4.94921
1467.000	0.40330	-3.79219	-0.42307	-4.98669
1468.000	0.43098	-3.82189	-0.41912	-4.95707
1469.000	0.39539	-3.80606	-0.40923	-4.98275
1470.000	0.42702	-3.78228	-0.38946	-4.99263
1471.000	0.40923	-3.76050	-0.38946	-4.98079
1472.000	0.44877	-3.78425	-0.39737	-5.03606
1473.000	0.36772	-3.82786	-0.34004	-4.94132
1474.000	0.40133	-3.81002	-0.47249	-4.98468
1475.000	0.40133	-3.76446	-0.34597	-4.96107
1476.000	0.39935	-3.79220	-0.44679	-4.97285
1477.000	0.45470	-3.82980	-0.37365	-4.97092
1478.000	0.39737	-3.78031	-0.30050	-5.08151
1479.000	0.37958	-3.79815	-0.26887	-5.01441
1480.000	0.37958	-3.84964	-0.38353	-5.03409
1481.000	0.44086	-3.77831	-0.42702	-4.94522
1482.000	0.43098	-3.82981	-0.35981	-4.99660
1483.000	0.35586	-3.82787	-0.40133	-4.97683
1484.000	0.46459	-3.76641	-0.39342	-4.98078
1485.000	0.37563	-3.82390	-0.38946	-5.02027
1486.000	0.42900	-3.76049	-0.41714	-5.01828
1487.000	0.41319	-3.79615	-0.35586	-4.99068
1488.000	0.41121	-3.76842	-0.34597	-5.01043
1489.000	0.44284	-3.81000	-0.43691	-5.00050
1490.000	0.40133	-3.80606	-0.38551	-5.01830
1491.000	0.44877	-3.84169	-0.35388	-5.01634
1492.000	0.42702	-3.78030	-0.47447	-4.97876
1493.000	0.38353	-3.77636	-0.35586	-4.96698
1494.000	0.43098	-3.80010	-0.42900	-4.92153
1495.000	0.39737	-3.84567	-0.42307	-4.98077
1496.000	0.36179	-3.81796	-0.39737	-5.03606
1497.000	0.37563	-3.87539	-0.45470	-4.92743
1498.000	0.38946	-3.80408	-0.44482	-5.03208
1499.000	0.38353	-3.81993	-0.45470	-4.96495
1500.000	0.41714	-3.82190	-0.36772	-5.01436
1501.000	0.40528	-3.81398	-0.47052	-4.96494
1502.000	0.40133	-3.83379	-0.43889	-5.06564
1503.000	0.41912	-3.78228	-0.41714	-4.99459
1504.000	0.41121	-3.81398	-0.37760	-4.99067
1505.000	0.42505	-3.82585	-0.39935	-4.98868
1506.000	0.37563	-3.86152	-0.39342	-5.00250
1507.000	0.38156	-3.77636	-0.38156	-5.03607
1508.000	0.35586	-3.89718	-0.40330	-4.93734
1509.000	0.34399	-3.80014	-0.42900	-5.03209
1510.000	0.42505	-3.84962	-0.44284	-4.98865
1511.000	0.37760	-3.83182	-0.40726	-5.02421
1512.000	0.41319	-3.88131	-0.40923	-4.96498
1513.000	0.37167	-3.80409	-0.42702	-5.00840
1514.000	0.38946	-3.81399	-0.42505	-5.03999
1515.000	0.38946	-3.79814	-0.40726	-5.05777
1516.000	0.39539	-3.76843	-0.40923	-5.03013
1517.000	0.38353	-3.83181	-0.37958	-5.02423
1518.000	0.40133	-3.78229	-0.47052	-5.05180
1519.000	0.39342	-3.79616	-0.43296	-5.03209
1520.000	0.41319	-3.80011	-0.39539	-4.99263
1521.000	0.39539	-3.76051	-0.38551	-4.97684
1522.000	0.36574	-3.79023	-0.40330	-5.05580
1523.000	0.35388	-3.82787	-0.33806	-5.00056
1524.000	0.37958	-3.81399	-0.38749	-5.06765
1525.000	0.36574	-3.81796	-0.37365	-4.98672
1526.000	0.39737	-3.84369	-0.48238	-5.00837
1527.000	0.33609	-3.82787	-0.35586	-4.99463
1528.000	0.34795	-3.80806	-0.32620	-5.02228
1529.000	0.36772	-3.81400	-0.37167	-5.08345
1530.000	0.42900	-3.84962	-0.41516	-5.03802
1531.000	0.39935	-3.77437	-0.41516	-5.05184
1532.000	0.39144	-3.80210	-0.45272	-5.04589
1533.000	0.40528	-3.78427	-0.37958	-5.02620
1534.000	0.40330	-3.76644	-0.35388	-4.97291
1535.000	0.34993	-3.86946	-0.31829	-5.04005
1536.000	0.36772	-3.77438	-0.48238	-5.01034
1537.000	0.39144	-3.82983	-0.31829	-5.05190
1538.000	0.35388	-3.78429	-0.38946	-5.00250
1539.000	0.34399	-3.82391	-0.38353	-5.07949
1540.000	0.35388	-3.82985	-0.40528	-4.96696
1541.000	0.33016	-3.81401	-0.35190	-5.03016
1542.000	0.34993	-3.85361	-0.42307	-4.99261
1543.000	0.32818	-3.78430	-0.34597	-5.04793
1544.000	0.30841	-3.84769	-0.38353	-5.08344
1545.000	0.34399	-3.81797	-0.43098	-5.02025
1546.000	0.31632	-3.80213	-0.34993	-5.07359
1547.000	0.30841	-3.88928	-0.31039	-5.03216
1548.000	0.32225	-3.84768	-0.37167	-5.03213
1549.000	0.29062	-3.83977	-0.40726	-5.04000
1550.000	0.32225	-3.80411	-0.34202	-5.06175
1551.000	0.32422	-3.87937	-0.34202	-5.05188
1552.000	0.33806	-3.81005	-0.36772	-5.08543
1553.000	0.34795	-3.84965	-0.34004	-5.03214
1554.000	0.37760	-3.78824	-0.42505	-5.03802
1555.000	0.31434	-3.80610	-0.28469	-5.00848
1556.000	0.30643	-3.84373	-0.38353	-5.06963
1557.000	0.33016	-3.82391	-0.45272	-5.08142
1558.000	0.34004	-3.86154	-0.43493	-5.05380
1559.000	0.34795	-3.80608	-0.37958	-5.06765
1560.000	0.28864	-3.82195	-0.33411	-5.10518
1561.000	0.31039	-3.82392	-0.42900	-5.00445
1562.000	0.34202	-3.82985	-0.48435	-5.06956
1563.000	0.29852	-3.84769	-0.35190	-5.07754
1564.000	0.35586	-3.85955	-0.40726	-5.03605
1565.000	0.35981	-3.84767	-0.36376	-5.05582
1566.000	0.35586	-3.81400	-0.44086	-5.00050
1567.000	0.30841	-3.87343	-0.45272	-4.99062
1568.000	0.29062	-3.83977	-0.31434	-5.02821
1569.000	0.30248	-3.85561	-0.37563	-5.10121
1570.000	0.28666	-3.85364	-0.36772	-5.03213
1571.000	0.29852	-3.81996	-0.37760	-4.99659
1572.000	0.31632	-3.90511	-0.36179	-5.08148
1573.000	0.30446	-3.84769	-0.39144	-5.04791
1574.000	0.31039	-3.84175	-0.37563	-5.05976
1575.000	0.33411	-3.83184	-0.36179	-5.07161
1576.000	0.35783	-3.82985	-0.31829	-5.03808
1577.000	0.33213	-3.81995	-0.37760	-5.04199
1578.000	0.34399	-3.77835	-0.45075	-5.05379
1579.000	0.34795	-3.81995	-0.36574	-5.10319
1580.000	0.32027	-3.86551	-0.45668	-5.08932
1581.000	0.33806	-3.84570	-0.33609	-5.05189
1582.000	0.31434	-3.87739	-0.44284	-5.02616
1583.000	0.28864	-3.88136	-0.33609	-5.07755
1584.000	0.30841	-3.86947	-0.38156	-5.04199
1585.000	0.34004	-3.89322	-0.39342	-5.05580
1586.000	0.30050	-3.94670	-0.34597	-5.10320
1587.000	0.30841	-3.82986	-0.39342	-5.10712
1588.000	0.32027	-3.86353	-0.40330	-5.05185
1589.000	0.30050	-3.85957	-0.42702	-5.09328
1590.000	0.35783	-3.80014	-0.43098	-5.02814
1591.000	0.28864	-3.80214	-0.41319	-5.06171
1592.000	0.32422	-3.86551	-0.38551	-5.07555
1593.000	0.30050	-3.79818	-0.39144	-5.03606
1594.000	0.29062	-3.82393	-0.35783	-5.02621
1595.000	0.33806	-3.81995	-0.41912	-5.04592
1596.000	0.26887	-3.81997	-0.43098	-5.09920
1597.000	0.31829	-3.78034	-0.43493	-5.04788
1598.000	0.31632	-3.77638	-0.43493	-5.06565
1599.000	0.27480	-3.82393	-0.43889	-5.04590
1600.000	0.28073	-3.78036	-0.41912	-5.03210
1601.000	0.29852	-3.84769	-0.45865	-5.12681
1602.000	0.33016	-3.85164	-0.42505	-5.06170
1603.000	0.29062	-3.85364	-0.38551	-5.02027
1604.000	0.29852	-3.79224	-0.36179	-5.05385
1605.000	0.32818	-3.88333	-0.44482	-5.05577
1606.000	0.32027	-3.81005	-0.41714	-5.13276
1607.000	0.31434	-3.81996	-0.40726	-5.11303
1608.000	0.31236	-3.85165	-0.31236	-5.07559
1609.000	0.32027	-3.81996	-0.35190	-4.99660
1610.000	0.34202	-3.85164	-0.37365	-5.01436
1611.000	0.30050	-3.87344	-0.37365	-5.02818
1612.000	0.30643	-3.87541	-0.34795	-5.06175
1613.000	0.31236	-3.84769	-0.37958	-5.05581
1614.000	0.30841	-3.81600	-0.39144	-5.09528
1615.000	0.30841	-3.82986	-0.47447	-5.03601
1616.000	0.30446	-3.86947	-0.47249	-4.95704
1617.000	0.33806	-3.84768	-0.34202	-4.98081
1618.000	0.34795	-3.86154	-0.37760	-5.04002
1619.000	0.31829	-3.80213	-0.39737	-5.05185
1620.000	0.29457	-3.82987	-0.39935	-4.97091
1621.000	0.35586	-3.86945	-0.35586	-5.01832
1622.000	0.28864	-3.86354	-0.41121	-5.09527
1623.000	0.34399	-3.79618	-0.42702	-5.00840
1624.000	0.33411	-3.83580	-0.38551	-5.02422
1625.000	0.28271	-3.83780	-0.39342	-4.99855
1626.000	0.34399	-3.83777	-0.41714	-5.02420
1627.000	0.31236	-3.77044	-0.42900	-5.01235
1628.000	0.31039	-3.81402	-0.41912	-5.00249
1629.000	0.28469	-3.79818	-0.43296	-5.01432
1630.000	0.28271	-3.80016	-0.39935	-5.09330
1631.000	0.26096	-3.85167	-0.39144	-4.95709
1632.000	0.18781	-3.78632	-0.48435	-4.95506
1633.000	0.10280	-3.81011	-0.49028	-5.04784
1634.000	0.03756	-3.71107	-0.59308	-4.98064
1635.000	-0.05733	-3.63974	-0.66227	-4.95885
1636.000	-0.16211	-3.57830	-0.75517	-4.94691
1637.000	-0.23526	-3.52478	-0.80261	-4.84416
1638.000	-0.36179	-3.39986	-0.92911	-4.85980
1639.000	-0.43098	-3.33639	-1.07141	-4.80824
1640.000	-0.56540	-3.13406	-1.12279	-4.66593
1641.000	-0.62866	-3.02294	-1.29472	-4.48974
1642.000	-0.70773	-2.94354	-1.34609	-4.26622
1643.000	-0.76901	-2.73514	-1.38758	-4.21867
1644.000	-0.82238	-2.61799	-1.46859	-4.08400
1645.000	-0.82040	-2.49094	-1.46069	-3.94152
1646.000	-0.83621	-2.37179	-1.45279	-3.87027
1647.000	-0.92120	-2.26847	-1.58318	-3.66411
1648.000	-0.86784	-2.23672	-1.59898	-3.61654
1649.000	-0.91725	-2.19300	-1.59700	-3.51354
1650.000	-0.98445	-2.14330	-1.65232	-3.54316
1651.000	-0.99829	-2.15322	-1.73725	-3.52121
1652.000	-1.02200	-2.17902	-1.84983	-3.58636
1653.000	-1.06943	-2.09954	-1.78268	-3.61818
1654.000	-1.13465	-2.22462	-1.80441	-3.71716
1655.000	-1.13465	-2.20675	-1.77873	-3.63007
1656.000	-1.19394	-2.17294	-1.83996	-3.64183
1657.000	-1.16232	-2.22063	-1.77873	-3.69741
1658.000	-1.18010	-2.23651	-1.74515	-3.72321
1659.000	-1.10106	-2.29416	-1.75108	-3.69746
1660.000	-1.09117	-2.33786	-1.71553	-3.63019
1661.000	-1.09117	-2.39147	-1.70565	-3.71141
1662.000	-1.05758	-2.39149	-1.54169	-3.72953
1663.000	-1.03386	-2.40343	-1.53774	-3.73548
1664.000	-0.93306	-2.41740	-1.46266	-3.78511
1665.000	-0.94690	-2.43327	-1.48637	-3.84645
1666.000	-0.96271	-2.50077	-1.44488	-3.80891
1667.000	-0.95085	-2.57820	-1.45279	-3.85443
1668.000	-0.91527	-2.54647	-1.48440	-3.94544
1669.000	-0.90934	-2.53059	-1.57330	-3.90173
1670.000	-0.94295	-2.50475	-1.54762	-3.81665
1671.000	-0.97852	-2.50274	-1.56540	-3.85423
1672.000	-0.98643	-2.51465	-1.59700	-3.87199
1673.000	-1.01014	-2.45507	-1.62269	-3.81057
1674.000	-1.04374	-2.47093	-1.59108	-3.82647
1675.000	-1.03188	-2.46895	-1.62071	-3.78681
1676.000	-1.07932	-2.49274	-1.67997	-3.83224
1677.000	-1.09710	-2.46096	-1.68392	-3.79065
1678.000	-1.07339	-2.43119	-1.71750	-3.77079
1679.000	-1.02398	-2.37166	-1.68195	-3.81838
1680.000	-1.07141	-2.36964	-1.70367	-3.67973
1681.000	-1.09710	-2.34579	-1.63651	-3.73332
1682.000	-1.04572	-2.35576	-1.73725	-3.77273
1683.000	-1.02003	-2.33592	-1.73725	-3.67768
1684.000	-1.10501	-2.33784	-1.62861	-3.74918
1685.000	-1.09315	-2.30608	-1.73923	-3.72125
1686.000	-1.11094	-2.30408	-1.71750	-3.79257
1687.000	-1.07932	-2.31801	-1.67997	-3.67779
1688.000	-1.06746	-2.27433	-1.71948	-3.69752
1689.000	-1.05758	-2.27036	-1.70960	-3.76883
1690.000	-1.11094	-2.28819	-1.74910	-3.76083
1691.000	-1.12082	-2.26634	-1.74318	-3.68757
1692.000	-1.14848	-2.30008	-1.65627	-3.73329
1693.000	-1.10106	-2.31402	-1.63651	-3.72936
1694.000	-1.13268	-2.30804	-1.76886	-3.68356
1695.000	-1.07536	-2.32198	-1.73330	-3.71532
1696.000	-1.07536	-2.31602	-1.72145	-3.71732
1697.000	-1.08524	-2.26637	-1.68590	-3.66986
1698.000	-1.08722	-2.27431	-1.72145	-3.77276
1699.000	-1.08920	-2.32197	-1.70762	-3.75497
1700.000	-1.10896	-2.33586	-1.65232	-3.74715
1701.000	-1.05758	-2.29618	-1.71750	-3.70347
1702.000	-1.08129	-2.33191	-1.63256	-3.69571
1703.000	-1.02595	-2.31407	-1.64244	-3.65410
1704.000	-1.02398	-2.35578	-1.63454	-3.71947
1705.000	-1.06153	-2.32993	-1.67997	-3.76888
1706.000	-1.04374	-2.33789	-1.63256	-3.70363
1707.000	-1.09513	-2.35175	-1.66219	-3.75902
1708.000	-1.05165	-2.28625	-1.60886	-3.74724
1709.000	-0.99829	-2.32601	-1.60688	-3.72150
1710.000	-1.01014	-2.35976	-1.63849	-3.74520
1711.000	-1.06153	-2.39546	-1.67800	-3.68968
1712.000	-1.02595	-2.32996	-1.74910	-3.70935
1713.000	-1.02398	-2.35379	-1.73923	-3.67174
1714.000	-1.01014	-2.37962	-1.64639	-3.66597
1715.000	-1.02793	-2.33393	-1.73528	-3.70937
1716.000	-1.08920	-2.38353	-1.74120	-3.70540
1717.000	-1.07339	-2.32397	-1.69775	-3.68766
1718.000	-1.08920	-2.37360	-1.69775	-3.68964
1719.000	-1.09117	-2.36168	-1.73330	-3.68165
1720.000	-1.05362	-2.33590	-1.62269	-3.69572
1721.000	-1.07734	-2.37758	-1.68985	-3.65599
1722.000	-1.11687	-2.36563	-1.81033	-3.69338
1723.000	-1.04967	-2.37562	-1.67207	-3.68177
1724.000	-1.03386	-2.33393	-1.67997	-3.63422
1725.000	-1.06351	-2.32993	-1.72935	-3.66978
1726.000	-1.01805	-2.31805	-1.73133	-3.72126
1727.000	-1.09117	-2.35771	-1.68195	-3.63620
1728.000	-1.13663	-2.36760	-1.74318	-3.70936
1729.000	-1.08524	-2.40736	-1.70762	-3.66190
1730.000	-1.07339	-2.39347	-1.63651	-3.69372
1731.000	-1.03188	-2.40939	-1.72343	-3.68959
1732.000	-1.12082	-2.38747	-1.62861	-3.67393
1733.000	-1.04572	-2.36370	-1.70367	-3.68963
1734.000	-1.06943	-2.39546	-1.62071	-3.70563
1735.000	-1.05955	-2.36767	-1.65034	-3.66795
1736.000	-1.13070	-2.37952	-1.60293	-3.67199
1737.000	-1.05955	-2.41532	-1.64441	-3.68182
1738.000	-1.07141	-2.37560	-1.64837	-3.63230
1739.000	-1.03188	-2.40939	-1.73923	-3.68362
1740.000	-1.04374	-2.41533	-1.63849	-3.67589
1741.000	-1.10106	-2.40735	-1.68392	-3.66194
1742.000	-1.12675	-2.44306	-1.58318	-3.70966
1743.000	-1.06746	-2.33986	-1.69577	-3.73519
1744.000	-1.09908	-2.31601	-1.63256	-3.67788
1745.000	-1.08327	-2.34382	-1.67404	-3.69563
1746.000	-1.02398	-2.34188	-1.67997	-3.70156
1747.000	-1.05560	-2.34583	-1.73133	-3.67175
1748.000	-1.00224	-2.28827	-1.72343	-3.73910
1749.000	-0.97259	-2.25850	-1.64244	-3.63033
1750.000	-0.99236	-2.27835	-1.66022	-3.65208
1751.000	-1.05758	-2.34781	-1.59700	-3.66210
1752.000	-1.00026	-2.34785	-1.71355	-3.75892
1753.000	-0.95678	-2.32008	-1.69775	-3.72331
1754.000	-0.98050	-2.32205	-1.65429	-3.72537
1755.000	-1.00817	-2.33990	-1.64441	-3.68776
1756.000	-1.05955	-2.37164	-1.72935	-3.76681
1757.000	-1.03781	-2.33591	-1.66417	-3.71149
1758.000	-1.03979	-2.33591	-1.73725	-3.69749
1759.000	-0.99038	-2.34786	-1.64441	-3.70162
1760.000	-1.05955	-2.37164	-1.69380	-3.65598
1761.000	-0.95283	-2.26646	-1.64441	-3.72935
1762.000	-0.99038	-2.29821	-1.66022	-3.63228
1763.000	-1.01410	-2.31607	-1.63256	-3.70957
1764.000	-1.04769	-2.32597	-1.68590	-3.69561
1765.000	-1.00421	-2.32402	-1.67602	-3.68770
1766.000	-0.98445	-2.31212	-1.66219	-3.76694
1767.000	-1.02595	-2.33592	-1.68392	-3.72531
1768.000	-0.97062	-2.32404	-1.64244	-3.67984
1769.000	-1.01212	-2.39153	-1.65429	-3.70557
1770.000	-1.02991	-2.35776	-1.61083	-3.76505
1771.000	-1.00421	-2.35579	-1.64046	-3.67391
1772.000	-1.04967	-2.32994	-1.65429	-3.68774
1773.000	-1.03979	-2.41931	-1.67404	-3.75107
1774.000	-0.96666	-2.34986	-1.70367	-3.75300
1775.000	-1.05758	-2.36568	-1.70367	-3.72924
1776.000	-1.02595	-2.30017	-1.65824	-3.72734
1777.000	-1.09908	-2.37756	-1.70367	-3.72330
1778.000	-0.95283	-2.33001	-1.64244	-3.72737
1779.000	-1.01014	-2.32799	-1.75108	-3.74102
1780.000	-1.01212	-2.35380	-1.68985	-3.70946
1781.000	-0.99433	-2.33197	-1.60886	-3.76704
1782.000	-1.06153	-2.36568	-1.68392	-3.75303
1783.000	-0.98050	-2.33595	-1.65232	-3.70953
1784.000	-1.02200	-2.35975	-1.67207	-3.72732
1785.000	-0.96073	-2.30419	-1.58713	-3.67796
1786.000	-0.88167	-2.29630	-1.57132	-3.67601
1787.000	-0.77296	-2.28444	-1.47057	-3.68212
1788.000	-0.70773	-2.28448	-1.22160	-3.57949
1789.000	-0.49028	-2.20114	-1.05955	-3.64309
1790.000	-0.14827	-2.18731	-0.77098	-3.51854
1791.000	0.22142	-2.14558	-0.48831	-3.53063
1792.000	0.60494	-2.12164	-0.13444	-3.41380
1793.000	1.06351	-2.03597	0.35388	-3.39392
1794.000	1.53379	-1.99587	0.94690	-3.22699
1795.000	1.92685	-1.92793	1.42513	-3.16695
1796.000	2.46183	-1.79819	1.88933	-3.07304
1797.000	2.89187	-1.74396	2.46380	-2.99457
1798.000	3.52450	-1.56035	2.92934	-2.79921
1799.000	4.01071	-1.47222	3.39449	-2.72663
1800.000	4.39808	-1.32876	3.81196	-2.56890
1801.000	4.84395	-1.19517	4.17396	-2.35783
1802.000	5.24217	-1.06770	4.63385	-2.29303
1803.000	5.63990	-0.94626	5.00486	-2.11566
1804.000	6.06444	-0.84665	5.28530	-1.98415
1805.000	6.41024	-0.85005	5.69080	-1.99862
1806.000	6.83744	-0.76637	5.89040	-1.98012
1807.000	7.10430	-0.69882	6.19930	-1.94739
1808.000	7.44473	-0.66870	6.47856	-1.86735
1809.000	7.85060	-0.68777	6.76142	-1.79721
1810.000	8.20146	-0.72656	7.08289	-1.97347
1811.000	8.58070	-0.70421	7.40390	-1.92675
1812.000	8.91095	-0.80184	7.70116	-2.00222
1813.000	9.23290	-0.74811	7.99218	-2.00672
1814.000	9.62731	-0.81197	8.32538	-2.08173
1815.000	9.84624	-0.87023	8.51110	-1.96872
1816.000	10.20473	-0.85753	8.74687	-1.89482
1817.000	10.40376	-0.86872	8.96304	-1.97811
1818.000	10.63501	-0.90326	9.09995	-2.04799
1819.000	10.81059	-0.93790	9.35805	-1.98964
1820.000	10.93834	-0.93164	9.37538	-1.98366
1821.000	10.99360	-0.93927	9.43503	-1.95392
1822.000	10.99169	-0.87875	9.39655	-1.84434
1823.000	10.98026	-0.87488	9.44657	-1.86956
1824.000	10.88687	-0.83219	9.42541	-1.85595
1825.000	10.73618	-0.79548	9.30800	-1.75655
1826.000	10.61782	-0.75864	9.19052	-1.81796
1827.000	10.43627	-0.68475	9.30415	-1.78991
1828.000	10.28897	-0.65376	9.20979	-1.75508
1829.000	10.15685	-0.64620	9.08260	-1.74982
1830.000	10.04188	-0.60921	9.12501	-1.69270
1831.000	9.96710	-0.61915	9.10573	-1.65354
1832.000	9.90956	-0.57811	9.14813	-1.76127
1833.000	9.89613	-0.57813	9.12115	-1.78103
1834.000	9.87502	-0.55269	9.11730	-1.65545
1835.000	9.95560	-0.59174	9.24253	-1.68625
1836.000	9.96710	-0.59368	9.16933	-1.69445
1837.000	10.03996	-0.63272	9.32726	-1.65642
1838.000	10.11854	-0.58361	9.52350	-1.70253
1839.000	10.19899	-0.65590	9.43887	-1.78138
1840.000	10.29088	-0.61070	9.55042	-1.69064
1841.000	10.42097	-0.63392	9.57157	-1.75325
1842.000	10.51083	-0.63765	9.50812	-1.61831
1843.000	10.56433	-0.66882	9.59656	-1.67669
1844.000	10.68274	-0.63338	9.63115	-1.60988
1845.000	10.73428	-0.65477	9.75025	-1.70335
1846.000	10.82967	-0.63503	9.60809	-1.74326
1847.000	10.84683	-0.67015	9.71376	-1.70353
1848.000	10.80296	-0.68198	9.61962	-1.70401
1849.000	10.85255	-0.66819	9.60040	-1.69823
1850.000	10.83730	-0.70143	9.57733	-1.66502
1851.000	10.81441	-0.69953	9.65229	-1.71560
1852.000	10.79724	-0.67222	9.56003	-1.65138
1853.000	10.75145	-0.66255	9.58502	-1.63754
1854.000	10.76099	-0.68598	9.52543	-1.72408
1855.000	10.76481	-0.68206	9.48696	-1.66546
1856.000	10.71519	-0.66849	9.42348	-1.71675
1857.000	10.71519	-0.63331	9.44657	-1.68330
1858.000	10.66556	-0.58259	9.43503	-1.73826
1859.000	10.63310	-0.62566	9.49466	-1.68111
1860.000	10.62928	-0.61394	9.46581	-1.78908
1861.000	10.59681	-0.64725	9.38307	-1.75029
1862.000	10.58726	-0.65704	9.37923	-1.71893
1863.000	10.57770	-0.68053	9.38500	-1.65223
1864.000	10.62355	-0.63546	9.41964	-1.73442
1865.000	10.61782	-0.63938	9.30223	-1.71147
1866.000	10.54905	-0.60041	9.35805	-1.71119
1867.000	10.58153	-0.61599	9.46388	-1.72243
1868.000	10.57197	-0.61210	9.45619	-1.65973
1869.000	10.57388	-0.65903	9.36575	-1.74057
1870.000	10.52994	-0.65325	9.40039	-1.68157
1871.000	10.56051	-0.64341	9.41964	-1.70501
1872.000	10.49554	-0.67093	9.48504	-1.72625
1873.000	10.45157	-0.63581	9.44272	-1.64803
1874.000	10.52420	-0.64153	9.38307	-1.66792
1875.000	10.48407	-0.64748	9.33881	-1.69952
1876.000	10.46495	-0.67491	9.27335	-1.65079
1877.000	10.45730	-0.62993	9.34266	-1.59162
1878.000	10.49171	-0.68267	9.26564	-1.62140
1879.000	10.51274	-0.64351	9.43695	-1.61668
1880.000	10.49362	-0.66311	9.26564	-1.60178
1881.000	10.50509	-0.62984	9.36383	-1.69155
1882.000	10.47642	-0.64359	9.33496	-1.65443
1883.000	10.49171	-0.64160	9.41579	-1.68738
1884.000	10.51274	-0.62786	9.35036	-1.67004
1885.000	10.53185	-0.60827	9.41001	-1.63054
1886.000	10.53376	-0.64542	9.42926	-1.67162
1887.000	10.53567	-0.61804	9.40617	-1.66389
1888.000	10.55287	-0.62387	9.45811	-1.64207
1889.000	10.54331	-0.63171	9.43887	-1.65197
1890.000	10.52803	-0.64739	9.44080	-1.67745
1891.000	10.54522	-0.69429	9.38500	-1.67576
1892.000	10.53949	-0.64150	9.43695	-1.71276
1893.000	10.54714	-0.67473	9.42348	-1.65596
1894.000	10.56624	-0.66100	9.42541	-1.69517
1895.000	10.56242	-0.65318	9.43503	-1.63434
1896.000	10.57006	-0.65512	9.38115	-1.67382
1897.000	10.54140	-0.63172	9.50235	-1.71440
1898.000	10.54331	-0.67865	9.37345	-1.66601
1899.000	10.54331	-0.69234	9.42926	-1.62652
1900.000	10.55860	-0.60822	9.44080	-1.64412
1901.000	10.57388	-0.64143	9.41194	-1.65210
1902.000	10.58535	-0.62381	9.47158	-1.60279
1903.000	10.55478	-0.56716	9.36768	-1.68761
1904.000	10.56433	-0.59452	9.34266	-1.60928
1905.000	10.57197	-0.63165	9.37153	-1.58168
1906.000	10.53949	-0.62781	9.41964	-1.64422
1907.000	10.57579	-0.61991	9.38692	-1.69144
1908.000	10.53949	-0.63954	9.34458	-1.59750
1909.000	10.53758	-0.62977	9.36383	-1.68763
1910.000	10.53376	-0.64151	9.38885	-1.58553
1911.000	10.56242	-0.65514	9.39270	-1.58355
1912.000	10.53567	-0.62391	9.42733	-1.64418
1913.000	10.59490	-0.62379	9.35805	-1.70139
1914.000	10.56051	-0.59648	9.38692	-1.67575
1915.000	10.58726	-0.63553	9.34843	-1.65044
1916.000	10.54522	-0.69038	9.39655	-1.68355
1917.000	10.52994	-0.64543	9.42733	-1.65006
1918.000	10.55287	-0.63756	9.32726	-1.64269
1919.000	10.49745	-0.63963	9.36190	-1.64841
1920.000	10.54331	-0.67474	9.34651	-1.58768
1921.000	10.54331	-0.61802	9.39655	-1.66394
1922.000	10.54714	-0.65908	9.36575	-1.65036
1923.000	10.54714	-0.64539	9.36383	-1.66213
1924.000	10.54331	-0.65909	9.36575	-1.60132
1925.000	10.52994	-0.65521	9.29453	-1.63108
1926.000	10.54140	-0.59847	9.39847	-1.64236
1927.000	10.53758	-0.70408	9.37153	-1.68955
1928.000	10.52038	-0.62785	9.37730	-1.60323
1929.000	10.58153	-0.62772	9.41964	-1.71089
1930.000	10.52994	-0.64348	9.37923	-1.66402
1931.000	10.54522	-0.61020	9.38307	-1.71499
1932.000	10.53949	-0.63368	9.34266	-1.59751
1933.000	10.52420	-0.67087	9.31186	-1.69965
1934.000	10.51847	-0.66110	9.39462	-1.73650
1935.000	10.56051	-0.65906	9.41386	-1.73837
1936.000	10.54905	-0.64148	9.31956	-1.71138
1937.000	10.51083	-0.64156	9.33881	-1.69363
1938.000	10.55860	-0.67275	9.47927	-1.69491
1939.000	10.53567	-0.63760	9.39077	-1.69142
1940.000	10.55096	-0.68645	9.38307	-1.61693
1941.000	10.54140	-0.63367	9.37538	-1.60912
1942.000	10.54522	-0.65322	9.46004	-1.66755
1943.000	10.53758	-0.63173	9.46004	-1.67344
1944.000	10.49936	-0.64158	9.36190	-1.70921
1945.000	10.54714	-0.64344	9.44272	-1.64803
1946.000	10.54140	-0.63172	9.39462	-1.69532
1947.000	10.52803	-0.63761	9.45619	-1.66953
1948.000	10.52994	-0.65912	9.43310	-1.75788
1949.000	10.53949	-0.63563	9.41771	-1.59324
1950.000	10.54140	-0.62389	9.38692	-1.66202
1951.000	10.52994	-0.62979	9.41386	-1.68346
1952.000	10.49936	-0.65919	9.45234	-1.68132
1953.000	10.52229	-0.66109	9.42926	-1.59122
1954.000	10.54140	-0.60043	9.35805	-1.62097
1955.000	10.55669	-0.65515	9.30608	-1.64083
1956.000	10.51274	-0.64156	9.40617	-1.68938
1957.000	10.56051	-0.65514	9.30415	-1.60357
1958.000	10.52612	-0.62001	9.37538	-1.61109
1959.000	10.55860	-0.62386	9.33111	-1.67602
1960.000	10.52420	-0.58481	9.34266	-1.71323
1961.000	10.54714	-0.63171	9.42348	-1.76773
1962.000	10.52612	-0.60828	9.51773	-1.71432
1963.000	10.52229	-0.67283	9.46004	-1.61853
1964.000	10.52994	-0.67085	9.34073	-1.69363
1965.000	10.54140	-0.65910	9.41964	-1.64226
1966.000	10.54522	-0.63171	9.37538	-1.61109
1967.000	10.53376	-0.60044	9.43310	-1.69710
1968.000	10.54522	-0.64149	9.34458	-1.63477
1969.000	10.52038	-0.66110	9.47158	-1.76749
1970.000	10.52038	-0.60242	9.43310	-1.66572
1971.000	10.53758	-0.61804	9.41771	-1.67168
1972.000	10.56051	-0.63363	9.35421	-1.67787
1973.000	10.55287	-0.67863	9.38500	-1.72871
1974.000	10.53376	-0.61022	9.37345	-1.61502
1975.000	10.57770	-0.61209	9.42733	-1.66771
1976.000	10.55860	-0.63364	9.31571	-1.65256
1977.000	10.58726	-0.62967	9.31186	-1.64669
1978.000	10.57197	-0.64339	9.24831	-1.64895
1979.000	10.56624	-0.63167	9.33303	-1.70151
1980.000	10.54331	-0.59260	9.37345	-1.67778
1981.000	10.56624	-0.63949	9.40039	-1.60705
1982.000	10.56242	-0.64145	9.41771	-1.62462
1983.000	10.57388	-0.66880	9.37730	-1.67187
1984.000	10.57006	-0.62384	9.40039	-1.69137
1985.000	10.56242	-0.67274	9.35228	-1.57981
1986.000	10.60063	-0.63746	9.31956	-1.62900
1987.000	10.57388	-0.60819	9.43310	-1.68141
1988.000	10.58344	-0.64141	9.37345	-1.70719
1989.000	10.55860	-0.68839	9.36768	-1.63662
1990.000	10.57770	-0.68053	9.36960	-1.63857
1991.000	10.57197	-0.72551	9.43310	-1.75984
1992.000	10.57962	-0.65901	9.41771	-1.77757
1993.000	10.57006	-0.68054	9.34843	-1.73870
1994.000	10.55669	-0.72164	9.40809	-1.61682
1995.000	10.57962	-0.63555	9.38692	-1.73654
1996.000	10.57770	-0.68444	9.37153	-1.67386
1997.000	10.57197	-0.66490	9.37538	-1.65423
1998.000	10.59490	-0.69222	9.47927	-1.68707
1999.000	10.58726	-0.69810	9.39462	-1.67179
2000.000	10.55478	-0.68449	9.40809	-1.75997
2001.000	10.55860	-0.67079	9.42733	-1.70693
2002.000	10.58917	-0.69810	9.33496	-1.67208
2003.000	10.55860	-0.67079	9.41964	-1.68344
2004.000	10.53758	-0.71973	9.39655	-1.64040
2005.000	10.57770	-0.67466	9.42541	-1.63046
2006.000	10.61591	-0.66871	9.41771	-1.73639
2007.000	10.56242	-0.63950	9.34266	-1.65439
2008.000	10.52038	-0.66305	9.33496	-1.63285
2009.000	10.54905	-0.66104	9.42541	-1.69125
2010.000	10.56242	-0.67078	9.51004	-1.58301
2011.000	10.54905	-0.66299	9.43887	-1.69315
2012.000	10.57197	-0.68836	9.46196	-1.67539
2013.000	10.57579	-0.66293	9.35613	-1.65040
2014.000	10.55669	-0.71773	9.43887	-1.68922
2015.000	10.55478	-0.68644	9.46965	-1.59300
2016.000	10.57197	-0.69814	9.44272	-1.65391
2017.000	10.55287	-0.70405	9.50427	-1.64969
2018.000	10.52612	-0.71389	9.31186	-1.65846
2019.000	10.53185	-0.71583	9.32148	-1.68587
2020.000	10.54522	-0.68451	9.42541	-1.64223
2021.000	10.53949	-0.71190	9.41001	-1.72270
2022.000	10.55860	-0.67666	9.35421	-1.58372
2023.000	10.50892	-0.70219	9.38692	-1.58946
2024.000	10.51847	-0.66501	9.46004	-1.67344
2025.000	10.52612	-0.69042	9.35998	-1.68961
2026.000	10.52803	-0.70606	9.38307	-1.62674
2027.000	10.50892	-0.69633	9.48889	-1.70466
2028.000	10.52038	-0.71390	9.46196	-1.64598
2029.000	10.53567	-0.70995	9.40809	-1.67369
2030.000	10.52803	-0.67673	9.36383	-1.66213
2031.000	10.50509	-0.66309	9.48504	-1.68704
2032.000	10.52803	-0.70215	9.47158	-1.63613
2033.000	10.50892	-0.65721	9.48696	-1.68703
2034.000	10.52994	-0.67281	9.34266	-1.75049
2035.000	10.56815	-0.68641	9.45042	-1.66956
2036.000	10.52038	-0.64741	9.49850	-1.65364
2037.000	10.52612	-0.68455	9.43503	-1.61277
2038.000	10.51465	-0.70609	9.40617	-1.57956
2039.000	10.51847	-0.71586	9.45811	-1.63619
2040.000	10.50509	-0.64548	9.31763	-1.65843
2041.000	10.47260	-0.65337	9.43310	-1.57552
2042.000	10.49936	-0.63767	9.37153	-1.63464
2043.000	10.53949	-0.67083	9.46581	-1.57341
2044.000	10.54714	-0.62975	9.37153	-1.67386
2045.000	10.51847	-0.66892	9.39270	-1.55217
2046.000	10.52994	-0.63174	9.38115	-1.57772
2047.000	10.51083	-0.66307	9.45426	-1.63817
2048.000	10.54714	-0.64539	9.46965	-1.59300
2049.000	10.55860	-0.65710	9.38885	-1.62867
2050.000	10.49554	-0.67484	9.36768	-1.59347
2051.000	10.52803	-0.67086	9.41001	-1.53444
2052.000	10.42097	-0.69848	9.44272	-1.57940
2053.000	10.41332	-0.66132	9.34458	-1.59554
2054.000	10.35020	-0.70842	9.22520	-1.67653
2055.000	10.22197	-0.69109	9.19438	-1.69433
2056.000	10.03038	-0.72284	9.09224	-1.76744
2057.000	9.91531	-0.69763	8.92639	-1.80555
2058.000	9.70800	-0.74316	8.74107	-1.80253
2059.000	9.50043	-0.77893	8.73141	-1.81436
2060.000	9.28875	-0.76566	8.35441	-1.96952
2061.000	9.08453	-0.80342	8.19953	-1.86605
2062.000	8.94954	-0.79193	8.09879	-1.94521
2063.000	8.80673	-0.85710	8.02514	-1.98689
2064.000	8.68505	-0.84362	7.91268	-1.99727
2065.000	8.60196	-0.85364	7.74969	-1.88582
2066.000	8.58457	-0.90088	7.80986	-1.97611
2067.000	8.59810	-0.88118	7.87000	-2.00338
2068.000	8.65028	-0.84763	7.90298	-1.97173
2069.000	8.71789	-0.87894	7.91656	-1.91459
2070.000	8.74493	-0.87494	8.05034	-1.91593
2071.000	8.87236	-0.89036	8.13754	-1.91945
2072.000	8.96690	-0.91174	8.13948	-1.88600
2073.000	9.09802	-0.89766	8.13560	-1.91159
2074.000	9.13079	-0.93096	8.27505	-1.85979
2075.000	9.25987	-0.89725	8.32925	-1.76908
2076.000	9.29068	-0.98157	8.30215	-1.82033
2077.000	9.37923	-0.90872	8.32925	-1.83790
2078.000	9.36960	-0.96565	8.42987	-1.83939
2079.000	9.38307	-0.90282	8.25375	-1.95232
2080.000	9.38115	-0.95385	8.46662	-1.93750
2081.000	9.33881	-0.93630	8.31763	-1.93431
2082.000	9.27527	-0.94432	8.35247	-1.86729
2083.000	9.26757	-0.87760	8.25762	-1.86381
2084.000	9.20401	-0.85813	8.23632	-1.99764
2085.000	9.21364	-0.90130	8.23051	-1.91114
2086.000	9.15970	-0.84252	8.17047	-1.90946
2087.000	9.17318	-0.88176	8.23438	-1.92489
2088.000	9.11344	-0.85638	8.29441	-1.90296
2089.000	9.15199	-0.87985	8.12979	-1.90178
2090.000	9.14428	-0.86023	8.21115	-1.84829
2091.000	9.06911	-0.82703	8.19565	-1.82082
2092.000	9.12501	-0.85635	8.17047	-1.80717
2093.000	9.10381	-0.83676	8.19759	-1.85032
2094.000	9.06911	-0.89773	8.17628	-1.88976
2095.000	9.09031	-0.88590	8.18790	-1.90938
2096.000	9.08453	-0.88395	8.09297	-1.90786
2097.000	9.07875	-0.87218	8.12204	-1.83296
2098.000	9.06525	-0.85650	8.17822	-1.81697
2099.000	9.04983	-0.85064	8.11041	-1.87630
2100.000	9.07875	-0.86039	8.13173	-1.85259
2101.000	9.05947	-0.84669	8.12591	-1.91164
2102.000	9.01898	-0.83696	8.05615	-1.83916
2103.000	9.03826	-0.82317	8.18597	-2.01166
2104.000	9.01705	-0.87626	8.11041	-1.94712
2105.000	9.00548	-0.81146	8.06003	-1.90015
2106.000	8.98040	-0.80955	8.05615	-1.87065
2107.000	9.01126	-0.81341	8.11235	-1.92154
2108.000	9.03826	-0.83299	8.05034	-1.82345
2109.000	9.06911	-0.81720	8.17435	-1.93895
2110.000	9.01319	-0.86055	8.09104	-1.92558
2111.000	9.03826	-0.81138	8.09297	-2.01016
2112.000	9.07296	-0.80345	8.12398	-2.00607
2113.000	9.07489	-0.82308	8.15110	-1.85644
2114.000	9.06911	-0.79363	8.11041	-1.90974
2115.000	9.07489	-0.83487	8.14916	-1.91153
2116.000	9.07104	-0.83684	8.11235	-1.90974
2117.000	9.06140	-0.81133	8.09685	-1.91374
2118.000	9.10766	-0.82497	8.15885	-1.93312
2119.000	9.09031	-0.85644	8.11235	-1.89203
2120.000	9.05947	-0.85258	8.12204	-1.82903
2121.000	9.04212	-0.84084	8.15304	-1.84266
2122.000	9.05368	-0.85652	8.02514	-1.84914
2123.000	9.06332	-0.84472	8.03677	-1.83532
2124.000	9.06140	-0.81919	8.09879	-1.80749
2125.000	9.08260	-0.87020	8.06972	-1.78991
2126.000	9.06525	-0.82703	8.07166	-1.76235
2127.000	9.07682	-0.86433	8.19372	-1.81296
2128.000	9.09995	-0.83285	8.14529	-1.80334
2129.000	9.08260	-0.82503	8.13754	-1.75616
2130.000	9.09031	-0.81519	8.14141	-1.77385
2131.000	9.06332	-0.80936	8.18597	-1.84644
2132.000	9.08067	-0.77593	8.13754	-1.80928
2133.000	9.05561	-0.80349	8.20340	-1.83849
2134.000	9.04790	-0.81725	8.15110	-1.83086
2135.000	9.06140	-0.80937	8.11623	-1.83496
2136.000	9.06718	-0.83881	8.14141	-1.88009
2137.000	9.05368	-0.85260	8.08328	-1.87446
2138.000	9.03247	-0.80550	8.11623	-1.83299
2139.000	9.03247	-0.83693	8.08135	-1.85676
2140.000	9.01319	-0.79769	8.07359	-1.76825
2141.000	9.04790	-0.80743	8.15304	-1.81511
2142.000	9.06332	-0.82507	8.18403	-1.79924
2143.000	9.05947	-0.82901	8.12204	-1.77394
2144.000	9.08839	-0.84073	8.03871	-1.80579
2145.000	9.04597	-0.87618	8.07553	-1.77217
2146.000	9.07489	-0.83880	8.12785	-1.87425
2147.000	9.06525	-0.80936	8.08716	-1.80951
2148.000	9.04597	-0.86833	8.07359	-1.76234
2149.000	9.07682	-0.77987	8.16079	-1.80721
2150.000	9.06140	-0.82115	8.10072	-1.65006
2151.000	9.04212	-0.82905	8.17628	-1.81501
2152.000	9.04983	-0.80939	8.19565	-1.80902
2153.000	9.04019	-0.83888	8.07747	-1.80365
2154.000	9.06525	-0.83882	8.19565	-1.75590
2155.000	9.05368	-0.77403	8.16853	-1.78750
2156.000	9.03826	-0.80352	8.17822	-1.82287
2157.000	9.08067	-0.83878	8.11041	-1.73463
2158.000	9.06525	-0.77596	8.22664	-1.85608
2159.000	9.08453	-0.81717	8.14916	-1.85841
2160.000	9.04597	-0.85458	8.20921	-1.84043
2161.000	9.06332	-0.85061	8.12204	-1.81722
2162.000	9.08646	-0.80145	8.14916	-1.81907
2163.000	9.08839	-0.80145	8.20534	-1.79914
2164.000	9.08453	-0.83485	8.14141	-1.72663
2165.000	9.08646	-0.83288	8.19759	-1.80704
2166.000	9.04983	-0.85260	8.12398	-1.76409
2167.000	9.07682	-0.81522	8.13173	-1.83095
2168.000	9.06911	-0.84274	8.22277	-1.81086
2169.000	9.04404	-0.86637	8.12591	-1.84475
2170.000	9.04597	-0.86440	8.18403	-1.81497
2171.000	9.04983	-0.84082	8.09879	-1.87045
2172.000	9.04983	-0.83100	8.13754	-1.81125
2173.000	9.04212	-0.82709	8.20921	-1.89747
2174.000	9.11923	-0.80138	8.13560	-1.82306
2175.000	9.04790	-0.84279	8.15691	-1.82100
2176.000	9.02090	-0.82910	8.14141	-1.84861
2177.000	9.06718	-0.82114	8.09297	-1.78193
2178.000	9.04404	-0.81726	8.14335	-1.83680
2179.000	9.03633	-0.82317	8.22470	-1.81479
2180.000	9.05561	-0.85652	8.18984	-1.76380
2181.000	9.04597	-0.82904	8.13754	-1.84470
2182.000	9.04212	-0.83102	8.21115	-1.79715
2183.000	9.05176	-0.90171	8.07359	-1.84105
2184.000	9.04019	-0.85459	8.17047	-1.85438
2185.000	9.04597	-0.84672	8.11235	-1.85858
2186.000	9.04983	-0.83493	8.02514	-1.87276
2187.000	9.03440	-0.88211	8.24407	-1.80486
2188.000	9.07489	-0.87611	8.24019	-1.82652
2189.000	9.03826	-0.86638	8.18209	-1.84056
2190.000	9.05754	-0.84473	8.10848	-1.83893
2191.000	9.02669	-0.89588	8.15885	-1.85837
2192.000	9.04790	-0.88011	8.24794	-1.86975
2193.000	9.03055	-0.88408	8.14529	-1.92925
2194.000	9.01898	-0.85661	8.12591	-1.87032
2195.000	9.05754	-0.88794	8.16079	-1.79541
2196.000	9.05176	-0.82510	8.21696	-1.88367
2197.000	9.04597	-0.82119	8.26149	-1.79692
2198.000	9.07875	-0.85450	8.18209	-1.83465
2199.000	9.09031	-0.81716	8.22083	-1.91905
2200.000	9.06140	-0.78187	8.17822	-1.88188
2201.000	9.07875	-0.83879	8.16272	-1.79146
2202.000	9.06718	-0.84471	8.22083	-1.80694
2203.000	9.07296	-0.82898	8.17435	-1.87993
2204.000	9.08839	-0.85055	8.18016	-1.86417
2205.000	9.04212	-0.82905	8.21696	-1.83253
2206.000	9.05561	-0.85456	8.21502	-1.86597
2207.000	9.04212	-0.80352	8.24213	-1.84814
2208.000	9.05561	-0.83688	8.15110	-1.88791
2209.000	9.03247	-0.80354	8.27698	-1.94041
2210.000	9.02669	-0.81337	8.28279	-1.85582
2211.000	9.02476	-0.86641	8.17628	-1.92123
2212.000	9.02862	-0.86641	8.14529	-1.92728
2213.000	9.02090	-0.81731	8.24407	-1.87370
2214.000	9.04404	-0.82512	8.12979	-1.88014
2215.000	9.05754	-0.81134	8.16079	-1.84459
2216.000	9.08453	-0.80342	8.13754	-1.88404
2217.000	9.06911	-0.84863	8.20534	-1.89946
2218.000	8.99969	-0.84879	8.20340	-1.94864
2219.000	9.07104	-0.88398	8.16466	-1.95079
2220.000	9.08260	-0.84074	8.21889	-1.82268
2221.000	9.03055	-0.87033	8.28085	-1.87353
2222.000	9.06525	-0.86042	8.19565	-1.91917
2223.000	9.05561	-0.84473	8.29053	-1.93051
2224.000	9.06332	-0.86632	8.19953	-1.89948
2225.000	9.02283	-0.86053	8.17241	-1.90748
2226.000	9.00355	-0.89986	8.23245	-1.88753
2227.000	9.04404	-0.87619	8.12591	-1.84672
2228.000	9.04983	-0.83100	8.21115	-1.84632
2229.000	9.04019	-0.85263	8.11623	-1.88217
2230.000	9.00548	-0.87432	8.07941	-1.85086
2231.000	9.04597	-0.86636	8.12785	-1.84474
2232.000	9.03633	-0.86246	8.12204	-1.84280
2233.000	9.01319	-0.85073	8.17435	-1.82289
2234.000	9.04019	-0.83691	8.12204	-1.85657
2235.000	9.00162	-0.84683	8.21696	-1.87580
2236.000	8.99969	-0.81933	8.17822	-1.86221
2237.000	9.00741	-0.85860	8.09879	-1.86258
2238.000	9.04597	-0.83101	8.22470	-1.86986
2239.000	9.05561	-0.86045	8.24407	-1.95040
2240.000	9.03440	-0.81335	8.12785	-1.84474
2241.000	9.01126	-0.85466	8.16079	-1.83475
2242.000	9.02090	-0.85660	8.19759	-1.81688
2243.000	9.06718	-0.88595	8.17628	-1.82484
2244.000	9.05176	-0.87224	8.23826	-1.87963
2245.000	9.04212	-0.87423	8.16079	-1.87410
2246.000	9.02669	-0.88212	8.13754	-1.92339
2247.000	9.07104	-0.85845	8.13754	-1.92535
2248.000	9.04597	-0.89779	8.17822	-1.79139
2249.000	9.02283	-0.88999	8.15110	-1.82889
2250.000	9.00162	-0.89987	8.18403	-1.83858
2251.000	9.01705	-0.89001	8.18209	-1.81498
2252.000	9.01319	-0.89787	8.09879	-1.76617
2253.000	9.01512	-0.90965	8.17241	-1.86224
2254.000	9.03055	-0.88801	8.17241	-1.86224
2255.000	9.05176	-0.86635	8.12785	-1.76014
2256.000	9.03633	-0.88407	8.14916	-1.85645
2257.000	9.05754	-0.85455	8.15885	-1.81509
2258.000	9.07296	-0.90362	8.20534	-1.82668
2259.000	9.06718	-0.89774	8.12979	-1.84867
2260.000	9.07296	-0.85255	8.18984	-1.90347
2261.000	9.04983	-0.82707	8.13173	-1.85259
2262.000	9.02669	-0.87820	8.13948	-1.82501
2263.000	9.05561	-0.88598	8.19372	-1.87394
2264.000	9.04019	-0.90763	8.18984	-1.83068
2265.000	9.01898	-0.89589	8.14723	-1.84859
2266.000	9.03633	-0.87621	8.18016	-1.83073
2267.000	9.03633	-0.92728	8.15497	-1.83478
2268.000	9.00355	-0.92147	8.19953	-1.90735
2269.000	9.04790	-0.91350	8.24019	-1.78718
2270.000	9.02476	-0.91749	8.12204	-1.86247
2271.000	9.04597	-0.94690	8.18597	-1.86611
2272.000	9.01705	-0.90179	8.21115	-1.86599
2273.000	9.01898	-0.95482	8.24600	-1.86583
2274.000	9.04790	-0.95868	8.13173	-1.88407
2275.000	8.99776	-0.93524	8.14916	-1.90366
2276.000	9.02090	-0.87821	8.20534	-1.92306
2277.000	9.05947	-0.90561	8.19372	-1.83460
2278.000	9.06525	-0.91738	8.22664	-1.92099
2279.000	9.04019	-0.92923	8.12785	-1.86048
2280.000	9.03633	-0.89192	8.17628	-1.92320
2281.000	9.03826	-0.88995	8.20340	-1.86603
2282.000	9.04019	-0.90959	8.17047	-1.89962
2283.000	9.03055	-0.90372	8.17628	-1.86025
2284.000	9.06911	-0.88595	8.26343	-1.88738
2285.000	9.07104	-0.83881	8.22664	-1.81281
2286.000	9.05368	-0.85063	8.26149	-1.85985
2287.000	9.05561	-0.87813	8.14916	-1.84464
2288.000	8.99198	-0.90382	8.16079	-1.87213
2289.000	8.85692	-0.85109	8.06972	-1.84107
2290.000	8.68699	-0.89080	7.98637	-1.88475
2291.000	8.57297	-0.87141	7.87776	-1.86949
2292.000	8.25762	-0.82291	7.66233	-1.83894
2293.000	7.85254	-0.75082	7.30084	-1.87200
2294.000	7.34168	-0.66886	6.95825	-1.87932
2295.000	6.87642	-0.62412	6.58589	-1.98540
2296.000	6.28526	-0.47656	6.03121	-1.86697
2297.000	5.55178	-0.37819	5.48322	-1.75798
2298.000	4.84787	-0.23193	4.99898	-1.60687
2299.000	4.24278	-0.02778	4.28800	-1.42611
2300.000	3.46738	0.07149	3.80408	-1.40514
2301.000	2.88399	0.22651	3.16591	-1.17181
2302.000	2.34934	0.39556	2.60981	-0.96975
2303.000	1.77676	0.51898	2.04928	-0.66998
2304.000	1.18801	0.58077	1.52589	-0.57870
2305.000	0.69587	0.75589	1.09315	-0.38985
2306.000	0.26689	0.81362	0.58517	-0.32227
2307.000	-0.10280	0.80766	0.18979	-0.16313
2308.000	-0.44284	0.93095	-0.20165	-0.21287
2309.000	-0.70971	0.91300	-0.56343	-0.18302
2310.000	-1.05955	0.87315	-0.91132	-0.14123
2311.000	-1.22951	0.91286	-1.20777	-0.25658
2312.000	-1.41525	0.80741	-1.44488	-0.14120
2313.000	-1.67404	0.71983	-1.70170	-0.29430
2314.000	-1.79256	0.73370	-1.92883	-0.30819
2315.000	-2.06902	0.61232	-2.18550	-0.37970
2316.000	-2.34342	0.59432	-2.54273	-0.45512
2317.000	-2.51313	0.62803	-2.75974	-0.50074
2318.000	-2.88201	0.60599	-3.06538	-0.62774
2319.000	-3.14226	0.50454	-3.42601	-0.57390
2320.000	-3.38070	0.53223	-3.69385	-0.54793
2321.000	-3.62296	0.53606	-3.95365	-0.58150
2322.000	-3.87494	0.57758	-4.24475	-0.57930
2323.000	-4.13660	0.57938	-4.54349	-0.63856
2324.000	-4.32929	0.60304	-4.78309	-0.49958
2325.000	-4.54742	0.62864	-4.96955	-0.45782
2326.000	-4.60439	0.73368	-5.18728	-0.33087
2327.000	-4.63778	0.87242	-5.19708	-0.26549
2328.000	-4.65153	0.91205	-5.28530	-0.12678
2329.000	-4.56314	1.01129	-5.26570	-0.00991
2330.000	-4.40987	1.18996	-5.22257	0.16047
2331.000	-4.33518	1.34671	-5.08333	0.35272
2332.000	-4.23099	1.41828	-4.86946	0.46780
2333.000	-4.07562	1.54548	-4.74579	0.57692
2334.000	-3.92610	1.59931	-4.56706	0.68613
2335.000	-3.89265	1.63309	-4.48651	0.61481
2336.000	-3.81196	1.63324	-4.33715	0.66254
2337.000	-3.82574	1.64512	-4.17199	0.61705
2338.000	-3.77850	1.59958	-4.18969	0.53966
2339.000	-3.86116	1.49827	-4.14643	0.45636
2340.000	-3.85919	1.46059	-4.12480	0.29566
2341.000	-3.99300	1.37904	-4.10513	0.23217
2342.000	-3.98316	1.35723	-4.14446	0.15279
2343.000	-4.13463	1.25583	-4.21722	-0.01190
2344.000	-4.19559	1.17244	-4.27817	-0.10118
2345.000	-4.27228	1.18422	-4.36860	-0.09720
2346.000	-4.39415	1.05912	-4.48651	-0.14875
2347.000	-4.46097	1.04911	-4.61814	-0.16657
2348.000	-4.45704	1.04911	-4.70848	-0.20224
2349.000	-4.50813	1.03913	-4.88320	-0.17443
2350.000	-4.53367	1.14020	-4.95385	-0.11694
2351.000	-4.61028	1.13016	-4.97347	-0.05351
2352.000	-4.59260	1.11037	-4.94600	-0.05153
2353.000	-4.56314	1.17980	-5.08529	0.05350
2354.000	-4.64760	1.17173	-5.12452	0.07530
2355.000	-4.61028	1.22134	-5.12452	0.15852
2356.000	-4.56903	1.24322	-5.17747	0.22389
2357.000	-4.60242	1.26298	-5.26570	0.26546
2358.000	-4.64563	1.25696	-5.19512	0.22190
2359.000	-4.57689	1.25510	-5.15394	0.22191
2360.000	-4.62796	1.28870	-5.19316	0.18228
2361.000	-4.63778	1.24508	-5.17747	0.20408
2362.000	-4.63189	1.23518	-5.22257	0.20208
2363.000	-4.58671	1.24517	-5.09118	0.14664
2364.000	-4.60635	1.24910	-5.10687	0.17239
2365.000	-4.55724	1.25513	-5.10883	0.12087
2366.000	-4.49830	1.23145	-5.09118	0.15655
2367.000	-4.51009	1.24530	-5.14217	0.19022
2368.000	-4.51795	1.28890	-4.97347	0.18630
2369.000	-4.47472	1.29889	-5.03625	0.15854
2370.000	-4.45704	1.29099	-5.01075	0.17836
2371.000	-4.51795	1.27700	-4.90871	0.18434
2372.000	-4.46293	1.28107	-4.99309	0.15657
2373.000	-4.44721	1.29299	-4.90479	0.20218
2374.000	-4.40791	1.30495	-4.96366	0.09315
2375.000	-4.43739	1.26922	-4.90283	0.12686
2376.000	-4.44132	1.31877	-4.88124	0.11100
2377.000	-4.34501	1.30308	-4.93815	0.21802
2378.000	-4.42363	1.28510	-4.92834	0.11100
2379.000	-4.41577	1.28115	-4.90086	0.18632
2380.000	-4.40594	1.24548	-4.91264	0.11496
2381.000	-4.37056	1.32683	-4.85376	0.11497
2382.000	-4.35091	1.25548	-4.86554	0.12686
2383.000	-4.38039	1.29310	-4.90871	0.11893
2384.000	-4.29980	1.25557	-4.86750	0.04163
2385.000	-4.36860	1.33872	-4.84787	0.14867
2386.000	-4.33911	1.30111	-4.91460	0.14271
2387.000	-4.32339	1.26148	-4.89105	0.05550
2388.000	-4.30570	1.34677	-4.91264	0.15857
2389.000	-4.37253	1.30501	-4.83609	0.16255
2390.000	-4.38432	1.30499	-4.94011	0.09514
2391.000	-4.35091	1.30505	-4.93619	0.13082
2392.000	-4.37056	1.27131	-4.89694	0.18434
2393.000	-4.31946	1.28131	-4.95385	0.09514
2394.000	-4.32339	1.24363	-4.98524	0.14864
2395.000	-4.33518	1.28525	-4.92245	0.13478
2396.000	-4.38629	1.24353	-4.88320	0.12290
2397.000	-4.36663	1.26934	-4.97151	0.16847
2398.000	-4.31356	1.28529	-4.92834	0.14271
2399.000	-4.38825	1.32679	-4.98917	0.08324
2400.000	-4.34501	1.24954	-4.89105	0.09515
2401.000	-4.35091	1.25945	-4.99309	0.11297
2402.000	-4.42953	1.22561	-5.00094	0.12288
2403.000	-4.42559	1.25139	-4.99505	0.17639
2404.000	-4.36860	1.25545	-4.98328	0.14072
2405.000	-4.38039	1.28914	-4.97151	0.12486
2406.000	-4.36074	1.22573	-4.93030	0.20613
2407.000	-4.33322	1.32094	-4.96366	0.22198
2408.000	-4.33125	1.25948	-4.96759	0.22000
2409.000	-4.39022	1.26335	-4.90283	0.14272
2410.000	-4.37056	1.30898	-4.96562	0.24774
2411.000	-4.32535	1.31303	-4.91068	0.23389
2412.000	-4.37056	1.26338	-5.01860	0.18233
2413.000	-4.42953	1.27121	-4.97347	0.20018
2414.000	-4.33125	1.30112	-4.95581	0.21604
2415.000	-4.40201	1.25342	-4.95777	0.13478
2416.000	-4.33322	1.32491	-4.98721	0.22197
2417.000	-4.35287	1.28126	-4.95385	0.13478
2418.000	-4.35287	1.31496	-4.87731	0.20813
2419.000	-4.44132	1.23551	-4.92049	0.17839
2420.000	-4.36467	1.28917	-4.95189	0.15856
2421.000	-4.40005	1.25144	-4.95385	0.15658
2422.000	-4.35287	1.30307	-4.95581	0.18631
2423.000	-4.33322	1.26344	-4.96955	0.21405
2424.000	-4.37056	1.25149	-4.98917	0.23386
2425.000	-4.38236	1.27129	-5.00094	0.15260
2426.000	-4.31159	1.28331	-4.97740	0.25369
2427.000	-4.38629	1.29706	-4.88124	0.18831
2428.000	-4.36074	1.25943	-4.90675	0.18434
2429.000	-4.34108	1.24757	-4.93815	0.16451
2430.000	-4.38039	1.26336	-4.97151	0.17045
2431.000	-4.36663	1.30304	-4.87928	0.15065
2432.000	-4.37450	1.27725	-4.92441	0.14469
2433.000	-4.36074	1.29116	-4.99309	0.14468
2434.000	-4.36663	1.26537	-5.03233	0.14467
2435.000	-4.37843	1.22570	-4.96366	0.16252
2436.000	-4.35484	1.29910	-4.97740	0.07333
2437.000	-4.37253	1.25148	-4.99898	0.18828
2438.000	-4.36663	1.25347	-4.92638	0.16055
2439.000	-4.36860	1.27726	-4.97543	0.17441
2440.000	-4.35877	1.25349	-4.96366	0.14865
2441.000	-4.28604	1.25162	-4.93030	0.05748
2442.000	-4.35287	1.30505	-4.98917	0.09315
2443.000	-4.36270	1.29115	-4.97347	0.08126
2444.000	-4.36663	1.25546	-4.97151	0.08522
2445.000	-4.37843	1.20587	-4.98328	0.08919
2446.000	-4.36467	1.24951	-4.94404	-0.00198
2447.000	-4.35091	1.29514	-5.00290	0.15260
2448.000	-4.35877	1.31693	-4.93226	0.07730
2449.000	-4.35287	1.28126	-4.95777	0.10108
2450.000	-4.36074	1.27728	-4.97543	0.13675
2451.000	-4.35484	1.29117	-5.01860	0.05549
2452.000	-4.36270	1.28322	-4.90283	0.14866
2453.000	-4.39415	1.29903	-4.91068	0.10704
2454.000	-4.34698	1.21583	-4.93423	0.12091
2455.000	-4.39808	1.29902	-4.94404	0.08523
2456.000	-4.38432	1.27129	-5.02252	0.03369
2457.000	-4.33911	1.27930	-4.93423	0.09910
2458.000	-4.35681	1.26737	-4.95189	0.09712
2459.000	-4.34894	1.22178	-5.01860	0.07531
2460.000	-4.39415	1.26334	-4.97936	0.18630
2461.000	-4.37056	1.26536	-5.03233	0.08125
2462.000	-4.38236	1.28517	-4.99113	0.08522
2463.000	-4.37450	1.26734	-5.04802	0.19817
2464.000	-4.35877	1.32090	-5.03822	0.18034
2465.000	-4.35484	1.32487	-5.06764	0.23185
2466.000	-4.36663	1.32088	-4.94796	0.10703
2467.000	-4.36270	1.23960	-5.09118	0.12682
2468.000	-4.38039	1.30103	-4.98721	0.16252
2469.000	-4.34305	1.26144	-4.98132	0.10306
2470.000	-4.34894	1.32290	-5.02056	0.21602
2471.000	-4.36663	1.25942	-5.00094	0.16648
2472.000	-4.36663	1.29709	-5.01467	0.13873
2473.000	-4.39218	1.26334	-5.03429	0.15656
2474.000	-4.35287	1.29712	-4.95777	0.12090
2475.000	-4.37843	1.20389	-4.97151	0.14865
2476.000	-4.39218	1.22369	-5.04802	0.19817
2477.000	-4.34108	1.22377	-5.08529	0.06539
2478.000	-4.36074	1.22969	-4.99309	0.14270
2479.000	-4.39218	1.23559	-4.98917	0.06342
2480.000	-4.40791	1.22763	-5.03822	0.15656
2481.000	-4.34108	1.28326	-4.99898	0.14071
2482.000	-4.35287	1.28522	-4.95581	0.21405
2483.000	-4.32339	1.25553	-5.11472	0.15059
2484.000	-4.41970	1.23158	-4.96955	0.05946
2485.000	-4.36270	1.25546	-4.94796	0.17640
2486.000	-4.30373	1.27936	-4.96170	0.18234
2487.000	-4.34894	1.26540	-4.96562	0.11694
2488.000	-4.32732	1.29518	-5.03429	0.17439
2489.000	-4.37056	1.26536	-4.95777	0.16847
2490.000	-4.35287	1.31893	-4.98917	0.21206
2491.000	-4.35091	1.27135	-4.88320	0.22597
2492.000	-4.39415	1.25938	-4.99702	0.09315
2493.000	-4.44132	1.26128	-4.92834	0.14667
2494.000	-4.31553	1.24563	-4.95385	0.14072
2495.000	-4.35287	1.25151	-5.01467	0.18431
2496.000	-4.33911	1.23964	-4.86946	0.10902
2497.000	-4.35484	1.23961	-4.95385	0.15658
2498.000	-4.41773	1.23158	-5.00683	0.14071
2499.000	-4.37253	1.25743	-4.97151	0.14072
2500.000	-4.36663	1.19399	-4.98132	0.15261
2501.000	-4.40594	1.18005	-4.94208	0.11496
2502.000	-4.35091	1.23962	-5.00094	0.24179
2503.000	-4.35681	1.27530	-4.94011	0.11099
2504.000	-4.34698	1.27333	-4.96366	0.21405
2505.000	-4.35877	1.21185	-5.00290	0.17440
2506.000	-4.35484	1.21979	-4.96170	0.16252
2507.000	-4.37253	1.23760	-4.96955	0.21207
2508.000	-4.33715	1.24559	-4.98132	0.12684
2509.000	-4.33322	1.23172	-5.01075	0.27547
2510.000	-4.41773	1.25735	-4.96366	0.21603
2511.000	-4.40005	1.23954	-4.94011	0.16649
2512.000	-4.35484	1.22772	-4.89301	0.17047
2513.000	-4.37253	1.23959	-4.92638	0.16451
2514.000	-4.38629	1.27129	-5.01467	0.21007
2515.000	-4.34108	1.20990	-4.96562	0.24774
2516.000	-4.34305	1.23765	-4.98524	0.20215
2517.000	-4.30766	1.22185	-4.97740	0.19621
2518.000	-4.26441	1.27744	-4.99309	0.22990
2519.000	-4.37253	1.27131	-4.88516	0.12488
2520.000	-4.36467	1.22770	-4.91068	0.13875
2521.000	-4.32535	1.25553	-4.96366	0.14865
2522.000	-4.37450	1.25544	-4.98721	0.16053
2523.000	-4.35091	1.19997	-4.93619	0.10901
2524.000	-4.35681	1.20590	-4.91656	0.19623
2525.000	-4.34501	1.20394	-4.94404	0.13081
2526.000	-4.36074	1.26538	-4.95777	0.13279
2527.000	-4.34305	1.20989	-5.02841	0.18034
2528.000	-4.34698	1.21583	-4.97151	0.15459
2529.000	-4.38236	1.26336	-4.90086	0.11695
2530.000	-4.35877	1.21978	-5.09510	0.11691
2531.000	-4.33715	1.26740	-5.04214	0.15458
2532.000	-4.31356	1.30115	-5.04802	0.17835
2533.000	-4.34501	1.24360	-5.06568	0.18033
2534.000	-4.33715	1.26145	-5.01467	0.11296
2535.000	-4.32339	1.25156	-4.98524	0.20414
2536.000	-4.36270	1.26934	-4.98132	0.17441
2537.000	-4.35877	1.27133	-5.01664	0.18431
2538.000	-4.33322	1.22775	-5.04606	0.17439
2539.000	-4.36860	1.27528	-4.98132	0.18035
2540.000	-4.32535	1.24561	-5.00683	0.18629
2541.000	-4.34501	1.21782	-4.91264	0.14866
2542.000	-4.35484	1.23763	-4.88124	0.12686
2543.000	-4.36270	1.25150	-4.98132	0.10901
2544.000	-4.34305	1.21386	-4.92834	0.13875
2545.000	-4.37253	1.24157	-4.93619	0.08523
2546.000	-4.33322	1.24956	-4.94404	0.18433
2547.000	-4.31946	1.27338	-4.90086	0.12884
2548.000	-4.32535	1.27535	-4.99113	0.19621
2549.000	-4.36270	1.23564	-4.99898	0.16251
2550.000	-4.32929	1.30112	-4.98721	0.21008
2551.000	-4.34894	1.26342	-5.02645	0.09711
2552.000	-4.31356	1.25753	-4.99702	0.07135
2553.000	-4.35484	1.20987	-5.09118	0.09313
2554.000	-4.35091	1.22971	-4.99898	0.17639
2555.000	-4.34108	1.28921	-5.01860	0.15854
2556.000	-4.37646	1.23958	-4.96955	0.19225
2557.000	-4.33322	1.22974	-5.03233	0.15260
2558.000	-4.40005	1.23756	-5.07353	0.15457
2559.000	-4.35681	1.23366	-4.99113	0.12486
2560.000	-4.39022	1.25343	-5.07353	0.07927
2561.000	-4.35287	1.27134	-5.13629	0.21994
2562.000	-4.38629	1.23361	-4.94404	0.12685
2563.000	-4.35681	1.24754	-5.01664	0.17044
2564.000	-4.35091	1.23566	-5.04214	0.18232
2565.000	-4.31159	1.21193	-5.00094	0.21404
2566.000	-4.35091	1.28721	-4.98721	0.09315
2567.000	-4.37646	1.24553	-4.97936	0.13081
2568.000	-4.34108	1.27533	-5.02841	0.18827
2569.000	-4.29194	1.29127	-4.98524	0.19423
2570.000	-4.36663	1.21977	-5.03625	0.13872
2571.000	-4.34698	1.25549	-4.96366	0.22198
2572.000	-4.32535	1.22777	-4.99898	0.18035
2573.000	-4.40398	1.24548	-5.03429	0.15061
2574.000	-4.36270	1.21383	-5.06176	0.22789
2575.000	-4.39022	1.23163	-5.04018	0.16845
2576.000	-4.33911	1.17024	-5.03822	0.20016
2577.000	-4.40791	1.19987	-4.98328	0.25170
2578.000	-4.36467	1.23960	-4.99898	0.25962
2579.000	-4.36467	1.28322	-5.01271	0.21404
2580.000	-4.36270	1.27926	-5.01860	0.20611
2581.000	-4.39612	1.21774	-5.02645	0.21205
2582.000	-4.31159	1.27339	-4.98524	0.19026
2583.000	-4.32929	1.23173	-5.01271	0.20809
2584.000	-4.38432	1.25741	-5.01271	0.21998
2585.000	-4.35287	1.19996	-5.01075	0.19224
2586.000	-4.39415	1.23558	-4.99702	0.23584
2587.000	-4.40398	1.26332	-4.99702	0.27350
2588.000	-4.34305	1.22575	-5.02448	0.22790
2589.000	-4.36270	1.25745	-5.00683	0.21602
2590.000	-4.38432	1.24155	-5.08922	0.18627
2591.000	-4.38039	1.23561	-4.98917	0.20215
2592.000	-4.41970	1.21572	-4.99309	0.20413
2593.000	-4.32732	1.27733	-5.00094	0.19819
2594.000	-4.37253	1.21579	-5.00486	0.28935
2595.000	-4.33715	1.25154	-4.99113	0.21801
2596.000	-4.34108	1.24757	-4.98721	0.24179
2597.000	-4.32732	1.24561	-4.97936	0.19423
2598.000	-4.34108	1.21783	-4.96562	0.20018
2599.000	-4.39612	1.22567	-5.03233	0.20610
2600.000	-4.32142	1.19803	-4.93815	0.24379
2601.000	-4.39415	1.21972	-5.00290	0.19620
2602.000	-4.32535	1.23768	-4.97936	0.21405
2603.000	-4.38432	1.22965	-4.97151	0.24576
2604.000	-4.30176	1.22979	-5.03822	0.18827
2605.000	-4.35091	1.21781	-5.00290	0.27349
2606.000	-4.34698	1.20989	-5.09314	0.22590
2607.000	-4.41380	1.24546	-4.94993	0.20018
2608.000	-4.34501	1.25549	-5.09118	0.29327
2609.000	-4.36663	1.18606	-4.99505	0.23981
2610.000	-4.34698	1.23170	-4.99898	0.18630
2611.000	-4.34698	1.25946	-5.00879	0.21007
2612.000	-4.37450	1.23958	-4.98132	0.23585
2613.000	-4.35484	1.27729	-4.96170	0.24775
2614.000	-4.35091	1.23764	-5.02056	0.18034
2615.000	-4.37646	1.23363	-4.94404	0.20811
2616.000	-4.39022	1.27921	-4.93226	0.24578
2617.000	-4.35681	1.28323	-5.01664	0.25763
2618.000	-4.36074	1.25745	-4.97936	0.20216
2619.000	-4.32339	1.26941	-5.04410	0.21006
2620.000	-4.37253	1.29907	-4.96562	0.24378
2621.000	-4.28800	1.30318	-5.06176	0.28536
2622.000	-4.29390	1.31705	-5.04410	0.26951
2623.000	-4.36663	1.27528	-4.99113	0.31115
2624.000	-4.31553	1.27140	-5.04214	0.26357
2625.000	-4.27424	1.29130	-4.94796	0.27550
2626.000	-4.29194	1.25756	-4.96562	0.18829
2627.000	-4.34698	1.29118	-4.94011	0.23784
2628.000	-4.26834	1.32106	-4.96955	0.19027
2629.000	-4.29980	1.24169	-4.98132	0.20414
2630.000	-4.29980	1.29126	-4.91853	0.20614
2631.000	-4.37253	1.27726	-5.01860	0.19620
2632.000	-4.29587	1.25359	-4.97543	0.19423
2633.000	-4.34108	1.28921	-4.96759	0.26558
2634.000	-4.30373	1.30910	-5.00290	0.21800
2635.000	-4.34698	1.24954	-4.97936	0.26756
2636.000	-4.29980	1.21194	-5.00486	0.31907
2637.000	-4.31749	1.27735	-5.02252	0.20809
2638.000	-4.33518	1.25353	-5.03429	0.30123
2639.000	-4.28604	1.32103	-4.96955	0.25567
2640.000	-4.30373	1.24763	-5.04606	0.26555
2641.000	-4.31553	1.27339	-5.00486	0.25764
2642.000	-4.32929	1.30112	-4.94011	0.22199
2643.000	-4.36074	1.27331	-4.99505	0.31313
2644.000	-4.32732	1.26940	-4.97740	0.21008
2645.000	-4.35681	1.27530	-4.95581	0.24973
2646.000	-4.41380	1.25340	-4.98917	0.21801
2647.000	-4.43739	1.27318	-5.04606	0.30122
2648.000	-4.50420	1.19377	-5.21080	0.15057
2649.000	-4.55724	1.21549	-5.14021	0.24173
2650.000	-4.67117	1.18953	-5.25394	0.14462
2651.000	-4.75168	1.12003	-5.38134	0.11884
2652.000	-4.82824	1.13575	-5.40485	0.13270
2653.000	-4.91656	1.09201	-5.46363	0.07129
2654.000	-5.00290	1.03045	-5.54394	0.11485
2655.000	-5.04606	1.00067	-5.52631	0.07327
2656.000	-4.99113	1.01859	-5.62032	0.07722
2657.000	-5.01075	0.92345	-5.52631	0.02970
2658.000	-4.95385	0.94335	-5.56157	0.02376
2659.000	-4.93619	0.90573	-5.49302	-0.04753
2660.000	-4.91656	0.87206	-5.45971	-0.02376
2661.000	-4.84591	0.87414	-5.38918	-0.05150
2662.000	-4.78898	0.86430	-5.35390	-0.08913
2663.000	-4.73597	0.87626	-5.30294	-0.05745
2664.000	-4.66527	0.88230	-5.24413	-0.04953
2665.000	-4.62796	0.83278	-5.21865	-0.11887
2666.000	-4.61814	0.88037	-5.08333	-0.02774
2667.000	-4.57492	0.87448	-5.07941	-0.00198
2668.000	-4.52188	0.98359	-5.14413	0.08718
2669.000	-4.52777	0.92410	-5.14806	0.04954
2670.000	-4.57492	0.94783	-5.15786	0.10699
2671.000	-4.56117	0.98354	-5.10099	0.06737
2672.000	-4.54545	0.99744	-5.13825	0.04161
2673.000	-4.57099	1.00930	-5.16767	0.04359
2674.000	-4.63974	1.02308	-5.23041	0.03566
2675.000	-4.57689	1.07075	-5.17943	0.06935
2676.000	-4.64760	1.02703	-5.25982	0.05151
2677.000	-4.65349	1.02900	-5.30490	0.07329
2678.000	-4.65545	1.06864	-5.25786	0.03368
2679.000	-4.65153	1.00522	-5.28138	0.08716
2680.000	-4.72811	0.97934	-5.26962	0.03566
2681.000	-4.65349	0.99927	-5.27746	0.10103
2682.000	-4.67509	1.00915	-5.34606	0.06933
2683.000	-4.67509	1.04086	-5.31666	0.09706
2684.000	-4.71830	1.00909	-5.33430	0.07131
2685.000	-4.66527	1.01511	-5.28726	0.05547
2686.000	-4.68295	0.99526	-5.35194	0.04754
2687.000	-4.71633	1.00116	-5.25590	0.13669
2688.000	-4.74579	0.98130	-5.27942	0.10499
2689.000	-4.72419	1.00908	-5.28138	0.11292
2690.000	-4.73597	1.03879	-5.27746	0.10499
2691.000	-4.69670	1.04876	-5.23433	0.07528
2692.000	-4.74186	1.00311	-5.27354	0.05349
2693.000	-4.74971	0.94958	-5.29510	0.07330
2694.000	-4.64760	1.03099	-5.26766	0.06537
2695.000	-4.67902	0.98338	-5.34998	0.08121
2696.000	-4.71830	1.01702	-5.23433	0.09906
2697.000	-4.70062	1.01506	-5.36958	0.08913
2698.000	-4.71044	0.96351	-5.27158	0.12084
2699.000	-4.70062	1.02101	-5.29902	0.16838
2700.000	-4.73400	1.01105	-5.27354	0.09509
2701.000	-4.70848	1.01703	-5.30490	0.12084
2702.000	-4.70848	1.00117	-5.34214	0.06140
2703.000	-4.67313	1.04681	-5.33822	0.01188
2704.000	-4.71044	1.08243	-5.32450	0.12281
2705.000	-4.72419	1.06259	-5.35390	0.05546
2706.000	-4.66527	1.13008	-5.25786	0.06339
2707.000	-4.68295	1.14590	-5.32646	0.09508
2708.000	-4.67902	1.15384	-5.31470	0.13470
2709.000	-4.68688	1.13202	-5.29902	0.02179
2710.000	-4.65153	1.11226	-5.27942	0.06339
2711.000	-4.62992	1.16977	-5.24217	0.03368
2712.000	-4.66331	1.16576	-5.25982	0.10103
2713.000	-4.66724	1.15187	-5.30490	0.09706
2714.000	-4.63974	1.12813	-5.21473	0.13670
2715.000	-4.70062	1.11614	-5.23433	0.05349
2716.000	-4.59260	1.13416	-5.31470	0.04358
2717.000	-4.64956	1.02306	-5.26178	0.08519
2718.000	-4.66527	0.97348	-5.39897	0.01783
2719.000	-4.62992	0.98939	-5.37546	-0.04358
2720.000	-4.66135	0.88230	-5.25394	0.01189
2721.000	-4.65349	0.94376	-5.36370	0.00990
2722.000	-4.70259	0.82873	-5.34606	-0.02971
2723.000	-4.67509	0.85850	-5.31666	0.03367
2724.000	-4.66527	0.86049	-5.32842	0.00990
2725.000	-4.67117	0.84661	-5.33822	-0.01585
2726.000	-4.66724	0.89815	-5.29902	0.03962
2727.000	-4.64760	0.91205	-5.31470	0.00594
2728.000	-4.68884	0.93381	-5.28726	0.05349
2729.000	-4.67313	0.94969	-5.29902	-0.02179
2730.000	-4.63778	1.01713	-5.34214	0.06140
2731.000	-4.62010	1.06275	-5.30882	0.03169
2732.000	-4.62599	1.05283	-5.28922	0.11886
2733.000	-4.64563	1.05082	-5.32450	0.05150
2734.000	-4.66527	1.04881	-5.24217	0.06141
2735.000	-4.64956	1.06469	-5.30686	0.05547
2736.000	-4.61617	1.05879	-5.31862	-0.01189
2737.000	-4.65349	1.07459	-5.28726	0.04556
2738.000	-4.65545	1.09045	-5.27354	0.03962
2739.000	-4.69670	1.04678	-5.29314	0.00990
2740.000	-4.66331	0.99727	-5.25982	0.14065
2741.000	-4.64563	1.05478	-5.34214	0.07923
2742.000	-4.63385	1.04291	-5.32058	0.01387
2743.000	-4.67902	1.03888	-5.38526	0.11092
2744.000	-4.66527	1.00520	-5.29706	0.01585
2745.000	-4.64956	1.08253	-5.26962	0.11292
2746.000	-4.68884	1.03292	-5.22453	0.04359
2747.000	-4.68884	1.01508	-5.37350	0.08913
2748.000	-4.60832	1.02709	-5.35390	0.05348
2749.000	-4.65545	1.08054	-5.31470	0.02575
2750.000	-4.65938	1.05080	-5.34214	0.06339
2751.000	-4.72615	1.07250	-5.33430	0.00396
2752.000	-4.72222	0.96944	-5.27942	0.05943
2753.000	-4.65742	1.02305	-5.38526	0.02971
2754.000	-4.66331	1.09242	-5.31274	0.03962
2755.000	-4.68688	1.02697	-5.35586	0.04952
2756.000	-4.64367	1.03100	-5.31666	0.03566
2757.000	-4.69670	1.03687	-5.33626	-0.00594
2758.000	-4.64563	1.04091	-5.34410	0.03367
2759.000	-4.65349	0.99134	-5.28334	0.01585
2760.000	-4.67117	1.05673	-5.33822	0.01585
2761.000	-4.66920	1.00519	-5.29314	-0.03764
2762.000	-4.66527	1.03493	-5.40877	0.11883
2763.000	-4.69866	0.99722	-5.26962	0.07330
2764.000	-4.69277	1.02498	-5.36370	0.05348
2765.000	-4.70651	0.98928	-5.30882	0.08716
2766.000	-4.68295	1.00319	-5.27354	0.09707
2767.000	-4.65153	1.04288	-5.25590	0.05943
2768.000	-4.68295	1.00121	-5.26374	0.03764
2769.000	-4.65545	1.04089	-5.31274	0.07725
2770.000	-4.73400	1.03285	-5.24217	0.07528
2771.000	-4.68884	1.04283	-5.28334	0.07330
2772.000	-4.67509	0.98735	-5.27746	0.00396
2773.000	-4.64956	1.02901	-5.33038	0.03764
2774.000	-4.65545	0.99927	-5.25394	0.13669
2775.000	-4.65938	1.04287	-5.33234	-0.00396
2776.000	-4.65349	1.04486	-5.33626	0.06735
2777.000	-4.66135	1.01115	-5.27746	0.09509
2778.000	-4.70259	1.04875	-5.34998	0.10894
2779.000	-4.70259	1.01307	-5.34998	0.07131
2780.000	-4.62403	1.01913	-5.33038	0.11291
2781.000	-4.62796	1.04490	-5.25786	0.08717
2782.000	-4.69670	1.02498	-5.30098	-0.03764
2783.000	-4.63385	1.03300	-5.36762	0.10300
2784.000	-4.66135	1.04881	-5.27942	0.14461
2785.000	-4.68688	0.97742	-5.24806	0.12481
2786.000	-4.63778	1.01317	-5.32058	0.11489
2787.000	-4.61028	1.04691	-5.28138	0.09509
2788.000	-4.67117	0.99528	-5.30490	0.12480
2789.000	-4.67117	1.05673	-5.32058	0.11885
2790.000	-4.64760	1.04685	-5.29314	0.12282
2791.000	-4.64760	1.04289	-5.33430	0.12281
2792.000	-4.65742	0.98142	-5.28922	0.10103
2793.000	-4.59849	1.07468	-5.30098	0.05349
2794.000	-4.57689	1.06480	-5.38330	0.05744
2795.000	-4.63189	1.08652	-5.34802	0.08913
2796.000	-4.59064	1.03108	-5.29510	0.13867
2797.000	-4.61814	1.08059	-5.36762	0.13667
2798.000	-4.62796	1.09247	-5.34410	0.05150
2799.000	-4.62207	1.07861	-5.36370	0.08517
2800.000	-4.64171	1.04290	-5.32058	0.06933
2801.000	-4.58278	1.10444	-5.26766	0.07330
2802.000	-4.55528	1.09258	-5.25590	0.05151
2803.000	-4.39218	1.02343	-5.23629	0.00198
2804.000	-4.25458	1.00378	-5.07745	-0.01783
2805.000	-4.20739	0.90070	-5.02645	-0.07531
2806.000	-3.98906	0.87118	-4.78702	-0.01586
2807.000	-3.79621	0.81382	-4.50616	-0.10511
2808.000	-3.54025	0.81009	-4.30766	-0.20235
2809.000	-3.31174	0.71298	-3.97136	-0.23220
2810.000	-3.03778	0.61385	-3.75094	-0.24020
2811.000	-2.80116	0.56033	-3.36691	-0.28400
2812.000	-2.61573	0.47099	-3.13240	-0.33968
2813.000	-2.42631	0.40547	-2.87807	-0.47884
2814.000	-2.24867	0.38565	-2.72423	-0.54646
2815.000	-2.19143	0.24850	-2.69859	-0.61602
2816.000	-2.15392	0.19681	-2.60587	-0.61010
2817.000	-2.19340	0.18091	-2.56246	-0.66576
2818.000	-2.28223	0.13517	-2.68873	-0.74915
2819.000	-2.28420	0.13120	-2.63941	-0.81077
2820.000	-2.43618	0.11926	-2.83666	-0.80667
2821.000	-2.59206	0.08546	-3.03187	-0.85221
2822.000	-2.74593	0.12320	-3.13437	-0.87199
2823.000	-2.83666	0.11326	-3.36100	-0.93334
2824.000	-2.96483	0.18278	-3.53238	-0.90538
2825.000	-3.08312	0.23839	-3.60327	-0.87554
2826.000	-3.09298	0.21852	-3.73125	-0.88335
2827.000	-3.16788	0.25426	-3.83951	-0.83958
2828.000	-3.15803	0.26022	-3.85723	-0.85743
2829.000	-3.18365	0.31980	-3.88478	-0.92487
2830.000	-3.22306	0.33369	-3.89855	-0.82166
2831.000	-3.22109	0.31582	-3.80999	-0.78603
2832.000	-3.17182	0.37741	-3.79227	-0.70070
2833.000	-3.15014	0.41913	-3.70960	-0.65710
2834.000	-3.09495	0.36750	-3.67810	-0.63925
2835.000	-3.02792	0.44302	-3.53041	-0.60759
2836.000	-3.06341	0.34765	-3.53631	-0.53015
2837.000	-2.99441	0.40727	-3.52647	-0.56788
2838.000	-2.95695	0.37947	-3.44374	-0.57786
2839.000	-2.98652	0.38939	-3.42207	-0.52029
2840.000	-2.97272	0.38344	-3.48314	-0.47459
2841.000	-2.91159	0.41326	-3.40237	-0.50640
2842.000	-2.90765	0.41128	-3.39449	-0.55406
2843.000	-2.90371	0.38942	-3.37085	-0.53819
2844.000	-2.88990	0.38148	-3.42601	-0.50837
2845.000	-2.84849	0.35169	-3.37873	-0.62159
2846.000	-2.86032	0.40533	-3.38070	-0.56797
2847.000	-2.82680	0.32587	-3.41025	-0.59377
2848.000	-2.79721	0.33581	-3.34721	-0.55409
2849.000	-2.79129	0.37357	-3.38267	-0.56797
2850.000	-2.76960	0.35171	-3.34524	-0.55210
2851.000	-2.76171	0.33582	-3.31568	-0.66730
2852.000	-2.76763	0.35370	-3.33933	-0.61367
2853.000	-2.73409	0.35173	-3.29795	-0.68519
2854.000	-2.74396	0.31397	-3.33341	-0.67325
2855.000	-2.76368	0.33383	-3.22898	-0.67133
2856.000	-2.71042	0.27622	-3.29992	-0.62164
2857.000	-2.76565	0.31595	-3.37085	-0.65734
2858.000	-2.80905	0.27421	-3.34130	-0.60771
2859.000	-2.68675	0.30802	-3.33341	-0.63353
2860.000	-2.76565	0.30601	-3.32750	-0.63949
2861.000	-2.74593	0.28615	-3.39449	-0.69306
2862.000	-2.76368	0.25435	-3.41616	-0.64341
2863.000	-2.80116	0.25832	-3.35509	-0.68912
2864.000	-2.74790	0.29410	-3.31174	-0.71695
2865.000	-2.76565	0.30601	-3.39055	-0.71094
2866.000	-2.79129	0.25037	-3.36691	-0.71691
2867.000	-2.76565	0.25236	-3.34918	-0.74075
2868.000	-2.77749	0.28813	-3.34524	-0.73480
2869.000	-2.80707	0.29805	-3.33933	-0.67324
2870.000	-2.74593	0.28813	-3.41419	-0.63745
2871.000	-2.78735	0.30203	-3.39449	-0.60768
2872.000	-2.78932	0.31197	-3.39055	-0.76852
2873.000	-2.79524	0.32786	-3.33538	-0.69112
2874.000	-2.79721	0.29210	-3.41813	-0.64340
2875.000	-2.80707	0.29209	-3.36494	-0.64940
2876.000	-2.81693	0.32786	-3.34918	-0.66331
2877.000	-2.80116	0.32587	-3.35312	-0.64146
2878.000	-2.80510	0.36760	-3.39449	-0.66129
2879.000	-2.81299	0.31991	-3.39252	-0.64938
2880.000	-2.78143	0.31594	-3.38464	-0.67718
2881.000	-2.80905	0.37555	-3.42601	-0.62751
2882.000	-2.79721	0.33978	-3.42995	-0.66127
2883.000	-2.81496	0.36362	-3.42798	-0.66127
2884.000	-2.77354	0.31396	-3.38464	-0.70895
2885.000	-2.82088	0.36362	-3.42995	-0.65332
2886.000	-2.78341	0.41728	-3.44768	-0.72082
2887.000	-2.79129	0.33780	-3.44374	-0.60566
2888.000	-2.77157	0.30999	-3.37085	-0.62358
2889.000	-2.82088	0.32984	-3.44965	-0.65728
2890.000	-2.81496	0.38747	-3.39843	-0.72284
2891.000	-2.82482	0.34772	-3.37676	-0.65733
2892.000	-2.81693	0.35369	-3.41616	-0.66326
2893.000	-2.81496	0.33183	-3.40040	-0.64143
2894.000	-2.78735	0.36562	-3.39843	-0.69902
2895.000	-2.89187	0.28214	-3.48904	-0.72675
2896.000	-2.87215	0.27022	-3.41025	-0.64341
2897.000	-2.86821	0.26824	-3.34524	-0.70303
2898.000	-2.82877	0.35368	-3.41813	-0.71687
2899.000	-2.79721	0.33978	-3.35312	-0.63749
2900.000	-2.85243	0.36361	-3.42798	-0.65134
2901.000	-2.84060	0.32189	-3.44374	-0.69104
2902.000	-2.78341	0.31396	-3.40434	-0.71093
2903.000	-2.79524	0.29607	-3.40828	-0.67518
2904.000	-2.78538	0.37357	-3.41222	-0.65334
2905.000	-2.81299	0.32388	-3.42601	-0.68907
2906.000	-2.79918	0.32190	-3.37282	-0.69506
2907.000	-2.85046	0.28016	-3.38070	-0.74271
2908.000	-2.80707	0.24441	-3.40828	-0.72284
2909.000	-2.79129	0.31793	-3.32947	-0.61765
2910.000	-2.80905	0.30004	-3.41419	-0.70496
2911.000	-2.85835	0.30202	-3.44571	-0.69104
2912.000	-2.84454	0.26427	-3.34918	-0.73082
2913.000	-2.86624	0.30400	-3.47329	-0.63741
2914.000	-2.87215	0.25035	-3.34721	-0.70302
2915.000	-2.79524	0.27421	-3.36691	-0.70897
2916.000	-2.82285	0.27619	-3.37479	-0.63152
2917.000	-2.82680	0.27818	-3.32159	-0.67326
2918.000	-2.77946	0.32389	-3.41025	-0.74865
2919.000	-2.82680	0.26825	-3.33144	-0.65935
2920.000	-2.85441	0.27221	-3.33736	-0.73282
2921.000	-2.81299	0.29408	-3.34130	-0.71097
2922.000	-2.83863	0.31593	-3.34918	-0.74671
2923.000	-2.83863	0.24837	-3.36494	-0.69507
2924.000	-2.82877	0.29606	-3.36691	-0.70698
2925.000	-2.85835	0.27420	-3.34918	-0.75068
2926.000	-2.84849	0.26228	-3.41025	-0.65334
2927.000	-2.88004	0.26227	-3.41025	-0.70695
2928.000	-2.88399	0.28611	-3.33341	-0.67920
2929.000	-2.89779	0.27618	-3.37085	-0.69904
2930.000	-2.88399	0.29207	-3.32553	-0.72885
2931.000	-2.84257	0.29010	-3.43980	-0.62353
2932.000	-2.86229	0.28612	-3.36691	-0.62755
2933.000	-2.83666	0.27023	-3.40631	-0.72284
2934.000	-2.78735	0.24242	-3.40040	-0.65732
2935.000	-2.85046	0.24638	-3.37282	-0.62358
2936.000	-2.84849	0.26427	-3.39252	-0.66328
2937.000	-2.84060	0.25433	-3.39252	-0.61959
2938.000	-2.84652	0.27818	-3.40040	-0.71490
2939.000	-2.85441	0.23843	-3.34327	-0.76061
2940.000	-2.89976	0.25829	-3.47132	-0.73669
2941.000	-2.87413	0.24439	-3.29401	-0.69313
2942.000	-2.90371	0.24439	-3.31174	-0.62759
2943.000	-2.92342	0.24041	-3.39646	-0.71490
2944.000	-2.86821	0.24638	-3.41419	-0.70893
2945.000	-2.90568	0.27816	-3.41025	-0.76056
2946.000	-2.87215	0.26823	-3.32159	-0.67921
2947.000	-2.86229	0.24837	-3.37479	-0.71690
2948.000	-2.88004	0.26625	-3.32750	-0.76063
2949.000	-2.94117	0.27219	-3.29795	-0.66930
2950.000	-2.88201	0.21459	-3.42207	-0.71488
2951.000	-2.86624	0.22850	-3.30780	-0.68121
2952.000	-2.91751	0.22650	-3.38661	-0.73874
2953.000	-2.88399	0.25631	-3.40434	-0.72880
2954.000	-2.94511	0.24835	-3.32159	-0.65141
2955.000	-2.89385	0.22054	-3.35706	-0.70500
2956.000	-2.85638	0.23247	-3.37873	-0.68712
2957.000	-2.89582	0.25233	-3.43980	-0.63346
2958.000	-2.88793	0.21260	-3.38070	-0.71094
2959.000	-2.86229	0.26228	-3.38858	-0.69108
2960.000	-2.85835	0.22055	-3.37479	-0.66329
2961.000	-2.83666	0.27619	-3.35706	-0.68515
2962.000	-2.89976	0.28412	-3.34130	-0.66530
2963.000	-2.84060	0.26824	-3.36297	-0.68316
2964.000	-2.80510	0.26626	-3.37676	-0.68116
2965.000	-2.82088	0.27818	-3.39055	-0.67916
2966.000	-2.80510	0.25235	-3.30977	-0.68121
2967.000	-2.82088	0.25036	-3.30780	-0.66929
2968.000	-2.79721	0.25037	-3.36888	-0.72287
2969.000	-2.82482	0.29010	-3.29401	-0.69710
2970.000	-2.78143	0.24044	-3.31371	-0.68915
2971.000	-2.82482	0.26030	-3.35312	-0.67522
2972.000	-2.83074	0.26626	-3.36494	-0.66330
2973.000	-2.81891	0.26030	-3.27430	-0.62960
2974.000	-2.76763	0.26230	-3.34327	-0.67920
2975.000	-2.80510	0.29011	-3.24474	-0.70111
2976.000	-2.77552	0.28018	-3.29598	-0.72292
2977.000	-2.75185	0.23249	-3.30977	-0.70305
2978.000	-2.74593	0.29410	-3.36100	-0.72287
2979.000	-2.76171	0.29012	-3.33341	-0.76062
2980.000	-2.77552	0.33184	-3.39252	-0.73079
2981.000	-2.74987	0.27621	-3.33933	-0.68516
2982.000	-2.73409	0.28019	-3.33736	-0.76657
2983.000	-2.77946	0.29607	-3.28810	-0.69314
2984.000	-2.76960	0.29608	-3.29598	-0.66136
2985.000	-2.78932	0.27223	-3.39646	-0.73476
2986.000	-2.74987	0.26628	-3.26445	-0.65741
2987.000	-2.80510	0.25633	-3.30386	-0.69114
2988.000	-2.74790	0.27224	-3.31568	-0.75468
2989.000	-2.72029	0.25833	-3.35115	-0.63551
2990.000	-2.77157	0.22653	-3.27233	-0.72492
2991.000	-2.74790	0.32390	-3.24277	-0.67331
2992.000	-2.71240	0.26827	-3.29007	-0.69314
2993.000	-2.78932	0.29409	-3.37085	-0.60173
2994.000	-2.76171	0.27422	-3.33933	-0.69111
2995.000	-2.75974	0.28614	-3.30780	-0.65936
2996.000	-2.76565	0.23448	-3.26445	-0.67727
2997.000	-2.73607	0.26827	-3.27430	-0.62364
2998.000	-2.78341	0.26627	-3.26642	-0.71102
2999.000	-2.72029	0.26032	-3.28810	-0.68122
3000.000	-2.75579	0.25634	-3.34130	-0.74671
3001.000	-2.75579	0.26627	-3.27824	-0.59583
3002.000	-2.76565	0.26429	-3.28021	-0.71300
3003.000	-2.71240	0.29212	-3.32553	-0.65737
3004.000	-2.75185	0.27820	-3.28612	-0.67924
3005.000	-2.74396	0.25038	-3.36297	-0.66330
3006.000	-2.74987	0.25634	-3.25263	-0.66734
3007.000	-2.77749	0.24242	-3.32159	-0.69907
3008.000	-2.76763	0.25435	-3.35706	-0.69309
3009.000	-2.77946	0.25832	-3.35115	-0.66132
3010.000	-2.81891	0.23844	-3.29007	-0.70108
3011.000	-2.78932	0.26627	-3.31765	-0.65141
3012.000	-2.75382	0.24640	-3.36888	-0.69308
3013.000	-2.77157	0.25236	-3.29795	-0.65143
3014.000	-2.77157	0.29012	-3.32553	-0.64942
3015.000	-2.79129	0.22851	-3.32159	-0.63552
3016.000	-2.76565	0.25634	-3.28021	-0.70506
3017.000	-2.83271	0.23844	-3.30189	-0.70504
3018.000	-2.80116	0.28017	-3.30386	-0.70504
3019.000	-2.79721	0.21659	-3.24671	-0.58989
3020.000	-2.76368	0.19871	-3.35509	-0.70500
3021.000	-2.75579	0.28018	-3.29401	-0.72292
3022.000	-2.79327	0.28018	-3.32553	-0.69907
3023.000	-2.76960	0.24441	-3.30780	-0.68121
3024.000	-2.74396	0.28615	-3.29007	-0.63753
3025.000	-2.76565	0.27422	-3.25263	-0.65940
3026.000	-2.81496	0.23844	-3.24671	-0.64749
3027.000	-2.81496	0.27818	-3.18365	-0.73492
3028.000	-2.78143	0.23050	-3.24474	-0.74281
3029.000	-2.76763	0.25634	-3.30386	-0.76859
3030.000	-2.76565	0.24441	-3.23489	-0.70310
3031.000	-2.77157	0.22653	-3.27824	-0.64945
3032.000	-2.81891	0.22453	-3.22701	-0.71304
3033.000	-2.83074	0.24440	-3.31371	-0.63553
3034.000	-2.83468	0.18678	-3.17576	-0.67335
3035.000	-2.77157	0.22852	-3.26248	-0.64748
3036.000	-2.76368	0.26826	-3.25854	-0.68124
3037.000	-2.82482	0.19274	-3.25854	-0.67926
3038.000	-2.83666	0.20466	-3.23883	-0.64948
3039.000	-2.82680	0.22254	-3.22504	-0.67332
3040.000	-2.84257	0.20665	-3.23095	-0.71105
3041.000	-2.85243	0.19671	-3.21715	-0.62963
3042.000	-2.79524	0.23050	-3.33933	-0.67523
3043.000	-2.81299	0.22056	-3.35312	-0.68316
3044.000	-2.83863	0.20466	-3.27430	-0.69910
3045.000	-2.83074	0.18877	-3.26445	-0.70507
3046.000	-2.83666	0.20863	-3.30583	-0.68717
3047.000	-2.78341	0.23249	-3.25460	-0.77061
3048.000	-2.80905	0.19672	-3.21124	-0.70908
3049.000	-2.76171	0.23249	-3.27036	-0.74478
3050.000	-2.87018	0.22055	-3.20533	-0.70908
3051.000	-2.83468	0.19671	-3.24080	-0.66537
3052.000	-2.80313	0.20864	-3.32159	-0.66928
3053.000	-2.84257	0.23446	-3.26642	-0.70308
3054.000	-2.82088	0.20864	-3.27233	-0.68322
3055.000	-2.79721	0.21063	-3.29401	-0.62958
3056.000	-2.86821	0.22055	-3.34918	-0.68317
3057.000	-2.83074	0.18678	-3.26248	-0.70308
3058.000	-2.88990	0.23247	-3.29795	-0.73682
3059.000	-2.83468	0.26626	-3.29401	-0.65540
3060.000	-2.89582	0.22054	-3.25460	-0.67926
3061.000	-2.85638	0.22453	-3.31568	-0.66730
3062.000	-2.83666	0.22850	-3.22306	-0.65545
3063.000	-2.85441	0.23843	-3.24474	-0.70508
3064.000	-2.87018	0.21856	-3.35115	-0.72486
3065.000	-2.85441	0.16889	-3.27233	-0.70506
3066.000	-2.82285	0.19870	-3.34918	-0.69309
3067.000	-2.90568	0.15696	-3.25263	-0.67727
3068.000	-2.80313	0.20069	-3.29401	-0.71696
3069.000	-2.86624	0.16293	-3.25854	-0.72295
3070.000	-2.87413	0.19074	-3.18956	-0.72299
3071.000	-2.88004	0.18280	-3.22701	-0.70509
3072.000	-2.85243	0.20068	-3.21518	-0.68524
3073.000	-2.80510	0.18480	-3.24868	-0.69912
3074.000	-2.85835	0.22055	-3.29401	-0.67129
3075.000	-2.83468	0.16691	-3.17379	-0.70712
3076.000	-2.81299	0.19473	-3.21912	-0.71304
3077.000	-2.79918	0.18480	-3.28612	-0.72888
3078.000	-2.82482	0.19075	-3.19744	-0.63759
3079.000	-2.90568	0.17683	-3.19547	-0.70512
3080.000	-2.89582	0.15498	-3.22504	-0.71900
3081.000	-2.87807	0.17485	-3.27233	-0.67726
3082.000	-2.88004	0.17087	-3.24080	-0.61373
3083.000	-2.88399	0.17286	-3.27430	-0.74279
3084.000	-2.89976	0.14703	-3.17774	-0.68725
3085.000	-2.85243	0.17684	-3.18759	-0.64157
3086.000	-2.89779	0.16094	-3.20336	-0.73490
3087.000	-2.87215	0.14505	-3.28415	-0.69314
3088.000	-2.88201	0.15895	-3.17576	-0.67534
3089.000	-2.85638	0.17485	-3.23686	-0.68920
3090.000	-2.86032	0.25234	-3.19744	-0.66937
3091.000	-2.90962	0.18080	-3.25460	-0.64748
3092.000	-2.90173	0.21458	-3.34524	-0.67522
3093.000	-2.91357	0.16491	-3.26051	-0.66932
3094.000	-2.81693	0.17088	-3.21321	-0.72695
3095.000	-2.83074	0.22254	-3.30189	-0.67923
3096.000	-2.87807	0.16293	-3.20139	-0.69915
3097.000	-2.88004	0.18677	-3.25460	-0.72891
3098.000	-2.89976	0.14703	-3.29204	-0.64944
3099.000	-2.92540	0.19074	-3.28415	-0.64151
3100.000	-2.87018	0.20465	-3.20730	-0.72894
3101.000	-2.86032	0.22651	-3.34721	-0.64742
3102.000	-2.90765	0.14902	-3.28612	-0.61767
3103.000	-2.85835	0.17485	-3.26248	-0.70308
3104.000	-2.90962	0.19074	-3.30583	-0.69114
3105.000	-2.84849	0.17883	-3.33341	-0.69708
3106.000	-2.86624	0.16293	-3.25854	-0.72692
3107.000	-2.86427	0.14505	-3.27627	-0.71102
3108.000	-2.89385	0.16491	-3.23095	-0.70906
3109.000	-2.88399	0.14107	-3.22306	-0.67531
3110.000	-2.87807	0.14107	-3.16197	-0.65747
3111.000	-2.87610	0.20267	-3.25854	-0.72493
3112.000	-2.86032	0.18479	-3.27430	-0.67726
3113.000	-2.85243	0.14902	-3.24080	-0.67331
3114.000	-2.88990	0.18279	-3.25263	-0.73288
3115.000	-2.88990	0.13114	-3.19153	-0.77264
3116.000	-2.89976	0.12319	-3.22898	-0.79446
3117.000	-2.87807	0.13511	-3.24080	-0.73487
3118.000	-2.86427	0.15299	-3.23883	-0.78651
3119.000	-2.88004	0.19670	-3.18956	-0.77860
3120.000	-2.86427	0.13511	-3.29007	-0.72689
3121.000	-2.88399	0.12915	-3.30386	-0.66135
3122.000	-2.81102	0.19473	-3.27036	-0.74081
3123.000	-2.93131	0.12517	-3.24868	-0.66139
3124.000	-2.88793	0.15498	-3.18759	-0.74087
3125.000	-2.88793	0.16889	-3.27824	-0.74279
3126.000	-2.88990	0.12120	-3.23292	-0.67729
3127.000	-2.90765	0.16292	-3.29204	-0.67129
3128.000	-2.88990	0.20068	-3.29992	-0.70902
3129.000	-2.88793	0.12518	-3.23095	-0.67927
3130.000	-2.90568	0.17286	-3.22504	-0.65346
3131.000	-2.88201	0.18876	-3.26642	-0.66932
3132.000	-2.89976	0.13908	-3.33933	-0.68516
3133.000	-2.86624	0.16492	-3.29204	-0.68916
3134.000	-2.87807	0.10531	-3.26051	-0.71103
3135.000	-2.83271	0.16492	-3.27824	-0.75868
3136.000	-2.88201	0.15299	-3.23292	-0.71502
3137.000	-2.91751	0.10133	-3.18956	-0.70313
3138.000	-2.87413	0.15101	-3.30977	-0.74674
3139.000	-2.86624	0.11524	-3.29598	-0.71696
3140.000	-2.88793	0.16889	-3.30977	-0.69312
3141.000	-2.86624	0.08743	-3.30977	-0.72688
3142.000	-2.87215	0.12915	-3.25657	-0.69912
3143.000	-2.88004	0.15299	-3.29598	-0.72689
3144.000	-2.89385	0.13114	-3.20336	-0.81831
3145.000	-2.92145	0.09736	-3.26248	-0.71699
3146.000	-2.90173	0.09736	-3.19350	-0.74881
3147.000	-2.88201	0.13710	-3.24474	-0.79246
3148.000	-2.89385	0.13312	-3.25854	-0.83614
3149.000	-2.88990	0.07948	-3.18168	-0.70314
3150.000	-2.82680	0.13114	-3.29795	-0.78845
3151.000	-2.85046	0.16293	-3.27627	-0.77655
3152.000	-2.86821	0.16492	-3.38464	-0.73080
3153.000	-2.89582	0.13312	-3.28218	-0.75073
3154.000	-2.91357	0.09934	-3.26839	-0.81032
3155.000	-2.81891	0.12916	-3.23883	-0.78651
3156.000	-2.88399	0.11325	-3.22504	-0.78255
3157.000	-2.85243	0.16094	-3.27036	-0.78251
3158.000	-2.84849	0.15896	-3.27036	-0.73485
3159.000	-2.81102	0.11127	-3.27233	-0.71301
3160.000	-2.86032	0.12319	-3.28612	-0.72888
3161.000	-2.84652	0.21658	-3.30386	-0.69511
3162.000	-2.86821	0.14306	-3.16591	-0.68130
3163.000	-2.79918	0.20467	-3.21715	-0.66340
3164.000	-2.82088	0.16890	-3.26839	-0.71698
3165.000	-2.71437	0.13314	-3.17774	-0.67136
3166.000	-2.69859	0.18879	-3.12649	-0.63763
3167.000	-2.58614	0.22656	-3.09692	-0.63169
3168.000	-2.53089	0.21067	-2.89582	-0.63578
3169.000	-2.42236	0.23454	-2.84849	-0.48680
3170.000	-2.12430	0.29622	-2.64533	-0.39547
3171.000	-1.85971	0.33405	-2.33552	-0.31804
3172.000	-1.58515	0.43551	-2.09074	-0.37774
3173.000	-1.24334	0.52706	-1.81428	-0.21276
3174.000	-0.92516	0.64646	-1.42513	-0.03978
3175.000	-0.50017	0.69425	-1.02793	0.06166
3176.000	-0.15421	0.80567	-0.74726	0.24468
3177.000	0.23922	0.98665	-0.43296	0.47545
3178.000	0.57529	1.10792	-0.09885	0.60278
3179.000	0.90737	1.21919	0.27480	0.75593
3180.000	1.19789	1.41986	0.43493	0.91901
3181.000	1.35399	1.58275	0.66424	1.04825
3182.000	1.58120	1.73161	0.91132	1.16152
3183.000	1.78663	1.99363	1.09117	1.32051
3184.000	1.84786	2.17427	1.26508	1.48939
3185.000	1.97227	2.39644	1.44883	1.52306
3186.000	1.96042	2.48974	1.48045	1.76944
3187.000	2.01571	2.53728	1.52786	1.77537
3188.000	2.00584	2.73966	1.57330	1.80712
3189.000	1.94067	2.70604	1.60688	1.86669
3190.000	1.98807	2.76548	1.62466	1.83488
3191.000	1.94660	2.71992	1.67800	1.81696
3192.000	1.93870	2.74176	1.67800	1.81894
3193.000	1.96042	2.71990	1.52984	1.93827
3194.000	1.96832	2.71790	1.55947	1.81110
3195.000	1.90513	2.69221	1.52589	1.81113
3196.000	1.78663	2.68644	1.37968	1.83906
3197.000	1.74515	2.57141	1.29472	1.84111
3198.000	1.65627	2.54573	1.19196	1.80741
3199.000	1.53576	2.53595	1.17022	1.76967
3200.000	1.42908	2.52416	1.07734	1.76972
3201.000	1.34412	2.52028	1.01410	1.68033
3202.000	1.22160	2.45886	1.01805	1.82738
3203.000	1.19789	2.37947	0.98643	1.71612
3204.000	1.14058	2.34973	0.94097	1.74396
3205.000	1.08524	2.31006	0.90934	1.57305
3206.000	1.15639	2.23652	1.06746	1.60080
3207.000	1.17220	2.19282	1.06548	1.63062
3208.000	1.19987	2.14513	1.12872	1.68225
3209.000	1.23346	2.10736	1.18603	1.63850
3210.000	1.36783	2.11321	1.29076	1.58676
3211.000	1.44488	2.09328	1.37375	1.61652
3212.000	1.54762	2.07928	1.32436	1.61059
3213.000	1.66812	2.07717	1.44488	1.50915
3214.000	1.77281	2.07706	1.45081	1.53896
3215.000	1.84588	2.11867	1.49428	1.54092
3216.000	1.91105	2.19801	1.50613	1.47135
3217.000	1.95055	2.23171	1.53379	1.66012
3218.000	2.04138	2.29511	1.62269	1.65409
3219.000	2.03941	2.31100	1.58318	1.64418
3220.000	2.06310	2.36852	1.51798	1.69391
3221.000	2.03546	2.39635	1.56145	1.69984
3222.000	2.00189	2.37258	1.59108	1.77333
3223.000	2.00386	2.44800	1.52589	1.82106
3224.000	1.99004	2.43611	1.53576	1.84490
3225.000	1.94857	2.46396	1.51403	1.88663
3226.000	1.97622	2.50360	1.59898	1.78524
3227.000	1.98412	2.44604	1.55947	1.80514
3228.000	1.92290	2.46201	1.46464	1.90456
3229.000	1.89723	2.44021	1.51206	1.82505
3230.000	1.94660	2.45999	1.49230	1.89063
3231.000	1.93278	2.44215	1.47649	1.85488
3232.000	1.91105	2.42432	1.47452	1.85289
3233.000	1.87551	2.41444	1.45476	1.75953
3234.000	1.89920	2.42830	1.50613	1.86081
3235.000	1.93672	2.43222	1.53774	1.78927
3236.000	1.90513	2.40051	1.43105	1.85889
3237.000	1.89328	2.43625	1.41920	1.79532
3238.000	1.88933	2.40648	1.37573	1.83509
3239.000	1.88341	2.44420	1.45279	1.78338
3240.000	1.84588	2.38669	1.41722	1.74366
3241.000	1.86563	2.36483	1.36190	1.73774
3242.000	1.84983	2.44623	1.36783	1.78741
3243.000	1.86958	2.39658	1.40932	1.81719
3244.000	1.88735	2.35488	1.42315	1.75359
3245.000	1.88933	2.36877	1.42513	1.73372
3246.000	1.85181	2.36683	1.38956	1.77150
3247.000	1.85378	2.37279	1.43896	1.74166
3248.000	1.87946	2.37871	1.44488	1.77146
3249.000	1.89328	2.35884	1.37573	1.71985
3250.000	1.86168	2.35293	1.39746	1.72977
3251.000	1.87551	2.37276	1.41920	1.74764
3252.000	1.88735	2.38267	1.38956	1.76952
3253.000	1.95450	2.40044	1.40734	1.76354
3254.000	1.89525	2.33502	1.37178	1.77549
3255.000	1.93278	2.37268	1.38956	1.77349
3256.000	1.90513	2.37867	1.41129	1.72181
3257.000	1.92883	2.36871	1.35202	1.70993
3258.000	1.90315	2.38661	1.45081	1.69992
3259.000	1.95252	2.37662	1.39154	1.77547
3260.000	1.93870	2.41435	1.51403	1.73961
3261.000	1.96832	2.38255	1.39944	1.75163
3262.000	1.93870	2.38061	1.42513	1.71385
3263.000	1.95647	2.33295	1.37771	1.71786
3264.000	1.94660	2.37067	1.39154	1.84303
3265.000	1.96042	2.43417	1.38363	1.78939
3266.000	2.01374	2.44401	1.43105	1.77544
3267.000	1.98214	2.37261	1.35202	1.75961
3268.000	1.99202	2.41031	1.44686	1.85093
3269.000	1.94857	2.36472	1.37375	1.72979
3270.000	1.98412	2.40635	1.30460	1.77156
3271.000	1.95845	2.44211	1.42117	1.72578
3272.000	1.94462	2.38854	1.41327	1.78539
3273.000	1.94857	2.43220	1.45081	1.79927
3274.000	1.97819	2.35674	1.36190	1.83510
3275.000	1.95647	2.40043	1.40339	1.74169
3276.000	1.98017	2.34284	1.42315	1.76353
3277.000	1.95450	2.41234	1.40142	1.80328
3278.000	1.97029	2.35873	1.38166	1.75363
3279.000	1.97029	2.43415	1.40142	1.79335
3280.000	1.96437	2.37462	1.48835	1.76944
3281.000	1.99597	2.40236	1.40339	1.82514
3282.000	2.00781	2.38051	1.39746	1.80726
3283.000	1.98609	2.37657	1.40932	1.76155
3284.000	1.99991	2.41426	1.41525	1.75956
3285.000	1.94660	2.35678	1.37178	1.75363
3286.000	1.93672	2.37664	1.48637	1.73169
3287.000	1.95845	2.38455	1.43896	1.76153
3288.000	1.93475	2.40046	1.42513	1.78340
3289.000	1.92488	2.38658	1.31843	1.76162
3290.000	1.90118	2.34295	1.42710	1.73968
3291.000	1.97227	2.37461	1.43698	1.81518
3292.000	1.91500	2.38660	1.32436	1.82122
3293.000	1.91895	2.31712	1.36387	1.77152
3294.000	1.91105	2.38263	1.41525	1.76552
3295.000	1.98017	2.37658	1.36585	1.73973
3296.000	1.96042	2.37462	1.39154	1.85495
3297.000	1.96635	2.36271	1.36980	1.78940
3298.000	1.96832	2.37263	1.37178	1.80132
3299.000	1.94857	2.36869	1.42710	1.80922
3300.000	1.94660	2.30716	1.49625	1.77341
3301.000	1.93672	2.40840	1.42908	1.72180
3302.000	1.96042	2.36470	1.46662	1.78336
3303.000	1.99202	2.37855	1.45279	1.80523
3304.000	1.96437	2.38057	1.38166	1.74568
3305.000	1.92290	2.35483	1.44093	1.77146
3306.000	1.93278	2.37069	1.35004	1.79339
3307.000	1.96437	2.33492	1.44686	1.76748
3308.000	1.94660	2.35480	1.44686	1.75358
3309.000	1.89525	2.32708	1.41327	1.73174
3310.000	1.94265	2.37663	1.40734	1.76155
3311.000	1.99399	2.36465	1.38166	1.75164
3312.000	1.96240	2.33095	1.35399	1.75961
3313.000	1.95450	2.37860	1.38363	1.75561
3314.000	1.99991	2.37060	1.34214	1.79538
3315.000	1.91698	2.34094	1.45871	1.76946
3316.000	1.97622	2.41827	1.44488	1.82312
3317.000	1.97029	2.40041	1.40339	1.72778
3318.000	1.93080	2.34886	1.42315	1.66616
3319.000	1.96832	2.37064	1.51206	1.70783
3320.000	1.93278	2.37665	1.40339	1.74169
3321.000	1.94265	2.39251	1.39154	1.75560
3322.000	1.96832	2.38454	1.48045	1.77739
3323.000	1.93672	2.35084	1.44686	1.79133
3324.000	1.96042	2.39249	1.38363	1.69401
3325.000	1.96240	2.34088	1.42315	1.78141
3326.000	1.96240	2.38852	1.46069	1.79529
3327.000	1.92685	2.34887	1.37178	1.75165
3328.000	1.92488	2.38658	1.39154	1.76355
3329.000	1.94067	2.38061	1.43896	1.68404
3330.000	1.92488	2.37864	1.41129	1.78937
3331.000	1.94265	2.35877	1.44488	1.76550
3332.000	1.94857	2.35479	1.45279	1.72377
3333.000	1.91895	2.39850	1.44093	1.78537
3334.000	1.95252	2.39647	1.39746	1.73374
3335.000	1.96635	2.41233	1.51798	1.73961
3336.000	1.93080	2.37268	1.47649	1.73170
3337.000	1.92093	2.38857	1.40734	1.67214
3338.000	1.97029	2.41629	1.49823	1.78334
3339.000	1.99202	2.39840	1.42315	1.79333
3340.000	1.94462	2.38656	1.41327	1.74168
3341.000	1.96240	2.39249	1.44093	1.74365
3342.000	1.94265	2.39847	1.41722	1.77546
3343.000	2.02558	2.41819	1.44883	1.76748
3344.000	1.92290	2.37468	1.45674	1.75158
3345.000	1.99004	2.40634	1.39154	1.71785
3346.000	1.96635	2.37660	1.43698	1.77941
3347.000	1.96240	2.38455	1.45871	1.65819
3348.000	1.97622	2.38850	1.44488	1.76153
3349.000	1.94660	2.38655	1.37771	1.65030
3350.000	1.91698	2.34094	1.36783	1.73178
3351.000	1.91500	2.32308	1.46266	1.69197
3352.000	1.93278	2.39054	1.44488	1.73172
3353.000	1.94265	2.36473	1.39154	1.81521
3354.000	1.93278	2.40444	1.44883	1.71781
3355.000	1.92093	2.35285	1.38561	1.73574
3356.000	1.93870	2.34687	1.40537	1.80725
3357.000	1.95647	2.39448	1.48242	1.69791
3358.000	1.93278	2.39650	1.35992	1.77749
3359.000	1.95845	2.39845	1.48637	1.78335
3360.000	1.91698	2.38660	1.35004	1.79339
3361.000	1.93870	2.37664	1.52193	1.80319
3362.000	1.93278	2.38657	1.43303	1.72179
3363.000	1.88341	2.35091	1.38956	1.76355
3364.000	1.88341	2.39061	1.38956	1.74965
3365.000	1.89920	2.36876	1.37178	1.74171
3366.000	1.93672	2.41237	1.41129	1.77943
3367.000	1.91895	2.44217	1.39944	1.77547
3368.000	1.93475	2.33695	1.43698	1.74564
3369.000	1.88933	2.39060	1.35597	1.74570
3370.000	1.92290	2.34887	1.34016	1.76359
3371.000	1.91105	2.37469	1.44291	1.80921
3372.000	1.89328	2.34494	1.45871	1.74761
3373.000	1.92488	2.35284	1.45871	1.72972
3374.000	1.95252	2.38456	1.47649	1.71779
3375.000	1.91500	2.33102	1.46464	1.76747
3376.000	1.91698	2.34094	1.32436	1.68213
3377.000	1.90118	2.36875	1.40734	1.73572
3378.000	1.93672	2.30717	1.39944	1.71188
3379.000	1.88933	2.30525	1.41722	1.72578
3380.000	1.90513	2.34691	1.42513	1.74962
3381.000	1.92093	2.36277	1.40537	1.74963
3382.000	1.89920	2.31317	1.49230	1.74162
3383.000	1.92093	2.39056	1.44093	1.65224
3384.000	1.92883	2.34093	1.38956	1.71587
3385.000	1.88538	2.37076	1.35597	1.68608
3386.000	1.98412	2.38253	1.42117	1.71187
3387.000	1.92883	2.35284	1.43896	1.71186
3388.000	1.93672	2.39252	1.40734	1.76553
3389.000	1.94067	2.38458	1.45081	1.78139
3390.000	1.93278	2.38856	1.37968	1.83509
3391.000	1.90118	2.40250	1.40142	1.76951
3392.000	1.94462	2.38457	1.36585	1.72781
3393.000	1.89920	2.35685	1.35795	1.67018
3394.000	1.94265	2.37068	1.37968	1.72978
3395.000	1.93278	2.39451	1.41129	1.66021
3396.000	1.94067	2.39053	1.51008	1.71776
3397.000	1.95055	2.28928	1.43500	1.74564
3398.000	1.91303	2.32308	1.43896	1.75756
3399.000	1.95845	2.33691	1.46859	1.70587
3400.000	1.98412	2.35871	1.39944	1.66817
3401.000	1.92488	2.35880	1.46662	1.64427
3402.000	1.89920	2.36082	1.41327	1.72976
3403.000	1.91895	2.33895	1.40932	1.72777
3404.000	1.90315	2.38066	1.44883	1.71582
3405.000	1.94265	2.35083	1.48835	1.75553
3406.000	1.90118	2.30523	1.48835	1.75354
3407.000	1.93278	2.36474	1.43105	1.68802
3408.000	1.91895	2.33895	1.39944	1.75361
3409.000	1.91105	2.31117	1.43303	1.66020
3410.000	1.94067	2.36274	1.51403	1.66808
3411.000	1.95055	2.39250	1.41525	1.77744
3412.000	1.95845	2.33890	1.44291	1.72179
3413.000	1.93080	2.33497	1.40734	1.78341
3414.000	1.90908	2.32904	1.34609	1.76756
3415.000	1.95252	2.34288	1.37178	1.78145
3416.000	1.93672	2.27342	1.38166	1.74369
3417.000	1.91895	2.34094	1.48242	1.80322
3418.000	1.93278	2.29328	1.42513	1.69597
3419.000	1.91303	2.32110	1.50020	1.69194
3420.000	1.90710	2.34889	1.47254	1.61446
3421.000	1.87946	2.32313	1.49625	1.75950
3422.000	1.92093	2.29925	1.48045	1.71381
3423.000	1.88933	2.35686	1.47649	1.70189
3424.000	1.92093	2.32704	1.39154	1.74766
3425.000	1.90118	2.31317	1.48440	1.71977
3426.000	1.90710	2.32507	1.35795	1.70198
3427.000	1.90710	2.33301	1.48242	1.71778
3428.000	1.88143	2.31121	1.40142	1.70791
3429.000	1.92290	2.35681	1.46069	1.71184
3430.000	1.91500	2.34293	1.42315	1.71783
3431.000	1.93080	2.33100	1.44488	1.67211
3432.000	1.89723	2.29531	1.40734	1.68605
3433.000	1.93080	2.34489	1.37968	1.73773
3434.000	1.90118	2.30722	1.39944	1.75759
3435.000	1.92488	2.30520	1.51206	1.74558
3436.000	1.99004	2.31107	1.38561	1.69997
3437.000	1.92488	2.31116	1.44093	1.69397
3438.000	1.90908	2.32706	1.45674	1.70191
3439.000	1.92290	2.34093	1.44291	1.77941
3440.000	1.91105	2.33896	1.44488	1.74364
3441.000	1.89920	2.33104	1.46069	1.65024
3442.000	1.84391	2.28545	1.39154	1.75163
3443.000	1.90118	2.35883	1.42908	1.72180
3444.000	1.89130	2.29532	1.43303	1.72378
3445.000	1.90710	2.33698	1.44883	1.71185
3446.000	1.91105	2.33102	1.46266	1.75754
3447.000	1.89328	2.31517	1.37771	1.72382
3448.000	1.91105	2.32507	1.40932	1.72380
3449.000	1.86563	2.29337	1.44488	1.72973
3450.000	1.89920	2.37273	1.37771	1.71587
3451.000	1.92883	2.32505	1.44093	1.69596
3452.000	1.94067	2.33297	1.37771	1.78939
3453.000	1.85773	2.28742	1.44291	1.72179
3454.000	1.91698	2.33896	1.46662	1.71382
3455.000	1.91500	2.32308	1.38166	1.73177
3456.000	1.92685	2.30123	1.48637	1.67208
3457.000	1.87551	2.30725	1.43105	1.70789
3458.000	1.87748	2.31122	1.46266	1.75158
3459.000	1.93475	2.31908	1.39549	1.74964
3460.000	1.92093	2.29925	1.39746	1.73176
3461.000	1.87156	2.28542	1.36387	1.73377
3462.000	1.90710	2.32110	1.45674	1.70787
3463.000	1.88933	2.32907	1.37178	1.71588
3464.000	1.85378	2.31323	1.37771	1.70793
3465.000	1.90315	2.32111	1.34412	1.74570
3466.000	1.92685	2.35085	1.40339	1.83507
3467.000	1.89525	2.30325	1.37771	1.74767
3468.000	1.90118	2.34295	1.45871	1.72575
3469.000	1.94660	2.31311	1.39154	1.75163
3470.000	1.88933	2.32510	1.40537	1.84103
3471.000	1.90118	2.26950	1.38956	1.70196
3472.000	1.86563	2.28344	1.41525	1.75559
3473.000	1.91698	2.30720	1.46859	1.74362
3474.000	1.91303	2.27742	1.44093	1.69794
3475.000	1.91105	2.29132	1.44686	1.75954
3476.000	1.92883	2.33100	1.36980	1.74171
3477.000	1.95252	2.31509	1.46069	1.76151
3478.000	1.89130	2.32708	1.39549	1.76951
3479.000	1.93278	2.29725	1.39944	1.77348
3480.000	1.92093	2.32704	1.42513	1.72776
3481.000	1.93870	2.27937	1.37375	1.71985
3482.000	1.90513	2.30523	1.44291	1.68205
3483.000	1.94265	2.27540	1.39944	1.74964
3484.000	1.92883	2.30916	1.47254	1.73170
3485.000	1.92883	2.29527	1.35597	1.79140
3486.000	1.92883	2.31115	1.47649	1.74759
3487.000	1.94265	2.30716	1.47452	1.68600
3488.000	1.93278	2.29725	1.53971	1.73363
3489.000	1.90710	2.30919	1.45476	1.71780
3490.000	1.95252	2.33891	1.44093	1.70589
3491.000	1.95252	2.34089	1.48835	1.68400
3492.000	1.93278	2.31114	1.39944	1.75957
3493.000	1.92488	2.28932	1.41129	1.71188
3494.000	1.92685	2.33497	1.44883	1.67608
3495.000	1.97424	2.36865	1.43105	1.78339
3496.000	1.97227	2.36667	1.42513	1.68802
3497.000	1.96437	2.35279	1.43105	1.75558
3498.000	1.93475	2.32901	1.45871	1.69197
3499.000	1.95252	2.35876	1.37375	1.74171
3500.000	1.97424	2.35476	1.48637	1.67605
3501.000	1.95450	2.26149	1.49032	1.73169
3502.000	1.95647	2.30714	1.39746	1.67413
3503.000	1.93475	2.25556	1.45476	1.75754
3504.000	1.98609	2.33688	1.43105	1.64033
3505.000	1.95055	2.32899	1.45871	1.64031
3506.000	1.94067	2.26151	1.55749	1.67202
3507.000	1.96832	2.28727	1.40932	1.65028
3508.000	1.93672	2.32702	1.36585	1.76158
3509.000	1.96437	2.31706	1.48835	1.63631
3510.000	1.95845	2.30317	1.37968	1.73574
3511.000	1.94265	2.26746	1.38758	1.72183
3512.000	1.99202	2.30709	1.47847	1.76945
3513.000	1.93278	2.30916	1.46464	1.74959
3514.000	1.96635	2.27537	1.40339	1.67810
3515.000	1.93475	2.26747	1.49230	1.70188
3516.000	1.96042	2.34684	1.45081	1.71383
3517.000	1.96635	2.30117	1.42315	1.63834
3518.000	1.96635	2.33095	1.44883	1.73370
3519.000	1.97424	2.32895	1.44093	1.72974
3520.000	1.96240	2.29919	1.42710	1.70590
3521.000	1.95647	2.30913	1.45081	1.72377
3522.000	1.94660	2.29723	1.48045	1.64426
3523.000	1.91895	2.33300	1.43698	1.67808
3524.000	1.97029	2.31109	1.40932	1.67214
3525.000	1.98214	2.29123	1.43303	1.72974
3526.000	1.98017	2.30711	1.35004	1.71987
3527.000	1.92488	2.26153	1.44883	1.71781
3528.000	1.96635	2.27735	1.44093	1.72775
3529.000	1.94265	2.29724	1.45081	1.72576
3530.000	1.99991	2.30708	1.35992	1.73973
3531.000	1.94462	2.32105	1.45674	1.68800
3532.000	1.95450	2.34684	1.35597	1.77550
3533.000	1.92685	2.32703	1.36980	1.74171
3534.000	1.96437	2.32103	1.41920	1.78539
3535.000	1.94265	2.32304	1.32831	1.71988
3536.000	1.92883	2.28733	1.40142	1.73374
3537.000	1.97424	2.35476	1.41525	1.71585
3538.000	1.95845	2.34485	1.41129	1.74963
3539.000	1.92883	2.29924	1.36585	1.68011
3540.000	1.95845	2.31508	1.48242	1.71381
3541.000	1.96437	2.36469	1.48045	1.67208
3542.000	1.94660	2.27539	1.37968	1.65030
3543.000	1.94067	2.30518	1.40734	1.65028
3544.000	1.97622	2.25550	1.40537	1.66022
3545.000	1.94265	2.30518	1.43896	1.72179
3546.000	1.93080	2.26747	1.34214	1.70994
3547.000	1.96635	2.29125	1.43698	1.73769
3548.000	1.94462	2.27341	1.42908	1.70789
3549.000	1.93672	2.25953	1.43105	1.68603
3550.000	1.95252	2.30119	1.41129	1.75758
3551.000	1.90710	2.24567	1.41525	1.71187
3552.000	1.93278	2.31908	1.38758	1.64234
3553.000	1.97424	2.32895	1.40537	1.75361
3554.000	1.94067	2.29128	1.46069	1.71383
3555.000	1.94462	2.30120	1.40339	1.76752
3556.000	1.92685	2.27542	1.40932	1.67015
3557.000	1.97227	2.30116	1.42315	1.72975
3558.000	1.94660	2.29524	1.41525	1.72380
3559.000	1.93672	2.26151	1.40142	1.76355
3560.000	1.94067	2.27739	1.31052	1.72188
3561.000	1.92685	2.25557	1.36783	1.76158
3562.000	1.95252	2.29921	1.39549	1.75362
3563.000	1.95252	2.27936	1.32831	1.70399
3564.000	1.95252	2.26149	1.34412	1.78544
3565.000	1.95647	2.28332	1.32040	1.79142
3566.000	1.92488	2.26550	1.40734	1.82116
3567.000	1.92685	2.31512	1.33028	1.80532
3568.000	1.91698	2.31911	1.39746	1.79733
3569.000	1.88143	2.32312	1.38166	1.75363
3570.000	1.91698	2.27940	1.47452	1.77144
3571.000	1.97227	2.30315	1.33424	1.80532
3572.000	1.94462	2.28334	1.41129	1.83507
3573.000	1.94265	2.29525	1.46464	1.80522
3574.000	1.94265	2.30121	1.43105	1.73769
3575.000	1.91105	2.25757	1.37968	1.82913
3576.000	1.94462	2.26944	1.43303	1.77942
3577.000	1.91895	2.26352	1.46662	1.78535
3578.000	1.92290	2.23175	1.41525	1.79135
3579.000	1.88143	2.27945	1.36190	1.72582
3580.000	1.88735	2.24371	1.42315	1.85095
3581.000	1.91500	2.28338	1.42315	1.78936
3582.000	1.89525	2.25362	1.37573	1.80132
3583.000	1.88341	2.30526	1.48242	1.81713
3584.000	1.85971	2.26757	1.41525	1.73373
3585.000	1.92290	2.30520	1.33226	1.75962
3586.000	1.95055	2.30914	1.44488	1.72576
3587.000	1.90513	2.26155	1.43698	1.81915
3588.000	1.89525	2.25561	1.44488	1.76351
3589.000	1.89130	2.25561	1.43698	1.81319
3590.000	1.90908	2.22383	1.37375	1.72383
3591.000	1.88341	2.23974	1.41525	1.75956
3592.000	1.93475	2.29526	1.46266	1.81516
3593.000	1.92290	2.25557	1.41129	1.76354
3594.000	1.93475	2.23769	1.32633	1.75168
3595.000	1.91303	2.23375	1.48440	1.70586
3596.000	1.87748	2.25365	1.36190	1.75165
3597.000	1.91500	2.23573	1.31843	1.73181
3598.000	1.89525	2.29928	1.29274	1.77952
3599.000	1.79651	2.21007	1.33819	1.72385
3600.000	1.73330	2.15653	1.21172	1.65836
3601.000	1.60096	2.09313	1.16627	1.55305
3602.000	1.41722	1.97214	1.08327	1.47160
3603.000	1.29669	1.85701	0.93899	1.32057
3604.000	1.12872	1.65841	0.85400	1.25301
3605.000	0.93306	1.50546	0.56540	1.10594
3606.000	0.70378	1.34252	0.52784	0.97071
3607.000	0.54168	1.13378	0.41121	0.81360
3608.000	0.41714	1.01846	0.35190	0.60277
3609.000	0.35783	0.90112	0.24712	0.49933
3610.000	0.23329	0.75792	0.15421	0.29841
3611.000	0.12060	0.57891	0.13048	0.19098
3612.000	0.08501	0.42971	0.03559	0.00000
3613.000	0.04745	0.29244	0.00000	-0.14921
3614.000	0.01779	0.19695	0.02966	-0.18104
3615.000	0.06722	0.11340	-0.00395	-0.26459
3616.000	0.06920	0.01790	0.05536	-0.35412
3617.000	0.12850	-0.01393	0.05733	-0.44364
3618.000	0.20363	-0.02984	0.05338	-0.32825
3619.000	0.23526	0.00000	0.08303	-0.29244
3620.000	0.27678	-0.04178	0.00395	-0.33621
3621.000	0.33806	0.05570	0.10676	-0.32030
3622.000	0.35783	0.07361	0.08897	-0.26260
3623.000	0.41912	0.12533	0.06129	-0.19894
3624.000	0.37563	0.13926	0.03954	-0.12931
3625.000	0.40133	0.23077	-0.08106	-0.08952
3626.000	0.35190	0.22679	0.06524	-0.05371
3627.000	0.39539	0.33023	-0.04745	-0.05968
3628.000	0.37958	0.34814	0.00198	-0.02387
3629.000	0.38353	0.37400	-0.00198	0.04775
3630.000	0.38551	0.41180	-0.02768	0.13130
3631.000	0.44086	0.47744	0.01977	0.07162
3632.000	0.42505	0.46749	-0.04547	0.14523
3633.000	0.46459	0.52120	0.03756	0.15319
3634.000	0.48435	0.59878	0.02768	0.12533
3635.000	0.50215	0.64254	0.09094	0.15716
3636.000	0.45470	0.53712	0.08501	0.14921
3637.000	0.50610	0.55700	0.10083	0.17905
3638.000	0.49028	0.61071	0.07117	0.16114
3639.000	0.48831	0.61668	0.16014	0.18701
3640.000	0.45272	0.57093	0.04349	0.08952
3641.000	0.48831	0.56297	-0.01977	0.14722
3642.000	0.43296	0.53115	0.07710	0.08157
3643.000	0.40133	0.47943	0.01186	-0.00597
3644.000	0.36772	0.45556	0.01779	0.01989
3645.000	0.35388	0.42373	-0.00989	-0.03581
3646.000	0.28864	0.43965	-0.07513	0.00199
3647.000	0.29457	0.37400	-0.08501	-0.04974
3648.000	0.27282	0.37798	-0.00593	-0.10544
3649.000	0.24910	0.30438	-0.07315	-0.14125
3650.000	0.24317	0.29642	-0.05536	-0.16313
3651.000	0.22142	0.26260	-0.04745	-0.14523
3652.000	0.17595	0.26459	-0.02768	-0.18701
3653.000	0.18979	0.32626	-0.07117	-0.23276
3654.000	0.21549	0.25067	-0.12455	-0.18502
3655.000	0.22142	0.22281	-0.09490	-0.17905
3656.000	0.21747	0.25266	-0.06722	-0.16711
3657.000	0.20363	0.25663	-0.04943	-0.17109
3658.000	0.21154	0.21486	-0.07710	-0.14125
3659.000	0.24119	0.22480	-0.06722	-0.20093
3660.000	0.23329	0.25464	-0.01384	-0.24669
3661.000	0.23724	0.25265	-0.09292	-0.14125
3662.000	0.19770	0.25663	0.01779	-0.15120
3663.000	0.25305	0.24470	-0.06722	-0.14722
3664.000	0.25899	0.25464	-0.04943	-0.15120
3665.000	0.26887	0.22679	-0.03163	-0.14722
3666.000	0.21549	0.27255	-0.01582	-0.10345
3667.000	0.29259	0.27454	-0.10280	-0.19695
3668.000	0.24910	0.25663	-0.09687	-0.14324
3669.000	0.26887	0.29841	-0.08699	-0.19297
3670.000	0.25899	0.24271	-0.05338	-0.13528
3671.000	0.27876	0.26857	-0.08501	-0.16910
3672.000	0.30248	0.28249	-0.12060	-0.15915
3673.000	0.30446	0.25464	-0.03163	-0.16711
3674.000	0.29062	0.27852	-0.10083	-0.21088
3675.000	0.27085	0.24868	-0.04745	-0.15717
3676.000	0.28271	0.28846	-0.07315	-0.12931
3677.000	0.30050	0.29443	-0.06524	-0.14125
3678.000	0.26294	0.27255	-0.10874	-0.15716
3679.000	0.26096	0.26260	-0.12850	-0.13926
3680.000	0.28469	0.25862	-0.08303	-0.11340
3681.000	0.29259	0.31035	-0.02570	-0.17109
3682.000	0.27876	0.26658	-0.10280	-0.07162
3683.000	0.26887	0.27653	-0.11269	-0.11141
3684.000	0.31039	0.29443	-0.05536	-0.05173
3685.000	0.27876	0.30040	-0.04943	-0.04775
3686.000	0.28271	0.30438	-0.07117	-0.11141
3687.000	0.25305	0.27454	-0.07908	-0.05173
3688.000	0.27678	0.29244	-0.08699	-0.08157
3689.000	0.24910	0.25067	-0.05140	-0.03183
3690.000	0.24515	0.31432	-0.13444	-0.11937
3691.000	0.31039	0.25265	-0.09094	-0.08157
3692.000	0.28271	0.29642	-0.07315	-0.17706
3693.000	0.26887	0.24470	-0.08303	-0.08356
3694.000	0.28864	0.29244	-0.01977	-0.14125
3695.000	0.26492	0.23475	-0.05536	-0.08356
3696.000	0.30050	0.30239	-0.13444	-0.10743
3697.000	0.26294	0.25663	-0.11269	-0.09947
3698.000	0.26294	0.26061	-0.05536	-0.03183
3699.000	0.25305	0.22082	-0.02966	-0.07759
3700.000	0.23922	0.25862	-0.05140	-0.07958
3701.000	0.26689	0.24072	-0.03559	-0.09748
3702.000	0.25108	0.23077	-0.11269	-0.11539
3703.000	0.21352	0.26061	-0.10280	-0.09350
3704.000	0.30050	0.23674	-0.11269	-0.11141
3705.000	0.29457	0.23077	-0.08303	-0.09350
3706.000	0.25305	0.22878	-0.05536	-0.15319
3707.000	0.29062	0.20491	-0.10478	-0.15518
3708.000	0.23329	0.24868	-0.08699	-0.06366
3709.000	0.28073	0.22878	-0.05931	-0.13329
3710.000	0.25108	0.23077	-0.05140	-0.10743
3711.000	0.27282	0.27056	-0.05733	-0.08555
3712.000	0.25503	0.24271	-0.07315	-0.07361
3713.000	0.25701	0.29841	-0.00395	-0.14921
3714.000	0.26096	0.24470	-0.04943	-0.15717
3715.000	0.21945	0.27454	-0.04349	-0.13727
3716.000	0.24712	0.23475	-0.08303	-0.12334
3717.000	0.29062	0.24867	-0.07315	-0.12136
3718.000	0.28666	0.28647	-0.10280	-0.15319
3719.000	0.29457	0.24470	-0.09490	-0.11141
3720.000	0.25899	0.25464	-0.06722	-0.15120
3721.000	0.26492	0.23674	-0.08699	-0.12732
3722.000	0.26492	0.24669	-0.08501	-0.13926
3723.000	0.26689	0.24271	-0.06326	-0.05570
3724.000	0.28073	0.23674	-0.12455	-0.05968
3725.000	0.25108	0.23077	0.00593	-0.16114
3726.000	0.23724	0.23873	-0.02372	-0.14324
3727.000	0.28271	0.25066	-0.08699	-0.07958
3728.000	0.25108	0.28250	-0.05536	-0.15915
3729.000	0.25899	0.25066	-0.06326	-0.09947
3730.000	0.23922	0.21685	-0.03756	-0.15120
3731.000	0.25108	0.20093	-0.04943	-0.15717
3732.000	0.22933	0.22281	-0.03361	-0.13130
3733.000	0.23922	0.19894	-0.05536	-0.13926
3734.000	0.22340	0.22281	-0.08106	-0.10942
3735.000	0.25503	0.23475	-0.06326	-0.07560
3736.000	0.24119	0.24470	-0.02966	-0.11539
3737.000	0.26294	0.21088	-0.02570	-0.15717
3738.000	0.24317	0.23674	0.00791	-0.13727
3739.000	0.23922	0.21088	-0.02372	-0.14921
3740.000	0.24119	0.22878	-0.07315	-0.12931
3741.000	0.21747	0.21884	-0.07908	-0.14324
3742.000	0.23922	0.21486	-0.01582	-0.15319
3743.000	0.22340	0.22281	-0.00198	-0.15120
3744.000	0.22142	0.22281	-0.00593	-0.08356
3745.000	0.23131	0.20093	-0.02768	-0.13528
3746.000	0.24712	0.24072	0.01186	-0.13727
3747.000	0.24119	0.19496	0.01977	-0.05769
3748.000	0.22538	0.22281	-0.07908	-0.13329
3749.000	0.24712	0.21287	-0.03756	-0.04377
3750.000	0.21747	0.23475	-0.06326	-0.12533
3751.000	0.17200	0.22878	-0.03361	-0.12732
3752.000	0.23131	0.22082	0.00198	-0.12136
3753.000	0.20363	0.22878	-0.09094	-0.23873
3754.000	0.19572	0.23873	-0.04152	-0.09748
3755.000	0.20956	0.19894	-0.14432	-0.04974
3756.000	0.22735	0.21685	-0.09490	-0.08754
3757.000	0.25701	0.21088	-0.04745	-0.12334
3758.000	0.23329	0.19098	-0.01977	-0.13727
3759.000	0.22538	0.27454	-0.05733	-0.15120
3760.000	0.23329	0.19297	0.00000	-0.09748
3761.000	0.27282	0.26658	-0.04745	-0.11738
3762.000	0.17595	0.21088	0.01779	-0.13130
3763.000	0.23922	0.23276	-0.04152	-0.07162
3764.000	0.20758	0.23873	-0.07710	-0.11340
3765.000	0.22933	0.20292	-0.07908	-0.10345
3766.000	0.18386	0.20491	0.00000	-0.11937
3767.000	0.21154	0.20292	-0.01384	-0.13329
3768.000	0.23526	0.23475	-0.04943	-0.09350
3769.000	0.19770	0.18899	-0.09885	-0.07361
3770.000	0.20956	0.21287	0.02372	-0.14125
3771.000	0.20561	0.21486	-0.07117	-0.13130
3772.000	0.26492	0.21883	0.00395	-0.07361
3773.000	0.20758	0.17109	-0.01779	-0.11539
3774.000	0.22735	0.19894	0.01186	-0.10345
3775.000	0.22142	0.18899	-0.02372	-0.13329
3776.000	0.20956	0.17507	-0.03559	-0.07162
3777.000	0.24910	0.20491	-0.06129	-0.15518
3778.000	0.21945	0.18502	0.02570	-0.13329
3779.000	0.25899	0.21685	-0.04745	-0.15518
3780.000	0.22340	0.23873	0.00989	-0.08754
3781.000	0.23131	0.22480	0.00395	-0.09549
3782.000	0.26689	0.22480	0.01186	-0.13727
3783.000	0.23329	0.23276	-0.04745	-0.12931
3784.000	0.23922	0.21088	-0.01977	-0.10743
3785.000	0.20561	0.20491	-0.02570	-0.12931
3786.000	0.20956	0.23276	-0.04745	-0.05173
3787.000	0.21549	0.21486	-0.08501	-0.01989
3788.000	0.21945	0.19297	-0.06326	-0.12334
3789.000	0.18584	0.19098	0.05338	-0.08157
3790.000	0.21352	0.18701	-0.05536	-0.08157
3791.000	0.23131	0.22480	-0.00593	-0.02188
3792.000	0.23329	0.19894	-0.01582	-0.19496
3793.000	0.20956	0.21884	-0.01779	-0.00796
3794.000	0.23329	0.18502	-0.06129	-0.08157
3795.000	0.22735	0.26857	0.00593	-0.07560
3796.000	0.22142	0.23475	0.00395	-0.17109
3797.000	0.19968	0.23873	-0.01186	-0.09748
3798.000	0.22340	0.23077	-0.04152	-0.11539
3799.000	0.19375	0.19297	-0.04349	-0.03581
3800.000	0.24712	0.20491	0.03559	-0.13130
3801.000	0.18584	0.21884	-0.05733	-0.14125
3802.000	0.17991	0.18502	-0.02768	-0.07759
3803.000	0.21549	0.18899	0.00198	-0.09350
3804.000	0.21747	0.18899	-0.10874	-0.07560
3805.000	0.24119	0.20889	-0.01779	-0.10743
3806.000	0.20165	0.18104	-0.03756	-0.06764
3807.000	0.23329	0.23873	-0.08303	-0.13329
3808.000	0.21945	0.19894	-0.06129	-0.11738
3809.000	0.22735	0.20093	-0.07710	-0.08555
3810.000	0.19770	0.16512	-0.02966	-0.18303
3811.000	0.17991	0.21685	-0.04943	-0.15915
3812.000	0.21154	0.21685	-0.00395	-0.17308
3813.000	0.17002	0.21287	0.01977	-0.12931
3814.000	0.17793	0.19098	-0.02966	-0.12334
3815.000	0.20561	0.17706	0.10083	-0.12136
3816.000	0.17200	0.18502	-0.00791	-0.13926
3817.000	0.22735	0.21685	-0.06326	-0.16512
3818.000	0.20561	0.17507	0.01384	-0.13130
3819.000	0.18188	0.19695	-0.00198	-0.15319
3820.000	0.19375	0.17109	0.00395	-0.12931
3821.000	0.22340	0.20491	-0.04745	-0.11539
3822.000	0.22340	0.14722	0.01384	-0.11539
3823.000	0.22142	0.19894	0.00198	-0.09947
3824.000	0.19572	0.18899	-0.00198	-0.15518
3825.000	0.21945	0.14921	0.05733	-0.13926
3826.000	0.24910	0.16313	-0.01977	-0.16512
3827.000	0.23724	0.16910	-0.00791	-0.12533
3828.000	0.22735	0.19894	-0.04547	-0.05769
3829.000	0.21945	0.20491	0.02372	-0.10146
3830.000	0.20758	0.18899	-0.00395	-0.12931
3831.000	0.20363	0.20690	-0.06326	-0.07759
3832.000	0.17793	0.16313	-0.03954	-0.09549
3833.000	0.19770	0.18899	-0.05733	-0.18502
3834.000	0.23329	0.14722	-0.01977	-0.04178
3835.000	0.19770	0.16313	-0.05536	-0.12931
3836.000	0.22142	0.21287	-0.00791	-0.14523
3837.000	0.19375	0.18502	-0.00198	-0.12732
3838.000	0.22735	0.19695	-0.12455	-0.09350
3839.000	0.19968	0.14523	-0.05140	-0.07560
3840.000	0.20561	0.22679	-0.02768	-0.10544
3841.000	0.22538	0.16512	0.02966	-0.17308
3842.000	0.23329	0.19496	0.02175	-0.16910
3843.000	0.15421	0.17706	-0.02966	-0.14921
3844.000	0.18188	0.17507	-0.01779	-0.10942
3845.000	0.21352	0.16512	-0.02966	-0.12931
3846.000	0.23131	0.19894	0.01779	-0.16711
3847.000	0.24910	0.17308	-0.01779	-0.14125
3848.000	0.21549	0.20889	0.01186	-0.16711
3849.000	0.20956	0.21287	-0.03361	-0.09947
3850.000	0.21747	0.16711	0.02768	-0.12732
3851.000	0.19177	0.17706	-0.02175	-0.10743
3852.000	0.18188	0.12931	-0.04349	-0.12931
3853.000	0.23922	0.17905	0.00198	-0.17109
3854.000	0.22933	0.19297	-0.01582	-0.12334
3855.000	0.21549	0.17507	0.03163	-0.05570
3856.000	0.24910	0.17109	-0.07908	-0.10345
3857.000	0.21549	0.15319	-0.02175	-0.13727
3858.000	0.18781	0.15120	0.01384	-0.13727
3859.000	0.20165	0.18104	-0.01384	-0.15518
3860.000	0.23329	0.18899	0.02175	-0.16512
3861.000	0.20165	0.18502	-0.03361	-0.14921
3862.000	0.16014	0.16910	-0.07315	-0.18104
3863.000	0.19177	0.16910	-0.05140	-0.13926
3864.000	0.20956	0.17308	-0.02372	-0.16512
3865.000	0.20758	0.17308	0.04152	-0.17109
3866.000	0.20363	0.20093	-0.06326	-0.14921
3867.000	0.18584	0.13926	-0.01582	-0.16114
3868.000	0.17793	0.18104	0.05536	-0.16512
3869.000	0.20758	0.13727	-0.01582	-0.21486
3870.000	0.19375	0.13130	0.11862	-0.12334
3871.000	0.18188	0.16512	0.00395	-0.17507
3872.000	0.17200	0.14722	0.02768	-0.12334
3873.000	0.22142	0.17109	-0.02768	-0.10345
3874.000	0.20956	0.11539	0.00198	-0.12334
3875.000	0.15816	0.13727	0.00198	-0.14921
3876.000	0.17002	0.15319	-0.02372	-0.13926
3877.000	0.17398	0.14921	-0.03756	-0.09549
3878.000	0.18188	0.14324	-0.00198	-0.14324
3879.000	0.20363	0.09350	0.00198	-0.13727
3880.000	0.17793	0.15517	-0.00593	-0.14125
3881.000	0.13839	0.11738	-0.03756	-0.16512
3882.000	0.15618	0.15915	0.01582	-0.14921
3883.000	0.15816	0.10544	-0.04745	-0.17706
3884.000	0.17595	0.12135	-0.01977	-0.13528
3885.000	0.15421	0.17706	0.01779	-0.14125
3886.000	0.22735	0.12334	-0.01384	-0.16114
3887.000	0.21352	0.12533	0.02768	-0.18502
3888.000	0.21945	0.14722	-0.02372	-0.17905
3889.000	0.17793	0.12732	-0.01779	-0.15717
3890.000	0.17200	0.17308	-0.03163	-0.19695
3891.000	0.18386	0.12533	-0.02175	-0.07560
3892.000	0.18386	0.15915	-0.02175	-0.14523
3893.000	0.18979	0.12931	0.00395	-0.12732
3894.000	0.17200	0.16114	-0.04943	-0.13329
3895.000	0.20165	0.19496	0.01779	-0.11340
3896.000	0.19968	0.13329	0.00395	-0.16114
3897.000	0.20561	0.13528	0.04745	-0.16910
3898.000	0.21549	0.15517	-0.07710	-0.13727
3899.000	0.17595	0.15716	0.00791	-0.15717
3900.000	0.21549	0.13727	-0.00791	-0.16114
3901.000	0.20758	0.13528	-0.07908	-0.21486
3902.000	0.18781	0.14125	-0.05140	-0.16711
3903.000	0.22340	0.12931	-0.03756	-0.09350
3904.000	0.12850	0.13727	-0.06129	-0.14921
3905.000	0.19177	0.13329	0.03756	-0.20292
3906.000	0.17002	0.11141	-0.03361	-0.14125
3907.000	0.17991	0.13727	0.00593	-0.18104
3908.000	0.16014	0.12334	-0.04943	-0.14523
3909.000	0.20363	0.11340	0.03559	-0.21486
3910.000	0.17398	0.14523	0.00791	-0.12533
3911.000	0.18188	0.12533	-0.00791	-0.25465
3912.000	0.20956	0.11937	0.00791	-0.19297
3913.000	0.23724	0.16711	-0.00198	-0.13727
3914.000	0.19968	0.12533	-0.04745	-0.13528
3915.000	0.21747	0.14523	-0.06524	-0.18502
3916.000	0.16607	0.12135	0.00198	-0.09947
3917.000	0.18781	0.10544	-0.00395	-0.13130
3918.000	0.20561	0.10544	-0.04547	-0.14324
3919.000	0.20363	0.09549	-0.07117	-0.10743
3920.000	0.21154	0.10345	-0.05536	-0.13528
3921.000	0.20165	0.12732	-0.01186	-0.13130
3922.000	0.19770	0.09549	0.05338	-0.10942
3923.000	0.23526	0.10743	-0.02372	-0.11937
3924.000	0.22142	0.09350	0.04349	-0.14324
3925.000	0.20956	0.14921	-0.09094	-0.11141
3926.000	0.18188	0.11937	-0.05733	-0.15319
3927.000	0.20758	0.11340	-0.05733	-0.18701
3928.000	0.19968	0.09947	-0.02570	-0.14324
3929.000	0.19968	0.12334	-0.04547	-0.09947
3930.000	0.19375	0.13926	-0.02570	-0.18900
3931.000	0.23922	0.10146	-0.08501	-0.12136
3932.000	0.17002	0.08555	-0.08106	-0.15319
3933.000	0.20758	0.11539	0.03361	-0.16114
3934.000	0.19968	0.09151	-0.00791	-0.17507
3935.000	0.20363	0.10345	-0.01582	-0.12334
3936.000	0.17991	0.10743	-0.05338	-0.23276
3937.000	0.19770	0.11340	-0.01582	-0.16512
3938.000	0.24712	0.11539	-0.09292	-0.13329
3939.000	0.20165	0.16114	-0.05536	-0.14722
3940.000	0.22538	0.15120	-0.00395	-0.07759
3941.000	0.21549	0.10544	-0.02175	-0.10743
3942.000	0.13641	0.11539	0.02570	-0.13926
3943.000	0.24910	0.12533	-0.09094	-0.15716
3944.000	0.16607	0.12732	-0.03361	-0.18303
3945.000	0.17398	0.09151	-0.01186	-0.19496
3946.000	0.22538	0.08157	-0.05733	-0.10544
3947.000	0.17793	0.10743	-0.06326	-0.22679
3948.000	0.16804	0.09151	-0.03954	-0.23674
3949.000	0.18979	0.12931	-0.07117	-0.22679
3950.000	0.18188	0.09350	-0.00791	-0.15915
3951.000	0.20956	0.10544	-0.08501	-0.19894
3952.000	0.22142	0.13926	-0.10280	-0.16910
3953.000	0.17793	0.11340	-0.04745	-0.16114
3954.000	0.19375	0.08952	-0.07710	-0.23873
3955.000	0.20561	0.14125	-0.09292	-0.21287
3956.000	0.23131	0.10146	-0.06326	-0.15319
3957.000	0.24712	0.14722	-0.00593	-0.17308
3958.000	0.24119	0.09748	-0.06920	-0.16910
3959.000	0.20165	0.08952	-0.08699	-0.17109
3960.000	0.21549	0.11937	-0.03954	-0.11340
3961.000	0.19572	0.13727	-0.08303	-0.17109
3962.000	0.18386	0.14722	0.01582	-0.20292
3963.000	0.21945	0.12334	-0.04745	-0.13130
3964.000	0.21352	0.09549	0.00791	-0.17905
3965.000	0.20165	0.12732	0.02570	-0.22878
3966.000	0.19572	0.09151	-0.03559	-0.13926
3967.000	0.21352	0.12334	-0.12850	-0.14125
3968.000	0.20561	0.06764	0.05140	-0.19297
3969.000	0.17793	0.08157	0.02175	-0.18104
3970.000	0.20363	0.06963	-0.04547	-0.18701
3971.000	0.21945	0.09748	-0.08501	-0.15319
3972.000	0.23922	0.08952	-0.05733	-0.15319
3973.000	0.23131	0.10146	-0.06129	-0.13926
3974.000	0.18188	0.10743	-0.07117	-0.18104
3975.000	0.20956	0.13329	-0.05931	-0.16313
3976.000	0.20363	0.14921	-0.06920	-0.18900
3977.000	0.21747	0.08753	0.00198	-0.18502
3978.000	0.23724	0.06565	-0.05140	-0.21884
3979.000	0.22933	0.07162	-0.09490	-0.22282
3980.000	0.17200	0.06565	0.00791	-0.24868
3981.000	0.19177	0.06366	-0.06920	-0.21486
3982.000	0.21747	0.09151	-0.06722	-0.22878
3983.000	0.21747	0.07958	-0.03756	-0.21486
3984.000	0.22933	0.05968	-0.05931	-0.24868
3985.000	0.22340	0.07560	-0.01779	-0.20889
3986.000	0.22340	0.10743	-0.05536	-0.22083
3987.000	0.20561	0.08356	-0.08699	-0.14722
3988.000	0.22142	0.05371	-0.04547	-0.17109
3989.000	0.22735	0.06764	0.00198	-0.23276
3990.000	0.20363	0.04974	0.02768	-0.16114
3991.000	0.19572	0.08555	-0.08106	-0.15319
3992.000	0.21154	0.03979	-0.03361	-0.18303
3993.000	0.21352	0.05968	-0.06524	-0.18900
3994.000	0.20165	0.03780	-0.07513	-0.23674
3995.000	0.23526	0.06963	-0.03954	-0.19695
3996.000	0.22340	0.11539	0.03954	-0.18104
3997.000	0.20758	0.11738	-0.03163	-0.19695
3998.000	0.22933	0.12732	-0.09292	-0.19496
3999.000	0.17991	0.12334	-0.13641	-0.16114
4000.000	0.19770	0.16313	-0.07117	-0.11141
4001.000	0.16211	0.15518	-0.05338	-0.03581
4002.000	0.10280	0.24072	-0.15025	-0.09748
4003.000	0.08106	0.26260	-0.23131	-0.01592
4004.000	0.01779	0.36207	-0.20561	-0.00995
4005.000	-0.02768	0.38992	-0.36574	0.12334
4006.000	-0.15025	0.46751	-0.49424	0.21286
4007.000	-0.17991	0.55304	-0.51401	0.28448
4008.000	-0.26096	0.59879	-0.59901	0.37200
4009.000	-0.35981	0.67835	-0.74726	0.37597
4010.000	-0.41121	0.72410	-0.63064	0.47345
4011.000	-0.43691	0.79769	-0.62075	0.56097
4012.000	-0.41912	0.88521	-0.71366	0.55897
4013.000	-0.42505	0.95879	-0.73738	0.66439
4014.000	-0.41912	0.92299	-0.71959	0.77577
4015.000	-0.35586	0.98664	-0.68203	0.68031
4016.000	-0.30643	1.01250	-0.66424	0.78970
4017.000	-0.24515	1.03637	-0.51203	0.75392
4018.000	-0.12257	0.99859	-0.52389	0.70221
4019.000	-0.04943	0.99462	-0.51401	0.74199
4020.000	-0.01977	0.99064	-0.34993	0.71217
4021.000	0.04349	0.96280	-0.37365	0.71217
4022.000	0.05931	0.87329	-0.19572	0.66842
4023.000	0.09490	0.84346	-0.22340	0.64057
4024.000	0.05140	0.81959	-0.22735	0.60476
4025.000	0.08699	0.78976	-0.21945	0.53912
4026.000	0.08303	0.73605	-0.28271	0.44960
4027.000	0.06524	0.70820	-0.21747	0.46750
4028.000	0.04349	0.63858	-0.24910	0.44562
4029.000	-0.01384	0.61073	-0.25305	0.35809
4030.000	0.01384	0.59681	-0.40133	0.38395
4031.000	-0.02175	0.55106	-0.31236	0.41976
4032.000	0.00000	0.58487	-0.33411	0.39390
4033.000	-0.03559	0.53116	-0.36969	0.31034
4034.000	-0.02570	0.59681	-0.31632	0.34814
4035.000	-0.02768	0.60278	-0.40528	0.36803
4036.000	-0.03163	0.58885	-0.36179	0.36008
4037.000	-0.04943	0.57493	-0.35190	0.36406
4038.000	-0.07513	0.58288	-0.39935	0.39190
4039.000	-0.08106	0.63063	-0.37760	0.42771
4040.000	-0.06326	0.63659	-0.32620	0.47347
4041.000	-0.11071	0.65847	-0.41319	0.50529
4042.000	-0.10280	0.69627	-0.35586	0.43567
4043.000	-0.08699	0.67041	-0.38749	0.44561
4044.000	-0.08897	0.73008	-0.38749	0.53911
4045.000	-0.08699	0.73008	-0.48040	0.57491
4046.000	-0.15816	0.70024	-0.45272	0.55701
4047.000	-0.11862	0.73804	-0.40330	0.49336
4048.000	-0.15421	0.72212	-0.37563	0.49734
4049.000	-0.07908	0.74401	-0.36574	0.56895
4050.000	-0.10478	0.73406	-0.43296	0.47943
4051.000	-0.07710	0.75992	-0.38551	0.50529
4052.000	-0.04745	0.75594	-0.41121	0.54508
4053.000	-0.09687	0.76191	-0.40726	0.51325
4054.000	-0.07315	0.74997	-0.41319	0.53314
4055.000	-0.06524	0.74202	-0.37760	0.52519
4056.000	-0.07513	0.73406	-0.47645	0.55104
4057.000	-0.09687	0.77981	-0.40330	0.47744
4058.000	-0.05338	0.75196	-0.41319	0.53712
4059.000	-0.07315	0.73605	-0.41912	0.49534
4060.000	-0.06524	0.77384	-0.36772	0.53115
4061.000	-0.10676	0.76589	-0.44284	0.52120
4062.000	-0.05733	0.75196	-0.51203	0.55501
4063.000	-0.04152	0.76589	-0.39935	0.55502
4064.000	-0.05536	0.78180	-0.39342	0.52121
4065.000	-0.06129	0.78777	-0.37958	0.50131
4066.000	-0.08501	0.76191	-0.40726	0.48540
4067.000	-0.02570	0.77782	-0.42307	0.56497
4068.000	-0.02966	0.80567	-0.41912	0.49335
4069.000	-0.07908	0.73605	-0.40726	0.48938
4070.000	-0.00989	0.76390	-0.32620	0.49336
4071.000	-0.01977	0.72809	-0.33806	0.48938
4072.000	-0.04745	0.77384	-0.43889	0.47943
4073.000	-0.04547	0.76987	-0.40330	0.54110
4074.000	-0.04152	0.75196	-0.36772	0.54110
4075.000	-0.04547	0.74600	-0.41714	0.49932
4076.000	-0.03361	0.76589	-0.41912	0.49335
4077.000	-0.03756	0.76788	-0.32422	0.51325
4078.000	-0.03559	0.76589	-0.40923	0.54905
4079.000	-0.03559	0.75395	-0.41912	0.54309
4080.000	-0.02570	0.79373	-0.47842	0.57889
4081.000	-0.08303	0.76589	-0.50610	0.47147
4082.000	-0.00989	0.78777	-0.34004	0.50927
4083.000	-0.07908	0.80766	-0.41121	0.48142
4084.000	-0.06524	0.76788	-0.39539	0.45357
4085.000	-0.02372	0.79572	-0.42702	0.54905
4086.000	-0.03954	0.77981	-0.42109	0.46352
4087.000	-0.08699	0.77583	-0.47447	0.52319
4088.000	-0.05931	0.80567	-0.44679	0.47744
4089.000	-0.03163	0.78180	-0.43296	0.49932
4090.000	-0.02570	0.77384	-0.45865	0.51324
4091.000	-0.04943	0.73605	-0.41714	0.49932
4092.000	-0.06524	0.76191	-0.40726	0.47346
4093.000	-0.05931	0.78777	-0.44482	0.47744
4094.000	-0.04152	0.73605	-0.34993	0.52519
4095.000	-0.01384	0.74003	-0.42505	0.51921
4096.000	-0.04745	0.76788	-0.40726	0.47943
4097.000	-0.04745	0.80766	-0.41319	0.45158
4098.000	-0.07513	0.73207	-0.40528	0.54110
4099.000	-0.04745	0.72412	-0.41516	0.46551
4100.000	-0.03954	0.81362	-0.46459	0.49534
4101.000	-0.01582	0.78180	-0.44877	0.47346
4102.000	-0.05931	0.75395	-0.39737	0.48540
4103.000	-0.06920	0.79970	-0.43889	0.49335
4104.000	-0.11467	0.82556	-0.37365	0.42572
4105.000	-0.09094	0.78180	-0.45075	0.50927
4106.000	-0.08699	0.80567	-0.44284	0.48341
4107.000	-0.12455	0.77384	-0.45075	0.46948
4108.000	-0.09094	0.81163	-0.35586	0.53911
4109.000	-0.10280	0.74997	-0.44482	0.51325
4110.000	-0.04547	0.77583	-0.39737	0.51922
4111.000	-0.07710	0.77583	-0.45668	0.43368
4112.000	-0.07908	0.78976	-0.42109	0.46948
4113.000	-0.12060	0.74599	-0.45470	0.43169
4114.000	-0.07117	0.77583	-0.43493	0.53314
4115.000	-0.10874	0.73804	-0.42307	0.46352
4116.000	-0.09292	0.78777	-0.40330	0.49535
4117.000	-0.06920	0.80169	-0.38551	0.43368
4118.000	-0.10083	0.73207	-0.41121	0.48938
4119.000	-0.10280	0.75196	-0.41121	0.52916
4120.000	-0.01384	0.74401	-0.40726	0.41577
4121.000	-0.08501	0.75793	-0.47447	0.52717
4122.000	-0.06920	0.71815	-0.41912	0.47346
4123.000	-0.10280	0.70422	-0.41714	0.43965
4124.000	-0.08897	0.74003	-0.38156	0.45556
4125.000	-0.07710	0.70224	-0.46854	0.45556
4126.000	-0.10083	0.71616	-0.41121	0.49932
4127.000	-0.06524	0.76191	-0.39144	0.50927
4128.000	-0.03756	0.76390	-0.43493	0.45158
4129.000	-0.07117	0.76589	-0.38353	0.42373
4130.000	-0.07513	0.72213	-0.46656	0.38593
4131.000	-0.06129	0.71218	-0.40726	0.42771
4132.000	-0.04943	0.71019	-0.38551	0.47148
4133.000	-0.01384	0.73008	-0.37563	0.42970
4134.000	-0.01977	0.73804	-0.46656	0.45755
4135.000	-0.05733	0.74003	-0.45075	0.43765
4136.000	-0.06129	0.73008	-0.49028	0.41776
4137.000	-0.05140	0.74600	-0.38551	0.42572
4138.000	-0.05338	0.72809	-0.40528	0.48341
4139.000	-0.06524	0.74202	-0.41714	0.37599
4140.000	-0.07513	0.72213	-0.35783	0.38594
4141.000	-0.05733	0.70820	-0.39737	0.48540
4142.000	-0.07315	0.73008	-0.46261	0.49136
4143.000	-0.03559	0.68433	-0.53180	0.39190
4144.000	-0.07710	0.74003	-0.42702	0.43964
4145.000	-0.08303	0.69030	-0.34399	0.45755
4146.000	-0.08897	0.69627	-0.40726	0.43567
4147.000	-0.03361	0.72809	-0.41516	0.44163
4148.000	-0.06326	0.70422	-0.42505	0.48142
4149.000	-0.08106	0.74798	-0.47052	0.40582
4150.000	-0.06722	0.72412	-0.35981	0.48739
4151.000	-0.03361	0.70621	-0.36969	0.46153
4152.000	-0.04943	0.69428	-0.41912	0.47545
4153.000	-0.03361	0.72213	-0.36969	0.40981
4154.000	-0.04547	0.70820	-0.44086	0.49335
4155.000	-0.02570	0.74600	-0.44877	0.44760
4156.000	-0.07315	0.69428	-0.45668	0.39389
4157.000	-0.05931	0.71417	-0.42702	0.46551
4158.000	-0.06920	0.69826	-0.43098	0.41577
4159.000	-0.04547	0.72412	-0.43493	0.41179
4160.000	-0.07513	0.70820	-0.46854	0.45158
4161.000	-0.08699	0.70621	-0.45075	0.38195
4162.000	-0.04943	0.73804	-0.42900	0.48142
4163.000	-0.06129	0.71417	-0.41121	0.42572
4164.000	-0.07908	0.68831	-0.36376	0.42174
4165.000	-0.08303	0.68831	-0.38946	0.43368
4166.000	-0.07117	0.70820	-0.43098	0.48739
4167.000	-0.07315	0.73406	-0.38749	0.39190
4168.000	-0.08303	0.74401	-0.36574	0.40981
4169.000	-0.08106	0.73008	-0.38749	0.44959
4170.000	-0.11269	0.73008	-0.33806	0.48341
4171.000	-0.05931	0.70621	-0.42702	0.46948
4172.000	-0.09292	0.69030	-0.44877	0.48739
4173.000	-0.07908	0.65450	-0.45075	0.36405
4174.000	-0.07513	0.70820	-0.40330	0.42174
4175.000	-0.03361	0.68831	-0.40923	0.42771
4176.000	-0.03559	0.75594	-0.45668	0.52319
4177.000	-0.03163	0.68036	-0.39342	0.40782
4178.000	-0.01186	0.72412	-0.41714	0.46948
4179.000	-0.03361	0.69428	-0.36574	0.40583
4180.000	-0.09094	0.64654	-0.47842	0.42373
4181.000	-0.02966	0.69428	-0.42307	0.41975
4182.000	-0.04152	0.69428	-0.37958	0.43368
4183.000	-0.05338	0.69030	-0.40330	0.38594
4184.000	-0.04745	0.73207	-0.41516	0.43368
4185.000	-0.07908	0.75594	-0.39737	0.39787
4186.000	-0.05733	0.70820	-0.38353	0.47148
4187.000	-0.07908	0.74003	-0.34399	0.46153
4188.000	-0.03361	0.71815	-0.39737	0.36803
4189.000	-0.07117	0.69428	-0.34399	0.41180
4190.000	-0.07710	0.69826	-0.34202	0.39588
4191.000	-0.01582	0.74799	-0.37167	0.41777
4192.000	-0.04547	0.73207	-0.45075	0.47943
4193.000	-0.04745	0.73406	-0.41121	0.43169
4194.000	-0.03954	0.71616	-0.40133	0.38991
4195.000	-0.08897	0.72213	-0.43098	0.44959
4196.000	-0.04547	0.69826	-0.44086	0.40782
4197.000	-0.05733	0.71019	-0.43691	0.44362
4198.000	-0.06722	0.72014	-0.38749	0.40782
4199.000	-0.07908	0.77583	-0.38946	0.42373
4200.000	-0.08501	0.77583	-0.39539	0.39787
4201.000	-0.04152	0.75395	-0.42307	0.42174
4202.000	-0.03756	0.72611	-0.39737	0.42970
4203.000	-0.05931	0.71019	-0.41319	0.42970
4204.000	-0.03559	0.77782	-0.36772	0.44760
4205.000	-0.07908	0.71019	-0.40528	0.46750
4206.000	-0.06129	0.72412	-0.39539	0.46551
4207.000	-0.08699	0.74401	-0.40133	0.43368
4208.000	-0.05931	0.76589	-0.41714	0.40185
4209.000	-0.08106	0.72412	-0.29852	0.41777
4210.000	-0.05140	0.71218	-0.38551	0.48142
4211.000	-0.07117	0.74799	-0.39342	0.45755
4212.000	-0.09885	0.70621	-0.34993	0.44164
4213.000	-0.13246	0.70223	-0.40133	0.44959
4214.000	-0.08501	0.73605	-0.42900	0.39787
4215.000	-0.02966	0.78379	-0.39342	0.40782
4216.000	-0.08303	0.76191	-0.36179	0.46949
4217.000	-0.06524	0.71019	-0.32027	0.37798
4218.000	-0.08501	0.75793	-0.34399	0.42175
4219.000	-0.06920	0.72014	-0.38156	0.40981
4220.000	-0.05733	0.74401	-0.38749	0.41379
4221.000	-0.04745	0.77185	-0.37365	0.41379
4222.000	-0.12060	0.71218	-0.41319	0.42174
4223.000	-0.14234	0.73605	-0.40726	0.41975
4224.000	-0.06129	0.72611	-0.42505	0.45158
4225.000	-0.07908	0.72610	-0.30841	0.41976
4226.000	-0.10280	0.69229	-0.35388	0.42174
4227.000	-0.09292	0.73605	-0.33609	0.38594
4228.000	-0.08699	0.70422	-0.30643	0.45159
4229.000	-0.06326	0.74202	-0.44482	0.46550
4230.000	-0.09885	0.73406	-0.47249	0.47346
4231.000	-0.10676	0.73406	-0.36376	0.37201
4232.000	-0.09292	0.72014	-0.30643	0.44960
4233.000	-0.10478	0.68831	-0.35388	0.38992
4234.000	-0.05931	0.71815	-0.35388	0.41777
4235.000	-0.12060	0.74599	-0.38749	0.42970
4236.000	-0.14432	0.73605	-0.33609	0.46750
4237.000	-0.09687	0.74600	-0.34202	0.42970
4238.000	-0.10280	0.72412	-0.34597	0.48341
4239.000	-0.10478	0.71019	-0.28073	0.36008
4240.000	-0.07117	0.74003	-0.38749	0.37201
4241.000	-0.10083	0.70621	-0.38551	0.44561
4242.000	-0.07117	0.70422	-0.31829	0.42573
4243.000	-0.08501	0.74997	-0.33411	0.44363
4244.000	-0.08501	0.69030	-0.46063	0.44959
4245.000	-0.09687	0.68035	-0.38551	0.37997
4246.000	-0.08501	0.74202	-0.28271	0.41578
4247.000	-0.09885	0.70820	-0.36772	0.40384
4248.000	-0.08303	0.71218	-0.37958	0.42174
4249.000	-0.14234	0.71815	-0.30248	0.41976
4250.000	-0.06920	0.74202	-0.39935	0.45556
4251.000	-0.12850	0.73406	-0.37563	0.37599
4252.000	-0.10280	0.73008	-0.34399	0.37201
4253.000	-0.09094	0.72213	-0.29655	0.40583
4254.000	-0.10280	0.71815	-0.35783	0.40782
4255.000	-0.08501	0.73008	-0.35388	0.44363
4256.000	-0.10676	0.71417	-0.32225	0.45357
4257.000	-0.08699	0.69229	-0.34004	0.41180
4258.000	-0.13246	0.73804	-0.44679	0.47346
4259.000	-0.09292	0.71616	-0.32027	0.39589
4260.000	-0.09687	0.71616	-0.30248	0.44960
4261.000	-0.07908	0.74202	-0.39737	0.47545
4262.000	-0.12060	0.73605	-0.34202	0.47943
4263.000	-0.10478	0.70621	-0.41121	0.45755
4264.000	-0.08699	0.73804	-0.35586	0.47347
4265.000	-0.14630	0.70024	-0.34202	0.41578
4266.000	-0.10874	0.72610	-0.39342	0.47545
4267.000	-0.10478	0.72412	-0.32422	0.35610
4268.000	-0.07908	0.72014	-0.32027	0.40384
4269.000	-0.11071	0.70422	-0.37563	0.44164
4270.000	-0.10083	0.72809	-0.36969	0.42970
4271.000	-0.08106	0.78379	-0.39342	0.49137
4272.000	-0.09094	0.74003	-0.35388	0.40583
4273.000	-0.11269	0.76788	-0.39144	0.50131
4274.000	-0.10676	0.73008	-0.26294	0.37599
4275.000	-0.09094	0.72213	-0.37958	0.39588
4276.000	-0.10874	0.71417	-0.25899	0.44761
4277.000	-0.10874	0.74798	-0.31829	0.47148
4278.000	-0.08897	0.74401	-0.32620	0.40782
4279.000	-0.08303	0.72809	-0.31632	0.40782
4280.000	-0.08106	0.76191	-0.28271	0.47546
4281.000	-0.09490	0.70422	-0.30248	0.40583
4282.000	-0.04745	0.76390	-0.28864	0.44562
4283.000	-0.05338	0.74401	-0.30841	0.46352
4284.000	-0.10478	0.73207	-0.27282	0.46750
4285.000	-0.05931	0.75793	-0.37563	0.42572
4286.000	-0.14432	0.74599	-0.35586	0.47943
4287.000	-0.07117	0.78578	-0.36376	0.46750
4288.000	-0.07908	0.78180	-0.31236	0.39191
4289.000	-0.11269	0.74202	-0.30446	0.44363
4290.000	-0.11664	0.79174	-0.32027	0.46949
4291.000	-0.08106	0.74997	-0.33609	0.38793
4292.000	-0.04547	0.78578	-0.33016	0.42771
4293.000	-0.07710	0.75793	-0.35981	0.45158
4294.000	-0.03756	0.71815	-0.33806	0.46551
4295.000	-0.02966	0.74202	-0.39144	0.48142
4296.000	-0.07315	0.76788	-0.25108	0.38196
4297.000	-0.06129	0.70820	-0.34597	0.47347
4298.000	-0.05931	0.74997	-0.26887	0.37202
4299.000	-0.03163	0.73207	-0.30841	0.39788
4300.000	-0.02372	0.74202	-0.33609	0.46750
4301.000	-0.07513	0.77583	-0.28469	0.51922
4302.000	-0.04943	0.74600	-0.36179	0.46551
4303.000	-0.08106	0.80169	-0.29655	0.46750
4304.000	-0.03954	0.78578	-0.31236	0.40384
4305.000	-0.08699	0.76191	-0.30841	0.46153
4306.000	-0.01186	0.75793	-0.27282	0.46750
4307.000	-0.00791	0.73605	-0.31632	0.43567
4308.000	-0.04152	0.78578	-0.27678	0.46949
4309.000	-0.05536	0.73804	-0.34795	0.44761
4310.000	-0.05338	0.77384	-0.18386	0.41976
4311.000	-0.05733	0.75395	-0.34597	0.37201
4312.000	-0.05338	0.76987	-0.24119	0.47148
4313.000	-0.04349	0.75793	-0.33411	0.43766
4314.000	-0.06524	0.72412	-0.28864	0.45557
4315.000	-0.01977	0.77185	-0.27085	0.41578
4316.000	-0.05338	0.71019	-0.31039	0.46352
4317.000	-0.05338	0.73008	-0.31632	0.50331
4318.000	-0.02768	0.75395	-0.31632	0.46949
4319.000	-0.04745	0.73605	-0.37760	0.41578
4320.000	-0.01384	0.72809	-0.30248	0.43368
4321.000	-0.01582	0.75992	-0.31434	0.47745
4322.000	-0.07513	0.75594	-0.31434	0.43965
4323.000	-0.06722	0.73605	-0.23526	0.43965
4324.000	-0.02768	0.75594	-0.33609	0.44761
4325.000	-0.02175	0.74997	-0.27480	0.42573
4326.000	-0.05733	0.71019	-0.27876	0.42573
4327.000	-0.07315	0.72014	-0.29655	0.42374
4328.000	-0.03954	0.73406	-0.38156	0.40583
4329.000	-0.01186	0.74003	-0.31236	0.41180
4330.000	-0.05931	0.72809	-0.31039	0.37599
4331.000	-0.08699	0.75793	-0.27876	0.39987
4332.000	-0.05338	0.75395	-0.32225	0.44960
4333.000	-0.08501	0.68831	-0.25108	0.44363
4334.000	-0.04349	0.70224	-0.25899	0.47347
4335.000	-0.02175	0.73008	-0.29655	0.47944
4336.000	-0.05733	0.73406	-0.27876	0.49535
4337.000	-0.05338	0.71417	-0.25701	0.46949
4338.000	-0.09094	0.71417	-0.31236	0.43965
4339.000	-0.10874	0.72213	-0.27085	0.43368
4340.000	-0.07117	0.72809	-0.32620	0.55105
4341.000	-0.05536	0.75395	-0.25503	0.41180
4342.000	-0.03756	0.74202	-0.35190	0.44363
4343.000	-0.03559	0.74401	-0.32620	0.46153
4344.000	-0.03559	0.72809	-0.35388	0.46750
4345.000	-0.07117	0.74202	-0.28666	0.44363
4346.000	-0.06722	0.71218	-0.28864	0.41379
4347.000	-0.03954	0.73605	-0.26492	0.47944
4348.000	-0.07908	0.67638	-0.29457	0.50928
4349.000	-0.08897	0.70224	-0.35586	0.47744
4350.000	-0.03954	0.72809	-0.33806	0.43766
4351.000	-0.06129	0.71417	-0.35190	0.45357
4352.000	-0.07315	0.70422	-0.38156	0.45556
4353.000	-0.08501	0.71417	-0.31039	0.45755
4354.000	-0.04745	0.72412	-0.29655	0.43766
4355.000	-0.08106	0.70224	-0.30248	0.48341
4356.000	-0.04349	0.73406	-0.26689	0.46551
4357.000	-0.04152	0.75992	-0.35190	0.45357
4358.000	-0.09885	0.73008	-0.28271	0.49734
4359.000	-0.03163	0.72014	-0.33016	0.47148
4360.000	-0.08106	0.70422	-0.26689	0.43766
4361.000	-0.04349	0.73008	-0.33411	0.50530
4362.000	-0.05931	0.80766	-0.32225	0.40981
4363.000	-0.07710	0.73406	-0.31829	0.48540
4364.000	-0.01384	0.74600	-0.30248	0.45358
4365.000	-0.03361	0.74401	-0.28864	0.43766
4366.000	-0.11664	0.69229	-0.34202	0.45755
4367.000	-0.08501	0.72809	-0.26887	0.49336
4368.000	-0.06326	0.73406	-0.29259	0.51723
4369.000	-0.02966	0.73008	-0.30050	0.41777
4370.000	-0.10280	0.73406	-0.28864	0.48143
4371.000	-0.08501	0.70224	-0.31236	0.48341
4372.000	-0.07513	0.73605	-0.29457	0.46551
4373.000	-0.10083	0.71815	-0.25899	0.47546
4374.000	-0.07710	0.72014	-0.41319	0.50728
4375.000	-0.05338	0.73804	-0.32818	0.36207
4376.000	-0.01977	0.70621	-0.29457	0.48739
4377.000	-0.07710	0.71815	-0.22933	0.47148
4378.000	-0.07513	0.75793	-0.32620	0.48341
4379.000	-0.07710	0.70224	-0.28271	0.43766
4380.000	-0.05733	0.70422	-0.34004	0.45954
4381.000	-0.06326	0.72809	-0.29457	0.49535
4382.000	-0.08303	0.71815	-0.31434	0.53712
4383.000	-0.04745	0.71616	-0.28864	0.44960
4384.000	-0.06722	0.70820	-0.29062	0.52320
4385.000	-0.03954	0.73207	-0.35190	0.48739
4386.000	-0.11664	0.73008	-0.31632	0.49137
4387.000	-0.01186	0.73406	-0.27480	0.44562
4388.000	-0.06129	0.71218	-0.30248	0.43169
4389.000	-0.08501	0.76191	-0.31434	0.50331
4390.000	-0.05140	0.71616	-0.25305	0.51127
4391.000	-0.02768	0.67837	-0.36179	0.49137
4392.000	-0.03361	0.72809	-0.30841	0.47745
4393.000	-0.03163	0.75594	-0.32818	0.48540
4394.000	-0.05140	0.68632	-0.32818	0.52121
4395.000	-0.02966	0.71019	-0.33016	0.48739
4396.000	-0.03756	0.72611	-0.30248	0.51524
4397.000	-0.05733	0.70820	-0.31236	0.45556
4398.000	-0.02768	0.72213	-0.31039	0.43169
4399.000	-0.05338	0.72213	-0.31434	0.46153
4400.000	-0.02768	0.73804	-0.31039	0.48739
4401.000	-0.06920	0.70820	-0.29259	0.47944
4402.000	-0.09094	0.72014	-0.26294	0.44164
4403.000	-0.03756	0.73207	-0.28666	0.53713
4404.000	-0.03361	0.72611	-0.28073	0.52917
4405.000	-0.04152	0.73406	-0.33016	0.39390
4406.000	-0.04547	0.70422	-0.26096	0.45756
4407.000	-0.06722	0.76987	-0.31829	0.42573
4408.000	-0.04349	0.73008	-0.29259	0.46949
4409.000	-0.03559	0.75992	-0.35586	0.49933
4410.000	-0.05733	0.72611	-0.31236	0.54309
4411.000	-0.04547	0.73207	-0.31039	0.46551
4412.000	-0.02175	0.74003	-0.33609	0.44164
