time (ms)	lx (deg)	ly (deg)	rx (deg)	ry (deg)
0.000	-1.30460	-3.23254	-1.53181	-3.49779
1.000	-1.26508	-3.20483	-1.48440	-3.62268
2.000	-1.24927	-3.26433	-1.56935	-3.57103
3.000	-1.28681	-3.25041	-1.42315	-3.53363
4.000	-1.24927	-3.28217	-1.50613	-3.58105
5.000	-1.27891	-3.23257	-1.51206	-3.51368
6.000	-1.29867	-3.25832	-1.49428	-3.52361
7.000	-1.29076	-3.26230	-1.54762	-3.55126
8.000	-1.27891	-3.25042	-1.53379	-3.55723
9.000	-1.30855	-3.25633	-1.47847	-3.62269
10.000	-1.30064	-3.24246	-1.51601	-3.60084
11.000	-1.29076	-3.23256	-1.52786	-3.57110
12.000	-1.32238	-3.24243	-1.49625	-3.55333
13.000	-1.30064	-3.24048	-1.53181	-3.54138
14.000	-1.28484	-3.26032	-1.50218	-3.58898
15.000	-1.25915	-3.26234	-1.44686	-3.58312
16.000	-1.21370	-3.23067	-1.49032	-3.56324
17.000	-1.27100	-3.25043	-1.53379	-3.60873
18.000	-1.23148	-3.25246	-1.47649	-3.57515
19.000	-1.26705	-3.23655	-1.54169	-3.62060
20.000	-1.27100	-3.24250	-1.43500	-3.55937
21.000	-1.30855	-3.23650	-1.46069	-3.51178
22.000	-1.25717	-3.24846	-1.39549	-3.54556
23.000	-1.26508	-3.21673	-1.44488	-3.58907
24.000	-1.26508	-3.27026	-1.44686	-3.56727
25.000	-1.24729	-3.22270	-1.46464	-3.54545
26.000	-1.29274	-3.22661	-1.51601	-3.56122
27.000	-1.27693	-3.21870	-1.50020	-3.55926
28.000	-1.25520	-3.22467	-1.57132	-3.55716
29.000	-1.27100	-3.17310	-1.51601	-3.59490
30.000	-1.30657	-3.18099	-1.41920	-3.51778
31.000	-1.24927	-3.22071	-1.45674	-3.49197
32.000	-1.25520	-3.23855	-1.47847	-3.55137
33.000	-1.23741	-3.19495	-1.46069	-3.51574
34.000	-1.24532	-3.22270	-1.48440	-3.53353
35.000	-1.27693	-3.27817	-1.47649	-3.59298
36.000	-1.22160	-3.19695	-1.53379	-3.56713
37.000	-1.23346	-3.24056	-1.41525	-3.49005
38.000	-1.28088	-3.23455	-1.43896	-3.61087
39.000	-1.25322	-3.17511	-1.49625	-3.58304
40.000	-1.28286	-3.23059	-1.47649	-3.56921
41.000	-1.29076	-3.21273	-1.52984	-3.56516
42.000	-1.31843	-3.18692	-1.49625	-3.54342
43.000	-1.26508	-3.18501	-1.46859	-3.58309
44.000	-1.30460	-3.19884	-1.45279	-3.58311
45.000	-1.27298	-3.20284	-1.46069	-3.56329
46.000	-1.26112	-3.18501	-1.51601	-3.55924
47.000	-1.30064	-3.20479	-1.42513	-3.57523
48.000	-1.27891	-3.19094	-1.45081	-3.48802
49.000	-1.28286	-3.18102	-1.48440	-3.59891
50.000	-1.30460	-3.23056	-1.47057	-3.56327
51.000	-1.27496	-3.22663	-1.44488	-3.51775
52.000	-1.19789	-3.22276	-1.51206	-3.57707
53.000	-1.27298	-3.20284	-1.43896	-3.54549
54.000	-1.30657	-3.20676	-1.48440	-3.56523
55.000	-1.28484	-3.20877	-1.44883	-3.58312
56.000	-1.28484	-3.20481	-1.51008	-3.64443
57.000	-1.30064	-3.22065	-1.51008	-3.60877
58.000	-1.27891	-3.19887	-1.42315	-3.63466
59.000	-1.20382	-3.12361	-1.33028	-3.51792
60.000	-1.14848	-3.06020	-1.35399	-3.34349
61.000	-1.07339	-3.01466	-1.19789	-3.21284
62.000	-0.94887	-2.90566	-1.05758	-3.10790
63.000	-0.75122	-2.67561	-0.92713	-2.85409
64.000	-0.52784	-2.43946	-0.67610	-2.60816
65.000	-0.30446	-2.23496	-0.47249	-2.30444
66.000	0.04547	-1.89325	-0.22340	-1.92702
67.000	0.22933	-1.62890	-0.07908	-1.50168
68.000	0.42109	-1.28294	0.07315	-1.11991
69.000	0.65041	-0.90904	0.21549	-0.77782
70.000	0.83028	-0.57487	0.44679	-0.37002
71.000	0.94887	-0.28445	0.62668	-0.04774
72.000	1.01607	-0.04177	0.71366	0.21285
73.000	0.99631	0.21880	0.63262	0.46549
74.000	1.00224	0.48931	0.63459	0.59279
75.000	0.86388	0.61862	0.64843	0.65247
76.000	0.76308	0.69621	0.46261	0.84343
77.000	0.59506	0.72607	0.36376	0.75195
78.000	0.36179	0.67636	0.25701	0.66046
79.000	0.17793	0.65250	0.10874	0.53912
80.000	0.00198	0.50530	-0.12257	0.43568
81.000	-0.14037	0.37202	-0.29852	0.16114
82.000	-0.24119	0.18502	-0.37167	-0.02387
83.000	-0.34399	0.00597	-0.41714	-0.19894
84.000	-0.33609	-0.13528	-0.52191	-0.35410
85.000	-0.33806	-0.27652	-0.64250	-0.53511
86.000	-0.36969	-0.45158	-0.52982	-0.77580
87.000	-0.34004	-0.66841	-0.47842	-0.88122
88.000	-0.33806	-0.78576	-0.40133	-0.93095
89.000	-0.24910	-0.84743	-0.30841	-1.06421
90.000	-0.18188	-0.91307	-0.24317	-1.00455
91.000	-0.11467	-0.95484	-0.18386	-1.07218
92.000	-0.07117	-1.02246	-0.11467	-1.02445
93.000	-0.05733	-0.95086	-0.09292	-1.03638
94.000	0.03756	-0.95683	-0.01384	-0.97871
95.000	0.03163	-0.91307	0.04943	-0.91506
96.000	0.05536	-0.86733	0.10676	-0.87528
97.000	0.12850	-0.79970	0.06326	-0.76987
98.000	0.14432	-0.74798	0.13641	-0.71019
99.000	0.12455	-0.66245	0.10676	-0.63858
100.000	0.13246	-0.63062	0.13641	-0.55106
101.000	0.16014	-0.54708	0.21549	-0.49933
102.000	0.15421	-0.50331	0.19375	-0.40584
103.000	0.19572	-0.44363	0.16409	-0.34616
104.000	0.18781	-0.37600	0.17595	-0.30438
105.000	0.19572	-0.32825	0.10280	-0.29841
106.000	0.19770	-0.30239	0.11269	-0.22083
107.000	0.22735	-0.30836	0.09292	-0.22679
108.000	0.24119	-0.28051	0.05931	-0.17308
109.000	0.21945	-0.29443	-0.03756	-0.12931
110.000	0.21352	-0.29443	0.04547	-0.22282
111.000	0.25701	-0.25663	0.00989	-0.20491
112.000	0.20165	-0.22281	0.03559	-0.22282
113.000	0.24515	-0.21883	0.07315	-0.17507
114.000	0.25503	-0.23674	0.04943	-0.23475
115.000	0.19968	-0.27653	0.04547	-0.15717
116.000	0.22142	-0.21884	-0.00593	-0.16313
117.000	0.24515	-0.22878	0.00395	-0.18502
118.000	0.17002	-0.27255	0.03559	-0.26061
119.000	0.18584	-0.29841	0.05338	-0.16711
120.000	0.17991	-0.26459	0.01977	-0.26857
121.000	0.17595	-0.25465	-0.05536	-0.21287
122.000	0.17793	-0.27454	0.01186	-0.26459
123.000	0.16804	-0.29244	0.05338	-0.22282
124.000	0.17793	-0.29642	0.03954	-0.31632
125.000	0.17200	-0.28051	-0.00198	-0.31632
126.000	0.18781	-0.30239	0.00791	-0.22679
127.000	0.20561	-0.27056	-0.00395	-0.25664
128.000	0.18584	-0.20889	-0.00593	-0.32030
129.000	0.22933	-0.29045	0.04943	-0.34218
130.000	0.14630	-0.32029	0.00395	-0.35809
131.000	0.15618	-0.29642	0.06524	-0.36207
132.000	0.20561	-0.28449	0.03559	-0.38197
133.000	0.17200	-0.29443	0.03163	-0.30040
134.000	0.21352	-0.29045	0.02570	-0.30040
135.000	0.18386	-0.28449	0.01779	-0.28449
136.000	0.17200	-0.31433	0.03163	-0.30239
137.000	0.18781	-0.32228	0.06722	-0.39589
138.000	0.22340	-0.30438	0.01582	-0.35412
139.000	0.17398	-0.27255	0.04943	-0.40982
140.000	0.17002	-0.29045	-0.02372	-0.33820
141.000	0.19177	-0.32228	0.02768	-0.37202
142.000	0.21945	-0.27454	-0.02372	-0.29046
143.000	0.20956	-0.29443	-0.00989	-0.32825
144.000	0.19177	-0.31632	0.04745	-0.37600
145.000	0.20165	-0.29045	-0.01186	-0.31433
146.000	0.24515	-0.26459	-0.01779	-0.37600
147.000	0.27480	-0.28448	0.11071	-0.34616
148.000	0.21352	-0.31234	0.08699	-0.36207
149.000	0.22933	-0.26459	-0.00791	-0.36008
150.000	0.19968	-0.24072	0.07315	-0.37600
151.000	0.23131	-0.26061	0.00395	-0.34218
152.000	0.21747	-0.25862	0.04349	-0.37401
153.000	0.19968	-0.25464	0.09490	-0.32228
154.000	0.16409	-0.27852	-0.02175	-0.33820
155.000	0.23131	-0.24072	0.07513	-0.32626
156.000	0.15025	-0.24868	0.04745	-0.39788
157.000	0.21747	-0.21685	0.07908	-0.31831
158.000	0.22538	-0.26658	0.02175	-0.33422
159.000	0.22142	-0.28051	0.04745	-0.33223
160.000	0.18979	-0.30836	0.03954	-0.33223
161.000	0.19177	-0.29244	0.05140	-0.38992
162.000	0.17595	-0.28051	0.03559	-0.36008
163.000	0.13048	-0.28648	0.10280	-0.43369
164.000	0.21747	-0.27255	0.06129	-0.33422
165.000	0.20956	-0.31433	0.08501	-0.35809
166.000	0.19770	-0.32626	0.11664	-0.40186
167.000	0.20956	-0.30239	0.05338	-0.37600
168.000	0.22142	-0.26260	0.05140	-0.42374
169.000	0.19572	-0.32427	0.05536	-0.42175
170.000	0.23329	-0.28051	0.10478	-0.39390
171.000	0.21945	-0.27255	0.00791	-0.42175
172.000	0.21352	-0.29244	0.08897	-0.43170
173.000	0.18979	-0.31035	0.07710	-0.43170
174.000	0.19572	-0.27852	0.13048	-0.43170
175.000	0.18781	-0.27653	0.10083	-0.40186
176.000	0.17002	-0.30438	0.08501	-0.41181
177.000	0.19177	-0.30637	0.01582	-0.36804
178.000	0.20165	-0.33820	0.12060	-0.39191
179.000	0.14037	-0.32030	0.05338	-0.39589
180.000	0.17002	-0.26658	0.02175	-0.44960
181.000	0.14827	-0.26857	0.10280	-0.35014
182.000	0.15816	-0.33422	0.11071	-0.43170
183.000	0.14037	-0.26260	0.12653	-0.34019
184.000	0.17200	-0.32626	0.04547	-0.40982
185.000	0.15618	-0.30836	0.05733	-0.38396
186.000	0.17991	-0.32427	0.08699	-0.30637
187.000	0.12257	-0.29642	0.07908	-0.39191
188.000	0.18386	-0.28449	0.07513	-0.38992
189.000	0.19770	-0.30239	0.07908	-0.38197
190.000	0.20165	-0.29642	0.06129	-0.34019
191.000	0.22735	-0.33422	0.09885	-0.42772
192.000	0.21549	-0.32427	0.02372	-0.40584
193.000	0.17991	-0.27653	0.06524	-0.38793
194.000	0.17991	-0.28250	0.11071	-0.42573
195.000	0.20956	-0.27653	0.07315	-0.39589
196.000	0.17793	-0.28846	0.04349	-0.41181
197.000	0.21945	-0.25464	0.10676	-0.42374
198.000	0.18979	-0.34417	0.08501	-0.52520
199.000	0.16409	-0.31234	0.03361	-0.44960
200.000	0.16607	-0.28449	0.12653	-0.46552
201.000	0.17793	-0.29443	0.04745	-0.50928
202.000	0.20758	-0.24271	0.01977	-0.45756
203.000	0.17991	-0.27653	0.11467	-0.44562
204.000	0.21352	-0.32626	0.08106	-0.54310
205.000	0.19375	-0.33223	0.00989	-0.48143
206.000	0.16409	-0.31035	0.05140	-0.45159
207.000	0.18188	-0.27852	0.03559	-0.48143
208.000	0.17595	-0.33820	0.10478	-0.48342
209.000	0.19375	-0.30836	0.11269	-0.48143
210.000	0.16607	-0.30040	0.07710	-0.46751
211.000	0.17991	-0.32029	0.15025	-0.46353
212.000	0.18781	-0.31234	0.10874	-0.44165
213.000	0.11862	-0.32825	0.07710	-0.45557
214.000	0.15421	-0.31234	0.10874	-0.47546
215.000	0.21747	-0.32228	0.04349	-0.48740
216.000	0.17002	-0.34218	0.01977	-0.46751
217.000	0.16211	-0.34616	0.08699	-0.42573
218.000	0.18584	-0.32825	0.05140	-0.42971
219.000	0.19375	-0.32626	0.05338	-0.47745
220.000	0.21154	-0.29642	0.03559	-0.51326
221.000	0.17595	-0.33223	0.01977	-0.47745
222.000	0.19177	-0.31035	0.06722	-0.41777
223.000	0.18584	-0.31830	0.02966	-0.48143
224.000	0.20561	-0.30836	0.00000	-0.49735
225.000	0.18386	-0.31035	0.01582	-0.36207
226.000	0.21154	-0.29443	0.00198	-0.45358
227.000	0.18979	-0.30438	0.04745	-0.41578
228.000	0.16607	-0.31433	0.08897	-0.46154
229.000	0.16014	-0.35610	0.07117	-0.42374
230.000	0.20165	-0.29443	0.08897	-0.44165
231.000	0.16804	-0.30836	0.04349	-0.48143
232.000	0.18584	-0.31830	0.06129	-0.39191
233.000	0.17398	-0.32427	0.06129	-0.41777
234.000	0.20561	-0.33422	0.00395	-0.44761
235.000	0.18188	-0.31632	-0.01186	-0.41976
236.000	0.17793	-0.31632	0.04349	-0.44165
237.000	0.18386	-0.26857	0.04745	-0.43568
238.000	0.17595	-0.32825	0.03163	-0.39589
239.000	0.17595	-0.31035	0.01779	-0.44761
240.000	0.19968	-0.34616	0.05733	-0.43966
241.000	0.21549	-0.37202	0.07315	-0.45557
242.000	0.21549	-0.33422	0.07117	-0.45756
243.000	0.21352	-0.32825	0.04943	-0.40982
244.000	0.22340	-0.35212	0.16014	-0.39191
245.000	0.17002	-0.36804	0.07315	-0.45159
246.000	0.20561	-0.35411	0.13048	-0.48342
247.000	0.18386	-0.35013	0.07315	-0.44165
248.000	0.15421	-0.36207	0.10083	-0.41578
249.000	0.15025	-0.34815	0.06722	-0.37401
250.000	0.21154	-0.37600	0.03954	-0.31831
251.000	0.19177	-0.37202	0.04547	-0.35412
252.000	0.16607	-0.34417	0.02372	-0.36008
253.000	0.17793	-0.31632	0.04943	-0.35014
254.000	0.20956	-0.35212	0.03559	-0.33024
255.000	0.15816	-0.38594	0.04745	-0.36406
256.000	0.18584	-0.34019	0.02372	-0.41380
257.000	0.17793	-0.35212	0.12455	-0.37401
258.000	0.17398	-0.30637	0.05931	-0.41181
259.000	0.17002	-0.35013	0.05536	-0.39191
260.000	0.14037	-0.35212	0.06326	-0.35610
261.000	0.17991	-0.40584	0.00989	-0.37998
262.000	0.14827	-0.32228	0.01779	-0.44165
263.000	0.15421	-0.35014	-0.04943	-0.35610
264.000	0.15421	-0.33820	0.04943	-0.37401
265.000	0.16409	-0.37998	0.04152	-0.39589
266.000	0.19375	-0.36207	0.11862	-0.41379
267.000	0.20165	-0.36804	0.10280	-0.39987
268.000	0.21549	-0.34616	0.03361	-0.37401
269.000	0.16211	-0.35610	0.02966	-0.38594
270.000	0.19375	-0.34815	0.07710	-0.35610
271.000	0.20758	-0.35610	0.09885	-0.41578
272.000	0.18386	-0.38395	0.08699	-0.39788
273.000	0.19177	-0.36804	0.09490	-0.44165
274.000	0.17002	-0.33820	0.09490	-0.45756
275.000	0.21352	-0.34417	0.07710	-0.40783
276.000	0.16607	-0.31433	0.09292	-0.42971
277.000	0.14630	-0.38196	0.03559	-0.46751
278.000	0.19572	-0.34218	0.06722	-0.38992
279.000	0.16409	-0.34616	0.10874	-0.34815
280.000	0.17200	-0.35013	0.03163	-0.38396
281.000	0.19770	-0.36207	0.13444	-0.40385
282.000	0.19572	-0.34616	0.08897	-0.36207
283.000	0.18979	-0.36406	0.07908	-0.35610
284.000	0.17991	-0.33621	0.08501	-0.33621
285.000	0.22340	-0.35411	0.01384	-0.28847
286.000	0.23922	-0.35610	0.04943	-0.37799
287.000	0.21747	-0.38395	0.10083	-0.35411
288.000	0.21747	-0.37401	0.12257	-0.38793
289.000	0.20165	-0.40385	0.08897	-0.33621
290.000	0.20561	-0.36605	0.05931	-0.33621
291.000	0.16607	-0.36406	0.04943	-0.36008
292.000	0.23131	-0.33223	0.09885	-0.35610
293.000	0.18386	-0.33621	0.13048	-0.38594
294.000	0.21154	-0.36207	0.07117	-0.36008
295.000	0.12850	-0.35014	0.05931	-0.37003
296.000	0.19770	-0.36605	0.04152	-0.36008
297.000	0.20758	-0.35411	0.05733	-0.38992
298.000	0.22735	-0.39589	0.14234	-0.40385
299.000	0.17595	-0.37401	0.10280	-0.36605
300.000	0.18386	-0.36804	0.05140	-0.42374
301.000	0.21549	-0.36804	0.03361	-0.35809
302.000	0.20363	-0.32825	0.04943	-0.30239
303.000	0.19770	-0.36008	0.10874	-0.39589
304.000	0.22340	-0.39589	0.07513	-0.34815
305.000	0.21945	-0.34417	-0.00593	-0.36804
306.000	0.17991	-0.40981	0.14037	-0.32427
307.000	0.25108	-0.36008	0.12850	-0.31433
308.000	0.21352	-0.35809	0.06326	-0.35014
309.000	0.16607	-0.37600	0.05140	-0.37998
310.000	0.22538	-0.30637	0.10874	-0.37998
311.000	0.17595	-0.35610	0.02372	-0.37998
312.000	0.18584	-0.33422	0.20956	-0.36008
313.000	0.21154	-0.33024	0.09687	-0.32427
314.000	0.19375	-0.34218	0.12455	-0.34815
315.000	0.15421	-0.34815	0.11664	-0.33024
316.000	0.21154	-0.30239	0.11269	-0.32825
317.000	0.14827	-0.33422	0.08699	-0.35610
318.000	0.23329	-0.33422	0.12257	-0.35213
319.000	0.22340	-0.36008	0.16211	-0.41180
320.000	0.20758	-0.32825	0.12653	-0.33820
321.000	0.20363	-0.34218	0.10874	-0.33621
322.000	0.21747	-0.34417	0.08303	-0.35014
323.000	0.27480	-0.31830	0.12257	-0.41578
324.000	0.26096	-0.32029	0.17398	-0.37202
325.000	0.15223	-0.40783	0.06129	-0.28847
326.000	0.20363	-0.34616	0.13641	-0.30637
327.000	0.19177	-0.34417	0.02175	-0.34019
328.000	0.19770	-0.37799	0.17200	-0.30438
329.000	0.20363	-0.37600	0.08699	-0.39788
330.000	0.22340	-0.33621	0.09687	-0.35610
331.000	0.17595	-0.33223	0.03954	-0.32427
332.000	0.19968	-0.29841	0.10676	-0.33621
333.000	0.17793	-0.34815	0.09687	-0.42573
334.000	0.21747	-0.35809	0.11664	-0.35809
335.000	0.15025	-0.34417	0.12653	-0.41777
336.000	0.22538	-0.37003	0.07117	-0.40385
337.000	0.15816	-0.31035	0.08897	-0.37003
338.000	0.20165	-0.32825	0.15816	-0.35411
339.000	0.25701	-0.36804	0.17793	-0.38594
340.000	0.19968	-0.33024	0.04943	-0.39390
341.000	0.20956	-0.36207	0.13641	-0.40385
342.000	0.20561	-0.31433	0.11664	-0.37600
343.000	0.19968	-0.30239	0.12455	-0.41379
344.000	0.20363	-0.31035	0.12060	-0.37202
345.000	0.20363	-0.33024	0.11664	-0.44165
346.000	0.19770	-0.31632	0.18386	-0.38196
347.000	0.17991	-0.35411	0.19177	-0.41976
348.000	0.17002	-0.34616	0.09094	-0.35809
349.000	0.19770	-0.37997	0.08699	-0.36008
350.000	0.16804	-0.34815	0.08501	-0.36008
351.000	0.17793	-0.36207	0.04349	-0.38594
352.000	0.19177	-0.37401	0.09094	-0.33621
353.000	0.18584	-0.34019	0.09094	-0.39589
354.000	0.19572	-0.35610	0.08699	-0.41578
355.000	0.19177	-0.35212	0.15618	-0.31831
356.000	0.13839	-0.35809	0.14432	-0.40982
357.000	0.18979	-0.33621	0.12257	-0.36804
358.000	0.18386	-0.35809	0.10478	-0.39987
359.000	0.17200	-0.32825	0.01779	-0.42175
360.000	0.16804	-0.35809	0.03954	-0.36207
361.000	0.20363	-0.30836	0.10874	-0.40584
362.000	0.14234	-0.32626	0.08699	-0.33621
363.000	0.17793	-0.31234	0.12653	-0.43369
364.000	0.23131	-0.37003	0.12257	-0.37003
365.000	0.18188	-0.34815	0.08699	-0.36605
366.000	0.15618	-0.36008	0.01977	-0.34417
367.000	0.18979	-0.31234	0.12455	-0.32030
368.000	0.19770	-0.37799	0.11467	-0.39788
369.000	0.17991	-0.34815	0.06326	-0.33024
370.000	0.18979	-0.35411	0.15025	-0.34218
371.000	0.20165	-0.31433	0.07908	-0.40385
372.000	0.16804	-0.32228	0.08303	-0.44364
373.000	0.15223	-0.32626	0.06722	-0.42374
374.000	0.17398	-0.31433	0.09292	-0.40783
375.000	0.16409	-0.41777	0.14234	-0.44761
376.000	0.20363	-0.37401	0.11071	-0.38395
377.000	0.17991	-0.37202	0.13246	-0.39191
378.000	0.15618	-0.36804	0.10874	-0.30637
379.000	0.12653	-0.35411	0.13839	-0.37799
380.000	0.17002	-0.37401	0.06129	-0.41380
381.000	0.15816	-0.38196	0.05931	-0.31831
382.000	0.20956	-0.33223	0.08501	-0.35411
383.000	0.13641	-0.40385	0.09094	-0.30836
384.000	0.16607	-0.37799	0.06129	-0.29244
385.000	0.16804	-0.37401	0.07908	-0.34815
386.000	0.17991	-0.37003	0.11467	-0.37799
387.000	0.17991	-0.35212	0.15618	-0.35610
388.000	0.17398	-0.39191	0.14037	-0.35809
389.000	0.18188	-0.37600	0.12257	-0.42573
390.000	0.18781	-0.40385	0.14630	-0.37600
391.000	0.19572	-0.40186	0.11467	-0.36804
392.000	0.17398	-0.38793	0.10083	-0.31632
393.000	0.19375	-0.38793	0.13246	-0.39589
394.000	0.19375	-0.40981	0.09292	-0.42573
395.000	0.19770	-0.38793	0.11269	-0.37998
396.000	0.22142	-0.40782	0.06920	-0.34417
397.000	0.14827	-0.42772	0.10280	-0.37600
398.000	0.15223	-0.42175	0.13444	-0.35212
399.000	0.18781	-0.36605	0.12257	-0.38594
400.000	0.18584	-0.39987	0.08106	-0.30438
401.000	0.17002	-0.41379	0.13839	-0.32030
402.000	0.17398	-0.38594	0.16409	-0.35809
403.000	0.16607	-0.39788	0.11862	-0.36406
404.000	0.17595	-0.40982	0.10478	-0.37998
405.000	0.17398	-0.41578	0.07117	-0.37401
406.000	0.18386	-0.34815	0.17398	-0.36207
407.000	0.21747	-0.34218	0.10280	-0.33820
408.000	0.15025	-0.39788	0.17200	-0.42772
409.000	0.19375	-0.36008	0.08106	-0.40783
410.000	0.18386	-0.41578	0.15025	-0.35610
411.000	0.19177	-0.36605	0.15421	-0.39589
412.000	0.17200	-0.40584	0.08699	-0.36804
413.000	0.19572	-0.41180	0.08699	-0.34815
414.000	0.17200	-0.39390	0.04943	-0.32229
415.000	0.12455	-0.39191	0.04547	-0.41777
416.000	0.15816	-0.42374	0.03756	-0.40186
417.000	0.14630	-0.42374	0.10083	-0.44761
418.000	0.14630	-0.38594	0.05733	-0.37799
419.000	0.14630	-0.41777	0.09687	-0.36406
420.000	0.14037	-0.41578	0.14234	-0.40982
421.000	0.17002	-0.41976	0.18188	-0.42374
422.000	0.15223	-0.41777	0.12060	-0.33422
423.000	0.17793	-0.41976	0.12653	-0.33820
424.000	0.18979	-0.44761	0.12455	-0.42374
425.000	0.13444	-0.46751	0.06722	-0.38992
426.000	0.16607	-0.44164	0.08106	-0.30836
427.000	0.09490	-0.43767	0.03954	-0.39788
428.000	0.14630	-0.43568	0.07117	-0.44165
429.000	0.16211	-0.43369	0.07908	-0.37799
430.000	0.17002	-0.43767	0.10874	-0.37600
431.000	0.16211	-0.42573	0.06524	-0.32030
432.000	0.13048	-0.40982	0.13641	-0.35411
433.000	0.17793	-0.41180	0.07117	-0.42175
434.000	0.15223	-0.44164	0.12850	-0.37600
435.000	0.19968	-0.40385	0.14827	-0.31831
436.000	0.19177	-0.39987	0.07908	-0.33422
437.000	0.18781	-0.38793	0.11269	-0.34019
438.000	0.19177	-0.40783	0.08897	-0.34019
439.000	0.20758	-0.37997	0.13444	-0.37003
440.000	0.21945	-0.38395	0.15025	-0.39390
441.000	0.19770	-0.37799	0.12850	-0.37003
442.000	0.17595	-0.39987	0.15816	-0.40385
443.000	0.22735	-0.38196	0.10280	-0.37600
444.000	0.17991	-0.35013	0.13048	-0.39589
445.000	0.20561	-0.38793	0.16211	-0.31632
446.000	0.18979	-0.37799	0.11269	-0.33422
447.000	0.22340	-0.37401	0.05140	-0.31831
448.000	0.20956	-0.38395	0.17002	-0.36008
449.000	0.17002	-0.38992	0.09094	-0.32228
450.000	0.20165	-0.39191	0.07513	-0.35610
451.000	0.19572	-0.46552	0.13246	-0.42772
452.000	0.18386	-0.42772	0.06524	-0.37401
453.000	0.17595	-0.43369	0.13839	-0.30040
454.000	0.16014	-0.44164	0.12653	-0.33024
455.000	0.16607	-0.42772	0.13641	-0.35411
456.000	0.17793	-0.41976	0.18781	-0.40783
457.000	0.15223	-0.43369	0.16014	-0.39788
458.000	0.15618	-0.44164	0.10083	-0.35610
459.000	0.16211	-0.41578	0.10280	-0.35809
460.000	0.19968	-0.46154	0.11269	-0.26658
461.000	0.19177	-0.41578	0.15421	-0.42573
462.000	0.20956	-0.44562	0.04943	-0.37600
463.000	0.19770	-0.43369	0.12653	-0.33422
464.000	0.17793	-0.39589	0.04943	-0.32825
465.000	0.21549	-0.43170	0.14037	-0.36406
466.000	0.20363	-0.42175	0.16211	-0.33820
467.000	0.23131	-0.35411	0.10478	-0.31632
468.000	0.19375	-0.39390	0.12257	-0.35213
469.000	0.21549	-0.42175	0.12060	-0.38395
470.000	0.18979	-0.39987	0.14037	-0.40783
471.000	0.17991	-0.42573	0.11467	-0.38395
472.000	0.21352	-0.43369	0.14432	-0.35411
473.000	0.20561	-0.43965	0.21747	-0.32626
474.000	0.23131	-0.42772	0.07117	-0.36605
475.000	0.18781	-0.41578	0.17793	-0.34019
476.000	0.22933	-0.45557	0.14827	-0.38992
477.000	0.21549	-0.47745	0.04547	-0.30438
478.000	0.25899	-0.41976	0.16409	-0.35212
479.000	0.23131	-0.44164	0.12850	-0.33820
480.000	0.22735	-0.46154	0.16211	-0.41777
481.000	0.20758	-0.47745	0.11664	-0.36406
482.000	0.20758	-0.46353	0.14630	-0.39589
483.000	0.21154	-0.45159	0.13444	-0.44165
484.000	0.25108	-0.46750	0.17002	-0.34019
485.000	0.20561	-0.45358	0.09094	-0.41181
486.000	0.22735	-0.50331	0.13444	-0.37202
487.000	0.18781	-0.44164	0.10478	-0.36605
488.000	0.21549	-0.40385	0.12060	-0.38793
489.000	0.23724	-0.46154	0.02372	-0.40385
490.000	0.18781	-0.44363	0.09885	-0.31632
491.000	0.19770	-0.43965	0.09292	-0.32825
492.000	0.22340	-0.44960	0.00198	-0.32825
493.000	0.18781	-0.44363	0.08501	-0.38793
494.000	0.18584	-0.46750	0.11664	-0.34815
495.000	0.17595	-0.46751	0.10676	-0.31035
496.000	0.16409	-0.47148	0.07710	-0.34218
497.000	0.15025	-0.43170	0.01977	-0.36804
498.000	0.16607	-0.47347	0.11467	-0.32427
499.000	0.14037	-0.42573	0.13246	-0.33621
500.000	0.14432	-0.44960	0.08897	-0.39788
501.000	0.14432	-0.43369	0.16409	-0.33621
502.000	0.15816	-0.46552	0.10676	-0.31234
503.000	0.17398	-0.45557	0.11269	-0.37401
504.000	0.18188	-0.43369	0.17595	-0.39987
505.000	0.16607	-0.46353	0.08897	-0.40584
506.000	0.15618	-0.41379	0.16607	-0.34815
507.000	0.15816	-0.46552	0.06722	-0.37799
508.000	0.17200	-0.44164	0.10280	-0.34616
509.000	0.17002	-0.47347	0.11269	-0.32825
510.000	0.14827	-0.45557	0.14432	-0.33820
511.000	0.13444	-0.43966	0.06920	-0.35610
512.000	0.12850	-0.46154	-0.02768	-0.34815
513.000	0.15025	-0.48541	0.04547	-0.33024
514.000	0.17793	-0.48143	0.06129	-0.33422
515.000	0.16211	-0.50132	0.10676	-0.35809
516.000	0.13839	-0.48740	0.00395	-0.32626
517.000	0.15223	-0.49734	0.13246	-0.34019
518.000	0.17200	-0.48143	0.07908	-0.35610
519.000	0.17200	-0.50530	0.10676	-0.33024
520.000	0.17991	-0.48342	0.08106	-0.33820
521.000	0.16014	-0.53912	0.11862	-0.33621
522.000	0.17002	-0.52718	0.13839	-0.29841
523.000	0.16409	-0.46751	0.14432	-0.36207
524.000	0.15025	-0.51724	0.08303	-0.34417
525.000	0.11269	-0.54310	0.09490	-0.36207
526.000	0.13641	-0.49337	0.12257	-0.31035
527.000	0.10280	-0.48939	0.10676	-0.37799
528.000	0.14432	-0.49933	0.10676	-0.32427
529.000	0.16804	-0.52718	0.11071	-0.36605
530.000	0.17595	-0.51923	0.08699	-0.29244
531.000	0.15816	-0.52122	0.14432	-0.30836
532.000	0.15025	-0.52122	0.07117	-0.34218
533.000	0.15025	-0.51923	0.19770	-0.37202
534.000	0.13444	-0.48939	0.14630	-0.32626
535.000	0.14432	-0.51923	0.08897	-0.35014
536.000	0.15618	-0.51326	0.11467	-0.37799
537.000	0.15421	-0.50729	0.07908	-0.35610
538.000	0.12653	-0.50530	0.09094	-0.37401
539.000	0.15816	-0.50331	0.10083	-0.40584
540.000	0.17398	-0.49536	0.13444	-0.33820
541.000	0.11467	-0.52520	0.10478	-0.31234
542.000	0.11269	-0.54708	0.09885	-0.37401
543.000	0.13048	-0.51525	0.12455	-0.27653
544.000	0.14234	-0.51525	0.15816	-0.32427
545.000	0.17200	-0.52122	0.12257	-0.38594
546.000	0.14234	-0.54708	0.14037	-0.34019
547.000	0.14630	-0.56100	0.13444	-0.36406
548.000	0.16014	-0.52519	0.18584	-0.24271
549.000	0.15816	-0.47546	0.16409	-0.36008
550.000	0.17793	-0.50331	0.13444	-0.31831
551.000	0.16607	-0.49138	0.15421	-0.38793
552.000	0.13839	-0.51525	0.13048	-0.37998
553.000	0.11862	-0.55503	0.15223	-0.39987
554.000	0.11269	-0.52718	0.11071	-0.37998
555.000	0.13444	-0.52122	0.08501	-0.37600
556.000	0.12653	-0.51127	0.07315	-0.36406
557.000	0.10083	-0.57493	0.08897	-0.37600
558.000	0.14037	-0.49337	0.10676	-0.35014
559.000	0.17002	-0.51127	0.14432	-0.44164
560.000	0.18386	-0.52320	0.11071	-0.36605
561.000	0.13641	-0.49536	0.14827	-0.39390
562.000	0.15025	-0.48939	0.09292	-0.34417
563.000	0.16211	-0.53315	0.19177	-0.37799
564.000	0.13641	-0.50530	0.08699	-0.39390
565.000	0.12455	-0.52520	0.09885	-0.32030
566.000	0.15421	-0.48143	0.15025	-0.40186
567.000	0.14432	-0.49933	0.09094	-0.36804
568.000	0.14234	-0.53116	0.14630	-0.35411
569.000	0.12060	-0.51127	0.12455	-0.28449
570.000	0.13839	-0.50729	0.16211	-0.37799
571.000	0.18584	-0.51923	0.15618	-0.34616
572.000	0.13048	-0.51127	0.07315	-0.34616
573.000	0.20363	-0.52320	0.08699	-0.44364
574.000	0.17200	-0.50729	0.14037	-0.36207
575.000	0.21154	-0.49336	0.08501	-0.37401
576.000	0.15025	-0.53116	0.13048	-0.37600
577.000	0.19572	-0.49734	0.10083	-0.33422
578.000	0.18781	-0.50530	0.10478	-0.34019
579.000	0.15025	-0.44960	0.12060	-0.34019
580.000	0.18979	-0.52519	0.13641	-0.33024
581.000	0.14630	-0.53116	0.12455	-0.38197
582.000	0.17595	-0.49734	0.09490	-0.39390
583.000	0.17398	-0.50331	0.09292	-0.41380
584.000	0.19177	-0.54906	0.12653	-0.38992
585.000	0.16607	-0.52122	0.12455	-0.35610
586.000	0.17991	-0.52718	0.11862	-0.36804
587.000	0.17200	-0.52320	0.09094	-0.40385
588.000	0.14827	-0.56299	0.05733	-0.43170
589.000	0.19770	-0.55105	0.21747	-0.40186
590.000	0.12653	-0.53116	0.13444	-0.45358
591.000	0.17595	-0.54708	0.13246	-0.40385
592.000	0.19770	-0.53315	0.07710	-0.40186
593.000	0.15816	-0.56100	0.10083	-0.33820
594.000	0.14630	-0.57890	0.18386	-0.35610
595.000	0.15618	-0.54111	0.14037	-0.35411
596.000	0.13048	-0.50530	0.12257	-0.28648
597.000	0.17595	-0.53912	0.10874	-0.36008
598.000	0.17200	-0.53514	0.10874	-0.39191
599.000	0.17991	-0.51923	0.03559	-0.43966
600.000	0.14827	-0.58288	0.16211	-0.34218
601.000	0.18188	-0.54111	0.12060	-0.42374
602.000	0.16804	-0.48143	0.11664	-0.43966
603.000	0.17200	-0.51326	0.16409	-0.35411
604.000	0.18584	-0.54708	0.11467	-0.38793
605.000	0.20165	-0.52519	0.17002	-0.39987
606.000	0.15223	-0.54111	0.09885	-0.35411
607.000	0.17002	-0.52519	0.07117	-0.35809
608.000	0.17002	-0.55503	0.06920	-0.43568
609.000	0.16211	-0.54907	0.16607	-0.32029
610.000	0.15816	-0.54509	0.12060	-0.38992
611.000	0.19968	-0.57691	0.19177	-0.34417
612.000	0.16409	-0.53514	0.11862	-0.45159
613.000	0.19375	-0.55901	0.11071	-0.39191
614.000	0.14630	-0.54708	0.11269	-0.37401
615.000	0.16804	-0.55503	0.16607	-0.40186
616.000	0.15223	-0.53912	0.14037	-0.36605
617.000	0.16409	-0.54111	0.02570	-0.39589
618.000	0.12455	-0.58686	0.19968	-0.38395
619.000	0.13246	-0.59482	0.15025	-0.39589
620.000	0.09885	-0.56697	0.15816	-0.37600
621.000	0.16211	-0.55105	0.15618	-0.42573
622.000	0.13641	-0.57890	0.14432	-0.41578
623.000	0.18386	-0.54509	0.16014	-0.41976
624.000	0.13641	-0.55503	0.13048	-0.39390
625.000	0.11862	-0.58288	0.14234	-0.45358
626.000	0.15421	-0.51525	0.23329	-0.33422
627.000	0.14432	-0.53116	0.07117	-0.39987
628.000	0.15421	-0.55702	0.14234	-0.37799
629.000	0.12455	-0.57294	0.19770	-0.38793
630.000	0.16804	-0.60476	0.16607	-0.40783
631.000	0.14037	-0.55901	0.11467	-0.38594
632.000	0.12653	-0.61869	0.15816	-0.38594
633.000	0.11664	-0.58885	0.11269	-0.43568
634.000	0.13048	-0.56100	0.19177	-0.46552
635.000	0.11467	-0.57294	0.19177	-0.44562
636.000	0.18386	-0.58288	0.08897	-0.36207
637.000	0.13641	-0.58885	0.14234	-0.33820
638.000	0.16607	-0.61670	0.19177	-0.35411
639.000	0.14432	-0.59681	0.13048	-0.42772
640.000	0.16607	-0.58686	0.11071	-0.40385
641.000	0.17991	-0.58288	0.16804	-0.38594
642.000	0.15025	-0.62068	0.17991	-0.38395
643.000	0.10676	-0.63062	0.17595	-0.43369
644.000	0.15421	-0.60079	0.16014	-0.35212
645.000	0.16607	-0.60079	0.20363	-0.38395
646.000	0.16607	-0.61670	0.18188	-0.42175
647.000	0.15618	-0.57890	0.16409	-0.43568
648.000	0.17200	-0.59482	0.11862	-0.36605
649.000	0.13444	-0.60278	0.19375	-0.36804
650.000	0.16607	-0.55702	0.11467	-0.42374
651.000	0.18188	-0.61471	0.14827	-0.39390
652.000	0.17595	-0.56896	0.10280	-0.44165
653.000	0.19770	-0.56896	0.04152	-0.40584
654.000	0.16014	-0.56896	0.12850	-0.38395
655.000	0.17200	-0.59283	0.11664	-0.37799
656.000	0.12653	-0.57692	0.07710	-0.40385
657.000	0.14827	-0.53912	0.11467	-0.41777
658.000	0.15025	-0.60476	0.08897	-0.35213
659.000	0.14234	-0.61869	0.17991	-0.37202
660.000	0.16014	-0.59880	0.09885	-0.45159
661.000	0.16409	-0.63261	0.08303	-0.32626
662.000	0.17002	-0.61670	0.06920	-0.31234
663.000	0.15618	-0.60476	0.08303	-0.38396
664.000	0.17793	-0.63261	0.16211	-0.39589
665.000	0.14234	-0.62665	0.14234	-0.40385
666.000	0.18781	-0.63261	0.17398	-0.37600
667.000	0.18979	-0.64654	0.10280	-0.36008
668.000	0.13839	-0.62863	0.15816	-0.35014
669.000	0.11467	-0.63460	0.10676	-0.42374
670.000	0.08501	-0.65847	0.09094	-0.31632
671.000	0.14234	-0.67439	0.14234	-0.37600
672.000	0.14037	-0.66643	0.05338	-0.39589
673.000	0.17793	-0.65648	0.13048	-0.30637
674.000	0.16607	-0.65847	0.10676	-0.36008
675.000	0.13246	-0.62267	0.13048	-0.39788
676.000	0.17991	-0.65250	0.12653	-0.35809
677.000	0.16409	-0.64853	0.05931	-0.42971
678.000	0.20165	-0.61670	0.12653	-0.33621
679.000	0.12257	-0.66245	0.12850	-0.36406
680.000	0.15025	-0.61869	0.15223	-0.46552
681.000	0.13839	-0.62466	0.13048	-0.31433
682.000	0.15816	-0.61670	0.10280	-0.39390
683.000	0.17200	-0.60874	0.15025	-0.46353
684.000	0.14630	-0.63062	0.14630	-0.41180
685.000	0.14432	-0.61073	0.14432	-0.41777
686.000	0.13641	-0.61471	0.10874	-0.39788
687.000	0.14432	-0.63261	0.13246	-0.42772
688.000	0.13246	-0.62466	0.18979	-0.38594
689.000	0.13246	-0.62466	0.13048	-0.34616
690.000	0.15618	-0.65250	0.10478	-0.42573
691.000	0.15223	-0.63062	0.09687	-0.36008
692.000	0.12850	-0.65847	0.13048	-0.41976
693.000	0.15618	-0.61272	0.15816	-0.39589
694.000	0.15816	-0.58686	0.00593	-0.40783
695.000	0.14827	-0.67041	0.14630	-0.37998
696.000	0.14630	-0.58089	0.19375	-0.43965
697.000	0.15421	-0.61869	0.12455	-0.41181
698.000	0.14827	-0.61073	0.15421	-0.37003
699.000	0.13839	-0.64853	0.11664	-0.39191
700.000	0.13246	-0.62466	0.12455	-0.48342
701.000	0.17398	-0.62466	0.17793	-0.34815
702.000	0.18188	-0.64853	0.11071	-0.43369
703.000	0.13048	-0.63659	0.18781	-0.38594
704.000	0.18584	-0.59681	0.11467	-0.38992
705.000	0.13246	-0.66245	0.16211	-0.42971
706.000	0.13444	-0.62466	0.18979	-0.39788
707.000	0.17595	-0.62863	0.17595	-0.39390
708.000	0.12653	-0.65648	0.16014	-0.50530
709.000	0.12850	-0.67836	0.14630	-0.37003
710.000	0.15816	-0.62863	0.11862	-0.36804
711.000	0.16014	-0.67836	0.12850	-0.28449
712.000	0.12850	-0.62068	0.23329	-0.36804
713.000	0.16607	-0.61471	0.12257	-0.35809
714.000	0.18584	-0.60675	0.11862	-0.44165
715.000	0.15816	-0.62466	0.10874	-0.42374
716.000	0.20758	-0.64057	0.19572	-0.36207
717.000	0.13839	-0.65648	0.15618	-0.38594
718.000	0.19375	-0.65250	0.18979	-0.42772
719.000	0.17991	-0.62466	0.16409	-0.33223
720.000	0.19375	-0.64256	0.16804	-0.37401
721.000	0.16607	-0.66842	0.18979	-0.44960
722.000	0.18584	-0.66245	0.17793	-0.40783
723.000	0.14234	-0.72014	0.16014	-0.33223
724.000	0.18386	-0.68234	0.15025	-0.38594
725.000	0.18188	-0.67637	0.14234	-0.38395
726.000	0.18584	-0.69825	0.14827	-0.43170
727.000	0.14827	-0.70422	0.16409	-0.37401
728.000	0.19770	-0.70223	0.13641	-0.41578
729.000	0.18386	-0.70422	0.13641	-0.43369
730.000	0.21945	-0.69427	0.10083	-0.41578
731.000	0.18584	-0.68433	0.11071	-0.32030
732.000	0.13444	-0.70223	0.21549	-0.36804
733.000	0.21549	-0.70024	0.15421	-0.33422
734.000	0.19572	-0.68632	0.10874	-0.34019
735.000	0.17398	-0.72013	0.11269	-0.40783
736.000	0.18188	-0.64455	0.08699	-0.33820
737.000	0.21352	-0.68234	0.11071	-0.37202
738.000	0.16211	-0.72610	0.13839	-0.38197
739.000	0.17991	-0.66444	0.15223	-0.31632
740.000	0.14630	-0.72014	0.10478	-0.37401
741.000	0.16804	-0.71417	0.17200	-0.35212
742.000	0.17002	-0.68035	0.18386	-0.40783
743.000	0.17002	-0.69030	0.19572	-0.38793
744.000	0.20758	-0.66444	0.22735	-0.40584
745.000	0.15025	-0.70820	0.13444	-0.35212
746.000	0.17002	-0.67041	0.09094	-0.38793
747.000	0.18188	-0.67836	0.12455	-0.40385
748.000	0.17991	-0.67041	0.10280	-0.32825
749.000	0.18979	-0.71616	0.17595	-0.40584
750.000	0.16607	-0.68632	0.15421	-0.38992
751.000	0.16211	-0.70820	0.15421	-0.39191
752.000	0.16014	-0.66046	0.16211	-0.42573
753.000	0.20956	-0.70621	0.15025	-0.39788
754.000	0.19572	-0.66643	0.15618	-0.32029
755.000	0.16014	-0.69826	0.19375	-0.40584
756.000	0.19177	-0.68632	0.19968	-0.39390
757.000	0.15618	-0.64455	0.11269	-0.39788
758.000	0.16804	-0.69030	0.16409	-0.34815
759.000	0.15223	-0.65449	0.11664	-0.38197
760.000	0.20956	-0.71218	0.17793	-0.30637
761.000	0.18386	-0.69229	0.14432	-0.37600
762.000	0.18386	-0.68632	0.08501	-0.31831
763.000	0.20363	-0.66643	0.15025	-0.31035
764.000	0.19968	-0.71019	0.17595	-0.37998
765.000	0.18781	-0.65051	0.11269	-0.33621
766.000	0.17595	-0.70223	0.10083	-0.35014
767.000	0.13839	-0.72809	0.15816	-0.38594
768.000	0.17200	-0.66444	0.15025	-0.34616
769.000	0.19770	-0.69626	0.12653	-0.35809
770.000	0.16014	-0.71019	0.17595	-0.35013
771.000	0.15816	-0.71417	0.14827	-0.34616
772.000	0.15223	-0.69428	0.20363	-0.34019
773.000	0.16804	-0.68632	0.16607	-0.34616
774.000	0.12257	-0.68433	0.19770	-0.35013
775.000	0.18188	-0.68831	0.17793	-0.38793
776.000	0.15816	-0.66842	0.20165	-0.31433
777.000	0.14037	-0.66245	0.16607	-0.38793
778.000	0.18386	-0.66046	0.15223	-0.36605
779.000	0.20561	-0.71218	0.15816	-0.34616
780.000	0.18386	-0.68234	0.16014	-0.35212
781.000	0.19770	-0.67637	0.18781	-0.37003
782.000	0.19770	-0.66643	0.18781	-0.35809
783.000	0.19572	-0.67438	0.23131	-0.36406
784.000	0.18781	-0.68035	0.18584	-0.33223
785.000	0.20758	-0.66046	0.10478	-0.34815
786.000	0.21747	-0.63062	0.22538	-0.34616
787.000	0.17793	-0.65051	0.15025	-0.30438
788.000	0.18584	-0.65250	0.20561	-0.30438
789.000	0.19968	-0.61869	0.17991	-0.32228
790.000	0.16409	-0.63858	0.14827	-0.33621
791.000	0.18979	-0.62267	0.20561	-0.31234
792.000	0.18386	-0.62267	0.23131	-0.30040
793.000	0.20165	-0.66444	0.19177	-0.37401
794.000	0.16211	-0.60277	0.17991	-0.31234
795.000	0.17398	-0.64057	0.18188	-0.33820
796.000	0.17793	-0.68831	0.15421	-0.29244
797.000	0.18584	-0.63659	0.13246	-0.33422
798.000	0.19770	-0.62863	0.15025	-0.31035
799.000	0.21154	-0.63460	0.11467	-0.35610
800.000	0.16211	-0.64853	0.16409	-0.31831
801.000	0.20561	-0.62664	0.13839	-0.35014
802.000	0.19572	-0.62068	0.11071	-0.34218
803.000	0.20363	-0.65847	0.18188	-0.29841
804.000	0.17398	-0.60874	0.14037	-0.28449
805.000	0.21747	-0.64256	0.20165	-0.30239
806.000	0.18781	-0.61073	0.10676	-0.32825
807.000	0.22538	-0.61272	0.10478	-0.30239
808.000	0.24119	-0.60476	0.17793	-0.28846
809.000	0.21747	-0.64653	0.10874	-0.34417
810.000	0.21549	-0.61073	0.20363	-0.30637
811.000	0.21154	-0.60078	0.09687	-0.26061
812.000	0.24119	-0.59283	0.11862	-0.23674
813.000	0.20363	-0.58686	0.08699	-0.20889
814.000	0.20165	-0.66643	0.13048	-0.34616
815.000	0.22735	-0.62465	0.14037	-0.32626
816.000	0.24119	-0.57890	0.11071	-0.27255
817.000	0.21352	-0.59283	0.15816	-0.31632
818.000	0.25503	-0.61670	0.18188	-0.27255
819.000	0.25899	-0.56498	0.16409	-0.33024
820.000	0.21945	-0.59482	0.13444	-0.27056
821.000	0.23131	-0.58885	0.17793	-0.28250
822.000	0.22142	-0.57691	0.16409	-0.27653
823.000	0.25503	-0.60476	0.13246	-0.25663
824.000	0.23526	-0.63659	0.16607	-0.21486
825.000	0.26294	-0.58089	0.16014	-0.31632
826.000	0.21747	-0.60476	0.20363	-0.23873
827.000	0.26492	-0.58288	0.10083	-0.19894
828.000	0.23922	-0.59482	0.06524	-0.25664
829.000	0.23131	-0.57293	0.09094	-0.21685
830.000	0.22340	-0.53315	0.08897	-0.23276
831.000	0.19968	-0.57294	0.13444	-0.21884
832.000	0.22142	-0.58089	0.08106	-0.19297
833.000	0.23526	-0.60675	0.04547	-0.15319
834.000	0.23131	-0.53912	0.08106	-0.27653
835.000	0.23724	-0.56498	0.17200	-0.22480
836.000	0.23329	-0.57293	-0.02372	-0.19099
837.000	0.24712	-0.53912	0.04349	-0.20491
838.000	0.24910	-0.53713	0.13641	-0.17905
839.000	0.23131	-0.55503	0.07315	-0.22083
840.000	0.24317	-0.57293	0.11664	-0.23276
841.000	0.23329	-0.52718	0.11664	-0.23475
842.000	0.23526	-0.52121	0.10083	-0.19297
843.000	0.24910	-0.57890	0.10280	-0.23873
844.000	0.17793	-0.58686	0.02966	-0.27653
845.000	0.23329	-0.49336	0.11071	-0.23077
846.000	0.21154	-0.55304	0.09292	-0.17905
847.000	0.21549	-0.49336	0.09094	-0.21287
848.000	0.20758	-0.49933	0.10676	-0.20690
849.000	0.14234	-0.55304	0.07513	-0.17905
850.000	0.24712	-0.50331	0.08303	-0.12533
851.000	0.21154	-0.48541	0.05140	-0.16313
852.000	0.25899	-0.52121	0.09885	-0.16313
853.000	0.27678	-0.53713	0.18781	-0.17308
854.000	0.29457	-0.51922	0.16014	-0.21685
855.000	0.33411	-0.53314	0.19572	-0.20292
856.000	0.47249	-0.56695	0.36772	-0.23674
857.000	0.56145	-0.61269	0.43098	-0.24469
858.000	0.72947	-0.67632	0.69389	-0.35210
859.000	0.92120	-0.69817	0.81447	-0.42370
860.000	1.16034	-0.75976	1.05955	-0.52511
861.000	1.34214	-0.85118	1.23148	-0.62849
862.000	1.56342	-0.93858	1.50613	-0.71591
863.000	1.77083	-1.03986	1.74910	-0.76155
864.000	1.95252	-1.16299	1.94857	-0.87875
865.000	2.14010	-1.24631	2.15589	-0.95814
866.000	2.30197	-1.39320	2.28815	-1.10113
867.000	2.46972	-1.37912	2.53681	-1.19431
868.000	2.59008	-1.43063	2.58219	-1.33927
869.000	2.73607	-1.50394	2.63546	-1.39086
870.000	2.83074	-1.49786	2.70253	-1.45831
871.000	2.87018	-1.48987	2.82088	-1.44625
872.000	2.92342	-1.59106	2.99835	-1.51551
873.000	2.99835	-1.66837	2.96483	-1.62078
874.000	3.15803	-1.71575	3.04567	-1.63455
875.000	3.29401	-1.71552	3.14817	-1.61454
876.000	3.45162	-1.70532	3.28218	-1.60838
877.000	3.62099	-1.76452	3.32356	-1.63808
878.000	3.78834	-1.75229	3.51071	-1.66752
879.000	3.86313	-1.75213	3.50480	-1.63182
880.000	3.92413	-1.82537	3.67810	-1.68903
881.000	4.02251	-1.77757	3.71353	-1.75244
882.000	4.03235	-1.79540	3.77062	-1.68489
883.000	4.09333	-1.76156	3.80408	-1.61937
884.000	4.08152	-1.71797	3.84148	-1.63914
885.000	4.09726	-1.72785	3.84148	-1.61732
886.000	4.03038	-1.68437	3.82967	-1.57767
887.000	3.98316	-1.66265	3.74503	-1.56592
888.000	3.89462	-1.64697	3.70369	-1.60567
889.000	3.79818	-1.58963	3.66825	-1.55217
890.000	3.73125	-1.58182	3.64265	-1.51254
891.000	3.69581	-1.56799	3.44965	-1.57437
892.000	3.60524	-1.53244	3.46541	-1.47512
893.000	3.55207	-1.56824	3.40237	-1.45736
894.000	3.50677	-1.57229	3.39449	-1.51294
895.000	3.52056	-1.55242	3.40434	-1.57444
896.000	3.53435	-1.57224	3.40434	-1.54666
897.000	3.51859	-1.56632	3.41025	-1.57642
898.000	3.58161	-1.59795	3.35115	-1.56858
899.000	3.63872	-1.66729	3.40040	-1.54468
900.000	3.62690	-1.64945	3.48708	-1.58026
901.000	3.68400	-1.64737	3.43389	-1.61011
902.000	3.75487	-1.65318	3.55601	-1.57419
903.000	3.76275	-1.66705	3.58555	-1.59001
904.000	3.82967	-1.67287	3.60524	-1.55030
905.000	3.86313	-1.72437	3.56783	-1.66543
906.000	3.85723	-1.68869	3.62296	-1.68319
907.000	3.89068	-1.65292	3.63281	-1.70499
908.000	3.90052	-1.63505	3.68597	-1.65926
909.000	3.91233	-1.71237	3.66825	-1.64740
910.000	3.91823	-1.68063	3.70369	-1.60964
911.000	3.95955	-1.67063	3.67416	-1.60771
912.000	3.90249	-1.65687	3.66628	-1.62756
913.000	3.96349	-1.68847	3.68006	-1.66721
914.000	4.00087	-1.66658	3.78046	-1.65909
915.000	3.97333	-1.70233	3.62099	-1.61574
916.000	3.97333	-1.62301	3.77850	-1.70272
917.000	3.94971	-1.68057	3.68794	-1.63744
918.000	3.97726	-1.71026	3.74109	-1.64924
919.000	3.97136	-1.69242	3.73125	-1.70678
920.000	3.96349	-1.68451	3.67022	-1.66128
921.000	3.99693	-1.66858	3.62887	-1.73673
922.000	3.98710	-1.67851	3.73125	-1.69290
923.000	4.00874	-1.71217	3.69778	-1.72073
924.000	3.98119	-1.67456	3.70960	-1.68302
925.000	3.99497	-1.69634	3.71550	-1.64136
926.000	3.95955	-1.71228	3.68794	-1.63347
927.000	3.98513	-1.66860	3.73125	-1.67902
928.000	3.96545	-1.70830	3.63872	-1.62364
929.000	3.99300	-1.67453	3.60130	-1.69910
930.000	3.97333	-1.65673	3.69778	-1.68503
931.000	3.96545	-1.68252	3.58949	-1.65944
932.000	3.95365	-1.64685	3.59933	-1.65744
933.000	3.95365	-1.66073	3.61706	-1.68121
934.000	3.94184	-1.64489	3.64265	-1.62562
935.000	3.97333	-1.63888	3.60130	-1.62768
936.000	3.97529	-1.60516	3.59540	-1.60190
937.000	3.91626	-1.65486	3.59933	-1.53642
938.000	3.93004	-1.62706	3.59933	-1.65347
939.000	3.92413	-1.66872	3.58949	-1.59596
940.000	3.95562	-1.63495	3.58161	-1.62176
941.000	3.91233	-1.65090	3.60130	-1.61776
942.000	3.93397	-1.62309	3.60918	-1.66337
943.000	3.95365	-1.58339	3.68006	-1.61960
944.000	3.95562	-1.61512	3.61115	-1.62171
945.000	3.97333	-1.61112	3.56783	-1.59401
946.000	3.94184	-1.60126	3.56586	-1.57417
947.000	3.97333	-1.60517	3.64659	-1.65140
948.000	3.96545	-1.61708	3.60524	-1.63561
949.000	3.96742	-1.59923	3.58358	-1.56422
950.000	3.99890	-1.57537	3.60721	-1.59989
951.000	3.93201	-1.58145	3.58555	-1.59596
952.000	3.93791	-1.61912	3.71550	-1.56399
953.000	4.01267	-1.58922	3.67219	-1.66326
954.000	4.00480	-1.56346	3.60524	-1.61974
955.000	4.00480	-1.60312	3.60130	-1.65149
956.000	3.96349	-1.62303	3.59736	-1.64157
957.000	4.01661	-1.57534	3.65644	-1.59782
958.000	3.97726	-1.60119	3.57176	-1.51265
959.000	3.96939	-1.60914	3.66234	-1.62558
960.000	3.99300	-1.55753	3.62493	-1.62565
961.000	3.98906	-1.59919	3.59146	-1.58008
962.000	3.98119	-1.60515	3.57767	-1.57614
963.000	3.98119	-1.59920	3.61903	-1.58598
964.000	4.00284	-1.59519	3.65841	-1.67122
965.000	3.98119	-1.59722	3.60524	-1.58204
966.000	3.94971	-1.55365	3.67219	-1.64937
967.000	3.96349	-1.58932	3.64069	-1.60182
968.000	3.95955	-1.58734	3.66628	-1.58590
969.000	3.96939	-1.60121	3.55404	-1.64165
970.000	3.94775	-1.55564	3.49889	-1.71317
971.000	3.93594	-1.57946	3.62887	-1.59986
972.000	3.95168	-1.56554	3.68991	-1.62752
973.000	3.92610	-1.55568	3.64462	-1.67521
974.000	3.94184	-1.56556	3.64069	-1.62166
975.000	3.92217	-1.58742	3.65250	-1.66329
976.000	3.93201	-1.58938	3.58752	-1.58802
977.000	3.91626	-1.56561	3.63675	-1.60778
978.000	3.94775	-1.55365	3.68794	-1.55611
979.000	3.95168	-1.57149	3.64265	-1.56809
980.000	3.93201	-1.56161	3.65053	-1.62759
981.000	3.92413	-1.55171	3.59736	-1.69514
982.000	3.96939	-1.55758	3.66431	-1.61566
983.000	3.97529	-1.55757	3.70763	-1.63542
984.000	3.93004	-1.56955	3.55601	-1.67934
985.000	3.91823	-1.58742	3.62493	-1.61573
986.000	3.98906	-1.59324	3.63675	-1.63952
987.000	3.94184	-1.59928	3.67613	-1.70292
988.000	3.93397	-1.55368	3.66825	-1.66922
989.000	3.93594	-1.57946	3.59540	-1.63761
990.000	3.96152	-1.59131	3.62690	-1.66929
991.000	3.93004	-1.56558	3.61509	-1.65146
992.000	3.92610	-1.57154	3.67613	-1.69499
993.000	3.92020	-1.58742	3.70960	-1.68897
994.000	3.97136	-1.51989	3.72928	-1.70877
995.000	3.91823	-1.56561	3.67219	-1.71682
996.000	3.91823	-1.54974	3.67613	-1.71284
997.000	3.94775	-1.54374	3.63675	-1.66729
998.000	3.96939	-1.52585	3.63084	-1.56612
999.000	3.95758	-1.52983	3.74306	-1.66114
1000.000	3.97136	-1.52188	3.71550	-1.71475
1001.000	3.99693	-1.49803	3.68006	-1.67118
1002.000	3.92020	-1.49024	3.62493	-1.70302
1003.000	3.96152	-1.54569	3.64856	-1.64942
1004.000	3.94775	-1.54175	3.69975	-1.66321
1005.000	3.93791	-1.50607	3.62296	-1.73080
1006.000	3.97529	-1.53773	3.67416	-1.68111
1007.000	3.95365	-1.51398	3.61509	-1.62964
1008.000	3.94381	-1.53779	3.67613	-1.66523
1009.000	3.98316	-1.53375	3.62887	-1.75260
1010.000	3.94184	-1.51400	3.66038	-1.67518
1011.000	3.94381	-1.54374	3.68597	-1.76043
1012.000	3.94775	-1.52589	3.67810	-1.65134
1013.000	3.92807	-1.46840	3.61115	-1.68122
1014.000	3.96545	-1.54172	3.69581	-1.66916
1015.000	3.95758	-1.48620	3.68400	-1.65728
1016.000	3.96545	-1.51594	3.59343	-1.69911
1017.000	3.96152	-1.53578	3.64856	-1.66925
1018.000	3.98513	-1.49210	3.73519	-1.74049
1019.000	3.91626	-1.50809	3.71550	-1.62946
1020.000	3.96545	-1.50205	3.58555	-1.68326
1021.000	4.00284	-1.49207	3.71747	-1.67507
1022.000	3.99300	-1.53968	3.72928	-1.65522
1023.000	3.99693	-1.50993	3.71944	-1.65127
1024.000	3.95562	-1.52190	3.65053	-1.72678
1025.000	3.95168	-1.53976	3.64856	-1.72480
1026.000	3.94184	-1.49615	3.73125	-1.72463
1027.000	3.97726	-1.49013	3.64265	-1.70299
1028.000	3.95955	-1.49016	3.67022	-1.66128
1029.000	3.96152	-1.50404	3.62887	-1.76847
1030.000	3.93791	-1.49417	3.69778	-1.68701
1031.000	3.96742	-1.50205	3.65447	-1.64345
1032.000	3.91626	-1.47239	3.67613	-1.72871
1033.000	3.96742	-1.46635	3.61312	-1.62964
1034.000	3.93397	-1.50211	3.73322	-1.69686
1035.000	3.97529	-1.53575	3.71156	-1.65922
1036.000	3.98710	-1.54565	3.71353	-1.63541
1037.000	3.95955	-1.49016	3.71747	-1.67904
1038.000	3.95955	-1.46835	3.64265	-1.61372
1039.000	3.94381	-1.53581	3.71550	-1.66714
1040.000	3.95365	-1.45844	3.68006	-1.65729
1041.000	3.95758	-1.49810	3.72141	-1.73655
1042.000	3.99300	-1.46630	3.71156	-1.69690
1043.000	3.93791	-1.47235	3.70566	-1.70088
1044.000	3.94381	-1.48821	3.64069	-1.63554
1045.000	3.98119	-1.50004	3.68597	-1.68704
1046.000	3.93791	-1.49814	3.62296	-1.70104
1047.000	3.98316	-1.48814	3.65644	-1.70693
1048.000	3.95758	-1.49612	3.70369	-1.69295
1049.000	3.95562	-1.47430	3.66431	-1.71881
1050.000	3.95758	-1.52190	3.65250	-1.64346
1051.000	3.99300	-1.44647	3.67416	-1.65532
1052.000	3.93004	-1.45452	3.56389	-1.66742
1053.000	3.99103	-1.46234	3.70369	-1.66518
1054.000	3.94775	-1.45052	3.66038	-1.69105
1055.000	3.97136	-1.44254	3.68597	-1.72076
1056.000	3.96349	-1.44256	3.67022	-1.73665
1057.000	3.95955	-1.44256	3.65644	-1.68709
1058.000	3.96545	-1.41875	3.73125	-1.79009
1059.000	3.96349	-1.43066	3.66628	-1.68906
1060.000	4.00087	-1.46827	3.69581	-1.78222
1061.000	4.02644	-1.48409	3.70566	-1.81394
1062.000	3.98513	-1.47425	3.72535	-1.80596
1063.000	3.96939	-1.45246	3.66628	-1.77237
1064.000	3.97923	-1.46435	3.69385	-1.70289
1065.000	3.95758	-1.47628	3.70172	-1.77230
1066.000	4.01267	-1.47024	3.70369	-1.71874
1067.000	3.98119	-1.49211	3.78046	-1.71065
1068.000	4.00284	-1.44050	3.64659	-1.71488
1069.000	3.98513	-1.45244	3.71550	-1.64532
1070.000	3.96349	-1.47032	3.64659	-1.68314
1071.000	3.96349	-1.48421	3.66234	-1.72080
1072.000	3.96939	-1.46833	3.66825	-1.69699
1073.000	4.01464	-1.48213	3.69778	-1.65329
1074.000	3.98906	-1.47821	3.63478	-1.69903
1075.000	3.96152	-1.43463	3.60524	-1.79629
1076.000	3.95562	-1.46637	3.71550	-1.76433
1077.000	3.98119	-1.47029	3.72141	-1.74449
1078.000	3.98710	-1.47623	3.71353	-1.68897
1079.000	3.95562	-1.45447	3.68794	-1.69298
1080.000	3.96939	-1.44255	3.73322	-1.66116
1081.000	3.95168	-1.42671	3.63675	-1.76052
1082.000	3.98710	-1.49210	3.67022	-1.71285
1083.000	3.96152	-1.42273	3.67613	-1.59184
1084.000	4.00677	-1.47223	3.65644	-1.69106
1085.000	3.95562	-1.48621	3.62690	-1.69310
1086.000	3.99103	-1.49606	3.70369	-1.76634
1087.000	3.97136	-1.46833	3.67613	-1.64936
1088.000	4.02054	-1.48014	3.63675	-1.65737
1089.000	4.00480	-1.43257	3.61903	-1.68518
1090.000	3.94184	-1.45449	3.66431	-1.65930
1091.000	4.01267	-1.44247	3.62296	-1.72881
1092.000	3.95562	-1.45050	3.66038	-1.71089
1093.000	3.98119	-1.44451	3.62887	-1.65540
1094.000	3.95365	-1.45249	3.68597	-1.63149
1095.000	3.96939	-1.42866	3.68597	-1.70885
1096.000	3.95365	-1.45249	3.67810	-1.68507
1097.000	3.95562	-1.41877	3.66431	-1.66129
1098.000	3.98710	-1.42665	3.63281	-1.72284
1099.000	3.93004	-1.43666	3.66431	-1.67716
1100.000	3.96545	-1.43462	3.65644	-1.68511
1101.000	3.96939	-1.46833	3.67022	-1.70095
1102.000	3.97923	-1.44055	3.64069	-1.67522
1103.000	3.97923	-1.46236	3.69188	-1.61561
1104.000	3.99890	-1.41869	3.68006	-1.66919
1105.000	3.98906	-1.44450	3.68006	-1.76639
1106.000	3.96939	-1.42668	3.64462	-1.70893
1107.000	3.94971	-1.44456	3.69385	-1.72867
1108.000	3.99300	-1.43655	3.67416	-1.76640
1109.000	3.96152	-1.41876	3.73125	-1.69092
1110.000	3.99103	-1.44251	3.65053	-1.77636
1111.000	3.96939	-1.46040	3.66431	-1.68113
1112.000	3.97726	-1.39295	3.72338	-1.63738
1113.000	3.96349	-1.44256	3.68400	-1.57397
1114.000	3.95758	-1.43067	3.64462	-1.72877
1115.000	3.97529	-1.48220	3.61115	-1.72487
1116.000	3.98316	-1.43261	3.56389	-1.64163
1117.000	3.97333	-1.42072	3.68203	-1.69498
1118.000	3.98710	-1.44252	3.65447	-1.70693
1119.000	3.98710	-1.46433	3.64659	-1.70298
1120.000	3.97136	-1.42271	3.62887	-1.64350
1121.000	3.96349	-1.43661	3.66431	-1.68906
1122.000	3.98316	-1.43062	3.55601	-1.65950
1123.000	3.99693	-1.43853	3.64265	-1.69902
1124.000	4.00677	-1.44248	3.60721	-1.76455
1125.000	4.00087	-1.43456	3.63872	-1.70498
1126.000	3.99497	-1.43457	3.67810	-1.65928
1127.000	4.03825	-1.42458	3.73716	-1.65719
1128.000	3.97333	-1.43659	3.72338	-1.70283
1129.000	4.01661	-1.43056	3.68400	-1.65530
1130.000	4.02841	-1.41071	3.59933	-1.67926
1131.000	3.98316	-1.44649	3.68203	-1.66324
1132.000	4.01071	-1.49602	3.62099	-1.70104
1133.000	4.01858	-1.47221	3.69385	-1.65925
1134.000	4.00874	-1.43058	3.68006	-1.67514
1135.000	4.02644	-1.43650	3.65644	-1.77834
1136.000	4.00284	-1.46827	3.67613	-1.71086
1137.000	4.02448	-1.42658	3.66825	-1.77038
1138.000	4.01661	-1.41866	3.68006	-1.83581
1139.000	4.03235	-1.47020	3.71944	-1.77424
1140.000	4.01267	-1.43850	3.66431	-1.79022
1141.000	4.05202	-1.43843	3.67416	-1.80607
1142.000	3.96939	-1.47626	3.67219	-1.77632
1143.000	3.99497	-1.39490	3.62887	-1.75459
1144.000	4.03235	-1.41269	3.69385	-1.81594
1145.000	4.03628	-1.40078	3.69975	-1.82982
1146.000	4.07956	-1.40070	3.72141	-1.80399
1147.000	4.01464	-1.41867	3.74700	-1.77220
1148.000	4.03038	-1.43847	3.70763	-1.78022
1149.000	4.03038	-1.42062	3.78046	-1.80585
1150.000	4.01464	-1.35123	3.77653	-1.81379
1151.000	4.05399	-1.38488	3.77062	-1.77811
1152.000	3.98906	-1.36913	3.72928	-1.78612
1153.000	4.04808	-1.38489	3.70172	-1.69296
1154.000	4.06775	-1.39279	3.75881	-1.74045
1155.000	4.01858	-1.38494	3.73322	-1.76827
1156.000	4.02841	-1.40476	3.68991	-1.70885
1157.000	4.01661	-1.38693	3.76078	-1.78209
1158.000	4.01858	-1.40874	3.73716	-1.75041
1159.000	3.97333	-1.40485	3.75881	-1.72061
1160.000	3.99497	-1.38498	3.71156	-1.71079
1161.000	4.00284	-1.43654	3.73716	-1.77421
1162.000	3.99103	-1.41474	3.75094	-1.77616
1163.000	3.99693	-1.38101	3.74503	-1.79006
1164.000	4.00677	-1.35521	3.79621	-1.81772
1165.000	4.01858	-1.35718	3.75094	-1.81583
1166.000	4.02054	-1.39684	3.76078	-1.74838
1167.000	3.98710	-1.36516	3.71353	-1.75839
1168.000	3.98316	-1.40880	3.74700	-1.81187
1169.000	3.97529	-1.40882	3.71156	-1.76434
1170.000	4.01071	-1.40876	3.77456	-1.71860
1171.000	3.97529	-1.37907	3.77062	-1.76819
1172.000	4.00087	-1.34729	3.74503	-1.82179
1173.000	3.99103	-1.34730	3.75684	-1.77020
1174.000	3.98316	-1.39492	3.69581	-1.75247
1175.000	4.02644	-1.32543	3.71550	-1.74252
1176.000	4.00874	-1.36116	3.75881	-1.78606
1177.000	4.01661	-1.33139	3.74700	-1.71469
1178.000	3.99103	-1.34135	3.80802	-1.65110
1179.000	3.98710	-1.33343	3.68203	-1.74655
1180.000	3.98710	-1.35128	3.75487	-1.82573
1181.000	3.99103	-1.37111	3.72535	-1.70084
1182.000	4.05989	-1.36504	3.71944	-1.70879
1183.000	4.00087	-1.38299	3.72141	-1.68102
1184.000	3.99693	-1.32547	3.64856	-1.76050
1185.000	4.01071	-1.33934	3.69975	-1.70486
1186.000	4.01071	-1.34529	3.68400	-1.64737
1187.000	3.99497	-1.31159	3.76865	-1.77811
1188.000	3.98710	-1.35326	3.64856	-1.72083
1189.000	3.97726	-1.32947	3.67219	-1.73665
1190.000	3.98119	-1.36715	3.69188	-1.72471
1191.000	3.99693	-1.33738	3.76275	-1.77217
1192.000	4.00874	-1.34529	3.75094	-1.71270
1193.000	4.02251	-1.36907	3.70172	-1.72469
1194.000	3.98513	-1.33343	3.66825	-1.70691
1195.000	4.01858	-1.33536	3.60524	-1.71694
1196.000	4.02054	-1.32544	3.68400	-1.79415
1197.000	4.02841	-1.36906	3.63281	-1.74268
1198.000	4.00677	-1.37306	3.69975	-1.74056
1199.000	4.03038	-1.37501	3.78046	-1.77809
1200.000	4.00480	-1.37108	3.65250	-1.72875
1201.000	4.01267	-1.37107	3.70960	-1.77426
1202.000	3.99103	-1.37706	3.71156	-1.72864
1203.000	4.00284	-1.37505	3.66628	-1.75650
1204.000	3.96349	-1.36520	3.66825	-1.77435
1205.000	3.99497	-1.38102	3.74897	-1.76823
1206.000	4.01661	-1.32743	3.66825	-1.72476
1207.000	3.99890	-1.37109	3.78243	-1.79990
1208.000	4.01464	-1.36710	3.72141	-1.73259
1209.000	3.99497	-1.34928	3.72338	-1.72068
1210.000	4.00087	-1.31555	3.70960	-1.72864
1211.000	4.02251	-1.32940	3.71550	-1.70681
1212.000	4.00480	-1.35521	3.72535	-1.71076
1213.000	3.98316	-1.33740	3.70172	-1.69494
1214.000	4.00087	-1.38299	3.71944	-1.70681
1215.000	4.02054	-1.32147	3.65447	-1.66329
1216.000	4.04808	-1.38688	3.62493	-1.74269
1217.000	4.00874	-1.32546	3.72338	-1.72267
1218.000	4.03235	-1.34525	3.66628	-1.71881
1219.000	4.04218	-1.31945	3.64265	-1.64943
1220.000	4.01858	-1.34924	3.73716	-1.68099
1221.000	4.04218	-1.34920	3.70763	-1.72270
1222.000	3.98316	-1.34930	3.68203	-1.73663
1223.000	4.00677	-1.32744	3.73322	-1.70876
1224.000	4.03825	-1.34326	3.77456	-1.72653
1225.000	3.99300	-1.34730	3.67022	-1.71285
1226.000	3.98710	-1.32549	3.74700	-1.70279
1227.000	4.00480	-1.30563	3.69778	-1.69296
1228.000	4.01071	-1.34925	3.69975	-1.78420
1229.000	4.03628	-1.35715	3.67219	-1.74459
1230.000	3.98906	-1.32549	3.70763	-1.69096
1231.000	4.02251	-1.35717	3.72731	-1.80993
1232.000	4.05005	-1.35712	3.74700	-1.72064
1233.000	4.01661	-1.34329	3.71353	-1.71674
1234.000	4.03431	-1.35913	3.68006	-1.71878
1235.000	4.02448	-1.30163	3.74503	-1.78807
1236.000	4.02448	-1.33733	3.73716	-1.66314
1237.000	4.02251	-1.34328	3.73322	-1.78611
1238.000	4.00874	-1.30562	3.69975	-1.72470
1239.000	4.01464	-1.28578	3.75094	-1.72856
1240.000	4.03235	-1.29963	3.69188	-1.74058
1241.000	4.00284	-1.42860	3.63675	-1.77639
1242.000	3.94184	-1.40689	3.59146	-1.77648
1243.000	3.89068	-1.49624	3.61312	-1.87363
1244.000	3.83951	-1.54790	3.51268	-1.91747
1245.000	3.75487	-1.63930	3.48314	-1.95125
1246.000	3.65841	-1.74461	3.46147	-2.16945
1247.000	3.57570	-1.86379	3.48904	-2.36765
1248.000	3.47920	-1.94729	3.32750	-2.50286
1249.000	3.37085	-2.04867	3.24868	-2.58631
1250.000	3.33538	-2.13403	3.08904	-2.66204
1251.000	3.25854	-2.27501	3.08312	-2.77305
1252.000	3.17774	-2.39021	3.00426	-2.84461
1253.000	3.16197	-2.42991	3.05749	-3.00694
1254.000	3.14226	-2.47754	3.00624	-3.02888
1255.000	3.11466	-2.57277	3.01215	-3.07244
1256.000	3.16985	-2.58255	2.99441	-3.07249
1257.000	3.22898	-2.59231	3.00624	-3.02690
1258.000	3.24277	-2.58435	2.99244	-3.04675
1259.000	3.32750	-2.59007	3.04172	-2.97132
1260.000	3.33144	-2.56628	3.07918	-2.98311
1261.000	3.40237	-2.50068	3.10875	-2.87802
1262.000	3.43192	-2.46889	3.09101	-2.79483
1263.000	3.44965	-2.47677	3.16985	-2.87983
1264.000	3.52056	-2.36162	3.16985	-2.84218
1265.000	3.49495	-2.41521	3.07327	-2.72947
1266.000	3.55010	-2.34371	3.17182	-2.63805
1267.000	3.53238	-2.29618	3.11466	-2.63026
1268.000	3.52647	-2.29024	3.20927	-2.72516
1269.000	3.55010	-2.24062	3.20336	-2.59634
1270.000	3.51662	-2.25260	3.19153	-2.64989
1271.000	3.53238	-2.27635	3.21321	-2.67758
1272.000	3.52253	-2.27637	3.19941	-2.71527
1273.000	3.51465	-2.26252	3.19153	-2.69746
1274.000	3.50677	-2.24073	3.18365	-2.71135
1275.000	3.51071	-2.27839	3.24080	-2.70129
1276.000	3.48511	-2.26457	3.13240	-2.76896
1277.000	3.46147	-2.29040	3.18759	-2.72323
1278.000	3.45556	-2.27059	3.17774	-2.76289
1279.000	3.46738	-2.25073	3.20927	-2.70930
1280.000	3.44374	-2.29044	3.18759	-2.78070
1281.000	3.44965	-2.28448	3.17971	-2.80847
1282.000	3.42601	-2.35789	3.10481	-2.84830
1283.000	3.46541	-2.29832	3.15408	-2.77088
1284.000	3.40631	-2.29846	3.14423	-2.85414
1285.000	3.42404	-2.31627	3.09692	-2.86021
1286.000	3.42207	-2.36980	3.15014	-2.86601
1287.000	3.42010	-2.30240	3.10481	-2.88397
1288.000	3.41616	-2.40153	3.09495	-2.84635
1289.000	3.36100	-2.38581	3.10086	-2.91172
1290.000	3.40828	-2.37380	3.01807	-2.84457
1291.000	3.40237	-2.34011	3.01215	-2.86638
1292.000	3.38267	-2.39765	3.10678	-2.84433
1293.000	3.39843	-2.37779	3.10678	-2.82650
1294.000	3.42010	-2.37377	3.09692	-2.87408
1295.000	3.40434	-2.39958	3.07327	-2.85235
1296.000	3.35312	-2.40565	3.07129	-2.92369
1297.000	3.42995	-2.38960	3.05158	-2.87024
1298.000	3.41222	-2.46696	3.08904	-2.82853
1299.000	3.38070	-2.40360	3.07327	-2.82461
1300.000	3.42207	-2.44711	3.08509	-2.78890
1301.000	3.39252	-2.47098	3.09101	-2.81267
1302.000	3.39843	-2.43924	3.07524	-2.80677
1303.000	3.40237	-2.43725	3.07918	-2.87611
1304.000	3.37873	-2.46506	3.06144	-2.80284
1305.000	3.38070	-2.38576	3.10875	-2.82649
1306.000	3.44965	-2.43713	3.05158	-2.79890
1307.000	3.42601	-2.38565	3.09495	-2.84040
1308.000	3.43586	-2.37571	3.07129	-2.79488
1309.000	3.48708	-2.40730	3.06144	-2.89003
1310.000	3.44374	-2.44309	3.08312	-2.91177
1311.000	3.43783	-2.41139	3.09692	-2.82851
1312.000	3.41616	-2.38171	3.19350	-2.83815
1313.000	3.43389	-2.44114	3.17971	-2.82234
1314.000	3.47723	-2.36173	3.07524	-2.95736
1315.000	3.41025	-2.39758	3.11860	-2.81656
1316.000	3.47526	-2.42914	3.16197	-2.86796
1317.000	3.43192	-2.37572	3.06144	-2.86427
1318.000	3.41419	-2.37378	3.08509	-2.85232
1319.000	3.43783	-2.39553	3.09495	-2.77500
1320.000	3.48117	-2.41723	3.04369	-2.83261
1321.000	3.45359	-2.41928	3.09692	-2.78887
1322.000	3.44571	-2.42525	3.15803	-2.81249
1323.000	3.45162	-2.38162	3.18759	-2.86393
1324.000	3.44965	-2.37568	3.12255	-2.85816
1325.000	3.40631	-2.39561	3.05552	-2.82862
1326.000	3.45359	-2.41333	3.06735	-2.78102
1327.000	3.41813	-2.41937	3.08115	-2.85035
1328.000	3.43192	-2.41141	3.20730	-2.85198
1329.000	3.40828	-2.38371	3.08115	-2.85233
1330.000	3.45556	-2.42720	3.15014	-2.92347
1331.000	3.42404	-2.41143	3.10875	-2.83838
1332.000	3.45359	-2.37369	3.13240	-2.82643
1333.000	3.44965	-2.43911	3.15014	-2.80657
1334.000	3.44768	-2.40740	3.17576	-2.82829
1335.000	3.43192	-2.41735	3.02595	-2.87229
1336.000	3.41025	-2.43327	3.03187	-2.80688
1337.000	3.43586	-2.37175	3.14029	-2.77687
1338.000	3.41813	-2.42928	3.14226	-2.88585
1339.000	3.45556	-2.41729	3.14423	-2.85810
1340.000	3.39646	-2.43132	3.11663	-2.86610
1341.000	3.40631	-2.44914	3.10875	-2.81262
1342.000	3.42010	-2.43324	3.15014	-2.81251
1343.000	3.42207	-2.42729	3.05355	-2.85438
1344.000	3.42601	-2.42926	3.14226	-2.90368
1345.000	3.40631	-2.41345	3.15014	-2.86205
1346.000	3.42207	-2.37575	3.06538	-2.82265
1347.000	3.42798	-2.39159	3.07918	-2.81072
1348.000	3.40828	-2.41147	3.09889	-2.82850
1349.000	3.41813	-2.39756	3.07327	-2.77902
1350.000	3.41616	-2.38171	3.08312	-2.80080
1351.000	3.43980	-2.41932	3.05947	-2.86031
1352.000	3.44374	-2.42327	3.03975	-2.84848
1353.000	3.41419	-2.36585	3.05552	-2.79691
1354.000	3.45162	-2.41334	3.08706	-2.85231
1355.000	3.43389	-2.39951	3.05355	-2.86826
1356.000	3.44177	-2.42526	3.12846	-2.91165
1357.000	3.44374	-2.42525	3.00426	-2.87037
1358.000	3.42798	-2.40547	3.08312	-2.83647
1359.000	3.40828	-2.40552	3.02989	-2.85048
1360.000	3.40828	-2.40948	3.01412	-2.92385
1361.000	3.39843	-2.41545	3.05355	-2.84448
1362.000	3.39449	-2.44718	3.07129	-2.84047
1363.000	3.40828	-2.42732	3.06144	-2.80284
1364.000	3.42010	-2.46694	3.06735	-2.86822
1365.000	3.41419	-2.45506	3.04567	-2.81675
1366.000	3.39252	-2.46503	3.18365	-2.80648
1367.000	3.37282	-2.46111	3.05552	-2.84051
1368.000	3.37282	-2.44327	3.11466	-2.86215
1369.000	3.35312	-2.44729	3.10086	-2.82651
1370.000	3.37085	-2.44328	3.16394	-2.82634
1371.000	3.37085	-2.38975	3.09692	-2.82851
1372.000	3.37282	-2.39966	3.05749	-2.80879
1373.000	3.40040	-2.40950	3.10678	-2.82848
1374.000	3.42995	-2.37573	3.07327	-2.88009
1375.000	3.41813	-2.39756	3.10678	-2.85028
1376.000	3.38858	-2.38574	3.16591	-2.82634
1377.000	3.38661	-2.39962	3.16985	-2.91747
1378.000	3.41813	-2.33412	3.16197	-2.85409
1379.000	3.39449	-2.39762	3.16591	-2.89371
1380.000	3.38267	-2.38377	3.18956	-2.87779
1381.000	3.47132	-2.38157	3.13634	-2.87398
1382.000	3.41616	-2.34008	3.15408	-2.82835
1383.000	3.39646	-2.39365	3.16788	-2.90163
1384.000	3.44768	-2.38163	3.09889	-2.92362
1385.000	3.44768	-2.35586	3.15014	-2.87790
1386.000	3.45753	-2.36376	3.13832	-2.82443
1387.000	3.50677	-2.35968	3.17971	-2.94122
1388.000	3.46541	-2.38555	3.09692	-2.84238
1389.000	3.48708	-2.30620	3.10283	-2.89785
1390.000	3.47132	-2.36175	3.14226	-2.90764
1391.000	3.48511	-2.38748	3.07129	-2.83254
1392.000	3.49101	-2.29628	3.14029	-2.90765
1393.000	3.46738	-2.33400	3.13437	-2.90767
1394.000	3.51662	-2.32793	3.13043	-2.90173
1395.000	3.51662	-2.32992	3.18365	-2.92140
1396.000	3.50874	-2.39139	3.18562	-2.91149
1397.000	3.49889	-2.33591	3.07129	-2.86425
1398.000	3.52844	-2.32394	3.14423	-2.84225
1399.000	3.53828	-2.37347	3.15408	-2.83033
1400.000	3.51268	-2.29226	3.12255	-2.91166
1401.000	3.50874	-2.29227	3.11663	-2.90177
1402.000	3.52253	-2.32197	3.18365	-2.92536
1403.000	3.50480	-2.40527	3.18956	-2.88572
1404.000	3.49692	-2.38547	3.15014	-2.92149
1405.000	3.51859	-2.32991	3.13832	-2.81254
1406.000	3.45556	-2.31619	3.13240	-2.91560
1407.000	3.48117	-2.35181	3.13832	-2.87992
1408.000	3.49495	-2.32006	3.09692	-2.90183
1409.000	3.48708	-2.32404	3.12452	-2.87599
1410.000	3.50283	-2.33788	3.21124	-2.83018
1411.000	3.46738	-2.34392	3.16197	-2.81446
1412.000	3.50874	-2.38346	3.13240	-2.88984
1413.000	3.49692	-2.34582	3.16788	-2.89172
1414.000	3.48314	-2.33793	3.17774	-2.87386
1415.000	3.51071	-2.36958	3.17971	-2.89169
1416.000	3.46935	-2.38752	3.22109	-2.88959
1417.000	3.49889	-2.36168	3.24080	-2.81623
1418.000	3.52450	-2.39729	3.09889	-2.85030
1419.000	3.53828	-2.35365	3.10283	-2.88398
1420.000	3.44177	-2.42328	3.13437	-2.84030
1421.000	3.47526	-2.39742	3.15014	-2.89772
1422.000	3.45950	-2.40341	3.14817	-2.85809
1423.000	3.47723	-2.40138	3.12649	-2.85419
1424.000	3.44965	-2.43118	3.15605	-2.88779
1425.000	3.42798	-2.38763	3.22306	-2.85392
1426.000	3.41025	-2.39164	3.08509	-2.85430
1427.000	3.42207	-2.39954	3.14423	-2.81649
1428.000	3.45950	-2.41134	3.04172	-2.80883
1429.000	3.46344	-2.42917	3.15803	-2.77087
1430.000	3.44571	-2.39155	3.18562	-2.82034
1431.000	3.45556	-2.45496	3.20730	-2.86189
1432.000	3.43586	-2.38959	3.15408	-2.85411
1433.000	3.43980	-2.42923	3.14029	-2.84226
1434.000	3.44374	-2.43516	3.21124	-2.78262
1435.000	3.42207	-2.43125	3.20336	-2.81237
1436.000	3.44374	-2.43120	3.14817	-2.88781
1437.000	3.42798	-2.40547	3.12846	-2.92948
1438.000	3.43783	-2.43518	3.18956	-2.87779
1439.000	3.44965	-2.44704	3.17774	-2.86792
1440.000	3.42010	-2.47289	3.08312	-2.85232
1441.000	3.43783	-2.42527	3.14620	-2.88980
1442.000	3.44177	-2.44904	3.15211	-2.82440
1443.000	3.44177	-2.47481	3.13240	-2.79076
1444.000	3.48708	-2.43703	3.12452	-2.90769
1445.000	3.45162	-2.44704	3.11466	-2.84629
1446.000	3.44177	-2.45697	3.14423	-2.86801
1447.000	3.45753	-2.48072	3.13240	-2.87201
1448.000	3.46541	-2.43709	3.16394	-2.87192
1449.000	3.44965	-2.44704	3.07721	-2.94745
1450.000	3.47526	-2.46878	3.16985	-2.85407
1451.000	3.45950	-2.46089	3.14817	-2.87394
1452.000	3.42601	-2.47287	3.16394	-2.86796
1453.000	3.41616	-2.46893	3.12255	-2.93742
1454.000	3.46541	-2.47673	3.20730	-2.83811
1455.000	3.47920	-2.43309	3.09101	-2.87212
1456.000	3.45359	-2.45694	3.14423	-2.88584
1457.000	3.46344	-2.44304	3.12452	-2.91562
1458.000	3.43586	-2.45104	3.16591	-2.86201
1459.000	3.45162	-2.41730	3.14226	-2.86802
1460.000	3.46541	-2.44502	3.14029	-2.92350
1461.000	3.48117	-2.47867	3.17182	-2.86595
1462.000	3.43586	-2.43320	3.22504	-2.93317
1463.000	3.48117	-2.46084	3.10086	-2.90974
1464.000	3.42404	-2.41936	3.12255	-2.90770
1465.000	3.43980	-2.44509	3.13634	-2.92153
1466.000	3.43586	-2.40941	3.12452	-2.92949
1467.000	3.44177	-2.44706	3.16394	-2.87192
1468.000	3.46541	-2.46484	3.03581	-2.87623
1469.000	3.44177	-2.42328	3.12649	-2.92552
1470.000	3.45162	-2.46091	3.09298	-2.89589
1471.000	3.47723	-2.47472	3.17379	-2.91548
1472.000	3.49298	-2.44495	3.13240	-2.93541
1473.000	3.44965	-2.44110	3.08115	-2.84242
1474.000	3.43389	-2.39554	3.13832	-2.93539
1475.000	3.44571	-2.48471	3.16197	-2.91750
1476.000	3.46344	-2.46485	3.11466	-2.93546
1477.000	3.46738	-2.40537	3.16394	-2.85012
1478.000	3.46344	-2.43115	3.12649	-2.93345
1479.000	3.50480	-2.47267	3.14423	-2.93340
1480.000	3.49101	-2.44297	3.12452	-2.90175
1481.000	3.46541	-2.41132	3.13437	-2.92352
1482.000	3.52844	-2.43891	3.15605	-2.96308
1483.000	3.49298	-2.38945	3.14620	-2.90961
1484.000	3.45162	-2.44902	3.12649	-2.83437
1485.000	3.49298	-2.42314	3.11072	-2.91368
1486.000	3.49495	-2.44494	3.20730	-2.91737
1487.000	3.50874	-2.46473	3.10678	-2.92954
1488.000	3.49298	-2.43504	3.16591	-2.91154
1489.000	3.48708	-2.44298	3.20336	-2.91936
1490.000	3.47526	-2.45689	3.10875	-2.92953
1491.000	3.46541	-2.40736	3.15803	-2.94128
1492.000	3.48511	-2.48065	3.12846	-2.93146
1493.000	3.44965	-2.36973	3.18956	-2.98279
1494.000	3.46147	-2.41530	3.19941	-2.89956
1495.000	3.43586	-2.43122	3.18365	-2.98479
1496.000	3.48314	-2.41128	3.09889	-2.85624
1497.000	3.48708	-2.43109	3.20139	-3.00059
1498.000	3.49101	-2.41522	3.21912	-2.94507
1499.000	3.47329	-2.43509	3.12255	-2.90572
1500.000	3.50283	-2.42114	3.21912	-2.89950
1501.000	3.47132	-2.36373	3.20533	-2.91935
1502.000	3.47723	-2.39147	3.17774	-2.89764
1503.000	3.46541	-2.43511	3.12058	-2.99686
1504.000	3.47920	-2.39939	3.12649	-2.86806
1505.000	3.49101	-2.39936	3.18759	-2.91940
1506.000	3.46344	-2.41529	3.17971	-2.93528
1507.000	3.50086	-2.40330	3.19744	-2.96692
1508.000	3.47920	-2.39741	3.17379	-2.95312
1509.000	3.50677	-2.38743	3.20139	-2.94710
1510.000	3.45162	-2.45893	3.15803	-2.93138
1511.000	3.52450	-2.43694	3.19350	-2.99071
1512.000	3.46344	-2.40538	3.07524	-2.87216
1513.000	3.49495	-2.39341	3.15803	-2.89769
1514.000	3.43586	-2.41734	3.18562	-2.89167
1515.000	3.48314	-2.42713	3.07721	-2.86819
1516.000	3.46541	-2.44898	3.14817	-2.87791
1517.000	3.48511	-2.43902	3.12846	-2.92551
1518.000	3.50086	-2.39537	3.14226	-2.90764
1519.000	3.44965	-2.41533	3.12058	-2.87402
1520.000	3.51859	-2.38542	3.11269	-2.93943
1521.000	3.55995	-2.35161	3.16000	-2.93533
1522.000	3.55995	-2.45072	3.25263	-2.90733
1523.000	3.63478	-2.55753	3.24277	-3.02027
1524.000	3.68991	-2.67624	3.37282	-3.12681
1525.000	3.75684	-2.74536	3.45556	-3.20969
1526.000	3.89462	-2.84987	3.52450	-3.35592
1527.000	4.04808	-2.97997	3.68006	-3.45624
1528.000	4.16610	-3.12792	3.78637	-3.63973
1529.000	4.28604	-3.26390	3.98119	-3.75352
1530.000	4.40987	-3.37210	4.05595	-3.87369
1531.000	4.46490	-3.48647	4.20936	-4.01907
1532.000	4.51205	-3.63640	4.21722	-4.12563
1533.000	4.61617	-3.71881	4.26245	-4.16486
1534.000	4.62010	-3.82343	4.31159	-4.27311
1535.000	4.62599	-3.83327	4.35091	-4.33010
1536.000	4.59260	-3.88083	4.28604	-4.41133
1537.000	4.59457	-3.93609	4.33715	-4.40709
1538.000	4.56314	-3.88099	4.25458	-4.38390
1539.000	4.52384	-3.85356	4.15036	-4.34306
1540.000	4.46686	-3.85584	4.13856	-4.34115
1541.000	4.44918	-3.79274	4.08152	-4.30199
1542.000	4.40791	-3.73568	4.10709	-4.25253
1543.000	4.43739	-3.71775	3.94578	-4.21191
1544.000	4.36074	-3.68060	3.99890	-4.15045
1545.000	4.36860	-3.63117	3.88871	-4.09373
1546.000	4.31356	-3.64527	3.92020	-4.03631
1547.000	4.32732	-3.58000	3.90839	-4.06797
1548.000	4.36074	-3.54427	4.02251	-4.05951
1549.000	4.30373	-3.54849	3.93397	-3.99082
1550.000	4.30176	-3.51095	3.89068	-3.98312
1551.000	4.33322	-3.51476	3.87100	-4.04247
1552.000	4.32732	-3.49107	3.95562	-3.99862
1553.000	4.34698	-3.53050	3.95365	-3.98480
1554.000	4.34894	-3.53049	3.98316	-4.02218
1555.000	4.38825	-3.51845	3.90839	-4.02254
1556.000	4.35091	-3.54037	3.95758	-4.09142
1557.000	4.36270	-3.54426	4.03628	-4.03377
1558.000	4.37646	-3.59952	3.96152	-4.03809
1559.000	4.39808	-3.54014	4.00087	-4.02012
1560.000	4.38432	-3.56392	3.98906	-4.10114
1561.000	4.40791	-3.60135	4.04218	-4.04361
1562.000	4.42559	-3.63682	4.08939	-4.10656
1563.000	4.42559	-3.61114	4.04415	-4.09099
1564.000	4.44132	-3.59921	4.05989	-4.06524
1565.000	4.39612	-3.60733	3.97529	-4.09331
1566.000	4.46686	-3.60304	4.07562	-4.13426
1567.000	4.45900	-3.62283	4.04415	-4.04755
1568.000	4.49241	-3.65427	3.98906	-4.15445
1569.000	4.47472	-3.62473	4.02644	-4.05554
1570.000	4.43739	-3.65454	3.92217	-4.06987
1571.000	4.49830	-3.62264	3.99693	-4.14454
1572.000	4.51205	-3.64232	4.04218	-4.18576
1573.000	4.49634	-3.68783	4.00677	-4.09908
1574.000	4.48258	-3.67605	3.98906	-4.15642
1575.000	4.46293	-3.65837	3.96545	-4.08348
1576.000	4.46883	-3.69192	3.96742	-4.12297
1577.000	4.46293	-3.68997	4.10513	-4.11042
1578.000	4.46097	-3.70381	3.95562	-4.06576
1579.000	4.50616	-3.62062	3.99103	-4.06164
1580.000	4.48062	-3.64643	3.98513	-4.03797
1581.000	4.48651	-3.64245	3.99693	-4.05174
1582.000	4.46097	-3.64850	3.97726	-4.05973
1583.000	4.46686	-3.65440	4.01071	-4.11683
1584.000	4.43346	-3.71777	3.98710	-3.98859
1585.000	4.48651	-3.67208	3.96939	-4.11308
1586.000	4.49437	-3.67994	4.03825	-4.09694
1587.000	4.46883	-3.65834	3.99300	-4.14061
1588.000	4.46097	-3.74528	4.04218	-4.15220
1589.000	4.46097	-3.64455	3.98316	-4.00243
1590.000	4.46883	-3.69389	3.93988	-4.06979
1591.000	4.45704	-3.69790	4.00087	-4.06554
1592.000	4.43346	-3.70790	4.04612	-4.13244
1593.000	4.42166	-3.67833	3.96152	-4.10128
1594.000	4.45507	-3.70581	3.95168	-4.06183
1595.000	4.44918	-3.68807	4.00677	-4.07933
1596.000	4.41773	-3.68822	4.00087	-4.02999
1597.000	4.42756	-3.63484	4.00284	-4.07145
1598.000	4.40201	-3.64089	4.04415	-4.04163
1599.000	4.40398	-3.67249	3.96545	-4.07559
1600.000	4.41184	-3.67047	4.04021	-4.06139
1601.000	4.44525	-3.64858	4.04808	-4.06925
1602.000	4.40791	-3.67642	4.05792	-4.06328
1603.000	4.37843	-3.70027	4.04612	-4.02780
1604.000	4.40594	-3.73174	4.00677	-4.08920
1605.000	4.33911	-3.69454	4.01858	-4.09704
1606.000	4.38825	-3.72195	4.02251	-4.01409
1607.000	4.39612	-3.69623	3.98513	-4.11893
1608.000	4.40987	-3.68826	3.99693	-4.03199
1609.000	4.40005	-3.68436	4.07956	-4.06909
1610.000	4.38629	-3.68443	4.04808	-4.03963
1611.000	4.40398	-3.65668	4.00677	-4.06748
1612.000	4.34501	-3.71229	3.97136	-4.08346
1613.000	4.43935	-3.68219	4.07169	-4.06913
1614.000	4.37253	-3.65289	4.01267	-4.01414
1615.000	4.40201	-3.63299	4.01464	-4.11483
1616.000	4.40398	-3.67051	3.96939	-3.99657
1617.000	4.36860	-3.64500	4.02448	-4.17401
1618.000	4.38825	-3.67652	4.03825	-4.14433
1619.000	4.40201	-3.65669	4.05399	-4.03566
1620.000	4.39022	-3.66465	4.06972	-4.03558
1621.000	4.40791	-3.66654	3.95168	-4.01443
1622.000	4.41773	-3.67637	4.10906	-4.12422
1623.000	4.41184	-3.67640	4.07956	-4.05725
1624.000	4.38432	-3.63900	4.04612	-4.08308
1625.000	4.39218	-3.70810	4.01464	-4.08522
1626.000	4.37646	-3.64694	4.04218	-4.10680
1627.000	4.38629	-3.67060	4.02054	-4.09506
1628.000	4.36270	-3.69640	4.01858	-4.08125
1629.000	4.37056	-3.65092	3.98119	-4.08538
1630.000	4.40594	-3.64482	4.05792	-4.13633
1631.000	4.40594	-3.69816	4.05989	-4.07907
1632.000	4.37253	-3.64894	3.97923	-4.14462
1633.000	4.36270	-3.66084	4.06382	-4.18170
1634.000	4.39808	-3.64881	4.04808	-4.09689
1635.000	4.37056	-3.62919	4.13660	-4.14382
1636.000	4.38629	-3.64097	4.09923	-4.19731
1637.000	4.37843	-3.65483	4.07956	-4.02960
1638.000	4.37253	-3.66474	4.08152	-4.10660
1639.000	4.41773	-3.71785	4.05399	-4.07910
1640.000	4.40005	-3.66263	4.09529	-4.18549
1641.000	4.39612	-3.65475	4.01267	-4.07535
1642.000	4.41970	-3.64871	4.05399	-4.07317
1643.000	4.43149	-3.60716	4.03431	-4.00613
1644.000	4.42559	-3.72769	4.07366	-4.10269
1645.000	4.39415	-3.64093	3.97923	-4.08539
1646.000	4.42166	-3.65857	4.10119	-4.03542
1647.000	4.41970	-3.65068	4.00087	-4.08331
1648.000	4.39218	-3.63896	4.05202	-4.06923
1649.000	4.40201	-3.67052	4.05399	-4.10871
1650.000	4.40791	-3.62506	4.11496	-4.13801
1651.000	4.41577	-3.66848	4.00284	-4.14056
1652.000	4.38825	-3.69825	4.04808	-4.08702
1653.000	4.40201	-3.72386	4.02841	-4.12266
1654.000	4.35877	-3.69839	3.99300	-4.17219
1655.000	4.38039	-3.65285	3.98710	-4.05573
1656.000	4.40987	-3.70604	4.10709	-4.13608
1657.000	4.40594	-3.70606	4.04415	-4.08902
1658.000	4.38236	-3.67654	4.11693	-4.09852
1659.000	4.37646	-3.70818	4.01464	-4.07732
1660.000	4.36467	-3.70231	4.02251	-4.12664
1661.000	4.40791	-3.69617	4.04612	-4.07519
1662.000	4.38629	-3.69035	4.07956	-4.14017
1663.000	4.40594	-3.64877	4.05595	-4.14029
1664.000	4.41380	-3.72775	4.03825	-4.06338
1665.000	4.38629	-3.65282	4.06579	-4.11655
1666.000	4.40791	-3.69815	3.94971	-4.13095
1667.000	4.40201	-3.67447	4.01858	-4.12666
1668.000	4.40594	-3.66458	4.08546	-4.11052
1669.000	4.40005	-3.71201	4.07366	-4.18955
1670.000	4.43149	-3.70001	4.00284	-4.13069
1671.000	4.41577	-3.70206	3.98119	-4.08143
1672.000	4.41577	-3.68823	3.99497	-4.08334
1673.000	4.40398	-3.69027	3.98316	-4.05970
1674.000	4.42363	-3.66251	4.06972	-4.03360
1675.000	4.38629	-3.72788	4.06775	-4.04743
1676.000	4.42953	-3.71779	4.12676	-4.12018
1677.000	4.40005	-3.70806	4.07956	-4.05132
1678.000	4.39808	-3.71597	4.08349	-4.15791
1679.000	4.42756	-3.68817	4.02054	-4.05557
1680.000	4.40594	-3.73964	3.97529	-4.12687
1681.000	4.39022	-3.75749	4.05595	-4.12252
1682.000	4.40791	-3.73765	3.95758	-4.15460
1683.000	4.40201	-3.73373	4.08939	-4.13025
1684.000	4.42166	-3.71586	4.03431	-4.11671
1685.000	4.43346	-3.70197	4.07169	-4.14021
1686.000	4.42559	-3.72176	4.01661	-4.12864
1687.000	4.40201	-3.74163	3.97136	-4.13874
1688.000	4.40201	-3.71003	3.99890	-4.10701
1689.000	4.40791	-3.76333	4.02448	-4.12071
1690.000	4.38039	-3.72594	4.05595	-4.05342
1691.000	4.42363	-3.73560	4.04808	-4.18178
1692.000	4.43149	-3.73951	4.05989	-4.15409
1693.000	4.43346	-3.73950	4.04808	-4.06135
1694.000	4.41970	-3.71982	3.97136	-4.07556
1695.000	4.41773	-3.74945	4.04415	-4.06730
1696.000	4.43935	-3.69997	4.06775	-4.10469
1697.000	4.39808	-3.70017	4.04808	-4.06530
1698.000	4.40594	-3.68828	4.03628	-4.13644
1699.000	4.42363	-3.71190	4.00480	-4.12870
1700.000	4.43346	-3.70592	4.12873	-4.08661
1701.000	4.38432	-3.73580	4.05005	-4.09688
1702.000	4.42756	-3.70793	3.99300	-4.12481
1703.000	4.39022	-3.70614	4.01267	-4.06943
1704.000	4.39022	-3.70811	4.03038	-4.14634
1705.000	4.43739	-3.66837	4.15626	-4.08252
1706.000	4.41577	-3.67441	4.04808	-4.10084
1707.000	4.44918	-3.71769	4.08939	-4.09471
1708.000	4.42559	-3.71979	4.06972	-4.05137
1709.000	4.42756	-3.69608	4.00677	-4.10500
1710.000	4.40398	-3.68829	4.00284	-4.10699
1711.000	4.40594	-3.69026	4.05399	-4.07317
1712.000	4.40005	-3.69029	4.00480	-4.09711
1713.000	4.40201	-3.72188	4.15823	-4.09633
1714.000	4.44132	-3.68613	4.09923	-4.14401
1715.000	4.41970	-3.65266	4.02054	-4.15429
1716.000	4.43935	-3.69997	4.06185	-4.10077
1717.000	4.41970	-3.67834	4.03628	-4.08708
1718.000	4.42756	-3.67830	4.04612	-4.10480
1719.000	4.41380	-3.68824	4.11299	-4.16368
1720.000	4.44721	-3.66635	4.11496	-4.11432
1721.000	4.40594	-3.68038	4.06775	-4.14418
1722.000	4.39808	-3.68042	4.04218	-4.14233
1723.000	4.41380	-3.65664	4.13463	-4.11422
1724.000	4.41380	-3.69219	4.06382	-4.12445
1725.000	4.39415	-3.68241	4.06972	-4.19154
1726.000	4.40398	-3.64286	4.02448	-4.15032
1727.000	4.41577	-3.61316	4.02054	-4.10888
1728.000	4.38039	-3.67458	4.04218	-4.10087
1729.000	4.42756	-3.64076	4.02251	-4.10097
1730.000	4.41184	-3.67640	4.02251	-4.13256
1731.000	4.42756	-3.69015	4.05202	-4.11267
1732.000	4.40791	-3.66457	4.04612	-4.18969
1733.000	4.41773	-3.65464	4.10709	-4.19529
1734.000	4.43149	-3.70791	4.05399	-4.17780
1735.000	4.43542	-3.70394	4.06972	-4.14417
1736.000	4.43149	-3.66050	4.10513	-4.13016
1737.000	4.38432	-3.66468	3.99890	-4.10306
1738.000	4.44328	-3.64859	4.02251	-4.18389
1739.000	4.42953	-3.66248	4.04021	-4.14629
1740.000	4.40594	-3.65272	3.97923	-4.06959
1741.000	4.40005	-3.65078	3.92610	-4.13502
1742.000	4.43739	-3.63084	4.02251	-4.12072
1743.000	4.44132	-3.64465	4.09136	-4.17564
1744.000	4.36663	-3.65094	4.12480	-4.12612
1745.000	4.41184	-3.61911	4.02448	-4.17203
1746.000	4.42559	-3.63682	4.05005	-4.17585
1747.000	4.39612	-3.64487	4.04808	-4.16994
1748.000	4.40791	-3.68630	3.94184	-4.11914
1749.000	4.40201	-3.65274	4.04808	-4.12059
1750.000	4.41970	-3.62500	4.07169	-4.19153
1751.000	4.40791	-3.59344	4.00284	-4.10897
1752.000	4.44328	-3.67032	4.01661	-4.10495
1753.000	4.44132	-3.61699	4.04021	-4.18972
1754.000	4.44525	-3.65253	4.00874	-4.15632
1755.000	4.43935	-3.63478	4.00677	-4.16423
1756.000	4.40005	-3.65275	3.93004	-4.09156
1757.000	4.43149	-3.66248	4.02054	-4.15823
1758.000	4.43149	-3.65062	4.06185	-4.20145
1759.000	4.40791	-3.66654	4.06185	-4.14026
1760.000	4.41184	-3.63689	4.07169	-4.12639
1761.000	4.38432	-3.66271	4.04218	-4.06336
1762.000	4.36663	-3.64699	4.16020	-4.18120
1763.000	4.42756	-3.62891	4.07562	-4.15006
1764.000	4.43739	-3.66442	4.02054	-4.11283
1765.000	4.41773	-3.68032	3.99497	-4.12283
1766.000	4.40594	-3.67248	4.05792	-4.15015
1767.000	4.42756	-3.66249	4.06382	-4.08892
1768.000	4.38629	-3.68048	3.94578	-4.10530
1769.000	4.40594	-3.65272	4.07956	-4.17767
1770.000	4.40987	-3.65468	4.02251	-4.19968
1771.000	4.37450	-3.68844	4.05989	-4.11855
1772.000	4.39218	-3.63896	3.92413	-4.17451
1773.000	4.42559	-3.72374	4.08152	-4.11844
1774.000	4.39808	-3.69030	4.00480	-4.11883
1775.000	4.41577	-3.62502	4.02251	-4.14835
1776.000	4.41773	-3.66057	4.01858	-4.12666
1777.000	4.40201	-3.68040	3.96545	-4.11903
1778.000	4.38039	-3.70421	3.92020	-4.11925
1779.000	4.41773	-3.69415	4.07759	-4.08885
1780.000	4.38629	-3.70418	3.98906	-4.18603
1781.000	4.43542	-3.70986	4.09333	-4.17957
1782.000	4.42363	-3.70005	4.05399	-4.12648
1783.000	4.40594	-3.70606	4.07956	-4.10463
1784.000	4.41970	-3.65266	4.08742	-4.14210
1785.000	4.41380	-3.70997	4.03431	-4.15224
1786.000	4.40987	-3.66653	4.02644	-4.11872
1787.000	4.40594	-3.66260	4.09333	-4.13615
1788.000	4.41380	-3.70009	4.05595	-4.17385
1789.000	4.41184	-3.70405	3.97923	-4.08934
1790.000	4.39612	-3.67055	4.05595	-4.11265
1791.000	4.42166	-3.67635	4.03038	-4.12660
1792.000	4.36663	-3.64699	4.02251	-4.12269
1793.000	4.40398	-3.65866	4.00677	-4.15041
1794.000	4.39612	-3.71796	3.99497	-4.16034
1795.000	4.39022	-3.69428	4.06972	-4.14614
1796.000	4.41184	-3.70405	3.93594	-4.12707
1797.000	4.37253	-3.69240	4.06185	-4.13039
1798.000	4.39022	-3.71601	3.98906	-4.04980
1799.000	4.39218	-3.70810	4.02841	-4.12661
1800.000	4.38236	-3.69235	3.99497	-4.10506
1801.000	4.41773	-3.68822	4.02448	-4.10096
1802.000	4.40987	-3.71592	4.08349	-4.13817
1803.000	4.41970	-3.67834	3.97726	-4.15451
1804.000	4.39022	-3.70416	4.05005	-4.18967
1805.000	4.41380	-3.72775	3.99890	-4.09517
1806.000	4.40201	-3.74558	3.99890	-4.17019
1807.000	4.42166	-3.69808	4.07366	-4.12046
1808.000	4.38825	-3.72392	3.98119	-4.06169
1809.000	4.42363	-3.68227	4.00087	-4.07344
1810.000	4.36663	-3.74181	4.08152	-4.12239
1811.000	4.40987	-3.72777	4.07956	-4.14609
1812.000	4.43739	-3.71183	3.98906	-4.03598
1813.000	4.40987	-3.70209	4.03235	-4.14238
1814.000	4.41773	-3.69415	3.99497	-4.10506
1815.000	4.41773	-3.75340	4.02448	-4.10096
1816.000	4.44918	-3.67819	4.05989	-4.14422
1817.000	4.41184	-3.73763	4.07759	-4.08293
1818.000	4.40005	-3.73374	4.01464	-4.16221
1819.000	4.39022	-3.70219	4.08546	-4.06512
1820.000	4.41577	-3.69416	4.01071	-4.13657
1821.000	4.37253	-3.66474	4.06185	-4.07116
1822.000	4.40005	-3.67053	4.06579	-4.10865
1823.000	4.43346	-3.68024	4.02644	-4.11082
1824.000	4.40398	-3.70607	4.07759	-4.07700
1825.000	4.42166	-3.67043	4.03038	-4.08711
1826.000	4.38825	-3.71602	4.00874	-4.12868
1827.000	4.39612	-3.74759	4.04218	-4.13049
1828.000	4.41184	-3.71196	4.03825	-4.15617
1829.000	4.44328	-3.74340	4.11299	-4.17355
1830.000	4.53956	-3.76463	4.17199	-4.19890
1831.000	4.62207	-3.84119	4.27424	-4.22794
1832.000	4.82432	-3.93085	4.47865	-4.39640
1833.000	5.06764	-4.07731	4.56706	-4.51216
1834.000	5.28530	-4.24340	4.74971	-4.55631
1835.000	5.52631	-4.46223	4.90086	-4.65377
1836.000	5.69667	-4.56716	5.24217	-4.79103
1837.000	6.00774	-4.69437	5.44404	-4.97820
1838.000	6.30674	-4.87239	5.77887	-5.13837
1839.000	6.61125	-5.00874	5.93539	-5.24095
1840.000	6.81990	-5.23588	6.28721	-5.48255
1841.000	6.95240	-5.41063	6.44928	-5.60813
1842.000	7.09067	-5.54793	6.68342	-5.73660
1843.000	7.20746	-5.72244	6.79261	-5.86828
1844.000	7.29306	-5.83075	6.97578	-5.96958
1845.000	7.36891	-6.04642	7.06342	-6.14612
1846.000	7.50109	-6.12457	7.07510	-6.24353
1847.000	7.52441	-6.19443	7.22691	-6.36042
1848.000	7.50109	-6.24155	7.18994	-6.54218
1849.000	7.46028	-6.37269	7.23081	-6.61560
1850.000	7.46805	-6.44076	7.29695	-6.76063
1851.000	7.44667	-6.51508	7.15880	-6.85804
1852.000	7.52830	-6.62482	7.23664	-6.94830
1853.000	7.53218	-6.70259	7.19189	-7.03454
1854.000	7.55355	-6.81312	7.12961	-7.07048
1855.000	7.57881	-6.88076	7.13545	-7.18507
1856.000	7.64485	-6.88166	7.21329	-7.20328
1857.000	7.64873	-6.91269	7.20746	-7.20532
1858.000	7.64096	-6.96139	7.25026	-7.15219
1859.000	7.61960	-6.96562	7.26193	-7.20446
1860.000	7.62737	-6.90526	7.27166	-7.18488
1861.000	7.57104	-6.90227	7.25804	-7.16761
1862.000	7.57492	-6.86333	7.26972	-7.07804
1863.000	7.54578	-6.77629	7.18216	-7.03274
1864.000	7.50109	-6.78865	7.21719	-6.88246
1865.000	7.47583	-6.69178	7.17827	-6.97058
1866.000	7.50498	-6.62517	7.18216	-6.91606
1867.000	7.45833	-6.60836	7.19773	-6.84384
1868.000	7.47388	-6.52831	7.12571	-6.87605
1869.000	7.52441	-6.54313	7.13155	-6.75919
1870.000	7.46222	-6.54211	7.18021	-6.86745
1871.000	7.49332	-6.52802	7.18410	-6.85183
1872.000	7.54773	-6.51163	7.14518	-6.82516
1873.000	7.56910	-6.55414	7.25415	-6.87023
1874.000	7.60212	-6.57894	7.26972	-6.82136
1875.000	7.63514	-6.60763	7.35141	-6.82985
1876.000	7.64096	-6.59975	7.32223	-6.96254
1877.000	7.65650	-6.64621	7.38446	-6.89547
1878.000	7.69339	-6.68453	7.40002	-6.97494
1879.000	7.71475	-6.72504	7.39029	-6.97120
1880.000	7.74969	-6.72060	7.37280	-7.00452
1881.000	7.75357	-6.78274	7.32807	-7.04409
1882.000	7.73222	-6.82973	7.39613	-7.09742
1883.000	7.72446	-6.83180	7.41751	-7.01936
1884.000	7.75551	-6.82741	7.29695	-7.01542
1885.000	7.74969	-6.83528	7.30862	-7.09104
1886.000	7.74387	-6.83343	7.29695	-7.09899
1887.000	7.75940	-6.83512	7.46611	-7.02636
1888.000	7.75551	-6.85462	7.32029	-7.08502
1889.000	7.75551	-6.83519	7.30667	-7.14741
1890.000	7.73999	-6.85293	7.24053	-7.06683
1891.000	7.70698	-6.84374	7.27166	-7.07995
1892.000	7.75551	-6.85268	7.35918	-7.10772
1893.000	7.75357	-6.81773	7.33974	-7.10803
1894.000	7.73416	-6.82776	7.30084	-7.05618
1895.000	7.71863	-6.87659	7.31251	-6.97241
1896.000	7.68174	-6.86552	7.31251	-7.08514
1897.000	7.73804	-6.88405	7.29695	-7.07567
1898.000	7.74581	-6.86255	7.33196	-7.05569
1899.000	7.70698	-6.87678	7.24637	-7.05314
1900.000	7.70893	-6.85343	7.21329	-7.03226
1901.000	7.68951	-6.88289	7.28139	-7.03121
1902.000	7.69145	-6.88674	7.14713	-7.04494
1903.000	7.73028	-6.85891	7.25415	-7.08023
1904.000	7.72834	-6.82396	7.23470	-7.06304
1905.000	7.70893	-6.89035	7.32223	-7.09082
1906.000	7.68563	-6.86740	7.21135	-6.95646
1907.000	7.72640	-6.86092	7.24637	-7.02398
1908.000	7.71281	-6.85725	7.23664	-7.06106
1909.000	7.71087	-6.84951	7.24637	-6.98509
1910.000	7.69533	-6.87113	7.23859	-7.02410
1911.000	7.70310	-6.86907	7.25221	-7.03555
1912.000	7.65456	-6.87956	7.21135	-7.05173
1913.000	7.69533	-6.85170	7.29111	-7.04661
1914.000	7.69145	-6.85954	7.26972	-7.01390
1915.000	7.68369	-6.85966	7.26193	-7.01596
1916.000	7.70116	-6.80690	7.27750	-7.07403
1917.000	7.70310	-6.83991	7.35335	-7.07479
1918.000	7.68951	-6.83819	7.28917	-6.96694
1919.000	7.73610	-6.88019	7.25999	-7.02377
1920.000	7.70310	-6.83991	7.32612	-7.01497
1921.000	7.69533	-6.86142	7.26582	-7.03145
1922.000	7.73999	-6.84710	7.24442	-7.00846
1923.000	7.71475	-6.85528	7.26193	-6.99458
1924.000	7.74387	-6.81788	7.26388	-7.01204
1925.000	7.76134	-6.81566	7.26193	-7.05095
1926.000	7.79627	-6.83842	7.27944	-6.99431
1927.000	7.76716	-6.83889	7.24248	-6.99293
1928.000	7.76716	-6.84666	7.22691	-6.99706
1929.000	7.74775	-6.84308	7.21719	-7.02248
1930.000	7.74775	-6.87418	7.34946	-7.05930
1931.000	7.76134	-6.83509	7.31834	-7.02092
1932.000	7.77881	-6.85813	7.27361	-7.07992
1933.000	7.73028	-6.84337	7.27361	-7.02161
1934.000	7.74775	-6.85474	7.22886	-7.09617
1935.000	7.73804	-6.85296	7.33779	-7.05560
1936.000	7.77104	-6.85631	7.29111	-7.04467
1937.000	7.77298	-6.84462	7.33779	-7.05171
1938.000	7.76910	-6.86800	7.30278	-7.05032
1939.000	7.73222	-6.81418	7.36891	-7.07648
1940.000	7.80597	-6.80717	7.31640	-7.01706
1941.000	7.76522	-6.79616	7.28528	-7.01366
1942.000	7.79045	-6.83851	7.24053	-7.06100
1943.000	7.76910	-6.84663	7.28333	-7.08172
1944.000	7.74387	-6.81788	7.27750	-7.07015
1945.000	7.77881	-6.84647	7.36113	-7.07466
1946.000	7.76522	-6.83697	7.27555	-7.06629
1947.000	7.79433	-6.82679	7.24442	-7.06094
1948.000	7.77104	-6.82716	7.28528	-7.10112
1949.000	7.75163	-6.85662	7.32807	-7.02465
1950.000	7.76328	-6.84089	7.35724	-7.02808
1951.000	7.73222	-6.84722	7.32807	-7.06547
1952.000	7.79045	-6.84434	7.32807	-7.04409
1953.000	7.78851	-6.80939	7.27944	-7.07206
1954.000	7.75357	-6.83716	7.29889	-7.02316
1955.000	7.78463	-6.81334	7.24637	-7.06674
1956.000	7.73999	-6.78490	7.31640	-7.01317
1957.000	7.77492	-6.81544	7.34557	-7.05936
1958.000	7.76910	-6.82525	7.37668	-7.01417
1959.000	7.76910	-6.79221	7.37863	-7.05690
1960.000	7.74581	-6.80036	7.37474	-7.07445
1961.000	7.75163	-6.83525	7.37280	-7.05310
1962.000	7.78269	-6.76478	7.36891	-7.03568
1963.000	7.75551	-6.81187	7.38835	-7.08006
1964.000	7.76910	-6.83302	7.33585	-7.09061
1965.000	7.78463	-6.78030	7.37668	-7.03944
1966.000	7.78463	-6.78419	7.32807	-7.05575
1967.000	7.79045	-6.78993	7.29306	-7.07185
1968.000	7.75357	-6.83716	7.37280	-7.05699
1969.000	7.76522	-6.81754	7.42335	-7.12418
1970.000	7.76328	-6.85061	7.33001	-7.08098
1971.000	7.72057	-6.86295	7.43112	-7.03858
1972.000	7.74193	-6.82180	7.33001	-7.12761
1973.000	7.77492	-6.80961	7.30667	-7.06580
1974.000	7.76328	-6.87587	7.26972	-7.00418
1975.000	7.75940	-6.81763	7.40002	-7.08765
1976.000	7.74387	-6.88784	7.37863	-7.05107
1977.000	7.75746	-6.82155	7.29111	-7.13989
1978.000	7.73804	-6.82186	7.37668	-7.09385
1979.000	7.75940	-6.85844	7.38641	-7.04512
1980.000	7.73028	-6.81227	7.44862	-7.09853
1981.000	7.74775	-6.84503	7.44667	-7.02862
1982.000	7.72251	-6.89013	7.35141	-7.10008
1983.000	7.76134	-6.83121	7.34557	-7.06714
1984.000	7.74193	-6.86844	7.37474	-7.06473
1985.000	7.77881	-6.82704	7.37668	-7.11327
1986.000	7.74775	-6.86640	7.39807	-7.06825
1987.000	7.74193	-6.83735	7.46222	-7.07306
1988.000	7.76910	-6.87383	7.47583	-7.08644
1989.000	7.76716	-6.86609	7.43501	-7.04435
1990.000	7.75940	-6.86233	7.33974	-7.12940
1991.000	7.71669	-6.88051	7.44473	-7.02476
1992.000	7.69339	-6.85367	7.40196	-7.03515
1993.000	7.72251	-6.87264	7.40390	-7.04095
1994.000	7.69533	-6.85364	7.42723	-7.07556
1995.000	7.67980	-6.85195	7.41946	-7.07957
1996.000	7.71475	-6.84361	7.36113	-7.08244
1997.000	7.72251	-6.85515	7.36891	-7.10174
1998.000	7.71475	-6.82612	7.37863	-7.08604
1999.000	7.71863	-6.80468	7.42918	-7.09301
2000.000	7.69339	-6.87505	7.42335	-7.06202
2001.000	7.72640	-6.85703	7.40196	-7.07207
2002.000	7.70310	-6.85158	7.39807	-7.12265
2003.000	7.69339	-6.86728	7.35141	-7.02818
2004.000	7.69728	-6.86527	7.38057	-7.02577
2005.000	7.67786	-6.86558	7.33585	-7.09061
2006.000	7.70893	-6.89618	7.40002	-7.16146
2007.000	7.69728	-6.87305	7.40974	-7.04863
2008.000	7.68174	-6.85969	7.36307	-7.07658
2009.000	7.70116	-6.83023	7.33585	-7.03231
2010.000	7.70893	-6.83010	7.41362	-7.06995
2011.000	7.70698	-6.88843	7.36891	-7.09397
2012.000	7.70504	-6.87098	7.34168	-7.05359
2013.000	7.66427	-6.84831	7.36502	-7.11346
2014.000	7.69339	-6.84784	7.45445	-7.04598
2015.000	7.63514	-6.81961	7.34557	-7.08851
2016.000	7.65067	-6.85241	7.31640	-7.13949
2017.000	7.65456	-6.80181	7.24053	-7.08044
2018.000	7.66038	-6.82699	7.37474	-7.11136
2019.000	7.66038	-6.79977	7.31251	-6.98796
2020.000	7.60795	-6.82393	7.33779	-7.03228
2021.000	7.62349	-6.75952	7.37474	-7.03558
2022.000	7.67009	-6.74129	7.38446	-7.02571
2023.000	7.75357	-6.66414	7.48166	-6.89201
2024.000	7.86030	-6.65468	7.55550	-6.78392
2025.000	8.04646	-6.55644	7.66038	-6.74728
2026.000	8.21502	-6.50707	7.79821	-6.59926
2027.000	8.44341	-6.26813	7.98830	-6.45235
2028.000	8.72562	-5.98941	8.23051	-6.13725
2029.000	9.07489	-5.68043	8.42020	-5.86374
2030.000	9.42733	-5.41231	8.56717	-5.41536
2031.000	9.77905	-5.03147	8.92060	-5.16082
2032.000	10.16451	-4.63280	9.14043	-4.69172
2033.000	10.55669	-4.20709	9.38500	-4.11676
2034.000	10.93262	-3.77423	9.69071	-3.67193
2035.000	11.25436	-3.25886	9.95368	-3.13206
2036.000	11.64368	-2.85025	10.22388	-2.72913
2037.000	11.95435	-2.50328	10.39611	-2.31166
2038.000	12.20577	-1.95343	10.56815	-1.94516
2039.000	12.55471	-1.58416	10.76862	-1.62563
2040.000	12.74857	-1.18541	10.97454	-1.24000
2041.000	12.92523	-0.81434	11.08692	-0.93312
2042.000	13.16540	-0.49977	11.27718	-0.79402
2043.000	13.30403	-0.33300	11.29429	-0.46821
2044.000	13.48737	-0.01161	11.57729	-0.36250
2045.000	13.72456	0.20099	11.66454	-0.05650
2046.000	13.82340	0.38249	11.85781	0.18107
2047.000	13.95754	0.59463	12.05271	0.18483
2048.000	14.09338	0.78142	12.27564	0.37129
2049.000	14.24021	0.85803	12.46615	0.57109
2050.000	14.29221	0.97155	12.53399	0.67191
2051.000	14.34232	1.08887	12.62626	0.85994
2052.000	14.37386	1.18503	12.68085	0.92767
2053.000	14.31634	1.25278	12.58672	1.02895
2054.000	14.22164	1.37666	12.60932	1.11037
2055.000	14.09710	1.46997	12.58296	1.15707
2056.000	13.94823	1.50952	12.57354	1.19593
2057.000	13.77865	1.54537	12.57354	1.20175
2058.000	13.58455	1.66065	12.43787	1.19656
2059.000	13.41257	1.66765	12.34735	1.28050
2060.000	13.22911	1.74244	12.27941	1.18951
2061.000	13.06789	1.70874	12.26620	1.33530
2062.000	12.97405	1.62028	12.21899	1.17618
2063.000	12.88015	1.52981	12.22277	1.17227
2064.000	12.87076	1.42714	12.22088	1.09454
2065.000	12.85948	1.27601	12.22088	1.04012
2066.000	12.88391	1.16345	12.24165	0.93313
2067.000	12.90457	1.12459	12.32093	0.95811
2068.000	12.94777	1.02748	12.34735	0.95025
2069.000	12.99846	0.93038	12.30772	0.92124
2070.000	13.05663	0.99216	12.51703	0.86613
2071.000	13.07539	0.97465	12.66014	0.90058
2072.000	13.18039	0.95487	12.71283	1.00904
2073.000	13.22911	1.00501	12.72036	1.05169
2074.000	13.26845	1.04937	12.75985	1.00498
2075.000	13.29092	1.10540	12.76361	1.01466
2076.000	13.39199	1.15137	12.70342	1.11384
2077.000	13.42005	1.21700	12.74105	1.16799
2078.000	13.46868	1.34245	12.66203	1.22462
2079.000	13.53410	1.38461	12.82941	1.26259
2080.000	13.57334	1.47908	12.73540	1.36391
2081.000	13.61443	1.58123	12.75233	1.44914
2082.000	13.63124	1.62169	12.78806	1.41598
2083.000	13.68910	1.68696	12.71847	1.52497
2084.000	13.67977	1.73530	12.72224	1.54822
2085.000	13.65737	1.77023	12.83317	1.56111
2086.000	13.67604	1.78747	12.64885	1.66310
2087.000	13.68724	1.78160	12.69966	1.64338
2088.000	13.61443	1.84396	12.76926	1.64293
2089.000	13.55839	1.82314	12.58484	1.68098
2090.000	13.59202	1.76686	12.66203	1.74641
2091.000	13.55466	1.81544	12.66203	1.73865
2092.000	13.49859	1.81394	12.62062	1.73117
2093.000	13.47242	1.78514	12.55659	1.63072
2094.000	13.43315	1.81830	12.68461	1.61051
2095.000	13.40322	1.80692	12.57731	1.49477
2096.000	13.38638	1.78965	12.56977	1.56272
2097.000	13.38077	1.72782	12.56789	1.44631
2098.000	13.33960	1.75712	12.70154	1.44943
2099.000	13.35831	1.73571	12.54340	1.42898
2100.000	13.37141	1.69888	12.57354	1.48315
2101.000	13.31713	1.70506	12.66014	1.42833
2102.000	13.34708	1.70872	12.60744	1.41698
2103.000	13.32275	1.74177	12.58484	1.39382
2104.000	13.33211	1.71849	12.59614	1.42093
2105.000	13.37890	1.64274	12.59237	1.48110
2106.000	13.36580	1.65830	12.59049	1.48499
2107.000	13.39948	1.64647	12.53775	1.30285
2108.000	13.35457	1.64097	12.56601	1.44244
2109.000	13.37515	1.63503	12.54152	1.38823
2110.000	13.39012	1.65620	12.59426	1.40735
2111.000	13.38451	1.61176	12.62815	1.40911
2112.000	13.38077	1.63306	12.62626	1.46926
2113.000	13.37515	1.65631	12.64697	1.43616
2114.000	13.36205	1.69701	12.58861	1.42679
2115.000	13.42005	1.60186	12.57166	1.44435
2116.000	13.42005	1.64053	12.57731	1.38998
2117.000	13.40883	1.64254	12.66391	1.43219
2118.000	13.38451	1.68331	12.61120	1.51979
2119.000	13.42941	1.59986	12.61685	1.44021
2120.000	13.43128	1.64819	12.58861	1.46366
2121.000	13.41257	1.61738	12.72224	1.50749
2122.000	13.40509	1.61743	12.63568	1.45563
2123.000	13.40509	1.65030	12.62250	1.47316
2124.000	13.40883	1.60000	12.51326	1.48738
2125.000	13.43689	1.58628	12.54152	1.51050
2126.000	13.43689	1.65395	12.54152	1.45810
2127.000	13.39761	1.66969	12.63568	1.50801
2128.000	13.39199	1.66006	12.63379	1.41490
2129.000	13.41070	1.61932	12.58672	1.43262
2130.000	13.39386	1.65231	12.51703	1.50676
2131.000	13.43689	1.61141	12.55094	1.48328
2132.000	13.39012	1.72001	12.68273	1.41269
2133.000	13.38825	1.65815	12.56036	1.50457
2134.000	13.38451	1.66204	12.52645	1.44460
2135.000	13.40322	1.71219	12.61873	1.45572
2136.000	13.36954	1.68342	12.61308	1.42471
2137.000	13.40696	1.61935	12.65262	1.53894
2138.000	13.37515	1.70272	12.63756	1.41488
2139.000	13.39386	1.67358	12.59426	1.52377
2140.000	13.36767	1.70470	12.57542	1.51806
2141.000	13.39574	1.67163	12.44918	1.52463
2142.000	13.38264	1.68333	12.58672	1.53934
2143.000	13.37890	1.64468	12.57731	1.57432
2144.000	13.41631	1.67729	12.44918	1.50133
2145.000	13.35644	1.69898	12.56601	1.50065
2146.000	13.42754	1.64434	12.57354	1.52583
2147.000	13.42005	1.65020	12.53210	1.61341
2148.000	13.38264	1.68526	12.46615	1.54200
2149.000	13.37328	1.65052	12.51703	1.58633
2150.000	13.38825	1.68522	12.51326	1.57083
2151.000	13.36767	1.75305	12.50196	1.45444
2152.000	13.41070	1.66573	12.51891	1.59020
2153.000	13.38264	1.62725	12.49819	1.60391
2154.000	13.37515	1.68531	12.55471	1.50072
2155.000	13.38638	1.69684	12.47369	1.60213
2156.000	13.40135	1.68513	12.56977	1.52974
2157.000	13.39012	1.66974	12.47746	1.45458
2158.000	13.39761	1.67936	12.53022	1.48146
2159.000	13.36767	1.68537	12.48123	1.48756
2160.000	13.37890	1.66595	12.48311	1.59042
2161.000	13.36393	1.68539	12.52457	1.50672
2162.000	13.37702	1.74911	12.58107	1.52191
2163.000	13.37702	1.70270	12.49253	1.54184
2164.000	13.36580	1.67571	12.44541	1.66442
2165.000	13.37702	1.67176	12.55471	1.51430
2166.000	13.34521	1.69519	12.56601	1.47543
2167.000	13.37328	1.66792	12.53964	1.51439
2168.000	13.39012	1.68908	12.53022	1.57073
2169.000	13.39948	1.61553	12.48123	1.55744
2170.000	13.38264	1.69493	12.57354	1.51419
2171.000	13.40135	1.69867	12.57542	1.54523
2172.000	13.41818	1.68308	12.48311	1.52249
2173.000	13.39012	1.65427	12.47557	1.52447
2174.000	13.41818	1.71208	12.56789	1.50064
2175.000	13.37890	1.69109	12.46803	1.56334
2176.000	13.40883	1.71988	12.54529	1.55317
2177.000	13.37328	1.71047	12.56977	1.56272
2178.000	13.37515	1.72786	12.55659	1.55310
2179.000	13.39574	1.72384	12.51326	1.58441
2180.000	13.41444	1.67730	12.62438	1.56433
2181.000	13.37328	1.70273	12.55659	1.49101
2182.000	13.38451	1.71425	12.50761	1.54369
2183.000	13.39386	1.66391	12.46049	1.55756
2184.000	13.39386	1.70065	12.50007	1.52045
2185.000	13.41070	1.67346	12.52833	1.55909
2186.000	13.34334	1.72615	12.61685	1.56632
2187.000	13.33211	1.73203	12.57919	1.58983
2188.000	13.35831	1.72024	12.53399	1.58041
2189.000	13.34708	1.67197	12.54340	1.52019
2190.000	13.38077	1.69881	12.43222	1.57714
2191.000	13.35457	1.73767	12.61497	1.52947
2192.000	13.38077	1.65820	12.49065	1.62531
2193.000	13.36767	1.70277	12.53210	1.51250
2194.000	13.36393	1.67572	12.55094	1.56478
2195.000	13.36767	1.67763	12.54340	1.55124
2196.000	13.38825	1.71036	12.51703	1.53587
2197.000	13.38451	1.66784	12.46615	1.55559
2198.000	13.35083	1.71643	12.56036	1.53756
2199.000	13.38638	1.64656	12.57731	1.60730
2200.000	13.34895	1.67389	12.56412	1.55306
2201.000	13.31713	1.66831	12.52268	1.63287
2202.000	13.34895	1.71644	12.62815	1.63802
2203.000	13.34708	1.66230	12.50572	1.54370
2204.000	13.37890	1.68722	12.56601	1.51036
2205.000	13.34334	1.70681	12.59049	1.53738
2206.000	13.31339	1.70896	12.50572	1.53012
2207.000	13.35457	1.70673	12.56789	1.55109
2208.000	13.32836	1.71078	12.46803	1.53422
2209.000	13.34147	1.66041	12.53399	1.61145
2210.000	13.40135	1.64259	12.59049	1.51409
2211.000	13.39012	1.62913	12.50384	1.59418
2212.000	13.37890	1.68722	12.57542	1.51806
2213.000	13.38451	1.72392	12.65450	1.50790
2214.000	13.38264	1.64272	12.57919	1.50446
2215.000	13.34708	1.73966	12.61120	1.48875
2216.000	13.36205	1.72408	12.62250	1.49062
2217.000	13.35644	1.73186	12.54340	1.50467
2218.000	13.27781	1.68793	12.62062	1.50421
2219.000	13.33585	1.77068	12.59802	1.50435
2220.000	13.33024	1.74365	12.50761	1.48547
2221.000	13.33024	1.68563	12.56601	1.50454
2222.000	13.31152	1.66641	12.53775	1.49694
2223.000	13.35644	1.65837	12.59426	1.51989
2224.000	13.35644	1.68738	12.59614	1.52570
2225.000	13.35831	1.67189	12.63568	1.48279
2226.000	13.35270	1.70288	12.55094	1.56478
2227.000	13.37328	1.66212	12.48123	1.62343
2228.000	13.37702	1.62728	12.70719	1.57352
2229.000	13.39574	1.71611	12.56412	1.52783
2230.000	13.39199	1.63879	12.56601	1.53170
2231.000	13.38451	1.71425	12.60744	1.58577
2232.000	13.35270	1.67580	12.54906	1.58808
2233.000	13.27781	1.70534	12.56789	1.51229
2234.000	13.06601	1.72424	12.38696	1.52305
2235.000	12.72600	1.81964	12.22655	1.51621
2236.000	12.43033	1.90130	11.98084	1.52538
2237.000	12.02812	2.01303	11.64747	1.35978
2238.000	11.60764	2.13679	11.19540	1.39900
2239.000	11.07930	2.27525	10.87734	1.51376
2240.000	10.45348	2.44404	10.29471	1.54011
2241.000	9.74449	2.60206	9.81937	1.66578
2242.000	9.10188	2.78527	9.17318	1.86121
2243.000	8.30796	3.04250	8.58457	2.12748
2244.000	7.61766	3.27763	8.00963	2.25059
2245.000	6.98747	3.43770	7.32223	2.46106
2246.000	6.31456	3.59606	6.66392	2.84113
2247.000	5.72016	3.82273	5.95299	2.95160
2248.000	5.13433	3.95858	5.46559	3.22660
2249.000	4.58671	4.15910	4.87339	3.53777
2250.000	4.03825	4.22328	4.45311	3.71767
2251.000	3.54813	4.29083	4.03235	3.92714
2252.000	3.01807	4.33064	3.54222	4.08743
2253.000	2.56246	4.34417	3.19153	4.13633
2254.000	2.15984	4.44424	2.71831	4.27249
2255.000	1.87946	4.46872	2.30789	4.25999
2256.000	1.49230	4.45972	1.91698	4.25710
2257.000	1.27693	4.48978	1.58120	4.26379
2258.000	0.87772	4.50025	1.28879	4.19708
2259.000	0.51598	4.44721	0.81052	4.20366
2260.000	0.20956	4.44933	0.45272	4.15448
2261.000	-0.16014	4.35639	0.03756	4.16648
2262.000	-0.55947	4.38983	-0.29259	4.09518
2263.000	-0.92318	4.36376	-0.63064	4.10488
2264.000	-1.26903	4.38105	-0.98643	4.07484
2265.000	-1.58515	4.43778	-1.29867	4.08033
2266.000	-1.96832	4.50406	-1.72145	4.18834
2267.000	-2.31776	4.55834	-2.09666	4.25070
2268.000	-2.62954	4.65995	-2.35329	4.36461
2269.000	-2.91554	4.84234	-2.64533	4.50587
2270.000	-3.14817	4.96356	-2.92934	4.68443
2271.000	-3.37479	5.09055	-3.27036	4.86045
2272.000	-3.57767	5.23717	-3.61115	5.10897
2273.000	-3.74897	5.46839	-3.85723	5.29457
2274.000	-3.98906	5.56123	-4.05005	5.41924
2275.000	-4.14643	5.69771	-4.31749	5.58054
2276.000	-4.26834	5.83822	-4.55921	5.63176
2277.000	-4.42363	5.93516	-4.66135	5.74091
2278.000	-4.47669	5.98575	-4.71241	5.85039
2279.000	-4.60242	6.03767	-4.78702	5.89488
2280.000	-4.62796	6.04333	-4.85180	5.84332
2281.000	-4.65153	6.06274	-4.86750	5.77452
2282.000	-4.64760	6.09807	-4.84787	5.81197
2283.000	-4.57492	6.07516	-4.76935	5.82637
2284.000	-4.48062	6.04652	-4.73793	5.81290
2285.000	-4.41773	6.07254	-4.57689	5.79263
2286.000	-4.27817	5.93826	-4.47865	5.76003
2287.000	-4.16806	5.98228	-4.41773	5.84493
2288.000	-4.07169	5.94767	-4.27031	5.67127
2289.000	-3.95955	5.87975	-4.03628	5.67294
2290.000	-3.93988	5.85829	-3.97136	5.60460
2291.000	-3.92807	5.85051	-3.92413	5.54790
2292.000	-3.86510	5.74289	-3.85329	5.62897
2293.000	-3.88871	5.78989	-3.78440	5.52127
2294.000	-3.98906	5.71060	-3.88871	5.48324
2295.000	-4.05595	5.66298	-3.85919	5.44015
2296.000	-4.11889	5.69005	-3.93594	5.44753
2297.000	-4.19953	5.66982	-4.00874	5.45688
2298.000	-4.21722	5.71095	-4.09333	5.43862
2299.000	-4.31356	5.64738	-4.23099	5.41211
2300.000	-4.40594	5.68794	-4.27621	5.47471
2301.000	-4.44328	5.76620	-4.47079	5.48116
2302.000	-4.52384	5.75575	-4.52384	5.50041
2303.000	-4.51402	5.78135	-4.63778	5.57026
2304.000	-4.58671	5.76899	-4.75560	5.62824
2305.000	-4.60832	5.87088	-4.76149	5.68120
2306.000	-4.58671	5.87498	-4.77524	5.65753
2307.000	-4.62796	5.87856	-4.89498	5.72523
2308.000	-4.58474	5.92208	-4.80468	5.79075
2309.000	-4.57296	5.92414	-4.93815	5.77784
2310.000	-4.60046	5.90037	-4.83020	5.78072
2311.000	-4.56903	5.89278	-4.83806	5.77870
2312.000	-4.55921	5.87913	-4.85572	5.76873
2313.000	-4.53956	5.87732	-4.79683	5.82810
2314.000	-4.51598	5.86770	-4.74971	5.82261
2315.000	-4.48258	5.90329	-4.72222	5.78752
2316.000	-4.49241	5.87378	-4.71437	5.83075
2317.000	-4.53956	5.84789	-4.72419	5.77965
2318.000	-4.46293	5.89560	-4.67509	5.70153
2319.000	-4.53170	5.85187	-4.64171	5.71751
2320.000	-4.44525	5.91733	-4.61421	5.76092
2321.000	-4.46686	5.90734	-4.62010	5.76284
2322.000	-4.48258	5.90525	-4.58671	5.78470
2323.000	-4.49437	5.88554	-4.58474	5.79453
2324.000	-4.45311	5.90353	-4.56117	5.72993
2325.000	-4.43935	5.90364	-4.56903	5.76717
2326.000	-4.43542	5.88601	-4.56117	5.70834
2327.000	-4.41773	5.91755	-4.50223	5.69702
2328.000	-4.45114	5.88981	-4.57099	5.73575
2329.000	-4.43739	5.90758	-4.52974	5.68698
2330.000	-4.37253	5.88846	-4.48455	5.77177
2331.000	-4.39612	5.87454	-4.52581	5.67719
2332.000	-4.38039	5.87466	-4.53956	5.70851
2333.000	-4.36270	5.85124	-4.46490	5.70712
2334.000	-4.38629	5.88639	-4.45704	5.74842
2335.000	-4.40005	5.87451	-4.53760	5.71245
2336.000	-4.43346	5.82517	-4.47669	5.68543
2337.000	-4.41773	5.85670	-4.53563	5.71639
2338.000	-4.37253	5.84920	-4.54742	5.66721
2339.000	-4.42363	5.82918	-4.64760	5.69194
2340.000	-4.42953	5.88802	-4.57885	5.68267
2341.000	-4.36663	5.89440	-4.51009	5.64982
2342.000	-4.41970	5.87043	-4.61028	5.69027
2343.000	-4.41577	5.83316	-4.58671	5.72188
2344.000	-4.39022	5.92561	-4.60832	5.65298
2345.000	-4.39808	5.83330	-4.65349	5.71349
2346.000	-4.38432	5.90015	-4.60242	5.67856
2347.000	-4.39808	5.83526	-4.59260	5.65507
2348.000	-4.40987	5.89013	-4.57296	5.79070
2349.000	-4.36467	5.89834	-4.54938	5.73003
2350.000	-4.41773	5.86456	-4.58867	5.64724
2351.000	-4.38039	5.90803	-4.53367	5.69481
2352.000	-4.42756	5.85074	-4.51402	5.69889
2353.000	-4.41773	5.88811	-4.54545	5.64955
2354.000	-4.39612	5.88043	-4.56510	5.66903
2355.000	-4.45900	5.84853	-4.52581	5.69094
2356.000	-4.36860	5.86886	-4.61224	5.81393
2357.000	-4.36663	5.85907	-4.60832	5.67851
2358.000	-4.39808	5.88041	-4.57689	5.61395
2359.000	-4.41184	5.88619	-4.62010	5.62343
2360.000	-4.39612	5.88043	-4.55921	5.66319
2361.000	-4.38236	5.92764	-4.63581	5.75682
2362.000	-4.46490	5.90147	-4.63778	5.71950
2363.000	-4.44721	5.91535	-4.56903	5.74558
2364.000	-4.40201	5.87449	-4.60046	5.71391
2365.000	-4.40005	5.90395	-4.60242	5.70801
2366.000	-4.41577	5.88812	-4.60046	5.72766
2367.000	-4.41970	5.84687	-4.58474	5.70815
2368.000	-4.42953	5.87820	-4.54938	5.67308
2369.000	-4.42953	5.86054	-4.62010	5.70787
2370.000	-4.43346	5.90761	-4.58867	5.71990
2371.000	-4.37843	5.88057	-4.59653	5.68253
2372.000	-4.46293	5.88775	-4.54742	5.80464
2373.000	-4.47276	5.84449	-4.62599	5.75690
2374.000	-4.42363	5.84488	-4.59064	5.68258
2375.000	-4.49830	5.85999	-4.53760	5.63193
2376.000	-4.48455	5.85814	-4.59064	5.65312
2377.000	-4.48258	5.83264	-4.59653	5.71198
2378.000	-4.43739	5.86636	-4.57885	5.65910
2379.000	-4.45704	5.87406	-4.55724	5.69462
2380.000	-4.45311	5.86624	-4.58082	5.72389
2381.000	-4.45507	5.84463	-4.62992	5.66852
2382.000	-4.44918	5.85253	-4.54349	5.69080
2383.000	-4.46293	5.86027	-4.56314	5.70636
2384.000	-4.43542	5.89582	-4.58867	5.72382
2385.000	-4.42756	5.91354	-4.54938	5.71825
2386.000	-4.42363	5.88021	-4.61617	5.70790
2387.000	-4.46293	5.88382	-4.62796	5.65283
2388.000	-4.48651	5.86597	-4.60242	5.73942
2389.000	-4.48651	5.85027	-4.56314	5.72206
2390.000	-4.45311	5.85643	-4.67706	5.70152
2391.000	-4.42559	5.83701	-4.60242	5.70801
2392.000	-4.39808	5.89808	-4.58671	5.68064
2393.000	-4.43542	5.85460	-4.59457	5.72770
2394.000	-4.40987	5.87639	-4.55135	5.73786
2395.000	-4.44525	5.88397	-4.57492	5.74946
2396.000	-4.48455	5.86403	-4.51795	5.72242
2397.000	-4.49044	5.85220	-4.55921	5.70639
2398.000	-4.43346	5.84677	-4.59260	5.72576
2399.000	-4.44525	5.84471	-4.57099	5.71218
2400.000	-4.44132	5.89185	-4.62992	5.68030
2401.000	-4.45507	5.86622	-4.51205	5.63409
2402.000	-4.45114	5.83092	-4.53760	5.64961
2403.000	-4.46883	5.87789	-4.55135	5.66718
2404.000	-4.43542	5.87227	-4.57099	5.72004
2405.000	-4.40201	5.90590	-4.61421	5.72362
2406.000	-4.41577	5.87635	-4.58082	5.70818
2407.000	-4.47669	5.81698	-4.58867	5.69241
2408.000	-4.49044	5.84239	-4.55921	5.66711
2409.000	-4.43739	5.86048	-4.53563	5.70068
2410.000	-4.43149	5.83500	-4.54938	5.69076
2411.000	-4.42756	5.84878	-4.58082	5.75137
2412.000	-4.49044	5.85220	-4.58867	5.64332
2413.000	-4.42559	5.86842	-4.52974	5.68502
2414.000	-4.43542	5.84282	-4.53956	5.71047
2415.000	-4.37646	5.84917	-4.65153	5.69387
2416.000	-4.38039	5.90410	-4.61224	5.63331
2417.000	-4.38236	5.84913	-4.61224	5.69811
2418.000	-4.37450	5.88060	-4.61028	5.65689
2419.000	-4.44525	5.86238	-4.63778	5.73128
2420.000	-4.41184	5.89797	-4.58671	5.75133
2421.000	-4.44721	5.90750	-4.64563	5.68410
2422.000	-4.40791	5.84697	-4.61421	5.78251
2423.000	-4.41184	5.90189	-4.63189	5.73918
2424.000	-4.37843	5.90608	-4.62992	5.73527
2425.000	-4.43935	5.89579	-4.59457	5.73948
2426.000	-4.46097	5.81711	-4.57492	5.70234
2427.000	-4.43935	5.81531	-4.57296	5.65326
2428.000	-4.42953	5.84287	-4.61224	5.66277
2429.000	-4.39415	5.81566	-4.62403	5.71176
2430.000	-4.42953	5.83895	-4.63189	5.66654
2431.000	-4.42166	5.83115	-4.59653	5.71591
2432.000	-4.42756	5.84485	-4.52384	5.69096
2433.000	-4.36270	5.87087	-4.58867	5.70223
2434.000	-4.43346	5.83499	-4.58082	5.65909
2435.000	-4.45114	5.82700	-4.59064	5.67472
2436.000	-4.39218	5.87064	-4.53760	5.68103
2437.000	-4.39218	5.80390	-4.62992	5.67637
2438.000	-4.42166	5.85471	-4.57492	5.74553
2439.000	-4.39218	5.84709	-4.58278	5.72387
2440.000	-4.45704	5.85639	-4.60242	5.67266
2441.000	-4.37253	5.86098	-4.60046	5.66090
2442.000	-4.45311	5.83091	-4.54938	5.72021
2443.000	-4.43935	5.87224	-4.62992	5.70190
2444.000	-4.42363	5.86451	-4.64563	5.66054
2445.000	-4.40398	5.87448	-4.56117	5.74957
2446.000	-4.48258	5.85227	-4.62207	5.74908
2447.000	-4.51991	5.83823	-4.58867	5.74542
2448.000	-4.41773	5.88811	-4.59457	5.69236
2449.000	-4.45311	5.88390	-4.59064	5.74540
2450.000	-4.45704	5.84265	-4.56706	5.69062
2451.000	-4.45507	5.87015	-4.66527	5.79780
2452.000	-4.43935	5.83887	-4.62010	5.72946
2453.000	-4.41970	5.86847	-4.59849	5.60200
2454.000	-4.43739	5.78981	-4.62599	5.75297
2455.000	-4.46293	5.82887	-4.63974	5.74501
2456.000	-4.44132	5.83689	-4.62207	5.67644
2457.000	-4.40201	5.85879	-4.56117	5.72404
2458.000	-4.46490	5.79744	-4.53563	5.70657
2459.000	-4.48455	5.88169	-4.58082	5.70425
2460.000	-4.48651	5.80120	-4.59064	5.69828
2461.000	-4.45507	5.83286	-4.57689	5.71017
2462.000	-4.47865	5.88174	-4.66920	5.73496
2463.000	-4.46686	5.81117	-4.49634	5.69706
2464.000	-4.44132	5.85456	-4.56510	5.73187
2465.000	-4.45900	5.82301	-4.63778	5.74110
2466.000	-4.44525	5.87808	-4.60046	5.72569
2467.000	-4.49437	5.84040	-4.56510	5.66314
2468.000	-4.38236	5.88250	-4.65938	5.72326
2469.000	-4.41970	5.84491	-4.52581	5.73218
2470.000	-4.39218	5.84709	-4.56314	5.77507
2471.000	-4.45507	5.83286	-4.53956	5.77133
2472.000	-4.51205	5.84025	-4.51991	5.77934
2473.000	-4.53760	5.85183	-4.57885	5.78083
2474.000	-4.68688	5.86238	-4.66135	5.79783
2475.000	-4.87731	5.83330	-4.74775	5.79515
2476.000	-5.17355	5.76791	-4.93423	5.74844
2477.000	-5.40877	5.67945	-5.24806	5.59460
2478.000	-5.77887	5.50139	-5.49106	5.33139
2479.000	-6.08790	5.31207	-5.84540	5.15150
2480.000	-6.59565	5.07558	-6.18171	4.77535
2481.000	-7.02642	4.67704	-6.35947	4.51249
2482.000	-7.50303	4.25649	-6.77507	3.98023
2483.000	-7.82926	3.77078	-7.07510	3.55507
2484.000	-8.18403	3.21622	-7.31640	3.05956
2485.000	-8.41052	2.81204	-7.46611	2.55869
2486.000	-8.68312	2.37041	-7.60600	2.05190
2487.000	-8.76425	1.91045	-7.75746	1.51552
2488.000	-8.83375	1.37386	-7.78463	1.03866
2489.000	-8.91481	0.91580	-7.58852	0.46341
2490.000	-8.92639	0.52277	-7.70504	-0.00986
2491.000	-8.97847	0.05895	-7.66233	-0.36870
2492.000	-8.94182	-0.42252	-7.55550	-0.78882
2493.000	-8.75459	-0.68423	-7.47388	-1.12617
2494.000	-8.67153	-1.10908	-7.39029	-1.46358
2495.000	-8.56717	-1.46921	-7.49137	-1.86922
2496.000	-8.54010	-1.67573	-7.49720	-2.14500
2497.000	-8.49950	-2.00022	-7.57881	-2.45962
2498.000	-8.50917	-2.37542	-7.65456	-2.83497
2499.000	-8.60196	-2.76550	-7.69339	-3.18664
2500.000	-8.68505	-3.03167	-7.87776	-3.48377
2501.000	-8.80866	-3.28938	-7.97861	-3.69094
2502.000	-8.95533	-3.62485	-8.24407	-3.98448
2503.000	-9.07104	-3.94448	-8.30796	-4.29521
2504.000	-9.28297	-4.27810	-8.50143	-4.46716
2505.000	-9.39077	-4.40168	-8.67733	-4.74452
2506.000	-9.48889	-4.60714	-8.78549	-4.92275
2507.000	-9.60040	-4.80827	-8.98426	-5.16577
2508.000	-9.62154	-5.01241	-8.96304	-5.32392
2509.000	-9.64268	-5.16388	-9.11923	-5.45013
2510.000	-9.65805	-5.22978	-9.16548	-5.53116
2511.000	-9.67726	-5.28199	-9.21171	-5.41563
2512.000	-9.68687	-5.26240	-9.33111	-5.45855
2513.000	-9.62346	-5.30228	-9.39847	-5.29602
2514.000	-9.61578	-5.22460	-9.38307	-5.17946
2515.000	-9.55811	-5.15154	-9.34073	-4.98338
2516.000	-9.46773	-5.03219	-9.33881	-4.81386
2517.000	-9.42926	-4.95679	-9.29453	-4.64482
2518.000	-9.38115	-4.78599	-9.19438	-4.43342
2519.000	-9.40809	-4.67256	-9.21364	-4.33947
2520.000	-9.30223	-4.58035	-9.15970	-4.24247
2521.000	-9.32148	-4.44353	-9.11537	-4.12772
2522.000	-9.31378	-4.36166	-9.10959	-4.12193
2523.000	-9.30415	-4.21536	-9.04019	-4.03280
2524.000	-9.27720	-4.15319	-9.01898	-4.07409
2525.000	-9.28490	-4.10427	-8.97462	-4.13520
2526.000	-9.35036	-4.06834	-8.96304	-4.18029
2527.000	-9.38307	-4.10116	-8.96497	-4.40890
2528.000	-9.39462	-4.15960	-9.00741	-4.49236
2529.000	-9.37153	-4.22040	-9.02090	-4.50977
2530.000	-9.42926	-4.30167	-9.01126	-4.66413
2531.000	-9.43695	-4.39329	-9.01126	-4.79683
2532.000	-9.41771	-4.51838	-9.06140	-4.85078
2533.000	-9.49466	-4.61486	-9.12308	-5.02348
2534.000	-9.41194	-4.78167	-9.11537	-5.13857
2535.000	-9.42926	-4.80287	-9.20786	-5.14308
2536.000	-9.42348	-4.94324	-9.19438	-5.19782
2537.000	-9.46196	-4.97969	-9.22327	-5.26945
2538.000	-9.44080	-5.02479	-9.23290	-5.25763
2539.000	-9.48119	-5.07678	-9.25216	-5.38971
2540.000	-9.43695	-5.10468	-9.26757	-5.41672
2541.000	-9.43503	-5.08719	-9.27527	-5.38936
2542.000	-9.44657	-5.16489	-9.31956	-5.39257
2543.000	-9.41964	-5.15167	-9.31571	-5.39652
2544.000	-9.44849	-5.13761	-9.34651	-5.35130
2545.000	-9.47158	-5.09639	-9.31186	-5.35766
2546.000	-9.42926	-5.11259	-9.30993	-5.28568
2547.000	-9.44465	-5.11625	-9.25216	-5.24955
2548.000	-9.39077	-5.10147	-9.32726	-5.26011
2549.000	-9.40424	-5.05454	-9.30223	-5.24102
2550.000	-9.41771	-5.07965	-9.29645	-5.20216
2551.000	-9.31763	-5.07332	-9.32918	-5.18221
2552.000	-9.35998	-5.06492	-9.31763	-5.13564
2553.000	-9.32148	-5.02067	-9.27527	-5.14795
2554.000	-9.33688	-5.02240	-9.33881	-5.13144
2555.000	-9.31571	-5.03828	-9.30415	-5.09299
2556.000	-9.34651	-5.03005	-9.30415	-5.10857
2557.000	-9.29838	-4.97813	-9.25601	-5.07810
2558.000	-9.24446	-5.00228	-9.31378	-5.06753
2559.000	-9.28875	-4.99191	-9.23483	-5.00436
2560.000	-9.28875	-4.97827	-9.22135	-5.06107
2561.000	-9.25024	-4.95543	-9.17704	-5.07339
2562.000	-9.29453	-4.99573	-9.18860	-5.03620
2563.000	-9.29068	-4.97435	-9.22520	-5.05516
2564.000	-9.30030	-4.92160	-9.24061	-5.02572
2565.000	-9.33111	-4.94844	-9.19630	-5.02829
2566.000	-9.32148	-4.95053	-9.18667	-5.06546
2567.000	-9.34266	-4.94049	-9.24638	-5.07045
2568.000	-9.33303	-4.93867	-9.21557	-5.06699
2569.000	-9.34073	-4.86257	-9.22712	-4.99083
2570.000	-9.31956	-4.90574	-9.18282	-5.04797
2571.000	-9.33303	-4.93673	-9.23290	-5.03167
2572.000	-9.30223	-4.89428	-9.25409	-5.01189
2573.000	-9.29068	-4.93732	-9.18667	-5.02843
2574.000	-9.31956	-4.93107	-9.24061	-5.05105
2575.000	-9.32918	-4.91729	-9.21171	-5.03587
2576.000	-9.29838	-4.91578	-9.17896	-5.10454
2577.000	-9.33111	-4.91142	-9.26757	-5.09157
2578.000	-9.32533	-4.92124	-9.28490	-5.15365
2579.000	-9.30415	-4.98000	-9.21749	-5.10593
2580.000	-9.31571	-4.95646	-9.21942	-5.10980
2581.000	-9.34073	-4.91323	-9.30993	-5.13381
2582.000	-9.32533	-4.95827	-9.21749	-5.08645
2583.000	-9.31378	-4.95453	-9.18474	-5.11614
2584.000	-9.31378	-4.95843	-9.25409	-5.13073
2585.000	-9.28683	-4.95686	-9.23483	-5.11153
2586.000	-9.32148	-5.01093	-9.29068	-5.13799
2587.000	-9.33881	-5.02821	-9.27912	-5.10894
2588.000	-9.29260	-4.97627	-9.31186	-5.14157
2589.000	-9.31956	-4.99147	-9.24831	-5.15418
2590.000	-9.27527	-4.99600	-9.27720	-5.17519
2591.000	-9.28105	-4.99981	-9.32148	-5.08885
2592.000	-9.29068	-5.02501	-9.26372	-5.07799
2593.000	-9.31186	-5.00522	-9.31763	-5.14928
2594.000	-9.28875	-5.02503	-9.32148	-5.09469
2595.000	-9.32533	-4.94268	-9.24061	-5.06664
2596.000	-9.27335	-4.95705	-9.31186	-5.09872
2597.000	-9.27527	-4.97456	-9.27142	-5.08567
2598.000	-9.28490	-4.98612	-9.31956	-5.07524
2599.000	-9.29645	-4.95478	-9.26372	-5.17149
2600.000	-9.27527	-4.99600	-9.21364	-5.08066
2601.000	-9.29453	-4.95481	-9.26949	-5.13829
2602.000	-9.25216	-4.94566	-9.25794	-5.06444
2603.000	-9.26564	-4.99613	-9.24061	-5.17377
2604.000	-9.25987	-4.95529	-9.26372	-5.14422
2605.000	-9.28490	-5.02119	-9.28490	-5.06405
2606.000	-9.27527	-4.98236	-9.29453	-5.10092
2607.000	-9.27142	-4.99021	-9.33303	-5.08284
2608.000	-9.25794	-5.00599	-9.25216	-5.12686
2609.000	-9.23675	-5.00044	-9.30030	-5.05993
2610.000	-9.25601	-5.00017	-9.30608	-5.10660
2611.000	-9.23290	-4.97906	-9.33111	-5.10429
2612.000	-9.26949	-4.97854	-9.31763	-5.04994
2613.000	-9.24061	-5.00623	-9.19245	-5.12772
2614.000	-9.27142	-4.99021	-9.26949	-5.12856
2615.000	-9.27720	-4.99402	-9.32726	-5.07708
2616.000	-9.25409	-4.98071	-9.24638	-5.09772
2617.000	-9.24831	-4.97884	-9.30030	-5.08720
2618.000	-9.27142	-5.00385	-9.19823	-5.04775
2619.000	-9.25024	-5.03532	-9.17704	-5.13963
2620.000	-9.25024	-4.98076	-9.28297	-5.15952
2621.000	-9.25024	-4.98076	-9.21171	-5.11770
2622.000	-9.27142	-4.98436	-9.23675	-5.16020
2623.000	-9.25409	-4.99240	-9.24253	-5.11921
2624.000	-9.19438	-4.97375	-9.26949	-5.11882
2625.000	-9.24061	-4.98480	-9.28297	-5.15368
2626.000	-9.23868	-4.95364	-9.26564	-5.12277
2627.000	-9.20786	-4.96577	-9.19630	-5.17832
2628.000	-9.25409	-4.97096	-9.25987	-5.08779
2629.000	-9.22520	-4.96163	-9.29453	-5.10677
2630.000	-9.24831	-4.98664	-9.25794	-5.08002
2631.000	-9.23290	-5.01219	-9.27142	-5.09541
2632.000	-9.20786	-4.94433	-9.31186	-5.08704
2633.000	-9.26949	-4.98049	-9.25987	-5.10727
2634.000	-9.21364	-4.97933	-9.29260	-5.09900
2635.000	-9.24638	-4.99251	-9.25601	-5.06641
2636.000	-9.19630	-5.02245	-9.24061	-5.05884
2637.000	-9.20786	-5.01644	-9.22905	-5.04926
2638.000	-9.25216	-5.01776	-9.22905	-5.05706
2639.000	-9.24638	-5.03928	-9.31186	-5.06366
2640.000	-9.26564	-4.99419	-9.26372	-5.02539
2641.000	-9.24638	-5.01589	-9.30030	-5.05409
2642.000	-9.26564	-5.00783	-9.24446	-5.08022
2643.000	-9.21364	-5.00272	-9.29453	-5.00936
2644.000	-9.24446	-5.00618	-9.27335	-4.96290
2645.000	-9.22712	-5.04150	-9.19052	-5.08099
2646.000	-9.23098	-4.97908	-9.15584	-5.09902
2647.000	-9.25216	-5.02555	-9.21364	-4.99882
2648.000	-9.22520	-5.00840	-9.16355	-5.03655
2649.000	-9.23675	-4.97705	-9.24061	-5.01403
2650.000	-9.22520	-5.02594	-9.24253	-5.08609
2651.000	-9.21364	-4.98712	-9.20786	-5.06710
2652.000	-9.24446	-5.01787	-9.22905	-5.08434
2653.000	-9.25794	-5.01963	-9.20401	-5.02819
2654.000	-9.25601	-5.00796	-9.15777	-5.02494
2655.000	-9.18474	-4.97194	-9.19438	-5.03417
2656.000	-9.28105	-5.01930	-9.14621	-5.05434
2657.000	-9.20786	-5.02813	-9.18860	-5.00502
2658.000	-9.24638	-5.00420	-9.17511	-5.02859
2659.000	-9.22905	-5.02198	-9.21942	-5.08642
2660.000	-9.20401	-5.03013	-9.22520	-5.06296
2661.000	-9.26949	-5.00777	-9.26564	-5.06238
2662.000	-9.23483	-4.97903	-9.23098	-5.06288
2663.000	-9.23098	-4.99662	-9.25216	-5.05868
2664.000	-9.18667	-5.01479	-9.20016	-5.09059
2665.000	-9.25601	-5.03524	-9.16548	-5.10863
2666.000	-9.22905	-5.02783	-9.19245	-5.12188
2667.000	-9.19823	-5.03411	-9.19630	-5.10818
2668.000	-9.22520	-5.03178	-9.16740	-5.13393
2669.000	-9.22712	-5.03370	-9.20786	-5.08659
2670.000	-9.19245	-5.01276	-9.20208	-5.14706
2671.000	-9.18282	-5.03823	-9.16355	-5.05994
2672.000	-9.18667	-5.01674	-9.23098	-5.07846
2673.000	-9.18089	-5.01877	-9.20594	-5.09830
2674.000	-9.21171	-5.01249	-9.14621	-5.02315
2675.000	-9.17318	-5.06760	-9.25601	-5.11706
2676.000	-9.19630	-5.09260	-9.16548	-5.11057
2677.000	-9.18089	-5.06554	-9.14621	-5.06603
2678.000	-9.20401	-5.01649	-9.21171	-5.07874
2679.000	-9.22327	-5.02012	-9.13657	-5.17723
2680.000	-9.24638	-5.02564	-9.11152	-5.18149
2681.000	-9.21171	-5.00469	-9.16933	-5.14364
2682.000	-9.20594	-5.04180	-9.12693	-5.07800
2683.000	-9.21171	-5.04367	-9.17126	-5.10465
2684.000	-9.18667	-5.05961	-9.15777	-5.10679
2685.000	-9.19630	-5.05947	-9.13850	-5.08953
2686.000	-9.20594	-5.01841	-9.16740	-5.09106
2687.000	-9.18282	-5.05577	-9.17318	-5.07929
2688.000	-9.15970	-5.06194	-9.18860	-5.09660
2689.000	-9.17126	-5.04034	-9.20208	-5.05160
2690.000	-9.18474	-5.04600	-9.16548	-5.13006
2691.000	-9.16162	-5.00540	-9.22135	-5.08055
2692.000	-9.18667	-5.10443	-9.18282	-5.11227
2693.000	-9.18282	-5.05187	-9.17896	-5.04218
2694.000	-9.22327	-5.03376	-9.15006	-5.04454
2695.000	-9.20401	-5.03403	-9.14813	-5.11472
2696.000	-9.16740	-5.07547	-9.24638	-5.06850
2697.000	-9.20401	-5.07885	-9.20016	-5.08670
2698.000	-9.23290	-5.10376	-9.13272	-5.08766
2699.000	-9.18860	-5.04204	-9.18860	-5.13752
2700.000	-9.22520	-5.01814	-9.11923	-5.08005
2701.000	-9.21171	-5.04561	-9.20786	-5.10607
2702.000	-9.19052	-5.05761	-9.20979	-5.14500
2703.000	-9.21364	-5.02805	-9.21557	-5.10206
2704.000	-9.19823	-5.05165	-9.11730	-5.09567
2705.000	-9.16355	-5.04825	-9.17511	-5.09290
2706.000	-9.22520	-4.99671	-9.17896	-5.06362
2707.000	-9.22520	-5.04347	-9.12308	-5.15405
2708.000	-9.17318	-5.07539	-9.13850	-5.07588
2709.000	-9.17896	-5.08505	-9.17318	-5.11241
2710.000	-9.20016	-5.03993	-9.14813	-5.09134
2711.000	-9.18089	-5.06554	-9.20016	-5.09449
2712.000	-9.18860	-5.09076	-9.15970	-5.14962
2713.000	-9.16933	-5.10662	-9.22712	-5.07852
2714.000	-9.23483	-5.05698	-9.20786	-5.14698
2715.000	-9.18282	-5.13565	-9.18282	-5.17072
2716.000	-9.22520	-5.08829	-9.19630	-5.12767
2717.000	-9.18860	-5.08686	-9.19823	-5.11595
2718.000	-9.21749	-5.06307	-9.19630	-5.12182
2719.000	-9.20401	-5.11002	-9.15391	-5.15750
2720.000	-9.24253	-5.09388	-9.19823	-5.11205
2721.000	-9.19630	-5.05558	-9.24638	-5.17758
2722.000	-9.21364	-5.07676	-9.20016	-5.11787
2723.000	-9.19438	-5.09457	-9.20401	-5.14119
2724.000	-9.22520	-5.04347	-9.21942	-5.11175
2725.000	-9.19438	-5.07899	-9.15199	-5.17117
2726.000	-9.23483	-5.02190	-9.20208	-5.14901
2727.000	-9.20786	-5.06126	-9.17896	-5.12207
2728.000	-9.24253	-5.03543	-9.23098	-5.11548
2729.000	-9.22520	-5.06101	-9.22520	-5.12530
2730.000	-9.21942	-5.03186	-9.16933	-5.13974
2731.000	-9.17704	-5.04805	-9.15970	-5.15352
2732.000	-9.22135	-5.07860	-9.15199	-5.12441
2733.000	-9.24253	-5.02764	-9.13272	-5.17144
2734.000	-9.22520	-5.07465	-9.18282	-5.13176
2735.000	-9.20401	-5.04377	-9.15006	-5.11274
2736.000	-9.23290	-5.02778	-9.17126	-5.14556
2737.000	-9.25216	-5.02361	-9.14428	-5.12062
2738.000	-9.23483	-5.06282	-9.12115	-5.10146
2739.000	-9.25601	-5.05278	-9.13079	-5.11886
2740.000	-9.21171	-5.06900	-9.20594	-5.10999
2741.000	-9.21749	-5.03579	-9.16933	-5.09688
2742.000	-9.22520	-5.09218	-9.12693	-5.13841
2743.000	-9.20016	-5.05357	-9.20208	-5.16849
2744.000	-9.18667	-5.05571	-9.12693	-5.16373
2745.000	-9.24831	-5.11523	-9.16355	-5.19438
2746.000	-9.22135	-5.06107	-9.17511	-5.13187
2747.000	-9.22712	-5.06683	-9.09031	-5.12724
2748.000	-9.23290	-5.07649	-9.21942	-5.16240
2749.000	-9.20786	-5.06126	-9.20979	-5.11189
2750.000	-9.23675	-5.06474	-9.15970	-5.21391
2751.000	-9.28105	-5.08748	-9.10381	-5.18745
2752.000	-9.23868	-5.12316	-9.20979	-5.17617
2753.000	-9.25794	-5.07223	-9.10188	-5.18942
2754.000	-9.23290	-5.06869	-9.19823	-5.15881
2755.000	-9.25024	-5.05870	-9.14813	-5.21797
2756.000	-9.25409	-5.04111	-9.16740	-5.17094
2757.000	-9.22327	-5.09611	-9.14235	-5.19079
2758.000	-9.21942	-5.04161	-9.21942	-5.15266
2759.000	-9.22905	-5.05706	-9.14813	-5.14589
2760.000	-9.25024	-5.09767	-9.22135	-5.15652
2761.000	-9.25024	-5.07819	-9.20979	-5.20733
2762.000	-9.24638	-5.03538	-9.14235	-5.15962
2763.000	-9.23483	-5.08815	-9.18282	-5.17851
2764.000	-9.23675	-5.12903	-9.16355	-5.09891
2765.000	-9.22520	-5.10777	-9.16548	-5.11837
2766.000	-9.24446	-5.12113	-9.14235	-5.14403
2767.000	-9.25601	-5.11512	-9.18282	-5.11812
2768.000	-9.20401	-5.13340	-9.17126	-5.15530
2769.000	-9.26179	-5.10140	-9.13272	-5.13832
2770.000	-9.21364	-5.15274	-9.15391	-5.15166
2771.000	-9.20979	-5.09046	-9.17511	-5.09875
2772.000	-9.27527	-5.03691	-9.15391	-5.16140
2773.000	-9.19823	-5.13154	-9.17126	-5.07347
2774.000	-9.22905	-5.13888	-9.20786	-5.13919
2775.000	-9.22327	-5.14871	-9.15970	-5.13404
2776.000	-9.20208	-5.11979	-9.13079	-5.10133
2777.000	-9.18667	-5.14924	-9.12308	-5.12287
2778.000	-9.19438	-5.15692	-9.15777	-5.13991
2779.000	-9.23290	-5.14857	-9.19438	-5.11211
2780.000	-9.21364	-5.09819	-9.15199	-5.13610
2781.000	-9.18860	-5.18232	-9.11537	-5.12883
2782.000	-9.19823	-5.19777	-9.14235	-5.14987
2783.000	-9.22712	-5.13112	-9.14043	-5.18302
2784.000	-9.18667	-5.19599	-9.17704	-5.23508
2785.000	-9.17126	-5.14167	-9.15777	-5.16134
2786.000	-9.13272	-5.19872	-9.10959	-5.19126
2787.000	-9.18667	-5.20767	-9.16355	-5.24112
2788.000	-9.15199	-5.19649	-9.10959	-5.11917
2789.000	-9.21171	-5.21704	-9.16548	-5.14175
2790.000	-9.20594	-5.20155	-9.10381	-5.14263
2791.000	-9.19052	-5.20956	-9.06718	-5.14705
2792.000	-9.13464	-5.22596	-9.12501	-5.12479
2793.000	-9.16740	-5.17874	-9.20979	-5.18786
2794.000	-9.16548	-5.21383	-9.18474	-5.14732
2795.000	-9.17318	-5.17865	-9.19630	-5.15884
2796.000	-9.15391	-5.16335	-9.18089	-5.17075
2797.000	-9.16162	-5.18272	-9.17704	-5.20781
2798.000	-9.15199	-5.23545	-9.13464	-5.16752
2799.000	-9.13657	-5.14801	-9.10959	-5.15035
2800.000	-9.16933	-5.16312	-9.14813	-5.20044
2801.000	-9.15777	-5.19056	-9.22520	-5.18374
2802.000	-9.16355	-5.16710	-9.15006	-5.26664
2803.000	-9.15777	-5.19836	-9.16740	-5.20211
2804.000	-9.20786	-5.18009	-9.08839	-5.13506
2805.000	-9.17126	-5.16894	-9.11152	-5.15421
2806.000	-9.17126	-5.14361	-9.09995	-5.17387
2807.000	-9.17318	-5.20592	-9.21364	-5.20144
2808.000	-9.14813	-5.18291	-9.14235	-5.17910
2809.000	-9.15391	-5.14191	-9.15391	-5.24126
2810.000	-9.16162	-5.15349	-9.13850	-5.18500
2811.000	-9.15006	-5.17119	-9.09995	-5.17581
2812.000	-9.16740	-5.14562	-9.12886	-5.21241
2813.000	-9.17704	-5.11431	-9.12886	-5.14422
2814.000	-9.17896	-5.13181	-9.09031	-5.20128
2815.000	-9.19823	-5.11595	-9.19630	-5.14715
2816.000	-9.18667	-5.08884	-9.16740	-5.18263
2817.000	-9.16162	-5.13401	-9.17896	-5.19805
2818.000	-9.17704	-5.11625	-9.15391	-5.21594
2819.000	-9.20786	-5.11386	-9.13464	-5.20259
2820.000	-9.13850	-5.09732	-9.20208	-5.15096
2821.000	-9.18667	-5.06546	-9.15199	-5.13610
2822.000	-9.12693	-5.09359	-9.10766	-5.12504
2823.000	-9.15584	-5.10682	-9.14428	-5.08944
2824.000	-9.20208	-5.07303	-9.13079	-5.08379
2825.000	-9.16933	-5.09493	-9.12693	-5.08969
2826.000	-9.19823	-5.03801	-9.13657	-5.05058
2827.000	-9.15970	-5.07363	-9.11152	-5.09965
2828.000	-9.15777	-5.07366	-9.08839	-5.04930
2829.000	-9.16162	-5.00734	-9.15391	-5.02694
2830.000	-9.11537	-5.01384	-9.09802	-5.00823
2831.000	-9.05947	-4.98732	-9.06911	-4.99889
2832.000	-9.10188	-4.93019	-8.89359	-4.88424
2833.000	-9.00548	-4.91981	-8.80286	-4.82493
2834.000	-8.85885	-4.79883	-8.65028	-4.73705
2835.000	-8.53817	-4.67200	-8.56524	-4.64236
2836.000	-8.21115	-4.52527	-8.21308	-4.44110
2837.000	-7.95534	-4.37341	-7.91462	-4.30723
2838.000	-7.52052	-4.10133	-7.59435	-4.12614
2839.000	-7.05563	-3.89338	-7.19189	-3.98849
2840.000	-6.60345	-3.66290	-6.80431	-3.79122
2841.000	-6.25010	-3.47632	-6.42195	-3.58940
2842.000	-5.95103	-3.25346	-6.12504	-3.34311
2843.000	-5.60269	-3.00279	-5.70841	-3.00816
2844.000	-5.24413	-2.67256	-5.29118	-2.72770
2845.000	-4.93226	-2.38306	-4.97543	-2.46797
2846.000	-4.63974	-2.13461	-4.67117	-2.12462
2847.000	-4.34501	-1.83828	-4.49830	-1.85969
2848.000	-4.20346	-1.56902	-4.19363	-1.63645
2849.000	-4.10906	-1.39470	-4.06185	-1.42652
2850.000	-3.94381	-1.06567	-3.89462	-1.29191
2851.000	-3.79031	-0.80391	-3.69188	-1.09973
2852.000	-3.83558	-0.66295	-3.50480	-0.94313
2853.000	-3.73322	-0.46652	-3.42404	-0.78438
2854.000	-3.56783	-0.32762	-3.23489	-0.56408
2855.000	-3.49298	-0.22836	-3.09692	-0.40127
2856.000	-3.33144	-0.03575	-2.97863	-0.15695
2857.000	-3.17379	0.12713	-2.78143	0.13115
2858.000	-3.07524	0.26223	-2.68281	0.32193
2859.000	-2.90568	0.45697	-2.59798	0.48889
2860.000	-2.84652	0.66362	-2.46775	0.70755
2861.000	-2.74790	0.77693	-2.23880	0.89052
2862.000	-2.55654	1.04330	-2.14010	1.14099
2863.000	-2.39078	1.26000	-1.93475	1.40147
2864.000	-2.29013	1.51240	-1.79651	1.61420
2865.000	-2.08284	1.69935	-1.54169	1.87668
2866.000	-1.87748	1.89025	-1.47057	2.16277
2867.000	-1.65429	2.20825	-1.42315	2.46462
2868.000	-1.45279	2.49039	-1.16627	2.65543
2869.000	-1.21963	2.71691	-0.96864	2.94334
2870.000	-1.07536	2.97895	-0.74331	3.10420
2871.000	-0.88365	3.16755	-0.67610	3.47502
2872.000	-0.78680	3.42340	-0.60099	3.64945
2873.000	-0.67215	3.62364	-0.53575	3.84758
2874.000	-0.68994	3.85539	-0.55552	4.01586
2875.000	-0.65831	3.95640	-0.42702	4.16834
2876.000	-0.65634	4.12267	-0.50215	4.39778
2877.000	-0.69982	4.27499	-0.46854	4.47887
2878.000	-0.76505	4.39953	-0.46063	4.59947
2879.000	-0.84807	4.48842	-0.48633	4.70222
2880.000	-0.93109	4.59308	-0.50215	4.76544
2881.000	-0.91923	4.68993	-0.61680	4.89571
2882.000	-0.97654	4.76295	-0.47645	4.97481
2883.000	-0.95678	4.83211	-0.45272	5.09721
2884.000	-0.93109	4.92694	-0.43691	5.18011
2885.000	-0.73343	5.09104	-0.23922	5.40705
2886.000	-0.58517	5.16420	-0.10478	5.52537
2887.000	-0.43691	5.37342	0.06524	5.73423
2888.000	-0.22735	5.50365	0.18781	5.85038
2889.000	0.06129	5.76574	0.37167	6.06676
2890.000	0.21747	5.93108	0.63262	6.26513
2891.000	0.44284	6.19061	0.76110	6.45751
2892.000	0.62866	6.49697	1.00421	6.62201
2893.000	0.74924	6.72450	1.08129	6.86706
2894.000	0.81052	6.95777	1.13860	7.01980
2895.000	0.87970	7.12810	1.18208	7.18030
2896.000	0.92318	7.30226	1.27100	7.27990
2897.000	0.91132	7.40990	1.24927	7.37192
2898.000	0.93109	7.56042	1.18603	7.41121
2899.000	0.90539	7.64647	1.12872	7.51109
2900.000	0.86388	7.64655	1.11884	7.62643
2901.000	0.76901	7.76785	1.11094	7.67530
2902.000	0.76110	7.75810	1.11687	7.72216
2903.000	0.66424	7.78169	0.97259	7.73228
2904.000	0.69389	7.89878	0.96073	7.81432
2905.000	0.60296	7.91844	0.91330	7.81638
2906.000	0.65041	8.03153	0.84412	7.88680
2907.000	0.64052	8.10955	0.89551	7.95694
2908.000	0.59110	8.14276	0.91132	8.06809
2909.000	0.55552	8.19349	0.90144	8.20067
2910.000	0.50808	8.27734	0.85796	8.25922
2911.000	0.48831	8.36112	0.81842	8.33916
2912.000	0.42307	8.42350	0.86388	8.37216
2913.000	0.36376	8.47611	0.78680	8.53775
2914.000	0.37760	8.57338	0.76505	8.65643
2915.000	0.34202	8.69398	0.73936	8.73229
2916.000	0.30248	8.77370	0.71564	8.83531
2917.000	0.27282	8.84949	0.72157	8.88385
2918.000	0.26096	8.86115	0.61087	9.00634
2919.000	0.25108	8.95047	0.61680	9.07424
2920.000	0.31039	8.98343	0.62273	9.05677
2921.000	0.37563	9.01248	0.72157	9.10896
2922.000	0.37167	9.02607	0.66424	9.07416
2923.000	0.44679	9.02792	0.74726	9.09921
2924.000	0.50808	8.98903	0.84214	9.10871
2925.000	0.59308	8.98697	0.93306	9.12012
2926.000	0.59703	8.93649	0.88958	8.95144
2927.000	0.67808	8.93635	0.98840	9.03269
2928.000	0.72552	8.93044	0.99829	9.06177
2929.000	0.76901	8.90317	1.03386	9.00152
2930.000	0.81842	8.90113	1.11094	9.02458
2931.000	0.77494	8.90704	1.13268	9.00512
2932.000	0.80459	8.92445	1.01212	9.02487
2933.000	0.75319	8.91680	1.02200	9.09855
2934.000	0.75319	8.92068	1.11291	9.03816
2935.000	0.72750	8.91491	1.06943	9.07708
2936.000	0.68994	8.92468	0.91923	9.08525
2937.000	0.66227	8.96550	0.94492	9.07548
2938.000	0.60889	8.92482	0.85993	9.14551
2939.000	0.64250	8.94030	0.90539	9.08528
2940.000	0.61878	8.92675	0.88958	9.08920
2941.000	0.58320	8.94816	0.89946	9.18225
2942.000	0.61087	8.96365	0.85796	9.13970
2943.000	0.62668	8.90732	0.77296	9.02933
2944.000	0.62273	8.87626	0.82633	9.08741
2945.000	0.66622	8.84511	0.88167	9.06788
2946.000	0.72354	8.86248	0.89946	9.07172
2947.000	0.74924	8.78279	0.83028	9.05830
2948.000	0.71168	8.80035	0.81052	8.99820
2949.000	0.72947	8.82169	0.89946	8.98441
2950.000	0.70773	8.78676	0.89353	8.99025
2951.000	0.71564	8.80617	0.90539	8.99216
2952.000	0.73343	8.84693	0.91132	8.91839
2953.000	0.72157	8.85278	0.89749	9.01158
2954.000	0.72750	8.86442	0.85005	9.05632
2955.000	0.69192	8.88002	0.94097	8.99595
2956.000	0.66424	8.88978	0.89551	8.98248
2957.000	0.65041	8.89175	0.87377	8.99611
2958.000	0.66424	8.88978	0.92120	9.09688
2959.000	0.64448	8.83349	0.84807	9.12809
2960.000	0.65041	8.90534	0.86586	9.03494
2961.000	0.65634	8.93833	0.90539	9.01932
2962.000	0.70971	8.93629	0.85993	9.02525
2963.000	0.68796	8.93828	0.86784	9.04852
2964.000	0.64448	8.90535	0.89551	9.02517
2965.000	0.64052	8.93254	0.86981	9.01553
2966.000	0.71959	8.92074	0.80459	8.98075
2967.000	0.71168	8.90329	0.85598	8.98451
2968.000	0.66622	8.87230	0.85400	8.87775
2969.000	0.70180	8.92854	0.92120	8.93777
2970.000	0.64052	8.86652	0.86191	8.95733
2971.000	0.72750	8.88190	0.87970	8.93593
2972.000	0.70180	8.86835	0.93504	9.02507
2973.000	0.74331	8.89546	0.78284	8.87402
2974.000	0.73738	8.85081	0.86388	8.89714
2975.000	0.70971	8.83338	0.94295	8.90472
2976.000	0.71959	8.84696	0.88760	8.88155
2977.000	0.74133	8.87993	0.83424	8.95545
2978.000	0.72354	8.82947	0.93306	8.90086
2979.000	0.74133	8.87022	0.85993	8.91462
2980.000	0.75122	8.85660	0.89749	8.95918
2981.000	0.74529	8.84108	0.85598	8.87580
2982.000	0.77889	8.85072	0.74924	8.90127
2983.000	0.74133	8.86439	0.88760	8.94174
2984.000	0.78284	8.89926	0.85203	8.90105
2985.000	0.82238	8.87393	0.90934	8.94945
2986.000	0.74924	8.87603	0.83226	8.85255
2987.000	0.74924	8.80222	0.88760	8.89709
2988.000	0.75122	8.85272	0.77691	8.88568
2989.000	0.73343	8.83916	0.86586	8.84471
2990.000	0.73936	8.81195	0.82238	8.92247
2991.000	0.73540	8.85081	0.83424	8.89721
2992.000	0.76505	8.83521	0.72552	8.85277
2993.000	0.73540	8.80613	0.82435	8.88946
2994.000	0.81447	8.81763	0.85203	8.87387
2995.000	0.81249	8.78849	0.89749	8.88153
2996.000	0.76901	8.83326	0.76505	8.88959
2997.000	0.86586	8.83499	0.79470	8.83515
2998.000	0.84412	8.81562	0.74331	8.86439
2999.000	0.82040	8.80790	0.79866	8.87204
3000.000	0.85005	8.81366	0.81052	8.86813
3001.000	0.86981	8.84858	0.79470	8.85457
3002.000	0.82831	8.89140	0.84412	8.82727
3003.000	0.80459	8.85844	0.79668	8.91865
3004.000	0.80854	8.85454	0.75122	8.87991
3005.000	0.77889	8.85072	0.75319	8.90709
3006.000	0.81645	8.80985	0.80459	8.87397
3007.000	0.78680	8.82934	0.82633	8.88946
3008.000	0.78680	8.81769	0.76901	8.84103
3009.000	0.80656	8.81376	0.81052	8.87978
3010.000	0.82435	8.84286	0.77494	8.82159
3011.000	0.84412	8.80008	0.72354	8.88385
3012.000	0.84412	8.78259	0.77691	8.79245
3013.000	0.80854	8.79044	0.77889	8.76719
3014.000	0.87970	8.79028	0.82633	8.81177
3015.000	0.81249	8.78461	0.73738	8.73229
3016.000	0.84610	8.82533	0.73936	8.78476
3017.000	0.84214	8.80591	0.80854	8.79433
3018.000	0.87377	8.83109	0.80459	8.77102
3019.000	0.85203	8.78063	0.72354	8.73621
3020.000	0.84807	8.79036	0.78087	8.82158
3021.000	0.85598	8.80588	0.76505	8.80025
3022.000	0.84412	8.78842	0.80656	8.77296
3023.000	0.80063	8.75549	0.78284	8.80215
3024.000	0.82831	8.78651	0.82435	8.77875
3025.000	0.81447	8.80597	0.81447	8.79237
3026.000	0.81842	8.78459	0.82633	8.71268
3027.000	0.85005	8.77287	0.87179	8.73201
3028.000	0.82435	8.73795	0.78680	8.77495
3029.000	0.87574	8.75143	0.81052	8.78461
3030.000	0.86586	8.78837	0.87179	8.74950
3031.000	0.82040	8.79430	0.83621	8.69711
3032.000	0.87377	8.76504	0.85400	8.71262
3033.000	0.86388	8.74952	0.84610	8.73790
3034.000	0.83424	8.78067	0.90342	8.73388
3035.000	0.82238	8.76516	0.82238	8.70102
3036.000	0.81842	8.73602	0.87179	8.77282
3037.000	0.82238	8.78264	0.87970	8.72811
3038.000	0.85796	8.74565	0.79273	8.68942
3039.000	0.79866	8.79435	0.84610	8.73790
3040.000	0.78482	8.69333	0.80261	8.61941
3041.000	0.82040	8.74961	0.84017	8.63683
3042.000	0.83226	8.75153	0.88167	8.62507
3043.000	0.75715	8.74975	0.82435	8.64464
3044.000	0.83028	8.74959	0.82435	8.65631
3045.000	0.84610	8.73401	0.82633	8.60380
3046.000	0.84610	8.74567	0.83028	8.67379
3047.000	0.82633	8.72239	0.84412	8.67571
3048.000	0.83621	8.70488	0.85796	8.62707
3049.000	0.87179	8.75339	0.85005	8.62709
3050.000	0.88563	8.70477	0.87970	8.57646
3051.000	0.86981	8.76894	0.83028	8.64074
3052.000	0.87179	8.70869	0.89749	8.63281
3053.000	0.88760	8.78055	0.82633	8.61547
3054.000	0.82633	8.75349	0.87179	8.72035
3055.000	0.86191	8.77478	0.86784	8.66205
3056.000	0.85796	8.76119	0.86388	8.66400
3057.000	0.88365	8.78056	0.81645	8.58827
3058.000	0.89156	8.83299	0.81052	8.69716
3059.000	0.82040	8.78265	0.76901	8.54946
3060.000	0.82633	8.79818	0.81842	8.62132
3061.000	0.81249	8.81569	0.82633	8.55518
3062.000	0.88167	8.77474	0.86191	8.58622
3063.000	0.83819	8.80592	0.82435	8.56102
3064.000	0.85796	8.77479	0.77691	8.55334
3065.000	0.86784	8.76894	0.82831	8.50070
3066.000	0.87772	8.80972	0.82238	8.52017
3067.000	0.77098	8.78469	0.81447	8.56299
3068.000	0.83028	8.82730	0.86191	8.48312
3069.000	0.84214	8.77288	0.85203	8.56485
3070.000	0.85400	8.80783	0.79273	8.48910
3071.000	0.80459	8.80405	0.90144	8.51805
3072.000	0.88563	8.77473	0.86388	8.45976
3073.000	0.88760	8.81163	0.86388	8.49284
3074.000	0.82633	8.77292	0.83621	8.48901
3075.000	0.84412	8.80979	0.80656	8.42096
3076.000	0.74331	8.74200	0.94097	8.52574
3077.000	0.82633	8.79623	0.81052	8.46182
3078.000	0.85400	8.81365	0.77691	8.43075
3079.000	0.78284	8.79050	0.85005	8.53762
3080.000	0.83424	8.83312	0.80854	8.46961
3081.000	0.78680	8.79437	0.88167	8.48113
3082.000	0.79075	8.78465	0.84017	8.48122
3083.000	0.84017	8.81951	0.82831	8.44427
3084.000	0.86191	8.77673	0.84214	8.53375
3085.000	0.90144	8.79218	0.79273	8.45602
3086.000	0.85203	8.79035	0.81842	8.49294
3087.000	0.85796	8.76119	0.85598	8.45589
3088.000	0.85005	8.77870	0.73540	8.48338
3089.000	0.87970	8.76114	0.80854	8.46766
3090.000	0.86388	8.79809	0.90539	8.45188
3091.000	0.87970	8.79611	0.90737	8.45966
3092.000	0.79866	8.74772	0.87772	8.42080
3093.000	0.79668	8.77104	0.86784	8.37216
3094.000	0.81447	8.78072	0.83028	8.38197
3095.000	0.82040	8.77682	0.84807	8.48315
3096.000	0.80063	8.78075	0.89551	8.42271
3097.000	0.80854	8.78656	0.84807	8.42281
3098.000	0.78284	8.76135	0.91725	8.36036
3099.000	0.79668	8.79047	0.79075	8.39957
3100.000	0.75912	8.80609	0.81249	8.40537
3101.000	0.76308	8.80996	0.78680	8.41516
3102.000	0.82633	8.75737	0.85598	8.41112
3103.000	0.76308	8.77499	0.81842	8.39757
3104.000	0.75319	8.76724	0.84807	8.42671
3105.000	0.77494	8.74194	0.84412	8.39362
3106.000	0.79273	8.75356	0.83621	8.42868
3107.000	0.75912	8.74585	0.84807	8.46174
3108.000	0.82633	8.65047	0.79075	8.38789
3109.000	0.79273	8.68554	0.85993	8.37996
3110.000	0.78877	8.72247	0.85598	8.38970
3111.000	0.79668	8.73606	0.81249	8.37617
3112.000	0.79075	8.73607	0.78482	8.32949
3113.000	0.76505	8.70697	0.85598	8.41696
3114.000	0.79075	8.71470	0.80261	8.40150
3115.000	0.83819	8.73597	0.84412	8.36247
3116.000	0.78680	8.71665	0.85400	8.37219
3117.000	0.87574	8.74560	0.80656	8.41317
3118.000	0.77889	8.70111	0.86388	8.34490
3119.000	0.81447	8.72436	0.80854	8.38007
3120.000	0.80261	8.70690	0.88563	8.36822
3121.000	0.82633	8.72045	0.83028	8.36250
3122.000	0.76901	8.69142	0.79273	8.33142
3123.000	0.80459	8.73799	0.81842	8.38784
3124.000	0.84017	8.75540	0.84807	8.38972
3125.000	0.81645	8.71853	0.82040	8.36447
3126.000	0.83028	8.65046	0.88760	8.44414
3127.000	0.77296	8.67780	0.79668	8.31388
3128.000	0.85005	8.71457	0.80459	8.43848
3129.000	0.84214	8.74568	0.74529	8.38019
3130.000	0.80261	8.66413	0.70378	8.34717
3131.000	0.84214	8.66794	0.72750	8.43084
3132.000	0.85598	8.72039	0.77494	8.31977
3133.000	0.84610	8.66404	0.79470	8.37815
3134.000	0.81052	8.69716	0.77889	8.28081
3135.000	0.77889	8.67973	0.77889	8.37429
3136.000	0.78877	8.67777	0.77889	8.37234
3137.000	0.77296	8.67197	0.83028	8.32745
3138.000	0.80854	8.64079	0.84214	8.43451
3139.000	0.83226	8.67962	0.78284	8.28469
3140.000	0.86388	8.65622	0.82633	8.28655
3141.000	0.80459	8.63691	0.91132	8.38374
3142.000	0.79273	8.67776	0.78482	8.34312
3143.000	0.79273	8.65638	0.83621	8.35080
3144.000	0.76901	8.71863	0.79470	8.27688
3145.000	0.81447	8.62911	0.76703	8.35679
3146.000	0.75912	8.61367	0.84412	8.28262
3147.000	0.77296	8.67586	0.85598	8.23000
3148.000	0.77098	8.61559	0.77098	8.30809
3149.000	0.74331	8.64870	0.81645	8.29826
3150.000	0.83028	8.65824	0.83424	8.31186
3151.000	0.81842	8.64271	0.91132	8.33506
3152.000	0.80656	8.66218	0.77691	8.28665
3153.000	0.81842	8.64854	0.77889	8.28470
3154.000	0.84214	8.65044	0.86191	8.27674
3155.000	0.80459	8.61941	0.83819	8.32159
3156.000	0.83424	8.67184	0.76703	8.26524
3157.000	0.81052	8.62717	0.80261	8.31192
3158.000	0.83424	8.68156	0.88167	8.29228
3159.000	0.83028	8.66602	0.79273	8.26714
3160.000	0.81249	8.63495	0.88563	8.33707
3161.000	0.81842	8.61743	0.85400	8.27091
3162.000	0.81842	8.63882	0.86586	8.29816
3163.000	0.81249	8.64078	0.81842	8.29826
3164.000	0.82633	8.63492	0.82633	8.29435
3165.000	0.83819	8.67766	0.79866	8.29635
3166.000	0.81645	8.64077	0.80459	8.31582
3167.000	0.82633	8.66603	0.95678	8.29795
3168.000	0.85400	8.63291	0.82633	8.23006
3169.000	0.78680	8.63694	0.76308	8.29837
3170.000	0.82831	8.64075	0.83621	8.28264
3171.000	0.77098	8.61753	0.79075	8.24766
3172.000	0.82238	8.63881	0.85400	8.29624
3173.000	0.83424	8.64073	0.85005	8.23780
3174.000	0.81645	8.66410	0.87179	8.27282
3175.000	0.82238	8.66409	0.81249	8.31969
3176.000	0.83226	8.64463	0.91132	8.27663
3177.000	0.79273	8.64860	0.84214	8.28457
3178.000	0.82040	8.65048	0.82040	8.31189
3179.000	0.79470	8.65637	0.84412	8.23976
3180.000	0.76901	8.59420	0.83226	8.25927
3181.000	0.84807	8.62904	0.85993	8.25142
3182.000	0.84214	8.66016	0.84807	8.23196
3183.000	0.80656	8.61163	0.84017	8.27289
3184.000	0.80854	8.60773	0.83028	8.29044
3185.000	0.80656	8.66023	0.81447	8.26710
3186.000	0.80656	8.64079	0.81645	8.25930
3187.000	0.78482	8.60195	0.86586	8.26699
3188.000	0.82238	8.61937	0.77098	8.11907
3189.000	0.76703	8.58253	0.85993	8.23583
3190.000	0.81842	8.61354	0.84610	8.20858
3191.000	0.81447	8.66411	0.83819	8.22614
3192.000	0.79075	8.56304	0.86981	8.21828
3193.000	0.82633	8.62714	0.82238	8.26124
3194.000	0.80261	8.63108	0.82040	8.16771
3195.000	0.81447	8.63300	0.84610	8.23586
3196.000	0.82633	8.60769	0.88167	8.22604
3197.000	0.81052	8.61356	0.82633	8.25149
3198.000	0.82238	8.62131	0.76703	8.25940
3199.000	0.82238	8.61743	0.86981	8.17540
3200.000	0.81447	8.57271	0.83028	8.21251
3201.000	0.82435	8.55519	0.83028	8.31966
3202.000	0.81842	8.61354	0.83424	8.23199
3203.000	0.85005	8.56680	0.82633	8.17939
3204.000	0.82040	8.62132	0.76110	8.29642
3205.000	0.78087	8.58251	0.81447	8.19695
3206.000	0.83424	8.55322	0.82238	8.22812
3207.000	0.82435	8.55519	0.89551	8.25524
3208.000	0.82238	8.59409	0.86388	8.23777
3209.000	0.81249	8.58050	0.90539	8.20456
3210.000	0.83028	8.64269	0.75122	8.29644
3211.000	0.81447	8.63105	0.80063	8.22426
3212.000	0.81447	8.60966	0.81249	8.32748
3213.000	0.82831	8.56879	0.83226	8.30602
3214.000	0.82633	8.58241	0.85400	8.17349
3215.000	0.78482	8.57277	0.86191	8.30401
3216.000	0.82040	8.58437	0.79470	8.23597
3217.000	0.83621	8.57656	0.94295	8.21616
3218.000	0.79668	8.57080	0.86388	8.17152
3219.000	0.81249	8.55716	0.91330	8.15971
3220.000	0.83028	8.54934	0.87970	8.33513
3221.000	0.84412	8.56681	0.81645	8.14822
3222.000	0.81842	8.55325	0.80854	8.25153
3223.000	0.85203	8.54929	0.87574	8.24554
3224.000	0.86784	8.55704	0.85993	8.22414
3225.000	0.84017	8.56293	0.89353	8.12467
3226.000	0.82435	8.51628	0.79075	8.19700
3227.000	0.82040	8.49877	0.84610	8.24171
3228.000	0.84412	8.54153	0.87772	8.20462
3229.000	0.81052	8.54938	0.80854	8.25347
3230.000	0.83621	8.53571	0.82040	8.18720
3231.000	0.82435	8.56880	0.82633	8.21837
3232.000	0.85005	8.53179	0.80656	8.20282
3233.000	0.84807	8.53179	0.92516	8.24348
3234.000	0.82040	8.52212	0.83621	8.27679
3235.000	0.82040	8.46958	0.82040	8.26319
3236.000	0.81249	8.55910	0.85796	8.28259
3237.000	0.80459	8.48519	0.80063	8.28076
3238.000	0.77889	8.51442	0.92318	8.26297
3239.000	0.79075	8.49105	0.84610	8.32352
3240.000	0.82238	8.52212	0.84807	8.29235
3241.000	0.79866	8.50271	0.91923	8.29999
3242.000	0.78877	8.49300	0.85796	8.29233
3243.000	0.79866	8.47352	0.82633	8.30993
3244.000	0.80854	8.44431	0.85005	8.31962
3245.000	0.75715	8.44441	0.89353	8.26888
3246.000	0.78877	8.43851	0.91330	8.28052
3247.000	0.81645	8.48711	0.84017	8.26899
3248.000	0.83226	8.46761	0.80656	8.29439
3249.000	0.81447	8.51046	0.85005	8.29040
3250.000	0.85005	8.47925	0.83621	8.29433
3251.000	0.87970	8.52977	0.88365	8.31565
3252.000	0.93109	8.51604	0.78087	8.20871
3253.000	0.85993	8.52982	0.85400	8.31377
3254.000	0.88167	8.55895	0.90934	8.31949
3255.000	0.87574	8.53367	0.78877	8.29832
3256.000	0.93899	8.57049	0.85203	8.26897
3257.000	0.87772	8.56868	0.88958	8.31758
3258.000	0.95678	8.60934	0.76308	8.31784
3259.000	0.95876	8.62489	0.79075	8.31584
3260.000	0.97457	8.65790	0.84610	8.32936
3261.000	1.01410	8.62475	0.80261	8.35087
3262.000	1.05560	8.67907	0.77098	8.27692
3263.000	1.04177	8.70632	0.81842	8.34889
3264.000	1.00421	8.71420	0.79470	8.36841
3265.000	1.05560	8.71017	0.77494	8.41129
3266.000	1.07339	8.66736	0.88958	8.39936
3267.000	1.10501	8.61283	0.91527	8.34479
3268.000	1.17418	8.47063	1.01212	8.33677
3269.000	1.20777	8.35959	1.05362	8.28992
3270.000	1.29867	8.26193	1.15046	8.29744
3271.000	1.33424	8.05329	1.31645	8.10404
3272.000	1.35795	7.49090	NaN	NaN
3273.000	1.22951	6.92159	NaN	NaN
3274.000	1.21567	6.78242	NaN	NaN
3275.000	1.18603	6.98442	NaN	NaN
3276.000	1.08524	7.11396	NaN	NaN
3277.000	0.98247	7.03975	NaN	NaN
3278.000	NaN	NaN	NaN	NaN
3279.000	NaN	NaN	NaN	NaN
3280.000	NaN	NaN	NaN	NaN
3281.000	NaN	NaN	NaN	NaN
3282.000	NaN	NaN	NaN	NaN
3283.000	NaN	NaN	NaN	NaN
3284.000	NaN	NaN	NaN	NaN
3285.000	NaN	NaN	NaN	NaN
3286.000	NaN	NaN	NaN	NaN
3287.000	NaN	NaN	NaN	NaN
3288.000	NaN	NaN	NaN	NaN
3289.000	NaN	NaN	NaN	NaN
3290.000	NaN	NaN	NaN	NaN
3291.000	NaN	NaN	NaN	NaN
3292.000	NaN	NaN	NaN	NaN
3293.000	NaN	NaN	NaN	NaN
3294.000	NaN	NaN	NaN	NaN
3295.000	NaN	NaN	NaN	NaN
3296.000	NaN	NaN	NaN	NaN
3297.000	NaN	NaN	NaN	NaN
3298.000	NaN	NaN	NaN	NaN
3299.000	NaN	NaN	NaN	NaN
3300.000	NaN	NaN	NaN	NaN
3301.000	NaN	NaN	NaN	NaN
3302.000	NaN	NaN	NaN	NaN
3303.000	NaN	NaN	NaN	NaN
3304.000	NaN	NaN	NaN	NaN
3305.000	NaN	NaN	NaN	NaN
3306.000	NaN	NaN	NaN	NaN
3307.000	NaN	NaN	NaN	NaN
3308.000	NaN	NaN	NaN	NaN
3309.000	NaN	NaN	NaN	NaN
3310.000	NaN	NaN	NaN	NaN
3311.000	NaN	NaN	NaN	NaN
3312.000	NaN	NaN	NaN	NaN
3313.000	NaN	NaN	NaN	NaN
3314.000	NaN	NaN	NaN	NaN
3315.000	NaN	NaN	NaN	NaN
3316.000	NaN	NaN	NaN	NaN
3317.000	NaN	NaN	NaN	NaN
3318.000	NaN	NaN	NaN	NaN
3319.000	NaN	NaN	NaN	NaN
3320.000	NaN	NaN	NaN	NaN
3321.000	NaN	NaN	NaN	NaN
3322.000	NaN	NaN	NaN	NaN
3323.000	NaN	NaN	NaN	NaN
3324.000	NaN	NaN	NaN	NaN
3325.000	NaN	NaN	NaN	NaN
3326.000	NaN	NaN	NaN	NaN
3327.000	NaN	NaN	NaN	NaN
3328.000	NaN	NaN	NaN	NaN
3329.000	NaN	NaN	NaN	NaN
3330.000	NaN	NaN	NaN	NaN
3331.000	NaN	NaN	NaN	NaN
3332.000	NaN	NaN	NaN	NaN
3333.000	NaN	NaN	NaN	NaN
3334.000	NaN	NaN	NaN	NaN
3335.000	NaN	NaN	NaN	NaN
3336.000	NaN	NaN	NaN	NaN
3337.000	NaN	NaN	NaN	NaN
3338.000	NaN	NaN	NaN	NaN
3339.000	NaN	NaN	NaN	NaN
3340.000	NaN	NaN	NaN	NaN
3341.000	NaN	NaN	NaN	NaN
3342.000	NaN	NaN	NaN	NaN
3343.000	NaN	NaN	NaN	NaN
3344.000	NaN	NaN	NaN	NaN
3345.000	NaN	NaN	NaN	NaN
3346.000	NaN	NaN	NaN	NaN
3347.000	NaN	NaN	NaN	NaN
3348.000	NaN	NaN	NaN	NaN
3349.000	NaN	NaN	NaN	NaN
3350.000	NaN	NaN	NaN	NaN
3351.000	NaN	NaN	NaN	NaN
3352.000	NaN	NaN	NaN	NaN
3353.000	NaN	NaN	NaN	NaN
3354.000	NaN	NaN	NaN	NaN
3355.000	NaN	NaN	NaN	NaN
3356.000	NaN	NaN	NaN	NaN
3357.000	NaN	NaN	NaN	NaN
3358.000	NaN	NaN	NaN	NaN
3359.000	NaN	NaN	NaN	NaN
3360.000	NaN	NaN	NaN	NaN
3361.000	NaN	NaN	NaN	NaN
3362.000	NaN	NaN	NaN	NaN
3363.000	NaN	NaN	NaN	NaN
3364.000	NaN	NaN	NaN	NaN
3365.000	NaN	NaN	NaN	NaN
3366.000	NaN	NaN	NaN	NaN
3367.000	NaN	NaN	NaN	NaN
3368.000	NaN	NaN	NaN	NaN
3369.000	NaN	NaN	NaN	NaN
3370.000	NaN	NaN	NaN	NaN
3371.000	NaN	NaN	NaN	NaN
3372.000	NaN	NaN	NaN	NaN
3373.000	NaN	NaN	NaN	NaN
3374.000	NaN	NaN	NaN	NaN
3375.000	NaN	NaN	NaN	NaN
3376.000	NaN	NaN	NaN	NaN
3377.000	NaN	NaN	NaN	NaN
3378.000	NaN	NaN	NaN	NaN
3379.000	NaN	NaN	NaN	NaN
3380.000	-1.05165	0.14918	NaN	NaN
3381.000	-0.81447	0.13129	NaN	NaN
3382.000	-0.77889	-0.15317	NaN	NaN
3383.000	-0.80261	-0.40182	NaN	NaN
3384.000	-0.69587	-0.58284	NaN	NaN
3385.000	-0.73343	-0.72207	NaN	NaN
3386.000	-0.60889	-0.89711	NaN	NaN
3387.000	-0.57924	-1.13576	NaN	NaN
3388.000	-0.57924	-1.34454	NaN	NaN
3389.000	-0.48831	-1.53741	NaN	NaN
3390.000	-0.49028	-1.72227	NaN	NaN
3391.000	-0.34993	-1.84552	NaN	NaN
3392.000	-0.28864	-2.05617	NaN	NaN
3393.000	-0.16804	-2.18731	NaN	NaN
3394.000	-0.16804	-2.41175	NaN	NaN
3395.000	-0.12653	-2.61826	NaN	NaN
3396.000	-0.11071	-2.81080	32.85854	-1.08111
3397.000	-0.11862	-3.04296	21.15352	-2.63464
3398.000	-0.09885	-3.14809	4.65938	-2.96372
3399.000	-0.07513	-3.36028	1.86366	-2.97195
3400.000	-0.04152	-3.45543	1.39746	-2.89726
3401.000	-0.03756	-3.61002	1.45476	-2.92695
3402.000	-0.04943	-3.69126	1.34214	-2.88543
3403.000	0.03361	-3.75663	1.42513	-2.95277
3404.000	0.06524	-3.81605	1.41327	-2.98849
3405.000	0.15223	-3.81406	1.46662	-3.07965
3406.000	0.23922	-3.81404	1.49032	-3.07961
3407.000	0.33411	-3.72884	1.55947	-3.12909
3408.000	0.34597	-3.71496	1.54169	-3.19256
3409.000	0.42109	-3.55642	1.62269	-3.16864
3410.000	0.46656	-3.40973	1.64441	-3.16861
3411.000	0.53971	-3.27289	1.65824	-3.16661
3412.000	0.57529	-3.22330	1.63849	-3.23800
3413.000	0.53575	-3.17771	1.66022	-3.21220
3414.000	0.55947	-3.18365	1.58713	-3.25791
3415.000	0.62075	-3.16179	1.65232	-3.28159
3416.000	0.60494	-3.17370	1.71750	-3.26761
3417.000	0.63262	-3.18955	1.65034	-3.29943
3418.000	0.63064	-3.15584	1.73330	-3.26560
3419.000	0.61087	-3.18362	1.62664	-3.32325
3420.000	0.64843	-3.18359	1.66219	-3.25779
3421.000	0.66029	-3.22325	1.65232	-3.32321
3422.000	0.63262	-3.24904	1.58318	-3.33918
3423.000	0.63855	-3.21930	1.64837	-3.32520
3424.000	0.62668	-3.20344	1.61083	-3.32130
3425.000	0.63657	-3.19748	1.66022	-3.36878
3426.000	0.65831	-3.22523	1.61478	-3.41444
3427.000	0.65634	-3.21333	1.65034	-3.40050
3428.000	0.65634	-3.21532	1.63651	-3.43421
3429.000	0.64448	-3.26292	1.65824	-3.45994
3430.000	0.64250	-3.25300	1.60096	-3.44616
3431.000	0.65634	-3.20540	1.64639	-3.46590
3432.000	0.67413	-3.24109	1.59108	-3.42637
3433.000	0.61878	-3.27880	1.66219	-3.43615
3434.000	0.63064	-3.27681	1.68392	-3.41035
3435.000	0.66424	-3.31049	1.58713	-3.39467
3436.000	0.67017	-3.28669	1.65232	-3.44409
3437.000	0.66424	-3.32040	1.62861	-3.39261
3438.000	0.70971	-3.33425	1.62861	-3.40450
3439.000	0.68203	-3.35013	1.70960	-3.41229
3440.000	0.68401	-3.33823	1.68392	-3.40243
3441.000	0.69587	-3.32831	1.61281	-3.46992
3442.000	0.72157	-3.34415	1.64639	-3.42627
3443.000	0.73738	-3.33819	1.62861	-3.50159
3444.000	0.74133	-3.33819	1.55552	-3.47794
3445.000	0.73145	-3.31243	1.65232	-3.45995
3446.000	0.73936	-3.31638	1.57132	-3.47395
3447.000	0.74133	-3.33621	1.61478	-3.52539
3448.000	0.77098	-3.30447	1.65232	-3.51740
3449.000	0.76703	-3.34808	1.68590	-3.53121
3450.000	0.75715	-3.33421	1.65232	-3.48570
3451.000	0.76901	-3.29654	1.64046	-3.53525
3452.000	0.75319	-3.27276	1.70960	-3.49749
3453.000	0.76703	-3.30843	1.68787	-3.50743
3454.000	0.83028	-3.30045	1.69380	-3.57676
3455.000	0.81249	-3.28064	1.69380	-3.50940
3456.000	0.81842	-3.29253	1.63651	-3.52337
3457.000	0.79075	-3.31436	1.76293	-3.53107
3458.000	0.81447	-3.27866	1.68985	-3.52526
3459.000	0.81249	-3.34607	1.66614	-3.57879
3460.000	0.81249	-3.29055	1.63454	-3.58083
3461.000	0.82040	-3.31830	1.68985	-3.57478
3462.000	0.79866	-3.27867	1.60688	-3.60861
3463.000	0.81447	-3.30443	1.68392	-3.54904
3464.000	0.81645	-3.30046	1.67602	-3.59065
3465.000	0.80261	-3.31039	1.71948	-3.60048
3466.000	0.82238	-3.29848	1.75503	-3.55485
3467.000	0.81052	-3.28064	1.71750	-3.57671
3468.000	0.79470	-3.28065	1.65627	-3.56296
3469.000	0.83226	-3.32821	1.64837	-3.57882
3470.000	0.81842	-3.34606	1.71553	-3.58860
3471.000	0.78877	-3.35600	1.65034	-3.60457
3472.000	0.81052	-3.29452	1.67207	-3.63820
3473.000	0.79273	-3.34410	1.64837	-3.55901
3474.000	0.81645	-3.31632	1.66812	-3.63623
3475.000	0.80656	-3.30047	1.67800	-3.61442
3476.000	0.83621	-3.32027	1.59898	-3.62645
3477.000	0.81052	-3.35201	1.64244	-3.58279
3478.000	0.80261	-3.24892	1.64244	-3.56100
3479.000	0.80854	-3.31831	1.63454	-3.56696
3480.000	0.81645	-3.32822	1.59700	-3.56306
3481.000	0.81249	-3.32822	1.63256	-3.54913
3482.000	0.81645	-3.30046	1.62269	-3.59471
3483.000	0.80459	-3.34805	1.65824	-3.59069
3484.000	0.81052	-3.30840	1.59700	-3.52740
3485.000	0.77889	-3.30842	1.68985	-3.52328
3486.000	0.81249	-3.35201	1.65627	-3.55503
3487.000	0.80459	-3.34607	1.66417	-3.55700
3488.000	0.80261	-3.33021	1.70762	-3.55890
3489.000	0.85993	-3.34603	1.60886	-3.57097
3490.000	0.81052	-3.32624	1.65627	-3.53522
3491.000	0.82633	-3.34605	1.64441	-3.49959
3492.000	0.80261	-3.36392	1.62664	-3.50754
3493.000	0.89353	-3.38961	1.57725	-3.57498
3494.000	0.85203	-3.35991	1.62664	-3.60065
3495.000	0.83621	-3.37380	1.62664	-3.57292
3496.000	0.85203	-3.34207	1.64441	-3.60260
3497.000	0.85400	-3.35000	1.57132	-3.59678
3498.000	0.87772	-3.39557	1.63454	-3.57290
3499.000	0.81645	-3.42337	1.66417	-3.55898
3500.000	0.83621	-3.39560	1.67800	-3.56094
3501.000	0.85005	-3.37379	1.67997	-3.62630
3502.000	0.86191	-3.39558	1.61478	-3.59671
3503.000	0.90539	-3.39356	1.67602	-3.58669
3504.000	0.86586	-3.37972	1.60491	-3.61257
3505.000	0.90539	-3.35986	1.70367	-3.55495
3506.000	0.87574	-3.38962	1.65824	-3.61248
3507.000	0.87772	-3.37178	1.70367	-3.64210
3508.000	0.89353	-3.40348	1.73133	-3.60442
3509.000	0.89749	-3.40348	1.65232	-3.60654
3510.000	0.87772	-3.39160	1.65034	-3.59862
3511.000	0.89353	-3.39357	1.65627	-3.61050
3512.000	0.88760	-3.42133	1.68195	-3.57678
3513.000	0.89353	-3.40943	1.65034	-3.54910
3514.000	0.88958	-3.42331	1.64046	-3.62043
3515.000	0.87377	-3.40152	1.66219	-3.60058
3516.000	0.87970	-3.37971	1.60096	-3.56306
3517.000	0.85993	-3.39757	1.58713	-3.45609
3518.000	0.84017	-3.42732	1.59898	-3.53334
3519.000	0.83819	-3.41741	1.60096	-3.52542
3520.000	0.85993	-3.38567	1.57330	-3.57895
3521.000	0.80063	-3.41744	1.64441	-3.57883
3522.000	0.85400	-3.39361	1.53379	-3.55723
3523.000	0.81447	-3.38373	1.59898	-3.52740
3524.000	0.83028	-3.38372	1.57132	-3.54726
3525.000	0.81842	-3.41941	1.61083	-3.57096
3526.000	0.85598	-3.43523	1.59898	-3.55315
3527.000	0.85598	-3.42334	1.51798	-3.48593
3528.000	0.87772	-3.42530	1.62861	-3.61253
3529.000	0.88167	-3.44115	1.61281	-3.54323
3530.000	0.90539	-3.42131	1.64639	-3.50156
3531.000	0.88760	-3.40349	1.59503	-3.53335
3532.000	0.90737	-3.42527	1.59503	-3.51948
3533.000	0.88760	-3.45502	1.72145	-3.49152
3534.000	0.86586	-3.42729	1.63256	-3.46592
3535.000	0.90934	-3.40743	1.60491	-3.49569
3536.000	0.91132	-3.41536	1.60886	-3.52342
3537.000	0.88958	-3.39556	1.60293	-3.54324
3538.000	0.90539	-3.44906	1.63059	-3.51546
3539.000	0.89551	-3.41537	1.56737	-3.50566
3540.000	0.91330	-3.43320	1.60096	-3.51749
3541.000	0.91923	-3.36976	1.63454	-3.54517
3542.000	0.88365	-3.35988	1.63651	-3.51149
3543.000	0.88958	-3.36780	1.62269	-3.49170
3544.000	0.88563	-3.34204	1.58515	-3.50761
3545.000	0.90342	-3.36977	1.62269	-3.54915
3546.000	0.92120	-3.34399	1.58713	-3.53931
3547.000	0.91330	-3.41337	1.70170	-3.56288
3548.000	0.87772	-3.36187	1.57725	-3.55914
3549.000	0.89551	-3.37573	1.55157	-3.59880
3550.000	0.91527	-3.40148	1.57527	-3.54527
3551.000	0.92120	-3.39355	1.62269	-3.61650
3552.000	0.93504	-3.39551	1.57132	-3.57103
3553.000	0.92516	-3.37967	1.59898	-3.58287
3554.000	0.88563	-3.41142	1.55947	-3.52549
3555.000	0.89156	-3.38961	1.62466	-3.46594
3556.000	0.89156	-3.39159	1.59503	-3.55118
3557.000	0.88760	-3.39952	1.57527	-3.51357
3558.000	0.89946	-3.37573	1.55552	-3.54927
3559.000	0.87574	-3.39755	1.59898	-3.60862
3560.000	0.90539	-3.38563	1.56540	-3.57698
3561.000	0.95678	-3.35981	1.61873	-3.63037
3562.000	0.88760	-3.38367	1.62664	-3.57094
3563.000	0.91132	-3.40148	1.64244	-3.54912
3564.000	0.94690	-3.42722	1.56935	-3.59282
3565.000	0.92911	-3.39552	1.59898	-3.51551
3566.000	0.90934	-3.37572	1.54762	-3.54730
3567.000	0.94097	-3.38163	1.57132	-3.61263
3568.000	0.94492	-3.41731	1.59503	-3.60665
3569.000	0.94295	-3.36577	1.60293	-3.57890
3570.000	0.93702	-3.35388	1.60491	-3.58880
3571.000	0.96864	-3.37764	1.58910	-3.60269
3572.000	0.94295	-3.39154	1.51798	-3.57706
3573.000	0.94295	-3.37568	1.61478	-3.59869
3574.000	0.91923	-3.37967	1.56145	-3.57699
3575.000	0.96073	-3.36377	1.51008	-3.59292
3576.000	0.95085	-3.39153	1.55354	-3.53144
3577.000	0.94295	-3.33604	1.55354	-3.60672
3578.000	0.95678	-3.37964	1.49230	-3.63059
3579.000	0.95283	-3.41730	1.66614	-3.61444
3580.000	0.94097	-3.40542	1.63256	-3.62044
3581.000	0.94097	-3.40938	1.52984	-3.58101
3582.000	0.90144	-3.45897	1.64837	-3.59863
3583.000	0.92911	-3.41138	1.58318	-3.58686
3584.000	0.94887	-3.39352	1.53774	-3.58694
3585.000	0.96271	-3.45891	1.55947	-3.61661
3586.000	0.94097	-3.41137	1.63256	-3.60064
3587.000	0.93899	-3.43515	1.55354	-3.65822
3588.000	0.93899	-3.42524	1.60491	-3.68189
3589.000	0.92911	-3.41931	1.58910	-3.64033
3590.000	0.90737	-3.43716	1.55157	-3.60672
3591.000	0.91923	-3.45499	1.58120	-3.69778
3592.000	0.94492	-3.39154	1.61281	-3.66207
3593.000	0.95480	-3.42324	1.56540	-3.66414
3594.000	0.94690	-3.44902	1.56540	-3.63047
3595.000	0.95480	-3.41730	1.52786	-3.66420
3596.000	0.96271	-3.40540	1.57923	-3.70174
3597.000	0.97457	-3.41728	1.55552	-3.68000
3598.000	0.95283	-3.47280	1.58515	-3.68589
3599.000	0.94690	-3.42920	1.61873	-3.64424
3600.000	0.95480	-3.45892	1.62269	-3.68186
3601.000	0.97062	-3.45296	1.62071	-3.64423
3602.000	0.98643	-3.44501	1.50810	-3.65235
3603.000	0.91132	-3.48275	1.62861	-3.72740
3604.000	0.97852	-3.43908	1.59108	-3.62448
3605.000	0.97062	-3.43710	1.62269	-3.66206
3606.000	0.97654	-3.51637	1.56540	-3.68592
3607.000	0.96073	-3.51440	1.66022	-3.74912
3608.000	0.96073	-3.47279	1.55947	-3.69188
3609.000	0.96469	-3.53025	1.58515	-3.64826
3610.000	0.94690	-3.52235	1.54959	-3.69387
3611.000	1.02991	-3.47073	1.63849	-3.66599
3612.000	0.97457	-3.49457	1.57330	-3.73344
3613.000	1.00421	-3.53418	1.55749	-3.64633
3614.000	0.97654	-3.48466	1.61281	-3.68584
3615.000	0.97852	-3.49259	1.49625	-3.68010
3616.000	0.97852	-3.48268	1.54564	-3.68398
3617.000	1.00026	-3.51238	1.58318	-3.62053
3618.000	0.95480	-3.48468	1.62071	-3.61056
3619.000	0.97654	-3.50448	1.54762	-3.66813
3620.000	0.97852	-3.52429	1.56935	-3.60867
3621.000	0.98840	-3.51041	1.58318	-3.61855
3622.000	0.94492	-3.49064	1.58713	-3.68390
3623.000	0.96864	-3.47476	1.64837	-3.67191
3624.000	0.95283	-3.50054	1.59305	-3.67795
3625.000	0.95085	-3.53225	1.54959	-3.64040
3626.000	0.94492	-3.50253	1.60096	-3.65615
3627.000	0.96864	-3.51043	1.59503	-3.62447
3628.000	0.93504	-3.50849	1.54169	-3.64833
3629.000	0.94887	-3.54810	1.52193	-3.61866
3630.000	1.00817	-3.54210	1.55354	-3.57502
3631.000	0.96271	-3.54016	1.53576	-3.64636
3632.000	0.98445	-3.52627	1.49823	-3.66821
3633.000	0.97654	-3.52826	1.62861	-3.61055
3634.000	0.97259	-3.54214	1.53971	-3.70181
3635.000	0.96073	-3.56394	1.55947	-3.61661
3636.000	0.99631	-3.55202	1.60293	-3.64625
3637.000	0.98050	-3.55996	1.56540	-3.60472
3638.000	0.94690	-3.52829	1.55947	-3.64236
3639.000	0.94887	-3.55009	1.52984	-3.67806
3640.000	0.93702	-3.56397	1.63256	-3.65015
3641.000	0.93306	-3.60558	1.53576	-3.62458
3642.000	0.94492	-3.54415	1.57923	-3.61856
3643.000	0.96864	-3.60356	1.57330	-3.64432
3644.000	0.97259	-3.55006	1.54367	-3.63050
3645.000	0.95876	-3.56989	1.49823	-3.61870
3646.000	0.98050	-3.56987	1.55749	-3.59284
3647.000	0.95876	-3.60556	1.55354	-3.59879
3648.000	1.00224	-3.58768	1.55749	-3.61860
3649.000	0.98050	-3.55402	1.60688	-3.61455
3650.000	1.00817	-3.55993	1.52589	-3.61073
3651.000	1.01212	-3.53417	1.56540	-3.56312
3652.000	0.96864	-3.57979	1.50810	-3.60283
3653.000	1.00619	-3.53814	1.51601	-3.66620
3654.000	1.01014	-3.59757	1.58910	-3.64231
3655.000	0.98247	-3.58374	1.57330	-3.59084
3656.000	1.00619	-3.57975	1.53379	-3.57109
3657.000	1.01014	-3.55795	1.55354	-3.58691
3658.000	1.02793	-3.57180	1.45476	-3.59301
3659.000	1.01607	-3.55200	1.55157	-3.59484
3660.000	1.01607	-3.57974	1.51008	-3.60283
3661.000	1.00619	-3.55597	1.45871	-3.66036
3662.000	1.02595	-3.53613	1.53971	-3.64636
3663.000	1.03781	-3.58566	1.49230	-3.69595
3664.000	1.01410	-3.58766	1.41525	-3.56732
3665.000	1.04769	-3.56583	1.55552	-3.62454
3666.000	1.01607	-3.58568	1.51206	-3.59886
3667.000	1.02003	-3.57379	1.58910	-3.63043
3668.000	1.01805	-3.55992	1.61281	-3.63038
3669.000	1.03386	-3.52424	1.50218	-3.57709
3670.000	1.06746	-3.56383	1.54959	-3.55720
3671.000	1.03584	-3.60151	1.51008	-3.59491
3672.000	1.04374	-3.57772	1.51601	-3.56518
3673.000	1.08722	-3.58362	1.55157	-3.61663
3674.000	1.06746	-3.57968	1.53576	-3.61269
3675.000	1.03386	-3.57575	1.43303	-3.59701
3676.000	1.04572	-3.52818	1.53181	-3.61072
3677.000	1.06746	-3.60345	1.48637	-3.60287
3678.000	1.04967	-3.53611	1.53971	-3.55326
3679.000	1.07734	-3.56382	1.57725	-3.55715
3680.000	1.06351	-3.58365	1.48045	-3.61278
3681.000	1.06351	-3.54996	1.50415	-3.57907
3682.000	1.06548	-3.55789	1.55157	-3.59285
3683.000	1.07536	-3.54797	1.46662	-3.56526
3684.000	1.07339	-3.54797	1.46069	-3.64649
3685.000	1.07536	-3.57769	1.53181	-3.56515
3686.000	1.07339	-3.58760	1.47649	-3.59892
3687.000	1.07932	-3.56778	1.49230	-3.56324
3688.000	1.05165	-3.57970	1.45279	-3.54349
3689.000	1.05560	-3.57969	1.54762	-3.53937
3690.000	1.05362	-3.59951	1.53379	-3.53345
3691.000	1.03188	-3.55198	1.51206	-3.55924
3692.000	1.06746	-3.56185	1.49625	-3.59889
3693.000	1.03781	-3.55990	1.47254	-3.58506
3694.000	1.04177	-3.59754	1.49428	-3.53154
3695.000	1.06153	-3.58167	1.50415	-3.58105
3696.000	1.04967	-3.57772	1.49032	-3.60088
3697.000	1.04374	-3.58367	1.55552	-3.62454
3698.000	1.03781	-3.61537	1.51008	-3.60085
3699.000	1.05955	-3.59554	1.50218	-3.61671
3700.000	1.04967	-3.57177	1.50020	-3.59888
3701.000	1.02595	-3.60548	1.47649	-3.61477
3702.000	1.05955	-3.55789	1.47057	-3.71579
3703.000	1.07932	-3.58561	1.46266	-3.64847
3704.000	1.09117	-3.58956	1.45476	-3.62669
3705.000	1.05560	-3.62724	1.55354	-3.63247
3706.000	1.09710	-3.58361	1.54564	-3.61267
3707.000	1.06153	-3.58761	1.58515	-3.60072
3708.000	1.09908	-3.55983	1.54762	-3.61267
3709.000	1.07339	-3.60147	1.52193	-3.61866
3710.000	1.07734	-3.58759	1.45476	-3.62273
3711.000	1.04177	-3.57971	1.59108	-3.66409
3712.000	1.07734	-3.56778	1.54959	-3.61861
3713.000	1.05560	-3.59356	1.55552	-3.64237
3714.000	1.08524	-3.58956	1.55552	-3.56710
3715.000	1.06153	-3.57770	1.54762	-3.62654
3716.000	1.05560	-3.59356	1.53576	-3.60081
3717.000	1.06351	-3.55591	1.58318	-3.61657
3718.000	1.04572	-3.57376	1.54959	-3.64832
3719.000	1.10106	-3.55190	1.58910	-3.68192
3720.000	1.07141	-3.58760	1.55947	-3.62850
3721.000	1.06746	-3.60147	1.53576	-3.67805
3722.000	1.08327	-3.57966	1.59503	-3.63438
3723.000	1.05758	-3.57176	1.49230	-3.59493
3724.000	1.04572	-3.56385	1.47057	-3.66826
3725.000	1.07734	-3.55787	1.59503	-3.63042
3726.000	1.04769	-3.58763	1.47254	-3.60091
3727.000	1.03979	-3.55791	1.55947	-3.64632
3728.000	1.02793	-3.60944	1.55157	-3.69783
3729.000	0.97852	-3.57581	1.50415	-3.62859
3730.000	0.96864	-3.53619	1.51403	-3.55924
3731.000	0.88958	-3.53033	1.41327	-3.55346
3732.000	0.80261	-3.44320	1.36585	-3.51985
3733.000	0.70180	-3.38382	1.26310	-3.52792
3734.000	0.57529	-3.28477	0.97852	-3.46881
3735.000	0.34795	-3.20357	0.76308	-3.47495
3736.000	0.05931	-3.18578	0.56343	-3.38985
3737.000	-0.22340	-3.10840	0.28666	-3.33446
3738.000	-0.46459	-3.01311	0.11664	-3.26510
3739.000	-0.72750	-2.92567	-0.22735	-3.06873
3740.000	-0.94295	-2.88583	-0.46656	-3.01311
3741.000	-1.12872	-2.80232	-0.65634	-2.95349
3742.000	-1.26508	-2.72480	-0.94097	-2.77074
3743.000	-1.37573	-2.65125	-1.09315	-2.75672
3744.000	-1.46266	-2.59955	-1.07932	-2.64757
3745.000	-1.51008	-2.58957	-1.17220	-2.62963
3746.000	-1.57725	-2.58552	-1.14651	-2.53040
3747.000	-1.52391	-2.56177	-1.13268	-2.44306
3748.000	-1.45081	-2.58567	-1.07339	-2.45701
3749.000	-1.35992	-2.58379	-1.02003	-2.50271
3750.000	-1.22951	-2.55811	-0.79273	-2.41550
3751.000	-1.12477	-2.66540	-0.74529	-2.46120
3752.000	-0.93899	-2.66158	-0.57529	-2.47320
3753.000	-0.81447	-2.73312	-0.47842	-2.54074
3754.000	-0.65041	-2.77490	-0.29259	-2.61823
3755.000	-0.57133	-2.83845	-0.18584	-2.67979
3756.000	-0.48831	-2.87818	-0.11071	-2.79095
3757.000	-0.42109	-2.91987	-0.02372	-2.88225
3758.000	-0.34399	-2.97149	0.07117	-2.96757
3759.000	-0.35586	-3.02307	0.11071	-3.01320
3760.000	-0.33213	-3.06870	0.02966	-3.10247
3761.000	-0.35586	-3.09646	0.12850	-3.13619
3762.000	-0.37563	-3.11828	0.03559	-3.25717
3763.000	-0.40528	-3.16190	0.07315	-3.23932
3764.000	-0.43296	-3.19561	0.04745	-3.27105
3765.000	-0.46063	-3.18171	-0.03559	-3.33649
3766.000	-0.49226	-3.14203	-0.11664	-3.27105
3767.000	-0.52191	-3.18961	-0.12455	-3.29484
3768.000	-0.56936	-3.15786	-0.09094	-3.25320
3769.000	-0.59308	-3.09834	-0.26689	-3.21153
3770.000	-0.61680	-3.11221	-0.29259	-3.16789
3771.000	-0.66029	-3.08045	-0.31434	-3.11631
3772.000	-0.67215	-3.04672	-0.32818	-3.08259
3773.000	-0.73343	-3.01097	-0.30446	-3.08061
3774.000	-0.70971	-2.99512	-0.37167	-3.07662
3775.000	-0.75912	-2.98914	-0.45865	-3.03295
3776.000	-0.75319	-2.98120	-0.46656	-3.03294
3777.000	-0.78284	-2.95539	-0.48633	-2.91389
3778.000	-0.79273	-2.96134	-0.51401	-2.94364
3779.000	-0.76703	-2.90183	-0.48633	-2.95159
3780.000	-0.78284	-2.90976	-0.45865	-2.87620
3781.000	-0.75319	-2.90780	-0.48040	-2.94366
3782.000	-0.78877	-2.88595	-0.49424	-2.88810
3783.000	-0.74331	-2.93955	-0.52389	-2.86030
3784.000	-0.78284	-2.92365	-0.48831	-2.85238
3785.000	-0.77098	-2.95540	-0.41714	-2.92186
3786.000	-0.78482	-2.92365	-0.50808	-2.91587
3787.000	-0.75517	-2.91970	-0.42900	-2.91392
3788.000	-0.76901	-2.92366	-0.44284	-2.91590
3789.000	-0.73343	-2.92170	-0.41319	-2.92583
3790.000	-0.79273	-2.89190	-0.42505	-2.94170
3791.000	-0.82040	-2.94941	-0.36574	-2.92783
3792.000	-0.76505	-2.95540	-0.47249	-2.85834
3793.000	-0.78482	-2.95539	-0.43691	-2.96550
3794.000	-0.76308	-2.90580	-0.39737	-2.90401
3795.000	-0.75517	-2.92764	-0.51005	-2.91785
3796.000	-0.74331	-2.91375	-0.41319	-2.91988
3797.000	-0.72947	-2.91575	-0.41121	-2.88416
3798.000	-0.77296	-2.93556	-0.36574	-2.92981
3799.000	-0.72750	-2.92369	-0.38156	-2.99925
3800.000	-0.70180	-2.90584	-0.43098	-2.97344
3801.000	-0.70773	-2.91576	-0.38551	-2.95759
3802.000	-0.75517	-2.92168	-0.37760	-3.04488
3803.000	-0.69389	-2.95148	-0.42109	-2.95360
3804.000	-0.72552	-2.95345	-0.38353	-2.92584
3805.000	-0.69982	-2.92966	-0.40133	-2.95163
3806.000	-0.71761	-2.95940	-0.42900	-2.95559
3807.000	-0.71168	-2.98520	-0.38946	-2.93576
3808.000	-0.66820	-2.97531	-0.44679	-2.96351
3809.000	-0.69982	-2.98521	-0.34202	-2.98538
3810.000	-0.68994	-2.95942	-0.39737	-2.94766
3811.000	-0.68796	-2.92768	-0.46656	-2.97144
3812.000	-0.67808	-2.97927	-0.52191	-2.96150
3813.000	-0.63855	-2.97136	-0.45470	-2.96153
3814.000	-0.66622	-2.98920	-0.42505	-2.96749
3815.000	-0.70773	-2.95941	-0.36376	-2.91791
3816.000	-0.66820	-2.95150	-0.37167	-2.98338
3817.000	-0.68203	-2.98125	-0.40726	-2.95956
3818.000	-0.63459	-3.00707	-0.43296	-2.97146
3819.000	-0.66227	-2.91976	-0.45272	-2.93375
3820.000	-0.67215	-2.97332	-0.41121	-2.99527
3821.000	-0.66029	-2.98126	-0.45668	-2.91391
3822.000	-0.70971	-2.98917	-0.41912	-3.02503
3823.000	-0.70773	-2.96338	-0.45075	-2.96748
3824.000	-0.73145	-2.97923	-0.41516	-2.96353
3825.000	-0.67808	-2.94356	-0.46459	-2.94962
3826.000	-0.69785	-2.99116	-0.42307	-2.98733
3827.000	-0.66424	-2.98126	-0.41912	-2.98337
3828.000	-0.67610	-2.97530	-0.43889	-3.01708
3829.000	-0.67017	-3.01697	-0.41121	-2.92980
3830.000	-0.67017	-2.97134	-0.42702	-2.97741
3831.000	-0.67215	-3.02093	-0.44679	-2.94367
3832.000	-0.67610	-3.01300	-0.41516	-2.93773
3833.000	-0.68796	-2.98918	-0.37365	-2.96751
3834.000	-0.70378	-2.96735	-0.40726	-3.00321
3835.000	-0.67017	-2.98721	-0.41121	-3.00321
3836.000	-0.69785	-3.02092	-0.39539	-2.98536
3837.000	-0.70180	-3.00504	-0.37365	-2.95759
3838.000	-0.71564	-2.99710	-0.36772	-3.01513
3839.000	-0.67413	-3.01696	-0.38749	-3.06273
3840.000	-0.68203	-2.99514	-0.41516	-3.00122
3841.000	-0.67017	-2.97729	-0.39737	-2.99925
3842.000	-0.65238	-3.01499	-0.38749	-3.04289
3843.000	-0.67215	-3.02292	-0.43889	-3.07858
3844.000	-0.70378	-3.02686	-0.41912	-2.98932
3845.000	-0.64052	-3.02492	-0.42900	-3.01114
3846.000	-0.67215	-2.99118	-0.40330	-3.05677
3847.000	-0.65831	-2.98920	-0.46854	-3.03889
3848.000	-0.64645	-3.03484	-0.44877	-3.04485
3849.000	-0.68203	-3.05267	-0.41912	-3.09446
3850.000	-0.69785	-3.00306	-0.45865	-3.01708
3851.000	-0.71564	-3.03281	-0.38353	-2.99131
3852.000	-0.68599	-3.06655	-0.35783	-3.03497
3853.000	-0.74133	-3.01097	-0.36179	-3.06472
3854.000	-0.71168	-3.01496	-0.40133	-2.96552
3855.000	-0.71366	-3.06256	-0.39144	-3.04884
3856.000	-0.72750	-3.06652	-0.37958	-3.02107
3857.000	-0.72750	-3.05859	-0.44482	-3.06866
3858.000	-0.70575	-3.03678	-0.34795	-3.09052
3859.000	-0.74726	-3.02485	-0.39539	-3.00718
3860.000	-0.72552	-3.03479	-0.36376	-3.06076
3861.000	-0.73936	-3.04668	-0.42307	-3.04883
3862.000	-0.73738	-3.02287	-0.45470	-3.05675
3863.000	-0.74924	-3.05064	-0.42702	-3.10437
3864.000	-0.74726	-3.05262	-0.43296	-3.11230
3865.000	-0.72354	-3.02487	-0.40528	-3.05281
3866.000	-0.71366	-3.06058	-0.45272	-3.08651
3867.000	-0.70773	-3.09232	-0.34202	-3.10044
3868.000	-0.71761	-3.09231	-0.40330	-3.06471
3869.000	-0.70575	-2.99711	-0.45272	-3.06469
3870.000	-0.77098	-3.06848	-0.39539	-3.07265
3871.000	-0.73540	-2.99907	-0.43098	-3.10635
3872.000	-0.76308	-3.07245	-0.45272	-3.11031
3873.000	-0.72354	-3.09033	-0.41912	-3.01114
3874.000	-0.74331	-3.08635	-0.44877	-3.05676
3875.000	-0.76703	-3.07245	-0.45470	-3.09048
3876.000	-0.72750	-3.07247	-0.46063	-3.08849
3877.000	-0.72354	-3.08636	-0.32818	-3.14804
3878.000	-0.75912	-3.07047	-0.41319	-3.03297
3879.000	-0.71564	-3.10422	-0.38353	-3.05678
3880.000	-0.75517	-3.07047	-0.37563	-3.10042
3881.000	-0.73343	-3.05065	-0.34004	-3.10242
3882.000	-0.68401	-3.07449	-0.37563	-3.06869
3883.000	-0.69389	-3.05068	-0.40330	-3.07661
3884.000	-0.71366	-3.07843	-0.37958	-3.03695
3885.000	-0.69192	-3.06258	-0.39737	-3.07860
3886.000	-0.68203	-3.05267	-0.49819	-3.05277
3887.000	-0.71959	-3.06851	-0.40528	-3.13413
3888.000	-0.70575	-3.04075	-0.44877	-3.06866
3889.000	-0.70773	-3.07645	-0.51005	-3.11029
3890.000	-0.70180	-3.02687	-0.44877	-3.11031
3891.000	-0.70180	-3.06654	-0.40528	-3.04686
3892.000	-0.69785	-3.03877	-0.45668	-3.07262
3893.000	-0.69982	-3.04075	-0.39342	-3.11034
3894.000	-0.68994	-3.07051	-0.42109	-3.09644
3895.000	-0.72157	-3.09430	-0.41714	-3.16983
3896.000	-0.66424	-3.06458	-0.46459	-3.09047
3897.000	-0.71564	-3.07248	-0.41121	-3.08653
3898.000	-0.70575	-3.10422	-0.42307	-3.07462
3899.000	-0.71366	-3.06058	-0.43493	-3.08057
3900.000	-0.69982	-3.04869	-0.47645	-3.11625
3901.000	-0.74529	-3.05262	-0.45272	-3.04882
3902.000	-0.69785	-3.11018	-0.43296	-3.11627
3903.000	-0.73343	-3.09032	-0.48435	-3.16187
3904.000	-0.68599	-3.04275	-0.36376	-3.03298
3905.000	-0.69982	-3.06456	-0.41121	-3.09049
3906.000	-0.68599	-3.06258	-0.45865	-3.09246
3907.000	-0.73343	-3.11016	-0.44679	-3.06866
3908.000	-0.74529	-3.03279	-0.45668	-3.07262
3909.000	-0.65634	-3.05070	-0.42505	-3.10239
3910.000	-0.69192	-3.03084	-0.37563	-3.10638
3911.000	-0.64250	-3.06658	-0.43889	-3.10238
3912.000	-0.68599	-3.04076	-0.42900	-3.10636
3913.000	-0.66820	-3.06458	-0.34597	-3.02902
3914.000	-0.60692	-3.04279	-0.37958	-3.16191
3915.000	-0.63459	-3.06856	-0.44877	-3.08651
3916.000	-0.64448	-3.04872	-0.37167	-3.11233
3917.000	-0.66424	-3.03086	-0.38353	-3.10439
3918.000	-0.68401	-3.05267	-0.44482	-3.08453
3919.000	-0.67808	-3.04672	-0.40330	-3.09446
3920.000	-0.67215	-3.08243	-0.40133	-3.08455
3921.000	-0.67808	-3.08242	-0.34597	-3.06671
3922.000	-0.64250	-3.05666	-0.41319	-3.04685
3923.000	-0.63262	-3.06857	-0.40330	-3.06471
3924.000	-0.63459	-3.07452	-0.42900	-3.08057
3925.000	-0.60099	-3.05470	-0.43691	-3.07263
3926.000	-0.64645	-3.06856	-0.41319	-3.07264
3927.000	-0.58320	-3.09041	-0.37958	-3.04488
3928.000	-0.61482	-3.06064	-0.46063	-3.04882
3929.000	-0.59703	-3.05073	-0.48238	-3.10435
3930.000	-0.59506	-3.05867	-0.39737	-3.04686
3931.000	-0.59506	-3.00312	-0.34795	-3.06076
3932.000	-0.56738	-3.05273	-0.35981	-3.05679
3933.000	-0.59703	-3.02098	-0.33411	-3.08457
3934.000	-0.56540	-3.01107	-0.41516	-3.02503
3935.000	-0.58517	-3.04876	-0.44284	-3.01113
3936.000	-0.55552	-3.01505	-0.37365	-3.05679
3937.000	-0.55750	-2.99719	-0.42702	-3.10636
3938.000	-0.61482	-3.05271	-0.38551	-3.02901
3939.000	-0.62866	-3.01898	-0.37365	-3.06869
3940.000	-0.64052	-3.01897	-0.41516	-3.03892
3941.000	-0.61087	-3.03486	-0.38946	-2.96750
3942.000	-0.60692	-3.01700	-0.37563	-3.03496
3943.000	-0.59308	-3.05470	-0.39342	-3.01115
3944.000	-0.58320	-3.06264	-0.36376	-3.03695
3945.000	-0.61285	-3.03485	-0.36179	-3.06076
3946.000	-0.60099	-3.02296	-0.35388	-3.08456
3947.000	-0.63459	-3.06063	-0.41912	-3.06272
3948.000	-0.60494	-3.03486	-0.44086	-3.02899
3949.000	-0.58122	-3.03686	-0.44482	-3.02105
3950.000	-0.62075	-3.03485	-0.38749	-3.05281
3951.000	-0.59703	-3.05073	-0.38551	-3.03099
3952.000	-0.60889	-3.08048	-0.37958	-3.03695
3953.000	-0.57924	-2.99718	-0.38353	-3.05877
3954.000	-0.62273	-3.02493	-0.37958	-3.06670
3955.000	-0.61285	-3.07453	-0.46261	-3.07659
3956.000	-0.63064	-3.05468	-0.40133	-3.07860
3957.000	-0.63064	-3.03484	-0.43098	-3.08454
3958.000	-0.65634	-3.03086	-0.38749	-3.10835
3959.000	-0.62866	-3.06460	-0.35190	-3.08655
3960.000	-0.59506	-3.04082	-0.40330	-3.09248
3961.000	-0.62471	-3.02096	-0.45272	-3.13213
3962.000	-0.57331	-3.03289	-0.37760	-3.08852
3963.000	-0.61680	-3.07056	-0.34597	-3.08655
3964.000	-0.64250	-3.05666	-0.33213	-3.12623
3965.000	-0.64250	-3.08046	-0.41912	-3.08057
3966.000	-0.62471	-3.06659	-0.43493	-3.12222
3967.000	-0.63459	-3.08840	-0.34795	-3.08457
3968.000	-0.60296	-3.04280	-0.35388	-3.10043
3969.000	-0.63657	-3.07451	-0.42505	-3.07065
3970.000	-0.64250	-3.07848	-0.37365	-3.04687
3971.000	-0.64448	-3.05864	-0.42307	-3.08057
3972.000	-0.64448	-3.09038	-0.40726	-3.02900
3973.000	-0.67413	-3.00705	-0.42307	-3.06470
3974.000	-0.66227	-3.05863	-0.39144	-3.03496
3975.000	-0.68599	-3.06457	-0.42900	-3.03098
3976.000	-0.62075	-3.01501	-0.34993	-3.08258
3977.000	-0.60494	-3.06461	-0.42702	-3.08652
3978.000	-0.66820	-3.02689	-0.41912	-3.09644
3979.000	-0.64843	-3.08046	-0.36969	-3.07464
3980.000	-0.59308	-3.04875	-0.39935	-3.06471
3981.000	-0.59308	-3.05272	-0.38353	-3.01314
3982.000	-0.60889	-3.04874	-0.38946	-3.07860
3983.000	-0.62273	-3.00708	-0.36376	-3.06076
3984.000	-0.59506	-3.02693	-0.35190	-3.04489
3985.000	-0.66029	-2.99317	-0.42307	-3.05082
3986.000	-0.58517	-3.07058	-0.39342	-3.03099
3987.000	-0.58715	-3.02693	-0.30643	-3.01118
3988.000	-0.61680	-3.02295	-0.39144	-3.02504
3989.000	-0.64052	-3.03087	-0.40330	-3.07860
3990.000	-0.61680	-3.05072	-0.31632	-3.06275
3991.000	-0.61285	-3.05072	-0.36376	-3.09448
3992.000	-0.62866	-3.07254	-0.40923	-3.02106
3993.000	-0.61087	-3.10032	-0.32422	-3.02109
3994.000	-0.61285	-2.99319	-0.42900	-3.10636
3995.000	-0.59703	-3.03883	-0.46063	-2.95756
3996.000	-0.56738	-3.01107	-0.38946	-3.02306
3997.000	-0.56738	-3.08645	-0.45470	-3.00716
3998.000	-0.58320	-3.01900	-0.37365	-3.03695
3999.000	-0.64052	-3.06063	-0.34597	-3.01315
4000.000	-0.63855	-3.06063	-0.34597	-2.98537
4001.000	-0.56145	-3.04480	-0.32620	-3.09846
4002.000	-0.60889	-3.06858	-0.41912	-3.05082
4003.000	-0.62471	-3.02295	-0.41121	-3.09446
4004.000	-0.60099	-3.04676	-0.34399	-3.07663
4005.000	-0.60692	-3.06461	-0.38353	-3.02901
4006.000	-0.61087	-3.06263	-0.29852	-3.07268
4007.000	-0.60296	-3.02891	-0.32818	-3.04093
4008.000	-0.59901	-3.06462	-0.42307	-3.10041
4009.000	-0.62866	-3.05667	-0.37365	-3.03298
4010.000	-0.60494	-3.07652	-0.40923	-3.05479
4011.000	-0.60099	-3.02494	-0.47052	-3.06468
4012.000	-0.58715	-3.06661	-0.34004	-3.01514
4013.000	-0.55750	-3.02893	-0.38353	-3.06273
4014.000	-0.57133	-3.02893	-0.43296	-3.11230
4015.000	-0.61680	-3.06461	-0.38353	-3.00917
4016.000	-0.57331	-3.03488	-0.30643	-3.10640
4017.000	-0.58715	-3.05471	-0.39342	-3.05479
4018.000	-0.56145	-3.03488	-0.33411	-3.12424
4019.000	-0.62075	-3.05270	-0.33016	-3.09647
4020.000	-0.57727	-3.03289	-0.37365	-3.05083
4021.000	-0.54366	-3.05076	-0.37760	-3.12819
4022.000	-0.58715	-3.06264	-0.40726	-3.10438
4023.000	-0.55552	-3.04084	-0.42109	-3.08256
4024.000	-0.54564	-3.02894	-0.39342	-3.06075
4025.000	-0.54564	-3.02299	-0.30643	-3.15400
4026.000	-0.53971	-3.02894	-0.35586	-3.15795
4027.000	-0.57133	-3.01901	-0.37563	-3.03298
4028.000	-0.54168	-3.00315	-0.30643	-3.11632
4029.000	-0.52982	-2.96546	-0.36179	-3.11431
4030.000	-0.55750	-3.03885	-0.33609	-3.10044
4031.000	-0.54761	-3.03687	-0.29259	-3.12822
4032.000	-0.53180	-2.98728	-0.32422	-3.13615
4033.000	-0.56936	-3.02496	-0.34795	-3.09250
4034.000	-0.56738	-3.02893	-0.27678	-3.13814
4035.000	-0.53971	-3.02299	-0.39737	-3.05678
4036.000	-0.55157	-2.99521	-0.38551	-3.11629
4037.000	-0.56343	-2.96941	-0.27282	-3.06475
4038.000	-0.54366	-3.00315	-0.34004	-3.09647
4039.000	-0.57924	-3.00512	-0.30643	-3.08259
4040.000	-0.55354	-3.03092	-0.32422	-3.10639
4041.000	-0.56145	-2.98925	-0.29852	-3.14012
4042.000	-0.54168	-3.03291	-0.29852	-3.07863
4043.000	-0.51598	-2.98928	-0.35388	-3.02902
4044.000	-0.57331	-3.03884	-0.34597	-3.07465
4045.000	-0.56936	-3.01901	-0.30248	-3.05482
4046.000	-0.54366	-3.03489	-0.39737	-3.11033
4047.000	-0.54168	-3.06266	-0.35783	-3.05084
4048.000	-0.54366	-3.02497	-0.32225	-3.09052
4049.000	-0.53773	-3.06465	-0.31632	-3.16392
4050.000	-0.56343	-3.05472	-0.34202	-3.09449
4051.000	-0.58715	-3.04082	-0.33806	-3.09647
4052.000	-0.57924	-3.03884	-0.31434	-3.09846
4053.000	-0.57331	-3.06860	-0.32422	-3.07664
4054.000	-0.62471	-3.05072	-0.35586	-3.12423
4055.000	-0.57727	-3.09042	-0.28073	-3.08855
4056.000	-0.53971	-3.06465	-0.27282	-3.10641
4057.000	-0.61482	-3.03485	-0.34597	-3.12027
4058.000	-0.57727	-3.03487	-0.36772	-3.18373
4059.000	-0.58913	-3.05867	-0.25701	-3.07864
4060.000	-0.59506	-3.06264	-0.30248	-3.11433
4061.000	-0.58320	-3.05471	-0.30841	-3.12028
4062.000	-0.56936	-3.02893	-0.24515	-3.10641
4063.000	-0.63262	-3.05270	-0.36772	-3.07464
4064.000	-0.55947	-3.07059	-0.29852	-3.02110
4065.000	-0.59308	-3.02098	-0.39144	-3.08257
4066.000	-0.59703	-3.04478	-0.37167	-3.10836
4067.000	-0.58715	-2.98924	-0.30841	-3.07863
4068.000	-0.60692	-3.01304	-0.27282	-3.13814
4069.000	-0.56145	-2.93569	-0.29852	-3.12227
4070.000	-0.59308	-2.92972	-0.19968	-3.00724
4071.000	-0.50017	-2.82856	-0.18386	-2.93978
4072.000	-0.45668	-2.78690	-0.16607	-2.86438
4073.000	-0.34004	-2.65395	-0.01582	-2.80485
4074.000	-0.24317	-2.57655	0.07117	-2.60635
4075.000	-0.08303	-2.36807	0.22340	-2.47926
4076.000	0.06920	-2.24492	0.29259	-2.21510
4077.000	0.16014	-2.02638	0.48238	-2.06208
4078.000	0.29655	-1.87733	0.46854	-1.83954
4079.000	0.46063	-1.68849	0.63459	-1.70831
4080.000	0.53971	-1.54336	0.63064	-1.40616
4081.000	0.59901	-1.34056	0.76308	-1.18145
4082.000	0.65831	-1.20932	0.82633	-1.10389
4083.000	0.66424	-1.01245	0.77889	-0.92293
4084.000	0.67017	-0.81954	0.81842	-0.78371
4085.000	0.59506	-0.72607	0.78877	-0.71609
4086.000	0.51796	-0.62662	0.68401	-0.55699
4087.000	0.40330	-0.57889	0.65041	-0.65247
4088.000	0.34202	-0.55900	0.54959	-0.61468
4089.000	0.23922	-0.50530	0.53971	-0.65447
4090.000	0.14234	-0.51326	0.33806	-0.69825
4091.000	0.01384	-0.57095	0.23724	-0.72013
4092.000	-0.06920	-0.59880	0.24910	-0.82953
4093.000	-0.11862	-0.64057	0.20561	-0.85937
4094.000	-0.14037	-0.69428	0.15223	-0.89517
4095.000	-0.14432	-0.80368	0.10478	-0.97473
4096.000	-0.13246	-0.85340	0.22340	-1.00455
4097.000	-0.11862	-0.97871	0.20363	-1.14377
4098.000	-0.16409	-1.07019	0.13641	-1.14178
4099.000	-0.10874	-1.15968	0.32027	-1.27898
4100.000	-0.12257	-1.29490	0.26294	-1.24916
4101.000	-0.04745	-1.32871	0.35981	-1.35850
4102.000	-0.02175	-1.40426	0.28271	-1.33863
4103.000	0.01186	-1.39432	0.38353	-1.37441
4104.000	0.00593	-1.46589	0.36772	-1.41417
4105.000	0.04943	-1.50367	0.49622	-1.37439
4106.000	0.06920	-1.45794	0.56145	-1.38829
4107.000	0.08303	-1.47981	0.48633	-1.39626
4108.000	0.11664	-1.47583	0.49028	-1.40023
4109.000	0.10874	-1.44601	0.48040	-1.33860
4110.000	0.12455	-1.39630	0.58517	-1.35647
4111.000	0.13048	-1.37642	0.52784	-1.28491
4112.000	0.17595	-1.34659	0.53378	-1.25906
4113.000	0.13444	-1.28098	0.53971	-1.23519
4114.000	0.20561	-1.18950	0.58320	-1.11985
4115.000	0.15816	-1.19348	0.55947	-1.13775
4116.000	0.21945	-1.12587	0.54564	-1.06816
4117.000	0.17793	-1.13184	0.51598	-1.10594
4118.000	0.17793	-1.05627	0.50412	-0.98861
4119.000	0.17793	-1.05428	0.45668	-1.04431
4120.000	0.24515	-1.01649	0.55157	-1.00849
4121.000	0.15618	-1.01649	0.52191	-0.96673
4122.000	0.19572	-0.96876	0.44086	-0.92100
4123.000	0.19177	-0.94091	0.46854	-1.01447
4124.000	0.17595	-0.96478	0.49819	-0.96674
4125.000	0.16211	-0.97671	0.49028	-0.97072
4126.000	0.19177	-0.97274	0.37760	-0.94289
4127.000	0.15025	-0.99660	0.47052	-0.94288
4128.000	0.13246	-0.97473	0.42109	-1.01249
4129.000	0.18188	-0.95086	0.45075	-0.99260
4130.000	0.17398	-1.01848	0.45668	-1.04629
4131.000	0.11269	-1.00854	0.46459	-1.02641
4132.000	0.14827	-0.93694	0.49028	-0.97668
4133.000	0.14234	-0.97672	0.43691	-1.04431
4134.000	0.12455	-0.97672	0.40726	-1.01846
4135.000	0.13641	-1.05030	0.43493	-1.01249
4136.000	0.14234	-1.01649	0.40330	-1.05227
4137.000	0.13839	-1.03439	0.50215	-1.00651
4138.000	0.11071	-1.03042	0.48633	-1.06817
4139.000	0.16804	-1.03439	0.44679	-1.05226
4140.000	0.13641	-1.07814	0.53180	-1.07810
4141.000	0.15223	-1.04433	0.44482	-1.10596
4142.000	0.17200	-1.09007	0.46063	-1.11391
4143.000	0.12455	-1.08013	0.46854	-1.06220
4144.000	0.14432	-1.04434	0.39342	-1.08210
4145.000	0.14234	-1.04434	0.43889	-1.11192
4146.000	0.18781	-1.04433	0.44482	-1.09005
4147.000	0.14630	-1.03638	0.51598	-1.04430
4148.000	0.17398	-1.01649	0.49819	-1.12782
4149.000	0.17595	-1.04036	0.43493	-1.08408
4150.000	0.14037	-1.02246	0.42109	-1.01846
4151.000	0.16409	-1.06024	0.52389	-1.07611
4152.000	0.16804	-1.10797	0.48435	-1.14174
4153.000	0.16607	-1.08212	0.44877	-1.03635
4154.000	0.16014	-1.05428	0.49226	-1.09004
4155.000	0.12257	-1.08411	0.47842	-1.05623
