time (ms)	lx (deg)	ly (deg)	rx (deg)	ry (deg)
0.000	0.04745	-1.07019	-0.53378	-1.18747
1.000	0.03361	-1.11196	-0.59901	-1.17752
2.000	0.03954	-1.03837	-0.58517	-1.15167
3.000	0.01186	-1.09605	-0.53378	-1.14372
4.000	0.02372	-1.10002	-0.61680	-1.14570
5.000	0.04152	-1.10798	-0.58517	-1.20138
6.000	0.06524	-1.06025	-0.55750	-1.16361
7.000	-0.01186	-1.08411	-0.53773	-1.14174
8.000	0.01384	-1.09406	-0.54168	-1.16162
9.000	0.01779	-1.11196	-0.56145	-1.10792
10.000	0.03163	-1.08610	-0.54959	-1.15764
11.000	0.03756	-1.13184	-0.55947	-1.13974
12.000	0.00791	-1.09008	-0.51994	-1.09998
13.000	0.02372	-1.08411	-0.53180	-1.12185
14.000	0.00198	-1.09008	-0.51994	-1.16560
15.000	-0.01779	-1.12389	-0.59506	-1.15763
16.000	-0.01384	-1.07815	-0.54959	-1.19741
17.000	0.00593	-1.08411	-0.51598	-1.15765
18.000	-0.02175	-1.06621	-0.58320	-1.15763
19.000	0.02768	-1.07616	-0.57727	-1.16957
20.000	0.00791	-1.09008	-0.53378	-1.15963
21.000	0.02570	-1.05826	-0.56540	-1.20934
22.000	0.03756	-1.03241	-0.52982	-1.13577
23.000	0.05338	-1.08809	-0.57924	-1.19542
24.000	0.04943	-1.09008	-0.53378	-1.21531
25.000	0.06920	-1.10400	-0.56540	-1.22724
26.000	0.04943	-1.05229	-0.51796	-1.16759
27.000	0.07117	-1.08809	-0.51203	-1.16560
28.000	0.01582	-1.10201	-0.56145	-1.15565
29.000	0.05733	-1.06820	-0.54168	-1.18747
30.000	0.07710	-1.05627	-0.51401	-1.19742
31.000	0.03163	-1.07417	-0.60692	-1.21728
32.000	0.06920	-1.06621	-0.53971	-1.16361
33.000	0.04547	-1.12985	-0.52784	-1.22128
34.000	0.00395	-1.12985	-0.51598	-1.19145
35.000	0.06326	-1.10002	-0.52784	-1.18350
36.000	0.06722	-1.05627	-0.53180	-1.18350
37.000	0.06129	-1.09605	-0.53378	-1.25508
38.000	0.05536	-1.08610	-0.44086	-1.20340
39.000	0.03559	-1.06621	-0.48435	-1.22327
40.000	0.05338	-1.09406	-0.54959	-1.22525
41.000	0.07710	-1.07218	-0.52191	-1.15765
42.000	0.07513	-1.09605	-0.50412	-1.23122
43.000	0.00000	-1.14179	-0.46854	-1.20538
44.000	0.01186	-1.10400	-0.48238	-1.18152
45.000	0.05536	-1.09803	-0.56145	-1.22922
46.000	0.04547	-1.07019	-0.49622	-1.25310
47.000	0.08303	-1.07616	-0.52389	-1.22923
48.000	0.03756	-1.11196	-0.54761	-1.23718
49.000	0.04152	-1.11593	-0.50215	-1.26503
50.000	0.04547	-1.08411	-0.53575	-1.23519
51.000	0.05338	-1.08014	-0.50610	-1.24514
52.000	0.04745	-1.11593	-0.48040	-1.24912
53.000	0.05536	-1.08610	-0.56145	-1.23718
54.000	0.07710	-1.08809	-0.52982	-1.17753
55.000	0.04547	-1.09008	-0.48435	-1.23918
56.000	0.07513	-1.06224	-0.56540	-1.22525
57.000	0.05733	-1.09207	-0.58913	-1.24910
58.000	0.06722	-1.13781	-0.55750	-1.21928
59.000	0.06326	-1.06423	-0.53773	-1.17355
60.000	0.09094	-1.10400	-0.48831	-1.20538
61.000	0.08699	-1.08610	-0.39342	-1.20937
62.000	0.07117	-1.10400	-0.46854	-1.20339
63.000	0.04547	-1.12389	-0.50412	-1.15964
64.000	0.02966	-1.12588	-0.52587	-1.21531
65.000	0.04547	-1.11394	-0.49424	-1.25509
66.000	0.03559	-1.12786	-0.46261	-1.26702
67.000	0.04745	-1.12190	-0.53971	-1.27099
68.000	0.04745	-1.10599	-0.44877	-1.26106
69.000	0.03163	-1.10400	-0.51796	-1.18151
70.000	0.03756	-1.10599	-0.45668	-1.16362
71.000	0.04547	-1.09803	-0.42109	-1.19346
72.000	0.06326	-1.12190	-0.48831	-1.21930
73.000	0.04152	-1.10201	-0.49424	-1.22128
74.000	0.04943	-1.09207	-0.37958	-1.18551
75.000	0.02966	-1.09803	-0.45075	-1.19544
76.000	0.04943	-1.07019	-0.44679	-1.25510
77.000	0.07117	-1.08610	-0.49226	-1.20935
78.000	0.05536	-1.04832	-0.42900	-1.19942
79.000	0.02372	-1.05428	-0.48435	-1.17555
80.000	0.02768	-0.98269	-0.47249	-1.09004
81.000	0.08303	-0.89915	-0.43098	-1.05823
82.000	0.09490	-0.82357	-0.42307	-0.98266
83.000	0.14432	-0.70820	-0.40923	-0.87526
84.000	0.16804	-0.53713	-0.40726	-0.71017
85.000	0.18979	-0.43965	-0.36969	-0.57492
86.000	0.25701	-0.25862	-0.34004	-0.36803
87.000	0.29062	-0.04974	-0.32620	-0.21287
88.000	0.30248	0.11340	-0.39539	-0.08156
89.000	0.32818	0.34416	-0.32620	0.12732
90.000	0.33016	0.42771	-0.37760	0.26260
91.000	0.29852	0.56696	-0.39144	0.43965
92.000	0.31236	0.67637	-0.33806	0.45158
93.000	0.31039	0.79770	-0.43691	0.54109
94.000	0.25108	0.76986	-0.40528	0.59481
95.000	0.26887	0.82953	-0.50215	0.62861
96.000	0.23922	0.80367	-0.46063	0.54905
97.000	0.21747	0.69626	-0.44482	0.48739
98.000	0.15421	0.68632	-0.40133	0.46551
99.000	0.15223	0.58487	-0.43889	0.37798
100.000	0.13641	0.51326	-0.48040	0.33222
101.000	0.12653	0.39987	-0.47052	0.22281
102.000	0.12060	0.32626	-0.44482	0.09350
103.000	0.09885	0.23475	-0.47052	0.00000
104.000	0.08897	0.11141	-0.42307	-0.10544
105.000	0.08303	0.05968	-0.42307	-0.14522
106.000	0.13444	-0.00199	-0.49819	-0.23474
107.000	0.06524	-0.09151	-0.39539	-0.23276
108.000	0.09292	-0.11937	-0.41121	-0.29443
109.000	0.09885	-0.13528	-0.44877	-0.30636
110.000	0.11467	-0.11937	-0.28666	-0.34814
111.000	0.17002	-0.15915	-0.33609	-0.32228
112.000	0.10083	-0.10345	-0.30050	-0.35411
113.000	0.19177	-0.12135	-0.42109	-0.24270
114.000	0.11862	-0.07361	-0.35981	-0.21883
115.000	0.12850	-0.09151	-0.36376	-0.27255
116.000	0.12653	-0.00199	-0.35981	-0.10544
117.000	0.14432	0.00000	-0.31829	-0.15318
118.000	0.14827	0.05570	-0.39935	-0.04973
119.000	0.20561	0.06764	-0.32620	-0.08952
120.000	0.16607	0.09151	-0.39737	-0.01393
121.000	0.16607	0.15319	-0.37760	-0.02387
122.000	0.19375	0.12931	-0.35981	0.01194
123.000	0.21747	0.18701	-0.35783	0.06366
124.000	0.21352	0.21685	-0.34399	0.00597
125.000	0.21154	0.17109	-0.39539	0.05371
126.000	0.20956	0.21287	-0.43889	0.01790
127.000	0.20758	0.20093	-0.36772	-0.01194
128.000	0.22538	0.23873	-0.36376	0.05570
129.000	0.19770	0.22480	-0.39342	0.06963
130.000	0.19968	0.21088	-0.40923	0.04775
131.000	0.16409	0.24868	-0.41319	0.04377
132.000	0.18584	0.23674	-0.35190	-0.00199
133.000	0.18386	0.22679	-0.44482	0.02387
134.000	0.17002	0.26459	-0.37167	-0.00995
135.000	0.20758	0.25663	-0.44086	0.00199
136.000	0.15618	0.22083	-0.36376	0.02586
137.000	0.13641	0.20491	-0.38353	-0.00995
138.000	0.16211	0.25465	-0.41516	0.03780
139.000	0.21549	0.22878	-0.41714	-0.00199
140.000	0.17595	0.25862	-0.44086	0.00398
141.000	0.21154	0.26459	-0.43889	-0.03183
142.000	0.18188	0.26260	-0.42900	-0.03183
143.000	0.17595	0.21884	-0.32422	-0.03979
144.000	0.16607	0.21685	-0.40528	-0.03979
145.000	0.13839	0.22282	-0.25701	-0.00398
146.000	0.17398	0.22679	-0.44086	-0.00796
147.000	0.15816	0.19695	-0.42109	-0.03581
148.000	0.13641	0.27454	-0.36969	-0.03581
149.000	0.13444	0.23873	-0.40330	0.00000
150.000	0.16409	0.18900	-0.44679	0.04178
151.000	0.13641	0.22282	-0.39539	-0.03183
152.000	0.14432	0.20093	-0.38353	-0.03382
153.000	0.12850	0.18701	-0.34004	-0.10544
154.000	0.19177	0.23475	-0.34399	0.00398
155.000	0.18584	0.20491	-0.33213	0.00995
156.000	0.13246	0.18502	-0.34795	-0.00995
157.000	0.15816	0.19297	-0.34597	-0.03581
158.000	0.19375	0.20292	-0.31632	0.00597
159.000	0.19177	0.19297	-0.44086	-0.01592
160.000	0.18386	0.21088	-0.40133	-0.00398
161.000	0.19177	0.19098	-0.36179	0.05371
162.000	0.21352	0.17905	-0.40330	-0.00199
163.000	0.18188	0.20889	-0.38749	-0.02188
164.000	0.19968	0.21486	-0.32818	0.00398
165.000	0.22538	0.18303	-0.39539	-0.01989
166.000	0.20758	0.18502	-0.42505	0.01592
167.000	0.20561	0.20690	-0.36376	0.03382
168.000	0.16607	0.17706	-0.40923	-0.02984
169.000	0.21549	0.19695	-0.36772	-0.01194
170.000	0.16607	0.18104	-0.41516	-0.01592
171.000	0.17793	0.21486	-0.41516	-0.01194
172.000	0.17002	0.22083	-0.42702	0.00398
173.000	0.16804	0.18899	-0.38156	-0.02387
174.000	0.13641	0.18701	-0.36376	0.00398
175.000	0.13641	0.21685	-0.39737	-0.01393
176.000	0.13444	0.20093	-0.42702	-0.00796
177.000	0.14234	0.22083	-0.40726	-0.02984
178.000	0.13641	0.18900	-0.43889	0.02785
179.000	0.16804	0.20889	-0.35190	0.04377
180.000	0.16014	0.20889	-0.36574	-0.00995
181.000	0.10280	0.22679	-0.34795	0.00000
182.000	0.20561	0.25464	-0.34399	-0.07361
183.000	0.19572	0.21884	-0.44679	0.00199
184.000	0.19177	0.25464	-0.38156	0.00597
185.000	0.13641	0.23475	-0.33806	0.03581
186.000	0.18386	0.26459	-0.42702	-0.04775
187.000	0.14432	0.21287	-0.39144	0.06963
188.000	0.11071	0.20093	-0.41516	0.01194
189.000	0.15025	0.25067	-0.45470	0.00597
190.000	0.12257	0.22083	-0.43098	0.00597
191.000	0.16409	0.24669	-0.40726	-0.04178
192.000	0.12653	0.21088	-0.47249	0.02387
193.000	0.15816	0.22480	-0.39935	0.01393
194.000	0.14432	0.24669	-0.34597	-0.01393
195.000	0.13839	0.22282	-0.39144	0.01194
196.000	0.15816	0.19695	-0.38156	-0.01194
197.000	0.14432	0.25465	-0.43493	-0.00597
198.000	0.12455	0.20889	-0.44086	0.02785
199.000	0.15816	0.24072	-0.41121	0.05371
200.000	0.14432	0.20093	-0.42900	0.02785
201.000	0.15223	0.20491	-0.44482	0.02785
202.000	0.14234	0.20690	-0.42702	0.03780
203.000	0.18781	0.19297	-0.36772	0.01393
204.000	0.13048	0.21685	-0.37958	0.00199
205.000	0.15421	0.18502	-0.44086	-0.08156
206.000	0.17793	0.23873	-0.33806	-0.01790
207.000	0.16409	0.19496	-0.38353	0.00995
208.000	0.17398	0.24868	-0.38946	0.01592
209.000	0.16014	0.22878	-0.33411	-0.05769
210.000	0.15618	0.21884	-0.42505	-0.00796
211.000	0.11664	0.19098	-0.44086	-0.01393
212.000	0.12455	0.20690	-0.33213	-0.02586
213.000	0.12060	0.22282	-0.37563	0.03581
214.000	0.11467	0.24470	-0.38156	0.05769
215.000	0.15223	0.25067	-0.30248	-0.04576
216.000	0.13246	0.25465	-0.40330	-0.00597
217.000	0.17398	0.24072	-0.36179	0.00199
218.000	0.14037	0.19098	-0.36969	0.04178
219.000	0.11664	0.23674	-0.42109	0.00995
220.000	0.15816	0.22878	-0.47052	0.00995
221.000	0.14037	0.20690	-0.36179	-0.01592
222.000	0.14630	0.23276	-0.40528	-0.00796
223.000	0.13048	0.19098	-0.34993	0.00796
224.000	0.13839	0.21486	-0.39144	-0.04178
225.000	0.13839	0.21685	-0.36376	-0.00995
226.000	0.10874	0.20889	-0.34202	-0.00995
227.000	0.13048	0.21287	-0.39342	-0.02586
228.000	0.13641	0.23475	-0.42307	0.06167
229.000	0.16211	0.21884	-0.35388	-0.00995
230.000	0.13048	0.21486	-0.34993	0.00597
231.000	0.09885	0.22083	-0.41121	-0.00398
232.000	0.15618	0.25862	-0.39144	0.04377
233.000	0.12455	0.22878	-0.37563	0.02387
234.000	0.08699	0.22679	-0.36574	-0.02188
235.000	0.15025	0.22282	-0.39539	0.02785
236.000	0.14234	0.23475	-0.36179	0.03581
237.000	0.18584	0.25266	-0.37760	-0.00199
238.000	0.13048	0.22282	-0.40528	0.03183
239.000	0.19572	0.22281	-0.41912	-0.00199
240.000	0.14432	0.21884	-0.39342	0.02785
241.000	0.12060	0.21088	-0.44086	0.01790
242.000	0.12060	0.25067	-0.38946	-0.02984
243.000	0.12060	0.20690	-0.31236	0.04974
244.000	0.12257	0.21287	-0.34993	0.00796
245.000	0.13048	0.22083	-0.41319	0.00597
246.000	0.13444	0.20889	-0.38946	0.02785
247.000	0.13246	0.23276	-0.44284	0.00796
248.000	0.15618	0.22480	-0.33609	0.02785
249.000	0.13048	0.24470	-0.43889	-0.02785
250.000	0.12850	0.25862	-0.37760	-0.02586
251.000	0.12455	0.24072	-0.40726	-0.02984
252.000	0.12455	0.23077	-0.37563	-0.01194
253.000	0.10083	0.23077	-0.38353	-0.00995
254.000	0.14037	0.22878	-0.40726	0.04178
255.000	0.12850	0.22679	-0.36179	0.04377
256.000	0.12455	0.28250	-0.45668	-0.04377
257.000	0.13048	0.26857	-0.35783	0.03183
258.000	0.13839	0.24470	-0.38946	0.03382
259.000	0.15421	0.28449	-0.42307	-0.03183
260.000	0.11071	0.27653	-0.40726	0.03581
261.000	0.15223	0.23674	-0.44086	-0.02984
262.000	0.10478	0.24271	-0.37167	-0.00995
263.000	0.12257	0.26658	-0.40923	0.00398
264.000	0.12257	0.21088	-0.41516	0.07560
265.000	0.13048	0.22878	-0.38749	0.06366
266.000	0.15816	0.23674	-0.41714	0.02188
267.000	0.15816	0.24072	-0.45865	0.01591
268.000	0.12455	0.22878	-0.45470	0.02586
269.000	0.17002	0.25663	-0.44284	-0.02188
270.000	0.12455	0.25465	-0.43493	-0.00995
271.000	0.15421	0.23475	-0.44679	-0.01393
272.000	0.18188	0.28648	-0.39935	-0.00199
273.000	0.14432	0.24669	-0.40923	-0.00199
274.000	0.16409	0.26857	-0.41516	0.07162
275.000	0.09687	0.22878	-0.39935	0.00398
276.000	0.14827	0.24470	-0.43098	-0.01393
277.000	0.13246	0.28051	-0.45865	0.01393
278.000	0.12257	0.23475	-0.51401	0.00000
279.000	0.12060	0.24470	-0.46261	0.01790
280.000	0.15618	0.20093	-0.46063	0.03979
281.000	0.10478	0.25266	-0.53378	-0.00199
282.000	0.08897	0.25465	-0.35783	0.00199
283.000	0.11664	0.23873	-0.42505	0.04377
284.000	0.15816	0.26260	-0.46261	0.02586
285.000	0.10874	0.24271	-0.47052	-0.02387
286.000	0.12257	0.31234	-0.43098	0.00199
287.000	0.13246	0.27255	-0.40133	0.04178
288.000	0.13641	0.28449	-0.46459	-0.02387
289.000	0.11862	0.25862	-0.46656	0.07361
290.000	0.12455	0.24669	-0.46063	0.00398
291.000	0.14234	0.24868	-0.46459	0.01194
292.000	0.13048	0.28250	-0.45470	-0.05968
293.000	0.17200	0.30040	-0.39737	0.06963
294.000	0.13641	0.26260	-0.41121	-0.01790
295.000	0.13246	0.25862	-0.48040	-0.01194
296.000	0.10083	0.26459	-0.42307	0.01790
297.000	0.12850	0.28449	-0.40133	-0.09350
298.000	0.10874	0.24072	-0.42307	0.00597
299.000	0.11269	0.27454	-0.43691	-0.12931
300.000	0.10280	0.25465	-0.41121	0.02586
301.000	0.11467	0.27056	-0.40726	0.00597
302.000	0.12455	0.27056	-0.36574	-0.00995
303.000	0.10478	0.29642	-0.46261	0.01194
304.000	0.08303	0.24470	-0.39539	0.00796
305.000	0.11269	0.21486	-0.35190	0.00398
306.000	0.07710	0.27056	-0.34795	0.06963
307.000	0.12455	0.29443	-0.34795	0.01592
308.000	0.11664	0.29642	-0.27480	0.00199
309.000	0.07117	0.25266	-0.34993	0.02188
310.000	0.10874	0.25067	-0.33411	-0.02387
311.000	0.14432	0.29841	-0.31434	-0.00398
312.000	0.12455	0.27653	-0.31434	0.01393
313.000	0.12653	0.26459	-0.30050	0.02586
314.000	0.14432	0.27056	-0.34795	-0.03581
315.000	0.09687	0.22083	-0.30446	-0.00796
316.000	0.10478	0.28449	-0.34399	0.00000
317.000	0.08106	0.27852	-0.31829	-0.00796
318.000	0.09292	0.25862	-0.29655	-0.00398
319.000	0.11467	0.24271	-0.40528	0.02586
320.000	0.07908	0.21088	-0.37167	-0.00398
321.000	0.05931	0.23276	-0.38749	0.05371
322.000	0.04943	0.24669	-0.38353	-0.01194
323.000	0.06920	0.27852	-0.33411	-0.04576
324.000	0.06129	0.23475	-0.35190	-0.03780
325.000	0.04745	0.28648	-0.37958	-0.02984
326.000	0.07908	0.25664	-0.38156	0.02785
327.000	0.06524	0.22878	-0.38946	0.05570
328.000	0.08501	0.27255	-0.35586	0.07759
329.000	0.07513	0.26857	-0.39737	0.02785
330.000	0.09885	0.28051	-0.36772	0.00995
331.000	0.12060	0.28847	-0.38946	-0.00995
332.000	0.07117	0.29841	-0.38156	-0.01592
333.000	0.06129	0.29443	-0.35981	0.00000
334.000	0.07117	0.27454	-0.37167	-0.01592
335.000	0.08699	0.29244	-0.37167	-0.00398
336.000	0.08303	0.30239	-0.36772	0.02586
337.000	0.09094	0.28449	-0.34202	-0.03183
338.000	0.07315	0.26061	-0.36376	0.03979
339.000	0.08699	0.29045	-0.36969	0.00000
340.000	0.08501	0.28847	-0.38946	0.03382
341.000	0.07710	0.27852	-0.39144	-0.03979
342.000	0.12455	0.27653	-0.35388	-0.06167
343.000	0.05931	0.27056	-0.38749	-0.02188
344.000	0.07710	0.28051	-0.34004	-0.01592
345.000	0.08106	0.32427	-0.38156	0.00199
346.000	0.08303	0.27454	-0.32422	-0.00597
347.000	0.05140	0.26260	-0.31829	-0.01592
348.000	0.06129	0.28250	-0.38353	-0.01393
349.000	0.03954	0.27653	-0.36969	0.02586
350.000	0.03559	0.26857	-0.40528	0.02188
351.000	0.05140	0.25862	-0.39935	0.03780
352.000	0.08303	0.28847	-0.40133	0.04377
353.000	0.05140	0.29046	-0.36376	0.03183
354.000	0.05140	0.24271	-0.34597	-0.02387
355.000	0.03163	0.27653	-0.47447	0.01989
356.000	0.05338	0.29841	-0.33411	0.03979
357.000	0.08106	0.30040	-0.40330	-0.01989
358.000	0.05338	0.23475	-0.39539	0.04178
359.000	0.08106	0.29244	-0.45470	-0.02188
360.000	0.06920	0.23077	-0.38353	0.01592
361.000	0.04152	0.27653	-0.38156	0.06167
362.000	0.10874	0.27056	-0.43098	-0.02188
363.000	0.07117	0.27653	-0.40726	0.05968
364.000	0.09292	0.28847	-0.47052	0.04973
365.000	0.08501	0.30040	-0.39737	-0.01194
366.000	0.07513	0.29443	-0.42505	0.01393
367.000	0.08897	0.29841	-0.39737	0.03382
368.000	0.07315	0.33223	-0.39144	-0.00597
369.000	0.08106	0.30438	-0.46261	0.00199
370.000	0.06326	0.31831	-0.44482	0.01989
371.000	0.06326	0.30637	-0.34004	-0.01194
372.000	0.06326	0.32825	-0.33411	-0.02785
373.000	0.05733	0.33024	-0.34993	0.00796
374.000	0.08106	0.27852	-0.40726	-0.04775
375.000	0.08699	0.30637	-0.43493	0.00796
376.000	0.04547	0.31632	-0.48435	-0.03979
377.000	0.06920	0.29642	-0.39737	-0.05172
378.000	0.07908	0.35213	-0.33609	-0.03382
379.000	0.06722	0.30040	-0.43493	-0.04576
380.000	0.05140	0.32030	-0.35981	0.03581
381.000	0.05931	0.35412	-0.34993	-0.01592
382.000	0.06129	0.35014	-0.35586	-0.04178
383.000	0.06722	0.35213	-0.41121	-0.02188
384.000	0.06326	0.34019	-0.34795	-0.03581
385.000	0.08106	0.30637	-0.40923	0.02785
386.000	0.11071	0.36804	-0.39737	-0.06167
387.000	0.11071	0.34417	-0.37167	-0.03183
388.000	0.04547	0.36207	-0.38946	0.00398
389.000	0.08897	0.28051	-0.43889	-0.01592
390.000	0.06326	0.34417	-0.41121	-0.04775
391.000	0.08501	0.35213	-0.35783	-0.02188
392.000	0.05536	0.27454	-0.35586	-0.01790
393.000	0.10280	0.33422	-0.41121	-0.05371
394.000	0.10083	0.37401	-0.38156	-0.02984
395.000	0.04547	0.34019	-0.41516	-0.01790
396.000	0.05140	0.34616	-0.38946	-0.01393
397.000	0.07315	0.36207	-0.36574	-0.03979
398.000	0.04547	0.33820	-0.38156	-0.02785
399.000	0.07908	0.35014	-0.35783	-0.01790
400.000	0.06524	0.29244	-0.42307	0.03581
401.000	0.04943	0.35014	-0.32818	-0.06764
402.000	0.07908	0.34019	-0.40726	-0.01790
403.000	0.08897	0.32626	-0.43098	0.00000
404.000	0.06129	0.31433	-0.31829	0.06167
405.000	0.04152	0.32427	-0.40133	-0.02586
406.000	0.02175	0.32427	-0.37958	0.04377
407.000	0.03559	0.33621	-0.42307	-0.00199
408.000	0.04943	0.30836	-0.36969	-0.02387
409.000	0.04943	0.32229	-0.42505	0.08554
410.000	0.09490	0.31234	-0.42505	-0.01194
411.000	0.06326	0.33223	-0.40330	-0.00796
412.000	0.02570	0.31035	-0.35981	-0.00995
413.000	0.05931	0.35014	-0.33609	0.00000
414.000	0.02768	0.29841	-0.38946	0.03581
415.000	0.03756	0.33223	-0.38946	-0.02586
416.000	0.06722	0.32229	-0.42109	-0.00199
417.000	0.00593	0.30040	-0.37365	-0.06565
418.000	0.03756	0.31234	-0.46063	-0.02785
419.000	0.03756	0.28449	-0.45668	0.01194
420.000	0.03954	0.29642	-0.38749	0.00199
421.000	0.06920	0.29443	-0.30446	0.01592
422.000	0.04943	0.32229	-0.39342	0.07162
423.000	0.01779	0.32030	-0.39737	0.06963
424.000	0.06326	0.36207	-0.42702	-0.01393
425.000	0.06129	0.35809	-0.35981	0.01989
426.000	0.06326	0.37003	-0.34202	0.04178
427.000	0.05536	0.33223	-0.33806	0.02586
428.000	0.07117	0.35213	-0.38551	0.03183
429.000	0.02570	0.34815	-0.40726	-0.01393
430.000	0.02966	0.35213	-0.37365	-0.02188
431.000	0.04943	0.38992	-0.33411	0.05570
432.000	0.02768	0.37202	-0.34004	0.02188
433.000	0.01186	0.33223	-0.45272	0.01790
434.000	0.05140	0.33422	-0.31039	0.00597
435.000	0.05140	0.35014	-0.38156	0.01592
436.000	0.03163	0.32030	-0.32422	-0.01989
437.000	0.04943	0.36605	-0.40133	-0.00199
438.000	0.03954	0.32825	-0.34795	0.02188
439.000	0.01582	0.33621	-0.35586	0.00796
440.000	0.01977	0.33024	-0.35190	-0.00398
441.000	0.01582	0.36406	-0.38353	-0.05172
442.000	0.01779	0.32229	-0.36574	-0.02188
443.000	0.00593	0.33820	-0.27282	0.02188
444.000	0.01582	0.34616	-0.38551	-0.05371
445.000	-0.03756	0.31234	-0.40923	0.05172
446.000	-0.04745	0.32030	-0.32818	-0.01194
447.000	-0.01384	0.32427	-0.32225	0.05769
448.000	0.00989	0.34218	-0.34202	-0.00995
449.000	-0.00593	0.33422	-0.34597	0.00000
450.000	0.02372	0.33223	-0.41714	0.01989
451.000	0.00395	0.35610	-0.39539	0.05769
452.000	-0.01384	0.33223	-0.32422	-0.00796
453.000	-0.03559	0.37003	-0.37760	0.03183
454.000	-0.02372	0.37998	-0.38353	0.04775
455.000	0.02570	0.35213	-0.39737	0.05570
456.000	0.01977	0.37998	-0.29852	0.01194
457.000	-0.00395	0.35809	-0.36179	0.03382
458.000	-0.02372	0.34218	-0.35388	0.03183
459.000	-0.01384	0.34417	-0.33213	-0.02785
460.000	-0.00593	0.35809	-0.35388	0.02188
461.000	-0.00593	0.36008	-0.33609	0.01194
462.000	-0.04943	0.32229	-0.32818	0.02387
463.000	-0.02570	0.31831	-0.31434	0.05968
464.000	-0.04152	0.34218	-0.35190	0.15716
465.000	0.00000	0.34417	-0.36969	0.01194
466.000	-0.00198	0.35412	-0.35388	0.01393
467.000	-0.01977	0.35412	-0.31434	0.06963
468.000	-0.03361	0.33024	-0.32818	0.10942
469.000	-0.03559	0.36406	-0.31039	0.09151
470.000	-0.05536	0.35610	-0.34004	0.04178
471.000	-0.07710	0.28250	-0.39144	0.06764
472.000	-0.08303	0.37202	-0.30643	0.08952
473.000	-0.05338	0.34218	-0.36574	0.08157
474.000	-0.03361	0.32626	-0.35981	0.07560
475.000	-0.04152	0.28847	-0.35981	0.03382
476.000	-0.07513	0.29244	-0.36179	0.02188
477.000	-0.01977	0.32626	-0.37167	0.04973
478.000	-0.02570	0.36406	-0.34993	0.07162
479.000	-0.03559	0.27653	-0.42505	0.08952
480.000	-0.03756	0.29642	-0.29457	0.08952
481.000	-0.04349	0.30836	-0.34004	0.12135
482.000	-0.02768	0.31433	-0.38353	0.00796
483.000	-0.02966	0.27056	-0.29457	0.08157
484.000	-0.04943	0.32626	-0.40330	0.01194
485.000	-0.08303	0.33820	-0.30841	0.03780
486.000	-0.06920	0.32030	-0.32225	0.05371
487.000	-0.01582	0.31831	-0.34597	0.12334
488.000	-0.04547	0.33820	-0.35783	0.04576
489.000	-0.04745	0.35213	-0.34795	0.03382
490.000	-0.05536	0.31035	-0.30446	0.07958
491.000	-0.02966	0.32030	-0.32620	0.06167
492.000	-0.02372	0.30239	-0.36772	0.06963
493.000	-0.01977	0.31632	-0.35783	0.13528
494.000	-0.05733	0.33024	-0.31829	0.06764
495.000	-0.06524	0.33422	-0.28073	0.06366
496.000	-0.04349	0.31035	-0.34202	0.08157
497.000	-0.08699	0.29443	-0.30446	0.07560
498.000	-0.08106	0.32030	-0.33411	0.03979
499.000	0.00000	0.32626	-0.32818	0.07162
500.000	-0.04943	0.36605	-0.29655	0.02785
501.000	-0.04943	0.32427	-0.30643	0.11539
502.000	-0.07315	0.33820	-0.32027	0.05371
503.000	-0.01582	0.33223	-0.31039	0.06963
504.000	-0.03954	0.35014	-0.29655	0.04974
505.000	-0.03163	0.30239	-0.32027	0.03780
506.000	-0.05338	0.33422	-0.33609	0.08554
507.000	-0.07117	0.30637	-0.38551	0.02188
508.000	-0.05931	0.32825	-0.33609	0.11737
509.000	-0.05931	0.30637	-0.35586	0.10345
510.000	-0.03559	0.35610	-0.33806	0.13329
511.000	-0.07117	0.32427	-0.29852	0.01393
512.000	-0.09490	0.36207	-0.31632	0.03780
513.000	-0.03756	0.33621	-0.34399	0.05371
514.000	-0.05733	0.31632	-0.28271	0.03979
515.000	-0.01582	0.33621	-0.28469	0.13329
516.000	-0.04349	0.35610	-0.30248	0.03979
517.000	-0.03559	0.31831	-0.27678	0.03382
518.000	-0.06129	0.33422	-0.25108	0.07361
519.000	-0.02768	0.33820	-0.30643	0.11936
520.000	-0.03559	0.34815	-0.31632	0.01194
521.000	-0.07117	0.34815	-0.33016	0.05968
522.000	-0.05733	0.31632	-0.26096	0.05769
523.000	-0.05338	0.35610	-0.35190	0.02188
524.000	-0.05338	0.32427	-0.29655	0.05968
525.000	-0.06722	0.32626	-0.30248	0.09549
526.000	-0.07710	0.32825	-0.35388	0.05769
527.000	-0.05733	0.32030	-0.29457	0.04775
528.000	-0.04152	0.35014	-0.32620	0.00597
529.000	-0.01384	0.34616	-0.35586	0.06963
530.000	-0.06129	0.34417	-0.28271	0.06167
531.000	-0.03361	0.35809	-0.36574	0.03581
532.000	-0.05733	0.32825	-0.33213	0.03780
533.000	-0.02175	0.36605	-0.32422	0.04178
534.000	-0.05931	0.36804	-0.28271	0.06963
535.000	-0.05733	0.37998	-0.28271	0.02785
536.000	-0.07315	0.35213	-0.33016	0.01790
537.000	-0.07315	0.35610	-0.37563	0.07560
538.000	-0.08303	0.37401	-0.35388	0.03780
539.000	-0.05338	0.36804	-0.26294	0.08157
540.000	-0.06722	0.35411	-0.38353	0.10743
541.000	-0.04745	0.35412	-0.27876	0.05172
542.000	-0.03163	0.39987	-0.27876	0.06167
543.000	-0.06722	0.33422	-0.36772	0.12931
544.000	-0.06129	0.33820	-0.23526	0.09151
545.000	-0.04152	0.33820	-0.30446	0.04576
546.000	-0.05140	0.36207	-0.31236	0.07162
547.000	-0.03954	0.33024	-0.34202	0.05371
548.000	0.01977	0.33223	-0.34597	0.08157
549.000	-0.01977	0.38396	-0.35783	0.08952
550.000	-0.03954	0.37003	-0.34597	0.05371
551.000	-0.03559	0.35014	-0.37563	0.10146
552.000	0.02372	0.36406	-0.33411	0.07162
553.000	0.02768	0.37799	-0.31039	0.06366
554.000	-0.00791	0.32427	-0.39737	0.06167
555.000	0.01779	0.34218	-0.34795	0.12334
556.000	0.02175	0.39191	-0.34004	0.05570
557.000	0.00198	0.37998	-0.29457	0.03780
558.000	-0.01186	0.37998	-0.36772	0.09151
559.000	0.00791	0.37998	-0.37760	0.09748
560.000	-0.01384	0.40982	-0.39935	0.06764
561.000	-0.00989	0.35809	-0.41912	0.11538
562.000	0.00395	0.41380	-0.34795	0.08952
563.000	0.03954	0.40982	-0.41319	0.10942
564.000	0.01384	0.41976	-0.31434	0.10345
565.000	0.03756	0.41578	-0.33016	0.08157
566.000	-0.00198	0.36008	-0.40923	0.15716
567.000	0.00000	0.40584	-0.40528	0.12334
568.000	0.02570	0.40982	-0.43889	0.17506
569.000	0.04349	0.41380	-0.41516	0.14125
570.000	0.04349	0.36605	-0.45668	0.10544
571.000	0.02372	0.42971	-0.41714	0.16711
572.000	0.00000	0.37998	-0.32620	0.08952
573.000	0.02175	0.40584	-0.27876	0.16313
574.000	0.00395	0.40982	-0.41516	0.10146
575.000	0.01977	0.42772	-0.39342	0.11340
576.000	0.00000	0.38793	-0.38946	0.10146
577.000	0.02372	0.39987	-0.43098	0.17705
578.000	0.03756	0.43170	-0.35190	0.09151
579.000	0.03163	0.42175	-0.39342	0.13130
580.000	0.06326	0.41976	-0.46063	0.12334
581.000	0.00395	0.40385	-0.34993	0.13528
582.000	0.03559	0.41181	-0.37167	0.09151
583.000	0.05733	0.44165	-0.36772	0.12135
584.000	0.06722	0.44761	-0.42307	0.11339
585.000	0.05140	0.43966	-0.39935	0.08952
586.000	0.06524	0.41380	-0.34993	0.18302
587.000	0.06524	0.44364	-0.41516	0.18501
588.000	0.03954	0.43568	-0.47447	0.14920
589.000	0.07315	0.42175	-0.39935	0.15517
590.000	0.03163	0.42374	-0.42307	0.24071
591.000	0.05140	0.43767	-0.39935	0.12135
592.000	0.04349	0.46751	-0.48831	0.15119
593.000	0.05733	0.44364	-0.48435	0.15517
594.000	0.09094	0.46950	-0.39144	0.21087
595.000	0.08501	0.46353	-0.33411	0.16512
596.000	0.07710	0.50132	-0.41516	0.12334
597.000	0.09687	0.42573	-0.35190	0.11936
598.000	0.08303	0.50530	-0.38946	0.18103
599.000	0.06722	0.45557	-0.36574	0.12334
600.000	0.06524	0.49536	-0.45272	0.11936
601.000	0.05338	0.46950	-0.39737	0.21684
602.000	0.06129	0.49337	-0.35190	0.18700
603.000	0.05536	0.50928	-0.36969	0.11936
604.000	0.08106	0.49337	-0.39342	0.13727
605.000	0.07710	0.47745	-0.41714	0.14721
606.000	0.04547	0.46353	-0.42900	0.18501
607.000	0.06920	0.49735	-0.40923	0.17904
608.000	0.06326	0.56299	-0.40923	0.10942
609.000	0.05536	0.48541	-0.38156	0.17904
610.000	0.05536	0.47546	-0.37365	0.15318
611.000	0.08501	0.44761	-0.39935	0.23077
612.000	0.05931	0.51127	-0.38156	0.18899
613.000	0.11862	0.46950	-0.38946	0.26260
614.000	0.05140	0.44364	-0.35981	0.20491
615.000	0.10280	0.45358	-0.44482	0.15119
616.000	0.09687	0.47149	-0.41121	0.24469
617.000	0.08699	0.46950	-0.39539	0.19098
618.000	0.03163	0.47348	-0.41714	0.21684
619.000	0.08897	0.47546	-0.35981	0.23276
620.000	0.10874	0.46154	-0.40726	0.19894
621.000	0.07710	0.50331	-0.36969	0.18700
622.000	0.09292	0.50928	-0.41516	0.22082
623.000	0.12653	0.49933	-0.37167	0.25862
624.000	0.08699	0.47546	-0.40133	0.31233
625.000	0.13444	0.50132	-0.40923	0.21684
626.000	0.11071	0.49138	-0.42109	0.26260
627.000	0.12060	0.48740	-0.44284	0.25265
628.000	0.13246	0.53116	-0.42307	0.25464
629.000	0.12653	0.48143	-0.38353	0.28448
630.000	0.09292	0.52122	-0.43691	0.25066
631.000	0.11664	0.49337	-0.43493	0.26856
632.000	0.14234	0.50132	-0.38156	0.30040
633.000	0.14234	0.50331	-0.43691	0.30437
634.000	0.16804	0.50331	-0.37760	0.21087
635.000	0.15223	0.49734	-0.44284	0.27254
636.000	0.14827	0.48740	-0.43889	0.22281
637.000	0.14432	0.47944	-0.38946	0.22281
638.000	0.12060	0.50729	-0.41121	0.24469
639.000	0.13444	0.47944	-0.39737	0.22480
640.000	0.12060	0.47546	-0.46063	0.26856
641.000	0.16804	0.51525	-0.52191	0.24867
642.000	0.13048	0.51326	-0.46459	0.30437
643.000	0.11862	0.46950	-0.45075	0.17506
644.000	0.19572	0.51923	-0.45865	0.27254
645.000	0.12455	0.51127	-0.48633	0.22679
646.000	0.15421	0.49734	-0.46261	0.21684
647.000	0.15025	0.48939	-0.47447	0.28249
648.000	0.12850	0.50331	-0.40923	0.27851
649.000	0.16607	0.52917	-0.44284	0.23872
650.000	0.14234	0.48342	-0.42505	0.28448
651.000	0.14037	0.51127	-0.49028	0.22679
652.000	0.11467	0.52917	-0.42702	0.25464
653.000	0.12455	0.52917	-0.47842	0.22480
654.000	0.15025	0.54907	-0.47842	0.20291
655.000	0.12060	0.49337	-0.46854	0.24668
656.000	0.08501	0.55106	-0.49226	0.26657
657.000	0.11467	0.54509	-0.50215	0.25265
658.000	0.13839	0.52321	-0.49622	0.21883
659.000	0.13444	0.51525	-0.43493	0.29840
660.000	0.12850	0.53514	-0.51994	0.22877
661.000	0.15025	0.52718	-0.49028	0.22480
662.000	0.13048	0.55901	-0.54168	0.24071
663.000	0.12653	0.55901	-0.48238	0.30437
664.000	0.20561	0.59084	-0.44284	0.20689
665.000	0.14432	0.56100	-0.44086	0.27652
666.000	0.15421	0.52917	-0.48238	0.29641
667.000	0.15223	0.55304	-0.48831	0.22878
668.000	0.17595	0.60079	-0.45470	0.23673
669.000	0.15816	0.50331	-0.40528	0.26658
670.000	0.14037	0.54509	-0.44482	0.26061
671.000	0.09885	0.58288	-0.49226	0.24867
672.000	0.14630	0.53514	-0.50610	0.21087
673.000	0.15618	0.57294	-0.45668	0.28448
674.000	0.16804	0.56100	-0.45668	0.18899
675.000	0.13641	0.58089	-0.42505	0.25663
676.000	0.11467	0.57692	-0.53971	0.23275
677.000	0.16409	0.59283	-0.45865	0.28448
678.000	0.15816	0.58288	-0.54959	0.31033
679.000	0.13839	0.60476	-0.47842	0.20689
680.000	0.15816	0.53713	-0.43889	0.27851
681.000	0.15421	0.55901	-0.47249	0.26657
682.000	0.11862	0.56896	-0.49622	0.22878
683.000	0.14827	0.54111	-0.51401	0.29044
684.000	0.15816	0.57294	-0.49622	0.24469
685.000	0.13048	0.56896	-0.49819	0.24071
686.000	0.14827	0.58288	-0.47645	0.20689
687.000	0.19770	0.54708	-0.53378	0.20689
688.000	0.19375	0.59681	-0.50017	0.24668
689.000	0.20561	0.61869	-0.50610	0.23474
690.000	0.20363	0.58885	-0.50412	0.21087
691.000	0.16607	0.59084	-0.45668	0.30835
692.000	0.14630	0.59283	-0.47645	0.22878
693.000	0.16804	0.56299	-0.44877	0.27652
694.000	0.14827	0.58686	-0.48040	0.31432
695.000	0.15025	0.59283	-0.51994	0.30636
696.000	0.16211	0.59283	-0.51203	0.28845
697.000	0.13839	0.58487	-0.51203	0.25861
698.000	0.14630	0.54708	-0.48633	0.28249
699.000	0.18979	0.59084	-0.51005	0.32426
700.000	0.19375	0.57294	-0.46656	0.25265
701.000	0.19177	0.58288	-0.49028	0.25464
702.000	0.19177	0.56299	-0.51994	0.30039
703.000	0.21549	0.57095	-0.54959	0.29044
704.000	0.20363	0.56697	-0.50215	0.25464
705.000	0.17200	0.59482	-0.50610	0.27453
706.000	0.21352	0.58487	-0.46063	0.24071
707.000	0.18188	0.61869	-0.51994	0.22082
708.000	0.17398	0.59681	-0.54366	0.31034
709.000	0.17991	0.61471	-0.54168	0.24668
710.000	0.19770	0.61073	-0.54168	0.19098
711.000	0.17398	0.57493	-0.53378	0.25464
712.000	0.20758	0.60874	-0.52982	0.28050
713.000	0.18188	0.61869	-0.47249	0.22679
714.000	0.16607	0.58089	-0.48435	0.27851
715.000	0.17398	0.62068	-0.55157	0.24668
716.000	0.22735	0.58686	-0.50808	0.22480
717.000	0.19375	0.58885	-0.44679	0.26061
718.000	0.21154	0.61272	-0.55947	0.24270
719.000	0.20956	0.60078	-0.47447	0.21684
720.000	0.21154	0.60277	-0.52587	0.22679
721.000	0.23724	0.64852	-0.55157	0.25463
722.000	0.16211	0.61869	-0.49424	0.26259
723.000	0.18781	0.62466	-0.60296	0.25662
724.000	0.18188	0.64455	-0.60889	0.19694
725.000	0.20165	0.57492	-0.58517	0.27254
726.000	0.16607	0.59681	-0.57727	0.24668
727.000	0.17200	0.61670	-0.52587	0.25662
728.000	0.19375	0.61670	-0.55947	0.26060
729.000	0.20165	0.64057	-0.53971	0.21883
730.000	0.21747	0.56697	-0.60692	0.32227
731.000	0.15421	0.60277	-0.54168	0.22678
732.000	0.21747	0.63062	-0.54168	0.23076
733.000	0.19375	0.56100	-0.55552	0.17307
734.000	0.19375	0.60277	-0.50412	0.20689
735.000	0.19177	0.60675	-0.57133	0.26856
736.000	0.18386	0.60874	-0.61482	0.26259
737.000	0.16014	0.62267	-0.59703	0.26657
738.000	0.20956	0.61272	-0.58517	0.22280
739.000	0.18781	0.60874	-0.44482	0.21883
740.000	0.22340	0.64256	-0.51598	0.21286
741.000	0.34399	0.71018	-0.52982	0.29840
742.000	0.43098	0.72211	-0.31236	0.33223
743.000	0.65634	0.74794	-0.16409	0.30438
744.000	0.80261	0.73797	0.04152	0.39191
745.000	0.98643	0.73395	0.23922	0.46154
746.000	1.38758	0.84719	0.56936	0.53313
747.000	1.75898	0.92656	0.91132	0.57684
748.000	2.18156	1.04159	1.19196	0.71203
749.000	2.59600	1.15452	1.55354	0.86303
750.000	3.14620	1.30486	2.05718	1.07745
751.000	3.63478	1.48080	2.53287	1.06319
752.000	4.23885	1.73745	3.02201	1.23750
753.000	4.74971	1.90458	3.44177	1.41761
754.000	5.20100	2.02003	3.92807	1.55369
755.000	5.64773	2.17671	4.29783	1.71353
756.000	6.11331	2.31710	4.53170	1.80215
757.000	6.45514	2.40044	4.98132	1.90789
758.000	6.77117	2.51328	5.31078	1.91877
759.000	7.04200	2.63598	5.49302	2.03094
760.000	7.26193	2.68591	5.64968	1.99876
761.000	7.48360	2.77313	5.79061	2.11687
762.000	7.67786	2.81712	6.02730	2.10411
763.000	7.87388	2.77255	6.35166	2.03766
764.000	8.05034	2.77922	6.46880	1.98388
765.000	8.24213	2.74843	6.64637	2.03449
766.000	8.44534	2.71166	6.87642	1.99210
767.000	8.69085	2.67655	7.00694	1.97380
768.000	8.89937	2.63386	7.26193	1.96679
769.000	9.08067	2.58746	7.47583	1.79638
770.000	9.26564	2.52340	7.58852	1.77621
771.000	9.39270	2.48134	7.78075	1.77541
772.000	9.48696	2.42191	7.81762	1.67483
773.000	9.45234	2.42019	7.84284	1.71017
774.000	9.40424	2.43620	7.73999	1.69286
775.000	9.25216	2.46470	7.69922	1.72454
776.000	9.08646	2.45017	7.55550	1.69754
777.000	8.93411	2.52770	7.42335	1.83404
778.000	8.73528	2.55261	7.26972	1.79525
779.000	8.53817	2.59125	7.23470	1.77764
780.000	8.38150	2.65122	7.01668	1.89092
781.000	8.17241	2.65460	7.02447	1.92047
782.000	8.03677	2.69284	6.91344	1.93868
783.000	7.96116	2.66974	6.83744	1.92715
784.000	7.90298	2.70158	6.81600	1.94500
785.000	7.87000	2.73719	6.81015	1.97659
786.000	7.89134	2.69772	6.82965	1.95875
787.000	7.93401	2.62666	6.99915	2.01722
788.000	8.03289	2.61620	7.19578	1.99467
789.000	8.10072	2.59807	7.12571	1.95160
790.000	8.19178	2.57783	7.25221	1.95500
791.000	8.32538	2.58089	7.36113	2.03335
792.000	8.44921	2.57614	7.47971	1.97961
793.000	8.54977	2.58135	7.49915	2.01498
794.000	8.66960	2.61194	7.53024	1.93013
795.000	8.74687	2.61729	7.59241	1.94364
796.000	8.83182	2.62846	7.59629	1.99287
797.000	8.89937	2.63386	7.60989	2.02234
798.000	8.96304	2.65301	7.57104	1.91813
799.000	8.99776	2.65668	7.62737	2.04196
800.000	9.01126	2.67619	7.67592	2.00234
801.000	9.04983	2.66218	7.54190	2.00100
802.000	9.02283	2.70355	7.64485	1.90598
803.000	9.00741	2.72327	7.67203	1.99645
804.000	9.00355	2.71153	7.65844	1.93743
805.000	8.97076	2.69805	7.66038	1.94333
806.000	8.93603	2.70419	7.62931	1.91590
807.000	8.95919	2.72755	7.59241	1.96334
808.000	8.91288	2.69064	7.63125	1.94740
809.000	8.89937	2.70839	7.51081	1.91446
810.000	8.89166	2.73982	7.60406	1.87465
811.000	8.87429	2.72426	7.46028	1.82601
812.000	8.83761	2.73630	7.45445	1.85362
813.000	8.84147	2.73039	7.44862	1.86941
814.000	8.79707	2.70325	7.47000	1.93237
815.000	8.79128	2.71703	7.50692	1.84551
816.000	8.80093	2.68753	7.41557	1.88925
817.000	8.79128	2.68564	7.44278	1.88914
818.000	8.79128	2.65818	7.44862	1.85758
819.000	8.77004	2.71522	7.40002	1.96421
820.000	8.77583	2.68379	7.41946	1.92274
821.000	8.76425	2.67603	7.43112	1.87145
822.000	8.77004	2.65833	7.32029	1.90937
823.000	8.74880	2.67614	7.45445	1.84377
824.000	8.72369	2.66847	7.39613	1.87751
825.000	8.74300	2.62124	7.46611	1.82598
826.000	8.72369	2.64100	7.45056	1.91275
827.000	8.73528	2.64877	7.40390	1.83807
828.000	8.75266	2.62902	7.43890	1.91871
829.000	8.71983	2.64299	7.43890	1.86551
830.000	8.72948	2.63507	7.38057	1.80663
831.000	8.70824	2.64111	7.31640	1.91727
832.000	8.70244	2.64900	7.46028	1.91271
833.000	8.77776	2.66808	7.33974	1.87578
834.000	8.75266	2.67219	7.37085	1.93083
835.000	8.77390	2.65241	7.29500	1.92525
836.000	8.75845	2.66626	7.41751	1.90698
837.000	8.72369	2.63707	7.37280	1.98797
838.000	8.75845	2.71334	7.35529	1.87177
839.000	8.76618	2.65639	7.38446	1.92880
840.000	8.81059	2.65411	7.43890	1.96797
841.000	8.77969	2.65826	7.32807	1.84626
842.000	8.80866	2.66590	7.43112	1.88525
843.000	8.79900	2.67381	7.42529	1.96212
844.000	8.83375	2.67356	7.36696	1.94859
845.000	8.83375	2.67749	7.36113	1.95847
846.000	8.83375	2.66768	7.39418	1.92482
847.000	8.79128	2.68956	7.43501	1.96602
848.000	8.82796	2.69714	7.38835	1.90514
849.000	8.82603	2.67166	7.36696	1.98209
850.000	8.83375	2.66376	7.25999	1.91948
851.000	8.83568	2.67747	7.43306	1.94632
852.000	8.82024	2.68151	7.38835	1.90514
853.000	8.81638	2.67369	7.38641	1.83025
854.000	8.81638	2.67565	7.30862	1.89168
855.000	8.83761	2.63627	7.30278	1.90353
856.000	8.80093	2.65222	7.33974	1.88564
857.000	8.82410	2.67167	7.40779	1.92279
858.000	8.87043	2.67526	7.29500	2.00212
859.000	8.83954	2.68529	7.26972	1.89382
860.000	8.88394	2.64770	7.37280	1.95250
861.000	8.84534	2.67544	7.36891	1.94661
862.000	8.84147	2.69508	7.31251	1.94685
863.000	8.83761	2.64019	7.33001	1.93298
864.000	8.88394	2.66339	7.38446	1.90910
865.000	8.86850	2.69096	7.32223	1.96652
866.000	8.84727	2.65385	7.37280	2.02542
867.000	8.84147	2.62251	7.33974	1.96447
868.000	8.85499	2.67733	7.32418	1.86993
869.000	8.83761	2.69119	7.34946	1.88954
870.000	8.83954	2.64802	7.37863	1.98401
871.000	8.87815	2.70462	7.33196	1.88567
872.000	8.87429	2.67523	7.36113	1.88160
873.000	8.86850	2.69489	7.29306	1.90555
874.000	8.87043	2.69879	7.37474	1.85001
875.000	8.84147	2.67939	7.32223	1.90345
876.000	8.83568	2.70297	7.35724	1.88359
877.000	8.86078	2.70083	7.32612	1.96453
878.000	8.86271	2.66943	7.34363	1.90533
879.000	8.86078	2.70279	7.34946	1.96640
880.000	8.84727	2.70485	7.35724	1.97819
881.000	8.85692	2.69301	7.36502	1.93086
882.000	8.83182	2.70300	7.31640	1.84237
883.000	8.86271	2.72827	7.39807	1.90707
884.000	8.89359	2.71431	7.31056	1.92321
885.000	8.86271	2.70866	7.33779	2.03543
886.000	8.86464	2.75375	7.38252	1.95246
887.000	8.87622	2.70660	7.40002	1.92479
888.000	8.87236	2.72624	7.28333	1.91741
889.000	8.89744	2.72213	7.34752	1.99006
890.000	8.88973	2.72611	7.32418	1.97242
891.000	8.90709	2.72402	7.40196	1.87158
892.000	8.88587	2.66730	7.30473	1.92718
893.000	8.87622	2.71444	7.33390	1.88566
894.000	8.89552	2.72803	7.27555	1.95884
895.000	8.87622	2.72033	7.31834	1.89952
896.000	8.89359	2.67117	7.40196	1.89720
897.000	8.89744	2.66918	7.34557	1.96051
898.000	8.88973	2.71042	7.29111	1.94695
899.000	8.88780	2.73789	7.35529	1.88951
900.000	8.89166	2.71629	7.31056	1.87590
901.000	8.88973	2.70650	7.36502	1.95057
902.000	8.89552	2.70057	7.36696	1.95450
903.000	8.89937	2.67505	7.34363	1.92701
904.000	8.91674	2.72591	7.30278	1.89959
905.000	8.87043	2.70664	7.34363	1.90730
906.000	8.86271	2.71062	7.29500	1.94496
907.000	8.89552	2.69273	7.30278	1.92324
908.000	8.84920	2.71856	7.31834	1.90150
909.000	8.91674	2.72199	7.31445	1.90348
910.000	8.92832	2.68856	7.31640	1.86997
911.000	8.88587	2.69476	7.32612	1.93694
912.000	8.91095	2.72399	7.34557	1.97824
913.000	8.92446	2.71212	7.35529	1.84418
914.000	8.90902	2.70047	7.37668	1.98796
915.000	8.92446	2.71801	7.36307	1.85006
916.000	8.93218	2.74736	7.34557	1.93094
917.000	8.90709	2.72010	7.32807	1.93693
918.000	8.89359	2.74373	7.37668	1.90125
919.000	8.92639	2.74152	7.35335	1.93091
920.000	8.92060	2.72980	7.40196	1.89523
921.000	8.91867	2.70432	7.27361	1.97462
922.000	8.91095	2.74556	7.30278	2.00405
923.000	8.91867	2.68667	7.36891	1.93478
924.000	8.91867	2.70628	7.35335	1.97427
925.000	8.87043	2.75959	7.41168	1.96021
926.000	8.92639	2.72976	7.27750	1.93912
927.000	8.93989	2.73162	7.35141	1.94274
928.000	8.88973	2.73984	7.32418	1.95469
929.000	8.91095	2.72987	7.35529	1.91513
930.000	8.93796	2.74340	7.30473	1.91338
931.000	8.90709	2.71225	7.38057	1.91305
932.000	8.92060	2.76314	7.33585	1.86988
933.000	8.91867	2.69844	7.31056	1.86013
934.000	8.92639	2.72191	7.37668	1.94066
935.000	8.92253	2.73567	7.40779	1.96614
936.000	8.91867	2.74942	7.31640	2.00793
937.000	8.93218	2.74932	7.27166	1.98448
938.000	8.92060	2.75333	7.33585	1.98026
939.000	8.93025	2.70424	7.37863	1.97810
940.000	8.93989	2.74338	7.37474	2.06087
941.000	8.93411	2.73558	7.34752	1.94276
942.000	8.91867	2.75923	7.27361	1.95688
943.000	8.89744	2.78292	7.31834	1.96851
944.000	8.91095	2.76909	7.35529	1.93681
945.000	8.91867	2.74158	7.29889	1.97845
946.000	8.93796	2.73359	7.28722	1.93908
947.000	8.93218	2.70422	7.34946	1.96640
948.000	8.91481	2.75534	7.36502	1.92889
949.000	8.92832	2.74935	7.36696	1.88158
950.000	8.92060	2.71411	7.31056	2.08482
951.000	8.92446	2.69644	7.24637	1.98262
952.000	8.94954	2.73155	7.31640	1.94092
953.000	8.91867	2.76119	7.33779	1.97236
954.000	8.93796	2.68065	7.30278	1.94887
955.000	8.94182	2.72768	7.44278	2.02706
956.000	8.92060	2.71215	7.40002	1.96421
957.000	8.94568	2.75510	7.33196	1.95662
958.000	8.95340	2.75308	7.28917	1.93316
959.000	8.92060	2.75921	7.33196	2.01181
960.000	8.98233	2.75483	7.38057	2.04311
961.000	8.94375	2.77080	7.37280	1.94462
962.000	8.91867	2.77884	7.32418	2.01381
963.000	8.94954	2.78840	7.33974	2.01965
964.000	8.95726	2.76090	7.36696	1.92691
965.000	8.95919	2.76676	7.32223	1.88768
966.000	8.98619	2.75480	7.38446	1.99383
967.000	8.95147	2.77271	7.36891	1.90128
968.000	8.94182	2.76298	7.38641	1.98397
969.000	8.92060	2.76902	7.42723	1.94832
970.000	8.96304	2.77850	7.40390	1.94448
971.000	8.93989	2.77083	7.37085	1.89733
972.000	8.93989	2.74926	7.45445	1.93244
973.000	8.89937	2.74957	7.28722	1.93908
974.000	8.95919	2.75500	7.39418	1.93861
975.000	8.95919	2.74128	7.34946	1.93684
976.000	8.94182	2.77670	7.38835	1.99185
977.000	8.92060	2.74549	7.39418	1.97211
978.000	8.92060	2.75921	7.43890	1.97980
979.000	8.95726	2.79227	7.46611	1.97967
980.000	8.94375	2.82570	7.34946	2.03932
981.000	8.97076	2.78040	7.33390	1.94873
982.000	8.95919	2.78637	7.33974	2.01768
983.000	8.95340	2.76289	7.32223	1.95864
984.000	8.96111	2.76479	7.34363	1.95657
985.000	8.96690	2.77847	7.44667	1.96006
986.000	8.99005	2.77045	7.31834	1.96851
987.000	8.93796	2.74928	7.39613	1.92087
988.000	8.94954	2.79233	7.36891	1.97026
989.000	8.97655	2.78232	7.33390	1.91720
990.000	8.93989	2.78260	7.33390	1.99997
991.000	8.91867	2.74746	7.37085	1.99784
992.000	8.95726	2.72757	7.38835	2.01943
993.000	8.96690	2.80984	7.30667	1.93702
994.000	8.93603	2.80811	7.32612	1.85021
995.000	8.96883	2.77257	7.40974	1.97993
996.000	8.98619	2.82145	7.31251	1.97642
997.000	8.99969	2.83114	7.40585	1.96418
998.000	8.96690	2.81768	7.41168	1.98583
999.000	8.98040	2.83522	7.35141	1.97230
1000.000	8.99198	2.84101	7.38641	1.92485
1001.000	8.95919	2.78637	7.38641	1.97412
1002.000	8.95533	2.82757	7.37863	1.89927
1003.000	8.99198	2.82532	7.40779	1.87352
1004.000	8.94761	2.80018	7.39418	2.00955
1005.000	8.99583	2.79981	7.39224	2.01744
1006.000	8.99005	2.77633	7.37085	1.95645
1007.000	8.93218	2.77089	7.35529	1.96046
1008.000	8.97655	2.80192	7.41946	2.00156
1009.000	8.95533	2.78052	7.36696	1.99194
1010.000	8.97076	2.72550	7.35335	1.99397
1011.000	8.96883	2.79218	7.35724	1.99396
1012.000	8.93989	2.74534	7.38835	1.99579
1013.000	8.97847	2.78818	7.35141	1.96836
1014.000	8.98233	2.77443	7.39418	1.95241
1015.000	8.98619	2.77832	7.33390	1.99603
1016.000	8.97847	2.79406	7.38252	1.96034
1017.000	8.90516	2.78874	7.38835	1.97017
1018.000	8.92639	2.77682	7.33585	2.01376
1019.000	9.00933	2.81735	7.46222	2.07032
1020.000	8.96304	2.79418	7.35724	1.92695
1021.000	8.97076	2.78824	7.46028	1.97576
1022.000	8.97269	2.79411	7.38835	1.98002
1023.000	8.95147	2.82564	7.35918	2.06292
1024.000	8.95919	2.73736	7.36113	1.93876
1025.000	8.95147	2.78251	7.39418	1.97014
1026.000	8.97269	2.77842	7.33974	2.01571
1027.000	9.00548	2.75269	7.34557	1.91123
1028.000	8.96690	2.75690	7.34946	1.99990
1029.000	8.96690	2.72357	7.34557	1.93883
1030.000	8.95726	2.80599	7.26582	2.01407
1031.000	8.99583	2.78805	7.33001	1.96452
1032.000	8.98233	2.77443	7.35141	1.99004
1033.000	9.00355	2.72918	7.33585	1.99799
1034.000	9.00548	2.75073	7.34946	1.93487
1035.000	8.99198	2.79592	7.37280	2.07862
1036.000	8.96304	2.75105	7.35918	1.97030
1037.000	8.97076	2.75687	7.31445	2.00794
1038.000	8.96304	2.78242	7.41168	1.94445
1039.000	8.97462	2.84506	7.31251	2.07102
1040.000	8.96304	2.90592	7.32418	2.08279
1041.000	8.95533	2.93146	7.37280	2.08059
1042.000	9.02476	2.98577	7.29306	2.15782
1043.000	9.03826	3.14043	7.37085	2.35640
1044.000	9.08646	3.27905	7.65844	2.50246
1045.000	9.20979	3.46579	7.52052	2.77289
1046.000	9.27720	3.79561	7.58270	2.94364
1047.000	9.34073	4.05869	7.57104	3.23080
1048.000	9.42926	4.35631	7.65067	3.67223
1049.000	9.52350	4.66710	7.72640	4.04445
1050.000	9.52543	4.97099	7.66427	4.37645
1051.000	9.55234	5.30144	7.79239	4.54753
1052.000	9.54081	5.56216	7.75551	4.88665
1053.000	9.56580	5.81039	7.68563	5.13593
1054.000	9.53888	6.01855	7.59435	5.37167
1055.000	9.57349	6.23321	7.56715	5.62017
1056.000	9.53696	6.39281	7.58075	5.65515
1057.000	9.46581	6.45226	7.57104	5.69824
1058.000	9.44465	6.42552	7.55161	5.80978
1059.000	9.37153	6.43075	7.54578	5.77276
1060.000	9.34266	6.46229	7.39613	5.62431
1061.000	9.25024	6.43102	7.41362	5.69052
1062.000	9.25024	6.35151	7.37474	5.64608
1063.000	9.19438	6.27297	7.42723	5.57312
1064.000	9.20208	6.16803	7.38446	5.43486
1065.000	9.16933	6.08899	7.45639	5.28341
1066.000	9.16933	5.97439	7.45445	5.27366
1067.000	9.18089	5.90231	7.49332	5.21256
1068.000	9.19823	5.78736	7.51275	5.05580
1069.000	9.16162	5.72573	7.54190	5.01045
1070.000	9.17896	5.65545	7.54773	4.98885
1071.000	9.14428	5.63849	7.56521	4.88295
1072.000	9.19245	5.60272	7.60018	4.91779
1073.000	9.20979	5.54020	7.66038	4.91710
1074.000	9.24638	5.57269	7.67398	4.77796
1075.000	9.23868	5.58643	7.70504	4.83634
1076.000	9.23098	5.58266	7.63902	4.83317
1077.000	9.26564	5.56266	7.67398	4.97565
1078.000	9.25409	5.62703	7.65844	5.01105
1079.000	9.30223	5.63404	7.76134	5.02353
1080.000	9.26179	5.71829	7.64291	5.01711
1081.000	9.27527	5.72585	7.66621	5.08922
1082.000	9.24638	5.77297	7.62931	5.04074
1083.000	9.27335	5.76864	7.67980	5.17316
1084.000	9.32726	5.82216	7.63902	5.14431
1085.000	9.28490	5.85784	7.66233	5.23985
1086.000	9.32341	5.89217	7.67398	5.37459
1087.000	9.31571	5.93503	7.64679	5.31629
1088.000	9.31956	5.94273	7.60989	5.29133
1089.000	9.32533	6.00283	7.60989	5.32261
1090.000	9.29453	5.95092	7.60212	5.38526
1091.000	9.30800	5.99342	7.64873	5.40617
1092.000	9.30223	5.97798	7.63902	5.34375
1093.000	9.25987	6.02336	7.60795	5.27571
1094.000	9.23675	5.98103	7.56133	5.45222
1095.000	9.28105	6.05990	7.61377	5.37143
1096.000	9.24061	6.06059	7.64679	5.37493
1097.000	9.24446	6.06440	7.55938	5.32910
1098.000	9.24638	6.03913	7.60795	5.37737
1099.000	9.23868	6.04703	7.57298	5.36803
1100.000	9.25024	6.03906	7.61766	5.32056
1101.000	9.20786	6.01648	7.51858	5.40584
1102.000	9.22712	6.02586	7.59241	5.28763
1103.000	9.23290	5.99081	7.59629	5.35992
1104.000	9.24061	5.97708	7.60795	5.31090
1105.000	9.21942	5.97161	7.59435	5.35799
1106.000	9.23483	5.97135	7.58270	5.28971
1107.000	9.21171	6.00087	7.67009	5.35705
1108.000	9.23675	5.97909	7.62737	5.28134
1109.000	9.22327	5.96572	7.60600	5.23467
1110.000	9.21749	5.98330	7.62154	5.30292
1111.000	9.24061	5.95571	7.60018	5.22497
1112.000	9.25024	5.98663	7.67980	5.22791
1113.000	9.25216	5.91278	7.59435	5.31303
1114.000	9.24446	5.92845	7.60600	5.22881
1115.000	9.28105	5.91230	7.60212	5.23863
1116.000	9.24446	5.97702	7.56910	5.28987
1117.000	9.22135	5.94632	7.63514	5.25192
1118.000	9.24253	5.91877	7.61183	5.18180
1119.000	9.24831	5.89925	7.60406	5.25230
1120.000	9.25024	5.89339	7.67009	5.27299
1121.000	9.27335	5.91437	7.60018	5.26603
1122.000	9.24253	5.94791	7.60018	5.24452
1123.000	9.23483	5.89559	7.60795	5.29331
1124.000	9.27912	5.94535	7.60989	5.30111
1125.000	9.24831	5.92450	7.65456	5.30837
1126.000	9.21364	5.89982	7.57492	5.26438
1127.000	9.23868	5.88775	7.65844	5.39823
1128.000	9.20016	5.90588	7.62154	5.32442
1129.000	9.22712	5.95594	7.65844	5.26727
1130.000	9.23868	5.96352	7.63708	5.35160
1131.000	9.22905	5.93454	7.52441	5.38818
1132.000	9.26372	5.93979	7.62543	5.26768
1133.000	9.24638	5.93231	7.58464	5.28382
1134.000	9.19052	5.93130	7.67203	5.29056
1135.000	9.22712	5.94234	7.57492	5.25460
1136.000	9.24831	5.92450	7.63708	5.31641
1137.000	9.27142	5.92217	7.68951	5.25711
1138.000	9.25794	5.91851	7.56910	5.27423
1139.000	9.23290	5.88590	7.58852	5.35806
1140.000	9.25409	5.92635	7.60018	5.33055
1141.000	9.22327	5.93075	7.59629	5.39706
1142.000	9.21749	5.91725	7.57687	5.30542
1143.000	9.23290	5.94419	7.50498	5.23002
1144.000	9.24253	5.94014	7.51081	5.25929
1145.000	9.24253	5.87409	7.55550	5.33697
1146.000	9.22905	5.90734	7.56910	5.25859
1147.000	9.22327	5.92881	7.55744	5.36236
1148.000	9.22327	5.88995	7.43112	5.34435
1149.000	9.25987	5.93208	7.60212	5.25036
1150.000	9.26372	5.96309	7.46611	5.35370
1151.000	9.25024	5.92253	7.58075	5.27213
1152.000	9.25601	5.93797	7.57104	5.32309
1153.000	9.28875	5.94519	7.55355	5.29984
1154.000	9.24831	5.93033	7.49915	5.21249
1155.000	9.25794	5.94377	7.55938	5.38384
1156.000	9.27142	5.95714	7.51469	5.31791
1157.000	9.23098	5.93839	7.55550	5.31741
1158.000	9.20208	5.94082	7.58464	5.37570
1159.000	9.21171	5.96397	7.62543	5.32046
1160.000	9.24638	5.93813	7.55161	5.32724
1161.000	9.24831	5.90702	7.60795	5.37737
1162.000	9.28105	5.93561	7.58075	5.33274
1163.000	9.24638	5.95367	7.65456	5.22430
1164.000	9.22520	5.93072	7.54773	5.31555
1165.000	9.25216	5.93998	7.67786	5.31395
1166.000	9.27720	5.94150	7.63320	5.24021
1167.000	9.26179	5.91262	7.63514	5.24605
1168.000	9.24638	5.96339	7.60406	5.30509
1169.000	9.22712	5.95594	7.61377	5.33038
1170.000	9.26564	5.97472	7.59824	5.34426
1171.000	9.25987	5.94762	7.59435	5.26415
1172.000	9.27527	5.97455	7.61960	5.32640
1173.000	9.25409	5.97103	7.60795	5.24834
1174.000	9.25987	5.93597	7.56521	5.26646
1175.000	9.25024	5.91864	7.58658	5.35222
1176.000	9.21749	5.94639	7.67786	5.25530
1177.000	9.23675	5.91498	7.65262	5.30840
1178.000	9.22905	5.90345	7.60600	5.26987
1179.000	9.23675	5.93830	7.56715	5.30358
1180.000	9.23868	5.92855	7.59047	5.31503
1181.000	9.20401	5.89415	7.62154	5.26968
1182.000	9.24831	5.94781	7.60989	5.31284
1183.000	9.23098	5.90925	7.64679	5.33388
1184.000	9.25601	5.91855	7.64679	5.30065
1185.000	9.25409	5.93218	7.61377	5.23653
1186.000	9.22135	5.92301	7.58852	5.35806
1187.000	9.24446	5.91874	7.61960	5.29121
1188.000	9.25794	5.90492	7.66233	5.24181
1189.000	9.24061	5.92657	7.62931	5.30282
1190.000	9.25987	5.92431	7.59824	5.31298
1191.000	9.20016	5.90782	7.61183	5.22482
1192.000	9.26372	5.92036	7.58075	5.27213
1193.000	9.23098	5.89371	7.59824	5.21325
1194.000	9.23675	5.92664	7.56715	5.31141
1195.000	9.22905	5.92677	7.55355	5.27442
1196.000	9.24446	5.93040	7.57104	5.32895
1197.000	9.22712	5.89571	7.55161	5.29400
1198.000	9.24446	5.95565	7.66621	5.35905
1199.000	9.23483	5.93056	7.61766	5.30883
1200.000	9.25601	5.96905	7.66233	5.37473
1201.000	9.25987	5.95539	7.62154	5.26772
1202.000	9.22327	5.92492	7.53801	5.33522
1203.000	9.22712	5.92680	7.54190	5.32736
1204.000	9.22520	5.94626	7.61183	5.37927
1205.000	9.21557	5.90562	7.67203	5.18107
1206.000	9.20016	5.92531	7.57687	5.28587
1207.000	9.20786	5.89603	7.69339	5.26489
1208.000	9.23675	5.94412	7.57104	5.21945
1209.000	9.25409	5.92829	7.57881	5.30149
1210.000	9.21749	5.95416	7.63125	5.27543
1211.000	9.22327	5.92104	7.53413	5.27465
1212.000	9.22327	5.95406	7.60212	5.28360
1213.000	9.20979	5.91155	7.58658	5.29553
1214.000	9.21364	5.96005	7.60600	5.17405
1215.000	9.21749	5.96387	7.65067	5.30647
1216.000	9.27527	5.94348	7.58075	5.32883
1217.000	9.25601	5.95740	7.61377	5.23262
1218.000	9.26949	5.96688	7.57298	5.36021
1219.000	9.22712	5.97536	7.62931	5.18550
1220.000	9.22520	5.95791	7.59629	5.32082
1221.000	9.21364	5.91925	7.56133	5.29583
1222.000	9.26949	5.94940	7.52635	5.27279
1223.000	9.26757	5.97274	7.59824	5.32275
1224.000	9.22712	5.95011	7.62154	5.22080
1225.000	9.25794	5.91851	7.65067	5.30842
1226.000	9.28683	5.90055	7.54578	5.28038
1227.000	9.24253	5.94791	7.59435	5.31498
1228.000	9.23675	5.93052	7.60406	5.32268
1229.000	9.22905	5.95008	7.59435	5.25241
1230.000	9.21749	5.92113	7.62154	5.21493
1231.000	9.22520	5.96180	7.54190	5.28434
1232.000	9.20016	5.96416	7.58464	5.27013
1233.000	9.22905	5.95202	7.51858	5.27680
1234.000	9.20594	5.99515	7.55550	5.33305
1235.000	9.20016	5.95251	7.56133	5.38186
1236.000	9.24061	5.95571	7.61572	5.33231
1237.000	9.23675	5.94995	7.57104	5.29963
1238.000	9.21749	5.92890	7.57298	5.28592
1239.000	9.23675	5.89944	7.65262	5.28298
1240.000	9.22520	5.92683	7.62543	5.33610
1241.000	9.20594	5.92715	7.62154	5.32833
1242.000	9.22520	5.95597	7.54384	5.28431
1243.000	9.21557	5.94642	7.58464	5.20364
1244.000	9.25601	5.90495	7.60212	5.26601
1245.000	9.24831	5.96918	7.62737	5.35953
1246.000	9.24831	5.91673	7.55938	5.30172
1247.000	9.23483	5.96747	7.67980	5.27092
1248.000	9.23675	5.94801	7.57104	5.30549
1249.000	9.26372	5.96504	7.64096	5.26553
1250.000	9.25024	6.00411	7.57492	5.21940
1251.000	9.25601	5.96711	7.61377	5.28346
1252.000	9.25409	5.96520	7.57881	5.25651
1253.000	9.24253	5.98676	7.63320	5.31646
1254.000	9.21942	5.96384	7.62543	5.24617
1255.000	9.23290	5.99858	7.65456	5.27710
1256.000	9.20016	5.95445	7.69728	5.31175
1257.000	9.19052	5.94295	7.61183	5.24633
1258.000	9.20208	5.94665	7.66427	5.22419
1259.000	9.25987	5.94179	7.54773	5.21582
1260.000	9.24253	5.94014	7.61377	5.29519
1261.000	9.17704	5.92569	7.63320	5.31255
1262.000	9.22905	5.93648	7.65650	5.28880
1263.000	9.23675	5.94218	7.55938	5.36624
1264.000	9.25216	5.92250	7.58075	5.28191
1265.000	9.21942	5.97161	7.61183	5.26393
1266.000	9.21749	5.95610	7.66815	5.31602
1267.000	9.18474	5.96053	7.62349	5.34004
1268.000	9.21749	5.97553	7.66038	5.23205
1269.000	9.19630	5.92343	7.60795	5.29331
1270.000	9.17511	5.93738	7.55744	5.30175
1271.000	9.20786	5.95043	7.58852	5.28573
1272.000	9.20786	5.96986	7.52830	5.32948
1273.000	9.20401	5.96021	7.63514	5.31839
1274.000	9.19823	5.96419	7.56521	5.25081
1275.000	9.22520	5.94237	7.62154	5.27750
1276.000	9.19052	5.97792	7.60018	5.23670
1277.000	9.24638	5.99252	7.60795	5.28744
1278.000	9.21364	5.92508	7.60212	5.32271
1279.000	9.22327	5.98514	7.65067	5.22240
1280.000	9.22135	5.93078	7.67592	5.31788
1281.000	9.21749	5.96387	7.64679	5.33388
1282.000	9.23868	5.97323	7.57687	5.23894
1283.000	9.17704	5.92180	7.60406	5.18972
1284.000	9.23483	5.94416	7.59241	5.26612
1285.000	9.24253	5.94985	7.57687	5.32693
1286.000	9.21557	5.93088	7.51858	5.27484
1287.000	9.20979	5.92320	7.57687	5.30933
1288.000	9.17896	5.91789	7.60018	5.30122
1289.000	9.23868	5.96546	7.53607	5.26485
1290.000	9.19052	5.95072	7.70504	5.23346
1291.000	9.18860	5.96436	7.61377	5.23458
1292.000	9.21171	5.99699	7.59629	5.26608
1293.000	9.24253	5.92849	7.63125	5.28129
1294.000	9.18667	5.94885	7.65067	5.32602
1295.000	9.23098	5.96170	7.67786	5.29440
1296.000	9.21749	5.97747	7.51858	5.27289
1297.000	9.23868	5.92855	7.60600	5.28356
1298.000	9.18282	5.94891	7.60795	5.32068
1299.000	9.21749	5.96581	7.62154	5.24817
1300.000	9.19245	5.96429	7.62737	5.23832
1301.000	9.18860	5.97601	7.61766	5.25408
1302.000	9.19823	5.97585	7.61766	5.26777
1303.000	9.22135	5.97935	7.57687	5.30933
1304.000	9.20016	5.92336	7.71863	5.22939
1305.000	9.22327	5.97543	7.72834	5.23318
1306.000	9.18860	5.93521	7.57687	5.36603
1307.000	9.20786	5.96792	7.62737	5.27743
1308.000	9.20401	5.98741	7.59824	5.29343
1309.000	9.22520	5.97345	7.62349	5.39086
1310.000	9.18860	5.95076	7.62154	5.29119
1311.000	9.20786	5.96598	7.68174	5.33736
1312.000	9.20016	5.93114	7.63125	5.20112
1313.000	9.23290	5.98498	7.67980	5.28265
1314.000	9.23098	6.01220	7.59435	5.26806
1315.000	9.20786	6.01259	7.57881	5.25651
1316.000	9.18667	5.97410	7.59435	5.27392
1317.000	9.16162	6.03668	7.47971	5.23228
1318.000	9.08646	5.93885	7.44862	5.18374
1319.000	8.96690	5.90581	7.33001	5.09509
1320.000	8.83568	5.87679	7.17827	5.08700
1321.000	8.66380	5.78216	7.09262	4.91750
1322.000	8.53817	5.67109	6.96994	4.82665
1323.000	8.33699	5.59800	6.83744	4.79465
1324.000	8.15497	5.47180	6.64441	4.68861
1325.000	7.96698	5.38060	6.45124	4.63936
1326.000	7.79433	5.27536	6.35752	4.44962
1327.000	7.66427	5.22810	6.22079	4.35249
1328.000	7.55161	5.16491	6.16413	4.47289
1329.000	7.48166	5.11487	6.04685	4.38144
1330.000	7.45833	5.10340	6.04489	4.44045
1331.000	7.42529	5.03527	6.04489	4.36965
1332.000	7.51081	5.07344	6.07813	4.34185
1333.000	7.56715	5.06495	6.04880	4.40502
1334.000	7.61377	5.06441	6.20321	4.39589
1335.000	7.73028	5.10997	6.26768	4.41501
1336.000	7.84284	5.10860	6.25010	4.50754
1337.000	7.93013	5.12121	6.34580	4.51654
1338.000	8.07166	5.15657	6.37705	4.59092
1339.000	8.17241	5.20020	6.49223	4.58203
1340.000	8.21308	5.21920	6.47076	4.66078
1341.000	8.24988	5.25387	6.51760	4.60340
1342.000	8.25375	5.26358	6.53126	4.60524
1343.000	8.26537	5.29856	6.49613	4.59574
1344.000	8.28085	5.30030	6.51565	4.65448
1345.000	8.24213	5.29106	6.49808	4.76066
1346.000	8.20340	5.28377	6.51369	4.66431
1347.000	8.18403	5.30550	6.49027	4.63704
1348.000	8.13754	5.32759	6.37705	4.56931
1349.000	8.12398	5.34339	6.45709	4.66287
1350.000	8.12204	5.29265	6.41024	4.66919
1351.000	8.07359	5.29719	6.45319	4.60006
1352.000	8.09297	5.34770	6.40048	4.62214
1353.000	8.04840	5.34243	6.40438	4.63389
1354.000	8.00963	5.32536	6.47466	4.57630
1355.000	8.02126	5.32912	6.44733	4.52547
1356.000	8.00963	5.30192	6.37900	4.62823
1357.000	7.98830	5.30611	6.41610	4.58468
1358.000	7.99994	5.25517	6.34190	4.59124
1359.000	7.95340	5.26553	6.43757	4.60806
1360.000	7.94177	5.29303	6.36924	4.53402
1361.000	7.98830	5.22406	6.29893	4.56411
1362.000	7.94565	5.24218	6.37510	4.57523
1363.000	7.95340	5.27921	6.28721	4.60351
1364.000	7.89522	5.24087	6.29503	4.53270
1365.000	7.93789	5.23056	6.33213	4.50683
1366.000	7.92043	5.25618	6.26377	4.46025
1367.000	7.91849	5.21908	6.41610	4.49038
1368.000	7.88746	5.21751	6.30284	4.49726
1369.000	7.92625	5.21116	6.31456	4.44606
1370.000	7.96116	5.22440	6.42586	4.50798
1371.000	7.95146	5.21280	6.31456	4.47161
1372.000	7.93401	5.18957	6.34776	4.49491
1373.000	7.92625	5.20335	6.40634	4.52190
1374.000	7.93013	5.20916	6.35362	4.53809
1375.000	7.89522	5.20569	6.29893	4.46389
1376.000	7.96504	5.20286	6.36924	4.41611
1377.000	7.95534	5.22448	6.32628	4.53440
1378.000	7.93013	5.21307	6.41219	4.47273
1379.000	7.94952	5.12293	6.40243	4.50818
1380.000	7.96698	5.20674	6.40634	4.49047
1381.000	7.98055	5.26128	6.43367	4.43717
1382.000	7.99412	5.19272	6.36338	4.46530
1383.000	7.97279	5.23988	6.38486	4.50834
1384.000	8.01545	5.23348	6.42195	4.46675
1385.000	7.95534	5.25378	6.39853	4.54751
1386.000	7.94565	5.24023	6.33409	4.46751
1387.000	7.93401	5.19348	6.42195	4.41566
1388.000	7.96892	5.26338	6.36729	4.49867
1389.000	7.95922	5.27718	6.38486	4.52995
1390.000	7.95340	5.25576	6.34190	4.52443
1391.000	7.95534	5.25183	6.35166	4.51256
1392.000	7.94759	5.19526	6.45905	4.55090
1393.000	7.96698	5.23800	6.38095	4.58696
1394.000	7.94371	5.25198	6.35166	4.52238
1395.000	7.95340	5.24404	6.38095	4.49462
1396.000	7.94565	5.23046	6.38486	4.49262
1397.000	7.94952	5.24213	6.37900	4.45730
1398.000	7.94177	5.22465	6.37900	4.57519
1399.000	7.93983	5.25007	6.37510	4.51825
1400.000	7.92431	5.22487	6.34580	4.52637
1401.000	7.97667	5.27109	6.33799	4.47141
1402.000	7.95922	5.24006	6.38486	4.51030
1403.000	7.94952	5.27339	6.43952	4.51768
1404.000	7.94565	5.25977	6.35166	4.41823
1405.000	7.95922	5.24983	6.29698	4.46194
1406.000	7.98249	5.21241	6.40243	4.45317
1407.000	7.94371	5.25198	6.36143	4.47121
1408.000	7.93595	5.22081	6.28331	4.53084
1409.000	7.91074	5.26412	6.31846	4.55215
1410.000	7.94759	5.26170	6.36143	4.46728
1411.000	7.93983	5.21295	6.31260	4.50307
1412.000	7.95340	5.22645	6.39267	4.49452
1413.000	7.95728	5.27916	6.37314	4.43377
1414.000	7.93983	5.25593	6.40243	4.49050
1415.000	7.95922	5.23810	6.34190	4.54998
1416.000	7.95534	5.25183	6.35752	4.54591
1417.000	7.92237	5.23857	6.32432	4.52066
1418.000	7.94952	5.25972	6.34580	4.56763
1419.000	7.93207	5.20523	6.37705	4.46125
1420.000	7.97085	5.22037	6.41415	4.49826
1421.000	7.99024	5.25724	6.34580	4.48903
1422.000	7.97667	5.23007	6.31456	4.49520
1423.000	7.98830	5.24164	6.46295	4.46639
1424.000	7.95146	5.26360	6.42195	4.47265
1425.000	7.93207	5.26385	6.37705	4.57128
1426.000	7.94759	5.25779	6.31065	4.56008
1427.000	7.95534	5.20298	6.36338	4.45940
1428.000	7.93983	5.23835	6.38681	4.53190
1429.000	7.92043	5.23273	6.32432	4.52262
1430.000	7.93207	5.23649	6.33213	4.58936
1431.000	7.96504	5.22631	6.34776	4.55779
1432.000	7.95728	5.22640	6.32628	4.57369
1433.000	7.97473	5.21251	6.34971	4.41628
1434.000	7.95534	5.23034	6.29893	4.52874
1435.000	7.97085	5.22623	6.32823	4.52455
1436.000	7.98055	5.17921	6.36143	4.54391
1437.000	7.93401	5.21693	6.34971	4.54402
1438.000	7.96698	5.20088	6.32823	4.48525
1439.000	7.92431	5.20142	6.36533	4.54781
1440.000	7.96698	5.25754	6.26377	4.57424
1441.000	7.94565	5.24023	6.32432	4.47742
1442.000	7.93983	5.25789	6.35752	4.55377
1443.000	7.97861	5.20660	6.36924	4.54974
1444.000	7.96892	5.22821	6.30284	4.53657
1445.000	7.93983	5.26766	6.33018	4.52650
1446.000	7.95728	5.25180	6.34190	4.53622
1447.000	7.98055	5.22220	6.30674	4.57779
1448.000	7.95534	5.25574	6.26963	4.58794
1449.000	7.94177	5.22269	6.42391	4.56497
1450.000	7.92237	5.22098	6.33213	4.46360
1451.000	7.94759	5.20894	6.41415	4.56113
1452.000	7.93789	5.23447	6.34385	4.51459
1453.000	7.96310	5.21852	6.36533	4.52423
1454.000	7.89716	5.20958	6.29307	4.54648
1455.000	7.97279	5.25161	6.30870	4.53062
1456.000	7.95922	5.23420	6.41024	4.50026
1457.000	7.95922	5.23420	6.36924	4.52223
1458.000	7.95534	5.19321	6.28135	4.50334
1459.000	7.94565	5.21874	6.33018	4.53240
1460.000	7.98249	5.21045	6.28135	4.53479
1461.000	7.93595	5.20713	6.40829	4.54546
1462.000	7.93595	5.20518	6.36729	4.53011
1463.000	7.94952	5.21869	6.42781	4.53154
1464.000	7.91074	5.22309	6.38876	4.60457
1465.000	7.90104	5.24666	6.28135	4.45421
1466.000	7.97279	5.25942	6.35557	4.61665
1467.000	7.92431	5.21119	6.35166	4.53221
1468.000	7.95146	5.19521	6.40438	4.57300
1469.000	7.92431	5.25222	6.35947	4.47319
1470.000	7.97085	5.19888	6.36729	4.53600
1471.000	7.93789	5.24619	6.37119	4.55365
1472.000	7.89716	5.20958	6.32432	4.47939
1473.000	7.91849	5.18390	6.33409	4.49699
1474.000	7.94759	5.20112	6.33018	4.54222
1475.000	7.92625	5.25220	6.33213	4.52059
1476.000	7.91656	5.17806	6.38486	4.53388
1477.000	7.92625	5.26978	6.35166	4.47915
1478.000	7.93595	5.23058	6.38291	4.50246
1479.000	7.94371	5.24221	6.32042	4.54034
1480.000	7.89716	5.18026	6.44733	4.56869
1481.000	7.91849	5.22299	6.36729	4.52421
1482.000	7.94759	5.19917	6.35557	4.60290
1483.000	7.91074	5.22699	6.44538	4.49012
1484.000	7.91268	5.22892	6.39072	4.53579
1485.000	7.92819	5.19160	6.30870	4.48739
1486.000	7.97279	5.18322	6.37900	4.54769
1487.000	7.93983	5.20513	6.40048	4.56321
1488.000	7.93013	5.17008	6.26377	4.55263
1489.000	7.92625	5.18380	6.37119	4.55561
1490.000	7.90492	5.21730	6.39267	4.59864
1491.000	7.92819	5.23850	6.41415	4.46485
1492.000	7.92625	5.21507	6.32237	4.50299
1493.000	7.91656	5.24255	6.31846	4.45389
1494.000	7.89134	5.21942	6.30089	4.51300
1495.000	7.91656	5.21129	6.32823	4.50883
1496.000	7.92043	5.25032	6.36729	4.50456
1497.000	7.91656	5.24841	6.33409	4.51271
1498.000	7.92043	5.19951	6.28135	4.47583
1499.000	7.92431	5.21314	6.36338	4.51049
1500.000	7.94565	5.22069	6.29503	4.53270
1501.000	7.93013	5.19744	6.40048	4.55143
1502.000	7.93013	5.22870	6.33213	4.60704
1503.000	7.94177	5.20706	6.35557	4.48895
1504.000	7.92819	5.21505	6.35557	4.56165
1505.000	7.93983	5.21099	6.37314	4.58899
1506.000	7.92431	5.20142	6.33604	4.54021
1507.000	7.85642	5.22377	6.34776	4.52635
1508.000	7.94952	5.24213	6.28135	4.50334
1509.000	7.93207	5.20914	6.41415	4.57095
1510.000	7.89134	5.20965	6.36338	4.53211
1511.000	7.93595	5.22081	6.36924	4.45935
1512.000	7.89910	5.28381	6.38486	4.59478
1513.000	7.92431	5.21314	6.35947	4.53411
1514.000	7.89328	5.23112	6.36533	4.49869
1515.000	7.91268	5.20547	6.31651	4.52073
1516.000	7.92625	5.22484	6.43562	4.58058
1517.000	7.91074	5.18791	6.40634	4.43545
1518.000	7.89716	5.19003	6.39072	4.56134
1519.000	7.89910	5.22323	6.33213	4.52648
1520.000	7.86806	5.19430	6.31456	4.52074
1521.000	7.89522	5.21742	6.29893	4.47961
1522.000	7.89522	5.19201	6.40243	4.49443
1523.000	7.91849	5.22885	6.30870	4.55813
1524.000	7.93983	5.19927	6.28917	4.52293
1525.000	7.89716	5.20371	6.31065	4.56008
1526.000	7.88940	5.21554	6.30089	4.56999
1527.000	7.94371	5.18163	6.29698	4.44425
1528.000	7.90880	5.21138	6.36729	4.58512
1529.000	7.87388	5.22550	6.36338	4.57926
1530.000	7.91849	5.24253	6.32628	4.58941
1531.000	7.91074	5.26607	6.38681	4.53779
1532.000	7.89716	5.20762	6.39267	4.54364
1533.000	7.90104	5.27206	6.34971	4.57152
1534.000	7.89522	5.26432	6.29112	4.54453
1535.000	7.89134	5.18620	6.31065	4.57776
1536.000	7.91849	5.24057	6.40243	4.54944
1537.000	7.87194	5.18644	6.40634	4.59066
1538.000	7.89716	5.21153	6.45514	4.52933
1539.000	7.93789	5.20711	6.29503	4.55825
1540.000	7.89716	5.24866	6.24228	4.53316
1541.000	7.89328	5.22135	6.34776	4.52831
1542.000	7.90686	5.24268	6.39657	4.51413
1543.000	7.90686	5.24463	6.38095	4.56928
1544.000	7.91074	5.22895	6.30089	4.59160
1545.000	7.87000	5.19233	6.33409	4.56969
1546.000	7.87582	5.27629	6.37705	4.51823
1547.000	7.89910	5.22714	6.27159	4.55059
1548.000	7.89522	5.23110	6.34971	4.61474
1549.000	7.90686	5.22118	6.35362	4.52040
1550.000	7.91849	5.26011	6.35362	4.41035
1551.000	7.93595	5.23254	6.35362	4.59506
1552.000	7.89910	5.21346	6.25596	4.53894
1553.000	7.90298	5.24077	6.32237	4.57766
1554.000	7.91074	5.24263	6.27940	4.52301
1555.000	7.91849	5.25230	6.30479	4.54834
1556.000	7.90880	5.24265	6.26768	4.53294
1557.000	7.89910	5.22909	6.42976	4.57670
1558.000	7.92043	5.24446	6.29503	4.58183
1559.000	7.87776	5.21568	6.40243	4.56123
1560.000	7.88358	5.20584	6.37510	4.51235
1561.000	7.88164	5.24104	6.33018	4.55598
1562.000	7.86030	5.22958	6.30089	4.50318
1563.000	7.91462	5.27384	6.32432	4.55799
1564.000	7.87194	5.20012	6.39657	4.59664
1565.000	7.87776	5.20786	6.35752	4.52037
1566.000	7.89716	5.21739	6.39267	4.55346
1567.000	7.88358	5.22734	6.31065	4.50899
1568.000	7.88940	5.21944	6.37510	4.52021
1569.000	7.89522	5.20960	6.37900	4.53590
1570.000	7.90492	5.22120	6.36533	4.56745
1571.000	7.91074	5.19573	6.33213	4.56578
1572.000	7.88940	5.19208	6.34776	4.53224
1573.000	7.90492	5.20557	6.39072	4.48078
1574.000	7.90104	5.23884	6.36533	4.58121
1575.000	7.92043	5.22492	6.33995	4.50677
1576.000	7.91656	5.22301	6.37119	4.48291
1577.000	7.90492	5.23293	6.34776	4.52045
1578.000	7.89328	5.25066	6.34190	4.51264
1579.000	7.91268	5.21720	6.31846	4.53053
1580.000	7.89716	5.28188	6.37900	4.49464
1581.000	7.87970	5.20198	6.32237	4.51871
1582.000	7.90686	5.20555	6.36924	4.53598
1583.000	7.88552	5.22536	6.36924	4.46918
1584.000	7.88164	5.20977	6.40243	4.48854
1585.000	7.86030	5.24131	6.39072	4.52401
1586.000	7.86030	5.21786	6.33213	4.48718
1587.000	7.86418	5.22758	6.39267	4.51220
1588.000	7.85254	5.23359	6.36533	4.49672
1589.000	7.88746	5.25074	6.43172	4.57079
1590.000	7.89910	5.20955	6.35362	4.50075
1591.000	7.86612	5.26273	6.37510	4.46716
1592.000	7.87388	5.21378	6.41805	4.52966
1593.000	7.91462	5.17613	6.35557	4.60290
1594.000	7.87582	5.22743	6.32628	4.52850
1595.000	7.86806	5.22558	6.36729	4.60083
1596.000	7.88358	5.18238	6.38681	4.52994
1597.000	7.85060	5.22775	6.36533	4.54191
1598.000	7.87582	5.23525	6.40829	4.55136
1599.000	7.87194	5.23334	6.35752	4.56163
1600.000	7.87970	5.24888	6.34190	4.57552
1601.000	7.87582	5.25284	6.34971	4.46738
1602.000	7.89716	5.20176	6.35166	4.50863
1603.000	7.85448	5.23552	6.38291	4.53193
1604.000	7.92237	5.23466	6.37314	4.56149
1605.000	7.85836	5.23156	6.40634	4.54352
1606.000	7.84284	5.24544	6.37314	4.51827
1607.000	7.85060	5.21798	6.42391	4.46673
1608.000	7.87776	5.24109	6.38486	4.57907
1609.000	7.87582	5.21571	6.32237	4.48727
1610.000	7.88164	5.19023	6.33213	4.51273
1611.000	7.88746	5.22729	6.42976	4.62188
1612.000	7.88358	5.21952	6.38486	4.54960
1613.000	7.88358	5.23124	6.47466	4.54094
1614.000	7.87582	5.19030	6.27549	4.51715
1615.000	7.84672	5.20043	6.34580	4.54601
1616.000	7.87776	5.22741	6.37510	4.47698
1617.000	7.88552	5.21949	6.38291	4.53979
1618.000	7.90104	5.22516	6.37510	4.58308
1619.000	7.90686	5.20164	6.34190	4.56570
1620.000	7.87776	5.18637	6.30870	4.53848
1621.000	7.88552	5.19409	6.33604	4.52645
1622.000	7.88746	5.22533	6.27159	4.59382
1623.000	7.90104	5.24861	6.39072	4.50239
1624.000	7.86418	5.22172	6.40634	4.55923
1625.000	7.89134	5.25655	6.33604	4.56575
1626.000	7.90104	5.21148	6.34190	4.63053
1627.000	7.87000	5.20014	6.34385	4.51263
1628.000	7.89910	5.20173	6.41610	4.48252
1629.000	7.91462	5.20154	6.34385	4.61479
1630.000	7.86224	5.20806	6.38876	4.63403
1631.000	7.84284	5.17116	6.36338	4.56158
1632.000	7.88164	5.17654	6.37510	4.57130
1633.000	7.87582	5.16880	6.35557	4.56754
1634.000	7.85254	5.18277	6.36338	4.55765
1635.000	7.89910	5.17242	6.41024	4.53562
1636.000	7.87776	5.17659	6.41219	4.57882
1637.000	7.90686	5.19968	6.38291	4.46709
1638.000	7.87194	5.19816	6.35752	4.54984
1639.000	7.90298	5.18605	6.36729	4.58315
1640.000	7.88940	5.18622	6.33604	4.57950
1641.000	7.88746	5.17452	6.40048	4.55732
1642.000	7.84284	5.22589	6.34385	4.56764
1643.000	7.78657	5.21291	6.23838	4.57446
1644.000	7.72640	5.23320	6.19930	4.56301
1645.000	7.61377	5.23458	6.09377	4.57767
1646.000	7.37085	5.24922	5.96472	4.55516
1647.000	7.15880	5.22819	5.82584	4.53073
1648.000	6.82770	5.22013	5.59682	4.52269
1649.000	6.36143	5.22501	5.10883	4.46130
1650.000	5.95299	5.18191	4.86554	4.39989
1651.000	5.36174	5.13021	4.43739	4.31382
1652.000	4.83413	5.06557	3.92217	4.27125
1653.000	4.23885	4.94568	3.48708	4.11928
1654.000	3.67613	4.87611	3.01018	4.15087
1655.000	2.98455	4.71380	2.44210	3.98670
1656.000	2.33552	4.52866	2.01769	3.91266
1657.000	1.89130	4.35998	1.56737	3.87600
1658.000	1.39154	4.27998	1.15639	3.81132
1659.000	0.97062	4.18369	0.77889	3.79788
1660.000	0.66424	4.15235	0.50808	3.79214
1661.000	0.25305	4.04373	0.06326	3.72890
1662.000	-0.06326	3.94279	-0.27282	3.65754
1663.000	-0.26294	3.83186	-0.44482	3.70105
1664.000	-0.53971	3.79806	-0.72750	3.62756
1665.000	-0.80459	3.73051	-0.97852	3.44304
1666.000	-1.01212	3.61342	-1.26705	3.47837
1667.000	-1.18603	3.57953	-1.57725	3.36099
1668.000	-1.41327	3.51383	-1.74120	3.20612
1669.000	-1.69775	3.46185	-2.10061	3.17968
1670.000	-1.86761	3.38030	-2.33158	2.97900
1671.000	-2.06112	3.38387	-2.59008	2.99229
1672.000	-2.27828	3.31801	-2.74001	2.87500
1673.000	-2.48354	3.28186	-2.96089	2.87643
1674.000	-2.61179	3.30134	-3.22306	2.86185
1675.000	-2.71437	3.26739	-3.39646	2.85342
1676.000	-2.67097	3.27939	-3.55601	2.93811
1677.000	-2.69070	3.34668	-3.59736	2.91619
1678.000	-2.73015	3.39806	-3.61115	3.03495
1679.000	-2.72620	3.41391	-3.70369	3.03464
1680.000	-2.66308	3.41409	-3.73322	3.10580
1681.000	-2.62757	3.51517	-3.65644	3.16941
1682.000	-2.51905	3.55507	-3.67219	3.20300
1683.000	-2.45788	3.60671	-3.56586	3.18754
1684.000	-2.44999	3.60277	-3.45753	3.29282
1685.000	-2.42236	3.63848	-3.46344	3.22550
1686.000	-2.44407	3.62456	-3.37676	3.22382
1687.000	-2.41447	3.61672	-3.26445	3.20834
1688.000	-2.40263	3.61280	-3.29204	3.11915
1689.000	-2.34934	3.58720	-3.28021	3.12117
1690.000	-2.39473	3.54352	-3.28810	3.07361
1691.000	-2.46972	3.53738	-3.32750	3.07151
1692.000	-2.49932	3.53532	-3.34721	2.99421
1693.000	-2.58811	3.50934	-3.32947	2.97446
1694.000	-2.61771	3.49936	-3.38267	2.92082
1695.000	-2.66703	3.43586	-3.47723	2.91261
1696.000	-2.69267	3.47539	-3.58949	2.91225
1697.000	-2.78735	3.45532	-3.64265	2.94773
1698.000	-2.84849	3.49275	-3.70566	2.95148
1699.000	-2.88793	3.48669	-3.79031	2.96703
1700.000	-2.92145	3.45096	-3.83951	2.90549
1701.000	-2.97075	3.42903	-3.92413	2.88342
1702.000	-3.01018	3.47245	-3.92413	2.96063
1703.000	-3.02398	3.41896	-3.95758	2.94071
1704.000	-3.10678	3.44443	-3.90839	2.91515
1705.000	-3.09889	3.42070	-3.98316	2.90103
1706.000	-3.12058	3.43449	-3.96545	2.98621
1707.000	-3.13043	3.39289	-3.97136	2.92087
1708.000	-3.12255	3.35926	-3.99693	2.93859
1709.000	-3.11663	3.35334	-4.02841	2.95036
1710.000	-3.11072	3.35732	-3.98906	2.95446
1711.000	-3.14226	3.34732	-4.02841	2.94640
1712.000	-3.11663	3.32562	-4.01858	2.88507
1713.000	-3.07327	3.38713	-3.98513	2.92676
1714.000	-3.03384	3.37340	-3.97529	2.98618
1715.000	-3.10678	3.40880	-3.86313	2.96282
1716.000	-3.04369	3.37733	-3.95168	3.00012
1717.000	-3.00821	3.37348	-3.98119	2.96636
1718.000	-2.97863	3.37951	-3.93004	2.90122
1719.000	-3.02595	3.42490	-3.90446	2.99633
1720.000	-2.95695	3.38353	-3.86707	2.95687
1721.000	-2.94511	3.41525	-3.87887	3.03601
1722.000	-2.96680	3.43894	-3.86707	3.00042
1723.000	-2.94314	3.40733	-3.85329	3.02224
1724.000	-2.93328	3.40341	-3.85329	2.99057
1725.000	-2.97863	3.35377	-3.78046	3.06011
1726.000	-2.94117	3.39150	-3.86903	2.99447
1727.000	-2.92934	3.40540	-3.84345	3.03613
1728.000	-2.95103	3.43305	-3.79227	2.98088
1729.000	-2.98258	3.42107	-3.82377	3.01047
1730.000	-2.94117	3.43110	-3.82770	3.03025
1731.000	-2.91751	3.39157	-3.77259	2.96907
1732.000	-2.91948	3.36781	-3.83951	3.00250
1733.000	-2.87807	3.41743	-3.75684	2.96913
1734.000	-2.87018	3.39765	-3.83558	3.01439
1735.000	-2.86624	3.36401	-3.80802	2.95905
1736.000	-2.88399	3.42137	-3.83558	3.00251
1737.000	-2.87018	3.37389	-3.78637	2.99674
1738.000	-2.87413	3.40754	-3.83754	3.05199
1739.000	-2.92145	3.35196	-3.79424	3.01651
1740.000	-2.87215	3.41745	-3.83754	3.02428
1741.000	-2.87215	3.39567	-3.84148	2.97279
1742.000	-2.87018	3.37587	-3.85919	2.94898
1743.000	-2.91948	3.38959	-3.86510	3.01428
1744.000	-2.89976	3.36589	-3.90642	3.07351
1745.000	-2.90568	3.39161	-3.86707	3.05188
1746.000	-2.95892	3.36967	-3.86313	2.97866
1747.000	-2.89976	3.38569	-3.94381	3.04765
1748.000	-2.86624	3.42935	-3.87494	3.05581
1749.000	-2.94117	3.41526	-3.84935	3.01434
1750.000	-2.90962	3.39556	-3.78637	2.99476
1751.000	-2.88793	3.41740	-3.81589	3.01248
1752.000	-2.90765	3.40744	-3.85329	3.04599
1753.000	-2.93526	3.38558	-3.87100	2.98259
1754.000	-2.90568	3.38765	-3.86116	2.97867
1755.000	-2.90371	3.35994	-3.86707	2.96875
1756.000	-2.93328	3.41330	-3.80999	2.99666
1757.000	-3.01018	3.36951	-3.90249	3.03988
1758.000	-2.91159	3.39357	-3.83361	2.99856
1759.000	-2.98061	3.35574	-3.81589	2.97486
1760.000	-2.95892	3.41521	-3.82377	2.99661
1761.000	-2.88793	3.35800	-3.87691	3.03997
1762.000	-2.88004	3.39763	-3.80999	2.99666
1763.000	-2.94709	3.37367	-3.85723	2.94503
1764.000	-3.00032	3.34380	-3.90446	3.02008
1765.000	-2.91159	3.41535	-3.87887	3.02017
1766.000	-2.90765	3.32230	-3.89068	2.98054
1767.000	-2.99835	3.35371	-3.85329	2.98463
1768.000	-2.89582	3.40154	-3.84148	2.92528
1769.000	-2.91554	3.36980	-3.80999	3.00062
1770.000	-2.94314	3.35190	-3.85526	2.98462
1771.000	-2.95695	3.37562	-3.80212	2.93136
1772.000	-2.97272	3.36369	-3.87297	2.97664
1773.000	-2.96680	3.37163	-3.82377	3.01443
1774.000	-2.96286	3.39540	-3.93004	2.95467
1775.000	-2.92737	3.38956	-3.83558	2.98271
1776.000	-2.92737	3.40342	-3.88084	2.97266
1777.000	-2.93131	3.38757	-3.91036	2.99631
1778.000	-2.95892	3.38155	-3.86903	2.96874
1779.000	-2.93328	3.39351	-3.86510	2.99845
1780.000	-2.92540	3.36383	-3.93004	3.04374
1781.000	-2.98652	3.39136	-3.84542	2.95101
1782.000	-2.97863	3.39139	-3.81589	2.92537
1783.000	-2.96483	3.36767	-3.90249	2.97654
1784.000	-2.95103	3.30435	-3.81589	2.99862
1785.000	-2.98455	3.36167	-3.87297	2.99644
1786.000	-2.97863	3.38545	-3.88675	3.00431
1787.000	-3.02792	3.31798	-3.84935	2.96881
1788.000	-2.95103	3.36375	-3.86116	3.06576
1789.000	-2.95892	3.38749	-3.88281	2.97859
1790.000	-2.98258	3.38148	-3.83558	2.97677
1791.000	-2.99441	3.37154	-3.84935	3.00642
1792.000	-2.92934	3.38956	-3.85919	2.99847
1793.000	-2.98652	3.35969	-3.84739	2.99653
1794.000	-3.01018	3.32793	-3.90446	3.07550
1795.000	-2.95695	3.36176	-3.81786	3.06393
1796.000	-2.93328	3.39747	-3.87297	2.94497
1797.000	-2.94117	3.41130	-3.81983	3.01840
1798.000	-2.96680	3.39340	-3.81393	2.99863
1799.000	-2.89976	3.42924	-3.84345	2.92132
1800.000	-2.94511	3.40733	-3.86116	2.96679
1801.000	-2.95103	3.39345	-3.88871	2.95877
1802.000	-2.94709	3.38356	-3.86707	3.00042
1803.000	-2.93131	3.36975	-3.83951	2.96290
1804.000	-2.98652	3.32999	-3.90446	2.97059
1805.000	-2.95892	3.36175	-3.79818	2.97888
1806.000	-2.91554	3.37574	-3.84739	2.97475
1807.000	-2.95695	3.36968	-3.79621	2.98483
1808.000	-2.97272	3.37953	-3.85329	3.01828
1809.000	-2.96286	3.38550	-3.94381	3.00015
1810.000	-2.91554	3.35000	-3.78243	2.98884
1811.000	-2.94314	3.34002	-3.83951	2.95894
1812.000	-2.96286	3.36174	-3.84542	2.97476
1813.000	-2.93920	3.36181	-3.85132	3.00245
1814.000	-2.93328	3.41528	-3.87494	2.96674
1815.000	-2.96878	3.33598	-3.84935	2.97079
1816.000	-2.95300	3.39543	-3.88084	3.00235
1817.000	-2.92737	3.40540	-3.81983	2.90952
1818.000	-2.94906	3.38950	-3.89068	3.01815
1819.000	-2.92342	3.32225	-3.85723	2.97868
1820.000	-2.94511	3.31427	-3.88084	2.91327
1821.000	-3.00032	3.32004	-3.80015	2.99867
1822.000	-2.91948	3.35791	-3.79031	2.94525
1823.000	-2.94117	3.38556	-3.88478	2.98254
1824.000	-2.94709	3.36179	-3.81786	2.98475
1825.000	-2.91948	3.32029	-3.87494	3.00237
1826.000	-2.97272	3.31221	-3.85723	2.99452
1827.000	-2.94709	3.34991	-3.83754	3.03417
1828.000	-2.91948	3.32227	-3.83754	3.02230
1829.000	-2.95300	3.36177	-3.85329	2.97671
1830.000	-2.96089	3.32610	-3.82574	2.97087
1831.000	-2.91357	3.33813	-3.87100	3.00832
1832.000	-2.96483	3.34787	-3.92020	3.00419
1833.000	-2.92737	3.33412	-3.81196	2.98675
1834.000	-2.92934	3.31234	-3.84542	2.96684
1835.000	-2.96089	3.32412	-3.82770	3.06984
1836.000	-2.92737	3.29254	-3.83361	2.98668
1837.000	-2.95103	3.33999	-3.88478	2.97858
1838.000	-3.00229	3.34380	-3.85329	3.04204
1839.000	-2.96878	3.33400	-3.85723	3.00837
1840.000	-2.97075	3.32805	-3.83558	2.97084
1841.000	-2.96878	3.34786	-3.90839	3.01215
1842.000	-2.96680	3.34391	-3.80605	3.01449
1843.000	-2.91948	3.33415	-3.88084	3.02610
1844.000	-3.01018	3.30615	-3.83558	2.95500
1845.000	-2.93131	3.36183	-3.82377	3.02828
1846.000	-2.96483	3.30233	-3.88281	2.95285
1847.000	-2.96286	3.31224	-3.81786	3.03226
1848.000	-2.94709	3.34595	-3.80408	2.96105
1849.000	-3.00821	3.30220	-3.85919	2.98659
1850.000	-2.94511	3.33407	-3.80015	3.04816
1851.000	-2.96878	3.28054	-3.84739	2.98465
1852.000	-2.94117	3.31824	-3.81786	2.97486
1853.000	-2.92540	3.32225	-3.82574	2.93325
1854.000	-2.95103	3.33801	-3.89068	3.01617
1855.000	-2.98652	3.34385	-3.84542	3.05394
1856.000	-2.97469	3.32408	-3.85132	3.00047
1857.000	-2.92540	3.34799	-3.84542	3.00050
1858.000	-2.96680	3.33797	-3.86313	3.02814
1859.000	-2.93526	3.32222	-3.80999	2.99072
1860.000	-2.92145	3.34800	-3.85329	3.03214
1861.000	-2.97075	3.36567	-3.86116	3.02023
1862.000	-2.94117	3.32814	-3.83951	3.01041
1863.000	-2.95300	3.32415	-3.84345	3.03811
1864.000	-2.99638	3.32006	-3.86313	3.00637
1865.000	-2.94511	3.31625	-3.88871	3.04191
1866.000	-2.95103	3.32217	-3.82770	3.02233
1867.000	-2.91159	3.33813	-3.87887	2.96277
1868.000	-2.98849	3.32602	-3.85132	2.99058
1869.000	-2.91751	3.32227	-3.85723	2.96482
1870.000	-2.95892	3.30235	-3.88281	3.01026
1871.000	-2.97863	3.37159	-3.85132	2.91337
1872.000	-2.97469	3.31220	-3.80015	2.93730
1873.000	-2.94906	3.34000	-3.88478	2.98848
1874.000	-2.98849	3.33592	-3.81983	2.96297
1875.000	-2.93723	3.34994	-3.83951	2.94311
1876.000	-2.89385	3.33818	-3.88084	2.93702
1877.000	-2.96680	3.34589	-3.84542	2.93121
1878.000	-2.95892	3.33799	-3.90052	2.98249
1879.000	-2.93920	3.31231	-3.81393	2.95111
1880.000	-2.92145	3.34602	-3.91430	2.99629
1881.000	-2.99441	3.30818	-3.85919	3.03014
1882.000	-2.96089	3.32412	-3.81983	2.96297
1883.000	-2.91948	3.35197	-3.82574	3.02432
1884.000	-2.95300	3.27266	-3.88675	3.02014
1885.000	-2.95497	3.32216	-3.87100	2.87569
1886.000	-2.94511	3.32813	-3.87691	3.03205
1887.000	-2.95103	3.27267	-3.79621	2.96899
1888.000	-2.94314	3.32814	-3.82770	2.96888
1889.000	-2.96878	3.30232	-3.87494	3.00633
1890.000	-2.94314	3.31824	-3.78046	2.90767
1891.000	-2.97272	3.30033	-3.82377	2.95900
1892.000	-2.95103	3.33207	-3.77456	2.89779
1893.000	-3.01018	3.30021	-3.81589	2.97882
1894.000	-2.93723	3.32617	-3.80015	2.92938
1895.000	-2.94709	3.28852	-3.86707	2.95489
1896.000	-2.92737	3.34996	-3.86116	2.95887
1897.000	-2.91948	3.30246	-3.85132	2.95296
1898.000	-2.94511	3.29843	-3.87887	2.95089
1899.000	-2.96878	3.28252	-3.81393	2.96101
1900.000	-2.94511	3.30635	-3.83164	3.00252
1901.000	-3.00624	3.30023	-3.83164	2.97481
1902.000	-2.93526	3.34202	-3.80605	2.96500
1903.000	-2.98061	3.29040	-3.78046	2.93737
1904.000	-2.98849	3.24285	-3.73322	2.96525
1905.000	-2.95892	3.28849	-3.78046	2.96311
1906.000	-2.95892	3.29245	-3.84345	2.99456
1907.000	-3.01609	3.29624	-3.77850	2.93936
1908.000	-2.90173	3.34410	-3.82180	2.96692
1909.000	-2.97666	3.27061	-3.76669	2.98889
1910.000	-2.96089	3.30432	-3.86116	2.92521
1911.000	-2.95103	3.30039	-3.82967	2.95898
1912.000	-2.91751	3.32425	-3.90249	2.96070
1913.000	-2.91948	3.29058	-3.80999	3.02239
1914.000	-2.98455	3.29435	-3.83361	2.95501
1915.000	-2.94117	3.31824	-3.80802	2.90758
1916.000	-2.93920	3.29052	-3.83164	3.00450
1917.000	-2.99441	3.29828	-3.80605	3.00459
1918.000	-2.94117	3.31428	-3.79031	3.05018
1919.000	-2.96878	3.30034	-3.77653	2.96510
1920.000	-3.01807	3.29029	-3.86707	2.98656
1921.000	-2.95103	3.33999	-3.80015	3.00659
1922.000	-2.99835	3.27649	-3.82574	3.05203
1923.000	-2.97666	3.28645	-3.74306	2.99887
1924.000	-2.97666	3.31220	-3.81393	2.96893
1925.000	-2.97666	3.32606	-3.75881	2.94536
1926.000	-2.94511	3.27665	-3.84148	3.00843
1927.000	-2.98849	3.33790	-3.79227	3.01454
1928.000	-2.96680	3.31817	-3.81589	2.98080
1929.000	-2.94117	3.27864	-3.79818	2.93137
1930.000	-3.02989	3.29619	-3.85526	2.97869
1931.000	-3.01018	3.26061	-3.81983	2.97287
1932.000	-2.97469	3.29042	-3.79031	2.91754
1933.000	-2.95497	3.35780	-3.76275	3.01662
1934.000	-2.96680	3.28252	-3.76865	3.05817
1935.000	-2.95892	3.31225	-3.76865	2.90969
1936.000	-2.93328	3.30638	-3.75684	2.96121
1937.000	-3.00821	3.27844	-3.83754	2.95103
1938.000	-2.95497	3.29246	-3.77456	3.00470
1939.000	-2.98061	3.30822	-3.86707	2.99448
1940.000	-2.92934	3.33610	-3.77259	3.04034
1941.000	-2.96286	3.32808	-3.77062	3.02253
1942.000	-2.93328	3.30242	-3.76669	3.02452
1943.000	-2.97863	3.33001	-3.80212	2.98085
1944.000	-2.92145	3.34206	-3.79818	2.92345
1945.000	-2.94709	3.28060	-3.75881	2.95724
1946.000	-2.99046	3.29037	-3.74897	3.04042
1947.000	-3.02004	3.28830	-3.80408	2.98480
1948.000	-2.96089	3.27264	-3.84148	2.99259
1949.000	-2.96878	3.31816	-3.78046	2.98290
1950.000	-2.96089	3.28056	-3.82967	2.95502
1951.000	-3.00624	3.29429	-3.74897	2.98301
1952.000	-3.00229	3.32598	-3.81589	3.00852
1953.000	-2.94511	3.33605	-3.82574	2.98077
1954.000	-2.98258	3.27455	-3.79818	2.98482
1955.000	-2.94117	3.29646	-3.83164	3.03024
1956.000	-2.97075	3.36567	-3.75291	3.00478
1957.000	-2.96286	3.30630	-3.81786	3.05800
1958.000	-3.01807	3.30811	-3.80408	2.98084
1959.000	-2.97075	3.31419	-3.77456	3.04825
1960.000	-2.97272	3.29637	-3.81983	3.01444
1961.000	-2.96680	3.27658	-3.74700	2.96916
1962.000	-2.92737	3.33808	-3.82180	2.98474
1963.000	-2.92540	3.27274	-3.75487	3.00477
1964.000	-3.00229	3.27252	-3.79621	2.97295
1965.000	-2.91357	3.29456	-3.77850	3.01063
1966.000	-2.97272	3.32607	-3.78243	3.01259
1967.000	-2.96483	3.29243	-3.75094	2.94737
1968.000	-2.96878	3.28252	-3.74503	2.95927
1969.000	-2.97666	3.29635	-3.83361	3.00845
1970.000	-2.92145	3.28266	-3.78637	2.91755
1971.000	-2.97469	3.29834	-3.78046	2.90371
1972.000	-2.99441	3.28442	-3.74109	2.95334
1973.000	-2.98061	3.25476	-3.80802	2.98479
1974.000	-3.02398	3.31403	-3.72535	2.88607
1975.000	-2.97272	3.28250	-3.75881	2.92160
1976.000	-2.98455	3.27653	-3.76865	2.90969
1977.000	-2.99638	3.30620	-3.70369	2.92574
1978.000	-2.94709	3.25089	-3.68991	2.89609
1979.000	-2.95695	3.30631	-3.68006	2.92384
1980.000	-3.02989	3.23877	-3.66628	2.92785
1981.000	-3.03384	3.29420	-3.72338	2.97320
1982.000	-3.04961	3.26643	-3.79227	2.93535
1983.000	-3.14226	3.28991	-3.87100	3.02218
1984.000	-3.22504	3.35893	-4.05989	3.00962
1985.000	-3.40040	3.34052	-4.18773	3.01309
1986.000	-3.61312	3.40902	-4.41577	2.96669
1987.000	-3.87691	3.41986	-4.60439	3.05887
1988.000	-4.16413	3.53727	-4.88124	3.10903
1989.000	-4.43149	3.63877	-5.22649	3.26538
1990.000	-4.82039	3.69206	-5.63206	3.29871
1991.000	-5.13629	3.77316	-5.95494	3.36388
1992.000	-5.37938	3.85451	-6.28917	3.41104
1993.000	-5.64773	3.90992	-6.58199	3.55479
1994.000	-5.83562	3.98940	-6.91149	3.58779
1995.000	-5.98623	4.05723	-7.05368	3.66733
1996.000	-6.18171	4.14627	-7.28722	3.83247
1997.000	-6.21298	4.16964	-7.40390	3.83736
1998.000	-6.28917	4.18280	-7.40390	3.88646
1999.000	-6.21688	4.19715	-7.39224	3.94155
2000.000	-6.12504	4.22738	-7.33390	3.95974
2001.000	-5.94908	4.20710	-7.18021	3.97877
2002.000	-5.85127	4.16847	-6.99331	3.94697
2003.000	-5.59878	4.18015	-6.84719	3.89903
2004.000	-5.48714	4.15730	-6.65222	3.90847
2005.000	-5.33626	4.08740	-6.38876	3.82195
2006.000	-5.18728	3.99769	-6.25596	3.77174
2007.000	-5.08333	3.96875	-6.14654	3.68192
2008.000	-5.02645	3.88428	-5.97841	3.58453
2009.000	-4.93226	3.85919	-5.84932	3.51044
2010.000	-4.93619	3.76445	-5.78474	3.45957
2011.000	-4.94600	3.71308	-5.69275	3.41674
2012.000	-4.95777	3.70117	-5.69080	3.38519
2013.000	-4.94404	3.65585	-5.72212	3.40670
2014.000	-5.00683	3.62392	-5.69471	3.35952
2015.000	-5.07549	3.67880	-5.70841	3.31998
2016.000	-5.09902	3.74378	-5.76713	3.35317
2017.000	-5.17355	3.74137	-5.77692	3.37679
2018.000	-5.25198	3.73893	-5.83758	3.41784
2019.000	-5.28726	3.80776	-5.90800	3.45881
2020.000	-5.34018	3.80151	-5.99992	3.55088
2021.000	-5.31078	3.86086	-6.00774	3.57251
2022.000	-5.37938	3.91957	-6.13286	3.58745
2023.000	-5.39310	3.90174	-6.09181	3.59166
2024.000	-5.35390	3.96902	-6.22079	3.64595
2025.000	-5.40093	3.95689	-6.24814	3.66742
2026.000	-5.37154	3.92159	-6.26768	3.61017
2027.000	-5.42053	3.92719	-6.28721	3.62776
2028.000	-5.44404	3.90930	-6.34580	3.71793
2029.000	-5.38330	3.93926	-6.28917	3.63956
2030.000	-5.43228	3.93303	-6.35557	3.59577
2031.000	-5.41661	3.94299	-6.40243	3.66830
2032.000	-5.43228	3.90149	-6.33018	3.65897
2033.000	-5.44600	3.91914	-6.34385	3.66084
2034.000	-5.44012	3.85412	-6.34971	3.62732
2035.000	-5.42445	3.94096	-6.36143	3.62921
2036.000	-5.40289	3.94702	-6.35166	3.61549
2037.000	-5.40485	3.98249	-6.39853	3.66242
2038.000	-5.42445	3.95082	-6.33213	3.60184
2039.000	-5.45384	3.91909	-6.30089	3.63554
2040.000	-5.49889	3.92668	-6.31065	3.59214
2041.000	-5.40877	3.94698	-6.29503	3.61392
2042.000	-5.42053	3.95479	-6.30674	3.57247
2043.000	-5.46755	3.91309	-6.31456	3.59015
2044.000	-5.42641	3.92518	-6.25791	3.62599
2045.000	-5.44012	3.93692	-6.34385	3.62146
2046.000	-5.46363	3.89537	-6.28331	3.63173
2047.000	-5.36958	3.92555	-6.29112	3.59622
2048.000	-5.39701	3.94114	-6.31651	3.62165
2049.000	-5.42641	3.90547	-6.26377	3.54322
2050.000	-5.45188	3.91516	-6.26768	3.61214
2051.000	-5.42837	3.90546	-6.22665	3.58484
2052.000	-5.43032	3.88376	-6.25987	3.60431
2053.000	-5.42641	3.92124	-6.27354	3.55103
2054.000	-5.37546	3.90185	-6.21688	3.64597
2055.000	-5.38330	3.91363	-6.25400	3.61223
2056.000	-5.37154	3.89794	-6.27940	3.51947
2057.000	-5.39506	3.92933	-6.25987	3.54719
2058.000	-5.39114	3.90175	-6.28721	3.60806
2059.000	-5.37938	3.89591	-6.26377	3.56883
2060.000	-5.37546	3.90974	-6.23838	3.57097
2061.000	-5.43816	3.90145	-6.24228	3.56503
2062.000	-5.38918	3.86628	-6.28917	3.53320
2063.000	-5.35782	3.90197	-6.33995	3.55255
2064.000	-5.40289	3.82479	-6.30870	3.57640
2065.000	-5.41857	3.89763	-6.29893	3.60601
2066.000	-5.36370	3.88813	-6.26182	3.55505
2067.000	-5.38134	3.89393	-6.30479	3.58628
2068.000	-5.39701	3.89383	-6.26768	3.59835
2069.000	-5.37154	3.85456	-6.31456	3.59803
2070.000	-5.38134	3.90379	-6.28526	3.59626
2071.000	-5.40877	3.91544	-6.30089	3.58039
2072.000	-5.40093	3.90563	-6.25400	3.60829
2073.000	-5.35194	3.92369	-6.26377	3.57671
2074.000	-5.37742	3.89790	-6.27549	3.57072
2075.000	-5.39701	3.87017	-6.25596	3.55115
2076.000	-5.34018	3.88039	-6.32628	3.59597
2077.000	-5.38330	3.91166	-6.31456	3.57833
2078.000	-5.42053	3.86411	-6.30479	3.57052
2079.000	-5.44012	3.85215	-6.22079	3.52972
2080.000	-5.38526	3.92348	-6.30089	3.55873
2081.000	-5.42641	3.86013	-6.23056	3.50995
2082.000	-5.43424	3.90542	-6.33018	3.61564
2083.000	-5.34606	3.87838	-6.24228	3.55518
2084.000	-5.38722	3.91952	-6.31651	3.58226
2085.000	-5.41269	3.85233	-6.17390	3.53791
2086.000	-5.37938	3.90971	-6.25205	3.61815
2087.000	-5.38526	3.91165	-6.29698	3.55284
2088.000	-5.41661	3.84836	-6.29112	3.56667
2089.000	-5.46167	3.82836	-6.25987	3.51172
2090.000	-5.45775	3.89541	-6.24424	3.55123
2091.000	-5.44600	3.88169	-6.24228	3.56306
2092.000	-5.38918	3.88797	-6.31456	3.53893
2093.000	-5.44404	3.84818	-6.22079	3.53760
2094.000	-5.40681	3.87997	-6.23251	3.58480
2095.000	-5.43228	3.90543	-6.28721	3.59428
2096.000	-5.41857	3.86609	-6.28526	3.59232
2097.000	-5.36762	3.91176	-6.21102	3.56131
2098.000	-5.38722	3.93332	-6.24814	3.52756
2099.000	-5.37742	3.90973	-6.21102	3.56919
2100.000	-5.41857	3.88581	-6.31846	3.48572
2101.000	-5.39114	3.90964	-6.25400	3.56102
2102.000	-5.42445	3.86605	-6.27354	3.54709
2103.000	-5.35194	3.88623	-6.26963	3.56879
2104.000	-5.39701	3.94903	-6.30284	3.61189
2105.000	-5.35978	3.87632	-6.28917	3.55093
2106.000	-5.38134	3.88604	-6.21298	3.58296
2107.000	-5.38722	3.91164	-6.21298	3.56523
2108.000	-5.36566	3.89600	-6.29307	3.53711
2109.000	-5.39114	3.84655	-6.31260	3.61183
2110.000	-5.36174	3.94334	-6.28526	3.55883
2111.000	-5.34998	3.89610	-6.25596	3.54524
2112.000	-5.35978	3.88224	-6.31260	3.58819
2113.000	-5.37938	3.89197	-6.25205	3.53148
2114.000	-5.37938	3.90183	-6.28331	3.51748
2115.000	-5.40289	3.86816	-6.29503	3.56468
2116.000	-5.41857	3.89763	-6.22079	3.54154
2117.000	-5.35586	3.88226	-6.23642	3.50991
2118.000	-5.35978	3.84083	-6.27354	3.50966
2119.000	-5.37154	3.87230	-6.21884	3.53367
2120.000	-5.40289	3.89182	-6.27354	3.58452
2121.000	-5.41073	3.87008	-6.30870	3.55473
2122.000	-5.36174	3.88814	-6.23251	3.56313
2123.000	-5.39701	3.85045	-6.27159	3.58650
2124.000	-5.36370	3.90193	-6.24033	3.55323
2125.000	-5.32058	3.87854	-6.29112	3.58243
2126.000	-5.38526	3.84067	-6.22665	3.61439
2127.000	-5.38134	3.91167	-6.19930	3.48848
2128.000	-5.36370	3.86052	-6.37119	3.58385
2129.000	-5.38722	3.84066	-6.22665	3.52968
2130.000	-5.34802	3.88626	-6.29307	3.53317
2131.000	-5.32450	3.91992	-6.27745	3.54510
2132.000	-5.41073	3.89177	-6.26377	3.60232
2133.000	-5.34410	3.91585	-6.30089	3.53706
2134.000	-5.41661	3.89962	-6.24228	3.51184
2135.000	-5.38918	3.89979	-6.24814	3.53938
2136.000	-5.37938	3.88014	-6.29307	3.53711
2137.000	-5.38330	3.89195	-6.25205	3.55709
2138.000	-5.37350	3.87032	-6.28135	3.54310
2139.000	-5.40289	3.89182	-6.27159	3.53135
2140.000	-5.40485	3.85632	-6.30284	3.60795
2141.000	-5.41269	3.89373	-6.22275	3.57108
2142.000	-5.42445	3.82465	-6.21884	3.53761
2143.000	-5.39114	3.86232	-6.27940	3.56281
2144.000	-5.38134	3.86041	-6.28135	3.53325
2145.000	-5.38330	3.88603	-6.25400	3.56299
2146.000	-5.34802	3.88823	-6.21884	3.59474
2147.000	-5.34606	3.89218	-6.25791	3.60630
2148.000	-5.31666	3.84504	-6.25987	3.57083
2149.000	-5.36370	3.86250	-6.24033	3.49609
2150.000	-5.27158	3.91631	-6.27745	3.54904
2151.000	-5.38330	3.88997	-6.22470	3.54348
2152.000	-5.37154	3.84667	-6.24619	3.55319
2153.000	-5.40877	3.85827	-6.27940	3.53523
2154.000	-5.40289	3.84450	-6.23838	3.51384
2155.000	-5.42641	3.86801	-6.30674	3.57247
2156.000	-5.37154	3.89399	-6.21298	3.55144
2157.000	-5.34998	3.91385	-6.25010	3.57877
2158.000	-5.38918	3.84853	-6.26377	3.53928
2159.000	-5.36958	3.86837	-6.25400	3.53146
2160.000	-5.34998	3.85864	-6.29307	3.51741
2161.000	-5.34214	3.84686	-6.29698	3.51738
2162.000	-5.34018	3.89419	-6.19344	3.56537
2163.000	-5.33234	3.86664	-6.30089	3.53509
2164.000	-5.39506	3.84258	-6.28331	3.56673
2165.000	-5.32842	3.88046	-6.31260	3.54683
2166.000	-5.30098	3.91416	-6.35557	3.59774
2167.000	-5.35390	3.90199	-6.23838	3.59067
2168.000	-5.36762	3.84078	-6.22665	3.56120
2169.000	-5.34018	3.88236	-6.32432	3.59402
2170.000	-5.36762	3.83289	-6.24424	3.57290
2171.000	-5.37154	3.85456	-6.20516	3.58696
2172.000	-5.29510	3.87870	-6.26768	3.50773
2173.000	-5.32842	3.90807	-6.24619	3.62016
2174.000	-5.31470	3.88647	-6.21884	3.59868
2175.000	-5.34606	3.83303	-6.24619	3.53940
2176.000	-5.25590	3.82175	-6.20712	3.44705
2177.000	-5.27354	3.71513	-6.18367	3.41567
2178.000	-5.16374	3.64475	-6.09572	3.37484
2179.000	-5.13237	3.42385	-6.01948	3.10316
2180.000	-5.04410	3.25051	-5.94125	2.94179
2181.000	-5.03037	2.94628	-5.76713	2.70576
2182.000	-4.89498	2.63444	-5.69471	2.39394
2183.000	-4.82824	2.42300	-5.48910	2.07051
2184.000	-4.74775	2.13032	-5.38330	1.84534
2185.000	-4.70455	1.81360	-5.23433	1.52116
2186.000	-4.64367	1.55818	-5.10883	1.19865
2187.000	-4.49830	1.25920	-4.95189	0.86805
2188.000	-4.50420	1.00543	-4.84983	0.43015
2189.000	-4.36074	0.75177	-4.81843	0.09516
2190.000	-4.35681	0.44830	-4.75560	-0.23593
2191.000	-4.30176	0.12101	-4.70259	-0.54325
2192.000	-4.26048	-0.13094	-4.70455	-0.76331
2193.000	-4.22509	-0.42854	-4.69277	-0.98534
2194.000	-4.09923	-0.56949	-4.66331	-1.23711
2195.000	-4.05005	-0.67866	-4.68688	-1.33615
2196.000	-4.06185	-0.79174	-4.74579	-1.52427
2197.000	-4.09529	-0.85519	-4.71241	-1.62341
2198.000	-4.03628	-0.89692	-4.67706	-1.77009
2199.000	-3.95168	-0.89701	-4.75168	-1.71840
2200.000	-4.04218	-0.99413	-4.65545	-1.77014
2201.000	-3.92610	-0.98236	-4.69473	-1.74825
2202.000	-3.91233	-0.92682	-4.57099	-1.72677
2203.000	-3.83164	-0.81974	-4.70259	-1.59966
2204.000	-3.81983	-0.83365	-4.64171	-1.57800
2205.000	-3.81393	-0.72648	-4.60242	-1.42748
2206.000	-3.77850	-0.63323	-4.68099	-1.33617
2207.000	-3.76865	-0.52009	-4.69080	-1.17166
2208.000	-3.79424	-0.41289	-4.69473	-1.09633
2209.000	-3.81786	-0.35531	-4.63974	-0.91008
2210.000	-3.79424	-0.25607	-4.69277	-0.80297
2211.000	-3.91626	-0.22825	-4.69080	-0.79901
2212.000	-3.91823	-0.19649	-4.72026	-0.64831
2213.000	-3.92610	-0.05756	-4.72615	-0.64236
2214.000	-3.99693	-0.10717	-4.80272	-0.69184
2215.000	-3.95168	-0.09725	-4.84983	-0.66008
2216.000	-3.95758	-0.13893	-4.75168	-0.70775
2217.000	-3.98119	-0.08137	-4.77916	-0.78106
2218.000	-3.93201	-0.16076	-4.84002	-0.90586
2219.000	-3.92217	-0.22626	-4.73793	-0.96347
2220.000	-3.86510	-0.27987	-4.75953	-1.07443
2221.000	-3.83754	-0.38111	-4.83020	-1.11197
2222.000	-3.82180	-0.38707	-4.73204	-1.20924
2223.000	-3.84739	-0.42080	-4.74579	-1.25281
2224.000	-3.81786	-0.53594	-4.72811	-1.35589
2225.000	-3.79031	-0.59947	-4.74186	-1.44701
2226.000	-3.73125	-0.59753	-4.73008	-1.35985
2227.000	-3.73322	-0.66105	-4.63581	-1.49281
2228.000	-3.71944	-0.66503	-4.64171	-1.45713
2229.000	-3.71550	-0.67297	-4.71437	-1.48471
2230.000	-3.69975	-0.70673	-4.66331	-1.52842
2231.000	-3.70369	-0.69283	-4.62992	-1.56217
2232.000	-3.71747	-0.75038	-4.61421	-1.56815
2233.000	-3.71944	-0.75237	-4.58671	-1.52264
2234.000	-3.71550	-0.74244	-4.68884	-1.52242
2235.000	-3.68597	-0.73254	-4.67706	-1.49668
2236.000	-3.69778	-0.76628	-4.67706	-1.49866
2237.000	-3.75881	-0.75035	-4.66135	-1.47294
2238.000	-3.71944	-0.78412	-4.64956	-1.47296
2239.000	-3.73913	-0.76227	-4.73204	-1.49458
2240.000	-3.65053	-0.71074	-4.69670	-1.41738
2241.000	-3.75094	-0.78013	-4.67313	-1.51452
2242.000	-3.71944	-0.74840	-4.71241	-1.43122
2243.000	-3.76669	-0.75629	-4.68099	-1.45506
2244.000	-3.74109	-0.74441	-4.69080	-1.44117
2245.000	-3.74700	-0.74837	-4.59849	-1.44929
2246.000	-3.73322	-0.75037	-4.71044	-1.46689
2247.000	-3.71156	-0.75833	-4.61617	-1.45123
2248.000	-3.73322	-0.73449	-4.65153	-1.41549
2249.000	-3.74503	-0.76028	-4.69473	-1.46890
2250.000	-3.70763	-0.71665	-4.62207	-1.46113
2251.000	-3.72928	-0.75633	-4.69866	-1.51447
2252.000	-3.70960	-0.71466	-4.65545	-1.54032
2253.000	-3.69778	-0.70474	-4.61617	-1.49681
2254.000	-3.74503	-0.76624	-4.65938	-1.45907
2255.000	-3.67613	-0.70476	-4.63581	-1.46506
2256.000	-3.72141	-0.67892	-4.61421	-1.42151
2257.000	-3.69778	-0.71864	-4.60439	-1.46315
2258.000	-3.71747	-0.76031	-4.67706	-1.45309
2259.000	-3.70960	-0.73848	-4.67509	-1.45508
2260.000	-3.74503	-0.74837	-4.66920	-1.37186
2261.000	-3.72928	-0.75434	-4.58867	-1.47903
2262.000	-3.69975	-0.71864	-4.64563	-1.45910
2263.000	-3.71747	-0.75038	-4.67313	-1.48678
2264.000	-3.74109	-0.70074	-4.66920	-1.45112
2265.000	-3.70566	-0.73451	-4.67313	-1.42932
2266.000	-3.67613	-0.72858	-4.64956	-1.47891
2267.000	-3.71156	-0.77024	-4.56510	-1.39584
2268.000	-3.73913	-0.74044	-4.62599	-1.50472
2269.000	-3.68991	-0.67895	-4.57099	-1.43745
2270.000	-3.69188	-0.70872	-4.61421	-1.42151
2271.000	-3.69975	-0.70077	-4.61224	-1.45322
2272.000	-3.68006	-0.71270	-4.56903	-1.48898
2273.000	-3.62887	-0.67701	-4.60242	-1.39577
2274.000	-3.68400	-0.76034	-4.57099	-1.47313
2275.000	-3.67219	-0.74050	-4.61421	-1.47700
2276.000	-3.66038	-0.73852	-4.59260	-1.44732
2277.000	-3.60130	-0.74651	-4.63581	-1.53442
2278.000	-3.69581	-0.71864	-4.64563	-1.56610
2279.000	-3.68794	-0.77621	-4.62207	-1.47302
2280.000	-3.70960	-0.76627	-4.59653	-1.55234
2281.000	-3.64462	-0.75838	-4.64367	-1.52648
2282.000	-3.70960	-0.79406	-4.61224	-1.48097
2283.000	-3.68597	-0.77621	-4.62992	-1.50075
2284.000	-3.66628	-0.76829	-4.59457	-1.54442
2285.000	-3.71550	-0.75435	-4.61224	-1.48097
2286.000	-3.67219	-0.78814	-4.66527	-1.60172
2287.000	-3.64069	-0.67700	-4.58278	-1.50679
2288.000	-3.68597	-0.76827	-4.58867	-1.48696
2289.000	-3.67810	-0.74049	-4.59260	-1.59396
2290.000	-3.65250	-0.73654	-4.65153	-1.53439
2291.000	-3.70172	-0.75040	-4.66920	-1.63936
2292.000	-3.62887	-0.81795	-4.66135	-1.59381
2293.000	-3.65053	-0.74051	-4.63974	-1.55423
2294.000	-3.69975	-0.78216	-4.59064	-1.56820
2295.000	-3.65447	-0.77624	-4.61814	-1.53842
2296.000	-3.65447	-0.77823	-4.66135	-1.55616
2297.000	-3.67810	-0.74049	-4.66724	-1.55417
2298.000	-3.67219	-0.77027	-4.67117	-1.52047
2299.000	-3.66825	-0.84570	-4.68295	-1.59772
2300.000	-3.68991	-0.78216	-4.69277	-1.56996
2301.000	-3.68400	-0.79209	-4.61617	-1.61768
2302.000	-3.68991	-0.80598	-4.60832	-1.59194
2303.000	-3.69188	-0.76628	-4.69080	-1.63336
2304.000	-3.69385	-0.78812	-4.64760	-1.59978
2305.000	-3.71156	-0.78016	-4.62010	-1.56814
2306.000	-3.64856	-0.79411	-4.61421	-1.56221
2307.000	-3.66825	-0.79608	-4.67313	-1.57397
2308.000	-3.65841	-0.75043	-4.62403	-1.56417
2309.000	-3.68597	-0.82981	-4.62010	-1.60777
2310.000	-3.69778	-0.75040	-4.60242	-1.57214
2311.000	-3.65841	-0.78418	-4.65349	-1.63147
2312.000	-3.75291	-0.77417	-4.60635	-1.64148
2313.000	-3.68006	-0.79805	-4.59849	-1.56819
2314.000	-3.68400	-0.79805	-4.66527	-1.61163
2315.000	-3.70763	-0.77818	-4.72026	-1.60754
2316.000	-3.69385	-0.81392	-4.65742	-1.56806
2317.000	-3.68991	-0.77819	-4.65545	-1.59184
2318.000	-3.67219	-0.76630	-4.64563	-1.53836
2319.000	-3.67219	-0.83379	-4.58082	-1.56228
2320.000	-3.69385	-0.80201	-4.53956	-1.60399
2321.000	-3.69581	-0.79407	-4.62010	-1.53842
2322.000	-3.64462	-0.78816	-4.73204	-1.59364
2323.000	-3.66431	-0.80204	-4.60832	-1.61770
2324.000	-3.68991	-0.78812	-4.60832	-1.52655
2325.000	-3.70566	-0.78612	-4.59653	-1.48298
2326.000	-3.65841	-0.76631	-4.70651	-1.57983
2327.000	-3.70960	-0.80597	-4.65349	-1.57599
2328.000	-3.66234	-0.76829	-4.66920	-1.52444
2329.000	-3.63281	-0.74251	-4.61421	-1.52654
2330.000	-3.63872	-0.78022	-4.62010	-1.50473
2331.000	-3.67416	-0.78416	-4.61028	-1.55231
2332.000	-3.66825	-0.78218	-4.58474	-1.52462
2333.000	-3.69188	-0.78216	-4.61421	-1.57013
2334.000	-3.68203	-0.75835	-4.61421	-1.56815
2335.000	-3.68203	-0.79607	-4.61421	-1.47700
2336.000	-3.63872	-0.74251	-4.58082	-1.52265
2337.000	-3.66628	-0.74050	-4.61814	-1.50870
2338.000	-3.68597	-0.84370	-4.54153	-1.55642
2339.000	-3.70369	-0.76230	-4.63189	-1.47498
2340.000	-3.68400	-0.76232	-4.51991	-1.50890
2341.000	-3.71944	-0.77420	-4.62403	-1.54237
2342.000	-3.67613	-0.78019	-4.54545	-1.46921
2343.000	-3.67810	-0.80202	-4.61814	-1.47105
2344.000	-3.70172	-0.80200	-4.55724	-1.55441
2345.000	-3.69778	-0.78017	-4.55724	-1.56431
2346.000	-3.69778	-0.73849	-4.60242	-1.55233
2347.000	-3.71156	-0.79802	-4.57885	-1.55832
2348.000	-3.71747	-0.78809	-4.54349	-1.52075
2349.000	-3.70172	-0.73849	-4.53170	-1.46924
2350.000	-3.68400	-0.79805	-4.51205	-1.52081
2351.000	-3.68794	-0.72063	-4.58278	-1.54048
2352.000	-3.70172	-0.74246	-4.60439	-1.51071
2353.000	-3.69975	-0.77025	-4.63189	-1.53443
2354.000	-3.65644	-0.74051	-4.57492	-1.52068
2355.000	-3.69581	-0.78811	-4.62599	-1.48094
2356.000	-3.66038	-0.77028	-4.58474	-1.51273
2357.000	-3.72338	-0.71862	-4.58082	-1.48698
2358.000	-3.72535	-0.73847	-4.60635	-1.52061
2359.000	-3.70172	-0.78811	-4.54938	-1.56433
2360.000	-3.69385	-0.78216	-4.53956	-1.56039
2361.000	-3.65250	-0.75441	-4.58671	-1.52858
2362.000	-3.64462	-0.71074	-4.58474	-1.57813
2363.000	-3.71353	-0.74046	-4.60439	-1.49089
2364.000	-3.69778	-0.76429	-4.58278	-1.49886
2365.000	-3.69188	-0.75636	-4.54742	-1.50092
2366.000	-3.64462	-0.79213	-4.61814	-1.44727
2367.000	-3.65447	-0.74646	-4.52384	-1.52277
2368.000	-3.69581	-0.75040	-4.52384	-1.49106
2369.000	-3.72928	-0.76625	-4.57099	-1.49889
2370.000	-3.65250	-0.73257	-4.49241	-1.57040
2371.000	-3.70172	-0.75437	-4.57296	-1.52267
2372.000	-3.68597	-0.76033	-4.59653	-1.51072
2373.000	-3.64856	-0.76831	-4.61421	-1.50078
2374.000	-3.69581	-0.72658	-4.66724	-1.55020
2375.000	-3.66234	-0.76035	-4.57492	-1.55040
2376.000	-3.66038	-0.72462	-4.59457	-1.57018
2377.000	-3.66234	-0.76432	-4.58082	-1.59002
2378.000	-3.65447	-0.77426	-4.61224	-1.48889
2379.000	-3.68203	-0.77225	-4.50223	-1.52678
2380.000	-3.70172	-0.78414	-4.59064	-1.60982
2381.000	-3.68006	-0.77820	-4.55724	-1.59008
2382.000	-3.67416	-0.76431	-4.58474	-1.63757
2383.000	-3.77456	-0.80194	-4.63385	-1.62359
2384.000	-3.70172	-0.75635	-4.58082	-1.57021
2385.000	-3.69188	-0.76430	-4.61814	-1.56814
2386.000	-3.68006	-0.77820	-4.53760	-1.68325
2387.000	-3.64856	-0.74448	-4.69277	-1.56005
2388.000	-3.64856	-0.80404	-4.61028	-1.60581
2389.000	-3.71353	-0.77817	-4.62207	-1.63550
2390.000	-3.75487	-0.76027	-4.63778	-1.56216
2391.000	-3.70172	-0.80200	-4.68099	-1.61357
2392.000	-3.69975	-0.80994	-4.59260	-1.60585
2393.000	-3.70369	-0.76032	-4.65153	-1.61166
2394.000	-3.74306	-0.75631	-4.57885	-1.52662
2395.000	-3.69188	-0.74048	-4.61421	-1.55428
2396.000	-3.72535	-0.79007	-4.59653	-1.70095
2397.000	-3.71550	-0.77817	-4.63581	-1.59783
2398.000	-3.74306	-0.81983	-4.59064	-1.64548
2399.000	-3.70960	-0.79207	-4.57492	-1.64552
2400.000	-3.71353	-0.79008	-4.60635	-1.59591
2401.000	-3.71944	-0.80000	-4.57296	-1.60986
2402.000	-3.69581	-0.75437	-4.64760	-1.63544
2403.000	-3.74700	-0.79005	-4.54153	-1.67928
2404.000	-3.73125	-0.80992	-4.67117	-1.61360
2405.000	-3.73716	-0.76624	-4.58082	-1.63560
2406.000	-3.74503	-0.79601	-4.56117	-1.60592
2407.000	-3.77456	-0.75827	-4.58867	-1.64945
2408.000	-3.73519	-0.80396	-4.66331	-1.61163
2409.000	-3.77259	-0.78209	-4.54545	-1.69909
2410.000	-3.72141	-0.81191	-4.58474	-1.65540
2411.000	-3.73519	-0.78411	-4.62207	-1.63748
2412.000	-3.73716	-0.85358	-4.52581	-1.57033
2413.000	-3.79424	-0.77215	-4.54545	-1.58416
2414.000	-3.77259	-0.81782	-4.46097	-1.49515
2415.000	-3.66431	-0.78814	-4.25851	-1.51141
2416.000	-3.47920	-0.76249	-4.03431	-1.46623
2417.000	-3.30780	-0.78050	-3.88478	-1.43873
2418.000	-2.99835	-0.80854	-3.55010	-1.45713
2419.000	-2.57035	-0.80883	-3.16197	-1.40609
2420.000	-2.05125	-0.77534	-2.68873	-1.25773
2421.000	-1.62269	-0.81728	-2.25065	-1.24026
2422.000	-1.05758	-0.70212	-1.60886	-1.19302
2423.000	-0.51796	-0.69425	-1.04572	-1.00042
2424.000	0.11862	-0.60278	-0.43493	-0.94885
2425.000	0.68401	-0.60273	0.21945	-0.95086
2426.000	1.32831	-0.42959	0.83819	-0.88911
2427.000	1.81626	-0.40762	1.37771	-0.78555
2428.000	2.35526	-0.33990	1.90908	-0.65214
2429.000	2.84060	-0.21261	2.45196	-0.63005
2430.000	3.39646	-0.19859	2.97666	-0.63573
2431.000	3.85919	-0.15681	3.49101	-0.57982
2432.000	4.29783	-0.10118	3.88675	-0.55971
2433.000	4.70848	-0.04759	4.33322	-0.59510
2434.000	5.11864	-0.01189	4.59849	-0.62463
2435.000	5.42641	0.04753	4.80076	-0.63040
2436.000	5.73973	0.05542	5.18728	-0.66766
2437.000	6.07226	0.08309	5.37350	-0.62191
2438.000	6.39267	0.10478	5.56940	-0.63953
2439.000	6.71072	0.15411	6.01361	-0.66474
2440.000	7.04394	0.13031	6.21493	-0.76732
2441.000	7.38446	0.07892	6.38681	-0.64846
2442.000	7.73222	0.06308	6.86667	-0.69720
2443.000	8.07941	-0.06894	7.03615	-0.78973
2444.000	8.44148	-0.09446	7.34557	-0.80103
2445.000	8.79707	-0.17694	7.65456	-0.76892
2446.000	9.13272	-0.23374	7.89328	-0.79213
2447.000	9.44272	-0.31792	8.35634	-0.89158
2448.000	9.75217	-0.39017	8.56524	-0.86159
2449.000	10.00737	-0.41338	8.72369	-0.85926
2450.000	10.24686	-0.43852	8.92832	-0.75661
2451.000	10.39802	-0.46374	9.15970	-0.87394
2452.000	10.52420	-0.35989	9.30800	-0.78525
2453.000	10.60827	-0.31482	9.31763	-0.78523
2454.000	10.66365	-0.18769	9.38307	-0.69677
2455.000	10.68847	-0.09579	9.33881	-0.67919
2456.000	10.65792	0.03910	9.37730	-0.57902
2457.000	10.60254	0.14470	9.34843	-0.46522
2458.000	10.46304	0.16825	9.34458	-0.46523
2459.000	10.32341	0.29945	9.40424	-0.42394
2460.000	10.18175	0.31134	9.16355	-0.43405
2461.000	10.03038	0.38984	9.06140	-0.33202
2462.000	9.83088	0.37636	8.97847	-0.33995
2463.000	9.71376	0.37845	8.92832	-0.30069
2464.000	9.66574	0.37458	8.91481	-0.34984
2465.000	9.59079	0.31974	8.90709	-0.32626
2466.000	9.53312	0.28644	8.91288	-0.37146
2467.000	9.51004	0.25703	8.94568	-0.37732
2468.000	9.50427	0.20798	8.93796	-0.44807
2469.000	9.58502	0.11574	8.98040	-0.48339
2470.000	9.66189	0.03726	9.04983	-0.47348
2471.000	9.78481	0.00784	9.13464	-0.50282
2472.000	9.87694	0.03136	9.22905	-0.45557
2473.000	10.00929	-0.00784	9.21171	-0.59893
2474.000	10.16068	-0.03721	9.35421	-0.54373
2475.000	10.26983	-0.00587	9.40617	-0.52206
2476.000	10.42480	-0.01761	9.47158	-0.49645
2477.000	10.51083	-0.05673	9.61578	-0.56881
2478.000	10.59681	-0.03324	9.68303	-0.63145
2479.000	10.67128	-0.04888	9.55811	-0.52968
2480.000	10.71137	-0.02932	9.73489	-0.49215
2481.000	10.75718	-0.03323	9.66574	-0.53735
2482.000	10.74000	-0.03909	9.66382	-0.55893
2483.000	10.75145	-0.01955	9.65805	-0.58247
2484.000	10.73428	0.01759	9.63884	-0.48444
2485.000	10.76481	0.04104	9.64844	-0.52169
2486.000	10.69992	0.02737	9.58887	-0.52178
2487.000	10.68656	0.03714	9.60809	-0.52175
2488.000	10.64646	0.00391	9.60617	-0.50803
2489.000	10.60445	0.05475	9.61385	-0.51390
2490.000	10.56624	0.04498	9.49658	-0.55724
2491.000	10.57579	0.03911	9.52350	-0.47087
2492.000	10.49936	0.07433	9.39270	-0.45928
2493.000	10.48407	0.08803	9.44849	-0.53573
2494.000	10.49362	0.07629	9.39077	-0.52012
2495.000	10.45157	0.05087	9.38885	-0.48283
2496.000	10.43436	0.03717	9.36190	-0.50839
2497.000	10.42671	0.00196	9.52158	-0.45910
2498.000	10.44774	0.00978	9.40232	-0.49655
2499.000	10.40567	-0.00587	9.31571	-0.38282
2500.000	10.41141	0.01761	9.33688	-0.44168
2501.000	10.41524	0.03718	9.40232	-0.49655
2502.000	10.39802	0.05479	9.32726	-0.49666
2503.000	10.40567	0.00391	9.30993	-0.47705
2504.000	10.38655	0.02348	9.29838	-0.40836
2505.000	10.43053	0.03913	9.23098	-0.40058
2506.000	10.39037	0.03131	9.32533	-0.43777
2507.000	10.40759	0.04109	9.30993	-0.48687
2508.000	10.41715	0.08414	9.35036	-0.44167
2509.000	10.44583	0.05869	9.35036	-0.52214
2510.000	10.46495	-0.02348	9.35228	-0.44363
2511.000	10.42671	0.05674	9.33881	-0.40046
2512.000	10.44583	0.00978	9.26372	-0.43785
2513.000	10.44774	0.05674	9.27142	-0.38876
2514.000	10.44010	0.06456	9.25216	-0.45554
2515.000	10.41332	0.04109	9.32533	-0.43777
2516.000	10.43245	0.04109	9.39270	-0.42591
2517.000	10.42097	-0.01761	9.27142	-0.49478
2518.000	10.39229	0.02152	9.31186	-0.48098
2519.000	10.44392	0.00000	9.27720	-0.37893
2520.000	10.46877	-0.03717	9.30608	-0.40246
2521.000	10.46113	-0.05282	9.27912	-0.51243
2522.000	10.46686	0.00196	9.32918	-0.48684
2523.000	10.46304	0.00587	9.32341	-0.43189
2524.000	10.47260	0.00587	9.41386	-0.44159
2525.000	10.47069	0.02934	9.32918	-0.46132
2526.000	10.43627	-0.01565	9.26372	-0.43785
2527.000	10.48980	0.03717	9.25987	-0.48105
2528.000	10.50318	0.02152	9.36768	-0.48090
2529.000	10.47642	0.03717	9.32533	-0.41814
2530.000	10.49745	0.02934	9.31571	-0.43190
2531.000	10.51656	0.04694	9.32918	-0.49666
2532.000	10.53567	0.00391	9.30223	-0.39854
2533.000	10.49936	0.04108	9.32148	-0.47311
2534.000	10.48980	0.01369	9.37153	-0.38276
2535.000	10.52038	0.01369	9.32533	-0.43385
2536.000	10.52612	0.00391	9.32726	-0.39458
2537.000	10.48216	0.02739	9.32533	-0.52611
2538.000	10.51656	-0.00587	9.38115	-0.38863
2539.000	10.48598	-0.00196	9.37153	-0.52408
2540.000	10.52420	-0.01760	9.34266	-0.43971
2541.000	10.49362	0.00196	9.35998	-0.38670
2542.000	10.49745	-0.03521	9.34651	-0.52804
2543.000	10.53185	0.02738	9.29068	-0.47904
2544.000	10.48789	0.03130	9.35613	-0.50054
2545.000	10.48789	-0.02347	9.40039	-0.50833
2546.000	10.48980	0.02152	9.40617	-0.51225
2547.000	10.51274	0.00978	9.47735	-0.49252
2548.000	10.51083	0.03521	9.39462	-0.47105
2549.000	10.53376	0.00782	9.42541	-0.45727
2550.000	10.52420	0.00196	9.29453	-0.52223
2551.000	10.48216	0.02152	9.46388	-0.49646
2552.000	10.50892	0.03717	9.30800	-0.43779
2553.000	10.50700	0.04499	9.42926	-0.46119
2554.000	10.48789	0.05869	9.33688	-0.45150
2555.000	10.49171	0.05477	9.34073	-0.50449
2556.000	10.45539	0.08413	9.36768	-0.40631
2557.000	10.51274	-0.00782	9.32533	-0.45544
2558.000	10.50127	0.09781	9.31956	-0.48882
2559.000	10.48216	0.00782	9.31186	-0.41816
2560.000	10.48789	0.02347	9.34073	-0.48290
2561.000	10.51465	0.04694	9.33496	-0.46524
2562.000	10.47642	0.00000	9.31763	-0.46919
2563.000	10.48024	0.02934	9.24638	-0.52426
2564.000	10.47260	0.04499	9.38692	-0.51620
2565.000	10.55096	0.03129	9.30608	-0.45743
2566.000	10.50318	0.06064	9.35036	-0.42793
2567.000	10.47260	0.03717	9.31186	-0.50257
2568.000	10.49936	0.01761	9.39270	-0.40040
2569.000	10.48598	0.04695	9.42541	-0.42391
2570.000	10.51847	0.02543	9.34266	-0.49271
2571.000	10.44201	0.00783	9.26949	-0.47122
2572.000	10.50318	0.06651	9.27142	-0.52226
2573.000	10.47642	0.09586	9.29838	-0.43388
2574.000	10.48980	0.03521	9.29645	-0.49278
2575.000	10.49362	0.05282	9.30030	-0.47510
2576.000	10.50127	0.05673	9.36768	-0.37491
2577.000	10.49554	0.04108	9.29260	-0.43192
2578.000	10.51274	0.05477	9.31571	-0.52220
2579.000	10.51847	0.05672	9.28490	-0.44764
2580.000	10.50509	0.04303	9.38307	-0.42592
2581.000	10.50700	0.03325	9.34458	-0.49271
2582.000	10.51847	0.08998	9.32341	-0.44170
2583.000	10.50700	0.02543	9.28105	-0.43194
2584.000	10.54331	0.03325	9.28490	-0.42408
2585.000	10.53567	0.06846	9.25601	-0.40055
2586.000	10.52229	0.07824	9.42156	-0.46709
2587.000	10.52612	0.02934	9.26564	-0.39073
2588.000	10.50509	0.03521	9.36383	-0.42398
2589.000	10.53758	0.03716	9.31378	-0.42012
2590.000	10.49936	0.06651	9.28105	-0.57133
2591.000	10.52038	0.07042	9.28105	-0.43586
2592.000	10.56624	0.08996	9.29838	-0.36713
2593.000	10.54905	0.03325	9.40039	-0.53581
2594.000	10.51083	0.03912	9.33303	-0.39654
2595.000	10.57388	0.03129	9.30608	-0.50062
2596.000	10.55096	0.09975	9.33303	-0.44758
2597.000	10.53567	0.01565	9.34651	-0.44167
2598.000	10.54522	0.03912	9.31763	-0.44367
2599.000	10.60254	0.07235	9.25024	-0.42020
2600.000	10.55287	0.04107	9.32148	-0.48685
2601.000	10.56242	0.02934	9.34073	-0.46327
2602.000	10.55478	0.05281	9.33881	-0.49468
2603.000	10.52229	0.08802	9.28297	-0.48102
2604.000	10.51274	0.04499	9.35998	-0.43577
2605.000	10.56433	0.07041	9.30223	-0.52025
2606.000	10.50127	0.04303	9.37345	-0.43967
2607.000	10.53376	0.08410	9.42733	-0.45334
2608.000	10.54140	0.05476	9.28875	-0.49672
2609.000	10.51083	0.02738	9.27527	-0.44765
2610.000	10.51847	0.10562	9.33688	-0.42794
2611.000	10.53758	0.02347	9.37538	-0.48678
2612.000	10.52994	0.05672	9.29453	-0.43977
2613.000	10.61018	0.06844	9.33688	-0.51824
2614.000	10.57770	0.02933	9.37730	-0.40827
2615.000	10.56242	0.07236	9.32533	-0.48292
2616.000	10.56624	0.06454	9.27912	-0.52225
2617.000	10.57962	0.04693	9.40617	-0.45533
2618.000	10.56433	0.03716	9.40809	-0.47496
2619.000	10.52803	0.04499	9.33303	-0.52413
2620.000	10.53567	0.04694	9.31378	-0.55361
2621.000	10.54714	0.09388	9.30030	-0.43388
2622.000	10.54140	0.05672	9.30223	-0.55952
2623.000	10.50700	0.01760	9.30800	-0.57717
2624.000	10.54331	0.05476	9.41001	-0.51028
2625.000	10.51656	0.05868	9.37538	-0.48874
2626.000	10.51083	-0.03521	9.31763	-0.48293
2627.000	10.53376	0.08215	9.34651	-0.55356
2628.000	10.53949	0.06454	9.36768	-0.52408
2629.000	10.56624	-0.01956	9.38885	-0.54564
2630.000	10.58344	0.07236	9.41964	-0.51027
2631.000	10.54140	0.03716	9.32341	-0.52807
2632.000	10.56624	0.02347	9.31378	-0.53594
2633.000	10.58153	0.07431	9.34073	-0.55553
2634.000	10.55669	0.00196	9.38307	-0.47303
2635.000	10.55669	0.07041	9.40617	-0.48085
2636.000	10.54140	0.08410	9.35998	-0.52409
2637.000	10.56624	0.04889	9.36190	-0.52605
2638.000	10.55669	0.04889	9.36960	-0.57903
2639.000	10.52612	0.03130	9.34458	-0.46719
2640.000	10.55096	0.04303	9.40617	-0.52795
2641.000	10.51083	0.08020	9.39655	-0.47301
2642.000	10.58535	0.07040	9.33111	-0.47703
2643.000	10.56242	0.09387	9.36768	-0.51230
2644.000	10.55478	0.09388	9.34843	-0.51430
2645.000	10.54905	0.06650	9.28683	-0.49279
2646.000	10.57579	0.08409	9.36960	-0.45538
2647.000	10.55669	0.04107	9.29645	-0.50456
2648.000	10.59299	0.09191	9.29068	-0.57328
2649.000	10.61018	0.07235	9.35036	-0.51429
2650.000	10.55669	0.02347	9.25024	-0.46928
2651.000	10.56242	0.07627	9.29453	-0.50456
2652.000	10.58153	0.03129	9.41771	-0.48476
2653.000	10.58153	0.03325	9.46965	-0.44348
2654.000	10.56624	0.04498	9.38500	-0.48088
2655.000	10.56433	0.04889	9.39655	-0.56329
2656.000	10.55096	0.05281	9.39462	-0.45142
2657.000	10.59299	0.02151	9.35613	-0.52017
2658.000	10.60254	0.03324	9.36383	-0.55942
2659.000	10.53567	0.05281	9.32341	-0.50648
2660.000	10.58153	0.07236	9.33303	-0.52413
2661.000	10.54714	0.05085	9.41964	-0.50438
2662.000	10.52994	0.04499	9.36960	-0.56137
2663.000	10.52612	0.04694	9.38885	-0.53583
2664.000	10.56433	-0.02151	9.29260	-0.50849
2665.000	10.54714	-0.00391	9.31571	-0.48097
2666.000	10.51465	0.03716	9.39462	-0.42198
2667.000	10.54331	0.03325	9.34458	-0.41812
2668.000	10.57579	0.03911	9.31763	-0.49667
2669.000	10.54905	0.06063	9.37153	-0.46716
2670.000	10.55669	0.02542	9.37153	-0.58099
2671.000	10.59681	0.07235	9.29068	-0.52812
2672.000	10.56815	0.07627	9.35228	-0.49859
2673.000	10.57770	0.03325	9.23483	-0.50465
2674.000	10.55669	0.02542	9.28875	-0.48494
2675.000	10.54905	0.04498	9.38692	-0.54368
2676.000	10.55287	0.07236	9.41001	-0.50832
2677.000	10.55478	0.05476	9.40039	-0.49656
2678.000	10.61400	0.04888	9.37730	-0.48481
2679.000	10.55860	0.00587	9.36190	-0.51820
2680.000	10.54905	0.00782	9.41001	-0.56915
2681.000	10.56051	0.04303	9.35805	-0.44558
2682.000	10.52038	0.05281	9.35805	-0.48680
2683.000	10.52612	0.00587	9.37538	-0.52800
2684.000	10.53376	0.02738	9.33881	-0.51627
2685.000	10.54714	-0.00782	9.36575	-0.52016
2686.000	10.55478	-0.01173	9.43887	-0.53379
2687.000	10.53376	0.05672	9.31956	-0.51826
2688.000	10.51274	-0.02152	9.30415	-0.54970
2689.000	10.55860	0.00782	9.35613	-0.56139
2690.000	10.58344	0.02933	9.35613	-0.61635
2691.000	10.54331	0.00978	9.27720	-0.57526
2692.000	10.53376	0.01565	9.34651	-0.63992
2693.000	10.55669	-0.00782	9.32148	-0.56930
2694.000	10.55478	-0.01956	9.32341	-0.56930
2695.000	10.56433	-0.01760	9.23290	-0.54588
2696.000	10.58344	0.01369	9.29068	-0.51045
2697.000	10.57197	0.01760	9.35613	-0.56728
2698.000	10.55478	-0.01369	9.38115	-0.51425
2699.000	10.54331	0.05672	9.33688	-0.53002
2700.000	10.57006	-0.01369	9.30223	-0.52614
2701.000	10.53376	0.00782	9.30030	-0.50063
2702.000	10.54331	-0.01760	9.38500	-0.54761
2703.000	10.54331	-0.02347	9.30030	-0.65767
2704.000	10.53185	0.00000	9.32726	-0.54181
2705.000	10.55096	0.03325	9.34458	-0.49075
2706.000	10.55478	0.00978	9.33881	-0.54179
2707.000	10.55860	0.00782	9.34458	-0.56534
2708.000	10.55096	0.04107	9.31956	-0.53789
2709.000	10.51847	0.00587	9.28297	-0.57525
2710.000	10.53376	0.00391	9.39270	-0.51031
2711.000	10.54331	0.04107	9.27720	-0.52618
2712.000	10.53758	0.00391	9.27335	-0.61453
2713.000	10.51656	-0.02152	9.32918	-0.46918
2714.000	10.56242	-0.00978	9.31956	-0.49863
2715.000	10.55096	-0.04498	9.22520	-0.45950
2716.000	10.55096	-0.01173	9.19245	-0.45954
2717.000	10.55287	-0.03716	9.37153	-0.52211
2718.000	10.54905	-0.02738	9.24061	-0.54980
2719.000	10.52229	-0.01760	9.32533	-0.55555
2720.000	10.55096	-0.00587	9.29645	-0.45744
2721.000	10.54522	-0.05868	9.30993	-0.49669
2722.000	10.53567	0.01760	9.28875	-0.53598
2723.000	10.57006	-0.00587	9.25794	-0.52817
2724.000	10.54140	0.01760	9.33881	-0.51431
2725.000	10.54905	0.00196	9.27720	-0.53600
2726.000	10.52994	0.00782	9.21749	-0.48700
2727.000	10.57197	-0.00782	9.20786	-0.48308
2728.000	10.55478	0.01173	9.22327	-0.48110
2729.000	10.56433	-0.00587	9.16933	-0.59115
2730.000	10.59108	0.00587	9.21749	-0.57536
2731.000	10.58535	-0.00587	9.22712	-0.49484
2732.000	10.58153	0.00000	9.23290	-0.49287
2733.000	10.58344	-0.00978	9.24831	-0.56745
2734.000	10.57197	0.00587	9.24831	-0.43002
2735.000	10.57006	-0.03716	9.23290	-0.54195
2736.000	10.53567	-0.03716	9.29260	-0.56149
2737.000	10.54331	-0.01956	9.25987	-0.49283
2738.000	10.57197	0.01760	9.21364	-0.51449
2739.000	10.58535	-0.00196	9.23098	-0.58712
2740.000	10.55669	-0.03129	9.23290	-0.48501
2741.000	10.56242	-0.00391	9.21749	-0.51056
2742.000	10.55669	-0.03325	9.28105	-0.63808
2743.000	10.54714	-0.00978	9.32341	-0.61837
2744.000	10.58153	-0.01564	9.23290	-0.52625
2745.000	10.58344	0.01760	9.37153	-0.58688
2746.000	10.56815	0.00587	9.19630	-0.60288
2747.000	10.57006	0.01760	9.29068	-0.54972
2748.000	10.56242	0.01760	9.30415	-0.58503
2749.000	10.59681	0.00196	9.21942	-0.56161
2750.000	10.61400	-0.01369	9.37153	-0.57707
2751.000	10.58535	-0.03129	9.22712	-0.45949
2752.000	10.58535	0.00978	9.18667	-0.54399
2753.000	10.58344	0.00587	9.17896	-0.49491
2754.000	10.55669	0.03716	9.35036	-0.52803
2755.000	10.56624	0.00196	9.27335	-0.53993
2756.000	10.52038	-0.00978	9.23098	-0.54392
2757.000	10.53376	-0.01565	9.25987	-0.51639
2758.000	10.54140	-0.01956	9.20401	-0.51254
2759.000	10.56051	-0.03129	9.27527	-0.57134
2760.000	10.57197	-0.02151	9.26179	-0.55369
2761.000	10.57388	-0.05867	9.21749	-0.55180
2762.000	10.57006	-0.03325	9.27527	-0.57723
2763.000	10.58344	-0.03716	9.24061	-0.54391
2764.000	10.59108	-0.03324	9.25601	-0.47713
2765.000	10.59490	-0.05671	9.22327	-0.56553
2766.000	10.55669	0.01173	9.27912	-0.45943
2767.000	10.57388	0.00000	9.20401	-0.52629
2768.000	10.59108	-0.01564	9.23868	-0.47911
2769.000	10.57197	0.01565	9.25216	-0.49677
2770.000	10.57197	-0.04889	9.28297	-0.51636
2771.000	10.59299	0.02933	9.24638	-0.51248
2772.000	10.54140	-0.03912	9.26757	-0.52619
2773.000	10.53949	-0.02934	9.27912	-0.55563
2774.000	10.55860	-0.00978	9.34843	-0.53392
2775.000	10.55860	-0.01369	9.33303	-0.47506
2776.000	10.51465	-0.08607	9.23675	-0.53802
2777.000	10.59299	-0.01369	9.29453	-0.47315
2778.000	10.55096	-0.02151	9.23868	-0.56354
2779.000	10.52994	-0.00978	9.31378	-0.52220
2780.000	10.57962	-0.03325	9.30800	-0.60073
2781.000	10.58917	0.02347	9.25601	-0.57333
2782.000	10.55287	0.00000	9.20016	-0.43597
2783.000	10.57388	0.05280	9.26949	-0.57527
2784.000	10.56624	0.05085	9.21557	-0.47326
2785.000	10.56242	0.02934	9.24446	-0.53997
2786.000	10.56815	-0.03520	9.27912	-0.44568
2787.000	10.57579	0.01565	9.21942	-0.47325
2788.000	10.51274	-0.00587	9.23290	-0.53606
2789.000	10.60254	0.00782	9.25409	-0.51640
2790.000	10.54331	0.00587	9.34651	-0.53000
2791.000	10.57962	0.00978	9.31378	-0.51631
2792.000	10.52994	0.01369	9.28297	-0.53991
2793.000	10.56242	0.01565	9.30800	-0.54184
2794.000	10.52038	0.04303	9.28875	-0.48297
2795.000	10.55287	-0.01956	9.22905	-0.49876
2796.000	10.53185	0.00782	9.22135	-0.48503
2797.000	10.54522	0.00978	9.25794	-0.52425
2798.000	10.55287	0.00978	9.25601	-0.53014
2799.000	10.51083	0.02738	9.25601	-0.58708
2800.000	10.52229	0.00000	9.27335	-0.45943
2801.000	10.49936	0.00587	9.31378	-0.54183
2802.000	10.50127	0.05868	9.22327	-0.49681
2803.000	10.54714	-0.00978	9.30993	-0.47313
2804.000	10.57197	0.01565	9.25601	-0.53210
2805.000	10.51083	0.04499	9.22327	-0.57731
2806.000	10.55096	0.02347	9.26372	-0.45945
2807.000	10.55669	-0.00587	9.18089	-0.44384
2808.000	10.54140	0.01760	9.22135	-0.53215
2809.000	10.54522	0.01956	9.28490	-0.48494
2810.000	10.58344	0.01760	9.24061	-0.46929
2811.000	10.53949	0.02543	9.24253	-0.46733
2812.000	10.55860	-0.01956	9.21557	-0.50664
2813.000	10.58153	0.00000	9.35421	-0.44755
2814.000	10.56815	0.01760	9.23290	-0.49876
2815.000	10.58344	0.00587	9.25409	-0.57726
2816.000	10.56624	-0.03129	9.24446	-0.46144
2817.000	10.54331	0.00978	9.28105	-0.50654
2818.000	10.56051	0.02151	9.23868	-0.52427
2819.000	10.59681	0.00978	9.33496	-0.48683
2820.000	10.51847	-0.00587	9.27335	-0.50263
2821.000	10.54714	0.01173	9.22520	-0.53411
2822.000	10.53949	0.01174	9.23290	-0.48894
2823.000	10.54331	0.04107	9.16933	-0.55580
2824.000	10.56815	-0.00587	9.23290	-0.52036
2825.000	10.55096	-0.01565	9.30993	-0.50257
2826.000	10.53758	0.00587	9.24831	-0.57727
2827.000	10.59681	0.00000	9.34843	-0.48289
2828.000	10.57770	0.00587	9.26372	-0.53013
2829.000	10.56624	0.00391	9.23290	-0.43789
2830.000	10.59299	0.00391	9.15199	-0.58528
2831.000	10.57197	0.00196	9.27335	-0.44176
2832.000	10.57006	0.05085	9.26179	-0.57332
2833.000	10.56624	0.02347	9.30415	-0.43976
2834.000	10.52420	0.06650	9.25987	-0.54977
2835.000	10.56624	0.02934	9.21749	-0.41827
2836.000	10.57197	0.02542	9.22520	-0.52429
2837.000	10.52420	0.03130	9.22520	-0.46342
2838.000	10.56433	0.00000	9.21171	-0.51646
2839.000	10.57579	0.02738	9.24061	-0.49678
2840.000	10.52994	0.01565	9.21171	-0.46737
2841.000	10.54140	-0.01565	9.33688	-0.49468
2842.000	10.58726	-0.03129	9.27720	-0.51244
2843.000	10.57770	0.03716	9.18474	-0.48508
2844.000	10.56815	-0.00196	9.24446	-0.46340
2845.000	10.61018	0.02347	9.20594	-0.50665
2846.000	10.51083	0.02347	9.21942	-0.52823
2847.000	10.57579	-0.06062	9.28297	-0.49476
2848.000	10.55860	-0.01369	9.35613	-0.50840
2849.000	10.57388	0.00782	9.28490	-0.53206
2850.000	10.55096	0.00782	9.25409	-0.47909
2851.000	10.54331	-0.01760	9.21749	-0.42809
2852.000	10.52420	-0.00391	9.26179	-0.45552
2853.000	10.55096	0.04889	9.23290	-0.53606
2854.000	10.53376	0.00391	9.18667	-0.47133
2855.000	10.57006	0.01369	9.23290	-0.54195
2856.000	10.53758	0.02543	9.24638	-0.53997
2857.000	10.50318	-0.02543	9.25024	-0.49284
2858.000	10.53567	0.03129	9.21171	-0.47719
2859.000	10.54522	0.05281	9.26179	-0.47712
2860.000	10.56242	0.05280	9.26179	-0.41822
2861.000	10.51847	0.07628	9.24446	-0.40253
2862.000	10.53376	0.07041	9.22905	-0.49876
2863.000	10.51465	0.05281	9.26372	-0.46337
2864.000	10.55860	0.10365	9.23483	-0.46145
2865.000	10.55478	0.03520	9.32148	-0.43778
2866.000	10.53949	0.03521	9.14621	-0.43210
2867.000	10.53567	0.06846	9.25409	-0.52032
2868.000	10.56051	0.07823	9.23290	-0.41629
2869.000	10.52803	0.04890	9.17318	-0.40850
2870.000	10.51847	0.05477	9.22135	-0.44968
2871.000	10.52994	0.04303	9.05754	-0.34970
2872.000	10.53567	0.04303	9.24061	-0.47126
2873.000	10.52229	0.05086	9.17318	-0.43403
2874.000	10.52803	0.03325	9.13657	-0.40658
2875.000	10.48789	0.07434	9.23483	-0.50268
2876.000	10.52229	0.04303	9.25216	-0.46143
2877.000	10.51847	0.05672	9.22327	-0.41237
2878.000	10.53949	0.07041	9.19245	-0.41634
2879.000	10.48789	-0.01565	9.21557	-0.47915
2880.000	10.52994	0.01565	9.16933	-0.45564
2881.000	10.48598	0.03326	9.18282	-0.44581
2882.000	10.46495	-0.00978	9.20979	-0.51057
2883.000	10.48216	0.03130	9.17896	-0.41439
2884.000	10.50509	0.04499	9.20594	-0.45756
2885.000	10.56242	0.03911	9.18860	-0.48900
2886.000	10.57197	-0.01565	9.16740	-0.50474
2887.000	10.55478	0.03129	9.18474	-0.55381
2888.000	10.51083	0.04108	9.17511	-0.47135
2889.000	10.55669	0.04303	9.23098	-0.43396
2890.000	10.56433	0.06845	9.13850	-0.40854
2891.000	10.55860	0.03325	9.19823	-0.35153
2892.000	10.51847	0.03912	9.15006	-0.50477
2893.000	10.50700	0.01760	9.23483	-0.49286
2894.000	10.52994	-0.00782	9.23290	-0.53410
2895.000	10.51274	-0.00196	9.23868	-0.46930
2896.000	10.51274	0.02934	9.21171	-0.50468
2897.000	10.52803	-0.01956	9.18667	-0.46151
2898.000	10.53567	0.03521	9.19052	-0.48311
2899.000	10.49362	0.00196	9.23290	-0.45360
2900.000	10.55096	0.05867	9.21364	-0.43988
2901.000	10.54140	0.02151	9.24253	-0.48696
2902.000	10.53567	0.07824	9.13850	-0.49889
2903.000	10.55860	0.07041	9.20594	-0.51058
2904.000	10.57388	0.03129	9.22712	-0.48698
2905.000	10.55478	0.01760	9.20979	-0.50075
2906.000	10.55287	0.09779	9.23098	-0.43004
2907.000	10.58153	0.05085	9.22327	-0.43397
2908.000	10.53758	0.03716	9.27142	-0.46925
2909.000	10.58535	0.02347	9.23675	-0.45556
2910.000	10.58344	0.06649	9.18282	-0.39475
2911.000	10.52994	0.04303	9.16355	-0.41637
2912.000	10.55287	0.02738	9.18474	-0.46937
2913.000	10.53758	-0.01956	9.20979	-0.52235
2914.000	10.52803	0.01174	9.26564	-0.43392
2915.000	10.54522	0.04303	9.21364	-0.51449
2916.000	10.53567	0.03521	9.19245	-0.46347
2917.000	10.53567	0.02934	9.18860	-0.37706
2918.000	10.52612	0.03325	9.30030	-0.47510
2919.000	10.54140	-0.00587	9.14043	-0.40265
2920.000	10.51656	0.01565	9.19052	-0.39081
2921.000	10.54714	0.05476	9.22135	-0.43005
2922.000	10.57770	-0.01956	9.18474	-0.43009
2923.000	10.56624	0.01565	9.18667	-0.41634
2924.000	10.56815	0.01760	9.19630	-0.43990
2925.000	10.55287	0.02151	9.18667	-0.46740
2926.000	10.55096	0.05476	9.18860	-0.45954
2927.000	10.56815	0.00587	9.24061	-0.54980
2928.000	10.52803	0.00782	9.30030	-0.49866
2929.000	10.56051	0.05085	9.19630	-0.37509
2930.000	10.53567	0.03912	9.25987	-0.37699
2931.000	10.54714	0.03520	9.25987	-0.51443
2932.000	10.50700	0.02739	9.26179	-0.51050
2933.000	10.53376	0.06063	9.29260	-0.42014
2934.000	10.54714	0.07628	9.13657	-0.47925
2935.000	10.54522	0.05281	9.25024	-0.48499
2936.000	10.55096	0.06259	9.21749	-0.46933
2937.000	10.56242	0.03129	9.18667	-0.49490
2938.000	10.55860	0.03912	9.32918	-0.50255
2939.000	10.56815	-0.01760	9.26564	-0.44374
2940.000	10.55669	0.03325	9.28875	-0.53991
2941.000	10.52803	0.04499	9.22905	-0.49091
2942.000	10.60445	0.05475	9.29260	-0.43978
2943.000	10.59872	0.04889	9.32148	-0.47311
2944.000	10.61400	0.03520	9.29068	-0.46334
2945.000	10.54331	0.11931	9.24831	-0.40645
2946.000	10.58726	0.00782	9.26564	-0.49086
2947.000	10.56051	0.00000	9.26949	-0.47515
2948.000	10.55669	0.07041	9.25601	-0.47516
2949.000	10.55669	0.01956	9.24061	-0.53016
2950.000	10.53567	0.03912	9.26757	-0.47319
2951.000	10.54714	0.03325	9.30030	-0.45351
2952.000	10.60063	0.01955	9.26757	-0.44963
2953.000	10.55669	0.03520	9.33881	-0.41616
2954.000	10.55860	0.05281	9.27912	-0.43587
2955.000	10.63501	-0.02933	9.21557	-0.50664
2956.000	10.60636	-0.03129	9.27335	-0.45551
2957.000	10.59490	0.01369	9.22712	-0.49680
2958.000	10.61400	-0.00587	9.25024	-0.44572
2959.000	10.62928	-0.00978	9.26949	-0.44570
2960.000	10.61973	0.03715	9.23290	-0.46734
2961.000	10.59872	0.07235	9.22520	-0.44182
2962.000	10.62546	0.08017	9.16933	-0.48117
2963.000	10.56815	0.02347	9.17511	-0.41243
2964.000	10.56624	0.05280	9.10573	-0.39090
2965.000	10.45157	0.04891	9.07104	-0.47345
2966.000	10.35594	0.05284	9.05947	-0.45185
2967.000	10.15110	0.07442	8.93411	-0.54437
2968.000	9.96327	0.14696	8.90130	-0.48153
2969.000	9.67342	0.17062	8.56717	-0.47999
2970.000	9.36575	0.17666	8.29634	-0.44490
2971.000	8.92060	0.22995	7.97085	-0.56346
2972.000	8.47823	0.29515	7.57881	-0.49695
2973.000	8.02902	0.32110	7.16270	-0.58228
2974.000	7.53218	0.33331	6.70682	-0.51172
2975.000	6.96409	0.28634	6.25205	-0.49439
2976.000	6.46880	0.28861	5.94125	-0.56590
2977.000	5.97841	0.21369	5.29706	-0.44372
2978.000	5.49302	0.21783	4.89301	-0.51932
2979.000	5.04802	0.16250	4.61617	-0.58298
2980.000	4.60635	0.10113	4.15036	-0.48414
2981.000	4.28211	0.06745	3.83164	-0.41287
2982.000	3.91823	0.04168	3.52450	-0.44875
2983.000	3.63872	0.05758	3.30977	-0.42105
2984.000	3.35509	0.01192	3.02004	-0.28211
2985.000	3.13240	0.04569	2.78143	-0.26826
2986.000	2.92737	0.05364	2.57825	-0.25439
2987.000	2.71042	0.00994	2.29210	-0.15108
2988.000	2.53287	0.03577	2.11641	-0.17893
2989.000	2.39276	0.11727	1.97819	-0.15906
2990.000	2.13812	0.15109	1.75108	-0.11931
2991.000	1.90118	0.14714	1.44291	-0.04972
2992.000	1.72935	0.16704	1.27891	-0.12928
2993.000	1.58318	0.23665	0.97654	-0.08553
2994.000	1.40932	0.22474	0.83621	-0.04575
2995.000	1.25717	0.19691	0.65238	-0.09151
2996.000	1.14453	0.27250	0.43493	-0.04178
2997.000	1.05165	0.28444	0.24515	-0.05172
2998.000	0.98050	0.21880	0.12653	-0.07361
2999.000	1.00421	0.24864	0.03559	-0.03780
3000.000	0.98050	0.31627	-0.04943	0.06963
3001.000	0.95876	0.30633	-0.06722	0.06366
3002.000	1.05758	0.41770	-0.10874	0.09549
3003.000	1.04177	0.37991	-0.10280	0.14324
3004.000	1.12279	0.44554	-0.08699	0.14324
3005.000	1.13663	0.46344	-0.00395	0.17507
3006.000	1.24136	0.52507	0.03163	0.24072
3007.000	1.21963	0.47735	0.00989	0.20292
3008.000	1.28484	0.50717	0.22340	0.22082
3009.000	1.34214	0.49721	0.24712	0.11141
3010.000	1.27693	0.44949	0.23724	0.13926
3011.000	1.32633	0.45147	0.35388	0.03780
3012.000	1.34214	0.41368	0.42505	-0.03581
3013.000	1.29472	0.41170	0.32027	-0.01592
3014.000	1.31052	0.32220	0.32818	-0.11737
3015.000	1.26112	0.32420	0.36179	-0.09947
3016.000	1.20975	0.25260	0.31434	-0.09549
3017.000	1.20382	0.22476	0.30248	-0.18899
3018.000	1.11884	0.26056	0.29062	-0.19098
3019.000	1.08129	0.25460	0.21154	-0.18899
3020.000	1.04374	0.23074	0.16409	-0.23873
3021.000	0.98445	0.24068	0.15223	-0.17507
3022.000	0.93306	0.24268	0.08303	-0.24470
3023.000	0.90539	0.28047	0.03954	-0.21486
3024.000	0.80459	0.23274	-0.04745	-0.18701
3025.000	0.83028	0.28645	-0.10478	-0.15120
3026.000	0.77691	0.29640	-0.12455	-0.11738
3027.000	0.80854	0.30435	-0.20165	-0.07361
3028.000	0.78284	0.34414	-0.24515	-0.09151
3029.000	0.68796	0.31431	-0.25108	-0.02984
3030.000	0.68796	0.31431	-0.31829	-0.08355
3031.000	0.71959	0.34414	-0.32818	-0.07162
3032.000	0.74529	0.34613	-0.26492	0.04178
3033.000	0.71564	0.36403	-0.28271	-0.02387
3034.000	0.71959	0.34215	-0.21747	-0.05570
3035.000	0.71761	0.34812	-0.25108	0.01194
3036.000	0.73738	0.34414	-0.26887	-0.01790
3037.000	0.74726	0.32823	-0.20758	-0.05968
3038.000	0.76110	0.36005	-0.21154	-0.00398
3039.000	0.78284	0.34613	-0.15816	0.03780
3040.000	0.77889	0.38591	-0.17398	-0.03382
3041.000	0.83621	0.38590	-0.15421	-0.03780
3042.000	0.79075	0.34016	-0.11467	-0.02984
3043.000	0.80063	0.34016	-0.08897	-0.02188
3044.000	0.81447	0.36999	-0.15223	-0.01592
3045.000	0.86388	0.39187	-0.14037	0.05570
3046.000	0.85005	0.40977	-0.08699	0.03581
3047.000	0.85203	0.40182	-0.05338	0.03979
3048.000	0.88167	0.40380	-0.13641	-0.05769
3049.000	0.85598	0.42568	-0.08106	0.00199
3050.000	0.87574	0.39585	-0.04152	0.06764
3051.000	0.87772	0.41574	-0.08897	-0.02785
3052.000	0.89946	0.42568	-0.14630	-0.00199
3053.000	0.89551	0.43165	-0.04745	-0.02785
3054.000	0.83028	0.34413	-0.07117	-0.07958
3055.000	0.85203	0.38391	-0.04745	-0.05968
3056.000	0.86586	0.37596	-0.15816	-0.08555
3057.000	0.84214	0.39187	-0.14234	-0.04974
3058.000	0.88167	0.42767	-0.11071	-0.03979
3059.000	0.87377	0.38391	-0.09687	-0.09947
3060.000	0.89353	0.41772	-0.06722	-0.04178
3061.000	0.87772	0.36004	-0.09094	-0.10146
3062.000	0.87574	0.37794	-0.07908	-0.07560
3063.000	0.85598	0.37198	-0.12653	0.00597
3064.000	0.86784	0.40778	-0.17793	-0.04576
3065.000	0.85005	0.39784	-0.11467	-0.03581
3066.000	0.85005	0.39187	-0.16409	-0.05371
3067.000	0.88958	0.39385	-0.12257	-0.02785
3068.000	0.85796	0.37596	-0.17200	-0.01989
3069.000	0.83819	0.39585	-0.14037	-0.07162
3070.000	0.86784	0.41176	-0.17398	-0.03979
3071.000	0.83819	0.33617	-0.07315	0.03382
3072.000	0.86784	0.39982	-0.15618	-0.08356
3073.000	0.85796	0.37397	-0.07710	-0.08157
3074.000	0.85005	0.35010	-0.14037	-0.05173
3075.000	0.85400	0.39585	-0.09885	-0.04775
3076.000	0.87179	0.35010	-0.12653	-0.01194
3077.000	0.85796	0.38192	-0.11664	-0.08952
3078.000	0.84017	0.40381	-0.06920	-0.00796
3079.000	0.84610	0.39585	-0.11071	-0.03780
3080.000	0.88958	0.38590	-0.14630	-0.03780
3081.000	0.82435	0.41773	-0.12060	-0.07361
3082.000	0.81645	0.36601	-0.08106	-0.00398
3083.000	0.86586	0.40181	-0.11467	-0.03979
3084.000	0.84412	0.37596	-0.10083	-0.09947
3085.000	0.85005	0.37397	-0.08501	-0.01194
3086.000	0.87179	0.39187	-0.10676	-0.06963
3087.000	0.89551	0.36004	-0.09687	-0.03183
3088.000	0.89749	0.40380	-0.12653	-0.07560
3089.000	0.90342	0.38391	-0.09687	-0.00398
3090.000	0.86981	0.38590	-0.08501	-0.06167
3091.000	0.89946	0.41772	-0.13641	-0.04974
3092.000	0.88563	0.34214	-0.15025	-0.06963
3093.000	0.85993	0.33219	-0.03559	-0.14324
3094.000	0.86191	0.39585	-0.17398	-0.02984
3095.000	0.90144	0.40579	-0.09885	-0.02984
3096.000	0.85796	0.37198	-0.15025	-0.05173
3097.000	0.87772	0.38789	-0.11467	-0.06167
3098.000	0.91527	0.39982	-0.14234	0.04377
3099.000	0.87970	0.36800	-0.11664	-0.07560
3100.000	0.84807	0.37397	-0.10280	-0.05173
3101.000	0.89551	0.35407	-0.13444	-0.03780
3102.000	0.87574	0.38192	-0.07117	-0.09350
3103.000	0.88958	0.36402	-0.13048	-0.08356
3104.000	0.90144	0.36203	-0.18781	-0.03382
3105.000	0.90934	0.36601	-0.08897	-0.07958
3106.000	0.89156	0.32821	-0.04547	-0.04576
3107.000	0.85993	0.35805	-0.15421	-0.02188
3108.000	0.88760	0.34612	-0.11467	-0.07361
3109.000	0.83621	0.33021	-0.17595	-0.07759
3110.000	0.87970	0.29241	-0.12850	-0.06963
3111.000	0.93109	0.42369	-0.08897	-0.02387
3112.000	0.85400	0.34214	-0.13048	-0.05570
3113.000	0.86191	0.34413	-0.20363	-0.12334
3114.000	0.88563	0.36203	-0.12455	-0.08555
3115.000	0.87772	0.33617	-0.06920	-0.00398
3116.000	0.88760	0.31628	-0.17398	-0.04775
3117.000	0.87377	0.32822	-0.11467	0.02188
3118.000	0.91923	0.34611	-0.19177	-0.03979
3119.000	0.87574	0.40380	-0.17200	-0.01592
3120.000	0.91132	0.37396	-0.15223	-0.01194
3121.000	0.90144	0.37993	-0.16409	-0.04178
3122.000	0.88563	0.39584	-0.19177	-0.02387
3123.000	0.90144	0.36203	-0.19375	-0.03382
3124.000	0.90737	0.41971	-0.19770	-0.08356
3125.000	0.91330	0.35208	-0.14827	0.03780
3126.000	0.95678	0.42169	-0.13048	0.04178
3127.000	0.95876	0.42368	-0.13048	0.04178
3128.000	0.92120	0.44955	-0.14827	-0.04178
3129.000	0.93899	0.37595	-0.14037	-0.01393
3130.000	0.94492	0.38390	-0.15618	-0.01592
3131.000	0.94295	0.35009	-0.09687	-0.01194
3132.000	0.92713	0.36600	-0.18584	-0.00796
3133.000	0.91132	0.35208	-0.19572	-0.02984
3134.000	0.92713	0.34213	-0.12257	-0.04377
3135.000	0.94887	0.33418	-0.09292	-0.01592
3136.000	0.88167	0.33219	-0.14827	0.07162
3137.000	0.90539	0.37396	-0.17200	-0.01790
3138.000	0.89946	0.34810	-0.19375	-0.00796
3139.000	0.91132	0.34015	-0.12455	-0.01393
3140.000	0.94295	0.34213	-0.18386	0.00199
3141.000	0.89946	0.41573	-0.16211	0.03382
3142.000	0.93306	0.34213	-0.10478	-0.04775
3143.000	0.93109	0.37197	-0.14630	-0.02785
3144.000	0.93702	0.36004	-0.11862	-0.00796
3145.000	0.95876	0.38788	-0.10083	0.02387
3146.000	0.89551	0.38590	-0.10083	0.05371
3147.000	0.90737	0.35009	-0.13839	0.01393
3148.000	0.94492	0.34412	-0.10676	-0.02387
3149.000	0.91527	0.36203	-0.11862	0.00398
3150.000	0.88365	0.39783	-0.22142	0.02387
3151.000	0.84807	0.31827	-0.04943	-0.06565
3152.000	0.88167	0.34214	-0.10083	0.04377
3153.000	0.86586	0.34413	-0.17595	0.02387
3154.000	0.88958	0.29241	-0.09687	-0.00597
3155.000	0.89156	0.36601	-0.12653	0.03183
3156.000	0.90934	0.33219	-0.14827	0.03183
3157.000	0.89156	0.33816	-0.05733	0.00000
3158.000	0.92713	0.34810	-0.13444	0.02586
3159.000	0.87574	0.33219	-0.06920	-0.01989
3160.000	0.90342	0.33816	-0.12653	-0.02387
3161.000	0.87970	0.29440	-0.11862	-0.02586
3162.000	0.85598	0.36004	-0.10083	0.00000
3163.000	0.90737	0.36601	-0.08303	0.00199
3164.000	0.89551	0.35805	-0.16211	0.02586
3165.000	0.85005	0.33220	-0.09885	-0.02586
3166.000	0.92911	0.37595	-0.07908	-0.03780
3167.000	0.90539	0.34810	-0.05733	0.00796
3168.000	0.88563	0.34811	-0.18188	-0.06366
3169.000	0.92516	0.34810	-0.17793	-0.04377
3170.000	0.91923	0.30036	-0.12653	-0.05570
3171.000	0.86586	0.31628	-0.07710	-0.04377
3172.000	0.87377	0.31827	-0.15421	-0.03780
3173.000	0.87772	0.30037	-0.06722	-0.10146
3174.000	0.92318	0.32224	-0.10083	-0.06167
3175.000	0.88760	0.31628	-0.14432	-0.01790
3176.000	0.86784	0.33020	-0.07710	-0.05173
3177.000	0.88760	0.31031	-0.03361	-0.03581
3178.000	0.91132	0.27451	-0.08106	-0.05570
3179.000	0.91330	0.30434	-0.11862	-0.11937
3180.000	0.90144	0.32622	-0.10280	-0.04576
3181.000	0.94295	0.30036	-0.10083	0.03780
3182.000	0.87377	0.30435	-0.07117	-0.08754
3183.000	0.83819	0.30236	-0.08106	-0.04377
3184.000	0.87772	0.27252	-0.16409	-0.06167
3185.000	0.90144	0.27848	-0.08699	-0.07560
3186.000	0.91132	0.25064	-0.05733	-0.09350
3187.000	0.90342	0.28246	-0.13048	-0.01989
3188.000	0.89749	0.31230	-0.01779	-0.07162
3189.000	0.92318	0.30235	-0.12257	-0.12931
3190.000	0.95283	0.28445	-0.09292	-0.02586
3191.000	0.92120	0.26456	-0.13048	0.02188
3192.000	0.85993	0.27053	-0.04745	-0.04775
3193.000	0.87772	0.26257	-0.08303	-0.01194
3194.000	0.92120	0.28246	-0.10083	-0.02586
3195.000	0.92516	0.27053	-0.05931	-0.05968
3196.000	0.92120	0.23671	-0.15421	-0.03581
3197.000	0.93504	0.32821	-0.16804	-0.01592
3198.000	0.90539	0.25263	-0.17398	-0.08157
3199.000	0.90342	0.28246	-0.07117	-0.00597
3200.000	0.91725	0.28843	-0.12653	-0.07162
3201.000	0.93702	0.31627	-0.12060	-0.00597
3202.000	0.88167	0.28048	-0.20956	-0.01393
3203.000	0.89551	0.29440	-0.13444	-0.06963
3204.000	0.93504	0.25660	-0.08501	0.00796
3205.000	0.90144	0.27451	-0.13444	-0.03780
3206.000	0.94097	0.28644	-0.14827	-0.07560
3207.000	0.90934	0.32622	-0.07710	-0.03581
3208.000	0.91923	0.29241	-0.16014	-0.00398
3209.000	0.93899	0.30235	-0.10478	-0.06764
3210.000	0.94492	0.28644	-0.12455	-0.05769
3211.000	0.93504	0.27450	-0.09885	-0.05769
3212.000	0.93899	0.27450	-0.15025	-0.05968
3213.000	0.95876	0.28445	-0.11269	-0.02785
3214.000	0.90737	0.30235	-0.16014	-0.10146
3215.000	0.91725	0.29440	-0.06326	-0.07361
3216.000	0.88167	0.28048	-0.09687	-0.02785
3217.000	0.90539	0.26655	-0.13839	-0.06167
3218.000	0.92911	0.28246	-0.08699	-0.06167
3219.000	0.89551	0.33020	-0.06129	-0.09151
3220.000	0.92516	0.27053	-0.19968	-0.11340
3221.000	0.87772	0.33816	-0.02175	-0.06167
3222.000	0.94492	0.28047	-0.05733	-0.09151
3223.000	0.92120	0.26854	-0.03756	0.01989
3224.000	0.93504	0.28246	-0.15816	-0.10146
3225.000	0.91527	0.28644	-0.15025	-0.04974
3226.000	0.93109	0.31031	-0.09687	-0.08356
3227.000	0.92120	0.27252	-0.05536	-0.01194
3228.000	0.91330	0.30832	-0.10280	-0.10743
3229.000	0.86981	0.26655	-0.11269	-0.09151
3230.000	0.92120	0.26058	-0.07513	-0.03382
3231.000	0.91330	0.23074	-0.01977	-0.11937
3232.000	0.88167	0.31230	-0.06920	-0.10743
3233.000	0.92713	0.27252	-0.10676	0.00000
3234.000	0.87377	0.27650	-0.00593	-0.10743
3235.000	0.92318	0.32224	-0.11664	-0.07759
3236.000	0.90539	0.26058	-0.15421	-0.01194
3237.000	0.88167	0.23472	0.00198	-0.11738
3238.000	0.87574	0.22876	-0.12653	-0.05371
3239.000	0.88365	0.22478	-0.09490	-0.01989
3240.000	0.90342	0.27848	-0.06326	-0.07162
3241.000	0.84017	0.23871	-0.07315	-0.07560
3242.000	0.86388	0.30634	-0.13641	-0.14125
3243.000	0.87970	0.29042	-0.04943	-0.04576
3244.000	0.89353	0.20886	-0.06129	-0.11937
3245.000	0.83621	0.24069	-0.04349	-0.07162
3246.000	0.87772	0.22876	-0.10874	-0.04178
3247.000	0.82633	0.23473	-0.07513	-0.08952
3248.000	0.86981	0.23075	-0.11071	-0.04377
3249.000	0.84807	0.23672	-0.01186	-0.04775
3250.000	0.85400	0.30236	-0.13246	-0.07958
3251.000	0.81447	0.25064	-0.08501	-0.04974
3252.000	0.86191	0.24666	-0.02966	-0.02387
3253.000	0.82040	0.19892	-0.01384	-0.01989
3254.000	0.83819	0.22279	-0.10280	-0.14125
3255.000	0.79075	0.22677	-0.06524	-0.07162
3256.000	0.82831	0.26457	-0.13641	-0.05769
3257.000	0.84610	0.24865	-0.09292	-0.03780
3258.000	0.84610	0.26258	-0.08699	-0.07162
3259.000	0.85796	0.27650	-0.04745	-0.09151
3260.000	0.81645	0.23075	-0.07513	-0.12732
3261.000	0.83621	0.23871	-0.18188	-0.02984
3262.000	0.86191	0.25661	-0.01186	-0.06167
3263.000	0.82633	0.26457	-0.04943	-0.12334
3264.000	0.86388	0.25860	-0.08897	-0.06565
3265.000	0.84610	0.26456	-0.04349	-0.03183
3266.000	0.84017	0.25064	-0.02570	0.04178
3267.000	0.84214	0.22279	-0.02966	-0.04576
3268.000	0.83226	0.25263	-0.04943	-0.00398
3269.000	0.87179	0.20688	0.00198	-0.01592
3270.000	0.86586	0.28048	-0.01582	-0.07361
3271.000	0.88958	0.22876	-0.03163	-0.02387
3272.000	0.87772	0.28246	-0.03954	-0.00597
3273.000	0.87772	0.23870	-0.05140	-0.04178
3274.000	0.84017	0.25661	-0.04547	-0.05371
3275.000	0.85796	0.23672	-0.04943	-0.00597
3276.000	0.88563	0.26058	-0.08106	-0.02586
3277.000	0.85796	0.23870	-0.04943	-0.06963
3278.000	0.85400	0.23672	-0.05338	-0.03382
3279.000	0.83226	0.25263	0.01582	-0.05769
3280.000	0.85796	0.24467	0.00593	-0.07759
3281.000	0.87574	0.20290	-0.03559	-0.01592
3282.000	0.85005	0.26854	0.04349	-0.07162
3283.000	0.87179	0.28644	-0.05140	-0.04576
3284.000	0.87574	0.24268	0.00000	-0.01989
3285.000	0.87377	0.22876	-0.09094	-0.05173
3286.000	0.86586	0.25064	-0.04547	-0.08555
3287.000	0.85203	0.22478	0.01186	-0.09947
3288.000	0.84807	0.16312	-0.03559	0.01592
3289.000	0.85203	0.18301	-0.01779	0.02387
3290.000	0.81052	0.21285	-0.05338	-0.05173
3291.000	0.83028	0.17505	-0.06524	-0.06167
3292.000	0.84017	0.18301	0.00000	0.02188
3293.000	0.81447	0.16908	0.00791	-0.00398
3294.000	0.85400	0.21483	0.00395	-0.08754
3295.000	0.82633	0.20290	0.04547	-0.08754
3296.000	0.83424	0.16709	-0.00395	-0.10743
3297.000	0.82040	0.23274	-0.01977	-0.02586
3298.000	0.80656	0.15118	-0.02175	-0.05173
3299.000	0.83226	0.17306	-0.02175	-0.05968
3300.000	0.85005	0.19096	0.00395	-0.01194
3301.000	0.81052	0.16511	0.01384	-0.03382
3302.000	0.85203	0.23870	-0.03559	-0.07759
3303.000	0.80854	0.20887	-0.04547	-0.06366
3304.000	0.84807	0.19892	-0.01977	-0.01194
3305.000	0.82238	0.20688	-0.03559	-0.04974
3306.000	0.83424	0.20688	-0.02372	-0.03581
3307.000	0.82040	0.22478	-0.04547	-0.12136
3308.000	0.79273	0.10941	-0.01977	-0.00796
3309.000	0.80261	0.19892	0.01977	-0.04576
3310.000	0.79075	0.20290	0.02570	-0.10942
3311.000	0.84412	0.21285	-0.05536	-0.10942
3312.000	0.77098	0.23473	0.00000	-0.06366
3313.000	0.82238	0.19693	-0.02966	-0.00796
3314.000	0.79470	0.21285	-0.02966	-0.07958
3315.000	0.82831	0.18898	-0.09490	0.00796
3316.000	0.80854	0.20290	0.00989	-0.03581
3317.000	0.81842	0.22080	0.03954	-0.11141
3318.000	0.83621	0.19892	-0.11467	-0.12732
3319.000	0.80459	0.17306	0.02570	-0.04974
3320.000	0.85796	0.18699	-0.01779	-0.04178
3321.000	0.83028	0.17505	-0.01977	-0.00796
3322.000	0.84017	0.23473	-0.01779	-0.02586
3323.000	0.83424	0.21086	-0.01779	-0.07361
3324.000	0.85005	0.19693	0.00593	-0.00398
3325.000	0.84807	0.18301	0.00198	-0.05769
3326.000	0.83621	0.20489	0.00593	-0.04576
3327.000	0.85203	0.19096	-0.04349	-0.09350
3328.000	0.80261	0.20489	0.03163	-0.08157
3329.000	0.77889	0.19296	-0.00198	-0.01790
3330.000	0.77691	0.16511	-0.04745	-0.03183
3331.000	0.82435	0.17704	-0.06326	-0.07560
3332.000	0.83226	0.19892	-0.00198	-0.11340
3333.000	0.83226	0.18898	0.05733	-0.05968
3334.000	0.82435	0.21683	0.02768	-0.06764
3335.000	0.80063	0.17107	0.07710	-0.05371
3336.000	0.83621	0.22080	-0.01779	-0.03581
3337.000	0.84610	0.17306	0.05536	-0.02785
3338.000	0.83819	0.19295	0.02966	-0.10544
3339.000	0.85005	0.19096	0.06326	-0.07560
3340.000	0.83819	0.24467	-0.03756	-0.11340
3341.000	0.85203	0.19295	0.04152	-0.03183
3342.000	0.86784	0.20688	0.04745	-0.01790
3343.000	0.84610	0.22478	0.00989	-0.01989
3344.000	0.85796	0.23274	0.04349	-0.08754
3345.000	0.85005	0.19892	0.09687	-0.13926
3346.000	0.82238	0.16908	0.10676	-0.05173
3347.000	0.85203	0.16510	0.10676	-0.05173
3348.000	0.84214	0.18500	-0.01779	-0.02785
3349.000	0.86191	0.18897	0.05733	-0.08555
3350.000	0.85005	0.20290	-0.00395	-0.03581
3351.000	0.89156	0.19096	0.09094	-0.12136
3352.000	0.86191	0.17107	0.02175	-0.09947
3353.000	0.89156	0.19096	0.01779	-0.11539
3354.000	0.90144	0.18102	0.05931	-0.07162
3355.000	0.88563	0.18102	-0.02768	-0.06963
3356.000	0.90539	0.19295	0.02175	-0.06366
3357.000	0.89353	0.15914	0.00989	-0.08356
3358.000	0.87574	0.16908	0.01186	-0.11738
3359.000	0.87574	0.16311	-0.07117	-0.06764
3360.000	0.87179	0.16113	0.00791	-0.06565
3361.000	0.85598	0.18500	-0.02966	-0.12732
3362.000	0.84807	0.18102	0.01977	-0.09350
3363.000	0.85598	0.15914	-0.00593	-0.01194
3364.000	0.85203	0.21483	-0.00395	-0.05371
3365.000	0.86586	0.16311	0.02175	-0.05371
3366.000	0.86981	0.18500	-0.01384	-0.06963
3367.000	0.88760	0.15715	0.02372	-0.11340
3368.000	0.87574	0.13725	0.05536	-0.11539
3369.000	0.84610	0.18699	0.01779	-0.08555
3370.000	0.87970	0.15715	0.00395	-0.11340
3371.000	0.84610	0.11140	-0.03559	-0.11539
3372.000	0.89156	0.17107	0.03559	-0.08356
3373.000	0.89551	0.17704	0.04349	-0.01790
3374.000	0.84807	0.19892	0.00593	-0.09151
3375.000	0.85796	0.15914	0.09490	-0.08157
3376.000	0.87377	0.16311	0.01384	-0.10743
3377.000	0.87179	0.15118	0.01977	-0.09748
3378.000	0.82040	0.18898	0.09885	-0.11937
3379.000	0.85005	0.12731	0.04349	-0.08952
3380.000	0.84214	0.15317	0.06326	-0.07958
3381.000	0.85400	0.15317	0.09885	-0.09748
3382.000	0.84214	0.15118	0.04745	-0.07759
3383.000	0.86586	0.11140	0.05931	-0.12334
3384.000	0.80261	0.09946	0.01779	-0.13727
3385.000	0.82435	0.10543	-0.01779	-0.13130
3386.000	0.85598	0.11537	0.03559	-0.08754
3387.000	0.84807	0.09150	0.06326	-0.06764
3388.000	0.86191	0.15715	0.03361	-0.09947
3389.000	0.85598	0.16312	0.04349	-0.09947
3390.000	0.86388	0.15516	0.10874	-0.10743
3391.000	0.85203	0.10742	0.04547	-0.09151
3392.000	0.80854	0.14322	0.03954	-0.13528
3393.000	0.84017	0.14720	0.07710	-0.13528
3394.000	0.84017	0.13925	0.00198	-0.14921
3395.000	0.84017	0.13925	0.15025	-0.07162
3396.000	0.85796	0.11140	0.06326	-0.09549
3397.000	0.87179	0.15914	0.02768	-0.15120
3398.000	0.85993	0.14720	0.00000	-0.11340
3399.000	0.82238	0.11736	0.07513	-0.09151
3400.000	0.85796	0.09548	-0.00395	-0.04974
3401.000	0.84017	0.13925	0.10874	-0.08555
3402.000	0.85796	0.08554	0.02372	-0.05371
3403.000	0.86586	0.11537	0.06524	-0.09748
3404.000	0.83621	0.13328	0.07513	-0.11937
3405.000	0.83621	0.07161	0.06524	-0.05570
3406.000	0.82238	0.11538	0.10280	-0.05968
3407.000	0.82435	0.07161	0.07710	-0.08356
3408.000	0.82238	0.09747	0.08303	-0.08952
3409.000	0.86191	0.12532	0.10676	-0.14722
3410.000	0.85005	0.10941	0.07908	-0.09151
3411.000	0.85796	0.09946	0.09687	-0.04576
3412.000	0.87377	0.09548	0.11269	-0.08157
3413.000	0.84610	0.13527	0.11664	-0.06963
3414.000	0.89551	0.08554	0.00395	-0.11340
3415.000	0.85796	0.06962	0.00989	-0.11738
3416.000	0.85796	0.12134	0.07710	-0.05968
3417.000	0.84214	0.07360	0.02768	-0.16910
3418.000	0.85993	0.09747	0.02372	-0.10544
3419.000	0.85796	0.08951	0.09292	-0.11937
3420.000	0.84412	0.10941	0.08699	-0.09947
3421.000	0.84412	0.10941	0.05931	-0.07162
3422.000	0.85400	0.09349	0.00593	-0.09549
3423.000	0.88760	0.08355	0.04152	-0.05371
3424.000	0.83226	0.10742	0.04349	-0.10146
3425.000	0.81842	0.05570	0.05140	-0.06764
3426.000	0.81645	0.08952	0.04349	-0.08952
3427.000	0.84610	0.08156	0.14827	-0.07162
3428.000	0.88563	0.05769	0.10478	-0.05769
3429.000	0.94690	0.08354	0.30050	-0.07759
3430.000	1.04967	0.05371	0.34202	-0.06366
3431.000	1.15837	0.06962	0.49424	-0.11339
3432.000	1.36980	0.06563	0.59110	-0.03581
3433.000	1.62269	-0.04176	0.77691	-0.16511
3434.000	1.85971	-0.03977	1.01212	-0.10542
3435.000	2.05915	-0.06561	1.15837	-0.21084
3436.000	2.34342	-0.05566	1.39944	-0.22076
3437.000	2.54273	-0.01391	1.58515	-0.19887
3438.000	2.74198	-0.05763	1.76095	-0.25651
3439.000	2.91357	-0.00199	1.86761	-0.27439
3440.000	2.98849	-0.04967	2.03151	-0.29425
3441.000	2.97469	-0.02980	2.15194	-0.40158
3442.000	2.92737	-0.07947	2.11246	-0.33399
3443.000	2.83468	-0.05564	2.06310	-0.38172
3444.000	2.71831	-0.10731	2.04335	-0.43938
3445.000	2.57233	-0.06956	1.89723	-0.46526
3446.000	2.43223	-0.06758	1.74713	-0.44939
3447.000	2.17563	-0.06362	1.59108	-0.50113
3448.000	2.00781	-0.07754	1.44488	-0.51708
3449.000	1.78071	-0.09346	1.26903	-0.43358
3450.000	1.66417	-0.04574	1.09513	-0.56289
3451.000	1.51996	-0.05568	0.97457	-0.36998
3452.000	1.44488	-0.07359	0.91527	-0.47540
3453.000	1.40339	-0.05370	0.73936	-0.40978
3454.000	1.38956	-0.11933	0.70971	-0.37199
3455.000	1.39944	-0.09149	0.75517	-0.30237
3456.000	1.42710	-0.16109	0.71564	-0.36801
3457.000	1.51206	-0.13921	0.79470	-0.35209
3458.000	1.54367	-0.11733	0.93306	-0.31031
3459.000	1.68787	-0.08551	0.87377	-0.29241
3460.000	1.72935	-0.10340	0.98247	-0.34810
3461.000	1.83008	-0.10141	1.04769	-0.26455
3462.000	1.86563	-0.09942	1.07932	-0.30035
3463.000	1.93475	-0.07754	1.17220	-0.23669
3464.000	1.96042	-0.12725	1.30460	-0.24861
3465.000	1.99597	-0.10538	1.28484	-0.29635
3466.000	2.02163	-0.08350	1.29274	-0.31624
3467.000	2.05125	-0.08748	1.31645	-0.33413
3468.000	2.04928	-0.09146	1.36190	-0.27645
3469.000	2.08087	-0.03380	1.39944	-0.28042
3470.000	2.10654	-0.07952	1.37178	-0.35202
3471.000	2.08087	-0.07356	1.29669	-0.33215
3472.000	2.11048	-0.05964	1.37573	-0.36197
3473.000	2.10061	-0.05765	1.39746	-0.33810
3474.000	2.14207	-0.03380	1.39549	-0.34606
3475.000	2.15194	-0.08747	1.39549	-0.36395
3476.000	2.11443	-0.08748	1.42315	-0.33213
3477.000	2.15194	-0.05368	1.33819	-0.37192
3478.000	2.15589	-0.06362	1.36980	-0.37987
3479.000	2.10654	-0.08350	1.33424	-0.32220
3480.000	2.14207	-0.11531	1.28681	-0.36596
3481.000	2.11246	-0.05567	1.32633	-0.35601
3482.000	2.13615	-0.07356	1.31645	-0.36993
3483.000	2.06507	-0.10736	1.32040	-0.34408
3484.000	2.11838	-0.11730	1.27496	-0.39182
3485.000	2.08482	-0.08748	1.25915	-0.41171
3486.000	2.07100	-0.10338	1.25520	-0.41966
3487.000	2.07495	-0.13917	1.30262	-0.40971
3488.000	2.07889	-0.14911	1.32831	-0.45744
3489.000	2.04138	-0.15707	1.25915	-0.37591
3490.000	2.09666	-0.12525	1.27100	-0.34806
3491.000	2.07495	-0.12724	1.24334	-0.38188
3492.000	2.04928	-0.14911	1.42117	-0.35003
3493.000	2.04730	-0.14315	1.33424	-0.30828
3494.000	2.02361	-0.10935	1.29274	-0.38386
3495.000	2.03941	-0.16701	1.29274	-0.32817
3496.000	2.07100	-0.11134	1.27891	-0.33812
3497.000	2.02558	-0.14116	1.28484	-0.39778
3498.000	1.99794	-0.14116	1.29274	-0.36596
3499.000	2.05520	-0.13917	1.29274	-0.35204
3500.000	2.04335	-0.11929	1.20184	-0.36000
3501.000	2.02953	-0.09146	1.22160	-0.40972
3502.000	1.99597	-0.09941	1.23148	-0.38188
3503.000	2.03151	-0.13122	1.29867	-0.35601
3504.000	2.00386	-0.15508	1.23544	-0.39779
3505.000	2.02361	-0.14116	1.26310	-0.41370
3506.000	2.04138	-0.13122	1.25322	-0.35403
3507.000	2.06112	-0.15110	1.22951	-0.34409
3508.000	2.04138	-0.15707	1.27496	-0.37193
3509.000	2.05915	-0.12724	1.31448	-0.30430
3510.000	2.04138	-0.13122	1.34214	-0.38783
3511.000	2.03348	-0.15905	1.30262	-0.34806
3512.000	2.07889	-0.12923	1.33621	-0.37192
3513.000	2.04730	-0.15706	1.25915	-0.25061
3514.000	2.05520	-0.12923	1.25717	-0.32221
3515.000	2.05718	-0.15110	1.32831	-0.33612
3516.000	2.03941	-0.13321	1.26903	-0.32618
3517.000	2.06112	-0.18092	1.25520	-0.37591
3518.000	2.06902	-0.08151	1.24334	-0.32818
3519.000	2.07889	-0.13320	1.25322	-0.40574
3520.000	2.03348	-0.13718	1.23544	-0.36597
3521.000	2.06507	-0.12923	1.30064	-0.35999
3522.000	2.04335	-0.11333	1.32040	-0.28242
3523.000	2.08284	-0.11531	1.34412	-0.32220
3524.000	2.03941	-0.12525	1.26310	-0.30828
3525.000	2.06507	-0.12128	1.35202	-0.38385
3526.000	2.03941	-0.10339	1.25915	-0.30829
3527.000	2.09271	-0.13122	1.31843	-0.36397
3528.000	2.09469	-0.11531	1.32831	-0.31027
3529.000	2.08482	-0.10338	1.19394	-0.32619
3530.000	2.06112	-0.12724	1.22951	-0.35403
3531.000	2.08087	-0.11133	1.30855	-0.33016
3532.000	2.02558	-0.17695	1.19591	-0.35205
3533.000	2.05125	-0.10140	1.26112	-0.27646
3534.000	2.01769	-0.15508	1.36190	-0.35799
3535.000	2.04730	-0.16303	1.28286	-0.31027
3536.000	2.12036	-0.10934	1.29867	-0.35204
3537.000	2.01374	-0.16502	1.25124	-0.25657
3538.000	2.06902	-0.19086	1.25717	-0.28840
3539.000	2.07100	-0.13718	1.25520	-0.26453
3540.000	2.08877	-0.14513	1.29669	-0.28640
3541.000	2.07495	-0.14116	1.31250	-0.39380
3542.000	2.08284	-0.14911	1.23346	-0.30232
3543.000	2.03941	-0.15508	1.32238	-0.30032
3544.000	2.06902	-0.18092	1.28484	-0.32022
3545.000	2.09074	-0.15110	1.36190	-0.34606
3546.000	2.07297	-0.16303	1.32633	-0.34010
3547.000	2.08482	-0.18489	1.33028	-0.32419
3548.000	2.06310	-0.20875	1.26112	-0.39182
3549.000	2.04928	-0.17893	1.30855	-0.34209
3550.000	2.05520	-0.18887	1.29472	-0.36198
3551.000	2.06507	-0.20875	1.36980	-0.32617
3552.000	2.07889	-0.20279	1.22951	-0.32818
3553.000	2.08877	-0.18092	1.31645	-0.35800
3554.000	2.04138	-0.22466	1.32238	-0.31623
3555.000	2.01769	-0.22069	1.28681	-0.35403
3556.000	2.05125	-0.23460	1.26903	-0.39977
3557.000	2.06507	-0.23659	1.30657	-0.40176
3558.000	2.02163	-0.24057	1.28484	-0.39778
3559.000	2.02756	-0.17297	1.38561	-0.37788
3560.000	2.01571	-0.21075	1.31052	-0.40573
3561.000	2.02953	-0.22268	1.31052	-0.39181
3562.000	2.02361	-0.18490	1.30262	-0.39579
3563.000	2.08087	-0.13917	1.29274	-0.39380
3564.000	2.04730	-0.16502	1.32040	-0.37391
3565.000	2.02953	-0.20876	1.35202	-0.46340
3566.000	2.08877	-0.13917	1.26903	-0.36994
3567.000	2.04533	-0.13520	1.32831	-0.46340
3568.000	2.02953	-0.18689	1.29274	-0.39579
3569.000	2.08877	-0.11133	1.28484	-0.40375
3570.000	2.04928	-0.14514	1.27891	-0.37590
3571.000	2.07495	-0.13122	1.36980	-0.38583
3572.000	2.04335	-0.12327	1.34214	-0.38783
3573.000	2.05915	-0.14116	1.31448	-0.33612
3574.000	2.06112	-0.14911	1.30855	-0.31822
3575.000	2.05718	-0.13519	1.32040	-0.35004
3576.000	2.01769	-0.16900	1.24927	-0.34409
3577.000	2.06310	-0.13122	1.29669	-0.31624
3578.000	2.08087	-0.18291	1.39351	-0.35401
3579.000	2.07297	-0.18291	1.32633	-0.33612
3580.000	2.06705	-0.18291	1.28484	-0.33613
3581.000	2.07297	-0.21869	1.35597	-0.38981
3582.000	2.05323	-0.22665	1.37573	-0.28043
3583.000	2.04928	-0.20677	1.35597	-0.32418
3584.000	2.07100	-0.25647	1.28286	-0.38187
3585.000	2.04730	-0.24255	1.22753	-0.36199
3586.000	2.00584	-0.22666	1.29472	-0.33811
3587.000	2.05520	-0.23858	1.28681	-0.40176
3588.000	2.01966	-0.21075	1.33028	-0.34606
3589.000	1.99202	-0.21274	1.24334	-0.33613
3590.000	2.02558	-0.22069	1.36585	-0.40771
3591.000	2.02953	-0.20081	1.34016	-0.33214
3592.000	2.04928	-0.21671	1.26310	-0.35204
3593.000	2.00189	-0.22666	1.30460	-0.39977
3594.000	2.00781	-0.17297	1.33621	-0.35004
3595.000	2.04335	-0.18888	1.31250	-0.39181
3596.000	2.06112	-0.10935	1.31843	-0.34408
3597.000	2.04730	-0.19882	1.39549	-0.35799
3598.000	2.06705	-0.20080	1.33028	-0.38584
3599.000	2.06112	-0.17297	1.31052	-0.39579
3600.000	2.08482	-0.15308	1.32040	-0.37192
3601.000	2.01966	-0.15906	1.35992	-0.36197
3602.000	2.05915	-0.17098	1.33819	-0.35999
3603.000	2.06112	-0.17496	1.33621	-0.38982
3604.000	2.05323	-0.18092	1.27496	-0.36198
3605.000	2.02558	-0.17695	1.32238	-0.34805
3606.000	2.05125	-0.20279	1.33424	-0.33612
3607.000	2.00584	-0.19683	1.31645	-0.35402
3608.000	2.05520	-0.18490	1.32633	-0.29634
3609.000	2.00979	-0.19683	1.32238	-0.38783
3610.000	2.02361	-0.24455	1.34016	-0.35998
3611.000	2.07692	-0.17694	1.33028	-0.32220
3612.000	2.02756	-0.17695	1.31843	-0.34010
3613.000	2.05915	-0.21074	1.29076	-0.40574
3614.000	2.08679	-0.16700	1.30657	-0.32220
3615.000	2.07100	-0.17297	1.34016	-0.36197
3616.000	2.03941	-0.18092	1.31843	-0.38982
3617.000	2.01769	-0.19087	1.25520	-0.34806
3618.000	2.06705	-0.14513	1.34016	-0.36794
3619.000	2.06507	-0.16899	1.32436	-0.36198
3620.000	2.04730	-0.21472	1.31052	-0.33811
3621.000	2.06112	-0.17893	1.39351	-0.37390
3622.000	2.09271	-0.18887	1.26508	-0.32221
3623.000	2.09074	-0.19086	1.34214	-0.40573
3624.000	2.09271	-0.19285	1.25915	-0.34607
3625.000	2.08284	-0.21074	1.32040	-0.39380
3626.000	2.09271	-0.20279	1.32831	-0.37590
3627.000	2.06902	-0.20677	1.34016	-0.33612
3628.000	2.08679	-0.23261	1.34214	-0.37590
3629.000	2.08284	-0.22068	1.35004	-0.40175
3630.000	2.08679	-0.21074	1.35795	-0.40771
3631.000	2.06310	-0.21273	1.34609	-0.36794
3632.000	2.04730	-0.24255	1.36783	-0.35998
3633.000	2.07495	-0.22863	1.34609	-0.35004
3634.000	2.05718	-0.20876	1.36783	-0.39578
3635.000	2.08482	-0.21273	1.36190	-0.32617
3636.000	2.06310	-0.21273	1.37375	-0.35202
3637.000	2.06705	-0.15706	1.35597	-0.36396
3638.000	2.07297	-0.22267	1.30657	-0.39977
3639.000	2.07495	-0.21074	1.34609	-0.39379
3640.000	2.09271	-0.15308	1.39746	-0.41765
3641.000	2.06902	-0.18291	1.36190	-0.39180
3642.000	2.06507	-0.23062	1.31645	-0.37192
3643.000	2.04138	-0.17098	1.31448	-0.36993
3644.000	2.02163	-0.22268	1.39154	-0.35799
3645.000	2.04730	-0.18888	1.34412	-0.33214
3646.000	2.05718	-0.23062	1.36387	-0.38584
3647.000	2.07692	-0.20875	1.28286	-0.39380
3648.000	2.06310	-0.20080	1.32633	-0.37789
3649.000	2.11048	-0.20278	1.41327	-0.35202
3650.000	2.04730	-0.21074	1.38561	-0.39578
3651.000	2.08087	-0.22068	1.35399	-0.40970
3652.000	2.06310	-0.21870	1.30657	-0.38584
3653.000	2.09074	-0.17098	1.42908	-0.40770
3654.000	2.06112	-0.21074	1.37968	-0.33611
3655.000	2.07297	-0.21472	1.38956	-0.38384
3656.000	2.03546	-0.20677	1.32831	-0.32817
3657.000	2.10456	-0.17296	1.35795	-0.36595
3658.000	2.12036	-0.18887	1.32040	-0.39778
3659.000	2.05125	-0.23460	1.38956	-0.37390
3660.000	2.08877	-0.21074	1.38166	-0.35003
3661.000	2.05520	-0.22665	1.33424	-0.39380
3662.000	2.09074	-0.20279	1.32040	-0.39976
3663.000	2.06112	-0.21671	1.38166	-0.33015
3664.000	2.09864	-0.18688	1.34609	-0.36993
3665.000	2.07100	-0.18887	1.35202	-0.34407
3666.000	2.05718	-0.21472	1.38561	-0.31424
3667.000	2.07297	-0.19682	1.36783	-0.39777
3668.000	2.05323	-0.18490	1.33226	-0.35004
3669.000	2.05520	-0.16700	1.37573	-0.36793
3670.000	2.01966	-0.21472	1.35597	-0.39379
3671.000	2.04928	-0.22466	1.38166	-0.39975
3672.000	2.05520	-0.20279	1.39351	-0.31622
3673.000	2.04928	-0.10736	1.35399	-0.37192
3674.000	2.04138	-0.16502	1.32238	-0.40374
3675.000	2.07495	-0.18092	1.30460	-0.35402
3676.000	2.02361	-0.19683	1.33028	-0.33811
3677.000	2.02756	-0.10140	1.30657	-0.39380
3678.000	2.06705	-0.15110	1.31448	-0.37789
3679.000	2.03941	-0.18490	1.29472	-0.38585
3680.000	2.03546	-0.15707	1.33226	-0.37987
3681.000	2.06705	-0.17297	1.37771	-0.28838
3682.000	2.02756	-0.19087	1.35202	-0.34009
3683.000	2.04928	-0.13122	1.31448	-0.40374
3684.000	2.03151	-0.15905	1.31645	-0.35601
3685.000	2.09864	-0.16104	1.33226	-0.38385
3686.000	2.06705	-0.15110	1.31843	-0.33612
3687.000	2.05915	-0.17893	1.28681	-0.36596
3688.000	2.04335	-0.10736	1.32436	-0.42363
3689.000	2.03743	-0.13122	1.37573	-0.32418
3690.000	2.05718	-0.11929	1.33621	-0.35402
3691.000	2.06705	-0.16303	1.32831	-0.35203
3692.000	2.03546	-0.19285	1.35399	-0.41368
3693.000	2.06902	-0.07555	1.37573	-0.36793
3694.000	2.01374	-0.16701	1.37375	-0.34407
3695.000	2.01769	-0.14116	1.29274	-0.40971
3696.000	1.99202	-0.20876	1.34214	-0.32220
3697.000	2.00979	-0.16502	1.34412	-0.39181
3698.000	2.01966	-0.16303	1.35399	-0.39578
3699.000	1.99597	-0.18490	1.36980	-0.40373
3700.000	2.03546	-0.15110	1.44686	-0.43554
3701.000	1.97424	-0.16304	1.35004	-0.42959
3702.000	2.02558	-0.17496	1.44488	-0.41963
3703.000	2.02953	-0.16303	1.32238	-0.39181
3704.000	2.02953	-0.16900	1.35399	-0.40175
3705.000	2.07692	-0.14315	1.37771	-0.44152
3706.000	2.01571	-0.15906	1.35795	-0.31822
3707.000	2.04335	-0.16104	1.35004	-0.36197
3708.000	2.04533	-0.16104	1.37375	-0.46340
3709.000	2.10259	-0.15706	1.40537	-0.45543
3710.000	2.07297	-0.12525	1.41129	-0.45146
3711.000	2.05718	-0.18490	1.40932	-0.41964
3712.000	2.06310	-0.19881	1.40142	-0.41168
3713.000	2.02558	-0.20478	1.27298	-0.44154
3714.000	2.05718	-0.19285	1.31250	-0.37391
3715.000	2.05520	-0.16104	1.33226	-0.40374
3716.000	2.06902	-0.15507	1.32436	-0.42363
3717.000	1.97819	-0.23660	1.36980	-0.41169
3718.000	1.99399	-0.24256	1.37771	-0.36793
3719.000	2.01966	-0.21472	1.28879	-0.39977
3720.000	2.00781	-0.24654	1.35202	-0.41965
3721.000	1.99991	-0.25250	1.38758	-0.43356
3722.000	2.00584	-0.20677	1.32040	-0.35402
3723.000	2.00584	-0.19882	1.33621	-0.42363
3724.000	2.06705	-0.19484	1.32040	-0.37789
3725.000	1.99597	-0.23063	1.37178	-0.37390
3726.000	2.01374	-0.19087	1.37968	-0.36595
3727.000	2.01571	-0.17894	1.28681	-0.34806
3728.000	2.00979	-0.22666	1.35202	-0.37192
3729.000	2.05915	-0.20677	1.39549	-0.34804
3730.000	2.06310	-0.19683	1.33621	-0.33612
3731.000	2.02163	-0.20677	1.41525	-0.34804
3732.000	2.01966	-0.21075	1.29669	-0.36397
3733.000	2.02756	-0.18689	1.35597	-0.36197
3734.000	2.02953	-0.16701	1.37178	-0.40174
3735.000	2.04928	-0.19285	1.35004	-0.35203
3736.000	2.06310	-0.17297	1.29472	-0.42165
3737.000	2.06310	-0.12724	1.33621	-0.38385
3738.000	2.04138	-0.14911	1.29076	-0.38585
3739.000	2.05125	-0.17496	1.33028	-0.34606
3740.000	2.03941	-0.17098	1.32633	-0.35999
3741.000	2.04335	-0.15905	1.33424	-0.37391
3742.000	2.06705	-0.10935	1.31645	-0.36794
3743.000	2.03151	-0.15905	1.35202	-0.43953
3744.000	2.05323	-0.17496	1.31843	-0.38982
3745.000	2.02953	-0.22864	1.37178	-0.49323
3746.000	2.09271	-0.08549	1.35399	-0.39976
3747.000	2.00386	-0.15309	1.39944	-0.49521
3748.000	2.05520	-0.12923	1.33819	-0.39777
3749.000	2.06112	-0.15309	1.34412	-0.43357
3750.000	2.10061	-0.11531	1.30855	-0.43954
3751.000	2.05125	-0.13321	1.27693	-0.40773
3752.000	2.03151	-0.15707	1.33621	-0.40175
3753.000	2.09074	-0.14314	1.34609	-0.39180
3754.000	2.08087	-0.15309	1.31843	-0.38982
3755.000	2.05323	-0.12724	1.34807	-0.43755
3756.000	2.06112	-0.15706	1.33226	-0.42164
3757.000	2.08482	-0.12525	1.42315	-0.46736
3758.000	2.05323	-0.16502	1.40339	-0.46140
3759.000	2.01769	-0.19484	1.33424	-0.38783
3760.000	2.03941	-0.21075	1.36190	-0.41368
3761.000	2.09271	-0.16302	1.32040	-0.47136
3762.000	2.08679	-0.14314	1.36585	-0.35799
3763.000	2.02756	-0.22864	1.33819	-0.39181
3764.000	2.06705	-0.16502	1.27693	-0.38983
3765.000	2.06310	-0.19086	1.36980	-0.46141
3766.000	2.02558	-0.19882	1.38758	-0.35202
3767.000	2.03546	-0.21671	1.34609	-0.42959
3768.000	2.02953	-0.16104	1.29867	-0.39380
3769.000	2.07889	-0.18490	1.37771	-0.42163
3770.000	2.03941	-0.22864	1.35597	-0.40572
3771.000	2.07495	-0.17893	1.33028	-0.47534
3772.000	2.05323	-0.19882	1.34214	-0.46738
3773.000	1.98017	-0.25847	1.37573	-0.40771
3774.000	2.05323	-0.15309	1.37968	-0.43157
3775.000	2.02558	-0.22069	1.35399	-0.43556
3776.000	2.05915	-0.20876	1.35992	-0.41965
3777.000	2.02361	-0.24653	1.29669	-0.42363
3778.000	2.10456	-0.14314	1.36783	-0.41368
3779.000	2.09074	-0.14911	1.37375	-0.35600
3780.000	1.99794	-0.22467	1.33819	-0.39181
3781.000	2.07297	-0.17694	1.33819	-0.43755
3782.000	2.06902	-0.19484	1.39549	-0.39577
3783.000	2.04730	-0.23659	1.44093	-0.35798
3784.000	2.01374	-0.22069	1.36190	-0.37788
3785.000	2.05915	-0.22267	1.36980	-0.36992
3786.000	2.06310	-0.23460	1.33621	-0.40772
3787.000	2.04730	-0.22069	1.40932	-0.36992
3788.000	2.03743	-0.19683	1.35795	-0.43357
3789.000	2.06902	-0.21074	1.32633	-0.41368
3790.000	2.08482	-0.22863	1.35004	-0.33015
3791.000	2.07889	-0.15507	1.40932	-0.35997
3792.000	2.07297	-0.18887	1.38166	-0.46339
3793.000	2.07100	-0.18092	1.35992	-0.40175
3794.000	2.11048	-0.18688	1.34807	-0.42561
3795.000	2.10851	-0.18092	1.35992	-0.37589
3796.000	2.10654	-0.17694	1.35399	-0.43556
3797.000	2.09074	-0.14116	1.29472	-0.36596
3798.000	2.05718	-0.17496	1.33819	-0.41368
3799.000	2.09666	-0.17495	1.30855	-0.40175
3800.000	2.05125	-0.15110	1.34412	-0.38186
3801.000	2.07889	-0.20478	1.38956	-0.35600
3802.000	2.12825	-0.14910	1.34016	-0.38186
3803.000	2.07495	-0.19881	1.39351	-0.32219
3804.000	2.07692	-0.18688	1.33621	-0.40971
3805.000	2.03151	-0.20081	1.35399	-0.36794
3806.000	2.05520	-0.20478	1.36585	-0.41766
3807.000	2.09271	-0.13718	1.34609	-0.40970
3808.000	2.03941	-0.23063	1.35597	-0.34606
3809.000	2.07692	-0.12923	1.31645	-0.40175
3810.000	2.09271	-0.13917	1.36783	-0.37788
3811.000	2.05718	-0.16303	1.33226	-0.37590
3812.000	2.08877	-0.14314	1.30262	-0.39977
3813.000	2.05915	-0.12724	1.37573	-0.41567
3814.000	1.99991	-0.17099	1.34412	-0.46539
3815.000	2.02558	-0.15906	1.37178	-0.39379
3816.000	2.09271	-0.12127	1.37375	-0.45942
3817.000	2.04928	-0.14116	1.32238	-0.46539
3818.000	2.06112	-0.11730	1.34412	-0.45545
3819.000	2.09271	-0.11730	1.36585	-0.47732
3820.000	2.08877	-0.07754	1.41722	-0.42560
3821.000	2.13220	-0.07753	1.40734	-0.41168
3822.000	2.09666	-0.11730	1.42117	-0.45145
3823.000	2.10456	-0.06958	1.42315	-0.45941
3824.000	2.05520	-0.14712	1.30064	-0.36397
3825.000	2.10061	-0.14314	1.33424	-0.40971
3826.000	2.10061	-0.12326	1.40734	-0.41964
3827.000	2.11048	-0.15706	1.37968	-0.42561
3828.000	2.14010	-0.15904	1.34609	-0.39180
3829.000	2.08284	-0.13519	1.35202	-0.40374
3830.000	2.08284	-0.20875	1.36387	-0.37191
3831.000	2.13220	-0.15904	1.31645	-0.36595
3832.000	2.07692	-0.16899	1.30855	-0.38584
3833.000	2.06112	-0.20279	1.33028	-0.28441
3834.000	2.09864	-0.19881	1.39549	-0.30827
3835.000	2.08877	-0.16104	1.35399	-0.35402
3836.000	2.12233	-0.20079	1.41722	-0.39378
3837.000	2.08482	-0.18887	1.33819	-0.28242
3838.000	2.07692	-0.16303	1.47847	-0.36593
3839.000	2.06507	-0.20677	1.41525	-0.35997
3840.000	2.09666	-0.19285	1.40734	-0.32815
3841.000	2.04730	-0.19683	1.33819	-0.29634
3842.000	2.05718	-0.24653	1.36783	-0.33214
3843.000	2.05718	-0.16104	1.37573	-0.32219
3844.000	2.11246	-0.14712	1.33226	-0.27049
3845.000	2.09469	-0.13917	1.44686	-0.36593
3846.000	2.14010	-0.12922	1.40932	-0.33611
3847.000	2.12233	-0.14911	1.35202	-0.36197
3848.000	2.04928	-0.24454	1.40142	-0.35600
3849.000	2.13023	-0.14910	1.42315	-0.32020
3850.000	2.12628	-0.14513	1.49230	-0.33610
3851.000	2.10456	-0.14712	1.38956	-0.29037
3852.000	2.10259	-0.16899	1.40339	-0.34605
3853.000	2.10456	-0.14115	1.43896	-0.31025
3854.000	2.08877	-0.13320	1.40142	-0.34605
3855.000	2.10259	-0.13320	1.26903	-0.36000
3856.000	2.11246	-0.08549	1.43500	-0.35003
3857.000	2.05915	-0.13718	1.34412	-0.38982
3858.000	2.04928	-0.16502	1.37178	-0.37788
3859.000	2.13220	-0.13718	1.37178	-0.34407
3860.000	2.10259	-0.10935	1.33819	-0.36794
3861.000	2.07495	-0.12525	1.41129	-0.32020
3862.000	2.08087	-0.10935	1.40339	-0.32617
3863.000	2.10654	-0.12127	1.47254	-0.36195
3864.000	2.08284	-0.11929	1.39746	-0.41566
3865.000	2.05718	-0.09742	1.40734	-0.41566
3866.000	2.08877	-0.14513	1.40932	-0.39378
3867.000	2.06705	-0.15110	1.40734	-0.38384
3868.000	2.09074	-0.15110	1.40932	-0.44549
3869.000	2.08284	-0.14116	1.37771	-0.33015
3870.000	2.05718	-0.10537	1.41129	-0.37191
3871.000	2.04335	-0.16502	1.35004	-0.34606
3872.000	2.02953	-0.14315	1.39746	-0.35600
3873.000	2.06902	-0.15309	1.36585	-0.43158
3874.000	2.07692	-0.14712	1.40932	-0.36793
3875.000	2.07692	-0.15905	1.47847	-0.37388
3876.000	2.10259	-0.11929	1.38363	-0.35799
3877.000	2.09271	-0.20676	1.42908	-0.33810
3878.000	2.09271	-0.13320	1.39746	-0.32219
3879.000	2.10259	-0.14712	1.37968	-0.38186
3880.000	2.06705	-0.12724	1.42513	-0.41765
3881.000	2.10456	-0.15905	1.47057	-0.39377
3882.000	2.08087	-0.12923	1.46266	-0.37985
3883.000	2.09271	-0.15110	1.42710	-0.35401
3884.000	2.06507	-0.14116	1.40339	-0.33213
3885.000	2.06507	-0.13122	1.47254	-0.35996
3886.000	2.04730	-0.18689	1.41129	-0.30429
3887.000	2.04730	-0.16899	1.34807	-0.34606
3888.000	2.04928	-0.17695	1.42315	-0.29235
3889.000	2.07692	-0.16104	1.41722	-0.32219
3890.000	2.04533	-0.20677	1.45081	-0.30826
3891.000	2.07100	-0.22863	1.40537	-0.23269
3892.000	2.07297	-0.18092	1.38758	-0.30429
3893.000	2.05520	-0.20279	1.43303	-0.31423
3894.000	2.05323	-0.16899	1.45476	-0.31025
3895.000	2.05718	-0.16303	1.40142	-0.31821
3896.000	2.05915	-0.17496	1.44093	-0.29633
3897.000	2.08087	-0.17297	1.45081	-0.32019
3898.000	2.04533	-0.13718	1.38166	-0.30827
3899.000	2.05915	-0.12724	1.48440	-0.33610
3900.000	2.06705	-0.11134	1.44093	-0.38980
3901.000	2.05323	-0.11332	1.39944	-0.35600
3902.000	2.07100	-0.10935	1.36585	-0.38186
3903.000	2.05520	-0.14514	1.42315	-0.41168
3904.000	2.07495	-0.09145	1.43105	-0.33809
3905.000	2.06112	-0.12525	1.36190	-0.34208
3906.000	2.07495	-0.10139	1.38758	-0.38185
3907.000	2.09864	-0.11531	1.37573	-0.39777
3908.000	2.08087	-0.15706	1.48242	-0.35797
3909.000	2.10061	-0.17098	1.43698	-0.32815
3910.000	2.07889	-0.14513	1.50020	-0.36195
3911.000	2.08877	-0.12326	1.40734	-0.35997
3912.000	2.09271	-0.15706	1.45081	-0.39974
3913.000	2.08877	-0.15706	1.42513	-0.41168
3914.000	2.07297	-0.17496	1.41722	-0.35401
3915.000	2.11641	-0.12525	1.33621	-0.31822
3916.000	2.13812	-0.15706	1.38956	-0.33611
3917.000	2.11838	-0.21670	1.41722	-0.32020
3918.000	2.11641	-0.19085	1.41722	-0.31821
3919.000	2.10259	-0.16700	1.38561	-0.25059
3920.000	2.12233	-0.19881	1.47057	-0.28638
3921.000	2.09271	-0.17893	1.47452	-0.33212
3922.000	2.10456	-0.21869	1.49230	-0.27842
3923.000	2.12233	-0.17296	1.47057	-0.31025
3924.000	2.12430	-0.17893	1.45279	-0.26252
3925.000	2.11443	-0.18489	1.44093	-0.30428
3926.000	2.10851	-0.16700	1.39351	-0.32219
3927.000	2.08679	-0.17495	1.45476	-0.34605
3928.000	2.10259	-0.19483	1.37375	-0.26253
3929.000	2.12036	-0.19085	1.41722	-0.29037
3930.000	2.12430	-0.19085	1.46464	-0.31621
3931.000	2.10654	-0.16302	1.43896	-0.34008
3932.000	2.08877	-0.18092	1.41525	-0.28042
3933.000	2.11048	-0.18688	1.47057	-0.29036
3934.000	2.07692	-0.18490	1.42710	-0.25656
3935.000	2.08482	-0.19086	1.42315	-0.35401
3936.000	2.06112	-0.16104	1.49032	-0.32218
3937.000	2.10259	-0.17893	1.42315	-0.36992
3938.000	2.10456	-0.19086	1.37178	-0.29435
3939.000	2.07495	-0.16899	1.42908	-0.32815
3940.000	2.09666	-0.15507	1.47254	-0.26252
3941.000	2.08877	-0.18291	1.47847	-0.32218
3942.000	2.11838	-0.14712	1.43698	-0.26650
3943.000	2.11443	-0.14314	1.46662	-0.33809
3944.000	2.12628	-0.17495	1.50020	-0.35797
3945.000	2.13220	-0.14513	1.49428	-0.33013
3946.000	2.12430	-0.14513	1.47452	-0.29235
3947.000	2.12233	-0.15905	1.40339	-0.27446
3948.000	2.14800	-0.12326	1.50218	-0.26450
3949.000	2.16181	-0.14314	1.50613	-0.33808
3950.000	2.13023	-0.15109	1.47847	-0.34803
3951.000	2.13615	-0.13718	1.47254	-0.35996
3952.000	2.13418	-0.17495	1.49625	-0.28638
3953.000	2.12036	-0.16501	1.44093	-0.29633
3954.000	2.12036	-0.15905	1.48835	-0.30627
3955.000	2.09074	-0.17495	1.48242	-0.27445
3956.000	2.07889	-0.18092	1.43896	-0.29832
3957.000	2.07100	-0.17098	1.39154	-0.30628
3958.000	2.09864	-0.13718	1.48045	-0.26848
3959.000	2.10061	-0.17098	1.52589	-0.23069
3960.000	2.10061	-0.18290	1.43500	-0.27445
3961.000	2.09666	-0.18887	1.40142	-0.29633
3962.000	2.05125	-0.15110	1.41327	-0.19888
3963.000	2.06705	-0.18490	1.40142	-0.19689
3964.000	2.06705	-0.15309	1.37771	-0.19093
3965.000	2.07692	-0.16501	1.47649	-0.23666
3966.000	2.06902	-0.19285	1.44488	-0.23667
3967.000	2.09469	-0.19285	1.42908	-0.19291
3968.000	2.10259	-0.17495	1.45081	-0.28837
3969.000	2.11443	-0.17296	1.41920	-0.25656
3970.000	2.10456	-0.17694	1.43896	-0.25854
3971.000	2.11641	-0.18489	1.43896	-0.27843
3972.000	2.10654	-0.16899	1.44686	-0.28440
3973.000	2.11048	-0.17694	1.49032	-0.27644
3974.000	2.07889	-0.17893	1.40932	-0.25059
3975.000	2.11246	-0.19881	1.45476	-0.26053
3976.000	2.11246	-0.21074	1.47649	-0.28638
3977.000	2.09469	-0.19285	1.50810	-0.30626
3978.000	2.12825	-0.17694	1.43896	-0.24661
3979.000	2.07100	-0.17893	1.49032	-0.29235
3980.000	2.10851	-0.16700	1.43105	-0.27048
3981.000	2.12233	-0.17495	1.52786	-0.33609
3982.000	2.10456	-0.18489	1.43303	-0.30031
3983.000	2.16576	-0.14910	1.48242	-0.23070
3984.000	2.14800	-0.18290	1.45476	-0.27445
3985.000	2.12430	-0.12922	1.45279	-0.27047
3986.000	2.10259	-0.13917	1.53379	-0.30228
3987.000	2.17169	-0.16500	1.50613	-0.31820
3988.000	2.13418	-0.15507	1.46859	-0.27843
3989.000	2.15787	-0.13121	1.43500	-0.24064
3990.000	2.13220	-0.15904	1.38956	-0.28838
3991.000	2.10654	-0.10934	1.50020	-0.34604
3992.000	2.13812	-0.13519	1.46464	-0.28638
3993.000	2.13023	-0.17694	1.46662	-0.29633
3994.000	2.11246	-0.10338	1.45279	-0.31423
3995.000	2.14997	-0.14711	1.49823	-0.32814
3996.000	2.12036	-0.14314	1.44093	-0.39974
3997.000	2.14602	-0.10338	1.55749	-0.28836
3998.000	2.13023	-0.12326	1.57330	-0.40370
3999.000	2.12430	-0.13916	1.52391	-0.32217
4000.000	2.12036	-0.11332	1.46266	-0.38980
4001.000	2.12628	-0.07952	1.55354	-0.34006
4002.000	2.12430	-0.08946	1.52193	-0.32416
4003.000	2.15194	-0.11531	1.50415	-0.35200
4004.000	2.10259	-0.11332	1.55947	-0.31819
4005.000	2.10851	-0.13320	1.48637	-0.35002
4006.000	2.10456	-0.10736	1.52391	-0.28240
4007.000	2.11048	-0.13519	1.49823	-0.32019
4008.000	2.12628	-0.16103	1.49428	-0.26450
4009.000	2.13023	-0.14712	1.47649	-0.33809
4010.000	2.15787	-0.17097	1.48637	-0.22672
4011.000	2.14010	-0.14513	1.42315	-0.29434
4012.000	2.14997	-0.16302	1.47254	-0.26053
4013.000	2.14207	-0.14314	1.47649	-0.26848
4014.000	2.11246	-0.17296	1.50613	-0.28439
4015.000	2.14405	-0.18290	1.49823	-0.28439
4016.000	2.12628	-0.20477	1.49032	-0.27445
4017.000	2.08877	-0.19285	1.45081	-0.24860
4018.000	2.10851	-0.23459	1.49625	-0.29831
4019.000	2.09864	-0.16104	1.45871	-0.30428
4020.000	2.12628	-0.18091	1.42513	-0.29235
4021.000	2.11246	-0.18688	1.54169	-0.31620
4022.000	2.12430	-0.16302	1.43500	-0.25258
4023.000	2.14602	-0.16700	1.52786	-0.29234
4024.000	2.11246	-0.14911	1.51601	-0.35001
4025.000	2.13812	-0.15507	1.48242	-0.31621
4026.000	2.14800	-0.13519	1.47452	-0.31621
4027.000	2.13220	-0.13320	1.54564	-0.33609
4028.000	2.12825	-0.11332	1.46662	-0.31820
4029.000	2.11641	-0.15706	1.52391	-0.33609
4030.000	2.12430	-0.12724	1.49428	-0.25854
4031.000	2.13023	-0.12724	1.53181	-0.29831
4032.000	2.13220	-0.10934	1.56342	-0.32813
4033.000	2.14405	-0.08747	1.57132	-0.26449
4034.000	2.11246	-0.07555	1.52984	-0.26450
4035.000	2.12233	-0.06759	1.50810	-0.31024
4036.000	2.14800	-0.09543	1.56145	-0.27643
4037.000	2.14800	-0.09543	1.58318	-0.24063
4038.000	2.12825	-0.14712	1.54762	-0.28836
4039.000	2.10654	-0.13917	1.55157	-0.28041
4040.000	2.09271	-0.13718	1.54169	-0.28240
4041.000	2.12628	-0.15109	1.56145	-0.27245
4042.000	2.10259	-0.18092	1.47254	-0.29235
4043.000	2.11246	-0.18688	1.51008	-0.25456
4044.000	2.10456	-0.19682	1.59503	-0.30227
4045.000	2.12036	-0.17893	1.54959	-0.24859
4046.000	2.12628	-0.12326	1.59305	-0.25455
4047.000	2.14602	-0.13717	1.60096	-0.27642
4048.000	2.10851	-0.13320	1.48637	-0.22871
4049.000	2.12036	-0.08151	1.57725	-0.23267
4050.000	2.11246	-0.11332	1.58515	-0.24063
4051.000	2.10654	-0.12724	1.51798	-0.30825
4052.000	2.11641	-0.08748	1.54564	-0.26052
4053.000	2.11048	-0.07754	1.48242	-0.31820
4054.000	2.15392	-0.05169	1.54169	-0.29830
4055.000	2.13615	-0.07555	1.53774	-0.30626
4056.000	2.16774	-0.10735	1.46464	-0.23865
4057.000	2.15589	-0.01193	1.47847	-0.23070
4058.000	2.13220	-0.06958	1.54959	-0.30427
4059.000	2.13023	-0.06362	1.51996	-0.29632
4060.000	2.15194	-0.12723	1.51798	-0.28240
4061.000	2.10061	-0.12724	1.53774	-0.18296
4062.000	2.13418	-0.13916	1.50020	-0.22473
4063.000	2.11246	-0.16103	1.48440	-0.22274
4064.000	2.14602	-0.17296	1.57725	-0.27046
4065.000	2.10851	-0.15308	1.49823	-0.26053
4066.000	2.12233	-0.15507	1.58515	-0.24063
4067.000	2.10061	-0.15110	1.46662	-0.23468
4068.000	2.13615	-0.15109	1.54762	-0.27842
4069.000	2.13023	-0.09145	1.63454	-0.27443
4070.000	2.11246	-0.12127	1.53379	-0.21279
4071.000	2.13023	-0.12922	1.58515	-0.29631
4072.000	2.13220	-0.08350	1.52589	-0.30427
4073.000	2.15194	-0.10338	1.51798	-0.28836
4074.000	2.12825	-0.10338	1.60886	-0.32017
4075.000	2.18550	-0.11133	1.54169	-0.33012
4076.000	2.15589	-0.07753	1.62861	-0.29233
4077.000	2.16971	-0.06759	1.53774	-0.28836
4078.000	2.16774	-0.07157	1.59108	-0.29233
4079.000	2.13812	-0.09344	1.60293	-0.28636
4080.000	2.16181	-0.12326	1.51798	-0.25456
4081.000	2.17563	-0.07554	1.61873	-0.32216
4082.000	2.13220	-0.13519	1.53379	-0.31223
4083.000	2.17958	-0.10338	1.52589	-0.25257
4084.000	2.19932	-0.11331	1.49823	-0.28439
4085.000	2.15787	-0.13121	1.49823	-0.19689
4086.000	2.18748	-0.13717	1.63256	-0.24858
4087.000	2.16971	-0.14512	1.53379	-0.24859
4088.000	2.18156	-0.15506	1.58910	-0.22870
4089.000	2.20130	-0.14711	1.58120	-0.21677
4090.000	2.13418	-0.19682	1.54367	-0.30427
4091.000	2.14997	-0.16302	1.58713	-0.28637
4092.000	2.13220	-0.17097	1.59108	-0.26648
4093.000	2.16971	-0.16302	1.54169	-0.22075
4094.000	2.13418	-0.15507	1.56145	-0.27444
4095.000	2.12233	-0.18688	1.61873	-0.27443
4096.000	2.15392	-0.16898	1.59108	-0.21080
4097.000	2.11443	-0.16302	1.51798	-0.24660
4098.000	2.16774	-0.12127	1.58120	-0.31620
4099.000	2.13615	-0.12525	1.59898	-0.21279
4100.000	2.17958	-0.07753	1.61083	-0.25455
4101.000	2.13812	-0.11531	1.60293	-0.26051
4102.000	2.16774	-0.10139	1.61676	-0.24261
4103.000	2.15787	-0.06958	1.55552	-0.25256
4104.000	2.15589	-0.11531	1.55157	-0.25256
4105.000	2.19538	-0.08349	1.56342	-0.31819
4106.000	2.19538	-0.08349	1.68195	-0.26647
4107.000	2.16181	-0.04572	1.56145	-0.29035
4108.000	2.16971	-0.09542	1.59108	-0.29432
4109.000	2.18550	-0.06163	1.59108	-0.23665
4110.000	2.14010	-0.03976	1.61873	-0.26449
4111.000	2.17761	-0.05765	1.56342	-0.19091
4112.000	2.17563	-0.04771	1.58318	-0.30625
4113.000	2.18748	-0.06163	1.59305	-0.25256
4114.000	2.16379	-0.12326	1.62466	-0.27642
4115.000	2.15787	-0.05566	1.58515	-0.25057
4116.000	2.15194	-0.09344	1.60096	-0.28040
4117.000	2.18748	-0.05566	1.61478	-0.24858
4118.000	2.18156	-0.07554	1.56145	-0.27643
4119.000	2.16774	-0.05964	1.56540	-0.27444
4120.000	2.17366	-0.11928	1.63651	-0.19687
4121.000	2.17366	-0.11729	1.56737	-0.18893
4122.000	2.14602	-0.07157	1.62861	-0.24858
4123.000	2.16971	-0.10934	1.59898	-0.25057
4124.000	2.21906	-0.09940	1.53774	-0.25853
4125.000	2.20919	-0.08151	1.60688	-0.20085
4126.000	2.19538	-0.05566	1.54564	-0.20683
4127.000	2.19932	-0.10337	1.59898	-0.16904
4128.000	2.18945	-0.09940	1.52786	-0.22870
4129.000	2.20722	-0.12922	1.56145	-0.18296
4130.000	2.18156	-0.12127	1.58713	-0.17301
4131.000	2.17563	-0.08747	1.58910	-0.18097
4132.000	2.17169	-0.06759	1.53971	-0.22870
4133.000	2.16379	-0.10934	1.61478	-0.24659
4134.000	2.17761	-0.11530	1.66614	-0.22670
4135.000	2.15392	-0.10934	1.63256	-0.23267
4136.000	2.14800	-0.17097	1.51206	-0.18495
4137.000	2.17958	-0.08548	1.55947	-0.19091
4138.000	2.16576	-0.10735	1.58713	-0.21676
4139.000	2.17761	-0.12723	1.58515	-0.23466
4140.000	2.18748	-0.13121	1.54762	-0.24461
4141.000	2.15194	-0.12525	1.63256	-0.29630
4142.000	2.16379	-0.13320	1.58515	-0.20881
4143.000	2.14405	-0.12525	1.63256	-0.24261
4144.000	2.14800	-0.15109	1.69182	-0.21874
4145.000	2.15392	-0.13519	1.67404	-0.20880
4146.000	2.18353	-0.13518	1.61083	-0.23466
4147.000	2.14800	-0.12525	1.61281	-0.17301
4148.000	2.16379	-0.13916	1.70565	-0.22272
4149.000	2.15787	-0.18290	1.65034	-0.24460
4150.000	2.12036	-0.14712	1.62861	-0.20085
4151.000	2.13812	-0.17694	1.71750	-0.22470
4152.000	2.14602	-0.15904	1.67009	-0.19687
4153.000	2.16971	-0.12524	1.60096	-0.20682
4154.000	2.12825	-0.16700	1.61676	-0.22472
4155.000	2.13615	-0.15706	1.65627	-0.26846
4156.000	2.17958	-0.12524	1.57527	-0.21875
4157.000	2.14800	-0.13519	1.63256	-0.22471
4158.000	2.15589	-0.14314	1.63256	-0.23267
4159.000	2.15194	-0.12326	1.59305	-0.23864
4160.000	2.16379	-0.15109	1.62071	-0.25852
4161.000	2.15589	-0.11133	1.60688	-0.21676
4162.000	2.15194	-0.10735	1.60293	-0.20881
4163.000	2.14800	-0.15507	1.67009	-0.28834
4164.000	2.15984	-0.13519	1.62861	-0.22471
4165.000	2.14602	-0.14115	1.65232	-0.27443
4166.000	2.17563	-0.12326	1.64837	-0.26647
4167.000	2.17366	-0.13717	1.68787	-0.23465
4168.000	2.13023	-0.14314	1.58910	-0.20483
4169.000	2.12825	-0.13320	1.66812	-0.24261
4170.000	2.14997	-0.13519	1.64046	-0.31420
4171.000	2.13220	-0.13320	1.66417	-0.28437
4172.000	2.15392	-0.16302	1.63651	-0.27244
4173.000	2.16181	-0.13519	1.68590	-0.25056
4174.000	2.14010	-0.11729	1.66219	-0.27045
4175.000	2.15589	-0.10537	1.65824	-0.26051
4176.000	2.18550	-0.12127	1.63651	-0.27443
4177.000	2.17563	-0.11332	1.64244	-0.28835
4178.000	2.17958	-0.09741	1.63256	-0.26051
4179.000	2.16181	-0.11928	1.62466	-0.25852
4180.000	2.15194	-0.13121	1.64046	-0.24460
4181.000	2.17366	-0.11729	1.68195	-0.27641
4182.000	2.15787	-0.09741	1.66417	-0.28039
4183.000	2.15787	-0.09145	1.68195	-0.24658
4184.000	2.16774	-0.09344	1.60688	-0.25455
4185.000	2.14405	-0.10735	1.63849	-0.27841
4186.000	2.17958	-0.10338	1.66812	-0.27641
4187.000	2.17958	-0.08350	1.69182	-0.28436
4188.000	2.17761	-0.09940	1.63059	-0.29431
4189.000	2.16181	-0.11332	1.65429	-0.30425
4190.000	2.17169	-0.08946	1.62664	-0.33608
4191.000	2.16774	-0.10338	1.70762	-0.26845
4192.000	2.18550	-0.11530	1.64639	-0.28238
4193.000	2.19340	-0.09741	1.60096	-0.29631
4194.000	2.17563	-0.14512	1.65824	-0.30624
4195.000	2.15984	-0.14513	1.65429	-0.29829
4196.000	2.18945	-0.13319	1.62071	-0.32613
4197.000	2.17563	-0.11133	1.70960	-0.33407
4198.000	2.18353	-0.14512	1.64244	-0.34800
4199.000	2.15984	-0.07952	1.67009	-0.36192
4200.000	2.18550	-0.10139	1.67009	-0.32811
4201.000	2.20525	-0.07554	1.60491	-0.30426
4202.000	2.21314	-0.09343	1.69380	-0.35197
4203.000	2.23288	-0.08150	1.65824	-0.31618
4204.000	2.23091	-0.08747	1.71948	-0.37185
4205.000	2.18945	-0.05765	1.65232	-0.32016
4206.000	2.20525	-0.08151	1.69380	-0.31021
4207.000	2.20525	-0.10337	1.65232	-0.31619
4208.000	2.17958	-0.12922	1.63651	-0.33409
4209.000	2.21906	-0.14114	1.66614	-0.30028
4210.000	2.23486	-0.12325	1.67602	-0.32215
4211.000	2.17563	-0.10536	1.65627	-0.36988
4212.000	2.19143	-0.12922	1.64244	-0.28636
4213.000	2.22499	-0.12126	1.63454	-0.35994
4214.000	2.19932	-0.09542	1.68392	-0.31817
4215.000	2.20327	-0.08349	1.61873	-0.30227
4216.000	2.19735	-0.12325	1.70170	-0.32015
4217.000	2.23091	-0.09741	1.70367	-0.34998
4218.000	2.23288	-0.10536	1.61281	-0.34801
4219.000	2.19735	-0.09145	1.72935	-0.35594
4220.000	2.19143	-0.09940	1.53971	-0.36393
4221.000	2.27236	-0.12325	1.67800	-0.32016
4222.000	2.20327	-0.13518	1.64244	-0.34005
4223.000	2.21314	-0.12922	1.66219	-0.27641
4224.000	2.22499	-0.12524	1.62861	-0.36193
4225.000	2.18156	-0.16103	1.63849	-0.25454
4226.000	2.18353	-0.15705	1.63849	-0.36391
4227.000	2.16576	-0.18290	1.63256	-0.29233
4228.000	2.19932	-0.17295	1.62861	-0.32414
4229.000	2.16774	-0.17296	1.65232	-0.30227
4230.000	2.22104	-0.15108	1.56145	-0.28438
4231.000	2.18156	-0.15705	1.63059	-0.26846
4232.000	2.18550	-0.14313	1.67997	-0.23067
4233.000	2.20130	-0.16898	1.70762	-0.29430
4234.000	2.17563	-0.18290	1.64837	-0.31817
4235.000	2.19932	-0.14910	1.63256	-0.23665
4236.000	2.17169	-0.14910	1.61478	-0.24659
4237.000	2.18748	-0.13717	1.68985	-0.20681
4238.000	2.20130	-0.13121	1.60688	-0.22869
4239.000	2.18748	-0.16500	1.63059	-0.28636
4240.000	2.21709	-0.16102	1.66614	-0.25653
4241.000	2.20525	-0.19084	1.61478	-0.24062
4242.000	2.21709	-0.19084	1.69380	-0.27442
4243.000	2.20327	-0.16102	1.72738	-0.27044
4244.000	2.23683	-0.17692	1.60886	-0.30625
4245.000	2.20525	-0.20874	1.68392	-0.28436
4246.000	2.18748	-0.17295	1.63256	-0.25852
4247.000	2.20919	-0.17096	1.62664	-0.22670
4248.000	2.20130	-0.16301	1.67800	-0.35595
4249.000	2.20722	-0.16102	1.64837	-0.26448
4250.000	2.22499	-0.13120	1.61281	-0.28636
4251.000	2.21906	-0.12524	1.61873	-0.30227
4252.000	2.25262	-0.14114	1.61676	-0.31221
4253.000	2.19932	-0.15109	1.71948	-0.32612
4254.000	2.23091	-0.11530	1.69577	-0.28237
4255.000	2.22696	-0.11928	1.65824	-0.24062
4256.000	2.21709	-0.14512	1.66219	-0.27840
4257.000	2.25262	-0.11927	1.73133	-0.34003
4258.000	2.24473	-0.12126	1.62466	-0.34403
4259.000	2.22893	-0.14114	1.68195	-0.30425
4260.000	2.26841	-0.11530	1.69182	-0.27044
4261.000	2.22893	-0.10735	1.75503	-0.32015
4262.000	2.23288	-0.11928	1.63849	-0.32215
4263.000	2.23486	-0.14114	1.69972	-0.34402
4264.000	2.26249	-0.11331	1.66614	-0.37584
4265.000	2.22499	-0.13120	1.70170	-0.33606
4266.000	2.22893	-0.12723	1.67997	-0.30624
4267.000	2.23880	-0.13319	1.69972	-0.33805
4268.000	2.23288	-0.12524	1.68985	-0.34004
4269.000	2.22104	-0.16102	1.71355	-0.33606
4270.000	2.16576	-0.11729	1.66614	-0.42555
4271.000	2.14207	-0.13121	1.65034	-0.35993
4272.000	2.10851	-0.12326	1.58910	-0.38580
4273.000	2.02361	-0.15110	1.58515	-0.36591
4274.000	1.94462	-0.13918	1.49823	-0.36791
4275.000	1.86168	-0.12129	1.38956	-0.32020
4276.000	1.81823	-0.13124	1.34807	-0.31225
4277.000	1.68985	-0.09744	1.29669	-0.38187
4278.000	1.61083	-0.12131	1.13465	-0.37791
4279.000	1.49428	-0.12131	1.06943	-0.38787
4280.000	1.44686	-0.10143	1.04177	-0.36201
4281.000	1.45279	-0.11336	1.00224	-0.34809
