time (ms)	lx (deg)	ly (deg)	rx (deg)	ry (deg)
0.000	-1.69972	0.81526	-1.44093	0.95255
1.000	-1.67009	0.81527	-1.40537	0.94660
2.000	-1.67009	0.85702	-1.35992	0.96451
3.000	-1.68392	0.78146	-1.43896	0.96846
4.000	-1.65034	0.80136	-1.41920	0.92870
5.000	-1.66614	0.77550	-1.39351	0.94661
6.000	-1.67207	0.80135	-1.40339	0.99830
7.000	-1.68195	0.79339	-1.36585	0.94861
8.000	-1.64639	0.79142	-1.37573	0.93468
9.000	-1.63651	0.77949	-1.45476	0.94062
10.000	-1.61676	0.81728	-1.37375	0.96451
11.000	-1.62861	0.79341	-1.41129	0.98239
12.000	-1.63651	0.83119	-1.35399	0.95656
13.000	-1.63256	0.77154	-1.43303	0.86109
14.000	-1.64244	0.78744	-1.38166	0.92076
15.000	-1.66022	0.78942	-1.42908	0.93864
16.000	-1.59898	0.77553	-1.40339	0.97444
17.000	-1.65232	0.80732	-1.32040	0.97447
18.000	-1.65034	0.74768	-1.41525	0.90087
19.000	-1.63849	0.79341	-1.36585	1.01820
20.000	-1.63256	0.78745	-1.41327	0.92870
21.000	-1.66417	0.78346	-1.43500	0.94062
22.000	-1.61676	0.81728	-1.38166	0.97047
23.000	-1.63059	0.81926	-1.37573	0.96650
24.000	-1.63849	0.78943	-1.36783	0.99235
25.000	-1.63651	0.81727	-1.35597	0.99235
26.000	-1.62861	0.81131	-1.37968	0.89889
27.000	-1.62861	0.81926	-1.40932	1.01420
28.000	-1.61873	0.77751	-1.38363	0.92474
29.000	-1.58515	0.83320	-1.41327	0.97841
30.000	-1.62861	0.79143	-1.40932	0.91876
31.000	-1.60886	0.81330	-1.43896	0.99430
32.000	-1.62861	0.77154	-1.35004	1.00428
33.000	-1.63256	0.75365	-1.36387	0.94463
34.000	-1.62269	0.76359	-1.37573	0.89094
35.000	-1.59503	0.76957	-1.39746	0.94859
36.000	-1.67009	0.74767	-1.42710	0.96250
37.000	-1.63651	0.77949	-1.44291	0.99033
38.000	-1.62466	0.74769	-1.41920	0.92075
39.000	-1.64639	0.79937	-1.45674	0.94061
40.000	-1.62071	0.78546	-1.41920	1.00624
41.000	-1.56737	0.79741	-1.35992	0.91083
42.000	-1.48242	0.71990	-1.28681	0.93869
43.000	-1.36783	0.65829	-1.12082	0.91887
44.000	-1.16627	0.60265	-1.02003	0.86122
45.000	-0.88958	0.50922	-0.76308	0.79168
46.000	-0.68401	0.38791	-0.65041	0.70816
47.000	-0.43098	0.28448	-0.27678	0.52718
48.000	-0.09094	0.19098	-0.09292	0.50729
49.000	0.14234	0.04178	0.15223	0.29841
50.000	0.38353	-0.02785	0.50017	0.18103
51.000	0.60494	-0.21684	0.68203	0.00796
52.000	0.78087	-0.26059	1.05560	-0.17703
53.000	0.92318	-0.39982	1.16429	-0.19293
54.000	0.99829	-0.48534	1.21567	-0.29238
55.000	1.04177	-0.50721	1.33028	-0.39976
56.000	1.03188	-0.60666	1.40339	-0.52703
57.000	0.96666	-0.61860	1.34214	-0.57477
58.000	0.80063	-0.61863	1.24532	-0.60860
59.000	0.68401	-0.59876	1.04177	-0.61262
60.000	0.54761	-0.55302	0.94690	-0.57684
61.000	0.35586	-0.52519	0.75122	-0.51322
62.000	0.16211	-0.51127	0.55552	-0.47544
63.000	0.02175	-0.42772	0.36969	-0.40384
64.000	-0.09094	-0.37799	0.22538	-0.30239
65.000	-0.19572	-0.26260	0.02768	-0.19894
66.000	-0.25503	-0.21883	-0.03361	-0.11539
67.000	-0.33411	-0.20292	-0.13444	-0.03382
68.000	-0.31236	-0.17905	-0.22735	0.02188
69.000	-0.40528	-0.13130	-0.22933	0.01790
70.000	-0.30248	-0.10146	-0.15223	0.06963
71.000	-0.23724	-0.09947	-0.19177	0.19496
72.000	-0.19177	-0.09549	-0.08501	0.15915
73.000	-0.18584	-0.07361	-0.03954	0.15518
74.000	-0.14827	-0.12136	0.07710	0.15915
75.000	-0.08501	-0.06963	0.04943	0.17308
76.000	-0.06524	-0.15120	0.17991	0.20491
77.000	0.01977	-0.11937	0.29655	0.16114
78.000	0.04349	-0.14722	0.27282	0.10345
79.000	0.08106	-0.12732	0.33016	0.12533
80.000	0.14432	-0.12533	0.34993	0.05172
81.000	0.13641	-0.18303	0.35981	0.02586
82.000	0.16211	-0.14324	0.33806	0.01393
83.000	0.17793	-0.14324	0.39935	0.00597
84.000	0.17200	-0.19894	0.36574	0.04973
85.000	0.23329	-0.19894	0.43691	-0.07759
86.000	0.17398	-0.18701	0.45865	-0.04178
87.000	0.19572	-0.21287	0.45470	-0.06366
88.000	0.20956	-0.20889	0.48633	-0.11737
89.000	0.19375	-0.22679	0.47645	-0.10345
90.000	0.17595	-0.19297	0.45470	-0.05968
91.000	0.21945	-0.22480	0.46656	-0.18700
92.000	0.20561	-0.24669	0.46261	-0.12732
93.000	0.17002	-0.28051	0.46063	-0.10743
94.000	0.18781	-0.27454	0.49226	-0.13130
95.000	0.22142	-0.26857	0.46063	-0.15915
96.000	0.25305	-0.26260	0.42505	-0.11737
97.000	0.24119	-0.27852	0.40528	-0.13528
98.000	0.22933	-0.27454	0.43691	-0.16114
99.000	0.24712	-0.29244	0.41319	-0.19894
100.000	0.23131	-0.32626	0.41516	-0.13926
101.000	0.23724	-0.31830	0.44877	-0.20689
102.000	0.27085	-0.33422	0.49622	-0.13727
103.000	0.24119	-0.29443	0.41714	-0.19496
104.000	0.19572	-0.34616	0.41121	-0.12732
105.000	0.19572	-0.31035	0.47249	-0.17506
106.000	0.22142	-0.30040	0.44086	-0.19496
107.000	0.25503	-0.27454	0.39539	-0.09947
108.000	0.17793	-0.29642	0.43098	-0.11737
109.000	0.21154	-0.29642	0.39935	-0.14125
110.000	0.19177	-0.25862	0.42307	-0.11538
111.000	0.20363	-0.26459	0.34597	-0.10743
112.000	0.18979	-0.27056	0.44679	-0.08753
113.000	0.21747	-0.24072	0.33016	-0.12732
114.000	0.20956	-0.23873	0.34399	-0.12533
115.000	0.19968	-0.21287	0.35981	-0.15716
116.000	0.19572	-0.27454	0.37563	-0.19496
117.000	0.21747	-0.27653	0.40330	-0.04576
118.000	0.18584	-0.28449	0.40528	-0.14920
119.000	0.17991	-0.24470	0.35586	-0.16910
120.000	0.16804	-0.24470	0.36376	-0.16711
121.000	0.19177	-0.27852	0.40133	-0.14324
122.000	0.20561	-0.25663	0.36179	-0.16313
123.000	0.20363	-0.26857	0.44284	-0.13329
124.000	0.14432	-0.24470	0.42307	-0.10743
125.000	0.17991	-0.26459	0.33411	-0.06764
126.000	0.19375	-0.25663	0.37760	-0.04775
127.000	0.21154	-0.25862	0.38156	-0.12732
128.000	0.19770	-0.23873	0.52982	-0.15716
129.000	0.17002	-0.24072	0.40923	-0.05769
130.000	0.15421	-0.24072	0.37167	-0.11340
131.000	0.25503	-0.16910	0.37365	-0.05172
132.000	0.23329	-0.18502	0.39935	-0.09947
133.000	0.23526	-0.25067	0.31434	-0.10743
134.000	0.24119	-0.23674	0.41319	-0.16512
135.000	0.20165	-0.24271	0.48040	-0.15119
136.000	0.20165	-0.21486	0.39144	-0.11141
137.000	0.19572	-0.23674	0.42307	-0.10345
138.000	0.23526	-0.27255	0.33609	-0.12135
139.000	0.21352	-0.25067	0.42109	-0.12533
140.000	0.18979	-0.29642	0.40330	-0.14721
141.000	0.21549	-0.24470	0.36574	-0.10146
142.000	0.19572	-0.24072	0.40726	-0.14324
143.000	0.21352	-0.27056	0.34993	-0.07361
144.000	0.19770	-0.25464	0.47447	-0.15517
145.000	0.23526	-0.27255	0.43691	-0.13926
146.000	0.18188	-0.26857	0.37365	-0.10743
147.000	0.23724	-0.25265	0.52784	-0.06764
148.000	0.20363	-0.26857	0.38156	-0.12931
149.000	0.17595	-0.25266	0.36179	-0.13528
150.000	0.18781	-0.25663	0.40133	-0.08952
151.000	0.26492	-0.25862	0.43691	-0.09947
152.000	0.22933	-0.28051	0.38156	-0.09151
153.000	0.18781	-0.27653	0.48040	-0.09151
154.000	0.22735	-0.27056	0.40726	-0.13329
155.000	0.20165	-0.28051	0.42702	-0.15517
156.000	0.23131	-0.21685	0.37563	-0.12732
157.000	0.20956	-0.23475	0.38749	-0.04178
158.000	0.20363	-0.23276	0.32225	-0.10544
159.000	0.20363	-0.26857	0.42505	-0.09151
160.000	0.19177	-0.24669	0.36969	-0.03780
161.000	0.20758	-0.25862	0.46656	-0.09947
162.000	0.21154	-0.26260	0.38946	-0.11340
163.000	0.20561	-0.28250	0.44086	-0.09350
164.000	0.16409	-0.26260	0.33609	-0.11141
165.000	0.20956	-0.29244	0.47645	-0.11140
166.000	0.18386	-0.25464	0.34597	-0.03780
167.000	0.16409	-0.26857	0.42702	-0.06366
168.000	0.21352	-0.26260	0.40330	-0.06366
169.000	0.18188	-0.25464	0.35388	-0.14920
170.000	0.18781	-0.23674	0.41121	-0.13528
171.000	0.20165	-0.25663	0.44679	-0.13926
172.000	0.19770	-0.26658	0.40726	-0.05769
173.000	0.17200	-0.28648	0.34004	-0.08952
174.000	0.20363	-0.27056	0.39144	-0.09947
175.000	0.17398	-0.24470	0.41912	-0.05172
176.000	0.18584	-0.27056	0.42307	-0.02984
177.000	0.17793	-0.29841	0.41319	-0.08355
178.000	0.20363	-0.25266	0.42109	-0.14324
179.000	0.17398	-0.24868	0.45865	-0.11538
180.000	0.15816	-0.27653	0.46459	-0.05172
181.000	0.15223	-0.23475	0.41714	-0.05371
182.000	0.19375	-0.24669	0.45272	-0.08156
183.000	0.18188	-0.23873	0.45075	-0.06167
184.000	0.18386	-0.25266	0.44679	-0.11140
185.000	0.20165	-0.26658	0.46854	-0.09549
186.000	0.18781	-0.24669	0.39144	-0.05371
187.000	0.16211	-0.22281	0.47645	-0.10544
188.000	0.19968	-0.24868	0.41714	0.02984
189.000	0.17595	-0.26857	0.47052	-0.01989
190.000	0.17398	-0.30040	0.45865	-0.07361
191.000	0.20363	-0.24669	0.48040	-0.06963
192.000	0.22538	-0.24271	0.38749	-0.04178
193.000	0.19177	-0.22480	0.45470	-0.04774
194.000	0.24119	-0.25265	0.42109	-0.05769
195.000	0.21747	-0.19098	0.47447	-0.11140
196.000	0.22735	-0.29443	0.40726	-0.08554
197.000	0.22538	-0.22480	0.48633	-0.09947
198.000	0.23922	-0.24669	0.44086	-0.10544
199.000	0.20561	-0.27852	0.41319	-0.10942
200.000	0.22340	-0.21287	0.42900	-0.12334
201.000	0.24712	-0.26260	0.42307	-0.08753
202.000	0.21747	-0.24669	0.55157	-0.06764
203.000	0.25899	-0.23674	0.44679	-0.12334
204.000	0.27480	-0.19098	0.39935	-0.06167
205.000	0.26689	-0.22281	0.41121	-0.12533
206.000	0.29259	-0.24470	0.45668	-0.06366
207.000	0.26887	-0.26459	0.38353	-0.04178
208.000	0.26294	-0.19297	0.42505	-0.05371
209.000	0.23922	-0.24470	0.42505	-0.12931
210.000	0.22142	-0.24868	0.43493	-0.08952
211.000	0.26492	-0.25265	0.39737	-0.07759
212.000	0.24910	-0.27056	0.44086	-0.08355
213.000	0.26096	-0.26459	0.46459	-0.09748
214.000	0.25899	-0.21685	0.43691	-0.04178
215.000	0.22735	-0.23276	0.51796	-0.05371
216.000	0.27282	-0.21088	0.49424	-0.15119
217.000	0.28864	-0.21883	0.44086	-0.09748
218.000	0.27480	-0.21883	0.44284	-0.04973
219.000	0.25701	-0.23475	0.46261	-0.08554
220.000	0.24910	-0.26459	0.49226	-0.11737
221.000	0.21549	-0.24072	0.43691	-0.12732
222.000	0.25108	-0.23077	0.48435	-0.04377
223.000	0.29259	-0.26658	0.40133	-0.16114
224.000	0.26887	-0.20093	0.43691	-0.03780
225.000	0.26492	-0.23873	0.48633	-0.08952
226.000	0.22735	-0.24271	0.47447	-0.09350
227.000	0.25503	-0.24271	0.51005	-0.03780
228.000	0.24317	-0.25862	0.52982	-0.03581
229.000	0.22538	-0.27056	0.47249	-0.05570
230.000	0.23922	-0.26658	0.47842	-0.06764
231.000	0.23922	-0.25663	0.49622	-0.02785
232.000	0.25701	-0.27653	0.44679	-0.04576
233.000	0.22735	-0.26260	0.48435	-0.03979
234.000	0.21747	-0.28449	0.51994	-0.12135
235.000	0.23131	-0.29244	0.52587	-0.10544
236.000	0.22340	-0.24470	0.46261	-0.08554
237.000	0.22142	-0.23674	0.46459	-0.10146
238.000	0.24712	-0.28448	0.45075	-0.06167
239.000	0.19572	-0.26658	0.47249	-0.08156
240.000	0.19770	-0.23475	0.48435	-0.05172
241.000	0.20956	-0.24868	0.52784	-0.08554
242.000	0.21945	-0.27255	0.47447	-0.10345
243.000	0.23922	-0.26459	0.51203	-0.04377
244.000	0.21549	-0.29841	0.47052	-0.05570
245.000	0.21945	-0.23674	0.49424	-0.03581
246.000	0.20956	-0.26658	0.52982	-0.07361
247.000	0.26294	-0.27056	0.47249	-0.08554
248.000	0.26492	-0.20690	0.46063	-0.09350
249.000	0.26689	-0.28448	0.45075	-0.03780
250.000	0.20363	-0.27454	0.53773	-0.04973
251.000	0.26887	-0.26061	0.47447	-0.11936
252.000	0.24317	-0.22480	0.47842	-0.08952
253.000	0.22933	-0.20292	0.49028	-0.03183
254.000	0.23922	-0.21486	0.50017	-0.02188
255.000	0.25108	-0.24072	0.48633	-0.07957
256.000	0.26492	-0.20889	0.49622	-0.05968
257.000	0.25899	-0.22281	0.46854	-0.10942
258.000	0.27282	-0.22281	0.50215	-0.12135
259.000	0.23526	-0.22082	0.53378	-0.13329
260.000	0.23329	-0.27852	0.48040	-0.07560
261.000	0.24910	-0.26061	0.50610	-0.09748
262.000	0.23526	-0.25862	0.51005	-0.08156
263.000	0.25108	-0.24470	0.50017	-0.01393
264.000	0.22340	-0.25265	0.56343	-0.03979
265.000	0.21154	-0.30438	0.43098	-0.03581
266.000	0.23526	-0.23873	0.51401	-0.04576
267.000	0.28073	-0.26658	0.46854	-0.03581
268.000	0.23329	-0.25067	0.53773	-0.05570
269.000	0.25503	-0.21685	0.51598	-0.10743
270.000	0.24515	-0.26459	0.49622	-0.12135
271.000	0.26294	-0.21287	0.56145	-0.09748
272.000	0.20758	-0.23077	0.45865	-0.11339
273.000	0.21154	-0.20889	0.51994	0.01393
274.000	0.21747	-0.24072	0.44086	-0.11936
275.000	0.25108	-0.21685	0.44086	-0.11737
276.000	0.21549	-0.20093	0.48633	-0.09549
277.000	0.21945	-0.20491	0.45865	-0.11140
278.000	0.23131	-0.17706	0.59308	-0.16114
279.000	0.19968	-0.23475	0.54959	-0.14522
280.000	0.26294	-0.20491	0.49226	-0.07759
281.000	0.24317	-0.21486	0.56936	-0.18103
282.000	0.23329	-0.25464	0.48238	-0.10743
283.000	0.23526	-0.24868	0.50610	-0.19297
284.000	0.22735	-0.20690	0.56145	-0.10941
285.000	0.24317	-0.26658	0.54959	-0.08554
286.000	0.22538	-0.21486	0.52389	-0.08355
287.000	0.20561	-0.24271	0.56738	-0.08554
288.000	0.18979	-0.25067	0.56145	-0.08156
289.000	0.24712	-0.23077	0.56738	-0.09151
290.000	0.23131	-0.27852	0.59506	-0.05371
291.000	0.25305	-0.23077	0.57727	-0.08753
292.000	0.22735	-0.25265	0.47052	-0.10345
293.000	0.22735	-0.21884	0.49226	-0.10146
294.000	0.25503	-0.23873	0.56936	-0.11737
295.000	0.26689	-0.25862	0.51203	-0.06167
296.000	0.22142	-0.19297	0.53575	-0.10941
297.000	0.22538	-0.24868	0.63855	-0.10344
298.000	0.24515	-0.27653	0.56540	-0.15915
299.000	0.22340	-0.21884	0.48040	-0.08952
300.000	0.19968	-0.25663	0.53773	-0.11737
301.000	0.23724	-0.25862	0.54564	-0.08753
302.000	0.25701	-0.20093	0.50610	-0.14124
303.000	0.22735	-0.23475	0.55947	-0.07957
304.000	0.24515	-0.21088	0.50808	-0.06764
305.000	0.26096	-0.23674	0.45668	-0.10544
306.000	0.23131	-0.25067	0.48435	-0.07759
307.000	0.21747	-0.21088	0.45668	-0.09549
308.000	0.23724	-0.20292	0.50808	-0.11538
309.000	0.23329	-0.24271	0.53575	-0.06366
310.000	0.24317	-0.24271	0.50017	-0.05371
311.000	0.26689	-0.19297	0.52982	-0.04576
312.000	0.23131	-0.22082	0.55552	-0.06764
313.000	0.27282	-0.19098	0.52587	-0.12931
314.000	0.26887	-0.24072	0.52587	-0.06963
315.000	0.27085	-0.23077	0.63657	-0.13726
316.000	0.26492	-0.25862	0.51598	-0.10544
317.000	0.24910	-0.21088	0.59110	-0.17705
318.000	0.25503	-0.23276	0.58122	-0.03979
319.000	0.24317	-0.20093	0.52982	-0.12533
320.000	0.28073	-0.21486	0.54168	-0.20490
321.000	0.28073	-0.17905	0.62866	-0.07559
322.000	0.20758	-0.20292	0.54366	-0.09151
323.000	0.26689	-0.20491	0.50808	-0.12732
324.000	0.24910	-0.20491	0.60692	-0.12931
325.000	0.24515	-0.20093	0.55157	-0.08554
326.000	0.24712	-0.21088	0.53773	-0.18302
327.000	0.27282	-0.15915	0.50610	-0.16114
328.000	0.24119	-0.20690	0.52389	-0.09748
329.000	0.23724	-0.18303	0.56343	-0.12135
330.000	0.22933	-0.21884	0.51203	-0.11538
331.000	0.28271	-0.21287	0.54564	-0.07361
332.000	0.26096	-0.19297	0.59110	-0.09549
333.000	0.23922	-0.24271	0.51005	-0.09350
334.000	0.22735	-0.22679	0.53773	-0.12135
335.000	0.26096	-0.21088	0.51401	-0.07957
336.000	0.22933	-0.20889	0.50610	-0.06764
337.000	0.24910	-0.25862	0.56145	-0.13925
338.000	0.24119	-0.21884	0.51401	-0.06167
339.000	0.24712	-0.18104	0.53575	-0.12931
340.000	0.20956	-0.17905	0.58517	-0.11936
341.000	0.27678	-0.18899	0.54366	-0.08753
342.000	0.19770	-0.22878	0.54366	-0.10146
343.000	0.21549	-0.20292	0.53378	-0.08952
344.000	0.15618	-0.25663	0.55157	-0.06963
345.000	0.22735	-0.22878	0.59703	-0.17904
346.000	0.21352	-0.20690	0.57133	-0.09350
347.000	0.19572	-0.19894	0.62075	-0.09549
348.000	0.23329	-0.21088	0.59506	-0.18501
349.000	0.20561	-0.22679	0.56343	-0.14124
350.000	0.21154	-0.21088	0.60494	-0.11140
351.000	0.17200	-0.19098	0.55157	-0.08156
352.000	0.19572	-0.22281	0.58913	-0.10345
353.000	0.19375	-0.22878	0.56738	-0.04377
354.000	0.19572	-0.21088	0.54959	-0.08554
355.000	0.21747	-0.23475	0.59703	-0.13328
356.000	0.18386	-0.23276	0.60889	-0.15517
357.000	0.21945	-0.19894	0.60099	-0.13925
358.000	0.20956	-0.23674	0.54366	-0.11737
359.000	0.16804	-0.24271	0.57924	-0.22082
360.000	0.19177	-0.22679	0.56738	-0.14920
361.000	0.15618	-0.25862	0.58517	-0.07162
362.000	0.18386	-0.24072	0.60494	-0.14323
363.000	0.18386	-0.21884	0.53575	-0.11538
364.000	0.20758	-0.23475	0.57331	-0.10543
365.000	0.23131	-0.24271	0.57924	-0.12334
366.000	0.19572	-0.25266	0.55947	-0.11737
367.000	0.19968	-0.24669	0.52191	-0.10345
368.000	0.22142	-0.23475	0.56343	-0.19297
369.000	0.24910	-0.25067	0.57529	-0.22877
370.000	0.18781	-0.21685	0.53773	-0.07758
371.000	0.22933	-0.26061	0.58122	-0.13130
372.000	0.20956	-0.23674	0.53575	-0.04178
373.000	0.15816	-0.22679	0.53575	-0.08753
374.000	0.20363	-0.24868	0.57924	-0.07361
375.000	0.24119	-0.22878	0.60296	-0.14124
376.000	0.25108	-0.15517	0.55750	-0.09549
377.000	0.23724	-0.21884	0.54366	-0.04973
378.000	0.20956	-0.18701	0.57331	-0.09748
379.000	0.23724	-0.24072	0.58913	-0.13925
380.000	0.22538	-0.22480	0.60296	-0.14522
381.000	0.25108	-0.22679	0.58320	-0.15318
382.000	0.23526	-0.21685	0.60099	-0.15517
383.000	0.25305	-0.19098	0.53971	-0.11538
384.000	0.25108	-0.17507	0.61285	-0.14721
385.000	0.28666	-0.22281	0.54761	-0.20689
386.000	0.22735	-0.19297	0.60692	-0.10941
387.000	0.21549	-0.20889	0.63064	-0.08554
388.000	0.27085	-0.16512	0.61482	-0.11339
389.000	0.17200	-0.23674	0.62866	-0.14920
390.000	0.19177	-0.21486	0.60099	-0.06565
391.000	0.15223	-0.20093	0.56343	-0.07361
392.000	0.13444	-0.20889	0.46063	-0.08554
393.000	0.08699	-0.19496	0.51796	-0.14323
394.000	-0.00395	-0.19099	0.44284	-0.09947
395.000	-0.00198	-0.18303	0.32422	-0.08554
396.000	-0.04745	-0.18701	0.27876	-0.04974
397.000	-0.07117	-0.19297	0.20758	-0.07361
398.000	-0.12257	-0.18104	0.24119	-0.07958
399.000	-0.13246	-0.16711	0.29259	-0.09151
400.000	-0.14234	-0.13329	0.17200	-0.02984
401.000	-0.17002	-0.12533	0.20165	-0.03581
402.000	-0.15025	-0.07759	0.26294	-0.03183
403.000	-0.14037	-0.11340	0.17793	-0.06366
404.000	-0.09885	-0.14324	0.21747	-0.01592
405.000	-0.11664	-0.11539	0.24910	-0.01194
406.000	-0.00791	-0.13528	0.23724	-0.02785
407.000	0.00000	-0.17507	0.32422	-0.04178
408.000	-0.00395	-0.15717	0.28864	0.01592
409.000	0.04745	-0.16711	0.31829	-0.10345
410.000	0.05140	-0.18900	0.38156	-0.18501
411.000	0.09490	-0.17905	0.47249	-0.11140
412.000	0.09687	-0.23276	0.40923	-0.10146
413.000	0.10874	-0.23475	0.48633	-0.13926
414.000	0.08106	-0.22282	0.42900	-0.18899
415.000	0.05536	-0.24271	0.37760	-0.14523
416.000	0.09490	-0.24669	0.49226	-0.16313
417.000	0.05140	-0.20690	0.47447	-0.16711
418.000	0.10874	-0.18104	0.50017	-0.18700
419.000	0.07513	-0.18701	0.34993	-0.18103
420.000	0.04152	-0.19894	0.46063	-0.14323
421.000	0.04745	-0.17308	0.44679	-0.07958
422.000	-0.00395	-0.17507	0.41319	-0.10345
423.000	0.00593	-0.18104	0.38946	-0.08554
424.000	0.03954	-0.17905	0.42505	-0.11538
425.000	0.03756	-0.15717	0.36179	-0.08952
426.000	0.03361	-0.14324	0.37958	-0.06366
427.000	0.01977	-0.17905	0.35388	-0.09748
428.000	0.00593	-0.15915	0.35388	-0.12732
429.000	0.02372	-0.15915	0.33213	-0.05172
430.000	-0.01582	-0.18701	0.38946	-0.07361
431.000	0.01384	-0.19297	0.34004	-0.14523
432.000	0.00000	-0.13727	0.34993	-0.04377
433.000	-0.00593	-0.15717	0.33411	-0.10544
434.000	0.06129	-0.13926	0.37365	-0.11737
435.000	-0.00593	-0.18502	0.37958	-0.11340
436.000	0.07117	-0.16313	0.41121	-0.04973
437.000	0.01186	-0.14324	0.31632	-0.09549
438.000	-0.03756	-0.18502	0.34795	-0.07361
439.000	-0.01779	-0.19297	0.35586	-0.13130
440.000	0.02372	-0.18502	0.45668	-0.11737
441.000	0.01977	-0.14523	0.38946	-0.06167
442.000	0.03559	-0.13926	0.46261	-0.16114
443.000	0.00593	-0.17308	0.31236	-0.08753
444.000	0.01977	-0.14125	0.30841	-0.09748
445.000	0.01582	-0.16313	0.36574	-0.09151
446.000	0.02768	-0.16910	0.39539	-0.04775
447.000	0.00395	-0.16512	0.41319	-0.07759
448.000	0.00791	-0.18900	0.37167	-0.10544
449.000	0.03756	-0.15518	0.42307	-0.11141
450.000	-0.01779	-0.15915	0.37958	-0.08952
451.000	0.04152	-0.16711	0.39342	-0.02586
452.000	0.04547	-0.12136	0.32027	-0.10743
453.000	0.02372	-0.17308	0.42900	-0.09151
454.000	0.03361	-0.11937	0.37760	-0.09748
455.000	0.04349	-0.13727	0.39737	-0.12732
456.000	0.04152	-0.14722	0.39342	-0.10345
457.000	0.05338	-0.16114	0.38156	-0.13528
458.000	0.06524	-0.14125	0.33016	-0.04775
459.000	0.04943	-0.14722	0.35388	-0.13329
460.000	0.04547	-0.16512	0.36376	-0.00398
461.000	0.04152	-0.14722	0.38156	-0.05769
462.000	0.07117	-0.12533	0.36772	-0.07560
463.000	0.03954	-0.13727	0.31632	-0.12732
464.000	0.08501	-0.14722	0.36574	-0.10345
465.000	0.02372	-0.13329	0.37760	-0.10544
466.000	0.05140	-0.10146	0.45075	-0.07957
467.000	0.03954	-0.10743	0.35981	-0.11936
468.000	0.02372	-0.15319	0.34795	-0.07361
469.000	0.01977	-0.13130	0.35586	-0.08157
470.000	0.08106	-0.16313	0.35783	-0.10743
471.000	0.06722	-0.13727	0.39935	-0.21684
472.000	0.07315	-0.14324	0.42307	-0.12533
473.000	0.06722	-0.16711	0.39539	-0.08753
474.000	0.03163	-0.12533	0.28864	-0.08356
475.000	0.04152	-0.14722	0.43098	-0.10743
476.000	0.03163	-0.14722	0.36179	-0.06167
477.000	0.07513	-0.07759	0.37365	-0.08952
478.000	0.02175	-0.14523	0.33806	-0.08355
479.000	0.03361	-0.11141	0.31236	-0.09350
480.000	0.04745	-0.12732	0.38353	-0.07759
481.000	0.08699	-0.08952	0.33016	-0.08355
482.000	0.03163	-0.10345	0.37167	-0.06167
483.000	0.03954	-0.11937	0.35586	-0.13130
484.000	0.03163	-0.13329	0.27480	-0.06366
485.000	0.05140	-0.14722	0.34004	-0.07958
486.000	-0.00791	-0.16711	0.30248	-0.12334
487.000	0.03559	-0.12334	0.37760	-0.15318
488.000	0.04349	-0.16114	0.42505	-0.16512
489.000	0.06524	-0.14722	0.35783	-0.04377
490.000	0.02570	-0.15717	0.35586	-0.08157
491.000	0.04547	-0.14921	0.32818	-0.14722
492.000	0.01186	-0.12136	0.31039	-0.06366
493.000	0.02966	-0.14722	0.37958	-0.12334
494.000	0.03954	-0.17308	0.36574	-0.13528
495.000	0.02966	-0.18900	0.35981	-0.14920
496.000	0.07315	-0.18502	0.34795	-0.14125
497.000	0.04943	-0.19297	0.34202	-0.14324
498.000	0.03163	-0.19099	0.36969	-0.14324
499.000	0.06524	-0.16313	0.40726	-0.13926
500.000	0.01977	-0.18104	0.27876	-0.15517
501.000	0.05733	-0.17706	0.38551	-0.08952
502.000	0.07513	-0.12931	0.34993	-0.17308
503.000	0.07908	-0.14921	0.33609	-0.11141
504.000	0.05338	-0.14921	0.33806	-0.15318
505.000	0.05733	-0.16313	0.38551	-0.13130
506.000	0.05140	-0.14125	0.34597	-0.20690
507.000	0.07117	-0.16313	0.37563	-0.12533
508.000	0.04943	-0.14722	0.32422	-0.17507
509.000	0.12257	-0.09350	0.41319	-0.09947
510.000	0.06326	-0.13926	0.36574	-0.15517
511.000	0.00000	-0.16512	0.35783	-0.18899
512.000	0.04349	-0.18303	0.34004	-0.15119
513.000	0.03954	-0.15518	0.37365	-0.11737
514.000	0.08897	-0.14921	0.37760	-0.16711
515.000	0.04349	-0.14324	0.37958	-0.14125
516.000	-0.00593	-0.18900	0.35783	-0.14722
517.000	0.06524	-0.15915	0.34597	-0.17308
518.000	0.07710	-0.13130	0.37167	-0.16512
519.000	0.06920	-0.15518	0.37365	-0.16711
520.000	0.10478	-0.15319	0.38749	-0.20491
521.000	0.06722	-0.17308	0.39737	-0.13926
522.000	0.08501	-0.19695	0.35981	-0.07958
523.000	0.05338	-0.09748	0.38946	-0.13528
524.000	0.05733	-0.15518	0.39144	-0.11340
525.000	0.05338	-0.19099	0.33016	-0.15517
526.000	0.06326	-0.14523	0.36969	-0.09947
527.000	0.04547	-0.13926	0.33806	-0.13528
528.000	0.06920	-0.13727	0.33411	-0.12533
529.000	0.01977	-0.12732	0.44877	-0.14323
530.000	0.10083	-0.10743	0.43098	-0.15318
531.000	0.05536	-0.14523	0.36969	-0.15119
532.000	0.08303	-0.17706	0.44284	-0.10743
533.000	0.06722	-0.13130	0.36574	-0.18700
534.000	0.07315	-0.08754	0.29852	-0.16114
535.000	0.05733	-0.17308	0.37365	-0.19098
536.000	0.06129	-0.16313	0.37563	-0.20292
537.000	0.07513	-0.11738	0.33609	-0.08355
538.000	0.09490	-0.13329	0.37167	-0.15119
539.000	0.10083	-0.13329	0.41912	-0.16313
540.000	0.06722	-0.20093	0.36179	-0.13130
541.000	0.07513	-0.12136	0.41121	-0.17904
542.000	0.07117	-0.13528	0.36179	-0.20491
543.000	0.08106	-0.13130	0.35190	-0.17308
544.000	0.10280	-0.09748	0.29655	-0.14921
545.000	0.09292	-0.10345	0.32027	-0.16910
546.000	0.10478	-0.14523	0.35586	-0.17507
547.000	0.10083	-0.11738	0.34993	-0.10743
548.000	0.08699	-0.15120	0.39737	-0.10146
549.000	0.09687	-0.15319	0.40133	-0.10942
550.000	0.07710	-0.15915	0.35981	-0.05371
551.000	0.10083	-0.15120	0.41121	-0.13727
552.000	0.11862	-0.14921	0.37167	-0.23077
553.000	0.09292	-0.19695	0.31829	-0.13528
554.000	0.10083	-0.10146	0.36376	-0.12334
555.000	0.10083	-0.11141	0.30841	-0.19496
556.000	0.11269	-0.12136	0.39539	-0.10146
557.000	0.07513	-0.15518	0.45272	-0.15716
558.000	0.09490	-0.11937	0.35783	-0.12135
559.000	0.09094	-0.14125	0.37167	-0.18899
560.000	0.10676	-0.12931	0.38353	-0.19496
561.000	0.06920	-0.11141	0.40133	-0.14523
562.000	0.07315	-0.12334	0.40923	-0.20491
563.000	0.09687	-0.10942	0.36574	-0.10345
564.000	0.04152	-0.16313	0.42307	-0.13130
565.000	0.09094	-0.15915	0.30643	-0.13528
566.000	0.04547	-0.12732	0.44679	-0.12135
567.000	0.07513	-0.16313	0.31829	-0.13130
568.000	0.05931	-0.17507	0.30841	-0.11141
569.000	0.07315	-0.15319	0.37365	-0.04973
570.000	0.05338	-0.16711	0.41516	-0.12533
571.000	0.10478	-0.13329	0.35783	-0.15517
572.000	0.03559	-0.17706	0.44679	-0.10146
573.000	0.06129	-0.15319	0.41516	-0.16114
574.000	0.05931	-0.11340	0.40528	-0.10743
575.000	0.07513	-0.14921	0.39935	-0.19098
576.000	0.07315	-0.14523	0.40923	-0.15915
577.000	0.06326	-0.16313	0.31829	-0.19098
578.000	0.01977	-0.16512	0.34597	-0.16313
579.000	0.04745	-0.17905	0.40923	-0.18899
580.000	0.00989	-0.16512	0.37760	-0.19496
581.000	0.02966	-0.19695	0.37760	-0.14324
582.000	0.03954	-0.14324	0.40133	-0.18700
583.000	0.06129	-0.16313	0.45075	-0.16512
584.000	0.02768	-0.16114	0.33806	-0.16114
585.000	0.03756	-0.20292	0.36376	-0.18700
586.000	0.05338	-0.16313	0.37365	-0.16114
587.000	0.04745	-0.14722	0.37365	-0.18302
588.000	0.06129	-0.17308	0.43296	-0.13926
589.000	0.05931	-0.19099	0.36969	-0.22082
590.000	0.03756	-0.17706	0.32225	-0.09151
591.000	0.08897	-0.16711	0.39935	-0.20292
592.000	0.02768	-0.18502	0.37365	-0.19297
593.000	0.02570	-0.16313	0.42900	-0.19496
594.000	0.06524	-0.13727	0.32027	-0.14523
595.000	0.01779	-0.19297	0.34202	-0.14920
596.000	0.03163	-0.15915	0.34399	-0.18302
597.000	0.05733	-0.17109	0.41121	-0.26260
598.000	0.03163	-0.15717	0.33213	-0.21883
599.000	0.02570	-0.16114	0.38946	-0.19098
600.000	0.04745	-0.13130	0.29852	-0.09151
601.000	0.03756	-0.20292	0.42702	-0.22480
602.000	0.06326	-0.18701	0.42702	-0.19297
603.000	0.06920	-0.13130	0.37958	-0.17706
604.000	0.08106	-0.15716	0.38551	-0.13329
605.000	0.08897	-0.14523	0.39342	-0.21485
606.000	0.03954	-0.14722	0.42505	-0.15119
607.000	0.07117	-0.15319	0.34399	-0.22082
608.000	0.03559	-0.16313	0.28469	-0.13528
609.000	0.05140	-0.12533	0.34202	-0.16114
610.000	0.04152	-0.14523	0.34399	-0.23873
611.000	0.03954	-0.14921	0.34202	-0.16114
612.000	0.02372	-0.16711	0.30050	-0.14523
613.000	0.04152	-0.13329	0.34795	-0.19297
614.000	-0.00989	-0.12533	0.34597	-0.18700
615.000	0.01779	-0.16114	0.34597	-0.21485
616.000	0.00593	-0.17109	0.39935	-0.18700
617.000	0.01779	-0.17308	0.39144	-0.16313
618.000	0.01779	-0.14722	0.47052	-0.24668
619.000	0.03954	-0.16313	0.28864	-0.20093
620.000	0.02768	-0.13130	0.30643	-0.22082
621.000	0.03954	-0.15717	0.38353	-0.15716
622.000	0.02372	-0.16114	0.44679	-0.18302
623.000	0.05338	-0.18900	0.34399	-0.21286
624.000	0.01384	-0.19695	0.33213	-0.23674
625.000	0.01186	-0.21088	0.31829	-0.19695
626.000	0.02966	-0.17905	0.34795	-0.18103
627.000	0.04943	-0.17706	0.41516	-0.25265
628.000	0.03559	-0.15120	0.39144	-0.17109
629.000	0.03361	-0.13528	0.38353	-0.19098
630.000	0.00989	-0.16512	0.39539	-0.17507
631.000	0.01582	-0.16910	0.41319	-0.22480
632.000	0.05931	-0.14921	0.37958	-0.21087
633.000	0.03756	-0.14722	0.43098	-0.16711
634.000	-0.00395	-0.15319	0.34202	-0.18302
635.000	0.02570	-0.15120	0.42307	-0.15716
636.000	-0.00198	-0.14722	0.40528	-0.15517
637.000	-0.02570	-0.16512	0.47842	-0.17506
638.000	-0.00395	-0.15319	0.35190	-0.19894
639.000	0.03163	-0.12931	0.34993	-0.22082
640.000	0.01582	-0.17905	0.35981	-0.17109
641.000	0.06129	-0.15518	0.40726	-0.17109
642.000	0.01779	-0.17706	0.37167	-0.20889
643.000	0.04349	-0.16711	0.34399	-0.19297
644.000	0.03163	-0.20093	0.35586	-0.23475
645.000	0.00395	-0.16512	0.41121	-0.14324
646.000	0.00198	-0.21287	0.40726	-0.17904
647.000	0.02175	-0.21088	0.29062	-0.18303
648.000	0.00000	-0.18701	0.38946	-0.23475
649.000	0.04349	-0.14523	0.45470	-0.22480
650.000	0.01384	-0.18701	0.35586	-0.20093
651.000	-0.00198	-0.18303	0.39144	-0.19297
652.000	0.03361	-0.19099	0.37760	-0.23077
653.000	0.01779	-0.19297	0.37958	-0.19297
654.000	0.00593	-0.14921	0.42109	-0.17308
655.000	0.01384	-0.13130	0.31434	-0.17308
656.000	0.00593	-0.16512	0.36969	-0.20889
657.000	-0.00593	-0.17308	0.38749	-0.18899
658.000	0.02372	-0.18701	0.35981	-0.19098
659.000	0.06524	-0.13926	0.39935	-0.23873
660.000	0.01779	-0.17109	0.40133	-0.23475
661.000	0.04547	-0.18303	0.46656	-0.22679
662.000	0.00395	-0.20889	0.43296	-0.19695
663.000	0.04349	-0.18701	0.42702	-0.24867
664.000	0.00989	-0.16711	0.34202	-0.22281
665.000	0.02966	-0.17308	0.35783	-0.21883
666.000	0.03361	-0.16910	0.37365	-0.28050
667.000	0.00198	-0.17507	0.36376	-0.21684
668.000	-0.00989	-0.22083	0.36772	-0.21088
669.000	0.02175	-0.18303	0.43889	-0.23872
670.000	0.00989	-0.14125	0.39737	-0.24668
671.000	0.02175	-0.14523	0.45075	-0.28448
672.000	0.00198	-0.15717	0.34004	-0.23873
673.000	-0.00593	-0.11539	0.40330	-0.21485
674.000	0.02768	-0.09748	0.42900	-0.19297
675.000	0.01384	-0.19099	0.39935	-0.22679
676.000	0.03756	-0.14523	0.35981	-0.21088
677.000	0.01977	-0.17706	0.35586	-0.21088
678.000	-0.00395	-0.18303	0.32027	-0.20690
679.000	0.00000	-0.14921	0.30248	-0.17109
680.000	0.03559	-0.16711	0.41912	-0.26856
681.000	0.02768	-0.15518	0.35783	-0.22082
682.000	0.02175	-0.17507	0.40133	-0.24270
683.000	0.04745	-0.17109	0.35388	-0.20292
684.000	0.03954	-0.17905	0.29852	-0.18899
685.000	0.05338	-0.12136	0.34795	-0.20889
686.000	0.01186	-0.18104	0.30050	-0.20491
687.000	0.04152	-0.16114	0.40923	-0.24071
688.000	0.02570	-0.12334	0.41714	-0.18700
689.000	0.02372	-0.17905	0.36772	-0.19496
690.000	0.00395	-0.17507	0.30050	-0.20889
691.000	-0.00395	-0.16114	0.37365	-0.27851
692.000	-0.00989	-0.17308	0.42900	-0.17705
693.000	-0.00593	-0.12931	0.41319	-0.21286
694.000	-0.00395	-0.14324	0.33213	-0.26260
695.000	0.04547	-0.13727	0.45075	-0.23673
696.000	0.04349	-0.10345	0.36574	-0.27255
697.000	0.04349	-0.09748	0.38551	-0.25066
698.000	0.02768	-0.10544	0.35388	-0.23674
699.000	0.03361	-0.11539	0.36574	-0.22480
700.000	0.02570	-0.14324	0.35783	-0.22878
701.000	0.01186	-0.15717	0.37167	-0.21883
702.000	0.02768	-0.11937	0.38749	-0.24867
703.000	-0.00395	-0.15915	0.32422	-0.21088
704.000	-0.00989	-0.18900	0.38749	-0.15716
705.000	-0.03559	-0.16711	0.42900	-0.28050
706.000	0.03954	-0.18701	0.39539	-0.25265
707.000	0.00395	-0.14921	0.34993	-0.25265
708.000	-0.02372	-0.13926	0.35783	-0.25862
709.000	-0.01779	-0.17109	0.42109	-0.24867
710.000	0.01977	-0.17109	0.46261	-0.28846
711.000	0.01779	-0.17308	0.35586	-0.24072
712.000	-0.00198	-0.15120	0.37760	-0.30239
713.000	-0.00791	-0.18701	0.42702	-0.23674
714.000	-0.01384	-0.14324	0.42109	-0.26856
715.000	-0.02768	-0.16910	0.38946	-0.22878
716.000	0.01186	-0.11539	0.39935	-0.30039
717.000	0.02175	-0.17507	0.42109	-0.28846
718.000	-0.00593	-0.17109	0.32027	-0.27056
719.000	0.01384	-0.17706	0.36179	-0.23873
720.000	0.00989	-0.13329	0.44284	-0.24668
721.000	0.01779	-0.12931	0.34202	-0.32228
722.000	0.02372	-0.15717	0.39144	-0.28448
723.000	-0.00395	-0.15717	0.35388	-0.32626
724.000	0.02966	-0.11738	0.32422	-0.27653
725.000	0.02372	-0.16711	0.38353	-0.25862
726.000	0.00791	-0.18104	0.43889	-0.29641
727.000	0.01186	-0.16910	0.41319	-0.31233
728.000	0.04745	-0.13329	0.44482	-0.31631
729.000	-0.01977	-0.15717	0.34004	-0.30040
730.000	0.02966	-0.12732	0.37365	-0.23873
731.000	0.00000	-0.17706	0.33609	-0.25663
732.000	-0.02768	-0.12334	0.43493	-0.25066
733.000	0.00000	-0.14722	0.38749	-0.27652
734.000	0.06524	-0.11141	0.36179	-0.29045
735.000	0.01186	-0.14523	0.33609	-0.25464
736.000	0.04152	-0.13329	0.48040	-0.28846
737.000	0.00395	-0.11738	0.39539	-0.19496
738.000	0.02570	-0.15717	0.38156	-0.33024
739.000	0.01977	-0.11340	0.32620	-0.25265
740.000	0.00395	-0.13528	0.38946	-0.32427
741.000	0.04745	-0.13926	0.40923	-0.29244
742.000	0.00989	-0.12732	0.41121	-0.30039
743.000	0.03559	-0.11937	0.28666	-0.30836
744.000	-0.01186	-0.10942	0.33016	-0.32626
745.000	0.03361	-0.12334	0.30050	-0.28050
746.000	0.06129	-0.11937	0.38749	-0.33620
747.000	0.06920	-0.11539	0.42109	-0.30039
748.000	0.06326	-0.14523	0.39144	-0.28249
749.000	0.08106	-0.09947	0.38353	-0.30636
750.000	0.04152	-0.15319	0.32620	-0.32427
751.000	0.05931	-0.11937	0.30841	-0.32228
752.000	0.05931	-0.11738	0.30050	-0.34814
753.000	0.04745	-0.11539	0.39737	-0.34018
754.000	0.05140	-0.10146	0.33016	-0.31034
755.000	0.05338	-0.13926	0.32225	-0.26260
756.000	0.02372	-0.10544	0.37760	-0.29443
757.000	0.07315	-0.12732	0.31039	-0.33223
758.000	0.01779	-0.14324	0.33213	-0.22480
759.000	0.03559	-0.11141	0.35981	-0.28846
760.000	0.03954	-0.10544	0.35190	-0.35809
761.000	0.04943	-0.08754	0.36772	-0.32029
762.000	0.00989	-0.13926	0.39144	-0.34615
763.000	0.06326	-0.09549	0.34597	-0.30438
764.000	0.04152	-0.11340	0.34004	-0.34217
765.000	0.01977	-0.15518	0.35586	-0.38992
766.000	0.03559	-0.09748	0.33016	-0.34615
767.000	0.03163	-0.13926	0.36376	-0.36405
768.000	0.01977	-0.07759	0.33411	-0.27652
769.000	0.02768	-0.10942	0.30248	-0.33024
770.000	0.00198	-0.13727	0.30643	-0.35013
771.000	0.00593	-0.14523	0.37958	-0.32228
772.000	0.02966	-0.08952	0.27480	-0.37599
773.000	-0.00395	-0.12533	0.42307	-0.34018
774.000	0.00000	-0.09748	0.35388	-0.33223
775.000	0.04547	-0.06963	0.34993	-0.33620
776.000	0.03954	-0.07958	0.33213	-0.41578
777.000	0.02768	-0.08356	0.35388	-0.32427
778.000	0.00791	-0.07958	0.27085	-0.37003
779.000	0.00000	-0.12931	0.38156	-0.30437
780.000	0.05536	-0.08952	0.33609	-0.34416
781.000	0.01186	-0.08952	0.27876	-0.35212
782.000	0.02768	-0.06167	0.27678	-0.28448
783.000	0.02768	-0.04974	0.27480	-0.33223
784.000	-0.00791	-0.07361	0.33806	-0.32228
785.000	0.01384	-0.09549	0.31039	-0.39986
786.000	0.01582	-0.08555	0.31829	-0.39986
787.000	0.00791	-0.10146	0.30050	-0.37400
788.000	-0.00593	-0.06963	0.31039	-0.33820
789.000	0.04152	-0.07560	0.35783	-0.37002
790.000	0.02570	-0.07560	0.34795	-0.38793
791.000	0.04943	-0.09947	0.39539	-0.33222
792.000	-0.01779	-0.03183	0.32818	-0.32029
793.000	0.03756	-0.09151	0.34202	-0.35013
794.000	0.03163	-0.09350	0.39342	-0.32029
795.000	0.01384	-0.06565	0.36969	-0.35610
796.000	0.02372	-0.05968	0.35586	-0.34814
797.000	0.00395	-0.13329	0.37563	-0.39389
798.000	0.02768	-0.07759	0.24910	-0.33820
799.000	0.00593	-0.06167	0.34004	-0.36207
800.000	0.02175	-0.05570	0.34597	-0.29045
801.000	0.00198	-0.07162	0.30841	-0.32029
802.000	0.04943	-0.04974	0.37167	-0.32228
803.000	0.04349	-0.04377	0.30248	-0.33621
804.000	-0.00791	-0.05769	0.29062	-0.32626
805.000	-0.00395	-0.05968	0.28469	-0.35212
806.000	0.02768	-0.04576	0.32225	-0.36008
807.000	0.01186	-0.07759	0.31434	-0.35013
808.000	0.03163	-0.05371	0.32620	-0.33621
809.000	0.00198	-0.04576	0.34004	-0.32029
810.000	0.00395	-0.05769	0.33016	-0.30438
811.000	0.03361	-0.09549	0.33213	-0.37599
812.000	0.03559	-0.05968	0.30446	-0.36605
813.000	0.00000	-0.02785	0.31236	-0.35809
814.000	0.01977	-0.00597	0.32225	-0.31034
815.000	0.01977	-0.05968	0.30050	-0.36008
816.000	0.04745	-0.02387	0.34399	-0.34615
817.000	0.01582	-0.02188	0.40133	-0.40583
818.000	0.05140	-0.04178	0.35190	-0.33024
819.000	0.02175	-0.05173	0.35388	-0.34018
820.000	0.02966	-0.05968	0.34399	-0.37201
821.000	0.05733	0.00000	0.28666	-0.36008
822.000	0.04152	-0.06764	0.31434	-0.44960
823.000	0.04152	-0.07759	0.36574	-0.28249
824.000	0.05338	-0.04775	0.27876	-0.29841
825.000	0.05931	-0.03183	0.33609	-0.31233
826.000	-0.00593	-0.09947	0.31632	-0.31631
827.000	-0.02966	0.03780	0.26887	-0.32825
828.000	-0.17595	0.06963	0.14827	-0.29841
829.000	-0.28864	0.09549	0.00000	-0.25465
830.000	-0.49028	0.16711	-0.10874	-0.17507
831.000	-0.68599	0.30436	-0.42307	-0.09947
832.000	-0.94295	0.44755	-0.66227	0.01194
833.000	-1.24729	0.52706	-0.93504	0.02387
834.000	-1.51798	0.65228	-1.17022	0.22874
835.000	-1.80836	0.88479	-1.57923	0.46136
836.000	-2.16774	1.03167	-1.90710	0.56069
837.000	-2.51511	1.23406	-2.18748	0.75340
838.000	-2.79721	1.35691	-2.59798	0.91412
839.000	-3.08904	1.56104	-2.90371	1.15621
840.000	-3.36297	1.71143	-3.16788	1.38623
841.000	-3.50677	1.95715	-3.42404	1.47717
842.000	-3.71944	2.03402	-3.66234	1.59980
843.000	-3.95365	2.15239	-3.84148	1.79581
844.000	-4.04808	2.23339	-4.01267	1.80139
845.000	-4.17003	2.23304	-4.21329	1.85841
846.000	-4.32732	2.24844	-4.30570	1.92755
847.000	-4.31356	2.23659	-4.29783	1.85425
848.000	-4.35091	2.25035	-4.37450	1.82037
849.000	-4.26638	2.17730	-4.32142	1.78284
850.000	-4.17986	2.11612	-4.33715	1.76497
851.000	-4.10709	2.08857	-4.20739	1.70778
852.000	-3.98513	2.04132	-4.09136	1.69217
853.000	-3.83754	2.08529	-3.96742	1.66665
854.000	-3.71747	2.00429	-3.77062	1.56588
855.000	-3.59933	1.96885	-3.72338	1.55009
856.000	-3.53041	1.90355	-3.54813	1.50674
857.000	-3.39843	1.91968	-3.44374	1.47516
858.000	-3.36494	1.83246	-3.25657	1.41589
859.000	-3.29795	1.78695	-3.12058	1.39821
860.000	-3.23686	1.78507	-3.03778	1.36456
861.000	-3.20533	1.75933	-2.97272	1.30110
862.000	-3.25065	1.69773	-2.92342	1.27137
863.000	-3.19153	1.68791	-2.91948	1.28925
864.000	-3.23095	1.66205	-2.88004	1.25156
865.000	-3.27430	1.68182	-2.92342	1.22570
866.000	-3.34918	1.66185	-2.94117	1.21575
867.000	-3.39843	1.68954	-3.04567	1.26130
868.000	-3.47723	1.69932	-3.12058	1.29298
869.000	-3.54419	1.67738	-3.17576	1.26710
870.000	-3.55404	1.73093	-3.27036	1.30272
871.000	-3.62690	1.74864	-3.35312	1.40186
872.000	-3.69581	1.73859	-3.41813	1.46527
873.000	-3.65841	1.79618	-3.42404	1.40572
874.000	-3.67810	1.90721	-3.55404	1.48490
875.000	-3.68006	1.89134	-3.56979	1.52258
876.000	-3.73716	1.95665	-3.60918	1.56219
877.000	-3.74700	1.92490	-3.64265	1.57999
878.000	-3.75291	1.93084	-3.62887	1.64152
879.000	-3.70566	2.01224	-3.74503	1.64527
880.000	-3.70960	2.00629	-3.71747	1.61557
881.000	-3.68400	2.05393	-3.64265	1.64943
882.000	-3.74109	2.03001	-3.72535	1.61357
883.000	-3.71944	1.96661	-3.68597	1.59380
884.000	-3.71550	2.02214	-3.63478	1.69308
885.000	-3.72928	2.01021	-3.72928	1.67704
886.000	-3.71353	2.02214	-3.67416	1.57994
887.000	-3.73519	2.03002	-3.70172	1.61559
888.000	-3.74109	1.99630	-3.64659	1.61966
889.000	-3.74503	2.01414	-3.70566	1.61360
890.000	-3.69975	2.01821	-3.67219	1.59978
891.000	-3.74700	2.02603	-3.70960	1.59971
892.000	-3.79424	2.01402	-3.62099	1.52249
893.000	-3.73519	2.03597	-3.65644	1.51053
894.000	-3.76472	2.03392	-3.65447	1.50855
895.000	-3.73913	1.99829	-3.65250	1.56212
896.000	-3.74897	2.01413	-3.62887	1.56811
897.000	-3.71747	2.05980	-3.59343	1.56619
898.000	-3.75684	2.00816	-3.54025	1.54247
899.000	-3.70369	1.97259	-3.64659	1.58990
900.000	-3.68006	1.97463	-3.66431	1.50655
901.000	-3.73913	1.98837	-3.57964	1.56423
902.000	-3.68991	1.98650	-3.61706	1.54234
903.000	-3.70566	1.96465	-3.55404	1.47498
904.000	-3.71550	1.95075	-3.53631	1.55835
905.000	-3.68006	1.99842	-3.62887	1.51256
906.000	-3.71156	2.02214	-3.58949	1.53643
907.000	-3.72338	1.95272	-3.64069	1.52444
908.000	-3.70172	1.99242	-3.58358	1.50271
909.000	-3.65447	1.96675	-3.56192	1.54442
910.000	-3.67613	1.98257	-3.65841	1.57996
911.000	-3.68991	2.00831	-3.61312	1.60980
912.000	-3.69188	2.02615	-3.68400	1.52834
913.000	-3.65250	2.01633	-3.60918	1.46100
914.000	-3.67416	2.00240	-3.61509	1.51854
915.000	-3.65841	1.98657	-3.67219	1.62160
916.000	-3.65644	2.05400	-3.61312	1.55028
917.000	-3.69188	2.01426	-3.60918	1.51061
918.000	-3.63675	2.00050	-3.65053	1.48078
919.000	-3.66825	2.03216	-3.60721	1.49871
920.000	-3.69385	2.01624	-3.63675	1.47485
921.000	-3.69581	2.04399	-3.62296	1.48281
922.000	-3.63084	2.02233	-3.63872	1.47485
923.000	-3.68794	1.98056	-3.67022	1.45892
924.000	-3.69188	2.02814	-3.68991	1.52238
925.000	-3.65053	2.04211	-3.70763	1.49656
926.000	-3.64856	2.05401	-3.70960	1.43505
927.000	-3.66038	2.04407	-3.64856	1.43713
928.000	-3.66825	2.05992	-3.66628	1.51250
929.000	-3.65841	2.06390	-3.65644	1.50656
930.000	-3.66628	2.04009	-3.72928	1.50842
931.000	-3.63281	2.09569	-3.61509	1.47488
932.000	-3.67219	2.05991	-3.65250	1.48673
933.000	-3.67416	2.00042	-3.72141	1.49455
934.000	-3.67219	1.99844	-3.65053	1.49665
935.000	-3.67810	2.03412	-3.69778	1.52435
936.000	-3.66038	2.03812	-3.65447	1.54029
937.000	-3.67613	2.05197	-3.67810	1.50653
938.000	-3.64659	2.01436	-3.72731	1.51239
939.000	-3.59933	2.00257	-3.64856	1.48872
940.000	-3.65053	2.02030	-3.68794	1.44699
941.000	-3.67022	2.02819	-3.74109	1.44690
942.000	-3.64069	2.03024	-3.66628	1.45298
943.000	-3.66431	2.00441	-3.78440	1.43691
944.000	-3.64265	2.03023	-3.69188	1.48666
945.000	-3.67219	2.01430	-3.64856	1.47880
946.000	-3.62296	2.05804	-3.81393	1.51423
947.000	-3.65841	1.99054	-3.70763	1.43902
948.000	-3.57964	2.04822	-3.73913	1.47468
949.000	-3.56389	2.03636	-3.72731	1.52628
950.000	-3.62493	2.01242	-3.73519	1.45286
951.000	-3.63675	2.01042	-3.71353	1.46679
952.000	-3.61706	2.04615	-3.64856	1.51253
953.000	-3.64462	2.01635	-3.71944	1.54415
954.000	-3.61509	2.01641	-3.75291	1.52227
955.000	-3.61509	1.98072	-3.77456	1.48454
956.000	-3.62493	2.02631	-3.75881	1.41116
957.000	-3.55207	2.02448	-3.72141	1.52629
958.000	-3.56192	2.01653	-3.68794	1.46286
959.000	-3.55995	2.00067	-3.63872	1.53635
960.000	-3.55995	2.02447	-3.71550	1.50051
961.000	-3.58949	1.97879	-3.74109	1.50443
962.000	-3.58555	1.98871	-3.75487	1.43894
963.000	-3.60721	1.99858	-3.77259	1.48851
964.000	-3.52450	2.02653	-3.77456	1.48057
965.000	-3.55207	2.08993	-3.77259	1.52818
966.000	-3.53828	2.01460	-3.65447	1.51053
967.000	-3.59146	2.05018	-3.74897	1.48657
968.000	-3.53631	2.04633	-3.77062	1.58373
969.000	-3.53435	2.01262	-3.78243	1.52222
970.000	-3.55010	2.04829	-3.72928	1.52826
971.000	-3.57570	2.03633	-3.76669	1.50241
972.000	-3.58555	2.02441	-3.69188	1.55610
973.000	-3.55601	2.04232	-3.70369	1.56798
974.000	-3.55404	2.03043	-3.80605	1.58367
975.000	-3.57176	2.03039	-3.78243	1.56586
976.000	-3.54419	2.05425	-3.73322	1.56594
977.000	-3.52647	2.05032	-3.77850	1.55595
978.000	-3.58161	2.03632	-3.78046	1.49048
979.000	-3.55207	2.08001	-3.81196	1.54993
980.000	-3.55010	2.04035	-3.74306	1.60362
981.000	-3.53238	2.11178	-3.74700	1.53220
982.000	-3.53828	2.06219	-3.78440	1.53808
983.000	-3.52647	2.07610	-3.76669	1.52026
984.000	-3.47329	2.10795	-3.77653	1.46073
985.000	-3.55601	2.02448	-3.71156	1.45489
986.000	-3.51859	2.08009	-3.79818	1.52219
987.000	-3.55995	2.08594	-3.73125	1.50842
988.000	-3.52450	2.05033	-3.79424	1.56980
989.000	-3.55798	2.05223	-3.77456	1.51429
990.000	-3.59146	2.04224	-3.78440	1.50436
991.000	-3.55404	2.05224	-3.81196	1.49638
992.000	-3.60130	2.05015	-3.74306	1.55799
993.000	-3.61706	2.11952	-3.78046	1.53611
994.000	-3.57176	2.11962	-3.77850	1.51032
995.000	-3.55995	2.07404	-3.84345	1.51616
996.000	-3.58358	2.13546	-3.83754	1.49832
997.000	-3.54813	2.07209	-3.80015	1.51028
998.000	-3.55798	2.06017	-3.88084	1.51014
999.000	-3.50480	2.06227	-3.80802	1.56581
1000.000	-3.50283	2.10193	-3.87887	1.46651
1001.000	-3.53631	2.10384	-3.85526	1.49035
1002.000	-3.48511	2.09206	-3.85329	1.49432
1003.000	-3.52450	2.09990	-3.79621	1.47458
1004.000	-3.52450	2.08007	-3.81196	1.57175
1005.000	-3.49101	2.09205	-3.73125	1.46874
1006.000	-3.51071	2.09597	-3.81983	1.51422
1007.000	-3.55010	2.05424	-3.80015	1.51028
1008.000	-3.52253	2.04438	-3.80999	1.48845
1009.000	-3.53631	2.01460	-3.85723	1.45067
1010.000	-3.53238	2.12566	-3.81196	1.47654
1011.000	-3.54813	2.03837	-3.86510	1.42487
1012.000	-3.54419	2.06218	-3.88281	1.48435
1013.000	-3.55404	2.07802	-3.78243	1.48651
1014.000	-3.52450	2.08404	-3.85329	1.52011
1015.000	-3.53435	2.08997	-3.93201	1.47633
1016.000	-3.50480	2.07020	-3.92020	1.47437
1017.000	-3.55010	2.05820	-3.85723	1.44671
1018.000	-3.52056	2.10189	-3.80802	1.42695
1019.000	-3.53435	2.06022	-3.83754	1.41103
1020.000	-3.52647	2.07015	-3.83361	1.41302
1021.000	-3.54419	2.10779	-3.89462	1.43672
1022.000	-3.52253	2.11180	-3.86707	1.43677
1023.000	-3.55995	2.12163	-3.79621	1.46070
1024.000	-3.51662	2.06422	-3.84542	1.44673
1025.000	-3.51859	2.09198	-3.89462	1.45259
1026.000	-3.54813	2.13554	-3.95168	1.48423
1027.000	-3.49889	2.08013	-3.96349	1.40487
1028.000	-3.51465	2.06621	-3.92807	1.40295
1029.000	-3.50086	2.08806	-3.94578	1.44457
1030.000	-3.53828	2.08599	-3.97529	1.42469
1031.000	-3.52450	2.10783	-3.89265	1.48037
1032.000	-3.50086	2.07814	-3.88675	1.41095
1033.000	-3.48117	2.11388	-3.93201	1.41484
1034.000	-3.48117	2.13371	-3.86313	1.45661
1035.000	-3.54222	2.08003	-3.89462	1.42879
1036.000	-3.52253	2.11577	-3.85723	1.38124
1037.000	-3.49495	2.09997	-3.89462	1.39308
1038.000	-3.48314	2.11784	-3.85919	1.44472
1039.000	-3.56783	2.08791	-3.94184	1.38706
1040.000	-3.48117	2.09405	-3.86903	1.42685
1041.000	-3.53041	2.09989	-3.98513	1.44054
1042.000	-3.43980	2.07629	-3.93791	1.39896
1043.000	-3.50480	2.09796	-3.89265	1.39309
1044.000	-3.51071	2.12968	-3.90642	1.44464
1045.000	-3.50086	2.08012	-3.91036	1.37521
1046.000	-3.51071	2.11580	-3.95168	1.48225
1047.000	-3.49298	2.14955	-3.94775	1.40490
1048.000	-3.50677	2.06226	-3.90249	1.43274
1049.000	-3.54616	2.14348	-3.86707	1.33163
1050.000	-3.48314	2.11388	-3.85723	1.34554
1051.000	-3.49692	2.13368	-3.97136	1.41279
1052.000	-3.53435	2.13161	-3.81786	1.33171
1053.000	-3.48117	2.17139	-3.89068	1.38516
1054.000	-3.47920	2.08811	-3.84739	1.42490
1055.000	-3.54025	2.05624	-3.87887	1.43874
1056.000	-3.50283	2.11582	-3.93004	1.35534
1057.000	-3.50283	2.10193	-3.81196	1.44877
1058.000	-3.51465	2.09596	-3.94971	1.37514
1059.000	-3.44571	2.07826	-3.87691	1.32368
1060.000	-3.47920	2.09009	-3.96545	1.38503
1061.000	-3.51662	2.12570	-3.87100	1.37725
1062.000	-3.49889	2.11186	-3.89265	1.37127
1063.000	-3.46541	2.09805	-3.85723	1.33760
1064.000	-3.44965	2.09214	-3.89659	1.36729
1065.000	-3.51859	2.06224	-3.96349	1.43066
1066.000	-3.51662	2.09000	-3.91036	1.35735
1067.000	-3.49889	2.09401	-3.89855	1.38316
1068.000	-3.43389	2.12985	-3.92217	1.38709
1069.000	-3.48117	2.08612	-3.93201	1.41087
1070.000	-3.49101	2.11386	-3.89265	1.40896
1071.000	-3.48314	2.09206	-3.98119	1.42269
1072.000	-3.39843	2.07837	-3.91233	1.34346
1073.000	-3.47723	2.08216	-3.96152	1.32950
1074.000	-3.49101	2.11188	-3.90052	1.33753
1075.000	-3.49889	2.09401	-3.91233	1.37322
1076.000	-3.48511	2.08214	-3.93791	1.37119
1077.000	-3.47526	2.07225	-3.95168	1.35133
1078.000	-3.47329	2.09407	-3.92610	1.38311
1079.000	-3.48314	2.06826	-3.88084	1.38517
1080.000	-3.40040	2.12398	-3.92413	1.31567
1081.000	-3.50283	2.07417	-3.82574	1.37931
1082.000	-3.48904	2.08412	-3.94971	1.33944
1083.000	-3.50677	2.08209	-3.93201	1.37914
1084.000	-3.38661	2.11607	-3.89659	1.38911
1085.000	-3.48904	2.07420	-3.97136	1.38899
1086.000	-3.46147	2.11194	-3.91430	1.34544
1087.000	-3.46541	2.13771	-3.96152	1.38901
1088.000	-3.43783	2.11199	-3.96152	1.37711
1089.000	-3.44374	2.11793	-3.83164	1.33169
1090.000	-3.44768	2.08421	-3.93988	1.36326
1091.000	-3.40828	2.04066	-3.97136	1.36122
1092.000	-3.45359	2.09213	-3.87887	1.34947
1093.000	-3.49889	2.10194	-3.93397	1.38905
1094.000	-3.45753	2.11195	-3.91233	1.29784
1095.000	-3.41419	2.13188	-3.91626	1.36528
1096.000	-3.42995	2.17944	-3.91626	1.34346
1097.000	-3.46344	2.16945	-3.89659	1.35738
1098.000	-3.43192	2.09614	-3.94381	1.38507
1099.000	-3.48708	2.05437	-3.93201	1.41484
1100.000	-3.48511	2.11189	-3.90052	1.39308
1101.000	-3.46541	2.12780	-3.93988	1.38706
1102.000	-3.41616	2.09023	-3.89265	1.40102
1103.000	-3.39449	2.16365	-3.93988	1.30970
1104.000	-3.48314	2.08413	-3.97529	1.35328
1105.000	-3.39646	2.16563	-3.98316	1.36913
1106.000	-3.41025	2.11800	-3.91823	1.36527
1107.000	-3.47329	2.06234	-3.95168	1.36919
1108.000	-3.44571	2.12388	-3.96742	1.37908
1109.000	-3.44965	2.08024	-3.92807	1.41287
1110.000	-3.43192	2.09813	-3.91233	1.37719
1111.000	-3.44571	2.11594	-3.91036	1.42281
1112.000	-3.47920	2.09405	-3.96349	1.37710
1113.000	-3.44374	2.11396	-3.97529	1.38303
1114.000	-3.43783	2.07035	-3.93594	1.36128
1115.000	-3.40237	2.09819	-3.92807	1.37716
1116.000	-3.42601	2.11004	-3.87887	1.38914
1117.000	-3.43783	2.09018	-4.05202	1.37299
1118.000	-3.46344	2.10202	-3.96349	1.39495
1119.000	-3.46147	2.08616	-3.96152	1.47033
1120.000	-3.42601	2.11400	-3.92610	1.33749
1121.000	-3.44177	2.10405	-3.94184	1.35333
1122.000	-3.41616	2.13584	-3.91626	1.43074
1123.000	-3.42404	2.12987	-3.87494	1.44866
1124.000	-3.41025	2.08826	-3.95168	1.39696
1125.000	-3.45950	2.14368	-3.92610	1.43270
1126.000	-3.46541	2.13970	-3.94971	1.35927
1127.000	-3.42995	2.08425	-3.98906	1.33739
1128.000	-3.46344	2.10202	-3.96939	1.30568
1129.000	-3.42404	2.10409	-3.99103	1.37904
1130.000	-3.44768	2.11396	-3.96939	1.39494
1131.000	-3.42601	2.10805	-3.94184	1.37119
1132.000	-3.40237	2.11406	-3.93397	1.39500
1133.000	-3.44571	2.07826	-4.02054	1.36709
1134.000	-3.42207	2.11996	-4.00677	1.33339
1135.000	-3.40040	2.12596	-3.93594	1.39500
1136.000	-3.41616	2.10213	-3.96545	1.35330
1137.000	-3.41025	2.12197	-4.01464	1.29569
1138.000	-3.46344	2.11194	-3.98710	1.37310
1139.000	-3.44965	2.12982	-3.91626	1.33156
1140.000	-3.44177	2.09017	-4.04218	1.29565
1141.000	-3.39646	2.13390	-3.94381	1.34936
1142.000	-3.43783	2.10010	-3.96152	1.33942
1143.000	-3.42995	2.08623	-3.94381	1.39300
1144.000	-3.40434	2.09025	-3.84935	1.39911
1145.000	-3.42404	2.08426	-3.99890	1.33142
1146.000	-3.39646	2.10812	-3.98710	1.29177
1147.000	-3.40434	2.11008	-3.94578	1.37515
1148.000	-3.41222	2.08429	-3.89659	1.38713
1149.000	-3.40828	2.12991	-3.96742	1.35131
1150.000	-3.40434	2.08034	-3.93004	1.30178
1151.000	-3.40434	2.12595	-3.96939	1.28783
1152.000	-3.43389	2.13382	-3.91626	1.34346
1153.000	-3.40040	2.12794	-3.93201	1.34938
1154.000	-3.36888	2.17164	-4.00087	1.37902
1155.000	-3.43192	2.09019	-3.91233	1.37719
1156.000	-3.38464	2.15773	-4.07562	1.33923
1157.000	-3.40237	2.11604	-3.98906	1.36119
1158.000	-3.43192	2.15762	-4.04612	1.34523
1159.000	-3.39843	2.11605	-3.94381	1.35928
1160.000	-3.35312	2.13796	-3.99693	1.37903
1161.000	-3.38070	2.13394	-4.00480	1.33935
1162.000	-3.38464	2.15376	-3.94578	1.37911
1163.000	-3.37479	2.11412	-3.97136	1.39097
1164.000	-3.40828	2.13586	-3.92413	1.38907
1165.000	-3.39252	2.12796	-3.97333	1.37510
1166.000	-3.37085	2.16767	-3.93594	1.36723
1167.000	-3.37873	2.12601	-3.96349	1.42471
1168.000	-3.39646	2.09225	-3.96545	1.27197
1169.000	-3.42207	2.10013	-3.93004	1.28988
1170.000	-3.35903	2.12208	-3.95758	1.42075
1171.000	-3.34721	2.14194	-4.01661	1.34726
1172.000	-3.37282	2.10420	-3.95955	1.33347
1173.000	-3.37282	2.16568	-4.00480	1.33141
1174.000	-3.38464	2.09823	-3.90052	1.32365
1175.000	-3.40040	2.11009	-3.91233	1.31371
1176.000	-3.38070	2.13592	-3.94184	1.41284
1177.000	-3.38464	2.12401	-3.96939	1.37114
1178.000	-3.37479	2.11610	-4.01661	1.29371
1179.000	-3.38070	2.15575	-3.90052	1.39109
1180.000	-3.40631	2.09818	-4.00087	1.40877
1181.000	-3.42010	2.13583	-3.95365	1.33150
1182.000	-3.37479	2.12800	-3.99300	1.26994
1183.000	-3.32750	2.14397	-4.02054	1.31155
1184.000	-3.36888	2.13793	-4.00677	1.36116
1185.000	-3.37873	2.08634	-4.00480	1.30166
1186.000	-3.39843	2.05655	-4.03825	1.36309
1187.000	-3.38858	2.09227	-3.99693	1.39886
1188.000	-3.35312	2.12606	-4.00087	1.34927
1189.000	-3.33933	2.11419	-4.04612	1.37300
1190.000	-3.36691	2.10223	-3.95168	1.30174
1191.000	-3.39843	2.12596	-4.06382	1.33330
1192.000	-3.38661	2.07244	-4.03235	1.36905
1193.000	-3.40040	2.10018	-3.99890	1.36713
1194.000	-3.34130	2.13997	-4.01071	1.40677
1195.000	-3.42404	2.11797	-3.92610	1.40890
1196.000	-3.29795	2.21940	-4.02448	1.35915
1197.000	-3.39843	2.14580	-4.05989	1.37099
1198.000	-3.36888	2.13991	-4.02054	1.39287
1199.000	-3.39646	2.15572	-3.96742	1.37908
1200.000	-3.38070	2.10815	-4.02841	1.34526
1201.000	-3.32947	2.09438	-4.11299	1.33917
1202.000	-3.36888	2.13793	-3.99497	1.38895
1203.000	-3.37873	2.14981	-4.04612	1.43448
1204.000	-3.37873	2.13196	-3.99497	1.36713
1205.000	-3.35903	2.17761	-4.00480	1.41670
1206.000	-3.39843	2.10613	-4.05792	1.39678
1207.000	-3.34327	2.14988	-4.04021	1.42854
1208.000	-3.38464	2.17359	-4.04218	1.43448
1209.000	-3.45359	2.11196	-4.05595	1.34125
1210.000	-3.36297	2.15976	-4.01071	1.38694
1211.000	-3.37282	2.12205	-4.07759	1.32138
1212.000	-3.39252	2.12598	-4.01071	1.34132
1213.000	-3.44177	2.15363	-4.05399	1.34522
1214.000	-3.39449	2.11011	-4.03431	1.32740
1215.000	-3.36691	2.11215	-3.99103	1.38697
1216.000	-3.35509	2.16176	-4.03431	1.35318
1217.000	-3.41419	2.13981	-4.07366	1.35510
1218.000	-3.38858	2.10020	-4.05202	1.32142
1219.000	-3.44177	2.11199	-3.97726	1.41080
1220.000	-3.36100	2.13795	-4.08939	1.35111
1221.000	-3.36297	2.13596	-4.06185	1.33330
1222.000	-3.35115	2.12210	-3.99300	1.37110
1223.000	-3.42207	2.14971	-4.06185	1.36107
1224.000	-3.39252	2.16961	-4.07956	1.32931
1225.000	-3.42798	2.15961	-4.05595	1.41859
1226.000	-3.41616	2.11998	-4.01661	1.41073
1227.000	-3.41419	2.13188	-3.92413	1.37915
1228.000	-3.42404	2.17152	-3.90642	1.34347
1229.000	-3.40040	2.15174	-4.02841	1.42658
1230.000	-3.46147	2.14169	-3.92610	1.38907
1231.000	-3.42798	2.13978	-4.08349	1.43441
1232.000	-3.44177	2.15958	-3.95955	1.38901
1233.000	-3.39252	2.14977	-3.92217	1.33948
1234.000	-3.46147	2.09608	-3.99497	1.31754
1235.000	-3.42798	2.09615	-3.98513	1.41475
1236.000	-3.47920	2.11587	-3.89265	1.41689
1237.000	-3.45753	2.13178	-4.03825	1.39879
1238.000	-3.39252	2.10218	-4.01464	1.32545
1239.000	-3.47329	2.12183	-4.06185	1.39479
1240.000	-3.44768	2.09809	-4.00480	1.45637
1241.000	-3.40828	2.11206	-4.03628	1.37301
1242.000	-3.43980	2.15165	-4.04415	1.35713
1243.000	-3.48117	2.11785	-3.94775	1.31365
1244.000	-3.44965	2.17146	-3.99693	1.41870
1245.000	-3.44374	2.11793	-4.03825	1.35119
1246.000	-3.49692	2.09600	-3.98119	1.40682
1247.000	-3.44571	2.11396	-3.95955	1.34339
1248.000	-3.43192	2.12391	-3.99497	1.39292
1249.000	-3.40237	2.12001	-3.94578	1.41680
1250.000	-3.46738	2.10598	-4.03825	1.42061
1251.000	-3.43980	2.14174	-3.96545	1.36321
1252.000	-3.41025	2.11999	-3.97923	1.41674
1253.000	-3.41222	2.12197	-3.98316	1.38897
1254.000	-3.44374	2.11991	-3.99103	1.27193
1255.000	-3.45556	2.17343	-3.96742	1.39098
1256.000	-3.45162	2.12981	-3.93201	1.39104
1257.000	-3.47132	2.11390	-3.93004	1.36922
1258.000	-3.38661	2.14186	-3.96152	1.41479
1259.000	-3.42207	2.12988	-4.02251	1.44047
1260.000	-3.40631	2.13190	-4.09136	1.38482
1261.000	-3.42010	2.09617	-4.01464	1.39288
1262.000	-3.48511	2.11982	-4.01071	1.30363
1263.000	-3.46935	2.12977	-3.94578	1.35730
1264.000	-3.47920	2.12777	-3.96349	1.32156
1265.000	-3.53041	2.16334	-3.97923	1.33344
1266.000	-3.43389	2.12787	-3.98710	1.41475
1267.000	-3.45753	2.12187	-4.00677	1.37108
1268.000	-3.46935	2.13374	-3.95955	1.40091
1269.000	-3.46541	2.05442	-3.93201	1.39302
1270.000	-3.44768	2.10999	-4.02644	1.37303
1271.000	-3.49101	2.11981	-4.00874	1.40281
1272.000	-3.43389	2.11200	-3.96742	1.29180
1273.000	-3.50480	2.08607	-4.06185	1.40867
1274.000	-3.48708	2.08214	-4.02644	1.37303
1275.000	-3.48708	2.11188	-4.02841	1.36708
1276.000	-3.42601	2.09417	-4.08742	1.34714
1277.000	-3.46935	2.12581	-3.96939	1.41279
1278.000	-3.45359	2.10601	-3.91626	1.33552
1279.000	-3.51465	2.06621	-3.94578	1.43069
1280.000	-3.46935	2.10994	-4.07169	1.35312
1281.000	-3.50480	2.13961	-3.94775	1.42473
1282.000	-3.47723	2.09406	-3.95365	1.34141
1283.000	-3.48314	2.10198	-4.01464	1.40478
1284.000	-3.50283	2.08210	-3.97333	1.30369
1285.000	-3.44374	2.13776	-3.98316	1.39294
1286.000	-3.50677	2.08408	-3.97923	1.36517
1287.000	-3.48511	2.06231	-4.00087	1.38101
1288.000	-3.43389	2.08622	-3.93201	1.38509
1289.000	-3.53041	2.07213	-4.10709	1.34909
1290.000	-3.49101	2.12774	-4.05792	1.34719
1291.000	-3.50086	2.11780	-3.93988	1.38706
1292.000	-3.47132	2.09011	-3.99693	1.40481
1293.000	-3.45162	2.11196	-4.04218	1.42259
1294.000	-3.50283	2.11383	-3.97529	1.39295
1295.000	-3.53041	2.13757	-3.93201	1.43269
1296.000	-3.43980	2.10207	-4.03431	1.35715
1297.000	-3.48904	2.13171	-4.04218	1.35515
1298.000	-3.49101	2.08213	-3.96349	1.32553
1299.000	-3.47329	2.12778	-4.03825	1.33929
1300.000	-3.50283	2.09598	-3.97923	1.31955
1301.000	-3.51465	2.14950	-3.96939	1.39891
1302.000	-3.51465	2.08009	-3.94578	1.43069
1303.000	-3.47526	2.04052	-3.99890	1.38696
1304.000	-3.46541	2.10400	-4.08546	1.37293
1305.000	-3.51071	2.04242	-4.04415	1.37697
1306.000	-3.46935	2.04251	-4.04218	1.40870
1307.000	-3.49692	2.06229	-3.96545	1.35528
1308.000	-3.47723	2.09604	-3.97923	1.42269
1309.000	-3.47723	2.07224	-4.00677	1.44446
1310.000	-3.54025	2.07805	-4.01858	1.30759
1311.000	-3.52253	2.02852	-4.04612	1.39283
1312.000	-3.46541	2.07822	-3.96939	1.38899
1313.000	-3.46738	2.08020	-4.02251	1.35122
1314.000	-3.51071	2.08010	-3.99103	1.43457
1315.000	-3.50874	2.03846	-3.96152	1.33347
1316.000	-3.48708	2.07222	-3.98513	1.36913
1317.000	-3.53631	2.07806	-3.95955	1.37116
1318.000	-3.53238	2.08997	-3.92610	1.40493
1319.000	-3.54419	2.07210	-4.06382	1.46221
1320.000	-3.51268	2.03449	-3.95562	1.45844
1321.000	-3.49495	2.06229	-4.00480	1.37902
1322.000	-3.48708	2.11188	-3.99300	1.35920
1323.000	-3.53435	2.07608	-3.98513	1.40285
1324.000	-3.51268	2.07613	-4.00087	1.47026
1325.000	-3.49889	2.06625	-3.93791	1.38309
1326.000	-3.48314	2.05637	-4.01071	1.40677
1327.000	-3.50874	2.06623	-4.03825	1.36508
1328.000	-3.50874	2.09597	-3.95562	1.35728
1329.000	-3.51859	2.02456	-4.01464	1.37107
1330.000	-3.53828	2.05426	-4.02448	1.26196
1331.000	-3.56389	2.06015	-3.94775	1.37118
1332.000	-3.51268	2.02259	-4.13266	1.40458
1333.000	-3.48117	2.09008	-4.04021	1.30755
1334.000	-3.45556	2.02469	-3.93397	1.35930
1335.000	-3.42601	2.02872	-3.98119	1.26004
1336.000	-3.52056	2.04240	-4.04021	1.41862
1337.000	-3.48904	2.01074	-4.03431	1.39483
1338.000	-3.46738	2.09210	-4.00087	1.42861
1339.000	-3.50283	2.07417	-3.97923	1.39294
1340.000	-3.48117	2.08215	-3.99300	1.40879
1341.000	-3.47723	2.07819	-4.04021	1.39284
1342.000	-3.43192	2.09416	-4.00677	1.35521
1343.000	-3.54419	2.03640	-4.00874	1.39289
1344.000	-3.45359	2.11394	-4.06579	1.42651
1345.000	-3.43586	2.10803	-3.96349	1.34735
1346.000	-3.47329	2.06432	-4.03431	1.38888
1347.000	-3.47723	2.03853	-4.00874	1.34926
1348.000	-3.48708	2.07024	-3.94184	1.33350
1349.000	-3.47329	2.10993	-3.98316	1.37310
1350.000	-3.45556	2.06238	-3.99497	1.31358
1351.000	-3.43980	2.06043	-3.98119	1.35724
1352.000	-3.46147	2.06236	-4.02644	1.30163
1353.000	-3.52253	2.06223	-3.94971	1.39498
1354.000	-3.42995	2.08821	-3.99890	1.34134
1355.000	-3.46147	2.07228	-3.99300	1.43854
1356.000	-3.50283	2.13961	-3.90839	1.36529
1357.000	-3.45950	2.04055	-3.95168	1.30769
1358.000	-3.54222	2.00071	-3.95168	1.39299
1359.000	-3.48708	2.06429	-3.95955	1.32752
1360.000	-3.52450	2.05826	-3.95955	1.35331
1361.000	-3.47723	2.03258	-3.96349	1.37512
1362.000	-3.46344	2.07822	-3.97529	1.41477
1363.000	-3.45950	2.05245	-3.99890	1.37903
1364.000	-3.48314	2.06826	-3.97529	1.43262
1365.000	-3.53238	2.08005	-4.00677	1.38893
1366.000	-3.47132	2.03259	-4.04218	1.41664
1367.000	-3.49495	2.02857	-3.99693	1.39688
1368.000	-3.49889	2.04047	-4.02644	1.39683
1369.000	-3.49889	1.96312	-3.98316	1.37509
1370.000	-3.53435	2.02849	-3.98513	1.38302
1371.000	-3.50677	2.01665	-3.91233	1.38314
1372.000	-3.50677	2.02855	-4.05792	1.38884
1373.000	-3.57176	2.04824	-3.97136	1.35329
1374.000	-3.57373	1.95304	-4.01071	1.46032
1375.000	-3.51268	2.05432	-3.98316	1.39690
1376.000	-3.55207	2.02845	-3.99103	1.37706
1377.000	-3.59540	1.97481	-3.98906	1.39094
1378.000	-3.57767	2.01451	-4.02054	1.39486
1379.000	-3.52450	1.99480	-4.02448	1.48608
1380.000	-3.49692	2.05832	-4.03825	1.43449
1381.000	-3.53041	2.04238	-4.01464	1.50791
1382.000	-3.55207	2.01853	-4.07562	1.38881
1383.000	-3.46935	2.03656	-3.98710	1.36119
1384.000	-3.41025	2.03272	-3.93791	1.32954
1385.000	-3.31765	2.05870	-3.78243	1.49246
1386.000	-3.14620	2.09873	-3.58555	1.55033
1387.000	-2.99835	2.12679	-3.32750	1.55869
1388.000	-2.78143	2.16292	-3.12846	1.64038
1389.000	-2.51905	2.23482	-2.83074	1.82544
1390.000	-2.16181	2.36837	-2.49538	1.88550
1391.000	-1.89723	2.42235	-2.05125	1.95758
1392.000	-1.43896	2.57378	-1.80836	2.09489
1393.000	-1.06943	2.64361	-1.39746	2.31971
1394.000	-0.67017	2.74711	-0.99631	2.40941
1395.000	-0.25108	2.84055	-0.56738	2.47320
1396.000	0.18584	2.93779	-0.14432	2.58649
1397.000	0.53971	3.03886	0.26887	2.62221
1398.000	0.96666	3.10600	0.73936	2.68951
1399.000	1.37771	3.24037	1.08129	2.82023
1400.000	1.76293	3.29924	1.41722	2.86153
1401.000	2.19932	3.33007	1.73133	2.91069
1402.000	2.57627	3.37274	2.20327	2.86624
1403.000	2.96680	3.43498	2.37500	2.98683
1404.000	3.37479	3.56817	2.84060	2.98573
1405.000	3.74109	3.60235	3.07327	2.99897
1406.000	4.08546	3.58308	3.41813	2.90486
1407.000	4.39415	3.60537	3.72141	2.95737
1408.000	4.69670	3.63150	3.96742	2.93276
1409.000	4.98132	3.58458	4.29390	2.86032
1410.000	5.32450	3.58265	4.63974	2.83524
1411.000	5.62227	3.59073	4.87142	2.81847
1412.000	5.86105	3.72720	5.23237	2.75761
1413.000	6.19539	3.77611	5.44600	2.82777
1414.000	6.40243	3.80217	5.66339	2.66674
1415.000	6.73412	3.83505	5.92952	2.63784
1416.000	6.90565	3.78452	6.15045	2.63282
1417.000	7.09846	3.75741	6.24033	2.72907
1418.000	7.28722	3.73620	6.42976	2.73990
1419.000	7.44473	3.74470	6.56443	2.74706
1420.000	7.59047	3.70810	6.70877	2.68120
1421.000	7.71281	3.69919	6.82575	2.72785
1422.000	7.77104	3.73401	6.89590	2.64468
1423.000	7.81568	3.73557	6.81990	2.69635
1424.000	7.80403	3.76315	6.79261	2.66694
1425.000	7.66815	3.75651	6.79066	2.70834
1426.000	7.62154	3.78244	6.78286	2.67487
1427.000	7.46805	3.78182	6.60735	2.76654
1428.000	7.33779	3.80650	6.56833	2.75295
1429.000	7.12182	3.78277	6.53126	2.76301
1430.000	7.01084	3.78367	6.44343	2.80491
1431.000	6.92318	3.83354	6.38681	2.74999
1432.000	6.83744	3.81063	6.32432	2.82923
1433.000	6.76922	3.78953	6.36338	2.85663
1434.000	6.81795	3.79112	6.38486	2.87623
1435.000	6.79066	3.79526	6.41024	2.99637
1436.000	6.82575	3.83235	6.45124	2.90544
1437.000	6.93097	3.72926	6.53516	2.90693
1438.000	6.93487	3.74299	6.59370	2.95980
1439.000	7.11209	3.77302	6.70682	2.95321
1440.000	7.21719	3.78984	6.70682	3.07537
1441.000	7.28722	3.78729	6.80431	2.98611
1442.000	7.37085	3.75908	6.80431	2.93686
1443.000	7.42723	3.75467	6.81795	2.94859
1444.000	7.49915	3.74620	6.87057	2.96994
1445.000	7.58464	3.76509	6.94461	2.93205
1446.000	7.57881	3.70231	6.84913	2.91097
1447.000	7.67398	3.76824	6.91539	2.99526
1448.000	7.65456	3.70165	6.83159	2.83423
1449.000	7.67786	3.78194	6.86862	2.89509
1450.000	7.68951	3.76025	6.85888	2.88333
1451.000	7.66233	3.73889	6.75557	2.89380
1452.000	7.67786	3.76231	6.89396	2.98161
1453.000	7.64485	3.74493	6.85693	2.83211
1454.000	7.64873	3.78024	6.76142	2.96667
1455.000	7.60406	3.75511	6.74387	2.90767
1456.000	7.61183	3.77664	6.80626	2.94276
1457.000	7.59435	3.76305	6.74582	2.87415
1458.000	7.56521	3.82613	6.78091	2.95670
1459.000	7.55550	3.81444	6.77312	2.83261
1460.000	7.55938	3.77121	6.69902	2.92764
1461.000	7.53024	3.84411	6.66002	2.91408
1462.000	7.48943	3.84447	6.75167	2.88988
1463.000	7.51469	3.77159	6.65222	2.88456
1464.000	7.48554	3.80327	6.65222	2.85105
1465.000	7.45056	3.75643	6.73802	2.84858
1466.000	7.44862	3.79573	6.65612	2.86680
1467.000	7.42723	3.76056	6.62491	2.83150
1468.000	7.46611	3.81915	6.60540	2.98930
1469.000	7.45833	3.80547	6.62686	2.90245
1470.000	7.44862	3.72502	6.63661	2.94969
1471.000	7.39418	3.76477	6.64832	2.87670
1472.000	7.42529	3.78415	6.64246	2.80971
1473.000	7.37474	3.76494	6.70292	2.78374
1474.000	7.40974	3.80785	6.63466	2.81370
1475.000	7.40390	3.79612	6.66587	2.85886
1476.000	7.42529	3.76058	6.62101	2.83546
1477.000	7.38446	3.79039	6.70877	2.87437
1478.000	7.38641	3.76287	6.71072	2.84480
1479.000	7.42335	3.80773	6.62686	2.93596
1480.000	7.40196	3.76471	6.74777	2.97267
1481.000	7.41557	3.79209	6.76727	2.93314
1482.000	7.43306	3.81943	6.83549	2.96425
1483.000	7.45833	3.76226	6.68147	2.93760
1484.000	7.45250	3.79177	6.73022	2.90775
1485.000	7.45056	3.79179	6.69512	2.93358
1486.000	7.44667	3.80557	6.70487	2.89213
1487.000	7.45250	3.78784	6.75752	2.91744
1488.000	7.45250	3.80552	6.70682	2.93351
1489.000	7.43306	3.82729	6.73607	2.94909
1490.000	7.45445	3.78783	6.71267	2.88617
1491.000	7.46417	3.83291	6.75557	2.95095
1492.000	7.45056	3.77804	6.71657	2.89798
1493.000	7.45250	3.80748	6.73217	2.86832
1494.000	7.45445	3.80157	6.73022	2.83877
1495.000	7.46028	3.81134	6.72827	2.93929
1496.000	7.45445	3.78193	6.72632	2.87230
1497.000	7.45639	3.80745	6.78481	2.95274
1498.000	7.40585	3.80199	6.69902	2.89020
1499.000	7.45056	3.78393	6.73607	2.93924
1500.000	7.47583	3.74443	6.77117	2.90356
1501.000	7.49526	3.80122	6.73802	2.90179
1502.000	7.52247	3.80687	6.61125	2.87494
1503.000	7.47583	3.77193	6.76142	2.94697
1504.000	7.49526	3.77962	6.61320	2.88676
1505.000	7.51858	3.77745	6.72827	2.89199
1506.000	7.49526	3.81889	6.75362	2.84652
1507.000	7.47194	3.77000	6.73997	2.92148
1508.000	7.48166	3.83472	6.75362	2.89381
1509.000	7.47777	3.74442	6.65417	2.97324
1510.000	7.44278	3.74864	6.69902	2.99464
1511.000	7.47194	3.75429	6.70682	2.98868
1512.000	7.47000	3.76412	6.70682	2.93154
1513.000	7.42723	3.75270	6.73412	2.89196
1514.000	7.47000	3.77198	6.75557	2.93124
1515.000	7.47194	3.78178	6.77117	2.93312
1516.000	7.47777	3.76406	6.71072	2.95122
1517.000	7.46222	3.75241	6.73022	2.91366
1518.000	7.46417	3.75632	6.77117	2.85824
1519.000	7.47388	3.71891	6.71657	2.89009
1520.000	7.46805	3.80931	6.73412	2.91758
1521.000	7.47583	3.80335	6.70877	2.96305
1522.000	7.41751	3.75868	6.70877	2.96502
1523.000	7.42529	3.73897	6.71267	2.91574
1524.000	7.42529	3.76843	6.77507	2.94886
1525.000	7.44473	3.79184	6.71267	2.93741
1526.000	7.46222	3.72294	6.70097	2.90792
1527.000	7.41946	3.73902	6.76922	2.92131
1528.000	7.45250	3.77409	6.82185	2.92296
1529.000	7.40585	3.72342	6.73802	2.87617
1530.000	7.40196	3.78828	6.72632	2.93733
1531.000	7.42723	3.77038	6.82965	2.88942
1532.000	7.43890	3.71332	6.67562	2.89428
1533.000	7.43501	3.78210	6.77507	2.85230
1534.000	7.49915	3.75405	6.67757	2.85287
1535.000	7.45445	3.71712	6.69122	2.90995
1536.000	7.43890	3.75064	6.72242	2.91962
1537.000	7.44084	3.74277	6.74972	2.90566
1538.000	7.44667	3.74861	6.67562	2.87063
1539.000	7.40390	3.77647	6.70877	2.96502
1540.000	7.42529	3.75076	6.66977	2.85489
1541.000	7.42723	3.71538	6.78871	2.85616
1542.000	7.42140	3.72329	6.75947	2.96471
1543.000	7.45056	3.80161	6.69512	2.95920
1544.000	7.44278	3.70346	6.75362	2.92534
1545.000	7.45639	3.72496	6.71852	2.82504
1546.000	7.39029	3.68819	6.74192	2.89782
1547.000	7.44084	3.75259	6.73607	2.91954
1548.000	7.46222	3.76615	6.76142	2.95091
1549.000	7.41946	3.73706	6.70682	2.89212
1550.000	7.44667	3.73682	6.75947	2.87013
1551.000	7.43501	3.75460	6.74972	2.82289
1552.000	7.42723	3.72127	6.70682	2.84482
1553.000	7.41362	3.70764	6.85888	2.86757
1554.000	7.36307	3.72574	6.77507	2.88580
1555.000	7.40196	3.68809	6.77507	2.84048
1556.000	7.41362	3.74496	6.84913	2.95628
1557.000	7.40585	3.75485	6.77117	2.86809
1558.000	7.42529	3.72915	6.73997	2.90178
1559.000	7.46028	3.70332	6.71852	2.83490
1560.000	7.45250	3.71713	6.73217	2.82693
1561.000	7.42723	3.72127	6.79456	2.90145
1562.000	7.46028	3.76224	6.78871	2.94680
1563.000	7.46805	3.71307	6.74777	2.95888
1564.000	7.46417	3.77007	6.80041	2.86595
1565.000	7.43695	3.75655	6.80236	2.94475
1566.000	7.45639	3.77995	6.78091	2.83650
1567.000	7.45833	3.72494	6.79066	2.89162
1568.000	7.42723	3.76449	6.82380	2.85201
1569.000	7.42918	3.76251	6.74972	2.80712
1570.000	7.44278	3.78400	6.79846	2.92704
1571.000	7.43501	3.77032	6.70097	2.88230
1572.000	7.42918	3.70358	6.81600	2.93284
1573.000	7.42529	3.72915	6.76727	2.92132
1574.000	7.45639	3.74460	6.77507	2.84048
1575.000	7.44862	3.71520	6.73412	2.92743
1576.000	7.45639	3.75835	6.73997	2.88010
1577.000	7.39807	3.74509	6.88226	2.91274
1578.000	7.45639	3.74656	6.67562	2.88048
1579.000	7.46028	3.74064	6.78676	2.99410
1580.000	7.44278	3.76043	6.83939	2.86374
1581.000	7.43306	3.77230	6.76727	2.95482
1582.000	7.41168	3.74694	6.75947	2.91743
1583.000	7.41946	3.73902	6.84913	2.95037
1584.000	7.43890	3.76046	6.72437	2.89005
1585.000	7.42335	3.79988	6.81210	2.94863
1586.000	7.46417	3.78774	6.82770	2.94065
1587.000	7.40002	3.78240	6.70487	2.91578
1588.000	7.43112	3.76838	6.81405	2.90133
1589.000	7.42529	3.75076	6.80626	2.81271
1590.000	7.41946	3.77045	6.74777	2.75983
1591.000	7.41557	3.75870	6.72047	2.89007
1592.000	7.44667	3.78200	6.79456	2.82854
1593.000	7.44278	3.78203	6.79066	2.96058
1594.000	7.41168	3.77444	6.80236	2.86396
1595.000	7.40390	3.77255	6.78871	2.87587
1596.000	7.40196	3.74506	6.78481	2.97047
1597.000	7.46028	3.79170	6.77896	2.90154
1598.000	7.44667	3.75057	6.78286	2.86014
1599.000	7.40779	3.78233	6.84329	2.79278
1600.000	7.41557	3.75280	6.78091	2.88577
1601.000	7.45250	3.80159	6.92123	2.84158
1602.000	7.42529	3.73504	6.77702	2.82864
1603.000	7.43695	3.71333	6.76922	2.85431
1604.000	7.43890	3.73296	6.83159	2.82241
1605.000	7.46417	3.71900	6.71267	2.84282
1606.000	7.47971	3.72869	6.82575	2.84215
1607.000	7.48943	3.75806	6.78481	2.84436
1608.000	7.43501	3.78799	6.80041	2.84821
1609.000	7.45833	3.77797	6.79066	2.85812
1610.000	7.49332	3.74821	6.79651	2.88567
1611.000	7.49526	3.78551	6.75752	2.89576
1612.000	7.48749	3.79343	6.77702	2.89564
1613.000	7.49720	3.76585	6.79846	2.89157
1614.000	7.48360	3.76990	6.84913	2.92476
1615.000	7.44667	3.79378	6.69122	2.91192
1616.000	7.47000	3.75823	6.76922	2.98042
1617.000	7.42918	3.73894	6.77896	2.97051
1618.000	7.43501	3.72710	6.77896	2.92519
1619.000	7.44278	3.75650	6.69902	2.89020
1620.000	7.39807	3.76277	6.73412	2.89787
1621.000	7.41362	3.70764	6.85108	2.85776
1622.000	7.42529	3.73111	6.84134	2.95633
1623.000	7.42918	3.77822	6.72242	2.81319
1624.000	7.41362	3.73514	6.81600	2.92496
1625.000	7.42918	3.80572	6.82575	2.88353
1626.000	7.41751	3.78421	6.76142	2.92135
1627.000	7.43112	3.74874	6.87642	2.89307
1628.000	7.42140	3.79007	6.86278	2.89907
1629.000	7.44473	3.78005	6.88421	2.92849
1630.000	7.38835	3.76089	6.89201	2.86737
1631.000	7.44473	3.81737	6.86473	2.94043
1632.000	7.41168	3.75676	6.76532	2.95680
1633.000	7.42918	3.71929	6.78676	2.98622
1634.000	7.40002	3.72740	6.89785	2.86733
1635.000	7.43890	3.71921	6.84719	2.90507
1636.000	7.39613	3.76475	6.81795	2.84417
1637.000	7.43306	3.76248	6.77312	2.91931
1638.000	7.44278	3.72114	6.83354	2.97214
1639.000	7.42140	3.76454	6.82770	2.83426
1640.000	7.45833	3.74458	6.83939	2.88936
1641.000	7.45833	3.74065	6.80236	2.98218
1642.000	7.46611	3.75630	6.84524	2.95237
1643.000	7.43112	3.77821	6.80041	2.92900
1644.000	7.48166	3.76795	6.79261	2.97042
1645.000	7.43501	3.78799	6.76337	2.94105
1646.000	7.45445	3.72104	6.85498	2.92079
1647.000	7.50692	3.77755	6.81990	2.94858
1648.000	7.50303	3.79330	6.81990	2.99389
1649.000	7.47194	3.74643	6.82770	2.95838
1650.000	7.49137	3.68537	6.74777	2.93523
1651.000	7.44278	3.71918	6.80236	2.92308
1652.000	7.46611	3.74452	6.73607	2.90574
1653.000	7.51664	3.72444	6.69902	2.96114
1654.000	7.48943	3.74628	6.82575	2.97022
1655.000	7.48360	3.71687	6.84913	2.95037
1656.000	7.47971	3.75029	6.80431	2.96050
1657.000	7.47777	3.72870	6.90954	2.98151
1658.000	7.44862	3.76234	6.74972	2.95886
1659.000	7.44278	3.78400	6.79651	3.05117
1660.000	7.48554	3.72864	6.78286	2.99018
1661.000	7.45445	3.71122	6.82575	2.89141
1662.000	7.46611	3.76612	6.82185	2.99388
1663.000	7.42918	3.79001	6.88226	2.96199
1664.000	7.41557	3.77441	6.82575	3.01947
1665.000	7.46417	3.80149	6.79846	2.93689
1666.000	7.42140	3.74097	6.88226	2.86743
1667.000	7.47194	3.72286	6.84329	2.95238
1668.000	7.44278	3.77221	6.83159	2.96230
1669.000	7.42723	3.77627	6.80431	2.98217
1670.000	7.42140	3.75472	6.90565	3.00714
1671.000	7.45639	3.78781	6.79456	2.91524
1672.000	7.39613	3.76083	6.86862	3.01329
1673.000	7.43112	3.78803	6.80626	2.96837
1674.000	7.46611	3.82504	6.91344	3.08390
1675.000	7.50498	3.93268	6.87057	3.10584
1676.000	7.58852	4.04771	6.89590	3.18641
1677.000	7.60989	4.18680	7.03810	3.29960
1678.000	7.69922	4.34473	7.07315	3.47641
1679.000	7.76134	4.48322	6.95046	3.59340
1680.000	7.86806	4.71900	7.09846	3.90874
1681.000	7.98055	5.04631	7.18410	4.20064
1682.000	8.06972	5.20543	7.22302	4.36710
1683.000	8.16853	5.44429	7.30862	4.64867
1684.000	8.25375	5.72786	7.33196	4.93058
1685.000	8.32925	5.98390	7.35529	5.20440
1686.000	8.33893	6.19200	7.33779	5.50191
1687.000	8.43180	6.38691	7.41751	5.61818
1688.000	8.37569	6.50637	7.39613	5.75520
1689.000	8.39311	6.59932	7.38641	5.83734
1690.000	8.31957	6.64717	7.39029	5.86853
1691.000	8.33312	6.66830	7.28528	5.71950
1692.000	8.27311	6.60910	7.34168	5.68948
1693.000	8.21308	6.55374	7.26582	5.69435
1694.000	8.17241	6.45138	7.25610	5.57329
1695.000	8.08910	6.26789	7.26193	5.50870
1696.000	8.01738	6.20669	7.21524	5.29605
1697.000	7.95146	6.03627	7.18410	5.22203
1698.000	7.91268	5.93938	7.24832	5.02747
1699.000	7.95728	5.80812	7.23275	4.95126
1700.000	7.88746	5.74082	7.23470	4.83956
1701.000	7.91849	5.65455	7.14129	4.73078
1702.000	7.92431	5.62910	7.36307	4.70494
1703.000	7.91074	5.55121	7.25026	4.66104
1704.000	7.91656	5.51795	7.33974	4.66207
1705.000	7.95728	5.52131	7.37280	4.69308
1706.000	7.95728	5.49203	7.44473	4.77069
1707.000	7.94565	5.58588	7.47583	4.70178
1708.000	8.00381	5.56167	7.36502	4.82640
1709.000	7.97473	5.60109	7.35724	4.94597
1710.000	8.04065	5.67237	7.38446	4.94567
1711.000	8.04840	5.71128	7.38057	5.04949
1712.000	8.06003	5.68186	7.39418	5.00626
1713.000	8.10460	5.73584	7.35141	4.98129
1714.000	8.09104	5.80232	7.49332	4.92683
1715.000	8.08328	5.79853	7.42140	5.06860
1716.000	8.12591	5.84275	7.50692	5.07348
1717.000	8.09879	5.82755	7.34752	5.14186
1718.000	8.11041	5.86442	7.42335	5.13903
1719.000	8.10654	5.92488	7.41751	5.15671
1720.000	8.11041	5.91314	7.41946	5.20169
1721.000	8.08522	5.94273	7.34752	5.16144
1722.000	8.13754	5.96340	7.32612	5.18908
1723.000	8.12979	5.93039	7.37474	5.14742
1724.000	8.15885	6.01567	7.40974	5.14310
1725.000	8.13366	6.00436	7.42335	5.29163
1726.000	8.14335	5.98863	7.25804	5.27402
1727.000	8.11235	6.00273	7.38252	5.21582
1728.000	8.13173	5.97907	7.44278	5.18381
1729.000	8.13754	5.98482	7.39613	5.26066
1730.000	8.12591	5.99668	7.34557	5.23973
1731.000	8.11235	5.99494	7.34752	5.25928
1732.000	8.14141	5.97698	7.36502	5.22777
1733.000	8.11235	5.95403	7.27555	5.21902
1734.000	8.08328	5.96225	7.34557	5.24169
1735.000	8.11235	5.95597	7.39224	5.17462
1736.000	8.10460	5.92296	7.37863	5.24717
1737.000	8.06972	5.97219	7.31251	5.13835
1738.000	8.06584	5.92938	7.32612	5.26931
1739.000	8.09685	5.95815	7.32029	5.19894
1740.000	8.09491	5.93869	7.36307	5.16908
1741.000	8.08910	5.99528	7.34946	5.17120
1742.000	8.06390	5.90017	7.48166	5.12465
1743.000	8.03289	5.91231	7.37863	5.18847
1744.000	8.06197	5.90605	7.39807	5.18433
1745.000	8.05034	5.96663	7.41168	5.14504
1746.000	8.07166	5.89616	7.33779	5.24374
1747.000	8.09104	5.94849	7.25415	5.16642
1748.000	8.04258	5.94336	7.28333	5.16413
1749.000	8.06778	5.90596	7.31834	5.20483
1750.000	8.07941	5.93113	7.38252	5.13950
1751.000	8.10460	5.93076	7.38835	5.15901
1752.000	8.06390	5.94110	7.32418	5.20476
1753.000	8.11623	5.96176	7.27750	5.25814
1754.000	8.09491	5.92505	7.29695	5.22856
1755.000	8.07553	5.91559	7.24248	5.20179
1756.000	8.04065	5.90635	7.33390	5.16747
1757.000	8.08135	5.92525	7.31445	5.15790
1758.000	8.04258	5.96479	7.33001	5.15577
1759.000	8.09879	5.92500	7.32612	5.11471
1760.000	8.06390	5.95474	7.28333	5.14652
1761.000	8.06197	5.89045	7.35335	5.15550
1762.000	8.06778	5.87673	7.27944	5.12503
1763.000	8.07747	5.97013	7.47000	5.28325
1764.000	8.05228	5.90229	7.44278	5.15642
1765.000	8.07166	5.92734	7.46028	5.16012
1766.000	8.07359	5.94680	7.32807	5.14600
1767.000	8.07553	5.89416	7.34168	5.17520
1768.000	8.08716	5.96609	7.34363	5.13604
1769.000	8.05421	5.91785	7.41946	5.16843
1770.000	8.06972	5.94101	7.40196	5.06099
1771.000	8.09297	5.88026	7.43695	5.11735
1772.000	8.09685	5.92892	7.39418	5.14328
1773.000	8.07553	5.96626	7.31251	5.16771
1774.000	8.05421	5.91785	7.37474	5.14938
1775.000	8.08135	5.89797	7.40779	5.16661
1776.000	8.06390	5.93915	7.41751	5.11561
1777.000	8.06003	5.91582	7.33585	5.16940
1778.000	8.05615	5.94316	7.35724	5.22786
1779.000	8.07166	5.95657	7.28333	5.16413
1780.000	8.05809	5.87882	7.24637	5.26437
1781.000	8.09879	5.93084	7.30862	5.12861
1782.000	8.12010	5.90715	7.29695	5.15419
1783.000	8.12591	5.94798	7.33001	5.17730
1784.000	8.10266	5.88012	7.32418	5.23411
1785.000	8.11429	5.94620	7.37863	5.22174
1786.000	8.08135	5.94864	7.48554	5.12656
1787.000	8.09297	5.88611	7.33196	5.12834
1788.000	8.06003	5.90218	7.31251	5.11095
1789.000	8.03483	5.93567	7.38252	5.20995
1790.000	8.07747	5.87464	7.47777	5.14035
1791.000	8.04840	5.84582	7.37474	5.13176
1792.000	8.07166	5.91175	7.25999	5.15070
1793.000	8.09685	5.88800	7.27944	5.13481
1794.000	8.08716	5.89983	7.37863	5.03776
1795.000	8.05228	5.90619	7.32807	5.14600
1796.000	8.07359	5.92342	7.28722	5.09557
1797.000	8.08328	5.91743	7.32418	5.17345
1798.000	8.11429	5.89944	7.38446	5.08663
1799.000	8.07553	5.94093	7.43112	4.99605
1800.000	8.08716	5.89204	7.35724	5.08499
1801.000	8.05228	5.92957	7.43695	5.16431
1802.000	8.06778	5.89427	7.48943	5.03063
1803.000	8.06003	5.85345	7.37474	5.17286
1804.000	8.02902	5.89678	7.42723	5.08810
1805.000	8.08910	5.90955	7.43112	5.10959
1806.000	8.10072	5.91133	7.33974	5.15761
1807.000	8.06003	5.93141	7.31251	5.07767
1808.000	8.07941	5.92528	7.46028	5.13273
1809.000	8.04065	5.93364	7.35141	5.05569
1810.000	8.09297	5.94067	7.41362	5.15480
1811.000	8.07166	5.88642	7.37280	5.21594
1812.000	8.06003	5.90997	7.32418	5.17932
1813.000	8.07747	5.93310	7.49332	5.11865
1814.000	8.09297	5.90170	7.41168	5.08828
1815.000	8.06197	5.96061	7.41168	5.12938
1816.000	8.09491	5.91921	7.40974	5.13332
1817.000	8.08135	5.92720	7.41557	5.19000
1818.000	8.06003	5.90607	7.43890	5.03512
1819.000	8.08910	5.91345	7.38446	5.12578
1820.000	8.04840	5.92573	7.42723	5.09593
1821.000	8.05615	5.86910	7.54190	5.06916
1822.000	8.08716	5.89788	7.38835	5.15314
1823.000	8.07747	5.90972	7.40196	5.15298
1824.000	8.06003	5.88074	7.35724	5.09869
1825.000	8.07553	5.88831	7.41557	5.10781
1826.000	8.06972	5.89229	7.40002	5.07667
1827.000	8.07553	5.87856	7.42918	5.08808
1828.000	8.03871	5.92977	7.43501	5.22303
1829.000	8.07359	5.90393	7.32807	5.07162
1830.000	8.08522	5.89207	7.42918	5.12135
1831.000	8.06584	5.88650	7.39224	5.11199
1832.000	8.05034	5.91986	7.29111	5.07203
1833.000	8.03871	5.90638	7.35529	5.11829
1834.000	8.09685	5.89190	7.36113	5.18281
1835.000	8.09297	5.92898	7.38446	5.05336
1836.000	8.06778	5.92740	7.44862	5.15439
1837.000	8.07747	5.87659	7.53024	5.11039
1838.000	8.06003	5.86125	7.38057	5.13170
1839.000	8.06197	5.86901	7.38641	5.12772
1840.000	8.05809	5.88856	7.35529	5.24353
1841.000	8.05228	5.84576	7.45639	5.10929
1842.000	8.09297	5.89975	7.36307	5.17691
1843.000	8.08135	5.91941	7.34168	5.14193
1844.000	8.04452	5.90045	7.33779	5.06368
1845.000	8.10072	5.91912	7.44278	5.12119
1846.000	8.06584	5.90794	7.44278	5.15446
1847.000	8.05421	5.90616	7.40390	5.12164
1848.000	8.05615	5.90223	7.43890	5.08797
1849.000	8.04646	5.90042	7.40779	5.23118
1850.000	8.06972	5.90009	7.50692	5.09892
1851.000	8.05615	5.86715	7.46028	5.08185
1852.000	8.06197	5.85927	7.35335	5.08112
1853.000	8.05809	5.90610	7.36696	5.19057
1854.000	8.05809	5.86907	7.36307	5.19061
1855.000	8.09297	5.92313	7.40002	5.10994
1856.000	8.10460	5.88789	7.45833	5.09361
1857.000	8.08328	5.90379	7.34752	5.11838
1858.000	8.07941	5.89605	7.38057	5.18258
1859.000	8.06778	5.89232	7.35918	5.16130
1860.000	8.09685	5.88020	7.31834	5.22831
1861.000	8.07553	5.90195	7.39224	5.17853
1862.000	8.05421	5.88862	7.44084	5.26795
1863.000	8.07553	5.92534	7.43695	5.12517
1864.000	8.07359	5.96044	7.36307	5.24931
1865.000	8.09491	5.96402	7.34168	5.20064
1866.000	8.02902	5.92601	7.34752	5.19666
1867.000	8.05228	5.90229	7.40974	5.08439
1868.000	8.04258	5.92387	7.43890	5.20733
1869.000	8.06972	5.93127	7.40196	5.09426
1870.000	8.07747	5.93505	7.35918	5.18674
1871.000	8.04840	5.96276	7.37085	5.18465
1872.000	8.05421	5.91785	7.52635	5.10065
1873.000	8.09104	5.89393	7.40779	5.13138
1874.000	8.05034	5.93350	7.39613	5.26849
1875.000	8.12398	5.91099	7.36696	5.18470
1876.000	8.06778	5.96247	7.38252	5.21582
1877.000	8.08522	5.91155	7.38057	5.19823
1878.000	8.10848	5.94824	7.31056	5.28319
1879.000	8.11235	5.93064	7.33001	5.22426
1880.000	8.07747	5.93700	7.50109	5.13225
1881.000	8.12591	5.93824	7.35529	5.08893
1882.000	8.20340	5.90787	7.51469	5.01663
1883.000	8.24988	5.82146	7.63514	5.02698
1884.000	8.36989	5.64042	7.69339	4.90106
1885.000	8.48790	5.48473	7.98637	4.66481
1886.000	8.64255	5.18613	8.19565	4.36495
1887.000	8.82217	4.81882	8.38150	4.08884
1888.000	8.93218	4.41711	8.55364	3.77961
1889.000	9.11730	4.02412	8.76038	3.40738
1890.000	9.24638	3.53781	9.02283	2.96619
1891.000	9.36768	3.08271	9.26372	2.50970
1892.000	9.43118	2.62405	9.43310	1.89316
1893.000	9.49658	2.05156	9.55811	1.69256
1894.000	9.51773	1.54964	9.55427	1.06908
1895.000	9.48889	0.90843	9.62154	0.58253
1896.000	9.54465	0.50027	9.52927	0.25898
1897.000	9.45234	0.07850	9.45426	-0.23353
1898.000	9.44849	-0.34342	9.56580	-0.70816
1899.000	9.45426	-0.71624	9.50235	-0.97117
1900.000	9.40039	-1.03424	9.38692	-1.40312
1901.000	9.41964	-1.37749	9.55427	-1.78078
1902.000	9.36768	-1.66015	9.46581	-2.01646
1903.000	9.35228	-1.91125	9.37345	-2.26398
1904.000	9.31186	-2.10951	9.39847	-2.55574
1905.000	9.27142	-2.36461	9.44272	-2.70229
1906.000	9.33111	-2.50922	9.38115	-2.92404
1907.000	9.26757	-2.72128	9.36960	-3.15706
1908.000	9.35421	-2.82049	9.43503	-3.25037
1909.000	9.42733	-2.99411	9.41964	-3.43047
1910.000	9.39847	-3.12745	9.44849	-3.50252
1911.000	9.45234	-3.21109	9.48312	-3.50999
1912.000	9.51196	-3.23987	9.58118	-3.55393
1913.000	9.55234	-3.21993	9.52158	-3.67376
1914.000	9.60424	-3.17446	9.48312	-3.44743
1915.000	9.62538	-3.10973	9.53888	-3.46837
1916.000	9.69839	-2.97022	9.51773	-3.37670
1917.000	9.70800	-2.90168	9.53888	-3.29828
1918.000	9.72721	-2.76655	9.43310	-3.19561
1919.000	9.81937	-2.62495	9.48312	-3.06994
1920.000	9.79825	-2.49990	9.56003	-2.83446
1921.000	9.79825	-2.37075	9.43310	-2.75328
1922.000	9.80209	-2.26699	9.44465	-2.69444
1923.000	9.83280	-2.24134	9.45042	-2.52206
1924.000	9.81745	-2.11421	9.51196	-2.43740
1925.000	9.81745	-2.14161	9.56388	-2.48598
1926.000	9.80401	-2.19260	9.48696	-2.37686
1927.000	9.80017	-2.24743	9.59656	-2.51903
1928.000	9.83088	-2.32355	9.53696	-2.49597
1929.000	9.80209	-2.35898	9.45042	-2.53577
1930.000	9.82321	-2.45667	9.54850	-2.66231
1931.000	9.86543	-2.56004	9.59463	-2.81460
1932.000	9.82705	-2.60142	9.61385	-2.86727
1933.000	9.85967	-2.72438	9.58502	-2.96730
1934.000	9.92682	-2.76684	9.47158	-3.09157
1935.000	9.92682	-2.83331	9.55042	-3.14954
1936.000	9.92682	-2.89781	9.62538	-3.23879
1937.000	9.94984	-3.00510	9.51966	-3.28478
1938.000	9.95751	-3.01089	9.61385	-3.33665
1939.000	9.94984	-3.06567	9.56196	-3.43882
1940.000	9.95751	-3.08318	9.51004	-3.40610
1941.000	9.91340	-3.11486	9.52158	-3.43922
1942.000	9.98244	-3.11421	9.47542	-3.49443
1943.000	9.99970	-3.11599	9.47927	-3.40836
1944.000	9.98628	-3.14738	9.49466	-3.40430
1945.000	9.99395	-3.09456	9.43503	-3.39707
1946.000	9.99970	-3.11599	9.50235	-3.41987
1947.000	9.97861	-3.08494	9.42541	-3.43041
1948.000	9.97669	-3.10449	9.35421	-3.39786
1949.000	9.98820	-3.09071	9.39462	-3.40333
1950.000	9.96135	-3.06556	9.43887	-3.36769
1951.000	10.01312	-3.06898	9.37923	-3.32915
1952.000	10.00354	-3.01437	9.37345	-3.38202
1953.000	9.95751	-3.01089	9.37345	-3.29008
1954.000	10.01504	-3.02013	9.39655	-3.33290
1955.000	10.02079	-2.97123	9.31956	-3.23971
1956.000	9.98820	-3.02624	9.28297	-3.21852
1957.000	10.06296	-2.97280	9.34651	-3.23163
1958.000	10.01121	-2.97718	9.37923	-3.25872
1959.000	10.01887	-3.03572	9.40232	-3.26438
1960.000	10.04380	-2.99837	9.34266	-3.27472
1961.000	9.98436	-2.98915	9.41964	-3.26617
1962.000	10.02463	-3.00831	9.31186	-3.21434
1963.000	9.99587	-2.95192	9.40617	-3.20565
1964.000	10.00162	-2.97140	9.46388	-3.24619
1965.000	10.05913	-2.99041	9.32533	-3.19073
1966.000	9.99970	-2.91085	9.38115	-3.25479
1967.000	10.03613	-2.92615	9.40809	-3.24476
1968.000	10.03421	-2.90858	9.47735	-3.26562
1969.000	10.01504	-2.91071	9.38307	-3.18238
1970.000	10.05338	-2.91427	9.38307	-3.16672
1971.000	10.06871	-2.93953	9.37345	-3.21377
1972.000	9.98628	-2.92074	9.40039	-3.25461
1973.000	10.04380	-2.90263	9.39270	-3.17642
1974.000	9.99395	-2.90308	9.43118	-3.31496
1975.000	10.00354	-2.91863	9.37345	-3.24508
1976.000	10.02846	-2.90863	9.41964	-3.23487
1977.000	10.00929	-2.92053	9.39655	-3.22139
1978.000	10.02079	-2.93606	9.35036	-3.25704
1979.000	10.04763	-2.90846	9.47735	-3.25975
1980.000	10.02654	-2.90474	9.40039	-3.24483
1981.000	9.99395	-2.90894	9.38500	-3.29975
1982.000	10.02271	-2.89891	9.43310	-3.22496
1983.000	10.00737	-2.93423	9.42156	-3.28180
1984.000	10.04763	-2.92409	9.50427	-3.25363
1985.000	10.06105	-2.93960	9.41771	-3.27792
1986.000	10.00545	-2.93424	9.40809	-3.33083
1987.000	10.00354	-2.95380	9.47542	-3.27738
1988.000	10.02079	-2.92629	9.40424	-3.25262
1989.000	10.03038	-2.93402	9.38500	-3.28410
1990.000	10.01312	-2.93027	9.36575	-3.24907
1991.000	10.00545	-2.90884	9.36960	-3.28620
1992.000	10.04188	-2.94564	9.34843	-3.31379
1993.000	9.97477	-2.92670	9.30993	-3.25154
1994.000	10.00545	-2.92447	9.40424	-3.25653
1995.000	9.99011	-2.91093	9.39077	-3.35838
1996.000	10.00929	-2.93030	9.44657	-3.34220
1997.000	10.00354	-2.95966	9.44272	-3.29333
1998.000	10.01696	-2.97908	9.31763	-3.30039
1999.000	10.02079	-2.95755	9.39655	-3.40527
2000.000	10.00354	-2.93035	9.38500	-3.32714
2001.000	10.02846	-2.96530	9.46965	-3.34979
2002.000	9.99395	-3.00860	9.36768	-3.29600
2003.000	10.02271	-2.93018	9.39077	-3.35056
2004.000	10.02654	-2.91647	9.39077	-3.37403
2005.000	10.04955	-2.94166	9.38500	-3.36039
2006.000	10.04955	-2.93580	9.47158	-3.33217
2007.000	10.02654	-2.94187	9.45234	-3.37343
2008.000	10.02654	-2.87348	9.38692	-3.34473
2009.000	10.04955	-2.91821	9.34458	-3.33144
2010.000	10.02654	-2.93405	9.31763	-3.29061
2011.000	10.04571	-2.92802	9.43695	-3.35989
2012.000	10.04380	-2.95539	9.41386	-3.32491
2013.000	9.99203	-2.93046	9.40424	-3.38172
2014.000	10.02271	-2.94190	9.43118	-3.37364
2015.000	10.01696	-2.92828	9.30800	-3.23590
2016.000	9.97286	-2.94040	9.44657	-3.34024
2017.000	9.99011	-2.93634	9.45042	-3.29131
2018.000	10.00354	-2.89909	9.29453	-3.32213
2019.000	10.02463	-2.91453	9.43310	-3.34037
2020.000	10.01887	-2.92240	9.46965	-3.28525
2021.000	10.03805	-2.92027	9.31378	-3.36304
2022.000	10.01312	-2.91073	9.34843	-3.33532
2023.000	10.01504	-2.93220	9.28683	-3.30851
2024.000	9.99970	-2.89521	9.41579	-3.28185
2025.000	10.05530	-2.89862	9.30993	-3.28677
2026.000	10.03613	-2.94960	9.42541	-3.36196
2027.000	10.02079	-2.92043	9.36190	-3.39778
2028.000	10.01696	-2.90483	9.34266	-3.30994
2029.000	10.05913	-2.91422	9.38500	-3.27236
2030.000	10.06488	-2.91221	9.36960	-3.31946
2031.000	10.03038	-2.93597	9.39847	-3.30941
2032.000	10.00545	-2.96551	9.41579	-3.30533
2033.000	10.03038	-2.93597	9.35228	-3.33919
2034.000	10.07255	-2.96880	9.35805	-3.23153
2035.000	10.04571	-2.91043	9.36575	-3.32928
2036.000	10.03229	-2.97698	9.25987	-3.26962
2037.000	10.04188	-2.93196	9.33111	-3.36874
2038.000	10.03996	-2.93198	9.36768	-3.35469
2039.000	10.02654	-2.89302	9.31763	-3.24560
2040.000	10.04188	-2.91633	9.32533	-3.33358
2041.000	10.05530	-2.93575	9.31378	-3.29064
2042.000	10.01504	-2.91071	9.30608	-3.27897
2043.000	10.04380	-2.94367	9.31956	-3.28863
2044.000	10.02846	-2.96139	9.23098	-3.27772
2045.000	10.02079	-2.93410	9.41194	-3.35818
2046.000	10.03038	-2.87931	9.32341	-3.29642
2047.000	10.03613	-2.91833	9.32918	-3.30811
2048.000	10.06871	-2.93758	9.38307	-3.27238
2049.000	10.05913	-2.92790	9.38307	-3.29977
2050.000	10.06680	-2.92783	9.32341	-3.35316
2051.000	10.05913	-2.94939	9.31956	-3.30429
2052.000	10.06680	-2.91415	9.40232	-3.30937
2053.000	10.03805	-2.93981	9.29068	-3.29282
2054.000	10.02271	-2.91650	9.39462	-3.32900
2055.000	10.04763	-2.99052	9.36960	-3.29207
2056.000	10.02463	-2.89694	9.36190	-3.37040
2057.000	10.04955	-2.91821	9.32726	-3.29052
2058.000	10.02846	-2.90863	9.35036	-3.27269
2059.000	10.03229	-2.91055	9.30608	-3.37094
2060.000	10.03805	-2.91246	9.36960	-3.31164
2061.000	10.05146	-2.93383	9.44272	-3.29333
2062.000	10.02654	-2.92428	9.32341	-3.28273
2063.000	9.99011	-2.92656	9.37730	-3.32721
2064.000	10.04188	-2.91242	9.36960	-3.30381
2065.000	10.04380	-2.94562	9.35998	-3.26869
2066.000	10.03613	-2.96913	9.25987	-3.35181
2067.000	10.05146	-2.95532	9.36768	-3.33904
2068.000	10.04763	-2.92018	9.40424	-3.31326
2069.000	10.03805	-2.88901	9.35228	-3.34115
2070.000	10.06296	-2.94349	9.35998	-3.22564
2071.000	10.06680	-2.93173	9.33496	-3.31784
2072.000	10.07830	-2.96289	9.43118	-3.35799
2073.000	10.09554	-2.92952	9.31378	-3.25542
2074.000	10.06680	-2.94932	9.36768	-3.34100
2075.000	10.06680	-2.92978	9.33881	-3.36475
2076.000	10.03613	-2.96327	9.30993	-3.30046
2077.000	10.05530	-2.94356	9.37923	-3.34089
2078.000	10.08979	-2.96864	9.33881	-3.34715
2079.000	10.03421	-2.96915	9.32918	-3.31985
2080.000	10.01312	-2.98107	9.32341	-3.39620
2081.000	10.05146	-2.98267	9.38500	-3.30562
2082.000	10.03421	-2.98087	9.40424	-3.31326
2083.000	10.05721	-2.98652	9.44657	-3.34806
2084.000	10.03421	-2.95548	9.34843	-3.34705
2085.000	10.04955	-2.96706	9.38115	-3.37999
2086.000	10.08405	-2.96283	9.40424	-3.36803
2087.000	10.07063	-2.95905	9.34073	-3.33539
2088.000	10.05338	-2.97679	9.42541	-3.37369
2089.000	10.04955	-3.00808	9.40232	-3.36218
2090.000	10.05721	-2.92596	9.29068	-3.41217
2091.000	10.03229	-2.93009	9.43887	-3.37161
2092.000	10.07830	-2.95312	9.34073	-3.39603
2093.000	10.04188	-2.95541	9.40232	-3.38370
2094.000	10.06488	-2.95910	9.38115	-3.40151
2095.000	10.02654	-2.94187	9.37153	-3.36639
2096.000	10.06296	-2.92982	9.40232	-3.34262
2097.000	10.03613	-2.93201	9.41964	-3.34832
2098.000	10.07446	-2.92776	9.49658	-3.35540
2099.000	10.08213	-2.93550	9.37345	-3.34290
2100.000	10.08405	-2.95502	9.35805	-3.30783
2101.000	10.11087	-2.90008	9.42156	-3.44022
2102.000	10.05338	-2.85956	9.30223	-3.33184
2103.000	10.07255	-2.94145	9.38692	-3.27821
2104.000	10.00354	-2.90299	9.33881	-3.45082
2105.000	10.06105	-2.89662	9.45619	-3.38317
2106.000	10.04571	-2.92606	9.43503	-3.29536
2107.000	10.04763	-2.90651	9.34843	-3.26684
2108.000	10.04188	-2.91438	9.33688	-3.30021
2109.000	10.05913	-2.88687	9.44465	-3.27180
2110.000	10.10129	-2.93923	9.39847	-3.30549
2111.000	10.02846	-2.90473	9.41194	-3.32297
2112.000	10.04188	-2.89288	9.42926	-3.32085
2113.000	10.07638	-2.85350	9.37923	-3.32328
2114.000	10.08596	-2.90421	9.39270	-3.33489
2115.000	10.07063	-2.90239	9.41194	-3.34840
2116.000	10.06105	-2.92006	9.43887	-3.36965
2117.000	10.02079	-2.88135	9.41771	-3.41093
2118.000	10.04188	-2.89093	9.40809	-3.38169
2119.000	10.10512	-2.91967	9.33303	-3.35894
2120.000	10.08405	-2.90227	9.39077	-3.37794
2121.000	10.06296	-2.93177	9.45234	-3.40668
2122.000	10.06680	-2.91806	9.36768	-3.32535
2123.000	10.08021	-2.90426	9.39077	-3.37990
2124.000	10.06296	-2.89465	9.42348	-3.37371
2125.000	10.08405	-2.94330	9.42733	-3.34629
2126.000	10.05530	-2.86541	9.38885	-3.32123
2127.000	10.09171	-2.96276	9.40424	-3.33087
2128.000	10.06680	-2.92392	9.37345	-3.36246
2129.000	10.08213	-2.91011	9.39655	-3.32312
2130.000	10.08596	-2.95110	9.46196	-3.39289
2131.000	10.07255	-2.96099	9.45811	-3.32057
2132.000	10.11279	-2.97624	9.40424	-3.33087
2133.000	10.08405	-2.93158	9.25601	-3.34794
2134.000	10.10512	-2.94506	9.42348	-3.29743
2135.000	10.07830	-2.93358	9.45811	-3.40271
2136.000	10.08979	-2.94520	9.40617	-3.41691
2137.000	10.07830	-2.93749	9.46773	-3.23246
2138.000	10.08405	-2.95307	9.35998	-3.31368
2139.000	10.03421	-3.00236	9.35998	-3.38802
2140.000	10.10129	-2.94705	9.36575	-3.33515
2141.000	10.04955	-2.98269	9.34266	-3.34711
2142.000	10.07638	-2.92774	9.38885	-3.32319
2143.000	10.07063	-2.93951	9.41771	-3.27988
2144.000	10.03038	-2.96723	9.41001	-3.34842
2145.000	10.08021	-2.98045	9.40232	-3.30546
2146.000	10.06105	-2.96695	9.34843	-3.32749
2147.000	10.07063	-2.96100	9.36383	-3.31952
2148.000	10.05530	-2.97482	9.39655	-3.31921
2149.000	10.06680	-2.98253	9.38500	-3.31932
2150.000	10.07446	-2.97660	9.37730	-3.34286
2151.000	10.06871	-2.95711	9.31378	-3.31608
2152.000	10.08405	-2.94721	9.41001	-3.28387
2153.000	10.04571	-2.94951	9.31186	-3.35914
2154.000	10.03996	-2.95738	9.34458	-3.29231
2155.000	10.04380	-2.94757	9.37345	-3.27247
2156.000	10.06680	-2.90438	9.35036	-3.20616
2157.000	10.07638	-2.98635	9.29260	-3.31824
2158.000	10.00354	-2.92254	9.35036	-3.31378
2159.000	10.06488	-2.94933	9.38500	-3.29780
2160.000	10.05913	-2.91227	9.40424	-3.26044
2161.000	10.03996	-2.94565	9.33881	-3.30606
2162.000	10.08405	-2.92767	9.37730	-3.26657
2163.000	10.10321	-2.95680	9.30608	-3.28680
2164.000	10.06105	-2.92006	9.31378	-3.27695
2165.000	10.06488	-2.94738	9.39655	-3.31529
2166.000	10.12237	-2.93904	9.33688	-3.29238
2167.000	10.07830	-2.90232	9.33688	-3.24346
2168.000	10.08979	-2.89441	9.37538	-3.29202
2169.000	10.08596	-2.90030	9.43887	-3.32467
2170.000	10.05721	-2.90251	9.34843	-3.27858
2171.000	10.09171	-2.93541	9.36190	-3.25106
2172.000	10.03996	-2.94175	9.29645	-3.25362
2173.000	10.07830	-2.93749	9.32726	-3.26899
2174.000	10.13003	-2.94874	9.41964	-3.27986
2175.000	10.09746	-2.89825	9.33303	-3.38046
2176.000	10.08788	-2.92373	9.40424	-3.28001
2177.000	10.07063	-2.92584	9.46773	-3.35177
2178.000	10.10129	-2.93533	9.32918	-3.35506
2179.000	10.10896	-2.93135	9.40809	-3.29953
2180.000	10.07255	-2.94145	9.36190	-3.35475
2181.000	10.14344	-2.96033	9.37345	-3.39180
2182.000	10.08405	-2.90032	9.37345	-3.32725
2183.000	10.07063	-2.92388	9.26179	-3.38115
2184.000	10.12428	-2.90972	9.41579	-3.30337
2185.000	10.09938	-2.91776	9.33496	-3.38044
2186.000	10.08788	-2.96085	9.50427	-3.27123
2187.000	10.07255	-2.93168	9.31571	-3.34150
2188.000	10.08596	-2.92375	9.41001	-3.37776
2189.000	10.08596	-2.98821	9.45234	-3.28738
2190.000	10.06105	-2.96304	9.38692	-3.33690
2191.000	10.08213	-2.92378	9.48889	-3.34178
2192.000	10.07255	-2.97661	9.37153	-3.35466
2193.000	10.09554	-2.91780	9.40809	-3.29562
2194.000	10.07638	-2.95314	9.48504	-3.30466
2195.000	10.10704	-2.95676	9.33881	-3.30802
2196.000	10.09746	-2.98420	9.39077	-3.29579
2197.000	10.04763	-2.96317	9.39655	-3.31725
2198.000	10.06680	-2.93564	9.43695	-3.29926
2199.000	10.06488	-2.94738	9.38500	-3.28997
2200.000	9.96135	-2.93464	9.24638	-3.30302
2201.000	9.79249	-2.83055	9.14813	-3.26282
2202.000	9.63691	-2.75946	9.07875	-3.24779
2203.000	9.45619	-2.72568	8.80480	-3.26198
2204.000	9.18667	-2.62392	8.62516	-3.06549
2205.000	8.79900	-2.49723	8.26730	-3.11348
2206.000	8.46856	-2.42675	7.94952	-3.07075
2207.000	8.09491	-2.25404	7.72834	-3.04093
2208.000	7.73804	-2.05521	7.22691	-2.84758
2209.000	7.28139	-1.93910	6.91344	-2.72735
2210.000	6.82380	-1.77724	6.55467	-2.61103
2211.000	6.46490	-1.61658	6.19148	-2.49445
2212.000	6.06640	-1.56049	5.82388	-2.37759
2213.000	5.72603	-1.38934	5.45384	-2.07261
2214.000	5.38722	-1.22781	5.08726	-1.97883
2215.000	5.09510	-1.07785	4.89890	-1.84674
2216.000	4.90283	-0.97513	4.65545	-1.81174
2217.000	4.71044	-0.85251	4.50027	-1.59218
2218.000	4.61224	-0.83676	4.38629	-1.53495
2219.000	4.55921	-0.68415	4.31946	-1.40622
2220.000	4.49241	-0.64654	4.27621	-1.45785
2221.000	4.50223	-0.65843	4.29390	-1.44592
2222.000	4.50420	-0.60686	4.19166	-1.29144
2223.000	4.44721	-0.58311	4.34305	-1.36058
2224.000	4.40791	-0.54546	4.32929	-1.37845
2225.000	4.47865	-0.50971	4.20346	-1.41040
2226.000	4.43739	-0.52561	4.11299	-1.37883
2227.000	4.31159	-0.47809	4.01267	-1.38099
2228.000	4.28604	-0.42256	4.04415	-1.34920
2229.000	4.19363	-0.42459	3.99103	-1.35524
2230.000	4.11693	-0.41471	3.89659	-1.31175
2231.000	4.08742	-0.37306	3.85919	-1.32173
2232.000	4.08546	-0.33536	3.83164	-1.21265
2233.000	4.08349	-0.34528	3.82180	-1.19282
2234.000	4.06579	-0.33536	3.84935	-1.23246
2235.000	4.08939	-0.40679	3.83951	-1.20272
2236.000	4.12480	-0.34725	3.95168	-1.14701
2237.000	4.17003	-0.32342	4.04218	-1.14688
2238.000	4.19559	-0.38491	4.02054	-1.18063
2239.000	4.22312	-0.38886	4.24475	-1.22195
2240.000	4.19559	-0.44245	4.23099	-1.20809
2241.000	4.21919	-0.47219	4.18183	-1.37871
2242.000	4.22509	-0.47814	4.21526	-1.36279
2243.000	4.18773	-0.55951	4.30176	-1.43996
2244.000	4.20936	-0.57338	4.17003	-1.46995
2245.000	4.16413	-0.54762	4.06775	-1.51178
2246.000	4.11496	-0.57940	4.17593	-1.43028
2247.000	4.06775	-0.56554	3.99693	-1.54364
2248.000	4.02251	-0.55367	3.83951	-1.41500
2249.000	3.93004	-0.57953	3.93594	-1.52194
2250.000	3.91036	-0.50413	3.74897	-1.54608
2251.000	3.85526	-0.51210	3.80605	-1.53408
2252.000	3.89462	-0.46841	3.76275	-1.42901
2253.000	3.84935	-0.44462	3.70960	-1.40330
2254.000	3.82770	-0.34737	3.67219	-1.34384
2255.000	3.83558	-0.36920	3.69975	-1.32197
2256.000	3.78046	-0.38312	3.65053	-1.29625
2257.000	3.83951	-0.34141	3.63478	-1.21689
2258.000	3.80999	-0.30768	3.61903	-1.17722
2259.000	3.85526	-0.28186	3.71944	-1.13541
2260.000	3.83361	-0.28187	3.60327	-1.15739
2261.000	3.85526	-0.27392	3.64856	-1.20695
2262.000	3.80999	-0.24019	3.63084	-1.14942
2263.000	3.86903	-0.26994	3.63478	-1.16727
2264.000	3.84148	-0.28186	3.63872	-1.21887
2265.000	3.85723	-0.28186	3.69778	-1.22871
2266.000	3.84345	-0.31561	3.64265	-1.23672
2267.000	3.87100	-0.27987	3.65841	-1.21289
2268.000	3.84739	-0.29973	3.70763	-1.20290
2269.000	3.86510	-0.29376	3.68991	-1.20094
2270.000	3.87494	-0.34338	3.72338	-1.23264
2271.000	3.87494	-0.25406	3.76275	-1.18893
2272.000	3.85919	-0.28186	3.70960	-1.24457
2273.000	3.89265	-0.25406	3.66038	-1.20892
2274.000	3.89462	-0.27192	3.66038	-1.30615
2275.000	3.91233	-0.24810	3.74700	-1.29610
2276.000	3.94184	-0.25206	3.66234	-1.25456
2277.000	3.95168	-0.29572	3.74306	-1.27230
2278.000	3.91233	-0.30764	3.72731	-1.26240
2279.000	3.93791	-0.23817	3.82180	-1.38130
2280.000	3.91626	-0.30169	3.70172	-1.25450
2281.000	3.92610	-0.30565	3.74109	-1.25841
2282.000	3.93004	-0.29970	3.71944	-1.30607
2283.000	3.92610	-0.31359	3.70763	-1.30013
2284.000	3.91823	-0.30168	3.69188	-1.31603
2285.000	3.90446	-0.29970	3.79031	-1.22263
2286.000	3.91430	-0.31955	3.69385	-1.24459
2287.000	3.93791	-0.31557	3.70369	-1.29617
2288.000	3.92217	-0.34733	3.68203	-1.24262
2289.000	3.93791	-0.29771	3.67219	-1.19104
2290.000	3.92807	-0.31359	3.72535	-1.20089
2291.000	3.94184	-0.31358	3.69778	-1.27038
2292.000	3.92610	-0.29573	3.74700	-1.21277
2293.000	3.89265	-0.30169	3.71747	-1.25249
2294.000	3.95955	-0.27785	3.74306	-1.17309
2295.000	3.90642	-0.29375	3.63281	-1.15735
2296.000	3.93791	-0.27191	3.81589	-1.13727
2297.000	3.90642	-0.28780	3.58752	-1.22886
2298.000	3.86313	-0.25208	3.62690	-1.25262
2299.000	3.90052	-0.26597	3.66628	-1.16525
2300.000	3.86510	-0.32155	3.65644	-1.22083
2301.000	3.85919	-0.34140	3.73322	-1.22271
2302.000	3.89855	-0.29177	3.62099	-1.23278
2303.000	3.85526	-0.35927	3.69975	-1.20291
2304.000	3.92413	-0.33939	3.64069	-1.22283
2305.000	3.90052	-0.32749	3.77259	-1.21868
2306.000	3.89462	-0.34337	3.65053	-1.25060
2307.000	3.90446	-0.32352	3.66234	-1.23273
2308.000	3.90839	-0.39299	3.70172	-1.13345
2309.000	3.92610	-0.38504	3.72338	-1.20486
2310.000	3.93594	-0.36122	3.67810	-1.20889
2311.000	3.92020	-0.36519	3.67810	-1.18508
2312.000	3.92020	-0.34336	3.72928	-1.24652
2313.000	3.87691	-0.39102	3.70566	-1.18901
2314.000	3.89855	-0.33940	3.70763	-1.14138
2315.000	3.90839	-0.32154	3.69581	-1.18505
2316.000	3.93004	-0.30962	3.62887	-1.23476
2317.000	3.93004	-0.26397	3.69778	-1.17513
2318.000	3.92610	-0.36122	3.67022	-1.21287
2319.000	3.92020	-0.33741	3.67416	-1.20493
2320.000	3.95955	-0.27587	3.66628	-1.17517
2321.000	3.91430	-0.33741	3.74306	-1.15523
2322.000	3.95168	-0.31358	3.63478	-1.20300
2323.000	3.92807	-0.36718	3.74503	-1.17110
2324.000	3.92807	-0.30764	3.69975	-1.13742
2325.000	3.90446	-0.29375	3.69581	-1.12155
2326.000	3.92217	-0.35329	3.69581	-1.24459
2327.000	3.93201	-0.37908	3.72141	-1.14533
2328.000	3.90052	-0.32352	3.65053	-1.15535
2329.000	3.94971	-0.35923	3.66431	-1.13945
2330.000	3.92413	-0.34932	3.72731	-1.16120
2331.000	3.89462	-0.35528	3.70960	-1.15329
2332.000	3.90839	-0.37711	3.67022	-1.18112
2333.000	3.85919	-0.36324	3.70172	-1.15726
2334.000	3.87691	-0.37117	3.66628	-1.11960
2335.000	3.90249	-0.37711	3.67022	-1.18707
2336.000	3.93791	-0.38900	3.67613	-1.13150
2337.000	3.91036	-0.37314	3.63281	-1.19109
2338.000	3.90642	-0.35528	3.72141	-1.22868
2339.000	3.91823	-0.38306	3.73519	-1.17508
2340.000	3.94971	-0.40091	3.63084	-1.15140
2341.000	3.90839	-0.41879	3.66038	-1.21090
2342.000	3.90446	-0.35726	3.65447	-1.23274
2343.000	3.88281	-0.37117	3.69188	-1.12949
2344.000	3.92020	-0.32352	3.60721	-1.15143
2345.000	3.93988	-0.35129	3.69188	-1.07591
2346.000	3.93594	-0.35130	3.67810	-1.10768
2347.000	3.92807	-0.37115	3.68400	-1.17912
2348.000	3.91823	-0.31359	3.65644	-1.18709
2349.000	3.89462	-0.31360	3.68006	-1.12157
2350.000	3.87100	-0.36125	3.63084	-1.24865
2351.000	3.89265	-0.33147	3.66628	-1.10968
2352.000	3.91233	-0.37711	3.62296	-1.18118
2353.000	3.92020	-0.34138	3.68991	-1.14537
2354.000	3.88871	-0.33742	3.66038	-1.11961
2355.000	3.92610	-0.32748	3.70369	-1.20092
2356.000	3.86707	-0.35529	3.67219	-1.22081
2357.000	3.94775	-0.33144	3.70960	-1.14733
2358.000	3.94775	-0.33541	3.64462	-1.13352
2359.000	3.91036	-0.32749	3.70172	-1.18703
2360.000	3.89855	-0.36917	3.70763	-1.20488
2361.000	3.91626	-0.35924	3.64265	-1.16131
2362.000	3.95758	-0.29770	3.70566	-1.20092
2363.000	3.90839	-0.32154	3.65053	-1.17718
2364.000	3.91823	-0.31558	3.74503	-1.19293
2365.000	3.98119	-0.29174	3.70172	-1.22870
2366.000	3.93594	-0.27786	3.61509	-1.23875
2367.000	3.96349	-0.31358	3.61115	-1.13357
2368.000	3.94775	-0.30564	3.68400	-1.15133
2369.000	3.92807	-0.34733	3.61509	-1.23875
2370.000	3.91036	-0.36123	3.69581	-1.17513
2371.000	3.88281	-0.36918	3.66431	-1.14937
2372.000	3.92020	-0.39497	3.68006	-1.19698
2373.000	3.94775	-0.39892	3.68400	-1.15133
2374.000	3.88084	-0.36720	3.67810	-1.15531
2375.000	3.91823	-0.31756	3.70763	-1.20687
2376.000	3.91233	-0.36718	3.67613	-1.17516
2377.000	3.86903	-0.33743	3.73322	-1.17707
2378.000	3.89068	-0.38704	3.76078	-1.20679
2379.000	3.92413	-0.35924	3.59933	-1.14350
2380.000	3.90642	-0.35329	3.70369	-1.15329
2381.000	3.87494	-0.35331	3.67022	-1.20295
2382.000	3.92807	-0.35725	3.57767	-1.17727
2383.000	3.89659	-0.36124	3.61312	-1.19310
2384.000	3.92020	-0.32153	3.65053	-1.16527
2385.000	3.92217	-0.36321	3.75291	-1.20085
2386.000	3.92413	-0.33741	3.70763	-1.19496
2387.000	3.95562	-0.34335	3.70960	-1.15527
2388.000	3.87494	-0.36521	3.81196	-1.25037
2389.000	3.86313	-0.29972	3.77653	-1.19685
2390.000	3.89659	-0.32353	3.68006	-1.14539
2391.000	3.92807	-0.34931	3.71550	-1.18701
2392.000	3.91233	-0.38108	3.66234	-1.19899
2393.000	3.88675	-0.40292	3.68991	-1.23666
2394.000	3.89855	-0.36123	3.77653	-1.19884
2395.000	3.92217	-0.33542	3.72535	-1.18898
2396.000	3.92610	-0.34535	3.73125	-1.21477
2397.000	3.89855	-0.36520	3.73125	-1.18699
2398.000	3.83951	-0.34141	3.66234	-1.14938
2399.000	3.86116	-0.40492	3.63084	-1.22285
2400.000	3.93004	-0.37710	3.62690	-1.17125
2401.000	3.91036	-0.33146	3.73322	-1.07189
2402.000	3.88871	-0.36918	3.74109	-1.23262
2403.000	3.90249	-0.34734	3.67613	-1.18707
2404.000	3.90052	-0.38307	3.67613	-1.22279
2405.000	3.89462	-0.35131	3.73716	-1.18897
2406.000	3.85723	-0.37118	3.66431	-1.14937
2407.000	3.89462	-0.32154	3.73322	-1.17111
2408.000	3.88084	-0.32949	3.77850	-1.10557
2409.000	3.88084	-0.32949	3.67810	-1.21088
2410.000	3.87297	-0.34537	3.66628	-1.17517
2411.000	3.85526	-0.35728	3.69188	-1.20887
2412.000	3.88675	-0.36124	3.73913	-1.25048
2413.000	3.86116	-0.36721	3.71156	-1.20885
2414.000	3.86510	-0.36125	3.70566	-1.21878
2415.000	3.85329	-0.35927	3.68006	-1.22278
2416.000	3.89265	-0.38505	3.69188	-1.18903
2417.000	3.88675	-0.36124	3.62887	-1.17919
2418.000	3.87887	-0.43270	3.70960	-1.19496
2419.000	3.87297	-0.37117	3.63675	-1.21292
2420.000	3.93397	-0.35328	3.63478	-1.21093
2421.000	3.90446	-0.36322	3.64069	-1.16925
2422.000	3.85329	-0.36919	3.67219	-1.24065
2423.000	3.90052	-0.36322	3.68400	-1.25849
2424.000	3.89068	-0.35727	3.71550	-1.15526
2425.000	3.91626	-0.38703	3.72928	-1.14334
2426.000	3.86116	-0.34537	3.68794	-1.19499
2427.000	3.86116	-0.40095	3.67022	-1.15929
2428.000	3.90249	-0.32551	3.64462	-1.21886
2429.000	3.90249	-0.36520	3.69975	-1.16322
2430.000	3.87297	-0.30766	3.65053	-1.26053
2431.000	3.90839	-0.35925	3.70960	-1.29616
2432.000	3.87297	-0.34140	3.63478	-1.19506
2433.000	3.86313	-0.37117	3.66431	-1.14144
2434.000	3.89265	-0.35925	3.64462	-1.21688
2435.000	3.84935	-0.36920	3.62493	-1.20896
2436.000	3.88478	-0.40491	3.60327	-1.16731
2437.000	3.90839	-0.28780	3.69581	-1.16323
2438.000	3.90249	-0.37314	3.75684	-1.15521
2439.000	3.92413	-0.34138	3.83558	-1.20074
2440.000	3.87887	-0.36918	3.67219	-1.20295
2441.000	3.88084	-0.37911	3.65841	-1.23472
2442.000	3.90642	-0.36719	3.73322	-1.18302
2443.000	3.92217	-0.35726	3.63478	-1.17720
2444.000	3.88871	-0.32750	3.70566	-1.19298
2445.000	3.89068	-0.34734	3.66431	-1.21883
2446.000	3.86707	-0.34537	3.67810	-1.11959
2447.000	3.84935	-0.37515	3.72731	-1.11754
2448.000	3.92020	-0.38107	3.71353	-1.16916
2449.000	3.88281	-0.38307	3.69581	-1.17513
2450.000	3.88084	-0.35132	3.71353	-1.24258
2451.000	3.88675	-0.41086	3.61706	-1.17127
2452.000	3.85723	-0.35133	3.66825	-1.18112
2453.000	3.86510	-0.38110	3.70960	-1.17511
2454.000	3.90249	-0.37116	3.64265	-1.11566
2455.000	3.91036	-0.35925	3.68597	-1.12950
2456.000	3.91036	-0.39100	3.68400	-1.13943
2457.000	3.88084	-0.36323	3.72338	-1.19494
2458.000	3.83951	-0.38309	3.67613	-1.16524
2459.000	3.88675	-0.37116	3.78637	-1.16112
2460.000	3.91036	-0.39299	3.77850	-1.19288
2461.000	3.93201	-0.35924	3.64659	-1.20695
2462.000	3.90839	-0.39894	3.64069	-1.13948
2463.000	3.88084	-0.36918	3.68006	-1.26247
2464.000	3.93004	-0.37511	3.66825	-1.18112
2465.000	3.86903	-0.36323	3.73322	-1.22271
2466.000	3.89855	-0.39299	3.69581	-1.11957
2467.000	3.89462	-0.36521	3.71353	-1.19495
2468.000	3.92413	-0.37710	3.69581	-1.20887
2469.000	3.91626	-0.36321	3.71944	-1.20090
2470.000	3.93988	-0.36122	3.59540	-1.15145
2471.000	3.88478	-0.38903	3.68203	-1.16126
2472.000	3.90249	-0.33146	3.68006	-1.20294
2473.000	3.90642	-0.34932	3.64265	-1.21092
2474.000	3.84935	-0.40095	3.72141	-1.23066
2475.000	3.89659	-0.36917	3.68991	-1.15530
2476.000	3.92807	-0.37115	3.70566	-1.15527
2477.000	3.87100	-0.35728	3.80015	-1.16309
2478.000	3.86903	-0.38705	3.79424	-1.23453
2479.000	3.86116	-0.38705	3.68794	-1.16720
2480.000	3.89659	-0.36917	3.71550	-1.26043
2481.000	3.93397	-0.38504	3.76865	-1.20877
2482.000	3.89462	-0.35330	3.62887	-1.21094
2483.000	3.89659	-0.34734	3.66234	-1.23471
2484.000	3.91036	-0.35925	3.62887	-1.26849
2485.000	3.88871	-0.37315	3.74897	-1.20284
2486.000	3.91036	-0.37314	3.61903	-1.24271
2487.000	3.96349	-0.37708	3.68400	-1.23071
2488.000	3.97333	-0.37509	3.69975	-1.20688
2489.000	3.93791	-0.35328	3.69188	-1.18903
2490.000	3.92413	-0.34733	3.74897	-1.22070
2491.000	3.90642	-0.36719	3.76669	-1.21869
2492.000	3.89068	-0.36521	3.68006	-1.16126
2493.000	3.92413	-0.35924	3.67613	-1.17913
2494.000	3.90446	-0.32352	3.64462	-1.19703
2495.000	3.93397	-0.39496	3.73716	-1.25643
2496.000	3.94971	-0.29572	3.64462	-1.16726
2497.000	3.90839	-0.32947	3.68991	-1.13148
2498.000	3.92217	-0.33145	3.65644	-1.17915
2499.000	3.97333	-0.36716	3.70960	-1.14932
2500.000	3.94971	-0.33541	3.64265	-1.22482
2501.000	3.91430	-0.37711	3.72141	-1.25844
2502.000	3.96152	-0.34533	3.72928	-1.24851
2503.000	3.91626	-0.37909	3.79621	-1.18889
2504.000	3.91430	-0.35527	3.64856	-1.19107
2505.000	3.94971	-0.39297	3.66628	-1.16326
2506.000	3.94381	-0.39297	3.75291	-1.19292
2507.000	3.91233	-0.41482	3.66038	-1.20098
2508.000	3.82180	-0.37119	3.62690	-1.28239
2509.000	3.80212	-0.40495	3.76669	-1.24052
2510.000	3.73913	-0.32755	3.58949	-1.25466
2511.000	3.60524	-0.32165	3.44965	-1.21118
2512.000	3.41616	-0.27802	3.33538	-1.08029
2513.000	3.17379	-0.25624	3.08904	-1.14608
2514.000	2.90173	-0.20067	2.82285	-1.09670
2515.000	2.62362	-0.20470	2.51905	-1.19830
2516.000	2.33158	-0.14113	2.21709	-1.04753
2517.000	1.97424	-0.08351	1.84786	-1.02193
2518.000	1.68590	-0.00994	1.49428	-0.91674
2519.000	1.39746	0.02784	1.21172	-0.90293
2520.000	1.09117	0.17106	0.79866	-0.86128
2521.000	0.84214	0.17704	0.61680	-0.73402
2522.000	0.63262	0.21882	0.42702	-0.69824
2523.000	0.43296	0.21485	0.29062	-0.59680
2524.000	0.37167	0.26459	0.23724	-0.53912
2525.000	0.38551	0.25862	0.22142	-0.37798
2526.000	0.48633	0.34217	0.23329	-0.37401
2527.000	0.60494	0.32625	0.25701	-0.24271
2528.000	0.72947	0.41376	0.42702	-0.20689
2529.000	0.92120	0.43562	0.64250	-0.18699
2530.000	1.14453	0.45349	0.81249	-0.17903
2531.000	1.30064	0.38585	0.99829	-0.11537
2532.000	1.42513	0.34804	1.12082	-0.17106
2533.000	1.56737	0.35796	1.34412	-0.23270
2534.000	1.63849	0.33011	1.46266	-0.34605
2535.000	1.71158	0.24857	1.45081	-0.33411
2536.000	1.72343	0.27442	1.57132	-0.43949
2537.000	1.72343	0.20283	1.56540	-0.39773
2538.000	1.70762	0.15710	1.60293	-0.53096
2539.000	1.66812	0.17897	1.54762	-0.65227
2540.000	1.59503	0.06165	1.54169	-0.62046
2541.000	1.61083	0.12330	1.54169	-0.80140
2542.000	1.50415	0.10341	1.49230	-0.75966
2543.000	1.44488	0.09546	1.33424	-0.82136
2544.000	1.34609	0.07956	1.33226	-0.71000
2545.000	1.35004	0.08353	1.27100	-0.73786
2546.000	1.30064	0.07359	1.28879	-0.66427
2547.000	1.23544	0.06564	1.09315	-0.63051
2548.000	1.21370	0.14122	1.09513	-0.63847
2549.000	1.18998	0.13923	0.97062	-0.66634
2550.000	1.18406	0.14122	1.00817	-0.65837
2551.000	1.15244	0.15316	0.97654	-0.61462
2552.000	1.17813	0.20885	0.92713	-0.45352
2553.000	1.14453	0.18100	0.93504	-0.46546
2554.000	1.17418	0.23470	0.89156	-0.46546
2555.000	1.12082	0.21084	0.90342	-0.56292
2556.000	1.11489	0.24863	0.92911	-0.50723
2557.000	1.13268	0.20487	0.89749	-0.50922
2558.000	1.12082	0.26653	0.85796	-0.47342
2559.000	1.08524	0.23869	0.86388	-0.54304
2560.000	1.11884	0.24664	0.82633	-0.50326
2561.000	1.09117	0.26256	0.85005	-0.48138
2562.000	1.04967	0.21283	0.86388	-0.44359
2563.000	1.12477	0.27847	0.85203	-0.39585
2564.000	1.14256	0.28244	0.84412	-0.45154
2565.000	1.07734	0.25858	0.87377	-0.51718
2566.000	1.12872	0.24664	0.90342	-0.51718
2567.000	1.11291	0.26057	0.93504	-0.50723
2568.000	1.10303	0.25062	0.91725	-0.49330
2569.000	1.20184	0.24067	0.92911	-0.49728
2570.000	1.16034	0.25658	0.97654	-0.43561
2571.000	1.11094	0.29239	0.99038	-0.46545
2572.000	1.14848	0.21879	0.95085	-0.44357
2573.000	1.17813	0.25459	0.96469	-0.49927
2574.000	1.18603	0.34608	0.99631	-0.47340
2575.000	1.16825	0.27448	0.94887	-0.50921
2576.000	1.15441	0.25261	1.00817	-0.53705
2577.000	1.16232	0.28841	0.98445	-0.54302
2578.000	1.16825	0.25459	1.02200	-0.53108
2579.000	1.20579	0.30829	0.99038	-0.49329
2580.000	1.24532	0.26851	1.01607	-0.48732
2581.000	1.20579	0.26056	1.03584	-0.53108
2582.000	1.18208	0.29238	1.02200	-0.44754
2583.000	1.18406	0.27846	1.05165	-0.49527
2584.000	1.19987	0.23072	1.03386	-0.53704
2585.000	1.15244	0.22675	1.02595	-0.60467
2586.000	1.15046	0.27448	0.95480	-0.42567
2587.000	1.15046	0.21680	1.00026	-0.50920
2588.000	1.16232	0.22277	1.06943	-0.53704
2589.000	1.19591	0.24663	1.02003	-0.55694
2590.000	1.19789	0.22675	0.96073	-0.48932
2591.000	1.15244	0.24863	0.98247	-0.46346
2592.000	1.13663	0.20885	1.04967	-0.51516
2593.000	1.19196	0.28244	0.92120	-0.53905
2594.000	1.15244	0.23272	0.89946	-0.45154
2595.000	1.16429	0.23271	0.94097	-0.52910
2596.000	1.19789	0.23669	0.91330	-0.49132
2597.000	1.18801	0.26851	0.98643	-0.40379
2598.000	1.14058	0.23669	0.96271	-0.50921
2599.000	1.15046	0.20686	0.95876	-0.42766
2600.000	1.12082	0.24664	1.06943	-0.45947
2601.000	1.20579	0.21282	0.96469	-0.43164
2602.000	1.20382	0.25459	0.96073	-0.45551
2603.000	1.17220	0.28841	0.94492	-0.48137
2604.000	1.17220	0.24465	0.98050	-0.48136
2605.000	1.19196	0.23271	1.06351	-0.45350
2606.000	1.15244	0.19691	0.99829	-0.42169
2607.000	1.15639	0.21481	1.02200	-0.39583
2608.000	1.17615	0.24664	0.98643	-0.44954
2609.000	1.16627	0.25260	1.02003	-0.45152
2610.000	1.20777	0.27448	0.94887	-0.37595
2611.000	1.18998	0.25061	0.94887	-0.41772
2612.000	1.14848	0.21482	0.90737	-0.47739
2613.000	1.16232	0.21680	0.99236	-0.48534
2614.000	1.12675	0.26056	0.91923	-0.42767
2615.000	1.17615	0.21282	0.92911	-0.43363
2616.000	1.15046	0.24067	0.91132	-0.45949
2617.000	1.13860	0.27449	1.02003	-0.45550
2618.000	1.14848	0.26852	0.96469	-0.41175
2619.000	1.21172	0.29238	1.00224	-0.44556
2620.000	1.17022	0.19095	1.02003	-0.34809
2621.000	1.15046	0.21481	1.02991	-0.45550
2622.000	1.13663	0.23670	1.00619	-0.36003
2623.000	1.14453	0.25460	0.97457	-0.45948
2624.000	1.16825	0.26454	0.99038	-0.41771
2625.000	1.19394	0.24664	0.97654	-0.50921
2626.000	1.18406	0.23669	0.95678	-0.43363
2627.000	1.18406	0.25459	0.98445	-0.41970
2628.000	1.15837	0.18896	1.01212	-0.50125
2629.000	1.19394	0.27249	0.94097	-0.45153
2630.000	1.16627	0.22874	1.01014	-0.39583
2631.000	1.17615	0.19890	0.97457	-0.47142
2632.000	1.19196	0.22675	0.98050	-0.47142
2633.000	1.19394	0.23868	0.99038	-0.39583
2634.000	1.16034	0.17503	0.96666	-0.44954
2635.000	1.17022	0.20686	0.97062	-0.41374
2636.000	1.16825	0.20089	0.93504	-0.45949
2637.000	1.13268	0.22078	0.98445	-0.37793
2638.000	1.16034	0.20288	0.99433	-0.41373
2639.000	1.17220	0.18896	0.95876	-0.39186
2640.000	1.17615	0.24067	0.96666	-0.42368
2641.000	1.12675	0.24067	0.96864	-0.37594
2642.000	1.15837	0.24266	0.95678	-0.40777
2643.000	1.18208	0.25459	0.99631	-0.41970
2644.000	1.18603	0.20487	1.02595	-0.38787
2645.000	1.21765	0.28243	0.87970	-0.36203
2646.000	1.15046	0.19492	0.99829	-0.36798
2647.000	1.23741	0.25061	0.98840	-0.46545
2648.000	1.24927	0.31823	0.99829	-0.43163
2649.000	1.13663	0.22874	1.00817	-0.39981
2650.000	1.08524	0.23471	0.92516	-0.54701
2651.000	0.99433	0.23870	0.94690	-0.48336
2652.000	0.90144	0.22876	0.76308	-0.52515
2653.000	0.71564	0.26457	0.65238	-0.44560
2654.000	0.48831	0.26657	0.47249	-0.39190
2655.000	0.14630	0.28846	0.10280	-0.41181
2656.000	-0.21945	0.40981	-0.22538	-0.46353
2657.000	-0.73738	0.32624	-0.63262	-0.41576
2658.000	-1.18208	0.38387	-1.06548	-0.48334
2659.000	-1.79848	0.40564	-1.55157	-0.50711
2660.000	-2.40065	0.43331	-2.13418	-0.48507
2661.000	-2.93131	0.41723	-2.65913	-0.42925
2662.000	-3.43783	0.43092	-3.28415	-0.39723
2663.000	-4.03825	0.37308	-3.78440	-0.47046
2664.000	-4.60046	0.40056	-4.35287	-0.50781
2665.000	-5.06568	0.23978	-4.78505	-0.37271
2666.000	-5.40093	0.27332	-5.31666	-0.44371
2667.000	-5.76909	0.26325	-5.71624	-0.33058
2668.000	-6.11136	0.23342	-6.01361	-0.36602
2669.000	-6.33409	0.17400	-6.31846	-0.31637
2670.000	-6.70877	0.11855	-6.60540	-0.33991
2671.000	-7.07315	0.06318	-6.95240	-0.29424
2672.000	-7.30862	0.10458	-7.18410	-0.24673
2673.000	-7.51664	0.09664	-7.56327	-0.21102
2674.000	-7.77686	0.03351	-7.78269	-0.18528
2675.000	-7.92431	0.08276	-8.14335	-0.21269
2676.000	-8.23632	0.05513	-8.49950	-0.18298
2677.000	-8.57297	0.01967	-8.83954	-0.16906
2678.000	-8.90323	-0.01376	-9.13272	-0.25731
2679.000	-9.40039	-0.09225	-9.54658	-0.29036
2680.000	-9.80401	-0.11762	-9.88654	-0.35474
2681.000	-10.02463	-0.13126	-10.04188	-0.31735
2682.000	-10.42671	-0.16827	-10.49171	-0.29342
2683.000	-10.79533	-0.22864	-10.77244	-0.35178
2684.000	-11.05455	-0.25383	-11.03169	-0.34952
2685.000	-11.22393	-0.22246	-11.32281	-0.26920
2686.000	-11.30570	-0.20874	-11.59436	-0.28258
2687.000	-11.56590	-0.20660	-11.78584	-0.17722
2688.000	-11.74226	-0.16556	-12.01110	-0.10313
2689.000	-11.85024	-0.10514	-12.11320	-0.08559
2690.000	-11.94489	-0.03893	-12.23788	-0.07777
2691.000	-11.97895	0.00778	-12.24354	0.06999
2692.000	-12.00921	0.18875	-12.28885	0.13996
2693.000	-11.94110	0.22578	-12.44353	0.25449
2694.000	-11.88621	0.31732	-12.45107	0.35550
2695.000	-11.88243	0.33874	-12.33791	0.38092
2696.000	-11.82562	0.44785	-12.30206	0.38291
2697.000	-11.77258	0.46157	-12.25487	0.44713
2698.000	-11.73089	0.49670	-12.10375	0.46100
2699.000	-11.64558	0.52218	-11.96949	0.48070
2700.000	-11.66454	0.53773	-11.85971	0.42833
2701.000	-11.64937	0.54360	-11.79721	0.39142
2702.000	-11.68919	0.44223	-11.60764	0.34882
2703.000	-11.65316	0.43060	-11.60954	0.26503
2704.000	-11.68729	0.38574	-11.58677	0.19099
2705.000	-11.73278	0.36230	-11.54882	0.13449
2706.000	-11.78774	0.37391	-11.55452	0.03119
2707.000	-11.93543	0.29585	-11.58867	-0.01754
2708.000	-11.93164	0.28418	-11.64368	-0.06040
2709.000	-12.03002	0.23933	-11.70056	-0.08961
2710.000	-12.08107	0.29764	-11.85971	-0.05452
2711.000	-12.17933	0.23725	-11.94678	-0.05060
2712.000	-12.16989	0.22753	-11.95813	-0.04866
2713.000	-12.26053	0.24301	-12.06594	-0.01945
2714.000	-12.26997	0.27993	-12.18311	0.02139
2715.000	-12.30583	0.23908	-12.18500	0.00194
2716.000	-12.30017	0.26629	-12.31338	-0.00777
2717.000	-12.24921	0.22552	-12.30017	0.01944
2718.000	-12.32848	0.33623	-12.26053	0.02722
2719.000	-12.25298	0.27023	-12.24165	0.14387
2720.000	-12.25109	0.32855	-12.26997	0.09137
2721.000	-12.26242	0.31493	-12.26053	0.14386
2722.000	-12.28130	0.30325	-12.29074	0.11080
2723.000	-12.23410	0.33246	-12.20389	0.14389
2724.000	-12.26808	0.32465	-12.26620	0.12442
2725.000	-12.26997	0.36741	-12.24354	0.16526
2726.000	-12.20577	0.35389	-12.21711	0.17888
2727.000	-12.19633	0.33057	-12.18311	0.17891
2728.000	-12.20011	0.32278	-12.13777	0.16532
2729.000	-12.20200	0.34417	-12.19633	0.22168
2730.000	-12.18311	0.32086	-12.20766	0.20222
2731.000	-12.18500	0.42003	-12.20011	0.25473
2732.000	-12.18878	0.37530	-12.09808	0.23537
2733.000	-12.15855	0.35590	-12.12076	0.22952
2734.000	-12.12076	0.38512	-12.16233	0.26449
2735.000	-12.14344	0.39870	-12.09241	0.29179
2736.000	-12.07540	0.35406	-12.12832	0.28592
2737.000	-12.06405	0.39104	-12.08107	0.19065
2738.000	-12.07729	0.34822	-12.03002	0.28019
2739.000	-12.06216	0.35992	-12.11320	0.23342
2740.000	-12.10564	0.38903	-12.11887	0.19451
2741.000	-12.12076	0.40263	-11.99786	0.22379
2742.000	-12.06405	0.39298	-12.00921	0.23156
2743.000	-12.05082	0.38328	-11.97895	0.18683
2744.000	-12.03947	0.35605	-12.02812	0.27046
2745.000	-12.02245	0.36581	-12.03569	0.26851
2746.000	-12.03569	0.35022	-12.08485	0.22955
2747.000	-11.99597	0.33471	-12.09997	0.28400
2748.000	-12.04514	0.38134	-12.07161	0.26069
2749.000	-12.05649	0.41829	-12.05460	0.24514
2750.000	-11.98273	0.35808	-12.03947	0.34244
2751.000	-11.99975	0.36000	-12.01867	0.24906
2752.000	-12.03947	0.36578	-12.04514	0.21207
2753.000	-12.01678	0.29966	-12.04136	0.32492
2754.000	-12.02434	0.41250	-12.12454	0.23341
2755.000	-12.04893	0.39301	-12.02623	0.22182
2756.000	-11.99408	0.34833	-11.98651	0.28607
2757.000	-12.03947	0.38913	-12.01489	0.18875
2758.000	-12.01678	0.38333	-12.05271	0.22763
2759.000	-12.03380	0.35606	-12.08863	0.21593
2760.000	-12.04136	0.34049	-12.03569	0.22570
2761.000	-12.04893	0.37161	-12.10186	0.23926
2762.000	-12.03758	0.30742	-12.07918	0.21788
2763.000	-12.02056	0.37748	-12.06783	0.28015
2764.000	-12.03947	0.39302	-12.09808	0.20231
2765.000	-12.03947	0.39302	-12.12076	0.22757
2766.000	-12.06027	0.42801	-12.14155	0.24701
2767.000	-12.02812	0.38915	-12.08296	0.29375
2768.000	-12.07918	0.39102	-12.13210	0.21200
2769.000	-12.10942	0.36180	-12.09997	0.22176
2770.000	-12.07918	0.30348	-12.14155	0.21200
2771.000	-12.09430	0.36376	-12.12832	0.20423
2772.000	-12.09619	0.31708	-12.12454	0.16533
2773.000	-12.09241	0.35793	-12.08296	0.22566
2774.000	-12.09052	0.39100	-12.15288	0.20615
2775.000	-12.11131	0.37152	-12.16989	0.16336
2776.000	-12.15288	0.35590	-12.10942	0.29177
2777.000	-12.10753	0.36958	-12.14155	0.16337
2778.000	-12.10753	0.32290	-12.16989	0.21003
2779.000	-12.04893	0.37744	-12.18878	0.26641
2780.000	-12.05460	0.38716	-12.11698	0.28982
2781.000	-12.07540	0.34823	-12.06972	0.24124
2782.000	-12.06027	0.37159	-12.07918	0.24706
2783.000	-12.05649	0.38327	-12.11131	0.29177
2784.000	-12.08485	0.35016	-12.14721	0.28006
2785.000	-12.10186	0.41822	-12.06972	0.33072
2786.000	-12.06972	0.37741	-12.15099	0.20810
2787.000	-12.07918	0.31515	-12.13210	0.20033
2788.000	-12.10564	0.35986	-12.12454	0.21590
2789.000	-12.14532	0.40648	-12.13399	0.28980
2790.000	-12.14344	0.37925	-12.17366	0.20419
2791.000	-12.15855	0.35979	-12.14910	0.29562
2792.000	-12.14910	0.35980	-12.20955	0.26055
2793.000	-12.14155	0.36175	-12.13966	0.31313
2794.000	-12.10942	0.33846	-12.13588	0.21006
2795.000	-12.13777	0.36370	-12.10564	0.16923
2796.000	-12.15855	0.37923	-12.14721	0.21977
2797.000	-12.14344	0.36370	-12.09997	0.27233
2798.000	-12.10375	0.31318	-12.17366	0.23920
2799.000	-12.18122	0.39476	-12.17555	0.19447
2800.000	-12.11698	0.40069	-12.21144	0.27416
2801.000	-12.12832	0.34427	-12.18122	0.20419
2802.000	-12.15477	0.35590	-12.18311	0.26252
2803.000	-12.18689	0.38308	-12.14344	0.25284
2804.000	-12.13777	0.39871	-12.13399	0.18283
2805.000	-12.17555	0.37726	-12.15099	0.22171
2806.000	-12.10186	0.35208	-12.07918	0.20816
2807.000	-12.16422	0.36367	-12.10942	0.23925
2808.000	-12.24165	0.38300	-12.07918	0.22955
2809.000	-12.19255	0.36363	-12.11509	0.23536
2810.000	-12.16422	0.41034	-12.08296	0.24511
2811.000	-12.13588	0.35204	-12.08485	0.23928
2812.000	-12.17177	0.41616	-12.10186	0.27816
2813.000	-12.13966	0.37926	-12.08674	0.16730
2814.000	-12.15666	0.42980	-12.17933	0.28003
2815.000	-12.09052	0.39684	-12.17744	0.26642
2816.000	-12.16044	0.42396	-12.12832	0.28397
2817.000	-12.17366	0.37727	-12.13966	0.25284
2818.000	-12.15855	0.40451	-12.11320	0.24314
2819.000	-12.07918	0.37935	-12.09997	0.18480
2820.000	-12.14344	0.36759	-12.16233	0.23337
2821.000	-12.13777	0.40455	-12.16611	0.29560
2822.000	-12.15666	0.39479	-12.14344	0.27812
2823.000	-12.09997	0.41433	-12.10942	0.19646
2824.000	-12.11131	0.36763	-12.14532	0.21977
2825.000	-12.18878	0.40447	-12.20389	0.23723
2826.000	-12.20577	0.34611	-12.15288	0.18865
2827.000	-12.16422	0.40256	-12.13399	0.21784
2828.000	-12.15099	0.35785	-12.05838	0.18677
2829.000	-12.18500	0.42975	-12.08674	0.16146
2830.000	-12.14910	0.39091	-12.11131	0.25092
2831.000	-12.21333	0.41221	-12.14910	0.19060
2832.000	-12.18878	0.35002	-12.16611	0.27032
2833.000	-12.16800	0.38700	-12.12643	0.18283
2834.000	-12.17744	0.39087	-12.16044	0.24893
2835.000	-12.09997	0.37932	-12.10375	0.19063
2836.000	-12.17933	0.37726	-12.11320	0.27815
2837.000	-12.15666	0.34229	-12.20011	0.29945
2838.000	-12.16611	0.38700	-12.16800	0.20614
2839.000	-12.21144	0.34999	-12.14155	0.21783
2840.000	-12.16800	0.40061	-12.08296	0.18481
2841.000	-12.13210	0.38899	-12.17366	0.17502
2842.000	-12.16233	0.39284	-12.09430	0.16146
2843.000	-12.10942	0.35402	-12.07918	0.21594
2844.000	-12.13210	0.36177	-12.15288	0.23533
2845.000	-12.14344	0.35592	-12.11509	0.19646
2846.000	-12.20389	0.44139	-12.09241	0.20815
2847.000	-12.16989	0.37727	-12.09052	0.16341
2848.000	-12.16044	0.33256	-12.14532	0.22950
2849.000	-12.14910	0.33841	-12.12643	0.24118
2850.000	-12.13399	0.36954	-12.12076	0.19062
2851.000	-12.18878	0.37336	-12.13021	0.21201
2852.000	-12.20577	0.32667	-12.18878	0.18279
2853.000	-12.16800	0.36561	-12.12454	0.16922
2854.000	-12.23032	0.35191	-12.16611	0.15169
2855.000	-12.21711	0.39081	-12.07540	0.27041
2856.000	-12.18878	0.36363	-12.09430	0.16924
2857.000	-12.13966	0.44927	-12.15855	0.23727
2858.000	-12.17555	0.43171	-12.14721	0.18282
2859.000	-12.14344	0.40259	-12.14721	0.21005
2860.000	-12.19066	0.36946	-12.07161	0.18676
2861.000	-12.13210	0.39483	-12.07161	0.24318
2862.000	-12.17744	0.34420	-12.11131	0.21008
2863.000	-12.08485	0.34238	-12.09241	0.24121
2864.000	-12.15855	0.41035	-12.04893	0.26266
2865.000	-12.13966	0.37537	-12.13588	0.20228
2866.000	-12.13588	0.39482	-12.05838	0.26848
2867.000	-12.17555	0.41616	-12.01489	0.20042
2868.000	-12.12076	0.30343	-12.07918	0.20232
2869.000	-12.17177	0.34227	-12.08107	0.25484
2870.000	-12.15477	0.34034	-12.10942	0.26260
2871.000	-12.17744	0.39282	-12.09619	0.25872
2872.000	-12.20011	0.36751	-12.08296	0.18286
2873.000	-12.15288	0.36563	-12.10564	0.22175
2874.000	-12.14344	0.33063	-12.14532	0.25284
2875.000	-12.11887	0.36567	-12.08107	0.23150
2876.000	-12.17555	0.32670	-12.11131	0.24314
2877.000	-12.13966	0.31119	-12.07540	0.20621
2878.000	-12.15477	0.40452	-12.10564	0.22759
2879.000	-12.12265	0.37345	-12.06216	0.26070
2880.000	-12.12643	0.37344	-12.06216	0.19650
2881.000	-12.11698	0.39874	-12.02434	0.23933
2882.000	-12.15099	0.32284	-12.09241	0.15562
2883.000	-12.16044	0.34811	-12.08296	0.24706
2884.000	-12.11698	0.34817	-12.07540	0.20232
2885.000	-12.16233	0.33450	-12.07350	0.29376
2886.000	-12.13399	0.35009	-12.12076	0.31899
2887.000	-12.16800	0.38894	-12.05649	0.20623
2888.000	-12.09997	0.39488	-12.06783	0.24513
2889.000	-12.17177	0.37532	-12.09808	0.21787
2890.000	-12.16422	0.36172	-11.99408	0.20822
2891.000	-12.12832	0.37150	-12.04893	0.17705
2892.000	-12.11131	0.33262	-11.97705	0.21213
2893.000	-12.12643	0.29759	-12.03380	0.27434
2894.000	-12.15288	0.34618	-12.04703	0.28406
2895.000	-12.09430	0.40850	-12.01110	0.22767
2896.000	-12.11320	0.35596	-12.06783	0.33267
2897.000	-12.11887	0.31510	-12.03758	0.16927
2898.000	-12.13210	0.36371	-11.96003	0.28415
2899.000	-12.10186	0.32485	-11.99408	0.21406
2900.000	-12.12076	0.36178	-12.09430	0.13033
2901.000	-12.12454	0.34816	-12.01678	0.17513
2902.000	-12.11887	0.33844	-12.08296	0.20232
2903.000	-12.10375	0.37542	-12.02434	0.18874
2904.000	-12.09241	0.32486	-12.05649	0.18872
2905.000	-12.12832	0.38900	-12.09997	0.18869
2906.000	-12.06783	0.37936	-12.02056	0.23350
2907.000	-12.10753	0.36763	-12.07918	0.26457
2908.000	-12.07918	0.35795	-12.06972	0.18676
2909.000	-12.14155	0.37148	-12.06783	0.21400
2910.000	-12.11320	0.39875	-12.05271	0.18872
2911.000	-12.09997	0.37154	-12.10564	0.21786
2912.000	-12.07161	0.34239	-12.03191	0.17706
2913.000	-12.12643	0.39873	-12.10375	0.21786
2914.000	-12.13021	0.36955	-12.06783	0.20038
2915.000	-12.10942	0.38708	-12.10375	0.21008
2916.000	-12.12454	0.34816	-12.11131	0.18284
2917.000	-12.13777	0.37537	-12.06027	0.17899
2918.000	-12.09997	0.37543	-11.93732	0.27834
2919.000	-12.08485	0.40852	-11.90704	0.24333
2920.000	-11.92786	0.39902	-11.69867	0.31559
2921.000	-11.67781	0.43835	-11.54503	0.34110
2922.000	-11.36842	0.32766	-11.25817	0.34145
2923.000	-11.16496	0.35912	-10.87543	0.31259
2924.000	-10.70565	0.37532	-10.44010	0.30717
2925.000	-10.11279	0.44066	-10.00737	0.37420
2926.000	-9.59271	0.45312	-9.43695	0.37483
2927.000	-9.06525	0.55007	-8.98233	0.43623
2928.000	-8.44341	0.57066	-8.36408	0.39365
2929.000	-7.89522	0.60889	-7.69339	0.46330
2930.000	-7.35335	0.63333	-7.11403	0.52313
2931.000	-6.89396	0.74455	-6.49418	0.45067
2932.000	-6.46295	0.83810	-5.95886	0.50060
2933.000	-5.99797	0.85269	-5.45188	0.49510
2934.000	-5.46559	0.86339	-4.93619	0.44397
2935.000	-4.95974	0.94532	-4.55528	0.47198
2936.000	-4.57296	0.89034	-4.11889	0.49805
2937.000	-4.20739	0.88483	-3.69581	0.48639
2938.000	-3.91823	0.76013	-3.22306	0.38732
2939.000	-3.52647	0.72870	-2.95300	0.27418
2940.000	-3.24277	0.65543	-2.58022	0.15701
2941.000	-2.84454	0.57819	-2.30197	0.05963
2942.000	-2.40065	0.54461	-1.96832	-0.08152
2943.000	-2.16774	0.41946	-1.65034	-0.18096
2944.000	-1.84786	0.22668	-1.41129	-0.24661
2945.000	-1.52786	0.18893	-1.08129	-0.41770
2946.000	-1.18406	0.14321	-0.86388	-0.52911
2947.000	-0.84412	0.06366	-0.55552	-0.49931
2948.000	-0.51598	-0.03183	-0.26294	-0.50530
2949.000	-0.35586	-0.02785	-0.09687	-0.68632
2950.000	-0.08501	-0.04576	0.17793	-0.69030
2951.000	0.09885	-0.03780	0.26294	-0.61471
2952.000	0.13048	-0.03780	0.33806	-0.59083
2953.000	0.13641	-0.07560	0.43493	-0.57491
2954.000	0.16804	0.11141	0.35981	-0.51325
2955.000	0.15421	0.12334	0.32225	-0.53315
2956.000	0.09490	0.17308	0.23724	-0.36207
2957.000	0.01186	0.25465	0.09094	-0.41976
2958.000	-0.07315	0.33223	0.08501	-0.26061
2959.000	-0.17398	0.37600	-0.08106	-0.23674
2960.000	-0.20758	0.36605	-0.17002	-0.21884
2961.000	-0.29655	0.49336	-0.23724	-0.15716
2962.000	-0.34597	0.44761	-0.23922	-0.12334
2963.000	-0.39935	0.47943	-0.26492	-0.02785
2964.000	-0.42109	0.45755	-0.22340	-0.04178
2965.000	-0.41714	0.45755	-0.28666	-0.05968
2966.000	-0.50215	0.45356	-0.22538	-0.07560
2967.000	-0.46063	0.39588	-0.19572	-0.07958
2968.000	-0.36772	0.38992	-0.09094	-0.08952
2969.000	-0.38156	0.34814	0.01384	-0.14324
2970.000	-0.30841	0.30438	0.05931	-0.20889
2971.000	-0.19177	0.29443	0.07513	-0.15716
2972.000	-0.09094	0.31433	0.20165	-0.21287
2973.000	-0.02966	0.27255	0.28271	-0.16910
2974.000	0.10280	0.27056	0.33016	-0.19098
2975.000	0.23131	0.23077	0.48435	-0.29641
2976.000	0.29852	0.26658	0.44679	-0.21087
2977.000	0.40923	0.23276	0.57924	-0.26657
2978.000	0.45865	0.24270	0.56738	-0.29044
2979.000	0.51401	0.23076	0.61285	-0.34614
2980.000	0.55750	0.22281	0.61680	-0.32227
2981.000	0.58122	0.25861	0.58122	-0.33619
2982.000	0.59110	0.20689	0.53971	-0.28845
2983.000	0.65436	0.27651	0.59703	-0.31829
2984.000	0.67017	0.25861	0.53378	-0.31829
2985.000	0.65041	0.22678	0.59308	-0.31431
2986.000	0.66622	0.26060	0.52982	-0.32625
2987.000	0.62471	0.24667	0.47052	-0.36206
2988.000	0.61087	0.28447	0.45865	-0.34217
2989.000	0.59308	0.23673	0.38946	-0.36405
2990.000	0.54959	0.21485	0.32818	-0.33422
2991.000	0.58122	0.25065	0.42307	-0.32228
2992.000	0.59110	0.24866	0.34795	-0.27454
2993.000	0.52389	0.28050	0.34004	-0.33223
2994.000	0.56936	0.27851	0.38551	-0.36405
2995.000	0.52982	0.29243	0.29259	-0.24470
2996.000	0.47645	0.24071	0.30248	-0.35212
2997.000	0.47052	0.28050	0.28469	-0.26061
2998.000	0.42505	0.30636	0.30841	-0.33422
2999.000	0.43296	0.28846	0.30643	-0.33024
3000.000	0.45075	0.30238	0.22933	-0.30438
3001.000	0.40330	0.28647	0.23329	-0.33223
3002.000	0.41516	0.28448	0.24515	-0.32228
3003.000	0.41121	0.29244	0.20956	-0.31433
3004.000	0.43493	0.27254	0.27085	-0.23077
3005.000	0.40726	0.26260	0.24515	-0.28846
3006.000	0.41912	0.27254	0.30050	-0.33024
3007.000	0.41121	0.28846	0.27085	-0.32427
3008.000	0.46261	0.23474	0.13246	-0.26061
3009.000	0.45470	0.24867	0.21352	-0.24868
3010.000	0.44086	0.25862	0.18781	-0.30438
3011.000	0.48040	0.27851	0.18781	-0.25067
3012.000	0.47447	0.24668	0.29062	-0.25265
3013.000	0.42702	0.28050	0.29062	-0.34217
3014.000	0.47447	0.27254	0.21549	-0.28051
3015.000	0.45865	0.27055	0.21945	-0.23077
3016.000	0.46854	0.31034	0.23724	-0.22082
3017.000	0.46459	0.32824	0.25503	-0.33422
3018.000	0.46459	0.30636	0.30248	-0.36804
3019.000	0.45075	0.34615	0.32027	-0.32029
3020.000	0.45075	0.34416	0.22142	-0.24072
3021.000	0.45470	0.30437	0.31829	-0.23077
3022.000	0.44877	0.28647	0.34202	-0.21485
3023.000	0.41121	0.28647	0.24317	-0.23674
3024.000	0.45272	0.26061	0.28666	-0.25862
3025.000	0.43691	0.26459	0.28073	-0.20690
3026.000	0.42702	0.27453	0.29852	-0.14722
3027.000	0.45470	0.29641	0.28666	-0.18303
3028.000	0.45668	0.28846	0.26492	-0.27852
3029.000	0.39342	0.27056	0.26689	-0.24072
3030.000	0.46459	0.24071	0.27480	-0.24271
3031.000	0.45470	0.26856	0.26492	-0.24868
3032.000	0.43889	0.23077	0.26492	-0.26260
3033.000	0.45865	0.27652	0.29259	-0.26857
3034.000	0.45668	0.28846	0.29062	-0.22679
3035.000	0.47447	0.24867	0.26887	-0.20889
3036.000	0.46656	0.30835	0.19968	-0.19695
3037.000	0.53180	0.28845	0.21945	-0.23873
3038.000	0.48040	0.26458	0.32027	-0.24867
3039.000	0.48633	0.29840	0.30841	-0.22480
3040.000	0.48040	0.25464	0.31039	-0.30438
3041.000	0.44086	0.24867	0.34202	-0.19297
3042.000	0.48040	0.29243	0.27282	-0.18104
3043.000	0.46261	0.26856	0.23724	-0.19098
3044.000	0.43493	0.25862	0.25305	-0.29045
3045.000	0.44679	0.27453	0.34399	-0.23276
3046.000	0.44482	0.27851	0.25305	-0.21883
3047.000	0.45470	0.22480	0.36574	-0.18302
3048.000	0.44877	0.26260	0.28469	-0.29443
3049.000	0.43296	0.32029	0.32818	-0.18700
3050.000	0.44877	0.24668	0.26492	-0.23674
3051.000	0.45075	0.26657	0.26294	-0.18899
3052.000	0.42505	0.24071	0.26492	-0.28448
3053.000	0.39342	0.24270	0.30050	-0.22878
3054.000	0.40528	0.28249	0.33609	-0.21485
3055.000	0.46854	0.27851	0.28469	-0.24072
3056.000	0.45272	0.25663	0.30841	-0.31432
3057.000	0.48831	0.26856	0.27876	-0.30239
3058.000	0.44877	0.29443	0.28469	-0.23475
3059.000	0.41121	0.28448	0.28271	-0.24669
3060.000	0.47645	0.28050	0.28469	-0.26061
3061.000	0.47842	0.25663	0.24515	-0.30836
3062.000	0.48238	0.28647	0.19572	-0.25266
3063.000	0.47447	0.25862	0.20363	-0.26260
3064.000	0.44877	0.25663	0.24119	-0.25067
3065.000	0.43296	0.26260	0.33411	-0.28249
3066.000	0.46063	0.25464	0.28864	-0.23873
3067.000	0.43296	0.23077	0.25899	-0.21685
3068.000	0.42702	0.23475	0.30050	-0.25464
3069.000	0.42307	0.27851	0.30643	-0.23077
3070.000	0.46459	0.22082	0.28271	-0.27255
3071.000	0.46459	0.22281	0.25108	-0.35411
3072.000	0.47842	0.26458	0.27282	-0.24470
3073.000	0.45865	0.26657	0.33609	-0.25464
3074.000	0.49226	0.25663	0.26294	-0.26260
3075.000	0.44679	0.29045	0.30841	-0.23873
3076.000	0.44679	0.26061	0.24910	-0.23276
3077.000	0.45470	0.29641	0.29655	-0.25663
3078.000	0.45668	0.26856	0.30446	-0.22082
3079.000	0.44877	0.27652	0.26294	-0.22082
3080.000	0.51203	0.25663	0.28073	-0.18501
3081.000	0.45272	0.28050	0.33411	-0.27851
3082.000	0.49028	0.26458	0.33609	-0.23873
3083.000	0.50610	0.31233	0.35190	-0.18302
3084.000	0.44679	0.30437	0.28864	-0.18303
3085.000	0.44482	0.29045	0.42900	-0.34416
3086.000	0.40330	0.26857	0.27876	-0.21883
3087.000	0.47447	0.30835	0.31434	-0.26061
3088.000	0.42505	0.31034	0.31434	-0.22679
3089.000	0.44877	0.24270	0.28073	-0.23475
3090.000	0.43493	0.31034	0.40528	-0.25265
3091.000	0.45272	0.28050	0.36179	-0.26459
3092.000	0.44086	0.25663	0.33609	-0.21883
3093.000	0.45272	0.29442	0.41516	-0.25066
3094.000	0.44482	0.28448	0.42307	-0.20093
3095.000	0.43296	0.34018	0.33016	-0.24668
3096.000	0.47052	0.27851	0.36772	-0.20889
3097.000	0.40923	0.27851	0.35388	-0.27255
3098.000	0.45470	0.24668	0.31039	-0.26061
3099.000	0.38551	0.28050	0.31434	-0.23276
3100.000	0.45075	0.25464	0.32818	-0.22082
3101.000	0.37760	0.26459	0.36376	-0.32427
3102.000	0.40923	0.23276	0.34399	-0.30438
3103.000	0.48040	0.26657	0.33806	-0.30637
3104.000	0.40923	0.28448	0.35388	-0.25862
3105.000	0.40726	0.29045	0.31236	-0.23276
3106.000	0.45470	0.27055	0.31434	-0.27255
3107.000	0.42109	0.29443	0.40726	-0.27254
3108.000	0.47842	0.26061	0.38749	-0.25862
3109.000	0.45075	0.33620	0.36574	-0.28846
3110.000	0.48238	0.24668	0.37365	-0.23873
3111.000	0.40923	0.22480	0.41912	-0.24469
3112.000	0.49028	0.25464	0.43296	-0.26657
3113.000	0.48040	0.24668	0.32027	-0.27255
3114.000	0.46261	0.25663	0.36376	-0.23276
3115.000	0.48633	0.27254	0.39737	-0.27652
3116.000	0.46459	0.22480	0.34597	-0.29045
3117.000	0.49819	0.24071	0.34399	-0.24271
3118.000	0.47447	0.27851	0.37958	-0.27851
3119.000	0.52389	0.30437	0.35981	-0.34615
3120.000	0.48040	0.31233	0.25503	-0.29045
3121.000	0.51005	0.28050	0.36376	-0.31233
3122.000	0.49226	0.35012	0.31829	-0.35212
3123.000	0.49424	0.32028	0.36574	-0.32825
3124.000	0.46261	0.35410	0.32422	-0.27255
3125.000	0.52982	0.31630	0.37167	-0.22679
3126.000	0.47052	0.30039	0.37365	-0.30239
3127.000	0.50610	0.33222	0.36574	-0.31432
3128.000	0.44679	0.32824	0.35388	-0.26260
3129.000	0.45865	0.29442	0.40726	-0.29443
3130.000	0.45668	0.28249	0.36376	-0.25862
3131.000	0.44482	0.27254	0.42109	-0.25265
3132.000	0.41319	0.24867	0.24712	-0.28647
3133.000	0.42900	0.24867	0.27876	-0.30239
3134.000	0.45668	0.29840	0.39737	-0.38792
3135.000	0.41912	0.26658	0.39342	-0.32427
3136.000	0.40528	0.25862	0.35783	-0.24867
3137.000	0.43691	0.24668	0.34399	-0.37997
3138.000	0.44679	0.30636	0.36969	-0.29244
3139.000	0.44284	0.22281	0.35981	-0.34615
3140.000	0.42505	0.28249	0.35388	-0.34615
3141.000	0.38156	0.26260	0.36574	-0.29045
3142.000	0.42505	0.27652	0.37958	-0.28846
3143.000	0.44679	0.26657	0.34597	-0.27255
3144.000	0.45470	0.29641	0.40726	-0.29244
3145.000	0.46261	0.23077	0.40726	-0.33620
3146.000	0.41121	0.29841	0.38551	-0.29045
3147.000	0.44679	0.24270	0.42307	-0.26260
3148.000	0.42900	0.28448	0.37365	-0.27851
3149.000	0.46063	0.24668	0.41912	-0.32228
3150.000	0.43098	0.25464	0.32225	-0.34814
3151.000	0.46459	0.28448	0.36376	-0.30636
3152.000	0.43493	0.27652	0.37958	-0.22281
3153.000	0.45668	0.26061	0.37563	-0.26658
3154.000	0.44482	0.26260	0.31829	-0.29244
3155.000	0.39539	0.28647	0.37563	-0.31034
3156.000	0.43691	0.24469	0.37958	-0.32029
3157.000	0.44086	0.28846	0.41319	-0.27851
3158.000	0.37563	0.26459	0.36376	-0.28846
3159.000	0.41516	0.26459	0.42900	-0.27254
3160.000	0.39737	0.24270	0.34795	-0.29642
3161.000	0.40923	0.27055	0.31829	-0.23276
3162.000	0.37958	0.26260	0.32027	-0.21883
3163.000	0.43493	0.30437	0.36376	-0.25862
3164.000	0.38353	0.20292	0.42505	-0.22082
3165.000	0.37365	0.27056	0.40923	-0.29443
3166.000	0.37563	0.27254	0.35190	-0.25464
3167.000	0.40923	0.27453	0.40528	-0.31631
3168.000	0.42702	0.29045	0.35190	-0.29045
3169.000	0.41516	0.20888	0.43296	-0.23475
3170.000	0.35388	0.23873	0.36376	-0.21883
3171.000	0.41516	0.30238	0.32027	-0.23873
3172.000	0.39539	0.27254	0.36376	-0.27453
3173.000	0.40923	0.25663	0.36376	-0.25464
3174.000	0.37958	0.26260	0.38749	-0.24668
3175.000	0.38749	0.22480	0.35586	-0.21485
3176.000	0.42702	0.29443	0.36376	-0.26260
3177.000	0.36969	0.30239	0.42900	-0.31432
3178.000	0.38156	0.29841	0.37365	-0.17308
3179.000	0.38749	0.28050	0.46063	-0.29442
3180.000	0.39935	0.25066	0.40923	-0.25862
3181.000	0.38353	0.25265	0.28469	-0.30836
3182.000	0.39737	0.26459	0.45075	-0.26459
3183.000	0.42109	0.26856	0.32818	-0.28846
3184.000	0.37760	0.24270	0.37563	-0.23077
3185.000	0.40330	0.27652	0.43296	-0.21087
3186.000	0.33806	0.20491	0.37958	-0.26260
3187.000	0.36574	0.25066	0.43493	-0.21883
3188.000	0.37958	0.23077	0.44284	-0.23276
3189.000	0.38353	0.28448	0.34202	-0.17905
3190.000	0.31632	0.22878	0.43493	-0.27652
3191.000	0.41714	0.24469	0.33806	-0.26658
3192.000	0.40133	0.31631	0.45668	-0.25663
3193.000	0.39935	0.29841	0.38749	-0.31830
3194.000	0.34597	0.30636	0.37760	-0.21485
3195.000	0.36179	0.28050	0.36179	-0.19297
3196.000	0.35190	0.26260	0.41516	-0.25066
3197.000	0.38946	0.22480	0.34795	-0.23873
3198.000	0.37563	0.28050	0.32027	-0.24668
3199.000	0.38156	0.24867	0.41516	-0.29642
3200.000	0.32225	0.25862	0.34795	-0.25464
3201.000	0.39539	0.25862	0.41912	-0.19496
3202.000	0.37365	0.22878	0.34399	-0.30438
3203.000	0.38353	0.22281	0.37760	-0.25663
3204.000	0.36772	0.23276	0.38946	-0.27254
3205.000	0.32818	0.20292	0.37958	-0.24867
3206.000	0.36574	0.25265	0.36179	-0.26061
3207.000	0.38551	0.24867	0.36179	-0.28448
3208.000	0.36574	0.28050	0.39539	-0.27254
3209.000	0.35981	0.25265	0.37760	-0.24270
3210.000	0.33213	0.23077	0.39144	-0.26658
3211.000	0.35981	0.25066	0.43493	-0.35212
3212.000	0.30446	0.18302	0.40528	-0.26459
3213.000	0.35981	0.22281	0.33411	-0.25663
3214.000	0.33411	0.18899	0.38946	-0.30238
3215.000	0.32027	0.21088	0.37365	-0.22480
3216.000	0.28469	0.22082	0.40133	-0.27453
3217.000	0.34597	0.19695	0.37563	-0.35212
3218.000	0.29062	0.19894	0.44284	-0.28846
3219.000	0.31829	0.21883	0.33806	-0.25265
3220.000	0.29457	0.18700	0.37365	-0.31432
3221.000	0.27085	0.16910	0.38551	-0.29045
3222.000	0.29852	0.19496	0.41121	-0.31432
3223.000	0.35388	0.21684	0.35981	-0.32626
3224.000	0.32818	0.19894	0.41912	-0.32824
3225.000	0.30248	0.19098	0.46854	-0.29840
3226.000	0.31236	0.21883	0.40726	-0.22281
3227.000	0.35981	0.22480	0.39144	-0.22878
3228.000	0.36772	0.22082	0.42307	-0.31830
3229.000	0.36574	0.23276	0.34004	-0.24867
3230.000	0.32620	0.15915	0.49424	-0.31829
3231.000	0.29457	0.22878	0.44086	-0.31233
3232.000	0.32818	0.23873	0.38156	-0.23077
3233.000	0.32818	0.23873	0.43493	-0.25265
3234.000	0.29457	0.21287	0.42307	-0.27453
3235.000	0.31434	0.27653	0.44086	-0.23077
3236.000	0.32818	0.25265	0.39935	-0.29244
3237.000	0.34597	0.23674	0.42109	-0.25862
3238.000	0.30643	0.18700	0.33016	-0.22082
3239.000	0.26294	0.20889	0.40923	-0.24270
3240.000	0.33806	0.26061	0.38353	-0.24270
3241.000	0.29259	0.25862	0.40330	-0.29244
3242.000	0.30050	0.20093	0.37760	-0.28846
3243.000	0.31829	0.25663	0.31632	-0.20889
3244.000	0.29457	0.19496	0.38749	-0.23475
3245.000	0.31829	0.19894	0.50412	-0.33421
3246.000	0.29852	0.22082	0.37760	-0.28249
3247.000	0.31632	0.19894	0.42109	-0.26260
3248.000	0.33016	0.15716	0.45668	-0.32426
3249.000	0.30050	0.18104	0.44679	-0.29641
3250.000	0.30446	0.23674	0.36574	-0.30239
3251.000	0.31434	0.18302	0.41121	-0.33620
3252.000	0.30643	0.20889	0.44679	-0.37002
3253.000	0.29655	0.17706	0.37760	-0.24668
3254.000	0.32027	0.20292	0.42900	-0.31432
3255.000	0.28864	0.17109	0.46459	-0.31631
3256.000	0.30841	0.19496	0.42702	-0.31034
3257.000	0.30446	0.21486	0.41912	-0.34416
3258.000	0.28666	0.23077	0.48633	-0.30835
3259.000	0.37167	0.20690	0.38353	-0.29045
3260.000	0.30248	0.27056	0.45470	-0.23276
3261.000	0.32422	0.19297	0.38946	-0.34217
3262.000	0.35190	0.24072	0.42505	-0.32427
3263.000	0.28864	0.19496	0.34202	-0.29443
3264.000	0.32225	0.19297	0.41714	-0.23077
3265.000	0.30248	0.20889	0.31632	-0.22679
3266.000	0.32027	0.22480	0.40726	-0.29642
3267.000	0.35388	0.23475	0.36179	-0.24668
3268.000	0.30643	0.20491	0.35981	-0.28846
3269.000	0.33016	0.19297	0.35586	-0.25464
3270.000	0.31039	0.20292	0.47249	-0.23474
3271.000	0.30643	0.20889	0.35388	-0.27453
3272.000	0.28073	0.23475	0.38749	-0.27851
3273.000	0.29457	0.20292	0.42900	-0.25265
3274.000	0.32422	0.18501	0.38156	-0.23674
3275.000	0.28666	0.23674	0.42702	-0.27652
3276.000	0.29655	0.18303	0.42900	-0.24071
3277.000	0.32818	0.24271	0.44877	-0.29840
3278.000	0.30248	0.21088	0.47052	-0.26657
3279.000	0.33213	0.23873	0.43296	-0.28050
3280.000	0.33213	0.26459	0.46656	-0.21684
3281.000	0.30841	0.20292	0.42307	-0.24469
3282.000	0.33016	0.20491	0.43889	-0.27055
3283.000	0.32027	0.24867	0.48238	-0.17506
3284.000	0.31829	0.23475	0.35586	-0.27851
3285.000	0.31829	0.26260	0.46854	-0.22281
3286.000	0.33609	0.18899	0.31039	-0.21486
3287.000	0.29655	0.18303	0.43296	-0.27652
3288.000	0.31039	0.25265	0.41516	-0.27652
3289.000	0.31236	0.20491	0.40726	-0.28448
3290.000	0.31039	0.24271	0.47645	-0.24469
3291.000	0.36969	0.22480	0.40726	-0.25464
3292.000	0.28864	0.23475	0.38946	-0.24071
3293.000	0.33213	0.19297	0.41121	-0.25464
3294.000	0.33016	0.23077	0.45075	-0.18700
3295.000	0.30841	0.22281	0.41714	-0.25265
3296.000	0.36179	0.23077	0.41516	-0.23674
3297.000	0.34993	0.24867	0.37958	-0.22679
3298.000	0.29457	0.23475	0.34795	-0.23276
3299.000	0.30643	0.23873	0.33806	-0.30239
3300.000	0.31434	0.23674	0.34399	-0.22679
3301.000	0.29457	0.22082	0.39144	-0.28448
3302.000	0.34399	0.24867	0.40330	-0.31034
3303.000	0.29062	0.21883	0.38946	-0.19098
3304.000	0.29062	0.24470	0.41714	-0.28448
3305.000	0.36969	0.22878	0.36969	-0.23674
3306.000	0.30643	0.17507	0.40923	-0.27453
3307.000	0.31632	0.24668	0.49424	-0.32227
3308.000	0.34004	0.24271	0.39737	-0.29841
3309.000	0.28666	0.18104	0.48633	-0.26458
3310.000	0.32818	0.22281	0.45865	-0.34814
3311.000	0.34004	0.23674	0.51401	-0.29243
3312.000	0.33411	0.21287	0.43098	-0.35212
3313.000	0.30841	0.28249	0.41714	-0.33421
3314.000	0.30248	0.22082	0.45075	-0.27652
3315.000	0.29259	0.23475	0.31632	-0.28846
3316.000	0.31434	0.24072	0.47447	-0.25862
3317.000	0.32422	0.22281	0.47842	-0.32824
3318.000	0.33806	0.22082	0.43493	-0.31432
3319.000	0.33016	0.27454	0.51994	-0.43168
3320.000	0.34004	0.25464	0.48435	-0.30835
3321.000	0.27876	0.20093	0.41714	-0.36007
3322.000	0.28864	0.22679	0.44679	-0.34217
3323.000	0.29259	0.25862	0.42109	-0.33421
3324.000	0.34202	0.25464	0.40330	-0.30238
3325.000	0.31236	0.25464	0.49028	-0.36604
3326.000	0.27876	0.21287	0.45865	-0.33421
3327.000	0.30841	0.21684	0.43889	-0.34814
3328.000	0.28666	0.19496	0.50215	-0.32824
3329.000	0.29457	0.21883	0.39342	-0.26658
3330.000	0.24317	0.20889	0.51994	-0.32227
3331.000	0.31829	0.26260	0.40923	-0.37798
3332.000	0.31236	0.18104	0.41912	-0.37002
3333.000	0.28666	0.24271	0.36574	-0.30636
3334.000	0.28271	0.21287	0.41912	-0.32427
3335.000	0.30248	0.25862	0.48435	-0.37598
3336.000	0.28073	0.21088	0.44086	-0.33819
3337.000	0.28864	0.21883	0.45272	-0.39986
3338.000	0.28073	0.19695	0.47447	-0.36206
3339.000	0.28073	0.21287	0.42900	-0.35013
3340.000	0.31829	0.25265	0.49028	-0.36604
3341.000	0.29259	0.20093	0.46854	-0.38991
3342.000	0.26492	0.21287	0.48238	-0.42572
3343.000	0.25701	0.17905	0.44482	-0.32625
3344.000	0.27876	0.22679	0.48435	-0.40781
3345.000	0.31039	0.22878	0.42505	-0.31631
3346.000	0.25108	0.19894	0.46261	-0.32426
3347.000	0.29259	0.22480	0.48633	-0.35609
3348.000	0.26294	0.27454	0.52587	-0.28646
3349.000	0.29457	0.31035	0.48633	-0.19297
3350.000	0.38353	0.37798	0.50412	-0.14920
3351.000	0.50215	0.42770	0.66227	0.02188
3352.000	0.56540	0.52119	0.76901	0.18500
3353.000	0.82435	0.68227	0.91725	0.41772
3354.000	1.03584	0.87116	1.14256	0.59470
3355.000	1.25124	1.07789	1.31645	0.92278
3356.000	1.51403	1.34414	1.56737	1.05786
3357.000	1.85181	1.67177	1.84983	1.42738
3358.000	2.04533	1.90595	2.03941	1.69741
3359.000	2.40065	2.38385	2.21512	2.04473
3360.000	2.71634	2.73033	2.57035	2.36767
3361.000	3.07129	3.08812	2.73607	2.77787
3362.000	3.37282	3.52267	2.89582	3.18568
3363.000	3.66234	3.84189	3.13043	3.51758
3364.000	3.85526	4.16498	3.38464	3.77383
3365.000	4.06579	4.45596	3.46344	4.01072
3366.000	4.20936	4.69173	3.74700	4.06675
3367.000	4.29980	4.83894	3.83361	4.28749
3368.000	4.45114	5.03091	4.00480	4.32016
3369.000	4.56510	5.12260	4.15626	4.53040
3370.000	4.68491	5.21417	4.19559	4.65634
3371.000	4.81843	5.32128	4.31553	4.74035
3372.000	4.89498	5.43857	4.41773	4.80274
3373.000	4.99309	5.55166	4.55331	5.02234
3374.000	5.07549	5.62555	4.61421	5.06717
3375.000	5.17551	5.75808	4.62207	5.26773
3376.000	5.19120	5.95009	4.63581	5.33841
3377.000	5.16571	6.03067	4.63778	5.39736
3378.000	5.07353	6.14910	4.63189	5.54870
3379.000	4.96366	6.27940	4.55921	5.67497
3380.000	4.83217	6.48033	4.42559	5.79186
3381.000	4.71044	6.62432	4.32732	5.99086
3382.000	4.53760	6.72766	4.23885	6.08181
3383.000	4.41184	6.86180	4.04021	6.22260
3384.000	4.23689	6.96113	3.88281	6.30615
3385.000	4.10513	7.07175	3.85723	6.42789
3386.000	4.00874	7.10385	3.74897	6.56391
3387.000	3.90249	7.10476	3.68794	6.56045
3388.000	3.88675	7.14984	3.67219	6.58211
3389.000	3.83558	7.16785	3.75291	6.54821
3390.000	3.81196	7.08205	3.72928	6.54643
3391.000	3.87691	6.98767	3.72731	6.53860
3392.000	3.97529	6.90276	3.80212	6.40282
3393.000	4.05989	6.85511	3.87887	6.31794
3394.000	4.17396	6.77002	4.02054	6.32668
3395.000	4.22705	6.60908	4.09529	6.20257
3396.000	4.35484	6.49834	4.18183	6.10971
3397.000	4.40005	6.47641	4.27621	5.98341
3398.000	4.49830	6.39526	4.38039	5.93158
3399.000	4.54742	6.36741	4.33911	5.84750
3400.000	4.67117	6.33497	4.44328	5.73675
3401.000	4.73597	6.30109	4.46686	5.77780
3402.000	4.72615	6.31489	4.51598	5.73618
3403.000	4.75757	6.31852	4.58278	5.76706
3404.000	4.80861	6.33568	4.53956	5.86751
3405.000	4.84591	6.40974	4.53170	5.81262
3406.000	4.80861	6.48055	4.51991	5.92458
3407.000	4.79094	6.54334	4.48848	5.91894
3408.000	4.81057	6.61750	4.50420	6.01495
3409.000	4.80468	6.65863	4.42559	6.01363
3410.000	4.74775	6.74914	4.45900	6.15652
3411.000	4.77327	6.78213	4.40987	6.35684
3412.000	4.76935	6.89161	4.43346	6.33117
3413.000	4.69473	6.90017	4.39415	6.40399
3414.000	4.65938	6.95327	4.36270	6.44148
3415.000	4.68295	6.96281	4.31946	6.45947
3416.000	4.65742	6.97478	4.34108	6.49063
3417.000	4.63189	6.97698	4.35287	6.43373
3418.000	4.61617	6.97714	4.25458	6.50311
3419.000	4.61028	6.99673	4.28800	6.46953
3420.000	4.58671	6.96179	4.19559	6.38605
3421.000	4.57492	6.93650	4.22116	6.44266
3422.000	4.56706	6.97761	4.26245	6.44232
3423.000	4.54938	6.94261	4.28014	6.48918
3424.000	4.55921	6.91125	4.26638	6.36196
3425.000	4.58474	6.92468	4.28604	6.38531
3426.000	4.58082	6.87195	4.21919	6.36822
3427.000	4.58278	6.87975	4.25065	6.30721
3428.000	4.57099	6.89159	4.22312	6.35839
3429.000	4.54938	6.92502	4.27621	6.35992
3430.000	4.59260	6.84838	4.24672	6.32881
3431.000	4.56706	6.89749	4.25655	6.34636
3432.000	4.56117	6.83304	4.24475	6.37585
3433.000	4.54349	6.85862	4.28407	6.34810
3434.000	4.53760	6.89581	4.28014	6.31481
3435.000	4.57099	6.87009	4.23885	6.26026
3436.000	4.54938	6.84488	4.35877	6.28477
3437.000	4.55135	6.86245	4.27817	6.24622
3438.000	4.58867	6.83473	4.31356	6.24398
3439.000	4.57099	6.78015	4.29194	6.23043
3440.000	4.57296	6.81924	4.28997	6.21084
3441.000	4.60046	6.81116	4.28407	6.26578
3442.000	4.60635	6.82479	4.34501	6.16334
3443.000	4.59849	6.80531	4.35877	6.16519
3444.000	4.60046	6.79552	4.37450	6.18074
3445.000	4.62207	6.76989	4.26048	6.19931
3446.000	4.59653	6.74471	4.34305	6.15551
3447.000	4.64367	6.78338	4.25458	6.23465
3448.000	4.63974	6.80101	4.26048	6.26793
3449.000	4.65349	6.79306	4.29390	6.21081
3450.000	4.62796	6.77179	4.29783	6.16764
3451.000	4.62992	6.80110	4.27621	6.20703
3452.000	4.62403	6.77770	4.30176	6.21270
3453.000	4.62403	6.78356	4.34894	6.18683
3454.000	4.64367	6.78142	4.28604	6.26184
3455.000	4.62992	6.76395	4.23295	6.24267
3456.000	4.63778	6.74628	4.21919	6.21925
3457.000	4.62796	6.76006	4.28014	6.20504
3458.000	4.61617	6.73866	4.25851	6.28363
3459.000	4.58671	6.78196	4.29390	6.22649
3460.000	4.59457	6.77993	4.25655	6.19738
3461.000	4.57492	6.77229	4.22312	6.18196
3462.000	4.61814	6.77384	4.29587	6.12647
3463.000	4.58867	6.79367	4.29587	6.20099
3464.000	4.62796	6.83240	4.25655	6.24248
3465.000	4.61814	6.84227	4.30176	6.27348
3466.000	4.63189	6.75220	4.29783	6.19509
3467.000	4.63974	6.81861	4.26834	6.20709
3468.000	4.62796	6.79917	4.27424	6.25018
3469.000	4.62599	6.78746	4.22116	6.21727
3470.000	4.63189	6.82650	4.33125	6.19286
3471.000	4.64367	6.82248	4.33518	6.16734
3472.000	4.67902	6.84169	4.28211	6.28736
3473.000	4.59653	6.78187	4.35681	6.18481
3474.000	4.65742	6.78716	4.28211	6.11874
3475.000	4.61224	6.80909	4.24278	6.13474
3476.000	4.61421	6.75824	4.19166	6.17633
3477.000	4.61224	6.71523	4.24278	6.19553
3478.000	4.60439	6.73486	4.26834	6.14434
3479.000	4.62992	6.75418	4.32535	6.18506
3480.000	4.63974	6.74431	4.29390	6.16375
3481.000	4.56706	6.71174	4.23099	6.13287
3482.000	4.64563	6.75403	4.28014	6.16778
3483.000	4.62599	6.76986	4.27424	6.20116
3484.000	4.57885	6.76835	4.23492	6.18187
3485.000	4.60635	6.74853	4.28014	6.16386
3486.000	4.58867	6.77021	4.29587	6.20295
3487.000	4.61617	6.75431	4.29587	6.15981
3488.000	4.60046	6.76619	4.25065	6.13075
3489.000	4.60635	6.75635	4.24082	6.17398
3490.000	4.61814	6.78949	4.25065	6.14252
3491.000	4.61617	6.76017	4.27031	6.13452
3492.000	4.60635	6.75244	4.28014	6.19131
3493.000	4.62796	6.75028	4.23885	6.18968
3494.000	4.61224	6.77976	4.27031	6.12667
3495.000	4.62992	6.77373	4.33518	6.16734
3496.000	4.60635	6.75049	4.28211	6.13050
3497.000	4.61028	6.79738	4.25065	6.11898
3498.000	4.64563	6.76185	4.25655	6.13855
3499.000	4.64563	6.80877	4.30373	6.12445
3500.000	4.65545	6.79109	4.28800	6.15203
3501.000	4.62207	6.77967	4.19953	6.22725
3502.000	4.62599	6.73857	4.32142	6.17137
3503.000	4.64563	6.72861	4.30176	6.13035
3504.000	4.61421	6.75433	4.26048	6.08164
3505.000	4.58867	6.69198	4.28604	6.05397
3506.000	4.60439	6.74660	4.29390	6.04999
3507.000	4.58082	6.75659	4.26834	6.07961
3508.000	4.59849	6.68211	4.34305	6.16531
3509.000	4.55528	6.69033	4.19363	6.13512
3510.000	4.59457	6.73300	4.20739	6.09186
3511.000	4.62010	6.72885	4.18379	6.12343
3512.000	4.61421	6.74455	4.28407	6.11087
3513.000	4.63189	6.75220	4.24082	6.06021
3514.000	4.59457	6.72713	4.23099	6.20151
3515.000	4.63581	6.72479	4.25458	6.17975
3516.000	4.64367	6.72471	4.28997	6.19908
3517.000	4.60046	6.70165	4.25065	6.12095
3518.000	4.61814	6.72886	4.29194	6.09708
3519.000	4.58671	6.67830	4.25065	6.13271
3520.000	4.61617	6.70737	4.20149	6.13310
3521.000	4.58082	6.69596	4.22705	6.18781
3522.000	4.60242	6.72314	4.29587	6.15001
3523.000	4.59849	6.70558	4.32929	6.13405
3524.000	4.55921	6.71964	4.22902	6.15838
3525.000	4.60439	6.74073	4.27031	6.13256
3526.000	4.60439	6.72508	4.20346	6.14485
3527.000	4.61224	6.70545	4.35681	6.13971
3528.000	4.60832	6.66832	4.26048	6.15813
3529.000	4.54938	6.73537	4.24672	6.15432
3530.000	4.60046	6.70752	4.22902	6.17995
3531.000	4.62403	6.69947	4.26638	6.12082
3532.000	4.59260	6.67629	4.29194	6.10101
3533.000	4.57492	6.69210	4.26834	6.07569
3534.000	4.58082	6.72139	4.33125	6.13992
3535.000	4.56903	6.72737	4.27031	6.12079
3536.000	4.62207	6.74643	4.22705	6.08582
3537.000	4.62599	6.75226	4.28997	6.12456
3538.000	4.62010	6.71320	4.25458	6.10915
3539.000	4.59653	6.73298	4.26048	6.15029
3540.000	4.58671	6.71351	4.21722	6.10748
3541.000	4.60242	6.73879	4.26834	6.10315
3542.000	4.63189	6.72678	4.25851	6.08754
3543.000	4.61814	6.71713	4.29390	6.06176
3544.000	4.64367	6.68951	4.34894	6.09859
3545.000	4.64956	6.70119	4.25851	6.12088
3546.000	4.63974	6.71693	4.31946	6.02624
3547.000	4.62010	6.68777	4.33518	6.03200
3548.000	4.60832	6.69571	4.35091	6.01030
3549.000	4.57296	6.66669	4.25065	6.12879
3550.000	4.61814	6.72495	4.26441	6.15614
3551.000	4.63581	6.72870	4.24672	6.03858
3552.000	4.62010	6.68582	4.29783	6.04799
3553.000	4.63778	6.67391	4.25655	6.06401
3554.000	4.60046	6.71143	4.28407	6.08341
3555.000	4.61028	6.69764	4.28800	6.05200
3556.000	4.62207	6.68971	4.25851	6.15815
3557.000	4.55528	6.63751	4.30963	6.09694
3558.000	4.60242	6.66642	4.23689	6.03277
3559.000	4.59457	6.66649	4.22116	6.04074
3560.000	4.64956	6.67967	4.25458	6.05030
3561.000	4.63974	6.69932	4.28997	6.00293
3562.000	4.62599	6.64664	4.21329	5.99960
3563.000	4.62992	6.65638	4.30373	6.11856
3564.000	4.62207	6.65841	4.30176	6.00872
3565.000	4.64563	6.64450	4.39415	6.06488
3566.000	4.61224	6.66046	4.21722	6.11336
3567.000	4.61028	6.62526	4.35681	6.08480
3568.000	4.59849	6.68211	4.33518	6.05162
3569.000	4.61028	6.64874	4.27031	6.05017
3570.000	4.63385	6.69351	4.22902	5.98967
3571.000	4.64367	6.67190	4.30373	6.01656
3572.000	4.62403	6.66231	4.33125	5.97710
3573.000	4.61421	6.66044	4.22705	6.00342
3574.000	4.65742	6.64830	4.33322	6.05556
3575.000	4.63778	6.63479	4.28211	5.95001
3576.000	4.63385	6.63678	4.25655	6.09932
3577.000	4.62403	6.69165	4.26048	6.01101
3578.000	4.65349	6.63464	4.25065	6.03267
3579.000	4.61421	6.63892	4.31946	5.95364
3580.000	4.62010	6.62908	4.41970	5.93519
3581.000	4.62207	6.61537	4.36663	6.01017
3582.000	4.58671	6.62939	4.31749	6.05765
3583.000	4.64367	6.63669	4.30570	5.98711
3584.000	4.63974	6.66020	4.32339	5.95361
3585.000	4.64956	6.65229	4.32732	5.98890
3586.000	4.66724	6.63060	4.34108	5.95936
3587.000	4.64367	6.61908	4.31749	5.99683
3588.000	4.63189	6.62506	4.31946	5.96542
3589.000	4.63778	6.64066	4.26834	5.89319
3590.000	4.62992	6.62703	4.29783	5.97147
3591.000	4.64563	6.62298	4.35484	6.01027
3592.000	4.65545	6.65614	4.35287	5.87095
3593.000	4.60635	6.59399	4.27621	5.99911
3594.000	4.64760	6.61317	4.30176	5.90471
3595.000	4.62599	6.61142	4.17593	5.91352
3596.000	4.65153	6.60336	4.32339	5.94576
3597.000	4.60439	6.60770	4.29980	5.89099
3598.000	4.63385	6.58786	4.30570	5.95571
3599.000	4.64367	6.60930	4.23492	5.93270
3600.000	4.64171	6.59953	4.23295	5.93272
3601.000	4.62010	6.62517	4.30766	5.96355
3602.000	4.60635	6.61160	4.30373	5.88703
3603.000	4.59653	6.59017	4.47276	5.90533
3604.000	4.62796	6.60357	4.28407	5.94999
3605.000	4.61814	6.62323	4.33715	6.03003
3606.000	4.64367	6.62299	4.31946	5.94579
3607.000	4.61028	6.61156	4.21329	5.93679
3608.000	4.63581	6.63089	4.30176	5.98910
3609.000	4.66331	6.60912	4.24082	5.88947
3610.000	4.58671	6.58634	4.30963	5.94979
3611.000	4.58474	6.62550	4.31159	5.93997
3612.000	4.62992	6.62508	4.31159	5.91249
3613.000	4.60242	6.55880	4.29390	5.94795
3614.000	4.63189	6.60549	4.21132	5.90344
3615.000	4.63778	6.54282	4.37450	5.92377
3616.000	4.66527	6.57583	4.32142	5.98306
3617.000	4.61617	6.56650	4.28211	5.97944
3618.000	4.61421	6.60370	4.29783	5.95577
3619.000	4.59849	6.59797	4.28604	5.84791
3620.000	4.56903	6.60020	4.36270	5.88658
3621.000	4.60832	6.59397	4.36467	5.91011
3622.000	4.60046	6.56665	4.38236	5.90801
3623.000	4.64956	6.59946	4.36467	5.87675
3624.000	4.61421	6.56456	4.34501	5.91027
3625.000	4.62207	6.52535	4.31749	5.93992
3626.000	4.61814	6.59192	4.24278	5.92676
3627.000	4.67313	6.58946	4.30373	5.96750
3628.000	4.62599	6.62316	4.30963	5.91447
3629.000	4.62992	6.60356	4.33715	5.89855
3630.000	4.65153	6.63466	4.30570	5.94394
3631.000	4.60832	6.59984	4.37253	5.84135
3632.000	4.59457	6.56866	4.36860	5.87475
3633.000	4.63385	6.58395	4.31946	5.93402
3634.000	4.62010	6.58603	4.37450	5.81189
3635.000	4.64367	6.56429	4.31553	5.91246
3636.000	4.65349	6.54267	4.41380	5.84103
3637.000	4.66135	6.58565	4.27621	5.91669
3638.000	4.67509	6.57574	4.30176	5.84779
3639.000	4.61421	6.54303	4.34305	5.80624
3640.000	4.61421	6.51563	4.33518	5.89857
3641.000	4.67509	6.56009	4.40005	5.80973
3642.000	4.62207	6.54492	4.30963	5.77508
3643.000	4.60242	6.55684	4.27621	5.85387
3644.000	4.67313	6.56793	4.38825	5.92170
3645.000	4.64956	6.51727	4.28800	5.87734
3646.000	4.66724	6.61299	4.36074	5.91014
3647.000	4.63385	6.57417	4.37450	5.88060
3648.000	4.68099	6.61091	4.32339	5.82799
3649.000	4.65153	6.54269	4.34698	5.83959
3650.000	4.65545	6.57788	4.37056	5.82959
3651.000	4.66724	6.58951	4.37843	5.84720
3652.000	4.67117	6.53272	4.40987	5.87247
3653.000	4.64760	6.55447	4.31356	5.81039
3654.000	4.67509	6.55030	4.33518	5.81415
3655.000	4.68295	6.53457	4.37843	5.87075
3656.000	4.70455	6.54807	4.32732	5.87507
3657.000	4.74382	6.56336	4.37843	5.84720
3658.000	4.70651	6.55979	4.35287	5.84543
3659.000	4.69277	6.53252	4.38629	5.80983
3660.000	4.67706	6.55224	4.37843	5.90019
3661.000	4.68884	6.57561	4.33518	5.84557
3662.000	4.69473	6.58339	4.28407	5.83614
3663.000	4.73400	6.53214	4.33322	5.81417
3664.000	4.67902	6.54439	4.38629	5.88050
3665.000	4.64171	6.55648	4.33322	5.81417
3666.000	4.64956	6.55249	4.35091	5.84741
3667.000	4.65938	6.57784	4.32339	5.82210
3668.000	4.67902	6.50525	4.40005	5.91572
3669.000	4.66331	6.51714	4.37253	5.81190
3670.000	4.69670	6.53249	4.44721	5.82899
3671.000	4.67706	6.53658	4.38236	5.79612
3672.000	4.72026	6.51661	4.34894	5.79441
3673.000	4.68688	6.56585	4.36860	5.80015
3674.000	4.70259	6.53635	4.41184	5.85871
3675.000	4.70259	6.55200	4.34305	5.84943
3676.000	4.68099	6.50915	4.28997	5.81057
3677.000	4.63974	6.52910	4.34894	5.81405
3678.000	4.69670	6.54227	4.31356	5.80843
3679.000	4.67706	6.54246	4.34108	5.83963
3680.000	4.68884	6.54039	4.35287	5.82972
3681.000	4.68688	6.52475	4.36270	5.84928
3682.000	4.70259	6.52069	4.38825	5.74699
3683.000	4.72026	6.55575	4.41970	5.87239
3684.000	4.68099	6.53068	4.35091	5.77280
3685.000	4.65938	6.53870	4.36270	5.79627
3686.000	4.65545	6.50155	4.34501	5.82390
3687.000	4.65742	6.51524	4.27621	5.76158
3688.000	4.68099	6.53655	4.32339	5.83191
3689.000	4.65545	6.56614	4.39808	5.89611
3690.000	4.65742	6.54068	4.33518	5.79648
3691.000	4.64956	6.51727	4.34894	5.79049
3692.000	4.65349	6.50744	4.37450	5.88845
3693.000	4.66135	6.52303	4.42363	5.83507
3694.000	4.64171	6.52712	4.31553	5.82216
3695.000	4.69080	6.50906	4.42559	5.84290
3696.000	4.68884	6.51690	4.43149	5.80163
3697.000	4.67706	6.51701	4.35091	5.85133
3698.000	4.68491	6.51303	4.32732	5.86918
3699.000	4.65742	6.49566	4.33911	5.85143
3700.000	4.65742	6.54459	4.39612	5.88043
3701.000	4.70455	6.51089	4.35091	5.81207
3702.000	4.69670	6.49922	4.26638	5.85002
3703.000	4.67117	6.51315	4.31553	5.81627
3704.000	4.67706	6.50527	4.39022	5.81177
3705.000	4.68099	6.52285	4.42559	5.87431
3706.000	4.62599	6.51357	4.35091	5.80618
3707.000	4.63385	6.52915	4.40005	5.83525
3708.000	4.67509	6.52682	4.36074	5.84537
3709.000	4.66724	6.49949	4.41184	5.77430
3710.000	4.68491	6.48562	4.35877	5.76096
3711.000	4.68295	6.47781	4.28997	5.81253
3712.000	4.63189	6.50568	4.30766	5.84578
3713.000	4.64563	6.51730	4.38039	5.81970
3714.000	4.66724	6.45642	4.45507	5.80341
3715.000	4.70062	6.50114	4.37843	5.85505
3716.000	4.67509	6.47592	4.32142	5.86530
3717.000	4.65349	6.49961	4.33518	5.87894
3718.000	4.70455	6.50893	4.36270	5.83358
3719.000	4.65153	6.47614	4.36663	5.81784
3720.000	4.65545	6.52504	4.37843	5.84916
3721.000	4.67313	6.48769	4.37646	5.80795
3722.000	4.68884	6.49929	4.44525	5.86434
3723.000	4.62207	6.41963	4.36663	5.92187
3724.000	4.64760	6.48205	4.41577	5.84102
3725.000	4.64760	6.44093	4.31356	5.92425
3726.000	4.68295	6.44453	4.37843	5.87664
3727.000	4.65153	6.47418	4.30963	5.88699
3728.000	4.66724	6.48774	4.39022	5.90795
3729.000	4.69670	6.47964	4.39415	5.92166
3730.000	4.71633	6.48729	4.36860	5.94148
3731.000	4.67509	6.44656	4.38825	5.87656
3732.000	4.63385	6.49979	4.35681	5.83755
3733.000	4.69670	6.49530	4.41773	5.81352
3734.000	4.71044	6.47951	4.36270	5.89050
3735.000	4.69670	6.45223	4.32929	5.89665
3736.000	4.73008	6.48912	4.31946	5.84176
3737.000	4.71830	6.46182	4.36467	5.68432
3738.000	4.69473	6.40135	4.43739	5.76035
3739.000	4.70259	6.34840	4.45507	5.65614
3740.000	4.72615	6.21498	4.45114	5.59331
3741.000	4.71241	5.93475	4.55135	5.33903
3742.000	4.73597	5.69319	4.57885	5.11660
3743.000	4.73990	5.41426	4.65349	4.77361
3744.000	4.74382	5.00524	4.69670	4.40097
3745.000	4.70651	4.62160	4.81450	4.00390
3746.000	4.68295	4.13487	4.81254	3.58351
3747.000	4.67117	3.65928	4.97543	3.02954
3748.000	4.60046	3.16170	5.05783	2.52700
3749.000	4.55528	2.69510	4.99702	2.08599
3750.000	4.43935	2.16690	4.99702	1.59302
3751.000	4.35877	1.68366	5.02056	1.06213
3752.000	4.22312	1.22793	4.86750	0.68187
3753.000	4.12873	0.78572	4.85572	0.35879
3754.000	4.10119	0.50996	4.74579	-0.02974
3755.000	4.01661	0.17861	4.77916	-0.35288
3756.000	3.93791	-0.13893	4.76346	-0.70774
3757.000	3.90249	-0.29772	4.76542	-0.88217
3758.000	3.86116	-0.50813	4.68295	-1.09635
3759.000	3.87100	-0.62323	4.65349	-1.19947
3760.000	3.85526	-0.84949	4.62992	-1.42742
3761.000	3.86313	-0.96061	4.62403	-1.46113
3762.000	3.87494	-0.98639	4.66724	-1.48085
3763.000	3.93004	-1.02799	4.70062	-1.63334
3764.000	3.92020	-1.13515	4.66724	-1.53435
3765.000	3.91823	-1.16689	4.66920	-1.53435
3766.000	3.89659	-1.12923	4.55135	-1.46326
3767.000	3.93594	-1.15496	4.57689	-1.43348
3768.000	3.88871	-1.21058	4.50813	-1.49506
3769.000	3.89659	-1.22446	4.48258	-1.45348
3770.000	3.87887	-1.21456	4.43149	-1.49918
3771.000	3.85723	-1.18087	4.29980	-1.48160
3772.000	3.81196	-1.16307	4.32535	-1.37251
3773.000	3.76472	-1.12146	4.26834	-1.31511
3774.000	3.78046	-1.07580	4.20739	-1.30530
3775.000	3.78637	-1.04801	4.27228	-1.23380
3776.000	3.75291	-0.94089	4.25851	-1.19614
3777.000	3.75487	-0.87936	4.22116	-1.17439
3778.000	3.76472	-0.85553	4.14053	-1.08922
3779.000	3.80605	-0.76221	4.25851	-1.07715
3780.000	3.82770	-0.70464	4.25851	-1.01567
3781.000	3.85329	-0.66294	4.25261	-0.97800
3782.000	3.89462	-0.62123	4.29783	-0.95414
3783.000	3.88281	-0.63712	4.35681	-0.99373
3784.000	3.94578	-0.62516	4.41577	-1.02141
3785.000	4.00087	-0.63306	4.41970	-1.07098
3786.000	3.99103	-0.68863	4.38236	-1.14638
3787.000	3.99300	-0.76204	4.39218	-1.26533
3788.000	4.00677	-0.82156	4.44328	-1.27912
3789.000	4.04808	-0.87508	4.41970	-1.30890
3790.000	4.05399	-0.98816	4.45114	-1.42381
3791.000	4.03235	-1.04175	4.39808	-1.52699
3792.000	4.03825	-1.15879	4.45507	-1.62201
3793.000	4.03038	-1.22228	4.46490	-1.68937
3794.000	3.99693	-1.33738	4.38039	-1.80847
3795.000	4.00677	-1.39290	4.35484	-1.77682
3796.000	3.97136	-1.44849	4.40005	-1.85399
3797.000	3.96349	-1.47826	4.37646	-1.89368
3798.000	3.96742	-1.53577	4.36663	-1.94522
3799.000	3.98119	-1.58730	4.32142	-2.03054
3800.000	3.94381	-1.59531	4.32535	-1.97505
3801.000	3.94184	-1.61514	4.32339	-2.01072
3802.000	3.93397	-1.63301	4.29980	-2.02465
3803.000	3.96349	-1.67261	4.20346	-1.94762
3804.000	3.91233	-1.68461	4.27817	-1.92762
3805.000	3.98906	-1.59522	4.19166	-1.95756
3806.000	3.94381	-1.63299	4.17789	-1.87634
3807.000	3.98119	-1.58135	4.18773	-1.88820
3808.000	3.95758	-1.55165	4.21919	-1.88416
3809.000	3.98316	-1.55359	4.14643	-1.90019
3810.000	4.00874	-1.52776	4.19363	-1.75341
3811.000	3.93201	-1.61516	4.18576	-1.84262
3812.000	3.99103	-1.51192	4.08742	-1.86069
3813.000	4.00087	-1.50397	4.18379	-1.87632
3814.000	4.04415	-1.50984	4.18576	-1.82280
3815.000	4.00480	-1.50793	4.17593	-1.86048
3816.000	4.03038	-1.48409	4.24278	-1.77312
3817.000	4.03431	-1.48408	4.24868	-1.75923
3818.000	4.01661	-1.45040	4.09923	-1.82300
3819.000	4.03825	-1.49399	4.14250	-1.83876
3820.000	4.04021	-1.43251	4.12676	-1.73175
3821.000	4.04021	-1.43449	4.13266	-1.74759
3822.000	4.02251	-1.44840	4.18379	-1.72964
3823.000	4.02841	-1.42459	4.11103	-1.78531
3824.000	4.01661	-1.43651	4.18183	-1.71973
3825.000	4.03825	-1.40871	4.16806	-1.72373
3826.000	4.04021	-1.37102	4.21329	-1.74543
3827.000	4.01858	-1.36511	4.24475	-1.71167
3828.000	4.05399	-1.36703	4.22509	-1.73153
3829.000	4.03628	-1.39285	4.13070	-1.75355
3830.000	4.01464	-1.35123	4.21526	-1.77120
3831.000	3.99497	-1.37903	4.20739	-1.74545
3832.000	4.03235	-1.39285	4.15036	-1.69601
3833.000	4.02448	-1.40080	4.19953	-1.69789
3834.000	4.07366	-1.40468	4.12086	-1.72581
3835.000	4.02448	-1.38890	4.08742	-1.78536
3836.000	4.06775	-1.45427	4.07562	-1.75763
3837.000	4.06185	-1.43048	4.12480	-1.80708
3838.000	4.05989	-1.41859	4.19559	-1.75142
3839.000	4.06972	-1.47608	4.13660	-1.74560
3840.000	4.06972	-1.45625	4.15036	-1.78720
3841.000	4.04415	-1.47018	4.23099	-1.87224
3842.000	4.05202	-1.45430	4.18773	-1.87631
3843.000	4.02841	-1.50591	4.14446	-1.77730
3844.000	4.06775	-1.45625	4.11299	-1.85865
3845.000	4.03235	-1.48607	4.09333	-1.84085
3846.000	4.06579	-1.51377	4.12283	-1.82691
3847.000	4.07956	-1.45822	4.09136	-1.83095
3848.000	4.06972	-1.50781	4.19756	-1.90007
3849.000	4.07562	-1.50780	4.12480	-1.85664
3850.000	4.07759	-1.49590	4.24082	-1.89997
3851.000	4.06382	-1.49989	4.12480	-1.85267
3852.000	4.07169	-1.50582	4.13856	-1.84670
3853.000	4.06579	-1.51178	4.12676	-1.82294
3854.000	4.09333	-1.49389	4.24278	-1.83258
3855.000	4.06972	-1.50979	4.23885	-1.87222
3856.000	4.13856	-1.49578	4.18773	-1.80297
3857.000	4.10119	-1.52758	4.20542	-1.84059
3858.000	4.09529	-1.47604	4.20936	-1.81878
3859.000	4.05989	-1.52171	4.22116	-1.74145
3860.000	4.05399	-1.52965	4.26441	-1.76910
3861.000	4.10513	-1.54740	4.25065	-1.88607
3862.000	4.06972	-1.49195	4.19363	-1.87035
3863.000	4.04218	-1.50985	4.19166	-1.87828
3864.000	4.08546	-1.50580	4.16216	-1.84466
3865.000	4.10906	-1.52757	4.19559	-1.87629
3866.000	4.06775	-1.52765	4.10119	-1.80317
3867.000	4.08152	-1.52564	4.14250	-1.80308
3868.000	4.05792	-1.51180	4.10906	-1.78729
3869.000	4.03431	-1.54357	4.15233	-1.86847
3870.000	4.11103	-1.50377	4.21919	-1.91389
3871.000	4.06382	-1.54748	4.11103	-1.82892
3872.000	4.05202	-1.54156	4.17003	-1.85653
3873.000	4.06579	-1.52368	4.19756	-1.88223
3874.000	4.07956	-1.51771	4.19166	-1.87432
3875.000	4.07759	-1.53358	4.26245	-1.86226
3876.000	4.07562	-1.48599	4.11103	-1.93398
3877.000	4.08939	-1.51769	4.19756	-1.93376
3878.000	4.08742	-1.51174	4.17986	-1.87435
3879.000	4.08349	-1.49390	4.15036	-1.86253
3880.000	4.10513	-1.51964	4.12873	-1.82095
3881.000	4.08546	-1.47010	4.13463	-1.91410
3882.000	4.10316	-1.49387	4.22902	-1.89999
3883.000	4.07956	-1.51374	4.17789	-1.89219
3884.000	4.10316	-1.49982	4.19363	-1.85251
3885.000	4.11299	-1.49782	4.16020	-1.86052
3886.000	4.06579	-1.55343	4.17396	-1.86643
3887.000	4.14053	-1.49975	4.13660	-1.80904
3888.000	4.10316	-1.47800	4.20542	-1.81086
3889.000	4.12873	-1.52356	4.23885	-1.87421
3890.000	4.06382	-1.55740	4.28997	-1.80868
3891.000	4.13070	-1.46804	4.11693	-1.84873
3892.000	4.11299	-1.49385	4.17199	-1.85851
3893.000	4.10709	-1.55335	4.18379	-1.88028
3894.000	4.09923	-1.49982	4.14840	-1.83082
3895.000	4.05989	-1.48205	4.15430	-1.86053
3896.000	4.08939	-1.51769	4.17789	-1.89814
3897.000	4.10316	-1.51568	4.20346	-1.88817
3898.000	4.10316	-1.54146	4.20346	-1.76924
3899.000	4.09726	-1.49190	4.14446	-1.87047
3900.000	4.11103	-1.49980	4.16806	-1.88230
3901.000	4.13463	-1.50372	4.12480	-1.89430
3902.000	4.14250	-1.47793	4.16020	-1.85259
3903.000	4.11103	-1.51368	4.17396	-1.89220
3904.000	4.11496	-1.50773	4.19363	-1.89810
3905.000	4.10709	-1.52757	4.11889	-1.90026
3906.000	4.10119	-1.47404	4.13070	-1.81103
3907.000	4.10709	-1.52757	4.07759	-1.84485
3908.000	4.09726	-1.48793	4.18183	-1.88624
3909.000	4.12283	-1.50176	4.08939	-1.82302
3910.000	4.06579	-1.56136	4.20739	-1.85248
3911.000	4.11299	-1.52161	4.09726	-1.83093
3912.000	4.13266	-1.46010	4.16413	-1.81294
3913.000	4.09136	-1.49389	4.15430	-1.92792
3914.000	4.09529	-1.51371	4.14053	-1.82092
3915.000	4.10316	-1.48594	4.14446	-1.83281
3916.000	4.12283	-1.51763	4.17199	-1.92986
3917.000	4.12480	-1.52952	4.18576	-1.92785
3918.000	4.12873	-1.53149	4.20149	-1.89610
3919.000	4.12873	-1.57908	4.15823	-1.83476
3920.000	4.14250	-1.51759	4.23295	-1.88413
3921.000	4.13856	-1.56717	4.15233	-1.88432
3922.000	4.14250	-1.51561	4.15430	-1.83675
3923.000	4.16610	-1.54927	4.21722	-1.89210
3924.000	4.13660	-1.55924	4.19953	-1.83862
3925.000	4.09923	-1.53552	4.17593	-1.89418
3926.000	4.13266	-1.56123	4.14250	-1.85462
3927.000	4.15233	-1.54533	4.14840	-1.91605
3928.000	4.10513	-1.55137	4.16413	-1.84465
3929.000	4.11889	-1.52358	4.21526	-1.87426
3930.000	4.13070	-1.54934	4.16216	-1.88826
3931.000	4.12086	-1.57117	4.10119	-1.84877
3932.000	4.08349	-1.57322	4.23885	-1.88610
3933.000	4.15036	-1.54533	4.16413	-1.84069
3934.000	4.12873	-1.53744	4.16610	-1.85060
3935.000	4.11693	-1.55333	4.17003	-1.88626
3936.000	4.13856	-1.53941	4.19756	-1.88223
3937.000	4.17593	-1.56114	4.13463	-1.87247
3938.000	4.15823	-1.53937	4.14840	-1.84667
3939.000	4.11103	-1.56127	4.10316	-1.80911
3940.000	4.11889	-1.52953	4.19953	-1.93178
3941.000	4.17003	-1.56909	4.14446	-1.87641
3942.000	4.14053	-1.55328	4.16806	-1.82681
3943.000	4.13266	-1.59494	4.15036	-1.82090
3944.000	4.14446	-1.59491	4.21722	-1.89606
3945.000	4.15036	-1.60680	4.15823	-1.89818
3946.000	4.13463	-1.57114	4.20739	-1.85050
3947.000	4.15036	-1.57706	4.15233	-1.88234
3948.000	4.11103	-1.61679	4.17789	-1.88823
3949.000	4.16216	-1.57902	4.17003	-1.81094
3950.000	4.17003	-1.58693	4.18969	-1.89216
3951.000	4.17003	-1.55917	4.10316	-1.81903
3952.000	4.19166	-1.55120	4.20542	-1.87627
3953.000	4.19559	-1.54524	4.15233	-1.86450
3954.000	4.17396	-1.55718	4.13660	-1.80111
3955.000	4.19166	-1.54327	4.19363	-1.89215
3956.000	4.20346	-1.52342	4.18379	-1.90407
3957.000	4.15823	-1.56118	4.13463	-1.85265
3958.000	4.16413	-1.59091	4.18576	-1.87632
3959.000	4.20346	-1.55514	4.12086	-1.87052
3960.000	4.18183	-1.57501	4.12873	-1.87249
3961.000	4.15823	-1.57902	4.11889	-1.93792
3962.000	4.17986	-1.59682	4.15430	-1.87639
3963.000	4.17986	-1.58493	4.11889	-1.81899
3964.000	4.19166	-1.54723	4.12676	-1.83483
3965.000	4.20346	-1.58290	4.13660	-1.86850
3966.000	4.19166	-1.53732	4.12480	-1.87250
3967.000	4.22312	-1.57096	4.21132	-1.88616
3968.000	4.21329	-1.55512	4.11299	-1.88442
3969.000	4.20149	-1.56902	4.17003	-1.85257
3970.000	4.23492	-1.55508	4.16020	-1.85259
3971.000	4.19166	-1.55318	4.11496	-1.94586
3972.000	4.22509	-1.56898	4.16020	-1.85061
3973.000	4.20936	-1.58883	4.18576	-1.82478
3974.000	4.17593	-1.54726	4.14643	-1.83082
3975.000	4.23099	-1.58681	4.16020	-1.86647
3976.000	4.22705	-1.58285	4.13660	-1.80309
3977.000	4.18379	-1.59483	4.23099	-1.79296
3978.000	4.21526	-1.57296	4.15626	-1.79115
3979.000	4.20149	-1.55514	4.17789	-1.79705
3980.000	4.24278	-1.59273	4.07956	-1.88648
3981.000	4.21919	-1.60467	4.08939	-1.83293
3982.000	4.23492	-1.55111	4.12676	-1.80510
3983.000	4.24082	-1.56894	4.16610	-1.91402
3984.000	4.20936	-1.61857	4.15036	-1.85856
3985.000	4.26048	-1.59864	4.15823	-1.88233
3986.000	4.24672	-1.60660	4.16020	-1.85259
3987.000	4.23099	-1.55905	4.09726	-1.88445
3988.000	4.24868	-1.55703	4.09726	-1.82895
3989.000	4.20936	-1.56901	4.16610	-1.88033
3990.000	4.23099	-1.53724	4.13266	-1.79715
3991.000	4.25065	-1.53919	4.15430	-1.88432
3992.000	4.24278	-1.52731	4.11299	-1.87054
3993.000	4.20739	-1.56505	4.11889	-1.90423
3994.000	4.19559	-1.55912	4.07956	-1.89639
3995.000	4.25458	-1.52134	4.16610	-1.76140
3996.000	4.23689	-1.53128	4.10316	-1.82497
3997.000	4.21722	-1.54124	4.17396	-1.88824
3998.000	4.25851	-1.52728	4.19953	-1.90007
3999.000	4.23689	-1.54120	4.10119	-1.86859
4000.000	4.22902	-1.58879	4.10316	-1.79722
4001.000	4.24082	-1.57093	4.11299	-1.87451
4002.000	4.22902	-1.58285	4.15823	-1.83872
4003.000	4.26245	-1.60855	4.15430	-1.93982
4004.000	4.25458	-1.53521	4.17396	-1.83670
4005.000	4.24082	-1.58480	4.12086	-1.82295
4006.000	4.24672	-1.55307	4.10513	-1.81506
4007.000	4.26834	-1.58871	4.08939	-1.81311
4008.000	4.28211	-1.58670	4.16020	-1.81890
4009.000	4.23885	-1.57886	4.17789	-1.80300
4010.000	4.28014	-1.57085	4.13266	-1.84869
4011.000	4.26834	-1.56096	4.07366	-1.82702
4012.000	4.25655	-1.56891	4.05792	-1.79930
4013.000	4.26245	-1.55899	4.11889	-1.84872
4014.000	4.24868	-1.54514	4.12283	-1.78726
4015.000	4.23492	-1.55904	4.18379	-1.82281
4016.000	4.24278	-1.59868	4.15233	-1.84270
4017.000	4.30176	-1.53710	4.15233	-1.85657
4018.000	4.27228	-1.58276	4.11299	-1.83883
4019.000	4.22902	-1.58879	4.17199	-1.83274
4020.000	4.25655	-1.56891	4.10513	-1.92606
4021.000	4.30570	-1.55890	4.19756	-1.89611
4022.000	4.28604	-1.56489	4.23099	-1.82864
4023.000	4.26834	-1.55898	4.13070	-1.86059
4024.000	4.27228	-1.57879	4.14643	-1.84073
4025.000	4.28997	-1.58470	4.13856	-1.77732
4026.000	4.30766	-1.55890	4.12873	-1.90420
4027.000	4.30963	-1.60647	4.15036	-1.84667
4028.000	4.28604	-1.58669	4.05399	-1.78543
4029.000	4.22509	-1.61061	4.16216	-1.78916
4030.000	4.28997	-1.57876	4.10709	-1.86659
4031.000	4.27621	-1.58275	4.17986	-1.78912
4032.000	4.23689	-1.56895	4.20936	-1.88419
4033.000	4.24868	-1.56893	4.07366	-1.81711
4034.000	4.29194	-1.54505	4.18773	-1.83667
4035.000	4.27228	-1.60654	4.09923	-1.89436
4036.000	4.25458	-1.55306	4.07562	-1.87063
4037.000	4.26048	-1.57089	4.09726	-1.80318
4038.000	4.26441	-1.59863	4.15233	-1.85261
4039.000	4.27817	-1.53913	4.19756	-1.85250
4040.000	4.24475	-1.56101	4.07759	-1.88450
4041.000	4.30373	-1.56882	4.18183	-1.85849
4042.000	4.28800	-1.55695	4.10119	-1.84877
4043.000	4.26638	-1.56294	4.15626	-1.78124
4044.000	4.27817	-1.55103	4.09726	-1.81507
4045.000	4.29194	-1.57479	4.20936	-1.79896
4046.000	4.28604	-1.58075	4.11889	-1.79124
4047.000	4.25261	-1.57883	4.15626	-1.81296
4048.000	4.30176	-1.60252	4.24278	-1.83852
4049.000	4.28014	-1.56490	4.17199	-1.85851
4050.000	4.24082	-1.54714	4.10709	-1.82695
4051.000	4.21526	-1.49960	4.16806	-1.81888
4052.000	4.16610	-1.48383	4.16413	-1.78122
4053.000	4.08546	-1.39276	4.01858	-1.71810
4054.000	3.94971	-1.31960	3.89462	-1.67870
4055.000	3.78637	-1.20081	3.80015	-1.59756
4056.000	3.59146	-1.06809	3.53435	-1.48494
4057.000	3.31174	-0.98104	3.35706	-1.37208
4058.000	3.03778	-0.81050	3.05552	-1.17392
4059.000	2.71240	-0.64383	2.76960	-1.05305
4060.000	2.41644	-0.44125	2.46380	-0.88640
4061.000	2.12430	-0.29622	2.15787	-0.66993
4062.000	1.81428	-0.03182	1.88538	-0.48515
4063.000	1.51008	0.19092	1.53774	-0.34206
4064.000	1.28484	0.32022	1.35795	-0.08950
4065.000	1.05165	0.51119	1.11884	0.02785
4066.000	0.91330	0.66635	0.91725	0.21483
4067.000	0.81447	0.78172	0.82633	0.47740
4068.000	0.63262	0.93092	0.73540	0.60273
4069.000	0.64448	1.05819	0.63855	0.76186
4070.000	0.59110	1.11587	0.67610	0.97466
4071.000	0.63459	1.14967	0.67610	0.92693
4072.000	0.69389	1.22323	0.70575	0.89709
4073.000	0.73936	1.23316	0.80656	0.93884
4074.000	0.89353	1.25896	0.84214	1.08996
4075.000	0.97062	1.32851	0.97852	1.02828
4076.000	1.07932	1.31455	1.05165	0.99843
4077.000	1.14058	1.28669	1.12082	0.95466
4078.000	1.24532	1.25484	1.14453	0.94869
4079.000	1.31448	1.28661	1.21765	1.01627
4080.000	1.37573	1.25278	1.20975	0.82935
4081.000	1.40537	1.17126	1.40142	0.82730
4082.000	1.44488	1.14142	1.44093	0.77758
4083.000	1.48242	1.06785	1.47847	0.70598
4084.000	1.51601	1.04000	1.50613	0.62842
4085.000	1.52984	0.94854	1.59503	0.55084
4086.000	1.55552	0.89484	1.57923	0.47330
4087.000	1.56342	0.83122	1.67602	0.43549
4088.000	1.56935	0.68607	1.75108	0.44343
4089.000	1.50415	0.65626	1.61083	0.38182
4090.000	1.51798	0.61450	1.71553	0.27243
4091.000	1.52391	0.56478	1.63454	0.21477
4092.000	1.52193	0.55285	1.64639	0.22272
4093.000	1.43303	0.47730	1.63849	0.15312
4094.000	1.41525	0.52106	1.59305	0.18097
4095.000	1.35004	0.51710	1.55354	0.10540
4096.000	1.31448	0.53500	1.53971	0.17302
4097.000	1.27298	0.56285	1.45279	0.28241
4098.000	1.23741	0.65633	1.37375	0.19491
4099.000	1.19196	0.64441	1.31448	0.31425
4100.000	1.16627	0.66232	1.21963	0.35404
4101.000	1.16429	0.74187	1.18801	0.41570
4102.000	1.13268	0.82540	1.19196	0.38785
4103.000	1.14256	0.87312	1.17615	0.44553
4104.000	1.18208	0.90691	1.11489	0.57084
4105.000	1.11687	0.91887	1.06548	0.65041
4106.000	1.10698	0.94870	1.01014	0.70809
4107.000	1.16034	1.05208	1.09710	0.71603
4108.000	1.13268	1.04016	1.03781	0.81946
4109.000	1.11291	1.04215	1.05758	0.70013
4110.000	1.10896	1.08988	1.07536	0.73592
4111.000	1.17418	1.07196	1.09513	0.73592
4112.000	1.15244	1.05208	1.13860	0.75977
4113.000	1.17220	1.06599	1.13070	0.74983
4114.000	1.16232	1.10179	1.05362	0.72598
4115.000	1.19987	1.02820	1.12082	0.71801
4116.000	1.19394	1.02025	1.20382	0.65236
4117.000	1.18998	1.04411	1.25717	0.69809
4118.000	1.18801	1.01031	1.23148	0.61656
4119.000	1.21765	1.01627	1.18010	0.54895
4120.000	1.21370	1.03615	1.18208	0.63447
4121.000	1.23939	0.99240	1.21765	0.59866
4122.000	1.21172	0.98247	1.28286	0.55490
4123.000	1.25915	0.98046	1.24927	0.64639
4124.000	1.21370	1.01030	1.26903	0.55092
4125.000	1.23346	1.02819	1.18998	0.57083
4126.000	1.20382	0.99639	1.22951	0.58872
4127.000	1.21370	0.99440	1.26310	0.59666
4128.000	1.22753	1.00234	1.30262	0.53500
4129.000	1.21963	0.99837	1.26705	0.55689
4130.000	1.23544	1.04807	1.25915	0.49922
4131.000	1.21765	1.00036	1.22753	0.59468
4132.000	1.24532	1.00433	1.19394	0.58276
4133.000	1.22160	0.96258	1.22358	0.57679
4134.000	1.21567	1.01229	1.21567	0.59270
4135.000	1.24729	0.96058	1.15441	0.62851
4136.000	1.23939	0.96456	1.14058	0.56686
4137.000	1.25915	0.96256	1.16034	0.51713
4138.000	1.23544	0.93275	1.24136	0.54894
4139.000	1.20579	0.93872	1.24729	0.46342
4140.000	1.21370	0.93872	1.19394	0.50718
4141.000	1.21172	0.95065	1.22753	0.63446
4142.000	1.19394	0.89896	1.21765	0.54695
4143.000	1.25124	0.92081	1.23939	0.54894
4144.000	1.21963	0.94269	1.26112	0.46938
4145.000	1.25915	0.97052	1.26112	0.48330
4146.000	1.14651	0.92482	1.19196	0.54895
4147.000	1.22160	0.97650	1.17813	0.60464
4148.000	1.20382	0.95861	1.20777	0.51116
4149.000	1.20975	0.96855	1.27100	0.57678
4150.000	1.22753	0.97451	1.16627	0.61260
4151.000	1.21765	0.96854	1.19196	0.58276
4152.000	1.25520	0.99438	1.17418	0.55691
4153.000	1.22160	0.97650	1.15837	0.57481
4154.000	1.21172	0.96059	1.18208	0.59867
4155.000	1.26112	0.93671	1.21172	0.56088
4156.000	1.25124	0.98643	1.19196	0.57281
4157.000	1.25520	0.96058	1.27891	0.49325
4158.000	1.25124	0.95064	1.19789	0.61856
4159.000	1.23741	0.98643	1.24334	0.58076
4160.000	1.21172	0.95264	1.24136	0.54496
4161.000	1.21963	0.94866	1.21963	0.51712
4162.000	1.23544	0.94865	1.23346	0.49723
4163.000	1.24334	0.92678	1.24532	0.55888
4164.000	1.21370	0.98048	1.17022	0.52509
4165.000	1.23148	0.97649	1.24729	0.55292
4166.000	1.26112	0.95660	1.16825	0.57282
4167.000	1.19394	0.94071	1.20382	0.55889
4168.000	1.17615	0.95663	1.20184	0.59270
4169.000	1.20382	0.96258	1.23939	0.50320
4170.000	1.21963	0.93673	1.17022	0.58475
4171.000	1.26112	0.97052	1.21567	0.57878
4172.000	1.26310	0.98245	1.20975	0.53502
4173.000	1.22358	0.95860	1.21765	0.51513
4174.000	1.22555	0.96456	1.27100	0.58473
4175.000	1.24532	0.96058	1.19789	0.56486
4176.000	1.22555	0.95462	1.17813	0.55094
4177.000	1.23544	0.94269	1.15639	0.60862
4178.000	1.22358	0.94468	1.18406	0.56486
4179.000	1.19987	0.95264	1.20184	0.58077
4180.000	1.22555	0.94269	1.16825	0.58873
4181.000	1.24927	0.96853	1.27298	0.55689
4182.000	1.23939	0.96257	1.22160	0.55690
4183.000	1.22753	0.94468	1.14256	0.54697
4184.000	1.21963	0.97053	1.17813	0.54100
4185.000	1.23544	0.97252	1.24729	0.52507
4186.000	1.25322	0.94666	1.16627	0.58475
4187.000	1.16825	0.93476	1.27693	0.53899
4188.000	1.22753	0.94667	1.18603	0.59867
4189.000	1.19789	0.91287	1.24532	0.55888
4190.000	1.22753	0.93076	1.22951	0.57480
4191.000	1.20777	0.90691	1.19591	0.60861
4192.000	1.22753	0.97451	1.17022	0.57879
4193.000	1.23346	0.93871	1.17813	0.52310
4194.000	1.27496	0.94864	1.19394	0.58475
4195.000	1.23148	0.93474	1.19789	0.61060
4196.000	1.22951	0.95462	1.28088	0.67024
4197.000	1.22555	1.00036	1.20382	0.62054
4198.000	1.24136	1.00433	1.21172	0.63048
4199.000	1.20777	0.95065	1.24927	0.57081
4200.000	1.20579	0.97451	1.13070	0.61062
4201.000	1.21963	0.96656	1.24729	0.56286
4202.000	1.20975	0.95662	1.16232	0.57879
4203.000	1.23148	0.95661	1.25124	0.54695
4204.000	1.21172	0.93474	1.23148	0.60860
4205.000	1.22160	0.93076	1.15639	0.58674
4206.000	1.19394	0.91288	1.25124	0.57479
4207.000	1.24532	0.94467	1.19591	0.61856
4208.000	1.18010	0.94470	1.19196	0.58873
4209.000	1.24927	0.90888	1.20579	0.59867
4210.000	1.20382	0.93475	1.27298	0.53501
4211.000	1.18801	0.92282	1.09908	0.54499
4212.000	1.19987	0.92282	1.19591	0.57878
4213.000	1.24729	0.95064	1.22358	0.59270
4214.000	1.18603	0.93276	1.26508	0.64837
4215.000	1.21370	0.92878	1.26112	0.54893
4216.000	1.24136	0.92280	1.21172	0.51712
4217.000	1.21765	0.91287	1.18406	0.59270
4218.000	1.20579	0.92679	1.27693	0.65036
4219.000	1.19987	0.90094	1.27693	0.51114
4220.000	1.23544	0.93275	1.25915	0.61456
4221.000	1.21370	0.93872	1.24927	0.60661
4222.000	1.18998	0.95662	1.23544	0.58474
4223.000	1.25520	0.96455	1.18010	0.56486
4224.000	1.21172	0.92480	1.19196	0.51912
4225.000	1.21370	0.91088	1.18406	0.52707
4226.000	1.23939	0.91286	1.22951	0.50917
4227.000	1.19394	0.94469	1.18603	0.55492
4228.000	1.19591	0.91685	1.20579	0.56883
4229.000	1.19196	0.90691	1.18406	0.52310
4230.000	1.23741	0.91087	1.27298	0.49722
4231.000	1.23346	0.92082	1.21370	0.52508
4232.000	1.21370	0.89100	1.19987	0.49724
4233.000	1.23939	0.89695	1.24532	0.60661
4234.000	1.23544	0.90491	1.20184	0.51713
4235.000	1.25124	0.91286	1.15244	0.54697
4236.000	1.17615	0.85720	1.25520	0.50518
4237.000	1.21567	0.88304	1.26508	0.47933
4238.000	1.18406	0.87510	1.24729	0.55888
4239.000	1.21765	0.92082	1.27100	0.57479
4240.000	1.18208	0.88106	1.20777	0.60662
4241.000	1.19591	0.91884	1.26310	0.55689
4242.000	1.22160	0.90690	1.15441	0.56089
4243.000	1.23544	0.88105	1.22555	0.49326
4244.000	1.21567	0.90094	1.18801	0.51912
4245.000	1.19789	0.86913	1.29669	0.56484
4246.000	1.19591	0.90293	1.21765	0.51712
4247.000	1.22358	0.89895	1.26508	0.61257
4248.000	1.18406	0.85720	1.21765	0.62452
4249.000	1.23346	0.92280	1.22753	0.47933
4250.000	1.17022	0.87908	1.19394	0.53503
4251.000	1.17220	0.89896	1.16429	0.57282
4252.000	1.18208	0.90691	1.25717	0.53303
4253.000	1.20975	0.90094	1.19789	0.54895
4254.000	1.21370	0.92082	1.21963	0.59270
4255.000	1.20382	0.92480	1.25322	0.55888
4256.000	1.17615	0.89896	1.21370	0.59071
4257.000	1.21567	0.91883	1.22160	0.60264
4258.000	1.20777	0.93474	1.19987	0.55094
4259.000	1.19394	0.91288	1.23544	0.55093
4260.000	1.23939	0.94070	1.16429	0.56089
4261.000	1.19394	0.90691	1.23148	0.59866
4262.000	1.20579	0.89498	1.22753	0.59866
4263.000	1.18603	0.90294	1.20777	0.53304
4264.000	1.17418	0.89697	1.21765	0.54695
4265.000	1.21172	0.94469	1.31052	0.55489
4266.000	1.18406	0.84925	1.26705	0.55490
4267.000	1.23346	0.92479	1.20975	0.59469
4268.000	1.21963	0.93673	1.17220	0.54696
4269.000	1.21963	0.86315	1.19394	0.52707
4270.000	1.19987	0.89697	1.34412	0.59665
4271.000	1.24927	0.88502	1.22753	0.56883
4272.000	1.21765	0.91088	1.23939	0.57479
4273.000	1.25520	0.90689	1.21370	0.60065
4274.000	1.20777	0.90293	1.19987	0.59867
4275.000	1.24334	0.89297	1.14651	0.63050
4276.000	1.22753	0.91485	1.25124	0.66627
4277.000	1.20382	0.92282	1.20579	0.58474
4278.000	1.19789	0.89498	1.30064	0.54893
4279.000	1.17418	0.87311	1.20184	0.64242
4280.000	1.18406	0.89299	1.23148	0.63446
4281.000	1.20975	0.90889	1.25717	0.56683
4282.000	1.18801	0.87907	1.19987	0.56685
4283.000	1.20975	0.90293	1.24334	0.51314
4284.000	1.19789	0.89498	1.28879	0.47137
4285.000	1.19789	0.90890	1.26112	0.53501
4286.000	1.20975	0.91486	1.32436	0.50318
4287.000	1.18998	0.88902	1.20777	0.59668
4288.000	1.16429	0.87908	1.24927	0.57479
4289.000	1.18801	0.87907	1.28286	0.60263
4290.000	1.20184	0.86714	1.26903	0.48927
4291.000	1.21370	0.91486	1.23544	0.58275
4292.000	1.26112	0.88700	1.22358	0.57877
4293.000	1.21172	0.90492	1.28484	0.54296
4294.000	1.20777	0.88503	1.25915	0.57678
4295.000	1.22555	0.88503	1.27100	0.48131
4296.000	1.19987	0.91089	1.29669	0.57876
4297.000	1.21370	0.91486	1.27496	0.46143
4298.000	1.22358	0.89099	1.29472	0.56285
4299.000	1.23544	0.87508	1.22555	0.58275
4300.000	1.18010	0.88703	1.26705	0.60860
4301.000	1.21567	0.90094	1.22358	0.58076
4302.000	1.20975	0.91486	1.25915	0.55291
4303.000	1.24729	0.90888	1.29669	0.59069
4304.000	1.18010	0.90095	1.28879	0.54893
4305.000	1.22951	0.86514	1.21963	0.55889
4306.000	1.21963	0.86315	1.23741	0.56684
4307.000	1.19987	0.85521	1.22753	0.53502
4308.000	1.23741	0.89496	1.20579	0.53502
4309.000	1.23741	0.85718	1.25915	0.50120
4310.000	1.20579	0.86117	1.26112	0.56087
4311.000	1.22555	0.87111	1.26508	0.50120
4312.000	1.24532	0.89297	1.21963	0.51712
4313.000	1.22160	0.91883	1.22358	0.55889
4314.000	1.25322	0.89098	1.20579	0.57878
4315.000	1.21172	0.88901	1.21172	0.54298
4316.000	1.26112	0.95262	1.25520	0.54098
4317.000	1.20975	0.89299	1.30855	0.42363
4318.000	1.24729	0.93473	1.24532	0.51712
4319.000	1.21567	0.89298	1.27693	0.51711
4320.000	1.23148	0.89298	1.26112	0.51115
4321.000	1.19196	0.91089	1.25322	0.52308
4322.000	1.20184	0.87907	1.22160	0.52707
4323.000	1.24729	0.89098	1.23939	0.62650
4324.000	1.27496	0.90291	1.30855	0.56881
4325.000	1.25322	0.86911	1.27100	0.57876
4326.000	1.22951	0.89099	1.17615	0.62055
4327.000	1.22160	0.91287	1.27496	0.49523
4328.000	1.23939	0.89894	1.21172	0.60662
4329.000	1.21370	0.85719	1.29472	0.54893
4330.000	1.20184	0.88305	1.30064	0.50716
4331.000	1.25520	0.88104	1.25124	0.60064
4332.000	1.22160	0.87707	1.23544	0.54098
4333.000	1.20382	0.90691	1.19789	0.58276
4334.000	1.24532	0.83730	1.24136	0.52905
4335.000	1.20579	0.85322	1.20579	0.60264
4336.000	1.20777	0.88503	1.23346	0.54496
4337.000	1.21370	0.87111	1.22358	0.53104
4338.000	1.21765	0.89696	1.23939	0.55093
4339.000	1.20975	0.88901	1.21567	0.50917
4340.000	1.26705	0.89098	1.23346	0.58673
4341.000	1.24334	0.90093	1.36387	0.58073
4342.000	1.26903	0.85916	1.24136	0.49524
4343.000	1.24729	0.84525	1.29472	0.53103
4344.000	1.24532	0.87707	1.26508	0.52308
4345.000	1.22753	0.85719	1.24729	0.57081
4346.000	1.21172	0.87708	1.31448	0.49722
4347.000	1.23346	0.90491	1.29472	0.49921
4348.000	1.19987	0.85123	1.29076	0.55291
4349.000	1.28879	0.92875	1.27100	0.55888
4350.000	1.23346	0.89298	1.22358	0.48132
4351.000	1.24334	0.93473	1.25322	0.53899
4352.000	1.24334	0.86911	1.27298	0.52109
4353.000	1.24729	0.85718	1.18801	0.55492
4354.000	1.23346	0.91883	1.31052	0.56682
4355.000	1.20382	0.88702	1.32238	0.51909
4356.000	1.21765	0.85918	1.25717	0.54695
4357.000	1.25915	0.88700	1.30855	0.52705
4358.000	1.22358	0.86315	1.22753	0.54496
4359.000	1.20975	0.87509	1.21172	0.49922
4360.000	1.22358	0.89895	1.28879	0.53501
4361.000	1.21370	0.88702	1.20382	0.48530
4362.000	1.19789	0.88504	1.24729	0.51314
4363.000	1.21567	0.88702	1.22160	0.59469
4364.000	1.18801	0.86515	1.27298	0.52706
4365.000	1.21765	0.85122	1.28088	0.54694
4366.000	1.22160	0.84725	1.31448	0.53301
4367.000	1.20184	0.84526	1.32238	0.49721
4368.000	1.21370	0.87310	1.34807	0.52903
4369.000	1.21765	0.84128	1.30855	0.53301
4370.000	1.22358	0.84923	1.21963	0.45149
4371.000	1.25322	0.82536	1.24729	0.53700
4372.000	1.22951	0.82935	1.30460	0.48926
4373.000	1.19789	0.78958	1.28879	0.54296
4374.000	1.25520	0.89496	1.28088	0.45148
4375.000	1.18998	0.82140	1.25717	0.52905
4376.000	1.16429	0.84925	1.29274	0.49324
4377.000	1.22753	0.83531	1.25520	0.54496
4378.000	1.20975	0.90094	1.22555	0.52508
4379.000	1.21370	0.84128	1.27298	0.57280
4380.000	1.22160	0.87707	1.28088	0.53302
4381.000	1.18603	0.83135	1.25124	0.52905
4382.000	1.21370	0.86912	1.19196	0.46939
4383.000	1.18406	0.85322	1.34016	0.51113
4384.000	1.20382	0.84924	1.28088	0.54098
4385.000	1.16825	0.84527	1.26705	0.54496
4386.000	1.20184	0.84327	1.26903	0.50120
4387.000	1.20777	0.84526	1.20382	0.49923
4388.000	1.18998	0.86913	1.21963	0.57082
4389.000	1.18208	0.88703	1.29076	0.53103
4390.000	1.17022	0.85124	1.23939	0.49325
4391.000	1.21172	0.84327	1.27298	0.48330
4392.000	1.18010	0.87311	1.28879	0.46938
4393.000	1.18801	0.82538	1.34214	0.49124
4394.000	1.19196	0.80152	1.35004	0.48130
4395.000	1.18208	0.79555	1.33424	0.49721
4396.000	1.18406	0.82141	1.22358	0.54695
4397.000	1.23544	0.83332	1.29867	0.52705
4398.000	1.21370	0.81742	1.25717	0.50717
4399.000	1.18603	0.82339	1.29669	0.48131
4400.000	1.19789	0.82339	1.25322	0.46740
4401.000	1.21172	0.83532	1.26310	0.48927
4402.000	1.18998	0.83930	1.26508	0.48728
4403.000	1.21172	0.85123	1.33819	0.50914
4404.000	1.23741	0.86514	1.24532	0.54297
4405.000	1.22358	0.82537	1.31448	0.51114
4406.000	1.19394	0.84328	1.28088	0.49921
4407.000	1.22753	0.84327	1.32040	0.49721
4408.000	1.18208	0.89896	1.27100	0.48728
4409.000	1.17418	0.84925	1.29274	0.52307
4410.000	1.16429	0.81743	1.21567	0.53303
4411.000	1.20184	0.85918	1.34412	0.46141
4412.000	1.20579	0.86316	1.26112	0.57280
4413.000	1.18208	0.81743	1.26903	0.46540
4414.000	1.16429	0.85919	1.24334	0.54297
4415.000	1.17418	0.83533	1.24532	0.47535
4416.000	1.18603	0.83731	1.27100	0.58871
4417.000	1.18603	0.82936	1.23741	0.49524
4418.000	1.17022	0.82936	1.26508	0.49723
4419.000	1.17022	0.81942	1.23544	0.48331
4420.000	1.16429	0.80749	1.26112	0.54098
4421.000	1.19196	0.78362	1.21765	0.49922
4422.000	1.13860	0.82341	1.28286	0.51711
4423.000	1.17220	0.76175	1.28286	0.51114
4424.000	1.19394	0.80351	1.36783	0.43357
4425.000	1.21172	0.77566	1.20777	0.48928
4426.000	1.17418	0.76970	1.31843	0.47733
4427.000	1.17813	0.79158	1.23544	0.51513
4428.000	1.15837	0.83533	1.34214	0.51710
4429.000	1.19196	0.83532	1.28879	0.51910
4430.000	1.18208	0.82737	1.29669	0.56881
4431.000	1.19591	0.83731	1.31645	0.51511
4432.000	1.18010	0.79754	1.29867	0.45545
4433.000	1.23148	0.85520	1.32040	0.49920
4434.000	1.20975	0.81742	1.22951	0.50320
4435.000	1.17418	0.85919	1.25520	0.49723
4436.000	1.19987	0.82737	1.30064	0.45943
4437.000	1.16034	0.85124	1.28879	0.57478
4438.000	1.17813	0.82141	1.32831	0.46142
4439.000	1.16232	0.80550	1.30460	0.50120
4440.000	1.19394	0.82339	1.24927	0.47137
4441.000	1.18208	0.82936	1.34016	0.54494
4442.000	1.16232	0.76772	1.21765	0.47933
4443.000	1.15639	0.85920	1.28681	0.48131
4444.000	1.13070	0.81347	1.24532	0.50916
4445.000	1.20777	0.80151	1.23939	0.49922
4446.000	1.14848	0.81744	1.26112	0.52109
4447.000	1.17220	0.80948	1.22555	0.51911
4448.000	1.17615	0.77567	1.17220	0.47338
4449.000	1.15046	0.79556	1.25124	0.47535
4450.000	1.17813	0.82141	1.27891	0.53103
4451.000	1.15837	0.80352	1.27693	0.47734
4452.000	1.13860	0.80551	1.22160	0.45746
4453.000	1.16627	0.81942	1.30657	0.54097
4454.000	1.13860	0.81346	1.22555	0.52905
4455.000	1.18603	0.80748	1.26705	0.51910
4456.000	1.19196	0.85322	1.28879	0.47534
4457.000	1.15046	0.81943	1.37573	0.52902
4458.000	1.18010	0.78959	1.29472	0.52108
4459.000	1.20975	0.82140	1.29867	0.43954
4460.000	1.15046	0.79954	1.31250	0.49920
4461.000	1.17022	0.78959	1.26112	0.44154
4462.000	1.20382	0.85322	1.27891	0.45944
4463.000	1.15837	0.76971	1.23346	0.57479
4464.000	1.19196	0.73390	1.22951	0.53303
4465.000	1.17813	0.78760	1.22753	0.50320
4466.000	1.19196	0.77964	1.23939	0.46342
4467.000	1.17022	0.80550	1.23741	0.54297
4468.000	1.16232	0.78363	1.22951	0.49723
4469.000	1.17022	0.79755	1.28088	0.49126
4470.000	1.16627	0.76175	1.25124	0.48728
4471.000	1.17022	0.78363	1.27891	0.52904
4472.000	1.14453	0.75380	1.20777	0.46740
4473.000	1.12082	0.78165	1.28286	0.53700
4474.000	1.12872	0.78761	1.28286	0.53899
4475.000	1.15244	0.74783	1.24136	0.47535
4476.000	1.17615	0.76374	1.25717	0.50120
4477.000	1.14453	0.75977	1.26705	0.51115
4478.000	1.14651	0.77965	1.25717	0.51712
4479.000	1.18208	0.78163	1.22160	0.52905
4480.000	1.16825	0.76573	1.26705	0.48728
4481.000	1.17220	0.74783	1.25717	0.48529
4482.000	1.16825	0.76175	1.25520	0.48927
4483.000	1.17615	0.80749	1.30064	0.51910
4484.000	1.15837	0.77170	1.23741	0.52110
4485.000	1.12872	0.75778	1.21370	0.53502
4486.000	1.16232	0.79755	1.21963	0.53701
4487.000	1.15639	0.78562	1.20382	0.53105
4488.000	1.18998	0.82936	1.26310	0.58473
4489.000	1.18010	0.75180	1.20975	0.53105
4490.000	1.14651	0.81744	1.24136	0.55093
4491.000	1.18603	0.76771	1.30262	0.49324
4492.000	1.14651	0.76176	1.22951	0.47734
4493.000	1.17418	0.75976	1.31645	0.49523
4494.000	1.16429	0.78562	1.24729	0.44552
4495.000	1.16429	0.75976	1.28879	0.50915
4496.000	1.16232	0.76772	1.25322	0.50518
4497.000	1.15046	0.74187	1.21963	0.51911
4498.000	1.16825	0.74783	1.28484	0.43557
4499.000	1.13268	0.76972	1.30262	0.49125
4500.000	1.13268	0.76574	1.31250	0.49125
4501.000	1.13070	0.75182	1.23148	0.45547
4502.000	1.16034	0.75181	1.26310	0.52905
4503.000	1.11094	0.72995	1.25717	0.40574
4504.000	1.14848	0.77170	1.27891	0.49921
4505.000	1.14848	0.73193	1.32436	0.42761
4506.000	1.17418	0.77169	1.18010	0.48730
4507.000	1.16627	0.80152	1.23346	0.48530
4508.000	1.16825	0.78561	1.25915	0.47535
4509.000	1.13268	0.78364	1.28879	0.46540
4510.000	1.13070	0.75182	1.24927	0.36994
4511.000	1.14453	0.74983	1.30460	0.48330
4512.000	1.14848	0.73988	1.24334	0.51712
4513.000	1.18801	0.78362	1.25915	0.49325
4514.000	1.15441	0.76971	1.30657	0.48727
4515.000	1.18998	0.77964	1.25520	0.48927
4516.000	1.16232	0.81346	1.26508	0.46540
4517.000	1.18998	0.80351	1.20382	0.49326
4518.000	1.15837	0.76772	1.25915	0.45148
4519.000	1.15046	0.74585	1.20975	0.51514
4520.000	1.14453	0.74983	1.27496	0.53302
4521.000	1.14256	0.73392	1.19789	0.46741
4522.000	1.18801	0.77765	1.27100	0.52706
4523.000	1.15441	0.75977	1.18010	0.55890
4524.000	1.15837	0.76772	1.21370	0.48132
4525.000	1.14848	0.72994	1.24927	0.52706
4526.000	1.18010	0.73391	1.21567	0.49922
4527.000	1.18406	0.75379	1.22358	0.51513
4528.000	1.16429	0.74584	1.17022	0.50719
4529.000	1.13268	0.77568	1.26310	0.50518
4530.000	1.17813	0.76374	1.22753	0.49524
4531.000	1.14058	0.72596	1.21370	0.53502
4532.000	1.14848	0.73988	1.27298	0.50120
4533.000	1.14848	0.72994	1.22951	0.46939
4534.000	1.16825	0.72397	1.19591	0.53702
4535.000	1.16429	0.73988	1.24334	0.56087
4536.000	1.15244	0.75778	1.27298	0.49524
4537.000	1.12675	0.74187	1.19591	0.48729
4538.000	1.13268	0.76574	1.27496	0.47336
4539.000	1.14256	0.76772	1.21963	0.50917
4540.000	1.11094	0.74983	1.24136	0.51115
4541.000	1.16627	0.77567	1.16429	0.52708
4542.000	1.12675	0.74585	1.23939	0.54894
4543.000	1.11094	0.71006	1.26112	0.49325
4544.000	1.14256	0.76971	1.24729	0.56485
4545.000	1.14058	0.74784	1.18998	0.51514
4546.000	1.13860	0.74983	1.18406	0.50917
4547.000	1.11884	0.71602	1.21370	0.48132
4548.000	1.13663	0.71204	1.20777	0.47735
4549.000	1.09710	0.76177	1.14256	0.53504
4550.000	1.10501	0.72199	1.24927	0.55888
4551.000	1.08722	0.72995	1.13860	0.51913
4552.000	1.13860	0.75977	1.19987	0.55889
4553.000	1.15244	0.75778	1.16232	0.54697
4554.000	1.18406	0.72794	1.21963	0.50718
4555.000	1.14256	0.73789	1.25322	0.50916
4556.000	1.16429	0.76573	1.24136	0.54894
4557.000	1.13860	0.75182	1.21172	0.48132
4558.000	1.16429	0.75380	1.23346	0.51314
