time (ms)	lx (deg)	ly (deg)	rx (deg)	ry (deg)
0.000	0.61878	0.31630	-0.00791	0.18701
1.000	0.58320	0.32625	-0.03756	0.16910
2.000	0.60494	0.29840	-0.05733	0.20491
3.000	0.58913	0.28049	-0.01779	0.29841
4.000	0.59506	0.33420	-0.08699	0.25465
5.000	0.57529	0.33818	-0.08303	0.16512
6.000	0.57529	0.29442	-0.02175	0.15319
7.000	0.59308	0.32625	-0.04547	0.20690
8.000	0.57727	0.30635	-0.10083	0.23475
9.000	0.54959	0.32028	-0.08501	0.16114
10.000	0.57331	0.29442	-0.14827	0.15716
11.000	0.57529	0.28447	-0.07117	0.16313
12.000	0.57924	0.28447	-0.12257	0.19894
13.000	0.59110	0.30238	-0.03756	0.16512
14.000	0.54366	0.31232	-0.06524	0.16313
15.000	0.54959	0.26657	-0.13641	0.16313
16.000	0.59110	0.29243	-0.08699	0.16711
17.000	0.59110	0.24866	-0.04152	0.19099
18.000	0.59308	0.32625	-0.07117	0.15915
19.000	0.56540	0.28447	-0.08699	0.18104
20.000	0.56936	0.29044	-0.10676	0.16711
21.000	0.55354	0.29442	-0.01384	0.17308
22.000	0.57133	0.29442	-0.02175	0.21685
23.000	0.56145	0.24668	-0.15421	0.19894
24.000	0.54959	0.29243	-0.01582	0.19297
25.000	0.55354	0.24469	-0.10280	0.19297
26.000	0.55947	0.28646	-0.10280	0.13329
27.000	0.59506	0.27651	-0.07513	0.19496
28.000	0.54761	0.28447	-0.09885	0.18502
29.000	0.59506	0.27254	-0.08106	0.18701
30.000	0.54959	0.27055	-0.06129	0.13926
31.000	0.58517	0.25861	-0.03163	0.17308
32.000	0.59110	0.28845	-0.05338	0.14523
33.000	0.60099	0.28447	-0.06920	0.15915
34.000	0.60099	0.29442	-0.04745	0.16313
35.000	0.59703	0.29243	-0.08501	0.22083
36.000	0.59110	0.31033	-0.06524	0.19297
37.000	0.58913	0.27055	-0.09292	0.15915
38.000	0.58715	0.31431	-0.07117	0.21088
39.000	0.55354	0.31829	-0.08897	0.17308
40.000	0.53971	0.32824	-0.11269	0.15716
41.000	0.58715	0.33420	-0.04745	0.23077
42.000	0.56343	0.31829	-0.04152	0.18303
43.000	0.57529	0.31630	-0.05931	0.20292
44.000	0.55157	0.31033	-0.10083	0.18303
45.000	0.56936	0.29442	-0.10083	0.18303
46.000	0.57529	0.34614	-0.09292	0.21287
47.000	0.56936	0.32028	-0.05536	0.24470
48.000	0.57133	0.30039	-0.07908	0.17905
49.000	0.52784	0.31233	-0.03163	0.12533
50.000	0.59506	0.30834	-0.08106	0.21884
51.000	0.58320	0.28248	-0.09687	0.16313
52.000	0.55354	0.28447	-0.01384	0.21486
53.000	0.51796	0.28646	-0.09885	0.24072
54.000	0.54168	0.29641	-0.10676	0.23077
55.000	0.57727	0.26657	-0.12060	0.15716
56.000	0.54366	0.29243	-0.03756	0.21685
57.000	0.56145	0.25662	-0.05733	0.22481
58.000	0.53180	0.24071	-0.03163	0.20093
59.000	0.54564	0.28845	-0.08897	0.20491
60.000	0.53575	0.27851	-0.10478	0.22878
61.000	0.53180	0.21286	-0.06920	0.19297
62.000	0.52389	0.25662	-0.09885	0.16313
63.000	0.55947	0.25066	-0.04745	0.19297
64.000	0.53575	0.27055	-0.12850	0.19297
65.000	0.54168	0.25861	-0.05931	0.12136
66.000	0.55552	0.23076	-0.09094	0.16114
67.000	0.55750	0.27055	-0.11664	0.17308
68.000	0.53180	0.23275	-0.09094	0.09947
69.000	0.56936	0.23474	-0.08897	0.22282
70.000	0.55354	0.22281	-0.04152	0.14125
71.000	0.55750	0.27652	-0.06524	0.16711
72.000	0.53971	0.22281	-0.06129	0.12931
73.000	0.54564	0.27851	-0.15421	0.14324
74.000	0.53971	0.24668	-0.07117	0.16114
75.000	0.54168	0.23474	-0.02966	0.22679
76.000	0.51203	0.26259	-0.02768	0.13727
77.000	0.58715	0.24071	-0.06326	0.13926
78.000	0.55947	0.20490	-0.05338	0.15717
79.000	0.59703	0.25463	-0.02372	0.14921
80.000	0.55354	0.23275	0.01582	0.21287
81.000	0.59110	0.23872	-0.06326	0.10743
82.000	0.53378	0.24270	-0.06524	0.17507
83.000	0.55947	0.24867	-0.10874	0.06764
84.000	0.46459	0.27055	-0.07908	0.12334
85.000	0.35586	0.20889	-0.16804	0.15518
86.000	0.23329	0.19695	-0.19968	0.09549
87.000	0.16409	0.21088	-0.39144	0.14523
88.000	0.02966	0.22481	-0.54168	0.14323
89.000	-0.16014	0.23475	-0.61482	0.12931
90.000	-0.29062	0.23873	-0.84412	0.06962
91.000	-0.47052	0.24071	-1.00817	0.11736
92.000	-0.60692	0.24866	-1.18406	0.13724
93.000	-0.77098	0.21285	-1.36783	0.21480
94.000	-0.85005	0.25064	-1.50613	0.21677
95.000	-0.97654	0.21881	-1.53774	0.20086
96.000	-1.01410	0.25461	-1.56145	0.21279
97.000	-1.03979	0.25262	-1.63849	0.21676
98.000	-1.00817	0.24466	-1.64046	0.26647
99.000	-0.97654	0.24864	-1.45871	0.30627
100.000	-0.91132	0.20489	-1.44488	0.21877
101.000	-0.83424	0.15317	-1.40339	0.19093
102.000	-0.73738	0.13527	-1.23741	0.26652
103.000	-0.64250	0.15517	-1.07141	0.21681
104.000	-0.55354	0.14721	-1.02595	0.16907
105.000	-0.50808	0.12135	-0.98050	0.21483
106.000	-0.39737	0.09549	-0.85005	0.16908
107.000	-0.31829	0.12334	-0.86981	0.14521
108.000	-0.29457	0.09549	-0.76110	0.17108
109.000	-0.27480	0.10345	-0.79075	0.15317
110.000	-0.26887	0.12732	-0.79075	0.05769
111.000	-0.27876	0.08157	-0.76110	0.01790
112.000	-0.28864	0.09748	-0.83028	0.07957
113.000	-0.33609	0.06167	-0.78087	0.07161
114.000	-0.33016	0.09549	-0.78680	0.05769
115.000	-0.35388	0.09350	-0.91725	0.08156
116.000	-0.42702	0.09549	-0.86191	0.01989
117.000	-0.43098	0.13329	-0.95480	0.14322
118.000	-0.46656	0.09947	-1.03584	0.12929
119.000	-0.45865	0.13130	-0.95876	0.17703
120.000	-0.49028	0.11140	-1.05362	0.15117
121.000	-0.51203	0.12334	-0.99433	0.17107
122.000	-0.52587	0.17506	-0.98643	0.12532
123.000	-0.50808	0.15318	-1.02793	0.12134
124.000	-0.51203	0.14920	-1.03386	0.19095
125.000	-0.52191	0.16909	-0.98840	0.16311
126.000	-0.55947	0.15517	-1.07536	0.15515
127.000	-0.57924	0.14721	-1.07141	0.21880
128.000	-0.54959	0.17108	-1.06548	0.22477
129.000	-0.51203	0.17307	-1.04177	0.12134
130.000	-0.54761	0.16909	-1.08129	0.15316
131.000	-0.54366	0.14721	-1.09117	0.16907
132.000	-0.53575	0.15318	-1.04177	0.18896
133.000	-0.60494	0.15716	-1.11291	0.19095
134.000	-0.56343	0.17307	-1.08327	0.21084
135.000	-0.59703	0.13726	-1.12675	0.13923
136.000	-0.57529	0.15119	-1.08722	0.14719
137.000	-0.58517	0.07957	-1.06943	0.15714
138.000	-0.59506	0.09947	-1.04769	0.15515
139.000	-0.60099	0.11737	-1.03979	0.12730
140.000	-0.58715	0.06764	-1.05758	0.10542
141.000	-0.58913	0.10941	-1.04967	0.16112
142.000	-0.61087	0.07360	-1.07734	0.15714
143.000	-0.61087	0.09350	-1.08129	0.10940
144.000	-0.55947	0.08952	-1.07141	0.09945
145.000	-0.59703	0.09549	-1.05165	0.14719
146.000	-0.59110	0.10345	-0.92911	0.15714
147.000	-0.58122	0.08952	-1.03584	0.07758
148.000	-0.61482	0.08753	-1.01212	0.10741
149.000	-0.55947	0.05769	-1.00224	0.10542
150.000	-0.54959	0.10742	-1.03979	0.06564
151.000	-0.56343	0.09151	-0.98840	0.10741
152.000	-0.60692	0.06565	-1.02398	0.12134
153.000	-0.54366	0.09151	-0.95085	0.01790
154.000	-0.55552	0.07758	-1.03386	0.10741
155.000	-0.52587	0.07957	-1.01212	0.03978
156.000	-0.55552	0.07361	-1.06153	0.15316
157.000	-0.56343	0.09947	-1.00224	0.05570
158.000	-0.55750	0.04377	-1.03584	0.06763
159.000	-0.55157	0.04377	-1.01805	0.07559
160.000	-0.56343	0.04575	-1.00026	0.12333
161.000	-0.57727	0.06366	-1.02003	0.08553
162.000	-0.60889	0.04973	-0.96073	0.07758
163.000	-0.55552	0.00995	-0.98247	0.09946
164.000	-0.50017	0.05968	-0.98050	-0.01989
165.000	-0.58913	0.05968	-0.97457	0.05172
166.000	-0.53378	0.07758	-1.02200	0.06365
167.000	-0.52389	0.02188	-0.91725	0.07559
168.000	-0.52587	0.06366	-0.97457	0.01591
169.000	-0.51796	0.02984	-1.01607	0.05371
170.000	-0.55947	0.05371	-0.94887	0.02984
171.000	-0.54564	0.08156	-0.96666	0.07559
172.000	-0.56343	0.05371	-0.97259	0.05570
173.000	-0.57529	0.06764	-0.93702	0.04973
174.000	-0.51796	0.05968	-0.98247	0.04973
175.000	-0.56936	0.06366	-0.99631	0.05768
176.000	-0.56936	0.05371	-1.06153	0.12133
177.000	-0.58715	0.03979	-1.02398	-0.01790
178.000	-0.55354	0.03780	-0.88167	0.05769
179.000	-0.55354	0.05968	-1.02200	0.07956
180.000	-0.53773	0.04973	-1.03188	-0.02188
181.000	-0.60889	0.05968	-0.99236	0.01591
182.000	-0.57529	0.03382	-0.95480	0.04177
183.000	-0.56145	0.01790	-1.06153	0.00199
184.000	-0.58913	0.00597	-1.02398	0.04177
185.000	-0.62075	0.01989	-0.99433	0.04774
186.000	-0.54959	0.00597	-1.02793	0.08354
187.000	-0.56145	0.03780	-0.97852	0.04973
188.000	-0.56738	-0.00597	-1.01607	0.04575
189.000	-0.55157	0.02586	-1.02398	0.00199
190.000	-0.55157	0.03382	-1.00224	0.02188
191.000	-0.55354	-0.00199	-1.02595	-0.00398
192.000	-0.55947	0.02785	-0.99631	0.03183
193.000	-0.56343	0.05769	-0.98643	-0.02586
194.000	-0.53378	0.05968	-1.05362	0.01392
195.000	-0.54761	0.04178	-1.02200	0.06166
196.000	-0.53180	0.04377	-0.97654	0.05172
197.000	-0.57924	0.02984	-1.01014	0.04774
198.000	-0.55552	0.03183	-0.97259	0.00597
199.000	-0.57331	0.05172	-1.00224	0.06166
200.000	-0.57331	0.00597	-0.94295	0.00995
201.000	-0.53971	0.03979	-0.99236	0.07758
202.000	-0.60889	0.01393	-0.96271	0.01790
203.000	-0.56343	0.00398	-1.03584	0.01790
204.000	-0.55354	0.01591	-0.99038	0.01193
205.000	-0.52784	0.04178	-0.97457	0.00199
206.000	-0.52587	-0.00199	-0.93899	0.00000
207.000	-0.52587	-0.00199	-0.95480	-0.02984
208.000	-0.55552	0.02188	-0.94097	-0.00398
209.000	-0.57529	0.01393	-0.95876	0.02984
210.000	-0.55552	0.05172	-1.05165	0.04376
211.000	-0.55354	-0.01790	-1.02200	0.00597
212.000	-0.56936	0.01194	-0.98643	-0.00398
213.000	-0.58122	0.00000	-0.94887	-0.06564
214.000	-0.54959	0.05968	-0.98050	0.01989
215.000	-0.55750	0.03382	-0.98840	0.05570
216.000	-0.58913	0.01989	-0.99433	-0.03183
217.000	-0.53575	0.06366	-0.90539	0.05769
218.000	-0.57924	0.01393	-0.97852	0.01989
219.000	-0.53378	0.02785	-1.00224	0.03183
220.000	-0.57727	-0.00398	-0.96864	0.02785
221.000	-0.53773	0.02984	-0.94492	-0.01193
222.000	-0.54366	0.04377	-0.96666	-0.00796
223.000	-0.57727	0.02785	-1.00619	0.00995
224.000	-0.57133	0.00796	-0.97259	0.01392
225.000	-0.52191	0.00000	-0.89749	-0.08752
226.000	-0.55354	0.02785	-0.95283	-0.01392
227.000	-0.53773	-0.01393	-0.98247	0.06564
228.000	-0.53575	0.03382	-0.97457	0.01989
229.000	-0.50808	0.05968	-1.00026	0.04177
230.000	-0.52389	0.02188	-0.96073	-0.02984
231.000	-0.51598	0.03780	-0.91923	0.02188
232.000	-0.56343	-0.00597	-1.02003	-0.01989
233.000	-0.54959	0.00995	-0.91527	-0.01591
234.000	-0.53575	-0.00796	-0.93702	-0.00398
235.000	-0.50215	0.02586	-0.94492	0.01790
236.000	-0.52389	0.04178	-0.92516	-0.06763
237.000	-0.48040	0.02586	-0.97654	0.02188
238.000	-0.51598	0.03780	-0.86784	-0.00597
239.000	-0.54564	0.04178	-0.93899	0.00398
240.000	-0.47447	0.01393	-0.94295	-0.01790
241.000	-0.49226	0.05968	-1.01805	-0.03580
242.000	-0.50808	0.03382	-0.92318	-0.03183
243.000	-0.51203	0.01790	-0.97852	-0.01392
244.000	-0.50808	0.03581	-0.99433	0.00199
245.000	-0.49819	0.00199	-1.01014	-0.04376
246.000	-0.47645	0.06167	-0.96073	-0.01790
247.000	-0.51005	-0.00597	-0.93504	-0.06763
248.000	-0.50215	0.04973	-0.89946	-0.03581
249.000	-0.49424	0.02785	-0.87772	0.00199
250.000	-0.52587	0.03780	-0.98643	-0.05172
251.000	-0.50017	0.02785	-0.93899	-0.02387
252.000	-0.51796	0.03382	-1.01607	0.00995
253.000	-0.50412	0.01194	-0.97654	-0.03183
254.000	-0.52389	0.02586	-0.91923	-0.07957
255.000	-0.54564	0.04178	-0.94887	-0.04376
256.000	-0.53971	0.01989	-0.98050	0.00398
257.000	-0.53575	0.02586	-0.97259	0.01392
258.000	-0.50017	0.03382	-0.99038	-0.07360
259.000	-0.50215	0.05371	-0.91725	-0.02785
260.000	-0.49819	0.05371	-0.95085	-0.02785
261.000	-0.50215	0.02984	-1.01410	-0.04177
262.000	-0.51401	0.00199	-0.99236	-0.06962
263.000	-0.53180	0.03979	-1.03979	-0.06166
264.000	-0.48633	0.02785	-0.96271	0.02387
265.000	-0.49622	0.03780	-0.94097	-0.04575
266.000	-0.53773	0.00597	-1.02398	-0.05768
267.000	-0.54366	-0.02785	-0.93899	-0.03382
268.000	-0.49226	0.01194	-0.99038	-0.02984
269.000	-0.53378	0.02387	-0.93109	-0.03183
270.000	-0.48633	0.05371	-0.94295	-0.00995
271.000	-0.52587	0.03581	-0.97852	-0.07360
272.000	-0.54366	0.02586	-0.93899	-0.03581
273.000	-0.53971	0.01790	-0.96666	0.01591
274.000	-0.54761	0.03183	-1.02200	-0.01591
275.000	-0.51203	0.03979	-0.94690	-0.06166
276.000	-0.54564	-0.03979	-0.92713	0.01790
277.000	-0.52784	0.01393	-1.00026	0.01392
278.000	-0.51796	0.00000	-0.98050	-0.03580
279.000	-0.54959	-0.03780	-0.97457	-0.08354
280.000	-0.52389	0.05172	-0.91725	-0.09150
281.000	-0.48831	0.00398	-0.93504	0.01790
282.000	-0.48831	0.01790	-0.95283	-0.01790
283.000	-0.45272	0.00796	-0.88563	-0.03382
284.000	-0.53971	0.00199	-0.96073	0.03978
285.000	-0.50412	0.01790	-0.93504	-0.01591
286.000	-0.46459	0.02984	-0.91527	0.04973
287.000	-0.53378	0.01591	-0.94690	0.04376
288.000	-0.46063	0.00398	-0.97457	-0.02387
289.000	-0.49622	0.02387	-0.96469	-0.03978
290.000	-0.48040	0.00995	-0.99829	0.02586
291.000	-0.49028	0.00398	-0.93306	-0.00199
292.000	-0.49819	0.04178	-0.86388	-0.00796
293.000	-0.54761	-0.01194	-0.88167	-0.00398
294.000	-0.50017	0.00000	-0.92318	0.05371
295.000	-0.48040	-0.00199	-1.04177	-0.03580
296.000	-0.51203	-0.01790	-1.00026	-0.04376
297.000	-0.51796	-0.01194	-0.86586	0.00796
298.000	-0.56145	-0.01194	-0.92911	-0.05172
299.000	-0.51401	0.00000	-1.00817	0.00000
300.000	-0.51598	0.03581	-0.99829	-0.02387
301.000	-0.49622	0.03183	-0.96271	-0.03382
302.000	-0.53971	0.00796	-1.01607	-0.04575
303.000	-0.52389	-0.07758	-0.97457	-0.02387
304.000	-0.52191	-0.01591	-0.94097	0.01790
305.000	-0.50610	-0.01393	-1.02595	-0.02387
306.000	-0.53773	0.03382	-0.97852	0.02188
307.000	-0.49819	0.05172	-1.01410	0.00199
308.000	-0.51005	0.03183	-0.93899	-0.02188
309.000	-0.50017	-0.00398	-0.99038	-0.03183
310.000	-0.51598	0.02586	-0.92516	-0.00199
311.000	-0.52389	0.02785	-0.97457	0.03580
312.000	-0.50017	0.01591	-1.01212	-0.04973
313.000	-0.51203	0.02188	-0.90737	-0.00796
314.000	-0.54168	0.03183	-0.99038	0.04376
315.000	-0.56936	0.00398	-0.97457	0.01193
316.000	-0.53378	0.01790	-1.01212	-0.03978
317.000	-0.53378	-0.01393	-0.96073	0.02387
318.000	-0.56738	-0.03581	-1.00817	0.05172
319.000	-0.53971	-0.00597	-0.95480	0.07758
320.000	-0.51401	0.02188	-0.99038	0.03183
321.000	-0.51005	0.01194	-0.96666	-0.07957
322.000	-0.49424	0.00398	-0.93109	-0.03183
323.000	-0.52191	0.02387	-0.89946	0.03978
324.000	-0.54168	-0.02785	-0.91725	-0.01194
325.000	-0.52784	-0.02586	-0.94887	-0.03779
326.000	-0.52587	-0.02188	-1.00421	-0.01392
327.000	-0.55552	-0.03780	-1.03386	0.11139
328.000	-0.52784	-0.00398	-0.96469	-0.01591
329.000	-0.52389	-0.00796	-0.94295	0.01392
330.000	-0.49819	0.01393	-1.10303	-0.03779
331.000	-0.52982	0.00995	-1.03386	0.02984
332.000	-0.52389	0.02586	-0.95876	-0.00995
333.000	-0.50017	0.00796	-0.96864	0.06166
334.000	-0.52587	0.00796	-1.02595	0.04973
335.000	-0.55354	-0.03780	-0.97457	0.05172
336.000	-0.51005	0.00000	-1.03781	-0.03381
337.000	-0.52191	-0.01393	-1.00817	-0.06166
338.000	-0.50412	0.03382	-0.96469	-0.00995
339.000	-0.48040	-0.01194	-0.90737	-0.01392
340.000	-0.48633	-0.00796	-1.01410	0.01989
341.000	-0.46854	-0.00995	-1.05560	0.02785
342.000	-0.47842	0.02188	-1.01212	-0.06962
343.000	-0.50808	0.01989	-1.00421	0.04177
344.000	-0.49028	0.01790	-1.04374	-0.03183
345.000	-0.47842	0.01790	-1.02991	-0.05172
346.000	-0.50808	0.02586	-1.01212	-0.02984
347.000	-0.50808	0.01790	-0.91330	0.01591
348.000	-0.53378	0.00995	-1.05165	0.00597
349.000	-0.54959	0.00796	-0.92318	-0.01790
350.000	-0.48040	0.01393	-1.04374	0.08951
351.000	-0.52587	0.00995	-0.98643	0.01989
352.000	-0.48435	0.02984	-0.94492	0.05371
353.000	-0.57133	0.01989	-0.99433	0.00995
354.000	-0.50017	-0.01393	-0.99236	0.03382
355.000	-0.51401	0.01989	-0.95876	-0.02984
356.000	-0.52982	0.01393	-1.01805	0.03382
357.000	-0.48831	0.04973	-1.00224	-0.01193
358.000	-0.50412	0.02785	-0.98445	-0.01193
359.000	-0.52191	0.03780	-0.94295	0.04973
360.000	-0.49819	0.06565	-1.02200	0.00995
361.000	-0.56343	-0.03780	-1.03781	0.03779
362.000	-0.53971	0.01591	-1.03188	0.01790
363.000	-0.56936	-0.06167	-0.96864	0.00995
364.000	-0.52784	0.05570	-1.00026	0.03580
365.000	-0.53378	-0.00796	-0.98643	-0.08752
366.000	-0.50215	0.01393	-1.00224	-0.03779
367.000	-0.51796	-0.01989	-1.01607	0.02387
368.000	-0.50808	-0.01591	-0.97654	-0.03580
369.000	-0.50017	-0.03382	-0.89353	0.03183
370.000	-0.54168	-0.01591	-0.91923	-0.00398
371.000	-0.53773	-0.01393	-0.97457	0.00398
372.000	-0.52982	-0.03780	-1.00224	-0.10343
373.000	-0.57529	-0.00995	-0.93306	-0.10145
374.000	-0.51796	-0.01194	-0.98247	-0.05570
375.000	-0.51598	-0.04178	-0.97852	-0.11935
376.000	-0.54366	-0.00597	-1.04572	-0.02984
377.000	-0.50610	-0.01194	-0.98247	-0.07758
378.000	-0.51203	-0.00995	-0.95678	0.02586
379.000	-0.49424	-0.00995	-0.97259	-0.05371
380.000	-0.49028	-0.01790	-1.03781	0.01392
381.000	-0.49622	-0.02984	-0.95480	0.01392
382.000	-0.49028	-0.01989	-0.93504	0.00000
383.000	-0.55947	-0.04575	-0.97259	-0.12134
384.000	-0.53971	-0.01393	-0.96073	-0.01790
385.000	-0.48831	0.00000	-0.96666	-0.02785
386.000	-0.51203	-0.03979	-0.98050	0.01591
387.000	-0.50610	0.01393	-0.96469	-0.02785
388.000	-0.48435	-0.01790	-0.98840	-0.08354
389.000	-0.51796	-0.03382	-1.05758	-0.03183
390.000	-0.51005	0.01591	-1.01212	-0.05172
391.000	-0.54366	-0.02586	-0.99433	-0.01193
392.000	-0.51796	0.02387	-0.97457	-0.08752
393.000	-0.49622	0.03780	-0.95480	-0.02188
394.000	-0.44877	0.03581	-0.99631	0.01989
395.000	-0.49622	0.02984	-0.99038	-0.06763
396.000	-0.50017	0.01194	-1.04177	-0.02785
397.000	-0.50610	0.03183	-0.93899	0.00796
398.000	-0.52982	0.07758	-1.02003	-0.02984
399.000	-0.48238	-0.00199	-0.93504	-0.01392
400.000	-0.47447	-0.01393	-0.93109	-0.03183
401.000	-0.47842	-0.00199	-0.98445	-0.04575
402.000	-0.48040	-0.02984	-0.94097	-0.01591
403.000	-0.43889	-0.03183	-0.96469	0.03580
404.000	-0.48040	0.01591	-0.99038	-0.00597
405.000	-0.44482	-0.00398	-0.96469	-0.05371
406.000	-0.43296	-0.00398	-0.99631	0.00597
407.000	-0.49622	-0.00995	-1.01410	-0.04376
408.000	-0.47645	0.02984	-0.98840	-0.01989
409.000	-0.49424	0.04377	-0.97852	0.02188
410.000	-0.49424	0.01591	-0.92911	-0.00995
411.000	-0.47052	0.05570	-0.94492	-0.04774
412.000	-0.49028	0.03581	-0.93306	-0.00995
413.000	-0.47249	0.04377	-0.94690	0.00398
414.000	-0.50017	0.04178	-0.98643	-0.06962
415.000	-0.48633	0.05172	-0.93306	-0.01989
416.000	-0.46656	0.03183	-0.96666	-0.04774
417.000	-0.47249	-0.00597	-0.97457	-0.02586
418.000	-0.45865	0.03183	-0.95876	-0.03978
419.000	-0.47052	0.02188	-0.93109	0.01591
420.000	-0.47842	0.00995	-0.89749	-0.03581
421.000	-0.48238	0.05172	-0.95085	-0.03978
422.000	-0.47842	-0.01194	-0.93504	-0.07559
423.000	-0.49424	-0.03979	-0.85796	0.04376
424.000	-0.46656	-0.01194	-0.85005	-0.02188
425.000	-0.44877	-0.03979	-0.81842	0.02785
426.000	-0.41319	-0.00597	-0.87179	-0.02984
427.000	-0.38749	-0.02785	-0.79075	-0.03183
428.000	-0.32620	-0.04377	-0.81645	-0.01591
429.000	-0.34202	-0.01790	-0.80459	0.04973
430.000	-0.29259	0.04178	-0.77494	0.06167
431.000	-0.28469	0.10544	-0.72157	-0.00597
432.000	-0.28469	0.11738	-0.74331	0.03183
433.000	-0.35981	0.06167	-0.71564	0.03183
434.000	-0.33016	0.09947	-0.75122	0.10344
435.000	-0.35586	0.11737	-0.80063	0.10941
436.000	-0.40923	0.10942	-0.81447	0.08952
437.000	-0.38156	0.11141	-0.73936	0.09350
438.000	-0.38946	0.07958	-0.80063	0.09349
439.000	-0.44482	0.10743	-0.83028	0.09548
440.000	-0.44482	0.10544	-0.74331	-0.00398
441.000	-0.47842	0.06167	-0.81842	-0.00398
442.000	-0.46656	0.03780	-0.86586	-0.03581
443.000	-0.44482	0.01194	-0.90737	0.03183
444.000	-0.46459	0.00000	-0.87179	-0.00199
445.000	-0.43296	0.06366	-0.89946	0.03779
446.000	-0.44086	0.00796	-0.84214	0.01591
447.000	-0.42702	0.00597	-0.83621	0.00199
448.000	-0.37563	0.01989	-0.79668	-0.02984
449.000	-0.39935	0.03382	-0.84807	0.02188
450.000	-0.44284	-0.02586	-0.76308	-0.01790
451.000	-0.41121	0.01194	-0.78482	0.08554
452.000	-0.44284	-0.02586	-0.77691	0.03979
453.000	-0.44679	-0.00597	-0.84610	0.00199
454.000	-0.36772	0.01989	-0.80656	0.03780
455.000	-0.41319	0.03581	-0.73738	-0.02387
456.000	-0.41121	0.05371	-0.79273	0.00796
457.000	-0.41121	0.05570	-0.79668	0.06962
458.000	-0.46459	0.03581	-0.79866	0.01194
459.000	-0.41714	0.01592	-0.73936	0.00597
460.000	-0.41714	0.00000	-0.85993	-0.02984
461.000	-0.45668	-0.00398	-0.80261	0.08753
462.000	-0.42702	0.00796	-0.81052	0.08355
463.000	-0.46261	0.06167	-0.75319	-0.00597
464.000	-0.41121	0.00398	-0.83424	-0.02387
465.000	-0.37563	0.04576	-0.82435	-0.08952
466.000	-0.40133	0.03581	-0.68994	0.00398
467.000	-0.44284	0.01790	-0.70180	0.02188
468.000	-0.39342	0.04178	-0.78680	-0.04973
469.000	-0.37760	0.05570	-0.85203	0.04575
470.000	-0.40528	0.02785	-0.73936	-0.01989
471.000	-0.43493	0.04178	-0.79668	-0.08156
472.000	-0.43691	0.05371	-0.83226	0.04376
473.000	-0.40330	0.05968	-0.79273	-0.05570
474.000	-0.39144	0.04178	-0.74726	0.02387
475.000	-0.39737	0.01194	-0.75912	0.01591
476.000	-0.38551	0.06366	-0.78680	0.00000
477.000	-0.39737	0.01393	-0.75715	0.02188
478.000	-0.38946	0.05172	-0.71959	-0.02387
479.000	-0.36574	0.05172	-0.78087	-0.02387
480.000	-0.37365	0.03780	-0.73145	-0.00796
481.000	-0.34795	0.05570	-0.64448	-0.02984
482.000	-0.36179	0.06764	-0.81645	0.00000
483.000	-0.35981	0.06764	-0.76110	0.00199
484.000	-0.37167	0.08753	-0.78877	-0.01790
485.000	-0.40923	0.03780	-0.83226	-0.07161
486.000	-0.36179	0.06565	-0.77494	0.02984
487.000	-0.35783	0.08157	-0.73145	-0.07957
488.000	-0.35388	0.05570	-0.75715	-0.02586
489.000	-0.34993	0.05769	-0.76703	-0.07559
490.000	-0.32818	0.07560	-0.81645	-0.02387
491.000	-0.37958	0.07361	-0.80459	-0.02785
492.000	-0.33016	0.09350	-0.71168	-0.03382
493.000	-0.29852	0.10544	-0.75319	-0.09151
494.000	-0.30050	0.07759	-0.69785	-0.05570
495.000	-0.35783	0.07560	-0.80261	-0.01790
496.000	-0.33609	0.09549	-0.74133	-0.04575
497.000	-0.32027	0.07958	-0.74529	-0.07957
498.000	-0.29062	0.09151	-0.70378	-0.11936
499.000	-0.33609	0.08157	-0.70575	-0.08753
500.000	-0.32225	0.00995	-0.75319	-0.09350
501.000	-0.31829	0.08554	-0.70378	-0.03581
502.000	-0.36179	0.04377	-0.69192	-0.02984
503.000	-0.34202	0.06366	-0.72552	-0.12731
504.000	-0.32422	0.06963	-0.71564	-0.02387
505.000	-0.31236	0.05570	-0.68599	-0.11339
506.000	-0.30248	0.05570	-0.73540	-0.05371
507.000	-0.34597	0.05172	-0.66424	-0.08753
508.000	-0.34202	0.09151	-0.75517	-0.11538
509.000	-0.32620	0.09151	-0.73145	-0.10145
510.000	-0.31434	0.03780	-0.67413	-0.06565
511.000	-0.30446	0.06167	-0.68796	-0.06963
512.000	-0.29655	0.10146	-0.70575	-0.09549
513.000	-0.33806	0.04178	-0.75122	-0.03979
514.000	-0.27282	0.04974	-0.76308	0.00000
515.000	-0.34202	0.03581	-0.71761	-0.08554
516.000	-0.30841	0.04377	-0.73343	-0.11140
517.000	-0.29062	0.02188	-0.77296	-0.09548
518.000	-0.33609	0.02586	-0.80854	-0.11339
519.000	-0.30446	0.03382	-0.80063	-0.05371
520.000	-0.28864	0.07759	-0.71761	-0.11737
521.000	-0.26887	0.06565	-0.66424	-0.06764
522.000	-0.28271	0.05371	-0.74924	-0.06366
523.000	-0.30446	0.01989	-0.71564	-0.04575
524.000	-0.25108	0.08157	-0.74529	-0.06366
525.000	-0.28469	0.03581	-0.77889	-0.09151
526.000	-0.27085	0.09151	-0.76505	-0.03382
527.000	-0.24712	0.06764	-0.78284	-0.11737
528.000	-0.25899	0.11738	-0.74331	-0.07559
529.000	-0.25899	0.06167	-0.65634	-0.11936
530.000	-0.25108	0.07759	-0.70575	-0.05371
531.000	-0.25899	0.04377	-0.72552	-0.04177
532.000	-0.29062	0.05570	-0.73936	-0.02586
533.000	-0.27282	0.07958	-0.79866	-0.08952
534.000	-0.29259	0.05371	-0.71168	-0.06366
535.000	-0.26096	0.06167	-0.74726	-0.07758
536.000	-0.27678	0.04576	-0.73936	-0.13925
537.000	-0.24515	0.02984	-0.73540	-0.05570
538.000	-0.25503	0.05172	-0.83226	-0.09548
539.000	-0.27085	0.06565	-0.76308	-0.11936
540.000	-0.28469	0.03183	-0.75912	-0.07957
541.000	-0.28073	0.10345	-0.72552	-0.10344
542.000	-0.27085	0.09350	-0.73343	-0.03780
543.000	-0.28666	0.01989	-0.71761	-0.09350
544.000	-0.28271	0.10146	-0.79866	-0.08753
545.000	-0.28666	0.08554	-0.70378	-0.06565
546.000	-0.27282	0.07958	-0.71168	-0.13129
547.000	-0.25305	0.12533	-0.75122	-0.07559
548.000	-0.30248	0.09350	-0.77098	-0.02984
549.000	-0.27480	0.10743	-0.77691	-0.13129
550.000	-0.32422	0.06764	-0.74726	-0.09747
551.000	-0.25305	0.10146	-0.74331	-0.13527
552.000	-0.24515	0.11340	-0.72750	-0.14920
553.000	-0.26096	0.09549	-0.79075	-0.11737
554.000	-0.26887	0.09350	-0.86388	-0.11736
555.000	-0.27282	0.09549	-0.77296	-0.13925
556.000	-0.27282	0.09947	-0.72947	-0.10941
557.000	-0.26096	0.07958	-0.73343	-0.13726
558.000	-0.24119	0.07958	-0.74924	-0.10941
559.000	-0.24910	0.09748	-0.67215	-0.13129
560.000	-0.26689	0.08753	-0.81249	-0.07360
561.000	-0.23526	0.05172	-0.78284	-0.11737
562.000	-0.26096	0.10345	-0.75912	-0.13328
563.000	-0.28864	0.08554	-0.74726	-0.12333
564.000	-0.25503	0.07958	-0.68796	-0.16909
565.000	-0.26096	0.07162	-0.72750	-0.15317
566.000	-0.23922	0.09151	-0.78482	-0.17505
567.000	-0.22538	0.11340	-0.73343	-0.06962
568.000	-0.27480	0.08356	-0.74529	-0.14919
569.000	-0.26887	0.07759	-0.67413	-0.18103
570.000	-0.24317	0.13528	-0.76110	-0.10543
571.000	-0.26887	0.07560	-0.75715	-0.11140
572.000	-0.26492	0.11936	-0.77691	-0.13328
573.000	-0.28073	0.10146	-0.72157	-0.15715
574.000	-0.26887	0.12135	-0.73540	-0.18500
575.000	-0.23526	0.09549	-0.69785	-0.18500
576.000	-0.27282	0.10345	-0.75912	-0.19495
577.000	-0.25305	0.08157	-0.76110	-0.17903
578.000	-0.21549	0.04576	-0.68599	-0.08554
579.000	-0.22735	0.11340	-0.77098	-0.12731
580.000	-0.26492	0.05968	-0.73738	-0.11737
581.000	-0.23922	0.08157	-0.71959	-0.16909
582.000	-0.23922	0.08753	-0.69389	-0.13328
583.000	-0.25503	0.05172	-0.74331	-0.20887
584.000	-0.25305	0.04178	-0.69587	-0.14920
585.000	-0.27480	0.06963	-0.69587	-0.18500
586.000	-0.28073	0.08952	-0.70180	-0.17506
587.000	-0.30050	0.08952	-0.71564	-0.09350
588.000	-0.22340	0.08555	-0.80063	-0.18699
589.000	-0.31434	0.05769	-0.65831	-0.18699
590.000	-0.28666	0.04775	-0.65436	-0.20092
591.000	-0.29259	0.03780	-0.78482	-0.17704
592.000	-0.30446	0.06565	-0.74726	-0.22678
593.000	-0.25899	0.04775	-0.68203	-0.20888
594.000	-0.25701	0.06167	-0.69192	-0.18301
595.000	-0.26689	0.07361	-0.73145	-0.18102
596.000	-0.28864	0.08554	-0.68994	-0.18103
597.000	-0.27876	0.07361	-0.75319	-0.23871
598.000	-0.27876	0.11340	-0.68796	-0.23275
599.000	-0.28271	0.07759	-0.65436	-0.19097
600.000	-0.25701	0.08554	-0.65041	-0.16113
601.000	-0.22142	0.06963	-0.71168	-0.15119
602.000	-0.21945	0.06565	-0.74331	-0.21683
603.000	-0.23724	0.03979	-0.65831	-0.13925
604.000	-0.23724	0.06167	-0.76505	-0.13129
605.000	-0.23526	0.09947	-0.68006	-0.12731
606.000	-0.26294	0.07560	-0.66820	-0.21683
607.000	-0.26492	0.06167	-0.69587	-0.13726
608.000	-0.26294	0.10743	-0.67808	-0.07161
609.000	-0.24515	0.10743	-0.69785	-0.16710
610.000	-0.24712	0.08356	-0.74726	-0.17307
611.000	-0.25503	0.05172	-0.69982	-0.22678
612.000	-0.24712	0.07759	-0.67808	-0.19296
613.000	-0.19968	0.09748	-0.74529	-0.18898
614.000	-0.26689	0.06963	-0.69587	-0.22678
615.000	-0.25701	0.10345	-0.67610	-0.16909
616.000	-0.24712	0.12533	-0.72157	-0.13328
617.000	-0.25899	0.09947	-0.69785	-0.13925
618.000	-0.26492	0.07958	-0.66029	-0.16312
619.000	-0.23329	0.09151	-0.69785	-0.20092
620.000	-0.21549	0.04775	-0.76308	-0.18102
621.000	-0.19770	0.09947	-0.65831	-0.17705
622.000	-0.19770	0.10146	-0.70773	-0.17307
623.000	-0.25305	0.06963	-0.66622	-0.14124
624.000	-0.20363	0.08356	-0.68796	-0.18103
625.000	-0.23922	0.08554	-0.72750	-0.17705
626.000	-0.24910	0.11738	-0.70378	-0.13527
627.000	-0.21945	0.06764	-0.73343	-0.16909
628.000	-0.24910	0.10146	-0.68796	-0.12731
629.000	-0.21154	0.04974	-0.63855	-0.12732
630.000	-0.22538	0.07361	-0.78284	-0.11935
631.000	-0.20758	0.08753	-0.65238	-0.16710
632.000	-0.19177	0.10942	-0.67017	-0.19495
633.000	-0.19770	0.07361	-0.68599	-0.15318
634.000	-0.18584	0.10942	-0.69982	-0.16113
635.000	-0.18781	0.09748	-0.67808	-0.17108
636.000	-0.17595	0.09350	-0.70971	-0.16312
637.000	-0.18386	0.07162	-0.77494	-0.21086
638.000	-0.20561	0.15319	-0.68994	-0.15318
639.000	-0.16409	0.11738	-0.66227	-0.17705
640.000	-0.19968	0.08952	-0.66424	-0.20291
641.000	-0.19770	0.10345	-0.74726	-0.19495
642.000	-0.21945	0.14722	-0.73738	-0.15516
643.000	-0.19375	0.07759	-0.65831	-0.18302
644.000	-0.18979	0.09947	-0.68599	-0.11140
645.000	-0.17398	0.10942	-0.66227	-0.09748
646.000	-0.17595	0.12135	-0.70971	-0.09350
647.000	-0.20758	0.07560	-0.63855	-0.23673
648.000	-0.15025	0.06764	-0.72947	-0.21484
649.000	-0.17991	0.05769	-0.65436	-0.13129
650.000	-0.20561	0.08157	-0.69785	-0.24866
651.000	-0.22142	0.04377	-0.69982	-0.15914
652.000	-0.19572	0.08952	-0.71168	-0.22081
653.000	-0.17991	0.07759	-0.68994	-0.19495
654.000	-0.21352	0.07560	-0.76703	-0.15118
655.000	-0.18979	0.08952	-0.68006	-0.18500
656.000	-0.21352	0.09549	-0.72947	-0.18500
657.000	-0.22340	0.08753	-0.70575	-0.22877
658.000	-0.18584	0.09151	-0.66820	-0.26259
659.000	-0.17200	0.13528	-0.69587	-0.11339
660.000	-0.16211	0.12334	-0.72157	-0.09151
661.000	-0.15816	0.13727	-0.71564	-0.13925
662.000	-0.13048	0.11738	-0.72157	-0.14522
663.000	-0.14234	0.14722	-0.69982	-0.15317
664.000	-0.11664	0.13727	-0.71564	-0.17108
665.000	-0.14630	0.12136	-0.72354	-0.18301
666.000	-0.12257	0.17308	-0.76703	-0.20489
667.000	-0.16607	0.17507	-0.69982	-0.17705
668.000	-0.09292	0.10146	-0.72552	-0.23075
669.000	-0.11269	0.10544	-0.71959	-0.26855
670.000	-0.10478	0.17109	-0.68401	-0.18898
671.000	-0.10083	0.14324	-0.80656	-0.21882
672.000	-0.04745	0.19894	-0.68599	-0.16312
673.000	-0.09885	0.15120	-0.82040	-0.17704
674.000	-0.13246	0.19496	-0.67215	-0.23871
675.000	-0.09292	0.20491	-0.69982	-0.17307
676.000	-0.14630	0.20093	-0.71564	-0.18699
677.000	-0.11862	0.17706	-0.67215	-0.16511
678.000	-0.10874	0.17507	-0.63855	-0.20689
679.000	-0.16804	0.12931	-0.75715	-0.19694
680.000	-0.07513	0.15518	-0.72354	-0.20688
681.000	-0.11664	0.12931	-0.75715	-0.24667
682.000	-0.09094	0.19496	-0.64645	-0.16909
683.000	-0.11269	0.14324	-0.69587	-0.20689
684.000	-0.11269	0.19098	-0.65238	-0.23474
685.000	-0.08501	0.18303	-0.68006	-0.26259
686.000	-0.11071	0.16313	-0.73343	-0.23075
687.000	-0.12257	0.16114	-0.65436	-0.21285
688.000	-0.16409	0.08753	-0.74133	-0.18898
689.000	-0.11467	0.14921	-0.79273	-0.19693
690.000	-0.16211	0.12931	-0.66227	-0.17705
691.000	-0.10676	0.15716	-0.65634	-0.14721
692.000	-0.15025	0.14921	-0.72750	-0.21882
693.000	-0.12060	0.12931	-0.65238	-0.24070
694.000	-0.07315	0.17109	-0.72552	-0.19495
695.000	-0.14234	0.14722	-0.76308	-0.13925
696.000	-0.12850	0.16711	-0.69389	-0.19495
697.000	-0.09490	0.18900	-0.61087	-0.17904
698.000	-0.12060	0.13926	-0.75715	-0.02984
699.000	-0.11862	0.14523	-0.66820	-0.16511
700.000	-0.15223	0.13528	-0.66029	-0.16113
701.000	-0.15816	0.12533	-0.73540	-0.14920
702.000	-0.14827	0.11340	-0.72354	-0.13925
703.000	-0.12653	0.16313	-0.69785	-0.16909
704.000	-0.15223	0.14523	-0.64645	-0.18103
705.000	-0.14630	0.13727	-0.62471	-0.16511
706.000	-0.13246	0.15319	-0.66424	-0.13726
707.000	-0.14432	0.15319	-0.64250	-0.16312
708.000	-0.16211	0.14324	-0.68006	-0.13129
709.000	-0.13641	0.16313	-0.65041	-0.14721
710.000	-0.15025	0.15915	-0.71168	-0.15317
711.000	-0.15025	0.16313	-0.64843	-0.14721
712.000	-0.17793	0.16512	-0.63262	-0.15517
713.000	-0.13444	0.15915	-0.67017	-0.16312
714.000	-0.11467	0.16114	-0.69982	-0.16710
715.000	-0.10478	0.19496	-0.64843	-0.14920
716.000	-0.13839	0.20292	-0.80854	-0.24070
717.000	-0.11862	0.16114	-0.68006	-0.18301
718.000	-0.11269	0.19894	-0.68796	-0.23275
719.000	-0.14037	0.24669	-0.68401	-0.23275
720.000	-0.13048	0.18502	-0.64645	-0.22479
721.000	-0.13641	0.15120	-0.51401	-0.23275
722.000	-0.11664	0.18900	-0.64448	-0.15914
723.000	-0.15618	0.17109	-0.59703	-0.18899
724.000	-0.15223	0.19297	-0.58913	-0.18700
725.000	-0.14630	0.15518	-0.68796	-0.23474
726.000	-0.18781	0.14921	-0.59506	-0.18501
727.000	-0.14037	0.19297	-0.68796	-0.21285
728.000	-0.12257	0.17109	-0.62075	-0.17108
729.000	-0.16409	0.16910	-0.58715	-0.16511
730.000	-0.17200	0.18502	-0.66820	-0.25065
731.000	-0.12850	0.19894	-0.58320	-0.17307
732.000	-0.12060	0.19098	-0.62668	-0.15318
733.000	-0.10676	0.17507	-0.67808	-0.18301
734.000	-0.11862	0.18303	-0.59901	-0.15517
735.000	-0.10874	0.16313	-0.66029	-0.14920
736.000	-0.12455	0.18900	-0.64250	-0.17904
737.000	-0.11467	0.17308	-0.69982	-0.19694
738.000	-0.10874	0.21088	-0.66622	-0.17506
739.000	-0.12850	0.16711	-0.64645	-0.13726
740.000	-0.12060	0.19297	-0.66029	-0.16511
741.000	-0.11664	0.20889	-0.67610	-0.15318
742.000	-0.08897	0.19098	-0.66820	-0.10742
743.000	-0.10083	0.24072	-0.67017	-0.17307
744.000	-0.08501	0.19695	-0.65831	-0.10145
745.000	-0.12653	0.19098	-0.63855	-0.14721
746.000	-0.12257	0.16114	-0.62075	-0.15716
747.000	-0.11664	0.20491	-0.66227	-0.16710
748.000	-0.09490	0.17109	-0.64645	-0.12930
749.000	-0.09687	0.21884	-0.65831	-0.19694
750.000	-0.05733	0.25067	-0.64645	-0.19694
751.000	-0.07513	0.20690	-0.64843	-0.17705
752.000	-0.06129	0.24072	-0.65041	-0.21882
753.000	-0.10874	0.22480	-0.67610	-0.15119
754.000	-0.08106	0.20690	-0.64052	-0.16113
755.000	-0.06129	0.19894	-0.62273	-0.18898
756.000	-0.07315	0.21486	-0.66227	-0.16312
757.000	-0.05536	0.21884	-0.69785	-0.20092
758.000	-0.10083	0.15518	-0.66029	-0.17904
759.000	-0.06920	0.16313	-0.56738	-0.21684
760.000	-0.07117	0.19496	-0.66820	-0.25463
761.000	-0.06129	0.18303	-0.67215	-0.18500
762.000	-0.07117	0.19099	-0.64448	-0.20291
763.000	-0.08106	0.16114	-0.72947	-0.18699
764.000	-0.09885	0.18502	-0.72354	-0.21285
765.000	-0.03954	0.20889	-0.73145	-0.21484
766.000	-0.04547	0.20690	-0.62075	-0.21683
767.000	-0.04547	0.17706	-0.65238	-0.18103
768.000	-0.08303	0.15120	-0.61285	-0.19495
769.000	-0.08501	0.17109	-0.71168	-0.15119
770.000	-0.04152	0.21088	-0.64645	-0.23474
771.000	-0.06129	0.19894	-0.72750	-0.25264
772.000	-0.10083	0.19297	-0.61087	-0.20689
773.000	-0.04943	0.20292	-0.64843	-0.20490
774.000	-0.09292	0.22282	-0.67017	-0.19694
775.000	-0.02966	0.23276	-0.66424	-0.18302
776.000	-0.04745	0.23475	-0.67215	-0.24667
777.000	-0.04943	0.21287	-0.66227	-0.15119
778.000	-0.01977	0.22878	-0.62075	-0.12533
779.000	-0.01582	0.21287	-0.63855	-0.15716
780.000	-0.05338	0.18701	-0.76110	-0.14919
781.000	-0.08106	0.18502	-0.65041	-0.17307
782.000	-0.02372	0.20889	-0.61285	-0.16312
783.000	-0.01384	0.19099	-0.67610	-0.20490
784.000	-0.02570	0.14324	-0.66424	-0.21285
785.000	0.02372	0.22282	-0.65238	-0.15715
786.000	-0.01977	0.19496	-0.72157	-0.15715
787.000	-0.03163	0.17905	-0.68203	-0.13328
788.000	-0.03163	0.18502	-0.73936	-0.09946
789.000	-0.06129	0.12533	-0.60692	-0.16113
790.000	-0.03361	0.17308	-0.67610	-0.10941
791.000	-0.00989	0.16910	-0.72157	-0.19694
792.000	-0.03954	0.18900	-0.64843	-0.15517
793.000	-0.04152	0.16910	-0.65041	-0.15914
794.000	-0.01779	0.15518	-0.75912	-0.17108
795.000	-0.07117	0.21287	-0.69785	-0.15317
796.000	-0.05536	0.17706	-0.65041	-0.22081
797.000	-0.04349	0.23077	-0.58517	-0.15716
798.000	-0.08699	0.18701	-0.72750	-0.20887
799.000	-0.00198	0.20093	-0.66029	-0.17904
800.000	-0.00395	0.20292	-0.65041	-0.23275
801.000	-0.01779	0.22083	-0.66227	-0.21882
802.000	0.00000	0.21685	-0.65041	-0.14522
803.000	0.00395	0.21685	-0.67017	-0.18500
804.000	-0.04943	0.23873	-0.68401	-0.20092
805.000	0.01779	0.16313	-0.59901	-0.11339
806.000	-0.01582	0.24271	-0.66622	-0.15119
807.000	-0.04349	0.21884	-0.75912	-0.17704
808.000	-0.04152	0.27255	-0.69389	-0.12334
809.000	-0.02175	0.27255	-0.76901	-0.17108
810.000	-0.01186	0.23077	-0.72157	-0.09350
811.000	-0.06129	0.23475	-0.69982	-0.16113
812.000	-0.04152	0.23077	-0.71168	-0.16113
813.000	0.00198	0.28449	-0.65436	-0.14124
814.000	-0.01779	0.25664	-0.72157	-0.15715
815.000	-0.06129	0.26459	-0.74529	-0.18301
816.000	-0.04152	0.25067	-0.65634	-0.06167
817.000	-0.02768	0.26857	-0.68006	-0.08156
818.000	-0.02372	0.22679	-0.69192	-0.15318
819.000	-0.03361	0.27255	-0.68006	-0.14323
820.000	0.00198	0.25863	-0.72157	-0.06167
821.000	-0.03163	0.26658	-0.68203	-0.15119
822.000	-0.02372	0.26658	-0.72750	-0.13527
823.000	0.00395	0.32626	-0.68796	-0.13726
824.000	-0.04152	0.25266	-0.70971	-0.09350
825.000	-0.03361	0.26061	-0.66820	-0.11140
826.000	-0.02966	0.29642	-0.71168	-0.16511
827.000	-0.05338	0.24271	-0.72157	-0.14124
828.000	-0.01779	0.28449	-0.66029	-0.10145
829.000	-0.00791	0.26658	-0.62075	-0.16710
830.000	-0.02175	0.29244	-0.62075	-0.14721
831.000	-0.01977	0.32030	-0.62075	-0.17506
832.000	0.00198	0.26857	-0.71366	-0.14522
833.000	-0.01779	0.26459	-0.67215	-0.11936
834.000	-0.03361	0.26857	-0.59506	-0.13130
835.000	0.01582	0.27852	-0.62273	-0.12533
836.000	-0.02570	0.26658	-0.63855	-0.17108
837.000	-0.03756	0.25067	-0.66622	-0.11339
838.000	-0.02966	0.27056	-0.63657	-0.21882
839.000	-0.02372	0.26459	-0.66029	-0.13726
840.000	-0.04943	0.19695	-0.64250	-0.13527
841.000	-0.05733	0.22481	-0.67413	-0.16511
842.000	-0.05931	0.26658	-0.57529	-0.07957
843.000	-0.06722	0.23077	-0.69982	-0.16113
844.000	-0.05931	0.26857	-0.62273	-0.13726
845.000	-0.06722	0.26658	-0.59308	-0.10941
846.000	-0.03954	0.25465	-0.64052	-0.12533
847.000	-0.02768	0.23276	-0.64250	-0.15914
848.000	-0.07117	0.27653	-0.63064	-0.12732
849.000	-0.02372	0.29046	-0.68006	-0.08355
850.000	-0.03756	0.29244	-0.66622	-0.06963
851.000	-0.04349	0.26061	-0.68994	-0.13129
852.000	-0.01384	0.27454	-0.67610	-0.14721
853.000	-0.02966	0.29642	-0.63657	-0.09947
854.000	-0.02372	0.26061	-0.65041	-0.09151
855.000	-0.04943	0.28648	-0.67610	-0.10742
856.000	0.00198	0.30239	-0.63855	-0.14323
857.000	0.02570	0.32427	-0.66029	-0.13925
858.000	-0.01186	0.25465	-0.63262	-0.10145
859.000	0.00000	0.35412	-0.59506	-0.11140
860.000	-0.02372	0.27454	-0.70378	-0.09151
861.000	0.01384	0.27852	-0.65831	-0.07559
862.000	0.03756	0.32030	-0.62273	-0.11936
863.000	0.01779	0.29443	-0.61285	-0.08952
864.000	0.02570	0.29841	-0.60692	-0.08753
865.000	0.03756	0.35213	-0.71959	-0.07559
866.000	0.01582	0.23276	-0.71564	-0.10145
867.000	0.02570	0.31234	-0.73145	-0.06366
868.000	0.03954	0.31234	-0.69785	-0.11737
869.000	0.04943	0.26459	-0.63064	-0.13328
870.000	0.01779	0.31433	-0.63262	-0.12732
871.000	0.04547	0.32427	-0.67215	-0.09151
872.000	0.03559	0.33223	-0.68796	-0.05172
873.000	0.04745	0.32030	-0.67808	-0.03581
874.000	0.04349	0.31433	-0.66029	-0.05172
875.000	0.04349	0.34815	-0.70773	-0.09549
876.000	0.05733	0.34218	-0.68203	-0.09549
877.000	0.02175	0.32030	-0.72552	-0.09151
878.000	0.04547	0.31433	-0.74726	0.00199
879.000	0.01582	0.36406	-0.65831	-0.01194
880.000	0.03361	0.36008	-0.64448	-0.04575
881.000	0.01779	0.29841	-0.77098	-0.05172
882.000	-0.02570	0.34616	-0.69192	-0.07559
883.000	0.00989	0.31234	-0.72947	-0.08952
884.000	0.00395	0.33422	-0.60692	-0.02188
885.000	-0.01779	0.29244	-0.64250	-0.08355
886.000	0.00791	0.29642	-0.78680	-0.02387
887.000	0.01186	0.29046	-0.69192	-0.09549
888.000	-0.02966	0.31433	-0.68203	-0.03581
889.000	-0.00593	0.32427	-0.71959	-0.05570
890.000	0.01779	0.34019	-0.63064	-0.03780
891.000	-0.00395	0.29046	-0.68599	-0.02586
892.000	-0.06524	0.29841	-0.72750	-0.05371
893.000	-0.04152	0.32626	-0.70773	-0.01790
894.000	-0.05536	0.32229	-0.69389	-0.02785
895.000	-0.04745	0.28449	-0.69785	-0.04973
896.000	-0.03756	0.34218	-0.66424	0.01989
897.000	-0.09490	0.26459	-0.64052	-0.02984
898.000	-0.04152	0.30637	-0.67610	-0.00796
899.000	-0.04745	0.29046	-0.73343	0.01790
900.000	-0.05536	0.29244	-0.66622	0.02785
901.000	-0.05338	0.29244	-0.64843	0.04178
902.000	-0.05338	0.25067	-0.61482	0.05371
903.000	-0.07315	0.31234	-0.71366	-0.03979
904.000	-0.07908	0.31831	-0.65238	0.00796
905.000	-0.03954	0.34616	-0.68006	0.00597
906.000	-0.04547	0.30040	-0.67610	-0.02984
907.000	-0.04745	0.31632	-0.70575	0.01591
908.000	-0.01779	0.31234	-0.74133	0.02387
909.000	-0.04152	0.33422	-0.64843	0.00000
910.000	-0.03361	0.30637	-0.67610	-0.09549
911.000	0.02175	0.33223	-0.66227	0.01194
912.000	-0.02175	0.30239	-0.66029	0.04178
913.000	-0.01384	0.29244	-0.74529	-0.01392
914.000	-0.00198	0.32229	-0.67610	0.06167
915.000	0.02372	0.33223	-0.69192	0.05769
916.000	0.00989	0.29841	-0.60889	-0.02785
917.000	0.03756	0.29642	-0.73738	-0.02984
918.000	0.04349	0.33820	-0.66227	0.00796
919.000	0.01582	0.34417	-0.65436	-0.00796
920.000	-0.01384	0.37202	-0.69587	-0.03581
921.000	0.03163	0.36406	-0.71959	-0.01591
922.000	0.00395	0.35809	-0.65831	-0.02188
923.000	-0.02570	0.32229	-0.68796	0.02586
924.000	0.02175	0.35412	-0.64843	0.02387
925.000	0.01582	0.32229	-0.62866	0.01790
926.000	0.01186	0.35213	-0.68599	0.03183
927.000	0.01977	0.34616	-0.65436	0.03581
928.000	0.00593	0.33422	-0.68599	0.05172
929.000	-0.00791	0.38594	-0.72750	-0.00199
930.000	0.01384	0.35213	-0.70773	0.04575
931.000	0.00593	0.37401	-0.67017	0.11538
932.000	-0.01384	0.36008	-0.73145	0.04575
933.000	0.02175	0.35213	-0.67215	0.01790
934.000	0.03361	0.37401	-0.62075	0.10344
935.000	0.04547	0.32626	-0.57727	0.08156
936.000	-0.01186	0.40584	-0.59901	0.08753
937.000	0.03954	0.38793	-0.68401	-0.00199
938.000	0.03954	0.40982	-0.61878	-0.01194
939.000	0.02768	0.37600	-0.70180	0.02188
940.000	0.03954	0.40584	-0.70378	0.04575
941.000	0.04547	0.38992	-0.60099	0.09151
942.000	0.02570	0.37401	-0.67413	0.02785
943.000	0.00395	0.38594	-0.63855	0.00995
944.000	0.03756	0.37401	-0.64448	0.01591
945.000	0.03163	0.36406	-0.62075	0.00995
946.000	0.03559	0.38793	-0.68796	0.02387
947.000	0.00989	0.35610	-0.73738	0.07360
948.000	-0.00593	0.36804	-0.71168	0.06167
949.000	0.04152	0.40584	-0.80063	0.02984
950.000	0.06722	0.37600	-0.73936	0.07360
951.000	0.00791	0.41380	-0.65238	0.12732
952.000	0.04152	0.37003	-0.74133	0.10543
953.000	0.06129	0.44960	-0.61087	0.02586
954.000	0.07710	0.41380	-0.69587	0.04575
955.000	0.06129	0.39191	-0.79470	0.04973
956.000	0.03163	0.39788	-0.66424	0.03979
957.000	0.06524	0.44960	-0.72552	0.10941
958.000	0.04943	0.39191	-0.77296	0.09946
959.000	0.05140	0.44364	-0.77098	0.06366
960.000	0.09094	0.37600	-0.76703	0.13129
961.000	0.03559	0.37998	-0.71168	0.01989
962.000	0.05536	0.39987	-0.70773	0.10344
963.000	0.08897	0.37202	-0.71366	-0.00995
964.000	0.08699	0.38594	-0.71168	0.04376
965.000	0.04745	0.37401	-0.77691	0.08554
966.000	0.03559	0.43170	-0.73540	0.07360
967.000	0.09885	0.41578	-0.74529	0.01989
968.000	0.07315	0.40385	-0.71761	0.07957
969.000	0.07710	0.39788	-0.68203	0.09748
970.000	0.09885	0.44562	-0.71761	0.01194
971.000	0.08501	0.41578	-0.68599	0.03581
972.000	0.10083	0.39589	-0.66029	0.07161
973.000	0.09094	0.43369	-0.72552	0.04774
974.000	0.04547	0.45955	-0.72354	0.11538
975.000	0.06920	0.47745	-0.65238	0.05570
976.000	0.06524	0.40584	-0.69192	0.04973
977.000	0.11467	0.45358	-0.70971	0.09350
978.000	0.10676	0.46552	-0.66622	0.06565
979.000	0.10874	0.42971	-0.77098	0.13726
980.000	0.07315	0.48740	-0.76110	0.09548
981.000	0.08897	0.44761	-0.74331	0.08156
982.000	0.06722	0.45358	-0.71366	0.09946
983.000	0.08699	0.43966	-0.78482	0.11737
984.000	0.07315	0.44364	-0.69389	0.14124
985.000	0.10874	0.44165	-0.70180	0.10742
986.000	0.11467	0.45159	-0.73936	0.13328
987.000	0.09687	0.46353	-0.73145	0.08355
988.000	0.07710	0.48143	-0.79470	0.11339
989.000	0.12850	0.42971	-0.79470	0.11538
990.000	0.11071	0.47148	-0.74529	0.09548
991.000	0.07908	0.42772	-0.65634	0.13925
992.000	0.10874	0.42175	-0.76703	0.04376
993.000	0.11467	0.42573	-0.73145	0.13129
994.000	0.09490	0.40783	-0.75319	0.13925
995.000	0.06722	0.45756	-0.72157	0.10145
996.000	0.14037	0.45756	-0.74331	0.11936
997.000	0.09094	0.40186	-0.68599	0.03183
998.000	0.13048	0.41777	-0.74924	0.13726
999.000	0.10280	0.46154	-0.68401	0.06366
1000.000	0.13839	0.45358	-0.74726	0.06764
1001.000	0.15025	0.47347	-0.77691	0.06366
1002.000	0.13246	0.45756	-0.67215	0.14124
1003.000	0.15421	0.47347	-0.65436	0.11140
1004.000	0.18386	0.46353	-0.71959	0.10742
1005.000	0.10280	0.47347	-0.77494	0.08554
1006.000	0.13444	0.46154	-0.64645	0.10742
1007.000	0.13246	0.46552	-0.72947	0.09350
1008.000	0.16607	0.47148	-0.70378	0.07161
1009.000	0.16607	0.48143	-0.73540	0.15317
1010.000	0.15223	0.47745	-0.76110	0.12134
1011.000	0.18781	0.48939	-0.78482	0.12731
1012.000	0.10478	0.52520	-0.79866	0.12134
1013.000	0.08303	0.51724	-0.74331	0.08554
1014.000	0.10083	0.55901	-0.85993	0.13129
1015.000	0.08699	0.57294	-0.77296	0.15317
1016.000	0.06326	0.63261	-0.77889	0.15516
1017.000	0.05536	0.68234	-0.82435	0.26457
1018.000	0.02570	0.77185	-0.90934	0.31031
1019.000	0.01779	0.79771	-0.90144	0.35009
1020.000	-0.03954	0.90512	-0.89749	0.39584
1021.000	-0.04547	0.93296	-0.98840	0.50722
1022.000	-0.05931	1.06224	-0.96073	0.53109
1023.000	-0.10478	1.10400	-0.94492	0.72998
1024.000	-0.05536	1.22133	-0.99829	0.79163
1025.000	-0.04547	1.34859	-0.98247	0.94476
1026.000	0.02966	1.45595	-0.92911	1.05812
1027.000	0.02372	1.56331	-0.93702	1.21321
1028.000	0.07315	1.67463	-0.93109	1.23707
1029.000	0.10874	1.77003	-0.89551	1.35240
1030.000	0.09094	1.76407	-0.88760	1.43590
1031.000	0.13048	1.74419	-0.83819	1.46176
1032.000	0.13246	1.80581	-0.85993	1.47965
1033.000	0.10083	1.79190	-0.82633	1.44785
1034.000	0.12257	1.69450	-0.69192	1.39819
1035.000	0.12257	1.67264	-0.85598	1.33651
1036.000	0.10676	1.56132	-0.81842	1.23512
1037.000	0.06920	1.47981	-0.77494	1.10390
1038.000	0.09885	1.40426	-0.77098	1.02635
1039.000	0.04943	1.33268	-0.81249	0.86127
1040.000	0.07710	1.20542	-0.79075	0.87719
1041.000	0.02768	1.16565	-0.79866	0.78172
1042.000	0.04547	1.13980	-0.78087	0.72007
1043.000	0.04152	1.07019	-0.80261	0.75786
1044.000	0.04745	1.10798	-0.80656	0.68625
1045.000	0.06129	1.08014	-0.77494	0.68626
1046.000	0.01384	1.10002	-0.79866	0.81156
1047.000	0.04349	1.10599	-0.83226	0.78768
1048.000	0.06326	1.13980	-0.77494	0.72405
1049.000	0.06326	1.18355	-0.87970	0.83342
1050.000	0.02372	1.20741	-0.80063	0.90304
1051.000	0.04943	1.20741	-0.81052	0.89906
1052.000	0.09490	1.29888	-0.86586	0.91496
1053.000	0.03559	1.30683	-0.85400	0.99451
1054.000	0.06129	1.26905	-0.84412	0.94479
1055.000	0.09490	1.33069	-0.89353	1.02631
1056.000	0.09687	1.31479	-0.89353	1.00245
1057.000	0.06920	1.33268	-0.84807	1.01638
1058.000	0.04745	1.36450	-0.81645	1.06014
1059.000	0.05536	1.33467	-0.85400	1.06809
1060.000	0.06326	1.37642	-0.93702	1.02431
1061.000	0.01779	1.36450	-0.86586	1.01638
1062.000	0.10676	1.35853	-0.90342	1.01040
1063.000	0.07117	1.37245	-0.88563	1.06808
1064.000	0.09687	1.38438	-0.91330	1.05017
1065.000	0.08106	1.37046	-0.98840	1.05015
1066.000	0.13246	1.41420	-0.96469	1.05016
1067.000	0.04943	1.37046	-0.89551	1.01637
1068.000	0.10083	1.40824	-1.03979	1.04616
1069.000	0.10083	1.43607	-0.81447	1.05219
1070.000	0.08897	1.41221	-0.84610	1.00843
1071.000	0.12455	1.39432	-0.88563	0.95672
1072.000	0.05536	1.41818	-0.90934	1.00444
1073.000	0.09292	1.36847	-0.88958	1.01836
1074.000	0.10874	1.38636	-0.87574	1.04422
1075.000	0.11467	1.37443	-0.93306	1.09391
1076.000	0.12653	1.40028	-0.91923	0.99250
1077.000	0.10874	1.37443	-0.90342	1.02233
1078.000	0.12850	1.41221	-0.87772	1.06609
1079.000	0.09885	1.38835	-0.85203	0.99252
1080.000	0.07117	1.34660	-0.90737	1.07205
1081.000	0.12455	1.40426	-0.92120	1.03625
1082.000	0.06524	1.37444	-0.87772	1.01439
1083.000	0.11467	1.37642	-0.89353	1.00842
1084.000	0.07513	1.41022	-0.89946	1.01836
1085.000	0.12455	1.36847	-0.89156	1.00046
1086.000	0.11071	1.36847	-0.91132	1.03426
1087.000	0.07117	1.38040	-0.91132	1.02034
1088.000	0.08699	1.39034	-0.87772	0.94479
1089.000	0.09490	1.38636	-0.91132	0.96864
1090.000	0.08303	1.34660	-0.92713	0.93085
1091.000	0.10280	1.35256	-0.94295	0.94278
1092.000	0.16409	1.39431	-0.91132	0.99052
1093.000	0.09490	1.38239	-0.85400	1.01638
1094.000	0.12060	1.38835	-0.92713	1.05613
1095.000	0.10083	1.37642	-0.89946	0.96069
1096.000	0.14037	1.41817	-0.89156	0.97262
1097.000	0.14827	1.42613	-0.90737	1.00643
1098.000	0.15223	1.35455	-0.88760	0.97660
1099.000	0.12653	1.45993	-0.86981	0.95672
1100.000	0.15025	1.41817	-0.92318	0.94477
1101.000	0.18188	1.43209	-0.89946	0.93484
1102.000	0.13246	1.38040	-0.92713	1.04619
1103.000	0.13048	1.39630	-0.96469	0.97260
1104.000	0.14827	1.39432	-0.91923	1.02432
1105.000	0.14630	1.41817	-0.98050	1.03225
1106.000	0.15618	1.39233	-0.93702	1.00841
1107.000	0.14432	1.34262	-0.96864	0.96664
1108.000	0.14234	1.40227	-0.90737	1.01438
1109.000	0.14827	1.45396	-0.91132	0.98853
1110.000	0.12257	1.44005	-0.95283	0.96863
1111.000	0.10676	1.41420	-0.88563	0.93086
1112.000	0.17002	1.37443	-0.94887	0.99050
1113.000	0.15421	1.40624	-0.90342	0.98853
1114.000	0.12060	1.42613	-0.97654	1.00044
1115.000	0.12653	1.36052	-0.94492	0.94676
1116.000	0.15025	1.36847	-0.88167	0.94280
1117.000	0.15816	1.39034	-0.90342	0.96069
1118.000	0.13839	1.38636	-0.89749	0.93881
1119.000	0.18781	1.38636	-0.94492	0.98255
1120.000	0.17595	1.42612	-0.96864	0.96664
1121.000	0.17398	1.38636	-0.92911	0.93483
1122.000	0.17595	1.43010	-0.93899	0.98454
1123.000	0.15421	1.37443	-0.89946	1.08000
1124.000	0.17002	1.40624	-0.95876	0.97857
1125.000	0.17200	1.44800	-0.95480	0.93880
1126.000	0.14827	1.44004	-0.91923	0.99449
1127.000	0.17991	1.40425	-0.98840	0.93481
1128.000	0.17595	1.43209	-0.96864	1.03226
1129.000	0.17595	1.39829	-0.89749	0.94080
1130.000	0.18979	1.40425	-0.92516	0.92489
1131.000	0.14037	1.43607	-0.88365	0.99052
1132.000	0.15223	1.42613	-0.96271	0.90698
1133.000	0.16804	1.41420	-0.94690	1.00045
1134.000	0.20165	1.42413	-0.84807	0.91496
1135.000	0.18188	1.42016	-0.89946	0.93285
1136.000	0.16014	1.43408	-0.92911	0.99250
1137.000	0.17793	1.36648	-0.93306	1.00244
1138.000	0.18979	1.39630	-0.87970	0.96666
1139.000	0.16014	1.41817	-0.98050	0.95271
1140.000	0.14037	1.41420	-0.95283	0.99448
1141.000	0.15223	1.39829	-0.87179	0.98854
1142.000	0.15025	1.39829	-0.94097	1.01437
1143.000	0.14234	1.39829	-0.90342	0.96665
1144.000	0.15421	1.41221	-0.89551	0.92092
1145.000	0.16014	1.42414	-0.98445	1.00044
1146.000	0.16211	1.40823	-0.94295	0.98653
1147.000	0.16409	1.44004	-0.92318	0.96864
1148.000	0.13246	1.43209	-0.91527	0.98853
1149.000	0.17595	1.37244	-0.98050	0.91493
1150.000	0.18188	1.42414	-0.89551	0.96467
1151.000	0.14432	1.44800	-1.00619	0.92487
1152.000	0.16607	1.40227	-0.90342	0.94677
1153.000	0.16014	1.39829	-0.93109	0.98653
1154.000	0.13641	1.42613	-0.96666	0.97061
1155.000	0.14234	1.43607	-0.91527	0.90500
1156.000	0.12257	1.38835	-0.93702	0.96267
1157.000	0.14037	1.46191	-0.94887	0.90301
1158.000	0.14630	1.41817	-0.94097	0.94676
1159.000	0.17793	1.42811	-0.95085	0.95670
1160.000	0.15618	1.41221	-1.02793	0.97855
1161.000	0.14827	1.41022	-0.96271	0.97260
1162.000	0.15421	1.43209	-0.93306	0.98852
1163.000	0.10676	1.44999	-0.94295	0.95073
1164.000	0.11467	1.37046	-0.90737	0.90699
1165.000	0.11862	1.41818	-0.94295	0.94875
1166.000	0.12850	1.43209	-0.98050	0.94874
1167.000	0.12455	1.41818	-0.94690	0.96465
1168.000	0.12850	1.42016	-0.88760	0.92291
1169.000	0.17793	1.40823	-0.88365	0.92092
1170.000	0.13048	1.43806	-0.95283	0.95073
1171.000	0.17793	1.39431	-0.90342	0.98853
1172.000	0.21549	1.42215	-0.94492	0.96863
1173.000	0.16607	1.43209	-0.91330	0.89904
1174.000	0.14234	1.46589	-0.90934	0.92489
1175.000	0.22735	1.46390	-0.98247	0.95868
1176.000	0.18781	1.47384	-0.86388	0.97860
1177.000	0.19968	1.45793	-0.98445	0.94873
1178.000	0.17200	1.43209	-0.90539	0.91495
1179.000	0.16211	1.46390	-0.98643	0.89106
1180.000	0.13839	1.44004	-0.94887	1.03028
1181.000	0.16607	1.41022	-0.90934	0.88313
1182.000	0.15223	1.45396	-0.96864	0.95669
1183.000	0.12455	1.40823	-0.93702	0.94875
1184.000	0.11467	1.44999	-0.95085	0.90301
1185.000	0.15223	1.46191	-0.91330	0.96069
1186.000	0.15618	1.45197	-0.93702	0.96466
1187.000	0.16607	1.44203	-0.97852	0.98055
1188.000	0.18781	1.47384	-1.01212	0.91890
1189.000	0.15223	1.42811	-1.00619	0.90100
1190.000	0.19572	1.46191	-0.96073	0.96664
1191.000	0.14234	1.44203	-0.92318	0.94676
1192.000	0.16804	1.48179	-0.95283	1.01437
1193.000	0.14630	1.45993	-0.97457	0.92686
1194.000	0.15816	1.44800	-0.96469	0.94476
1195.000	0.15223	1.38636	-0.89551	0.86523
1196.000	0.19770	1.46589	-0.99236	0.89305
1197.000	0.19572	1.42215	-0.94492	0.85926
1198.000	0.16804	1.41817	-0.97654	0.93482
1199.000	0.19968	1.44203	-1.04572	0.97457
1200.000	0.19572	1.41817	-0.89156	0.85131
1201.000	0.17991	1.46390	-0.92120	0.90301
1202.000	0.17200	1.40823	-0.93899	0.99448
1203.000	0.18188	1.44203	-0.99631	0.95470
1204.000	0.15618	1.42613	-1.00421	0.89305
1205.000	0.20363	1.45595	-0.95480	0.97062
1206.000	0.13246	1.45197	-1.01212	0.92486
1207.000	0.14630	1.39630	-0.93109	0.95670
1208.000	0.17793	1.39431	-0.96073	0.93482
1209.000	0.15816	1.46390	-0.97654	0.91493
1210.000	0.18584	1.42811	-0.95283	0.96465
1211.000	0.19968	1.43010	-0.95283	0.91693
1212.000	0.18781	1.44004	-0.99236	0.95271
1213.000	0.17595	1.44402	-0.93899	0.91096
1214.000	0.20363	1.40823	-0.97062	0.92289
1215.000	0.16409	1.43607	-1.00026	0.94475
1216.000	0.15421	1.44601	-0.94887	0.92687
1217.000	0.19177	1.43209	-0.95876	0.94874
1218.000	0.19572	1.43805	-0.87574	0.93683
1219.000	0.18386	1.49173	-0.97654	0.86521
1220.000	0.17991	1.46191	-0.93899	0.92886
1221.000	0.21549	1.45793	-0.90342	1.05415
1222.000	0.16211	1.40823	-0.95480	0.95670
1223.000	0.17200	1.45992	-0.97062	0.93681
1224.000	0.13839	1.39829	-1.01607	0.99446
1225.000	0.21154	1.44004	-1.00817	0.96861
1226.000	0.21154	1.44004	-0.98643	0.95669
1227.000	0.25503	1.42214	-0.96666	0.99845
1228.000	0.19770	1.45595	-0.95678	0.99249
1229.000	0.21352	1.41220	-0.98643	0.89504
1230.000	0.14630	1.39034	-0.99236	0.93680
1231.000	0.19177	1.43010	-0.94097	0.90897
1232.000	0.19968	1.43010	-0.93702	0.94477
1233.000	0.18584	1.42811	-1.00619	0.96464
1234.000	0.18386	1.41618	-0.93306	0.96068
1235.000	0.21549	1.44402	-0.91527	0.88313
1236.000	0.22340	1.47980	-1.06351	0.97456
1237.000	0.19177	1.47782	-0.97259	0.92487
1238.000	0.18584	1.46390	-0.99236	1.01435
1239.000	0.24712	1.43805	-1.01607	0.98253
1240.000	0.14827	1.42613	-0.92516	0.97858
1241.000	0.20363	1.42215	-0.99433	1.00640
1242.000	0.17398	1.46191	-1.02200	0.94674
1243.000	0.20758	1.47781	-1.03386	0.96065
1244.000	0.21747	1.40823	-1.01805	0.95469
1245.000	0.23131	1.45594	-0.99433	0.92686
1246.000	0.24119	1.41618	-0.96073	0.98056
1247.000	0.23131	1.46191	-0.92120	1.00046
1248.000	0.19375	1.44799	-0.90342	0.98256
1249.000	0.23329	1.45197	-1.00026	0.93680
1250.000	0.24119	1.45594	-1.02398	0.98651
1251.000	0.18188	1.43010	-1.02003	0.93679
1252.000	0.17002	1.40823	-0.94887	0.95869
1253.000	0.20758	1.46589	-1.06351	1.05211
1254.000	0.23329	1.42214	-0.98247	0.94675
1255.000	0.19375	1.48378	-0.97259	0.95868
1256.000	0.21549	1.47980	-0.96864	1.04817
1257.000	0.18979	1.41817	-0.93306	1.03625
1258.000	0.24515	1.45793	-1.00421	0.97657
1259.000	0.23329	1.47582	-0.91330	0.99847
1260.000	0.20165	1.41817	-1.03979	0.97656
1261.000	0.21352	1.45594	-0.97654	0.91493
1262.000	0.19968	1.42215	-0.97654	0.97857
1263.000	0.21352	1.46986	-1.01212	1.03821
1264.000	0.17991	1.43010	-0.91330	0.95074
1265.000	0.17991	1.46390	-1.02200	0.95071
1266.000	0.24712	1.43208	-0.94295	0.97460
1267.000	0.23526	1.43606	-0.97062	0.96465
1268.000	0.22142	1.50167	-0.96271	0.93880
1269.000	0.20561	1.47583	-0.98445	0.99049
1270.000	0.20363	1.45992	-1.00619	0.94475
1271.000	0.22538	1.45992	-0.99236	0.97856
1272.000	0.21154	1.45197	-1.00619	0.97657
1273.000	0.20363	1.46787	-0.97259	0.89902
1274.000	0.18386	1.45793	-1.00817	0.88111
1275.000	0.25503	1.47184	-1.00421	0.95271
1276.000	0.25503	1.43208	-0.99236	0.90299
1277.000	0.21549	1.43407	-0.96469	0.92687
1278.000	0.24317	1.45992	-0.96666	0.90300
1279.000	0.21154	1.44004	-0.93702	0.87716
1280.000	0.20758	1.42612	-1.04967	0.88707
1281.000	0.21945	1.44998	-0.98247	0.94874
1282.000	0.20363	1.43209	-1.05165	1.00042
1283.000	0.23526	1.43606	-1.01410	1.04616
1284.000	0.26689	1.46190	-1.00619	0.91094
1285.000	0.26294	1.45594	-0.91923	0.87915
1286.000	0.24910	1.43208	-1.00817	0.92685
1287.000	0.27678	1.48576	-1.01805	0.96066
1288.000	0.19770	1.45595	-0.98445	0.93680
1289.000	0.22735	1.44799	-1.01607	1.01236
1290.000	0.23526	1.47384	-1.00224	0.90697
1291.000	0.21945	1.47384	-1.01212	0.97856
1292.000	0.21352	1.44402	-0.96666	0.90698
1293.000	0.19572	1.46986	-1.00421	0.92487
1294.000	0.21945	1.47582	-0.99038	1.00242
1295.000	0.17991	1.44203	-1.01410	0.97060
1296.000	0.26096	1.47383	-0.96469	0.91096
1297.000	0.22538	1.40624	-0.99829	0.90100
1298.000	0.24910	1.44202	-1.03781	0.92486
1299.000	0.23922	1.43407	-1.02595	0.92685
1300.000	0.27282	1.44799	-0.85598	0.98655
1301.000	0.26689	1.43606	-0.96469	0.91891
1302.000	0.23131	1.43805	-0.93899	0.90500
1303.000	0.17200	1.46390	-0.98643	0.94277
1304.000	0.12455	1.43607	-0.95678	0.91096
1305.000	0.08699	1.50764	-1.07141	0.91490
1306.000	-0.05536	1.48975	-1.06746	0.95070
1307.000	-0.24910	1.51558	-1.30855	0.97646
1308.000	-0.51005	1.58114	-1.51008	0.97837
1309.000	-0.67017	1.56519	-1.75305	0.84307
1310.000	-0.93702	1.59292	-2.09271	0.91445
1311.000	-1.38561	1.59266	-2.38289	1.02754
1312.000	-1.84588	1.59826	-2.86229	0.98543
1313.000	-2.25657	1.68326	-3.13437	1.05271
1314.000	-2.74987	1.70645	-3.64069	1.05811
1315.000	-3.11663	1.75353	-4.17593	1.16057
1316.000	-3.54616	1.78450	-4.41380	1.24546
1317.000	-3.91233	1.93643	-4.86357	1.30807
1318.000	-4.27621	1.97518	-5.28334	1.46165
1319.000	-4.54938	2.13488	-5.64381	1.50825
1320.000	-4.77131	2.25497	-5.98037	1.62796
1321.000	-5.08333	2.26578	-6.29698	1.73763
1322.000	-5.32450	2.31238	-6.50199	1.72904
1323.000	-5.52044	2.34128	-6.75167	1.72027
1324.000	-5.69863	2.37021	-7.00889	1.81402
1325.000	-5.68297	2.41968	-7.12766	1.80173
1326.000	-5.70646	2.43342	-7.19578	1.83103
1327.000	-5.86888	2.40309	-7.35335	1.82842
1328.000	-5.95690	2.44023	-7.46028	1.81418
1329.000	-6.05271	2.40228	-7.52635	1.78435
1330.000	-6.15045	2.34458	-7.65844	1.73850
1331.000	-6.09377	2.34483	-7.70893	1.66935
1332.000	-6.10158	2.26580	-7.81374	1.63940
1333.000	-6.05662	2.25413	-7.67592	1.60250
1334.000	-6.02143	2.22465	-7.66427	1.57693
1335.000	-5.97255	2.12408	-7.52635	1.58335
1336.000	-5.86301	2.15217	-7.42335	1.54036
1337.000	-5.81605	2.10689	-7.28722	1.50139
1338.000	-5.77692	2.11099	-7.17048	1.53925
1339.000	-5.72995	2.06372	-7.06147	1.47451
1340.000	-5.68101	2.08762	-6.97578	1.46689
1341.000	-5.69275	2.05199	-6.95630	1.62087
1342.000	-5.65947	2.07782	-6.89785	1.56976
1343.000	-5.63598	2.06406	-6.79651	1.54838
1344.000	-5.67905	2.09752	-6.78286	1.52671
1345.000	-5.70254	2.11918	-6.75557	1.49521
1346.000	-5.71429	2.10925	-6.80041	1.49309
1347.000	-5.76126	2.14268	-6.73997	1.57028
1348.000	-5.84932	2.14037	-6.85303	1.51859
1349.000	-5.85518	2.21742	-6.95046	1.56367
1350.000	-5.90409	2.18561	-6.96799	1.50441
1351.000	-5.96472	2.23476	-7.09651	1.48426
1352.000	-6.01361	2.22271	-7.17632	1.57474
1353.000	-6.08008	2.17898	-7.28139	1.51324
1354.000	-6.08986	2.21647	-7.36113	1.57015
1355.000	-6.13090	2.19655	-7.36307	1.54648
1356.000	-6.15045	2.25572	-7.47777	1.48892
1357.000	-6.17194	2.25760	-7.47000	1.60327
1358.000	-6.22470	2.28897	-7.51664	1.59718
1359.000	-6.17390	2.28919	-7.51275	1.55778
1360.000	-6.12895	2.27358	-7.55355	1.52413
1361.000	-6.19148	2.29898	-7.47971	1.55593
1362.000	-6.13872	2.28934	-7.55161	1.61282
1363.000	-6.17585	2.27141	-7.56133	1.62264
1364.000	-6.18562	2.23187	-7.55161	1.63252
1365.000	-6.21102	2.28705	-7.44667	1.64474
1366.000	-6.22470	2.26330	-7.55744	1.58127
1367.000	-6.23447	2.18427	-7.46417	1.59343
1368.000	-6.22275	2.23961	-7.45250	1.56391
1369.000	-6.15045	2.26756	-7.47000	1.60918
1370.000	-6.19344	2.26146	-7.49332	1.54602
1371.000	-6.12308	2.24003	-7.41362	1.55616
1372.000	-6.15631	2.23989	-7.55744	1.59703
1373.000	-6.14849	2.20042	-7.43501	1.58171
1374.000	-6.17194	2.23785	-7.40196	1.62914
1375.000	-6.12308	2.26176	-7.35529	1.59185
1376.000	-6.10745	2.20059	-7.30862	1.56047
1377.000	-6.09572	2.21249	-7.35335	1.49722
1378.000	-6.01361	2.30567	-7.37085	1.52477
1379.000	-6.06053	2.23832	-7.35141	1.50117
1380.000	-6.06835	2.21656	-7.35529	1.51299
1381.000	-5.98819	2.20503	-7.34946	1.51695
1382.000	-6.04489	2.18307	-7.32612	1.55844
1383.000	-6.06444	2.20867	-7.35918	1.47749
1384.000	-6.04294	2.25024	-7.39224	1.51089
1385.000	-6.08986	2.20857	-7.29695	1.53488
1386.000	-6.02925	2.24240	-7.39029	1.45569
1387.000	-6.03121	2.23054	-7.34168	1.54261
1388.000	-6.05467	2.24032	-7.37280	1.52082
1389.000	-6.07031	2.22247	-7.32223	1.58014
1390.000	-6.05662	2.28179	-7.32612	1.50520
1391.000	-6.06444	2.22842	-7.32223	1.60775
1392.000	-6.03316	2.22855	-7.36307	1.60563
1393.000	-6.00579	2.22471	-7.38641	1.55823
1394.000	-6.04685	2.29171	-7.33001	1.61363
1395.000	-6.03707	2.24039	-7.32223	1.54071
1396.000	-6.09572	2.25792	-7.30084	1.59205
1397.000	-6.09963	2.27173	-7.31056	1.56244
1398.000	-6.07813	2.24022	-7.39029	1.62721
1399.000	-6.03121	2.27399	-7.40779	1.54041
1400.000	-6.04685	2.26405	-7.36696	1.56421
1401.000	-6.05662	2.28969	-7.34752	1.62737
1402.000	-6.10745	2.26775	-7.43695	1.62507
1403.000	-6.10354	2.26579	-7.35918	1.57607
1404.000	-6.06835	2.21260	-7.38641	1.57400
1405.000	-6.09181	2.28361	-7.45445	1.54222
1406.000	-6.09767	2.24606	-7.39613	1.63508
1407.000	-6.09377	2.24608	-7.39029	1.59764
1408.000	-6.08399	2.25995	-7.35335	1.57017
1409.000	-6.07031	2.24815	-7.36113	1.57409
1410.000	-6.10158	2.31320	-7.41946	1.57980
1411.000	-6.06444	2.27978	-7.27944	1.62367
1412.000	-6.03121	2.26412	-7.33974	1.57614
1413.000	-6.08595	2.26389	-7.41362	1.57587
1414.000	-6.09181	2.26584	-7.40390	1.63505
1415.000	-6.13481	2.26961	-7.39418	1.58580
1416.000	-6.01165	2.23654	-7.46222	1.70973
1417.000	-6.06053	2.24622	-7.38835	1.58976
1418.000	-6.14849	2.16290	-7.50303	1.69183
1419.000	-6.09377	2.22435	-7.50303	1.58738
1420.000	-6.04685	2.23640	-7.46222	1.61906
1421.000	-6.08595	2.24216	-7.47583	1.70967
1422.000	-6.07422	2.22048	-7.33196	1.60377
1423.000	-6.10745	2.24207	-7.50498	1.55978
1424.000	-6.11331	2.22427	-7.44667	1.66643
1425.000	-6.06444	2.25410	-7.44084	1.64674
1426.000	-6.05467	2.26599	-7.40974	1.61729
1427.000	-6.06249	2.24226	-7.43112	1.63889
1428.000	-6.08986	2.24017	-7.46028	1.64272
1429.000	-6.07031	2.23828	-7.47000	1.55399
1430.000	-6.08986	2.23029	-7.37668	1.63318
1431.000	-6.10745	2.23615	-7.37863	1.62529
1432.000	-6.05858	2.24030	-7.37863	1.61346
1433.000	-6.05271	2.22847	-7.38057	1.64696
1434.000	-6.10549	2.22430	-7.37474	1.60953
1435.000	-6.06249	2.26399	-7.43695	1.64478
1436.000	-6.06444	2.26003	-7.36891	1.63715
1437.000	-6.07031	2.22050	-7.37085	1.62531
1438.000	-6.09963	2.25395	-7.40196	1.62717
1439.000	-6.09181	2.24411	-7.45056	1.61714
1440.000	-6.05467	2.25809	-7.45639	1.57178
1441.000	-6.08204	2.23428	-7.47388	1.68406
1442.000	-6.05467	2.28575	-7.46417	1.63877
1443.000	-6.02730	2.25031	-7.36891	1.57012
1444.000	-6.07226	2.28370	-7.45250	1.63684
1445.000	-6.09377	2.25595	-7.46222	1.65060
1446.000	-6.09377	2.26781	-7.37668	1.58981
1447.000	-6.10354	2.25986	-7.43112	1.63692
1448.000	-6.09572	2.25397	-7.45833	1.67821
1449.000	-6.12308	2.26768	-7.41362	1.55419
1450.000	-6.13872	2.27946	-7.40974	1.58772
1451.000	-6.11722	2.26178	-7.45833	1.61316
1452.000	-6.09377	2.26385	-7.51858	1.59323
1453.000	-6.05467	2.29760	-7.48166	1.60125
1454.000	-6.05467	2.25019	-7.47194	1.54216
1455.000	-6.12504	2.24595	-7.45639	1.62894
1456.000	-6.08790	2.32116	-7.38057	1.54248
1457.000	-6.07617	2.27578	-7.42140	1.53248
1458.000	-6.05467	2.23044	-7.45250	1.57179
1459.000	-6.07422	2.22443	-7.40390	1.59957
1460.000	-6.13090	2.27160	-7.44473	1.54028
1461.000	-6.08595	2.26586	-7.42335	1.58767
1462.000	-6.10940	2.25589	-7.53413	1.52814
1463.000	-6.08399	2.27772	-7.43306	1.59946
1464.000	-6.08399	2.28760	-7.45833	1.60528
1465.000	-6.01557	2.26813	-7.45445	1.53039
1466.000	-6.05858	2.26598	-7.38446	1.53852
1467.000	-6.11722	2.26573	-7.46417	1.53430
1468.000	-6.08986	2.23622	-7.48943	1.55392
1469.000	-6.11722	2.20253	-7.48749	1.56773
1470.000	-6.18367	2.26940	-7.37474	1.50307
1471.000	-6.11331	2.28747	-7.33196	1.60574
1472.000	-6.12895	2.25186	-7.45639	1.60923
1473.000	-6.11136	2.25391	-7.50109	1.56768
1474.000	-6.14654	2.22808	-7.50692	1.50656
1475.000	-6.12504	2.24990	-7.41168	1.62122
1476.000	-6.17585	2.22993	-7.49137	1.59136
1477.000	-6.13872	2.24194	-7.42918	1.52062
1478.000	-6.08595	2.22043	-7.45445	1.50477
1479.000	-6.12113	2.29336	-7.45639	1.55010
1480.000	-6.13090	2.19260	-7.43306	1.57975
1481.000	-6.11722	2.24203	-7.47971	1.62097
1482.000	-6.16217	2.21617	-7.44667	1.53042
1483.000	-6.14263	2.21822	-7.41168	1.52265
1484.000	-6.11527	2.25586	-7.40974	1.51478
1485.000	-6.18953	2.19235	-7.45833	1.57374
1486.000	-6.11331	2.21242	-7.40585	1.58576
1487.000	-6.11331	2.29340	-7.40196	1.57197
1488.000	-6.13872	2.22021	-7.42335	1.53444
1489.000	-6.10940	2.25786	-7.51469	1.59916
1490.000	-6.15045	2.23794	-7.41751	1.57389
1491.000	-6.05271	2.26403	-7.40585	1.59562
1492.000	-6.10549	2.20850	-7.44862	1.55604
1493.000	-6.12504	2.23212	-7.41362	1.59362
1494.000	-6.18953	2.22790	-7.54190	1.53797
1495.000	-6.17781	2.24178	-7.36113	1.53466
1496.000	-6.10354	2.26974	-7.42723	1.49697
1497.000	-6.13872	2.22416	-7.44084	1.62703
1498.000	-6.11136	2.22625	-7.39029	1.53061
1499.000	-6.10158	2.17494	-7.32418	1.60774
1500.000	-6.14849	2.21622	-7.40390	1.56211
1501.000	-6.12699	2.25186	-7.42529	1.63497
1502.000	-6.13872	2.20046	-7.47583	1.55988
1503.000	-6.15826	2.18853	-7.44473	1.52057
1504.000	-6.11527	2.24796	-7.44473	1.55014
1505.000	-6.18758	2.19236	-7.34752	1.55442
1506.000	-6.10549	2.24208	-7.52635	1.51240
1507.000	-6.12699	2.19261	-7.40779	1.49901
1508.000	-6.17390	2.25364	-7.43890	1.55213
1509.000	-6.17585	2.19636	-7.50109	1.51249
1510.000	-6.12113	2.24201	-7.43695	1.56988
1511.000	-6.17781	2.27535	-7.42918	1.62707
1512.000	-6.12113	2.23806	-7.48360	1.56380
1513.000	-6.13090	2.25185	-7.53218	1.54983
1514.000	-6.12308	2.21435	-7.43306	1.56792
1515.000	-6.13481	2.25578	-7.45056	1.54617
1516.000	-6.13090	2.23210	-7.42335	1.58372
1517.000	-6.17585	2.15488	-7.40196	1.60352
1518.000	-6.11136	2.23810	-7.46222	1.57964
1519.000	-6.19344	2.21406	-7.40779	1.54041
1520.000	-6.14849	2.24980	-7.42335	1.61921
1521.000	-6.16608	2.22010	-7.36891	1.59378
1522.000	-6.17781	2.16673	-7.34946	1.52681
1523.000	-6.15045	2.23992	-7.49137	1.57757
1524.000	-6.09767	2.26384	-7.47388	1.54215
1525.000	-6.11331	2.24402	-7.48554	1.51648
1526.000	-6.14263	2.27352	-7.45639	1.60923
1527.000	-6.15240	2.23398	-7.41557	1.61332
1528.000	-6.13090	2.22222	-7.47971	1.66236
1529.000	-6.11527	2.24796	-7.42918	1.57385
1530.000	-6.21688	2.21001	-7.40585	1.63110
1531.000	-6.17781	2.21018	-7.37668	1.59178
1532.000	-6.11331	2.27760	-7.40779	1.52661
1533.000	-6.12504	2.22422	-7.37085	1.52477
1534.000	-6.16413	2.27343	-7.43501	1.56594
1535.000	-6.12504	2.22620	-7.38835	1.58779
1536.000	-6.14263	2.26562	-7.44473	1.58168
1537.000	-6.18953	2.22198	-7.46611	1.51064
1538.000	-6.17976	2.20819	-7.45445	1.57376
1539.000	-6.17585	2.26153	-7.43306	1.59552
1540.000	-6.13090	2.27752	-7.43695	1.55214
1541.000	-6.22079	2.25344	-7.43890	1.58958
1542.000	-6.13677	2.24985	-7.45250	1.56982
1543.000	-6.19930	2.18441	-7.46417	1.58949
1544.000	-6.13872	2.22812	-7.49137	1.57954
1545.000	-6.11918	2.26770	-7.44278	1.56000
1546.000	-6.15045	2.27744	-7.46805	1.59539
1547.000	-6.14458	2.22414	-7.40779	1.63701
1548.000	-6.15826	2.22211	-7.34363	1.56232
1549.000	-6.12699	2.20446	-7.46611	1.56977
1550.000	-6.11527	2.21439	-7.45056	1.50872
1551.000	-6.16608	2.21615	-7.42335	1.56598
1552.000	-6.13677	2.25380	-7.43890	1.50679
1553.000	-6.09767	2.18286	-7.41557	1.57981
1554.000	-6.13677	2.20640	-7.42140	1.55022
1555.000	-6.14654	2.23401	-7.46417	1.53036
1556.000	-6.18953	2.21605	-7.42335	1.54036
1557.000	-6.11527	2.26574	-7.37474	1.56813
1558.000	-6.14849	2.25375	-7.45639	1.51461
1559.000	-6.15631	2.22607	-7.42335	1.51473
1560.000	-6.08595	2.21451	-7.51081	1.55582
1561.000	-6.21102	2.23176	-7.38641	1.56020
1562.000	-6.13090	2.22815	-7.37280	1.48138
1563.000	-6.15045	2.23992	-7.42335	1.54627
1564.000	-6.19930	2.16861	-7.44278	1.55212
1565.000	-6.16022	2.20630	-7.45445	1.51462
1566.000	-6.14654	2.21821	-7.41168	1.54237
1567.000	-6.18367	2.21015	-7.40196	1.57394
1568.000	-6.22079	2.16260	-7.44473	1.57576
1569.000	-6.09963	2.23223	-7.51275	1.59720
1570.000	-6.17781	2.22005	-7.36891	1.55632
1571.000	-6.24228	2.20991	-7.48166	1.55986
1572.000	-6.16217	2.17272	-7.46028	1.52840
1573.000	-6.16413	2.16481	-7.50303	1.53613
1574.000	-6.22275	2.23764	-7.43306	1.60932
1575.000	-6.22665	2.19022	-7.41362	1.52068
1576.000	-6.14849	2.18462	-7.45056	1.57180
1577.000	-6.16413	2.21418	-7.48749	1.58941
1578.000	-6.18562	2.20817	-7.52635	1.57153
1579.000	-6.16022	2.25172	-7.46805	1.52640
1580.000	-6.17976	2.22597	-7.43501	1.55411
1581.000	-6.20321	2.18835	-7.36696	1.59773
1582.000	-6.20125	2.23575	-7.38252	1.55430
1583.000	-6.17781	2.23388	-7.38641	1.56414
1584.000	-6.17585	2.23783	-7.38835	1.54836
1585.000	-6.21298	2.22978	-7.38252	1.50698
1586.000	-6.18953	2.26937	-7.40585	1.52267
1587.000	-6.21688	2.18434	-7.49137	1.55589
1588.000	-6.16022	2.17075	-7.45250	1.55799
1589.000	-6.19735	2.19430	-7.48166	1.52044
1590.000	-6.21102	2.17449	-7.47777	1.50271
1591.000	-6.19148	2.20222	-7.41751	1.51869
1592.000	-6.12504	2.21830	-7.51469	1.53215
1593.000	-6.13286	2.20839	-7.45833	1.52841
1594.000	-6.14263	2.20637	-7.37863	1.50305
1595.000	-6.16413	2.20233	-7.42140	1.60147
1596.000	-6.15826	2.25766	-7.42335	1.60344
1597.000	-6.13872	2.21626	-7.42723	1.55020
1598.000	-6.19930	2.18046	-7.41557	1.57193
1599.000	-6.15045	2.18659	-7.45833	1.57571
1600.000	-6.15826	2.18853	-7.39224	1.60355
1601.000	-6.14263	2.19452	-7.45056	1.57180
1602.000	-6.14263	2.28142	-7.52830	1.55969
1603.000	-6.18562	2.20027	-7.49137	1.47310
1604.000	-6.17781	2.16870	-7.37863	1.58389
1605.000	-6.17194	2.18848	-7.42140	1.52065
1606.000	-6.23642	2.17044	-7.45056	1.54026
1607.000	-6.16217	2.18259	-7.46611	1.53626
1608.000	-6.18367	2.17460	-7.50109	1.53417
1609.000	-6.13090	2.21037	-7.41751	1.54629
1610.000	-6.14849	2.19845	-7.43306	1.56398
1611.000	-6.18171	2.17856	-7.43306	1.54821
1612.000	-6.14067	2.17083	-7.45445	1.51265
1613.000	-6.16608	2.18653	-7.43112	1.62706
1614.000	-6.21102	2.16857	-7.40974	1.50098
1615.000	-6.18953	2.19235	-7.49720	1.54601
1616.000	-6.13872	2.18466	-7.49137	1.55786
1617.000	-6.14654	2.20241	-7.47194	1.57567
1618.000	-6.17976	2.14499	-7.40196	1.60746
1619.000	-6.18367	2.25162	-7.40585	1.54830
1620.000	-6.16999	2.21416	-7.39807	1.57790
1621.000	-6.14263	2.20637	-7.47194	1.55595
1622.000	-6.15045	2.15104	-7.42140	1.58965
1623.000	-6.21493	2.16855	-7.45445	1.53828
1624.000	-6.14263	2.17082	-7.47194	1.52245
1625.000	-6.17781	2.13513	-7.47971	1.61703
1626.000	-6.15631	2.18854	-7.42529	1.49107
1627.000	-6.11918	2.19857	-7.48166	1.58746
1628.000	-6.15631	2.24187	-7.44862	1.57378
1629.000	-6.13677	2.12936	-7.48749	1.52633
1630.000	-6.18171	2.16869	-7.45056	1.47718
1631.000	-6.16022	2.19840	-7.42529	1.52064
1632.000	-6.13090	2.15902	-7.46028	1.60527
1633.000	-6.16803	2.24774	-7.38057	1.52473
1634.000	-6.18562	2.20422	-7.48360	1.60322
1635.000	-6.18562	2.20027	-7.44278	1.62308
1636.000	-6.14458	2.21032	-7.43695	1.60339
1637.000	-6.16999	2.17268	-7.36502	1.53859
1638.000	-6.14263	2.18070	-7.39029	1.59370
1639.000	-6.17976	2.20029	-7.44278	1.59154
1640.000	-6.17781	2.23388	-7.45833	1.61316
1641.000	-6.16608	2.20430	-7.34752	1.58597
1642.000	-6.19735	2.21405	-7.40779	1.48718
1643.000	-6.15826	2.18063	-7.46611	1.52838
1644.000	-6.18758	2.20224	-7.46611	1.52641
1645.000	-6.18562	2.17855	-7.34946	1.57413
1646.000	-6.19539	2.13900	-7.38446	1.54444
1647.000	-6.16608	2.21615	-7.45056	1.57180
1648.000	-6.14263	2.21822	-7.39807	1.56607
1649.000	-6.19539	2.21208	-7.38641	1.66863
1650.000	-6.16999	2.24181	-7.42140	1.53445
1651.000	-6.17585	2.23783	-7.44473	1.61124
1652.000	-6.15826	2.19446	-7.47000	1.53428
1653.000	-6.09572	2.18879	-7.37280	1.52279
1654.000	-6.13872	2.17479	-7.36307	1.61548
1655.000	-6.17781	2.21808	-7.43306	1.61129
1656.000	-6.14067	2.21033	-7.44278	1.53437
1657.000	-6.18953	2.19038	-7.42335	1.56401
1658.000	-6.13677	2.17282	-7.41362	1.61530
1659.000	-6.16803	2.16677	-7.38446	1.54641
1660.000	-6.14458	2.19451	-7.46222	1.53431
1661.000	-6.12308	2.17880	-7.41946	1.60345
1662.000	-6.21688	2.15472	-7.49332	1.64654
1663.000	-6.14263	2.19650	-7.47194	1.55990
1664.000	-6.22861	2.13294	-7.52441	1.55577
1665.000	-6.16608	2.20430	-7.43306	1.50287
1666.000	-6.19539	2.17653	-7.53218	1.47296
1667.000	-6.22275	2.18432	-7.39613	1.56214
1668.000	-6.16803	2.22009	-7.40974	1.56406
1669.000	-6.17976	2.18252	-7.45250	1.55997
1670.000	-6.22861	2.19022	-7.44667	1.55013
1671.000	-6.17390	2.22007	-7.52441	1.50255
1672.000	-6.19148	2.18642	-7.46611	1.54612
1673.000	-6.17194	2.19045	-7.40974	1.58377
1674.000	-6.17976	2.13512	-7.41168	1.53054
1675.000	-6.23251	2.16650	-7.48360	1.56577
1676.000	-6.18562	2.19829	-7.50692	1.60707
1677.000	-6.16803	2.20429	-7.40779	1.54435
1678.000	-6.13481	2.20048	-7.43890	1.59944
1679.000	-6.11722	2.17883	-7.45639	1.55995
1680.000	-6.20907	2.19227	-7.51664	1.51046
1681.000	-6.15045	2.20437	-7.50109	1.54600
1682.000	-6.14849	2.17870	-7.46805	1.57174
1683.000	-6.18171	2.16079	-7.50498	1.58540
1684.000	-6.23251	2.16453	-7.42918	1.56005
1685.000	-6.21688	2.23766	-7.55161	1.53990
1686.000	-6.21688	2.19224	-7.43695	1.48708
1687.000	-6.18758	2.15286	-7.43306	1.51075
1688.000	-6.24228	2.15264	-7.46028	1.55402
1689.000	-6.20907	2.17647	-7.52441	1.59715
1690.000	-6.24814	2.13287	-7.36307	1.51296
1691.000	-6.22079	2.16260	-7.44667	1.59350
1692.000	-6.19930	2.22786	-7.43112	1.57975
1693.000	-6.26377	2.18020	-7.44667	1.53042
1694.000	-6.22275	2.20999	-7.49915	1.55586
1695.000	-6.27354	2.14856	-7.39418	1.44780
1696.000	-6.24619	2.23359	-7.44473	1.51268
1697.000	-6.24033	2.18227	-7.41168	1.56602
1698.000	-6.24228	2.17436	-7.44278	1.54620
1699.000	-6.24033	2.17634	-7.39613	1.60354
1700.000	-6.23642	2.23560	-7.49137	1.56574
1701.000	-6.21102	2.22189	-7.42140	1.65469
1702.000	-6.16803	2.28921	-7.42723	1.67833
1703.000	-6.18367	2.33061	-7.42723	1.77293
1704.000	-6.05271	2.42401	-7.20746	1.88225
1705.000	-6.00970	2.56638	-7.22497	1.97483
1706.000	-5.73973	2.76711	-6.92903	2.37051
1707.000	-5.54786	2.94777	-6.69317	2.55509
1708.000	-5.30882	3.18597	-6.34190	2.91197
1709.000	-4.83217	3.61500	-6.04489	3.25882
1710.000	-4.52974	3.98184	-5.61836	3.70315
1711.000	-4.30570	4.39741	-5.38134	4.21122
1712.000	-3.86313	4.76470	-5.04214	4.55630
1713.000	-3.41419	5.27156	-4.64367	5.04138
1714.000	-3.01609	5.69290	-4.33518	5.56273
1715.000	-2.71831	6.17603	-4.00480	6.01293
1716.000	-2.40460	6.56428	-3.68400	6.35269
1717.000	-2.09666	6.99302	-3.42010	6.76609
1718.000	-1.68590	7.35485	-3.12452	7.11845
1719.000	-1.46266	7.65277	-2.85243	7.35484
1720.000	-1.29076	7.94030	-2.59995	7.57325
1721.000	-0.99236	8.13224	-2.41249	7.76369
1722.000	-0.94097	8.30773	-2.27039	7.86202
1723.000	-0.86784	8.40136	-2.16181	7.92891
1724.000	-0.84214	8.53569	-2.09271	7.93706
1725.000	-0.84412	8.48510	-1.95252	7.81483
1726.000	-0.91330	8.47716	-1.94067	7.88708
1727.000	-0.98445	8.40498	-2.08877	7.81028
1728.000	-1.22160	8.31087	-2.16971	7.76499
1729.000	-1.30262	8.24439	-2.18156	7.67904
1730.000	-1.44291	8.18547	-2.24078	7.66507
1731.000	-1.55157	8.06813	-2.34934	7.47112
1732.000	-1.67009	8.00722	-2.39473	7.42006
1733.000	-1.76886	7.94441	-2.48946	7.36872
1734.000	-1.92883	7.86957	-2.57627	7.27634
1735.000	-2.01571	7.77355	-2.72029	7.11511
1736.000	-2.08877	7.76149	-2.68873	7.10551
1737.000	-2.15984	7.64204	-2.72423	7.00157
1738.000	-2.21117	7.60468	-2.80510	6.94237
1739.000	-2.17563	7.54039	-2.84257	6.88928
1740.000	-2.16379	7.49551	-2.71831	6.98399
1741.000	-2.16181	7.46621	-2.74396	6.88397
1742.000	-2.05915	7.45106	-2.64533	6.92761
1743.000	-1.99004	7.44355	-2.57627	6.96128
1744.000	-1.93080	7.50050	-2.50524	7.00474
1745.000	-1.95450	7.44175	-2.44012	7.03249
1746.000	-1.84391	7.49696	-2.40855	7.13053
1747.000	-1.78071	7.58516	-2.34539	7.19934
1748.000	-1.67009	7.62076	-2.25657	7.27413
1749.000	-1.64837	7.69116	-2.19143	7.40156
1750.000	-1.48242	7.76988	-2.17563	7.45050
1751.000	-1.44093	7.86567	-2.10654	7.57004
1752.000	-1.38561	7.94390	-2.14997	7.51121
1753.000	-1.32040	7.93436	-2.19538	7.62038
1754.000	-1.25124	8.09059	-2.10456	7.73408
1755.000	-1.26508	8.12954	-2.11246	7.73795
1756.000	-1.19789	8.20185	-2.04730	7.77145
1757.000	-1.21172	8.21740	-2.09074	7.81612
1758.000	-1.20184	8.20963	-2.08482	7.81030
1759.000	-1.19789	8.24276	-2.05915	7.83189
1760.000	-1.26705	8.26009	-2.07297	7.90205
1761.000	-1.19987	8.29730	-2.15194	7.86850
1762.000	-1.26508	8.26983	-2.21512	7.85842
1763.000	-1.24334	8.28743	-2.14800	7.80218
1764.000	-1.26903	8.29319	-2.29210	7.80143
1765.000	-1.29274	8.27364	-2.19143	7.79415
1766.000	-1.33424	8.25402	-2.21906	7.73351
1767.000	-1.33424	8.24818	-2.23683	7.79197
1768.000	-1.30657	8.24827	-2.23880	7.74512
1769.000	-1.31250	8.23267	-2.29407	7.77995
1770.000	-1.38561	8.24801	-2.24867	7.73921
1771.000	-1.36387	8.20133	-2.31184	7.77400
1772.000	-1.34214	8.19166	-2.31381	7.62563
1773.000	-1.36783	8.16624	-2.28026	7.66096
1774.000	-1.42710	8.14850	-2.30789	7.68229
1775.000	-1.43896	8.10752	-2.22301	7.63587
1776.000	-1.43303	8.13483	-2.31579	7.61781
1777.000	-1.45279	8.14256	-2.22104	7.60658
1778.000	-1.42908	8.04712	-2.24078	7.64749
1779.000	-1.44488	8.11725	-2.29407	7.54175
1780.000	-1.39944	8.08427	-2.27828	7.64925
1781.000	-1.42908	8.08222	-2.33158	7.54350
1782.000	-1.41722	8.11540	-2.31776	7.56897
1783.000	-1.47254	8.08596	-2.32368	7.59433
1784.000	-1.46266	8.10939	-2.25854	7.60444
1785.000	-1.45871	8.12695	-2.29802	7.61400
1786.000	-1.44291	8.07632	-2.29013	7.61599
1787.000	-1.43698	8.05099	-2.29407	7.57105
1788.000	-1.45081	8.12308	-2.29407	7.56714
1789.000	-1.42513	8.11537	-2.32171	7.60606
1790.000	-1.40932	8.07449	-2.29605	7.57690
1791.000	-1.44488	8.11920	-2.25657	7.58492
1792.000	-1.46266	8.09185	-2.30000	7.65695
1793.000	-1.40339	8.08620	-2.34144	7.57666
1794.000	-1.41920	8.05691	-2.23683	7.62603
1795.000	-1.42315	8.06859	-2.28026	7.58479
1796.000	-1.46069	8.07041	-2.24473	7.60060
1797.000	-1.44093	8.07828	-2.16774	7.58732
1798.000	-1.43105	8.05102	-2.24473	7.56935
1799.000	-1.39944	8.08427	-2.25065	7.62206
1800.000	-1.42908	8.07832	-2.29605	7.64525
1801.000	-1.42117	8.09979	-2.23683	7.66118
1802.000	-1.42513	8.09198	-2.23288	7.66120
1803.000	-1.33819	8.12541	-2.23091	7.63583
1804.000	-1.43105	8.09001	-2.25657	7.63569
1805.000	-1.34412	8.09030	-2.29210	7.61207
1806.000	-1.40537	8.09594	-2.28223	7.63166
1807.000	-1.39154	8.08040	-2.21314	7.59295
1808.000	-1.41525	8.09981	-2.20130	7.63403
1809.000	-1.38758	8.11160	-2.25854	7.61811
1810.000	-1.36980	8.09217	-2.30394	7.63545
1811.000	-1.40537	8.12129	-2.25854	7.65521
1812.000	-1.36387	8.09608	-2.28223	7.64337
1813.000	-1.37178	8.08631	-2.29013	7.61794
1814.000	-1.37968	8.11942	-2.28815	7.70191
1815.000	-1.37573	8.06290	-2.28618	7.68631
1816.000	-1.42315	8.08614	-2.29802	7.64524
1817.000	-1.36387	8.14287	-2.25657	7.64546
1818.000	-1.38956	8.11744	-2.18748	7.67315
1819.000	-1.43105	8.04907	-2.27828	7.66682
1820.000	-1.44291	8.04902	-2.25065	7.68649
1821.000	-1.36980	8.07462	-2.24670	7.62403
1822.000	-1.37771	8.11748	-2.23486	7.65143
1823.000	-1.40339	8.09400	-2.24078	7.65921
1824.000	-1.41722	8.07836	-2.19735	7.71800
1825.000	-1.39944	8.10376	-2.22301	7.64758
1826.000	-1.43303	8.12314	-2.30986	7.60808
1827.000	-1.33028	8.12349	-2.31184	7.66274
1828.000	-1.40537	8.13298	-2.24670	7.63575
1829.000	-1.33819	8.16439	-2.33750	7.63136
1830.000	-1.41129	8.10762	-2.26841	7.62587
1831.000	-1.39351	8.11548	-2.29605	7.61987
1832.000	-1.42710	8.11731	-2.28815	7.62772
1833.000	-1.36190	8.12338	-2.28223	7.60822
1834.000	-1.37178	8.09411	-2.17761	7.61657
1835.000	-1.40537	8.10179	-2.30000	7.69209
1836.000	-1.40537	8.10959	-2.21314	7.66911
1837.000	-1.39154	8.07845	-2.28420	7.65312
1838.000	-1.38758	8.07846	-2.17761	7.67515
1839.000	-1.41525	8.08032	-2.26644	7.70398
1840.000	-1.38758	8.08041	-2.19538	7.68482
1841.000	-1.38956	8.08040	-2.32171	7.68221
1842.000	-1.37375	8.04926	-2.32763	7.66656
1843.000	-1.39746	8.12326	-2.27236	7.66100
1844.000	-1.38758	8.06286	-2.28618	7.76243
1845.000	-1.40734	8.09789	-2.28420	7.60821
1846.000	-1.42315	8.11538	-2.25854	7.72354
1847.000	-1.42513	8.13486	-2.29802	7.63157
1848.000	-1.39746	8.09987	-2.29605	7.64330
1849.000	-1.48440	8.13075	-2.27631	7.67855
1850.000	-1.44488	8.10555	-2.24275	7.65139
1851.000	-1.39549	8.10767	-2.24670	7.64942
1852.000	-1.43303	8.09975	-2.22893	7.70613
1853.000	-1.39944	8.11546	-2.22499	7.67882
1854.000	-1.43698	8.05489	-2.26841	7.62001
1855.000	-1.40537	8.08425	-2.35329	7.68009
1856.000	-1.37968	8.10773	-2.27039	7.73910
1857.000	-1.39351	8.16420	-2.24473	7.66700
1858.000	-1.40142	8.13689	-2.25854	7.69426
1859.000	-1.43105	8.08416	-2.22104	7.65345
1860.000	-1.36585	8.08243	-2.26447	7.64542
1861.000	-1.40142	8.08231	-2.28420	7.71950
1862.000	-1.35795	8.08831	-2.23091	7.67879
1863.000	-1.40537	8.11349	-2.26249	7.69424
1864.000	-1.37375	8.11165	-2.30000	7.58469
1865.000	-1.43500	8.07050	-2.22499	7.66710
1866.000	-1.39549	8.10962	-2.22893	7.58896
1867.000	-1.38363	8.13500	-2.28223	7.63166
1868.000	-1.33028	8.09035	-2.20722	7.71014
1869.000	-1.35004	8.11757	-2.21117	7.65741
1870.000	-1.35597	8.10976	-2.27828	7.70197
1871.000	-1.31843	8.07284	-2.25262	7.63767
1872.000	-1.41327	8.09202	-2.19735	7.64967
1873.000	-1.37573	8.06095	-2.26447	7.69813
1874.000	-1.35202	8.10977	-2.28420	7.60040
1875.000	-1.34214	8.12150	-2.25657	7.67475
1876.000	-1.36585	8.09608	-2.29407	7.66479
1877.000	-1.35399	8.09417	-2.25657	7.61031
1878.000	-1.37968	8.08433	-2.21709	7.70619
1879.000	-1.42710	8.10951	-2.26841	7.63954
1880.000	-1.37178	8.09216	-2.26644	7.67665
1881.000	-1.33621	8.10202	-2.28223	7.68047
1882.000	-1.38166	8.09992	-2.28026	7.64338
1883.000	-1.41129	8.14270	-2.25065	7.63182
1884.000	-1.34016	8.12735	-2.27433	7.68246
1885.000	-1.35399	8.07272	-2.25262	7.68063
1886.000	-1.37573	8.10189	-2.30000	7.70185
1887.000	-1.36980	8.10776	-2.19538	7.67897
1888.000	-1.36190	8.05515	-2.22499	7.61633
1889.000	-1.36980	8.08827	-2.23091	7.65340
1890.000	-1.38956	8.03556	-2.28026	7.72538
1891.000	-1.33226	8.04550	-2.22499	7.71396
1892.000	-1.37375	8.09995	-2.12628	7.71446
1893.000	-1.36190	8.09804	-2.22104	7.71593
1894.000	-1.34214	8.08056	-2.21314	7.64373
1895.000	-1.35004	8.09613	-2.20130	7.63207
1896.000	-1.37375	8.09605	-2.23486	7.71586
1897.000	-1.35795	8.09415	-2.27631	7.68050
1898.000	-1.36585	8.09413	-2.28223	7.67266
1899.000	-1.35399	8.10586	-2.22696	7.75299
1900.000	-1.38956	8.10769	-2.21709	7.69057
1901.000	-1.36783	8.13311	-2.24078	7.72168
1902.000	-1.36387	8.10388	-2.31973	7.69003
1903.000	-1.38561	8.11550	-2.28420	7.66679
1904.000	-1.33028	8.09814	-2.25854	7.64350
1905.000	-1.35202	8.06103	-2.14602	7.68702
1906.000	-1.37375	8.09410	-2.28815	7.73315
1907.000	-1.38956	8.06091	-2.18353	7.65364
1908.000	-1.39944	8.09596	-2.31776	7.69199
1909.000	-1.40932	8.07449	-2.26447	7.71961
1910.000	-1.35597	8.09221	-2.23880	7.65531
1911.000	-1.38561	8.09991	-2.15787	7.70649
1912.000	-1.36387	8.10193	-2.25065	7.65916
1913.000	-1.34412	8.12929	-2.26447	7.65909
1914.000	-1.37375	8.09215	-2.24670	7.72556
1915.000	-1.36783	8.08632	-2.22893	7.64755
1916.000	-1.39351	8.05504	-2.22104	7.72569
1917.000	-1.43105	8.05297	-2.25460	7.68842
1918.000	-1.35597	8.07662	-2.21314	7.68864
1919.000	-1.43698	8.06464	-2.18748	7.69853
1920.000	-1.38956	8.10185	-2.22893	7.63388
1921.000	-1.37771	8.14672	-2.26644	7.68446
1922.000	-1.35597	8.07662	-2.25460	7.71575
1923.000	-1.38956	8.05701	-2.19143	7.72194
1924.000	-1.34412	8.04936	-2.28815	7.69996
1925.000	-1.47057	8.03138	-2.24275	7.78803
1926.000	-1.39549	8.04334	-2.24275	7.69434
1927.000	-1.40734	8.09009	-2.29013	7.71166
1928.000	-1.40142	8.07646	-2.10654	7.73603
1929.000	-1.38561	8.05117	-2.27631	7.65707
1930.000	-1.38166	8.07458	-2.16774	7.72401
1931.000	-1.36783	8.07268	-2.17958	7.70052
1932.000	-1.36783	8.08048	-2.21709	7.65152
1933.000	-1.44291	8.06462	-2.20327	7.69455
1934.000	-1.36783	8.03758	-2.23091	7.70221
1935.000	-1.36980	8.06877	-2.20722	7.73747
1936.000	-1.37573	8.05705	-2.25657	7.75673
1937.000	-1.37573	8.02780	-2.24275	7.62600
1938.000	-1.33621	8.05523	-2.20327	7.64964
1939.000	-1.35399	8.11171	-2.25065	7.69625
1940.000	-1.35399	8.07662	-2.18353	7.58333
1941.000	-1.36980	8.06682	-2.17761	7.74934
1942.000	-1.39154	8.07455	-2.13418	7.77298
1943.000	-1.36585	8.06294	-2.22893	7.73931
1944.000	-1.38758	8.03751	-2.27828	7.70197
1945.000	-1.32831	8.07671	-2.19143	7.72779
1946.000	-1.38956	8.06091	-2.18156	7.75127
1947.000	-1.33028	8.07670	-2.26841	7.67664
1948.000	-1.36980	8.13310	-2.29013	7.77607
1949.000	-1.38166	8.05118	-2.25460	7.72161
1950.000	-1.32831	8.07281	-2.22301	7.68859
1951.000	-1.30460	8.06703	-2.20722	7.78041
1952.000	-1.34609	8.02010	-2.19932	7.62622
1953.000	-1.39944	8.02772	-2.22104	7.66712
1954.000	-1.27496	8.08467	-2.10851	7.69502
1955.000	-1.36387	8.06294	-2.14800	7.69092
1956.000	-1.37375	8.03951	-2.26447	7.72741
1957.000	-1.38956	8.06091	-2.19735	7.67115
1958.000	-1.35202	8.07273	-2.12430	7.79254
1959.000	-1.39154	8.00045	-2.20919	7.71404
1960.000	-1.34807	8.06104	-2.19735	7.69067
1961.000	-1.39154	8.04530	-2.22696	7.72956
1962.000	-1.35597	8.05907	-2.16774	7.66739
1963.000	-1.38363	8.06483	-2.19538	7.73949
1964.000	-1.32436	8.05332	-2.23683	7.69828
1965.000	-1.38561	8.08237	-2.18550	7.74149
1966.000	-1.27693	8.08467	-2.21117	7.72964
1967.000	-1.36190	8.07075	-2.17563	7.71226
1968.000	-1.33621	8.05523	-2.20327	7.69455
1969.000	-1.32831	8.09035	-2.26841	7.73715
1970.000	-1.34016	8.08642	-2.15194	7.69090
1971.000	-1.37375	8.09605	-2.20327	7.69259
1972.000	-1.39549	8.09013	-2.21314	7.74525
1973.000	-1.35202	8.06883	-2.22499	7.76275
1974.000	-1.32238	8.03383	-2.20130	7.73165
1975.000	-1.38956	8.01216	-2.19538	7.67897
1976.000	-1.34016	8.06887	-2.22301	7.75496
1977.000	-1.35399	8.07077	-2.25657	7.75478
1978.000	-1.36783	8.06098	-2.26644	7.68251
1979.000	-1.38561	8.02192	-2.22696	7.72175
1980.000	-1.33424	8.05719	-2.11246	7.76918
1981.000	-1.34609	8.08640	-2.11838	7.78086
1982.000	-1.39746	8.05698	-2.15392	7.71432
1983.000	-1.35399	8.03373	-2.25460	7.71966
1984.000	-1.36387	8.06294	-2.22893	7.80762
1985.000	-1.32040	8.03383	-2.14602	7.69679
1986.000	-1.33424	8.04939	-2.06310	7.74014
1987.000	-1.34016	8.04937	-2.08284	7.77908
1988.000	-1.35399	8.02593	-2.13812	7.70464
1989.000	-1.35992	8.03761	-2.20327	7.68869
1990.000	-1.34412	8.04546	-2.19735	7.70824
1991.000	-1.32238	8.04748	-2.13812	7.64411
1992.000	-1.34016	8.02402	-2.19932	7.69066
1993.000	-1.33028	8.01430	-2.22696	7.67685
1994.000	-1.35795	8.03371	-2.08679	7.72246
1995.000	-1.36980	8.00637	-2.21117	7.73550
1996.000	-1.37573	8.01610	-2.15787	7.71430
1997.000	-1.35795	8.01031	-2.18748	7.74343
1998.000	-1.39746	8.00433	-2.21314	7.74720
1999.000	-1.32831	8.00651	-2.13615	7.71636
2000.000	-1.34016	7.99477	-2.22893	7.74907
2001.000	-1.42117	7.97109	-2.19538	7.67116
2002.000	-1.38363	7.98487	-2.22499	7.72762
2003.000	-1.42513	7.93987	-2.15787	7.65572
2004.000	-1.39351	8.03749	-2.16576	7.67521
2005.000	-1.39549	8.03359	-2.23683	7.66118
2006.000	-1.36783	8.05318	-2.15984	7.80407
2007.000	-1.24532	8.01652	-2.04533	7.75779
2008.000	-1.16429	8.00115	-1.86563	7.71566
2009.000	-1.05955	7.94485	-1.83008	7.69629
2010.000	-0.80261	7.96494	-1.54762	7.62317
2011.000	-0.50017	7.86002	-1.20184	7.47179
2012.000	-0.15816	7.66302	-0.87970	7.34736
2013.000	0.16607	7.41471	-0.46854	7.12086
2014.000	0.62471	7.11872	0.04745	6.79570
2015.000	1.07932	6.85530	0.46656	6.66009
2016.000	1.53774	6.62458	0.99038	6.30192
2017.000	1.87353	6.24450	1.43896	5.87613
2018.000	2.43618	5.86286	1.91105	5.55975
2019.000	2.70451	5.48973	2.30986	5.19579
2020.000	2.99835	5.07860	2.68873	4.76632
2021.000	3.31174	4.72219	2.95300	4.34077
2022.000	3.58949	4.32421	3.29401	3.99758
2023.000	3.77456	3.88487	3.58161	3.50409
2024.000	3.89659	3.52063	3.88478	3.05182
2025.000	4.12086	3.09645	4.06185	2.70080
2026.000	4.18379	2.70435	4.18773	2.30035
2027.000	4.28014	2.35355	4.33518	1.90964
2028.000	4.49241	2.13109	4.44918	1.60617
2029.000	4.57099	1.79016	4.67706	1.24501
2030.000	4.80076	1.44491	4.86554	0.84240
2031.000	5.03429	1.14134	4.90086	0.52724
2032.000	5.29706	0.85966	5.15394	0.22984
2033.000	5.54394	0.64154	5.23825	-0.00594
2034.000	5.70841	0.41372	5.40485	-0.32481
2035.000	5.89431	0.10686	5.53807	-0.54255
2036.000	6.03316	-0.11277	5.55178	-0.71478
2037.000	6.10940	-0.26309	5.64381	-0.85917
2038.000	6.27549	-0.37572	5.71624	-1.07675
2039.000	6.32042	-0.49828	5.70841	-1.19747
2040.000	6.41415	-0.65435	5.72016	-1.15985
2041.000	6.42976	-0.65038	5.70254	-1.17769
2042.000	6.46685	-0.68591	5.67514	-1.15598
2043.000	6.45709	-0.61872	5.64773	-1.05312
2044.000	6.46490	-0.52976	5.63206	-0.95617
2045.000	6.51760	-0.36171	5.80040	-0.81342
2046.000	6.54102	-0.23322	5.73973	-0.67299
2047.000	6.64441	-0.10078	5.83953	-0.48289
2048.000	6.66587	0.09485	5.84736	-0.32061
2049.000	6.80431	0.20939	5.98819	-0.15037
2050.000	6.83939	0.41875	6.01165	0.00396
2051.000	6.96604	0.54107	6.13872	0.09890
2052.000	7.02252	0.61010	6.11136	0.17605
2053.000	7.03421	0.62785	6.16803	0.32438
2054.000	7.04200	0.62784	6.10940	0.25913
2055.000	7.02836	0.69696	6.17976	0.19779
2056.000	7.00305	0.62395	6.09181	0.16617
2057.000	6.98162	0.53907	6.13090	0.03561
2058.000	6.94851	0.40681	6.09572	-0.04945
2059.000	6.96214	0.32188	6.09963	-0.18990
2060.000	6.95630	0.25672	6.08986	-0.24530
2061.000	6.91149	0.14615	6.10158	-0.40552
2062.000	6.96799	0.03357	6.12308	-0.46682
2063.000	6.96409	-0.03950	6.22275	-0.62098
2064.000	7.03031	-0.15203	6.16803	-0.71004
2065.000	7.00694	-0.20338	6.24424	-0.77914
2066.000	7.07315	-0.23297	6.22275	-0.86420
2067.000	7.11209	-0.33362	6.23838	-0.88790
2068.000	7.12961	-0.33559	6.26573	-0.95112
2069.000	7.18021	-0.33357	6.25400	-1.07964
2070.000	7.22691	-0.36314	6.30479	-0.97477
2071.000	7.26193	-0.41245	6.39072	-1.03192
2072.000	7.24637	-0.44996	6.42976	-0.99034
2073.000	7.27750	-0.41244	6.28721	-1.03015
2074.000	7.27361	-0.45388	6.28721	-1.09341
2075.000	7.24637	-0.42233	6.32237	-1.11508
2076.000	7.29500	-0.44399	6.29893	-1.14675
2077.000	7.25610	-0.44403	6.32628	-1.18425
2078.000	7.29889	-0.46175	6.27940	-1.04796
2079.000	7.28139	-0.44992	6.28331	-1.07365
2080.000	7.29500	-0.41242	6.28721	-1.09934
2081.000	7.23859	-0.41839	6.22275	-1.02435
2082.000	7.26777	-0.40258	6.19148	-1.01057
2083.000	7.25999	-0.40061	6.24814	-1.04011
2084.000	7.27555	-0.38876	6.17194	-1.04224
2085.000	7.25415	-0.36707	6.21688	-0.95516
2086.000	7.25026	-0.35918	6.29893	-0.98268
2087.000	7.22302	-0.34144	6.16803	-0.94338
2088.000	7.22108	-0.37302	6.21688	-0.96307
2089.000	7.25221	-0.31773	6.24033	-0.94721
2090.000	7.24248	-0.33156	6.14263	-0.95134
2091.000	7.21913	-0.31381	6.17194	-0.86428
2092.000	7.24442	-0.32958	6.17194	-0.89394
2093.000	7.23859	-0.35327	6.17976	-0.83658
2094.000	7.22302	-0.34341	6.21884	-0.87804
2095.000	7.22302	-0.28223	6.16217	-0.87814
2096.000	7.21913	-0.27236	6.14067	-0.90190
2097.000	7.26193	-0.27036	6.16803	-0.82078
2098.000	7.21524	-0.32565	6.15240	-0.95132
2099.000	7.19578	-0.32369	6.19930	-0.87610
2100.000	7.20162	-0.26251	6.26182	-0.80482
2101.000	7.23081	-0.29012	6.21884	-0.85036
2102.000	7.19967	-0.29803	6.17781	-0.83659
2103.000	7.21524	-0.25658	6.30479	-0.82057
2104.000	7.22108	-0.26842	6.16999	-0.86230
2105.000	7.20356	-0.29408	6.19735	-0.89785
2106.000	7.20356	-0.28816	6.25010	-0.80484
2107.000	7.20940	-0.27829	6.24814	-0.76332
2108.000	7.20551	-0.32171	6.21884	-0.92154
2109.000	7.17827	-0.36318	6.14849	-0.89003
2110.000	7.22302	-0.31973	6.22861	-0.90571
2111.000	7.23275	-0.37498	6.23838	-0.94919
2112.000	7.18800	-0.31975	6.24424	-0.92743
2113.000	7.18216	-0.31976	6.23642	-0.91163
2114.000	7.24442	-0.35524	6.12113	-0.89007
2115.000	7.17048	-0.40661	6.16217	-0.93153
2116.000	7.21135	-0.38684	6.26768	-0.95111
2117.000	7.20940	-0.35921	6.26182	-0.91356
2118.000	7.23275	-0.37103	6.17976	-0.93941
2119.000	7.20940	-0.39474	6.12308	-0.96126
2120.000	7.21135	-0.37500	6.21102	-0.96308
2121.000	7.20551	-0.37106	6.15435	-0.94934
2122.000	7.25415	-0.38286	6.15826	-0.91967
2123.000	7.21524	-0.35921	6.25205	-0.99464
2124.000	7.21719	-0.37499	6.25400	-0.99661
2125.000	7.22691	-0.36512	6.15826	-0.99481
2126.000	7.18994	-0.37304	6.22665	-0.96107
2127.000	7.23470	-0.36314	6.17194	-1.02445
2128.000	7.20162	-0.36316	6.22665	-0.97689
2129.000	7.24248	-0.38879	6.19344	-0.99672
2130.000	7.22691	-0.36709	6.21102	-0.93540
2131.000	7.21524	-0.38092	6.16217	-0.89198
2132.000	7.21524	-0.36118	6.15240	-0.86431
2133.000	7.23664	-0.40063	6.15240	-0.90188
2134.000	7.22886	-0.36709	6.12113	-0.87425
2135.000	7.22691	-0.38091	6.15826	-0.93351
2136.000	7.20551	-0.36316	6.25205	-0.80088
2137.000	7.21135	-0.37894	6.10549	-0.99689
2138.000	7.22497	-0.39472	6.22861	-0.91559
2139.000	7.22691	-0.38091	6.16413	-1.00469
2140.000	7.21719	-0.37894	6.27354	-0.90563
2141.000	7.21719	-0.39868	6.18758	-0.95323
2142.000	7.24442	-0.41444	6.11722	-0.89997
2143.000	7.23081	-0.44603	6.24228	-0.93336
2144.000	7.24053	-0.42036	6.19735	-0.94728
2145.000	7.24248	-0.36313	6.10940	-0.88614
2146.000	7.24832	-0.44404	6.27940	-0.92144
2147.000	7.23470	-0.41050	6.12699	-0.90984
2148.000	7.20940	-0.37303	6.06444	-0.96928
2149.000	7.26388	-0.45192	6.19344	-0.92554
2150.000	7.26193	-0.38088	6.13481	-0.93751
2151.000	7.26388	-0.42824	6.24033	-0.92744
2152.000	7.26582	-0.43613	6.11136	-0.97908
2153.000	7.28917	-0.43413	6.29307	-0.98072
2154.000	7.26388	-0.42824	6.21688	-0.95714
2155.000	7.24832	-0.41838	6.19930	-0.94728
2156.000	7.30862	-0.36308	6.17585	-0.87811
2157.000	7.29111	-0.38480	6.22665	-0.99666
2158.000	7.27555	-0.41836	6.26182	-0.91356
2159.000	7.25026	-0.40457	6.19148	-0.99475
2160.000	7.28722	-0.37296	6.26573	-0.95112
2161.000	7.30862	-0.35518	6.22275	-0.99864
2162.000	7.29306	-0.38480	6.23838	-0.92942
2163.000	7.32807	-0.35714	6.19539	-0.96706
2164.000	7.31834	-0.36307	6.25400	-1.05592
2165.000	7.32029	-0.40450	6.20125	-0.99078
2166.000	7.27555	-0.42822	6.24228	-1.06583
2167.000	7.25804	-0.36509	6.29307	-1.00049
2168.000	7.32223	-0.40450	6.17390	-0.89987
2169.000	7.27944	-0.39665	6.22079	-0.92352
2170.000	7.33196	-0.34135	6.25010	-0.93335
2171.000	7.23859	-0.38682	6.33799	-1.00633
2172.000	7.32418	-0.38082	6.26963	-1.07368
2173.000	7.29306	-0.40453	6.19735	-0.96508
2174.000	7.31445	-0.39464	6.24814	-0.95312
2175.000	7.31445	-0.36899	6.25205	-1.06976
2176.000	7.30084	-0.41241	6.35557	-1.06559
2177.000	7.28333	-0.40651	6.30479	-1.09140
2178.000	7.31445	-0.39464	6.22861	-1.03224
2179.000	7.30667	-0.43214	6.31065	-0.99848
2180.000	7.28333	-0.40454	6.27354	-0.94912
2181.000	7.31445	-0.40648	6.33213	-1.02611
2182.000	7.33001	-0.39463	6.24814	-0.95708
2183.000	7.31640	-0.37491	6.21688	-1.00261
2184.000	7.28917	-0.34928	6.22470	-0.96305
2185.000	7.30473	-0.40649	6.27354	-1.03216
2186.000	7.30473	-0.38676	6.31260	-0.99452
2187.000	7.31640	-0.36899	6.24228	-0.98081
2188.000	7.29695	-0.34533	6.25791	-0.98474
2189.000	7.27944	-0.34534	6.26963	-1.04600
2190.000	7.28722	-0.34139	6.25596	-1.00254
2191.000	7.29889	-0.39071	6.33799	-1.08144
2192.000	7.33196	-0.37292	6.27354	-1.07367
2193.000	7.31640	-0.37096	6.18171	-1.07583
2194.000	7.30862	-0.34729	6.27940	-1.01040
2195.000	7.28139	-0.35718	6.25010	-1.03813
2196.000	7.31056	-0.37886	6.25205	-1.08755
2197.000	7.33196	-0.38279	6.27549	-0.98471
2198.000	7.26972	-0.39271	6.24814	-0.99662
2199.000	7.30862	-0.40057	6.26573	-1.00054
2200.000	7.29889	-0.39663	6.26377	-1.05985
2201.000	7.27555	-0.43020	6.33018	-0.99646
2202.000	7.27555	-0.44006	6.29503	-1.00641
2203.000	7.27750	-0.40257	6.28526	-0.96294
2204.000	7.27166	-0.40060	6.15826	-1.05215
2205.000	7.29889	-0.38676	6.26182	-1.05590
2206.000	7.30667	-0.41636	6.27549	-1.04204
2207.000	7.29695	-0.47359	6.21102	-1.03821
2208.000	7.25221	-0.43417	6.21688	-1.05995
2209.000	7.29695	-0.43610	6.29698	-1.05385
2210.000	7.29889	-0.36901	6.28917	-0.99852
2211.000	7.29889	-0.40452	6.25400	-1.07173
2212.000	7.32029	-0.38675	6.20321	-1.00066
2213.000	7.26777	-0.37890	6.34190	-1.04783
2214.000	7.27750	-0.43414	6.28721	-1.05387
2215.000	7.24637	-0.40654	6.26573	-1.04799
2216.000	7.25221	-0.41246	6.20712	-0.99274
2217.000	7.30278	-0.45188	6.16022	-0.98690
2218.000	7.30473	-0.41636	6.18367	-0.97697
2219.000	7.28917	-0.40453	6.27549	-1.09541
2220.000	7.28333	-0.40848	6.30674	-1.08744
2221.000	7.35529	-0.40447	6.32042	-1.03009
2222.000	7.30084	-0.45188	6.31651	-1.06963
2223.000	7.30473	-0.43609	6.26963	-0.97681
2224.000	7.30473	-0.43017	6.40243	-1.05561
2225.000	7.30862	-0.40649	6.31651	-1.04788
2226.000	7.29500	-0.46570	6.27940	-0.94911
2227.000	7.29889	-0.48740	6.38095	-1.03985
2228.000	7.28528	-0.42032	6.16413	-0.99678
2229.000	7.31056	-0.43214	6.29307	-1.03409
2230.000	7.28722	-0.43611	6.27745	-1.10727
2231.000	7.26582	-0.42429	6.26768	-1.12113
2232.000	7.26972	-0.41836	6.32628	-1.07949
2233.000	7.26388	-0.39863	6.21102	-0.99471
2234.000	7.28917	-0.40651	6.25010	-0.99464
2235.000	7.29500	-0.42229	6.30284	-1.06373
2236.000	7.25610	-0.39075	6.20712	-1.01647
2237.000	7.29500	-0.44596	6.22861	-1.11923
2238.000	7.29889	-0.41834	6.26963	-1.10135
2239.000	7.30473	-0.43017	6.28135	-1.03807
2240.000	7.31640	-0.40648	6.26768	-1.01042
2241.000	7.30084	-0.45582	6.33018	-0.99251
2242.000	7.27361	-0.42625	6.29503	-1.06769
2243.000	7.30084	-0.43215	6.31651	-1.05184
2244.000	7.29889	-0.43807	6.24228	-1.09548
2245.000	7.28528	-0.43019	6.32042	-1.08543
2246.000	7.34363	-0.42816	6.24033	-1.04211
2247.000	7.32223	-0.44594	6.29698	-1.02222
2248.000	7.31251	-0.44003	6.30870	-1.12697
2249.000	7.29889	-0.42623	6.31651	-1.05381
2250.000	7.31251	-0.41240	6.25791	-1.05591
2251.000	7.32807	-0.47947	6.27159	-1.09146
2252.000	7.27944	-0.42822	6.32237	-1.07752
2253.000	7.33585	-0.40252	6.30284	-1.06570
2254.000	7.34557	-0.43210	6.30870	-0.99057
2255.000	7.31445	-0.43213	6.35557	-1.09919
2256.000	7.27750	-0.43612	6.36533	-1.06755
2257.000	7.33196	-0.44198	6.24033	-1.02827
2258.000	7.31834	-0.43410	6.34580	-1.10317
2259.000	7.32223	-0.47356	6.26573	-1.09741
2260.000	7.30862	-0.45384	6.29698	-1.10327
2261.000	7.36891	-0.49521	6.29307	-1.06968
2262.000	7.34557	-0.41632	6.22275	-1.16076
2263.000	7.32612	-0.40844	6.26182	-1.16660
2264.000	7.36891	-0.50902	6.28917	-1.06968
2265.000	7.36502	-0.40841	6.31651	-1.16253
2266.000	7.36502	-0.37290	6.26377	-1.09543
2267.000	7.33196	-0.44790	6.29307	-1.11514
2268.000	7.34752	-0.41434	6.29893	-1.12106
2269.000	7.32612	-0.39463	6.30674	-1.04395
2270.000	7.35141	-0.44393	6.34385	-1.10120
2271.000	7.32612	-0.39069	6.26573	-1.08159
2272.000	7.31640	-0.37491	6.21493	-1.14101
2273.000	7.32223	-0.42029	6.30284	-1.14872
2274.000	7.33779	-0.42027	6.30870	-1.10918
2275.000	7.30667	-0.42030	6.28526	-1.13295
2276.000	7.31834	-0.35320	6.27159	-1.13495
2277.000	7.31640	-0.44594	6.36729	-1.12091
2278.000	7.34946	-0.40448	6.25010	-1.05197
2279.000	7.30667	-0.41636	6.26182	-1.13300
2280.000	7.32418	-0.44002	6.26768	-1.09740
2281.000	7.34946	-0.39856	6.30674	-1.08546
2282.000	7.35724	-0.43406	6.28721	-1.09934
2283.000	7.33196	-0.41830	6.30870	-1.10325
2284.000	7.34557	-0.48537	6.29503	-1.12502
2285.000	7.37668	-0.40643	6.20516	-1.10347
2286.000	7.34752	-0.47353	6.33995	-1.08144
2287.000	7.33974	-0.45973	6.31846	-1.03997
2288.000	7.33779	-0.46960	6.21884	-1.08169
2289.000	7.30667	-0.47160	6.31260	-1.11707
2290.000	7.33390	-0.48736	6.24619	-1.06186
2291.000	7.30084	-0.48345	6.33018	-1.03600
2292.000	7.29889	-0.42820	6.26768	-1.16066
2293.000	7.31640	-0.44200	6.22861	-1.04411
2294.000	7.27361	-0.43415	6.42976	-1.13461
2295.000	7.32807	-0.48145	6.33018	-1.06565
2296.000	7.31445	-0.42819	6.41415	-1.07338
2297.000	7.27166	-0.37692	6.25596	-1.06975
2298.000	7.32223	-0.43015	6.30870	-1.07755
2299.000	7.36113	-0.42420	6.26377	-1.10532
2300.000	7.33779	-0.42816	6.36729	-1.11893
2301.000	7.33779	-0.41633	6.30674	-1.08151
2302.000	7.30667	-0.35913	6.23251	-1.10736
2303.000	7.29500	-0.43413	6.28135	-1.10133
2304.000	7.32223	-0.38872	6.27354	-1.06379
2305.000	7.29500	-0.42229	6.30479	-1.10128
2306.000	7.30862	-0.44003	6.34971	-1.08142
2307.000	7.33974	-0.41435	6.23838	-1.10537
2308.000	7.30473	-0.42622	6.28526	-1.04992
2309.000	7.32807	-0.38279	6.32823	-1.08344
2310.000	7.32418	-0.39069	6.26963	-1.11124
2311.000	7.29695	-0.42426	6.26182	-1.13893
2312.000	7.32612	-0.39661	6.28331	-1.13493
2313.000	7.30862	-0.40649	6.36729	-1.12684
2314.000	7.34363	-0.44197	6.30089	-1.16849
2315.000	7.48166	-0.40041	6.37900	-1.12879
2316.000	7.58852	-0.42989	6.52150	-1.04944
2317.000	7.76328	-0.36664	6.66587	-0.98790
2318.000	7.99412	-0.34476	6.89785	-0.85710
2319.000	8.30989	-0.29134	7.07315	-0.79756
2320.000	8.64834	-0.15341	7.38446	-0.70430
2321.000	9.04983	-0.05108	7.78463	-0.49868
2322.000	9.44465	0.05887	8.00575	-0.33884
2323.000	9.84624	0.19993	8.38343	-0.23028
2324.000	10.28323	0.47566	8.75266	-0.09241
2325.000	10.66747	0.69597	9.08839	0.18073
2326.000	11.07549	0.88631	9.25601	0.43982
2327.000	11.44251	1.09376	9.56388	0.61794
2328.000	11.69867	1.30111	9.72721	0.93328
2329.000	11.92407	1.55488	10.08213	0.99101
2330.000	12.18122	1.88174	10.19516	1.27055
2331.000	12.37941	2.06277	10.42671	1.42801
2332.000	12.53399	2.26904	10.72092	1.57315
2333.000	12.76549	2.42582	10.85637	1.74423
2334.000	12.93838	2.48608	11.01646	1.91691
2335.000	13.12415	2.59831	11.09072	2.01587
2336.000	13.27407	2.65275	11.16305	2.07190
2337.000	13.40696	2.70343	11.22203	2.08513
2338.000	13.61630	2.74157	11.41212	2.17917
2339.000	13.70217	2.74058	11.59436	2.16024
2340.000	13.80662	2.67382	11.74605	2.13183
2341.000	13.87745	2.71540	11.74795	2.18239
2342.000	13.90912	2.64566	11.79342	2.09062
2343.000	13.84390	2.63098	11.80668	1.96605
2344.000	13.69097	2.56326	11.67592	1.94557
2345.000	13.57521	2.49503	11.62661	1.89337
2346.000	13.37890	2.47583	11.62471	1.81162
2347.000	13.17477	2.37543	11.38932	1.68454
2348.000	12.93087	2.29840	11.35512	1.65941
2349.000	12.71471	2.28681	11.29619	1.51549
2350.000	12.55471	2.24753	11.01455	1.55404
2351.000	12.39262	2.28386	10.96121	1.58945
2352.000	12.25487	2.21517	10.78961	1.55521
2353.000	12.16989	2.18287	10.76481	1.52409
2354.000	12.09052	2.18352	10.84111	1.53737
2355.000	12.04703	2.17028	10.85446	1.50021
2356.000	12.08107	2.12921	10.91165	1.58581
2357.000	12.19255	2.06423	10.98217	1.57372
2358.000	12.23032	2.12413	11.01836	1.58914
2359.000	12.35301	2.12120	11.21823	1.66215
2360.000	12.42467	2.15554	11.16115	1.69368
2361.000	12.55847	2.17382	11.37982	1.74305
2362.000	12.67520	2.13212	11.42162	1.80124
2363.000	12.80874	2.16587	11.40832	1.90652
2364.000	12.92523	2.12808	11.49568	1.88646
2365.000	12.97405	2.25155	11.61523	1.82920
2366.000	13.03974	2.23354	11.62471	1.90506
2367.000	13.12040	2.25602	11.55452	1.92890
2368.000	13.14853	2.26350	11.56590	2.00864
2369.000	13.17102	2.32132	11.64558	1.95357
2370.000	13.19913	2.36552	11.55072	1.86078
2371.000	13.21038	2.34415	11.50896	2.01878
2372.000	13.20288	2.40609	11.55831	1.93082
2373.000	13.21225	2.40986	11.44251	1.94720
2374.000	13.21038	2.39248	11.48428	2.01117
2375.000	13.18601	2.49713	11.45960	2.03861
2376.000	13.19351	2.45839	11.48808	2.02282
2377.000	13.14290	2.44536	11.45010	2.00752
2378.000	13.09040	2.53291	11.39692	1.93387
2379.000	13.07164	2.55438	11.45390	2.04254
2380.000	13.02849	2.54902	11.39502	2.08971
2381.000	13.01535	2.49886	11.46530	1.97041
2382.000	12.96467	2.52452	11.46909	1.94896
2383.000	12.97405	2.51862	11.40072	1.93774
2384.000	12.95528	2.51688	11.37602	1.95155
2385.000	12.93087	2.45132	11.48428	1.96249
2386.000	12.91960	2.48433	11.49568	1.88646
2387.000	12.92899	2.50940	11.35512	1.97702
2388.000	12.91021	2.45927	11.31520	1.89156
2389.000	12.91772	2.46693	11.44061	1.92773
2390.000	12.92148	2.42819	11.28669	1.81184
2391.000	12.93275	2.38162	11.42351	1.87331
2392.000	12.92148	2.35850	11.36842	1.85419
2393.000	12.89142	2.45558	11.33611	1.87388
2394.000	12.87452	2.44800	11.26577	1.95035
2395.000	12.88767	2.41884	11.41402	1.80129
2396.000	12.87827	2.40150	11.44251	1.86344
2397.000	12.91397	2.38955	11.39882	1.78775
2398.000	12.84069	2.41348	11.37032	1.91067
2399.000	12.86136	2.42490	11.36272	1.92242
2400.000	12.83129	2.44068	11.35512	1.83674
2401.000	12.83317	2.43679	11.30190	1.82928
2402.000	12.88015	2.43439	11.43301	1.90636
2403.000	12.88391	2.42468	11.36652	1.90486
2404.000	12.89894	2.42260	11.38742	1.83068
2405.000	12.90269	2.41675	11.34942	1.85626
2406.000	12.91772	2.38564	11.41212	1.88117
2407.000	12.88767	2.43045	11.42731	1.92003
2408.000	12.88015	2.40342	11.47099	1.88273
2409.000	12.88203	2.41502	11.50707	1.88054
2410.000	12.88203	2.43631	11.49378	1.93516
2411.000	12.89330	2.44201	11.43111	1.95896
2412.000	12.86324	2.43069	11.42351	1.98239
2413.000	12.90645	2.43995	11.39882	1.88321
2414.000	12.86512	2.39388	11.45960	1.91202
2415.000	12.91021	2.40507	11.44631	1.88095
2416.000	12.91584	2.41663	11.37982	1.89892
2417.000	12.89142	2.38976	11.39312	1.96312
2418.000	12.88767	2.44013	11.43871	1.91021
2419.000	12.86136	2.44038	11.37222	1.86780
2420.000	12.89330	2.38781	11.44821	1.84977
2421.000	12.89142	2.41493	11.44251	1.85176
2422.000	12.87452	2.42477	11.50896	1.93116
2423.000	12.90833	2.40896	11.44061	1.76606
2424.000	12.91772	2.44564	11.47099	1.88468
2425.000	12.91021	2.47475	11.51086	1.80067
2426.000	12.92523	2.41460	11.31901	1.97142
2427.000	12.95904	2.45491	11.42162	1.83436
2428.000	12.92899	2.42037	11.45960	1.89644
2429.000	12.92899	2.43198	11.48998	1.83392
2430.000	12.90457	2.45351	11.47479	1.79896
2431.000	12.94026	2.43768	11.42541	1.85771
2432.000	12.95340	2.44916	11.45200	1.89454
2433.000	12.88955	2.48657	11.42731	1.80900
2434.000	12.97593	2.41024	11.43871	1.87515
2435.000	12.96091	2.40845	11.38362	1.87747
2436.000	12.96091	2.46070	11.47289	1.91583
2437.000	12.91584	2.49018	11.40642	1.85589
2438.000	12.90645	2.44769	11.42921	1.86937
2439.000	12.91960	2.43014	11.32091	1.85255
2440.000	12.93087	2.44551	11.39502	1.91051
2441.000	12.92523	2.45912	11.35512	1.92441
2442.000	12.89706	2.49424	11.41212	1.94156
2443.000	12.92148	2.47851	11.36272	1.85617
2444.000	12.86512	2.47907	11.41212	1.86364
2445.000	12.88391	2.49050	11.35322	1.89325
2446.000	12.89894	2.51164	11.28289	1.94244
2447.000	12.89142	2.43622	11.35512	1.87376
2448.000	12.88955	2.44205	11.38362	1.78784
2449.000	12.90645	2.46704	11.37792	1.89893
2450.000	12.92711	2.41071	11.27908	1.87231
2451.000	12.91397	2.40503	11.41212	1.95520
2452.000	12.89330	2.42846	11.28098	1.93855
2453.000	12.89706	2.43617	11.51086	1.85131
2454.000	12.93462	2.43774	11.32851	1.87393
2455.000	12.91772	2.46113	11.27148	1.89574
2456.000	12.89330	2.44007	11.32091	1.90906
2457.000	12.90457	2.40706	11.40262	1.83059
2458.000	12.93087	2.42422	11.37792	1.96127
2459.000	12.94401	2.32925	11.32661	1.85446
2460.000	12.92523	2.42234	11.35322	1.90494
2461.000	12.89142	2.45945	11.30380	1.90917
2462.000	12.92711	2.42620	11.46340	1.88668
2463.000	12.87639	2.47702	11.26387	1.89774
2464.000	12.91209	2.43215	11.37792	1.96127
2465.000	12.90457	2.48642	11.32471	1.95385
2466.000	12.90269	2.46128	11.38742	1.89303
2467.000	12.90269	2.48063	11.36652	1.88537
2468.000	12.86888	2.45967	11.41972	1.97852
2469.000	12.92148	2.48044	11.26767	1.97567
2470.000	12.93838	2.47641	11.33231	1.91872
2471.000	12.87827	2.47700	11.33991	1.97323
2472.000	12.88015	2.46730	11.45200	1.82442
2473.000	12.92523	2.50750	11.38362	1.85798
2474.000	12.89894	2.52131	11.42162	1.89085
2475.000	12.91021	2.49798	11.36842	1.95744
2476.000	12.93650	2.47836	11.44631	1.96859
2477.000	12.96842	2.50900	11.29429	1.91898
2478.000	12.91584	2.53276	11.32471	1.95579
2479.000	12.91209	2.49022	11.28098	1.96389
2480.000	12.90457	2.41480	11.42351	2.00576
2481.000	12.90082	2.52130	11.39692	1.94556
2482.000	12.88203	2.51374	11.45960	1.91786
2483.000	12.89518	2.52135	11.37792	1.94179
2484.000	12.90833	2.46316	11.46909	1.90611
2485.000	12.93087	2.50938	11.44441	1.87901
2486.000	12.91209	2.45150	11.36462	1.94578
2487.000	12.93462	2.51128	11.38742	1.98264
2488.000	12.89894	2.56002	11.34562	1.88551
2489.000	12.93087	2.49196	11.34752	1.98681
2490.000	12.92711	2.49200	11.42351	1.92785
2491.000	12.92899	2.50940	11.41402	1.89869
2492.000	12.91584	2.48437	11.40642	1.90459
2493.000	12.91960	2.52498	11.50327	1.92146
2494.000	12.93087	2.51132	11.49757	2.01107
2495.000	12.92711	2.47458	11.34372	1.96541
2496.000	12.94401	2.52280	11.35512	1.85817
2497.000	12.92711	2.54812	11.42731	1.90640
2498.000	12.91021	2.53088	11.25436	1.96992
2499.000	12.95340	2.52657	11.41212	1.90455
2500.000	12.93275	2.49195	11.33231	2.02978
2501.000	12.92148	2.54431	11.39502	1.98064
2502.000	12.94214	2.52281	11.29239	2.04370
2503.000	12.91209	2.51731	11.45390	1.97633
2504.000	12.91772	2.57725	11.37602	1.97882
2505.000	12.92336	2.56751	11.51466	1.87270
2506.000	12.96467	2.52646	11.45390	1.99775
2507.000	12.94589	2.53052	11.34942	1.86405
2508.000	12.93087	2.52486	11.30950	1.93057
2509.000	12.93838	2.49576	11.47859	1.97421
2510.000	12.94589	2.50342	11.44061	1.92384
2511.000	12.93650	2.49771	11.41782	1.96490
2512.000	12.91021	2.49991	11.40262	1.99227
2513.000	12.92336	2.48817	11.46340	1.92952
2514.000	12.94589	2.51697	11.38552	2.01187
2515.000	12.95904	2.55167	11.37412	1.92234
2516.000	12.97030	2.51092	11.40832	1.93769
2517.000	12.93838	2.56542	11.47099	1.96258
2518.000	12.97969	2.51083	11.40452	1.96304
2519.000	12.97218	2.53412	11.25246	1.92705
2520.000	12.94214	2.53249	11.33611	1.89921
2521.000	12.93275	2.54033	11.43681	1.93555
2522.000	12.96655	2.52257	11.40832	1.94548
2523.000	12.96655	2.48193	11.40832	1.99028
2524.000	12.95528	2.51688	11.39692	1.99231
2525.000	12.96655	2.49741	11.35892	1.99842
2526.000	12.97593	2.50312	11.30000	1.92673
2527.000	12.94401	2.50731	11.25056	1.90757
2528.000	12.97405	2.53604	11.39692	1.87348
2529.000	12.93275	2.49001	11.33421	1.97326
2530.000	12.98720	2.47205	11.32851	1.93628
2531.000	12.94589	2.50149	11.38172	1.98657
2532.000	12.92523	2.46686	11.43301	1.84987
2533.000	12.96842	2.51674	11.36082	2.02763
2534.000	12.92336	2.52687	11.44061	2.02316
2535.000	12.96091	2.49747	11.32851	1.91290
2536.000	12.93087	2.45713	11.37982	2.02749
2537.000	12.95716	2.46267	11.30950	1.93057
2538.000	12.91021	2.55797	11.30380	1.95789
2539.000	12.95152	2.47241	11.28859	1.95604
2540.000	12.92711	2.51910	11.26767	1.88602
2541.000	12.93087	2.50938	11.39312	1.86961
2542.000	12.91209	2.52505	11.35132	1.93613
2543.000	12.92899	2.55004	11.37602	2.03531
2544.000	12.96467	2.47034	11.32281	1.94412
2545.000	12.94777	2.44922	11.40452	1.96499
2546.000	12.93650	2.50352	11.34752	1.95759
2547.000	12.92148	2.47270	11.28669	1.90539
2548.000	12.94965	2.52661	11.33421	2.01613
2549.000	12.94214	2.49959	11.39312	2.01182
2550.000	12.94589	2.53052	11.33801	2.02779
2551.000	12.95528	2.50527	11.39692	2.00984
2552.000	12.95340	2.52851	11.24485	2.06937
2553.000	12.99470	2.53583	11.36652	2.08408
2554.000	12.91960	2.51917	11.32091	1.99869
2555.000	12.86324	2.56619	11.28479	1.99504
2556.000	12.77490	2.58065	11.43491	2.00568
2557.000	12.58861	2.61741	11.22584	2.02468
2558.000	12.44164	2.51226	11.12118	1.82458
2559.000	12.15477	2.45289	10.83730	1.78534
2560.000	11.82751	2.35673	10.62737	1.61075
2561.000	11.41972	2.32124	10.35594	1.34423
2562.000	10.93643	2.13398	10.03229	1.23595
2563.000	10.41524	1.98130	9.50235	1.00647
2564.000	9.88078	1.51075	9.20786	0.76191
2565.000	9.23675	1.27812	8.88587	0.37149
2566.000	8.78356	0.96134	8.36408	0.17714
2567.000	8.15304	0.53564	7.93207	-0.27979
2568.000	7.62543	0.19324	7.61960	-0.55605
2569.000	7.15880	-0.14607	7.28917	-0.78535
2570.000	6.64637	-0.52364	6.93292	-1.08606
2571.000	6.24619	-0.76332	6.57028	-1.38912
2572.000	5.90409	-1.13771	6.24424	-1.68841
2573.000	5.50085	-1.39978	6.04489	-2.10404
2574.000	5.15590	-1.69755	5.71624	-2.18436
2575.000	4.89694	-1.90813	5.34410	-2.46654
2576.000	4.62403	-2.13466	5.15982	-2.60569
2577.000	4.36663	-2.38299	4.85965	-2.91541
2578.000	4.07366	-2.57007	4.58671	-3.13803
2579.000	3.75487	-2.70179	4.31159	-3.16294
2580.000	3.37873	-2.89111	3.95955	-3.40766
2581.000	3.11269	-2.94141	3.50677	-3.54987
2582.000	2.75382	-3.10286	3.19744	-3.76662
2583.000	2.39473	-3.13544	2.82285	-3.84309
2584.000	2.06705	-3.35414	2.46380	-3.92334
2585.000	1.72935	-3.36668	2.00584	-4.11844
2586.000	1.43698	-3.44048	1.63849	-4.08565
2587.000	1.16825	-3.54785	1.27496	-4.03683
2588.000	0.97654	-3.63327	0.92713	-4.12834
2589.000	0.84017	-3.59973	0.72354	-4.09491
2590.000	0.72354	-3.58992	0.46656	-4.10499
2591.000	0.67017	-3.58798	0.31632	-4.08725
2592.000	0.64052	-3.54044	0.14037	-4.03584
2593.000	0.66424	-3.51664	0.02768	-3.93686
2594.000	0.72157	-3.46904	-0.01384	-3.86953
2595.000	0.82435	-3.39561	-0.08501	-3.82992
2596.000	0.93504	-3.27062	-0.08303	-3.72493
2597.000	0.99433	-3.23289	-0.02372	-3.69720
2598.000	1.09315	-3.16537	0.01582	-3.60804
2599.000	1.15837	-3.14547	0.15816	-3.61992
2600.000	1.28484	-3.11558	0.29062	-3.51485
2601.000	1.36980	-3.06986	0.36376	-3.51285
2602.000	1.42908	-3.01624	0.46854	-3.54649
2603.000	1.43500	-3.02416	0.71564	-3.58398
2604.000	1.50218	-3.03002	0.74529	-3.57603
2605.000	1.51403	-3.08355	0.78284	-3.64139
2606.000	1.44686	-3.15304	0.83424	-3.72454
2607.000	1.46266	-3.19069	0.89749	-3.78984
2608.000	1.36190	-3.24436	0.84017	-3.86911
2609.000	1.28286	-3.32376	0.81052	-3.88696
2610.000	1.21172	-3.32187	0.76901	-3.93254
2611.000	1.15046	-3.37348	0.74133	-4.08301
2612.000	1.10896	-3.40326	0.65831	-4.10882
2613.000	1.04769	-3.44297	0.48435	-4.16633
2614.000	0.96073	-3.50251	0.43296	-4.24749
2615.000	0.89156	-3.50258	0.38749	-4.28708
2616.000	0.84017	-3.54821	0.21549	-4.30891
2617.000	0.83819	-3.53830	0.12850	-4.41376
2618.000	0.69389	-3.55824	0.02372	-4.50670
2619.000	0.69785	-3.52851	0.01582	-4.36630
2620.000	0.65238	-3.57808	-0.04745	-4.43354
2621.000	0.71168	-3.58795	-0.02570	-4.44541
2622.000	0.71168	-3.54039	-0.05931	-4.38212
2623.000	0.67017	-3.61770	-0.12257	-4.34255
2624.000	0.67610	-3.60383	-0.10874	-4.35442
2625.000	0.71761	-3.62361	-0.14827	-4.30299
2626.000	0.73738	-3.58397	-0.07908	-4.27332
2627.000	0.78087	-3.57997	-0.03163	-4.27135
2628.000	0.79273	-3.59977	-0.07710	-4.26343
2629.000	0.82831	-3.58191	-0.04547	-4.29113
2630.000	0.87574	-3.52242	-0.02570	-4.24563
2631.000	0.85400	-3.51649	-0.05931	-4.14471
2632.000	0.91923	-3.48274	-0.08501	-4.16252
2633.000	0.95283	-3.49063	0.05338	-4.17637
2634.000	0.91725	-3.49859	0.02372	-4.13481
2635.000	0.96271	-3.47675	0.03163	-4.10908
2636.000	1.02200	-3.45489	0.09490	-4.14866
2637.000	0.98247	-3.41727	0.04349	-4.08137
2638.000	1.03584	-3.42514	0.09687	-4.07939
2639.000	1.04177	-3.40333	0.05733	-4.10710
2640.000	0.99433	-3.46483	0.11269	-4.10908
2641.000	0.99829	-3.44897	0.08897	-4.09325
2642.000	1.02793	-3.40731	0.09490	-4.10908
2643.000	1.04769	-3.41918	0.10874	-4.06949
2644.000	1.00026	-3.42518	0.11071	-4.15856
2645.000	1.02398	-3.43903	0.12257	-4.01406
2646.000	1.03188	-3.41325	0.20758	-4.03780
2647.000	1.03386	-3.40731	0.11071	-4.08137
2648.000	1.05560	-3.38944	0.05140	-4.04772
2649.000	1.06548	-3.41322	0.16211	-4.03583
2650.000	1.00619	-3.41130	0.14037	-4.06355
2651.000	0.99038	-3.40537	0.15223	-4.03583
2652.000	1.01607	-3.44102	0.09490	-4.01011
2653.000	1.03386	-3.43704	0.05140	-4.07346
2654.000	1.00817	-3.40337	0.14234	-4.06949
2655.000	1.00224	-3.39545	0.17200	-4.09323
2656.000	0.96469	-3.39350	0.13641	-4.05365
2657.000	0.98445	-3.45691	0.16409	-4.02197
2658.000	0.94097	-3.46488	0.09490	-4.05762
2659.000	0.96271	-3.42125	0.11467	-4.08137
2660.000	0.93702	-3.43912	0.09490	-4.06356
2661.000	0.93702	-3.44903	0.08897	-4.06949
2662.000	0.91923	-3.45301	0.04152	-4.05168
2663.000	0.95480	-3.43117	0.17200	-4.07344
2664.000	0.87970	-3.50854	0.02570	-4.07148
2665.000	0.92911	-3.45102	0.18584	-4.12292
2666.000	0.93702	-3.44110	0.07513	-4.07543
2667.000	0.94295	-3.45299	0.14432	-4.07542
2668.000	0.93504	-3.46687	0.07315	-4.05960
2669.000	0.94097	-3.41929	0.13839	-4.00020
2670.000	0.88365	-3.46097	0.03954	-4.06356
2671.000	0.92713	-3.42724	0.11269	-4.06751
2672.000	0.87772	-3.44908	0.07315	-4.03980
2673.000	0.89749	-3.44510	0.06722	-4.12690
2674.000	0.89156	-3.44313	0.17793	-4.10313
2675.000	0.87179	-3.45900	0.16211	-4.07740
2676.000	0.92516	-3.44508	0.10280	-4.08533
2677.000	0.90539	-3.42131	0.10083	-3.99823
2678.000	0.91330	-3.43121	0.09687	-4.00813
2679.000	0.93702	-3.45101	0.14630	-4.10511
2680.000	0.91330	-3.43716	0.11467	-4.11304
2681.000	0.91725	-3.46887	0.11071	-4.13481
2682.000	0.89946	-3.45699	0.10280	-4.10908
2683.000	0.91527	-3.48076	0.07315	-4.03189
2684.000	0.87772	-3.46494	0.15421	-4.10115
2685.000	0.90144	-3.43321	0.17200	-4.07938
2686.000	0.91330	-3.41932	0.13444	-4.11501
2687.000	0.90144	-3.42726	0.11071	-4.13481
2688.000	0.91923	-3.47283	0.13444	-4.03980
2689.000	0.87179	-3.46296	0.13048	-4.06949
2690.000	0.84017	-3.46894	0.12455	-4.15460
2691.000	0.85005	-3.43127	0.15025	-4.07146
2692.000	0.88958	-3.48475	0.09885	-4.07741
2693.000	0.86191	-3.47883	0.10676	-4.08731
2694.000	0.89946	-3.44114	0.07908	-4.09919
2695.000	0.85005	-3.47091	0.08303	-4.09523
2696.000	0.85005	-3.53037	0.09094	-4.13481
2697.000	0.88365	-3.48674	0.15421	-4.07344
2698.000	0.87179	-3.44711	0.10874	-4.14470
2699.000	0.84610	-3.46497	0.09490	-4.10512
2700.000	0.89551	-3.54023	0.07710	-4.10116
2701.000	0.86981	-3.50458	0.09687	-4.11700
2702.000	0.83226	-3.46498	0.03361	-4.13283
2703.000	0.85598	-3.48676	0.03954	-4.13877
2704.000	0.91923	-3.46887	0.06326	-4.14471
2705.000	0.86388	-3.48081	0.13641	-4.16449
2706.000	0.89353	-3.43718	0.18188	-4.12292
2707.000	0.93702	-3.48272	0.02768	-4.16054
2708.000	0.90737	-3.48473	0.12455	-4.13678
2709.000	0.92120	-3.48472	0.13839	-4.12293
2710.000	0.86388	-3.45108	0.10676	-4.12689
2711.000	0.85598	-3.46100	0.06524	-4.13085
2712.000	0.86981	-3.48278	0.12257	-4.13481
2713.000	0.87377	-3.39954	0.12060	-4.11501
2714.000	0.86784	-3.50062	0.13444	-4.09324
2715.000	0.85203	-3.45505	0.13839	-4.18032
2716.000	0.86586	-3.49666	0.13246	-4.13085
2717.000	0.87179	-3.52044	0.13839	-4.13084
2718.000	0.87574	-3.42927	0.09094	-4.07939
2719.000	0.83226	-3.48678	0.17002	-4.16052
2720.000	0.85796	-3.46099	0.03361	-4.12294
2721.000	0.84412	-3.44515	0.01977	-4.18033
2722.000	0.86981	-3.49071	0.08897	-4.09918
2723.000	0.86388	-3.49270	0.02175	-4.12888
2724.000	0.85005	-3.45902	0.08699	-4.17439
2725.000	0.88760	-3.48277	0.09094	-4.13679
2726.000	0.89551	-3.45898	0.07710	-4.16054
2727.000	0.85993	-3.47883	0.14827	-4.17042
2728.000	0.86586	-3.43522	0.09094	-4.11106
2729.000	0.87970	-3.44115	0.07315	-4.17439
2730.000	0.83028	-3.46895	0.17595	-4.16646
2731.000	0.87970	-3.44908	0.16014	-4.15657
2732.000	0.85005	-3.46298	0.16409	-4.16646
2733.000	0.86586	-3.44513	0.12455	-4.16647
2734.000	0.86784	-3.49071	0.07315	-4.15658
2735.000	0.86784	-3.46495	0.03756	-4.18033
2736.000	0.87574	-3.46296	0.06524	-4.08731
2737.000	0.82831	-3.46102	0.13839	-4.16647
2738.000	0.89749	-3.46492	0.19770	-4.14073
2739.000	0.87970	-3.46296	0.07710	-4.08929
2740.000	0.86981	-3.47684	0.14630	-4.15657
2741.000	0.84807	-3.50460	0.14432	-4.13678
2742.000	0.85796	-3.48676	0.04349	-4.17835
2743.000	0.89749	-3.45303	0.06524	-4.20407
2744.000	0.89156	-3.50258	0.09490	-4.13283
2745.000	0.85598	-3.48676	0.16409	-4.13480
2746.000	0.87574	-3.49071	0.20363	-4.21197
2747.000	0.87574	-3.47089	0.16014	-4.19219
2748.000	0.82831	-3.50660	0.10478	-4.15658
2749.000	0.86388	-3.41342	0.12060	-4.17834
2750.000	0.87772	-3.48872	0.11664	-4.16053
2751.000	0.84610	-3.46497	0.17200	-4.14271
2752.000	0.80063	-3.47294	0.15223	-4.20406
2753.000	0.84807	-3.44515	0.22142	-4.14270
2754.000	0.84412	-3.49074	0.19375	-4.08927
2755.000	0.85203	-3.50064	0.15025	-4.15459
2756.000	0.85598	-3.49667	0.12653	-4.11501
2757.000	0.82435	-3.49274	0.11664	-4.16053
2758.000	0.83226	-3.48678	0.08106	-4.11700
2759.000	0.81842	-3.47094	0.14234	-4.16251
2760.000	0.83424	-3.51453	0.11071	-4.10314
2761.000	0.85005	-3.47488	0.09687	-4.09522
2762.000	0.84610	-3.49073	0.08501	-4.12887
2763.000	0.85203	-3.52046	0.14037	-4.10314
2764.000	0.85005	-3.48875	0.12653	-4.13480
2765.000	0.80854	-3.50860	0.16607	-4.08532
2766.000	0.80459	-3.48086	0.12257	-4.10512
2767.000	0.87179	-3.50458	0.06129	-4.13085
2768.000	0.85993	-3.49469	0.08501	-4.06158
2769.000	0.82633	-3.51453	0.16607	-4.07146
2770.000	0.86981	-3.50458	0.10083	-4.12689
2771.000	0.85005	-3.48677	0.15816	-4.04375
2772.000	0.83028	-3.48877	0.15223	-4.08136
2773.000	0.86586	-3.52441	0.12653	-4.02594
2774.000	0.88760	-3.49070	0.16014	-4.04771
2775.000	0.83226	-3.51255	0.14432	-4.12491
2776.000	0.83819	-3.49669	0.10874	-4.06751
2777.000	0.85796	-3.50063	0.15421	-4.11501
2778.000	0.84610	-3.53037	0.15421	-4.08334
2779.000	0.80459	-3.56013	0.20956	-4.09916
2780.000	0.85400	-3.53036	0.15618	-4.13084
2781.000	0.83621	-3.48282	0.15421	-4.09324
2782.000	0.85598	-3.55216	0.15223	-4.12490
2783.000	0.83819	-3.51254	0.12455	-4.12887
2784.000	0.82435	-3.51453	0.17991	-4.08136
2785.000	0.78680	-3.46898	0.11467	-4.09918
2786.000	0.84214	-3.48083	0.18386	-4.15260
2787.000	0.80854	-3.49275	0.17991	-4.13084
2788.000	0.81249	-3.48085	0.13641	-4.02792
2789.000	0.82238	-3.50265	0.11862	-4.07147
2790.000	0.84214	-3.53235	0.14630	-4.09522
2791.000	0.79866	-3.55023	0.14037	-4.08730
2792.000	0.80459	-3.52644	0.18188	-4.12292
2793.000	0.86981	-3.51449	0.02966	-4.04772
2794.000	0.82633	-3.50859	0.09885	-4.08533
2795.000	0.79273	-3.53240	0.13444	-4.05959
2796.000	0.81645	-3.53634	0.17002	-4.11500
2797.000	0.84412	-3.51650	0.12653	-4.11501
2798.000	0.83424	-3.50065	0.11862	-4.11897
2799.000	0.81645	-3.53040	0.10676	-4.05959
2800.000	0.81249	-3.53436	0.17200	-4.14271
2801.000	0.81249	-3.52445	0.08501	-4.09918
2802.000	0.88167	-3.52835	0.17595	-4.15854
2803.000	0.78284	-3.56213	0.19968	-4.15854
2804.000	0.78680	-3.55816	0.16804	-4.11501
2805.000	0.85993	-3.56206	0.11269	-4.08928
2806.000	0.80261	-3.50464	0.15816	-4.15459
2807.000	0.82238	-3.54030	0.20956	-4.07541
2808.000	0.85796	-3.53234	0.16409	-4.15657
2809.000	0.80063	-3.50663	0.18386	-4.13875
2810.000	0.79470	-3.53834	0.09885	-4.14075
2811.000	0.84412	-3.55811	0.14432	-4.09324
2812.000	0.87377	-3.53034	0.13641	-4.12887
2813.000	0.85993	-3.54621	0.15816	-4.10511
2814.000	0.85400	-3.51253	0.19770	-4.22977
2815.000	0.83424	-3.52245	0.09094	-4.14668
2816.000	0.82633	-3.53831	0.20561	-4.10708
2817.000	0.80261	-3.53437	0.15025	-4.13678
2818.000	0.81447	-3.48283	0.11664	-4.11304
2819.000	0.85203	-3.54027	0.15618	-4.17240
2820.000	0.85400	-3.56009	0.18188	-4.13677
2821.000	0.87574	-3.52242	0.18188	-4.13281
2822.000	0.78877	-3.56014	0.08303	-4.08533
2823.000	0.81842	-3.53832	0.08699	-4.08137
2824.000	0.84017	-3.54028	0.17398	-4.14469
2825.000	0.76901	-3.56412	0.22538	-4.16843
2826.000	0.83621	-3.57397	0.17398	-4.15261
2827.000	0.83028	-3.57992	0.04943	-4.07346
2828.000	0.83424	-3.54029	0.09885	-4.16647
2829.000	0.79866	-3.55023	0.11664	-4.11106
2830.000	0.85400	-3.58981	0.14630	-4.16251
2831.000	0.84017	-3.56604	0.09885	-4.10710
2832.000	0.84412	-3.58387	0.16211	-4.11303
2833.000	0.86388	-3.55413	0.11269	-4.11502
2834.000	0.87179	-3.57790	0.10874	-4.16647
2835.000	0.85796	-3.54621	0.13641	-4.17834
2836.000	0.85993	-3.56801	0.15816	-4.13876
2837.000	0.84412	-3.54226	0.13444	-4.11699
2838.000	0.87574	-3.58979	0.09094	-4.10908
2839.000	0.86784	-3.59376	0.15025	-4.09522
2840.000	0.83424	-3.56209	0.12455	-4.16449
2841.000	0.84412	-3.55811	0.13246	-4.17438
2842.000	0.82831	-3.53633	0.12653	-4.13678
2843.000	0.80656	-3.61165	0.10280	-4.14866
2844.000	0.78482	-3.57006	0.15618	-4.12688
2845.000	0.77889	-3.54628	0.14432	-4.12688
2846.000	0.82633	-3.62352	0.20956	-4.12291
2847.000	0.80063	-3.55221	0.06129	-4.11502
2848.000	0.82040	-3.56606	0.05733	-4.10908
2849.000	0.83424	-3.56209	0.11269	-4.12689
2850.000	0.83621	-3.56208	0.11269	-4.14272
2851.000	0.78877	-3.55618	0.13839	-4.14074
2852.000	0.84610	-3.55019	0.12455	-4.13283
2853.000	0.83819	-3.59180	0.04152	-4.09127
2854.000	0.84807	-3.52839	0.15816	-4.19021
2855.000	0.80459	-3.56409	0.10280	-4.18428
2856.000	0.83028	-3.56407	0.15223	-4.13084
2857.000	0.80459	-3.60967	0.14827	-4.20011
2858.000	0.81447	-3.58390	0.11269	-4.13085
2859.000	0.79470	-3.55221	0.14037	-4.20802
2860.000	0.80656	-3.58985	0.15816	-4.14272
2861.000	0.82435	-3.55813	0.17793	-4.16448
2862.000	0.83424	-3.58983	0.14630	-4.13084
2863.000	0.82633	-3.61163	0.09094	-4.20605
2864.000	0.79075	-3.59977	0.22340	-4.16249
2865.000	0.80063	-3.55815	0.08501	-4.15262
2866.000	0.83621	-3.58784	0.14432	-4.14074
2867.000	0.80459	-3.59580	0.13839	-4.14074
2868.000	0.83424	-3.55812	0.13048	-4.10907
2869.000	0.80459	-3.60967	0.09687	-4.18033
2870.000	0.83424	-3.59379	0.08303	-4.14471
2871.000	0.85993	-3.60764	0.13839	-4.12887
2872.000	0.80261	-3.61165	0.11269	-4.13481
2873.000	0.82831	-3.56011	0.04943	-4.13481
2874.000	0.82831	-3.61163	0.15816	-4.13084
2875.000	0.85203	-3.54225	0.12257	-4.14668
2876.000	0.80854	-3.57003	0.12455	-4.08335
2877.000	0.80063	-3.59778	0.04152	-4.17044
2878.000	0.78087	-3.58987	0.17200	-4.13480
2879.000	0.82435	-3.60371	0.00000	-4.11304
2880.000	0.77494	-3.61762	0.18188	-4.16646
2881.000	0.78680	-3.62355	0.09094	-4.15856
2882.000	0.78087	-3.60572	0.09094	-4.14273
2883.000	0.80261	-3.61363	0.14234	-4.18428
2884.000	0.77889	-3.62950	0.11664	-4.20407
2885.000	0.78284	-3.63941	0.09490	-4.15856
2886.000	0.79273	-3.61760	0.08501	-4.09325
2887.000	0.77098	-3.61960	0.22340	-4.13280
2888.000	0.81447	-3.60371	0.12060	-4.14074
2889.000	0.80063	-3.66118	0.13246	-4.14470
2890.000	0.86784	-3.59574	0.08501	-4.15658
2891.000	0.79273	-3.61760	0.12850	-4.17043
2892.000	0.78877	-3.60176	0.15816	-4.13480
2893.000	0.78482	-3.62355	0.16804	-4.27133
2894.000	0.84214	-3.60171	0.16607	-4.11698
2895.000	0.85598	-3.62745	0.18979	-4.14469
2896.000	0.76901	-3.61366	0.22340	-4.15259
2897.000	0.83819	-3.60567	0.19572	-4.27330
2898.000	0.77494	-3.61762	0.11269	-4.16647
2899.000	0.79668	-3.59977	0.11467	-4.14074
2900.000	0.77691	-3.65130	0.21945	-4.14468
2901.000	0.77889	-3.66516	0.13444	-4.14272
2902.000	0.81842	-3.60767	0.12455	-4.09522
2903.000	0.82831	-3.58785	0.08106	-4.14273
2904.000	0.82831	-3.56209	0.07908	-4.08137
2905.000	0.79075	-3.55816	0.11467	-4.11304
2906.000	0.74133	-3.48488	0.15618	-4.03583
2907.000	0.77098	-3.42143	0.24910	-3.85959
2908.000	0.74133	-3.33423	0.11467	-3.81209
2909.000	0.78877	-3.17755	0.11862	-3.69719
2910.000	0.78482	-2.93158	0.10874	-3.48913
2911.000	0.82633	-2.71327	0.07513	-3.24726
2912.000	0.88760	-2.45714	0.15421	-3.05882
2913.000	0.91527	-2.18505	0.00000	-2.67583
2914.000	0.93702	-1.96850	0.07710	-2.32636
2915.000	1.03386	-1.67436	0.00198	-1.99062
2916.000	0.99631	-1.39212	0.13641	-1.69053
2917.000	1.03979	-1.13563	0.06129	-1.41221
2918.000	1.03979	-0.96065	0.04943	-1.16167
2919.000	1.06548	-0.73394	0.09094	-1.03240
2920.000	1.07536	-0.60068	0.07117	-0.81561
2921.000	1.04967	-0.46743	0.05931	-0.70025
2922.000	1.06746	-0.40577	0.05338	-0.72611
2923.000	0.99236	-0.45550	0.17200	-0.67637
2924.000	0.97259	-0.42567	0.17200	-0.66643
2925.000	1.01410	-0.48931	0.17200	-0.79373
2926.000	0.98840	-0.57086	0.08897	-0.96081
2927.000	0.91725	-0.66635	0.18386	-1.06422
2928.000	0.88167	-0.78966	0.17200	-1.36051
2929.000	0.94887	-0.93681	0.13246	-1.38239
2930.000	0.90144	-1.10386	0.08501	-1.64282
2931.000	0.87574	-1.19335	0.05338	-1.76010
2932.000	0.91132	-1.25895	0.22538	-1.77400
2933.000	0.83424	-1.44387	0.21549	-1.93497
2934.000	0.84214	-1.51742	0.10874	-1.99062
2935.000	0.85796	-1.61084	0.19375	-2.11976
2936.000	0.88365	-1.69430	0.22933	-2.12770
2937.000	0.87772	-1.66052	0.19177	-2.17737
2938.000	0.84017	-1.66849	0.19968	-2.16545
2939.000	0.82831	-1.69830	0.30050	-2.15749
2940.000	0.84610	-1.66650	0.25108	-2.14955
2941.000	0.83226	-1.66253	0.28864	-2.09789
2942.000	0.85400	-1.62674	0.26492	-2.09988
2943.000	0.86784	-1.58698	0.26294	-1.98067
2944.000	0.89156	-1.56312	0.24515	-1.93497
2945.000	0.90342	-1.54324	0.29259	-1.86740
2946.000	0.85005	-1.42200	0.23724	-1.77201
2947.000	0.89946	-1.35638	0.27480	-1.76405
2948.000	0.92713	-1.32257	0.21154	-1.65872
2949.000	0.96469	-1.26490	0.22538	-1.65474
2950.000	0.94492	-1.26689	0.25305	-1.58715
2951.000	0.93702	-1.20128	0.24712	-1.55932
2952.000	0.95480	-1.18537	0.25108	-1.46588
2953.000	0.98445	-1.11776	0.24910	-1.53944
2954.000	0.94492	-1.16947	0.20758	-1.50764
2955.000	0.95085	-1.17145	0.20363	-1.49372
2956.000	0.95283	-1.09788	0.20165	-1.48974
2957.000	0.97654	-1.10185	0.17595	-1.55336
2958.000	1.00817	-1.13167	0.21747	-1.53348
2959.000	0.99433	-1.09787	0.14234	-1.48975
2960.000	0.99038	-1.08594	0.20363	-1.51758
2961.000	0.93306	-1.10783	0.25108	-1.54540
2962.000	0.96864	-1.13168	0.21945	-1.52553
2963.000	0.95283	-1.13765	0.08897	-1.47186
2964.000	0.93504	-1.12970	0.22933	-1.50564
2965.000	0.97062	-1.07799	0.20363	-1.52752
2966.000	0.91132	-1.07403	0.19770	-1.53149
2967.000	0.91725	-1.11778	0.19177	-1.56728
2968.000	0.94492	-1.13765	0.18188	-1.53547
2969.000	0.94887	-1.10783	0.23526	-1.58914
2970.000	0.91725	-1.04818	0.17200	-1.61698
2971.000	0.93504	-1.11380	0.24515	-1.59510
2972.000	0.93899	-1.10982	0.20363	-1.64281
2973.000	0.92120	-1.10386	0.27876	-1.55335
2974.000	0.92318	-1.11976	0.16409	-1.62890
2975.000	0.89353	-1.13369	0.21352	-1.60504
2976.000	0.93702	-1.13169	0.22340	-1.65474
2977.000	0.91330	-1.14959	0.20561	-1.56529
2978.000	0.89353	-1.13568	0.17595	-1.61896
2979.000	0.90144	-1.13767	0.18979	-1.57324
2980.000	0.93702	-1.15555	0.18781	-1.55535
2981.000	0.94295	-1.14362	0.21747	-1.57523
2982.000	0.93702	-1.20725	0.19177	-1.58517
2983.000	0.92516	-1.17345	0.16014	-1.64282
2984.000	0.93306	-1.19930	0.24910	-1.64082
2985.000	0.98247	-1.17144	0.23922	-1.61101
2986.000	0.93899	-1.16947	0.18584	-1.60902
2987.000	0.94097	-1.14959	0.14037	-1.63686
2988.000	0.94492	-1.20526	0.20956	-1.66070
2989.000	0.95085	-1.14163	0.24119	-1.63486
2990.000	0.92713	-1.19731	0.17398	-1.62691
2991.000	0.97062	-1.17940	0.14432	-1.65077
2992.000	0.92120	-1.13766	0.21747	-1.62890
2993.000	0.95678	-1.11777	0.19968	-1.61697
2994.000	0.91725	-1.15158	0.17793	-1.64083
2995.000	0.99433	-1.12968	0.22538	-1.64480
2996.000	0.97259	-1.14361	0.16607	-1.60107
2997.000	0.91132	-1.14363	0.27480	-1.57721
2998.000	0.95876	-1.14361	0.17793	-1.61499
2999.000	0.95283	-1.12771	0.20758	-1.61300
3000.000	0.93109	-1.15357	0.28666	-1.67461
3001.000	0.93504	-1.16748	0.30248	-1.63485
3002.000	0.97654	-1.13565	0.24119	-1.59908
3003.000	0.92516	-1.17743	0.14432	-1.60306
3004.000	0.95085	-1.16947	0.20165	-1.68456
3005.000	0.98445	-1.16945	0.19968	-1.62492
3006.000	0.94887	-1.16151	0.19375	-1.63089
3007.000	0.92713	-1.15357	0.19572	-1.62095
3008.000	0.95876	-1.15554	0.26294	-1.68256
3009.000	0.92120	-1.17345	0.19375	-1.61499
3010.000	1.01805	-1.13365	0.25108	-1.69051
3011.000	0.97062	-1.11975	0.22142	-1.63685
3012.000	0.93702	-1.16549	0.24317	-1.68853
3013.000	0.94097	-1.16947	0.10676	-1.67065
3014.000	0.95876	-1.15356	0.24712	-1.64678
3015.000	0.97259	-1.16946	0.24119	-1.59709
3016.000	0.98643	-1.12372	0.21747	-1.63287
3017.000	0.93504	-1.12771	0.17398	-1.62294
3018.000	0.93702	-1.17146	0.18584	-1.61896
3019.000	0.97062	-1.15156	0.24712	-1.61299
3020.000	0.94295	-1.15356	0.30643	-1.63684
3021.000	0.94097	-1.12771	0.24317	-1.61100
3022.000	0.96271	-1.14759	0.19177	-1.59113
3023.000	0.96469	-1.14759	0.17991	-1.59511
3024.000	0.98445	-1.16747	0.18781	-1.63486
3025.000	0.92713	-1.13368	0.24317	-1.64082
3026.000	0.95678	-1.09788	0.18584	-1.62095
3027.000	0.98643	-1.11974	0.24515	-1.62293
3028.000	0.96271	-1.13168	0.21549	-1.63884
3029.000	0.93109	-1.16152	0.20758	-1.60703
3030.000	0.96864	-1.14759	0.22340	-1.58119
3031.000	0.93702	-1.09789	0.18781	-1.63288
3032.000	0.96073	-1.10385	0.29259	-1.60305
3033.000	0.92911	-1.16351	0.22538	-1.61498
3034.000	0.96469	-1.11577	0.23329	-1.58119
3035.000	0.96864	-1.10981	0.20956	-1.52752
3036.000	0.93702	-1.11976	0.26096	-1.60106
3037.000	0.93306	-1.12573	0.27480	-1.64877
3038.000	0.93899	-1.15555	0.24712	-1.59113
3039.000	0.98445	-1.11378	0.13641	-1.57722
3040.000	0.93109	-1.14760	0.14234	-1.44203
3041.000	0.95085	-1.13566	0.23526	-1.54739
3042.000	0.99038	-1.11577	0.18781	-1.53746
3043.000	0.94887	-1.10783	0.23526	-1.62492
3044.000	0.94097	-1.10982	0.21352	-1.56926
3045.000	0.94887	-1.12771	0.28666	-1.61100
3046.000	0.95678	-1.17145	0.25305	-1.60106
3047.000	0.97062	-1.09589	0.26294	-1.54143
3048.000	0.98643	-1.12571	0.21352	-1.63089
3049.000	0.97654	-1.12969	0.23526	-1.60504
3050.000	0.96864	-1.12770	0.20165	-1.53944
3051.000	0.95480	-1.19134	0.21945	-1.60306
3052.000	0.94295	-1.11976	0.20956	-1.53944
3053.000	0.94690	-1.15952	0.29062	-1.56329
3054.000	0.95480	-1.11975	0.22735	-1.59113
3055.000	0.96469	-1.10186	0.24910	-1.56727
3056.000	0.94887	-1.13964	0.33609	-1.59708
3057.000	0.96666	-1.12572	0.20165	-1.64281
3058.000	0.94690	-1.14163	0.24910	-1.52353
3059.000	0.96864	-1.12174	0.29457	-1.63485
3060.000	0.97062	-1.11776	0.36376	-1.60900
3061.000	0.97062	-1.13963	0.26096	-1.62094
3062.000	0.96073	-1.12174	0.19968	-1.57324
3063.000	0.93504	-1.10982	0.25899	-1.59510
3064.000	0.92911	-1.13567	0.23131	-1.65076
3065.000	0.97457	-1.18735	0.23131	-1.57721
3066.000	0.96073	-1.09788	0.28469	-1.60305
3067.000	1.00224	-1.09787	0.30841	-1.60702
3068.000	0.93702	-1.12374	0.30050	-1.56528
3069.000	0.97852	-1.10185	0.26887	-1.59112
3070.000	0.99038	-1.13565	0.30446	-1.58913
3071.000	1.00421	-1.12570	0.28469	-1.64082
3072.000	0.96469	-1.14361	0.28469	-1.57323
3073.000	0.99433	-1.15354	0.26096	-1.52552
3074.000	0.97062	-1.12174	0.17595	-1.57125
3075.000	1.00224	-1.07997	0.13444	-1.55535
3076.000	0.96666	-1.10782	0.33806	-1.60304
3077.000	0.97852	-1.08992	0.23526	-1.57522
3078.000	0.95085	-1.13367	0.28073	-1.54937
3079.000	0.96073	-1.17145	0.31236	-1.53347
3080.000	0.94887	-1.10584	0.27876	-1.54142
3081.000	0.97654	-1.11776	0.30841	-1.58515
3082.000	0.99038	-1.12571	0.29852	-1.59112
3083.000	0.92516	-1.13965	0.33213	-1.66466
3084.000	0.93899	-1.10982	0.25701	-1.61299
3085.000	0.96469	-1.16350	0.26096	-1.55137
3086.000	0.97852	-1.14758	0.27282	-1.56130
3087.000	1.00817	-1.14757	0.25701	-1.56727
3088.000	0.96469	-1.13765	0.25108	-1.49173
3089.000	0.95480	-1.14163	0.28864	-1.60305
3090.000	1.01607	-1.10582	0.23329	-1.58715
3091.000	0.94690	-1.09391	0.25701	-1.59709
3092.000	1.01212	-1.13167	0.15816	-1.56330
3093.000	0.96864	-1.07402	0.30050	-1.57919
3094.000	0.97654	-1.10384	0.24515	-1.57721
3095.000	0.97259	-1.10981	0.22735	-1.54143
3096.000	0.98840	-1.10384	0.23922	-1.57522
3097.000	0.95480	-1.11777	0.31434	-1.59310
3098.000	0.98643	-1.11776	0.27085	-1.60106
3099.000	0.99236	-1.10781	0.21945	-1.57721
3100.000	0.97457	-1.09191	0.27876	-1.58317
3101.000	0.99038	-1.13764	0.22142	-1.52553
3102.000	1.00224	-1.12968	0.20758	-1.56131
3103.000	0.95085	-1.10584	0.18781	-1.59113
3104.000	0.95678	-1.14163	0.32620	-1.58316
3105.000	0.98247	-1.13168	0.29062	-1.54739
3106.000	0.94492	-1.11180	0.21352	-1.54938
3107.000	0.94690	-1.10982	0.34202	-1.62689
3108.000	0.91132	-1.14363	0.23724	-1.56528
3109.000	0.98247	-1.10185	0.19177	-1.56926
3110.000	0.95283	-1.10782	0.24712	-1.52751
3111.000	0.94295	-1.05215	0.27085	-1.54142
3112.000	0.96864	-1.07998	0.24712	-1.54938
3113.000	0.99038	-1.07600	0.28271	-1.60305
3114.000	0.95085	-1.08794	0.26492	-1.52751
3115.000	0.99433	-1.07401	0.32225	-1.58316
3116.000	1.00224	-1.07997	0.32225	-1.54539
3117.000	0.98643	-1.07202	0.27480	-1.57919
3118.000	1.00224	-1.09389	0.34993	-1.62093
3119.000	0.99236	-1.08992	0.33609	-1.59310
3120.000	0.99038	-1.10384	0.25701	-1.62094
3121.000	0.95876	-1.12373	0.23329	-1.56528
3122.000	0.99236	-1.10781	0.28666	-1.62690
3123.000	0.95876	-1.13367	0.29457	-1.62690
3124.000	0.98247	-1.18934	0.38156	-1.62291
3125.000	0.99631	-1.15951	0.30050	-1.56726
3126.000	0.96864	-1.17145	0.26294	-1.55335
3127.000	0.94887	-1.18537	0.37167	-1.58117
3128.000	0.97852	-1.16946	0.32027	-1.60901
3129.000	0.97259	-1.11180	0.34597	-1.60701
3130.000	0.96073	-1.15157	0.30841	-1.54937
3131.000	0.94295	-1.11777	0.28073	-1.53347
3132.000	1.01014	-1.11178	0.30248	-1.56329
3133.000	0.95876	-1.17742	0.30446	-1.51955
3134.000	0.96666	-1.19133	0.25108	-1.58914
3135.000	0.93504	-1.10385	0.22340	-1.59709
3136.000	0.99236	-1.13167	0.21945	-1.62691
3137.000	1.01410	-1.11775	0.26887	-1.51558
3138.000	0.95480	-1.15555	0.28271	-1.54341
3139.000	0.96864	-1.15156	0.27085	-1.63088
3140.000	0.94097	-1.15555	0.26492	-1.55534
3141.000	0.99038	-1.14559	0.26689	-1.53745
3142.000	0.94097	-1.13169	0.33806	-1.58515
3143.000	0.96271	-1.14162	0.24515	-1.57920
3144.000	0.96073	-1.12373	0.24119	-1.55137
3145.000	0.98643	-1.14758	0.21747	-1.55336
3146.000	0.94295	-1.12572	0.22538	-1.55733
3147.000	0.98050	-1.11179	0.30050	-1.61298
3148.000	0.95283	-1.12373	0.26887	-1.62492
3149.000	0.98050	-1.07004	0.21154	-1.46986
3150.000	0.94492	-1.10186	0.27282	-1.60305
3151.000	0.94295	-1.08596	0.27876	-1.57919
3152.000	0.98050	-1.08395	0.31829	-1.52551
3153.000	0.97852	-1.09986	0.26887	-1.55136
3154.000	0.99236	-1.08395	0.25701	-1.56131
3155.000	0.97654	-1.10384	0.25899	-1.53546
3156.000	0.97852	-1.10384	0.21747	-1.56529
3157.000	0.95283	-1.12572	0.21154	-1.61498
3158.000	0.96469	-1.09987	0.31039	-1.58913
3159.000	0.93504	-1.08993	0.28666	-1.61100
3160.000	0.98050	-1.14361	0.27678	-1.55335
3161.000	0.96271	-1.11975	0.36772	-1.61099
3162.000	1.00817	-1.05014	0.33806	-1.57123
3163.000	0.96469	-1.15157	0.25108	-1.56926
3164.000	0.96864	-1.05811	0.28073	-1.59510
3165.000	1.00026	-1.11179	0.29655	-1.62094
3166.000	0.94492	-1.12175	0.24910	-1.54938
3167.000	0.97457	-1.09788	0.22735	-1.56926
3168.000	0.98643	-1.08594	0.27282	-1.57323
3169.000	0.98445	-1.11179	0.28864	-1.51955
3170.000	0.99829	-1.13366	0.17200	-1.50963
3171.000	1.01805	-1.13564	0.30248	-1.57720
3172.000	1.01410	-1.14360	0.30841	-1.59509
3173.000	1.02003	-1.13763	0.28666	-1.59311
3174.000	1.01805	-1.09388	0.18188	-1.48577
3175.000	1.00619	-1.13763	0.37958	-1.59309
3176.000	0.96469	-1.18139	0.27678	-1.59907
3177.000	0.99236	-1.12372	0.31829	-1.52949
3178.000	0.96469	-1.15157	0.22538	-1.54938
3179.000	0.97852	-1.10981	0.19572	-1.52950
3180.000	1.02200	-1.11973	0.22142	-1.55932
3181.000	0.96073	-1.13168	0.25899	-1.52353
3182.000	1.01410	-1.12371	0.26096	-1.52950
3183.000	0.99631	-1.14559	0.30248	-1.56130
3184.000	0.97852	-1.12770	0.22933	-1.56528
3185.000	0.98247	-1.14162	0.25108	-1.51956
3186.000	0.98840	-1.07998	0.29655	-1.59509
3187.000	1.00421	-1.10184	0.23329	-1.56330
3188.000	1.01212	-1.10582	0.28666	-1.56727
3189.000	0.99236	-1.14360	0.24712	-1.55733
3190.000	0.97259	-1.15554	0.33806	-1.61298
3191.000	1.00224	-1.10781	0.31236	-1.58515
3192.000	1.01607	-1.09190	0.29062	-1.61299
3193.000	1.01607	-1.10184	0.34399	-1.59708
3194.000	1.00224	-1.09787	0.28666	-1.57919
3195.000	1.00224	-1.13167	0.28073	-1.57124
3196.000	0.99433	-1.12968	0.19375	-1.62294
3197.000	0.95876	-1.14560	0.24515	-1.58516
3198.000	0.98643	-1.09588	0.23131	-1.54739
3199.000	0.97852	-1.13565	0.21747	-1.59312
3200.000	0.98643	-1.09986	0.29852	-1.60305
3201.000	0.98840	-1.13565	0.36969	-1.52153
3202.000	0.98247	-1.12969	0.26887	-1.61696
3203.000	0.96271	-1.08396	0.33609	-1.56726
3204.000	1.02991	-1.09786	0.23922	-1.52950
3205.000	1.03188	-1.07598	0.27678	-1.61498
3206.000	1.01410	-1.09389	0.25503	-1.58715
3207.000	0.99631	-1.10383	0.36969	-1.64279
3208.000	1.00619	-1.10582	0.28469	-1.59510
3209.000	0.99038	-1.15752	0.30446	-1.61497
3210.000	1.00619	-1.09985	0.27678	-1.64678
3211.000	0.99038	-1.08395	0.32620	-1.58913
3212.000	1.05362	-1.06603	0.30446	-1.56130
3213.000	1.02991	-1.10382	0.29259	-1.68256
3214.000	1.02595	-1.11178	0.25899	-1.56329
3215.000	1.02200	-1.12769	0.33806	-1.54340
3216.000	1.03386	-1.05610	0.33806	-1.56527
3217.000	1.06746	-1.07001	0.25108	-1.57125
3218.000	1.05758	-1.06007	0.21747	-1.56330
3219.000	1.08129	-1.09585	0.31829	-1.58714
3220.000	1.04374	-1.06405	0.29852	-1.52750
3221.000	1.07536	-1.05012	0.29852	-1.46190
3222.000	1.06746	-1.12170	0.23724	-1.58914
3223.000	1.00421	-1.14161	0.29062	-1.49371
3224.000	1.09315	-1.04415	0.30841	-1.53148
3225.000	1.06153	-1.07597	0.29259	-1.54739
3226.000	1.04374	-1.10382	0.27085	-1.50166
3227.000	1.08722	-1.07000	0.27282	-1.55534
3228.000	1.05165	-1.09188	0.26294	-1.57522
3229.000	1.05165	-1.10779	0.26492	-1.54739
3230.000	1.08722	-1.13562	0.29259	-1.57323
3231.000	1.08129	-1.12369	0.20956	-1.54938
3232.000	1.09710	-1.09982	0.31039	-1.55533
3233.000	1.06153	-1.13165	0.32620	-1.55334
3234.000	1.02595	-1.12172	0.29852	-1.57522
3235.000	1.07141	-1.09983	0.31236	-1.51756
3236.000	1.06351	-1.10978	0.29259	-1.55335
3237.000	1.08327	-1.12568	0.29655	-1.55732
3238.000	1.02991	-1.14558	0.27678	-1.60106
3239.000	1.02200	-1.13564	0.33016	-1.59310
3240.000	0.99829	-1.19331	0.26096	-1.62492
3241.000	1.03781	-1.15949	0.31039	-1.53943
3242.000	1.06943	-1.18334	0.27678	-1.60901
3243.000	0.99631	-1.16746	0.33609	-1.56925
3244.000	1.09117	-1.15550	0.30050	-1.55136
3245.000	1.04374	-1.13364	0.28666	-1.56925
3246.000	1.00026	-1.16547	0.26294	-1.49769
3247.000	1.04967	-1.11376	0.26096	-1.53944
3248.000	0.99829	-1.11576	0.25899	-1.61100
3249.000	1.02991	-1.15552	0.28666	-1.56130
3250.000	0.99631	-1.15155	0.31434	-1.57720
3251.000	1.01805	-1.12172	0.26294	-1.54341
3252.000	1.06943	-1.12767	0.32620	-1.61696
3253.000	1.04374	-1.14358	0.37760	-1.53147
3254.000	1.05560	-1.12370	0.29062	-1.56130
3255.000	1.03979	-1.17142	0.26096	-1.58914
3256.000	1.05165	-1.13364	0.24910	-1.47582
3257.000	1.03781	-1.12967	0.24910	-1.52353
3258.000	1.08129	-1.12170	0.31236	-1.57521
3259.000	1.04572	-1.13961	0.24910	-1.52950
3260.000	1.06746	-1.13562	0.26689	-1.55733
3261.000	1.06153	-1.12767	0.24712	-1.54143
3262.000	1.08129	-1.08790	0.30050	-1.52353
3263.000	1.08327	-1.09585	0.27480	-1.58118
3264.000	1.08524	-1.10181	0.22933	-1.51956
3265.000	1.01805	-1.09587	0.27480	-1.55534
3266.000	1.06351	-1.09983	0.23724	-1.52751
3267.000	1.05955	-1.06206	0.22933	-1.59312
3268.000	1.06943	-1.05609	0.25305	-1.59112
3269.000	1.04967	-1.05411	0.38156	-1.56526
3270.000	1.08327	-1.03421	0.28864	-1.56528
3271.000	1.09710	-1.08193	0.25305	-1.56131
3272.000	1.06153	-1.09785	0.24712	-1.49968
3273.000	1.03979	-1.08394	0.30446	-1.51160
3274.000	1.03781	-1.05809	0.34597	-1.54539
3275.000	1.06548	-1.12568	0.23526	-1.61101
3276.000	1.04967	-1.05808	0.37958	-1.53544
3277.000	1.04177	-1.07996	0.33016	-1.54142
3278.000	1.07932	-1.11772	0.27678	-1.67063
3279.000	1.09117	-1.09386	0.34399	-1.60900
3280.000	1.03386	-1.06604	0.29655	-1.58317
3281.000	1.01014	-1.09190	0.27480	-1.61299
3282.000	1.04769	-1.10779	0.32620	-1.61099
3283.000	1.06351	-1.11176	0.35981	-1.66267
3284.000	1.09315	-1.11772	0.40923	-1.62688
3285.000	1.08920	-1.07994	0.26887	-1.59510
3286.000	1.01212	-1.13167	0.32027	-1.61895
3287.000	1.06153	-1.10580	0.32027	-1.60304
3288.000	1.05955	-1.10978	0.26096	-1.57721
3289.000	1.04572	-1.09586	0.30446	-1.62491
3290.000	1.09908	-1.09187	0.28864	-1.62094
3291.000	1.04177	-1.16148	0.30050	-1.66268
3292.000	1.04177	-1.13563	0.31236	-1.67063
3293.000	1.01212	-1.13365	0.25305	-1.69648
3294.000	1.03386	-1.15353	0.34993	-1.60105
3295.000	1.06943	-1.16942	0.31434	-1.65473
3296.000	1.02003	-1.14359	0.30643	-1.70044
3297.000	1.02398	-1.10382	0.33411	-1.68851
3298.000	1.08524	-1.13760	0.34597	-1.72826
3299.000	1.05758	-1.13563	0.28073	-1.68852
3300.000	0.98643	-1.10185	0.27480	-1.67660
3301.000	1.02793	-1.10581	0.30050	-1.62889
3302.000	1.03188	-1.13365	0.27085	-1.64877
3303.000	1.02200	-1.12371	0.26294	-1.68654
3304.000	1.03188	-1.09786	0.31829	-1.66466
3305.000	1.04177	-1.09984	0.32027	-1.66665
3306.000	1.05165	-1.09188	0.35783	-1.75410
3307.000	1.04177	-1.09189	0.29457	-1.70243
3308.000	1.00619	-1.10781	0.37760	-1.72826
3309.000	1.02793	-1.09189	0.29655	-1.73225
3310.000	1.06351	-1.07399	0.33016	-1.72429
3311.000	1.04967	-1.08791	0.35190	-1.72628
3312.000	1.03386	-1.08195	0.24910	-1.70443
3313.000	1.05165	-1.09387	0.34993	-1.72429
3314.000	1.01805	-1.09786	0.37958	-1.70043
3315.000	1.01607	-1.08792	0.32027	-1.73622
3316.000	1.01805	-1.07002	0.36574	-1.68255
3317.000	1.05165	-1.06206	0.27678	-1.69250
3318.000	1.00619	-1.10383	0.24119	-1.65275
3319.000	0.99236	-1.10980	0.34993	-1.63683
3320.000	1.02398	-1.08394	0.26096	-1.62691
3321.000	1.07339	-1.11375	0.29457	-1.66069
3322.000	1.06548	-1.12568	0.27678	-1.62889
3323.000	1.05165	-1.15352	0.32620	-1.60105
3324.000	1.07141	-1.14556	0.21945	-1.58715
3325.000	1.06153	-1.17539	0.19968	-1.69648
3326.000	1.07734	-1.17737	0.31632	-1.62292
3327.000	1.05165	-1.15750	0.29655	-1.61299
3328.000	1.07141	-1.19925	0.28666	-1.62889
3329.000	1.06746	-1.15551	0.33806	-1.62689
3330.000	1.10303	-1.16941	0.35586	-1.61894
3331.000	1.05758	-1.20720	0.26492	-1.65076
3332.000	1.04769	-1.20124	0.33806	-1.59708
3333.000	1.03188	-1.18137	0.36574	-1.67658
3334.000	1.05165	-1.20522	0.31829	-1.62491
3335.000	1.05758	-1.18732	0.35783	-1.56725
3336.000	1.05955	-1.15153	0.28271	-1.66666
3337.000	1.06943	-1.20919	0.34399	-1.59111
3338.000	1.09710	-1.16544	0.30248	-1.64479
3339.000	1.05165	-1.19130	0.37563	-1.59906
3340.000	1.06943	-1.18931	0.36969	-1.58117
3341.000	1.04374	-1.20721	0.28864	-1.62889
3342.000	1.06943	-1.17539	0.25701	-1.61100
3343.000	1.08327	-1.18135	0.33806	-1.59708
3344.000	1.08129	-1.14556	0.33411	-1.64081
3345.000	1.06943	-1.16147	0.24317	-1.60504
3346.000	1.05560	-1.13960	0.28666	-1.63286
3347.000	1.05955	-1.15551	0.23724	-1.52751
3348.000	1.00224	-1.11775	0.29852	-1.58118
3349.000	1.04572	-1.07797	0.34202	-1.59708
3350.000	1.01805	-1.19330	0.38353	-1.59906
3351.000	1.03781	-1.14557	0.28469	-1.61100
3352.000	1.06943	-1.14556	0.30643	-1.54341
3353.000	1.06153	-1.14358	0.26689	-1.57721
3354.000	1.06153	-1.16943	0.30050	-1.60106
3355.000	1.02595	-1.14558	0.34399	-1.55334
3356.000	1.08327	-1.16942	0.35190	-1.59906
3357.000	1.07734	-1.16345	0.37563	-1.64279
3358.000	1.10896	-1.15748	0.35981	-1.59906
3359.000	1.07141	-1.13363	0.34202	-1.59906
3360.000	1.02991	-1.16745	0.30643	-1.58714
3361.000	1.04374	-1.18136	0.34993	-1.56129
3362.000	1.03386	-1.18733	0.38551	-1.56526
3363.000	1.03979	-1.17142	0.35981	-1.57521
3364.000	1.02398	-1.18733	0.34004	-1.59310
3365.000	1.03781	-1.16148	0.29259	-1.56528
3366.000	1.00026	-1.12769	0.35586	-1.64876
3367.000	0.98840	-1.19729	0.31434	-1.65075
3368.000	1.03584	-1.18335	0.28271	-1.62094
3369.000	1.09117	-1.15351	0.27085	-1.63088
3370.000	1.08129	-1.17936	0.39342	-1.61893
3371.000	1.06153	-1.20124	0.36574	-1.60900
3372.000	1.06746	-1.20919	0.33806	-1.63683
3373.000	1.04769	-1.19528	0.32818	-1.65274
3374.000	1.08524	-1.21316	0.35586	-1.57521
3375.000	1.04572	-1.17937	0.35783	-1.63087
3376.000	1.03386	-1.15353	0.24712	-1.67859
3377.000	1.04177	-1.17142	0.32027	-1.70243
3378.000	1.08524	-1.20322	0.27876	-1.58118
3379.000	1.00619	-1.14956	0.33213	-1.65274
3380.000	1.05362	-1.18533	0.35783	-1.62093
3381.000	1.00619	-1.20523	0.35981	-1.64080
3382.000	1.02398	-1.18336	0.31039	-1.51955
3383.000	1.04374	-1.22311	0.37365	-1.63285
3384.000	1.04374	-1.16148	0.36574	-1.62291
3385.000	1.03386	-1.20721	0.34399	-1.63286
3386.000	1.06746	-1.17738	0.34399	-1.63882
3387.000	1.05560	-1.18533	0.39539	-1.63682
3388.000	1.03584	-1.19329	0.33609	-1.60900
3389.000	1.03386	-1.15949	0.31236	-1.64678
3390.000	1.03584	-1.11973	0.38156	-1.59906
3391.000	1.03584	-1.19329	0.34399	-1.67659
3392.000	1.01212	-1.18336	0.33609	-1.65273
3393.000	1.05955	-1.20919	0.34399	-1.64478
3394.000	1.02991	-1.19330	0.33411	-1.70640
3395.000	1.04572	-1.14358	0.34597	-1.67659
3396.000	1.07932	-1.15948	0.37167	-1.65074
3397.000	1.01014	-1.18137	0.37167	-1.69049
3398.000	1.04177	-1.18733	0.38156	-1.71434
3399.000	1.02398	-1.16944	0.39539	-1.67658
3400.000	1.03584	-1.16148	0.40133	-1.68651
3401.000	1.04374	-1.17739	0.31829	-1.71833
3402.000	1.03781	-1.14756	0.31039	-1.64876
3403.000	1.01607	-1.15155	0.32027	-1.61895
3404.000	1.08129	-1.12369	0.34202	-1.72628
3405.000	1.08327	-1.16743	0.39342	-1.69049
3406.000	1.02398	-1.15751	0.35586	-1.62888
3407.000	1.03386	-1.13365	0.31434	-1.69647
3408.000	1.04177	-1.18335	0.34993	-1.63087
3409.000	1.02793	-1.16148	0.31434	-1.63485
3410.000	1.05165	-1.15551	0.35388	-1.67261
3411.000	1.01014	-1.14956	0.34202	-1.58714
3412.000	1.04967	-1.11575	0.28271	-1.69647
3413.000	1.03584	-1.18932	0.31236	-1.62690
3414.000	1.02595	-1.17938	0.33806	-1.63286
3415.000	1.06943	-1.17936	0.33806	-1.70044
3416.000	1.05560	-1.16943	0.37760	-1.70043
3417.000	1.07141	-1.19328	0.42702	-1.66862
3418.000	1.06746	-1.21316	0.38353	-1.61098
3419.000	1.02991	-1.20324	0.38353	-1.65273
3420.000	1.06153	-1.21516	0.36179	-1.65472
3421.000	1.07536	-1.17737	0.42900	-1.63284
3422.000	1.03979	-1.19528	0.43098	-1.70241
3423.000	1.03979	-1.20721	0.39342	-1.72627
3424.000	1.02003	-1.21318	0.42900	-1.68253
3425.000	1.02595	-1.16944	0.39935	-1.73422
3426.000	1.00817	-1.23705	0.39144	-1.68850
3427.000	1.03979	-1.22908	0.29457	-1.67461
3428.000	1.06943	-1.17936	0.35190	-1.70044
3429.000	1.02991	-1.21119	0.44086	-1.69446
3430.000	1.05955	-1.15949	0.34004	-1.62093
3431.000	1.03584	-1.18932	0.34399	-1.64876
3432.000	1.04177	-1.18136	0.33213	-1.64876
3433.000	1.05362	-1.19329	0.35190	-1.61099
3434.000	1.02398	-1.21517	0.36179	-1.69646
3435.000	1.02991	-1.17143	0.34399	-1.60701
3436.000	1.06943	-1.19527	0.31829	-1.62888
3437.000	1.01410	-1.21120	0.34202	-1.58316
3438.000	1.00224	-1.19728	0.38946	-1.61695
3439.000	1.03781	-1.16347	0.30446	-1.55732
3440.000	1.02595	-1.20722	0.32620	-1.64081
3441.000	1.01212	-1.23506	0.41319	-1.63881
3442.000	1.03781	-1.17739	0.35981	-1.65869
3443.000	1.02200	-1.22511	0.33411	-1.65671
3444.000	1.03781	-1.21715	0.33609	-1.65472
3445.000	1.01014	-1.17740	0.44086	-1.68054
3446.000	1.00817	-1.20523	0.36574	-1.63086
3447.000	1.02003	-1.18137	0.36574	-1.62490
3448.000	1.03188	-1.22113	0.36969	-1.69845
3449.000	1.00619	-1.19331	0.42505	-1.71831
3450.000	1.03188	-1.20920	0.40726	-1.69645
3451.000	1.04374	-1.19528	0.42307	-1.64278
3452.000	1.00619	-1.16547	0.39935	-1.65670
3453.000	1.01607	-1.19330	0.42109	-1.71632
3454.000	1.04769	-1.23107	0.36376	-1.67857
3455.000	1.02991	-1.19330	0.31236	-1.69249
3456.000	1.02200	-1.21119	0.36969	-1.68254
3457.000	1.04572	-1.18534	0.39539	-1.69049
3458.000	1.03979	-1.18733	0.39342	-1.71434
3459.000	1.06548	-1.16744	0.36574	-1.68652
3460.000	1.08129	-1.15351	0.36969	-1.69050
3461.000	1.09710	-1.17140	0.31039	-1.62093
3462.000	1.08524	-1.14158	0.41516	-1.66067
3463.000	1.05165	-1.18732	0.40923	-1.74813
3464.000	1.07932	-1.18930	0.36376	-1.61894
3465.000	1.07141	-1.16147	0.34597	-1.62093
3466.000	1.08327	-1.17339	0.45668	-1.67656
3467.000	1.09710	-1.16544	0.39144	-1.60104
3468.000	1.07536	-1.15351	0.33806	-1.71435
3469.000	1.07734	-1.16544	0.43691	-1.71433
3470.000	1.09513	-1.12567	0.36179	-1.68652
3471.000	1.07141	-1.13960	0.35190	-1.68454
3472.000	1.09117	-1.14754	0.39935	-1.59905
3473.000	1.06351	-1.14159	0.38156	-1.67857
3474.000	1.05955	-1.12767	0.36179	-1.66863
3475.000	1.06746	-1.19527	0.37958	-1.68652
3476.000	1.07339	-1.18732	0.37958	-1.69844
3477.000	1.03386	-1.21119	0.35783	-1.71037
3478.000	1.06746	-1.17738	0.34597	-1.68454
3479.000	1.05165	-1.19130	0.38551	-1.72627
3480.000	1.06548	-1.22509	0.42702	-1.70440
3481.000	1.09908	-1.22707	0.37760	-1.70441
3482.000	1.06351	-1.21118	0.31632	-1.66268
3483.000	1.09117	-1.18134	0.31236	-1.62690
3484.000	1.07932	-1.21515	0.45470	-1.64476
3485.000	1.08524	-1.17936	0.39144	-1.58912
3486.000	1.08327	-1.20719	0.46261	-1.66066
3487.000	1.09908	-1.16345	0.37563	-1.69248
3488.000	1.07932	-1.19328	0.46063	-1.62289
3489.000	1.08327	-1.18532	0.37365	-1.71037
3490.000	1.07536	-1.17539	0.54761	-1.70039
3491.000	1.09117	-1.14357	0.40133	-1.61297
3492.000	1.11094	-1.16742	0.40528	-1.63086
3493.000	1.09315	-1.18134	0.43889	-1.67060
3494.000	1.08327	-1.16146	0.37760	-1.67857
3495.000	1.01607	-1.17740	0.36376	-1.63683
3496.000	1.06548	-1.14358	0.42505	-1.62886
3497.000	1.05362	-1.18732	0.40923	-1.61694
3498.000	1.07141	-1.15352	0.44284	-1.68650
3499.000	1.03979	-1.13762	0.39144	-1.67857
3500.000	1.08524	-1.16146	0.48238	-1.64078
3501.000	1.07141	-1.15153	0.37365	-1.68652
3502.000	1.07932	-1.15948	0.37167	-1.68453
3503.000	1.07932	-1.17538	0.39539	-1.61893
3504.000	1.10303	-1.12368	0.48831	-1.66662
3505.000	1.09315	-1.12169	0.51598	-1.66462
3506.000	1.05758	-1.15352	0.38749	-1.65670
3507.000	1.06548	-1.17340	0.47447	-1.65867
3508.000	1.04374	-1.13762	0.44679	-1.65669
3509.000	1.01607	-1.16745	0.43098	-1.61694
3510.000	1.11489	-1.13759	0.40133	-1.61496
3511.000	1.00817	-1.11775	0.35783	-1.61695
3512.000	1.03386	-1.13166	0.45668	-1.59904
3513.000	1.04572	-1.10978	0.34399	-1.53545
3514.000	1.05362	-1.11972	0.41912	-1.56128
3515.000	1.03781	-1.05411	0.30248	-1.51756
3516.000	0.94690	-1.07800	0.32818	-1.57124
3517.000	0.89551	-1.05217	0.23724	-1.46191
3518.000	0.78680	-0.95873	0.16607	-1.50565
3519.000	0.67215	-0.87920	0.03559	-1.37245
3520.000	0.53971	-0.85536	-0.13048	-1.20939
3521.000	0.28864	-0.71814	-0.29655	-1.10796
3522.000	0.08699	-0.58089	-0.48435	-1.04231
3523.000	-0.15816	-0.48541	-0.80063	-0.85133
3524.000	-0.43493	-0.37798	-0.95678	-0.81749
3525.000	-0.62075	-0.20490	-1.28286	-0.59865
3526.000	-0.93504	-0.04376	-1.61676	-0.43550
3527.000	-1.15046	0.08752	-1.74910	-0.40366
3528.000	-1.34609	0.21281	-1.94462	-0.12129
3529.000	-1.50020	0.35996	-2.19340	-0.09343
3530.000	-1.60096	0.51107	-2.30394	0.15306
3531.000	-1.71355	0.68005	-2.31381	0.25444
3532.000	-1.70170	0.75760	-2.23683	0.46516
3533.000	-1.59503	0.82325	-2.29013	0.61820
3534.000	-1.51206	0.87498	-2.16774	0.67192
3535.000	-1.34807	1.00826	-2.08679	0.70972
3536.000	-1.27100	0.93870	-1.89723	0.77541
3537.000	-1.05955	0.97456	-1.86168	0.82711
3538.000	-0.93899	1.03227	-1.66022	0.80334
3539.000	-0.79866	1.01441	-1.50020	0.94060
3540.000	-0.66227	0.99853	-1.35399	0.84521
3541.000	-0.56738	1.01446	-1.27693	0.82734
3542.000	-0.51598	0.95679	-1.18603	0.82737
3543.000	-0.43889	1.02044	-1.06943	0.85127
3544.000	-0.43889	0.96078	-1.05165	0.83337
3545.000	-0.43691	1.02044	-1.08327	0.75581
3546.000	-0.43691	0.99658	-1.07536	0.73791
3547.000	-0.46261	0.97072	-1.10698	0.63846
3548.000	-0.49226	0.91702	-1.03188	0.50124
3549.000	-0.51005	0.91702	-1.11489	0.57482
3550.000	-0.55354	0.84939	-1.10896	0.46742
3551.000	-0.66622	0.79368	-1.11884	0.44753
3552.000	-0.64843	0.73600	-1.19196	0.38586
3553.000	-0.68203	0.72605	-1.28879	0.38784
3554.000	-0.70378	0.70815	-1.31052	0.28839
3555.000	-0.79075	0.63057	-1.33819	0.27049
3556.000	-0.82633	0.60073	-1.33226	0.25060
3557.000	-0.80261	0.58084	-1.32436	0.21281
3558.000	-0.87179	0.54304	-1.39549	0.21678
3559.000	-0.83028	0.56492	-1.45476	0.18893
3560.000	-0.86784	0.54503	-1.47847	0.35400
3561.000	-0.93504	0.56093	-1.47254	0.33411
3562.000	-0.89156	0.59077	-1.54959	0.30825
3563.000	-0.90342	0.63651	-1.50415	0.33212
3564.000	-0.93306	0.65441	-1.48637	0.40172
3565.000	-0.87772	0.71011	-1.60096	0.39773
3566.000	-0.96666	0.72004	-1.60491	0.52300
3567.000	-0.91132	0.79960	-1.56342	0.50114
3568.000	-0.92120	0.76380	-1.56737	0.58863
3569.000	-0.92120	0.84136	-1.48637	0.58865
3570.000	-0.93306	0.88909	-1.57132	0.61050
3571.000	-0.89156	0.82944	-1.54959	0.64431
3572.000	-0.93109	0.92091	-1.55354	0.68209
3573.000	-0.94887	0.92289	-1.58318	0.72384
3574.000	-0.93702	0.89704	-1.64046	0.67610
3575.000	-0.88760	0.91296	-1.59503	0.68805
3576.000	-0.89946	0.93086	-1.54169	0.71789
3577.000	-0.86784	0.95473	-1.55947	0.68408
3578.000	-0.86586	0.95473	-1.49230	0.66621
3579.000	-0.83028	0.97065	-1.50020	0.73381
3580.000	-0.91725	0.90103	-1.48242	0.62246
3581.000	-0.93109	0.88312	-1.57132	0.66817
3582.000	-0.88365	0.93683	-1.57330	0.71390
3583.000	-0.91923	0.89307	-1.56737	0.65425
3584.000	-0.90737	0.91097	-1.51996	0.62046
3585.000	-0.88563	0.97064	-1.56935	0.70197
3586.000	-0.90737	0.88910	-1.45081	0.65627
3587.000	-0.88958	0.90899	-1.46069	0.65627
3588.000	-0.92713	0.91693	-1.52589	0.57472
3589.000	-0.90144	0.90700	-1.41920	0.60657
3590.000	-0.86784	0.89905	-1.53971	0.61250
3591.000	-0.89353	0.88910	-1.45476	0.59662
3592.000	-0.87377	0.86325	-1.58120	0.59261
3593.000	-0.92318	0.88313	-1.46464	0.63042
3594.000	-0.85400	0.86922	-1.48637	0.55286
3595.000	-0.85598	0.90502	-1.44883	0.63241
3596.000	-0.84610	0.86922	-1.50415	0.58467
3597.000	-0.85400	0.84734	-1.39746	0.64237
3598.000	-0.89551	0.85529	-1.44291	0.58469
3599.000	-0.91330	0.85727	-1.55749	0.60255
3600.000	-0.87377	0.84336	-1.53379	0.62443
3601.000	-0.88563	0.78767	-1.48242	0.56479
3602.000	-0.86981	0.86524	-1.51206	0.60058
3603.000	-0.90737	0.81352	-1.55354	0.65028
3604.000	-0.90737	0.86125	-1.49230	0.56280
3605.000	-0.89946	0.79960	-1.52589	0.57075
3606.000	-0.86191	0.84336	-1.51601	0.65228
3607.000	-0.86388	0.86922	-1.52391	0.58666
3608.000	-0.87377	0.84734	-1.51403	0.55683
3609.000	-0.90934	0.86125	-1.57330	0.58863
3610.000	-0.89749	0.81949	-1.47057	0.68212
3611.000	-0.91725	0.86722	-1.47847	0.62843
3612.000	-0.91527	0.82545	-1.54959	0.58665
3613.000	-0.91527	0.89307	-1.51403	0.56280
3614.000	-0.92120	0.82943	-1.52391	0.58666
3615.000	-0.90737	0.82744	-1.51798	0.63438
3616.000	-0.89946	0.81949	-1.54367	0.60455
3617.000	-0.91923	0.83341	-1.52589	0.70199
3618.000	-0.90539	0.88711	-1.56342	0.59062
3619.000	-0.90144	0.87716	-1.53774	0.62841
3620.000	-0.90342	0.86324	-1.50020	0.59263
3621.000	-0.90934	0.84137	-1.52786	0.64631
3622.000	-0.89749	0.84336	-1.55947	0.61051
3623.000	-0.88958	0.86722	-1.50613	0.58467
3624.000	-0.92713	0.81551	-1.49625	0.51706
3625.000	-0.93899	0.82346	-1.56540	0.58664
3626.000	-0.92713	0.81948	-1.49823	0.56877
3627.000	-0.91725	0.78369	-1.54762	0.60256
3628.000	-0.91527	0.85529	-1.48637	0.55883
3629.000	-0.92516	0.84932	-1.61281	0.61646
3630.000	-0.92911	0.83341	-1.50415	0.58070
3631.000	-0.91923	0.81949	-1.52984	0.56876
3632.000	-0.91330	0.82148	-1.50020	0.60655
3633.000	-0.91725	0.82148	-1.56342	0.60454
3634.000	-0.91725	0.80557	-1.48637	0.62445
3635.000	-0.93109	0.83142	-1.52786	0.60256
3636.000	-0.95876	0.82743	-1.43896	0.57475
3637.000	-0.93109	0.78567	-1.56935	0.53693
3638.000	-0.91725	0.81352	-1.59700	0.64828
3639.000	-0.93109	0.84335	-1.51206	0.64830
3640.000	-0.92318	0.81153	-1.54169	0.59063
3641.000	-0.92120	0.77374	-1.54169	0.69999
3642.000	-0.93306	0.82346	-1.57330	0.55284
3643.000	-0.95678	0.84533	-1.46266	0.51906
3644.000	-0.93306	0.82545	-1.51996	0.55882
3645.000	-0.94295	0.81153	-1.56737	0.62641
3646.000	-0.90737	0.85728	-1.54169	0.65426
3647.000	-0.89551	0.77375	-1.46662	0.58269
3648.000	-0.93504	0.81153	-1.53181	0.63239
3649.000	-0.94295	0.78169	-1.56540	0.60056
3650.000	-0.91132	0.78369	-1.49625	0.61053
3651.000	-0.98050	0.81947	-1.48045	0.57275
3652.000	-0.92516	0.77573	-1.51008	0.61052
3653.000	-0.92516	0.78965	-1.46069	0.57872
3654.000	-0.96469	0.81948	-1.51403	0.58268
3655.000	-0.96271	0.78964	-1.56145	0.62244
3656.000	-0.93899	0.81352	-1.51403	0.56280
3657.000	-0.97259	0.77572	-1.47847	0.63042
3658.000	-0.98247	0.80555	-1.54169	0.58069
3659.000	-0.91725	0.77374	-1.44883	0.64236
3660.000	-0.99829	0.80356	-1.54564	0.61847
3661.000	-0.95480	0.78567	-1.54959	0.62841
3662.000	-0.95678	0.78965	-1.47057	0.57673
3663.000	-0.92516	0.82744	-1.56145	0.64431
3664.000	-0.96271	0.78567	-1.45081	0.60457
3665.000	-0.92516	0.83142	-1.49823	0.59462
3666.000	-0.98247	0.78169	-1.56145	0.60056
3667.000	-0.93109	0.82346	-1.55157	0.56279
3668.000	-0.95678	0.77374	-1.48637	0.63240
3669.000	-0.94887	0.80954	-1.44291	0.60259
3670.000	-0.95876	0.78766	-1.52193	0.61648
3671.000	-0.95085	0.80954	-1.45674	0.56878
3672.000	-0.95085	0.79959	-1.55749	0.64829
3673.000	-0.95480	0.78368	-1.45476	0.51707
3674.000	-0.93109	0.84335	-1.55749	0.59062
3675.000	-0.93899	0.80954	-1.59305	0.64430
3676.000	-0.95876	0.78169	-1.52786	0.60853
3677.000	-0.99631	0.81350	-1.51601	0.63438
3678.000	-0.99236	0.82941	-1.53576	0.59660
3679.000	-0.96073	0.84533	-1.51206	0.58467
3680.000	-0.98643	0.77373	-1.57527	0.60255
3681.000	-0.98643	0.78367	-1.46266	0.57673
3682.000	-1.00224	0.78964	-1.60293	0.61646
3683.000	-0.96666	0.81152	-1.41920	0.60259
3684.000	-0.93504	0.80158	-1.53576	0.60853
3685.000	-0.96469	0.81749	-1.50810	0.58467
3686.000	-0.99433	0.77174	-1.50810	0.51308
3687.000	-0.93504	0.79164	-1.52984	0.59660
3688.000	-0.92713	0.80556	-1.51008	0.61450
3689.000	-0.94097	0.78965	-1.52984	0.54092
3690.000	-0.94097	0.75186	-1.48045	0.55087
3691.000	-0.92120	0.78568	-1.45674	0.63440
3692.000	-0.96666	0.76976	-1.49230	0.54689
3693.000	-0.93899	0.76380	-1.52391	0.49319
3694.000	-0.96666	0.77970	-1.44686	0.52304
3695.000	-0.95283	0.77573	-1.47847	0.53496
3696.000	-1.01014	0.77571	-1.48440	0.54888
3697.000	-0.92516	0.79562	-1.53971	0.53296
3698.000	-0.95085	0.77970	-1.57132	0.54290
3699.000	-0.99236	0.80157	-1.51008	0.58268
3700.000	-0.93109	0.78369	-1.46266	0.59065
3701.000	-0.96271	0.74788	-1.48045	0.52104
3702.000	-0.95678	0.82346	-1.56342	0.57471
3703.000	-0.98050	0.78964	-1.47649	0.57673
3704.000	-0.99829	0.76776	-1.54367	0.49717
3705.000	-0.95283	0.79760	-1.48637	0.61252
3706.000	-0.97654	0.75583	-1.54762	0.61847
3707.000	-0.94295	0.80357	-1.51996	0.59859
3708.000	-0.93504	0.81153	-1.52589	0.63836
3709.000	-0.94097	0.74788	-1.53576	0.61051
3710.000	-0.92120	0.81750	-1.50613	0.64632
3711.000	-0.95085	0.77771	-1.46464	0.55287
3712.000	-0.97457	0.77771	-1.46464	0.60855
3713.000	-0.97259	0.81152	-1.49823	0.59859
3714.000	-0.92713	0.76976	-1.50810	0.64035
3715.000	-0.97654	0.78169	-1.49625	0.63638
3716.000	-0.94887	0.78965	-1.45476	0.57474
3717.000	-0.93899	0.76578	-1.44686	0.59662
3718.000	-0.96666	0.77174	-1.57923	0.58266
3719.000	-0.95283	0.75186	-1.54564	0.52699
3720.000	-0.92911	0.75187	-1.46859	0.57474
3721.000	-0.94690	0.75584	-1.61478	0.57072
3722.000	-0.97457	0.72799	-1.56737	0.55483
3723.000	-0.96073	0.76379	-1.52391	0.60853
3724.000	-0.98643	0.74589	-1.51798	0.56677
3725.000	-0.97654	0.73992	-1.44093	0.59662
3726.000	-0.97062	0.74987	-1.46662	0.60457
3727.000	-0.99433	0.73793	-1.51996	0.56279
3728.000	-0.93702	0.71606	-1.49230	0.54490
3729.000	-0.95678	0.72600	-1.49625	0.58666
3730.000	-0.97457	0.72799	-1.54564	0.58864
3731.000	-0.96271	0.71009	-1.48045	0.54292
3732.000	-0.92318	0.74391	-1.52984	0.55086
3733.000	-0.95283	0.74987	-1.46069	0.56679
3734.000	-0.93899	0.73993	-1.56145	0.58466
3735.000	-0.95876	0.76379	-1.46069	0.58468
3736.000	-0.95283	0.75385	-1.52193	0.58864
3737.000	-0.94097	0.73595	-1.54169	0.55881
3738.000	-0.98247	0.76379	-1.56540	0.61647
3739.000	-0.96073	0.73993	-1.54959	0.57074
3740.000	-0.96469	0.74390	-1.57132	0.60255
3741.000	-0.96666	0.76379	-1.45279	0.54889
3742.000	-0.93109	0.72999	-1.54564	0.58466
3743.000	-0.92318	0.74988	-1.56935	0.57272
3744.000	-0.94887	0.72203	-1.57527	0.62045
3745.000	-0.92318	0.78767	-1.51996	0.56478
3746.000	-0.91923	0.71209	-1.52589	0.53495
3747.000	-0.92516	0.78568	-1.43698	0.55685
3748.000	-0.88563	0.77375	-1.53181	0.56080
3749.000	-0.91132	0.78767	-1.52193	0.60058
3750.000	-0.90539	0.78966	-1.53576	0.57273
3751.000	-0.90539	0.75187	-1.53379	0.63040
3752.000	-0.91923	0.75783	-1.49230	0.63041
3753.000	-0.88958	0.77972	-1.48835	0.55883
3754.000	-0.89551	0.78369	-1.46464	0.59264
3755.000	-0.92713	0.73198	-1.47057	0.57076
3756.000	-0.87574	0.73398	-1.49428	0.57672
3757.000	-0.90737	0.74988	-1.44488	0.56679
3758.000	-0.90934	0.76579	-1.50415	0.56876
3759.000	-0.91132	0.72005	-1.49823	0.53297
3760.000	-0.91330	0.71607	-1.46859	0.61252
3761.000	-0.90737	0.75983	-1.42315	0.60657
3762.000	-0.87377	0.76580	-1.45674	0.58667
3763.000	-0.88365	0.74193	-1.45476	0.60059
3764.000	-0.92120	0.73596	-1.45279	0.52503
3765.000	-0.89156	0.69618	-1.43896	0.53100
3766.000	-0.89749	0.72602	-1.52786	0.56478
3767.000	-0.89551	0.79165	-1.40734	0.55089
3768.000	-0.94295	0.70413	-1.41722	0.54890
3769.000	-0.89946	0.73596	-1.43896	0.65827
3770.000	-0.86981	0.74989	-1.46069	0.55486
3771.000	-0.88563	0.76977	-1.43500	0.56083
3772.000	-0.88167	0.72403	-1.43896	0.51907
3773.000	-0.92911	0.67231	-1.50415	0.59859
3774.000	-0.91923	0.73397	-1.48637	0.57076
3775.000	-0.93306	0.70413	-1.42908	0.59464
3776.000	-0.91132	0.70215	-1.47847	0.50712
3777.000	-0.91923	0.74789	-1.55552	0.67215
3778.000	-0.90342	0.67828	-1.50218	0.61052
3779.000	-0.94887	0.69816	-1.49625	0.50712
3780.000	-0.90144	0.71806	-1.51798	0.60058
3781.000	-0.92713	0.73595	-1.51403	0.61450
3782.000	-0.91725	0.71607	-1.52589	0.59660
3783.000	-0.96864	0.72401	-1.57330	0.62641
3784.000	-0.91132	0.70215	-1.45476	0.60059
3785.000	-0.94295	0.71010	-1.51206	0.62842
3786.000	-0.90342	0.70613	-1.49823	0.61450
3787.000	-0.92318	0.70016	-1.53181	0.62642
3788.000	-0.92120	0.71408	-1.48835	0.57871
3789.000	-0.92318	0.71010	-1.49032	0.58269
3790.000	-0.88365	0.70812	-1.48440	0.51110
3791.000	-0.90737	0.72403	-1.54367	0.53495
3792.000	-0.87377	0.67630	-1.59700	0.53096
3793.000	-0.91527	0.69021	-1.49032	0.53695
3794.000	-0.89156	0.70812	-1.58713	0.50312
3795.000	-0.89946	0.66237	-1.51996	0.62245
3796.000	-0.90737	0.71209	-1.47254	0.54889
3797.000	-0.90539	0.68027	-1.58515	0.50909
3798.000	-0.89946	0.71011	-1.49625	0.58467
3799.000	-0.95876	0.67032	-1.47057	0.56678
3800.000	-0.90144	0.73198	-1.49823	0.54888
3801.000	-0.92516	0.71209	-1.49032	0.46934
3802.000	-0.91330	0.68226	-1.46859	0.55088
3803.000	-0.95480	0.68623	-1.41129	0.54890
3804.000	-0.90144	0.71209	-1.49428	0.54292
3805.000	-0.93109	0.73198	-1.47057	0.55684
3806.000	-0.91923	0.70215	-1.46266	0.51508
3807.000	-0.90539	0.73198	-1.49428	0.58666
3808.000	-0.91132	0.70612	-1.51996	0.55683
3809.000	-0.96271	0.68424	-1.49823	0.51507
3810.000	-0.94887	0.68424	-1.65034	0.53691
3811.000	-0.94492	0.72004	-1.54762	0.50711
3812.000	-0.96469	0.71606	-1.54762	0.49120
3813.000	-0.96666	0.69617	-1.51798	0.47927
3814.000	-0.93109	0.67231	-1.45081	0.50116
3815.000	-0.97062	0.70214	-1.54367	0.50313
3816.000	-0.90737	0.70613	-1.48637	0.51905
3817.000	-0.95283	0.66435	-1.54959	0.46137
3818.000	-0.96864	0.69617	-1.42908	0.51509
3819.000	-0.96271	0.65241	-1.51403	0.48126
3820.000	-0.96666	0.66037	-1.53971	0.49916
3821.000	-0.94295	0.71407	-1.44883	0.59264
3822.000	-0.90539	0.70215	-1.38561	0.49919
3823.000	-0.95678	0.72402	-1.43698	0.52304
3824.000	-0.95283	0.70811	-1.43500	0.48924
3825.000	-0.94690	0.71407	-1.46464	0.51508
3826.000	-0.96469	0.71407	-1.44883	0.43952
3827.000	-0.94295	0.69021	-1.42710	0.50316
3828.000	-0.91923	0.70016	-1.47649	0.49320
3829.000	-0.92318	0.72402	-1.43500	0.49321
3830.000	-0.94690	0.70214	-1.42117	0.43356
3831.000	-0.92318	0.70413	-1.47847	0.50315
3832.000	-0.97654	0.71208	-1.43698	0.59066
3833.000	-0.93899	0.69419	-1.44291	0.50912
3834.000	-0.99631	0.65838	-1.41920	0.42759
3835.000	-0.96666	0.70214	-1.43500	0.57872
3836.000	-0.95480	0.68822	-1.46069	0.55883
3837.000	-0.92911	0.69618	-1.50613	0.58467
3838.000	-0.97259	0.69020	-1.50415	0.47530
3839.000	-0.97457	0.72799	-1.48440	0.53695
3840.000	-0.97259	0.69020	-1.42710	0.49322
3841.000	-0.91132	0.75585	-1.44488	0.58867
3842.000	-0.93899	0.72999	-1.41129	0.47532
3843.000	-0.95480	0.73595	-1.45674	0.45344
3844.000	-0.93109	0.70214	-1.43303	0.48526
3845.000	-0.94887	0.70811	-1.51403	0.51706
3846.000	-0.93306	0.72601	-1.46662	0.52701
3847.000	-0.96073	0.74390	-1.42513	0.46339
3848.000	-0.94295	0.71606	-1.47847	0.42559
3849.000	-0.89749	0.69618	-1.49230	0.52701
3850.000	-0.96271	0.72004	-1.47452	0.47332
3851.000	-0.92516	0.70612	-1.47254	0.48127
3852.000	-0.95480	0.71009	-1.47649	0.54690
3853.000	-0.92713	0.67828	-1.46859	0.53099
3854.000	-0.95876	0.70612	-1.45081	0.58469
3855.000	-0.95085	0.68225	-1.46859	0.50315
3856.000	-0.87772	0.72204	-1.48835	0.58865
3857.000	-0.93306	0.69419	-1.46266	0.48525
3858.000	-0.89551	0.64447	-1.45476	0.54292
3859.000	-0.93109	0.65441	-1.44883	0.48128
3860.000	-0.91527	0.69021	-1.43698	0.50514
3861.000	-0.92911	0.70214	-1.46859	0.59661
3862.000	-0.89749	0.69618	-1.47254	0.61053
3863.000	-0.92713	0.70413	-1.40734	0.52703
3864.000	-0.87574	0.67033	-1.42513	0.53299
3865.000	-0.88958	0.70016	-1.43105	0.54492
3866.000	-0.90737	0.72800	-1.46859	0.56877
3867.000	-0.86981	0.68227	-1.51996	0.54689
3868.000	-0.88167	0.75983	-1.46859	0.51309
3869.000	-0.93306	0.69220	-1.49428	0.57871
3870.000	-0.86981	0.69221	-1.52786	0.54092
3871.000	-0.90144	0.68226	-1.47254	0.53894
3872.000	-0.86784	0.71210	-1.51206	0.51308
3873.000	-0.87377	0.70017	-1.45279	0.58667
3874.000	-0.87772	0.66238	-1.45476	0.54094
3875.000	-0.88958	0.72602	-1.46662	0.55684
3876.000	-0.87179	0.69420	-1.35399	0.47135
3877.000	-0.89551	0.67431	-1.43698	0.54691
3878.000	-0.88365	0.71011	-1.48835	0.57672
3879.000	-0.88365	0.68823	-1.40537	0.58470
3880.000	-0.91132	0.66635	-1.38363	0.51311
3881.000	-0.86586	0.73199	-1.49428	0.55485
3882.000	-0.85400	0.67232	-1.44291	0.61054
3883.000	-0.89749	0.68823	-1.47254	0.59661
3884.000	-0.87574	0.68226	-1.41722	0.56879
3885.000	-0.89156	0.66635	-1.43303	0.61850
3886.000	-0.86388	0.67232	-1.46662	0.58667
3887.000	-0.87377	0.67033	-1.53774	0.53694
3888.000	-0.89353	0.67828	-1.44488	0.56480
3889.000	-0.89946	0.70414	-1.45871	0.53298
3890.000	-0.89749	0.64447	-1.42513	0.55685
3891.000	-0.88563	0.63254	-1.39944	0.46538
3892.000	-0.89749	0.64646	-1.40734	0.54492
3893.000	-0.86191	0.68426	-1.48835	0.60059
3894.000	-0.86784	0.68028	-1.49032	0.52900
3895.000	-0.83424	0.65642	-1.44883	0.55685
3896.000	-0.85993	0.67033	-1.39549	0.47532
3897.000	-0.85598	0.71608	-1.50020	0.52899
3898.000	-0.84017	0.69222	-1.46069	0.59065
3899.000	-0.90737	0.70016	-1.39944	0.56282
3900.000	-0.87772	0.69420	-1.42315	0.62049
3901.000	-0.83226	0.71012	-1.50218	0.56081
3902.000	-0.86388	0.63851	-1.41722	0.51907
3903.000	-0.85400	0.71210	-1.39944	0.59862
3904.000	-0.82435	0.65443	-1.44291	0.53100
3905.000	-0.86191	0.65044	-1.39549	0.56879
3906.000	-0.86784	0.68028	-1.42513	0.56680
3907.000	-0.83621	0.65045	-1.49428	0.62842
3908.000	-0.80854	0.65045	-1.44883	0.56679
3909.000	-0.84017	0.67034	-1.42117	0.59464
3910.000	-0.83028	0.66636	-1.46266	0.65428
3911.000	-0.84807	0.64846	-1.41722	0.57276
3912.000	-0.83028	0.69818	-1.49625	0.67615
3913.000	-0.86388	0.67829	-1.39746	0.54294
3914.000	-0.86388	0.67829	-1.43896	0.57475
3915.000	-0.87970	0.65243	-1.42513	0.56878
3916.000	-0.86586	0.67033	-1.44291	0.63838
3917.000	-0.85598	0.62459	-1.41129	0.51708
3918.000	-0.85203	0.69221	-1.43698	0.62645
3919.000	-0.88167	0.65442	-1.44093	0.61054
3920.000	-0.81249	0.70415	-1.48045	0.61451
3921.000	-0.91330	0.72204	-1.46859	0.50514
3922.000	-0.87970	0.69221	-1.41327	0.58470
3923.000	-0.86981	0.67232	-1.49230	0.54888
3924.000	-0.86191	0.69221	-1.36783	0.56084
3925.000	-0.87179	0.66437	-1.43105	0.51509
3926.000	-0.86586	0.67431	-1.46069	0.56480
3927.000	-0.85796	0.67232	-1.43698	0.63043
3928.000	-0.87377	0.70414	-1.44488	0.51708
3929.000	-0.84610	0.66238	-1.44093	0.59861
3930.000	-0.89551	0.65641	-1.45081	0.52304
3931.000	-0.89551	0.69022	-1.48440	0.60456
3932.000	-0.84610	0.68625	-1.47452	0.51906
3933.000	-0.85400	0.68824	-1.45081	0.53099
3934.000	-0.85400	0.67630	-1.54367	0.56080
3935.000	-0.87970	0.68028	-1.47847	0.56281
3936.000	-0.83819	0.64647	-1.41920	0.56083
3937.000	-0.82633	0.64647	-1.43698	0.58668
3938.000	-0.85993	0.64448	-1.43303	0.54492
3939.000	-0.86586	0.67829	-1.48440	0.55883
3940.000	-0.85993	0.65840	-1.46859	0.54093
3941.000	-0.83819	0.68426	-1.40142	0.64038
3942.000	-0.85203	0.65840	-1.50020	0.60058
3943.000	-0.85005	0.69023	-1.44883	0.64434
3944.000	-0.84807	0.66238	-1.48835	0.53695
3945.000	-0.81052	0.63653	-1.46464	0.58667
3946.000	-0.82435	0.67034	-1.50218	0.61450
3947.000	-0.85993	0.69221	-1.45279	0.60855
3948.000	-0.87574	0.62856	-1.44686	0.60457
3949.000	-0.88365	0.62458	-1.52786	0.58069
3950.000	-0.83424	0.62459	-1.51008	0.54291
3951.000	-0.86191	0.61663	-1.43500	0.62446
3952.000	-0.85400	0.64448	-1.38561	0.55487
3953.000	-0.80656	0.67432	-1.42117	0.54890
3954.000	-0.82831	0.65642	-1.44093	0.56281
3955.000	-0.84214	0.59873	-1.44093	0.55287
3956.000	-0.83028	0.61067	-1.48637	0.59462
3957.000	-0.86191	0.61265	-1.49625	0.60456
3958.000	-0.85005	0.61663	-1.49625	0.58666
3959.000	-0.85993	0.59276	-1.46662	0.60457
3960.000	-0.86981	0.60867	-1.52589	0.63637
3961.000	-0.85598	0.56492	-1.49428	0.54292
3962.000	-0.85400	0.59674	-1.44291	0.59264
3963.000	-0.85005	0.58879	-1.44291	0.66224
3964.000	-0.86388	0.53508	-1.50020	0.58666
3965.000	-0.87179	0.60867	-1.42117	0.52305
3966.000	-0.86191	0.57884	-1.47057	0.59065
3967.000	-0.87772	0.60072	-1.49428	0.58269
3968.000	-0.85400	0.57685	-1.49032	0.62246
3969.000	-0.83226	0.59078	-1.49823	0.59859
3970.000	-0.81645	0.56492	-1.44883	0.67218
3971.000	-0.86784	0.58879	-1.44488	0.62048
3972.000	-0.82040	0.62062	-1.45081	0.58866
3973.000	-0.83819	0.59675	-1.38758	0.53896
3974.000	-0.80459	0.56294	-1.50218	0.61649
3975.000	-0.82633	0.61664	-1.48440	0.68808
3976.000	-0.82831	0.63056	-1.53379	0.63438
3977.000	-0.77691	0.64449	-1.54564	0.65426
3978.000	-0.79075	0.64250	-1.43500	0.64634
3979.000	-0.84017	0.56492	-1.41525	0.60458
3980.000	-0.80854	0.60272	-1.42315	0.63043
3981.000	-0.82435	0.57487	-1.43896	0.66821
3982.000	-0.81052	0.55896	-1.44093	0.63440
3983.000	-0.79866	0.56890	-1.51008	0.58467
3984.000	-0.81249	0.58283	-1.44488	0.60457
3985.000	-0.78284	0.61068	-1.44686	0.65429
3986.000	-0.77889	0.59675	-1.48835	0.65825
3987.000	-0.80656	0.57288	-1.49230	0.58865
3988.000	-0.75715	0.55897	-1.46069	0.62644
3989.000	-0.76901	0.59874	-1.47057	0.55485
3990.000	-0.79470	0.62659	-1.52193	0.63637
3991.000	-0.81249	0.59078	-1.50415	0.61450
3992.000	-0.79470	0.57487	-1.46266	0.59065
3993.000	-0.83226	0.58481	-1.47649	0.59462
3994.000	-0.79075	0.60471	-1.45476	0.62048
3995.000	-0.81052	0.57885	-1.50020	0.63836
3996.000	-0.82831	0.61664	-1.46069	0.63241
3997.000	-0.81842	0.57686	-1.48045	0.63638
3998.000	-0.82040	0.58879	-1.47057	0.54292
3999.000	-0.77494	0.57090	-1.46266	0.64235
4000.000	-0.78482	0.58681	-1.56935	0.71589
4001.000	-0.78284	0.61466	-1.51008	0.65029
4002.000	-0.76110	0.59278	-1.46662	0.56082
4003.000	-0.80854	0.56691	-1.36585	0.60658
4004.000	-0.78680	0.56692	-1.51008	0.57075
4005.000	-0.79866	0.60073	-1.48637	0.59860
4006.000	-0.79075	0.54106	-1.50810	0.56081
4007.000	-0.76308	0.56493	-1.52984	0.63040
4008.000	-0.77494	0.58084	-1.49823	0.61450
4009.000	-0.79866	0.59078	-1.39944	0.60459
4010.000	-0.81842	0.57487	-1.43303	0.61651
4011.000	-0.78087	0.51918	-1.44093	0.56679
4012.000	-0.80656	0.52713	-1.47254	0.61451
4013.000	-0.78680	0.55101	-1.47452	0.68013
4014.000	-0.79075	0.55100	-1.44093	0.69008
4015.000	-0.81842	0.55299	-1.39549	0.57675
4016.000	-0.77098	0.58681	-1.51403	0.62444
4017.000	-0.79470	0.57686	-1.47057	0.66621
4018.000	-0.81249	0.58482	-1.48440	0.68808
4019.000	-0.80261	0.58482	-1.46464	0.67019
4020.000	-0.78877	0.56493	-1.41327	0.59265
4021.000	-0.78482	0.61863	-1.49230	0.61252
4022.000	-0.78284	0.60670	-1.50020	0.65825
4023.000	-0.73145	0.60472	-1.46069	0.69008
4024.000	-0.76505	0.63057	-1.50218	0.65029
4025.000	-0.82435	0.59476	-1.48835	0.63837
4026.000	-0.76110	0.57687	-1.48835	0.67814
4027.000	-0.77691	0.58482	-1.55552	0.67812
4028.000	-0.74133	0.58085	-1.48045	0.58468
4029.000	-0.76703	0.56294	-1.46069	0.62843
4030.000	-0.85203	0.59475	-1.44883	0.60656
4031.000	-0.78087	0.52316	-1.45081	0.62645
4032.000	-0.78680	0.56692	-1.47452	0.64633
4033.000	-0.77494	0.54703	-1.54762	0.67812
4034.000	-0.75517	0.54305	-1.52984	0.65824
4035.000	-0.80261	0.50923	-1.46069	0.63440
4036.000	-0.77296	0.56493	-1.52984	0.58864
4037.000	-0.77098	0.60869	-1.44883	0.60258
4038.000	-0.79075	0.52316	-1.54959	0.60455
4039.000	-0.73343	0.55300	-1.51206	0.64234
4040.000	-0.76505	0.58880	-1.46662	0.63837
4041.000	-0.83819	0.53111	-1.46266	0.68212
4042.000	-0.79668	0.55100	-1.45476	0.65031
4043.000	-0.77494	0.57885	-1.43698	0.53895
4044.000	-0.78680	0.56891	-1.46859	0.59065
4045.000	-0.75122	0.59079	-1.48242	0.63240
4046.000	-0.76703	0.59278	-1.48242	0.61252
4047.000	-0.75715	0.56095	-1.50613	0.62245
4048.000	-0.73936	0.53908	-1.47847	0.56281
4049.000	-0.75715	0.55300	-1.46662	0.58667
4050.000	-0.70971	0.58682	-1.52589	0.52700
4051.000	-0.76901	0.55101	-1.47452	0.58070
4052.000	-0.77494	0.53907	-1.49823	0.63240
4053.000	-0.74924	0.52515	-1.48242	0.61451
4054.000	-0.79075	0.54106	-1.47254	0.60854
4055.000	-0.74529	0.60869	-1.43105	0.57873
4056.000	-0.74133	0.57488	-1.54959	0.54091
4057.000	-0.76110	0.59278	-1.50613	0.65029
4058.000	-0.78284	0.57885	-1.51996	0.56876
4059.000	-0.76308	0.59079	-1.50218	0.59462
4060.000	-0.71959	0.58682	-1.47847	0.55286
4061.000	-0.74133	0.57090	-1.46069	0.60855
4062.000	-0.76703	0.56493	-1.54564	0.60653
4063.000	-0.76901	0.54106	-1.45476	0.61253
4064.000	-0.76505	0.53708	-1.47649	0.65627
4065.000	-0.78482	0.54305	-1.53181	0.65029
4066.000	-0.75517	0.54305	-1.45871	0.62446
4067.000	-0.76110	0.59676	-1.52589	0.68011
4068.000	-0.77691	0.55101	-1.47057	0.63638
4069.000	-0.75122	0.56096	-1.49428	0.71592
4070.000	-0.71366	0.55897	-1.55552	0.64431
4071.000	-0.74331	0.57687	-1.51008	0.69404
4072.000	-0.73936	0.61466	-1.51403	0.66023
4073.000	-0.72157	0.58085	-1.43896	0.68611
4074.000	-0.80656	0.58084	-1.54169	0.71391
4075.000	-0.75912	0.58283	-1.45279	0.66622
4076.000	-0.77691	0.61068	-1.43500	0.70003
4077.000	-0.73738	0.54703	-1.44488	0.75769
4078.000	-0.80854	0.56095	-1.52193	0.67415
4079.000	-0.74726	0.57687	-1.49625	0.65030
4080.000	-0.74924	0.58880	-1.49032	0.70200
4081.000	-0.75517	0.57488	-1.47254	0.62048
4082.000	-0.78284	0.57090	-1.46069	0.65031
4083.000	-0.80261	0.58084	-1.51996	0.70398
4084.000	-0.78482	0.56692	-1.43896	0.69008
4085.000	-0.74726	0.58880	-1.47452	0.65428
4086.000	-0.73343	0.59079	-1.43303	0.67020
4087.000	-0.78087	0.56493	-1.47057	0.64036
4088.000	-0.74331	0.57289	-1.43105	0.67020
4089.000	-0.78087	0.59079	-1.48835	0.68211
4090.000	-0.80459	0.59476	-1.47057	0.64832
4091.000	-0.78482	0.59675	-1.43698	0.64634
4092.000	-0.75715	0.60074	-1.43303	0.64435
4093.000	-0.83621	0.58282	-1.47649	0.70001
4094.000	-0.78087	0.57686	-1.42513	0.65032
4095.000	-0.80261	0.56294	-1.48835	0.66223
4096.000	-0.78087	0.61068	-1.41525	0.65629
4097.000	-0.76110	0.57687	-1.51403	0.64234
4098.000	-0.78087	0.56891	-1.47452	0.67019
4099.000	-0.77098	0.61068	-1.44093	0.63639
4100.000	-0.73936	0.59477	-1.55354	0.68607
4101.000	-0.72552	0.60273	-1.44093	0.65429
4102.000	-0.82238	0.55697	-1.47254	0.60457
4103.000	-0.75715	0.56692	-1.42710	0.61253
4104.000	-0.74726	0.58482	-1.51008	0.64035
4105.000	-0.69785	0.57687	-1.47649	0.64831
4106.000	-0.72947	0.56494	-1.44883	0.64434
4107.000	-0.69587	0.57687	-1.39351	0.69407
4108.000	-0.72552	0.62461	-1.49625	0.71194
4109.000	-0.73343	0.57090	-1.48440	0.63439
4110.000	-0.73145	0.58085	-1.44093	0.72190
4111.000	-0.72750	0.58284	-1.46859	0.69604
4112.000	-0.74726	0.56294	-1.42513	0.69009
4113.000	-0.72750	0.56295	-1.46069	0.64832
4114.000	-0.76110	0.57090	-1.43500	0.72190
4115.000	-0.69785	0.59279	-1.47057	0.61252
4116.000	-0.75912	0.53709	-1.41722	0.65628
4117.000	-0.71168	0.60074	-1.48637	0.74177
4118.000	-0.75715	0.59676	-1.37178	0.65232
4119.000	-0.74133	0.59079	-1.40734	0.69208
4120.000	-0.77494	0.62261	-1.45279	0.66224
4121.000	-0.71564	0.59477	-1.42710	0.66424
4122.000	-0.76901	0.58681	-1.54762	0.73181
4123.000	-0.73540	0.59278	-1.50218	0.65029
4124.000	-0.74924	0.57289	-1.49428	0.63439
4125.000	-0.72157	0.58881	-1.48835	0.66819
4126.000	-0.78087	0.61466	-1.49230	0.68808
4127.000	-0.74924	0.59676	-1.40932	0.65032
4128.000	-0.74726	0.59079	-1.45871	0.68610
4129.000	-0.76110	0.58283	-1.52589	0.74374
4130.000	-0.73738	0.59676	-1.46464	0.66820
4131.000	-0.73540	0.63853	-1.47649	0.75171
4132.000	-0.70773	0.58682	-1.45279	0.69604
4133.000	-0.72750	0.56295	-1.46662	0.67814
4134.000	-0.70575	0.56494	-1.41722	0.70202
4135.000	-0.73343	0.56096	-1.48835	0.69405
4136.000	-0.71168	0.54704	-1.41920	0.69606
4137.000	-0.74133	0.63256	-1.42908	0.68611
4138.000	-0.73343	0.58483	-1.45476	0.66821
4139.000	-0.75715	0.57687	-1.50020	0.73978
4140.000	-0.75912	0.50526	-1.39746	0.70600
4141.000	-0.76110	0.57886	-1.37573	0.68016
4142.000	-0.76308	0.58880	-1.51798	0.75369
4143.000	-0.79273	0.54902	-1.47452	0.67814
4144.000	-0.75319	0.54703	-1.50218	0.70199
4145.000	-0.78284	0.55896	-1.45279	0.72388
4146.000	-0.74924	0.52515	-1.44488	0.61651
4147.000	-0.73936	0.54902	-1.46464	0.64235
4148.000	-0.79075	0.52515	-1.46266	0.65229
4149.000	-0.74924	0.55300	-1.49230	0.63041
4150.000	-0.74726	0.56294	-1.37771	0.62448
4151.000	-0.75912	0.54902	-1.37771	0.62448
4152.000	-0.80063	0.54305	-1.46069	0.64633
4153.000	-0.78284	0.56692	-1.39746	0.66027
4154.000	-0.82831	0.56890	-1.36585	0.68016
4155.000	-0.78087	0.50526	-1.40734	0.64634
4156.000	-0.79075	0.51918	-1.46859	0.67814
4157.000	-0.77296	0.50725	-1.40142	0.65629
4158.000	-0.77494	0.54902	-1.46859	0.57275
4159.000	-0.79668	0.53111	-1.46662	0.65428
4160.000	-0.83424	0.55100	-1.38561	0.71595
4161.000	-0.79470	0.53907	-1.41920	0.68810
4162.000	-0.80261	0.54504	-1.44291	0.60457
4163.000	-0.78680	0.55498	-1.50218	0.72586
4164.000	-0.75122	0.56493	-1.37573	0.65828
4165.000	-0.76901	0.54902	-1.39351	0.66226
4166.000	-0.72354	0.59278	-1.46662	0.64633
4167.000	-0.82040	0.52116	-1.48242	0.73978
4168.000	-0.78680	0.56692	-1.45674	0.66820
4169.000	-0.81842	0.52315	-1.38956	0.72191
4170.000	-0.78877	0.56493	-1.41129	0.61254
4171.000	-0.79075	0.52316	-1.43896	0.62844
4172.000	-0.78482	0.55498	-1.47254	0.66223
4173.000	-0.76308	0.51123	-1.46069	0.62247
4174.000	-0.78482	0.48735	-1.38166	0.66226
4175.000	-0.77494	0.53310	-1.39746	0.66226
4176.000	-0.79668	0.49929	-1.42908	0.66821
4177.000	-0.80261	0.48934	-1.36980	0.64238
4178.000	-0.79470	0.50923	-1.51403	0.62643
4179.000	-0.76703	0.51520	-1.38561	0.63243
4180.000	-0.75319	0.55499	-1.45871	0.65031
4181.000	-0.78284	0.49531	-1.43896	0.66224
4182.000	-0.79075	0.56294	-1.39549	0.68413
4183.000	-0.79470	0.51520	-1.42315	0.64037
4184.000	-0.75715	0.52913	-1.40537	0.60061
4185.000	-0.78680	0.57090	-1.45279	0.59662
4186.000	-0.71761	0.55499	-1.31052	0.63643
4187.000	-0.77296	0.48736	-1.39746	0.57277
4188.000	-0.74924	0.51521	-1.43500	0.68810
4189.000	-0.74924	0.54106	-1.44686	0.59861
4190.000	-0.74529	0.56096	-1.37178	0.67022
4191.000	-0.80459	0.50525	-1.42117	0.64833
4192.000	-0.75517	0.55300	-1.42117	0.61850
4193.000	-0.77889	0.56692	-1.39944	0.61453
4194.000	-0.79866	0.55498	-1.43105	0.68014
4195.000	-0.79273	0.57487	-1.40142	0.57078
4196.000	-0.82040	0.54304	-1.38561	0.61851
4197.000	-0.75912	0.54703	-1.36980	0.66624
4198.000	-0.77691	0.52913	-1.39154	0.69010
4199.000	-0.84412	0.53111	-1.34412	0.67023
4200.000	-0.79075	0.52316	-1.35992	0.60261
4201.000	-0.78087	0.51719	-1.45871	0.59065
4202.000	-0.76703	0.54106	-1.39944	0.64038
4203.000	-0.77098	0.51321	-1.44686	0.59662
4204.000	-0.80063	0.55896	-1.35004	0.60460
4205.000	-0.84017	0.53310	-1.36980	0.58868
4206.000	-0.82238	0.51520	-1.45674	0.58270
4207.000	-0.75122	0.51720	-1.39351	0.63243
4208.000	-0.80854	0.50128	-1.34214	0.61454
4209.000	-0.79075	0.54703	-1.41129	0.61055
4210.000	-0.80656	0.53111	-1.42513	0.55486
4211.000	-0.83424	0.50326	-1.39746	0.67816
4212.000	-0.80459	0.48337	-1.43896	0.61850
4213.000	-0.78877	0.45951	-1.29274	0.58473
4214.000	-0.81052	0.49133	-1.41327	0.60856
4215.000	-0.78284	0.51520	-1.37771	0.59266
4216.000	-0.79866	0.48735	-1.37771	0.52703
4217.000	-0.80656	0.51918	-1.37968	0.59863
4218.000	-0.78482	0.53509	-1.32436	0.62051
4219.000	-0.78284	0.53907	-1.43698	0.59861
4220.000	-0.78482	0.55101	-1.37771	0.62448
4221.000	-0.73936	0.53709	-1.32831	0.62449
4222.000	-0.78284	0.48139	-1.33226	0.58472
4223.000	-0.80063	0.47144	-1.35399	0.60062
4224.000	-0.75122	0.51720	-1.40734	0.59265
4225.000	-0.79470	0.52714	-1.37375	0.63044
4226.000	-0.82435	0.51719	-1.43105	0.61253
4227.000	-0.78680	0.46547	-1.43500	0.55685
4228.000	-0.81645	0.47741	-1.34609	0.54892
4229.000	-0.80261	0.49531	-1.35202	0.63045
4230.000	-0.85993	0.48933	-1.33028	0.64040
4231.000	-0.84412	0.48536	-1.36980	0.59266
4232.000	-0.81645	0.47343	-1.30064	0.57677
4233.000	-0.84610	0.46945	-1.35004	0.66227
4234.000	-0.80459	0.47144	-1.39351	0.53896
4235.000	-0.77494	0.50128	-1.43303	0.62247
4236.000	-0.82435	0.51122	-1.38758	0.55686
4237.000	-0.80261	0.52316	-1.42710	0.65230
4238.000	-0.80459	0.54305	-1.38758	0.66226
4239.000	-0.79866	0.48735	-1.35992	0.64636
4240.000	-0.75319	0.49730	-1.45081	0.63440
4241.000	-0.79075	0.48934	-1.40537	0.64635
4242.000	-0.75122	0.51918	-1.48242	0.63439
4243.000	-0.76110	0.52117	-1.39944	0.61851
4244.000	-0.76901	0.48736	-1.39549	0.65430
4245.000	-0.79668	0.49531	-1.36585	0.67420
4246.000	-0.76703	0.53708	-1.35202	0.60062
4247.000	-0.74726	0.49333	-1.35004	0.61255
4248.000	-0.78877	0.49531	-1.31052	0.64836
4249.000	-0.74529	0.52515	-1.30855	0.59665
4250.000	-0.75517	0.57488	-1.41722	0.64236
4251.000	-0.72947	0.56096	-1.35992	0.62448
4252.000	-0.79273	0.52912	-1.40932	0.67816
4253.000	-0.77296	0.51918	-1.30460	0.59069
4254.000	-0.71761	0.53709	-1.35795	0.61852
4255.000	-0.77296	0.56692	-1.33621	0.60460
4256.000	-0.74726	0.51322	-1.39746	0.58470
4257.000	-0.77494	0.51918	-1.40537	0.62248
4258.000	-0.76505	0.43365	-1.35004	0.61653
4259.000	-0.75715	0.56692	-1.35202	0.57278
4260.000	-0.74924	0.50526	-1.32238	0.67023
4261.000	-0.74529	0.53908	-1.38956	0.64635
4262.000	-0.75319	0.51719	-1.34412	0.54096
4263.000	-0.73936	0.48537	-1.38956	0.54692
4264.000	-0.73540	0.54107	-1.36190	0.60261
4265.000	-0.77296	0.56095	-1.35597	0.62448
4266.000	-0.74331	0.53709	-1.34016	0.67221
4267.000	-0.73343	0.51322	-1.40932	0.65231
4268.000	-0.75715	0.52515	-1.36783	0.64636
4269.000	-0.77889	0.50128	-1.33226	0.60063
4270.000	-0.77296	0.50924	-1.32238	0.59665
4271.000	-0.74529	0.46747	-1.38561	0.58271
4272.000	-0.73738	0.48537	-1.32831	0.62051
4273.000	-0.79075	0.51122	-1.36190	0.63244
4274.000	-0.76110	0.46150	-1.36783	0.58272
4275.000	-0.71761	0.50924	-1.37573	0.58868
4276.000	-0.76308	0.49531	-1.40537	0.60061
4277.000	-0.70575	0.51521	-1.36387	0.63442
4278.000	-0.74331	0.54305	-1.30064	0.59467
4279.000	-0.71168	0.50328	-1.31645	0.65035
4280.000	-0.74726	0.51918	-1.30657	0.61256
4281.000	-0.70575	0.53311	-1.35202	0.62250
4282.000	-0.76308	0.50327	-1.44291	0.67219
4283.000	-0.78482	0.51719	-1.35795	0.64437
4284.000	-0.76901	0.50725	-1.29867	0.61455
4285.000	-0.74726	0.48139	-1.38561	0.59067
4286.000	-0.71761	0.51919	-1.36783	0.61255
4287.000	-0.75122	0.52117	-1.33819	0.70204
4288.000	-0.78284	0.51122	-1.42315	0.62645
4289.000	-0.76901	0.51918	-1.34412	0.68613
4290.000	-0.78877	0.52912	-1.41722	0.69009
4291.000	-0.76703	0.52515	-1.29274	0.64439
4292.000	-0.79866	0.48735	-1.36980	0.65431
4293.000	-0.77691	0.46746	-1.34807	0.58869
4294.000	-0.81645	0.47741	-1.35795	0.69011
4295.000	-0.79075	0.43365	-1.32633	0.64637
4296.000	-0.83028	0.48735	-1.27100	0.65434
4297.000	-0.77691	0.51719	-1.34807	0.61255
4298.000	-0.76901	0.50526	-1.33621	0.64835
4299.000	-0.79668	0.53708	-1.32238	0.63642
4300.000	-0.78877	0.48536	-1.34807	0.62449
4301.000	-0.76110	0.54703	-1.38561	0.67220
4302.000	-0.84017	0.55498	-1.33819	0.74778
4303.000	-0.75715	0.54305	-1.36585	0.65630
4304.000	-0.77889	0.53708	-1.42315	0.65032
4305.000	-0.78284	0.56493	-1.35597	0.69409
4306.000	-0.72750	0.57886	-1.36783	0.69408
4307.000	-0.74924	0.54703	-1.34016	0.66824
4308.000	-0.79866	0.58084	-1.34016	0.68216
4309.000	-0.78482	0.54305	-1.35795	0.71198
4310.000	-0.81052	0.56294	-1.35004	0.70204
4311.000	-0.76901	0.57885	-1.31052	0.66427
4312.000	-0.80063	0.56692	-1.36190	0.64835
4313.000	-0.75122	0.60074	-1.33424	0.69409
4314.000	-0.81052	0.59078	-1.28484	0.75973
4315.000	-0.81052	0.57686	-1.35597	0.74380
4316.000	-0.82435	0.59277	-1.32040	0.68216
4317.000	-0.81249	0.55498	-1.31052	0.68018
4318.000	-0.76901	0.57289	-1.33424	0.65830
4319.000	-0.79273	0.57885	-1.31645	0.60660
4320.000	-0.76703	0.53708	-1.30855	0.71995
4321.000	-0.80063	0.54106	-1.36190	0.77959
4322.000	-0.80656	0.50923	-1.35004	0.71795
4323.000	-0.75912	0.54305	-1.31843	0.69807
4324.000	-0.77691	0.53509	-1.31250	0.70802
4325.000	-0.78482	0.54106	-1.37375	0.71595
4326.000	-0.78284	0.51520	-1.27298	0.72394
4327.000	-0.77296	0.53509	-1.30657	0.68813
4328.000	-0.73145	0.56096	-1.33819	0.67818
4329.000	-0.77296	0.51123	-1.30262	0.70205
4330.000	-0.77889	0.57289	-1.24136	0.67025
4331.000	-0.74529	0.59278	-1.34412	0.67619
4332.000	-0.74726	0.53510	-1.35004	0.66227
4333.000	-0.76308	0.52515	-1.23939	0.67423
4334.000	-0.80459	0.56692	-1.28286	0.70007
4335.000	-0.76110	0.53112	-1.23741	0.67821
4336.000	-0.78680	0.52714	-1.32238	0.72790
4337.000	-0.79668	0.53310	-1.29669	0.72791
4338.000	-0.75912	0.53311	-1.26310	0.76968
4339.000	-0.77889	0.55498	-1.33621	0.71398
4340.000	-0.79075	0.54703	-1.33028	0.70404
4341.000	-0.76308	0.52913	-1.39154	0.64834
4342.000	-0.73936	0.52714	-1.29076	0.68018
4343.000	-0.78877	0.52117	-1.31052	0.67819
4344.000	-0.79668	0.54504	-1.33621	0.73585
4345.000	-0.78680	0.53310	-1.25322	0.71201
4346.000	-0.79470	0.51918	-1.28088	0.76967
4347.000	-0.80063	0.52117	-1.27891	0.67422
4348.000	-0.80854	0.53310	-1.21370	0.67026
4349.000	-0.77889	0.51122	-1.25124	0.67423
4350.000	-0.80854	0.50128	-1.25124	0.69411
4351.000	-0.74726	0.52913	-1.31843	0.71199
4352.000	-0.77494	0.52714	-1.23544	0.72196
4353.000	-0.83621	0.49133	-1.29867	0.64637
4354.000	-0.80459	0.50525	-1.29669	0.65035
4355.000	-0.80063	0.50724	-1.24334	0.61457
4356.000	-0.78087	0.51122	-1.27693	0.68019
4357.000	-0.78877	0.52912	-1.22753	0.61855
4358.000	-0.75912	0.55101	-1.25915	0.71201
4359.000	-0.74529	0.53311	-1.23939	0.69809
4360.000	-0.78087	0.53509	-1.26112	0.74383
4361.000	-0.76110	0.55300	-1.20975	0.67225
4362.000	-0.72750	0.58881	-1.30262	0.73387
4363.000	-0.72552	0.54703	-1.22951	0.61457
4364.000	-0.75319	0.59676	-1.23741	0.73787
4365.000	-0.75122	0.52515	-1.20975	0.60662
4366.000	-0.75517	0.54504	-1.26903	0.64041
4367.000	-0.74726	0.56096	-1.25915	0.67025
4368.000	-0.72354	0.56693	-1.19987	0.67026
4369.000	-0.71761	0.57289	-1.23741	0.71003
4370.000	-0.73540	0.52118	-1.22753	0.65236
4371.000	-0.72157	0.50725	-1.28484	0.62251
4372.000	-0.75319	0.55499	-1.27891	0.72195
4373.000	-0.72750	0.50327	-1.26705	0.62451
4374.000	-0.74331	0.50128	-1.26705	0.64439
4375.000	-0.73738	0.50725	-1.24927	0.66230
4376.000	-0.73540	0.47543	-1.22951	0.67622
4377.000	-0.71959	0.54107	-1.24136	0.67025
4378.000	-0.74529	0.53510	-1.23346	0.67622
4379.000	-0.70378	0.48140	-1.19196	0.61657
4380.000	-0.71168	0.49532	-1.21765	0.64242
4381.000	-0.74726	0.52515	-1.29076	0.68217
4382.000	-0.78680	0.48338	-1.24136	0.71599
4383.000	-0.74924	0.50128	-1.24532	0.67423
4384.000	-0.79075	0.48934	-1.29669	0.63245
4385.000	-0.73145	0.50128	-1.23741	0.70605
4386.000	-0.72750	0.48338	-1.32238	0.58671
4387.000	-0.73738	0.51720	-1.27891	0.67621
4388.000	-0.74331	0.45752	-1.20975	0.63645
4389.000	-0.74133	0.47344	-1.24532	0.62849
4390.000	-0.72750	0.46946	-1.27298	0.63843
4391.000	-0.73936	0.49731	-1.24729	0.66031
4392.000	-0.70575	0.55897	-1.28484	0.62848
4393.000	-0.77296	0.54902	-1.17813	0.64839
4394.000	-0.74924	0.53311	-1.19987	0.69015
4395.000	-0.72552	0.54107	-1.16232	0.63845
4396.000	-0.75319	0.54106	-1.25124	0.60661
4397.000	-0.77296	0.47741	-1.24532	0.69809
4398.000	-0.76110	0.52316	-1.13663	0.64045
4399.000	-0.78877	0.48735	-1.20777	0.62253
4400.000	-0.72354	0.53112	-1.26903	0.60860
4401.000	-0.78284	0.51719	-1.20579	0.59469
4402.000	-0.75912	0.50924	-1.25124	0.63644
4403.000	-0.70773	0.49134	-1.28484	0.62450
4404.000	-0.75912	0.48935	-1.21172	0.60861
4405.000	-0.73738	0.49929	-1.23939	0.70008
4406.000	-0.73540	0.48935	-1.29076	0.70802
4407.000	-0.73540	0.48736	-1.23346	0.60463
4408.000	-0.74331	0.52714	-1.22753	0.67821
4409.000	-0.77691	0.50128	-1.22951	0.65037
4410.000	-0.72552	0.50129	-1.22555	0.65832
4411.000	-0.70773	0.54704	-1.22951	0.68815
4412.000	-0.77296	0.51918	-1.32040	0.70205
4413.000	-0.71959	0.50924	-1.18603	0.71203
4414.000	-0.69982	0.48537	-1.27100	0.67223
4415.000	-0.77494	0.50128	-1.21370	0.64043
4416.000	-0.69982	0.48736	-1.19789	0.65634
4417.000	-0.72552	0.55698	-1.21963	0.68617
4418.000	-0.73936	0.51919	-1.23939	0.68616
4419.000	-0.71959	0.49532	-1.19196	0.73987
4420.000	-0.73145	0.48139	-1.20579	0.66827
4421.000	-0.70378	0.50924	-1.19789	0.71998
4422.000	-0.71959	0.51322	-1.23346	0.69810
4423.000	-0.73738	0.51919	-1.18998	0.68021
4424.000	-0.73936	0.46747	-1.25124	0.73588
4425.000	-0.69982	0.45554	-1.22951	0.70804
4426.000	-0.73936	0.50327	-1.18010	0.72794
4427.000	-0.74133	0.49134	-1.19789	0.72595
4428.000	-0.74331	0.47344	-1.19196	0.67822
4429.000	-0.73145	0.45951	-1.16825	0.61657
4430.000	-0.69982	0.50726	-1.24927	0.69213
4431.000	-0.71959	0.50327	-1.14256	0.64840
4432.000	-0.71761	0.53112	-1.15441	0.70010
4433.000	-0.70773	0.49134	-1.14848	0.65039
4434.000	-0.72750	0.49333	-1.14848	0.64840
4435.000	-0.70773	0.51123	-1.23346	0.70804
4436.000	-0.70575	0.52913	-1.25124	0.71201
4437.000	-0.72157	0.56494	-1.17022	0.71203
4438.000	-0.68796	0.52317	-1.14651	0.62056
4439.000	-0.71761	0.54306	-1.16034	0.70209
4440.000	-0.68401	0.51322	-1.15244	0.65834
4441.000	-0.70575	0.50527	-1.16429	0.66033
4442.000	-0.70773	0.54903	-1.18406	0.68220
4443.000	-0.70378	0.51919	-1.26903	0.72195
4444.000	-0.68006	0.55897	-1.20777	0.68020
4445.000	-0.70971	0.52715	-1.18010	0.70408
4446.000	-0.70378	0.51521	-1.13465	0.67028
4447.000	-0.72947	0.51919	-1.16429	0.67226
4448.000	-0.68796	0.52715	-1.11687	0.67625
4449.000	-0.69982	0.55698	-1.16034	0.72198
4450.000	-0.68599	0.53510	-1.17220	0.68618
4451.000	-0.75715	0.51918	-1.13465	0.70409
4452.000	-0.70180	0.52317	-1.18406	0.72794
4453.000	-0.66424	0.49731	-1.20777	0.67623
4454.000	-0.63855	0.52317	-1.24334	0.73588
4455.000	-0.71366	0.51720	-1.19591	0.67225
4456.000	-0.74331	0.54107	-1.12477	0.67625
4457.000	-0.68994	0.52516	-1.14058	0.70011
4458.000	-0.68994	0.51919	-1.08722	0.75581
4459.000	-0.71168	0.54704	-1.09117	0.64642
4460.000	-0.70575	0.54107	-1.17813	0.67226
4461.000	-0.68994	0.59478	-1.14848	0.75977
4462.000	-0.68203	0.55699	-1.15441	0.70209
4463.000	-0.71168	0.52516	-1.17813	0.68817
4464.000	-0.71959	0.56892	-1.18603	0.71601
4465.000	-0.73145	0.55300	-1.27693	0.73985
4466.000	-0.68994	0.58483	-1.22555	0.73986
4467.000	-0.73936	0.54902	-1.13465	0.70806
4468.000	-0.71366	0.59676	-1.12477	0.69216
4469.000	-0.69982	0.56693	-1.16034	0.73789
4470.000	-0.71366	0.53311	-1.06746	0.70013
4471.000	-0.73343	0.54306	-1.15244	0.70607
4472.000	-0.71761	0.53709	-1.19591	0.76970
4473.000	-0.71959	0.57488	-1.15046	0.71800
4474.000	-0.69587	0.55698	-1.21567	0.82736
4475.000	-0.68994	0.59279	-1.16627	0.74385
4476.000	-0.69982	0.54505	-1.11291	0.73392
4477.000	-0.73145	0.55499	-1.21963	0.74185
4478.000	-0.69587	0.56295	-1.15244	0.71403
4479.000	-0.72750	0.54107	-1.21765	0.71401
4480.000	-0.71564	0.53908	-1.22358	0.75179
4481.000	-0.70971	0.57488	-1.16034	0.71402
4482.000	-0.69192	0.56494	-1.19789	0.70805
4483.000	-0.71168	0.55101	-1.15046	0.73590
4484.000	-0.71366	0.55300	-1.21963	0.71202
4485.000	-0.74529	0.53709	-1.09908	0.69614
4486.000	-0.67413	0.52914	-1.17418	0.71999
4487.000	-0.72354	0.58284	-1.08327	0.74189
4488.000	-0.71959	0.60074	-1.14848	0.65436
4489.000	-0.73936	0.56493	-1.13860	0.72000
4490.000	-0.72157	0.57687	-1.22160	0.68020
4491.000	-0.71168	0.57687	-1.18208	0.66828
4492.000	-0.73145	0.55300	-1.11884	0.77767
4493.000	-0.74331	0.53311	-1.13268	0.66829
4494.000	-0.74133	0.60074	-1.11094	0.67824
4495.000	-0.71761	0.53510	-1.08722	0.67824
4496.000	-0.72750	0.51720	-1.09315	0.68222
4497.000	-0.72354	0.55897	-1.09908	0.79359
4498.000	-0.70378	0.53112	-1.12675	0.64045
4499.000	-0.71959	0.56892	-1.15244	0.69812
4500.000	-0.73738	0.53709	-1.11489	0.69614
4501.000	-0.76505	0.52913	-1.05955	0.74786
4502.000	-0.73936	0.48736	-1.09908	0.70211
4503.000	-0.73343	0.54107	-1.04374	0.63649
4504.000	-0.74726	0.50924	-1.08327	0.66035
4505.000	-0.75319	0.48338	-1.08722	0.67427
4506.000	-0.72750	0.50128	-1.15441	0.68817
4507.000	-0.73540	0.45156	-1.11489	0.63250
4508.000	-0.73738	0.47741	-1.18801	0.65436
4509.000	-0.73936	0.50327	-1.04967	0.62455
4510.000	-0.72750	0.50725	-1.08129	0.67029
4511.000	-0.71761	0.45951	-1.14651	0.65039
4512.000	-0.70575	0.49134	-1.11884	0.61658
4513.000	-0.69192	0.49532	-1.10698	0.64244
4514.000	-0.65831	0.50328	-1.07141	0.62256
4515.000	-0.69192	0.49333	-1.05165	0.60864
4516.000	-0.71366	0.48140	-1.12675	0.69415
4517.000	-0.70575	0.44957	-1.10501	0.58675
4518.000	-0.69982	0.52516	-1.06351	0.61461
4519.000	-0.70378	0.48935	-1.08722	0.66631
4520.000	-0.69785	0.50129	-1.04177	0.67825
4521.000	-0.66820	0.51323	-1.03781	0.72201
4522.000	-0.67215	0.52914	-1.11489	0.66233
4523.000	-0.67413	0.50129	-1.06548	0.69217
4524.000	-0.71366	0.52317	-1.06548	0.70211
4525.000	-0.71761	0.53510	-1.08722	0.67824
4526.000	-0.71564	0.52118	-1.15639	0.71601
4527.000	-0.69389	0.53311	-1.08722	0.72399
4528.000	-0.69192	0.49532	-1.09315	0.70609
4529.000	-0.70575	0.48935	-1.06746	0.75581
4530.000	-0.69192	0.50925	-1.14848	0.70806
4531.000	-0.69192	0.49333	-1.08524	0.75382
4532.000	-0.68796	0.49731	-1.13268	0.76972
4533.000	-0.64645	0.53113	-1.09513	0.65637
4534.000	-0.66820	0.51919	-1.12082	0.74188
4535.000	-0.65634	0.52715	-1.13268	0.72994
4536.000	-0.67017	0.53113	-1.13663	0.75380
4537.000	-0.69192	0.54107	-1.11094	0.75381
4538.000	-0.66029	0.55102	-1.05758	0.74388
4539.000	-0.68401	0.55500	-1.05955	0.72399
4540.000	-0.65041	0.55699	-1.17615	0.72198
4541.000	-0.73343	0.55300	-1.08129	0.68819
4542.000	-0.69587	0.54704	-1.11094	0.70807
4543.000	-0.70378	0.51919	-1.11489	0.64642
4544.000	-0.69785	0.55897	-1.06153	0.65637
