time (ms)	lx (deg)	ly (deg)	rx (deg)	ry (deg)
0.000	-0.23329	0.53315	-0.39737	1.14176
1.000	-0.23329	0.56498	-0.41516	1.13778
2.000	-0.19375	0.60476	-0.44284	1.16760
3.000	-0.26492	0.62863	-0.47645	1.33264
4.000	-0.23724	0.62863	-0.46656	1.32071
5.000	-0.21945	0.72013	-0.46459	1.36047
6.000	-0.24317	0.71019	-0.49424	1.41017
7.000	-0.22735	0.71615	-0.48831	1.44397
8.000	-0.20758	0.77185	-0.46459	1.48175
9.000	-0.23329	0.77980	-0.57331	1.49763
10.000	-0.23131	0.82953	-0.45865	1.56326
11.000	-0.18188	0.76986	-0.59506	1.51750
12.000	-0.19375	0.82357	-0.62471	1.55328
13.000	-0.18188	0.86931	-0.55552	1.60896
14.000	-0.19177	0.84346	-0.57924	1.55727
15.000	-0.20561	0.87130	-0.57529	1.59504
16.000	-0.22340	0.89119	-0.57331	1.57715
17.000	-0.24515	0.87130	-0.59308	1.59702
18.000	-0.24910	0.86334	-0.57133	1.56721
19.000	-0.23724	0.89914	-0.59506	1.57316
20.000	-0.24317	0.90511	-0.60692	1.47178
21.000	-0.27282	0.85141	-0.57924	1.52347
22.000	-0.25701	0.86732	-0.53378	1.48174
23.000	-0.22538	0.89716	-0.56936	1.49167
24.000	-0.27678	0.90511	-0.54761	1.56721
25.000	-0.26096	0.90113	-0.51598	1.53542
26.000	-0.29655	0.85936	-0.53971	1.53143
27.000	-0.28469	0.89914	-0.61878	1.58906
28.000	-0.28864	0.89317	-0.49028	1.53145
29.000	-0.30248	0.86533	-0.62668	1.55129
30.000	-0.25108	0.88323	-0.50808	1.59307
31.000	-0.23329	0.90312	-0.45865	1.48573
32.000	-0.29852	0.88323	-0.46854	1.51753
33.000	-0.27085	0.86533	-0.54366	1.54137
34.000	-0.27282	0.85340	-0.56738	1.55131
35.000	-0.22933	0.84345	-0.48633	1.45988
36.000	-0.23724	0.81163	-0.55947	1.50360
37.000	-0.28073	0.79571	-0.60889	1.45985
38.000	-0.24515	0.84544	-0.53180	1.43601
39.000	-0.26096	0.81759	-0.52389	1.51951
40.000	-0.22735	0.85340	-0.53773	1.48969
41.000	-0.20363	0.80169	-0.55157	1.42805
42.000	-0.26492	0.79373	-0.44679	1.48971
43.000	-0.26689	0.78577	-0.47842	1.46982
44.000	-0.25108	0.78179	-0.51401	1.46782
45.000	-0.20363	0.78776	-0.48238	1.45193
46.000	-0.21549	0.83749	-0.51598	1.45192
47.000	-0.24119	0.83152	-0.50412	1.50957
48.000	-0.19177	0.83550	-0.49028	1.41415
49.000	-0.19572	0.85340	-0.47447	1.49169
50.000	-0.22340	0.81163	-0.55157	1.51950
51.000	-0.22142	0.78179	-0.50215	1.47180
52.000	-0.19177	0.81760	-0.54761	1.49962
53.000	-0.23131	0.76389	-0.47645	1.41217
54.000	-0.22340	0.77981	-0.55552	1.45191
55.000	-0.19968	0.85340	-0.51796	1.46981
56.000	-0.18386	0.80765	-0.61087	1.50955
57.000	-0.17991	0.83749	-0.51005	1.45192
58.000	-0.21747	0.81959	-0.58320	1.45389
59.000	-0.20561	0.78180	-0.51598	1.44397
60.000	-0.23922	0.78378	-0.58715	1.37436
61.000	-0.22340	0.83152	-0.58122	1.40220
62.000	-0.18781	0.77981	-0.66622	1.38428
63.000	-0.19572	0.84743	-0.58320	1.35647
64.000	-0.21154	0.78975	-0.56936	1.46980
65.000	-0.18386	0.84147	-0.54761	1.37835
66.000	-0.20363	0.77981	-0.59308	1.34056
67.000	-0.20956	0.78378	-0.53378	1.40221
68.000	-0.23131	0.84544	-0.60889	1.40021
69.000	-0.19572	0.82555	-0.56936	1.41016
70.000	-0.19375	0.82158	-0.61285	1.42605
71.000	-0.21352	0.76190	-0.61878	1.41412
72.000	-0.15223	0.80368	-0.58715	1.38431
73.000	-0.21352	0.80566	-0.59506	1.38828
74.000	-0.18386	0.77981	-0.66424	1.40417
75.000	-0.23922	0.77185	-0.63657	1.35248
76.000	-0.23526	0.78179	-0.64843	1.39423
77.000	-0.20561	0.76389	-0.58122	1.46781
78.000	-0.25503	0.77583	-0.63657	1.43996
79.000	-0.25899	0.76986	-0.65238	1.36640
80.000	-0.20956	0.80169	-0.56540	1.46582
81.000	-0.21549	0.80367	-0.60296	1.46383
82.000	-0.20363	0.81163	-0.63064	1.47376
83.000	-0.20956	0.78975	-0.62866	1.44990
84.000	-0.19572	0.77384	-0.56738	1.41612
85.000	-0.18781	0.79373	-0.58320	1.41413
86.000	-0.18781	0.82158	-0.64250	1.47177
87.000	-0.21352	0.78577	-0.62273	1.43201
88.000	-0.17595	0.80964	-0.62471	1.42803
89.000	-0.17793	0.80169	-0.64448	1.45586
90.000	-0.19177	0.79373	-0.54168	1.43601
91.000	-0.19375	0.80566	-0.57331	1.39027
92.000	-0.20561	0.78776	-0.60889	1.39623
93.000	-0.20363	0.79572	-0.51401	1.40818
94.000	-0.17200	0.77782	-0.57727	1.43202
95.000	-0.15618	0.77981	-0.57529	1.40220
96.000	-0.17991	0.81163	-0.67413	1.39820
97.000	-0.19572	0.81959	-0.56145	1.41016
98.000	-0.12455	0.78777	-0.58913	1.43401
99.000	-0.15421	0.79373	-0.57727	1.48968
100.000	-0.17793	0.80765	-0.61878	1.37833
101.000	-0.18386	0.78776	-0.55947	1.42805
102.000	-0.21549	0.80964	-0.55157	1.48770
103.000	-0.16804	0.80765	-0.56738	1.43004
104.000	-0.19770	0.81163	-0.56343	1.45191
105.000	-0.17002	0.79572	-0.62668	1.43797
106.000	-0.20165	0.78975	-0.57331	1.45986
107.000	-0.17200	0.73008	-0.50215	1.46385
108.000	-0.15025	0.76390	-0.53378	1.44595
109.000	-0.15421	0.72610	-0.44679	1.35849
110.000	-0.10874	0.72213	-0.57331	1.43799
111.000	-0.07315	0.61471	-0.44284	1.28691
112.000	-0.02768	0.52520	-0.39342	1.21931
113.000	0.00000	0.38396	-0.30643	1.12785
114.000	0.11664	0.24669	-0.24317	0.95682
115.000	0.19572	0.14523	-0.13048	0.72610
116.000	0.26492	-0.00398	-0.09094	0.64853
117.000	0.38156	-0.10146	0.05140	0.50928
118.000	0.47052	-0.25066	0.16607	0.32427
119.000	0.52982	-0.34216	0.29655	0.20690
120.000	0.61087	-0.50528	0.28469	0.00199
121.000	0.58122	-0.59479	0.35586	-0.10743
122.000	0.63064	-0.67435	0.42307	-0.15517
123.000	0.63262	-0.71811	0.36772	-0.25663
124.000	0.61285	-0.74396	0.38353	-0.22480
125.000	0.55552	-0.78773	0.24317	-0.28051
126.000	0.51994	-0.77182	0.26492	-0.22679
127.000	0.46854	-0.74995	0.12850	-0.18303
128.000	0.43691	-0.63260	0.15618	-0.19695
129.000	0.34993	-0.63857	-0.04943	-0.07958
130.000	0.28271	-0.52718	-0.02175	-0.02387
131.000	0.24515	-0.41379	-0.13641	0.08555
132.000	0.25701	-0.40186	-0.17398	0.13926
133.000	0.16409	-0.30637	-0.27480	0.23276
134.000	0.16409	-0.20491	-0.28666	0.33820
135.000	0.14827	-0.21287	-0.35388	0.38992
136.000	0.14827	-0.18303	-0.26689	0.46352
137.000	0.15816	-0.15518	-0.27876	0.43368
138.000	0.18386	-0.08952	-0.26294	0.43965
139.000	0.20363	-0.13528	-0.28666	0.48143
140.000	0.20165	-0.10146	-0.27876	0.48541
141.000	0.21945	-0.07958	-0.12060	0.47745
142.000	0.25701	-0.09748	-0.21352	0.53315
143.000	0.24119	-0.15120	-0.13048	0.45756
144.000	0.23131	-0.15716	-0.12455	0.43966
145.000	0.24910	-0.17905	-0.02966	0.42971
146.000	0.27876	-0.16711	-0.12653	0.39589
147.000	0.30446	-0.19695	-0.10083	0.38395
148.000	0.28073	-0.22281	-0.03756	0.31433
149.000	0.33806	-0.26260	-0.06326	0.35412
150.000	0.25701	-0.26260	0.02175	0.31632
151.000	0.30446	-0.27454	-0.05536	0.28449
152.000	0.27876	-0.26658	0.01186	0.30239
153.000	0.26887	-0.25663	0.00593	0.32229
154.000	0.24317	-0.30040	0.05733	0.26857
155.000	0.31039	-0.30836	-0.01384	0.24669
156.000	0.27085	-0.28846	0.04745	0.23674
157.000	0.26887	-0.32029	0.00198	0.25465
158.000	0.27876	-0.36008	0.06129	0.25465
159.000	0.30841	-0.35013	-0.01977	0.23077
160.000	0.33609	-0.35212	-0.09292	0.20491
161.000	0.32027	-0.37599	-0.02966	0.18104
162.000	0.30446	-0.37798	-0.00198	0.22878
163.000	0.32422	-0.28647	-0.01977	0.23077
164.000	0.33411	-0.36803	-0.03954	0.19099
165.000	0.29259	-0.39987	-0.01977	0.20093
166.000	0.33213	-0.37400	-0.02966	0.25067
167.000	0.32422	-0.40384	-0.08501	0.24669
168.000	0.33213	-0.40384	-0.00989	0.22083
169.000	0.31434	-0.41180	-0.02175	0.21486
170.000	0.33609	-0.39191	-0.03163	0.20690
171.000	0.30050	-0.43368	-0.11467	0.26061
172.000	0.32818	-0.40583	-0.12455	0.19496
173.000	0.30841	-0.43567	-0.07513	0.28051
174.000	0.29655	-0.40981	-0.02372	0.19894
175.000	0.33609	-0.41777	-0.09292	0.22878
176.000	0.31632	-0.38594	-0.02570	0.20292
177.000	0.34993	-0.35013	-0.03559	0.20889
178.000	0.32818	-0.36008	-0.08897	0.16910
179.000	0.34202	-0.37201	-0.04152	0.24271
180.000	0.31632	-0.36605	-0.09094	0.24470
181.000	0.27282	-0.36605	-0.05338	0.17905
182.000	0.34399	-0.31432	-0.00395	0.18303
183.000	0.33411	-0.34814	0.00000	0.23674
184.000	0.31039	-0.31034	-0.05140	0.22481
185.000	0.29259	-0.32228	-0.11664	0.22878
186.000	0.30446	-0.32626	-0.04943	0.23873
187.000	0.33806	-0.32626	-0.09490	0.23276
188.000	0.32027	-0.35411	-0.01977	0.22878
189.000	0.33411	-0.29244	-0.05338	0.19695
190.000	0.28666	-0.34416	-0.01186	0.20292
191.000	0.29655	-0.31233	-0.04152	0.20491
192.000	0.33806	-0.31830	-0.09094	0.28847
193.000	0.30248	-0.38395	-0.10676	0.23475
194.000	0.31632	-0.32626	-0.11071	0.20690
195.000	0.33609	-0.34018	-0.11467	0.17308
196.000	0.34004	-0.35212	-0.05733	0.19297
197.000	0.32422	-0.34615	-0.05338	0.28648
198.000	0.32422	-0.38196	-0.01977	0.21884
199.000	0.31236	-0.35411	-0.09885	0.18502
200.000	0.32027	-0.37400	-0.18188	0.24072
201.000	0.26689	-0.42573	-0.05536	0.16512
202.000	0.31236	-0.36207	-0.03559	0.24868
203.000	0.30841	-0.37599	-0.09687	0.21685
204.000	0.27282	-0.30637	-0.01977	0.25465
205.000	0.29062	-0.35610	-0.11071	0.17905
206.000	0.31829	-0.35212	-0.15223	0.21685
207.000	0.30050	-0.35013	-0.11862	0.15518
208.000	0.30643	-0.42573	-0.05536	0.17109
209.000	0.30643	-0.36406	-0.01779	0.16313
210.000	0.26492	-0.37599	-0.02966	0.15915
211.000	0.34202	-0.35809	-0.15223	0.19098
212.000	0.31829	-0.38395	-0.07908	0.23873
213.000	0.28666	-0.35212	-0.16804	0.22083
214.000	0.30248	-0.41578	-0.05338	0.25664
215.000	0.31236	-0.38196	-0.14234	0.27454
216.000	0.35190	-0.39588	-0.20363	0.24669
217.000	0.31632	-0.39390	-0.15025	0.21088
218.000	0.33213	-0.39986	-0.13246	0.21287
219.000	0.32225	-0.41180	-0.10083	0.21884
220.000	0.33806	-0.39986	-0.16211	0.20093
221.000	0.32225	-0.36406	-0.10083	0.17706
222.000	0.30050	-0.35610	-0.21154	0.21685
223.000	0.29259	-0.36804	-0.09292	0.18502
224.000	0.31632	-0.39787	-0.15421	0.21486
225.000	0.33213	-0.39390	-0.11467	0.22083
226.000	0.27085	-0.37003	-0.14432	0.27852
227.000	0.27876	-0.38196	-0.03756	0.20889
228.000	0.29457	-0.35809	-0.19968	0.22480
229.000	0.30446	-0.35809	-0.15223	0.18502
230.000	0.30248	-0.38992	-0.10478	0.20093
231.000	0.29457	-0.40185	-0.22142	0.16313
232.000	0.29457	-0.39390	-0.17002	0.26459
233.000	0.34795	-0.39787	-0.06524	0.17308
234.000	0.27876	-0.39788	-0.09094	0.26260
235.000	0.32422	-0.39390	-0.09292	0.19297
236.000	0.31236	-0.39788	-0.09885	0.26658
237.000	0.34004	-0.38992	-0.10280	0.21287
238.000	0.28469	-0.39390	-0.10478	0.22083
239.000	0.34399	-0.39588	-0.14234	0.19894
240.000	0.35783	-0.33620	-0.14234	0.24271
241.000	0.35388	-0.35013	-0.17595	0.21486
242.000	0.33016	-0.39787	-0.09490	0.21287
243.000	0.34004	-0.41777	-0.12060	0.23475
244.000	0.32027	-0.42374	-0.13246	0.17507
245.000	0.31434	-0.42970	-0.14827	0.18701
246.000	0.33213	-0.38196	-0.16014	0.16910
247.000	0.33411	-0.34018	-0.12060	0.28449
248.000	0.32225	-0.37400	-0.13246	0.18701
249.000	0.30841	-0.38395	-0.07513	0.17308
250.000	0.36574	-0.43368	-0.14630	0.24072
251.000	0.34993	-0.37201	-0.09885	0.24868
252.000	0.35783	-0.40185	-0.16211	0.18502
253.000	0.31236	-0.38992	-0.13444	0.12533
254.000	0.34399	-0.39191	-0.19375	0.21486
255.000	0.32818	-0.40384	-0.15618	0.16512
256.000	0.36574	-0.41180	-0.19770	0.21486
257.000	0.33016	-0.38793	-0.14037	0.16114
258.000	0.36574	-0.41777	-0.11071	0.18701
259.000	0.31632	-0.38992	-0.20561	0.16711
260.000	0.28469	-0.37798	-0.15421	0.21685
261.000	0.28864	-0.40782	-0.17793	0.16711
262.000	0.29457	-0.44761	-0.06326	0.18502
263.000	0.30841	-0.39788	-0.16804	0.24271
264.000	0.28864	-0.41777	-0.18781	0.17507
265.000	0.28469	-0.37599	-0.10280	0.25465
266.000	0.31632	-0.39191	-0.13246	0.21884
267.000	0.33411	-0.37798	-0.14037	0.20093
268.000	0.31039	-0.36804	-0.09292	0.23077
269.000	0.30446	-0.41976	-0.17200	0.14921
270.000	0.31434	-0.36804	-0.05733	0.21884
271.000	0.31236	-0.38992	-0.16014	0.15319
272.000	0.28271	-0.42175	-0.17398	0.17109
273.000	0.32620	-0.40384	-0.13048	0.20889
274.000	0.32422	-0.38793	-0.13839	0.21486
275.000	0.29655	-0.43965	-0.13048	0.17706
276.000	0.26492	-0.36804	-0.13839	0.18900
277.000	0.25899	-0.36605	-0.20561	0.17507
278.000	0.31632	-0.37400	-0.19968	0.19496
279.000	0.30841	-0.38992	-0.13641	0.09350
280.000	0.29655	-0.36406	-0.10676	0.15120
281.000	0.31829	-0.39191	-0.06920	0.23276
282.000	0.29655	-0.40981	-0.09885	0.21685
283.000	0.29457	-0.35411	-0.11467	0.16313
284.000	0.27876	-0.36605	-0.09292	0.13727
285.000	0.27678	-0.38395	-0.09885	0.16512
286.000	0.30050	-0.39390	-0.13048	0.23873
287.000	0.29259	-0.33223	-0.16014	0.14125
288.000	0.26887	-0.36008	-0.07710	0.16512
289.000	0.29457	-0.41976	-0.11269	0.18303
290.000	0.27678	-0.38196	-0.13246	0.28250
291.000	0.27876	-0.41976	-0.07513	0.17905
292.000	0.26887	-0.45756	-0.07710	0.19496
293.000	0.29852	-0.42573	-0.11071	0.24072
294.000	0.30446	-0.37997	-0.17595	0.24470
295.000	0.28469	-0.41578	-0.10083	0.17109
296.000	0.30050	-0.39986	-0.21945	0.24868
297.000	0.30643	-0.41976	-0.11071	0.21088
298.000	0.27678	-0.42573	-0.10874	0.22480
299.000	0.33806	-0.41976	-0.14234	0.22878
300.000	0.34993	-0.36008	-0.16804	0.21088
301.000	0.29062	-0.38793	-0.08106	0.17507
302.000	0.30643	-0.40583	-0.08699	0.21486
303.000	0.29062	-0.41578	-0.22142	0.14523
304.000	0.30446	-0.38793	-0.14432	0.18900
305.000	0.29655	-0.45159	-0.10083	0.11738
306.000	0.28073	-0.46551	-0.16211	0.23873
307.000	0.30050	-0.40384	-0.12455	0.13130
308.000	0.30050	-0.44960	-0.14630	0.18502
309.000	0.31632	-0.42970	-0.11467	0.19297
310.000	0.29655	-0.39788	-0.14630	0.26857
311.000	0.28864	-0.42573	-0.07908	0.14125
312.000	0.27085	-0.40981	-0.10874	0.24072
313.000	0.28073	-0.38793	-0.15223	0.21486
314.000	0.28469	-0.41976	-0.17793	0.26061
315.000	0.26492	-0.40583	-0.13444	0.22679
316.000	0.23724	-0.41976	-0.13641	0.18502
317.000	0.26492	-0.39191	-0.13444	0.17905
318.000	0.26689	-0.46352	-0.12455	0.25067
319.000	0.24910	-0.38594	-0.16607	0.20690
320.000	0.25503	-0.47148	-0.11269	0.17905
321.000	0.24317	-0.45159	-0.10280	0.24669
322.000	0.25305	-0.42772	-0.12257	0.17706
323.000	0.27085	-0.42175	-0.10083	0.21287
324.000	0.26096	-0.45358	-0.10280	0.28847
325.000	0.22933	-0.40385	-0.19572	0.26061
326.000	0.23526	-0.40981	-0.11071	0.19496
327.000	0.27678	-0.40185	-0.12850	0.20491
328.000	0.24515	-0.44761	-0.16804	0.23077
329.000	0.25305	-0.44761	-0.09885	0.24470
330.000	0.27678	-0.41379	-0.06722	0.20690
331.000	0.25108	-0.46949	-0.15618	0.26061
332.000	0.28073	-0.41976	-0.14037	0.23276
333.000	0.26492	-0.44164	-0.12653	0.19297
334.000	0.26096	-0.39589	-0.07513	0.20292
335.000	0.26689	-0.44164	-0.14827	0.26658
336.000	0.26096	-0.44761	-0.15816	0.23475
337.000	0.25503	-0.41379	-0.09490	0.19894
338.000	0.23329	-0.44960	-0.09094	0.24470
339.000	0.24515	-0.41379	-0.06326	0.17109
340.000	0.23724	-0.46949	-0.11862	0.25664
341.000	0.27085	-0.39589	-0.14037	0.27454
342.000	0.22735	-0.44562	-0.10083	0.35213
343.000	0.26294	-0.44164	-0.16607	0.24868
344.000	0.22538	-0.41379	-0.12060	0.21884
345.000	0.23922	-0.44761	-0.11467	0.24868
346.000	0.24712	-0.44562	-0.11862	0.28648
347.000	0.26294	-0.42971	-0.07908	0.22083
348.000	0.26689	-0.45557	-0.12653	0.19098
349.000	0.22538	-0.43766	-0.16014	0.27056
350.000	0.24712	-0.42971	-0.10676	0.33820
351.000	0.29457	-0.40782	-0.17200	0.28449
352.000	0.25503	-0.42573	-0.08303	0.29642
353.000	0.24910	-0.41180	-0.13641	0.21884
354.000	0.27876	-0.43965	-0.18584	0.23873
355.000	0.27085	-0.44761	-0.14827	0.22679
356.000	0.26689	-0.42971	-0.11862	0.23475
357.000	0.23131	-0.41976	-0.15816	0.26857
358.000	0.25503	-0.45955	-0.11467	0.30040
359.000	0.24910	-0.43766	-0.13444	0.25465
360.000	0.27085	-0.43567	-0.11071	0.27852
361.000	0.23724	-0.43369	-0.10676	0.27653
362.000	0.29062	-0.43567	-0.08897	0.30239
363.000	0.27876	-0.42374	-0.10478	0.28648
364.000	0.28469	-0.45954	-0.16804	0.26061
365.000	0.28073	-0.42175	-0.22538	0.30836
366.000	0.25701	-0.42175	-0.20956	0.30040
367.000	0.29457	-0.40384	-0.11862	0.30438
368.000	0.29457	-0.42573	-0.16014	0.40584
369.000	0.28469	-0.40782	-0.14037	0.35610
370.000	0.25503	-0.44960	-0.10874	0.29244
371.000	0.31632	-0.42970	-0.18979	0.25464
372.000	0.26887	-0.40981	-0.18188	0.28051
373.000	0.28073	-0.43368	-0.21747	0.29244
374.000	0.24119	-0.39390	-0.18781	0.28449
375.000	0.31039	-0.45358	-0.10280	0.30637
376.000	0.27085	-0.39390	-0.13839	0.25465
377.000	0.28666	-0.42772	-0.17398	0.29642
378.000	0.30841	-0.41777	-0.19177	0.29841
379.000	0.28469	-0.41578	-0.20758	0.34616
380.000	0.28271	-0.40782	-0.15618	0.24470
381.000	0.28073	-0.41379	-0.12060	0.31035
382.000	0.30841	-0.40583	-0.10083	0.32626
383.000	0.32422	-0.39191	-0.13641	0.32030
384.000	0.32620	-0.39191	-0.14432	0.31035
385.000	0.29457	-0.39987	-0.14234	0.34616
386.000	0.28073	-0.40583	-0.13048	0.28648
387.000	0.25701	-0.45159	-0.17200	0.30040
388.000	0.28073	-0.41777	-0.14037	0.29841
389.000	0.26294	-0.40981	-0.12850	0.28250
390.000	0.31039	-0.40583	-0.06722	0.29443
391.000	0.30050	-0.42175	-0.16211	0.32228
392.000	0.32027	-0.40782	-0.20561	0.33223
393.000	0.30841	-0.38594	-0.16804	0.36804
394.000	0.31039	-0.39191	-0.15816	0.29045
395.000	0.29457	-0.40185	-0.07117	0.30239
396.000	0.31434	-0.43965	-0.16014	0.32825
397.000	0.27480	-0.36406	-0.19177	0.34616
398.000	0.28666	-0.41976	-0.14432	0.35411
399.000	0.29457	-0.39589	-0.18781	0.34218
400.000	0.28073	-0.42374	-0.12257	0.27653
401.000	0.28469	-0.43766	-0.15421	0.30438
402.000	0.26492	-0.39191	-0.17200	0.31831
403.000	0.27480	-0.45159	-0.13444	0.30637
404.000	0.28073	-0.43766	-0.20758	0.33621
405.000	0.29259	-0.40384	-0.22933	0.34814
406.000	0.29457	-0.42573	-0.09687	0.35610
407.000	0.26887	-0.47745	-0.10083	0.39390
408.000	0.26096	-0.39788	-0.19177	0.35212
409.000	0.28864	-0.42772	-0.13839	0.36207
410.000	0.28864	-0.42970	-0.17398	0.35013
411.000	0.27480	-0.43567	-0.15223	0.37202
412.000	0.23724	-0.46154	-0.12455	0.33621
413.000	0.28666	-0.45954	-0.22735	0.32228
414.000	0.28864	-0.42374	-0.10676	0.32825
415.000	0.23329	-0.40385	-0.11071	0.36605
416.000	0.25899	-0.39788	-0.18584	0.34417
417.000	0.31236	-0.44562	-0.10280	0.27852
418.000	0.20165	-0.42971	-0.15816	0.28250
419.000	0.29259	-0.42573	-0.16607	0.33621
420.000	0.23724	-0.41976	-0.18584	0.31632
421.000	0.26294	-0.45557	-0.10874	0.30239
422.000	0.27282	-0.43766	-0.16409	0.30239
423.000	0.27085	-0.46352	-0.11664	0.28648
424.000	0.25701	-0.47745	-0.13444	0.35014
425.000	0.24119	-0.47148	-0.14234	0.33621
426.000	0.24317	-0.43965	-0.10478	0.28648
427.000	0.26887	-0.43169	-0.10280	0.36207
428.000	0.28073	-0.41777	-0.17991	0.26459
429.000	0.24910	-0.41180	-0.17398	0.23077
430.000	0.24515	-0.43170	-0.09490	0.38992
431.000	0.27085	-0.42772	-0.11467	0.32427
432.000	0.31236	-0.43965	-0.16409	0.26857
433.000	0.27480	-0.44960	-0.07513	0.30637
434.000	0.25503	-0.46153	-0.11664	0.31433
435.000	0.28469	-0.45358	-0.14630	0.30836
436.000	0.26689	-0.45955	-0.17200	0.31433
437.000	0.23131	-0.47347	-0.14630	0.37401
438.000	0.26492	-0.42971	-0.05733	0.32626
439.000	0.25305	-0.45557	-0.10874	0.30239
440.000	0.24515	-0.41578	-0.15618	0.32228
441.000	0.22933	-0.47148	-0.11467	0.32228
442.000	0.20561	-0.48143	-0.16211	0.30040
443.000	0.21747	-0.47745	-0.17595	0.30836
444.000	0.25503	-0.50729	-0.17002	0.32427
445.000	0.25899	-0.48740	-0.15618	0.33024
446.000	0.22142	-0.45159	-0.07710	0.28847
447.000	0.24317	-0.43567	-0.18386	0.34218
448.000	0.23724	-0.48740	-0.17002	0.27852
449.000	0.22142	-0.49138	-0.12455	0.33820
450.000	0.22142	-0.47745	-0.17793	0.33024
451.000	0.24515	-0.47546	-0.07513	0.28449
452.000	0.23922	-0.47148	-0.11862	0.34019
453.000	0.22142	-0.41379	-0.07315	0.26857
454.000	0.23131	-0.41777	-0.07513	0.36008
455.000	0.21945	-0.39788	-0.10083	0.33223
456.000	0.18979	-0.48143	-0.04943	0.22083
457.000	0.18781	-0.41976	-0.14234	0.25266
458.000	0.21352	-0.45756	-0.19375	0.30239
459.000	0.22735	-0.46154	-0.10874	0.26857
460.000	0.19968	-0.48143	-0.07710	0.30239
461.000	0.23526	-0.45756	-0.10478	0.31234
462.000	0.24317	-0.41578	-0.16607	0.30239
463.000	0.23131	-0.44761	-0.13246	0.27255
464.000	0.24317	-0.41976	-0.20363	0.23475
465.000	0.21945	-0.44363	-0.06920	0.30438
466.000	0.23922	-0.43766	-0.11467	0.28449
467.000	0.27678	-0.41976	-0.17002	0.28648
468.000	0.24119	-0.39788	-0.16014	0.29443
469.000	0.23131	-0.38793	-0.14234	0.21884
470.000	0.18979	-0.43767	-0.21549	0.20491
471.000	0.19375	-0.43170	-0.14234	0.30040
472.000	0.22142	-0.40981	-0.17200	0.21884
473.000	0.23131	-0.41578	-0.22735	0.30239
474.000	0.17793	-0.45358	-0.13444	0.26658
475.000	0.21154	-0.43369	-0.20561	0.24868
476.000	0.19177	-0.45159	-0.21747	0.34218
477.000	0.23329	-0.42374	-0.13839	0.30438
478.000	0.13641	-0.42573	-0.26492	0.29045
479.000	0.19968	-0.45557	-0.17595	0.27653
480.000	0.19375	-0.47347	-0.18386	0.25266
481.000	0.22933	-0.40782	-0.14630	0.24868
482.000	0.21747	-0.44562	-0.09292	0.27454
483.000	0.23526	-0.43170	-0.23922	0.31035
484.000	0.22933	-0.39788	-0.13839	0.35411
485.000	0.24910	-0.44562	-0.11071	0.30239
486.000	0.24515	-0.40583	-0.17002	0.34417
487.000	0.21747	-0.39191	-0.24712	0.35411
488.000	0.20561	-0.46154	-0.15025	0.31831
489.000	0.23329	-0.39987	-0.14630	0.32029
490.000	0.22142	-0.43568	-0.18781	0.36605
491.000	0.20758	-0.44761	-0.14037	0.27653
492.000	0.22735	-0.39589	-0.20956	0.30637
493.000	0.24515	-0.40186	-0.14234	0.30239
494.000	0.20758	-0.45756	-0.23329	0.31035
495.000	0.26492	-0.42772	-0.16804	0.36605
496.000	0.20561	-0.43965	-0.14234	0.33820
497.000	0.27678	-0.44562	-0.13641	0.31234
498.000	0.21154	-0.45955	-0.11071	0.33820
499.000	0.22340	-0.47148	-0.20956	0.36804
500.000	0.25899	-0.47944	-0.17002	0.37401
501.000	0.23724	-0.45557	-0.09687	0.32228
502.000	0.25108	-0.42175	-0.11664	0.34218
503.000	0.23922	-0.45955	-0.17398	0.27454
504.000	0.22538	-0.46154	-0.17200	0.33024
505.000	0.24712	-0.41180	-0.14432	0.31234
506.000	0.24712	-0.41976	-0.04547	0.40186
507.000	0.25701	-0.46551	-0.17200	0.32825
508.000	0.31236	-0.45159	-0.15223	0.27653
509.000	0.20561	-0.43766	-0.05536	0.30239
510.000	0.21945	-0.44562	-0.15618	0.35212
511.000	0.26294	-0.39987	-0.11071	0.33820
512.000	0.24910	-0.45955	-0.11467	0.36406
513.000	0.26096	-0.43170	-0.13839	0.33422
514.000	0.21945	-0.44363	-0.08897	0.30836
515.000	0.23329	-0.42374	-0.04349	0.33223
516.000	0.25305	-0.45358	-0.11269	0.30438
517.000	0.23922	-0.49137	-0.10280	0.35411
518.000	0.22735	-0.42971	-0.10083	0.34218
519.000	0.25503	-0.44761	-0.13839	0.33820
520.000	0.23526	-0.40981	-0.12653	0.37401
521.000	0.20956	-0.48143	-0.09292	0.36804
522.000	0.22735	-0.47546	-0.12455	0.34815
523.000	0.21352	-0.45955	-0.12653	0.36605
524.000	0.20561	-0.43170	-0.10083	0.37998
525.000	0.21747	-0.39987	-0.09490	0.35014
526.000	0.20956	-0.44164	-0.10676	0.31632
527.000	0.19770	-0.47148	-0.08106	0.35411
528.000	0.18979	-0.45557	-0.07513	0.42374
529.000	0.19572	-0.47546	-0.10676	0.34616
530.000	0.17595	-0.48342	-0.07710	0.32626
531.000	0.21549	-0.46154	-0.14234	0.34417
532.000	0.19968	-0.48541	-0.05733	0.32427
533.000	0.17595	-0.49337	-0.18781	0.40981
534.000	0.24119	-0.54310	-0.17398	0.34417
535.000	0.19572	-0.48143	-0.09885	0.34019
536.000	0.17595	-0.46751	-0.12653	0.36605
537.000	0.17200	-0.52519	-0.10676	0.32626
538.000	0.17991	-0.50331	-0.13444	0.38594
539.000	0.23329	-0.46949	-0.07908	0.33024
540.000	0.24712	-0.47347	-0.08501	0.37003
541.000	0.21549	-0.45159	-0.06722	0.42573
542.000	0.20363	-0.51525	-0.14432	0.34815
543.000	0.19770	-0.44363	-0.13246	0.37202
544.000	0.20363	-0.43568	-0.11269	0.34417
545.000	0.20758	-0.44562	-0.09292	0.35809
546.000	0.19572	-0.48143	-0.14037	0.36804
547.000	0.22142	-0.49933	-0.10874	0.34417
548.000	0.22340	-0.44363	-0.10083	0.35610
549.000	0.19770	-0.45159	-0.05931	0.38197
550.000	0.21945	-0.43965	-0.10676	0.33820
551.000	0.20758	-0.43965	-0.10280	0.38197
552.000	0.18188	-0.46949	-0.13839	0.37003
553.000	0.23724	-0.43567	-0.04943	0.37202
554.000	0.20561	-0.45557	-0.05536	0.33621
555.000	0.19968	-0.44960	-0.06920	0.34019
556.000	0.24119	-0.44960	-0.13839	0.36804
557.000	0.28666	-0.47944	-0.08501	0.32626
558.000	0.27480	-0.41777	-0.07908	0.37401
559.000	0.26689	-0.40583	-0.07315	0.33422
560.000	0.24515	-0.43368	-0.02966	0.34218
561.000	0.22340	-0.45756	-0.06524	0.34616
562.000	0.20363	-0.43170	-0.10083	0.37799
563.000	0.21154	-0.42573	-0.09292	0.31433
564.000	0.22735	-0.45756	-0.09094	0.37799
565.000	0.23131	-0.40385	-0.11269	0.45557
566.000	0.22538	-0.41777	-0.06920	0.40783
567.000	0.21549	-0.44562	-0.06722	0.42374
568.000	0.22735	-0.41379	-0.08303	0.37600
569.000	0.22933	-0.43170	-0.08699	0.42573
570.000	0.25305	-0.38992	-0.19177	0.46949
571.000	0.22933	-0.37202	-0.12455	0.39788
572.000	0.27282	-0.40782	-0.14827	0.41777
573.000	0.23724	-0.36605	-0.15025	0.39987
574.000	0.23526	-0.40583	-0.09687	0.40783
575.000	0.20561	-0.40981	-0.13048	0.46552
576.000	0.20363	-0.39589	-0.08699	0.37998
577.000	0.23922	-0.41379	-0.03361	0.39788
578.000	0.19968	-0.40783	-0.12653	0.49337
579.000	0.21549	-0.41777	-0.14630	0.46154
580.000	0.24317	-0.40385	-0.11269	0.40186
581.000	0.18979	-0.42374	-0.13839	0.40783
582.000	0.23922	-0.39390	-0.15421	0.42772
583.000	0.23329	-0.35610	-0.17002	0.40584
584.000	0.23922	-0.37003	-0.12060	0.38594
585.000	0.22933	-0.43567	-0.08501	0.52321
586.000	0.22933	-0.40186	-0.12257	0.42573
587.000	0.21747	-0.43766	-0.13444	0.37202
588.000	0.22735	-0.42971	-0.02768	0.41976
589.000	0.24712	-0.41180	-0.11467	0.43966
590.000	0.24515	-0.35610	-0.13839	0.44960
591.000	0.24910	-0.40186	-0.08897	0.52520
592.000	0.26096	-0.37202	-0.07315	0.47347
593.000	0.24910	-0.37997	-0.06129	0.44562
594.000	0.23329	-0.39788	-0.09094	0.41976
595.000	0.23922	-0.43567	-0.02372	0.38793
596.000	0.24910	-0.38793	-0.06920	0.38594
597.000	0.18188	-0.41777	-0.04547	0.40186
598.000	0.24515	-0.40782	-0.10478	0.42772
599.000	0.21747	-0.36804	-0.04152	0.40584
600.000	0.23131	-0.39987	-0.13839	0.45557
601.000	0.21352	-0.38196	-0.05338	0.47944
602.000	0.21549	-0.38395	-0.15618	0.47944
603.000	0.22538	-0.40981	-0.08106	0.42971
604.000	0.21747	-0.39987	-0.06524	0.42772
605.000	0.23526	-0.40583	-0.11269	0.39788
606.000	0.20165	-0.46154	-0.15025	0.40783
607.000	0.22538	-0.43170	-0.10478	0.43170
608.000	0.18979	-0.42971	-0.10874	0.41777
609.000	0.19375	-0.38395	-0.05931	0.45756
610.000	0.24119	-0.39390	-0.11664	0.45955
611.000	0.19177	-0.42772	-0.01977	0.50530
612.000	0.23724	-0.42772	-0.02768	0.47348
613.000	0.19177	-0.38196	-0.05733	0.39987
614.000	0.22538	-0.43567	-0.05140	0.46154
615.000	0.17200	-0.40186	-0.11664	0.44363
616.000	0.20363	-0.40981	-0.07315	0.40982
617.000	0.20561	-0.38793	-0.06129	0.44364
618.000	0.20956	-0.41976	-0.04152	0.50928
619.000	0.19375	-0.42175	-0.08303	0.40385
620.000	0.22735	-0.40186	-0.00395	0.49138
621.000	0.24515	-0.39788	-0.11862	0.40783
622.000	0.23922	-0.37997	-0.07908	0.44761
623.000	0.26887	-0.40583	-0.08106	0.43568
624.000	0.19177	-0.41777	-0.02175	0.48939
625.000	0.19375	-0.34815	-0.12060	0.42175
626.000	0.19177	-0.41777	-0.15421	0.38793
627.000	0.16409	-0.42175	-0.07117	0.42175
628.000	0.15421	-0.40186	-0.08106	0.48342
629.000	0.21945	-0.41777	-0.02372	0.45358
630.000	0.22735	-0.40782	-0.07710	0.46751
631.000	0.18781	-0.39788	-0.08897	0.45557
632.000	0.22340	-0.39390	-0.10874	0.39788
633.000	0.21549	-0.37003	-0.00791	0.40982
634.000	0.18979	-0.37401	-0.06722	0.44562
635.000	0.18584	-0.37997	-0.06129	0.39788
636.000	0.17991	-0.42175	-0.08897	0.40584
637.000	0.19968	-0.44960	-0.03361	0.40584
638.000	0.20363	-0.36406	-0.04349	0.45358
639.000	0.16409	-0.38196	-0.08699	0.45358
640.000	0.21549	-0.39788	-0.06326	0.36207
641.000	0.16804	-0.41777	-0.05931	0.46751
642.000	0.22340	-0.38793	0.02570	0.35213
643.000	0.22933	-0.40782	-0.07315	0.41380
644.000	0.22340	-0.40186	-0.06722	0.41578
645.000	0.20956	-0.40385	-0.03954	0.46154
646.000	0.21747	-0.37798	-0.02372	0.39390
647.000	0.18781	-0.41578	-0.00989	0.46751
648.000	0.23724	-0.37599	-0.09094	0.41578
649.000	0.20956	-0.38793	-0.03954	0.44761
650.000	0.22735	-0.36406	-0.05140	0.51127
651.000	0.16409	-0.38793	-0.11467	0.36406
652.000	0.21945	-0.40782	-0.11862	0.38992
653.000	0.21747	-0.37202	-0.03756	0.40186
654.000	0.18188	-0.35013	-0.09094	0.42175
655.000	0.22933	-0.35809	-0.09292	0.36804
656.000	0.17793	-0.40584	-0.03361	0.45358
657.000	0.18781	-0.33621	-0.07513	0.42573
658.000	0.23329	-0.37997	0.02372	0.41777
659.000	0.18188	-0.40385	-0.09490	0.40385
660.000	0.15618	-0.38395	-0.08303	0.42573
661.000	0.17398	-0.38594	-0.10083	0.40783
662.000	0.17200	-0.43568	-0.10478	0.43966
663.000	0.15421	-0.37600	-0.00395	0.44364
664.000	0.18188	-0.37003	-0.08897	0.38197
665.000	0.18979	-0.36406	0.00198	0.44562
666.000	0.18584	-0.38196	0.00593	0.38594
667.000	0.18979	-0.39589	-0.08106	0.43369
668.000	0.17200	-0.39390	-0.05140	0.39788
669.000	0.12060	-0.37003	0.01384	0.43966
670.000	0.12850	-0.39788	0.00198	0.50530
671.000	0.14827	-0.39390	0.00198	0.44562
672.000	0.15421	-0.39390	-0.03954	0.42573
673.000	0.12653	-0.40385	-0.04547	0.44960
674.000	0.19572	-0.37600	-0.07908	0.41777
675.000	0.13641	-0.40982	-0.04349	0.45557
676.000	0.14037	-0.41379	-0.09292	0.43966
677.000	0.13839	-0.41777	0.00593	0.44165
678.000	0.14827	-0.41180	-0.03756	0.41777
679.000	0.13839	-0.43568	-0.01977	0.42772
680.000	0.18188	-0.41976	-0.07908	0.40385
681.000	0.17793	-0.42573	-0.08699	0.47546
682.000	0.15816	-0.39191	-0.10874	0.40186
683.000	0.14234	-0.37401	-0.06920	0.47944
684.000	0.13246	-0.38992	-0.09094	0.42971
685.000	0.14037	-0.39191	-0.07117	0.47347
686.000	0.11071	-0.37799	-0.09292	0.47546
687.000	0.15421	-0.37600	-0.05536	0.55305
688.000	0.14037	-0.33621	-0.09885	0.41181
689.000	0.16211	-0.40783	-0.07513	0.45955
690.000	0.13641	-0.39788	-0.04349	0.47944
691.000	0.13839	-0.40186	-0.05733	0.50133
692.000	0.14630	-0.39589	-0.11269	0.41181
693.000	0.12455	-0.39788	-0.03954	0.43568
694.000	0.11467	-0.39987	-0.05338	0.44364
695.000	0.15025	-0.41180	-0.04943	0.41578
696.000	0.13839	-0.38992	-0.03361	0.40783
697.000	0.14630	-0.36207	-0.08699	0.46154
698.000	0.10874	-0.40584	-0.06722	0.47149
699.000	0.17398	-0.38594	-0.03559	0.44562
700.000	0.12060	-0.40186	-0.06722	0.39987
701.000	0.15025	-0.39788	-0.01384	0.48939
702.000	0.13444	-0.40186	-0.05733	0.41976
703.000	0.12653	-0.40186	-0.06129	0.40982
704.000	0.11071	-0.41976	-0.07513	0.46751
705.000	0.12653	-0.36207	0.00000	0.42772
706.000	0.14630	-0.40186	-0.08501	0.44364
707.000	0.11664	-0.36008	0.01977	0.39390
708.000	0.13641	-0.36207	-0.06920	0.47347
709.000	0.12653	-0.37799	-0.01977	0.49735
710.000	0.12257	-0.36406	-0.05733	0.39191
711.000	0.12257	-0.38992	-0.04943	0.43767
712.000	0.14234	-0.38793	-0.12455	0.47944
713.000	0.11269	-0.38594	-0.07908	0.51326
714.000	0.15618	-0.38395	0.00395	0.48740
715.000	0.14037	-0.36406	-0.04943	0.43170
716.000	0.14630	-0.38196	-0.00395	0.45756
717.000	0.08897	-0.37401	-0.02966	0.38197
718.000	0.12257	-0.37998	-0.05931	0.47149
719.000	0.12653	-0.39589	0.02966	0.37202
720.000	0.12060	-0.36804	-0.01779	0.44364
721.000	0.09490	-0.38396	-0.00989	0.42772
722.000	0.11664	-0.39987	-0.06524	0.41578
723.000	0.12850	-0.38793	0.02768	0.49536
724.000	0.15223	-0.41976	-0.02570	0.40385
725.000	0.17398	-0.36605	0.00198	0.41976
726.000	0.12653	-0.43170	0.03954	0.41380
727.000	0.17398	-0.39788	0.01582	0.38992
728.000	0.16211	-0.36207	0.03756	0.48939
729.000	0.15421	-0.37401	0.00989	0.36605
730.000	0.14827	-0.40385	0.04152	0.39987
731.000	0.14037	-0.40385	0.09292	0.45756
732.000	0.15618	-0.39191	-0.00593	0.47149
733.000	0.15025	-0.38992	0.04943	0.40186
734.000	0.19177	-0.36207	0.04152	0.45557
735.000	0.12455	-0.37202	0.01977	0.42175
736.000	0.12455	-0.39589	0.08699	0.38197
737.000	0.16409	-0.37600	0.09687	0.38396
738.000	0.13246	-0.37600	0.06524	0.47745
739.000	0.15816	-0.36207	0.00989	0.44562
740.000	0.15223	-0.34019	0.05140	0.46751
741.000	0.16211	-0.38793	0.14630	0.47148
742.000	0.15223	-0.36008	0.06326	0.46751
743.000	0.14630	-0.39589	0.10676	0.42971
744.000	0.15223	-0.36605	0.02966	0.51326
745.000	0.16804	-0.41379	0.13246	0.42772
746.000	0.16211	-0.37202	0.04745	0.40385
747.000	0.15223	-0.35212	0.06524	0.43170
748.000	0.18979	-0.35013	0.06129	0.42573
749.000	0.14234	-0.36207	0.14432	0.44562
750.000	0.14234	-0.36406	0.10874	0.42772
751.000	0.12850	-0.34616	0.08106	0.41578
752.000	0.15618	-0.34417	0.09885	0.45557
753.000	0.13048	-0.33422	0.08897	0.44960
754.000	0.11467	-0.31831	0.03559	0.43966
755.000	0.15816	-0.36406	0.07513	0.41380
756.000	0.13444	-0.33820	0.08501	0.42573
757.000	0.11862	-0.36008	0.08699	0.43767
758.000	0.12257	-0.36804	0.01186	0.48342
759.000	0.15025	-0.36207	0.14037	0.43767
760.000	0.13246	-0.34815	-0.00791	0.44562
761.000	0.17793	-0.37003	0.08699	0.46950
762.000	0.13641	-0.38197	0.01384	0.43170
763.000	0.17595	-0.32626	0.06722	0.43369
764.000	0.14827	-0.33223	0.04152	0.43369
765.000	0.13048	-0.36804	0.05733	0.51326
766.000	0.10083	-0.33422	0.06722	0.40385
767.000	0.17398	-0.35013	0.03756	0.51525
768.000	0.22142	-0.33820	0.05733	0.46353
769.000	0.22340	-0.33024	0.06524	0.50928
770.000	0.17595	-0.32825	0.09292	0.40186
771.000	0.17002	-0.30239	0.07117	0.46552
772.000	0.13839	-0.33223	0.03361	0.43170
773.000	0.18584	-0.33422	0.08501	0.50331
774.000	0.20561	-0.32427	0.14432	0.48143
775.000	0.16607	-0.34019	-0.01384	0.47745
776.000	0.13839	-0.31433	0.06722	0.44761
777.000	0.15816	-0.35610	0.07710	0.54509
778.000	0.13839	-0.32030	-0.01384	0.45955
779.000	0.17398	-0.31632	0.03361	0.49536
780.000	0.20561	-0.35411	0.05931	0.35809
781.000	0.12653	-0.34616	0.09292	0.50729
782.000	0.13641	-0.34417	0.06722	0.42772
783.000	0.18188	-0.34815	0.10676	0.45756
784.000	0.16409	-0.32029	0.00198	0.44165
785.000	0.16607	-0.31632	0.00198	0.48740
786.000	0.18781	-0.35013	0.04152	0.48939
787.000	0.16607	-0.29841	0.07117	0.52719
788.000	0.16211	-0.30438	0.03559	0.55305
789.000	0.10676	-0.36406	0.02768	0.46154
790.000	0.12850	-0.34218	0.12060	0.49536
791.000	0.16211	-0.32228	-0.01779	0.57095
792.000	0.14234	-0.32427	0.07513	0.43170
793.000	0.15816	-0.31831	0.00593	0.53514
794.000	0.15816	-0.32825	0.06524	0.47944
795.000	0.13444	-0.34815	0.07513	0.48143
796.000	0.14037	-0.35212	0.07117	0.49735
797.000	0.19375	-0.32228	0.00198	0.46751
798.000	0.15421	-0.31234	0.10676	0.46950
799.000	0.15223	-0.30836	0.03954	0.44562
800.000	0.15421	-0.34019	0.04745	0.35213
801.000	0.16409	-0.29045	0.01977	0.47944
802.000	0.16409	-0.32825	0.01384	0.48939
803.000	0.13839	-0.32825	0.06524	0.47745
804.000	0.15421	-0.31433	0.01384	0.48541
805.000	0.16014	-0.29443	0.13641	0.43568
806.000	0.16804	-0.30438	0.08106	0.47347
807.000	0.18386	-0.28449	0.06722	0.45955
808.000	0.15816	-0.32427	0.10280	0.43369
809.000	0.11467	-0.32626	0.08303	0.37202
810.000	0.17002	-0.28449	-0.00791	0.41181
811.000	0.14630	-0.27653	0.04349	0.39390
812.000	0.18781	-0.30836	-0.01977	0.40186
813.000	0.14827	-0.27454	0.10478	0.48143
814.000	0.23131	-0.31234	0.05733	0.41181
815.000	0.19375	-0.21685	0.03954	0.37401
816.000	0.20758	-0.27056	0.07710	0.35014
817.000	0.20956	-0.24470	0.07117	0.48939
818.000	0.21747	-0.27255	0.04745	0.46353
819.000	0.21352	-0.23475	0.02966	0.37998
820.000	0.22735	-0.24470	0.00989	0.40982
821.000	0.23131	-0.25862	0.04943	0.45955
822.000	0.20561	-0.22480	0.03954	0.32427
823.000	0.24712	-0.27056	0.01582	0.39987
824.000	0.24317	-0.26857	0.02372	0.42772
825.000	0.21549	-0.26857	0.17991	0.32029
826.000	0.22142	-0.23475	0.03361	0.41578
827.000	0.20758	-0.24072	0.08303	0.40982
828.000	0.25899	-0.26459	0.07908	0.39788
829.000	0.22142	-0.28051	0.05140	0.45557
830.000	0.23131	-0.26658	0.07710	0.40584
831.000	0.24119	-0.27255	0.03756	0.42573
832.000	0.21945	-0.25862	0.00791	0.42971
833.000	0.24119	-0.26459	-0.06722	0.41181
834.000	0.23131	-0.25663	-0.03361	0.43369
835.000	0.20561	-0.26857	0.09292	0.41181
836.000	0.18386	-0.25862	0.02966	0.38793
837.000	0.21549	-0.26658	-0.00989	0.35213
838.000	0.22735	-0.23475	-0.01779	0.38197
839.000	0.19770	-0.26857	0.01186	0.41181
840.000	0.18979	-0.21884	-0.01384	0.39589
841.000	0.23922	-0.24868	-0.04745	0.37600
842.000	0.18781	-0.21884	-0.05338	0.37202
843.000	0.19177	-0.21088	0.09490	0.37600
844.000	0.23922	-0.21486	0.03954	0.39987
845.000	0.23526	-0.20093	0.11269	0.37003
846.000	0.22142	-0.21287	-0.02768	0.36804
847.000	0.20561	-0.21088	-0.01779	0.39390
848.000	0.20758	-0.20491	0.01384	0.37401
849.000	0.25108	-0.18700	0.00000	0.42374
850.000	0.21747	-0.19098	-0.01582	0.41578
851.000	0.22142	-0.18700	0.02372	0.48939
852.000	0.22538	-0.16711	0.00000	0.37600
853.000	0.20758	-0.20491	-0.06524	0.37401
854.000	0.19770	-0.17905	-0.07710	0.39191
855.000	0.24317	-0.17706	-0.02570	0.39589
856.000	0.23724	-0.19297	-0.02768	0.42772
857.000	0.21549	-0.19297	-0.05338	0.42175
858.000	0.20758	-0.16114	-0.05931	0.44165
859.000	0.20165	-0.22281	-0.02570	0.44165
860.000	0.20165	-0.15517	-0.04547	0.42374
861.000	0.18584	-0.16313	-0.03954	0.43767
862.000	0.27282	-0.12334	-0.01186	0.44761
863.000	0.32620	-0.17308	0.17991	0.41976
864.000	0.44482	-0.20093	0.21747	0.37202
865.000	0.59110	-0.23673	0.34795	0.37997
866.000	0.86981	-0.19892	0.58320	0.32227
867.000	1.21567	-0.29437	0.98643	0.45749
868.000	1.58318	-0.31819	1.30262	0.41170
869.000	1.96832	-0.41753	1.66219	0.42555
870.000	2.44012	-0.46510	2.08284	0.24653
871.000	2.89187	-0.53843	2.51708	0.21266
872.000	3.45753	-0.62154	2.89582	0.11723
873.000	3.85723	-0.72843	3.38267	-0.01986
874.000	4.27817	-0.74590	3.93397	-0.13695
875.000	4.75560	-0.82272	4.27031	-0.34123
876.000	5.16374	-0.87371	4.77524	-0.37866
877.000	5.54003	-0.91277	5.17159	-0.48938
878.000	5.87475	-0.98148	5.50281	-0.66336
879.000	6.16413	-0.99480	5.74756	-0.76204
880.000	6.44928	-1.08121	5.96081	-0.77757
881.000	6.65417	-1.08076	6.24033	-0.88987
882.000	6.91344	-1.10585	6.52736	-0.92296
883.000	7.11793	-1.08365	6.61320	-0.95046
884.000	7.25804	-1.13658	6.79846	-1.06267
885.000	7.41751	-1.13618	6.87447	-1.04276
886.000	7.57881	-1.12590	7.07120	-0.94166
887.000	7.77686	-1.11355	7.17048	-0.96908
888.000	7.94952	-1.12885	7.37474	-1.03965
889.000	8.10266	-1.15795	7.45445	-1.01777
890.000	8.23051	-1.09066	7.64096	-0.97396
891.000	8.39504	-1.10201	7.59824	-0.92872
892.000	8.49176	-1.10370	7.67398	-0.87927
893.000	8.57877	-1.08575	7.71863	-0.85553
894.000	8.61163	-1.06010	7.76716	-0.78645
895.000	8.56717	-1.08579	7.74775	-0.78452
896.000	8.50143	-1.05254	7.60406	-0.77098
897.000	8.44341	-1.02319	7.58270	-0.76905
898.000	8.32344	-1.02940	7.44084	-0.76141
899.000	8.17435	-1.01995	7.40390	-0.76937
900.000	7.97861	-1.02044	7.34752	-0.77341
901.000	7.88358	-1.00492	7.22497	-0.72429
902.000	7.74969	-0.99145	7.13545	-0.79351
903.000	7.62349	-1.04497	7.12571	-0.79155
904.000	7.54967	-0.99191	7.03226	-0.79763
905.000	7.50886	-1.05510	7.10235	-0.75014
906.000	7.50692	-1.05314	7.03031	-0.82528
907.000	7.52635	-1.03731	7.18021	-0.81317
908.000	7.53995	-1.01954	7.12961	-0.79155
909.000	7.58075	-1.06478	7.26193	-0.81105
910.000	7.68369	-1.07241	7.31056	-0.85041
911.000	7.76522	-1.06629	7.40974	-0.90151
912.000	7.85448	-1.09365	7.46028	-0.81857
913.000	7.95922	-1.13473	7.55161	-0.84600
914.000	8.04452	-1.14237	7.57881	-0.82623
915.000	8.13754	-1.12635	7.52635	-0.82239
916.000	8.21502	-1.17928	7.66427	-0.88718
917.000	8.25375	-1.06501	7.72640	-0.84369
918.000	8.32151	-1.11993	7.75746	-0.89684
919.000	8.34280	-1.14741	7.77686	-0.91256
920.000	8.37182	-1.14339	7.85642	-0.93012
921.000	8.37956	-1.20043	7.72834	-0.92843
922.000	8.39698	-1.13742	7.82538	-0.86319
923.000	8.42407	-1.12554	7.75551	-0.93626
924.000	8.43954	-1.11959	7.63514	-0.96215
925.000	8.42600	-1.13340	7.68369	-0.90882
926.000	8.40665	-1.15510	7.65844	-0.88128
927.000	8.41052	-1.10393	7.62931	-0.85374
928.000	8.39504	-1.10988	7.61377	-0.92671
929.000	8.35054	-1.09033	7.65067	-0.91086
930.000	8.36795	-1.08832	7.68757	-0.92458
931.000	8.34280	-1.10806	7.62543	-0.94640
932.000	8.36795	-1.08241	7.62154	-0.92275
933.000	8.32731	-1.10220	7.68174	-0.90685
934.000	8.35634	-1.10409	7.63125	-0.95230
935.000	8.36021	-1.13556	7.62154	-0.91092
936.000	8.34086	-1.10020	7.56910	-0.94652
937.000	8.30989	-1.14358	7.59241	-0.98984
938.000	8.33312	-1.13367	7.69533	-0.96398
939.000	8.33699	-1.12579	7.65844	-0.94633
940.000	8.32925	-1.19861	7.52247	-0.87564
941.000	8.32344	-1.14944	7.58270	-0.96621
942.000	8.30796	-1.14555	7.55355	-0.88149
943.000	8.29828	-1.15345	7.43112	-0.91724
944.000	8.31376	-1.10814	7.52830	-0.90915
945.000	8.29828	-1.12000	7.48360	-0.97629
946.000	8.30796	-1.12587	7.44667	-0.88171
947.000	8.30408	-1.13179	7.51664	-0.92692
948.000	8.30215	-1.11014	7.43306	-0.92118
949.000	8.31763	-1.15733	7.44278	-0.91524
950.000	8.32151	-1.16322	7.49526	-0.88358
951.000	8.28279	-1.12398	7.40390	-0.83051
952.000	8.30602	-1.12194	7.45833	-0.87774
953.000	8.30989	-1.14751	7.41557	-0.84430
954.000	8.32344	-1.13960	7.42723	-0.91922
955.000	8.30021	-1.14951	7.47777	-0.85404
956.000	8.30408	-1.12391	7.47194	-0.86785
957.000	8.31183	-1.12783	7.30667	-0.90172
958.000	8.30989	-1.12390	7.44862	-0.87382
959.000	8.35247	-1.09033	7.41946	-0.88768
960.000	8.36795	-1.12373	7.43890	-0.89356
961.000	8.36408	-1.12374	7.45833	-0.97635
962.000	8.30796	-1.11997	7.45445	-0.90733
963.000	8.39698	-1.08233	7.39224	-0.88379
964.000	8.33505	-1.10808	7.43501	-0.94681
965.000	8.39698	-1.12955	7.39807	-0.93703
966.000	8.39117	-1.11579	7.51858	-0.87762
967.000	8.36795	-1.09619	7.45056	-0.87776
968.000	8.38343	-1.12565	7.52830	-0.92689
969.000	8.40665	-1.10395	7.42529	-0.94289
970.000	8.40085	-1.14724	7.48749	-0.84810
971.000	8.39311	-1.11579	7.44862	-0.91523
972.000	8.41246	-1.12754	7.40779	-0.87390
973.000	8.42600	-1.10782	7.48166	-0.90333
974.000	8.42020	-1.09407	7.42529	-0.83836
975.000	8.42213	-1.09603	7.45445	-0.90339
976.000	8.41439	-1.11966	7.49526	-0.92302
977.000	8.40859	-1.10591	7.47777	-0.92897
978.000	8.43374	-1.14715	7.42529	-0.87978
979.000	8.40278	-1.10789	7.42140	-0.94290
980.000	8.41633	-1.06457	7.47583	-0.96645
981.000	8.42213	-1.12357	7.47971	-0.96249
982.000	8.40472	-1.11969	7.48749	-0.90332
983.000	8.43567	-1.10583	7.47971	-0.87573
984.000	8.41052	-1.09803	7.46805	-0.89941
985.000	8.41633	-1.09408	7.55355	-0.93473
986.000	8.41052	-1.11180	7.52052	-0.89142
987.000	8.42020	-1.09604	7.49137	-0.93486
988.000	8.46662	-1.09394	7.59047	-0.98590
989.000	8.46082	-1.15297	7.40779	-0.88573
990.000	8.42407	-1.10586	7.45445	-0.87380
991.000	8.46469	-1.12542	7.49332	-0.92500
992.000	8.45888	-1.12150	7.47777	-0.91911
993.000	8.44341	-1.12941	7.44862	-0.93101
994.000	8.44534	-1.11761	7.41557	-0.88572
995.000	8.45888	-1.09790	7.43695	-0.94089
996.000	8.42793	-1.08815	7.44667	-0.99215
997.000	8.46082	-1.09789	7.43306	-0.93301
998.000	8.44728	-1.12547	7.44084	-0.87580
999.000	8.45888	-1.07822	7.39224	-0.88182
1000.000	8.43567	-1.10780	7.44278	-0.96455
1001.000	8.38730	-1.11187	7.43501	-0.83440
1002.000	8.42793	-1.08421	7.42140	-0.91134
1003.000	8.42020	-1.09604	7.42335	-0.94684
1004.000	8.44148	-1.11958	7.43890	-0.93695
1005.000	8.40665	-1.12165	7.45833	-0.89549
1006.000	8.40472	-1.10198	7.43695	-0.93498
1007.000	8.48403	-1.07619	7.38252	-0.86014
1008.000	8.43567	-1.07239	7.46417	-0.94478
1009.000	8.42600	-1.11569	7.41557	-0.98433
1010.000	8.43567	-1.11567	7.44473	-0.89552
1011.000	8.45502	-1.15102	7.37668	-0.89566
1012.000	8.44921	-1.10776	7.42529	-0.86400
1013.000	8.42020	-1.11965	7.40585	-0.95279
1014.000	8.41633	-1.12359	7.38835	-0.94100
1015.000	8.43954	-1.14516	7.38446	-0.94890
1016.000	8.42987	-1.11962	7.34946	-0.96870
1017.000	8.41052	-1.11771	7.38641	-0.92325
1018.000	8.44921	-1.12153	7.44667	-0.93298
1019.000	8.44728	-1.13137	7.38446	-0.88183
1020.000	8.46469	-1.13919	7.41557	-0.99616
1021.000	8.43761	-1.10386	7.43501	-0.89554
1022.000	8.42600	-1.11569	7.38446	-0.97059
1023.000	8.42020	-1.07243	7.45250	-0.86000
1024.000	8.42793	-1.08815	7.41946	-0.89360
1025.000	8.44341	-1.11564	7.36113	-0.86807
1026.000	8.42600	-1.09012	7.36113	-0.91739
1027.000	8.43954	-1.11959	7.45056	-0.95073
1028.000	8.43180	-1.10781	7.43501	-0.93104
1029.000	8.46082	-1.11756	7.48943	-0.97825
1030.000	8.45308	-1.12742	7.40002	-0.99225
1031.000	8.45115	-1.11759	7.40974	-0.94884
1032.000	8.42987	-1.12158	7.37863	-0.89960
1033.000	8.49563	-1.08206	7.46611	-0.95464
1034.000	8.44921	-1.15103	7.41557	-0.87783
1035.000	8.44921	-1.16480	7.44084	-0.93300
1036.000	8.43374	-1.12944	7.39029	-0.90746
1037.000	8.38730	-1.16105	7.35529	-0.92134
1038.000	8.42213	-1.15111	7.35724	-0.96868
1039.000	8.42793	-1.13339	7.41168	-0.90939
1040.000	8.45308	-1.13922	7.44473	-0.86396
1041.000	8.44148	-1.12155	7.41751	-0.99616
1042.000	8.48983	-1.16075	7.48749	-0.94867
1043.000	8.48403	-1.18830	7.41557	-0.98630
1044.000	8.45502	-1.16675	7.41557	-0.99813
1045.000	8.45502	-1.14905	7.43501	-1.00006
1046.000	8.42793	-1.18060	7.35335	-0.95882
1047.000	8.43954	-1.18057	7.42140	-0.94882
1048.000	8.49563	-1.15876	7.39029	-1.02186
1049.000	8.45695	-1.10577	7.44667	-0.93101
1050.000	8.46275	-1.17460	7.38835	-0.92325
1051.000	8.46082	-1.14313	7.40779	-0.97646
1052.000	8.43954	-1.15303	7.45833	-0.93888
1053.000	8.44728	-1.10776	7.37863	-1.01400
1054.000	8.45695	-1.13527	7.52052	-0.94860
1055.000	8.43954	-1.10975	7.42140	-1.03954
1056.000	8.44921	-1.09596	7.39807	-0.92323
1057.000	8.47823	-1.08407	7.52441	-0.98606
1058.000	8.49370	-1.08206	7.42918	-1.05135
1059.000	8.47049	-1.14507	7.43501	-0.96062
1060.000	8.45888	-1.10183	7.53607	-1.04123
1061.000	8.48016	-1.11357	7.53413	-0.99589
1062.000	8.45308	-1.11758	7.44667	-1.03159
1063.000	8.46856	-1.12344	7.49720	-1.07090
1064.000	8.47629	-1.06441	7.45250	-1.02171
1065.000	8.44728	-1.09793	7.45056	-1.06707
1066.000	8.44341	-1.11761	7.51664	-0.98410
1067.000	8.49176	-1.11747	7.46805	-1.03943
1068.000	8.45115	-1.15103	7.49915	-1.12216
1069.000	8.43567	-1.15107	7.45445	-0.95663
1070.000	8.42793	-1.14126	7.46417	-1.03155
1071.000	8.45888	-1.13330	7.51275	-1.04326
1072.000	8.48983	-1.14501	7.51469	-1.06100
1073.000	8.48016	-1.17061	7.41168	-0.97842
1074.000	8.49176	-1.14501	7.53024	-0.98801
1075.000	8.46275	-1.14313	7.51275	-0.99594
1076.000	8.47242	-1.16277	7.44862	-1.05525
1077.000	8.47436	-1.17063	7.41557	-1.03363
1078.000	8.46082	-1.13330	7.52635	-1.01760
1079.000	8.45888	-1.12740	7.48360	-0.97432
1080.000	8.43567	-1.12353	7.53218	-0.95843
1081.000	8.48403	-1.12339	7.53413	-1.02152
1082.000	8.50723	-1.10366	7.40974	-0.94292
1083.000	8.47823	-1.13521	7.50303	-0.94864
1084.000	8.43567	-1.09796	7.47388	-1.00983
1085.000	8.45888	-1.13330	7.53413	-1.06687
1086.000	8.48790	-1.16469	7.42140	-1.06517
1087.000	8.50337	-1.14300	7.46805	-1.00393
1088.000	8.48983	-1.15091	7.47388	-1.06899
1089.000	8.45502	-1.12938	7.38446	-1.03371
1090.000	8.47629	-1.15882	7.57881	-1.06282
1091.000	8.46082	-1.16280	7.53995	-1.00574
1092.000	8.53817	-1.18027	7.51664	-1.03537
1093.000	8.49176	-1.15681	7.50886	-1.05313
1094.000	8.48596	-1.12535	7.61572	-1.08638
1095.000	8.50917	-1.09382	7.56715	-1.04116
1096.000	8.49950	-1.11155	7.48166	-1.01179
1097.000	8.50723	-1.11743	7.44084	-1.05527
1098.000	8.51303	-1.07611	7.43501	-0.97048
1099.000	8.51690	-1.10363	7.42723	-1.00008
1100.000	8.49563	-1.08206	7.43890	-1.00597
1101.000	8.48790	-1.07224	7.50692	-1.03342
1102.000	8.51497	-1.09970	7.47777	-1.08475
1103.000	8.46662	-1.06050	7.47583	-1.02166
1104.000	8.54590	-1.12715	7.47388	-1.10251
1105.000	8.56137	-1.11530	7.42723	-1.06910
1106.000	8.53237	-1.08785	7.43501	-1.07894
1107.000	8.49950	-1.10368	7.46805	-0.98618
1108.000	8.53817	-1.11733	7.58658	-1.00760
1109.000	8.52077	-1.13312	7.44473	-1.01582
1110.000	8.53044	-1.08392	7.48943	-1.00585
1111.000	8.55750	-1.11924	7.44084	-1.04146
1112.000	8.49563	-1.11156	7.53218	-1.03336
1113.000	8.54397	-1.09962	7.43306	-1.05529
1114.000	8.48209	-1.11160	7.44473	-1.03554
1115.000	8.56137	-1.04254	7.46028	-1.07691
1116.000	8.52850	-1.08590	7.47971	-1.03743
1117.000	8.47242	-1.06048	7.52247	-0.95648
1118.000	8.51690	-1.09970	7.51664	-1.03931
1119.000	8.54784	-1.11927	7.44278	-1.03751
1120.000	8.55170	-1.12319	7.43112	-0.95471
1121.000	8.53430	-1.18421	7.42140	-0.96854
1122.000	8.53237	-1.11932	7.45250	-0.94678
1123.000	8.54784	-1.10747	7.38057	-1.02583
1124.000	8.53237	-1.11539	7.45250	-1.01383
1125.000	8.54397	-1.16255	7.43112	-1.04937
1126.000	8.52850	-1.12130	7.35529	-1.01997
1127.000	8.54397	-1.09568	7.46805	-1.03548
1128.000	8.54397	-1.10552	7.41751	-1.05138
1129.000	8.55170	-1.14089	7.41362	-1.02378
1130.000	8.53430	-1.13701	7.47583	-1.03941
1131.000	8.50530	-1.11153	7.47971	-1.02165
1132.000	8.54397	-1.07405	7.45639	-1.04931
1133.000	8.55944	-1.12121	7.44278	-1.09470
1134.000	8.50917	-1.15675	7.46611	-0.96647
1135.000	8.51303	-1.13904	7.43112	-1.00796
1136.000	8.53624	-1.18814	7.46611	-0.92111
1137.000	8.54010	-1.12913	7.40585	-1.02774
1138.000	8.54204	-1.17239	7.49526	-1.03936
1139.000	8.55750	-1.10941	7.35141	-0.98053
1140.000	8.53237	-1.17438	7.43695	-1.01386
1141.000	8.59037	-1.15061	7.47777	-0.99208
1142.000	8.57104	-1.15460	7.36891	-1.00021
1143.000	8.55364	-1.09566	7.39029	-0.97847
1144.000	8.52270	-1.07018	7.40002	-0.96267
1145.000	8.48983	-1.11551	7.43501	-0.99217
1146.000	8.49176	-1.17058	7.38835	-1.00411
1147.000	8.50917	-1.12725	7.36307	-0.96078
1148.000	8.54784	-1.11534	7.44667	-0.99806
1149.000	8.53237	-1.09572	7.33390	-1.03580
1150.000	8.54010	-1.10356	7.55744	-0.99190
1151.000	8.52270	-1.09771	7.35724	-0.95487
1152.000	8.53817	-1.11930	7.41751	-1.00996
1153.000	8.54590	-1.10748	7.53024	-0.98999
1154.000	8.49950	-1.13318	7.44084	-1.06315
1155.000	8.51884	-1.08789	7.45250	-0.97241
1156.000	8.51690	-1.10166	7.47971	-0.96447
1157.000	8.57104	-1.12904	7.41751	-0.99813
1158.000	8.56330	-1.10153	7.34557	-0.98251
1159.000	8.57297	-1.07594	7.37085	-1.04360
1160.000	8.56330	-1.10743	7.39418	-0.96663
1161.000	8.56330	-1.13103	7.32223	-0.96481
1162.000	8.57490	-1.09363	7.41168	-1.03167
1163.000	8.54204	-1.11536	7.44084	-0.98822
1164.000	8.54204	-1.14682	7.44084	-1.08090
1165.000	8.57877	-1.12901	7.36307	-0.92527
1166.000	8.53237	-1.13702	7.48943	-1.04726
1167.000	8.57104	-1.14674	7.42335	-1.01192
1168.000	8.58843	-1.15455	7.44084	-1.05527
1169.000	8.56717	-1.18018	7.43501	-1.00006
1170.000	8.58070	-1.13491	7.48554	-0.97234
1171.000	8.54397	-1.11732	7.48554	-1.00192
1172.000	8.56330	-1.13299	7.45639	-0.99607
1173.000	8.58070	-1.07198	7.42529	-0.98825
1174.000	8.57490	-1.08380	7.38252	-1.06527
1175.000	8.60003	-1.11519	7.44278	-1.07301
1176.000	8.60583	-1.12893	7.46222	-1.00789
1177.000	8.58070	-1.08181	7.48360	-0.96249
1178.000	8.56330	-1.06416	7.48749	-1.02755
1179.000	8.59810	-1.08176	7.44667	-1.05920
1180.000	8.60003	-1.09159	7.48749	-0.94079
1181.000	8.59230	-1.10734	7.46028	-1.04733
1182.000	8.58070	-1.07198	7.47000	-0.96252
1183.000	8.61936	-1.14856	7.46222	-1.08282
1184.000	8.62516	-1.07186	7.42529	-1.01192
1185.000	8.59617	-1.06801	7.46611	-0.97436
1186.000	8.62516	-1.10725	7.42918	-1.00599
1187.000	8.62322	-1.12692	7.45250	-1.00002
1188.000	8.63289	-1.15638	7.50692	-1.05511
1189.000	8.63675	-1.16620	7.49332	-1.02162
1190.000	8.62322	-1.12692	7.44278	-1.01582
1191.000	8.61549	-1.10334	7.44862	-1.02370
1192.000	8.62709	-1.11314	7.46028	-0.98423
1193.000	8.59617	-1.11323	7.41168	-1.08886
1194.000	8.57684	-1.13492	7.45250	-1.09468
1195.000	8.60196	-1.15647	7.49137	-0.98613
1196.000	8.63482	-1.11115	7.51469	-0.99396
1197.000	8.61356	-1.16430	7.51858	-0.98804
1198.000	8.62709	-1.12297	7.50692	-1.04722
1199.000	8.61743	-1.09744	7.47388	-1.06110
1200.000	8.61743	-1.12300	7.40390	-0.94294
1201.000	8.59810	-1.05620	7.52052	-1.06690
1202.000	8.48016	-1.09783	7.35529	-0.95093
1203.000	8.33505	-1.09825	7.30084	-0.95894
1204.000	8.12591	-1.09686	7.07120	-1.12324
1205.000	7.84478	-1.08973	6.93877	-0.98141
1206.000	7.50498	-1.03737	6.71852	-1.09445
1207.000	7.10819	-1.01461	6.21884	-1.13902
1208.000	6.63076	-1.00575	5.79649	-1.12408
1209.000	6.10940	-1.02061	5.47343	-1.24150
1210.000	5.51652	-0.95834	5.08922	-1.21057
1211.000	4.88516	-0.87409	4.48258	-1.13036
1212.000	4.28604	-0.88275	4.04021	-1.26987
1213.000	3.83164	-0.87928	3.61312	-1.25859
1214.000	3.32159	-0.80034	3.13634	-1.20759
1215.000	2.69859	-0.80279	2.69662	-1.23785
1216.000	2.29605	-0.78713	2.21314	-1.10516
1217.000	1.76491	-0.79336	1.84391	-1.13523
1218.000	1.31052	-0.74978	1.39549	-1.10367
1219.000	0.90144	-0.72602	0.92120	-1.04023
1220.000	0.54168	-0.71414	0.52389	-1.00253
1221.000	0.08897	-0.68234	0.02768	-1.00854
1222.000	-0.30050	-0.72411	-0.24317	-1.03439
1223.000	-0.57924	-0.79170	-0.65238	-1.06018
1224.000	-0.95480	-0.78567	-1.03188	-1.14558
1225.000	-1.34214	-0.85317	-1.51996	-1.18909
1226.000	-1.72540	-0.84705	-1.86366	-1.11733
1227.000	-2.29013	-0.92029	-2.32565	-1.22430
1228.000	-2.57233	-0.94991	-2.75776	-1.29936
1229.000	-2.94314	-0.98735	-3.10875	-1.25726
1230.000	-3.17971	-1.05465	-3.58752	-1.25664
1231.000	-3.50874	-1.10789	-3.93004	-1.21052
1232.000	-3.91430	-1.13912	-4.33518	-1.30508
1233.000	-4.24672	-1.06329	-4.71044	-1.24891
1234.000	-4.51795	-1.10454	-4.88713	-1.11980
1235.000	-4.84591	-1.09213	-5.32254	-1.15468
1236.000	-5.15394	-1.06389	-5.67905	-1.05307
1237.000	-5.25394	-0.98450	-5.87866	-0.96960
1238.000	-5.38722	-0.95458	-6.13090	-0.85644
1239.000	-5.54198	-0.88307	-6.30479	-0.80673
1240.000	-5.63990	-0.84927	-6.53516	-0.75103
1241.000	-5.74560	-0.84318	-6.69317	-0.69547
1242.000	-5.73973	-0.82340	-6.70097	-0.72905
1243.000	-5.72407	-0.75217	-6.68927	-0.65992
1244.000	-5.68101	-0.68295	-6.74387	-0.59070
1245.000	-5.60661	-0.66522	-6.79456	-0.56892
1246.000	-5.61248	-0.65532	-6.76142	-0.54920
1247.000	-5.58311	-0.61972	-6.74777	-0.51761
1248.000	-5.55569	-0.61578	-6.64051	-0.60071
1249.000	-5.54394	-0.65144	-6.58199	-0.63635
1250.000	-5.48126	-0.67328	-6.57419	-0.70948
1251.000	-5.46167	-0.65549	-6.48637	-0.77284
1252.000	-5.49497	-0.69703	-6.50199	-0.74910
1253.000	-5.47930	-0.74655	-6.45319	-0.80847
1254.000	-5.49889	-0.77622	-6.44538	-0.84801
1255.000	-5.51260	-0.84946	-6.40829	-0.87970
1256.000	-5.57724	-0.81571	-6.36924	-0.86791
1257.000	-5.61248	-0.87109	-6.45514	-0.89148
1258.000	-5.67122	-0.87298	-6.40634	-0.77692
1259.000	-5.74365	-0.89860	-6.47856	-0.91120
1260.000	-5.69275	-0.83732	-6.47856	-0.90724
1261.000	-5.79844	-0.85893	-6.50589	-0.85384
1262.000	-5.89040	-0.84494	-6.55077	-0.81227
1263.000	-5.91387	-0.82117	-6.72827	-0.84555
1264.000	-5.87670	-0.81331	-6.69317	-0.81796
1265.000	-5.93343	-0.82707	-6.72827	-0.83173
1266.000	-5.98037	-0.84481	-6.80626	-0.81974
1267.000	-6.04098	-0.75768	-6.85693	-0.81176
1268.000	-6.04294	-0.83877	-6.82965	-0.76440
1269.000	-5.94517	-0.83299	-6.96994	-0.82341
1270.000	-5.99797	-0.86852	-6.93682	-0.79977
1271.000	-5.97841	-0.83096	-6.93292	-0.80175
1272.000	-5.96668	-0.80328	-6.92513	-0.76820
1273.000	-6.02143	-0.85068	-6.88421	-0.80776
1274.000	-6.05076	-0.80711	-6.87447	-0.73273
1275.000	-5.99992	-0.85862	-6.84134	-0.81968
1276.000	-6.01165	-0.81706	-6.84134	-0.78216
1277.000	-5.97841	-0.82107	-6.83549	-0.75254
1278.000	-5.99406	-0.81511	-6.83549	-0.78612
1279.000	-5.96863	-0.82702	-6.86667	-0.79199
1280.000	-5.98428	-0.82106	-6.75167	-0.77045
1281.000	-5.93734	-0.79146	-6.75947	-0.80007
1282.000	-5.91387	-0.76181	-6.87057	-0.78409
1283.000	-5.89235	-0.84494	-6.84329	-0.78413
1284.000	-5.87084	-0.78364	-6.80041	-0.72495
1285.000	-5.87866	-0.78560	-6.86278	-0.84927
1286.000	-5.90800	-0.78556	-6.81795	-0.77430
1287.000	-5.85323	-0.78564	-6.81990	-0.70912
1288.000	-5.88453	-0.79351	-6.81210	-0.75456
1289.000	-5.84345	-0.77576	-6.75752	-0.78230
1290.000	-5.89627	-0.79745	-6.76142	-0.87710
1291.000	-5.79844	-0.74416	-6.79066	-0.80792
1292.000	-5.90605	-0.79150	-6.75362	-0.79415
1293.000	-5.81214	-0.84110	-6.80236	-0.82962
1294.000	-5.84540	-0.76982	-6.85888	-0.77028
1295.000	-5.83171	-0.82524	-6.76142	-0.87117
1296.000	-5.78866	-0.76198	-6.82965	-0.81773
1297.000	-5.84932	-0.77773	-6.84913	-0.81769
1298.000	-5.83562	-0.76588	-6.84134	-0.85325
1299.000	-5.82975	-0.81140	-6.75752	-0.82180
1300.000	-5.82975	-0.79754	-6.81015	-0.88688
1301.000	-5.82975	-0.80744	-6.81210	-0.80196
1302.000	-5.86692	-0.80343	-6.74972	-0.75860
1303.000	-5.88062	-0.80341	-6.76142	-0.85142
1304.000	-5.82388	-0.78766	-6.79456	-0.79409
1305.000	-5.85127	-0.78762	-6.80041	-0.77828
1306.000	-5.91192	-0.85480	-6.86083	-0.82557
1307.000	-5.90800	-0.79743	-6.81600	-0.79800
1308.000	-5.90800	-0.81326	-6.82380	-0.79799
1309.000	-5.93343	-0.80333	-6.89980	-0.81761
1310.000	-5.91974	-0.84886	-6.88811	-0.76826
1311.000	-5.86497	-0.78958	-6.83744	-0.82364
1312.000	-5.89431	-0.80339	-6.87447	-0.73471
1313.000	-5.90605	-0.86273	-6.81795	-0.82565
1314.000	-5.95103	-0.81122	-6.86473	-0.79002
1315.000	-5.88453	-0.80142	-6.92123	-0.85903
1316.000	-5.94908	-0.83496	-6.84134	-0.79203
1317.000	-5.90018	-0.87856	-6.84329	-0.81573
1318.000	-5.87866	-0.79154	-6.85888	-0.79200
1319.000	-5.93539	-0.80926	-6.87447	-0.75051
1320.000	-5.87475	-0.73614	-6.79846	-0.76643
1321.000	-5.92756	-0.77960	-6.88616	-0.78998
1322.000	-5.92952	-0.81125	-6.85108	-0.79399
1323.000	-5.85714	-0.80938	-6.84913	-0.80584
1324.000	-5.87866	-0.83309	-6.83354	-0.77427
1325.000	-5.87084	-0.79155	-6.88421	-0.79591
1326.000	-5.93539	-0.83103	-6.84913	-0.82559
1327.000	-5.88844	-0.81527	-6.85498	-0.70709
1328.000	-5.89235	-0.86670	-6.88226	-0.81171
1329.000	-5.90213	-0.82316	-6.84329	-0.74463
1330.000	-5.92561	-0.83895	-6.77117	-0.74869
1331.000	-5.93343	-0.81718	-6.81210	-0.74863
1332.000	-5.89431	-0.84494	-6.91344	-0.68923
1333.000	-5.87475	-0.84695	-6.80041	-0.74667
1334.000	-5.89822	-0.81130	-6.81210	-0.72098
1335.000	-5.90018	-0.84493	-6.84134	-0.77426
1336.000	-5.91778	-0.78555	-6.84329	-0.77426
1337.000	-5.87866	-0.83111	-6.86473	-0.73867
1338.000	-5.89431	-0.80141	-6.80041	-0.73482
1339.000	-5.87670	-0.75791	-6.88616	-0.76036
1340.000	-5.82584	-0.78964	-6.92903	-0.78201
1341.000	-5.94125	-0.75386	-6.82965	-0.76440
1342.000	-5.81997	-0.83713	-6.87057	-0.78211
1343.000	-5.84149	-0.79357	-6.89396	-0.78207
1344.000	-5.86888	-0.83508	-6.80820	-0.74469
1345.000	-5.89822	-0.80932	-6.81015	-0.71703
1346.000	-5.85714	-0.80938	-6.76337	-0.73093
1347.000	-5.84540	-0.82720	-6.86083	-0.69523
1348.000	-5.85714	-0.82521	-6.79456	-0.73878
1349.000	-5.82192	-0.85494	-6.79261	-0.71311
1350.000	-5.83953	-0.85491	-6.82185	-0.72887
1351.000	-5.83562	-0.77379	-6.79066	-0.73484
1352.000	-5.80431	-0.80352	-6.78091	-0.71708
1353.000	-5.82975	-0.76588	-6.77896	-0.71510
1354.000	-5.85714	-0.82323	-6.91344	-0.69713
1355.000	-5.80823	-0.81341	-6.84329	-0.69526
1356.000	-5.80236	-0.77384	-6.87447	-0.68336
1357.000	-5.74365	-0.80162	-6.79261	-0.68941
1358.000	-5.81018	-0.82528	-6.83159	-0.66565
1359.000	-5.85714	-0.82521	-6.74777	-0.77836
1360.000	-5.78279	-0.83521	-6.79456	-0.70718
1361.000	-5.82779	-0.81536	-6.90370	-0.74256
1362.000	-5.84736	-0.80543	-6.83159	-0.72095
1363.000	-5.81410	-0.78372	-6.82380	-0.69134
1364.000	-5.76126	-0.80952	-6.79456	-0.71113
1365.000	-5.82584	-0.76391	-6.89590	-0.73270
1366.000	-5.83171	-0.81931	-6.81990	-0.71702
1367.000	-5.81801	-0.79756	-6.84329	-0.69921
1368.000	-5.77300	-0.77784	-6.83354	-0.68935
1369.000	-5.82779	-0.78568	-6.84719	-0.68143
1370.000	-5.83366	-0.80150	-6.83939	-0.69921
1371.000	-5.82975	-0.78567	-6.80041	-0.72890
1372.000	-5.88844	-0.76778	-6.76337	-0.69735
1373.000	-5.80431	-0.86288	-6.84134	-0.67946
1374.000	-5.88453	-0.80736	-6.85888	-0.78411
1375.000	-5.80823	-0.81143	-6.87252	-0.63005
1376.000	-5.85714	-0.79157	-6.84134	-0.71896
1377.000	-5.84540	-0.78961	-6.81795	-0.72887
1378.000	-5.87866	-0.84496	-6.89006	-0.68729
1379.000	-5.84149	-0.81534	-6.76532	-0.66969
1380.000	-5.87475	-0.83903	-6.79456	-0.74273
1381.000	-5.87866	-0.78363	-6.86862	-0.70510
1382.000	-5.82192	-0.83515	-6.81405	-0.66172
1383.000	-5.78866	-0.80354	-6.76532	-0.69142
1384.000	-5.76126	-0.78577	-6.89785	-0.73072
1385.000	-5.78279	-0.84313	-6.84134	-0.70909
1386.000	-5.86105	-0.77376	-6.77117	-0.65783
1387.000	-5.79061	-0.82530	-6.80626	-0.65976
1388.000	-5.79649	-0.81342	-6.82575	-0.68146
1389.000	-5.79257	-0.82530	-6.83354	-0.71700
1390.000	-5.84540	-0.81137	-6.89980	-0.76034
1391.000	-5.78279	-0.80157	-6.87642	-0.63596
1392.000	-5.78866	-0.81739	-6.86667	-0.70707
1393.000	-5.83171	-0.81733	-6.83744	-0.76044
1394.000	-5.83562	-0.81139	-6.85693	-0.77226
1395.000	-5.82584	-0.83515	-6.87252	-0.70114
1396.000	-5.86301	-0.83707	-6.79846	-0.69927
1397.000	-5.83366	-0.82128	-6.81405	-0.69135
1398.000	-5.88257	-0.87463	-6.84134	-0.74859
1399.000	-5.85910	-0.80740	-6.78091	-0.72103
1400.000	-5.82779	-0.78963	-6.84524	-0.67946
1401.000	-5.81410	-0.82923	-6.86278	-0.69918
1402.000	-5.89431	-0.83702	-6.79261	-0.63608
1403.000	-5.87866	-0.82122	-6.96214	-0.65757
1404.000	-5.81214	-0.86287	-6.87252	-0.69522
1405.000	-5.85518	-0.85885	-6.80236	-0.65779
1406.000	-5.90213	-0.85086	-6.74582	-0.62824
1407.000	-5.82975	-0.78963	-6.91149	-0.69911
1408.000	-5.90018	-0.85680	-6.89201	-0.72086
1409.000	-5.81410	-0.77976	-6.81210	-0.80196
1410.000	-5.84540	-0.79554	-6.89785	-0.74850
1411.000	-5.87279	-0.85288	-6.84524	-0.71501
1412.000	-5.90605	-0.86668	-6.75167	-0.68551
1413.000	-5.83758	-0.82326	-6.85303	-0.73869
1414.000	-5.81410	-0.84704	-6.77312	-0.71314
1415.000	-5.87866	-0.83903	-6.90565	-0.69912
1416.000	-5.82975	-0.80744	-6.80820	-0.61828
1417.000	-5.80627	-0.85496	-6.81405	-0.68148
1418.000	-5.86105	-0.80146	-6.78676	-0.73089
1419.000	-5.85323	-0.84302	-6.86667	-0.71497
1420.000	-5.89040	-0.83703	-6.76337	-0.71513
1421.000	-5.83953	-0.80940	-6.80626	-0.69334
1422.000	-5.88257	-0.78758	-6.83744	-0.68539
1423.000	-5.86105	-0.82718	-6.77702	-0.70128
1424.000	-5.81214	-0.80944	-6.84524	-0.64983
1425.000	-5.83953	-0.81732	-6.83744	-0.65972
1426.000	-5.88649	-0.87463	-6.75947	-0.69538
1427.000	-5.82779	-0.81734	-6.83549	-0.70909
1428.000	-5.80823	-0.81143	-6.85888	-0.65771
1429.000	-5.83953	-0.83315	-6.84913	-0.68933
1430.000	-5.84932	-0.84303	-6.83939	-0.76834
1431.000	-5.84736	-0.84303	-6.83939	-0.70909
1432.000	-5.83953	-0.76983	-6.83159	-0.71305
1433.000	-5.78670	-0.78573	-6.78676	-0.63806
1434.000	-5.84932	-0.83709	-6.78481	-0.68547
1435.000	-5.75735	-0.72838	-6.79846	-0.61632
1436.000	-5.83562	-0.83513	-6.77117	-0.67956
1437.000	-5.82779	-0.78963	-6.77117	-0.65191
1438.000	-5.81997	-0.77183	-6.77312	-0.68943
1439.000	-5.80431	-0.75800	-6.78676	-0.69732
1440.000	-5.81997	-0.77381	-6.74777	-0.71713
1441.000	-5.79257	-0.76989	-6.79456	-0.68743
1442.000	-5.81997	-0.76986	-6.76922	-0.69734
1443.000	-5.79453	-0.78374	-6.74387	-0.68750
1444.000	-5.75735	-0.82140	-6.73607	-0.63220
1445.000	-5.78866	-0.75011	-6.73607	-0.73295
1446.000	-5.76713	-0.76795	-6.81795	-0.69925
1447.000	-5.75343	-0.75016	-6.78871	-0.67361
1448.000	-5.78474	-0.76199	-6.80431	-0.71507
1449.000	-5.77887	-0.80553	-6.71462	-0.72113
1450.000	-5.78474	-0.81542	-6.74777	-0.73095
1451.000	-5.79649	-0.74614	-6.83159	-0.70515
1452.000	-5.75930	-0.76202	-6.82965	-0.70910
1453.000	-5.80431	-0.86090	-6.81015	-0.69136
1454.000	-5.78474	-0.76792	-6.77896	-0.73486
1455.000	-5.80040	-0.82331	-6.78676	-0.73287
1456.000	-5.77887	-0.78376	-6.78871	-0.69139
1457.000	-5.76909	-0.77190	-6.77702	-0.69733
1458.000	-5.77887	-0.74418	-6.72827	-0.73493
1459.000	-5.80236	-0.77780	-6.79846	-0.76445
1460.000	-5.84149	-0.78368	-6.81210	-0.74073
1461.000	-5.81605	-0.83120	-6.81210	-0.71308
1462.000	-5.80823	-0.80747	-6.75167	-0.70724
1463.000	-5.80040	-0.77978	-6.83354	-0.74070
1464.000	-5.74952	-0.78578	-6.81600	-0.74862
1465.000	-5.84540	-0.76586	-6.81015	-0.84146
1466.000	-5.84932	-0.78762	-6.82380	-0.75849
1467.000	-5.76517	-0.76004	-6.74972	-0.82181
1468.000	-5.76126	-0.79962	-6.79846	-0.82766
1469.000	-5.72407	-0.68488	-6.81405	-0.76048
1470.000	-5.74365	-0.74027	-6.82575	-0.73083
1471.000	-5.73386	-0.71060	-6.75947	-0.64600
1472.000	-5.84932	-0.76784	-6.76337	-0.75661
1473.000	-5.91192	-0.76973	-6.82380	-0.70121
1474.000	-5.89822	-0.66092	-6.93487	-0.68723
1475.000	-6.09767	-0.70024	-7.05563	-0.72850
1476.000	-6.31846	-0.68809	-7.24053	-0.75781
1477.000	-6.45514	-0.74324	-7.39418	-0.68851
1478.000	-6.74387	-0.72898	-7.65844	-0.70386
1479.000	-7.14713	-0.75796	-7.98637	-0.70134
1480.000	-7.59824	-0.78282	-8.33699	-0.74402
1481.000	-7.99412	-0.78011	-8.71789	-0.58402
1482.000	-8.52077	-0.84595	-9.07875	-0.66005
1483.000	-8.94375	-0.85875	-9.47542	-0.56512
1484.000	-9.41194	-0.93022	-9.92682	-0.68193
1485.000	-9.80017	-0.83703	-10.25451	-0.52464
1486.000	-10.15877	-0.85178	-10.70183	-0.55906
1487.000	-10.46877	-0.94677	-11.02027	-0.51746
1488.000	-10.69419	-0.91676	-11.19350	-0.54253
1489.000	-10.89831	-0.96692	-11.44631	-0.58689
1490.000	-11.10976	-1.03063	-11.75363	-0.51419
1491.000	-11.32661	-1.04350	-11.83130	-0.49652
1492.000	-11.47099	-1.13068	-11.99975	-0.58182
1493.000	-11.63040	-1.14562	-12.17366	-0.51922
1494.000	-11.60954	-1.13596	-12.24732	-0.51908
1495.000	-11.71004	-1.15892	-12.32282	-0.54614
1496.000	-11.75742	-1.22102	-12.35112	-0.63935
1497.000	-11.96570	-1.17146	-12.62626	-0.55714
1498.000	-11.99786	-1.13241	-12.70342	-0.57832
1499.000	-12.11698	-1.11441	-12.73917	-0.55690
1500.000	-12.10942	-1.08333	-12.74481	-0.58211
1501.000	-12.13021	-1.03853	-12.75233	-0.53358
1502.000	-12.20577	-1.05184	-12.77490	-0.52190
1503.000	-12.16989	-1.02087	-12.80874	-0.48691
1504.000	-12.13210	-1.01907	-12.75233	-0.51418
1505.000	-12.06405	-0.98822	-12.77302	-0.53548
1506.000	-12.05649	-0.96296	-12.78430	-0.49666
1507.000	-11.99786	-0.98457	-12.61497	-0.48340
1508.000	-11.97327	-0.95742	-12.62815	-0.45620
1509.000	-11.93732	-1.02565	-12.54152	-0.46995
1510.000	-11.88621	-0.95578	-12.43410	-0.41769
1511.000	-11.82183	-0.99689	-12.37187	-0.51106
1512.000	-11.81236	-1.00081	-12.31338	-0.46453
1513.000	-11.87485	-0.97528	-12.25865	-0.48795
1514.000	-11.84456	-0.99680	-12.21899	-0.48414
1515.000	-11.86728	-1.00840	-12.19066	-0.51141
1516.000	-11.83320	-0.97154	-12.16989	-0.54451
1517.000	-11.92786	-0.94785	-12.29451	-0.58312
1518.000	-11.95057	-0.92637	-12.24543	-0.54630
1519.000	-12.01489	-0.97478	-12.29829	-0.57340
1520.000	-12.02056	-0.99616	-12.23221	-0.53660
1521.000	-12.06216	-0.93571	-12.35112	-0.60437
1522.000	-12.10942	-0.96277	-12.43033	-0.60613
1523.000	-12.15855	-0.95870	-12.54529	-0.61945
1524.000	-12.14155	-0.95487	-12.54529	-0.55926
1525.000	-12.19444	-0.93719	-12.56036	-0.53787
1526.000	-12.19633	-0.99745	-12.66579	-0.60946
1527.000	-12.19066	-0.93526	-12.62815	-0.55326
1528.000	-12.25298	-0.99529	-12.67144	-0.51435
1529.000	-12.17555	-0.96836	-12.63756	-0.57847
1530.000	-12.26242	-0.96416	-12.73352	-0.51616
1531.000	-12.22655	-0.98761	-12.74669	-0.51613
1532.000	-12.24165	-0.97201	-12.72976	-0.47542
1533.000	-12.23788	-0.97396	-12.70531	-0.50846
1534.000	-12.29074	-0.96988	-12.74105	-0.54719
1535.000	-12.25298	-0.93698	-12.77490	-0.48892
1536.000	-12.24732	-0.93311	-12.67896	-0.50851
1537.000	-12.23788	-0.93120	-12.69966	-0.52787
1538.000	-12.19633	-1.00911	-12.63756	-0.56100
1539.000	-12.28885	-1.00293	-12.66767	-0.49883
1540.000	-12.24165	-0.99533	-12.60932	-0.47759
1541.000	-12.19822	-0.96633	-12.63003	-0.49502
1542.000	-12.21899	-0.97403	-12.59426	-0.48150
1543.000	-12.23221	-0.99925	-12.58861	-0.49704
1544.000	-12.16233	-0.94313	-12.59426	-0.46791
1545.000	-12.14910	-0.97818	-12.59614	-0.40190
1546.000	-12.19255	-0.96830	-12.60744	-0.52224
1547.000	-12.14721	-0.95097	-12.56224	-0.40971
1548.000	-12.10186	-0.93946	-12.55847	-0.51846
1549.000	-12.11509	-0.94914	-12.57919	-0.49123
1550.000	-12.07540	-0.91816	-12.58672	-0.52228
1551.000	-12.16989	-0.92367	-12.51891	-0.54767
1552.000	-12.10186	-0.98419	-12.57354	-0.47959
1553.000	-12.12832	-0.95881	-12.53587	-0.42723
1554.000	-12.13777	-0.92572	-12.53775	-0.49714
1555.000	-12.07729	-0.95510	-12.56224	-0.54757
1556.000	-12.11887	-0.93162	-12.58672	-0.49316
1557.000	-12.09997	-0.98614	-12.53964	-0.51073
1558.000	-12.11320	-0.98026	-12.60367	-0.46012
1559.000	-12.10753	-0.94916	-12.58107	-0.47764
1560.000	-12.08296	-0.94536	-12.57354	-0.50678
1561.000	-12.07161	-0.91234	-12.60932	-0.46788
1562.000	-12.08485	-0.92202	-12.60555	-0.51060
1563.000	-12.13399	-0.98212	-12.53775	-0.51656
1564.000	-12.08296	-0.97453	-12.62250	-0.47756
1565.000	-12.08296	-0.97453	-12.63568	-0.48724
1566.000	-12.08107	-0.93370	-12.60367	-0.48148
1567.000	-12.07918	-0.95510	-12.59237	-0.48344
1568.000	-12.12076	-0.98023	-12.58861	-0.47957
1569.000	-12.10564	-0.94722	-12.60932	-0.51641
1570.000	-12.10186	-0.97252	-12.61497	-0.49893
1571.000	-12.12265	-0.95689	-12.56977	-0.51261
1572.000	-12.10753	-0.97055	-12.62626	-0.46591
1573.000	-12.10375	-0.97640	-12.57919	-0.54560
1574.000	-12.15855	-0.96454	-12.64885	-0.51245
1575.000	-12.15666	-0.99176	-12.64132	-0.50276
1576.000	-12.16611	-0.96062	-12.66391	-0.47943
1577.000	-12.13021	-0.97825	-12.66579	-0.51824
1578.000	-12.16989	-0.95477	-12.62626	-0.46979
1579.000	-12.10753	-0.91221	-12.58672	-0.40191
1580.000	-12.10942	-0.94721	-12.61873	-0.44651
1581.000	-12.12454	-0.96077	-12.69025	-0.44832
1582.000	-12.12643	-0.93743	-12.61685	-0.44651
1583.000	-12.16233	-0.97619	-12.61497	-0.46787
1584.000	-12.14344	-0.91209	-12.65826	-0.45614
1585.000	-12.16233	-1.00729	-12.72036	-0.52007
1586.000	-12.15477	-0.97233	-12.64132	-0.45423
1587.000	-12.15099	-0.91595	-12.63756	-0.40765
1588.000	-12.16611	-0.93729	-12.60555	-0.53972
1589.000	-12.13021	-0.94908	-12.66014	-0.40568
1590.000	-12.15099	-0.92956	-12.69213	-0.52983
1591.000	-12.14344	-0.95292	-12.62250	-0.46203
1592.000	-12.14155	-1.01709	-12.65262	-0.43480
1593.000	-12.17366	-0.96059	-12.65262	-0.46004
1594.000	-12.08485	-0.95119	-12.66014	-0.50661
1595.000	-12.07918	-0.94343	-12.60932	-0.46011
1596.000	-12.13210	-0.92574	-12.73352	-0.49482
1597.000	-12.07350	-0.95706	-12.63944	-0.49888
1598.000	-12.12832	-0.98992	-12.63756	-0.46977
1599.000	-12.10186	-0.99974	-12.66203	-0.45226
1600.000	-12.16989	-1.00727	-12.59237	-0.46985
1601.000	-12.12643	-0.94521	-12.61685	-0.45039
1602.000	-12.18122	-0.97029	-12.60367	-0.46983
1603.000	-12.15288	-0.97622	-12.56601	-0.48932
1604.000	-12.10753	-1.01139	-12.65262	-0.47168
1605.000	-12.14344	-1.01320	-12.66203	-0.41926
1606.000	-12.08863	-0.95895	-12.58107	-0.47764
1607.000	-12.13966	-1.00932	-12.67332	-0.49688
1608.000	-12.09997	-0.96864	-12.57731	-0.42328
1609.000	-12.12643	-1.01132	-12.64885	-0.50080
1610.000	-12.15099	-1.00539	-12.64509	-0.48917
1611.000	-12.12832	-0.99187	-12.62250	-0.45427
1612.000	-12.10753	-0.96083	-12.60179	-0.43489
1613.000	-12.10375	-0.99585	-12.63379	-0.43289
1614.000	-12.13777	-0.99183	-12.60744	-0.49118
1615.000	-12.10942	-0.98610	-12.58296	-0.50482
1616.000	-12.14155	-0.98598	-12.66391	-0.43478
1617.000	-12.16989	-1.01115	-12.64509	-0.48528
1618.000	-12.13588	-1.00739	-12.62438	-0.52803
1619.000	-12.14910	-0.99373	-12.69025	-0.51431
1620.000	-12.13399	-1.02296	-12.58484	-0.52617
1621.000	-12.14721	-1.01707	-12.62815	-0.44843
1622.000	-12.11698	-1.01135	-12.62438	-0.45621
1623.000	-12.11698	-1.03080	-12.61120	-0.45235
1624.000	-12.12454	-1.02105	-12.70154	-0.53757
1625.000	-12.10186	-0.98613	-12.61873	-0.49698
1626.000	-12.09052	-0.99395	-12.63568	-0.52218
1627.000	-12.12076	-0.95495	-12.65638	-0.53961
1628.000	-12.12643	-1.03076	-12.67520	-0.50075
1629.000	-12.09241	-1.00561	-12.69402	-0.51430
1630.000	-12.16611	-1.00339	-12.70342	-0.58026
1631.000	-12.08107	-1.00371	-12.64509	-0.52799
1632.000	-12.09430	-1.00366	-12.61685	-0.53969
1633.000	-12.12265	-1.00356	-12.66014	-0.43867
1634.000	-12.09808	-0.96281	-12.62250	-0.47174
1635.000	-12.13588	-0.98017	-12.69778	-0.53564
1636.000	-12.12643	-1.02493	-12.65638	-0.54155
1637.000	-12.13966	-0.94321	-12.59614	-0.47761
1638.000	-12.15477	-1.00927	-12.69213	-0.53759
1639.000	-12.12454	-1.05799	-12.67520	-0.44253
1640.000	-12.14155	-0.99960	-12.69213	-0.50460
1641.000	-12.12643	-0.99187	-12.67144	-0.53764
1642.000	-12.10753	-0.99194	-12.62438	-0.53191
1643.000	-12.12643	-0.99965	-12.60932	-0.53583
1644.000	-12.10375	-1.02502	-12.68273	-0.52597
1645.000	-12.14721	-0.97430	-12.63003	-0.53772
1646.000	-12.09052	-1.00757	-12.60932	-0.51059
1647.000	-12.16989	-0.95088	-12.62438	-0.44456
1648.000	-12.16422	-0.99562	-12.62250	-0.49697
1649.000	-12.13777	-0.98989	-12.60744	-0.51836
1650.000	-12.15477	-0.98788	-12.62438	-0.54938
1651.000	-12.13588	-0.96656	-12.67520	-0.44253
1652.000	-12.17744	-1.00529	-12.69402	-0.47743
1653.000	-12.12643	-0.99382	-12.67896	-0.50463
1654.000	-12.09808	-1.01532	-12.76173	-0.48700
1655.000	-12.16422	-0.98979	-12.70154	-0.50070
1656.000	-12.16800	-0.99366	-12.68085	-0.48328
1657.000	-12.16989	-0.94505	-12.73540	-0.52392
1658.000	-12.17177	-0.95865	-12.67708	-0.50269
1659.000	-12.13399	-0.99573	-12.70154	-0.51040
1660.000	-12.17366	-1.02669	-12.68461	-0.47356
1661.000	-12.18500	-1.01887	-12.68273	-0.49880
1662.000	-12.16044	-0.98786	-12.63568	-0.50083
1663.000	-12.15288	-0.97233	-12.61497	-0.46205
1664.000	-12.14155	-1.01515	-12.57731	-0.44076
1665.000	-12.02245	-0.99226	-12.46426	-0.48368
1666.000	-11.90514	-0.99074	-12.35866	-0.39838
1667.000	-11.83888	-1.00850	-12.21144	-0.39277
1668.000	-11.60385	-0.99183	-11.98840	-0.41839
1669.000	-11.32091	-0.96942	-11.65695	-0.36240
1670.000	-10.92500	-0.92777	-11.24295	-0.28293
1671.000	-10.52038	-0.89968	-10.82013	-0.23644
1672.000	-10.08979	-0.96749	-10.36933	-0.22505
1673.000	-9.36960	-0.81847	-9.76177	-0.13528
1674.000	-8.87622	-0.76458	-9.16740	-0.13748
1675.000	-8.17628	-0.69313	-8.65028	-0.11407
1676.000	-7.63320	-0.58758	-7.90104	-0.10050
1677.000	-6.99331	-0.49760	-7.30473	-0.04341
1678.000	-6.35166	-0.47255	-6.73412	-0.01581
1679.000	-5.80627	-0.29886	-6.07422	-0.05737
1680.000	-5.24609	-0.27141	-5.54003	-0.11683
1681.000	-4.94208	-0.18433	-5.08333	-0.07332
1682.000	-4.38825	-0.19241	-4.46686	-0.00793
1683.000	-4.07366	-0.20638	-4.03038	-0.13693
1684.000	-3.57570	-0.18267	-3.60327	-0.01986
1685.000	-3.08115	-0.13906	-3.05749	-0.02781
1686.000	-2.68281	-0.09340	-2.75579	-0.06756
1687.000	-2.30197	-0.07156	-2.24867	0.00994
1688.000	-1.93475	0.04971	-1.95450	-0.05368
1689.000	-1.49823	0.03381	-1.50810	-0.02188
1690.000	-1.09315	0.02387	-1.06943	0.00597
1691.000	-0.49819	0.08753	-0.58517	0.00995
1692.000	-0.10874	0.08157	-0.26887	0.10146
1693.000	0.33016	0.05570	0.19968	0.00995
1694.000	0.77098	0.07758	0.58320	0.02387
1695.000	1.23346	0.10343	0.95678	0.08354
1696.000	1.60096	0.11733	1.29867	0.20287
1697.000	1.90710	0.08351	1.59305	0.19091
1698.000	2.20327	0.15109	1.77083	0.31617
1699.000	2.51905	0.14310	2.21709	0.25446
1700.000	2.80510	0.20864	2.37500	0.38363
1701.000	3.00032	0.25231	2.57430	0.35376
1702.000	3.29401	0.30189	2.89582	0.40333
1703.000	3.55601	0.35740	3.04961	0.37149
1704.000	3.78834	0.43274	3.28021	0.47071
1705.000	4.01071	0.45842	3.51268	0.55598
1706.000	4.25851	0.50391	3.79818	0.61336
1707.000	4.44918	0.57716	3.99890	0.60329
1708.000	4.59653	0.62265	4.17396	0.65673
1709.000	4.75168	0.66811	4.27228	0.63482
1710.000	4.86161	0.67989	4.36074	0.72202
1711.000	4.94404	0.68971	4.41577	0.78543
1712.000	4.97936	0.64212	4.46686	0.73778
1713.000	4.97543	0.66392	4.57296	0.80310
1714.000	4.97347	0.65996	4.47079	0.80520
1715.000	4.95777	0.65007	4.40594	0.84295
1716.000	4.87535	0.64024	4.40398	0.77354
1717.000	4.73597	0.65623	4.27817	0.70425
1718.000	4.66135	0.64440	4.19363	0.78367
1719.000	4.57099	0.67026	4.08939	0.63696
1720.000	4.49634	0.68024	4.12283	0.75597
1721.000	4.43542	0.66642	4.00284	0.67274
1722.000	4.37646	0.63870	3.95168	0.63310
1723.000	4.39022	0.59704	4.02448	0.68066
1724.000	4.38039	0.60895	4.10119	0.64488
1725.000	4.43739	0.63469	4.12873	0.68454
1726.000	4.51205	0.57910	4.12283	0.62899
1727.000	4.59849	0.55523	4.22509	0.60907
1728.000	4.66724	0.56906	4.22116	0.62296
1729.000	4.81450	0.55110	4.33518	0.58320
1730.000	4.85965	0.56493	4.40005	0.62480
1731.000	4.97936	0.54501	4.51402	0.55331
1732.000	5.08922	0.53700	4.49634	0.66240
1733.000	5.19708	0.54285	4.60439	0.64247
1734.000	5.26178	0.54874	4.57296	0.60284
1735.000	5.32254	0.54868	4.63581	0.56908
1736.000	5.35586	0.55261	4.60046	0.66428
1737.000	5.40877	0.56247	4.69080	0.61265
1738.000	5.41465	0.54068	4.72222	0.59280
1739.000	5.41661	0.54067	4.66527	0.54725
1740.000	5.47343	0.56241	4.63385	0.63451
1741.000	5.42641	0.56047	4.62403	0.63650
1742.000	5.42249	0.62978	4.64367	0.57701
1743.000	5.38722	0.61002	4.50616	0.64851
1744.000	5.40485	0.62584	4.56314	0.64449
1745.000	5.34214	0.63779	4.53367	0.67030
1746.000	5.32254	0.64177	4.55724	0.67622
1747.000	5.29314	0.64576	4.57885	0.63456
1748.000	5.27158	0.65569	4.43935	0.65452
1749.000	5.24609	0.62798	4.34501	0.74782
1750.000	5.25198	0.66561	4.41970	0.70411
1751.000	5.22845	0.67951	4.42363	0.59503
1752.000	5.21080	0.68745	4.40791	0.68429
1753.000	5.24217	0.70128	4.38629	0.70811
1754.000	5.19708	0.64784	4.37450	0.62879
1755.000	5.18139	0.65777	4.35091	0.66848
1756.000	5.21669	0.63198	4.23689	0.68841
1757.000	5.22453	0.68347	4.31159	0.67843
1758.000	5.14609	0.65780	4.26441	0.66260
1759.000	5.17355	0.66570	4.30176	0.67844
1760.000	5.17355	0.63994	4.24868	0.65468
1761.000	5.12452	0.62811	4.22116	0.65669
1762.000	5.16374	0.60033	4.33322	0.69031
1763.000	5.16178	0.63996	4.34108	0.70022
1764.000	5.15982	0.63600	4.26441	0.70029
1765.000	5.11864	0.66774	4.35091	0.67046
1766.000	5.15786	0.67562	4.29980	0.69431
1767.000	5.16767	0.61023	4.30570	0.65265
1768.000	5.16374	0.63599	4.23492	0.68643
1769.000	5.14021	0.65385	4.28997	0.68837
1770.000	5.18728	0.67559	4.23885	0.64080
1771.000	5.16963	0.64589	4.30176	0.66654
1772.000	5.13237	0.60829	4.32732	0.65461
1773.000	5.16963	0.63400	4.40201	0.69620
1774.000	5.19120	0.61813	4.34501	0.67642
1775.000	5.16571	0.64589	4.48062	0.67431
1776.000	5.18728	0.67163	4.31159	0.65859
1777.000	5.18139	0.66371	4.36270	0.64467
1778.000	5.17747	0.62013	4.40791	0.65653
1779.000	5.19904	0.59039	4.40594	0.65455
1780.000	5.21473	0.63198	4.41380	0.69420
1781.000	5.18335	0.59833	4.47276	0.58111
1782.000	5.18728	0.63002	4.40791	0.66446
1783.000	5.19904	0.62011	4.33125	0.64469
1784.000	5.18531	0.63201	4.50420	0.64454
1785.000	5.19708	0.66567	4.36467	0.61095
1786.000	5.22257	0.63395	4.47079	0.66242
1787.000	5.20296	0.64189	4.45114	0.62674
1788.000	5.22257	0.61414	4.45507	0.66640
1789.000	5.20884	0.62406	4.44525	0.60493
1790.000	5.19512	0.64190	4.43542	0.65849
1791.000	5.20688	0.63199	4.47669	0.71001
1792.000	5.19512	0.67360	4.48455	0.73181
1793.000	5.22257	0.67753	4.44918	0.67236
1794.000	5.20100	0.67161	4.45114	0.65847
1795.000	5.16571	0.66967	4.46097	0.65450
1796.000	5.18924	0.63795	4.39022	0.61489
1797.000	5.20884	0.69339	4.43149	0.66444
1798.000	5.20884	0.66962	4.38432	0.63870
1799.000	5.20492	0.65180	4.49437	0.67231
1800.000	5.21277	0.65575	4.43346	0.64461
1801.000	5.21865	0.67159	4.53170	0.56916
1802.000	5.24021	0.68345	4.43149	0.60494
1803.000	5.21473	0.68348	4.43346	0.69220
1804.000	5.26374	0.64579	4.51009	0.61479
1805.000	5.29902	0.73291	4.55724	0.67622
1806.000	5.23629	0.66167	4.47669	0.62275
1807.000	5.23433	0.67950	4.45704	0.62872
1808.000	5.27158	0.69927	4.45704	0.62475
1809.000	5.23433	0.69931	4.46883	0.59103
1810.000	5.25002	0.69335	4.45114	0.54345
1811.000	5.24021	0.68345	4.46883	0.65251
1812.000	5.25198	0.68146	4.40201	0.63472
1813.000	5.23629	0.65375	4.51205	0.55332
1814.000	5.23825	0.65374	4.48455	0.66836
1815.000	5.23629	0.66563	4.45704	0.60889
1816.000	5.27354	0.67153	4.47079	0.58706
1817.000	5.26178	0.70522	4.49830	0.62472
1818.000	5.23237	0.68544	4.51991	0.61875
1819.000	5.25786	0.67947	4.38629	0.64861
1820.000	5.22649	0.65178	4.50616	0.65446
1821.000	5.23433	0.67752	4.40005	0.57522
1822.000	5.18728	0.73502	4.48062	0.66439
1823.000	5.19316	0.66370	4.44525	0.69417
1824.000	5.20296	0.73302	4.44918	0.54741
1825.000	5.21473	0.72310	4.44525	0.62278
1826.000	5.17355	0.71126	4.40594	0.65455
1827.000	5.17159	0.69938	4.42953	0.68626
1828.000	5.21277	0.73895	4.39415	0.71207
1829.000	5.18335	0.69936	4.45900	0.73382
1830.000	5.21669	0.71319	4.48651	0.60490
1831.000	5.19708	0.64784	4.39808	0.60497
1832.000	5.18728	0.70728	4.47472	0.64060
1833.000	5.17551	0.64985	4.43935	0.66642
1834.000	5.18924	0.60229	4.43935	0.63667
1835.000	5.20688	0.65972	4.39218	0.72397
1836.000	5.23433	0.67356	4.47276	0.66638
1837.000	5.22845	0.67752	4.53170	0.61676
1838.000	5.24806	0.62600	4.43149	0.70014
1839.000	5.25786	0.69928	4.44721	0.65054
1840.000	5.21277	0.66169	4.33715	0.66849
1841.000	5.21865	0.66565	4.50420	0.70403
1842.000	5.20688	0.65972	4.36663	0.59706
1843.000	5.18924	0.67361	4.46490	0.71399
1844.000	5.22649	0.68941	4.43346	0.66444
1845.000	5.17355	0.63202	4.44132	0.68030
1846.000	5.17943	0.63201	4.40398	0.66050
1847.000	5.14217	0.63007	4.46883	0.64259
1848.000	5.16374	0.65976	4.48062	0.62473
1849.000	5.16374	0.65976	4.53760	0.69607
1850.000	5.18531	0.63399	4.46686	0.71002
1851.000	5.18924	0.66766	4.44721	0.67434
1852.000	5.14021	0.63601	4.52581	0.66435
1853.000	5.16963	0.65580	4.48651	0.67232
1854.000	5.20100	0.69340	4.56706	0.66630
1855.000	5.19904	0.67161	4.40594	0.66446
1856.000	5.18139	0.67559	4.45114	0.73383
1857.000	5.20884	0.67160	4.46686	0.71398
1858.000	5.19904	0.68548	4.45704	0.70606
1859.000	5.24413	0.74486	4.48651	0.71000
1860.000	5.19708	0.66567	4.43739	0.69418
1861.000	5.21277	0.71122	4.49830	0.67826
1862.000	5.18531	0.66767	4.45900	0.71598
1863.000	5.20688	0.65972	4.48455	0.67827
1864.000	5.17551	0.68551	4.51795	0.70204
1865.000	5.18335	0.67361	4.52384	0.68220
1866.000	5.18728	0.69540	4.56314	0.61078
1867.000	5.14609	0.63799	4.45311	0.66442
1868.000	5.19316	0.66964	4.51402	0.66833
1869.000	5.20100	0.70727	4.50616	0.71990
1870.000	5.15394	0.64987	4.47669	0.67630
1871.000	5.15198	0.68949	4.49241	0.63860
1872.000	5.18335	0.68550	4.50616	0.71990
1873.000	5.16963	0.71919	4.48848	0.69810
1874.000	5.15002	0.71921	4.46686	0.63863
1875.000	5.15786	0.65185	4.49634	0.72387
1876.000	5.17159	0.71721	4.51795	0.60487
1877.000	5.15982	0.71524	4.51795	0.71988
1878.000	5.19708	0.69539	4.51205	0.68618
1879.000	5.18139	0.67163	4.46097	0.70606
1880.000	5.17747	0.68947	4.61224	0.64246
1881.000	5.21080	0.70132	4.54742	0.62468
1882.000	5.21865	0.68942	4.51205	0.70601
1883.000	5.21277	0.67556	4.49241	0.59101
1884.000	5.24021	0.69138	4.45311	0.61087
1885.000	5.19904	0.69539	4.57689	0.70198
1886.000	5.21080	0.70528	4.53367	0.64650
1887.000	5.20492	0.72905	4.48455	0.67827
1888.000	5.16767	0.68750	4.60242	0.63058
1889.000	5.18728	0.65776	4.41380	0.67635
1890.000	5.18531	0.67757	4.46293	0.59897
1891.000	5.18924	0.68153	4.53563	0.70202
1892.000	5.18531	0.72512	4.52188	0.71591
1893.000	5.20296	0.70529	4.54153	0.60287
1894.000	5.17355	0.71126	4.49634	0.66041
1895.000	5.19904	0.72510	4.52188	0.66237
1896.000	5.18924	0.73898	4.57689	0.74758
1897.000	5.20100	0.73698	4.52777	0.62469
1898.000	5.12648	0.69943	4.47472	0.58507
1899.000	5.18924	0.66766	4.55528	0.76545
1900.000	5.22061	0.68546	4.49437	0.61481
1901.000	5.19512	0.69539	4.47472	0.64457
1902.000	5.23825	0.67950	4.52777	0.68220
1903.000	5.18139	0.65380	4.52384	0.69608
1904.000	5.16374	0.68354	4.55921	0.60087
1905.000	5.20296	0.62010	4.54153	0.64253
1906.000	5.19512	0.65577	4.58082	0.62861
1907.000	5.18335	0.70333	4.55724	0.64450
1908.000	5.21080	0.63991	4.54742	0.70994
1909.000	5.20100	0.66567	4.50027	0.71792
1910.000	5.20492	0.66368	4.54938	0.69606
1911.000	5.21473	0.70725	4.56117	0.70001
1912.000	5.18139	0.70135	4.60832	0.63850
1913.000	5.20884	0.63000	4.45114	0.65649
1914.000	5.22845	0.66762	4.54349	0.69606
1915.000	5.20100	0.69538	4.57492	0.69207
1916.000	5.22649	0.70526	4.50420	0.63264
1917.000	5.20492	0.68349	4.57099	0.69802
1918.000	5.22257	0.69140	4.54938	0.70201
1919.000	5.24413	0.68741	4.58671	0.65240
1920.000	5.21865	0.68348	4.56117	0.72381
1921.000	5.21865	0.68546	4.56706	0.70199
1922.000	5.25394	0.70127	4.59064	0.64248
1923.000	5.22257	0.72903	4.61028	0.68014
1924.000	5.23041	0.68743	4.59457	0.70791
1925.000	5.24806	0.67552	4.49437	0.69214
1926.000	5.24806	0.68543	4.61617	0.61074
1927.000	5.23237	0.68742	4.58082	0.74758
1928.000	5.21865	0.69338	4.57885	0.65836
1929.000	5.25394	0.66561	4.55921	0.68019
1930.000	5.24806	0.64581	4.51598	0.73377
1931.000	5.23825	0.73100	4.55724	0.64450
1932.000	5.21865	0.70329	4.57492	0.67621
1933.000	5.24806	0.70325	4.55724	0.62268
1934.000	5.19316	0.67756	4.56510	0.67820
1935.000	5.26374	0.69729	4.54545	0.72580
1936.000	5.26374	0.71116	4.57689	0.64646
1937.000	5.22845	0.67158	4.53563	0.64253
1938.000	5.27158	0.70323	4.57689	0.67224
1939.000	5.25002	0.69335	4.54545	0.62269
1940.000	5.24609	0.67552	4.56117	0.72381
1941.000	5.21277	0.69339	4.50616	0.66239
1942.000	5.24021	0.68544	4.56903	0.67224
1943.000	5.23237	0.68742	4.56510	0.65639
1944.000	5.22845	0.67158	4.53367	0.64650
1945.000	5.22845	0.66960	4.56510	0.72777
1946.000	5.22061	0.65971	4.51009	0.67428
1947.000	5.31470	0.63584	4.55331	0.78528
1948.000	5.30490	0.60614	4.65153	0.78914
1949.000	5.39506	0.67338	4.73597	0.81283
1950.000	5.53807	0.66332	4.88124	0.83247
1951.000	5.69275	0.75617	5.04999	0.80254
1952.000	5.94125	0.85871	5.13629	1.07580
1953.000	6.21493	0.98680	5.39897	1.04961
1954.000	6.52150	1.10476	5.59290	1.16406
1955.000	6.81795	1.33906	5.90800	1.29396
1956.000	7.09262	1.59081	6.10549	1.45758
1957.000	7.38835	1.71987	6.36338	1.59715
1958.000	7.61766	1.86474	6.51955	1.73885
1959.000	7.83508	2.05867	6.66977	1.76793
1960.000	7.94565	2.16831	6.78676	1.88789
1961.000	8.03289	2.28979	6.84329	2.09088
1962.000	8.08135	2.46255	6.96020	2.10416
1963.000	7.99994	2.42568	6.86667	2.19531
1964.000	7.89910	2.53642	6.86083	2.17956
1965.000	7.80015	2.55276	6.78481	2.14242
1966.000	7.60406	2.55591	6.61906	2.11947
1967.000	7.38641	2.54931	6.45514	2.05304
1968.000	7.15686	2.49545	6.30284	1.95688
1969.000	6.96604	2.37032	6.12895	1.93974
1970.000	6.74777	2.28068	5.98623	1.88689
1971.000	6.58004	2.20647	5.81214	1.80247
1972.000	6.44733	2.07084	5.72603	1.71177
1973.000	6.34190	1.95870	5.75930	1.57718
1974.000	6.28331	1.80682	5.75930	1.58509
1975.000	6.29112	1.71789	5.71233	1.45664
1976.000	6.28331	1.63099	5.68688	1.46264
1977.000	6.33213	1.55970	5.76909	1.35957
1978.000	6.38876	1.52397	5.83953	1.43060
1979.000	6.45514	1.52180	5.99797	1.37878
1980.000	6.50979	1.47225	6.03121	1.46569
1981.000	6.66002	1.52907	6.01361	1.38270
1982.000	6.71267	1.57826	6.07031	1.50908
1983.000	6.77896	1.62345	6.15631	1.48907
1984.000	6.84329	1.63507	6.20321	1.60554
1985.000	6.89785	1.70987	6.10549	1.63746
1986.000	6.90954	1.69010	6.14849	1.66895
1987.000	6.96020	1.78067	6.26573	1.71600
1988.000	6.99526	1.81605	6.18562	1.67477
1989.000	6.96214	1.85958	6.24619	1.77534
1990.000	7.02447	1.90075	6.23251	1.68252
1991.000	7.03615	1.89281	6.22665	1.73589
1992.000	7.02642	1.93822	6.21688	1.77149
1993.000	7.07510	1.94590	6.25205	1.80100
1994.000	7.03421	1.96777	6.26377	1.83850
1995.000	7.03421	1.97171	6.24619	1.80893
1996.000	7.03421	1.96777	6.25010	1.83065
1997.000	7.03031	1.97961	6.24033	1.81092
1998.000	7.01278	2.02899	6.21102	1.80905
1999.000	7.01668	1.98756	6.19148	1.84863
2000.000	7.01473	1.98757	6.20712	1.74188
2001.000	7.03421	1.99340	6.28331	1.86411
2002.000	6.98162	1.96404	6.29307	1.75740
2003.000	7.00110	2.01327	6.23056	1.88208
2004.000	7.01278	2.00336	6.30674	1.84822
2005.000	6.98552	2.06264	6.25010	1.86621
2006.000	7.01473	2.00137	6.20516	1.79721
2007.000	6.97578	1.99957	6.21688	1.80903
2008.000	6.97383	1.98774	6.23642	1.75759
2009.000	6.98941	1.94626	6.23251	1.84256
2010.000	6.97773	1.96011	6.18758	1.75183
2011.000	6.95046	1.95431	6.29307	1.78308
2012.000	6.99331	1.97583	6.25987	1.73776
2013.000	6.96214	2.00357	6.20125	1.78932
2014.000	6.95825	1.98189	6.17390	1.74792
2015.000	6.94461	1.93658	6.19148	1.76367
2016.000	6.94071	1.87742	6.26377	1.77528
2017.000	6.95435	1.94443	6.20125	1.71029
2018.000	6.94656	1.95038	6.22665	1.74577
2019.000	6.92123	1.91498	6.17781	1.77557
2020.000	6.94461	1.93855	6.24619	1.79510
2021.000	6.89396	1.93679	6.24619	1.75953
2022.000	6.90370	1.87559	6.18367	1.78346
2023.000	6.93487	1.92873	6.15826	1.75192
2024.000	6.96214	1.89114	6.27354	1.74166
2025.000	6.97188	1.92266	6.22079	1.69441
2026.000	6.94071	1.92673	6.26182	1.75948
2027.000	6.95046	1.91289	6.27159	1.70808
2028.000	6.94656	1.95235	6.20321	1.75968
2029.000	6.93682	1.93464	6.21298	1.74581
2030.000	6.95630	1.93062	6.13481	1.75793
2031.000	6.96020	1.89115	6.23251	1.77144
2032.000	6.97773	1.93250	6.29893	1.83838
2033.000	6.97383	1.90490	6.18367	1.69651
2034.000	6.95630	1.92273	6.23642	1.78525
2035.000	6.96799	1.93254	6.19930	1.83675
2036.000	6.95435	1.93260	6.15631	1.82109
2037.000	6.95630	1.88919	6.14067	1.81719
2038.000	6.97578	1.89898	6.27745	1.81672
2039.000	6.96020	1.88128	6.20712	1.83870
2040.000	6.93877	1.84981	6.16022	1.81317
2041.000	6.96994	1.89703	6.24424	1.83659
2042.000	6.97383	1.87334	6.26573	1.80491
2043.000	6.97773	1.89897	6.25987	1.82073
2044.000	6.99136	1.92258	6.25596	1.80297
2045.000	6.96799	1.86547	6.20321	1.75968
2046.000	6.95240	1.91880	6.14458	1.84089
2047.000	6.98941	1.91470	6.20516	1.77745
2048.000	6.97383	1.88320	6.23056	1.81293
2049.000	6.96604	1.87929	6.20125	1.76364
2050.000	6.95435	1.84975	6.19148	1.79726
2051.000	6.99136	1.89102	6.26377	1.77528
2052.000	7.01084	1.82388	6.27354	1.83254
2053.000	6.97773	1.84571	6.22665	1.81887
2054.000	6.94851	1.80242	6.33018	1.84617
2055.000	6.98357	1.88316	6.33018	1.81061
2056.000	6.99720	1.86536	6.21493	1.73395
2057.000	6.94071	1.83599	6.28721	1.89373
2058.000	6.99331	1.83381	6.26963	1.75155
2059.000	6.96799	1.88323	6.22470	1.78134
2060.000	6.96214	1.84577	6.29698	1.78702
2061.000	6.93877	1.85967	6.20321	1.73399
2062.000	7.00305	1.86928	6.19930	1.87626
2063.000	6.98747	1.87131	6.25010	1.73384
2064.000	7.02057	1.86921	6.15240	1.77763
2065.000	6.99136	1.90483	6.22665	1.81097
2066.000	6.99915	1.87521	6.26963	1.73575
2067.000	6.99136	1.87721	6.22861	1.76552
2068.000	6.96799	1.86942	6.27354	1.85822
2069.000	6.95435	1.87144	6.32432	1.85014
2070.000	6.98357	1.86344	6.29893	1.79887
2071.000	6.99720	1.86338	6.25791	1.86815
2072.000	6.96994	1.83982	6.21884	1.78334
2073.000	6.97967	1.85951	6.24033	1.83266
2074.000	7.00305	1.90281	6.19344	1.84665
2075.000	6.96799	1.88323	6.25010	1.86621
2076.000	6.95046	1.83003	6.24033	1.88600
2077.000	6.94071	1.82612	6.31260	1.78104
2078.000	6.96214	1.85169	6.24033	1.84846
2079.000	6.96994	1.92661	6.35166	1.84411
2080.000	6.93877	1.87743	6.30284	1.81071
2081.000	6.96604	1.88521	6.25596	1.88989
2082.000	6.95825	1.85565	6.30674	1.83242
2083.000	6.96214	1.86352	6.31651	1.84029
2084.000	6.99331	1.86537	6.26573	1.76342
2085.000	6.98552	1.87724	6.31651	1.77313
2086.000	6.95630	1.88327	6.30674	1.75735
2087.000	6.97383	1.89307	6.28331	1.85028
2088.000	6.96799	1.89703	6.34971	1.75128
2089.000	6.97383	1.80627	6.24033	1.80500
2090.000	6.97967	1.86148	6.35362	1.80658
2091.000	6.97578	1.83980	6.17976	1.80323
2092.000	6.98357	1.82990	6.28721	1.82261
2093.000	6.99331	1.86143	6.27159	1.79699
2094.000	6.95630	1.87933	6.31846	1.79682
2095.000	6.97188	1.87138	6.27354	1.77327
2096.000	6.97773	1.85952	6.23838	1.74375
2097.000	6.98162	1.83386	6.30674	1.77909
2098.000	6.99720	1.92453	6.22665	1.78331
2099.000	6.96799	1.85364	6.28526	1.81472
2100.000	6.98357	1.91078	6.34190	1.84612
2101.000	6.99526	1.89692	6.33799	1.75527
2102.000	7.01473	1.89290	6.28135	1.81473
2103.000	6.98162	1.88514	6.31651	1.76325
2104.000	6.99331	1.90285	6.28331	1.71199
2105.000	6.98357	1.82596	6.20907	1.76559
2106.000	7.00889	1.89292	6.31260	1.72770
2107.000	6.99915	1.91072	6.36533	1.85789
2108.000	7.03031	1.87114	6.34971	1.76709
2109.000	6.99526	1.88312	6.27354	1.79895
2110.000	6.97967	1.86543	6.19735	1.86047
2111.000	6.98357	1.88711	6.30284	1.83046
2112.000	6.97383	1.89701	6.25400	1.73777
2113.000	7.02057	1.89090	6.32237	1.78298
2114.000	7.01668	1.84161	6.28917	1.78705
2115.000	7.01863	1.88302	6.26768	1.87800
2116.000	7.02642	1.90074	6.26768	1.71600
2117.000	7.01473	1.91065	6.29698	1.74158
2118.000	7.01084	1.87319	6.28135	1.79103
2119.000	6.97383	1.83586	6.26377	1.78713
2120.000	7.01278	1.92249	6.21688	1.75963
2121.000	6.99331	1.87326	6.32628	1.76914
2122.000	6.99720	1.88114	6.21884	1.75172
2123.000	7.02057	1.87512	6.21493	1.78335
2124.000	7.00110	1.87323	6.32432	1.72766
2125.000	6.99136	1.87130	6.33018	1.68813
2126.000	6.96799	1.87534	6.28526	1.84237
2127.000	7.01278	1.91066	6.27940	1.71003
2128.000	6.98552	1.87527	6.31065	1.74944
2129.000	7.00694	1.90279	6.29112	1.71592
2130.000	7.03421	1.84943	6.33213	1.73751
2131.000	7.02057	1.87710	6.22470	1.74380
2132.000	7.01278	1.87516	6.29893	1.72972
2133.000	7.03226	1.88691	6.22079	1.78926
2134.000	7.03226	1.90072	6.28917	1.77717
2135.000	7.01668	1.86528	6.22275	1.68453
2136.000	7.03421	1.88493	6.32432	1.74742
2137.000	7.04589	1.86516	6.37510	1.70379
2138.000	7.01473	1.85148	6.30284	1.77515
2139.000	7.05368	1.87894	6.33018	1.71974
2140.000	7.02447	1.86525	6.33213	1.65454
2141.000	7.00499	1.86533	6.22470	1.75763
2142.000	7.03615	1.85337	6.26573	1.77923
2143.000	7.01084	1.81007	6.27940	1.83054
2144.000	7.01473	1.89487	6.31846	1.73163
2145.000	6.98941	1.80226	6.23056	1.77144
2146.000	7.02252	1.81003	6.28331	1.72780
2147.000	7.04784	1.88488	6.29698	1.72973
2148.000	7.01278	1.81795	6.30674	1.73957
2149.000	7.03031	1.84944	6.25010	1.73976
2150.000	7.05952	1.89469	6.22079	1.73393
2151.000	6.99526	1.84169	6.23251	1.74773
2152.000	7.04978	1.76652	6.29112	1.72975
2153.000	7.02252	1.77649	6.23642	1.69239
2154.000	7.02057	1.80609	6.32628	1.75531
2155.000	7.05952	1.81974	6.34190	1.76316
2156.000	7.04589	1.87305	6.26377	1.71798
2157.000	7.04394	1.86320	6.29893	1.70009
2158.000	7.04978	1.78230	6.27549	1.70807
2159.000	7.04394	1.86714	6.34971	1.75523
2160.000	7.03226	1.83760	6.39853	1.78272
2161.000	7.02836	1.82973	6.24228	1.78721
2162.000	7.02252	1.87314	6.29503	1.72381
2163.000	7.01863	1.86922	6.25205	1.79310
2164.000	7.05368	1.81582	6.21493	1.83077
2165.000	7.07120	1.83548	6.18171	1.78544
2166.000	7.03031	1.83366	6.30870	1.78303
2167.000	7.03031	1.85536	6.30674	1.76526
2168.000	7.04005	1.77248	6.24619	1.84844
2169.000	7.04589	1.83558	6.26768	1.72192
2170.000	7.02447	1.83369	6.18367	1.76962
2171.000	7.04589	1.83360	6.17194	1.85068
2172.000	7.01668	1.87120	6.29503	1.87197
2173.000	7.03226	1.80407	6.23056	1.75959
2174.000	7.05563	1.88287	6.18953	1.80319
2175.000	7.04200	1.77839	6.25010	1.83065
2176.000	7.05563	1.81779	6.31456	1.86005
2177.000	7.18800	1.83501	6.46100	1.82990
2178.000	7.29695	1.79908	6.53126	1.79410
2179.000	7.42529	1.66256	6.77117	1.69059
2180.000	7.62931	1.56524	6.88616	1.58362
2181.000	7.88164	1.37918	7.28917	1.50730
2182.000	8.04840	1.21521	7.40196	1.41820
2183.000	8.33699	0.95262	7.72446	1.25557
2184.000	8.58070	0.74945	8.04258	1.02816
2185.000	8.89166	0.52871	8.37956	0.85217
2186.000	9.09417	0.24752	8.55750	0.54099
2187.000	9.34843	0.04711	8.95340	0.18669
2188.000	9.56772	-0.30407	9.16162	-0.02750
2189.000	9.69647	-0.58044	9.35613	-0.36314
2190.000	9.91148	-0.94647	9.44465	-0.60834
2191.000	9.97286	-1.18329	9.64076	-0.85116
2192.000	10.13386	-1.55850	9.75985	-1.09783
2193.000	10.20856	-1.76355	9.88270	-1.34817
2194.000	10.33872	-2.00915	9.97861	-1.53771
2195.000	10.50127	-2.20931	10.10129	-1.76023
2196.000	10.61209	-2.36275	10.16068	-1.87532
2197.000	10.80678	-2.43341	10.24686	-2.14660
2198.000	10.90784	-2.59442	10.35785	-2.14975
2199.000	11.04312	-2.64389	10.42862	-2.33290
2200.000	11.17828	-2.76925	10.52229	-2.31658
2201.000	11.29239	-2.77789	10.46304	-2.41076
2202.000	11.31520	-2.81270	10.56815	-2.45094
2203.000	11.36842	-2.86470	10.51274	-2.42014
2204.000	11.36272	-2.79861	10.52612	-2.38294
2205.000	11.43301	-2.77652	10.47642	-2.42042
2206.000	11.37222	-2.71679	10.44392	-2.29958
2207.000	11.38172	-2.63302	10.42671	-2.24110
2208.000	11.39312	-2.59593	10.40376	-2.16507
2209.000	11.30000	-2.52085	10.38464	-2.10658
2210.000	11.21632	-2.39107	10.29471	-1.95078
2211.000	11.16686	-2.32329	10.33872	-1.87818
2212.000	11.10976	-2.22824	10.32724	-1.75507
2213.000	11.01074	-2.16854	10.21814	-1.77328
2214.000	10.98979	-2.11409	10.29471	-1.71809
2215.000	10.94787	-2.06562	10.27174	-1.65172
2216.000	10.91356	-2.05806	10.16643	-1.69922
2217.000	10.92309	-2.04433	10.32150	-1.64754
2218.000	10.91928	-2.02290	10.26026	-1.67329
2219.000	10.94787	-2.12804	10.26026	-1.56571
2220.000	10.99931	-2.11207	10.26217	-1.67915
2221.000	11.02788	-2.14501	10.29662	-1.71808
2222.000	11.06216	-2.22275	10.31959	-1.78835
2223.000	11.10215	-2.27897	10.29471	-1.85302
2224.000	11.17257	-2.34078	10.35594	-1.84875
2225.000	11.22203	-2.42609	10.26983	-1.92552
2226.000	11.25627	-2.47060	10.40950	-1.99111
2227.000	11.33041	-2.52058	10.50127	-2.10188
2228.000	11.37792	-2.51238	10.50127	-2.04327
2229.000	11.38362	-2.55515	10.48407	-2.09614
2230.000	11.43301	-2.58973	10.43436	-2.09843
2231.000	11.44061	-2.57993	10.48598	-2.08245
2232.000	11.48239	-2.62819	10.45730	-2.16079
2233.000	11.46720	-2.63612	10.50318	-2.12531
2234.000	11.44251	-2.62467	10.52994	-2.08606
2235.000	11.46530	-2.66726	10.52420	-2.11540
2236.000	11.42351	-2.65598	10.55478	-2.12105
2237.000	11.43111	-2.68899	10.51274	-2.08031
2238.000	11.45770	-2.66539	10.45539	-2.19401
2239.000	11.43111	-2.66758	10.49936	-2.10580
2240.000	11.44441	-2.67135	10.34064	-2.12055
2241.000	11.45200	-2.65961	10.41715	-2.17670
2242.000	11.39122	-2.68937	10.42671	-2.02813
2243.000	11.44821	-2.63629	10.35403	-2.15173
2244.000	11.45200	-2.66350	10.34255	-2.17135
2245.000	11.46530	-2.64781	10.33298	-2.12451
2246.000	11.41592	-2.65800	10.36168	-2.09501
2247.000	11.42921	-2.62869	10.34446	-2.06385
2248.000	11.44061	-2.67722	10.41141	-2.07318
2249.000	11.45960	-2.63813	10.46495	-2.11971
2250.000	11.45390	-2.69461	10.37507	-2.15940
2251.000	11.41782	-2.66771	10.48598	-2.11175
2252.000	11.42541	-2.60342	10.50700	-2.07840
2253.000	11.41972	-2.62683	10.36168	-2.11259
2254.000	11.42541	-2.57618	10.50318	-2.10968
2255.000	11.38552	-2.60768	10.32533	-2.14020
2256.000	11.36272	-2.62346	10.39611	-2.04201
2257.000	11.41592	-2.61908	10.42671	-2.09457
2258.000	11.41022	-2.61913	10.38464	-2.05967
2259.000	11.41212	-2.59771	10.36551	-2.08912
2260.000	11.38932	-2.61932	10.42671	-2.03595
2261.000	11.39502	-2.56672	10.40950	-2.09664
2262.000	11.39502	-2.61538	10.34829	-2.07750
2263.000	11.44061	-2.68112	10.26408	-2.09370
2264.000	11.38742	-2.57847	10.37698	-2.08318
2265.000	11.44821	-2.59932	10.42097	-2.08484
2266.000	11.38552	-2.58822	10.33298	-2.06197
2267.000	11.40262	-2.58417	10.38464	-2.05577
2268.000	11.40452	-2.58999	10.38081	-2.06361
2269.000	11.45580	-2.61871	10.45922	-2.06504
2270.000	11.40642	-2.57635	10.38846	-2.07724
2271.000	11.45010	-2.59736	10.48598	-2.06487
2272.000	11.40262	-2.62893	10.47833	-2.12157
2273.000	11.46340	-2.61475	10.39994	-2.00681
2274.000	11.43871	-2.57800	10.38081	-2.06556
2275.000	11.44441	-2.56822	10.41715	-2.12590
2276.000	11.43871	-2.60719	10.47260	-2.08449
2277.000	11.41212	-2.59576	10.40185	-2.03025
2278.000	11.46340	-2.59529	10.44010	-2.03391
2279.000	11.41022	-2.58799	10.44201	-2.10424
2280.000	11.40072	-2.58030	10.40376	-2.07323
2281.000	11.41972	-2.61904	10.43627	-2.08474
2282.000	11.41782	-2.58014	10.45539	-2.03967
2283.000	11.40262	-2.59196	10.46877	-2.08843
2284.000	11.41402	-2.62688	10.44392	-2.11595
2285.000	11.39122	-2.56676	10.29662	-2.09348
2286.000	11.45200	-2.60902	10.41715	-2.04578
2287.000	11.39502	-2.61538	10.51847	-2.14864
2288.000	11.43111	-2.58586	10.38081	-2.11637
2289.000	11.41022	-2.60551	10.34829	-2.08141
2290.000	11.37792	-2.63500	10.37698	-2.08904
2291.000	11.44631	-2.62658	10.41141	-2.13571
2292.000	11.41782	-2.57236	10.42862	-2.05157
2293.000	11.44631	-2.57210	10.42289	-2.09264
2294.000	11.42731	-2.59368	10.41524	-2.13568
2295.000	11.42541	-2.57423	10.36933	-2.11059
2296.000	11.38362	-2.59602	10.41524	-2.12396
2297.000	11.37792	-2.58634	10.37125	-2.13403
2298.000	11.44821	-2.56624	10.37507	-2.11055
2299.000	11.41212	-2.58408	10.35211	-2.16347
2300.000	11.39122	-2.60179	10.37507	-2.11446
2301.000	11.40452	-2.56275	10.43245	-2.04568
2302.000	11.40452	-2.57832	10.39994	-2.11820
2303.000	11.36082	-2.54951	10.38846	-2.10655
2304.000	11.40452	-2.60167	10.45539	-2.03771
2305.000	11.41022	-2.56075	10.49171	-2.15860
2306.000	11.44441	-2.58184	10.43245	-2.14142
2307.000	11.42731	-2.58005	10.50700	-2.12333
2308.000	11.42162	-2.54118	10.39420	-2.07720
2309.000	11.43301	-2.63060	10.38464	-2.08899
2310.000	11.39692	-2.59201	10.44392	-2.06124
2311.000	11.41212	-2.59576	10.44774	-2.08857
2312.000	11.42731	-2.59757	10.44010	-2.11597
2313.000	11.43111	-2.58975	10.44201	-2.17457
2314.000	11.44251	-2.60521	10.34446	-2.11662
2315.000	11.41592	-2.56654	10.38081	-2.08120
2316.000	11.39502	-2.58813	10.41906	-2.07508
2317.000	11.40072	-2.57835	10.44392	-2.08078
2318.000	11.43111	-2.61310	10.45157	-2.05533
2319.000	11.41212	-2.60549	10.41141	-2.10053
2320.000	11.43681	-2.64418	10.45539	-2.10415
2321.000	11.40452	-2.62113	10.39994	-2.04199
2322.000	11.38932	-2.59986	10.42862	-2.12191
2323.000	11.44821	-2.58959	10.36551	-2.11843
2324.000	11.40642	-2.60944	10.35020	-2.05013
2325.000	11.44631	-2.61102	10.39229	-2.10066
2326.000	11.43871	-2.64222	10.36551	-1.99921
2327.000	11.42921	-2.62674	10.36742	-2.17314
2328.000	11.44821	-2.63240	10.47833	-2.12939
2329.000	11.43111	-2.62672	10.48789	-2.11955
2330.000	11.46530	-2.63224	10.40185	-2.05565
2331.000	11.44821	-2.56235	10.47260	-2.13529
2332.000	11.44631	-2.57210	10.45348	-2.12370
2333.000	11.45010	-2.59736	10.36359	-2.10476
2334.000	11.46150	-2.61671	10.40759	-2.09274
2335.000	11.47669	-2.63408	10.45922	-2.09630
2336.000	11.45200	-2.63626	10.40185	-2.10060
2337.000	11.41592	-2.58600	10.37316	-2.12033
2338.000	11.41592	-2.66773	10.49362	-2.10975
2339.000	11.44251	-2.63245	10.33298	-2.15579
2340.000	11.45390	-2.59733	10.45730	-2.14711
2341.000	11.44631	-2.57988	10.33490	-2.08932
2342.000	11.43301	-2.59168	10.43245	-2.04373
2343.000	11.44251	-2.61105	10.34255	-2.14790
2344.000	11.41782	-2.62490	10.42671	-2.13560
2345.000	11.43111	-2.61505	10.50700	-2.06473
2346.000	11.41022	-2.57632	10.40567	-2.16506
2347.000	11.42351	-2.64236	10.46304	-2.13731
2348.000	11.40262	-2.60558	10.36359	-2.07740
2349.000	11.43491	-2.62085	10.42480	-2.17274
2350.000	11.44441	-2.59741	10.47833	-2.15869
2351.000	11.40832	-2.63861	10.37507	-2.09492
2352.000	11.41592	-2.59962	10.34255	-2.09904
2353.000	11.41022	-2.57243	10.43818	-2.11208
2354.000	11.43681	-2.64029	10.39611	-2.18271
2355.000	11.38932	-2.59986	10.41141	-2.21386
2356.000	11.41782	-2.59960	10.45730	-2.06506
2357.000	11.39122	-2.60763	10.42480	-2.07504
2358.000	11.41212	-2.62495	10.42289	-2.07310
2359.000	11.39312	-2.64070	10.49554	-2.12145
2360.000	11.41212	-2.63274	10.43436	-2.15900
2361.000	11.40832	-2.60942	10.54714	-2.07227
2362.000	11.41972	-2.67937	10.35977	-2.14583
2363.000	11.47479	-2.56795	10.38464	-2.03818
2364.000	11.42541	-2.61899	10.49362	-2.14882
2365.000	11.47289	-2.64774	10.32533	-2.11675
2366.000	11.47099	-2.64581	10.42862	-2.07697
2367.000	11.45010	-2.64406	10.39037	-2.15735
2368.000	11.43681	-2.62278	10.44201	-2.04757
2369.000	11.45960	-2.62451	10.34446	-2.13030
2370.000	11.42541	-2.67737	10.44201	-2.09447
2371.000	11.45200	-2.62264	10.42862	-2.11214
2372.000	11.40262	-2.67758	10.43436	-2.04371
2373.000	11.41402	-2.63856	10.34446	-2.03257
2374.000	11.43301	-2.63643	10.43436	-2.14923
2375.000	11.40642	-2.66976	10.47642	-2.08837
2376.000	11.42162	-2.64238	10.41906	-2.06531
2377.000	11.43111	-2.60726	10.35594	-2.21816
2378.000	11.42162	-2.63459	10.51465	-2.14086
2379.000	11.44251	-2.65969	10.48024	-2.09421
2380.000	11.39882	-2.61729	10.57579	-2.07989
2381.000	11.42351	-2.62096	10.46304	-2.08456
2382.000	11.45390	-2.63040	10.40185	-2.15922
2383.000	11.44251	-2.61300	10.45539	-2.12564
2384.000	11.43681	-2.57024	10.46686	-2.06109
2385.000	11.43681	-2.64029	10.39229	-2.07721
2386.000	11.43111	-2.66564	10.47451	-2.09229
2387.000	11.46340	-2.62253	10.42480	-2.11608
2388.000	11.44631	-2.61102	10.47833	-2.10790
2389.000	11.43871	-2.60525	10.41906	-2.05359
2390.000	11.43871	-2.59941	10.49936	-2.11361
2391.000	11.44441	-2.59936	10.45157	-2.07682
2392.000	11.43111	-2.63256	10.43818	-2.15506
2393.000	11.48808	-2.63398	10.42671	-2.08285
2394.000	11.43681	-2.62667	10.42289	-2.14149
2395.000	11.44061	-2.60718	10.54331	-2.12503
2396.000	11.44061	-2.63247	10.54714	-2.01367
2397.000	11.45960	-2.66926	10.45730	-2.14321
2398.000	11.43681	-2.57413	10.51274	-2.15650
2399.000	11.45200	-2.64015	10.48598	-2.12543
2400.000	11.47669	-2.66132	10.43627	-2.17266
2401.000	11.45770	-2.65372	10.39802	-2.11430
2402.000	11.46909	-2.69446	10.42480	-2.11021
2403.000	11.46720	-2.65946	10.53567	-2.12704
2404.000	11.46720	-2.66335	10.42480	-2.10826
2405.000	11.45200	-2.66544	10.53185	-2.09581
2406.000	11.44251	-2.64024	10.53949	-2.15436
2407.000	11.43491	-2.62280	10.48407	-2.09028
2408.000	11.46530	-2.65948	10.41715	-2.05164
2409.000	11.45770	-2.64788	10.42671	-2.05744
2410.000	11.47669	-2.64381	10.52803	-2.05482
2411.000	11.45580	-2.64595	10.49745	-2.09800
2412.000	11.45960	-2.62840	10.44392	-2.07101
2413.000	11.50517	-2.67467	10.48024	-2.04537
2414.000	11.48239	-2.64376	10.49936	-2.07259
2415.000	11.46150	-2.59142	10.47451	-2.05127
2416.000	11.46150	-2.65368	10.45348	-2.14909
2417.000	11.48049	-2.65545	10.56624	-2.08777
2418.000	11.48808	-2.64370	10.36168	-2.04810
2419.000	11.44441	-2.64606	10.49362	-2.11951
2420.000	11.44441	-2.69081	10.59681	-2.13443
2421.000	11.46530	-2.65754	10.44966	-2.09246
2422.000	11.47669	-2.62825	10.51274	-2.03538
2423.000	11.52225	-2.64922	10.44774	-2.10420
2424.000	11.47669	-2.63992	10.49171	-2.03748
2425.000	11.47859	-2.64379	10.45922	-2.04551
2426.000	11.48239	-2.64376	10.37316	-2.05780
2427.000	11.46909	-2.63804	10.47260	-2.08058
2428.000	11.50137	-2.69027	10.48407	-2.13130
2429.000	11.46340	-2.63226	10.49362	-2.09607
2430.000	11.47479	-2.68274	10.48024	-2.08053
2431.000	11.53364	-2.69385	10.41906	-2.04577
2432.000	11.48428	-2.67097	10.49554	-2.11559
2433.000	11.47669	-2.67883	10.41332	-2.08684
2434.000	11.47479	-2.64188	10.45348	-2.08267
2435.000	11.52984	-2.66860	10.42671	-2.07308
2436.000	11.48239	-2.65737	10.46304	-2.09823
2437.000	11.49378	-2.64365	10.41715	-2.05751
2438.000	11.51466	-2.66096	10.48024	-2.04341
2439.000	11.50327	-2.66885	10.43245	-2.05350
2440.000	11.50517	-2.66883	10.44774	-2.13741
2441.000	11.49757	-2.64167	10.51656	-2.13108
2442.000	11.50137	-2.67470	10.43818	-2.06518
2443.000	11.49378	-2.66116	10.46877	-2.10405
2444.000	11.50137	-2.62607	10.53567	-2.08407
2445.000	11.45770	-2.67123	10.43818	-2.11208
2446.000	11.51466	-2.64151	10.48789	-2.09806
2447.000	11.46909	-2.67112	10.48024	-2.05709
2448.000	11.48808	-2.64176	10.49745	-2.11558
2449.000	11.49188	-2.64172	10.46113	-2.12950
2450.000	11.46720	-2.65557	10.52994	-2.11536
2451.000	11.49947	-2.65138	10.47642	-2.01022
2452.000	11.49188	-2.64561	10.52229	-2.09392
2453.000	11.51656	-2.62593	10.52612	-2.09976
2454.000	11.50137	-2.63385	10.58153	-2.17554
2455.000	11.48428	-2.64568	10.49745	-2.08628
2456.000	11.48428	-2.63401	10.55669	-2.04486
2457.000	11.52605	-2.63946	10.56051	-2.13077
2458.000	11.50707	-2.68438	10.48216	-2.03363
2459.000	11.54313	-2.70348	10.56242	-2.00966
2460.000	11.53364	-2.66273	10.44583	-2.02801
2461.000	11.51276	-2.69988	10.61973	-2.08545
2462.000	11.53174	-2.70164	10.41906	-2.08876
2463.000	11.47479	-2.70219	10.59490	-2.13444
2464.000	11.47289	-2.67303	10.45730	-2.08264
2465.000	11.51276	-2.66292	10.51847	-2.09004
2466.000	11.50517	-2.66883	10.59872	-2.13051
2467.000	11.46530	-2.64975	10.48980	-2.07852
2468.000	11.50137	-2.66692	10.37507	-2.09101
2469.000	11.55452	-2.66642	10.47069	-2.06887
2470.000	11.50707	-2.68243	10.50700	-2.12138
2471.000	11.47479	-2.64772	10.45539	-2.08461
2472.000	11.51466	-2.66485	10.51656	-2.07248
2473.000	11.47859	-2.75079	10.53376	-2.05478
2474.000	11.53364	-2.67634	10.48980	-2.08633
2475.000	11.46909	-2.70225	10.50700	-1.97877
2476.000	11.51276	-2.73878	10.42480	-2.11021
2477.000	11.51466	-2.70959	10.55478	-2.05269
2478.000	11.53364	-2.64328	10.48598	-2.03556
2479.000	11.47099	-2.69639	10.44774	-2.03190
2480.000	11.48618	-2.67679	10.50700	-1.96313
2481.000	11.53174	-2.69775	10.48024	-2.04341
2482.000	11.49947	-2.70779	10.50892	-2.05299
2483.000	11.52225	-2.71730	10.46686	-2.02592
2484.000	11.51466	-2.66874	10.47069	-2.02394
2485.000	11.51846	-2.69399	10.53376	-2.13486
2486.000	11.53364	-2.66662	10.51274	-2.02366
2487.000	11.53744	-2.67047	10.45348	-2.02796
2488.000	11.52984	-2.64331	10.52994	-2.16614
2489.000	11.55831	-2.68778	10.61209	-2.09917
2490.000	11.55452	-2.67031	10.51847	-2.04511
2491.000	11.53174	-2.65302	10.53376	-2.09971
2492.000	11.51086	-2.63960	10.52420	-2.06070
2493.000	11.52035	-2.66091	10.61018	-2.08161
2494.000	11.54882	-2.66453	10.49171	-1.99645
2495.000	11.49757	-2.65723	10.51656	-2.06271
2496.000	11.49947	-2.63192	10.45348	-1.99865
2497.000	11.35702	-2.67801	10.45348	-2.07876
2498.000	11.20872	-2.61124	10.35977	-2.03834
2499.000	11.03169	-2.64010	10.14344	-2.08667
2500.000	10.71710	-2.60582	10.05338	-2.09312
2501.000	10.44392	-2.56323	9.75985	-2.13024
2502.000	9.99587	-2.63136	9.44080	-2.18907
2503.000	9.47927	-2.61781	9.04404	-2.30532
2504.000	8.99005	-2.54888	8.65994	-2.26452
2505.000	8.29247	-2.56342	8.03095	-2.36454
2506.000	7.61766	-2.62274	7.47777	-2.43853
2507.000	6.99136	-2.55547	7.03226	-2.39561
2508.000	6.22079	-2.53576	6.39657	-2.45597
2509.000	5.52827	-2.58041	5.84736	-2.48812
2510.000	4.94796	-2.51555	5.43620	-2.44640
2511.000	4.32732	-2.46430	4.81646	-2.43690
2512.000	3.81393	-2.43615	4.39218	-2.42845
2513.000	3.39646	-2.43132	3.95365	-2.36640
2514.000	2.87610	-2.41468	3.57570	-2.30400
2515.000	2.52103	-2.45704	3.10678	-2.25750
2516.000	2.18550	-2.42390	2.77157	-2.28198
2517.000	1.88341	-2.39657	2.41841	-2.21117
2518.000	1.61281	-2.35324	2.02558	-2.22169
2519.000	1.30657	-2.38930	1.68985	-2.20821
2520.000	0.96469	-2.36376	1.35202	-2.10727
2521.000	0.60494	-2.33815	1.01410	-2.17704
2522.000	0.23131	-2.36209	0.55552	-2.22496
2523.000	-0.14630	-2.35416	0.28666	-2.26675
2524.000	-0.45668	-2.35608	-0.20363	-2.25484
2525.000	-0.80261	-2.40755	-0.52587	-2.33222
2526.000	-1.09513	-2.39544	-0.93109	-2.33003
2527.000	-1.45476	-2.45267	-1.34214	-2.36345
2528.000	-1.76095	-2.42650	-1.64837	-2.33930
2529.000	-1.97029	-2.43217	-1.82811	-2.28349
2530.000	-2.13023	-2.36048	-2.25854	-2.24517
2531.000	-2.41841	-2.32826	-2.42828	-2.23100
2532.000	-2.59600	-2.30612	-2.68083	-2.20874
2533.000	-2.65519	-2.22267	-2.82680	-2.10529
2534.000	-2.82877	-2.22632	-3.07327	-2.02149
2535.000	-2.97863	-2.13477	-3.27430	-1.94175
2536.000	-3.03778	-2.06323	-3.38858	-1.87804
2537.000	-3.11860	-2.00950	-3.53435	-1.80238
2538.000	-3.28218	-1.99331	-3.52056	-1.67941
2539.000	-3.28612	-1.86634	-3.72535	-1.68696
2540.000	-3.30780	-1.84249	-3.73519	-1.62545
2541.000	-3.26839	-1.75922	-3.74897	-1.62741
2542.000	-3.27627	-1.74532	-3.80212	-1.60946
2543.000	-3.15408	-1.73560	-3.71550	-1.59177
2544.000	-3.13240	-1.75350	-3.63281	-1.63953
2545.000	-3.09889	-1.72379	-3.51662	-1.66751
2546.000	-2.97863	-1.72596	-3.42207	-1.64387
2547.000	-2.88596	-1.80154	-3.38858	-1.69353
2548.000	-2.82088	-1.82744	-3.35509	-1.73526
2549.000	-2.75974	-1.88709	-3.18759	-1.83477
2550.000	-2.71240	-1.85937	-3.09692	-1.86866
2551.000	-2.70648	-1.93878	-3.13240	-1.87257
2552.000	-2.66900	-1.92892	-3.07327	-1.88260
2553.000	-2.73015	-1.98837	-3.02004	-1.97000
2554.000	-2.82088	-2.00211	-3.10283	-1.92223
2555.000	-2.82680	-2.02790	-3.13832	-1.98367
2556.000	-2.88201	-2.00795	-3.22701	-2.02516
2557.000	-3.05552	-2.02748	-3.30780	-1.97541
2558.000	-3.13832	-2.03129	-3.34130	-1.94757
2559.000	-3.14029	-2.01145	-3.43783	-2.01878
2560.000	-3.22898	-2.03310	-3.59933	-2.05016
2561.000	-3.26051	-2.01319	-3.72928	-2.00029
2562.000	-3.32947	-1.92577	-3.80605	-1.87520
2563.000	-3.39843	-2.00300	-3.84739	-1.93658
2564.000	-3.37085	-1.93362	-3.85723	-1.96035
2565.000	-3.40237	-1.94348	-3.94971	-1.91850
2566.000	-3.36888	-1.97132	-4.00874	-1.93620
2567.000	-3.41025	-1.94346	-3.96545	-1.92441
2568.000	-3.34721	-1.90788	-3.92020	-1.91064
2569.000	-3.37479	-1.91576	-3.96742	-1.91846
2570.000	-3.32356	-1.88214	-3.92413	-1.80555
2571.000	-3.33933	-1.87615	-3.93988	-1.83525
2572.000	-3.27430	-1.84453	-3.91626	-1.83530
2573.000	-3.27036	-1.87033	-3.82180	-1.78593
2574.000	-3.23489	-1.85849	-3.79227	-1.79789
2575.000	-3.21715	-1.87638	-3.78637	-1.78997
2576.000	-3.23686	-1.88428	-3.81196	-1.82760
2577.000	-3.23095	-1.84858	-3.79031	-1.78996
2578.000	-3.18956	-1.86651	-3.76275	-1.85943
2579.000	-3.19744	-1.87444	-3.77653	-1.80387
2580.000	-3.18759	-1.87644	-3.66825	-1.79815
2581.000	-3.14226	-1.85866	-3.75684	-1.84358
2582.000	-3.11860	-1.84680	-3.66825	-1.76641
2583.000	-3.13634	-1.84875	-3.70960	-1.80600
2584.000	-3.10678	-1.82300	-3.71156	-1.82186
2585.000	-3.10678	-1.86468	-3.73913	-1.85948
2586.000	-3.07129	-1.82108	-3.75487	-1.82375
2587.000	-3.03581	-1.83305	-3.71944	-1.80399
2588.000	-3.09692	-1.82104	-3.67613	-1.91316
2589.000	-3.10481	-1.85277	-3.68794	-1.84967
2590.000	-3.07721	-1.83099	-3.71747	-1.88729
2591.000	-3.08706	-1.79128	-3.69188	-1.80405
2592.000	-3.08312	-1.75358	-3.67219	-1.83979
2593.000	-3.07129	-1.74566	-3.65841	-1.80412
2594.000	-3.08312	-1.82900	-3.64659	-1.84579
2595.000	-3.08904	-1.79922	-3.69975	-1.92104
2596.000	-3.07721	-1.76550	-3.73913	-1.83370
2597.000	-3.04961	-1.80127	-3.75684	-1.82375
2598.000	-3.13437	-1.85471	-3.59540	-1.83598
2599.000	-3.08115	-1.78137	-3.71944	-1.80994
2600.000	-3.03975	-1.79930	-3.67022	-1.83384
2601.000	-3.08706	-1.82502	-3.68006	-1.87745
2602.000	-3.08904	-1.77143	-3.74109	-1.80593
2603.000	-3.05947	-1.83698	-3.71156	-1.85359
2604.000	-3.10086	-1.80317	-3.70960	-1.94283
2605.000	-3.11269	-1.86070	-3.77062	-1.92683
2606.000	-3.09495	-1.79722	-3.71550	-1.84962
2607.000	-3.06341	-1.80919	-3.71156	-1.85557
2608.000	-3.12058	-1.82100	-3.69975	-1.82982
2609.000	-3.03187	-1.79932	-3.70763	-1.93491
2610.000	-3.09101	-1.80517	-3.69385	-1.83578
2611.000	-3.07721	-1.77741	-3.73125	-1.88131
2612.000	-3.07327	-1.78932	-3.77062	-1.77017
2613.000	-3.10678	-1.83094	-3.75684	-1.89514
2614.000	-3.07327	-1.80917	-3.78637	-1.81377
2615.000	-3.03581	-1.82908	-3.69581	-1.84172
2616.000	-3.08706	-1.82701	-3.72141	-1.93091
2617.000	-3.11269	-1.80910	-3.78637	-1.92680
2618.000	-3.10875	-1.78331	-3.73125	-1.90907
2619.000	-3.09692	-1.81905	-3.72141	-1.90711
2620.000	-3.12255	-1.78924	-3.68991	-1.82190
2621.000	-3.10481	-1.86270	-3.79621	-1.90100
2622.000	-3.09495	-1.84684	-3.77259	-1.93080
2623.000	-3.10481	-1.83690	-3.68400	-1.87943
2624.000	-3.16197	-1.86458	-3.83754	-1.82358
2625.000	-3.12452	-1.83289	-3.76865	-1.83364
2626.000	-3.09101	-1.80318	-3.84542	-1.91874
2627.000	-3.10481	-1.79721	-3.72928	-1.90710
2628.000	-3.11466	-1.80116	-3.79227	-1.84350
2629.000	-3.13832	-1.80112	-3.77850	-1.88914
2630.000	-3.12846	-1.83487	-3.76865	-1.90899
2631.000	-3.14029	-1.81104	-3.76865	-1.87528
2632.000	-3.15211	-1.82689	-3.78243	-1.87129
2633.000	-3.11466	-1.72971	-3.79424	-1.83953
2634.000	-3.15014	-1.82491	-3.70566	-1.82187
2635.000	-3.16000	-1.80902	-3.73519	-1.85156
2636.000	-3.17182	-1.81892	-3.70960	-1.94482
2637.000	-3.14423	-1.83484	-3.80408	-1.87124
2638.000	-3.14226	-1.77135	-3.72535	-1.86943
2639.000	-3.13634	-1.78723	-3.70566	-1.87938
2640.000	-3.09298	-1.81112	-3.80212	-1.92478
2641.000	-3.14817	-1.78324	-3.69385	-1.86949
2642.000	-3.13240	-1.81304	-3.74503	-1.88128
2643.000	-3.10678	-1.79324	-3.74700	-1.83368
2644.000	-3.15014	-1.81301	-3.75684	-1.93281
2645.000	-3.12649	-1.84877	-3.77259	-1.85346
2646.000	-3.16000	-1.81497	-3.81393	-1.84346
2647.000	-3.08509	-1.78136	-3.68006	-1.93695
2648.000	-3.16788	-1.80305	-3.76275	-1.91297
2649.000	-3.11466	-1.75551	-3.73716	-1.85155
2650.000	-3.10875	-1.83094	-3.74700	-1.87335
2651.000	-3.18168	-1.83279	-3.74109	-1.89121
2652.000	-3.19547	-1.84468	-3.76275	-1.83365
2653.000	-3.13043	-1.79716	-3.77062	-1.83363
2654.000	-3.14423	-1.82691	-3.79621	-1.84151
2655.000	-3.15803	-1.82093	-3.70566	-1.91111
2656.000	-3.10875	-1.85277	-3.72535	-1.90314
2657.000	-3.13634	-1.84677	-3.74897	-1.88127
2658.000	-3.17774	-1.81296	-3.75881	-1.89712
2659.000	-3.17379	-1.85067	-3.83951	-1.88108
2660.000	-3.15408	-1.77132	-3.73125	-1.92692
2661.000	-3.12058	-1.81107	-3.83951	-1.92272
2662.000	-3.11860	-1.78329	-3.80802	-1.86727
2663.000	-3.07129	-1.81711	-3.75291	-1.84557
2664.000	-3.13634	-1.86264	-3.76472	-1.87331
2665.000	-3.20139	-1.86451	-3.75094	-1.91498
2666.000	-3.11072	-1.78529	-3.76865	-1.87727
2667.000	-3.12452	-1.82694	-3.78834	-1.88714
2668.000	-3.18365	-1.84668	-3.79818	-1.79986
2669.000	-3.13240	-1.86265	-3.84935	-1.86123
2670.000	-3.14029	-1.80707	-3.73913	-1.81585
2671.000	-3.13043	-1.82495	-3.78046	-1.87129
2672.000	-3.13043	-1.85868	-3.84542	-1.91081
2673.000	-3.11663	-1.77734	-3.83754	-1.86720
2674.000	-3.14620	-1.78920	-3.86116	-1.84336
2675.000	-3.16788	-1.83083	-3.87297	-1.88893
2676.000	-3.17971	-1.82089	-3.82377	-1.86525
2677.000	-3.16394	-1.78520	-3.78046	-1.88715
2678.000	-3.15605	-1.78720	-3.85132	-1.96631
2679.000	-3.05749	-1.77546	-3.79227	-1.79194
2680.000	-3.12649	-1.86464	-3.80015	-1.94858
2681.000	-3.19350	-1.79507	-3.75094	-1.86739
2682.000	-3.07721	-1.78336	-3.77259	-1.88717
2683.000	-3.12452	-1.79519	-3.81983	-1.88707
2684.000	-3.15014	-1.78324	-3.87100	-1.84730
2685.000	-3.12452	-1.80313	-3.81786	-1.90492
2686.000	-3.12452	-1.77138	-3.75684	-1.92290
2687.000	-3.12058	-1.82496	-3.85919	-1.96827
2688.000	-3.15014	-1.80904	-3.81393	-1.88708
2689.000	-3.09495	-1.79722	-3.83951	-1.92073
2690.000	-3.09101	-1.79128	-3.79227	-1.87523
2691.000	-3.11860	-1.80115	-3.84148	-1.83547
2692.000	-3.11466	-1.79719	-3.81393	-1.90294
2693.000	-3.08115	-1.81709	-3.84345	-1.86917
2694.000	-3.10875	-1.78728	-3.72928	-1.94279
2695.000	-3.10283	-1.81507	-3.80605	-1.99020
2696.000	-3.11663	-1.82299	-3.77062	-1.94270
2697.000	-3.14423	-1.78523	-3.77062	-1.83562
2698.000	-3.09298	-1.80715	-3.83361	-1.97626
2699.000	-3.04369	-1.75563	-3.88478	-1.98804
2700.000	-3.11466	-1.76941	-3.81196	-1.89105
2701.000	-3.11860	-1.81901	-3.79031	-1.95455
2702.000	-3.09101	-1.82105	-3.74897	-1.91102
2703.000	-3.10481	-1.76545	-3.79621	-1.88117
2704.000	-3.09495	-1.80715	-3.81196	-1.93467
2705.000	-3.10875	-1.80712	-3.73716	-1.98640
2706.000	-3.07721	-1.81512	-3.81589	-1.95053
2707.000	-3.13634	-1.80112	-3.84739	-1.94252
2708.000	-3.08115	-1.82900	-3.80605	-1.89305
2709.000	-3.10086	-1.84087	-3.83558	-1.93859
2710.000	-3.09298	-1.82104	-3.77062	-1.92485
2711.000	-3.14423	-1.80905	-3.82574	-1.87912
2712.000	-3.08312	-1.79328	-3.84542	-1.96434
2713.000	-3.10678	-1.84285	-3.81196	-1.88907
2714.000	-3.11072	-1.80315	-3.78440	-1.90896
2715.000	-3.08509	-1.84090	-3.79424	-1.89902
2716.000	-3.17971	-1.82486	-3.72731	-1.94874
2717.000	-3.11072	-1.84879	-3.74109	-1.88129
2718.000	-3.11269	-1.77536	-3.81393	-1.92872
2719.000	-3.11072	-1.85872	-3.81983	-1.90888
2720.000	-3.08115	-1.80717	-3.71944	-1.85159
2721.000	-3.09101	-1.76746	-3.78637	-1.93077
2722.000	-3.16000	-1.84474	-3.82574	-1.88309
2723.000	-3.06538	-1.76750	-3.79227	-1.97437
2724.000	-3.14620	-1.83087	-3.77259	-1.95459
2725.000	-3.07129	-1.79330	-3.77259	-1.94468
2726.000	-3.10086	-1.77737	-3.78243	-1.90500
2727.000	-3.10875	-1.81109	-3.74700	-1.86740
2728.000	-3.11663	-1.77536	-3.73716	-1.84957
2729.000	-3.11466	-1.81108	-3.84739	-1.85330
2730.000	-3.06144	-1.79331	-3.77850	-1.89112
2731.000	-3.11663	-1.76543	-3.76669	-1.90701
2732.000	-3.06341	-1.72980	-3.75487	-1.87531
2733.000	-3.05947	-1.75561	-3.80212	-1.91487
2734.000	-3.09692	-1.74165	-3.79031	-1.84351
2735.000	-3.06538	-1.77544	-3.77653	-1.91889
2736.000	-3.06932	-1.78338	-3.81589	-1.84742
2737.000	-3.12255	-1.79519	-3.77259	-1.85148
2738.000	-3.08115	-1.78534	-3.76865	-1.89313
2739.000	-3.09889	-1.78531	-3.85526	-1.81759
2740.000	-3.06538	-1.79132	-3.77653	-1.84552
2741.000	-3.07327	-1.79925	-3.79621	-1.91488
2742.000	-3.07918	-1.79725	-3.79424	-1.87721
2743.000	-3.09298	-1.83890	-3.75291	-1.87333
2744.000	-3.07327	-1.81711	-3.83754	-1.87910
2745.000	-3.08904	-1.80716	-3.82180	-1.88112
2746.000	-3.16788	-1.80504	-3.81983	-1.86129
2747.000	-3.06144	-1.75163	-3.86313	-1.92861
2748.000	-3.08509	-1.78335	-3.78834	-1.84351
2749.000	-3.10678	-1.78728	-3.78637	-1.86731
2750.000	-3.09495	-1.77738	-3.81983	-1.92871
2751.000	-3.04961	-1.80722	-3.86313	-1.90284
2752.000	-3.07129	-1.76551	-3.91626	-1.86504
2753.000	-3.10678	-1.79324	-3.79031	-1.89308
2754.000	-3.08904	-1.82700	-3.92217	-1.87495
2755.000	-3.11860	-1.80512	-3.81196	-1.84941
2756.000	-3.11269	-1.76941	-3.78834	-1.92878
2757.000	-3.10678	-1.78728	-3.81786	-1.85733
2758.000	-3.10481	-1.80713	-3.76472	-1.85744
2759.000	-3.07129	-1.79726	-3.82180	-1.87517
2760.000	-3.07129	-1.80322	-3.85526	-1.88104
2761.000	-3.03778	-1.79931	-3.83361	-1.84341
2762.000	-3.09495	-1.79326	-3.77456	-1.90501
2763.000	-3.00624	-1.85294	-3.81786	-1.91087
2764.000	-3.08706	-1.79525	-3.78046	-1.80188
2765.000	-3.08115	-1.80122	-3.76078	-1.91298
2766.000	-3.09692	-1.83294	-3.82770	-1.84938
2767.000	-3.07918	-1.79527	-3.85329	-1.88105
2768.000	-3.08706	-1.81113	-3.81786	-1.82164
2769.000	-3.15014	-1.83483	-3.77653	-1.84552
2770.000	-3.12058	-1.79718	-3.77259	-1.82570
2771.000	-3.16788	-1.83480	-3.85132	-1.83941
2772.000	-3.12255	-1.79519	-3.86510	-1.81955
2773.000	-3.10678	-1.78133	-3.75487	-1.89911
2774.000	-3.16394	-1.79512	-3.81983	-1.84543
2775.000	-3.12452	-1.77733	-3.79621	-1.90100
2776.000	-3.14620	-1.82095	-3.81983	-1.88112
2777.000	-3.07918	-1.81114	-3.77062	-1.79595
2778.000	-3.10678	-1.78927	-3.74109	-1.88724
2779.000	-3.11269	-1.79521	-3.79818	-1.80185
2780.000	-3.17576	-1.79907	-3.74897	-1.76625
2781.000	-3.13634	-1.75746	-3.79424	-1.80780
2782.000	-3.06932	-1.83497	-3.80605	-1.86925
2783.000	-3.14226	-1.79714	-3.79621	-1.84548
2784.000	-3.12649	-1.82495	-3.77456	-1.81974
2785.000	-3.09101	-1.81112	-3.80999	-1.83950
2786.000	-3.14423	-1.82294	-3.85132	-1.84933
2787.000	-3.13043	-1.81502	-3.81589	-1.89104
2788.000	-3.13043	-1.80312	-3.77062	-1.84553
2789.000	-3.07918	-1.81114	-3.75094	-1.85351
2790.000	-3.14226	-1.84080	-3.86116	-1.87310
2791.000	-3.15408	-1.87848	-3.81983	-1.86129
2792.000	-3.09889	-1.79325	-3.72928	-1.87338
2793.000	-3.06538	-1.78140	-3.89265	-1.87501
2794.000	-3.09692	-1.77738	-3.82180	-1.87913
2795.000	-3.08904	-1.78136	-3.81196	-1.91088
2796.000	-3.11663	-1.79322	-3.76472	-1.85744
2797.000	-3.12452	-1.84480	-3.82574	-1.88904
2798.000	-3.13043	-1.79716	-3.78637	-1.92085
2799.000	-3.10283	-1.84484	-3.77456	-1.87725
2800.000	-3.08904	-1.81311	-3.86313	-1.91473
2801.000	-3.12846	-1.81701	-3.82574	-1.86723
2802.000	-3.08904	-1.82700	-3.80408	-1.94659
2803.000	-3.10678	-1.79522	-3.80605	-1.86529
2804.000	-3.12452	-1.86861	-3.79621	-1.89902
2805.000	-3.06144	-1.81316	-3.85919	-1.90284
2806.000	-3.08115	-1.83892	-3.79424	-1.85936
2807.000	-3.12058	-1.85870	-3.76472	-1.84555
2808.000	-3.14423	-1.83484	-3.74306	-1.84757
2809.000	-3.07327	-1.86672	-3.78440	-1.91887
2810.000	-3.11466	-1.81505	-3.85132	-1.81165
2811.000	-3.10678	-1.82300	-3.73125	-1.83967
2812.000	-3.07327	-1.80917	-3.83361	-1.83350
2813.000	-3.07918	-1.83297	-3.75881	-1.82374
2814.000	-3.05355	-1.80523	-3.81589	-1.86923
2815.000	-3.10481	-1.73965	-3.80999	-1.78596
2816.000	-3.05552	-1.79332	-3.74897	-1.84161
2817.000	-3.06932	-1.74567	-3.74109	-1.82973
2818.000	-3.03778	-1.77350	-3.80999	-1.83157
2819.000	-3.12058	-1.85275	-3.84345	-1.89693
2820.000	-3.08115	-1.77145	-3.72535	-1.87339
2821.000	-3.05552	-1.77546	-3.85919	-1.87707
2822.000	-3.07129	-1.82108	-3.76472	-1.86934
2823.000	-3.08115	-1.79526	-3.80999	-1.91287
2824.000	-3.11269	-1.77933	-3.75291	-1.90903
2825.000	-3.08509	-1.81709	-3.75487	-1.93282
2826.000	-3.10678	-1.77140	-3.87100	-1.87902
2827.000	-3.08115	-1.79725	-3.79424	-1.90101
2828.000	-3.12846	-1.81106	-3.80212	-1.92676
2829.000	-3.11663	-1.82497	-3.83951	-1.87315
2830.000	-3.09298	-1.83295	-3.85526	-1.83345
2831.000	-3.08509	-1.82701	-3.83361	-1.82160
2832.000	-3.14817	-1.83087	-3.82770	-1.88309
2833.000	-3.15211	-1.82888	-3.81786	-1.91285
2834.000	-3.15211	-1.83483	-3.80605	-1.80778
2835.000	-3.08312	-1.83892	-3.88478	-1.87899
2836.000	-3.11269	-1.84681	-3.83361	-1.82755
2837.000	-3.05552	-1.80721	-3.83558	-1.87514
2838.000	-3.12058	-1.87061	-3.78046	-1.84749
2839.000	-3.08904	-1.80716	-3.84542	-1.86520
2840.000	-3.11269	-1.82299	-3.79227	-1.93274
2841.000	-3.03384	-1.88266	-3.78243	-1.88120
2842.000	-3.06538	-1.80323	-3.81589	-1.89699
2843.000	-3.07918	-1.81710	-3.74109	-1.87931
2844.000	-3.10283	-1.77340	-3.77456	-1.82966
2845.000	-3.07918	-1.85877	-3.76275	-1.87926
2846.000	-3.08904	-1.82502	-3.86313	-1.89292
2847.000	-3.14226	-1.80111	-3.81196	-1.86726
2848.000	-3.11663	-1.83092	-3.76078	-1.76028
2849.000	-3.13832	-1.81501	-3.81196	-1.86726
2850.000	-3.08115	-1.76549	-3.89265	-1.86708
2851.000	-3.10283	-1.83889	-3.85526	-1.84139
2852.000	-3.10678	-1.77736	-3.83754	-1.81961
2853.000	-3.08312	-1.82503	-3.73125	-1.77819
2854.000	-3.14226	-1.81500	-3.87100	-1.86316
2855.000	-3.08312	-1.80121	-3.77850	-1.78206
2856.000	-3.10875	-1.80712	-3.81589	-1.89699
2857.000	-3.11269	-1.81307	-3.77456	-1.84751
2858.000	-3.09692	-1.81310	-3.82574	-1.84343
2859.000	-3.08706	-1.83494	-3.84542	-1.82951
2860.000	-3.07721	-1.84290	-3.77850	-1.87328
2861.000	-3.06538	-1.81514	-3.78046	-1.83758
2862.000	-3.05355	-1.83699	-3.76078	-1.80986
2863.000	-3.13437	-1.84478	-3.82377	-1.81369
2864.000	-3.10678	-1.81903	-3.77456	-1.82173
2865.000	-3.09692	-1.86668	-3.80212	-1.83952
2866.000	-3.07327	-1.85878	-3.80999	-1.80381
2867.000	-3.09889	-1.88652	-3.77850	-1.83560
2868.000	-3.10678	-1.82102	-3.81196	-1.80975
2869.000	-3.12058	-1.82695	-3.83164	-1.83549
2870.000	-3.09495	-1.81509	-3.76078	-1.81184
2871.000	-3.07524	-1.78932	-3.84739	-1.79579
2872.000	-3.09889	-1.82500	-3.81393	-1.82759
2873.000	-3.09495	-1.82104	-3.76078	-1.85745
2874.000	-3.12058	-1.76543	-3.75094	-1.82971
2875.000	-3.04369	-1.77151	-3.86313	-1.84533
2876.000	-3.03581	-1.73778	-3.77259	-1.84751
2877.000	-3.08312	-1.80717	-3.80015	-1.76813
2878.000	-3.07129	-1.82108	-3.83361	-1.85928
2879.000	-3.07327	-1.80123	-3.77456	-1.88518
2880.000	-3.09692	-1.82302	-3.80802	-1.86727
2881.000	-3.14226	-1.89041	-3.77456	-1.83759
2882.000	-3.08904	-1.81113	-3.83361	-1.88109
2883.000	-3.07129	-1.82703	-3.84739	-1.82950
2884.000	-3.08904	-1.83494	-3.81786	-1.83155
2885.000	-3.07721	-1.81512	-3.82770	-1.84739
2886.000	-3.07721	-1.82504	-3.83361	-1.94057
2887.000	-3.08509	-1.83892	-3.81786	-1.94656
2888.000	-3.06735	-1.89054	-3.78834	-1.90697
2889.000	-3.07721	-1.86473	-3.83558	-1.87315
2890.000	-3.06144	-1.82507	-3.86116	-1.89887
2891.000	-3.11269	-1.78727	-3.72928	-1.91106
2892.000	-3.05355	-1.78737	-3.80212	-1.88711
2893.000	-3.07327	-1.82703	-3.79621	-1.94661
2894.000	-3.08509	-1.80518	-3.83754	-1.91677
2895.000	-3.02792	-1.77947	-3.82377	-1.93068
2896.000	-3.11072	-1.81506	-3.79621	-1.91092
2897.000	-3.08115	-1.79725	-3.73125	-1.82975
2898.000	-3.04567	-1.74372	-3.79621	-1.88514
2899.000	-3.10875	-1.77339	-3.79031	-1.90300
2900.000	-3.09101	-1.84486	-3.82377	-1.89896
2901.000	-3.05749	-1.77149	-3.84345	-1.91279
2902.000	-3.05947	-1.80522	-3.85329	-1.85924
2903.000	-3.05749	-1.82706	-3.79818	-1.91289
2904.000	-3.08312	-1.80915	-3.84148	-1.84340
2905.000	-3.07918	-1.84091	-3.86707	-1.90679
2906.000	-3.04567	-1.83105	-3.83558	-1.86721
2907.000	-3.03975	-1.83701	-3.81983	-1.92673
2908.000	-3.08904	-1.82502	-3.80999	-1.90692
2909.000	-3.05947	-1.81713	-3.76472	-1.81580
2910.000	-3.04369	-1.82510	-3.83164	-1.81962
2911.000	-3.03778	-1.82511	-3.83361	-1.78987
2912.000	-3.07129	-1.84093	-3.80212	-1.85935
2913.000	-3.07524	-1.87862	-3.79424	-1.80185
2914.000	-3.05355	-1.85485	-3.75291	-1.80392
2915.000	-3.07918	-1.82702	-3.76472	-1.76424
2916.000	-3.09495	-1.89645	-3.76275	-1.77217
2917.000	-3.11072	-1.80712	-3.81983	-1.85931
2918.000	-3.08706	-1.77541	-3.78243	-1.78205
2919.000	-3.07721	-1.85481	-3.77653	-1.88320
2920.000	-3.06735	-1.83299	-3.70566	-1.79212
2921.000	-3.05355	-1.82706	-3.77259	-1.77017
2922.000	-3.07327	-1.84291	-3.84542	-1.79382
2923.000	-3.05749	-1.83698	-3.76669	-1.74836
2924.000	-3.07721	-1.82504	-3.77850	-1.76024
2925.000	-3.06735	-1.82109	-3.78243	-1.76817
2926.000	-3.05552	-1.84889	-3.79227	-1.80583
2927.000	-3.09692	-1.87263	-3.80605	-1.84744
2928.000	-3.05749	-1.84492	-3.79818	-1.78003
2929.000	-3.11269	-1.89046	-3.76669	-1.83563
2930.000	-3.06735	-1.83696	-3.75291	-1.83962
2931.000	-3.10481	-1.84484	-3.71944	-1.85357
2932.000	-3.11860	-1.84283	-3.76865	-1.79199
2933.000	-3.05355	-1.84889	-3.82574	-1.82559
2934.000	-3.04764	-1.84295	-3.80015	-1.82366
2935.000	-3.03384	-1.80725	-3.80408	-1.83158
2936.000	-3.04172	-1.80525	-3.77062	-1.88123
2937.000	-3.14620	-1.84476	-3.77456	-1.88122
2938.000	-3.06538	-1.79132	-3.77259	-1.81182
2939.000	-3.04567	-1.81517	-3.76865	-1.81579
2940.000	-3.04567	-1.83502	-3.79818	-1.76020
2941.000	-3.10875	-1.80712	-3.71944	-1.80598
2942.000	-3.05355	-1.84691	-3.76669	-1.83959
2943.000	-3.06538	-1.82506	-3.71550	-1.80995
2944.000	-3.04567	-1.83303	-3.74897	-1.78608
2945.000	-3.03778	-1.83701	-3.71156	-1.82781
2946.000	-3.06932	-1.89252	-3.72141	-1.82580
2947.000	-3.06144	-1.85483	-3.79621	-1.86134
2948.000	-3.03384	-1.82908	-3.71353	-1.86548
2949.000	-3.05355	-1.89255	-3.77062	-1.79992
2950.000	-3.08115	-1.88060	-3.74700	-1.78807
2951.000	-3.05947	-1.84888	-3.82180	-1.81568
2952.000	-3.05947	-1.88857	-3.79424	-1.86333
2953.000	-3.09101	-1.88058	-3.78834	-1.93076
2954.000	-3.05947	-1.84888	-3.76078	-1.87133
2955.000	-3.02398	-1.78742	-3.81983	-1.83551
2956.000	-3.08312	-1.85083	-3.73519	-1.89915
2957.000	-3.07327	-1.85283	-3.77850	-1.90699
2958.000	-3.04961	-1.87073	-3.75684	-1.87729
2959.000	-3.02595	-1.82116	-3.82770	-1.86524
2960.000	-3.07129	-1.81711	-3.77259	-1.87726
2961.000	-3.05749	-1.86476	-3.80802	-1.88709
2962.000	-3.04961	-1.84890	-3.84148	-1.82952
2963.000	-3.06341	-1.86872	-3.81393	-1.81371
2964.000	-3.04172	-1.84693	-3.77259	-1.85346
2965.000	-3.09495	-1.85874	-3.77259	-1.84751
2966.000	-3.02595	-1.81719	-3.66431	-1.80807
2967.000	-3.08509	-1.83098	-3.78046	-1.91492
2968.000	-3.00229	-1.83906	-3.76275	-1.90702
2969.000	-3.05552	-1.84691	-3.76472	-1.90900
2970.000	-3.02595	-1.86482	-3.75291	-1.91498
2971.000	-3.00032	-1.82318	-3.76865	-1.93874
2972.000	-3.06932	-1.82704	-3.74109	-1.97846
2973.000	-3.03778	-1.84297	-3.75881	-1.87729
2974.000	-3.02989	-1.84695	-3.78637	-1.95852
2975.000	-3.02004	-1.85689	-3.70566	-1.96267
2976.000	-2.99638	-1.81922	-3.69778	-1.89328
2977.000	-3.00624	-1.80134	-3.74306	-1.94871
2978.000	-3.05552	-1.84492	-3.83754	-1.93263
2979.000	-3.05158	-1.88859	-3.74897	-1.92093
2980.000	-3.08115	-1.87861	-3.67613	-1.87746
2981.000	-3.10678	-1.85079	-3.74109	-1.95070
2982.000	-3.06932	-1.92428	-3.76472	-1.94866
2983.000	-3.04764	-1.87470	-3.74503	-1.86343
2984.000	-3.06735	-1.87070	-3.69975	-1.90518
2985.000	-3.03581	-1.83900	-3.73913	-1.94673
2986.000	-3.09101	-1.87860	-3.73913	-1.97053
2987.000	-3.03187	-1.83107	-3.69188	-1.97658
2988.000	-3.11466	-1.88649	-3.74109	-1.86939
2989.000	-3.04567	-1.87669	-3.72141	-1.91703
2990.000	-3.04369	-1.84891	-3.76472	-1.94668
2991.000	-3.01609	-1.90056	-3.72141	-1.92893
2992.000	-3.02004	-1.86880	-3.74306	-1.90905
2993.000	-3.07721	-1.89251	-3.77259	-1.92683
2994.000	-3.09692	-1.84485	-3.71353	-1.91903
2995.000	-3.02792	-1.87871	-3.74109	-1.90905
2996.000	-3.05749	-1.86675	-3.76275	-1.99625
2997.000	-3.06932	-1.86673	-3.74109	-1.93285
2998.000	-3.07327	-1.87664	-3.69975	-1.93096
2999.000	-3.13043	-1.91424	-3.69581	-1.89725
3000.000	-3.12255	-1.84481	-3.72731	-1.96857
3001.000	-3.06144	-1.94612	-3.75684	-1.95066
3002.000	-3.09889	-1.85278	-3.77456	-1.97838
3003.000	-3.06144	-1.87269	-3.70369	-1.95276
3004.000	-3.08115	-1.87464	-3.69581	-1.93493
3005.000	-3.07918	-1.91434	-3.74700	-1.91499
3006.000	-3.09298	-1.89645	-3.71944	-1.92100
3007.000	-3.03384	-1.89060	-3.74503	-1.92094
3008.000	-3.08312	-1.90639	-3.72928	-1.94874
3009.000	-3.11466	-1.90038	-3.68006	-1.96074
3010.000	-3.08509	-1.88654	-3.66825	-1.89731
3011.000	-3.09889	-1.93017	-3.77062	-1.94468
3012.000	-3.10283	-1.87064	-3.75684	-1.99428
3013.000	-3.08706	-1.95004	-3.74306	-2.03793
3014.000	-3.06144	-1.89055	-3.76275	-1.93677
3015.000	-3.07721	-1.92426	-3.69581	-1.99045
3016.000	-3.10481	-1.93016	-3.77653	-1.95458
3017.000	-3.07721	-1.86274	-3.78046	-1.94466
3018.000	-3.09495	-1.93018	-3.72731	-1.96262
3019.000	-3.06932	-1.89649	-3.76472	-1.93478
3020.000	-3.12058	-1.95593	-3.67810	-1.90919
3021.000	-3.09889	-1.89049	-3.74700	-1.95861
3022.000	-3.13043	-1.91027	-3.76865	-1.92882
3023.000	-3.07327	-1.88855	-3.75487	-1.88919
3024.000	-3.04961	-1.88462	-3.70763	-1.93094
3025.000	-3.03581	-1.84892	-3.74306	-1.90508
3026.000	-3.08706	-1.88059	-3.75487	-1.90307
3027.000	-3.09298	-1.92622	-3.71550	-1.91109
3028.000	-3.07129	-1.85283	-3.72928	-1.93089
3029.000	-3.05552	-1.89652	-3.67219	-1.85169
3030.000	-3.09101	-1.87661	-3.67022	-1.88541
3031.000	-3.10283	-1.92025	-3.70763	-1.88335
3032.000	-3.08509	-1.91829	-3.69188	-1.83975
3033.000	-3.06144	-1.94413	-3.70763	-1.90516
3034.000	-3.06341	-1.93024	-3.70566	-1.87740
3035.000	-3.08115	-1.93616	-3.72141	-1.85754
3036.000	-3.08509	-1.90242	-3.72928	-1.85950
3037.000	-3.05749	-1.92430	-3.69581	-1.87742
3038.000	-3.04567	-1.90050	-3.72535	-1.92099
3039.000	-3.06538	-1.91833	-3.68006	-1.87150
3040.000	-3.04567	-1.89058	-3.76275	-1.88719
3041.000	-3.08706	-1.94012	-3.73716	-1.85155
3042.000	-3.07524	-1.89847	-3.76078	-1.79994
3043.000	-3.03384	-1.92037	-3.73322	-1.76827
3044.000	-3.06735	-1.90443	-3.60918	-1.82603
3045.000	-2.99046	-1.87282	-3.63675	-1.77639
3046.000	-3.00624	-1.89660	-3.49101	-1.77270
3047.000	-2.94117	-1.82725	-3.55207	-1.77854
3048.000	-2.77157	-1.76400	-3.43586	-1.79661
3049.000	-2.73409	-1.74221	-3.28810	-1.66592
3050.000	-2.58219	-1.76625	-3.08706	-1.65632
3051.000	-2.31381	-1.69710	-2.77354	-1.51581
3052.000	-1.97424	-1.51470	-2.54471	-1.48630
3053.000	-1.59503	-1.50706	-2.26644	-1.28197
3054.000	-1.24729	-1.32640	-1.90513	-1.07954
3055.000	-0.86388	-1.18938	-1.50218	-0.94457
3056.000	-0.49622	-1.06618	-1.11687	-0.74983
3057.000	-0.02966	-0.90313	-0.71366	-0.53908
3058.000	0.34795	-0.66045	-0.42109	-0.36405
3059.000	0.68599	-0.43366	-0.12257	-0.09748
3060.000	1.03188	-0.22676	0.20758	0.16313
3061.000	1.22753	0.03182	0.43098	0.38593
3062.000	1.49230	0.28638	0.66029	0.62661
3063.000	1.64837	0.47726	0.92516	0.89506
3064.000	1.79256	0.69195	1.15639	0.97851
3065.000	1.91303	0.89467	1.24136	1.10772
3066.000	2.00979	1.04966	1.31645	1.24685
3067.000	2.05323	1.14105	1.40339	1.40782
3068.000	2.04533	1.24241	1.50218	1.51508
3069.000	2.02361	1.26627	1.51403	1.62238
3070.000	1.99399	1.38950	1.49230	1.64227
3071.000	1.89525	1.40945	1.53379	1.75351
3072.000	1.82811	1.44528	1.45674	1.73966
3073.000	1.71158	1.45133	1.30262	1.70997
3074.000	1.66022	1.46727	1.24927	1.70007
3075.000	1.54959	1.45940	1.13268	1.66635
3076.000	1.51008	1.47334	1.11489	1.64649
3077.000	1.42315	1.48532	0.99631	1.60283
3078.000	1.35795	1.48933	0.93504	1.63664
3079.000	1.27891	1.46553	0.91923	1.62075
3080.000	1.19591	1.41588	0.86388	1.50549
3081.000	1.17813	1.40198	0.75912	1.59696
3082.000	1.15441	1.34832	0.85005	1.48164
3083.000	1.17220	1.27475	0.85993	1.48561
3084.000	1.15244	1.22307	0.90737	1.51143
3085.000	1.21370	1.15147	0.90539	1.47764
3086.000	1.17022	1.11371	0.91132	1.39414
3087.000	1.23544	1.05603	0.95085	1.40804
3088.000	1.27100	1.01028	1.04967	1.40005
3089.000	1.29669	0.96454	1.03781	1.37024
3090.000	1.34807	0.92674	1.15046	1.38211
3091.000	1.46662	0.90681	1.15046	1.32645
3092.000	1.52589	0.91275	1.30262	1.37607
3093.000	1.59898	0.88687	1.38561	1.34223
3094.000	1.67404	0.90672	1.27496	1.36416
3095.000	1.68787	0.97033	1.50218	1.34614
3096.000	1.75305	0.97427	1.44686	1.31636
3097.000	1.81428	1.01201	1.55552	1.42561
3098.000	1.83798	1.07163	1.44291	1.45947
3099.000	1.88143	1.10142	1.54169	1.41767
3100.000	1.91895	1.20673	1.48637	1.47335
3101.000	1.96042	1.29613	1.49625	1.52303
3102.000	1.90118	1.30015	1.54169	1.64620
3103.000	1.91303	1.34982	1.48835	1.63233
3104.000	1.91895	1.35976	1.55354	1.61440
3105.000	1.97227	1.41138	1.38956	1.67811
3106.000	1.96240	1.42530	1.36783	1.70396
3107.000	1.91698	1.42931	1.46069	1.69396
3108.000	1.87946	1.44722	1.46662	1.67408
3109.000	1.89525	1.43330	1.41525	1.72777
3110.000	1.85773	1.44327	1.40734	1.75162
3111.000	1.82811	1.45521	1.43896	1.72378
3112.000	1.87156	1.44127	1.34214	1.68609
3113.000	1.87946	1.46312	1.34214	1.75365
3114.000	1.87551	1.47107	1.37968	1.77350
3115.000	1.84983	1.44923	1.38363	1.78939
3116.000	1.81231	1.46317	1.34412	1.71590
3117.000	1.79848	1.41748	1.35202	1.73576
3118.000	1.78663	1.43736	1.32238	1.68213
3119.000	1.78268	1.41749	1.34807	1.64237
3120.000	1.78268	1.39365	1.28484	1.70203
3121.000	1.77083	1.45327	1.28681	1.66824
3122.000	1.80836	1.42940	1.34412	1.67019
3123.000	1.75108	1.39764	1.34412	1.62846
3124.000	1.76293	1.46123	1.36980	1.67614
3125.000	1.78268	1.36185	1.22951	1.66431
3126.000	1.77281	1.39365	1.31843	1.57482
3127.000	1.78071	1.37775	1.39549	1.64631
3128.000	1.74515	1.39169	1.34609	1.65429
3129.000	1.77281	1.32211	1.36585	1.63242
3130.000	1.78268	1.36384	1.35399	1.62647
3131.000	1.79651	1.32607	1.37771	1.61850
3132.000	1.79651	1.38767	1.44291	1.56480
3133.000	1.82416	1.36977	1.37375	1.62248
3134.000	1.83798	1.31610	1.32238	1.67816
3135.000	1.80243	1.34792	1.31843	1.65630
3136.000	1.81626	1.32009	1.38758	1.64433
3137.000	1.80441	1.30221	1.30262	1.60265
3138.000	1.85378	1.34987	1.40734	1.57476
3139.000	1.82416	1.31412	1.39944	1.64631
3140.000	1.78071	1.33204	1.36783	1.61851
3141.000	1.80243	1.29625	1.36783	1.59864
3142.000	1.82811	1.33797	1.28879	1.69408
3143.000	1.78861	1.33005	1.31448	1.70002
3144.000	1.80243	1.31612	1.34609	1.64038
3145.000	1.85971	1.36576	1.32831	1.64835
3146.000	1.83206	1.34591	1.38561	1.64036
3147.000	1.83403	1.32604	1.33424	1.65033
3148.000	1.82613	1.36579	1.28879	1.67222
3149.000	1.84193	1.38764	1.36980	1.65627
3150.000	1.79453	1.31613	1.34807	1.62448
3151.000	1.85773	1.32801	1.37573	1.69203
3152.000	1.83798	1.36578	1.32831	1.69604
3153.000	1.82021	1.37573	1.35004	1.66820
3154.000	1.83403	1.34392	1.40734	1.65028
3155.000	1.88933	1.31805	1.37573	1.68011
3156.000	1.81823	1.33201	1.31843	1.65630
3157.000	1.85181	1.32404	1.35004	1.66224
3158.000	1.86761	1.29620	1.39746	1.65227
3159.000	1.87156	1.34986	1.34016	1.65231
3160.000	1.82613	1.30418	1.32238	1.66027
3161.000	1.87946	1.34786	1.33226	1.69405
3162.000	1.87353	1.30415	1.34609	1.70397
3163.000	1.84193	1.33199	1.33819	1.77353
3164.000	1.84786	1.30814	1.35202	1.73775
3165.000	1.89328	1.32997	1.34214	1.71987
3166.000	1.90118	1.35381	1.41327	1.66816
3167.000	1.85971	1.34987	1.25322	1.68416
3168.000	1.88538	1.28427	1.31645	1.69605
3169.000	1.85773	1.25646	1.34214	1.63045
3170.000	1.83601	1.33001	1.39351	1.69997
3171.000	1.85576	1.34788	1.28286	1.68017
3172.000	1.86958	1.30415	1.33424	1.59270
3173.000	1.83008	1.33598	1.37968	1.66421
3174.000	1.81428	1.36381	1.37968	1.66619
3175.000	1.86366	1.35980	1.39549	1.68606
3176.000	1.86366	1.31608	1.32040	1.67617
3177.000	1.82613	1.30418	1.28286	1.75767
3178.000	1.81231	1.38170	1.37968	1.61850
3179.000	1.84786	1.33795	1.32040	1.62450
3180.000	1.88341	1.38164	1.34807	1.60859
3181.000	1.86366	1.33198	1.34807	1.63840
3182.000	1.86563	1.32204	1.46069	1.66415
3183.000	1.85971	1.35782	1.37771	1.61850
3184.000	1.85378	1.36179	1.38166	1.62049
3185.000	1.88143	1.31805	1.29076	1.59670
3186.000	1.86168	1.34986	1.33226	1.68213
3187.000	1.85971	1.36974	1.33819	1.64436
3188.000	1.87156	1.33595	1.43303	1.69398
3189.000	1.86958	1.33396	1.24729	1.65237
3190.000	1.86761	1.36178	1.36585	1.66223
3191.000	1.87748	1.31408	1.31645	1.63444
3192.000	1.82811	1.35983	1.33819	1.70795
3193.000	1.86563	1.33993	1.38561	1.63638
3194.000	1.88341	1.34786	1.46266	1.72972
3195.000	1.86761	1.34589	1.33819	1.64238
3196.000	1.87946	1.31408	1.41129	1.59463
3197.000	1.92093	1.30014	1.39944	1.65625
3198.000	1.87551	1.33992	1.39351	1.64631
3199.000	1.86168	1.31012	1.47057	1.68004
3200.000	1.86563	1.33595	1.38363	1.61452
3201.000	1.89525	1.36176	1.36585	1.69800
3202.000	1.87946	1.34985	1.37968	1.63837
3203.000	1.85773	1.32801	1.43896	1.68404
3204.000	1.84193	1.34591	1.45476	1.63435
3205.000	1.84786	1.32603	1.37375	1.68806
3206.000	1.80836	1.31016	1.40932	1.70790
3207.000	1.81626	1.31611	1.41525	1.71187
3208.000	1.82613	1.32207	1.40339	1.67413
3209.000	1.84193	1.32404	1.29274	1.73978
3210.000	1.85773	1.28826	1.42513	1.75161
3211.000	1.86958	1.32005	1.38956	1.67016
3212.000	1.82613	1.33201	1.46464	1.67408
3213.000	1.86761	1.32204	1.40339	1.72182
3214.000	1.84983	1.28032	1.41129	1.71188
3215.000	1.82021	1.27239	1.37573	1.66024
3216.000	1.86761	1.33396	1.39351	1.64035
3217.000	1.84786	1.31609	1.41920	1.67014
3218.000	1.85181	1.32006	1.39549	1.70593
3219.000	1.84983	1.32603	1.42908	1.73372
3220.000	1.83206	1.26045	1.40734	1.64630
3221.000	1.82416	1.27040	1.33028	1.61059
3222.000	1.81231	1.28631	1.42117	1.68206
3223.000	1.80441	1.29824	1.40537	1.61053
3224.000	1.84193	1.31212	1.37178	1.67216
3225.000	1.84193	1.28231	1.39154	1.61054
3226.000	1.86366	1.28826	1.43500	1.60058
3227.000	1.90118	1.31605	1.43105	1.57673
3228.000	1.90710	1.27431	1.40734	1.66220
3229.000	1.91303	1.30611	1.44883	1.65820
3230.000	1.86958	1.28428	1.53576	1.67204
3231.000	1.89723	1.31407	1.46464	1.61844
3232.000	1.86761	1.30018	1.37375	1.65626
3233.000	1.92685	1.25045	1.44291	1.58666
3234.000	1.92290	1.29417	1.45081	1.58666
3235.000	1.90908	1.30810	1.40537	1.58867
3236.000	1.91698	1.28822	1.33819	1.61257
3237.000	1.90908	1.23854	1.39154	1.62048
3238.000	1.90118	1.28624	1.39154	1.64830
3239.000	1.89525	1.26836	1.45871	1.55485
3240.000	1.90513	1.25245	1.44686	1.59660
3241.000	1.91500	1.27232	1.43698	1.58865
3242.000	1.84983	1.26640	1.40537	1.50123
3243.000	1.83206	1.24654	1.35399	1.49132
3244.000	1.87156	1.26838	1.42315	1.60854
3245.000	1.85773	1.27236	1.38956	1.54894
3246.000	1.84588	1.21275	1.35004	1.62250
3247.000	1.88341	1.29023	1.39154	1.57080
3248.000	1.88341	1.27234	1.39351	1.58272
3249.000	1.89130	1.29022	1.39944	1.55688
3250.000	1.88933	1.24849	1.35992	1.58274
3251.000	1.87946	1.22862	1.37375	1.61254
3252.000	1.87353	1.29421	1.40932	1.54098
3253.000	1.89723	1.27432	1.36585	1.58870
3254.000	1.88735	1.24849	1.45081	1.61249
3255.000	1.91303	1.23655	1.37968	1.62645
3256.000	1.85181	1.25249	1.43105	1.64827
3257.000	1.88538	1.27830	1.40734	1.60258
3258.000	1.85378	1.25845	1.42908	1.62443
3259.000	1.94265	1.28025	1.45081	1.65025
3260.000	1.89130	1.27830	1.41722	1.60059
3261.000	1.89130	1.31805	1.51403	1.57071
3262.000	1.92685	1.26039	1.37375	1.66024
3263.000	1.89525	1.26836	1.41722	1.55289
3264.000	1.90513	1.29617	1.47649	1.60651
3265.000	1.91303	1.29021	1.35399	1.64435
3266.000	1.91303	1.29617	1.39746	1.63836
3267.000	1.86761	1.21671	1.44291	1.57672
3268.000	1.85378	1.23063	1.41920	1.64431
3269.000	1.90710	1.25245	1.41129	1.63636
3270.000	1.86563	1.26242	1.41525	1.62046
3271.000	1.86958	1.23260	1.38561	1.66420
3272.000	1.84983	1.17498	1.44686	1.60653
3273.000	1.85181	1.19883	1.41327	1.62643
3274.000	1.85181	1.22665	1.45871	1.61447
3275.000	1.84193	1.20281	1.44291	1.58865
3276.000	1.88735	1.19284	1.39154	1.57477
3277.000	1.84193	1.19486	1.41129	1.61053
3278.000	1.81626	1.20283	1.47057	1.59062
3279.000	1.83996	1.21672	1.42908	1.58270
3280.000	1.85576	1.22466	1.37968	1.69004
3281.000	1.88341	1.19483	1.47847	1.53099
3282.000	1.84193	1.20877	1.44883	1.56082
3283.000	1.89130	1.26041	1.39549	1.54098
3284.000	1.86563	1.21472	1.43303	1.57872
3285.000	1.84983	1.23063	1.46069	1.58665
3286.000	1.92093	1.30411	1.43698	1.54891
3287.000	1.90315	1.24053	1.40537	1.64630
3288.000	1.88341	1.22663	1.38363	1.54894
3289.000	1.90315	1.25245	1.43303	1.55487
3290.000	1.91895	1.27232	1.46662	1.58664
3291.000	1.85181	1.29820	1.43896	1.60654
3292.000	1.91895	1.29815	1.45476	1.55883
3293.000	1.90908	1.24251	1.42710	1.52904
3294.000	1.86761	1.20677	1.35202	1.52511
3295.000	1.86168	1.20677	1.38561	1.52907
3296.000	1.84786	1.23858	1.35597	1.53902
3297.000	1.85378	1.21870	1.50218	1.52700
3298.000	1.84983	1.21871	1.40339	1.54297
3299.000	1.87748	1.27036	1.44291	1.52505
3300.000	1.83403	1.22667	1.45081	1.46543
3301.000	1.84193	1.25051	1.46069	1.56876
3302.000	1.84983	1.20877	1.44093	1.53499
3303.000	1.84193	1.21474	1.43896	1.52108
3304.000	1.84786	1.21076	1.47649	1.58266
3305.000	1.89130	1.21669	1.40932	1.53700
3306.000	1.85378	1.21672	1.39351	1.49726
3307.000	1.89328	1.24849	1.38166	1.51118
3308.000	1.88933	1.24650	1.42710	1.58866
3309.000	1.85971	1.27435	1.44686	1.57473
3310.000	1.86366	1.24652	1.49032	1.55682
3311.000	1.83996	1.20281	1.45871	1.56678
3312.000	1.83798	1.19486	1.39746	1.52707
3313.000	1.85576	1.22864	1.47254	1.54093
3314.000	1.89920	1.27631	1.44488	1.53300
3315.000	1.88538	1.22663	1.50810	1.56873
3316.000	1.89130	1.26439	1.47057	1.55087
3317.000	1.91303	1.28424	1.43105	1.58270
3318.000	1.89328	1.24650	1.40734	1.56880
3319.000	1.84588	1.23262	1.49625	1.53893
3320.000	1.89920	1.25246	1.49230	1.65220
3321.000	1.87748	1.24651	1.48045	1.56477
3322.000	1.88341	1.23657	1.45674	1.51908
3323.000	1.88143	1.22862	1.36980	1.59864
3324.000	1.83996	1.19685	1.32040	1.61059
3325.000	1.85378	1.21075	1.48637	1.56080
3326.000	1.85576	1.23063	1.43500	1.52903
3327.000	1.88143	1.23856	1.44686	1.61647
3328.000	1.86761	1.21869	1.38758	1.61651
3329.000	1.84193	1.17101	1.40142	1.64829
3330.000	1.86563	1.18292	1.37968	1.65228
3331.000	1.86563	1.17099	1.34412	1.60461
3332.000	1.86761	1.20677	1.41327	1.66816
3333.000	1.87156	1.15708	1.42710	1.61847
3334.000	1.88933	1.21073	1.30262	1.69208
3335.000	1.86168	1.17895	1.46069	1.58665
3336.000	1.92093	1.20276	1.39549	1.66420
3337.000	1.88933	1.18092	1.38363	1.62645
3338.000	1.90118	1.18290	1.45871	1.58466
3339.000	1.90908	1.16301	1.43303	1.63635
3340.000	1.91895	1.16698	1.43698	1.64628
3341.000	1.87946	1.11732	1.38956	1.68407
3342.000	1.89723	1.14911	1.41920	1.64033
3343.000	1.92883	1.13319	1.40142	1.63041
3344.000	1.86958	1.16702	1.34016	1.63045
3345.000	1.88933	1.12725	1.39351	1.64433
3346.000	1.90118	1.15507	1.39944	1.68407
3347.000	1.88933	1.15309	1.31843	1.70002
3348.000	1.90908	1.14115	1.43303	1.66218
3349.000	1.88933	1.15707	1.40932	1.68207
3350.000	1.92093	1.18288	1.41129	1.64431
3351.000	1.89130	1.18290	1.38561	1.70991
3352.000	1.88735	1.15110	1.39549	1.62247
3353.000	1.89525	1.15110	1.41327	1.66021
3354.000	1.89328	1.18091	1.41525	1.59662
3355.000	1.91698	1.12127	1.37771	1.61254
3356.000	1.92093	1.15307	1.38956	1.64234
3357.000	1.95647	1.16099	1.38363	1.63042
3358.000	1.89723	1.10340	1.42513	1.66616
3359.000	1.92093	1.15704	1.46266	1.60453
3360.000	1.91303	1.15904	1.35399	1.66025
3361.000	1.87946	1.19285	1.45279	1.56479
3362.000	1.88735	1.12924	1.48045	1.56477
3363.000	1.88538	1.09545	1.36980	1.62050
3364.000	1.87156	1.12925	1.44093	1.61250
3365.000	1.87353	1.13124	1.40142	1.63836
3366.000	1.87551	1.09943	1.47254	1.58465
3367.000	1.88341	1.11732	1.52391	1.63628
3368.000	1.87748	1.12726	1.51206	1.66808
3369.000	1.86958	1.17894	1.47649	1.60452
3370.000	1.89328	1.10141	1.43105	1.59661
3371.000	1.88538	1.13719	1.55157	1.50113
3372.000	1.89328	1.13520	1.45674	1.66614
3373.000	1.91303	1.16301	1.50415	1.60252
3374.000	1.92685	1.18884	1.52589	1.69391
3375.000	1.89920	1.18290	1.47254	1.61049
3376.000	1.86958	1.19087	1.48835	1.65221
3377.000	1.88143	1.15310	1.39944	1.63240
3378.000	1.91895	1.18487	1.49032	1.59060
3379.000	1.85378	1.16703	1.47452	1.60850
3380.000	1.89525	1.08750	1.41327	1.60854
3381.000	1.88143	1.12726	1.43896	1.62442
3382.000	1.90118	1.10339	1.42315	1.61251
3383.000	1.87551	1.10540	1.48242	1.58067
3384.000	1.88933	1.11334	1.40339	1.57675
3385.000	1.87748	1.15707	1.42908	1.61449
3386.000	1.86563	1.11733	1.50020	1.64822
3387.000	1.85378	1.15113	1.43303	1.62641
3388.000	1.89525	1.14514	1.45674	1.57274
3389.000	1.87946	1.14316	1.50810	1.58661
3390.000	1.87156	1.13124	1.43500	1.63834
3391.000	1.83008	1.13127	1.43500	1.58269
3392.000	1.88735	1.16899	1.46266	1.60652
3393.000	1.87551	1.16105	1.50218	1.61643
3394.000	1.87748	1.13322	1.46859	1.57472
3395.000	1.86563	1.12727	1.45871	1.60851
3396.000	1.87748	1.12328	1.46464	1.58068
3397.000	1.88735	1.23259	1.45476	1.56479
3398.000	1.87748	1.16105	1.43303	1.65423
3399.000	1.87551	1.12329	1.48835	1.66015
3400.000	1.90908	1.14115	1.43500	1.69397
3401.000	1.90908	1.17295	1.38956	1.60856
3402.000	1.86563	1.11137	1.45871	1.61845
3403.000	1.92488	1.10537	1.48045	1.57670
3404.000	1.92488	1.11928	1.42710	1.58667
3405.000	1.93475	1.10138	1.48835	1.64823
3406.000	1.90118	1.11532	1.48045	1.60651
3407.000	1.91500	1.09543	1.41920	1.62444
3408.000	1.86168	1.13323	1.44093	1.68404
3409.000	1.84786	1.07759	1.50218	1.55880
3410.000	1.84983	1.10740	1.52786	1.60449
3411.000	1.89920	1.10936	1.51403	1.60052
3412.000	1.88538	1.11732	1.35992	1.58870
3413.000	1.91303	1.13121	1.46464	1.56081
3414.000	1.89328	1.11731	1.47254	1.52901
3415.000	1.90513	1.11929	1.45674	1.52902
3416.000	1.86168	1.13522	1.43105	1.55090
3417.000	1.91698	1.12723	1.47254	1.62042
3418.000	1.91500	1.13121	1.44291	1.55884
3419.000	1.88735	1.07558	1.44488	1.53896
3420.000	1.88341	1.14912	1.49625	1.54290
3421.000	1.89723	1.12128	1.39746	1.59265
3422.000	1.91303	1.13121	1.46069	1.57274
3423.000	1.86958	1.13919	1.43303	1.57276
3424.000	1.86366	1.13919	1.39746	1.55887
3425.000	1.85971	1.13920	1.46069	1.54293
3426.000	1.92883	1.14511	1.46266	1.56081
3427.000	1.90710	1.14314	1.32831	1.59866
3428.000	1.91303	1.14512	1.45279	1.54492
3429.000	1.89723	1.10737	1.43105	1.54494
3430.000	1.91105	1.14314	1.44686	1.59858
3431.000	1.91303	1.16102	1.45674	1.56082
3432.000	1.92093	1.15108	1.45081	1.56281
3433.000	1.87551	1.14515	1.50415	1.61046
3434.000	1.87551	1.12925	1.44686	1.60852
3435.000	1.89525	1.13520	1.40537	1.58867
3436.000	1.86366	1.16503	1.39351	1.57080
3437.000	1.92093	1.18884	1.42513	1.59462
3438.000	1.86761	1.13323	1.45871	1.58466
3439.000	1.92488	1.17294	1.48440	1.58067
3440.000	1.87946	1.15508	1.43698	1.54692
3441.000	1.91895	1.17891	1.38956	1.60260
3442.000	1.90710	1.16500	1.51798	1.58462
3443.000	1.86958	1.13124	1.45476	1.54094
3444.000	1.84983	1.16305	1.43500	1.55487
3445.000	1.85181	1.16902	1.47649	1.58266
3446.000	1.88538	1.14912	1.45279	1.56281
3447.000	1.89328	1.15508	1.46464	1.60453
3448.000	1.88143	1.16900	1.45871	1.56082
3449.000	1.88735	1.18489	1.47847	1.55285
3450.000	1.85378	1.16106	1.37968	1.56286
3451.000	1.85181	1.17299	1.46859	1.62241
3452.000	1.88933	1.15309	1.42908	1.56084
3453.000	1.88538	1.18887	1.40537	1.60656
3454.000	1.87156	1.15708	1.46662	1.53895
3455.000	1.85971	1.16106	1.50415	1.51706
3456.000	1.84786	1.16107	1.42117	1.60655
3457.000	1.89525	1.18886	1.47452	1.56478
3458.000	1.88341	1.17893	1.45279	1.52703
3459.000	1.89723	1.17694	1.49428	1.53694
3460.000	1.85971	1.15311	1.45279	1.57076
3461.000	1.84588	1.18492	1.44883	1.48729
3462.000	1.90710	1.14513	1.43698	1.50320
3463.000	1.88538	1.20079	1.46859	1.56677
3464.000	1.89130	1.17296	1.50810	1.49917
3465.000	1.83601	1.17896	1.51206	1.47532
3466.000	1.90710	1.18488	1.45674	1.45747
3467.000	1.83008	1.18096	1.44488	1.55486
3468.000	1.85971	1.14317	1.50218	1.50315
3469.000	1.84588	1.15312	1.38758	1.48733
3470.000	1.89920	1.13917	1.46069	1.53895
3471.000	1.84193	1.16902	1.45081	1.53300
3472.000	1.87946	1.14912	1.40932	1.50719
3473.000	1.82811	1.14916	1.45279	1.53697
3474.000	1.81428	1.06767	1.39746	1.57278
3475.000	1.90315	1.11929	1.43896	1.46345
3476.000	1.86958	1.11931	1.37573	1.58273
3477.000	1.87748	1.12726	1.39549	1.53303
3478.000	1.81428	1.13923	1.43105	1.51314
3479.000	1.90908	1.17295	1.46859	1.53299
3480.000	1.89130	1.09744	1.39154	1.53105
3481.000	1.85773	1.11137	1.46662	1.55485
3482.000	1.90315	1.15109	1.48242	1.53695
3483.000	1.88933	1.18688	1.47452	1.54093
3484.000	1.86563	1.11335	1.43105	1.49525
3485.000	1.83798	1.08554	1.41525	1.52308
3486.000	1.94857	1.13516	1.40537	1.56483
3487.000	1.92290	1.11928	1.47057	1.57273
3488.000	2.01966	1.12716	1.62861	1.61633
3489.000	2.07889	1.16488	1.72738	1.59837
3490.000	2.22104	1.15881	1.74910	1.60232
3491.000	2.38486	1.21431	1.88341	1.57836
3492.000	2.60981	1.18828	2.09074	1.65961
3493.000	2.95695	1.24949	2.22301	1.68727
3494.000	3.25263	1.27892	2.50919	1.73657
3495.000	3.67810	1.39542	2.78538	1.77986
3496.000	3.93397	1.37913	3.04369	1.83700
3497.000	4.23885	1.46783	3.30189	1.81075
3498.000	4.55135	1.44344	3.59343	1.80028
3499.000	4.86161	1.39723	3.90642	1.75998
3500.000	5.14021	1.47584	4.16413	1.76933
3501.000	5.36566	1.46937	4.34698	1.78080
3502.000	5.55178	1.47089	4.58082	1.72080
3503.000	5.68297	1.52002	4.79291	1.70245
3504.000	5.73973	1.53372	4.86750	1.58144
3505.000	5.71037	1.54369	4.92638	1.66449
3506.000	5.70058	1.56745	4.86946	1.77751
3507.000	5.57724	1.57965	4.74579	1.65899
3508.000	5.44012	1.60772	4.67902	1.68688
3509.000	5.33430	1.59811	4.64171	1.69490
3510.000	5.15590	1.60846	4.41970	1.72712
3511.000	4.96366	1.65053	4.23492	1.71962
3512.000	4.79094	1.65492	4.17396	1.81093
3513.000	4.62599	1.66125	3.98906	1.92832
3514.000	4.46490	1.65964	3.79818	1.91488
3515.000	4.31749	1.70357	3.72141	1.91505
3516.000	4.20739	1.72364	3.56389	1.99868
3517.000	4.11496	1.72186	3.49889	1.93733
3518.000	4.02841	1.71610	3.38858	2.00500
3519.000	4.03038	1.71808	3.37479	2.06453
3520.000	3.96742	1.67458	3.42995	2.03466
3521.000	4.00284	1.67451	3.29401	2.03693
3522.000	3.99693	1.65073	3.28021	1.95166
3523.000	4.03431	1.60901	3.39252	1.98317
3524.000	4.09923	1.62078	3.40434	1.98116
3525.000	4.14840	1.58896	3.43192	1.95929
3526.000	4.25458	1.53521	3.54813	1.96301
3527.000	4.33322	1.53506	3.65447	1.91519
3528.000	4.38039	1.50126	3.62493	1.95293
3529.000	4.42166	1.51902	3.76865	1.87132
3530.000	4.49830	1.47526	3.77850	1.90104
3531.000	4.60242	1.51864	3.89462	1.88095
3532.000	4.62010	1.47104	3.97333	1.85104
3533.000	4.68688	1.49072	3.94184	1.85309
3534.000	4.74775	1.51040	3.96545	1.77770
3535.000	4.77327	1.53214	4.05005	1.83302
3536.000	4.80076	1.54396	4.03825	1.83503
3537.000	4.83020	1.54587	4.08742	1.77545
3538.000	4.85965	1.56562	4.12873	1.78329
3539.000	4.81843	1.58156	4.07366	1.83892
3540.000	4.75757	1.59755	4.11889	1.85467
3541.000	4.76149	1.60546	4.09333	1.90825
3542.000	4.77916	1.60740	4.04415	1.91431
3543.000	4.78898	1.62323	4.12086	1.95575
3544.000	4.78702	1.67671	4.09529	1.90230
3545.000	4.77327	1.65100	4.06185	2.01536
3546.000	4.78505	1.63116	4.00284	1.92630
3547.000	4.75757	1.65301	4.01267	1.89456
3548.000	4.76542	1.63517	4.01858	1.92032
3549.000	4.74971	1.68275	3.91430	1.93246
3550.000	4.76542	1.65498	4.04218	1.95396
3551.000	4.71830	1.62339	4.00874	1.91241
3552.000	4.72026	1.63924	3.97333	1.91448
3553.000	4.67117	1.65718	3.94381	1.86697
3554.000	4.66527	1.64729	3.93791	1.87293
3555.000	4.69866	1.63533	3.95562	1.91056
3556.000	4.67902	1.64528	3.93397	1.92448
3557.000	4.67313	1.62746	3.92610	1.95027
3558.000	4.62992	1.60775	4.00874	1.91440
3559.000	4.66331	1.65720	3.89462	1.96026
3560.000	4.67509	1.62349	4.01071	1.90448
3561.000	4.69277	1.63138	3.99497	1.92236
3562.000	4.67509	1.63142	3.98316	1.87877
3563.000	4.66135	1.64334	3.94381	1.84912
3564.000	4.65349	1.63147	3.89659	1.87302
3565.000	4.66920	1.57794	3.84935	1.83942
3566.000	4.68295	1.60961	3.93594	1.81543
3567.000	4.65349	1.59382	4.01464	1.81328
3568.000	4.65938	1.63938	3.90249	1.92852
3569.000	4.66135	1.59381	3.99103	1.83712
3570.000	4.69080	1.58581	3.96349	1.88278
3571.000	4.66331	1.62748	3.88281	1.85719
3572.000	4.70651	1.60163	3.92413	1.89675
3573.000	4.66920	1.61954	3.96152	1.91054
3574.000	4.72419	1.62932	4.01071	1.88466
3575.000	4.69080	1.63336	3.97136	1.99972
3576.000	4.69670	1.57589	3.92610	1.90269
3577.000	4.66920	1.61756	4.03038	1.85884
3578.000	4.68099	1.61952	3.89265	1.90872
3579.000	4.74186	1.61541	3.99890	1.85891
3580.000	4.73597	1.58175	4.02448	1.86877
3581.000	4.73204	1.60355	3.95758	1.81935
3582.000	4.71437	1.59170	3.97333	1.86095
3583.000	4.71241	1.59171	3.96152	1.87684
3584.000	4.75364	1.58567	3.94381	1.84714
3585.000	4.71830	1.60556	3.95758	1.85306
3586.000	4.71830	1.60754	3.96349	1.85503
3587.000	4.73990	1.59164	3.94381	1.85705
3588.000	4.73793	1.58967	3.93397	1.83130
3589.000	4.73204	1.56789	4.00284	1.85295
3590.000	4.66920	1.57397	4.01661	1.91636
3591.000	4.73400	1.57977	4.01071	1.77958
3592.000	4.73793	1.57778	3.94381	1.84516
3593.000	4.74775	1.59955	3.95758	1.85900
3594.000	4.73400	1.59562	3.99497	1.87676
3595.000	4.69277	1.59572	3.87887	1.85125
3596.000	4.71830	1.60556	3.93201	1.81941
3597.000	4.73793	1.58174	3.85329	1.81759
3598.000	4.72811	1.61743	4.04808	1.78347
3599.000	4.72222	1.61942	3.96742	1.90260
3600.000	4.73597	1.58373	3.93397	1.85906
3601.000	4.72811	1.60554	3.97136	1.79355
3602.000	4.69473	1.59571	3.98119	1.91843
3603.000	4.73793	1.61146	3.96939	1.82726
3604.000	4.70062	1.61551	3.96152	1.82926
3605.000	4.68295	1.60366	3.99497	1.75979
3606.000	4.68099	1.52243	3.88871	1.76398
3607.000	4.73400	1.59364	3.91626	1.90073
3608.000	4.72615	1.56394	3.90642	1.85317
3609.000	4.70848	1.57983	3.97923	1.82922
3610.000	4.70651	1.54615	3.99693	1.77366
3611.000	4.71044	1.58973	4.03431	1.78151
3612.000	4.73204	1.60553	3.91430	1.88488
3613.000	4.67902	1.54621	3.91036	1.84920
3614.000	4.71044	1.59171	3.97726	1.87680
3615.000	4.71437	1.54217	3.99300	1.78160
3616.000	4.69473	1.55212	4.01464	1.80336
3617.000	4.70651	1.54813	3.90249	1.80956
3618.000	4.67117	1.52047	3.94381	1.75395
3619.000	4.67902	1.52640	4.04612	1.75770
3620.000	4.71044	1.52237	3.95955	1.76780
3621.000	4.69277	1.50854	3.95955	1.82530
3622.000	4.71044	1.56199	3.93201	1.73415
3623.000	4.72222	1.49064	3.98906	1.78558
3624.000	4.70848	1.52435	3.98906	1.78161
3625.000	4.71044	1.50057	3.88871	1.73027
3626.000	4.68295	1.48478	3.95955	1.74004
3627.000	4.73793	1.52429	3.88871	1.80562
3628.000	4.69473	1.52637	3.92217	1.69451
3629.000	4.74775	1.55993	3.90052	1.80361
3630.000	4.68491	1.50261	4.00087	1.82322
3631.000	4.72026	1.52235	3.98513	1.75188
3632.000	4.70062	1.50258	3.95758	1.85702
3633.000	4.70062	1.50060	3.92020	1.76788
3634.000	4.69473	1.50853	3.94184	1.82335
3635.000	4.68884	1.48477	4.04021	1.76564
3636.000	4.67706	1.52244	4.02448	1.83506
3637.000	4.70455	1.50455	4.03825	1.84891
3638.000	4.69277	1.50457	3.90446	1.83533
3639.000	4.71633	1.48867	3.92413	1.78373
3640.000	4.69277	1.51448	3.92807	1.89079
3641.000	4.66135	1.45709	4.05202	1.87068
3642.000	4.71633	1.51047	3.95365	1.75789
3643.000	4.69080	1.50458	4.00480	1.76770
3644.000	4.69080	1.47684	3.99497	1.76574
3645.000	4.64563	1.51656	4.02841	1.82712
3646.000	4.63581	1.50272	4.02841	1.80532
3647.000	4.68688	1.48081	3.92610	1.80356
3648.000	4.67706	1.47092	3.94381	1.72817
3649.000	4.69473	1.47287	4.07366	1.77350
3650.000	4.70062	1.51248	3.94971	1.74997
3651.000	4.64171	1.46307	4.03825	1.74383
3652.000	4.63189	1.46507	3.92413	1.78373
3653.000	4.65742	1.49871	3.90839	1.77782
3654.000	4.65349	1.46899	3.99890	1.79349
3655.000	4.65545	1.48088	3.98316	1.75188
3656.000	4.69277	1.51250	4.06579	1.81515
3657.000	4.67509	1.47093	3.94775	1.81342
3658.000	4.69670	1.45503	3.93594	1.77974
3659.000	4.65349	1.47494	4.00874	1.74985
3660.000	4.69670	1.45503	4.03628	1.82711
3661.000	4.68884	1.48081	3.96545	1.83321
3662.000	4.66135	1.47294	4.05005	1.80923
3663.000	4.69080	1.48873	4.03825	1.78547
3664.000	4.66920	1.48679	4.04808	1.71209
3665.000	4.67509	1.48876	3.96545	1.77175
3666.000	4.67313	1.49273	3.96742	1.70433
3667.000	4.70848	1.51445	3.96349	1.74598
3668.000	4.67509	1.51056	3.99497	1.70031
3669.000	4.66331	1.51455	4.00284	1.73400
3670.000	4.69277	1.45900	3.97136	1.80743
3671.000	4.66135	1.50068	4.00480	1.73399
3672.000	4.66724	1.47689	4.00087	1.79150
3673.000	4.69670	1.49070	3.97529	1.77371
3674.000	4.64367	1.51855	3.92217	1.73020
3675.000	4.63581	1.48488	3.93397	1.75992
3676.000	4.64563	1.51656	3.93988	1.72421
3677.000	4.65349	1.46503	3.96152	1.75589
3678.000	4.65742	1.45313	3.93791	1.70835
3679.000	4.64367	1.49279	4.00284	1.79546
3680.000	4.68688	1.47487	3.94184	1.76189
3681.000	4.63778	1.49280	3.95168	1.81936
3682.000	4.65742	1.46898	4.04808	1.76760
3683.000	4.63189	1.46705	3.98906	1.79946
3684.000	4.67509	1.47885	3.90052	1.79965
3685.000	4.63778	1.46308	3.95955	1.81142
3686.000	4.62207	1.47302	4.00480	1.82321
3687.000	4.62207	1.47698	3.94381	1.75990
3688.000	4.62599	1.48490	4.00874	1.73993
3689.000	4.64956	1.46107	3.95168	1.73212
3690.000	4.66135	1.48086	3.99890	1.72013
3691.000	4.62992	1.45913	3.93397	1.74406
3692.000	4.62010	1.48095	3.94381	1.79955
3693.000	4.64367	1.47694	3.92020	1.77383
3694.000	4.64171	1.48685	3.88084	1.79572
3695.000	4.65742	1.46304	3.92020	1.83331
3696.000	4.64956	1.51854	3.95562	1.76582
3697.000	4.66920	1.52840	3.98906	1.79153
3698.000	4.57492	1.52068	3.85526	1.73629
3699.000	4.53170	1.47122	3.77653	1.77809
3700.000	4.48062	1.50106	3.64856	1.63355
3701.000	4.25655	1.37858	3.50874	1.54451
3702.000	4.06185	1.30752	3.40040	1.28468
3703.000	3.82574	1.19083	3.20139	1.19560
3704.000	3.49692	0.94115	2.99046	1.11640
3705.000	3.16788	0.75677	2.73409	0.91799
3706.000	2.79721	0.45304	2.43223	0.70955
3707.000	2.45591	0.24646	2.15984	0.50693
3708.000	2.09271	0.02187	1.99991	0.32805
3709.000	1.78268	-0.22072	1.72145	0.10340
3710.000	1.43105	-0.39776	1.49823	0.00199
3711.000	1.12477	-0.55493	1.23148	-0.29834
3712.000	0.91527	-0.73596	1.05758	-0.36002
3713.000	0.74133	-0.88515	0.92516	-0.46347
3714.000	0.64645	-1.00052	0.77691	-0.60869
3715.000	0.55552	-1.08605	0.73145	-0.62063
3716.000	0.56540	-1.16559	0.67215	-0.63257
3717.000	0.59703	-1.17553	0.58715	-0.61269
3718.000	0.67808	-1.19142	0.62866	-0.65048
3719.000	0.71366	-1.18743	0.65041	-0.65048
3720.000	0.84807	-1.14365	0.60099	-0.56296
3721.000	0.90539	-1.13965	0.67017	-0.55898
3722.000	0.96469	-1.12771	0.64250	-0.51124
3723.000	1.06548	-1.03024	0.65436	-0.41775
3724.000	1.08524	-0.98847	0.72157	-0.34215
3725.000	1.23148	-0.90093	0.75715	-0.33021
3726.000	1.26903	-0.91086	0.81842	-0.37994
3727.000	1.29472	-0.81739	0.78680	-0.32225
3728.000	1.38166	-0.77163	0.84214	-0.24069
3729.000	1.42513	-0.73781	0.83424	-0.25064
3730.000	1.39549	-0.76566	0.89946	-0.27650
3731.000	1.42117	-0.73781	0.97457	-0.24665
3732.000	1.42908	-0.70202	0.92713	-0.22676
3733.000	1.46266	-0.68411	1.00817	-0.21482
3734.000	1.48637	-0.69603	0.99236	-0.18698
3735.000	1.47452	-0.69604	0.97457	-0.18300
3736.000	1.46266	-0.65627	1.05362	-0.16907
3737.000	1.44291	-0.66025	1.09908	-0.21482
3738.000	1.45674	-0.68809	1.07141	-0.19493
3739.000	1.44883	-0.67218	1.09117	-0.18101
3740.000	1.38956	-0.65629	1.03386	-0.24665
3741.000	1.38758	-0.65828	1.02398	-0.18698
3742.000	1.30460	-0.69012	0.91725	-0.23870
3743.000	1.25717	-0.72991	0.95283	-0.23870
3744.000	1.20579	-0.75180	0.79866	-0.30833
3745.000	1.16825	-0.76971	0.81249	-0.29043
3746.000	1.12477	-0.76375	0.71168	-0.29441
3747.000	1.12477	-0.84330	0.78680	-0.33220
3748.000	1.09315	-0.84132	0.76901	-0.35408
3749.000	1.07536	-0.85325	0.67413	-0.38592
3750.000	1.02595	-0.89503	0.69785	-0.41774
3751.000	1.01212	-0.90498	0.68203	-0.37199
3752.000	1.02003	-0.90696	0.64843	-0.41974
3753.000	1.04374	-0.94474	0.57924	-0.37001
3754.000	0.99829	-0.97060	0.63459	-0.44162
3755.000	0.98840	-0.94873	0.61087	-0.40582
3756.000	0.96666	-0.90101	0.52784	-0.36405
3757.000	0.96271	-0.99249	0.60692	-0.48737
3758.000	0.99433	-0.95072	0.60494	-0.40780
3759.000	0.99038	-1.00044	0.67808	-0.47941
3760.000	0.98643	-0.95669	0.66424	-0.39189
3761.000	0.96469	-0.99050	0.62471	-0.37200
3762.000	1.00026	-0.97856	0.62075	-0.38393
3763.000	1.00619	-0.98253	0.66424	-0.38592
3764.000	1.03188	-1.01235	0.68006	-0.39189
3765.000	1.00817	-0.94475	0.63064	-0.40581
3766.000	1.01607	-0.99247	0.66820	-0.45355
3767.000	1.06351	-0.94871	0.69389	-0.47344
3768.000	1.05560	-1.00638	0.76308	-0.50526
3769.000	1.05955	-0.95269	0.64250	-0.43565
3770.000	1.09315	-0.95268	0.66820	-0.40581
3771.000	1.05362	-0.97457	0.71959	-0.40780
3772.000	1.10303	-0.96660	0.66622	-0.46151
3773.000	1.04769	-0.99048	0.73343	-0.41177
3774.000	1.08524	-0.95865	0.70180	-0.40979
3775.000	1.09513	-0.93478	0.81052	-0.45354
3776.000	1.07339	-0.91490	0.68994	-0.40581
3777.000	1.05955	-0.91491	0.71761	-0.46946
3778.000	1.03584	-0.92685	0.71366	-0.38393
3779.000	1.05165	-0.93678	0.69587	-0.42968
3780.000	1.05165	-0.91292	0.74133	-0.40978
3781.000	1.06548	-0.93678	0.76901	-0.36005
3782.000	1.07536	-0.90496	0.73343	-0.39188
3783.000	1.00421	-0.92884	0.77691	-0.41376
3784.000	1.01805	-0.97656	0.76901	-0.41575
3785.000	1.06746	-0.93678	0.77691	-0.40182
3786.000	1.05362	-0.94076	0.76901	-0.43763
3787.000	1.07932	-0.92286	0.75122	-0.41575
3788.000	1.04572	-0.94474	0.69982	-0.33420
3789.000	1.07141	-0.92485	0.72947	-0.42570
3790.000	1.10698	-0.86915	0.82633	-0.43961
3791.000	1.06548	-0.93280	0.77494	-0.41575
3792.000	1.05758	-0.87911	0.73145	-0.45355
3793.000	1.03386	-0.93679	0.80656	-0.41773
3794.000	1.06548	-0.92286	0.75319	-0.37199
3795.000	1.06351	-0.91093	0.70773	-0.39785
3796.000	1.04967	-0.96661	0.76308	-0.43962
3797.000	1.08327	-0.89899	0.74726	-0.42967
3798.000	1.04572	-0.93480	0.66622	-0.45753
3799.000	1.02793	-0.91293	0.70575	-0.44161
3800.000	1.06943	-0.91490	0.73738	-0.38989
3801.000	1.03781	-0.90895	0.69785	-0.37597
3802.000	1.08129	-0.90695	0.80459	-0.40978
3803.000	0.97457	-0.89504	0.65634	-0.43167
3804.000	1.04769	-0.91491	0.82831	-0.38392
3805.000	1.02793	-0.89304	0.73738	-0.39984
3806.000	1.02595	-0.94276	0.76901	-0.41376
3807.000	1.00421	-0.94276	0.75319	-0.42172
3808.000	1.04572	-0.94076	0.76308	-0.49929
3809.000	1.00026	-0.94674	0.68401	-0.37199
3810.000	1.03979	-0.91094	0.72947	-0.41973
3811.000	1.02200	-0.95867	0.80656	-0.44956
3812.000	1.07734	-0.94871	0.79273	-0.45155
3813.000	1.07932	-0.95865	0.73343	-0.45156
3814.000	1.06746	-0.91888	0.73343	-0.39785
3815.000	1.01212	-0.91691	0.74529	-0.45354
3816.000	1.05560	-0.96462	0.72552	-0.46150
3817.000	1.05362	-0.97854	0.70575	-0.48537
3818.000	1.01410	-0.98054	0.71761	-0.51322
3819.000	1.03386	-0.92685	0.74726	-0.45354
3820.000	1.07339	-0.93479	0.68203	-0.53312
3821.000	1.03188	-0.93679	0.78284	-0.43564
3822.000	1.02991	-0.96861	0.80459	-0.44359
3823.000	1.04572	-0.92684	0.68599	-0.44161
3824.000	1.07339	-0.88905	0.78680	-0.46150
3825.000	1.04572	-0.94076	0.71761	-0.41575
3826.000	1.06548	-0.89701	0.75912	-0.38989
3827.000	1.05165	-0.94474	0.79075	-0.42370
3828.000	1.02595	-0.91293	0.76110	-0.51123
3829.000	1.08920	-0.91689	0.76110	-0.43763
3830.000	1.03188	-0.96662	0.79273	-0.46746
3831.000	1.05362	-0.96065	0.74133	-0.43962
3832.000	1.05560	-0.92485	0.62273	-0.50726
3833.000	1.05560	-0.97655	0.76703	-0.43763
3834.000	1.05758	-0.97258	0.81645	-0.47741
3835.000	1.05165	-0.93281	0.76703	-0.41774
3836.000	1.00421	-0.97856	0.82238	-0.46945
3837.000	1.03188	-0.92685	0.78087	-0.45752
3838.000	1.06351	-0.96661	0.81052	-0.46945
3839.000	1.04967	-0.93281	0.70180	-0.50527
3840.000	1.10896	-0.93080	0.78482	-0.51122
3841.000	1.09315	-0.94274	0.79866	-0.52515
3842.000	1.02200	-0.94077	0.75319	-0.51123
3843.000	1.07536	-0.93280	0.79075	-0.50923
3844.000	1.05560	-0.93877	0.70180	-0.47344
3845.000	1.04967	-0.93480	0.77098	-0.54703
3846.000	1.06351	-0.94871	0.72354	-0.51919
3847.000	1.07536	-0.89104	0.80261	-0.46945
3848.000	1.05955	-0.91888	0.73145	-0.51919
3849.000	1.07339	-0.94473	0.74133	-0.53709
3850.000	1.09908	-0.91887	0.81249	-0.51520
3851.000	1.07734	-0.91291	0.83226	-0.44359
3852.000	1.06351	-0.89104	0.75122	-0.46548
3853.000	1.08129	-0.91689	0.71959	-0.44360
3854.000	1.10896	-0.93279	0.79668	-0.52515
3855.000	1.04177	-0.93281	0.76308	-0.47343
3856.000	1.08722	-0.95666	0.77098	-0.53112
3857.000	1.05758	-0.89104	0.84214	-0.47740
3858.000	1.08524	-0.90893	0.80261	-0.43564
3859.000	1.05758	-0.92883	0.88958	-0.53906
3860.000	1.08129	-0.93677	0.75319	-0.51918
3861.000	1.06153	-0.91292	0.76505	-0.52714
3862.000	1.06943	-0.93877	0.78284	-0.46349
3863.000	1.11291	-0.89500	0.83028	-0.52514
3864.000	1.12872	-0.90693	0.74529	-0.45354
3865.000	1.09117	-0.91092	0.82831	-0.53111
3866.000	1.10501	-0.90495	0.85598	-0.55298
3867.000	1.06548	-0.88508	0.80656	-0.50724
3868.000	1.10698	-0.94870	0.74529	-0.48935
3869.000	1.08920	-0.86916	0.74529	-0.48537
3870.000	1.14453	-0.91886	0.77296	-0.52515
3871.000	1.09315	-0.94075	0.74726	-0.48935
3872.000	1.09513	-0.93080	0.78284	-0.50128
3873.000	1.11094	-0.90694	0.76901	-0.45553
3874.000	1.06943	-0.94473	0.84017	-0.49729
3875.000	1.11687	-0.94472	0.74331	-0.54107
3876.000	1.10896	-0.90694	0.82238	-0.45552
3877.000	1.16429	-0.91686	0.76901	-0.49531
3878.000	1.08920	-0.91092	0.74924	-0.49532
3879.000	1.09710	-0.90893	0.84807	-0.50525
3880.000	1.09513	-0.89899	0.75912	-0.50128
3881.000	1.09513	-0.92484	0.83819	-0.46547
3882.000	1.09513	-0.93478	0.81842	-0.47939
3883.000	1.11687	-0.91887	0.78877	-0.50725
3884.000	1.13860	-0.94272	0.74726	-0.45951
3885.000	1.09315	-0.89501	0.82238	-0.46547
3886.000	1.10106	-0.93080	0.76703	-0.53112
3887.000	1.10698	-0.94671	0.77494	-0.44757
3888.000	1.13465	-0.91488	0.73540	-0.48736
3889.000	1.11489	-0.92086	0.77296	-0.54703
3890.000	1.11687	-0.88307	0.77296	-0.42171
3891.000	1.11687	-0.93080	0.81447	-0.50127
3892.000	1.12872	-0.89102	0.86784	-0.46745
3893.000	1.11489	-0.90495	0.75122	-0.53311
3894.000	1.11489	-0.90296	0.76901	-0.47343
3895.000	1.12279	-0.92881	0.80459	-0.48138
3896.000	1.11094	-0.94074	0.77494	-0.50526
3897.000	1.12872	-0.92881	0.69982	-0.46150
3898.000	1.09710	-0.89103	0.77296	-0.47741
3899.000	1.12675	-0.95466	0.71366	-0.53510
3900.000	1.07734	-0.88905	0.77691	-0.47940
3901.000	1.11291	-0.89302	0.74331	-0.51123
3902.000	1.13860	-0.92085	0.70773	-0.41774
3903.000	1.09513	-0.91490	0.75517	-0.49531
3904.000	1.16627	-0.87908	0.74924	-0.48736
3905.000	1.13663	-0.87710	0.78284	-0.49929
3906.000	1.14256	-0.89301	0.80063	-0.46746
3907.000	1.07734	-0.88308	0.72947	-0.46747
3908.000	1.13465	-0.89699	0.68401	-0.47941
3909.000	1.11291	-0.89103	0.76308	-0.47343
3910.000	1.14058	-0.89500	0.80854	-0.46149
3911.000	1.12477	-0.89102	0.75715	-0.55300
3912.000	1.09710	-0.87910	0.77691	-0.44558
3913.000	1.10896	-0.93677	0.70378	-0.45355
3914.000	1.12279	-0.91688	0.80656	-0.46945
3915.000	1.11884	-0.89103	0.77098	-0.49133
3916.000	1.10698	-0.94074	0.76703	-0.46349
3917.000	1.09513	-0.92683	0.69389	-0.48935
3918.000	1.07141	-0.93081	0.80261	-0.52316
3919.000	1.09710	-0.94274	0.78680	-0.55299
3920.000	1.11884	-0.93676	0.73936	-0.51919
3921.000	1.12279	-0.93278	0.75319	-0.52316
3922.000	1.11884	-0.96659	0.75319	-0.49134
3923.000	1.10501	-0.91489	0.78482	-0.50526
3924.000	1.10501	-0.93876	0.76308	-0.52714
3925.000	1.12872	-0.96659	0.75715	-0.48736
3926.000	1.11489	-0.93279	0.70971	-0.52715
3927.000	1.12279	-0.94074	0.77494	-0.48736
3928.000	1.09117	-0.95069	0.80656	-0.49531
3929.000	1.10896	-0.94472	0.81842	-0.41972
3930.000	1.13070	-0.92085	0.83226	-0.48934
3931.000	1.10303	-0.92881	0.76703	-0.52316
3932.000	1.09315	-0.94671	0.69192	-0.57688
3933.000	1.07734	-0.95666	0.78284	-0.46349
3934.000	1.11884	-0.94273	0.89353	-0.56491
3935.000	1.08722	-0.94870	0.78284	-0.46547
3936.000	1.11884	-0.96659	0.72354	-0.49930
3937.000	1.09513	-0.93876	0.83424	-0.49332
3938.000	1.06746	-0.92882	0.76110	-0.42172
3939.000	1.12675	-0.92483	0.73145	-0.50924
3940.000	1.11291	-0.95864	0.79075	-0.51918
3941.000	1.09710	-0.93677	0.79668	-0.56692
3942.000	1.09315	-0.94075	0.77098	-0.49133
3943.000	1.05560	-0.96462	0.77691	-0.48338
3944.000	1.07734	-0.94871	0.69785	-0.52317
3945.000	1.09117	-0.97058	0.81842	-0.49730
3946.000	1.06153	-0.94672	0.81249	-0.51122
3947.000	1.09117	-0.94473	0.77691	-0.48934
3948.000	1.05758	-0.96661	0.75517	-0.40779
3949.000	1.07932	-0.94871	0.75517	-0.50128
3950.000	1.08129	-0.92882	0.73738	-0.51919
3951.000	1.09513	-0.91887	0.67215	-0.53710
3952.000	1.10501	-0.91688	0.83424	-0.44558
3953.000	1.04177	-0.93082	0.68796	-0.52516
3954.000	1.04572	-0.94076	0.76505	-0.53311
3955.000	1.07536	-0.90496	0.77098	-0.44757
3956.000	1.09908	-0.95864	0.72157	-0.50526
3957.000	1.09117	-0.89302	0.75517	-0.47542
3958.000	1.08722	-0.90496	0.83028	-0.45552
3959.000	1.13860	-0.85523	0.70971	-0.51123
3960.000	1.12082	-0.90097	0.78284	-0.46746
3961.000	1.11291	-0.91489	0.79668	-0.49531
3962.000	1.10501	-0.88506	0.70971	-0.45554
3963.000	1.13070	-0.89898	0.78680	-0.48735
3964.000	1.15046	-0.90096	0.75319	-0.52316
3965.000	1.13070	-0.89699	0.68203	-0.44957
3966.000	1.12675	-0.89699	0.74331	-0.48338
3967.000	1.09117	-0.91887	0.77296	-0.49332
3968.000	1.12675	-0.91290	0.76703	-0.49332
3969.000	1.08327	-0.89303	0.76505	-0.52515
3970.000	1.09908	-0.92683	0.76703	-0.52714
3971.000	1.07932	-0.90894	0.75517	-0.47940
3972.000	1.10501	-0.94074	0.74726	-0.48935
3973.000	1.07734	-0.92087	0.74529	-0.43763
3974.000	1.09315	-0.92683	0.70180	-0.42172
3975.000	1.10896	-0.95466	0.80656	-0.45950
3976.000	1.06548	-0.96661	0.77296	-0.50128
3977.000	1.11291	-0.94472	0.71959	-0.46548
3978.000	1.08722	-0.97257	0.71761	-0.48736
3979.000	1.11094	-0.93677	0.74529	-0.44758
3980.000	1.08524	-0.91291	0.80261	-0.52515
3981.000	1.08327	-0.92683	0.77889	-0.51321
3982.000	1.08722	-0.91092	0.72157	-0.53709
3983.000	1.08722	-0.95666	0.73343	-0.43166
3984.000	1.11884	-0.90495	0.77889	-0.47542
3985.000	1.11291	-0.95864	0.71761	-0.44957
3986.000	1.09315	-0.98251	0.75122	-0.47741
3987.000	1.08722	-0.94870	0.70971	-0.45554
3988.000	1.06351	-0.97655	0.77296	-0.46746
3989.000	1.10106	-0.99245	0.77494	-0.43564
3990.000	1.06943	-0.95666	0.67808	-0.48538
3991.000	1.11687	-0.97852	0.75122	-0.46946
3992.000	1.10303	-0.93080	0.72552	-0.44758
3993.000	1.09908	-0.96262	0.68599	-0.42968
3994.000	1.07932	-0.97456	0.69587	-0.54306
3995.000	1.10698	-0.95665	0.76308	-0.50327
3996.000	1.11489	-0.92086	0.71761	-0.45554
3997.000	1.08722	-0.96859	0.73540	-0.51322
3998.000	1.11884	-0.96261	0.69982	-0.48736
3999.000	1.09710	-0.95864	0.68401	-0.51521
4000.000	1.13465	-0.97255	0.71761	-0.52118
4001.000	1.11884	-0.95864	0.73936	-0.48736
4002.000	1.12279	-0.96261	0.71564	-0.56494
4003.000	1.12477	-0.96062	0.76110	-0.49531
4004.000	1.09315	-0.91291	0.71761	-0.50924
4005.000	1.10698	-0.95864	0.71761	-0.57488
4006.000	1.15837	-0.98248	0.67610	-0.47344
4007.000	1.10106	-0.93279	0.67808	-0.51720
4008.000	1.14256	-0.96261	0.70378	-0.52118
4009.000	1.13663	-0.92284	0.66227	-0.53909
4010.000	1.13268	-0.98846	0.72552	-0.51521
4011.000	1.12872	-0.96858	0.70575	-0.45554
4012.000	1.13465	-0.92284	0.71564	-0.52118
4013.000	1.16232	-0.92879	0.66820	-0.52317
4014.000	1.15046	-0.94868	0.68599	-0.51124
4015.000	1.13663	-0.93477	0.73343	-0.52316
4016.000	1.12872	-0.96858	0.68994	-0.46151
4017.000	1.15441	-0.93874	0.72947	-0.51322
4018.000	1.15046	-0.96857	0.73540	-0.48537
4019.000	1.13860	-0.95863	0.69785	-0.43962
4020.000	1.10303	-0.99046	0.70971	-0.48736
4021.000	1.14058	-1.01629	0.72552	-0.48736
4022.000	1.11687	-0.99244	0.69389	-0.43366
4023.000	1.14058	-0.97454	0.74529	-0.46349
4024.000	1.11291	-0.96659	0.68994	-0.44758
4025.000	1.07536	-0.97058	0.68006	-0.45753
4026.000	1.13465	-0.99641	0.64843	-0.51124
4027.000	1.09710	-0.99841	0.67413	-0.46747
4028.000	1.10698	-0.97853	0.68796	-0.50328
4029.000	1.10106	-1.02625	0.71761	-0.44161
4030.000	1.07932	-0.97655	0.71761	-0.47344
4031.000	1.10896	-0.99244	0.73343	-0.48537
4032.000	1.15639	-0.99243	0.66029	-0.48936
4033.000	1.12675	-0.99840	0.70971	-0.49532
4034.000	1.09710	-0.97654	0.66622	-0.44957
4035.000	1.10896	-1.00239	0.73145	-0.39387
4036.000	1.08920	-0.94671	0.69192	-0.44957
4037.000	1.07734	-0.96462	0.79866	-0.44359
4038.000	1.10303	-0.96461	0.70180	-0.45952
4039.000	1.10896	-0.94074	0.71761	-0.51919
4040.000	1.07339	-0.97257	0.73540	-0.52118
4041.000	1.07536	-0.96660	0.71366	-0.46349
4042.000	1.09908	-0.98250	0.68994	-0.51720
4043.000	1.09513	-0.97057	0.74726	-0.51322
4044.000	1.12279	-0.97852	0.65831	-0.44957
4045.000	1.10501	-0.94273	0.69389	-0.55301
4046.000	1.14256	-0.96658	0.67808	-0.51720
4047.000	1.11687	-0.92881	0.69192	-0.55301
4048.000	1.11291	-0.96262	0.80261	-0.49929
4049.000	1.14848	-0.93079	0.73343	-0.45951
4050.000	1.10106	-0.96858	0.76110	-0.59875
4051.000	1.09513	-0.91092	0.70180	-0.51521
4052.000	1.09908	-0.89899	0.76703	-0.55499
4053.000	1.08722	-0.93081	0.75912	-0.53112
4054.000	1.11094	-0.91887	0.73343	-0.55499
4055.000	1.05758	-0.92485	0.82435	-0.51520
4056.000	1.11094	-0.90694	0.78284	-0.51918
4057.000	1.10106	-0.92881	0.78482	-0.56095
4058.000	1.10303	-0.93279	0.74331	-0.51919
4059.000	1.05955	-0.94275	0.74133	-0.50526
4060.000	1.06351	-0.93280	0.76901	-0.46548
4061.000	1.06943	-0.93479	0.72947	-0.58483
4062.000	1.09710	-0.86916	0.81052	-0.55697
4063.000	1.09117	-0.90694	0.81842	-0.52315
4064.000	1.14058	-0.90096	0.72750	-0.48935
4065.000	1.07932	-0.93280	0.73738	-0.51720
4066.000	1.10896	-0.95267	0.73343	-0.50725
4067.000	1.08722	-0.93876	0.78284	-0.47741
4068.000	1.11687	-0.91290	0.76308	-0.50725
4069.000	1.04572	-0.93877	0.72157	-0.57886
4070.000	1.07141	-0.92683	0.84214	-0.56293
4071.000	1.09513	-0.96859	0.76703	-0.56891
4072.000	1.08920	-0.95069	0.73936	-0.56096
4073.000	1.07339	-1.00637	0.76308	-0.57289
4074.000	1.11884	-0.96261	0.77889	-0.64648
4075.000	1.08524	-1.00637	0.73738	-0.57488
4076.000	1.08920	-0.96859	0.84807	-0.60669
4077.000	1.06548	-0.97854	0.76110	-0.57488
4078.000	1.06548	-0.95468	0.69785	-0.56494
4079.000	1.08920	-0.91887	0.69192	-0.55698
4080.000	1.02398	-0.88111	0.73343	-0.50725
4081.000	0.96073	-0.84533	0.72552	-0.46946
4082.000	0.92713	-0.83937	0.55552	-0.47942
4083.000	0.86784	-0.78768	0.47052	-0.42174
4084.000	0.82435	-0.73399	0.51401	-0.38195
4085.000	0.75122	-0.67234	0.37563	-0.36206
4086.000	0.71168	-0.61069	0.37760	-0.35013
4087.000	0.66820	-0.55699	0.29062	-0.27454
4088.000	0.63262	-0.54108	0.24910	-0.14523
4089.000	0.62273	-0.47345	0.17200	-0.13130
4090.000	0.56936	-0.46152	0.12060	-0.04178
4091.000	0.60692	-0.38791	0.25305	-0.00398
4092.000	0.62273	-0.34017	0.21154	0.02188
4093.000	0.68006	-0.27850	0.25701	0.13528
4094.000	0.72947	-0.26059	0.29457	0.14523
4095.000	0.77691	-0.26059	0.37563	0.19695
4096.000	0.84412	-0.23274	0.41912	0.15119
4097.000	0.88760	-0.21483	0.47249	0.20093
4098.000	0.91527	-0.20290	0.44284	0.23872
4099.000	0.95876	-0.24864	0.51005	0.20291
4100.000	0.96864	-0.23671	0.54366	0.14124
4101.000	0.99631	-0.34412	0.56738	0.16710
4102.000	1.01212	-0.26654	0.54761	0.12931
4103.000	1.01805	-0.29638	0.57133	0.05570
4104.000	0.97062	-0.34611	0.52982	0.03382
4105.000	0.91725	-0.36004	0.52784	-0.07957
4106.000	0.94492	-0.43761	0.60099	-0.10146
4107.000	0.88167	-0.51718	0.60099	-0.08554
4108.000	0.91132	-0.52314	0.49226	-0.15318
4109.000	0.88563	-0.56690	0.54168	-0.13130
4110.000	0.84610	-0.61067	0.49622	-0.14323
4111.000	0.82633	-0.60073	0.48633	-0.19297
4112.000	0.86981	-0.56293	0.48633	-0.20689
4113.000	0.84214	-0.60868	0.43889	-0.25464
4114.000	0.81842	-0.63852	0.52982	-0.24668
4115.000	0.82633	-0.60470	0.54959	-0.20092
4116.000	0.85005	-0.56094	0.51796	-0.16711
4117.000	0.86388	-0.54304	0.47842	-0.16114
4118.000	0.83028	-0.52912	0.49819	-0.10544
4119.000	0.77889	-0.55101	0.46261	-0.18103
4120.000	0.83028	-0.53906	0.54761	-0.12931
4121.000	0.82238	-0.52713	0.46459	-0.15716
4122.000	0.81645	-0.53509	0.51401	-0.10345
4123.000	0.79273	-0.45354	0.53971	-0.09549
4124.000	0.84412	-0.48536	0.51796	-0.06565
4125.000	0.79668	-0.48934	0.48831	-0.09947
4126.000	0.80854	-0.44359	0.45865	-0.03183
4127.000	0.82633	-0.44359	0.51598	-0.12931
4128.000	0.84017	-0.44558	0.50215	-0.02387
4129.000	0.83424	-0.41375	0.45470	-0.13130
4130.000	0.81645	-0.37397	0.45075	-0.08753
4131.000	0.82831	-0.40580	0.48831	-0.06963
4132.000	0.84412	-0.41176	0.43493	-0.08753
4133.000	0.84807	-0.39983	0.44679	-0.14125
4134.000	0.83424	-0.42171	0.49819	-0.03581
4135.000	0.80656	-0.44359	0.43691	-0.05371
4136.000	0.81249	-0.42768	0.48633	-0.20291
4137.000	0.83028	-0.45353	0.46063	-0.17705
4138.000	0.82040	-0.39784	0.53180	-0.08554
4139.000	0.82633	-0.41773	0.48435	-0.16114
4140.000	0.84412	-0.44955	0.59110	-0.05769
4141.000	0.85993	-0.40977	0.50017	-0.09947
4142.000	0.83226	-0.41773	0.47249	-0.08952
4143.000	0.83819	-0.37994	0.59703	-0.14323
4144.000	0.86388	-0.40579	0.52982	-0.12533
4145.000	0.85203	-0.43364	0.49028	-0.06167
4146.000	0.82040	-0.39585	0.49622	-0.08554
4147.000	0.81645	-0.41972	0.52587	-0.07758
4148.000	0.85005	-0.41972	0.55750	-0.06366
4149.000	0.84412	-0.42966	0.46063	-0.17109
4150.000	0.83028	-0.37596	0.51203	-0.10146
4151.000	0.82633	-0.44558	0.45272	-0.07560
4152.000	0.83424	-0.43762	0.53575	-0.11140
4153.000	0.82831	-0.38789	0.52191	-0.09151
4154.000	0.81842	-0.43563	0.52389	-0.12931
4155.000	0.82040	-0.43364	0.49424	-0.19496
4156.000	0.82040	-0.44558	0.51401	-0.11339
4157.000	0.83226	-0.42171	0.41912	-0.09549
4158.000	0.80854	-0.46149	0.55354	-0.16114
4159.000	0.84807	-0.42370	0.47447	-0.15119
4160.000	0.86981	-0.41972	0.56145	-0.08156
4161.000	0.86388	-0.39784	0.51598	-0.09350
4162.000	0.84017	-0.45552	0.42109	-0.15517
4163.000	0.84412	-0.40977	0.49028	-0.09151
4164.000	0.84412	-0.41574	0.54959	-0.10345
4165.000	0.80854	-0.45752	0.52784	-0.16512
4166.000	0.80854	-0.41773	0.48435	-0.13130
4167.000	0.84807	-0.46149	0.53971	-0.14124
4168.000	0.80854	-0.46945	0.51401	-0.11339
4169.000	0.82238	-0.42569	0.49622	-0.10146
4170.000	0.83028	-0.47144	0.53773	-0.15915
4171.000	0.84412	-0.37994	0.47842	-0.18302
4172.000	0.82831	-0.41972	0.51401	-0.12135
4173.000	0.82040	-0.45950	0.49424	-0.08753
4174.000	0.79668	-0.41972	0.49622	-0.13727
4175.000	0.82435	-0.39784	0.51796	-0.11538
4176.000	0.86388	-0.39784	0.43098	-0.15318
4177.000	0.82831	-0.40381	0.53378	-0.15716
4178.000	0.82633	-0.40580	0.56540	-0.12135
4179.000	0.82040	-0.41176	0.44284	-0.14522
4180.000	0.85203	-0.42370	0.53575	-0.14522
4181.000	0.82831	-0.42967	0.49028	-0.16711
4182.000	0.82435	-0.38193	0.55157	-0.14323
4183.000	0.81645	-0.40381	0.45470	-0.15119
4184.000	0.82040	-0.42569	0.56343	-0.10941
4185.000	0.82831	-0.41176	0.45075	-0.21485
4186.000	0.83424	-0.41773	0.50017	-0.13329
4187.000	0.82040	-0.42370	0.54564	-0.11339
4188.000	0.83226	-0.42768	0.51401	-0.15716
4189.000	0.83028	-0.38392	0.53180	-0.17904
4190.000	0.81842	-0.40978	0.55354	-0.07957
4191.000	0.80459	-0.40381	0.43296	-0.18103
4192.000	0.80656	-0.40182	0.46656	-0.19098
4193.000	0.85005	-0.42370	0.52784	-0.18501
4194.000	0.81645	-0.39386	0.51796	-0.12135
4195.000	0.82633	-0.39983	0.55354	-0.17307
4196.000	0.82040	-0.41773	0.48435	-0.15318
4197.000	0.83226	-0.40580	0.55354	-0.13329
4198.000	0.81447	-0.40779	0.53971	-0.15517
4199.000	0.80656	-0.42569	0.54366	-0.13925
4200.000	0.81842	-0.41773	0.55750	-0.09350
4201.000	0.83819	-0.42768	0.55552	-0.15915
4202.000	0.83424	-0.36402	0.59110	-0.19694
4203.000	0.81842	-0.38193	0.58320	-0.15119
4204.000	0.82633	-0.39187	0.48435	-0.14323
4205.000	0.86191	-0.35606	0.48040	-0.08753
4206.000	0.83424	-0.38789	0.57529	-0.12135
4207.000	0.85598	-0.37397	0.52191	-0.11737
4208.000	0.86191	-0.39187	0.50610	-0.20490
4209.000	0.82831	-0.35607	0.56936	-0.15517
4210.000	0.84610	-0.39983	0.50808	-0.20490
4211.000	0.86191	-0.36004	0.49819	-0.19098
4212.000	0.84412	-0.38391	0.54959	-0.10544
4213.000	0.83819	-0.36800	0.50808	-0.18103
4214.000	0.83621	-0.39585	0.50610	-0.07957
4215.000	0.83424	-0.33021	0.54761	-0.10146
4216.000	0.85993	-0.39187	0.63459	-0.17108
4217.000	0.83226	-0.41176	0.51796	-0.15915
4218.000	0.86388	-0.37397	0.58913	-0.20888
4219.000	0.85993	-0.37794	0.51401	-0.12732
4220.000	0.83621	-0.33618	0.52784	-0.11936
4221.000	0.85796	-0.40181	0.54761	-0.11339
4222.000	0.80261	-0.40381	0.55552	-0.14920
4223.000	0.82831	-0.38590	0.52587	-0.17705
4224.000	0.83621	-0.34612	0.58715	-0.21684
4225.000	0.85796	-0.39585	0.55354	-0.13329
4226.000	0.82435	-0.38789	0.51005	-0.12533
4227.000	0.82040	-0.37198	0.54366	-0.12135
4228.000	0.83028	-0.37994	0.57331	-0.19893
4229.000	0.82633	-0.39585	0.46459	-0.19297
4230.000	0.83226	-0.36005	0.49819	-0.14920
4231.000	0.86191	-0.39983	0.50215	-0.19496
4232.000	0.84412	-0.39187	0.48040	-0.16313
4233.000	0.77098	-0.36204	0.55354	-0.17705
4234.000	0.84214	-0.37795	0.52982	-0.15517
4235.000	0.82040	-0.38392	0.51994	-0.14522
4236.000	0.83028	-0.35806	0.58320	-0.10941
4237.000	0.80854	-0.27252	0.48831	-0.11140
4238.000	0.84412	-0.36800	0.50808	-0.16313
4239.000	0.81052	-0.34413	0.45272	-0.17308
4240.000	0.87179	-0.36601	0.47447	-0.12135
4241.000	0.85400	-0.33816	0.56343	-0.13726
4242.000	0.85796	-0.36203	0.50610	-0.16910
4243.000	0.84807	-0.37198	0.55552	-0.16313
4244.000	0.86388	-0.36402	0.50017	-0.11538
4245.000	0.88365	-0.36402	0.47052	-0.12931
4246.000	0.84412	-0.38590	0.53773	-0.12334
4247.000	0.84807	-0.38192	0.47249	-0.12732
4248.000	0.86388	-0.37993	0.55157	-0.14124
4249.000	0.87574	-0.41971	0.50610	-0.17307
4250.000	0.87179	-0.40977	0.58913	-0.15517
4251.000	0.83424	-0.39784	0.52587	-0.12135
4252.000	0.83819	-0.41773	0.51401	-0.22877
4253.000	0.83028	-0.39784	0.48238	-0.19496
4254.000	0.85005	-0.41176	0.59901	-0.16511
4255.000	0.85203	-0.39983	0.52191	-0.12931
4256.000	0.85993	-0.37993	0.52982	-0.16313
4257.000	0.88365	-0.39386	0.47249	-0.12732
4258.000	0.87772	-0.43762	0.56738	-0.16710
4259.000	0.83621	-0.40381	0.53180	-0.16313
4260.000	0.85203	-0.37397	0.57727	-0.18700
4261.000	0.84214	-0.41375	0.53378	-0.10544
4262.000	0.85993	-0.42767	0.53575	-0.13925
4263.000	0.83424	-0.39983	0.48633	-0.20689
4264.000	0.80261	-0.37994	0.54564	-0.15716
4265.000	0.84610	-0.39585	0.52982	-0.20291
4266.000	0.83226	-0.41574	0.46656	-0.17109
4267.000	0.85203	-0.38789	0.47052	-0.14721
4268.000	0.84412	-0.40778	0.52389	-0.22082
4269.000	0.89749	-0.39982	0.52982	-0.20092
4270.000	0.84807	-0.38988	0.46459	-0.14125
4271.000	0.81842	-0.40580	0.51994	-0.18501
4272.000	0.85203	-0.41176	0.47842	-0.15119
4273.000	0.88167	-0.41176	0.51994	-0.13727
4274.000	0.84610	-0.35607	0.49028	-0.16512
4275.000	0.81052	-0.40381	0.53773	-0.21087
4276.000	0.82238	-0.37596	0.58715	-0.17108
4277.000	0.81052	-0.35408	0.51401	-0.15119
4278.000	0.83621	-0.34811	0.47249	-0.17705
4279.000	0.80656	-0.36005	0.51796	-0.20888
4280.000	0.84017	-0.36203	0.51401	-0.24668
4281.000	0.78482	-0.36204	0.51994	-0.19496
4282.000	0.84214	-0.34214	0.51005	-0.14323
4283.000	0.77494	-0.33618	0.49226	-0.19098
4284.000	0.79470	-0.38193	0.54564	-0.29442
4285.000	0.80656	-0.40381	0.51598	-0.25464
4286.000	0.81447	-0.36800	0.48633	-0.26458
4287.000	0.80261	-0.36204	0.49226	-0.22082
4288.000	0.80459	-0.35209	0.53773	-0.22281
4289.000	0.82040	-0.33618	0.54959	-0.16909
4290.000	0.82435	-0.34015	0.49028	-0.20689
4291.000	0.84214	-0.37795	0.56343	-0.26856
4292.000	0.81842	-0.38193	0.55552	-0.26458
4293.000	0.80063	-0.33817	0.53378	-0.23275
4294.000	0.85203	-0.32623	0.49424	-0.22082
4295.000	0.83621	-0.36402	0.62866	-0.16710
4296.000	0.85203	-0.36999	0.53971	-0.20888
4297.000	0.80459	-0.37198	0.54168	-0.22678
4298.000	0.83819	-0.37397	0.62075	-0.26458
4299.000	0.83226	-0.35607	0.60889	-0.15716
4300.000	0.79866	-0.33817	0.58122	-0.22877
4301.000	0.86388	-0.30832	0.52389	-0.22480
4302.000	0.85005	-0.33220	0.54168	-0.24469
4303.000	0.82435	-0.35607	0.49226	-0.15915
4304.000	0.85400	-0.33021	0.49622	-0.20888
4305.000	0.85203	-0.33021	0.55750	-0.15915
4306.000	0.82040	-0.33817	0.51005	-0.14124
4307.000	0.86191	-0.30634	0.56738	-0.23872
4308.000	0.83028	-0.30435	0.56145	-0.21684
