time (ms)	lx (deg)	ly (deg)	rx (deg)	ry (deg)
0.000	-0.54366	0.69226	-0.39737	0.95283
1.000	-0.55552	0.68629	-0.42307	0.90708
2.000	-0.56936	0.68430	-0.41714	0.92697
3.000	-0.56540	0.67833	-0.35388	0.89317
4.000	-0.58715	0.64253	-0.27085	1.00455
5.000	-0.59110	0.65844	-0.34795	0.88123
6.000	-0.55157	0.66242	-0.26294	0.91704
7.000	-0.57529	0.67038	-0.28271	0.91903
8.000	-0.54168	0.65248	-0.34993	0.97869
9.000	-0.57727	0.69226	-0.26887	0.85340
10.000	-0.59110	0.66043	-0.32818	0.91107
11.000	-0.58122	0.67236	-0.27085	0.95284
12.000	-0.51994	0.69425	-0.33016	0.91704
13.000	-0.55354	0.71215	-0.37760	0.93692
14.000	-0.55157	0.67436	-0.29852	0.92698
15.000	-0.59901	0.70816	-0.34795	0.92698
16.000	-0.56145	0.70021	-0.43098	0.95084
17.000	-0.57331	0.72010	-0.39342	0.85736
18.000	-0.54366	0.75392	-0.43296	0.93890
19.000	-0.56145	0.70817	-0.29852	0.96278
20.000	-0.58122	0.70618	-0.33213	0.92300
21.000	-0.55354	0.72806	-0.33806	0.88919
22.000	-0.51401	0.70221	-0.37167	0.95084
23.000	-0.57529	0.72209	-0.36772	0.94289
24.000	-0.54959	0.67436	-0.30248	0.88721
25.000	-0.59110	0.65844	-0.46063	0.94686
26.000	-0.57924	0.71215	-0.33609	0.90113
27.000	-0.56343	0.70220	-0.30841	0.89118
28.000	-0.57529	0.67634	-0.31236	0.91306
29.000	-0.56540	0.68231	-0.32818	0.92499
30.000	-0.57133	0.70220	-0.36574	0.94289
31.000	-0.57924	0.66242	-0.38551	0.90510
32.000	-0.58122	0.66441	-0.28469	0.91107
33.000	-0.52982	0.66839	-0.34202	0.95880
34.000	-0.54761	0.65844	-0.41912	0.98266
35.000	-0.56936	0.66441	-0.35190	0.90311
36.000	-0.53971	0.67038	-0.26492	0.91903
37.000	-0.55552	0.68231	-0.34795	0.94488
38.000	-0.57331	0.71414	-0.41912	0.94288
39.000	-0.58913	0.70419	-0.33609	0.93693
40.000	-0.58715	0.67833	-0.35586	0.91902
41.000	-0.58913	0.70618	-0.40528	0.94487
42.000	-0.58122	0.70618	-0.39935	0.93891
43.000	-0.56540	0.71215	-0.34399	0.92698
44.000	-0.63657	0.68429	-0.32027	0.93494
45.000	-0.55947	0.73204	-0.40330	0.99857
46.000	-0.60889	0.65048	-0.30643	0.95682
47.000	-0.58517	0.70220	-0.28864	0.95284
48.000	-0.53971	0.70618	-0.30841	0.95483
49.000	-0.59703	0.67634	-0.28469	0.84544
50.000	-0.59110	0.66838	-0.26887	0.93892
51.000	-0.54761	0.67237	-0.34993	0.93692
52.000	-0.59901	0.67833	-0.35586	0.91505
53.000	-0.54959	0.66441	-0.35783	0.91505
54.000	-0.55354	0.72209	-0.33016	0.92499
55.000	-0.59110	0.69822	-0.29062	0.96278
56.000	-0.60296	0.69822	-0.34795	0.89715
57.000	-0.54959	0.66640	-0.32620	0.95284
58.000	-0.57727	0.70817	-0.35981	0.92897
59.000	-0.55947	0.67833	-0.33016	0.84544
60.000	-0.60889	0.68430	-0.33806	0.92499
61.000	-0.55354	0.69425	-0.36179	0.93294
62.000	-0.55354	0.73801	-0.37760	0.96476
63.000	-0.54168	0.70220	-0.39144	0.93493
64.000	-0.54564	0.76187	-0.33806	0.86731
65.000	-0.58320	0.66043	-0.28864	0.92500
66.000	-0.56936	0.69425	-0.33806	0.93891
67.000	-0.59110	0.68828	-0.39342	0.91106
68.000	-0.59506	0.67833	-0.34202	0.94289
69.000	-0.54959	0.72408	-0.41714	0.92101
70.000	-0.56145	0.71215	-0.35586	0.91107
71.000	-0.53180	0.72409	-0.42109	0.90311
72.000	-0.56738	0.71016	-0.38749	0.91106
73.000	-0.57727	0.70220	-0.34597	0.86930
74.000	-0.54564	0.75790	-0.33213	0.90510
75.000	-0.52784	0.75193	-0.34004	0.96676
76.000	-0.51598	0.72210	-0.34597	0.89516
77.000	-0.54564	0.69624	-0.28073	0.97671
78.000	-0.54564	0.72408	-0.26294	0.84942
79.000	-0.56738	0.67833	-0.34399	0.82356
80.000	-0.56145	0.61269	-0.34004	0.83549
81.000	-0.56738	0.51721	-0.25701	0.79373
82.000	-0.55157	0.48340	-0.24515	0.72013
83.000	-0.52389	0.43168	-0.24910	0.52917
84.000	-0.52389	0.28050	-0.28666	0.55105
85.000	-0.50017	0.18103	-0.27876	0.49933
86.000	-0.51005	0.06963	-0.20363	0.39788
87.000	-0.49424	0.03979	-0.25108	0.26658
88.000	-0.48435	-0.06764	-0.23131	0.19496
89.000	-0.51401	-0.19893	-0.22933	0.16910
90.000	-0.49226	-0.22082	-0.18584	0.00000
91.000	-0.54168	-0.26856	-0.19572	0.00199
92.000	-0.51401	-0.27652	-0.27282	-0.00796
93.000	-0.55552	-0.36007	-0.21549	-0.02188
94.000	-0.51796	-0.33819	-0.33609	-0.06366
95.000	-0.55947	-0.34216	-0.30643	0.00796
96.000	-0.59901	-0.32824	-0.31236	-0.02188
97.000	-0.58320	-0.27254	-0.32027	0.02188
98.000	-0.58320	-0.23673	-0.32422	0.03780
99.000	-0.57133	-0.21485	-0.36969	0.11141
100.000	-0.57331	-0.12334	-0.37167	0.19695
101.000	-0.62471	-0.09748	-0.41121	0.23872
102.000	-0.56540	-0.07559	-0.35388	0.22281
103.000	-0.57133	-0.01989	-0.36179	0.25464
104.000	-0.55947	0.02785	-0.31039	0.33024
105.000	-0.56343	0.05172	-0.31829	0.30835
106.000	-0.53378	0.07162	-0.37365	0.39389
107.000	-0.53378	0.08355	-0.39737	0.49336
108.000	-0.53180	0.10544	-0.34795	0.39787
109.000	-0.50808	0.08753	-0.40330	0.42970
110.000	-0.55947	0.05570	-0.35783	0.44164
111.000	-0.55354	0.06764	-0.35388	0.42373
112.000	-0.51994	0.08554	-0.30643	0.42771
113.000	-0.54564	0.06366	-0.37958	0.37400
114.000	-0.56540	0.00995	-0.27085	0.36207
115.000	-0.57331	0.03183	-0.30643	0.32228
116.000	-0.54959	-0.00597	-0.34597	0.34217
117.000	-0.57727	-0.04774	-0.27876	0.27653
118.000	-0.56540	-0.03581	-0.32818	0.30239
119.000	-0.58517	-0.05172	-0.29655	0.22878
120.000	-0.58122	-0.03581	-0.28666	0.27852
121.000	-0.57727	-0.10941	-0.27678	0.24072
122.000	-0.59110	-0.07162	-0.31829	0.20690
123.000	-0.60099	-0.09947	-0.35783	0.23674
124.000	-0.59308	-0.07361	-0.22142	0.26857
125.000	-0.58517	-0.08355	-0.27282	0.28647
126.000	-0.54761	-0.07957	-0.31632	0.25066
127.000	-0.58320	-0.11538	-0.34399	0.22082
128.000	-0.57331	-0.05968	-0.26096	0.28448
129.000	-0.56540	-0.10543	-0.30643	0.27454
130.000	-0.53971	-0.08355	-0.37760	0.24072
131.000	-0.59110	-0.11737	-0.34399	0.22679
132.000	-0.54564	-0.11737	-0.25701	0.27653
133.000	-0.58715	-0.04973	-0.32620	0.24271
134.000	-0.54564	-0.12533	-0.38749	0.20491
135.000	-0.54761	-0.10742	-0.33609	0.24668
136.000	-0.57331	-0.14323	-0.34004	0.15517
137.000	-0.56540	-0.10941	-0.34399	0.22878
138.000	-0.58715	-0.12135	-0.32620	0.17308
139.000	-0.52982	-0.15318	-0.34795	0.17507
140.000	-0.58122	-0.15915	-0.33411	0.21088
141.000	-0.57133	-0.12135	-0.35586	0.20690
142.000	-0.57133	-0.06764	-0.36969	0.14721
143.000	-0.60296	-0.11538	-0.37760	0.23077
144.000	-0.58913	-0.17108	-0.33411	0.20093
145.000	-0.55750	-0.14522	-0.34795	0.22082
146.000	-0.55750	-0.12135	-0.40528	0.27055
147.000	-0.58913	-0.13925	-0.31039	0.22082
148.000	-0.58517	-0.13925	-0.34795	0.23873
149.000	-0.55750	-0.14920	-0.35586	0.25663
150.000	-0.57924	-0.14721	-0.37167	0.24270
151.000	-0.53180	-0.12931	-0.37365	0.21485
152.000	-0.58913	-0.14522	-0.32818	0.24470
153.000	-0.54959	-0.11936	-0.35190	0.26260
154.000	-0.57727	-0.09748	-0.33411	0.29642
155.000	-0.55552	-0.09350	-0.39342	0.24867
156.000	-0.55354	-0.06366	-0.31434	0.24271
157.000	-0.57529	-0.11140	-0.30643	0.23475
158.000	-0.56936	-0.07559	-0.33213	0.19098
159.000	-0.52191	-0.10743	-0.30050	0.21287
160.000	-0.61285	-0.10344	-0.36574	0.21883
161.000	-0.55750	-0.12732	-0.31434	0.24668
162.000	-0.58517	-0.13329	-0.38551	0.21485
163.000	-0.57924	-0.10345	-0.33806	0.24867
164.000	-0.58122	-0.10543	-0.25503	0.27852
165.000	-0.54959	-0.12334	-0.30643	0.22281
166.000	-0.56145	-0.11936	-0.34202	0.25265
167.000	-0.60296	-0.12931	-0.28469	0.18501
168.000	-0.57924	-0.12135	-0.33411	0.22679
169.000	-0.57727	-0.15915	-0.30841	0.24867
170.000	-0.58913	-0.10941	-0.30643	0.24470
171.000	-0.56343	-0.10146	-0.34993	0.16512
172.000	-0.59308	-0.06764	-0.34399	0.21684
173.000	-0.54761	-0.10742	-0.36376	0.24072
174.000	-0.59308	-0.09748	-0.33016	0.24271
175.000	-0.60889	-0.12334	-0.34202	0.20292
176.000	-0.60692	-0.12533	-0.28271	0.19297
177.000	-0.60692	-0.11737	-0.38551	0.17904
178.000	-0.59110	-0.13130	-0.31829	0.18302
179.000	-0.63064	-0.13527	-0.36772	0.29045
180.000	-0.61482	-0.15517	-0.30050	0.21287
181.000	-0.58320	-0.09748	-0.30643	0.19695
182.000	-0.56540	-0.12732	-0.33411	0.16711
183.000	-0.61285	-0.15915	-0.34202	0.15119
184.000	-0.56145	-0.09947	-0.28073	0.21684
185.000	-0.57727	-0.10345	-0.35783	0.22281
186.000	-0.52982	-0.07361	-0.29457	0.16910
187.000	-0.61285	-0.11936	-0.28271	0.23077
188.000	-0.59901	-0.12533	-0.36574	0.21485
189.000	-0.55947	-0.13528	-0.26096	0.22480
190.000	-0.56145	-0.12334	-0.33806	0.15318
191.000	-0.60494	-0.10543	-0.38551	0.21087
192.000	-0.55552	-0.13925	-0.34597	0.25066
193.000	-0.56936	-0.11936	-0.33806	0.21684
194.000	-0.56738	-0.15517	-0.30643	0.22878
195.000	-0.57727	-0.09748	-0.30643	0.21088
196.000	-0.57727	-0.13527	-0.38551	0.26857
197.000	-0.59110	-0.15716	-0.32422	0.21883
198.000	-0.55947	-0.13925	-0.30841	0.23674
199.000	-0.58913	-0.15119	-0.33806	0.25464
200.000	-0.59506	-0.13328	-0.28666	0.24271
201.000	-0.55750	-0.12135	-0.35388	0.22082
202.000	-0.58122	-0.14124	-0.34399	0.27255
203.000	-0.61680	-0.18898	-0.35190	0.23475
204.000	-0.54959	-0.10544	-0.36772	0.17905
205.000	-0.57727	-0.13130	-0.34993	0.19894
206.000	-0.55354	-0.12732	-0.24910	0.22281
207.000	-0.61878	-0.12135	-0.29457	0.18501
208.000	-0.58715	-0.13925	-0.37563	0.27851
209.000	-0.59308	-0.14323	-0.33806	0.33621
210.000	-0.58517	-0.10742	-0.36376	0.27255
211.000	-0.60494	-0.15517	-0.26294	0.25066
212.000	-0.60494	-0.08554	-0.29457	0.22878
213.000	-0.55354	-0.13528	-0.43296	0.23475
214.000	-0.56540	-0.12533	-0.31829	0.26658
215.000	-0.55552	-0.12135	-0.33016	0.26061
216.000	-0.58715	-0.15716	-0.30446	0.26658
217.000	-0.56343	-0.14920	-0.31829	0.20889
218.000	-0.56540	-0.15517	-0.29457	0.18303
219.000	-0.59506	-0.15517	-0.23526	0.24072
220.000	-0.57331	-0.13329	-0.34597	0.19695
221.000	-0.56343	-0.17108	-0.35388	0.23077
222.000	-0.54366	-0.15915	-0.33609	0.13926
223.000	-0.53971	-0.14323	-0.30446	0.23873
224.000	-0.56540	-0.15318	-0.36772	0.20292
225.000	-0.57529	-0.14522	-0.36376	0.22082
226.000	-0.51401	-0.12533	-0.28469	0.22480
227.000	-0.51598	-0.08156	-0.34399	0.23873
228.000	-0.53575	-0.08554	-0.29457	0.23674
229.000	-0.53378	-0.10742	-0.31039	0.21088
230.000	-0.53378	-0.12135	-0.32620	0.21287
231.000	-0.53180	-0.12135	-0.32422	0.23674
232.000	-0.53378	-0.06565	-0.31632	0.25663
233.000	-0.49622	-0.11936	-0.34597	0.23873
234.000	-0.52784	-0.13925	-0.33806	0.16910
235.000	-0.50017	-0.09151	-0.34993	0.23077
236.000	-0.54366	-0.12533	-0.28469	0.19098
237.000	-0.52982	-0.14721	-0.36179	0.15318
238.000	-0.55750	-0.10544	-0.31039	0.21486
239.000	-0.54959	-0.10544	-0.33806	0.24867
240.000	-0.51994	-0.12533	-0.30643	0.17905
241.000	-0.51598	-0.09151	-0.37958	0.21883
242.000	-0.53773	-0.09549	-0.34399	0.21684
243.000	-0.51203	-0.09748	-0.32620	0.27056
244.000	-0.53378	-0.14323	-0.29655	0.16114
245.000	-0.52982	-0.11538	-0.30050	0.23276
246.000	-0.52982	-0.09947	-0.34993	0.19297
247.000	-0.47447	-0.09549	-0.28073	0.24868
248.000	-0.44086	-0.10345	-0.33609	0.22480
249.000	-0.48831	-0.11339	-0.31632	0.23873
250.000	-0.46854	-0.11140	-0.29062	0.18501
251.000	-0.51203	-0.11737	-0.37365	0.31830
252.000	-0.45668	-0.11737	-0.30841	0.24072
253.000	-0.46854	-0.16910	-0.35388	0.21088
254.000	-0.49424	-0.14522	-0.24712	0.24868
255.000	-0.51005	-0.18103	-0.34795	0.25862
256.000	-0.49226	-0.16114	-0.26096	0.25265
257.000	-0.50017	-0.14920	-0.17793	0.22480
258.000	-0.47052	-0.13130	-0.27678	0.21486
259.000	-0.44877	-0.16910	-0.31829	0.24867
260.000	-0.46854	-0.10942	-0.36772	0.27851
261.000	-0.48435	-0.14721	-0.32620	0.26658
262.000	-0.46063	-0.10544	-0.19375	0.23475
263.000	-0.47447	-0.11140	-0.34597	0.17706
264.000	-0.48633	-0.11538	-0.34993	0.27454
265.000	-0.49028	-0.13130	-0.27085	0.26857
266.000	-0.49028	-0.10345	-0.35388	0.23873
267.000	-0.51401	-0.12732	-0.31039	0.21486
268.000	-0.50017	-0.10743	-0.35981	0.21286
269.000	-0.53773	-0.15119	-0.37563	0.22878
270.000	-0.52587	-0.13329	-0.28469	0.23077
271.000	-0.47842	-0.10544	-0.39342	0.27254
272.000	-0.50215	-0.14721	-0.30446	0.27852
273.000	-0.49226	-0.17705	-0.29655	0.21287
274.000	-0.50610	-0.14323	-0.25108	0.23873
275.000	-0.48238	-0.14323	-0.38353	0.22878
276.000	-0.51598	-0.16512	-0.35190	0.25862
277.000	-0.51598	-0.13329	-0.31039	0.20292
278.000	-0.48238	-0.15517	-0.33806	0.24469
279.000	-0.50610	-0.10743	-0.29062	0.27255
280.000	-0.47645	-0.13528	-0.33411	0.22679
281.000	-0.44679	-0.13528	-0.29457	0.22480
282.000	-0.48435	-0.09748	-0.34597	0.28249
283.000	-0.51796	-0.10146	-0.31829	0.22679
284.000	-0.51005	-0.13130	-0.36179	0.24270
285.000	-0.48040	-0.15517	-0.36772	0.29244
286.000	-0.46261	-0.10345	-0.30248	0.25862
287.000	-0.48435	-0.12533	-0.34993	0.26061
288.000	-0.50215	-0.16114	-0.32027	0.30040
289.000	-0.51796	-0.11936	-0.33806	0.28647
290.000	-0.46063	-0.14721	-0.30841	0.25265
291.000	-0.48435	-0.10941	-0.30446	0.35013
292.000	-0.48238	-0.16114	-0.34795	0.30835
293.000	-0.45668	-0.13329	-0.29655	0.26459
294.000	-0.46063	-0.14522	-0.34993	0.22281
295.000	-0.44284	-0.12533	-0.31434	0.22281
296.000	-0.48435	-0.18302	-0.31632	0.26459
297.000	-0.44284	-0.12931	-0.35388	0.25464
298.000	-0.48040	-0.12533	-0.24317	0.27255
299.000	-0.44284	-0.15716	-0.27480	0.26459
300.000	-0.52389	-0.18899	-0.34399	0.21485
301.000	-0.45075	-0.15119	-0.33609	0.25066
302.000	-0.45865	-0.14323	-0.27282	0.26658
303.000	-0.46459	-0.11538	-0.37958	0.25862
304.000	-0.46459	-0.12533	-0.29259	0.31432
305.000	-0.48435	-0.14522	-0.25899	0.27255
306.000	-0.53773	-0.12732	-0.32620	0.28050
307.000	-0.49622	-0.12334	-0.26887	0.25265
308.000	-0.53180	-0.18700	-0.38353	0.27851
309.000	-0.51203	-0.14721	-0.42109	0.23475
310.000	-0.48040	-0.15716	-0.29457	0.31432
311.000	-0.48040	-0.12931	-0.26492	0.25265
312.000	-0.46459	-0.15716	-0.30643	0.17507
313.000	-0.48633	-0.16711	-0.32620	0.28448
314.000	-0.46261	-0.14920	-0.28469	0.28647
315.000	-0.46459	-0.14323	-0.29259	0.30040
316.000	-0.49028	-0.17108	-0.25503	0.27056
317.000	-0.44679	-0.12931	-0.26887	0.25066
318.000	-0.47052	-0.15119	-0.29457	0.28846
319.000	-0.50610	-0.16313	-0.29655	0.27653
320.000	-0.48435	-0.18700	-0.32818	0.27255
321.000	-0.48040	-0.09151	-0.26294	0.28051
322.000	-0.48831	-0.12135	-0.35586	0.26260
323.000	-0.47645	-0.12533	-0.21154	0.26459
324.000	-0.50610	-0.12533	-0.17595	0.27653
325.000	-0.45075	-0.12135	-0.34004	0.26061
326.000	-0.47645	-0.14124	-0.36772	0.22480
327.000	-0.47842	-0.16114	-0.26096	0.26658
328.000	-0.49819	-0.15119	-0.40330	0.23475
329.000	-0.49622	-0.14323	-0.39935	0.28647
330.000	-0.47052	-0.12135	-0.34004	0.19098
331.000	-0.42307	-0.10544	-0.33016	0.19695
332.000	-0.46459	-0.10146	-0.31829	0.23475
333.000	-0.45272	-0.14125	-0.29259	0.15915
334.000	-0.47052	-0.12334	-0.29655	0.28249
335.000	-0.47052	-0.12135	-0.27282	0.25265
336.000	-0.47645	-0.12931	-0.31434	0.24867
337.000	-0.46459	-0.11140	-0.34004	0.23276
338.000	-0.44482	-0.13528	-0.28271	0.28050
339.000	-0.46459	-0.13130	-0.26689	0.20292
340.000	-0.44679	-0.14721	-0.22340	0.27852
341.000	-0.49819	-0.17705	-0.34993	0.28846
342.000	-0.46063	-0.11339	-0.31236	0.27454
343.000	-0.44877	-0.08554	-0.24119	0.31830
344.000	-0.45470	-0.12334	-0.30248	0.24271
345.000	-0.42307	-0.06366	-0.35981	0.24867
346.000	-0.41319	-0.11141	-0.35586	0.22082
347.000	-0.48435	-0.12931	-0.29062	0.16711
348.000	-0.43493	-0.07958	-0.28073	0.24868
349.000	-0.47645	-0.13130	-0.17793	0.22480
350.000	-0.46854	-0.11140	-0.28073	0.23873
351.000	-0.46261	-0.12334	-0.25503	0.29244
352.000	-0.45865	-0.11737	-0.30050	0.26658
353.000	-0.45668	-0.09151	-0.25503	0.24470
354.000	-0.44877	-0.11936	-0.33806	0.30438
355.000	-0.47052	-0.07957	-0.32620	0.23873
356.000	-0.43691	-0.13727	-0.32422	0.29045
357.000	-0.45272	-0.11140	-0.30248	0.27852
358.000	-0.43889	-0.07560	-0.30050	0.25464
359.000	-0.42505	-0.13130	-0.20165	0.20292
360.000	-0.44284	-0.10743	-0.25899	0.26061
361.000	-0.42900	-0.08554	-0.30050	0.26061
362.000	-0.47249	-0.09947	-0.30841	0.27851
363.000	-0.46656	-0.10146	-0.24910	0.26857
364.000	-0.46459	-0.06963	-0.32620	0.24470
365.000	-0.45470	-0.11737	-0.27876	0.26658
366.000	-0.40726	-0.10345	-0.29852	0.21088
367.000	-0.46063	-0.08952	-0.29457	0.22480
368.000	-0.46261	-0.09151	-0.23131	0.22281
369.000	-0.41121	-0.08156	-0.28073	0.19098
370.000	-0.44877	-0.11936	-0.28073	0.24470
371.000	-0.49226	-0.11538	-0.25899	0.17308
372.000	-0.49622	-0.09947	-0.25108	0.28250
373.000	-0.47249	-0.11737	-0.29852	0.24072
374.000	-0.48831	-0.11339	-0.37365	0.25265
375.000	-0.43691	-0.08952	-0.34004	0.29244
376.000	-0.45075	-0.09151	-0.26096	0.28249
377.000	-0.43889	-0.06565	-0.27678	0.28051
378.000	-0.48633	-0.10146	-0.34795	0.32626
379.000	-0.44679	-0.05769	-0.31829	0.28846
380.000	-0.45272	-0.06963	-0.32818	0.24867
381.000	-0.43493	-0.08753	-0.25701	0.30040
382.000	-0.46656	-0.08952	-0.34993	0.32029
383.000	-0.46854	-0.08554	-0.29852	0.23475
384.000	-0.48633	-0.08156	-0.21352	0.24669
385.000	-0.46459	-0.09748	-0.27876	0.19695
386.000	-0.45470	-0.10544	-0.29655	0.28249
387.000	-0.41516	-0.08554	-0.29259	0.24669
388.000	-0.45272	-0.06764	-0.25899	0.27454
389.000	-0.44284	-0.10544	-0.29259	0.29642
390.000	-0.49424	-0.09947	-0.27480	0.25265
391.000	-0.45075	-0.10544	-0.26294	0.23077
392.000	-0.45272	-0.09151	-0.29259	0.23674
393.000	-0.47447	-0.09151	-0.24515	0.25265
394.000	-0.43691	-0.10942	-0.32620	0.28846
395.000	-0.42505	-0.09151	-0.22735	0.25464
396.000	-0.47052	-0.10345	-0.29457	0.23475
397.000	-0.49424	-0.10941	-0.30841	0.29443
398.000	-0.45865	-0.07361	-0.28666	0.22878
399.000	-0.45272	-0.11936	-0.27876	0.19098
400.000	-0.51796	-0.10941	-0.27678	0.21883
401.000	-0.48831	-0.11737	-0.28666	0.29443
402.000	-0.47052	-0.10942	-0.29457	0.24669
403.000	-0.45470	-0.10146	-0.26096	0.26459
404.000	-0.48238	-0.06366	-0.28073	0.26260
405.000	-0.42505	-0.09350	-0.24712	0.16313
406.000	-0.45865	-0.12334	-0.35190	0.23077
407.000	-0.46261	-0.10345	-0.31829	0.29841
408.000	-0.48040	-0.09947	-0.32620	0.24867
409.000	-0.44877	-0.09947	-0.30248	0.20491
410.000	-0.43098	-0.04775	-0.33411	0.21883
411.000	-0.46261	-0.11140	-0.32225	0.24072
412.000	-0.43493	-0.09748	-0.28073	0.23475
413.000	-0.45075	-0.08355	-0.32818	0.25464
414.000	-0.43098	-0.07560	-0.35783	0.24668
415.000	-0.44284	-0.10544	-0.31829	0.22878
416.000	-0.42109	-0.07162	-0.29062	0.27653
417.000	-0.46459	-0.06764	-0.37365	0.26260
418.000	-0.38946	-0.10942	-0.27876	0.26459
419.000	-0.42109	-0.10146	-0.30248	0.24072
420.000	-0.40726	-0.08156	-0.25305	0.21287
421.000	-0.41714	-0.07958	-0.21747	0.26260
422.000	-0.39144	-0.10345	-0.18188	0.29244
423.000	-0.30248	-0.07759	-0.16211	0.26260
424.000	-0.23329	-0.05769	-0.16409	0.26658
425.000	-0.24910	-0.10146	-0.04349	0.18900
426.000	-0.21945	-0.13926	-0.09094	0.14722
427.000	-0.16409	-0.13130	-0.05931	0.19496
428.000	-0.14234	-0.13528	-0.04745	0.18104
429.000	-0.13839	-0.13130	-0.01779	0.09748
430.000	-0.16804	-0.15716	0.00593	0.14921
431.000	-0.13641	-0.13926	-0.09094	0.06764
432.000	-0.18188	-0.15319	-0.05338	0.16711
433.000	-0.19770	-0.13329	-0.01977	0.11738
434.000	-0.25503	-0.13727	-0.11664	0.12136
435.000	-0.29852	-0.16512	-0.08897	0.08754
436.000	-0.27085	-0.15318	-0.10478	0.11738
437.000	-0.31632	-0.17905	-0.20363	0.08555
438.000	-0.35190	-0.12533	-0.19177	0.09350
439.000	-0.37365	-0.16512	-0.21747	0.12533
440.000	-0.38749	-0.20093	-0.26492	0.19297
441.000	-0.35783	-0.16313	-0.21945	0.17706
442.000	-0.36179	-0.13329	-0.28469	0.14921
443.000	-0.33609	-0.16313	-0.20165	0.10345
444.000	-0.35586	-0.13528	-0.25503	0.14722
445.000	-0.30446	-0.16910	-0.19177	0.14523
446.000	-0.28666	-0.13329	-0.21154	0.17507
447.000	-0.26689	-0.14921	-0.15421	0.32427
448.000	-0.29259	-0.15716	-0.21549	0.24669
449.000	-0.26096	-0.09350	-0.16804	0.14125
450.000	-0.21945	-0.14324	-0.20165	0.22878
451.000	-0.25305	-0.09947	-0.18781	0.16512
452.000	-0.32225	-0.12533	-0.16804	0.19695
453.000	-0.26689	-0.12334	-0.21549	0.28449
454.000	-0.28469	-0.11141	-0.24515	0.20690
455.000	-0.30841	-0.10544	-0.20165	0.16313
456.000	-0.32620	-0.07162	-0.17595	0.19894
457.000	-0.26096	-0.09549	-0.18979	0.12334
458.000	-0.26887	-0.13329	-0.17200	0.20690
459.000	-0.31434	-0.12334	-0.26689	0.17905
460.000	-0.23329	-0.09549	-0.19177	0.20491
461.000	-0.27876	-0.12931	-0.17991	0.15319
462.000	-0.28666	-0.10942	-0.18188	0.14722
463.000	-0.23526	-0.09350	-0.23329	0.16512
464.000	-0.26096	-0.11936	-0.17793	0.25663
465.000	-0.26689	-0.13329	-0.16014	0.19695
466.000	-0.26096	-0.12732	-0.15421	0.20491
467.000	-0.26294	-0.13727	-0.17793	0.21088
468.000	-0.26096	-0.10345	-0.16211	0.14921
469.000	-0.31829	-0.14921	-0.17002	0.18899
470.000	-0.26492	-0.12732	-0.19968	0.16313
471.000	-0.27480	-0.14324	-0.23131	0.18700
472.000	-0.32225	-0.14921	-0.16409	0.18502
473.000	-0.28271	-0.12334	-0.17991	0.20093
474.000	-0.26492	-0.15120	-0.21549	0.14722
475.000	-0.27282	-0.14324	-0.22142	0.13727
476.000	-0.30248	-0.17706	-0.20561	0.21685
477.000	-0.33213	-0.15915	-0.19375	0.21287
478.000	-0.31829	-0.14324	-0.20561	0.20491
479.000	-0.29259	-0.17109	-0.21747	0.22281
480.000	-0.29852	-0.15119	-0.12257	0.17507
481.000	-0.26689	-0.18700	-0.24712	0.15915
482.000	-0.30446	-0.10942	-0.23329	0.18303
483.000	-0.28073	-0.17109	-0.18584	0.21486
484.000	-0.25305	-0.19894	-0.13246	0.16512
485.000	-0.28666	-0.17905	-0.19177	0.21884
486.000	-0.31236	-0.20889	-0.17200	0.13130
487.000	-0.26887	-0.15517	-0.25503	0.19098
488.000	-0.31829	-0.18899	-0.19770	0.17507
489.000	-0.24910	-0.21486	-0.17793	0.21884
490.000	-0.30248	-0.19894	-0.18188	0.16313
491.000	-0.32422	-0.19695	-0.17595	0.21884
492.000	-0.29259	-0.22281	-0.17793	0.17308
493.000	-0.26689	-0.17905	-0.18584	0.21486
494.000	-0.31829	-0.18302	-0.20956	0.16114
495.000	-0.27678	-0.16114	-0.15816	0.16711
496.000	-0.31829	-0.17308	-0.17991	0.17507
497.000	-0.31829	-0.13727	-0.21154	0.17109
498.000	-0.34597	-0.19098	-0.24910	0.23077
499.000	-0.29852	-0.12732	-0.19177	0.22083
500.000	-0.34004	-0.19496	-0.20561	0.15319
501.000	-0.28864	-0.18899	-0.18386	0.10544
502.000	-0.27678	-0.17109	-0.17793	0.08356
503.000	-0.31632	-0.16313	-0.14827	0.15319
504.000	-0.32422	-0.17905	-0.21549	0.19098
505.000	-0.30841	-0.17905	-0.16014	0.08753
506.000	-0.27282	-0.17706	-0.21945	0.16512
507.000	-0.29655	-0.16114	-0.18979	0.15915
508.000	-0.28864	-0.16114	-0.17595	0.18303
509.000	-0.25503	-0.15517	-0.18584	0.10345
510.000	-0.27876	-0.18303	-0.11664	0.08555
511.000	-0.28271	-0.14921	-0.16211	0.10544
512.000	-0.30248	-0.15915	-0.13246	0.09549
513.000	-0.24910	-0.13727	-0.20758	0.11539
514.000	-0.28864	-0.18501	-0.20165	0.09549
515.000	-0.28271	-0.15517	-0.16804	0.14722
516.000	-0.29062	-0.17308	-0.18386	0.12533
517.000	-0.29655	-0.17308	-0.17200	0.15517
518.000	-0.31039	-0.21486	-0.22340	0.10146
519.000	-0.28864	-0.15716	-0.17595	0.12732
520.000	-0.27282	-0.19098	-0.15618	0.11340
521.000	-0.24910	-0.21088	-0.14432	0.14125
522.000	-0.25305	-0.18303	-0.17398	0.15915
523.000	-0.27085	-0.18899	-0.17398	0.17706
524.000	-0.26689	-0.16910	-0.16409	0.04576
525.000	-0.26294	-0.19297	-0.17398	0.16711
526.000	-0.27085	-0.19695	-0.27678	0.13727
527.000	-0.28864	-0.21287	-0.23131	0.09947
528.000	-0.26492	-0.22679	-0.20561	0.17308
529.000	-0.27085	-0.18303	-0.19968	0.09151
530.000	-0.26887	-0.22679	-0.16014	0.09748
531.000	-0.26887	-0.23674	-0.23329	0.08952
532.000	-0.27678	-0.17109	-0.26096	0.08157
533.000	-0.26689	-0.20889	-0.24515	0.10345
534.000	-0.25701	-0.18303	-0.16211	0.13130
535.000	-0.24712	-0.15517	-0.22340	0.14324
536.000	-0.28864	-0.16910	-0.23131	0.17507
537.000	-0.24119	-0.17507	-0.18188	0.07162
538.000	-0.24712	-0.13528	-0.13048	0.15518
539.000	-0.22933	-0.15716	-0.12850	0.07162
540.000	-0.25305	-0.22679	-0.22340	0.19297
541.000	-0.27480	-0.18104	-0.23329	0.15120
542.000	-0.23922	-0.18700	-0.28864	0.18303
543.000	-0.25899	-0.22679	-0.21747	0.17706
544.000	-0.25108	-0.21486	-0.12653	0.15518
545.000	-0.26294	-0.22480	-0.17398	0.14921
546.000	-0.27480	-0.20491	-0.20956	0.17706
547.000	-0.25701	-0.19297	-0.23526	0.16114
548.000	-0.26096	-0.19894	-0.21549	0.15716
549.000	-0.24515	-0.23276	-0.21549	0.15517
550.000	-0.30446	-0.22878	-0.15223	0.13130
551.000	-0.26294	-0.21685	-0.25701	0.12135
552.000	-0.28666	-0.23276	-0.24712	0.11141
553.000	-0.27480	-0.21486	-0.25701	0.13528
554.000	-0.23131	-0.20491	-0.21945	0.15915
555.000	-0.24712	-0.20292	-0.20956	0.16512
556.000	-0.26294	-0.22281	-0.22933	0.14523
557.000	-0.26689	-0.23276	-0.23329	0.11539
558.000	-0.28666	-0.23674	-0.17991	0.12533
559.000	-0.22142	-0.22082	-0.23329	0.13727
560.000	-0.27282	-0.21883	-0.23922	0.11936
561.000	-0.21352	-0.21685	-0.17200	0.13528
562.000	-0.26887	-0.28647	-0.23724	0.06366
563.000	-0.28073	-0.19695	-0.20363	0.14921
564.000	-0.24317	-0.23873	-0.16211	0.14125
565.000	-0.26096	-0.19695	-0.24515	0.11141
566.000	-0.20758	-0.18104	-0.23329	0.14324
567.000	-0.23724	-0.19695	-0.24317	0.13727
568.000	-0.22142	-0.20889	-0.17793	0.12533
569.000	-0.22735	-0.19695	-0.21945	0.13926
570.000	-0.24910	-0.19695	-0.18781	0.14921
571.000	-0.21352	-0.21884	-0.15421	0.10146
572.000	-0.26887	-0.15915	-0.21154	0.12732
573.000	-0.24317	-0.18502	-0.23329	0.10743
574.000	-0.25503	-0.20690	-0.19968	0.13926
575.000	-0.22735	-0.20491	-0.20561	0.17905
576.000	-0.23329	-0.17308	-0.20165	0.10146
577.000	-0.26689	-0.18700	-0.20561	0.19297
578.000	-0.23922	-0.19496	-0.18188	0.15915
579.000	-0.30050	-0.20889	-0.17793	0.08952
580.000	-0.28864	-0.26459	-0.22933	0.10345
581.000	-0.24515	-0.18303	-0.22340	0.12334
582.000	-0.29457	-0.19695	-0.17002	0.07361
583.000	-0.28271	-0.23873	-0.25503	0.08554
584.000	-0.25899	-0.19496	-0.15223	0.11539
585.000	-0.24317	-0.21884	-0.17991	0.10146
586.000	-0.27282	-0.24072	-0.18781	0.10743
587.000	-0.18781	-0.20093	-0.19177	0.13130
588.000	-0.22735	-0.20292	-0.19968	0.09947
589.000	-0.24712	-0.24271	-0.17991	0.08753
590.000	-0.25899	-0.20690	-0.17002	0.04775
591.000	-0.30050	-0.19098	-0.18188	0.05371
592.000	-0.25899	-0.20292	-0.22538	0.10743
593.000	-0.25899	-0.22480	-0.12455	0.08157
594.000	-0.27480	-0.21287	-0.15816	0.07162
595.000	-0.21154	-0.19297	-0.19968	0.06963
596.000	-0.23526	-0.19496	-0.22735	0.11340
597.000	-0.27282	-0.22082	-0.22735	0.09151
598.000	-0.21549	-0.22480	-0.20956	0.09947
599.000	-0.24119	-0.20093	-0.14432	0.12334
600.000	-0.23922	-0.22878	-0.14432	0.12334
601.000	-0.26294	-0.20889	-0.20363	0.01592
602.000	-0.24515	-0.22281	-0.21945	0.08356
603.000	-0.23922	-0.27454	-0.15421	0.13926
604.000	-0.23329	-0.14921	-0.20956	0.12135
605.000	-0.20363	-0.23077	-0.17002	0.11738
606.000	-0.26096	-0.22082	-0.21747	0.12334
607.000	-0.23922	-0.22480	-0.10280	0.09947
608.000	-0.24119	-0.19695	-0.19572	0.12533
609.000	-0.21747	-0.22281	-0.20758	0.09350
610.000	-0.25503	-0.21287	-0.17793	0.09947
611.000	-0.21154	-0.19695	-0.21154	0.10146
612.000	-0.22538	-0.22082	-0.18979	0.10942
613.000	-0.20561	-0.18502	-0.24119	0.09151
614.000	-0.27282	-0.21486	-0.21945	0.05769
615.000	-0.23724	-0.20690	-0.17595	0.13329
616.000	-0.23526	-0.22281	-0.17200	0.16114
617.000	-0.23329	-0.22679	-0.12850	0.07560
618.000	-0.21352	-0.21486	-0.17398	0.11738
619.000	-0.23526	-0.19695	-0.17398	0.02586
620.000	-0.21945	-0.23674	-0.18188	0.03979
621.000	-0.24515	-0.19297	-0.17595	0.03382
622.000	-0.20561	-0.23475	-0.12060	0.07958
623.000	-0.23526	-0.20889	-0.17398	0.06963
624.000	-0.23526	-0.20491	-0.17398	0.01790
625.000	-0.22340	-0.23276	-0.09292	0.07958
626.000	-0.22933	-0.28448	-0.19968	0.08753
627.000	-0.24515	-0.24271	-0.25108	0.05570
628.000	-0.24910	-0.23873	-0.10083	0.12136
629.000	-0.26096	-0.21685	-0.15618	-0.00796
630.000	-0.21352	-0.22281	-0.12850	0.09151
631.000	-0.24910	-0.25663	-0.20956	0.07759
632.000	-0.24910	-0.25663	-0.19572	0.02984
633.000	-0.22538	-0.23276	-0.19572	0.12732
634.000	-0.22933	-0.21287	-0.19968	0.06764
635.000	-0.23922	-0.23674	-0.21352	0.03979
636.000	-0.22142	-0.20690	-0.20363	-0.03382
637.000	-0.28469	-0.25862	-0.20758	0.02586
638.000	-0.25305	-0.24072	-0.11862	0.04377
639.000	-0.24119	-0.21287	-0.17991	0.09748
640.000	-0.24119	-0.23077	-0.20363	0.03780
641.000	-0.24910	-0.22480	-0.13444	0.03382
642.000	-0.27282	-0.27454	-0.14432	0.03780
643.000	-0.24910	-0.26260	-0.20363	0.06366
644.000	-0.25503	-0.26857	-0.17398	0.08157
645.000	-0.26096	-0.21088	-0.19572	0.06764
646.000	-0.27085	-0.24669	-0.18979	0.11937
647.000	-0.26689	-0.23475	-0.20956	0.12732
648.000	-0.23131	-0.23475	-0.17991	0.12334
649.000	-0.24317	-0.23475	-0.13641	0.10146
650.000	-0.28073	-0.26260	-0.17793	0.03780
651.000	-0.29655	-0.23873	-0.13641	0.11340
652.000	-0.22340	-0.22281	-0.22340	0.10146
653.000	-0.25701	-0.19098	-0.19770	0.10345
654.000	-0.29852	-0.18899	-0.18386	0.11340
655.000	-0.24317	-0.20690	-0.19968	0.09748
656.000	-0.26689	-0.20690	-0.13839	0.14921
657.000	-0.26096	-0.18303	-0.23922	0.04377
658.000	-0.23329	-0.19098	-0.14234	0.17905
659.000	-0.25305	-0.20093	-0.11467	0.12931
660.000	-0.18979	-0.19297	-0.17595	0.12334
661.000	-0.20956	-0.17905	-0.21747	0.04974
662.000	-0.22142	-0.22082	-0.18584	0.13329
663.000	-0.22340	-0.19297	-0.17793	0.05968
664.000	-0.21747	-0.16711	-0.17200	0.07759
665.000	-0.21352	-0.18899	-0.24515	0.13130
666.000	-0.21154	-0.18701	-0.14630	0.11141
667.000	-0.26689	-0.17308	-0.17793	0.18104
668.000	-0.21154	-0.19894	-0.18188	0.12334
669.000	-0.22340	-0.18303	-0.17991	0.10743
670.000	-0.25108	-0.19496	-0.19968	0.20889
671.000	-0.20956	-0.14523	-0.24712	0.10345
672.000	-0.23131	-0.23674	-0.22538	0.11738
673.000	-0.21352	-0.23475	-0.23922	0.12732
674.000	-0.18188	-0.17706	-0.19177	0.13329
675.000	-0.16607	-0.19894	-0.21352	0.10345
676.000	-0.21352	-0.21088	-0.19375	0.16910
677.000	-0.20363	-0.21486	-0.21945	0.12732
678.000	-0.21747	-0.17109	-0.17991	0.12732
679.000	-0.20165	-0.22281	-0.23131	0.04974
680.000	-0.19572	-0.22083	-0.15223	0.12931
681.000	-0.18584	-0.19297	-0.20165	0.14125
682.000	-0.21747	-0.22480	-0.16409	0.07560
683.000	-0.17398	-0.19098	-0.17595	0.07361
684.000	-0.18584	-0.14921	-0.25305	0.06167
685.000	-0.18188	-0.22281	-0.19770	0.14125
686.000	-0.21352	-0.22679	-0.24910	0.09151
687.000	-0.20561	-0.20292	-0.17398	0.11937
688.000	-0.25108	-0.19098	-0.17793	0.06963
689.000	-0.19177	-0.19496	-0.19572	0.02387
690.000	-0.16607	-0.22083	-0.18188	0.11937
691.000	-0.21747	-0.20093	-0.20165	0.04377
692.000	-0.19177	-0.17905	-0.22735	0.05570
693.000	-0.15421	-0.18701	-0.20165	0.08356
694.000	-0.18781	-0.19496	-0.22735	0.07361
695.000	-0.20165	-0.19496	-0.22142	0.02586
696.000	-0.14234	-0.17706	-0.22142	0.09748
697.000	-0.19375	-0.18899	-0.11269	0.08356
698.000	-0.19375	-0.24072	-0.19375	0.06764
699.000	-0.19770	-0.20889	-0.14630	0.06764
700.000	-0.20956	-0.23674	-0.21945	0.11340
701.000	-0.20363	-0.22281	-0.22142	0.05769
702.000	-0.16607	-0.20491	-0.13641	0.04377
703.000	-0.24712	-0.25464	-0.18979	0.02387
704.000	-0.17200	-0.20690	-0.18188	0.08952
705.000	-0.18781	-0.21088	-0.27876	0.10146
706.000	-0.20561	-0.21088	-0.16804	0.08555
707.000	-0.19968	-0.21486	-0.18386	0.00995
708.000	-0.17398	-0.20690	-0.23724	0.06167
709.000	-0.18386	-0.20491	-0.24317	0.08952
710.000	-0.16014	-0.20292	-0.12455	0.05173
711.000	-0.15025	-0.21486	-0.25701	0.12334
712.000	-0.20363	-0.20491	-0.18979	0.08555
713.000	-0.17398	-0.23276	-0.16409	0.04974
714.000	-0.17991	-0.21685	-0.19375	0.02984
715.000	-0.18188	-0.20690	-0.14432	0.06963
716.000	-0.12455	-0.20690	-0.21945	0.15517
717.000	-0.17398	-0.23475	-0.26096	0.02785
718.000	-0.20165	-0.22480	-0.25503	0.05968
719.000	-0.18781	-0.24271	-0.19375	0.09350
720.000	-0.12653	-0.24669	-0.31236	0.09748
721.000	-0.18386	-0.23276	-0.23131	0.06167
722.000	-0.13246	-0.19098	-0.20165	0.04178
723.000	-0.14432	-0.22083	-0.21549	0.07361
724.000	-0.15025	-0.21287	-0.24119	0.02785
725.000	-0.15618	-0.20491	-0.23131	0.11340
726.000	-0.12850	-0.18303	-0.17991	0.00796
727.000	-0.16014	-0.18900	-0.21747	0.05172
728.000	-0.20956	-0.20093	-0.18979	0.06167
729.000	-0.16607	-0.19098	-0.19572	0.10345
730.000	-0.14827	-0.17308	-0.20758	0.08952
731.000	-0.17595	-0.19098	-0.14234	0.02785
732.000	-0.15025	-0.19894	-0.21549	0.04974
733.000	-0.14037	-0.23475	-0.16804	0.05570
734.000	-0.16014	-0.19894	-0.22735	0.03979
735.000	-0.16211	-0.24072	-0.28666	0.12732
736.000	-0.16014	-0.18303	-0.23526	0.01989
737.000	-0.16804	-0.24271	-0.16607	0.00597
738.000	-0.17398	-0.21486	-0.21549	-0.02785
739.000	-0.15816	-0.21685	-0.20165	0.06963
740.000	-0.18386	-0.22878	-0.20956	-0.01393
741.000	-0.13839	-0.18502	-0.18584	0.01989
742.000	-0.14432	-0.21884	-0.15223	0.08753
743.000	-0.16804	-0.21884	-0.25305	0.02785
744.000	-0.15025	-0.19496	-0.20956	0.05570
745.000	-0.14432	-0.20690	-0.16409	0.05371
746.000	-0.17398	-0.23276	-0.12060	0.00199
747.000	-0.16804	-0.23077	-0.25701	0.01989
748.000	-0.13048	-0.22282	-0.19968	0.02984
749.000	-0.11269	-0.24470	-0.18188	0.02188
750.000	-0.16409	-0.24072	-0.16804	0.04178
751.000	-0.15421	-0.22679	-0.24910	0.06963
752.000	-0.16607	-0.27056	-0.25108	0.00398
753.000	-0.16409	-0.24669	-0.13839	0.07560
754.000	-0.15816	-0.23873	-0.19177	0.00995
755.000	-0.16409	-0.24072	-0.23922	0.10345
756.000	-0.20956	-0.24072	-0.22142	-0.00995
757.000	-0.17793	-0.27255	-0.23922	0.06366
758.000	-0.15618	-0.24271	-0.19770	0.02785
759.000	-0.16409	-0.24271	-0.22538	0.05769
760.000	-0.10676	-0.20093	-0.23724	0.03183
761.000	-0.15816	-0.26260	-0.15025	0.09151
762.000	-0.13839	-0.25663	-0.20561	0.05968
763.000	-0.17793	-0.26658	-0.23526	0.09350
764.000	-0.11467	-0.21486	-0.22142	0.07162
765.000	-0.15618	-0.18701	-0.25305	0.01194
766.000	-0.12455	-0.18701	-0.23329	0.04377
767.000	-0.13246	-0.20292	-0.28666	0.07560
768.000	-0.14037	-0.21287	-0.17200	0.00398
769.000	-0.18979	-0.21287	-0.15618	0.06565
770.000	-0.16014	-0.17507	-0.24119	0.02785
771.000	-0.11862	-0.24271	-0.22933	0.07958
772.000	-0.15618	-0.19098	-0.19572	0.04974
773.000	-0.15025	-0.23276	-0.23131	-0.02188
774.000	-0.18188	-0.24868	-0.30446	0.08952
775.000	-0.17991	-0.22281	-0.16804	0.05769
776.000	-0.14630	-0.21685	-0.27480	0.04377
777.000	-0.18386	-0.20292	-0.23922	0.05769
778.000	-0.12060	-0.21685	-0.27085	0.03581
779.000	-0.11862	-0.25664	-0.19770	0.04576
780.000	-0.12653	-0.18502	-0.27085	0.08753
781.000	-0.17002	-0.22083	-0.19177	0.05968
782.000	-0.12850	-0.26459	-0.29259	0.15318
783.000	-0.12257	-0.21287	-0.22933	0.04576
784.000	-0.15223	-0.18900	-0.26887	0.06366
785.000	-0.16211	-0.22281	-0.23526	0.00398
786.000	-0.15223	-0.20491	-0.23526	0.14324
787.000	-0.14037	-0.21884	-0.19572	0.04377
788.000	-0.10083	-0.16711	-0.22340	0.13329
789.000	-0.13246	-0.22679	-0.22933	0.00597
790.000	-0.18188	-0.23276	-0.25701	0.05968
791.000	-0.13444	-0.16910	-0.20363	0.00796
792.000	-0.12653	-0.19297	-0.20363	0.03979
793.000	-0.13641	-0.22480	-0.22142	0.00199
794.000	-0.14432	-0.21287	-0.17002	0.11340
795.000	-0.12455	-0.21884	-0.23922	0.06366
796.000	-0.10676	-0.20093	-0.20363	0.04775
797.000	-0.12653	-0.20889	-0.21747	0.06167
798.000	-0.10676	-0.25465	-0.28469	0.08157
799.000	-0.12455	-0.24868	-0.21352	0.07958
800.000	-0.11269	-0.20491	-0.25108	0.06565
801.000	-0.14037	-0.25862	-0.18188	0.06565
802.000	-0.14234	-0.27454	-0.25305	0.10345
803.000	-0.13444	-0.24669	-0.23329	0.08952
804.000	-0.12653	-0.22480	-0.29457	0.10942
805.000	-0.12653	-0.22282	-0.21549	0.06963
806.000	-0.12455	-0.28847	-0.23724	-0.00398
807.000	-0.16607	-0.24868	-0.18188	0.06366
808.000	-0.13246	-0.24271	-0.29457	0.05371
809.000	-0.11862	-0.23674	-0.21154	0.06167
810.000	-0.10083	-0.30239	-0.15421	0.04775
811.000	-0.09885	-0.26260	-0.21945	0.09549
812.000	-0.08501	-0.21685	-0.25305	0.06764
813.000	-0.12653	-0.21486	-0.20758	0.09350
814.000	-0.13246	-0.19098	-0.19177	0.06764
815.000	-0.09094	-0.23077	-0.23329	0.05172
816.000	-0.10676	-0.22083	-0.24119	0.16313
817.000	-0.06524	-0.22679	-0.24317	0.07958
818.000	-0.12257	-0.27852	-0.19375	0.05769
819.000	-0.08699	-0.21287	-0.21747	0.12533
820.000	-0.09292	-0.20491	-0.20956	0.12533
821.000	-0.11071	-0.20889	-0.17991	0.13329
822.000	-0.08106	-0.21486	-0.21154	0.09350
823.000	-0.09490	-0.24271	-0.23724	0.09350
824.000	-0.07315	-0.23674	-0.21352	0.10345
825.000	-0.11467	-0.25067	-0.22538	0.13130
826.000	-0.10874	-0.24072	-0.26096	0.08554
827.000	-0.12455	-0.24271	-0.20758	0.06963
828.000	-0.08106	-0.24669	-0.22142	0.09549
829.000	-0.11862	-0.22480	-0.33016	0.10345
830.000	-0.08303	-0.20690	-0.26492	0.18104
831.000	-0.09292	-0.21486	-0.28073	0.15120
832.000	-0.07315	-0.23475	-0.26096	0.07560
833.000	-0.09292	-0.18900	-0.29259	0.10345
834.000	-0.13444	-0.23475	-0.25701	0.19894
835.000	-0.11862	-0.20491	-0.21747	0.09947
836.000	-0.11862	-0.22679	-0.30446	0.13329
837.000	-0.14037	-0.24271	-0.28666	0.10942
838.000	-0.14037	-0.18900	-0.22142	0.04775
839.000	-0.09885	-0.19695	-0.24910	0.12732
840.000	-0.16014	-0.25465	-0.30248	0.03382
841.000	-0.07315	-0.20690	-0.24712	0.12533
842.000	-0.04152	-0.18701	-0.28864	0.08157
843.000	-0.14234	-0.22878	-0.30050	0.14324
844.000	-0.09292	-0.19496	-0.15223	0.07162
845.000	-0.09490	-0.18104	-0.30446	0.15318
846.000	-0.02966	-0.21685	-0.30841	0.13727
847.000	-0.08303	-0.21088	-0.27282	0.13130
848.000	-0.12060	-0.18502	-0.27678	0.14921
849.000	-0.11862	-0.19695	-0.20561	0.08952
850.000	-0.10280	-0.18502	-0.27480	0.07958
851.000	-0.07513	-0.20491	-0.27282	0.09350
852.000	-0.08699	-0.21685	-0.25108	0.15318
853.000	-0.09687	-0.19894	-0.23131	0.14722
854.000	-0.05536	-0.11738	-0.20165	0.07560
855.000	-0.02966	-0.13528	-0.08897	0.15915
856.000	0.05140	-0.19894	0.07315	0.15319
857.000	0.27282	-0.18303	0.09490	0.11539
858.000	0.43493	-0.24469	0.28271	0.09549
859.000	0.69785	-0.30635	0.55552	0.04178
860.000	0.98050	-0.31229	0.79668	-0.05769
861.000	1.33819	-0.34805	1.19196	-0.08951
862.000	1.66022	-0.42356	1.38363	-0.10740
863.000	2.04138	-0.43540	1.83403	-0.13322
864.000	2.43420	-0.47305	2.12628	-0.26043
865.000	2.74396	-0.49082	2.57233	-0.24445
866.000	3.16394	-0.53631	2.84257	-0.33977
867.000	3.50874	-0.57584	3.28810	-0.50249
868.000	3.86116	-0.64309	3.60327	-0.57975
869.000	4.19756	-0.72813	3.96742	-0.64896
870.000	4.56706	-0.78130	4.30963	-0.75579
871.000	4.77720	-0.89206	4.57099	-0.83086
872.000	5.07745	-1.00458	4.95581	-0.82842
873.000	5.38722	-1.02389	5.16963	-1.00444
874.000	5.59682	-1.09874	5.43228	-1.06539
875.000	5.68884	-1.20740	5.50673	-1.13058
876.000	5.86497	-1.20109	5.74560	-1.27653
877.000	5.96863	-1.32744	5.83758	-1.27632
878.000	6.05076	-1.34701	5.94908	-1.43230
879.000	6.15240	-1.37838	6.00970	-1.45191
880.000	6.21688	-1.39205	6.05076	-1.48343
881.000	6.24814	-1.44533	6.09377	-1.60983
882.000	6.30479	-1.49655	6.05858	-1.58028
883.000	6.44538	-1.47836	6.16022	-1.49894
884.000	6.56833	-1.47800	6.14654	-1.58200
885.000	6.73997	-1.47749	6.30870	-1.56768
886.000	6.78676	-1.50103	6.27159	-1.52629
887.000	6.95046	-1.52420	6.47076	-1.59286
888.000	7.09651	-1.55923	6.56248	-1.51357
889.000	7.25221	-1.52123	6.69512	-1.60399
890.000	7.37085	-1.48928	6.79261	-1.57011
891.000	7.46417	-1.49882	6.77702	-1.48922
892.000	7.53607	-1.52616	6.91149	-1.51446
893.000	7.50303	-1.50066	6.89590	-1.53424
894.000	7.41751	-1.46941	6.85888	-1.52449
895.000	7.31251	-1.46581	6.81600	-1.46541
896.000	7.21719	-1.47006	6.76532	-1.53861
897.000	7.06536	-1.42912	6.73022	-1.51108
898.000	6.94266	-1.45120	6.70097	-1.44996
899.000	6.87642	-1.42772	6.63076	-1.56471
900.000	6.74972	-1.41823	6.63856	-1.58640
901.000	6.72047	-1.46965	6.58394	-1.48586
902.000	6.68927	-1.38483	6.53516	-1.55513
903.000	6.72047	-1.36895	6.52345	-1.50579
904.000	6.75557	-1.42018	6.57223	-1.48194
905.000	6.78676	-1.33322	6.54492	-1.52350
906.000	6.86862	-1.35865	6.74582	-1.50906
907.000	6.93877	-1.40780	6.83354	-1.50681
908.000	7.05173	-1.40943	6.75752	-1.51889
909.000	7.13934	-1.47623	6.75167	-1.52089
910.000	7.25804	-1.42654	6.92123	-1.51837
911.000	7.28528	-1.45209	6.84329	-1.49691
912.000	7.34363	-1.45979	6.97578	-1.58529
913.000	7.38835	-1.46950	6.86862	-1.56196
914.000	7.43112	-1.50287	7.00110	-1.49049
915.000	7.40196	-1.52072	6.86862	-1.57775
916.000	7.42335	-1.52459	6.95630	-1.55378
917.000	7.39224	-1.54835	6.85693	-1.59161
918.000	7.41168	-1.50491	6.87642	-1.56194
919.000	7.44667	-1.52056	6.91928	-1.70585
920.000	7.43890	-1.51862	6.99915	-1.62664
921.000	7.41946	-1.55417	6.92318	-1.58349
922.000	7.45639	-1.52841	6.92123	-1.56179
923.000	7.41946	-1.48517	6.89201	-1.61123
924.000	7.45250	-1.47520	6.91344	-1.57168
925.000	7.42335	-1.44376	6.89201	-1.62307
926.000	7.40196	-1.45960	6.94851	-1.59327
927.000	7.45445	-1.50871	6.94071	-1.62685
928.000	7.39807	-1.46750	6.91734	-1.68415
929.000	7.40974	-1.41817	6.83549	-1.61339
930.000	7.34946	-1.44597	6.83159	-1.52853
931.000	7.39029	-1.44189	6.91539	-1.57760
932.000	7.39029	-1.41626	6.80041	-1.60956
933.000	7.38057	-1.44192	6.87252	-1.58169
934.000	7.36113	-1.41635	6.79846	-1.54640
935.000	7.32807	-1.49139	6.81990	-1.56212
936.000	7.35918	-1.51495	6.79456	-1.60366
937.000	7.35335	-1.43807	6.82185	-1.54830
938.000	7.35335	-1.44596	6.76337	-1.50308
939.000	7.33196	-1.45786	6.82965	-1.52656
940.000	7.32612	-1.42830	6.84329	-1.54626
941.000	7.30862	-1.45991	6.76532	-1.56033
942.000	7.32612	-1.44013	6.79846	-1.54245
943.000	7.33974	-1.45389	6.79066	-1.51681
944.000	7.35724	-1.41045	6.86667	-1.58368
945.000	7.34557	-1.37894	6.75947	-1.49717
946.000	7.35335	-1.43807	6.89980	-1.54410
947.000	7.35724	-1.43609	6.81795	-1.54634
948.000	7.30667	-1.38497	6.77702	-1.53068
949.000	7.32418	-1.38492	6.82965	-1.57788
950.000	7.34557	-1.41838	6.86473	-1.60737
951.000	7.32807	-1.39674	6.78481	-1.55237
952.000	7.33779	-1.42037	6.87837	-1.53233
953.000	7.34363	-1.42824	6.79846	-1.58391
954.000	7.35724	-1.42820	6.81600	-1.59569
955.000	7.37863	-1.44390	6.85303	-1.48898
956.000	7.37863	-1.43996	6.80431	-1.49308
957.000	7.38252	-1.45769	6.80041	-1.63127
958.000	7.37668	-1.43011	6.82770	-1.57789
959.000	7.38835	-1.40247	6.83549	-1.47325
960.000	7.40974	-1.42606	6.80820	-1.54834
961.000	7.38835	-1.45176	6.82575	-1.53447
962.000	7.38446	-1.44191	6.89785	-1.58358
963.000	7.40390	-1.45565	6.83549	-1.53246
964.000	7.41751	-1.43195	6.86083	-1.56002
965.000	7.42529	-1.43192	6.80041	-1.53652
966.000	7.41557	-1.41027	6.86278	-1.54225
967.000	7.42335	-1.41616	6.78091	-1.56225
968.000	7.40390	-1.40439	6.74972	-1.55840
969.000	7.43890	-1.41216	6.83744	-1.51272
970.000	7.42723	-1.44374	6.76727	-1.50109
971.000	7.43112	-1.36881	6.78676	-1.55039
972.000	7.43501	-1.42597	6.78091	-1.54251
973.000	7.41168	-1.39253	6.74387	-1.53078
974.000	7.47777	-1.40612	6.80820	-1.56413
975.000	7.46805	-1.40221	6.73022	-1.49331
976.000	7.42918	-1.42599	6.89590	-1.52635
977.000	7.44278	-1.46144	6.79261	-1.51286
978.000	7.45056	-1.43578	6.78091	-1.50303
979.000	7.45056	-1.42001	6.73802	-1.49526
980.000	7.43890	-1.45553	6.84524	-1.54625
981.000	7.44862	-1.41016	6.74777	-1.58210
982.000	7.47388	-1.45148	6.72242	-1.49136
983.000	7.47194	-1.45542	6.76532	-1.49123
984.000	7.46028	-1.42589	6.72632	-1.52294
985.000	7.48360	-1.43567	6.72437	-1.51110
986.000	7.46222	-1.43771	6.80820	-1.53255
987.000	7.50692	-1.43560	6.77702	-1.47540
988.000	7.47583	-1.45147	6.74972	-1.49720
989.000	7.51469	-1.45134	6.78091	-1.46946
990.000	7.47194	-1.42388	6.78481	-1.52276
991.000	7.47583	-1.43767	6.86667	-1.57973
992.000	7.48943	-1.44748	6.82965	-1.52064
993.000	7.47777	-1.43766	6.79261	-1.51089
994.000	7.46805	-1.45347	6.78676	-1.51485
995.000	7.50109	-1.40802	6.79456	-1.58392
996.000	7.46805	-1.43967	6.76142	-1.60969
997.000	7.46611	-1.46333	6.72632	-1.53479
998.000	7.50692	-1.43757	6.77896	-1.51093
999.000	7.49137	-1.44945	6.80820	-1.55624
1000.000	7.45250	-1.42986	6.78481	-1.55237
1001.000	7.46028	-1.47912	6.82770	-1.56210
1002.000	7.45833	-1.48701	6.91149	-1.52432
1003.000	7.46028	-1.50277	6.82575	-1.56605
1004.000	7.43695	-1.44963	6.88616	-1.61125
1005.000	7.42335	-1.46150	6.83549	-1.54233
1006.000	7.45250	-1.48112	6.77702	-1.53068
1007.000	7.45056	-1.43578	6.83549	-1.56207
1008.000	7.44862	-1.46142	6.85303	-1.55807
1009.000	7.45639	-1.46730	6.76337	-1.50900
1010.000	7.47971	-1.45343	6.79651	-1.60168
1011.000	7.46222	-1.42194	6.77896	-1.54646
1012.000	7.48360	-1.46918	6.82575	-1.62724
1013.000	7.45056	-1.43775	6.75167	-1.56037
1014.000	7.46222	-1.51459	6.83159	-1.62130
1015.000	7.47000	-1.43769	6.80431	-1.57797
1016.000	7.42335	-1.46939	6.85693	-1.61726
1017.000	7.46611	-1.44953	6.86278	-1.59554
1018.000	7.43890	-1.44568	6.88616	-1.58954
1019.000	7.44084	-1.46933	6.88032	-1.64679
1020.000	7.44862	-1.42987	6.86667	-1.62907
1021.000	7.47971	-1.49285	6.82965	-1.55814
1022.000	7.44667	-1.43185	6.76532	-1.57414
1023.000	7.47583	-1.41993	6.85498	-1.55609
1024.000	7.42140	-1.41419	6.88421	-1.60928
1025.000	7.44473	-1.39834	6.81990	-1.62529
1026.000	7.47000	-1.41995	6.79651	-1.54641
1027.000	7.45056	-1.40818	6.82185	-1.59370
1028.000	7.44084	-1.44173	6.85498	-1.57582
1029.000	7.47971	-1.44357	6.81015	-1.53057
1030.000	7.44862	-1.45353	6.85693	-1.58963
1031.000	7.43890	-1.40625	6.81600	-1.57990
1032.000	7.48554	-1.41004	6.79261	-1.56813
1033.000	7.51858	-1.35868	6.80041	-1.55626
1034.000	7.49720	-1.42774	6.86473	-1.59750
1035.000	7.50886	-1.43362	6.78481	-1.60172
1036.000	7.46805	-1.41404	6.86083	-1.56594
1037.000	7.48360	-1.39822	6.84134	-1.48112
1038.000	7.52052	-1.42372	6.80626	-1.61744
1039.000	7.49526	-1.47506	6.86862	-1.64091
1040.000	7.48554	-1.42778	6.81405	-1.64702
1041.000	7.47000	-1.42980	6.72827	-1.58808
1042.000	7.49332	-1.39819	6.78676	-1.59184
1043.000	7.49526	-1.44352	6.81405	-1.63912
1044.000	7.50498	-1.43757	6.80431	-1.59178
1045.000	7.54384	-1.42562	6.84329	-1.52454
1046.000	7.51858	-1.45921	6.85108	-1.63307
1047.000	7.48360	-1.44356	6.81795	-1.50488
1048.000	7.51081	-1.38630	6.79456	-1.59774
1049.000	7.49915	-1.45139	6.85498	-1.56793
1050.000	7.52052	-1.41978	6.88811	-1.55400
1051.000	7.52441	-1.36655	6.77507	-1.58398
1052.000	7.49526	-1.45732	6.82185	-1.68054
1053.000	7.48943	-1.41791	6.92903	-1.70384
1054.000	7.49720	-1.44154	6.88421	-1.58165
1055.000	7.52247	-1.43752	6.86862	-1.58367
1056.000	7.49526	-1.42381	6.77117	-1.58992
1057.000	7.51664	-1.41782	6.76532	-1.61165
1058.000	7.52247	-1.42175	6.79651	-1.55035
1059.000	7.51858	-1.44147	6.82185	-1.63120
1060.000	7.50886	-1.43165	6.87252	-1.57971
1061.000	7.48749	-1.44946	6.84719	-1.58374
1062.000	7.52052	-1.44344	6.80236	-1.56613
1063.000	7.53995	-1.39410	6.82185	-1.51474
1064.000	7.52635	-1.43947	6.80626	-1.55230
1065.000	7.55355	-1.47092	6.73217	-1.58807
1066.000	7.54967	-1.43940	6.79261	-1.61551
1067.000	7.53024	-1.45129	6.77117	-1.50503
1068.000	7.54190	-1.47884	6.78091	-1.61950
1069.000	7.51081	-1.47303	6.79651	-1.59181
1070.000	7.51469	-1.45528	6.81990	-1.68844
1071.000	7.51858	-1.41979	6.79066	-1.61157
1072.000	7.50886	-1.45924	6.81600	-1.58582
1073.000	7.53024	-1.37442	6.78286	-1.62146
1074.000	7.51081	-1.50654	6.76337	-1.58797
1075.000	7.51858	-1.50257	6.80431	-1.56020
1076.000	7.53218	-1.47887	6.77507	-1.55437
1077.000	7.50109	-1.47110	6.83159	-1.58972
1078.000	7.49915	-1.42774	6.80236	-1.57797
1079.000	7.53607	-1.48477	6.86862	-1.64880
1080.000	7.51081	-1.51048	6.75362	-1.53075
1081.000	7.51081	-1.47501	6.83744	-1.59167
1082.000	7.54190	-1.49264	6.81795	-1.56213
1083.000	7.53413	-1.42368	6.78091	-1.54843
1084.000	7.55744	-1.49850	6.78676	-1.57605
1085.000	7.52830	-1.43947	6.75167	-1.68079
1086.000	7.53218	-1.50647	6.73412	-1.55056
1087.000	7.52247	-1.44146	6.79261	-1.56813
1088.000	7.57492	-1.44522	6.79456	-1.62734
1089.000	7.56521	-1.46102	6.77896	-1.61358
1090.000	7.53024	-1.42763	6.83744	-1.54430
1091.000	7.53413	-1.36455	6.72242	-1.66115
1092.000	7.53995	-1.44337	6.84524	-1.59165
1093.000	7.55161	-1.45122	6.76142	-1.59785
1094.000	7.51275	-1.41784	6.83159	-1.66077
1095.000	7.54190	-1.40986	6.79456	-1.64906
1096.000	7.55550	-1.46500	6.81405	-1.66083
1097.000	7.56327	-1.38022	6.75362	-1.63538
1098.000	7.54190	-1.38423	6.85693	-1.65082
1099.000	7.53024	-1.39413	6.74777	-1.66698
1100.000	7.54773	-1.41575	6.77507	-1.63728
1101.000	7.54773	-1.42166	6.84134	-1.56797
1102.000	7.53995	-1.44337	6.88811	-1.64281
1103.000	7.53995	-1.43352	6.85498	-1.58569
1104.000	7.56910	-1.40780	6.85108	-1.59163
1105.000	7.51469	-1.46514	6.74777	-1.63737
1106.000	7.53413	-1.41580	6.83549	-1.59563
1107.000	7.52830	-1.40793	6.78091	-1.59581
1108.000	7.56715	-1.37430	6.84524	-1.51862
1109.000	7.59435	-1.42348	6.93097	-1.59925
1110.000	7.66233	-1.37399	6.91149	-1.72166
1111.000	7.71281	-1.44476	6.99720	-1.72332
1112.000	7.89134	-1.50716	7.10041	-1.73872
1113.000	8.06778	-1.62067	7.27944	-1.81887
1114.000	8.29441	-1.81250	7.38835	-1.90317
1115.000	8.45115	-1.93168	7.67009	-2.04963
1116.000	8.73914	-2.12268	7.84866	-2.03301
1117.000	9.00355	-2.22710	8.09879	-2.32482
1118.000	9.20401	-2.35134	8.25762	-2.45754
1119.000	9.40809	-2.53413	8.48209	-2.55825
1120.000	9.65421	-2.59102	8.67926	-2.74335
1121.000	9.75409	-2.75850	8.95919	-2.81186
1122.000	9.90380	-2.85305	9.05176	-2.92480
1123.000	10.04571	-2.92216	9.14621	-3.04940
1124.000	10.08788	-3.03507	9.18667	-3.20765
1125.000	10.14727	-3.15557	9.22712	-3.25622
1126.000	10.17601	-3.20214	9.25601	-3.24617
1127.000	10.15685	-3.18476	9.27142	-3.26951
1128.000	10.12428	-3.23585	9.16740	-3.24502
1129.000	10.09938	-3.26538	9.10381	-3.29259
1130.000	10.11470	-3.22228	9.20594	-3.40908
1131.000	10.04955	-3.15262	9.05947	-3.33999
1132.000	10.01887	-3.21347	8.92253	-3.31775
1133.000	9.99203	-3.22740	8.96304	-3.31738
1134.000	9.97861	-3.15527	8.85306	-3.25176
1135.000	9.86351	-3.11143	8.85499	-3.24587
1136.000	9.85008	-3.12719	8.83182	-3.16376
1137.000	9.81361	-3.10212	8.82024	-3.23637
1138.000	9.81553	-3.09429	8.80673	-3.18554
1139.000	9.77905	-3.05748	8.85306	-3.16162
1140.000	9.80401	-3.05334	8.76811	-3.07805
1141.000	9.78097	-2.99686	8.79900	-3.05035
1142.000	9.79825	-2.98106	8.84147	-3.04608
1143.000	9.82129	-3.00040	8.82796	-3.03247
1144.000	9.81745	-2.95743	8.92060	-3.09050
1145.000	9.83664	-2.91816	8.88008	-3.02224
1146.000	9.84432	-2.95719	8.88973	-3.11231
1147.000	9.89421	-2.90787	8.96497	-3.03917
1148.000	9.89229	-2.91766	8.98426	-3.01746
1149.000	9.95176	-2.95427	9.02669	-3.10135
1150.000	9.95943	-2.93466	9.07682	-3.07937
1151.000	9.98820	-2.94026	9.12693	-3.09657
1152.000	10.02079	-2.96927	9.10766	-3.10261
1153.000	9.99203	-3.01252	9.10766	-3.10849
1154.000	10.03229	-3.03755	9.10766	-3.15353
1155.000	10.01121	-3.06900	9.15006	-3.21386
1156.000	10.05530	-3.08812	9.05368	-3.24410
1157.000	10.01696	-3.07676	9.09610	-3.13209
1158.000	10.04380	-3.10190	9.11344	-3.22985
1159.000	10.06296	-3.10757	9.05947	-3.20879
1160.000	10.08405	-3.13471	9.07875	-3.24387
1161.000	10.06680	-3.13879	9.14235	-3.19435
1162.000	10.06296	-3.10562	9.09031	-3.16348
1163.000	10.11279	-3.12857	9.04983	-3.21867
1164.000	10.11279	-3.11686	9.09802	-3.26524
1165.000	10.11279	-3.11295	9.16162	-3.25878
1166.000	10.12237	-3.13629	9.09802	-3.25545
1167.000	10.12045	-3.12850	9.13464	-3.24924
1168.000	10.08788	-3.09562	9.08646	-3.18897
1169.000	10.08979	-3.13466	9.04404	-3.29118
1170.000	10.13003	-3.17331	9.07682	-3.18514
1171.000	10.08979	-3.13270	9.08067	-3.27714
1172.000	10.10129	-3.12673	9.02669	-3.24238
1173.000	10.12428	-3.10503	9.09031	-3.20852
1174.000	10.12428	-3.14213	9.08453	-3.27907
1175.000	10.08979	-3.11708	9.03247	-3.27758
1176.000	10.07255	-3.09186	9.05368	-3.20493
1177.000	10.04763	-3.11944	9.03055	-3.25801
1178.000	10.08979	-3.11318	9.04983	-3.21084
1179.000	10.06680	-3.07629	8.99005	-3.27992
1180.000	10.07255	-3.13482	9.11344	-3.20048
1181.000	10.04955	-3.08426	9.05368	-3.26564
1182.000	10.06680	-3.06848	9.04983	-3.24805
1183.000	10.03229	-3.07466	8.95147	-3.13726
1184.000	10.06680	-3.05090	9.01512	-3.17001
1185.000	10.06680	-3.11144	9.05947	-3.29104
1186.000	10.05530	-3.06468	9.13079	-3.24144
1187.000	10.03805	-3.11172	9.07104	-3.24002
1188.000	10.04571	-3.11165	9.10766	-3.22599
1189.000	10.04188	-3.08238	9.19245	-3.18019
1190.000	10.03229	-3.08638	9.05368	-3.19709
1191.000	10.04571	-3.08235	9.01126	-3.21118
1192.000	10.04571	-3.05109	9.08839	-3.21049
1193.000	10.03038	-3.03952	9.11344	-3.21419
1194.000	10.06296	-3.07437	9.10188	-3.25737
1195.000	10.08213	-3.07224	9.06332	-3.30080
1196.000	10.06296	-3.07046	9.11730	-3.23765
1197.000	10.07255	-3.04108	9.05368	-3.20493
1198.000	10.06680	-3.04308	9.14621	-3.22760
1199.000	10.05146	-3.03737	9.13850	-3.21396
1200.000	10.05146	-3.04518	9.08453	-3.27319
1201.000	10.04380	-3.03549	9.14043	-3.24723
1202.000	10.06488	-3.05873	9.06525	-3.24791
1203.000	10.06871	-3.09189	9.07104	-3.29877
1204.000	10.08979	-3.12294	9.11344	-3.24552
1205.000	10.07830	-3.08204	9.09031	-3.27901
1206.000	10.07063	-3.07039	9.11923	-3.23567
1207.000	10.08979	-3.06044	9.10573	-3.35523
1208.000	10.13386	-3.04050	9.11923	-3.18476
1209.000	10.09746	-3.08381	9.11730	-3.31401
1210.000	10.09746	-3.08771	9.21171	-3.24462
1211.000	10.07638	-3.06643	9.13850	-3.32751
1212.000	10.11470	-3.08169	9.17704	-3.37804
1213.000	10.10321	-3.02126	9.14813	-3.32351
1214.000	10.12237	-3.05818	9.16740	-3.28614
1215.000	10.09554	-3.05453	9.13079	-3.24732
1216.000	10.16643	-3.05776	9.18089	-3.22728
1217.000	10.06105	-3.03923	9.16548	-3.24113
1218.000	10.09363	-3.07408	9.12886	-3.28453
1219.000	10.10129	-3.09744	9.13079	-3.31192
1220.000	10.06105	-3.08025	9.12693	-3.26301
1221.000	10.06105	-3.06462	9.07682	-3.28109
1222.000	10.08405	-3.03901	9.09610	-3.29462
1223.000	10.09554	-3.04672	8.99005	-3.27405
1224.000	10.07830	-3.03711	9.06525	-3.26945
1225.000	10.09171	-3.04090	9.11344	-3.30817
1226.000	10.10321	-2.99782	9.14428	-3.26481
1227.000	10.06488	-3.01771	9.10188	-3.32981
1228.000	10.08213	-3.01950	9.04597	-3.25983
1229.000	10.09746	-3.00959	9.03440	-3.32064
1230.000	10.09554	-2.99594	9.07682	-3.31242
1231.000	10.08596	-3.03314	9.01512	-3.30516
1232.000	10.07638	-3.01174	9.12886	-3.30019
1233.000	10.09171	-3.01355	9.13272	-3.29820
1234.000	10.09363	-3.00572	9.07489	-3.27132
1235.000	10.08788	-2.99796	9.13272	-3.34910
1236.000	10.06105	-3.01970	9.11344	-3.30229
1237.000	10.05530	-3.04319	9.12115	-3.31789
1238.000	10.08979	-3.04873	9.11537	-3.30423
1239.000	10.04955	-3.01590	9.05176	-3.24607
1240.000	10.07830	-3.05665	9.08839	-3.23399
1241.000	10.05913	-2.99432	9.08839	-3.26532
1242.000	10.07063	-3.02351	9.17126	-3.25478
1243.000	10.04763	-3.05889	9.02476	-3.30507
1244.000	10.08596	-3.02142	9.05368	-3.24410
1245.000	10.05338	-3.05102	9.08646	-3.27513
1246.000	10.07063	-3.01961	9.15199	-3.34696
1247.000	10.13386	-3.03659	9.07104	-3.34772
1248.000	10.04571	-3.03351	9.07296	-3.32225
1249.000	10.08788	-3.03702	9.09995	-3.30438
1250.000	10.09938	-3.05254	9.11537	-3.30032
1251.000	10.08979	-3.00771	9.11152	-3.31602
1252.000	10.10512	-3.05444	9.10959	-3.33953
1253.000	10.08979	-3.03701	9.03826	-3.31473
1254.000	10.09746	-2.99787	9.14043	-3.29617
1255.000	10.07446	-3.04106	9.06911	-3.25571
1256.000	10.08979	-3.05654	9.01898	-3.28750
1257.000	10.08213	-3.00778	9.05754	-3.32435
1258.000	10.07638	-3.03518	9.03440	-3.33827
1259.000	10.09746	-3.03303	9.17511	-3.33109
1260.000	10.08213	-3.01169	9.10959	-3.30625
1261.000	10.12428	-3.06402	9.09995	-3.28284
1262.000	10.09746	-3.05842	9.16740	-3.34290
1263.000	10.09938	-3.03692	9.12693	-3.31783
1264.000	10.09363	-3.08189	9.14813	-3.21779
1265.000	10.09746	-3.10724	9.05561	-3.29108
1266.000	10.09171	-3.09753	9.10573	-3.29649
1267.000	10.10321	-3.08180	9.12308	-3.33940
1268.000	10.12620	-3.06205	9.04597	-3.25788
1269.000	10.12428	-3.08550	9.07875	-3.21646
1270.000	10.11087	-3.03681	9.13079	-3.31388
1271.000	10.11279	-3.08757	9.11152	-3.34147
1272.000	10.14727	-3.10676	9.13657	-3.35494
1273.000	10.11279	-3.06999	9.04019	-3.35779
1274.000	10.12620	-3.04838	9.16162	-3.31947
1275.000	10.11470	-3.08560	9.12115	-3.26698
1276.000	10.12428	-3.11284	9.17318	-3.31153
1277.000	10.09938	-3.06035	9.10959	-3.37281
1278.000	10.10321	-3.06813	9.10381	-3.29651
1279.000	10.09171	-3.10730	9.12886	-3.36871
1280.000	10.14727	-3.06380	9.23868	-3.33440
1281.000	10.13578	-3.04829	9.15777	-3.31755
1282.000	10.10512	-3.08178	9.11344	-3.23377
1283.000	10.05146	-3.12917	9.10381	-3.32979
1284.000	10.08788	-3.09366	9.15006	-3.22169
1285.000	10.13770	-3.10685	9.12886	-3.24733
1286.000	10.09363	-3.09556	9.09995	-3.24564
1287.000	10.07255	-3.08795	9.07296	-3.21651
1288.000	10.05338	-3.06665	9.03633	-3.24621
1289.000	10.11087	-3.10711	9.13272	-3.33735
1290.000	10.11470	-3.10708	9.04983	-3.25001
1291.000	10.07830	-3.08594	9.07104	-3.29877
1292.000	10.09938	-3.06621	9.12501	-3.16121
1293.000	10.10129	-3.08377	9.02476	-3.18560
1294.000	10.06296	-3.10757	9.11537	-3.19850
1295.000	10.11087	-3.10711	9.12308	-3.28067
1296.000	10.12237	-3.07966	9.06332	-3.23814
1297.000	10.11279	-3.08561	9.07489	-3.22041
1298.000	10.08213	-3.09177	9.12693	-3.20623
1299.000	10.09938	-3.05059	9.06525	-3.25378
1300.000	10.12620	-3.12063	9.05368	-3.25193
1301.000	10.10321	-3.11109	9.16355	-3.25093
1302.000	10.13578	-3.09906	9.14235	-3.27070
1303.000	10.10129	-3.07791	9.08067	-3.32609
1304.000	10.10704	-3.06419	9.16933	-3.35854
1305.000	10.10129	-3.07596	9.16548	-3.26070
1306.000	10.10704	-3.13058	9.13850	-3.23941
1307.000	10.13386	-3.11861	9.17896	-3.29973
1308.000	10.11854	-3.06212	9.05561	-3.26562
1309.000	10.09363	-3.14829	9.13079	-3.25906
1310.000	10.12045	-3.07187	9.06911	-3.24200
1311.000	10.10321	-3.10328	9.14621	-3.27850
1312.000	10.13770	-3.07366	9.20594	-3.31318
1313.000	10.12812	-3.10499	9.13464	-3.22574
1314.000	10.11279	-3.06804	9.04597	-3.19325
1315.000	10.13961	-3.08926	9.15199	-3.25691
1316.000	10.13003	-3.08740	9.14043	-3.34120
1317.000	10.14153	-3.07362	9.08839	-3.28099
1318.000	10.11470	-3.08950	9.09995	-3.21235
1319.000	10.13195	-3.08543	9.11152	-3.31014
1320.000	10.10512	-3.07983	9.15391	-3.18054
1321.000	10.08788	-3.05656	9.15391	-3.36652
1322.000	10.11662	-3.09534	9.09995	-3.21627
1323.000	10.11279	-3.05241	9.11537	-3.21221
1324.000	10.12237	-3.11091	9.15584	-3.20989
1325.000	10.11279	-3.08366	9.12308	-3.24934
1326.000	10.12045	-3.05820	9.12308	-3.35115
1327.000	10.06296	-3.11539	9.18282	-3.22531
1328.000	10.15877	-3.07931	9.21942	-3.30718
1329.000	10.08405	-3.04097	9.10573	-3.26908
1330.000	10.12620	-3.05229	9.10381	-3.28280
1331.000	10.14153	-3.05214	9.16933	-3.26654
1332.000	10.12812	-3.09523	9.13464	-3.30014
1333.000	10.13961	-3.06778	9.16355	-3.25485
1334.000	10.10896	-3.07784	9.05561	-3.30870
1335.000	10.10129	-3.07401	9.12886	-3.30607
1336.000	10.08596	-3.10345	9.10188	-3.33373
1337.000	10.10512	-3.09545	9.18089	-3.25860
1338.000	10.10896	-3.07979	9.15006	-3.33719
1339.000	10.09363	-3.06431	9.11923	-3.25721
1340.000	10.12428	-3.07379	9.16740	-3.27830
1341.000	10.11087	-3.05634	9.08260	-3.28691
1342.000	10.10704	-3.05052	9.12501	-3.31198
1343.000	10.10896	-3.00167	9.13850	-3.22767
1344.000	10.08788	-3.11515	9.14428	-3.32354
1345.000	10.11087	-3.07391	9.10381	-3.31217
1346.000	10.10321	-3.01930	9.20208	-3.24275
1347.000	10.14536	-3.05210	9.17126	-3.28806
1348.000	10.07446	-3.08207	9.12115	-3.29439
1349.000	10.08979	-3.04677	9.23290	-3.32663
1350.000	10.10129	-3.06815	9.22135	-3.32087
1351.000	10.12428	-3.03863	9.07875	-3.27912
1352.000	10.13003	-3.04249	9.14621	-3.36267
1353.000	10.09746	-3.01350	9.21942	-3.41286
1354.000	10.08979	-3.00966	9.18089	-3.33886
1355.000	10.10129	-3.04276	9.09802	-3.32985
1356.000	10.13195	-2.98778	9.17126	-3.36048
1357.000	10.11279	-2.98601	9.12693	-3.31196
1358.000	10.10512	-2.99585	9.20016	-3.34455
1359.000	10.14344	-3.02674	9.15777	-3.31167
1360.000	10.08979	-3.03115	9.15970	-3.35863
1361.000	10.12428	-3.03863	9.19245	-3.36224
1362.000	10.11662	-2.98793	9.19245	-3.23892
1363.000	10.11470	-3.03677	9.21364	-3.31898
1364.000	10.13770	-3.02093	9.16740	-3.31941
1365.000	10.11854	-2.99181	9.21942	-3.31697
1366.000	10.13386	-3.03269	9.23675	-3.38334
1367.000	10.12237	-3.03279	9.26757	-3.32434
1368.000	10.15110	-3.05791	9.22135	-3.33848
1369.000	10.12045	-3.03281	9.20786	-3.31903
1370.000	10.17409	-3.05574	9.17704	-3.29388
1371.000	10.14727	-3.04232	9.11344	-3.32579
1372.000	10.13770	-3.03655	9.27142	-3.36540
1373.000	10.13961	-2.97795	9.20979	-3.30140
1374.000	10.09746	-3.00959	9.11537	-3.33360
1375.000	9.99395	-2.98906	9.19245	-3.35441
1376.000	9.88654	-2.97245	9.02669	-3.28155
1377.000	9.76177	-3.00094	8.91288	-3.32371
1378.000	9.50620	-2.98560	8.65221	-3.29468
1379.000	9.21557	-2.96655	8.38730	-3.36169
1380.000	8.88201	-2.99674	8.18984	-3.39673
1381.000	8.46469	-2.88427	7.84090	-3.40946
1382.000	8.02708	-2.95623	7.45445	-3.36143
1383.000	7.53995	-2.86721	6.97773	-3.42400
1384.000	7.03810	-2.83102	6.73412	-3.49071
1385.000	6.59955	-2.80010	6.24814	-3.37978
1386.000	6.12113	-2.73955	5.81410	-3.40220
1387.000	5.60465	-2.69072	5.41269	-3.45585
1388.000	5.13237	-2.65721	5.03233	-3.38488
1389.000	4.66527	-2.65709	4.61224	-3.24863
1390.000	4.24278	-2.52002	4.23492	-3.40055
1391.000	3.89265	-2.49338	3.81589	-3.23612
1392.000	3.47723	-2.46481	3.48708	-3.16802
1393.000	3.20336	-2.42386	3.18956	-3.15115
1394.000	2.84454	-2.33937	2.86032	-2.94803
1395.000	2.57035	-2.23275	2.51116	-2.94094
1396.000	2.33947	-2.12992	2.28815	-2.81452
1397.000	1.99597	-2.14430	1.90710	-2.71403
1398.000	1.62466	-2.02756	1.68787	-2.73817
1399.000	1.47254	-1.94627	1.35597	-2.70287
1400.000	1.16429	-1.81935	1.02398	-2.64365
1401.000	0.95283	-1.86716	0.71366	-2.59027
1402.000	0.74726	-1.90104	0.45272	-2.57649
1403.000	0.49819	-1.88722	0.13839	-2.52693
1404.000	0.32225	-1.83758	-0.09490	-2.43559
1405.000	0.14037	-1.84158	-0.31434	-2.43754
1406.000	-0.03559	-1.84556	-0.53180	-2.50499
1407.000	-0.16409	-1.80779	-0.55157	-2.49703
1408.000	-0.22142	-1.73226	-0.74726	-2.40759
1409.000	-0.30050	-1.71436	-0.87970	-2.29233
1410.000	-0.30841	-1.63684	-0.95678	-2.26050
1411.000	-0.39737	-1.65471	-0.97259	-2.26248
1412.000	-0.43493	-1.61495	-1.03979	-2.25449
1413.000	-0.45865	-1.64277	-1.07734	-2.21474
1414.000	-0.45865	-1.61097	-1.14058	-2.29016
1415.000	-0.51994	-1.60698	-1.02398	-2.30216
1416.000	-0.47249	-1.63084	-1.12279	-2.36563
1417.000	-0.44482	-1.58910	-0.96469	-2.33199
1418.000	-0.45668	-1.65072	-1.07734	-2.31801
1419.000	-0.49226	-1.70836	-0.88167	-2.32609
1420.000	-0.44482	-1.70241	-0.82040	-2.37776
1421.000	-0.39342	-1.71832	-0.84214	-2.44724
1422.000	-0.37958	-1.75211	-0.89353	-2.48692
1423.000	-0.37563	-1.74813	-0.74726	-2.40560
1424.000	-0.37760	-1.76205	-0.78284	-2.48699
1425.000	-0.41912	-1.78788	-0.80261	-2.51279
1426.000	-0.40133	-1.76999	-0.79273	-2.48698
1427.000	-0.44482	-1.78986	-0.86191	-2.49488
1428.000	-0.39737	-1.70838	-0.81052	-2.55051
1429.000	-0.50412	-1.75009	-0.82040	-2.42939
1430.000	-0.54959	-1.71629	-0.96073	-2.51268
1431.000	-0.55354	-1.66064	-1.00421	-2.43522
1432.000	-0.65041	-1.71825	-1.16429	-2.46487
1433.000	-0.64843	-1.65663	-1.13663	-2.43313
1434.000	-0.64843	-1.70235	-1.21370	-2.43306
1435.000	-0.73936	-1.66455	-1.21963	-2.44298
1436.000	-0.65436	-1.61887	-1.30262	-2.49849
1437.000	-0.64250	-1.63278	-1.28681	-2.44888
1438.000	-0.74924	-1.64070	-1.24136	-2.49656
1439.000	-0.78680	-1.61683	-1.30460	-2.49452
1440.000	-0.69785	-1.66059	-1.23148	-2.41915
1441.000	-0.73145	-1.69834	-1.24927	-2.38736
1442.000	-0.67215	-1.66855	-1.22358	-2.39930
1443.000	-0.73540	-1.59697	-1.23939	-2.47076
1444.000	-0.69785	-1.60494	-1.21370	-2.48666
1445.000	-0.70773	-1.68046	-1.23939	-2.44892
1446.000	-0.64843	-1.62881	-1.09710	-2.38948
1447.000	-0.64448	-1.61290	-1.19394	-2.40131
1448.000	-0.66820	-1.66458	-1.27100	-2.44691
1449.000	-0.64052	-1.63477	-1.20184	-2.42314
1450.000	-0.57924	-1.62684	-1.14256	-2.37951
1451.000	-0.61878	-1.63080	-1.16232	-2.36758
1452.000	-0.53971	-1.60300	-1.27891	-2.46874
1453.000	-0.57727	-1.62286	-1.17418	-2.44104
1454.000	-0.60889	-1.66658	-1.20975	-2.44498
1455.000	-0.58715	-1.61292	-1.15244	-2.38745
1456.000	-0.55947	-1.67057	-1.09710	-2.49868
1457.000	-0.55947	-1.60100	-1.09315	-2.40735
1458.000	-0.55354	-1.66262	-1.20579	-2.35365
1459.000	-0.53575	-1.65269	-1.05165	-2.38554
1460.000	-0.62471	-1.67254	-1.04967	-2.39746
1461.000	-0.57924	-1.66063	-1.11489	-2.46888
1462.000	-0.47249	-1.64078	-1.13663	-2.45298
1463.000	-0.52389	-1.66263	-1.22160	-2.42114
1464.000	-0.56738	-1.67455	-1.07141	-2.41333
1465.000	-0.59308	-1.67255	-1.17418	-2.39339
1466.000	-0.54761	-1.69642	-1.13070	-2.37952
1467.000	-0.60099	-1.65864	-1.15046	-2.41326
1468.000	-0.55552	-1.71430	-1.13663	-2.40930
1469.000	-0.55354	-1.64275	-1.13268	-2.43512
1470.000	-0.56145	-1.66262	-1.17418	-2.37949
1471.000	-0.57727	-1.71231	-1.11884	-2.40137
1472.000	-0.57924	-1.68846	-1.16825	-2.35368
1473.000	-0.56343	-1.64473	-1.14058	-2.37157
1474.000	-0.57331	-1.64473	-1.10106	-2.40337
1475.000	-0.53773	-1.63679	-1.16627	-2.37949
1476.000	-0.63064	-1.68844	-1.14453	-2.34377
1477.000	-0.53773	-1.63083	-1.21567	-2.33577
1478.000	-0.53773	-1.65269	-1.08327	-2.39545
1479.000	-0.56936	-1.68250	-1.09315	-2.30608
1480.000	-0.59110	-1.65864	-1.11489	-2.39145
1481.000	-0.58517	-1.64075	-1.12477	-2.39144
1482.000	-0.59110	-1.67653	-1.16627	-2.36957
1483.000	-0.59703	-1.64671	-1.19789	-2.35961
1484.000	-0.59308	-1.63280	-1.18603	-2.41720
1485.000	-0.59308	-1.65069	-1.24334	-2.37943
1486.000	-0.60494	-1.69441	-1.09513	-2.38154
1487.000	-0.58122	-1.65467	-1.13663	-2.31598
1488.000	-0.61482	-1.68447	-1.19196	-2.37153
1489.000	-0.55947	-1.66461	-1.11291	-2.40138
1490.000	-0.57331	-1.68846	-1.12279	-2.40534
1491.000	-0.56936	-1.68051	-1.12477	-2.39938
1492.000	-0.57529	-1.62088	-1.13070	-2.43512
1493.000	-0.58122	-1.64870	-1.17615	-2.41324
1494.000	-0.60494	-1.64273	-1.17022	-2.36758
1495.000	-0.59901	-1.68249	-1.16825	-2.28418
1496.000	-0.56343	-1.68250	-1.13268	-2.39739
1497.000	-0.58320	-1.68846	-1.09315	-2.42522
1498.000	-0.57924	-1.71032	-1.15837	-2.28617
1499.000	-0.56343	-1.69045	-1.13860	-2.37952
1500.000	-0.53773	-1.68648	-1.13268	-2.41526
1501.000	-0.58320	-1.69839	-1.12477	-2.31797
1502.000	-0.53773	-1.71629	-1.17220	-2.38147
1503.000	-0.57727	-1.69840	-1.12477	-2.41527
1504.000	-0.59703	-1.63876	-1.14651	-2.38150
1505.000	-0.53971	-1.63281	-1.09710	-2.36366
1506.000	-0.52982	-1.66859	-1.08129	-2.38552
1507.000	-0.50412	-1.63680	-1.14848	-2.43113
1508.000	-0.56738	-1.68250	-1.06943	-2.41730
1509.000	-0.51598	-1.66462	-1.18603	-2.44301
1510.000	-0.54366	-1.71033	-1.18603	-2.40727
1511.000	-0.57727	-1.68448	-1.13663	-2.45497
1512.000	-0.56540	-1.67653	-1.10698	-2.38947
1513.000	-0.51796	-1.63679	-1.18010	-2.39140
1514.000	-0.60296	-1.70037	-1.18208	-2.38544
1515.000	-0.56145	-1.65070	-1.21172	-2.40527
1516.000	-0.54366	-1.69443	-1.16232	-2.39538
1517.000	-0.56343	-1.65268	-1.14651	-2.37752
1518.000	-0.58715	-1.67255	-1.12279	-2.44505
1519.000	-0.61087	-1.69242	-1.21172	-2.42711
1520.000	-0.58320	-1.71827	-1.19789	-2.42910
1521.000	-0.53971	-1.65468	-1.14651	-2.42716
1522.000	-0.57924	-1.63280	-1.18603	-2.38940
1523.000	-0.56145	-1.73020	-1.07339	-2.39148
1524.000	-0.53773	-1.69642	-1.11884	-2.37358
1525.000	-0.59506	-1.68249	-1.19394	-2.36756
1526.000	-0.54366	-1.70238	-1.20777	-2.41321
1527.000	-0.58913	-1.70237	-1.26903	-2.46478
1528.000	-0.55354	-1.63877	-1.17813	-2.41919
1529.000	-0.56936	-1.63877	-1.17022	-2.46685
1530.000	-0.54366	-1.67058	-1.13465	-2.28818
1531.000	-0.52784	-1.64474	-1.17220	-2.42118
1532.000	-0.54168	-1.65666	-1.18406	-2.42713
1533.000	-0.60692	-1.67255	-1.21567	-2.46880
1534.000	-0.56540	-1.66660	-1.15441	-2.43311
1535.000	-0.55354	-1.67853	-1.27891	-2.40918
1536.000	-0.52784	-1.65269	-1.18406	-2.40926
1537.000	-0.56936	-1.63479	-1.18603	-2.39735
1538.000	-0.54761	-1.59902	-1.13465	-2.40732
1539.000	-0.56145	-1.67455	-1.21567	-2.39534
1540.000	-0.53773	-1.68648	-1.11094	-2.46690
1541.000	-0.55354	-1.65467	-1.21765	-2.38739
1542.000	-0.55552	-1.64473	-1.19987	-2.45094
1543.000	-0.57133	-1.63479	-1.18801	-2.44301
1544.000	-0.51796	-1.66860	-1.15441	-2.42319
1545.000	-0.51401	-1.65667	-1.19789	-2.52638
1546.000	-0.53378	-1.60697	-1.14453	-2.43511
1547.000	-0.62866	-1.66459	-1.04572	-2.40143
1548.000	-0.53575	-1.62486	-1.24927	-2.42906
1549.000	-0.53971	-1.67455	-1.15837	-2.40730
1550.000	-0.54761	-1.66064	-1.16429	-2.40729
1551.000	-0.54959	-1.62685	-1.17220	-2.41721
1552.000	-0.58320	-1.64870	-1.12082	-2.46292
1553.000	-0.57133	-1.66858	-1.15639	-2.47480
1554.000	-0.53180	-1.63878	-1.14453	-2.38745
1555.000	-0.59110	-1.65466	-1.12082	-2.47285
1556.000	-0.55157	-1.65666	-1.21172	-2.51843
1557.000	-0.54761	-1.63679	-1.21172	-2.43703
1558.000	-0.52982	-1.64872	-1.20777	-2.48866
1559.000	-0.57529	-1.67454	-1.15837	-2.47679
1560.000	-0.55750	-1.63678	-1.15046	-2.45694
1561.000	-0.57529	-1.68051	-1.16825	-2.37354
1562.000	-0.59110	-1.67255	-1.14453	-2.45099
1563.000	-0.53180	-1.68052	-1.12477	-2.52843
1564.000	-0.57331	-1.68846	-1.19987	-2.43903
1565.000	-0.57133	-1.68250	-1.09908	-2.44110
1566.000	-0.56145	-1.67256	-1.18603	-2.40926
1567.000	-0.57924	-1.67454	-1.15244	-2.47878
1568.000	-0.53773	-1.66064	-1.11489	-2.46690
1569.000	-0.58517	-1.63876	-1.15837	-2.48274
1570.000	-0.54366	-1.65865	-1.16825	-2.46685
1571.000	-0.56145	-1.66461	-1.20184	-2.40925
1572.000	-0.51796	-1.69841	-1.16034	-2.42914
1573.000	-0.51598	-1.64872	-1.11884	-2.42917
1574.000	-0.57727	-1.67454	-1.19591	-2.45690
1575.000	-0.52191	-1.62487	-1.18998	-2.49264
1576.000	-0.57331	-1.65268	-1.16627	-2.43112
1577.000	-0.56936	-1.66262	-1.14651	-2.50856
1578.000	-0.55750	-1.65070	-1.22358	-2.52834
1579.000	-0.58517	-1.64274	-1.17813	-2.49464
1580.000	-0.56540	-1.60299	-1.14256	-2.42121
1581.000	-0.58122	-1.66262	-1.17615	-2.50854
1582.000	-0.51401	-1.61294	-1.12477	-2.45299
1583.000	-0.53378	-1.64275	-1.17220	-2.50655
1584.000	-0.55552	-1.67853	-1.16034	-2.46487
1585.000	-0.53971	-1.62884	-1.20184	-2.44101
1586.000	-0.58517	-1.64870	-1.24927	-2.43898
1587.000	-0.53378	-1.64673	-1.14848	-2.52047
1588.000	-0.56936	-1.62883	-1.23148	-2.56208
1589.000	-0.59703	-1.64472	-1.09117	-2.56221
1590.000	-0.56738	-1.68448	-1.19196	-2.48271
1591.000	-0.57727	-1.66063	-1.16429	-2.49862
1592.000	-0.56540	-1.68846	-1.21370	-2.50255
1593.000	-0.51203	-1.66661	-1.15639	-2.49069
1594.000	-0.57529	-1.66262	-1.14058	-2.50460
1595.000	-0.54168	-1.63679	-1.17022	-2.48670
1596.000	-0.53773	-1.70238	-1.08920	-2.49868
1597.000	-0.53971	-1.62486	-1.15639	-2.43708
1598.000	-0.52191	-1.58511	-1.17418	-2.45692
1599.000	-0.52191	-1.59903	-1.15441	-2.47481
1600.000	-0.52191	-1.59107	-1.12477	-2.51057
1601.000	-0.56540	-1.60498	-1.11291	-2.47683
1602.000	-0.56145	-1.64473	-1.21567	-2.48071
1603.000	-0.55750	-1.65666	-1.12082	-2.41726
1604.000	-0.57529	-1.61690	-1.18406	-2.52243
1605.000	-0.58122	-1.65467	-1.17813	-2.47081
1606.000	-0.54168	-1.65468	-1.18406	-2.45493
1607.000	-0.54761	-1.61293	-1.08920	-2.49471
1608.000	-0.56540	-1.61094	-1.12082	-2.45101
1609.000	-0.52191	-1.69046	-1.06548	-2.53444
1610.000	-0.49622	-1.61096	-1.16825	-2.42317
1611.000	-0.52784	-1.61691	-1.18998	-2.46882
1612.000	-0.49622	-1.61493	-1.11884	-2.38549
1613.000	-0.54168	-1.68449	-1.14848	-2.43510
1614.000	-0.54366	-1.65070	-1.08129	-2.42722
1615.000	-0.55750	-1.60896	-1.16034	-2.42517
1616.000	-0.53971	-1.62884	-1.14651	-2.49268
1617.000	-0.54959	-1.64474	-1.17813	-2.36161
1618.000	-0.53575	-1.66660	-1.11489	-2.47881
1619.000	-0.54959	-1.69642	-1.13070	-2.39144
1620.000	-0.50808	-1.64475	-1.12082	-2.37159
1621.000	-0.51203	-1.61692	-1.21370	-2.41718
1622.000	-0.50412	-1.62090	-1.18406	-2.28615
1623.000	-0.60099	-1.65864	-1.09513	-2.33984
1624.000	-0.56145	-1.60498	-1.20975	-2.31194
1625.000	-0.53773	-1.57716	-1.09513	-2.36565
1626.000	-0.49819	-1.58710	-1.16232	-2.30205
1627.000	-0.52587	-1.66064	-1.16232	-2.30801
1628.000	-0.48633	-1.64078	-1.12477	-2.35570
1629.000	-0.49226	-1.60698	-1.08920	-2.30807
1630.000	-0.53575	-1.65468	-1.18801	-2.35565
1631.000	-0.53971	-1.63878	-1.10501	-2.32394
1632.000	-0.47447	-1.56524	-1.24136	-2.34567
1633.000	-0.54168	-1.60101	-1.10896	-2.40932
1634.000	-0.54168	-1.59703	-1.18406	-2.29409
1635.000	-0.50808	-1.60698	-1.15639	-2.38347
1636.000	-0.54959	-1.57715	-1.18208	-2.38941
1637.000	-0.51994	-1.61890	-1.16034	-2.31000
1638.000	-0.53773	-1.56920	-1.19789	-2.25238
1639.000	-0.51796	-1.61890	-1.17418	-2.27027
1640.000	-0.48238	-1.59705	-1.17022	-2.29609
1641.000	-0.52587	-1.63083	-1.18208	-2.28218
1642.000	-0.56343	-1.61889	-1.16627	-2.32588
1643.000	-0.50610	-1.61096	-1.13860	-2.26831
1644.000	-0.46854	-1.62488	-1.16232	-2.29411
1645.000	-0.51203	-1.60897	-1.15639	-2.35766
1646.000	-0.52389	-1.63679	-1.11489	-2.31401
1647.000	-0.53180	-1.60101	-1.19196	-2.22259
1648.000	-0.56540	-1.61889	-1.21765	-2.35562
1649.000	-0.54564	-1.67455	-1.22555	-2.29009
1650.000	-0.55552	-1.67654	-1.14058	-2.32789
1651.000	-0.53180	-1.67257	-1.15244	-2.31993
1652.000	-0.53773	-1.66064	-1.23741	-2.24242
1653.000	-0.56145	-1.63678	-1.18406	-2.34572
1654.000	-0.51598	-1.65667	-1.20579	-2.38343
1655.000	-0.54168	-1.64871	-1.13268	-2.36364
1656.000	-0.53378	-1.64673	-1.15441	-2.30007
1657.000	-0.57331	-1.69442	-1.17220	-2.38942
1658.000	-0.57133	-1.68051	-1.14058	-2.34377
1659.000	-0.52982	-1.65667	-1.10896	-2.42322
1660.000	-0.56738	-1.69840	-1.12675	-2.32591
1661.000	-0.56540	-1.67256	-1.20382	-2.28018
1662.000	-0.57924	-1.68051	-1.18406	-2.29608
1663.000	-0.57924	-1.62684	-1.13663	-2.30009
1664.000	-0.57331	-1.69243	-1.09710	-2.29218
1665.000	-0.56936	-1.66858	-1.18603	-2.37352
1666.000	-0.49819	-1.66065	-1.17813	-2.37750
1667.000	-0.59110	-1.65268	-1.16825	-2.32389
1668.000	-0.49424	-1.63879	-1.15244	-2.32589
1669.000	-0.49622	-1.58512	-1.12082	-2.39144
1670.000	-0.58517	-1.69243	-1.14256	-2.31200
1671.000	-0.52982	-1.67058	-1.14058	-2.31597
1672.000	-0.52191	-1.62685	-1.11884	-2.37556
1673.000	-0.50610	-1.60102	-1.27496	-2.30792
1674.000	-0.56343	-1.66660	-1.18801	-2.36558
1675.000	-0.51598	-1.67059	-1.11291	-2.38748
1676.000	-0.53773	-1.63281	-1.11687	-2.30805
1677.000	-0.51994	-1.63282	-1.17813	-2.33977
1678.000	-0.55947	-1.64076	-1.14058	-2.37952
1679.000	-0.56343	-1.61293	-1.13268	-2.34378
1680.000	-0.53971	-1.66859	-1.22951	-2.25831
1681.000	-0.50215	-1.63680	-1.17813	-2.33778
1682.000	-0.53378	-1.63480	-1.18010	-2.34771
1683.000	-0.53971	-1.64673	-1.15441	-2.31993
1684.000	-0.48435	-1.61494	-1.18998	-2.30799
1685.000	-0.50017	-1.64674	-1.18998	-2.28813
1686.000	-0.50610	-1.66065	-1.12675	-2.31003
1687.000	-0.51796	-1.62686	-1.15837	-2.33184
1688.000	-0.51005	-1.64673	-1.09710	-2.28225
1689.000	-0.50412	-1.63879	-1.11094	-2.31798
1690.000	-0.54959	-1.66461	-1.11291	-2.37160
1691.000	-0.51796	-1.58710	-1.14651	-2.33781
1692.000	-0.49424	-1.60897	-1.14058	-2.33384
1693.000	-0.53575	-1.63083	-1.17615	-2.34970
1694.000	-0.53773	-1.59107	-1.14256	-2.33583
1695.000	-0.52784	-1.64275	-1.19196	-2.39933
1696.000	-0.52389	-1.57716	-1.17615	-2.29609
1697.000	-0.47249	-1.62090	-1.17418	-2.34573
1698.000	-0.51598	-1.59505	-1.12675	-2.35371
1699.000	-0.51203	-1.62487	-1.07536	-2.30808
1700.000	-0.55750	-1.59703	-1.11291	-2.36365
1701.000	-0.55947	-1.63082	-1.18406	-2.40728
1702.000	-0.51796	-1.60499	-1.20777	-2.33776
1703.000	-0.52587	-1.62288	-1.10303	-2.42124
1704.000	-0.51598	-1.56126	-1.05165	-2.32398
1705.000	-0.46459	-1.56127	-1.14651	-2.39341
1706.000	-0.47249	-1.59307	-1.15837	-2.31397
1707.000	-0.53575	-1.62288	-1.18208	-2.41522
1708.000	-0.48831	-1.63879	-1.17022	-2.32985
1709.000	-0.48238	-1.63482	-1.12675	-2.37754
1710.000	-0.51203	-1.60102	-1.10698	-2.36167
1711.000	-0.50412	-1.64276	-1.07141	-2.47488
1712.000	-0.55157	-1.62883	-1.16429	-2.36560
1713.000	-0.48040	-1.63084	-1.17022	-2.42516
1714.000	-0.54168	-1.64673	-1.22951	-2.37547
1715.000	-0.48633	-1.61891	-1.18998	-2.42117
1716.000	-0.51598	-1.63282	-1.20382	-2.44498
1717.000	-0.51005	-1.62885	-1.11687	-2.39939
1718.000	-0.54366	-1.59504	-1.09315	-2.38750
1719.000	-0.53773	-1.61492	-1.15837	-2.34574
1720.000	-0.51598	-1.60101	-1.14256	-2.37753
1721.000	-0.50017	-1.64475	-1.08920	-2.32594
1722.000	-0.50808	-1.59704	-1.11291	-2.44705
1723.000	-0.52982	-1.64474	-1.09315	-2.41728
1724.000	-0.51994	-1.63679	-1.11094	-2.38550
1725.000	-0.50610	-1.62487	-1.14453	-2.43709
1726.000	-0.48831	-1.60897	-1.19196	-2.40528
1727.000	-0.52982	-1.65667	-1.16627	-2.42516
1728.000	-0.52784	-1.67456	-1.18406	-2.41720
1729.000	-0.52389	-1.62089	-1.12872	-2.45696
1730.000	-0.52389	-1.60698	-1.03979	-2.39747
1731.000	-0.49028	-1.64276	-1.18603	-2.40727
1732.000	-0.48831	-1.63283	-1.21370	-2.42710
1733.000	-0.53180	-1.61890	-1.16429	-2.40332
1734.000	-0.51796	-1.62288	-1.11291	-2.42719
1735.000	-0.49028	-1.64276	-1.14453	-2.38944
1736.000	-0.51994	-1.62288	-1.12675	-2.42122
1737.000	-0.48238	-1.66066	-1.11291	-2.39939
1738.000	-0.53773	-1.60101	-1.04769	-2.39547
1739.000	-0.50610	-1.61294	-1.03781	-2.47689
1740.000	-0.53773	-1.68449	-1.09908	-2.46294
1741.000	-0.45865	-1.59109	-1.22160	-2.48467
1742.000	-0.51994	-1.67257	-1.15244	-2.45297
1743.000	-0.51203	-1.59108	-1.09710	-2.47485
1744.000	-0.54564	-1.65666	-1.07339	-2.43318
1745.000	-0.53773	-1.66660	-1.11489	-2.44704
1746.000	-0.47052	-1.62090	-1.18208	-2.39934
1747.000	-0.51401	-1.62487	-1.11291	-2.44903
1748.000	-0.52191	-1.63481	-1.08722	-2.46891
1749.000	-0.52982	-1.63083	-1.16627	-2.39538
1750.000	-0.54366	-1.65666	-1.14058	-2.44702
1751.000	-0.52784	-1.61493	-1.12872	-2.40137
1752.000	-0.49226	-1.59903	-1.15837	-2.41524
1753.000	-0.54959	-1.61890	-1.09908	-2.36565
1754.000	-0.50215	-1.56921	-1.13268	-2.41328
1755.000	-0.48633	-1.61295	-1.09513	-2.44507
1756.000	-0.48633	-1.56723	-1.17615	-2.41721
1757.000	-0.50017	-1.59704	-1.17418	-2.44302
1758.000	-0.50610	-1.63481	-1.12279	-2.37357
1759.000	-0.51796	-1.60101	-1.13860	-2.36363
1760.000	-0.45668	-1.58115	-1.16825	-2.44303
1761.000	-0.44086	-1.61296	-1.13663	-2.39540
1762.000	-0.52982	-1.57517	-1.08920	-2.37757
1763.000	-0.47842	-1.60500	-1.06943	-2.36369
1764.000	-0.49028	-1.64475	-1.06351	-2.35376
1765.000	-0.45668	-1.55928	-1.17813	-2.41324
1766.000	-0.50808	-1.62885	-1.14256	-2.32590
1767.000	-0.52191	-1.65866	-1.12872	-2.37952
1768.000	-0.46261	-1.64277	-1.18406	-2.41125
1769.000	-0.51203	-1.63680	-1.05362	-2.33788
1770.000	-0.50412	-1.58313	-1.15244	-2.37355
1771.000	-0.49226	-1.60102	-1.12082	-2.40336
1772.000	-0.50017	-1.61295	-1.08327	-2.42523
1773.000	-0.47249	-1.59705	-1.14651	-2.29412
1774.000	-0.50610	-1.57915	-1.11884	-2.34180
1775.000	-0.52191	-1.61294	-1.17418	-2.34375
1776.000	-0.51598	-1.60300	-1.07536	-2.32595
1777.000	-0.46656	-1.56525	-1.09710	-2.40735
1778.000	-0.50017	-1.58710	-1.15441	-2.36362
1779.000	-0.54168	-1.63281	-1.07339	-2.36170
1780.000	-0.54168	-1.60697	-1.19196	-2.44499
1781.000	-0.49028	-1.61494	-1.11687	-2.35174
1782.000	-0.45470	-1.60898	-1.07141	-2.34383
1783.000	-0.39342	-1.63881	-0.94887	-2.38165
1784.000	-0.33213	-1.65274	-0.86784	-2.34397
1785.000	-0.14630	-1.60107	-0.69785	-2.37187
1786.000	0.08303	-1.55536	-0.63459	-2.31828
1787.000	0.29457	-1.57323	-0.35586	-2.31241
1788.000	0.57924	-1.48172	-0.14630	-2.25286
1789.000	0.78284	-1.56515	0.19375	-2.28662
1790.000	1.10106	-1.43183	0.44877	-2.12567
1791.000	1.42315	-1.33227	0.82435	-2.07982
1792.000	1.78466	-1.34595	1.21567	-2.00806
1793.000	2.09864	-1.37948	1.52589	-1.93430
1794.000	2.40855	-1.21628	1.92488	-1.82664
1795.000	2.79327	-1.16625	2.20525	-1.86008
1796.000	3.12452	-1.16193	2.52300	-1.88149
1797.000	3.35706	-1.08821	2.82877	-1.76987
1798.000	3.62690	-1.07202	3.11072	-1.74163
1799.000	3.88084	-1.02607	3.34918	-1.74122
1800.000	4.16413	-1.00389	3.67219	-1.67913
1801.000	4.40791	-0.99366	3.82967	-1.74229
1802.000	4.64956	-0.98540	4.12676	-1.65443
1803.000	4.91853	-0.94340	4.38039	-1.62812
1804.000	5.15982	-0.96286	4.64171	-1.69093
1805.000	5.26962	-1.04587	4.78702	-1.70048
1806.000	5.47538	-1.04353	4.99505	-1.72372
1807.000	5.71624	-1.04904	5.19316	-1.71725
1808.000	5.90018	-1.01507	5.23041	-1.63401
1809.000	6.03316	-1.04647	5.41269	-1.66519
1810.000	6.20125	-1.07184	5.46951	-1.67888
1811.000	6.24424	-1.06187	5.48714	-1.64915
1812.000	6.25596	-1.05196	5.57136	-1.61528
1813.000	6.22665	-1.12517	5.54003	-1.73012
1814.000	6.11527	-1.11947	5.49497	-1.63528
1815.000	6.02339	-1.05044	5.37350	-1.65936
1816.000	5.79649	-1.07857	5.24609	-1.71512
1817.000	5.67318	-1.03329	5.14217	-1.76490
1818.000	5.52436	-0.98208	5.09902	-1.74126
1819.000	5.37154	-0.99817	4.89498	-1.79131
1820.000	5.26374	-1.01419	4.84591	-1.78352
1821.000	5.17355	-1.01632	4.83413	-1.69838
1822.000	5.15394	-0.99060	4.72222	-1.68480
1823.000	5.09510	-1.00852	4.73400	-1.69665
1824.000	5.08726	-0.99863	4.76542	-1.70648
1825.000	5.14609	-1.04409	4.80665	-1.72816
1826.000	5.18728	-1.03610	4.86357	-1.77159
1827.000	5.25982	-1.04192	4.94600	-1.66444
1828.000	5.32842	-1.02399	5.08333	-1.69378
1829.000	5.47343	-1.01582	5.11472	-1.70954
1830.000	5.57528	-1.05128	5.14021	-1.58276
1831.000	5.63794	-1.08877	5.20492	-1.55489
1832.000	5.73582	-1.05098	5.29118	-1.60020
1833.000	5.80431	-1.00733	5.29706	-1.51705
1834.000	5.84540	-1.08243	5.41465	-1.53259
1835.000	5.90018	-1.03287	5.32450	-1.52292
1836.000	5.94712	-1.06246	5.40289	-1.56428
1837.000	5.97841	-1.03668	5.38330	-1.55048
1838.000	6.01948	-1.07814	5.43032	-1.54442
1839.000	5.99015	-1.03666	5.41661	-1.51081
1840.000	6.00579	-1.06630	5.39897	-1.48315
1841.000	5.95886	-1.02881	5.30686	-1.51504
1842.000	5.95494	-1.03870	5.32058	-1.51303
1843.000	5.97450	-1.02482	5.40681	-1.47917
1844.000	5.97255	-1.00900	5.36762	-1.56833
1845.000	5.92756	-1.04667	5.34606	-1.44171
1846.000	5.91387	-1.05263	5.40093	-1.51283
1847.000	5.90800	-0.98934	5.34018	-1.53871
1848.000	5.89431	-0.98936	5.32058	-1.53084
1849.000	5.90800	-0.95571	5.25394	-1.54091
1850.000	5.90213	-0.97550	5.30882	-1.54473
1851.000	5.88844	-0.97750	5.26766	-1.57453
1852.000	5.86692	-1.02502	5.22649	-1.60432
1853.000	5.82192	-0.97564	5.18531	-1.50544
1854.000	5.84932	-0.99340	5.21473	-1.61227
1855.000	5.80431	-1.05481	5.24021	-1.57064
1856.000	5.85127	-1.01911	5.15002	-1.57482
1857.000	5.82388	-1.03301	5.10883	-1.56304
1858.000	5.80627	-1.05085	5.16374	-1.61438
1859.000	5.83562	-1.03695	5.18728	-1.61630
1860.000	5.78279	-1.02913	5.18924	-1.66579
1861.000	5.79257	-0.98756	5.23237	-1.61421
1862.000	5.76713	-1.01927	5.16178	-1.55301
1863.000	5.76322	-1.06478	5.19904	-1.58460
1864.000	5.80627	-1.00535	5.21277	-1.61822
1865.000	5.77300	-1.03904	5.20688	-1.64991
1866.000	5.76909	-0.98760	5.18335	-1.57870
1867.000	5.73582	-1.01537	5.09314	-1.56902
1868.000	5.75930	-1.03511	5.22845	-1.60828
1869.000	5.71429	-1.02134	5.18139	-1.67175
1870.000	5.74169	-0.98765	5.26178	-1.63393
1871.000	5.72603	-0.97185	5.19512	-1.58263
1872.000	5.74365	-1.03514	5.09706	-1.57495
1873.000	5.77496	-0.95395	5.17747	-1.57871
1874.000	5.73386	-0.97777	5.26962	-1.62203
1875.000	5.75930	-1.06281	5.22649	-1.60235
1876.000	5.76322	-1.01729	5.19512	-1.57273
1877.000	5.78474	-1.01330	5.26766	-1.61808
1878.000	5.72603	-0.95997	5.12256	-1.63033
1879.000	5.78083	-0.98363	5.29706	-1.64571
1880.000	5.79061	-1.03307	5.16571	-1.54904
1881.000	5.73973	-0.98765	5.22061	-1.63799
1882.000	5.78083	-1.02716	5.23237	-1.56472
1883.000	5.77692	-0.95593	5.10687	-1.57493
1884.000	5.74952	-0.96983	5.26570	-1.68142
1885.000	5.76126	-1.02521	5.28726	-1.61407
1886.000	5.78866	-0.96778	5.23825	-1.57856
1887.000	5.70841	-1.03718	5.21473	-1.60238
1888.000	5.76322	-0.98761	5.23041	-1.62213
1889.000	5.72212	-0.96592	5.17551	-1.67968
1890.000	5.78670	-0.97768	5.17747	-1.56287
1891.000	5.74169	-1.02129	5.22845	-1.61422
1892.000	5.75147	-0.94806	5.16963	-1.60051
1893.000	5.79061	-0.94601	5.20100	-1.57469
1894.000	5.82388	-0.99344	5.19512	-1.61430
1895.000	5.79649	-1.01328	5.22453	-1.62017
1896.000	5.79649	-0.99151	5.25786	-1.59633
1897.000	5.80627	-1.02711	5.24217	-1.62804
1898.000	5.81214	-1.01523	5.23825	-1.64982
1899.000	5.81410	-1.02710	5.27158	-1.72495
1900.000	5.80823	-1.06470	5.25394	-1.65968
1901.000	5.81997	-1.01719	5.23433	-1.64192
1902.000	5.76713	-0.98563	5.24609	-1.64980
1903.000	5.81018	-0.98160	5.25786	-1.68738
1904.000	5.80431	-0.96973	5.16178	-1.65794
1905.000	5.81605	-0.99741	5.20100	-1.70535
1906.000	5.79061	-0.96778	5.16963	-1.59853
1907.000	5.79061	-0.95986	5.22061	-1.65185
1908.000	5.74952	-1.02326	5.19904	-1.57866
1909.000	5.79453	-0.96579	5.19316	-1.63806
1910.000	5.79453	-1.02120	5.19904	-1.61429
1911.000	5.80236	-1.01129	5.16571	-1.63418
1912.000	5.84345	-0.96373	5.21277	-1.65583
1913.000	5.81214	-0.99544	5.26766	-1.62401
1914.000	5.78474	-1.00736	5.21080	-1.60239
1915.000	5.79649	-1.01130	5.15590	-1.53323
1916.000	5.76909	-0.97969	5.20100	-1.72316
1917.000	5.76713	-1.02718	5.24609	-1.60823
1918.000	5.80823	-0.97171	5.19316	-1.62421
1919.000	5.80823	-1.01128	5.20296	-1.61032
1920.000	5.78279	-0.96779	5.18335	-1.55890
1921.000	5.76517	-0.96584	5.18335	-1.63413
1922.000	5.82192	-0.96179	5.19120	-1.53512
1923.000	5.78279	-0.98560	5.20688	-1.56874
1924.000	5.85910	-0.95381	5.18139	-1.61632
1925.000	5.80823	-0.96775	5.21080	-1.54893
1926.000	5.82975	-0.96771	5.17943	-1.54307
1927.000	5.77300	-1.01332	5.24217	-1.60033
1928.000	5.79453	-0.97569	5.19904	-1.59054
1929.000	5.79061	-0.98163	5.19512	-1.56877
1930.000	5.77300	-1.00540	5.22061	-1.57860
1931.000	5.81410	-0.97961	5.25002	-1.57457
1932.000	5.78670	-0.97768	5.27158	-1.54878
1933.000	5.81997	-1.02906	5.19904	-1.59846
1934.000	5.80040	-0.98161	5.17943	-1.52327
1935.000	5.82584	-0.98553	5.19708	-1.50145
1936.000	5.82192	-0.98355	5.17551	-1.64207
1937.000	5.79844	-0.94996	5.20492	-1.63605
1938.000	5.84932	-0.97163	5.19120	-1.57274
1939.000	5.83953	-0.95780	5.17551	-1.53516
1940.000	5.79649	-0.99745	5.20688	-1.54696
1941.000	5.77887	-0.97967	5.24021	-1.60033
1942.000	5.81214	-0.97566	5.20296	-1.50144
1943.000	5.83366	-0.99738	5.15590	-1.56491
1944.000	5.79649	-0.98953	5.22061	-1.58058
1945.000	5.79649	-0.93215	5.25786	-1.49537
1946.000	5.82975	-0.95782	5.21277	-1.51329
1947.000	5.77692	-1.00738	5.24413	-1.52707
1948.000	5.85323	-0.93008	5.23041	-1.58056
1949.000	5.85127	-1.00527	5.19512	-1.56283
1950.000	5.82192	-0.95190	5.28530	-1.64574
1951.000	5.78866	-0.97965	5.27158	-1.52701
1952.000	5.81801	-0.96773	5.22257	-1.50535
1953.000	5.88062	-0.92212	5.22453	-1.62215
1954.000	5.87475	-0.93004	5.20492	-1.53113
1955.000	5.85518	-0.96569	5.19316	-1.53908
1956.000	5.81605	-0.90837	5.24217	-1.63200
1957.000	5.82975	-0.93407	5.30686	-1.61006
1958.000	5.81997	-0.94398	5.23629	-1.57658
1959.000	5.84149	-0.95384	5.22061	-1.57267
1960.000	5.85910	-0.89248	5.22845	-1.56869
1961.000	5.81214	-0.97566	5.19512	-1.59253
1962.000	5.85714	-0.98151	5.20296	-1.63210
1963.000	5.86301	-0.97161	5.24609	-1.61813
1964.000	5.85714	-0.93403	5.25982	-1.57653
1965.000	5.84932	-1.02505	5.27354	-1.56263
1966.000	5.81605	-1.02314	5.25198	-1.57655
1967.000	5.80236	-0.97567	5.17943	-1.59257
1968.000	5.81018	-0.91630	5.26570	-1.61214
1969.000	5.79649	-0.94205	5.26766	-1.61412
1970.000	5.78670	-0.99747	5.23825	-1.59440
1971.000	5.79453	-0.98162	5.19904	-1.56678
1972.000	5.81410	-0.98357	5.12060	-1.58479
1973.000	5.78474	-0.94998	5.28334	-1.56657
1974.000	5.77887	-1.01133	5.26766	-1.64183
1975.000	5.79649	-1.01724	5.26766	-1.63589
1976.000	5.80040	-0.98755	5.25394	-1.61217
1977.000	5.80236	-0.97963	5.26962	-1.62203
1978.000	5.80431	-1.00535	5.21473	-1.59446
1979.000	5.83758	-0.95187	5.27746	-1.56460
1980.000	5.82192	-0.98355	5.19708	-1.59846
1981.000	5.79061	-1.00142	5.37546	-1.59206
1982.000	5.81214	-0.99149	5.28530	-1.62595
1983.000	5.79649	-0.99943	5.23825	-1.55282
1984.000	5.83171	-0.97562	5.27550	-1.62201
1985.000	5.76909	-1.02322	5.16374	-1.61438
1986.000	5.79061	-0.97569	5.26178	-1.52109
1987.000	5.77496	-0.96978	5.22649	-1.68351
1988.000	5.82192	-0.99938	5.22845	-1.64391
1989.000	5.84149	-0.98550	5.26570	-1.65569
1990.000	5.76322	-0.97178	5.20100	-1.60241
1991.000	5.76909	-1.01728	5.26178	-1.59830
1992.000	5.80627	-0.93411	5.21669	-1.59445
1993.000	5.78670	-0.98164	5.18335	-1.58662
1994.000	5.82975	-0.97167	5.25198	-1.58644
1995.000	5.79257	-0.92424	5.25982	-1.68935
1996.000	5.79453	-1.00735	5.22845	-1.70725
1997.000	5.78474	-0.97570	5.28922	-1.62396
1998.000	5.86888	-0.96171	5.28530	-1.65366
1999.000	5.82779	-0.99344	5.25786	-1.65175
2000.000	5.83171	-1.01124	5.19512	-1.68755
2001.000	5.79453	-0.99943	5.26962	-1.60421
2002.000	5.81410	-1.01325	5.22257	-1.61423
2003.000	5.82975	-0.96969	5.19904	-1.60835
2004.000	5.79061	-0.95788	5.23041	-1.59640
2005.000	5.81018	-0.96972	5.17747	-1.63613
2006.000	5.77496	-0.96187	5.26374	-1.63788
2007.000	5.86692	-0.93401	5.18924	-1.53513
2008.000	5.79061	-0.95788	5.28530	-1.53687
2009.000	5.80236	-0.94006	5.16374	-1.58865
2010.000	5.79453	-0.92424	5.21080	-1.65386
2011.000	5.81801	-0.93014	5.25590	-1.57852
2012.000	5.82192	-0.91034	5.19904	-1.57668
2013.000	5.82584	-0.93408	5.25590	-1.58247
2014.000	5.85127	-0.93206	5.20492	-1.58458
2015.000	5.81214	-0.89651	5.21669	-1.55090
2016.000	5.83366	-0.97364	5.22649	-1.60630
2017.000	5.77496	-0.96583	5.24806	-1.65376
2018.000	5.81018	-0.95192	5.20884	-1.55884
2019.000	5.80236	-0.96974	5.16963	-1.69949
2020.000	5.82975	-0.94595	5.27354	-1.54284
2021.000	5.79649	-0.94205	5.24021	-1.62211
2022.000	5.81214	-0.99149	5.27550	-1.56857
2023.000	5.80627	-0.94401	5.14217	-1.57484
2024.000	5.83953	-0.92417	5.23629	-1.59044
2025.000	5.81214	-0.93015	5.24609	-1.57260
2026.000	5.84149	-0.95780	5.18531	-1.63017
2027.000	5.79844	-0.92819	5.20296	-1.62418
2028.000	5.81997	-0.91430	5.27746	-1.72295
2029.000	5.81410	-0.95587	5.27550	-1.57649
2030.000	5.79649	-0.90247	5.17747	-1.63217
2031.000	5.80236	-0.93214	5.21473	-1.56674
2032.000	5.81997	-0.96773	5.23041	-1.57858
2033.000	5.80823	-0.91432	5.29902	-1.61997
2034.000	5.80823	-0.94994	5.17551	-1.62227
2035.000	5.74952	-0.97181	5.24217	-1.62210
2036.000	5.82779	-0.95980	5.17943	-1.55099
2037.000	5.79844	-0.89851	5.24609	-1.57656
2038.000	5.78083	-0.91833	5.21473	-1.56674
2039.000	5.85910	-0.94788	5.23629	-1.57856
2040.000	5.79453	-0.90049	5.30294	-1.58631
2041.000	5.82975	-1.00728	5.25982	-1.55277
2042.000	5.82584	-0.94793	5.33038	-1.62583
2043.000	5.81801	-0.91431	5.26962	-1.62203
2044.000	5.82975	-0.96573	5.23237	-1.69141
2045.000	5.78083	-0.89260	5.34214	-1.60600
2046.000	5.77887	-0.94207	5.19316	-1.63608
2047.000	5.79649	-0.98162	5.22845	-1.62807
2048.000	5.79844	-0.95194	5.22257	-1.61027
2049.000	5.78279	-0.97966	5.29314	-1.56852
2050.000	5.84540	-0.99143	5.23825	-1.60429
2051.000	5.80431	-0.95786	5.32058	-1.67929
2052.000	5.81410	-0.92619	5.23041	-1.59244
2053.000	5.82779	-0.91429	5.28922	-1.65365
2054.000	5.83171	-0.95188	5.23629	-1.72703
2055.000	5.82584	-0.96772	5.25982	-1.67352
2056.000	5.81018	-0.96379	5.19120	-1.60639
2057.000	5.81214	-1.00138	5.21669	-1.60237
2058.000	5.79257	-0.91831	5.27550	-1.61805
2059.000	5.79061	-0.94601	5.33234	-1.60603
2060.000	5.84736	-0.95185	5.25982	-1.62007
2061.000	5.81605	-0.94993	5.24413	-1.68346
2062.000	5.81410	-0.99346	5.25198	-1.61812
2063.000	5.77496	-0.97176	5.19904	-1.63409
2064.000	5.84345	-0.96769	5.23237	-1.56274
2065.000	5.86105	-0.94985	5.36174	-1.62377
2066.000	5.86105	-0.93402	5.20492	-1.53905
2067.000	5.82584	-0.94002	5.28138	-1.64971
2068.000	5.83562	-0.94000	5.24217	-1.56271
2069.000	5.82584	-0.94200	5.29706	-1.64769
2070.000	5.83562	-0.93802	5.29510	-1.58237
2071.000	5.83758	-0.93208	5.21669	-1.66176
2072.000	5.76713	-0.99750	5.19904	-1.58262
2073.000	5.80431	-0.97369	5.21473	-1.66968
2074.000	5.83758	-0.93406	5.27354	-1.61410
2075.000	5.80236	-0.99150	5.31274	-1.56649
2076.000	5.83562	-0.94396	5.21669	-1.56872
2077.000	5.84736	-0.99736	5.35194	-1.58421
2078.000	5.80431	-0.94203	5.14413	-1.61839
2079.000	5.80627	-0.99941	5.28726	-1.58833
2080.000	5.80627	-0.96182	5.15982	-1.59064
2081.000	5.80236	-0.93214	5.29902	-1.57445
2082.000	5.75735	-0.97575	5.24806	-1.58645
2083.000	5.79844	-0.95194	5.21080	-1.54893
2084.000	5.80040	-0.96578	5.27746	-1.61607
2085.000	5.76517	-0.99948	5.21080	-1.63010
2086.000	5.79061	-0.99746	5.35782	-1.60794
2087.000	5.77692	-1.02123	5.26962	-1.57056
2088.000	5.75539	-1.00741	5.28726	-1.64771
2089.000	5.80823	-0.97566	5.29902	-1.58434
2090.000	5.80236	-1.01129	5.25982	-1.65570
2091.000	5.78670	-0.95789	5.30882	-1.64964
2092.000	5.73777	-0.97578	5.34606	-1.62579
2093.000	5.80627	-0.92818	5.24806	-1.61615
2094.000	5.76909	-0.94407	5.26178	-1.63195
2095.000	5.78474	-0.98164	5.23041	-1.53107
2096.000	5.76909	-1.00541	5.28334	-1.68137
2097.000	5.79844	-0.89851	5.32254	-1.55261
2098.000	5.79844	-0.98162	5.19708	-1.57866
2099.000	5.85323	-0.92810	5.26178	-1.63788
2100.000	5.80627	-0.96577	5.24021	-1.63002
2101.000	5.83366	-0.94396	5.29118	-1.52696
2102.000	5.77887	-0.94999	5.32254	-1.64168
2103.000	5.77887	-1.02320	5.26766	-1.61412
2104.000	5.74560	-1.00941	5.26178	-1.55475
2105.000	5.79844	-1.01130	5.18531	-1.58067
2106.000	5.76126	-1.05094	5.25198	-1.60228
2107.000	5.72799	-0.95205	5.24021	-1.53896
2108.000	5.74560	-0.98962	5.25198	-1.52310
2109.000	5.76322	-1.02917	5.35194	-1.59015
2110.000	5.77496	-0.97572	5.33038	-1.60801
2111.000	5.79061	-0.98559	5.27746	-1.57252
2112.000	5.73190	-1.03912	5.28726	-1.71897
2113.000	5.74756	-0.97973	5.28530	-1.50322
2114.000	5.75343	-1.00346	5.31470	-1.58232
2115.000	5.77300	-1.01728	5.23629	-1.54293
2116.000	5.77300	-1.00936	5.24413	-1.62012
2117.000	5.77692	-1.01529	5.19120	-1.54898
2118.000	5.75539	-1.05293	5.20884	-1.57269
2119.000	5.75147	-1.04700	5.22257	-1.56672
2120.000	5.74756	-1.02326	5.23237	-1.55680
2121.000	5.72995	-1.07276	5.27354	-1.55274
2122.000	5.75930	-0.99751	5.27158	-1.53888
2123.000	5.72212	-1.01737	5.25590	-1.55476
2124.000	5.75147	-1.04304	5.21277	-1.56675
2125.000	5.70841	-1.02927	5.20884	-1.50340
2126.000	5.72016	-0.97779	5.26178	-1.57454
2127.000	5.75147	-1.02523	5.32646	-1.55854
2128.000	5.80431	-1.05086	5.25394	-1.53497
2129.000	5.72603	-1.01538	5.21669	-1.53902
2130.000	5.77300	-0.97572	5.31078	-1.51305
2131.000	5.72212	-1.03320	5.31862	-1.60607
2132.000	5.74365	-0.99754	5.29510	-1.55466
2133.000	5.74365	-1.02129	5.24806	-1.71512
2134.000	5.73190	-1.02329	5.19316	-1.56283
2135.000	5.71429	-0.99759	5.28334	-1.55073
2136.000	5.73582	-1.00547	5.23041	-1.51721
2137.000	5.73973	-0.99161	5.29902	-1.60810
2138.000	5.76517	-0.98365	5.24413	-1.59438
2139.000	5.71429	-1.01342	5.16963	-1.54705
2140.000	5.72016	-1.01539	5.25198	-1.55081
2141.000	5.73582	-1.01537	5.16178	-1.58667
2142.000	5.67318	-1.00954	5.25394	-1.61415
2143.000	5.70841	-0.99760	5.24217	-1.63200
2144.000	5.68884	-1.00160	5.24806	-1.52904
2145.000	5.73973	-0.99359	5.31470	-1.66348
2146.000	5.72995	-1.01340	5.33822	-1.62977
2147.000	5.72212	-1.03716	5.29510	-1.59029
2148.000	5.72407	-1.10443	5.29902	-1.53684
2149.000	5.76322	-1.02917	5.22257	-1.63601
2150.000	5.70058	-1.05896	5.23041	-1.54690
2151.000	5.72995	-1.02131	5.19904	-1.53312
2152.000	5.73777	-1.06087	5.23237	-1.57264
2153.000	5.75343	-0.99950	5.23237	-1.57857
2154.000	5.73582	-1.00745	5.23041	-1.54888
2155.000	5.73777	-1.01734	5.29314	-1.53883
2156.000	5.72407	-1.05101	5.20100	-1.51332
2157.000	5.75147	-1.00149	5.23825	-1.59044
2158.000	5.72799	-1.09651	5.17551	-1.51338
2159.000	5.74365	-1.02920	5.21865	-1.52714
2160.000	5.71233	-1.01541	5.16767	-1.53914
2161.000	5.77300	-1.03113	5.17159	-1.63416
2162.000	5.79061	-1.08650	5.19512	-1.58659
2163.000	5.76713	-1.04103	5.30098	-1.43191
2164.000	5.74560	-1.01931	5.28922	-1.55468
2165.000	5.72799	-1.03715	5.25982	-1.52704
2166.000	5.69667	-1.05699	5.17943	-1.55495
2167.000	5.69080	-1.05107	5.24609	-1.55874
2168.000	5.71233	-1.03717	5.17943	-1.48367
2169.000	5.69863	-1.05105	5.23629	-1.59836
2170.000	5.69080	-1.00357	5.20100	-1.53510
2171.000	5.63011	-1.04524	5.27942	-1.53491
2172.000	5.70058	-1.02136	5.21080	-1.64594
2173.000	5.72799	-1.08662	5.23041	-1.61421
2174.000	5.74169	-1.08263	5.32450	-1.57042
2175.000	5.69667	-1.04116	5.18531	-1.58661
2176.000	5.73973	-1.00151	5.26962	-1.53691
2177.000	5.70058	-1.03918	5.27942	-1.61409
2178.000	5.71429	-0.98770	5.32058	-1.54668
2179.000	5.68688	-1.06691	5.29314	-1.53091
2180.000	5.72016	-1.03518	5.25590	-1.59039
2181.000	5.71429	-1.04509	5.24021	-1.59439
2182.000	5.73777	-1.02526	5.27746	-1.61013
2183.000	5.76517	-1.04499	5.18139	-1.57672
2184.000	5.69471	-1.05898	5.26374	-1.62402
2185.000	5.70254	-1.04115	5.20884	-1.57863
2186.000	5.68884	-1.05701	5.28726	-1.54280
2187.000	5.72016	-1.02529	5.28922	-1.56457
2188.000	5.66143	-1.10258	5.27354	-1.54284
2189.000	5.72212	-1.05892	5.39701	-1.64148
2190.000	5.70841	-1.10842	5.23433	-1.53106
2191.000	5.67318	-1.06693	5.24021	-1.67753
2192.000	5.68101	-1.07681	5.22453	-1.63204
2193.000	5.70254	-1.12822	5.24609	-1.57854
2194.000	5.72603	-1.05298	5.20100	-1.53708
2195.000	5.71820	-1.07872	5.28138	-1.61012
2196.000	5.71624	-1.05894	5.24806	-1.64386
2197.000	5.70254	-1.04709	5.28726	-1.59625
2198.000	5.70646	-1.08666	5.26570	-1.64579
2199.000	5.72016	-1.06091	5.19316	-1.53512
2200.000	5.71429	-1.09060	5.15786	-1.60054
2201.000	5.70450	-1.04906	5.32646	-1.61198
2202.000	5.70254	-1.05698	5.16178	-1.62429
2203.000	5.69667	-1.04908	5.27158	-1.61609
2204.000	5.70450	-1.10447	5.31274	-1.63181
2205.000	5.71233	-1.08071	5.31862	-1.54866
2206.000	5.72016	-1.02529	5.22845	-1.57463
2207.000	5.72016	-1.05497	5.28334	-1.56261
2208.000	5.68492	-1.09066	5.28334	-1.64179
2209.000	5.76713	-1.02322	5.23825	-1.53699
2210.000	5.72407	-1.01341	5.33234	-1.56446
2211.000	5.70058	-1.06292	5.24413	-1.63991
2212.000	5.71429	-1.03519	5.25786	-1.62404
2213.000	5.71429	-1.08269	5.11275	-1.68579
2214.000	5.75147	-0.98961	5.31078	-1.53879
2215.000	5.71624	-1.06883	5.20492	-1.52321
2216.000	5.72212	-1.04309	5.25394	-1.62999
2217.000	5.69080	-1.01544	5.17355	-1.64801
2218.000	5.71820	-1.05695	5.31666	-1.57440
2219.000	5.72603	-1.05100	5.17747	-1.60049
2220.000	5.70841	-0.99760	5.24609	-1.63991
2221.000	5.71429	-1.03123	5.31078	-1.53879
2222.000	5.69471	-1.08074	5.19904	-1.55886
2223.000	5.74756	-1.07273	5.35978	-1.65742
2224.000	5.70450	-1.06687	5.17747	-1.59059
2225.000	5.67709	-1.07880	5.30294	-1.63580
2226.000	5.68884	-1.02336	5.28334	-1.47155
2227.000	5.67905	-1.06692	5.16963	-1.61833
2228.000	5.66926	-1.11839	5.25590	-1.57852
2229.000	5.68688	-1.09263	5.23629	-1.56075
2230.000	5.68101	-1.02338	5.25394	-1.63593
2231.000	5.69275	-1.07481	5.25982	-1.66758
2232.000	5.68297	-1.04712	5.27354	-1.60816
2233.000	5.69080	-1.08867	5.24021	-1.52708
2234.000	5.65752	-1.07686	5.23237	-1.66765
2235.000	5.69275	-1.04908	5.18728	-1.52919
2236.000	5.68297	-1.05900	5.23237	-1.58847
2237.000	5.66143	-1.07487	5.23237	-1.63004
2238.000	5.63402	-1.05315	5.36762	-1.60198
2239.000	5.67122	-1.06693	5.27354	-1.59827
2240.000	5.72407	-1.10839	5.23433	-1.54887
2241.000	5.71037	-1.07676	5.24217	-1.55677
2242.000	5.66926	-1.05704	5.19708	-1.50145
2243.000	5.73386	-1.10441	5.21080	-1.55091
2244.000	5.74560	-1.04701	5.17747	-1.60643
2245.000	5.67709	-1.09265	5.30098	-1.56850
2246.000	5.68688	-1.04909	5.26570	-1.61016
2247.000	5.67122	-1.06496	5.23629	-1.53303
2248.000	5.71429	-1.04311	5.25786	-1.44785
2249.000	5.69863	-1.07084	5.13237	-1.51744
2250.000	5.69471	-1.07085	5.23433	-1.56669
2251.000	5.66535	-1.08278	5.21669	-1.48952
2252.000	5.68297	-1.10253	5.26178	-1.66362
2253.000	5.66339	-1.06497	5.24609	-1.47560
2254.000	5.70841	-1.07280	5.28138	-1.59033
2255.000	5.67514	-1.05307	5.25982	-1.66758
2256.000	5.69080	-1.05898	5.14609	-1.48969
2257.000	5.68884	-1.06492	5.31274	-1.56451
2258.000	5.70058	-1.07480	5.25786	-1.52110
2259.000	5.72799	-1.09651	5.26962	-1.61411
2260.000	5.68492	-1.06493	5.22649	-1.58651
2261.000	5.68101	-1.05702	5.23433	-1.56471
2262.000	5.65360	-1.01947	5.24609	-1.51123
2263.000	5.71037	-1.06884	5.29706	-1.58237
2264.000	5.70058	-1.03720	5.25198	-1.50726
2265.000	5.65752	-1.09269	5.20492	-1.52519
2266.000	5.63598	-1.07690	5.28530	-1.48540
2267.000	5.63990	-1.08085	5.32450	-1.61001
2268.000	5.66926	-1.04121	5.28922	-1.55666
2269.000	5.65947	-1.10456	5.20296	-1.59449
2270.000	5.65947	-1.08873	5.22649	-1.56275
2271.000	5.64381	-1.05313	5.25394	-1.57060
2272.000	5.68884	-1.06492	5.23237	-1.56274
2273.000	5.65752	-1.08279	5.24217	-1.60033
2274.000	5.67514	-1.08870	5.31274	-1.59618
2275.000	5.67905	-1.05900	5.27158	-1.57848
2276.000	5.66535	-1.09861	5.26766	-1.54879
2277.000	5.68101	-1.10056	5.28334	-1.61012
2278.000	5.66339	-1.09268	5.28726	-1.61604
2279.000	5.64773	-1.13229	5.32646	-1.61000
2280.000	5.63990	-1.10855	5.26962	-1.62797
2281.000	5.63794	-1.13824	5.26374	-1.58641
2282.000	5.64577	-1.18968	5.30882	-1.66943
2283.000	5.61444	-1.14818	5.29902	-1.63581
2284.000	5.67318	-1.16588	5.30490	-1.59818
2285.000	5.61640	-1.08485	5.30882	-1.64172
2286.000	5.61248	-1.10861	5.29510	-1.60613
2287.000	5.64185	-1.06501	5.24413	-1.55479
2288.000	5.65556	-1.05905	5.26374	-1.57850
2289.000	5.60269	-1.16206	5.26962	-1.60619
2290.000	5.64577	-1.07292	5.25002	-1.60426
2291.000	5.58899	-1.10469	5.27942	-1.61804
2292.000	5.61053	-1.14621	5.27354	-1.63587
2293.000	5.61248	-1.10267	5.25982	-1.58444
2294.000	5.62423	-1.11848	5.32254	-1.59814
2295.000	5.63206	-1.03732	5.24609	-1.57656
2296.000	5.58115	-1.12648	5.19120	-1.63609
2297.000	5.59290	-1.12646	5.28726	-1.56656
2298.000	5.65360	-1.07686	5.34214	-1.59413
2299.000	5.60465	-1.10268	5.25786	-1.59237
2300.000	5.61444	-1.10464	5.26374	-1.54286
2301.000	5.65360	-1.09665	5.30490	-1.64371
2302.000	5.58507	-1.08491	5.37938	-1.60789
2303.000	5.61248	-1.12048	5.36762	-1.67323
2304.000	5.57919	-1.12846	5.17747	-1.61237
2305.000	5.58311	-1.11064	5.22845	-1.59838
2306.000	5.62423	-1.11650	5.35194	-1.57629
2307.000	5.56353	-1.11068	5.29902	-1.65560
2308.000	5.59290	-1.09083	5.36762	-1.59406
2309.000	5.59682	-1.11259	5.25982	-1.61216
2310.000	5.56157	-1.11266	5.42641	-1.63547
2311.000	5.57136	-1.13046	5.24609	-1.57854
2312.000	5.57919	-1.16607	5.26374	-1.65965
2313.000	5.58899	-1.09480	5.26374	-1.69528
2314.000	5.55765	-1.16413	5.32254	-1.62981
2315.000	5.59878	-1.12051	5.29706	-1.65165
2316.000	5.59486	-1.12843	5.20492	-1.70138
2317.000	5.58115	-1.13440	5.33234	-1.64957
2318.000	5.59486	-1.10270	5.27942	-1.62992
2319.000	5.54003	-1.16416	5.32254	-1.61199
2320.000	5.60465	-1.08685	5.28334	-1.67939
2321.000	5.56353	-1.14828	5.33822	-1.70893
2322.000	5.55765	-1.08694	5.32842	-1.66938
2323.000	5.56940	-1.12452	5.33234	-1.63176
2324.000	5.57724	-1.11461	5.36174	-1.73459
2325.000	5.55961	-1.11662	5.33430	-1.63176
2326.000	5.53415	-1.10084	5.28530	-1.72293
2327.000	5.55765	-1.09089	5.34214	-1.72277
2328.000	5.51456	-1.09295	5.29510	-1.62394
2329.000	5.55765	-1.08892	5.31862	-1.64763
2330.000	5.57919	-1.07304	5.26962	-1.68339
2331.000	5.54003	-1.12260	5.25002	-1.70522
2332.000	5.55569	-1.08298	5.31862	-1.65951
2333.000	5.57136	-1.09483	5.27158	-1.66557
2334.000	5.58703	-1.10272	5.29314	-1.64770
2335.000	5.54394	-1.10873	5.28922	-1.67938
2336.000	5.53023	-1.11668	5.37154	-1.67124
2337.000	5.55765	-1.12850	5.36762	-1.66531
2338.000	5.52240	-1.15628	5.30098	-1.63976
2339.000	5.53219	-1.09886	5.25394	-1.62207
2340.000	5.59290	-1.14427	5.36370	-1.65741
2341.000	5.54590	-1.17405	5.25786	-1.65571
2342.000	5.51652	-1.14640	5.28726	-1.69324
2343.000	5.53611	-1.13448	5.37546	-1.77017
2344.000	5.54003	-1.17010	5.29118	-1.75656
2345.000	5.60073	-1.15811	5.36762	-1.67521
2346.000	5.56353	-1.14433	5.21080	-1.64594
2347.000	5.52631	-1.14044	5.30490	-1.64371
2348.000	5.54590	-1.13446	5.31470	-1.64368
2349.000	5.54198	-1.14833	5.32254	-1.71095
2350.000	5.51064	-1.16422	5.31862	-1.68919
2351.000	5.55373	-1.17205	5.26570	-1.67944
2352.000	5.54982	-1.08497	5.38134	-1.74839
2353.000	5.52631	-1.10877	5.30294	-1.67538
2354.000	5.55961	-1.11068	5.24609	-1.69929
2355.000	5.56549	-1.13245	5.36762	-1.66333
2356.000	5.54198	-1.17604	5.30882	-1.71297
2357.000	5.53415	-1.16813	5.17747	-1.57475
2358.000	5.54786	-1.14436	5.33822	-1.68716
2359.000	5.54003	-1.14437	5.27158	-1.62796
2360.000	5.53807	-1.12854	5.28922	-1.74667
2361.000	5.53611	-1.11073	5.32254	-1.74262
2362.000	5.54198	-1.11666	5.31666	-1.68722
2363.000	5.55765	-1.08892	5.29118	-1.67343
2364.000	5.57332	-1.12253	5.23237	-1.75673
2365.000	5.54198	-1.17604	5.17943	-1.67373
2366.000	5.55178	-1.13049	5.29706	-1.66352
2367.000	5.52044	-1.22754	5.26766	-1.62995
2368.000	5.52827	-1.16815	5.31078	-1.64765
2369.000	5.57528	-1.16805	5.31470	-1.69910
2370.000	5.53023	-1.15627	5.30098	-1.60809
2371.000	5.53023	-1.20179	5.24217	-1.69534
2372.000	5.59486	-1.16010	5.32450	-1.67137
2373.000	5.55373	-1.13049	5.28530	-1.65960
2374.000	5.55178	-1.19581	5.32450	-1.59417
2375.000	5.53415	-1.18793	5.32254	-1.68720
2376.000	5.54394	-1.16218	5.35194	-1.63369
2377.000	5.54198	-1.18197	5.26178	-1.69727
2378.000	5.51652	-1.18796	5.33430	-1.69311
2379.000	5.47930	-1.20387	5.26178	-1.69529
2380.000	5.54786	-1.22551	5.26766	-1.64975
2381.000	5.53023	-1.17606	5.30294	-1.64965
2382.000	5.50085	-1.20581	5.22453	-1.66965
2383.000	5.56353	-1.17995	5.24021	-1.66170
2384.000	5.52240	-1.13451	5.27354	-1.67546
2385.000	5.47147	-1.19993	5.27550	-1.71306
2386.000	5.48910	-1.19792	5.24413	-1.64585
2387.000	5.56940	-1.18588	5.34998	-1.66734
2388.000	5.50869	-1.22163	5.30294	-1.64173
2389.000	5.52436	-1.19784	5.33038	-1.68718
2390.000	5.49693	-1.20978	5.25002	-1.71313
2391.000	5.53023	-1.22752	5.34410	-1.67725
2392.000	5.48714	-1.22365	5.33038	-1.71489
2393.000	5.51064	-1.18995	5.27158	-1.72099
2394.000	5.50085	-1.21769	5.31862	-1.66544
2395.000	5.51456	-1.19391	5.35978	-1.71283
2396.000	5.50673	-1.17413	5.32842	-1.68719
2397.000	5.50869	-1.21965	5.27158	-1.55472
2398.000	5.50477	-1.21174	5.32842	-1.67135
2399.000	5.50673	-1.24341	5.32450	-1.63970
2400.000	5.50085	-1.21175	5.31470	-1.65358
2401.000	5.50869	-1.26121	5.29314	-1.69520
2402.000	5.49889	-1.25530	5.31078	-1.69713
2403.000	5.49106	-1.19989	5.24413	-1.65575
2404.000	5.55178	-1.23539	5.28726	-1.64969
2405.000	5.45384	-1.18215	5.40877	-1.75029
2406.000	5.48322	-1.17021	5.39897	-1.70085
2407.000	5.50673	-1.18996	5.32450	-1.72282
2408.000	5.52240	-1.24139	5.35194	-1.73858
2409.000	5.46167	-1.27319	5.33822	-1.69112
2410.000	5.45971	-1.24944	5.31274	-1.63973
2411.000	5.45775	-1.25538	5.28726	-1.76845
2412.000	5.44796	-1.25738	5.41269	-1.72653
2413.000	5.46559	-1.23953	5.31470	-1.68525
2414.000	5.45775	-1.24153	5.27746	-1.70316
2415.000	5.38134	-1.23773	5.26178	-1.74081
2416.000	5.43816	-1.18812	5.29314	-1.62197
2417.000	5.39310	-1.26542	5.29510	-1.71697
2418.000	5.44208	-1.23562	5.29706	-1.72488
2419.000	5.44404	-1.24947	5.29314	-1.69124
2420.000	5.43620	-1.21782	5.34606	-1.68120
2421.000	5.42837	-1.21585	5.39897	-1.78989
2422.000	5.44992	-1.26530	5.32254	-1.75251
2423.000	5.40681	-1.24955	5.36370	-1.74052
2424.000	5.46167	-1.24944	5.38722	-1.76618
2425.000	5.48126	-1.21971	5.33234	-1.64561
2426.000	5.45775	-1.28706	5.31666	-1.74066
2427.000	5.42837	-1.25742	5.38722	-1.77607
2428.000	5.46559	-1.24151	5.32254	-1.70502
2429.000	5.44208	-1.25938	5.25982	-1.71509
2430.000	5.44208	-1.27323	5.30686	-1.73475
2431.000	5.42249	-1.27327	5.25002	-1.67553
2432.000	5.42249	-1.29109	5.28726	-1.69324
2433.000	5.42053	-1.32277	5.29510	-1.71499
2434.000	5.43228	-1.26929	5.32450	-1.74855
2435.000	5.43228	-1.31878	5.29118	-1.74667
2436.000	5.42249	-1.30099	5.26178	-1.81800
2437.000	5.44404	-1.31084	5.30490	-1.72684
2438.000	5.40485	-1.24560	5.31862	-1.66149
2439.000	5.44796	-1.25145	5.25198	-1.71511
2440.000	5.41269	-1.27131	5.33822	-1.70101
2441.000	5.41661	-1.22973	5.31078	-1.75255
2442.000	5.46167	-1.21975	5.37938	-1.65934
2443.000	5.40289	-1.23174	5.30294	-1.74465
2444.000	5.42837	-1.24555	5.33822	-1.69706
2445.000	5.39701	-1.25749	5.28922	-1.72292
2446.000	5.37546	-1.22190	5.31666	-1.67534
2447.000	5.43424	-1.25741	5.31862	-1.67336
2448.000	5.42641	-1.21784	5.29706	-1.72488
2449.000	5.46363	-1.25339	5.29118	-1.67739
2450.000	5.40877	-1.21391	5.38330	-1.70880
2451.000	5.41857	-1.21785	5.37154	-1.70884
2452.000	5.43228	-1.23960	5.30294	-1.67934
2453.000	5.46559	-1.21776	5.31470	-1.67139
2454.000	5.44992	-1.22769	5.25002	-1.66761
2455.000	5.44796	-1.19206	5.28922	-1.70511
2456.000	5.43228	-1.18615	5.31078	-1.72880
2457.000	5.42053	-1.24358	5.27746	-1.71504
2458.000	5.43620	-1.22178	5.33822	-1.73268
2459.000	5.42053	-1.18815	5.28138	-1.62794
2460.000	5.44208	-1.16832	5.27550	-1.65170
2461.000	5.42641	-1.22774	5.26570	-1.69132
2462.000	5.41465	-1.19212	5.26962	-1.60025
2463.000	5.43620	-1.19802	5.29314	-1.69718
2464.000	5.45579	-1.22174	5.34998	-1.66734
2465.000	5.48714	-1.20980	5.27746	-1.63191
2466.000	5.43032	-1.18813	5.31470	-1.60212
2467.000	5.46363	-1.20391	5.34018	-1.68913
2468.000	5.49497	-1.15436	5.26962	-1.65370
2469.000	5.44600	-1.22176	5.21080	-1.60436
2470.000	5.46951	-1.23754	5.32058	-1.66544
2471.000	5.48714	-1.18406	5.21865	-1.57069
2472.000	5.46559	-1.23953	5.20688	-1.64991
2473.000	5.51260	-1.25131	5.23433	-1.63004
2474.000	5.47734	-1.23159	5.27746	-1.63191
2475.000	5.45775	-1.18412	5.32842	-1.63969
2476.000	5.54003	-1.21563	5.31470	-1.60014
2477.000	5.47343	-1.21378	5.26374	-1.63986
2478.000	5.52240	-1.18003	5.29314	-1.65562
2479.000	5.44992	-1.16038	5.27158	-1.59827
2480.000	5.48518	-1.10291	5.26570	-1.57651
2481.000	5.41857	-1.11095	5.14806	-1.60452
2482.000	5.22257	-0.96672	5.04410	-1.57904
2483.000	5.07549	-0.96893	4.87928	-1.47841
2484.000	4.86554	-0.83646	4.61421	-1.42349
2485.000	4.55135	-0.60683	4.41184	-1.27917
2486.000	4.25458	-0.38091	4.02448	-1.07747
2487.000	3.89068	-0.23024	3.74109	-0.79800
2488.000	3.59540	0.09928	3.23686	-0.57997
2489.000	3.25854	0.44490	2.96286	-0.36358
2490.000	2.90765	0.85231	2.54865	0.05366
2491.000	2.53089	1.24398	2.12036	0.51887
2492.000	2.25460	1.58991	1.79651	1.01202
2493.000	1.90513	1.95179	1.53181	1.51704
2494.000	1.63059	2.21225	1.21370	1.82925
2495.000	1.41525	2.57579	1.08129	2.09357
2496.000	1.21963	2.84192	0.90144	2.44720
2497.000	1.20579	3.07799	0.68006	2.73519
2498.000	1.13465	3.26050	0.69982	2.89196
2499.000	1.11884	3.34576	0.66424	3.07450
2500.000	1.14058	3.43692	0.80854	3.20331
2501.000	1.15244	3.48050	0.80261	3.32228
2502.000	1.22951	3.43879	0.85005	3.27070
2503.000	1.27496	3.43080	0.88365	3.23299
2504.000	1.34214	3.27214	0.97062	3.12781
2505.000	1.35004	3.14128	0.97062	3.05641
2506.000	1.40537	2.98057	0.98643	2.90762
2507.000	1.40734	2.91312	1.00817	2.84609
2508.000	1.43500	2.82381	0.96864	2.67347
2509.000	1.43303	2.71270	0.92120	2.54249
2510.000	1.44488	2.64720	0.93504	2.45909
2511.000	1.43105	2.47454	0.94887	2.40150
2512.000	1.39351	2.41700	0.97259	2.23666
2513.000	1.43500	2.37130	0.98247	2.22672
2514.000	1.41722	2.28792	1.05758	2.14325
2515.000	1.46859	2.25015	1.09513	2.06178
2516.000	1.42513	2.22437	1.12082	2.03196
2517.000	1.45674	2.17072	1.23741	2.03386
2518.000	1.47057	2.14092	1.28286	1.96827
2519.000	1.50810	2.14883	1.35202	1.97021
2520.000	1.51601	2.15081	1.33819	2.01591
2521.000	1.50415	2.14287	1.27693	2.10137
2522.000	1.48440	2.20048	1.29472	2.02786
2523.000	1.42513	2.21444	1.33028	2.10133
2524.000	1.38363	2.26413	1.21370	2.11334
2525.000	1.39351	2.35744	1.14058	2.15312
2526.000	1.30657	2.36150	1.16232	2.28021
2527.000	1.27100	2.41911	1.06943	2.29617
2528.000	1.21172	2.50652	0.88760	2.31417
2529.000	1.17022	2.54427	0.95480	2.37171
2530.000	1.10303	2.56617	0.83226	2.46710
2531.000	1.11884	2.61181	0.77296	2.49295
2532.000	1.08722	2.64161	0.66029	2.58037
2533.000	1.01805	2.67343	0.69587	2.61212
2534.000	1.04177	2.73295	0.70971	2.66174
2535.000	1.04177	2.80637	0.73738	2.72127
2536.000	1.07734	2.75078	0.68203	2.64786
2537.000	1.05758	2.81033	0.61087	2.69355
2538.000	1.05362	2.81430	0.71564	2.75105
2539.000	1.07339	2.84801	0.65831	2.82650
2540.000	1.07536	2.90357	0.75122	2.67362
2541.000	1.08524	2.83411	0.75319	2.73515
2542.000	1.07734	2.84206	0.79273	2.73909
2543.000	1.09908	2.80632	0.67413	2.70542
2544.000	1.11884	2.82218	0.79668	2.69741
2545.000	1.14058	2.81819	0.76505	2.76293
2546.000	1.10303	2.80235	0.72947	2.67959
2547.000	1.11884	2.80233	0.79273	2.69543
2548.000	1.11884	2.77257	0.86586	2.68148
2549.000	1.13860	2.78247	0.86981	2.52664
2550.000	1.17615	2.79236	0.83028	2.50086
2551.000	1.15837	2.78047	0.92318	2.58418
2552.000	1.15837	2.77055	0.90737	2.55640
2553.000	1.17813	2.73878	0.81645	2.56241
2554.000	1.16034	2.73879	0.91725	2.54249
2555.000	1.17615	2.72489	0.86388	2.51672
2556.000	1.18406	2.73480	0.90539	2.49287
2557.000	1.16232	2.70109	0.85796	2.50481
2558.000	1.19789	2.73876	0.87179	2.48892
2559.000	1.17615	2.67130	0.91923	2.48690
2560.000	1.16232	2.72490	0.86981	2.49488
2561.000	1.16825	2.70306	0.79273	2.51677
2562.000	1.18801	2.71098	0.89749	2.55243
2563.000	1.11687	2.65548	0.92516	2.42138
2564.000	1.17418	2.71695	0.87377	2.47899
2565.000	1.13465	2.64355	0.92120	2.49087
2566.000	1.16232	2.62765	0.95678	2.48092
2567.000	1.17813	2.70504	0.90539	2.52463
2568.000	1.19591	2.68319	0.87970	2.47700
2569.000	1.17220	2.67726	0.90342	2.41146
2570.000	1.16034	2.64552	0.92713	2.39755
2571.000	1.15244	2.71300	0.80261	2.44528
2572.000	1.19789	2.67327	0.86784	2.44723
2573.000	1.21172	2.69905	0.83621	2.48100
2574.000	1.18801	2.65343	0.89353	2.46707
2575.000	1.17813	2.69313	0.83028	2.53858
2576.000	1.22753	2.65934	0.87179	2.49686
2577.000	1.22753	2.68514	0.88365	2.44920
2578.000	1.24136	2.68513	0.94492	2.46703
2579.000	1.22555	2.66530	0.86981	2.46112
2580.000	1.20975	2.71493	0.88958	2.47898
2581.000	1.22555	2.68912	0.93109	2.46902
2582.000	1.22160	2.69507	0.88365	2.43927
2583.000	1.25520	2.66924	0.89156	2.50280
2584.000	1.25124	2.70695	0.80854	2.47903
2585.000	1.19789	2.71693	0.92911	2.44719
2586.000	1.20382	2.67128	0.80063	2.53661
2587.000	1.18208	2.68122	0.90144	2.54648
2588.000	1.20777	2.69112	0.85203	2.48099
2589.000	1.13860	2.68325	0.88958	2.49089
2590.000	1.18998	2.66930	0.90144	2.53456
2591.000	1.17615	2.64153	0.94492	2.46703
2592.000	1.16232	2.69712	0.88563	2.46111
2593.000	1.13663	2.65943	0.87179	2.47701
2594.000	1.16232	2.64948	0.87377	2.45516
2595.000	1.19987	2.63555	0.89946	2.46706
2596.000	1.13860	2.67531	0.93109	2.37570
2597.000	1.15244	2.62171	0.98247	2.42928
2598.000	1.18801	2.61770	0.92120	2.48293
2599.000	1.21963	2.61767	0.94887	2.43923
2600.000	1.18010	2.60382	0.98445	2.43523
2601.000	1.16429	2.62963	0.84807	2.50680
2602.000	1.22753	2.65141	0.89156	2.45714
2603.000	1.22555	2.63553	0.97062	2.44914
2604.000	1.21567	2.62363	0.92318	2.43925
2605.000	1.18801	2.67328	0.90737	2.46308
2606.000	1.18998	2.61969	0.93899	2.39754
2607.000	1.19394	2.62365	0.90934	2.41543
2608.000	1.20184	2.62166	0.97062	2.44120
2609.000	1.18603	2.61770	0.90539	2.43132
2610.000	1.15046	2.65346	0.88760	2.39162
2611.000	1.16825	2.61574	0.99829	2.41934
2612.000	1.17022	2.60184	0.97259	2.43326
2613.000	1.20382	2.59585	0.95876	2.43327
2614.000	1.18603	2.60381	0.91527	2.50676
2615.000	1.18603	2.60778	0.83819	2.48696
2616.000	1.18603	2.62564	0.91923	2.48293
2617.000	1.17813	2.60977	0.84214	2.53063
2618.000	1.16627	2.65543	0.91527	2.45712
2619.000	1.20579	2.62761	0.95085	2.46504
2620.000	1.18801	2.65541	0.91132	2.42138
2621.000	1.17418	2.61573	0.91330	2.45712
2622.000	1.17418	2.60581	0.90539	2.48493
2623.000	1.20975	2.63554	0.94887	2.45511
2624.000	1.20184	2.68914	0.93504	2.47299
2625.000	1.17813	2.67725	0.90342	2.50875
2626.000	1.21172	2.68318	0.88365	2.53458
2627.000	1.20579	2.62761	0.97457	2.48686
2628.000	1.21370	2.66333	0.99829	2.51265
2629.000	1.23346	2.67522	0.95876	2.47298
2630.000	1.19789	2.65342	0.89551	2.50876
2631.000	1.24532	2.65536	0.96666	2.47496
2632.000	1.20382	2.63555	0.89946	2.49684
2633.000	1.21567	2.62165	0.93702	2.47498
2634.000	1.19987	2.64349	0.85796	2.52864
2635.000	1.18998	2.64152	0.96469	2.45312
2636.000	1.19987	2.64548	0.95085	2.39753
2637.000	1.22753	2.63950	0.85005	2.44327
2638.000	1.18406	2.66534	0.89946	2.48096
2639.000	1.18208	2.61969	0.90539	2.46904
2640.000	1.19591	2.60777	0.98840	2.42133
2641.000	1.20184	2.66532	1.01410	2.49279
2642.000	1.18406	2.67328	0.87970	2.50877
2643.000	1.26903	2.65732	0.96271	2.51665
2644.000	1.18010	2.63756	0.99829	2.45111
2645.000	1.23148	2.65934	0.92713	2.52065
2646.000	1.17022	2.63161	0.94690	2.46504
2647.000	1.22358	2.69904	0.96469	2.44517
2648.000	1.19591	2.64548	0.86981	2.51672
2649.000	1.16825	2.63360	0.96469	2.44915
2650.000	1.20184	2.67525	0.98445	2.41935
2651.000	1.21567	2.67523	0.92318	2.45315
2652.000	1.16825	2.64948	0.93504	2.44321
2653.000	1.20382	2.63952	0.95678	2.47099
2654.000	1.19394	2.61968	0.89749	2.49883
2655.000	1.20975	2.63753	0.90342	2.48096
2656.000	1.17813	2.62367	0.97259	2.42730
2657.000	1.15046	2.64156	1.00224	2.49677
2658.000	1.20382	2.61173	0.92318	2.44520
2659.000	1.20579	2.60578	0.98050	2.42332
2660.000	1.16429	2.56016	0.96073	2.40547
2661.000	1.19591	2.60182	0.97852	2.42134
2662.000	1.20777	2.60974	1.00619	2.45706
2663.000	1.18801	2.65144	0.99236	2.41934
2664.000	1.18801	2.62366	0.95480	2.47496
2665.000	1.23148	2.62361	0.97457	2.46701
2666.000	1.22160	2.60378	0.97259	2.45708
2667.000	1.18406	2.64946	0.94887	2.54049
2668.000	1.19394	2.63556	0.89946	2.50081
2669.000	1.22160	2.64347	0.91132	2.50081
2670.000	1.17418	2.64947	0.98840	2.44119
2671.000	1.19394	2.63754	0.88365	2.42339
2672.000	1.14453	2.61774	0.95085	2.44916
2673.000	1.22358	2.63156	0.97852	2.42531
2674.000	1.21172	2.60974	0.92713	2.51668
2675.000	1.17022	2.58398	0.92911	2.47498
2676.000	1.16627	2.64154	0.95283	2.42533
2677.000	1.18603	2.63755	0.97259	2.48289
2678.000	1.17813	2.60382	1.04967	2.47489
2679.000	1.22358	2.62759	0.91330	2.47499
2680.000	1.20184	2.59983	0.97062	2.47297
2681.000	1.17813	2.59389	0.97852	2.43127
2682.000	1.18998	2.61969	0.98445	2.45707
2683.000	1.20777	2.62165	0.97852	2.37567
2684.000	1.17220	2.60382	0.96271	2.41142
2685.000	1.18801	2.61572	0.98445	2.47296
2686.000	1.17813	2.58794	0.93504	2.50476
2687.000	1.18208	2.56610	0.93899	2.53255
2688.000	1.18603	2.60579	0.98247	2.33794
2689.000	1.16627	2.61772	0.95283	2.47298
2690.000	1.23544	2.60972	0.99829	2.44118
2691.000	1.16825	2.58596	1.00619	2.46103
2692.000	1.22358	2.62362	0.88167	2.50083
2693.000	1.19394	2.60380	1.03584	2.39945
2694.000	1.16232	2.60383	0.96073	2.44121
2695.000	1.21370	2.58790	0.95283	2.48688
2696.000	1.18801	2.59785	0.95480	2.42334
2697.000	1.16429	2.63559	1.01410	2.47294
2698.000	1.18603	2.61770	1.02595	2.40343
2699.000	1.20579	2.62364	1.02200	2.47094
2700.000	1.19987	2.58990	1.02991	2.43321
2701.000	1.17813	2.59389	0.97062	2.42333
2702.000	1.14453	2.55224	0.96271	2.42334
2703.000	1.19196	2.59983	0.93899	2.47895
2704.000	1.18603	2.60976	0.94295	2.45909
2705.000	1.22555	2.62561	0.98840	2.53649
2706.000	1.19394	2.60380	0.98445	2.47097
2707.000	1.18801	2.61175	0.92713	2.45116
2708.000	1.19987	2.57998	1.02200	2.45109
2709.000	1.20382	2.60975	1.02003	2.49080
2710.000	1.22753	2.60179	0.97457	2.34588
2711.000	1.17022	2.60978	0.99038	2.45905
2712.000	1.17022	2.55817	0.97654	2.41935
2713.000	1.16825	2.59986	1.04967	2.46894
2714.000	1.20975	2.57401	1.02003	2.44712
2715.000	1.15837	2.56017	1.02991	2.42726
2716.000	1.19196	2.59189	0.97457	2.47296
2717.000	1.19789	2.57005	1.02200	2.55234
2718.000	1.18208	2.58198	1.07339	2.48480
2719.000	1.16627	2.55420	1.01607	2.45308
2720.000	1.19394	2.52242	0.97654	2.44120
2721.000	1.23148	2.60575	0.95876	2.49283
2722.000	1.19196	2.59983	1.01212	2.45904
2723.000	1.18406	2.56213	0.98643	2.49877
2724.000	1.19789	2.59189	0.94887	2.49284
2725.000	1.21172	2.57203	0.97259	2.43723
2726.000	1.20975	2.57203	0.93306	2.45115
2727.000	1.19789	2.65143	0.99829	2.46103
2728.000	1.18801	2.60182	0.98247	2.47097
2729.000	1.20975	2.60974	0.99433	2.49082
2730.000	1.20975	2.62959	1.00224	2.46103
2731.000	1.19196	2.57800	0.93306	2.49285
2732.000	1.16232	2.56810	0.92911	2.53653
2733.000	1.15441	2.59590	0.99236	2.50075
2734.000	1.15441	2.58200	0.98643	2.48685
2735.000	1.13663	2.58004	0.96666	2.42135
2736.000	1.14453	2.53437	0.92318	2.49683
2737.000	1.14058	2.58003	1.00421	2.42330
2738.000	1.14848	2.56414	0.96073	2.45113
2739.000	1.17220	2.54030	1.03386	2.45307
2740.000	1.15837	2.57208	1.07339	2.43715
2741.000	1.18998	2.60381	1.00026	2.43919
2742.000	1.18208	2.61572	1.05165	2.41334
2743.000	1.16034	2.57803	1.03188	2.39946
2744.000	1.16825	2.59986	0.98643	2.45509
2745.000	1.13860	2.57209	1.01014	2.50470
2746.000	1.13465	2.59790	1.00421	2.47294
2747.000	1.19591	2.59586	1.02398	2.42329
2748.000	1.16825	2.55222	0.96271	2.39752
2749.000	1.13663	2.56217	0.97654	2.49877
2750.000	1.12279	2.55623	0.96666	2.44319
2751.000	1.15441	2.56612	0.96469	2.40546
2752.000	1.20184	2.55020	1.02991	2.47094
2753.000	1.12082	2.56218	1.00026	2.44316
2754.000	1.16232	2.54627	0.95678	2.43525
2755.000	1.13860	2.56614	0.98643	2.45906
2756.000	1.16429	2.58001	0.92318	2.53852
2757.000	1.15639	2.54627	1.04769	2.46497
2758.000	1.16825	2.57405	1.06351	2.45106
2759.000	1.15639	2.58796	1.07339	2.52649
2760.000	1.17022	2.62367	0.97852	2.45112
2761.000	1.15837	2.60979	0.98445	2.45310
2762.000	1.14058	2.56614	0.95480	2.49085
2763.000	1.14058	2.50063	1.03386	2.45108
2764.000	1.19394	2.57998	1.02595	2.45506
2765.000	1.17418	2.56015	1.09710	2.38154
2766.000	1.19987	2.54822	0.92911	2.48094
2767.000	1.13070	2.57409	0.99038	2.49281
2768.000	1.17022	2.53633	0.96271	2.46305
2769.000	1.16825	2.54825	1.02003	2.46300
2770.000	1.18208	2.55617	0.99631	2.46302
2771.000	1.23148	2.57598	1.01410	2.46301
2772.000	1.18406	2.53434	1.09117	2.37558
2773.000	1.18010	2.55419	0.99433	2.48486
2774.000	1.17220	2.56412	1.04374	2.41136
2775.000	1.17813	2.54625	1.04572	2.55828
2776.000	1.14848	2.53040	0.99631	2.49677
2777.000	1.15837	2.54031	0.98050	2.49679
2778.000	1.15244	2.57407	1.07339	2.35971
2779.000	1.14058	2.58599	1.02398	2.50469
2780.000	1.17220	2.55618	0.99631	2.51067
2781.000	1.16429	2.56810	1.06548	2.48282
2782.000	1.18208	2.51250	1.07339	2.47686
2783.000	1.17813	2.53434	1.07141	2.51260
2784.000	1.19789	2.57005	0.96666	2.53253
2785.000	1.08920	2.52846	1.03781	2.54439
2786.000	1.17220	2.55023	1.05165	2.59996
2787.000	1.17615	2.56015	1.02793	2.52454
2788.000	1.21963	2.55018	1.02003	2.54043
2789.000	1.15837	2.59391	1.02003	2.47690
2790.000	1.20184	2.58395	1.00619	2.59007
2791.000	1.16429	2.56810	0.99038	2.46700
2792.000	1.18010	2.55221	0.99631	2.46501
2793.000	1.14256	2.56614	1.04177	2.54240
2794.000	1.20975	2.53034	0.99631	2.50471
2795.000	1.12477	2.55623	0.97654	2.41538
2796.000	1.19394	2.55616	1.03781	2.41335
2797.000	1.20184	2.58395	1.03386	2.49079
2798.000	1.18603	2.56411	1.01212	2.51661
2799.000	1.19196	2.54822	1.08524	2.48082
2800.000	1.19394	2.52440	1.02003	2.46697
2801.000	1.20579	2.54821	1.01014	2.43918
2802.000	1.18801	2.54029	1.03584	2.42328
2803.000	1.20184	2.57402	1.03188	2.47094
2804.000	1.21172	2.52637	0.99236	2.42133
2805.000	1.16034	2.47282	0.99236	2.52854
2806.000	1.18603	2.49066	0.97457	2.44120
2807.000	1.19987	2.56807	1.08129	2.47685
2808.000	1.20184	2.51050	1.01014	2.45705
2809.000	1.21567	2.51644	1.02595	2.50271
2810.000	1.19591	2.53234	1.01212	2.55036
2811.000	1.18603	2.53632	1.03584	2.51461
2812.000	1.20184	2.54425	1.12082	2.49866
2813.000	1.22358	2.57400	1.00619	2.47493
2814.000	1.19591	2.53631	1.01805	2.53249
2815.000	1.16034	2.52245	1.10106	2.49272
2816.000	1.15837	2.48473	0.97457	2.46105
2817.000	1.26508	2.54815	1.04177	2.54835
2818.000	1.19987	2.50851	1.01410	2.50669
2819.000	1.21370	2.54026	1.08920	2.50266
2820.000	1.18603	2.55617	1.08524	2.53641
2821.000	1.23346	2.58392	1.08327	2.51259
2822.000	1.20184	2.54623	1.11884	2.44307
2823.000	1.23939	2.54024	1.08722	2.55626
2824.000	1.21172	2.51247	1.01014	2.49875
2825.000	1.18998	2.52639	1.14848	2.56017
2826.000	1.22160	2.49658	1.04374	2.51063
2827.000	1.23939	2.57398	1.08327	2.48479
2828.000	1.21963	2.58393	1.09710	2.41728
2829.000	1.18801	2.52441	1.02398	2.57815
2830.000	1.22160	2.57996	1.06943	2.44311
2831.000	1.25322	2.58390	1.12082	2.46888
2832.000	1.26705	2.57197	1.00619	2.45507
2833.000	1.22555	2.55216	1.08129	2.42523
2834.000	1.20382	2.53233	1.07339	2.57414
2835.000	1.18998	2.55021	1.03386	2.49476
2836.000	1.19789	2.53631	1.01607	2.41138
2837.000	1.25915	2.54816	1.05362	2.49276
2838.000	1.23346	2.57796	1.07141	2.52451
2839.000	1.22753	2.53827	1.09513	2.49074
2840.000	1.21765	2.52438	1.05165	2.54239
2841.000	1.22753	2.53430	1.04572	2.55431
2842.000	1.23939	2.55016	1.01410	2.53249
2843.000	1.20184	2.55020	1.05560	2.46893
2844.000	1.23939	2.53031	1.09315	2.49471
2845.000	1.25520	2.53427	1.05560	2.48283
2846.000	1.22358	2.57599	1.06153	2.43915
2847.000	1.23741	2.56009	1.05758	2.51062
2848.000	1.23148	2.57002	1.07141	2.46693
2849.000	1.25124	2.59779	1.05955	2.45503
2850.000	1.26705	2.53823	1.05165	2.51658
2851.000	1.22555	2.50254	1.10698	2.45896
2852.000	1.26705	2.52036	1.01014	2.54044
2853.000	1.25915	2.55213	1.14651	2.40731
2854.000	1.24729	2.53031	1.03584	2.49277
2855.000	1.26903	2.50646	1.03188	2.51660
2856.000	1.28286	2.57593	1.10698	2.47683
2857.000	1.25520	2.49655	1.02200	2.54440
2858.000	1.26508	2.57197	1.04177	2.55232
2859.000	1.27891	2.59379	1.09117	2.50265
2860.000	1.27100	2.59976	1.09117	2.48479
2861.000	1.27891	2.56204	1.06943	2.51855
2862.000	1.29274	2.52034	1.08722	2.47685
2863.000	1.28088	2.56997	1.04374	2.52056
2864.000	1.28681	2.55012	1.13070	2.43313
2865.000	1.30460	2.61957	1.08524	2.41729
2866.000	1.30460	2.58186	1.09513	2.52846
2867.000	1.26508	2.59579	1.13070	2.48078
2868.000	1.31052	2.57987	1.11094	2.50859
2869.000	1.25915	2.55213	1.07734	2.61185
2870.000	1.26508	2.57793	1.15837	2.51451
2871.000	1.29076	2.55805	1.07141	2.47488
2872.000	1.29867	2.56599	1.16825	2.52442
2873.000	1.29472	2.61164	1.09513	2.49471
2874.000	1.32040	2.54214	1.08920	2.51854
2875.000	1.30460	2.57789	1.12082	2.53836
2876.000	1.28088	2.57791	1.07932	2.48083
2877.000	1.30064	2.56201	1.07339	2.55428
2878.000	1.30855	2.57789	1.14848	2.47680
2879.000	1.32040	2.55207	1.10698	2.54234
2880.000	1.27891	2.56998	1.03386	2.53446
2881.000	1.30855	2.56002	1.06351	2.53444
2882.000	1.26903	2.56006	1.06746	2.55826
2883.000	1.24532	2.52435	1.04967	2.41136
2884.000	1.22555	2.42114	1.04967	2.52651
2885.000	1.10501	2.37160	1.03584	2.31208
2886.000	1.02793	2.29024	0.93306	2.31414
2887.000	0.93306	2.11552	0.90342	2.12944
2888.000	0.81249	1.98446	0.76901	2.01627
2889.000	0.67017	1.86332	0.70773	1.89907
2890.000	0.55947	1.66064	0.63657	1.70434
2891.000	0.43296	1.56923	0.45470	1.52549
2892.000	0.31039	1.37641	0.42505	1.29884
2893.000	0.30446	1.13779	0.35388	1.10597
2894.000	0.20561	0.97870	0.27480	0.95682
2895.000	0.19968	0.81760	0.34993	0.71615
2896.000	0.19375	0.65449	0.32225	0.61072
2897.000	0.23724	0.51724	0.37167	0.52320
2898.000	0.26096	0.42971	0.43493	0.36803
2899.000	0.30248	0.33621	0.45470	0.32625
2900.000	0.38353	0.25265	0.48831	0.25464
2901.000	0.44284	0.22281	0.62866	0.38791
2902.000	0.52784	0.19893	0.68796	0.22081
2903.000	0.60692	0.20490	0.67017	0.29044
2904.000	0.64843	0.26060	0.75517	0.35011
2905.000	0.73540	0.25065	0.72552	0.37796
2906.000	0.76505	0.23672	0.77098	0.36602
2907.000	0.78877	0.30833	0.86388	0.38391
2908.000	0.85400	0.40579	0.84214	0.55100
2909.000	0.84807	0.46348	0.83621	0.49133
2910.000	0.83621	0.49928	0.71564	0.61864
2911.000	0.85400	0.58083	0.66424	0.65246
2912.000	0.83621	0.65642	0.65436	0.67235
2913.000	0.83028	0.70216	0.65436	0.73799
2914.000	0.79075	0.76383	0.66227	0.78175
2915.000	0.83621	0.83740	0.58517	0.81955
2916.000	0.74924	0.86328	0.61878	0.88717
2917.000	0.77889	0.84338	0.58913	0.88319
2918.000	0.74924	0.87919	0.58913	0.88319
2919.000	0.76901	0.91100	0.63262	0.93092
2920.000	0.72552	0.90703	0.56936	0.92496
2921.000	0.76308	0.90902	0.53971	0.90906
2922.000	0.70180	0.85135	0.54366	0.88519
2923.000	0.71168	0.86129	0.56540	0.87723
2924.000	0.70971	0.83942	0.58517	0.92496
2925.000	0.70773	0.80760	0.56145	0.83745
2926.000	0.68006	0.79965	0.54959	0.80364
2927.000	0.67610	0.78771	0.57727	0.78176
2928.000	0.62668	0.71612	0.53378	0.73602
2929.000	0.62668	0.68429	0.53180	0.70618
2930.000	0.62866	0.65843	0.48238	0.73603
2931.000	0.60692	0.64451	0.60889	0.74794
2932.000	0.62668	0.60871	0.57924	0.59280
2933.000	0.60494	0.57291	0.60296	0.59081
2934.000	0.62471	0.58882	0.62273	0.53511
2935.000	0.59703	0.55302	0.65238	0.61666
2936.000	0.60692	0.53909	0.56738	0.47942
2937.000	0.62668	0.46151	0.64448	0.52317
2938.000	0.58913	0.47743	0.63855	0.55301
2939.000	0.62866	0.45554	0.71366	0.51123
2940.000	0.62471	0.49533	0.68401	0.53510
2941.000	0.65041	0.47941	0.73145	0.53908
2942.000	0.62075	0.44162	0.67808	0.50925
2943.000	0.66622	0.47344	0.64052	0.50527
2944.000	0.63262	0.46151	0.64448	0.56097
2945.000	0.61878	0.46748	0.62273	0.50527
2946.000	0.69785	0.46349	0.55552	0.54904
2947.000	0.66622	0.44559	0.62668	0.61070
2948.000	0.63262	0.48538	0.60692	0.56694
2949.000	0.67017	0.50129	0.58320	0.57490
2950.000	0.68994	0.50726	0.66029	0.54306
2951.000	0.69587	0.46747	0.58122	0.65048
2952.000	0.70575	0.51919	0.68796	0.52914
2953.000	0.67808	0.47145	0.72750	0.56891
2954.000	0.70773	0.46946	0.63459	0.55500
2955.000	0.71366	0.48140	0.63064	0.54705
2956.000	0.73540	0.51322	0.54564	0.61071
2957.000	0.72947	0.49731	0.62273	0.53909
2958.000	0.68796	0.52118	0.66029	0.57091
2959.000	0.75122	0.55897	0.66820	0.59677
2960.000	0.71959	0.53311	0.65436	0.60473
2961.000	0.72354	0.55897	0.61285	0.57092
2962.000	0.68796	0.56693	0.68401	0.64450
2963.000	0.69389	0.55301	0.57331	0.56694
2964.000	0.69389	0.55897	0.67215	0.62263
2965.000	0.67610	0.56096	0.64645	0.54307
2966.000	0.68796	0.60074	0.59901	0.62264
2967.000	0.73145	0.58085	0.68401	0.59080
2968.000	0.70378	0.59279	0.62471	0.56097
2969.000	0.70971	0.59279	0.68994	0.59080
2970.000	0.71564	0.59676	0.63855	0.63655
2971.000	0.71959	0.59477	0.59703	0.68430
2972.000	0.73540	0.57886	0.61878	0.62263
2973.000	0.68599	0.55301	0.65041	0.59677
2974.000	0.68401	0.55500	0.63657	0.69821
2975.000	0.70971	0.63058	0.61285	0.63059
2976.000	0.70773	0.60273	0.69785	0.53510
2977.000	0.72552	0.52317	0.63262	0.57091
2978.000	0.70180	0.57091	0.65238	0.64252
2979.000	0.70378	0.53112	0.62668	0.60672
2980.000	0.67610	0.56693	0.58913	0.68032
2981.000	0.67413	0.53511	0.68006	0.52914
2982.000	0.66227	0.53113	0.60296	0.52119
2983.000	0.69785	0.57687	0.64448	0.65445
2984.000	0.66029	0.56097	0.63064	0.63656
2985.000	0.69982	0.55301	0.65634	0.59080
2986.000	0.67413	0.58881	0.62075	0.63855
2987.000	0.67215	0.56892	0.65634	0.63854
2988.000	0.66227	0.61666	0.61482	0.59678
2989.000	0.69587	0.60671	0.61285	0.61269
2990.000	0.70378	0.55300	0.65041	0.64650
2991.000	0.65436	0.53312	0.60494	0.62462
2992.000	0.68401	0.54505	0.74529	0.61466
2993.000	0.67413	0.55898	0.57133	0.61667
2994.000	0.67808	0.49532	0.60494	0.61070
2995.000	0.70773	0.52317	0.61285	0.64054
2996.000	0.68599	0.53908	0.67610	0.65644
2997.000	0.70378	0.55499	0.71761	0.63455
2998.000	0.69785	0.54505	0.65041	0.64849
2999.000	0.69389	0.53908	0.64448	0.63456
3000.000	0.67413	0.54903	0.57924	0.66441
3001.000	0.70773	0.55300	0.59308	0.65446
3002.000	0.69587	0.56295	0.66424	0.65246
3003.000	0.67610	0.52516	0.64052	0.66440
3004.000	0.64843	0.58683	0.67413	0.67235
3005.000	0.66622	0.62263	0.60494	0.64253
3006.000	0.61680	0.54108	0.62668	0.63059
3007.000	0.65238	0.55898	0.66227	0.59080
3008.000	0.68203	0.56892	0.67215	0.63456
3009.000	0.68203	0.56693	0.70773	0.63853
3010.000	0.64843	0.52516	0.66424	0.59478
3011.000	0.70575	0.56494	0.63657	0.65644
3012.000	0.68203	0.56693	0.63657	0.61666
3013.000	0.67215	0.51124	0.64645	0.58882
3014.000	0.65238	0.49135	0.65831	0.62263
3015.000	0.66227	0.49930	0.70180	0.60671
3016.000	0.67413	0.52317	0.75912	0.65444
3017.000	0.66622	0.50129	0.74529	0.54305
3018.000	0.64448	0.51920	0.70378	0.56892
3019.000	0.68401	0.52715	0.61680	0.53312
3020.000	0.68401	0.52118	0.65238	0.52715
3021.000	0.73145	0.55300	0.59506	0.61667
3022.000	0.66820	0.55301	0.63459	0.59677
3023.000	0.68203	0.51322	0.67610	0.59677
3024.000	0.68006	0.51521	0.61285	0.59081
3025.000	0.71366	0.55101	0.70971	0.62461
3026.000	0.67808	0.51919	0.65238	0.67236
3027.000	0.66820	0.53113	0.64843	0.57489
3028.000	0.72552	0.57488	0.69785	0.64649
3029.000	0.63262	0.49334	0.73540	0.60472
3030.000	0.67413	0.53908	0.74133	0.65046
3031.000	0.66622	0.52914	0.72354	0.64251
3032.000	0.69982	0.59279	0.70180	0.57488
3033.000	0.71168	0.56096	0.66820	0.62064
3034.000	0.69192	0.56096	0.65634	0.57290
3035.000	0.67610	0.57489	0.70378	0.61268
3036.000	0.66424	0.54505	0.63459	0.60274
3037.000	0.73343	0.57488	0.69587	0.57687
3038.000	0.72552	0.55499	0.63064	0.65048
3039.000	0.69982	0.58682	0.65041	0.65445
3040.000	0.69192	0.57489	0.69982	0.66439
3041.000	0.67413	0.55500	0.66227	0.61865
3042.000	0.72552	0.57886	0.67610	0.61069
3043.000	0.71761	0.56295	0.66227	0.60473
3044.000	0.70971	0.55897	0.70180	0.60870
3045.000	0.67610	0.56892	0.66029	0.64451
3046.000	0.71168	0.56693	0.67610	0.60870
3047.000	0.71959	0.53112	0.68994	0.62064
3048.000	0.69192	0.53113	0.62866	0.62064
3049.000	0.66029	0.52516	0.73145	0.59676
3050.000	0.65041	0.55500	0.65634	0.62661
3051.000	0.67413	0.55500	0.67215	0.67832
3052.000	0.67017	0.52914	0.68994	0.65843
3053.000	0.63657	0.55301	0.68401	0.60075
3054.000	0.64052	0.57091	0.66029	0.53909
3055.000	0.62668	0.52119	0.66424	0.57290
3056.000	0.68203	0.52914	0.68006	0.65246
3057.000	0.65436	0.54903	0.63064	0.59677
3058.000	0.69982	0.55301	0.64843	0.59876
3059.000	0.64645	0.53511	0.63064	0.64849
3060.000	0.62866	0.52119	0.64052	0.65843
3061.000	0.64645	0.56495	0.66820	0.65445
3062.000	0.66820	0.58086	0.64250	0.63059
3063.000	0.69587	0.59478	0.68203	0.63854
3064.000	0.70180	0.59279	0.62866	0.56097
3065.000	0.69587	0.58682	0.66424	0.59080
3066.000	0.68401	0.56693	0.71959	0.59080
3067.000	0.68599	0.61666	0.70773	0.57886
3068.000	0.69587	0.58881	0.74331	0.59079
3069.000	0.66820	0.58881	0.64052	0.62462
3070.000	0.69982	0.60870	0.66227	0.63456
3071.000	0.67413	0.50925	0.65238	0.58683
3072.000	0.67215	0.56693	0.70971	0.62859
3073.000	0.69389	0.57687	0.64448	0.65644
3074.000	0.68401	0.58682	0.70773	0.64052
3075.000	0.68401	0.57887	0.74331	0.62858
3076.000	0.66227	0.56892	0.72552	0.59676
3077.000	0.67215	0.56096	0.67215	0.59876
3078.000	0.67413	0.60274	0.72947	0.65444
3079.000	0.68006	0.61467	0.72552	0.55897
3080.000	0.67808	0.54107	0.74924	0.65643
3081.000	0.67215	0.55898	0.69785	0.64649
3082.000	0.69785	0.56892	0.64645	0.68628
3083.000	0.69785	0.59478	0.72552	0.60870
3084.000	0.71761	0.58881	0.67017	0.65843
3085.000	0.70180	0.59279	0.68006	0.67633
3086.000	0.69192	0.54903	0.67017	0.66837
3087.000	0.70180	0.60870	0.61482	0.63457
3088.000	0.71168	0.60273	0.67413	0.67036
3089.000	0.71168	0.60870	0.72750	0.62063
3090.000	0.69785	0.58483	0.66424	0.62859
3091.000	0.70575	0.61268	0.71366	0.70616
3092.000	0.66820	0.61666	0.71761	0.66240
3093.000	0.69785	0.57489	0.74133	0.68030
3094.000	0.69587	0.58284	0.67215	0.60472
3095.000	0.68401	0.61467	0.72354	0.66439
3096.000	0.69982	0.63058	0.67017	0.59677
3097.000	0.71761	0.60074	0.70971	0.63654
3098.000	0.70575	0.63257	0.72157	0.63058
3099.000	0.68006	0.62859	0.70378	0.58085
3100.000	0.69192	0.58085	0.65041	0.62064
3101.000	0.66820	0.56892	0.73343	0.69024
3102.000	0.70180	0.61069	0.68994	0.64649
3103.000	0.71366	0.58881	0.71761	0.69423
3104.000	0.69785	0.55698	0.69192	0.63257
3105.000	0.67017	0.60274	0.60099	0.68032
3106.000	0.65634	0.57290	0.77098	0.61466
3107.000	0.67017	0.61666	0.65831	0.63257
3108.000	0.68006	0.62859	0.68796	0.63655
3109.000	0.67215	0.56494	0.66227	0.62462
3110.000	0.68599	0.57290	0.64250	0.68230
3111.000	0.72157	0.57289	0.70575	0.65246
3112.000	0.67808	0.55500	0.66029	0.63257
3113.000	0.69389	0.54505	0.64052	0.67037
3114.000	0.70773	0.54704	0.71959	0.56494
3115.000	0.68401	0.53113	0.66820	0.68827
3116.000	0.68599	0.58284	0.64843	0.68429
3117.000	0.68203	0.57290	0.67413	0.65047
3118.000	0.69192	0.57886	0.71761	0.62262
3119.000	0.67808	0.53312	0.71564	0.72605
3120.000	0.67413	0.55500	0.76901	0.64648
3121.000	0.66029	0.58682	0.73738	0.69820
3122.000	0.71168	0.60472	0.59901	0.68629
3123.000	0.72552	0.55698	0.57924	0.65048
3124.000	0.68599	0.54306	0.66622	0.65843
3125.000	0.69192	0.54107	0.69982	0.58682
3126.000	0.71168	0.57488	0.66029	0.64252
3127.000	0.68203	0.60273	0.72750	0.61466
3128.000	0.70180	0.54306	0.71168	0.65445
3129.000	0.69785	0.56494	0.66227	0.61666
3130.000	0.71366	0.58483	0.70971	0.65842
3131.000	0.68599	0.57886	0.70180	0.63853
3132.000	0.72947	0.55300	0.69982	0.61864
3133.000	0.70378	0.56096	0.69587	0.70218
3134.000	0.72947	0.56891	0.69982	0.61268
3135.000	0.73343	0.63057	0.68401	0.66439
3136.000	0.70378	0.58284	0.67808	0.60273
3137.000	0.71959	0.54704	0.71168	0.61864
3138.000	0.69785	0.58085	0.68401	0.57290
3139.000	0.74331	0.55101	0.68203	0.59677
3140.000	0.73738	0.58284	0.68006	0.63655
3141.000	0.72947	0.59875	0.69785	0.58483
3142.000	0.69587	0.55301	0.77494	0.61665
3143.000	0.70378	0.56295	0.69192	0.65246
3144.000	0.71366	0.59875	0.71959	0.63853
3145.000	0.74726	0.57488	0.66029	0.61865
3146.000	0.72947	0.58284	0.69192	0.56096
3147.000	0.75912	0.57886	0.67808	0.60472
3148.000	0.71761	0.59278	0.70773	0.63257
3149.000	0.76308	0.56692	0.69587	0.61666
3150.000	0.74924	0.57886	0.71564	0.63058
3151.000	0.70773	0.57091	0.67413	0.62064
3152.000	0.71168	0.58284	0.74331	0.58681
3153.000	0.74529	0.57886	0.77889	0.56891
3154.000	0.76505	0.60073	0.70971	0.54306
3155.000	0.77691	0.58482	0.68401	0.62461
3156.000	0.73540	0.56891	0.74726	0.62659
3157.000	0.74924	0.53908	0.65634	0.63456
3158.000	0.74726	0.57289	0.68599	0.68627
3159.000	0.77296	0.57488	0.67413	0.55699
3160.000	0.75715	0.57090	0.70378	0.59676
3161.000	0.75517	0.57090	0.69192	0.57688
3162.000	0.76505	0.59079	0.67808	0.67235
3163.000	0.76703	0.60471	0.67215	0.64848
3164.000	0.78482	0.56294	0.61878	0.65446
3165.000	0.74331	0.60869	0.71168	0.55300
3166.000	0.76901	0.58880	0.62075	0.53312
3167.000	0.73343	0.56891	0.63855	0.65446
3168.000	0.78087	0.59476	0.59901	0.60672
3169.000	0.74924	0.56294	0.68599	0.63058
3170.000	0.80261	0.61067	0.73343	0.59676
3171.000	0.77889	0.60073	0.68203	0.54306
3172.000	0.78284	0.62460	0.71168	0.62859
3173.000	0.77691	0.60073	0.71959	0.57687
3174.000	0.77889	0.58084	0.64052	0.61467
3175.000	0.83226	0.61266	0.64052	0.57489
3176.000	0.74726	0.59278	0.76505	0.51719
3177.000	0.76505	0.55499	0.74133	0.61466
3178.000	0.78482	0.60670	0.67808	0.60671
3179.000	0.74133	0.58085	0.73343	0.59477
3180.000	0.79668	0.60272	0.59506	0.61269
3181.000	0.76308	0.58283	0.70773	0.59080
3182.000	0.76505	0.58880	0.66227	0.58484
3183.000	0.76505	0.59477	0.68796	0.61467
3184.000	0.78680	0.56692	0.72157	0.59676
3185.000	0.76901	0.55697	0.62668	0.58882
3186.000	0.78284	0.58283	0.62866	0.60473
3187.000	0.72157	0.58881	0.63657	0.60274
3188.000	0.74133	0.54902	0.72750	0.60074
3189.000	0.78284	0.59079	0.73936	0.59676
3190.000	0.75122	0.56096	0.63262	0.63655
3191.000	0.73145	0.60870	0.67413	0.59876
3192.000	0.76110	0.58880	0.75715	0.67234
3193.000	0.73540	0.58085	0.72157	0.63257
3194.000	0.78680	0.54703	0.73540	0.59676
3195.000	0.78284	0.58283	0.79273	0.54504
3196.000	0.71761	0.57886	0.68796	0.52317
3197.000	0.73343	0.57488	0.68401	0.59279
3198.000	0.74726	0.56096	0.71168	0.60870
3199.000	0.77494	0.60272	0.64250	0.64849
3200.000	0.72354	0.59477	0.75517	0.63256
3201.000	0.74924	0.60670	0.64843	0.60473
3202.000	0.75122	0.59278	0.62668	0.64849
3203.000	0.78877	0.58283	0.71564	0.66837
3204.000	0.75517	0.61864	0.64052	0.58683
3205.000	0.74529	0.60273	0.74331	0.60273
3206.000	0.75715	0.58482	0.70575	0.66638
3207.000	0.77296	0.59278	0.68796	0.62262
3208.000	0.77098	0.60272	0.63855	0.67634
3209.000	0.73540	0.63853	0.76308	0.61864
3210.000	0.79273	0.61068	0.59110	0.66441
3211.000	0.72947	0.62262	0.70575	0.67036
3212.000	0.76505	0.60073	0.73738	0.65245
3213.000	0.77296	0.60073	0.65238	0.57489
3214.000	0.71168	0.63257	0.66227	0.59279
3215.000	0.76901	0.63853	0.73738	0.60472
3216.000	0.77494	0.66040	0.55552	0.66242
3217.000	0.76505	0.67035	0.65238	0.66042
3218.000	0.75912	0.60869	0.72552	0.66240
3219.000	0.76505	0.57885	0.65634	0.67037
3220.000	0.73343	0.61864	0.73540	0.65444
3221.000	0.73343	0.60472	0.66227	0.68031
3222.000	0.73936	0.62262	0.66424	0.59279
3223.000	0.76703	0.62858	0.60494	0.67236
3224.000	0.72750	0.63455	0.69785	0.68229
3225.000	0.76110	0.64250	0.70378	0.66240
3226.000	0.76703	0.64250	0.69192	0.63854
3227.000	0.75715	0.61665	0.71959	0.66837
3228.000	0.70773	0.60273	0.72750	0.68826
3229.000	0.77098	0.64250	0.69982	0.60273
3230.000	0.76901	0.61267	0.71564	0.62461
3231.000	0.72552	0.58284	0.67808	0.62064
3232.000	0.78482	0.62460	0.69587	0.63854
3233.000	0.70971	0.59477	0.69587	0.60472
3234.000	0.72354	0.59477	0.72947	0.60671
3235.000	0.77889	0.61664	0.68796	0.61268
3236.000	0.75122	0.60869	0.71168	0.62660
3237.000	0.74924	0.60869	0.70378	0.63853
3238.000	0.76703	0.62460	0.71564	0.67434
3239.000	0.76308	0.58681	0.73343	0.61665
3240.000	0.70575	0.62859	0.78284	0.64250
3241.000	0.76110	0.61267	0.67215	0.61666
3242.000	0.73936	0.64251	0.68401	0.65843
3243.000	0.73936	0.64450	0.73738	0.62858
3244.000	0.74924	0.64648	0.67017	0.58086
3245.000	0.75122	0.62063	0.67413	0.63655
3246.000	0.76703	0.63853	0.72552	0.64649
3247.000	0.78482	0.61664	0.78087	0.61466
3248.000	0.75319	0.63256	0.65634	0.61467
3249.000	0.71564	0.64251	0.72750	0.58881
3250.000	0.75517	0.66041	0.71366	0.61665
3251.000	0.79470	0.63852	0.73343	0.63057
3252.000	0.72750	0.65643	0.71168	0.59875
3253.000	0.77296	0.62659	0.68006	0.66042
3254.000	0.72157	0.64251	0.72354	0.58881
3255.000	0.72354	0.61665	0.72354	0.62461
3256.000	0.76505	0.62858	0.69982	0.58881
3257.000	0.74331	0.62659	0.64052	0.58484
3258.000	0.75517	0.65046	0.71168	0.58284
3259.000	0.74331	0.62659	0.76901	0.60869
3260.000	0.74133	0.66041	0.71168	0.62461
3261.000	0.73540	0.60273	0.78284	0.66637
3262.000	0.73936	0.58681	0.76901	0.60869
3263.000	0.76703	0.58482	0.74529	0.64648
3264.000	0.76901	0.64648	0.68203	0.65047
3265.000	0.79273	0.63454	0.78482	0.62460
3266.000	0.74529	0.61466	0.73343	0.58880
3267.000	0.72157	0.67036	0.73936	0.53709
3268.000	0.74133	0.64649	0.68599	0.58682
3269.000	0.74924	0.63057	0.71168	0.59676
3270.000	0.75319	0.62659	0.64052	0.58484
3271.000	0.78482	0.65443	0.72354	0.59278
3272.000	0.73540	0.68229	0.68203	0.62064
3273.000	0.77098	0.64250	0.73738	0.66041
3274.000	0.72750	0.65842	0.73540	0.58880
3275.000	0.74529	0.60273	0.76110	0.65842
3276.000	0.76901	0.61864	0.61680	0.58882
3277.000	0.74331	0.66638	0.70773	0.62859
3278.000	0.72947	0.66439	0.69587	0.61467
3279.000	0.74726	0.61864	0.76505	0.58482
3280.000	0.75715	0.62063	0.74529	0.64251
3281.000	0.78877	0.61465	0.68203	0.59080
3282.000	0.74529	0.64251	0.73540	0.58483
3283.000	0.71761	0.60472	0.75122	0.64847
3284.000	0.74924	0.64251	0.68994	0.59677
3285.000	0.77691	0.61267	0.72354	0.65842
3286.000	0.74133	0.62660	0.72552	0.60671
3287.000	0.80656	0.64846	0.70575	0.59676
3288.000	0.74924	0.65643	0.70971	0.61665
3289.000	0.75517	0.64449	0.82238	0.63056
3290.000	0.75912	0.63654	0.72157	0.57289
3291.000	0.77494	0.63654	0.81842	0.64448
3292.000	0.71959	0.63058	0.68006	0.60671
3293.000	0.74726	0.63455	0.68994	0.65445
3294.000	0.72552	0.63455	0.73343	0.60472
3295.000	0.75122	0.63057	0.82435	0.60868
3296.000	0.72750	0.62859	0.71366	0.66439
3297.000	0.72157	0.63058	0.68203	0.60075
3298.000	0.73738	0.64450	0.73738	0.59676
3299.000	0.74924	0.67035	0.71564	0.59875
3300.000	0.74726	0.61665	0.83424	0.61067
3301.000	0.72750	0.62660	0.74726	0.63853
3302.000	0.73540	0.64450	0.74529	0.63256
3303.000	0.74133	0.62660	0.70378	0.65644
3304.000	0.75319	0.63057	0.74529	0.55499
3305.000	0.71959	0.66439	0.77889	0.62460
3306.000	0.71366	0.64052	0.71168	0.65842
3307.000	0.75517	0.67632	0.70971	0.59080
3308.000	0.77098	0.67234	0.80063	0.61465
3309.000	0.76308	0.62858	0.80459	0.56493
3310.000	0.75912	0.63455	0.72947	0.59477
3311.000	0.73738	0.64649	0.77296	0.59874
3312.000	0.74331	0.64847	0.72947	0.60472
3313.000	0.74726	0.64450	0.74924	0.62262
3314.000	0.78087	0.61863	0.75912	0.64250
3315.000	0.70180	0.67832	0.72750	0.66240
3316.000	0.74331	0.66638	0.70378	0.63257
3317.000	0.74924	0.65046	0.83424	0.64448
3318.000	0.74133	0.66638	0.73343	0.59477
3319.000	0.73343	0.63654	0.75319	0.59676
3320.000	0.75122	0.67234	0.79075	0.58880
3321.000	0.69389	0.67434	0.75122	0.60471
3322.000	0.72947	0.66240	0.78877	0.65046
3323.000	0.75517	0.71411	0.72947	0.62660
3324.000	0.72354	0.67831	0.76703	0.61466
3325.000	0.75517	0.65444	0.74133	0.57090
3326.000	0.75319	0.64648	0.74133	0.61267
3327.000	0.74331	0.64251	0.66029	0.59876
3328.000	0.74331	0.65643	0.76505	0.57289
3329.000	0.74726	0.68030	0.76505	0.60272
3330.000	0.76308	0.65842	0.73343	0.59875
3331.000	0.77691	0.69422	0.79075	0.61664
3332.000	0.77494	0.70615	0.76703	0.58283
3333.000	0.74924	0.68825	0.75122	0.61665
3334.000	0.75122	0.67234	0.68796	0.65843
3335.000	0.77691	0.67234	0.72354	0.67632
3336.000	0.76505	0.69621	0.76110	0.58283
3337.000	0.73540	0.71013	0.72750	0.58682
3338.000	0.74924	0.71411	0.83028	0.56890
3339.000	0.73936	0.70019	0.78877	0.55697
3340.000	0.71366	0.67235	0.84807	0.60072
3341.000	0.75122	0.66438	0.86784	0.56691
3342.000	0.72947	0.64848	0.77691	0.57686
3343.000	0.77691	0.66040	0.72552	0.55300
3344.000	0.73738	0.68627	0.75122	0.60471
3345.000	0.75715	0.70217	0.78482	0.56095
3346.000	0.75715	0.66240	0.77098	0.57488
3347.000	0.73145	0.63654	0.81645	0.62857
3348.000	0.73738	0.70616	0.73540	0.56295
3349.000	0.73936	0.68030	0.82633	0.54503
3350.000	0.72552	0.70815	0.73540	0.57886
3351.000	0.76703	0.71212	0.69192	0.63058
3352.000	0.70378	0.67832	0.72354	0.59477
3353.000	0.71564	0.65047	0.81447	0.64250
3354.000	0.77296	0.70814	0.75912	0.58880
3355.000	0.75912	0.71809	0.77889	0.63653
3356.000	0.76308	0.69223	0.79668	0.64449
3357.000	0.74133	0.67035	0.78482	0.61465
3358.000	0.73738	0.70417	0.82831	0.62459
3359.000	0.75517	0.67234	0.76110	0.61068
3360.000	0.75319	0.66438	0.82435	0.59277
3361.000	0.76901	0.70814	0.79273	0.61266
3362.000	0.74924	0.67632	0.75517	0.55300
3363.000	0.74529	0.67632	0.82040	0.60669
3364.000	0.75319	0.65444	0.71168	0.65643
3365.000	0.75319	0.72405	0.77691	0.59079
3366.000	0.69192	0.67036	0.77494	0.64847
3367.000	0.72552	0.73599	0.80261	0.64847
3368.000	0.76703	0.69422	0.81052	0.68427
3369.000	0.73343	0.70019	0.75912	0.58681
3370.000	0.71366	0.69025	0.71761	0.62660
3371.000	0.72354	0.69422	0.69785	0.58682
3372.000	0.73540	0.68229	0.76901	0.65643
3373.000	0.71168	0.68826	0.74331	0.64251
3374.000	0.74133	0.66638	0.74331	0.59875
3375.000	0.74726	0.64648	0.75517	0.62858
3376.000	0.77296	0.69223	0.77098	0.64847
3377.000	0.74924	0.70814	0.72750	0.57488
3378.000	0.78482	0.71609	0.70575	0.59875
3379.000	0.73540	0.69820	0.75319	0.62659
3380.000	0.75319	0.67234	0.77098	0.57090
3381.000	0.77691	0.71808	0.79273	0.56493
3382.000	0.69389	0.67235	0.81249	0.54901
3383.000	0.77889	0.72007	0.81842	0.59874
3384.000	0.76901	0.67234	0.77098	0.52515
3385.000	0.72750	0.67234	0.70971	0.59676
3386.000	0.73936	0.69024	0.81447	0.54305
3387.000	0.78087	0.66040	0.87574	0.66436
3388.000	0.77691	0.70615	0.71366	0.57091
3389.000	0.76110	0.70217	0.68006	0.58284
3390.000	0.74331	0.71809	0.79866	0.62062
3391.000	0.78087	0.72206	0.80063	0.61664
3392.000	0.73738	0.74792	0.76110	0.58482
3393.000	0.73936	0.67433	0.72157	0.64251
3394.000	0.76703	0.70615	0.68796	0.61069
3395.000	0.76308	0.78770	0.72552	0.61665
3396.000	0.76901	0.71212	0.71959	0.61069
3397.000	0.70378	0.66240	0.79668	0.57686
3398.000	0.74133	0.68229	0.77494	0.63256
3399.000	0.74924	0.70218	0.70180	0.58085
3400.000	0.72157	0.71610	0.85203	0.61862
3401.000	0.76505	0.71610	0.85400	0.59674
3402.000	0.74529	0.73002	0.77691	0.61664
3403.000	0.72750	0.69621	0.81447	0.53907
3404.000	0.76308	0.69621	0.70971	0.60472
3405.000	0.76703	0.70217	0.82040	0.59675
3406.000	0.75517	0.68427	0.69389	0.56892
3407.000	0.78087	0.72405	0.80261	0.59277
3408.000	0.75912	0.74195	0.81447	0.55896
3409.000	0.79866	0.74592	0.84017	0.59277
3410.000	0.76703	0.76184	0.81052	0.59675
3411.000	0.75517	0.71610	0.76505	0.57090
3412.000	0.76901	0.74991	0.79866	0.52515
3413.000	0.76308	0.74792	0.80261	0.63056
3414.000	0.74331	0.72604	0.82040	0.55299
3415.000	0.74529	0.72207	0.76505	0.65444
3416.000	0.76703	0.70814	0.84610	0.59476
3417.000	0.78284	0.69620	0.75715	0.57090
3418.000	0.74133	0.70218	0.73936	0.57289
3419.000	0.73738	0.66041	0.79273	0.64051
3420.000	0.73540	0.69223	0.77494	0.58880
3421.000	0.77296	0.71013	0.77494	0.60670
3422.000	0.77691	0.69620	0.82040	0.52912
3423.000	0.80261	0.71211	0.75319	0.52515
3424.000	0.73936	0.72008	0.72157	0.57687
3425.000	0.75517	0.70814	0.77098	0.62858
3426.000	0.76703	0.69422	0.84610	0.54702
3427.000	0.77691	0.75786	0.80261	0.57686
3428.000	0.78087	0.71808	0.84807	0.54702
3429.000	0.75912	0.68825	0.86586	0.52514
3430.000	0.74924	0.72803	0.77296	0.54106
3431.000	0.77296	0.71212	0.74924	0.56096
3432.000	0.79075	0.70416	0.78680	0.54305
3433.000	0.72354	0.69224	0.78482	0.58681
3434.000	0.74529	0.73400	0.77098	0.53509
3435.000	0.72750	0.73599	0.80063	0.64648
3436.000	0.71959	0.73599	0.77691	0.54504
3437.000	0.80261	0.66438	0.75122	0.60471
3438.000	0.76110	0.72604	0.81645	0.58084
3439.000	0.74924	0.68229	0.83424	0.59874
3440.000	0.73343	0.70815	0.81645	0.58680
3441.000	0.78482	0.69421	0.74726	0.56294
3442.000	0.73540	0.72008	0.80656	0.55100
3443.000	0.77098	0.67632	0.77098	0.56891
3444.000	0.76308	0.79168	0.80261	0.51321
3445.000	0.77098	0.73797	0.79470	0.61266
3446.000	0.77691	0.77377	0.80459	0.61664
3447.000	0.76901	0.74593	0.77691	0.57090
3448.000	0.75715	0.69820	0.86784	0.57884
3449.000	0.77296	0.71609	0.81447	0.60272
3450.000	0.76308	0.70217	0.81249	0.55697
3451.000	0.79075	0.73996	0.80656	0.59078
3452.000	0.74726	0.73997	0.84017	0.53509
3453.000	0.76901	0.73400	0.83226	0.64050
3454.000	0.75122	0.73002	0.81249	0.58879
3455.000	0.76901	0.75190	0.76901	0.58482
3456.000	0.75912	0.73201	0.86784	0.55099
3457.000	0.75912	0.76184	0.80656	0.58084
3458.000	0.75319	0.75190	0.84017	0.54304
3459.000	0.79866	0.74195	0.82633	0.54105
3460.000	0.77691	0.71013	0.80656	0.58681
3461.000	0.77889	0.70814	0.79470	0.54901
3462.000	0.74726	0.73201	0.85993	0.58083
3463.000	0.78284	0.73797	0.82238	0.60272
3464.000	0.82238	0.73995	0.76505	0.60272
3465.000	0.75319	0.69621	0.78482	0.57885
3466.000	0.84412	0.75387	0.81052	0.57686
3467.000	0.77691	0.74195	0.80656	0.61266
3468.000	0.75715	0.67035	0.84214	0.61862
3469.000	0.72157	0.72605	0.79075	0.55498
3470.000	0.78680	0.73996	0.85005	0.59873
3471.000	0.79075	0.72405	0.82633	0.58879
3472.000	0.77691	0.71808	0.76703	0.53311
3473.000	0.80459	0.71808	0.86191	0.58879
3474.000	0.81052	0.73996	0.80063	0.58681
3475.000	0.80656	0.76979	0.85005	0.57486
3476.000	0.76308	0.73996	0.79075	0.61266
3477.000	0.77889	0.69819	0.84412	0.55696
3478.000	0.76308	0.71610	0.84807	0.60271
3479.000	0.78877	0.72206	0.81842	0.62459
3480.000	0.79075	0.78769	0.84807	0.55497
3481.000	0.75715	0.76184	0.82831	0.56094
3482.000	0.77296	0.73996	0.81052	0.57686
3483.000	0.74924	0.72207	0.89749	0.61265
3484.000	0.77889	0.73002	0.84807	0.57685
3485.000	0.75517	0.73599	0.82238	0.58879
3486.000	0.79470	0.72802	0.85400	0.57089
3487.000	0.76308	0.75389	0.80261	0.62659
3488.000	0.80261	0.73200	0.82831	0.61067
3489.000	0.77889	0.70416	0.80063	0.54106
3490.000	0.78877	0.73200	0.77889	0.58681
3491.000	0.74331	0.75787	0.82238	0.61067
3492.000	0.77889	0.70814	0.87970	0.62458
3493.000	0.75517	0.72604	0.78087	0.61466
3494.000	0.78284	0.72604	0.89156	0.63254
3495.000	0.75715	0.73996	0.75517	0.63256
3496.000	0.80063	0.75786	0.80459	0.58681
3497.000	0.80459	0.75388	0.78877	0.53907
3498.000	0.79470	0.73399	0.84017	0.58879
3499.000	0.77889	0.71609	0.82040	0.58481
3500.000	0.75715	0.70615	0.74924	0.65444
3501.000	0.75122	0.72207	0.82633	0.56890
3502.000	0.73343	0.76781	0.86784	0.60669
3503.000	0.77889	0.71808	0.79866	0.61465
3504.000	0.80063	0.73200	0.80261	0.59874
3505.000	0.74133	0.73002	0.81052	0.60868
3506.000	0.78087	0.72405	0.87772	0.61066
3507.000	0.76110	0.77974	0.80063	0.60471
3508.000	0.76505	0.74593	0.79273	0.54305
3509.000	0.76703	0.74991	0.81842	0.64846
