time (ms)	lx (deg)	ly (deg)	rx (deg)	ry (deg)
0.000	-0.59901	0.51124	-0.12455	0.75992
1.000	-0.62273	0.51124	-0.12060	0.77583
2.000	-0.58517	0.47146	-0.14827	0.75196
3.000	-0.58517	0.50727	-0.11071	0.72809
4.000	-0.58715	0.46152	-0.05931	0.72611
5.000	-0.59308	0.49931	-0.20165	0.67637
6.000	-0.60692	0.49135	-0.10874	0.70422
7.000	-0.60099	0.47544	-0.20165	0.73804
8.000	-0.65041	0.49533	-0.06129	0.65450
9.000	-0.62668	0.47146	-0.09490	0.65847
10.000	-0.63459	0.46549	-0.11862	0.69428
11.000	-0.65041	0.50925	-0.12653	0.73406
12.000	-0.60889	0.47942	-0.14037	0.68632
13.000	-0.65238	0.47543	-0.08303	0.68234
14.000	-0.65831	0.45554	-0.14827	0.67041
15.000	-0.61878	0.47345	-0.12455	0.70621
16.000	-0.63262	0.47742	-0.20758	0.71417
17.000	-0.60692	0.45356	-0.14234	0.71815
18.000	-0.59110	0.45157	-0.08106	0.73804
19.000	-0.58913	0.45754	-0.03163	0.72213
20.000	-0.61482	0.44958	-0.03756	0.66046
21.000	-0.60494	0.48141	-0.11269	0.69627
22.000	-0.61680	0.42969	-0.08699	0.68632
23.000	-0.58715	0.48737	-0.06129	0.66643
24.000	-0.60099	0.49135	-0.04547	0.72809
25.000	-0.61285	0.43764	-0.09490	0.69030
26.000	-0.60889	0.50130	-0.09885	0.66046
27.000	-0.60889	0.49533	-0.13641	0.67439
28.000	-0.61087	0.49732	-0.08501	0.70025
29.000	-0.55947	0.52517	-0.12060	0.63261
30.000	-0.58715	0.47345	-0.08699	0.71616
31.000	-0.56343	0.41974	-0.12257	0.74997
32.000	-0.60494	0.46151	-0.13048	0.66842
33.000	-0.63064	0.45952	-0.12850	0.68234
34.000	-0.60296	0.48936	-0.06722	0.75992
35.000	-0.60692	0.43764	-0.11862	0.72610
36.000	-0.59703	0.50925	-0.16014	0.70621
37.000	-0.59308	0.48141	-0.13246	0.67836
38.000	-0.61878	0.51124	-0.12850	0.70422
39.000	-0.59901	0.50925	-0.08699	0.70025
40.000	-0.58913	0.43367	-0.10874	0.69826
41.000	-0.58320	0.44162	-0.15223	0.70820
42.000	-0.57133	0.48141	-0.10478	0.69428
43.000	-0.59703	0.42969	-0.13839	0.69428
44.000	-0.57529	0.47345	-0.06326	0.71417
45.000	-0.56738	0.47146	-0.09885	0.76589
46.000	-0.55947	0.50528	-0.07710	0.75395
47.000	-0.60889	0.51920	-0.11269	0.76191
48.000	-0.53773	0.43964	-0.15816	0.73406
49.000	-0.58320	0.51323	-0.10676	0.66842
50.000	-0.55354	0.46351	-0.09292	0.72809
51.000	-0.54564	0.50130	-0.07117	0.66444
52.000	-0.61680	0.49135	-0.02175	0.73406
53.000	-0.60099	0.47544	-0.02175	0.68433
54.000	-0.56145	0.47345	-0.03756	0.70224
55.000	-0.58320	0.46152	-0.07710	0.65847
56.000	-0.55947	0.48340	-0.12455	0.74798
57.000	-0.54761	0.46152	-0.07315	0.72014
58.000	-0.53971	0.45157	-0.06920	0.70025
59.000	-0.60494	0.45754	-0.08501	0.70820
60.000	-0.56343	0.48340	-0.10676	0.75196
61.000	-0.53773	0.46749	-0.10280	0.70621
62.000	-0.55157	0.48937	-0.04745	0.74799
63.000	-0.55157	0.49533	-0.07710	0.66046
64.000	-0.54959	0.48937	-0.05931	0.73605
65.000	-0.54564	0.44958	-0.08501	0.73008
66.000	-0.55750	0.52119	-0.07117	0.73804
67.000	-0.54959	0.49732	-0.15618	0.74997
68.000	-0.54564	0.50329	-0.01384	0.79373
69.000	-0.56936	0.47743	-0.11269	0.72412
70.000	-0.59308	0.49334	-0.09687	0.70422
71.000	-0.54168	0.49335	-0.01186	0.73804
72.000	-0.53773	0.48340	-0.07908	0.75395
73.000	-0.57331	0.53512	-0.13444	0.74401
74.000	-0.59308	0.47942	-0.05931	0.68234
75.000	-0.57331	0.47942	-0.09292	0.79572
76.000	-0.58715	0.48539	-0.09490	0.69030
77.000	-0.53378	0.49534	-0.04745	0.62267
78.000	-0.53180	0.46550	-0.05140	0.55901
79.000	-0.50017	0.37399	-0.00395	0.60874
80.000	-0.48435	0.34217	-0.00395	0.51724
81.000	-0.43296	0.24469	0.01977	0.47745
82.000	-0.41714	0.15915	0.13641	0.41181
83.000	-0.44482	0.02984	0.12653	0.23475
84.000	-0.44482	-0.02984	0.15618	0.18900
85.000	-0.41912	-0.13329	0.20956	0.05968
86.000	-0.42109	-0.24071	0.22538	0.02188
87.000	-0.40923	-0.35013	0.20363	-0.07560
88.000	-0.42109	-0.37201	0.26689	-0.14523
89.000	-0.43098	-0.41577	0.21352	-0.22281
90.000	-0.47249	-0.54507	0.15618	-0.29244
91.000	-0.49424	-0.53114	0.16607	-0.33820
92.000	-0.53180	-0.52318	0.11664	-0.38793
93.000	-0.56936	-0.56893	0.19177	-0.32825
94.000	-0.56738	-0.53711	0.04745	-0.27454
95.000	-0.64645	-0.47146	0.05140	-0.27852
96.000	-0.61680	-0.46947	0.00198	-0.33223
97.000	-0.56738	-0.39985	0.00791	-0.21685
98.000	-0.59308	-0.33023	-0.04152	-0.14523
99.000	-0.60692	-0.29442	-0.00791	-0.05570
100.000	-0.63262	-0.24270	-0.05733	0.00000
101.000	-0.58517	-0.22479	-0.08501	-0.00597
102.000	-0.56936	-0.12334	-0.02966	0.06366
103.000	-0.55354	-0.10146	0.00791	0.06167
104.000	-0.53575	-0.07758	-0.08699	0.08952
105.000	-0.50017	-0.05570	0.05140	0.14921
106.000	-0.51796	-0.07957	-0.01779	0.19894
107.000	-0.50017	-0.05172	-0.01977	0.16910
108.000	-0.49424	-0.05968	-0.00395	0.12732
109.000	-0.48633	-0.06963	0.12653	0.07560
110.000	-0.47447	-0.07560	0.04152	0.11738
111.000	-0.47645	-0.06764	0.04349	0.08952
112.000	-0.51203	-0.07560	0.06129	0.14523
113.000	-0.51005	-0.08952	0.09094	0.06366
114.000	-0.47842	-0.13528	0.09094	0.06565
115.000	-0.51598	-0.12732	0.12257	0.04576
116.000	-0.52587	-0.14721	0.14630	0.06963
117.000	-0.47645	-0.14522	0.14037	0.00199
118.000	-0.49819	-0.17506	0.03361	0.01393
119.000	-0.51203	-0.18103	0.08106	-0.04576
120.000	-0.47645	-0.18302	0.09490	0.04377
121.000	-0.52191	-0.17904	0.07513	-0.03979
122.000	-0.50808	-0.27254	0.14037	0.02984
123.000	-0.51203	-0.23474	0.09094	-0.04775
124.000	-0.51005	-0.22082	0.12257	-0.01989
125.000	-0.53971	-0.23872	0.09490	-0.06366
126.000	-0.53378	-0.24867	0.07117	-0.02387
127.000	-0.49028	-0.22878	0.18188	-0.03780
128.000	-0.48238	-0.25066	0.14630	-0.04775
129.000	-0.49819	-0.25663	0.08303	-0.00199
130.000	-0.50215	-0.24867	0.07117	-0.05968
131.000	-0.45865	-0.18899	0.07315	0.03581
132.000	-0.52982	-0.26856	0.11467	-0.02785
133.000	-0.47249	-0.23673	0.12060	-0.08555
134.000	-0.48238	-0.23474	0.17200	-0.06565
135.000	-0.48238	-0.25265	0.11467	0.02387
136.000	-0.47645	-0.24867	0.09687	-0.04377
137.000	-0.47645	-0.27055	0.03163	-0.05968
138.000	-0.48831	-0.27055	0.10676	-0.13130
139.000	-0.47645	-0.26657	0.18386	-0.08952
140.000	-0.48831	-0.25265	0.07117	-0.10345
141.000	-0.48435	-0.31233	0.05536	-0.02387
142.000	-0.46656	-0.28846	0.03954	-0.07361
143.000	-0.45272	-0.28448	0.12060	-0.01393
144.000	-0.47052	-0.25862	0.15816	-0.12732
145.000	-0.47249	-0.24469	0.09885	-0.02785
146.000	-0.46459	-0.28448	0.20561	-0.04178
147.000	-0.46854	-0.25464	0.07710	-0.05968
148.000	-0.45272	-0.25663	0.12257	-0.03979
149.000	-0.46459	-0.23673	0.07117	-0.13926
150.000	-0.49819	-0.28448	0.07908	-0.14523
151.000	-0.49819	-0.25066	0.09885	-0.05173
152.000	-0.46854	-0.27055	0.13444	-0.05570
153.000	-0.46063	-0.26260	0.08699	-0.04775
154.000	-0.49622	-0.20490	0.09687	-0.05173
155.000	-0.45272	-0.20689	0.10280	-0.05769
156.000	-0.49622	-0.26657	0.13839	-0.06565
157.000	-0.48633	-0.25862	0.08699	-0.04377
158.000	-0.47645	-0.23077	0.08699	0.01790
159.000	-0.48831	-0.25862	0.11467	-0.05570
160.000	-0.45668	-0.26856	0.07513	-0.06963
161.000	-0.45470	-0.27851	0.11467	-0.08356
162.000	-0.44877	-0.26061	0.05536	-0.10345
163.000	-0.46063	-0.24469	0.10478	-0.05371
164.000	-0.48238	-0.25663	0.10478	-0.03183
165.000	-0.42505	-0.25663	0.09094	-0.07958
166.000	-0.45865	-0.27055	0.16804	-0.00796
167.000	-0.48040	-0.20490	0.10676	-0.07560
168.000	-0.44679	-0.25066	0.12653	-0.05570
169.000	-0.44284	-0.24668	0.14827	-0.05570
170.000	-0.50017	-0.29243	0.13444	-0.03581
171.000	-0.48238	-0.23275	0.09885	-0.05570
172.000	-0.44877	-0.23475	0.04349	-0.06167
173.000	-0.44679	-0.21485	0.10083	-0.05769
174.000	-0.44877	-0.25862	0.06524	-0.09151
175.000	-0.46063	-0.24469	0.07117	-0.02785
176.000	-0.43889	-0.24867	0.08699	0.02188
177.000	-0.45272	-0.25862	0.12653	-0.05173
178.000	-0.47447	-0.22082	0.10676	-0.04576
179.000	-0.42109	-0.21485	0.16211	-0.03780
180.000	-0.45668	-0.23872	0.12653	-0.02984
181.000	-0.43296	-0.24469	0.08699	-0.02984
182.000	-0.45865	-0.26856	0.07315	-0.12732
183.000	-0.44679	-0.24071	0.09885	-0.05570
184.000	-0.49622	-0.27055	0.14037	-0.05968
185.000	-0.42307	-0.22679	0.14827	-0.05968
186.000	-0.42505	-0.24469	0.13444	-0.04377
187.000	-0.42900	-0.24071	0.06129	-0.08754
188.000	-0.42505	-0.24668	0.13048	-0.08952
189.000	-0.44679	-0.30437	0.20561	-0.03382
190.000	-0.42109	-0.22480	0.13246	-0.06764
191.000	-0.43493	-0.22679	0.15618	-0.08952
192.000	-0.44679	-0.26260	0.19968	-0.06167
193.000	-0.44877	-0.22480	0.14037	-0.06764
194.000	-0.46063	-0.24867	0.08699	-0.02387
195.000	-0.42307	-0.26856	0.16211	-0.08753
196.000	-0.41516	-0.25862	0.14432	0.00597
197.000	-0.42307	-0.26260	0.23131	-0.12533
198.000	-0.43889	-0.23872	0.17002	-0.13926
199.000	-0.43889	-0.23077	0.12455	-0.06565
200.000	-0.45075	-0.22480	0.16607	-0.09947
201.000	-0.43493	-0.22281	0.15421	-0.11937
202.000	-0.43493	-0.24867	0.17991	-0.09151
203.000	-0.42505	-0.23872	0.13641	-0.10146
204.000	-0.40923	-0.22480	0.13048	-0.05173
205.000	-0.45668	-0.26260	0.13246	-0.01592
206.000	-0.45865	-0.24469	0.17793	-0.04576
207.000	-0.46854	-0.27652	0.15421	-0.00398
208.000	-0.44679	-0.23872	0.11664	-0.06565
209.000	-0.39935	-0.22878	0.17200	-0.07162
210.000	-0.46261	-0.24867	0.20363	-0.08952
211.000	-0.45470	-0.25663	0.09885	-0.01989
212.000	-0.40726	-0.18700	0.13246	0.01592
213.000	-0.41516	-0.23872	0.16607	-0.04178
214.000	-0.46459	-0.20888	0.20561	-0.12931
215.000	-0.42307	-0.27254	0.15223	-0.04377
216.000	-0.41714	-0.17705	0.12257	-0.05570
217.000	-0.44086	-0.23276	0.15025	-0.04576
218.000	-0.44679	-0.24071	0.15618	-0.04974
219.000	-0.44482	-0.26856	0.18979	-0.04974
220.000	-0.44284	-0.24071	0.11664	-0.07361
221.000	-0.42702	-0.25663	0.17793	-0.06963
222.000	-0.43493	-0.29443	0.12653	-0.07560
223.000	-0.44679	-0.25265	0.14827	-0.05769
224.000	-0.44877	-0.23872	0.22735	-0.06167
225.000	-0.44284	-0.26260	0.21352	-0.09748
226.000	-0.43493	-0.27055	0.17991	-0.05371
227.000	-0.42900	-0.24469	0.21154	-0.03382
228.000	-0.42307	-0.25265	0.21154	-0.08952
229.000	-0.42702	-0.25265	0.18386	-0.07759
230.000	-0.44482	-0.23475	0.18979	-0.09549
231.000	-0.44877	-0.24469	0.12257	-0.09748
232.000	-0.48238	-0.27055	0.20758	0.02188
233.000	-0.47645	-0.27851	0.20363	-0.07361
234.000	-0.47645	-0.28647	0.14630	0.01194
235.000	-0.45668	-0.23673	0.08699	-0.09748
236.000	-0.43691	-0.22082	0.15618	-0.06565
237.000	-0.42109	-0.27055	0.18188	-0.09549
238.000	-0.41121	-0.18302	0.15025	-0.03382
239.000	-0.42900	-0.18899	0.17002	-0.06764
240.000	-0.43296	-0.23077	0.18979	-0.10544
241.000	-0.41912	-0.20888	0.17595	-0.07759
242.000	-0.41912	-0.23077	0.19968	-0.11539
243.000	-0.43493	-0.25066	0.19572	-0.02586
244.000	-0.41319	-0.28249	0.15421	-0.05968
245.000	-0.41121	-0.19297	0.15421	-0.08952
246.000	-0.41714	-0.25066	0.12653	-0.07162
247.000	-0.45272	-0.21087	0.22142	-0.14523
248.000	-0.40528	-0.24270	0.16409	-0.04775
249.000	-0.39737	-0.21684	0.17991	-0.11539
250.000	-0.42900	-0.19098	0.17398	-0.10942
251.000	-0.37365	-0.23873	0.08303	-0.02387
252.000	-0.38946	-0.21087	0.16211	-0.04576
253.000	-0.37563	-0.25663	0.18781	-0.02387
254.000	-0.42307	-0.20491	0.19770	0.00000
255.000	-0.40330	-0.22281	0.20363	0.01194
256.000	-0.37760	-0.23475	0.19375	-0.04377
257.000	-0.42505	-0.22480	0.17200	-0.04377
258.000	-0.40133	-0.25066	0.16014	0.00000
259.000	-0.40330	-0.21684	0.27678	-0.06963
260.000	-0.39737	-0.18899	0.18781	-0.04576
261.000	-0.42109	-0.20888	0.11269	-0.07759
262.000	-0.40923	-0.25464	0.20758	-0.04178
263.000	-0.39342	-0.21286	0.18979	-0.00995
264.000	-0.40726	-0.23674	0.18584	-0.03581
265.000	-0.43889	-0.23077	0.16607	-0.11738
266.000	-0.44679	-0.24867	0.22933	-0.03382
267.000	-0.39737	-0.21286	0.20363	-0.08157
268.000	-0.41516	-0.24668	0.20561	-0.09549
269.000	-0.40528	-0.22679	0.16409	-0.06366
270.000	-0.40528	-0.20491	0.18584	-0.07958
271.000	-0.38353	-0.23674	0.18584	-0.06764
272.000	-0.40133	-0.21485	0.19968	-0.04576
273.000	-0.36772	-0.21485	0.25108	-0.04178
274.000	-0.38551	-0.19695	0.19968	-0.10942
275.000	-0.34795	-0.18700	0.15223	-0.02785
276.000	-0.37760	-0.20690	0.16607	-0.04377
277.000	-0.39342	-0.22679	0.21352	-0.14324
278.000	-0.33806	-0.21088	0.14827	-0.08356
279.000	-0.41516	-0.24270	0.17595	-0.05371
280.000	-0.37167	-0.23873	0.19770	-0.06167
281.000	-0.38353	-0.25066	0.12455	-0.08952
282.000	-0.37365	-0.25265	0.23526	-0.05968
283.000	-0.39737	-0.25464	0.29852	-0.09350
284.000	-0.34597	-0.23873	0.19968	-0.08356
285.000	-0.37365	-0.24270	0.15025	-0.08157
286.000	-0.35981	-0.27453	0.18386	-0.07759
287.000	-0.36179	-0.28050	0.22142	-0.09947
288.000	-0.37167	-0.26658	0.18386	-0.10345
289.000	-0.39144	-0.23077	0.21945	-0.09151
290.000	-0.36969	-0.29244	0.21945	-0.09350
291.000	-0.39935	-0.26658	0.19968	-0.05371
292.000	-0.42307	-0.28050	0.18979	-0.08753
293.000	-0.41121	-0.29443	0.17200	-0.08157
294.000	-0.38353	-0.29244	0.21549	-0.06366
295.000	-0.40330	-0.27652	0.18781	-0.08753
296.000	-0.41516	-0.27254	0.20561	-0.04178
297.000	-0.38551	-0.24270	0.21352	-0.08555
298.000	-0.42109	-0.28050	0.17002	-0.07560
299.000	-0.40726	-0.23873	0.20956	-0.09151
300.000	-0.37958	-0.26260	0.22933	-0.13329
301.000	-0.40528	-0.24270	0.21747	-0.06366
302.000	-0.41714	-0.25066	0.29259	-0.13528
303.000	-0.41121	-0.26459	0.23131	-0.10743
304.000	-0.38551	-0.25066	0.19375	-0.05769
305.000	-0.36574	-0.24867	0.25701	-0.06565
306.000	-0.39342	-0.25464	0.18979	-0.08555
307.000	-0.37563	-0.24668	0.22735	-0.08753
308.000	-0.38551	-0.27851	0.21154	-0.04576
309.000	-0.41912	-0.22878	0.23526	-0.07759
310.000	-0.39144	-0.26459	0.29655	-0.08753
311.000	-0.38551	-0.25265	0.28469	-0.05172
312.000	-0.37563	-0.23475	0.19572	-0.02785
313.000	-0.39935	-0.27055	0.19177	-0.07958
314.000	-0.41912	-0.23674	0.23329	-0.07361
315.000	-0.39737	-0.20690	0.26492	-0.06565
316.000	-0.37760	-0.23077	0.16607	-0.03780
317.000	-0.34993	-0.22679	0.20956	-0.03183
318.000	-0.39342	-0.25663	0.15025	-0.01989
319.000	-0.37760	-0.26260	0.29457	-0.06764
320.000	-0.34993	-0.24469	0.18584	-0.04178
321.000	-0.37365	-0.22082	0.15816	-0.07162
322.000	-0.35586	-0.23873	0.17200	-0.02586
323.000	-0.36574	-0.22679	0.25701	-0.09748
324.000	-0.40133	-0.20690	0.26887	-0.20889
325.000	-0.39737	-0.22480	0.18386	-0.07759
326.000	-0.40133	-0.18899	0.27085	-0.11539
327.000	-0.38353	-0.21883	0.22340	-0.03581
328.000	-0.40923	-0.22679	0.25108	-0.09549
329.000	-0.35981	-0.18899	0.28271	-0.08753
330.000	-0.38156	-0.24668	0.16409	-0.03581
331.000	-0.39935	-0.23674	0.26887	-0.02586
332.000	-0.36969	-0.24072	0.25305	-0.07560
333.000	-0.39539	-0.27851	0.24515	-0.08753
334.000	-0.37365	-0.22878	0.23329	-0.08356
335.000	-0.37958	-0.25464	0.23131	-0.02785
336.000	-0.37563	-0.25464	0.27480	-0.04377
337.000	-0.33411	-0.23276	0.16804	-0.07162
338.000	-0.38749	-0.24071	0.22142	-0.05769
339.000	-0.37760	-0.25066	0.22933	-0.08555
340.000	-0.36376	-0.25265	0.23131	-0.08952
341.000	-0.36772	-0.20491	0.26492	-0.09350
342.000	-0.34795	-0.23276	0.21154	-0.08555
343.000	-0.38551	-0.23674	0.27876	-0.00199
344.000	-0.39737	-0.24270	0.23131	-0.12334
345.000	-0.39342	-0.27453	0.26096	-0.13130
346.000	-0.38156	-0.22082	0.27282	-0.06963
347.000	-0.37365	-0.20292	0.26887	-0.10146
348.000	-0.37760	-0.19695	0.22340	-0.08157
349.000	-0.39342	-0.24469	0.15618	-0.11340
350.000	-0.35190	-0.24469	0.24910	-0.06167
351.000	-0.34993	-0.24867	0.23526	-0.10345
352.000	-0.35388	-0.24072	0.21549	-0.06167
353.000	-0.38156	-0.26061	0.27678	-0.03979
354.000	-0.38156	-0.22480	0.20956	0.03979
355.000	-0.33016	-0.23475	0.25108	-0.14125
356.000	-0.37958	-0.26459	0.20956	-0.06167
357.000	-0.34795	-0.23276	0.23131	-0.09748
358.000	-0.38749	-0.25464	0.24515	-0.10743
359.000	-0.35190	-0.27255	0.24317	-0.08157
360.000	-0.37563	-0.25663	0.27876	-0.09549
361.000	-0.37958	-0.27254	0.20956	-0.02387
362.000	-0.35190	-0.24271	0.20956	-0.05172
363.000	-0.40330	-0.25464	0.22538	0.01194
364.000	-0.38551	-0.25265	0.27876	-0.06167
365.000	-0.37365	-0.30636	0.23131	-0.09151
366.000	-0.38156	-0.26857	0.25503	-0.09549
367.000	-0.38353	-0.27254	0.18188	-0.11937
368.000	-0.40133	-0.26658	0.24317	-0.04178
369.000	-0.35190	-0.27056	0.22340	-0.11141
370.000	-0.38749	-0.24867	0.18584	-0.03979
371.000	-0.38551	-0.27453	0.23526	-0.00597
372.000	-0.38551	-0.28448	0.14234	-0.07759
373.000	-0.38156	-0.24072	0.18584	-0.07958
374.000	-0.42109	-0.26856	0.21154	-0.13130
375.000	-0.38156	-0.25066	0.25503	-0.09748
376.000	-0.41714	-0.28050	0.16014	-0.08356
377.000	-0.35190	-0.24469	0.27480	-0.05769
378.000	-0.38551	-0.23077	0.25701	-0.11738
379.000	-0.39342	-0.25265	0.17200	-0.05968
380.000	-0.39737	-0.23873	0.20165	-0.02785
381.000	-0.38551	-0.27453	0.25503	-0.13130
382.000	-0.36969	-0.27255	0.22933	-0.12732
383.000	-0.42307	-0.27453	0.18979	-0.06167
384.000	-0.35981	-0.25663	0.23329	-0.09350
385.000	-0.38551	-0.26459	0.21747	-0.11340
386.000	-0.38749	-0.25862	0.15816	-0.10345
387.000	-0.37365	-0.26459	0.21352	-0.10743
388.000	-0.36179	-0.26459	0.24119	-0.07162
389.000	-0.36969	-0.26260	0.21549	-0.13130
390.000	-0.42109	-0.28448	0.22933	-0.10146
391.000	-0.37563	-0.27851	0.22142	-0.07958
392.000	-0.38551	-0.27652	0.16607	-0.01194
393.000	-0.37760	-0.25464	0.19968	-0.10146
394.000	-0.34399	-0.27255	0.24317	-0.07560
395.000	-0.39539	-0.24270	0.23724	-0.02984
396.000	-0.40528	-0.27652	0.28271	-0.08753
397.000	-0.36969	-0.24867	0.32620	-0.08952
398.000	-0.36179	-0.25265	0.23724	-0.06366
399.000	-0.35783	-0.21088	0.28271	-0.07361
400.000	-0.38353	-0.25464	0.16804	-0.12533
401.000	-0.38353	-0.27056	0.15223	-0.06764
402.000	-0.34004	-0.26857	0.14234	-0.09748
403.000	-0.37958	-0.32228	0.25305	0.00000
404.000	-0.36969	-0.24867	0.24317	-0.06565
405.000	-0.35783	-0.26459	0.20561	-0.05968
406.000	-0.38749	-0.28647	0.16409	-0.07759
407.000	-0.40726	-0.29443	0.21549	-0.00398
408.000	-0.35190	-0.26459	0.16211	-0.07361
409.000	-0.33016	-0.27255	0.26887	-0.14523
410.000	-0.37958	-0.28249	0.16014	-0.15319
411.000	-0.41121	-0.27851	0.16409	-0.07560
412.000	-0.37563	-0.28050	0.19177	-0.12533
413.000	-0.36772	-0.23674	0.23329	-0.12135
414.000	-0.40133	-0.25265	0.28864	-0.06963
415.000	-0.37958	-0.30835	0.26096	-0.08356
416.000	-0.41714	-0.31233	0.16409	-0.09947
417.000	-0.33806	-0.25464	0.19375	-0.08157
418.000	-0.37958	-0.25862	0.22340	-0.13130
419.000	-0.35981	-0.25464	0.09687	-0.10544
420.000	-0.35388	-0.27056	0.16607	-0.08555
421.000	-0.33609	-0.28647	0.15618	-0.13130
422.000	-0.35783	-0.30040	0.15025	-0.06764
423.000	-0.36574	-0.25265	0.17991	-0.08952
424.000	-0.35190	-0.25862	0.15223	-0.10146
425.000	-0.33213	-0.22480	0.14037	-0.09549
426.000	-0.34993	-0.26857	0.16607	-0.15120
427.000	-0.29655	-0.27056	0.15618	-0.03780
428.000	-0.36772	-0.23674	0.15816	-0.08555
429.000	-0.34004	-0.26061	0.22538	-0.04974
430.000	-0.34202	-0.18103	0.21549	-0.03780
431.000	-0.33213	-0.26459	0.11664	-0.07958
432.000	-0.38156	-0.24072	0.16014	-0.06963
433.000	-0.35783	-0.25663	0.20165	-0.12334
434.000	-0.33806	-0.23077	0.13246	-0.12334
435.000	-0.38551	-0.22878	0.19177	-0.10743
436.000	-0.34597	-0.26658	0.19572	-0.04775
437.000	-0.36179	-0.26459	0.18584	-0.10146
438.000	-0.37563	-0.25464	0.27085	-0.04576
439.000	-0.40330	-0.28050	0.19572	-0.12931
440.000	-0.35783	-0.27652	0.16014	-0.10146
441.000	-0.36179	-0.24469	0.18781	-0.08356
442.000	-0.34399	-0.25862	0.13839	-0.09350
443.000	-0.36574	-0.27652	0.10083	-0.07958
444.000	-0.37563	-0.31034	0.13444	-0.14324
445.000	-0.40923	-0.31034	0.21154	-0.12334
446.000	-0.33411	-0.30040	0.21352	-0.06565
447.000	-0.37365	-0.28050	0.20363	-0.14125
448.000	-0.37365	-0.28448	0.16804	-0.10942
449.000	-0.38749	-0.30238	0.15223	-0.09151
450.000	-0.39539	-0.26260	0.14037	-0.12334
451.000	-0.42307	-0.28647	0.17398	-0.09549
452.000	-0.41516	-0.28050	0.18386	-0.12732
453.000	-0.37365	-0.25862	0.12455	-0.07162
454.000	-0.40528	-0.27055	0.20758	-0.10743
455.000	-0.35981	-0.29244	0.15223	-0.13329
456.000	-0.37563	-0.27652	0.15223	-0.09151
457.000	-0.38551	-0.26658	0.09094	-0.09947
458.000	-0.36574	-0.28846	0.09687	-0.14125
459.000	-0.38156	-0.29443	0.21549	-0.11539
460.000	-0.42109	-0.33620	0.20165	-0.17706
461.000	-0.35783	-0.24072	0.16211	-0.05968
462.000	-0.34399	-0.26061	0.14234	-0.09748
463.000	-0.35388	-0.29443	0.18386	-0.07560
464.000	-0.41516	-0.27851	0.22933	-0.12135
465.000	-0.38156	-0.28448	0.19177	-0.12135
466.000	-0.39539	-0.31830	0.16607	-0.11340
467.000	-0.36574	-0.27851	0.09885	-0.06366
468.000	-0.39737	-0.29443	0.21945	-0.13130
469.000	-0.39935	-0.29244	0.15421	-0.13329
470.000	-0.36969	-0.27851	0.19770	-0.11937
471.000	-0.40726	-0.29642	0.14432	-0.08555
472.000	-0.38353	-0.29642	0.18781	-0.08555
473.000	-0.36772	-0.27255	0.21154	-0.10743
474.000	-0.40528	-0.29045	0.26096	-0.10146
475.000	-0.36969	-0.27255	0.22933	-0.12533
476.000	-0.38749	-0.27851	0.21352	-0.14921
477.000	-0.39539	-0.27652	0.18781	-0.11539
478.000	-0.39144	-0.28249	0.16211	-0.09151
479.000	-0.38551	-0.26061	0.17200	-0.13528
480.000	-0.40133	-0.26658	0.22340	-0.13130
481.000	-0.38551	-0.27453	0.16211	-0.06565
482.000	-0.38353	-0.28050	0.13444	-0.11738
483.000	-0.40923	-0.24867	0.19177	-0.13727
484.000	-0.39935	-0.27055	0.17793	-0.12533
485.000	-0.40528	-0.28448	0.17595	-0.07958
486.000	-0.44284	-0.32427	0.18781	-0.16512
487.000	-0.42505	-0.27254	0.19177	-0.16114
488.000	-0.38551	-0.31631	0.19375	-0.10544
489.000	-0.35388	-0.33024	0.17398	-0.09748
490.000	-0.38156	-0.29045	0.18188	-0.08753
491.000	-0.36179	-0.28050	0.12653	-0.13528
492.000	-0.39539	-0.30238	0.22538	-0.17308
493.000	-0.38156	-0.28647	0.20165	-0.13130
494.000	-0.38156	-0.23077	0.17200	-0.13926
495.000	-0.40923	-0.25862	0.17398	-0.08952
496.000	-0.37958	-0.29642	0.20758	-0.12732
497.000	-0.35783	-0.31034	0.20165	-0.10743
498.000	-0.41319	-0.31034	0.15223	-0.12931
499.000	-0.37365	-0.26459	0.28271	-0.10146
500.000	-0.35981	-0.25464	0.27876	-0.13926
501.000	-0.37365	-0.28647	0.17991	-0.14324
502.000	-0.38551	-0.28249	0.17398	-0.10544
503.000	-0.37563	-0.27453	0.27085	-0.12732
504.000	-0.39342	-0.29443	0.19572	-0.11340
505.000	-0.40528	-0.32825	0.22538	-0.05968
506.000	-0.44086	-0.27652	0.17398	-0.09350
507.000	-0.39539	-0.27055	0.12060	-0.09350
508.000	-0.39935	-0.30039	0.11269	-0.06963
509.000	-0.38551	-0.33620	0.15618	-0.10942
510.000	-0.38946	-0.32228	0.15816	-0.15319
511.000	-0.40133	-0.32427	0.15025	-0.07759
512.000	-0.39935	-0.35013	0.21945	-0.12135
513.000	-0.38551	-0.34615	0.16409	-0.12931
514.000	-0.37760	-0.32228	0.16607	-0.10544
515.000	-0.38551	-0.34814	0.16804	-0.11539
516.000	-0.38551	-0.37798	0.15223	-0.13727
517.000	-0.39539	-0.35610	0.16409	-0.17308
518.000	-0.38353	-0.32228	0.20561	-0.14523
519.000	-0.36969	-0.34416	0.23329	-0.17109
520.000	-0.38353	-0.30238	0.19770	-0.17507
521.000	-0.39935	-0.33222	0.23724	-0.12732
522.000	-0.40528	-0.33819	0.11071	-0.11738
523.000	-0.36574	-0.35013	0.15618	-0.15319
524.000	-0.34795	-0.32427	0.22735	-0.12135
525.000	-0.35190	-0.37400	0.14630	-0.11141
526.000	-0.37167	-0.35013	0.19572	-0.21287
527.000	-0.38749	-0.36008	0.16607	-0.15915
528.000	-0.38353	-0.32626	0.25305	-0.14523
529.000	-0.39144	-0.35212	0.17991	-0.14125
530.000	-0.38946	-0.33620	0.23724	-0.11539
531.000	-0.37760	-0.35212	0.26294	-0.13528
532.000	-0.35388	-0.36008	0.22142	-0.17706
533.000	-0.40133	-0.38196	0.21154	-0.12135
534.000	-0.37563	-0.33819	0.09687	-0.21685
535.000	-0.36376	-0.33421	0.16014	-0.11539
536.000	-0.36969	-0.34814	0.28073	-0.17308
537.000	-0.38156	-0.35411	0.25305	-0.13329
538.000	-0.34399	-0.28448	0.16804	-0.13727
539.000	-0.33609	-0.32626	0.27876	-0.17308
540.000	-0.35190	-0.31830	0.16409	-0.19496
541.000	-0.35388	-0.36406	0.24119	-0.18303
542.000	-0.35981	-0.34814	0.21154	-0.13528
543.000	-0.34597	-0.35212	0.19177	-0.15517
544.000	-0.36376	-0.42174	0.20561	-0.19894
545.000	-0.33806	-0.35610	0.20165	-0.16512
546.000	-0.36179	-0.35610	0.17595	-0.14722
547.000	-0.36772	-0.34018	0.17002	-0.19894
548.000	-0.40528	-0.34615	0.15816	-0.19098
549.000	-0.37958	-0.36604	0.24712	-0.17308
550.000	-0.38551	-0.32825	0.15421	-0.09748
551.000	-0.40528	-0.35411	0.18386	-0.16711
552.000	-0.38551	-0.31631	0.20165	-0.12533
553.000	-0.34795	-0.33024	0.20758	-0.16910
554.000	-0.37760	-0.31233	0.19968	-0.14921
555.000	-0.36969	-0.32029	0.18979	-0.21685
556.000	-0.37958	-0.25464	0.25503	-0.17308
557.000	-0.30446	-0.31233	0.20363	-0.16114
558.000	-0.33213	-0.32228	0.12850	-0.18104
559.000	-0.32225	-0.30040	0.15223	-0.07560
560.000	-0.33016	-0.27255	0.15618	-0.15518
561.000	-0.34202	-0.32029	0.18979	-0.11340
562.000	-0.37760	-0.27851	0.14037	-0.17706
563.000	-0.35981	-0.28647	0.16804	-0.15915
564.000	-0.34795	-0.29642	0.14630	-0.18303
565.000	-0.34597	-0.32228	0.20956	-0.17109
566.000	-0.32818	-0.31830	0.18188	-0.14125
567.000	-0.35981	-0.30636	0.18584	-0.13727
568.000	-0.33016	-0.26857	0.16409	-0.22281
569.000	-0.33016	-0.32427	0.22735	-0.18700
570.000	-0.33411	-0.31631	0.18781	-0.17109
571.000	-0.35981	-0.32029	0.15618	-0.15915
572.000	-0.35388	-0.31233	0.22735	-0.17706
573.000	-0.37563	-0.27056	0.22340	-0.17905
574.000	-0.34795	-0.30438	0.20561	-0.09947
575.000	-0.36376	-0.29642	0.18979	-0.17905
576.000	-0.35981	-0.31034	0.15421	-0.17706
577.000	-0.36772	-0.30040	0.15025	-0.14921
578.000	-0.35981	-0.33223	0.15421	-0.10942
579.000	-0.33609	-0.31432	0.25899	-0.18303
580.000	-0.37167	-0.27453	0.17002	-0.16711
581.000	-0.34004	-0.35013	0.20758	-0.11340
582.000	-0.35586	-0.30835	0.18188	-0.16711
583.000	-0.31632	-0.34814	0.16409	-0.16910
584.000	-0.34795	-0.30239	0.22538	-0.22281
585.000	-0.35981	-0.29841	0.15421	-0.15120
586.000	-0.32620	-0.29244	0.25503	-0.19695
587.000	-0.34795	-0.31432	0.19968	-0.19297
588.000	-0.32027	-0.30239	0.18386	-0.10942
589.000	-0.33806	-0.36605	0.17398	-0.11539
590.000	-0.34795	-0.35809	0.17595	-0.17507
591.000	-0.35190	-0.36803	0.19968	-0.14125
592.000	-0.33609	-0.36008	0.15421	-0.16512
593.000	-0.31039	-0.36207	0.25503	-0.14523
594.000	-0.32620	-0.35411	0.15816	-0.16711
595.000	-0.30446	-0.33621	0.19177	-0.16711
596.000	-0.31039	-0.39788	0.20561	-0.17308
597.000	-0.31236	-0.35610	0.17002	-0.17905
598.000	-0.30841	-0.38594	0.17398	-0.17905
599.000	-0.30248	-0.37400	0.23131	-0.23873
600.000	-0.32620	-0.36406	0.15618	-0.17308
601.000	-0.27678	-0.36804	0.23329	-0.26260
602.000	-0.29062	-0.37003	0.24515	-0.20889
603.000	-0.29062	-0.36605	0.18584	-0.23475
604.000	-0.29457	-0.35610	0.23131	-0.20690
605.000	-0.32620	-0.36207	0.22340	-0.20292
606.000	-0.26096	-0.37202	0.22538	-0.17507
607.000	-0.27085	-0.32427	0.21352	-0.15517
608.000	-0.30248	-0.35809	0.19177	-0.18303
609.000	-0.29852	-0.35809	0.17793	-0.20491
610.000	-0.25899	-0.37202	0.19375	-0.19894
611.000	-0.27876	-0.35013	0.23329	-0.25464
612.000	-0.29457	-0.36008	0.17002	-0.25067
613.000	-0.28073	-0.29841	0.21549	-0.17109
614.000	-0.31236	-0.35809	0.24317	-0.22878
615.000	-0.24515	-0.30836	0.15421	-0.12334
616.000	-0.28864	-0.33422	0.18188	-0.14324
617.000	-0.26492	-0.34218	0.20758	-0.21287
618.000	-0.28666	-0.38196	0.17002	-0.19496
619.000	-0.25701	-0.34615	0.20758	-0.19297
620.000	-0.27480	-0.35809	0.15816	-0.21486
621.000	-0.28271	-0.36207	0.22142	-0.20690
622.000	-0.26689	-0.32029	0.25701	-0.16711
623.000	-0.27876	-0.32626	0.18188	-0.20292
624.000	-0.29852	-0.34814	0.23329	-0.21486
625.000	-0.28469	-0.37997	0.24317	-0.18700
626.000	-0.26096	-0.36008	0.20363	-0.20690
627.000	-0.28073	-0.37400	0.28469	-0.18501
628.000	-0.26887	-0.34416	0.28271	-0.21486
629.000	-0.29259	-0.33024	0.18781	-0.21088
630.000	-0.29457	-0.32825	0.24712	-0.19496
631.000	-0.27678	-0.30239	0.17991	-0.19496
632.000	-0.31632	-0.32228	0.28271	-0.21883
633.000	-0.26294	-0.31432	0.20956	-0.17706
634.000	-0.28271	-0.34019	0.24910	-0.24470
635.000	-0.30050	-0.30040	0.17991	-0.20889
636.000	-0.29259	-0.37003	0.24119	-0.15716
637.000	-0.27480	-0.36008	0.23922	-0.17109
638.000	-0.28271	-0.34814	0.20363	-0.17905
639.000	-0.27480	-0.34615	0.22142	-0.14125
640.000	-0.29457	-0.35610	0.24910	-0.16114
641.000	-0.27282	-0.34416	0.16014	-0.19098
642.000	-0.29457	-0.34416	0.21549	-0.23276
643.000	-0.30643	-0.34814	0.24712	-0.16711
644.000	-0.29655	-0.37201	0.23131	-0.22878
645.000	-0.32027	-0.40782	0.26689	-0.23475
646.000	-0.28073	-0.37400	0.28073	-0.19098
647.000	-0.27282	-0.33024	0.27876	-0.23475
648.000	-0.26294	-0.35212	0.15025	-0.16512
649.000	-0.26689	-0.35013	0.18979	-0.19098
650.000	-0.27085	-0.38395	0.25305	-0.17507
651.000	-0.26294	-0.36207	0.30050	-0.20292
652.000	-0.26689	-0.37003	0.26887	-0.18501
653.000	-0.25305	-0.35212	0.29655	-0.23674
654.000	-0.25701	-0.37401	0.22735	-0.12732
655.000	-0.29259	-0.38594	0.23131	-0.24072
656.000	-0.27678	-0.33422	0.29259	-0.16313
657.000	-0.23724	-0.32228	0.19375	-0.19496
658.000	-0.25701	-0.34218	0.27678	-0.19098
659.000	-0.23922	-0.33223	0.35981	-0.20889
660.000	-0.26294	-0.36605	0.31434	-0.21684
661.000	-0.25701	-0.36207	0.32620	-0.26658
662.000	-0.28864	-0.39589	0.28271	-0.18899
663.000	-0.23922	-0.37003	0.27876	-0.25464
664.000	-0.23131	-0.40186	0.26689	-0.23475
665.000	-0.25899	-0.38992	0.25899	-0.23276
666.000	-0.25503	-0.35809	0.27480	-0.21883
667.000	-0.21352	-0.37600	0.24119	-0.27653
668.000	-0.26492	-0.38992	0.29259	-0.20292
669.000	-0.26096	-0.37202	0.20363	-0.20690
670.000	-0.28271	-0.38196	0.29457	-0.21883
671.000	-0.25108	-0.39589	0.27678	-0.19695
672.000	-0.23131	-0.37997	0.23922	-0.15120
673.000	-0.27876	-0.43567	0.25108	-0.20292
674.000	-0.26492	-0.38793	0.26689	-0.18501
675.000	-0.28073	-0.38395	0.30643	-0.25265
676.000	-0.24712	-0.40981	0.19968	-0.21287
677.000	-0.25503	-0.40782	0.25701	-0.20690
678.000	-0.30446	-0.41578	0.27876	-0.20093
679.000	-0.22538	-0.43567	0.29852	-0.28647
680.000	-0.28864	-0.39191	0.21945	-0.23276
681.000	-0.25701	-0.38196	0.27678	-0.27255
682.000	-0.23329	-0.37600	0.31039	-0.26459
683.000	-0.23922	-0.38793	0.25503	-0.32825
684.000	-0.27480	-0.37202	0.29457	-0.26658
685.000	-0.27282	-0.41578	0.22340	-0.26857
686.000	-0.26492	-0.39191	0.31039	-0.26061
687.000	-0.27282	-0.39589	0.21945	-0.24868
688.000	-0.25503	-0.34019	0.29062	-0.27056
689.000	-0.24119	-0.33820	0.24515	-0.28448
690.000	-0.25701	-0.37997	0.31236	-0.26658
691.000	-0.26294	-0.38594	0.25701	-0.27653
692.000	-0.26689	-0.38395	0.28666	-0.28448
693.000	-0.24910	-0.35610	0.26492	-0.25464
694.000	-0.22142	-0.39191	0.33806	-0.32228
695.000	-0.22538	-0.31433	0.22538	-0.25464
696.000	-0.23922	-0.37003	0.34202	-0.27454
697.000	-0.24712	-0.36804	0.27282	-0.23873
698.000	-0.18584	-0.34815	0.19770	-0.24072
699.000	-0.22933	-0.36605	0.31434	-0.29244
700.000	-0.23131	-0.34615	0.24317	-0.25862
701.000	-0.24910	-0.36207	0.27876	-0.28846
702.000	-0.23329	-0.37003	0.31632	-0.25066
703.000	-0.20363	-0.34218	0.28864	-0.25464
704.000	-0.21352	-0.34616	0.30446	-0.33422
705.000	-0.24910	-0.37003	0.27876	-0.23475
706.000	-0.22933	-0.34814	0.29655	-0.24867
707.000	-0.22933	-0.35411	0.28666	-0.29244
708.000	-0.24515	-0.37003	0.32027	-0.27851
709.000	-0.22538	-0.35809	0.32620	-0.26658
710.000	-0.21549	-0.37202	0.31039	-0.27653
711.000	-0.20758	-0.38992	0.29259	-0.31830
712.000	-0.22340	-0.39390	0.29457	-0.27454
713.000	-0.22933	-0.37401	0.34004	-0.24072
714.000	-0.24119	-0.39191	0.31236	-0.29045
715.000	-0.19968	-0.38196	0.33411	-0.32626
716.000	-0.19770	-0.39390	0.24119	-0.25464
717.000	-0.23526	-0.37202	0.25305	-0.19297
718.000	-0.20561	-0.36406	0.24119	-0.26061
719.000	-0.20363	-0.38395	0.23724	-0.24470
720.000	-0.19572	-0.40186	0.32225	-0.28647
721.000	-0.22142	-0.39390	0.27678	-0.22480
722.000	-0.20165	-0.34019	0.30446	-0.27056
723.000	-0.19177	-0.32228	0.29655	-0.23475
724.000	-0.17398	-0.34417	0.36179	-0.23077
725.000	-0.15816	-0.34417	0.31632	-0.21684
726.000	-0.16607	-0.36008	0.35586	-0.24867
727.000	-0.16607	-0.35212	0.24910	-0.22082
728.000	-0.17595	-0.34019	0.33609	-0.25066
729.000	-0.15223	-0.36804	0.26887	-0.20690
730.000	-0.16804	-0.33422	0.31434	-0.20292
731.000	-0.15816	-0.33820	0.32620	-0.23077
732.000	-0.18386	-0.33621	0.26689	-0.21088
733.000	-0.21747	-0.39987	0.30050	-0.24072
734.000	-0.19572	-0.42374	0.26492	-0.20690
735.000	-0.19770	-0.37600	0.28666	-0.22679
736.000	-0.19375	-0.37799	0.28666	-0.21684
737.000	-0.18979	-0.38992	0.29259	-0.30438
738.000	-0.14037	-0.37202	0.23724	-0.26658
739.000	-0.17793	-0.36605	0.30841	-0.27255
740.000	-0.19770	-0.41578	0.23724	-0.22679
741.000	-0.23131	-0.43965	0.29655	-0.24867
742.000	-0.19375	-0.42573	0.23526	-0.19098
743.000	-0.21747	-0.38196	0.26492	-0.30836
744.000	-0.18584	-0.38594	0.30643	-0.19496
745.000	-0.16804	-0.36605	0.32225	-0.21287
746.000	-0.23329	-0.38196	0.22933	-0.21884
747.000	-0.15223	-0.36008	0.25503	-0.24470
748.000	-0.12257	-0.35809	0.22340	-0.21884
749.000	-0.18386	-0.39589	0.24515	-0.22281
750.000	-0.16211	-0.38196	0.29259	-0.22679
751.000	-0.18386	-0.35610	0.22933	-0.25067
752.000	-0.15421	-0.35014	0.23724	-0.19695
753.000	-0.16607	-0.33621	0.28271	-0.21486
754.000	-0.15025	-0.37202	0.28073	-0.19894
755.000	-0.16607	-0.35014	0.24515	-0.20093
756.000	-0.16607	-0.35411	0.19375	-0.18701
757.000	-0.15618	-0.34019	0.18979	-0.16711
758.000	-0.14827	-0.35212	0.25305	-0.19894
759.000	-0.17595	-0.36804	0.24712	-0.20093
760.000	-0.11664	-0.36008	0.28469	-0.18303
761.000	-0.12653	-0.38594	0.35981	-0.20889
762.000	-0.11664	-0.36406	0.32225	-0.24271
763.000	-0.13048	-0.40186	0.22538	-0.20889
764.000	-0.13246	-0.38395	0.19770	-0.21884
765.000	-0.11467	-0.36406	0.23131	-0.23674
766.000	-0.12060	-0.38992	0.25899	-0.23077
767.000	-0.08699	-0.38793	0.25305	-0.19695
768.000	-0.12850	-0.35610	0.29457	-0.20093
769.000	-0.10676	-0.36804	0.24910	-0.20093
770.000	-0.11071	-0.37202	0.27876	-0.23077
771.000	-0.09292	-0.34417	0.34399	-0.18501
772.000	-0.09292	-0.33820	0.32225	-0.21883
773.000	-0.08106	-0.33422	0.27282	-0.23276
774.000	-0.10874	-0.33223	0.28271	-0.23276
775.000	-0.11467	-0.33422	0.29457	-0.16512
776.000	-0.11071	-0.33621	0.28666	-0.18501
777.000	-0.09094	-0.28449	0.28864	-0.18700
778.000	-0.11269	-0.31632	0.30248	-0.21486
779.000	-0.12257	-0.30239	0.30446	-0.14722
780.000	-0.09490	-0.31831	0.30248	-0.21287
781.000	-0.08699	-0.32427	0.26096	-0.21685
782.000	-0.08106	-0.32229	0.22142	-0.21685
783.000	-0.08897	-0.31632	0.24712	-0.17308
784.000	-0.05931	-0.31234	0.26492	-0.14921
785.000	-0.05733	-0.29841	0.28469	-0.13528
786.000	-0.06524	-0.33621	0.21747	-0.19695
787.000	-0.06722	-0.29244	0.16409	-0.18900
788.000	-0.05338	-0.30040	0.27085	-0.14722
789.000	-0.06524	-0.29046	0.31039	-0.19496
790.000	-0.06524	-0.31035	0.27085	-0.12533
791.000	-0.00395	-0.25067	0.24712	-0.09549
792.000	-0.04943	-0.25067	0.21549	-0.12732
793.000	-0.08106	-0.22083	0.22933	-0.16910
794.000	-0.06920	-0.15915	0.32620	-0.09549
795.000	-0.06524	-0.15319	0.29062	-0.03382
796.000	0.02768	-0.08157	0.30643	0.03183
797.000	0.11862	0.03382	0.39935	0.09151
798.000	0.24317	0.14523	0.44284	0.16512
799.000	0.28864	0.26459	0.48435	0.39190
800.000	0.44877	0.50529	0.62075	0.66241
801.000	0.55354	0.73403	0.73738	0.91499
802.000	0.72947	1.02238	0.76901	1.11583
803.000	0.79668	1.23712	0.87772	1.34445
804.000	0.92713	1.43588	0.93306	1.61279
805.000	0.95480	1.66843	1.02991	1.75981
806.000	0.99829	1.84329	1.01014	1.99628
807.000	1.04177	2.04394	1.03979	2.10353
808.000	0.98050	2.18302	0.94492	2.15127
809.000	0.96666	2.31213	0.98643	2.26247
810.000	0.86388	2.35986	0.81447	2.29832
811.000	0.72750	2.44135	0.84412	2.35590
812.000	0.61087	2.39574	0.68203	2.33017
813.000	0.49424	2.36997	0.61482	2.25671
814.000	0.40726	2.32630	0.51203	2.19518
815.000	0.29457	2.24887	0.35190	2.12768
816.000	0.24712	2.17140	0.33411	2.06411
817.000	0.10478	2.11977	0.22538	1.92305
818.000	0.10280	2.01248	0.28073	1.89522
819.000	0.00791	1.88928	0.12060	1.81773
820.000	-0.06326	1.72432	0.19770	1.66269
821.000	-0.06524	1.62493	0.20165	1.61697
822.000	-0.01582	1.55138	0.17793	1.57125
823.000	-0.03361	1.45198	0.23922	1.46588
824.000	0.01779	1.40227	0.25899	1.44997
825.000	0.09687	1.33666	0.36376	1.40224
826.000	0.16014	1.33665	0.39935	1.37838
827.000	0.22340	1.27501	0.45470	1.38235
828.000	0.23922	1.24120	0.49819	1.35053
829.000	0.33016	1.27897	0.62273	1.43201
830.000	0.40528	1.32668	0.59901	1.41214
831.000	0.43889	1.30083	0.52587	1.49367
832.000	0.43098	1.39030	0.65436	1.42007
833.000	0.51203	1.41216	0.65634	1.49562
834.000	0.46063	1.44597	0.63064	1.53538
835.000	0.50412	1.54536	0.56343	1.62088
836.000	0.53378	1.57318	0.59308	1.62882
837.000	0.49819	1.60698	0.62471	1.70434
838.000	0.48633	1.70637	0.51401	1.75804
839.000	0.47645	1.69842	0.59703	1.68249
840.000	0.48633	1.71233	0.52191	1.77195
841.000	0.51796	1.74611	0.50412	1.73220
842.000	0.47645	1.74612	0.55354	1.80175
843.000	0.49226	1.74016	0.49622	1.82959
844.000	0.46854	1.80774	0.45470	1.80575
845.000	0.49622	1.80177	0.49226	1.88722
846.000	0.48238	1.76799	0.42900	1.87532
847.000	0.46656	1.84152	0.44679	1.82364
848.000	0.50215	1.83158	0.50215	1.86735
849.000	0.48040	1.80575	0.43691	1.78986
850.000	0.45075	1.75607	0.44482	1.88922
851.000	0.49028	1.79978	0.46063	1.86736
852.000	0.45668	1.80178	0.53180	1.83554
853.000	0.50808	1.82561	0.44086	1.84352
854.000	0.39935	1.77198	0.43691	1.86935
855.000	0.42900	1.83358	0.39144	1.87334
856.000	0.48238	1.81568	0.38353	1.91706
857.000	0.41121	1.77198	0.39737	1.86539
858.000	0.49424	1.79382	0.47052	1.85742
859.000	0.47842	1.80376	0.44877	1.81172
860.000	0.48040	1.79780	0.40923	1.77198
861.000	0.42900	1.76204	0.46261	1.91108
862.000	0.46656	1.78985	0.43493	1.80576
863.000	0.41912	1.77993	0.42307	1.82762
864.000	0.42505	1.77794	0.40330	1.70838
865.000	0.45865	1.76799	0.48238	1.80575
866.000	0.41912	1.75608	0.40133	1.80577
867.000	0.48040	1.78587	0.37760	1.84751
868.000	0.46854	1.81171	0.42109	1.79582
869.000	0.48435	1.80773	0.42109	1.80179
870.000	0.47842	1.79979	0.42109	1.79582
871.000	0.47842	1.76004	0.36772	1.80180
872.000	0.45865	1.78985	0.39342	1.76403
873.000	0.46854	1.78985	0.44284	1.79781
874.000	0.47052	1.78786	0.35783	1.77596
875.000	0.45865	1.78389	0.41912	1.81967
876.000	0.47249	1.76600	0.39342	1.81570
877.000	0.49622	1.77394	0.44086	1.82563
878.000	0.47842	1.76401	0.41121	1.85147
879.000	0.47249	1.80575	0.40330	1.79185
880.000	0.46854	1.79383	0.41319	1.76601
881.000	0.49226	1.75407	0.39539	1.82763
882.000	0.48831	1.76600	0.40528	1.80974
883.000	0.47447	1.78389	0.34795	1.79187
884.000	0.50412	1.78587	0.36179	1.84353
885.000	0.52389	1.77592	0.42505	1.80576
886.000	0.51203	1.77791	0.37365	1.83161
887.000	0.54366	1.76201	0.40528	1.79583
888.000	0.50412	1.81766	0.34004	1.77398
889.000	0.48633	1.78190	0.41912	1.78390
890.000	0.49028	1.75805	0.34202	1.80180
891.000	0.47842	1.81966	0.41121	1.78390
892.000	0.52389	1.82362	0.31039	1.80976
893.000	0.48238	1.79581	0.39342	1.80577
894.000	0.52982	1.80176	0.33609	1.79982
895.000	0.49819	1.79183	0.39144	1.80179
896.000	0.51994	1.83952	0.40330	1.79583
897.000	0.48435	1.75606	0.40330	1.83756
898.000	0.52982	1.80573	0.33016	1.82565
899.000	0.49424	1.77991	0.37365	1.81571
900.000	0.52587	1.81965	0.31039	1.80976
901.000	0.49226	1.77792	0.32818	1.79584
902.000	0.51005	1.79779	0.37563	1.82366
903.000	0.53773	1.78784	0.26887	1.81772
904.000	0.52982	1.81170	0.36376	1.76801
905.000	0.52784	1.78983	0.34597	1.80180
906.000	0.51005	1.83157	0.32225	1.77994
907.000	0.50808	1.76599	0.31632	1.80181
908.000	0.52389	1.78785	0.31039	1.77200
909.000	0.50215	1.82363	0.38749	1.80577
910.000	0.54564	1.84945	0.31632	1.79187
911.000	0.50808	1.85145	0.34597	1.74615
912.000	0.49819	1.83357	0.29457	1.81175
913.000	0.49622	1.82760	0.35190	1.81373
914.000	0.49226	1.80574	0.27085	1.77399
915.000	0.50808	1.85741	0.24515	1.82964
916.000	0.51796	1.82164	0.33806	1.82764
917.000	0.49226	1.79183	0.28666	1.79585
918.000	0.52587	1.84349	0.25305	1.77399
919.000	0.49622	1.81965	0.28073	1.82964
920.000	0.51796	1.83753	0.24910	1.73623
921.000	0.50017	1.78587	0.27876	1.77995
922.000	0.54761	1.80573	0.27876	1.79188
923.000	0.52389	1.84151	0.29062	1.76405
924.000	0.57133	1.85342	0.24119	1.69648
925.000	0.56343	1.82162	0.25503	1.84554
926.000	0.54366	1.84150	0.32027	1.77995
927.000	0.54168	1.80772	0.29655	1.76206
928.000	0.54366	1.79778	0.32620	1.72429
929.000	0.56738	1.85739	0.33213	1.74019
930.000	0.56145	1.83752	0.25503	1.78989
931.000	0.55552	1.80771	0.26492	1.79188
932.000	0.58320	1.81367	0.27678	1.83958
933.000	0.55354	1.80175	0.25305	1.79784
934.000	0.53575	1.78387	0.26689	1.78592
935.000	0.56343	1.84944	0.22735	1.84753
936.000	0.54564	1.82560	0.29457	1.78790
937.000	0.57133	1.82758	0.26096	1.80182
938.000	0.59110	1.84546	0.26887	1.77797
939.000	0.55157	1.82361	0.29062	1.89919
940.000	0.57924	1.84149	0.24712	1.81772
941.000	0.57331	1.82957	0.24712	1.77797
942.000	0.58320	1.83354	0.21352	1.73226
943.000	0.59110	1.86335	0.22933	1.84554
944.000	0.60296	1.83155	0.21352	1.80580
945.000	0.60296	1.83155	0.24712	1.85349
946.000	0.56540	1.82560	0.16409	1.87735
947.000	0.56936	1.82361	0.22933	1.82766
948.000	0.58913	1.85540	0.23131	1.77598
949.000	0.55552	1.81566	0.16211	1.81574
950.000	0.59110	1.86136	0.27282	1.79585
951.000	0.56738	1.85540	0.20561	1.85548
952.000	0.60099	1.81366	0.23329	1.76008
953.000	0.57331	1.84745	0.16607	1.79984
954.000	0.58913	1.81168	0.22933	1.84753
955.000	0.58715	1.87726	0.22735	1.85747
956.000	0.58517	1.84149	0.24119	1.81573
957.000	0.61087	1.87924	0.23329	1.79387
958.000	0.56936	1.80373	0.20561	1.81176
959.000	0.61878	1.88718	0.20758	1.79387
960.000	0.56936	1.84547	0.22142	1.84356
961.000	0.61087	1.90110	0.19177	1.82170
962.000	0.56343	1.87130	0.21154	1.76605
963.000	0.59703	1.84546	0.14432	1.85152
964.000	0.64052	1.85737	0.19770	1.83164
965.000	0.61482	1.85539	0.18386	1.79586
966.000	0.58913	1.86136	0.17002	1.81375
967.000	0.63459	1.87128	0.20363	1.83362
968.000	0.59901	1.82956	0.17200	1.83760
969.000	0.58913	1.86732	0.17595	1.84754
970.000	0.60296	1.82360	0.21352	1.86343
971.000	0.63262	1.87128	0.18979	1.78990
972.000	0.58715	1.84149	0.16607	1.82170
973.000	0.65634	1.89313	0.20956	1.83561
974.000	0.65238	1.91896	0.21747	1.79586
975.000	0.63855	1.86532	0.24712	1.82169
976.000	0.63657	1.88916	0.22933	1.88132
977.000	0.66029	1.90505	0.18386	1.80183
978.000	0.67610	1.85338	0.17398	1.83561
979.000	0.69587	1.91895	0.27282	1.83163
980.000	0.67215	1.86928	0.14630	1.79388
981.000	0.61482	1.86135	0.28073	1.81374
982.000	0.65634	1.86531	0.19572	1.83164
983.000	0.68599	1.86530	0.17793	1.81574
984.000	0.65436	1.87127	0.20165	1.79586
985.000	0.61285	1.83949	0.16211	1.82568
986.000	0.69389	1.93286	0.10874	1.77599
987.000	0.69587	1.88318	0.20561	1.83760
988.000	0.65041	1.93287	0.17200	1.82369
989.000	0.65436	1.90704	0.18979	1.77400
990.000	0.69785	1.88715	0.15223	1.83562
991.000	0.64052	1.85339	0.11862	1.86145
992.000	0.66029	1.88915	0.21154	1.79984
993.000	0.67017	1.92889	0.15223	1.84158
994.000	0.67017	1.91697	0.21352	1.75810
995.000	0.69389	1.88914	0.15223	1.84953
996.000	0.69587	1.87920	0.17991	1.77996
997.000	0.70378	1.93484	0.11467	1.86742
998.000	0.67808	1.87921	0.11664	1.84158
999.000	0.65634	1.91101	0.12257	1.83959
1000.000	0.65634	1.89512	0.15223	1.77997
1001.000	0.72947	1.89906	0.11862	1.82767
1002.000	0.68994	1.87523	0.16014	1.81375
1003.000	0.68006	1.88517	0.21549	1.87536
1004.000	0.65436	1.87326	0.16607	1.85946
1005.000	0.66424	1.95075	0.15223	1.84158
1006.000	0.70180	1.93285	0.15223	1.88132
1007.000	0.66029	1.92095	0.15816	1.85549
1008.000	0.69982	1.89113	0.10280	1.86145
1009.000	0.67808	1.88319	0.14630	1.78990
1010.000	0.69587	1.91299	0.16014	1.80978
1011.000	0.69192	1.88318	0.20363	1.78791
1012.000	0.66820	1.90505	0.19177	1.77599
1013.000	0.65831	1.94877	0.19770	1.88132
1014.000	0.61087	1.92295	0.09292	1.73624
1015.000	0.44086	1.88724	0.01779	1.79190
1016.000	0.31236	1.89720	-0.09687	1.78593
1017.000	0.14234	1.97870	-0.21549	1.85946
1018.000	-0.09885	2.03831	-0.41912	1.88923
1019.000	-0.34399	2.10781	-0.72750	1.97854
1020.000	-0.70180	2.16928	-1.09710	1.94854
1021.000	-1.04967	2.29221	-1.41920	1.99597
1022.000	-1.50415	2.42681	-1.86958	2.12262
1023.000	-2.00979	2.54919	-2.24078	2.30275
1024.000	-2.36118	2.71323	-2.66703	2.51032
1025.000	-2.83074	2.89856	-3.14817	2.65793
1026.000	-3.38661	3.05350	-3.61706	2.83493
1027.000	-3.83361	3.32904	-4.05595	3.13033
1028.000	-4.17003	3.45422	-4.51205	3.25303
1029.000	-4.59260	3.67154	-4.89890	3.46062
1030.000	-4.94011	3.76443	-5.29902	3.52754
1031.000	-5.19512	3.84382	-5.56353	3.72321
1032.000	-5.49106	3.93462	-5.97841	3.85249
1033.000	-5.75539	3.98996	-6.24228	3.86831
1034.000	-5.97059	4.06325	-6.58004	3.95625
1035.000	-6.28917	4.12182	-6.92903	3.98288
1036.000	-6.47856	4.10653	-7.18021	4.06519
1037.000	-6.76727	4.15524	-7.41362	4.03756
1038.000	-6.94851	4.20670	-7.87582	4.06261
1039.000	-7.18216	4.25562	-8.16466	4.09109
1040.000	-7.26193	4.32356	-8.41633	4.01994
1041.000	-7.47388	4.35876	-8.67733	4.12287
1042.000	-7.64291	4.37471	-8.94568	4.15898
1043.000	-7.90880	4.33472	-9.11344	4.13361
1044.000	-7.96116	4.42624	-9.26372	4.10061
1045.000	-8.01545	4.43152	-9.39847	4.19860
1046.000	-8.11623	4.38148	-9.50235	4.26564
1047.000	-8.12010	4.45387	-9.56772	4.28824
1048.000	-8.13560	4.48502	-9.46581	4.33439
1049.000	-8.15497	4.50633	-9.46773	4.35193
1050.000	-8.10848	4.57144	-9.37730	4.39209
1051.000	-8.03289	4.61731	-9.28683	4.48885
1052.000	-8.02514	4.64284	-9.24831	4.53813
1053.000	-7.88358	4.67576	-9.14235	4.53363
1054.000	-7.82150	4.68820	-9.04019	4.50367
1055.000	-7.80597	4.70012	-8.89359	4.49377
1056.000	-7.73610	4.70678	-8.74687	4.52095
1057.000	-7.75940	4.64386	-8.68312	4.47872
1058.000	-7.77686	4.57512	-8.62322	4.46965
1059.000	-7.81568	4.63345	-8.55750	4.39220
1060.000	-7.88358	4.51129	-8.60196	4.37018
1061.000	-7.86612	4.51344	-8.57490	4.34115
1062.000	-8.01545	4.51963	-8.70051	4.31233
1063.000	-8.02708	4.52929	-8.63289	4.32875
1064.000	-8.10460	4.52451	-8.76811	4.36629
1065.000	-8.20340	4.49209	-8.81252	4.45176
1066.000	-8.16660	4.45727	-8.85692	4.41606
1067.000	-8.27892	4.54798	-8.98619	4.45161
1068.000	-8.25956	4.54037	-9.01126	4.39662
1069.000	-8.32538	4.52005	-9.15970	4.53536
1070.000	-8.36021	4.56073	-9.24061	4.49334
1071.000	-8.31570	4.63752	-9.21942	4.51313
1072.000	-8.40472	4.67166	-9.29645	4.54336
1073.000	-8.37763	4.67981	-9.24638	4.58303
1074.000	-8.33118	4.68623	-9.32533	4.64247
1075.000	-8.33312	4.74290	-9.33688	4.58185
1076.000	-8.29441	4.72382	-9.34843	4.70846
1077.000	-8.35441	4.72310	-9.27720	4.68796
1078.000	-8.32731	4.71951	-9.26757	4.61007
1079.000	-8.26343	4.72223	-9.25794	4.60629
1080.000	-8.29634	4.72379	-9.26564	4.63935
1081.000	-8.28279	4.70831	-9.25987	4.61407
1082.000	-8.27117	4.71627	-9.24831	4.64738
1083.000	-8.29247	4.71993	-9.15391	4.58813
1084.000	-8.28279	4.69462	-9.17704	4.61710
1085.000	-8.31376	4.68839	-9.21942	4.56582
1086.000	-8.28279	4.70636	-9.16355	4.59581
1087.000	-8.23245	4.72260	-9.23868	4.56947
1088.000	-8.29441	4.71404	-9.14621	4.56676
1089.000	-8.21696	4.71496	-9.22327	4.59699
1090.000	-8.28085	4.74744	-9.13079	4.55720
1091.000	-8.22858	4.67571	-9.11344	4.58669
1092.000	-8.18016	4.70170	-9.14043	4.55317
1093.000	-8.25762	4.71057	-9.14813	4.56283
1094.000	-8.26730	4.65178	-9.13850	4.60589
1095.000	-8.21502	4.68956	-9.12886	4.52794
1096.000	-8.22470	4.67771	-9.15391	4.54909
1097.000	-8.22083	4.67971	-9.18667	4.61112
1098.000	-8.24213	4.67946	-9.19245	4.55641
1099.000	-8.18209	4.62343	-9.08453	4.54412
1100.000	-8.16660	4.69599	-9.13272	4.49861
1101.000	-8.13173	4.72379	-9.17126	4.56644
1102.000	-8.11041	4.68100	-9.18282	4.59166
1103.000	-8.20534	4.73074	-9.18667	4.48427
1104.000	-8.18209	4.69581	-9.11730	4.51833
1105.000	-8.16272	4.73907	-9.18667	4.55063
1106.000	-8.17241	4.69006	-9.17704	4.62295
1107.000	-8.25762	4.66363	-9.19823	4.58365
1108.000	-8.26149	4.67141	-9.17318	4.59764
1109.000	-8.20340	4.71121	-9.16933	4.57037
1110.000	-8.18597	4.62534	-9.12501	4.58655
1111.000	-8.20340	4.70534	-9.17704	4.48049
1112.000	-8.19178	4.66049	-9.22520	4.51501
1113.000	-8.22858	4.69918	-9.16355	4.55678
1114.000	-8.18403	4.64102	-9.23483	4.57928
1115.000	-8.19953	4.67996	-9.20208	4.58360
1116.000	-8.13173	4.69836	-9.24831	4.54789
1117.000	-8.16660	4.71360	-9.19052	4.63058
1118.000	-8.16466	4.69210	-9.20594	4.55624
1119.000	-8.19178	4.69374	-9.17704	4.53904
1120.000	-8.21502	4.67587	-9.17704	4.56441
1121.000	-8.20921	4.71310	-9.20016	4.60314
1122.000	-8.19565	4.73672	-9.16548	4.56261
1123.000	-8.18403	4.70166	-9.23483	4.56952
1124.000	-8.18597	4.67816	-9.22712	4.54230
1125.000	-8.13560	4.65136	-9.21171	4.53665
1126.000	-8.20534	4.65055	-9.21557	4.52099
1127.000	-8.23632	4.70300	-9.16933	4.55670
1128.000	-8.21502	4.73258	-9.22520	4.55013
1129.000	-8.21889	4.73449	-9.24061	4.58701
1130.000	-8.21889	4.67778	-9.14235	4.54534
1131.000	-8.20534	4.73465	-9.15970	4.56268
1132.000	-8.23826	4.64625	-9.23675	4.55194
1133.000	-8.20534	4.67794	-9.22135	4.55604
1134.000	-8.18790	4.69966	-9.23290	4.52857
1135.000	-8.21308	4.70718	-9.17704	4.55661
1136.000	-8.28085	4.69074	-9.27335	4.58268
1137.000	-8.24407	4.69704	-9.20208	4.52506
1138.000	-8.19759	4.69172	-9.17318	4.58007
1139.000	-8.22664	4.62683	-9.21171	4.46248
1140.000	-8.18016	4.73104	-9.20208	4.52311
1141.000	-8.22470	4.72073	-9.18667	4.56234
1142.000	-8.24019	4.68926	-9.17126	4.54692
1143.000	-8.26537	4.72221	-9.17896	4.53902
1144.000	-8.19178	4.74850	-9.15006	4.55305
1145.000	-8.24988	4.68719	-9.21557	4.49952
1146.000	-8.27892	4.72791	-9.22135	4.52872
1147.000	-8.22277	4.71098	-9.27142	4.50661
1148.000	-8.16660	4.72729	-9.21749	4.54048
1149.000	-8.24407	4.69704	-9.27335	4.54951
1150.000	-8.19372	4.72892	-9.16548	4.54895
1151.000	-8.25956	4.75356	-9.23483	4.51098
1152.000	-8.16272	4.73125	-9.20401	4.51918
1153.000	-8.22664	4.74418	-9.22905	4.54228
1154.000	-8.21502	4.71303	-9.23483	4.50513
1155.000	-8.17241	4.71353	-9.20401	4.57577
1156.000	-8.24988	4.71848	-9.20786	4.50937
1157.000	-8.18984	4.74070	-9.26757	4.63933
1158.000	-8.20727	4.70725	-9.30800	4.57833
1159.000	-8.18209	4.72515	-9.26949	4.50078
1160.000	-8.22277	4.71489	-9.20786	4.49962
1161.000	-8.28085	4.69269	-9.25794	4.51069
1162.000	-8.17628	4.73891	-9.20016	4.53094
1163.000	-8.20921	4.75221	-9.25794	4.54971
1164.000	-8.20921	4.70723	-9.21364	4.54052
1165.000	-8.19565	4.70543	-9.23868	4.49532
1166.000	-8.20921	4.74830	-9.31378	4.57045
1167.000	-8.21115	4.73459	-9.22135	4.51896
1168.000	-8.25956	4.71250	-9.22712	4.53645
1169.000	-8.24213	4.75768	-9.30030	4.53551
1170.000	-8.22664	4.73245	-9.17896	4.48827
1171.000	-8.25181	4.75366	-9.25024	4.50883
1172.000	-8.21308	4.69154	-9.34266	4.58958
1173.000	-8.25568	4.75556	-9.33496	4.53701
1174.000	-8.28085	4.73571	-9.34073	4.55059
1175.000	-8.28085	4.63793	-9.27720	4.57092
1176.000	-8.25568	4.71059	-9.21749	4.51120
1177.000	-8.23051	4.73436	-9.33881	4.50380
1178.000	-8.18209	4.65473	-9.29260	4.53561
1179.000	-8.26537	4.73785	-9.22520	4.55989
1180.000	-8.28666	4.72782	-9.22905	4.55789
1181.000	-8.27505	4.70645	-9.18667	4.59161
1182.000	-8.23051	4.74413	-9.28875	4.49859
1183.000	-8.24988	4.68132	-9.22327	4.53260
1184.000	-8.22470	4.72073	-9.23675	4.57730
1185.000	-8.25568	4.70277	-9.25987	4.54579
1186.000	-8.32151	4.74500	-9.22520	4.58916
1187.000	-8.24407	4.74593	-9.29068	4.54149
1188.000	-8.27117	4.71041	-9.29453	4.52388
1189.000	-8.25181	4.73801	-9.25409	4.59659
1190.000	-8.33312	4.74095	-9.31186	4.58998
1191.000	-8.22664	4.75982	-9.24253	4.53625
1192.000	-8.28279	4.76306	-9.34843	4.55049
1193.000	-8.25762	4.79855	-9.30993	4.51782
1194.000	-8.31763	4.71767	-9.34458	4.54274
1195.000	-8.23051	4.71480	-9.23483	4.52269
1196.000	-8.33312	4.71162	-9.30800	4.55492
1197.000	-8.23632	4.71864	-9.26372	4.58866
1198.000	-8.25375	4.71452	-9.34651	4.49980
1199.000	-8.34473	4.77208	-9.29068	4.49076
1200.000	-8.24213	4.74008	-9.32533	4.55469
1201.000	-8.28279	4.75719	-9.27912	4.53383
1202.000	-8.27311	4.74753	-9.24061	4.55579
1203.000	-8.30989	4.71972	-9.25024	4.52640
1204.000	-8.29247	4.73753	-9.29645	4.55117
1205.000	-8.32731	4.74884	-9.31378	4.61921
1206.000	-8.30602	4.76473	-9.31186	4.56462
1207.000	-8.30796	4.76276	-9.26757	4.57690
1208.000	-8.31570	4.77244	-9.29838	4.51992
1209.000	-8.30215	4.80192	-9.33881	4.56817
1210.000	-8.30215	4.77065	-9.32148	4.48646
1211.000	-8.31763	4.73722	-9.31378	4.58215
1212.000	-8.30021	4.76089	-9.37153	4.58335
1213.000	-8.30796	4.75103	-9.31956	4.56647
1214.000	-8.34860	4.72512	-9.34266	4.62273
1215.000	-8.31183	4.73143	-9.40617	4.55754
1216.000	-8.22664	4.75396	-9.38885	4.57532
1217.000	-8.33893	4.68027	-9.34073	4.44914
1218.000	-8.30989	4.75100	-9.26179	4.58478
1219.000	-8.27892	4.70640	-9.25794	4.56142
1220.000	-8.26537	4.73785	-9.31763	4.49236
1221.000	-8.30796	4.74125	-9.35998	4.54254
1222.000	-8.32151	4.72936	-9.31763	4.55674
1223.000	-8.27892	4.76311	-9.30223	4.51988
1224.000	-8.29247	4.72384	-9.23868	4.55777
1225.000	-8.23632	4.75188	-9.35613	4.54064
1226.000	-8.29828	4.77069	-9.29068	4.53758
1227.000	-8.31957	4.73524	-9.38115	4.55787
1228.000	-8.30796	4.73734	-9.30800	4.55687
1229.000	-8.31763	4.73331	-9.34458	4.52908
1230.000	-8.30408	4.72957	-9.29260	4.50829
1231.000	-8.26730	4.73978	-9.42733	4.56896
1232.000	-8.27311	4.73189	-9.33111	4.58973
1233.000	-8.26149	4.69292	-9.28297	4.52207
1234.000	-8.31570	4.72356	-9.33303	4.53313
1235.000	-8.30796	4.77253	-9.36190	4.56592
1236.000	-8.27311	4.75535	-9.38307	4.55199
1237.000	-8.26149	4.77700	-9.36768	4.51318
1238.000	-8.30796	4.71779	-9.35228	4.59725
1239.000	-8.36602	4.75032	-9.31763	4.57820
1240.000	-8.29634	4.70424	-9.36768	4.55414
1241.000	-8.29441	4.72773	-9.25987	4.62577
1242.000	-8.30021	4.74525	-9.32726	4.55662
1243.000	-8.31763	4.73918	-9.33688	4.55454
1244.000	-8.30602	4.76082	-9.33303	4.59946
1245.000	-8.30408	4.72957	-9.33111	4.54877
1246.000	-8.29634	4.72966	-9.29453	4.50436
1247.000	-8.30796	4.73538	-9.29645	4.57848
1248.000	-8.30215	4.66311	-9.34266	4.52130
1249.000	-8.28860	4.71411	-9.34458	4.53298
1250.000	-8.26537	4.70656	-9.31956	4.58988
1251.000	-8.25181	4.69108	-9.30415	4.51985
1252.000	-8.31570	4.69619	-9.30223	4.50427
1253.000	-8.28860	4.74539	-9.26949	4.54371
1254.000	-8.35054	4.70750	-9.33303	4.50192
1255.000	-8.29828	4.69248	-9.36190	4.60688
1256.000	-8.26149	4.73594	-9.30415	4.59593
1257.000	-8.32538	4.70389	-9.31956	4.55087
1258.000	-8.31957	4.72547	-9.29645	4.51214
1259.000	-8.36602	4.73468	-9.22712	4.59108
1260.000	-8.31570	4.76853	-9.39077	4.54799
1261.000	-8.32151	4.73718	-9.29260	4.51219
1262.000	-8.29053	4.77861	-9.30800	4.50224
1263.000	-8.27505	4.74164	-9.25601	4.51071
1264.000	-8.29247	4.69842	-9.34073	4.56620
1265.000	-8.36408	4.71907	-9.25216	4.53027
1266.000	-8.30796	4.71974	-9.27335	4.54366
1267.000	-8.32151	4.70785	-9.32148	4.53914
1268.000	-8.30989	4.71972	-9.41386	4.52233
1269.000	-8.28085	4.78263	-9.29453	4.58436
1270.000	-8.36408	4.72884	-9.35421	4.55432
1271.000	-8.33312	4.67838	-9.37345	4.55212
1272.000	-8.28666	4.70631	-9.32533	4.49226
1273.000	-8.34667	4.71146	-9.38692	4.56169
1274.000	-8.34280	4.75451	-9.25987	4.55554
1275.000	-8.30408	4.74716	-9.27335	4.48902
1276.000	-8.31570	4.70987	-9.33496	4.44921
1277.000	-8.24988	4.74781	-9.22520	4.52867
1278.000	-8.31183	4.71774	-9.30993	4.52563
1279.000	-8.30215	4.76478	-9.35998	4.55034
1280.000	-8.24600	4.70875	-9.31571	4.51385
1281.000	-8.31570	4.70792	-9.33496	4.55457
1282.000	-8.31957	4.73329	-9.38692	4.57534
1283.000	-8.29053	4.73755	-9.36383	4.53859
1284.000	-8.31957	4.72156	-9.28490	4.49473
1285.000	-8.26149	4.73007	-9.35036	4.54461
1286.000	-8.29053	4.74341	-9.36575	4.52296
1287.000	-8.33118	4.74488	-9.36768	4.50537
1288.000	-8.33312	4.71944	-9.35421	4.53871
1289.000	-8.35634	4.74067	-9.33688	4.49602
1290.000	-8.31763	4.72354	-9.30993	4.60171
1291.000	-8.30215	4.71786	-9.26179	4.54381
1292.000	-8.33893	4.73892	-9.33111	4.53901
1293.000	-8.33893	4.75847	-9.30993	4.56270
1294.000	-8.38537	4.71881	-9.30608	4.50422
1295.000	-8.33699	4.72917	-9.35036	4.50365
1296.000	-8.29828	4.69639	-9.37153	4.52093
1297.000	-8.31957	4.69810	-9.34651	4.57782
1298.000	-8.33312	4.73704	-9.35805	4.62448
1299.000	-8.35441	4.73287	-9.26372	4.65303
1300.000	-8.31763	4.77632	-9.38307	4.56174
1301.000	-8.27698	4.74944	-9.32148	4.61911
1302.000	-8.35441	4.73287	-9.31763	4.54114
1303.000	-8.39698	4.78708	-9.39655	4.61032
1304.000	-8.33699	4.71548	-9.38307	4.56174
1305.000	-8.36021	4.78753	-9.32726	4.56247
1306.000	-8.38537	4.70904	-9.37153	4.57945
1307.000	-8.32151	4.74695	-9.35036	4.60313
1308.000	-8.32538	4.80360	-9.33688	4.55649
1309.000	-8.38730	4.74420	-9.27527	4.57680
1310.000	-8.33699	4.79563	-9.28875	4.52005
1311.000	-8.36795	4.76398	-9.36190	4.61468
1312.000	-8.40085	4.75967	-9.33688	4.50772
1313.000	-8.40472	4.74985	-9.33303	4.51753
1314.000	-8.43761	4.77095	-9.25987	4.53798
1315.000	-8.39891	4.81442	-9.31956	4.62694
1316.000	-8.39891	4.73624	-9.37730	4.54036
1317.000	-8.42987	4.79645	-9.34843	4.53684
1318.000	-8.38730	4.83997	-9.30415	4.56862
1319.000	-8.40472	4.78308	-9.39655	4.57132
1320.000	-8.35441	4.78565	-9.34266	4.54471
1321.000	-8.36602	4.76792	-9.34073	4.56815
1322.000	-8.40278	4.79483	-9.40039	4.57517
1323.000	-8.44341	4.79042	-9.37153	4.57945
1324.000	-8.36795	4.79135	-9.37538	4.49942
1325.000	-8.42213	4.78482	-9.30223	4.56865
1326.000	-8.37376	4.85186	-9.30415	4.53936
1327.000	-8.38537	4.80481	-9.37730	4.53061
1328.000	-8.39311	4.79886	-9.34843	4.60706
1329.000	-8.35441	4.78760	-9.37538	4.58720
1330.000	-8.34280	4.85029	-9.35421	4.56602
1331.000	-8.39311	4.77540	-9.33688	4.60136
1332.000	-8.40085	4.82807	-9.37730	4.55207
1333.000	-8.38150	4.84395	-9.34843	4.59145
1334.000	-8.38924	4.81258	-9.30800	4.55882
1335.000	-8.43954	4.79047	-9.30608	4.49446
1336.000	-8.38730	4.87905	-9.35228	4.59530
1337.000	-8.40472	4.84757	-9.39462	4.52063
1338.000	-8.37956	4.80489	-9.42541	4.51243
1339.000	-8.36602	4.82069	-9.38307	4.60270
1340.000	-8.37182	4.87729	-9.41386	4.50868
1341.000	-8.33893	4.82493	-9.38885	4.56557
1342.000	-8.36795	4.86561	-9.43695	4.60978
1343.000	-8.32538	4.82510	-9.39655	4.54986
1344.000	-8.34086	4.82100	-9.34458	4.53298
1345.000	-8.35054	4.78570	-9.29838	4.55699
1346.000	-8.33118	4.82698	-9.26949	4.55542
1347.000	-8.35054	4.81892	-9.32533	4.58005
1348.000	-8.25956	4.88454	-9.36768	4.60680
1349.000	-8.35828	4.84228	-9.38115	4.59687
1350.000	-8.31763	4.82910	-9.28875	4.62149
1351.000	-8.25956	4.84936	-9.28105	4.63135
1352.000	-8.36989	4.83627	-9.36960	4.64383
1353.000	-8.35828	4.87159	-9.36575	4.56392
1354.000	-8.29828	4.83325	-9.23483	4.60464
1355.000	-8.31570	4.80371	-9.25601	4.61607
1356.000	-8.37956	4.84397	-9.24446	4.59476
1357.000	-8.33699	4.82104	-9.17896	4.54097
1358.000	-8.33893	4.84252	-9.31571	4.62309
1359.000	-8.31570	4.81935	-9.26949	4.55542
1360.000	-8.32731	4.79575	-9.31763	4.66207
1361.000	-8.35634	4.78563	-9.34073	4.61886
1362.000	-8.37569	4.77757	-9.28297	4.54549
1363.000	-8.30796	4.79403	-9.36190	4.60298
1364.000	-8.33699	4.76631	-9.43503	4.59616
1365.000	-8.32538	4.82900	-9.29645	4.57848
1366.000	-8.35054	4.83260	-9.34073	4.57205
1367.000	-8.30215	4.79019	-9.34266	4.62273
1368.000	-8.30602	4.79992	-9.30800	4.59978
1369.000	-8.35247	4.84431	-9.44080	4.61558
1370.000	-8.29247	4.78249	-9.42541	4.59629
1371.000	-8.32538	4.82900	-9.38692	4.54219
1372.000	-8.30021	4.81563	-9.41194	4.57111
1373.000	-8.34086	4.78972	-9.39462	4.54794
1374.000	-8.34667	4.84242	-9.35228	4.62456
1375.000	-8.30796	4.80185	-9.39077	4.58699
1376.000	-8.33118	4.81916	-9.40232	4.59659
1377.000	-8.34860	4.80331	-9.42156	4.51833
1378.000	-8.35441	4.81497	-9.46581	4.61330
1379.000	-8.39117	4.81256	-9.36575	4.57562
1380.000	-8.34667	4.81506	-9.39077	4.57139
1381.000	-8.32151	4.80951	-9.43310	4.59034
1382.000	-8.36215	4.79142	-9.40809	4.57311
1383.000	-8.30408	4.80972	-9.40039	4.55761
1384.000	-8.36989	4.81087	-9.37730	4.60472
1385.000	-8.27892	4.80416	-9.40617	4.62384
1386.000	-8.37376	4.81082	-9.33881	4.56622
1387.000	-8.33312	4.78200	-9.38885	4.55972
1388.000	-8.31376	4.83892	-9.39077	4.56554
1389.000	-8.31957	4.80953	-9.35613	4.61085
1390.000	-8.36602	4.77769	-9.37345	4.59112
1391.000	-8.37956	4.83225	-9.35421	4.65183
1392.000	-8.35247	4.76026	-9.31956	4.56842
1393.000	-8.38537	4.82631	-9.34458	4.58565
1394.000	-8.40665	4.75569	-9.32726	4.60538
1395.000	-8.38150	4.80877	-9.33496	4.59358
1396.000	-8.33312	4.79959	-9.31378	4.63482
1397.000	-8.32731	4.83094	-9.35613	4.62841
1398.000	-8.35441	4.82278	-9.35613	4.64401
1399.000	-8.35054	4.81501	-9.37730	4.56572
1400.000	-8.39311	4.80667	-9.39077	4.60260
1401.000	-8.39698	4.81640	-9.41964	4.62171
1402.000	-8.37569	4.80102	-9.37923	4.62030
1403.000	-8.40472	4.79090	-9.41964	4.59051
1404.000	-8.40085	4.77140	-9.38307	4.58710
1405.000	-8.38730	4.75397	-9.28490	4.60399
1406.000	-8.42987	4.77886	-9.27720	4.61579
1407.000	-8.29053	4.87048	-9.08453	4.61829
1408.000	-8.15691	4.78999	-9.06525	4.62830
1409.000	-8.05809	4.83028	-8.85885	4.62701
1410.000	-7.78851	4.78841	-8.60969	4.63009
1411.000	-7.56327	4.82619	-8.29441	4.69253
1412.000	-7.25999	4.80990	-7.87776	4.70910
1413.000	-6.87057	4.79432	-7.39029	4.71641
1414.000	-6.54882	4.67577	-6.78481	4.70885
1415.000	-5.97841	4.59830	-6.20907	4.70243
1416.000	-5.44404	4.50024	-5.65164	4.57145
1417.000	-5.01664	4.37722	-5.06372	4.47540
1418.000	-4.35681	4.35570	-4.39808	4.41857
1419.000	-3.85919	4.30907	-3.98906	4.25117
1420.000	-3.51268	4.27323	-3.34327	4.14756
1421.000	-2.95300	4.26965	-2.82877	3.97558
1422.000	-2.57035	4.16428	-2.33947	3.89995
1423.000	-2.07100	4.03915	-1.88735	3.75262
1424.000	-1.59700	3.92741	-1.34412	3.65261
1425.000	-1.17220	3.85882	-0.93504	3.41137
1426.000	-0.81447	3.72852	-0.60494	3.31053
1427.000	-0.39737	3.60597	-0.14234	3.15205
1428.000	0.00000	3.47327	0.21352	3.01318
1429.000	0.44877	3.25112	0.52191	2.80672
1430.000	0.87179	3.07237	0.93702	2.75883
1431.000	1.28484	2.84383	1.24927	2.67520
1432.000	1.79256	2.72413	1.60491	2.41280
1433.000	2.18945	2.53898	2.06112	2.36059
1434.000	2.62954	2.36955	2.56641	2.15933
1435.000	3.06144	2.24371	3.07524	1.92030
1436.000	3.47526	2.02267	3.36494	1.71738
1437.000	3.98906	1.88272	3.83164	1.55585
1438.000	4.46097	1.71712	4.23295	1.36871
1439.000	4.97151	1.54357	4.72222	1.24493
1440.000	5.39114	1.45545	5.32450	1.07152
1441.000	5.92561	1.40269	5.69667	0.96002
1442.000	6.42976	1.38358	6.08204	0.96924
1443.000	6.84913	1.38832	6.48247	0.94479
1444.000	7.30278	1.35540	6.81990	0.96981
1445.000	7.66815	1.34245	7.15296	0.88821
1446.000	7.99994	1.32366	7.50303	0.97427
1447.000	8.38924	1.36564	7.77686	0.96380
1448.000	8.72755	1.42142	8.15110	1.02788
1449.000	8.99583	1.54998	8.50143	0.99353
1450.000	9.41001	1.51483	8.75073	1.04791
1451.000	9.74257	1.59955	9.03055	1.02158
1452.000	9.99778	1.63942	9.20786	1.20167
1453.000	10.30428	1.71999	9.49658	1.10457
1454.000	10.55287	1.70494	9.75601	1.15076
1455.000	10.73046	1.66685	9.76945	1.18599
1456.000	10.93643	1.69888	10.10321	1.22002
1457.000	11.16686	1.66049	10.15685	1.14347
1458.000	11.27718	1.67740	10.28897	1.06473
1459.000	11.35512	1.71397	10.24686	1.11771
1460.000	11.43111	1.59662	10.39229	1.14458
1461.000	11.45960	1.69386	10.45922	1.03481
1462.000	11.48428	1.61190	10.40759	1.00173
1463.000	11.38932	1.65336	10.34064	0.94716
1464.000	11.26007	1.65996	10.29662	0.93947
1465.000	11.19730	1.65642	10.17218	0.86740
1466.000	11.07168	1.57130	10.17026	0.86545
1467.000	10.92500	1.65405	10.05338	0.82464
1468.000	10.87353	1.58601	9.98820	0.88357
1469.000	10.82967	1.57258	9.91340	0.76229
1470.000	10.74954	1.53394	9.87694	0.87799
1471.000	10.71519	1.46965	9.85391	0.86237
1472.000	10.67510	1.43467	9.84816	0.86827
1473.000	10.69038	1.39748	9.95368	0.87778
1474.000	10.68083	1.32719	9.89229	0.90930
1475.000	10.76672	1.22718	9.83280	0.84283
1476.000	10.82013	1.21915	9.95368	0.91305
1477.000	10.88497	1.19350	9.92299	0.87787
1478.000	10.94596	1.19912	10.10129	0.83235
1479.000	11.08311	1.15367	10.11854	0.76964
1480.000	11.15734	1.19045	10.20665	0.80662
1481.000	11.24295	1.16474	10.17026	0.72253
1482.000	11.31330	1.08060	10.27940	0.82601
1483.000	11.37032	1.15253	10.30619	0.83377
1484.000	11.37602	1.16810	10.26217	0.84367
1485.000	11.42541	1.19129	10.32533	0.79458
1486.000	11.41782	1.19717	10.33490	0.79064
1487.000	11.39882	1.29666	10.32341	0.82002
1488.000	11.41402	1.25761	10.23345	0.84179
1489.000	11.44251	1.28282	10.28323	0.91407
1490.000	11.41212	1.30050	10.30236	0.90227
1491.000	11.41782	1.36674	10.21048	0.93189
1492.000	11.38362	1.36690	10.21431	0.96124
1493.000	11.39692	1.37658	10.25068	0.85544
1494.000	11.36272	1.33386	10.19133	0.88497
1495.000	11.34372	1.30666	10.09171	0.92636
1496.000	11.35132	1.35731	10.18558	0.89673
1497.000	11.28859	1.46484	10.17026	0.88698
1498.000	11.26577	1.42986	10.12620	0.85969
1499.000	11.27528	1.41227	10.10129	0.97725
1500.000	11.23915	1.35004	10.04188	0.85404
1501.000	11.21442	1.36381	10.09554	0.83236
1502.000	11.19540	1.35804	10.07255	0.87746
1503.000	11.19350	1.36391	10.04955	0.96369
1504.000	11.14212	1.45388	10.02271	0.86193
1505.000	11.15544	1.42456	10.09554	0.88132
1506.000	11.11928	1.40522	10.00929	0.85217
1507.000	11.13831	1.40318	10.03038	0.85603
1508.000	11.09834	1.43459	10.00162	0.92075
1509.000	11.10405	1.37603	10.03613	0.97157
1510.000	11.13260	1.39931	10.03421	1.02837
1511.000	11.13260	1.46953	10.05721	0.90884
1512.000	11.08121	1.44443	10.00162	0.89724
1513.000	11.10024	1.40336	9.95943	0.91303
1514.000	11.07740	1.34689	10.05338	0.81680
1515.000	11.13260	1.37199	10.04955	0.94215
1516.000	11.12309	1.47544	10.10512	0.91458
1517.000	11.10405	1.37018	10.03805	0.94023
1518.000	11.12880	1.41688	10.03421	0.93240
1519.000	11.09453	1.44436	10.03421	0.90107
1520.000	11.12880	1.39542	10.05530	0.87359
1521.000	11.12499	1.34277	10.11279	0.87344
1522.000	11.16115	1.38161	10.08405	0.86372
1523.000	11.09453	1.48338	10.05721	0.88534
1524.000	11.14783	1.42069	9.97861	0.91102
1525.000	11.14973	1.44019	9.97669	0.91102
1526.000	11.16115	1.41673	10.04380	0.87950
1527.000	11.13260	1.42077	10.03613	0.87756
1528.000	11.17066	1.46544	10.04380	0.88146
1529.000	11.13070	1.45394	10.06680	0.91860
1530.000	11.13831	1.47731	10.10321	0.96353
1531.000	11.11928	1.42668	10.03038	0.85407
1532.000	11.10405	1.44237	10.10704	0.84212
1533.000	11.14593	1.35047	10.06105	0.87749
1534.000	11.14402	1.36414	10.09554	0.89306
1535.000	11.16305	1.41867	10.07830	0.85003
1536.000	11.14783	1.41094	10.08596	0.86372
1537.000	11.15354	1.43627	10.01887	0.86390
1538.000	11.15734	1.43430	10.00162	0.89724
1539.000	11.15354	1.38360	10.05146	0.90690
1540.000	11.14593	1.46947	10.03229	0.83840
1541.000	11.15164	1.49089	10.09554	0.89894
1542.000	11.15164	1.47529	10.06105	0.87162
1543.000	11.15544	1.52403	10.13578	0.92624
1544.000	11.14212	1.49484	10.04955	0.86577
1545.000	11.18589	1.42831	10.04188	0.91867
1546.000	11.18589	1.45561	10.18750	0.88106
1547.000	11.20491	1.48672	10.11854	0.87734
1548.000	11.19540	1.42436	10.04188	0.93238
1549.000	11.19159	1.47704	10.02846	1.00293
1550.000	11.14783	1.51822	9.96902	0.94434
1551.000	11.19159	1.45363	10.01887	0.90699
1552.000	11.19730	1.46141	10.07446	0.92837
1553.000	11.20301	1.43017	10.03229	0.97158
1554.000	11.17066	1.48300	10.23154	0.91422
1555.000	11.17637	1.50247	10.01887	0.87173
1556.000	11.15734	1.45771	10.09938	0.82452
1557.000	11.19350	1.41462	10.04571	0.88733
1558.000	11.16496	1.36989	10.10704	0.91653
1559.000	11.20681	1.38530	10.02654	0.81687
1560.000	11.16305	1.42647	10.14536	0.83419
1561.000	11.16686	1.41865	10.06296	0.90882
1562.000	11.16305	1.45573	10.08979	0.92441
1563.000	11.20872	1.47500	10.04763	0.98133
1564.000	11.16115	1.42258	10.15110	0.88312
1565.000	11.14783	1.41679	10.12428	0.80879
1566.000	11.10595	1.48918	10.00929	1.01670
1567.000	11.16876	1.45570	10.03805	0.90693
1568.000	11.09453	1.49899	10.04955	0.96174
1569.000	11.13641	1.46561	9.97286	0.98547
1570.000	11.12499	1.47738	10.07063	0.93622
1571.000	11.12118	1.43448	10.07638	0.88528
1572.000	11.09263	1.50485	10.03613	0.90498
1573.000	11.14593	1.46166	10.02846	0.95005
1574.000	11.07930	1.48541	10.12812	1.02611
1575.000	11.12118	1.47349	10.00162	0.95013
1576.000	11.09263	1.45803	10.11087	0.96547
1577.000	11.13641	1.44221	10.08788	0.94008
1578.000	11.15544	1.45772	10.05721	0.81483
1579.000	11.10976	1.45404	10.03805	0.98527
1580.000	11.11357	1.43647	10.03229	0.89520
1581.000	11.14783	1.40509	10.08213	0.97535
1582.000	11.13831	1.40903	10.03996	0.90693
1583.000	11.15354	1.31727	10.13770	0.86749
1584.000	11.12689	1.41494	10.11087	0.92043
1585.000	11.16115	1.45184	10.11087	0.96743
1586.000	11.16496	1.37379	10.17026	0.89090
1587.000	11.14212	1.42657	10.11470	0.92434
1588.000	11.10786	1.43844	10.13578	0.90862
1589.000	11.08311	1.35076	10.03996	0.93826
1590.000	11.10595	1.38383	10.07063	0.88138
1591.000	11.11928	1.44424	10.09363	0.84020
1592.000	11.08692	1.45416	10.06105	0.90491
1593.000	11.09453	1.46582	10.10321	0.90675
1594.000	11.10595	1.42480	10.05721	0.89709
1595.000	11.07930	1.42493	10.03805	0.91281
1596.000	11.12689	1.38763	10.04188	0.95588
1597.000	11.10595	1.49308	10.06871	0.94014
1598.000	11.09834	1.42093	10.05530	0.81876
1599.000	11.10786	1.44625	10.05146	0.89515
1600.000	11.07359	1.47178	10.09938	0.92634
1601.000	11.10976	1.41698	10.04571	0.86578
1602.000	11.06788	1.41328	10.03229	0.93829
1603.000	11.10405	1.43066	10.11279	0.85190
1604.000	11.12118	1.42082	10.04571	0.93629
1605.000	11.10405	1.42871	10.12620	0.91060
1606.000	11.09072	1.39756	10.13961	0.89294
1607.000	11.11167	1.42867	10.14919	0.86355
1608.000	11.06978	1.43278	10.18175	0.85563
1609.000	11.09453	1.47558	10.13195	0.94583
1610.000	11.12118	1.44423	10.13578	0.86750
1611.000	11.05074	1.43482	10.08979	0.95378
1612.000	11.08501	1.45417	10.04763	0.91474
1613.000	11.08882	1.49317	10.03421	0.91478
1614.000	11.05264	1.46408	10.13195	0.92625
1615.000	11.06978	1.45229	10.05338	0.83639
1616.000	11.07930	1.43859	10.10704	0.92045
1617.000	11.06026	1.47770	10.06488	0.88336
1618.000	11.07549	1.45812	10.06296	0.85986
1619.000	11.08501	1.50099	10.08596	0.79126
1620.000	11.03931	1.47586	10.09554	0.95181
1621.000	11.07930	1.51663	10.17984	0.90458
1622.000	11.06216	1.49916	10.08596	0.94400
1623.000	11.08311	1.46588	10.07638	0.90683
1624.000	11.14212	1.42267	10.04955	0.98524
1625.000	11.11357	1.40330	9.94409	0.93854
1626.000	11.11547	1.44231	10.10321	0.85584
1627.000	11.11167	1.45208	10.02463	0.88934
1628.000	11.12880	1.37982	10.03996	0.80508
1629.000	11.11738	1.46181	10.06296	0.96953
1630.000	11.12880	1.47346	9.98436	0.93059
1631.000	11.13260	1.44613	10.07063	0.93622
1632.000	11.12118	1.39156	10.12237	0.85775
1633.000	11.12309	1.36619	10.12620	0.91843
1634.000	11.09453	1.42485	10.09171	0.86958
1635.000	11.12118	1.32913	10.04763	0.91082
1636.000	11.10215	1.36628	10.10512	0.88912
1637.000	11.08501	1.40929	10.12428	0.86557
1638.000	11.08311	1.43076	10.17409	0.89676
1639.000	11.08311	1.38784	10.12812	0.91255
1640.000	11.12880	1.43834	10.16834	0.88699
1641.000	11.10405	1.38579	10.07638	0.92053
1642.000	11.13451	1.44612	10.13961	0.94580
1643.000	11.14402	1.35438	10.07063	0.93622
1644.000	11.15164	1.39531	10.13386	0.90079
1645.000	11.10595	1.46577	10.13003	0.92821
1646.000	11.14022	1.42463	10.10896	0.89694
1647.000	11.13260	1.46173	10.05530	0.98130
1648.000	11.14212	1.40316	10.06871	0.84614
1649.000	11.12880	1.42274	10.11470	1.01441
1650.000	11.10786	1.45795	10.09746	0.98313
1651.000	11.10595	1.40724	10.09171	0.86174
1652.000	11.06788	1.46791	10.16643	1.00250
1653.000	11.11167	1.43843	10.15685	0.95946
1654.000	11.08121	1.47370	10.07638	0.92249
1655.000	11.10024	1.37605	10.07446	0.89704
1656.000	11.11928	1.35840	10.22197	0.95535
1657.000	11.10976	1.44429	10.13961	0.93797
1658.000	11.10405	1.46578	10.05338	0.93822
1659.000	11.10405	1.41115	10.05721	0.92842
1660.000	11.11547	1.41500	10.11854	0.89887
1661.000	11.12118	1.42862	10.16260	0.81652
1662.000	11.13831	1.44220	10.09171	0.84999
1663.000	11.13260	1.42857	10.14344	0.93992
1664.000	11.11357	1.45402	10.19707	0.93780
1665.000	11.10215	1.44628	10.13770	0.87533
1666.000	11.13641	1.45586	10.20473	0.96323
1667.000	11.11357	1.42476	10.21048	0.96125
1668.000	11.11357	1.46183	10.17601	0.87914
1669.000	11.11738	1.46571	10.07830	0.94207
1670.000	11.10786	1.42284	10.17984	0.86542
1671.000	11.10976	1.42478	10.20856	0.93777
1672.000	11.08692	1.46976	10.15877	0.85765
1673.000	11.12309	1.41691	10.26791	0.95912
1674.000	11.10786	1.40918	10.16451	0.87525
1675.000	11.09453	1.45412	10.26600	0.92390
1676.000	11.13641	1.40124	10.18367	0.93001
1677.000	11.12689	1.42274	10.18750	0.93588
1678.000	11.13260	1.48319	10.17601	0.95353
1679.000	11.11738	1.40523	10.25451	0.91611
1680.000	11.12118	1.44618	10.20473	0.85557
1681.000	11.12689	1.45396	10.22197	0.83790
1682.000	11.10024	1.43263	10.19516	0.90453
1683.000	11.11738	1.45205	10.14727	0.83614
1684.000	11.12309	1.43057	10.21048	0.91036
1685.000	11.09644	1.44435	10.24877	0.90438
1686.000	11.08882	1.46780	10.16643	0.91049
1687.000	11.10024	1.43458	10.14727	0.94382
1688.000	11.09072	1.39170	10.22197	0.90054
1689.000	11.06407	1.44647	10.11279	0.94197
1690.000	11.09644	1.38777	10.24303	0.95137
1691.000	11.06597	1.39767	10.13578	0.92624
1692.000	11.07549	1.43665	10.16260	0.86743
1693.000	11.08692	1.37806	10.18558	0.96720
1694.000	11.08501	1.38002	10.15685	0.99861
1695.000	11.06978	1.45424	10.27557	0.81819
1696.000	11.06978	1.46010	10.10129	0.96746
1697.000	11.08311	1.41906	10.20282	0.91626
1698.000	11.11738	1.41304	10.18367	0.86150
1699.000	11.10405	1.48919	10.19133	0.89867
1700.000	11.09644	1.40143	10.18750	0.92804
1701.000	11.07930	1.48931	10.26026	0.92783
1702.000	11.09072	1.46194	10.21431	0.86337
1703.000	11.12309	1.45983	10.14919	0.94773
1704.000	11.10595	1.41114	10.21239	0.87121
1705.000	11.08882	1.44829	10.17218	0.99269
1706.000	11.09453	1.40534	10.20856	0.88688
1707.000	11.08882	1.42683	10.18175	0.98679
1708.000	11.10405	1.48919	10.25068	0.93177
1709.000	11.11928	1.37206	10.15877	1.06908
1710.000	11.10024	1.43653	10.26791	0.92194
1711.000	11.11167	1.43843	10.20090	0.96128
1712.000	11.12689	1.42079	10.22005	0.99254
1713.000	11.11357	1.40525	10.21431	0.86337
1714.000	11.09453	1.47558	10.20665	0.93386
1715.000	11.09072	1.39365	10.20282	0.89277
1716.000	11.08311	1.46393	10.16834	0.93789
1717.000	11.10024	1.41897	10.20473	0.96519
1718.000	11.10976	1.44429	10.19324	0.94565
1719.000	11.10786	1.51453	10.20473	0.91429
1720.000	11.10024	1.48921	10.24686	0.92787
1721.000	11.13070	1.48905	10.21622	0.99060
1722.000	11.12689	1.52418	10.17792	0.88500
1723.000	11.11167	1.48525	10.20090	0.89081
1724.000	11.13641	1.40904	10.20090	0.89669
1725.000	11.09834	1.47946	10.14536	0.93404
1726.000	11.10595	1.43065	10.16451	0.96139
1727.000	11.09263	1.47559	10.23728	0.92790
1728.000	11.11357	1.42866	10.22962	0.92988
1729.000	11.10595	1.40919	10.17601	0.86935
1730.000	11.10024	1.47750	10.25068	0.86719
1731.000	11.07930	1.45224	10.18750	0.87323
1732.000	11.08311	1.46783	10.25834	0.89848
1733.000	11.10976	1.43844	10.15685	0.85961
1734.000	11.13451	1.45977	10.15877	0.92030
1735.000	11.10976	1.36235	10.26217	0.94153
1736.000	11.13451	1.36418	10.17792	0.89479
1737.000	11.11738	1.42084	10.29088	0.87099
1738.000	11.10405	1.39944	10.25643	0.85739
1739.000	11.08311	1.39564	10.19516	0.92411
1740.000	11.10786	1.34480	10.30811	0.95704
1741.000	11.10976	1.37015	10.27557	0.87690
1742.000	11.06407	1.42500	10.25260	0.89458
1743.000	11.09644	1.46777	10.22005	0.88097
1744.000	11.10595	1.42285	10.31193	0.94138
1745.000	11.08121	1.39760	10.24111	0.90049
1746.000	11.07930	1.38590	10.25451	0.93763
1747.000	11.09644	1.45216	10.26791	0.89845
1748.000	11.06978	1.40936	10.24111	0.81437
1749.000	11.08311	1.42686	10.25834	0.93371
1750.000	11.06026	1.47185	10.22388	0.94164
1751.000	11.11738	1.36816	10.15110	0.79697
1752.000	11.06216	1.46599	10.24303	0.83785
1753.000	11.08311	1.38393	10.22580	0.84768
1754.000	11.07359	1.46008	10.20665	0.83794
1755.000	11.11928	1.31938	10.21431	0.94363
1756.000	11.10976	1.36430	10.22962	0.81048
1757.000	11.12309	1.34863	10.21814	0.86336
1758.000	11.06026	1.44648	10.26791	0.82017
1759.000	11.07930	1.42298	10.29662	0.85923
1760.000	11.04122	1.44268	10.32916	0.87284
1761.000	11.08882	1.38781	10.21622	0.81247
1762.000	11.07740	1.44055	10.25643	0.92393
1763.000	11.06407	1.37817	10.34255	0.88259
1764.000	11.07549	1.43860	10.20090	0.89081
1765.000	11.09644	1.37802	10.31385	0.94333
1766.000	11.09263	1.45608	10.30236	0.90227
1767.000	11.07930	1.45810	10.26791	0.97478
1768.000	11.09644	1.45801	10.26600	0.90042
1769.000	11.06216	1.51867	10.22388	0.88488
1770.000	10.94406	1.49195	10.17984	0.88891
1771.000	10.83157	1.44955	10.05338	0.88731
1772.000	10.57962	1.48203	9.84048	0.78010
1773.000	10.27174	1.45611	9.65613	0.86877
1774.000	9.90572	1.43622	9.27335	0.70091
1775.000	9.46004	1.32045	8.95726	0.53451
1776.000	8.93411	1.13972	8.62902	0.35011
1777.000	8.44148	0.96417	8.13754	0.17725
1778.000	7.87582	0.69955	7.75357	-0.04534
1779.000	7.29889	0.53475	7.27361	-0.24273
1780.000	6.64637	0.32407	6.73997	-0.38723
1781.000	6.07226	-0.06528	6.36533	-0.63860
1782.000	5.56744	-0.28513	5.95299	-0.77956
1783.000	4.99702	-0.53707	5.49106	-1.00985
1784.000	4.52581	-0.75359	5.12256	-1.35113
1785.000	4.10709	-1.01984	4.79094	-1.53606
1786.000	3.70369	-1.23465	4.53760	-1.87346
1787.000	3.30780	-1.57460	4.16806	-2.05472
1788.000	3.00229	-1.75570	3.83558	-2.18242
1789.000	2.72029	-1.92884	3.60130	-2.46448
1790.000	2.39473	-2.16953	3.32159	-2.72089
1791.000	2.02953	-2.43208	3.01215	-2.90800
1792.000	1.78071	-2.55945	2.72620	-3.08708
1793.000	1.48045	-2.76820	2.40065	-3.25036
1794.000	1.24334	-2.88752	2.07100	-3.44130
1795.000	0.94887	-3.07230	1.76491	-3.59247
1796.000	0.64448	-3.15583	1.44686	-3.75346
1797.000	0.33609	-3.33048	1.09710	-3.88466
1798.000	0.20561	-3.36422	0.94097	-4.01749
1799.000	0.09490	-3.50697	0.59703	-3.97228
1800.000	-0.06920	-3.55651	0.47249	-4.00404
1801.000	-0.05931	-3.50697	0.26096	-3.92494
1802.000	-0.07117	-3.43363	0.04547	-3.97447
1803.000	-0.04943	-3.36028	-0.00989	-3.93092
1804.000	0.00000	-3.29882	-0.13444	-3.79822
1805.000	0.05140	-3.15405	-0.16409	-3.60604
1806.000	0.08303	-3.03701	-0.25701	-3.49504
1807.000	0.11071	-2.92987	-0.40330	-3.39985
1808.000	0.06326	-2.78500	-0.51401	-3.28282
1809.000	-0.01384	-2.65598	-0.72157	-3.24700
1810.000	-0.10478	-2.53686	-0.79470	-3.22910
1811.000	-0.22142	-2.48720	-0.94887	-3.11990
1812.000	-0.38551	-2.46135	-1.07536	-3.16539
1813.000	-0.46656	-2.48317	-1.17220	-3.16529
1814.000	-0.53971	-2.48711	-1.38166	-3.28398
1815.000	-0.61087	-2.51289	-1.27298	-3.19491
1816.000	-0.59901	-2.58437	-1.29867	-3.32969
1817.000	-0.64645	-2.62405	-1.23346	-3.32779
1818.000	-0.61285	-2.67568	-1.23544	-3.33571
1819.000	-0.63855	-2.78086	-1.18801	-3.33577
1820.000	-0.51005	-2.82657	-0.99631	-3.35383
1821.000	-0.46063	-2.88017	-1.01212	-3.33795
1822.000	-0.43296	-2.94765	-0.81842	-3.39364
1823.000	-0.37563	-2.93179	-0.81447	-3.50860
1824.000	-0.26492	-2.96953	-0.75517	-3.57999
1825.000	-0.27480	-2.95960	-0.73145	-3.59190
1826.000	-0.26689	-2.98341	-0.68401	-3.66722
1827.000	-0.28864	-2.98738	-0.71564	-3.60380
1828.000	-0.32818	-2.97943	-0.82238	-3.65720
1829.000	-0.40133	-3.01710	-0.84412	-3.71661
1830.000	-0.46063	-3.03691	-0.88365	-3.74034
1831.000	-0.51796	-3.00515	-0.96073	-3.81354
1832.000	-0.62471	-3.03286	-1.02991	-3.74811
1833.000	-0.64052	-3.03087	-1.13268	-3.77174
1834.000	-0.71366	-3.07050	-1.18998	-3.82514
1835.000	-0.73936	-3.07445	-1.21963	-3.75974
1836.000	-0.76703	-3.09228	-1.32238	-3.84078
1837.000	-0.80063	-3.06250	-1.36387	-3.77537
1838.000	-0.82831	-3.11802	-1.36387	-3.78726
1839.000	-0.78680	-3.13193	-1.41920	-3.80895
1840.000	-0.78284	-3.12400	-1.41920	-3.79509
1841.000	-0.77098	-3.07641	-1.39549	-3.75552
1842.000	-0.76703	-3.12798	-1.36783	-3.67238
1843.000	-0.74726	-3.07841	-1.35992	-3.68032
1844.000	-0.78087	-3.08235	-1.27298	-3.62696
1845.000	-0.76308	-3.05261	-1.32238	-3.66057
1846.000	-0.77889	-3.09624	-1.36190	-3.58721
1847.000	-0.72947	-3.04867	-1.32633	-3.63481
1848.000	-0.70773	-2.99512	-1.43303	-3.61088
1849.000	-0.61482	-2.97137	-1.35202	-3.64864
1850.000	-0.63459	-2.99120	-1.31250	-3.60313
1851.000	-0.64448	-2.94953	-1.28879	-3.59326
1852.000	-0.62471	-2.96541	-1.25520	-3.57350
1853.000	-0.59703	-2.92773	-1.26903	-3.59329
1854.000	-0.60099	-2.92376	-1.27891	-3.58139
1855.000	-0.52784	-2.88808	-1.21963	-3.57553
1856.000	-0.55947	-2.88211	-1.20579	-3.57158
1857.000	-0.56145	-2.89600	-1.27496	-3.57743
1858.000	-0.51203	-2.89602	-1.24532	-3.51011
1859.000	-0.59308	-2.92376	-1.24532	-3.52596
1860.000	-0.59703	-2.92178	-1.28484	-3.61704
1861.000	-0.61482	-2.93963	-1.22753	-3.56957
1862.000	-0.59308	-2.94956	-1.27298	-3.65470
1863.000	-0.58320	-2.88012	-1.20382	-3.64687
1864.000	-0.54366	-2.89799	-1.25915	-3.59330
1865.000	-0.62273	-2.94756	-1.17813	-3.52010
1866.000	-0.60889	-2.91383	-1.24334	-3.60125
1867.000	-0.63262	-3.00112	-1.26112	-3.58736
1868.000	-0.63262	-2.94160	-1.21765	-3.68448
1869.000	-0.65831	-2.96341	-1.24927	-3.70821
1870.000	-0.66622	-2.99118	-1.22951	-3.61316
1871.000	-0.66622	-2.97928	-1.23939	-3.62899
1872.000	-0.62471	-2.97335	-1.22951	-3.61910
1873.000	-0.68994	-2.95545	-1.24334	-3.56559
1874.000	-0.67808	-2.99117	-1.21567	-3.58346
1875.000	-0.64843	-2.95945	-1.27891	-3.55761
1876.000	-0.66622	-2.97134	-1.24334	-3.58144
1877.000	-0.68796	-2.96339	-1.31052	-3.57144
1878.000	-0.68006	-2.95744	-1.25915	-3.64679
1879.000	-0.66622	-2.98920	-1.20975	-3.54978
1880.000	-0.68599	-2.92966	-1.18208	-3.54982
1881.000	-0.68796	-2.96339	-1.28286	-3.62497
1882.000	-0.71564	-2.98718	-1.22951	-3.65278
1883.000	-0.69785	-2.97132	-1.26903	-3.66262
1884.000	-0.73145	-2.96138	-1.26310	-3.70423
1885.000	-0.71564	-2.98123	-1.26903	-3.66659
1886.000	-0.69192	-3.01695	-1.12279	-3.71828
1887.000	-0.71564	-3.01099	-1.22753	-3.64089
1888.000	-0.71168	-3.01892	-1.24136	-3.71416
1889.000	-0.69982	-3.00505	-1.23741	-3.69634
1890.000	-0.75517	-3.03278	-1.17813	-3.74000
1891.000	-0.73738	-3.01296	-1.24532	-3.67454
1892.000	-0.71168	-2.99512	-1.24729	-3.69831
1893.000	-0.72157	-3.00106	-1.22160	-3.65279
1894.000	-0.65831	-3.02491	-1.27891	-3.58931
1895.000	-0.68599	-2.99910	-1.29274	-3.60911
1896.000	-0.68203	-2.98125	-1.20579	-3.66073
1897.000	-0.69982	-3.01695	-1.18208	-3.54586
1898.000	-0.72552	-2.98916	-1.27496	-3.62894
1899.000	-0.68203	-3.01299	-1.24927	-3.62303
1900.000	-0.68006	-3.01299	-1.24729	-3.64087
1901.000	-0.68994	-2.97529	-1.14453	-3.68260
1902.000	-0.69587	-2.96339	-1.25322	-3.61510
1903.000	-0.68006	-3.00704	-1.28088	-3.65865
1904.000	-0.67610	-3.02093	-1.28879	-3.67448
1905.000	-0.68796	-2.97529	-1.29867	-3.67645
1906.000	-0.69192	-2.95545	-1.16429	-3.66079
1907.000	-0.69389	-2.99116	-1.19987	-3.63895
1908.000	-0.72157	-2.96535	-1.20777	-3.64290
1909.000	-0.68203	-3.01101	-1.28484	-3.67449
1910.000	-0.69192	-2.98124	-1.25322	-3.71217
1911.000	-0.69389	-2.91974	-1.28286	-3.69826
1912.000	-0.67808	-2.97728	-1.21567	-3.69637
1913.000	-0.65831	-2.97333	-1.25322	-3.65868
1914.000	-0.68203	-2.95744	-1.23939	-3.66465
1915.000	-0.63459	-2.97334	-1.23148	-3.70427
1916.000	-0.66424	-2.95745	-1.28088	-3.69430
1917.000	-0.66029	-2.98325	-1.23544	-3.66069
1918.000	-0.67017	-2.95943	-1.24334	-3.55964
1919.000	-0.68006	-2.98125	-1.25717	-3.70424
1920.000	-0.68599	-2.98522	-1.17022	-3.62116
1921.000	-0.69982	-2.96934	-1.15046	-3.60335
1922.000	-0.66029	-2.91976	-1.22555	-3.67061
1923.000	-0.63855	-2.97532	-1.26705	-3.64876
1924.000	-0.63855	-2.95945	-1.27693	-3.66063
1925.000	-0.70971	-2.94155	-1.17813	-3.70633
1926.000	-0.66029	-2.97134	-1.20382	-3.66668
1927.000	-0.72947	-2.97328	-1.27693	-3.67450
1928.000	-0.65831	-2.95151	-1.21370	-3.56761
1929.000	-0.67017	-2.98126	-1.19591	-3.66074
1930.000	-0.67215	-2.92769	-1.16429	-3.68654
1931.000	-0.67808	-2.93959	-1.09513	-3.68068
1932.000	-0.66820	-2.92967	-1.24334	-3.65474
1933.000	-0.67215	-2.96935	-1.17418	-3.64096
1934.000	-0.64250	-2.96739	-1.28484	-3.69429
1935.000	-0.66029	-2.97730	-1.28681	-3.64081
1936.000	-0.65831	-2.95547	-1.12675	-3.67866
1937.000	-0.64843	-2.98325	-1.19789	-3.70234
1938.000	-0.66424	-3.00904	-1.20382	-3.65281
1939.000	-0.69389	-2.97132	-1.17615	-3.74000
1940.000	-0.68994	-2.96537	-1.20975	-3.62705
1941.000	-0.65041	-2.91580	-1.19987	-3.65678
1942.000	-0.69587	-2.98719	-1.20184	-3.63696
1943.000	-0.70378	-2.97727	-1.25322	-3.70424
1944.000	-0.68994	-3.00108	-1.19394	-3.65084
1945.000	-0.68401	-2.94752	-1.23544	-3.68248
1946.000	-0.72354	-2.93758	-1.15046	-3.71230
1947.000	-0.66227	-2.96341	-1.19394	-3.71819
1948.000	-0.67808	-2.96538	-1.15639	-3.67466
1949.000	-0.68203	-2.95347	-1.15639	-3.67070
1950.000	-0.66622	-2.94158	-1.14651	-3.70043
1951.000	-0.69982	-2.96338	-1.26112	-3.66858
1952.000	-0.66820	-2.92769	-1.25717	-3.58934
1953.000	-0.66820	-2.86420	-1.27891	-3.60913
1954.000	-0.67017	-2.95150	-1.25520	-3.69830
1955.000	-0.65831	-2.93166	-1.14453	-3.64496
1956.000	-0.65634	-2.93365	-1.23741	-3.63890
1957.000	-0.65238	-3.02690	-1.16825	-3.68257
1958.000	-0.67610	-2.93364	-1.20777	-3.72609
1959.000	-0.72750	-2.96138	-1.15639	-3.66278
1960.000	-0.70971	-2.98123	-1.13268	-3.70639
1961.000	-0.75122	-3.00700	-1.12675	-3.71035
1962.000	-0.68203	-2.99117	-1.23741	-3.64880
1963.000	-0.68401	-2.97728	-1.14651	-3.69646
1964.000	-0.68599	-2.93165	-1.20975	-3.60724
1965.000	-0.68006	-2.96340	-1.21963	-3.64883
1966.000	-0.67808	-2.98324	-1.21370	-3.68251
1967.000	-0.70378	-2.94553	-1.13860	-3.70044
1968.000	-0.67017	-3.03680	-1.18998	-3.67462
1969.000	-0.65436	-2.93563	-1.17022	-3.66078
1970.000	-0.64052	-2.91977	-1.15046	-3.68061
1971.000	-0.64448	-2.95151	-1.13268	-3.70837
1972.000	-0.63855	-2.89596	-1.28879	-3.67250
1973.000	-0.67215	-2.90785	-1.20975	-3.71421
1974.000	-0.60099	-2.90987	-1.15837	-3.67070
1975.000	-0.66622	-2.89793	-1.16429	-3.66871
1976.000	-0.60889	-2.91185	-1.14651	-3.66279
1977.000	-0.63657	-2.94358	-1.12675	-3.70837
1978.000	-0.65831	-2.94357	-1.21765	-3.73796
1979.000	-0.62471	-2.92176	-1.24927	-3.72405
1980.000	-0.63064	-2.92970	-1.28484	-3.69231
1981.000	-0.62075	-2.90192	-1.13860	-3.70440
1982.000	-0.65238	-2.92373	-1.19987	-3.67064
1983.000	-0.60099	-2.91979	-1.20184	-3.69837
1984.000	-0.64645	-2.89000	-1.21370	-3.68053
1985.000	-0.62075	-2.94557	-1.24532	-3.66662
1986.000	-0.65436	-2.92373	-1.15244	-3.71824
1987.000	-0.65238	-2.90587	-1.18998	-3.66075
1988.000	-0.65634	-2.97928	-1.09513	-3.62125
1989.000	-0.61680	-2.89796	-1.16627	-3.67663
1990.000	-0.62075	-2.98327	-1.21765	-3.67458
1991.000	-0.63459	-2.93366	-1.20975	-3.65874
1992.000	-0.66029	-2.94555	-1.20579	-3.69837
1993.000	-0.64250	-2.90786	-1.14848	-3.69448
1994.000	-0.65831	-2.90389	-1.19591	-3.70036
1995.000	-0.64843	-2.89794	-1.21370	-3.67459
1996.000	-0.63064	-2.91581	-1.17022	-3.69247
1997.000	-0.65041	-2.88206	-1.22555	-3.71220
1998.000	-0.64052	-2.89993	-1.23939	-3.72407
1999.000	-0.65238	-2.89198	-1.25915	-3.68443
2000.000	-0.63064	-2.88406	-1.17022	-3.69049
2001.000	-0.64645	-2.89199	-1.23148	-3.69239
2002.000	-0.63657	-2.88406	-1.18998	-3.63302
2003.000	-0.65238	-2.92175	-1.22358	-3.65080
2004.000	-0.67610	-2.90983	-1.23741	-3.69634
2005.000	-0.63262	-2.94358	-1.17418	-3.70831
2006.000	-0.63064	-2.91184	-1.14651	-3.65685
2007.000	-0.61878	-2.89796	-1.14058	-3.72618
2008.000	-0.64448	-2.92374	-1.22951	-3.66862
2009.000	-0.62866	-2.91581	-1.16429	-3.62909
2010.000	-0.64645	-2.91580	-1.23741	-3.59333
2011.000	-0.65436	-2.97333	-1.18801	-3.69245
2012.000	-0.66227	-2.92174	-1.16825	-3.67861
2013.000	-0.66424	-2.91182	-1.15046	-3.63703
2014.000	-0.63657	-2.94160	-1.18998	-3.67858
2015.000	-0.67017	-2.89991	-1.11884	-3.70442
2016.000	-0.64052	-2.88604	-1.15837	-3.72814
2017.000	-0.66424	-2.88404	-1.14651	-3.68656
2018.000	-0.67215	-2.91380	-1.13663	-3.68855
2019.000	-0.61087	-2.89002	-1.08722	-3.68465
2020.000	-0.66622	-2.91579	-1.11489	-3.68264
2021.000	-0.66029	-2.93960	-1.13860	-3.72024
2022.000	-0.62471	-2.91581	-1.12872	-3.69649
2023.000	-0.63262	-2.92970	-1.16627	-3.70832
2024.000	-0.59901	-2.89598	-1.15639	-3.67466
2025.000	-0.66622	-2.87412	-1.06548	-3.65893
2026.000	-0.66820	-2.92174	-1.20579	-3.67856
2027.000	-0.66424	-2.95944	-1.20184	-3.66470
2028.000	-0.62668	-2.93962	-1.15837	-3.69645
2029.000	-0.64645	-2.94953	-1.17615	-3.62115
2030.000	-0.59506	-2.90194	-1.13663	-3.64894
2031.000	-0.61285	-2.91582	-1.16034	-3.65089
2032.000	-0.64448	-2.94159	-1.18406	-3.72612
2033.000	-0.61482	-2.91185	-1.15046	-3.69844
2034.000	-0.61482	-2.88804	-1.17813	-3.57756
2035.000	-0.62668	-2.92176	-1.16034	-3.62711
2036.000	-0.60099	-2.93765	-1.13268	-3.66281
2037.000	-0.61878	-2.97534	-1.13663	-3.64299
2038.000	-0.65238	-2.91579	-1.10896	-3.60340
2039.000	-0.65831	-2.91579	-1.11291	-3.63114
2040.000	-0.64843	-2.91183	-1.16034	-3.63702
2041.000	-0.60296	-2.90193	-1.17813	-3.67661
2042.000	-0.63459	-2.89795	-1.11884	-3.59745
2043.000	-0.62866	-2.93962	-1.20382	-3.66866
2044.000	-0.60296	-2.93566	-1.15244	-3.69646
2045.000	-0.61482	-2.90589	-1.15046	-3.67071
2046.000	-0.59703	-2.91384	-1.15837	-3.64098
2047.000	-0.60099	-2.86622	-1.19591	-3.65282
2048.000	-0.62273	-2.93764	-1.15837	-3.55183
2049.000	-0.58715	-2.91186	-1.15837	-3.65881
2050.000	-0.56936	-2.90592	-1.15639	-3.71626
2051.000	-0.63064	-2.89200	-1.15837	-3.65683
2052.000	-0.59506	-2.89995	-1.07734	-3.68665
2053.000	-0.61482	-2.91780	-1.14848	-3.67863
2054.000	-0.62866	-2.90787	-1.11687	-3.61726
2055.000	-0.66820	-2.93959	-1.14453	-3.71429
2056.000	-0.62273	-2.95549	-1.17615	-3.74792
2057.000	-0.62471	-2.93367	-1.12082	-3.66084
2058.000	-0.60296	-2.91781	-1.16429	-3.63701
2059.000	-0.58715	-2.90591	-1.11094	-3.73810
2060.000	-0.64448	-2.91778	-1.12477	-3.65687
2061.000	-0.58715	-2.95353	-1.10501	-3.72227
2062.000	-0.61878	-2.89796	-1.14058	-3.67468
2063.000	-0.62471	-2.95351	-1.15046	-3.70636
2064.000	-0.60889	-2.93169	-1.14651	-3.67864
2065.000	-0.62668	-2.93763	-1.12279	-3.71432
2066.000	-0.62866	-2.88604	-1.12279	-3.76185
2067.000	-0.63657	-2.93168	-1.11094	-3.64302
2068.000	-0.61285	-2.93367	-1.17615	-3.63700
2069.000	-0.62273	-2.94359	-1.12279	-3.68461
2070.000	-0.63262	-2.91977	-1.19394	-3.67857
2071.000	-0.65436	-2.94357	-1.17615	-3.68652
2072.000	-0.70378	-2.93560	-1.13860	-3.68261
2073.000	-0.66622	-2.90587	-1.13465	-3.69648
2074.000	-0.67808	-2.96737	-1.15046	-3.73607
2075.000	-0.64843	-2.94159	-1.15837	-3.64495
2076.000	-0.67808	-2.96141	-1.17418	-3.69841
2077.000	-0.62273	-2.97732	-1.19789	-3.71224
2078.000	-0.64645	-2.99516	-1.21172	-3.73203
2079.000	-0.68796	-2.97728	-1.08129	-3.68862
2080.000	-0.70378	-2.98917	-1.11884	-3.71829
2081.000	-0.66424	-2.93166	-1.16429	-3.65682
2082.000	-0.62866	-2.95549	-1.11094	-3.77177
2083.000	-0.69192	-3.01100	-1.08920	-3.68267
2084.000	-0.70575	-2.95346	-1.10303	-3.70048
2085.000	-0.65831	-2.94555	-1.13860	-3.69845
2086.000	-0.65436	-2.97333	-1.09513	-3.70049
2087.000	-0.69587	-2.96934	-1.20777	-3.70827
2088.000	-0.63459	-2.96541	-1.20579	-3.69639
2089.000	-0.75912	-3.00104	-1.04177	-3.76790
2090.000	-0.65041	-2.95151	-1.08524	-3.74012
2091.000	-0.67610	-2.99911	-1.14651	-3.71825
2092.000	-0.65238	-2.95548	-1.17418	-3.66473
2093.000	-0.66227	-3.02292	-1.11291	-3.62321
2094.000	-0.71366	-2.97925	-1.11489	-3.72423
2095.000	-0.65436	-2.98127	-1.10106	-3.71831
2096.000	-0.63064	-2.98922	-1.10896	-3.72028
2097.000	-0.66424	-3.01499	-1.18208	-3.65284
2098.000	-0.65634	-2.99119	-1.14651	-3.72221
2099.000	-0.70378	-3.02091	-1.15244	-3.74795
2100.000	-0.68401	-2.96339	-1.12675	-3.72818
2101.000	-0.71959	-2.99313	-1.11489	-3.74008
2102.000	-0.66820	-2.97332	-1.09315	-3.67078
2103.000	-0.70773	-3.01298	-1.09117	-3.75001
2104.000	-0.70180	-3.02091	-1.09908	-3.78169
2105.000	-0.76505	-3.02087	-1.10896	-3.75395
2106.000	-0.75517	-2.99707	-1.07141	-3.79955
2107.000	-0.69389	-3.01497	-1.13268	-3.71827
2108.000	-0.70971	-3.04670	-1.12279	-3.83513
2109.000	-0.73343	-2.97328	-1.08129	-3.70843
2110.000	-0.70378	-3.02091	-1.09117	-3.73615
2111.000	-0.67610	-2.99117	-1.11884	-3.72819
2112.000	-0.69587	-2.97331	-1.07932	-3.68070
2113.000	-0.64052	-2.96540	-1.02398	-3.69067
2114.000	-0.56343	-2.93370	-1.05362	-3.65498
2115.000	-0.49028	-2.89405	-0.90539	-3.59768
2116.000	-0.23131	-2.83063	-0.74331	-3.46109
2117.000	-0.04349	-2.76913	-0.58715	-3.38786
2118.000	0.10874	-2.78103	-0.29062	-3.29282
2119.000	0.40923	-2.65790	-0.13641	-3.21354
2120.000	0.69587	-2.55057	0.20165	-3.10642
2121.000	1.05165	-2.41136	0.40726	-3.06868
2122.000	1.38956	-2.33958	0.73145	-2.89392
2123.000	1.65034	-2.16655	1.00817	-2.77068
2124.000	1.95252	-1.99344	1.29274	-2.51240
2125.000	2.11641	-1.82047	1.47847	-2.34743
2126.000	2.28223	-1.64947	1.68985	-2.16055
2127.000	2.38092	-1.51429	1.79848	-1.98766
2128.000	2.38486	-1.31762	1.86366	-1.90417
2129.000	2.42433	-1.18646	1.93870	-1.82663
2130.000	2.32171	-1.09713	1.87748	-1.71148
2131.000	2.18353	-0.96806	1.79453	-1.62612
2132.000	1.94462	-0.96423	1.59305	-1.57065
2133.000	1.80638	-0.87883	1.43896	-1.61051
2134.000	1.61083	-0.90874	1.13663	-1.54710
2135.000	1.36980	-0.87503	1.01805	-1.73597
2136.000	1.15244	-0.89499	0.78482	-1.69633
2137.000	0.96666	-1.02033	0.60296	-1.79577
2138.000	0.84214	-1.11184	0.48633	-1.94485
2139.000	0.79075	-1.18542	0.36772	-1.98065
2140.000	0.75122	-1.33853	0.33213	-2.04424
2141.000	0.71959	-1.39023	0.41714	-2.13760
2142.000	0.70575	-1.55723	0.35981	-2.24488
2143.000	0.77098	-1.61882	0.41714	-2.29452
2144.000	0.83028	-1.69234	0.58122	-2.36199
2145.000	0.92516	-1.79166	0.64250	-2.36395
2146.000	1.00817	-1.82540	0.75122	-2.31027
2147.000	1.06943	-1.84722	0.78284	-2.39764
2148.000	1.17418	-1.80742	0.94295	-2.30619
2149.000	1.22555	-1.85110	1.11489	-2.28819
2150.000	1.23939	-1.79148	1.05955	-2.22865
2151.000	1.33226	-1.75764	1.07141	-2.15317
2152.000	1.33028	-1.75764	1.08920	-2.15514
2153.000	1.38166	-1.73177	1.06548	-2.16708
2154.000	1.39351	-1.63836	1.15837	-2.07763
2155.000	1.42513	-1.58667	1.08524	-2.05185
2156.000	1.47452	-1.58664	1.09315	-1.99821
2157.000	1.46266	-1.58665	1.14058	-2.03195
2158.000	1.43896	-1.49326	1.14848	-1.96639
2159.000	1.50218	-1.50315	1.14651	-1.90877
2160.000	1.49625	-1.51906	1.16627	-1.90677
2161.000	1.48835	-1.42565	1.05955	-1.90287
2162.000	1.46464	-1.46343	1.09908	-1.87502
2163.000	1.49428	-1.41372	1.05560	-1.93267
2164.000	1.46069	-1.41374	1.07141	-1.91081
2165.000	1.48242	-1.40379	1.06153	-1.88697
2166.000	1.49625	-1.38589	0.99433	-1.90688
2167.000	1.48045	-1.41373	0.99433	-1.88502
2168.000	1.48637	-1.42565	1.04967	-1.86512
2169.000	1.47847	-1.37994	1.11884	-1.88097
2170.000	1.43896	-1.40978	1.05165	-1.98234
2171.000	1.44093	-1.38990	1.06351	-1.88299
2172.000	1.46662	-1.40380	1.04769	-1.96844
2173.000	1.40932	-1.37998	0.98445	-1.86317
2174.000	1.40537	-1.39390	0.99038	-1.94264
2175.000	1.41129	-1.43762	1.05955	-1.97439
2176.000	1.40932	-1.41377	1.05165	-1.95652
2177.000	1.41525	-1.43762	1.05758	-1.90088
2178.000	1.39549	-1.42372	0.99829	-1.93072
2179.000	1.41722	-1.39191	0.97852	-1.91682
2180.000	1.41722	-1.40979	1.06351	-2.01015
2181.000	1.40537	-1.42173	0.94492	-1.95459
2182.000	1.40339	-1.46148	1.04967	-2.02208
2183.000	1.40142	-1.39589	1.05955	-1.96843
2184.000	1.38561	-1.44957	0.98247	-2.01020
2185.000	1.37375	-1.44957	1.02398	-2.02607
2186.000	1.40142	-1.42173	0.97654	-1.99431
2187.000	1.41722	-1.45750	1.02991	-1.95256
2188.000	1.41129	-1.40582	1.08327	-1.97636
2189.000	1.40142	-1.42173	1.02398	-1.94660
2190.000	1.45081	-1.47139	0.97457	-1.99630
2191.000	1.40537	-1.46545	1.02398	-1.96249
2192.000	1.40339	-1.44757	1.03386	-2.02606
2193.000	1.41525	-1.45352	1.09315	-2.03794
2194.000	1.40537	-1.49725	0.98643	-2.02212
2195.000	1.45476	-1.48530	1.00619	-2.05190
2196.000	1.40142	-1.49527	1.02200	-2.01216
2197.000	1.46662	-1.41175	0.99433	-2.02211
2198.000	1.43698	-1.49922	1.07932	-2.01610
2199.000	1.43105	-1.46941	1.01410	-1.98237
2200.000	1.44291	-1.44953	1.05362	-2.00022
2201.000	1.44488	-1.44357	0.98643	-2.03205
2202.000	1.43896	-1.47935	1.06351	-2.07372
2203.000	1.44291	-1.50319	1.05560	-2.05783
2204.000	1.44291	-1.48729	1.11884	-2.00217
2205.000	1.45674	-1.44952	1.07734	-2.02603
2206.000	1.47452	-1.43957	1.10106	-1.98231
2207.000	1.44093	-1.46941	1.04967	-1.98036
2208.000	1.46266	-1.45151	1.05560	-2.01214
2209.000	1.46266	-1.44952	1.07536	-2.08364
2210.000	1.41722	-1.46545	0.98247	-1.99232
2211.000	1.47057	-1.48131	1.00619	-2.02012
2212.000	1.39154	-1.48335	1.01212	-2.03005
2213.000	1.40734	-1.49328	1.03386	-1.94858
2214.000	1.40932	-1.52508	1.04769	-1.98433
2215.000	1.42908	-1.48730	1.06351	-1.96843
2216.000	1.41722	-1.47538	1.08920	-2.03596
2217.000	1.43896	-1.48133	1.13465	-2.03394
2218.000	1.44686	-1.47338	1.08129	-1.90881
2219.000	1.47452	-1.46541	1.08920	-1.93464
2220.000	1.46662	-1.44355	1.02398	-2.04196
2221.000	1.42117	-1.48134	1.00421	-1.90886
2222.000	1.40537	-1.49527	1.08327	-1.99424
2223.000	1.40537	-1.50322	1.11094	-1.95052
2224.000	1.42908	-1.46743	1.05560	-1.95850
2225.000	1.44291	-1.50518	1.05165	-1.94658
2226.000	1.42117	-1.48731	1.09315	-1.90682
2227.000	1.41722	-1.47340	1.07932	-2.06974
2228.000	1.38758	-1.47739	1.06351	-1.89492
2229.000	1.45674	-1.48728	1.05362	-1.92075
2230.000	1.42513	-1.49724	1.09710	-1.96046
2231.000	1.41525	-1.44160	1.09315	-1.98629
2232.000	1.46266	-1.45747	1.04769	-1.89294
2233.000	1.41525	-1.48334	0.96666	-1.91683
2234.000	1.41327	-1.46346	1.05955	-2.00419
2235.000	1.43500	-1.48730	1.04967	-1.89492
2236.000	1.43698	-1.45748	1.02793	-1.90885
2237.000	1.48242	-1.44354	1.04769	-1.94857
2238.000	1.44686	-1.45748	1.03386	-1.94262
2239.000	1.43500	-1.52108	1.03979	-1.95454
2240.000	1.44488	-1.54095	1.09710	-1.91476
2241.000	1.42315	-1.50718	1.01212	-1.93270
2242.000	1.42908	-1.50718	1.06943	-1.98233
2243.000	1.46464	-1.48529	1.05362	-1.86512
2244.000	1.43500	-1.51115	1.04572	-1.99427
2245.000	1.46464	-1.48132	1.06943	-1.95054
2246.000	1.43105	-1.49525	1.03188	-1.92673
2247.000	1.49230	-1.44354	1.06153	-2.02008
2248.000	1.42513	-1.48730	1.11489	-1.90084
2249.000	1.41327	-1.53104	1.06153	-1.90684
2250.000	1.43500	-1.52307	1.09513	-1.90880
2251.000	1.48045	-1.49323	1.07339	-1.92273
2252.000	1.43896	-1.50717	1.11094	-1.96641
2253.000	1.44093	-1.47537	1.13860	-1.92666
2254.000	1.44291	-1.51909	1.13465	-1.97037
2255.000	1.42117	-1.51911	1.05955	-1.93267
2256.000	1.43105	-1.53699	1.02398	-1.96051
2257.000	1.40537	-1.53899	1.10698	-1.89886
2258.000	1.45674	-1.51511	1.09908	-1.94059
2259.000	1.39746	-1.50322	1.06746	-1.95054
2260.000	1.41722	-1.49526	1.12082	-1.96044
2261.000	1.46069	-1.47337	1.03979	-1.95851
2262.000	1.47649	-1.51907	1.10106	-1.92469
2263.000	1.42710	-1.51115	1.07932	-1.88298
2264.000	1.40142	-1.50719	1.07141	-1.94856
2265.000	1.49823	-1.50316	1.15046	-1.88493
2266.000	1.44686	-1.50716	1.12477	-1.94653
2267.000	1.46662	-1.47933	1.16627	-1.92465
2268.000	1.47649	-1.46740	1.21172	-1.98223
2269.000	1.46266	-1.48330	1.14651	-1.87499
2270.000	1.43698	-1.48531	1.22555	-1.93256
2271.000	1.46266	-1.47337	1.07932	-1.97637
2272.000	1.45476	-1.46145	1.10106	-1.98628
2273.000	1.46464	-1.46144	1.11291	-1.91873
2274.000	1.46069	-1.50716	1.08129	-1.91080
2275.000	1.46464	-1.46343	1.08524	-1.94060
2276.000	1.48440	-1.42963	1.06746	-1.96247
2277.000	1.45871	-1.46145	1.06746	-2.02405
2278.000	1.51403	-1.48923	1.14651	-2.00413
2279.000	1.42315	-1.44756	1.09710	-1.96046
2280.000	1.46859	-1.46939	1.06943	-1.97836
2281.000	1.50218	-1.43359	1.09513	-1.88496
2282.000	1.46464	-1.41772	1.10896	-2.01807
2283.000	1.50415	-1.42962	1.10106	-1.98231
2284.000	1.47057	-1.42964	1.11291	-1.94456
2285.000	1.46662	-1.46939	1.11687	-1.93263
2286.000	1.49032	-1.46540	1.08722	-1.98232
2287.000	1.48242	-1.42367	1.09908	-2.00019
2288.000	1.48440	-1.49521	1.07932	-1.95054
2289.000	1.44093	-1.51711	1.07339	-1.98829
2290.000	1.47254	-1.50119	1.14058	-2.02599
2291.000	1.48242	-1.47534	1.12675	-1.93660
2292.000	1.46662	-1.48529	1.14058	-1.98228
2293.000	1.48440	-1.46739	1.14453	-2.04585
2294.000	1.46662	-1.48131	1.18998	-2.01999
2295.000	1.43896	-1.51512	1.06351	-1.98035
2296.000	1.45279	-1.48331	1.10698	-1.95847
2297.000	1.46069	-1.48529	1.10698	-1.99621
2298.000	1.45279	-1.46145	1.13860	-1.94255
2299.000	1.46662	-1.49523	1.13860	-1.98229
2300.000	1.48835	-1.46143	1.12872	-1.95845
2301.000	1.48637	-1.48726	1.01410	-1.97243
2302.000	1.49823	-1.47334	1.13465	-1.96838
2303.000	1.45871	-1.44555	1.12872	-1.91474
2304.000	1.44686	-1.48729	1.07339	-2.03001
2305.000	1.47057	-1.42765	1.11094	-1.93065
2306.000	1.42117	-1.46942	1.11094	-2.03396
2307.000	1.48045	-1.47733	1.14256	-1.95447
2308.000	1.47847	-1.50118	1.11094	-1.88098
2309.000	1.48242	-1.49323	1.07536	-1.92868
2310.000	1.45871	-1.44157	1.17813	-1.91272
2311.000	1.47649	-1.45746	1.15046	-1.93658
2312.000	1.52193	-1.47333	1.22555	-1.96633
2313.000	1.50415	-1.46936	1.12082	-1.90680
2314.000	1.51403	-1.45743	1.20382	-1.99813
2315.000	1.51206	-1.48327	1.09117	-1.95450
2316.000	1.48835	-1.45944	1.10106	-1.96642
2317.000	1.48242	-1.48329	1.10501	-1.95251
2318.000	1.51601	-1.50314	1.13860	-1.91672
2319.000	1.47847	-1.45348	1.17022	-1.91074
2320.000	1.48637	-1.45745	1.09710	-1.93066
2321.000	1.51403	-1.46737	1.15046	-1.93658
2322.000	1.47057	-1.46342	1.13465	-1.91077
2323.000	1.48835	-1.45546	1.08920	-1.93662
2324.000	1.53379	-1.43755	1.16627	-1.89088
2325.000	1.46266	-1.41772	1.14256	-1.86109
2326.000	1.52984	-1.47531	1.17813	-1.86305
2327.000	1.49032	-1.49521	1.14848	-1.89883
2328.000	1.50415	-1.48725	1.09513	-1.90086
2329.000	1.52589	-1.46538	1.14651	-1.81141
2330.000	1.49428	-1.47335	1.07339	-1.88299
2331.000	1.47452	-1.47336	1.11884	-1.94852
2332.000	1.43303	-1.51115	1.12279	-1.90283
2333.000	1.46266	-1.48927	1.16429	-1.92068
2334.000	1.47847	-1.50317	1.16034	-1.91870
2335.000	1.45476	-1.48927	1.10698	-1.91674
2336.000	1.48440	-1.46540	1.12675	-1.91872
2337.000	1.50810	-1.48129	1.21567	-1.87495
2338.000	1.50218	-1.51110	1.11884	-1.86905
2339.000	1.49625	-1.48129	1.07536	-1.85716
2340.000	1.50613	-1.48328	1.15046	-1.94850
2341.000	1.48440	-1.47335	1.16034	-1.85710
2342.000	1.49428	-1.51111	1.16825	-1.84319
2343.000	1.47254	-1.43162	1.08920	-1.86708
2344.000	1.48242	-1.45944	1.18998	-1.91669
2345.000	1.50415	-1.51309	1.10303	-1.93065
2346.000	1.47649	-1.48131	1.15244	-1.84717
2347.000	1.49428	-1.47931	1.13860	-1.92467
2348.000	1.52786	-1.48326	1.15244	-1.83326
2349.000	1.48835	-1.46341	1.14848	-1.91076
2350.000	1.49625	-1.48328	1.12872	-1.86706
2351.000	1.51798	-1.49122	1.15639	-1.87101
2352.000	1.52193	-1.47333	1.18406	-1.82927
2353.000	1.51798	-1.47532	1.16232	-1.84915
2354.000	1.55157	-1.49914	1.07339	-1.89292
2355.000	1.51601	-1.45346	1.09908	-1.86112
2356.000	1.46662	-1.51510	1.26310	-1.81928
2357.000	1.49625	-1.46937	1.17022	-1.89087
2358.000	1.53181	-1.47730	1.12082	-1.89289
2359.000	1.53971	-1.49319	1.15441	-1.88294
2360.000	1.56145	-1.46734	1.11687	-1.84918
2361.000	1.50020	-1.49520	1.16429	-1.84319
2362.000	1.55749	-1.48721	1.15046	-1.96440
2363.000	1.55354	-1.44548	1.14848	-1.83327
2364.000	1.55749	-1.45343	1.17615	-1.93657
2365.000	1.54367	-1.47331	1.12082	-1.94256
2366.000	1.55552	-1.50510	1.17813	-1.92862
2367.000	1.55552	-1.42362	1.19196	-1.90079
2368.000	1.55157	-1.47132	1.10106	-1.87105
2369.000	1.51798	-1.52500	1.20382	-1.91867
2370.000	1.54367	-1.50909	1.11489	-1.84322
2371.000	1.53971	-1.48723	1.19196	-1.94847
2372.000	1.54564	-1.46735	1.21765	-1.86302
2373.000	1.54367	-1.46139	1.13268	-1.84321
2374.000	1.56342	-1.46734	1.11884	-1.91674
2375.000	1.52786	-1.50910	1.13268	-1.92269
2376.000	1.54564	-1.50710	1.14256	-1.94652
2377.000	1.53181	-1.46537	1.23346	-2.02394
2378.000	1.54169	-1.47331	1.16429	-1.93459
2379.000	1.53971	-1.53691	1.17615	-1.94451
2380.000	1.52589	-1.44351	1.11687	-1.97833
2381.000	1.54169	-1.46338	1.14848	-1.87698
2382.000	1.50613	-1.44353	1.19789	-1.89085
2383.000	1.51798	-1.46737	1.19591	-2.00807
2384.000	1.51403	-1.45545	1.17813	-1.97034
2385.000	1.50415	-1.43160	1.14848	-1.96440
2386.000	1.53971	-1.43158	1.18010	-1.98226
2387.000	1.56342	-1.44746	1.18603	-1.95444
2388.000	1.57923	-1.48124	1.14256	-1.94255
2389.000	1.54762	-1.44549	1.27298	-1.91663
2390.000	1.49823	-1.48328	1.19196	-1.98225
2391.000	1.51601	-1.49122	1.18801	-1.86901
2392.000	1.54169	-1.43555	1.15837	-1.96241
2393.000	1.47452	-1.52106	1.26310	-1.96630
2394.000	1.51798	-1.47333	1.25915	-1.90472
2395.000	1.51601	-1.48923	1.17813	-1.91471
2396.000	1.53576	-1.52102	1.14453	-1.92864
2397.000	1.54169	-1.47928	1.12279	-1.92667
2398.000	1.56145	-1.49119	1.19394	-1.94251
2399.000	1.51996	-1.49122	1.19987	-1.96436
2400.000	1.50020	-1.54688	1.19196	-1.94649
2401.000	1.53379	-1.48922	1.18406	-1.94451
2402.000	1.48242	-1.49522	1.20382	-1.96039
2403.000	1.50810	-1.51309	1.18406	-1.98623
2404.000	1.58515	-1.47726	1.12279	-1.87501
2405.000	1.48637	-1.47136	1.23148	-1.94050
2406.000	1.49428	-1.50713	1.22951	-1.99811
2407.000	1.50613	-1.46738	1.20975	-1.91667
2408.000	1.55354	-1.42760	1.13465	-1.97235
2409.000	1.53971	-1.46934	1.20382	-1.87496
2410.000	1.46464	-1.45150	1.24927	-1.93850
2411.000	1.51798	-1.49519	1.22753	-1.87295
2412.000	1.51008	-1.48725	1.19394	-1.92265
2413.000	1.52589	-1.46339	1.15244	-1.94056
2414.000	1.51403	-1.48526	1.16429	-1.98227
2415.000	1.52193	-1.43755	1.14651	-1.88493
2416.000	1.56342	-1.48125	1.15046	-1.91473
2417.000	1.52391	-1.50314	1.20579	-1.91866
2418.000	1.53576	-1.51108	1.16232	-1.91273
2419.000	1.52391	-1.50115	1.16825	-1.94253
2420.000	1.48242	-1.50118	1.15837	-1.94254
2421.000	1.54762	-1.53690	1.18406	-1.93457
2422.000	1.52193	-1.50115	1.18010	-1.93259
2423.000	1.50415	-1.49719	1.22358	-1.95044
2424.000	1.50810	-1.51507	1.10698	-1.92866
2425.000	1.52984	-1.48127	1.18801	-1.89086
2426.000	1.49428	-1.52104	1.26705	-1.96233
2427.000	1.49823	-1.52303	1.16034	-1.89088
2428.000	1.53379	-1.51704	1.14848	-1.83525
2429.000	1.51996	-1.48923	1.14848	-1.88890
2430.000	1.53181	-1.47730	1.24729	-1.98022
2431.000	1.50020	-1.48527	1.19196	-1.88688
2432.000	1.54564	-1.53293	1.14256	-1.89685
2433.000	1.54367	-1.48921	1.20777	-1.91072
2434.000	1.54564	-1.46139	1.21370	-1.89879
2435.000	1.50415	-1.50315	1.14848	-1.87897
2436.000	1.55354	-1.51107	1.20184	-1.90277
2437.000	1.56145	-1.52895	1.22555	-1.91865
2438.000	1.54959	-1.54287	1.21567	-1.95640
2439.000	1.50415	-1.50116	1.16825	-1.93260
2440.000	1.53379	-1.46736	1.13465	-1.97633
2441.000	1.52589	-1.50512	1.23544	-2.01400
2442.000	1.51403	-1.54687	1.19987	-1.91469
2443.000	1.51798	-1.52103	1.18998	-1.91470
2444.000	1.51206	-1.52699	1.15046	-1.89685
2445.000	1.47452	-1.50913	1.12279	-1.94654
2446.000	1.51601	-1.48923	1.18406	-1.91669
2447.000	1.49625	-1.52502	1.24927	-1.93850
2448.000	1.53576	-1.51704	1.22753	-1.90673
2449.000	1.48637	-1.55483	1.19789	-1.91072
2450.000	1.52984	-1.51108	1.18208	-1.96239
2451.000	1.50810	-1.52898	1.22555	-1.90474
2452.000	1.50810	-1.54290	1.18406	-1.87298
2453.000	1.52391	-1.50115	1.13465	-1.95646
2454.000	1.53379	-1.50711	1.17615	-1.94650
2455.000	1.53774	-1.48524	1.20777	-1.96634
2456.000	1.48637	-1.54490	1.19196	-1.90278
2457.000	1.51206	-1.53296	1.19987	-1.94450
2458.000	1.52984	-1.54487	1.22160	-1.97229
2459.000	1.52786	-1.53294	1.19196	-1.93655
2460.000	1.53181	-1.52897	1.16232	-1.94452
2461.000	1.52984	-1.56673	1.23148	-1.96037
2462.000	1.52193	-1.53494	1.23544	-1.91467
2463.000	1.55552	-1.52696	1.18406	-1.87894
2464.000	1.52786	-1.54884	1.21765	-1.93852
2465.000	1.54367	-1.51902	1.19789	-1.93456
2466.000	1.51403	-1.55283	1.19394	-1.97629
2467.000	1.51996	-1.52898	1.21172	-1.91469
2468.000	1.50218	-1.53098	1.21370	-1.98819
2469.000	1.46859	-1.51311	1.21765	-2.00607
2470.000	1.50613	-1.50712	1.18801	-2.02596
2471.000	1.49230	-1.54489	1.26310	-1.98220
2472.000	1.51996	-1.51109	1.19394	-2.03787
2473.000	1.52589	-1.54288	1.22555	-2.01600
2474.000	1.52391	-1.50711	1.24729	-1.97823
2475.000	1.50020	-1.55880	1.21370	-2.01203
2476.000	1.57527	-1.52297	1.19591	-2.00608
2477.000	1.54169	-1.50312	1.26310	-1.96432
2478.000	1.52589	-1.49916	1.17418	-2.01603
2479.000	1.51206	-1.52103	1.23939	-1.98420
2480.000	1.54367	-1.48921	1.26112	-1.96034
2481.000	1.54564	-1.54088	1.23346	-1.99811
2482.000	1.54169	-1.53095	1.24532	-1.98420
2483.000	1.56737	-1.55875	1.20777	-2.03985
2484.000	1.53971	-1.52300	1.16429	-2.00213
2485.000	1.52786	-1.51506	1.18603	-1.98821
2486.000	1.52984	-1.48723	1.25520	-2.01001
2487.000	1.50020	-1.49719	1.25124	-1.99611
2488.000	1.58515	-1.56072	1.21963	-2.03388
2489.000	1.43896	-1.53301	1.21370	-2.01998
2490.000	1.50613	-1.51110	1.20975	-2.03190
2491.000	1.48242	-1.53894	1.15046	-1.99618
2492.000	1.49230	-1.49322	1.28088	-2.07554
2493.000	1.51403	-1.49917	1.17418	-1.94054
2494.000	1.52193	-1.46737	1.22555	-2.00408
2495.000	1.52391	-1.50910	1.26705	-2.06562
2496.000	1.53181	-1.52897	1.24334	-1.97228
2497.000	1.49625	-1.48924	1.24729	-2.01995
2498.000	1.48637	-1.58067	1.21963	-1.90276
2499.000	1.50218	-1.57470	1.20975	-1.98819
2500.000	1.49823	-1.48129	1.23544	-1.96235
2501.000	1.51996	-1.54487	1.24729	-1.95439
2502.000	1.52589	-1.45544	1.20975	-1.96833
2503.000	1.49230	-1.56477	1.21567	-2.04580
2504.000	1.50020	-1.53694	1.15639	-1.98227
2505.000	1.52786	-1.54487	1.24927	-1.93254
2506.000	1.52786	-1.49519	1.21172	-1.98422
2507.000	1.50810	-1.48725	1.20975	-2.00210
2508.000	1.47649	-1.54093	1.20382	-1.97628
2509.000	1.49625	-1.48924	1.20777	-1.94449
2510.000	1.48045	-1.48727	1.29472	-1.97621
2511.000	1.48440	-1.48727	1.21567	-1.94250
2512.000	1.49823	-1.54489	1.24729	-1.97029
2513.000	1.48637	-1.50118	1.16232	-1.96240
2514.000	1.52193	-1.47333	1.25322	-1.93452
2515.000	1.52786	-1.46935	1.25520	-1.91664
2516.000	1.51798	-1.49320	1.18010	-1.86702
2517.000	1.47847	-1.53894	1.16429	-1.86107
2518.000	1.47057	-1.51510	1.22358	-1.87892
2519.000	1.46662	-1.50516	1.21963	-1.90077
2520.000	1.48637	-1.46540	1.19394	-1.88291
2521.000	1.45279	-1.45350	1.22555	-1.93057
2522.000	1.50020	-1.47732	1.26310	-1.91862
2523.000	1.47452	-1.46740	1.15244	-1.88492
2524.000	1.45674	-1.45946	1.25915	-1.92657
2525.000	1.47649	-1.46342	1.24927	-1.82128
2526.000	1.47452	-1.42963	1.18998	-1.85510
2527.000	1.49428	-1.46937	1.27496	-1.81331
2528.000	1.49428	-1.42763	1.22555	-1.85110
2529.000	1.46464	-1.43560	1.29472	-1.81528
2530.000	1.44291	-1.42369	1.28681	-1.75568
2531.000	1.47057	-1.41175	1.30064	-1.74375
2532.000	1.42710	-1.44159	1.29472	-1.73382
2533.000	1.43105	-1.43562	1.27298	-1.71992
2534.000	1.44883	-1.43363	1.27891	-1.67421
2535.000	1.45674	-1.46145	1.28088	-1.72588
2536.000	1.39549	-1.42372	1.26310	-1.72589
2537.000	1.38956	-1.44559	1.24927	-1.66827
2538.000	1.40339	-1.45353	1.27496	-1.67819
2539.000	1.36387	-1.43368	1.21567	-1.58283
2540.000	1.41920	-1.39787	1.26705	-1.68018
2541.000	1.39154	-1.40186	1.23939	-1.64840
2542.000	1.41722	-1.37402	1.23544	-1.67821
2543.000	1.45476	-1.36604	1.25124	-1.64243
2544.000	1.41525	-1.33625	1.28484	-1.67023
2545.000	1.45081	-1.35412	1.34609	-1.67218
2546.000	1.44488	-1.32630	1.30262	-1.62451
2547.000	1.44093	-1.31040	1.32040	-1.61258
2548.000	1.47057	-1.27659	1.27693	-1.52317
2549.000	1.44883	-1.24281	1.30262	-1.46552
2550.000	1.55354	-1.14932	1.31250	-1.39395
2551.000	1.55157	-1.07378	1.43105	-1.34221
2552.000	1.61873	-1.02603	1.50415	-1.24476
2553.000	1.68392	-0.91268	1.57330	-1.11154
2554.000	1.79651	-0.81323	1.64244	-0.97433
2555.000	1.95252	-0.62827	1.79651	-0.79931
2556.000	2.16971	-0.48904	1.86563	-0.56269
2557.000	2.27631	-0.26438	2.05323	-0.38172
2558.000	2.47762	-0.05764	2.17366	-0.06560
2559.000	2.62757	0.12918	2.41841	0.04969
2560.000	2.79327	0.34376	2.47762	0.26832
2561.000	2.87413	0.55036	2.69662	0.49481
2562.000	2.97075	0.68937	2.77749	0.62790
2563.000	3.09889	0.86010	2.84849	0.82653
2564.000	3.15605	1.01098	2.96483	0.89596
2565.000	3.21715	1.10822	2.97272	1.03896
2566.000	3.20533	1.24126	2.95892	1.10253
2567.000	3.18365	1.32666	2.98455	1.19386
2568.000	3.13240	1.41209	2.89976	1.27736
2569.000	3.03975	1.44795	2.85638	1.31911
2570.000	2.95300	1.61484	2.73015	1.41061
2571.000	2.90765	1.66056	2.64335	1.57753
2572.000	2.76171	1.78386	2.65322	1.59936
2573.000	2.65913	1.94084	2.46972	1.70286
2574.000	2.58219	2.04617	2.43025	1.86376
2575.000	2.54668	2.19310	2.18748	2.03683
2576.000	2.40460	2.28463	2.17563	2.18177
2577.000	2.31776	2.44154	2.02756	2.28719
2578.000	2.29407	2.59236	1.97424	2.49567
2579.000	2.24275	2.77693	1.89723	2.61882
2580.000	2.24275	2.87211	1.95845	2.76751
2581.000	2.25460	3.03665	1.94462	2.83498
2582.000	2.28618	3.10794	1.99202	2.87654
2583.000	2.26644	3.16149	1.99399	3.02923
2584.000	2.32960	3.20099	2.00781	3.09463
2585.000	2.44210	3.29384	2.02361	3.14019
2586.000	2.46775	3.35519	2.03941	3.17980
2587.000	2.52300	3.34118	2.10654	3.16579
2588.000	2.57825	3.35292	2.07495	3.30855
2589.000	2.64533	3.30323	2.16774	3.18350
2590.000	2.71634	3.25550	2.17366	3.20529
2591.000	2.73015	3.19406	2.18156	3.12600
2592.000	2.76960	3.08499	2.29210	3.26052
2593.000	2.81693	3.08685	2.45394	3.19475
2594.000	2.93723	3.07265	2.52300	3.18468
2595.000	2.95103	3.09441	2.47367	3.22443
2596.000	2.97469	3.07255	2.49735	3.26399
2597.000	3.03778	3.12189	2.53089	3.29164
2598.000	2.96089	3.12013	2.53879	3.28964
2599.000	3.07327	3.24260	2.66111	3.26952
2600.000	3.02201	3.35166	2.57825	3.32520
2601.000	2.99244	3.39333	2.57627	3.37076
2602.000	2.98258	3.46066	2.59403	3.44596
2603.000	2.90962	3.48267	2.54471	3.48768
2604.000	2.90962	3.55194	2.48748	3.48783
2605.000	2.89582	3.57574	2.44802	3.59486
2606.000	2.90568	3.60143	2.33552	3.57139
2607.000	2.90962	3.60934	2.45788	3.57107
2608.000	2.90371	3.59550	2.47564	3.60666
2609.000	2.97469	3.60121	2.47170	3.57698
2610.000	2.94314	3.54392	2.46972	3.60074
2611.000	2.92342	3.49252	2.34934	3.49809
2612.000	2.89187	3.50647	2.54471	3.51540
2613.000	2.93131	3.48260	2.45394	3.40672
2614.000	2.89976	3.44310	2.51116	3.52539
2615.000	2.88596	3.43721	2.42828	3.50383
2616.000	2.87018	3.37587	2.42433	3.36520
2617.000	2.86624	3.37193	2.46183	3.39284
2618.000	2.78538	3.38206	2.37697	3.42276
2619.000	2.82088	3.39582	2.36908	3.39703
2620.000	2.75382	3.42967	2.36908	3.40892
2621.000	2.77354	3.43160	2.31776	3.46648
2622.000	2.76565	3.43360	2.35723	3.48817
2623.000	2.73409	3.41191	2.32960	3.41693
2624.000	2.74987	3.38414	2.35921	3.39507
2625.000	2.79524	3.40579	2.33750	3.37136
2626.000	2.79327	3.41174	2.34539	3.46839
2627.000	2.78538	3.39790	2.39276	3.35339
2628.000	2.77552	3.33258	2.39276	3.35141
2629.000	2.83863	3.32250	2.39671	3.38508
2630.000	2.83271	3.30866	2.43223	3.43054
2631.000	2.79327	3.32263	2.44999	3.33344
2632.000	2.79327	3.27906	2.41841	3.29192
2633.000	2.83666	3.26904	2.42433	3.32558
2634.000	2.78932	3.21569	2.37105	3.27024
2635.000	2.82482	3.23936	2.40855	3.26025
2636.000	2.83271	3.26707	2.33750	3.22078
2637.000	2.80510	3.24734	2.40657	3.21864
2638.000	2.82482	3.25322	2.45394	3.22249
2639.000	2.80905	3.23940	2.39276	3.25830
2640.000	2.85046	3.29276	2.43025	3.32557
2641.000	2.83666	3.29874	2.38881	3.27614
2642.000	2.83074	3.31460	2.38881	3.24642
2643.000	2.86427	3.30460	2.38092	3.32767
2644.000	2.81102	3.29882	2.40657	3.26619
2645.000	2.88990	3.35998	2.39473	3.35339
2646.000	2.87018	3.33231	2.42828	3.30973
2647.000	2.80116	3.26914	2.42039	3.36323
2648.000	2.80905	3.33249	2.34737	3.29803
2649.000	2.86032	3.33234	2.35723	3.27027
2650.000	2.87018	3.31251	2.37697	3.27023
2651.000	2.82680	3.27501	2.43223	3.25226
2652.000	2.80116	3.25725	2.40855	3.17505
2653.000	2.80905	3.26317	2.36710	3.25044
2654.000	2.84454	3.24921	2.42631	3.22652
2655.000	2.79327	3.26520	2.39078	3.22462
2656.000	2.78538	3.26918	2.43815	3.15714
2657.000	2.80905	3.23346	2.37500	3.22664
2658.000	2.81891	3.22947	2.36513	3.19694
2659.000	2.85243	3.24919	2.36315	3.17515
2660.000	2.80313	3.22555	2.40460	3.19091
2661.000	2.83074	3.25717	2.43223	3.08779
2662.000	2.85243	3.26107	2.37894	3.17710
2663.000	2.86032	3.22143	2.43420	3.07392
2664.000	2.83468	3.23339	2.41052	3.16910
2665.000	2.82680	3.20370	2.36118	3.14543
2666.000	2.87215	3.20952	2.37697	3.18701
2667.000	2.81299	3.20572	2.40065	3.19686
2668.000	2.78735	3.19985	2.36315	3.11570
2669.000	2.81496	3.22156	2.38684	3.15132
2670.000	2.79918	3.18199	2.38289	3.19492
2671.000	2.80313	3.23348	2.49932	3.13718
2672.000	2.81496	3.19383	2.40263	3.15722
2673.000	2.87215	3.21150	2.39868	3.20875
2674.000	2.79524	3.17407	2.43223	3.06996
2675.000	2.77749	3.20780	2.44012	3.16506
2676.000	2.80510	3.22159	2.39078	3.11365
2677.000	2.80116	3.18396	2.39868	3.16912
2678.000	2.82088	3.22749	2.45196	3.14126
2679.000	2.78143	3.20581	2.45986	3.12935
2680.000	2.78735	3.17806	2.41644	3.10170
2681.000	2.81891	3.22155	2.42039	3.09773
2682.000	2.84849	3.23731	2.41052	3.07199
2683.000	2.81299	3.21562	2.44802	3.09965
2684.000	2.80313	3.19188	2.39671	3.08193
2685.000	2.79918	3.20774	2.44802	3.15514
2686.000	2.87807	3.23327	2.44999	3.13928
2687.000	2.81693	3.21759	2.37894	3.11963
2688.000	2.82877	3.20766	2.37500	3.08991
2689.000	2.80707	3.20970	2.39078	3.06410
2690.000	2.81496	3.17402	2.39276	3.09581
2691.000	2.82088	3.18589	2.44407	3.12740
2692.000	2.81891	3.20570	2.40657	3.06803
2693.000	2.81693	3.18788	2.37500	3.11765
2694.000	2.82680	3.20172	2.40657	3.08587
2695.000	2.82285	3.20371	2.31579	3.13364
2696.000	2.84257	3.25317	2.30789	3.10591
2697.000	2.83074	3.19577	2.46183	3.07980
2698.000	2.76171	3.21180	2.34934	3.06618
2699.000	2.79524	3.17209	2.43618	3.09571
2700.000	2.77354	3.17611	2.41052	3.09181
2701.000	2.78341	3.18599	2.42631	3.14132
2702.000	2.78735	3.17211	2.32565	3.04046
2703.000	2.83666	3.23735	2.50919	3.13914
2704.000	2.82482	3.22748	2.47170	3.15112
2705.000	2.81496	3.21958	2.46578	3.07979
2706.000	2.82088	3.17995	2.47564	3.10553
2707.000	2.77354	3.18206	2.41447	3.10369
2708.000	2.77157	3.15036	2.45591	3.07783
2709.000	2.79524	3.23350	2.42433	3.11754
2710.000	2.87215	3.23130	2.48946	3.08370
2711.000	2.81102	3.20374	2.46775	3.07780
2712.000	2.86624	3.18973	2.49340	3.07973
2713.000	2.83863	3.18584	2.40657	3.04821
2714.000	2.81299	3.20176	2.47762	3.08571
2715.000	2.85638	3.20164	2.42631	3.08583
2716.000	2.82680	3.21162	2.42039	3.05016
2717.000	2.78341	3.18599	2.41447	3.04027
2718.000	2.83863	3.21159	2.44802	3.09172
2719.000	2.76171	3.16030	2.42828	3.02042
2720.000	2.79524	3.23548	2.44802	3.06596
2721.000	2.79918	3.17208	2.45986	3.06791
2722.000	2.84454	3.20761	2.47170	3.07185
2723.000	2.80707	3.21366	2.48156	3.01633
2724.000	2.79721	3.18793	2.44802	3.06794
2725.000	2.76960	3.17018	2.44999	3.03424
2726.000	2.79524	3.21765	2.46380	3.09367
2727.000	2.81496	3.18789	2.52300	3.10938
2728.000	2.78538	3.19589	2.43420	3.02238
2729.000	2.78341	3.19986	2.44210	3.08381
2730.000	2.78341	3.23947	2.42828	3.04420
2731.000	2.76960	3.15433	2.44407	3.06597
2732.000	2.85243	3.19769	2.52892	3.04793
2733.000	2.79327	3.15031	2.44604	3.12542
2734.000	2.77354	3.13649	2.43618	3.06995
2735.000	2.81299	3.20770	2.43025	3.04023
2736.000	2.76960	3.15829	2.47170	3.14121
2737.000	2.83271	3.21557	2.44012	3.09967
2738.000	2.81102	3.20771	2.38486	3.09385
2739.000	2.81102	3.17799	2.46972	3.07780
2740.000	2.87018	3.19170	2.43815	3.03030
2741.000	2.87413	3.16990	2.43420	3.00653
2742.000	2.83468	3.13831	2.48156	3.00047
2743.000	2.82482	3.14032	2.47762	3.09165
2744.000	2.83468	3.17595	2.42433	3.01448
2745.000	2.87215	3.16594	2.51116	2.99050
2746.000	2.81496	3.14827	2.44210	2.98272
2747.000	2.91554	3.21534	2.45196	3.01045
2748.000	2.85046	3.18977	2.47564	3.02229
2749.000	2.87018	3.22933	2.44802	2.97478
2750.000	2.88596	3.19957	2.51708	2.95480
2751.000	2.84849	3.19968	2.46380	3.03421
2752.000	2.88596	3.20750	2.47762	3.03220
2753.000	2.84652	3.15016	2.49143	2.98658
2754.000	2.80510	3.13046	2.53287	3.05783
2755.000	2.84060	3.20564	2.47564	3.05995
2756.000	2.84454	3.21157	2.42828	3.02042
2757.000	2.88596	3.23127	2.53287	2.99837
2758.000	2.88004	3.17582	2.46380	3.09169
2759.000	2.80905	3.21563	2.36908	3.01460
2760.000	2.85046	3.19769	2.59008	2.96851
2761.000	2.88399	3.21345	2.49932	3.02422
2762.000	2.84652	3.20365	2.43223	3.06996
2763.000	2.88596	3.23721	2.48748	2.98857
2764.000	2.89779	3.22133	2.46578	2.95492
2765.000	2.85441	3.20957	2.50327	3.01628
2766.000	2.90568	3.23121	2.47170	3.01437
2767.000	2.89779	3.19360	2.46578	2.97871
2768.000	2.90568	3.21735	2.52497	3.05983
2769.000	2.93131	3.21925	2.46183	3.02629
2770.000	2.89779	3.19954	2.51708	3.02021
2771.000	2.90568	3.23913	2.48354	3.01831
2772.000	2.86229	3.18578	2.41644	3.06999
2773.000	2.83271	3.17199	2.54076	2.98052
2774.000	2.87807	3.24515	2.56049	2.97651
2775.000	2.90962	3.20545	2.52695	2.99244
2776.000	2.91948	3.22523	2.53484	2.99242
2777.000	2.92540	3.15787	2.52103	2.99047
2778.000	2.94117	3.19942	2.45788	3.02035
2779.000	2.88990	3.13420	2.47170	2.95491
2780.000	2.91751	3.19156	2.53681	2.98251
2781.000	2.88399	3.23127	2.57825	2.99629
2782.000	2.83468	3.13831	2.43618	2.97877
2783.000	2.83863	3.11452	2.46972	3.00447
2784.000	2.85441	3.21155	2.45196	2.99856
2785.000	2.88201	3.21147	2.48354	2.98263
2786.000	2.84849	3.20166	2.41841	3.03035
2787.000	2.86624	3.19765	2.53089	3.00234
2788.000	2.77157	3.13452	2.46578	2.94302
2789.000	2.80510	3.16216	2.45591	2.97278
2790.000	2.74001	3.10884	2.40065	2.99471
2791.000	2.83666	3.17792	2.47564	2.95093
2792.000	2.81102	3.17997	2.55457	3.01814
2793.000	2.75185	3.09494	2.54471	2.97060
2794.000	2.81299	3.17799	2.47762	3.03021
2795.000	2.82680	3.19776	2.51313	2.92904
2796.000	2.82877	3.21558	2.53681	2.94683
2797.000	2.85046	3.17788	2.59600	2.95859
2798.000	2.86821	3.18972	2.55260	2.98247
2799.000	2.82088	3.13240	2.49932	2.97268
2800.000	2.81496	3.16213	2.48748	2.95685
2801.000	2.85441	3.19174	2.50722	2.99645
2802.000	2.79524	3.13445	2.58022	2.98439
2803.000	2.83271	3.14030	2.56049	2.96263
2804.000	2.73607	3.14650	2.56444	2.94478
2805.000	2.85441	3.15608	2.52892	2.99442
2806.000	2.82877	3.17993	2.52695	2.97857
2807.000	2.83666	3.15811	2.52103	2.96074
2808.000	2.86229	3.15606	2.49932	2.89934
2809.000	2.84257	3.21158	2.52497	2.97064
2810.000	2.81693	3.18590	2.50327	2.90131
2811.000	2.85243	3.20759	2.51116	2.92310
2812.000	2.84849	3.21354	2.53879	2.91907
2813.000	2.85441	3.20362	2.52695	2.93892
2814.000	2.86032	3.14814	2.43025	3.03032
2815.000	2.83074	3.15813	2.54668	2.86355
2816.000	2.84257	3.16998	2.54865	2.98050
2817.000	2.76763	3.13056	2.49735	3.01431
2818.000	2.83074	3.20171	2.49143	2.97667
2819.000	2.84849	3.16799	2.50327	2.94294
2820.000	2.84849	3.12044	2.58811	2.91103
2821.000	2.74987	3.11080	2.51708	2.90525
2822.000	2.80313	3.18792	2.50919	2.96671
2823.000	2.80905	3.16413	2.59600	2.96651
2824.000	2.84060	3.17395	2.62362	2.99222
2825.000	2.85243	3.19769	2.49538	3.00441
2826.000	2.80905	3.21960	2.51313	2.92904
2827.000	2.86821	3.20953	2.52300	2.91316
2828.000	2.83863	3.21555	2.50130	2.98259
2829.000	2.79129	3.13446	2.56246	2.94677
2830.000	2.82285	3.19777	2.52695	2.88143
2831.000	2.83271	3.19576	2.58022	2.96853
2832.000	2.83666	3.16802	2.51905	2.94291
2833.000	2.83271	3.15416	2.53484	2.97855
2834.000	2.87610	3.13621	2.53681	2.95476
2835.000	2.81496	3.13836	2.54273	2.92699
2836.000	2.88004	3.12036	2.59600	2.87137
2837.000	2.82088	3.13042	2.54273	2.99835
2838.000	2.83666	3.17396	2.55852	2.93687
2839.000	2.79327	3.12257	2.55852	2.87740
2840.000	2.81891	3.10071	2.56049	2.95470
2841.000	2.79721	3.14435	2.53681	3.00035
2842.000	2.79524	3.13841	2.49538	2.91917
2843.000	2.80510	3.12452	2.58811	2.88724
2844.000	2.80313	3.13245	2.57430	2.92494
2845.000	2.79721	3.14237	2.59798	3.00219
2846.000	2.75579	3.11673	2.45196	2.96486
2847.000	2.75974	3.19596	2.50130	2.95682
2848.000	2.79129	3.14635	2.58022	2.96259
2849.000	2.77354	3.12460	2.44210	3.02633
2850.000	2.79524	3.11068	2.56049	3.00822
2851.000	2.78341	3.12656	2.55062	2.92499
2852.000	2.80707	3.14235	2.52892	2.89332
2853.000	2.81102	3.13045	2.51116	2.91715
2854.000	2.79721	3.11464	2.49932	2.88744
2855.000	2.78341	3.12458	2.55457	2.92895
2856.000	2.83271	3.10464	2.54076	2.94087
2857.000	2.83468	3.13237	2.54471	2.88338
2858.000	2.79327	3.13446	2.52497	2.83584
2859.000	2.81891	3.12250	2.47170	2.89940
2860.000	2.80510	3.13244	2.55457	2.87741
2861.000	2.81496	3.14827	2.54668	2.92698
2862.000	2.78341	3.11665	2.63152	2.94859
2863.000	2.78143	3.17015	2.47762	2.94102
2864.000	2.79721	3.12058	2.50919	2.86958
2865.000	2.82877	3.15417	2.54076	2.87546
2866.000	2.77749	3.14639	2.53484	2.83384
2867.000	2.79721	3.14237	2.51905	2.94687
2868.000	2.82877	3.16804	2.57627	2.88925
2869.000	2.76368	3.14048	2.61968	2.84356
2870.000	2.78735	3.12655	2.55654	2.84370
2871.000	2.80313	3.13245	2.55654	2.90912
2872.000	2.79327	3.17804	2.55260	2.97851
2873.000	2.84849	3.10856	2.67886	2.92668
2874.000	2.82482	3.13239	2.50130	2.89735
2875.000	2.84060	3.11650	2.62362	2.92483
2876.000	2.84454	3.14422	2.60390	2.85747
2877.000	2.80116	3.14830	2.56444	2.81593
2878.000	2.77157	3.15235	2.57233	2.87340
2879.000	2.84454	3.11055	2.60587	2.84557
2880.000	2.80707	3.15027	2.62165	2.91888
2881.000	2.77354	3.15234	2.54273	2.91906
2882.000	2.74396	3.13261	2.58417	2.82580
2883.000	2.80116	3.15623	2.61968	2.90105
2884.000	2.82482	3.17201	2.56444	2.94082
2885.000	2.78143	3.12656	2.55654	2.91903
2886.000	2.80116	3.14434	2.58022	2.91700
2887.000	2.79327	3.15031	2.63349	2.88912
2888.000	2.79721	3.19784	2.56444	2.92496
2889.000	2.78341	3.17609	2.61573	2.87529
2890.000	2.77749	3.15827	2.51116	2.92905
2891.000	2.79129	3.13644	2.55654	2.97652
2892.000	2.79129	3.16814	2.58219	2.85157
2893.000	2.83271	3.14822	2.54668	2.93491
2894.000	2.78341	3.17014	2.56641	2.97055
2895.000	2.81693	3.12845	2.59008	2.87138
2896.000	2.78932	3.11466	2.53287	2.93693
2897.000	2.79129	3.12059	2.57627	2.85159
2898.000	2.81693	3.14232	2.52497	2.91910
2899.000	2.81496	3.17996	2.65124	2.94855
2900.000	2.79524	3.16219	2.55852	2.93489
2901.000	2.86032	3.12437	2.63546	2.84749
2902.000	2.83074	3.16803	2.54273	2.84571
2903.000	2.86624	3.15209	2.59403	2.86542
2904.000	2.86032	3.14814	2.60784	2.89315
2905.000	2.80313	3.11462	2.59206	2.88327
2906.000	2.81496	3.09676	2.52892	2.83781
2907.000	2.83666	3.13632	2.62954	2.94463
2908.000	2.86032	3.15607	2.60981	2.90107
2909.000	2.82680	3.14427	2.60587	2.93478
2910.000	2.86229	3.14814	2.62954	2.95653
2911.000	2.81891	3.09675	2.59995	2.94470
2912.000	2.78143	3.10477	2.55062	2.90121
2913.000	2.80116	3.15821	2.53484	2.95873
2914.000	2.79918	3.10472	2.71437	2.93056
2915.000	2.78735	3.11268	2.55260	2.91904
2916.000	2.77749	3.08893	2.64533	2.89702
2917.000	2.70056	3.09904	2.61771	2.97439
2918.000	2.74001	3.08705	2.55062	2.96266
2919.000	2.76763	3.14047	2.60587	2.94865
2920.000	2.77946	3.12855	2.62165	2.93871
2921.000	2.74001	3.08110	2.53089	2.95081
2922.000	2.75776	3.08106	2.59206	2.96256
2923.000	2.72620	3.10491	2.56049	2.97651
2924.000	2.67294	3.07533	2.52300	2.86162
2925.000	2.70845	3.00192	2.46775	2.79829
2926.000	2.59995	2.87532	2.51511	2.65343
2927.000	2.52300	2.72481	2.46183	2.55436
2928.000	2.40657	2.59414	2.47367	2.32420
2929.000	2.31776	2.40979	2.40460	2.15364
2930.000	2.22104	2.19362	2.41249	1.96107
2931.000	2.10654	1.92176	2.33158	1.73481
2932.000	2.03151	1.66563	2.38289	1.44079
2933.000	1.98609	1.42130	2.30789	1.27398
2934.000	1.95055	1.23453	2.33947	0.96796
2935.000	1.90513	0.97220	2.40065	0.81291
2936.000	1.86366	0.69789	2.43815	0.50485
2937.000	1.84786	0.50305	2.40263	0.32796
2938.000	1.85971	0.26843	2.45591	0.19677
2939.000	1.86761	0.08550	2.43815	-0.01590
2940.000	1.94857	-0.03181	2.49538	-0.14310
2941.000	1.98807	-0.18689	2.48354	-0.13714
2942.000	2.03941	-0.23858	2.52695	-0.34980
2943.000	2.13023	-0.37971	2.54865	-0.35376
2944.000	2.15392	-0.36977	2.67097	-0.48091
2945.000	2.21117	-0.45523	2.65913	-0.50873
2946.000	2.32368	-0.44128	2.66900	-0.59616
2947.000	2.34144	-0.46513	2.65519	-0.61803
2948.000	2.39868	-0.49095	2.71437	-0.68357
2949.000	2.38881	-0.47704	2.69070	-0.69351
2950.000	2.42631	-0.47901	2.67886	-0.73922
2951.000	2.39671	-0.46312	2.73015	-0.70343
2952.000	2.37697	-0.46313	2.62757	-0.64983
2953.000	2.36118	-0.43332	2.62165	-0.62400
2954.000	2.33355	-0.34587	2.60981	-0.58228
2955.000	2.29802	-0.23854	2.48156	-0.46111
2956.000	2.27631	-0.19282	2.48156	-0.37763
2957.000	2.25262	-0.11331	2.40263	-0.29219
2958.000	2.27828	-0.07753	2.41052	-0.22461
2959.000	2.28420	0.00199	2.37105	-0.12324
2960.000	2.23486	0.06361	2.46380	-0.09938
2961.000	2.24078	0.11729	2.31381	-0.06361
2962.000	2.26052	0.18686	2.34144	0.02982
2963.000	2.25460	0.15903	2.34342	0.02783
2964.000	2.23288	0.24253	2.36908	0.04174
2965.000	2.28618	0.21667	2.42433	-0.02385
2966.000	2.29013	0.17095	2.42631	0.04969
2967.000	2.26249	0.20078	2.39868	0.00199
2968.000	2.28815	0.16102	2.39671	-0.00994
2969.000	2.29013	0.11728	2.45394	-0.09739
2970.000	2.30000	0.07951	2.41447	-0.10733
2971.000	2.31776	0.02385	2.38684	-0.13516
2972.000	2.32368	-0.01789	2.45986	-0.23851
2973.000	2.31973	-0.10734	2.44210	-0.29019
2974.000	2.30000	-0.11331	2.45394	-0.35777
2975.000	2.28815	-0.18288	2.49932	-0.34980
2976.000	2.27631	-0.21866	2.50327	-0.38756
2977.000	2.30197	-0.29618	2.44802	-0.37566
2978.000	2.25460	-0.31011	2.43815	-0.41342
2979.000	2.27631	-0.32203	2.46380	-0.55452
2980.000	2.22301	-0.35385	2.52695	-0.46507
2981.000	2.22893	-0.37770	2.33158	-0.52874
2982.000	2.23486	-0.44131	2.39276	-0.49095
2983.000	2.22893	-0.40752	2.37105	-0.45518
2984.000	2.23486	-0.43932	2.43025	-0.53069
2985.000	2.22301	-0.41547	2.43618	-0.51876
2986.000	2.25262	-0.41745	2.44407	-0.49689
2987.000	2.27433	-0.45322	2.45986	-0.55651
2988.000	2.24275	-0.38962	2.42039	-0.50287
2989.000	2.26052	-0.39757	2.44802	-0.53267
2990.000	2.22301	-0.41348	2.34934	-0.52873
2991.000	2.28026	-0.39160	2.46380	-0.52471
2992.000	2.29802	-0.38961	2.40855	-0.49889
2993.000	2.31579	-0.37172	2.41249	-0.40150
2994.000	2.26644	-0.35384	2.44012	-0.50485
2995.000	2.27828	-0.35980	2.44407	-0.50484
2996.000	2.28223	-0.35185	2.46578	-0.52869
2997.000	2.30986	-0.38762	2.43618	-0.47503
2998.000	2.27039	-0.34191	2.37105	-0.48500
2999.000	2.25262	-0.38366	2.49143	-0.47700
3000.000	2.29013	-0.35582	2.50130	-0.52470
3001.000	2.29210	-0.33594	2.44999	-0.50683
3002.000	2.24867	-0.35782	2.42433	-0.48696
3003.000	2.28026	-0.32203	2.43223	-0.42734
3004.000	2.31973	-0.35581	2.42828	-0.47106
3005.000	2.31381	-0.32600	2.46380	-0.47900
3006.000	2.29802	-0.35582	2.45788	-0.43329
3007.000	2.30000	-0.36178	2.44802	-0.52074
3008.000	2.26644	-0.40950	2.49340	-0.48694
3009.000	2.26841	-0.33595	2.40263	-0.47505
3010.000	2.28420	-0.33594	2.45591	-0.42137
3011.000	2.23091	-0.33596	2.50722	-0.47103
3012.000	2.25262	-0.31806	2.37500	-0.46114
3013.000	2.25262	-0.30613	2.43815	-0.43926
3014.000	2.24670	-0.32403	2.42433	-0.49293
3015.000	2.28815	-0.31010	2.47367	-0.50881
3016.000	2.27039	-0.32601	2.39671	-0.48499
3017.000	2.27631	-0.27432	2.49340	-0.48495
3018.000	2.28420	-0.32600	2.41052	-0.48896
3019.000	2.26447	-0.33992	2.41249	-0.44324
3020.000	2.26841	-0.28029	2.41841	-0.51479
3021.000	2.25460	-0.30017	2.52892	-0.52270
3022.000	2.23683	-0.30017	2.53287	-0.49487
3023.000	2.24078	-0.31806	2.49143	-0.49290
3024.000	2.28026	-0.31805	2.47170	-0.42335
3025.000	2.25262	-0.32005	2.43618	-0.52870
3026.000	2.23288	-0.32602	2.49143	-0.41340
3027.000	2.27433	-0.32601	2.37697	-0.44723
3028.000	2.24867	-0.35981	2.42828	-0.51081
3029.000	2.24078	-0.32601	2.43618	-0.49491
3030.000	2.26052	-0.31806	2.41052	-0.54262
3031.000	2.25854	-0.35782	2.38486	-0.57045
3032.000	2.26644	-0.37372	2.47762	-0.47105
3033.000	2.23683	-0.35385	2.52892	-0.51674
3034.000	2.23288	-0.33596	2.45788	-0.52670
3035.000	2.28223	-0.36576	2.44012	-0.49491
3036.000	2.24670	-0.33396	2.42631	-0.42336
3037.000	2.24275	-0.33794	2.44210	-0.47106
3038.000	2.28618	-0.32998	2.43223	-0.41740
3039.000	2.24670	-0.32999	2.44604	-0.46311
3040.000	2.25460	-0.34589	2.41841	-0.42535
3041.000	2.31776	-0.34985	2.45986	-0.50086
3042.000	2.27433	-0.34986	2.44210	-0.48100
3043.000	2.27433	-0.36179	2.47762	-0.52868
3044.000	2.25460	-0.35782	2.45788	-0.44124
3045.000	2.27039	-0.30215	2.37500	-0.39754
3046.000	2.26841	-0.38365	2.47959	-0.45912
3047.000	2.27039	-0.35384	2.43618	-0.52075
3048.000	2.28223	-0.32203	2.41249	-0.45119
3049.000	2.24867	-0.31806	2.45394	-0.47702
3050.000	2.24670	-0.37372	2.45591	-0.48894
3051.000	2.27039	-0.36576	2.40460	-0.42734
3052.000	2.27828	-0.34588	2.48551	-0.51477
3053.000	2.23288	-0.34788	2.39868	-0.43530
3054.000	2.25854	-0.32800	2.47170	-0.47303
3055.000	2.23880	-0.32403	2.43815	-0.52472
3056.000	2.26249	-0.34589	2.51116	-0.48693
3057.000	2.21117	-0.33795	2.48748	-0.46508
3058.000	2.23486	-0.35583	2.47762	-0.45515
3059.000	2.25065	-0.34788	2.38684	-0.48698
3060.000	2.27236	-0.31607	2.44802	-0.47702
3061.000	2.28026	-0.34588	2.41447	-0.43927
3062.000	2.26052	-0.35583	2.40460	-0.58237
3063.000	2.24670	-0.37372	2.48551	-0.52470
3064.000	2.26447	-0.35384	2.54668	-0.55250
3065.000	2.29802	-0.34985	2.44604	-0.46509
3066.000	2.23091	-0.39758	2.46775	-0.49887
3067.000	2.24867	-0.38962	2.45788	-0.45515
3068.000	2.26249	-0.37769	2.53484	-0.46705
3069.000	2.23486	-0.39758	2.44802	-0.48696
3070.000	2.26841	-0.38763	2.52695	-0.51276
3071.000	2.26249	-0.41546	2.52497	-0.50084
3072.000	2.23486	-0.38366	2.40460	-0.46511
3073.000	2.27631	-0.37968	2.51905	-0.45712
3074.000	2.23486	-0.38963	2.45196	-0.48497
3075.000	2.27631	-0.37371	2.47170	-0.51875
3076.000	2.24275	-0.35186	2.47367	-0.53862
3077.000	2.28815	-0.36178	2.44210	-0.51876
3078.000	2.29407	-0.34588	2.43025	-0.48497
3079.000	2.27433	-0.37570	2.43223	-0.50286
3080.000	2.27236	-0.33992	2.44012	-0.52273
3081.000	2.27433	-0.39359	2.55457	-0.55448
3082.000	2.26447	-0.35781	2.46183	-0.43528
3083.000	2.24275	-0.40950	2.45196	-0.54857
3084.000	2.24867	-0.36776	2.57035	-0.46306
3085.000	2.27433	-0.36378	2.44999	-0.47304
3086.000	2.23880	-0.38764	2.46775	-0.50682
3087.000	2.26644	-0.35185	2.48156	-0.50682
3088.000	2.25460	-0.37372	2.54471	-0.56641
3089.000	2.26841	-0.37173	2.50327	-0.54457
3090.000	2.29802	-0.34985	2.44012	-0.48497
3091.000	2.27631	-0.35384	2.45394	-0.52273
3092.000	2.25657	-0.34390	2.56641	-0.45710
3093.000	2.27828	-0.40353	2.46972	-0.54061
3094.000	2.30000	-0.37967	2.46972	-0.47900
3095.000	2.28223	-0.41347	2.49538	-0.45116
3096.000	2.25854	-0.42938	2.47959	-0.51278
3097.000	2.26052	-0.38366	2.47367	-0.50881
3098.000	2.23288	-0.41944	2.39473	-0.43530
3099.000	2.30986	-0.41346	2.44999	-0.48497
3100.000	2.25460	-0.38763	2.40855	-0.50088
3101.000	2.27828	-0.40552	2.48946	-0.46905
3102.000	2.28815	-0.39955	2.44407	-0.43926
3103.000	2.26644	-0.42142	2.51511	-0.43526
3104.000	2.32368	-0.39755	2.51511	-0.44917
3105.000	2.30789	-0.43532	2.58219	-0.50479
3106.000	2.30000	-0.42738	2.50722	-0.40942
3107.000	2.27631	-0.40552	2.49340	-0.50284
3108.000	2.32171	-0.40749	2.51905	-0.49289
3109.000	2.28223	-0.37172	2.53287	-0.41935
3110.000	2.30197	-0.42340	2.53089	-0.46904
3111.000	2.27433	-0.38564	2.44999	-0.47702
3112.000	2.30394	-0.38762	2.53089	-0.47898
3113.000	2.30197	-0.39358	2.46183	-0.40149
3114.000	2.27236	-0.35582	2.48354	-0.49092
3115.000	2.32171	-0.38364	2.49538	-0.43129
3116.000	2.30592	-0.37172	2.54273	-0.44121
3117.000	2.33158	-0.40351	2.49735	-0.39353
3118.000	2.30789	-0.40948	2.50919	-0.49886
3119.000	2.29605	-0.36973	2.52103	-0.43327
3120.000	2.28420	-0.39558	2.44210	-0.50484
3121.000	2.31776	-0.41743	2.53681	-0.43326
3122.000	2.27236	-0.41546	2.57233	-0.49685
3123.000	2.23683	-0.37770	2.49538	-0.41340
3124.000	2.28026	-0.40750	2.47959	-0.44720
3125.000	2.28026	-0.39558	2.53681	-0.44121
3126.000	2.26447	-0.42142	2.52892	-0.41538
3127.000	2.24867	-0.37372	2.48748	-0.42931
3128.000	2.27433	-0.38564	2.56049	-0.43326
3129.000	2.27236	-0.41148	2.50722	-0.45116
3130.000	2.29013	-0.42738	2.49735	-0.40545
3131.000	2.29802	-0.34787	2.50919	-0.48693
3132.000	2.26249	-0.39360	2.48748	-0.43129
3133.000	2.29210	-0.42937	2.54865	-0.42929
3134.000	2.26052	-0.38366	2.50722	-0.41141
3135.000	2.25262	-0.41348	2.47762	-0.48496
3136.000	2.27039	-0.38962	2.56049	-0.46108
3137.000	2.29802	-0.43930	2.47762	-0.47105
3138.000	2.29605	-0.41943	2.52103	-0.49885
3139.000	2.27828	-0.35582	2.44210	-0.50286
3140.000	2.30000	-0.44725	2.45986	-0.43329
3141.000	2.25657	-0.44925	2.44999	-0.49689
3142.000	2.27828	-0.38564	2.47170	-0.50285
3143.000	2.27828	-0.44527	2.42039	-0.41939
3144.000	2.26644	-0.41148	2.56049	-0.47896
3145.000	2.28420	-0.43533	2.52103	-0.39750
3146.000	2.27039	-0.46316	2.57430	-0.45312
3147.000	2.28420	-0.45123	2.52892	-0.50084
3148.000	2.33750	-0.42538	2.57233	-0.46704
3149.000	2.31184	-0.43135	2.53484	-0.46109
3150.000	2.31973	-0.44924	2.57825	-0.46902
3151.000	2.29605	-0.48105	2.52497	-0.45314
3152.000	2.30197	-0.45123	2.59798	-0.39350
3153.000	2.29605	-0.41545	2.61968	-0.50478
3154.000	2.29802	-0.42539	2.50130	-0.46905
3155.000	2.34737	-0.43134	2.51313	-0.45315
3156.000	2.31973	-0.40749	2.56838	-0.44915
3157.000	2.32171	-0.41743	2.45394	-0.43727
3158.000	2.29210	-0.43931	2.50919	-0.44122
3159.000	2.30986	-0.45918	2.54865	-0.45512
3160.000	2.28420	-0.47111	2.57825	-0.41735
3161.000	2.29407	-0.39756	2.53089	-0.50481
3162.000	2.30394	-0.46912	2.58811	-0.48690
3163.000	2.31381	-0.43334	2.55457	-0.48692
3164.000	2.32171	-0.42339	2.52497	-0.50084
3165.000	2.30000	-0.42738	2.52300	-0.45513
3166.000	2.30592	-0.44725	2.51511	-0.37961
3167.000	2.32171	-0.44923	2.59403	-0.46902
3168.000	2.29802	-0.43732	2.47959	-0.46309
3169.000	2.28815	-0.44527	2.53089	-0.40942
3170.000	2.31776	-0.44327	2.48156	-0.49291
3171.000	2.35723	-0.45717	2.61573	-0.42131
3172.000	2.31579	-0.45122	2.48156	-0.42533
3173.000	2.30789	-0.43532	2.55062	-0.47897
3174.000	2.31381	-0.42737	2.57233	-0.43325
3175.000	2.26052	-0.46913	2.51313	-0.42930
3176.000	2.29013	-0.43931	2.54865	-0.43326
3177.000	2.34934	-0.44525	2.57627	-0.48889
3178.000	2.30394	-0.44129	2.61573	-0.43920
3179.000	2.25854	-0.46317	2.56246	-0.49287
3180.000	2.29210	-0.43334	2.51511	-0.43923
3181.000	2.33355	-0.47507	2.55457	-0.46903
3182.000	2.31579	-0.47706	2.56838	-0.42133
3183.000	2.29407	-0.40750	2.60981	-0.45311
3184.000	2.31184	-0.47905	2.50327	-0.36173
3185.000	2.33552	-0.45519	2.58219	-0.43126
3186.000	2.32960	-0.42339	2.56246	-0.41934
3187.000	2.34737	-0.41345	2.59995	-0.38555
3188.000	2.35526	-0.47109	2.53879	-0.44519
3189.000	2.29802	-0.44924	2.53879	-0.44717
3190.000	2.32763	-0.40153	2.57233	-0.45114
3191.000	2.33552	-0.40153	2.59008	-0.38555
3192.000	2.32763	-0.42141	2.62954	-0.41336
3193.000	2.35723	-0.46115	2.59798	-0.49882
3194.000	2.35131	-0.45519	2.59600	-0.41138
3195.000	2.32763	-0.40153	2.57035	-0.42530
3196.000	2.30197	-0.46912	2.62362	-0.38951
3197.000	2.34737	-0.44128	2.57233	-0.46902
3198.000	2.30789	-0.44725	2.50524	-0.38558
3199.000	2.30000	-0.48900	2.51905	-0.42930
3200.000	2.28223	-0.50292	2.59008	-0.39151
3201.000	2.31381	-0.42141	2.58614	-0.44318
3202.000	2.32565	-0.44526	2.50919	-0.46507
3203.000	2.30986	-0.42936	2.51905	-0.43724
3204.000	2.31973	-0.46315	2.54076	-0.43525
3205.000	2.32960	-0.42339	2.60192	-0.44318
3206.000	2.32960	-0.45718	2.57825	-0.38158
3207.000	2.30000	-0.46912	2.54865	-0.42929
3208.000	2.32368	-0.45718	2.57430	-0.41338
3209.000	2.33158	-0.46513	2.54668	-0.35178
3210.000	2.35526	-0.42935	2.66308	-0.40540
3211.000	2.33355	-0.46513	2.51313	-0.44520
3212.000	2.35526	-0.45519	2.54668	-0.43127
3213.000	2.32565	-0.46315	2.59008	-0.34779
3214.000	2.28420	-0.44328	2.55260	-0.42730
3215.000	2.36513	-0.41742	2.56641	-0.32594
3216.000	2.35131	-0.41543	2.55260	-0.43922
3217.000	2.37697	-0.45319	2.52300	-0.43327
3218.000	2.40065	-0.46113	2.52892	-0.38159
3219.000	2.33158	-0.46513	2.61179	-0.40542
3220.000	2.37894	-0.48301	2.53287	-0.38954
3221.000	2.36513	-0.49295	2.59008	-0.39350
3222.000	2.38092	-0.48300	2.47367	-0.39552
3223.000	2.34539	-0.50091	2.51708	-0.37564
3224.000	2.35131	-0.47308	2.62560	-0.40740
3225.000	2.37105	-0.46909	2.61179	-0.38952
3226.000	2.36710	-0.47108	2.59798	-0.41536
3227.000	2.34342	-0.44525	2.50130	-0.41936
3228.000	2.34342	-0.44724	2.58614	-0.41337
3229.000	2.35526	-0.43730	2.49143	-0.50085
3230.000	2.33158	-0.43731	2.64138	-0.40541
3231.000	2.31973	-0.48303	2.53089	-0.49686
3232.000	2.36513	-0.46313	2.46578	-0.37366
3233.000	2.38289	-0.47307	2.45788	-0.41341
3234.000	2.37302	-0.48499	2.56246	-0.48294
3235.000	2.39276	-0.45319	2.54865	-0.46704
3236.000	2.42039	-0.47504	2.53681	-0.43525
3237.000	2.43815	-0.48298	2.53681	-0.44916
3238.000	2.37302	-0.45916	2.60192	-0.49485
3239.000	2.39276	-0.50884	2.59206	-0.38952
3240.000	2.35526	-0.47705	2.47762	-0.42136
3241.000	2.35329	-0.46115	2.55852	-0.49884
3242.000	2.42433	-0.46311	2.62954	-0.46503
3243.000	2.37894	-0.44127	2.56049	-0.44319
3244.000	2.42433	-0.46510	2.54865	-0.39153
3245.000	2.40263	-0.46511	2.45986	-0.45316
3246.000	2.37894	-0.48897	2.58614	-0.44517
3247.000	2.42631	-0.46113	2.54471	-0.43922
3248.000	2.41841	-0.45715	2.55852	-0.46704
3249.000	2.37697	-0.45717	2.49735	-0.43328
3250.000	2.37894	-0.49493	2.55457	-0.45313
3251.000	2.32960	-0.44724	2.47367	-0.40944
3252.000	2.23880	-0.45324	2.48946	-0.32596
3253.000	2.20722	-0.39957	2.38486	-0.40946
3254.000	1.99794	-0.39764	2.32171	-0.44128
3255.000	1.86366	-0.40761	2.00781	-0.34992
3256.000	1.61873	-0.29432	1.83996	-0.34200
3257.000	1.35597	-0.28441	1.64837	-0.29232
3258.000	1.12477	-0.22874	1.44093	-0.25059
3259.000	0.92911	-0.13725	1.12872	-0.28642
3260.000	0.64250	-0.13925	0.82831	-0.18500
3261.000	0.43296	-0.07759	0.63459	-0.12533
3262.000	0.17595	-0.04377	0.39342	-0.25663
3263.000	-0.02768	-0.07361	0.21154	-0.14921
3264.000	-0.12850	-0.04377	0.08501	-0.12334
3265.000	-0.17200	-0.03382	0.02570	-0.11738
3266.000	-0.17793	-0.06167	0.08897	-0.06366
3267.000	-0.16014	-0.06963	0.15816	-0.05570
3268.000	-0.06722	-0.05570	0.18188	-0.00199
3269.000	0.05140	-0.05968	0.34202	0.04377
3270.000	0.23922	0.00199	0.44877	0.02387
3271.000	0.40528	-0.05172	0.61878	0.03183
3272.000	0.62866	-0.06167	0.81842	0.05968
3273.000	0.75122	-0.05371	1.01805	0.13526
3274.000	0.94492	0.01591	1.14848	0.09945
3275.000	1.11884	0.08155	1.26508	0.06166
3276.000	1.18603	0.06166	1.36585	0.08552
3277.000	1.29076	0.10342	1.37771	0.06563
3278.000	1.31448	0.11933	1.39549	0.14320
3279.000	1.36190	0.16309	1.36783	0.09547
3280.000	1.31250	0.16508	1.43500	0.17700
3281.000	1.27496	0.17702	1.36980	0.00199
3282.000	1.26310	0.13326	1.18406	0.10144
3283.000	1.19394	0.13326	1.31052	0.05171
3284.000	1.13860	0.07359	1.18010	0.00199
3285.000	1.04967	0.04376	1.13070	-0.02984
3286.000	0.98445	0.00597	1.13663	0.00000
3287.000	0.93899	-0.01591	1.02003	-0.04177
3288.000	0.90934	-0.03183	0.99829	-0.12134
3289.000	0.84017	-0.04575	1.02595	-0.07956
3290.000	0.83621	-0.07360	0.95085	-0.20488
3291.000	0.81645	-0.08753	0.87179	-0.07758
3292.000	0.76703	-0.01989	0.89353	-0.09150
3293.000	0.78284	-0.05371	0.91132	-0.08355
3294.000	0.79668	-0.04774	0.81645	-0.10941
3295.000	0.76703	-0.04774	0.80261	-0.09548
3296.000	0.71564	0.00000	0.84807	-0.11140
3297.000	0.76308	-0.06763	0.88167	-0.05769
3298.000	0.74924	-0.03780	0.80261	-0.05570
3299.000	0.78877	0.01194	0.85400	-0.00199
3300.000	0.76110	-0.00398	0.89156	-0.02188
3301.000	0.74726	0.00796	0.81645	0.03382
3302.000	0.76505	0.01392	0.88365	0.08156
3303.000	0.79866	0.05968	0.82831	0.06763
3304.000	0.80656	0.02586	0.87179	0.11537
3305.000	0.75715	0.00796	0.85005	0.05371
3306.000	0.81447	0.06564	0.84017	0.14322
3307.000	0.82040	0.05570	0.86784	0.03183
3308.000	0.80063	0.03780	0.84807	0.08156
3309.000	0.77098	0.07559	0.80656	0.05570
3310.000	0.77691	0.06962	0.83819	0.09548
3311.000	0.75912	0.01790	0.81842	0.05570
3312.000	0.78087	0.03979	0.85598	0.10344
3313.000	0.80261	0.01591	0.85993	0.05570
3314.000	0.81447	0.07559	0.84807	0.03183
3315.000	0.79470	0.01194	0.82633	0.09548
3316.000	0.81842	0.01989	0.85203	0.07957
3317.000	0.79273	0.02188	0.87970	0.09747
3318.000	0.83424	0.05371	0.87574	0.09150
3319.000	0.82435	0.06962	0.91725	0.07161
3320.000	0.77494	0.01989	0.92713	0.09747
3321.000	0.83424	0.03581	0.86586	0.07758
3322.000	0.80261	0.04177	0.93899	0.03382
3323.000	0.85796	0.05570	0.87179	0.06962
3324.000	0.87574	0.04774	0.88167	0.05570
3325.000	0.83028	0.01591	0.89156	0.05968
3326.000	0.82238	0.05172	0.88365	0.06564
3327.000	0.82831	0.03978	0.90144	0.07161
3328.000	0.89749	0.05371	0.92318	0.00000
3329.000	0.85993	0.02586	0.94690	0.08354
3330.000	0.86586	0.01591	0.87970	0.03183
3331.000	0.86388	0.04973	0.87574	-0.03382
3332.000	0.86388	0.01591	0.91725	0.01392
3333.000	0.89551	0.00398	0.88760	0.03183
3334.000	0.84214	-0.02188	0.94295	0.00398
3335.000	0.87377	-0.00995	0.88167	0.01790
3336.000	0.84017	0.00995	0.88365	-0.00199
3337.000	0.82435	-0.00597	0.86388	0.01989
3338.000	0.83028	-0.01790	0.90934	0.00398
3339.000	0.86586	-0.01790	0.85005	0.06564
3340.000	0.87179	0.01591	0.86586	0.07161
3341.000	0.81052	-0.01591	0.86586	0.05172
3342.000	0.80459	0.00199	0.77691	0.05769
3343.000	0.84412	0.00398	0.79866	0.05371
3344.000	0.84017	-0.03978	0.90539	0.00199
3345.000	0.79470	-0.02586	0.82633	0.10344
3346.000	0.81842	0.00995	0.86586	0.06564
3347.000	0.83819	-0.00199	0.86388	0.09150
3348.000	0.86388	-0.01989	0.89749	0.05172
3349.000	0.87772	0.01790	0.84017	0.00796
3350.000	0.81842	0.00398	0.87772	0.06167
3351.000	0.81249	-0.00199	0.90934	-0.00995
3352.000	0.77889	-0.00597	0.89551	0.04575
3353.000	0.82435	-0.05968	0.84412	0.01989
3354.000	0.81842	-0.04177	0.85400	0.02785
3355.000	0.79866	-0.02785	0.97457	0.01989
3356.000	0.83819	-0.00995	0.87574	0.06167
3357.000	0.85203	-0.01392	0.83819	0.00000
3358.000	0.81842	-0.03183	0.94097	-0.03382
3359.000	0.85796	-0.01591	0.85005	0.04376
3360.000	0.84412	-0.00597	0.85796	0.04774
3361.000	0.80656	0.02387	0.87970	-0.04376
3362.000	0.86586	-0.00199	0.81447	-0.01194
3363.000	0.78087	-0.01591	0.86981	0.09150
3364.000	0.84017	0.00597	0.82633	0.05769
3365.000	0.79470	0.01194	0.88760	-0.02984
3366.000	0.84214	0.00199	0.84017	0.03183
3367.000	0.81249	-0.02387	0.85993	0.00199
3368.000	0.83819	0.02785	0.86586	0.03581
3369.000	0.84412	-0.00796	0.88167	0.05769
3370.000	0.83424	-0.02387	0.86784	0.02586
3371.000	0.81645	-0.03183	0.87574	0.02188
3372.000	0.82238	0.00000	0.83226	0.05769
3373.000	0.80656	0.02387	0.87377	0.07161
3374.000	0.81645	-0.00199	0.80656	0.02586
3375.000	0.84214	0.03581	0.92516	0.01790
3376.000	0.84807	0.01392	0.89156	0.05968
3377.000	0.85005	-0.01392	0.86586	0.06564
3378.000	0.83028	0.03183	0.86586	-0.04376
3379.000	0.84412	-0.00597	0.89749	0.03382
3380.000	0.80459	-0.03780	0.85203	0.09548
3381.000	0.82831	0.00597	0.85005	0.01989
3382.000	0.82435	-0.01790	0.84610	0.01790
3383.000	0.87970	-0.03183	0.87574	0.03978
3384.000	0.79470	-0.00995	0.81447	0.06564
3385.000	0.82040	-0.00597	0.88167	0.05371
3386.000	0.82435	-0.08355	0.95283	-0.02387
3387.000	0.81447	-0.04575	0.89353	0.03779
3388.000	0.83226	-0.05570	0.87377	-0.06365
3389.000	0.82435	-0.00995	0.92713	0.01591
3390.000	0.80656	-0.02984	0.87772	0.05371
3391.000	0.80261	-0.05968	0.81645	-0.00796
3392.000	0.83226	-0.05570	0.83424	0.04973
3393.000	0.78680	-0.03978	0.83819	-0.01591
3394.000	0.83621	-0.04575	0.91923	0.00796
3395.000	0.79075	-0.01790	0.88167	0.05172
3396.000	0.86191	-0.02785	0.90144	0.05968
3397.000	0.83424	-0.00796	0.84214	0.04575
3398.000	0.83819	-0.01194	0.89946	0.05371
3399.000	0.83819	-0.03382	0.89353	0.01194
3400.000	0.81249	-0.04575	0.90539	0.01194
3401.000	0.78877	-0.02785	0.91132	-0.01392
3402.000	0.84214	-0.05371	0.86191	-0.00398
3403.000	0.84807	-0.04973	0.84017	-0.01194
3404.000	0.84017	-0.01392	0.87970	0.14919
3405.000	0.85993	-0.00995	0.86981	0.03382
3406.000	0.82633	0.00398	0.91527	-0.02188
3407.000	0.84412	-0.02785	0.88958	0.01194
3408.000	0.86191	-0.05371	0.86784	0.04575
3409.000	0.85005	-0.06167	0.94492	-0.05769
3410.000	0.83028	-0.03780	0.85400	-0.01392
3411.000	0.84017	-0.02984	0.85796	0.03978
3412.000	0.84214	0.00398	0.80261	-0.05371
3413.000	0.86191	-0.03183	0.90342	0.04575
3414.000	0.84412	-0.05968	0.76505	0.06763
3415.000	0.82831	-0.07758	0.85993	0.01989
3416.000	0.84610	-0.05968	0.91527	0.03581
3417.000	0.83028	-0.03382	0.81249	0.06564
3418.000	0.84807	-0.03183	0.79075	0.04376
3419.000	0.85203	-0.08355	0.79866	0.02785
3420.000	0.86784	-0.01989	0.79075	-0.01392
3421.000	0.87574	-0.02984	0.85993	-0.04376
3422.000	0.85005	-0.00796	0.81447	-0.05172
3423.000	0.84610	-0.00796	0.88167	0.03581
3424.000	0.83424	-0.00995	0.87772	0.01591
3425.000	0.86981	-0.01194	0.88958	0.04774
3426.000	0.85993	-0.02586	0.90342	-0.00597
3427.000	0.85203	-0.01989	0.87179	-0.00796
3428.000	0.87970	-0.05371	0.82633	0.03780
3429.000	0.87970	-0.00398	0.90144	0.05570
3430.000	0.87574	-0.02984	0.89156	0.00000
3431.000	0.87772	0.00597	0.84807	0.04973
3432.000	0.87574	-0.04575	0.87574	-0.01989
3433.000	0.85005	-0.01790	0.86784	-0.00398
3434.000	0.83424	-0.04973	0.78680	-0.03183
3435.000	0.86388	-0.01989	0.80656	0.00000
3436.000	0.85400	-0.02387	0.73343	-0.00995
3437.000	0.87970	-0.01194	0.90539	0.02188
3438.000	0.83226	-0.02387	0.81842	-0.00199
3439.000	0.83028	0.02984	0.87377	-0.06763
3440.000	0.84412	-0.05172	0.83819	0.02387
3441.000	0.81249	-0.00398	0.83621	-0.05172
3442.000	0.85993	-0.04177	0.80261	-0.01790
3443.000	0.88365	-0.02387	0.79668	-0.03581
3444.000	0.85796	-0.03183	0.81842	-0.00199
3445.000	0.82633	-0.03382	0.86191	-0.01392
3446.000	0.84807	-0.02586	0.75912	0.06962
3447.000	0.81842	-0.02188	0.80459	-0.04774
3448.000	0.85993	-0.00796	0.85598	0.02387
3449.000	0.82831	-0.06167	0.83621	-0.08355
3450.000	0.87970	0.01194	0.84610	0.02984
3451.000	0.87970	0.00995	0.84807	-0.00199
3452.000	0.85796	-0.01591	0.81645	0.03183
3453.000	0.84807	-0.00199	0.79668	0.04177
3454.000	0.92120	0.01790	0.87574	-0.02785
3455.000	0.83621	0.00199	0.85993	0.00000
3456.000	0.88167	-0.00597	0.86191	-0.00597
3457.000	0.82831	-0.03382	0.83226	-0.03382
3458.000	0.84807	-0.04177	0.87574	0.03382
3459.000	0.84214	0.00597	0.88167	0.03382
3460.000	0.90144	-0.00995	0.82238	0.05570
3461.000	0.86388	-0.03183	0.86191	0.06167
3462.000	0.85203	-0.00398	0.94295	0.01591
3463.000	0.89551	-0.02785	0.85796	0.04774
3464.000	0.89946	0.00597	0.82831	-0.01392
3465.000	0.88760	-0.06365	0.88365	0.05968
3466.000	0.87772	0.00199	0.77098	-0.01194
3467.000	0.87377	-0.01989	0.85203	0.01194
3468.000	0.84610	-0.03581	0.82633	-0.03581
3469.000	0.87772	-0.04177	0.85400	-0.02188
3470.000	0.82040	-0.02785	0.89551	0.01392
3471.000	0.81249	-0.04376	0.83819	0.00796
3472.000	0.89749	0.00000	0.90539	-0.03779
3473.000	0.88958	0.03382	0.85203	0.01591
3474.000	0.88365	0.02387	0.81842	0.01591
3475.000	0.90539	-0.01989	0.80063	-0.06366
3476.000	0.86981	0.01591	0.87772	-0.02188
3477.000	0.85400	-0.02785	0.78482	-0.03183
3478.000	0.89551	-0.01591	0.89156	-0.08554
3479.000	0.88760	-0.01790	0.87377	-0.05172
3480.000	0.88760	0.02586	0.81447	0.00199
3481.000	0.88365	-0.00199	0.84807	0.01591
3482.000	0.84610	0.00000	0.84807	-0.01392
3483.000	0.85005	0.00000	0.86191	-0.00597
3484.000	0.89353	0.00398	0.80854	-0.00398
3485.000	0.84214	0.00796	0.91132	-0.02785
3486.000	0.85796	-0.02586	0.85993	0.03183
3487.000	0.89353	-0.00597	0.86784	-0.02984
3488.000	0.90342	0.00597	0.91132	0.00995
3489.000	0.88167	0.01194	0.89353	-0.03382
3490.000	0.85598	0.00398	0.77494	-0.02586
3491.000	0.91330	-0.02984	0.85400	-0.03780
3492.000	0.87970	-0.06962	0.83226	0.00199
3493.000	0.88167	-0.03779	0.80063	-0.07957
3494.000	0.86784	-0.01392	0.86388	-0.00995
3495.000	0.85203	0.00199	0.82040	0.03183
3496.000	0.87772	-0.01790	0.79075	-0.01194
3497.000	0.84807	-0.05371	0.77691	0.02984
3498.000	0.82831	-0.03780	0.87970	-0.03183
3499.000	0.85400	-0.01790	0.84610	-0.00995
3500.000	0.87377	-0.03779	0.80261	-0.00597
3501.000	0.83819	-0.03978	0.81052	-0.02785
3502.000	0.85796	-0.00995	0.83424	-0.11339
3503.000	0.87574	-0.03779	0.77296	0.00398
3504.000	0.90539	-0.02586	0.81842	0.01392
3505.000	0.88760	0.00398	0.86981	-0.06763
3506.000	0.85993	-0.04177	0.80656	-0.02586
3507.000	0.85993	-0.02387	0.88760	-0.04376
3508.000	0.85993	-0.00995	0.86981	0.02785
3509.000	0.85203	-0.02984	0.85796	-0.03581
3510.000	0.84412	-0.02188	0.92911	-0.04177
3511.000	0.85005	-0.00796	0.81249	-0.07360
3512.000	0.85993	-0.04973	0.83424	-0.06763
3513.000	0.87377	-0.04177	0.81447	-0.04973
3514.000	0.86981	0.00398	0.84610	-0.04774
3515.000	0.85005	-0.05570	0.80854	0.03978
3516.000	0.82435	-0.07758	0.78482	-0.04774
3517.000	0.86784	-0.06763	0.84017	0.00199
3518.000	0.85203	-0.03382	0.76703	-0.02188
3519.000	0.84214	-0.08156	0.83424	-0.04177
3520.000	0.84412	-0.04177	0.82633	-0.04575
3521.000	0.86784	-0.05172	0.80656	0.09747
3522.000	0.85005	-0.07360	0.77494	-0.07161
3523.000	0.83819	-0.03581	0.81842	-0.07559
3524.000	0.85005	-0.05371	0.80459	-0.07161
3525.000	0.86586	-0.06763	0.75715	-0.04575
3526.000	0.85203	-0.04376	0.76505	-0.01392
3527.000	0.83226	-0.13527	0.85796	-0.01790
3528.000	0.83819	-0.06564	0.85400	-0.03183
3529.000	0.88365	-0.06564	0.82435	-0.11339
3530.000	0.85598	-0.10941	0.81645	-0.00199
3531.000	0.88167	-0.05570	0.89551	-0.08752
3532.000	0.87772	-0.05371	0.89946	-0.03978
3533.000	0.85203	-0.07161	0.85993	-0.05371
3534.000	0.83424	-0.04177	0.79273	-0.01392
3535.000	0.83819	-0.02586	0.76901	-0.01194
3536.000	0.85993	-0.06167	0.76703	-0.00597
3537.000	0.85203	-0.03780	0.76901	0.02586
3538.000	0.85796	-0.04177	0.80854	-0.00199
3539.000	0.84807	-0.05371	0.79470	0.02188
3540.000	0.85598	-0.05172	0.85005	-0.06763
3541.000	0.81645	-0.09349	0.90539	-0.05570
3542.000	0.87377	-0.12134	0.84610	-0.03183
3543.000	0.86388	-0.09349	0.89156	-0.14521
3544.000	0.86388	-0.10543	0.75912	-0.04376
3545.000	0.86784	-0.10145	0.81249	-0.02586
3546.000	0.86586	-0.10543	0.84610	-0.04177
3547.000	0.84610	-0.07758	0.77098	-0.10344
3548.000	0.82831	-0.12134	0.88167	-0.11537
3549.000	0.84017	-0.09946	0.91132	-0.08156
3550.000	0.81447	-0.10941	0.84412	0.02785
3551.000	0.82435	-0.10742	0.74529	-0.01194
3552.000	0.84807	-0.11140	0.82040	0.00995
3553.000	0.84017	-0.06962	0.84412	-0.04774
3554.000	0.80854	-0.09349	0.85203	0.00199
3555.000	0.84807	-0.08951	0.82238	-0.04774
3556.000	0.84017	-0.09349	0.83028	0.03382
3557.000	0.82238	-0.08355	0.84807	-0.02387
3558.000	0.82435	-0.06763	0.80261	-0.03780
3559.000	0.84807	-0.06564	0.72157	-0.03780
3560.000	0.81645	-0.11935	0.84412	-0.00995
3561.000	0.85203	-0.07559	0.80063	0.01790
3562.000	0.83621	-0.12731	0.78877	-0.03382
3563.000	0.85005	-0.12731	0.85005	0.00398
3564.000	0.86586	-0.08951	0.87970	0.01194
3565.000	0.81842	-0.13328	0.80459	-0.01392
3566.000	0.84610	-0.11935	0.78482	-0.07559
3567.000	0.85203	-0.08156	0.79075	-0.03382
3568.000	0.82633	-0.11538	0.82040	-0.01591
3569.000	0.81645	-0.05968	0.81842	-0.05968
3570.000	0.82633	-0.06763	0.82831	0.02188
3571.000	0.80656	-0.05968	0.89946	-0.06962
3572.000	0.84610	-0.07957	0.86191	0.03581
3573.000	0.84807	-0.07360	0.80063	-0.05570
3574.000	0.81447	-0.12134	0.85993	-0.06763
3575.000	0.81249	-0.07161	0.80261	0.01591
3576.000	0.84807	-0.10344	0.83226	0.02387
3577.000	0.80261	-0.08952	0.83424	-0.02984
3578.000	0.82238	-0.12930	0.85796	-0.08951
3579.000	0.82633	-0.10742	0.81052	-0.00398
3580.000	0.84412	-0.09747	0.84214	-0.08355
3581.000	0.83028	-0.08952	0.80854	-0.05570
3582.000	0.87772	-0.10543	0.70971	0.00000
3583.000	0.81052	-0.11538	0.85993	-0.04177
3584.000	0.82633	-0.13129	0.75122	-0.03382
3585.000	0.87377	-0.10742	0.85203	-0.02586
3586.000	0.83226	-0.12731	0.81645	-0.02984
3587.000	0.83226	-0.09150	0.85005	-0.01591
3588.000	0.85005	-0.08753	0.85598	-0.00199
3589.000	0.87574	-0.09548	0.71564	-0.05968
3590.000	0.88958	-0.10941	0.74529	-0.01790
3591.000	0.84610	-0.10543	0.85993	-0.06962
3592.000	0.85400	-0.07161	0.78284	-0.06565
3593.000	0.85993	-0.09150	0.78482	-0.04575
3594.000	0.84017	-0.09349	0.79470	0.00398
3595.000	0.84610	-0.10742	0.82238	0.04973
3596.000	0.85796	-0.12930	0.83226	0.01392
3597.000	0.85993	-0.05769	0.82040	-0.03978
3598.000	0.82238	-0.07758	0.79866	0.00199
3599.000	0.82831	-0.07161	0.83226	0.00597
3600.000	0.83028	-0.09946	0.81052	0.00398
3601.000	0.81447	-0.11538	0.83819	-0.02984
3602.000	0.84412	-0.11935	0.81052	0.02188
3603.000	0.84017	-0.11339	0.87574	-0.04973
3604.000	0.84017	-0.10742	0.85993	-0.06167
3605.000	0.83819	-0.10145	0.75715	0.02785
3606.000	0.84412	-0.11140	0.78284	-0.00796
3607.000	0.82040	-0.07957	0.74924	0.03581
3608.000	0.81447	-0.07360	0.71959	0.00000
3609.000	0.82040	-0.08753	0.83819	-0.02586
3610.000	0.79866	-0.08753	0.77691	-0.01392
3611.000	0.79075	-0.10344	0.80854	-0.06366
3612.000	0.81842	-0.09150	0.77494	-0.02586
3613.000	0.81842	-0.10742	0.82435	-0.05371
3614.000	0.76110	-0.09350	0.85400	0.01194
3615.000	0.83424	-0.09150	0.79273	0.01790
3616.000	0.82633	-0.09548	0.83028	-0.01989
3617.000	0.77889	-0.10941	0.71168	-0.02387
3618.000	0.76308	-0.11737	0.82238	-0.06167
3619.000	0.82238	-0.09747	0.87377	-0.02785
3620.000	0.82435	-0.10543	0.74726	-0.03581
3621.000	0.80854	-0.07758	0.81249	-0.04376
3622.000	0.84017	-0.11736	0.80063	-0.09151
3623.000	0.82040	-0.11935	0.77098	-0.03183
3624.000	0.80656	-0.11935	0.78680	-0.08952
3625.000	0.78877	-0.11538	0.74726	-0.07758
3626.000	0.80459	-0.12731	0.78680	-0.10941
3627.000	0.81645	-0.06366	0.83424	-0.05769
3628.000	0.79668	-0.13328	0.82040	-0.08156
3629.000	0.79668	-0.13925	0.76308	-0.06366
3630.000	0.76901	-0.09151	0.76901	-0.12333
3631.000	0.78284	-0.08554	0.77098	-0.04973
3632.000	0.81842	-0.07161	0.80459	-0.08554
3633.000	0.78087	-0.08952	0.73540	-0.07758
3634.000	0.80261	-0.14919	0.77494	-0.06565
3635.000	0.78482	-0.10742	0.76901	0.01591
3636.000	0.80459	-0.09150	0.76110	-0.02188
3637.000	0.81842	-0.08753	0.72947	-0.06764
3638.000	0.79668	-0.17704	0.78284	-0.01989
3639.000	0.81645	-0.11736	0.85598	-0.07758
3640.000	0.79273	-0.12134	0.73738	-0.12930
3641.000	0.76703	-0.12532	0.76110	-0.04376
3642.000	0.80854	-0.12731	0.74726	-0.06962
3643.000	0.77494	-0.14323	0.80261	-0.12333
3644.000	0.81052	-0.10543	0.76110	-0.12930
3645.000	0.78877	-0.14720	0.77691	-0.08355
3646.000	0.83028	-0.09747	0.76901	-0.08753
3647.000	0.84017	-0.14919	0.79866	-0.10543
3648.000	0.77296	-0.14919	0.80063	-0.11339
3649.000	0.79866	-0.13129	0.80261	-0.16511
3650.000	0.78087	-0.14522	0.74529	-0.09151
3651.000	0.78087	-0.14522	0.81447	-0.11935
3652.000	0.75912	-0.11140	0.79866	-0.17903
3653.000	0.79668	-0.13726	0.78680	-0.17107
3654.000	0.81645	-0.06763	0.85598	-0.06365
3655.000	0.78680	-0.11538	0.76901	-0.10145
3656.000	0.82831	-0.11736	0.75319	-0.07957
3657.000	0.81052	-0.12333	0.82238	-0.07758
3658.000	0.79866	-0.13527	0.75912	-0.04177
3659.000	0.80261	-0.15516	0.80854	-0.05968
3660.000	0.83424	-0.12731	0.83621	-0.09150
3661.000	0.82831	-0.14720	0.78284	-0.08753
3662.000	0.74924	-0.08753	0.86784	-0.11338
3663.000	0.78284	-0.17108	0.74529	-0.07758
3664.000	0.76703	-0.09350	0.82040	-0.10941
3665.000	0.76901	-0.17704	0.79075	-0.16113
3666.000	0.81842	-0.14919	0.75912	-0.14721
3667.000	0.78680	-0.16511	0.72354	-0.02586
3668.000	0.77494	-0.13527	0.73540	-0.06366
3669.000	0.81645	-0.12930	0.78284	-0.09548
3670.000	0.81052	-0.13527	0.80656	-0.11339
3671.000	0.80459	-0.10145	0.77098	-0.16113
3672.000	0.78284	-0.13328	0.78680	-0.01790
3673.000	0.79866	-0.08156	0.79273	-0.09946
3674.000	0.81447	-0.08355	0.72552	-0.10941
3675.000	0.77691	-0.08753	0.80063	-0.04774
3676.000	0.81645	-0.10742	0.75319	0.00796
3677.000	0.81447	-0.07758	0.82633	-0.05570
3678.000	0.79470	-0.06962	0.79470	-0.01591
3679.000	0.80656	-0.14322	0.77494	-0.09349
3680.000	0.84017	-0.14322	0.82831	-0.07161
3681.000	0.81447	-0.10742	0.79075	-0.02785
3682.000	0.78877	-0.15914	0.81447	-0.09548
3683.000	0.80063	-0.14521	0.77494	0.02984
3684.000	0.80854	-0.12731	0.75319	-0.04973
3685.000	0.80854	-0.13726	0.71168	0.01194
3686.000	0.78680	-0.10941	0.75715	-0.04376
3687.000	0.81447	-0.09548	0.79273	-0.00199
3688.000	0.85796	-0.15516	0.80261	-0.04376
3689.000	0.82238	-0.11538	0.76308	-0.02984
3690.000	0.80261	-0.12930	0.81052	0.00199
3691.000	0.82633	-0.08554	0.75912	-0.04575
3692.000	0.84017	-0.15516	0.78087	0.00597
3693.000	0.82633	-0.12930	0.72947	-0.03581
3694.000	0.79470	-0.11935	0.79668	-0.02785
3695.000	0.79075	-0.11339	0.77098	-0.08753
3696.000	0.78680	-0.10941	0.73936	-0.08156
3697.000	0.78680	-0.12731	0.83621	-0.05172
3698.000	0.82040	-0.09946	0.80854	-0.04973
3699.000	0.79075	-0.11339	0.76703	-0.04177
3700.000	0.76110	-0.13328	0.81447	-0.03382
3701.000	0.79075	-0.12930	0.79668	-0.02785
3702.000	0.81842	-0.11935	0.78680	-0.07360
3703.000	0.81842	-0.11140	0.76703	-0.05769
3704.000	0.79668	-0.13925	0.73540	-0.03979
3705.000	0.79668	-0.10344	0.79470	-0.00796
3706.000	0.81645	-0.11538	0.74726	-0.12333
3707.000	0.81645	-0.09349	0.74133	-0.06167
3708.000	0.80261	-0.11140	0.78087	-0.05172
3709.000	0.79668	-0.11737	0.80656	-0.03780
3710.000	0.80656	-0.10543	0.75517	0.00199
3711.000	0.78877	-0.11538	0.78482	-0.08355
