time (ms)	lx (deg)	ly (deg)	rx (deg)	ry (deg)
0.000	4.55528	-0.36688	4.34698	-0.12894
1.000	4.60046	-0.31926	4.41380	-0.19637
2.000	4.60635	-0.30538	4.37056	-0.16663
3.000	4.59064	-0.31729	4.32535	-0.14481
4.000	4.61421	-0.28158	4.33322	-0.18647
5.000	4.57492	-0.32919	4.37450	-0.16663
6.000	4.61224	-0.30736	4.38039	-0.17853
7.000	4.60439	-0.30340	4.35877	-0.18845
8.000	4.61028	-0.29745	4.32142	-0.14283
9.000	4.58474	-0.32919	4.38039	-0.18646
10.000	4.57885	-0.33117	4.40594	-0.21026
11.000	4.61617	-0.30934	4.31946	-0.19044
12.000	4.60832	-0.33711	4.33911	-0.18449
13.000	4.56706	-0.33316	4.36467	-0.27176
14.000	4.61814	-0.31926	4.31946	-0.13886
15.000	4.60242	-0.29745	4.42953	-0.17851
16.000	4.59260	-0.29547	4.40201	-0.11901
17.000	4.58671	-0.30936	4.37646	-0.19241
18.000	4.57492	-0.26177	4.43149	-0.20033
19.000	4.62010	-0.32322	4.35681	-0.18052
20.000	4.60242	-0.28555	4.37253	-0.14481
21.000	4.64171	-0.27166	4.34305	-0.15870
22.000	4.62403	-0.31132	4.34894	-0.14878
23.000	4.61028	-0.32719	4.38236	-0.21820
24.000	4.56510	-0.27565	4.38432	-0.18051
25.000	4.56903	-0.29548	4.49241	-0.15272
26.000	4.62207	-0.28753	4.41184	-0.14678
27.000	4.62992	-0.31330	4.31553	-0.18251
28.000	4.59653	-0.30935	4.38629	-0.17257
29.000	4.59457	-0.29150	4.39415	-0.17456
30.000	4.62207	-0.32719	4.35484	-0.09125
31.000	4.57689	-0.32126	4.32732	-0.15870
32.000	4.58867	-0.32522	4.35091	-0.23606
33.000	4.57296	-0.32919	4.31946	-0.20235
34.000	4.57492	-0.32721	4.44328	-0.17058
35.000	4.58671	-0.35298	4.41970	-0.18050
36.000	4.60439	-0.32918	4.41773	-0.16463
37.000	4.61224	-0.31133	4.42559	-0.24992
38.000	4.57099	-0.35696	4.40005	-0.27571
39.000	4.58867	-0.38272	4.42166	-0.21025
40.000	4.56117	-0.34903	4.38432	-0.23208
41.000	4.59260	-0.31927	4.45507	-0.23603
42.000	4.56510	-0.34506	4.44328	-0.17256
43.000	4.61421	-0.32322	4.46686	-0.28164
44.000	4.58082	-0.31729	4.34698	-0.13886
45.000	4.58278	-0.36290	4.33518	-0.19441
46.000	4.60832	-0.32521	4.41380	-0.14678
47.000	4.58278	-0.33514	4.38825	-0.10315
48.000	4.59849	-0.33315	4.33715	-0.16267
49.000	4.57689	-0.32919	4.31553	-0.13093
50.000	4.58474	-0.32919	4.40201	-0.18050
51.000	4.60439	-0.36487	4.41184	-0.05951
52.000	4.57296	-0.31134	4.46686	-0.13289
53.000	4.58082	-0.33315	4.38629	-0.29754
54.000	4.60832	-0.33512	4.35681	-0.13687
55.000	4.61814	-0.33512	4.44918	-0.21421
56.000	4.59260	-0.33117	4.39022	-0.17654
57.000	4.60635	-0.36289	4.36270	-0.14481
58.000	4.62599	-0.34305	4.33715	-0.19441
59.000	4.51795	-0.31533	4.30570	-0.20830
60.000	4.45311	-0.32131	4.31946	-0.19838
61.000	4.38236	-0.37688	4.18576	-0.20833
62.000	4.20739	-0.34522	4.05792	-0.19448
63.000	3.94578	-0.32549	3.85919	-0.24216
64.000	3.64462	-0.35737	3.61312	-0.20847
65.000	3.27430	-0.31580	3.31765	-0.27408
66.000	2.90765	-0.40134	2.93131	-0.24438
67.000	2.44802	-0.37764	2.56049	-0.29017
68.000	2.03743	-0.36980	2.08877	-0.29623
69.000	1.56145	-0.31620	1.75898	-0.28634
70.000	1.14058	-0.34609	1.33424	-0.29634
71.000	0.69982	-0.34016	0.95876	-0.30633
72.000	0.38749	-0.31432	0.57924	-0.17705
73.000	0.03954	-0.30438	0.20561	-0.16114
74.000	-0.20165	-0.32825	-0.10083	-0.17706
75.000	-0.47249	-0.37400	-0.28666	-0.12334
76.000	-0.61878	-0.40780	-0.56936	-0.09549
77.000	-0.71168	-0.41973	-0.71168	-0.10742
78.000	-0.70180	-0.40183	-0.67017	-0.07559
79.000	-0.65634	-0.40780	-0.65634	-0.06963
80.000	-0.56540	-0.42571	-0.60494	-0.02984
81.000	-0.40726	-0.39986	-0.52784	0.04178
82.000	-0.22735	-0.41777	-0.37958	-0.01790
83.000	-0.03361	-0.41777	-0.24119	-0.02785
84.000	0.19968	-0.38594	-0.11664	-0.02984
85.000	0.43493	-0.40981	0.09490	-0.08157
86.000	0.64448	-0.36006	0.29655	-0.06963
87.000	0.75517	-0.37597	0.42109	-0.02188
88.000	0.91330	-0.34214	0.57331	-0.07758
89.000	0.97852	-0.37395	0.79470	-0.16312
90.000	1.06746	-0.40776	0.86981	-0.12333
91.000	1.10501	-0.36002	0.91132	-0.16908
92.000	1.10896	-0.39781	1.03386	-0.19891
93.000	1.06943	-0.34411	1.03979	-0.20090
94.000	1.05165	-0.44754	0.97259	-0.24069
95.000	0.96073	-0.40379	0.96864	-0.25461
96.000	0.98643	-0.38390	0.98050	-0.26853
97.000	0.86388	-0.36601	0.97062	-0.24864
98.000	0.77494	-0.34812	0.86981	-0.32225
99.000	0.71761	-0.40780	0.81447	-0.33021
100.000	0.60692	-0.36205	0.58715	-0.24469
101.000	0.55947	-0.39985	0.56343	-0.34216
102.000	0.53575	-0.39190	0.47645	-0.26458
103.000	0.42109	-0.38196	0.42307	-0.29045
104.000	0.41516	-0.37997	0.40133	-0.23077
105.000	0.36969	-0.37002	0.21352	-0.30239
106.000	0.34993	-0.41180	0.20758	-0.25067
107.000	0.29852	-0.39986	0.16804	-0.19695
108.000	0.26096	-0.39390	0.14432	-0.14324
109.000	0.26096	-0.39191	0.07710	-0.09549
110.000	0.28666	-0.37400	0.10083	-0.16711
111.000	0.31829	-0.37798	0.01779	-0.21287
112.000	0.23922	-0.37798	0.05931	-0.19297
113.000	0.27876	-0.35411	0.09687	-0.24470
114.000	0.27480	-0.40186	0.05536	-0.08356
115.000	0.28469	-0.38395	0.10478	-0.14722
116.000	0.27085	-0.38793	0.15816	-0.07958
117.000	0.25899	-0.37202	0.11467	-0.14722
118.000	0.29852	-0.40384	0.16607	-0.15120
119.000	0.27282	-0.36207	0.15025	-0.14523
120.000	0.28073	-0.39788	0.09687	-0.12334
121.000	0.29457	-0.35411	0.17398	-0.21486
122.000	0.31236	-0.35809	0.15816	-0.13528
123.000	0.31829	-0.38793	0.21549	-0.19297
124.000	0.31039	-0.41180	0.21747	-0.16711
125.000	0.27282	-0.40782	0.15421	-0.25465
126.000	0.29259	-0.39987	0.16211	-0.23276
127.000	0.33411	-0.39986	0.22735	-0.19894
128.000	0.31632	-0.41180	0.16804	-0.17507
129.000	0.34795	-0.39588	0.16014	-0.20690
130.000	0.27678	-0.39191	0.16409	-0.18303
131.000	0.33609	-0.39390	0.21352	-0.23674
132.000	0.28469	-0.40782	0.27085	-0.21486
133.000	0.31434	-0.42175	0.24712	-0.15915
134.000	0.35190	-0.36406	0.25701	-0.22480
135.000	0.31632	-0.42771	0.23526	-0.22082
136.000	0.33411	-0.36406	0.21154	-0.16512
137.000	0.33609	-0.41180	0.21352	-0.25067
138.000	0.32818	-0.41976	0.22340	-0.15517
139.000	0.34202	-0.40981	0.18584	-0.23077
140.000	0.38551	-0.36008	0.31236	-0.19695
141.000	0.36179	-0.44761	0.23131	-0.27056
142.000	0.32818	-0.43169	0.25701	-0.15517
143.000	0.35981	-0.42572	0.27876	-0.22281
144.000	0.34597	-0.46352	0.30248	-0.17308
145.000	0.36376	-0.46551	0.25899	-0.17308
146.000	0.34597	-0.45357	0.25305	-0.18899
147.000	0.35783	-0.42970	0.26096	-0.17507
148.000	0.38353	-0.43368	0.15816	-0.17109
149.000	0.31632	-0.44761	0.23922	-0.22082
150.000	0.28666	-0.44164	0.22735	-0.19695
151.000	0.37760	-0.44363	0.24910	-0.19098
152.000	0.32620	-0.44562	0.19770	-0.22679
153.000	0.30446	-0.43368	0.22933	-0.17905
154.000	0.37167	-0.42771	0.20363	-0.22082
155.000	0.32620	-0.43965	0.18584	-0.16711
156.000	0.29259	-0.42970	0.17200	-0.18303
157.000	0.32422	-0.39390	0.20956	-0.21685
158.000	0.31434	-0.39589	0.23724	-0.13926
159.000	0.29259	-0.43567	0.19375	-0.15915
160.000	0.29655	-0.39191	0.26492	-0.16512
161.000	0.30841	-0.40583	0.20758	-0.17308
162.000	0.28271	-0.40981	0.14827	-0.17507
163.000	0.35190	-0.40384	0.19375	-0.22281
164.000	0.32225	-0.41180	0.18979	-0.15915
165.000	0.31829	-0.47546	0.16607	-0.16512
166.000	0.33016	-0.44562	0.19968	-0.16711
167.000	0.32225	-0.42175	0.22142	-0.22480
168.000	0.30446	-0.41777	0.21549	-0.20491
169.000	0.37167	-0.41777	0.22340	-0.22480
170.000	0.29259	-0.46153	0.19572	-0.17706
171.000	0.32225	-0.45556	0.25899	-0.15120
172.000	0.33411	-0.44562	0.23329	-0.16910
173.000	0.34795	-0.40583	0.19968	-0.10146
174.000	0.29852	-0.41777	0.24712	-0.15517
175.000	0.32620	-0.44761	0.19375	-0.19695
176.000	0.29655	-0.43567	0.23526	-0.16512
177.000	0.31829	-0.45358	0.26096	-0.15318
178.000	0.31236	-0.48143	0.16211	-0.14125
179.000	0.33213	-0.42970	0.20561	-0.17905
180.000	0.31434	-0.48540	0.26096	-0.16711
181.000	0.29457	-0.44761	0.27282	-0.14125
182.000	0.30841	-0.41379	0.19177	-0.12931
183.000	0.34202	-0.44562	0.18386	-0.18104
184.000	0.28469	-0.43368	0.17793	-0.17109
185.000	0.33411	-0.47546	0.15618	-0.22679
186.000	0.33213	-0.41578	0.17991	-0.10942
187.000	0.33016	-0.42771	0.26492	-0.16512
188.000	0.33806	-0.46153	0.25305	-0.19297
189.000	0.34004	-0.42373	0.18781	-0.17706
190.000	0.31632	-0.48341	0.27480	-0.19894
191.000	0.33016	-0.47745	0.28073	-0.13727
192.000	0.28073	-0.45358	0.25503	-0.20889
193.000	0.32620	-0.47944	0.26294	-0.17308
194.000	0.36179	-0.45357	0.23131	-0.10146
195.000	0.32620	-0.45159	0.27480	-0.15915
196.000	0.34399	-0.44960	0.22142	-0.16114
197.000	0.32620	-0.44960	0.34202	-0.19297
198.000	0.33213	-0.43169	0.26492	-0.18303
199.000	0.34597	-0.45755	0.21154	-0.17706
200.000	0.32027	-0.48142	0.29062	-0.16711
201.000	0.32225	-0.48938	0.20758	-0.20491
202.000	0.31829	-0.46153	0.18188	-0.16313
203.000	0.33213	-0.43169	0.22142	-0.14921
204.000	0.32422	-0.47745	0.25108	-0.23674
205.000	0.35783	-0.44363	0.23526	-0.11141
206.000	0.35981	-0.46153	0.20758	-0.18701
207.000	0.33016	-0.49137	0.20165	-0.09151
208.000	0.30446	-0.50928	0.27678	-0.18104
209.000	0.33016	-0.45556	0.31434	-0.12135
210.000	0.30643	-0.48143	0.24515	-0.15915
211.000	0.31829	-0.46750	0.22735	-0.17905
212.000	0.32422	-0.48341	0.15025	-0.17706
213.000	0.32225	-0.50331	0.31829	-0.20889
214.000	0.32620	-0.49535	0.30841	-0.18501
215.000	0.28864	-0.48143	0.26096	-0.25862
216.000	0.30446	-0.47944	0.26689	-0.23276
217.000	0.29457	-0.50530	0.15816	-0.14324
218.000	0.31236	-0.48938	0.29852	-0.12732
219.000	0.29062	-0.52519	0.28864	-0.09947
220.000	0.30841	-0.49137	0.23131	-0.18700
221.000	0.31434	-0.45159	0.21154	-0.17308
222.000	0.31632	-0.46750	0.26492	-0.15318
223.000	0.33411	-0.47546	0.22142	-0.11937
224.000	0.31632	-0.47745	0.24317	-0.19297
225.000	0.33016	-0.42970	0.25701	-0.12931
226.000	0.32027	-0.47944	0.25899	-0.19695
227.000	0.30446	-0.47745	0.25108	-0.20491
228.000	0.36772	-0.48142	0.23526	-0.20491
229.000	0.31039	-0.46949	0.21747	-0.19695
230.000	0.29655	-0.50928	0.19770	-0.20292
231.000	0.30643	-0.47745	0.24119	-0.17507
232.000	0.34597	-0.49933	0.20165	-0.26459
233.000	0.35190	-0.45556	0.23131	-0.17308
234.000	0.35586	-0.46551	0.19770	-0.13329
235.000	0.35586	-0.48938	0.29259	-0.22281
236.000	0.31236	-0.46750	0.26096	-0.21287
237.000	0.36969	-0.50529	0.31236	-0.16313
238.000	0.36969	-0.50330	0.22735	-0.17109
239.000	0.31039	-0.51723	0.26689	-0.18303
240.000	0.34202	-0.49336	0.30841	-0.21883
241.000	0.30841	-0.49734	0.27678	-0.18700
242.000	0.33213	-0.50530	0.25108	-0.19098
243.000	0.30643	-0.52320	0.25305	-0.21088
244.000	0.33609	-0.51325	0.29062	-0.23276
245.000	0.32027	-0.48739	0.28271	-0.25265
246.000	0.32422	-0.47546	0.20758	-0.17507
247.000	0.37563	-0.45954	0.22933	-0.17507
248.000	0.37563	-0.53712	0.27480	-0.19894
249.000	0.33411	-0.46352	0.27282	-0.26260
250.000	0.31632	-0.47148	0.31236	-0.20491
251.000	0.37563	-0.46551	0.24712	-0.21088
252.000	0.34202	-0.52121	0.19177	-0.20889
253.000	0.38353	-0.48938	0.21154	-0.18303
254.000	0.34399	-0.50728	0.27678	-0.18700
255.000	0.33806	-0.53712	0.25701	-0.22480
256.000	0.32620	-0.51126	0.24712	-0.18303
257.000	0.33411	-0.50331	0.30050	-0.13727
258.000	0.31434	-0.50331	0.28073	-0.16512
259.000	0.26887	-0.50331	0.31236	-0.18700
260.000	0.31829	-0.52718	0.21945	-0.21884
261.000	0.32818	-0.54508	0.24910	-0.16114
262.000	0.32818	-0.47148	0.21154	-0.16114
263.000	0.37563	-0.50529	0.26492	-0.19297
264.000	0.37958	-0.50927	0.25108	-0.14921
265.000	0.29259	-0.49933	0.23526	-0.13528
266.000	0.32818	-0.51723	0.27282	-0.16114
267.000	0.33609	-0.52320	0.23131	-0.22082
268.000	0.32422	-0.48938	0.20758	-0.17109
269.000	0.34004	-0.49933	0.26294	-0.15517
270.000	0.31434	-0.52121	0.26294	-0.16114
271.000	0.34202	-0.47546	0.25305	-0.10544
272.000	0.36179	-0.50927	0.24712	-0.16711
273.000	0.33411	-0.47943	0.22340	-0.12931
274.000	0.31829	-0.55702	0.15025	-0.16114
275.000	0.35190	-0.47943	0.35190	-0.14722
276.000	0.35981	-0.50132	0.28666	-0.18899
277.000	0.33806	-0.52121	0.30841	-0.10743
278.000	0.32225	-0.50331	0.33213	-0.13727
279.000	0.31039	-0.51126	0.28469	-0.14125
280.000	0.32620	-0.55702	0.22735	-0.16114
281.000	0.32225	-0.51922	0.23329	-0.14125
282.000	0.32422	-0.51723	0.29655	-0.19695
283.000	0.33806	-0.47745	0.24119	-0.12931
284.000	0.31829	-0.51325	0.22142	-0.10544
285.000	0.29852	-0.49137	0.27480	-0.15120
286.000	0.31829	-0.43766	0.28073	-0.17109
287.000	0.35783	-0.50529	0.29655	-0.11539
288.000	0.37563	-0.48938	0.32620	-0.08355
289.000	0.31829	-0.50331	0.28864	-0.14523
290.000	0.32818	-0.50331	0.29457	-0.12533
291.000	0.36969	-0.47347	0.31632	-0.11539
292.000	0.34795	-0.50927	0.26887	-0.10146
293.000	0.30248	-0.48938	0.23329	-0.12931
294.000	0.31434	-0.49734	0.20165	-0.13528
295.000	0.33806	-0.47943	0.18979	-0.07759
296.000	0.35586	-0.46750	0.22340	-0.12135
297.000	0.35388	-0.52121	0.24515	-0.13329
298.000	0.35981	-0.53115	0.30248	-0.13130
299.000	0.32620	-0.47944	0.23724	-0.13130
300.000	0.34202	-0.49933	0.26096	-0.18502
301.000	0.29457	-0.53315	0.25503	-0.18303
302.000	0.33609	-0.50728	0.31434	-0.17507
303.000	0.40330	-0.48540	0.31236	-0.15119
304.000	0.36376	-0.49535	0.21352	-0.17706
305.000	0.37760	-0.47744	0.26887	-0.08952
306.000	0.36574	-0.49336	0.26887	-0.20292
307.000	0.34004	-0.48540	0.30643	-0.12334
308.000	0.34795	-0.51126	0.17398	-0.12135
309.000	0.34795	-0.51723	0.25305	-0.13130
310.000	0.34202	-0.47943	0.18781	-0.10544
311.000	0.34399	-0.48142	0.22735	-0.14125
312.000	0.34597	-0.44363	0.21352	-0.15716
313.000	0.33016	-0.51524	0.19572	-0.13329
314.000	0.34399	-0.48540	0.22340	-0.09549
315.000	0.33806	-0.51325	0.21747	-0.12533
316.000	0.33213	-0.45357	0.27282	-0.07958
317.000	0.33806	-0.47347	0.25701	-0.16114
318.000	0.35783	-0.51126	0.27678	-0.14921
319.000	0.35388	-0.49933	0.26492	-0.12533
320.000	0.36179	-0.49535	0.34004	-0.06963
321.000	0.35783	-0.49734	0.26492	-0.04974
322.000	0.32818	-0.48142	0.26492	-0.08356
323.000	0.35388	-0.48341	0.34399	-0.12135
324.000	0.34993	-0.50927	0.24317	-0.17308
325.000	0.33213	-0.50331	0.28666	-0.08554
326.000	0.36969	-0.45158	0.21352	-0.11738
327.000	0.38156	-0.46551	0.30841	-0.10743
328.000	0.38946	-0.50927	0.21747	-0.14921
329.000	0.35388	-0.48341	0.25108	-0.07162
330.000	0.35783	-0.47148	0.24119	-0.13727
331.000	0.34795	-0.51325	0.27876	-0.06963
332.000	0.35586	-0.44562	0.25305	-0.09151
333.000	0.34399	-0.46949	0.21945	-0.10146
334.000	0.36376	-0.47744	0.27678	-0.12931
335.000	0.33411	-0.46153	0.24910	-0.06565
336.000	0.38749	-0.45954	0.23329	-0.05570
337.000	0.37958	-0.43567	0.22933	-0.13130
338.000	0.36574	-0.42771	0.23922	-0.08554
339.000	0.36772	-0.49734	0.35388	-0.15119
340.000	0.32620	-0.47944	0.22933	-0.15120
341.000	0.39539	-0.45755	0.30050	-0.11539
342.000	0.35981	-0.48142	0.28271	-0.08356
343.000	0.35586	-0.49535	0.34993	-0.12732
344.000	0.37167	-0.50529	0.30050	-0.09549
345.000	0.32027	-0.50729	0.35190	-0.14523
346.000	0.36179	-0.46153	0.27480	-0.16114
347.000	0.33609	-0.49137	0.29259	-0.13329
348.000	0.34399	-0.49535	0.28073	-0.07162
349.000	0.35190	-0.47546	0.28271	-0.10942
350.000	0.34399	-0.49137	0.24119	-0.08753
351.000	0.34993	-0.47347	0.30643	-0.09748
352.000	0.32027	-0.47944	0.22538	-0.12533
353.000	0.36772	-0.45755	0.26096	-0.13727
354.000	0.33213	-0.51922	0.33213	-0.11539
355.000	0.35586	-0.51922	0.30446	-0.16114
356.000	0.34597	-0.50132	0.26294	-0.06963
357.000	0.36969	-0.46352	0.27085	-0.06565
358.000	0.38749	-0.48341	0.30050	-0.10743
359.000	0.35586	-0.48540	0.32027	-0.09350
360.000	0.34993	-0.50132	0.34202	-0.14125
361.000	0.34399	-0.49535	0.29457	-0.13130
362.000	0.36574	-0.46551	0.34202	-0.15716
363.000	0.35783	-0.49933	0.31829	-0.14324
364.000	0.33411	-0.47943	0.35190	-0.14722
365.000	0.34399	-0.48938	0.37563	-0.20690
366.000	0.31829	-0.51325	0.31039	-0.13329
367.000	0.32818	-0.48739	0.28271	-0.15318
368.000	0.38353	-0.50529	0.24119	-0.15120
369.000	0.35388	-0.45357	0.32225	-0.12931
370.000	0.30643	-0.47944	0.27678	-0.14324
371.000	0.33609	-0.46352	0.34993	-0.15119
372.000	0.32225	-0.51126	0.29852	-0.15716
373.000	0.34795	-0.46949	0.31829	-0.17308
374.000	0.31632	-0.48143	0.38946	-0.05172
375.000	0.36574	-0.49933	0.30248	-0.15318
376.000	0.29062	-0.46352	0.30643	-0.01592
377.000	0.29655	-0.46352	0.33411	-0.18899
378.000	0.34993	-0.49535	0.24317	-0.16313
379.000	0.31236	-0.51524	0.25503	-0.17507
380.000	0.31434	-0.50729	0.22340	-0.16711
381.000	0.31829	-0.52718	0.29457	-0.16711
382.000	0.28469	-0.47745	0.23526	-0.14921
383.000	0.33213	-0.53314	0.26294	-0.16313
384.000	0.30446	-0.49734	0.32027	-0.06366
385.000	0.33411	-0.50132	0.26294	-0.07759
386.000	0.33806	-0.47347	0.20561	-0.10942
387.000	0.33016	-0.47546	0.35783	-0.05570
388.000	0.31829	-0.52519	0.26492	-0.03581
389.000	0.34399	-0.49933	0.25503	-0.09549
390.000	0.32422	-0.50331	0.33213	-0.18501
391.000	0.30643	-0.48540	0.24317	-0.12334
392.000	0.31236	-0.47944	0.36969	-0.17507
393.000	0.31434	-0.54508	0.31434	-0.12334
394.000	0.31632	-0.46551	0.23922	-0.10743
395.000	0.30643	-0.50132	0.24119	-0.12135
396.000	0.31434	-0.49933	0.23724	-0.07560
397.000	0.33609	-0.52320	0.23526	-0.12135
398.000	0.34795	-0.51723	0.31632	-0.18501
399.000	0.33609	-0.52320	0.30643	-0.10544
400.000	0.34202	-0.51723	0.37958	-0.13130
401.000	0.35586	-0.52519	0.29457	-0.12533
402.000	0.30643	-0.49734	0.38353	-0.11340
403.000	0.34202	-0.54707	0.25701	-0.05371
404.000	0.33806	-0.52121	0.25503	-0.12732
405.000	0.31236	-0.52917	0.33806	-0.10146
406.000	0.29259	-0.50928	0.26096	-0.13727
407.000	0.33213	-0.49535	0.30248	-0.13130
408.000	0.30050	-0.52718	0.25108	-0.15915
409.000	0.32027	-0.51325	0.26689	-0.11340
410.000	0.34202	-0.51325	0.32225	-0.18501
411.000	0.31039	-0.54906	0.34795	-0.08952
412.000	0.30841	-0.54508	0.24515	-0.07361
413.000	0.29655	-0.53315	0.20956	-0.07560
414.000	0.34202	-0.55503	0.20758	-0.13926
415.000	0.33016	-0.50331	0.27282	-0.11539
416.000	0.31236	-0.54906	0.28073	-0.19496
417.000	0.32620	-0.53513	0.29852	-0.12135
418.000	0.31039	-0.51524	0.28469	-0.12931
419.000	0.28073	-0.52519	0.22340	-0.07958
420.000	0.32225	-0.52320	0.35388	-0.09748
421.000	0.31829	-0.53513	0.27085	-0.15716
422.000	0.32818	-0.52917	0.26096	-0.13329
423.000	0.31829	-0.50927	0.20561	-0.11539
424.000	0.34202	-0.52320	0.27085	-0.06565
425.000	0.39144	-0.51524	0.35190	-0.17109
426.000	0.29852	-0.54309	0.27876	-0.14921
427.000	0.28073	-0.51325	0.23724	-0.13727
428.000	0.32818	-0.52121	0.24119	-0.13329
429.000	0.33411	-0.53513	0.24712	-0.11738
430.000	0.32818	-0.47745	0.25305	-0.12533
431.000	0.33213	-0.51524	0.28271	-0.12334
432.000	0.32027	-0.49535	0.23526	-0.12533
433.000	0.32620	-0.52917	0.25305	-0.12533
434.000	0.34597	-0.52917	0.30643	-0.13926
435.000	0.32620	-0.53911	0.22142	-0.11738
436.000	0.29457	-0.49137	0.33806	-0.11539
437.000	0.34202	-0.54110	0.25305	-0.08952
438.000	0.32225	-0.51922	0.28666	-0.10544
439.000	0.34795	-0.54508	0.30446	-0.12931
440.000	0.31829	-0.55105	0.27876	-0.12533
441.000	0.37167	-0.55303	0.32620	-0.17905
442.000	0.32225	-0.53513	0.29259	-0.17905
443.000	0.31039	-0.51325	0.32422	-0.11936
444.000	0.34202	-0.53115	0.25701	-0.07361
445.000	0.32225	-0.55304	0.25503	-0.13329
446.000	0.35981	-0.54906	0.27876	-0.10544
447.000	0.34004	-0.53116	0.28666	-0.09748
448.000	0.33213	-0.53513	0.19968	-0.13329
449.000	0.32818	-0.50530	0.22340	-0.13926
450.000	0.33609	-0.49933	0.28073	-0.11340
451.000	0.36772	-0.52519	0.28073	-0.10743
452.000	0.34795	-0.50132	0.22340	-0.09549
453.000	0.37167	-0.49734	0.19968	-0.13528
454.000	0.35586	-0.49933	0.24515	-0.11340
455.000	0.33213	-0.47546	0.20956	-0.12533
456.000	0.36772	-0.48142	0.33609	-0.09748
457.000	0.34004	-0.56099	0.25701	-0.04974
458.000	0.37563	-0.48341	0.29062	-0.11340
459.000	0.37167	-0.46352	0.20561	-0.12931
460.000	0.35981	-0.48739	0.23922	-0.12135
461.000	0.35190	-0.48540	0.26689	-0.09151
462.000	0.35190	-0.45357	0.32027	-0.15517
463.000	0.33213	-0.48142	0.22340	-0.12732
464.000	0.34597	-0.49336	0.26096	-0.19098
465.000	0.31236	-0.48341	0.29259	-0.19297
466.000	0.36376	-0.50529	0.29062	-0.13528
467.000	0.37563	-0.46153	0.27876	-0.12931
468.000	0.34993	-0.52718	0.33213	-0.17706
469.000	0.39144	-0.47147	0.28666	-0.13926
470.000	0.34795	-0.52917	0.25503	-0.16512
471.000	0.38551	-0.52121	0.30643	-0.22281
472.000	0.41516	-0.47147	0.25701	-0.17109
473.000	0.35388	-0.53513	0.20561	-0.12334
474.000	0.41714	-0.53911	0.27085	-0.14921
475.000	0.36376	-0.51325	0.24712	-0.17706
476.000	0.34993	-0.47744	0.24317	-0.06366
477.000	0.34399	-0.44562	0.25503	-0.13329
478.000	0.34399	-0.47745	0.37365	-0.14523
479.000	0.37563	-0.49336	0.22340	-0.07560
480.000	0.35388	-0.51325	0.25108	-0.07162
481.000	0.35783	-0.47943	0.31236	-0.15517
482.000	0.35388	-0.47347	0.25701	-0.03780
483.000	0.35190	-0.47347	0.17595	-0.11141
484.000	0.36969	-0.46153	0.28864	-0.17308
485.000	0.37365	-0.46949	0.27282	-0.07958
486.000	0.37760	-0.50927	0.29259	-0.13130
487.000	0.36179	-0.49336	0.30841	-0.14523
488.000	0.31632	-0.52718	0.26689	-0.14722
489.000	0.37760	-0.49933	0.29852	-0.16114
490.000	0.34993	-0.54110	0.26294	-0.14125
491.000	0.36574	-0.51126	0.26492	-0.10544
492.000	0.33806	-0.49336	0.32620	-0.11141
493.000	0.36376	-0.49933	0.28271	-0.10942
494.000	0.36179	-0.48540	0.27678	-0.15915
495.000	0.32818	-0.54309	0.34399	-0.10544
496.000	0.35586	-0.52121	0.25899	-0.10544
497.000	0.31829	-0.53116	0.27876	-0.12732
498.000	0.32818	-0.54707	0.30446	-0.13130
499.000	0.33411	-0.54110	0.35586	-0.10743
500.000	0.34399	-0.56696	0.25899	-0.16313
501.000	0.36772	-0.50927	0.25701	-0.15318
502.000	0.35783	-0.53314	0.15618	-0.14722
503.000	0.34993	-0.54110	0.15025	-0.13528
504.000	0.34597	-0.52320	0.25305	-0.15318
505.000	0.39935	-0.51524	0.27085	-0.19297
506.000	0.34795	-0.50927	0.27678	-0.15318
507.000	0.38156	-0.51922	0.28469	-0.09947
508.000	0.42505	-0.52916	0.27480	-0.13130
509.000	0.37365	-0.54508	0.29655	-0.11738
510.000	0.34597	-0.54906	0.30643	-0.18104
511.000	0.39737	-0.48739	0.20561	-0.11539
512.000	0.37958	-0.53115	0.31434	-0.07958
513.000	0.39342	-0.54905	0.34202	-0.16114
514.000	0.39144	-0.52916	0.28666	-0.10743
515.000	0.37760	-0.53314	0.25108	-0.09151
516.000	0.39144	-0.55104	0.24712	-0.12931
517.000	0.42109	-0.55303	0.31434	-0.10743
518.000	0.40330	-0.52121	0.17002	-0.11738
519.000	0.41319	-0.52120	0.25108	-0.05570
520.000	0.40726	-0.47744	0.27678	-0.09350
521.000	0.37958	-0.55303	0.26887	-0.09549
522.000	0.41319	-0.52120	0.23329	-0.11539
523.000	0.37958	-0.55701	0.34795	-0.08355
524.000	0.40726	-0.52518	0.23131	-0.04377
525.000	0.39539	-0.54309	0.25899	-0.12732
526.000	0.39539	-0.52916	0.29457	-0.09748
527.000	0.39342	-0.52121	0.22735	-0.15716
528.000	0.38353	-0.50927	0.26096	-0.07958
529.000	0.34004	-0.56099	0.27678	-0.08157
530.000	0.41714	-0.52916	0.30248	-0.13727
531.000	0.40133	-0.54508	0.18584	-0.07958
532.000	0.34993	-0.57492	0.24712	-0.05968
533.000	0.39342	-0.58884	0.27876	-0.11141
534.000	0.36772	-0.56696	0.27876	-0.16910
535.000	0.39342	-0.54110	0.29457	-0.14921
536.000	0.35190	-0.57293	0.15223	-0.09151
537.000	0.38749	-0.57690	0.29062	-0.13528
538.000	0.36969	-0.60078	0.31829	-0.19297
539.000	0.41319	-0.54706	0.35388	-0.12732
540.000	0.37760	-0.54508	0.26492	-0.18502
541.000	0.37760	-0.55701	0.23724	-0.20889
542.000	0.44086	-0.55900	0.32818	-0.15119
543.000	0.41516	-0.54905	0.34202	-0.18501
544.000	0.40528	-0.56298	0.29457	-0.10942
545.000	0.44482	-0.51325	0.26689	-0.17109
546.000	0.40726	-0.52717	0.27876	-0.09151
547.000	0.40330	-0.55502	0.28469	-0.12931
548.000	0.41912	-0.52120	0.22933	-0.12931
549.000	0.43098	-0.47147	0.31236	-0.21485
550.000	0.39539	-0.52319	0.26294	-0.10345
551.000	0.40330	-0.56895	0.33213	-0.22679
552.000	0.39144	-0.50330	0.32027	-0.17308
553.000	0.39935	-0.52518	0.27085	-0.14125
554.000	0.40330	-0.54905	0.31236	-0.09748
555.000	0.40528	-0.53712	0.24515	-0.11340
556.000	0.39737	-0.53513	0.27678	-0.13130
557.000	0.40528	-0.53314	0.27876	-0.16114
558.000	0.43493	-0.51126	0.26096	-0.07361
559.000	0.39935	-0.51126	0.27480	-0.12135
560.000	0.40923	-0.48540	0.21352	-0.14722
561.000	0.42109	-0.53513	0.28271	-0.08554
562.000	0.41319	-0.52717	0.28864	-0.11539
563.000	0.40330	-0.53314	0.19572	-0.16313
564.000	0.43098	-0.54308	0.28073	-0.08554
565.000	0.43098	-0.46153	0.32422	-0.09549
566.000	0.40923	-0.49534	0.33806	-0.13926
567.000	0.39539	-0.49137	0.20758	-0.09947
568.000	0.41121	-0.50330	0.30248	-0.12334
569.000	0.43889	-0.49335	0.25899	-0.07958
570.000	0.41121	-0.45556	0.28073	-0.08952
571.000	0.36772	-0.51126	0.26096	-0.08952
572.000	0.44679	-0.41378	0.22735	-0.07958
573.000	0.39342	-0.48938	0.25899	-0.12135
574.000	0.42109	-0.44760	0.27876	-0.14523
575.000	0.43296	-0.46749	0.26689	-0.10146
576.000	0.40133	-0.46750	0.23329	-0.10544
577.000	0.42307	-0.45954	0.18979	-0.03382
578.000	0.39342	-0.46750	0.24910	-0.12135
579.000	0.40923	-0.45954	0.19770	-0.10743
580.000	0.43098	-0.49733	0.24712	-0.07361
581.000	0.43493	-0.49733	0.27876	-0.07361
582.000	0.45865	-0.45158	0.25503	-0.08753
583.000	0.45272	-0.47943	0.22933	-0.14523
584.000	0.46261	-0.45755	0.29062	-0.12931
585.000	0.44679	-0.48142	0.17793	-0.14324
586.000	0.43889	-0.50131	0.25108	-0.17308
587.000	0.47052	-0.48738	0.32818	-0.13329
588.000	0.42307	-0.49932	0.32422	-0.11936
589.000	0.42307	-0.54309	0.20363	-0.09151
590.000	0.41319	-0.51723	0.28469	-0.17706
591.000	0.42109	-0.50131	0.20363	-0.05371
592.000	0.41121	-0.53712	0.28469	-0.09947
593.000	0.39144	-0.48739	0.21945	-0.04377
594.000	0.38353	-0.47744	0.21945	-0.08952
595.000	0.43493	-0.50330	0.24119	-0.14921
596.000	0.37958	-0.52121	0.27876	-0.16313
597.000	0.39539	-0.53115	0.31632	-0.11141
598.000	0.44284	-0.51325	0.24910	-0.14921
599.000	0.42109	-0.51723	0.28073	-0.12334
600.000	0.40528	-0.52518	0.23526	-0.10146
601.000	0.38156	-0.50927	0.25503	-0.15318
602.000	0.36574	-0.53513	0.31236	-0.20292
603.000	0.42900	-0.55900	0.22538	-0.10743
604.000	0.44284	-0.51325	0.33806	-0.15119
605.000	0.43889	-0.50529	0.31632	-0.16313
606.000	0.44679	-0.50927	0.34597	-0.19496
607.000	0.41714	-0.50728	0.28864	-0.11340
608.000	0.43296	-0.50529	0.32422	-0.13130
609.000	0.41714	-0.48142	0.24910	-0.16313
610.000	0.41121	-0.51126	0.30050	-0.14125
611.000	0.40923	-0.50131	0.29259	-0.10146
612.000	0.37167	-0.52519	0.28666	-0.13926
613.000	0.41714	-0.52120	0.29655	-0.16114
614.000	0.39737	-0.51524	0.25701	-0.12931
615.000	0.39737	-0.51524	0.26096	-0.13727
616.000	0.39539	-0.51723	0.34597	-0.13926
617.000	0.39737	-0.50131	0.25108	-0.17507
618.000	0.41912	-0.50529	0.28073	-0.06366
619.000	0.38353	-0.52320	0.29457	-0.15318
620.000	0.42109	-0.52518	0.26096	-0.17308
621.000	0.42702	-0.51325	0.22735	-0.15319
622.000	0.39935	-0.48938	0.24317	-0.15517
623.000	0.37760	-0.49336	0.27876	-0.15915
624.000	0.41121	-0.50927	0.24910	-0.11936
625.000	0.38946	-0.49137	0.26294	-0.13329
626.000	0.39935	-0.49932	0.26689	-0.18104
627.000	0.40528	-0.48540	0.31434	-0.20093
628.000	0.36376	-0.49535	0.31236	-0.17507
629.000	0.35586	-0.50330	0.29457	-0.20889
630.000	0.42900	-0.47943	0.28469	-0.17905
631.000	0.37563	-0.49933	0.22933	-0.16711
632.000	0.41319	-0.48739	0.28469	-0.14921
633.000	0.43296	-0.50927	0.28469	-0.12533
634.000	0.40528	-0.47346	0.21352	-0.15716
635.000	0.41516	-0.49932	0.24910	-0.12334
636.000	0.43691	-0.50131	0.32225	-0.09151
637.000	0.42900	-0.49733	0.24515	-0.12135
638.000	0.37365	-0.48540	0.32422	-0.12334
639.000	0.37760	-0.51922	0.37958	-0.15915
640.000	0.43296	-0.48142	0.20561	-0.09947
641.000	0.45272	-0.46948	0.26689	-0.14523
642.000	0.42307	-0.49335	0.28666	-0.08157
643.000	0.42900	-0.47545	0.27480	-0.14125
644.000	0.41516	-0.48938	0.29062	-0.10743
645.000	0.40528	-0.43965	0.31829	-0.16711
646.000	0.43691	-0.47147	0.31434	-0.12732
647.000	0.43889	-0.48739	0.30446	-0.16313
648.000	0.39539	-0.50529	0.27876	-0.21088
649.000	0.45272	-0.54905	0.24910	-0.13926
650.000	0.41319	-0.50330	0.30841	-0.15915
651.000	0.41121	-0.46551	0.22735	-0.11340
652.000	0.40133	-0.52319	0.29852	-0.16313
653.000	0.44482	-0.54507	0.25108	-0.11141
654.000	0.43691	-0.53513	0.17398	-0.11937
655.000	0.40726	-0.49733	0.29655	-0.17507
656.000	0.39539	-0.53314	0.29655	-0.16313
657.000	0.38353	-0.47744	0.30248	-0.15716
658.000	0.44086	-0.51921	0.33411	-0.20093
659.000	0.41714	-0.51723	0.31236	-0.15517
660.000	0.39935	-0.50131	0.35388	-0.18501
661.000	0.41912	-0.50131	0.30841	-0.16512
662.000	0.42109	-0.49534	0.29852	-0.21287
663.000	0.43493	-0.50529	0.32620	-0.17308
664.000	0.41121	-0.50927	0.30248	-0.15716
665.000	0.42307	-0.47744	0.35981	-0.13329
666.000	0.42702	-0.47545	0.23329	-0.13130
667.000	0.39935	-0.44164	0.30446	-0.10146
668.000	0.38353	-0.49932	0.29062	-0.16512
669.000	0.42702	-0.50529	0.33411	-0.12931
670.000	0.41912	-0.47147	0.22933	-0.10345
671.000	0.44679	-0.51325	0.32027	-0.13130
672.000	0.37760	-0.48938	0.29259	-0.13926
673.000	0.40923	-0.49932	0.25108	-0.15915
674.000	0.39737	-0.52121	0.27678	-0.12135
675.000	0.44284	-0.46948	0.31039	-0.13926
676.000	0.44086	-0.46948	0.36574	-0.13727
677.000	0.41912	-0.50728	0.30446	-0.18700
678.000	0.42900	-0.50728	0.31236	-0.11539
679.000	0.43098	-0.49136	0.29062	-0.13926
680.000	0.49622	-0.48738	0.34004	-0.12135
681.000	0.45668	-0.47744	0.24317	-0.10345
682.000	0.45865	-0.45556	0.26096	-0.13528
683.000	0.44877	-0.51126	0.34795	-0.14920
684.000	0.46063	-0.49733	0.29852	-0.11936
685.000	0.41714	-0.48739	0.27085	-0.15120
686.000	0.45865	-0.50529	0.27480	-0.16512
687.000	0.46261	-0.48341	0.30050	-0.11936
688.000	0.43889	-0.51325	0.34993	-0.10146
689.000	0.46063	-0.52518	0.35981	-0.09947
690.000	0.45075	-0.49932	0.29655	-0.07759
691.000	0.43493	-0.43368	0.28073	-0.09549
692.000	0.40726	-0.48142	0.36179	-0.04576
693.000	0.45272	-0.46152	0.34202	-0.10146
694.000	0.46459	-0.48341	0.24712	-0.11340
695.000	0.47447	-0.46550	0.31039	-0.10743
696.000	0.44284	-0.46351	0.38946	-0.14721
697.000	0.45075	-0.48540	0.22933	-0.09748
698.000	0.45075	-0.50131	0.21549	-0.14324
699.000	0.45272	-0.47346	0.27480	-0.08356
700.000	0.41714	-0.47545	0.30841	-0.19894
701.000	0.45075	-0.49335	0.31434	-0.12732
702.000	0.44482	-0.46351	0.32027	-0.11539
703.000	0.41912	-0.48341	0.24910	-0.14125
704.000	0.44482	-0.48142	0.27678	-0.12135
705.000	0.45470	-0.48540	0.30841	-0.16512
706.000	0.47645	-0.47744	0.35586	-0.17308
707.000	0.45668	-0.46152	0.29062	-0.10942
708.000	0.45668	-0.43169	0.28271	-0.10544
709.000	0.43889	-0.43169	0.32422	-0.12135
710.000	0.47447	-0.47545	0.36376	-0.17507
711.000	0.45470	-0.40583	0.28864	-0.15517
712.000	0.45668	-0.44561	0.36376	-0.10743
713.000	0.43493	-0.43964	0.31632	-0.19894
714.000	0.45865	-0.43566	0.33411	-0.14722
715.000	0.45668	-0.41179	0.38551	-0.23873
716.000	0.46063	-0.41577	0.39144	-0.14324
717.000	0.44482	-0.43765	0.37167	-0.13528
718.000	0.45865	-0.42373	0.37365	-0.16711
719.000	0.45668	-0.42174	0.44284	-0.10743
720.000	0.43691	-0.40981	0.31039	-0.13528
721.000	0.42307	-0.45556	0.31829	-0.18104
722.000	0.43691	-0.41378	0.36376	-0.17706
723.000	0.42702	-0.44362	0.40330	-0.20093
724.000	0.39935	-0.46153	0.38551	-0.16313
725.000	0.45668	-0.42572	0.46063	-0.15517
726.000	0.37167	-0.47744	0.35190	-0.24469
727.000	0.43889	-0.45556	0.37563	-0.21684
728.000	0.43098	-0.42174	0.38946	-0.17706
729.000	0.41319	-0.48142	0.34993	-0.20690
730.000	0.39342	-0.46949	0.34597	-0.10942
731.000	0.41121	-0.44760	0.33806	-0.12334
732.000	0.44284	-0.45357	0.38353	-0.22082
733.000	0.41319	-0.44362	0.32027	-0.12931
734.000	0.39539	-0.45556	0.34202	-0.13130
735.000	0.41516	-0.39986	0.33016	-0.13329
736.000	0.40133	-0.44760	0.35586	-0.16910
737.000	0.44679	-0.48341	0.36376	-0.10942
738.000	0.44086	-0.46550	0.38551	-0.22082
739.000	0.41912	-0.47346	0.34004	-0.10743
740.000	0.44086	-0.43964	0.37563	-0.18899
741.000	0.41319	-0.43368	0.38551	-0.17507
742.000	0.37563	-0.48341	0.41121	-0.14920
743.000	0.42702	-0.46749	0.33411	-0.13727
744.000	0.36969	-0.49137	0.41121	-0.15517
745.000	0.38946	-0.46352	0.37760	-0.13727
746.000	0.38946	-0.47943	0.34004	-0.19297
747.000	0.39935	-0.43766	0.29062	-0.13727
748.000	0.42900	-0.48540	0.39737	-0.22281
749.000	0.40726	-0.50529	0.33016	-0.17308
750.000	0.38551	-0.47744	0.33609	-0.16512
751.000	0.41714	-0.43567	0.32818	-0.16313
752.000	0.39935	-0.49336	0.27282	-0.17905
753.000	0.40330	-0.41180	0.38749	-0.22878
754.000	0.42702	-0.43169	0.37563	-0.12135
755.000	0.41516	-0.49137	0.35586	-0.17706
756.000	0.41319	-0.45954	0.34795	-0.17507
757.000	0.43098	-0.41776	0.42109	-0.19098
758.000	0.38353	-0.44363	0.40923	-0.16910
759.000	0.40923	-0.45357	0.41319	-0.12334
760.000	0.40133	-0.48142	0.41319	-0.16114
761.000	0.40923	-0.43766	0.33016	-0.17706
762.000	0.40528	-0.45158	0.33213	-0.22281
763.000	0.37365	-0.40185	0.38353	-0.16711
764.000	0.41714	-0.45357	0.37958	-0.16512
765.000	0.40330	-0.42174	0.38353	-0.14324
766.000	0.42307	-0.42572	0.42505	-0.09549
767.000	0.40923	-0.44561	0.36376	-0.17905
768.000	0.38353	-0.42373	0.30643	-0.22082
769.000	0.37365	-0.41180	0.42900	-0.19695
770.000	0.37167	-0.44760	0.39144	-0.17109
771.000	0.43296	-0.45158	0.43098	-0.21883
772.000	0.42109	-0.43567	0.34795	-0.22878
773.000	0.40726	-0.48540	0.36772	-0.21485
774.000	0.41516	-0.38792	0.39342	-0.21684
775.000	0.40528	-0.44959	0.36772	-0.15119
776.000	0.40528	-0.41180	0.33411	-0.10743
777.000	0.39342	-0.40185	0.36179	-0.13329
778.000	0.40528	-0.41379	0.37958	-0.12732
779.000	0.41912	-0.41180	0.40330	-0.09549
780.000	0.40528	-0.41180	0.41319	-0.17904
781.000	0.38353	-0.44363	0.42505	-0.16711
782.000	0.41516	-0.41577	0.34993	-0.17507
783.000	0.41319	-0.39787	0.36574	-0.18302
784.000	0.39342	-0.40981	0.35388	-0.21684
785.000	0.42505	-0.41378	0.34399	-0.11340
786.000	0.40923	-0.38196	0.38156	-0.15517
787.000	0.41319	-0.42373	0.37563	-0.10345
788.000	0.38353	-0.40185	0.45075	-0.15915
789.000	0.39737	-0.44362	0.33411	-0.12533
790.000	0.37958	-0.43766	0.38353	-0.14920
791.000	0.39737	-0.46551	0.38551	-0.14523
792.000	0.39737	-0.46949	0.38353	-0.15119
793.000	0.38946	-0.42771	0.38551	-0.17308
794.000	0.38749	-0.44959	0.37167	-0.14324
795.000	0.39144	-0.43965	0.42702	-0.12135
796.000	0.34597	-0.39787	0.41912	-0.16711
797.000	0.37563	-0.39986	0.35190	-0.19098
798.000	0.34993	-0.40782	0.37167	-0.10743
799.000	0.42900	-0.42174	0.35981	-0.14722
800.000	0.36969	-0.37997	0.38353	-0.12334
801.000	0.40133	-0.44362	0.39342	-0.21485
802.000	0.37167	-0.39389	0.40528	-0.15119
803.000	0.39737	-0.43368	0.36179	-0.21088
804.000	0.40528	-0.35411	0.40528	-0.10942
805.000	0.37167	-0.41379	0.37563	-0.15716
806.000	0.39935	-0.40782	0.46854	-0.16313
807.000	0.38946	-0.42174	0.44877	-0.15716
808.000	0.41516	-0.38991	0.43296	-0.12533
809.000	0.41516	-0.38792	0.40528	-0.20093
810.000	0.35783	-0.36405	0.38156	-0.18302
811.000	0.35783	-0.40782	0.45075	-0.22281
812.000	0.37760	-0.41578	0.37167	-0.12732
813.000	0.37365	-0.43766	0.41516	-0.20690
814.000	0.43889	-0.39787	0.35783	-0.18103
815.000	0.36376	-0.41578	0.33609	-0.19695
816.000	0.38946	-0.38594	0.40133	-0.17705
817.000	0.36376	-0.37599	0.37760	-0.17109
818.000	0.40528	-0.39190	0.35586	-0.14324
819.000	0.39144	-0.37599	0.43889	-0.18103
820.000	0.39935	-0.36803	0.47842	-0.15915
821.000	0.38946	-0.36405	0.41319	-0.17705
822.000	0.36772	-0.39190	0.40726	-0.16512
823.000	0.39342	-0.37400	0.42307	-0.16711
824.000	0.37760	-0.40384	0.34202	-0.16512
825.000	0.38946	-0.38395	0.38551	-0.20093
826.000	0.42307	-0.37997	0.42900	-0.14920
827.000	0.40923	-0.39190	0.36574	-0.21883
828.000	0.36179	-0.41578	0.31829	-0.26658
829.000	0.37760	-0.36206	0.46459	-0.21286
830.000	0.37167	-0.37599	0.34004	-0.17308
831.000	0.40726	-0.41776	0.40726	-0.21684
832.000	0.40330	-0.43169	0.39539	-0.16910
833.000	0.39539	-0.34018	0.39935	-0.19695
834.000	0.38749	-0.37201	0.33213	-0.18302
835.000	0.37365	-0.35809	0.36574	-0.17706
836.000	0.40330	-0.39787	0.39342	-0.14721
837.000	0.42505	-0.36604	0.36772	-0.18302
838.000	0.41912	-0.39389	0.40133	-0.17308
839.000	0.40330	-0.38196	0.40923	-0.18302
840.000	0.42505	-0.36206	0.35783	-0.20093
841.000	0.41714	-0.33023	0.39935	-0.22281
842.000	0.41121	-0.36007	0.41714	-0.15915
843.000	0.41319	-0.35411	0.41319	-0.19496
844.000	0.41912	-0.36803	0.43098	-0.22281
845.000	0.40330	-0.30636	0.39144	-0.17109
846.000	0.40726	-0.35610	0.35981	-0.18302
847.000	0.41516	-0.34615	0.41714	-0.24071
848.000	0.44877	-0.36007	0.41121	-0.18899
849.000	0.39539	-0.32228	0.41319	-0.17308
850.000	0.43691	-0.30835	0.30841	-0.15517
851.000	0.40528	-0.34217	0.32620	-0.14722
852.000	0.44482	-0.28846	0.34597	-0.13329
853.000	0.45470	-0.32029	0.42307	-0.18700
854.000	0.44284	-0.30835	0.42505	-0.15915
855.000	0.43889	-0.35808	0.40133	-0.15517
856.000	0.40528	-0.32626	0.37365	-0.20093
857.000	0.45272	-0.39190	0.44877	-0.12931
858.000	0.45272	-0.35211	0.38749	-0.21684
859.000	0.43889	-0.34814	0.43493	-0.18501
860.000	0.45272	-0.38394	0.43889	-0.21684
861.000	0.39737	-0.37002	0.46063	-0.23276
862.000	0.44679	-0.36803	0.40133	-0.21087
863.000	0.41912	-0.35013	0.50017	-0.14721
864.000	0.46459	-0.35211	0.41912	-0.20093
865.000	0.46656	-0.35012	0.46261	-0.22679
866.000	0.48831	-0.34217	0.42702	-0.19098
867.000	0.44086	-0.37400	0.41714	-0.20491
868.000	0.42109	-0.36007	0.41714	-0.18501
869.000	0.46656	-0.37996	0.45865	-0.21087
870.000	0.47249	-0.35609	0.41319	-0.21883
871.000	0.46261	-0.36405	0.40923	-0.17308
872.000	0.50017	-0.33421	0.43296	-0.20292
873.000	0.48435	-0.34416	0.37167	-0.20292
874.000	0.46854	-0.34217	0.42505	-0.23276
875.000	0.46854	-0.36007	0.44284	-0.18103
876.000	0.44482	-0.35212	0.41319	-0.22082
877.000	0.48040	-0.33620	0.43296	-0.22679
878.000	0.47842	-0.36007	0.38156	-0.21485
879.000	0.44877	-0.38991	0.46459	-0.16512
880.000	0.48633	-0.37797	0.38946	-0.21684
881.000	0.46854	-0.36206	0.40330	-0.18700
882.000	0.44284	-0.37997	0.43098	-0.23077
883.000	0.51005	-0.37002	0.45668	-0.21286
884.000	0.46459	-0.36604	0.39144	-0.18501
885.000	0.42505	-0.37002	0.43296	-0.22082
886.000	0.47447	-0.40582	0.38551	-0.19695
887.000	0.46063	-0.37400	0.47645	-0.17904
888.000	0.47645	-0.33819	0.41714	-0.12135
889.000	0.44284	-0.35609	0.45272	-0.19098
890.000	0.46063	-0.33222	0.45470	-0.18501
891.000	0.42307	-0.36206	0.41714	-0.15716
892.000	0.40726	-0.33222	0.44284	-0.16711
893.000	0.43493	-0.34018	0.42900	-0.15915
894.000	0.44679	-0.39389	0.38156	-0.21883
895.000	0.46854	-0.37599	0.41912	-0.15517
896.000	0.49424	-0.31034	0.40726	-0.19098
897.000	0.42900	-0.34217	0.44284	-0.11538
898.000	0.47249	-0.36206	0.38551	-0.08355
899.000	0.46459	-0.36206	0.47842	-0.13727
900.000	0.45470	-0.37599	0.42109	-0.18103
901.000	0.42505	-0.33620	0.36969	-0.19695
902.000	0.42900	-0.34615	0.41319	-0.21087
903.000	0.41714	-0.35411	0.44086	-0.12931
904.000	0.42505	-0.37400	0.41912	-0.21684
905.000	0.40528	-0.33421	0.51005	-0.19496
906.000	0.43296	-0.36803	0.43098	-0.17109
907.000	0.44284	-0.35808	0.48633	-0.14721
908.000	0.46063	-0.32824	0.38353	-0.18501
909.000	0.47052	-0.30835	0.50808	-0.28647
910.000	0.46063	-0.31830	0.45668	-0.20888
911.000	0.44086	-0.31830	0.42109	-0.17308
912.000	0.49226	-0.30835	0.41319	-0.17308
913.000	0.48435	-0.30636	0.47249	-0.27254
914.000	0.50412	-0.36007	0.43493	-0.18700
915.000	0.50017	-0.27652	0.55552	-0.24867
916.000	0.48633	-0.32426	0.47842	-0.23077
917.000	0.44877	-0.34814	0.46656	-0.22281
918.000	0.46261	-0.37798	0.48040	-0.21485
919.000	0.44086	-0.30437	0.43296	-0.16114
920.000	0.44482	-0.32228	0.42109	-0.22082
921.000	0.43493	-0.31432	0.54564	-0.21684
922.000	0.44877	-0.31830	0.46459	-0.23673
923.000	0.49226	-0.29044	0.46261	-0.18899
924.000	0.48831	-0.32426	0.45075	-0.11936
925.000	0.48435	-0.31432	0.49424	-0.17506
926.000	0.50610	-0.24469	0.43098	-0.14125
927.000	0.45865	-0.26458	0.41714	-0.12334
928.000	0.49028	-0.25663	0.40923	-0.19098
929.000	0.49424	-0.29442	0.38156	-0.18302
930.000	0.47447	-0.21883	0.37563	-0.20292
931.000	0.48238	-0.23474	0.40726	-0.18899
932.000	0.48633	-0.26458	0.41912	-0.22082
933.000	0.44877	-0.24469	0.42307	-0.23475
934.000	0.42307	-0.26459	0.43691	-0.17506
935.000	0.43691	-0.28249	0.40726	-0.12533
936.000	0.48435	-0.25862	0.32818	-0.17109
937.000	0.45865	-0.29840	0.37958	-0.13926
938.000	0.48633	-0.22679	0.45075	-0.20093
939.000	0.49622	-0.27055	0.39144	-0.19297
940.000	0.50808	-0.26060	0.39144	-0.20093
941.000	0.46261	-0.29442	0.49028	-0.19496
942.000	0.50610	-0.29442	0.52587	-0.20888
943.000	0.45470	-0.30437	0.41319	-0.14324
944.000	0.46854	-0.28647	0.47645	-0.19894
945.000	0.46261	-0.28448	0.52784	-0.21087
946.000	0.49028	-0.29044	0.44877	-0.28050
947.000	0.51203	-0.32028	0.49226	-0.22082
948.000	0.45075	-0.32029	0.44877	-0.26657
949.000	0.56738	-0.27254	0.42702	-0.20888
950.000	0.50017	-0.33222	0.45075	-0.24071
951.000	0.53971	-0.30636	0.53180	-0.21684
952.000	0.47447	-0.29840	0.46063	-0.18302
953.000	0.48633	-0.30636	0.53773	-0.23474
954.000	0.55354	-0.28845	0.52784	-0.31233
955.000	0.52389	-0.27055	0.44679	-0.25663
956.000	0.48831	-0.27254	0.46656	-0.25663
957.000	0.48040	-0.30039	0.50808	-0.20888
958.000	0.51598	-0.30437	0.47249	-0.29442
959.000	0.49424	-0.24668	0.42307	-0.21684
960.000	0.49622	-0.27851	0.46656	-0.27851
961.000	0.49622	-0.29243	0.40923	-0.24668
962.000	0.49226	-0.28846	0.42900	-0.28050
963.000	0.47645	-0.30636	0.44086	-0.22082
964.000	0.49819	-0.31034	0.49226	-0.23673
965.000	0.46459	-0.26260	0.40330	-0.28249
966.000	0.44086	-0.29045	0.45272	-0.31233
967.000	0.45668	-0.30636	0.47842	-0.32227
968.000	0.47645	-0.23474	0.51994	-0.31233
969.000	0.45075	-0.31830	0.45075	-0.19894
970.000	0.45668	-0.30835	0.48435	-0.31631
971.000	0.49028	-0.30636	0.52982	-0.29840
972.000	0.44679	-0.28647	0.48435	-0.26856
973.000	0.48633	-0.31432	0.52982	-0.23474
974.000	0.45865	-0.29045	0.45470	-0.15716
975.000	0.48040	-0.29243	0.46854	-0.24469
976.000	0.48040	-0.30437	0.51994	-0.25066
977.000	0.45668	-0.25663	0.50610	-0.17705
978.000	0.43296	-0.26260	0.50808	-0.20888
979.000	0.45075	-0.29244	0.47249	-0.28249
980.000	0.45668	-0.28050	0.51401	-0.26060
981.000	0.45668	-0.28846	0.45668	-0.19695
982.000	0.45075	-0.26856	0.50412	-0.22281
983.000	0.42702	-0.27254	0.43493	-0.22082
984.000	0.44086	-0.30636	0.41121	-0.21883
985.000	0.37958	-0.27056	0.49424	-0.26259
986.000	0.46854	-0.32426	0.47645	-0.25265
987.000	0.40528	-0.28448	0.44284	-0.27055
988.000	0.39737	-0.29244	0.46854	-0.30039
989.000	0.45668	-0.26061	0.47842	-0.27851
990.000	0.40528	-0.25862	0.52784	-0.18103
991.000	0.41516	-0.27652	0.48633	-0.21684
992.000	0.40330	-0.23674	0.46261	-0.18103
993.000	0.46459	-0.25862	0.51203	-0.23275
994.000	0.43889	-0.22679	0.53378	-0.20490
995.000	0.42109	-0.23674	0.41319	-0.23077
996.000	0.39539	-0.25066	0.51203	-0.18103
997.000	0.47052	-0.23872	0.48633	-0.23077
998.000	0.42109	-0.22082	0.45470	-0.21087
999.000	0.44877	-0.24270	0.46656	-0.06963
1000.000	0.45075	-0.21485	0.47052	-0.18103
1001.000	0.43296	-0.20888	0.44877	-0.17904
1002.000	0.41121	-0.25066	0.41714	-0.14721
1003.000	0.48238	-0.25663	0.49028	-0.25464
1004.000	0.41912	-0.20292	0.42702	-0.19496
1005.000	0.43691	-0.28050	0.49622	-0.24668
1006.000	0.47052	-0.18700	0.45668	-0.19496
1007.000	0.48435	-0.21485	0.53180	-0.23474
1008.000	0.49424	-0.23673	0.46063	-0.10544
1009.000	0.46854	-0.28050	0.48435	-0.20291
1010.000	0.46656	-0.25066	0.48238	-0.19098
1011.000	0.48238	-0.25464	0.52191	-0.16711
1012.000	0.46459	-0.25464	0.39144	-0.16910
1013.000	0.43098	-0.25862	0.46261	-0.18899
1014.000	0.47645	-0.22878	0.50017	-0.10941
1015.000	0.42109	-0.20689	0.52982	-0.12533
1016.000	0.44877	-0.19695	0.41912	-0.20491
1017.000	0.45075	-0.24071	0.46063	-0.17307
1018.000	0.48238	-0.23474	0.49028	-0.18103
1019.000	0.46261	-0.20888	0.47249	-0.18501
1020.000	0.46854	-0.21883	0.48238	-0.19297
1021.000	0.45272	-0.21286	0.45668	-0.15119
1022.000	0.45865	-0.22679	0.43691	-0.20491
1023.000	0.45075	-0.20689	0.57133	-0.23275
1024.000	0.44877	-0.20888	0.49424	-0.18501
1025.000	0.48238	-0.21087	0.44679	-0.18700
1026.000	0.42900	-0.19297	0.46656	-0.17109
1027.000	0.45470	-0.22082	0.46261	-0.20292
1028.000	0.46656	-0.20888	0.46063	-0.25265
1029.000	0.47645	-0.21286	0.47052	-0.17506
1030.000	0.43889	-0.25464	0.44877	-0.22082
1031.000	0.46854	-0.24071	0.56145	-0.25463
1032.000	0.43889	-0.23276	0.43889	-0.17904
1033.000	0.43098	-0.27851	0.43296	-0.24668
1034.000	0.42702	-0.24668	0.48238	-0.21087
1035.000	0.44086	-0.26061	0.51598	-0.22877
1036.000	0.45470	-0.28249	0.54564	-0.19297
1037.000	0.46261	-0.26657	0.48040	-0.22480
1038.000	0.45668	-0.24270	0.45272	-0.20093
1039.000	0.45470	-0.21684	0.40528	-0.23276
1040.000	0.42307	-0.20888	0.45865	-0.19695
1041.000	0.46261	-0.24270	0.50215	-0.23474
1042.000	0.44086	-0.23673	0.49028	-0.26259
1043.000	0.47249	-0.26856	0.46261	-0.19894
1044.000	0.45075	-0.24071	0.43493	-0.18501
1045.000	0.43691	-0.22878	0.43889	-0.17506
1046.000	0.48238	-0.22878	0.43098	-0.17308
1047.000	0.42702	-0.25663	0.49028	-0.20291
1048.000	0.45865	-0.23872	0.52784	-0.20689
1049.000	0.43691	-0.22679	0.48633	-0.24867
1050.000	0.44877	-0.24668	0.42900	-0.20888
1051.000	0.45865	-0.26061	0.49819	-0.23872
1052.000	0.42900	-0.25464	0.50610	-0.28050
1053.000	0.47249	-0.24867	0.47842	-0.25663
1054.000	0.42702	-0.23475	0.49424	-0.24071
1055.000	0.48831	-0.19894	0.45865	-0.19894
1056.000	0.46854	-0.20888	0.50215	-0.26458
1057.000	0.48831	-0.20689	0.50215	-0.28050
1058.000	0.41912	-0.25663	0.46063	-0.27851
1059.000	0.44086	-0.22679	0.46854	-0.20888
1060.000	0.46854	-0.23077	0.52784	-0.23872
1061.000	0.50215	-0.23872	0.47249	-0.18302
1062.000	0.48633	-0.23872	0.56343	-0.22877
1063.000	0.51401	-0.21883	0.53575	-0.26060
1064.000	0.47052	-0.25464	0.50017	-0.21883
1065.000	0.47842	-0.25464	0.49819	-0.29442
1066.000	0.49028	-0.24469	0.51401	-0.27453
1067.000	0.45470	-0.27851	0.62075	-0.27651
1068.000	0.45668	-0.22679	0.59110	-0.32625
1069.000	0.46063	-0.24270	0.51401	-0.31829
1070.000	0.44877	-0.27453	0.53575	-0.27254
1071.000	0.42702	-0.26658	0.53180	-0.28249
1072.000	0.47842	-0.26061	0.57529	-0.30635
1073.000	0.42307	-0.25862	0.50017	-0.32426
1074.000	0.43493	-0.26061	0.54959	-0.29044
1075.000	0.41912	-0.27254	0.53180	-0.26657
1076.000	0.43098	-0.28249	0.58715	-0.23673
1077.000	0.46854	-0.23673	0.50808	-0.32625
1078.000	0.41319	-0.24867	0.50412	-0.26458
1079.000	0.44086	-0.28846	0.48040	-0.28647
1080.000	0.42900	-0.28050	0.51401	-0.24270
1081.000	0.45075	-0.26856	0.47249	-0.28448
1082.000	0.45668	-0.29045	0.59308	-0.22678
1083.000	0.47447	-0.25862	0.60692	-0.27254
1084.000	0.45668	-0.26260	0.54366	-0.30039
1085.000	0.45470	-0.28249	0.48435	-0.29442
1086.000	0.45470	-0.32426	0.48040	-0.25663
1087.000	0.45668	-0.28448	0.57331	-0.32426
1088.000	0.47842	-0.29243	0.58913	-0.22678
1089.000	0.44877	-0.25464	0.54564	-0.30238
1090.000	0.45668	-0.27652	0.51796	-0.32426
1091.000	0.44877	-0.26459	0.45075	-0.38792
1092.000	0.45075	-0.26061	0.55552	-0.27851
1093.000	0.41912	-0.28050	0.52587	-0.25066
1094.000	0.44877	-0.25862	0.52389	-0.27254
1095.000	0.46063	-0.27851	0.53180	-0.26856
1096.000	0.42702	-0.25663	0.53971	-0.29044
1097.000	0.42505	-0.23475	0.57727	-0.29641
1098.000	0.46063	-0.25265	0.54168	-0.25861
1099.000	0.42702	-0.24469	0.55354	-0.28845
1100.000	0.44482	-0.26459	0.51994	-0.19496
1101.000	0.40726	-0.23276	0.50017	-0.23275
1102.000	0.43889	-0.25464	0.50412	-0.24071
1103.000	0.40923	-0.22281	0.43296	-0.28846
1104.000	0.39737	-0.27453	0.44482	-0.20888
1105.000	0.34795	-0.27851	0.52587	-0.30835
1106.000	0.36376	-0.28846	0.56738	-0.30039
1107.000	0.48040	-0.25265	0.58122	-0.26259
1108.000	0.51203	-0.25066	0.77889	-0.21285
1109.000	0.71366	-0.21285	0.84017	-0.07957
1110.000	0.92516	-0.14919	1.13465	-0.07558
1111.000	1.14848	-0.06962	1.41327	-0.00199
1112.000	1.51008	0.08552	1.57923	0.17301
1113.000	1.87748	0.19685	1.98017	0.28233
1114.000	2.37500	0.46313	2.33355	0.47308
1115.000	2.89187	0.59406	2.79129	0.67160
1116.000	3.40237	0.84594	3.11072	0.82633
1117.000	3.89855	1.08954	3.55207	1.13165
1118.000	4.46097	1.31477	3.91430	1.24427
1119.000	4.87928	1.54378	4.23295	1.46785
1120.000	5.27942	1.69326	4.73400	1.66694
1121.000	5.68688	1.86417	5.04802	1.76515
1122.000	6.00970	2.07652	5.31078	1.89898
1123.000	6.25987	2.18416	5.53219	1.93389
1124.000	6.49613	2.25421	5.66535	1.99871
1125.000	6.67757	2.35597	5.87866	1.97621
1126.000	6.75557	2.39504	5.90409	1.92078
1127.000	6.73997	2.37342	5.99992	1.86510
1128.000	6.66587	2.36589	5.91778	1.80015
1129.000	6.54102	2.33491	5.85714	1.77069
1130.000	6.40243	2.25463	5.86497	1.66982
1131.000	6.17976	2.09759	5.67122	1.61896
1132.000	5.95103	2.08662	5.49302	1.45521
1133.000	5.74756	1.92329	5.35194	1.37439
1134.000	5.52240	1.82711	5.15002	1.33919
1135.000	5.30098	1.69122	4.85376	1.23875
1136.000	5.09314	1.66604	4.88124	1.14359
1137.000	4.90871	1.50410	4.74579	1.02887
1138.000	4.71044	1.46887	4.70455	1.01704
1139.000	4.59849	1.42352	4.57689	1.03110
1140.000	4.47276	1.34845	4.43739	1.00353
1141.000	4.36270	1.30900	4.40201	1.04324
1142.000	4.34501	1.30110	4.49044	1.12044
1143.000	4.36074	1.30702	4.59849	1.10045
1144.000	4.37646	1.32682	4.52581	1.14814
1145.000	4.37646	1.37241	4.59457	1.13415
1146.000	4.54153	1.34039	4.70455	1.34999
1147.000	4.61617	1.43934	4.73597	1.27859
1148.000	4.72222	1.46290	4.92245	1.30598
1149.000	4.92834	1.53178	5.03233	1.39291
1150.000	5.01664	1.55930	5.12060	1.48975
1151.000	5.16767	1.58666	5.15982	1.47382
1152.000	5.29510	1.67936	5.15002	1.55502
1153.000	5.42837	1.70868	5.22649	1.53702
1154.000	5.48322	1.72435	5.25786	1.47953
1155.000	5.53611	1.72222	5.29510	1.48934
1156.000	5.59094	1.73393	5.33038	1.50707
1157.000	5.68688	1.76924	5.28726	1.53489
1158.000	5.70841	1.76917	5.27354	1.60816
1159.000	5.72407	1.76319	5.33626	1.57039
1160.000	5.68101	1.85232	5.32450	1.48927
1161.000	5.70450	1.82852	5.22845	1.56671
1162.000	5.67318	1.82664	5.20296	1.59449
1163.000	5.67122	1.88004	5.32450	1.54865
1164.000	5.65360	1.87219	5.23237	1.53502
1165.000	5.58311	1.87241	5.18924	1.51533
1166.000	5.55765	1.84480	5.22061	1.46576
1167.000	5.53219	1.85082	5.17747	1.58861
1168.000	5.54786	1.82505	5.20492	1.58260
1169.000	5.49889	1.81927	5.23825	1.46572
1170.000	5.47930	1.82328	5.16374	1.52727
1171.000	5.49106	1.82720	5.21865	1.52318
1172.000	5.44600	1.87284	5.21277	1.47369
1173.000	5.48322	1.83118	5.24021	1.46769
1174.000	5.44796	1.78183	5.18335	1.50148
1175.000	5.42837	1.77200	5.17355	1.50547
1176.000	5.46559	1.78376	5.17943	1.45001
1177.000	5.44208	1.78778	5.17943	1.49753
1178.000	5.43032	1.79771	5.14413	1.43821
1179.000	5.44404	1.81943	5.09118	1.43041
1180.000	5.42249	1.76014	5.09902	1.47000
1181.000	5.39701	1.76813	5.11275	1.48185
1182.000	5.40681	1.73051	5.12060	1.46995
1183.000	5.38918	1.74441	5.07549	1.43837
1184.000	5.41661	1.72454	5.05195	1.45426
1185.000	5.40485	1.77800	5.02252	1.43452
1186.000	5.43620	1.81748	5.09510	1.45812
1187.000	5.40681	1.80570	5.09314	1.42446
1188.000	5.42445	1.78586	5.08922	1.39279
1189.000	5.39701	1.78594	5.10687	1.49770
1190.000	5.42249	1.79971	5.02252	1.44046
1191.000	5.42837	1.78980	5.08333	1.50568
1192.000	5.47147	1.76791	5.10295	1.53335
1193.000	5.42053	1.73442	5.11275	1.46601
1194.000	5.43816	1.81154	5.06372	1.51365
1195.000	5.46363	1.82927	5.05979	1.51563
1196.000	5.45971	1.79960	5.06960	1.49779
1197.000	5.42445	1.80169	5.11472	1.51353
1198.000	5.42445	1.81356	5.03822	1.48202
1199.000	5.43816	1.80956	5.06176	1.57504
1200.000	5.44796	1.82536	5.04606	1.48992
1201.000	5.47343	1.78571	5.07549	1.50174
1202.000	5.49889	1.79751	5.04999	1.59091
1203.000	5.48714	1.80743	5.01467	1.58703
1204.000	5.44992	1.76995	5.03429	1.54144
1205.000	5.49693	1.84301	5.09706	1.53337
1206.000	5.47930	1.82526	4.96366	1.58914
1207.000	5.46363	1.79761	5.10491	1.60067
1208.000	5.45971	1.81147	5.05783	1.60079
1209.000	5.45971	1.77784	5.03625	1.53747
1210.000	5.42837	1.84124	5.02056	1.50582
1211.000	5.48518	1.82524	5.01860	1.55138
1212.000	5.41661	1.74037	5.09118	1.56705
1213.000	5.47147	1.83122	5.09118	1.54328
1214.000	5.45188	1.84909	5.06372	1.54533
1215.000	5.48518	1.84305	5.05587	1.55921
1216.000	5.46755	1.80354	5.07941	1.51163
1217.000	5.44404	1.76997	5.08922	1.60071
1218.000	5.45971	1.79565	5.03429	1.52164
1219.000	5.47538	1.78373	5.11275	1.53333
1220.000	5.44992	1.75610	5.07353	1.55125
1221.000	5.43424	1.74230	5.10295	1.54326
1222.000	5.47343	1.84308	5.07156	1.52551
1223.000	5.47147	1.79165	5.02448	1.54542
1224.000	5.44208	1.76206	5.15394	1.57283
1225.000	5.46951	1.80551	5.14217	1.53722
1226.000	5.45384	1.85304	5.04018	1.61271
1227.000	5.48714	1.77380	5.07745	1.50371
1228.000	5.43228	1.78583	5.09314	1.47199
1229.000	5.49497	1.82126	5.11275	1.51947
1230.000	5.45188	1.73038	5.13433	1.54318
1231.000	5.47930	1.75800	5.11079	1.51948
1232.000	5.46755	1.83321	5.11275	1.56699
1233.000	5.47930	1.80746	5.08137	1.55717
1234.000	5.44992	1.80557	5.09510	1.51753
1235.000	5.45384	1.76796	5.08726	1.50171
1236.000	5.43620	1.77395	5.14806	1.56295
1237.000	5.43620	1.72844	5.08333	1.48390
1238.000	5.45971	1.79367	5.07156	1.60076
1239.000	5.41857	1.73443	5.12648	1.55706
1240.000	5.45971	1.78773	5.05391	1.54337
1241.000	5.44404	1.77591	5.13629	1.48179
1242.000	5.47343	1.88067	5.15198	1.57680
1243.000	5.41073	1.75820	5.11864	1.58282
1244.000	5.46363	1.87477	5.01271	1.55931
1245.000	5.42837	1.77002	5.01075	1.60685
1246.000	5.42445	1.80960	5.18728	1.54107
1247.000	5.40681	1.79185	5.04214	1.53548
1248.000	5.38918	1.79783	4.97740	1.54950
1249.000	5.42249	1.76806	5.10687	1.51948
1250.000	5.44208	1.79372	5.09118	1.50764
1251.000	5.47343	1.76197	5.07941	1.52153
1252.000	5.41661	1.75818	5.06960	1.55720
1253.000	5.46559	1.79365	5.00290	1.54349
1254.000	5.43228	1.72054	5.04999	1.51764
1255.000	5.44992	1.73632	5.06176	1.49781
1256.000	5.42053	1.77400	5.03037	1.52561
1257.000	5.40289	1.75030	5.03037	1.53947
1258.000	5.40681	1.74831	5.11864	1.52342
1259.000	5.40485	1.79581	5.00683	1.51576
1260.000	5.39114	1.77408	5.07353	1.46610
1261.000	5.41857	1.74037	5.04802	1.54735
1262.000	5.39114	1.72857	5.16374	1.56489
1263.000	5.39506	1.72262	5.06176	1.53345
1264.000	5.42249	1.72255	5.12256	1.54915
1265.000	5.42249	1.75025	5.02252	1.52166
1266.000	5.44992	1.75412	5.04214	1.56122
1267.000	5.43228	1.72845	5.02645	1.55136
1268.000	5.46755	1.79166	5.09314	1.53734
1269.000	5.42641	1.77002	5.01467	1.55139
1270.000	5.41661	1.73839	5.01271	1.53753
1271.000	5.41661	1.71267	5.03822	1.49984
1272.000	5.43816	1.71063	5.01664	1.60881
1273.000	5.45579	1.78972	5.02252	1.43452
1274.000	5.46559	1.74419	5.09706	1.58683
1275.000	5.40093	1.76416	5.04606	1.55725
1276.000	5.39310	1.79980	5.02645	1.55532
1277.000	5.41269	1.77006	5.01860	1.49197
1278.000	5.40877	1.76018	4.97936	1.55939
1279.000	5.43620	1.77989	4.99505	1.57520
1280.000	5.40289	1.70083	5.01860	1.60287
1281.000	5.40877	1.73841	5.00486	1.56329
1282.000	5.40877	1.71269	4.97151	1.57724
1283.000	5.40289	1.73645	5.12844	1.54913
1284.000	5.45188	1.72444	5.00683	1.61082
1285.000	5.42445	1.76014	5.00879	1.58903
1286.000	5.43228	1.72845	5.04606	1.59092
1287.000	5.42053	1.72453	5.04802	1.65230
1288.000	5.39114	1.72066	4.91853	1.59321
1289.000	5.45775	1.73234	4.99113	1.56135
1290.000	5.42249	1.76608	5.00290	1.63459
1291.000	5.43228	1.75220	4.97543	1.57327
1292.000	5.44796	1.76798	5.04214	1.57112
1293.000	5.42053	1.74036	5.06176	1.58098
1294.000	5.38526	1.74244	5.05195	1.62853
1295.000	5.43620	1.77593	5.04018	1.60875
1296.000	5.39114	1.75825	5.02645	1.58106
1297.000	5.44600	1.76799	4.93815	1.60702
1298.000	5.42445	1.78981	4.96562	1.56339
1299.000	5.41661	1.72058	5.03037	1.60680
1300.000	5.44012	1.75217	4.91460	1.62094
1301.000	5.38918	1.79585	4.99309	1.53559
1302.000	5.41661	1.81754	4.97936	1.62079
1303.000	5.43228	1.75418	5.00290	1.56330
1304.000	5.42249	1.71859	4.92834	1.61497
1305.000	5.39897	1.72459	4.97740	1.49602
1306.000	5.40877	1.75622	4.92049	1.56349
1307.000	5.41073	1.74435	4.96170	1.60895
1308.000	5.42053	1.75817	5.01664	1.58901
1309.000	5.44992	1.75412	4.90871	1.62096
1310.000	5.45971	1.77190	5.00290	1.61875
1311.000	5.42249	1.77201	4.98917	1.60096
1312.000	5.40289	1.76613	4.95974	1.60301
1313.000	5.42053	1.75421	4.98721	1.58908
1314.000	5.41857	1.74432	4.88909	1.57743
1315.000	5.44404	1.76008	4.98328	1.54156
1316.000	5.48322	1.75007	4.94796	1.58125
1317.000	5.43620	1.78187	4.93030	1.62289
1318.000	5.46951	1.74615	4.98132	1.62672
1319.000	5.43816	1.75812	4.98917	1.64849
1320.000	5.41465	1.74829	5.02252	1.58701
1321.000	5.46167	1.79564	5.03429	1.64243
1322.000	5.53023	1.79741	4.97740	1.68218
1323.000	5.52240	1.80930	5.02056	1.64247
1324.000	5.57136	1.91201	4.97347	1.64654
1325.000	5.62815	1.93160	5.04606	1.77308
1326.000	5.61444	2.04041	5.04606	1.78298
1327.000	5.68492	2.05598	5.11864	1.83029
1328.000	5.67122	2.16278	5.11864	1.90748
1329.000	5.70254	2.20022	5.11079	1.86198
1330.000	5.70841	2.19822	5.05391	1.93935
1331.000	5.69275	2.23782	5.13629	2.05982
1332.000	5.71233	2.31482	5.05391	2.06998
1333.000	5.66535	2.28339	5.07156	2.15106
1334.000	5.62423	2.29541	5.13825	2.05981
1335.000	5.62423	2.26971	5.03822	2.04430
1336.000	5.61836	2.25985	5.02252	2.06612
1337.000	5.59682	2.27377	5.05587	1.95518
1338.000	5.54198	2.18303	5.05979	2.02642
1339.000	5.59094	2.18483	5.13629	1.99253
1340.000	5.56940	2.18096	5.15590	1.97466
1341.000	5.56744	2.14142	5.08922	1.83433
1342.000	5.54786	2.11381	5.02252	1.89193
1343.000	5.60073	2.09978	5.05979	1.84035
1344.000	5.58703	2.04841	5.21277	1.81814
1345.000	5.57724	2.08602	5.12844	1.84609
1346.000	5.54394	2.05845	5.07745	1.84030
1347.000	5.63206	2.07198	5.03625	1.82458
1348.000	5.57332	2.05439	5.04802	1.80871
1349.000	5.58311	2.06425	5.02252	1.80878
1350.000	5.54003	2.07231	5.13041	1.91339
1351.000	5.58899	2.06422	5.11275	1.79863
1352.000	5.61248	2.08391	5.16571	1.89745
1353.000	5.61836	2.11355	5.14021	1.90148
1354.000	5.64185	2.11940	5.09314	1.86401
1355.000	5.60857	2.02659	5.16178	1.78464
1356.000	5.62032	2.13727	5.06372	1.88191
1357.000	5.63402	2.08582	5.08922	1.93726
1358.000	5.62423	2.10167	5.08922	1.81255
1359.000	5.62423	2.10167	5.03429	1.86418
1360.000	5.59486	2.08793	5.05587	1.86214
1361.000	5.64381	2.07392	5.05783	1.87203
1362.000	5.61053	2.13138	5.12844	1.86193
1363.000	5.61836	2.11158	5.04410	1.86415
1364.000	5.65164	2.15099	4.97151	1.87228
1365.000	5.63794	2.10360	5.07549	1.88188
1366.000	5.63011	2.14514	5.04802	1.91165
1367.000	5.63206	2.16886	5.05195	1.85225
1368.000	5.63402	2.16292	5.08922	1.88184
1369.000	5.61444	2.17486	5.06372	1.82450
1370.000	5.63011	2.15503	5.05587	1.79681
1371.000	5.60857	2.13929	5.03429	1.87606
1372.000	5.60465	2.22234	5.06960	1.82845
1373.000	5.63990	2.18860	5.10295	1.89367
1374.000	5.65164	2.17472	4.98721	1.79898
1375.000	5.60857	2.17883	5.04214	1.89979
1376.000	5.63206	2.17479	5.08529	1.84820
1377.000	5.65360	2.17866	5.01075	1.88009
1378.000	5.65164	2.17274	5.02252	1.92954
1379.000	5.62423	2.15900	5.02252	1.86619
1380.000	5.62423	2.16098	5.05195	1.89184
1381.000	5.65360	2.16285	5.04606	1.93739
1382.000	5.66535	2.16676	5.02252	1.84244
1383.000	5.66730	2.19047	5.01664	1.89393
1384.000	5.61248	2.12939	5.00683	1.83258
1385.000	5.63402	2.21235	5.04018	1.92157
1386.000	5.64968	2.21031	5.00683	1.87614
1387.000	5.66730	2.19640	5.06764	1.88586
1388.000	5.63990	2.15895	5.10099	1.79668
1389.000	5.65360	2.20239	5.03822	1.84239
1390.000	5.66535	2.18060	4.98328	1.85047
1391.000	5.65556	2.15296	5.04410	1.86415
1392.000	5.63990	2.17081	5.03822	1.94533
1393.000	5.66339	2.17072	5.01860	1.89986
1394.000	5.61444	2.19660	5.01271	1.95728
1395.000	5.67318	2.18254	4.95189	1.89609
1396.000	5.67514	2.17265	5.05587	1.93340
1397.000	5.68688	2.18249	5.02252	1.87213
1398.000	5.63011	2.22422	5.12060	1.81049
1399.000	5.65556	2.20633	5.10295	1.88971
1400.000	5.61248	2.19859	5.10883	1.84813
1401.000	5.67514	2.19440	5.03822	1.85625
1402.000	5.66339	2.16874	5.08922	1.81453
1403.000	5.68492	2.15680	5.04018	1.83645
1404.000	5.66339	2.19642	5.07941	1.90166
1405.000	5.67905	2.25961	4.97936	1.89007
1406.000	5.67905	2.20822	5.07941	1.89968
1407.000	5.65947	2.19446	5.02645	1.79887
1408.000	5.68688	2.22203	5.04018	1.89188
1409.000	5.66730	2.21617	4.99702	1.80291
1410.000	5.67122	2.18651	5.14806	1.73915
1411.000	5.66143	2.17468	5.06372	1.86410
1412.000	5.66535	2.18060	5.01860	1.82265
1413.000	5.64773	2.16683	5.08726	1.79078
1414.000	5.66535	2.23792	5.01664	1.84245
1415.000	5.67514	2.17463	5.04802	1.85622
1416.000	5.68492	2.22401	5.04606	1.86415
1417.000	5.65752	2.22016	5.15198	1.76289
1418.000	5.64577	2.17672	4.98132	1.93164
1419.000	5.67122	2.15488	4.97740	1.84652
1420.000	5.67905	2.18450	5.16963	1.78066
1421.000	5.69471	2.21014	5.02448	1.77710
1422.000	5.67514	2.13312	5.06372	1.77105
1423.000	5.65164	2.15890	5.16178	1.80839
1424.000	5.63990	2.13720	5.01271	1.84444
1425.000	5.60857	2.14325	5.03233	1.94931
1426.000	5.60857	2.18081	5.10687	1.74520
1427.000	5.65752	2.20435	5.04606	1.82059
1428.000	5.65164	2.17670	5.01860	1.86620
1429.000	5.68492	2.17855	5.06568	1.73343
1430.000	5.64773	2.17276	5.07353	1.69183
1431.000	5.67514	2.20033	4.97347	1.81090
1432.000	5.63794	2.16686	5.10295	1.72541
1433.000	5.65164	2.19844	5.09314	1.81254
1434.000	5.63598	2.17675	5.11864	1.75902
1435.000	5.68884	2.15481	5.08333	1.78288
1436.000	5.63990	2.13127	5.01664	1.72960
1437.000	5.68101	2.18647	5.15198	1.74507
1438.000	5.71820	2.15470	5.03037	1.78104
1439.000	5.65164	2.17274	5.11472	1.72736
1440.000	5.72212	2.21794	5.15002	1.72726
1441.000	5.66143	2.19840	5.12256	1.82236
1442.000	5.69667	2.15873	5.07353	1.76706
1443.000	5.65752	2.17470	5.06568	1.78490
1444.000	5.65360	2.14703	5.03233	1.74738
1445.000	5.67709	2.15090	5.07941	1.75319
1446.000	5.68492	2.23192	5.12844	1.68773
1447.000	5.69080	2.19236	5.07745	1.74924
1448.000	5.67122	2.16871	5.15982	1.63815
1449.000	5.68884	2.20818	5.09706	1.70761
1450.000	5.67122	2.18651	5.12256	1.61449
1451.000	5.67709	2.23392	5.14021	1.77480
1452.000	5.65556	2.19645	5.05195	1.64239
1453.000	5.67905	2.19438	5.07941	1.67994
1454.000	5.67514	2.20428	5.08529	1.76703
1455.000	5.65360	2.19250	5.05979	1.74532
1456.000	5.69471	2.18049	5.13237	1.74117
1457.000	5.67709	2.22404	5.08726	1.68585
1458.000	5.68688	2.21610	5.13433	1.72730
1459.000	5.74756	2.22970	5.12648	1.78869
1460.000	5.71624	2.17843	5.08726	1.74723
1461.000	5.67514	2.18451	5.10687	1.65017
1462.000	5.71624	2.24761	4.99309	1.72372
1463.000	5.71820	2.18435	5.07353	1.71559
1464.000	5.75735	2.20001	5.11079	1.68579
1465.000	5.74365	2.18821	5.07156	1.65620
1466.000	5.70254	2.19232	5.11079	1.69173
1467.000	5.69667	2.17257	5.08137	1.64231
1468.000	5.69667	2.18048	5.06372	1.71166
1469.000	5.72603	2.21199	5.10883	1.62046
1470.000	5.72212	2.20410	5.09314	1.67594
1471.000	5.69275	2.21014	5.07549	1.75518
1472.000	5.69275	2.21014	5.09314	1.66604
1473.000	5.74560	2.18227	5.07745	1.71360
1474.000	5.71820	2.17644	5.11079	1.72539
1475.000	5.72016	2.20609	5.03625	1.67015
1476.000	5.72603	2.21990	4.96955	1.73170
1477.000	5.75147	2.18620	5.01467	1.64050
1478.000	5.74560	2.20796	5.03037	1.78104
1479.000	5.72995	2.18035	5.16374	1.67378
1480.000	5.76322	2.13872	4.98917	1.73561
1481.000	5.73386	2.15859	5.09902	1.71156
1482.000	5.74560	2.17239	5.05195	1.75128
1483.000	5.74365	2.17832	5.17747	1.59653
1484.000	5.80040	2.18403	5.11668	1.70360
1485.000	5.73582	2.17835	5.10687	1.57691
1486.000	5.74560	2.17634	5.02841	1.71769
1487.000	5.70254	2.20615	5.06568	1.69977
1488.000	5.75930	2.19605	5.07353	1.64431
1489.000	5.75343	2.17433	5.11079	1.75112
1490.000	5.72212	2.17643	5.09510	1.68979
1491.000	5.76713	2.19602	5.05587	1.77305
1492.000	5.75539	2.21188	5.11472	1.78279
1493.000	5.71233	2.12507	5.16178	1.75494
1494.000	5.68688	2.14098	5.07941	1.61064
1495.000	5.70646	2.18044	5.12844	1.73326
1496.000	5.69275	2.13107	5.13433	1.72928
1497.000	5.72212	2.15864	5.02841	1.81074
1498.000	5.74169	2.17833	5.08922	1.71951
1499.000	5.77300	2.20193	5.06372	1.70770
1500.000	5.71624	2.17843	5.10295	1.70363
1501.000	5.75930	2.15257	5.06568	1.75125
1502.000	5.76713	2.18416	5.11275	1.69569
1503.000	5.74169	2.11903	5.15002	1.72528
1504.000	5.76713	2.17823	5.09510	1.72345
1505.000	5.73386	2.23568	5.13237	1.66594
1506.000	5.72799	2.17838	5.09314	1.69178
1507.000	5.73777	2.13881	5.06568	1.73937
1508.000	5.74365	2.15658	5.05979	1.70177
1509.000	5.71624	2.16854	5.05783	1.79284
1510.000	5.73582	2.16847	5.10491	1.78677
1511.000	5.70646	2.12905	5.02645	1.67611
1512.000	5.75343	2.19410	5.19316	1.63213
1513.000	5.74560	2.17634	5.04410	1.70379
1514.000	5.76909	2.19404	5.09706	1.78482
1515.000	5.76909	2.14858	5.09706	1.69573
1516.000	5.74560	2.15064	5.06372	1.74927
1517.000	5.74756	2.17436	5.05587	1.76513
1518.000	5.76322	2.19801	5.10687	1.66798
1519.000	5.75147	2.15457	5.13041	1.73721
1520.000	5.75343	2.18619	5.07156	1.72351
1521.000	5.76909	2.18218	5.13041	1.72336
1522.000	5.78670	2.20385	5.11079	1.70955
1523.000	5.76126	2.21383	5.04214	1.65825
1524.000	5.72995	2.11117	5.08333	1.71952
1525.000	5.72995	2.18035	5.03822	1.76716
1526.000	5.74560	2.18820	5.04214	1.64043
1527.000	5.76713	2.11894	5.12648	1.64220
1528.000	5.77887	2.17226	5.19512	1.75287
1529.000	5.72603	2.18037	5.08922	1.68189
1530.000	5.82388	2.15232	5.04410	1.70577
1531.000	5.77300	2.19007	5.06568	1.58097
1532.000	5.80823	2.19784	5.11275	1.69371
1533.000	5.73190	2.16058	5.15786	1.58272
1534.000	5.75930	2.15059	5.13629	1.60059
1535.000	5.73973	2.14671	5.07156	1.68986
1536.000	5.73190	2.14476	5.10883	1.72143
1537.000	5.73973	2.19020	5.15982	1.70150
1538.000	5.71820	2.14679	5.10687	1.68778
1539.000	5.73190	2.16255	5.14609	1.58671
1540.000	5.72603	2.13095	5.07745	1.68192
1541.000	5.75539	2.15061	5.04606	1.62458
1542.000	5.71624	2.12308	5.11472	1.66005
1543.000	5.72016	2.15469	5.15002	1.76289
1544.000	5.79453	2.18406	5.15982	1.66983
1545.000	5.74756	2.20598	5.09510	1.64822
1546.000	5.80040	2.16427	5.11668	1.63628
1547.000	5.77105	2.16636	5.13041	1.59467
1548.000	5.73582	2.12894	5.09902	1.70958
1549.000	5.79649	2.13069	5.06960	1.68590
1550.000	5.78083	2.20585	5.18924	1.60244
1551.000	5.78866	2.15443	5.17159	1.54111
1552.000	5.78279	2.18213	5.07745	1.63044
1553.000	5.74952	2.16051	5.17159	1.62030
1554.000	5.75930	2.11897	5.07549	1.59679
1555.000	5.73777	2.12893	5.13433	1.60852
1556.000	5.75147	2.21387	5.13237	1.66396
1557.000	5.76322	2.17825	5.14217	1.68571
1558.000	5.78866	2.16827	5.17747	1.67770
1559.000	5.75735	2.18222	5.10295	1.69175
1560.000	5.80040	2.17811	5.19512	1.64004
1561.000	5.75735	2.16443	5.20100	1.60241
1562.000	5.81410	2.18201	5.03822	1.71766
1563.000	5.81018	2.14249	5.12256	1.62835
1564.000	5.80431	2.13263	5.10883	1.63630
1565.000	5.77887	2.14261	5.04410	1.66815
1566.000	5.80236	2.15833	5.06568	1.67403
1567.000	5.77887	2.17819	5.11275	1.59669
1568.000	5.78279	2.18410	5.15002	1.69559
1569.000	5.78866	2.16629	5.11668	1.65806
1570.000	5.80431	2.18995	5.10295	1.62444
1571.000	5.76126	2.15256	5.09706	1.66801
1572.000	5.76909	2.16637	5.17747	1.64404
1573.000	5.81214	2.16818	5.11079	1.73727
1574.000	5.82779	2.18393	5.08137	1.65023
1575.000	5.80236	2.17810	5.06372	1.60275
1576.000	5.79257	2.15442	5.13825	1.55505
1577.000	5.82779	2.18393	5.12648	1.63824
1578.000	5.75539	2.17433	5.10883	1.62046
1579.000	5.80236	2.23936	5.13237	1.66000
1580.000	5.81801	2.20373	5.05391	1.62456
1581.000	5.82779	2.22741	5.07941	1.67598
1582.000	5.84149	2.25502	5.14021	1.69957
1583.000	5.80236	2.20972	5.12060	1.58479
1584.000	5.83953	2.17598	5.10491	1.62443
1585.000	5.83562	2.19378	5.15786	1.66983
1586.000	5.79844	2.21171	5.16374	1.66586
1587.000	5.84540	2.19967	5.08922	1.65021
1588.000	5.82975	2.18985	5.01664	1.66030
1589.000	5.78083	2.18806	5.15002	1.63422
1590.000	5.79453	2.20777	5.10687	1.65215
1591.000	5.81801	2.18990	5.18139	1.69748
1592.000	5.82388	2.18987	5.14217	1.69759
1593.000	5.80236	2.15833	5.13433	1.65405
1594.000	5.84149	2.15423	5.10295	1.65810
1595.000	5.81801	2.19780	5.09314	1.58882
1596.000	5.83562	2.16018	5.09706	1.55911
1597.000	5.86888	2.16005	5.12844	1.66199
1598.000	5.83366	2.13450	5.12452	1.65408
1599.000	5.79649	2.17219	5.15394	1.65202
1600.000	5.86692	2.21342	5.05979	1.60474
1601.000	5.83171	2.14241	5.09118	1.59279
1602.000	5.81801	2.17804	5.10883	1.71154
1603.000	5.80431	2.13263	5.20884	1.60635
1604.000	5.83562	2.15623	5.14806	1.66986
1605.000	5.83758	2.20365	5.09706	1.66009
1606.000	5.83366	2.15624	5.10883	1.66996
1607.000	5.83562	2.15623	5.18335	1.60048
1608.000	5.86497	2.18774	5.10491	1.62641
1609.000	5.82975	2.17404	5.12844	1.61447
1610.000	5.81410	2.11085	5.14806	1.62036
1611.000	5.82779	2.12464	5.08726	1.69575
1612.000	5.86105	2.19170	5.14217	1.63820
1613.000	5.83562	2.17204	5.10491	1.58285
1614.000	5.82975	2.16218	5.17551	1.63019
1615.000	5.84736	2.17792	5.13237	1.57090
1616.000	5.82388	2.16616	5.15198	1.62035
1617.000	5.82584	2.15034	5.11275	1.66203
1618.000	5.82192	2.15628	5.08333	1.58885
1619.000	5.81410	2.15236	5.10295	1.66008
1620.000	5.76909	2.12881	5.12060	1.69171
1621.000	5.85127	2.16803	5.15198	1.66193
1622.000	5.80040	2.10893	5.12256	1.65607
1623.000	5.81214	2.09900	5.16374	1.68565
1624.000	5.84540	2.09492	5.13825	1.56099
1625.000	5.81605	2.15038	5.14806	1.62234
1626.000	5.80823	2.10890	5.16178	1.71535
1627.000	5.81214	2.05749	5.10883	1.61650
1628.000	5.84149	2.11075	5.08137	1.77496
1629.000	5.81605	2.11678	5.09510	1.60466
1630.000	5.79844	2.14056	5.22061	1.63403
1631.000	5.82584	2.08709	5.01075	1.65635
1632.000	5.82388	2.08512	5.14806	1.70549
1633.000	5.80823	2.12076	5.09314	1.69772
1634.000	5.85518	2.15220	5.07745	1.61064
1635.000	5.86497	2.16797	5.06764	1.60275
1636.000	5.86301	2.16403	5.12256	1.67388
1637.000	5.85518	2.12453	5.10687	1.66403
1638.000	5.83366	2.14043	5.12060	1.69369
1639.000	5.81605	2.11085	5.15590	1.71339
1640.000	5.79453	2.12279	5.03822	1.71766
1641.000	5.79453	2.15243	5.10883	1.73925
1642.000	5.81801	2.14642	5.09314	1.62842
1643.000	5.83758	2.17401	5.15982	1.63221
1644.000	5.83171	2.14439	5.10491	1.70165
1645.000	5.82779	2.14243	5.13825	1.67780
1646.000	5.82388	2.13453	5.10883	1.69372
1647.000	5.80627	2.18006	5.09118	1.69574
1648.000	5.83562	2.16611	5.14806	1.67382
1649.000	5.81801	2.10689	5.11275	1.60263
1650.000	5.83366	2.17402	5.12844	1.63823
1651.000	5.83171	2.16217	5.08726	1.65418
1652.000	5.80236	2.11880	5.09706	1.66603
1653.000	5.81018	2.15435	5.13629	1.66197
1654.000	5.83171	2.10881	5.19120	1.67370
1655.000	5.80040	2.09707	5.17747	1.68364
1656.000	5.81214	2.12272	5.10883	1.71945
1657.000	5.78670	2.12084	5.15786	1.71140
1658.000	5.85910	2.16207	5.14021	1.75302
1659.000	5.80823	2.14250	5.06960	1.66610
1660.000	5.89822	2.17970	5.16767	1.71138
1661.000	5.83758	2.17401	5.10295	1.72343
1662.000	5.81214	2.16423	5.15002	1.60650
1663.000	5.82192	2.12071	5.18335	1.62621
1664.000	5.81997	2.11874	5.06176	1.77106
1665.000	5.84736	2.17595	5.16767	1.69752
1666.000	5.84736	2.11073	5.20296	1.62220
1667.000	5.80431	2.09903	5.22257	1.66768
1668.000	5.84149	2.06727	5.11275	1.65609
1669.000	5.82584	2.16813	5.17355	1.68761
1670.000	5.82779	2.12068	5.07156	1.76707
1671.000	5.81801	2.13456	5.07745	1.62846
1672.000	5.87866	2.15606	5.09314	1.67792
1673.000	5.83953	2.14436	5.17747	1.60049
1674.000	5.87084	2.14819	5.08922	1.71357
1675.000	5.81410	2.17410	5.01860	1.49197
1676.000	5.86888	2.16993	5.07549	1.61461
1677.000	5.81997	2.19384	5.15394	1.62629
1678.000	5.81410	2.10888	5.16767	1.59656
1679.000	5.81997	2.16815	5.15394	1.62035
1680.000	5.78474	2.12480	5.14217	1.60454
1681.000	5.82388	2.15430	5.16767	1.59260
1682.000	5.81801	2.11282	5.15002	1.63422
1683.000	5.81018	2.18993	5.12256	1.58083
1684.000	5.87279	2.16004	5.17747	1.58663
1685.000	5.84540	2.17398	5.10491	1.55513
1686.000	5.88257	2.18569	5.10491	1.56305
1687.000	5.86497	2.13833	5.18139	1.52129
1688.000	5.84932	2.17989	5.16767	1.64803
1689.000	5.83953	2.17203	5.18335	1.64205
1690.000	5.84345	2.13248	5.22061	1.57069
1691.000	5.81605	2.15828	5.16571	1.57676
1692.000	5.81605	2.16619	5.14806	1.63620
1693.000	5.81605	2.12468	5.18728	1.64402
1694.000	5.86105	2.11661	5.25394	1.65374
1695.000	5.85910	2.14626	5.18924	1.53711
1696.000	5.83171	2.18589	5.19316	1.62421
1697.000	5.85910	2.18183	5.13433	1.61446
1698.000	5.87475	2.22129	5.15982	1.51540
1699.000	5.83562	2.12263	5.18139	1.48565
1700.000	5.81214	2.18201	5.23433	1.66567
1701.000	5.82975	2.14637	5.24021	1.63992
1702.000	5.82779	2.19776	5.19512	1.56283
1703.000	5.86497	2.18181	5.18531	1.58463
1704.000	5.85518	2.17394	5.17159	1.54903
1705.000	5.86692	2.12647	5.18924	1.54899
1706.000	5.84345	2.12655	5.18728	1.59651
1707.000	5.85518	2.16999	5.17747	1.51536
1708.000	5.81801	2.15827	5.19512	1.60440
1709.000	5.90800	2.14805	5.15786	1.55698
1710.000	5.88257	2.14419	5.24217	1.52906
1711.000	5.85910	2.15021	5.20492	1.56083
1712.000	5.88649	2.16394	5.18531	1.59651
1713.000	5.87866	2.16002	5.19708	1.58460
1714.000	5.86888	2.19167	5.27158	1.56858
1715.000	5.84736	2.15618	5.19512	1.53511
1716.000	5.81801	2.10689	5.16178	1.57875
1717.000	5.86888	2.18574	5.18924	1.57076
1718.000	5.83171	2.14636	5.15590	1.57679
1719.000	5.84345	2.12260	5.15002	1.55502
1720.000	5.86301	2.18181	5.17159	1.61040
1721.000	5.83366	2.15228	5.20688	1.55290
1722.000	5.82779	2.14243	5.15394	1.55303
1723.000	5.84149	2.15028	5.17943	1.62820
1724.000	5.86301	2.16403	5.20296	1.61230
1725.000	5.80823	2.17412	5.15394	1.47977
1726.000	5.84932	2.18780	5.19708	1.51927
1727.000	5.81410	2.12271	5.09314	1.63040
1728.000	5.82779	2.12661	5.22649	1.50732
1729.000	5.82975	2.18392	5.17747	1.59851
1730.000	5.82192	2.16221	5.15786	1.58074
1731.000	5.83562	2.17402	5.24217	1.57261
1732.000	5.81018	2.16423	5.16963	1.52923
1733.000	5.78474	2.15840	5.13629	1.55505
1734.000	5.81410	2.13457	5.24609	1.59438
1735.000	5.81214	2.21166	5.16767	1.59458
1736.000	5.81410	2.13655	5.24217	1.52312
1737.000	5.77496	2.16437	5.19512	1.51927
1738.000	5.82975	2.13451	5.20296	1.54301
1739.000	5.87475	2.22919	5.23629	1.61420
1740.000	5.87279	2.18770	5.21473	1.64593
1741.000	5.83953	2.17005	5.20688	1.58458
1742.000	5.85127	2.20162	5.16374	1.65596
1743.000	5.81605	2.12666	5.18728	1.62026
1744.000	5.83366	2.15031	5.20492	1.59052
1745.000	5.81605	2.20967	5.15002	1.54908
1746.000	5.82975	2.18985	5.20296	1.57073
1747.000	5.85910	2.16602	5.18335	1.51930
1748.000	5.80431	2.17611	5.24413	1.64189
1749.000	5.84932	2.16013	5.22845	1.65381
1750.000	5.85518	2.13046	5.12648	1.63032
1751.000	5.84540	2.15026	5.17943	1.56485
1752.000	5.82584	2.18196	5.16767	1.68960
1753.000	5.79844	2.15242	5.09902	1.59277
1754.000	5.77887	2.17424	5.15002	1.64610
1755.000	5.65556	2.13912	5.06568	1.62453
1756.000	5.50085	2.13770	4.93423	1.58723
1757.000	5.29902	2.11468	4.84787	1.58545
1758.000	5.02056	2.01268	4.55921	1.60989
1759.000	4.66135	1.96226	4.31356	1.54897
1760.000	4.30570	1.84432	3.97136	1.53973
1761.000	3.90839	1.80360	3.60721	1.30425
1762.000	3.56389	1.69917	3.21321	1.15389
1763.000	3.08509	1.58487	2.88004	0.99734
1764.000	2.62757	1.40279	2.49735	0.84067
1765.000	2.27631	1.25613	2.12430	0.82499
1766.000	1.77478	1.10347	1.71948	0.46133
1767.000	1.35399	1.01224	1.41525	0.30230
1768.000	0.99038	0.79759	1.11291	0.26653
1769.000	0.61680	0.64053	0.83226	0.02586
1770.000	0.38551	0.46949	0.60099	-0.10146
1771.000	0.14630	0.31831	0.39144	-0.19098
1772.000	-0.09490	0.21088	0.18979	-0.26459
1773.000	-0.35783	0.04576	-0.13839	-0.39589
1774.000	-0.51994	0.04576	-0.34202	-0.49535
1775.000	-0.70575	0.00796	-0.51796	-0.61270
1776.000	-0.94887	-0.04376	-0.78877	-0.70018
1777.000	-1.11291	-0.07558	-1.01607	-0.79958
1778.000	-1.34016	-0.14320	-1.26508	-0.86115
1779.000	-1.60491	-0.28040	-1.51996	-0.91474
1780.000	-1.88933	-0.33006	-1.96042	-1.02584
1781.000	-2.05520	-0.37973	-2.08877	-1.02377
1782.000	-2.32171	-0.43731	-2.42236	-1.11295
1783.000	-2.54273	-0.55449	-2.72423	-1.19810
1784.000	-2.77552	-0.62591	-3.00426	-1.16008
1785.000	-2.87413	-0.64175	-3.29598	-1.28085
1786.000	-2.91948	-0.67153	-3.40828	-1.25688
1787.000	-2.98455	-0.69532	-3.61706	-1.37964
1788.000	-3.06144	-0.77075	-3.66825	-1.43908
1789.000	-3.08312	-0.74492	-3.77653	-1.40121
1790.000	-3.08904	-0.79060	-3.72141	-1.44297
1791.000	-3.03778	-0.75289	-3.80999	-1.38926
1792.000	-3.02595	-0.74893	-3.75291	-1.38538
1793.000	-2.94117	-0.75097	-3.79621	-1.34365
1794.000	-2.83863	-0.74309	-3.68794	-1.34183
1795.000	-2.79721	-0.72325	-3.59540	-1.24870
1796.000	-2.73212	-0.66369	-3.56586	-1.27652
1797.000	-2.70253	-0.65576	-3.52844	-1.25474
1798.000	-2.64730	-0.54649	-3.38267	-1.31845
1799.000	-2.67294	-0.63988	-3.32750	-1.23118
1800.000	-2.67294	-0.61404	-3.29795	-1.26497
1801.000	-2.71240	-0.65376	-3.36297	-1.28672
1802.000	-2.72029	-0.64780	-3.22306	-1.33256
1803.000	-2.78735	-0.68551	-3.32553	-1.41182
1804.000	-2.78932	-0.70140	-3.37282	-1.36610
1805.000	-2.83863	-0.68747	-3.42404	-1.41962
1806.000	-2.90371	-0.66955	-3.47723	-1.41160
1807.000	-2.94709	-0.68542	-3.47329	-1.34214
1808.000	-2.97666	-0.71519	-3.53828	-1.44127
1809.000	-3.01215	-0.72113	-3.55404	-1.38965
1810.000	-3.05552	-0.74494	-3.70960	-1.46878
1811.000	-3.08509	-0.75087	-3.67613	-1.47082
1812.000	-3.12058	-0.73496	-3.75291	-1.43696
1813.000	-3.14423	-0.76275	-3.79818	-1.43689
1814.000	-3.12649	-0.71907	-3.76472	-1.46472
1815.000	-3.15408	-0.75877	-3.85132	-1.50424
1816.000	-3.16788	-0.77663	-3.78637	-1.42104
1817.000	-3.14029	-0.78460	-3.82180	-1.45867
1818.000	-3.17379	-0.80443	-3.84739	-1.39118
1819.000	-3.21321	-0.81433	-3.82770	-1.43485
1820.000	-3.10678	-0.81243	-3.81786	-1.42098
1821.000	-3.22898	-0.85801	-3.79621	-1.43689
1822.000	-3.20533	-0.82030	-3.80605	-1.36149
1823.000	-3.13832	-0.82234	-3.87887	-1.37327
1824.000	-3.14620	-0.79850	-3.79031	-1.42897
1825.000	-3.13043	-0.83029	-3.79424	-1.39722
1826.000	-3.08312	-0.78464	-3.80802	-1.42695
1827.000	-3.06735	-0.79061	-3.73716	-1.34969
1828.000	-3.10875	-0.81640	-3.80802	-1.39521
1829.000	-3.09889	-0.82832	-3.76472	-1.37941
1830.000	-3.08509	-0.72903	-3.81393	-1.34957
1831.000	-3.05749	-0.75089	-3.76472	-1.33576
1832.000	-3.00229	-0.74895	-3.75094	-1.34173
1833.000	-3.03187	-0.78865	-3.76472	-1.27425
1834.000	-3.02792	-0.73900	-3.78440	-1.28613
1835.000	-3.00624	-0.76086	-3.73519	-1.33580
1836.000	-3.02201	-0.71318	-3.70566	-1.28029
1837.000	-2.98652	-0.71519	-3.68991	-1.31603
1838.000	-3.01807	-0.74298	-3.65053	-1.30418
1839.000	-3.04172	-0.75090	-3.73322	-1.27033
1840.000	-2.99046	-0.72710	-3.67219	-1.31804
1841.000	-3.01215	-0.70723	-3.65250	-1.30021
1842.000	-2.97666	-0.74499	-3.67416	-1.30812
1843.000	-3.01609	-0.73503	-3.75881	-1.18100
1844.000	-3.00426	-0.74497	-3.66234	-1.33195
1845.000	-2.98258	-0.70923	-3.70566	-1.22275
1846.000	-2.97666	-0.76684	-3.67416	-1.32002
1847.000	-3.00426	-0.69531	-3.71944	-1.26837
1848.000	-3.02201	-0.72510	-3.62296	-1.31216
1849.000	-3.01215	-0.74695	-3.66038	-1.30218
1850.000	-3.03778	-0.75687	-3.65447	-1.29624
1851.000	-3.03975	-0.72707	-3.68597	-1.30215
1852.000	-2.99835	-0.75093	-3.66628	-1.24463
1853.000	-2.99046	-0.73505	-3.73913	-1.32191
1854.000	-3.00624	-0.74100	-3.73716	-1.35366
1855.000	-3.03187	-0.77077	-3.74503	-1.28420
1856.000	-2.98061	-0.68937	-3.68203	-1.28231
1857.000	-3.02792	-0.74694	-3.73125	-1.31200
1858.000	-3.00426	-0.71716	-3.79818	-1.37539
1859.000	-3.07327	-0.71712	-3.70763	-1.32791
1860.000	-3.06144	-0.72904	-3.72731	-1.32391
1861.000	-3.02989	-0.72112	-3.75487	-1.30403
1862.000	-2.98455	-0.73505	-3.73913	-1.27429
1863.000	-2.98258	-0.77478	-3.77456	-1.32781
1864.000	-3.00624	-0.72113	-3.74897	-1.41316
1865.000	-2.98061	-0.77081	-3.71156	-1.32195
1866.000	-2.97863	-0.73506	-3.84739	-1.32373
1867.000	-3.02989	-0.72906	-3.73519	-1.33779
1868.000	-3.04172	-0.71912	-3.76669	-1.40718
1869.000	-3.00426	-0.70723	-3.69188	-1.30412
1870.000	-3.02398	-0.75290	-3.68006	-1.33787
1871.000	-3.03975	-0.73104	-3.73322	-1.35962
1872.000	-3.01018	-0.74099	-3.76275	-1.32386
1873.000	-2.95497	-0.73507	-3.72338	-1.33979
1874.000	-3.05749	-0.71713	-3.74700	-1.39531
1875.000	-3.06735	-0.70719	-3.75291	-1.33578
1876.000	-3.03778	-0.75289	-3.70369	-1.34181
1877.000	-3.03581	-0.72310	-3.73716	-1.38937
1878.000	-3.07327	-0.77074	-3.72928	-1.41716
1879.000	-3.04567	-0.71912	-3.71747	-1.40329
1880.000	-3.08312	-0.74293	-3.72928	-1.35764
1881.000	-2.99046	-0.71916	-3.71944	-1.36559
1882.000	-3.04567	-0.75885	-3.73125	-1.37549
1883.000	-3.05749	-0.76281	-3.76669	-1.34369
1884.000	-3.03778	-0.75488	-3.75094	-1.35959
1885.000	-3.05552	-0.77274	-3.69581	-1.34380
1886.000	-3.00229	-0.71915	-3.70960	-1.32394
1887.000	-3.03975	-0.72111	-3.75094	-1.30999
1888.000	-3.10875	-0.77469	-3.70960	-1.36759
1889.000	-3.00426	-0.72511	-3.69778	-1.42912
1890.000	-3.04764	-0.76480	-3.65053	-1.35379
1891.000	-3.03975	-0.75488	-3.71944	-1.34377
1892.000	-3.07721	-0.77273	-3.73519	-1.40128
1893.000	-3.11663	-0.76873	-3.70566	-1.42712
1894.000	-3.02989	-0.75687	-3.66628	-1.39345
1895.000	-3.08115	-0.77273	-3.79031	-1.34366
1896.000	-3.06341	-0.78068	-3.68203	-1.33787
1897.000	-3.04567	-0.81645	-3.63478	-1.39350
1898.000	-2.97863	-0.78670	-3.77259	-1.34964
1899.000	-3.00426	-0.77874	-3.65447	-1.35974
1900.000	-3.03975	-0.75488	-3.72338	-1.35765
1901.000	-3.02792	-0.72112	-3.76865	-1.36750
1902.000	-3.00032	-0.72114	-3.68991	-1.31802
1903.000	-3.00032	-0.75093	-3.72731	-1.34574
1904.000	-3.02004	-0.76880	-3.68794	-1.31603
1905.000	-3.01018	-0.74497	-3.72141	-1.31003
1906.000	-2.97469	-0.73307	-3.66825	-1.35972
1907.000	-2.96286	-0.70527	-3.69188	-1.34778
1908.000	-3.06341	-0.73103	-3.70172	-1.32990
1909.000	-3.01412	-0.76483	-3.73913	-1.31397
1910.000	-3.01412	-0.72113	-3.63675	-1.38358
1911.000	-3.01215	-0.77277	-3.68400	-1.25651
1912.000	-2.98849	-0.77676	-3.73519	-1.34969
1913.000	-2.99638	-0.75491	-3.70172	-1.28030
1914.000	-3.01018	-0.76483	-3.68794	-1.38548
1915.000	-2.97469	-0.70924	-3.68991	-1.31603
1916.000	-3.00426	-0.75292	-3.74897	-1.34769
1917.000	-3.03975	-0.73502	-3.62887	-1.26254
1918.000	-3.08706	-0.76478	-3.68203	-1.29025
1919.000	-2.99244	-0.70922	-3.67613	-1.32796
1920.000	-2.99638	-0.78272	-3.72928	-1.34573
1921.000	-2.98849	-0.72710	-3.67022	-1.33193
1922.000	-2.98258	-0.74697	-3.67613	-1.33391
1923.000	-2.98258	-0.75690	-3.68400	-1.34382
1924.000	-2.93131	-0.75297	-3.67022	-1.33789
1925.000	-2.97469	-0.76088	-3.64069	-1.27840
1926.000	-2.99835	-0.79861	-3.64265	-1.35777
1927.000	-2.91159	-0.77086	-3.66825	-1.31408
1928.000	-2.90765	-0.72318	-3.67416	-1.37757
1929.000	-2.95695	-0.76090	-3.66234	-1.36171
1930.000	-2.94709	-0.77282	-3.66825	-1.27439
1931.000	-2.95892	-0.79069	-3.66234	-1.35973
1932.000	-3.00426	-0.72511	-3.73913	-1.34374
1933.000	-2.96483	-0.77877	-3.74306	-1.31198
1934.000	-3.00426	-0.77079	-3.64462	-1.38555
1935.000	-2.98455	-0.78273	-3.61115	-1.39949
1936.000	-2.98061	-0.77081	-3.67219	-1.37558
1937.000	-3.01807	-0.77674	-3.67022	-1.33392
1938.000	-2.99638	-0.79662	-3.68006	-1.35573
1939.000	-3.03384	-0.75886	-3.70172	-1.32593
1940.000	-2.94314	-0.78673	-3.64462	-1.35578
1941.000	-3.00032	-0.77477	-3.70172	-1.31403
1942.000	-3.01215	-0.77476	-3.62296	-1.36177
1943.000	-3.01018	-0.79065	-3.68400	-1.39938
1944.000	-2.98455	-0.78273	-3.65053	-1.34982
1945.000	-3.01018	-0.78867	-3.77850	-1.33574
1946.000	-3.02398	-0.75489	-3.68794	-1.35969
1947.000	-3.00821	-0.77278	-3.62690	-1.36970
1948.000	-3.06538	-0.79657	-3.65644	-1.38751
1949.000	-3.00032	-0.78271	-3.70566	-1.38149
1950.000	-3.03581	-0.77474	-3.70763	-1.37751
1951.000	-3.06735	-0.77671	-3.67022	-1.30812
1952.000	-3.01215	-0.77873	-3.69188	-1.30809
1953.000	-3.02595	-0.72907	-3.64856	-1.35975
1954.000	-3.00624	-0.73702	-3.64462	-1.33793
1955.000	-2.97863	-0.77081	-3.66234	-1.38354
1956.000	-3.01215	-0.78668	-3.70763	-1.25449
1957.000	-3.01018	-0.82045	-3.62296	-1.41535
1958.000	-3.02398	-0.77873	-3.61509	-1.32408
1959.000	-3.05749	-0.80651	-3.62887	-1.34985
1960.000	-3.06144	-0.84424	-3.67810	-1.35573
1961.000	-3.02004	-0.80455	-3.62493	-1.25262
1962.000	-2.99638	-0.76683	-3.65053	-1.29426
1963.000	-2.99046	-0.79663	-3.62690	-1.33398
1964.000	-3.00229	-0.80456	-3.70566	-1.34974
1965.000	-2.98258	-0.79465	-3.72141	-1.31797
1966.000	-3.03778	-0.82440	-3.53238	-1.28649
1967.000	-3.03187	-0.78865	-3.68400	-1.33390
1968.000	-3.09692	-0.82237	-3.64659	-1.33991
1969.000	-3.16985	-0.73095	-3.77850	-1.40121
1970.000	-3.31962	-0.80630	-3.86707	-1.33957
1971.000	-3.54616	-0.79619	-4.03825	-1.39086
1972.000	-3.75094	-0.79997	-4.26048	-1.40435
1973.000	-3.98513	-0.77991	-4.52777	-1.38204
1974.000	-4.36663	-0.81523	-4.87535	-1.51210
1975.000	-4.74186	-0.84057	-5.22061	-1.45388
1976.000	-5.20884	-0.77263	-5.62619	-1.48456
1977.000	-5.68101	-0.85119	-6.04880	-1.49530
1978.000	-6.10158	-0.91384	-6.53516	-1.48205
1979.000	-6.54687	-0.91107	-6.95630	-1.54589
1980.000	-7.06147	-0.94957	-7.27944	-1.51719
1981.000	-7.49720	-1.08273	-7.66233	-1.40552
1982.000	-7.94952	-1.08946	-8.12010	-1.52009
1983.000	-8.41439	-1.14130	-8.52657	-1.46543
1984.000	-8.85306	-1.22643	-8.92060	-1.45799
1985.000	-9.29068	-1.36623	-9.26372	-1.58609
1986.000	-9.51004	-1.42027	-9.56196	-1.55336
1987.000	-9.78097	-1.43480	-9.86159	-1.60094
1988.000	-10.13578	-1.49587	-10.00162	-1.54544
1989.000	-10.26217	-1.53244	-10.39611	-1.70776
1990.000	-10.50509	-1.64462	-10.65028	-1.73175
1991.000	-10.74763	-1.76830	-10.80296	-1.73088
1992.000	-10.95930	-1.76509	-11.09072	-1.81892
1993.000	-11.12880	-1.83428	-11.28669	-1.83133
1994.000	-11.21252	-1.81036	-11.48808	-1.86898
1995.000	-11.33041	-1.83300	-11.55072	-1.79847
1996.000	-11.50517	-1.90198	-11.79721	-1.85329
1997.000	-11.60574	-1.85847	-11.94489	-1.81923
1998.000	-11.59246	-1.86829	-12.01489	-1.83820
1999.000	-11.52225	-1.87265	-12.00543	-1.79161
2000.000	-11.41972	-1.82268	-11.96759	-1.75298
2001.000	-11.34752	-1.77833	-11.90704	-1.69502
2002.000	-11.26007	-1.72234	-11.85971	-1.57859
2003.000	-11.13260	-1.70750	-11.75742	-1.57724
2004.000	-11.06407	-1.62596	-11.70435	-1.50357
2005.000	-10.97454	-1.61475	-11.58867	-1.51198
2006.000	-10.99360	-1.60098	-11.44061	-1.48745
2007.000	-10.96692	-1.54258	-11.39312	-1.47990
2008.000	-10.92881	-1.55644	-11.36652	-1.53071
2009.000	-10.94596	-1.50560	-11.26197	-1.54102
2010.000	-10.98407	-1.50541	-11.14402	-1.55725
2011.000	-11.04693	-1.53826	-11.16115	-1.48890
2012.000	-11.08882	-1.56340	-11.11547	-1.58862
2013.000	-11.14402	-1.59431	-11.19730	-1.64082
2014.000	-11.22013	-1.51589	-11.21632	-1.65826
2015.000	-11.29429	-1.63832	-11.24866	-1.69511
2016.000	-11.31520	-1.60701	-11.30760	-1.76298
2017.000	-11.38362	-1.62027	-11.35512	-1.74126
2018.000	-11.39882	-1.58316	-11.44251	-1.74072
2019.000	-11.45960	-1.55164	-11.54313	-1.74205
2020.000	-11.52035	-1.60780	-11.62092	-1.82333
2021.000	-11.56780	-1.61921	-11.62282	-1.72014
2022.000	-11.53174	-1.59799	-11.67971	-1.79375
2023.000	-11.57539	-1.56464	-11.82183	-1.73252
2024.000	-11.57729	-1.58605	-11.81994	-1.73642
2025.000	-11.61143	-1.62675	-11.87485	-1.74968
2026.000	-11.49568	-1.56119	-11.83130	-1.73051
2027.000	-11.60574	-1.55863	-11.91272	-1.75333
2028.000	-11.57918	-1.56851	-11.82751	-1.78111
2029.000	-11.59057	-1.64050	-11.87296	-1.72441
2030.000	-11.59626	-1.58984	-11.85592	-1.75953
2031.000	-11.54123	-1.58041	-11.85024	-1.75762
2032.000	-11.56021	-1.59783	-11.92218	-1.75132
2033.000	-11.58298	-1.64639	-11.89568	-1.75928
2034.000	-11.56970	-1.60167	-11.82373	-1.72667
2035.000	-11.56400	-1.56081	-11.84267	-1.73238
2036.000	-11.54882	-1.67580	-11.78205	-1.68218
2037.000	-11.49378	-1.62938	-11.74605	-1.70964
2038.000	-11.51466	-1.67016	-11.75553	-1.66482
2039.000	-11.51466	-1.62147	-11.80857	-1.67618
2040.000	-11.46340	-1.62955	-11.81426	-1.64307
2041.000	-11.47289	-1.62171	-11.79152	-1.69768
2042.000	-11.50896	-1.62539	-11.73468	-1.73890
2043.000	-11.43491	-1.65699	-11.77826	-1.70749
2044.000	-11.41972	-1.58694	-11.74037	-1.73692
2045.000	-11.40452	-1.59676	-11.70814	-1.65927
2046.000	-11.37792	-1.62030	-11.67212	-1.69063
2047.000	-11.41212	-1.58308	-11.69108	-1.66132
2048.000	-11.42921	-1.62975	-11.68539	-1.63021
2049.000	-11.37982	-1.61054	-11.66454	-1.69652
2050.000	-11.36842	-1.60086	-11.71762	-1.66700
2051.000	-11.40072	-1.60848	-11.68919	-1.62240
2052.000	-11.37792	-1.60276	-11.59626	-1.64241
2053.000	-11.44251	-1.57902	-11.68539	-1.57570
2054.000	-11.42921	-1.62585	-11.66833	-1.63615
2055.000	-11.37602	-1.60667	-11.61902	-1.59165
2056.000	-11.38932	-1.57736	-11.54503	-1.65635
2057.000	-11.39882	-1.63187	-11.63799	-1.63049
2058.000	-11.36272	-1.60479	-11.61523	-1.62672
2059.000	-11.35322	-1.61459	-11.59626	-1.67941
2060.000	-11.41592	-1.62593	-11.67023	-1.56411
2061.000	-11.37602	-1.59108	-11.65126	-1.64793
2062.000	-11.37602	-1.60277	-11.65506	-1.65764
2063.000	-11.44061	-1.59266	-11.65695	-1.59728
2064.000	-11.46530	-1.58084	-11.68350	-1.62049
2065.000	-11.46720	-1.47756	-11.60954	-1.56834
2066.000	-11.44061	-1.56539	-11.67402	-1.64001
2067.000	-11.45960	-1.57892	-11.66075	-1.61088
2068.000	-11.45010	-1.51857	-11.72899	-1.60659
2069.000	-11.45200	-1.56338	-11.66264	-1.61866
2070.000	-11.45770	-1.50489	-11.60764	-1.61898
2071.000	-11.43301	-1.54984	-11.68539	-1.61074
2072.000	-11.45200	-1.54779	-11.64178	-1.63825
2073.000	-11.42921	-1.56545	-11.66075	-1.58557
2074.000	-11.48049	-1.58075	-11.65885	-1.66541
2075.000	-11.45580	-1.54192	-11.67592	-1.63416
2076.000	-11.46530	-1.56135	-11.68539	-1.69444
2077.000	-11.45390	-1.58480	-11.69487	-1.63794
2078.000	-11.44631	-1.57120	-11.67781	-1.58548
2079.000	-11.50137	-1.54362	-11.63230	-1.67530
2080.000	-11.51656	-1.55717	-11.65695	-1.59144
2081.000	-11.48239	-1.59243	-11.70814	-1.65732
2082.000	-11.49568	-1.49300	-11.62471	-1.63640
2083.000	-11.49757	-1.54949	-11.65126	-1.68492
2084.000	-11.52605	-1.57660	-11.71573	-1.61835
2085.000	-11.49568	-1.55145	-11.62092	-1.61501
2086.000	-11.43871	-1.56150	-11.66454	-1.52520
2087.000	-11.54503	-1.52585	-11.62851	-1.63249
2088.000	-11.48049	-1.52036	-11.67781	-1.60494
2089.000	-11.49188	-1.54173	-11.73278	-1.60463
2090.000	-11.48998	-1.57485	-11.63040	-1.60717
2091.000	-11.51276	-1.51434	-11.67212	-1.63418
2092.000	-11.48618	-1.58462	-11.68919	-1.54648
2093.000	-11.52225	-1.52403	-11.69108	-1.59708
2094.000	-11.50517	-1.52607	-11.60195	-1.60343
2095.000	-11.54123	-1.52003	-11.65695	-1.58560
2096.000	-11.53174	-1.51424	-11.63230	-1.59353
2097.000	-11.50327	-1.50465	-11.73468	-1.57542
2098.000	-11.51656	-1.53380	-11.60954	-1.59366
2099.000	-11.56400	-1.48485	-11.66454	-1.69457
2100.000	-11.52795	-1.53958	-11.70435	-1.65540
2101.000	-11.49757	-1.50858	-11.71383	-1.60474
2102.000	-11.49568	-1.52417	-11.66833	-1.63225
2103.000	-11.48998	-1.54174	-11.74605	-1.66099
2104.000	-11.47289	-1.54962	-11.67592	-1.59717
2105.000	-11.52984	-1.51619	-11.68350	-1.63800
2106.000	-11.52225	-1.52792	-11.65695	-1.64595
2107.000	-11.56211	-1.52771	-11.69298	-1.61848
2108.000	-11.53744	-1.52200	-11.71383	-1.66507
2109.000	-11.51466	-1.54160	-11.67023	-1.62056
2110.000	-11.50327	-1.52608	-11.64368	-1.65966
2111.000	-11.49568	-1.49105	-11.69298	-1.66325
2112.000	-11.49757	-1.56312	-11.70625	-1.62035
2113.000	-11.51466	-1.52796	-11.74416	-1.61818
2114.000	-11.50707	-1.55917	-11.66075	-1.65955
2115.000	-11.53933	-1.52393	-11.68350	-1.66331
2116.000	-11.49947	-1.56506	-11.71193	-1.55998
2117.000	-11.48808	-1.56123	-11.68539	-1.63994
2118.000	-11.54313	-1.54534	-11.67592	-1.61858
2119.000	-11.50896	-1.54553	-11.67402	-1.61665
2120.000	-11.49757	-1.52026	-11.64937	-1.59343
2121.000	-11.47479	-1.55740	-11.75363	-1.53055
2122.000	-11.52984	-1.56294	-11.68160	-1.59908
2123.000	-11.52225	-1.51624	-11.71004	-1.66510
2124.000	-11.49378	-1.55730	-11.69487	-1.61263
2125.000	-11.50896	-1.51826	-11.68539	-1.57570
2126.000	-11.50707	-1.56891	-11.61523	-1.57999
2127.000	-11.52415	-1.55129	-11.68729	-1.59126
2128.000	-11.52225	-1.57857	-11.67592	-1.64973
2129.000	-11.50517	-1.55139	-11.63609	-1.61297
2130.000	-11.53933	-1.54926	-11.71004	-1.60476
2131.000	-11.53364	-1.49475	-11.62471	-1.55463
2132.000	-11.49568	-1.51833	-11.78963	-1.62181
2133.000	-11.54882	-1.54726	-11.72710	-1.56378
2134.000	-11.50896	-1.50462	-11.72141	-1.51905
2135.000	-11.52035	-1.56300	-11.74605	-1.55784
2136.000	-11.52984	-1.54347	-11.66264	-1.61866
2137.000	-11.54313	-1.57066	-11.73089	-1.57739
2138.000	-11.58677	-1.55678	-11.68160	-1.60103
2139.000	-11.53364	-1.53760	-11.62092	-1.66174
2140.000	-11.51846	-1.56885	-11.69487	-1.63015
2141.000	-11.53554	-1.51811	-11.70056	-1.62817
2142.000	-11.53744	-1.53953	-11.64937	-1.54865
2143.000	-11.47669	-1.55934	-11.65506	-1.63428
2144.000	-11.52225	-1.54156	-11.73657	-1.61434
2145.000	-11.53174	-1.60968	-11.67971	-1.56795
2146.000	-11.49378	-1.56120	-11.73089	-1.59880
2147.000	-11.52415	-1.60193	-11.74605	-1.53643
2148.000	-11.55072	-1.53556	-11.62851	-1.58381
2149.000	-11.51466	-1.58446	-11.70056	-1.53863
2150.000	-11.52035	-1.59416	-11.67023	-1.52322
2151.000	-11.47479	-1.54572	-11.69487	-1.55229
2152.000	-11.49947	-1.58259	-11.61902	-1.54492
2153.000	-11.53744	-1.59796	-11.60954	-1.60923
2154.000	-11.50896	-1.59228	-11.69677	-1.59510
2155.000	-11.52415	-1.57856	-11.67781	-1.59132
2156.000	-11.53364	-1.56682	-11.63230	-1.43191
2157.000	-11.52035	-1.58832	-11.65316	-1.60119
2158.000	-11.53554	-1.57460	-11.62851	-1.53124
2159.000	-11.55072	-1.57841	-11.60195	-1.53917
2160.000	-11.57729	-1.56268	-11.67023	-1.59525
2161.000	-11.50327	-1.55920	-11.71762	-1.54827
2162.000	-11.56780	-1.56468	-11.63040	-1.59354
2163.000	-11.51846	-1.54742	-11.72141	-1.51905
2164.000	-11.53933	-1.57653	-11.66833	-1.57969
2165.000	-11.52415	-1.55518	-11.61143	-1.51575
2166.000	-11.54882	-1.56673	-11.73847	-1.55399
2167.000	-11.53933	-1.57847	-11.68729	-1.57180
2168.000	-11.55452	-1.59981	-11.67592	-1.56797
2169.000	-11.55072	-1.59399	-11.63420	-1.53315
2170.000	-11.56021	-1.55304	-11.71952	-1.59108
2171.000	-11.54882	-1.57258	-11.63040	-1.54291
2172.000	-11.51086	-1.55331	-11.67971	-1.54848
2173.000	-11.53744	-1.53174	-11.72141	-1.53267
2174.000	-11.57159	-1.54324	-11.63989	-1.55843
2175.000	-11.56021	-1.60757	-11.68919	-1.59515
2176.000	-11.56780	-1.56858	-11.63609	-1.56819
2177.000	-11.50517	-1.60204	-11.66454	-1.58945
2178.000	-11.52035	-1.60585	-11.65126	-1.52722
2179.000	-11.49188	-1.58848	-11.70056	-1.55809
2180.000	-11.56021	-1.58030	-11.67023	-1.49012
2181.000	-11.48808	-1.55928	-11.67402	-1.56603
2182.000	-11.54123	-1.59404	-11.64558	-1.56230
2183.000	-11.51656	-1.58055	-11.62282	-1.63057
2184.000	-11.52984	-1.56100	-11.66075	-1.57584
2185.000	-11.57159	-1.54908	-11.58677	-1.61715
2186.000	-11.56400	-1.57054	-11.69108	-1.53089
2187.000	-11.62471	-1.52736	-11.70625	-1.54249
2188.000	-11.70056	-1.45881	-11.75932	-1.53635
2189.000	-11.73278	-1.46448	-11.82941	-1.52234
2190.000	-11.84645	-1.42496	-11.99030	-1.51950
2191.000	-11.93164	-1.37588	-12.10186	-1.47221
2192.000	-12.04514	-1.37141	-12.25109	-1.52190
2193.000	-12.14721	-1.26398	-12.35112	-1.34070
2194.000	-12.29829	-1.21857	-12.47369	-1.31677
2195.000	-12.40959	-1.20446	-12.58296	-1.24052
2196.000	-12.49819	-1.04872	-12.66391	-1.14700
2197.000	-12.56036	-1.03488	-12.75045	-1.07096
2198.000	-12.67332	-0.92576	-12.80310	-0.97765
2199.000	-12.66391	-0.85788	-12.84069	-0.87473
2200.000	-12.74857	-0.83431	-12.88955	-0.83384
2201.000	-12.70719	-0.77236	-12.90082	-0.77176
2202.000	-12.69025	-0.69673	-12.86324	-0.74279
2203.000	-12.63944	-0.76674	-12.79370	-0.68286
2204.000	-12.55094	-0.69516	-12.80310	-0.66150
2205.000	-12.50007	-0.74385	-12.69025	-0.66568
2206.000	-12.42844	-0.78485	-12.61497	-0.71246
2207.000	-12.40959	-0.76159	-12.55094	-0.72817
2208.000	-12.35112	-0.83366	-12.46803	-0.81969
2209.000	-12.34546	-0.88808	-12.38696	-0.86074
2210.000	-12.28319	-0.88829	-12.33037	-0.91728
2211.000	-12.29262	-0.98737	-12.26620	-0.91944
2212.000	-12.26997	-0.96996	-12.24543	-0.96033
2213.000	-12.26242	-1.00108	-12.25676	-1.00305
2214.000	-12.26997	-1.05936	-12.20955	-1.06737
2215.000	-12.29451	-1.03205	-12.28507	-1.09427
2216.000	-12.33980	-1.07850	-12.29262	-1.12533
2217.000	-12.27375	-1.09043	-12.25109	-1.15854
2218.000	-12.32282	-1.08246	-12.35112	-1.14839
2219.000	-12.34357	-1.06683	-12.36432	-1.04732
2220.000	-12.37376	-1.04340	-12.33791	-1.16010
2221.000	-12.30961	-1.00868	-12.40205	-1.00249
2222.000	-12.37376	-1.08030	-12.34169	-1.00272
2223.000	-12.43222	-1.01209	-12.40205	-1.05494
2224.000	-12.38319	-1.03170	-12.45861	-1.01975
2225.000	-12.41525	-0.99661	-12.47934	-1.01967
2226.000	-12.40393	-0.99860	-12.38507	-0.97148
2227.000	-12.40770	-1.00247	-12.44541	-0.99261
2228.000	-12.40582	-0.95003	-12.46992	-0.91096
2229.000	-12.36244	-0.98516	-12.52080	-0.95932
2230.000	-12.37753	-0.97150	-12.58107	-0.91833
2231.000	-12.37753	-0.92100	-12.51326	-0.86615
2232.000	-12.38319	-0.86658	-12.55659	-0.90677
2233.000	-12.38884	-0.93067	-12.46049	-0.84690
2234.000	-12.43222	-0.93634	-12.61120	-0.85611
2235.000	-12.40582	-0.88982	-12.58107	-0.85815
2236.000	-12.40582	-0.88205	-12.55282	-0.90096
2237.000	-12.39827	-0.90150	-12.50949	-0.90499
2238.000	-12.43599	-0.91885	-12.53022	-0.89910
2239.000	-12.37376	-0.84330	-12.56412	-0.95139
2240.000	-12.38507	-0.92680	-12.41147	-0.85872
2241.000	-12.42656	-0.95384	-12.42656	-0.82953
2242.000	-12.41147	-0.92282	-12.46615	-0.91874
2243.000	-12.40959	-0.85678	-12.45861	-0.91100
2244.000	-12.42467	-0.87033	-12.50761	-0.91277
2245.000	-12.35866	-0.98323	-12.55659	-0.92230
2246.000	-12.39639	-0.94424	-12.41147	-0.90728
2247.000	-12.41713	-0.90920	-12.41713	-0.83733
2248.000	-12.34923	-0.89584	-12.48876	-0.90701
2249.000	-12.41902	-0.90919	-12.43410	-0.88778
2250.000	-12.37941	-0.91905	-12.47557	-0.80024
2251.000	-12.34546	-0.89002	-12.47557	-0.95172
2252.000	-12.41336	-0.91310	-12.44918	-0.92268
2253.000	-12.36998	-0.91325	-12.40959	-0.91894
2254.000	-12.34735	-0.90944	-12.46803	-0.86630
2255.000	-12.35301	-0.89777	-12.45861	-0.90517
2256.000	-12.32470	-0.89398	-12.42090	-0.88782
2257.000	-12.34546	-0.95414	-12.42279	-0.89753
2258.000	-12.33791	-0.92113	-12.45295	-0.90713
2259.000	-12.36244	-0.95796	-12.40205	-0.88983
2260.000	-12.37753	-0.92488	-12.40016	-0.95977
2261.000	-12.36244	-0.91522	-12.45484	-0.89936
2262.000	-12.31716	-0.94453	-12.45484	-0.93237
2263.000	-12.33225	-0.94253	-12.45295	-0.88189
2264.000	-12.33791	-0.93862	-12.40770	-0.84902
2265.000	-12.36621	-0.91521	-12.47369	-0.92454
2266.000	-12.36055	-0.87831	-12.48311	-0.92839
2267.000	-12.33037	-0.89396	-12.38884	-0.88599
2268.000	-12.31716	-0.89983	-12.44353	-0.87803
2269.000	-12.36055	-0.93465	-12.42844	-0.86254
2270.000	-12.28507	-0.96213	-12.41902	-0.88589
2271.000	-12.34169	-0.90169	-12.42656	-0.90723
2272.000	-12.32470	-0.92118	-12.36621	-0.92686
2273.000	-12.34546	-0.92305	-12.36055	-0.94048
2274.000	-12.32848	-0.94448	-12.37187	-0.90353
2275.000	-12.38696	-0.91319	-12.36810	-0.89772
2276.000	-12.32282	-0.95228	-12.38130	-0.92098
2277.000	-12.37941	-0.95207	-12.37187	-0.89187
2278.000	-12.34169	-0.88615	-12.43787	-0.87028
2279.000	-12.29640	-0.96403	-12.38884	-0.89182
2280.000	-12.41147	-0.95195	-12.43976	-0.85862
2281.000	-12.33603	-0.93669	-12.40582	-0.88982
2282.000	-12.33980	-0.97164	-12.40770	-0.83348
2283.000	-12.33791	-0.96971	-12.45107	-0.89937
2284.000	-12.35301	-0.98520	-12.38130	-0.86464
2285.000	-12.31150	-0.90763	-12.35678	-0.88804
2286.000	-12.36244	-0.92688	-12.39262	-0.85489
2287.000	-12.41525	-0.94417	-12.39639	-0.90927
2288.000	-12.39073	-0.94037	-12.40205	-0.90537
2289.000	-12.37753	-0.96179	-12.40205	-0.87040
2290.000	-12.43410	-0.94799	-12.45295	-0.91296
2291.000	-12.36810	-0.97737	-12.38884	-0.86462
2292.000	-12.34923	-0.91915	-12.41713	-0.87618
2293.000	-12.36055	-0.96574	-12.40393	-0.94615
2294.000	-12.39450	-0.97144	-12.39073	-0.91512
2295.000	-12.35866	-0.91329	-12.43787	-0.91884
2296.000	-12.36432	-0.95018	-12.42467	-0.89558
2297.000	-12.39450	-0.96756	-12.39450	-0.88014
2298.000	-12.31527	-0.90567	-12.48311	-0.81187
2299.000	-12.40582	-0.97140	-12.39827	-0.82962
2300.000	-12.37376	-0.91518	-12.39827	-0.92869
2301.000	-12.38130	-0.95983	-12.42467	-0.89169
2302.000	-12.39262	-0.93260	-12.43976	-0.90718
2303.000	-12.41525	-0.96165	-12.40205	-0.81990
2304.000	-12.36810	-0.97542	-12.31338	-0.82600
2305.000	-12.41336	-0.95777	-12.41902	-0.88006
2306.000	-12.42279	-0.94997	-12.41147	-0.95195
2307.000	-12.37376	-0.99677	-12.39262	-0.93648
2308.000	-12.37753	-0.90740	-12.44164	-0.91106
2309.000	-12.42090	-1.01019	-12.36621	-0.86469
2310.000	-12.39262	-0.95785	-12.40770	-0.88398
2311.000	-12.38884	-0.91707	-12.42844	-0.81787
2312.000	-12.37564	-0.94820	-12.42090	-0.90725
2313.000	-12.35678	-0.99295	-12.36055	-0.85694
2314.000	-12.36810	-0.95988	-12.34735	-0.94053
2315.000	-12.34357	-1.00855	-12.44541	-0.85666
2316.000	-12.39827	-0.91121	-12.39262	-0.86655
2317.000	-12.32848	-0.97557	-12.41336	-0.90339
2318.000	-12.33414	-1.00275	-12.47746	-0.90705
2319.000	-12.36055	-0.91717	-12.37187	-0.84330
2320.000	-12.39450	-0.94619	-12.29451	-0.84161
2321.000	-12.35301	-0.91720	-12.45295	-0.89936
2322.000	-12.42656	-0.91694	-12.43787	-0.88971
2323.000	-12.41336	-0.92087	-12.43976	-0.89553
2324.000	-12.38696	-0.97341	-12.42279	-0.87810
2325.000	-12.40959	-0.89757	-12.44918	-0.88578
2326.000	-12.37376	-0.97540	-12.42090	-0.94415
2327.000	-12.39262	-0.97922	-12.46992	-0.94009
2328.000	-12.36621	-0.99874	-12.40205	-0.93256
2329.000	-12.40016	-1.00833	-12.43222	-0.90332
2330.000	-12.36055	-0.95991	-12.41902	-0.94027
2331.000	-12.34169	-1.01438	-12.41147	-0.92865
2332.000	-12.40959	-0.98887	-12.38319	-0.93069
2333.000	-12.36810	-0.97348	-12.42656	-0.84313
2334.000	-12.37376	-0.96763	-12.41713	-0.88395
2335.000	-12.38130	-0.98509	-12.39262	-0.87238
2336.000	-12.38696	-0.99284	-12.46426	-0.89738
2337.000	-12.37753	-0.97345	-12.44730	-0.90327
2338.000	-12.38130	-0.96178	-12.42279	-0.88393
2339.000	-12.41525	-0.94029	-12.44918	-0.92268
2340.000	-12.34735	-0.95413	-12.42279	-0.89364
2341.000	-12.37753	-0.94625	-12.44353	-0.92270
2342.000	-12.39450	-0.95979	-12.48123	-0.86820
2343.000	-12.37941	-0.94624	-12.43410	-0.92080
2344.000	-12.37187	-0.95987	-12.34169	-0.92889
2345.000	-12.38130	-0.97343	-12.39073	-0.90929
2346.000	-12.38884	-1.05111	-12.46426	-0.93234
2347.000	-12.39827	-0.93840	-12.46238	-0.90322
2348.000	-12.38696	-0.97341	-12.41336	-0.93641
2349.000	-12.37376	-0.97346	-12.39827	-0.87430
2350.000	-12.38319	-0.93457	-12.41902	-0.87229
2351.000	-12.44353	-1.02370	-12.52268	-0.90301
2352.000	-12.40770	-0.95780	-12.44918	-0.84888
2353.000	-12.42844	-0.93441	-12.43410	-0.91885
2354.000	-12.37941	-0.98315	-12.41713	-0.92474
2355.000	-12.37941	-0.97150	-12.38696	-0.88599
2356.000	-12.38319	-0.94040	-12.45295	-0.93432
2357.000	-12.35678	-0.98518	-12.43787	-0.91690
2358.000	-12.32093	-0.96783	-12.38884	-0.90541
2359.000	-12.42090	-1.01019	-12.34923	-0.93858
2360.000	-12.34923	-0.94052	-12.36810	-0.95211
2361.000	-12.34169	-0.99690	-12.38507	-0.93068
2362.000	-12.35301	-0.89000	-12.41147	-0.93059
2363.000	-12.40393	-0.98306	-12.38696	-0.85103
2364.000	-12.35489	-0.99296	-12.35301	-0.88028
2365.000	-12.42844	-0.98297	-12.43787	-0.95574
2366.000	-12.38130	-1.00063	-12.37941	-0.95790
2367.000	-12.37187	-1.00455	-12.41147	-0.96749
2368.000	-12.34923	-1.05515	-12.42467	-0.97716
2369.000	-12.41147	-0.94613	-12.45672	-0.91877
2370.000	-12.36432	-0.96961	-12.37941	-0.94819
2371.000	-12.39450	-0.95202	-12.42844	-0.85672
2372.000	-12.37376	-0.99677	-12.43599	-0.87029
2373.000	-12.31904	-0.96006	-12.36055	-0.97351
2374.000	-12.33791	-0.96971	-12.37376	-0.96763
2375.000	-12.39827	-0.91704	-12.39827	-0.96560
2376.000	-12.32659	-0.97947	-12.39827	-0.89955
2377.000	-12.36432	-0.94047	-12.44164	-0.91883
2378.000	-12.36810	-0.94240	-12.34169	-0.88615
2379.000	-12.38507	-0.94622	-12.41336	-0.82763
2380.000	-12.32470	-0.99307	-12.39450	-0.91316
2381.000	-12.38696	-0.96758	-12.36244	-0.94630
2382.000	-12.39073	-0.98505	-12.42844	-0.93635
2383.000	-12.42656	-0.97326	-12.41902	-0.96552
2384.000	-12.34923	-0.98910	-12.41902	-0.92085
2385.000	-12.40393	-0.93061	-12.42656	-0.96938
2386.000	-12.36055	-0.93854	-12.36810	-0.83943
2387.000	-12.38696	-0.95204	-12.40205	-0.94810
2388.000	-12.33037	-0.96974	-12.46615	-0.94399
2389.000	-12.36432	-0.97932	-12.36055	-0.92883
2390.000	-12.36810	-1.00068	-12.35112	-0.83754
2391.000	-12.36810	-0.93851	-12.42467	-0.87615
2392.000	-12.35866	-0.91523	-12.37376	-0.89770
2393.000	-12.39073	-0.94814	-12.37564	-0.89769
2394.000	-12.35489	-1.00073	-12.40205	-0.91120
2395.000	-12.32659	-1.00667	-12.37753	-0.89185
2396.000	-12.31716	-0.96396	-12.34546	-0.89585
2397.000	-12.31904	-0.92314	-12.45484	-0.91295
2398.000	-12.36244	-0.93271	-12.41336	-0.87036
2399.000	-12.33791	-0.94834	-12.39827	-0.95394
2400.000	-12.27941	-0.98741	-12.36432	-0.90938
2401.000	-12.34546	-0.99300	-12.34923	-0.86475
2402.000	-12.34735	-0.95607	-12.39073	-0.88598
2403.000	-12.30772	-0.99119	-12.32282	-0.88621
2404.000	-12.29451	-0.94655	-12.38319	-0.88212
2405.000	-12.33414	-0.96584	-12.46049	-0.93041
2406.000	-12.36998	-0.94628	-12.30772	-0.83962
2407.000	-12.34169	-0.93861	-12.43976	-0.86057
2408.000	-12.33603	-0.95223	-12.36810	-0.80252
2409.000	-12.31904	-0.96201	-12.31904	-0.85902
2410.000	-12.33603	-0.96389	-12.31338	-0.82989
2411.000	-12.29074	-0.92713	-12.38507	-0.88017
2412.000	-12.33225	-0.90755	-12.38696	-0.86851
2413.000	-12.31716	-0.98533	-12.43787	-0.82172
2414.000	-12.31904	-0.95035	-12.37753	-0.82580
2415.000	-12.35678	-0.88610	-12.30772	-0.84740
2416.000	-12.33603	-0.91920	-12.41336	-0.93447
2417.000	-12.36244	-0.96573	-12.31716	-0.91538
2418.000	-12.32282	-0.96005	-12.48123	-0.88179
2419.000	-12.33603	-0.96389	-12.37376	-0.91712
2420.000	-12.37376	-0.95403	-12.40770	-0.80822
2421.000	-12.37187	-0.95210	-12.40393	-0.86651
2422.000	-12.30395	-0.97372	-12.43787	-0.90136
2423.000	-12.37941	-0.91128	-12.30206	-0.92515
2424.000	-12.36055	-0.97351	-12.41336	-0.89950
2425.000	-12.33037	-0.96196	-12.40393	-0.90536
2426.000	-12.33414	-0.95029	-12.41902	-0.83732
2427.000	-12.33225	-0.93864	-12.42279	-0.90530
2428.000	-12.35301	-0.94051	-12.37187	-0.82970
2429.000	-12.37564	-0.93654	-12.36244	-0.88413
2430.000	-12.36055	-0.94631	-12.43222	-0.89944
2431.000	-12.31338	-0.95037	-12.46803	-0.94980
2432.000	-12.36621	-0.96183	-12.42090	-0.92278
2433.000	-12.41525	-0.97525	-12.41713	-0.94416
2434.000	-12.32282	-0.96394	-12.34169	-0.96775
2435.000	-12.36998	-0.98513	-12.43033	-0.89750
2436.000	-12.33414	-0.99887	-12.37376	-0.89187
2437.000	-12.40016	-0.98502	-12.42844	-0.86837
2438.000	-12.36810	-0.93268	-12.41713	-0.89172
2439.000	-12.29262	-0.98348	-12.42656	-0.88780
2440.000	-12.37187	-0.98318	-12.31527	-0.91538
2441.000	-12.34169	-0.93278	-12.39262	-0.88598
2442.000	-12.36621	-0.95600	-12.46426	-0.92263
2443.000	-12.36810	-0.94240	-12.40205	-0.83349
2444.000	-12.34357	-0.93666	-12.39639	-0.86071
2445.000	-12.34923	-0.91138	-12.37941	-0.84911
2446.000	-12.31338	-0.95814	-12.35301	-0.85114
2447.000	-12.34169	-0.94832	-12.42656	-0.88586
2448.000	-12.32659	-0.89980	-12.43410	-0.87030
2449.000	-12.33791	-0.89393	-12.36998	-0.90742
2450.000	-12.33603	-0.99109	-12.39639	-0.94035
2451.000	-12.40016	-0.92092	-12.37564	-0.94820
2452.000	-12.33980	-0.93084	-12.38319	-0.92292
2453.000	-12.36244	-0.97156	-12.41713	-0.91309
2454.000	-12.30017	-0.92904	-12.37564	-0.90352
2455.000	-12.36621	-0.96183	-12.44541	-0.92658
2456.000	-12.36244	-0.92493	-12.42656	-0.93830
2457.000	-12.32093	-0.93674	-12.34169	-0.99884
2458.000	-12.35866	-0.95603	-12.36810	-0.84137
2459.000	-12.35301	-0.96965	-12.42279	-0.92472
2460.000	-12.32659	-1.00472	-12.43599	-0.89554
2461.000	-12.31527	-0.93676	-12.42844	-0.94024
2462.000	-12.28507	-0.92326	-12.30395	-0.87656
2463.000	-12.20766	-0.88660	-12.13021	-0.96075
2464.000	-11.92029	-0.97123	-11.93921	-0.94392
2465.000	-11.71762	-0.96611	-11.62092	-0.95086
2466.000	-11.45010	-0.99627	-11.16305	-0.85482
2467.000	-11.05836	-1.11864	-10.87543	-1.00020
2468.000	-10.67701	-1.19628	-10.44392	-1.04855
2469.000	-10.15494	-1.24526	-9.83664	-1.09561
2470.000	-9.75985	-1.34671	-9.25409	-1.12693
2471.000	-9.08839	-1.39646	-8.71983	-1.31335
2472.000	-8.43567	-1.40481	-8.15885	-1.35463
2473.000	-7.95922	-1.49313	-7.45250	-1.42198
2474.000	-7.23275	-1.55482	-6.74777	-1.50313
2475.000	-6.79456	-1.62932	-6.13090	-1.65517
2476.000	-6.16999	-1.64912	-5.61640	-1.83868
2477.000	-5.78279	-1.71357	-5.05783	-2.04622
2478.000	-5.26766	-1.76652	-4.49830	-2.04590
2479.000	-4.84395	-1.83699	-3.99693	-2.33260
2480.000	-4.27817	-1.87015	-3.60918	-2.45059
2481.000	-3.87100	-1.91273	-3.16394	-2.47550
2482.000	-3.38267	-1.95542	-2.77552	-2.50414
2483.000	-3.05158	-2.09891	-2.29605	-2.57252
2484.000	-2.57233	-2.22679	-1.96240	-2.76354
2485.000	-2.08284	-2.30101	-1.46266	-2.92495
2486.000	-1.70762	-2.58734	-1.05560	-3.10393
2487.000	-1.23939	-2.66330	-0.63855	-3.26292
2488.000	-0.84214	-2.81844	-0.23526	-3.36818
2489.000	-0.41912	-2.89408	0.26887	-3.50297
2490.000	0.05338	-3.12231	0.70575	-3.75833
2491.000	0.55947	-3.25305	1.13860	-3.75193
2492.000	0.97457	-3.49457	1.54367	-3.98491
2493.000	1.42513	-3.67427	2.09666	-4.19336
2494.000	1.81428	-3.84780	2.43618	-4.30110
2495.000	2.31184	-3.96334	2.85243	-4.46560
2496.000	2.73607	-4.12616	3.31371	-4.57815
2497.000	3.08904	-4.20194	3.67416	-4.72235
2498.000	3.57767	-4.31044	4.09923	-4.75151
2499.000	4.03628	-4.39300	4.61814	-4.82504
2500.000	4.46883	-4.39054	4.98328	-4.85986
2501.000	4.91460	-4.54339	5.33038	-4.73723
2502.000	5.40093	-4.53008	5.79257	-4.78857
2503.000	5.78866	-4.52316	6.16413	-4.79515
2504.000	6.25987	-4.53890	6.60735	-4.71252
2505.000	6.74582	-4.46581	7.06536	-4.73548
2506.000	7.14713	-4.52676	7.56910	-4.65768
2507.000	7.58464	-4.38314	7.85060	-4.54494
2508.000	8.09297	-4.33865	8.29634	-4.52039
2509.000	8.51303	-4.27925	8.73914	-4.54058
2510.000	8.91674	-4.20232	8.99005	-4.31091
2511.000	9.38692	-4.17336	9.35805	-4.20885
2512.000	9.73873	-4.12225	9.65421	-4.12133
2513.000	10.16834	-4.08568	9.94984	-4.09038
2514.000	10.45348	-4.06253	10.03613	-3.97429
2515.000	10.71519	-3.91707	10.32916	-3.95507
2516.000	10.89831	-3.88746	10.45539	-3.97100
2517.000	11.10976	-3.79917	10.63501	-3.94729
2518.000	11.18589	-3.77292	10.57962	-3.94800
2519.000	11.27908	-3.72119	10.59108	-3.99261
2520.000	11.20681	-3.69880	10.54331	-3.94846
2521.000	11.13260	-3.67836	10.45348	-3.91456
2522.000	11.02217	-3.67780	10.39037	-4.03803
2523.000	10.86209	-3.67200	10.14727	-4.09763
2524.000	10.69419	-3.73634	10.11087	-4.13317
2525.000	10.53758	-3.77525	9.97477	-4.16999
2526.000	10.40759	-3.81190	9.89997	-4.19823
2527.000	10.24686	-3.86257	9.78481	-4.27963
2528.000	10.12620	-3.91861	9.73297	-4.29004
2529.000	10.06680	-3.98756	9.69839	-4.32363
2530.000	10.04763	-4.08916	9.64076	-4.42577
2531.000	10.02654	-4.14984	9.75409	-4.46131
2532.000	9.99970	-4.17162	9.79057	-4.39456
2533.000	9.98436	-4.26535	9.80209	-4.48015
2534.000	10.06871	-4.30905	9.97669	-4.40377
2535.000	10.13386	-4.35880	9.94217	-4.49773
2536.000	10.22197	-4.42378	10.10321	-4.54806
2537.000	10.35785	-4.43356	10.15877	-4.45191
2538.000	10.45157	-4.42056	10.13386	-4.47756
2539.000	10.56242	-4.48897	10.18558	-4.37757
2540.000	10.63882	-4.46453	10.24111	-4.34761
2541.000	10.76862	-4.41989	10.23920	-4.34374
2542.000	10.82776	-4.39183	10.34064	-4.26840
2543.000	10.91165	-4.38283	10.25834	-4.28119
2544.000	10.94977	-4.32595	10.28705	-4.19320
2545.000	10.96883	-4.34898	10.34064	-4.29954
2546.000	11.02027	-4.31133	10.25643	-4.17219
2547.000	11.01074	-4.25515	10.31576	-4.22202
2548.000	11.03360	-4.26259	10.35594	-4.21564
2549.000	10.99931	-4.20288	10.33107	-4.22960
2550.000	11.02217	-4.22974	10.25643	-4.24618
2551.000	10.98979	-4.19524	10.35020	-4.19236
2552.000	10.94787	-4.13949	10.28705	-4.16789
2553.000	10.94977	-4.17444	10.22771	-4.16477
2554.000	10.89640	-4.11688	10.18558	-4.18675
2555.000	10.91737	-4.10105	10.25643	-4.15856
2556.000	10.86209	-4.07265	10.25068	-4.20536
2557.000	10.83730	-4.06715	10.20665	-4.20205
2558.000	10.83920	-4.04963	10.17218	-4.22198
2559.000	10.80487	-4.08314	10.19899	-4.14957
2560.000	10.80106	-4.05403	10.15494	-4.14429
2561.000	10.76290	-4.00981	10.16643	-4.19674
2562.000	10.76672	-4.03893	10.18367	-4.19846
2563.000	10.76862	-4.02919	10.06680	-4.21946
2564.000	10.76099	-4.08957	10.08979	-4.18994
2565.000	10.75336	-4.04300	10.04571	-4.24507
2566.000	10.73618	-4.04323	10.02846	-4.17710
2567.000	10.69801	-4.06708	10.07446	-4.25248
2568.000	10.68465	-4.04392	10.04955	-4.20215
2569.000	10.69992	-4.05928	10.02463	-4.21806
2570.000	10.68847	-4.04970	10.08213	-4.20758
2571.000	10.67892	-4.05372	9.96902	-4.16032
2572.000	10.66556	-4.11031	9.96902	-4.23632
2573.000	10.65983	-4.08315	9.97861	-4.19527
2574.000	10.68656	-4.08085	10.02654	-4.18686
2575.000	10.71328	-4.09410	10.00737	-4.19490
2576.000	10.69992	-4.14096	10.01887	-4.27854
2577.000	10.71137	-4.12525	10.09171	-4.23862
2578.000	10.71901	-4.12320	10.00929	-4.19098
2579.000	10.70374	-4.12535	10.12620	-4.14856
2580.000	10.74191	-4.17733	10.07830	-4.27970
2581.000	10.74573	-4.16755	9.99970	-4.26515
2582.000	10.76290	-4.11871	10.13195	-4.19719
2583.000	10.76672	-4.12644	10.08405	-4.24067
2584.000	10.74573	-4.13839	10.06296	-4.15522
2585.000	10.78770	-4.14948	10.04955	-4.19631
2586.000	10.73237	-4.14829	10.02463	-4.22001
2587.000	10.77053	-4.17305	10.00162	-4.24954
2588.000	10.78007	-4.16903	10.08021	-4.29721
2589.000	10.80487	-4.14147	10.01312	-4.20652
2590.000	10.77626	-4.14964	10.00929	-4.33516
2591.000	10.79343	-4.13774	10.19133	-4.28015
2592.000	10.79724	-4.11436	10.06680	-4.35387
2593.000	10.75527	-4.17326	10.09938	-4.21904
2594.000	10.76862	-4.14974	10.02079	-4.24734
2595.000	10.76290	-4.14788	10.08213	-4.34198
2596.000	10.77244	-4.16913	10.06680	-4.30518
2597.000	10.78770	-4.11837	10.11470	-4.26169
2598.000	10.77244	-4.08164	10.04763	-4.28595
2599.000	10.79533	-4.10855	10.07638	-4.22518
2600.000	10.78961	-4.10668	10.10321	-4.19561
2601.000	10.77626	-4.13214	10.05146	-4.25863
2602.000	10.78389	-4.13787	10.06488	-4.21949
2603.000	10.76290	-4.10316	10.08596	-4.26986
2604.000	10.80106	-4.14541	10.15494	-4.31958
2605.000	10.80678	-4.09090	10.04955	-4.35605
2606.000	10.80487	-4.14536	10.12812	-4.27709
2607.000	10.76481	-4.13035	10.04763	-4.24894
2608.000	10.74763	-4.14420	10.08405	-4.21729
2609.000	10.77244	-4.15358	10.13003	-4.24980
2610.000	10.78389	-4.17092	10.11662	-4.39409
2611.000	10.76481	-4.14785	10.08788	-4.22698
2612.000	10.80296	-4.12983	10.09554	-4.30869
2613.000	10.74382	-4.11897	10.05913	-4.27022
2614.000	10.74382	-4.13258	10.10321	-4.29106
2615.000	10.76672	-4.10311	10.10704	-4.21310
2616.000	10.76290	-4.14982	10.05146	-4.26447
2617.000	10.76099	-4.13429	10.17218	-4.27067
2618.000	10.79343	-4.13385	10.13195	-4.31404
2619.000	10.76672	-4.13616	10.13770	-4.33928
2620.000	10.77626	-4.13020	10.13195	-4.31210
2621.000	10.76099	-4.18484	10.09171	-4.31458
2622.000	10.75908	-4.15959	10.12812	-4.29657
2623.000	10.71328	-4.12911	10.17218	-4.32324
2624.000	10.75908	-4.14404	10.18367	-4.35423
2625.000	10.71137	-4.12719	10.05530	-4.33649
2626.000	10.72855	-4.11918	10.16834	-4.34276
2627.000	10.74382	-4.15592	10.06680	-4.37334
2628.000	10.72473	-4.12312	10.20282	-4.34424
2629.000	10.71328	-4.09410	10.09938	-4.44494
2630.000	10.74191	-4.11122	10.13578	-4.35488
2631.000	10.73809	-4.13849	10.15110	-4.26705
2632.000	10.75145	-4.14414	10.14153	-4.32170
2633.000	10.74763	-4.15392	10.11470	-4.35712
2634.000	10.75336	-4.17911	10.09938	-4.36122
2635.000	10.74000	-4.12875	10.14536	-4.34112
2636.000	10.73809	-4.15211	10.09171	-4.36911
2637.000	10.73428	-4.14632	10.07638	-4.37711
2638.000	10.74573	-4.13061	10.05146	-4.32096
2639.000	10.74382	-4.14619	10.04380	-4.32106
2640.000	10.71137	-4.17192	10.08596	-4.29324
2641.000	10.74763	-4.14614	10.21048	-4.31688
2642.000	10.75718	-4.15573	10.08788	-4.32242
2643.000	10.75336	-4.11690	10.19899	-4.34235
2644.000	10.75145	-4.07220	10.09938	-4.28332
2645.000	10.75527	-4.11104	10.11470	-4.35712
2646.000	10.72664	-4.13282	10.11854	-4.35706
2647.000	10.75336	-4.11884	10.12045	-4.34341
2648.000	10.74000	-4.11319	10.09746	-4.35151
2649.000	10.75145	-4.09553	10.13003	-4.30044
2650.000	10.74573	-4.11117	10.09746	-4.38266
2651.000	10.74954	-4.13639	10.05913	-4.31891
2652.000	10.76099	-4.13235	10.04955	-4.36384
2653.000	10.70374	-4.14674	10.08788	-4.30490
2654.000	10.76099	-4.14013	10.11854	-4.40574
2655.000	10.74573	-4.16950	10.08213	-4.33808
2656.000	10.71901	-4.18153	10.08788	-4.41200
2657.000	10.71328	-4.14272	10.09746	-4.33788
2658.000	10.74954	-4.15389	10.13578	-4.38214
2659.000	10.72473	-4.12895	10.10321	-4.37480
2660.000	10.71519	-4.12908	10.11087	-4.29680
2661.000	10.71901	-4.10764	10.00162	-4.35474
2662.000	10.70374	-4.12535	10.06871	-4.32463
2663.000	10.73046	-4.12888	10.08213	-4.33419
2664.000	10.72664	-4.10559	10.05721	-4.40073
2665.000	10.70565	-4.13699	10.10512	-4.32804
2666.000	10.69610	-4.11378	10.07638	-4.30310
2667.000	10.70565	-4.10393	10.05338	-4.30341
2668.000	10.68274	-4.13925	10.03421	-4.29002
2669.000	10.72092	-4.12317	10.03229	-4.34459
2670.000	10.70183	-4.12538	10.04763	-4.23920
2671.000	10.69801	-4.12348	10.10129	-4.31251
2672.000	10.71710	-4.12128	10.12237	-4.35701
2673.000	10.70183	-4.13315	10.05530	-4.35597
2674.000	10.70756	-4.13308	10.16068	-4.35455
2675.000	10.72092	-4.11928	9.94792	-4.27557
2676.000	10.72092	-4.10373	10.03613	-4.27441
2677.000	10.70756	-4.13697	10.07638	-4.36348
2678.000	10.74954	-4.10723	10.14344	-4.33726
2679.000	10.70183	-4.08842	10.08596	-4.25233
2680.000	10.74954	-4.12084	10.13195	-4.30431
2681.000	10.74954	-4.05472	10.12237	-4.36091
2682.000	10.73237	-4.14635	10.02271	-4.38562
2683.000	10.73237	-4.12691	10.13770	-4.41327
2684.000	10.72664	-4.16198	10.12045	-4.27330
2685.000	10.73618	-4.17741	10.04955	-4.29567
2686.000	10.71901	-4.18542	10.09746	-4.40019
2687.000	10.68847	-4.16056	10.05146	-4.36576
2688.000	10.73428	-4.15021	10.09938	-4.32422
2689.000	10.75145	-4.16164	10.08788	-4.30879
2690.000	10.72664	-4.13476	10.19707	-4.39298
2691.000	10.73809	-4.15988	10.05913	-4.34618
2692.000	10.72855	-4.16196	10.04380	-4.39507
2693.000	10.70183	-4.11954	10.13961	-4.36651
2694.000	10.72473	-4.11340	10.08596	-4.32050
2695.000	10.73618	-4.12685	10.08979	-4.33993
2696.000	10.74382	-4.14425	10.07830	-4.34008
2697.000	10.69610	-4.13129	10.14919	-4.33718
2698.000	10.75527	-4.12465	10.12428	-4.28883
2699.000	10.70374	-4.07673	10.09554	-4.33011
2700.000	10.74573	-4.14422	10.10321	-4.28522
2701.000	10.73428	-4.12105	10.13195	-4.28289
2702.000	10.74382	-4.11314	10.14344	-4.32363
2703.000	10.74573	-4.11117	10.10129	-4.35340
2704.000	10.75336	-4.07217	10.03613	-4.35233
2705.000	10.76099	-4.12263	10.07638	-4.30310
2706.000	10.72473	-4.09395	10.19516	-4.28204
2707.000	10.72473	-4.13090	10.09746	-4.32424
2708.000	10.74573	-4.13839	10.14536	-4.33139
2709.000	10.74000	-4.13458	9.99203	-4.26915
2710.000	10.71901	-4.12125	10.06871	-4.26035
2711.000	10.74000	-4.10541	10.09171	-4.28926
2712.000	10.75336	-4.08773	9.99970	-4.38788
2713.000	10.74382	-4.11897	10.04571	-4.29961
2714.000	10.71710	-4.10183	10.04955	-4.31125
2715.000	10.72855	-4.08223	10.11470	-4.36491
2716.000	10.74191	-4.10733	10.12428	-4.32583
2717.000	10.74191	-4.13261	9.98436	-4.33744
2718.000	10.73618	-4.12880	10.10512	-4.27935
2719.000	10.73618	-4.13463	10.10704	-4.23842
2720.000	10.78007	-4.06987	10.14919	-4.31965
2721.000	10.72664	-4.09198	10.04763	-4.21582
2722.000	10.76672	-4.10699	10.08021	-4.20565
2723.000	10.75527	-4.11882	10.11470	-4.32401
2724.000	10.74763	-4.06836	10.07063	-4.29149
2725.000	10.74954	-4.09556	10.14727	-4.32357
2726.000	10.73428	-4.09771	10.12237	-4.21874
2727.000	10.74763	-4.06447	10.00545	-4.29820
2728.000	10.73618	-4.08407	10.13195	-4.38025
2729.000	10.74000	-4.12097	10.10704	-4.27932
2730.000	10.73428	-4.12494	10.05146	-4.24694
2731.000	10.74763	-4.14614	10.19133	-4.38333
2732.000	10.73809	-4.10738	10.08021	-4.31279
2733.000	10.76099	-4.08568	10.10896	-4.26956
2734.000	10.74191	-4.12094	10.11854	-4.28306
2735.000	10.74954	-4.08389	10.16834	-4.35444
2736.000	10.76099	-4.12846	10.10896	-4.25398
2737.000	10.73046	-4.15415	10.04955	-4.29177
2738.000	10.71710	-4.14850	10.10129	-4.36119
2739.000	10.73809	-4.12294	10.07063	-4.26422
2740.000	10.75145	-4.14026	10.11087	-4.32796
2741.000	10.75908	-4.12265	10.09363	-4.31845
2742.000	10.72092	-4.14456	10.09554	-4.26000
2743.000	10.74382	-4.12869	10.11279	-4.35520
2744.000	10.77053	-4.12444	10.10704	-4.31633
2745.000	10.80869	-4.13364	10.01121	-4.31176
2746.000	10.78007	-4.13014	10.13770	-4.26333
2747.000	10.79343	-4.13385	10.15877	-4.34289
2748.000	10.75908	-4.16737	9.93833	-4.21528
2749.000	10.74763	-4.09948	10.02271	-4.33888
2750.000	10.74954	-4.11695	10.13386	-4.29649
2751.000	10.75145	-4.13442	10.09171	-4.33211
2752.000	10.75145	-4.13053	10.07255	-4.23887
2753.000	10.74382	-4.14425	10.20090	-4.35011
2754.000	10.75908	-4.11099	10.08213	-4.25628
2755.000	10.74000	-4.11319	10.11087	-4.21499
2756.000	10.72664	-4.11143	10.12428	-4.39398
2757.000	10.72282	-4.09398	10.14344	-4.32168
2758.000	10.75908	-4.09543	10.14536	-4.28465
2759.000	10.75718	-4.08962	10.12237	-4.33170
2760.000	10.75908	-4.10321	10.08979	-4.28345
2761.000	10.74382	-4.08591	10.15110	-4.26705
2762.000	10.74954	-4.10723	10.13195	-4.34325
2763.000	10.74000	-4.06652	10.19707	-4.36573
2764.000	10.73428	-4.08604	10.03996	-4.30553
2765.000	10.73046	-4.10749	10.14153	-4.38790
2766.000	10.75336	-4.10134	10.09746	-4.34177
2767.000	10.73237	-4.09968	10.13578	-4.33541
2768.000	10.72664	-4.12115	10.16260	-4.30195
2769.000	10.75527	-4.12854	10.11662	-4.30646
2770.000	10.70756	-4.14669	10.16068	-4.29613
2771.000	10.72664	-4.13087	10.11087	-4.29485
2772.000	10.74573	-4.15783	10.07638	-4.31673
2773.000	10.72282	-4.16204	10.11662	-4.28893
2774.000	10.73046	-4.15221	10.19516	-4.29762
2775.000	10.73428	-4.14827	10.20090	-4.26834
2776.000	10.75145	-4.14414	10.21239	-4.26234
2777.000	10.73809	-4.14627	10.19899	-4.27810
2778.000	10.73809	-4.10738	10.16643	-4.33305
2779.000	10.75336	-4.11495	10.16643	-4.28827
2780.000	10.72664	-4.12115	10.16068	-4.20850
2781.000	10.74763	-4.09753	10.25643	-4.38244
2782.000	10.69610	-4.11573	10.13003	-4.21864
2783.000	10.69610	-4.09239	10.20856	-4.28381
2784.000	10.70946	-4.11166	10.24494	-4.31252
2785.000	10.71328	-4.13494	10.21431	-4.23311
2786.000	10.73428	-4.09771	10.21814	-4.33430
2787.000	10.69228	-4.08272	10.07638	-4.32258
2788.000	10.70756	-4.12530	10.17409	-4.29595
2789.000	10.75145	-4.16748	10.24303	-4.29892
2790.000	10.70565	-4.11949	10.16834	-4.31940
2791.000	10.71901	-4.15042	10.14344	-4.29052
2792.000	10.73809	-4.16183	10.18750	-4.36781
2793.000	10.72855	-4.16196	10.09554	-4.37101
2794.000	10.71519	-4.19131	10.17409	-4.29985
2795.000	10.71137	-4.11552	10.13578	-4.27504
2796.000	10.72092	-4.14845	10.21048	-4.30520
2797.000	10.70183	-4.14871	10.24303	-4.33201
2798.000	10.71519	-4.19325	10.19899	-4.29757
2799.000	10.71901	-4.15237	10.17218	-4.28430
2800.000	10.71328	-4.14856	10.14919	-4.32744
2801.000	10.71137	-4.17580	10.26600	-4.27720
2802.000	10.72855	-4.16196	10.21622	-4.31096
2803.000	10.72282	-4.16204	10.14344	-4.30221
2804.000	10.70756	-4.20113	10.16260	-4.24742
2805.000	10.69419	-4.18576	10.21622	-4.29539
2806.000	10.76099	-4.14985	10.15110	-4.29821
2807.000	10.73809	-4.17738	10.13770	-4.26139
2808.000	10.75336	-4.16745	10.24494	-4.32031
2809.000	10.72473	-4.20284	10.22005	-4.30896
2810.000	10.71328	-4.17578	10.20473	-4.25660
2811.000	10.70756	-4.17780	10.21622	-4.32654
2812.000	10.72282	-4.19120	10.25451	-4.30266
2813.000	10.75145	-4.16359	10.24877	-4.24433
2814.000	10.71328	-4.18939	10.15302	-4.36439
2815.000	10.72282	-4.18148	10.26217	-4.30839
2816.000	10.71519	-4.19131	10.30619	-4.27665
2817.000	10.73237	-4.18135	10.15877	-4.18125
2818.000	10.70565	-4.16811	10.19707	-4.24891
2819.000	10.73809	-4.17738	10.23920	-4.29703
2820.000	10.74763	-4.16170	10.20856	-4.35779
2821.000	10.74000	-4.16958	10.14919	-4.29045
2822.000	10.73809	-4.21238	10.18941	-4.34442
2823.000	10.72855	-4.16779	10.18558	-4.31916
2824.000	10.74573	-4.18505	10.18558	-4.25296
2825.000	10.74382	-4.22396	10.22580	-4.23880
2826.000	10.70565	-4.20116	10.15494	-4.27284
2827.000	10.74000	-4.17152	10.18558	-4.32306
2828.000	10.71901	-4.21847	10.18367	-4.28609
2829.000	10.76481	-4.18284	10.24111	-4.30479
2830.000	10.71519	-4.16797	10.25451	-4.28319
2831.000	10.74000	-4.17930	10.22388	-4.30307
2832.000	10.75908	-4.17320	10.20090	-4.40850
2833.000	10.74954	-4.15195	10.24686	-4.32612
2834.000	10.72282	-4.16009	10.23728	-4.30289
2835.000	10.71328	-4.15050	10.22962	-4.37697
2836.000	10.70946	-4.16222	10.28131	-4.21469
2837.000	10.73237	-4.17746	10.07446	-4.25833
2838.000	10.71901	-4.18153	10.16068	-4.28250
2839.000	10.70946	-4.22055	10.23154	-4.29713
2840.000	10.74000	-4.14819	10.32341	-4.27253
2841.000	10.74000	-4.15791	10.28897	-4.23017
2842.000	10.70946	-4.11555	10.18175	-4.23159
2843.000	10.71710	-4.14656	10.25260	-4.19366
2844.000	10.72855	-4.13085	10.06680	-4.19219
2845.000	10.68465	-4.07893	10.03229	-4.25498
2846.000	10.53758	-3.96606	9.90380	-4.14944
2847.000	10.37698	-3.97979	9.86735	-4.14990
2848.000	10.10896	-3.92466	9.64652	-4.08240
2849.000	9.82705	-3.75632	9.43310	-3.98536
2850.000	9.50427	-3.58601	8.99776	-3.74771
2851.000	9.06332	-3.29492	8.64255	-3.71018
2852.000	8.57490	-3.12867	8.25181	-3.52567
2853.000	8.11041	-2.84758	7.81956	-3.27999
2854.000	7.68563	-2.60658	7.31445	-2.96905
2855.000	7.30667	-2.27006	6.94266	-2.78432
2856.000	6.77896	-1.87805	6.55467	-2.52622
2857.000	6.32042	-1.52812	6.12504	-2.08595
2858.000	5.88453	-1.20303	5.62815	-1.83469
2859.000	5.46559	-0.83765	5.38722	-1.61974
2860.000	5.13433	-0.49931	4.99505	-1.20481
2861.000	4.75953	-0.34100	4.62010	-1.08852
2862.000	4.45704	-0.07934	4.23689	-0.71222
2863.000	4.16610	0.13294	3.99300	-0.31356
2864.000	3.88478	0.31758	3.81983	-0.20446
2865.000	3.74897	0.37519	3.57767	-0.02581
2866.000	3.62296	0.59760	3.42995	0.10922
2867.000	3.51662	0.75452	3.35115	0.27606
2868.000	3.43192	0.78040	3.19350	0.42904
2869.000	3.37676	0.85192	3.24277	0.54620
2870.000	3.34721	0.82415	3.22701	0.61771
2871.000	3.41419	0.87572	3.13832	0.70913
2872.000	3.49101	1.01461	3.23489	0.74084
2873.000	3.57176	0.93314	3.28218	0.73286
2874.000	3.66825	1.03029	3.33736	0.84203
2875.000	3.72338	0.94886	3.47329	0.68705
2876.000	3.75684	0.87936	3.50283	0.70688
2877.000	3.70369	0.73451	3.44571	0.57389
2878.000	3.72731	0.73846	3.54025	0.54405
2879.000	3.77456	0.65903	3.59343	0.34151
2880.000	3.75291	0.56576	3.64856	0.23229
2881.000	3.76865	0.43077	3.64856	0.22038
2882.000	3.78637	0.40694	3.70172	0.02382
2883.000	3.73913	0.31763	3.68203	0.03772
2884.000	3.72535	0.28389	3.71944	-0.10125
2885.000	3.73125	0.18462	3.79031	-0.16476
2886.000	3.67219	0.20251	3.71944	-0.04765
2887.000	3.69385	0.14493	3.78440	-0.16476
2888.000	3.63872	0.16678	3.77653	-0.16873
2889.000	3.60524	0.19855	3.78637	-0.18858
2890.000	3.57570	0.25415	3.73913	-0.12904
2891.000	3.50283	0.26013	3.53631	-0.05758
2892.000	3.48314	0.31573	3.51662	-0.01986
2893.000	3.51662	0.42493	3.57767	0.19856
2894.000	3.42010	0.43093	3.47132	0.12113
2895.000	3.40434	0.49647	3.33341	0.25620
2896.000	3.34327	0.56998	3.21715	0.36547
2897.000	3.25460	0.56208	3.22701	0.42307
2898.000	3.25460	0.63755	3.16000	0.47673
2899.000	3.26051	0.75075	3.07129	0.54033
2900.000	3.17182	0.73691	3.02989	0.60392
2901.000	3.21518	0.78454	2.84257	0.66561
2902.000	3.19744	0.77661	2.89385	0.68743
2903.000	3.17379	0.79649	2.84849	0.79275
2904.000	3.18759	0.78655	2.92342	0.72516
2905.000	3.18365	0.87791	2.83666	0.73316
2906.000	3.19153	0.80839	2.89187	0.66757
2907.000	3.19153	0.81236	2.84849	0.73117
2908.000	3.19744	0.82229	2.86229	0.71924
2909.000	3.18365	0.81038	3.02201	0.67941
2910.000	3.22701	0.83815	3.01609	0.69530
2911.000	3.24474	0.83218	3.02398	0.66153
2912.000	3.24868	0.83019	3.01215	0.59400
2913.000	3.25460	0.82224	3.08904	0.50656
2914.000	3.28218	0.83413	3.11860	0.63565
2915.000	3.28810	0.79044	3.03778	0.44699
2916.000	3.29007	0.82023	3.04172	0.57213
2917.000	3.37085	0.81817	3.06144	0.60390
2918.000	3.33736	0.84600	3.15211	0.47872
2919.000	3.33538	0.78842	3.08312	0.49265
2920.000	3.39252	0.78242	3.13832	0.51249
2921.000	3.38464	0.81419	3.06735	0.40327
2922.000	3.34918	0.76855	3.04764	0.41718
2923.000	3.38070	0.76853	3.03187	0.48076
2924.000	3.36691	0.79038	3.10086	0.46285
2925.000	3.38267	0.75065	3.03384	0.47480
2926.000	3.38070	0.75463	2.91159	0.51061
2927.000	3.38661	0.74072	3.07721	0.40724
2928.000	3.35903	0.75663	2.98849	0.52051
2929.000	3.41025	0.76652	3.05552	0.42711
2930.000	3.41813	0.75261	3.06341	0.40327
2931.000	3.36691	0.74074	3.07721	0.44498
2932.000	3.36888	0.72485	3.11663	0.48469
2933.000	3.39055	0.75462	3.16985	0.42905
2934.000	3.40040	0.72880	3.09495	0.44696
2935.000	3.40040	0.73674	3.06341	0.44896
2936.000	3.42798	0.76253	3.06932	0.50657
2937.000	3.37873	0.74470	3.06144	0.42711
2938.000	3.39252	0.76455	3.03975	0.41917
2939.000	3.41222	0.79828	3.00821	0.55824
2940.000	3.40828	0.76056	3.05158	0.41917
2941.000	3.39252	0.73079	2.98849	0.51256
2942.000	3.42207	0.77048	3.11466	0.47278
2943.000	3.39646	0.72483	3.10086	0.48073
2944.000	3.38858	0.77051	2.97075	0.36953
2945.000	3.43389	0.80025	3.09692	0.45093
2946.000	3.44965	0.77046	3.07918	0.41320
2947.000	3.44177	0.76848	3.01609	0.42316
2948.000	3.45162	0.77244	3.08509	0.42114
2949.000	3.40434	0.75858	3.10875	0.46086
2950.000	3.40040	0.80425	3.04369	0.44897
2951.000	3.44374	0.81613	3.03384	0.45891
2952.000	3.42601	0.79232	3.04961	0.46089
2953.000	3.43389	0.76451	3.07918	0.47081
2954.000	3.41222	0.78836	3.03778	0.43705
2955.000	3.39843	0.75263	3.09889	0.55621
2956.000	3.42207	0.75857	3.07327	0.51650
2957.000	3.41616	0.79034	3.00032	0.40926
2958.000	3.40828	0.72681	3.13240	0.44496
2959.000	3.43586	0.81812	3.09889	0.42710
2960.000	3.42404	0.77246	3.01215	0.43706
2961.000	3.40040	0.77248	3.08509	0.48073
2962.000	3.43980	0.72678	3.03778	0.37348
2963.000	3.40434	0.69703	3.11072	0.51052
2964.000	3.40828	0.74071	3.13437	0.39331
2965.000	3.42995	0.73672	3.05947	0.51253
2966.000	3.36494	0.74272	3.06538	0.43903
2967.000	3.43192	0.74664	3.05552	0.46088
2968.000	3.35509	0.77649	3.04369	0.39533
2969.000	3.38464	0.75859	3.01609	0.48275
2970.000	3.38858	0.78043	3.03975	0.54432
2971.000	3.39252	0.76455	3.12649	0.40523
2972.000	3.37282	0.75463	3.16591	0.35556
2973.000	3.39843	0.77050	2.99046	0.50859
2974.000	3.37479	0.77846	3.03975	0.48473
2975.000	3.37479	0.74867	3.02201	0.41322
2976.000	3.40040	0.72086	3.05947	0.49862
2977.000	3.38661	0.79235	3.02792	0.43706
2978.000	3.37873	0.79037	3.05355	0.48075
2979.000	3.39252	0.76653	3.03975	0.44698
2980.000	3.42010	0.81813	2.99046	0.53044
2981.000	3.40434	0.76454	3.00624	0.43905
2982.000	3.37676	0.72485	3.05355	0.48671
2983.000	3.39449	0.80227	2.98455	0.42714
2984.000	3.35509	0.76855	3.01018	0.39932
2985.000	3.35903	0.76259	2.94314	0.44504
2986.000	3.36494	0.78442	3.03975	0.43308
2987.000	3.38267	0.76654	3.01609	0.44699
2988.000	3.38858	0.76455	3.02398	0.44699
2989.000	3.36297	0.74074	3.01807	0.42713
2990.000	3.34130	0.74473	3.01018	0.44898
2991.000	3.41222	0.77843	3.05355	0.50260
2992.000	3.41813	0.76850	3.01412	0.50858
2993.000	3.41025	0.78042	2.97469	0.52648
2994.000	3.40631	0.77248	3.03975	0.38937
2995.000	3.39646	0.77646	3.04172	0.38341
2996.000	3.42798	0.77047	3.05158	0.42711
2997.000	3.42010	0.74665	3.06341	0.40327
2998.000	3.41616	0.80225	3.01807	0.41322
2999.000	3.39843	0.77844	3.05355	0.51253
3000.000	3.40631	0.78042	2.99441	0.48276
3001.000	3.38464	0.73874	3.01215	0.51851
3002.000	3.39843	0.74667	3.02004	0.49268
3003.000	3.35509	0.77847	2.99441	0.46488
3004.000	3.35115	0.78443	3.01807	0.48474
3005.000	3.38464	0.72087	2.98652	0.43906
3006.000	3.36100	0.69507	2.99835	0.53044
3007.000	3.37282	0.72882	2.97272	0.49072
3008.000	3.39252	0.74072	2.98258	0.50859
3009.000	3.36494	0.76457	2.96483	0.57813
3010.000	3.42404	0.75856	2.94906	0.44702
3011.000	3.43192	0.78635	2.94117	0.47484
3012.000	3.39449	0.74667	2.99835	0.46885
3013.000	3.39449	0.78837	3.00821	0.48474
3014.000	3.42798	0.74665	2.95497	0.49073
3015.000	3.39055	0.73675	3.05355	0.54034
3016.000	3.38267	0.79235	2.99835	0.52448
3017.000	3.39252	0.73873	2.99638	0.44899
3018.000	3.38858	0.79235	2.96878	0.50463
3019.000	3.35115	0.77054	2.92342	0.52054
3020.000	3.35115	0.74869	3.06538	0.49664
3021.000	3.35706	0.74869	3.02595	0.51850
3022.000	3.35509	0.76457	3.00229	0.44899
3023.000	3.39252	0.72682	3.01018	0.47878
3024.000	3.41025	0.79630	3.01609	0.44501
3025.000	3.40434	0.73872	3.03187	0.45692
3026.000	3.42601	0.77842	2.95695	0.50066
3027.000	3.43586	0.74863	2.99046	0.46488
3028.000	3.35509	0.73082	2.94314	0.43510
3029.000	3.38858	0.76852	3.04172	0.44500
3030.000	3.41813	0.77644	3.01609	0.42316
3031.000	3.41222	0.74269	3.02004	0.45295
3032.000	3.41616	0.71489	3.02201	0.48275
3033.000	3.37676	0.80228	2.96878	0.46092
3034.000	3.40631	0.78042	3.01807	0.54036
3035.000	3.39252	0.76256	2.97272	0.46688
3036.000	3.37085	0.74272	2.91948	0.50465
3037.000	3.39449	0.74866	2.98849	0.50462
3038.000	3.42010	0.80225	2.98455	0.46489
3039.000	3.43192	0.80621	3.04764	0.42116
3040.000	3.41616	0.74467	3.01018	0.51255
3041.000	3.44768	0.75656	2.98849	0.42913
3042.000	3.41616	0.79630	3.03581	0.46486
3043.000	3.43980	0.78436	3.05749	0.45492
3044.000	3.40237	0.77645	3.08706	0.48868
3045.000	3.42601	0.78040	3.02792	0.51056
3046.000	3.39646	0.74469	3.00229	0.47084
3047.000	3.38661	0.80029	3.00032	0.47680
3048.000	3.41616	0.78041	3.01807	0.40925
3049.000	3.42798	0.78239	3.00426	0.48077
3050.000	3.43192	0.76253	2.97666	0.42714
3051.000	3.40434	0.79233	3.08115	0.48272
3052.000	3.44177	0.78833	2.97863	0.50065
3053.000	3.41025	0.77446	2.97666	0.49668
3054.000	3.43586	0.83797	2.98258	0.46091
3055.000	3.42995	0.83798	2.99244	0.43906
3056.000	3.39843	0.79830	3.04961	0.47280
3057.000	3.44965	0.82605	2.99638	0.49865
3058.000	3.39252	0.77844	3.11466	0.47079
3059.000	3.42010	0.76651	2.98849	0.58408
3060.000	3.40631	0.79630	3.04369	0.49466
3061.000	3.40828	0.79630	2.94906	0.49669
3062.000	3.38267	0.78838	2.96680	0.51655
3063.000	3.42207	0.80225	3.00624	0.46686
3064.000	3.41419	0.76651	2.97469	0.50065
3065.000	3.43783	0.80422	2.95300	0.45099
3066.000	3.45753	0.79229	3.01215	0.48871
3067.000	3.43980	0.77046	3.02989	0.53439
3068.000	3.39843	0.75660	2.99244	0.49667
3069.000	3.37676	0.76257	3.04567	0.52048
3070.000	3.38267	0.74668	2.99638	0.45694
3071.000	3.33736	0.74870	2.93920	0.50861
3072.000	3.42404	0.76253	2.95497	0.47881
3073.000	3.38267	0.74073	2.92145	0.50465
3074.000	3.42207	0.76651	3.00032	0.43508
3075.000	3.39055	0.74469	2.99046	0.52448
3076.000	3.41813	0.79629	3.02201	0.44898
3077.000	3.41616	0.76056	3.00032	0.44899
3078.000	3.38661	0.74072	2.98652	0.46489
3079.000	3.41222	0.74070	2.99244	0.45495
3080.000	3.39843	0.73873	2.94314	0.50066
3081.000	3.46344	0.78236	2.98652	0.49667
3082.000	3.41616	0.74467	2.86624	0.54639
3083.000	3.43980	0.76252	2.93723	0.50265
3084.000	3.40040	0.76454	2.99638	0.56024
3085.000	3.40237	0.79829	3.01018	0.52447
3086.000	3.37873	0.77250	2.97272	0.43112
3087.000	3.38661	0.77249	2.97272	0.59799
3088.000	3.41419	0.75261	3.05749	0.46287
3089.000	3.40040	0.75064	2.98652	0.48674
3090.000	3.40434	0.79233	3.11072	0.47079
3091.000	3.37873	0.74271	2.99835	0.51454
3092.000	3.38661	0.75462	2.95892	0.53443
3093.000	3.41813	0.77842	2.98849	0.55428
3094.000	3.36691	0.75662	2.93526	0.49073
3095.000	3.38267	0.68314	2.94906	0.51854
3096.000	3.36494	0.71095	3.00624	0.52447
3097.000	3.35509	0.74670	3.04567	0.54631
3098.000	3.36691	0.73875	2.93131	0.53047
3099.000	3.35509	0.72685	3.10283	0.50059
3100.000	3.38661	0.72087	3.01609	0.52248
3101.000	3.34918	0.67522	2.98258	0.60196
3102.000	3.39449	0.70498	3.06735	0.45889
3103.000	3.36100	0.67720	2.93920	0.46689
3104.000	3.37085	0.70499	2.99046	0.54832
3105.000	3.37085	0.69308	2.99638	0.50461
3106.000	3.39055	0.70498	3.02004	0.52049
3107.000	3.42995	0.71686	2.95300	0.46093
3108.000	3.41025	0.69901	2.97666	0.51654
3109.000	3.36494	0.73280	3.10678	0.48867
3110.000	3.34524	0.76855	2.94906	0.46887
3111.000	3.34524	0.66728	2.98258	0.42118
3112.000	3.34327	0.72090	2.99638	0.47481
3113.000	3.36100	0.76854	2.99835	0.56222
3114.000	3.33341	0.71296	3.04764	0.46089
3115.000	3.35509	0.71295	2.97272	0.53045
3116.000	3.34524	0.68317	3.02004	0.43905
3117.000	3.33341	0.67920	2.94314	0.40133
3118.000	3.38661	0.68711	3.02201	0.39931
3119.000	3.36691	0.70102	2.99835	0.42118
3120.000	3.37479	0.66130	2.98849	0.44303
3121.000	3.31765	0.69510	3.02004	0.34965
3122.000	3.37873	0.73874	3.04369	0.42314
3123.000	3.36888	0.66528	3.02004	0.50460
3124.000	3.38858	0.69307	3.02004	0.39534
3125.000	3.38661	0.70895	3.03384	0.50857
3126.000	3.34130	0.71693	2.98652	0.50859
3127.000	3.32750	0.67127	2.91357	0.51458
3128.000	3.39843	0.71093	3.06932	0.45293
3129.000	3.38267	0.72881	3.05947	0.42512
3130.000	3.30977	0.69312	3.03975	0.47877
3131.000	3.40040	0.69306	3.05749	0.40526
3132.000	3.41813	0.71687	3.02595	0.46288
3133.000	3.42995	0.77841	3.01018	0.48871
3134.000	3.38070	0.75860	2.92342	0.49074
3135.000	3.41222	0.71688	3.02201	0.48672
3136.000	3.37873	0.73080	2.95695	0.47284
3137.000	3.40237	0.72483	3.08904	0.49265
3138.000	3.37479	0.72882	2.99835	0.43111
3139.000	3.35312	0.70898	3.08115	0.43505
3140.000	3.32947	0.70304	3.02792	0.45891
3141.000	3.39055	0.73476	3.02398	0.42713
3142.000	3.40237	0.75064	2.96483	0.43311
3143.000	3.38267	0.77647	2.99441	0.50064
3144.000	3.39449	0.72285	3.01807	0.38938
3145.000	3.36691	0.72882	3.11269	0.42113
3146.000	3.40434	0.73078	3.00426	0.43508
3147.000	3.43980	0.72877	3.06538	0.37943
3148.000	3.45556	0.71089	3.03581	0.45692
3149.000	3.39449	0.68909	3.06144	0.47876
3150.000	3.37873	0.73080	3.05749	0.40725
3151.000	3.37085	0.74669	2.95892	0.43311
3152.000	3.37282	0.74272	2.99046	0.43906
3153.000	3.35312	0.73876	3.08115	0.41916
3154.000	3.34918	0.76259	3.05947	0.42512
3155.000	3.34721	0.73678	3.01609	0.32979
3156.000	3.37479	0.75860	2.95695	0.47483
3157.000	3.37282	0.76456	2.99441	0.44899
3158.000	3.38267	0.74668	3.07918	0.43902
3159.000	3.33341	0.74871	3.13437	0.36550
3160.000	3.36888	0.78442	3.01412	0.38938
3161.000	3.43389	0.73473	2.93920	0.36358
3162.000	3.39843	0.75660	3.02004	0.47480
3163.000	3.37873	0.79434	3.04961	0.46089
3164.000	3.35706	0.74273	3.04567	0.40725
3165.000	3.40434	0.75858	2.99244	0.37747
3166.000	3.39843	0.77050	3.05355	0.38937
3167.000	3.42798	0.74268	3.03778	0.51254
3168.000	3.36494	0.76854	2.95103	0.39537
3169.000	3.42010	0.76849	2.93723	0.46292
3170.000	3.44177	0.77443	3.07129	0.40923
3171.000	3.37873	0.76059	3.06144	0.32381
3172.000	3.40040	0.73277	3.01807	0.39534
3173.000	3.41813	0.74864	3.06538	0.41718
3174.000	3.38267	0.75264	3.02595	0.34369
3175.000	3.39843	0.77050	3.05355	0.32381
3176.000	3.36691	0.77449	2.95892	0.37947
3177.000	3.36691	0.74868	2.92342	0.37154
3178.000	3.37085	0.73478	2.96680	0.35761
3179.000	3.41419	0.77247	3.09298	0.37148
3180.000	3.33736	0.79437	3.00229	0.38542
3181.000	3.39449	0.75064	2.97469	0.48476
3182.000	3.38070	0.73080	2.94117	0.30001
3183.000	3.38464	0.76257	3.04369	0.41123
3184.000	3.37282	0.68911	3.04172	0.29998
3185.000	3.40040	0.72483	2.98061	0.46489
3186.000	3.37085	0.74471	3.03975	0.43507
3187.000	3.37873	0.76456	3.03581	0.36752
3188.000	3.34524	0.73678	3.05158	0.43506
3189.000	3.36691	0.72684	2.99441	0.39138
3190.000	3.37676	0.75860	3.06932	0.32977
3191.000	3.37873	0.77250	3.04961	0.37149
3192.000	3.34327	0.71891	3.07327	0.41916
3193.000	3.32947	0.74672	3.01807	0.41719
3194.000	3.33538	0.79040	3.08115	0.40724
3195.000	3.36100	0.76457	3.02004	0.43706
3196.000	3.36888	0.76655	3.09495	0.54032
3197.000	3.40434	0.78836	3.03581	0.45096
3198.000	3.35115	0.76656	2.97863	0.34768
3199.000	3.34327	0.73678	3.02595	0.39335
3200.000	3.39843	0.78241	3.16985	0.47275
3201.000	3.38661	0.75065	2.90371	0.46095
3202.000	3.35706	0.77649	3.00032	0.47283
3203.000	3.38070	0.74867	3.06341	0.47876
3204.000	3.35312	0.73678	3.07721	0.46683
3205.000	3.35115	0.76656	2.94511	0.49470
3206.000	3.34524	0.72884	3.12058	0.47277
3207.000	3.34524	0.73083	2.99244	0.42515
3208.000	3.33538	0.71495	2.98849	0.46687
3209.000	3.37676	0.73874	3.04172	0.37944
3210.000	3.34524	0.73083	3.05158	0.41321
3211.000	3.37873	0.77051	3.03384	0.42712
3212.000	3.35312	0.73082	2.95103	0.43510
3213.000	3.40040	0.78241	3.05158	0.35361
3214.000	3.37479	0.73875	3.01412	0.34767
3215.000	3.35706	0.71295	3.05158	0.32381
3216.000	3.36691	0.70500	3.00821	0.41720
3217.000	3.38661	0.72087	3.03187	0.44897
3218.000	3.37676	0.73080	2.98652	0.43310
3219.000	3.37873	0.73279	2.94709	0.44702
3220.000	3.35509	0.73479	2.94709	0.41921
3221.000	3.35115	0.70104	2.99046	0.39734
3222.000	3.34524	0.72884	3.00229	0.38740
3223.000	3.37282	0.72882	3.02792	0.43904
3224.000	3.35312	0.73678	3.12058	0.35955
3225.000	3.37873	0.72683	3.13832	0.35557
3226.000	3.33144	0.69708	3.02792	0.30396
3227.000	3.36297	0.70103	3.00229	0.31787
3228.000	3.33736	0.71892	3.06735	0.36354
3229.000	3.37479	0.63350	3.04172	0.38143
3230.000	3.35509	0.68912	3.03384	0.37348
3231.000	3.33144	0.72686	3.12649	0.31386
3232.000	3.37479	0.71889	3.02792	0.39137
3233.000	3.36494	0.73875	3.04369	0.32580
3234.000	3.37085	0.68315	3.08312	0.35559
3235.000	3.29992	0.70902	3.07129	0.38738
3236.000	3.34524	0.68118	2.97272	0.31986
3237.000	3.34130	0.73083	3.03384	0.35362
3238.000	3.33341	0.75268	3.01215	0.31588
3239.000	3.34130	0.72487	2.99244	0.41522
3240.000	3.33736	0.76062	3.08904	0.36552
3241.000	3.32553	0.68120	3.00426	0.39137
3242.000	3.39252	0.77249	3.11466	0.35756
3243.000	3.33538	0.75863	2.99638	0.37548
3244.000	3.36888	0.77251	3.06341	0.40724
3245.000	3.35312	0.72288	2.96483	0.35761
3246.000	3.33933	0.68913	3.07524	0.32778
3247.000	3.36691	0.71691	3.05749	0.39930
3248.000	3.37873	0.75860	3.02989	0.36951
3249.000	3.39055	0.75065	2.99441	0.34767
3250.000	3.40631	0.78439	3.01412	0.32383
3251.000	3.40631	0.71489	3.05552	0.37546
3252.000	3.40631	0.73277	3.03778	0.27415
3253.000	3.40237	0.75064	3.05552	0.39136
3254.000	3.42995	0.72679	3.02398	0.29005
3255.000	3.40237	0.75262	3.06144	0.33772
3256.000	3.38070	0.74073	3.02989	0.32779
3257.000	3.37479	0.75066	3.00821	0.31985
3258.000	3.44177	0.75656	3.13832	0.24235
3259.000	3.38070	0.72087	3.05552	0.29402
3260.000	3.36494	0.77251	3.10283	0.27414
3261.000	3.43586	0.73076	3.02792	0.21853
3262.000	3.40828	0.72879	3.12649	0.28208
3263.000	3.40828	0.72284	3.03778	0.26819
3264.000	3.36888	0.72088	3.04764	0.17681
3265.000	3.37282	0.71293	3.11663	0.30194
3266.000	3.40237	0.72284	3.05749	0.32381
3267.000	3.32356	0.72290	3.09298	0.20660
3268.000	3.34721	0.67324	3.14226	0.27015
3269.000	3.35312	0.68912	3.02201	0.28608
3270.000	3.36100	0.70301	3.04172	0.32183
3271.000	3.35903	0.64543	3.01609	0.26621
3272.000	3.32553	0.70503	3.04369	0.31388
3273.000	3.35115	0.67919	3.05355	0.33375
3274.000	3.36297	0.71294	3.06932	0.34566
3275.000	3.34130	0.67523	3.11663	0.37544
3276.000	3.34327	0.69906	3.08115	0.37347
3277.000	3.36691	0.69507	3.06735	0.32381
3278.000	3.38070	0.70101	3.06341	0.28805
3279.000	3.34327	0.71097	3.07524	0.28209
3280.000	3.38661	0.64342	3.04369	0.28210
3281.000	3.36297	0.71294	3.01412	0.29204
3282.000	3.36691	0.69308	3.15803	0.25029
3283.000	3.33736	0.69310	3.07327	0.30394
3284.000	3.35903	0.68316	3.09101	0.24037
3285.000	3.32356	0.67723	3.08312	0.24236
3286.000	3.33144	0.67921	3.14423	0.18275
3287.000	3.34524	0.70700	3.04567	0.20065
3288.000	3.33341	0.65537	3.08509	0.20263
3289.000	3.35903	0.69904	3.09298	0.25229
3290.000	3.35115	0.70501	3.12452	0.25427
3291.000	3.36691	0.71294	3.14620	0.20659
3292.000	3.35312	0.66330	3.10875	0.23441
3293.000	3.41222	0.69305	3.07129	0.24236
3294.000	3.35903	0.65933	3.04172	0.19072
3295.000	3.36888	0.62358	3.11072	0.26023
3296.000	3.39646	0.61959	3.14226	0.22049
3297.000	3.35312	0.61962	3.10678	0.23639
3298.000	3.32947	0.66531	3.09889	0.25030
3299.000	3.35509	0.66727	3.09298	0.23640
3300.000	3.35115	0.65338	3.22504	0.20260
3301.000	3.35312	0.65933	3.09101	0.25030
3302.000	3.35115	0.61763	3.15014	0.19864
3303.000	3.34130	0.59182	3.09495	0.24037
3304.000	3.38464	0.64541	3.17379	0.18672
3305.000	3.33736	0.65140	3.11466	0.19269
3306.000	3.34918	0.66132	3.08115	0.21057
3307.000	3.33736	0.61764	3.08509	0.18276
3308.000	3.38661	0.63548	3.14620	0.23837
3309.000	3.35115	0.63749	3.09692	0.27215
3310.000	3.33341	0.62162	3.10875	0.23043
3311.000	3.38858	0.63747	3.07721	0.26818
3312.000	3.37479	0.67322	3.08904	0.18872
3313.000	3.35509	0.64543	3.10678	0.22646
3314.000	3.39055	0.62357	3.12846	0.27016
3315.000	3.39646	0.63349	3.12452	0.21653
3316.000	3.39055	0.63945	3.08115	0.24633
3317.000	3.40828	0.65930	3.03384	0.22648
3318.000	3.36494	0.67521	3.06341	0.20462
3319.000	3.39055	0.64541	3.12649	0.22248
3320.000	3.37085	0.66329	3.08312	0.21057
3321.000	3.29598	0.63157	3.06538	0.18078
3322.000	3.32750	0.65141	3.11072	0.20858
3323.000	3.35706	0.63749	3.13437	0.28009
3324.000	3.34721	0.56402	3.07524	0.20462
3325.000	3.39055	0.63349	3.12058	0.22646
3326.000	3.33538	0.64942	3.08115	0.15892
3327.000	3.35903	0.60174	3.08509	0.23243
3328.000	3.34327	0.62955	3.04764	0.27217
3329.000	3.38267	0.56598	3.18759	0.20062
3330.000	3.36888	0.59379	3.06341	0.20859
3331.000	3.35706	0.59976	3.01215	0.20264
3332.000	3.38267	0.55010	3.15211	0.21255
3333.000	3.35509	0.58387	3.13832	0.15494
3334.000	3.32553	0.57197	3.20533	0.14897
3335.000	3.31962	0.56205	3.11860	0.17878
3336.000	3.35115	0.55210	3.05355	0.26422
3337.000	3.29204	0.57199	3.12649	0.10131
3338.000	3.34327	0.58785	3.12452	0.21653
3339.000	3.29992	0.56404	3.19350	0.25425
3340.000	3.33933	0.60573	3.12452	0.19666
3341.000	3.32356	0.60971	3.19350	0.24829
3342.000	3.32750	0.60772	3.02595	0.26025
3343.000	3.31568	0.57595	3.12058	0.21454
3344.000	3.33341	0.62360	3.13437	0.25427
3345.000	3.33736	0.64544	3.07524	0.23839
3346.000	3.35312	0.62359	3.10875	0.26420
3347.000	3.33933	0.66331	3.10678	0.31784
3348.000	3.32553	0.61566	3.05552	0.36950
3349.000	3.34524	0.63948	3.08115	0.30990
3350.000	3.32553	0.64148	3.07721	0.33374
3351.000	3.35312	0.67721	3.01609	0.39336
3352.000	3.36888	0.74471	3.15014	0.34365
3353.000	3.34918	0.67721	3.05947	0.38142
3354.000	3.40631	0.70695	3.06144	0.37943
3355.000	3.35706	0.71096	3.09495	0.49066
3356.000	3.34327	0.68317	3.18168	0.36747
3357.000	3.30386	0.65937	3.16197	0.38536
3358.000	3.33736	0.71693	3.08509	0.42313
3359.000	3.37873	0.71889	3.12255	0.34167
3360.000	3.35312	0.71692	3.11072	0.38935
3361.000	3.36888	0.69507	3.08904	0.34565
3362.000	3.34524	0.66132	3.07129	0.36751
3363.000	3.36297	0.64741	3.08706	0.37347
3364.000	3.32947	0.65935	3.15605	0.35358
3365.000	3.36888	0.60968	3.16591	0.38337
3366.000	3.34327	0.62955	3.06932	0.35957
3367.000	3.38267	0.65534	3.10086	0.40326
3368.000	3.35115	0.61168	3.07918	0.40525
3369.000	3.36100	0.61564	3.10481	0.40524
3370.000	3.33538	0.58190	3.14226	0.33968
3371.000	3.38267	0.58981	3.10481	0.33572
3372.000	3.35509	0.56600	3.12452	0.36948
3373.000	3.37676	0.63152	3.13634	0.34961
3374.000	3.41616	0.58383	3.09889	0.30195
3375.000	3.34327	0.55211	3.15803	0.37344
3376.000	3.35115	0.55409	3.18168	0.34165
3377.000	3.42601	0.56993	3.15408	0.33570
3378.000	3.40828	0.56200	3.17576	0.35953
3379.000	3.49101	0.56592	3.29795	0.32572
3380.000	3.56783	0.54205	3.27627	0.33765
3381.000	3.68400	0.58367	3.41813	0.26412
3382.000	3.77653	0.56772	3.54025	0.31571
3383.000	3.90249	0.59741	3.61903	0.33554
3384.000	4.09136	0.56553	3.68400	0.27000
3385.000	4.22116	0.59321	3.81983	0.24813
3386.000	4.37843	0.55937	3.91823	0.23420
3387.000	4.35484	0.55542	4.03825	0.22226
3388.000	4.38236	0.51374	4.13070	0.17660
3389.000	4.38629	0.49192	4.15823	0.20834
3390.000	4.37253	0.49590	4.21526	0.10119
3391.000	4.32535	0.46419	4.12086	0.06548
3392.000	4.26441	0.49002	4.10513	-0.03572
3393.000	4.14446	0.48414	3.99890	0.06748
3394.000	4.06972	0.46038	3.89855	-0.00794
3395.000	3.95562	0.45449	3.85132	-0.15284
3396.000	3.84935	0.42080	3.62296	-0.08140
3397.000	3.70369	0.40102	3.58949	0.00397
3398.000	3.65053	0.43479	3.49889	0.01390
3399.000	3.61903	0.40701	3.47526	0.00596
3400.000	3.62690	0.42289	3.47132	-0.00993
3401.000	3.69778	0.39308	3.45950	0.04567
3402.000	3.75094	0.33748	3.47329	-0.04567
3403.000	3.82377	0.31164	3.63872	-0.15089
3404.000	3.89265	0.26597	3.69581	-0.01787
3405.000	3.93397	0.20840	3.78440	-0.08933
3406.000	4.02054	0.19845	3.80015	-0.14292
3407.000	4.04415	0.20242	3.88084	-0.11314
3408.000	4.08349	0.14883	3.97333	-0.13297
3409.000	4.15626	0.23017	3.86707	-0.21834
3410.000	4.18576	0.13889	3.89462	-0.17070
3411.000	4.20149	0.15079	4.03235	-0.26791
3412.000	4.16413	0.14286	3.96742	-0.22228
3413.000	4.14643	0.22025	3.93004	-0.12504
3414.000	4.18183	0.19444	3.91430	-0.19451
3415.000	4.12873	0.22224	3.98316	-0.17266
3416.000	4.16413	0.22223	3.91626	-0.13894
3417.000	4.22312	0.24999	3.87691	-0.16871
3418.000	4.18576	0.25000	3.83164	-0.12307
3419.000	4.15233	0.21429	3.92610	-0.10916
3420.000	4.15626	0.25199	3.80802	-0.18262
3421.000	4.19559	0.30158	3.89068	-0.13497
3422.000	4.21919	0.29760	3.84148	-0.04565
3423.000	4.21919	0.26784	3.87100	-0.06749
3424.000	4.20739	0.26190	3.92413	-0.04763
3425.000	4.21919	0.31943	3.82770	-0.02580
3426.000	4.21526	0.31149	3.83164	-0.01786
3427.000	4.24475	0.28172	3.79818	-0.13101
3428.000	4.18969	0.25793	3.78637	-0.00993
3429.000	4.23689	0.26784	3.89855	-0.09924
3430.000	4.17789	0.26587	3.85132	-0.08138
3431.000	4.15233	0.21826	3.85132	-0.11513
3432.000	4.13463	0.22620	3.85919	-0.13299
3433.000	4.19166	0.21230	3.93397	-0.17466
3434.000	4.12283	0.17263	3.81786	-0.13101
3435.000	4.14643	0.21826	3.78637	-0.21042
3436.000	4.16216	0.19445	3.88675	-0.22429
3437.000	4.15430	0.15278	3.84148	-0.12902
3438.000	4.13070	0.18454	3.88084	-0.14887
3439.000	4.13463	0.16072	3.81786	-0.16277
3440.000	4.12873	0.11707	3.91626	-0.22428
3441.000	4.12480	0.15874	3.78637	-0.12903
3442.000	4.14250	0.13691	3.90446	-0.16474
3443.000	4.11103	0.14882	3.86510	-0.17269
3444.000	4.09333	0.16669	3.81393	-0.14491
3445.000	4.12283	0.15081	3.86116	-0.19651
3446.000	4.04808	0.17860	3.76865	-0.11712
3447.000	4.13856	0.14485	3.79227	-0.16079
3448.000	4.09923	0.10120	3.80802	-0.15682
3449.000	4.11496	0.14882	3.80802	-0.16674
3450.000	4.08742	0.14883	3.81786	-0.24813
3451.000	4.14053	0.13294	3.75094	-0.13499
3452.000	4.12086	0.14684	3.87297	-0.14291
3453.000	4.13856	0.15080	3.82770	-0.21239
3454.000	4.16020	0.14286	3.84542	-0.20048
3455.000	4.09136	0.14486	3.85329	-0.26400
3456.000	4.16806	0.13691	3.88084	-0.22032
3457.000	4.13463	0.10715	3.88281	-0.15879
3458.000	4.10513	0.16271	3.85329	-0.24613
3459.000	4.14643	0.08929	3.80802	-0.21637
3460.000	4.12086	0.12699	3.82574	-0.16475
3461.000	4.11103	0.12303	3.83754	-0.19056
3462.000	4.13660	0.17461	3.84542	-0.15681
3463.000	4.14840	0.12699	3.79621	-0.17469
3464.000	4.09333	0.14486	3.82377	-0.16476
3465.000	4.12480	0.14485	3.82180	-0.23225
3466.000	4.11496	0.13096	3.91430	-0.21436
3467.000	4.10906	0.08929	3.89068	-0.22230
3468.000	4.12873	0.14287	3.91626	-0.23023
3469.000	4.12480	0.10715	3.93201	-0.20244
3470.000	4.12873	0.11310	3.91430	-0.23420
3471.000	4.15036	0.19048	3.93201	-0.24214
3472.000	4.11103	0.17264	3.89265	-0.18459
3473.000	4.11889	0.14485	3.85723	-0.17666
3474.000	4.13856	0.09921	3.90839	-0.28184
3475.000	4.12086	0.09921	3.98119	-0.23617
3476.000	4.12086	0.15279	3.92610	-0.33542
3477.000	4.13856	0.14088	3.87297	-0.21040
3478.000	4.07562	0.11510	3.93201	-0.12702
3479.000	4.07366	0.04763	3.88478	-0.24017
3480.000	4.11496	0.07144	3.92413	-0.21832
3481.000	4.12873	0.10715	3.94578	-0.26595
3482.000	4.12086	0.08731	3.92610	-0.14092
3483.000	4.12480	0.15874	3.86116	-0.27590
3484.000	4.12086	0.12501	3.87494	-0.20841
3485.000	4.10906	0.09922	3.91626	-0.26596
3486.000	4.14446	0.11310	3.89265	-0.24413
3487.000	4.12873	0.10715	3.99890	-0.26593
3488.000	4.09333	0.10716	3.94971	-0.33938
3489.000	4.16610	0.12897	3.89855	-0.24612
3490.000	4.09923	0.08533	3.89659	-0.34734
3491.000	4.13660	0.10517	3.93791	-0.28977
3492.000	4.08939	0.06548	3.87297	-0.24216
3493.000	4.10709	0.07342	3.92610	-0.29374
3494.000	4.13856	0.06350	3.92610	-0.36321
3495.000	4.10119	0.05556	3.85526	-0.31759
3496.000	4.07562	0.10319	3.86903	-0.31163
3497.000	4.16216	0.11905	3.82180	-0.26003
3498.000	4.06579	0.07938	3.97529	-0.20839
3499.000	4.09333	0.08334	3.83951	-0.33943
3500.000	4.06382	0.10914	3.91233	-0.31161
3501.000	4.10316	0.06548	3.91823	-0.26199
3502.000	4.08349	0.04366	3.85526	-0.31362
3503.000	4.11496	0.09525	3.87691	-0.27788
3504.000	4.08349	-0.01191	3.83558	-0.15086
3505.000	4.08546	0.03175	3.85919	-0.18857
3506.000	4.04021	0.02778	3.83164	-0.26797
3507.000	4.10906	0.04366	3.90249	-0.24215
3508.000	4.05792	0.04564	3.86903	-0.19253
3509.000	4.07366	0.07739	3.85329	-0.29178
3510.000	4.10513	0.04167	3.87494	-0.25009
3511.000	4.06185	0.03374	3.95562	-0.20045
3512.000	4.01071	0.08137	3.83164	-0.21636
3513.000	4.06972	0.08930	3.85132	-0.28781
3514.000	4.08742	0.07739	3.80212	-0.20446
3515.000	4.06775	0.04564	3.86510	-0.23422
3516.000	4.04808	0.07739	3.89462	-0.24810
3517.000	4.07956	0.03373	3.88675	-0.33742
3518.000	4.07366	0.04961	3.77062	-0.31365
3519.000	4.07366	0.07342	3.92413	-0.28977
3520.000	4.05989	0.05160	3.87297	-0.21437
3521.000	4.05989	0.03969	3.87887	-0.27391
3522.000	4.07562	0.02381	3.88871	-0.22230
3523.000	4.09333	0.04961	3.81393	-0.27195
3524.000	4.04808	0.00992	3.85723	-0.23422
3525.000	4.09333	0.02381	4.01464	-0.30165
3526.000	4.06185	0.08136	3.93201	-0.25206
3527.000	4.09726	0.06151	3.80999	-0.21637
3528.000	4.07562	0.07342	3.89462	-0.27788
3529.000	4.05989	0.06747	3.80802	-0.29180
3530.000	4.06382	0.05556	3.89265	-0.21833
3531.000	4.07759	0.05755	3.82967	-0.21636
3532.000	4.05595	0.04366	3.84148	-0.23422
3533.000	4.03038	0.04564	3.84542	-0.22827
3534.000	4.10316	0.07342	3.90839	-0.35131
3535.000	4.03628	0.05755	3.84148	-0.29377
3536.000	4.05792	0.03770	3.86510	-0.27590
3537.000	4.02448	0.02183	3.93397	-0.27389
3538.000	4.03628	0.06152	3.89659	-0.23222
3539.000	4.08939	0.02580	3.96742	-0.33541
3540.000	4.04612	0.02381	3.81786	-0.30569
3541.000	4.07169	0.06945	3.98906	-0.26395
3542.000	4.01071	0.03969	3.85132	-0.28186
3543.000	4.05005	0.01191	3.86116	-0.22231
3544.000	4.03825	0.06747	3.82574	-0.21239
3545.000	4.01464	0.02183	3.92807	-0.16275
3546.000	4.00480	0.03175	3.82770	-0.25805
3547.000	4.01267	0.00198	3.91233	-0.27192
3548.000	3.98710	-0.01588	3.85723	-0.30965
3549.000	4.02054	0.01786	3.88281	-0.26597
3550.000	3.97726	0.00000	3.89265	-0.26994
3551.000	3.98906	0.02778	3.83361	-0.28981
3552.000	3.99103	0.03572	3.84148	-0.26995
3553.000	4.00284	0.04565	3.89068	-0.34933
3554.000	4.00480	0.05160	3.87691	-0.28781
3555.000	3.97529	0.03969	3.82377	-0.31164
3556.000	4.00480	0.04366	3.96152	-0.27190
3557.000	4.00480	0.04961	3.84739	-0.21834
3558.000	4.00874	0.05358	3.91036	-0.26795
3559.000	4.02448	0.02977	3.86116	-0.28384
3560.000	4.01267	0.03771	3.93397	-0.26992
3561.000	4.02251	0.05557	3.82377	-0.31958
3562.000	3.99103	0.03969	3.87100	-0.26002
3563.000	4.05005	0.03175	3.84542	-0.26995
3564.000	4.04612	0.07144	3.90446	-0.24612
3565.000	4.02251	0.05358	3.87494	-0.30567
3566.000	4.00480	0.04763	3.82770	-0.29576
3567.000	3.98710	0.06748	3.87494	-0.23025
3568.000	3.99103	-0.01786	3.86116	-0.24613
3569.000	4.02841	0.06549	3.79227	-0.23821
3570.000	3.97923	0.01588	3.81983	-0.27393
3571.000	4.00677	-0.00595	3.84148	-0.24018
3572.000	4.04415	0.02977	3.85723	-0.26002
3573.000	3.99693	-0.02382	3.82770	-0.21041
3574.000	4.00874	0.06549	3.80605	-0.28783
3575.000	3.96545	0.00595	3.86116	-0.30171
3576.000	3.99103	0.02977	3.84542	-0.25209
3577.000	4.02644	-0.02778	3.91626	-0.23420
3578.000	3.99497	0.00397	3.95365	-0.18458
3579.000	4.00284	-0.03175	3.88871	-0.25604
3580.000	3.99300	0.01389	3.93201	-0.31756
3581.000	4.00480	0.00794	3.85526	-0.26598
3582.000	3.97136	-0.02183	3.80605	-0.28783
3583.000	3.96742	0.01191	3.86116	-0.27392
3584.000	3.98316	0.01588	3.94775	-0.25801
3585.000	3.96742	0.00794	3.85919	-0.29774
3586.000	3.98316	-0.02183	3.89462	-0.24612
3587.000	4.00874	0.01786	3.84935	-0.24415
3588.000	3.95168	-0.02183	3.86510	-0.22826
3589.000	3.97923	0.00000	3.84739	-0.30766
3590.000	4.01071	0.01588	3.83361	-0.29179
3591.000	3.98906	-0.00595	3.83951	-0.26598
3592.000	3.98316	-0.03175	3.86313	-0.25208
3593.000	3.99693	-0.05557	3.85526	-0.27193
3594.000	4.01858	0.02580	3.86116	-0.27392
3595.000	3.97529	0.02977	3.85919	-0.28781
3596.000	4.01071	-0.02778	3.81196	-0.23622
3597.000	3.95955	-0.06153	3.87494	-0.19452
3598.000	3.98316	-0.02977	3.81196	-0.21637
3599.000	3.98906	-0.02778	3.85526	-0.27392
3600.000	3.95365	-0.02183	3.81786	-0.25805
3601.000	3.98710	-0.03175	3.80408	-0.25607
3602.000	4.00087	0.01985	3.84935	-0.30369
3603.000	3.99497	0.00000	3.82967	-0.25408
3604.000	3.96545	0.00198	3.86313	-0.25407
3605.000	3.96742	0.00397	3.77456	-0.32357
3606.000	4.00480	0.03175	3.79621	-0.26203
3607.000	3.99890	0.02778	3.82180	-0.26003
3608.000	3.97529	0.01389	3.82770	-0.24217
3609.000	3.99693	0.01191	3.91626	-0.26993
3610.000	3.97726	-0.00794	3.80408	-0.20644
3611.000	3.98710	-0.00198	3.83164	-0.31363
3612.000	3.98119	-0.00595	3.77653	-0.24020
3613.000	3.96152	-0.00794	3.76865	-0.24417
3614.000	3.99497	-0.04366	3.81983	-0.33745
3615.000	3.95365	-0.02580	3.83361	-0.28187
3616.000	3.97333	-0.02977	3.76078	-0.19653
3617.000	3.96152	-0.06748	3.94184	-0.30168
3618.000	4.00284	-0.06549	3.85919	-0.26598
3619.000	4.00087	-0.06946	3.78046	-0.27196
3620.000	3.98710	0.00794	3.81393	-0.22232
3621.000	3.99103	-0.01786	3.78637	-0.24615
3622.000	3.99890	-0.00992	3.77062	-0.20447
3623.000	4.02054	-0.01191	3.85919	-0.27193
3624.000	4.00284	0.00198	3.76472	-0.27990
3625.000	4.01464	-0.07541	3.73322	-0.30374
3626.000	3.99890	-0.04565	3.83951	-0.26598
3627.000	4.00087	0.00992	3.79227	-0.18461
3628.000	4.00284	-0.05358	3.82770	-0.26996
3629.000	3.99300	-0.00198	3.84542	-0.25804
3630.000	3.97529	-0.02382	3.83951	-0.24812
3631.000	4.00284	-0.01191	3.87691	-0.23025
3632.000	4.04808	-0.03175	3.83754	-0.26400
3633.000	4.00284	-0.01389	3.78046	-0.33746
3634.000	3.99103	-0.04763	3.75881	-0.29380
3635.000	3.98710	-0.02382	3.81196	-0.28584
3636.000	3.99300	0.00000	3.79424	-0.23225
3637.000	3.99497	-0.02183	3.78834	-0.23027
3638.000	3.99300	-0.02580	3.80999	-0.23622
3639.000	3.99890	-0.04168	3.80802	-0.26996
3640.000	3.98906	-0.02778	3.81786	-0.24614
3641.000	3.95758	-0.02779	3.77653	-0.24020
3642.000	3.98119	-0.03771	3.77850	-0.24417
3643.000	3.98710	-0.01191	3.82967	-0.21041
3644.000	3.97333	-0.02382	3.82574	-0.26202
3645.000	3.94971	-0.02183	3.85526	-0.18261
3646.000	3.98513	-0.01588	3.77456	-0.15285
3647.000	3.96349	-0.05954	3.79621	-0.20049
3648.000	3.94578	-0.10122	3.75881	-0.13499
3649.000	3.96742	-0.01588	3.72928	-0.22631
3650.000	4.00874	-0.06152	3.77456	-0.28387
3651.000	4.00874	-0.03969	3.84345	-0.19254
3652.000	3.98710	-0.05755	3.70566	-0.22632
3653.000	3.96742	-0.07542	3.81983	-0.22034
3654.000	4.00087	-0.06152	3.76275	-0.21241
3655.000	3.97529	-0.06549	3.79818	-0.24218
3656.000	3.97529	-0.08931	3.80605	-0.21240
3657.000	3.97923	-0.01985	3.76865	-0.27593
3658.000	3.97726	-0.04763	3.84739	-0.22231
3659.000	3.98906	-0.03374	3.79621	-0.25806
3660.000	3.97726	-0.06152	3.81589	-0.23026
3661.000	3.97529	-0.05359	3.76275	-0.27196
3662.000	3.94775	-0.06947	3.80605	-0.22034
3663.000	3.98513	-0.06748	3.83164	-0.28981
3664.000	4.01267	-0.10518	3.72535	-0.27793
3665.000	3.97333	-0.11511	3.81983	-0.19255
3666.000	3.97923	-0.05160	3.73519	-0.16676
3667.000	3.99890	-0.07938	3.73125	-0.22234
3668.000	4.02251	-0.02580	3.77850	-0.19653
3669.000	3.95365	-0.04962	3.78440	-0.21637
3670.000	3.99103	-0.04763	3.77062	-0.24020
3671.000	3.93397	-0.00794	3.72141	-0.21242
3672.000	3.97136	-0.04366	3.82967	-0.15284
3673.000	3.96152	-0.03175	3.69778	-0.25412
3674.000	3.94381	-0.03374	3.78637	-0.22431
3675.000	3.97726	-0.06351	3.73322	-0.24021
3676.000	3.98316	-0.00397	3.74503	-0.17073
3677.000	3.96152	-0.04763	3.75881	-0.12308
3678.000	3.97136	-0.05160	3.78243	-0.21638
3679.000	3.97333	0.00397	3.84345	-0.25606
3680.000	3.99693	-0.06549	3.76865	-0.16477
3681.000	4.00677	-0.06351	3.78834	-0.17866
3682.000	4.03038	-0.03572	3.80999	-0.18659
3683.000	3.98513	-0.00992	3.74897	-0.16477
3684.000	3.99497	-0.00992	3.88871	-0.20841
3685.000	4.01071	-0.06152	3.75291	-0.13698
3686.000	4.01071	-0.02778	3.75094	-0.12507
3687.000	3.99693	-0.03572	3.73125	-0.16080
3688.000	4.05399	0.02977	3.82967	-0.11711
3689.000	3.97333	-0.02183	3.63872	-0.23229
3690.000	4.02054	-0.00397	3.73322	-0.27396
3691.000	3.95168	-0.03572	3.72535	-0.14095
3692.000	4.00480	0.00595	3.68597	-0.16280
3693.000	3.98316	-0.02580	3.71550	-0.19455
3694.000	3.99693	-0.09129	3.72338	-0.14691
3695.000	3.99693	-0.03771	3.87494	-0.23025
3696.000	3.99300	-0.03771	3.76078	-0.20447
3697.000	3.97529	-0.05557	3.79424	-0.20446
3698.000	3.98906	-0.10717	3.80015	-0.18263
3699.000	3.97923	-0.03572	3.75291	-0.15484
3700.000	4.01661	-0.10121	3.74700	-0.16080
3701.000	3.95562	-0.08931	3.71944	-0.17470
3702.000	4.01267	-0.07938	3.72731	-0.20448
3703.000	3.96939	-0.08931	3.77850	-0.21439
3704.000	3.98119	-0.10320	3.80408	-0.16277
3705.000	3.95758	-0.06748	3.72338	-0.16279
3706.000	3.98316	-0.09129	3.76078	-0.18065
3707.000	4.00087	-0.07145	3.78243	-0.24814
3708.000	3.98513	-0.07939	3.70566	-0.16875
3709.000	3.99497	-0.06152	3.70566	-0.18662
3710.000	3.99497	-0.08137	3.81589	-0.20247
3711.000	3.99890	-0.05557	3.69778	-0.18662
3712.000	3.99693	-0.10320	3.76865	-0.18859
3713.000	3.99300	-0.05954	3.77850	-0.26005
3714.000	4.01464	-0.09327	3.76669	-0.16675
3715.000	4.01661	-0.07740	3.74503	-0.17668
3716.000	4.00087	-0.09923	3.75291	-0.13102
3717.000	4.00087	-0.08534	3.74503	-0.23425
3718.000	4.01267	-0.09724	3.71156	-0.16875
3719.000	3.95365	-0.06351	3.73125	-0.21837
3720.000	4.00480	-0.08534	3.71747	-0.17073
3721.000	4.02644	-0.04366	3.75684	-0.09727
3722.000	4.00677	-0.06748	3.72141	-0.21838
3723.000	3.98906	-0.09129	3.74306	-0.25013
3724.000	4.01267	-0.10717	3.74503	-0.13499
3725.000	3.94381	-0.10122	3.70172	-0.16081
3726.000	3.97136	-0.06351	3.72338	-0.14294
3727.000	4.00480	-0.12503	3.74306	-0.18264
3728.000	3.96939	-0.06152	3.73519	-0.19654
3729.000	3.99890	-0.04168	3.72535	-0.23029
3730.000	3.99103	-0.05557	3.74700	-0.18264
3731.000	4.01267	-0.09923	3.77259	-0.14690
3732.000	3.99300	-0.05160	3.74700	-0.12110
3733.000	3.98316	-0.05160	3.74109	-0.22036
3734.000	3.97726	-0.06152	3.76865	-0.20050
3735.000	4.02448	-0.05557	3.69581	-0.17868
3736.000	3.96152	-0.06549	3.67416	-0.19655
3737.000	3.99693	-0.11114	3.73913	-0.23028
3738.000	3.99693	-0.08931	3.76865	-0.15881
3739.000	3.99693	-0.07938	3.67810	-0.20052
3740.000	3.99103	-0.06152	3.72338	-0.15286
3741.000	4.00480	-0.09724	3.73519	-0.14095
3742.000	3.99497	-0.06748	3.70369	-0.13301
3743.000	4.01464	-0.07740	3.68794	-0.10919
3744.000	3.96742	-0.07740	3.80408	-0.16476
3745.000	4.00874	-0.10320	3.71550	-0.14691
3746.000	3.98513	-0.08732	3.71944	-0.16279
3747.000	4.01464	-0.09923	3.74503	-0.15286
3748.000	4.04218	-0.08533	3.72535	-0.15088
3749.000	4.02251	-0.09526	3.73125	-0.18860
3750.000	4.03235	-0.06946	3.74306	-0.07742
3751.000	4.03235	-0.05755	3.77259	-0.26203
3752.000	4.03628	-0.10319	3.77850	-0.16873
3753.000	3.99497	-0.09328	3.76669	-0.18065
3754.000	3.99103	-0.11511	3.80408	-0.17468
3755.000	3.99890	-0.10518	3.68991	-0.19655
3756.000	4.02054	-0.10717	3.72535	-0.09331
3757.000	4.01267	-0.07938	3.68991	-0.15088
3758.000	4.02448	-0.09923	3.71944	-0.17073
3759.000	3.98710	-0.10320	3.70960	-0.14691
3760.000	4.00480	-0.09129	3.68991	-0.15882
3761.000	4.01464	-0.12900	3.74503	-0.13301
3762.000	3.99300	-0.07343	3.69385	-0.17669
3763.000	3.99693	-0.10717	3.73125	-0.14691
3764.000	4.01267	-0.13297	3.70960	-0.14095
3765.000	4.02841	-0.07740	3.79621	-0.21439
3766.000	4.00874	-0.08931	3.82770	-0.18063
3767.000	3.99497	-0.09923	3.81196	-0.17468
3768.000	4.00087	-0.09328	3.74700	-0.15087
3769.000	4.05989	-0.12700	3.68991	-0.13302
3770.000	4.00874	-0.09129	3.69975	-0.16279
3771.000	3.99693	-0.06152	3.65250	-0.13104
3772.000	3.99693	-0.10518	3.80212	-0.12307
3773.000	4.04218	-0.10121	3.69975	-0.15287
3774.000	3.99693	-0.09526	3.79818	-0.18461
3775.000	4.02251	-0.15678	3.73519	-0.19256
3776.000	4.01858	-0.10121	3.73125	-0.15088
3777.000	4.01858	-0.12701	3.74306	-0.11514
3778.000	3.98710	-0.11114	3.75094	-0.14889
3779.000	3.99693	-0.10915	3.67416	-0.16677
3780.000	3.99300	-0.14091	3.79227	-0.18263
3781.000	4.03038	-0.14288	3.79818	-0.14292
3782.000	4.02644	-0.14289	3.76078	-0.17072
3783.000	4.01858	-0.13296	3.73913	-0.19256
3784.000	4.02448	-0.10716	3.78440	-0.16873
3785.000	4.04021	-0.12899	3.80408	-0.15483
3786.000	3.98906	-0.09328	3.74700	-0.14690
3787.000	4.03431	-0.14884	3.75881	-0.16874
3788.000	4.00874	-0.14487	3.82770	-0.26996
3789.000	4.03431	-0.10518	3.77259	-0.14690
3790.000	4.03038	-0.10121	3.72141	-0.15882
3791.000	4.06775	-0.12502	3.80212	-0.16873
3792.000	4.01071	-0.10915	3.73519	-0.23227
3793.000	4.00874	-0.12503	3.76669	-0.23226
3794.000	3.98906	-0.06549	3.74700	-0.18264
3795.000	4.04808	-0.13494	3.72535	-0.15485
3796.000	4.02054	-0.12701	3.75881	-0.12308
3797.000	4.05595	-0.15082	3.79227	-0.16675
3798.000	4.02841	-0.12304	3.74503	-0.18065
3799.000	4.02644	-0.07938	3.70763	-0.22235
3800.000	4.05595	-0.09525	3.78834	-0.20049
3801.000	4.01858	-0.12701	3.75684	-0.15286
3802.000	4.02644	-0.12701	3.70960	-0.16676
3803.000	4.03825	-0.11312	3.75291	-0.17668
3804.000	4.04415	-0.11510	3.72731	-0.18661
3805.000	4.08349	-0.16073	3.79424	-0.20645
3806.000	4.03825	-0.14884	3.83558	-0.21438
3807.000	4.07366	-0.12502	3.75094	-0.13102
3808.000	4.03431	-0.11113	3.77850	-0.21638
3809.000	4.04612	-0.13098	3.73322	-0.15286
3810.000	4.02054	-0.12106	3.78440	-0.15881
3811.000	4.03628	-0.15082	3.72338	-0.12110
3812.000	4.09529	-0.14486	3.74503	-0.12308
3813.000	4.11103	-0.08533	3.75684	-0.12904
3814.000	4.04218	-0.16670	3.83951	-0.09925
3815.000	4.10513	-0.09128	3.78440	-0.09131
3816.000	4.07366	-0.13296	3.73716	-0.15882
3817.000	4.06185	-0.14288	3.70369	-0.13103
3818.000	4.05202	-0.14685	3.77259	-0.12903
3819.000	4.05202	-0.16868	3.74503	-0.13499
3820.000	4.08546	-0.11906	3.76669	-0.12903
3821.000	4.05202	-0.13891	3.76275	-0.14492
3822.000	4.04808	-0.13891	3.73322	-0.06948
3823.000	4.01071	-0.16075	3.80605	-0.12307
3824.000	4.03038	-0.16670	3.73322	-0.13102
3825.000	4.05595	-0.14486	3.74897	-0.14095
3826.000	4.05792	-0.15082	3.70172	-0.04566
3827.000	4.06579	-0.10319	3.74700	-0.19852
3828.000	4.04808	-0.18257	3.76472	-0.12308
3829.000	4.04808	-0.13296	3.74306	-0.18264
3830.000	4.06185	-0.13296	3.74109	-0.24815
3831.000	4.07562	-0.12899	3.81393	-0.18262
3832.000	4.10709	-0.14684	3.73125	-0.15088
3833.000	4.05595	-0.15677	3.77259	-0.14888
3834.000	4.05399	-0.13891	3.75291	-0.17668
3835.000	4.06382	-0.11113	3.71747	-0.12904
3836.000	4.07562	-0.12303	3.66628	-0.14096
3837.000	4.06972	-0.12105	3.72338	-0.11117
3838.000	4.08546	-0.10517	3.65447	-0.11515
3839.000	4.08349	-0.14684	3.73519	-0.05360
3840.000	4.07169	-0.11510	3.80605	-0.16674
3841.000	4.08349	-0.13891	3.74306	-0.15286
3842.000	4.06775	-0.08930	3.75881	-0.10918
3843.000	4.06185	-0.11708	3.70566	-0.10919
3844.000	4.04218	-0.14685	3.67022	-0.14295
3845.000	4.02841	-0.15876	3.76275	-0.08536
3846.000	4.06185	-0.13494	3.69778	-0.11912
3847.000	4.05202	-0.11907	3.69581	-0.14691
3848.000	4.04808	-0.11708	3.73519	-0.12507
3849.000	4.04612	-0.15876	3.74897	-0.10124
3850.000	4.06579	-0.14883	3.73125	-0.12110
3851.000	4.05202	-0.16669	3.64659	-0.13898
3852.000	4.04415	-0.13891	3.69778	-0.11316
3853.000	4.02644	-0.17662	3.77062	-0.17469
3854.000	4.03628	-0.17860	3.69778	-0.08735
3855.000	4.07562	-0.18256	3.72338	-0.09529
3856.000	4.02841	-0.15082	3.71156	-0.04169
3857.000	4.04612	-0.14884	3.70369	-0.13698
3858.000	4.05595	-0.13891	3.69778	-0.05956
3859.000	4.05399	-0.18257	3.76472	-0.08735
3860.000	4.04415	-0.19249	3.74897	-0.18264
3861.000	4.06382	-0.14486	3.74306	-0.06353
3862.000	4.06382	-0.11510	3.72535	-0.16080
3863.000	4.09136	-0.17859	3.77259	-0.10124
3864.000	4.05005	-0.15677	3.72535	-0.14095
3865.000	4.04218	-0.19448	3.64069	-0.07346
3866.000	3.98710	-0.19052	3.72731	-0.06154
3867.000	4.03628	-0.14487	3.66628	-0.05956
3868.000	4.07562	-0.14089	3.72141	-0.03772
3869.000	4.05989	-0.14685	3.68203	-0.12309
3870.000	4.05005	-0.12304	3.73716	-0.12507
3871.000	4.06775	-0.23218	3.75487	-0.09529
3872.000	4.01858	-0.18456	3.68203	-0.05559
3873.000	4.04021	-0.16074	3.72928	-0.08735
3874.000	4.01661	-0.17067	3.79818	-0.13697
3875.000	4.07562	-0.18058	3.70763	-0.14492
3876.000	4.08546	-0.16272	3.82574	-0.07345
3877.000	4.03038	-0.14487	3.78243	-0.04367
3878.000	4.05792	-0.15082	3.69975	-0.08140
3879.000	4.11299	-0.18652	3.70763	-0.11515
3880.000	4.11299	-0.11906	3.71550	-0.08934
3881.000	4.07169	-0.18653	3.71550	-0.07544
3882.000	4.06775	-0.17860	3.73913	-0.14889
3883.000	4.06382	-0.16074	3.74503	-0.07742
3884.000	4.10513	-0.15875	3.80802	-0.08734
3885.000	4.05595	-0.19844	3.70172	-0.14294
3886.000	4.08546	-0.17264	3.74897	-0.11117
3887.000	4.06972	-0.14883	3.82574	-0.10719
3888.000	4.07562	-0.15280	3.79621	-0.09131
3889.000	4.05595	-0.19249	3.80802	-0.11712
3890.000	4.08742	-0.16073	3.78637	-0.10124
3891.000	4.06775	-0.16272	3.72535	-0.10323
3892.000	4.10513	-0.15875	3.71747	-0.12904
3893.000	4.08546	-0.18455	3.78440	-0.15285
3894.000	4.05005	-0.21432	3.74897	-0.11316
3895.000	4.05989	-0.19447	3.72141	-0.11713
3896.000	4.09923	-0.14287	3.77456	-0.15484
3897.000	4.08349	-0.22423	3.71944	-0.18264
3898.000	4.08152	-0.16074	3.70369	-0.12110
3899.000	4.08546	-0.16470	3.76275	-0.11117
3900.000	4.10906	-0.16867	3.68006	-0.13302
3901.000	4.10119	-0.20836	3.79424	-0.19851
3902.000	4.06185	-0.17066	3.76472	-0.09529
3903.000	4.09333	-0.17462	3.70763	-0.12309
3904.000	4.08349	-0.21233	3.73322	-0.14889
3905.000	4.09333	-0.14486	3.85919	-0.07741
3906.000	4.10316	-0.19645	3.73716	-0.13301
3907.000	4.09136	-0.16073	3.74897	-0.12110
3908.000	4.09136	-0.19645	3.74700	-0.14690
3909.000	4.14643	-0.14882	3.75291	-0.11712
3910.000	4.10119	-0.18454	3.73716	-0.14095
3911.000	4.11103	-0.13295	3.70172	-0.11118
3912.000	4.09333	-0.21233	3.68203	-0.12706
3913.000	4.14446	-0.18453	3.65250	-0.11714
3914.000	4.12480	-0.17858	3.74109	-0.13698
3915.000	4.10119	-0.17264	3.74503	-0.11514
3916.000	4.10906	-0.17660	3.79031	-0.15881
3917.000	4.08152	-0.17661	3.67022	-0.13699
3918.000	4.12676	-0.16469	3.65841	-0.11714
3919.000	4.10709	-0.15081	3.72141	-0.05757
3920.000	4.09529	-0.20637	3.70566	-0.14691
3921.000	4.07956	-0.16867	3.72535	-0.15088
3922.000	4.08742	-0.18058	3.74503	-0.15683
3923.000	4.11496	-0.17065	3.67416	-0.14294
3924.000	4.13660	-0.16072	3.76865	-0.15087
3925.000	4.11693	-0.14485	3.71156	-0.08934
3926.000	4.09726	-0.17462	3.71747	-0.11911
3927.000	4.08939	-0.17859	3.76472	-0.04367
3928.000	4.09333	-0.17264	3.72535	-0.09132
3929.000	4.13660	-0.14882	3.75094	-0.06353
3930.000	4.12086	-0.15279	3.73519	-0.07941
3931.000	4.12873	-0.17660	3.76865	-0.08139
3932.000	4.16806	-0.15477	3.69581	-0.08537
3933.000	4.18576	-0.13492	3.74306	-0.13301
3934.000	4.23099	-0.16070	3.77062	-0.06551
3935.000	4.27228	-0.19839	3.83558	-0.06749
3936.000	4.35287	-0.21821	3.94775	-0.02183
3937.000	4.45311	-0.16859	3.97923	-0.04168
3938.000	4.57689	-0.14873	4.14053	-0.01191
3939.000	4.73793	-0.11499	4.17593	-0.03571
3940.000	4.82628	-0.20617	4.29980	0.00000
3941.000	5.04018	-0.14863	4.44525	-0.07339
3942.000	5.16963	-0.14068	4.46686	-0.00198
3943.000	5.24806	-0.17830	4.62010	-0.05949
3944.000	5.32450	-0.21195	4.68099	-0.05354
3945.000	5.37546	-0.19015	4.65938	-0.05750
3946.000	5.34018	-0.14856	4.70455	-0.15664
3947.000	5.31666	-0.13074	4.66527	-0.02974
3948.000	5.22649	-0.20604	4.67117	-0.18440
3949.000	5.10687	-0.20410	4.60046	-0.11700
3950.000	4.97740	-0.18630	4.49634	-0.22411
3951.000	4.85572	-0.25373	4.40201	-0.23208
3952.000	4.74971	-0.22998	4.30176	-0.22417
3953.000	4.63581	-0.26571	4.22902	-0.18848
3954.000	4.51402	-0.27964	4.18379	-0.18254
3955.000	4.42363	-0.28364	4.06185	-0.13891
3956.000	4.39022	-0.24596	4.03038	-0.21036
3957.000	4.35484	-0.28763	4.01464	-0.20441
3958.000	4.35091	-0.28367	4.07366	-0.15677
3959.000	4.36467	-0.24002	4.08152	-0.21828
3960.000	4.40987	-0.32133	3.91430	-0.02382
3961.000	4.42166	-0.29356	3.98119	-0.17266
3962.000	4.52188	-0.29748	4.09136	-0.16073
3963.000	4.52974	-0.26178	4.02448	-0.07541
3964.000	4.57099	-0.26772	4.14643	-0.09326
3965.000	4.62010	-0.20425	4.11693	-0.08136
3966.000	4.67509	-0.23794	4.20346	-0.07341
3967.000	4.67706	-0.25380	4.22705	-0.06746
3968.000	4.72222	-0.21016	4.22116	-0.09127
3969.000	4.72026	-0.22404	4.27817	-0.04563
3970.000	4.74382	-0.19628	4.19756	-0.08928
3971.000	4.75364	-0.22601	4.26048	-0.06944
3972.000	4.75757	-0.20421	4.30176	-0.07935
3973.000	4.73400	-0.19430	4.28800	-0.10316
3974.000	4.74186	-0.19033	4.29980	-0.04364
3975.000	4.76738	-0.18239	4.25261	-0.05753
3976.000	4.78505	-0.17446	4.29390	-0.09919
3977.000	4.76935	-0.18834	4.28997	-0.03968
3978.000	4.81254	-0.23194	4.27228	-0.10713
3979.000	4.80272	-0.19230	4.29783	-0.13292
3980.000	4.81646	-0.21013	4.27424	-0.08729
3981.000	4.74579	-0.28946	4.29783	-0.05555
3982.000	4.77327	-0.23196	4.31159	-0.03968
3983.000	4.79880	-0.20221	4.29194	-0.11705
3984.000	4.76149	-0.25773	4.22509	-0.13095
3985.000	4.74579	-0.23593	4.21722	-0.05357
3986.000	4.75364	-0.20619	4.23099	-0.15078
3987.000	4.75168	-0.22007	4.32732	-0.11307
3988.000	4.74382	-0.20619	4.28800	-0.09523
3989.000	4.75168	-0.23593	4.30766	-0.16069
3990.000	4.71830	-0.24784	4.28800	-0.14085
3991.000	4.74579	-0.24783	4.23295	-0.14483
3992.000	4.76738	-0.28350	4.22116	-0.11309
3993.000	4.76542	-0.25773	4.21919	-0.07738
3994.000	4.76346	-0.27954	4.31553	-0.08729
3995.000	4.73204	-0.32515	4.20739	-0.09524
3996.000	4.76935	-0.28747	4.24082	-0.12499
3997.000	4.77524	-0.25376	4.20936	-0.14285
3998.000	4.74971	-0.29342	4.22705	-0.13095
3999.000	4.78113	-0.26169	4.28800	-0.11903
4000.000	4.72615	-0.27361	4.28014	-0.04166
4001.000	4.73400	-0.22602	4.34501	-0.19837
4002.000	4.73008	-0.26567	4.28014	-0.13887
4003.000	4.73008	-0.28154	4.28014	-0.16466
4004.000	4.77720	-0.28746	4.31356	-0.13887
4005.000	4.75364	-0.29739	4.28014	-0.04563
4006.000	4.73400	-0.24783	4.27817	-0.09523
4007.000	4.76149	-0.28747	4.32732	-0.06745
4008.000	4.73204	-0.25973	4.25261	-0.09523
4009.000	4.73793	-0.23593	4.28014	-0.07737
4010.000	4.74186	-0.24188	4.37843	-0.08926
4011.000	4.74186	-0.25576	4.29194	-0.07340
4012.000	4.74775	-0.27162	4.27817	-0.02579
4013.000	4.77524	-0.23394	4.28604	-0.09919
4014.000	4.74775	-0.24981	4.25261	-0.19443
4015.000	4.72615	-0.29938	4.19559	-0.15079
4016.000	4.73793	-0.28748	4.21132	-0.06944
4017.000	4.74971	-0.28153	4.39612	-0.07736
4018.000	4.75364	-0.27360	4.30570	-0.04960
4019.000	4.79094	-0.25177	4.26834	-0.07340
4020.000	4.75953	-0.25575	4.27621	-0.05158
4021.000	4.75168	-0.25972	4.26638	-0.08134
4022.000	4.79291	-0.27358	4.20149	-0.08333
4023.000	4.78898	-0.22799	4.28014	-0.08729
4024.000	4.75364	-0.25774	4.35287	-0.11902
4025.000	4.74186	-0.24584	4.28800	-0.06547
4026.000	4.79487	-0.23393	4.31356	-0.10316
4027.000	4.76149	-0.22601	4.24082	-0.10912
4028.000	4.77327	-0.21213	4.27817	-0.04960
4029.000	4.75560	-0.25179	4.28604	-0.17260
4030.000	4.77327	-0.25773	4.30570	-0.14283
4031.000	4.74579	-0.27162	4.26245	-0.12102
4032.000	4.76542	-0.24782	4.22509	-0.13293
4033.000	4.82039	-0.23194	4.25065	-0.11904
4034.000	4.79291	-0.22204	4.28211	-0.12300
4035.000	4.80076	-0.23988	4.26834	-0.08928
4036.000	4.77131	-0.23196	4.32929	-0.17457
4037.000	4.80272	-0.22996	4.36270	-0.20828
4038.000	4.78505	-0.26962	4.27424	-0.17062
4039.000	4.82432	-0.22203	4.27031	-0.18054
4040.000	4.83020	-0.23788	4.31946	-0.13490
4041.000	4.79487	-0.28746	4.27031	-0.10713
4042.000	4.82824	-0.23392	4.32929	-0.12101
4043.000	4.81843	-0.23194	4.26638	-0.11904
4044.000	4.78898	-0.28944	4.27817	-0.10515
4045.000	4.80861	-0.26366	4.27228	-0.07936
4046.000	4.80076	-0.26763	4.35484	-0.15671
4047.000	4.79880	-0.27160	4.28604	-0.05555
4048.000	4.81450	-0.28150	4.27424	-0.04365
4049.000	4.78505	-0.27953	4.22312	-0.09523
4050.000	4.79880	-0.25970	4.20936	-0.09127
4051.000	4.82235	-0.27753	4.27621	-0.14482
4052.000	4.77916	-0.29539	4.18773	-0.05159
4053.000	4.80468	-0.27754	4.31946	-0.15672
4054.000	4.79291	-0.25970	4.39218	-0.09323
4055.000	4.79683	-0.30133	4.25655	-0.11705
4056.000	4.80468	-0.29142	4.35484	-0.14084
4057.000	4.79880	-0.28944	4.27031	-0.09126
4058.000	4.81843	-0.29339	4.33715	-0.16862
4059.000	4.75953	-0.29540	4.35287	-0.13489
4060.000	4.78702	-0.29341	4.29587	-0.08332
4061.000	4.79094	-0.25772	4.26834	-0.17062
4062.000	4.80861	-0.29340	4.33518	-0.13093
4063.000	4.82039	-0.27159	4.38629	-0.08530
4064.000	4.81843	-0.28150	4.36074	-0.16464
4065.000	4.76738	-0.29342	4.36663	-0.15671
4066.000	4.83806	-0.25572	4.35681	-0.07340
4067.000	4.81254	-0.27952	4.31356	-0.16862
4068.000	4.82824	-0.28744	4.29390	-0.07142
4069.000	4.79683	-0.29340	4.38432	-0.13885
4070.000	4.80272	-0.31521	4.33715	-0.10315
4071.000	4.81450	-0.28348	4.36467	-0.05356
4072.000	4.82824	-0.28942	4.25655	-0.11705
4073.000	4.81646	-0.29736	4.39218	-0.10910
4074.000	4.84787	-0.28347	4.39415	-0.11505
4075.000	4.78309	-0.35685	4.31553	-0.06943
4076.000	4.82235	-0.30529	4.36663	-0.16068
4077.000	4.82235	-0.31916	4.35681	-0.04562
4078.000	4.80076	-0.34693	4.38039	-0.10315
4079.000	4.81450	-0.32115	4.39415	-0.13290
4080.000	4.80272	-0.35882	4.40005	-0.17852
4081.000	4.81843	-0.34295	4.37056	-0.12299
4082.000	4.82235	-0.32907	4.34698	-0.10910
4083.000	4.77720	-0.35487	4.36270	-0.08530
4084.000	4.83217	-0.30528	4.36860	-0.08728
4085.000	4.78898	-0.29341	4.28997	-0.11903
4086.000	4.77524	-0.30134	4.36467	-0.10315
4087.000	4.77720	-0.34496	4.27424	-0.12499
4088.000	4.76149	-0.28945	4.34501	-0.07141
4089.000	4.82432	-0.31520	4.22312	-0.04365
4090.000	4.81646	-0.28546	4.30963	-0.15672
4091.000	4.81254	-0.24384	4.33715	-0.06745
4092.000	4.80861	-0.26564	4.32929	-0.14481
4093.000	4.79291	-0.26169	4.37843	-0.13092
4094.000	4.83020	-0.29735	4.36860	-0.14282
4095.000	4.80861	-0.27952	4.36663	-0.02182
4096.000	4.78702	-0.26367	4.37646	-0.08530
4097.000	4.79487	-0.30133	4.38432	-0.10116
4098.000	4.80861	-0.29340	4.32732	-0.05158
4099.000	4.81057	-0.29934	4.28604	-0.05952
4100.000	4.76346	-0.28747	4.26638	-0.05753
4101.000	4.80076	-0.27358	4.40005	-0.03769
4102.000	4.80468	-0.31124	4.29587	-0.11110
4103.000	4.78113	-0.31522	4.35484	-0.06149
4104.000	4.77720	-0.30927	4.31749	-0.09125
4105.000	4.75560	-0.30730	4.30963	-0.11704
4106.000	4.79291	-0.29340	4.30176	-0.09919
4107.000	4.76149	-0.31721	4.35681	-0.11109
4108.000	4.78505	-0.31521	4.23099	-0.07142
4109.000	4.80665	-0.31719	4.31553	-0.07538
4110.000	4.75953	-0.31721	4.37056	-0.14282
4111.000	4.75953	-0.28549	4.36663	-0.05554
4112.000	4.72222	-0.34895	4.40987	-0.08926
4113.000	4.78898	-0.30134	4.34305	-0.11704
4114.000	4.77327	-0.33306	4.40987	-0.11108
4115.000	4.76935	-0.28548	4.41773	-0.11306
4116.000	4.78505	-0.34099	4.34108	-0.04761
4117.000	4.79880	-0.23789	4.36467	-0.10315
4118.000	4.76149	-0.30135	4.40594	-0.05554
4119.000	4.80468	-0.32908	4.35484	-0.10514
4120.000	4.80665	-0.32115	4.37056	-0.03769
4121.000	4.77131	-0.25971	4.34305	-0.09125
4122.000	4.79487	-0.29340	4.41184	-0.10314
4123.000	4.81057	-0.28547	4.34501	-0.06348
4124.000	4.77916	-0.30531	4.37646	-0.04166
4125.000	4.73597	-0.33110	4.35287	-0.10712
4126.000	4.76542	-0.30928	4.44525	-0.12297
4127.000	4.77327	-0.22799	4.29194	-0.11308
4128.000	4.73793	-0.30532	4.33715	-0.13093
4129.000	4.77720	-0.26962	4.35681	-0.17060
4130.000	4.73204	-0.31722	4.37450	-0.12100
4131.000	4.72222	-0.32119	4.37843	-0.18249
4132.000	4.72419	-0.32317	4.40398	-0.09521
4133.000	4.77327	-0.30134	4.42953	-0.15471
4134.000	4.75757	-0.29540	4.33125	-0.10316
4135.000	4.75757	-0.27558	4.42363	-0.14480
4136.000	4.74186	-0.27955	4.41577	-0.00992
4137.000	4.78898	-0.29539	4.41184	-0.10909
4138.000	4.75757	-0.29342	4.38236	-0.18448
4139.000	4.79487	-0.29142	4.41577	-0.11306
4140.000	4.72026	-0.33111	4.32929	-0.14680
4141.000	4.77131	-0.30333	4.48651	-0.13883
4142.000	4.78898	-0.27953	4.38236	-0.16067
4143.000	4.77524	-0.28945	4.38236	-0.19043
4144.000	4.74971	-0.28549	4.52777	-0.12494
4145.000	4.80076	-0.29340	4.42559	-0.15471
4146.000	4.76149	-0.29540	4.41970	-0.21422
4147.000	4.74775	-0.31325	4.44328	-0.15868
4148.000	4.79094	-0.26962	4.37646	-0.12894
4149.000	4.79880	-0.25375	4.44918	-0.16661
4150.000	4.74186	-0.25972	4.41380	-0.18645
4151.000	4.77327	-0.31324	4.38629	-0.17059
4152.000	4.74186	-0.27757	4.41380	-0.22612
4153.000	4.73400	-0.29938	4.40201	-0.16067
4154.000	4.74186	-0.25576	4.40594	-0.14480
4155.000	4.73793	-0.32713	4.39218	-0.25390
4156.000	4.73204	-0.29145	4.39218	-0.18051
4157.000	4.75168	-0.28549	4.38629	-0.18448
4158.000	4.71437	-0.30533	4.42363	-0.17852
4159.000	4.72615	-0.29145	4.37056	-0.18250
4160.000	4.77720	-0.32315	4.37253	-0.14282
4161.000	4.75953	-0.31523	4.47472	-0.20230
4162.000	4.77327	-0.30927	4.39612	-0.18051
4163.000	4.76346	-0.32514	4.45507	-0.16661
4164.000	4.80076	-0.29935	4.45114	-0.17454
4165.000	4.80076	-0.28349	4.50616	-0.11701
4166.000	4.74382	-0.30334	4.41184	-0.12496
4167.000	4.75364	-0.29540	4.45900	-0.16661
4168.000	4.76935	-0.30134	4.41970	-0.12099
4169.000	4.74579	-0.29739	4.37646	-0.06149
4170.000	4.74775	-0.30730	4.45114	-0.20429
4171.000	4.74775	-0.29342	4.40594	-0.20431
4172.000	4.75953	-0.28747	4.41577	-0.17653
4173.000	4.74971	-0.28748	4.47865	-0.16065
4174.000	4.75560	-0.29540	4.43739	-0.22413
4175.000	4.69080	-0.31526	4.40201	-0.12298
4176.000	4.71241	-0.28551	4.36663	-0.15671
4177.000	4.74579	-0.24386	4.42363	-0.13686
4178.000	4.73204	-0.32119	4.46097	-0.18842
4179.000	4.74775	-0.28153	4.45311	-0.09917
4180.000	4.73400	-0.27162	4.41773	-0.12298
4181.000	4.73597	-0.34498	4.45311	-0.19834
4182.000	4.73990	-0.27757	4.44132	-0.12297
4183.000	4.73990	-0.28153	4.41577	-0.17653
4184.000	4.73597	-0.30532	4.44918	-0.14082
4185.000	4.77131	-0.26764	4.47472	-0.10115
4186.000	4.73793	-0.31127	4.45311	-0.13884
4187.000	4.72811	-0.29145	4.41577	-0.15472
4188.000	4.73204	-0.28352	4.41184	-0.21025
4189.000	4.73793	-0.32317	4.50223	-0.17850
4190.000	4.73204	-0.32912	4.43739	-0.21025
4191.000	4.69277	-0.30138	4.41184	-0.17257
4192.000	4.67706	-0.31725	4.41970	-0.20827
4193.000	4.67902	-0.32319	4.46293	-0.17652
4194.000	4.68099	-0.34104	4.44721	-0.07140
4195.000	4.71241	-0.30137	4.44328	-0.12892
4196.000	4.71437	-0.34102	4.48455	-0.16065
4197.000	4.70651	-0.28749	4.45704	-0.17454
4198.000	4.68295	-0.34897	4.56117	-0.20625
4199.000	4.71633	-0.34697	4.45311	-0.21024
4200.000	4.69277	-0.32120	4.48651	-0.17453
4201.000	4.70651	-0.28353	4.45704	-0.21818
4202.000	4.69277	-0.35095	4.48651	-0.15073
4203.000	4.72419	-0.33110	4.49044	-0.19238
4204.000	4.70651	-0.34103	4.48062	-0.13685
4205.000	4.72419	-0.35291	4.45507	-0.12892
4206.000	4.68688	-0.32319	4.46293	-0.14876
4207.000	4.72222	-0.33705	4.44132	-0.17454
4208.000	4.71044	-0.28947	4.52581	-0.23402
4209.000	4.71241	-0.33309	4.44721	-0.19636
4210.000	4.68884	-0.32914	4.44328	-0.11107
4211.000	4.71044	-0.29939	4.43935	-0.14876
4212.000	4.66724	-0.29941	4.44328	-0.16661
4213.000	4.70848	-0.27758	4.43935	-0.14678
4214.000	4.72222	-0.25378	4.55921	-0.21418
4215.000	4.67313	-0.26966	4.45311	-0.12892
4216.000	4.68099	-0.34897	4.44721	-0.26776
4217.000	4.71241	-0.31525	4.43542	-0.10909
4218.000	4.70848	-0.30930	4.51009	-0.23403
4219.000	4.75364	-0.36281	4.51402	-0.18246
4220.000	4.68491	-0.33112	4.45114	-0.21818
4221.000	4.68491	-0.29742	4.49634	-0.22015
4222.000	4.71241	-0.26172	4.47669	-0.19239
4223.000	4.72419	-0.30929	4.51598	-0.15271
4224.000	4.66724	-0.30535	4.49241	-0.11702
4225.000	4.70062	-0.28353	4.46490	-0.17454
4226.000	4.68884	-0.28552	4.51795	-0.19039
4227.000	4.72615	-0.27955	4.43346	-0.14876
4228.000	4.70062	-0.33706	4.47865	-0.11900
4229.000	4.70062	-0.27163	4.43739	-0.17058
4230.000	4.69866	-0.29543	4.41970	-0.17455
4231.000	4.68491	-0.27561	4.45114	-0.06942
4232.000	4.67117	-0.31725	4.42363	-0.13885
4233.000	4.71437	-0.30732	4.52384	-0.16064
4234.000	4.64563	-0.34105	4.42953	-0.14678
4235.000	4.63974	-0.34304	4.40201	-0.12496
4236.000	4.63189	-0.31330	4.43149	-0.21223
4237.000	4.68688	-0.35491	4.50616	-0.12296
4238.000	4.67706	-0.35492	4.52384	-0.15271
4239.000	4.67509	-0.33113	4.48651	-0.17652
4240.000	4.68099	-0.33707	4.49830	-0.15668
4241.000	4.65742	-0.38665	4.45900	-0.18446
4242.000	4.69866	-0.35689	4.42166	-0.14678
4243.000	4.69473	-0.30534	4.49634	-0.10710
4244.000	4.65349	-0.34303	4.44721	-0.19636
4245.000	4.67902	-0.30931	4.49634	-0.16263
4246.000	4.66135	-0.33906	4.53367	-0.11701
4247.000	4.70062	-0.33905	4.40398	-0.20629
4248.000	4.70062	-0.30732	4.47079	-0.16264
4249.000	4.70062	-0.33111	4.46883	-0.12099
4250.000	4.67902	-0.33113	4.46097	-0.18644
4251.000	4.70062	-0.31525	4.44918	-0.08925
4252.000	4.70848	-0.32516	4.52581	-0.17452
4253.000	4.68884	-0.33509	4.45900	-0.11702
4254.000	4.68491	-0.34302	4.50420	-0.16263
4255.000	4.69670	-0.36879	4.43739	-0.08727
4256.000	4.67902	-0.35294	4.51402	-0.18246
4257.000	4.68099	-0.32518	4.46490	-0.23602
4258.000	4.67313	-0.37078	4.39808	-0.11703
4259.000	4.69277	-0.31526	4.48455	-0.09718
4260.000	4.67902	-0.31725	4.49634	-0.23006
4261.000	4.71241	-0.33309	4.50223	-0.06148
4262.000	4.71633	-0.30137	4.49044	-0.14677
4263.000	4.67902	-0.32319	4.51795	-0.12098
4264.000	4.68099	-0.34699	4.45507	-0.06744
4265.000	4.71437	-0.30335	4.43739	-0.20033
4266.000	4.68099	-0.32121	4.45507	-0.07339
4267.000	4.66527	-0.36880	4.44525	-0.09322
4268.000	4.68491	-0.25578	4.42166	-0.08331
4269.000	4.73793	-0.30136	4.55135	-0.11106
4270.000	4.72811	-0.27559	4.47865	-0.15669
4271.000	4.67706	-0.29345	4.46293	-0.16462
4272.000	4.67706	-0.31526	4.51009	-0.15866
4273.000	4.69080	-0.29940	4.48258	-0.16660
4274.000	4.66527	-0.31130	4.47472	-0.15867
4275.000	4.73793	-0.24783	4.44721	-0.10909
4276.000	4.67902	-0.33707	4.52581	-0.17452
4277.000	4.70651	-0.27758	4.48651	-0.13883
4278.000	4.72222	-0.29542	4.54545	-0.17650
4279.000	4.68884	-0.28354	4.53367	-0.11503
4280.000	4.66724	-0.28949	4.39808	-0.13687
4281.000	4.70455	-0.23793	4.46490	-0.12694
4282.000	4.68491	-0.28948	4.59064	-0.11502
4283.000	4.72811	-0.25774	4.50813	-0.15271
4284.000	4.63385	-0.27563	4.42953	-0.11108
4285.000	4.68295	-0.30138	4.44721	-0.19239
4286.000	4.68295	-0.28552	4.40594	-0.17455
4287.000	4.72222	-0.25180	4.53760	-0.11304
4288.000	4.71044	-0.31327	4.47079	-0.17454
4289.000	4.66135	-0.30536	4.43542	-0.15074
4290.000	4.66724	-0.33708	4.50813	-0.14081
4291.000	4.67706	-0.30932	4.44918	-0.09521
4292.000	4.68688	-0.33112	4.49437	-0.15470
4293.000	4.69670	-0.34500	4.53170	-0.18840
4294.000	4.68884	-0.30733	4.49241	-0.17652
4295.000	4.69080	-0.30138	4.48848	-0.13685
4296.000	4.69670	-0.27560	4.56706	-0.14675
4297.000	4.70848	-0.30930	4.54545	-0.14675
4298.000	4.68884	-0.34500	4.50223	-0.21816
4299.000	4.68491	-0.34500	4.55331	-0.09321
4300.000	4.69866	-0.30931	4.57885	-0.13287
4301.000	4.70651	-0.29344	4.48848	-0.11305
4302.000	4.67117	-0.33906	4.44525	-0.16661
4303.000	4.69866	-0.31327	4.48651	-0.10313
4304.000	4.69277	-0.30534	4.57492	-0.07734
4305.000	4.70259	-0.30930	4.51009	-0.14081
4306.000	4.70455	-0.29939	4.47079	-0.10909
4307.000	4.65349	-0.28553	4.47865	-0.16065
4308.000	4.69473	-0.32517	4.43542	-0.11504
4309.000	4.73008	-0.28947	4.51402	-0.16858
4310.000	4.68491	-0.29147	4.54545	-0.07139
4311.000	4.71044	-0.30930	4.54545	-0.11899
4312.000	4.68099	-0.33112	4.44132	-0.11107
4313.000	4.67706	-0.28751	4.51598	-0.17453
4314.000	4.68884	-0.33509	4.53956	-0.09321
4315.000	4.68688	-0.30336	4.51795	-0.13684
4316.000	4.67313	-0.31725	4.54742	-0.15667
4317.000	4.65938	-0.25975	4.50616	-0.07933
4318.000	4.65938	-0.34303	4.46293	-0.10909
4319.000	4.67313	-0.30139	4.50420	-0.04165
4320.000	4.67706	-0.37871	4.43346	-0.10909
4321.000	4.63385	-0.32718	4.54742	-0.10114
4322.000	4.64367	-0.34700	4.48455	-0.13288
4323.000	4.64760	-0.34899	4.44721	-0.10909
4324.000	4.63974	-0.36882	4.48455	-0.03967
4325.000	4.68099	-0.33707	4.46883	-0.08330
4326.000	4.68295	-0.31526	4.50616	-0.09123
4327.000	4.66724	-0.33113	4.52384	-0.03570
4328.000	4.69473	-0.33310	4.45900	-0.08330
4329.000	4.67117	-0.31923	4.50223	-0.03173
4330.000	4.66135	-0.32915	4.46097	-0.10115
4331.000	4.68688	-0.29940	4.51009	-0.12098
4332.000	4.67117	-0.26173	4.48258	-0.15272
4333.000	4.66331	-0.32717	4.48258	-0.15668
4334.000	4.63778	-0.35097	4.56903	-0.10114
4335.000	4.66920	-0.34303	4.45704	-0.16264
4336.000	4.67902	-0.36285	4.49437	-0.11702
4337.000	4.63974	-0.32916	4.46686	-0.05752
4338.000	4.66135	-0.33312	4.49634	-0.09718
4339.000	4.64760	-0.31726	4.50223	-0.13090
4340.000	4.67509	-0.31130	4.48258	-0.09520
4341.000	4.66724	-0.31527	4.44721	-0.10711
4342.000	4.64367	-0.31528	4.51795	-0.15469
4343.000	4.64760	-0.33312	4.49830	-0.13883
4344.000	4.68491	-0.32319	4.51009	-0.09321
4345.000	4.64956	-0.36088	4.47079	-0.09124
4346.000	4.64367	-0.36287	4.44721	-0.10512
4347.000	4.64760	-0.36286	4.47865	-0.14082
4348.000	4.65742	-0.38269	4.46293	-0.08925
4349.000	4.62207	-0.38469	4.44721	-0.18248
4350.000	4.59849	-0.38669	4.47669	-0.08925
4351.000	4.63385	-0.37675	4.55135	-0.11502
4352.000	4.58671	-0.34307	4.44525	-0.10116
4353.000	4.62796	-0.34106	4.49634	-0.18445
4354.000	4.60046	-0.40850	4.45507	-0.09917
4355.000	4.60046	-0.35892	4.46686	-0.08132
4356.000	4.55331	-0.36688	4.41577	-0.06744
4357.000	4.57885	-0.37282	4.41184	-0.14281
4358.000	4.60439	-0.33909	4.47865	-0.06743
4359.000	4.63385	-0.33313	4.48062	-0.10313
4360.000	4.63974	-0.35295	4.45900	-0.08330
4361.000	4.60046	-0.29150	4.49634	-0.15470
4362.000	4.62207	-0.35296	4.50027	-0.10908
4363.000	4.62796	-0.32917	4.43935	0.00793
4364.000	4.63189	-0.29942	4.57885	-0.05156
4365.000	4.64956	-0.31131	4.50813	-0.08131
4366.000	4.64171	-0.29942	4.52777	-0.14279
4367.000	4.61421	-0.32917	4.47669	-0.13090
4368.000	4.59457	-0.33116	4.47276	-0.05752
4369.000	4.61814	-0.33115	4.48062	-0.09718
4370.000	4.59457	-0.40850	4.49044	-0.12098
4371.000	4.59653	-0.36884	4.46293	-0.10909
4372.000	4.67313	-0.36483	4.50616	-0.06743
4373.000	4.63581	-0.36089	4.57492	-0.08329
4374.000	4.65938	-0.41838	4.56903	-0.14477
4375.000	4.61224	-0.40056	4.47865	-0.09718
4376.000	4.58474	-0.41247	4.53563	-0.10908
4377.000	4.62010	-0.41047	4.51205	-0.13288
4378.000	4.64563	-0.39459	4.50813	-0.17056
4379.000	4.59260	-0.41643	4.50813	-0.12693
4380.000	4.58867	-0.42635	4.54742	-0.08726
4381.000	4.60635	-0.44419	4.54742	-0.10511
4382.000	4.58671	-0.42635	4.48848	-0.05355
4383.000	4.56706	-0.42041	4.51991	-0.13883
4384.000	4.56314	-0.41447	4.51205	-0.09123
4385.000	4.54153	-0.39068	4.52974	-0.11899
4386.000	4.61814	-0.39857	4.48651	-0.10313
4387.000	4.60832	-0.39263	4.56510	-0.14278
4388.000	4.57099	-0.44222	4.44721	-0.15074
4389.000	4.61028	-0.39858	4.61617	-0.14674
4390.000	4.56510	-0.45214	4.61028	-0.06544
4391.000	4.59457	-0.44816	4.57099	-0.13485
4392.000	4.56903	-0.41843	4.44721	-0.12892
4393.000	4.57492	-0.47593	4.58082	-0.13882
4394.000	4.58474	-0.44023	4.51009	-0.25386
4395.000	4.58474	-0.43428	4.62599	-0.13286
4396.000	4.57885	-0.44817	4.56706	-0.19038
4397.000	4.59457	-0.44419	4.56706	-0.23599
4398.000	4.58082	-0.44024	4.59653	-0.18244
4399.000	4.57885	-0.44420	4.53170	-0.12296
4400.000	4.59457	-0.44618	4.51598	-0.14478
4401.000	4.60439	-0.43626	4.62207	-0.13286
4402.000	4.57885	-0.43230	4.65545	-0.09914
4403.000	4.60635	-0.45608	4.57885	-0.16658
4404.000	4.59064	-0.44420	4.65153	-0.14277
4405.000	4.57885	-0.46800	4.51795	-0.16659
4406.000	4.59064	-0.44420	4.56706	-0.16658
4407.000	4.55528	-0.49776	4.51991	-0.18246
4408.000	4.59064	-0.45609	4.56314	-0.16857
4409.000	4.57885	-0.47593	4.58082	-0.21814
4410.000	4.58671	-0.48981	4.60635	-0.13881
4411.000	4.59064	-0.41842	4.52581	-0.11701
4412.000	4.59457	-0.42436	4.58474	-0.16658
4413.000	4.58671	-0.43230	4.52384	-0.12296
4414.000	4.60046	-0.40056	4.62796	-0.16855
4415.000	4.60242	-0.41841	4.52974	-0.12891
4416.000	4.59457	-0.41247	4.53170	-0.13486
4417.000	4.61617	-0.38073	4.43149	-0.07339
4418.000	4.58867	-0.41644	4.57689	-0.15666
4419.000	4.57492	-0.42239	4.57885	-0.10114
4420.000	4.61224	-0.41246	4.50420	-0.14875
4421.000	4.61028	-0.40849	4.53170	-0.12693
4422.000	4.60832	-0.46600	4.49044	-0.18247
4423.000	4.64563	-0.39459	4.55331	-0.11899
4424.000	4.61224	-0.43427	4.57296	-0.08924
4425.000	4.64367	-0.40847	4.52188	-0.14279
4426.000	4.61814	-0.41444	4.56706	-0.14477
4427.000	4.63974	-0.37477	4.58867	-0.12692
4428.000	4.65938	-0.39657	4.58474	-0.15666
4429.000	4.65153	-0.38467	4.62599	-0.23597
4430.000	4.64171	-0.35692	4.50813	-0.09123
4431.000	4.65545	-0.38071	4.58671	-0.15270
4432.000	4.65545	-0.41441	4.58082	-0.22409
4433.000	4.65153	-0.37079	4.52974	-0.18444
4434.000	4.65545	-0.40053	4.63581	-0.20424
4435.000	4.63581	-0.35891	4.62796	-0.14079
4436.000	4.65545	-0.35890	4.54545	-0.12891
4437.000	4.63189	-0.41839	4.57689	-0.16460
4438.000	4.70259	-0.33310	4.56314	-0.08131
4439.000	4.61814	-0.40056	4.62207	-0.23399
4440.000	4.67117	-0.41044	4.60242	-0.20425
4441.000	4.67902	-0.42035	4.58671	-0.22409
4442.000	4.69080	-0.41043	4.56706	-0.18245
4443.000	4.69866	-0.34896	4.51009	-0.20626
4444.000	4.69473	-0.36879	4.59653	-0.18046
4445.000	4.67706	-0.37276	4.59260	-0.16658
4446.000	4.73400	-0.39058	4.50616	-0.13486
4447.000	4.73793	-0.35092	4.58278	-0.24193
4448.000	4.69670	-0.36482	4.53956	-0.23402
4449.000	4.68491	-0.39457	4.51991	-0.16461
4450.000	4.66920	-0.43820	4.52188	-0.12693
4451.000	4.67902	-0.38862	4.54153	-0.21022
4452.000	4.71044	-0.38861	4.51598	-0.19436
4453.000	4.68884	-0.36086	4.53563	-0.16461
4454.000	4.69473	-0.34896	4.49044	-0.16858
4455.000	4.64367	-0.39063	4.60832	-0.15666
4456.000	4.67509	-0.40449	4.51991	-0.21816
4457.000	4.65742	-0.40053	4.56314	-0.23203
4458.000	4.67902	-0.40250	4.59064	-0.18046
4459.000	4.63385	-0.44020	4.56706	-0.18641
4460.000	4.65349	-0.39062	4.67313	-0.27958
4461.000	4.66331	-0.41837	4.50420	-0.13685
4462.000	4.68295	-0.38862	4.55528	-0.22608
4463.000	4.64956	-0.43028	4.63974	-0.14277
4464.000	4.67117	-0.38863	4.58867	-0.21219
4465.000	4.62992	-0.40650	4.58082	-0.11700
4466.000	4.60242	-0.44617	4.63581	-0.24985
4467.000	4.66135	-0.38467	4.52188	-0.21816
4468.000	4.64760	-0.42037	4.61421	-0.22011
4469.000	4.64956	-0.47390	4.59064	-0.16658
4470.000	4.60635	-0.43625	4.59064	-0.19236
4471.000	4.63974	-0.45210	4.58082	-0.25780
4472.000	4.65938	-0.41045	4.57689	-0.15270
4473.000	4.60242	-0.42238	4.65349	-0.19234
4474.000	4.63189	-0.44615	4.52581	-0.20824
4475.000	4.62207	-0.43624	4.50813	-0.21023
4476.000	4.65545	-0.47191	4.59653	-0.18244
4477.000	4.61814	-0.44021	4.66724	-0.20423
4478.000	4.63189	-0.47986	4.51402	-0.20428
4479.000	4.64171	-0.41244	4.53760	-0.20030
4480.000	4.62599	-0.46202	4.55331	-0.17650
4481.000	4.63581	-0.42236	4.59064	-0.23003
4482.000	4.64563	-0.42632	4.52188	-0.21022
4483.000	4.65938	-0.45407	4.56903	-0.23599
4484.000	4.63778	-0.43822	4.54349	-0.10313
4485.000	4.63189	-0.42434	4.62207	-0.23795
4486.000	4.62796	-0.44021	4.61617	-0.13881
4487.000	4.62992	-0.42236	4.51009	-0.18444
4488.000	4.65938	-0.40251	4.61224	-0.16855
4489.000	4.65153	-0.45407	4.59653	-0.12691
4490.000	4.64367	-0.45011	4.53170	-0.14874
4491.000	4.62796	-0.39857	4.53760	-0.20030
4492.000	4.62796	-0.47788	4.57099	-0.20228
4493.000	4.59260	-0.44816	4.57099	-0.20228
4494.000	4.65153	-0.41442	4.65349	-0.15863
4495.000	4.65545	-0.46200	4.56117	-0.20030
4496.000	4.59849	-0.47592	4.59064	-0.21417
4497.000	4.65742	-0.41243	4.52974	-0.14279
4498.000	4.68688	-0.42233	4.57099	-0.20228
4499.000	4.63581	-0.45210	4.61224	-0.17054
4500.000	4.63385	-0.41244	4.52188	-0.23997
4501.000	4.67706	-0.42233	4.66527	-0.24191
4502.000	4.67706	-0.44216	4.53760	-0.17849
4503.000	4.68099	-0.40647	4.57492	-0.16063
4504.000	4.64171	-0.44615	4.62207	-0.24192
4505.000	4.65938	-0.42432	4.57296	-0.17055
4506.000	4.66527	-0.48777	4.63385	-0.14079
4507.000	4.68884	-0.46793	4.58867	-0.19037
4508.000	4.68491	-0.42827	4.68295	-0.16457
4509.000	4.62010	-0.44814	4.52188	-0.08330
4510.000	4.65938	-0.45010	4.60242	-0.13485
4511.000	4.66331	-0.49570	4.59457	-0.16856
4512.000	4.67706	-0.45207	4.62010	-0.22209
4513.000	4.64563	-0.46994	4.57492	-0.15865
4514.000	4.64760	-0.46200	4.53563	-0.16461
4515.000	4.66724	-0.45406	4.57689	-0.18839
4516.000	4.64760	-0.46399	4.50420	-0.23204
4517.000	4.66724	-0.44415	4.55135	-0.16460
4518.000	4.65742	-0.46596	4.50223	-0.14478
4519.000	4.66920	-0.42432	4.54742	-0.19633
4520.000	4.65153	-0.41640	4.59457	-0.20425
4521.000	4.63385	-0.45012	4.62403	-0.15070
4522.000	4.65742	-0.44614	4.54938	-0.19633
4523.000	4.66724	-0.41837	4.53760	-0.11503
4524.000	4.63778	-0.39460	4.65349	-0.13087
4525.000	4.66724	-0.47587	4.53563	-0.16659
4526.000	4.70062	-0.45404	4.62207	-0.17847
4527.000	4.63778	-0.40848	4.58867	-0.25383
4528.000	4.64760	-0.40054	4.53956	-0.18245
4529.000	4.63974	-0.45606	4.55528	-0.09916
4530.000	4.67313	-0.44811	4.50616	-0.19238
4531.000	4.66724	-0.44613	4.61617	-0.22804
4532.000	4.65545	-0.44019	4.52384	-0.19832
4533.000	4.66135	-0.48579	4.63974	-0.15665
4534.000	4.69670	-0.42628	4.49044	-0.13090
4535.000	4.67509	-0.46199	4.61028	-0.21813
4536.000	4.65153	-0.45804	4.62403	-0.18441
4537.000	4.68688	-0.45207	4.54742	-0.14081
4538.000	4.68688	-0.42827	4.60242	-0.15468
4539.000	4.67706	-0.53336	4.58278	-0.18046
4540.000	4.66920	-0.45009	4.53170	-0.14874
4541.000	4.63974	-0.45804	4.53563	-0.10511
4542.000	4.70062	-0.42430	4.63189	-0.17252
4543.000	4.64956	-0.44019	4.62010	-0.11898
4544.000	4.66331	-0.45010	4.54938	-0.14675
4545.000	4.66135	-0.45208	4.64367	-0.17053
4546.000	4.68295	-0.46595	4.65545	-0.18837
4547.000	4.70062	-0.47387	4.61028	-0.17054
4548.000	4.67509	-0.44216	4.57296	-0.13287
4549.000	4.69080	-0.46396	4.53956	-0.20030
4550.000	4.62796	-0.46400	4.65938	-0.11897
4551.000	4.65349	-0.44614	4.57296	-0.16460
4552.000	4.58867	-0.45411	4.51009	-0.16263
4553.000	4.49634	-0.45219	4.58867	-0.09320
4554.000	4.45704	-0.39469	4.41577	-0.11504
4555.000	4.30373	-0.36899	4.38432	-0.15869
4556.000	4.18576	-0.39484	4.32535	-0.03174
4557.000	3.99693	-0.41279	4.20936	-0.15674
4558.000	3.89462	-0.37116	4.03235	-0.02183
4559.000	3.75487	-0.27395	3.72535	-0.03970
4560.000	3.57767	-0.37725	3.70369	0.03574
4561.000	3.39252	-0.31179	3.51465	-0.00993
4562.000	3.32356	-0.28599	3.48904	0.04369
4563.000	3.23292	-0.23835	3.33933	0.08143
4564.000	3.17971	-0.25823	3.35312	0.10725
4565.000	3.18365	-0.24234	3.23095	0.11520
4566.000	3.23489	-0.19465	3.30977	0.19861
4567.000	3.36691	-0.16087	3.30977	0.14896
4568.000	3.41025	-0.17873	3.49298	0.17872
4569.000	3.54025	-0.16282	3.44768	0.21646
4570.000	3.67810	-0.19059	3.69385	0.22831
4571.000	3.80212	-0.20843	3.85132	0.15284
4572.000	3.99103	-0.14885	3.87691	0.20444
