time (ms)	lx (deg)	ly (deg)	rx (deg)	ry (deg)
0.000	0.31236	-2.21311	1.03781	-1.85917
1.000	0.29655	-2.21907	1.11291	-1.82733
2.000	0.33411	-2.23495	1.02595	-1.93070
3.000	0.31632	-2.22701	1.12477	-1.85514
4.000	0.33411	-2.22502	1.15639	-1.84518
5.000	0.34004	-2.21310	1.12279	-1.83130
6.000	0.36376	-2.21707	1.09117	-1.81939
7.000	0.35783	-2.24091	1.09908	-1.80747
8.000	0.35388	-2.26077	1.10896	-1.82137
9.000	0.30050	-2.25483	1.14651	-1.84718
10.000	0.28073	-2.23497	1.11291	-1.89290
11.000	0.23922	-2.23299	1.08722	-1.87702
12.000	0.18188	-2.23697	1.12477	-1.80944
13.000	0.05733	-2.20321	0.91330	-1.83936
14.000	-0.03756	-2.23499	0.85598	-1.88907
15.000	-0.15421	-2.19526	0.64448	-1.86929
16.000	-0.32818	-2.25879	0.57727	-1.83155
17.000	-0.57924	-2.24481	0.34202	-1.89521
18.000	-0.73343	-2.26858	0.15223	-1.93100
19.000	-0.92713	-2.28634	-0.00395	-1.97870
20.000	-1.15441	-2.31398	-0.17200	-1.96876
21.000	-1.35992	-2.32174	-0.24712	-1.99657
22.000	-1.48835	-2.30175	-0.47052	-1.98460
23.000	-1.60491	-2.35523	-0.65041	-1.96268
24.000	-1.73330	-2.31140	-0.67413	-1.88915
25.000	-1.76886	-2.39870	-0.69785	-1.92689
26.000	-1.76688	-2.38283	-0.74133	-1.95072
27.000	-1.67602	-2.34721	-0.71564	-1.85336
28.000	-1.61281	-2.33934	-0.60494	-1.81962
29.000	-1.47847	-2.28389	-0.50610	-1.77593
30.000	-1.35202	-2.24231	-0.39539	-1.79583
31.000	-1.16034	-2.20276	-0.23724	-1.74219
32.000	-1.00619	-2.21081	-0.08501	-1.69252
33.000	-0.83819	-2.10763	-0.00791	-1.64879
34.000	-0.67808	-2.06002	0.14037	-1.64878
35.000	-0.57331	-1.97463	0.18781	-1.58914
36.000	-0.47447	-1.99254	0.24712	-1.58119
37.000	-0.38353	-1.93892	0.32620	-1.56527
38.000	-0.35586	-1.93892	0.40133	-1.58514
39.000	-0.33213	-1.96476	0.40528	-1.59905
40.000	-0.36772	-1.94488	0.47447	-1.64476
41.000	-0.38353	-1.99257	0.48040	-1.68053
42.000	-0.41121	-2.00448	0.44482	-1.72228
43.000	-0.41714	-2.03428	0.42505	-1.77197
44.000	-0.52784	-2.05809	0.29852	-1.81771
45.000	-0.61482	-2.10773	0.28666	-1.81572
46.000	-0.67017	-2.14347	0.24119	-1.85945
47.000	-0.71761	-2.21098	0.16211	-1.80183
48.000	-0.78087	-2.21890	0.05931	-1.89325
49.000	-0.81249	-2.21888	0.09885	-1.85748
50.000	-0.81249	-2.22086	0.05931	-1.87537
51.000	-0.86981	-2.22878	0.09292	-1.89325
52.000	-0.90342	-2.25855	0.07117	-1.87735
53.000	-0.88563	-2.22082	0.03361	-1.85947
54.000	-0.92120	-2.25457	0.04152	-1.85351
55.000	-0.87772	-2.18706	0.07908	-1.82568
56.000	-0.86586	-2.21488	0.03163	-1.84158
57.000	-0.89749	-2.20493	-0.00989	-1.79786
58.000	-0.92713	-2.16320	-0.05338	-1.81575
59.000	-0.90737	-2.15328	-0.00593	-1.77600
60.000	-0.90342	-2.12745	0.01779	-1.79985
61.000	-0.88760	-2.16918	0.03756	-1.72631
62.000	-0.89353	-2.08773	-0.07315	-1.72233
63.000	-0.84610	-2.13941	0.01779	-1.78594
64.000	-0.85005	-2.11358	-0.01779	-1.71438
65.000	-0.88760	-2.11753	-0.01384	-1.78991
66.000	-0.90144	-2.06985	-0.01186	-1.71637
67.000	-0.86191	-2.14138	-0.00593	-1.80581
68.000	-0.85796	-2.09570	0.01186	-1.76010
69.000	-0.89551	-2.15328	-0.00198	-1.81376
70.000	-0.87970	-2.12151	-0.04943	-1.77401
71.000	-0.86586	-2.09569	0.05733	-1.73823
72.000	-0.85796	-2.07782	-0.04745	-1.78991
73.000	-0.89551	-2.09965	-0.05733	-1.78196
74.000	-0.84017	-2.09173	0.03163	-1.82767
75.000	-0.85400	-2.08577	-0.00395	-1.74022
76.000	-0.86191	-2.10165	0.03954	-1.74618
77.000	-0.86981	-2.08377	0.01779	-1.81177
78.000	-0.88760	-2.08376	0.04349	-1.75413
79.000	-0.89749	-2.08574	0.04547	-1.80382
80.000	-0.83621	-2.08180	0.07117	-1.77401
81.000	-0.86784	-2.08576	0.03163	-1.76805
82.000	-0.83424	-2.04604	0.08106	-1.74618
83.000	-0.82435	-2.06393	0.12257	-1.84754
84.000	-0.87772	-2.07781	0.03559	-1.79190
85.000	-0.85993	-2.13145	0.03559	-1.78991
86.000	-0.85598	-2.07980	0.02570	-1.77997
87.000	-0.81052	-2.09373	0.01582	-1.80780
88.000	-0.85400	-2.10364	0.00198	-1.77004
89.000	-0.87179	-2.11555	0.10874	-1.82767
90.000	-0.80261	-2.12354	0.08897	-1.84357
91.000	-0.81842	-2.12154	0.05931	-1.86543
92.000	-0.83028	-2.06393	0.04349	-1.75413
93.000	-0.84807	-2.07385	0.01779	-1.82767
94.000	-0.85005	-2.10563	-0.02570	-1.89325
95.000	-0.90144	-2.10163	0.02768	-1.84755
96.000	-0.82633	-2.12551	0.00593	-1.77600
97.000	-0.88167	-2.10164	-0.02175	-1.82767
98.000	-0.85005	-2.12351	-0.01186	-1.81774
99.000	-0.87772	-2.12151	0.00198	-1.81972
100.000	-0.87772	-2.07979	-0.00198	-1.84158
101.000	-0.85400	-2.13146	-0.03163	-1.88928
102.000	-0.87772	-2.11356	-0.08501	-1.79985
103.000	-0.88563	-2.11157	0.05931	-1.79786
104.000	-0.85993	-2.13940	-0.01779	-1.82767
105.000	-0.87377	-2.12151	0.05536	-1.79786
106.000	-0.87377	-2.08774	0.04349	-1.84755
107.000	-0.87772	-2.10760	0.00989	-1.74618
108.000	-0.87179	-2.06986	-0.00791	-1.80184
109.000	-0.85005	-2.08577	-0.02570	-1.81773
110.000	-0.86191	-2.13145	0.01582	-1.81177
111.000	-0.86784	-2.06391	-0.01977	-1.76606
112.000	-0.86784	-2.08377	-0.01582	-1.84556
113.000	-0.85796	-2.04404	0.00395	-1.82767
114.000	-0.86191	-2.06590	-0.00989	-1.82767
115.000	-0.87377	-2.10959	-0.01582	-1.87338
116.000	-0.88760	-2.08773	0.10083	-1.86344
117.000	-0.86191	-2.12946	0.08106	-1.78196
118.000	-0.82633	-2.08578	0.01779	-1.88332
119.000	-0.83819	-2.08776	0.02768	-1.86344
120.000	-0.85400	-2.12550	0.01384	-1.89723
121.000	-0.85598	-2.09172	-0.01582	-1.85351
122.000	-0.87574	-2.10363	-0.01779	-1.84755
123.000	-0.83819	-2.09769	-0.06129	-1.85152
124.000	-0.88167	-2.07383	0.07117	-1.86344
125.000	-0.84017	-2.10365	-0.00791	-1.82171
126.000	-0.84807	-2.09173	0.05536	-1.82767
127.000	-0.85203	-2.08378	0.03756	-1.89922
128.000	-0.80656	-2.04804	0.02966	-1.83165
129.000	-0.85005	-2.08974	0.03163	-1.81177
130.000	-0.84017	-2.12153	0.02570	-1.82966
131.000	-0.84017	-2.08379	0.08106	-1.85947
132.000	-0.83819	-2.05995	0.01977	-1.87338
133.000	-0.85796	-2.05795	0.04547	-1.86543
134.000	-0.85993	-2.11159	0.04349	-1.90120
135.000	-0.84017	-2.08180	0.03163	-1.85550
136.000	-0.90342	-2.07183	0.01186	-1.84953
137.000	-0.85993	-2.12351	0.01582	-1.85947
138.000	-0.84412	-2.12947	0.00198	-1.85550
139.000	-0.86981	-2.08377	0.03756	-1.83960
140.000	-0.85796	-2.10364	-0.06326	-1.86344
141.000	-0.87179	-2.08774	0.02966	-1.86344
142.000	-0.85598	-2.08974	0.02570	-1.86146
143.000	-0.88760	-2.06191	-0.04745	-1.86344
144.000	-0.85796	-2.04802	-0.05338	-1.84953
145.000	-0.85598	-2.05199	0.01384	-1.77997
146.000	-0.89353	-2.08773	-0.00791	-1.85947
147.000	-0.86191	-2.08973	0.00989	-1.84357
148.000	-0.84412	-2.07385	0.06722	-1.88729
149.000	-0.84017	-2.06591	0.00593	-1.89922
150.000	-0.87179	-2.11158	0.01582	-1.91313
151.000	-0.87574	-2.07979	0.09687	-1.85947
152.000	-0.85796	-2.05000	0.04152	-1.85947
153.000	-0.86388	-2.06192	0.00593	-1.82568
154.000	-0.87179	-2.05794	0.03559	-1.85152
155.000	-0.89749	-2.10958	0.03361	-1.86146
156.000	-0.86191	-2.07186	0.03954	-1.86146
157.000	-0.85400	-2.07186	-0.06722	-1.79190
158.000	-0.82831	-2.07783	-0.03163	-1.83165
159.000	-0.84807	-2.04604	0.00593	-1.80780
160.000	-0.86586	-2.08973	0.03954	-1.85947
161.000	-0.85598	-2.10563	-0.04152	-1.84953
162.000	-0.86586	-2.12549	0.01977	-1.88729
163.000	-0.87574	-2.07185	0.00198	-1.90120
164.000	-0.86388	-2.05993	-0.03361	-1.88332
165.000	-0.87772	-2.03013	0.01384	-1.89723
166.000	-0.84807	-2.06988	-0.06920	-1.84158
167.000	-0.82831	-2.06194	-0.04349	-1.82966
168.000	-0.84214	-2.04405	-0.10083	-1.84953
169.000	-0.85993	-2.06987	-0.11467	-1.79388
170.000	-0.80459	-2.02222	0.00198	-1.80184
171.000	-0.82831	-2.04009	-0.02768	-1.84953
172.000	-0.82040	-2.01029	0.01186	-1.84158
173.000	-0.85598	-2.04206	0.01779	-1.87537
174.000	-0.83819	-2.06193	0.04547	-1.82370
175.000	-0.85796	-2.06192	0.01977	-1.81376
176.000	-0.87970	-2.08178	-0.04943	-1.79388
177.000	-0.87574	-2.04006	0.01186	-1.81376
178.000	-0.86586	-2.06192	0.00791	-1.85152
179.000	-0.85993	-2.04603	0.04745	-1.81177
180.000	-0.85598	-2.02815	0.02570	-1.82171
181.000	-0.87377	-2.06986	0.02175	-1.76407
182.000	-0.86191	-2.05994	-0.02372	-1.80979
183.000	-0.86586	-2.07185	0.01582	-1.82767
184.000	-0.86586	-2.09172	-0.00593	-1.74817
185.000	-0.87574	-2.06986	-0.03361	-1.81177
186.000	-0.85203	-2.07186	0.04547	-1.84556
187.000	-0.87179	-2.06390	-0.08699	-1.77600
188.000	-0.85796	-2.04603	-0.00989	-1.76407
189.000	-0.87772	-2.10562	0.03954	-1.75612
190.000	-0.85400	-2.05001	0.01384	-1.78395
191.000	-0.86784	-2.05000	0.02570	-1.78395
192.000	-0.88760	-2.05197	-0.03361	-1.80382
193.000	-0.90342	-2.02813	-0.01582	-1.82171
194.000	-0.89551	-2.05396	-0.02768	-1.81575
195.000	-0.85598	-2.06391	-0.02570	-1.80184
196.000	-0.88167	-2.03608	-0.00593	-1.81177
197.000	-0.89946	-2.05991	-0.02768	-1.79985
198.000	-0.85203	-2.06590	-0.06524	-1.79190
199.000	-0.87970	-2.02615	0.01977	-1.76407
200.000	-0.86784	-2.07980	0.02966	-1.84357
201.000	-0.85993	-2.03411	0.03559	-1.83562
202.000	-0.84412	-2.10564	-0.03361	-1.80979
203.000	-0.83819	-2.05995	0.03559	-1.79190
204.000	-0.85993	-2.05795	-0.00395	-1.81575
205.000	-0.86388	-2.06391	0.00000	-1.77997
206.000	-0.87772	-2.06986	0.07117	-1.82370
207.000	-0.85796	-2.06788	-0.08303	-1.81773
208.000	-0.86784	-2.06788	0.00000	-1.81972
209.000	-0.86586	-2.04007	0.05140	-1.77997
210.000	-0.89946	-2.06190	-0.02372	-1.80184
211.000	-0.89551	-2.04601	0.05536	-1.82966
212.000	-0.89946	-2.05395	0.02966	-1.81773
213.000	-0.85993	-2.03808	-0.02768	-1.78196
214.000	-0.90539	-2.06388	-0.10280	-1.80382
215.000	-0.89551	-2.05396	0.03559	-1.78395
216.000	-0.87970	-2.06986	-0.02768	-1.82171
217.000	-0.90342	-2.00627	-0.05338	-1.80382
218.000	-0.92120	-2.03408	-0.04547	-1.79389
219.000	-0.86388	-2.02417	0.03559	-1.81575
220.000	-0.89156	-2.08376	0.00000	-1.81575
221.000	-0.88167	-2.06787	-0.08106	-1.78991
222.000	-0.85993	-2.05795	-0.01582	-1.81177
223.000	-0.85796	-2.07186	-0.01977	-1.74618
224.000	-0.86191	-2.09172	-0.01384	-1.84357
225.000	-0.88760	-2.09965	-0.04943	-1.80780
226.000	-0.86586	-2.09768	0.00000	-1.86742
227.000	-0.89353	-2.10760	-0.02372	-1.80382
228.000	-0.90144	-2.09170	0.00395	-1.78991
229.000	-0.88167	-2.10959	-0.01779	-1.82767
230.000	-0.90737	-2.06388	-0.00791	-1.78792
231.000	-0.88365	-2.09171	0.02768	-1.84953
232.000	-0.90737	-2.07978	-0.03163	-1.76805
233.000	-0.84214	-2.08975	-0.05536	-1.76805
234.000	-0.87772	-2.05993	-0.02768	-1.81177
235.000	-0.89551	-2.07780	-0.01384	-1.74817
236.000	-0.89946	-2.09766	0.01977	-1.83165
237.000	-0.85796	-2.07980	0.00000	-1.79190
238.000	-0.85796	-2.13543	0.02966	-1.80979
239.000	-0.88365	-2.10164	0.04943	-1.73426
240.000	-0.91330	-2.11156	0.04349	-1.79786
241.000	-0.85796	-2.09172	0.00395	-1.79985
242.000	-0.90539	-2.07580	0.00989	-1.81774
243.000	-0.91330	-2.08176	-0.03559	-1.82568
244.000	-0.90539	-2.07183	0.00791	-1.82767
245.000	-0.86191	-2.09768	0.00395	-1.77004
246.000	-0.86388	-2.08576	-0.00198	-1.78594
247.000	-0.87970	-2.11952	0.02570	-1.75811
248.000	-0.88563	-2.06787	0.00000	-1.82966
249.000	-0.90144	-2.09369	0.04349	-1.79985
250.000	-0.87970	-2.05198	-0.04745	-1.71438
251.000	-0.87377	-2.06589	-0.01779	-1.80184
252.000	-0.84610	-2.01226	-0.03361	-1.81773
253.000	-0.81645	-1.97850	0.05140	-1.78593
254.000	-0.80459	-1.91095	0.05338	-1.72233
255.000	-0.72947	-1.86528	0.11862	-1.56927
256.000	-0.61878	-1.78384	0.21154	-1.54143
257.000	-0.49622	-1.63879	0.25701	-1.35653
258.000	-0.38353	-1.48375	0.41319	-1.26703
259.000	-0.30050	-1.31278	0.42307	-1.14971
260.000	-0.19375	-1.11990	0.46854	-0.91901
261.000	-0.10874	-0.97075	0.63064	-0.77579
262.000	0.01582	-0.76788	0.63262	-0.61865
263.000	0.06722	-0.61670	0.67017	-0.40183
264.000	0.04745	-0.50530	0.69982	-0.29640
265.000	0.09490	-0.35213	0.67413	-0.20888
266.000	0.07710	-0.25862	0.66424	-0.14522
267.000	0.02966	-0.19695	0.61482	-0.02188
268.000	-0.00791	-0.14722	0.65238	-0.07360
269.000	-0.11467	-0.10345	0.56936	-0.05769
270.000	-0.21549	-0.22679	0.49622	-0.14522
271.000	-0.23526	-0.20093	0.45075	-0.24071
272.000	-0.32620	-0.29841	0.37563	-0.25862
273.000	-0.39342	-0.32029	0.32027	-0.34615
274.000	-0.42109	-0.43368	0.32818	-0.48540
275.000	-0.47842	-0.55104	0.29655	-0.48342
276.000	-0.48435	-0.62861	0.29655	-0.65847
277.000	-0.49622	-0.72409	0.29852	-0.73007
278.000	-0.43889	-0.83747	0.35190	-0.72211
279.000	-0.42702	-0.89714	0.32818	-0.84146
280.000	-0.41912	-0.95482	0.35981	-0.84543
281.000	-0.39737	-1.03039	0.41516	-0.90907
282.000	-0.41516	-1.04829	0.43493	-0.92498
283.000	-0.35190	-1.05227	0.57331	-0.92496
284.000	-0.33609	-1.03438	0.49028	-0.93890
285.000	-0.34795	-1.05625	0.48831	-0.93890
286.000	-0.35586	-1.06619	0.50412	-0.87923
287.000	-0.28469	-1.02643	0.57133	-0.83745
288.000	-0.31632	-0.91903	0.45865	-0.82155
289.000	-0.29655	-0.96676	0.52587	-0.77381
290.000	-0.30446	-0.86732	0.53378	-0.82353
291.000	-0.28666	-0.87726	0.57529	-0.74596
292.000	-0.28666	-0.81958	0.53378	-0.73005
293.000	-0.29457	-0.86931	0.48435	-0.68630
294.000	-0.25503	-0.78776	0.54564	-0.70220
295.000	-0.23922	-0.78577	0.50215	-0.63657
296.000	-0.29062	-0.76986	0.42307	-0.66045
297.000	-0.25899	-0.70621	0.46656	-0.62066
298.000	-0.28073	-0.73604	0.47842	-0.60872
299.000	-0.27085	-0.66841	0.42307	-0.60873
300.000	-0.27678	-0.68035	0.48633	-0.59480
301.000	-0.25701	-0.67836	0.50808	-0.58485
302.000	-0.25701	-0.67836	0.53773	-0.58286
303.000	-0.29852	-0.64255	0.47447	-0.62464
304.000	-0.26887	-0.68234	0.45272	-0.57292
305.000	-0.29655	-0.67239	0.46459	-0.55701
306.000	-0.26294	-0.69228	0.43889	-0.55701
307.000	-0.26887	-0.66443	0.43691	-0.63061
308.000	-0.27678	-0.65449	0.42307	-0.55303
309.000	-0.27085	-0.68433	0.48633	-0.59480
310.000	-0.26887	-0.68234	0.45865	-0.62464
311.000	-0.29259	-0.68830	0.46459	-0.63856
312.000	-0.24515	-0.66444	0.52191	-0.64651
313.000	-0.26887	-0.68035	0.43098	-0.64453
314.000	-0.27085	-0.66642	0.53773	-0.64253
315.000	-0.25503	-0.71217	0.47645	-0.67436
316.000	-0.27085	-0.69825	0.45865	-0.65448
317.000	-0.31039	-0.72609	0.39935	-0.66642
318.000	-0.23922	-0.67836	0.45865	-0.66840
319.000	-0.29655	-0.68432	0.52587	-0.64651
320.000	-0.27282	-0.71416	0.56738	-0.69822
321.000	-0.27876	-0.66642	0.48040	-0.64851
322.000	-0.22933	-0.68234	0.46854	-0.64055
323.000	-0.24910	-0.69626	0.48831	-0.63856
324.000	-0.26887	-0.72212	0.44482	-0.66243
325.000	-0.26887	-0.69825	0.47052	-0.60475
326.000	-0.21945	-0.75793	0.44877	-0.68033
327.000	-0.25108	-0.71615	0.46261	-0.70022
328.000	-0.24910	-0.71217	0.48435	-0.70022
329.000	-0.23526	-0.71218	0.47249	-0.66044
330.000	-0.25701	-0.72212	0.49819	-0.66044
331.000	-0.24119	-0.76389	0.43889	-0.61668
332.000	-0.21549	-0.75991	0.49424	-0.65248
333.000	-0.23526	-0.74997	0.44679	-0.61867
334.000	-0.21549	-0.73207	0.47447	-0.65248
335.000	-0.21352	-0.74002	0.40330	-0.60475
336.000	-0.22538	-0.73803	0.52389	-0.60872
337.000	-0.18979	-0.68433	0.43889	-0.62464
338.000	-0.22933	-0.73406	0.51203	-0.70420
339.000	-0.20561	-0.69626	0.49819	-0.65248
340.000	-0.17793	-0.70422	0.47447	-0.57292
341.000	-0.23131	-0.77185	0.49028	-0.74796
342.000	-0.19770	-0.73605	0.54959	-0.63656
343.000	-0.24119	-0.74201	0.47645	-0.56894
344.000	-0.20165	-0.70820	0.50412	-0.67635
345.000	-0.21549	-0.71814	0.45470	-0.65249
346.000	-0.24910	-0.70621	0.40726	-0.73802
347.000	-0.26689	-0.72013	0.44679	-0.68630
348.000	-0.25503	-0.74599	0.44482	-0.62066
349.000	-0.25503	-0.71217	0.48633	-0.66641
350.000	-0.21747	-0.72212	0.47645	-0.64851
351.000	-0.23131	-0.70621	0.40330	-0.63459
352.000	-0.19177	-0.73008	0.42307	-0.62862
353.000	-0.23131	-0.67836	0.35783	-0.67239
354.000	-0.20956	-0.74002	0.46459	-0.65050
355.000	-0.19572	-0.68632	0.40923	-0.62862
356.000	-0.19968	-0.69626	0.43493	-0.63658
357.000	-0.21945	-0.75196	0.48435	-0.67237
358.000	-0.16014	-0.73406	0.43296	-0.67039
359.000	-0.20561	-0.72411	0.43493	-0.62862
360.000	-0.21747	-0.74201	0.50215	-0.64453
361.000	-0.20363	-0.69229	0.44284	-0.63260
362.000	-0.17595	-0.71019	0.45865	-0.66243
363.000	-0.18386	-0.67240	0.37365	-0.64255
364.000	-0.17793	-0.67836	0.46656	-0.60674
365.000	-0.17793	-0.71218	0.41319	-0.64453
366.000	-0.21549	-0.70422	0.41121	-0.66442
367.000	-0.21352	-0.73207	0.48040	-0.62861
368.000	-0.19770	-0.70621	0.44086	-0.61867
369.000	-0.19375	-0.73207	0.42900	-0.64851
370.000	-0.22538	-0.70621	0.44482	-0.55303
371.000	-0.20758	-0.75992	0.42900	-0.65647
372.000	-0.19770	-0.73605	0.44086	-0.63260
373.000	-0.22142	-0.75594	0.40528	-0.63260
374.000	-0.19375	-0.70024	0.43296	-0.61469
375.000	-0.17793	-0.69825	0.41319	-0.67636
376.000	-0.19770	-0.72013	0.43691	-0.63260
377.000	-0.17991	-0.72013	0.44482	-0.64851
378.000	-0.20956	-0.74201	0.43691	-0.63061
379.000	-0.14630	-0.69030	0.42109	-0.66442
380.000	-0.17002	-0.68632	0.44679	-0.63061
381.000	-0.17002	-0.70621	0.46261	-0.63458
382.000	-0.15618	-0.71815	0.35981	-0.68631
383.000	-0.17398	-0.72013	0.42109	-0.63260
384.000	-0.13839	-0.70223	0.47249	-0.67238
385.000	-0.17991	-0.75196	0.38353	-0.62067
386.000	-0.19770	-0.74201	0.38551	-0.59879
387.000	-0.18979	-0.69825	0.52982	-0.70022
388.000	-0.18188	-0.71815	0.47249	-0.59281
389.000	-0.18386	-0.73207	0.39342	-0.67238
390.000	-0.17002	-0.71815	0.39144	-0.64255
391.000	-0.16409	-0.71218	0.37958	-0.61072
392.000	-0.15421	-0.70223	0.46063	-0.67834
393.000	-0.18584	-0.71019	0.44877	-0.56894
394.000	-0.19968	-0.70223	0.47842	-0.66243
395.000	-0.16409	-0.65648	0.47447	-0.64055
396.000	-0.17002	-0.71019	0.42702	-0.66243
397.000	-0.20165	-0.70024	0.42307	-0.64851
398.000	-0.16211	-0.74003	0.44877	-0.60077
399.000	-0.19968	-0.70024	0.43889	-0.69028
400.000	-0.17398	-0.71417	0.47842	-0.63657
401.000	-0.17595	-0.72610	0.50017	-0.61668
402.000	-0.17200	-0.73605	0.48831	-0.58883
403.000	-0.16607	-0.71218	0.45272	-0.59281
404.000	-0.17793	-0.72013	0.40133	-0.63459
405.000	-0.16804	-0.72014	0.42900	-0.61072
406.000	-0.21154	-0.73804	0.43889	-0.63856
407.000	-0.13641	-0.73804	0.42702	-0.64453
408.000	-0.13839	-0.74202	0.47249	-0.65050
409.000	-0.17002	-0.74798	0.45668	-0.65646
410.000	-0.17002	-0.72212	0.47249	-0.62265
411.000	-0.17200	-0.74798	0.50610	-0.56098
412.000	-0.20956	-0.77782	0.48435	-0.62265
413.000	-0.18188	-0.74400	0.48435	-0.66641
414.000	-0.20956	-0.76588	0.44482	-0.56894
415.000	-0.15816	-0.74003	0.36969	-0.55900
416.000	-0.19375	-0.79771	0.44877	-0.65647
417.000	-0.19770	-0.76588	0.42307	-0.60276
418.000	-0.19968	-0.75395	0.44086	-0.64254
419.000	-0.20363	-0.75793	0.41516	-0.63658
420.000	-0.21747	-0.77583	0.43098	-0.58486
421.000	-0.21549	-0.76190	0.44482	-0.63061
422.000	-0.18584	-0.78776	0.44877	-0.61867
423.000	-0.21154	-0.74400	0.44284	-0.52319
424.000	-0.21154	-0.75992	0.44086	-0.59878
425.000	-0.16409	-0.70621	0.42900	-0.60475
426.000	-0.20363	-0.75395	0.35388	-0.59879
427.000	-0.18188	-0.78180	0.51401	-0.58883
428.000	-0.16211	-0.74400	0.40726	-0.56298
429.000	-0.19177	-0.73008	0.44086	-0.62663
430.000	-0.20165	-0.74400	0.44086	-0.56298
431.000	-0.20758	-0.68234	0.39539	-0.56497
432.000	-0.19572	-0.73406	0.47645	-0.55303
433.000	-0.17595	-0.73804	0.33411	-0.58089
434.000	-0.20758	-0.75594	0.40133	-0.58088
435.000	-0.20758	-0.74201	0.48831	-0.55700
436.000	-0.17793	-0.73008	0.41714	-0.62464
437.000	-0.19572	-0.74798	0.41714	-0.58287
438.000	-0.22933	-0.72212	0.45272	-0.57690
439.000	-0.21154	-0.74798	0.38156	-0.61868
440.000	-0.22142	-0.72809	0.46656	-0.57889
441.000	-0.21549	-0.73406	0.38353	-0.62067
442.000	-0.14827	-0.70024	0.40133	-0.59083
443.000	-0.17398	-0.73406	0.43889	-0.56497
444.000	-0.17991	-0.71019	0.43691	-0.59679
445.000	-0.14827	-0.75992	0.46063	-0.63856
446.000	-0.17002	-0.73605	0.44086	-0.64453
447.000	-0.21747	-0.80566	0.42307	-0.60873
448.000	-0.18584	-0.73605	0.35388	-0.59083
449.000	-0.16607	-0.71616	0.42307	-0.61271
450.000	-0.17398	-0.71218	0.45470	-0.54109
451.000	-0.20758	-0.73406	0.37958	-0.58685
452.000	-0.16607	-0.74997	0.39935	-0.56696
453.000	-0.18781	-0.73804	0.35190	-0.63459
454.000	-0.23131	-0.73803	0.35981	-0.57492
455.000	-0.18188	-0.74599	0.43493	-0.62265
456.000	-0.20165	-0.75793	0.47052	-0.65845
457.000	-0.21747	-0.72212	0.46459	-0.60276
458.000	-0.17991	-0.72809	0.39342	-0.62067
459.000	-0.18584	-0.73207	0.37563	-0.57690
460.000	-0.17002	-0.68234	0.47447	-0.60475
461.000	-0.16607	-0.68831	0.39737	-0.57491
462.000	-0.17793	-0.72212	0.41912	-0.60674
463.000	-0.18781	-0.67438	0.40330	-0.58884
464.000	-0.15816	-0.70621	0.37760	-0.55303
465.000	-0.15421	-0.67439	0.45470	-0.62265
466.000	-0.18188	-0.67836	0.44679	-0.63061
467.000	-0.14037	-0.69030	0.52389	-0.59281
468.000	-0.17002	-0.69627	0.38353	-0.60475
469.000	-0.18188	-0.68632	0.45865	-0.62663
470.000	-0.17002	-0.69627	0.44679	-0.60674
471.000	-0.17793	-0.70024	0.45668	-0.61469
472.000	-0.13048	-0.70422	0.40923	-0.55701
473.000	-0.17002	-0.69627	0.44877	-0.60276
474.000	-0.16211	-0.68234	0.44086	-0.58088
475.000	-0.13839	-0.65251	0.44679	-0.62862
476.000	-0.12060	-0.67041	0.49622	-0.56695
477.000	-0.14630	-0.67836	0.46656	-0.59878
478.000	-0.12257	-0.67240	0.48633	-0.55502
479.000	-0.14432	-0.71417	0.41714	-0.61867
480.000	-0.14432	-0.70820	0.44877	-0.70818
481.000	-0.15025	-0.71417	0.48831	-0.65049
482.000	-0.15618	-0.68632	0.45272	-0.66840
483.000	-0.12455	-0.68234	0.49622	-0.64850
484.000	-0.16804	-0.65250	0.42900	-0.64055
485.000	-0.17002	-0.71815	0.48633	-0.67834
486.000	-0.18979	-0.71815	0.39342	-0.60276
487.000	-0.17793	-0.71019	0.42307	-0.58884
488.000	-0.20758	-0.74400	0.40528	-0.68233
489.000	-0.16804	-0.70223	0.45470	-0.62464
490.000	-0.18781	-0.66643	0.47645	-0.62663
491.000	-0.14037	-0.70422	0.44086	-0.67238
492.000	-0.15618	-0.68234	0.50412	-0.62662
493.000	-0.16014	-0.66444	0.35586	-0.61868
494.000	-0.17002	-0.66842	0.39539	-0.63061
495.000	-0.15618	-0.69229	0.43691	-0.59281
496.000	-0.14432	-0.68035	0.40923	-0.60674
497.000	-0.18584	-0.68035	0.44679	-0.63459
498.000	-0.18781	-0.66643	0.41121	-0.60475
499.000	-0.19177	-0.67438	0.45865	-0.62862
500.000	-0.17991	-0.66444	0.42307	-0.60077
501.000	-0.18386	-0.64853	0.45272	-0.55701
502.000	-0.21154	-0.69229	0.52389	-0.57689
503.000	-0.18584	-0.66444	0.47645	-0.51722
504.000	-0.18584	-0.65449	0.41516	-0.61470
505.000	-0.20758	-0.67438	0.46854	-0.56496
506.000	-0.18584	-0.70621	0.39935	-0.55701
507.000	-0.23329	-0.68831	0.41714	-0.61072
508.000	-0.21945	-0.67637	0.43296	-0.51722
509.000	-0.22735	-0.68632	0.43691	-0.57093
510.000	-0.17200	-0.71616	0.44877	-0.55104
511.000	-0.21945	-0.66842	0.39935	-0.62663
512.000	-0.21549	-0.72610	0.42505	-0.57491
513.000	-0.20561	-0.70024	0.43889	-0.59480
514.000	-0.20363	-0.66842	0.46459	-0.57889
515.000	-0.17200	-0.69030	0.39342	-0.48739
516.000	-0.22340	-0.71218	0.40726	-0.58884
517.000	-0.20561	-0.72212	0.44482	-0.54905
518.000	-0.21154	-0.68433	0.43098	-0.64055
519.000	-0.18386	-0.70024	0.43889	-0.59281
520.000	-0.19177	-0.67637	0.42505	-0.59480
521.000	-0.21549	-0.68433	0.44877	-0.59679
522.000	-0.21154	-0.74997	0.34795	-0.54707
523.000	-0.17595	-0.72212	0.44086	-0.59480
524.000	-0.19770	-0.71019	0.45865	-0.62265
525.000	-0.19770	-0.71616	0.40133	-0.54508
526.000	-0.21154	-0.73605	0.44482	-0.58883
527.000	-0.18781	-0.69626	0.40923	-0.54309
528.000	-0.16409	-0.71417	0.43691	-0.56099
529.000	-0.18386	-0.73605	0.42109	-0.59480
530.000	-0.19770	-0.72610	0.44482	-0.57093
531.000	-0.18979	-0.72411	0.45075	-0.64254
532.000	-0.19375	-0.67041	0.41912	-0.60077
533.000	-0.20165	-0.72809	0.42109	-0.53911
534.000	-0.20758	-0.68831	0.43889	-0.60475
535.000	-0.17991	-0.71417	0.45470	-0.60077
536.000	-0.20165	-0.68831	0.45865	-0.58088
537.000	-0.20956	-0.69825	0.48831	-0.56496
538.000	-0.17398	-0.73605	0.44679	-0.65249
539.000	-0.18386	-0.69428	0.44482	-0.59878
540.000	-0.19968	-0.70024	0.45272	-0.58685
541.000	-0.19770	-0.72212	0.42109	-0.50927
542.000	-0.18979	-0.73605	0.48040	-0.55104
543.000	-0.18979	-0.67240	0.41516	-0.56298
544.000	-0.19770	-0.70223	0.45272	-0.57491
545.000	-0.18584	-0.66643	0.39144	-0.52717
546.000	-0.21747	-0.69229	0.43691	-0.58685
547.000	-0.20165	-0.69428	0.47249	-0.54507
548.000	-0.18979	-0.68632	0.42307	-0.53712
549.000	-0.16804	-0.70621	0.49424	-0.55899
550.000	-0.17991	-0.69428	0.44482	-0.54109
551.000	-0.17200	-0.66643	0.47447	-0.58088
552.000	-0.17595	-0.71616	0.41516	-0.53314
553.000	-0.18781	-0.65847	0.47842	-0.55303
554.000	-0.20956	-0.71019	0.44679	-0.54706
555.000	-0.16607	-0.66643	0.49226	-0.58087
556.000	-0.18188	-0.68234	0.42900	-0.53115
557.000	-0.16409	-0.68433	0.40923	-0.53712
558.000	-0.17595	-0.69627	0.44482	-0.53513
559.000	-0.19375	-0.67438	0.47645	-0.58088
560.000	-0.18584	-0.71218	0.46854	-0.55502
561.000	-0.18386	-0.69229	0.38946	-0.47147
562.000	-0.19770	-0.70223	0.39144	-0.48540
563.000	-0.16409	-0.75196	0.48238	-0.50728
564.000	-0.15618	-0.66842	0.46261	-0.54308
565.000	-0.17595	-0.69030	0.39342	-0.56298
566.000	-0.19375	-0.64654	0.48040	-0.61270
567.000	-0.17002	-0.67438	0.40133	-0.49932
568.000	-0.15421	-0.70422	0.55354	-0.52119
569.000	-0.14037	-0.66444	0.47249	-0.51324
570.000	-0.13444	-0.68433	0.46656	-0.56098
571.000	-0.14037	-0.69229	0.48040	-0.55701
572.000	-0.15618	-0.68035	0.51401	-0.52716
573.000	-0.14432	-0.67637	0.46854	-0.60276
574.000	-0.11269	-0.70223	0.44086	-0.56695
575.000	-0.12653	-0.69428	0.45470	-0.58088
576.000	-0.17200	-0.68433	0.51005	-0.49136
577.000	-0.12455	-0.70820	0.49819	-0.59480
578.000	-0.18584	-0.70422	0.51994	-0.56496
579.000	-0.16409	-0.69825	0.45865	-0.59281
580.000	-0.13444	-0.68234	0.50215	-0.58883
581.000	-0.14037	-0.66643	0.50412	-0.57093
582.000	-0.13839	-0.72411	0.49622	-0.54905
583.000	-0.17793	-0.72013	0.42307	-0.60475
584.000	-0.17793	-0.67240	0.48040	-0.58684
585.000	-0.13048	-0.69030	0.47447	-0.60872
586.000	-0.14432	-0.68632	0.49226	-0.55700
587.000	-0.15223	-0.69229	0.46063	-0.55701
588.000	-0.16014	-0.65250	0.45470	-0.56099
589.000	-0.16014	-0.66046	0.52982	-0.63458
590.000	-0.14827	-0.70820	0.52191	-0.59877
591.000	-0.14432	-0.67439	0.48435	-0.61867
592.000	-0.17200	-0.69229	0.48831	-0.60872
593.000	-0.16607	-0.71417	0.47249	-0.54905
594.000	-0.17398	-0.71815	0.54761	-0.64452
595.000	-0.17793	-0.66444	0.48435	-0.59480
596.000	-0.15618	-0.71019	0.49424	-0.60275
597.000	-0.20956	-0.68234	0.48633	-0.61668
598.000	-0.17595	-0.70223	0.53773	-0.57092
599.000	-0.11467	-0.70025	0.48831	-0.61270
600.000	-0.17200	-0.69825	0.44086	-0.63061
601.000	-0.16211	-0.69825	0.47447	-0.64453
602.000	-0.14037	-0.73008	0.44086	-0.62265
603.000	-0.18386	-0.62664	0.39935	-0.65647
604.000	-0.16607	-0.68433	0.44284	-0.65845
605.000	-0.16607	-0.70024	0.45865	-0.61867
606.000	-0.12060	-0.66643	0.50017	-0.64254
607.000	-0.15223	-0.69229	0.44086	-0.67835
608.000	-0.13444	-0.72610	0.54564	-0.55103
609.000	-0.16804	-0.71417	0.50215	-0.63458
610.000	-0.18584	-0.72013	0.43889	-0.60077
611.000	-0.16804	-0.76191	0.51005	-0.60275
612.000	-0.16607	-0.71019	0.52587	-0.59877
613.000	-0.13839	-0.69428	0.43889	-0.62265
614.000	-0.12060	-0.68831	0.47249	-0.66243
615.000	-0.13641	-0.68234	0.52389	-0.55501
616.000	-0.16409	-0.63460	0.49226	-0.57889
617.000	-0.16409	-0.69229	0.51005	-0.54905
618.000	-0.12850	-0.68632	0.50412	-0.51722
619.000	-0.14234	-0.69030	0.51203	-0.51921
620.000	-0.13839	-0.72213	0.45075	-0.52518
621.000	-0.16804	-0.64455	0.42307	-0.54905
622.000	-0.16014	-0.69229	0.46261	-0.55502
623.000	-0.18584	-0.69229	0.49819	-0.45356
624.000	-0.16014	-0.68831	0.50215	-0.55104
625.000	-0.14432	-0.68035	0.43493	-0.49335
626.000	-0.20561	-0.67836	0.49622	-0.56098
627.000	-0.20165	-0.69825	0.52389	-0.52120
628.000	-0.16014	-0.68234	0.46459	-0.44362
629.000	-0.19968	-0.70422	0.52191	-0.55501
630.000	-0.17595	-0.67637	0.48040	-0.57889
631.000	-0.17200	-0.69428	0.47842	-0.48340
632.000	-0.16804	-0.68433	0.49819	-0.56098
633.000	-0.14037	-0.73804	0.52191	-0.55700
634.000	-0.14630	-0.71218	0.47249	-0.53115
635.000	-0.17793	-0.71218	0.46261	-0.53711
636.000	-0.19572	-0.73207	0.44482	-0.49534
637.000	-0.15816	-0.75395	0.42900	-0.58685
638.000	-0.18781	-0.69229	0.40133	-0.51922
639.000	-0.14827	-0.73008	0.46656	-0.48539
640.000	-0.18188	-0.72212	0.48831	-0.53910
641.000	-0.14432	-0.66643	0.41516	-0.55303
642.000	-0.16409	-0.70621	0.46656	-0.56098
643.000	-0.14037	-0.71417	0.49226	-0.46550
644.000	-0.14037	-0.71417	0.49622	-0.59281
645.000	-0.13641	-0.67439	0.48831	-0.56894
646.000	-0.16014	-0.69428	0.47842	-0.51523
647.000	-0.15816	-0.67439	0.53378	-0.51722
648.000	-0.13246	-0.66643	0.51401	-0.50926
649.000	-0.13048	-0.66046	0.55157	-0.57689
650.000	-0.12850	-0.66444	0.49622	-0.56496
651.000	-0.10083	-0.61670	0.51401	-0.59082
652.000	-0.14827	-0.68433	0.48435	-0.54308
653.000	-0.13246	-0.69030	0.48633	-0.52916
654.000	-0.13444	-0.64455	0.43098	-0.58486
655.000	-0.12850	-0.67439	0.52191	-0.52319
656.000	-0.14037	-0.63659	0.50808	-0.54706
657.000	-0.15421	-0.66046	0.50017	-0.58684
658.000	-0.12653	-0.65449	0.53773	-0.47345
659.000	-0.17200	-0.70223	0.43691	-0.52916
660.000	-0.13048	-0.68234	0.43889	-0.50728
661.000	-0.15816	-0.67637	0.45865	-0.58287
662.000	-0.14827	-0.67439	0.54564	-0.62463
663.000	-0.14432	-0.68234	0.46063	-0.60077
664.000	-0.14234	-0.69229	0.46656	-0.55701
665.000	-0.18584	-0.69030	0.48831	-0.56098
666.000	-0.15025	-0.69826	0.51994	-0.58883
667.000	-0.14630	-0.66643	0.44877	-0.56496
668.000	-0.19375	-0.67239	0.49424	-0.57292
669.000	-0.15223	-0.66842	0.45272	-0.56297
670.000	-0.16014	-0.64654	0.53180	-0.65646
671.000	-0.14827	-0.62863	0.55354	-0.56694
672.000	-0.14630	-0.67439	0.55750	-0.60275
673.000	-0.12455	-0.69826	0.58715	-0.64253
674.000	-0.12653	-0.67638	0.49424	-0.62662
675.000	-0.15816	-0.64455	0.47052	-0.54706
676.000	-0.15223	-0.65648	0.53773	-0.59877
677.000	-0.17002	-0.65052	0.55750	-0.60275
678.000	-0.17002	-0.65648	0.51598	-0.63458
679.000	-0.15421	-0.65052	0.55157	-0.59479
680.000	-0.17398	-0.68831	0.50610	-0.63657
681.000	-0.21549	-0.66046	0.50808	-0.57491
682.000	-0.17200	-0.66643	0.49226	-0.60872
683.000	-0.18386	-0.68831	0.59110	-0.62065
684.000	-0.17200	-0.67836	0.53575	-0.57888
685.000	-0.12455	-0.70422	0.55354	-0.65049
686.000	-0.16211	-0.66643	0.51994	-0.53512
687.000	-0.14037	-0.69627	0.51994	-0.61469
688.000	-0.16607	-0.65847	0.45668	-0.55701
689.000	-0.16804	-0.65648	0.51203	-0.50727
690.000	-0.18979	-0.66643	0.46656	-0.55900
691.000	-0.18386	-0.67836	0.46854	-0.58883
692.000	-0.14630	-0.64057	0.49028	-0.59281
693.000	-0.19968	-0.65449	0.50017	-0.58684
694.000	-0.17398	-0.63858	0.49424	-0.49932
695.000	-0.12653	-0.66842	0.52389	-0.55700
696.000	-0.15618	-0.68234	0.49226	-0.58286
697.000	-0.18979	-0.65648	0.49226	-0.57093
698.000	-0.17595	-0.64654	0.47645	-0.56894
699.000	-0.15025	-0.63261	0.53971	-0.61071
700.000	-0.16804	-0.63659	0.42505	-0.57889
701.000	-0.17793	-0.66046	0.46063	-0.58088
702.000	-0.14630	-0.63261	0.49819	-0.55899
703.000	-0.18188	-0.65847	0.48633	-0.65447
704.000	-0.19177	-0.65250	0.53378	-0.62463
705.000	-0.16211	-0.59880	0.52389	-0.57093
706.000	-0.17002	-0.62068	0.52191	-0.64850
707.000	-0.15618	-0.65052	0.47052	-0.57093
708.000	-0.13839	-0.64057	0.47447	-0.60872
709.000	-0.13839	-0.61471	0.47645	-0.59878
710.000	-0.17793	-0.66643	0.50610	-0.61668
711.000	-0.15618	-0.65449	0.50808	-0.67436
712.000	-0.16014	-0.61073	0.53180	-0.63060
713.000	-0.14827	-0.61471	0.55750	-0.61071
714.000	-0.16211	-0.61073	0.50017	-0.59878
715.000	-0.16804	-0.60277	0.51203	-0.62066
716.000	-0.12850	-0.59084	0.49424	-0.65447
717.000	-0.11664	-0.57294	0.45668	-0.61071
718.000	-0.17398	-0.61869	0.47249	-0.65447
719.000	-0.14630	-0.63261	0.44482	-0.60674
720.000	-0.15025	-0.62068	0.47052	-0.60674
721.000	-0.15816	-0.64256	0.45272	-0.59281
722.000	-0.11269	-0.60278	0.46459	-0.63259
723.000	-0.15816	-0.61471	0.50808	-0.58087
724.000	-0.15816	-0.63261	0.50017	-0.57888
725.000	-0.13246	-0.62068	0.50215	-0.64850
726.000	-0.14630	-0.61471	0.47842	-0.59679
727.000	-0.17200	-0.60079	0.48238	-0.59281
728.000	-0.16607	-0.64256	0.46459	-0.58088
729.000	-0.14234	-0.58487	0.45272	-0.59480
730.000	-0.14037	-0.59681	0.49819	-0.59679
731.000	-0.12060	-0.59681	0.52587	-0.61071
732.000	-0.16211	-0.58288	0.51598	-0.65646
733.000	-0.14630	-0.63659	0.46063	-0.67039
734.000	-0.16409	-0.61272	0.49424	-0.60275
735.000	-0.15223	-0.61869	0.50808	-0.61071
736.000	-0.15816	-0.58885	0.45272	-0.59679
737.000	-0.14432	-0.58686	0.49028	-0.59281
738.000	-0.16014	-0.56697	0.49028	-0.57292
739.000	-0.14037	-0.58885	0.47842	-0.61270
740.000	-0.13839	-0.56299	0.55552	-0.60872
741.000	-0.15618	-0.60277	0.47447	-0.57491
742.000	-0.12850	-0.59084	0.44679	-0.66044
743.000	-0.17200	-0.58089	0.51796	-0.56098
744.000	-0.18188	-0.56896	0.46854	-0.69028
745.000	-0.14234	-0.57890	0.49622	-0.66442
746.000	-0.17002	-0.64455	0.47645	-0.62464
747.000	-0.17200	-0.55503	0.49226	-0.67834
748.000	-0.17398	-0.60277	0.43889	-0.64254
749.000	-0.14037	-0.59880	0.45470	-0.61270
750.000	-0.14037	-0.58089	0.48633	-0.64254
751.000	-0.14630	-0.59880	0.41714	-0.61470
752.000	-0.13246	-0.58288	0.46063	-0.61270
753.000	-0.17002	-0.53912	0.46063	-0.58684
754.000	-0.14630	-0.60079	0.40923	-0.52916
755.000	-0.12653	-0.56100	0.48831	-0.55700
756.000	-0.14037	-0.59681	0.46656	-0.64652
757.000	-0.16607	-0.56896	0.43098	-0.57292
758.000	-0.14432	-0.54509	0.48040	-0.72210
759.000	-0.13641	-0.57095	0.46854	-0.65249
760.000	-0.15421	-0.55702	0.43296	-0.68034
761.000	-0.16014	-0.55503	0.42109	-0.61271
762.000	-0.14432	-0.54907	0.44482	-0.65647
763.000	-0.12455	-0.57294	0.48633	-0.66044
764.000	-0.14827	-0.49735	0.43691	-0.64851
765.000	-0.14630	-0.54907	0.47447	-0.62066
766.000	-0.14630	-0.54509	0.46063	-0.67437
767.000	-0.13246	-0.54509	0.47645	-0.65845
768.000	-0.17793	-0.53116	0.40726	-0.69227
769.000	-0.09094	-0.56498	0.51994	-0.68033
770.000	-0.13839	-0.55106	0.44482	-0.67636
771.000	-0.14037	-0.53713	0.35388	-0.67438
772.000	-0.13839	-0.56896	0.46854	-0.65249
773.000	-0.16409	-0.51326	0.39935	-0.69028
774.000	-0.15816	-0.52122	0.42109	-0.66442
775.000	-0.14630	-0.52519	0.50412	-0.62265
776.000	-0.14827	-0.51525	0.41912	-0.74001
777.000	-0.14037	-0.54509	0.37167	-0.65050
778.000	-0.13641	-0.51923	0.41714	-0.66840
779.000	-0.19177	-0.53514	0.42109	-0.65647
780.000	-0.14432	-0.51326	0.48040	-0.65646
781.000	-0.16014	-0.49933	0.41912	-0.66045
782.000	-0.19770	-0.50530	0.44482	-0.65845
783.000	-0.10874	-0.47745	0.39737	-0.63459
784.000	-0.16409	-0.49734	0.43493	-0.67238
785.000	-0.15816	-0.45955	0.49622	-0.71017
786.000	-0.17398	-0.49138	0.41714	-0.68432
787.000	-0.12257	-0.51724	0.53180	-0.66839
788.000	-0.14037	-0.52520	0.47842	-0.74000
789.000	-0.14432	-0.50530	0.39342	-0.70421
790.000	-0.17200	-0.50530	0.40133	-0.72012
791.000	-0.13444	-0.48939	0.44679	-0.70023
792.000	-0.15223	-0.48342	0.33806	-0.65250
793.000	-0.13839	-0.51923	0.37958	-0.66443
794.000	-0.12850	-0.54708	0.39539	-0.63061
795.000	-0.12653	-0.51127	0.39342	-0.68830
796.000	-0.12455	-0.48342	0.41319	-0.74001
797.000	-0.14630	-0.52917	0.44679	-0.68033
798.000	-0.16804	-0.46353	0.34795	-0.64852
799.000	-0.10083	-0.46751	0.39144	-0.69029
800.000	-0.10478	-0.49735	0.41912	-0.68630
801.000	-0.12455	-0.48541	0.37958	-0.71813
802.000	-0.14432	-0.47148	0.41714	-0.70620
803.000	-0.15223	-0.46751	0.40330	-0.64453
804.000	-0.15223	-0.52917	0.40726	-0.69824
805.000	-0.12257	-0.43767	0.40330	-0.66443
806.000	-0.15618	-0.49138	0.43691	-0.69824
807.000	-0.11862	-0.46751	0.40726	-0.66641
808.000	-0.14827	-0.45557	0.45668	-0.69426
809.000	-0.13839	-0.47546	0.45272	-0.74597
810.000	-0.13246	-0.43568	0.38946	-0.71415
811.000	-0.10280	-0.51724	0.34399	-0.64454
812.000	-0.10083	-0.44761	0.39935	-0.71018
813.000	-0.13444	-0.47347	0.42900	-0.61867
814.000	-0.10874	-0.48541	0.38551	-0.64851
815.000	-0.09292	-0.44960	0.38946	-0.69824
816.000	-0.10874	-0.48143	0.43098	-0.64254
817.000	-0.14432	-0.45557	0.40330	-0.67238
818.000	-0.11071	-0.49735	0.40330	-0.71614
819.000	-0.12257	-0.46751	0.32620	-0.70819
820.000	-0.10478	-0.46950	0.37958	-0.63857
821.000	-0.12653	-0.42971	0.46656	-0.70818
822.000	-0.13048	-0.44761	0.34399	-0.63857
823.000	-0.13246	-0.44960	0.42109	-0.66641
824.000	-0.09292	-0.46950	0.35981	-0.65249
825.000	-0.11664	-0.42573	0.28271	-0.71018
826.000	-0.15223	-0.47148	0.35190	-0.61868
827.000	-0.12060	-0.47347	0.44284	-0.64453
828.000	-0.14037	-0.44363	0.34202	-0.65051
829.000	-0.22142	-0.43369	0.32027	-0.70421
830.000	-0.28073	-0.40583	0.25305	-0.67438
831.000	-0.40133	-0.35610	0.14827	-0.62466
832.000	-0.53773	-0.32028	-0.09094	-0.65450
833.000	-0.74529	-0.24269	-0.17991	-0.63659
834.000	-0.98247	-0.15714	-0.33016	-0.51723
835.000	-1.26310	-0.05569	-0.62075	-0.33818
836.000	-1.53774	0.03779	-1.04572	-0.30234
837.000	-1.85378	0.19089	-1.35795	-0.20088
838.000	-2.16971	0.34193	-1.60886	0.02386
839.000	-2.50130	0.48495	-1.95252	0.20678
840.000	-2.85441	0.59806	-2.33947	0.31009
841.000	-3.19153	0.80839	-2.65716	0.51470
842.000	-3.50283	0.95504	-2.99244	0.76087
843.000	-3.81589	1.13330	-3.29007	0.85398
844.000	-4.05202	1.30158	-3.65841	0.94099
845.000	-4.22116	1.49761	-3.86510	1.12332
846.000	-4.41577	1.57651	-4.12283	1.26577
847.000	-4.54938	1.66737	-4.30373	1.38246
848.000	-4.71830	1.75018	-4.46490	1.47730
849.000	-4.79880	1.76780	-4.58671	1.57812
850.000	-4.84395	1.81917	-4.65349	1.57797
851.000	-4.82824	1.85486	-4.66135	1.60569
852.000	-4.82432	1.88457	-4.59260	1.68114
853.000	-4.82628	1.90635	-4.61028	1.60977
854.000	-4.74775	1.91647	-4.62403	1.63748
855.000	-4.75953	1.88871	-4.53760	1.65155
856.000	-4.72811	1.87691	-4.48848	1.64770
857.000	-4.63581	1.82170	-4.39808	1.59835
858.000	-4.62207	1.78607	-4.45704	1.58237
859.000	-4.57885	1.81788	-4.41184	1.52498
860.000	-4.64760	1.75431	-4.45114	1.47733
861.000	-4.61617	1.71873	-4.27621	1.49354
862.000	-4.57885	1.73071	-4.33125	1.45973
863.000	-4.58082	1.68117	-4.25655	1.41229
864.000	-4.57296	1.69110	-4.16216	1.36090
865.000	-4.53760	1.69911	-4.18379	1.45208
866.000	-4.53170	1.67732	-4.05989	1.46618
867.000	-4.46686	1.64576	-4.02448	1.42857
868.000	-4.45507	1.64975	-4.03038	1.39881
869.000	-4.49437	1.66156	-3.90642	1.52199
870.000	-4.49634	1.70515	-3.97726	1.47427
871.000	-4.56117	1.65744	-3.98119	1.45443
872.000	-4.50420	1.70116	-3.99890	1.37704
873.000	-4.56706	1.65544	-4.00284	1.41472
874.000	-4.56314	1.68914	-4.11496	1.47005
875.000	-4.56903	1.70498	-4.15233	1.50766
876.000	-4.62403	1.69494	-4.18183	1.44415
877.000	-4.65153	1.67902	-4.17986	1.45208
878.000	-4.70848	1.69870	-4.30176	1.51728
879.000	-4.68491	1.76809	-4.38039	1.45765
880.000	-4.71044	1.77793	-4.42363	1.46748
881.000	-4.76935	1.76985	-4.47472	1.51891
882.000	-4.75757	1.77186	-4.51991	1.47521
883.000	-4.79683	1.80939	-4.44132	1.52096
884.000	-4.74971	1.83328	-4.61224	1.55230
885.000	-4.78505	1.90448	-4.58278	1.59993
886.000	-4.80272	1.89057	-4.47669	1.63385
887.000	-4.82824	1.93407	-4.56510	1.62573
888.000	-4.83020	1.93604	-4.51598	1.57431
889.000	-4.81843	1.92617	-4.56706	1.66931
890.000	-4.82235	1.92022	-4.50223	1.64370
891.000	-4.84002	1.89839	-4.57885	1.60984
892.000	-4.81646	1.97370	-4.58671	1.65342
893.000	-4.84198	1.93799	-4.56117	1.61583
894.000	-4.81646	1.90044	-4.52384	1.60402
895.000	-4.79880	1.88860	-4.52581	1.62383
896.000	-4.78113	1.90449	-4.52384	1.58222
897.000	-4.75364	1.86496	-4.47865	1.60808
898.000	-4.72222	1.89872	-4.51402	1.60999
899.000	-4.78113	1.94410	-4.49241	1.68138
900.000	-4.74186	1.91252	-4.47079	1.61999
901.000	-4.73597	1.95809	-4.45311	1.60814
902.000	-4.73990	1.89273	-4.47079	1.56054
903.000	-4.71633	1.94428	-4.49241	1.57833
904.000	-4.69277	1.95623	-4.46490	1.60019
905.000	-4.76149	1.93425	-4.40791	1.56067
906.000	-4.71633	1.93042	-4.48455	1.60411
907.000	-4.66920	1.98204	-4.52188	1.60403
908.000	-4.70848	1.94034	-4.41184	1.61021
909.000	-4.69866	1.96612	-4.43149	1.66764
910.000	-4.70062	1.97007	-4.48651	1.60014
911.000	-4.71044	1.95420	-4.51402	1.63179
912.000	-4.70259	1.91065	-4.47865	1.59818
913.000	-4.68884	1.95228	-4.52581	1.64563
914.000	-4.69670	1.91067	-4.48455	1.61798
915.000	-4.65742	1.94445	-4.46490	1.63190
916.000	-4.69473	1.90275	-4.39415	1.55673
917.000	-4.68295	1.91665	-4.41970	1.59236
918.000	-4.66724	1.89887	-4.41184	1.60625
919.000	-4.66331	1.91274	-4.47276	1.53477
920.000	-4.71830	1.90467	-4.48848	1.57635
921.000	-4.69473	1.94830	-4.48258	1.61006
922.000	-4.67706	1.94439	-4.51009	1.62387
923.000	-4.70259	1.93640	-4.48848	1.54861
924.000	-4.68099	1.95824	-4.47079	1.62792
925.000	-4.66135	1.94444	-4.44525	1.51699
926.000	-4.66527	1.98205	-4.48651	1.56447
927.000	-4.68295	1.99587	-4.50420	1.58623
928.000	-4.67902	1.95825	-4.52188	1.55646
929.000	-4.70062	1.99384	-4.49241	1.59418
930.000	-4.68491	1.97804	-4.49241	1.61994
931.000	-4.68688	1.95823	-4.47472	1.57440
932.000	-4.67509	1.95628	-4.51991	1.56241
933.000	-4.67509	1.97014	-4.46883	1.54469
934.000	-4.65545	1.99198	-4.57885	1.62768
935.000	-4.65545	2.02169	-4.44721	1.58437
936.000	-4.64760	1.99003	-4.51991	1.59808
937.000	-4.68491	1.99388	-4.55921	1.58611
938.000	-4.66331	2.00385	-4.49634	1.56048
939.000	-4.63189	1.96234	-4.55135	1.55442
940.000	-4.67509	1.97014	-4.51991	1.64564
941.000	-4.64367	2.00192	-4.56314	1.59204
942.000	-4.59653	2.00403	-4.54545	1.65946
943.000	-4.68688	1.96219	-4.57885	1.61182
944.000	-4.63974	2.00985	-4.52581	1.58222
945.000	-4.60832	2.02975	-4.49437	1.63778
946.000	-4.63778	1.97025	-4.53170	1.62580
947.000	-4.66331	1.98206	-4.52188	1.64168
948.000	-4.66527	1.95037	-4.53563	1.60201
949.000	-4.66331	1.98998	-4.54349	1.65550
950.000	-4.62992	1.97225	-4.55135	1.61387
951.000	-4.63189	1.97423	-4.57492	1.59598
952.000	-4.64367	2.00192	-4.52581	1.63770
953.000	-4.60046	2.01987	-4.57689	1.65542
954.000	-4.63189	2.02374	-4.53367	1.62183
955.000	-4.66920	1.95432	-4.59653	1.66330
956.000	-4.61421	1.99606	-4.57885	1.61975
957.000	-4.60439	2.03174	-4.60439	1.58799
958.000	-4.57296	2.02787	-4.53367	1.64958
959.000	-4.64563	2.03558	-4.53956	1.58021
960.000	-4.60832	1.96835	-4.59457	1.62764
961.000	-4.62010	2.02773	-4.60242	1.67518
962.000	-4.59653	2.02186	-4.58278	1.59795
963.000	-4.63189	1.98611	-4.57492	1.65344
964.000	-4.66135	2.01177	-4.60046	1.67320
965.000	-4.60242	2.01392	-4.60046	1.66924
966.000	-4.60439	2.08125	-4.60439	1.70885
967.000	-4.59653	2.00205	-4.59064	1.62765
968.000	-4.55921	2.00018	-4.59457	1.66727
969.000	-4.61617	2.05151	-4.65742	1.66514
970.000	-4.57885	2.04172	-4.55921	1.67330
971.000	-4.59064	2.06347	-4.54545	1.57623
972.000	-4.61028	2.00796	-4.63974	1.66122
973.000	-4.59457	2.07930	-4.58278	1.67324
974.000	-4.54938	2.06953	-4.62599	1.62162
975.000	-4.57885	2.01597	-4.56903	1.68318
976.000	-4.57492	2.06351	-4.58278	1.65937
977.000	-4.61028	2.06737	-4.57099	1.69110
978.000	-4.55921	2.06752	-4.58867	1.59199
979.000	-4.56510	2.03779	-4.59849	1.65339
980.000	-4.58278	2.09914	-4.62207	1.61371
981.000	-4.58278	2.06745	-4.59260	1.59198
982.000	-4.61224	2.01983	-4.62992	1.67709
983.000	-4.56706	2.07740	-4.59457	1.57612
984.000	-4.62992	2.02969	-4.61028	1.57014
985.000	-4.56706	2.04769	-4.62599	1.58200
986.000	-4.61224	2.08519	-4.60832	1.64544
987.000	-4.56903	2.09918	-4.57885	1.62966
988.000	-4.61814	2.03764	-4.58082	1.62767
989.000	-4.61028	2.10104	-4.64367	1.58988
990.000	-4.56314	2.09127	-4.63974	1.64537
991.000	-4.58082	2.07736	-4.64563	1.62158
992.000	-4.58474	2.13874	-4.68099	1.63933
993.000	-4.57099	2.12492	-4.68884	1.63931
994.000	-4.59457	2.11891	-4.67902	1.62943
995.000	-4.54938	2.08339	-4.65153	1.61166
996.000	-4.58082	2.08132	-4.65153	1.58392
997.000	-4.58671	2.09319	-4.62796	1.56812
998.000	-4.59457	2.07138	-4.61617	1.61372
999.000	-4.54349	2.09133	-4.59653	1.60188
1000.000	-4.57296	2.07936	-4.70062	1.64919
1001.000	-4.53170	2.06562	-4.73400	1.61147
1002.000	-4.56706	2.06354	-4.66724	1.54030
1003.000	-4.53760	2.04381	-4.67902	1.65320
1004.000	-4.57689	2.06747	-4.65545	1.56014
1005.000	-4.56314	2.10910	-4.61224	1.62166
1006.000	-4.55135	2.08735	-4.65742	1.55617
1007.000	-4.52581	2.11317	-4.69277	1.64524
1008.000	-4.54938	2.12102	-4.63189	1.59982
1009.000	-4.54349	2.05370	-4.67313	1.59972
1010.000	-4.54938	2.11508	-4.66724	1.59181
1011.000	-4.51402	2.06171	-4.62992	1.56812
1012.000	-4.57885	2.03973	-4.64171	1.64140
1013.000	-4.53760	2.09927	-4.63189	1.57604
1014.000	-4.56117	2.09722	-4.68884	1.55808
1015.000	-4.58671	2.04367	-4.65938	1.63344
1016.000	-4.58867	2.12883	-4.61421	1.58599
1017.000	-4.54938	2.04576	-4.65545	1.57202
1018.000	-4.53563	2.10324	-4.64760	1.57600
1019.000	-4.57099	2.10115	-4.74186	1.56390
1020.000	-4.53367	2.12107	-4.73793	1.66891
1021.000	-4.55135	2.11309	-4.69866	1.62740
1022.000	-4.54349	2.08143	-4.67117	1.67898
1023.000	-4.48651	2.07763	-4.64956	1.57006
1024.000	-4.52974	2.08543	-4.64367	1.61366
1025.000	-4.55724	2.11902	-4.64171	1.61763
1026.000	-4.48455	2.13309	-4.65742	1.59976
1027.000	-4.53170	2.08938	-4.65742	1.63146
1028.000	-4.58671	2.08328	-4.65545	1.61165
1029.000	-4.54153	2.10124	-4.68884	1.63733
1030.000	-4.53956	2.09530	-4.67902	1.61358
1031.000	-4.53760	2.05570	-4.76542	1.56781
1032.000	-4.56314	2.11306	-4.72615	1.61149
1033.000	-4.53563	2.12106	-4.76149	1.57377
1034.000	-4.53956	2.09332	-4.71044	1.63332
1035.000	-4.56314	2.06751	-4.69473	1.59967
1036.000	-4.54742	2.10518	-4.67313	1.62350
1037.000	-4.52777	2.10920	-4.72026	1.56395
1038.000	-4.55135	2.08735	-4.65349	1.57995
1039.000	-4.52384	2.08148	-4.67509	1.54028
1040.000	-4.51991	2.08348	-4.72026	1.58178
1041.000	-4.48258	2.12122	-4.73597	1.61543
1042.000	-4.46883	2.05193	-4.65938	1.65721
1043.000	-4.48848	2.08753	-4.65938	1.57400
1044.000	-4.48848	2.07762	-4.70062	1.56003
1045.000	-4.50223	2.11720	-4.74971	1.60153
1046.000	-4.48651	2.11526	-4.68295	1.58979
1047.000	-4.49241	2.07959	-4.68688	1.59375
1048.000	-4.48062	2.04199	-4.66135	1.51455
1049.000	-4.43935	2.11540	-4.68099	1.56404
1050.000	-4.51795	2.04189	-4.67902	1.59178
1051.000	-4.50027	2.10136	-4.69277	1.60760
1052.000	-4.49830	2.08354	-4.64760	1.59186
1053.000	-4.45900	2.05196	-4.68688	1.62347
1054.000	-4.46883	2.10541	-4.73008	1.63525
1055.000	-4.52384	2.05177	-4.66135	1.57597
1056.000	-4.51009	2.09539	-4.71241	1.69274
1057.000	-4.51205	2.09142	-4.71044	1.58577
1058.000	-4.47865	2.09350	-4.71633	1.63132
1059.000	-4.48651	2.05980	-4.70651	1.61351
1060.000	-4.45311	2.07178	-4.76149	1.59952
1061.000	-4.47276	2.10540	-4.66724	1.59181
1062.000	-4.47865	2.05388	-4.67509	1.60368
1063.000	-4.46097	2.07374	-4.68491	1.55214
1064.000	-4.47669	2.11727	-4.73008	1.57582
1065.000	-4.47865	2.04992	-4.79487	1.64698
1066.000	-4.43149	2.08373	-4.75757	1.54802
1067.000	-4.46293	2.03412	-4.75364	1.57973
1068.000	-4.48455	2.08556	-4.73400	1.57779
1069.000	-4.50027	2.04788	-4.75953	1.58169
1070.000	-4.48258	2.05783	-4.71437	1.55604
1071.000	-4.50223	2.03797	-4.74971	1.56983
1072.000	-4.50223	2.04193	-4.73990	1.60353
1073.000	-4.47472	2.07964	-4.73990	1.53221
1074.000	-4.47669	2.06973	-4.76149	1.53216
1075.000	-4.49437	2.10336	-4.75560	1.57774
1076.000	-4.45311	2.07376	-4.69080	1.57393
1077.000	-4.44721	2.09953	-4.65349	1.61166
1078.000	-4.51205	2.07954	-4.79880	1.58557
1079.000	-4.46883	2.09551	-4.77131	1.49846
1080.000	-4.43935	2.06588	-4.69080	1.57789
1081.000	-4.47472	2.06182	-4.75364	1.57378
1082.000	-4.48455	2.03406	-4.75953	1.56188
1083.000	-4.46686	2.06778	-4.73597	1.55797
1084.000	-4.47276	2.02022	-4.71437	1.60161
1085.000	-4.50027	2.05580	-4.71830	1.62339
1086.000	-4.51009	2.03597	-4.69473	1.61354
1087.000	-4.49634	2.08354	-4.79291	1.57369
1088.000	-4.49044	2.03998	-4.77524	1.56977
1089.000	-4.44132	2.12332	-4.74775	1.56785
1090.000	-4.43542	2.08372	-4.71633	1.58972
1091.000	-4.46490	2.13513	-4.76542	1.59159
1092.000	-4.44525	2.10350	-4.68491	1.56998
1093.000	-4.50813	2.07955	-4.76346	1.62923
1094.000	-4.48455	2.08952	-4.76542	1.54602
1095.000	-4.46293	2.04402	-4.80076	1.60141
1096.000	-4.47276	2.07965	-4.74775	1.58370
1097.000	-4.45900	2.03809	-4.84002	1.57953
1098.000	-4.42166	2.04017	-4.73793	1.56986
1099.000	-4.40594	2.04814	-4.72615	1.58970
1100.000	-4.45311	2.07376	-4.75953	1.67678
1101.000	-4.45507	2.07574	-4.77327	1.55987
1102.000	-4.43935	2.07578	-4.76346	1.60942
1103.000	-4.47472	2.07964	-4.77720	1.58760
1104.000	-4.40594	2.04814	-4.77327	1.57968
1105.000	-4.44525	2.05596	-4.74775	1.52823
1106.000	-4.47079	2.02617	-4.83806	1.63301
1107.000	-4.43149	2.09561	-4.71044	1.58775
1108.000	-4.40398	2.06400	-4.75953	1.58368
1109.000	-4.38629	2.07989	-4.84395	1.55773
1110.000	-4.41380	2.04218	-4.82628	1.58154
1111.000	-4.43346	2.10551	-4.81450	1.61128
1112.000	-4.41577	2.10160	-4.76542	1.55791
1113.000	-4.39808	2.06797	-4.73597	1.60750
1114.000	-4.39808	2.05609	-4.81057	1.60733
1115.000	-4.37843	2.09378	-4.85572	1.63891
1116.000	-4.35877	2.06214	-4.78113	1.63513
1117.000	-4.35287	2.03244	-4.86750	1.63690
1118.000	-4.36270	2.06213	-4.82432	1.62512
1119.000	-4.38236	2.11358	-4.82628	1.58154
1120.000	-4.32929	2.06816	-4.74186	1.63126
1121.000	-4.40791	2.06002	-4.82824	1.58946
1122.000	-4.32339	2.05629	-4.80861	1.71231
1123.000	-4.39218	2.06403	-4.82432	1.51617
1124.000	-4.36860	2.07994	-4.83217	1.57955
1125.000	-4.34501	2.07208	-4.81646	1.55977
1126.000	-4.36467	2.05222	-4.79880	1.67470
1127.000	-4.37450	2.03040	-4.83413	1.61718
1128.000	-4.35484	2.06611	-4.90086	1.62890
1129.000	-4.35877	2.07601	-4.82628	1.63106
1130.000	-4.34108	2.10775	-4.84002	1.64687
1131.000	-4.41970	2.02037	-4.82824	1.61521
1132.000	-4.38629	2.08782	-4.86161	1.59334
1133.000	-4.37450	2.05219	-4.84002	1.64885
1134.000	-4.41970	2.00452	-4.85180	1.62902
1135.000	-4.37843	2.06010	-4.84591	1.63696
1136.000	-4.36663	2.04429	-4.89301	1.56356
1137.000	-4.39218	2.00460	-4.84395	1.58150
1138.000	-4.37450	2.03238	-4.76542	1.61338
1139.000	-4.36467	2.04231	-4.83020	1.60134
1140.000	-4.39218	2.05412	-4.81646	1.62910
1141.000	-4.34108	2.08398	-4.85769	1.56166
1142.000	-4.35287	2.05819	-4.80861	1.58950
1143.000	-4.39808	2.04024	-4.84395	1.55575
1144.000	-4.39415	2.07987	-4.88909	1.57545
1145.000	-4.37253	2.04625	-4.86750	1.56560
1146.000	-4.36270	2.06015	-4.76542	1.55395
1147.000	-4.35484	2.09781	-4.83020	1.61322
1148.000	-4.37253	2.08786	-4.84787	1.57753
1149.000	-4.39612	2.06996	-4.83217	1.59539
1150.000	-4.33322	2.08004	-4.86357	1.60324
1151.000	-4.35484	2.07800	-4.87142	1.61511
1152.000	-4.29587	2.05240	-4.79683	1.55387
1153.000	-4.33125	2.06023	-4.84591	1.49433
1154.000	-4.37646	2.07596	-4.87731	1.59132
1155.000	-4.34305	2.05624	-4.87928	1.62301
1156.000	-4.38039	2.04623	-4.79487	1.52020
1157.000	-4.33518	2.07211	-4.82432	1.52212
1158.000	-4.34108	2.05624	-4.82039	1.63900
1159.000	-4.31356	2.07415	-4.85769	1.61118
1160.000	-4.33518	2.08400	-4.77327	1.54402
1161.000	-4.33911	2.02653	-4.86946	1.61709
1162.000	-4.32142	2.03054	-4.86750	1.54975
1163.000	-4.32732	2.07213	-4.90283	1.51402
1164.000	-4.35681	2.07997	-4.78505	1.57965
1165.000	-4.31749	2.04442	-4.77131	1.55789
1166.000	-4.35091	2.02650	-4.83609	1.50228
1167.000	-4.33518	2.06418	-4.83020	1.48050
1168.000	-4.33322	2.05825	-4.85965	1.50817
1169.000	-4.37056	2.04428	-4.86554	1.51608
1170.000	-4.34501	2.05425	-4.88909	1.52593
1171.000	-4.30373	2.03455	-4.88909	1.55960
1172.000	-4.33125	2.03844	-4.84591	1.52801
1173.000	-4.33322	2.10976	-4.90479	1.47043
1174.000	-4.30963	2.07614	-4.84002	1.52406
1175.000	-4.34501	2.02255	-4.86750	1.51806
1176.000	-4.33911	2.09587	-4.86946	1.47249
1177.000	-4.37646	2.02049	-4.88124	1.48039
1178.000	-4.35287	2.05423	-4.90479	1.49222
1179.000	-4.36074	2.06411	-4.88320	1.52595
1180.000	-4.37253	2.06408	-4.90675	1.53381
1181.000	-4.36074	2.03440	-4.87535	1.48040
1182.000	-4.31553	2.03254	-4.86946	1.50617
1183.000	-4.33518	2.02852	-4.82432	1.52806
1184.000	-4.37450	2.07398	-4.90283	1.51005
1185.000	-4.30963	2.06822	-4.83413	1.48644
1186.000	-4.33715	2.02654	-4.87142	1.52201
1187.000	-4.36467	2.03042	-4.88909	1.46056
1188.000	-4.27228	2.05841	-4.84198	1.50821
1189.000	-4.33518	2.09390	-4.90871	1.45458
1190.000	-4.33125	2.07410	-4.88320	1.46652
1191.000	-4.38039	2.00859	-4.84787	1.50424
1192.000	-4.31749	2.08801	-4.87928	1.50218
1193.000	-4.35287	2.04631	-4.84395	1.48047
1194.000	-4.29587	2.04250	-4.82039	1.51420
1195.000	-4.27817	2.05443	-4.84002	1.48840
1196.000	-4.29390	2.03656	-4.94404	1.48223
1197.000	-4.29783	2.05636	-4.76542	1.49055
1198.000	-4.32339	1.99883	-4.88516	1.47444
1199.000	-4.33125	2.10976	-4.88320	1.49821
1200.000	-4.32535	2.04836	-4.93226	1.50603
1201.000	-4.30963	2.07812	-4.84591	1.43887
1202.000	-4.27817	2.06038	-4.83413	1.46068
1203.000	-4.31749	2.03650	-4.84787	1.44679
1204.000	-4.27424	2.08020	-4.78309	1.51825
1205.000	-4.30963	1.99293	-4.84198	1.53792
1206.000	-4.31946	2.05630	-4.83413	1.45078
1207.000	-4.29194	2.04449	-4.90086	1.53977
1208.000	-4.31553	2.08999	-4.80076	1.47858
1209.000	-4.30176	2.03059	-4.89498	1.42291
1210.000	-4.31159	2.06623	-4.83806	1.47454
1211.000	-4.27817	2.08019	-4.85965	1.53194
1212.000	-4.35484	2.07602	-4.84198	1.39727
1213.000	-4.35091	2.00867	-4.85572	1.51214
1214.000	-4.31356	1.99490	-4.87731	1.49625
1215.000	-4.34108	1.96709	-4.71044	1.52633
1216.000	-4.26638	1.97917	-4.62403	1.56813
1217.000	-4.00480	2.02145	-4.40005	1.59240
1218.000	-3.80212	2.03978	-4.22509	1.71567
1219.000	-3.43980	1.99498	-3.85132	1.79380
1220.000	-3.17576	2.07883	-3.53435	1.79444
1221.000	-2.75776	2.15502	-3.16197	1.87847
1222.000	-2.30000	2.16769	-2.65322	1.99643
1223.000	-1.81823	2.34107	-2.05323	2.08466
1224.000	-1.31645	2.44885	-1.62071	2.11694
1225.000	-0.81645	2.54455	-1.03584	2.22668
1226.000	-0.20758	2.61626	-0.46261	2.37196
1227.000	0.41121	2.76509	0.13444	2.47133
1228.000	0.99829	2.89769	0.65238	2.63001
1229.000	1.51403	3.03199	1.10501	2.69717
1230.000	1.99794	3.16799	1.71355	2.83336
1231.000	2.45986	3.27201	2.14010	2.92188
1232.000	3.04567	3.47036	2.57430	2.95071
1233.000	3.54025	3.54975	3.07721	3.04651
1234.000	4.07956	3.62462	3.51465	3.11249
1235.000	4.45114	3.62089	3.86903	3.14291
1236.000	4.93423	3.63024	4.17003	3.04086
1237.000	5.43032	3.63332	4.65349	2.99934
1238.000	5.87866	3.58320	5.00486	3.01162
1239.000	6.34776	3.58795	5.41661	2.88916
1240.000	6.83159	3.63365	5.78083	2.83405
1241.000	7.21913	3.58148	6.25010	2.76453
1242.000	7.63514	3.49756	6.63076	2.61063
1243.000	8.04840	3.49606	6.96994	2.59303
1244.000	8.49370	3.39802	7.41362	2.49402
1245.000	8.90130	3.34341	7.80015	2.41505
1246.000	9.37730	3.27244	8.15304	2.40511
1247.000	9.78097	3.28419	8.51110	2.37345
1248.000	10.09746	3.32787	8.99005	2.34097
1249.000	10.50892	3.26115	9.27912	2.43512
1250.000	10.87353	3.32540	9.58502	2.40555
1251.000	11.18779	3.29462	9.89037	2.51094
1252.000	11.51656	3.32192	10.12620	2.60099
1253.000	11.77258	3.39068	10.37316	2.69660
1254.000	11.96570	3.43871	10.53185	2.76938
1255.000	12.19822	3.51129	10.71901	2.73258
1256.000	12.38884	3.50294	10.92500	2.87491
1257.000	12.52080	3.58049	11.15354	2.90773
1258.000	12.62250	3.61388	11.17637	2.98341
1259.000	12.69025	3.63419	11.30570	2.96846
1260.000	12.73917	3.64316	11.42921	2.89521
1261.000	12.68649	3.62458	11.44441	2.93590
1262.000	12.60555	3.61992	11.30190	2.92375
1263.000	12.46803	3.64894	11.20491	2.97533
1264.000	12.36998	3.65224	11.18969	2.91710
1265.000	12.19633	3.63722	11.06978	2.88130
1266.000	12.08674	3.61546	11.03550	2.80956
1267.000	11.98084	3.56067	10.90022	2.88879
1268.000	11.89379	3.56375	10.83157	2.88361
1269.000	11.81804	3.57249	10.91928	2.90420
1270.000	11.78395	3.57293	10.91928	2.93147
1271.000	11.75553	3.52286	10.92690	2.89438
1272.000	11.72141	3.52717	11.00693	2.87996
1273.000	11.75553	3.51704	10.89259	2.91225
1274.000	11.86160	3.49240	10.98407	2.92109
1275.000	11.93921	3.45650	11.06026	2.91450
1276.000	11.99975	3.41501	11.19540	2.96765
1277.000	12.08863	3.41970	11.24485	2.94379
1278.000	12.18311	3.43399	11.19540	2.87227
1279.000	12.27375	3.45606	11.32281	2.92937
1280.000	12.37187	3.42573	11.26007	2.86189
1281.000	12.45295	3.40724	11.35322	2.99714
1282.000	12.46992	3.42831	11.40072	2.99859
1283.000	12.56224	3.35162	11.38932	2.89173
1284.000	12.53587	3.37519	11.37792	3.02606
1285.000	12.56977	3.38248	11.36842	2.89389
1286.000	12.58672	3.32615	11.32471	2.87876
1287.000	12.59237	3.38993	11.30950	2.88086
1288.000	12.52080	3.39087	11.37792	2.88212
1289.000	12.54717	3.35956	11.28289	2.90059
1290.000	12.48688	3.39518	11.25627	2.90864
1291.000	12.47934	3.41270	11.33041	2.93513
1292.000	12.48876	3.43000	11.38742	3.02401
1293.000	12.40205	3.41371	11.24485	2.88735
1294.000	12.41336	3.39808	11.22393	2.90507
1295.000	12.40205	3.43695	11.32851	2.91958
1296.000	12.38696	3.41972	11.26958	2.78589
1297.000	12.36998	3.41413	11.22393	2.92648
1298.000	12.33037	3.39915	11.30000	2.94128
1299.000	12.32848	3.38756	11.14973	2.90776
1300.000	12.35112	3.43762	11.11928	2.85355
1301.000	12.31150	3.44007	11.12499	2.80870
1302.000	12.31527	3.44196	11.18589	2.88599
1303.000	12.31904	3.46321	11.18969	2.91515
1304.000	12.31150	3.42458	11.10786	2.91986
1305.000	12.26808	3.42127	11.11167	2.80299
1306.000	12.26242	3.41165	11.27908	2.84419
1307.000	12.24165	3.45648	11.18969	2.89568
1308.000	12.25865	3.42526	11.20491	2.85855
1309.000	12.26431	3.42519	11.10215	2.84982
1310.000	12.24165	3.40805	11.21823	2.79028
1311.000	12.27564	3.43860	11.22774	2.83886
1312.000	12.25298	3.43115	11.20681	2.84490
1313.000	12.24165	3.42742	11.17447	2.83743
1314.000	12.30017	3.41698	11.17447	2.76539
1315.000	12.29451	3.39187	11.14022	2.88255
1316.000	12.29829	3.42475	11.17257	2.78877
1317.000	12.31716	3.41482	11.16876	2.79076
1318.000	12.29640	3.41896	11.19350	2.71264
1319.000	12.31716	3.41869	11.25627	2.79770
1320.000	12.32282	3.46316	11.26958	2.79173
1321.000	12.27941	3.40175	11.15354	2.78506
1322.000	12.33037	3.39528	11.22393	2.86809
1323.000	12.30017	3.41117	11.19920	2.78268
1324.000	12.26808	3.43289	11.23915	2.77840
1325.000	12.30017	3.44216	11.21823	2.67151
1326.000	12.24165	3.44679	11.22584	2.80578
1327.000	12.27752	3.45214	11.20111	2.67946
1328.000	12.27375	3.44831	11.18018	2.86463
1329.000	12.31716	3.44193	11.18779	2.80031
1330.000	12.30017	3.40536	11.15925	2.76164
1331.000	12.33225	3.41850	11.10595	2.71735
1332.000	12.31904	3.44578	11.13451	2.76577
1333.000	12.32093	3.42639	11.09834	2.83622
1334.000	12.29451	3.41318	11.15354	2.71496
1335.000	12.33037	3.44563	11.26007	2.79377
1336.000	12.33414	3.44171	11.22203	2.75910
1337.000	12.30583	3.43821	11.12309	2.76393
1338.000	12.33414	3.42816	11.07740	2.80332
1339.000	12.29829	3.40925	11.10976	2.89064
1340.000	12.31904	3.42254	11.15354	2.82401
1341.000	12.30583	3.37429	11.15734	2.74997
1342.000	12.31716	3.39545	11.23915	2.88157
1343.000	12.31338	3.40518	11.16115	2.83756
1344.000	12.28696	3.38422	11.22203	2.81945
1345.000	12.30017	3.40923	11.15354	2.83764
1346.000	12.29640	3.43446	11.14212	2.76959
1347.000	12.31527	3.43227	11.20491	2.82156
1348.000	12.31716	3.44581	11.10786	2.86534
1349.000	12.33980	3.44551	11.17066	2.80826
1350.000	12.28885	3.41906	11.16876	2.83359
1351.000	12.29074	3.43453	11.16115	2.84730
1352.000	12.31150	3.41877	11.12689	2.82232
1353.000	12.28696	3.42490	11.21823	2.84090
1354.000	12.28130	3.44821	11.30570	2.71353
1355.000	12.34546	3.38540	11.17828	2.73030
1356.000	12.33414	3.40104	11.27338	2.78002
1357.000	12.29074	3.38223	11.20301	2.77680
1358.000	12.26242	3.44071	11.27148	2.82286
1359.000	12.27941	3.42693	11.22774	2.82328
1360.000	12.27941	3.45017	11.22584	2.82720
1361.000	12.29074	3.44228	11.29429	2.75646
1362.000	12.24921	3.43507	11.12689	2.83595
1363.000	12.26620	3.42710	11.16115	2.79862
1364.000	12.27564	3.41536	11.32281	2.79121
1365.000	12.25109	3.40405	11.19540	2.84696
1366.000	12.24732	3.46609	11.28098	2.75853
1367.000	12.27941	3.43080	11.28669	2.77405
1368.000	12.28507	3.38812	11.20681	2.82543
1369.000	12.25109	3.42149	11.19159	2.88204
1370.000	12.28319	3.44819	11.11928	2.87886
1371.000	12.24165	3.42936	11.10595	2.89652
1372.000	12.23032	3.41982	11.15354	2.86100
1373.000	12.25109	3.41568	11.16115	2.74215
1374.000	12.24732	3.40991	11.25817	2.84440
1375.000	12.21711	3.43743	11.12309	2.84767
1376.000	12.24732	3.40991	11.15164	2.87270
1377.000	12.23599	3.44880	11.25627	2.82106
1378.000	12.23788	3.45459	11.29429	2.78955
1379.000	12.24543	3.43512	11.16876	2.85501
1380.000	12.23599	3.45268	11.18779	2.82173
1381.000	12.24921	3.43895	11.10024	2.82452
1382.000	12.22466	3.46057	11.09263	2.84407
1383.000	12.26620	3.43679	11.06788	2.85210
1384.000	12.25676	3.41560	11.15544	2.81425
1385.000	12.29074	3.46358	11.15734	2.82397
1386.000	12.24543	3.42156	11.15164	2.86102
1387.000	12.27564	3.43279	11.16496	2.88814
1388.000	12.27375	3.44831	11.19350	2.81388
1389.000	12.23410	3.43527	11.19920	2.80799
1390.000	12.22466	3.41989	11.11547	2.91589
1391.000	12.26620	3.43291	11.14593	2.86692
1392.000	12.26431	3.43488	11.14212	2.82996
1393.000	12.26997	3.44449	11.13070	2.86707
1394.000	12.25298	3.44858	11.18208	2.89187
1395.000	12.24354	3.45452	11.21823	2.80391
1396.000	12.26431	3.39226	11.24676	2.87176
1397.000	12.25109	3.39437	11.01836	2.82921
1398.000	12.26808	3.43095	11.11357	2.86529
1399.000	12.26620	3.37480	11.08121	2.85197
1400.000	12.25676	3.43691	11.17447	2.96981
1401.000	12.23977	3.41776	11.12689	2.91967
1402.000	12.23599	3.42362	11.09453	2.90442
1403.000	12.21144	3.47431	11.11167	2.84973
1404.000	12.21711	3.44905	11.15544	2.83372
1405.000	12.23221	3.49341	11.11547	2.88279
1406.000	12.19444	3.47841	11.20111	2.84106
1407.000	12.23221	3.44885	11.19540	2.89173
1408.000	12.23788	3.48946	11.12880	2.88266
1409.000	12.24543	3.47967	11.13260	2.89041
1410.000	12.26431	3.45425	11.19350	2.87229
1411.000	12.25487	3.44856	11.09644	2.85766
1412.000	12.21711	3.42580	11.11928	2.91196
1413.000	12.25487	3.45631	11.09263	2.83628
1414.000	12.25109	3.43311	11.12880	2.97806
1415.000	12.25298	3.44083	11.15544	2.93107
1416.000	12.26620	3.47746	11.20301	2.89360
1417.000	12.27186	3.45221	11.16686	2.90175
1418.000	12.25298	3.45052	11.18018	2.87047
1419.000	12.24921	3.47381	11.11928	2.87691
1420.000	12.25109	3.41568	11.26387	2.89883
1421.000	12.21899	3.45484	11.12309	2.90219
1422.000	12.25298	3.52219	11.17447	2.92893
1423.000	12.22655	3.46636	11.13831	2.87478
1424.000	12.23599	3.48174	11.09453	2.87132
1425.000	12.22277	3.46641	11.21823	2.83506
1426.000	12.23977	3.44682	11.12499	2.81844
1427.000	12.24921	3.46607	11.20301	2.84299
1428.000	12.24732	3.45834	11.18208	2.94248
1429.000	12.25487	3.45824	11.17066	2.88614
1430.000	12.26053	3.46204	11.24866	2.89704
1431.000	12.25676	3.44272	11.16496	2.77522
1432.000	12.21333	3.44910	11.15925	2.82395
1433.000	12.17177	3.34112	11.12689	2.74442
1434.000	12.17744	3.30422	11.10405	2.63750
1435.000	12.10942	3.22945	11.09834	2.59859
1436.000	12.05649	3.11953	11.11357	2.53611
1437.000	11.96759	3.07010	11.02788	2.35168
1438.000	11.92407	2.95607	10.96883	2.31901
1439.000	11.83320	2.93375	10.90022	2.17325
1440.000	11.73278	2.82990	10.83157	2.14643
1441.000	11.60195	2.71458	10.76672	2.07078
1442.000	11.59436	2.58047	10.67701	1.86636
1443.000	11.50707	2.57738	10.68083	1.87219
1444.000	11.45390	2.51365	10.72664	1.86020
1445.000	11.40262	2.39926	10.66556	1.74338
1446.000	11.40642	2.34861	10.53376	1.75195
1447.000	11.42541	2.34066	10.62164	1.81005
1448.000	11.45960	2.36374	10.52994	1.83013
1449.000	11.45200	2.42025	10.53376	1.75195
1450.000	11.50896	2.40225	10.66747	1.79220
1451.000	11.59246	2.43655	10.67319	1.87615
1452.000	11.62282	2.52186	10.73237	1.89531
1453.000	11.67592	2.56610	10.65983	1.90552
1454.000	11.71762	2.62598	10.73046	1.93827
1455.000	11.77826	2.58070	10.76672	2.02198
1456.000	11.76311	2.65081	10.72473	2.02031
1457.000	11.75742	2.67030	10.84302	2.10342
1458.000	11.84456	2.60534	10.77816	2.07460
1459.000	11.82373	2.72018	10.78198	2.01017
1460.000	11.81804	2.70663	10.80678	2.08026
1461.000	11.82562	2.67741	10.72473	2.06130
1462.000	11.80479	2.72425	10.77626	2.09804
1463.000	11.79910	2.68350	10.78579	2.09602
1464.000	11.81047	2.73974	10.81059	2.07633
1465.000	11.74226	2.74042	10.74763	2.05724
1466.000	11.71193	2.69601	10.80296	2.13298
1467.000	11.72899	2.68807	10.72282	2.04765
1468.000	11.73278	2.68804	10.75718	2.05132
1469.000	11.67402	2.67694	10.72855	2.01443
1470.000	11.71383	2.68628	10.74000	1.96750
1471.000	11.68160	2.67881	10.77053	2.02000
1472.000	11.66075	2.66735	10.76290	2.00444
1473.000	11.71573	2.62406	10.79533	2.00422
1474.000	11.64937	2.63052	10.66556	1.96017
1475.000	11.66833	2.64395	10.76481	1.92634
1476.000	11.64937	2.60329	10.73237	1.89140
1477.000	11.67402	2.59529	10.74191	1.92258
1478.000	11.64368	2.58390	10.69992	1.89746
1479.000	11.63609	2.53536	10.67510	1.92300
1480.000	11.64178	2.54503	10.62546	1.93308
1481.000	11.63799	2.53923	10.80869	1.95729
1482.000	11.64937	2.53718	10.75145	1.84247
1483.000	11.61713	2.55303	10.66556	1.98555
1484.000	11.64747	2.51386	10.72855	1.95976
1485.000	11.63420	2.56260	10.69801	1.94434
1486.000	11.63609	2.48868	10.68274	1.94444
1487.000	11.63799	2.53923	10.75336	1.86198
1488.000	11.66075	2.51958	10.77816	1.99067
1489.000	11.66454	2.52537	10.83539	1.85172
1490.000	11.66454	2.50787	10.72664	1.97344
1491.000	11.69108	2.53486	10.76099	1.94393
1492.000	11.67212	2.51947	10.78198	1.96332
1493.000	11.64368	2.52362	10.78961	1.86566
1494.000	11.65506	2.56046	10.78389	1.85008
1495.000	11.67592	2.56222	10.65601	1.87039
1496.000	11.66454	2.54871	10.79343	1.86759
1497.000	11.65695	2.51572	10.70946	1.85444
1498.000	11.66454	2.54871	10.65983	1.95044
1499.000	11.63799	2.55673	10.71137	1.95792
1500.000	11.62661	2.51016	10.74191	1.88353
1501.000	11.66833	2.55062	10.75336	1.92836
1502.000	11.64937	2.59357	10.74763	1.96549
1503.000	11.62282	2.55882	10.78770	1.94571
1504.000	11.63609	2.57036	10.70946	1.93645
1505.000	11.66833	2.50589	10.80678	1.96706
1506.000	11.64178	2.58392	10.74763	1.98892
1507.000	11.67592	2.51360	10.77435	1.93213
1508.000	11.66075	2.54680	10.72855	1.98319
1509.000	11.67592	2.55055	10.71137	2.03602
1510.000	11.66264	2.53900	10.68847	2.02641
1511.000	11.64558	2.57416	10.75145	1.97913
1512.000	11.69487	2.50954	10.69038	2.03811
1513.000	11.66264	2.52928	10.73046	2.04565
1514.000	11.63040	2.53541	10.73618	1.95385
1515.000	11.65885	2.52348	10.69228	2.04395
1516.000	11.63989	2.51976	10.73237	1.87578
1517.000	11.65316	2.54298	10.78389	1.98868
1518.000	11.64368	2.49639	10.67319	1.98941
1519.000	11.64747	2.51386	10.75718	1.91858
1520.000	11.62471	2.53935	10.67128	1.92108
1521.000	11.67212	2.56420	10.77244	1.91653
1522.000	11.64178	2.58392	10.77244	1.96924
1523.000	11.62661	2.57239	10.73046	2.08274
1524.000	11.64558	2.53333	10.69801	1.96386
1525.000	11.66643	2.62063	10.65792	1.96608
1526.000	11.63989	2.59172	10.65983	2.02074
1527.000	11.63040	2.55486	10.74954	1.97329
1528.000	11.65695	2.55072	10.68465	2.06353
1529.000	11.65695	2.58184	10.81822	2.09189
1530.000	11.64937	2.56052	10.66938	2.03825
1531.000	11.62851	2.56265	10.73237	2.09249
1532.000	11.60764	2.52395	10.69801	2.01463
1533.000	11.63230	2.55873	10.73618	2.07099
1534.000	11.65126	2.50605	10.66365	1.97385
1535.000	11.62471	2.57047	10.68656	2.01080
1536.000	11.63040	2.54319	10.65983	2.07737
1537.000	11.64558	2.53138	10.69992	2.01852
1538.000	11.64747	2.52164	10.67319	1.98355
1539.000	11.61523	2.58028	10.73237	2.01440
1540.000	11.63609	2.54314	10.72664	1.99492
1541.000	11.61713	2.52386	10.76290	2.02591
1542.000	11.67402	2.58362	10.66938	2.04606
1543.000	11.63040	2.60153	10.77816	2.03166
1544.000	11.63040	2.58403	10.77626	1.95555
1545.000	11.59436	2.56491	10.74000	1.96945
1546.000	11.64747	2.55859	10.69228	1.98538
1547.000	11.61902	2.56663	10.70946	2.03408
1548.000	11.62471	2.54324	10.69228	1.96195
1549.000	11.60954	2.55310	10.81632	2.04897
1550.000	11.60954	2.58033	10.74573	2.04164
1551.000	11.61713	2.56470	10.75908	2.06888
1552.000	11.61713	2.53358	10.75527	2.09038
1553.000	11.63040	2.57041	10.70565	2.00872
1554.000	11.61713	2.52580	10.77816	2.04142
1555.000	11.61523	2.53555	10.75527	2.02010
1556.000	11.65506	2.55852	10.76290	2.00834
1557.000	11.65885	2.55848	10.82204	1.95720
1558.000	11.64558	2.59944	10.81822	1.98260
1559.000	11.67781	2.53498	10.77816	1.96920
1560.000	11.64747	2.55275	10.73618	1.96947
1561.000	11.65885	2.52543	10.74191	2.01043
1562.000	11.64747	2.54692	10.80106	1.97295
1563.000	11.65695	2.56045	10.81250	2.04704
1564.000	11.59816	2.55321	10.81632	1.92796
1565.000	11.64937	2.56440	10.81059	2.02364
1566.000	11.60954	2.52976	10.82776	2.00596
1567.000	11.65316	2.58576	10.80296	1.91243
1568.000	11.59816	2.58044	10.76481	2.04737
1569.000	11.64747	2.51192	10.73809	2.05536
1570.000	11.61523	2.56472	10.85637	2.00772
1571.000	11.60764	2.56479	10.75145	2.02989
1572.000	11.58677	2.50468	10.83348	1.93956
1573.000	11.65126	2.53133	10.79533	2.03155
1574.000	11.67402	2.55057	10.74573	1.98308
1575.000	11.61902	2.51995	10.78961	2.00036
1576.000	11.62661	2.55100	10.82394	1.93767
1577.000	11.61713	2.54136	10.76290	1.90292
1578.000	11.62282	2.53159	10.80296	2.01588
1579.000	11.60954	2.50837	10.92500	1.94482
1580.000	11.63799	2.53728	10.82585	1.94351
1581.000	11.66454	2.52149	10.81059	1.97679
1582.000	11.63609	2.54508	10.80869	2.02950
1583.000	11.64747	2.54692	10.78961	1.94375
1584.000	11.65126	2.50799	10.83348	2.00787
1585.000	11.63420	2.54899	10.84492	1.96681
1586.000	11.62471	2.51212	10.86971	1.98226
1587.000	11.62851	2.50236	10.82394	1.95329
1588.000	11.62282	2.50241	10.86971	1.95494
1589.000	11.63040	2.48873	10.83730	1.97857
1590.000	11.62471	2.48489	10.82967	1.95715
1591.000	11.60764	2.53951	10.88878	1.94311
1592.000	11.62661	2.51405	10.83730	2.00589
1593.000	11.63040	2.52763	10.78198	1.94380
1594.000	11.60954	2.52004	10.94406	2.00127
1595.000	11.64558	2.54888	10.86590	1.96082
1596.000	11.61523	2.53166	10.81822	1.98065
1597.000	11.63609	2.53536	10.80296	2.07053
1598.000	11.62471	2.50823	10.84111	1.99221
1599.000	11.64368	2.51779	10.90403	2.00935
1600.000	11.64747	2.45746	10.87734	2.00953
1601.000	11.60385	2.54148	10.81441	1.95140
1602.000	11.60385	2.51231	10.79533	1.92810
1603.000	11.60574	2.52785	10.86018	2.01159
1604.000	11.63799	2.53145	10.76672	1.92633
1605.000	11.60385	2.53954	10.78770	1.91838
1606.000	11.62092	2.51994	10.90212	1.88253
1607.000	11.64937	2.52357	10.84492	1.99999
1608.000	11.61713	2.46746	10.84111	1.96293
1609.000	11.61523	2.48692	10.84111	1.95122
1610.000	11.62851	2.50820	10.85064	1.96287
1611.000	11.63040	2.50040	10.80678	1.96316
1612.000	11.63230	2.48094	10.78961	2.04525
1613.000	11.65695	2.50600	10.73618	2.01633
1614.000	11.64747	2.50608	10.77244	2.03365
1615.000	11.62851	2.53348	10.74573	2.01236
1616.000	11.66264	2.51567	10.76862	2.00830
1617.000	11.63230	2.54317	10.77244	2.02389
1618.000	11.67971	2.51163	10.85064	1.98629
1619.000	11.66264	2.53317	10.81822	2.01773
1620.000	11.67402	2.49807	10.86971	2.04860
1621.000	11.64937	2.51773	10.84874	1.96874
1622.000	11.63799	2.52562	10.86018	1.99793
1623.000	11.62471	2.50434	10.78389	1.96916
1624.000	11.68729	2.49406	10.84874	1.99801
1625.000	11.68919	2.51543	10.76481	1.94000
1626.000	11.68729	2.47656	10.81632	2.05482
1627.000	11.68539	2.54074	10.87162	2.04664
1628.000	11.62471	2.53546	10.80678	1.95925
1629.000	11.59246	2.50658	10.77244	1.84234
1630.000	11.45390	2.44164	10.64264	2.01109
1631.000	11.33991	2.36473	10.61591	1.63817
1632.000	11.17637	2.23747	10.48024	1.65648
1633.000	10.94024	2.07738	10.42862	1.33023
1634.000	10.69038	1.92095	10.26791	1.25265
1635.000	10.40759	1.65882	10.01887	0.97162
1636.000	10.09938	1.32574	9.75793	0.71560
1637.000	9.80977	0.87817	9.65037	0.23731
1638.000	9.51389	0.52190	9.42348	-0.09224
1639.000	9.25409	0.06283	9.35998	-0.53587
1640.000	9.01126	-0.39690	9.24253	-0.92871
1641.000	8.82024	-0.84528	9.10573	-1.25307
1642.000	8.75073	-1.14815	9.04790	-1.68325
1643.000	8.71789	-1.52364	9.04790	-1.97765
1644.000	8.69278	-1.90099	8.91481	-2.19821
1645.000	8.75073	-2.21882	8.91674	-2.39246
1646.000	8.82989	-2.40284	9.03826	-2.67011
1647.000	8.87236	-2.64582	8.92832	-3.01988
1648.000	8.91481	-2.96511	8.97076	-3.19391
1649.000	8.90323	-3.14943	8.86271	-3.43386
1650.000	8.86657	-3.35352	8.94375	-3.58973
1651.000	8.89166	-3.54326	8.96111	-3.81853
1652.000	8.91288	-3.68204	8.95340	-3.99074
1653.000	8.88780	-3.81929	8.85306	-4.10723
1654.000	8.89359	-3.93271	8.78935	-4.19791
1655.000	8.84534	-4.13665	8.73914	-4.33731
1656.000	8.85692	-4.18932	8.68312	-4.41616
1657.000	8.84147	-4.29898	8.65994	-4.49267
1658.000	8.77583	-4.38184	8.64255	-4.54566
1659.000	8.79321	-4.44613	8.63482	-4.59656
1660.000	8.86271	-4.42967	8.54204	-4.55468
1661.000	8.88780	-4.40592	8.63289	-4.52232
1662.000	8.92639	-4.35270	8.60776	-4.44051
1663.000	8.97076	-4.27401	8.62709	-4.34642
1664.000	9.02669	-4.16392	8.74687	-4.27856
1665.000	9.09417	-4.06543	8.75073	-4.16509
1666.000	9.10188	-3.91286	8.74687	-4.12210
1667.000	9.11923	-3.79730	8.74300	-3.98128
1668.000	9.10188	-3.69577	8.82989	-3.90404
1669.000	9.10188	-3.57251	8.79321	-3.79287
1670.000	9.09224	-3.55500	8.71017	-3.76630
1671.000	9.08646	-3.46307	8.78549	-3.76162
1672.000	9.08067	-3.42398	8.83568	-3.68869
1673.000	9.04597	-3.40864	8.82796	-3.74945
1674.000	8.98040	-3.47388	8.71210	-3.82893
1675.000	8.97076	-3.46614	8.69665	-3.87020
1676.000	8.93025	-3.57616	8.66380	-4.00952
1677.000	8.90516	-3.66646	8.71983	-4.12044
1678.000	8.91674	-3.70353	8.59230	-4.17271
1679.000	8.89359	-3.80358	8.59230	-4.25684
1680.000	8.87815	-3.87809	8.61743	-4.31524
1681.000	8.84340	-3.92542	8.62902	-4.41484
1682.000	8.88394	-3.97194	8.57104	-4.55238
1683.000	8.86078	-4.09346	8.59423	-4.49932
1684.000	8.87043	-4.09335	8.50143	-4.50823
1685.000	8.87043	-4.12855	8.53624	-4.58016
1686.000	8.85692	-4.15608	8.51110	-4.57459
1687.000	8.85306	-4.11310	8.60390	-4.65166
1688.000	8.90516	-4.15162	8.52077	-4.62726
1689.000	8.85499	-4.17174	8.52464	-4.63699
1690.000	8.87622	-4.21843	8.44341	-4.57735
1691.000	8.87429	-4.14611	8.51497	-4.57650
1692.000	8.89744	-4.17126	8.51497	-4.57650
1693.000	8.89552	-4.17910	8.47823	-4.58672
1694.000	8.94761	-4.15701	8.39504	-4.46839
1695.000	8.92446	-4.16314	8.40085	-4.53678
1696.000	8.95533	-4.14323	8.40278	-4.59738
1697.000	8.98233	-4.14879	8.40085	-4.51723
1698.000	8.95919	-4.12169	8.39311	-4.48406
1699.000	8.97076	-4.16065	8.45888	-4.48917
1700.000	8.94375	-4.16878	8.47049	-4.57508
1701.000	9.00741	-4.12896	8.54010	-4.53515
1702.000	8.98619	-4.12138	8.48209	-4.50846
1703.000	8.97847	-4.11951	8.47629	-4.56523
1704.000	8.96497	-4.07274	8.50530	-4.49059
1705.000	8.96690	-4.08641	8.45695	-4.47746
1706.000	9.00355	-4.06840	8.48790	-4.52599
1707.000	8.98812	-4.10572	8.51110	-4.47879
1708.000	8.96111	-4.05323	8.45888	-4.45397
1709.000	8.96883	-4.08834	8.38537	-4.38046
1710.000	8.95340	-4.03963	8.43567	-4.35642
1711.000	8.99005	-4.03140	8.52077	-4.33394
1712.000	8.92639	-4.03211	8.48403	-4.40478
1713.000	8.97847	-4.06086	8.45888	-4.42658
1714.000	8.96883	-4.07075	8.42020	-4.40746
1715.000	8.94182	-4.02216	8.56524	-4.32366
1716.000	8.99005	-4.08419	8.48209	-4.36568
1717.000	8.94954	-4.08465	8.46469	-4.39522
1718.000	8.94954	-4.06705	8.46662	-4.39520
1719.000	8.99005	-4.03531	8.53044	-4.32014
1720.000	9.00933	-4.06834	8.55557	-4.35702
1721.000	8.92639	-4.02233	8.48983	-4.39493
1722.000	8.93218	-4.06138	8.46469	-4.36587
1723.000	8.96497	-4.07079	8.44728	-4.37585
1724.000	8.93796	-4.01438	8.54010	-4.39436
1725.000	8.93218	-4.06529	8.39311	-4.35298
1726.000	8.99005	-4.03727	8.51690	-4.39658
1727.000	8.97847	-4.05304	8.58457	-4.47597
1728.000	8.97655	-4.08434	8.54204	-4.39825
1729.000	8.92639	-4.06926	8.48209	-4.44196
1730.000	8.92446	-4.06146	8.55170	-4.37466
1731.000	8.96497	-4.00626	8.57297	-4.38616
1732.000	8.91481	-4.05766	8.51303	-4.44943
1733.000	8.95147	-4.06898	8.43954	-4.40920
1734.000	8.94954	-4.08465	8.42600	-4.41326
1735.000	8.96111	-4.04346	8.50530	-4.40649
1736.000	8.95340	-4.03768	8.54397	-4.40800
1737.000	8.92446	-4.07906	8.55557	-4.44894
1738.000	8.96690	-4.05708	8.53430	-4.50980
1739.000	8.95533	-4.09240	8.55750	-4.58968
1740.000	8.92639	-4.13574	8.55364	-4.47829
1741.000	8.93989	-4.08867	8.54204	-4.49407
1742.000	8.95533	-4.13151	8.51110	-4.44554
1743.000	8.98812	-4.08617	8.52270	-4.53731
1744.000	8.99390	-4.05091	8.49950	-4.42807
1745.000	8.97462	-4.09610	8.55944	-4.38240
1746.000	8.96690	-4.09227	8.50723	-4.50621
1747.000	8.91867	-4.06935	8.57877	-4.41347
1748.000	8.97655	-4.08630	8.49756	-4.49850
1749.000	8.95340	-4.10025	8.54397	-4.44125
1750.000	8.91674	-4.04786	8.47436	-4.46552
1751.000	8.93603	-4.06916	8.46856	-4.50275
1752.000	8.95919	-4.06694	8.54590	-4.49598
1753.000	8.90323	-4.05779	8.49756	-4.45743
1754.000	8.89937	-4.05587	8.47242	-4.44794
1755.000	8.91288	-4.07724	8.45502	-4.45205
1756.000	8.94182	-4.09255	8.42987	-4.51884
1757.000	8.94568	-4.04949	8.48403	-4.45368
1758.000	8.90709	-4.11250	8.38730	-4.45087
1759.000	8.94182	-4.10624	8.49370	-4.45552
1760.000	8.93796	-4.09651	8.52657	-4.52944
1761.000	8.94375	-4.12577	8.55557	-4.47631
1762.000	8.95147	-4.12373	8.47049	-4.51446
1763.000	8.94568	-4.07100	8.57490	-4.53669
1764.000	8.93411	-4.10242	8.51690	-4.44156
1765.000	8.92253	-4.06539	8.54590	-4.44318
1766.000	8.97655	-4.07848	8.43567	-4.43858
1767.000	8.92446	-4.05364	8.44148	-4.48155
1768.000	9.00741	-4.07422	8.39311	-4.45668
1769.000	8.95340	-4.07287	8.39891	-4.42922
1770.000	8.93603	-4.07307	8.52657	-4.41603
1771.000	8.96690	-4.10400	8.49756	-4.40853
1772.000	8.96111	-4.08647	8.51110	-4.42598
1773.000	8.93989	-4.08671	8.45115	-4.44232
1774.000	8.95919	-4.02979	8.46662	-4.38541
1775.000	9.01319	-4.05265	8.42600	-4.44456
1776.000	8.95147	-4.06703	8.46082	-4.48133
1777.000	8.96690	-4.09227	8.42020	-4.43094
1778.000	8.99198	-4.11154	8.52077	-4.47867
1779.000	8.94761	-4.08662	8.45115	-4.41493
1780.000	8.95919	-4.08063	8.40859	-4.38803
1781.000	8.95340	-4.12371	8.50723	-4.39278
1782.000	8.97269	-4.10198	8.51497	-4.38291
1783.000	8.94568	-4.07687	8.50723	-4.46905
1784.000	8.97655	-4.06284	8.51303	-4.44552
1785.000	8.96883	-4.04533	8.50337	-4.43585
1786.000	8.94375	-4.08080	8.45888	-4.38746
1787.000	8.94761	-4.11791	8.50530	-4.42018
1788.000	8.98040	-4.07648	8.44148	-4.46590
1789.000	8.98233	-4.09210	8.43180	-4.38385
1790.000	8.97269	-4.05702	8.43954	-4.47375
1791.000	8.97076	-4.08245	8.58070	-4.42322
1792.000	8.94375	-4.06907	8.51110	-4.40056
1793.000	8.99583	-4.06262	8.45695	-4.41878
1794.000	8.96304	-4.07472	8.42793	-4.41129
1795.000	8.96883	-4.05315	8.44534	-4.41109
1796.000	8.96304	-4.09036	8.58843	-4.44855
1797.000	9.00548	-4.10748	8.52270	-4.33783
1798.000	8.99583	-4.06653	8.51110	-4.46901
1799.000	8.93411	-4.09655	8.47436	-4.51050
1800.000	8.95919	-4.07281	8.43567	-4.40924
1801.000	8.94568	-4.03972	8.46469	-4.43825
1802.000	8.96690	-4.08250	8.55557	-4.40787
1803.000	9.00355	-4.12314	8.49370	-4.46334
1804.000	8.98426	-4.08230	8.57297	-4.44091
1805.000	8.97076	-4.09028	8.52464	-4.46298
1806.000	8.98426	-4.06275	8.56910	-4.45269
1807.000	8.99390	-4.03527	8.49370	-4.42618
1808.000	8.97269	-4.05897	8.56330	-4.47818
1809.000	8.99583	-4.07435	8.54977	-4.37077
1810.000	8.98040	-4.06866	8.48790	-4.43798
1811.000	8.96883	-4.08443	8.49563	-4.48288
1812.000	8.98040	-4.07257	8.49756	-4.41831
1813.000	8.96883	-4.07270	8.44534	-4.45608
1814.000	8.95340	-4.08656	8.61356	-4.43457
1815.000	8.96883	-4.09030	8.58843	-4.41727
1816.000	8.98233	-4.06473	8.54590	-4.47056
1817.000	8.99776	-4.09193	8.49370	-4.45161
1818.000	8.98233	-4.06082	8.49370	-4.37533
1819.000	8.99005	-4.11547	8.48983	-4.47512
1820.000	8.96304	-4.09232	8.52077	-4.44738
1821.000	8.96304	-4.08841	8.49370	-4.45161
1822.000	9.00162	-4.09188	8.45308	-4.49706
1823.000	8.95533	-4.09631	8.52657	-4.46296
1824.000	8.98812	-4.08030	8.52270	-4.45323
1825.000	9.01126	-4.10741	8.56330	-4.45862
1826.000	8.95919	-4.12755	8.57297	-4.48197
1827.000	9.01512	-4.09760	8.58070	-4.49166
1828.000	9.00162	-4.10948	8.50143	-4.41045
1829.000	8.99198	-4.09395	8.53430	-4.51567
1830.000	9.01126	-4.10155	8.58070	-4.48970
1831.000	8.97076	-4.10787	8.48596	-4.48690
1832.000	8.96883	-4.08639	8.54590	-4.45687
1833.000	8.96497	-4.10012	8.51303	-4.49050
1834.000	8.97462	-4.10392	8.55170	-4.48222
1835.000	8.99005	-4.12329	8.49563	-4.50634
1836.000	8.97462	-4.11369	8.54784	-4.44120
1837.000	8.96690	-4.10009	8.46856	-4.45777
1838.000	8.97847	-4.09801	8.60390	-4.41513
1839.000	8.99005	-4.09788	8.51884	-4.48847
1840.000	8.95340	-4.10807	8.57684	-4.48584
1841.000	8.97655	-4.10194	8.56330	-4.39996
1842.000	8.98812	-4.09595	8.52270	-4.40238
1843.000	8.95919	-4.09823	8.47823	-4.43223
1844.000	8.98812	-4.09204	8.48209	-4.42045
1845.000	8.98426	-4.11554	8.60390	-4.47574
1846.000	8.97076	-4.08832	8.50723	-4.46905
1847.000	8.99005	-4.14089	8.49756	-4.43983
1848.000	8.99776	-4.08020	8.65414	-4.49665
1849.000	8.95919	-4.12169	8.55944	-4.55447
1850.000	8.99583	-4.08804	8.61163	-4.40722
1851.000	8.96883	-4.13917	8.48983	-4.40862
1852.000	8.99198	-4.13695	8.45115	-4.51468
1853.000	8.98233	-4.11751	8.57490	-4.47804
1854.000	8.95533	-4.10609	8.49950	-4.42807
1855.000	8.95726	-4.15494	8.59617	-4.53253
1856.000	8.99583	-4.13495	8.54590	-4.46274
1857.000	8.99390	-4.09001	8.56717	-4.46640
1858.000	8.96883	-4.09812	8.54397	-4.46080
1859.000	9.01512	-4.09564	8.49563	-4.46919
1860.000	8.97076	-4.12938	8.50143	-4.43001
1861.000	8.99390	-4.11738	8.65607	-4.44580
1862.000	8.98619	-4.10965	8.55750	-4.46260
1863.000	8.98040	-4.07257	8.47629	-4.44399
1864.000	8.99005	-4.11938	8.53044	-4.44336
1865.000	8.96497	-4.08252	8.54010	-4.45889
1866.000	8.98040	-4.10385	8.48209	-4.42827
1867.000	8.95919	-4.07281	8.45115	-4.40711
1868.000	8.93989	-4.08476	8.55170	-4.42551
1869.000	8.97076	-4.07854	8.50723	-4.42994
1870.000	8.99198	-4.12522	8.44728	-4.45410
1871.000	8.98426	-4.10381	8.54590	-4.41385
1872.000	8.97076	-4.07854	8.53817	-4.46087
1873.000	8.93603	-4.07893	8.53624	-4.42765
1874.000	8.93989	-4.13559	8.52850	-4.41796
1875.000	8.97076	-4.07854	8.47823	-4.46548
1876.000	8.96497	-4.11185	8.59230	-4.45046
1877.000	8.97655	-4.14495	8.49563	-4.47897
1878.000	8.92832	-4.13963	8.56524	-4.41362
1879.000	8.93796	-4.08282	8.51303	-4.50223
1880.000	8.91288	-4.11439	8.58650	-4.36253
1881.000	8.91867	-4.10455	8.46469	-4.39717
1882.000	8.92253	-4.05953	8.53430	-4.48438
1883.000	8.93603	-4.13368	8.51884	-4.38482
1884.000	8.92832	-4.11226	8.63675	-4.44212
1885.000	8.93989	-4.11017	8.55364	-4.48807
1886.000	8.96304	-4.10600	8.50530	-4.41627
1887.000	8.93989	-4.08867	8.60583	-4.45812
1888.000	8.92446	-4.10839	8.50917	-4.46707
1889.000	8.93411	-4.10828	8.56137	-4.43518
1890.000	8.96111	-4.09625	8.54397	-4.45885
1891.000	8.91674	-4.12999	8.54397	-4.45494
1892.000	8.96497	-4.11185	8.59423	-4.48954
1893.000	8.98426	-4.09990	8.56330	-4.41951
1894.000	8.94182	-4.10820	8.60003	-4.53639
1895.000	8.96304	-4.09818	8.55557	-4.42938
1896.000	8.93025	-4.08877	8.50917	-4.42992
1897.000	8.95147	-4.13350	8.58650	-4.35080
1898.000	8.94568	-4.12379	8.51497	-4.38878
1899.000	8.93989	-4.12972	8.57684	-4.40958
1900.000	8.96690	-4.10205	8.57490	-4.32941
1901.000	8.92446	-4.09275	8.58263	-4.46231
1902.000	8.90516	-4.10274	8.61549	-4.36024
1903.000	8.90130	-4.11256	8.59810	-4.44648
1904.000	8.93218	-4.11808	8.58263	-4.41147
1905.000	8.95919	-4.14515	8.55170	-4.43725
1906.000	8.91481	-4.16129	8.50723	-4.38886
1907.000	8.92832	-4.12008	8.45502	-4.36403
1908.000	8.95147	-4.13546	8.55557	-4.45089
1909.000	8.93025	-4.11615	8.57877	-4.40369
1910.000	8.95919	-4.13537	8.47436	-4.43618
1911.000	8.95340	-4.13153	8.47629	-4.43029
1912.000	8.94954	-4.11984	8.49176	-4.46532
1913.000	8.97655	-4.14104	8.49370	-4.49854
1914.000	8.98233	-4.12533	8.47629	-4.46941
1915.000	8.94182	-4.12775	8.53237	-4.38662
1916.000	8.91481	-4.14369	8.41633	-4.43294
1917.000	8.95147	-4.17456	8.56330	-4.42147
1918.000	8.96304	-4.10405	8.48983	-4.46339
1919.000	8.93603	-4.13954	8.55170	-4.38444
1920.000	8.92832	-4.12399	8.54010	-4.41978
1921.000	8.91095	-4.11050	8.51303	-4.43965
1922.000	8.92253	-4.12797	8.51497	-4.42789
1923.000	8.91674	-4.09870	8.49563	-4.44963
1924.000	8.90130	-4.08127	8.42987	-4.36822
1925.000	8.91288	-4.08310	8.51690	-4.41809
1926.000	8.90130	-4.11061	8.51497	-4.40442
1927.000	8.91674	-4.12021	8.47049	-4.41862
1928.000	8.91674	-4.10848	8.50337	-4.35761
1929.000	8.94954	-4.12375	8.48209	-4.44783
1930.000	8.91288	-4.08506	8.52270	-4.42585
1931.000	8.93218	-4.10830	8.55170	-4.40009
1932.000	8.96497	-4.10403	8.39117	-4.33343
1933.000	8.91867	-4.12214	8.50917	-4.42600
1934.000	8.94761	-4.09640	8.48596	-4.37541
1935.000	8.91674	-4.06155	8.53237	-4.45703
1936.000	8.91674	-4.15345	8.47049	-4.35016
1937.000	8.88973	-4.14007	8.54977	-4.35904
1938.000	8.94375	-4.12968	8.52077	-4.39849
1939.000	8.88394	-4.10298	8.57490	-4.42329
1940.000	8.94375	-4.14337	8.51690	-4.42396
1941.000	8.90130	-4.13407	8.46082	-4.40504
1942.000	8.87429	-4.14024	8.46082	-4.42656
1943.000	8.88780	-4.16160	8.53624	-4.36115
1944.000	8.90323	-4.14187	8.42213	-4.45243
1945.000	8.88973	-4.15962	8.49563	-4.43985
1946.000	8.89744	-4.16344	8.57297	-4.43700
1947.000	8.91674	-4.15149	8.57297	-4.40180
1948.000	8.92253	-4.15925	8.52077	-4.46107
1949.000	8.91481	-4.16129	8.44534	-4.42869
1950.000	8.94375	-4.11991	8.50917	-4.37906
1951.000	8.91288	-4.13785	8.58070	-4.34304
1952.000	8.93025	-4.14352	8.48209	-4.43218
1953.000	8.92060	-4.16318	8.55750	-4.44891
1954.000	8.93989	-4.12386	8.52850	-4.42578
1955.000	8.90516	-4.16335	8.49370	-4.35968
1956.000	8.90709	-4.15551	8.52464	-4.39062
1957.000	8.92253	-4.15338	8.52657	-4.46883
1958.000	8.93411	-4.13370	8.55170	-4.42160
1959.000	8.93796	-4.18644	8.47436	-4.47530
1960.000	8.88780	-4.17724	8.53237	-4.51373
1961.000	8.89552	-4.14391	8.46856	-4.40104
1962.000	8.89359	-4.14980	8.52077	-4.39067
1963.000	8.93411	-4.13566	8.37569	-4.38448
1964.000	8.95340	-4.16867	8.44534	-4.44630
1965.000	8.97462	-4.18016	8.50723	-4.45145
1966.000	9.01705	-4.20703	8.51884	-4.43372
1967.000	9.01512	-4.22268	8.48403	-4.44390
1968.000	8.98040	-4.15077	8.55557	-4.43525
1969.000	8.93025	-4.14743	8.48596	-4.47712
1970.000	8.78742	-4.15099	8.51884	-4.45914
1971.000	8.67346	-4.14834	8.40859	-4.47606
1972.000	8.47242	-4.13095	8.29053	-4.43436
1973.000	8.28085	-4.14277	8.04258	-4.41556
1974.000	7.97473	-4.12633	7.74969	-4.45591
1975.000	7.51664	-4.02483	7.41362	-4.49075
1976.000	7.00499	-3.98224	7.07510	-4.42347
1977.000	6.53906	-3.89165	6.59174	-4.45150
1978.000	5.95690	-3.76005	6.09572	-4.43414
1979.000	5.29706	-3.62819	5.57528	-4.26697
1980.000	4.67706	-3.52693	5.07549	-4.29802
1981.000	4.14053	-3.32384	4.50420	-4.08657
1982.000	3.55798	-3.19549	3.98316	-3.82070
1983.000	2.96483	-3.06862	3.44571	-3.76370
1984.000	2.44999	-2.87764	2.79327	-3.61960
1985.000	2.00781	-2.67023	2.42433	-3.35728
1986.000	1.51403	-2.53598	2.03743	-3.26106
1987.000	1.20382	-2.33181	1.57527	-2.96645
1988.000	0.89749	-2.20095	1.26903	-2.89345
1989.000	0.63855	-1.97063	0.92911	-2.69136
1990.000	0.48238	-1.85344	0.64250	-2.40764
1991.000	0.22340	-1.65474	0.42702	-2.27863
1992.000	0.03361	-1.53945	0.13444	-2.15155
1993.000	-0.13839	-1.41221	-0.07315	-1.87934
1994.000	-0.31039	-1.34658	-0.26096	-1.82169
1995.000	-0.43296	-1.14971	-0.40330	-1.62489
1996.000	-0.54761	-1.00253	-0.60296	-1.52545
1997.000	-0.71959	-0.93289	-0.87574	-1.41404
1998.000	-0.90144	-0.77971	-1.01410	-1.34440
1999.000	-1.04177	-0.67825	-1.19987	-1.26480
2000.000	-1.16429	-0.61459	-1.26310	-1.16139
2001.000	-1.24532	-0.52308	-1.36980	-1.09176
2002.000	-1.30064	-0.44949	-1.56540	-0.91273
2003.000	-1.25717	-0.32221	-1.56342	-0.75964
2004.000	-1.24532	-0.22077	-1.61281	-0.72582
2005.000	-1.13268	-0.15316	-1.56737	-0.61846
2006.000	-1.03584	-0.09747	-1.51996	-0.49916
2007.000	-0.96864	-0.10145	-1.36585	-0.35401
2008.000	-0.90934	-0.00398	-1.16429	-0.40575
2009.000	-0.75319	0.00000	-1.01607	-0.39384
2010.000	-0.66424	0.02188	-0.98247	-0.23472
2011.000	-0.56145	0.01194	-0.67413	-0.36205
2012.000	-0.57529	-0.04774	-0.60494	-0.34614
2013.000	-0.53773	-0.09748	-0.50412	-0.40781
2014.000	-0.53378	-0.20888	-0.42702	-0.48142
2015.000	-0.57924	-0.23076	-0.34399	-0.69228
2016.000	-0.58913	-0.34614	-0.34399	-0.70222
2017.000	-0.68796	-0.42570	-0.39737	-0.88919
2018.000	-0.75122	-0.53709	-0.38946	-0.94686
2019.000	-0.89749	-0.58082	-0.43691	-1.01647
2020.000	-0.94295	-0.61861	-0.50610	-1.13180
2021.000	-1.03781	-0.69019	-0.59308	-1.21530
2022.000	-1.16825	-0.73192	-0.73145	-1.22123
2023.000	-1.18801	-0.75379	-0.81842	-1.26892
2024.000	-1.28879	-0.76172	-0.95085	-1.24900
2025.000	-1.36585	-0.72988	-1.10106	-1.26484
2026.000	-1.39944	-0.66822	-1.09710	-1.19128
2027.000	-1.44291	-0.64236	-1.25915	-1.13753
2028.000	-1.46069	-0.59065	-1.36190	-1.04206
2029.000	-1.45871	-0.51707	-1.47847	-0.97639
2030.000	-1.48242	-0.45542	-1.57923	-0.88290
2031.000	-1.50810	-0.38382	-1.53181	-0.80339
2032.000	-1.53181	-0.35200	-1.53379	-0.69801
2033.000	-1.48440	-0.26848	-1.59305	-0.61050
2034.000	-1.46464	-0.15314	-1.61873	-0.58265
2035.000	-1.49428	-0.20484	-1.58713	-0.41364
2036.000	-1.51008	-0.21081	-1.61873	-0.44147
2037.000	-1.50415	-0.17103	-1.56935	-0.40171
2038.000	-1.48835	-0.17103	-1.58910	-0.44744
2039.000	-1.45279	-0.20683	-1.51601	-0.35996
2040.000	-1.42513	-0.12728	-1.45871	-0.42162
2041.000	-1.37771	-0.14320	-1.42315	-0.45344
2042.000	-1.39944	-0.15513	-1.42315	-0.41566
2043.000	-1.32238	-0.17303	-1.44883	-0.38383
2044.000	-1.31843	-0.15712	-1.33819	-0.49721
2045.000	-1.29274	-0.20685	-1.33028	-0.44153
2046.000	-1.29669	-0.19094	-1.31645	-0.54892
2047.000	-1.28681	-0.22674	-1.35004	-0.57875
2048.000	-1.26508	-0.21481	-1.31250	-0.56086
2049.000	-1.30460	-0.25060	-1.29669	-0.60859
2050.000	-1.22358	-0.23669	-1.33819	-0.59267
2051.000	-1.18010	-0.20487	-1.30657	-0.62847
2052.000	-1.24927	-0.22077	-1.25322	-0.56286
2053.000	-1.23346	-0.24663	-1.30064	-0.70802
2054.000	-1.22555	-0.19492	-1.27891	-0.63842
2055.000	-1.20975	-0.23271	-1.23939	-0.62650
2056.000	-1.27496	-0.26254	-1.37573	-0.63442
2057.000	-1.27298	-0.24066	-1.23741	-0.54098
2058.000	-1.29867	-0.21878	-1.28088	-0.66229
2059.000	-1.29076	-0.20685	-1.22555	-0.56286
2060.000	-1.26508	-0.21282	-1.30064	-0.67620
2061.000	-1.26705	-0.18696	-1.21172	-0.58077
2062.000	-1.24136	-0.25658	-1.38758	-0.59067
2063.000	-1.23741	-0.22077	-1.26310	-0.62252
2064.000	-1.26705	-0.26652	-1.34609	-0.61255
2065.000	-1.22951	-0.22873	-1.33226	-0.57676
2066.000	-1.24136	-0.24663	-1.33621	-0.65830
2067.000	-1.23741	-0.26055	-1.35795	-0.70999
2068.000	-1.24729	-0.25657	-1.33621	-0.62847
2069.000	-1.24729	-0.21083	-1.31250	-0.64836
2070.000	-1.25520	-0.23668	-1.31052	-0.60063
2071.000	-1.24927	-0.21083	-1.31052	-0.62052
2072.000	-1.24334	-0.18895	-1.33819	-0.66625
2073.000	-1.22753	-0.24663	-1.30460	-0.63444
2074.000	-1.21765	-0.26254	-1.31645	-0.62250
2075.000	-1.23939	-0.22873	-1.30855	-0.58074
2076.000	-1.21963	-0.27448	-1.30855	-0.64438
2077.000	-1.23544	-0.22078	-1.24136	-0.63446
2078.000	-1.23741	-0.24265	-1.31843	-0.67023
2079.000	-1.24927	-0.21680	-1.36387	-0.66227
2080.000	-1.21370	-0.23271	-1.35992	-0.70005
2081.000	-1.18998	-0.22277	-1.35597	-0.64238
2082.000	-1.25915	-0.23867	-1.31645	-0.65233
2083.000	-1.21172	-0.21680	-1.30064	-0.69808
2084.000	-1.28484	-0.20486	-1.38166	-0.64635
2085.000	-1.25322	-0.24066	-1.33424	-0.61653
2086.000	-1.22951	-0.22873	-1.39944	-0.72191
2087.000	-1.22160	-0.19890	-1.28286	-0.65433
2088.000	-1.24136	-0.14519	-1.39351	-0.66425
2089.000	-1.25520	-0.22674	-1.34609	-0.65630
2090.000	-1.24532	-0.20287	-1.37968	-0.66226
2091.000	-1.27693	-0.20685	-1.35597	-0.67221
2092.000	-1.25124	-0.23867	-1.37771	-0.66027
2093.000	-1.22753	-0.21879	-1.40734	-0.66822
2094.000	-1.25520	-0.22873	-1.30460	-0.64836
2095.000	-1.24136	-0.16111	-1.33819	-0.63443
2096.000	-1.22753	-0.20486	-1.40537	-0.63441
2097.000	-1.25915	-0.16707	-1.32238	-0.63841
2098.000	-1.27891	-0.19690	-1.36387	-0.61454
2099.000	-1.23544	-0.22674	-1.33424	-0.63443
2100.000	-1.23346	-0.23470	-1.26705	-0.68417
2101.000	-1.29076	-0.18298	-1.38166	-0.61851
2102.000	-1.24729	-0.22276	-1.36190	-0.53897
2103.000	-1.27496	-0.21083	-1.35004	-0.68216
2104.000	-1.24729	-0.19691	-1.31448	-0.61455
2105.000	-1.22951	-0.20884	-1.38956	-0.58271
2106.000	-1.27496	-0.19094	-1.30460	-0.65035
2107.000	-1.31448	-0.20883	-1.29867	-0.53501
2108.000	-1.26508	-0.20088	-1.37375	-0.61652
2109.000	-1.28286	-0.20486	-1.31645	-0.66427
2110.000	-1.28286	-0.20685	-1.34609	-0.64835
2111.000	-1.26705	-0.12928	-1.33621	-0.65034
2112.000	-1.27100	-0.24066	-1.36387	-0.65232
2113.000	-1.30855	-0.24066	-1.38758	-0.64436
2114.000	-1.28484	-0.21878	-1.32040	-0.64239
2115.000	-1.23741	-0.26055	-1.35399	-0.62647
2116.000	-1.26508	-0.19691	-1.30657	-0.67819
2117.000	-1.25915	-0.19492	-1.40537	-0.62049
2118.000	-1.24927	-0.25657	-1.37573	-0.70203
2119.000	-1.24136	-0.21680	-1.32040	-0.67620
2120.000	-1.21765	-0.25857	-1.35795	-0.63045
2121.000	-1.26903	-0.20685	-1.37573	-0.66823
2122.000	-1.24136	-0.18497	-1.40734	-0.56879
2123.000	-1.24532	-0.19890	-1.40537	-0.61850
2124.000	-1.28484	-0.20486	-1.30460	-0.61455
2125.000	-1.28484	-0.20287	-1.32633	-0.65830
2126.000	-1.25322	-0.16707	-1.40142	-0.63044
2127.000	-1.27891	-0.24464	-1.37178	-0.67419
2128.000	-1.28681	-0.21282	-1.36387	-0.68812
2129.000	-1.24729	-0.11337	-1.40339	-0.59663
2130.000	-1.27891	-0.20088	-1.38166	-0.64436
2131.000	-1.28879	-0.18696	-1.39944	-0.65032
2132.000	-1.25124	-0.23271	-1.40339	-0.69208
2133.000	-1.30064	-0.17105	-1.38363	-0.66425
2134.000	-1.30855	-0.20884	-1.36980	-0.61056
2135.000	-1.34609	-0.25855	-1.34609	-0.72789
2136.000	-1.29867	-0.24265	-1.35795	-0.69011
2137.000	-1.30460	-0.25259	-1.42513	-0.66623
2138.000	-1.31645	-0.21082	-1.34214	-0.66028
2139.000	-1.29472	-0.23469	-1.37573	-0.66027
2140.000	-1.33424	-0.26253	-1.40734	-0.67418
2141.000	-1.28484	-0.24265	-1.37375	-0.67221
2142.000	-1.30657	-0.20287	-1.34214	-0.69608
2143.000	-1.33621	-0.27844	-1.35992	-0.77760
2144.000	-1.34807	-0.22673	-1.30064	-0.69012
2145.000	-1.30262	-0.25458	-1.39944	-0.64038
2146.000	-1.35004	-0.21878	-1.33819	-0.60858
2147.000	-1.29867	-0.20685	-1.36980	-0.69408
2148.000	-1.30460	-0.18696	-1.38363	-0.63044
2149.000	-1.32040	-0.22475	-1.34016	-0.73983
2150.000	-1.32040	-0.20486	-1.37375	-0.64039
2151.000	-1.29274	-0.20685	-1.40537	-0.73583
2152.000	-1.38166	-0.24463	-1.39944	-0.70402
2153.000	-1.32436	-0.28839	-1.35202	-0.63045
2154.000	-1.33621	-0.29435	-1.36585	-0.69607
2155.000	-1.35795	-0.23270	-1.32040	-0.59267
2156.000	-1.30657	-0.23668	-1.33819	-0.68216
2157.000	-1.31843	-0.28441	-1.36387	-0.64636
2158.000	-1.35795	-0.29833	-1.33424	-0.70602
2159.000	-1.30262	-0.24066	-1.40537	-0.67021
2160.000	-1.31843	-0.24066	-1.36585	-0.64636
2161.000	-1.29472	-0.22674	-1.33424	-0.63244
2162.000	-1.36190	-0.29833	-1.30855	-0.67819
2163.000	-1.36585	-0.27048	-1.35795	-0.76170
2164.000	-1.33424	-0.22474	-1.38561	-0.65430
2165.000	-1.28088	-0.24464	-1.32238	-0.75176
2166.000	-1.34807	-0.26452	-1.37968	-0.67618
2167.000	-1.34016	-0.27248	-1.37771	-0.72788
2168.000	-1.37375	-0.26452	-1.34609	-0.67818
2169.000	-1.33819	-0.24065	-1.33819	-0.73187
2170.000	-1.36783	-0.27446	-1.35202	-0.70204
2171.000	-1.38561	-0.25656	-1.36980	-0.75970
2172.000	-1.35202	-0.27446	-1.37573	-0.70999
2173.000	-1.36387	-0.27446	-1.28088	-0.75973
2174.000	-1.35399	-0.25855	-1.44093	-0.66224
2175.000	-1.36190	-0.30429	-1.37375	-0.69209
2176.000	-1.35992	-0.30032	-1.30460	-0.71597
2177.000	-1.32238	-0.28839	-1.43105	-0.65429
2178.000	-1.32040	-0.26452	-1.34412	-0.69409
2179.000	-1.32436	-0.22673	-1.34609	-0.67818
2180.000	-1.31645	-0.21878	-1.34609	-0.68216
2181.000	-1.33621	-0.24463	-1.39154	-0.66226
2182.000	-1.31843	-0.22872	-1.40142	-0.68413
2183.000	-1.28681	-0.23270	-1.37375	-0.61652
2184.000	-1.33819	-0.25855	-1.35992	-0.67420
2185.000	-1.32633	-0.22673	-1.40734	-0.71793
2186.000	-1.35399	-0.22076	-1.39549	-0.64635
2187.000	-1.32238	-0.25856	-1.34214	-0.71397
2188.000	-1.33819	-0.20486	-1.34609	-0.64238
2189.000	-1.29867	-0.21878	-1.38561	-0.67817
2190.000	-1.33424	-0.25060	-1.40339	-0.59862
2191.000	-1.34016	-0.27248	-1.33424	-0.67023
2192.000	-1.35004	-0.23866	-1.28286	-0.61456
2193.000	-1.32831	-0.23668	-1.36980	-0.76766
2194.000	-1.36190	-0.26054	-1.34412	-0.71397
2195.000	-1.32436	-0.30430	-1.38956	-0.68811
2196.000	-1.35004	-0.27049	-1.35992	-0.59863
2197.000	-1.33028	-0.26253	-1.39549	-0.61453
2198.000	-1.32436	-0.24066	-1.33621	-0.71795
2199.000	-1.34412	-0.22275	-1.38561	-0.64635
2200.000	-1.32633	-0.29038	-1.38166	-0.64237
2201.000	-1.35795	-0.26651	-1.43698	-0.65031
2202.000	-1.34807	-0.25458	-1.36980	-0.58670
2203.000	-1.39746	-0.26054	-1.38956	-0.70004
2204.000	-1.34214	-0.26651	-1.37968	-0.66823
2205.000	-1.35992	-0.30032	-1.32831	-0.67023
2206.000	-1.40142	-0.26253	-1.32040	-0.62449
2207.000	-1.38561	-0.24065	-1.32831	-0.76767
2208.000	-1.34609	-0.26054	-1.34412	-0.74181
2209.000	-1.30657	-0.30629	-1.40537	-0.70998
2210.000	-1.39746	-0.26253	-1.35004	-0.61056
2211.000	-1.41327	-0.29037	-1.37771	-0.69408
2212.000	-1.33621	-0.23867	-1.40537	-0.72191
2213.000	-1.38166	-0.29833	-1.32238	-0.71796
2214.000	-1.36585	-0.27446	-1.41327	-0.75372
2215.000	-1.33621	-0.23668	-1.41129	-0.70202
2216.000	-1.35399	-0.26850	-1.36783	-0.67221
2217.000	-1.37375	-0.23667	-1.37178	-0.75175
2218.000	-1.34214	-0.22275	-1.37968	-0.63044
2219.000	-1.39549	-0.21877	-1.37375	-0.71993
2220.000	-1.35597	-0.20883	-1.36387	-0.66227
2221.000	-1.32831	-0.21281	-1.35597	-0.67221
2222.000	-1.33819	-0.21480	-1.33424	-0.72591
2223.000	-1.36190	-0.23866	-1.36980	-0.67420
2224.000	-1.30262	-0.21878	-1.30657	-0.68018
2225.000	-1.30855	-0.20685	-1.34412	-0.76170
2226.000	-1.30855	-0.24861	-1.37178	-0.70601
2227.000	-1.34214	-0.26253	-1.32633	-0.66228
2228.000	-1.31052	-0.23668	-1.42315	-0.69804
2229.000	-1.32238	-0.27447	-1.35202	-0.75374
2230.000	-1.34807	-0.22872	-1.37178	-0.73584
2231.000	-1.35399	-0.25855	-1.34609	-0.67619
2232.000	-1.31052	-0.24066	-1.31250	-0.70006
2233.000	-1.34807	-0.29236	-1.36783	-0.76567
2234.000	-1.38363	-0.24463	-1.37968	-0.63840
2235.000	-1.33819	-0.22872	-1.38166	-0.66823
2236.000	-1.36585	-0.30032	-1.34016	-0.65432
2237.000	-1.34016	-0.25060	-1.28088	-0.61655
2238.000	-1.34214	-0.25060	-1.28681	-0.60660
2239.000	-1.39549	-0.28838	-1.35004	-0.68216
2240.000	-1.37178	-0.29435	-1.30855	-0.68614
2241.000	-1.35597	-0.28441	-1.35597	-0.70801
2242.000	-1.32238	-0.24265	-1.29472	-0.62450
2243.000	-1.34609	-0.23469	-1.37968	-0.74976
2244.000	-1.34807	-0.21679	-1.31250	-0.68813
2245.000	-1.32633	-0.21082	-1.36190	-0.73783
2246.000	-1.39746	-0.28440	-1.37375	-0.76964
2247.000	-1.34807	-0.20883	-1.33819	-0.73585
2248.000	-1.33621	-0.23071	-1.34412	-0.65432
2249.000	-1.32831	-0.22872	-1.35597	-0.65431
2250.000	-1.36387	-0.30827	-1.35399	-0.63642
2251.000	-1.30460	-0.26850	-1.39944	-0.66226
2252.000	-1.35795	-0.24463	-1.34807	-0.70602
2253.000	-1.31843	-0.19690	-1.40932	-0.62447
2254.000	-1.35597	-0.26452	-1.36783	-0.74380
2255.000	-1.36980	-0.24065	-1.29867	-0.69808
2256.000	-1.32831	-0.22474	-1.35399	-0.70204
2257.000	-1.36387	-0.29435	-1.30657	-0.68813
2258.000	-1.32633	-0.27447	-1.32831	-0.70602
2259.000	-1.34214	-0.31225	-1.30262	-0.69609
2260.000	-1.35202	-0.25855	-1.33226	-0.69210
2261.000	-1.35795	-0.30231	-1.33819	-0.77363
2262.000	-1.33819	-0.22276	-1.34807	-0.70403
2263.000	-1.35992	-0.29833	-1.29669	-0.70206
2264.000	-1.32831	-0.23867	-1.40537	-0.73384
2265.000	-1.35992	-0.24264	-1.37375	-0.72590
2266.000	-1.39549	-0.23866	-1.39154	-0.71595
2267.000	-1.35202	-0.26054	-1.34214	-0.74579
2268.000	-1.34214	-0.26253	-1.35202	-0.77562
2269.000	-1.34214	-0.24264	-1.36190	-0.67022
2270.000	-1.36190	-0.23667	-1.37771	-0.65630
2271.000	-1.35992	-0.27844	-1.38956	-0.70402
2272.000	-1.33226	-0.29237	-1.36783	-0.73584
2273.000	-1.31843	-0.27248	-1.37375	-0.66226
2274.000	-1.33226	-0.30231	-1.34016	-0.76170
2275.000	-1.32040	-0.24463	-1.40537	-0.74975
2276.000	-1.34016	-0.27248	-1.38561	-0.71396
2277.000	-1.34807	-0.25656	-1.41129	-0.67816
2278.000	-1.29274	-0.26453	-1.34807	-0.80743
2279.000	-1.30855	-0.27049	-1.39549	-0.73782
2280.000	-1.32831	-0.19491	-1.37771	-0.70004
2281.000	-1.26705	-0.27845	-1.39944	-0.70203
2282.000	-1.35004	-0.24861	-1.38956	-0.72390
2283.000	-1.32436	-0.28242	-1.27298	-0.69809
2284.000	-1.34609	-0.24861	-1.38956	-0.68612
2285.000	-1.37178	-0.25855	-1.40734	-0.73185
2286.000	-1.36190	-0.24065	-1.37375	-0.75970
2287.000	-1.35597	-0.28043	-1.34214	-0.73585
2288.000	-1.35597	-0.27049	-1.36387	-0.72192
2289.000	-1.32436	-0.25657	-1.33819	-0.69011
2290.000	-1.30064	-0.30231	-1.40142	-0.61254
2291.000	-1.33226	-0.28441	-1.35992	-0.65431
2292.000	-1.38956	-0.30230	-1.38758	-0.77362
2293.000	-1.32831	-0.26651	-1.37771	-0.70402
2294.000	-1.40142	-0.25258	-1.40537	-0.70600
2295.000	-1.33621	-0.23867	-1.36783	-0.70402
2296.000	-1.37771	-0.25656	-1.31843	-0.70404
2297.000	-1.39351	-0.28639	-1.38166	-0.74777
2298.000	-1.35795	-0.31225	-1.34609	-0.68216
2299.000	-1.39351	-0.27247	-1.35992	-0.72590
2300.000	-1.37573	-0.29037	-1.46266	-0.68610
2301.000	-1.39746	-0.26451	-1.40142	-0.74379
2302.000	-1.39944	-0.28042	-1.33819	-0.67619
2303.000	-1.40932	-0.32219	-1.40339	-0.72788
2304.000	-1.38363	-0.31424	-1.30064	-0.73387
2305.000	-1.30460	-0.32817	-1.42710	-0.76167
2306.000	-1.40734	-0.33213	-1.34214	-0.79749
2307.000	-1.39549	-0.33213	-1.39746	-0.70799
2308.000	-1.39746	-0.31821	-1.39154	-0.79350
2309.000	-1.39154	-0.34606	-1.31250	-0.68217
2310.000	-1.44291	-0.31821	-1.32238	-0.76767
2311.000	-1.38561	-0.34208	-1.34214	-0.79551
2312.000	-1.39944	-0.33412	-1.37178	-0.75970
2313.000	-1.47452	-0.36394	-1.36980	-0.77959
2314.000	-1.42513	-0.32616	-1.43105	-0.75173
2315.000	-1.40537	-0.33014	-1.36585	-0.72988
2316.000	-1.42513	-0.33611	-1.43698	-0.68611
2317.000	-1.40339	-0.33611	-1.34016	-0.68216
2318.000	-1.36980	-0.30231	-1.40142	-0.75969
2319.000	-1.43896	-0.31224	-1.35795	-0.74380
2320.000	-1.39351	-0.33015	-1.42908	-0.71793
2321.000	-1.39351	-0.33810	-1.33819	-0.72193
2322.000	-1.39154	-0.31424	-1.34214	-0.67619
2323.000	-1.44291	-0.29036	-1.28484	-0.65632
2324.000	-1.42908	-0.30628	-1.38758	-0.64834
2325.000	-1.39944	-0.32219	-1.36783	-0.69806
2326.000	-1.42117	-0.32815	-1.34609	-0.68414
2327.000	-1.38956	-0.29634	-1.40734	-0.76765
2328.000	-1.36190	-0.28640	-1.30855	-0.63444
2329.000	-1.41722	-0.31423	-1.36783	-0.67221
2330.000	-1.42315	-0.30429	-1.33819	-0.63841
2331.000	-1.40142	-0.34804	-1.36387	-0.70005
2332.000	-1.40734	-0.30827	-1.42117	-0.65231
2333.000	-1.39944	-0.28838	-1.33424	-0.70801
2334.000	-1.42315	-0.35401	-1.35004	-0.73982
2335.000	-1.43303	-0.30429	-1.39944	-0.61453
2336.000	-1.43105	-0.30826	-1.33226	-0.74778
2337.000	-1.43896	-0.31821	-1.33621	-0.63244
2338.000	-1.40734	-0.29236	-1.34807	-0.64835
2339.000	-1.42117	-0.27843	-1.37375	-0.65630
2340.000	-1.41920	-0.35401	-1.33819	-0.63443
2341.000	-1.39944	-0.29634	-1.37573	-0.66823
2342.000	-1.36585	-0.27645	-1.34609	-0.71000
2343.000	-1.35795	-0.30231	-1.33028	-0.66426
2344.000	-1.33819	-0.33612	-1.39351	-0.69407
2345.000	-1.35399	-0.29634	-1.32436	-0.72591
2346.000	-1.40142	-0.30628	-1.34609	-0.69011
2347.000	-1.34807	-0.28242	-1.34412	-0.78159
2348.000	-1.39944	-0.30628	-1.30460	-0.74381
2349.000	-1.40734	-0.31224	-1.36980	-0.68215
2350.000	-1.33226	-0.24463	-1.35004	-0.71000
2351.000	-1.35202	-0.31225	-1.41525	-0.72986
2352.000	-1.37968	-0.30230	-1.36387	-0.73385
2353.000	-1.36585	-0.29435	-1.35202	-0.82334
2354.000	-1.38956	-0.31424	-1.34412	-0.68415
2355.000	-1.37178	-0.33413	-1.36585	-0.75772
2356.000	-1.34214	-0.28043	-1.41525	-0.71992
2357.000	-1.37178	-0.27048	-1.40142	-0.66623
2358.000	-1.42315	-0.27446	-1.36190	-0.71397
2359.000	-1.39549	-0.24662	-1.36387	-0.68215
2360.000	-1.34412	-0.27645	-1.41920	-0.63839
2361.000	-1.39154	-0.24662	-1.35992	-0.71994
2362.000	-1.35399	-0.26452	-1.33819	-0.71199
2363.000	-1.38363	-0.29634	-1.38561	-0.65033
2364.000	-1.35004	-0.25458	-1.35597	-0.72988
2365.000	-1.36585	-0.27247	-1.34412	-0.66625
2366.000	-1.37573	-0.33015	-1.39746	-0.67021
2367.000	-1.34807	-0.24264	-1.37968	-0.63243
2368.000	-1.38561	-0.33214	-1.35004	-0.77562
2369.000	-1.37573	-0.31225	-1.43303	-0.70400
2370.000	-1.40537	-0.31224	-1.38956	-0.72191
2371.000	-1.36783	-0.29833	-1.39549	-0.73186
2372.000	-1.41525	-0.31224	-1.37771	-0.74976
2373.000	-1.37573	-0.31424	-1.39944	-0.69407
2374.000	-1.41129	-0.30827	-1.38561	-0.70203
2375.000	-1.40339	-0.29435	-1.43303	-0.66423
2376.000	-1.43500	-0.29633	-1.38956	-0.70800
2377.000	-1.45279	-0.31025	-1.37375	-0.70800
2378.000	-1.39154	-0.28241	-1.38956	-0.66425
2379.000	-1.38758	-0.30628	-1.36585	-0.64636
2380.000	-1.39154	-0.31821	-1.36387	-0.67221
2381.000	-1.41920	-0.29037	-1.35004	-0.68017
2382.000	-1.41525	-0.29633	-1.32436	-0.69807
2383.000	-1.41129	-0.32617	-1.37968	-0.71595
2384.000	-1.36980	-0.29236	-1.40734	-0.64038
2385.000	-1.39746	-0.28241	-1.35202	-0.74380
2386.000	-1.38561	-0.31424	-1.44686	-0.70798
2387.000	-1.38561	-0.22275	-1.37178	-0.76368
2388.000	-1.36190	-0.33810	-1.37573	-0.67618
2389.000	-1.38363	-0.30230	-1.32831	-0.71994
2390.000	-1.40537	-0.31224	-1.39746	-0.70203
2391.000	-1.33424	-0.32021	-1.37573	-0.72192
2392.000	-1.35597	-0.28839	-1.37178	-0.63641
2393.000	-1.34412	-0.32816	-1.40734	-0.76963
2394.000	-1.41920	-0.33611	-1.39549	-0.69010
2395.000	-1.37573	-0.29037	-1.41722	-0.71992
2396.000	-1.41525	-0.29037	-1.40142	-0.70998
2397.000	-1.43500	-0.33611	-1.41722	-0.68611
2398.000	-1.39944	-0.28639	-1.30855	-0.75177
2399.000	-1.39549	-0.29634	-1.35004	-0.70403
2400.000	-1.43105	-0.29832	-1.44291	-0.70798
2401.000	-1.38363	-0.29634	-1.37968	-0.65232
2402.000	-1.37178	-0.30827	-1.45476	-0.64633
2403.000	-1.39154	-0.31026	-1.38363	-0.69805
2404.000	-1.41327	-0.31224	-1.39746	-0.64635
2405.000	-1.43698	-0.31224	-1.39944	-0.67618
2406.000	-1.41722	-0.32815	-1.40932	-0.65629
2407.000	-1.37771	-0.24662	-1.39154	-0.64436
2408.000	-1.40142	-0.34605	-1.36980	-0.63840
2409.000	-1.39351	-0.29832	-1.29669	-0.62251
2410.000	-1.40932	-0.28042	-1.38363	-0.68016
2411.000	-1.43105	-0.32417	-1.43303	-0.62844
2412.000	-1.36190	-0.33214	-1.34412	-0.77164
2413.000	-1.35992	-0.31424	-1.36585	-0.65630
2414.000	-1.34016	-0.32021	-1.40339	-0.69208
2415.000	-1.40142	-0.30429	-1.36980	-0.68613
2416.000	-1.37573	-0.28838	-1.48835	-0.68013
2417.000	-1.41920	-0.29037	-1.37178	-0.67419
2418.000	-1.39746	-0.32020	-1.35597	-0.75175
2419.000	-1.35597	-0.29435	-1.35202	-0.58073
2420.000	-1.39944	-0.31622	-1.33028	-0.63244
2421.000	-1.41722	-0.33810	-1.32238	-0.60461
2422.000	-1.37771	-0.28838	-1.39549	-0.59663
2423.000	-1.36783	-0.31822	-1.40537	-0.65430
2424.000	-1.41129	-0.31224	-1.38166	-0.62845
2425.000	-1.41327	-0.34009	-1.38758	-0.69209
2426.000	-1.40339	-0.29236	-1.29472	-0.64041
2427.000	-1.41327	-0.33810	-1.35399	-0.64238
2428.000	-1.41525	-0.31821	-1.32831	-0.67620
2429.000	-1.37771	-0.28838	-1.36585	-0.65033
2430.000	-1.37178	-0.29236	-1.31250	-0.63046
2431.000	-1.36585	-0.32219	-1.39154	-0.65629
2432.000	-1.34412	-0.36993	-1.36387	-0.58073
2433.000	-1.39746	-0.30429	-1.34016	-0.67420
2434.000	-1.37771	-0.37987	-1.31448	-0.64040
2435.000	-1.34412	-0.31822	-1.32436	-0.65034
2436.000	-1.34807	-0.27844	-1.41722	-0.63839
2437.000	-1.35795	-0.29634	-1.39351	-0.69010
2438.000	-1.45476	-0.31820	-1.34609	-0.66028
2439.000	-1.35795	-0.34407	-1.41129	-0.58072
2440.000	-1.39154	-0.35401	-1.39746	-0.57476
2441.000	-1.38363	-0.29435	-1.42710	-0.57475
2442.000	-1.38956	-0.30031	-1.32040	-0.65830
2443.000	-1.35202	-0.31225	-1.39351	-0.62447
2444.000	-1.40142	-0.34407	-1.29867	-0.64637
2445.000	-1.35004	-0.27844	-1.36783	-0.68016
2446.000	-1.37573	-0.32020	-1.38561	-0.66624
2447.000	-1.36585	-0.28640	-1.35795	-0.62051
2448.000	-1.37968	-0.32816	-1.36980	-0.60260
2449.000	-1.37968	-0.29435	-1.37573	-0.61454
2450.000	-1.36783	-0.29435	-1.39944	-0.58271
2451.000	-1.34807	-0.29634	-1.34016	-0.65233
2452.000	-1.34412	-0.28441	-1.34016	-0.62846
2453.000	-1.34214	-0.30430	-1.37771	-0.63840
2454.000	-1.32238	-0.31027	-1.32436	-0.60460
2455.000	-1.38166	-0.31623	-1.36585	-0.60459
2456.000	-1.37573	-0.30827	-1.33424	-0.63244
2457.000	-1.35795	-0.34805	-1.39549	-0.68214
2458.000	-1.33621	-0.31623	-1.32633	-0.65233
2459.000	-1.38758	-0.29833	-1.33819	-0.57079
2460.000	-1.36387	-0.29634	-1.36190	-0.67619
2461.000	-1.37375	-0.30628	-1.37375	-0.68215
2462.000	-1.36783	-0.29833	-1.36190	-0.59465
2463.000	-1.35202	-0.32220	-1.39944	-0.61254
2464.000	-1.33424	-0.34010	-1.37178	-0.60260
2465.000	-1.33621	-0.28242	-1.30262	-0.61654
2466.000	-1.38956	-0.28639	-1.37178	-0.61851
2467.000	-1.38363	-0.34805	-1.40734	-0.64833
2468.000	-1.37375	-0.29037	-1.33226	-0.58869
2469.000	-1.34412	-0.27844	-1.40339	-0.62049
2470.000	-1.31843	-0.29436	-1.40932	-0.60458
2471.000	-1.35597	-0.30231	-1.41129	-0.56680
2472.000	-1.32831	-0.29237	-1.37771	-0.57277
2473.000	-1.35004	-0.30430	-1.42908	-0.62049
2474.000	-1.35992	-0.25656	-1.36585	-0.60459
2475.000	-1.34016	-0.28441	-1.42117	-0.58668
2476.000	-1.29274	-0.31027	-1.45476	-0.62843
2477.000	-1.34807	-0.27844	-1.33621	-0.61653
2478.000	-1.30460	-0.28044	-1.31052	-0.61654
2479.000	-1.32040	-0.29634	-1.39154	-0.65828
2480.000	-1.27693	-0.24265	-1.29274	-0.63245
2481.000	-1.29867	-0.27049	-1.44291	-0.61253
2482.000	-1.34412	-0.26850	-1.31250	-0.67222
2483.000	-1.32436	-0.27248	-1.38758	-0.62448
2484.000	-1.31645	-0.26055	-1.33226	-0.61455
2485.000	-1.30855	-0.29635	-1.39154	-0.61851
2486.000	-1.32633	-0.32220	-1.30460	-0.67620
2487.000	-1.28681	-0.30033	-1.40932	-0.62646
2488.000	-1.28681	-0.27248	-1.34214	-0.61256
2489.000	-1.31645	-0.27646	-1.41722	-0.62248
2490.000	-1.26112	-0.29436	-1.35004	-0.65630
2491.000	-1.30064	-0.26453	-1.35202	-0.60062
2492.000	-1.30460	-0.21281	-1.34609	-0.63642
2493.000	-1.25124	-0.25459	-1.34214	-0.64040
2494.000	-1.26112	-0.26453	-1.35202	-0.62051
2495.000	-1.24136	-0.29834	-1.32040	-0.62052
2496.000	-1.27100	-0.23072	-1.39944	-0.69606
2497.000	-1.24334	-0.26652	-1.38561	-0.74180
2498.000	-1.30064	-0.25856	-1.35004	-0.63244
2499.000	-1.22555	-0.24265	-1.34214	-0.67023
2500.000	-1.30460	-0.29635	-1.29867	-0.69410
2501.000	-1.25124	-0.26652	-1.41327	-0.67219
2502.000	-1.29076	-0.23668	-1.28484	-0.71001
2503.000	-1.22160	-0.26254	-1.31448	-0.62449
2504.000	-1.24136	-0.24464	-1.33621	-0.62250
2505.000	-1.27496	-0.27646	-1.30460	-0.67620
2506.000	-1.22160	-0.26851	-1.30064	-0.66029
2507.000	-1.24729	-0.26453	-1.28681	-0.60064
2508.000	-1.30262	-0.25060	-1.35004	-0.56880
2509.000	-1.29472	-0.28640	-1.32238	-0.68415
2510.000	-1.25520	-0.21481	-1.37375	-0.66823
2511.000	-1.26705	-0.26254	-1.35992	-0.65829
2512.000	-1.25322	-0.29237	-1.39944	-0.70004
2513.000	-1.26310	-0.28442	-1.32633	-0.62648
2514.000	-1.29076	-0.30828	-1.32436	-0.71398
2515.000	-1.28088	-0.32220	-1.29669	-0.71995
2516.000	-1.24532	-0.33016	-1.33424	-0.68017
2517.000	-1.26903	-0.31823	-1.26508	-0.74184
2518.000	-1.29669	-0.32220	-1.37771	-0.72590
2519.000	-1.27100	-0.28243	-1.28088	-0.74979
2520.000	-1.29669	-0.32419	-1.40734	-0.71992
2521.000	-1.27298	-0.31823	-1.39746	-0.70600
2522.000	-1.28484	-0.34408	-1.35597	-0.68613
2523.000	-1.30064	-0.29635	-1.32633	-0.79153
2524.000	-1.26508	-0.34607	-1.37573	-0.73982
2525.000	-1.26112	-0.33812	-1.42315	-0.70997
2526.000	-1.29076	-0.30033	-1.31645	-0.73785
2527.000	-1.26903	-0.31823	-1.36387	-0.65630
2528.000	-1.25915	-0.29039	-1.29472	-0.70405
2529.000	-1.29076	-0.32817	-1.30064	-0.77961
2530.000	-1.27298	-0.29635	-1.26705	-0.76371
2531.000	-1.24927	-0.30829	-1.29669	-0.73189
2532.000	-1.28088	-0.29635	-1.33819	-0.71398
2533.000	-1.27496	-0.31823	-1.32436	-0.72193
2534.000	-1.32436	-0.30629	-1.28484	-0.72592
2535.000	-1.26112	-0.31425	-1.33424	-0.63642
2536.000	-1.26112	-0.27050	-1.34016	-0.68415
2537.000	-1.26310	-0.29038	-1.32436	-0.66228
2538.000	-1.25322	-0.25657	-1.35795	-0.62448
2539.000	-1.25915	-0.25458	-1.38956	-0.71794
2540.000	-1.30460	-0.33413	-1.32238	-0.72790
2541.000	-1.25124	-0.27249	-1.38363	-0.66027
2542.000	-1.29076	-0.32220	-1.28879	-0.60461
2543.000	-1.29076	-0.31027	-1.40142	-0.68015
2544.000	-1.30460	-0.29635	-1.34412	-0.63642
2545.000	-1.27100	-0.26254	-1.34016	-0.65034
2546.000	-1.32238	-0.31424	-1.30657	-0.65830
2547.000	-1.30460	-0.30032	-1.30657	-0.67620
2548.000	-1.32040	-0.27646	-1.32633	-0.65034
2549.000	-1.31052	-0.28839	-1.27496	-0.61655
2550.000	-1.26508	-0.28840	-1.40339	-0.57674
2551.000	-1.27496	-0.27447	-1.28879	-0.60461
2552.000	-1.28484	-0.32220	-1.33226	-0.66625
2553.000	-1.31250	-0.30629	-1.36387	-0.64238
2554.000	-1.32831	-0.30629	-1.28088	-0.62848
2555.000	-1.27298	-0.25657	-1.33819	-0.67818
2556.000	-1.30855	-0.30430	-1.33226	-0.59267
2557.000	-1.26903	-0.32420	-1.27298	-0.64041
2558.000	-1.28286	-0.34010	-1.29867	-0.61455
2559.000	-1.32633	-0.28441	-1.20382	-0.66628
2560.000	-1.28879	-0.28442	-1.38363	-0.65629
2561.000	-1.25322	-0.33215	-1.32831	-0.68216
2562.000	-1.27100	-0.29635	-1.25915	-0.69610
2563.000	-1.28484	-0.33414	-1.31645	-0.66824
2564.000	-1.27298	-0.31823	-1.30855	-0.62052
2565.000	-1.24532	-0.29238	-1.33621	-0.65631
2566.000	-1.24532	-0.24464	-1.25520	-0.68218
2567.000	-1.23148	-0.27845	-1.29472	-0.70405
2568.000	-1.24729	-0.26851	-1.32831	-0.64040
2569.000	-1.23148	-0.22475	-1.33424	-0.63443
2570.000	-1.21765	-0.25459	-1.27100	-0.66627
2571.000	-1.27298	-0.26254	-1.26705	-0.68019
2572.000	-1.22555	-0.26254	-1.28286	-0.65632
2573.000	-1.23544	-0.27845	-1.29472	-0.65632
2574.000	-1.23741	-0.25459	-1.29867	-0.73188
2575.000	-1.25322	-0.28840	-1.34807	-0.71198
2576.000	-1.27100	-0.31823	-1.24927	-0.74582
2577.000	-1.25717	-0.28840	-1.29669	-0.70404
2578.000	-1.30657	-0.33413	-1.29669	-0.71598
2579.000	-1.28286	-0.28839	-1.34807	-0.66625
2580.000	-1.23544	-0.29635	-1.21765	-0.65236
2581.000	-1.28484	-0.35204	-1.32633	-0.64835
2582.000	-1.23346	-0.27845	-1.23939	-0.72792
2583.000	-1.33819	-0.36197	-1.31843	-0.69012
2584.000	-1.24927	-0.30033	-1.25520	-0.71997
2585.000	-1.25915	-0.37193	-1.29669	-0.78955
2586.000	-1.26508	-0.34607	-1.34214	-0.71199
2587.000	-1.27891	-0.28641	-1.37573	-0.74379
2588.000	-1.29867	-0.35601	-1.21765	-0.76373
2589.000	-1.30262	-0.33811	-1.29867	-0.71598
2590.000	-1.26310	-0.30630	-1.31843	-0.73983
2591.000	-1.28681	-0.34010	-1.24136	-0.63843
2592.000	-1.27693	-0.33812	-1.27100	-0.71400
2593.000	-1.24729	-0.30829	-1.26705	-0.66428
2594.000	-1.29867	-0.31027	-1.30855	-0.64438
2595.000	-1.29274	-0.31027	-1.24729	-0.69610
2596.000	-1.28088	-0.33812	-1.30064	-0.78160
2597.000	-1.27496	-0.33812	-1.35004	-0.66823
2598.000	-1.25915	-0.29039	-1.37178	-0.71397
2599.000	-1.27100	-0.34209	-1.28088	-0.72791
2600.000	-1.27496	-0.31823	-1.32633	-0.69012
2601.000	-1.29274	-0.32220	-1.39351	-0.72589
2602.000	-1.27298	-0.32817	-1.35399	-0.77363
2603.000	-1.25717	-0.34011	-1.27693	-0.79155
2604.000	-1.27693	-0.31823	-1.20975	-0.74782
2605.000	-1.25520	-0.33414	-1.27891	-0.72394
2606.000	-1.23346	-0.33017	-1.30262	-0.67024
2607.000	-1.23346	-0.32022	-1.23148	-0.64639
2608.000	-1.24532	-0.36000	-1.33028	-0.71597
2609.000	-1.25717	-0.31624	-1.34412	-0.76369
2610.000	-1.28484	-0.35999	-1.28088	-0.74979
2611.000	-1.29274	-0.28044	-1.30064	-0.66626
2612.000	-1.23346	-0.34011	-1.30262	-0.67819
2613.000	-1.26310	-0.34210	-1.29274	-0.74978
2614.000	-1.29274	-0.35800	-1.35202	-0.67022
2615.000	-1.31448	-0.31027	-1.28286	-0.71598
2616.000	-1.31843	-0.35800	-1.25717	-0.68218
2617.000	-1.27496	-0.29834	-1.20382	-0.75578
2618.000	-1.27891	-0.33613	-1.31448	-0.75375
2619.000	-1.26112	-0.35005	-1.32831	-0.73386
2620.000	-1.24927	-0.32420	-1.31448	-0.73785
2621.000	-1.27298	-0.29635	-1.27891	-0.80149
2622.000	-1.28484	-0.32419	-1.28681	-0.73785
2623.000	-1.27100	-0.35403	-1.30262	-0.75972
2624.000	-1.22753	-0.34807	-1.34016	-0.78159
2625.000	-1.29274	-0.35999	-1.27298	-0.75377
2626.000	-1.31448	-0.32817	-1.33819	-0.76767
2627.000	-1.29867	-0.38585	-1.30460	-0.71796
2628.000	-1.24729	-0.32818	-1.30460	-0.74978
2629.000	-1.22160	-0.36398	-1.31645	-0.62847
2630.000	-1.24532	-0.34806	-1.27693	-0.73985
2631.000	-1.20579	-0.28840	-1.24532	-0.77963
2632.000	-1.27100	-0.36795	-1.28681	-0.72592
2633.000	-1.27693	-0.36994	-1.31645	-0.73586
2634.000	-1.25322	-0.29834	-1.31448	-0.81341
2635.000	-1.24729	-0.35801	-1.26903	-0.78956
2636.000	-1.24927	-0.35005	-1.30262	-0.77563
2637.000	-1.24136	-0.35005	-1.29274	-0.75575
2638.000	-1.21370	-0.33812	-1.28484	-0.84126
2639.000	-1.25124	-0.33613	-1.27298	-0.81740
2640.000	-1.23939	-0.35204	-1.26508	-0.74184
2641.000	-1.21963	-0.30033	-1.35795	-0.68613
2642.000	-1.25717	-0.39580	-1.30657	-0.81938
2643.000	-1.22358	-0.34409	-1.31645	-0.77961
2644.000	-1.24136	-0.29238	-1.30064	-0.76967
2645.000	-1.25520	-0.35204	-1.27891	-0.83132
2646.000	-1.22753	-0.34011	-1.29274	-0.74978
2647.000	-1.27891	-0.34806	-1.29274	-0.86711
2648.000	-1.21963	-0.29636	-1.23148	-0.87309
2649.000	-1.21963	-0.32420	-1.27100	-0.81144
2650.000	-1.17615	-0.28642	-1.22358	-0.74185
2651.000	-1.20579	-0.34011	-1.22358	-0.78560
2652.000	-1.07734	-0.33018	-1.04572	-0.72400
2653.000	-0.93899	-0.29638	-0.90144	-0.64447
2654.000	-0.74529	-0.26656	-0.77494	-0.54902
2655.000	-0.51203	-0.30636	-0.58122	-0.50727
2656.000	-0.22933	-0.22878	-0.34202	-0.47943
2657.000	-0.00593	-0.17308	-0.04349	-0.43369
2658.000	0.34795	-0.18302	0.20758	-0.38395
2659.000	0.62075	-0.18898	0.60889	-0.31431
2660.000	0.98643	-0.13924	0.87772	-0.26655
2661.000	1.40537	-0.09745	1.16825	-0.24067
2662.000	1.65232	-0.06562	1.50415	-0.17302
2663.000	1.90118	-0.06562	1.84193	-0.23065
2664.000	2.23288	0.00199	2.11246	-0.20676
2665.000	2.43420	-0.01789	2.39473	-0.19479
2666.000	2.73409	0.04769	2.59403	-0.17887
2667.000	2.81891	0.01987	2.76171	-0.28813
2668.000	2.91357	0.02186	2.98258	-0.31788
2669.000	3.01018	0.00596	3.14423	-0.29200
2670.000	3.13832	0.02582	3.26051	-0.40518
2671.000	3.21912	-0.03178	3.34524	-0.43295
2672.000	3.20533	-0.02979	3.43192	-0.42497
2673.000	3.25065	0.00397	3.50480	-0.44678
2674.000	3.36691	-0.00993	3.51465	-0.42295
2675.000	3.41025	-0.04170	3.63281	-0.38517
2676.000	3.43192	-0.03177	3.65841	-0.43479
2677.000	3.50480	-0.03177	3.73913	-0.39703
2678.000	3.54419	-0.02184	3.77062	-0.37320
2679.000	3.56979	0.00596	3.75684	-0.38115
2680.000	3.49298	0.02383	3.79818	-0.37120
2681.000	3.53238	0.03971	3.68400	-0.33552
2682.000	3.45162	0.01589	3.64856	-0.28788
2683.000	3.42601	0.01589	3.56783	-0.18069
2684.000	3.35312	0.02185	3.51859	-0.15488
2685.000	3.33144	0.07944	3.53631	-0.09134
2686.000	3.27430	0.02185	3.34918	-0.10129
2687.000	3.23292	0.08342	3.38661	0.00000
2688.000	3.14620	0.07151	3.37676	0.04171
2689.000	3.16985	0.08144	3.30977	0.00993
2690.000	3.13240	0.06357	3.40040	0.01192
2691.000	3.15408	0.13309	3.29204	0.00794
2692.000	3.18365	0.13706	3.35509	0.07746
2693.000	3.16591	0.09137	3.46147	0.04369
2694.000	3.22109	0.09733	3.47526	0.02582
2695.000	3.29007	0.13506	3.56783	-0.01986
2696.000	3.35115	0.11122	3.61706	-0.01191
2697.000	3.37873	0.15093	3.56192	-0.03574
2698.000	3.44768	0.06156	3.69188	-0.05956
2699.000	3.52450	0.10723	3.74109	-0.11316
2700.000	3.59736	0.09133	3.79227	-0.12307
2701.000	3.62887	0.05758	3.80605	-0.21438
2702.000	3.72535	0.04368	3.92217	-0.07542
2703.000	3.76865	0.08933	3.95758	-0.11710
2704.000	3.83951	0.03573	3.93594	-0.15481
2705.000	3.93791	0.08534	3.96545	-0.06946
2706.000	3.96152	0.08336	4.14053	-0.08532
2707.000	4.05399	0.08335	4.12480	-0.13692
2708.000	4.07366	0.13097	4.11496	-0.13295
2709.000	4.16806	0.14286	4.15036	0.00198
2710.000	4.23295	0.15078	4.22312	-0.05158
2711.000	4.28604	0.14284	4.28604	-0.15276
2712.000	4.31553	0.18251	4.39612	-0.09918
2713.000	4.35484	0.19638	4.38236	-0.12894
2714.000	4.38432	0.20233	4.45900	-0.07537
2715.000	4.40398	0.21621	4.34305	-0.05753
2716.000	4.35287	0.14283	4.35681	-0.09323
2717.000	4.35681	0.12497	4.35681	-0.10117
2718.000	4.33322	0.15672	4.35681	-0.10712
2719.000	4.31159	0.15474	4.30176	-0.15871
2720.000	4.25851	0.14086	4.26048	-0.15871
2721.000	4.19559	0.08333	4.21919	-0.17261
2722.000	4.13463	0.07540	4.04612	-0.14884
2723.000	4.02644	0.03572	4.09726	-0.19843
2724.000	4.03431	0.08136	4.02448	-0.23616
2725.000	3.95365	0.03771	4.00480	-0.20640
2726.000	3.93004	0.05557	3.91036	-0.20840
2727.000	3.89265	0.01786	3.87691	-0.15085
2728.000	3.85919	0.09726	3.88675	-0.14886
2729.000	3.86313	0.07741	3.88478	-0.09924
2730.000	3.89462	0.03176	3.83558	-0.13895
2731.000	3.92610	0.08336	3.80408	-0.12903
2732.000	3.97923	0.14091	3.81393	-0.06948
2733.000	3.97529	0.10320	3.92020	-0.15481
2734.000	4.02644	0.13693	3.96545	-0.12106
2735.000	4.07562	0.15280	3.88871	-0.08733
2736.000	4.16413	0.14088	3.98710	-0.03771
2737.000	4.15233	0.14683	3.99693	-0.16869
2738.000	4.19363	0.16666	4.06579	-0.15082
2739.000	4.19559	0.11706	4.09136	-0.14486
2740.000	4.26638	0.13887	4.14250	-0.18453
2741.000	4.28604	0.13094	4.05595	-0.15677
2742.000	4.25655	0.12102	4.12676	-0.19843
2743.000	4.26834	0.10118	4.11693	-0.24407
2744.000	4.22312	0.15079	4.12283	-0.17660
2745.000	4.22312	0.19047	4.08152	-0.23614
2746.000	4.22116	0.11111	4.12086	-0.20240
2747.000	4.22312	0.15674	4.05792	-0.29568
2748.000	4.23689	0.11904	4.01661	-0.25997
2749.000	4.23295	0.10912	4.04415	-0.29172
2750.000	4.22312	0.13095	3.99497	-0.26792
2751.000	4.21722	0.10714	4.01858	-0.32348
2752.000	4.19559	0.13690	3.98513	-0.27785
2753.000	4.22312	0.11309	4.05792	-0.23813
2754.000	4.21132	0.14682	4.02448	-0.31554
2755.000	4.23492	0.08730	4.02448	-0.21631
2756.000	4.23099	0.13491	4.06382	-0.29568
2757.000	4.28014	0.09721	4.06185	-0.30163
2758.000	4.21722	0.06349	3.98316	-0.31555
2759.000	4.19953	0.07738	4.04808	-0.31156
2760.000	4.24278	0.11309	4.07366	-0.30758
2761.000	4.26048	0.05753	3.95168	-0.28580
2762.000	4.22902	0.10317	4.04415	-0.30561
2763.000	4.19166	0.11706	3.97136	-0.28579
2764.000	4.20936	0.10317	4.10316	-0.21828
2765.000	4.19756	0.07936	4.11103	-0.20042
2766.000	4.21526	0.04365	3.97923	-0.28777
2767.000	4.18183	0.09127	3.96742	-0.29571
2768.000	4.17396	0.10119	4.08939	-0.24804
2769.000	4.19756	0.09325	4.08546	-0.24209
2770.000	4.18969	0.07540	3.97726	-0.26396
2771.000	4.21329	0.08135	4.05202	-0.29171
2772.000	4.18576	0.07738	3.98316	-0.23419
2773.000	4.16610	0.07341	4.06382	-0.23416
2774.000	4.20739	0.16269	3.99890	-0.29769
2775.000	4.21722	0.08928	4.03235	-0.25600
2776.000	4.25458	0.11904	4.07366	-0.29369
2777.000	4.20346	0.05555	4.01071	-0.21036
2778.000	4.23295	0.12499	4.02841	-0.24806
2779.000	4.22902	0.17063	4.01464	-0.21830
2780.000	4.22705	0.12499	4.05399	-0.26592
2781.000	4.21132	0.08928	4.10119	-0.26590
2782.000	4.23492	0.14086	4.01267	-0.19449
2783.000	4.21329	0.07738	4.01464	-0.27387
2784.000	4.24475	0.12301	4.06579	-0.23019
2785.000	4.23295	0.10515	4.04808	-0.23615
2786.000	4.17986	0.05556	4.07956	-0.23019
2787.000	4.19363	0.04960	4.00087	-0.21037
2788.000	4.19363	0.04960	4.01071	-0.18456
2789.000	4.17789	0.07738	3.93791	-0.22031
2790.000	4.20346	0.07738	4.01267	-0.28974
2791.000	4.18576	0.06151	3.98316	-0.19648
2792.000	4.18576	0.03373	4.01464	-0.16075
2793.000	4.17986	0.05357	3.93791	-0.17466
2794.000	4.17789	0.09921	4.04021	-0.25203
2795.000	4.18576	0.08730	3.97923	-0.23220
2796.000	4.21919	0.09920	3.98906	-0.14686
2797.000	4.21132	0.12103	4.07759	-0.25797
2798.000	4.17593	0.03373	3.99890	-0.22823
2799.000	4.17986	0.00794	4.00480	-0.20838
2800.000	4.18379	0.05357	3.94381	-0.19847
2801.000	4.19559	0.07540	3.98906	-0.20640
2802.000	4.19756	0.07936	3.96152	-0.26595
2803.000	4.16610	0.04960	4.03235	-0.23219
2804.000	4.18576	0.04762	4.05399	-0.27385
2805.000	4.18969	0.04167	4.07759	-0.11906
2806.000	4.18379	0.03571	3.99497	-0.27586
2807.000	4.16806	0.02778	4.04808	-0.28179
2808.000	4.20542	0.00595	4.09136	-0.33139
2809.000	4.22312	0.05555	4.02448	-0.27585
2810.000	4.19559	0.04762	4.03431	-0.27981
2811.000	4.21132	0.06349	3.99497	-0.26990
2812.000	4.22312	0.10119	4.02644	-0.30760
2813.000	4.16806	0.10516	4.05202	-0.21234
2814.000	4.19559	0.07936	4.04218	-0.30759
2815.000	4.17789	0.10913	3.99890	-0.25998
2816.000	4.20936	0.12103	4.00874	-0.28776
2817.000	4.20149	0.06944	3.97726	-0.27785
2818.000	4.18773	0.09921	3.95365	-0.20839
2819.000	4.19756	0.08730	4.01464	-0.23219
2820.000	4.22705	0.08134	3.96349	-0.34731
2821.000	4.21526	0.04365	4.03628	-0.33736
2822.000	4.19756	0.05754	4.05399	-0.31156
2823.000	4.19363	0.08730	4.03628	-0.30759
2824.000	4.24082	0.05555	4.02644	-0.31355
2825.000	4.18773	0.05159	4.03825	-0.28378
2826.000	4.17396	0.04960	4.11496	-0.18454
2827.000	4.19166	0.04960	4.00677	-0.22822
2828.000	4.17986	0.03968	3.99693	-0.29570
2829.000	4.20346	0.06547	4.07366	-0.31353
2830.000	4.17593	0.05556	4.05595	-0.30957
2831.000	4.20346	0.06547	3.99890	-0.24410
2832.000	4.18379	0.02183	4.03431	-0.35324
2833.000	4.17003	0.02579	4.10316	-0.30360
2834.000	4.15823	0.01786	3.97923	-0.25403
2835.000	4.19166	0.01190	4.01464	-0.30363
2836.000	4.14053	0.02381	4.00087	-0.31158
2837.000	4.18379	0.00992	4.04415	-0.27187
2838.000	4.15823	0.04167	4.03431	-0.24012
2839.000	4.18379	0.08929	3.99103	-0.28578
2840.000	4.16216	0.05357	4.08546	-0.32544
2841.000	4.18773	0.00397	4.03038	-0.31752
2842.000	4.15036	0.00198	4.00874	-0.31951
2843.000	4.13266	0.03175	4.05202	-0.28774
2844.000	4.19756	0.04365	4.09923	-0.35123
2845.000	4.19756	0.05754	4.01267	-0.34531
2846.000	4.16610	0.01786	4.05792	-0.34727
2847.000	4.17199	0.04564	3.98710	-0.32547
2848.000	4.20149	0.04960	3.94184	-0.31557
2849.000	4.16806	0.00595	4.05005	-0.33140
2850.000	4.13660	0.05953	4.02251	-0.33935
2851.000	4.12676	-0.00198	3.99497	-0.36119
2852.000	4.14643	0.03572	4.07169	-0.28972
2853.000	4.11693	0.01191	4.00087	-0.33142
2854.000	4.14840	0.04564	4.05202	-0.34132
2855.000	4.13463	0.02183	4.11299	-0.31550
2856.000	4.15823	0.03770	4.03235	-0.30164
2857.000	4.15233	0.02579	4.01267	-0.39889
2858.000	4.15430	0.01191	4.04415	-0.34530
2859.000	4.10119	-0.02977	4.06579	-0.37307
2860.000	4.12086	0.00794	3.97333	-0.32945
2861.000	4.16020	-0.00992	4.08939	-0.28178
2862.000	4.13463	0.01587	4.02448	-0.27585
2863.000	4.15626	0.02183	4.00284	-0.35920
2864.000	4.15430	-0.01191	4.08546	-0.34131
2865.000	4.14446	-0.00198	4.08939	-0.31948
2866.000	4.11496	0.03770	4.06185	-0.31552
2867.000	4.12873	0.00000	3.95955	-0.36915
2868.000	4.14250	0.04167	4.00874	-0.44255
2869.000	4.16216	0.02381	4.06775	-0.29568
2870.000	4.12283	0.08532	4.08939	-0.40481
2871.000	4.08152	0.07144	4.00284	-0.30562
2872.000	4.12283	0.05754	4.06972	-0.34727
2873.000	4.14053	-0.00397	4.05989	-0.28973
2874.000	4.14840	0.00992	4.04808	-0.26790
2875.000	4.10119	0.07739	4.04612	-0.37308
2876.000	4.10906	0.03373	4.10709	-0.41075
2877.000	4.16806	0.05953	4.04218	-0.32744
2878.000	4.14250	0.03175	4.02841	-0.39491
2879.000	4.16020	0.02183	4.07169	-0.31949
2880.000	4.09726	0.00595	4.14840	-0.34327
2881.000	4.12480	0.04762	4.01267	-0.34928
2882.000	4.15430	0.03968	4.07366	-0.34330
2883.000	4.15823	0.00992	4.06972	-0.38299
2884.000	4.12480	0.00000	4.05989	-0.42466
2885.000	4.12676	0.02778	4.14446	-0.33930
2886.000	4.12676	0.03175	4.09726	-0.35916
2887.000	4.11889	0.02778	4.06972	-0.38894
2888.000	4.13856	0.00992	4.08152	-0.34528
2889.000	4.13463	0.08135	4.07759	-0.34528
2890.000	4.13463	-0.00397	4.02448	-0.30760
2891.000	4.09136	0.00595	4.07366	-0.31155
2892.000	4.12283	-0.00397	4.12676	-0.38693
2893.000	4.13266	0.04167	4.04218	-0.34927
2894.000	4.11299	0.03770	4.06579	-0.39291
2895.000	4.12086	0.03373	4.11299	-0.39289
2896.000	4.09529	0.04564	4.06579	-0.43260
2897.000	4.11103	0.04961	4.05989	-0.34330
2898.000	4.12873	0.04167	4.01858	-0.31356
2899.000	4.12283	0.03175	4.13463	-0.32343
2900.000	4.14643	0.04564	4.01464	-0.33935
2901.000	4.15430	0.02183	4.09726	-0.36115
2902.000	4.16610	0.01786	3.92217	-0.34535
2903.000	4.11299	0.01984	3.95168	-0.36915
2904.000	4.14053	0.03175	4.08349	-0.36314
2905.000	4.19166	0.09127	4.09333	-0.34527
2906.000	4.16020	0.01191	4.03628	-0.36316
2907.000	4.14446	0.03572	4.02448	-0.37110
2908.000	4.17199	0.06151	4.02448	-0.36713
2909.000	4.15626	0.02183	4.14446	-0.38295
2910.000	4.12086	0.06350	3.97529	-0.35922
2911.000	4.12676	0.06350	4.10119	-0.38893
2912.000	4.14053	0.02778	4.12676	-0.31748
2913.000	4.14053	0.04365	4.06972	-0.39291
2914.000	4.10513	0.01984	4.01661	-0.42270
2915.000	4.16020	0.02778	4.09529	-0.36909
2916.000	4.14053	0.03175	4.08742	-0.34925
2917.000	4.13856	0.06350	4.12873	-0.36709
2918.000	4.13266	0.03969	4.06972	-0.31949
2919.000	4.16610	0.06349	4.15430	-0.40477
2920.000	4.13070	0.05953	4.07562	-0.33338
2921.000	4.10513	0.04564	4.06775	-0.34529
2922.000	4.09136	0.02778	4.10119	-0.33733
2923.000	4.14250	0.06746	4.05202	-0.31950
2924.000	4.13856	0.05159	4.08939	-0.40679
2925.000	4.13266	0.04762	4.06382	-0.38894
2926.000	4.10709	0.03572	4.05989	-0.30163
2927.000	4.12283	0.08136	4.04415	-0.30362
2928.000	4.11889	0.05556	4.05792	-0.35720
2929.000	4.12873	0.09128	3.98710	-0.30761
2930.000	4.14053	0.05556	3.99103	-0.37310
2931.000	4.13660	0.08929	4.11103	-0.33733
2932.000	4.12283	0.02183	3.99693	-0.39493
2933.000	4.12480	0.05953	4.06972	-0.41077
2934.000	4.14840	0.07540	4.05989	-0.37109
2935.000	4.15233	0.07143	4.11889	-0.43852
2936.000	4.13070	0.02580	4.01858	-0.38500
2937.000	4.11103	0.05953	4.07169	-0.41474
2938.000	4.11889	0.04564	4.05595	-0.37109
2939.000	4.14840	0.09723	4.04808	-0.40681
2940.000	4.12480	0.05556	4.00087	-0.42073
2941.000	4.13660	0.08731	3.98513	-0.30960
2942.000	4.11889	0.05556	4.03825	-0.37903
2943.000	4.10906	0.05953	4.01071	-0.43064
2944.000	4.14643	0.08929	4.06972	-0.39092
2945.000	4.15430	0.09723	4.02251	-0.41079
2946.000	4.16020	0.09326	4.04808	-0.32743
2947.000	4.13856	0.11509	4.09923	-0.31749
2948.000	4.13266	0.05754	4.06972	-0.32743
2949.000	4.16216	0.11111	4.08939	-0.39290
2950.000	4.14053	0.06746	4.14643	-0.40279
2951.000	4.14840	0.08929	4.06579	-0.45442
2952.000	4.12873	0.10318	4.05792	-0.37704
2953.000	4.13463	0.09921	4.12086	-0.44249
2954.000	4.16020	0.12699	4.07562	-0.37902
2955.000	4.14446	0.10120	4.00480	-0.35127
2956.000	4.13463	0.06350	4.08349	-0.40679
2957.000	4.14250	0.08532	4.10513	-0.35321
2958.000	4.15430	0.07937	4.03825	-0.37903
2959.000	4.18773	0.08532	4.05202	-0.37903
2960.000	4.14250	0.06350	4.01071	-0.33142
2961.000	4.15430	0.10119	4.07562	-0.35719
2962.000	4.15430	0.08929	4.01464	-0.34928
2963.000	4.15233	0.07937	4.01661	-0.39293
2964.000	4.13856	0.08334	4.01267	-0.39095
2965.000	4.10119	0.07342	4.02841	-0.36316
2966.000	4.12676	0.08731	4.08742	-0.29170
2967.000	4.14250	0.12302	4.01661	-0.37507
2968.000	4.12480	0.11310	4.06382	-0.35521
2969.000	4.15036	0.12104	3.99890	-0.36714
2970.000	4.14643	0.09921	3.96742	-0.35922
2971.000	4.11889	0.13096	4.03825	-0.31553
2972.000	4.13856	0.12898	4.02251	-0.37706
2973.000	4.14446	0.13691	4.04415	-0.37903
2974.000	4.12676	0.14485	4.04612	-0.36315
2975.000	4.14840	0.09326	4.05595	-0.34132
2976.000	4.15823	0.08730	3.99300	-0.33738
2977.000	4.12676	0.12699	4.03628	-0.34927
2978.000	4.18183	0.11508	4.02644	-0.44849
2979.000	4.16216	0.13096	3.95168	-0.34732
2980.000	4.17986	0.10714	4.04612	-0.38895
2981.000	4.17003	0.08730	3.99693	-0.41477
2982.000	4.16413	0.11310	4.02054	-0.41675
2983.000	4.16020	0.10318	4.06972	-0.38497
2984.000	4.19559	0.13095	4.01267	-0.34928
2985.000	4.12873	0.09723	3.98513	-0.35127
2986.000	4.15430	0.07540	4.02841	-0.41674
2987.000	4.13070	0.06548	4.04808	-0.35323
2988.000	4.15626	0.06945	4.03825	-0.34927
2989.000	4.15430	0.09524	4.02841	-0.36713
2990.000	4.14053	0.08929	4.01464	-0.38301
2991.000	4.10709	0.09326	4.05202	-0.35521
2992.000	4.12283	0.13096	4.05399	-0.38696
2993.000	4.11103	0.07540	4.02054	-0.42072
2994.000	4.13266	0.10913	4.00284	-0.37508
2995.000	4.13463	0.15676	4.07562	-0.33536
2996.000	4.13070	0.11707	4.05399	-0.33934
2997.000	4.09726	0.09128	4.03628	-0.40880
2998.000	4.12283	0.09921	3.99103	-0.39493
2999.000	4.16413	0.12500	4.05005	-0.43856
3000.000	4.19166	0.13889	4.02054	-0.31355
3001.000	4.17199	0.10913	4.01071	-0.42469
3002.000	4.16806	0.11707	4.10316	-0.41075
3003.000	4.15036	0.09524	4.04808	-0.42467
3004.000	4.14250	0.11905	4.05792	-0.44451
3005.000	4.14250	0.06151	4.08546	-0.39489
3006.000	4.18379	0.08730	4.04612	-0.36911
3007.000	4.14840	0.09524	4.06775	-0.43657
3008.000	4.13463	0.09921	3.98316	-0.35326
3009.000	4.14643	0.07342	4.04808	-0.43062
3010.000	4.17199	0.05754	4.11496	-0.40479
3011.000	4.11889	0.10517	4.03038	-0.44849
3012.000	4.18969	0.12698	4.05595	-0.38498
3013.000	4.12480	0.06747	4.03038	-0.45643
3014.000	4.16413	0.07143	4.05005	-0.41673
3015.000	4.15430	0.06945	4.10513	-0.37107
3016.000	4.10513	0.11112	4.00677	-0.38103
3017.000	4.14250	0.09921	4.01071	-0.40088
3018.000	4.13266	0.12501	4.04415	-0.35522
3019.000	4.09726	0.09326	4.07562	-0.38100
3020.000	4.12283	0.09128	4.05202	-0.35521
3021.000	4.11496	0.14485	4.05792	-0.37307
3022.000	4.12676	0.04167	4.08152	-0.32544
3023.000	4.12283	0.10914	3.96742	-0.41876
3024.000	4.09529	0.05159	4.03628	-0.44055
3025.000	4.11693	0.08929	4.05005	-0.37109
3026.000	4.09136	0.10319	4.07956	-0.41473
3027.000	4.12873	0.10120	4.11103	-0.38297
3028.000	4.10906	0.02976	4.02644	-0.34729
3029.000	4.10906	0.08533	4.08546	-0.38893
3030.000	4.11496	0.05754	4.11496	-0.44051
3031.000	4.09726	0.03969	4.02054	-0.40484
3032.000	4.14053	0.07540	4.15036	-0.38692
3033.000	4.10906	0.06945	4.06382	-0.46633
3034.000	4.09333	0.06152	4.05989	-0.39291
3035.000	4.13070	0.07143	4.07169	-0.45641
3036.000	4.11496	0.05358	4.05595	-0.40085
3037.000	4.15626	0.08532	4.08546	-0.41076
3038.000	4.11889	0.02580	4.00480	-0.33341
3039.000	4.12086	0.04762	4.11496	-0.40876
3040.000	4.13463	0.04762	4.10119	-0.40678
3041.000	4.11693	0.07342	4.00480	-0.42072
3042.000	4.16216	0.10119	4.06972	-0.37505
3043.000	4.13070	0.08135	4.06972	-0.30361
3044.000	4.12676	0.06350	4.07759	-0.34925
3045.000	4.13266	0.08731	4.03038	-0.37308
3046.000	4.14643	0.04564	4.05792	-0.33537
3047.000	4.11693	0.08532	4.05989	-0.30759
3048.000	4.14840	0.06945	4.07759	-0.35917
3049.000	4.16413	0.08929	4.06382	-0.38696
3050.000	4.14053	0.09723	4.02841	-0.30561
3051.000	4.17593	0.06151	4.04415	-0.39292
3052.000	4.13660	0.11509	4.09726	-0.35718
3053.000	4.12480	0.10715	4.02448	-0.31951
3054.000	4.13856	0.11509	4.06972	-0.38894
3055.000	4.14840	0.10913	4.02644	-0.37110
3056.000	4.16806	0.11310	4.06382	-0.35918
3057.000	4.13856	0.10318	4.03235	-0.36911
3058.000	4.14446	0.10120	4.08939	-0.37306
3059.000	4.13463	0.11509	4.00087	-0.38302
3060.000	4.14840	0.07937	4.05989	-0.36315
3061.000	4.17003	0.11508	4.07366	-0.38497
3062.000	4.12676	0.01786	4.07562	-0.34330
3063.000	4.08546	0.08533	4.05595	-0.33934
3064.000	4.14840	0.10516	4.03235	-0.34729
3065.000	4.10316	0.06350	4.05989	-0.38101
3066.000	4.17789	0.06151	4.06185	-0.33934
3067.000	4.12480	0.09128	4.07169	-0.39688
3068.000	4.12676	0.04564	4.08152	-0.41473
3069.000	4.14643	0.05754	4.07759	-0.40481
3070.000	4.09726	0.04366	4.12873	-0.31946
3071.000	4.16216	0.06746	4.00677	-0.32944
3072.000	4.11693	0.10120	4.04612	-0.39094
3073.000	4.15036	0.09921	4.08349	-0.38695
3074.000	4.13070	0.03770	4.05989	-0.38498
3075.000	4.13266	0.10517	4.06382	-0.41672
3076.000	4.15036	0.07342	4.05595	-0.42665
3077.000	4.12283	0.08929	4.08939	-0.32345
3078.000	4.13266	0.07937	4.06579	-0.37307
3079.000	4.14643	0.07738	4.09333	-0.39091
3080.000	4.17003	0.07937	4.02644	-0.38102
3081.000	4.15823	0.09127	4.10513	-0.39686
3082.000	4.15430	0.08135	4.10119	-0.36115
3083.000	4.16610	0.06945	4.15233	-0.39684
3084.000	4.13070	0.07937	4.06579	-0.38894
3085.000	4.14446	0.07739	4.10316	-0.43258
3086.000	4.12283	0.04167	4.06579	-0.44450
3087.000	4.11103	0.03969	4.10709	-0.42265
3088.000	4.16806	0.05953	4.07169	-0.37902
3089.000	4.14643	0.06151	4.10709	-0.39289
3090.000	4.12086	0.08532	4.10906	-0.41273
3091.000	4.17789	0.10119	4.11693	-0.34130
3092.000	4.14643	0.10715	4.10119	-0.36908
3093.000	4.11889	0.08532	4.09136	-0.40877
3094.000	4.12873	0.08334	4.12873	-0.41669
3095.000	4.15823	0.03968	4.08939	-0.41076
3096.000	4.11299	0.08136	4.10906	-0.40876
3097.000	4.10316	0.03175	4.04612	-0.37308
3098.000	4.14250	0.05953	4.14446	-0.42263
3099.000	4.13463	0.10318	4.05989	-0.42863
3100.000	4.12873	0.08731	4.10119	-0.42266
3101.000	4.07562	0.07541	4.06382	-0.46038
3102.000	4.14643	0.09326	4.09333	-0.46830
3103.000	4.14643	0.04762	4.08546	-0.44052
3104.000	4.14643	0.03572	4.10316	-0.45044
3105.000	4.11103	0.05556	4.04218	-0.42864
3106.000	4.14250	0.09326	4.08152	-0.49013
3107.000	4.20542	0.11111	4.10513	-0.42861
3108.000	4.15430	0.09524	4.07562	-0.49609
3109.000	4.14053	0.04365	4.09136	-0.51394
3110.000	4.14250	0.11112	4.07956	-0.48617
3111.000	4.13070	0.04564	4.05202	-0.46832
3112.000	4.12283	0.11112	4.09333	-0.48616
3113.000	4.14250	0.09127	4.05989	-0.45840
3114.000	4.14840	0.02778	4.05792	-0.51197
3115.000	4.13070	0.06548	4.10709	-0.50202
3116.000	4.15233	0.07342	4.11496	-0.46630
3117.000	4.09529	0.07541	4.12676	-0.54963
3118.000	4.14250	0.09326	4.11299	-0.44051
3119.000	4.17199	0.09921	4.12283	-0.53177
3120.000	4.14643	0.09127	4.05989	-0.44252
3121.000	4.16610	0.11508	4.03825	-0.43063
3122.000	4.13070	0.08731	4.10709	-0.53774
3123.000	4.09726	0.03770	4.01464	-0.47231
3124.000	4.10709	0.01984	4.15823	-0.51389
3125.000	4.15036	0.08731	4.01267	-0.48224
3126.000	4.15233	0.07540	4.06775	-0.46633
3127.000	4.15233	0.11707	4.11103	-0.49805
3128.000	4.11496	0.07937	4.10906	-0.48813
3129.000	4.11496	0.04564	4.14840	-0.41866
3130.000	4.17199	0.05952	4.13266	-0.48216
3131.000	4.13856	0.07937	4.07956	-0.49807
3132.000	4.17199	0.04762	4.13070	-0.41669
3133.000	4.12283	0.03572	4.08349	-0.44053
3134.000	4.17199	0.06151	4.17789	-0.55158
3135.000	4.15036	0.12302	4.16020	-0.48413
3136.000	4.12676	0.04961	4.13070	-0.54764
3137.000	4.13463	0.04564	4.16610	-0.47024
3138.000	4.17199	0.12302	4.15626	-0.54762
3139.000	4.11299	0.04365	4.15036	-0.38295
3140.000	4.20346	0.09722	4.18773	-0.42658
3141.000	4.16413	0.06349	4.07169	-0.50006
3142.000	4.15626	0.09524	4.12283	-0.43257
3143.000	4.22312	0.11507	4.11889	-0.51987
3144.000	4.16413	0.03770	4.13266	-0.51788
3145.000	4.09136	0.03572	4.15233	-0.46826
3146.000	4.19953	0.09325	4.16216	-0.50794
3147.000	4.17593	0.02381	4.12283	-0.50003
3148.000	4.16806	0.03373	4.18183	-0.44245
3149.000	4.15823	0.00198	4.10906	-0.50004
3150.000	4.21722	0.08531	4.08939	-0.45640
3151.000	4.15430	0.02381	4.17199	-0.48016
3152.000	4.17003	0.03572	4.13266	-0.47820
3153.000	4.14840	0.06350	4.11693	-0.52979
3154.000	4.18773	0.13492	4.19166	-0.46427
3155.000	4.18773	0.11111	4.16806	-0.51786
3156.000	4.12873	0.00992	4.09136	-0.43655
3157.000	4.15036	0.01786	4.17789	-0.48809
3158.000	4.17396	0.07937	4.09726	-0.50203
3159.000	4.22312	0.09523	4.13463	-0.51589
3160.000	4.18379	0.05952	4.06972	-0.51197
3161.000	4.22902	0.08730	4.11693	-0.43455
3162.000	4.17003	0.04365	4.14643	-0.52977
3163.000	4.17003	0.01786	4.19559	-0.50792
3164.000	4.21722	0.01587	4.15626	-0.43056
3165.000	4.22705	0.08531	4.19363	-0.50792
3166.000	4.14446	0.02778	4.12873	-0.45439
3167.000	4.16020	0.00794	4.17003	-0.48413
3168.000	4.17003	0.00992	4.07759	-0.50402
3169.000	4.16806	0.04762	4.21132	-0.52179
3170.000	4.14446	-0.00198	4.16216	-0.47619
3171.000	4.08546	0.01191	4.05595	-0.46634
3172.000	4.04612	-0.00992	4.05792	-0.53380
3173.000	3.95562	0.00397	3.98710	-0.46836
3174.000	3.81983	-0.02779	3.87494	-0.46445
3175.000	3.67022	0.02978	3.78637	-0.42282
3176.000	3.47526	0.05759	3.53828	-0.34351
3177.000	3.25460	0.03972	3.35706	-0.49451
3178.000	2.93723	0.08543	3.09298	-0.51847
3179.000	2.59403	0.01789	2.73804	-0.44710
3180.000	2.19735	-0.04175	2.51511	-0.48097
3181.000	1.87748	-0.02983	2.16379	-0.57054
3182.000	1.55552	-0.07756	1.91105	-0.55075
3183.000	1.25322	-0.06762	1.61083	-0.51306
3184.000	1.02793	-0.04774	1.36387	-0.57079
3185.000	0.73738	-0.12333	1.17813	-0.56685
3186.000	0.54564	-0.12533	1.02595	-0.56688
3187.000	0.36574	-0.15119	0.92516	-0.51717
3188.000	0.30248	-0.17706	0.86784	-0.49928
3189.000	0.34004	-0.23276	0.88760	-0.52116
3190.000	0.34597	-0.23276	0.91923	-0.45153
3191.000	0.46261	-0.29244	1.02595	-0.48334
3192.000	0.59901	-0.23673	0.98643	-0.48136
3193.000	0.68401	-0.24070	1.10698	-0.44952
3194.000	0.88760	-0.20688	1.29669	-0.47932
3195.000	0.97457	-0.18897	1.33621	-0.41169
3196.000	1.15441	-0.21680	1.46662	-0.41366
3197.000	1.20777	-0.22476	1.54564	-0.48921
3198.000	1.28879	-0.15911	1.48440	-0.51110
3199.000	1.32436	-0.17900	1.49428	-0.55087
3200.000	1.38363	-0.19888	1.60688	-0.59856
3201.000	1.40142	-0.15911	1.52786	-0.58268
3202.000	1.40142	-0.18496	1.59305	-0.63834
3203.000	1.44291	-0.15115	1.58515	-0.60453
3204.000	1.42315	-0.17303	1.62071	-0.67213
3205.000	1.45476	-0.16109	1.59108	-0.64231
3206.000	1.40932	-0.15712	1.62664	-0.54885
3207.000	1.44686	-0.19490	1.53774	-0.56876
3208.000	1.46266	-0.14518	1.62269	-0.57072
3209.000	1.42710	-0.15314	1.64639	-0.66417
3210.000	1.50218	-0.09347	1.64244	-0.61645
3211.000	1.45674	-0.14717	1.59305	-0.60453
3212.000	1.48440	-0.11933	1.57923	-0.58863
3213.000	1.43896	-0.14518	1.55354	-0.58466
3214.000	1.43896	-0.16308	1.53576	-0.56677
3215.000	1.42117	-0.14717	1.52589	-0.59660
3216.000	1.34807	-0.11734	1.47057	-0.56678
3217.000	1.29669	-0.16309	1.51008	-0.59064
3218.000	1.27891	-0.12729	1.45081	-0.64633
3219.000	1.23741	-0.17503	1.40734	-0.60856
3220.000	1.18998	-0.17702	1.36980	-0.61851
3221.000	1.14058	-0.21283	1.33424	-0.64835
3222.000	1.09513	-0.19891	1.35004	-0.60261
3223.000	1.09513	-0.19891	1.28681	-0.59268
3224.000	1.06351	-0.24665	1.26705	-0.54297
3225.000	1.06548	-0.25460	1.27100	-0.57479
3226.000	1.01014	-0.21284	1.24729	-0.55490
3227.000	1.05955	-0.21482	1.27100	-0.58672
3228.000	1.02595	-0.18499	1.23346	-0.59866
3229.000	1.02991	-0.20090	1.32040	-0.61455
3230.000	0.99829	-0.17902	1.20579	-0.61855
3231.000	1.01212	-0.19294	1.23148	-0.57678
3232.000	0.96864	-0.20687	1.32040	-0.62052
3233.000	1.00224	-0.20488	1.27891	-0.62053
3234.000	1.03584	-0.17703	1.28879	-0.60859
3235.000	1.05758	-0.21681	1.30262	-0.61853
3236.000	1.03781	-0.19692	1.22555	-0.55690
3237.000	1.07536	-0.19095	1.23939	-0.61656
3238.000	1.08327	-0.17504	1.31052	-0.62450
3239.000	1.05955	-0.15316	1.32633	-0.55688
3240.000	1.07339	-0.16907	1.25717	-0.61854
3241.000	1.04177	-0.15515	1.31645	-0.58671
3242.000	1.11094	-0.19095	1.30855	-0.63842
3243.000	1.05955	-0.24267	1.29472	-0.60660
3244.000	1.07734	-0.13526	1.27693	-0.64041
3245.000	1.10896	-0.20288	1.30855	-0.62052
3246.000	1.10896	-0.19692	1.28088	-0.60859
3247.000	1.09710	-0.19095	1.23544	-0.59667
3248.000	1.13070	-0.19890	1.29076	-0.63245
3249.000	1.13860	-0.24664	1.34412	-0.60062
3250.000	1.12279	-0.21084	1.28879	-0.59666
3251.000	1.09710	-0.25460	1.31448	-0.60063
3252.000	1.12675	-0.21879	1.26508	-0.59070
3253.000	1.14256	-0.19890	1.34807	-0.61056
3254.000	1.09513	-0.22675	1.30064	-0.61455
3255.000	1.12872	-0.21482	1.37771	-0.61851
3256.000	1.10896	-0.19891	1.26112	-0.58274
3257.000	1.15046	-0.21879	1.32436	-0.56881
3258.000	1.10896	-0.23073	1.37573	-0.66624
3259.000	1.15046	-0.24465	1.26112	-0.58274
3260.000	1.11687	-0.20686	1.30657	-0.65234
3261.000	1.11687	-0.21681	1.29076	-0.63047
3262.000	1.15639	-0.18498	1.25915	-0.62451
3263.000	1.14256	-0.19691	1.31250	-0.60859
3264.000	1.13465	-0.18498	1.27100	-0.60263
3265.000	1.10303	-0.21283	1.39944	-0.66822
3266.000	1.09315	-0.20487	1.32238	-0.62449
3267.000	1.09315	-0.16708	1.33819	-0.64040
3268.000	1.09117	-0.21880	1.36783	-0.56482
3269.000	1.08920	-0.20090	1.32633	-0.62051
3270.000	1.06943	-0.21084	1.32633	-0.66029
3271.000	1.08920	-0.21084	1.31843	-0.60659
3272.000	1.12872	-0.21482	1.30460	-0.67222
3273.000	1.05955	-0.19294	1.32831	-0.64438
3274.000	1.07932	-0.24664	1.30460	-0.70404
3275.000	1.14256	-0.19691	1.30262	-0.63245
3276.000	1.11489	-0.21084	1.27693	-0.69013
3277.000	1.12082	-0.19095	1.35004	-0.67022
3278.000	1.12279	-0.19890	1.32040	-0.64438
3279.000	1.13465	-0.18100	1.37968	-0.65828
3280.000	1.12279	-0.20686	1.36783	-0.62448
3281.000	1.10698	-0.24863	1.36585	-0.68812
3282.000	1.09710	-0.21880	1.32238	-0.65432
3283.000	1.10698	-0.27449	1.30460	-0.63444
3284.000	1.11687	-0.21283	1.27298	-0.69013
3285.000	1.12279	-0.22277	1.38956	-0.67220
3286.000	1.13663	-0.23471	1.37178	-0.62647
3287.000	1.09908	-0.27051	1.36585	-0.69408
3288.000	1.08920	-0.25659	1.38363	-0.69010
3289.000	1.10303	-0.25062	1.33226	-0.67023
3290.000	1.10896	-0.25460	1.36783	-0.75772
3291.000	1.13465	-0.23073	1.33819	-0.71994
3292.000	1.10896	-0.24465	1.36980	-0.72988
3293.000	1.12279	-0.21283	1.30064	-0.71796
3294.000	1.10303	-0.21482	1.31448	-0.67222
3295.000	1.09315	-0.26653	1.28879	-0.71598
3296.000	1.13860	-0.24863	1.27693	-0.65632
3297.000	1.08524	-0.22675	1.31250	-0.68415
3298.000	1.10501	-0.25460	1.37573	-0.74976
3299.000	1.09908	-0.26852	1.33819	-0.70602
3300.000	1.12675	-0.23272	1.33226	-0.70205
3301.000	1.11489	-0.25858	1.38363	-0.68811
3302.000	1.16034	-0.24863	1.35992	-0.68613
3303.000	1.07339	-0.27449	1.38363	-0.66027
3304.000	1.13663	-0.24067	1.32436	-0.66029
3305.000	1.12477	-0.28841	1.36585	-0.72988
3306.000	1.11687	-0.27051	1.37178	-0.76567
3307.000	1.13268	-0.26454	1.36387	-0.71198
3308.000	1.14058	-0.23272	1.37573	-0.66226
3309.000	1.12675	-0.30233	1.33226	-0.65034
3310.000	1.12477	-0.28045	1.36980	-0.65431
3311.000	1.09117	-0.28444	1.41327	-0.66424
3312.000	1.14453	-0.21680	1.28088	-0.68814
3313.000	1.16429	-0.24465	1.38363	-0.74180
3314.000	1.08327	-0.22874	1.37573	-0.71595
3315.000	1.13070	-0.21283	1.36980	-0.72988
3316.000	1.13465	-0.24067	1.37375	-0.69010
3317.000	1.11884	-0.24465	1.30657	-0.73586
3318.000	1.09908	-0.25858	1.35399	-0.71198
3319.000	1.12082	-0.27051	1.38363	-0.66226
3320.000	1.12477	-0.27051	1.29274	-0.65433
3321.000	1.07536	-0.25659	1.34016	-0.70006
3322.000	1.12279	-0.26653	1.37771	-0.63641
3323.000	1.11489	-0.30432	1.32238	-0.69211
3324.000	1.12082	-0.26852	1.30657	-0.68614
3325.000	1.15441	-0.26852	1.34214	-0.63443
3326.000	1.10501	-0.26057	1.32831	-0.62250
3327.000	1.13663	-0.25261	1.35399	-0.64636
3328.000	1.12872	-0.25261	1.33621	-0.64835
3329.000	1.11884	-0.26255	1.35992	-0.67221
3330.000	1.08524	-0.30433	1.31843	-0.67023
3331.000	1.16232	-0.29636	1.32633	-0.71000
3332.000	1.12477	-0.27250	1.34412	-0.63841
3333.000	1.11291	-0.29836	1.33819	-0.64437
3334.000	1.10501	-0.30631	1.34016	-0.69011
3335.000	1.13465	-0.29835	1.39746	-0.76168
3336.000	1.08722	-0.23272	1.41327	-0.71992
3337.000	1.10896	-0.27051	1.31843	-0.70006
3338.000	1.13268	-0.27449	1.28286	-0.72195
3339.000	1.12082	-0.28045	1.38561	-0.66226
3340.000	1.12477	-0.26255	1.34807	-0.65432
3341.000	1.12872	-0.26454	1.31052	-0.73785
3342.000	1.10303	-0.31626	1.32040	-0.72790
3343.000	1.10501	-0.30432	1.30855	-0.70006
3344.000	1.16232	-0.24067	1.36387	-0.71993
3345.000	1.12872	-0.28045	1.36387	-0.69408
3346.000	1.10106	-0.28642	1.35795	-0.72192
3347.000	1.12279	-0.31029	1.36387	-0.71993
3348.000	1.12675	-0.30631	1.38166	-0.71595
3349.000	1.11291	-0.28046	1.38363	-0.70203
3350.000	1.13860	-0.30432	1.35004	-0.73187
3351.000	1.12872	-0.30830	1.33424	-0.72392
3352.000	1.10896	-0.30631	1.42710	-0.71594
3353.000	1.11687	-0.31825	1.38561	-0.76964
3354.000	1.12872	-0.27449	1.32633	-0.66426
3355.000	1.12477	-0.29239	1.38956	-0.66822
3356.000	1.10698	-0.32223	1.34807	-0.71795
3357.000	1.09513	-0.27847	1.38561	-0.74379
3358.000	1.10501	-0.30631	1.36783	-0.73584
3359.000	1.15837	-0.27448	1.30064	-0.71796
3360.000	1.11489	-0.31626	1.45674	-0.65627
3361.000	1.09315	-0.31029	1.42117	-0.68015
3362.000	1.10698	-0.29438	1.40734	-0.68413
3363.000	1.14058	-0.30034	1.34609	-0.73187
3364.000	1.11687	-0.28443	1.36585	-0.71596
3365.000	1.12082	-0.30034	1.34412	-0.74977
3366.000	1.14848	-0.31625	1.35004	-0.73982
3367.000	1.11687	-0.25062	1.39351	-0.74379
3368.000	1.14651	-0.35802	1.38561	-0.80146
3369.000	1.14256	-0.30631	1.40142	-0.78952
3370.000	1.12477	-0.34012	1.37771	-0.78754
3371.000	1.13070	-0.29835	1.38363	-0.75174
3372.000	1.14256	-0.29636	1.38166	-0.74180
3373.000	1.15046	-0.33415	1.46464	-0.73979
3374.000	1.12872	-0.34410	1.33819	-0.75574
3375.000	1.08524	-0.32819	1.36585	-0.67618
3376.000	1.16429	-0.32620	1.33424	-0.74182
3377.000	1.16825	-0.32023	1.36783	-0.74777
3378.000	1.12872	-0.32023	1.47254	-0.77757
3379.000	1.10501	-0.33615	1.40339	-0.73782
3380.000	1.13860	-0.31029	1.37573	-0.70999
3381.000	1.11687	-0.29239	1.46069	-0.70201
3382.000	1.15441	-0.30233	1.36980	-0.74379
3383.000	1.13860	-0.30233	1.40734	-0.75571
3384.000	1.16825	-0.29039	1.40142	-0.69407
3385.000	1.10698	-0.32223	1.42908	-0.75968
3386.000	1.12477	-0.34808	1.44488	-0.72786
3387.000	1.14651	-0.29636	1.36980	-0.72988
3388.000	1.11884	-0.30233	1.52984	-0.73579
3389.000	1.14453	-0.32222	1.36387	-0.73982
3390.000	1.14651	-0.30432	1.40734	-0.69606
3391.000	1.12872	-0.29835	1.44686	-0.72985
3392.000	1.11687	-0.34808	1.40932	-0.69805
3393.000	1.16232	-0.34410	1.35004	-0.66426
3394.000	1.12279	-0.33416	1.36585	-0.76169
3395.000	1.11489	-0.32222	1.37375	-0.74976
3396.000	1.15639	-0.31029	1.36387	-0.72789
3397.000	1.15639	-0.37990	1.40142	-0.71396
3398.000	1.12082	-0.35405	1.42513	-0.71196
3399.000	1.08920	-0.36400	1.50020	-0.71194
3400.000	1.09513	-0.36797	1.39549	-0.75771
3401.000	1.11884	-0.36996	1.41525	-0.77758
3402.000	1.15837	-0.34808	1.42117	-0.77957
3403.000	1.14453	-0.36598	1.45279	-0.74576
3404.000	1.15046	-0.36797	1.35992	-0.76368
3405.000	1.14453	-0.37393	1.40339	-0.74975
3406.000	1.13465	-0.37990	1.41525	-0.77361
3407.000	1.11884	-0.35604	1.42315	-0.76565
3408.000	1.14651	-0.35802	1.36387	-0.70601
3409.000	1.09117	-0.37195	1.42315	-0.79747
3410.000	1.14256	-0.35603	1.36980	-0.67420
3411.000	1.14058	-0.35007	1.47057	-0.72785
3412.000	1.13860	-0.38189	1.36190	-0.78953
3413.000	1.14453	-0.35007	1.42710	-0.79945
3414.000	1.12477	-0.35405	1.36387	-0.75573
3415.000	1.16627	-0.34808	1.43500	-0.77758
3416.000	1.15837	-0.33415	1.38956	-0.71595
3417.000	1.14453	-0.33415	1.44488	-0.77161
3418.000	1.15441	-0.36598	1.43500	-0.73184
3419.000	1.12279	-0.32819	1.44883	-0.81138
3420.000	1.14453	-0.38786	1.41722	-0.70202
3421.000	1.14848	-0.40576	1.49428	-0.78949
3422.000	1.11291	-0.36200	1.42908	-0.73383
3423.000	1.11884	-0.36200	1.42513	-0.75770
3424.000	1.14848	-0.39979	1.49823	-0.75767
3425.000	1.15441	-0.32023	1.40339	-0.72788
3426.000	1.14848	-0.38985	1.47254	-0.76563
3427.000	1.18208	-0.37990	1.41722	-0.73384
3428.000	1.13663	-0.37791	1.42117	-0.75372
3429.000	1.15244	-0.38587	1.44883	-0.71394
3430.000	1.16429	-0.35205	1.43896	-0.85512
3431.000	1.19987	-0.38188	1.40932	-0.75770
3432.000	1.20184	-0.32023	1.38956	-0.78952
3433.000	1.14848	-0.32421	1.40734	-0.65828
3434.000	1.17813	-0.36796	1.48637	-0.72387
3435.000	1.18603	-0.34012	1.47057	-0.74575
3436.000	1.18603	-0.34012	1.42117	-0.79150
3437.000	1.19196	-0.34807	1.44291	-0.70798
3438.000	1.18998	-0.29238	1.46464	-0.74973
3439.000	1.17220	-0.33017	1.39351	-0.69805
3440.000	1.15837	-0.31625	1.43303	-0.69804
3441.000	1.17220	-0.37791	1.44488	-0.78155
3442.000	1.16232	-0.32023	1.50613	-0.78153
3443.000	1.16825	-0.38586	1.52193	-0.73181
3444.000	1.16232	-0.34609	1.44488	-0.75968
3445.000	1.21172	-0.35006	1.47254	-0.74973
3446.000	1.16627	-0.38189	1.46859	-0.76961
3447.000	1.14256	-0.37592	1.46266	-0.78751
3448.000	1.14256	-0.40576	1.46069	-0.74178
3449.000	1.14651	-0.38388	1.44488	-0.73979
3450.000	1.17220	-0.40973	1.45674	-0.73184
3451.000	1.17220	-0.38586	1.46464	-0.70797
3452.000	1.19987	-0.35603	1.46266	-0.75371
3453.000	1.14453	-0.37592	1.38561	-0.72192
3454.000	1.18801	-0.40575	1.43698	-0.77957
3455.000	1.21765	-0.37392	1.37573	-0.75175
3456.000	1.17813	-0.39581	1.42513	-0.79349
3457.000	1.17615	-0.38387	1.46859	-0.75967
3458.000	1.19196	-0.34608	1.43698	-0.73383
3459.000	1.17418	-0.38785	1.43303	-0.76167
3460.000	1.22160	-0.38188	1.45476	-0.82132
3461.000	1.15441	-0.38984	1.44291	-0.74377
3462.000	1.21567	-0.38188	1.48637	-0.75569
3463.000	1.16627	-0.37194	1.48242	-0.66820
3464.000	1.16429	-0.41968	1.51798	-0.80737
3465.000	1.17022	-0.42167	1.48440	-0.73382
3466.000	1.19987	-0.37989	1.51206	-0.75170
3467.000	1.18603	-0.37393	1.51601	-0.73579
3468.000	1.17813	-0.40774	1.47649	-0.76563
3469.000	1.17418	-0.37592	1.52589	-0.81731
3470.000	1.16429	-0.40178	1.47847	-0.68212
3471.000	1.16825	-0.37194	1.49428	-0.71393
3472.000	1.19987	-0.40575	1.43303	-0.75571
3473.000	1.19196	-0.39382	1.44686	-0.78155
3474.000	1.19196	-0.40774	1.41920	-0.71793
3475.000	1.21172	-0.37790	1.44883	-0.77161
3476.000	1.19196	-0.36995	1.45476	-0.83921
3477.000	1.19987	-0.40973	1.47254	-0.75768
3478.000	1.18801	-0.41371	1.40142	-0.81338
3479.000	1.17220	-0.38785	1.41920	-0.79150
3480.000	1.18406	-0.40575	1.41525	-0.78156
3481.000	1.21172	-0.38984	1.40142	-0.75572
3482.000	1.21567	-0.42365	1.46859	-0.71791
3483.000	1.22753	-0.40575	1.47847	-0.73183
3484.000	1.19987	-0.44752	1.46266	-0.74973
3485.000	1.18010	-0.40177	1.47452	-0.74177
3486.000	1.15837	-0.41371	1.44686	-0.84717
3487.000	1.17615	-0.38189	1.41920	-0.75173
3488.000	1.21370	-0.36995	1.40734	-0.73185
3489.000	1.18801	-0.39183	1.46266	-0.75570
3490.000	1.21370	-0.39580	1.44883	-0.80740
3491.000	1.18801	-0.40177	1.39746	-0.77361
3492.000	1.20975	-0.39978	1.49428	-0.74972
3493.000	1.17813	-0.39780	1.43500	-0.76565
3494.000	1.21172	-0.40177	1.38363	-0.76964
3495.000	1.19394	-0.37393	1.39154	-0.79748
3496.000	1.18208	-0.41172	1.48242	-0.78949
3497.000	1.23741	-0.41768	1.42117	-0.75571
3498.000	1.21370	-0.42564	1.43105	-0.76366
3499.000	1.21963	-0.46541	1.47057	-0.73183
3500.000	1.23939	-0.41967	1.41525	-0.72986
3501.000	1.20382	-0.38188	1.43105	-0.75173
3502.000	1.20975	-0.41569	1.42710	-0.78951
3503.000	1.20777	-0.43558	1.52391	-0.76761
3504.000	1.20579	-0.42763	1.43896	-0.78354
3505.000	1.20382	-0.42962	1.51996	-0.85509
3506.000	1.24136	-0.43160	1.48242	-0.79148
3507.000	1.18406	-0.43161	1.46069	-0.77160
3508.000	1.21172	-0.41967	1.47452	-0.79546
3509.000	1.19394	-0.38785	1.54169	-0.79742
3510.000	1.22160	-0.40972	1.45476	-0.74178
3511.000	1.23148	-0.36994	1.43896	-0.81337
3512.000	1.27693	-0.36795	1.46464	-0.75967
3513.000	1.24136	-0.42364	1.51206	-0.83124
3514.000	1.25915	-0.40972	1.49428	-0.78551
3515.000	1.24136	-0.41768	1.47452	-0.82330
3516.000	1.24729	-0.41768	1.47254	-0.84517
3517.000	1.23544	-0.37193	1.47847	-0.75569
3518.000	1.23939	-0.43757	1.47649	-0.79347
3519.000	1.21370	-0.42166	1.46266	-0.81734
3520.000	1.23939	-0.39978	1.51206	-0.82925
3521.000	1.21370	-0.40774	1.52589	-0.85310
3522.000	1.19196	-0.42962	1.47452	-0.81137
3523.000	1.23148	-0.41768	1.52391	-0.86901
3524.000	1.26112	-0.43756	1.52391	-0.79147
3525.000	1.23346	-0.40574	1.52786	-0.87497
3526.000	1.22753	-0.41569	1.48637	-0.82329
3527.000	1.25717	-0.38784	1.56540	-0.79940
3528.000	1.26903	-0.40574	1.50613	-0.77556
3529.000	1.29472	-0.38982	1.58120	-0.77753
3530.000	1.27100	-0.40375	1.49230	-0.79744
3531.000	1.29472	-0.40375	1.51798	-0.79942
3532.000	1.27891	-0.39778	1.51996	-0.78550
3533.000	1.30855	-0.39380	1.52786	-0.77158
3534.000	1.30460	-0.36993	1.48045	-0.77359
3535.000	1.30460	-0.38783	1.51601	-0.71790
3536.000	1.27298	-0.42960	1.52589	-0.81135
3537.000	1.28484	-0.37193	1.51008	-0.78352
3538.000	1.26705	-0.41171	1.51008	-0.84516
3539.000	1.31448	-0.38187	1.51798	-0.79346
3540.000	1.25915	-0.39977	1.51206	-0.74773
3541.000	1.29274	-0.36397	1.53576	-0.78550
3542.000	1.30855	-0.38584	1.50613	-0.71591
3543.000	1.34214	-0.38584	1.51996	-0.71790
3544.000	1.27693	-0.41170	1.54762	-0.68806
3545.000	1.27100	-0.46341	1.44291	-0.74178
3546.000	1.32436	-0.36794	1.51996	-0.69404
3547.000	1.29472	-0.40375	1.50810	-0.74972
3548.000	1.29274	-0.40574	1.52786	-0.69403
3549.000	1.30657	-0.35402	1.48637	-0.77557
3550.000	1.29472	-0.40573	1.52589	-0.72982
3551.000	1.29867	-0.43557	1.49032	-0.68013
3552.000	1.28088	-0.40773	1.48835	-0.74773
3553.000	1.28088	-0.39380	1.53181	-0.71392
3554.000	1.31448	-0.38385	1.51008	-0.73381
3555.000	1.26508	-0.37988	1.49230	-0.67615
3556.000	1.29669	-0.38982	1.48440	-0.70598
3557.000	1.31448	-0.38385	1.45476	-0.66622
3558.000	1.30262	-0.36993	1.43105	-0.70202
3559.000	1.27693	-0.41767	1.46069	-0.69803
3560.000	1.30657	-0.42562	1.42513	-0.66026
3561.000	1.27693	-0.39579	1.55749	-0.63238
3562.000	1.31250	-0.41170	1.47452	-0.69803
3563.000	1.33621	-0.40971	1.51008	-0.65825
3564.000	1.29669	-0.44352	1.49230	-0.70200
3565.000	1.29076	-0.46341	1.52193	-0.70597
3566.000	1.30460	-0.39380	1.49625	-0.70001
3567.000	1.30657	-0.45346	1.47649	-0.74774
3568.000	1.30460	-0.41170	1.50415	-0.73381
3569.000	1.28681	-0.43955	1.41722	-0.66225
3570.000	1.32238	-0.40971	1.49230	-0.72984
3571.000	1.27891	-0.41966	1.47649	-0.69405
3572.000	1.29669	-0.44153	1.46266	-0.66621
3573.000	1.30064	-0.46540	1.48637	-0.68808
3574.000	1.27298	-0.45745	1.46266	-0.68610
3575.000	1.27496	-0.41966	1.52391	-0.69801
3576.000	1.28484	-0.41767	1.46069	-0.68013
3577.000	1.31448	-0.40971	1.56935	-0.70993
3578.000	1.30262	-0.44750	1.52786	-0.72784
3579.000	1.27693	-0.43358	1.44291	-0.69605
3580.000	1.29076	-0.39380	1.55749	-0.71788
3581.000	1.30064	-0.45347	1.50020	-0.68609
3582.000	1.30657	-0.44551	1.49823	-0.70597
3583.000	1.28484	-0.44949	1.45674	-0.70201
3584.000	1.30262	-0.47733	1.54367	-0.75567
3585.000	1.26705	-0.45347	1.55354	-0.66817
3586.000	1.28286	-0.41369	1.50613	-0.67813
3587.000	1.32436	-0.43755	1.49428	-0.74773
3588.000	1.29867	-0.41966	1.51403	-0.76562
3589.000	1.30657	-0.41170	1.48440	-0.65825
3590.000	1.31052	-0.43159	1.49032	-0.69007
3591.000	1.32436	-0.42562	1.40734	-0.72390
3592.000	1.30657	-0.45943	1.44488	-0.68809
3593.000	1.36190	-0.42163	1.48242	-0.67615
3594.000	1.31843	-0.47534	1.51798	-0.79346
3595.000	1.33424	-0.40374	1.47057	-0.69604
3596.000	1.30262	-0.45346	1.50020	-0.68410
3597.000	1.34412	-0.43158	1.57923	-0.74571
3598.000	1.33028	-0.42164	1.51601	-0.63239
3599.000	1.33424	-0.44948	1.53181	-0.73181
3600.000	1.33621	-0.47534	1.53971	-0.65227
3601.000	1.34807	-0.46340	1.52589	-0.69602
3602.000	1.30855	-0.45148	1.56540	-0.69800
3603.000	1.31448	-0.43159	1.49230	-0.70200
3604.000	1.32831	-0.44153	1.54169	-0.67812
3605.000	1.32831	-0.47136	1.46859	-0.68610
3606.000	1.30064	-0.44352	1.57725	-0.71788
3607.000	1.31843	-0.46738	1.55157	-0.69601
3608.000	1.29669	-0.45744	1.54762	-0.68011
3609.000	1.34016	-0.46340	1.55552	-0.76362
3610.000	1.31843	-0.50517	1.52391	-0.75170
3611.000	1.33226	-0.49125	1.53379	-0.75965
3612.000	1.34214	-0.46141	1.47847	-0.66422
3613.000	1.29076	-0.50120	1.54169	-0.68011
3614.000	1.34412	-0.42363	1.59305	-0.73974
3615.000	1.33621	-0.47136	1.57923	-0.72384
3616.000	1.36585	-0.41567	1.60886	-0.71985
3617.000	1.32633	-0.43158	1.51601	-0.72983
3618.000	1.35399	-0.44749	1.58713	-0.71589
3619.000	1.34412	-0.43357	1.55749	-0.74572
3620.000	1.32238	-0.43556	1.54564	-0.70397
3621.000	1.32831	-0.44551	1.55552	-0.69601
3622.000	1.32436	-0.45744	1.58910	-0.73776
3623.000	1.36783	-0.43754	1.53181	-0.72783
3624.000	1.32040	-0.46341	1.50613	-0.74972
3625.000	1.31448	-0.45943	1.48440	-0.71194
3626.000	1.33028	-0.43556	1.55552	-0.71788
3627.000	1.33226	-0.47534	1.55354	-0.68607
3628.000	1.34609	-0.47136	1.53971	-0.70596
3629.000	1.30460	-0.48131	1.50810	-0.67614
3630.000	1.35004	-0.44351	1.56935	-0.70197
3631.000	1.35795	-0.46738	1.52193	-0.71591
3632.000	1.33621	-0.48528	1.55552	-0.73777
3633.000	1.37375	-0.47931	1.55157	-0.73976
3634.000	1.35992	-0.48329	1.47254	-0.69206
3635.000	1.37178	-0.50317	1.60491	-0.70793
3636.000	1.35399	-0.51113	1.52786	-0.72386
3637.000	1.34016	-0.45744	1.54564	-0.76362
3638.000	1.33028	-0.45346	1.51206	-0.76562
3639.000	1.32238	-0.48727	1.61281	-0.66219
3640.000	1.32831	-0.49920	1.56540	-0.71192
3641.000	1.36980	-0.42561	1.61083	-0.73974
3642.000	1.31052	-0.47335	1.55157	-0.73379
3643.000	1.36190	-0.46340	1.53774	-0.75368
3644.000	1.34609	-0.48727	1.55749	-0.71192
3645.000	1.36585	-0.49522	1.55354	-0.74373
3646.000	1.35004	-0.49124	1.53181	-0.69403
3647.000	1.38166	-0.50317	1.58910	-0.72980
3648.000	1.36387	-0.51113	1.53971	-0.68608
3649.000	1.35795	-0.50914	1.57330	-0.69004
3650.000	1.31843	-0.47733	1.56935	-0.75168
3651.000	1.35399	-0.48925	1.60491	-0.77951
3652.000	1.33621	-0.48130	1.57330	-0.63834
3653.000	1.34807	-0.49920	1.60293	-0.74173
3654.000	1.35004	-0.52306	1.55749	-0.70794
3655.000	1.34016	-0.46539	1.53774	-0.68806
3656.000	1.36783	-0.45942	1.49032	-0.68013
3657.000	1.35992	-0.52704	1.62861	-0.72979
3658.000	1.34609	-0.49920	1.58515	-0.75168
3659.000	1.35597	-0.46141	1.49032	-0.72188
3660.000	1.34609	-0.47931	1.63256	-0.73973
3661.000	1.38363	-0.49124	1.54959	-0.64431
3662.000	1.32633	-0.51511	1.63849	-0.65025
3663.000	1.36387	-0.49124	1.61478	-0.70991
3664.000	1.37178	-0.51510	1.59503	-0.74372
3665.000	1.35399	-0.50914	1.59700	-0.68606
3666.000	1.36387	-0.47334	1.56540	-0.70197
3667.000	1.36585	-0.50118	1.67207	-0.71784
3668.000	1.36585	-0.49522	1.59108	-0.68208
3669.000	1.36980	-0.46538	1.56737	-0.70794
3670.000	1.35202	-0.47334	1.58120	-0.75963
3671.000	1.37178	-0.48328	1.58713	-0.69799
3672.000	1.35795	-0.44550	1.55947	-0.68209
3673.000	1.37771	-0.46936	1.56935	-0.70993
3674.000	1.33819	-0.49323	1.59898	-0.65026
3675.000	1.36980	-0.47334	1.61281	-0.77155
3676.000	1.37573	-0.48527	1.66812	-0.68007
3677.000	1.40932	-0.46737	1.58120	-0.65226
3678.000	1.36387	-0.48726	1.63454	-0.73774
3679.000	1.38561	-0.45345	1.59700	-0.69600
3680.000	1.38363	-0.45345	1.54169	-0.63636
3681.000	1.36190	-0.46340	1.56342	-0.71390
3682.000	1.36783	-0.47732	1.54762	-0.73181
3683.000	1.36190	-0.47732	1.64046	-0.69996
3684.000	1.36190	-0.45147	1.58120	-0.76758
3685.000	1.36190	-0.50914	1.57527	-0.78946
3686.000	1.39944	-0.50316	1.60096	-0.68804
3687.000	1.35992	-0.51312	1.62664	-0.65821
3688.000	1.37771	-0.47533	1.63454	-0.70990
3689.000	1.40142	-0.50714	1.61676	-0.69201
3690.000	1.38363	-0.52107	1.64837	-0.71586
3691.000	1.36585	-0.48527	1.63651	-0.78148
3692.000	1.36980	-0.46936	1.64837	-0.73177
3693.000	1.34214	-0.55289	1.66219	-0.69200
3694.000	1.41525	-0.54691	1.58910	-0.70197
3695.000	1.39154	-0.57675	1.66022	-0.67013
3696.000	1.36190	-0.52505	1.66417	-0.78147
3697.000	1.36585	-0.50914	1.57923	-0.68805
3698.000	1.41722	-0.49322	1.56935	-0.74572
3699.000	1.37375	-0.50914	1.65429	-0.73376
3700.000	1.34609	-0.47732	1.65824	-0.70194
3701.000	1.39746	-0.52504	1.52391	-0.65625
3702.000	1.39549	-0.51112	1.66219	-0.73176
3703.000	1.39549	-0.51311	1.60491	-0.71986
3704.000	1.40932	-0.50913	1.61478	-0.70991
3705.000	1.42908	-0.51509	1.63849	-0.75364
3706.000	1.40932	-0.51509	1.58713	-0.70197
3707.000	1.40339	-0.50714	1.60096	-0.71190
3708.000	1.40537	-0.50913	1.62466	-0.79342
3709.000	1.44488	-0.45543	1.60293	-0.74570
3710.000	1.41129	-0.54095	1.65627	-0.70791
3711.000	1.41920	-0.50316	1.61281	-0.70196
3712.000	1.39746	-0.53697	1.63651	-0.69002
3713.000	1.43105	-0.48924	1.66614	-0.76159
3714.000	1.41722	-0.54293	1.64244	-0.65025
3715.000	1.39746	-0.51709	1.66417	-0.70989
3716.000	1.39154	-0.54294	1.69380	-0.66216
3717.000	1.38363	-0.51112	1.58910	-0.69799
3718.000	1.38166	-0.50317	1.64244	-0.71587
3719.000	1.40339	-0.49123	1.63651	-0.71388
3720.000	1.46069	-0.51508	1.63651	-0.75166
3721.000	1.39351	-0.52504	1.62861	-0.75763
3722.000	1.42315	-0.50714	1.66022	-0.72779
3723.000	1.39746	-0.51311	1.60491	-0.74570
3724.000	1.40932	-0.52305	1.62269	-0.72979
3725.000	1.40142	-0.51907	1.64244	-0.71785
3726.000	1.39154	-0.50118	1.61083	-0.66418
3727.000	1.41525	-0.50117	1.63849	-0.71786
3728.000	1.39944	-0.51709	1.59700	-0.67611
3729.000	1.44686	-0.47332	1.61873	-0.75564
3730.000	1.45279	-0.56480	1.58910	-0.72185
3731.000	1.41525	-0.54293	1.57132	-0.69601
3732.000	1.43698	-0.51907	1.62071	-0.65821
3733.000	1.45674	-0.51111	1.70565	-0.70988
3734.000	1.44883	-0.53099	1.58910	-0.68805
3735.000	1.43303	-0.55088	1.63256	-0.65821
3736.000	1.40339	-0.55885	1.57527	-0.64828
3737.000	1.42117	-0.57873	1.57330	-0.66618
3738.000	1.40339	-0.56680	1.63849	-0.68803
3739.000	1.42710	-0.52503	1.66812	-0.69200
3740.000	1.42513	-0.55288	1.60491	-0.68605
3741.000	1.43896	-0.51708	1.63849	-0.62043
3742.000	1.42117	-0.57475	1.62861	-0.74371
3743.000	1.46069	-0.52503	1.62664	-0.69599
3744.000	1.44291	-0.57276	1.65627	-0.69001
3745.000	1.44291	-0.55486	1.66219	-0.72779
3746.000	1.43500	-0.53299	1.65429	-0.68803
3747.000	1.40734	-0.54294	1.61281	-0.69997
3748.000	1.46266	-0.55684	1.62466	-0.69201
3749.000	1.43698	-0.53696	1.60688	-0.62640
3750.000	1.43105	-0.57873	1.65824	-0.67808
3751.000	1.42908	-0.55287	1.62664	-0.68008
3752.000	1.47649	-0.49519	1.61873	-0.67014
3753.000	1.41722	-0.57873	1.65627	-0.72183
3754.000	1.46662	-0.53298	1.62664	-0.66616
3755.000	1.43303	-0.51111	1.59305	-0.69401
3756.000	1.42513	-0.51907	1.65034	-0.71189
3757.000	1.48637	-0.56678	1.62071	-0.73775
3758.000	1.41920	-0.57276	1.67207	-0.66416
3759.000	1.46266	-0.56679	1.58318	-0.64828
3760.000	1.47452	-0.54889	1.62861	-0.68605
3761.000	1.46266	-0.54292	1.65232	-0.68206
3762.000	1.45279	-0.55287	1.67800	-0.68603
3763.000	1.45081	-0.53696	1.58910	-0.69799
3764.000	1.48835	-0.50513	1.63454	-0.73973
3765.000	1.46266	-0.51111	1.67009	-0.63831
3766.000	1.44093	-0.53895	1.66812	-0.76357
3767.000	1.45674	-0.51906	1.61083	-0.73576
3768.000	1.45674	-0.50912	1.72343	-0.63631
3769.000	1.48440	-0.50513	1.56342	-0.68408
3770.000	1.50810	-0.53297	1.70170	-0.70789
3771.000	1.49428	-0.47530	1.64441	-0.71388
3772.000	1.50415	-0.48524	1.58910	-0.64231
3773.000	1.51403	-0.48325	1.64046	-0.64826
3774.000	1.45871	-0.55088	1.62466	-0.63634
3775.000	1.51601	-0.51308	1.62071	-0.66418
3776.000	1.53181	-0.47132	1.62466	-0.67412
3777.000	1.50415	-0.51308	1.58515	-0.68606
3778.000	1.53576	-0.53296	1.67800	-0.71188
3779.000	1.51008	-0.51706	1.62466	-0.66616
3780.000	1.49230	-0.51905	1.60886	-0.65225
3781.000	1.50415	-0.49916	1.63059	-0.68803
3782.000	1.47254	-0.58070	1.66812	-0.67211
3783.000	1.47057	-0.51906	1.70565	-0.71584
3784.000	1.49823	-0.54689	1.55552	-0.73777
3785.000	1.50415	-0.55683	1.58713	-0.69799
3786.000	1.47649	-0.51110	1.59700	-0.70196
3787.000	1.44686	-0.54293	1.63454	-0.72581
3788.000	1.46069	-0.55684	1.67207	-0.64626
3789.000	1.47452	-0.54491	1.63059	-0.67809
3790.000	1.47057	-0.54093	1.58515	-0.69998
3791.000	1.44686	-0.53696	1.60886	-0.66617
3792.000	1.50810	-0.54092	1.65429	-0.68007
3793.000	1.52391	-0.50910	1.57132	-0.68408
3794.000	1.48242	-0.54093	1.67997	-0.68603
3795.000	1.48637	-0.52900	1.62269	-0.69599
3796.000	1.51206	-0.53695	1.63256	-0.72979
3797.000	1.50613	-0.54888	1.62269	-0.69002
3798.000	1.50613	-0.54490	1.66812	-0.68603
3799.000	1.47452	-0.53497	1.64046	-0.69996
3800.000	1.47452	-0.54292	1.65824	-0.69001
3801.000	1.51601	-0.51905	1.66614	-0.77550
3802.000	1.49428	-0.54888	1.62466	-0.68804
3803.000	1.51601	-0.56478	1.58120	-0.67811
3804.000	1.50613	-0.54689	1.56737	-0.66221
3805.000	1.53379	-0.56876	1.67602	-0.66813
3806.000	1.48045	-0.49121	1.58515	-0.67612
3807.000	1.48440	-0.55883	1.61281	-0.67810
3808.000	1.47649	-0.52900	1.62269	-0.68804
3809.000	1.46464	-0.54093	1.58713	-0.67612
3810.000	1.50020	-0.54490	1.65627	-0.73177
3811.000	1.46266	-0.53696	1.65232	-0.65820
3812.000	1.50810	-0.57672	1.59700	-0.68407
3813.000	1.48045	-0.54292	1.60293	-0.66617
3814.000	1.49625	-0.55286	1.63849	-0.64429
3815.000	1.41525	-0.58470	1.65429	-0.63235
3816.000	1.44686	-0.55685	1.60491	-0.69997
3817.000	1.45871	-0.59463	1.64639	-0.62440
3818.000	1.52786	-0.52103	1.69577	-0.65023
3819.000	1.51798	-0.52700	1.56342	-0.63437
3820.000	1.47057	-0.59065	1.62664	-0.67610
3821.000	1.48835	-0.56081	1.63256	-0.66218
3822.000	1.49230	-0.53695	1.57527	-0.63436
3823.000	1.48045	-0.56479	1.58318	-0.62442
3824.000	1.48242	-0.53298	1.68195	-0.65421
3825.000	1.49032	-0.55286	1.65232	-0.65621
3826.000	1.48637	-0.60854	1.64244	-0.74569
3827.000	1.51008	-0.54888	1.60886	-0.73576
3828.000	1.49428	-0.60456	1.65429	-0.68604
3829.000	1.49823	-0.60456	1.59305	-0.68009
3830.000	1.52786	-0.53893	1.61676	-0.73775
3831.000	1.50613	-0.55882	1.62664	-0.67809
3832.000	1.49032	-0.57871	1.58120	-0.67811
3833.000	1.49823	-0.55683	1.67009	-0.67211
3834.000	1.50415	-0.56876	1.65824	-0.69797
3835.000	1.53181	-0.50910	1.58120	-0.66419
3836.000	1.51996	-0.54291	1.63849	-0.66815
3837.000	1.50020	-0.54689	1.64837	-0.72581
3838.000	1.51601	-0.51507	1.64244	-0.68008
3839.000	1.51206	-0.55683	1.56145	-0.66022
3840.000	1.53971	-0.59262	1.58713	-0.64828
3841.000	1.49032	-0.52104	1.68195	-0.66614
3842.000	1.49428	-0.55087	1.69972	-0.67608
3843.000	1.51008	-0.51706	1.59108	-0.68606
3844.000	1.53379	-0.55285	1.58120	-0.66220
3845.000	1.51206	-0.53496	1.54959	-0.62244
3846.000	1.56145	-0.53494	1.63256	-0.61645
3847.000	1.50810	-0.57473	1.70762	-0.67409
3848.000	1.51601	-0.55285	1.62861	-0.65423
3849.000	1.51008	-0.54689	1.60491	-0.64430
3850.000	1.49823	-0.54490	1.73330	-0.56273
3851.000	1.53576	-0.56677	1.63059	-0.64628
3852.000	1.54367	-0.52103	1.62269	-0.67014
3853.000	1.53181	-0.54291	1.60688	-0.70792
3854.000	1.51206	-0.56677	1.60491	-0.63833
3855.000	1.49428	-0.56280	1.67207	-0.68205
3856.000	1.48242	-0.55286	1.65034	-0.63036
3857.000	1.51403	-0.55882	1.67207	-0.64825
3858.000	1.50613	-0.53496	1.62269	-0.59856
3859.000	1.49230	-0.55684	1.65429	-0.68604
3860.000	1.52589	-0.54887	1.64441	-0.63434
3861.000	1.48440	-0.57474	1.64244	-0.63434
3862.000	1.49428	-0.55485	1.64441	-0.62838
3863.000	1.50810	-0.57473	1.61676	-0.67213
3864.000	1.47847	-0.56479	1.65232	-0.67013
3865.000	1.49230	-0.56479	1.59898	-0.70793
3866.000	1.51206	-0.57672	1.67602	-0.65223
3867.000	1.54762	-0.55086	1.57132	-0.61448
3868.000	1.47649	-0.55883	1.60096	-0.67810
3869.000	1.50613	-0.56678	1.55947	-0.68806
3870.000	1.50020	-0.55683	1.57527	-0.61846
3871.000	1.52984	-0.51904	1.64441	-0.64031
3872.000	1.50415	-0.55882	1.67404	-0.55878
3873.000	1.52786	-0.52899	1.65627	-0.61446
3874.000	1.51008	-0.57473	1.66022	-0.65223
3875.000	1.49230	-0.55684	1.60096	-0.59658
3876.000	1.49625	-0.54291	1.63059	-0.67213
3877.000	1.49230	-0.59462	1.62466	-0.63833
3878.000	1.51403	-0.55484	1.64244	-0.63037
3879.000	1.51008	-0.57473	1.65429	-0.68007
3880.000	1.50810	-0.56479	1.60688	-0.58663
3881.000	1.50810	-0.57473	1.60293	-0.62640
3882.000	1.49428	-0.56280	1.59700	-0.62044
3883.000	1.49032	-0.57274	1.64046	-0.65423
3884.000	1.50415	-0.54092	1.66812	-0.60053
3885.000	1.50613	-0.56876	1.64837	-0.64230
3886.000	1.52984	-0.53694	1.58910	-0.59658
3887.000	1.52391	-0.54490	1.61676	-0.62640
3888.000	1.51601	-0.58069	1.68392	-0.64825
3889.000	1.50613	-0.62444	1.66022	-0.59457
3890.000	1.52984	-0.55484	1.60688	-0.60254
3891.000	1.49032	-0.55684	1.71158	-0.58461
3892.000	1.51403	-0.55882	1.53181	-0.63835
3893.000	1.51008	-0.55484	1.68195	-0.60451
3894.000	1.51403	-0.56081	1.61478	-0.59061
3895.000	1.51601	-0.55086	1.58515	-0.61448
3896.000	1.50020	-0.51706	1.64837	-0.62639
3897.000	1.46662	-0.57673	1.58910	-0.61448
3898.000	1.49428	-0.50712	1.61873	-0.59259
3899.000	1.51206	-0.52700	1.58713	-0.60453
3900.000	1.52984	-0.55683	1.62466	-0.67611
3901.000	1.51403	-0.60058	1.56935	-0.62244
3902.000	1.49230	-0.59860	1.59898	-0.64231
3903.000	1.51996	-0.56081	1.61083	-0.62242
3904.000	1.49823	-0.54888	1.66219	-0.61247
3905.000	1.50810	-0.57871	1.61873	-0.62242
3906.000	1.54762	-0.51904	1.63256	-0.59458
3907.000	1.48242	-0.60059	1.65034	-0.61645
3908.000	1.52193	-0.54887	1.61478	-0.62242
3909.000	1.51008	-0.57075	1.65232	-0.60253
3910.000	1.48637	-0.58070	1.65232	-0.63434
3911.000	1.55749	-0.50909	1.63651	-0.66815
3912.000	1.45279	-0.57872	1.64244	-0.63832
3913.000	1.50415	-0.53695	1.69182	-0.68602
3914.000	1.48045	-0.58070	1.63256	-0.63634
3915.000	1.50415	-0.57672	1.67602	-0.68603
3916.000	1.50020	-0.57871	1.61873	-0.66617
3917.000	1.50020	-0.56280	1.63849	-0.64031
3918.000	1.47847	-0.54690	1.56540	-0.68209
3919.000	1.50218	-0.51905	1.59898	-0.61050
3920.000	1.51403	-0.51109	1.64046	-0.61446
3921.000	1.50810	-0.53297	1.65232	-0.62440
3922.000	1.48440	-0.52303	1.66219	-0.56673
3923.000	1.50810	-0.53695	1.71355	-0.50905
3924.000	1.53576	-0.52501	1.68787	-0.59059
3925.000	1.47847	-0.55286	1.59503	-0.55880
3926.000	1.49032	-0.56081	1.63454	-0.62838
3927.000	1.49032	-0.59064	1.61873	-0.55680
3928.000	1.44686	-0.56679	1.62861	-0.61844
3929.000	1.51798	-0.51706	1.58318	-0.56675
3930.000	1.54367	-0.55483	1.53971	-0.55881
3931.000	1.51798	-0.55285	1.61083	-0.64430
3932.000	1.50810	-0.51706	1.66417	-0.55281
3933.000	1.52984	-0.53098	1.53774	-0.62642
