time (ms)	lx (deg)	ly (deg)	rx (deg)	ry (deg)
0.000	4.00874	-0.21433	3.97726	0.07542
1.000	4.00874	-0.25402	4.00480	-0.01191
2.000	4.00087	-0.22624	4.04021	0.07343
3.000	3.99300	-0.23617	3.93988	0.10916
4.000	3.94971	-0.24610	3.95955	0.06946
5.000	4.01267	-0.24013	3.97333	0.05954
6.000	3.96152	-0.22030	3.96152	0.01389
7.000	3.96545	-0.24808	3.99693	0.06152
8.000	3.95562	-0.25801	3.88675	0.05558
9.000	3.97136	-0.23419	3.94775	0.07145
10.000	3.96152	-0.23022	3.93791	0.07542
11.000	3.98710	-0.20045	3.92020	0.05160
12.000	3.95758	-0.22228	3.94184	0.11114
13.000	3.97529	-0.20243	3.84345	0.07741
14.000	3.95758	-0.16870	3.95168	0.03969
15.000	3.96939	-0.19648	3.98906	0.07542
16.000	3.95758	-0.22427	3.99890	0.02778
17.000	3.99693	-0.21037	3.93201	0.10718
18.000	3.98513	-0.22625	3.96742	0.05160
19.000	4.00284	-0.23220	3.97529	0.05359
20.000	3.97529	-0.28380	3.97726	0.03572
21.000	3.99300	-0.23418	3.93004	0.00595
22.000	3.97726	-0.26197	3.97333	0.10320
23.000	3.97529	-0.22823	3.89462	0.04168
24.000	3.97726	-0.25403	3.93988	0.07939
25.000	3.99693	-0.24410	3.95955	0.00992
26.000	4.02841	-0.25203	3.89068	0.06947
27.000	4.00480	-0.20044	3.95955	0.01985
28.000	3.98119	-0.21037	3.87494	0.13100
29.000	3.95955	-0.19648	3.92610	-0.01191
30.000	3.96152	-0.18457	3.94184	0.04565
31.000	3.95562	-0.22030	3.98316	0.05755
32.000	4.01071	-0.18258	3.98316	0.11511
33.000	3.96545	-0.22625	3.85132	-0.00198
34.000	4.00677	-0.25204	3.93594	0.11710
35.000	3.99103	-0.21632	3.94184	0.09130
36.000	3.95758	-0.25404	3.88281	0.08336
37.000	4.00087	-0.24410	3.89462	0.02382
38.000	3.99693	-0.21830	3.96349	0.07939
39.000	3.98906	-0.23220	3.88675	0.07939
40.000	4.01464	-0.21830	3.96742	0.09129
41.000	3.98316	-0.26594	3.93988	0.09328
42.000	3.99103	-0.22029	3.97529	0.06152
43.000	4.01267	-0.21036	3.88675	0.10321
44.000	3.98316	-0.23220	3.94971	0.09130
45.000	4.01858	-0.20242	3.92610	0.08138
46.000	4.01267	-0.22624	3.96545	0.08931
47.000	4.00677	-0.23616	3.97529	0.08732
48.000	4.03235	-0.24409	3.97529	0.08336
49.000	3.98710	-0.20045	3.92610	0.06351
50.000	4.07956	-0.20439	3.93004	0.11909
51.000	3.98906	-0.20243	3.95758	0.05756
52.000	3.98906	-0.19846	3.88675	0.09726
53.000	3.98513	-0.22625	4.00480	0.01786
54.000	4.01464	-0.23021	3.90446	0.09329
55.000	4.05202	-0.20638	3.92217	0.08931
56.000	4.04415	-0.20242	3.90052	0.04367
57.000	4.01661	-0.25997	3.88281	0.10718
58.000	4.05005	-0.21829	3.96939	0.04168
59.000	4.05399	-0.19448	3.99693	0.12701
60.000	4.05005	-0.21432	3.94381	0.06351
61.000	4.01267	-0.25601	3.91626	0.09527
62.000	4.01071	-0.24807	3.86707	0.03771
63.000	3.93594	-0.26992	3.70763	0.11912
64.000	3.78046	-0.21638	3.66825	0.05162
65.000	3.52056	-0.30976	3.49692	-0.01191
66.000	3.27233	-0.29991	3.32553	-0.05561
67.000	2.91357	-0.33180	3.02398	-0.01589
68.000	2.55654	-0.32594	2.71437	0.02186
69.000	2.22893	-0.39360	2.34539	-0.04572
70.000	1.83798	-0.34200	2.00584	-0.14315
71.000	1.42710	-0.37389	1.56145	-0.13921
72.000	1.00026	-0.41572	1.27891	-0.14718
73.000	0.63657	-0.40780	0.92516	-0.15913
74.000	0.26096	-0.39390	0.56936	-0.12135
75.000	0.02966	-0.44562	0.29259	-0.10345
76.000	-0.20956	-0.49336	0.01779	-0.10942
77.000	-0.35388	-0.47148	-0.23724	-0.14722
78.000	-0.48238	-0.52319	-0.39539	-0.01790
79.000	-0.50610	-0.58684	-0.44679	-0.11737
80.000	-0.48238	-0.68431	-0.43889	-0.09947
81.000	-0.33806	-0.62266	-0.39342	-0.03581
82.000	-0.19968	-0.68433	-0.20561	-0.02984
83.000	0.00593	-0.70423	-0.01384	-0.02984
84.000	0.24119	-0.65250	0.11664	-0.05173
85.000	0.54366	-0.63458	0.36179	-0.01790
86.000	0.70180	-0.61268	0.57529	-0.03581
87.000	0.93899	-0.65640	0.77494	-0.09747
88.000	1.13663	-0.59271	1.08129	-0.04973
89.000	1.29274	-0.55489	1.17022	-0.06365
90.000	1.37375	-0.55885	1.36585	-0.14519
91.000	1.44883	-0.51111	1.40142	-0.15513
92.000	1.44883	-0.52503	1.36387	-0.20684
93.000	1.43500	-0.55486	1.52391	-0.20484
94.000	1.37375	-0.52505	1.49428	-0.21081
95.000	1.25520	-0.50319	1.38166	-0.26452
96.000	1.16825	-0.52708	1.35202	-0.23270
97.000	1.05560	-0.52113	1.23741	-0.18298
98.000	0.94295	-0.51518	1.07734	-0.26654
99.000	0.82238	-0.52514	1.03188	-0.26057
100.000	0.79668	-0.51719	0.99433	-0.29240
101.000	0.71761	-0.50328	0.87377	-0.23472
102.000	0.67610	-0.52317	0.76703	-0.24070
103.000	0.59703	-0.47743	0.65041	-0.21882
104.000	0.56738	-0.50727	0.60889	-0.18700
105.000	0.55750	-0.48141	0.63657	-0.17108
106.000	0.50610	-0.46351	0.59308	-0.10146
107.000	0.52587	-0.47544	0.50610	-0.11339
108.000	0.52784	-0.47147	0.50215	-0.08753
109.000	0.50808	-0.45555	0.50017	-0.08952
110.000	0.55750	-0.45356	0.51598	-0.16114
111.000	0.54959	-0.52119	0.52587	-0.08952
112.000	0.57727	-0.48738	0.55157	-0.10345
113.000	0.55354	-0.45555	0.60296	-0.09748
114.000	0.58122	-0.53710	0.49819	-0.06167
115.000	0.56738	-0.50727	0.53773	-0.15716
116.000	0.57331	-0.49732	0.60494	-0.03183
117.000	0.57924	-0.49334	0.53971	-0.10941
118.000	0.58913	-0.50926	0.61087	-0.14721
119.000	0.56936	-0.47544	0.53378	-0.09748
120.000	0.55354	-0.48937	0.59110	-0.14721
121.000	0.56540	-0.48141	0.50610	-0.11737
122.000	0.55947	-0.50329	0.54959	-0.21286
123.000	0.56540	-0.48937	0.51994	-0.14124
124.000	0.56936	-0.47942	0.56738	-0.17705
125.000	0.56343	-0.51920	0.52587	-0.15517
126.000	0.48633	-0.54308	0.59901	-0.22479
127.000	0.53180	-0.57689	0.56540	-0.20490
128.000	0.55947	-0.54904	0.56145	-0.21087
129.000	0.58715	-0.55501	0.54168	-0.14522
130.000	0.55750	-0.49533	0.54564	-0.17307
131.000	0.57727	-0.46748	0.59110	-0.17904
132.000	0.58517	-0.47544	0.58715	-0.11140
133.000	0.59110	-0.50926	0.56540	-0.12334
134.000	0.57331	-0.54506	0.55552	-0.14522
135.000	0.59308	-0.49533	0.62866	-0.16113
136.000	0.56738	-0.52915	0.61087	-0.13726
137.000	0.61285	-0.50527	0.53378	-0.16512
138.000	0.61680	-0.48936	0.56936	-0.18700
139.000	0.57331	-0.48340	0.45075	-0.14323
140.000	0.56936	-0.51721	0.54959	-0.15318
141.000	0.53773	-0.50329	0.55354	-0.11737
142.000	0.58122	-0.48340	0.55157	-0.17307
143.000	0.59308	-0.49931	0.56343	-0.11140
144.000	0.58715	-0.53511	0.64448	-0.14124
145.000	0.60296	-0.56097	0.53180	-0.12135
146.000	0.59308	-0.53313	0.58715	-0.13527
147.000	0.59703	-0.51721	0.52389	-0.15318
148.000	0.57529	-0.53711	0.59308	-0.18501
149.000	0.60889	-0.54108	0.51598	-0.16909
150.000	0.58320	-0.56097	0.58320	-0.13329
151.000	0.62273	-0.47743	0.55157	-0.14721
152.000	0.58320	-0.56097	0.48238	-0.08753
153.000	0.57529	-0.52716	0.55552	-0.10742
154.000	0.56540	-0.54108	0.54959	-0.10345
155.000	0.57924	-0.52119	0.57529	-0.15716
156.000	0.57529	-0.55501	0.56145	-0.17506
157.000	0.57133	-0.55700	0.50215	-0.14920
158.000	0.58122	-0.47544	0.61680	-0.22280
159.000	0.57529	-0.53909	0.54366	-0.09151
160.000	0.63459	-0.54307	0.58913	-0.16511
161.000	0.55947	-0.54108	0.62668	-0.20490
162.000	0.62075	-0.51522	0.57924	-0.14124
163.000	0.57727	-0.52517	0.57133	-0.13527
164.000	0.58122	-0.54307	0.56936	-0.18302
165.000	0.58913	-0.53313	0.55750	-0.16710
166.000	0.56738	-0.53114	0.55947	-0.16511
167.000	0.57529	-0.54705	0.60889	-0.18899
168.000	0.58913	-0.55302	0.55552	-0.16512
169.000	0.60692	-0.58882	0.59110	-0.12533
170.000	0.58122	-0.54307	0.57924	-0.16909
171.000	0.59506	-0.56694	0.52982	-0.14920
172.000	0.58517	-0.55700	0.54564	-0.16710
173.000	0.60889	-0.51920	0.52587	-0.13528
174.000	0.60296	-0.52716	0.58122	-0.18899
175.000	0.56936	-0.58286	0.61285	-0.21684
176.000	0.57331	-0.56893	0.58517	-0.19098
177.000	0.60889	-0.54904	0.52191	-0.14323
178.000	0.55750	-0.59877	0.60692	-0.18103
179.000	0.57924	-0.55700	0.57727	-0.09549
180.000	0.53971	-0.55103	0.56738	-0.20092
181.000	0.55750	-0.53512	0.52982	-0.09947
182.000	0.53773	-0.55302	0.49028	-0.19695
183.000	0.54366	-0.56297	0.52784	-0.17506
184.000	0.56738	-0.60871	0.57133	-0.18302
185.000	0.52191	-0.58286	0.56540	-0.11538
186.000	0.60099	-0.55302	0.55157	-0.20291
187.000	0.57529	-0.55899	0.51005	-0.18501
188.000	0.50412	-0.57888	0.56738	-0.18700
189.000	0.60494	-0.59678	0.55157	-0.10941
190.000	0.59308	-0.57291	0.52191	-0.11936
191.000	0.60494	-0.57490	0.55750	-0.11140
192.000	0.58715	-0.57888	0.59506	-0.05172
193.000	0.61482	-0.54904	0.52784	-0.15716
194.000	0.58715	-0.58683	0.45668	-0.11140
195.000	0.59308	-0.60076	0.57727	-0.12533
196.000	0.57133	-0.57888	0.53378	-0.13726
197.000	0.57529	-0.59280	0.51401	-0.11936
198.000	0.54959	-0.56297	0.59110	-0.17108
199.000	0.59901	-0.57092	0.56936	-0.16909
200.000	0.56936	-0.56694	0.44086	-0.19297
201.000	0.54564	-0.60474	0.50808	-0.13925
202.000	0.57727	-0.52915	0.62471	-0.21087
203.000	0.59110	-0.59678	0.58517	-0.18103
204.000	0.55157	-0.64054	0.53575	-0.16313
205.000	0.53575	-0.62264	0.57529	-0.22678
206.000	0.57331	-0.60076	0.54168	-0.20092
207.000	0.54564	-0.56893	0.51598	-0.10941
208.000	0.56145	-0.56495	0.55947	-0.12533
209.000	0.57331	-0.62662	0.61087	-0.10146
210.000	0.60494	-0.58285	0.57529	-0.10345
211.000	0.59703	-0.55103	0.55750	-0.11936
212.000	0.56936	-0.63656	0.59110	-0.11936
213.000	0.59110	-0.59479	0.57529	-0.08554
214.000	0.59308	-0.62860	0.63657	-0.12334
215.000	0.62273	-0.63059	0.52784	-0.18302
216.000	0.59703	-0.59479	0.61087	-0.15119
217.000	0.59506	-0.57888	0.53378	-0.13329
218.000	0.59901	-0.56097	0.59110	-0.13328
219.000	0.60494	-0.61269	0.59110	-0.12135
220.000	0.60889	-0.55302	0.59308	-0.10742
221.000	0.61482	-0.61269	0.59110	-0.11737
222.000	0.60692	-0.61269	0.55157	-0.16313
223.000	0.59506	-0.59081	0.53971	-0.10544
224.000	0.62273	-0.59479	0.49622	-0.10743
225.000	0.61285	-0.60871	0.53773	-0.08156
226.000	0.60099	-0.61667	0.49819	-0.08355
227.000	0.58320	-0.56893	0.54564	-0.11140
228.000	0.59506	-0.58285	0.55552	-0.14721
229.000	0.60099	-0.62065	0.57529	-0.14721
230.000	0.56540	-0.59280	0.52982	-0.10345
231.000	0.58913	-0.59280	0.63459	-0.14323
232.000	0.64645	-0.57091	0.53971	-0.09151
233.000	0.59308	-0.56495	0.55354	-0.03581
234.000	0.58913	-0.58882	0.60296	-0.06963
235.000	0.59506	-0.61269	0.56936	-0.08753
236.000	0.59901	-0.61667	0.50808	-0.08554
237.000	0.61087	-0.60871	0.55947	-0.10345
238.000	0.59901	-0.61269	0.56738	-0.07758
239.000	0.61878	-0.59479	0.52982	-0.06963
240.000	0.61482	-0.58484	0.64645	-0.15318
241.000	0.57133	-0.58882	0.48435	-0.08554
242.000	0.56936	-0.59280	0.51598	-0.12732
243.000	0.58715	-0.59877	0.59901	-0.11737
244.000	0.57331	-0.60275	0.54366	-0.19694
245.000	0.58913	-0.59678	0.63459	-0.13925
246.000	0.58320	-0.59081	0.61285	-0.12334
247.000	0.59308	-0.57490	0.54761	-0.08156
248.000	0.58122	-0.64452	0.54168	-0.12931
249.000	0.59110	-0.58882	0.56540	-0.06565
250.000	0.61482	-0.61269	0.51401	-0.10941
251.000	0.57727	-0.62264	0.58320	-0.03382
252.000	0.61087	-0.63059	0.57529	-0.08156
253.000	0.60889	-0.58484	0.52784	-0.08952
254.000	0.60296	-0.63258	0.53971	-0.17108
255.000	0.60889	-0.62263	0.56738	-0.05968
256.000	0.58517	-0.60473	0.64052	-0.09549
257.000	0.58715	-0.59081	0.57133	-0.10742
258.000	0.59901	-0.59678	0.55157	-0.10742
259.000	0.57727	-0.60672	0.56936	-0.06167
260.000	0.53378	-0.59281	0.54959	-0.09151
261.000	0.58122	-0.56097	0.58715	-0.05769
262.000	0.57529	-0.58683	0.55552	-0.12533
263.000	0.53575	-0.57888	0.56145	-0.05172
264.000	0.51598	-0.62463	0.50017	-0.16711
265.000	0.61087	-0.58285	0.52389	-0.02586
266.000	0.53180	-0.61866	0.54366	-0.09748
267.000	0.54959	-0.58286	0.54564	-0.08355
268.000	0.53180	-0.61668	0.58320	-0.10941
269.000	0.53575	-0.60673	0.65436	-0.05769
270.000	0.56936	-0.60474	0.52784	-0.12732
271.000	0.55947	-0.61667	0.51994	-0.03581
272.000	0.59506	-0.60274	0.52191	-0.19098
273.000	0.58715	-0.60275	0.59506	-0.09748
274.000	0.60494	-0.61269	0.57529	-0.17108
275.000	0.58913	-0.60672	0.64052	-0.14124
276.000	0.60099	-0.64253	0.56145	-0.08952
277.000	0.55552	-0.65447	0.56343	-0.14124
278.000	0.60099	-0.63258	0.59506	-0.17904
279.000	0.56540	-0.60872	0.52982	-0.09748
280.000	0.58715	-0.58285	0.56343	-0.14522
281.000	0.58517	-0.63258	0.55354	-0.09748
282.000	0.61680	-0.60075	0.51005	-0.10941
283.000	0.57924	-0.60871	0.52982	-0.13925
284.000	0.57133	-0.61667	0.56540	-0.14522
285.000	0.59110	-0.62661	0.52191	-0.05371
286.000	0.56936	-0.59280	0.51005	-0.12334
287.000	0.58715	-0.63656	0.52587	-0.11339
288.000	0.58517	-0.62264	0.58320	-0.12931
289.000	0.56936	-0.62463	0.62273	-0.12135
290.000	0.59703	-0.64253	0.65238	-0.10941
291.000	0.61087	-0.63059	0.59901	-0.10146
292.000	0.55157	-0.60076	0.55750	-0.09947
293.000	0.59901	-0.63059	0.61878	-0.14522
294.000	0.57924	-0.61866	0.59110	-0.12931
295.000	0.54168	-0.60872	0.58320	-0.08753
296.000	0.54168	-0.62861	0.62075	-0.11339
297.000	0.57529	-0.64651	0.51598	-0.07758
298.000	0.58913	-0.60473	0.56540	-0.14124
299.000	0.57924	-0.58087	0.56540	-0.11538
300.000	0.55750	-0.60474	0.58320	-0.06963
301.000	0.58913	-0.60672	0.54366	-0.16512
302.000	0.54168	-0.61468	0.59308	-0.08156
303.000	0.59110	-0.58086	0.55947	-0.07957
304.000	0.58913	-0.60871	0.63459	-0.11936
305.000	0.60099	-0.61866	0.66029	-0.13129
306.000	0.57331	-0.61269	0.60494	-0.11140
307.000	0.59703	-0.58882	0.63262	-0.15119
308.000	0.58913	-0.60076	0.67808	-0.15516
309.000	0.61087	-0.58882	0.57133	-0.12533
310.000	0.58715	-0.61866	0.63262	-0.18302
311.000	0.55750	-0.61269	0.60692	-0.13726
312.000	0.60296	-0.60871	0.69192	-0.15715
313.000	0.54959	-0.62264	0.63262	-0.08952
314.000	0.60296	-0.64451	0.63459	-0.09947
315.000	0.65041	-0.61069	0.60889	-0.06167
316.000	0.57727	-0.58882	0.65238	-0.11936
317.000	0.56343	-0.60872	0.61482	-0.17705
318.000	0.56936	-0.62264	0.65634	-0.14920
319.000	0.59703	-0.59479	0.57727	-0.09549
320.000	0.57727	-0.56495	0.55552	-0.17506
321.000	0.57133	-0.61468	0.61878	-0.08156
322.000	0.61680	-0.60672	0.63855	-0.13527
323.000	0.59308	-0.59877	0.64052	-0.08355
324.000	0.60099	-0.58086	0.64448	-0.08156
325.000	0.61878	-0.56495	0.61878	-0.17506
326.000	0.62866	-0.62462	0.62866	-0.17108
327.000	0.57529	-0.58484	0.72750	-0.15118
328.000	0.59110	-0.60871	0.68994	-0.16312
329.000	0.60889	-0.60274	0.59506	-0.07162
330.000	0.58320	-0.60275	0.66029	-0.13925
331.000	0.58122	-0.61269	0.56936	-0.14323
332.000	0.56145	-0.66640	0.64052	-0.15716
333.000	0.60494	-0.64054	0.65436	-0.13129
334.000	0.60889	-0.65446	0.65831	-0.08753
335.000	0.61482	-0.63855	0.68796	-0.11936
336.000	0.56540	-0.63855	0.58517	-0.14323
337.000	0.61087	-0.62860	0.65634	-0.04774
338.000	0.61680	-0.62064	0.60296	-0.13925
339.000	0.55552	-0.66640	0.70971	-0.14522
340.000	0.61285	-0.67435	0.61482	-0.11737
341.000	0.61087	-0.61269	0.57529	-0.11737
342.000	0.57529	-0.69424	0.68203	-0.08952
343.000	0.57924	-0.66242	0.65238	-0.14323
344.000	0.60692	-0.68628	0.64645	-0.09549
345.000	0.57331	-0.59678	0.62075	-0.15915
346.000	0.61087	-0.62661	0.62471	-0.15517
347.000	0.55354	-0.63060	0.60494	-0.08753
348.000	0.59506	-0.66242	0.65634	-0.12732
349.000	0.59901	-0.65645	0.53575	-0.12533
350.000	0.56936	-0.66441	0.55552	-0.07361
351.000	0.60494	-0.64054	0.68401	-0.12533
352.000	0.57133	-0.67833	0.67017	-0.13527
353.000	0.60099	-0.66838	0.64843	-0.10543
354.000	0.58913	-0.65048	0.64250	-0.14920
355.000	0.58517	-0.65247	0.68006	-0.08753
356.000	0.58715	-0.64253	0.63459	-0.13925
357.000	0.61482	-0.65048	0.60494	-0.15517
358.000	0.59308	-0.65645	0.65041	-0.11140
359.000	0.58913	-0.65048	0.65041	-0.11140
360.000	0.60889	-0.66440	0.68599	-0.11339
361.000	0.56738	-0.67038	0.65831	-0.13527
362.000	0.56738	-0.71811	0.58517	-0.14323
363.000	0.54959	-0.63259	0.70575	-0.12532
364.000	0.56738	-0.63855	0.67413	-0.08753
365.000	0.59308	-0.61468	0.60494	-0.07758
366.000	0.60692	-0.66242	0.64645	-0.05172
367.000	0.58715	-0.67236	0.65041	-0.10941
368.000	0.59110	-0.64452	0.63657	-0.10543
369.000	0.58320	-0.64452	0.66029	-0.09151
370.000	0.59308	-0.63855	0.69587	-0.06963
371.000	0.59308	-0.64054	0.57331	-0.10543
372.000	0.59901	-0.66639	0.75517	-0.12930
373.000	0.64052	-0.65048	0.60296	-0.05570
374.000	0.64052	-0.69026	0.68599	-0.14124
375.000	0.60692	-0.67435	0.69389	-0.11140
376.000	0.65238	-0.65445	0.64645	-0.17705
377.000	0.58517	-0.68032	0.60099	-0.16114
378.000	0.58122	-0.67634	0.63064	-0.10543
379.000	0.57133	-0.62662	0.58122	-0.14920
380.000	0.51203	-0.63856	0.57529	-0.12334
381.000	0.44284	-0.63260	0.53378	-0.07162
382.000	0.43691	-0.61867	0.49819	-0.10941
383.000	0.34993	-0.65846	0.32225	-0.09549
384.000	0.22538	-0.68234	0.34597	-0.10544
385.000	0.19770	-0.68035	0.27282	-0.08952
386.000	0.12455	-0.64256	0.26096	-0.12533
387.000	0.10676	-0.64853	0.15421	-0.09350
388.000	0.06920	-0.65450	0.09687	-0.11340
389.000	0.04349	-0.67837	0.11269	-0.07560
390.000	0.04943	-0.65649	0.13246	-0.10345
391.000	0.00593	-0.68036	0.02372	-0.12931
392.000	0.04943	-0.61471	0.08501	-0.08356
393.000	0.02966	-0.68632	0.10083	-0.14921
394.000	0.11269	-0.67439	0.17002	-0.15716
395.000	0.15223	-0.68632	0.26492	-0.15915
396.000	0.18781	-0.68831	0.32225	-0.11340
397.000	0.25899	-0.71416	0.35190	-0.14125
398.000	0.30248	-0.76588	0.50017	-0.16512
399.000	0.28469	-0.78975	0.43296	-0.16114
400.000	0.37167	-0.71813	0.44877	-0.18302
401.000	0.36376	-0.73803	0.37760	-0.11538
402.000	0.35783	-0.73604	0.42505	-0.12135
403.000	0.36179	-0.75991	0.42109	-0.15915
404.000	0.38946	-0.75394	0.42505	-0.19894
405.000	0.36574	-0.71018	0.47249	-0.12732
406.000	0.34795	-0.72012	0.46459	-0.17109
407.000	0.37167	-0.74797	0.46261	-0.08952
408.000	0.35190	-0.73007	0.40133	-0.18501
409.000	0.35586	-0.73206	0.44086	-0.13727
410.000	0.35981	-0.76786	0.41714	-0.13329
411.000	0.30643	-0.74798	0.36969	-0.09748
412.000	0.31829	-0.67438	0.43296	-0.05769
413.000	0.32620	-0.68034	0.35388	-0.09151
414.000	0.30841	-0.70223	0.42505	-0.07759
415.000	0.31434	-0.69029	0.33411	-0.09748
416.000	0.31632	-0.68631	0.40330	-0.15915
417.000	0.34004	-0.71416	0.34399	-0.01592
418.000	0.27678	-0.71018	0.33806	-0.07958
419.000	0.29852	-0.70819	0.37167	-0.06963
420.000	0.29852	-0.66443	0.37365	-0.15318
421.000	0.28073	-0.68830	0.32225	-0.02785
422.000	0.31434	-0.68035	0.34004	-0.05968
423.000	0.29062	-0.68631	0.32027	-0.08355
424.000	0.28666	-0.66642	0.32422	-0.12931
425.000	0.29852	-0.71615	0.28864	-0.05968
426.000	0.25503	-0.68831	0.36376	-0.09151
427.000	0.28271	-0.70422	0.36179	-0.14523
428.000	0.31236	-0.68830	0.34993	-0.11141
429.000	0.26294	-0.71217	0.30248	-0.06565
430.000	0.25503	-0.72411	0.30841	-0.05371
431.000	0.27282	-0.70422	0.31434	-0.04178
432.000	0.26294	-0.71814	0.34399	-0.03382
433.000	0.28666	-0.69626	0.31236	-0.03382
434.000	0.23526	-0.72809	0.31632	-0.07560
435.000	0.23329	-0.72411	0.38551	-0.03382
436.000	0.25899	-0.70621	0.30446	-0.08356
437.000	0.23329	-0.75991	0.34004	-0.15915
438.000	0.30248	-0.76389	0.32027	-0.09151
439.000	0.23724	-0.72013	0.40923	-0.13528
440.000	0.23724	-0.72610	0.30248	-0.05769
441.000	0.24515	-0.72411	0.38353	-0.10544
442.000	0.25503	-0.68831	0.46459	-0.13926
443.000	0.28073	-0.73405	0.38749	-0.17507
444.000	0.29062	-0.72809	0.37563	-0.13727
445.000	0.25701	-0.72013	0.36376	-0.17507
446.000	0.25108	-0.75395	0.37958	-0.14523
447.000	0.25305	-0.77781	0.46854	-0.10146
448.000	0.27085	-0.73405	0.42505	-0.09151
449.000	0.29457	-0.74798	0.37167	-0.11340
450.000	0.27282	-0.71018	0.38946	-0.08952
451.000	0.27876	-0.71814	0.34993	-0.13130
452.000	0.26096	-0.75395	0.35388	-0.11538
453.000	0.28864	-0.73405	0.38156	-0.12533
454.000	0.28469	-0.74002	0.37958	-0.12732
455.000	0.22340	-0.71615	0.30841	-0.06963
456.000	0.25305	-0.72411	0.31434	-0.08554
457.000	0.25305	-0.74599	0.41121	-0.10743
458.000	0.27480	-0.74400	0.29062	-0.11141
459.000	0.25899	-0.74599	0.31632	-0.04775
460.000	0.28469	-0.76588	0.38551	-0.17507
461.000	0.25899	-0.73405	0.35586	-0.13727
462.000	0.22340	-0.73406	0.34795	-0.04973
463.000	0.29062	-0.69825	0.32225	-0.06565
464.000	0.26887	-0.75196	0.38946	-0.07759
465.000	0.27282	-0.72809	0.38946	-0.06565
466.000	0.28073	-0.74997	0.32422	-0.12931
467.000	0.26096	-0.75593	0.34004	-0.04576
468.000	0.27876	-0.71217	0.33213	-0.16313
469.000	0.25503	-0.75991	0.33806	-0.07162
470.000	0.23131	-0.74002	0.40726	-0.10942
471.000	0.27876	-0.77980	0.42900	-0.13926
472.000	0.26689	-0.78776	0.37167	-0.14523
473.000	0.23329	-0.75991	0.40330	-0.09350
474.000	0.22538	-0.76986	0.36376	-0.15915
475.000	0.24317	-0.74599	0.34795	-0.10942
476.000	0.23724	-0.74798	0.35586	-0.09947
477.000	0.22933	-0.76588	0.26096	-0.13926
478.000	0.23724	-0.76190	0.34004	-0.09350
479.000	0.20165	-0.77782	0.38551	-0.11737
480.000	0.25701	-0.77185	0.31632	-0.13130
481.000	0.28073	-0.74201	0.34795	-0.07162
482.000	0.22933	-0.74400	0.31434	-0.10743
483.000	0.28469	-0.75394	0.34993	-0.07162
484.000	0.28271	-0.75195	0.30643	-0.06167
485.000	0.25503	-0.76986	0.32225	-0.10345
486.000	0.26689	-0.77185	0.28864	-0.10146
487.000	0.26096	-0.80367	0.32225	-0.10544
488.000	0.27480	-0.75991	0.28469	-0.06167
489.000	0.25701	-0.75593	0.30841	-0.03183
490.000	0.27282	-0.79969	0.34399	-0.09151
491.000	0.26887	-0.78975	0.30643	-0.13528
492.000	0.28271	-0.77582	0.38551	-0.07560
493.000	0.30248	-0.77383	0.30841	-0.09151
494.000	0.31829	-0.80367	0.35388	-0.09151
495.000	0.31632	-0.76389	0.32422	-0.05968
496.000	0.31039	-0.74599	0.33213	-0.09350
497.000	0.28864	-0.76787	0.29062	-0.09151
498.000	0.31829	-0.73803	0.38353	-0.09549
499.000	0.26689	-0.77384	0.42307	-0.13528
500.000	0.23329	-0.78577	0.38156	-0.06366
501.000	0.28271	-0.80168	0.34795	-0.06764
502.000	0.25108	-0.78776	0.42900	-0.11737
503.000	0.23329	-0.79771	0.33016	-0.13329
504.000	0.22538	-0.77782	0.32422	-0.09748
505.000	0.26096	-0.82754	0.40726	-0.08156
506.000	0.26096	-0.81958	0.39935	-0.11737
507.000	0.28469	-0.78378	0.36969	-0.17308
508.000	0.28864	-0.77582	0.45470	-0.09350
509.000	0.28666	-0.83152	0.33609	-0.07560
510.000	0.30446	-0.82953	0.31236	-0.07560
511.000	0.29259	-0.80765	0.37563	-0.16910
512.000	0.29062	-0.80964	0.47249	-0.14721
513.000	0.27282	-0.82953	0.39539	-0.09350
514.000	0.25108	-0.83550	0.33609	-0.15716
515.000	0.31434	-0.85140	0.29852	-0.13926
516.000	0.26096	-0.86533	0.38156	-0.11141
517.000	0.28666	-0.81759	0.31632	-0.14523
518.000	0.27480	-0.82953	0.26492	-0.11738
519.000	0.28469	-0.83549	0.35388	-0.12334
520.000	0.24910	-0.79572	0.34202	-0.08952
521.000	0.28666	-0.79969	0.39737	-0.12135
522.000	0.29259	-0.79372	0.45272	-0.11737
523.000	0.32422	-0.82952	0.36772	-0.07560
524.000	0.29457	-0.78179	0.40133	-0.08355
525.000	0.30050	-0.77781	0.41121	-0.03979
526.000	0.30841	-0.74002	0.29259	-0.08356
527.000	0.29655	-0.80765	0.40133	-0.09350
528.000	0.33016	-0.77383	0.42307	-0.08156
529.000	0.30643	-0.78975	0.32818	-0.07958
530.000	0.31632	-0.80963	0.36179	-0.09947
531.000	0.27678	-0.79174	0.39539	-0.13329
532.000	0.32422	-0.75195	0.34795	-0.10345
533.000	0.32620	-0.81162	0.35388	-0.10544
534.000	0.33411	-0.76587	0.39342	-0.09151
535.000	0.28666	-0.78577	0.37365	-0.14523
536.000	0.30841	-0.82555	0.34399	-0.05570
537.000	0.32225	-0.77184	0.29852	-0.14324
538.000	0.35388	-0.80963	0.42505	-0.16313
539.000	0.30446	-0.84544	0.38156	-0.15716
540.000	0.32620	-0.82157	0.42702	-0.07759
541.000	0.31829	-0.76389	0.43493	-0.08554
542.000	0.33609	-0.77980	0.40726	-0.09549
543.000	0.32422	-0.80963	0.37760	-0.08554
544.000	0.34795	-0.76388	0.38353	-0.16512
545.000	0.33806	-0.83549	0.43691	-0.06963
546.000	0.29457	-0.83549	0.46656	-0.08355
547.000	0.31829	-0.82157	0.38749	-0.09947
548.000	0.32620	-0.84544	0.50017	-0.18103
549.000	0.30841	-0.85538	0.33016	-0.12334
550.000	0.29852	-0.84942	0.44086	-0.08355
551.000	0.31632	-0.82754	0.40133	-0.14125
552.000	0.31039	-0.84743	0.38946	-0.08355
553.000	0.31236	-0.88124	0.40133	-0.11141
554.000	0.28666	-0.81560	0.44086	-0.15517
555.000	0.28073	-0.83947	0.36969	-0.06764
556.000	0.27480	-0.86334	0.39737	-0.10345
557.000	0.28469	-0.83947	0.48040	-0.06963
558.000	0.27085	-0.83748	0.44679	-0.10743
559.000	0.32225	-0.81361	0.38156	-0.09947
560.000	0.31434	-0.77781	0.49226	-0.06764
561.000	0.33806	-0.78378	0.41714	-0.07361
562.000	0.28469	-0.80566	0.41912	-0.11339
563.000	0.31829	-0.75593	0.38156	-0.05570
564.000	0.29655	-0.77184	0.42505	-0.09151
565.000	0.32620	-0.78577	0.45075	-0.00398
566.000	0.29457	-0.81361	0.42702	-0.06565
567.000	0.33213	-0.78974	0.49028	-0.00796
568.000	0.34795	-0.79571	0.45272	-0.07162
569.000	0.30446	-0.81162	0.44679	-0.10743
570.000	0.33411	-0.81958	0.46459	-0.10743
571.000	0.32620	-0.81958	0.38156	-0.13130
572.000	0.30050	-0.82157	0.41912	-0.05172
573.000	0.32225	-0.82754	0.41912	-0.07560
574.000	0.31632	-0.79372	0.44086	-0.12334
575.000	0.30050	-0.83151	0.39935	-0.04576
576.000	0.28469	-0.80168	0.41121	-0.07361
577.000	0.28073	-0.80964	0.34004	-0.05371
578.000	0.31829	-0.81958	0.35981	-0.07958
579.000	0.26887	-0.79969	0.45470	-0.05968
580.000	0.30446	-0.80367	0.39539	-0.06764
581.000	0.27085	-0.78577	0.39539	-0.03979
582.000	0.26294	-0.80765	0.36574	-0.03581
583.000	0.28864	-0.79571	0.37167	-0.06366
584.000	0.27282	-0.77582	0.37760	-0.02785
585.000	0.32620	-0.82952	0.44086	-0.04178
586.000	0.31434	-0.80963	0.40528	-0.02984
587.000	0.32620	-0.74002	0.42505	0.02984
588.000	0.29259	-0.81361	0.36969	0.01592
589.000	0.28469	-0.80367	0.34795	-0.01989
590.000	0.31829	-0.78577	0.38749	0.02984
591.000	0.31632	-0.75195	0.42505	-0.07361
592.000	0.34202	-0.76786	0.37167	0.02387
593.000	0.31039	-0.79571	0.39737	-0.00398
594.000	0.32225	-0.81560	0.43296	-0.04576
595.000	0.35783	-0.74399	0.41319	-0.01790
596.000	0.35190	-0.77980	0.41714	0.00995
597.000	0.35190	-0.78974	0.37365	-0.01592
598.000	0.30841	-0.82754	0.44086	-0.04775
599.000	0.31829	-0.79969	0.47645	-0.10942
600.000	0.28666	-0.82356	0.44877	-0.11936
601.000	0.32620	-0.81361	0.44284	-0.07162
602.000	0.30050	-0.82356	0.42702	-0.12931
603.000	0.32225	-0.77980	0.47447	-0.04377
604.000	0.33213	-0.80764	0.47249	-0.15119
605.000	0.32225	-0.84146	0.48238	-0.10942
606.000	0.35388	-0.84941	0.45865	-0.13727
607.000	0.32027	-0.84345	0.50412	-0.13329
608.000	0.32027	-0.82952	0.46063	-0.16114
609.000	0.30841	-0.85936	0.43691	-0.17904
610.000	0.33609	-0.88322	0.44679	-0.11140
611.000	0.32620	-0.87925	0.43493	-0.20093
612.000	0.29259	-0.88124	0.47052	-0.05371
613.000	0.33806	-0.81361	0.41714	-0.07759
614.000	0.32422	-0.86334	0.48633	-0.11140
615.000	0.32620	-0.85339	0.50610	-0.04774
616.000	0.34399	-0.81958	0.44086	-0.15119
617.000	0.30841	-0.87129	0.39935	-0.09151
618.000	0.32225	-0.86533	0.39539	-0.08355
619.000	0.32422	-0.86930	0.35190	-0.03979
620.000	0.32422	-0.86930	0.38749	-0.13926
621.000	0.34004	-0.83947	0.39342	-0.04775
622.000	0.28864	-0.88920	0.52982	0.00398
623.000	0.32620	-0.88521	0.42505	-0.04973
624.000	0.36772	-0.85140	0.44284	-0.11737
625.000	0.37563	-0.86532	0.37958	-0.04973
626.000	0.38946	-0.84742	0.39539	-0.00398
627.000	0.34795	-0.83549	0.45075	-0.08952
628.000	0.36574	-0.81759	0.50412	-0.00398
629.000	0.37167	-0.82554	0.50808	-0.09151
630.000	0.36969	-0.85737	0.42900	-0.01790
631.000	0.38551	-0.84742	0.50808	-0.05371
632.000	0.37563	-0.86930	0.49622	-0.05371
633.000	0.38946	-0.87526	0.44284	-0.03780
634.000	0.31632	-0.85936	0.43493	-0.02785
635.000	0.39342	-0.84742	0.43098	-0.06764
636.000	0.36179	-0.84941	0.43691	-0.01592
637.000	0.36376	-0.84742	0.46459	-0.00199
638.000	0.36772	-0.83350	0.41912	-0.02586
639.000	0.35190	-0.84941	0.45865	-0.11339
640.000	0.38156	-0.87725	0.44679	-0.05172
641.000	0.34795	-0.86333	0.40330	-0.10146
642.000	0.34004	-0.86532	0.42307	-0.06565
643.000	0.34597	-0.86731	0.40330	-0.07361
644.000	0.31236	-0.84544	0.41714	-0.08355
645.000	0.34399	-0.86333	0.43493	-0.03382
646.000	0.34795	-0.84941	0.50610	-0.11936
647.000	0.31236	-0.84941	0.47645	-0.15119
648.000	0.31039	-0.82754	0.42702	-0.00398
649.000	0.37167	-0.82355	0.44482	-0.06764
650.000	0.34202	-0.81560	0.48831	-0.07560
651.000	0.32225	-0.80963	0.44284	-0.14323
652.000	0.33609	-0.80168	0.48633	-0.00597
653.000	0.30050	-0.79571	0.48238	-0.06963
654.000	0.35190	-0.77184	0.51796	-0.06366
655.000	0.34993	-0.81162	0.46261	-0.10942
656.000	0.34993	-0.80764	0.41121	-0.07162
657.000	0.35981	-0.78775	0.41714	-0.01592
658.000	0.38749	-0.75990	0.42900	-0.01592
659.000	0.34597	-0.78775	0.48831	-0.00995
660.000	0.35981	-0.79969	0.47052	-0.06167
661.000	0.34597	-0.79969	0.49226	-0.08554
662.000	0.31039	-0.83151	0.47842	-0.09748
663.000	0.33411	-0.80764	0.43098	-0.02387
664.000	0.32027	-0.82356	0.43493	-0.03581
665.000	0.30248	-0.79372	0.46063	0.02188
666.000	0.31829	-0.80765	0.52389	-0.02586
667.000	0.31829	-0.83947	0.44482	0.01592
668.000	0.31039	-0.78577	0.46261	-0.04774
669.000	0.32620	-0.79372	0.48238	-0.00796
670.000	0.31829	-0.82754	0.39342	-0.02586
671.000	0.31829	-0.82754	0.39737	-0.06565
672.000	0.31236	-0.76389	0.50610	-0.04774
673.000	0.34004	-0.80764	0.36179	-0.00995
674.000	0.35586	-0.78576	0.46063	-0.09350
675.000	0.33016	-0.79770	0.45470	-0.10345
676.000	0.35388	-0.76786	0.39342	-0.06565
677.000	0.38551	-0.80565	0.41714	-0.05769
678.000	0.34795	-0.86333	0.45865	-0.10743
679.000	0.36772	-0.80764	0.44086	-0.06764
680.000	0.32818	-0.82753	0.39342	-0.04576
681.000	0.38156	-0.77979	0.50808	-0.07162
682.000	0.36969	-0.84145	0.49424	-0.03183
683.000	0.35981	-0.78178	0.51203	-0.08355
684.000	0.37365	-0.76985	0.48040	-0.03780
685.000	0.38551	-0.81560	0.38749	0.00199
686.000	0.36179	-0.77582	0.46063	-0.06565
687.000	0.33411	-0.78576	0.41121	-0.06167
688.000	0.34202	-0.75991	0.42505	-0.06167
689.000	0.35586	-0.77582	0.48633	-0.01989
690.000	0.36969	-0.80565	0.40528	-0.03979
691.000	0.35981	-0.79173	0.47447	-0.07361
692.000	0.36376	-0.78576	0.52587	-0.02188
693.000	0.34993	-0.78775	0.44877	-0.04178
694.000	0.38946	-0.76388	0.39737	0.02188
695.000	0.40133	-0.78974	0.42307	-0.03382
696.000	0.33609	-0.82157	0.52784	-0.06366
697.000	0.36772	-0.79372	0.44679	-0.11339
698.000	0.34795	-0.83549	0.44877	0.00995
699.000	0.32818	-0.79571	0.46063	-0.06366
700.000	0.37760	-0.76388	0.43889	-0.05968
701.000	0.34993	-0.79571	0.48238	-0.02188
702.000	0.32818	-0.81361	0.45668	-0.00995
703.000	0.33016	-0.81560	0.48040	-0.04377
704.000	0.34399	-0.82952	0.51598	-0.04973
705.000	0.34795	-0.83947	0.39935	-0.02188
706.000	0.38156	-0.82355	0.53180	-0.07361
707.000	0.38156	-0.79372	0.46459	-0.11538
708.000	0.36969	-0.80366	0.52784	-0.03183
709.000	0.36772	-0.78974	0.49622	-0.06366
710.000	0.34993	-0.79372	0.46063	-0.04576
711.000	0.32422	-0.80963	0.46459	-0.07162
712.000	0.35783	-0.78576	0.51401	-0.04178
713.000	0.35586	-0.79969	0.41714	-0.06963
714.000	0.33609	-0.79372	0.44482	-0.05570
715.000	0.35783	-0.82753	0.43889	-0.06167
716.000	0.33609	-0.81759	0.39144	-0.03780
717.000	0.31434	-0.81759	0.49424	-0.08156
718.000	0.34597	-0.80963	0.46063	-0.06764
719.000	0.34004	-0.81361	0.51401	-0.09947
720.000	0.33609	-0.80963	0.52982	0.01989
721.000	0.35190	-0.83748	0.49028	-0.04377
722.000	0.39144	-0.82554	0.51401	-0.10544
723.000	0.33806	-0.83549	0.49819	-0.07162
724.000	0.29655	-0.84146	0.53378	-0.06963
725.000	0.31632	-0.85140	0.54168	-0.07361
726.000	0.29655	-0.82356	0.48238	-0.04576
727.000	0.32225	-0.84742	0.54168	-0.19496
728.000	0.31039	-0.81162	0.50412	-0.15517
729.000	0.35388	-0.84543	0.55157	-0.07758
730.000	0.34004	-0.84146	0.45470	-0.06565
731.000	0.31039	-0.85737	0.49424	-0.06167
732.000	0.35190	-0.81759	0.51598	-0.05968
733.000	0.32620	-0.84544	0.48238	-0.06366
734.000	0.35981	-0.80167	0.60099	-0.08355
735.000	0.30643	-0.82157	0.56738	-0.02785
736.000	0.32027	-0.83350	0.44482	-0.07958
737.000	0.30643	-0.82356	0.52191	-0.03183
738.000	0.31434	-0.82157	0.51401	-0.06565
739.000	0.33213	-0.79173	0.54366	-0.04973
740.000	0.35783	-0.81759	0.49028	-0.03780
741.000	0.32225	-0.82157	0.43691	-0.06764
742.000	0.34993	-0.79969	0.48435	-0.01591
743.000	0.35190	-0.76786	0.48238	0.00597
744.000	0.36772	-0.80366	0.54564	-0.03581
745.000	0.38353	-0.76985	0.44482	-0.00995
746.000	0.34993	-0.77184	0.43691	-0.02586
747.000	0.31632	-0.72808	0.44284	0.07162
748.000	0.32027	-0.77184	0.42900	0.03979
749.000	0.34202	-0.74399	0.47249	0.00995
750.000	0.34795	-0.77781	0.52389	-0.08554
751.000	0.31039	-0.81361	0.45075	-0.00597
752.000	0.32422	-0.78577	0.49622	-0.09947
753.000	0.30643	-0.79571	0.50017	-0.06565
754.000	0.31039	-0.76985	0.49028	-0.08355
755.000	0.34597	-0.73206	0.57331	-0.10941
756.000	0.35783	-0.80764	0.53971	-0.11339
757.000	0.31434	-0.71416	0.47447	-0.10146
758.000	0.31236	-0.73604	0.52191	-0.09947
759.000	0.34202	-0.74201	0.50610	-0.04377
760.000	0.33411	-0.75593	0.53378	-0.08753
761.000	0.30050	-0.77781	0.53575	-0.08554
762.000	0.32818	-0.77980	0.54366	-0.09151
763.000	0.30050	-0.79372	0.48435	-0.06167
764.000	0.29852	-0.76389	0.53575	-0.09350
765.000	0.30841	-0.73206	0.47447	-0.07957
766.000	0.31039	-0.74797	0.48040	-0.07162
767.000	0.30841	-0.74599	0.47842	-0.04178
768.000	0.29259	-0.72809	0.49226	-0.11339
769.000	0.30248	-0.72610	0.56145	-0.08554
770.000	0.29457	-0.67836	0.45272	-0.11936
771.000	0.34004	-0.75394	0.53180	-0.10345
772.000	0.30841	-0.74599	0.56343	-0.06963
773.000	0.29457	-0.73007	0.51401	-0.03382
774.000	0.30643	-0.74599	0.45668	-0.05968
775.000	0.29259	-0.75394	0.49028	-0.07162
776.000	0.32027	-0.70620	0.51401	-0.03382
777.000	0.30446	-0.70819	0.42307	-0.13130
778.000	0.31632	-0.68035	0.53971	-0.06764
779.000	0.27085	-0.71416	0.56145	-0.08156
780.000	0.33411	-0.71217	0.45470	-0.14522
781.000	0.30841	-0.68830	0.51796	-0.04973
782.000	0.28864	-0.67637	0.45470	-0.04576
783.000	0.31632	-0.70819	0.47842	-0.09350
784.000	0.29655	-0.70024	0.52389	-0.09748
785.000	0.28073	-0.75593	0.54366	-0.07361
786.000	0.32818	-0.68830	0.50610	-0.01989
787.000	0.28864	-0.73803	0.52982	-0.08355
788.000	0.27480	-0.68830	0.46261	-0.03979
789.000	0.30050	-0.73007	0.48831	-0.04774
790.000	0.25701	-0.74002	0.46854	-0.04576
791.000	0.28666	-0.72013	0.43493	-0.03979
792.000	0.31434	-0.74599	0.50215	-0.02586
793.000	0.32620	-0.73405	0.50017	-0.00796
794.000	0.27282	-0.79373	0.54761	-0.01393
795.000	0.30248	-0.76190	0.47052	-0.05570
796.000	0.32422	-0.72013	0.47249	-0.05968
797.000	0.32225	-0.72609	0.44482	-0.13528
798.000	0.32027	-0.74996	0.56145	-0.07758
799.000	0.33609	-0.73206	0.43889	-0.06167
800.000	0.31434	-0.73405	0.53575	-0.10345
801.000	0.35783	-0.71018	0.46459	-0.09151
802.000	0.35981	-0.74200	0.51005	-0.05570
803.000	0.34399	-0.74201	0.49226	-0.10146
804.000	0.35981	-0.74598	0.48238	-0.00597
805.000	0.35388	-0.71018	0.51005	-0.01989
806.000	0.36179	-0.72012	0.56540	-0.01989
807.000	0.38353	-0.74797	0.56540	-0.03183
808.000	0.38353	-0.70620	0.50808	-0.07758
809.000	0.38156	-0.69029	0.45272	-0.05570
810.000	0.35981	-0.79571	0.54959	-0.08554
811.000	0.39342	-0.70421	0.51401	-0.10146
812.000	0.38551	-0.71018	0.49028	-0.03979
813.000	0.37563	-0.71018	0.50808	-0.07758
814.000	0.39737	-0.75393	0.48633	-0.08554
815.000	0.41912	-0.69426	0.50412	-0.09549
816.000	0.37958	-0.73206	0.49622	-0.04973
817.000	0.41516	-0.73802	0.38353	0.00995
818.000	0.39935	-0.72609	0.46063	-0.11737
819.000	0.40133	-0.70620	0.46656	-0.05371
820.000	0.40726	-0.74200	0.42702	-0.06963
821.000	0.37167	-0.71217	0.46063	-0.10544
822.000	0.38749	-0.71813	0.47842	0.00597
823.000	0.36179	-0.72410	0.42505	-0.09549
824.000	0.37365	-0.74001	0.45668	-0.01393
825.000	0.37365	-0.74399	0.40923	-0.10146
826.000	0.36574	-0.73206	0.44284	-0.01790
827.000	0.33806	-0.74598	0.50808	-0.04774
828.000	0.35783	-0.71018	0.57924	-0.05371
829.000	0.34399	-0.74002	0.44679	-0.05570
830.000	0.29259	-0.73405	0.44877	-0.05968
831.000	0.32027	-0.73405	0.35190	-0.09748
832.000	0.34597	-0.76388	0.39935	-0.06366
833.000	0.33609	-0.73803	0.47842	-0.12931
834.000	0.36574	-0.75990	0.48831	-0.09151
835.000	0.32225	-0.71814	0.45470	-0.02984
836.000	0.36376	-0.70023	0.43493	-0.09549
837.000	0.35981	-0.76985	0.44877	-0.07361
838.000	0.37365	-0.70421	0.43296	-0.09748
839.000	0.34597	-0.70620	0.44482	-0.02188
840.000	0.35586	-0.68233	0.36574	-0.06764
841.000	0.33609	-0.69029	0.48633	-0.07560
842.000	0.35586	-0.72211	0.46063	-0.05769
843.000	0.37563	-0.72808	0.43889	-0.05968
844.000	0.37167	-0.65050	0.42505	-0.06366
845.000	0.36969	-0.68233	0.42109	-0.11339
846.000	0.36772	-0.64653	0.48633	-0.06565
847.000	0.39144	-0.67835	0.44482	-0.10544
848.000	0.39737	-0.68432	0.47447	-0.04774
849.000	0.33411	-0.68432	0.44877	-0.02586
850.000	0.37958	-0.66244	0.44284	-0.01194
851.000	0.41121	-0.64254	0.47645	-0.08554
852.000	0.34597	-0.63857	0.44482	-0.05769
853.000	0.37167	-0.65647	0.41516	-0.11936
854.000	0.34202	-0.67239	0.45075	-0.12135
855.000	0.33609	-0.68233	0.48040	-0.15915
856.000	0.34795	-0.65051	0.46261	-0.10544
857.000	0.34795	-0.63260	0.38156	-0.12533
858.000	0.33411	-0.66244	0.50412	-0.12135
859.000	0.32422	-0.60675	0.43889	-0.09350
860.000	0.35190	-0.64852	0.45668	-0.11538
861.000	0.35586	-0.60873	0.40528	-0.08952
862.000	0.39935	-0.64056	0.42109	-0.10146
863.000	0.34004	-0.61868	0.46063	-0.10942
864.000	0.33016	-0.58089	0.39539	-0.10743
865.000	0.41319	-0.60674	0.38156	-0.11141
866.000	0.39539	-0.58287	0.40528	-0.08554
867.000	0.34202	-0.59879	0.40133	-0.12931
868.000	0.36772	-0.57889	0.42109	-0.16512
869.000	0.35190	-0.56298	0.47645	-0.11936
870.000	0.37365	-0.57094	0.38551	-0.13926
871.000	0.37365	-0.59282	0.44086	-0.08156
872.000	0.37167	-0.59680	0.37958	-0.11538
873.000	0.37167	-0.58685	0.41714	-0.12931
874.000	0.36376	-0.64255	0.43889	-0.13926
875.000	0.36772	-0.61470	0.45865	-0.12732
876.000	0.33213	-0.62266	0.40726	-0.08355
877.000	0.32818	-0.62664	0.41319	-0.10544
878.000	0.36574	-0.59879	0.43296	-0.13130
879.000	0.35586	-0.62465	0.40528	-0.08156
880.000	0.41319	-0.63260	0.33609	-0.09151
881.000	0.36574	-0.59282	0.37563	-0.06963
882.000	0.38749	-0.58287	0.41516	-0.13528
883.000	0.39935	-0.59481	0.36376	-0.13528
884.000	0.35586	-0.57492	0.43889	-0.18501
885.000	0.36574	-0.58287	0.44877	-0.09748
886.000	0.36376	-0.56298	0.52784	-0.09549
887.000	0.45272	-0.59480	0.60692	-0.04575
888.000	0.64052	-0.57489	0.64250	-0.14323
889.000	0.84017	-0.56293	0.82831	-0.10543
890.000	1.02398	-0.53307	1.09315	-0.00796
891.000	1.26508	-0.50518	1.30064	0.07359
892.000	1.57330	-0.45341	1.52589	0.25853
893.000	1.79256	-0.43149	1.88538	0.21275
894.000	2.16181	-0.37971	2.14207	0.23658
895.000	2.47762	-0.29813	2.38289	0.28225
896.000	2.80313	-0.26229	2.63941	0.35573
897.000	3.07721	-0.17084	3.00821	0.24238
898.000	3.40040	-0.09930	3.21912	0.29794
899.000	3.57373	0.00000	3.37676	0.34754
900.000	3.71353	0.01588	3.56586	0.37328
901.000	3.80212	0.04169	3.77259	0.32953
902.000	3.88675	0.11909	3.85919	0.35927
903.000	3.96545	0.15480	3.91233	0.33146
904.000	3.99300	0.17663	4.01267	0.35325
905.000	4.05595	0.23615	3.98906	0.37310
906.000	4.09136	0.21629	3.95758	0.39495
907.000	4.09136	0.19844	3.99693	0.35524
908.000	4.13856	0.27184	4.03235	0.44651
909.000	4.24278	0.32339	4.20346	0.45236
910.000	4.30570	0.32931	4.18576	0.51586
911.000	4.44328	0.33322	4.22312	0.59122
912.000	4.54938	0.40258	4.26441	0.63086
913.000	4.67706	0.43423	4.19166	0.76582
914.000	4.71044	0.47782	4.33322	0.70221
915.000	4.78505	0.50553	4.44132	0.77152
916.000	4.80076	0.48371	4.44918	0.77548
917.000	4.76738	0.57690	4.50616	0.85870
918.000	4.78113	0.57293	4.57492	0.77931
919.000	4.67117	0.56112	4.55921	0.88243
920.000	4.65545	0.62260	4.47669	0.84089
921.000	4.57296	0.61870	4.42363	0.88061
922.000	4.50616	0.53547	4.39612	0.81123
923.000	4.48062	0.54541	4.39808	0.83899
924.000	4.49241	0.54738	4.38236	0.78546
925.000	4.48455	0.53549	4.42756	0.73980
926.000	4.47079	0.48790	4.38629	0.78546
927.000	4.44132	0.44032	4.37056	0.74184
928.000	4.44721	0.40660	4.32535	0.74586
929.000	4.48848	0.46607	4.47079	0.71993
930.000	4.52974	0.41449	4.40594	0.64066
931.000	4.52581	0.34706	4.41577	0.64859
932.000	4.60242	0.35099	4.40987	0.72991
933.000	4.58278	0.36092	4.46293	0.67829
934.000	4.59849	0.39263	4.44721	0.62873
935.000	4.66527	0.43027	4.41970	0.61685
936.000	4.68688	0.43620	4.51402	0.65643
937.000	4.66724	0.41837	4.62207	0.71185
938.000	4.68099	0.44017	4.53170	0.74366
939.000	4.72419	0.47385	4.51205	0.70997
940.000	4.76738	0.47382	4.54742	0.72580
941.000	4.75168	0.49365	4.51598	0.68419
942.000	4.77916	0.50949	4.48651	0.76949
943.000	4.77131	0.47382	4.59064	0.71188
944.000	4.75364	0.51150	4.56706	0.69802
945.000	4.80468	0.50551	4.57689	0.75353
946.000	4.79683	0.49759	4.59064	0.73369
947.000	4.84198	0.51143	4.48258	0.75363
948.000	4.85376	0.51737	4.49241	0.73379
949.000	4.83020	0.51342	4.51991	0.74368
950.000	4.85376	0.55503	4.55921	0.72976
951.000	4.83413	0.49756	4.62796	0.70391
952.000	4.79880	0.51146	4.54545	0.69606
953.000	4.81057	0.54912	4.62599	0.75348
954.000	4.81646	0.51740	4.54545	0.67227
955.000	4.79880	0.54120	4.64171	0.70588
956.000	4.82039	0.58479	4.62207	0.70590
957.000	4.85180	0.55701	4.56314	0.64052
958.000	4.78898	0.51940	4.57689	0.69207
959.000	4.76149	0.53330	4.47669	0.71398
960.000	4.77327	0.53130	4.49241	0.64852
961.000	4.78113	0.54716	4.44328	0.59502
962.000	4.76542	0.58483	4.53956	0.66434
963.000	4.79094	0.50156	4.47079	0.67829
964.000	4.78505	0.58085	4.57099	0.67224
965.000	4.79683	0.56102	4.48455	0.63464
966.000	4.72222	0.52540	4.58671	0.64447
967.000	4.78113	0.51148	4.47865	0.69018
968.000	4.77131	0.52536	4.61421	0.66229
969.000	4.75953	0.56502	4.55528	0.62269
970.000	4.78505	0.59076	4.47472	0.64457
971.000	4.74186	0.57098	4.48258	0.68422
972.000	4.75757	0.55114	4.48455	0.63464
973.000	4.75560	0.57691	4.48848	0.65051
974.000	4.79683	0.57490	4.46883	0.65251
975.000	4.80665	0.52731	4.41773	0.63272
976.000	4.74971	0.52736	4.43149	0.67436
977.000	4.79683	0.53525	4.46883	0.69217
978.000	4.72811	0.53332	4.45311	0.63864
979.000	4.76149	0.52338	4.39415	0.65456
980.000	4.78898	0.54913	4.49634	0.66636
981.000	4.74382	0.55908	4.39218	0.69621
982.000	4.77327	0.58879	4.44328	0.66443
983.000	4.76935	0.49562	4.45900	0.62277
984.000	4.76346	0.49365	4.45507	0.64459
985.000	4.78113	0.56698	4.40398	0.66645
986.000	4.74579	0.50952	4.34305	0.64270
987.000	4.78113	0.51544	4.45704	0.59500
988.000	4.80076	0.56300	4.49437	0.58506
989.000	4.81057	0.57092	4.40398	0.59505
990.000	4.81450	0.52533	4.48651	0.58903
991.000	4.82824	0.55703	4.49241	0.61679
992.000	4.83806	0.60261	4.55528	0.63062
993.000	4.83609	0.57090	4.47669	0.61085
994.000	4.86357	0.51538	4.52777	0.55925
995.000	4.84395	0.57882	4.46293	0.60690
996.000	4.86946	0.57880	4.52384	0.55529
997.000	4.86357	0.53520	4.44525	0.62675
998.000	4.80861	0.54912	4.45114	0.60294
999.000	4.88320	0.57482	4.48651	0.52954
1000.000	4.87142	0.62438	4.55331	0.58501
1001.000	4.85572	0.55304	4.43542	0.55337
1002.000	4.90675	0.60057	4.54545	0.59493
1003.000	4.90479	0.60453	4.46490	0.53947
1004.000	4.91068	0.62038	4.38629	0.51969
1005.000	4.86750	0.56294	4.51009	0.58505
1006.000	4.86357	0.59664	4.47276	0.56524
1007.000	4.87731	0.64816	4.50420	0.52159
1008.000	4.87928	0.57483	4.49634	0.55531
1009.000	4.86750	0.58475	4.49437	0.59299
1010.000	4.88713	0.58077	4.51795	0.55529
1011.000	4.86161	0.59070	4.44918	0.52560
1012.000	4.87339	0.56294	4.47079	0.50575
1013.000	4.86161	0.64025	4.45704	0.57517
1014.000	4.90871	0.62633	4.43346	0.51569
1015.000	4.83806	0.58675	4.47865	0.55929
1016.000	4.82824	0.58082	4.47669	0.53351
1017.000	4.82235	0.56298	4.35484	0.56533
1018.000	4.86554	0.55700	4.43346	0.56527
1019.000	4.84983	0.60657	4.43542	0.56131
1020.000	4.83413	0.56297	4.50813	0.56323
1021.000	4.83020	0.60064	4.44525	0.47205
1022.000	4.79683	0.54714	4.44918	0.51171
1023.000	4.81254	0.57290	4.42559	0.54346
1024.000	4.79880	0.57291	4.51598	0.50770
1025.000	4.83217	0.57883	4.50616	0.47994
1026.000	4.84002	0.56099	4.52188	0.54934
1027.000	4.86357	0.59268	4.40201	0.58910
1028.000	4.86161	0.58277	4.48062	0.53351
1029.000	4.83413	0.61649	4.51205	0.48391
1030.000	4.86554	0.63628	4.46686	0.43634
1031.000	4.85965	0.54313	4.37646	0.49391
1032.000	4.80665	0.56498	4.40005	0.48200
1033.000	4.80861	0.59669	4.48455	0.45021
1034.000	4.84198	0.57882	4.48455	0.46409
1035.000	4.85965	0.55304	4.44328	0.49982
1036.000	4.83609	0.55108	4.41380	0.44034
1037.000	4.83609	0.51738	4.43346	0.49388
1038.000	4.83806	0.60261	4.40398	0.43638
1039.000	4.82039	0.53920	4.38432	0.51374
1040.000	4.82039	0.59470	4.47472	0.50773
1041.000	4.85769	0.58872	4.38432	0.59110
1042.000	4.85769	0.61250	4.34698	0.49988
1043.000	4.79291	0.55706	4.51009	0.55927
1044.000	4.84002	0.60063	4.40791	0.44629
1045.000	4.82235	0.57884	4.40398	0.58315
1046.000	4.85180	0.53323	4.43542	0.50181
1047.000	4.82628	0.56298	4.39415	0.56927
1048.000	4.87339	0.57087	4.38629	0.47010
1049.000	4.86554	0.56295	4.40987	0.48199
1050.000	4.85572	0.54512	4.43149	0.45818
1051.000	4.84002	0.56099	4.44132	0.49982
1052.000	4.84198	0.58279	4.40987	0.49389
1053.000	4.81254	0.60065	4.44132	0.43239
1054.000	4.88124	0.55500	4.44328	0.38875
1055.000	4.84983	0.53124	4.40594	0.51373
1056.000	4.88320	0.57284	4.44328	0.44032
1057.000	4.85965	0.60457	4.46490	0.53947
1058.000	4.84787	0.58873	4.37450	0.40862
1059.000	4.84395	0.58873	4.36270	0.46020
1060.000	4.83020	0.57883	4.39218	0.50580
1061.000	4.85180	0.59665	4.42953	0.44033
1062.000	4.84395	0.63036	4.43149	0.39074
1063.000	4.86946	0.64024	4.41970	0.43438
1064.000	4.88124	0.63230	4.42166	0.44628
1065.000	4.84591	0.60459	4.35681	0.40070
1066.000	4.87339	0.59663	4.40398	0.46414
1067.000	4.86750	0.58078	4.45507	0.45023
1068.000	4.90086	0.59859	4.39612	0.48993
1069.000	4.88909	0.58076	4.43935	0.43239
1070.000	4.84395	0.54909	4.46686	0.49584
1071.000	4.83217	0.60460	4.44132	0.40859
1072.000	4.84983	0.54908	4.43739	0.43239
1073.000	4.83217	0.52729	4.41380	0.42844
1074.000	4.86161	0.55700	4.40594	0.47009
1075.000	4.88909	0.57085	4.51009	0.43036
1076.000	4.88124	0.59068	4.34501	0.45823
1077.000	4.86750	0.62835	4.40201	0.39076
1078.000	4.86946	0.59267	4.52384	0.39069
1079.000	4.87339	0.61447	4.49044	0.41451
1080.000	4.86946	0.53916	4.42559	0.37289
1081.000	4.88124	0.58474	4.38629	0.39473
1082.000	4.87928	0.62041	4.42953	0.40264
1083.000	4.88124	0.60456	4.43346	0.44429
1084.000	4.88713	0.61050	4.37056	0.36895
1085.000	4.84983	0.61053	4.37843	0.40465
1086.000	4.82432	0.57289	4.40201	0.40464
1087.000	4.87535	0.63033	4.38039	0.43044
1088.000	4.84591	0.58873	4.38432	0.38680
1089.000	4.85769	0.58476	4.49830	0.38476
1090.000	4.82628	0.54117	4.42166	0.40463
1091.000	4.87731	0.59663	4.47276	0.38080
1092.000	4.86946	0.59862	4.48848	0.43831
1093.000	4.87142	0.59664	4.41970	0.40066
1094.000	4.84591	0.62044	4.43149	0.44429
1095.000	4.90283	0.62237	4.47669	0.43435
1096.000	4.92049	0.64614	4.42559	0.47801
1097.000	4.87339	0.64618	4.37253	0.48797
1098.000	4.87928	0.66005	4.46686	0.40461
1099.000	4.86946	0.59862	4.41970	0.47603
1100.000	4.84002	0.64027	4.38825	0.40862
1101.000	4.85572	0.58476	4.53170	0.35103
1102.000	4.81843	0.64029	4.43149	0.40859
1103.000	4.84198	0.62639	4.47276	0.40064
1104.000	4.80272	0.61652	4.40005	0.35704
1105.000	4.88516	0.61644	4.44918	0.38677
1106.000	4.80665	0.57092	4.38236	0.35506
1107.000	4.83806	0.57486	4.38236	0.34515
1108.000	4.85180	0.62837	4.41970	0.43637
1109.000	4.84787	0.58873	4.40005	0.47010
1110.000	4.89301	0.64617	4.41380	0.40067
1111.000	4.86357	0.58277	4.48062	0.36493
1112.000	4.86750	0.62241	4.45704	0.38874
1113.000	4.89301	0.57878	4.43149	0.39272
1114.000	4.84395	0.60261	4.39415	0.42051
1115.000	4.83413	0.58279	4.47865	0.39072
1116.000	4.87928	0.61447	4.41773	0.38877
1117.000	4.86554	0.58078	4.41380	0.48000
1118.000	4.86946	0.58276	4.34501	0.41062
1119.000	4.80468	0.60462	4.34894	0.38087
1120.000	4.84395	0.60657	4.47276	0.35899
1121.000	4.87928	0.65411	4.40594	0.38480
1122.000	4.88124	0.61447	4.42756	0.41058
1123.000	4.84591	0.61252	4.48062	0.42840
1124.000	4.85376	0.58674	4.44721	0.35702
1125.000	4.81254	0.61651	4.42166	0.35703
1126.000	4.83020	0.60857	4.40987	0.41852
1127.000	4.85180	0.53917	4.39808	0.43836
1128.000	4.89890	0.55697	4.30963	0.43246
1129.000	4.87142	0.59267	4.39612	0.36497
1130.000	4.83806	0.57486	4.41184	0.41455
1131.000	4.86554	0.56295	4.30766	0.45627
1132.000	4.87928	0.57284	4.47865	0.39865
1133.000	4.84983	0.55899	4.37450	0.41259
1134.000	4.83806	0.55108	4.41970	0.40066
1135.000	4.84002	0.55900	4.32929	0.42650
1136.000	4.87339	0.56690	4.35681	0.43640
1137.000	4.84395	0.61648	4.39415	0.37688
1138.000	4.85965	0.61845	4.44525	0.41652
1139.000	4.88909	0.57284	4.54349	0.40258
1140.000	4.94796	0.58864	4.50420	0.42442
1141.000	5.07549	0.65986	4.62992	0.43624
1142.000	5.31470	0.69328	4.83609	0.45791
1143.000	5.54003	0.79003	4.94208	0.52523
1144.000	5.79453	0.86685	5.09314	0.57662
1145.000	6.10940	0.96722	5.46559	0.77231
1146.000	6.46295	1.21159	5.70450	0.82939
1147.000	6.90565	1.45921	5.94125	1.03873
1148.000	7.33196	1.69052	6.16999	1.30322
1149.000	7.73999	1.83073	6.62491	1.48376
1150.000	8.12010	2.13591	6.90370	1.83416
1151.000	8.54590	2.34574	7.26388	1.93918
1152.000	8.93989	2.48843	7.62543	2.19950
1153.000	9.28297	2.71920	7.85254	2.36753
1154.000	9.56388	2.93423	8.09104	2.55686
1155.000	9.81553	3.16465	8.39311	2.67864
1156.000	10.01887	3.23495	8.46469	2.83128
1157.000	10.22197	3.34999	8.70051	2.86483
1158.000	10.27940	3.45277	8.79900	2.91898
1159.000	10.40185	3.52940	8.88008	2.97715
1160.000	10.48980	3.60246	8.99198	2.95468
1161.000	10.48789	3.54207	9.05947	2.88947
1162.000	10.53949	3.54733	9.15391	2.85540
1163.000	10.51083	3.53596	9.21171	2.79421
1164.000	10.45539	3.45668	9.12115	2.76552
1165.000	10.40567	3.42409	9.07682	2.69334
1166.000	10.26600	3.37099	9.04212	2.57597
1167.000	10.18558	3.35232	8.94568	2.51977
1168.000	10.02846	3.31101	8.94568	2.44131
1169.000	9.87886	3.26173	8.86464	2.42616
1170.000	9.66382	3.11915	8.72369	2.38782
1171.000	9.62538	3.13320	8.74300	2.33666
1172.000	9.46388	3.08968	8.60390	2.35716
1173.000	9.38885	3.05708	8.59230	2.30028
1174.000	9.33496	3.03210	8.57877	2.31215
1175.000	9.29838	3.01480	8.51497	2.34003
1176.000	9.24638	2.99762	8.51303	2.35772
1177.000	9.26564	2.98571	8.65028	2.37258
1178.000	9.26757	3.02877	8.58457	2.24533
1179.000	9.30030	2.98346	8.65994	2.37055
1180.000	9.32341	3.02829	8.80673	2.35785
1181.000	9.38692	3.01795	8.80286	2.42264
1182.000	9.47927	3.04258	8.85499	2.50470
1183.000	9.57926	3.06125	8.87815	2.58694
1184.000	9.62346	3.09215	9.00548	2.57231
1185.000	9.72529	3.11663	9.08067	2.60510
1186.000	9.82129	3.15287	9.13079	2.59689
1187.000	9.88846	3.14832	9.05368	2.58765
1188.000	9.97669	3.19435	9.11537	2.59897
1189.000	10.01121	3.18620	9.02090	2.64475
1190.000	10.03038	3.23483	9.13657	2.69877
1191.000	10.03613	3.25626	9.21749	2.62370
1192.000	10.02463	3.22513	9.05368	2.72684
1193.000	10.06871	3.20711	9.00548	2.69387
1194.000	10.05338	3.25608	9.00162	2.71547
1195.000	10.01504	3.25452	9.06718	2.73654
1196.000	10.02079	3.27398	8.99005	2.77241
1197.000	9.98244	3.28414	8.93603	2.69831
1198.000	9.98053	3.30368	8.95726	2.63540
1199.000	9.96327	3.27261	8.99005	2.74496
1200.000	9.94409	3.30796	8.91095	2.74556
1201.000	9.91915	3.31993	8.94568	2.79432
1202.000	9.94025	3.31581	8.95147	2.70408
1203.000	9.92874	3.33936	8.91674	2.72787
1204.000	9.87886	3.33987	8.96883	2.74905
1205.000	9.88078	3.30078	8.98040	2.79797
1206.000	9.85583	3.26782	8.95726	2.66090
1207.000	9.87119	3.30088	8.92639	2.65524
1208.000	9.88270	3.31053	8.85499	2.69106
1209.000	9.86543	3.29117	8.84147	2.63624
1210.000	9.85391	3.30691	8.87622	2.67326
1211.000	9.84816	3.31674	8.91674	2.71022
1212.000	9.83280	3.29345	8.83568	2.68924
1213.000	9.80209	3.26639	8.85113	2.63225
1214.000	9.89037	3.31241	8.78356	2.74259
1215.000	9.79441	3.28406	8.85306	2.70284
1216.000	9.77713	3.29400	8.74880	2.66829
1217.000	9.77329	3.28036	8.92446	2.58073
1218.000	9.76369	3.29413	8.82796	2.66576
1219.000	9.81745	3.30923	8.86271	2.60862
1220.000	9.79441	3.28406	8.88587	2.61827
1221.000	9.79825	3.25080	8.77390	2.62887
1222.000	9.77905	3.24122	8.83568	2.55585
1223.000	9.79441	3.31727	8.89359	2.68294
1224.000	9.82705	3.28764	8.82796	2.68341
1225.000	9.79441	3.27233	9.01898	2.68985
1226.000	9.79825	3.28793	8.95147	2.56092
1227.000	9.80593	3.26831	8.89552	2.68096
1228.000	9.79633	3.30162	8.84147	2.63035
1229.000	9.79441	3.25670	8.88201	2.62026
1230.000	9.81361	3.24283	8.83761	2.68530
1231.000	9.80017	3.26446	8.81059	2.65019
1232.000	9.84240	3.26600	8.81059	2.71689
1233.000	9.80401	3.26051	8.81638	2.65015
1234.000	9.83280	3.27000	8.86850	2.67527
1235.000	9.85200	3.23855	8.91288	2.68672
1236.000	9.82896	3.27590	8.89744	2.68879
1237.000	9.84432	3.27965	8.91481	2.64552
1238.000	9.84432	3.29138	8.95340	2.76485
1239.000	9.83856	3.28753	8.92060	2.69646
1240.000	9.82513	3.26031	8.87429	2.75172
1241.000	9.84048	3.28555	8.87429	2.70073
1242.000	9.84432	3.28747	9.01512	2.74477
1243.000	9.86351	3.24625	8.96111	2.66479
1244.000	9.87502	3.27349	8.91288	2.62200
1245.000	9.84816	3.27766	8.83954	2.71275
1246.000	9.84816	3.25813	8.92060	2.64351
1247.000	9.84624	3.25619	8.88008	2.64381
1248.000	9.86159	3.26581	8.91288	2.56119
1249.000	9.86735	3.25403	8.94954	2.65703
1250.000	9.83472	3.29343	8.90902	2.62202
1251.000	9.84624	3.30503	8.84534	2.67740
1252.000	9.82321	3.28963	8.89166	2.65157
1253.000	9.81553	3.26626	8.87043	2.65565
1254.000	9.82896	3.28762	8.92832	2.65915
1255.000	9.82705	3.25443	8.92446	2.60034
1256.000	9.84816	3.30306	8.87043	2.71448
1257.000	9.85775	3.30883	8.84920	2.66757
1258.000	9.82129	3.28574	8.92253	2.61212
1259.000	9.85008	3.30890	8.88973	2.62216
1260.000	9.85583	3.28540	8.91867	2.69256
1261.000	9.85391	3.28737	8.96497	2.59221
1262.000	9.85008	3.30890	8.86464	2.69295
1263.000	9.84048	3.29728	8.99390	2.60769
1264.000	9.85775	3.34399	8.94568	2.60019
1265.000	9.87310	3.31063	8.94954	2.66684
1266.000	9.82321	3.31894	8.86078	2.71259
1267.000	9.85967	3.28732	8.95726	2.57461
1268.000	9.84432	3.34608	8.91867	2.66118
1269.000	9.85008	3.32844	8.92253	2.65331
1270.000	9.80593	3.33083	8.87429	2.67131
1271.000	9.86927	3.32238	8.90323	2.68286
1272.000	9.85008	3.33430	8.96497	2.56867
1273.000	9.85200	3.34014	8.82603	2.61281
1274.000	9.86543	3.33219	8.90323	2.63383
1275.000	9.82321	3.30331	8.86271	2.67139
1276.000	9.86927	3.32434	8.95533	2.61189
1277.000	9.86543	3.32242	8.93603	2.64733
1278.000	9.84048	3.31681	8.90323	2.66521
1279.000	9.82129	3.31114	8.99776	2.68217
1280.000	9.82705	3.35407	8.95726	2.67855
1281.000	9.86543	3.29507	8.98233	2.62346
1282.000	9.86543	3.34782	8.85499	2.60868
1283.000	9.83664	3.31099	8.92446	2.61211
1284.000	9.87694	3.30082	8.87815	2.73208
1285.000	9.86543	3.30875	8.94761	2.68646
1286.000	9.87886	3.28517	8.91481	2.69651
1287.000	9.85775	3.32641	8.91867	2.69060
1288.000	9.85391	3.31472	8.86464	2.74591
1289.000	9.85583	3.30689	8.84920	2.71268
1290.000	9.82321	3.28182	8.91095	2.59651
1291.000	9.84816	3.28548	8.88201	2.74970
1292.000	9.86159	3.32832	8.92832	2.66111
1293.000	9.87119	3.33213	8.90130	2.69857
1294.000	9.85967	3.32248	8.90709	2.61223
1295.000	9.83088	3.32472	8.84920	2.64795
1296.000	9.87694	3.34770	8.93411	2.60027
1297.000	9.85967	3.32639	8.90323	2.70051
1298.000	9.85967	3.32248	8.90323	2.70640
1299.000	9.87119	3.33409	8.86657	2.68902
1300.000	9.85583	3.34010	8.93796	2.67869
1301.000	9.86735	3.29896	8.88780	2.69474
1302.000	9.88654	3.31049	8.89937	2.80055
1303.000	9.85391	3.33426	8.97847	2.77250
1304.000	9.87694	3.26370	8.87622	2.58695
1305.000	9.86351	3.32244	8.81252	2.69530
1306.000	9.85967	3.30295	8.90902	2.68871
1307.000	9.84432	3.30896	8.95726	2.72953
1308.000	9.82896	3.27395	8.93796	2.69830
1309.000	9.84240	3.28554	8.87815	2.63205
1310.000	9.86159	3.28925	8.87622	2.69875
1311.000	9.84624	3.28745	8.89937	2.67113
1312.000	9.85391	3.25416	8.95726	2.76286
1313.000	9.84048	3.31681	8.92060	2.62782
1314.000	9.84624	3.28940	8.82603	2.68539
1315.000	9.88078	3.28906	8.89744	2.69664
1316.000	9.83664	3.34615	8.91288	2.77496
1317.000	9.87119	3.30478	8.84727	2.70877
1318.000	9.85967	3.27169	8.89937	2.72015
1319.000	9.85008	3.27960	8.97076	2.64903
1320.000	9.87310	3.26765	8.94954	2.70409
1321.000	9.86351	3.30681	8.86850	2.77529
1322.000	9.84240	3.28358	8.80286	2.71498
1323.000	9.85967	3.25606	8.85113	2.71463
1324.000	9.84624	3.27182	8.86464	2.77336
1325.000	9.84432	3.27770	8.88008	2.71637
1326.000	9.83664	3.26996	8.90709	2.76128
1327.000	9.81361	3.27019	8.82410	2.74229
1328.000	9.84624	3.28550	8.86850	2.72627
1329.000	9.84240	3.27772	8.90516	2.68285
1330.000	9.87310	3.26960	8.85499	2.79697
1331.000	9.86159	3.28534	8.94761	2.78842
1332.000	9.81553	3.23695	8.85885	2.71457
1333.000	9.86927	3.22080	8.84340	2.67742
1334.000	9.85775	3.25412	8.90902	2.77891
1335.000	9.87119	3.29306	8.76811	2.69758
1336.000	9.87886	3.26368	8.90902	2.73577
1337.000	9.89421	3.23423	8.86850	2.78510
1338.000	9.88270	3.25192	8.80673	2.80518
1339.000	9.87694	3.26566	8.95340	2.78641
1340.000	9.86927	3.27159	8.85885	2.85969
1341.000	9.86927	3.26964	8.84534	2.75782
1342.000	9.89037	3.26552	8.80093	2.78757
1343.000	9.86159	3.26581	8.89937	2.73780
1344.000	9.84624	3.24056	8.80673	2.73065
1345.000	9.85008	3.23466	8.83568	2.77554
1346.000	9.85775	3.28734	8.81252	2.79925
1347.000	9.85008	3.26397	8.84340	2.84412
1348.000	9.86351	3.25602	8.85499	2.77736
1349.000	9.85967	3.28927	8.82410	2.86388
1350.000	9.85775	3.23068	8.82796	2.71872
1351.000	9.84432	3.22104	8.87622	2.71444
1352.000	9.84432	3.26793	8.87236	2.76154
1353.000	9.84432	3.28161	8.82024	2.74231
1354.000	9.82513	3.24663	8.87622	2.79485
1355.000	9.83088	3.28370	8.91674	2.79062
1356.000	9.82705	3.24466	8.93989	2.79632
1357.000	9.85967	3.27755	8.86078	2.91261
1358.000	9.83280	3.22897	8.87429	2.71250
1359.000	9.84048	3.25039	8.83954	2.81866
1360.000	9.84816	3.25617	8.78356	2.70924
1361.000	9.89421	3.25767	8.83568	2.82457
1362.000	9.86543	3.23646	8.79707	2.79152
1363.000	9.84816	3.22296	8.79900	2.77582
1364.000	9.85200	3.27372	8.88201	2.77911
1365.000	9.83088	3.21140	8.88008	2.70461
1366.000	9.83472	3.19964	8.75845	2.77808
1367.000	9.86351	3.18764	8.88780	2.76731
1368.000	9.82513	3.21146	8.85885	2.85381
1369.000	9.83280	3.23678	8.77969	2.74850
1370.000	9.83664	3.20353	8.89552	2.82411
1371.000	9.85391	3.20727	8.86657	2.76354
1372.000	9.78865	3.21767	8.91674	2.78277
1373.000	9.81553	3.23500	8.91288	2.75339
1374.000	9.83856	3.25236	8.82603	2.78346
1375.000	9.85008	3.22880	8.76232	2.79571
1376.000	9.84816	3.24250	8.83375	2.79909
1377.000	9.82321	3.23102	8.85885	2.78517
1378.000	9.82896	3.28176	8.85306	2.78129
1379.000	9.82129	3.26034	8.90323	2.80837
1380.000	9.85391	3.21704	8.91288	2.79653
1381.000	9.81169	3.17641	8.90709	2.83971
1382.000	9.82321	3.19584	8.86464	2.74787
1383.000	9.78097	3.22361	8.83375	2.73437
1384.000	9.81553	3.25845	8.89552	2.79666
1385.000	9.82896	3.21923	8.83761	2.78533
1386.000	9.83280	3.21920	8.92639	2.80035
1387.000	9.80593	3.20187	8.89359	2.79667
1388.000	9.80017	3.21756	8.99198	2.78612
1389.000	9.82129	3.22517	8.91095	2.83380
1390.000	9.86735	3.17392	8.81638	2.82864
1391.000	9.80017	3.23124	8.86078	2.81457
1392.000	9.82321	3.20366	9.03055	2.75838
1393.000	9.80785	3.15886	8.87815	2.76149
1394.000	9.80785	3.18426	8.90709	2.76128
1395.000	9.83280	3.19770	8.76811	2.82116
1396.000	9.81169	3.13928	8.81059	2.75023
1397.000	9.84432	3.18782	8.79321	2.77194
1398.000	9.80017	3.21951	8.82410	2.75013
1399.000	9.83856	3.20546	8.88201	2.73401
1400.000	9.83088	3.24266	8.86850	2.84785
1401.000	9.80977	3.22528	8.90130	2.76916
1402.000	9.77521	3.19630	8.94568	2.86685
1403.000	9.78481	3.22748	8.86464	2.72237
1404.000	9.80785	3.20967	8.83375	2.76575
1405.000	9.78865	3.19031	8.86850	2.85765
1406.000	9.83088	3.18795	8.79900	2.84446
1407.000	9.85200	3.22292	8.94761	2.80999
1408.000	9.85775	3.18965	8.87236	2.75762
1409.000	9.79633	3.23714	8.94375	2.79825
1410.000	9.82513	3.22513	8.84147	2.81864
1411.000	9.81937	3.21151	8.86464	2.81454
1412.000	9.82321	3.21929	8.77969	2.86226
1413.000	9.86351	3.24039	8.85306	2.79306
1414.000	9.81745	3.23303	8.83761	2.88338
1415.000	9.85200	3.21120	8.82989	2.76382
1416.000	9.83664	3.26996	8.86271	2.75769
1417.000	9.83472	3.25435	8.92832	2.79641
1418.000	9.80593	3.23509	8.83182	2.77557
1419.000	9.84048	3.21717	8.93411	2.82773
1420.000	9.83280	3.22897	8.95147	2.75114
1421.000	9.82896	3.21728	8.91095	2.81027
1422.000	9.83088	3.19381	8.92639	2.77290
1423.000	9.84240	3.18784	8.95726	2.73737
1424.000	9.83664	3.20939	8.88780	2.81633
1425.000	9.83664	3.22111	8.89937	2.70643
1426.000	9.82321	3.18998	8.81445	2.69920
1427.000	9.84048	3.18004	8.95533	2.82365
1428.000	9.85008	3.18581	8.98040	2.70583
1429.000	9.83088	3.22703	8.93025	2.72581
1430.000	9.80401	3.19016	8.99583	2.73120
1431.000	9.83472	3.20941	8.97847	2.73525
1432.000	9.82896	3.21728	8.94375	2.68061
1433.000	9.80401	3.25074	8.91095	2.71615
1434.000	9.78097	3.22947	8.97269	2.68628
1435.000	9.81937	3.24082	8.98619	2.72931
1436.000	9.82129	3.25057	8.87043	2.76351
1437.000	9.80785	3.25071	8.88587	2.82811
1438.000	9.80401	3.25465	8.93025	2.71600
1439.000	9.80593	3.25854	8.91674	2.72199
1440.000	9.78097	3.29591	8.90902	2.69459
1441.000	9.83664	3.24261	8.99198	2.71946
1442.000	9.81553	3.20569	9.01512	2.71733
1443.000	9.82513	3.23100	8.98040	2.68426
1444.000	9.79057	3.23720	8.99198	2.71946
1445.000	9.83664	3.23088	8.89744	2.84566
1446.000	9.79057	3.23720	8.97269	2.68235
1447.000	9.80977	3.26437	8.99198	2.71554
1448.000	9.79633	3.25668	8.88780	2.66140
1449.000	9.80017	3.24296	8.95726	2.75698
1450.000	9.82513	3.24663	8.99969	2.68608
1451.000	9.75793	3.28246	8.99005	2.69007
1452.000	9.80977	3.22333	8.93603	2.67870
1453.000	9.84048	3.23475	8.92832	2.69641
1454.000	9.83280	3.24069	8.91288	2.65730
1455.000	9.84816	3.20732	8.93603	2.74145
1456.000	9.82705	3.21925	9.00933	2.64091
1457.000	9.81553	3.22327	8.96690	2.73534
1458.000	9.86159	3.18765	9.02476	2.66236
1459.000	9.78865	3.19226	9.01126	2.67227
1460.000	9.83856	3.18006	8.90902	2.71616
1461.000	9.86927	3.25401	9.04019	2.72302
1462.000	9.81937	3.21347	8.88587	2.70849
1463.000	9.86159	3.23064	8.95726	2.72757
1464.000	9.79441	3.19416	8.93218	2.67285
1465.000	9.83088	3.21726	8.99005	2.72144
1466.000	9.86735	3.22668	8.93218	2.76305
1467.000	9.86735	3.22472	8.97076	2.77060
1468.000	9.84816	3.20146	8.94761	2.67469
1469.000	9.85583	3.24633	9.03247	2.73680
1470.000	9.82705	3.24466	8.87429	2.70857
1471.000	9.83472	3.21527	8.97076	2.76864
1472.000	9.78481	3.26070	8.92253	2.68861
1473.000	9.69071	3.28898	8.90516	2.79266
1474.000	9.63307	3.28759	8.88394	2.79479
1475.000	9.46773	3.30288	8.72369	2.69594
1476.000	9.32533	3.24162	8.51497	2.72687
1477.000	9.03633	3.26188	8.41052	2.71779
1478.000	8.76618	3.22509	8.02126	2.59465
1479.000	8.32151	3.09146	7.71087	2.52379
1480.000	7.95728	3.00389	7.43306	2.37576
1481.000	7.44278	2.90326	7.01278	2.24195
1482.000	6.95825	2.76847	6.68732	2.11720
1483.000	6.42976	2.58801	6.19930	1.93356
1484.000	5.95886	2.37307	5.80627	1.79853
1485.000	5.38722	2.00953	5.35390	1.66535
1486.000	4.91656	1.80313	5.03429	1.56124
1487.000	4.46686	1.58036	4.69473	1.45305
1488.000	4.04612	1.35515	4.48258	1.31077
1489.000	3.59343	1.17130	4.16413	1.09514
1490.000	3.30977	1.09620	3.87100	0.95068
1491.000	3.01018	0.98530	3.68400	0.87149
1492.000	2.74396	0.89812	3.36297	0.77648
1493.000	2.42039	0.75328	3.09101	0.67539
1494.000	2.16971	0.69179	2.83666	0.59210
1495.000	1.85971	0.58258	2.46775	0.42136
1496.000	1.50218	0.51308	2.28618	0.32203
1497.000	1.17220	0.44155	1.85971	0.29627
1498.000	0.91132	0.36998	1.55354	0.18893
1499.000	0.47052	0.32227	1.18998	0.15713
1500.000	0.17002	0.23475	0.80854	-0.03780
1501.000	-0.14234	0.18701	0.47249	-0.16114
1502.000	-0.59308	0.08554	0.08303	-0.31831
1503.000	-0.86191	0.00597	-0.36376	-0.52718
1504.000	-1.12477	-0.13724	-0.66820	-0.57688
1505.000	-1.43500	-0.27247	-0.97852	-0.65042
1506.000	-1.69577	-0.38379	-1.27693	-0.72791
1507.000	-1.82416	-0.46329	-1.50218	-0.85510
1508.000	-1.99991	-0.51891	-1.75700	-0.81125
1509.000	-2.10654	-0.60635	-1.87748	-0.87680
1510.000	-2.26841	-0.60628	-2.21314	-0.85674
1511.000	-2.29210	-0.60428	-2.22696	-0.81102
1512.000	-2.26644	-0.52677	-2.34934	-0.73146
1513.000	-2.24867	-0.49696	-2.51313	-0.80887
1514.000	-2.29210	-0.44527	-2.69662	-0.72530
1515.000	-2.33552	-0.45718	-2.69859	-0.73722
1516.000	-2.28026	-0.36377	-2.69070	-0.63987
1517.000	-2.25657	-0.34589	-2.69662	-0.63986
1518.000	-2.22104	-0.30415	-2.77749	-0.68552
1519.000	-2.12233	-0.27833	-2.73804	-0.61004
1520.000	-2.10654	-0.25646	-2.60587	-0.69555
1521.000	-1.99794	-0.28233	-2.58614	-0.63197
1522.000	-1.92883	-0.26246	-2.47762	-0.64792
1523.000	-1.85576	-0.31019	-2.35723	-0.72152
1524.000	-1.81626	-0.37780	-2.31973	-0.70166
1525.000	-1.79651	-0.35394	-2.28026	-0.83087
1526.000	-1.79256	-0.38178	-2.22893	-0.75935
1527.000	-1.79453	-0.34400	-2.14800	-0.82697
1528.000	-1.83008	-0.41756	-2.17563	-0.81105
1529.000	-1.84391	-0.40563	-2.26447	-0.80106
1530.000	-1.91500	-0.43941	-2.30789	-0.84079
1531.000	-2.00584	-0.40360	-2.27236	-0.91037
1532.000	-2.09864	-0.50496	-2.28420	-0.93421
1533.000	-2.12430	-0.44134	-2.40855	-1.05534
1534.000	-2.19735	-0.42939	-2.54471	-0.97576
1535.000	-2.20130	-0.40951	-2.56444	-1.05323
1536.000	-2.27433	-0.40751	-2.67492	-1.03128
1537.000	-2.33158	-0.46116	-2.71831	-1.06700
1538.000	-2.34737	-0.49097	-2.81693	-1.02123
1539.000	-2.39671	-0.48499	-2.86032	-1.06489
1540.000	-2.38289	-0.47704	-2.89187	-1.03109
1541.000	-2.37500	-0.47506	-2.89779	-1.08074
1542.000	-2.39473	-0.54461	-2.89976	-1.04499
1543.000	-2.42631	-0.54063	-2.86427	-1.03906
1544.000	-2.43815	-0.52671	-2.87807	-1.06090
1545.000	-2.37500	-0.57046	-2.91357	-1.02313
1546.000	-2.37302	-0.53866	-2.89779	-1.02314
1547.000	-2.36908	-0.58040	-2.88990	-1.00329
1548.000	-2.35921	-0.54264	-2.80116	-1.02919
1549.000	-2.36118	-0.52873	-2.87610	-1.02912
1550.000	-2.39473	-0.52474	-2.82088	-0.92786
1551.000	-2.37302	-0.49692	-2.76171	-0.96565
1552.000	-2.38486	-0.58437	-2.83863	-1.04107
1553.000	-2.31776	-0.51682	-2.79721	-0.96562
1554.000	-2.31184	-0.50489	-2.78932	-0.99344
1555.000	-2.33355	-0.51085	-2.75185	-0.96765
1556.000	-2.30000	-0.49098	-2.78932	-0.93583
1557.000	-2.31184	-0.50489	-2.79918	-0.96165
1558.000	-2.24670	-0.43733	-2.80707	-0.96561
1559.000	-2.28618	-0.49695	-2.72423	-1.00541
1560.000	-2.23288	-0.45523	-2.69662	-0.95180
1561.000	-2.27236	-0.48503	-2.66111	-0.98759
1562.000	-2.21314	-0.46716	-2.70845	-0.99947
1563.000	-2.24275	-0.46317	-2.66111	-0.93990
1564.000	-2.20525	-0.46319	-2.75974	-0.91599
1565.000	-2.25854	-0.53274	-2.66308	-0.96573
1566.000	-2.22499	-0.48902	-2.67689	-1.00744
1567.000	-2.21117	-0.47113	-2.68281	-0.94585
1568.000	-2.26249	-0.54069	-2.72620	-0.97363
1569.000	-2.21709	-0.50294	-2.73607	-0.95177
1570.000	-2.22696	-0.46715	-2.71240	-0.98556
1571.000	-2.22104	-0.48505	-2.65519	-0.89223
1572.000	-2.21117	-0.48306	-2.70648	-1.06701
1573.000	-2.24078	-0.46119	-2.67097	-0.95579
1574.000	-2.20327	-0.49499	-2.69267	-0.99153
1575.000	-2.21709	-0.50095	-2.69859	-1.00146
1576.000	-2.26644	-0.51087	-2.80116	-1.04905
1577.000	-2.24670	-0.48106	-2.65322	-0.98163
1578.000	-2.22696	-0.48107	-2.75579	-0.97360
1579.000	-2.21906	-0.48505	-2.71831	-0.94383
1580.000	-2.22696	-0.49300	-2.67689	-0.91009
1581.000	-2.24275	-0.47908	-2.74198	-0.94779
1582.000	-2.27039	-0.48702	-2.70056	-0.93391
1583.000	-2.29210	-0.47707	-2.74790	-0.92990
1584.000	-2.28026	-0.51285	-2.69267	-0.90809
1585.000	-2.27236	-0.47310	-2.72620	-0.92793
1586.000	-2.25262	-0.47708	-2.76565	-0.91797
1587.000	-2.23880	-0.51883	-2.69662	-0.91206
1588.000	-2.26447	-0.47907	-2.70253	-0.89418
1589.000	-2.30789	-0.50688	-2.79524	-0.89411
1590.000	-2.22301	-0.46716	-2.73212	-0.93389
1591.000	-2.28223	-0.48701	-2.78932	-0.95967
1592.000	-2.26644	-0.47708	-2.75382	-0.95573
1593.000	-2.25854	-0.46714	-2.76368	-0.89016
1594.000	-2.27828	-0.48702	-2.80510	-0.97158
1595.000	-2.26447	-0.50491	-2.68675	-0.96174
1596.000	-2.24473	-0.46516	-2.70451	-0.91404
1597.000	-2.22499	-0.46914	-2.70253	-0.96570
1598.000	-2.23091	-0.48306	-2.74396	-1.00142
1599.000	-2.23288	-0.44727	-2.73409	-0.92991
1600.000	-2.25854	-0.48503	-2.77552	-0.95372
1601.000	-2.21709	-0.45921	-2.69070	-0.96968
1602.000	-2.25065	-0.43137	-2.69267	-0.94584
1603.000	-2.28026	-0.48304	-2.70056	-0.95775
1604.000	-2.27828	-0.48900	-2.70056	-0.95378
1605.000	-2.27236	-0.46714	-2.74987	-0.91997
1606.000	-2.27631	-0.46714	-2.74001	-0.89415
1607.000	-2.29210	-0.50291	-2.75382	-0.90010
1608.000	-2.26644	-0.47509	-2.75579	-0.91003
1609.000	-2.24670	-0.46715	-2.74198	-0.94382
1610.000	-2.28420	-0.48701	-2.76171	-0.87228
1611.000	-2.30197	-0.49496	-2.71634	-0.91205
1612.000	-2.23880	-0.46914	-2.74001	-0.86435
1613.000	-2.29605	-0.48303	-2.68281	-0.92002
1614.000	-2.30197	-0.49893	-2.74593	-0.92593
1615.000	-2.27236	-0.51286	-2.81496	-0.95170
1616.000	-2.24670	-0.50094	-2.79129	-0.91199
1617.000	-2.22301	-0.48703	-2.78538	-0.87822
1618.000	-2.26447	-0.50491	-2.69859	-0.92200
1619.000	-2.23091	-0.50293	-2.74001	-0.92594
1620.000	-2.27828	-0.49099	-2.68873	-0.86439
1621.000	-2.23288	-0.46318	-2.65519	-0.90613
1622.000	-2.21314	-0.46915	-2.71437	-0.94384
1623.000	-2.23288	-0.49896	-2.74593	-0.90408
1624.000	-2.24867	-0.47510	-2.71042	-0.94583
1625.000	-2.25657	-0.47112	-2.75776	-0.89612
1626.000	-2.30986	-0.46912	-2.66703	-0.91209
1627.000	-2.20327	-0.45523	-2.72029	-0.93986
1628.000	-2.24275	-0.47112	-2.69267	-0.82266
1629.000	-2.21117	-0.47312	-2.69464	-0.92001
1630.000	-2.27433	-0.44527	-2.67492	-0.89221
1631.000	-2.27631	-0.47708	-2.73804	-0.85044
1632.000	-2.26841	-0.46714	-2.58811	-0.92406
1633.000	-2.26447	-0.47311	-2.75776	-0.91996
1634.000	-2.25657	-0.44727	-2.75382	-0.82262
1635.000	-2.24078	-0.49299	-2.71437	-0.90410
1636.000	-2.26644	-0.50292	-2.70648	-0.87629
1637.000	-2.21709	-0.50890	-2.74396	-0.89415
1638.000	-2.27039	-0.50292	-2.69267	-0.89816
1639.000	-2.24078	-0.50691	-2.73804	-0.89614
1640.000	-2.21314	-0.45523	-2.66703	-0.92798
1641.000	-2.26447	-0.48304	-2.72818	-0.91601
1642.000	-2.26841	-0.48304	-2.71240	-0.92397
1643.000	-2.28026	-0.44726	-2.66111	-0.89023
1644.000	-2.22104	-0.42144	-2.76763	-0.91797
1645.000	-2.24670	-0.47709	-2.70056	-0.92795
1646.000	-2.23486	-0.45721	-2.73607	-0.87429
1647.000	-2.26841	-0.49497	-2.72818	-0.90608
1648.000	-2.29605	-0.45521	-2.73015	-0.88224
1649.000	-2.26052	-0.48702	-2.72029	-0.89814
1650.000	-2.25657	-0.45124	-2.69070	-0.90611
1651.000	-2.24473	-0.46914	-2.68478	-0.89816
1652.000	-2.27433	-0.46118	-2.73212	-0.85244
1653.000	-2.29210	-0.48701	-2.70845	-0.95179
1654.000	-2.25657	-0.48901	-2.74198	-0.92196
1655.000	-2.26447	-0.50292	-2.76960	-0.92790
1656.000	-2.25460	-0.51684	-2.75974	-0.91003
1657.000	-2.32171	-0.52278	-2.66111	-0.90613
1658.000	-2.27236	-0.47708	-2.72620	-0.96965
1659.000	-2.23683	-0.49697	-2.72818	-0.85244
1660.000	-2.23288	-0.51883	-2.64138	-0.98164
1661.000	-2.26447	-0.47112	-2.69859	-0.92200
1662.000	-2.26644	-0.50093	-2.69859	-0.96372
1663.000	-2.21709	-0.48704	-2.67689	-0.84651
1664.000	-2.28618	-0.51683	-2.71831	-0.92993
1665.000	-2.24670	-0.48305	-2.77157	-0.89611
1666.000	-2.22893	-0.42143	-2.66900	-0.92003
1667.000	-2.26249	-0.48702	-2.73607	-0.81071
1668.000	-2.25657	-0.45522	-2.77749	-0.88618
1669.000	-2.24867	-0.42540	-2.79721	-0.86828
1670.000	-2.30592	-0.47110	-2.75776	-0.94976
1671.000	-2.27236	-0.44726	-2.75974	-0.87030
1672.000	-2.25065	-0.46516	-2.64730	-0.84057
1673.000	-2.26644	-0.43733	-2.73015	-0.84648
1674.000	-2.23880	-0.48106	-2.67886	-0.89618
1675.000	-2.24670	-0.42739	-2.71831	-0.99549
1676.000	-2.22499	-0.49101	-2.73804	-0.89614
1677.000	-2.23091	-0.51287	-2.69662	-0.96372
1678.000	-2.24078	-0.45721	-2.65913	-0.90414
1679.000	-2.20130	-0.43536	-2.69859	-0.86637
1680.000	-2.24867	-0.41745	-2.73607	-0.85442
1681.000	-2.27039	-0.44329	-2.72226	-0.88820
1682.000	-2.25065	-0.49696	-2.72620	-0.91601
1683.000	-2.22301	-0.46517	-2.75776	-0.90407
1684.000	-2.22893	-0.46318	-2.76960	-0.89214
1685.000	-2.24670	-0.45522	-2.73015	-0.97958
1686.000	-2.24473	-0.48106	-2.68281	-0.86439
1687.000	-2.23288	-0.50890	-2.68675	-0.92995
1688.000	-2.22301	-0.46716	-2.70648	-0.84252
1689.000	-2.24670	-0.47709	-2.68675	-0.91803
1690.000	-2.22301	-0.44728	-2.64335	-0.86044
1691.000	-2.24473	-0.49895	-2.72226	-0.95575
1692.000	-2.22696	-0.46318	-2.71240	-0.89218
1693.000	-2.22104	-0.47113	-2.66505	-0.87235
1694.000	-2.24275	-0.47709	-2.65124	-0.93991
1695.000	-2.24473	-0.47112	-2.65322	-0.90614
1696.000	-2.24078	-0.44926	-2.64335	-0.84058
1697.000	-2.18945	-0.49897	-2.68478	-0.85048
1698.000	-2.22696	-0.45523	-2.69464	-0.88624
1699.000	-2.23288	-0.49101	-2.63152	-0.97172
1700.000	-2.21314	-0.49499	-2.69859	-0.84451
1701.000	-2.22104	-0.51685	-2.65716	-0.93395
1702.000	-2.20919	-0.47114	-2.62362	-0.84258
1703.000	-2.24275	-0.48106	-2.64927	-0.89819
1704.000	-2.26841	-0.51087	-2.68083	-0.87830
1705.000	-2.27631	-0.46913	-2.71831	-0.94185
1706.000	-2.25460	-0.50889	-2.75776	-0.95572
1707.000	-2.24078	-0.45721	-2.65913	-0.85447
1708.000	-2.25854	-0.48901	-2.71634	-0.90609
1709.000	-2.26447	-0.47708	-2.74001	-0.93984
1710.000	-2.29013	-0.48502	-2.70253	-0.90809
1711.000	-2.28815	-0.44726	-2.67097	-0.89817
1712.000	-2.24670	-0.48305	-2.74198	-0.88223
1713.000	-2.21117	-0.48306	-2.74001	-0.94978
1714.000	-2.25657	-0.48305	-2.66505	-0.88030
1715.000	-2.22893	-0.47709	-2.72029	-0.88820
1716.000	-2.24867	-0.49696	-2.74396	-0.84051
1717.000	-2.26249	-0.48503	-2.73212	-0.83654
1718.000	-2.27236	-0.50491	-2.77157	-0.82261
1719.000	-2.25262	-0.51684	-2.69859	-0.87233
1720.000	-2.21512	-0.51288	-2.65913	-0.86043
1721.000	-2.23880	-0.53275	-2.66111	-0.91408
1722.000	-2.28026	-0.51683	-2.65124	-0.83461
1723.000	-2.25854	-0.48702	-2.71634	-0.87033
1724.000	-2.27631	-0.44329	-2.70648	-0.82066
1725.000	-2.22893	-0.40951	-2.72226	-0.84251
1726.000	-2.26249	-0.44329	-2.69070	-0.85048
1727.000	-2.28815	-0.46912	-2.72620	-0.84251
1728.000	-2.28026	-0.46515	-2.67492	-0.81075
1729.000	-2.26052	-0.47907	-2.65519	-0.80282
1730.000	-2.25065	-0.48106	-2.67886	-0.85446
1731.000	-2.28026	-0.47906	-2.71831	-0.91602
1732.000	-2.24473	-0.49299	-2.61968	-0.86245
1733.000	-2.28420	-0.47707	-2.74396	-0.86435
1734.000	-2.27631	-0.49099	-2.68478	-0.87234
1735.000	-2.25460	-0.49299	-2.73212	-0.88025
1736.000	-2.28420	-0.48900	-2.69267	-0.83657
1737.000	-2.23288	-0.45920	-2.66111	-0.80877
1738.000	-2.25657	-0.50491	-2.71240	-0.81271
1739.000	-2.26052	-0.48503	-2.73607	-0.84449
1740.000	-2.30394	-0.53272	-2.64533	-0.85647
1741.000	-2.22301	-0.49498	-2.67097	-0.83658
1742.000	-2.23880	-0.47311	-2.65124	-0.83262
1743.000	-2.25262	-0.46317	-2.70056	-0.86239
1744.000	-2.30592	-0.48899	-2.70648	-0.81868
1745.000	-2.23683	-0.44330	-2.72423	-0.83257
1746.000	-2.22893	-0.47510	-2.71437	-0.81669
1747.000	-2.24867	-0.52877	-2.73015	-0.84648
1748.000	-2.23486	-0.40752	-2.73804	-0.87429
1749.000	-2.25262	-0.45919	-2.70648	-0.79881
1750.000	-2.21709	-0.44529	-2.75776	-0.89016
1751.000	-2.18748	-0.44331	-2.68083	-0.79485
1752.000	-2.27039	-0.47708	-2.69859	-0.76703
1753.000	-2.22893	-0.46318	-2.70056	-0.79881
1754.000	-2.25065	-0.48305	-2.68083	-0.89419
1755.000	-2.29605	-0.48303	-2.65716	-0.84454
1756.000	-2.22499	-0.45523	-2.76565	-0.83453
1757.000	-2.24275	-0.43932	-2.72226	-0.77297
1758.000	-2.22499	-0.46119	-2.67492	-0.84850
1759.000	-2.26249	-0.45522	-2.72029	-0.79085
1760.000	-2.28420	-0.43732	-2.75185	-0.83653
1761.000	-2.28420	-0.45720	-2.65716	-0.82070
1762.000	-2.22104	-0.44131	-2.61771	-0.78695
1763.000	-2.23683	-0.44330	-2.65322	-0.84852
1764.000	-2.26841	-0.45919	-2.73015	-0.82661
1765.000	-2.22893	-0.48107	-2.66900	-0.80479
1766.000	-2.26644	-0.42341	-2.67689	-0.85645
1767.000	-2.26447	-0.43136	-2.78143	-0.82260
1768.000	-2.20919	-0.44132	-2.74987	-0.81467
1769.000	-2.27039	-0.48901	-2.67097	-0.83658
1770.000	-2.24670	-0.45125	-2.73015	-0.85045
1771.000	-2.28618	-0.46117	-2.74198	-0.81865
1772.000	-2.25460	-0.44528	-2.77354	-0.82261
1773.000	-2.23091	-0.46318	-2.70056	-0.87034
1774.000	-2.30592	-0.47110	-2.70056	-0.79087
1775.000	-2.29605	-0.46316	-2.69464	-0.80676
1776.000	-2.25657	-0.45919	-2.70451	-0.85047
1777.000	-2.25854	-0.42938	-2.74987	-0.82660
1778.000	-2.26644	-0.50690	-2.62954	-0.85251
1779.000	-2.25854	-0.51087	-2.64335	-0.82071
1780.000	-2.23486	-0.44926	-2.71831	-0.85642
1781.000	-2.26052	-0.43534	-2.68478	-0.85644
1782.000	-2.31776	-0.47706	-2.70845	-0.83656
1783.000	-2.24473	-0.43932	-2.68083	-0.88227
1784.000	-2.28420	-0.50689	-2.66900	-0.77698
1785.000	-2.27433	-0.46913	-2.68478	-0.85843
1786.000	-2.22301	-0.45125	-2.67294	-0.87433
1787.000	-2.22104	-0.43933	-2.72226	-0.79880
1788.000	-2.22696	-0.43932	-2.71634	-0.85841
1789.000	-2.23486	-0.46119	-2.66505	-0.91606
1790.000	-2.26447	-0.44130	-2.70253	-0.93391
1791.000	-2.23091	-0.45125	-2.74198	-0.83852
1792.000	-2.26447	-0.45522	-2.73607	-0.86038
1793.000	-2.28618	-0.43334	-2.72029	-0.89417
1794.000	-2.27631	-0.46515	-2.59995	-0.87836
1795.000	-2.27039	-0.47112	-2.70648	-0.81868
1796.000	-2.27039	-0.44130	-2.70845	-0.86636
1797.000	-2.26447	-0.44130	-2.63941	-0.88826
1798.000	-2.25262	-0.47311	-2.67886	-0.82466
1799.000	-2.24473	-0.44330	-2.73212	-0.82462
1800.000	-2.23683	-0.43733	-2.72620	-0.83059
1801.000	-2.28026	-0.43136	-2.71042	-0.83060
1802.000	-2.25460	-0.43932	-2.68083	-0.80677
1803.000	-2.27631	-0.38564	-2.69464	-0.81670
1804.000	-2.28618	-0.44925	-2.70253	-0.87630
1805.000	-2.27236	-0.45919	-2.74593	-0.87031
1806.000	-2.30592	-0.45719	-2.71240	-0.86238
1807.000	-2.29407	-0.41744	-2.66111	-0.89421
1808.000	-2.25065	-0.44131	-2.65716	-0.85249
1809.000	-2.31579	-0.46116	-2.64138	-0.87038
1810.000	-2.30197	-0.46912	-2.72818	-0.80476
1811.000	-2.27039	-0.46515	-2.70451	-0.81471
1812.000	-2.32171	-0.46911	-2.68478	-0.85446
1813.000	-2.28026	-0.49497	-2.68083	-0.80479
1814.000	-2.28026	-0.45521	-2.78143	-0.86829
1815.000	-2.33158	-0.41743	-2.72818	-0.87628
1816.000	-2.26644	-0.47310	-2.70056	-0.81073
1817.000	-2.26644	-0.45522	-2.66900	-0.87036
1818.000	-2.30789	-0.41545	-2.73015	-0.82065
1819.000	-2.30394	-0.39756	-2.67689	-0.85446
1820.000	-2.31776	-0.42340	-2.68083	-0.84452
1821.000	-2.25657	-0.47311	-2.72620	-0.83456
1822.000	-2.30000	-0.45520	-2.68478	-0.90413
1823.000	-2.28815	-0.43334	-2.68083	-0.82664
1824.000	-2.29013	-0.45322	-2.63941	-0.84853
1825.000	-2.27433	-0.47111	-2.68478	-0.87035
1826.000	-2.31776	-0.47905	-2.68281	-0.91605
1827.000	-2.25657	-0.42739	-2.57233	-0.81479
1828.000	-2.29210	-0.45322	-2.63941	-0.81674
1829.000	-2.33947	-0.44724	-2.66505	-0.77301
1830.000	-2.38486	-0.43729	-2.61968	-0.85450
1831.000	-2.48946	-0.40943	-2.75382	-0.82858
1832.000	-2.60192	-0.41536	-2.88004	-0.77883
1833.000	-2.71437	-0.35769	-3.09889	-0.84421
1834.000	-2.90765	-0.35962	-3.35706	-0.86584
1835.000	-3.18956	-0.26021	-3.50874	-0.83394
1836.000	-3.45359	-0.20851	-3.81393	-0.71457
1837.000	-3.79621	-0.09528	-4.28211	-0.74590
1838.000	-4.13856	0.00198	-4.59849	-0.64248
1839.000	-4.50616	0.09123	-4.90479	-0.45390
1840.000	-4.75364	0.25774	-5.30098	-0.24960
1841.000	-5.13041	0.40421	-5.73973	-0.26327
1842.000	-5.50477	0.55050	-6.08790	0.07122
1843.000	-5.82779	0.63330	-6.31065	0.12260
1844.000	-6.07813	0.78136	-6.71267	0.44059
1845.000	-6.30870	0.90359	-6.86473	0.50761
1846.000	-6.46295	0.95075	-7.04784	0.65153
1847.000	-6.50199	1.04355	-7.25610	0.71043
1848.000	-6.57419	1.12243	-7.21719	0.82691
1849.000	-6.48052	1.17006	-7.29695	0.89582
1850.000	-6.42391	1.23342	-7.25999	0.95903
1851.000	-6.26182	1.22195	-7.12961	0.96719
1852.000	-6.16217	1.27358	-7.00889	1.00890
1853.000	-6.01165	1.24626	-6.83939	1.03691
1854.000	-5.86301	1.21890	-6.60930	0.99789
1855.000	-5.68297	1.16190	-6.46880	0.96457
1856.000	-5.58507	1.17199	-6.22275	0.87606
1857.000	-5.43228	1.13666	-6.04489	0.77548
1858.000	-5.35390	1.04572	-6.01361	0.74189
1859.000	-5.35782	0.95859	-5.83758	0.66100
1860.000	-5.30882	0.93490	-5.72407	0.55623
1861.000	-5.29510	0.85174	-5.73190	0.52653
1862.000	-5.31078	0.82796	-5.62227	0.44348
1863.000	-5.26178	0.79633	-5.54394	0.31286
1864.000	-5.32842	0.77644	-5.62619	0.38805
1865.000	-5.42249	0.70701	-5.59878	0.28511
1866.000	-5.45971	0.71489	-5.63206	0.20986
1867.000	-5.52827	0.73461	-5.64577	0.21580
1868.000	-5.50869	0.74849	-5.78670	0.28898
1869.000	-5.64185	0.72061	-5.77887	0.24346
1870.000	-5.65556	0.79977	-5.85910	0.36018
1871.000	-5.68688	0.81754	-5.89235	0.38984
1872.000	-5.71624	0.79177	-6.05271	0.38973
1873.000	-5.73190	0.84518	-6.14654	0.43317
1874.000	-5.77692	0.88073	-6.12113	0.45495
1875.000	-5.77105	0.88470	-6.30479	0.47654
1876.000	-5.79453	0.94403	-6.29698	0.49632
1877.000	-5.82779	0.91033	-6.38291	0.57729
1878.000	-5.83366	0.98947	-6.41805	0.52981
1879.000	-5.86105	0.96766	-6.46295	0.56732
1880.000	-5.86301	0.98150	-6.44928	0.57524
1881.000	-5.86301	1.01118	-6.51174	0.65027
1882.000	-5.91778	0.95767	-6.58199	0.59880
1883.000	-5.88062	0.94586	-6.52931	0.62654
1884.000	-5.88453	0.97355	-6.47271	0.59894
1885.000	-5.81997	1.02115	-6.52736	0.63444
1886.000	-5.86301	0.98150	-6.46685	0.61673
1887.000	-5.88844	1.01311	-6.45905	0.63848
1888.000	-5.82388	1.02510	-6.44148	0.58514
1889.000	-5.87866	1.02104	-6.46685	0.66614
1890.000	-5.81997	1.01917	-6.39657	0.58914
1891.000	-5.88649	1.02301	-6.34580	0.59118
1892.000	-5.87084	1.05271	-6.38095	0.64056
1893.000	-5.89822	1.05859	-6.40634	0.57727
1894.000	-5.90409	1.04276	-6.36338	0.67419
1895.000	-5.87866	1.04478	-6.24619	0.62293
1896.000	-5.83366	1.06267	-6.31456	0.72368
1897.000	-5.80040	1.07263	-6.25791	0.61105
1898.000	-5.84149	1.05672	-6.23056	0.59724
1899.000	-5.80040	1.02514	-6.26573	0.58138
1900.000	-5.85127	1.06660	-6.27354	0.56358
1901.000	-5.77300	1.02123	-6.29698	0.55762
1902.000	-5.77496	1.09840	-6.31260	0.60703
1903.000	-5.80040	1.00338	-6.25596	0.59326
1904.000	-5.76713	1.01729	-6.28917	0.56158
1905.000	-5.77692	1.04497	-6.25596	0.52405
1906.000	-5.78279	1.04892	-6.33409	0.47256
1907.000	-5.76517	0.99948	-6.23251	0.54582
1908.000	-5.81018	1.03106	-6.21884	0.53397
1909.000	-5.78083	1.01528	-6.31456	0.46269
1910.000	-5.77300	1.02915	-6.28526	0.59125
1911.000	-5.77105	1.03509	-6.33409	0.59514
1912.000	-5.76713	1.01333	-6.31260	0.63076
1913.000	-5.82975	0.97563	-6.28917	0.59520
1914.000	-5.78279	1.02715	-6.30870	0.55563
1915.000	-5.80040	0.98161	-6.31456	0.56353
1916.000	-5.76517	0.99157	-6.31260	0.62483
1917.000	-5.81997	1.00136	-6.34385	0.56548
1918.000	-5.84932	1.01714	-6.33409	0.54967
1919.000	-5.79061	0.99350	-6.26573	0.49833
1920.000	-5.81214	1.05084	-6.19735	0.54190
1921.000	-5.77692	0.99353	-6.34971	0.61094
1922.000	-5.79649	1.05879	-6.30089	0.57146
1923.000	-5.77300	0.98166	-6.27354	0.56358
1924.000	-5.76126	1.01730	-6.32042	0.54573
1925.000	-5.81605	1.00929	-6.31846	0.60109
1926.000	-5.73777	1.02526	-6.35947	0.52790
1927.000	-5.81214	0.98753	-6.35947	0.57930
1928.000	-5.79844	0.99547	-6.35752	0.58325
1929.000	-5.80236	1.00337	-6.26963	0.58335
1930.000	-5.78083	1.03309	-6.35947	0.56151
1931.000	-5.79061	1.01922	-6.24619	0.47462
1932.000	-5.79649	1.04098	-6.30479	0.54772
1933.000	-5.75735	1.02918	-6.31065	0.55563
1934.000	-5.84149	1.01913	-6.34190	0.59909
1935.000	-5.76713	1.01531	-6.35947	0.51801
1936.000	-5.76909	1.00937	-6.29112	0.57937
1937.000	-5.76909	1.01926	-6.27354	0.57544
1938.000	-5.75343	1.00742	-6.35557	0.54174
1939.000	-5.73973	0.95797	-6.26573	0.59720
1940.000	-5.80040	0.99151	-6.29893	0.56157
1941.000	-5.80823	1.00336	-6.30674	0.55168
1942.000	-5.75735	1.00939	-6.36338	0.55755
1943.000	-5.75539	0.98565	-6.28917	0.56554
1944.000	-5.79453	0.97173	-6.26573	0.58929
1945.000	-5.75735	1.00741	-6.31651	0.52003
1946.000	-5.76126	1.01334	-6.28721	0.54972
1947.000	-5.75539	1.03116	-6.31065	0.60703
1948.000	-5.81605	1.02314	-6.32042	0.55957
1949.000	-5.75539	1.05688	-6.27159	0.63674
1950.000	-5.77692	1.02123	-6.28135	0.57148
1951.000	-5.79257	1.03505	-6.28526	0.52797
1952.000	-5.82975	1.00926	-6.24814	0.59524
1953.000	-5.83171	1.05278	-6.30674	0.59122
1954.000	-5.75539	1.02522	-6.31456	0.56946
1955.000	-5.76517	1.06676	-6.31260	0.60308
1956.000	-5.77105	1.05488	-6.23056	0.57944
1957.000	-5.76322	1.03510	-6.34385	0.59316
1958.000	-5.76322	1.03510	-6.29112	0.51412
1959.000	-5.80040	1.02514	-6.27159	0.53787
1960.000	-5.77887	1.02716	-6.27354	0.50030
1961.000	-5.76322	0.99157	-6.22665	0.54583
1962.000	-5.84345	1.00924	-6.25596	0.55766
1963.000	-5.75539	1.02325	-6.38291	0.55357
1964.000	-5.78474	0.98758	-6.36338	0.50219
1965.000	-5.77887	0.98561	-6.28526	0.62486
1966.000	-5.74560	0.95598	-6.28331	0.53193
1967.000	-5.77105	1.05883	-6.26377	0.54579
1968.000	-5.79649	1.03306	-6.32432	0.55759
1969.000	-5.77300	0.99551	-6.31846	0.52992
1970.000	-5.77496	1.01727	-6.29307	0.54378
1971.000	-5.78083	1.00341	-6.32237	0.52596
1972.000	-5.78670	0.98757	-6.29698	0.56157
1973.000	-5.82388	1.01719	-6.27549	0.59521
1974.000	-5.80236	1.02118	-6.29698	0.56157
1975.000	-5.84540	0.99538	-6.30284	0.59716
1976.000	-5.76517	0.99750	-6.31651	0.54771
1977.000	-5.77692	1.04497	-6.27354	0.59126
1978.000	-5.81018	1.02512	-6.34971	0.58129
1979.000	-5.80040	1.06274	-6.33995	0.57339
1980.000	-5.79844	1.00338	-6.33018	0.60503
1981.000	-5.84149	1.01122	-6.29503	0.51808
1982.000	-5.77692	1.03112	-6.31456	0.52992
1983.000	-5.82388	1.06269	-6.32432	0.55759
1984.000	-5.81605	1.03896	-6.25010	0.57151
1985.000	-5.77692	1.02519	-6.38095	0.56148
1986.000	-5.81410	1.00929	-6.29893	0.62682
1987.000	-5.78083	0.97175	-6.30674	0.58727
1988.000	-5.80823	1.04491	-6.34776	0.61292
1989.000	-5.81410	1.03303	-6.23642	0.62096
1990.000	-5.84932	1.02110	-6.30479	0.56156
1991.000	-5.80040	1.04691	-6.29307	0.51808
1992.000	-5.84149	1.01320	-6.38291	0.57334
1993.000	-5.86692	1.09031	-6.28526	0.56554
1994.000	-5.77692	1.07861	-6.16022	0.58347
1995.000	-5.70058	1.04907	-6.12113	0.63099
1996.000	-5.50281	1.08704	-6.00774	0.67464
1997.000	-5.33038	1.06557	-5.64185	0.74238
1998.000	-4.98917	1.07803	-5.28138	0.78442
1999.000	-4.63581	1.05876	-4.95385	0.86607
2000.000	-4.14446	1.14475	-4.36467	0.91836
2001.000	-3.70369	1.09177	-3.83558	1.00628
2002.000	-3.15408	1.14998	-3.21518	1.09631
2003.000	-2.67097	1.04916	-2.61771	1.03928
2004.000	-2.13418	1.10324	-1.97029	1.06757
2005.000	-1.46464	1.10563	-1.35399	1.09375
2006.000	-0.88167	1.05018	-0.74133	1.08005
2007.000	-0.26689	1.04433	-0.12060	1.00854
2008.000	0.21154	0.98467	0.46854	0.95680
2009.000	0.75122	0.96470	0.99038	0.90299
2010.000	1.23346	0.91485	1.56540	0.77356
2011.000	1.71158	0.94646	2.07100	0.80912
2012.000	2.13812	0.77132	2.50524	0.65785
2013.000	2.62560	0.86443	2.94906	0.46093
2014.000	2.98652	0.75492	3.38070	0.57393
2015.000	3.46738	0.71088	3.79227	0.35334
2016.000	3.81983	0.62327	4.08349	0.23416
2017.000	4.26638	0.59119	4.52581	0.15271
2018.000	4.58278	0.45015	4.75560	0.06344
2019.000	5.03429	0.44391	5.19120	-0.01783
2020.000	5.42249	0.31688	5.62227	-0.01188
2021.000	5.94712	0.31659	5.80040	-0.00990
2022.000	6.40829	0.17793	6.25400	0.01978
2023.000	6.86667	0.19949	6.57223	-0.11068
2024.000	7.27555	0.17958	6.98747	-0.09083
2025.000	7.70893	0.07097	7.39224	-0.14205
2026.000	8.18209	0.08271	7.69145	-0.18730
2027.000	8.47823	0.00787	8.07359	-0.31318
2028.000	8.81252	0.03342	8.31570	-0.29724
2029.000	9.20016	0.06873	8.53817	-0.23805
2030.000	9.35036	0.06085	8.84340	-0.08846
2031.000	9.60424	0.06473	8.99969	-0.17881
2032.000	9.89037	0.13719	9.26564	-0.06479
2033.000	10.15685	0.22716	9.33496	-0.01570
2034.000	10.34446	0.18201	9.57349	0.06474
2035.000	10.50509	0.25429	9.71184	-0.03334
2036.000	10.69992	0.30886	9.93833	0.09014
2037.000	10.81822	0.36932	10.10129	0.16060
2038.000	10.94215	0.33010	10.19707	0.18014
2039.000	11.05836	0.38268	10.27557	0.20945
2040.000	11.07359	0.34947	10.28514	0.22707
2041.000	11.06788	0.38462	10.30045	0.25641
2042.000	11.02788	0.38272	10.27557	0.20554
2043.000	10.97454	0.37693	10.35403	0.24463
2044.000	10.85255	0.37123	10.10129	0.14494
2045.000	10.73428	0.36942	10.02846	0.05485
2046.000	10.63310	0.35195	9.98436	0.11168
2047.000	10.51274	0.33057	9.98820	-0.07641
2048.000	10.42480	0.37370	9.87310	-0.02352
2049.000	10.35020	0.31704	9.83472	0.03528
2050.000	10.28897	0.31515	9.87502	0.06076
2051.000	10.25451	0.33476	9.77713	-0.00588
2052.000	10.24686	0.28778	9.80017	-0.00784
2053.000	10.29280	0.25642	9.95368	-0.07838
2054.000	10.30619	0.23684	9.87119	-0.03920
2055.000	10.38655	0.20547	9.92682	-0.01960
2056.000	10.52038	0.17799	10.21239	0.05482
2057.000	10.62164	0.15643	10.18558	0.04112
2058.000	10.72855	0.11728	10.10129	0.08814
2059.000	10.84492	0.14654	10.26408	-0.05090
2060.000	10.97454	0.09179	10.25643	0.03132
2061.000	11.05264	0.08005	10.37890	0.02935
2062.000	11.11547	0.08394	10.33872	0.01957
2063.000	11.20491	0.07611	10.34446	0.00000
2064.000	11.19540	0.04684	10.41332	-0.01761
2065.000	11.23535	0.05269	10.41906	-0.01370
2066.000	11.27718	0.07219	10.43627	-0.03522
2067.000	11.24485	0.08585	10.40376	-0.05087
2068.000	11.25056	0.11512	10.35403	0.03718
2069.000	11.26007	0.12292	10.35020	-0.04501
2070.000	11.21252	0.13465	10.39420	-0.05675
2071.000	11.20872	0.17758	10.32724	0.00000
2072.000	11.19159	0.20492	10.26983	-0.00196
2073.000	11.16115	0.16005	10.32341	-0.03327
2074.000	11.15544	0.25179	10.26600	-0.00979
2075.000	11.14022	0.20105	10.38081	-0.09197
2076.000	11.12118	0.17959	10.22197	-0.04895
2077.000	11.07930	0.20890	10.18367	-0.03720
2078.000	11.04693	0.19330	10.21622	0.01762
2079.000	11.02217	0.26557	10.21239	0.01371
2080.000	11.00312	0.24801	10.23728	-0.07635
2081.000	11.00312	0.20896	10.20665	-0.10769
2082.000	10.94596	0.16212	10.13003	-0.03721
2083.000	10.97835	0.18944	10.10896	-0.03525
2084.000	10.95549	0.14844	10.12620	0.12534
2085.000	10.91737	0.23636	10.14536	0.04896
2086.000	10.93453	0.21291	10.20282	0.08811
2087.000	10.95930	0.22071	10.14153	-0.00588
2088.000	10.95549	0.20899	9.99011	0.09013
2089.000	10.94406	0.20118	10.13770	-0.00588
2090.000	10.96502	0.18164	10.08788	0.08814
2091.000	10.96502	0.20703	10.08788	0.02155
2092.000	10.96311	0.23828	10.04380	-0.01763
2093.000	10.95930	0.22071	10.05913	0.04114
2094.000	10.93643	0.20705	10.11470	0.11751
2095.000	10.93262	0.16799	10.02846	-0.01175
2096.000	10.98217	0.20116	10.03805	0.10774
2097.000	10.94406	0.21095	10.07255	0.02155
2098.000	10.97264	0.19726	10.08213	0.03526
2099.000	10.98788	0.17967	10.17601	0.00392
2100.000	10.99169	0.17186	10.06871	0.01763
2101.000	11.01646	0.17380	10.10321	-0.01567
2102.000	10.96121	0.17383	10.03038	0.01959
2103.000	10.95930	0.21485	10.10896	0.02742
2104.000	10.97835	0.18944	10.17601	0.01567
2105.000	10.96883	0.22265	10.12045	-0.02350
2106.000	11.00312	0.18552	10.17409	-0.02154
2107.000	10.98979	0.22068	10.17026	0.03133
2108.000	10.99360	0.23240	10.15877	0.03721
2109.000	11.03741	0.20112	10.20473	0.05091
2110.000	11.00693	0.17575	10.16451	0.06070
2111.000	11.02027	0.12888	10.20090	0.00000
2112.000	11.01836	0.16208	10.18558	0.03133
2113.000	11.02217	0.19918	10.08596	-0.08422
2114.000	11.05074	0.16401	10.24494	-0.01370
2115.000	11.03169	0.14450	10.13195	0.00783
2116.000	11.05074	0.17378	10.18558	0.04895
2117.000	11.02598	0.17574	10.08596	0.01175
2118.000	11.06026	0.13277	10.09938	0.03330
2119.000	10.98217	0.15429	10.23154	-0.04307
2120.000	11.03741	0.14254	10.19516	-0.04503
2121.000	10.99550	0.18748	10.24877	-0.08614
2122.000	10.99931	0.12303	10.14727	-0.01175
2123.000	11.02027	0.16989	10.22962	-0.02545
2124.000	11.04312	0.11130	10.27748	-0.03132
2125.000	11.01836	0.15232	10.22005	-0.05874
2126.000	11.01836	0.13474	10.18175	-0.00587
2127.000	11.05264	0.09177	10.29854	0.06068
2128.000	11.04693	0.11325	10.19899	0.01175
2129.000	11.06216	0.10348	10.11662	-0.03525
2130.000	11.05836	0.13667	10.23728	-0.01762
2131.000	11.04883	0.09568	10.19133	-0.03133
2132.000	11.02788	0.12693	10.24303	-0.00979
2133.000	11.10595	0.09956	10.17984	-0.07637
2134.000	11.07549	0.12690	10.15302	-0.06854
2135.000	11.06788	0.15229	10.29280	-0.06459
2136.000	11.04883	0.12887	10.11662	-0.11751
2137.000	11.06026	0.10543	10.25260	-0.05873
2138.000	11.03550	0.11716	10.24877	-0.10572
2139.000	11.05455	0.08201	10.27748	-0.07439
2140.000	11.06026	0.10739	10.16451	0.01371
2141.000	11.06407	0.11324	10.19707	-0.06853
2142.000	11.05264	0.11325	10.14536	0.07050
2143.000	11.04883	0.10349	10.15302	0.00979
2144.000	11.07168	0.05662	10.14153	-0.06267
2145.000	11.04503	0.16597	10.21814	0.00587
2146.000	11.04122	0.15816	10.14536	-0.01175
2147.000	11.06407	0.09567	10.15494	-0.03133
2148.000	11.07549	0.12886	10.18175	-0.04308
2149.000	11.04503	0.11911	10.10896	-0.03721
2150.000	11.07549	0.11714	10.15302	-0.01567
2151.000	11.04693	0.16987	10.24686	0.00587
2152.000	11.01646	0.14841	10.24877	-0.15074
2153.000	11.05455	0.12106	10.18558	-0.01566
2154.000	11.04122	0.16011	10.14919	-0.04308
2155.000	11.04503	0.13863	10.14919	-0.04308
2156.000	11.04883	0.12887	10.15494	-0.00979
2157.000	11.03169	0.12302	10.18750	0.00196
2158.000	11.04883	0.08787	10.10704	-0.04309
2159.000	11.02027	0.12302	10.15685	-0.04700
2160.000	11.03931	0.12302	10.09746	-0.04897
2161.000	11.04693	0.16597	10.14727	0.01175
2162.000	11.02027	0.15231	10.13195	-0.03917
2163.000	11.06407	0.17572	10.17026	-0.04504
2164.000	11.01836	0.16013	10.26791	-0.05873
2165.000	11.03931	0.17574	10.13195	-0.00196
2166.000	11.04693	0.10934	10.26791	-0.00979
2167.000	11.05836	0.09958	10.24494	-0.03524
2168.000	11.05074	0.08005	10.26408	-0.04307
2169.000	11.02407	0.16208	10.17984	-0.08616
2170.000	11.04312	0.18159	10.18558	0.01958
2171.000	11.08882	0.15423	10.19707	0.01762
2172.000	11.02788	0.15622	10.14344	-0.03917
2173.000	11.01074	0.18161	10.15494	0.01567
2174.000	11.00122	0.18748	10.25260	-0.06656
2175.000	11.02407	0.13474	10.14919	-0.07833
2176.000	11.01455	0.18356	10.16260	-0.05483
2177.000	11.05264	0.11910	10.16068	-0.06658
2178.000	10.99741	0.09179	10.14727	-0.06267
2179.000	11.01836	0.13083	10.16643	-0.09595
2180.000	11.01455	0.14451	10.17792	-0.11161
2181.000	11.01646	0.08397	10.24303	-0.07048
2182.000	11.01074	0.06640	10.19707	-0.06266
2183.000	11.01265	0.13084	10.15110	-0.09008
2184.000	11.01455	0.10740	10.14919	-0.04308
2185.000	11.03360	0.12692	10.22005	-0.05874
2186.000	11.02788	0.11911	10.21048	0.04503
2187.000	11.07168	0.17572	10.25260	-0.06852
2188.000	11.05264	0.14839	10.26791	-0.00196
2189.000	11.02217	0.12302	10.17409	-0.14099
2190.000	11.04122	0.16792	10.13386	-0.04896
2191.000	11.07168	0.12495	10.19516	0.00196
2192.000	11.02788	0.18355	10.27940	0.02349
2193.000	11.04312	0.10154	10.27940	-0.06851
2194.000	11.05836	0.09372	10.17601	-0.01371
2195.000	11.05645	0.13863	10.16643	-0.01958
2196.000	11.04693	0.15230	10.29471	-0.02153
2197.000	11.05645	0.11129	10.13386	-0.08225
2198.000	11.04122	0.13082	10.18558	-0.11553
2199.000	11.01646	0.14451	10.13386	-0.04504
2200.000	11.05074	0.12887	10.28131	-0.02740
2201.000	11.03931	0.11520	10.25643	-0.06852
2202.000	11.01836	0.12107	10.16643	-0.02741
2203.000	11.02598	0.08982	10.29471	-0.13702
2204.000	11.00884	0.15232	10.24111	-0.07048
2205.000	11.02979	0.11716	10.20473	-0.02545
2206.000	11.03741	0.13083	10.20473	-0.03329
2207.000	11.03169	0.09568	10.17218	-0.00979
2208.000	11.03360	0.09373	10.34446	-0.06850
2209.000	11.04693	0.15621	10.21239	-0.05874
2210.000	11.06026	0.07810	10.12620	-0.05679
2211.000	11.01074	0.13279	10.17792	-0.06266
2212.000	11.03360	0.07225	10.13961	-0.09008
2213.000	11.01646	0.06639	10.26791	-0.07830
2214.000	10.98217	0.06250	10.18558	-0.10182
2215.000	11.00503	0.04492	10.18558	-0.02546
2216.000	11.04312	0.00781	10.17218	-0.02350
2217.000	11.03360	0.07225	10.22388	-0.09202
2218.000	11.01265	0.10155	10.21048	-0.05678
2219.000	11.00884	0.07421	10.15494	-0.03133
2220.000	11.02407	0.13279	10.19899	-0.07440
2221.000	11.02217	0.09178	10.14919	-0.02937
2222.000	11.00693	0.11912	10.11854	-0.06855
2223.000	11.07549	0.10933	10.16451	-0.00587
2224.000	11.01265	0.11131	10.24686	0.00196
2225.000	11.04883	0.11715	10.15494	-0.06266
2226.000	11.05074	0.08396	10.23537	-0.05873
2227.000	11.02217	0.11912	10.16451	-0.04308
2228.000	11.04883	0.09958	10.16260	-0.03329
2229.000	11.04883	0.11130	10.17218	0.00979
2230.000	11.05645	0.03710	10.20090	-0.01371
2231.000	11.06216	0.08786	10.18367	0.01371
2232.000	11.03169	0.09178	10.12045	0.04113
2233.000	11.03550	0.07225	10.18175	-0.07245
2234.000	11.07740	0.05271	10.21239	-0.09202
2235.000	11.02027	0.09764	10.17026	-0.05483
2236.000	11.01836	0.05272	10.20090	-0.09594
2237.000	11.01074	0.07030	10.09363	-0.01567
2238.000	11.02598	0.04491	10.17601	-0.01371
2239.000	10.98788	0.08984	10.20282	0.00392
2240.000	11.03550	0.09177	10.23345	-0.06069
2241.000	11.02407	0.04296	10.15110	-0.02937
2242.000	11.05264	0.03515	10.21239	-0.04699
2243.000	11.04883	0.07810	10.11470	0.01567
2244.000	11.03169	0.06444	10.20090	0.03524
2245.000	11.02979	0.07420	10.16068	-0.11554
2246.000	11.00693	0.02539	10.25260	-0.02349
2247.000	11.05264	0.07029	10.19516	-0.04503
2248.000	11.05074	0.04100	10.18367	0.02154
2249.000	11.01646	0.03906	10.17792	-0.04700
2250.000	10.99931	0.03710	10.17218	-0.11162
2251.000	11.01836	0.04101	10.04571	0.00588
2252.000	11.01836	0.02539	10.21239	-0.09985
2253.000	11.04312	0.09958	10.12812	0.02938
2254.000	11.02407	0.08787	10.26026	0.00783
2255.000	11.02979	0.05468	10.17409	-0.02741
2256.000	11.04883	0.09763	10.24494	0.08614
2257.000	11.00693	0.04687	10.11087	-0.05288
2258.000	11.00884	0.04296	10.18750	-0.04308
2259.000	11.03550	0.06444	10.19324	-0.02937
2260.000	11.03741	0.02734	10.16451	0.04112
2261.000	11.00503	0.02929	10.15877	-0.01762
2262.000	11.00122	0.02734	10.25643	0.00783
2263.000	11.01455	-0.02734	10.23537	0.00000
2264.000	11.04883	0.01367	10.18367	0.04699
2265.000	11.01836	0.02929	10.14153	0.11358
2266.000	11.04122	0.05272	10.16068	-0.02742
2267.000	11.03741	0.04882	10.18175	0.06070
2268.000	11.04312	0.04491	10.06680	0.06660
2269.000	11.02788	0.04101	10.11279	0.06071
2270.000	11.04122	0.02538	10.09554	0.03917
2271.000	11.04312	0.03710	10.13770	0.08029
2272.000	11.04693	0.02343	10.11662	0.01763
2273.000	11.08121	0.02733	10.15110	0.04112
2274.000	11.06407	-0.00781	10.13961	0.04504
2275.000	11.02788	0.01757	10.23154	0.07635
2276.000	11.04122	0.01172	10.17792	0.05483
2277.000	11.05264	0.00976	10.26791	-0.00196
2278.000	11.01455	-0.00391	10.12620	0.00979
2279.000	11.08121	0.01757	10.21048	-0.02741
2280.000	11.02979	0.03710	10.22962	0.01958
2281.000	11.03550	0.02734	10.26026	0.05481
2282.000	11.03550	0.01367	10.15685	0.07637
2283.000	11.02217	0.04687	10.15877	0.06266
2284.000	11.06026	0.06638	10.22197	0.07831
2285.000	10.99741	0.02343	10.24303	0.04111
2286.000	11.02598	0.04491	10.13770	0.00979
2287.000	11.02217	0.07420	10.21622	0.02937
2288.000	11.00122	0.03320	10.22005	0.08615
2289.000	10.98407	0.01953	10.15877	-0.06266
2290.000	11.03931	0.04686	10.18558	-0.00587
2291.000	11.00122	0.01562	10.19707	0.02154
2292.000	11.04883	0.01757	10.13003	0.00000
2293.000	11.00884	0.00781	10.22580	0.02937
2294.000	10.99169	0.03906	10.27557	-0.03719
2295.000	11.00503	0.02929	10.16260	-0.05287
2296.000	11.04312	-0.00586	10.22962	-0.05482
2297.000	11.03550	0.02148	10.19516	0.04112
2298.000	11.00503	-0.00586	10.24877	0.04698
2299.000	11.00884	0.02734	10.28323	0.05481
2300.000	11.01646	0.00781	10.21431	0.02545
2301.000	11.02027	-0.04687	10.17218	0.03329
2302.000	11.05074	0.00195	10.22388	-0.00392
2303.000	11.03169	-0.01172	10.33298	0.04110
2304.000	11.03931	0.03710	10.25643	0.05286
2305.000	11.04693	-0.01757	10.27174	0.00000
2306.000	11.04503	-0.00586	10.24303	0.01566
2307.000	11.04693	-0.00976	10.24494	0.04111
2308.000	11.05455	-0.03319	10.18750	0.00392
2309.000	11.03550	0.03124	10.16260	-0.00587
2310.000	11.03741	-0.00976	10.25643	0.14291
2311.000	11.00884	0.00195	10.30811	0.03523
2312.000	11.02027	0.00391	10.20665	-0.08028
2313.000	10.98788	-0.01953	10.30045	0.04893
2314.000	11.01646	0.00976	10.21048	0.01762
2315.000	11.02407	0.01367	10.26600	-0.03132
2316.000	11.00693	0.00586	10.33872	0.01957
2317.000	11.00884	-0.03320	10.27366	-0.02153
2318.000	11.02598	-0.05077	10.30428	0.06851
2319.000	11.04503	-0.00586	10.35977	0.00196
2320.000	11.00312	0.02734	10.34829	0.08220
2321.000	11.07549	-0.01171	10.23345	-0.04503
2322.000	11.02217	0.00195	10.31767	-0.11939
2323.000	11.05645	-0.02734	10.33681	-0.00587
2324.000	11.04503	0.01172	10.29280	-0.03132
2325.000	11.06216	0.00195	10.24111	-0.02154
2326.000	11.04122	-0.02929	10.32916	-0.08416
2327.000	11.06978	0.00195	10.29471	-0.06264
2328.000	11.01074	0.03906	10.31959	-0.00196
2329.000	11.03931	0.03710	10.24111	-0.04307
2330.000	11.06597	0.02538	10.30811	-0.01370
2331.000	11.05264	0.00000	10.35211	-0.05088
2332.000	11.03741	0.00781	10.35211	0.01566
2333.000	11.01074	0.04101	10.29088	0.01174
2334.000	11.05264	0.00586	10.30428	0.04502
2335.000	11.04503	0.02538	10.30428	0.01370
2336.000	11.07359	0.01562	10.26026	0.00196
2337.000	11.02217	0.01953	10.31002	-0.05676
2338.000	11.06407	-0.01757	10.36168	0.03327
2339.000	11.07930	0.01171	10.35020	0.02544
2340.000	11.05836	0.00976	10.27748	-0.08417
2341.000	11.07930	-0.00781	10.36551	0.02348
2342.000	11.04883	-0.03710	10.27366	0.02153
2343.000	11.05455	0.02148	10.35403	0.02544
2344.000	11.05836	0.03319	10.32916	0.05089
2345.000	11.02407	0.10154	10.33872	0.09003
2346.000	10.99550	0.22654	10.29088	0.18400
2347.000	10.97073	0.33397	10.23537	0.28779
2348.000	10.86590	0.50601	10.24303	0.42286
2349.000	10.80106	0.77381	9.98436	0.59561
2350.000	10.73809	0.97134	9.94601	0.77985
2351.000	10.63310	1.33521	9.75793	1.11743
2352.000	10.52229	1.72466	9.64460	1.30993
2353.000	10.42480	2.15320	9.57349	1.62780
2354.000	10.29854	2.47651	9.53888	1.96508
2355.000	10.16260	2.75896	9.39462	2.26188
2356.000	10.08596	3.03314	9.32918	2.50727
2357.000	10.03613	3.27774	9.21557	2.93325
2358.000	9.96327	3.49911	9.08260	3.04994
2359.000	9.90956	3.64024	9.23675	3.17000
2360.000	9.93066	3.74734	9.11730	3.32184
2361.000	9.92491	3.83715	9.13272	3.45675
2362.000	9.92299	3.88400	9.14043	3.55256
2363.000	9.99011	3.92415	9.13850	3.58193
2364.000	9.94601	3.92468	9.11730	3.52148
2365.000	9.97477	3.91264	9.23290	3.48121
2366.000	9.98628	3.77596	9.17896	3.45826
2367.000	10.01121	3.65082	9.22712	3.32473
2368.000	10.03996	3.60367	9.29260	3.19299
2369.000	10.10129	3.46250	9.34843	3.05548
2370.000	10.07446	3.39252	9.33496	2.89701
2371.000	10.04188	3.30501	9.28683	2.75248
2372.000	10.06871	3.20321	9.38692	2.73015
2373.000	10.05721	3.12911	9.32341	2.63858
2374.000	10.01121	3.08658	9.39270	2.52836
2375.000	9.99203	3.03988	9.32148	2.52888
2376.000	9.98053	2.98137	9.39077	2.50487
2377.000	9.98436	2.98915	9.47158	2.47098
2378.000	10.00737	3.01238	9.45042	2.41433
2379.000	10.00929	2.97524	9.39462	2.55185
2380.000	9.99587	2.99295	9.54273	2.58404
2381.000	10.02271	3.02201	9.35421	2.53452
2382.000	10.04188	3.04527	9.47350	2.69226
2383.000	10.05913	3.06855	9.38692	2.65377
2384.000	10.05338	3.07642	9.52158	2.76431
2385.000	10.06296	3.13882	9.36190	2.76364
2386.000	10.04380	3.14877	9.40424	2.90231
2387.000	10.05146	3.21510	9.33881	2.82845
2388.000	10.02846	3.17627	9.28490	2.82888
2389.000	10.00737	3.21163	9.22520	2.95080
2390.000	10.01121	3.25260	9.25601	2.97013
2391.000	10.00929	3.25653	9.27527	2.97584
2392.000	10.00737	3.29169	9.24061	3.08579
2393.000	9.99970	3.36207	9.34266	2.98505
2394.000	9.97286	3.37601	9.23483	3.13283
2395.000	10.00354	3.42255	9.29645	2.99720
2396.000	9.95751	3.40155	9.17511	3.14510
2397.000	9.95560	3.44258	9.17126	3.10401
2398.000	9.97669	3.43064	9.26757	3.11100
2399.000	9.95751	3.46598	9.24638	3.04658
2400.000	9.99587	3.49095	9.14813	3.16688
2401.000	9.97286	3.45411	9.14043	3.12387
2402.000	9.96327	3.42883	9.19823	3.13315
2403.000	10.00929	3.45567	9.22905	3.08589
2404.000	9.96902	3.43658	9.23868	3.10147
2405.000	9.95560	3.40938	9.23868	3.12496
2406.000	9.97286	3.44044	9.19438	3.06465
2407.000	9.99011	3.45197	9.21557	2.92738
2408.000	9.99395	3.39727	9.21171	3.03708
2409.000	10.00737	3.38346	9.15777	3.03755
2410.000	9.99970	3.40307	9.31186	3.01468
2411.000	9.96135	3.40347	9.28490	3.07561
2412.000	9.98628	3.42468	9.26179	2.96029
2413.000	9.94984	3.38015	9.22520	3.08788
2414.000	9.94217	3.34313	9.18089	2.95313
2415.000	9.98628	3.36416	9.29068	3.01487
2416.000	9.99778	3.38552	9.16355	3.01791
2417.000	10.01121	3.39123	9.12693	3.02997
2418.000	10.01504	3.35996	9.23098	2.96838
2419.000	10.01121	3.36780	9.24446	2.95064
2420.000	9.99970	3.35621	9.21171	2.94112
2421.000	9.97286	3.37406	9.22327	3.02915
2422.000	10.01121	3.36000	9.24253	2.88211
2423.000	9.99011	3.40121	9.24061	2.93696
2424.000	9.99587	3.34453	9.21364	3.01161
2425.000	9.99970	3.38745	9.19245	2.97849
2426.000	9.99203	3.34653	9.28875	2.98747
2427.000	9.99778	3.34842	9.25216	2.98582
2428.000	10.00354	3.30931	9.20401	2.93531
2429.000	9.97094	3.36236	9.21171	3.01946
2430.000	9.98053	3.31540	9.22135	3.00567
2431.000	10.01504	3.36386	9.17126	3.00805
2432.000	9.97477	3.34084	9.22712	2.96254
2433.000	9.99970	3.32106	9.22520	3.04872
2434.000	9.96902	3.37410	9.22712	2.98408
2435.000	9.98436	3.34270	9.19438	2.99023
2436.000	9.99778	3.39333	9.24638	2.95846
2437.000	10.01312	3.37169	9.26564	3.01900
2438.000	9.99203	3.36019	9.28297	2.94444
2439.000	9.96710	3.37021	9.28105	2.93075
2440.000	9.98053	3.31540	9.24638	2.91145
2441.000	9.98244	3.34272	9.20594	2.98817
2442.000	9.97477	3.34670	9.28683	2.99728
2443.000	9.98628	3.36025	9.18860	2.92368
2444.000	9.96710	3.39364	9.17511	3.02369
2445.000	9.97286	3.36625	9.30223	2.94232
2446.000	9.99011	3.35240	9.17704	3.01780
2447.000	9.98436	3.37589	9.24831	2.93298
2448.000	9.95176	3.37037	9.21749	2.98024
2449.000	9.96519	3.35071	9.29068	2.89346
2450.000	9.97286	3.36625	9.19052	2.98635
2451.000	9.95176	3.36451	9.38500	2.96120
2452.000	9.96327	3.35854	9.23098	2.93704
2453.000	9.95751	3.37422	9.22327	3.01349
2454.000	9.98436	3.35637	9.26949	3.05421
2455.000	9.95176	3.35865	9.35613	3.01235
2456.000	9.96710	3.36631	9.29453	2.92281
2457.000	9.96327	3.39954	9.31956	2.95588
2458.000	9.97286	3.35453	9.24061	2.92521
2459.000	9.99203	3.33481	9.27720	3.00519
2460.000	10.01121	3.34242	9.33496	2.96358
2461.000	9.96902	3.35262	9.23483	3.00360
2462.000	9.99587	3.34063	9.15777	2.94744
2463.000	9.98436	3.35051	9.18089	3.00601
2464.000	9.95560	3.37619	9.32341	2.90886
2465.000	9.96519	3.36047	9.24446	2.97022
2466.000	9.94984	3.35672	9.20208	2.95491
2467.000	9.97094	3.35455	9.20208	3.02737
2468.000	9.94409	3.31577	9.25601	2.91921
2469.000	9.94984	3.37820	9.17318	2.95711
2470.000	9.99778	3.34256	9.21171	2.85493
2471.000	9.97286	3.34282	9.25409	2.95839
2472.000	9.97477	3.34865	9.17896	2.93943
2473.000	9.99011	3.33678	9.19630	2.91187
2474.000	9.98436	3.36808	9.30993	2.93638
2475.000	10.00737	3.33075	9.32918	2.91273
2476.000	10.02079	3.29742	9.27142	2.92887
2477.000	10.01504	3.33457	9.20979	2.93918
2478.000	9.96710	3.37021	9.19823	2.93340
2479.000	10.00545	3.31319	9.32726	3.00476
2480.000	9.95943	3.29218	9.23290	2.88414
2481.000	9.99970	3.32692	9.34458	2.94001
2482.000	9.98436	3.35832	9.28875	2.90719
2483.000	9.97669	3.33106	9.32341	2.88928
2484.000	9.99778	3.37575	9.31956	2.89714
2485.000	9.98436	3.32903	9.21942	2.91951
2486.000	9.96135	3.36246	9.35036	2.99869
2487.000	9.95751	3.34102	9.24638	2.97021
2488.000	9.98244	3.35639	9.27335	2.95627
2489.000	9.97861	3.34276	9.19245	2.87860
2490.000	9.98053	3.31931	9.23290	2.90961
2491.000	9.97861	3.31737	9.28683	2.88566
2492.000	9.98436	3.35832	9.24061	2.97809
2493.000	9.94984	3.37039	9.25024	2.95451
2494.000	9.98053	3.35445	9.16162	3.00813
2495.000	9.98436	3.38565	9.31571	2.95787
2496.000	9.98436	3.32317	9.23290	2.98207
2497.000	9.99395	3.34651	9.27142	2.97587
2498.000	9.93258	3.39791	9.23675	2.92720
2499.000	9.82705	3.37751	9.20016	3.02152
2500.000	9.69071	3.39061	9.09610	3.00673
2501.000	9.46581	3.39481	8.90516	2.97695
2502.000	9.25216	3.38515	8.73141	3.00188
2503.000	8.88973	3.27691	8.48983	2.80361
2504.000	8.50723	3.30966	8.08135	2.70826
2505.000	7.99606	3.16665	7.77492	2.58636
2506.000	7.48166	3.03678	7.29500	2.46121
2507.000	6.89396	2.88115	6.96020	2.27572
2508.000	6.36143	2.58835	6.45124	1.87930
2509.000	5.67709	2.12915	6.09377	1.69877
2510.000	5.08529	1.86997	5.62619	1.53798
2511.000	4.53760	1.52274	5.25982	1.28549
2512.000	4.04415	1.33135	4.95189	1.04440
2513.000	3.59540	1.05816	4.68884	0.92191
2514.000	3.21912	0.80241	4.32535	0.57527
2515.000	2.90765	0.55035	4.06775	0.29965
2516.000	2.66900	0.31597	3.88871	0.07542
2517.000	2.41249	0.07553	3.66234	-0.17670
2518.000	2.06902	-0.17694	3.44965	-0.35149
2519.000	1.82613	-0.42552	3.02792	-0.59002
2520.000	1.51798	-0.68608	2.82680	-0.87621
2521.000	1.34412	-0.89493	2.57825	-1.11083
2522.000	1.10698	-1.06204	2.32960	-1.38721
2523.000	0.84610	-1.30868	2.02163	-1.56035
2524.000	0.54959	-1.48372	1.67404	-1.77325
2525.000	0.18584	-1.72034	1.42710	-2.09131
2526.000	-0.10083	-1.85549	1.22358	-2.37547
2527.000	-0.37365	-2.07801	0.78284	-2.46118
2528.000	-0.60099	-2.24877	0.42109	-2.64202
2529.000	-0.83621	-2.40356	0.21154	-2.81277
2530.000	-0.98643	-2.45310	-0.02372	-2.87431
2531.000	-1.11884	-2.59792	-0.35783	-2.97148
2532.000	-1.16232	-2.62964	-0.48238	-2.96747
2533.000	-1.23544	-2.65537	-0.62471	-3.05270
2534.000	-1.24927	-2.62955	-0.93702	-3.11991
2535.000	-1.33819	-2.57389	-1.07339	-2.98292
2536.000	-1.40142	-2.54206	-1.29274	-2.95690
2537.000	-1.41722	-2.47257	-1.40339	-2.84369
2538.000	-1.44883	-2.37128	-1.56540	-2.75024
2539.000	-1.47847	-2.30176	-1.71553	-2.74408
2540.000	-1.48242	-2.25609	-1.85378	-2.63079
2541.000	-1.53379	-2.09319	-1.92883	-2.55329
2542.000	-1.58910	-2.06732	-2.12233	-2.55497
2543.000	-1.51601	-1.99787	-2.05520	-2.49356
2544.000	-1.55354	-1.91441	-1.98412	-2.32497
2545.000	-1.50613	-1.91644	-1.93672	-2.25555
2546.000	-1.43698	-1.91054	-1.81823	-2.33313
2547.000	-1.33424	-1.93645	-1.69182	-2.29358
2548.000	-1.32238	-2.00996	-1.62664	-2.43660
2549.000	-1.23939	-2.05770	-1.50810	-2.38313
2550.000	-1.17220	-2.06967	-1.40734	-2.53213
2551.000	-1.12675	-2.11539	-1.39549	-2.58375
2552.000	-1.13663	-2.18093	-1.33819	-2.60167
2553.000	-1.15441	-2.22262	-1.34609	-2.72868
2554.000	-1.15639	-2.21666	-1.32436	-2.65528
2555.000	-1.14651	-2.25838	-1.37178	-2.68896
2556.000	-1.21172	-2.25634	-1.35992	-2.80010
2557.000	-1.23544	-2.27419	-1.42908	-2.78811
2558.000	-1.36980	-2.31378	-1.55552	-2.92483
2559.000	-1.42513	-2.28593	-1.62466	-2.87117
2560.000	-1.45081	-2.27002	-1.75700	-2.92850
2561.000	-1.51798	-2.35930	-1.75503	-3.01378
2562.000	-1.55947	-2.38705	-1.83206	-3.05727
2563.000	-1.57330	-2.40093	-1.89328	-2.98777
2564.000	-1.63849	-2.42269	-1.94857	-3.12051
2565.000	-1.61083	-2.42868	-1.94660	-3.12051
2566.000	-1.63454	-2.44254	-2.06902	-3.02909
2567.000	-1.64244	-2.41871	-2.05915	-3.05290
2568.000	-1.60096	-2.46045	-1.99597	-3.04112
2569.000	-1.62071	-2.50608	-2.09864	-3.01515
2570.000	-1.55354	-2.43668	-2.06310	-2.97358
2571.000	-1.61478	-2.46837	-2.03151	-2.97761
2572.000	-1.59700	-2.40884	-2.03348	-2.97562
2573.000	-1.51798	-2.39900	-2.01176	-2.98954
2574.000	-1.55354	-2.46249	-1.99991	-2.90826
2575.000	-1.51008	-2.39306	-1.93278	-3.00158
2576.000	-1.49032	-2.40698	-2.05915	-2.92204
2577.000	-1.44093	-2.36732	-2.01176	-2.97368
2578.000	-1.44883	-2.37327	-1.95845	-2.84884
2579.000	-1.40537	-2.33162	-1.98214	-2.89838
2580.000	-1.37771	-2.33165	-1.88143	-2.97192
2581.000	-1.32238	-2.32177	-1.99399	-2.92017
2582.000	-1.38166	-2.34554	-1.89130	-2.80928
2583.000	-1.35992	-2.30585	-1.87551	-2.91641
2584.000	-1.34609	-2.31182	-1.97029	-2.84088
2585.000	-1.35795	-2.27408	-1.91303	-2.85486
2586.000	-1.36783	-2.24826	-1.88735	-2.85094
2587.000	-1.33621	-2.28800	-1.88143	-2.87872
2588.000	-1.36980	-2.28797	-1.81033	-2.82131
2589.000	-1.35202	-2.23636	-1.86168	-2.79742
2590.000	-1.32238	-2.24036	-1.85773	-2.80933
2591.000	-1.38956	-2.23434	-1.86761	-2.78353
2592.000	-1.34807	-2.22445	-1.91303	-2.86081
2593.000	-1.36783	-2.26613	-1.82021	-2.85303
2594.000	-1.34412	-2.25225	-1.87353	-2.74186
2595.000	-1.34214	-2.26615	-1.85378	-2.82322
2596.000	-1.36585	-2.29790	-1.90118	-2.83108
2597.000	-1.37178	-2.25818	-1.82613	-2.86889
2598.000	-1.36585	-2.26017	-1.92488	-2.87468
2599.000	-1.38166	-2.32767	-1.88341	-2.91639
2600.000	-1.37375	-2.28598	-1.87551	-2.85492
2601.000	-1.38166	-2.27207	-1.90315	-2.89058
2602.000	-1.35795	-2.27607	-1.83008	-2.86491
2603.000	-1.40142	-2.25418	-1.86761	-2.81923
2604.000	-1.43105	-2.26408	-1.93475	-2.88656
2605.000	-1.38561	-2.24030	-1.90908	-2.92825
2606.000	-1.39944	-2.26014	-1.97819	-2.81905
2607.000	-1.38561	-2.24625	-1.88143	-2.88268
2608.000	-1.40537	-2.21248	-1.90710	-2.88859
2609.000	-1.38166	-2.27406	-1.90513	-2.97783
2610.000	-1.38561	-2.26214	-1.89723	-2.87869
2611.000	-1.44291	-2.32364	-1.93080	-2.85087
2612.000	-1.43698	-2.28592	-1.90315	-2.83306
2613.000	-1.42117	-2.24225	-1.84391	-2.94422
2614.000	-1.44291	-2.29386	-1.98214	-2.89243
2615.000	-1.38561	-2.25618	-1.89723	-2.90844
2616.000	-1.43105	-2.27798	-1.91500	-2.88064
2617.000	-1.44883	-2.27995	-1.94067	-2.87862
2618.000	-1.43303	-2.27997	-1.96240	-2.92419
2619.000	-1.43500	-2.27599	-1.93672	-2.90440
2620.000	-1.42513	-2.24622	-2.02163	-2.90227
2621.000	-1.42315	-2.27799	-1.99597	-2.94000
2622.000	-1.46069	-2.26008	-1.99004	-2.83688
2623.000	-1.46464	-2.24816	-1.91105	-2.93618
2624.000	-1.40339	-2.24624	-1.88933	-2.88664
2625.000	-1.44291	-2.25414	-1.92093	-2.89452
2626.000	-1.44093	-2.29386	-1.95252	-2.87661
2627.000	-1.46859	-2.25015	-1.84786	-2.91844
2628.000	-1.43698	-2.30180	-1.88143	-2.87078
2629.000	-1.49428	-2.28983	-1.92290	-2.96392
2630.000	-1.39549	-2.29192	-1.89130	-2.91836
2631.000	-1.49230	-2.31565	-1.95450	-2.94404
2632.000	-1.41722	-2.23431	-1.88735	-2.93225
2633.000	-1.41722	-2.31374	-1.94857	-2.85480
2634.000	-1.47649	-2.33552	-1.94857	-2.91232
2635.000	-1.46662	-2.25809	-1.93672	-2.93217
2636.000	-1.45279	-2.32760	-1.84588	-2.86886
2637.000	-1.45279	-2.30179	-1.95450	-2.91826
2638.000	-1.49625	-2.27792	-1.88933	-2.91242
2639.000	-1.44488	-2.27797	-1.96042	-2.95989
2640.000	-1.46662	-2.29979	-1.96240	-2.86866
2641.000	-1.44686	-2.22832	-1.92488	-2.89848
2642.000	-1.46464	-2.26405	-1.86563	-2.86287
2643.000	-1.45674	-2.26207	-1.93475	-2.88854
2644.000	-1.50613	-2.27592	-2.04138	-2.84473
2645.000	-1.50415	-2.27592	-1.89723	-2.84695
2646.000	-1.45081	-2.24023	-1.95055	-2.95198
2647.000	-1.45871	-2.27597	-1.92093	-2.95004
2648.000	-1.49032	-2.26998	-1.93278	-2.94209
2649.000	-1.54367	-2.28779	-1.95845	-2.83099
2650.000	-1.48835	-2.31764	-1.89130	-2.90250
2651.000	-1.50613	-2.32754	-1.89328	-2.89456
2652.000	-1.45279	-2.29980	-2.01374	-2.95979
2653.000	-1.52589	-2.23023	-1.96042	-2.91230
2654.000	-1.51403	-2.30172	-1.88341	-2.86483
2655.000	-1.52391	-2.28384	-1.90513	-2.87868
2656.000	-1.52589	-2.26200	-1.89130	-2.86283
2657.000	-1.51206	-2.27393	-1.97622	-2.85872
2658.000	-1.53971	-2.27986	-1.92488	-2.91632
2659.000	-1.53774	-2.29177	-1.92883	-2.88855
2660.000	-1.55749	-2.31558	-1.91698	-2.90840
2661.000	-1.57330	-2.32747	-1.92685	-2.84889
2662.000	-1.54169	-2.28780	-1.91500	-2.87866
2663.000	-1.48440	-2.32558	-1.95647	-2.91627
2664.000	-1.53971	-2.29971	-1.96635	-2.86271
2665.000	-1.53971	-2.30368	-1.97424	-2.90236
2666.000	-1.54762	-2.27985	-2.00781	-2.91420
2667.000	-1.52193	-2.28980	-1.93870	-2.87465
2668.000	-1.48045	-2.28389	-1.92685	-2.90839
2669.000	-1.52984	-2.25207	-1.87353	-2.89658
2670.000	-1.56935	-2.34336	-1.87946	-2.80136
2671.000	-1.53576	-2.31759	-1.99597	-2.85472
2672.000	-1.53971	-2.26993	-1.94265	-2.89646
2673.000	-1.57132	-2.32350	-1.92488	-2.85683
2674.000	-1.52391	-2.25009	-1.91895	-2.84692
2675.000	-1.57527	-2.29967	-1.87551	-2.87476
2676.000	-1.53576	-2.31361	-1.89328	-2.92233
2677.000	-1.53181	-2.27391	-1.94857	-2.88654
2678.000	-1.52984	-2.30171	-1.96832	-2.87857
2679.000	-1.55947	-2.28381	-1.88538	-2.95209
2680.000	-1.53181	-2.23618	-1.90710	-2.88661
2681.000	-1.53576	-2.27589	-1.89328	-2.92431
2682.000	-1.52391	-2.29576	-1.95055	-2.90240
2683.000	-1.56737	-2.25600	-1.97029	-2.91426
2684.000	-1.55947	-2.32352	-1.93080	-2.93416
2685.000	-1.54169	-2.28383	-1.87946	-2.93227
2686.000	-1.57527	-2.28379	-2.02163	-2.90624
2687.000	-1.52786	-2.29972	-1.93278	-2.85483
2688.000	-1.57132	-2.25997	-2.01571	-2.83882
2689.000	-1.53576	-2.26993	-1.97029	-2.86468
2690.000	-1.51798	-2.28186	-1.92883	-2.91632
2691.000	-1.49823	-2.25210	-1.93080	-2.86475
2692.000	-1.53971	-2.31957	-1.90908	-2.86677
2693.000	-1.55749	-2.29175	-1.85773	-2.94024
2694.000	-1.52984	-2.28781	-1.91895	-2.89650
2695.000	-1.51206	-2.27393	-1.96832	-2.85874
2696.000	-1.55552	-2.30565	-1.89920	-2.89654
2697.000	-1.54959	-2.33345	-1.94660	-2.93810
2698.000	-1.54169	-2.29772	-1.92290	-2.88063
2699.000	-1.45476	-2.28392	-2.00781	-2.93204
2700.000	-1.54169	-2.26595	-1.90908	-2.90842
2701.000	-1.50218	-2.25607	-1.89723	-2.96595
2702.000	-1.50415	-2.29776	-1.84786	-2.91447
2703.000	-1.54169	-2.35133	-1.87946	-2.88070
2704.000	-1.49625	-2.29579	-2.02558	-2.93598
2705.000	-1.51008	-2.30173	-1.90315	-2.95206
2706.000	-1.50613	-2.31563	-1.90315	-2.97189
2707.000	-1.47057	-2.32163	-1.86366	-2.92634
2708.000	-1.48637	-2.27793	-1.89525	-2.93224
2709.000	-1.46859	-2.24419	-1.95647	-2.94403
2710.000	-1.49428	-2.27990	-1.94067	-2.84292
2711.000	-1.46266	-2.27398	-1.93672	-2.87862
2712.000	-1.42908	-2.30975	-1.85378	-2.93429
2713.000	-1.44488	-2.25017	-1.97227	-2.87460
2714.000	-1.48045	-2.28190	-1.96832	-2.91030
2715.000	-1.50218	-2.28188	-1.87156	-2.90848
2716.000	-1.48045	-2.32559	-1.97227	-2.87063
2717.000	-1.43500	-2.30181	-1.95450	-2.93610
2718.000	-1.48637	-2.25807	-1.96635	-2.89047
2719.000	-1.45476	-2.25612	-1.98017	-2.89045
2720.000	-1.45871	-2.28193	-1.90315	-2.91239
2721.000	-1.48242	-2.31566	-1.97819	-2.89640
2722.000	-1.47847	-2.30176	-1.95845	-2.94205
2723.000	-1.40932	-2.29587	-1.94067	-2.96786
2724.000	-1.44291	-2.28790	-1.95055	-2.91826
2725.000	-1.45279	-2.28392	-1.95450	-2.92619
2726.000	-1.43896	-2.27202	-1.93475	-2.92424
2727.000	-1.45871	-2.28590	-1.98609	-2.96976
2728.000	-1.46464	-2.29383	-1.98017	-2.88450
2729.000	-1.49625	-2.28586	-1.90908	-2.88065
2730.000	-1.48835	-2.30374	-1.91500	-2.88461
2731.000	-1.45476	-2.28789	-1.92093	-2.89253
2732.000	-1.50810	-2.31761	-1.97819	-2.95193
2733.000	-1.47254	-2.31567	-1.93870	-2.90638
2734.000	-1.47057	-2.33354	-1.94857	-2.89843
2735.000	-1.50810	-2.29180	-2.02558	-2.86855
2736.000	-1.43896	-2.28195	-1.84193	-2.90060
2737.000	-1.50218	-2.36130	-1.97424	-2.91822
2738.000	-1.48242	-2.32757	-1.87946	-2.93822
2739.000	-1.47452	-2.38118	-1.96832	-2.91823
2740.000	-1.50613	-2.33152	-1.90908	-2.94411
2741.000	-1.49428	-2.31763	-1.93475	-2.98175
2742.000	-1.49625	-2.32160	-1.92488	-3.02142
2743.000	-1.42908	-2.31968	-1.94462	-2.92026
2744.000	-1.48835	-2.32359	-1.99597	-2.89835
2745.000	-1.53379	-2.35531	-1.91698	-2.89849
2746.000	-1.51206	-2.38313	-1.96437	-2.94600
2747.000	-1.49625	-2.32160	-1.97424	-2.96581
2748.000	-1.50810	-2.35335	-1.95252	-2.97180
2749.000	-1.51403	-2.33945	-1.95055	-2.92818
2750.000	-1.51008	-2.32754	-1.95252	-2.94602
2751.000	-1.50415	-2.34542	-1.90710	-2.90842
2752.000	-1.52193	-2.35731	-2.03743	-2.91613
2753.000	-1.56935	-2.32549	-1.99597	-2.81109
2754.000	-1.55157	-2.36919	-1.95845	-2.92222
2755.000	-1.51008	-2.39107	-1.94265	-2.90836
2756.000	-1.52391	-2.36723	-1.98017	-2.96382
2757.000	-1.48835	-2.36926	-1.91303	-2.93023
2758.000	-1.52193	-2.41290	-1.96042	-2.97377
2759.000	-1.52589	-2.33944	-1.92685	-2.97185
2760.000	-1.55354	-2.36919	-1.99004	-2.92414
2761.000	-1.51996	-2.30370	-1.94462	-2.89646
2762.000	-1.52193	-2.36525	-1.97227	-2.96582
2763.000	-1.51206	-2.36526	-1.94265	-2.92026
2764.000	-1.51008	-2.34541	-1.91105	-2.90841
2765.000	-1.51601	-2.34342	-1.97029	-2.99556
2766.000	-1.51798	-2.33746	-1.99991	-2.93206
2767.000	-1.49625	-2.33947	-1.95252	-2.92024
2768.000	-1.49230	-2.32954	-1.96240	-2.86668
2769.000	-1.47649	-2.31566	-1.94265	-2.97975
2770.000	-1.52786	-2.30767	-2.00781	-2.97963
2771.000	-1.48440	-2.29580	-1.99991	-2.84678
2772.000	-1.49428	-2.24813	-1.94265	-2.97777
2773.000	-1.52786	-2.35135	-1.97819	-2.90830
2774.000	-1.52786	-2.29774	-1.95252	-2.96585
2775.000	-1.51206	-2.35732	-1.93475	-2.92821
2776.000	-1.47649	-2.36728	-1.93080	-2.95399
2777.000	-1.53971	-2.30567	-1.97424	-2.94797
2778.000	-1.51996	-2.31562	-1.97029	-2.91426
2779.000	-1.54762	-2.32353	-1.88538	-2.90052
2780.000	-1.54959	-2.31558	-1.95055	-2.90438
2781.000	-1.50020	-2.30770	-2.02953	-2.92606
2782.000	-1.53774	-2.32950	-1.94660	-2.89249
2783.000	-1.52391	-2.27392	-1.91698	-2.80130
2784.000	-1.55552	-2.31756	-1.85773	-2.81132
2785.000	-1.52391	-2.26002	-1.92685	-2.80327
2786.000	-1.52589	-2.29377	-1.95450	-2.86868
2787.000	-1.50415	-2.31960	-1.96635	-2.84287
2788.000	-1.54762	-2.30566	-1.90315	-2.83703
2789.000	-1.51798	-2.26002	-1.89723	-2.90249
2790.000	-1.55552	-2.32551	-1.94462	-2.87068
2791.000	-1.53774	-2.33545	-1.98017	-2.85872
2792.000	-1.54169	-2.29574	-1.91105	-2.85883
2793.000	-1.56145	-2.32947	-1.99202	-2.92612
2794.000	-1.56737	-2.31954	-2.00386	-2.84479
2795.000	-1.56737	-2.26791	-1.91105	-2.86677
2796.000	-1.56145	-2.29175	-1.93278	-2.85285
2797.000	-1.55552	-2.27984	-1.99004	-2.91621
2798.000	-1.61676	-2.33139	-1.91303	-2.93221
2799.000	-1.54762	-2.26396	-1.93870	-2.91233
2800.000	-1.56145	-2.29770	-1.99597	-2.83489
2801.000	-1.57330	-2.31357	-2.00386	-2.94990
2802.000	-1.61676	-2.32345	-1.91698	-2.82510
2803.000	-1.55157	-2.29176	-1.91500	-2.83701
2804.000	-1.58318	-2.34533	-1.90315	-2.85290
2805.000	-1.58910	-2.30164	-1.91500	-2.97385
2806.000	-1.52786	-2.28384	-1.93672	-2.98373
2807.000	-1.56935	-2.32748	-1.91895	-2.92228
2808.000	-1.55947	-2.33344	-1.84983	-2.95611
2809.000	-1.57725	-2.30563	-1.93278	-2.95597
2810.000	-1.56737	-2.32549	-1.93475	-2.92622
2811.000	-1.58910	-2.36319	-1.94660	-2.92819
2812.000	-1.59305	-2.34929	-1.96635	-2.94402
2813.000	-1.60688	-2.36317	-1.95055	-2.90438
2814.000	-1.52391	-2.35731	-1.93672	-2.87664
2815.000	-1.59108	-2.36517	-1.95450	-2.87661
2816.000	-1.55157	-2.34735	-1.90315	-2.88661
2817.000	-1.61083	-2.38897	-1.92290	-2.99565
2818.000	-1.59305	-2.39892	-1.96042	-2.96584
2819.000	-1.56540	-2.35726	-1.92883	-2.93417
2820.000	-1.59108	-2.36914	-1.92290	-2.98177
2821.000	-1.58713	-2.36915	-1.90118	-2.91438
2822.000	-1.61676	-2.39691	-1.93870	-2.95398
2823.000	-1.56342	-2.37116	-1.86563	-2.96997
2824.000	-1.61873	-2.34132	-1.91500	-2.99170
2825.000	-1.59305	-2.41877	-1.99004	-2.92018
2826.000	-1.58910	-2.43069	-1.89525	-2.99371
2827.000	-1.60886	-2.43662	-1.90315	-2.98379
2828.000	-1.60886	-2.40684	-1.93080	-2.95399
2829.000	-1.62071	-2.40881	-1.96437	-2.93807
2830.000	-1.59700	-2.38899	-1.87156	-3.04333
2831.000	-1.59503	-2.41678	-1.95450	-2.92024
2832.000	-1.62071	-2.39492	-1.90118	-2.96991
2833.000	-1.61281	-2.36316	-1.97622	-2.95986
2834.000	-1.58515	-2.37709	-1.91500	-2.93419
2835.000	-1.61083	-2.39691	-1.91895	-3.00557
2836.000	-1.61083	-2.37706	-1.93278	-2.98968
2837.000	-1.62466	-2.36712	-1.92685	-2.96986
2838.000	-1.60096	-2.40288	-1.94462	-2.97975
2839.000	-1.59305	-2.41282	-1.95252	-2.95990
2840.000	-1.62861	-2.34925	-1.94462	-2.92621
2841.000	-1.57330	-2.41482	-2.02361	-2.98159
2842.000	-1.56342	-2.34734	-1.93672	-2.95200
2843.000	-1.58713	-2.37312	-1.91303	-2.96394
2844.000	-1.57132	-2.39299	-1.91105	-2.95204
2845.000	-1.65429	-2.38297	-1.94660	-2.91232
2846.000	-1.62071	-2.38301	-2.00781	-2.93601
2847.000	-1.63256	-2.36314	-1.91698	-2.95798
2848.000	-1.62861	-2.40285	-1.82218	-2.90261
2849.000	-1.60096	-2.39692	-1.91303	-3.03334
2850.000	-1.63849	-2.40879	-1.89130	-2.92233
2851.000	-1.62466	-2.34925	-1.90118	-2.90248
2852.000	-1.59108	-2.36914	-1.90315	-2.83703
2853.000	-1.62071	-2.41080	-1.88143	-2.99572
2854.000	-1.60096	-2.40090	-1.91105	-2.86677
2855.000	-1.61873	-2.39889	-1.90908	-2.86280
2856.000	-1.61873	-2.46241	-1.95252	-2.95792
2857.000	-1.62466	-2.41476	-1.91500	-2.94410
2858.000	-1.59898	-2.37112	-1.96437	-3.00351
2859.000	-1.62466	-2.39293	-1.90315	-2.90446
2860.000	-1.57923	-2.42077	-1.93870	-2.94208
2861.000	-1.61873	-2.39690	-1.91303	-2.94609
2862.000	-1.59108	-2.41877	-1.94857	-2.93810
2863.000	-1.63849	-2.44452	-1.88143	-2.86086
2864.000	-1.59305	-2.38701	-1.94265	-2.87663
2865.000	-1.60491	-2.39692	-1.89130	-2.85490
2866.000	-1.63651	-2.38100	-1.94265	-2.91233
2867.000	-1.62664	-2.37903	-1.96832	-2.81907
2868.000	-1.58120	-2.38702	-1.94660	-2.86472
2869.000	-1.61873	-2.41874	-1.87156	-2.89460
2870.000	-1.61281	-2.40485	-1.95252	-2.93214
2871.000	-1.58515	-2.40885	-1.90513	-2.99766
2872.000	-1.64244	-2.42467	-2.00781	-2.91420
2873.000	-1.63651	-2.44254	-1.85181	-2.96404
2874.000	-1.66417	-2.42067	-1.86366	-2.91246
2875.000	-1.67997	-2.37698	-1.94660	-2.89447
2876.000	-1.64244	-2.42070	-1.95845	-2.88057
2877.000	-1.66614	-2.36906	-1.92290	-2.88658
2878.000	-1.66219	-2.36112	-1.90908	-2.90643
2879.000	-1.68392	-2.39683	-1.93080	-2.81120
2880.000	-1.64244	-2.35122	-1.89328	-2.84299
2881.000	-1.61083	-2.30360	-1.91698	-2.82907
2882.000	-1.62664	-2.26983	-1.90710	-2.85487
2883.000	-1.62269	-2.32146	-1.80836	-2.72410
2884.000	-1.60096	-2.27582	-1.76688	-2.78765
2885.000	-1.60096	-2.31354	-1.84193	-2.70620
2886.000	-1.51206	-2.26599	-1.76293	-2.68251
2887.000	-1.51206	-2.24414	-1.76491	-2.75194
2888.000	-1.43303	-2.20649	-1.72935	-2.64882
2889.000	-1.50613	-2.20245	-1.61083	-2.59540
2890.000	-1.45081	-2.15683	-1.49428	-2.66104
2891.000	-1.30262	-2.08347	-1.31645	-2.46473
2892.000	-1.13268	-2.05381	-1.15639	-2.30007
2893.000	-0.86388	-1.98046	-0.94887	-2.19695
2894.000	-0.69785	-1.89908	-0.62866	-2.01435
2895.000	-0.30643	-1.73821	-0.31434	-1.91509
2896.000	0.07315	-1.58518	-0.07315	-1.77600
2897.000	0.36376	-1.41219	0.28271	-1.61498
2898.000	0.73145	-1.28486	0.47645	-1.33462
2899.000	1.02200	-1.11774	0.87377	-1.16551
2900.000	1.38561	-0.84123	1.21765	-0.99042
2901.000	1.62071	-0.65225	1.51798	-0.75965
2902.000	1.90710	-0.48713	1.74120	-0.57864
2903.000	2.09271	-0.28430	2.04138	-0.36781
2904.000	2.31184	-0.08548	2.22499	-0.12524
2905.000	2.49735	0.15503	2.38684	0.09342
2906.000	2.53681	0.38954	2.43223	0.30808
2907.000	2.61573	0.65381	2.50722	0.63400
2908.000	2.60587	0.83663	2.51708	0.74726
2909.000	2.54273	1.04331	2.55260	0.99562
2910.000	2.46380	1.15861	2.51511	1.09698
2911.000	2.42631	1.34738	2.47367	1.21820
2912.000	2.32763	1.48455	2.42433	1.41492
2913.000	2.35329	1.60966	2.34539	1.42891
2914.000	2.29802	1.72691	2.38881	1.57585
2915.000	2.27433	1.74481	2.30592	1.68916
2916.000	2.26249	1.82426	2.37500	1.79433
2917.000	2.30789	1.89966	2.39671	1.81019
2918.000	2.32368	1.99892	2.44210	1.97889
2919.000	2.39671	2.04447	2.43223	2.08213
2920.000	2.48946	2.19518	2.45394	2.24684
2921.000	2.56444	2.34784	2.50919	2.39358
2922.000	2.65913	2.48455	2.65124	2.63133
2923.000	2.74396	2.72036	2.60192	2.83170
2924.000	2.80707	2.93429	2.70253	2.97022
2925.000	2.85243	3.16599	2.76565	3.28904
2926.000	2.85835	3.40561	2.72818	3.43173
2927.000	2.81102	3.62548	2.74593	3.66922
2928.000	2.78538	3.85310	2.70056	3.85338
2929.000	2.78735	4.07063	2.59600	4.06336
2930.000	2.73607	4.22302	2.61573	4.23924
2931.000	2.74001	4.42257	2.52892	4.48653
2932.000	2.68083	4.56499	2.56246	4.69573
2933.000	2.74198	4.72861	2.55260	4.74512
2934.000	2.72818	4.90033	2.48551	5.01963
2935.000	2.76368	5.05993	2.54865	5.08250
2936.000	2.79524	5.21354	2.60981	5.29119
2937.000	2.89187	5.38646	2.61968	5.43299
2938.000	2.94709	5.53189	2.71042	5.59010
2939.000	3.10086	5.68262	2.69267	5.66891
2940.000	3.15014	5.73349	2.83863	5.83345
2941.000	3.28810	5.95090	2.89976	5.87443
2942.000	3.39449	6.08971	2.80905	6.05179
2943.000	3.42010	6.23873	2.81299	6.18536
2944.000	3.42601	6.40349	2.77354	6.35049
2945.000	3.38661	6.52924	2.73409	6.46256
2946.000	3.31371	6.63752	2.65913	6.52966
2947.000	3.24080	6.71050	2.56246	6.62430
2948.000	3.18365	6.82252	2.52695	6.67154
2949.000	3.11663	6.83862	2.45196	6.72877
2950.000	3.04369	6.96635	2.39473	6.82706
2951.000	3.06144	7.03278	2.41447	7.00521
2952.000	3.02792	7.18558	2.32565	7.03503
2953.000	2.94709	7.27214	2.33947	7.17785
2954.000	2.99638	7.41839	2.32565	7.20140
2955.000	2.97863	7.51812	2.26841	7.41486
2956.000	2.90765	7.53226	2.28026	7.55549
2957.000	2.92145	7.62588	2.30197	7.64717
2958.000	2.94906	7.75838	2.33355	7.70557
2959.000	2.91159	7.80154	2.36513	7.73663
2960.000	2.91357	7.87563	2.23288	7.78613
2961.000	2.83074	7.93662	2.18156	7.88590
2962.000	2.77749	7.93893	2.18945	7.90341
2963.000	2.71042	7.98225	2.20327	7.88189
2964.000	2.68281	7.97853	2.13615	7.72026
2965.000	2.65124	7.94365	2.07495	7.78693
2966.000	2.53287	7.92878	2.01966	7.67787
2967.000	2.49143	7.90173	2.04928	7.68554
2968.000	2.48946	7.86859	1.94660	7.72702
2969.000	2.38881	7.90233	1.91500	7.71154
2970.000	2.42433	7.83386	1.89328	7.71359
2971.000	2.31579	7.81106	1.86761	7.65902
2972.000	2.33552	7.85972	1.83008	7.65918
2973.000	2.35329	7.91618	1.82021	7.74319
2974.000	2.36513	7.90051	1.79848	7.77062
2975.000	2.33552	7.92798	1.79256	7.74526
2976.000	2.36908	8.02137	1.89920	7.88337
2977.000	2.45196	8.08908	1.83206	7.90707
2978.000	2.44012	8.17097	1.90513	8.06080
2979.000	2.52300	8.20356	1.93278	8.02363
2980.000	2.51905	8.24058	1.88538	8.00435
2981.000	2.52892	8.35144	2.00781	8.07785
2982.000	2.59798	8.35684	1.94067	8.09571
2983.000	2.57627	8.29471	1.96635	8.11703
2984.000	2.56641	8.32007	1.96437	8.03518
2985.000	2.62165	8.32750	2.02756	7.97248
2986.000	2.60192	8.24200	2.01374	7.96670
2987.000	2.59798	8.22840	1.99991	7.98042
2988.000	2.61573	8.19129	1.96832	7.89475
2989.000	2.61968	8.16401	2.01571	7.99009
2990.000	2.57233	8.12146	2.03151	8.02316
2991.000	2.62560	8.16202	1.99597	7.85170
2992.000	2.61771	8.10365	1.94265	7.95534
2993.000	2.55654	8.08845	1.98214	7.84396
2994.000	2.54865	8.07096	1.93475	7.91832
2995.000	2.58614	8.12332	2.03151	7.86519
2996.000	2.53484	8.12949	1.92883	7.88713
2997.000	2.54668	8.18200	1.88538	7.77024
2998.000	2.53089	8.14509	1.97227	7.83035
2999.000	2.46972	8.13963	1.92488	7.87740
3000.000	2.44802	8.18066	2.03546	7.88858
3001.000	2.48354	8.20770	1.93475	7.94172
3002.000	2.45986	8.19032	1.99991	7.88095
3003.000	2.46972	8.20389	1.89920	7.90873
3004.000	2.45196	8.20205	1.87156	7.81910
3005.000	2.50524	8.14330	1.93278	7.99438
3006.000	2.51116	8.15690	1.98214	7.99025
3007.000	2.48156	8.15124	1.90315	7.87749
3008.000	2.44210	8.15732	1.98609	7.98633
3009.000	2.47367	8.16297	1.88538	7.97510
3010.000	2.47367	8.17466	1.94857	7.97286
3011.000	2.47367	8.21165	1.99794	7.88876
3012.000	2.49143	8.16676	1.91500	7.91256
3013.000	2.49538	8.20179	1.93475	7.88711
3014.000	2.48156	8.19798	1.96635	7.85379
3015.000	2.51708	8.14323	1.94660	8.00017
3016.000	2.49538	8.19205	1.94462	7.87926
3017.000	2.51511	8.20751	1.89328	7.95166
3018.000	2.46183	8.18057	1.90315	7.85798
3019.000	2.42039	8.15940	1.93672	7.92611
3020.000	2.44012	8.13786	1.90118	7.88531
3021.000	2.50722	8.14134	1.93870	7.87928
3022.000	2.51905	8.19775	1.93278	7.86956
3023.000	2.43618	8.13398	2.01769	7.95498
3024.000	2.52103	8.12763	1.93870	7.91440
3025.000	2.52300	8.17046	1.89328	7.90290
3026.000	2.49538	8.15895	1.98412	7.95124
3027.000	2.51708	8.15686	1.95450	7.91237
3028.000	2.51511	8.17246	1.95845	7.89675
3029.000	2.53089	8.16652	1.96832	7.91816
3030.000	2.51313	8.15494	1.98214	7.90054
3031.000	2.54273	8.17618	1.98214	7.93370
3032.000	2.50524	8.14525	1.92488	7.88325
3033.000	2.49143	8.13170	1.94660	7.92411
3034.000	2.49735	8.09466	1.99597	7.90243
3035.000	2.47170	8.15519	1.97227	7.85377
3036.000	2.50327	8.09852	1.95055	7.90849
3037.000	2.53484	8.14896	2.04928	7.95873
3038.000	2.50130	8.12775	2.02361	7.91205
3039.000	2.47367	8.12597	1.94462	7.89486
3040.000	2.47367	8.14934	1.90118	7.89701
3041.000	2.52892	8.11005	1.96635	7.83038
3042.000	2.50919	8.16276	1.89723	7.95750
3043.000	2.54668	8.18005	1.96437	7.94158
3044.000	2.45394	8.17283	1.89525	7.94970
3045.000	2.53484	8.21322	1.92685	7.92225
3046.000	2.53879	8.16062	1.93080	7.92614
3047.000	2.53879	8.16257	1.94265	7.86951
3048.000	2.45591	8.18450	1.98017	7.92006
3049.000	2.48354	8.15902	2.06507	7.93915
3050.000	2.49143	8.17260	1.95055	7.90849
3051.000	2.49143	8.15702	1.93870	7.94951
3052.000	2.49340	8.14143	1.97424	7.86156
3053.000	2.43025	8.13791	1.98412	7.95319
3054.000	2.48946	8.12392	2.01176	7.91015
3055.000	2.50524	8.15499	1.94462	7.94168
3056.000	2.53089	8.11003	1.94067	7.95925
3057.000	2.51313	8.15105	2.03743	7.93148
3058.000	2.46578	8.13186	1.97227	7.98250
3059.000	2.52300	8.09839	2.01374	7.91404
3060.000	2.49932	8.12192	1.93475	7.88711
3061.000	2.51116	8.12184	1.96635	7.93182
3062.000	2.51708	8.11596	2.00979	7.84188
3063.000	2.52300	8.13540	2.02361	7.82621
3064.000	2.48748	8.12588	1.99991	7.88680
3065.000	2.51116	8.12379	2.01571	7.90038
3066.000	2.50327	8.10631	1.99991	7.89656
3067.000	2.47762	8.11036	1.99202	7.88489
3068.000	2.49143	8.16871	1.97029	7.87328
3069.000	2.54471	8.10605	2.04138	7.83588
3070.000	2.44012	8.09305	1.95055	7.87143
3071.000	2.50130	8.08099	1.88735	7.88537
3072.000	2.49340	8.13753	2.00386	7.87898
3073.000	2.53681	8.11584	1.94265	7.88512
3074.000	2.45394	8.12024	2.06705	7.91964
3075.000	2.47762	8.08309	2.06705	7.91574
3076.000	2.49143	8.10054	1.95055	7.85387
3077.000	2.45394	8.05985	1.92685	7.87739
3078.000	2.50722	8.12381	1.98017	7.85958
3079.000	2.49340	8.08689	1.98017	7.84202
3080.000	2.50130	8.09073	2.01966	7.88476
3081.000	2.55062	8.10796	2.04928	7.86120
3082.000	2.50919	8.08874	1.98807	7.89856
3083.000	2.53681	8.05740	1.98807	7.81076
3084.000	2.57627	8.09417	1.99794	7.87706
3085.000	2.54668	8.08266	1.96042	7.87528
3086.000	2.57430	8.06106	1.88341	7.87173
3087.000	2.58022	8.12920	1.99597	7.90828
3088.000	2.56641	8.14098	1.96635	7.86160
3089.000	2.56838	8.10590	2.06112	7.89626
3090.000	2.58614	8.09216	1.92290	7.90667
3091.000	2.61179	8.10174	1.91303	7.87940
3092.000	2.56049	8.08842	1.96240	7.87917
3093.000	2.54668	8.11773	1.97424	7.83424
3094.000	2.54865	8.06317	1.99399	7.85171
3095.000	2.55654	8.06896	2.05125	7.74996
3096.000	2.55457	8.04560	1.92093	7.87741
3097.000	2.53484	8.02428	1.96240	7.87527
3098.000	2.57627	8.10001	1.95845	7.92796
3099.000	2.54273	8.07879	1.94857	7.86558
3100.000	2.54076	8.04568	1.95450	7.84604
3101.000	2.51708	8.04388	1.95252	7.87142
3102.000	2.54273	8.07879	1.96042	7.89284
3103.000	2.57825	8.07467	1.96635	7.85769
3104.000	2.54273	8.03203	2.01966	7.82622
3105.000	2.55852	8.06506	1.98412	7.93954
3106.000	2.54471	8.07488	2.01374	7.88088
3107.000	2.54668	8.06318	1.96240	7.89283
3108.000	2.53484	8.04182	2.02163	7.83012
3109.000	2.57233	8.06497	2.03348	7.86323
3110.000	2.53879	8.07102	1.94660	7.89485
3111.000	2.53879	8.02621	2.04928	7.86706
3112.000	2.51511	8.04974	2.01966	7.83013
3113.000	2.56838	8.02408	1.99597	7.86536
3114.000	2.56049	8.10206	1.95845	7.90065
3115.000	2.58219	8.02204	2.01769	7.78525
3116.000	2.50524	8.06538	1.93278	7.83248
3117.000	2.53681	8.06129	1.98214	7.91224
3118.000	2.56641	8.06696	2.01966	7.91402
3119.000	2.53089	8.05548	1.93672	7.92416
3120.000	2.53681	8.02427	1.89130	7.88535
3121.000	2.56641	8.10202	1.95450	7.83629
3122.000	2.53681	8.06324	1.94462	7.85389
3123.000	2.51905	8.07309	1.98214	7.86152
3124.000	2.54865	8.08850	1.97424	7.89082
3125.000	2.51905	8.03802	1.95845	7.90650
3126.000	2.51905	7.99904	1.97029	7.86353
3127.000	2.52497	8.02434	2.03941	7.89441
3128.000	2.52103	8.02437	1.97029	7.76986
3129.000	2.53879	8.02816	2.09271	7.89610
3130.000	2.53681	8.03401	2.03941	7.88271
3131.000	2.47959	8.02072	2.05125	7.88460
3132.000	2.53484	7.98140	2.02756	7.91008
3133.000	2.49340	8.01479	1.95450	7.89872
3134.000	2.52300	8.01851	2.02163	7.88865
3135.000	2.54668	8.00862	2.04335	7.95291
3136.000	2.52497	8.04773	1.98412	7.85371
3137.000	2.53484	8.01649	2.01769	7.96278
3138.000	2.53484	8.00090	2.07692	7.82985
3139.000	2.56641	8.04357	2.02756	7.87301
3140.000	2.56246	8.02021	2.06112	7.87870
3141.000	2.53089	8.00872	2.01176	7.87114
3142.000	2.46380	8.02081	1.99004	7.82441
3143.000	2.53287	8.01455	2.04138	7.83197
3144.000	2.52103	7.98929	1.99004	7.86929
3145.000	2.57035	7.96170	2.01176	7.85163
3146.000	2.49143	8.03624	2.02361	7.87108
3147.000	2.55457	8.01247	1.99794	7.79705
3148.000	2.57035	7.98119	2.05915	7.88652
3149.000	2.50722	7.99717	2.02163	7.83012
3150.000	2.52695	7.98535	2.08482	7.84347
3151.000	2.51905	7.97955	2.02163	7.81451
3152.000	2.54273	7.95017	1.99991	7.85754
3153.000	2.57825	7.99868	1.98609	7.89272
3154.000	2.56641	8.00265	2.07297	7.89620
3155.000	2.49538	8.01088	2.06310	7.88845
3156.000	2.55457	7.96764	2.06902	7.91378
3157.000	2.56641	8.01240	2.03941	7.82418
3158.000	2.56641	8.00850	1.99991	7.84583
3159.000	2.55852	8.01050	1.98214	7.84201
3160.000	2.51313	7.95620	2.08679	7.82005
3161.000	2.53484	7.96776	2.02953	7.80861
3162.000	2.49143	8.00895	2.01966	7.85939
3163.000	2.52103	8.00098	2.05520	7.92750
3164.000	2.54865	7.95793	2.13023	7.80227
3165.000	2.52695	7.94052	2.04730	7.90413
3166.000	2.56246	7.97539	2.03151	7.91396
3167.000	2.50919	7.99520	2.07297	7.79865
3168.000	2.54471	7.97160	2.04730	7.85146
3169.000	2.53484	7.99505	2.00781	7.85945
3170.000	2.56444	7.96953	2.10259	7.84728
3171.000	2.51313	7.93475	2.02953	7.78910
3172.000	2.51511	7.94059	2.07100	7.90401
3173.000	2.52497	7.96782	2.10456	7.86483
3174.000	2.54076	7.95018	2.01571	7.79112
3175.000	2.53681	7.93071	2.02756	7.88862
3176.000	2.50130	7.92117	2.07495	7.75960
3177.000	2.52300	7.96393	2.06507	7.86893
3178.000	2.56246	7.96759	2.08087	7.81422
3179.000	2.52892	7.93660	2.08877	7.78296
3180.000	2.49143	7.95438	2.10654	7.78092
3181.000	2.49735	7.91340	2.07692	7.79473
3182.000	2.50524	7.90750	2.09864	7.86486
3183.000	2.53681	7.96970	2.08877	7.80638
3184.000	2.50327	7.92896	2.06705	7.83966
3185.000	2.48551	7.95246	2.05718	7.83580
3186.000	2.49932	7.90949	2.05915	7.79676
3187.000	2.50919	7.91723	2.05323	7.76361
3188.000	2.51708	7.92108	1.97424	7.87522
3189.000	2.49735	7.90950	2.05915	7.86311
3190.000	2.48551	7.94856	2.04928	7.92167
3191.000	2.49538	7.93486	2.03546	7.78907
3192.000	2.53089	7.89565	2.10259	7.85509
3193.000	2.46775	7.95257	2.05323	7.81826
3194.000	2.50327	7.91921	2.07495	7.83767
3195.000	2.51708	7.92498	2.09074	7.78685
3196.000	2.47762	7.92326	2.08482	7.84347
3197.000	2.52497	7.89178	2.01966	7.82622
3198.000	2.51708	7.88988	2.08877	7.82004
3199.000	2.50919	7.87043	1.99004	7.77953
3200.000	2.54273	7.93652	2.14800	7.81194
3201.000	2.52497	7.87813	2.01769	7.85355
3202.000	2.52103	7.89376	2.09074	7.85710
3203.000	2.53089	7.95999	2.08087	7.84934
3204.000	2.54076	7.90924	2.12233	7.84328
3205.000	2.50327	7.88996	2.09469	7.78683
3206.000	2.51708	7.95422	2.04533	7.86708
3207.000	2.53484	7.92877	2.10851	7.67549
3208.000	2.54471	7.80975	2.08877	7.65020
3209.000	2.49932	7.69879	2.14010	7.48781
3210.000	2.54471	7.51888	2.17958	7.32731
3211.000	2.57627	7.33696	2.28026	7.11356
3212.000	2.59995	6.95528	2.29407	6.89612
3213.000	2.66505	6.61592	2.36513	6.60566
3214.000	2.67492	6.27640	2.55260	6.17291
3215.000	2.74987	5.79062	2.56641	5.85638
3216.000	2.73804	5.24335	2.74790	5.33197
3217.000	2.73212	4.77404	2.80510	4.80137
3218.000	2.77354	4.26043	2.89385	4.28173
3219.000	2.71437	3.73858	2.97272	3.80698
3220.000	2.70253	3.19215	3.08115	3.28614
3221.000	2.70451	2.68277	3.08509	2.65214
3222.000	2.74593	2.14512	3.16394	2.18002
3223.000	2.68281	1.72045	3.16788	1.68795
3224.000	2.69267	1.30539	3.16985	1.19365
3225.000	2.59403	0.83465	3.06341	0.79459
3226.000	2.60981	0.55247	3.17576	0.43302
3227.000	2.54865	0.15105	3.10875	0.05364
3228.000	2.50130	-0.08944	3.01018	-0.23641
3229.000	2.44407	-0.32994	3.09495	-0.45888
3230.000	2.36710	-0.65990	3.03778	-0.80652
3231.000	2.36513	-0.96993	3.11466	-1.08053
3232.000	2.38486	-1.18053	3.11663	-1.35454
3233.000	2.39078	-1.42290	3.13634	-1.46370
3234.000	2.38881	-1.62948	3.18759	-1.68196
3235.000	2.37894	-1.81617	3.22701	-2.02318
3236.000	2.41249	-2.07025	3.25065	-2.13422
3237.000	2.47170	-2.25078	3.31371	-2.27290
3238.000	2.54668	-2.46096	3.36297	-2.40761
3239.000	2.59798	-2.57988	3.40237	-2.50861
3240.000	2.68675	-2.70066	3.33933	-2.63761
3241.000	2.67689	-2.79981	3.46147	-2.76606
3242.000	2.80510	-2.93628	3.55995	-2.85887
3243.000	2.85638	-2.98965	3.57176	-2.91825
3244.000	2.93328	-2.97558	3.63084	-2.87845
3245.000	3.01412	-2.98725	3.57373	-2.86279
3246.000	3.03975	-3.03275	3.67810	-2.93573
3247.000	3.08115	-2.96527	3.68991	-2.85450
3248.000	3.07327	-2.91972	3.74109	-2.81077
3249.000	3.07129	-2.92171	3.73716	-2.74740
3250.000	3.03975	-2.82073	3.68203	-2.62277
3251.000	3.04172	-2.74739	3.60721	-2.57544
3252.000	2.99835	-2.60874	3.60524	-2.43474
3253.000	2.96286	-2.53546	3.60524	-2.35348
3254.000	2.93328	-2.47405	3.49101	-2.30817
3255.000	2.92737	-2.36102	3.41813	-2.20921
3256.000	2.93920	-2.35702	3.46935	-2.28047
3257.000	2.87413	-2.32542	3.49692	-2.24670
3258.000	2.88596	-2.26589	3.43586	-2.28650
3259.000	2.85046	-2.30762	3.42995	-2.27858
3260.000	2.88596	-2.31350	3.38267	-2.35800
3261.000	2.85835	-2.39290	3.38070	-2.37188
3262.000	2.90568	-2.43643	3.40434	-2.55023
3263.000	2.89385	-2.49000	3.45950	-2.56197
3264.000	2.90371	-2.56732	3.45556	-2.53226
3265.000	2.95695	-2.65047	3.39646	-2.65529
3266.000	2.91751	-2.79329	3.42010	-2.74835
3267.000	2.95892	-2.87049	3.48708	-2.85315
3268.000	3.00821	-2.93773	3.45556	-2.92456
3269.000	3.01609	-3.01102	3.59343	-3.02313
3270.000	3.05749	-3.07430	3.49101	-3.09277
3271.000	3.10283	-3.14745	3.50283	-3.14619
3272.000	3.10481	-3.16923	3.55010	-3.21135
3273.000	3.13437	-3.24241	3.49101	-3.21155
3274.000	3.13634	-3.22854	3.51268	-3.23721
3275.000	3.12846	-3.26223	3.53828	-3.23910
3276.000	3.12649	-3.24046	3.54419	-3.22325
3277.000	3.17971	-3.25415	3.50480	-3.24120
3278.000	3.13240	-3.29390	3.50677	-3.25307
3279.000	3.13240	-3.25826	3.56783	-3.18556
3280.000	3.16394	-3.23836	3.45162	-3.22159
3281.000	3.19153	-3.20659	3.46147	-3.18790
3282.000	3.13832	-3.22854	3.42404	-3.28700
3283.000	3.17379	-3.18288	3.45950	-3.15227
3284.000	3.18365	-3.19870	3.44374	-3.18796
3285.000	3.17576	-3.13337	3.52647	-3.16590
3286.000	3.15408	-3.20275	3.37676	-3.19214
3287.000	3.18956	-3.16501	3.42798	-3.10486
3288.000	3.14226	-3.12951	3.41813	-3.09499
3289.000	3.17971	-3.12742	3.35312	-3.05559
3290.000	3.19153	-3.06004	3.43192	-3.09494
3291.000	3.15211	-3.10373	3.42601	-3.03555
3292.000	3.19350	-3.09569	3.45162	-3.05132
3293.000	3.18168	-3.07195	3.43389	-3.07117
3294.000	3.21715	-3.04214	3.36297	-3.05358
3295.000	3.21518	-3.04412	3.47723	-3.05915
3296.000	3.22701	-3.02626	3.45162	-3.04736
3297.000	3.18759	-3.01846	3.42798	-3.00782
3298.000	3.21715	-3.03620	3.40040	-3.04356
3299.000	3.19941	-2.99465	3.35903	-3.01794
3300.000	3.17182	-3.04029	3.45950	-3.09881
3301.000	3.19744	-3.06795	3.41222	-3.04352
3302.000	3.19547	-3.03626	3.42207	-3.06923
3303.000	3.19941	-3.05209	3.46344	-2.97206
3304.000	3.21124	-3.04216	3.44768	-3.04341
3305.000	3.20730	-3.05999	3.39843	-3.06931
3306.000	3.17379	-3.04623	3.36888	-2.99612
3307.000	3.17576	-3.07989	3.39449	-3.04754
3308.000	3.18759	-3.05609	3.42207	-3.07913
3309.000	3.16000	-3.05023	3.49298	-2.96405
3310.000	3.17774	-3.07791	3.46738	-3.04334
3311.000	3.17576	-3.06603	3.44374	-3.11074
3312.000	3.18956	-3.07985	3.37282	-3.10701
3313.000	3.18562	-3.07392	3.38267	-3.07530
3314.000	3.18956	-3.09372	3.37085	-3.06939
3315.000	3.17774	-3.04225	3.47920	-3.01162
3316.000	3.21321	-3.07384	3.40040	-3.14058
3317.000	3.25657	-3.07173	3.38267	-3.05549
3318.000	3.22504	-3.06984	3.44965	-3.02558
3319.000	3.23095	-3.07973	3.41222	-3.07916
3320.000	3.22898	-3.08964	3.30780	-3.11118
3321.000	3.24868	-3.08958	3.38070	-3.09511
3322.000	3.22504	-3.07380	3.38464	-3.13470
3323.000	3.23095	-3.08567	3.34327	-3.07740
3324.000	3.25065	-3.08363	3.29598	-3.03002
3325.000	3.23292	-3.10547	3.45753	-3.05724
3326.000	3.22898	-3.08370	3.34721	-3.09719
3327.000	3.23489	-3.11933	3.36297	-3.07140
3328.000	3.27233	-3.10535	3.41222	-3.13659
3329.000	3.24474	-3.09949	3.32947	-3.13883
3330.000	3.22898	-3.11736	3.41616	-3.06331
3331.000	3.22306	-3.10748	3.37282	-3.17631
3332.000	3.22504	-3.09955	3.44965	-3.14240
3333.000	3.24474	-3.11335	3.40040	-3.09306
3334.000	3.23686	-3.15893	3.35115	-3.16252
3335.000	3.25065	-3.10938	3.51268	-3.13427
3336.000	3.22504	-3.10351	3.34327	-3.16057
3337.000	3.22109	-3.22828	3.42404	-3.08903
3338.000	3.23883	-3.11733	3.40237	-3.17226
3339.000	3.23095	-3.10944	3.32750	-3.14478
3340.000	3.22898	-3.12132	3.43389	-3.05533
3341.000	3.22701	-3.16094	3.36100	-3.13675
3342.000	3.27627	-3.12118	3.32356	-3.07350
3343.000	3.24080	-3.11337	3.37479	-3.09116
3344.000	3.27036	-3.10337	3.39646	-3.07129
3345.000	3.24868	-3.12720	3.45753	-3.14436
3346.000	3.24080	-3.10148	3.41616	-3.07915
3347.000	3.25065	-3.12720	3.36100	-3.11497
3348.000	3.24671	-3.13315	3.38661	-3.11093
3349.000	3.28612	-3.11323	3.41813	-3.18012
3350.000	3.27430	-3.15287	3.34130	-3.10513
3351.000	3.24868	-3.14503	3.42798	-3.13060
3352.000	3.24474	-3.15296	3.45950	-3.07901
3353.000	3.32159	-3.14282	3.39055	-3.13864
3354.000	3.27627	-3.11128	3.38661	-3.08123
3355.000	3.26051	-3.12915	3.31765	-3.10719
3356.000	3.27627	-3.15286	3.38661	-3.05746
3357.000	3.28810	-3.10134	3.31371	-3.13096
3358.000	3.27430	-3.14495	3.41025	-3.09501
3359.000	3.29598	-3.10527	3.32159	-3.20618
3360.000	3.28021	-3.10928	3.33736	-3.10118
3361.000	3.31174	-3.12899	3.38267	-3.12480
3362.000	3.26642	-3.09942	3.35312	-3.20212
3363.000	3.26642	-3.11329	3.38464	-3.11292
3364.000	3.31371	-3.11314	3.29598	-3.14686
3365.000	3.29204	-3.12113	3.37085	-3.03177
3366.000	3.29007	-3.12906	3.34130	-3.09325
3367.000	3.26445	-3.13508	3.30780	-3.01017
3368.000	3.26248	-3.13310	3.33538	-3.12495
3369.000	3.29007	-3.13896	3.28021	-3.06175
3370.000	3.27036	-3.14496	3.37479	-3.05750
3371.000	3.26051	-3.11529	3.40040	-3.07524
3372.000	3.32553	-3.12696	3.34524	-3.09522
3373.000	3.31371	-3.14284	3.36297	-3.06546
3374.000	3.26642	-3.11329	3.35903	-3.05953
3375.000	3.28810	-3.15877	3.31962	-3.15074
3376.000	3.29204	-3.15479	3.43586	-3.07513
3377.000	3.28021	-3.15681	3.34327	-3.10513
3378.000	3.28021	-3.13107	3.35903	-3.09716
3379.000	3.30583	-3.11713	3.41419	-3.13856
3380.000	3.30386	-3.16664	3.29598	-3.12310
3381.000	3.28218	-3.12512	3.32159	-3.12896
3382.000	3.32553	-3.17053	3.30780	-3.18246
3383.000	3.33736	-3.16851	3.34524	-3.13680
3384.000	3.30386	-3.15277	3.36888	-3.09316
3385.000	3.27036	-3.14892	3.35509	-3.12093
3386.000	3.25263	-3.13511	3.36888	-3.11891
3387.000	3.31568	-3.13096	3.33538	-3.05762
3388.000	3.26839	-3.14101	3.31765	-3.06956
3389.000	3.30386	-3.10921	3.34721	-3.06353
3390.000	3.28810	-3.12312	3.29204	-3.08152
3391.000	3.26248	-3.12122	3.38267	-3.09114
3392.000	3.29598	-3.15874	3.29795	-3.13695
3393.000	3.29204	-3.14687	3.27824	-3.06176
3394.000	3.25657	-3.14302	3.33144	-3.14675
3395.000	3.25854	-3.12915	3.39055	-3.18219
3396.000	3.27430	-3.09742	3.34327	-3.06552
3397.000	3.23883	-3.10941	3.37873	-3.12283
3398.000	3.27233	-3.12713	3.38070	-3.17431
3399.000	3.26642	-3.14101	3.34524	-3.10116
3400.000	3.23686	-3.12922	3.36691	-3.13673
3401.000	3.26839	-3.11526	3.35706	-3.15260
3402.000	3.26642	-3.16279	3.32159	-3.15470
3403.000	3.31371	-3.13888	3.42207	-3.19001
3404.000	3.27233	-3.15287	3.39449	-3.10496
3405.000	3.26051	-3.15093	3.33736	-3.09722
3406.000	3.28810	-3.16669	3.42207	-3.16031
3407.000	3.26839	-3.14101	3.31568	-3.09927
3408.000	3.27233	-3.12911	3.30189	-3.10328
3409.000	3.26642	-3.13507	3.27627	-3.11920
3410.000	3.25854	-3.16876	3.33933	-3.09920
3411.000	3.25065	-3.15492	3.34721	-3.19620
3412.000	3.27627	-3.13504	3.35706	-3.13280
3413.000	3.27627	-3.14494	3.38858	-3.13666
3414.000	3.27233	-3.12317	3.35115	-3.11500
3415.000	3.23489	-3.15497	3.26445	-3.08557
3416.000	3.23095	-3.12726	3.39055	-3.13864
3417.000	3.25065	-3.17076	3.36691	-3.12485
3418.000	3.26248	-3.11924	3.42404	-3.11279
3419.000	3.28021	-3.12909	3.37873	-3.14857
3420.000	3.26642	-3.15289	3.29992	-3.14883
3421.000	3.27824	-3.13701	3.37676	-3.15056
3422.000	3.27627	-3.16672	3.38661	-3.16241
3423.000	3.29401	-3.12904	3.39843	-3.15643
3424.000	3.24671	-3.17474	3.30780	-3.16662
3425.000	3.29992	-3.15279	3.34524	-3.14670
3426.000	3.28612	-3.12115	3.33144	-3.15071
3427.000	3.32750	-3.10518	3.33736	-3.12495
3428.000	3.29204	-3.15875	3.32947	-3.08141
3429.000	3.26642	-3.19646	3.29204	-3.07756
3430.000	3.27627	-3.12316	3.31174	-3.15869
3431.000	3.28021	-3.16077	3.36888	-3.14465
3432.000	3.27627	-3.12712	3.36888	-3.07930
3433.000	3.29401	-3.14291	3.36888	-3.17633
3434.000	3.25854	-3.14698	3.38267	-3.10302
3435.000	3.26839	-3.14497	3.33933	-3.08732
3436.000	3.29401	-3.14291	3.37085	-3.14266
3437.000	3.29007	-3.17856	3.28218	-3.14096
3438.000	3.31371	-3.10126	3.40237	-3.06533
3439.000	3.29204	-3.15875	3.43192	-3.16622
3440.000	3.29007	-3.14688	3.29204	-3.14885
3441.000	3.29598	-3.14686	3.34524	-3.11502
3442.000	3.28415	-3.14096	3.39055	-3.09309
3443.000	3.32159	-3.14282	3.24868	-3.18463
3444.000	3.27627	-3.15088	3.29401	-3.13300
3445.000	3.31962	-3.12896	3.32356	-3.19429
3446.000	3.27233	-3.20634	3.35312	-3.13480
3447.000	3.34130	-3.16058	3.32356	-3.10717
3448.000	3.31765	-3.16857	3.41222	-3.16035
3449.000	3.28415	-3.19640	3.43783	-3.16620
3450.000	3.30780	-3.18048	3.27627	-3.08355
3451.000	3.25854	-3.19252	3.32750	-3.14478
3452.000	3.33933	-3.23186	3.33538	-3.10911
3453.000	3.29401	-3.15875	3.31371	-3.08938
3454.000	3.30386	-3.20426	3.34327	-3.10117
3455.000	3.30189	-3.20822	3.29795	-3.03991
3456.000	3.32159	-3.16460	3.37085	-3.08524
3457.000	3.33736	-3.18435	3.32356	-3.07548
3458.000	3.31371	-3.20422	3.31962	-3.05569
3459.000	3.29204	-3.19439	3.32750	-3.17052
3460.000	3.28021	-3.18255	3.32159	-3.12500
3461.000	3.30977	-3.19236	3.39252	-3.14259
3462.000	3.31371	-3.15076	3.30977	-3.15870
3463.000	3.29598	-3.18844	3.28810	-3.15480
3464.000	3.29401	-3.19835	3.31174	-3.07156
3465.000	3.31962	-3.16065	3.34524	-3.11106
3466.000	3.30977	-3.16464	3.25854	-3.08361
3467.000	3.31568	-3.16858	3.34918	-3.14867
3468.000	3.32356	-3.20023	3.29007	-3.12312
3469.000	3.30780	-3.16662	3.36100	-3.07339
3470.000	3.33736	-3.18237	3.35115	-3.07144
3471.000	3.35509	-3.19815	3.33144	-3.07150
3472.000	3.34130	-3.20809	3.33933	-3.12098
3473.000	3.34327	-3.17443	3.22504	-3.04410
3474.000	3.31962	-3.19035	3.28415	-3.08155
3475.000	3.32553	-3.22002	3.32159	-3.05172
3476.000	3.34327	-3.20413	3.29204	-3.10331
3477.000	3.29992	-3.22209	3.31962	-3.04975
3478.000	3.32553	-3.21606	3.30386	-3.15872
3479.000	3.32553	-3.23982	3.35706	-3.09914
3480.000	3.35903	-3.18824	3.33538	-3.10911
3481.000	3.35115	-3.23974	3.37873	-3.20401
3482.000	3.35706	-3.18428	3.39055	-3.11290
3483.000	3.34524	-3.21402	3.34327	-3.13285
3484.000	3.36494	-3.20406	3.35312	-3.11104
3485.000	3.38267	-3.21192	3.29401	-3.23201
3486.000	3.37085	-3.19018	3.28218	-3.18453
3487.000	3.38267	-3.15252	3.36494	-3.18030
3488.000	3.35509	-3.15063	3.39449	-3.15248
3489.000	3.36297	-3.20010	3.33736	-3.19227
3490.000	3.40828	-3.14848	3.36100	-3.21001
3491.000	3.33933	-3.21206	3.36100	-3.12091
3492.000	3.35115	-3.18232	3.41025	-3.22370
3493.000	3.35115	-3.20806	3.28021	-3.21819
3494.000	3.35509	-3.19815	3.34918	-3.21797
3495.000	3.33538	-3.23385	3.38858	-3.19012
3496.000	3.33736	-3.23582	3.21124	-3.17683
3497.000	3.32750	-3.19230	3.37873	-3.14065
3498.000	3.33736	-3.19425	3.34918	-3.16649
3499.000	3.35706	-3.18032	3.38858	-3.16438
3500.000	3.33144	-3.22396	3.33933	-3.19820
3501.000	3.35706	-3.18824	3.31765	-3.16461
3502.000	3.31765	-3.23787	3.34918	-3.22193
3503.000	3.35312	-3.21993	3.35903	-3.18032
3504.000	3.33341	-3.26355	3.29007	-3.19044
3505.000	3.32947	-3.23783	3.38464	-3.22775
3506.000	3.35903	-3.23179	3.35509	-3.23972
3507.000	3.34327	-3.23184	3.38661	-3.13667
3508.000	3.33538	-3.21207	3.40828	-3.15640
3509.000	3.33933	-3.20810	3.30977	-3.17850
3510.000	3.35706	-3.24962	3.31765	-3.22995
3511.000	3.36100	-3.20803	3.33341	-3.21406
3512.000	3.34918	-3.18233	3.40237	-3.17820
3513.000	3.37479	-3.22778	3.31962	-3.22994
3514.000	3.37873	-3.20599	3.31962	-3.22994
3515.000	3.40828	-3.21975	3.33538	-3.28334
3516.000	3.38464	-3.20597	3.41419	-3.26130
3517.000	3.37676	-3.23965	3.39449	-3.24949
3518.000	3.34524	-3.21402	3.28218	-3.26966
3519.000	3.34524	-3.27143	3.36297	-3.24762
3520.000	3.40434	-3.24550	3.34721	-3.21599
3521.000	3.35706	-3.24962	3.39449	-3.25147
3522.000	3.37873	-3.23767	3.32159	-3.25963
3523.000	3.39055	-3.22971	3.34721	-3.26351
3524.000	3.38464	-3.23963	3.35706	-3.16844
3525.000	3.40237	-3.23165	3.34918	-3.29517
3526.000	3.40434	-3.24154	3.33736	-3.21999
3527.000	3.35115	-3.23974	3.32750	-3.26159
3528.000	3.35706	-3.26545	3.36494	-3.16446
3529.000	3.36100	-3.27534	3.39252	-3.22970
3530.000	3.35312	-3.22389	3.32947	-3.25763
3531.000	3.36297	-3.23970	3.31568	-3.23194
3532.000	3.35115	-3.27339	3.33933	-3.28531
3533.000	3.42207	-3.27117	3.29795	-3.25377
3534.000	3.40237	-3.23363	3.29401	-3.24784
3535.000	3.34524	-3.24966	3.32947	-3.20813
3536.000	3.38464	-3.23171	3.39843	-3.24156
3537.000	3.38661	-3.26733	3.36691	-3.27334
3538.000	3.36100	-3.21991	3.44768	-3.24535
3539.000	3.39449	-3.26533	3.40237	-3.23363
3540.000	3.37873	-3.24756	3.35706	-3.27733
3541.000	3.39449	-3.25345	3.36494	-3.27532
3542.000	3.42404	-3.24147	3.37282	-3.27728
3543.000	3.38267	-3.22578	3.34721	-3.21203
3544.000	3.36888	-3.25354	3.32947	-3.21803
3545.000	3.34721	-3.24965	3.36297	-3.24960
3546.000	3.37479	-3.27925	3.30780	-3.30323
3547.000	3.36691	-3.28522	3.32553	-3.25368
3548.000	3.35903	-3.29712	3.35903	-3.28128
3549.000	3.33736	-3.26948	3.30780	-3.26364
3550.000	3.37282	-3.23571	3.35115	-3.22984
3551.000	3.38661	-3.24358	3.36888	-3.22978
3552.000	3.42010	-3.24941	3.38464	-3.24359
3553.000	3.41616	-3.29297	3.29598	-3.28347
3554.000	3.43980	-3.24934	3.37479	-3.27925
3555.000	3.42404	-3.23554	3.33933	-3.26749
3556.000	3.42207	-3.27909	3.42010	-3.24545
3557.000	3.44768	-3.26911	3.38070	-3.25548
3558.000	3.43586	-3.31665	3.34918	-3.25360
3559.000	3.41419	-3.29297	3.28810	-3.23796
3560.000	3.44965	-3.28098	3.30583	-3.30719
3561.000	3.42798	-3.31272	3.41616	-3.25338
3562.000	3.45556	-3.30075	3.43586	-3.26519
3563.000	3.42404	-3.27117	3.40434	-3.31280
3564.000	3.42798	-3.28897	3.34918	-3.25558
3565.000	3.40040	-3.28708	3.41419	-3.31672
3566.000	3.30780	-3.24384	3.30386	-3.27553
3567.000	3.23095	-3.23815	3.19744	-3.17687
3568.000	3.09298	-3.25046	3.14226	-3.32158
3569.000	2.86229	-3.26500	2.89582	-3.33818
3570.000	2.61573	-3.25775	2.73409	-3.36240
3571.000	2.37105	-3.31383	2.43420	-3.51569
3572.000	2.01374	-3.36415	2.12233	-3.44515
3573.000	1.60688	-3.38671	1.73330	-3.48160
3574.000	1.15244	-3.38735	1.30460	-3.64277
3575.000	0.69389	-3.46113	0.89749	-3.73042
3576.000	0.29259	-3.54458	0.48040	-3.79017
3577.000	-0.18584	-3.58821	-0.06524	-3.84180
3578.000	-0.55552	-3.58013	-0.39935	-3.97636
3579.000	-1.03386	-3.69462	-0.80656	-4.01368
3580.000	-1.35202	-3.76747	-1.14651	-4.03900
3581.000	-1.61281	-3.82247	-1.48440	-4.06220
3582.000	-1.77281	-3.92310	-1.77478	-4.10910
3583.000	-1.99597	-3.98988	-1.92488	-4.22347
3584.000	-2.12430	-4.05484	-2.07100	-4.18750
3585.000	-2.16181	-4.10617	-2.16379	-4.22482
3586.000	-2.19735	-4.21681	-2.21906	-4.23059
3587.000	-2.12036	-4.21703	-2.14800	-4.21893
3588.000	-2.00979	-4.21139	-2.21906	-4.27211
3589.000	-1.82021	-4.15449	-2.08087	-4.25470
3590.000	-1.69577	-4.09938	-2.07100	-4.20332
3591.000	-1.58318	-4.10752	-2.03348	-4.23505
3592.000	-1.41920	-4.13355	-1.80046	-4.20992
3593.000	-1.22555	-4.05670	-1.62269	-4.12723
3594.000	-1.02793	-4.03124	-1.47452	-4.10179
3595.000	-0.85203	-4.00769	-1.31645	-4.10800
3596.000	-0.71761	-3.96823	-1.10303	-4.06677
3597.000	-0.63657	-3.94651	-0.96073	-4.03924
3598.000	-0.59703	-3.92080	-0.87377	-4.05517
3599.000	-0.48633	-3.89315	-0.82633	-4.02553
3600.000	-0.42109	-3.87537	-0.69785	-4.01180
3601.000	-0.42505	-3.91695	-0.62471	-4.09103
3602.000	-0.43493	-3.89120	-0.63064	-4.08509
3603.000	-0.45075	-3.90505	-0.63855	-4.10289
3604.000	-0.52784	-3.87927	-0.59506	-4.03959
3605.000	-0.57133	-3.87330	-0.68994	-4.01774
3606.000	-0.64448	-3.93265	-0.68006	-4.09692
3607.000	-0.77691	-3.90086	-0.74529	-4.08499
3608.000	-0.83226	-3.91268	-0.82831	-4.12449
3609.000	-0.90539	-3.94033	-0.93504	-4.11448
3610.000	-1.02595	-3.90059	-1.01607	-4.11636
3611.000	-1.08327	-3.88864	-1.04374	-4.12622
3612.000	-1.10896	-3.90445	-1.19789	-4.09632
3613.000	-1.18801	-3.90830	-1.21765	-4.10816
3614.000	-1.24729	-3.84486	-1.34412	-4.07630
3615.000	-1.25322	-3.89830	-1.47847	-4.09585
3616.000	-1.26112	-3.89829	-1.48242	-4.13739
3617.000	-1.29669	-3.92793	-1.51206	-4.14129
3618.000	-1.30064	-3.90615	-1.62466	-4.09953
3619.000	-1.29274	-3.91408	-1.57923	-4.05411
3620.000	-1.31645	-3.91207	-1.58713	-4.12730
3621.000	-1.32436	-3.94175	-1.55749	-4.12736
3622.000	-1.35399	-3.91794	-1.61676	-4.15493
3623.000	-1.32238	-3.96154	-1.59700	-4.12134
3624.000	-1.34214	-3.95162	-1.64639	-4.16872
3625.000	-1.31843	-3.96353	-1.59108	-4.13718
3626.000	-1.33226	-3.97143	-1.57527	-4.14315
3627.000	-1.31448	-3.98531	-1.57330	-4.06797
3628.000	-1.30657	-3.98532	-1.46662	-4.18688
3629.000	-1.35399	-3.97337	-1.53774	-4.12146
3630.000	-1.30262	-3.99918	-1.49428	-4.10374
3631.000	-1.33424	-3.98132	-1.56935	-4.09172
3632.000	-1.24532	-3.97948	-1.52193	-4.13732
3633.000	-1.27891	-3.99328	-1.52589	-4.08389
3634.000	-1.25124	-4.01708	-1.40734	-4.15533
3635.000	-1.28088	-3.98338	-1.44093	-4.08998
3636.000	-1.19987	-3.93996	-1.39746	-4.09995
3637.000	-1.24927	-3.96760	-1.45674	-4.12359
3638.000	-1.24729	-3.97750	-1.37968	-4.11186
3639.000	-1.24136	-3.93791	-1.40734	-4.10587
3640.000	-1.22160	-3.95180	-1.38758	-4.08612
3641.000	-1.23544	-3.97751	-1.35399	-4.08024
3642.000	-1.24136	-3.98542	-1.33028	-4.13173
3643.000	-1.22358	-3.96368	-1.40537	-4.06234
3644.000	-1.26508	-4.00716	-1.41722	-4.08211
3645.000	-1.20777	-3.95578	-1.43698	-4.12363
3646.000	-1.23939	-3.91416	-1.49823	-4.13736
3647.000	-1.20579	-3.94193	-1.39746	-4.10787
3648.000	-1.24532	-3.95375	-1.31843	-4.16538
3649.000	-1.21567	-3.92212	-1.42117	-4.12959
3650.000	-1.24532	-3.91613	-1.45279	-4.15921
3651.000	-1.19987	-3.94193	-1.38956	-4.11975
3652.000	-1.23939	-3.95177	-1.34807	-4.03671
3653.000	-1.22753	-3.93794	-1.35202	-4.06639
3654.000	-1.19196	-3.92017	-1.42710	-4.10386
3655.000	-1.25915	-3.97154	-1.48440	-4.06022
3656.000	-1.24729	-3.95968	-1.35992	-4.15146
3657.000	-1.22951	-3.97158	-1.39746	-4.12567
3658.000	-1.26112	-3.99133	-1.52984	-4.10763
3659.000	-1.23544	-3.93792	-1.45674	-4.11963
3660.000	-1.27298	-3.96756	-1.41722	-4.11773
3661.000	-1.21370	-3.95775	-1.41920	-4.13355
3662.000	-1.24532	-3.93395	-1.41920	-4.07617
3663.000	-1.28681	-3.97150	-1.46266	-4.17502
3664.000	-1.27298	-3.94777	-1.51996	-4.13930
3665.000	-1.26705	-3.89828	-1.52391	-4.11159
3666.000	-1.25322	-3.92602	-1.47057	-4.10972
3667.000	-1.25322	-3.93790	-1.47452	-4.12158
3668.000	-1.22753	-3.91418	-1.47452	-4.07409
3669.000	-1.23741	-3.93198	-1.48045	-4.17103
3670.000	-1.24927	-3.95374	-1.44883	-4.13943
3671.000	-1.24136	-3.94583	-1.53971	-4.12739
3672.000	-1.24532	-3.94583	-1.52193	-4.07796
3673.000	-1.25717	-3.95175	-1.49428	-4.18881
3674.000	-1.26705	-3.98340	-1.46662	-4.14138
3675.000	-1.23346	-3.93397	-1.47847	-4.11959
3676.000	-1.18010	-3.91029	-1.45871	-4.07808
3677.000	-1.28088	-3.96161	-1.45081	-4.15526
3678.000	-1.21963	-3.91419	-1.45476	-4.12755
3679.000	-1.25717	-3.98936	-1.43698	-4.08405
3680.000	-1.25124	-4.00124	-1.40932	-4.13159
3681.000	-1.24136	-3.96563	-1.42117	-4.11970
3682.000	-1.23346	-3.94782	-1.49230	-4.12155
3683.000	-1.21567	-3.97160	-1.48835	-4.10177
3684.000	-1.24532	-3.98542	-1.49823	-4.10175
3685.000	-1.24532	-3.93989	-1.43303	-4.04251
3686.000	-1.24334	-3.98740	-1.47452	-4.07409
3687.000	-1.23939	-3.96761	-1.35399	-4.11981
3688.000	-1.22951	-3.97752	-1.43303	-4.13155
3689.000	-1.25717	-4.00915	-1.51403	-4.14129
3690.000	-1.24334	-3.98740	-1.48045	-4.09783
3691.000	-1.25322	-3.92800	-1.47452	-4.14532
3692.000	-1.21567	-3.97358	-1.44883	-4.16317
3693.000	-1.27693	-3.95766	-1.48835	-4.09979
3694.000	-1.22951	-3.91418	-1.50020	-4.05624
3695.000	-1.21567	-3.96171	-1.49032	-4.11759
3696.000	-1.21765	-3.92409	-1.45081	-4.14932
3697.000	-1.21765	-3.95577	-1.46069	-4.07214
3698.000	-1.24334	-3.94385	-1.47057	-4.11565
3699.000	-1.27693	-3.92400	-1.48440	-4.12156
3700.000	-1.24729	-3.94978	-1.47057	-4.09784
3701.000	-1.24532	-3.94187	-1.47254	-4.06024
3702.000	-1.28681	-3.92597	-1.41525	-4.08013
3703.000	-1.21370	-3.94785	-1.50020	-4.10175
3704.000	-1.28088	-3.94577	-1.56145	-4.05612
3705.000	-1.24729	-3.94384	-1.47254	-4.09982
3706.000	-1.26705	-3.95371	-1.54367	-4.05022
3707.000	-1.26310	-3.94580	-1.50218	-4.08987
3708.000	-1.27496	-3.97547	-1.50810	-4.09184
3709.000	-1.29076	-3.91408	-1.49823	-4.02260
3710.000	-1.30064	-3.95366	-1.51601	-4.07995
3711.000	-1.27693	-3.96162	-1.53774	-4.04627
3712.000	-1.26903	-3.95173	-1.43303	-4.13155
3713.000	-1.25124	-3.98343	-1.45081	-4.05039
3714.000	-1.29867	-4.03877	-1.50613	-4.11558
3715.000	-1.24136	-3.94385	-1.47649	-4.09783
3716.000	-1.26310	-3.94778	-1.46464	-4.05036
3717.000	-1.27100	-3.97746	-1.49823	-4.07801
3718.000	-1.21370	-3.97953	-1.49823	-4.09779
3719.000	-1.28088	-3.97547	-1.51206	-4.00674
3720.000	-1.26705	-3.96955	-1.42710	-4.10979
3721.000	-1.27298	-3.99923	-1.41327	-4.08805
3722.000	-1.25717	-3.98342	-1.46266	-4.12754
3723.000	-1.25124	-3.97155	-1.51403	-4.12546
3724.000	-1.24532	-3.91811	-1.45081	-4.04643
3725.000	-1.23544	-3.96960	-1.47057	-4.14731
3726.000	-1.25322	-3.98936	-1.47452	-4.09586
3727.000	-1.22160	-3.90825	-1.47649	-4.07805
3728.000	-1.23544	-3.96366	-1.49823	-4.08592
3729.000	-1.22753	-3.93002	-1.39944	-4.05048
3730.000	-1.23741	-3.93792	-1.41722	-4.10388
3731.000	-1.21567	-3.93597	-1.44686	-4.11174
3732.000	-1.19987	-3.93006	-1.42513	-4.07814
3733.000	-1.21172	-3.93994	-1.38166	-4.06040
3734.000	-1.22555	-3.91418	-1.51206	-4.06809
3735.000	-1.21567	-3.91222	-1.45674	-4.07412
3736.000	-1.18010	-3.92811	-1.38758	-4.09008
3737.000	-1.20975	-3.87857	-1.40537	-4.12566
3738.000	-1.20184	-3.91818	-1.48045	-4.08595
3739.000	-1.18208	-3.93800	-1.46662	-4.08598
3740.000	-1.20184	-3.91818	-1.45871	-4.12359
3741.000	-1.21370	-3.93598	-1.40537	-4.06630
3742.000	-1.21370	-3.97359	-1.45279	-4.07017
3743.000	-1.23544	-3.93594	-1.51403	-4.07006
3744.000	-1.22753	-3.95179	-1.48045	-4.04638
3745.000	-1.20579	-3.94984	-1.49428	-4.10571
3746.000	-1.18603	-3.90830	-1.39154	-4.07820
3747.000	-1.17418	-3.91624	-1.42908	-4.07813
3748.000	-1.15837	-3.94397	-1.49032	-4.12946
3749.000	-1.17813	-3.91623	-1.46662	-4.10774
3750.000	-1.15244	-3.88063	-1.49230	-4.09582
3751.000	-1.16034	-3.88656	-1.44883	-4.14339
3752.000	-1.17615	-3.92613	-1.45674	-4.08995
3753.000	-1.16627	-3.90635	-1.40734	-4.13951
3754.000	-1.19196	-3.92413	-1.46662	-4.14138
3755.000	-1.18801	-3.93799	-1.43896	-4.09394
3756.000	-1.18406	-3.92414	-1.42315	-4.12761
3757.000	-1.17418	-3.92811	-1.36585	-4.08220
3758.000	-1.18801	-3.95185	-1.48242	-4.14926
3759.000	-1.15046	-3.92815	-1.48242	-4.04242
3760.000	-1.18208	-3.91622	-1.50415	-4.15120
3761.000	-1.17813	-3.91425	-1.44488	-4.17109
3762.000	-1.20777	-3.93400	-1.48440	-4.14728
3763.000	-1.18801	-3.95383	-1.47254	-4.07410
3764.000	-1.21172	-3.92608	-1.43303	-4.10978
3765.000	-1.16232	-3.90239	-1.50415	-4.12746
3766.000	-1.18603	-3.94195	-1.42908	-4.12958
3767.000	-1.16825	-3.93802	-1.50810	-4.12152
3768.000	-1.16232	-3.88655	-1.45674	-4.07215
3769.000	-1.20382	-3.94787	-1.45871	-4.05631
3770.000	-1.16825	-3.90041	-1.39154	-4.08413
3771.000	-1.15639	-3.92418	-1.42117	-4.07815
3772.000	-1.17022	-3.93604	-1.41920	-4.04847
3773.000	-1.18998	-3.90631	-1.37573	-4.10395
3774.000	-1.15244	-3.99743	-1.47847	-4.15916
3775.000	-1.20975	-3.97755	-1.37375	-4.11978
3776.000	-1.20777	-3.97558	-1.42513	-4.10782
3777.000	-1.17813	-3.92415	-1.44488	-4.11174
3778.000	-1.21567	-3.96171	-1.42117	-4.13750
3779.000	-1.18406	-3.98551	-1.47057	-4.05827
3780.000	-1.19987	-3.95777	-1.34412	-4.15149
3781.000	-1.20184	-3.93005	-1.52193	-4.11753
3782.000	-1.22358	-3.98149	-1.42117	-4.15135
3783.000	-1.21963	-3.97754	-1.43500	-4.15331
3784.000	-1.22753	-3.97357	-1.46464	-4.10181
3785.000	-1.20184	-4.01319	-1.44488	-4.12955
3786.000	-1.25322	-3.98145	-1.46464	-4.11764
3787.000	-1.24532	-3.95770	-1.39944	-4.10193
3788.000	-1.21172	-3.95380	-1.44686	-4.07612
3789.000	-1.20382	-3.95777	-1.46464	-4.05432
3790.000	-1.20382	-3.98746	-1.51008	-4.02060
3791.000	-1.22951	-4.01513	-1.43896	-4.07811
3792.000	-1.21172	-3.97161	-1.43698	-4.09197
3793.000	-1.21765	-3.95775	-1.46266	-4.06026
3794.000	-1.21963	-3.99139	-1.48637	-4.04637
3795.000	-1.19591	-3.98153	-1.45081	-4.11964
3796.000	-1.26508	-3.99528	-1.42710	-4.14145
3797.000	-1.21172	-4.01714	-1.48045	-4.03648
3798.000	-1.21172	-4.02703	-1.41920	-4.04649
3799.000	-1.27298	-3.99131	-1.43896	-4.07811
3800.000	-1.25717	-4.03488	-1.44093	-4.12362
3801.000	-1.24729	-3.99135	-1.45871	-4.07412
3802.000	-1.21963	-4.00129	-1.45081	-4.06028
3803.000	-1.23939	-4.06855	-1.42117	-4.03659
3804.000	-1.26310	-4.00716	-1.39746	-4.02080
3805.000	-1.27693	-4.02495	-1.39549	-4.04257
3806.000	-1.23148	-4.04481	-1.45081	-4.10382
3807.000	-1.21765	-4.01713	-1.42710	-4.05637
3808.000	-1.22555	-3.95971	-1.42908	-4.09198
3809.000	-1.21172	-4.00724	-1.42710	-4.07022
3810.000	-1.22555	-4.03493	-1.45674	-4.12161
3811.000	-1.22951	-3.96367	-1.43698	-4.13748
3812.000	-1.24334	-3.99532	-1.43698	-4.12165
3813.000	-1.19987	-3.98350	-1.44093	-4.09790
3814.000	-1.19789	-3.97163	-1.41722	-4.08805
3815.000	-1.19394	-3.98549	-1.43698	-4.12165
3816.000	-1.24927	-3.99729	-1.37178	-4.12374
3817.000	-1.27100	-3.99527	-1.41129	-4.08212
3818.000	-1.21765	-3.97556	-1.44883	-4.09393
3819.000	-1.25124	-4.01312	-1.40339	-4.06828
3820.000	-1.25717	-3.97550	-1.36783	-4.04262
3821.000	-1.24136	-4.00126	-1.49625	-4.08197
3822.000	-1.23741	-3.97751	-1.37178	-4.05251
3823.000	-1.26112	-4.02894	-1.41525	-4.05441
3824.000	-1.21370	-3.95973	-1.50810	-4.05226
3825.000	-1.25717	-4.00123	-1.37771	-4.02479
3826.000	-1.22951	-3.95773	-1.45476	-4.05632
3827.000	-1.23741	-3.96168	-1.38758	-4.01488
3828.000	-1.22951	-3.97356	-1.36783	-4.08417
3829.000	-1.25915	-3.94977	-1.41327	-4.02671
3830.000	-1.22555	-3.95773	-1.37573	-4.09603
3831.000	-1.26310	-3.96955	-1.44686	-4.09591
3832.000	-1.27496	-3.96954	-1.29669	-4.09023
3833.000	-1.24729	-3.96958	-1.30855	-4.08427
3834.000	-1.22555	-3.96367	-1.37178	-4.08615
3835.000	-1.24334	-3.99136	-1.47649	-4.02066
3836.000	-1.24136	-3.95969	-1.35597	-4.07826
3837.000	-1.26903	-4.01309	-1.40734	-4.07421
3838.000	-1.25915	-3.97946	-1.36980	-4.09802
3839.000	-1.25520	-3.98936	-1.37375	-4.07625
3840.000	-1.22951	-3.96763	-1.41525	-4.10586
3841.000	-1.24729	-3.97354	-1.37573	-4.09405
3842.000	-1.21370	-3.97161	-1.37771	-4.04458
3843.000	-1.21963	-3.96566	-1.43105	-4.04251
3844.000	-1.23544	-3.96762	-1.33819	-4.08620
3845.000	-1.23148	-3.97356	-1.35992	-4.06440
3846.000	-1.27100	-3.97944	-1.39944	-4.04850
3847.000	-1.23741	-3.93792	-1.30657	-4.11594
3848.000	-1.25322	-3.94977	-1.41525	-4.15730
3849.000	-1.24927	-3.98541	-1.38956	-4.09997
3850.000	-1.24532	-3.94187	-1.38166	-4.08415
3851.000	-1.25915	-3.97550	-1.36585	-4.03470
3852.000	-1.23544	-3.96168	-1.35004	-4.06244
3853.000	-1.26310	-3.93986	-1.38363	-4.06634
3854.000	-1.28484	-3.94379	-1.34609	-4.04859
3855.000	-1.22555	-3.96169	-1.35992	-4.01097
3856.000	-1.26112	-3.95372	-1.42710	-4.05241
3857.000	-1.27100	-3.94381	-1.37771	-4.10988
3858.000	-1.23148	-4.01711	-1.33621	-4.09808
3859.000	-1.24136	-3.96167	-1.39154	-4.08611
3860.000	-1.25915	-3.92799	-1.35202	-4.08024
3861.000	-1.27100	-3.96954	-1.38363	-4.11383
3862.000	-1.27496	-3.94974	-1.32040	-4.10206
3863.000	-1.25915	-3.93591	-1.39746	-4.04850
3864.000	-1.29472	-3.96555	-1.41327	-4.06827
3865.000	-1.26508	-3.92798	-1.35992	-4.07231
3866.000	-1.25717	-3.99925	-1.36585	-4.10001
3867.000	-1.28286	-3.97546	-1.41525	-4.09992
3868.000	-1.26310	-3.98539	-1.33621	-4.02486
3869.000	-1.21567	-3.96171	-1.35399	-4.04858
3870.000	-1.25915	-4.01706	-1.35597	-4.08419
3871.000	-1.25915	-3.99133	-1.30064	-4.12980
3872.000	-1.26508	-3.93194	-1.32238	-4.10799
3873.000	-1.25124	-4.01312	-1.29669	-4.08429
3874.000	-1.20184	-3.96371	-1.35597	-4.01691
3875.000	-1.22358	-3.94388	-1.34016	-4.12973
3876.000	-1.26903	-3.96163	-1.35795	-4.09211
3877.000	-1.26705	-3.98142	-1.42513	-4.01283
3878.000	-1.25322	-3.96957	-1.37968	-4.07228
3879.000	-1.27298	-3.96162	-1.35992	-4.03471
3880.000	-1.28879	-3.94774	-1.37968	-4.04458
3881.000	-1.29472	-3.95961	-1.28286	-4.02099
3882.000	-1.27693	-3.94578	-1.32436	-4.01498
3883.000	-1.27693	-3.99922	-1.36980	-4.05251
3884.000	-1.29076	-3.99920	-1.31645	-4.06843
3885.000	-1.30855	-3.98730	-1.35004	-4.02681
3886.000	-1.32040	-3.98332	-1.38956	-4.07424
3887.000	-1.26310	-3.99331	-1.33028	-3.99320
3888.000	-1.29472	-3.99722	-1.35004	-4.05056
3889.000	-1.30855	-3.95167	-1.32831	-4.01498
3890.000	-1.29274	-3.96753	-1.37771	-4.00500
3891.000	-1.29669	-3.97940	-1.31843	-3.99322
3892.000	-1.29076	-3.97149	-1.38758	-4.09403
3893.000	-1.32040	-3.97342	-1.31843	-4.10207
3894.000	-1.26903	-3.96361	-1.29472	-4.06451
3895.000	-1.29274	-3.96357	-1.29472	-4.00513
3896.000	-1.34214	-3.99120	-1.31645	-4.02885
3897.000	-1.28484	-3.95764	-1.35004	-4.06837
3898.000	-1.31645	-3.95957	-1.32831	-3.99914
3899.000	-1.27496	-4.00318	-1.32436	-4.07633
3900.000	-1.33028	-3.97341	-1.27693	-4.08828
3901.000	-1.30855	-3.97740	-1.38561	-4.03071
3902.000	-1.28879	-3.99920	-1.27496	-4.01110
3903.000	-1.34412	-3.98922	-1.31645	-4.06051
3904.000	-1.31448	-3.98333	-1.36387	-4.04658
3905.000	-1.32040	-4.01697	-1.31645	-3.98729
3906.000	-1.25717	-3.96956	-1.26705	-4.05861
3907.000	-1.28879	-3.99723	-1.30657	-4.04470
3908.000	-1.25717	-4.01905	-1.27298	-4.06454
3909.000	-1.33028	-3.99914	-1.30460	-4.06845
3910.000	-1.29274	-4.01107	-1.30657	-4.06449
3911.000	-1.30657	-3.97740	-1.29076	-4.07441
3912.000	-1.27298	-3.97548	-1.30855	-4.04667
3913.000	-1.30064	-3.99325	-1.38758	-4.01092
3914.000	-1.30855	-4.01105	-1.29867	-4.03086
3915.000	-1.29669	-4.01701	-1.27100	-4.04673
3916.000	-1.31448	-3.97145	-1.32831	-4.08424
3917.000	-1.34016	-4.00902	-1.28879	-4.04077
3918.000	-1.32238	-3.99519	-1.35992	-4.06242
3919.000	-1.33424	-3.96350	-1.27100	-4.09423
3920.000	-1.35004	-3.97140	-1.33424	-4.06840
3921.000	-1.33028	-4.01299	-1.28681	-4.05858
3922.000	-1.27891	-3.96161	-1.23741	-4.07053
3923.000	-1.30657	-3.99126	-1.22753	-4.06659
3924.000	-1.33424	-3.98528	-1.24532	-4.02302
3925.000	-1.32040	-3.96353	-1.29867	-4.02888
3926.000	-1.33226	-4.00903	-1.32040	-4.08623
3927.000	-1.30262	-3.99325	-1.29472	-4.01305
3928.000	-1.31843	-4.00312	-1.31052	-4.05063
3929.000	-1.34214	-3.96745	-1.30262	-4.00908
3930.000	-1.27891	-3.98339	-1.32238	-4.06050
3931.000	-1.30064	-4.01106	-1.29472	-4.03680
3932.000	-1.29076	-3.98337	-1.31843	-4.02687
3933.000	-1.31052	-3.98729	-1.25322	-4.06259
3934.000	-1.33424	-3.95955	-1.39351	-4.07226
3935.000	-1.32436	-3.98331	-1.26310	-4.01904
3936.000	-1.27100	-3.99725	-1.28088	-4.10015
3937.000	-1.29076	-3.98139	-1.23939	-4.01907
3938.000	-1.33424	-3.97736	-1.32238	-4.09019
3939.000	-1.31645	-4.00906	-1.30262	-4.05658
3940.000	-1.28879	-3.98337	-1.28088	-4.08630
3941.000	-1.29472	-4.01899	-1.33621	-4.06642
3942.000	-1.30064	-4.02294	-1.28286	-3.97744
3943.000	-1.33621	-4.00507	-1.28286	-4.08431
3944.000	-1.32040	-3.97738	-1.29867	-3.98138
3945.000	-1.28088	-4.01307	-1.27298	-4.05662
3946.000	-1.30064	-4.01106	-1.28088	-4.03484
3947.000	-1.31645	-4.00708	-1.23544	-4.02700
3948.000	-1.27693	-4.03485	-1.18603	-4.00728
3949.000	-1.32436	-3.96352	-1.30262	-4.00314
3950.000	-1.28681	-3.99129	-1.29867	-4.04075
3951.000	-1.32040	-3.94571	-1.29472	-3.95961
3952.000	-1.26903	-4.00121	-1.26112	-4.03289
3953.000	-1.32436	-3.99519	-1.27693	-3.99724
3954.000	-1.30657	-3.97938	-1.26508	-3.97945
3955.000	-1.30064	-3.96554	-1.25322	-3.99728
3956.000	-1.33028	-3.95361	-1.32436	-4.00509
3957.000	-1.33424	-3.94173	-1.25322	-3.93790
3958.000	-1.35597	-4.01295	-1.29867	-4.00315
3959.000	-1.37771	-4.01094	-1.31843	-3.99124
3960.000	-1.34016	-3.97339	-1.26705	-3.97945
3961.000	-1.34412	-4.00901	-1.23346	-4.00721
3962.000	-1.38166	-3.97332	-1.24729	-3.96562
3963.000	-1.37375	-3.98917	-1.24729	-4.00125
3964.000	-1.38166	-3.98520	-1.23148	-3.99335
3965.000	-1.38956	-3.99112	-1.24136	-4.07053
3966.000	-1.40142	-3.94954	-1.23741	-3.99137
3967.000	-1.35597	-4.03274	-1.22358	-3.97951
3968.000	-1.36980	-4.02084	-1.28484	-4.00119
3969.000	-1.37573	-3.99708	-1.25520	-3.97748
3970.000	-1.42117	-4.01680	-1.16034	-4.00335
3971.000	-1.35202	-3.98525	-1.24532	-3.97552
3972.000	-1.34609	-3.95755	-1.21370	-3.95181
3973.000	-1.31645	-3.90217	-1.11291	-3.94403
3974.000	-1.19394	-3.92017	-1.10501	-3.91039
3975.000	-1.05560	-3.77382	-1.03781	-3.82335
3976.000	-0.90934	-3.67495	-0.80854	-3.66316
3977.000	-0.79668	-3.57203	-0.62471	-3.46514
3978.000	-0.57727	-3.44337	-0.42702	-3.23130
3979.000	-0.20956	-3.16196	-0.11071	-3.03899
3980.000	0.09687	-2.97550	0.07117	-2.76516
3981.000	0.40133	-2.76112	0.31829	-2.45938
3982.000	0.71366	-2.45327	0.52587	-2.18325
3983.000	1.09908	-2.20678	0.90934	-1.94070
3984.000	1.34609	-2.00795	1.13860	-1.74187
3985.000	1.63651	-1.70772	1.32831	-1.51519
3986.000	1.85971	-1.44128	1.56540	-1.28051
3987.000	1.99399	-1.18879	1.77281	-1.10944
3988.000	2.05718	-1.03969	1.81626	-0.91659
3989.000	2.08877	-0.90849	1.95252	-0.78135
3990.000	2.14207	-0.70970	2.04928	-0.69185
3991.000	2.15392	-0.55862	2.14997	-0.59639
3992.000	2.19143	-0.44729	2.20327	-0.49897
3993.000	2.09666	-0.40557	2.16971	-0.51886
3994.000	2.02361	-0.27238	2.21512	-0.44330
3995.000	2.00189	-0.27437	2.23288	-0.42740
3996.000	1.94265	-0.21076	2.22301	-0.47312
3997.000	1.87551	-0.20281	2.10259	-0.39364
3998.000	1.82613	-0.22668	2.14997	-0.51091
3999.000	1.74713	-0.27441	2.02361	-0.38769
4000.000	1.75700	-0.22072	2.06112	-0.33798
4001.000	1.72540	-0.23266	1.97227	-0.28432
4002.000	1.63256	-0.21079	1.90513	-0.26246
4003.000	1.59503	-0.16904	1.78466	-0.29230
4004.000	1.52589	-0.13523	1.82416	-0.19884
4005.000	1.52984	-0.12131	1.82613	-0.22071
4006.000	1.46464	-0.09745	1.70565	-0.20681
4007.000	1.42315	-0.05171	1.69577	-0.25652
4008.000	1.33819	-0.08154	1.69577	-0.23266
4009.000	1.28879	-0.13326	1.64441	-0.28238
4010.000	1.29076	-0.18497	1.69775	-0.19488
4011.000	1.23148	-0.27647	1.63651	-0.35795
4012.000	1.26705	-0.30431	1.68787	-0.33607
4013.000	1.30855	-0.38386	1.80243	-0.34002
4014.000	1.31052	-0.47733	1.75108	-0.41957
4015.000	1.35795	-0.55090	1.76095	-0.48518
4016.000	1.42710	-0.60259	1.83008	-0.57066
4017.000	1.47254	-0.65826	1.84193	-0.59252
4018.000	1.58318	-0.68208	1.96635	-0.59646
4019.000	1.63849	-0.71388	1.92488	-0.57063
4020.000	1.66812	-0.71188	2.02163	-0.57656
4021.000	1.73133	-0.68004	2.02163	-0.57656
4022.000	1.80836	-0.62236	2.10061	-0.53478
4023.000	1.89723	-0.57660	2.03348	-0.59246
4024.000	1.84193	-0.54878	2.07692	-0.50100
4025.000	1.85181	-0.52890	2.10061	-0.41352
4026.000	1.92290	-0.42947	2.04533	-0.38371
4027.000	1.91105	-0.39169	2.17958	-0.36976
4028.000	1.91303	-0.30222	2.07297	-0.33997
4029.000	1.91105	-0.30421	2.04335	-0.28629
4030.000	1.91698	-0.22269	2.09864	-0.28032
4031.000	1.88341	-0.18293	2.13812	-0.20477
4032.000	1.90513	-0.17100	2.05915	-0.26840
4033.000	1.87551	-0.15509	2.11641	-0.28231
4034.000	1.90315	-0.11334	2.05718	-0.19881
4035.000	1.87156	-0.10141	2.03546	-0.15905
4036.000	1.84193	-0.12328	2.04730	-0.18689
4037.000	1.84193	-0.10539	2.06902	-0.16303
4038.000	1.82218	-0.11732	1.98412	-0.21871
4039.000	1.87353	-0.12726	2.04335	-0.11730
4040.000	1.86366	-0.14515	1.96240	-0.19883
4041.000	1.86168	-0.10936	2.02163	-0.11134
4042.000	1.79848	-0.12130	2.02558	-0.20677
4043.000	1.80046	-0.14516	2.02558	-0.21274
4044.000	1.78861	-0.14715	2.00781	-0.16303
4045.000	1.81626	-0.20282	1.95647	-0.19286
4046.000	1.80046	-0.17101	2.00189	-0.13520
4047.000	1.76293	-0.22072	2.00781	-0.18888
4048.000	1.75108	-0.22470	2.05718	-0.22267
4049.000	1.74515	-0.20482	1.97424	-0.20877
4050.000	1.79256	-0.18890	2.04928	-0.17496
4051.000	1.77083	-0.20084	1.91500	-0.19088
4052.000	1.79848	-0.20879	1.99794	-0.29426
4053.000	1.78268	-0.18890	2.03348	-0.26045
4054.000	1.73725	-0.24061	2.00781	-0.17297
4055.000	1.76491	-0.18891	2.09666	-0.26442
4056.000	1.73528	-0.25652	2.02558	-0.26244
4057.000	1.76095	-0.18692	2.03941	-0.29425
4058.000	1.74713	-0.25453	2.02558	-0.21274
4059.000	1.75898	-0.21873	2.02953	-0.24455
4060.000	1.76095	-0.18692	1.97622	-0.25251
4061.000	1.74318	-0.25254	2.03941	-0.19882
4062.000	1.76688	-0.30026	1.97819	-0.21075
4063.000	1.77083	-0.22271	2.02756	-0.21274
4064.000	1.75898	-0.27839	1.93278	-0.33005
4065.000	1.74713	-0.25453	1.99399	-0.20280
4066.000	1.74910	-0.26049	1.98609	-0.25847
4067.000	1.75898	-0.26248	1.95055	-0.25251
4068.000	1.78071	-0.26447	1.93278	-0.27637
4069.000	1.76886	-0.31020	2.05520	-0.19683
4070.000	1.78663	-0.24259	1.99991	-0.24455
4071.000	1.80836	-0.30821	2.10061	-0.25050
4072.000	1.78663	-0.31219	2.09666	-0.17893
4073.000	1.80243	-0.25651	2.00781	-0.31016
4074.000	1.80441	-0.27639	2.04138	-0.20279
4075.000	1.82021	-0.25253	2.05125	-0.23261
4076.000	1.82218	-0.27440	2.07100	-0.25448
4077.000	1.80441	-0.24060	2.03941	-0.27635
4078.000	1.78861	-0.27242	1.95055	-0.18491
4079.000	1.77676	-0.24856	2.01571	-0.22665
4080.000	1.77281	-0.28435	2.03941	-0.24852
4081.000	1.75700	-0.25055	2.06310	-0.17297
4082.000	1.80441	-0.25253	1.96240	-0.16900
4083.000	1.77281	-0.26248	2.10456	-0.25447
4084.000	1.77676	-0.24060	2.01966	-0.16502
4085.000	1.72540	-0.30027	2.03348	-0.23858
4086.000	1.74515	-0.22669	2.16379	-0.23458
4087.000	1.77676	-0.27441	2.08284	-0.17893
4088.000	1.76886	-0.25850	2.05915	-0.16700
4089.000	1.77676	-0.22669	2.08482	-0.20279
4090.000	1.76886	-0.27242	2.07692	-0.23659
4091.000	1.72738	-0.21277	2.05915	-0.24852
4092.000	1.79453	-0.25850	1.94857	-0.30619
4093.000	1.78071	-0.26844	2.03151	-0.20081
4094.000	1.74713	-0.29827	1.97424	-0.24058
4095.000	1.75700	-0.26447	2.10654	-0.25249
4096.000	1.71750	-0.28436	2.01966	-0.24455
4097.000	1.75305	-0.30225	2.06705	-0.20677
4098.000	1.74515	-0.25851	2.02163	-0.25250
4099.000	1.75503	-0.26049	1.99399	-0.26642
4100.000	1.75108	-0.29827	2.07495	-0.26243
4101.000	1.79058	-0.27838	2.04928	-0.20080
4102.000	1.74910	-0.28038	2.07692	-0.14911
4103.000	1.75503	-0.30424	2.11246	-0.20676
4104.000	1.74515	-0.28038	2.02361	-0.19484
4105.000	1.74120	-0.31021	2.04928	-0.18092
4106.000	1.71158	-0.28436	2.11443	-0.18887
4107.000	1.72540	-0.28237	2.07297	-0.16700
4108.000	1.71750	-0.27641	2.00584	-0.16502
4109.000	1.75700	-0.25850	2.02558	-0.15110
4110.000	1.74318	-0.27242	2.07889	-0.23261
4111.000	1.70565	-0.27243	2.02953	-0.22864
4112.000	1.72935	-0.24856	2.00979	-0.25250
4113.000	1.74120	-0.28237	2.11443	-0.26044
4114.000	1.74713	-0.29629	2.01966	-0.19683
4115.000	1.72540	-0.25055	2.10456	-0.22267
4116.000	1.75503	-0.25254	2.08679	-0.15706
4117.000	1.76293	-0.25453	2.10851	-0.18489
4118.000	1.73330	-0.27044	2.04730	-0.17695
4119.000	1.70960	-0.27641	2.02953	-0.18291
4120.000	1.74120	-0.32214	2.03348	-0.18888
4121.000	1.71948	-0.30424	2.06507	-0.15706
4122.000	1.74318	-0.26646	2.06310	-0.25249
4123.000	1.73923	-0.29231	2.05718	-0.15706
4124.000	1.75503	-0.24061	2.08877	-0.15110
4125.000	1.70960	-0.30027	2.03941	-0.17695
4126.000	1.73133	-0.28237	2.04138	-0.17496
4127.000	1.73528	-0.27044	2.03546	-0.20677
4128.000	1.71948	-0.29231	2.13023	-0.23260
4129.000	1.73528	-0.25453	2.14010	-0.26242
4130.000	1.75503	-0.22470	2.09864	-0.15905
4131.000	1.74318	-0.24856	2.13615	-0.25447
4132.000	1.73133	-0.26845	2.08877	-0.18092
4133.000	1.75305	-0.26845	2.01769	-0.19087
4134.000	1.76688	-0.21873	2.08877	-0.26243
4135.000	1.72738	-0.26447	2.08087	-0.16899
4136.000	1.74713	-0.28435	2.10061	-0.25249
4137.000	1.72738	-0.27044	2.08679	-0.26243
4138.000	1.70367	-0.25851	2.19143	-0.22464
4139.000	1.71553	-0.25453	2.10851	-0.20080
4140.000	1.73923	-0.27243	2.08482	-0.14513
4141.000	1.73725	-0.24856	2.08679	-0.16303
4142.000	1.73923	-0.21476	2.02953	-0.27039
4143.000	1.76293	-0.27043	2.07297	-0.16700
4144.000	1.75108	-0.29231	2.12036	-0.16899
4145.000	1.79848	-0.25651	2.12036	-0.19881
4146.000	1.72935	-0.27640	2.15392	-0.16898
4147.000	1.76095	-0.26845	2.03151	-0.20081
4148.000	1.77676	-0.25452	2.05125	-0.22466
4149.000	1.81231	-0.24060	2.10259	-0.23459
4150.000	1.80638	-0.29429	2.01374	-0.17099
4151.000	1.75305	-0.28435	2.08679	-0.22466
4152.000	1.79848	-0.22668	2.08482	-0.22068
4153.000	1.78268	-0.24856	1.99399	-0.21473
4154.000	1.80441	-0.27639	2.02361	-0.22069
4155.000	1.77083	-0.33406	2.12628	-0.25447
