time (ms)	lx (deg)	ly (deg)	rx (deg)	ry (deg)
0.000	0.42702	0.52319	0.62668	0.38592
1.000	0.42505	0.54110	0.61482	0.45555
2.000	0.42307	0.55303	0.55157	0.39786
3.000	0.42702	0.50330	0.69389	0.46548
4.000	0.37563	0.53911	0.63459	0.42571
5.000	0.40330	0.53712	0.57331	0.47544
6.000	0.39935	0.54707	0.68006	0.43167
7.000	0.40133	0.55502	0.62668	0.41377
8.000	0.41319	0.58685	0.60099	0.41974
9.000	0.41319	0.60674	0.58122	0.37399
10.000	0.39737	0.52121	0.64052	0.42571
11.000	0.40923	0.50927	0.64052	0.43764
12.000	0.40330	0.53712	0.71168	0.36006
13.000	0.37958	0.54110	0.61285	0.36404
14.000	0.41319	0.54706	0.69587	0.40780
15.000	0.37563	0.54707	0.64645	0.34614
16.000	0.38946	0.53314	0.59110	0.41974
17.000	0.39342	0.51723	0.67610	0.41973
18.000	0.41714	0.55104	0.61482	0.39985
19.000	0.39539	0.54110	0.58913	0.39189
20.000	0.43493	0.52120	0.65238	0.37796
21.000	0.42702	0.55701	0.62471	0.48140
22.000	0.39539	0.51524	0.60099	0.37996
23.000	0.41121	0.52319	0.57727	0.39985
24.000	0.43098	0.48540	0.59308	0.44162
25.000	0.40133	0.50330	0.63064	0.39587
26.000	0.40133	0.48540	0.51401	0.45754
27.000	0.44284	0.55502	0.63657	0.34415
28.000	0.41121	0.53911	0.65436	0.35608
29.000	0.43889	0.55701	0.68994	0.40382
30.000	0.42505	0.53911	0.62075	0.36603
31.000	0.42900	0.53712	0.66227	0.37398
32.000	0.43098	0.55303	0.66029	0.41775
33.000	0.44086	0.54308	0.62471	0.39587
34.000	0.41714	0.55502	0.65238	0.34415
35.000	0.43493	0.56298	0.69785	0.37398
36.000	0.47249	0.51324	0.62668	0.39388
37.000	0.42109	0.55502	0.64843	0.42769
38.000	0.45470	0.55303	0.66424	0.40183
39.000	0.47052	0.56297	0.64645	0.34216
40.000	0.46656	0.52319	0.64843	0.39189
41.000	0.47052	0.55701	0.60494	0.42571
42.000	0.45470	0.55303	0.65041	0.39189
43.000	0.48633	0.53910	0.61680	0.42969
44.000	0.44877	0.53513	0.67808	0.37398
45.000	0.44877	0.51722	0.63262	0.34415
46.000	0.44086	0.57889	0.60296	0.38990
47.000	0.44679	0.51325	0.66227	0.40581
48.000	0.48831	0.53115	0.62075	0.42770
49.000	0.46656	0.55104	0.63262	0.42571
50.000	0.50017	0.51722	0.71366	0.33817
51.000	0.48435	0.51523	0.58122	0.43765
52.000	0.50215	0.55501	0.60099	0.36404
53.000	0.49028	0.53711	0.64052	0.36802
54.000	0.46063	0.49534	0.60889	0.39388
55.000	0.44284	0.52319	0.59308	0.40980
56.000	0.46459	0.52518	0.66820	0.36205
57.000	0.49819	0.52916	0.57331	0.41179
58.000	0.46459	0.54706	0.63459	0.37796
59.000	0.47249	0.53512	0.63855	0.42173
60.000	0.46459	0.54109	0.62273	0.43366
61.000	0.51598	0.52915	0.66424	0.40780
62.000	0.49424	0.57093	0.57331	0.39587
63.000	0.47249	0.55303	0.61087	0.37200
64.000	0.45075	0.58088	0.69587	0.44360
65.000	0.47249	0.59679	0.67413	0.45355
66.000	0.47842	0.55104	0.65436	0.44361
67.000	0.48040	0.56695	0.52587	0.43367
68.000	0.47052	0.55104	0.59703	0.47146
69.000	0.45272	0.53910	0.57924	0.42770
70.000	0.46261	0.56098	0.61087	0.47146
71.000	0.51401	0.56098	0.59308	0.41178
72.000	0.48238	0.54308	0.64448	0.32226
73.000	0.47052	0.56297	0.61680	0.48538
74.000	0.46854	0.50927	0.64645	0.42968
75.000	0.51994	0.52517	0.56540	0.44361
76.000	0.49622	0.53711	0.59703	0.43764
77.000	0.45470	0.51126	0.57133	0.48539
78.000	0.47447	0.53910	0.59308	0.43367
79.000	0.43098	0.50529	0.65041	0.36404
80.000	0.34202	0.43567	0.53378	0.33023
81.000	0.32225	0.35610	0.53180	0.30835
82.000	0.20363	0.28449	0.43691	0.21087
83.000	0.11071	0.26459	0.37760	0.13329
84.000	0.02372	0.09151	0.24317	-0.06167
85.000	-0.09687	-0.00796	0.15223	-0.08356
86.000	-0.23131	-0.13130	0.09687	-0.24470
87.000	-0.35388	-0.23276	-0.10478	-0.32030
88.000	-0.49622	-0.32028	-0.20363	-0.47148
89.000	-0.54959	-0.36206	-0.23131	-0.49734
90.000	-0.62866	-0.41974	-0.36574	-0.50330
91.000	-0.67610	-0.49731	-0.34795	-0.52718
92.000	-0.65436	-0.52516	-0.39342	-0.54905
93.000	-0.68006	-0.54505	-0.45865	-0.56695
94.000	-0.71761	-0.56494	-0.44679	-0.56298
95.000	-0.67017	-0.49731	-0.34597	-0.54707
96.000	-0.62075	-0.51522	-0.26492	-0.45159
97.000	-0.54761	-0.44362	-0.32818	-0.43368
98.000	-0.49424	-0.39787	-0.15816	-0.43369
99.000	-0.41319	-0.31830	-0.22538	-0.30836
100.000	-0.36376	-0.30239	-0.10676	-0.25862
101.000	-0.28666	-0.25066	-0.03559	-0.22282
102.000	-0.20956	-0.23475	-0.01384	-0.25067
103.000	-0.20165	-0.14125	-0.00791	-0.10942
104.000	-0.14037	-0.11738	-0.02768	-0.19297
105.000	-0.12455	-0.08952	0.00000	-0.15319
106.000	-0.10280	-0.05570	0.01384	-0.09350
107.000	-0.09292	-0.02785	-0.02372	-0.07759
108.000	-0.10874	-0.08157	-0.07117	-0.10743
109.000	-0.12060	-0.05769	-0.10083	-0.10345
110.000	-0.13048	-0.06565	-0.14827	-0.11937
111.000	-0.16211	-0.13528	-0.17793	-0.17905
112.000	-0.16409	-0.13926	-0.06524	-0.24669
113.000	-0.20561	-0.10146	-0.01582	-0.19297
114.000	-0.18979	-0.11539	-0.03756	-0.25266
115.000	-0.23329	-0.17905	-0.09292	-0.25862
116.000	-0.23724	-0.17507	-0.09292	-0.19098
117.000	-0.26096	-0.13528	-0.09687	-0.18900
118.000	-0.25305	-0.18899	-0.06326	-0.23873
119.000	-0.24712	-0.19098	-0.04943	-0.28648
120.000	-0.24910	-0.18303	-0.08303	-0.24669
121.000	-0.24317	-0.18502	-0.11664	-0.18900
122.000	-0.27480	-0.18700	-0.23131	-0.15915
123.000	-0.31632	-0.19695	-0.12653	-0.20093
124.000	-0.30446	-0.20292	-0.13048	-0.30836
125.000	-0.32620	-0.19695	-0.16607	-0.29642
126.000	-0.29655	-0.21287	-0.17398	-0.21287
127.000	-0.29852	-0.20093	-0.18584	-0.33024
128.000	-0.28469	-0.23674	-0.24515	-0.22082
129.000	-0.32225	-0.19297	-0.19177	-0.24271
130.000	-0.31039	-0.23674	-0.21945	-0.26857
131.000	-0.31632	-0.23077	-0.19375	-0.28846
132.000	-0.28864	-0.22281	-0.19968	-0.26459
133.000	-0.31632	-0.26857	-0.17793	-0.28648
134.000	-0.31236	-0.27255	-0.16211	-0.30239
135.000	-0.25899	-0.30836	-0.13048	-0.30836
136.000	-0.30643	-0.30239	-0.15618	-0.34616
137.000	-0.32620	-0.28846	-0.13444	-0.32228
138.000	-0.32620	-0.27056	-0.19968	-0.41379
139.000	-0.28864	-0.28448	-0.17991	-0.31433
140.000	-0.29259	-0.26459	-0.18584	-0.32825
141.000	-0.31236	-0.29642	-0.17398	-0.36207
142.000	-0.29062	-0.31035	-0.14630	-0.34815
143.000	-0.30841	-0.30239	-0.17002	-0.32228
144.000	-0.26492	-0.30239	-0.18188	-0.27056
145.000	-0.26294	-0.28647	-0.20956	-0.38196
146.000	-0.27480	-0.28448	-0.13641	-0.38793
147.000	-0.24515	-0.26459	-0.17595	-0.36605
148.000	-0.28271	-0.28249	-0.21352	-0.31035
149.000	-0.30050	-0.34615	-0.14432	-0.37401
150.000	-0.24119	-0.29642	-0.08501	-0.33820
151.000	-0.26096	-0.30637	-0.21747	-0.28449
152.000	-0.29457	-0.23674	-0.19375	-0.28449
153.000	-0.26294	-0.26857	-0.13641	-0.31234
154.000	-0.27085	-0.25265	-0.09490	-0.29841
155.000	-0.26096	-0.26459	-0.15421	-0.25862
156.000	-0.30841	-0.27851	-0.20956	-0.26260
157.000	-0.25503	-0.26260	-0.11862	-0.36008
158.000	-0.28666	-0.27852	-0.21352	-0.35212
159.000	-0.27876	-0.29443	-0.16409	-0.25862
160.000	-0.27282	-0.28249	-0.15223	-0.31433
161.000	-0.26294	-0.29642	-0.16607	-0.29443
162.000	-0.25305	-0.30438	-0.13444	-0.34417
163.000	-0.32818	-0.26658	-0.18188	-0.37202
164.000	-0.29259	-0.30637	-0.14827	-0.32825
165.000	-0.34004	-0.26260	-0.17002	-0.29244
166.000	-0.30446	-0.26061	-0.15618	-0.32029
167.000	-0.25108	-0.29045	-0.17002	-0.35809
168.000	-0.24119	-0.29443	-0.17200	-0.36804
169.000	-0.28271	-0.30438	-0.17200	-0.33820
170.000	-0.25305	-0.26061	-0.16607	-0.39390
171.000	-0.29259	-0.25663	-0.11862	-0.35213
172.000	-0.28469	-0.29642	-0.22142	-0.30637
173.000	-0.25701	-0.30637	-0.15223	-0.33621
174.000	-0.28073	-0.27056	-0.20561	-0.32228
175.000	-0.26887	-0.23475	-0.08501	-0.34218
176.000	-0.26294	-0.27255	-0.08106	-0.30836
177.000	-0.27678	-0.28846	-0.15618	-0.31632
178.000	-0.28666	-0.22878	-0.17398	-0.30239
179.000	-0.26887	-0.27653	-0.08501	-0.34616
180.000	-0.25108	-0.27454	-0.14630	-0.30637
181.000	-0.29852	-0.30040	-0.19968	-0.31433
182.000	-0.28271	-0.23674	-0.14827	-0.34019
183.000	-0.30050	-0.23674	-0.19177	-0.29443
184.000	-0.25503	-0.28249	-0.18781	-0.29443
185.000	-0.28073	-0.27056	-0.16211	-0.32626
186.000	-0.30841	-0.26260	-0.14827	-0.35014
187.000	-0.28666	-0.30239	-0.24515	-0.35411
188.000	-0.25503	-0.29841	-0.11664	-0.40584
189.000	-0.30248	-0.28249	-0.21352	-0.36605
190.000	-0.27282	-0.25663	-0.17595	-0.40186
191.000	-0.24712	-0.24669	-0.17200	-0.36406
192.000	-0.27678	-0.29642	-0.20165	-0.35013
193.000	-0.30050	-0.26459	-0.15421	-0.33621
194.000	-0.25503	-0.25862	-0.12850	-0.37003
195.000	-0.24910	-0.25464	-0.19375	-0.40783
196.000	-0.26096	-0.27255	-0.16014	-0.34815
197.000	-0.30841	-0.29244	-0.08897	-0.33422
198.000	-0.29062	-0.30438	-0.17200	-0.31035
199.000	-0.30643	-0.30637	-0.18386	-0.36207
200.000	-0.28073	-0.29642	-0.16804	-0.35411
201.000	-0.32818	-0.27653	-0.17595	-0.30836
202.000	-0.30248	-0.24072	-0.15223	-0.27255
203.000	-0.33213	-0.29642	-0.09490	-0.22878
204.000	-0.29852	-0.28846	-0.13246	-0.35610
205.000	-0.31434	-0.24470	-0.15816	-0.36207
206.000	-0.30643	-0.25066	-0.12060	-0.38793
207.000	-0.36376	-0.27652	-0.20758	-0.28250
208.000	-0.30643	-0.24669	-0.18781	-0.33820
209.000	-0.34004	-0.23276	-0.13048	-0.30438
210.000	-0.33609	-0.26260	-0.18979	-0.29244
211.000	-0.34597	-0.26459	-0.12257	-0.29244
212.000	-0.30446	-0.23674	-0.22933	-0.32626
213.000	-0.31236	-0.25464	-0.17991	-0.29045
214.000	-0.31434	-0.23674	-0.17991	-0.31433
215.000	-0.32818	-0.28846	-0.18979	-0.29642
216.000	-0.30841	-0.24271	-0.12060	-0.27454
217.000	-0.35190	-0.23873	-0.10874	-0.32228
218.000	-0.37365	-0.26260	-0.19770	-0.29045
219.000	-0.36376	-0.24867	-0.21154	-0.26459
220.000	-0.34795	-0.20889	-0.16409	-0.33024
221.000	-0.32620	-0.26857	-0.18584	-0.33223
222.000	-0.35388	-0.29642	-0.24712	-0.26459
223.000	-0.32027	-0.26260	-0.12060	-0.28648
224.000	-0.27282	-0.25265	-0.27085	-0.21883
225.000	-0.32027	-0.26061	-0.21352	-0.29244
226.000	-0.31039	-0.29045	-0.21747	-0.26857
227.000	-0.31632	-0.27255	-0.18188	-0.29642
228.000	-0.31434	-0.24072	-0.07315	-0.27653
229.000	-0.32422	-0.23276	-0.09885	-0.15716
230.000	-0.35586	-0.19297	-0.15816	-0.20889
231.000	-0.30446	-0.21684	-0.20956	-0.19695
232.000	-0.37365	-0.18302	-0.21945	-0.19297
233.000	-0.35388	-0.21883	-0.19968	-0.23475
234.000	-0.30841	-0.18700	-0.23922	-0.26857
235.000	-0.30446	-0.17109	-0.15618	-0.27255
236.000	-0.32027	-0.21485	-0.10676	-0.30836
237.000	-0.30446	-0.20093	-0.14037	-0.30040
238.000	-0.33411	-0.17507	-0.21747	-0.23276
239.000	-0.31829	-0.20889	-0.26096	-0.19496
240.000	-0.34202	-0.20093	-0.19572	-0.24669
241.000	-0.31632	-0.21088	-0.14037	-0.28250
242.000	-0.30841	-0.16711	-0.16804	-0.29642
243.000	-0.29259	-0.18104	-0.22340	-0.19496
244.000	-0.29852	-0.18303	-0.18979	-0.30637
245.000	-0.30841	-0.20292	-0.17793	-0.19894
246.000	-0.29655	-0.18104	-0.13048	-0.28449
247.000	-0.26294	-0.13528	-0.23724	-0.22480
248.000	-0.29655	-0.16114	-0.15618	-0.28648
249.000	-0.27480	-0.12334	-0.11467	-0.26061
250.000	-0.27282	-0.16114	-0.18584	-0.20292
251.000	-0.29259	-0.14324	-0.22142	-0.23276
252.000	-0.26294	-0.15517	-0.12455	-0.26658
253.000	-0.24515	-0.17706	-0.22735	-0.21685
254.000	-0.24317	-0.16114	-0.11664	-0.20093
255.000	-0.24712	-0.19496	-0.20165	-0.34019
256.000	-0.24910	-0.16711	-0.22735	-0.22480
257.000	-0.23922	-0.14324	-0.18979	-0.24072
258.000	-0.24119	-0.20093	-0.20956	-0.20491
259.000	-0.26294	-0.17507	-0.12257	-0.21884
260.000	-0.25503	-0.19098	-0.20758	-0.29841
261.000	-0.27678	-0.15716	-0.17200	-0.17507
262.000	-0.27282	-0.12732	-0.18584	-0.19695
263.000	-0.28073	-0.19695	-0.18584	-0.25464
264.000	-0.24515	-0.17507	-0.20561	-0.22878
265.000	-0.31236	-0.16114	-0.26492	-0.22878
266.000	-0.29062	-0.19496	-0.20363	-0.32825
267.000	-0.24910	-0.18502	-0.15025	-0.23077
268.000	-0.27480	-0.19695	-0.14827	-0.28648
269.000	-0.28271	-0.14921	-0.19770	-0.29244
270.000	-0.31039	-0.17905	-0.21154	-0.23077
271.000	-0.30841	-0.19297	-0.25305	-0.23873
272.000	-0.26492	-0.19098	-0.18188	-0.22083
273.000	-0.27876	-0.20491	-0.26294	-0.20889
274.000	-0.27876	-0.14324	-0.20956	-0.23077
275.000	-0.30050	-0.18899	-0.15025	-0.22083
276.000	-0.25305	-0.19496	-0.22142	-0.17109
277.000	-0.27678	-0.16910	-0.21549	-0.23276
278.000	-0.28073	-0.18899	-0.19770	-0.25464
279.000	-0.27480	-0.21486	-0.26294	-0.20889
280.000	-0.29259	-0.17308	-0.20758	-0.30438
281.000	-0.25701	-0.16512	-0.18979	-0.23276
282.000	-0.28271	-0.20690	-0.20561	-0.19297
283.000	-0.27480	-0.19297	-0.13246	-0.15319
284.000	-0.28864	-0.21883	-0.27282	-0.22480
285.000	-0.29062	-0.18700	-0.13246	-0.26857
286.000	-0.26096	-0.17706	-0.18781	-0.25663
287.000	-0.25701	-0.21088	-0.16607	-0.21685
288.000	-0.26887	-0.19695	-0.15223	-0.17109
289.000	-0.25503	-0.16711	-0.13641	-0.24271
290.000	-0.24910	-0.16114	-0.19177	-0.24271
291.000	-0.26887	-0.16711	-0.20561	-0.26658
292.000	-0.25701	-0.22281	-0.25503	-0.25663
293.000	-0.28073	-0.19894	-0.18584	-0.25067
294.000	-0.25108	-0.21883	-0.17002	-0.23276
295.000	-0.25305	-0.16313	-0.16607	-0.29244
296.000	-0.24515	-0.16114	-0.21747	-0.22480
297.000	-0.25899	-0.17507	-0.17398	-0.22480
298.000	-0.24910	-0.18899	-0.18584	-0.19894
299.000	-0.18386	-0.16512	-0.19375	-0.21685
300.000	-0.28469	-0.20491	-0.21549	-0.25663
301.000	-0.24119	-0.18502	-0.22340	-0.22082
302.000	-0.25305	-0.18303	-0.15223	-0.28648
303.000	-0.31236	-0.17109	-0.15816	-0.25067
304.000	-0.23724	-0.17109	-0.18386	-0.24271
305.000	-0.23329	-0.18104	-0.21747	-0.21287
306.000	-0.25701	-0.19297	-0.20561	-0.23276
307.000	-0.26294	-0.16910	-0.25108	-0.16512
308.000	-0.25701	-0.17706	-0.24515	-0.18899
309.000	-0.26689	-0.19098	-0.27876	-0.17706
310.000	-0.26294	-0.22281	-0.25305	-0.25663
311.000	-0.23329	-0.19695	-0.23329	-0.23475
312.000	-0.22340	-0.21884	-0.19770	-0.19695
313.000	-0.21154	-0.17507	-0.16804	-0.20292
314.000	-0.24515	-0.17507	-0.18386	-0.28051
315.000	-0.23329	-0.20889	-0.17595	-0.27056
316.000	-0.18781	-0.19695	-0.22735	-0.20491
317.000	-0.22142	-0.17905	-0.25108	-0.23077
318.000	-0.20363	-0.18502	-0.23131	-0.23077
319.000	-0.21747	-0.15319	-0.18781	-0.23674
320.000	-0.23922	-0.17507	-0.19770	-0.24868
321.000	-0.21747	-0.14324	-0.24119	-0.27255
322.000	-0.21747	-0.14921	-0.22340	-0.24271
323.000	-0.22933	-0.13130	-0.20165	-0.24470
324.000	-0.23724	-0.15915	-0.19177	-0.19894
325.000	-0.21747	-0.17905	-0.21747	-0.26658
326.000	-0.21747	-0.20889	-0.17200	-0.24868
327.000	-0.26887	-0.18899	-0.13641	-0.26658
328.000	-0.25108	-0.18899	-0.18781	-0.26260
329.000	-0.27678	-0.19496	-0.17398	-0.27056
330.000	-0.24712	-0.20491	-0.20561	-0.23873
331.000	-0.28469	-0.15716	-0.21747	-0.20690
332.000	-0.25701	-0.16512	-0.20561	-0.22878
333.000	-0.19572	-0.18303	-0.19770	-0.28449
334.000	-0.22933	-0.14324	-0.26887	-0.25862
335.000	-0.24317	-0.22281	-0.29457	-0.17706
336.000	-0.25108	-0.15915	-0.24712	-0.19297
337.000	-0.24119	-0.19098	-0.26492	-0.16910
338.000	-0.24317	-0.21287	-0.16409	-0.24470
339.000	-0.24317	-0.20491	-0.21352	-0.26857
340.000	-0.26096	-0.19098	-0.33213	-0.25265
341.000	-0.22933	-0.14921	-0.28271	-0.19098
342.000	-0.26294	-0.16114	-0.25503	-0.22679
343.000	-0.23724	-0.19695	-0.27480	-0.21486
344.000	-0.24317	-0.18104	-0.27480	-0.24470
345.000	-0.24910	-0.17308	-0.20956	-0.22082
346.000	-0.23329	-0.15120	-0.24515	-0.18502
347.000	-0.19968	-0.16512	-0.23329	-0.20093
348.000	-0.27480	-0.15915	-0.22340	-0.24669
349.000	-0.17200	-0.14722	-0.23329	-0.25265
350.000	-0.21352	-0.17109	-0.26887	-0.21486
351.000	-0.25305	-0.11738	-0.25503	-0.26658
352.000	-0.23724	-0.17905	-0.16409	-0.21486
353.000	-0.21549	-0.19297	-0.21352	-0.28051
354.000	-0.24712	-0.18502	-0.20956	-0.22878
355.000	-0.21945	-0.16711	-0.23922	-0.27255
356.000	-0.25305	-0.16114	-0.20561	-0.15120
357.000	-0.24712	-0.12334	-0.21549	-0.20491
358.000	-0.24515	-0.13926	-0.19572	-0.22281
359.000	-0.24515	-0.14722	-0.21945	-0.19894
360.000	-0.27085	-0.12732	-0.22538	-0.20093
361.000	-0.18781	-0.13727	-0.21549	-0.24470
362.000	-0.22538	-0.15319	-0.16014	-0.20093
363.000	-0.24515	-0.17109	-0.25503	-0.21287
364.000	-0.23131	-0.15915	-0.20956	-0.16910
365.000	-0.22538	-0.15517	-0.24119	-0.19894
366.000	-0.23922	-0.15318	-0.19177	-0.24072
367.000	-0.19375	-0.12732	-0.23922	-0.16910
368.000	-0.25899	-0.15915	-0.28271	-0.18104
369.000	-0.25305	-0.15915	-0.29062	-0.21287
370.000	-0.24910	-0.14125	-0.19572	-0.22281
371.000	-0.22538	-0.14523	-0.21747	-0.25464
372.000	-0.22735	-0.16313	-0.22735	-0.23077
373.000	-0.24317	-0.16512	-0.25108	-0.21088
374.000	-0.25701	-0.13727	-0.22538	-0.22281
375.000	-0.22933	-0.15915	-0.25108	-0.16910
376.000	-0.24119	-0.15120	-0.27282	-0.23873
377.000	-0.22538	-0.10146	-0.18584	-0.25266
378.000	-0.23724	-0.15318	-0.28271	-0.21287
379.000	-0.26096	-0.17109	-0.19968	-0.24271
380.000	-0.28073	-0.18303	-0.23131	-0.24271
381.000	-0.26689	-0.15120	-0.21945	-0.21685
382.000	-0.24712	-0.13926	-0.31829	-0.20690
383.000	-0.23922	-0.15318	-0.26294	-0.28051
384.000	-0.24515	-0.17308	-0.23526	-0.22679
385.000	-0.22538	-0.17507	-0.25108	-0.22480
386.000	-0.25305	-0.19695	-0.33213	-0.27851
387.000	-0.28469	-0.12931	-0.25503	-0.24868
388.000	-0.26096	-0.18700	-0.24317	-0.23077
389.000	-0.22933	-0.20093	-0.19968	-0.17706
390.000	-0.28666	-0.19695	-0.29259	-0.26459
391.000	-0.21154	-0.21287	-0.27678	-0.20491
392.000	-0.23922	-0.15517	-0.24515	-0.27056
393.000	-0.23724	-0.17507	-0.28469	-0.21684
394.000	-0.27085	-0.17109	-0.30446	-0.27056
395.000	-0.24119	-0.20093	-0.29852	-0.30040
396.000	-0.22538	-0.15517	-0.28073	-0.25862
397.000	-0.22735	-0.15517	-0.29259	-0.26260
398.000	-0.25305	-0.17109	-0.31632	-0.29841
399.000	-0.25108	-0.15716	-0.26294	-0.28249
400.000	-0.24119	-0.16910	-0.32620	-0.20292
401.000	-0.25108	-0.19894	-0.27876	-0.22679
402.000	-0.22340	-0.16910	-0.21154	-0.25067
403.000	-0.23724	-0.15716	-0.26096	-0.21685
404.000	-0.23131	-0.17109	-0.24317	-0.23276
405.000	-0.22142	-0.17905	-0.28864	-0.18899
406.000	-0.24515	-0.22878	-0.26689	-0.23674
407.000	-0.21154	-0.17308	-0.29457	-0.20292
408.000	-0.22142	-0.19098	-0.23526	-0.18303
409.000	-0.21352	-0.18701	-0.28469	-0.23276
410.000	-0.23329	-0.16910	-0.26492	-0.21287
411.000	-0.19770	-0.21486	-0.26887	-0.19098
412.000	-0.21945	-0.19098	-0.25899	-0.18104
413.000	-0.18584	-0.20292	-0.26294	-0.21883
414.000	-0.15816	-0.20292	-0.24910	-0.24271
415.000	-0.22142	-0.18303	-0.21549	-0.22679
416.000	-0.19572	-0.14523	-0.28271	-0.24072
417.000	-0.20561	-0.15716	-0.25305	-0.25265
418.000	-0.15421	-0.19695	-0.27282	-0.24868
419.000	-0.23131	-0.16711	-0.19770	-0.34019
420.000	-0.22538	-0.17905	-0.26689	-0.26658
421.000	-0.11862	-0.16114	-0.27678	-0.28051
422.000	-0.18979	-0.15915	-0.27876	-0.19297
423.000	-0.19375	-0.17507	-0.22933	-0.22878
424.000	-0.20758	-0.18303	-0.31434	-0.29642
425.000	-0.19375	-0.14722	-0.23724	-0.22281
426.000	-0.13048	-0.16114	-0.29655	-0.20690
427.000	-0.18188	-0.15915	-0.23329	-0.23077
428.000	-0.12060	-0.16711	-0.28073	-0.18104
429.000	-0.12850	-0.17507	-0.26887	-0.25862
430.000	-0.15025	-0.13727	-0.33411	-0.24271
431.000	-0.13444	-0.17109	-0.31434	-0.21287
432.000	-0.17595	-0.18502	-0.21747	-0.24868
433.000	-0.19572	-0.13727	-0.27678	-0.22480
434.000	-0.16014	-0.18900	-0.27085	-0.28647
435.000	-0.16607	-0.15716	-0.31039	-0.23077
436.000	-0.14234	-0.14324	-0.29852	-0.31631
437.000	-0.18386	-0.21486	-0.27678	-0.32029
438.000	-0.19375	-0.15120	-0.30446	-0.21287
439.000	-0.15816	-0.18502	-0.17398	-0.23077
440.000	-0.19375	-0.19695	-0.31434	-0.21883
441.000	-0.18584	-0.14324	-0.28666	-0.26260
442.000	-0.16804	-0.15319	-0.31434	-0.22082
443.000	-0.17991	-0.15915	-0.23329	-0.27653
444.000	-0.17595	-0.21088	-0.27678	-0.23077
445.000	-0.14827	-0.15319	-0.23724	-0.24072
446.000	-0.17595	-0.19496	-0.26887	-0.17905
447.000	-0.14037	-0.16114	-0.22142	-0.29244
448.000	-0.16804	-0.15120	-0.30248	-0.19695
449.000	-0.18781	-0.17308	-0.22538	-0.26857
450.000	-0.12257	-0.14921	-0.26689	-0.19695
451.000	-0.13641	-0.10942	-0.28666	-0.24271
452.000	-0.15223	-0.17308	-0.24910	-0.23077
453.000	-0.14630	-0.17308	-0.27282	-0.26260
454.000	-0.11269	-0.15518	-0.32620	-0.18302
455.000	-0.19375	-0.14722	-0.25503	-0.24868
456.000	-0.17398	-0.15517	-0.23526	-0.20491
457.000	-0.13246	-0.15120	-0.27085	-0.22480
458.000	-0.16607	-0.16512	-0.23131	-0.15120
459.000	-0.16211	-0.15120	-0.27085	-0.11738
460.000	-0.15816	-0.10544	-0.29852	-0.15517
461.000	-0.19968	-0.14125	-0.34399	-0.21883
462.000	-0.15421	-0.14523	-0.32818	-0.19894
463.000	-0.20956	-0.18701	-0.33609	-0.16910
464.000	-0.21154	-0.11539	-0.23526	-0.22480
465.000	-0.15816	-0.12533	-0.28864	-0.22878
466.000	-0.19572	-0.13130	-0.29655	-0.23475
467.000	-0.15223	-0.14324	-0.29852	-0.20093
468.000	-0.14234	-0.17507	-0.22735	-0.20690
469.000	-0.14037	-0.17905	-0.26689	-0.25862
470.000	-0.12060	-0.18104	-0.29259	-0.20093
471.000	-0.14037	-0.16313	-0.24119	-0.19695
472.000	-0.14432	-0.16114	-0.26294	-0.28051
473.000	-0.14234	-0.16910	-0.25305	-0.19098
474.000	-0.13246	-0.21486	-0.31632	-0.20093
475.000	-0.15223	-0.22083	-0.23526	-0.23077
476.000	-0.16014	-0.16313	-0.18188	-0.25862
477.000	-0.12060	-0.20491	-0.28073	-0.23674
478.000	-0.16211	-0.21884	-0.29457	-0.25066
479.000	-0.14234	-0.18900	-0.28073	-0.23475
480.000	-0.16607	-0.16910	-0.26492	-0.25464
481.000	-0.15223	-0.18104	-0.29655	-0.24470
482.000	-0.15816	-0.20093	-0.27282	-0.28249
483.000	-0.14630	-0.20889	-0.21154	-0.27056
484.000	-0.16804	-0.25067	-0.26294	-0.28249
485.000	-0.15223	-0.24072	-0.26492	-0.24669
486.000	-0.13246	-0.18502	-0.27678	-0.26658
487.000	-0.13246	-0.21486	-0.32620	-0.25862
488.000	-0.17595	-0.23674	-0.23131	-0.22082
489.000	-0.18584	-0.25663	-0.24910	-0.33223
490.000	-0.18584	-0.24072	-0.24119	-0.24470
491.000	-0.16607	-0.24072	-0.26096	-0.21883
492.000	-0.16607	-0.22679	-0.28073	-0.33024
493.000	-0.18584	-0.22878	-0.25899	-0.33223
494.000	-0.19375	-0.23077	-0.30050	-0.26061
495.000	-0.16607	-0.27255	-0.26887	-0.26857
496.000	-0.17793	-0.24868	-0.26492	-0.26857
497.000	-0.14630	-0.26061	-0.27480	-0.27653
498.000	-0.13444	-0.27056	-0.29457	-0.32427
499.000	-0.19375	-0.26061	-0.29457	-0.23475
500.000	-0.18188	-0.26061	-0.28271	-0.27852
501.000	-0.18188	-0.24072	-0.36574	-0.37997
502.000	-0.16607	-0.25266	-0.33016	-0.28448
503.000	-0.14037	-0.21486	-0.26689	-0.34615
504.000	-0.16014	-0.27653	-0.17991	-0.27852
505.000	-0.16211	-0.24072	-0.24910	-0.22480
506.000	-0.14827	-0.24470	-0.22735	-0.24868
507.000	-0.16014	-0.29443	-0.26887	-0.31631
508.000	-0.19177	-0.24470	-0.21549	-0.31830
509.000	-0.16607	-0.21884	-0.26294	-0.26857
510.000	-0.15223	-0.23077	-0.25305	-0.29443
511.000	-0.18781	-0.23077	-0.23131	-0.23077
512.000	-0.17200	-0.22480	-0.27480	-0.25265
513.000	-0.18781	-0.23674	-0.23724	-0.33223
514.000	-0.18188	-0.26857	-0.23724	-0.28647
515.000	-0.16804	-0.26857	-0.24910	-0.28647
516.000	-0.18386	-0.25663	-0.18781	-0.26061
517.000	-0.18584	-0.25862	-0.28666	-0.30836
518.000	-0.15816	-0.23674	-0.30050	-0.31631
519.000	-0.17991	-0.23873	-0.23526	-0.26857
520.000	-0.15816	-0.19496	-0.23724	-0.30438
521.000	-0.13246	-0.27056	-0.20956	-0.22878
522.000	-0.15025	-0.23077	-0.16014	-0.32029
523.000	-0.20561	-0.21884	-0.31632	-0.22480
524.000	-0.19177	-0.22281	-0.26492	-0.29443
525.000	-0.14432	-0.24470	-0.18781	-0.29642
526.000	-0.18584	-0.21287	-0.31632	-0.27454
527.000	-0.15618	-0.23475	-0.29457	-0.31830
528.000	-0.15816	-0.18104	-0.23724	-0.21884
529.000	-0.18188	-0.25464	-0.23724	-0.26061
530.000	-0.16014	-0.23077	-0.25503	-0.30040
531.000	-0.17991	-0.24669	-0.35586	-0.27255
532.000	-0.14234	-0.24072	-0.31632	-0.27851
533.000	-0.16211	-0.27255	-0.29259	-0.21684
534.000	-0.20561	-0.26260	-0.31434	-0.32228
535.000	-0.17991	-0.24470	-0.25108	-0.30637
536.000	-0.14630	-0.25663	-0.23131	-0.33024
537.000	-0.17398	-0.27255	-0.30643	-0.29045
538.000	-0.15421	-0.26061	-0.27282	-0.28249
539.000	-0.16014	-0.28648	-0.29259	-0.29045
540.000	-0.17200	-0.28250	-0.27085	-0.24470
541.000	-0.18781	-0.25862	-0.21352	-0.22679
542.000	-0.17793	-0.25465	-0.26294	-0.28051
543.000	-0.18584	-0.27852	-0.27480	-0.29045
544.000	-0.15025	-0.22679	-0.25305	-0.28647
545.000	-0.17200	-0.30438	-0.32027	-0.23873
546.000	-0.12455	-0.28648	-0.26096	-0.26857
547.000	-0.15618	-0.29443	-0.25305	-0.21088
548.000	-0.14037	-0.25862	-0.31829	-0.27056
549.000	-0.16804	-0.29443	-0.31039	-0.25464
550.000	-0.17002	-0.27852	-0.26096	-0.30637
551.000	-0.18584	-0.28648	-0.26887	-0.25862
552.000	-0.15816	-0.23873	-0.25701	-0.25862
553.000	-0.12060	-0.23475	-0.25899	-0.26061
554.000	-0.16211	-0.23475	-0.31236	-0.19695
555.000	-0.17002	-0.26658	-0.23526	-0.23077
556.000	-0.17595	-0.20690	-0.21945	-0.18701
557.000	-0.12850	-0.25862	-0.29852	-0.21486
558.000	-0.16804	-0.21486	-0.27876	-0.20292
559.000	-0.20561	-0.20889	-0.30643	-0.19894
560.000	-0.18386	-0.25464	-0.27678	-0.21486
561.000	-0.15025	-0.24669	-0.30841	-0.31233
562.000	-0.21154	-0.26260	-0.28666	-0.31432
563.000	-0.18386	-0.24271	-0.26492	-0.28647
564.000	-0.21154	-0.22878	-0.27085	-0.24470
565.000	-0.18781	-0.24470	-0.31039	-0.29244
566.000	-0.19770	-0.26459	-0.27480	-0.34814
567.000	-0.15223	-0.21486	-0.28864	-0.31830
568.000	-0.17398	-0.23475	-0.25108	-0.26658
569.000	-0.21352	-0.22281	-0.27085	-0.27255
570.000	-0.18979	-0.21287	-0.29852	-0.36008
571.000	-0.15223	-0.22282	-0.24119	-0.29045
572.000	-0.18386	-0.22878	-0.26689	-0.26658
573.000	-0.17991	-0.22878	-0.27480	-0.29642
574.000	-0.16014	-0.25067	-0.24712	-0.27255
575.000	-0.18781	-0.21088	-0.35981	-0.33421
576.000	-0.21945	-0.24470	-0.29655	-0.28448
577.000	-0.16014	-0.18104	-0.36179	-0.31034
578.000	-0.16607	-0.18303	-0.31829	-0.23276
579.000	-0.18781	-0.21685	-0.24712	-0.31631
580.000	-0.17991	-0.22083	-0.35981	-0.28448
581.000	-0.20561	-0.20690	-0.38749	-0.26260
582.000	-0.20956	-0.25663	-0.32818	-0.27653
583.000	-0.15223	-0.25862	-0.25108	-0.31830
584.000	-0.18188	-0.25464	-0.33806	-0.28448
585.000	-0.18584	-0.22878	-0.26689	-0.27653
586.000	-0.17595	-0.25067	-0.27282	-0.29443
587.000	-0.22933	-0.27454	-0.26096	-0.22878
588.000	-0.15816	-0.22083	-0.25899	-0.21685
589.000	-0.20956	-0.25663	-0.28666	-0.25862
590.000	-0.17793	-0.24669	-0.31632	-0.19894
591.000	-0.15223	-0.26061	-0.27678	-0.23873
592.000	-0.18386	-0.25862	-0.31236	-0.28647
593.000	-0.18781	-0.25266	-0.32027	-0.21287
594.000	-0.19177	-0.22679	-0.27480	-0.29045
595.000	-0.17398	-0.24072	-0.29062	-0.28846
596.000	-0.17991	-0.25862	-0.25701	-0.27454
597.000	-0.23922	-0.28647	-0.26492	-0.26061
598.000	-0.19968	-0.28647	-0.35190	-0.24867
599.000	-0.17200	-0.25465	-0.27480	-0.29443
600.000	-0.17991	-0.28648	-0.32422	-0.22878
601.000	-0.17398	-0.30239	-0.19375	-0.33024
602.000	-0.16211	-0.32626	-0.28469	-0.32029
603.000	-0.15223	-0.27056	-0.27876	-0.24669
604.000	-0.15618	-0.26260	-0.22735	-0.21685
605.000	-0.15025	-0.24868	-0.31829	-0.26857
606.000	-0.21352	-0.24271	-0.31632	-0.27056
607.000	-0.17991	-0.28648	-0.31236	-0.27454
608.000	-0.17595	-0.27852	-0.32620	-0.27454
609.000	-0.15025	-0.26857	-0.26096	-0.27454
610.000	-0.15816	-0.30239	-0.29457	-0.27056
611.000	-0.19770	-0.34019	-0.28073	-0.26857
612.000	-0.15223	-0.33422	-0.31829	-0.21088
613.000	-0.16211	-0.29642	-0.26689	-0.27454
614.000	-0.18781	-0.33621	-0.29852	-0.27255
615.000	-0.13246	-0.29045	-0.27480	-0.33621
616.000	-0.15223	-0.33422	-0.21352	-0.30438
617.000	-0.20561	-0.30438	-0.28073	-0.24868
618.000	-0.19770	-0.31035	-0.23329	-0.23674
619.000	-0.21549	-0.32427	-0.21352	-0.33621
620.000	-0.20561	-0.31234	-0.31434	-0.25066
621.000	-0.20758	-0.30040	-0.26689	-0.27454
622.000	-0.22933	-0.31035	-0.22735	-0.28051
623.000	-0.21945	-0.28647	-0.20758	-0.33223
624.000	-0.23724	-0.29642	-0.27480	-0.28647
625.000	-0.24515	-0.31035	-0.27282	-0.30040
626.000	-0.23329	-0.28250	-0.29062	-0.34615
627.000	-0.21352	-0.32228	-0.28469	-0.31035
628.000	-0.23131	-0.32228	-0.25305	-0.24868
629.000	-0.26689	-0.33223	-0.30446	-0.30637
630.000	-0.22340	-0.34814	-0.22142	-0.34019
631.000	-0.20956	-0.32626	-0.22340	-0.30637
632.000	-0.19968	-0.35411	-0.22340	-0.26857
633.000	-0.19770	-0.33024	-0.21352	-0.29443
634.000	-0.18188	-0.32427	-0.27678	-0.37798
635.000	-0.23329	-0.32427	-0.24515	-0.31035
636.000	-0.20956	-0.33422	-0.25503	-0.30040
637.000	-0.20165	-0.33024	-0.21945	-0.33024
638.000	-0.17793	-0.31433	-0.23131	-0.31035
639.000	-0.17793	-0.28846	-0.19375	-0.26459
640.000	-0.21154	-0.33024	-0.13444	-0.34616
641.000	-0.19770	-0.33024	-0.20758	-0.26061
642.000	-0.16607	-0.28449	-0.25305	-0.30239
643.000	-0.16804	-0.29841	-0.20363	-0.29045
644.000	-0.15618	-0.27255	-0.25503	-0.32626
645.000	-0.17793	-0.27255	-0.22340	-0.28846
646.000	-0.15421	-0.27454	-0.23329	-0.35013
647.000	-0.14827	-0.27852	-0.24712	-0.32029
648.000	-0.14432	-0.30239	-0.30248	-0.37599
649.000	-0.15618	-0.27852	-0.17595	-0.32228
650.000	-0.18188	-0.28051	-0.17991	-0.26857
651.000	-0.14827	-0.30040	-0.20363	-0.28250
652.000	-0.17398	-0.25266	-0.22142	-0.32029
653.000	-0.14037	-0.27653	-0.22340	-0.27653
654.000	-0.10874	-0.25067	-0.18584	-0.24470
655.000	-0.13246	-0.28648	-0.20956	-0.25067
656.000	-0.11664	-0.28449	-0.18584	-0.26061
657.000	-0.13048	-0.29244	-0.25305	-0.25663
658.000	-0.12653	-0.25067	-0.28666	-0.30239
659.000	-0.09687	-0.26459	-0.34399	-0.33024
660.000	-0.10280	-0.27255	-0.22142	-0.21287
661.000	-0.14234	-0.25862	-0.24515	-0.27653
662.000	-0.13048	-0.24868	-0.15618	-0.27653
663.000	-0.09885	-0.25465	-0.19968	-0.25862
664.000	-0.08501	-0.26260	-0.24712	-0.30239
665.000	-0.12455	-0.27056	-0.18386	-0.28449
666.000	-0.07710	-0.21486	-0.19177	-0.29443
667.000	-0.11071	-0.27454	-0.15618	-0.35212
668.000	-0.11071	-0.25067	-0.14630	-0.31035
669.000	-0.10874	-0.25067	-0.21154	-0.31035
670.000	-0.09490	-0.24271	-0.20758	-0.17507
671.000	-0.11862	-0.24470	-0.22340	-0.29841
672.000	-0.04349	-0.26260	-0.17991	-0.26260
673.000	-0.10478	-0.24470	-0.19572	-0.28449
674.000	-0.09687	-0.25465	-0.19770	-0.28449
675.000	-0.07315	-0.26061	-0.17002	-0.24868
676.000	-0.10874	-0.23674	-0.20363	-0.24669
677.000	-0.12257	-0.29045	-0.14432	-0.28051
678.000	-0.08501	-0.27454	-0.18979	-0.28846
679.000	-0.08106	-0.29045	-0.16804	-0.26658
680.000	-0.08303	-0.25067	-0.18188	-0.28648
681.000	-0.07513	-0.26658	-0.10874	-0.29443
682.000	-0.07710	-0.28648	-0.21154	-0.25464
683.000	-0.09292	-0.27255	-0.15025	-0.26658
684.000	-0.10676	-0.26459	-0.17002	-0.29045
685.000	-0.11269	-0.27653	-0.19572	-0.22878
686.000	-0.10676	-0.30040	-0.21945	-0.24271
687.000	-0.09687	-0.24470	-0.18979	-0.30040
688.000	-0.10874	-0.25465	-0.21154	-0.35212
689.000	-0.12060	-0.22282	-0.21352	-0.32427
690.000	-0.15223	-0.27653	-0.11071	-0.34815
691.000	-0.07710	-0.23077	-0.15223	-0.32626
692.000	-0.07315	-0.20889	-0.15618	-0.24669
693.000	0.03954	-0.22878	-0.01582	-0.29841
694.000	0.11862	-0.31632	0.10478	-0.30438
695.000	0.37365	-0.32626	0.24119	-0.32626
696.000	0.58913	-0.33023	0.45470	-0.33620
697.000	0.96073	-0.35208	0.77494	-0.25064
698.000	1.20777	-0.37194	1.06351	-0.27449
699.000	1.55947	-0.42160	1.32633	-0.31822
700.000	1.98609	-0.38571	1.64639	-0.35198
701.000	2.34934	-0.34587	2.08284	-0.36382
702.000	2.68281	-0.36168	2.33158	-0.32003
703.000	3.01412	-0.41521	2.67689	-0.42328
704.000	3.37873	-0.33563	2.97666	-0.39337
705.000	3.56192	-0.38123	3.22898	-0.44690
706.000	3.79424	-0.31959	3.42207	-0.50837
707.000	3.93594	-0.35328	3.62296	-0.48841
708.000	4.00677	-0.29768	3.69385	-0.54991
709.000	3.94775	-0.24213	3.75094	-0.61737
710.000	3.91036	-0.29176	3.79818	-0.53992
711.000	3.77456	-0.31166	3.64462	-0.54597
712.000	3.63084	-0.28987	3.49889	-0.60165
713.000	3.51071	-0.25218	3.37873	-0.54414
714.000	3.32553	-0.29195	3.22898	-0.57203
715.000	3.15408	-0.30789	3.00426	-0.53639
716.000	2.98258	-0.35761	2.85441	-0.58017
717.000	2.77946	-0.33780	2.67886	-0.56238
718.000	2.71042	-0.34577	2.59995	-0.61607
719.000	2.54668	-0.39153	2.45986	-0.50683
720.000	2.47564	-0.40347	2.45196	-0.52273
721.000	2.42236	-0.40746	2.36118	-0.49295
722.000	2.36710	-0.46115	2.37894	-0.45915
723.000	2.41447	-0.42337	2.32368	-0.54663
724.000	2.41447	-0.46113	2.37105	-0.47903
725.000	2.37697	-0.48897	2.34934	-0.46314
726.000	2.46380	-0.48894	2.38881	-0.45716
727.000	2.53484	-0.46308	2.47564	-0.45117
728.000	2.60390	-0.49087	2.57825	-0.41338
729.000	2.66505	-0.48687	2.60390	-0.45113
730.000	2.74790	-0.46697	2.71437	-0.54249
731.000	2.75185	-0.41729	2.73409	-0.45903
732.000	2.76565	-0.45901	2.86032	-0.48282
733.000	2.85441	-0.44507	2.79327	-0.46695
734.000	2.87610	-0.43513	2.85638	-0.44507
735.000	2.88990	-0.42519	2.83468	-0.46296
736.000	2.95300	-0.41523	2.89187	-0.45102
737.000	2.99244	-0.39535	2.89779	-0.43313
738.000	3.03778	-0.38739	2.95892	-0.42516
739.000	3.01215	-0.36157	2.87807	-0.41725
740.000	3.06932	-0.38539	2.89779	-0.43115
741.000	3.05947	-0.40327	2.91159	-0.48677
742.000	3.09101	-0.36751	2.96286	-0.45695
743.000	3.07918	-0.38539	2.92145	-0.49670
744.000	3.07524	-0.39334	2.85046	-0.44507
745.000	3.13634	-0.39530	2.96089	-0.47880
746.000	3.11269	-0.39133	2.90371	-0.46889
747.000	3.12058	-0.39928	2.99835	-0.43707
748.000	3.11269	-0.43504	2.91751	-0.50068
749.000	3.09889	-0.38538	2.89385	-0.41525
750.000	3.09889	-0.36353	2.92342	-0.47485
751.000	3.10086	-0.39730	2.95103	-0.47881
752.000	3.06341	-0.39135	2.91948	-0.42915
753.000	3.08509	-0.42114	2.89385	-0.49075
754.000	3.08509	-0.41916	2.92540	-0.45498
755.000	3.06932	-0.40128	2.92540	-0.45498
756.000	3.08312	-0.44498	2.85638	-0.44308
757.000	3.05947	-0.44896	2.91357	-0.36359
758.000	3.07327	-0.38340	2.93920	-0.51855
759.000	3.07327	-0.42512	2.90173	-0.44307
760.000	3.08706	-0.41121	2.94117	-0.42914
761.000	3.08509	-0.40922	2.91948	-0.45299
762.000	3.08115	-0.41518	2.85441	-0.41726
763.000	3.05552	-0.42115	2.92145	-0.40332
764.000	3.08115	-0.36950	2.89385	-0.43910
765.000	3.04172	-0.36355	2.87215	-0.45103
766.000	3.08312	-0.37148	2.91357	-0.41922
767.000	3.04369	-0.39931	2.81891	-0.49078
768.000	3.03975	-0.42513	2.94511	-0.48278
769.000	3.07129	-0.40724	2.89779	-0.43512
770.000	3.02004	-0.38938	2.85441	-0.41924
771.000	3.05158	-0.39136	2.91948	-0.42717
772.000	3.08115	-0.38340	2.88399	-0.50864
773.000	3.03581	-0.41520	2.91751	-0.43114
774.000	3.04764	-0.35163	2.93131	-0.48080
775.000	3.03975	-0.40527	2.90962	-0.47684
776.000	3.04567	-0.34368	2.88793	-0.50268
777.000	3.03384	-0.40726	2.89976	-0.46890
778.000	3.07721	-0.35956	2.84257	-0.51859
779.000	3.08904	-0.36552	2.87018	-0.44109
780.000	3.07918	-0.39532	2.87610	-0.47089
781.000	3.11466	-0.35955	2.87215	-0.40334
782.000	3.09101	-0.36949	2.92540	-0.46690
783.000	3.10283	-0.32777	2.84454	-0.44706
784.000	3.10678	-0.37942	2.86624	-0.51461
785.000	3.08706	-0.36155	2.90765	-0.38743
786.000	3.14029	-0.35756	2.95695	-0.50860
787.000	3.08312	-0.36155	2.88399	-0.50069
788.000	3.08312	-0.37148	2.89187	-0.54837
789.000	3.05749	-0.35758	2.91948	-0.44107
790.000	3.06341	-0.42910	2.86229	-0.52653
791.000	3.04567	-0.36752	2.90962	-0.45498
792.000	3.08904	-0.40326	2.94117	-0.48080
793.000	3.08904	-0.43505	2.99835	-0.51057
794.000	3.04764	-0.38937	2.98061	-0.58806
795.000	3.07129	-0.35162	2.93526	-0.45696
796.000	3.10875	-0.36551	2.88596	-0.52850
797.000	3.11466	-0.38935	2.86821	-0.45103
798.000	3.10283	-0.41120	2.94117	-0.52053
799.000	3.11860	-0.36352	2.93131	-0.49272
800.000	3.08115	-0.38340	2.95103	-0.49669
801.000	3.09692	-0.41915	2.93131	-0.43113
802.000	3.09495	-0.41915	2.98455	-0.48873
803.000	3.05552	-0.41519	2.94314	-0.51258
804.000	3.10481	-0.42113	2.95497	-0.47086
805.000	3.07918	-0.39333	2.93723	-0.39537
806.000	3.09889	-0.42908	2.97469	-0.50661
807.000	3.11466	-0.40723	2.96483	-0.37351
808.000	3.07721	-0.41916	2.91357	-0.39538
809.000	3.11663	-0.41120	2.89582	-0.49472
810.000	3.09495	-0.37346	2.91554	-0.53246
811.000	3.09298	-0.41717	3.00821	-0.50858
812.000	3.10086	-0.37346	2.91159	-0.42121
813.000	3.07721	-0.40923	2.94906	-0.45099
814.000	3.12255	-0.39729	2.94117	-0.42517
815.000	3.10481	-0.40922	2.89976	-0.38545
816.000	3.07918	-0.42909	2.88201	-0.45500
817.000	3.11663	-0.43106	2.90962	-0.46889
818.000	3.07524	-0.42512	2.89582	-0.49274
819.000	3.07918	-0.38737	2.88990	-0.50069
820.000	3.08312	-0.41320	2.97469	-0.45098
821.000	3.08706	-0.41121	2.87807	-0.54838
822.000	3.09889	-0.42114	2.92145	-0.48478
823.000	3.07524	-0.42711	2.97075	-0.56422
824.000	3.07327	-0.39334	2.93526	-0.55629
825.000	3.12452	-0.35558	2.93131	-0.48875
826.000	3.08509	-0.39134	2.97469	-0.47482
827.000	3.11269	-0.33770	2.97272	-0.51654
828.000	3.09298	-0.38538	2.98652	-0.54038
829.000	3.11860	-0.42113	3.03581	-0.54035
830.000	3.09495	-0.37148	2.93723	-0.52252
831.000	3.14226	-0.36947	2.86427	-0.53845
832.000	3.09101	-0.35559	2.95300	-0.46490
833.000	3.10481	-0.37147	2.93328	-0.51656
834.000	3.12452	-0.35955	2.90962	-0.48876
835.000	3.10678	-0.38140	2.93526	-0.45895
836.000	3.14620	-0.36947	2.94709	-0.47285
837.000	3.10875	-0.36750	2.97863	-0.53045
838.000	3.16197	-0.33570	2.96680	-0.48277
839.000	3.11072	-0.43305	3.00426	-0.49468
840.000	3.12255	-0.37345	2.88793	-0.49075
841.000	3.14620	-0.33968	2.96878	-0.47085
842.000	3.15014	-0.38338	2.92934	-0.51060
843.000	3.12255	-0.35160	2.97666	-0.45694
844.000	3.11269	-0.35757	2.94117	-0.46490
845.000	3.12846	-0.32975	2.94709	-0.50265
846.000	3.12255	-0.40921	2.95892	-0.46688
847.000	3.16788	-0.33768	3.01018	-0.53043
848.000	3.15803	-0.34762	2.98258	-0.48674
849.000	3.14817	-0.32974	2.96286	-0.53443
850.000	3.15408	-0.32776	2.92540	-0.56822
851.000	3.15211	-0.35159	2.99244	-0.49270
852.000	3.14817	-0.34564	2.96483	-0.61786
853.000	3.13634	-0.31584	2.96878	-0.52449
854.000	3.14817	-0.33372	2.99835	-0.56619
855.000	3.14817	-0.31187	2.98849	-0.56819
856.000	3.16394	-0.32775	2.93723	-0.59801
857.000	3.14620	-0.33769	2.95103	-0.52649
858.000	3.16394	-0.35755	2.96878	-0.58806
859.000	3.18168	-0.33371	2.92934	-0.57219
860.000	3.15014	-0.33173	2.98652	-0.61785
861.000	3.12255	-0.28804	2.98258	-0.54634
862.000	3.12058	-0.32777	2.96286	-0.61588
863.000	3.19744	-0.29795	2.98652	-0.58607
864.000	3.16985	-0.33172	2.92540	-0.55829
865.000	3.16197	-0.28803	2.88793	-0.56228
866.000	3.12255	-0.36551	2.92342	-0.55233
867.000	3.05947	-0.38341	2.90173	-0.64968
868.000	3.06735	-0.43307	2.88793	-0.70333
869.000	3.05158	-0.48870	2.97075	-0.72116
870.000	2.97075	-0.55826	2.86427	-0.91789
871.000	3.00821	-0.64565	2.89976	-0.98739
872.000	2.91554	-0.66358	2.83271	-1.02519
873.000	2.84849	-0.78481	2.80707	-1.03315
874.000	2.86032	-0.79672	2.71634	-1.16235
875.000	2.79721	-0.82656	2.71831	-1.26763
876.000	2.76960	-0.90207	2.71042	-1.30140
877.000	2.78735	-0.93782	2.66703	-1.28556
878.000	2.77946	-0.92789	2.62954	-1.30546
879.000	2.78932	-0.95768	2.74001	-1.33513
880.000	2.75974	-0.94579	2.68478	-1.24978
881.000	2.78538	-0.93981	2.69070	-1.30937
882.000	2.83468	-0.97354	2.65913	-1.22597
883.000	2.83666	-0.91990	2.71240	-1.23188
884.000	2.90173	-0.90197	2.66900	-1.17034
885.000	2.90962	-0.85032	2.72423	-1.17625
886.000	2.93920	-0.81057	2.80707	-1.15035
887.000	3.00229	-0.77278	2.75382	-1.08882
888.000	2.97272	-0.75492	2.84257	-1.07285
889.000	3.01609	-0.70722	2.79721	-1.05303
890.000	3.01018	-0.73504	2.78143	-1.05701
891.000	2.99638	-0.72313	2.91357	-1.04696
892.000	2.98061	-0.67745	2.80707	-1.01925
893.000	2.97863	-0.72711	2.85835	-1.00133
894.000	2.99441	-0.70922	2.88990	-1.05890
895.000	2.96483	-0.69335	2.87018	-1.01125
896.000	2.97272	-0.73903	2.83468	-1.00333
897.000	2.97666	-0.70725	2.86032	-1.05297
898.000	2.95892	-0.72712	2.74593	-1.09479
899.000	2.94709	-0.70329	2.82285	-1.17019
900.000	2.97469	-0.69732	2.86427	-1.10858
901.000	2.96680	-0.71917	2.85046	-1.06887
902.000	2.93328	-0.69138	2.83468	-1.11258
903.000	2.93526	-0.73111	2.84257	-1.13839
904.000	2.93328	-0.70529	2.88004	-1.09665
905.000	2.93131	-0.70132	2.79918	-1.16029
906.000	2.90962	-0.69140	2.82877	-1.18806
907.000	2.90371	-0.68544	2.81299	-1.11657
908.000	2.91357	-0.65961	2.75579	-1.13848
909.000	2.95300	-0.70528	2.80905	-1.12651
910.000	2.92342	-0.70927	2.74198	-1.11267
911.000	2.94117	-0.71323	2.80905	-1.17021
912.000	2.94906	-0.69932	2.77552	-1.11462
913.000	2.95695	-0.76884	2.72620	-1.16234
914.000	2.94117	-0.72714	2.73015	-1.15638
915.000	2.96089	-0.76288	2.80116	-1.19008
916.000	2.93920	-0.72912	2.82088	-1.09869
917.000	2.95103	-0.72316	2.83074	-1.14238
918.000	2.91357	-0.73113	2.82285	-1.13841
919.000	2.96483	-0.73109	2.81891	-1.22978
920.000	2.99441	-0.73306	2.71634	-1.15044
921.000	2.92737	-0.74701	2.76565	-1.23580
922.000	2.97863	-0.76088	2.73607	-1.14247
923.000	2.97863	-0.71917	2.81102	-1.21589
924.000	2.95695	-0.71123	2.77552	-1.13250
925.000	2.95695	-0.77083	2.75776	-1.20204
926.000	2.95300	-0.78473	2.84257	-1.16024
927.000	2.93131	-0.75495	2.76565	-1.17621
928.000	2.94117	-0.73508	2.81496	-1.13246
929.000	2.96089	-0.74699	2.77552	-1.14243
930.000	2.94906	-0.76885	2.80313	-1.15234
931.000	2.96286	-0.73904	2.82877	-1.10663
932.000	2.96483	-0.74698	2.82088	-1.14239
933.000	2.98652	-0.74498	2.71240	-1.16832
934.000	2.97469	-0.72115	2.74987	-1.09280
935.000	2.97469	-0.71520	2.73607	-1.11069
936.000	2.93723	-0.75495	2.79327	-1.19207
937.000	2.94511	-0.74104	2.76171	-1.21395
938.000	2.97666	-0.70129	2.75974	-1.17622
939.000	2.95103	-0.66753	2.74987	-1.13054
940.000	2.95300	-0.70925	2.80313	-1.12850
941.000	2.95300	-0.64369	2.76763	-1.20799
942.000	2.97272	-0.66752	2.79918	-1.19604
943.000	3.01215	-0.66551	2.73015	-1.16234
944.000	2.99441	-0.68340	2.73015	-1.10076
945.000	2.96878	-0.66951	2.69464	-1.10874
946.000	3.00229	-0.65757	2.78341	-1.16229
947.000	2.99046	-0.61586	2.69464	-1.20210
948.000	3.04172	-0.63570	2.78143	-1.13051
949.000	3.00229	-0.59599	2.73607	-1.09480
950.000	3.02398	-0.62776	2.74987	-1.19807
951.000	3.00821	-0.66551	2.69662	-1.16436
952.000	3.02398	-0.64763	2.75382	-1.19013
953.000	3.01807	-0.63174	2.77749	-1.18414
954.000	3.02201	-0.67146	2.72029	-1.11269
955.000	2.99046	-0.65361	2.76565	-1.17224
956.000	3.02595	-0.69133	2.73212	-1.25172
957.000	3.04961	-0.66350	2.68675	-1.14848
958.000	3.04172	-0.65556	2.73409	-1.11665
959.000	3.03975	-0.67741	2.81496	-1.19404
960.000	3.05749	-0.65754	2.75579	-1.16232
961.000	3.06144	-0.65753	2.74001	-1.18418
962.000	3.06144	-0.65555	2.71437	-1.10872
963.000	3.04961	-0.64165	2.80313	-1.16823
964.000	3.00426	-0.63771	2.74987	-1.17225
965.000	3.08706	-0.62971	2.77552	-1.09675
966.000	3.07524	-0.63170	2.81299	-1.21787
967.000	3.03384	-0.63967	2.74987	-1.17821
968.000	3.05552	-0.66350	2.73409	-1.20008
969.000	3.02595	-0.63173	2.84060	-1.26352
970.000	3.04764	-0.59199	2.77749	-1.21394
971.000	3.03187	-0.66351	2.70056	-1.19812
972.000	3.00821	-0.68140	2.82482	-1.23375
973.000	2.99835	-0.65956	2.69267	-1.18820
974.000	3.04764	-0.66350	2.74987	-1.29738
975.000	3.01215	-0.66948	2.77157	-1.23778
976.000	2.98652	-0.66751	2.72620	-1.19810
977.000	3.01412	-0.64763	2.75776	-1.24176
978.000	2.99638	-0.67347	2.75185	-1.15040
979.000	3.03384	-0.67742	2.73212	-1.25768
980.000	3.04764	-0.66748	2.76171	-1.17621
981.000	3.08115	-0.64560	2.81496	-1.27745
982.000	3.07721	-0.66944	2.76565	-1.21395
983.000	3.06538	-0.64760	2.76960	-1.21990
984.000	3.03581	-0.65954	2.70845	-1.24976
985.000	3.07129	-0.65554	2.78538	-1.31522
986.000	3.07524	-0.71116	2.73212	-1.24775
987.000	3.06341	-0.66945	2.65124	-1.20612
988.000	3.03581	-0.67146	2.75974	-1.18416
989.000	3.03778	-0.67741	2.73015	-1.15042
990.000	3.05552	-0.63370	2.77749	-1.25962
991.000	3.06144	-0.65952	2.82680	-1.28538
992.000	3.05947	-0.69528	2.75974	-1.25169
993.000	3.04764	-0.64165	2.75974	-1.27155
994.000	3.06735	-0.66945	2.74790	-1.21198
995.000	3.06932	-0.68732	2.75185	-1.27355
996.000	3.07721	-0.61979	2.72818	-1.19611
997.000	3.04961	-0.66747	2.66703	-1.19816
998.000	3.05158	-0.69528	2.77354	-1.25168
999.000	3.07129	-0.65952	2.68083	-1.19814
1000.000	3.04764	-0.66152	2.77354	-1.11661
1001.000	3.04961	-0.64165	2.71042	-1.21599
1002.000	3.02595	-0.65756	2.81299	-1.16822
1003.000	3.05158	-0.65357	2.73409	-1.12658
1004.000	3.01807	-0.60790	2.78538	-1.17420
1005.000	3.04172	-0.64166	2.72818	-1.15638
1006.000	3.00229	-0.63969	2.81496	-1.20397
1007.000	3.04961	-0.65357	2.74198	-1.25966
1008.000	3.01412	-0.66551	2.77946	-1.23777
1009.000	3.07327	-0.60191	2.69464	-1.17231
1010.000	3.11663	-0.63367	2.75579	-1.10868
1011.000	3.04961	-0.65754	2.71437	-1.18421
1012.000	3.08312	-0.64163	2.77157	-1.16429
1013.000	3.03581	-0.66152	2.75185	-1.18218
1014.000	3.04764	-0.62775	2.65519	-1.14453
1015.000	3.07918	-0.67540	2.77749	-1.15634
1016.000	3.03384	-0.58803	2.77354	-1.22784
1017.000	3.04961	-0.68336	2.74790	-1.12657
1018.000	3.04369	-0.59994	2.77157	-1.26360
1019.000	3.07327	-0.62177	2.76960	-1.26757
1020.000	3.03384	-0.66947	2.81891	-1.18211
1021.000	2.99441	-0.66949	2.80510	-1.31917
1022.000	3.05749	-0.63767	2.66505	-1.29152
1023.000	3.07129	-0.62376	2.76368	-1.21395
1024.000	3.06144	-0.63966	2.83666	-1.22182
1025.000	3.01412	-0.65756	2.71831	-1.30934
1026.000	2.98061	-0.63176	2.74790	-1.24972
1027.000	2.99046	-0.63771	2.79327	-1.21392
1028.000	3.01215	-0.65558	2.78341	-1.23578
1029.000	3.04764	-0.62973	2.73804	-1.23980
1030.000	3.03778	-0.64960	2.84849	-1.22776
1031.000	3.02004	-0.59598	2.80905	-1.25363
1032.000	3.01807	-0.70921	2.74001	-1.28746
1033.000	3.02201	-0.72311	2.73409	-1.22788
1034.000	3.07721	-0.68136	2.74198	-1.28746
1035.000	3.08904	-0.63765	2.75776	-1.24574
1036.000	3.10283	-0.61381	2.72818	-1.25967
1037.000	3.04369	-0.62974	2.74593	-1.24773
1038.000	3.09298	-0.57806	2.75579	-1.23779
1039.000	3.06144	-0.61582	2.76368	-1.18614
1040.000	3.10875	-0.58401	2.70648	-1.24380
1041.000	3.06735	-0.59198	2.85243	-1.22776
1042.000	3.05158	-0.58404	2.81891	-1.28539
1043.000	3.09495	-0.56416	2.72620	-1.23186
1044.000	3.08115	-0.57211	2.75382	-1.18417
1045.000	3.11466	-0.56017	2.74987	-1.30136
1046.000	3.07721	-0.60191	2.76368	-1.21991
1047.000	3.08509	-0.58403	2.84454	-1.17613
1048.000	3.07721	-0.52841	2.71634	-1.23585
1049.000	3.11860	-0.58599	2.67689	-1.18424
1050.000	3.10086	-0.62374	2.81299	-1.28540
1051.000	3.07327	-0.58006	2.80313	-1.20994
1052.000	3.07918	-0.58999	2.79129	-1.21392
1053.000	3.07721	-0.60191	2.84454	-1.23969
1054.000	3.08509	-0.57012	2.74790	-1.21794
1055.000	3.08509	-0.58800	2.70253	-1.29148
1056.000	3.08115	-0.61581	2.74987	-1.31526
1057.000	3.07327	-0.57211	2.82285	-1.29333
1058.000	3.09101	-0.62574	2.73607	-1.25966
1059.000	3.08312	-0.59595	2.77157	-1.26956
1060.000	3.07524	-0.56417	2.77946	-1.25962
1061.000	3.08706	-0.62971	2.72423	-1.30933
1062.000	3.10875	-0.55223	2.73409	-1.20604
1063.000	3.09298	-0.55224	2.81891	-1.33107
1064.000	3.07918	-0.63170	2.72620	-1.19413
1065.000	3.10086	-0.59594	2.81496	-1.24965
1066.000	3.08312	-0.57410	2.81102	-1.29732
1067.000	3.07129	-0.57212	2.72818	-1.28549
1068.000	3.05749	-0.61980	2.79524	-1.26953
1069.000	3.07721	-0.57609	2.65519	-1.29153
1070.000	3.07524	-0.58800	2.74198	-1.25171
1071.000	3.11072	-0.55422	2.75776	-1.25169
1072.000	3.06735	-0.53239	2.73212	-1.22987
1073.000	3.09298	-0.55025	2.73015	-1.20803
1074.000	3.07918	-0.57608	2.76565	-1.27949
1075.000	3.10481	-0.53833	2.77552	-1.22983
1076.000	3.08312	-0.57807	2.81496	-1.28341
1077.000	3.10086	-0.52840	2.74593	-1.27951
1078.000	3.09692	-0.50655	2.74001	-1.22986
1079.000	3.09889	-0.56614	2.73212	-1.33514
1080.000	3.08509	-0.55820	2.73804	-1.26363
1081.000	3.08115	-0.56218	2.78143	-1.18613
1082.000	3.13240	-0.54427	2.76763	-1.25168
1083.000	3.09495	-0.52642	2.85638	-1.35089
1084.000	3.11269	-0.57408	2.74198	-1.30732
1085.000	3.11269	-0.56613	2.75185	-1.28348
1086.000	3.07918	-0.54629	2.62757	-1.30943
1087.000	3.09495	-0.51649	2.70648	-1.34709
1088.000	3.09495	-0.57608	2.79721	-1.31521
1089.000	3.04961	-0.56418	2.73212	-1.25569
1090.000	3.07918	-0.61184	2.71240	-1.31133
1091.000	3.08312	-0.56615	2.73804	-1.29343
1092.000	3.06932	-0.52444	2.72423	-1.28351
1093.000	3.09692	-0.55621	2.70451	-1.28154
1094.000	3.10678	-0.56415	2.77354	-1.32516
1095.000	3.11072	-0.53634	2.73212	-1.36890
1096.000	3.11466	-0.55223	2.72423	-1.22194
1097.000	3.07129	-0.54629	2.78143	-1.24174
1098.000	3.10283	-0.57011	2.78538	-1.21989
1099.000	3.11269	-0.60586	2.75974	-1.20998
1100.000	3.10875	-0.58203	2.71831	-1.18222
1101.000	3.06144	-0.55226	2.70845	-1.24380
1102.000	3.06538	-0.55027	2.73804	-1.20802
1103.000	3.09495	-0.60190	2.73212	-1.34308
1104.000	3.12452	-0.57209	2.74593	-1.22787
1105.000	3.07918	-0.57410	2.76171	-1.30333
1106.000	3.08706	-0.58403	2.74593	-1.24972
1107.000	3.08509	-0.54629	2.72620	-1.28152
1108.000	3.16788	-0.54426	2.72423	-1.26762
1109.000	3.11860	-0.55421	2.78735	-1.23776
1110.000	3.10678	-0.62175	2.75974	-1.23580
1111.000	3.08509	-0.60588	2.75974	-1.28148
1112.000	3.06932	-0.59397	2.67492	-1.30740
1113.000	3.14029	-0.56413	2.76171	-1.30532
1114.000	3.11072	-0.58600	2.79524	-1.23577
1115.000	3.09692	-0.59395	2.65124	-1.23591
1116.000	3.12452	-0.53236	2.70648	-1.30736
1117.000	3.11269	-0.55819	2.71831	-1.25769
1118.000	3.13240	-0.57010	2.77157	-1.36489
1119.000	3.13043	-0.53832	2.70056	-1.27559
1120.000	3.13043	-0.58996	2.70253	-1.24778
1121.000	3.09692	-0.54231	2.70056	-1.30340
1122.000	3.10283	-0.52045	2.80510	-1.31718
1123.000	3.13634	-0.55023	2.66505	-1.25378
1124.000	3.13634	-0.48667	2.67294	-1.27363
1125.000	3.12846	-0.57010	2.73804	-1.26760
1126.000	3.14029	-0.55222	2.74396	-1.31129
1127.000	3.16788	-0.51248	2.73804	-1.19610
1128.000	3.15408	-0.59392	2.74987	-1.27554
1129.000	3.16394	-0.62172	2.75185	-1.27553
1130.000	3.18562	-0.55418	2.74790	-1.24773
1131.000	3.15014	-0.58399	2.73212	-1.36096
1132.000	3.10875	-0.57805	2.80313	-1.29931
1133.000	3.10086	-0.54429	2.74593	-1.21595
1134.000	3.15211	-0.59392	2.72423	-1.38480
1135.000	3.11860	-0.58401	2.68083	-1.27561
1136.000	3.11860	-0.57209	2.78932	-1.28344
1137.000	3.12452	-0.57606	2.70845	-1.23586
1138.000	3.11860	-0.57408	2.76368	-1.23977
1139.000	3.10875	-0.56216	2.70648	-1.31133
1140.000	3.09298	-0.56416	2.72226	-1.24577
1141.000	3.12649	-0.57010	2.73804	-1.28151
1142.000	3.13832	-0.59790	2.73409	-1.34904
1143.000	3.14620	-0.57605	2.72620	-1.32124
1144.000	3.11663	-0.58004	2.76960	-1.29935
1145.000	3.16197	-0.57207	2.87215	-1.27938
1146.000	3.15803	-0.57803	2.71042	-1.36694
1147.000	3.13043	-0.57804	2.69662	-1.23984
1148.000	3.20139	-0.55020	2.66703	-1.25576
1149.000	3.14423	-0.58598	2.73607	-1.30137
1150.000	3.13832	-0.58002	2.74987	-1.26759
1151.000	3.16000	-0.57405	2.68478	-1.29745
1152.000	3.17379	-0.55617	2.73015	-1.25371
1153.000	3.15408	-0.58597	2.79524	-1.26953
1154.000	3.14029	-0.53037	2.72620	-1.27953
1155.000	3.19153	-0.52438	2.74198	-1.33116
1156.000	3.18168	-0.56212	2.65913	-1.29947
1157.000	3.10086	-0.51847	2.72423	-1.27159
1158.000	3.17182	-0.52241	2.76368	-1.27354
1159.000	3.17182	-0.51843	2.74198	-1.21000
1160.000	3.14029	-0.48667	2.70845	-1.21798
1161.000	3.17576	-0.49658	2.72226	-1.24577
1162.000	3.19153	-0.50055	2.74198	-1.31924
1163.000	3.20927	-0.52040	2.67886	-1.29547
1164.000	3.16985	-0.46481	2.78538	-1.20201
1165.000	3.16000	-0.44296	2.69070	-1.24978
1166.000	3.13634	-0.44694	2.70253	-1.31134
1167.000	3.17971	-0.46877	2.71240	-1.28749
1168.000	3.15211	-0.41714	2.69662	-1.28950
1169.000	3.17182	-0.44097	2.77946	-1.31920
1170.000	3.17971	-0.47672	2.74001	-1.34705
1171.000	3.17971	-0.47275	2.66505	-1.24583
1172.000	3.15014	-0.50851	2.67492	-1.34315
1173.000	3.16000	-0.54426	2.67689	-1.32130
1174.000	3.16985	-0.54823	2.77749	-1.28147
1175.000	3.14029	-0.50057	2.78538	-1.27351
1176.000	3.14817	-0.55618	2.75185	-1.23382
1177.000	3.12452	-0.54825	2.71437	-1.25968
1178.000	3.20730	-0.53033	2.75382	-1.28745
1179.000	3.17379	-0.54227	2.67886	-1.26965
1180.000	3.11663	-0.57011	2.70845	-1.31928
1181.000	3.13437	-0.60386	2.75185	-1.20602
1182.000	3.14423	-0.61180	2.64533	-1.27167
1183.000	3.12649	-0.57804	2.77749	-1.23380
1184.000	3.11072	-0.58401	2.72029	-1.21201
1185.000	3.09692	-0.62573	2.67492	-1.30938
1186.000	3.15014	-0.50851	2.65322	-1.24386
1187.000	3.11072	-0.58600	2.73607	-1.32322
1188.000	3.13832	-0.52242	2.66703	-1.28357
1189.000	3.14817	-0.49660	2.73212	-1.27158
1190.000	3.18365	-0.49261	2.78538	-1.32316
1191.000	3.15211	-0.52242	2.74001	-1.26562
1192.000	3.13043	-0.53037	2.71831	-1.23982
1193.000	3.13832	-0.52044	2.73015	-1.20604
1194.000	3.07918	-0.53238	2.74593	-1.20006
1195.000	3.12452	-0.54825	2.79918	-1.30726
1196.000	3.16788	-0.52042	2.70845	-1.22394
1197.000	3.10481	-0.55025	2.75579	-1.25567
1198.000	3.15605	-0.49659	2.74001	-1.23582
1199.000	3.15014	-0.50851	2.76368	-1.24374
1200.000	3.08706	-0.55622	2.74001	-1.22986
1201.000	3.11663	-0.51250	2.76171	-1.23381
1202.000	3.16985	-0.54426	2.77946	-1.20003
1203.000	3.15211	-0.52440	2.73015	-1.29542
1204.000	3.15803	-0.52639	2.77749	-1.31523
1205.000	3.13832	-0.48866	2.78932	-1.24372
1206.000	3.11663	-0.57209	2.70845	-1.25373
1207.000	3.14620	-0.58201	2.76763	-1.21593
1208.000	3.12058	-0.50455	2.78538	-1.31919
1209.000	3.08115	-0.52046	2.75974	-1.25765
1210.000	3.13832	-0.53235	2.79721	-1.23179
1211.000	3.10086	-0.50655	2.71634	-1.22989
1212.000	3.10678	-0.51648	2.72818	-1.20405
1213.000	3.10283	-0.54628	2.77946	-1.17024
1214.000	3.10875	-0.54031	2.72423	-1.26762
1215.000	3.14029	-0.51249	2.76368	-1.12059
1216.000	3.17182	-0.53234	2.74396	-1.22390
1217.000	3.13043	-0.52640	2.75776	-1.27751
1218.000	3.11466	-0.48271	2.68478	-1.31334
1219.000	3.14817	-0.51050	2.74593	-1.23979
1220.000	3.12452	-0.54031	2.74790	-1.22588
1221.000	3.15803	-0.48865	2.71831	-1.19612
1222.000	3.14620	-0.52838	2.72818	-1.26563
1223.000	3.15605	-0.47276	2.76565	-1.30928
1224.000	3.11860	-0.56216	2.74396	-1.23383
1225.000	3.14029	-0.49263	2.78341	-1.24968
1226.000	3.13437	-0.52838	2.68675	-1.20211
1227.000	3.16197	-0.53631	2.74593	-1.25965
1228.000	3.13832	-0.47674	2.70451	-1.21202
1229.000	3.13832	-0.51249	2.73804	-1.26363
1230.000	3.12058	-0.49462	2.80905	-1.27349
1231.000	3.11860	-0.50257	2.80905	-1.32115
1232.000	3.11663	-0.49462	2.78143	-1.25763
1233.000	3.12452	-0.49859	2.75974	-1.23382
1234.000	3.09889	-0.54826	2.77552	-1.20401
1235.000	3.08509	-0.52841	2.81102	-1.24965
1236.000	3.11860	-0.51051	2.72423	-1.21399
1237.000	3.13832	-0.52640	2.78143	-1.19010
1238.000	3.12255	-0.45490	2.75579	-1.24772
1239.000	3.12255	-0.43305	2.70845	-1.19017
1240.000	3.08509	-0.48272	2.80707	-1.21986
1241.000	3.09692	-0.50457	2.75185	-1.25170
1242.000	3.12255	-0.47079	2.71042	-1.21798
1243.000	3.06538	-0.46882	2.76565	-1.22189
1244.000	3.12058	-0.47873	2.83666	-1.21189
1245.000	3.10678	-0.47477	2.74396	-1.26363
1246.000	3.10086	-0.45689	2.73607	-1.33116
1247.000	3.10481	-0.45689	2.76171	-1.25765
1248.000	3.15605	-0.51844	2.73212	-1.24179
1249.000	3.13437	-0.51448	2.76171	-1.29539
1250.000	3.14817	-0.46482	2.79327	-1.25762
1251.000	3.16197	-0.48269	2.68873	-1.19218
1252.000	3.11663	-0.48867	2.72423	-1.24577
1253.000	3.10481	-0.50853	2.69464	-1.25375
1254.000	3.12452	-0.47277	2.77552	-1.35098
1255.000	3.13043	-0.50256	2.76763	-1.20004
1256.000	3.13832	-0.48071	2.75974	-1.28546
1257.000	3.19547	-0.43500	2.68873	-1.26766
1258.000	3.15605	-0.49659	2.72029	-1.28947
1259.000	3.21321	-0.45883	2.76171	-1.23183
1260.000	3.16591	-0.46282	2.62362	-1.30745
1261.000	3.18562	-0.40521	2.76565	-1.25963
1262.000	3.14423	-0.51845	2.70845	-1.20606
1263.000	3.15803	-0.43700	2.69070	-1.25772
1264.000	3.15014	-0.43701	2.71042	-1.27757
1265.000	3.16788	-0.43501	2.71634	-1.38878
1266.000	3.15408	-0.42111	2.85441	-1.26549
1267.000	3.17774	-0.41515	2.75185	-1.21992
1268.000	3.16985	-0.43303	2.77354	-1.25565
1269.000	3.16197	-0.44495	2.80510	-1.22781
1270.000	3.12649	-0.38140	2.72818	-1.25768
1271.000	3.16000	-0.41118	2.73212	-1.20008
1272.000	3.18562	-0.45288	2.73015	-1.26960
1273.000	3.14029	-0.46085	2.78143	-1.27550
1274.000	3.16000	-0.49262	2.71437	-1.24777
1275.000	3.13634	-0.43503	2.77749	-1.30927
1276.000	3.14226	-0.46283	2.85046	-1.28933
1277.000	3.15408	-0.51447	2.72029	-1.28351
1278.000	3.11072	-0.49463	2.72620	-1.24974
1279.000	3.15211	-0.52440	2.69662	-1.21402
1280.000	3.16000	-0.43502	2.81496	-1.27547
1281.000	3.10678	-0.47278	2.71042	-1.17030
1282.000	3.11860	-0.49860	2.70451	-1.24380
1283.000	3.15408	-0.46084	2.65124	-1.34119
1284.000	3.08706	-0.44101	2.66308	-1.24186
1285.000	3.13240	-0.46085	2.74198	-1.20404
1286.000	3.12058	-0.51449	2.67886	-1.31136
1287.000	3.14817	-0.48269	2.71437	-1.25968
1288.000	3.11663	-0.47873	2.68478	-1.15046
1289.000	3.12058	-0.46880	2.67097	-1.21007
1290.000	3.10875	-0.45490	2.69070	-1.26170
1291.000	3.11663	-0.47873	2.75974	-1.25964
1292.000	3.10283	-0.49662	2.75185	-1.25170
1293.000	3.08706	-0.49464	2.65519	-1.31139
1294.000	3.16000	-0.50652	2.68478	-1.31533
1295.000	3.15408	-0.45885	2.73607	-1.34705
1296.000	3.14226	-0.48865	2.69662	-1.24580
1297.000	3.11860	-0.50456	2.76763	-1.25764
1298.000	3.15803	-0.51645	2.74593	-1.20404
1299.000	3.13634	-0.49462	2.84257	-1.22777
1300.000	3.10086	-0.47675	2.73607	-1.30733
1301.000	3.12058	-0.51250	2.68675	-1.26369
1302.000	3.14226	-0.48269	2.75185	-1.27752
1303.000	3.13240	-0.42311	2.75776	-1.30532
1304.000	3.15605	-0.45091	2.71437	-1.22393
1305.000	3.12452	-0.49661	2.67886	-1.19417
1306.000	3.13437	-0.46482	2.72620	-1.23385
1307.000	3.17576	-0.48665	2.73409	-1.23980
1308.000	3.14817	-0.50851	2.73409	-1.20802
1309.000	3.15408	-0.50057	2.73015	-1.19611
1310.000	3.12255	-0.46284	2.73212	-1.24775
1311.000	3.11860	-0.49065	2.79129	-1.18016
1312.000	3.14817	-0.51050	2.69662	-1.15443
1313.000	3.14226	-0.53831	2.73409	-1.21994
1314.000	3.09298	-0.52443	2.73607	-1.25768
1315.000	3.11466	-0.53435	2.73607	-1.18816
1316.000	3.14029	-0.46283	2.67294	-1.27562
1317.000	3.11072	-0.51846	2.77157	-1.09476
1318.000	3.11466	-0.51846	2.74593	-1.18020
1319.000	3.14620	-0.51249	2.75974	-1.12258
1320.000	3.11466	-0.51052	2.72620	-1.16433
1321.000	3.16788	-0.44296	2.80116	-1.14241
1322.000	3.12649	-0.49661	2.77354	-1.25366
1323.000	3.15014	-0.46879	2.77946	-1.17222
1324.000	3.14029	-0.50653	2.68083	-1.20410
1325.000	3.13634	-0.47078	2.69859	-1.14449
1326.000	3.14226	-0.46283	2.78143	-1.19606
1327.000	3.11269	-0.54826	2.76763	-1.14443
1328.000	3.13832	-0.50653	2.76960	-1.16826
1329.000	3.11663	-0.48668	2.71634	-1.22592
1330.000	3.13832	-0.48071	2.68675	-1.17430
1331.000	3.13043	-0.50058	2.73607	-1.24774
1332.000	3.15605	-0.43899	2.77157	-1.16627
1333.000	3.12058	-0.49264	2.63349	-1.15449
1334.000	3.11663	-0.47079	2.74198	-1.19610
1335.000	3.12649	-0.51647	2.74396	-1.17822
1336.000	3.10481	-0.53634	2.70845	-1.14846
1337.000	3.15211	-0.48666	2.76763	-1.19210
1338.000	3.11072	-0.55620	2.68281	-1.20211
1339.000	3.12255	-0.49859	2.73409	-1.24775
1340.000	3.13832	-0.54427	2.71240	-1.21400
1341.000	3.13832	-0.47277	2.74198	-1.22390
1342.000	3.09298	-0.49066	2.68281	-1.26369
1343.000	3.11663	-0.49065	2.71634	-1.13057
1344.000	3.15605	-0.47276	2.68675	-1.17827
1345.000	3.11072	-0.49065	2.71634	-1.16037
1346.000	3.16000	-0.51447	2.72423	-1.13255
1347.000	3.10875	-0.50655	2.78143	-1.12058
1348.000	3.13832	-0.48667	2.73015	-1.17227
1349.000	3.15803	-0.47872	2.66900	-1.10479
1350.000	3.13043	-0.50455	2.69859	-1.13853
1351.000	3.11269	-0.47675	2.76171	-1.14245
1352.000	3.20139	-0.45883	2.75185	-1.20403
1353.000	3.16000	-0.47077	2.67097	-1.20610
1354.000	3.13634	-0.49263	2.69859	-1.18621
1355.000	3.12255	-0.44298	2.79129	-1.22187
1356.000	3.15408	-0.46283	2.72226	-1.27755
1357.000	3.13634	-0.51051	2.70845	-1.17825
1358.000	3.09692	-0.49662	2.67097	-1.22596
1359.000	3.13240	-0.46880	2.72029	-1.24577
1360.000	3.14817	-0.48666	2.78341	-1.23379
1361.000	3.07129	-0.49862	2.72423	-1.16632
1362.000	3.12846	-0.50455	2.75382	-1.24574
1363.000	3.12058	-0.47873	2.62757	-1.22998
1364.000	3.11663	-0.46483	2.67294	-1.19815
1365.000	3.16788	-0.48666	2.67886	-1.17828
1366.000	3.17379	-0.54823	2.79721	-1.25364
1367.000	3.15803	-0.48865	2.64927	-1.19619
1368.000	3.19153	-0.49260	2.72226	-1.25173
1369.000	3.14226	-0.48865	2.74593	-1.23780
1370.000	3.12846	-0.46880	2.74198	-1.24575
1371.000	3.16000	-0.48865	2.77946	-1.22188
1372.000	3.18365	-0.47473	2.66308	-1.20213
1373.000	3.19350	-0.55020	2.73607	-1.25172
1374.000	3.17379	-0.48665	2.76171	-1.15238
1375.000	3.16197	-0.49262	2.75185	-1.16828
1376.000	3.14029	-0.50256	2.76763	-1.21792
1377.000	3.13437	-0.50058	2.74396	-1.24376
1378.000	3.16000	-0.49659	2.69464	-1.21402
1379.000	3.15803	-0.47077	2.81496	-1.20794
1380.000	3.16394	-0.49460	2.71437	-1.27160
1381.000	3.16788	-0.47871	2.64138	-1.19818
1382.000	3.15014	-0.46283	2.73212	-1.23782
1383.000	3.14226	-0.50653	2.74593	-1.14842
1384.000	3.12255	-0.47873	2.68281	-1.20410
1385.000	3.15014	-0.50057	2.64138	-1.18428
1386.000	3.11466	-0.53833	2.73015	-1.20008
1387.000	3.13437	-0.49263	2.71240	-1.21003
1388.000	3.15605	-0.49461	2.75185	-1.20602
1389.000	3.16591	-0.49063	2.75776	-1.13848
1390.000	3.13240	-0.52044	2.74001	-1.15240
1391.000	3.18956	-0.46877	2.76763	-1.17025
1392.000	3.16591	-0.46679	2.78341	-1.20201
1393.000	3.19547	-0.52835	2.70845	-1.21798
1394.000	3.18562	-0.46281	2.73212	-1.17028
1395.000	3.14226	-0.49064	2.76960	-1.11066
1396.000	3.12452	-0.47873	2.77552	-1.17620
1397.000	3.16985	-0.51446	2.77749	-1.22585
1398.000	3.12846	-0.46681	2.78735	-1.25762
1399.000	3.17379	-0.49460	2.79918	-1.22782
1400.000	3.17774	-0.47275	2.74001	-1.31328
1401.000	3.05158	-0.50061	2.79129	-1.24371
1402.000	3.12058	-0.47277	2.74001	-1.23582
1403.000	3.14620	-0.51646	2.76565	-1.21792
1404.000	3.12452	-0.51647	2.80707	-1.18014
1405.000	3.09101	-0.51251	2.78341	-1.20599
1406.000	3.11269	-0.48668	2.72620	-1.22789
1407.000	3.12846	-0.50654	2.72226	-1.25968
1408.000	3.12452	-0.51250	2.76368	-1.18018
1409.000	3.13437	-0.44297	2.78538	-1.22982
1410.000	3.11466	-0.46880	2.75185	-1.24574
1411.000	3.12649	-0.50455	2.70056	-1.31134
1412.000	3.11466	-0.49860	2.82680	-1.22580
1413.000	3.11269	-0.48469	2.78143	-1.18414
1414.000	3.17182	-0.46878	2.81693	-1.20396
1415.000	3.13832	-0.48866	2.75776	-1.15635
1416.000	3.12058	-0.51846	2.74987	-1.25965
1417.000	3.15803	-0.47872	2.81891	-1.25362
1418.000	3.17971	-0.53035	2.70451	-1.23189
1419.000	3.16985	-0.48070	2.74593	-1.21993
1420.000	3.12058	-0.50058	2.76368	-1.26559
1421.000	3.17182	-0.45090	2.74593	-1.24575
1422.000	3.14620	-0.49262	2.78341	-1.14243
1423.000	3.17576	-0.47672	2.84454	-1.28338
1424.000	3.16197	-0.51844	2.71042	-1.21003
1425.000	3.13634	-0.53236	2.73212	-1.22789
1426.000	3.15211	-0.51248	2.77157	-1.22983
1427.000	3.12846	-0.49462	2.65716	-1.27762
1428.000	3.15014	-0.51249	2.75185	-1.28745
1429.000	3.15211	-0.44694	2.82088	-1.26950
1430.000	3.15803	-0.50255	2.75185	-1.20204
1431.000	3.10086	-0.48073	2.71831	-1.24180
1432.000	3.14029	-0.52639	2.72226	-1.25372
1433.000	3.11466	-0.48867	2.75382	-1.23581
1434.000	3.11072	-0.48668	2.75776	-1.21396
1435.000	3.12255	-0.47873	2.78932	-1.27748
1436.000	3.12058	-0.48270	2.74001	-1.19610
1437.000	3.13832	-0.42907	2.77552	-1.19408
1438.000	3.13832	-0.46482	2.84454	-1.23571
1439.000	3.10481	-0.45888	2.70253	-1.21798
1440.000	3.16000	-0.48070	2.76171	-1.20799
1441.000	3.16985	-0.49063	2.74396	-1.13650
1442.000	3.13634	-0.49263	2.82482	-1.18409
1443.000	3.18365	-0.46083	2.75776	-1.21594
1444.000	3.10086	-0.47080	2.79524	-1.28542
1445.000	3.16394	-0.48864	2.84652	-1.19798
1446.000	3.12058	-0.48866	2.84060	-1.19004
1447.000	3.17182	-0.49063	2.82877	-1.12848
1448.000	3.16591	-0.49460	2.74001	-1.22192
1449.000	3.09298	-0.47080	2.77157	-1.15634
1450.000	2.99638	-0.48077	2.67294	-1.22795
1451.000	2.82877	-0.49475	2.52497	-1.21220
1452.000	2.68478	-0.51468	2.41249	-1.23018
1453.000	2.39671	-0.44524	2.28223	-1.26805
1454.000	2.15787	-0.48705	1.97227	-1.38952
1455.000	1.83206	-0.58458	1.64441	-1.39573
1456.000	1.46069	-0.55088	1.31645	-1.41780
1457.000	1.09315	-0.56687	0.87377	-1.53729
1458.000	0.68796	-0.70219	0.58715	-1.59901
1459.000	0.32422	-0.72609	0.14234	-1.70046
1460.000	-0.08501	-0.81561	-0.28469	-1.84752
1461.000	-0.57529	-0.94286	-0.67017	-1.90703
1462.000	-0.96469	-1.03823	-0.96271	-2.01617
1463.000	-1.38166	-1.11561	-1.36190	-1.93841
1464.000	-1.71355	-1.23668	-1.67404	-2.16057
1465.000	-2.03348	-1.32986	-1.88735	-2.11068
1466.000	-2.32763	-1.46071	-2.25460	-2.14195
1467.000	-2.41052	-1.44473	-2.46775	-2.24880
1468.000	-2.62560	-1.52791	-2.72226	-2.27414
1469.000	-2.75185	-1.51981	-2.84849	-2.22231
1470.000	-2.92934	-1.58311	-2.97272	-2.29943
1471.000	-3.01807	-1.63658	-3.16591	-2.37239
1472.000	-3.22504	-1.68389	-3.37479	-2.36595
1473.000	-3.35509	-1.67970	-3.46541	-2.31617
1474.000	-3.46541	-1.76283	-3.67022	-2.37313
1475.000	-3.59146	-1.79235	-3.75291	-2.44821
1476.000	-3.63478	-1.80020	-3.92020	-2.41999
1477.000	-3.64265	-1.81803	-4.05595	-2.42752
1478.000	-3.65250	-1.82198	-4.09529	-2.41750
1479.000	-3.63478	-1.82003	-4.04021	-2.43747
1480.000	-3.52844	-1.80636	-3.96939	-2.45155
1481.000	-3.49101	-1.81833	-4.06579	-2.42749
1482.000	-3.47920	-1.76082	-3.99497	-2.47921
1483.000	-3.39449	-1.75503	-3.95365	-2.44169
1484.000	-3.32947	-1.70951	-3.88675	-2.39433
1485.000	-3.26642	-1.65008	-3.78834	-2.28759
1486.000	-3.16985	-1.67802	-3.68794	-2.31560
1487.000	-3.17774	-1.59266	-3.57767	-2.30796
1488.000	-3.17774	-1.60656	-3.58949	-2.25440
1489.000	-3.14029	-1.58677	-3.59343	-2.32774
1490.000	-3.10875	-1.52329	-3.51071	-2.34579
1491.000	-3.18365	-1.55494	-3.63478	-2.34746
1492.000	-3.17379	-1.54106	-3.64069	-2.29987
1493.000	-3.25065	-1.58263	-3.64462	-2.30977
1494.000	-3.28810	-1.60440	-3.55010	-2.36353
1495.000	-3.34327	-1.59042	-3.65644	-2.41280
1496.000	-3.44177	-1.68550	-3.70369	-2.39088
1497.000	-3.48708	-1.64574	-3.75094	-2.39471
1498.000	-3.46541	-1.65173	-3.85132	-2.57670
1499.000	-3.53828	-1.68731	-3.85723	-2.50339
1500.000	-3.53041	-1.67344	-3.88281	-2.55284
1501.000	-3.58358	-1.68128	-3.96939	-2.54267
1502.000	-3.66038	-1.72477	-4.03431	-2.53851
1503.000	-3.66038	-1.70097	-4.06579	-2.50474
1504.000	-3.75881	-1.71070	-4.07366	-2.41954
1505.000	-3.65447	-1.70098	-4.13070	-2.52830
1506.000	-3.71747	-1.72863	-4.15626	-2.50643
1507.000	-3.75094	-1.78211	-4.17199	-2.46480
1508.000	-3.74897	-1.72460	-4.22705	-2.49235
1509.000	-3.76275	-1.73449	-4.15430	-2.38761
1510.000	-3.76669	-1.75630	-4.15823	-2.47672
1511.000	-3.69778	-1.72867	-4.08939	-2.47892
1512.000	-3.74306	-1.73056	-4.18576	-2.47862
1513.000	-3.66825	-1.70294	-4.15823	-2.47474
1514.000	-3.69581	-1.74454	-4.07562	-2.54234
1515.000	-3.68794	-1.74654	-4.06775	-2.50671
1516.000	-3.69188	-1.69298	-4.05399	-2.43149
1517.000	-3.66234	-1.74659	-4.07759	-2.47103
1518.000	-3.67022	-1.73269	-4.01858	-2.53063
1519.000	-3.63675	-1.70697	-4.00087	-2.43164
1520.000	-3.66825	-1.72674	-3.96939	-2.42976
1521.000	-3.67022	-1.75649	-4.01267	-2.37020
1522.000	-3.57964	-1.69120	-4.01071	-2.42171
1523.000	-3.66431	-1.74460	-4.01464	-2.45141
1524.000	-3.58161	-1.69120	-4.00874	-2.37219
1525.000	-3.59933	-1.73084	-3.94775	-2.40010
1526.000	-3.55404	-1.68927	-3.96545	-2.43175
1527.000	-3.58161	-1.72096	-4.00284	-2.47720
1528.000	-3.62099	-1.68914	-3.97136	-2.38617
1529.000	-3.56979	-1.71701	-3.98710	-2.41584
1530.000	-3.54222	-1.68532	-3.99103	-2.42969
1531.000	-3.56389	-1.67139	-3.94184	-2.44172
1532.000	-3.55798	-1.72893	-4.02054	-2.44347
1533.000	-3.59146	-1.73284	-3.93201	-2.43185
1534.000	-3.60130	-1.71695	-3.93988	-2.40607
1535.000	-3.56979	-1.74280	-3.93594	-2.41202
1536.000	-3.54025	-1.72302	-3.92807	-2.47148
1537.000	-3.53435	-1.69922	-4.07562	-2.43538
1538.000	-3.61115	-1.69511	-3.97136	-2.37626
1539.000	-3.62296	-1.77443	-3.92413	-2.44178
1540.000	-3.61706	-1.72684	-4.00480	-2.40786
1541.000	-3.62887	-1.72483	-3.94381	-2.44568
1542.000	-3.62099	-1.76254	-3.90839	-2.38833
1543.000	-3.57767	-1.67930	-3.95562	-2.42187
1544.000	-3.60130	-1.73679	-3.96152	-2.37034
1545.000	-3.65644	-1.74858	-3.93004	-2.50515
1546.000	-3.63872	-1.73275	-3.98316	-2.43764
1547.000	-3.62493	-1.74666	-4.07562	-2.48094
1548.000	-3.60524	-1.73480	-4.05399	-2.45328
1549.000	-3.65053	-1.73074	-4.03038	-2.50881
1550.000	-3.60721	-1.71099	-4.04021	-2.41370
1551.000	-3.65841	-1.76445	-4.03628	-2.43748
1552.000	-3.62493	-1.71095	-3.92020	-2.42990
1553.000	-3.65447	-1.74462	-4.04808	-2.42952
1554.000	-3.60721	-1.71892	-4.11299	-2.45904
1555.000	-3.58161	-1.74873	-4.00480	-2.40588
1556.000	-3.59736	-1.72489	-4.02448	-2.47515
1557.000	-3.61706	-1.71097	-4.01464	-2.45141
1558.000	-3.61706	-1.72684	-4.05595	-2.41761
1559.000	-3.60524	-1.76852	-4.05792	-2.43346
1560.000	-3.61312	-1.75462	-4.07169	-2.41955
1561.000	-3.63872	-1.76250	-3.99890	-2.45740
1562.000	-3.65053	-1.76843	-4.02841	-2.45137
1563.000	-3.63478	-1.72085	-3.99300	-2.49110
1564.000	-3.65053	-1.75058	-4.09333	-2.41552
1565.000	-3.60130	-1.72489	-4.09529	-2.46305
1566.000	-3.65841	-1.75850	-4.11103	-2.44716
1567.000	-3.59146	-1.72887	-4.10709	-2.49867
1568.000	-3.58949	-1.69912	-4.10316	-2.47095
1569.000	-3.66038	-1.74659	-4.08152	-2.46904
1570.000	-3.64659	-1.74067	-4.08349	-2.45715
1571.000	-3.66234	-1.77634	-4.08742	-2.38781
1572.000	-3.66234	-1.74262	-4.04021	-2.35229
1573.000	-3.63478	-1.74267	-4.08742	-2.46704
1574.000	-3.60918	-1.75661	-4.07562	-2.43142
1575.000	-3.65250	-1.71487	-4.12283	-2.44712
1576.000	-3.63084	-1.73276	-3.97136	-2.49314
1577.000	-3.59343	-1.75862	-4.06579	-2.45126
1578.000	-3.64856	-1.74463	-4.01071	-2.40388
1579.000	-3.62099	-1.77047	-4.02054	-2.38998
1580.000	-3.63084	-1.75855	-4.00677	-2.44153
1581.000	-3.66038	-1.77238	-4.05595	-2.35224
1582.000	-3.65644	-1.77437	-4.09136	-2.37987
1583.000	-3.60918	-1.67329	-4.00874	-2.46134
1584.000	-3.62099	-1.74667	-4.04218	-2.42954
1585.000	-3.63675	-1.72680	-4.07562	-2.39576
1586.000	-3.59540	-1.71696	-4.07759	-2.42349
1587.000	-3.68597	-1.76439	-4.02841	-2.42562
1588.000	-3.65447	-1.77636	-4.07366	-2.36011
1589.000	-3.63872	-1.75655	-4.07956	-2.41754
1590.000	-3.60918	-1.73281	-4.04021	-2.41370
1591.000	-3.67219	-1.73070	-3.99300	-2.45148
1592.000	-3.60327	-1.75067	-4.03038	-2.38005
1593.000	-3.64856	-1.74066	-3.97333	-2.39408
1594.000	-3.69581	-1.70884	-4.08349	-2.43536
1595.000	-3.65053	-1.73273	-4.13463	-2.40351
1596.000	-3.63281	-1.73276	-4.10119	-2.35607
1597.000	-3.61903	-1.71097	-4.01858	-2.41376
1598.000	-3.63478	-1.75458	-4.11299	-2.44715
1599.000	-3.59540	-1.75465	-4.11299	-2.37386
1600.000	-3.64265	-1.75654	-4.04808	-2.40377
1601.000	-3.62099	-1.75659	-4.06775	-2.35022
1602.000	-3.64265	-1.78035	-4.07169	-2.41559
1603.000	-3.62887	-1.72880	-4.01071	-2.40388
1604.000	-3.61509	-1.74470	-4.00284	-2.35834
1605.000	-3.63478	-1.75656	-4.10513	-2.39964
1606.000	-3.69385	-1.79809	-4.12283	-2.42137
1607.000	-3.61509	-1.81412	-4.13070	-2.42333
1608.000	-3.68006	-1.78424	-4.10709	-2.43727
1609.000	-3.62887	-1.80616	-4.10119	-2.35409
1610.000	-3.64265	-1.76448	-4.11103	-2.43726
1611.000	-3.63872	-1.71886	-4.06579	-2.42947
1612.000	-3.68203	-1.72275	-4.19756	-2.39936
1613.000	-3.67022	-1.81996	-4.06972	-2.46313
1614.000	-3.65644	-1.73470	-4.09923	-2.45908
1615.000	-3.62493	-1.80022	-4.16806	-2.44500
1616.000	-3.65250	-1.76644	-4.05595	-2.52061
1617.000	-3.68203	-1.78027	-4.14053	-2.43122
1618.000	-3.65447	-1.77041	-4.11889	-2.44515
1619.000	-3.60524	-1.75463	-4.06972	-2.43144
1620.000	-3.65053	-1.81207	-4.07956	-2.38981
1621.000	-3.66825	-1.75848	-4.15823	-2.42721
1622.000	-3.65841	-1.78428	-4.09333	-2.50861
1623.000	-3.66825	-1.74261	-4.08349	-2.41753
1624.000	-3.67416	-1.77632	-4.06972	-2.40965
1625.000	-3.67219	-1.78029	-4.20739	-2.41121
1626.000	-3.64856	-1.74463	-4.12086	-2.38969
1627.000	-3.65644	-1.76842	-4.13070	-2.48869
1628.000	-3.65053	-1.75058	-4.09529	-2.43730
1629.000	-3.62887	-1.76054	-4.14053	-2.46489
1630.000	-3.65841	-1.77833	-4.12873	-2.45899
1631.000	-3.66825	-1.75649	-4.12283	-2.49664
1632.000	-3.67810	-1.76639	-4.12873	-2.42532
1633.000	-3.67219	-1.71880	-4.02251	-2.49695
1634.000	-3.63281	-1.73673	-4.02448	-2.45138
1635.000	-3.69975	-1.73461	-4.05005	-2.48894
1636.000	-3.69581	-1.75644	-4.02054	-2.40781
1637.000	-3.63478	-1.75259	-4.06579	-2.48691
1638.000	-3.68400	-1.74060	-4.09529	-2.38184
1639.000	-3.65053	-1.73669	-4.09923	-2.46502
1640.000	-3.64069	-1.73671	-4.09726	-2.45909
1641.000	-3.65447	-1.74264	-4.05792	-2.42355
1642.000	-3.66431	-1.74857	-4.11103	-2.49073
1643.000	-3.69581	-1.75049	-4.09923	-2.46106
1644.000	-3.62099	-1.75262	-4.17199	-2.42915
1645.000	-3.67810	-1.74259	-4.07759	-2.45122
1646.000	-3.62690	-1.73079	-4.10513	-2.49273
1647.000	-3.66038	-1.75651	-4.14250	-2.44904
1648.000	-3.59343	-1.72292	-4.09923	-2.42937
1649.000	-3.66038	-1.75056	-4.09333	-2.46900
1650.000	-3.61903	-1.73874	-4.14250	-2.38962
1651.000	-3.64856	-1.70694	-4.02644	-2.45534
1652.000	-3.62690	-1.74467	-4.02251	-2.42366
1653.000	-3.66628	-1.75253	-4.09333	-2.44127
1654.000	-3.66628	-1.73071	-4.05989	-2.39581
1655.000	-3.62296	-1.74666	-4.09726	-2.39768
1656.000	-3.63084	-1.70103	-4.11299	-2.40556
1657.000	-3.65841	-1.75255	-4.04218	-2.42558
1658.000	-3.66234	-1.76246	-3.98906	-2.44951
1659.000	-3.66825	-1.69302	-4.10119	-2.42540
1660.000	-3.62690	-1.73277	-4.05399	-2.41366
1661.000	-3.61115	-1.76057	-4.02251	-2.48903
1662.000	-3.67022	-1.76244	-4.06579	-2.47305
1663.000	-3.63281	-1.72879	-4.06382	-2.44928
1664.000	-3.60721	-1.73876	-4.06185	-2.45919
1665.000	-3.67613	-1.74458	-4.05595	-2.50279
1666.000	-3.62690	-1.72087	-4.05989	-2.49683
1667.000	-3.66431	-1.74063	-4.07759	-2.47697
1668.000	-3.62296	-1.77245	-4.06972	-2.45521
1669.000	-3.65447	-1.74859	-4.06382	-2.38986
1670.000	-3.68400	-1.73068	-4.11299	-2.43527
1671.000	-3.67810	-1.78028	-4.06972	-2.37597
1672.000	-3.68006	-1.80804	-4.01464	-2.46132
1673.000	-3.67810	-1.75846	-4.14840	-2.46289
1674.000	-3.65053	-1.76248	-4.05005	-2.40376
1675.000	-3.61312	-1.80619	-4.03431	-2.43154
1676.000	-3.63872	-1.77044	-4.09136	-2.44326
1677.000	-3.66038	-1.77436	-4.06185	-2.34232
1678.000	-3.67810	-1.75052	-4.04415	-2.42755
1679.000	-3.65250	-1.73471	-4.08349	-2.40367
1680.000	-3.66234	-1.76246	-4.01267	-2.41378
1681.000	-3.62099	-1.77245	-4.08742	-2.40365
1682.000	-3.64462	-1.74662	-4.03825	-2.42163
1683.000	-3.62690	-1.78434	-4.06382	-2.37599
1684.000	-3.60918	-1.82405	-4.01464	-2.43755
1685.000	-3.62493	-1.78435	-4.05202	-2.45130
1686.000	-3.65250	-1.74264	-4.06579	-2.41164
1687.000	-3.62887	-1.76252	-4.03431	-2.42362
1688.000	-3.59343	-1.73482	-4.00480	-2.41578
1689.000	-3.63675	-1.77044	-4.10709	-2.42340
1690.000	-3.66628	-1.80212	-3.98316	-2.40990
1691.000	-3.60918	-1.72289	-4.02644	-2.42166
1692.000	-3.63872	-1.75854	-4.14053	-2.43122
1693.000	-3.62493	-1.70699	-3.98316	-2.41189
1694.000	-3.66628	-1.81005	-4.06185	-2.46316
1695.000	-3.63675	-1.79821	-4.08349	-2.42744
1696.000	-3.61509	-1.81015	-4.12480	-2.39760
1697.000	-3.69385	-1.74058	-4.03431	-2.44145
1698.000	-3.63675	-1.75656	-4.07562	-2.45915
1699.000	-3.69385	-1.79611	-3.99497	-2.45940
1700.000	-3.61312	-1.76652	-4.03235	-2.40382
1701.000	-3.63478	-1.74863	-4.01661	-2.46527
1702.000	-3.64069	-1.81010	-4.01464	-2.44151
1703.000	-3.68400	-1.84968	-3.98119	-2.42774
1704.000	-3.62493	-1.75856	-4.11496	-2.40159
1705.000	-3.63281	-1.75061	-4.07366	-2.44727
1706.000	-3.67416	-1.72871	-4.07759	-2.34623
1707.000	-3.61706	-1.77841	-4.06185	-2.37203
1708.000	-3.62887	-1.73277	-4.03825	-2.37408
1709.000	-3.64659	-1.76645	-4.06382	-2.43146
1710.000	-3.61509	-1.76255	-4.07956	-2.42349
1711.000	-3.63675	-1.76251	-4.05792	-2.41365
1712.000	-3.67219	-1.79417	-4.05792	-2.48298
1713.000	-3.68794	-1.77629	-4.11496	-2.48280
1714.000	-3.67219	-1.80409	-4.12480	-2.44910
1715.000	-3.71156	-1.76831	-4.13856	-2.43519
1716.000	-3.67219	-1.76244	-4.06775	-2.42352
1717.000	-3.66431	-1.79022	-4.02841	-2.41373
1718.000	-3.65447	-1.72875	-4.00284	-2.41183
1719.000	-3.67219	-1.74657	-4.12480	-2.44910
1720.000	-3.74306	-1.78411	-4.08742	-2.46308
1721.000	-3.66038	-1.76841	-4.00874	-2.39398
1722.000	-3.67613	-1.71879	-4.02644	-2.42959
1723.000	-3.63281	-1.75458	-4.02841	-2.34836
1724.000	-3.69188	-1.74851	-4.08546	-2.36998
1725.000	-3.67022	-1.73665	-4.04612	-2.41368
1726.000	-3.67613	-1.77830	-4.08349	-2.34820
1727.000	-3.73125	-1.75835	-4.11693	-2.37583
1728.000	-3.70566	-1.76435	-4.09529	-2.45315
1729.000	-3.69385	-1.78024	-4.05005	-2.41169
1730.000	-3.63675	-1.74465	-3.99890	-2.40392
1731.000	-3.63675	-1.75656	-4.04415	-2.45727
1732.000	-3.66628	-1.75650	-4.09923	-2.34023
1733.000	-3.69188	-1.80008	-4.08742	-2.37790
1734.000	-3.68203	-1.77828	-4.09333	-2.34223
1735.000	-3.69778	-1.79610	-4.12873	-2.39164
1736.000	-3.68597	-1.73662	-4.13463	-2.43916
1737.000	-3.68400	-1.77828	-4.03825	-2.38597
1738.000	-3.67416	-1.75450	-4.05595	-2.38592
1739.000	-3.71353	-1.74054	-4.05399	-2.38196
1740.000	-3.65053	-1.75851	-4.14053	-2.39359
1741.000	-3.66038	-1.75056	-4.15233	-2.35592
1742.000	-3.70566	-1.75840	-4.08939	-2.39770
1743.000	-3.68597	-1.76638	-4.08546	-2.36404
1744.000	-3.62099	-1.71890	-4.07759	-2.41161
1745.000	-3.67613	-1.74458	-4.09726	-2.49078
1746.000	-3.63084	-1.72285	-4.11496	-2.43922
1747.000	-3.67219	-1.72078	-4.08546	-2.33234
1748.000	-3.66038	-1.75453	-4.05005	-2.40178
1749.000	-3.65841	-1.78032	-3.99497	-2.38412
1750.000	-3.65053	-1.73074	-4.08546	-2.47299
1751.000	-3.64856	-1.73868	-4.04021	-2.38795
1752.000	-3.67219	-1.74459	-4.08546	-2.46110
1753.000	-3.67416	-1.79417	-4.08546	-2.48289
1754.000	-3.62296	-1.72881	-4.07759	-2.39576
1755.000	-3.68203	-1.81795	-4.13463	-2.42134
1756.000	-3.68597	-1.75051	-4.11103	-2.37981
1757.000	-3.69778	-1.76635	-4.14643	-2.35594
1758.000	-3.67613	-1.77235	-4.09333	-2.35015
1759.000	-3.71353	-1.80004	-4.16020	-2.40145
1760.000	-3.67219	-1.74260	-4.17396	-2.40339
1761.000	-3.70763	-1.74055	-4.03825	-2.38201
1762.000	-3.68006	-1.75250	-4.07169	-2.46709
1763.000	-3.68991	-1.76637	-4.05792	-2.41959
1764.000	-3.73322	-1.77025	-4.06972	-2.38390
1765.000	-3.65053	-1.74859	-4.12086	-2.40950
1766.000	-3.69778	-1.73660	-4.18576	-2.48456
1767.000	-3.73716	-1.74644	-4.14643	-2.40546
1768.000	-3.67416	-1.73863	-4.11693	-2.45308
1769.000	-3.71747	-1.77028	-4.04218	-2.37011
1770.000	-3.70763	-1.79410	-4.08742	-2.46110
1771.000	-3.73125	-1.78215	-4.10709	-2.36398
1772.000	-3.74897	-1.73253	-4.11889	-2.40356
1773.000	-3.74306	-1.83369	-4.07562	-2.39576
1774.000	-3.71156	-1.77624	-4.12873	-2.42730
1775.000	-3.67219	-1.79616	-4.15823	-2.45296
1776.000	-3.72928	-1.75042	-4.10316	-2.43530
1777.000	-3.71944	-1.84564	-4.09726	-2.48681
1778.000	-3.72731	-1.78018	-4.08742	-2.39771
1779.000	-3.71747	-1.75838	-4.08742	-2.39771
1780.000	-3.68006	-1.76242	-4.12086	-2.43326
1781.000	-3.68006	-1.78424	-4.08546	-2.38979
1782.000	-3.76669	-1.82373	-4.09726	-2.41353
1783.000	-3.69385	-1.70686	-4.02251	-2.47714
1784.000	-3.70369	-1.79212	-4.14250	-2.43122
1785.000	-3.67219	-1.71682	-4.08742	-2.38979
1786.000	-3.65644	-1.69899	-4.11693	-2.37979
1787.000	-3.69581	-1.81991	-4.13070	-2.41739
1788.000	-3.70960	-1.78616	-4.00874	-2.41181
1789.000	-3.73913	-1.78610	-3.99693	-2.44552
1790.000	-3.71747	-1.76036	-4.08546	-2.43139
1791.000	-3.73716	-1.77817	-4.04415	-2.47509
1792.000	-3.70172	-1.77230	-4.09923	-2.39768
1793.000	-3.71156	-1.74252	-4.11889	-2.40356
1794.000	-3.71550	-1.76632	-4.10709	-2.40161
1795.000	-3.75094	-1.78608	-4.13266	-2.39361
1796.000	-3.71747	-1.76830	-4.10513	-2.39370
1797.000	-3.71156	-1.76633	-3.98710	-2.40197
1798.000	-3.67022	-1.77632	-4.13266	-2.30843
1799.000	-3.70369	-1.78419	-4.10709	-2.37982
1800.000	-3.70763	-1.75642	-4.17789	-2.35386
1801.000	-3.76669	-1.76820	-4.04021	-2.38002
1802.000	-3.71353	-1.79210	-4.05399	-2.38592
1803.000	-3.74700	-1.74245	-4.01858	-2.36424
1804.000	-3.74503	-1.71667	-4.14250	-2.33416
1805.000	-3.76865	-1.82571	-4.05989	-2.32053
1806.000	-3.68203	-1.74655	-4.06185	-2.31458
1807.000	-3.69975	-1.82387	-4.14250	-2.35991
1808.000	-3.77850	-1.83362	-4.13463	-2.27277
1809.000	-3.78834	-1.79988	-4.09726	-2.27882
1810.000	-3.76865	-1.79794	-4.10119	-2.37588
1811.000	-3.75094	-1.80988	-4.13463	-2.39559
1812.000	-3.74109	-1.81783	-4.12283	-2.36987
1813.000	-3.77259	-1.75827	-4.12873	-2.35797
1814.000	-3.79818	-1.80780	-4.06579	-2.38391
1815.000	-3.77456	-1.83759	-4.10316	-2.31248
1816.000	-3.78834	-1.80782	-4.12873	-2.33420
1817.000	-3.78046	-1.75825	-4.14840	-2.27867
1818.000	-3.78046	-1.79990	-4.06972	-2.32843
1819.000	-3.76472	-1.85149	-4.10513	-2.38775
1820.000	-3.77062	-1.83165	-4.02251	-2.40385
1821.000	-3.70566	-1.76634	-4.07169	-2.36408
1822.000	-3.76669	-1.77018	-4.03235	-2.33844
1823.000	-3.72141	-1.79209	-4.12283	-2.29459
1824.000	-3.74503	-1.77617	-4.00874	-2.34841
1825.000	-3.69188	-1.77430	-4.07562	-2.35218
1826.000	-3.75881	-1.76821	-4.13660	-2.32625
1827.000	-3.68597	-1.75249	-4.10316	-2.27682
1828.000	-3.67416	-1.75450	-4.08349	-2.31650
1829.000	-3.68400	-1.74853	-4.11103	-2.36595
1830.000	-3.64856	-1.73471	-4.07169	-2.28285
1831.000	-3.69385	-1.76636	-4.03431	-2.32060
1832.000	-3.64265	-1.74266	-4.04415	-2.35822
1833.000	-3.67613	-1.75449	-4.16610	-2.26475
1834.000	-3.63872	-1.75457	-4.15823	-2.37967
1835.000	-3.66825	-1.72872	-4.07366	-2.35219
1836.000	-3.69581	-1.75842	-4.13463	-2.28267
1837.000	-3.62690	-1.79426	-4.08742	-2.29668
1838.000	-3.65053	-1.75851	-4.00087	-2.35834
1839.000	-3.68400	-1.81001	-4.07759	-2.37397
1840.000	-3.66628	-1.75055	-4.10119	-2.35805
1841.000	-3.63675	-1.74862	-4.19756	-2.33796
1842.000	-3.66234	-1.80014	-4.12873	-2.33420
1843.000	-3.66431	-1.81005	-4.05399	-2.30272
1844.000	-3.63675	-1.77242	-4.05792	-2.36016
1845.000	-3.64659	-1.76249	-4.07366	-2.38587
1846.000	-3.65841	-1.77436	-4.03038	-2.31269
1847.000	-3.65841	-1.75056	-4.04021	-2.33842
1848.000	-3.62099	-1.77841	-4.06185	-2.29873
1849.000	-3.64265	-1.78431	-4.02054	-2.31668
1850.000	-3.66038	-1.77634	-4.02251	-2.37809
1851.000	-3.68400	-1.77828	-4.08546	-2.36008
1852.000	-3.66234	-1.75651	-4.05399	-2.39979
1853.000	-3.68400	-1.77035	-4.05595	-2.36809
1854.000	-3.70960	-1.74650	-4.05989	-2.40572
1855.000	-3.64265	-1.78630	-4.12873	-2.31043
1856.000	-3.65447	-1.75850	-4.09136	-2.36402
1857.000	-3.65841	-1.79817	-4.11693	-2.37385
1858.000	-3.68597	-1.77828	-4.06972	-2.40173
1859.000	-3.70763	-1.71873	-4.07759	-2.47301
1860.000	-3.62887	-1.75855	-4.13070	-2.43125
1861.000	-3.69778	-1.83775	-4.08546	-2.42743
1862.000	-3.67810	-1.77433	-4.11496	-2.39565
1863.000	-3.73519	-1.78413	-4.12283	-2.42137
1864.000	-3.70960	-1.76435	-4.06579	-2.42749
1865.000	-3.72928	-1.78612	-4.06382	-2.39976
1866.000	-3.69975	-1.78023	-4.08742	-2.36998
1867.000	-3.75291	-1.85152	-4.04808	-2.40575
1868.000	-3.73913	-1.74049	-3.99300	-2.48713
1869.000	-3.72338	-1.80200	-4.10906	-2.51054
1870.000	-3.78243	-1.81576	-4.15233	-2.47278
1871.000	-3.74503	-1.85947	-4.05595	-2.41167
1872.000	-3.66431	-1.81600	-4.11889	-2.48873
1873.000	-3.73322	-1.88131	-4.11889	-2.44714
1874.000	-3.72731	-1.76629	-4.11693	-2.42931
1875.000	-3.74109	-1.80990	-4.08349	-2.38386
1876.000	-3.70960	-1.80996	-4.14053	-2.46291
1877.000	-3.71747	-1.78615	-4.03825	-2.46917
1878.000	-3.67810	-1.78623	-4.11889	-2.41346
1879.000	-3.71353	-1.81392	-4.13070	-2.41739
1880.000	-3.81589	-1.79983	-4.15036	-2.36979
1881.000	-3.74700	-1.77617	-4.14053	-2.40944
1882.000	-3.80802	-1.75621	-4.00677	-2.30285
1883.000	-3.66628	-1.70889	-4.02448	-2.41969
1884.000	-3.58555	-1.68326	-3.88871	-2.36659
1885.000	-3.34918	-1.62811	-3.75487	-2.25399
1886.000	-3.11269	-1.53520	-3.66628	-2.15112
1887.000	-2.90568	-1.40246	-3.42601	-2.03666
1888.000	-2.70253	-1.32127	-3.06735	-1.90443
1889.000	-2.47959	-1.14469	-2.87413	-1.71024
1890.000	-2.16774	-0.91242	-2.55852	-1.43663
1891.000	-1.89130	-0.75553	-2.16379	-1.25027
1892.000	-1.58120	-0.38182	-1.89328	-0.92848
1893.000	-1.18603	-0.08354	-1.54959	-0.61250
1894.000	-0.77691	0.09548	-1.14256	-0.32620
1895.000	-0.30643	0.35013	-0.77889	0.01392
1896.000	0.00989	0.64853	-0.46261	0.42174
1897.000	0.28271	0.92102	-0.14234	0.67240
1898.000	0.63855	1.25108	0.14037	0.91705
1899.000	0.95876	1.54520	0.45668	1.16959
1900.000	1.17022	1.69217	0.68796	1.29282
1901.000	1.46662	1.83899	0.92516	1.45775
1902.000	1.56540	1.91837	1.11687	1.64450
1903.000	1.78466	2.05520	1.24532	1.64641
1904.000	1.87946	2.10672	1.35992	1.72185
1905.000	1.99004	2.20585	1.54367	1.69787
1906.000	2.11048	2.18385	1.63651	1.70971
1907.000	2.10061	2.18982	1.68985	1.61628
1908.000	2.05125	2.15614	1.70565	1.61031
1909.000	2.02558	2.07874	1.81231	1.54266
1910.000	2.06902	2.04691	1.78663	1.61421
1911.000	2.04928	1.97545	1.83008	1.38963
1912.000	2.00781	1.85436	1.84193	1.24455
1913.000	1.99202	1.80671	1.82613	1.12928
1914.000	2.03151	1.71132	1.82416	1.01797
1915.000	1.96042	1.68557	1.72540	0.95640
1916.000	1.78663	1.53672	1.81231	0.98219
1917.000	1.73725	1.51490	1.71750	0.93453
1918.000	1.65232	1.47721	1.75305	0.87090
1919.000	1.54169	1.44350	1.59108	0.92067
1920.000	1.48835	1.45546	1.57923	0.85905
1921.000	1.41722	1.47141	1.54169	0.91871
1922.000	1.34016	1.40984	1.60293	0.92067
1923.000	1.34807	1.48934	1.45674	0.83523
1924.000	1.30657	1.47346	1.51798	0.87100
1925.000	1.28484	1.51919	1.50020	0.92867
1926.000	1.36585	1.52709	1.49230	1.00621
1927.000	1.39549	1.57874	1.50218	0.97042
1928.000	1.39154	1.63240	1.56540	1.08570
1929.000	1.52193	1.66609	1.61478	1.17711
1930.000	1.61478	1.64416	1.65824	1.19100
1931.000	1.70762	1.66395	1.74713	1.26846
1932.000	1.81033	1.69763	1.82416	1.21674
1933.000	1.87353	1.74922	1.89920	1.31406
1934.000	1.98017	1.77295	1.87551	1.44325
1935.000	2.10851	1.78870	1.85576	1.38961
1936.000	2.14010	1.77476	1.96437	1.42331
1937.000	2.16576	1.82637	2.02361	1.54048
1938.000	2.22104	1.86205	1.96832	1.44715
1939.000	2.21906	1.91765	2.01769	1.53055
1940.000	2.24275	1.89181	1.97622	1.58026
1941.000	2.25854	1.97915	1.94265	1.54652
1942.000	2.21512	1.99708	2.02756	1.59412
1943.000	2.25657	1.94540	1.93672	1.51076
1944.000	2.18945	2.00307	1.92488	1.49487
1945.000	2.14405	2.01306	1.90908	1.53065
1946.000	2.12628	1.97734	1.90118	1.49092
1947.000	2.11838	2.00714	1.85971	1.50486
1948.000	2.09074	1.94760	1.87946	1.44921
1949.000	2.09074	1.97540	1.81823	1.40753
1950.000	2.03941	1.90199	1.84391	1.44129
1951.000	2.06310	1.89799	1.84588	1.42937
1952.000	2.01176	1.88613	1.78466	1.43736
1953.000	2.03743	1.89802	1.81231	1.44330
1954.000	2.00781	1.87422	1.80243	1.43338
1955.000	2.03743	1.89007	1.81231	1.42144
1956.000	1.98214	1.86829	1.83601	1.33597
1957.000	2.01176	1.88017	1.76886	1.35987
1958.000	2.01571	1.84640	1.76491	1.40360
1959.000	1.99991	1.90005	1.84588	1.39956
1960.000	1.98807	1.86431	1.69775	1.41756
1961.000	1.99202	1.85438	1.75108	1.41155
1962.000	1.92488	1.80479	1.80441	1.30221
1963.000	1.96832	1.80077	1.74713	1.31219
1964.000	1.92290	1.83260	1.73528	1.37381
1965.000	1.98214	1.78685	1.79453	1.42146
1966.000	1.93672	1.77300	1.73330	1.41753
1967.000	1.92685	1.80280	1.64639	1.38381
1968.000	1.94067	1.80676	1.75898	1.41354
1969.000	1.93278	1.79684	1.74120	1.31418
1970.000	1.91105	1.74323	1.69577	1.37384
1971.000	1.91895	1.75911	1.77281	1.42744
1972.000	1.95055	1.73921	1.67009	1.38180
1973.000	1.93278	1.70546	1.79058	1.40954
1974.000	1.93080	1.71738	1.80243	1.37177
1975.000	1.99794	1.76101	1.74910	1.42149
1976.000	1.95055	1.78689	1.70960	1.34004
1977.000	1.97227	1.71734	1.74515	1.40162
1978.000	2.01769	1.77490	1.73725	1.45529
1979.000	2.00189	1.74909	1.73133	1.42747
1980.000	1.98807	1.77692	1.76688	1.41552
1981.000	1.97622	1.74912	1.75700	1.48309
1982.000	1.98807	1.76103	1.70565	1.36787
1983.000	1.99597	1.77889	1.72738	1.42946
1984.000	1.98017	1.77097	1.76491	1.33006
1985.000	2.01176	1.75107	1.78466	1.34794
1986.000	1.97227	1.74118	1.76293	1.43937
1987.000	2.02953	1.70536	1.81033	1.32606
1988.000	1.97622	1.76104	1.75700	1.38174
1989.000	2.01571	1.75504	1.76095	1.31814
1990.000	2.00386	1.73519	1.68787	1.46327
1991.000	2.03546	1.74508	1.77083	1.40955
1992.000	2.00386	1.78286	1.74910	1.44137
1993.000	2.01966	1.71530	1.87551	1.39159
1994.000	2.02163	1.75702	1.75108	1.38174
1995.000	2.05718	1.78677	1.74120	1.37579
1996.000	2.03546	1.73118	1.81626	1.47509
1997.000	2.02953	1.78482	1.75503	1.42348
1998.000	2.00386	1.73121	1.81626	1.43336
1999.000	2.01374	1.72326	1.74910	1.32014
2000.000	2.03348	1.74707	1.80836	1.43933
2001.000	2.03348	1.79276	1.81033	1.34394
2002.000	2.01571	1.70140	1.78466	1.36781
2003.000	1.98214	1.74514	1.78268	1.36781
2004.000	1.99597	1.76698	1.84983	1.33000
2005.000	2.00584	1.74909	1.80638	1.33599
2006.000	1.98807	1.74911	1.80638	1.32805
2007.000	2.05718	1.72718	1.79848	1.28035
2008.000	1.96635	1.74516	1.73725	1.31617
2009.000	2.00979	1.73518	1.76491	1.25653
2010.000	2.01769	1.73914	1.84193	1.23461
2011.000	2.01571	1.77689	1.85576	1.31211
2012.000	2.00979	1.74114	1.82416	1.31015
2013.000	2.02558	1.77290	1.79453	1.28433
2014.000	2.02953	1.70934	1.90908	1.35778
2015.000	1.99399	1.72526	1.80836	1.37574
2016.000	2.03546	1.73317	1.74713	1.36982
2017.000	1.96437	1.72331	1.82613	1.41348
2018.000	2.02361	1.75304	1.82416	1.32207
2019.000	2.03743	1.78083	1.84786	1.32801
2020.000	2.06705	1.83046	1.85773	1.29422
2021.000	2.09074	1.81851	1.78466	1.32011
2022.000	2.10654	1.81254	1.82218	1.27636
2023.000	2.04730	1.82651	1.80836	1.34792
2024.000	2.07889	1.77086	1.85378	1.30217
2025.000	2.05915	1.80862	1.83008	1.25648
2026.000	2.03348	1.82056	1.82811	1.26642
2027.000	2.04730	1.84438	1.80243	1.31612
2028.000	2.07889	1.85030	1.82613	1.26642
2029.000	2.05125	1.81061	1.86366	1.31807
2030.000	2.06310	1.90196	1.85576	1.34987
2031.000	2.07297	1.78477	1.81033	1.30419
2032.000	2.07297	1.81853	1.83403	1.27437
2033.000	2.04335	1.81857	1.83798	1.28032
2034.000	2.05718	1.82650	1.79453	1.35190
2035.000	2.07889	1.80065	1.75503	1.29032
2036.000	2.04730	1.80863	1.74515	1.29430
2037.000	2.09074	1.84830	1.74910	1.22871
2038.000	2.05520	1.78479	1.77873	1.25055
2039.000	2.08679	1.80064	1.74713	1.34597
2040.000	2.04138	1.84439	1.81428	1.23860
2041.000	2.11443	1.88204	1.77676	1.20882
2042.000	2.07495	1.81456	1.79256	1.26048
2043.000	2.07889	1.83243	1.76491	1.26249
2044.000	2.08284	1.82647	1.71750	1.26848
2045.000	2.06507	1.82450	1.79058	1.28632
2046.000	2.11838	1.79862	1.79651	1.28632
2047.000	2.07692	1.80661	1.79453	1.29626
2048.000	2.04138	1.85233	1.87551	1.29421
2049.000	2.04335	1.83247	1.82613	1.32207
2050.000	2.07100	1.81456	1.83206	1.28232
2051.000	2.04928	1.80068	1.82613	1.27835
2052.000	2.09271	1.80858	1.81033	1.24656
2053.000	2.05125	1.82650	1.79453	1.28234
2054.000	2.04730	1.79870	1.79848	1.25054
2055.000	2.08087	1.85229	1.89525	1.31804
2056.000	2.08284	1.79270	1.72738	1.30624
2057.000	2.01966	1.75702	1.76688	1.29826
2058.000	2.04928	1.79274	1.84786	1.22268
2059.000	2.04533	1.75500	1.83601	1.28828
2060.000	2.05323	1.72520	1.82021	1.29822
2061.000	2.02361	1.76496	1.85773	1.29025
2062.000	2.05323	1.78082	1.85576	1.24653
2063.000	2.05718	1.77287	1.78466	1.25651
2064.000	2.07297	1.75299	1.84391	1.24852
2065.000	2.04335	1.76692	1.85576	1.30019
2066.000	2.05915	1.77485	1.81823	1.30816
2067.000	2.08679	1.71523	1.92290	1.25443
2068.000	2.07297	1.81853	1.84786	1.34193
2069.000	2.09271	1.81255	1.83996	1.25846
2070.000	2.09271	1.82050	1.82613	1.29027
2071.000	2.08679	1.78277	1.80638	1.24855
2072.000	2.09271	1.77481	1.85181	1.29423
2073.000	2.09469	1.79467	1.85773	1.24851
2074.000	2.04928	1.78479	1.87748	1.24452
2075.000	2.07495	1.78675	1.86761	1.24850
2076.000	2.08482	1.79469	1.84588	1.30814
2077.000	2.06112	1.72519	1.80638	1.22669
2078.000	2.11641	1.77479	1.81823	1.28034
2079.000	2.06507	1.78080	1.80243	1.28433
2080.000	2.09271	1.73906	1.83798	1.27436
2081.000	2.06507	1.79272	1.85971	1.19286
2082.000	2.06705	1.78676	1.84588	1.29423
2083.000	2.10061	1.77679	1.93080	1.26833
2084.000	2.13023	1.80854	1.95845	1.27825
2085.000	2.10654	1.74302	1.86958	1.28428
2086.000	2.09074	1.79071	1.84193	1.25647
2087.000	2.11246	1.76287	1.89130	1.28625
2088.000	2.10851	1.76685	1.87946	1.27036
2089.000	2.14997	1.77276	1.83798	1.25648
2090.000	2.08284	1.77880	1.83403	1.29424
2091.000	2.12036	1.68937	1.86366	1.28428
2092.000	2.15589	1.77673	1.83403	1.30815
2093.000	2.14602	1.74099	1.85971	1.21472
2094.000	2.15984	1.75488	1.90118	1.18488
2095.000	2.12036	1.76485	1.85378	1.24454
2096.000	2.07100	1.71326	1.89130	1.34785
2097.000	2.12233	1.76882	1.86761	1.32403
2098.000	2.10456	1.72514	1.86168	1.20280
2099.000	2.14997	1.75091	1.84588	1.30019
2100.000	2.06705	1.75101	1.89920	1.29022
2101.000	2.14405	1.77078	1.91303	1.27431
2102.000	2.10851	1.69535	1.97029	1.24247
2103.000	2.11246	1.71918	1.87156	1.25248
2104.000	2.14010	1.75093	1.89525	1.24054
2105.000	2.08482	1.72119	1.84391	1.30814
2106.000	2.08482	1.72318	1.93672	1.25640
2107.000	2.08877	1.71920	1.90908	1.22463
2108.000	2.13023	1.71121	1.84786	1.31410
2109.000	2.07692	1.73511	1.81626	1.28630
2110.000	2.07297	1.72518	1.79256	1.29626
2111.000	2.05915	1.72321	1.98214	1.28419
2112.000	2.06705	1.73512	1.84786	1.24057
2113.000	2.11641	1.74301	1.89328	1.25445
2114.000	2.09666	1.73310	1.86761	1.27434
2115.000	2.09074	1.73906	1.81033	1.19488
2116.000	2.13220	1.74498	1.85971	1.23062
2117.000	2.09074	1.76290	1.85971	1.29422
2118.000	2.10654	1.74501	1.90118	1.21867
2119.000	2.11641	1.72315	1.89130	1.32798
2120.000	2.11838	1.74102	1.87946	1.25843
2121.000	2.08877	1.75098	1.89525	1.26240
2122.000	2.10259	1.70926	1.90315	1.25245
2123.000	2.12628	1.74101	1.83206	1.27238
2124.000	2.13023	1.77080	1.84588	1.32205
2125.000	2.08482	1.75496	1.81823	1.24059
2126.000	2.10654	1.77480	1.90908	1.28425
2127.000	2.04138	1.73316	1.89130	1.24253
2128.000	2.16576	1.77473	1.95055	1.28024
2129.000	2.08877	1.77482	1.89130	1.25048
2130.000	2.11443	1.75493	1.92685	1.26039
2131.000	2.08284	1.72914	1.85971	1.20280
2132.000	2.08482	1.66955	1.87551	1.17496
2133.000	2.11641	1.69136	1.87946	1.18490
2134.000	2.07889	1.71524	1.94265	1.22858
2135.000	2.08482	1.66558	1.88735	1.26439
2136.000	2.05520	1.67157	1.95055	1.23453
2137.000	2.06902	1.66956	1.85378	1.33993
2138.000	2.04533	1.65767	1.86563	1.31012
2139.000	2.10654	1.69932	1.86563	1.26639
2140.000	2.01966	1.66564	1.83996	1.25846
2141.000	2.03151	1.62391	1.88143	1.27831
2142.000	2.01571	1.60208	1.89723	1.29022
2143.000	2.03546	1.60603	1.92290	1.26436
2144.000	2.03743	1.63781	1.81823	1.29823
2145.000	2.06507	1.64970	1.87156	1.21670
2146.000	2.07495	1.61394	1.90315	1.23457
2147.000	2.04730	1.63184	1.90710	1.20078
2148.000	2.05323	1.65170	1.92093	1.24648
2149.000	2.05125	1.63979	1.84983	1.21672
2150.000	2.05323	1.65170	1.88735	1.26042
2151.000	2.05718	1.68348	1.94067	1.22063
2152.000	2.08482	1.63975	1.86958	1.16702
2153.000	2.04335	1.60801	1.88143	1.22465
2154.000	2.05718	1.64574	1.91105	1.20475
2155.000	2.04533	1.67356	1.91895	1.24251
2156.000	2.03348	1.58021	1.90908	1.20674
2157.000	2.05718	1.61197	1.92290	1.19083
2158.000	2.03348	1.65768	1.87748	1.21471
2159.000	2.02361	1.63584	1.97424	1.25836
2160.000	2.01374	1.61996	1.96832	1.18285
2161.000	2.01374	1.64181	1.91105	1.30809
2162.000	2.03941	1.69343	1.94660	1.28024
2163.000	2.01374	1.65572	1.91500	1.19282
2164.000	2.01571	1.64578	1.92290	1.22859
2165.000	2.01374	1.62592	1.87353	1.23459
2166.000	2.04730	1.65370	1.98807	1.29412
2167.000	2.11048	1.66555	1.93870	1.26236
2168.000	2.08087	1.67353	1.98017	1.31599
2169.000	2.10259	1.71720	1.94660	1.28024
2170.000	2.06507	1.70731	1.88933	1.26240
2171.000	2.09074	1.70530	1.94265	1.28224
2172.000	2.12628	1.68738	1.85181	1.31013
2173.000	2.04730	1.71925	1.89920	1.20078
2174.000	2.13023	1.71320	1.90315	1.25047
2175.000	2.07495	1.69141	1.88341	1.25843
2176.000	2.13418	1.72710	1.95055	1.23453
2177.000	2.09074	1.68742	1.84983	1.31808
2178.000	2.06902	1.72320	1.92488	1.25443
2179.000	2.10654	1.71322	1.93278	1.25243
2180.000	2.08679	1.73112	1.90513	1.24053
2181.000	2.13023	1.75094	1.91895	1.27629
2182.000	2.13812	1.71915	1.94462	1.26435
2183.000	2.12233	1.67944	1.87353	1.24850
2184.000	2.09864	1.70926	1.92685	1.13915
2185.000	2.11246	1.76486	1.86366	1.23658
2186.000	2.08877	1.70729	1.83996	1.25846
2187.000	2.14405	1.72311	1.96042	1.13515
2188.000	2.06507	1.68347	1.90710	1.20873
2189.000	2.05718	1.68348	1.83996	1.31610
2190.000	2.10851	1.71521	1.86761	1.24254
2191.000	2.13812	1.74894	1.89920	1.19085
2192.000	2.12430	1.71122	1.88538	1.18887
2193.000	2.10259	1.75494	1.89130	1.25644
2194.000	2.03941	1.74111	1.85773	1.26044
2195.000	2.08284	1.71921	1.88341	1.18291
2196.000	2.04730	1.68548	1.83206	1.15512
2197.000	2.10851	1.75692	1.89328	1.16899
2198.000	2.10061	1.72316	1.94660	1.16895
2199.000	2.15984	1.74693	1.95450	1.19677
2200.000	2.20919	1.75085	2.03546	1.26627
2201.000	2.29802	1.74677	2.17958	1.25224
2202.000	2.49340	1.71872	2.29210	1.31175
2203.000	2.69267	1.73036	2.47170	1.41090
2204.000	3.07327	1.74169	2.70451	1.29942
2205.000	3.36297	1.80667	3.06735	1.36850
2206.000	3.68203	1.78027	3.39843	1.39584
2207.000	4.20936	1.81284	3.75684	1.55797
2208.000	4.64563	1.97419	4.12480	1.56719
2209.000	5.06176	1.97693	4.56510	1.56628
2210.000	5.50673	2.01111	5.05979	1.62059
2211.000	6.01361	2.11009	5.42249	1.61965
2212.000	6.35557	2.19955	5.83366	1.63037
2213.000	6.62686	2.28321	6.16608	1.71040
2214.000	6.97773	2.37815	6.38876	1.67806
2215.000	7.23470	2.38864	6.64051	1.68709
2216.000	7.45445	2.37368	6.76532	1.65508
2217.000	7.62154	2.42001	6.95046	1.67614
2218.000	7.74581	2.44488	7.17632	1.74237
2219.000	7.93789	2.52439	7.22691	1.68302
2220.000	7.98055	2.45333	7.39807	1.61930
2221.000	8.01932	2.41180	7.30278	1.66697
2222.000	8.06197	2.40762	7.36696	1.57998
2223.000	8.06584	2.32304	7.43695	1.64281
2224.000	8.19565	2.37536	7.58075	1.58118
2225.000	8.27311	2.33166	7.63125	1.52780
2226.000	8.41439	2.36029	7.76134	1.67899
2227.000	8.48983	2.33822	7.81956	1.66104
2228.000	8.55750	2.41047	7.74969	1.66525
2229.000	8.49370	2.47176	7.75163	1.75190
2230.000	8.46856	2.52102	7.65650	1.82321
2231.000	8.36021	2.56887	7.65067	1.89611
2232.000	8.25181	2.67371	7.55550	1.88668
2233.000	8.11041	2.73165	7.34946	2.00187
2234.000	7.96310	2.76016	7.28917	1.99623
2235.000	7.77881	2.83611	7.15102	2.01064
2236.000	7.53218	2.83184	7.16853	2.04211
2237.000	7.46417	2.85393	6.99720	2.03892
2238.000	7.34557	2.87438	6.97773	2.04492
2239.000	7.26193	2.85917	6.86083	1.95468
2240.000	7.20746	2.80045	6.99720	1.95806
2241.000	7.18994	2.72572	7.03031	1.89284
2242.000	7.23664	2.66046	7.05368	1.91444
2243.000	7.25221	2.55993	7.13934	1.82929
2244.000	7.38252	2.54737	7.19578	1.82512
2245.000	7.46805	2.52521	7.21913	1.85854
2246.000	7.56521	2.48922	7.37668	1.82241
2247.000	7.65456	2.37061	7.49720	1.80615
2248.000	7.81374	2.45432	7.48554	1.83575
2249.000	7.91656	2.43601	7.59435	1.76240
2250.000	7.97279	2.42584	7.61572	1.77019
2251.000	8.10460	2.43096	7.63902	1.83707
2252.000	8.10654	2.39162	7.69728	1.78758
2253.000	8.20146	2.48147	7.81762	1.73784
2254.000	8.20534	2.45786	7.73028	1.74411
2255.000	8.25762	2.54596	7.73999	1.79331
2256.000	8.20340	2.52666	7.72057	1.77567
2257.000	8.23632	2.55200	7.73610	1.83862
2258.000	8.20534	2.64062	7.72834	1.95484
2259.000	8.17822	2.61526	7.68951	1.91169
2260.000	8.20727	2.58166	7.67398	1.94130
2261.000	8.15110	2.68225	7.54578	1.91430
2262.000	8.11041	2.62749	7.65262	1.92564
2263.000	8.15497	2.64882	7.62349	2.04394
2264.000	8.12010	2.68049	7.53995	2.00297
2265.000	8.09297	2.64726	7.59241	1.99288
2266.000	8.08135	2.66699	7.58270	1.90823
2267.000	8.04840	2.61413	7.56715	1.96345
2268.000	8.08522	2.63945	7.50303	1.95586
2269.000	8.02708	2.60641	7.52830	2.01288
2270.000	8.05034	2.65737	7.47583	1.99539
2271.000	8.00769	2.59867	7.55161	2.01671
2272.000	8.00963	2.62028	7.43306	1.99558
2273.000	7.97279	2.61069	7.55355	2.05806
2274.000	7.99800	2.63805	7.42529	1.90301
2275.000	7.96504	2.60877	7.57492	2.03039
2276.000	7.99218	2.65578	7.42529	1.94833
2277.000	7.98637	2.69710	7.49720	1.90664
2278.000	7.94759	2.64231	7.56910	1.96148
2279.000	7.97667	2.62049	7.47194	1.98950
2280.000	7.96892	2.64807	7.47971	1.87125
2281.000	7.96892	2.63627	7.42918	1.88920
2282.000	7.92043	2.68770	7.38446	1.88150
2283.000	7.96698	2.61269	7.36113	1.91117
2284.000	7.97667	2.63032	7.46028	1.96000
2285.000	7.94371	2.67379	7.45445	1.88712
2286.000	7.93983	2.58927	7.47777	1.93036
2287.000	7.98055	2.61850	7.44084	1.93053
2288.000	7.99606	2.65772	7.41362	1.94838
2289.000	7.94565	2.68361	7.43306	1.90494
2290.000	7.99994	2.60461	7.48166	1.94611
2291.000	7.95534	2.60686	7.51664	1.92625
2292.000	7.99800	2.66164	7.41946	2.05081
2293.000	7.97861	2.61851	7.43501	1.96011
2294.000	8.01738	2.61433	7.45250	1.95018
2295.000	7.97861	2.61851	7.39418	1.85978
2296.000	7.93595	2.60895	7.42529	1.90104
2297.000	8.02126	2.60055	7.43501	2.01134
2298.000	7.98249	2.61259	7.42335	1.90105
2299.000	7.97085	2.58121	7.42335	1.94046
2300.000	8.02708	2.63589	7.54578	1.96749
2301.000	8.00575	2.61244	7.46028	1.95211
2302.000	7.99412	2.64397	7.35335	1.97032
2303.000	7.99218	2.65381	7.49137	1.91060
2304.000	7.99800	2.61249	7.50886	1.84354
2305.000	7.98055	2.61457	7.60018	2.00270
2306.000	7.99606	2.62823	7.43890	1.90295
2307.000	8.01157	2.63993	7.46417	1.90284
2308.000	7.98249	2.64601	7.47194	1.90872
2309.000	7.99218	2.59483	7.45833	1.89301
2310.000	8.02514	2.64770	7.52441	1.91243
2311.000	8.05228	2.63573	7.53801	1.84538
2312.000	8.03289	2.67321	7.57104	1.88070
2313.000	8.04258	2.67118	7.51275	1.89081
2314.000	8.03677	2.64763	7.41168	1.84394
2315.000	8.06972	2.62382	7.50692	1.92038
2316.000	8.05421	2.64358	7.49915	1.94800
2317.000	8.04840	2.58465	7.44862	1.83197
2318.000	8.01351	2.58290	7.48943	1.84362
2319.000	7.99994	2.62034	7.43695	1.78472
2320.000	7.98637	2.64009	7.55938	1.75269
2321.000	8.03871	2.64958	7.59241	1.86091
2322.000	8.02902	2.67716	7.45833	1.85163
2323.000	8.00188	2.61443	7.47971	1.83972
2324.000	8.03289	2.62799	7.49526	1.83374
2325.000	8.03095	2.64766	7.36307	1.91707
2326.000	7.99024	2.62630	7.54773	1.85519
2327.000	8.02708	2.67717	7.47583	1.84762
2328.000	8.01351	2.61829	7.48166	1.85744
2329.000	8.00575	2.65176	7.46611	1.93042
2330.000	8.04065	2.60829	7.44862	1.77482
2331.000	8.00381	2.65374	7.45639	1.87529
2332.000	8.01157	2.66352	7.49720	1.80024
2333.000	8.01545	2.62811	7.53995	1.86902
2334.000	8.04840	2.67114	7.40390	1.80653
2335.000	8.02708	2.61034	7.51858	1.82182
2336.000	8.06584	2.62778	7.48554	1.73131
2337.000	8.04452	2.60433	7.50498	1.82188
2338.000	8.01932	2.56910	7.42918	1.80643
2339.000	8.05809	2.63373	7.50303	1.85735
2340.000	8.02514	2.66146	7.46611	1.86736
2341.000	8.06390	2.69266	7.42140	1.91288
2342.000	8.02708	2.62017	7.50498	1.87311
2343.000	8.05421	2.63572	7.44862	1.80635
2344.000	8.03483	2.62995	7.55355	1.78621
2345.000	8.04452	2.64954	7.47777	1.87716
2346.000	8.01351	2.62026	7.48943	1.92046
2347.000	8.06003	2.64551	7.50498	1.88690
2348.000	8.02514	2.59856	7.48360	1.82000
2349.000	8.05228	2.59642	7.39029	1.80067
2350.000	8.02902	2.58870	7.47583	1.84565
2351.000	8.04646	2.64953	7.50886	1.84551
2352.000	8.06584	2.54129	7.56133	1.82558
2353.000	8.04258	2.62793	7.44084	1.80441
2354.000	8.08135	2.62178	7.42723	1.76111
2355.000	8.03095	2.63390	7.43695	1.83399
2356.000	8.05228	2.60821	7.49915	1.86919
2357.000	8.04646	2.60825	7.45250	1.85166
2358.000	8.06003	2.58457	7.48554	1.89486
2359.000	8.03677	2.59455	7.42335	1.96016
2360.000	8.04452	2.55911	7.47777	1.85549
2361.000	8.02514	2.59659	7.45250	1.86348
2362.000	8.04840	2.63969	7.44667	1.82409
2363.000	8.10460	2.57249	7.47000	1.94419
2364.000	8.09491	2.61776	7.48943	1.85150
2365.000	8.11816	2.56061	7.44278	1.82017
2366.000	8.09685	2.59023	7.47194	1.83384
2367.000	8.10654	2.60000	7.47000	1.82399
2368.000	8.07359	2.56679	7.42529	1.82024
2369.000	8.10266	2.54695	7.46805	1.82203
2370.000	8.09685	2.58237	7.34168	1.81270
2371.000	8.09491	2.55486	7.41751	1.74538
2372.000	8.11041	2.50956	7.53413	1.68186
2373.000	8.06778	2.38989	7.48360	1.70767
2374.000	8.04065	2.18747	7.49332	1.64457
2375.000	7.99994	1.92404	7.54190	1.27779
2376.000	8.02514	1.64840	7.53218	1.04716
2377.000	7.98443	1.24888	7.75940	0.69186
2378.000	7.93401	0.83736	7.76910	0.29567
2379.000	7.91849	0.38818	7.83508	0.05518
2380.000	7.91074	-0.10838	7.86612	-0.46705
2381.000	7.82344	-0.58534	7.88746	-0.98127
2382.000	7.77298	-1.05839	7.93595	-1.42429
2383.000	7.67398	-1.54340	7.89716	-1.77098
2384.000	7.63902	-1.94343	7.95534	-2.28826
2385.000	7.61572	-2.39642	7.88164	-2.80985
2386.000	7.56910	-2.77848	7.81762	-3.04815
2387.000	7.52247	-3.25083	7.80209	-3.46280
2388.000	7.51469	-3.61839	7.75163	-3.84605
2389.000	7.50498	-3.81881	7.78851	-4.06542
2390.000	7.47971	-4.07816	7.68951	-4.26053
2391.000	7.50692	-4.40550	7.61377	-4.50045
2392.000	7.45833	-4.64318	7.83508	-4.79571
2393.000	7.44667	-4.76871	7.72834	-5.01414
2394.000	7.46028	-4.92133	7.72834	-5.19798
2395.000	7.43695	-5.12909	7.81568	-5.44116
2396.000	7.48554	-5.30458	7.85448	-5.57344
2397.000	7.45833	-5.43787	7.89910	-5.75041
2398.000	7.48166	-5.53139	7.88164	-5.90473
2399.000	7.55744	-5.70427	7.81762	-6.00507
2400.000	7.56521	-5.72955	7.88552	-6.06646
2401.000	7.63902	-5.86519	7.86612	-6.08623
2402.000	7.67786	-5.95244	7.73028	-6.13886
2403.000	7.68757	-5.99326	7.77492	-6.24732
2404.000	7.70116	-6.10420	7.82732	-6.30301
2405.000	7.70116	-6.13733	7.83702	-6.23666
2406.000	7.71281	-6.11378	7.86030	-6.29668
2407.000	7.74193	-6.08802	7.81180	-6.19028
2408.000	7.76910	-6.01941	7.81762	-6.20773
2409.000	7.83896	-5.98527	7.74193	-6.08412
2410.000	7.82926	-5.87427	7.84090	-6.02618
2411.000	7.81180	-5.78283	7.77298	-5.94331
2412.000	7.85254	-5.70813	7.81374	-5.89594
2413.000	7.78075	-5.64079	7.84672	-5.85842
2414.000	7.81180	-5.53495	7.85060	-5.76279
2415.000	7.75746	-5.46535	7.95922	-5.73202
2416.000	7.76910	-5.36557	7.93401	-5.72457
2417.000	7.77881	-5.38694	7.92043	-5.77158
2418.000	7.77492	-5.35963	7.91074	-5.78341
2419.000	7.75940	-5.38328	7.87582	-5.77610
2420.000	7.72251	-5.39742	7.80015	-5.89028
2421.000	7.74193	-5.44797	7.87776	-5.96912
2422.000	7.75551	-5.58451	7.92237	-6.01136
2423.000	7.77686	-5.62132	7.87388	-6.04130
2424.000	7.71669	-5.75291	7.89910	-6.17731
2425.000	7.77686	-5.80477	7.83508	-6.27174
2426.000	7.78463	-5.82418	7.78269	-6.30563
2427.000	7.76716	-5.95315	7.84284	-6.29110
2428.000	7.82150	-5.98942	7.81762	-6.40245
2429.000	7.79433	-5.99761	7.72057	-6.46815
2430.000	7.82538	-6.05954	7.74387	-6.42108
2431.000	7.82926	-6.08871	7.81762	-6.55033
2432.000	7.80986	-6.08510	7.73222	-6.49133
2433.000	7.81956	-6.14731	7.68369	-6.50180
2434.000	7.85448	-6.11173	7.74193	-6.54372
2435.000	7.81180	-6.15911	7.73028	-6.50693
2436.000	7.82538	-6.15112	7.71281	-6.49163
2437.000	7.89522	-6.10334	7.66621	-6.52542
2438.000	7.89716	-6.10526	7.73610	-6.48933
2439.000	7.86612	-6.10182	7.67203	-6.41827
2440.000	7.85254	-6.12540	7.63125	-6.49481
2441.000	7.92043	-6.14388	7.68757	-6.43945
2442.000	7.91074	-6.12064	7.58658	-6.32605
2443.000	7.88940	-6.11901	7.61572	-6.35484
2444.000	7.92819	-6.09896	7.68369	-6.28957
2445.000	7.88746	-6.09761	7.64873	-6.34657
2446.000	7.92431	-6.08343	7.54384	-6.26627
2447.000	7.90686	-6.00184	7.50109	-6.34288
2448.000	7.92431	-6.01718	7.56133	-6.28550
2449.000	7.92043	-5.99969	7.59241	-6.28895
2450.000	7.94952	-5.99927	7.63320	-6.35069
2451.000	7.91849	-5.97828	7.63514	-6.33508
2452.000	7.93013	-5.97227	7.59824	-6.30056
2453.000	7.93595	-6.00337	7.61377	-6.38409
2454.000	7.93401	-5.94687	7.57881	-6.34370
2455.000	7.93789	-5.93122	7.64096	-6.32136
2456.000	7.90298	-5.93172	7.63320	-6.27277
2457.000	7.88746	-5.90855	7.61766	-6.28274
2458.000	7.94759	-5.99151	7.60600	-6.25368
2459.000	7.91849	-5.92955	7.68563	-6.32655
2460.000	7.93983	-5.91755	7.73416	-6.31804
2461.000	7.94759	-5.96422	7.69145	-6.27776
2462.000	7.95146	-5.95832	7.68951	-6.31091
2463.000	7.93595	-5.95854	7.65650	-6.31918
2464.000	7.93595	-5.93905	7.70893	-6.34762
2465.000	7.91462	-5.96080	7.74193	-6.24586
2466.000	7.89716	-5.93571	7.69533	-6.32251
2467.000	7.89328	-5.93186	7.66621	-6.31320
2468.000	7.89522	-5.95133	7.63514	-6.28833
2469.000	7.89910	-5.96882	7.68174	-6.33634
2470.000	7.89522	-5.93378	7.71281	-6.32225
2471.000	7.88164	-5.95152	7.61572	-6.31199
2472.000	7.92237	-5.97043	7.56133	-6.35759
2473.000	7.90104	-5.97659	7.76716	-6.31949
2474.000	7.92819	-5.95475	7.70893	-6.28140
2475.000	7.93595	-5.93710	7.59241	-6.30843
2476.000	7.89522	-5.92793	7.64291	-6.31354
2477.000	7.93207	-5.92546	7.68757	-6.35962
2478.000	7.92625	-5.93529	7.71281	-6.33199
2479.000	7.87970	-5.92816	7.69145	-6.35178
2480.000	7.91074	-5.96670	7.66038	-6.38145
2481.000	7.86806	-5.92442	7.63514	-6.34677
2482.000	7.91074	-5.98424	7.68563	-6.43948
2483.000	7.91462	-5.90231	7.58270	-6.40597
2484.000	7.95534	-5.91538	7.63514	-6.40519
2485.000	7.93207	-5.95275	7.73610	-6.40563
2486.000	7.91656	-5.95882	7.64679	-6.45175
2487.000	7.93983	-5.98577	7.71087	-6.45078
2488.000	7.88746	-5.97483	7.69533	-6.37314
2489.000	7.89716	-5.97079	7.65456	-6.35427
2490.000	7.87970	-5.98274	7.72057	-6.42728
2491.000	7.89522	-5.98252	7.63514	-6.35845
2492.000	7.91462	-6.00173	7.67980	-6.42789
2493.000	7.93595	-5.97803	7.62543	-6.38002
2494.000	7.87000	-5.99263	7.62543	-6.42870
2495.000	7.92043	-6.00554	7.58270	-6.36312
2496.000	7.92431	-6.00549	7.59241	-6.41167
2497.000	7.92431	-5.93727	7.55355	-6.37329
2498.000	7.88746	-5.93584	7.58075	-6.34951
2499.000	7.91268	-5.96082	7.63514	-6.37988
2500.000	7.88746	-5.94949	7.65262	-6.33482
2501.000	7.91074	-6.00373	7.60989	-6.39778
2502.000	7.93013	-5.98201	7.51081	-6.29208
2503.000	7.87582	-5.97890	7.61960	-6.37426
2504.000	7.93595	-5.95659	7.67009	-6.37546
2505.000	7.93595	-5.93905	7.61766	-6.40156
2506.000	7.94177	-5.94871	7.57104	-6.39445
2507.000	7.91849	-5.93735	7.53607	-6.37159
2508.000	7.91074	-5.92381	7.65456	-6.30168
2509.000	7.93789	-5.96241	7.59435	-6.35516
2510.000	7.92625	-5.92749	7.46611	-6.32000
2511.000	7.91462	-5.95300	7.57687	-6.32425
2512.000	7.92625	-5.94309	7.53607	-6.33263
2513.000	7.90686	-5.97065	7.59047	-6.37859
2514.000	7.90686	-5.97455	7.56521	-6.33610
2515.000	7.88746	-6.02356	7.61766	-6.36066
2516.000	7.91268	-5.91794	7.60018	-6.44466
2517.000	7.89522	-5.97277	7.55355	-6.35381
2518.000	7.93595	-5.95854	7.53607	-6.36185
2519.000	7.85254	-5.95389	7.58464	-6.30855
2520.000	7.90492	-5.95704	7.57492	-6.35934
2521.000	7.87194	-5.96336	7.56715	-6.37309
2522.000	7.90492	-5.96678	7.55938	-6.27774
2523.000	7.92043	-6.00749	7.55938	-6.37125
2524.000	7.93207	-5.95470	7.56910	-6.30098
2525.000	7.90298	-5.95901	7.51081	-6.28233
2526.000	7.96116	-5.93869	7.56133	-6.30694
2527.000	7.92043	-5.94122	7.55744	-6.27387
2528.000	7.91849	-5.99388	7.52830	-6.24311
2529.000	7.92625	-5.96648	7.56910	-6.39448
2530.000	7.92625	-5.92359	7.63514	-6.29223
2531.000	7.94371	-5.98961	7.54190	-6.29358
2532.000	7.95340	-5.95829	7.57687	-6.31450
2533.000	7.94177	-5.93312	7.52441	-6.28604
2534.000	7.93207	-5.97224	7.58270	-6.31052
2535.000	7.94759	-5.99735	7.53024	-6.32103
2536.000	7.94177	-5.95066	7.55938	-6.32840
2537.000	7.88164	-5.96127	7.53024	-6.27036
2538.000	7.90492	-5.95899	7.58852	-6.43120
2539.000	7.91074	-5.97060	7.50692	-6.33695
2540.000	7.90492	-5.94144	7.51858	-6.33678
2541.000	7.86612	-5.93810	7.51858	-6.33094
2542.000	7.89134	-5.94943	7.50109	-6.33898
2543.000	7.91656	-5.93153	7.58464	-6.24230
2544.000	7.89134	-5.96308	7.62737	-6.30987
2545.000	7.92625	-5.93334	7.55550	-6.33040
2546.000	7.90104	-5.95514	7.63125	-6.31955
2547.000	7.93983	-5.94484	7.53801	-6.29169
2548.000	7.91656	-5.91593	7.55161	-6.28370
2549.000	7.94952	-5.92911	7.53413	-6.35604
2550.000	7.91462	-5.88087	7.56715	-6.28932
2551.000	7.94952	-5.93496	7.58464	-6.27542
2552.000	7.95146	-5.92713	7.56133	-6.28161
2553.000	7.95922	-5.91727	7.58852	-6.27732
2554.000	7.95728	-5.94069	7.53607	-6.31510
2555.000	7.92819	-5.92941	7.56910	-6.27370
2556.000	7.92819	-5.95086	7.60406	-6.27320
2557.000	7.99218	-5.92070	7.50886	-6.32913
2558.000	7.99606	-6.01418	7.55355	-6.28757
2559.000	7.96892	-5.98925	7.52830	-6.29377
2560.000	7.99412	-5.99668	7.51858	-6.32314
2561.000	7.98249	-5.94618	7.58852	-6.34940
2562.000	7.96892	-5.97756	7.60795	-6.28873
2563.000	7.94565	-5.97789	7.60018	-6.34728
2564.000	7.95146	-5.95832	7.67009	-6.35794
2565.000	7.94759	-5.96617	7.58270	-6.37675
2566.000	7.95534	-5.94657	7.63514	-6.33703
2567.000	7.92431	-5.94117	7.62931	-6.38191
2568.000	7.93401	-5.95857	7.60989	-6.31013
2569.000	7.93013	-5.96057	7.67203	-6.39296
2570.000	7.95922	-5.93482	7.66815	-6.39302
2571.000	7.92625	-5.93529	7.61183	-6.31984
2572.000	7.94759	-5.95448	7.58852	-6.32213
2573.000	7.99412	-5.92847	7.64291	-6.33691
2574.000	7.91268	-5.98811	7.71863	-6.34748
2575.000	7.93401	-5.92153	7.59435	-6.29672
2576.000	7.94565	-5.95255	7.60018	-6.26156
2577.000	7.93983	-5.97018	7.61960	-6.32946
2578.000	7.90298	-5.93757	7.64485	-6.29988
2579.000	7.91462	-5.95495	7.59824	-6.38042
2580.000	7.94371	-5.92529	7.61183	-6.36074
2581.000	7.92237	-5.96458	7.67009	-6.34625
2582.000	7.93013	-5.98007	7.61766	-6.36261
2583.000	7.93983	-5.97798	7.68563	-6.33239
2584.000	7.97861	-5.98716	7.61766	-6.34702
2585.000	7.96116	-5.97182	7.63514	-6.31365
2586.000	7.96310	-5.94646	7.64096	-6.32136
2587.000	7.94565	-5.92137	7.62737	-6.42867
2588.000	7.95340	-5.99727	7.61183	-6.38412
2589.000	7.97667	-5.93457	7.53413	-6.39694
2590.000	7.97473	-5.93459	7.64096	-6.38563
2591.000	7.99218	-5.92655	7.71475	-6.38064
2592.000	7.99606	-5.98106	7.71475	-6.31832
2593.000	7.99218	-5.89926	7.56521	-6.40038
2594.000	7.98637	-5.95976	7.60795	-6.31210
2595.000	7.97667	-5.94236	7.67203	-6.32285
2596.000	7.93983	-5.95654	7.59435	-6.26554
2597.000	8.00381	-5.89519	7.63125	-6.35656
2598.000	7.99800	-5.88358	7.56521	-6.31078
2599.000	7.98249	-5.94228	7.63514	-6.32339
2600.000	7.96116	-5.93869	7.57687	-6.35736
2601.000	7.96504	-5.91524	7.60018	-6.34923
2602.000	7.98830	-5.94414	7.55355	-6.42198
2603.000	7.95534	-5.91148	7.64291	-6.35250
2604.000	7.99024	-5.91878	7.65067	-6.29005
2605.000	7.99994	-5.92059	7.60989	-6.34324
2606.000	8.00769	-5.93412	7.70310	-6.36523
2607.000	7.99412	-5.93236	7.65067	-6.42054
2608.000	8.01932	-5.94954	7.58270	-6.31637
2609.000	7.99800	-5.88943	7.69145	-6.27387
2610.000	7.99606	-5.92454	7.63708	-6.29025
2611.000	7.96892	-5.89179	7.61377	-6.36461
2612.000	7.97861	-5.95403	7.64096	-6.39537
2613.000	7.99412	-5.95965	7.62349	-6.35862
2614.000	8.02708	-5.97086	7.57687	-6.27359
2615.000	7.99606	-5.98885	7.68757	-6.27977
2616.000	7.98249	-5.94423	7.65844	-6.41263
2617.000	7.97667	-5.96380	7.59629	-6.31227
2618.000	7.99218	-5.89731	7.60600	-6.33746
2619.000	7.98443	-5.97733	7.54578	-6.28963
2620.000	7.96892	-5.96781	7.63902	-6.35645
2621.000	7.97667	-5.93651	7.62154	-6.39176
2622.000	7.97667	-5.95406	7.63125	-6.34682
2623.000	8.02126	-5.92807	7.68369	-6.32657
2624.000	7.97861	-5.94233	7.64679	-6.35439
2625.000	7.97473	-5.95019	7.68174	-6.33439
2626.000	7.94177	-5.93117	7.60795	-6.27314
2627.000	8.00575	-5.93415	7.64679	-6.38360
2628.000	7.96698	-5.93860	7.69145	-6.34399
2629.000	7.98055	-5.90527	7.63125	-6.34098
2630.000	7.98637	-5.95586	7.66815	-6.35602
2631.000	7.98055	-5.95010	7.66815	-6.34823
2632.000	7.98830	-5.95389	7.67398	-6.36567
2633.000	7.95922	-5.93677	7.54190	-6.35592
2634.000	8.03677	-5.93564	7.61766	-6.37819
2635.000	8.02708	-5.97671	7.65650	-6.30555
2636.000	7.99606	-5.94988	7.64873	-6.35046
2637.000	8.02126	-5.92028	7.66621	-6.32488
2638.000	7.96892	-5.95027	7.53801	-6.39494
2639.000	7.99994	-5.95567	7.72834	-6.34344
2640.000	7.99606	-5.95767	7.60989	-6.34909
2641.000	8.02708	-5.95332	7.59047	-6.38248
2642.000	7.97085	-5.96973	7.51469	-6.28033
2643.000	7.97861	-5.97741	7.64485	-6.33883
2644.000	8.03289	-5.97468	7.71281	-6.27940
2645.000	7.98637	-5.92273	7.74581	-6.34707
2646.000	7.97667	-6.00472	7.65262	-6.29781
2647.000	7.96698	-5.96589	7.61377	-6.26526
2648.000	7.97279	-5.97165	7.68951	-6.25636
2649.000	8.01738	-5.92033	7.65456	-6.36790
2650.000	7.99606	-5.93818	7.60406	-6.35696
2651.000	8.01545	-5.95739	7.71475	-6.33585
2652.000	7.99024	-5.95191	7.70310	-6.38276
2653.000	8.01738	-5.98464	7.62543	-6.33912
2654.000	8.00381	-5.97315	7.66233	-6.31910
2655.000	8.02126	-5.97874	7.73610	-6.35306
2656.000	8.00769	-5.98479	7.63320	-6.26888
2657.000	8.01157	-6.02370	7.60212	-6.34725
2658.000	7.99218	-5.98306	7.60018	-6.34533
2659.000	8.01932	-5.98851	7.70698	-6.34570
2660.000	8.00188	-5.98487	7.59629	-6.32786
2661.000	8.02708	-6.03711	7.75940	-6.35076
2662.000	8.00963	-6.02957	7.69922	-6.34192
2663.000	8.01932	-5.99241	7.63514	-6.38182
2664.000	8.02514	-6.03324	7.75746	-6.32548
2665.000	7.96698	-6.00876	7.68951	-6.33038
2666.000	8.03677	-6.00774	7.61572	-6.27887
2667.000	7.98055	-5.99103	7.65067	-6.32511
2668.000	7.99994	-6.02192	7.65456	-6.29584
2669.000	7.99606	-6.00639	7.71281	-6.38846
2670.000	8.02320	-6.02353	7.58852	-6.28706
2671.000	7.99994	-6.00439	7.63902	-6.37787
2672.000	8.00963	-5.94773	7.60600	-6.36083
2673.000	8.03289	-5.99611	7.66233	-6.29572
2674.000	7.99606	-6.03951	7.62543	-6.24756
2675.000	7.98637	-6.00848	7.72057	-6.29681
2676.000	8.00188	-6.01020	7.69145	-6.33620
2677.000	7.98443	-6.02410	7.74193	-6.26339
2678.000	7.96504	-5.96397	7.67980	-6.32663
2679.000	8.00575	-5.99456	7.67592	-6.34811
2680.000	7.98443	-5.95199	7.67009	-6.36962
2681.000	7.98830	-6.02209	7.59241	-6.39024
2682.000	8.01738	-5.97685	7.67592	-6.39290
2683.000	7.98055	-5.98128	7.69728	-6.32637
2684.000	7.99800	-6.02195	7.62543	-6.27288
2685.000	8.00188	-5.99656	7.66233	-6.38337
2686.000	7.96504	-6.03997	7.63902	-6.26489
2687.000	7.98637	-6.00458	7.65262	-6.37183
2688.000	7.96698	-5.99512	7.60600	-6.27317
2689.000	7.97861	-5.98131	7.70310	-6.33602
2690.000	8.02126	-6.03719	7.68757	-6.37910
2691.000	7.98443	-6.01825	7.61183	-6.38801
2692.000	7.98249	-6.00464	7.69533	-6.42376
2693.000	7.98249	-6.02023	7.65650	-6.33866
2694.000	7.96310	-5.99713	7.63902	-6.37787
2695.000	7.98830	-6.01430	7.70310	-6.33992
2696.000	7.99218	-5.95188	7.68951	-6.34207
2697.000	7.99218	-6.02203	7.57492	-6.28141
2698.000	8.02708	-6.03711	7.65650	-6.33671
2699.000	7.96698	-6.00487	7.60406	-6.32580
2700.000	8.01545	-6.01975	7.72446	-6.33181
2701.000	7.95922	-6.02252	7.64679	-6.32907
2702.000	7.99606	-5.98496	7.62737	-6.28260
2703.000	7.98055	-6.01246	7.67592	-6.33643
2704.000	7.98637	-6.01433	7.69922	-6.24648
2705.000	7.99218	-6.03957	7.73416	-6.33946
2706.000	7.95534	-6.03037	7.61572	-6.30225
2707.000	7.95534	-6.03816	7.66427	-6.37360
2708.000	7.99412	-6.02980	7.76522	-6.31757
2709.000	7.98830	-6.02794	7.61766	-6.30222
2710.000	8.00963	-6.05100	7.63125	-6.37993
2711.000	7.98055	-6.01636	7.73416	-6.38424
2712.000	7.94952	-5.99538	7.57687	-6.21708
2713.000	8.01738	-6.06258	7.68369	-6.27983
2714.000	7.97279	-6.03791	7.58075	-6.28717
2715.000	8.01738	-6.10153	7.75940	-6.35855
2716.000	8.00963	-6.02762	7.57298	-6.27559
2717.000	8.00769	-6.02181	7.67592	-6.26241
2718.000	7.98443	-6.04358	7.62543	-6.29237
2719.000	7.98830	-6.04937	7.72834	-6.30059
2720.000	7.97861	-6.06705	7.60600	-6.23614
2721.000	7.95340	-5.99727	7.60212	-6.16409
2722.000	7.96310	-5.90162	7.57298	-6.23662
2723.000	7.84284	-5.83897	7.46417	-6.14849
2724.000	7.65262	-5.70887	7.35141	-6.12274
2725.000	7.45250	-5.61774	7.15102	-6.05909
2726.000	7.21135	-5.49758	6.78871	-5.83705
2727.000	6.86862	-5.17854	6.53321	-5.74812
2728.000	6.50784	-4.92346	6.08399	-5.38466
2729.000	6.08986	-4.53642	5.65360	-5.12967
2730.000	5.64185	-4.21726	5.27942	-4.69237
2731.000	5.18335	-3.79655	4.76149	-4.40451
2732.000	4.76542	-3.30917	4.45900	-4.03946
2733.000	4.37253	-2.84024	3.91430	-3.57394
2734.000	4.00677	-2.36031	3.56783	-3.10043
2735.000	3.63478	-1.95489	3.24474	-2.80036
2736.000	3.33933	-1.50310	2.95497	-2.41252
2737.000	3.12255	-1.07258	2.78341	-1.90889
2738.000	2.89582	-0.76491	2.53484	-1.54391
2739.000	2.76960	-0.50074	2.33947	-1.15474
2740.000	2.65322	-0.34777	2.24867	-0.93423
2741.000	2.60981	-0.24445	2.20722	-0.64805
2742.000	2.70253	-0.04173	2.26249	-0.60429
2743.000	2.74790	-0.06558	2.32171	-0.47309
2744.000	2.83863	-0.08743	2.44604	-0.51478
2745.000	2.99046	-0.16490	2.62560	-0.49682
2746.000	3.15408	-0.16289	2.69662	-0.51468
2747.000	3.27824	-0.21451	2.85441	-0.62587
2748.000	3.42798	-0.27008	3.08706	-0.66944
2749.000	3.53238	-0.33756	3.15803	-0.63960
2750.000	3.58752	-0.36335	3.23095	-0.73290
2751.000	3.66234	-0.34744	3.45556	-0.77641
2752.000	3.70172	-0.33948	3.37282	-0.71889
2753.000	3.65644	-0.37126	3.48708	-0.89153
2754.000	3.72535	-0.42682	3.53631	-0.86369
2755.000	3.68400	-0.39904	3.63281	-0.88544
2756.000	3.63478	-0.38914	3.49692	-0.81807
2757.000	3.64069	-0.46656	3.61312	-0.99860
2758.000	3.61903	-0.45665	3.64659	-0.96283
2759.000	3.57373	-0.60359	3.64659	-0.94695
2760.000	3.51662	-0.59966	3.65053	-1.00848
2761.000	3.49889	-0.65923	3.55798	-1.15348
2762.000	3.43192	-0.69899	3.57373	-1.21697
2763.000	3.44177	-0.70097	3.46541	-1.27467
2764.000	3.38858	-0.75263	3.38661	-1.30455
2765.000	3.31371	-0.72092	3.33736	-1.31653
2766.000	3.20730	-0.70114	3.40237	-1.34224
2767.000	3.20533	-0.65546	3.25065	-1.25510
2768.000	3.14817	-0.62173	3.24671	-1.18562
2769.000	3.10678	-0.55223	3.11860	-1.15399
2770.000	3.09692	-0.51251	3.07129	-1.08653
2771.000	3.03581	-0.45692	3.01807	-1.01310
2772.000	3.06735	-0.36751	2.98258	-0.81451
2773.000	3.00624	-0.27218	2.93131	-0.76489
2774.000	3.06341	-0.17879	2.89582	-0.59605
2775.000	3.03187	-0.14503	2.77157	-0.46497
2776.000	3.00821	-0.08741	2.91159	-0.49670
2777.000	2.99835	-0.03576	2.76960	-0.41927
2778.000	3.01018	-0.01589	2.75185	-0.36960
2779.000	3.01018	0.00993	2.77749	-0.33184
2780.000	3.07524	0.07152	2.83074	-0.28613
2781.000	3.03778	0.10132	2.80905	-0.26825
2782.000	3.07327	0.04768	2.74001	-0.22654
2783.000	3.06341	0.02185	2.86821	-0.28413
2784.000	3.10283	0.04172	2.83271	-0.32189
2785.000	3.09298	0.07747	2.86032	-0.31592
2786.000	3.07327	0.02185	2.95103	-0.33577
2787.000	3.10875	0.04172	2.91554	-0.41326
2788.000	3.13832	0.03377	2.95497	-0.46291
2789.000	3.09889	0.00596	2.90173	-0.41128
2790.000	3.13634	0.04172	2.87413	-0.47884
2791.000	3.16197	0.01192	3.00426	-0.45097
2792.000	3.11269	-0.00397	2.97075	-0.50462
2793.000	3.16985	-0.00795	2.92737	-0.45696
2794.000	3.12058	-0.04370	3.01215	-0.48474
2795.000	3.07721	-0.08344	2.99244	-0.54037
2796.000	3.08904	-0.04370	2.94906	-0.51655
2797.000	3.15803	-0.06555	2.99835	-0.56619
2798.000	3.10875	-0.02781	3.03778	-0.54830
2799.000	3.13043	-0.02980	2.94117	-0.63377
2800.000	3.19153	-0.01589	2.92145	-0.54438
2801.000	3.11269	-0.09337	2.96483	-0.58409
2802.000	3.14423	-0.13309	3.00821	-0.59400
2803.000	3.13832	-0.10131	2.96286	-0.52648
2804.000	3.13437	-0.08542	3.02792	-0.50857
2805.000	3.12058	-0.07350	3.01609	-0.59797
2806.000	3.16985	-0.13309	2.97272	-0.60395
2807.000	3.14817	-0.04370	2.94117	-0.60198
2808.000	3.13240	-0.11720	2.90962	-0.51657
2809.000	3.15803	-0.12912	2.97469	-0.63375
2810.000	3.11663	-0.11522	2.91751	-0.62186
2811.000	3.16000	-0.04171	2.91159	-0.64173
2812.000	3.10678	-0.12118	2.95892	-0.60992
2813.000	3.11860	-0.11919	3.02792	-0.62379
2814.000	3.17971	-0.08740	2.91751	-0.58809
2815.000	3.13043	-0.06555	2.87610	-0.65963
2816.000	3.10086	-0.10529	2.89385	-0.57618
2817.000	3.14817	-0.05165	2.89582	-0.61194
2818.000	3.12452	-0.06158	2.91554	-0.56822
2819.000	3.10481	-0.05364	2.95695	-0.57019
2820.000	3.17774	-0.04767	2.93723	-0.58212
2821.000	3.14620	-0.07151	2.99835	-0.61188
2822.000	3.07327	-0.03576	2.88990	-0.61592
2823.000	3.13043	-0.03576	3.01215	-0.60790
2824.000	3.08706	-0.05960	2.94709	-0.52252
2825.000	3.11072	-0.08145	3.02398	-0.59201
2826.000	3.10481	-0.12515	2.94314	-0.59801
2827.000	3.07918	-0.09933	2.98849	-0.55825
2828.000	3.11269	-0.10528	2.98061	-0.61984
2829.000	3.16985	-0.02384	2.94709	-0.51854
2830.000	3.11663	-0.09734	2.99244	-0.59004
2831.000	3.12846	-0.11124	2.99835	-0.54037
2832.000	3.10481	-0.10727	2.94906	-0.58410
2833.000	3.13240	-0.08144	3.04961	-0.58007
2834.000	3.11663	-0.07946	2.95300	-0.57814
2835.000	3.10086	-0.05761	2.82482	-0.56628
2836.000	3.12846	-0.12515	2.96878	-0.54634
2837.000	3.12255	-0.07747	3.00624	-0.53441
2838.000	3.08706	-0.06754	2.91357	-0.55630
2839.000	3.11269	-0.04370	2.98258	-0.62580
2840.000	3.10481	-0.09734	2.85243	-0.57422
2841.000	3.08312	-0.08344	2.97075	-0.53045
2842.000	3.10086	-0.09337	2.98455	-0.61189
2843.000	3.10283	-0.11522	2.96483	-0.58608
2844.000	3.09495	-0.11125	2.95892	-0.56026
2845.000	3.10481	-0.09535	2.95300	-0.53841
2846.000	3.08509	-0.11721	2.94511	-0.63973
2847.000	3.09298	-0.08939	2.84454	-0.59210
2848.000	3.07918	-0.11522	2.95695	-0.57416
2849.000	3.08509	-0.08145	3.03187	-0.55029
2850.000	3.10481	-0.05761	2.90765	-0.47088
2851.000	3.12649	-0.05363	2.93328	-0.54239
2852.000	3.05355	-0.11522	2.90568	-0.56426
2853.000	3.12058	-0.11124	2.93723	-0.52649
2854.000	3.10678	-0.06953	2.96089	-0.57615
2855.000	3.08115	-0.12317	2.99441	-0.54435
2856.000	3.08312	-0.11919	2.90568	-0.53048
2857.000	3.07721	-0.12118	3.00229	-0.51653
2858.000	3.11466	-0.09734	2.88596	-0.48281
2859.000	3.14029	-0.14302	2.92540	-0.50465
2860.000	3.11860	-0.10926	2.98849	-0.47084
2861.000	3.07524	-0.11125	2.96089	-0.60197
2862.000	3.09298	-0.09933	2.97075	-0.61985
2863.000	3.12058	-0.13707	2.93920	-0.55431
2864.000	3.06932	-0.08940	2.95300	-0.54238
2865.000	3.10283	-0.13508	2.88990	-0.53844
2866.000	3.07721	-0.06953	2.96680	-0.52251
2867.000	3.08312	-0.05761	3.00032	-0.50461
2868.000	3.09298	-0.06754	2.94709	-0.53444
2869.000	3.09101	-0.04370	2.92540	-0.45696
2870.000	3.08509	-0.02185	2.96286	-0.43510
2871.000	3.06341	-0.02384	3.02398	-0.41719
2872.000	3.05552	0.00000	3.01807	-0.47083
2873.000	3.06932	-0.03576	2.95695	-0.41324
2874.000	3.04567	0.03775	2.96089	-0.37947
2875.000	3.09889	0.00397	2.89976	-0.31790
2876.000	3.05552	0.02384	2.91751	-0.28213
2877.000	3.02004	-0.03179	2.86229	-0.28612
2878.000	3.06735	-0.02583	2.94511	-0.31391
2879.000	3.05552	-0.01788	2.93723	-0.23444
2880.000	3.03581	-0.06755	2.96483	-0.23841
2881.000	3.03975	-0.07549	2.89582	-0.34373
2882.000	3.06735	-0.09933	2.86229	-0.36957
2883.000	3.06538	-0.11125	2.97272	-0.30198
2884.000	3.05552	-0.10529	2.98652	-0.40131
2885.000	3.09298	-0.18872	2.96286	-0.49867
2886.000	3.07524	-0.20660	2.97863	-0.47880
2887.000	3.10678	-0.16091	3.00624	-0.58407
2888.000	3.10678	-0.16885	2.97272	-0.58409
2889.000	3.10875	-0.14303	3.09889	-0.60587
2890.000	3.07129	-0.13906	3.07721	-0.70321
2891.000	3.12255	-0.14104	2.99046	-0.69731
2892.000	3.09495	-0.11125	3.01609	-0.62578
2893.000	3.08706	-0.08145	3.04172	-0.68138
2894.000	3.07524	-0.04966	3.04172	-0.73501
2895.000	3.08706	-0.06953	2.96680	-0.60594
2896.000	3.09692	-0.04569	2.95300	-0.59999
2897.000	3.10678	-0.06357	3.05355	-0.57213
2898.000	3.07524	-0.03377	2.90765	-0.45498
2899.000	3.09101	-0.07549	2.99441	-0.42515
2900.000	3.07918	-0.03973	2.92145	-0.49471
2901.000	3.13043	-0.06754	2.87215	-0.43116
2902.000	3.07327	-0.10529	2.92145	-0.37948
2903.000	3.11466	-0.03178	2.95300	-0.41523
2904.000	3.01807	-0.09735	2.90371	-0.38744
2905.000	3.11269	-0.10528	2.96680	-0.39139
2906.000	3.09692	-0.08741	2.97666	-0.42118
2907.000	3.08312	-0.07549	2.90962	-0.36955
2908.000	3.08706	-0.11125	2.90371	-0.44307
2909.000	3.06735	-0.06953	2.95103	-0.49073
2910.000	3.05749	-0.12516	3.01807	-0.44898
2911.000	3.09692	-0.03973	2.87610	-0.47288
2912.000	3.07918	-0.05562	2.94709	-0.44702
2913.000	3.07524	-0.03576	2.97863	-0.51257
2914.000	3.08706	-0.13111	2.93526	-0.43908
2915.000	3.06341	-0.07549	2.98455	-0.40131
2916.000	3.06144	-0.04966	2.95497	-0.44106
2917.000	3.02792	-0.04371	2.94906	-0.47285
2918.000	3.07129	-0.05960	2.98258	-0.40132
2919.000	3.08706	-0.02185	2.98061	-0.41324
2920.000	3.11072	-0.03377	2.90371	-0.44307
2921.000	3.06932	-0.06357	2.91554	-0.45101
2922.000	3.06144	-0.09933	2.97469	-0.46092
2923.000	3.05552	-0.10330	2.94709	-0.46888
2924.000	3.00821	-0.05761	2.93920	-0.44504
2925.000	3.04172	-0.10529	2.95300	-0.48874
2926.000	3.02201	-0.07152	3.02989	-0.47877
2927.000	3.02989	-0.11324	3.02989	-0.49268
2928.000	3.02398	-0.09933	2.89976	-0.41923
2929.000	3.05947	-0.06158	2.94906	-0.53841
2930.000	3.01807	-0.10132	3.03187	-0.48275
2931.000	3.02792	-0.08145	2.93131	-0.46094
2932.000	3.03975	-0.11324	2.95695	-0.48079
2933.000	3.03384	-0.07152	2.89582	-0.45896
2934.000	3.06144	-0.06754	2.99638	-0.48276
2935.000	3.04764	-0.08940	3.00032	-0.44899
2936.000	3.02792	-0.10132	2.95695	-0.50264
2937.000	3.03187	-0.07152	2.85046	-0.47289
2938.000	3.05355	-0.08344	3.01018	-0.48871
2939.000	3.06341	-0.08344	2.94906	-0.41722
2940.000	3.02989	-0.09337	2.96878	-0.53442
2941.000	3.06341	-0.05761	2.94117	-0.52649
2942.000	3.02595	-0.09139	2.99638	-0.55030
2943.000	3.02989	-0.07947	3.03384	-0.51453
2944.000	3.07918	-0.04172	2.95103	-0.42914
2945.000	3.03581	-0.05960	2.96286	-0.54833
2946.000	3.04567	-0.00596	2.94511	-0.51656
2947.000	3.02989	-0.08344	2.96483	-0.43907
2948.000	3.07524	-0.05165	3.04369	-0.50856
2949.000	3.08706	-0.08542	3.04172	-0.50459
2950.000	3.05355	-0.07946	2.96878	-0.50661
2951.000	3.04369	-0.07748	3.00032	-0.50262
2952.000	3.04369	-0.05563	3.00229	-0.51256
2953.000	3.03581	-0.10132	3.07129	-0.50656
2954.000	3.05552	-0.03973	2.96286	-0.50264
2955.000	3.03778	-0.03576	3.04961	-0.49267
2956.000	3.02989	-0.00795	3.01609	-0.49864
2957.000	3.07918	-0.01192	2.99046	-0.49071
2958.000	3.03581	-0.00596	2.92342	-0.53246
2959.000	3.03778	-0.04569	3.01215	-0.48474
2960.000	3.03778	-0.06159	2.99835	-0.51256
2961.000	3.10481	-0.01589	2.99835	-0.47879
2962.000	3.05749	-0.08344	3.00229	-0.45097
2963.000	3.05355	-0.04768	2.97075	-0.51058
2964.000	3.06538	-0.05165	2.88201	-0.45698
2965.000	3.06341	-0.09734	3.06341	-0.52445
2966.000	3.04567	-0.06953	3.01609	-0.52844
2967.000	3.02792	-0.10728	3.03187	-0.51254
2968.000	3.02989	-0.08940	2.99441	-0.48872
2969.000	3.06735	-0.08542	2.91554	-0.49869
2970.000	3.05552	-0.04569	3.02792	-0.56618
2971.000	3.02792	-0.15695	2.99441	-0.52448
2972.000	3.06538	-0.10330	2.95695	-0.48675
2973.000	3.04172	-0.09536	2.96089	-0.49271
2974.000	3.02989	-0.07152	2.92737	-0.45696
2975.000	3.03975	-0.11125	3.03384	-0.51453
2976.000	3.03581	-0.05364	2.97075	-0.47085
2977.000	3.03187	-0.07152	3.01807	-0.52447
2978.000	3.02595	-0.07748	3.02201	-0.55625
2979.000	3.05749	-0.07350	3.05552	-0.53438
2980.000	3.04567	-0.08145	3.07129	-0.54033
2981.000	3.05355	-0.04768	3.04764	-0.49863
2982.000	3.02989	-0.09933	3.00032	-0.56818
2983.000	3.02201	-0.10331	3.01609	-0.53242
2984.000	3.02989	-0.07748	2.99638	-0.45892
2985.000	3.04369	-0.06755	3.02595	-0.49864
2986.000	3.00229	-0.11126	3.04567	-0.47678
2987.000	3.00032	-0.11920	3.06735	-0.55424
2988.000	3.03187	-0.10529	3.08509	-0.51848
2989.000	3.00821	-0.12715	3.01609	-0.49070
2990.000	3.02004	-0.11920	3.07327	-0.48471
2991.000	3.03975	-0.11125	3.11072	-0.48072
2992.000	3.02004	-0.07947	3.07721	-0.52841
2993.000	3.07721	-0.09536	2.99046	-0.53243
2994.000	3.05947	-0.15098	3.04369	-0.46486
2995.000	3.00821	-0.10927	3.08706	-0.49464
2996.000	2.97272	-0.11921	2.99441	-0.54633
2997.000	3.00426	-0.12715	2.95695	-0.53443
2998.000	3.00624	-0.14503	3.03187	-0.54035
2999.000	3.03187	-0.12715	3.02398	-0.52248
3000.000	3.04961	-0.12913	3.03778	-0.55028
3001.000	3.03975	-0.10132	3.08706	-0.54231
3002.000	3.05749	-0.11125	3.02595	-0.55228
3003.000	3.02398	-0.08344	3.06538	-0.53239
3004.000	3.04567	-0.15098	3.02792	-0.53638
3005.000	3.02595	-0.10529	3.03778	-0.62775
3006.000	3.03384	-0.11523	3.03581	-0.46288
3007.000	3.07524	-0.10132	2.99441	-0.49468
3008.000	3.02989	-0.12516	3.04172	-0.56816
3009.000	2.98652	-0.11126	2.96680	-0.53641
3010.000	3.00032	-0.13907	3.02398	-0.54433
3011.000	3.04567	-0.13112	3.10086	-0.47278
3012.000	3.02004	-0.14105	3.00624	-0.49666
3013.000	3.05552	-0.15694	3.00624	-0.51851
3014.000	3.07524	-0.12118	2.99638	-0.43310
3015.000	3.04961	-0.10132	2.95892	-0.47483
3016.000	3.02792	-0.15099	3.07918	-0.54033
3017.000	3.06932	-0.13310	3.00032	-0.47283
3018.000	3.01609	-0.14105	3.04369	-0.49665
3019.000	3.04369	-0.11125	3.02595	-0.45494
3020.000	2.98849	-0.13510	2.96286	-0.46490
3021.000	3.03581	-0.13310	2.98258	-0.47085
3022.000	3.00821	-0.09933	3.05355	-0.52842
3023.000	3.00032	-0.11722	2.96483	-0.44106
3024.000	3.03384	-0.12913	2.97863	-0.49270
3025.000	2.99244	-0.09338	3.06735	-0.50259
3026.000	2.99638	-0.10728	2.99046	-0.44104
3027.000	3.03581	-0.14502	2.98849	-0.40727
3028.000	3.04961	-0.08344	3.03384	-0.48076
3029.000	3.00624	-0.14900	2.99638	-0.45495
3030.000	3.00821	-0.15695	3.05355	-0.48869
3031.000	3.00426	-0.12119	3.02398	-0.43904
3032.000	3.06144	-0.09734	3.01609	-0.50063
3033.000	3.03187	-0.11721	3.03187	-0.39534
3034.000	3.00032	-0.11126	3.06538	-0.55623
3035.000	3.01609	-0.14304	3.06144	-0.50458
3036.000	3.02398	-0.10132	3.05947	-0.47280
3037.000	3.02989	-0.10529	2.96286	-0.50463
3038.000	3.04961	-0.07946	2.98061	-0.47283
3039.000	3.03975	-0.10728	3.04764	-0.57610
3040.000	3.01018	-0.08543	3.06932	-0.46286
3041.000	3.00426	-0.11920	3.02004	-0.52049
3042.000	2.99441	-0.11126	3.09101	-0.52046
3043.000	3.02989	-0.10132	3.03778	-0.50062
3044.000	3.01609	-0.11721	3.01412	-0.47083
3045.000	3.04567	-0.09138	3.03778	-0.42116
3046.000	3.04172	-0.11125	3.03975	-0.43904
3047.000	3.03581	-0.08145	2.98258	-0.41920
3048.000	3.04172	-0.08940	3.03778	-0.43109
3049.000	3.02792	-0.09735	3.09101	-0.51053
3050.000	3.01215	-0.10728	3.03187	-0.41123
3051.000	3.02398	-0.09337	3.04369	-0.44897
3052.000	3.03384	-0.10927	3.01018	-0.50659
3053.000	2.98652	-0.12715	3.08312	-0.44697
3054.000	2.98061	-0.10132	2.96878	-0.41324
3055.000	3.01018	-0.13509	3.06144	-0.41321
3056.000	2.98455	-0.14503	3.03581	-0.37150
3057.000	3.01807	-0.16688	3.05355	-0.52246
3058.000	3.01807	-0.07549	3.07918	-0.53040
3059.000	3.00426	-0.13112	3.06735	-0.44300
3060.000	2.95695	-0.11921	3.03975	-0.43904
3061.000	3.02792	-0.09337	2.98455	-0.48475
3062.000	2.98455	-0.12914	3.10086	-0.50059
3063.000	2.98258	-0.15894	3.04172	-0.50062
3064.000	3.01609	-0.13311	3.05749	-0.48869
3065.000	3.00032	-0.11523	2.97272	-0.43112
3066.000	2.96878	-0.18278	2.98849	-0.48475
3067.000	2.97469	-0.12119	3.04567	-0.43109
3068.000	2.98258	-0.15298	3.05749	-0.48472
3069.000	2.94117	-0.10530	2.96089	-0.43907
3070.000	3.00032	-0.13311	3.01609	-0.44898
3071.000	2.94709	-0.14305	3.03581	-0.52645
3072.000	3.01412	-0.12913	3.00821	-0.42713
3073.000	3.02595	-0.10927	2.95695	-0.49668
3074.000	3.00032	-0.14503	3.06341	-0.47479
3075.000	3.01412	-0.12516	2.98061	-0.45893
3076.000	2.98849	-0.14900	3.09101	-0.43504
3077.000	2.98455	-0.15894	3.05158	-0.47280
3078.000	3.02004	-0.13311	2.98455	-0.44303
3079.000	3.00032	-0.13112	3.00229	-0.44700
3080.000	3.00624	-0.12119	3.04567	-0.46883
3081.000	3.00229	-0.15894	3.06932	-0.38738
3082.000	3.00624	-0.14702	3.08115	-0.43306
3083.000	2.98849	-0.12715	3.06538	-0.45889
3084.000	2.99835	-0.13907	2.99638	-0.53441
3085.000	3.01609	-0.11523	3.05355	-0.50459
3086.000	2.95497	-0.20464	3.00426	-0.46686
3087.000	2.99638	-0.18476	3.04961	-0.48671
3088.000	3.02989	-0.13708	3.07129	-0.45889
3089.000	3.00624	-0.15496	3.01412	-0.56817
3090.000	3.00821	-0.20264	2.99441	-0.50064
3091.000	2.97469	-0.15497	2.98849	-0.46091
3092.000	3.04369	-0.10330	2.96483	-0.49072
3093.000	2.95497	-0.16292	3.09495	-0.50854
3094.000	2.94511	-0.15298	3.04764	-0.49863
3095.000	3.01215	-0.11920	3.00426	-0.44501
3096.000	3.00032	-0.12715	3.05552	-0.46486
3097.000	3.02004	-0.12119	3.03581	-0.47678
3098.000	3.00032	-0.15099	3.03581	-0.48870
3099.000	2.95695	-0.15696	3.04172	-0.43506
3100.000	2.99441	-0.13708	3.02201	-0.48275
3101.000	2.99046	-0.13907	2.98652	-0.40926
3102.000	2.99638	-0.13510	3.00624	-0.51255
3103.000	2.95892	-0.14305	3.04369	-0.52644
3104.000	2.95497	-0.16888	3.00821	-0.39137
3105.000	2.98061	-0.16490	2.99244	-0.39138
3106.000	2.98652	-0.18675	2.97075	-0.40529
3107.000	2.97863	-0.14503	2.99046	-0.48475
3108.000	3.01412	-0.16887	3.01215	-0.44501
3109.000	3.00624	-0.21456	3.10678	-0.43702
3110.000	2.99244	-0.16490	3.03581	-0.45891
3111.000	2.98849	-0.17881	3.04961	-0.34368
3112.000	3.01018	-0.16291	3.07524	-0.41121
3113.000	2.98455	-0.19073	3.10481	-0.40922
3114.000	2.99441	-0.14900	3.08904	-0.40326
3115.000	3.00229	-0.12318	3.04764	-0.31786
3116.000	2.96878	-0.14503	3.08904	-0.35360
3117.000	3.02595	-0.16291	3.01807	-0.35760
3118.000	3.01412	-0.12913	3.04961	-0.39136
3119.000	3.01215	-0.13112	3.06932	-0.32381
3120.000	3.01412	-0.12119	2.99835	-0.32979
3121.000	2.99244	-0.12318	3.04567	-0.37149
3122.000	2.97272	-0.10728	3.02004	-0.33376
3123.000	2.99638	-0.10728	3.06538	-0.39334
3124.000	2.95300	-0.15497	3.01018	-0.36157
3125.000	2.97272	-0.17285	3.07918	-0.42512
3126.000	2.97863	-0.17285	2.99638	-0.36952
3127.000	2.98652	-0.13510	3.00426	-0.40329
3128.000	3.00821	-0.16688	3.02989	-0.37349
3129.000	2.99638	-0.18476	3.02792	-0.44699
3130.000	2.97075	-0.15099	3.04172	-0.34170
3131.000	3.00032	-0.16490	3.04961	-0.31786
3132.000	2.94906	-0.19073	3.04369	-0.36554
3133.000	2.95892	-0.12914	3.07918	-0.40128
3134.000	3.01215	-0.16688	3.04961	-0.41917
3135.000	2.98849	-0.18874	3.03187	-0.31786
3136.000	2.97863	-0.17881	3.04567	-0.34964
3137.000	3.01018	-0.14503	3.01215	-0.32383
3138.000	2.97272	-0.18079	3.06932	-0.40923
3139.000	3.00624	-0.16688	3.05749	-0.33176
3140.000	2.99046	-0.17284	2.99835	-0.39734
3141.000	2.93920	-0.20067	3.03778	-0.41917
3142.000	2.95892	-0.20066	3.04567	-0.33971
3143.000	2.99244	-0.21059	3.02201	-0.37349
3144.000	3.00624	-0.15695	3.05749	-0.34964
3145.000	2.95103	-0.16888	3.10086	-0.39134
3146.000	2.98849	-0.19470	3.04961	-0.38341
3147.000	2.94709	-0.19471	3.00821	-0.40131
3148.000	2.96878	-0.19073	3.00624	-0.33972
3149.000	2.97469	-0.21457	3.09692	-0.38339
3150.000	3.00032	-0.20066	3.00229	-0.42117
3151.000	2.97863	-0.22251	3.04567	-0.39931
3152.000	2.96089	-0.18278	3.05749	-0.34765
3153.000	3.04764	-0.15694	3.03975	-0.39931
3154.000	3.03384	-0.13708	3.05552	-0.37745
3155.000	3.00032	-0.17284	3.03581	-0.38342
3156.000	3.05158	-0.15098	3.09298	-0.35559
3157.000	3.04567	-0.11324	2.99638	-0.41720
3158.000	3.02004	-0.17284	3.02989	-0.38739
3159.000	3.02004	-0.16688	3.06538	-0.42711
3160.000	3.03975	-0.13708	2.98061	-0.40529
3161.000	3.00624	-0.17483	3.07918	-0.38539
3162.000	3.02201	-0.13907	3.06144	-0.36354
3163.000	3.01215	-0.17284	3.09495	-0.39531
3164.000	3.02792	-0.21257	3.04961	-0.42513
3165.000	2.97469	-0.15497	3.08509	-0.38141
3166.000	3.02989	-0.18476	3.06932	-0.38539
3167.000	3.01018	-0.19271	3.09692	-0.40326
3168.000	3.01018	-0.16489	3.10086	-0.41319
3169.000	3.00426	-0.21655	3.06735	-0.39135
3170.000	3.00032	-0.21059	2.98652	-0.39535
3171.000	3.03187	-0.20860	3.04172	-0.34368
3172.000	3.01412	-0.18873	3.08509	-0.35360
3173.000	2.99638	-0.15496	3.04961	-0.37149
3174.000	3.02989	-0.14105	3.02792	-0.34170
3175.000	3.02004	-0.18079	3.12058	-0.45092
3176.000	3.05552	-0.17879	3.06735	-0.39930
3177.000	3.07129	-0.16489	3.09692	-0.33572
3178.000	3.05552	-0.16290	3.14817	-0.32974
3179.000	3.00624	-0.17880	3.15211	-0.33570
3180.000	3.02004	-0.21655	3.11663	-0.34962
3181.000	3.06341	-0.16489	3.11072	-0.32777
3182.000	2.99638	-0.17483	3.11072	-0.32181
3183.000	3.02398	-0.19469	3.16197	-0.39529
3184.000	3.03187	-0.14900	3.04764	-0.38937
3185.000	3.02792	-0.15297	3.05552	-0.40129
3186.000	3.05552	-0.12913	3.03384	-0.37547
3187.000	3.06144	-0.17482	3.09692	-0.33175
3188.000	3.05355	-0.20462	3.13634	-0.38338
3189.000	3.06735	-0.18873	3.08312	-0.47478
3190.000	3.04172	-0.17880	3.14423	-0.39132
3191.000	3.01609	-0.17681	3.15014	-0.40523
3192.000	3.07918	-0.17084	3.14423	-0.37940
3193.000	3.02792	-0.18873	3.15803	-0.33967
3194.000	3.03778	-0.17880	3.16985	-0.39330
3195.000	3.04567	-0.22250	3.15605	-0.37344
3196.000	3.07327	-0.24435	3.15803	-0.40721
3197.000	3.06735	-0.22448	3.13043	-0.42510
3198.000	3.08904	-0.20461	3.09495	-0.36353
3199.000	3.00624	-0.19470	3.13634	-0.38139
3200.000	3.02989	-0.21058	3.16000	-0.30988
3201.000	3.05552	-0.20859	3.05552	-0.31785
3202.000	3.04961	-0.22250	3.14620	-0.36947
3203.000	3.04567	-0.18476	3.11269	-0.31386
3204.000	3.06932	-0.16687	3.11072	-0.33373
3205.000	3.05749	-0.19469	3.09889	-0.34168
3206.000	3.04172	-0.23243	3.14029	-0.36947
3207.000	2.99441	-0.20066	3.21912	-0.30390
3208.000	3.02792	-0.19469	3.22504	-0.36944
3209.000	3.03187	-0.19866	3.10481	-0.39332
3210.000	2.99441	-0.17483	3.15408	-0.33372
3211.000	3.02004	-0.17085	3.04961	-0.27614
3212.000	3.01018	-0.17880	3.11269	-0.43504
3213.000	3.04369	-0.19668	3.12255	-0.33174
3214.000	3.03187	-0.19270	3.04961	-0.32580
3215.000	3.00229	-0.17682	3.12255	-0.29598
3216.000	3.02004	-0.18675	3.16591	-0.36152
3217.000	3.05158	-0.20065	3.16591	-0.41118
3218.000	3.01609	-0.20860	3.11860	-0.38140
3219.000	3.01609	-0.19867	3.19547	-0.35952
3220.000	3.00426	-0.22052	3.21715	-0.38136
3221.000	2.99244	-0.16490	3.15014	-0.37344
3222.000	3.01412	-0.20860	3.21518	-0.42903
3223.000	3.04172	-0.20462	3.12255	-0.34962
3224.000	3.07721	-0.23243	3.12255	-0.35160
3225.000	3.06341	-0.20660	3.13832	-0.35756
3226.000	3.02004	-0.24436	3.10678	-0.34962
3227.000	3.03187	-0.26224	3.10086	-0.33373
3228.000	3.03975	-0.20264	3.23489	-0.35355
3229.000	3.03975	-0.26621	3.09889	-0.32976
3230.000	2.99244	-0.23245	3.14423	-0.35358
3231.000	3.02792	-0.26025	3.10283	-0.27016
3232.000	3.00624	-0.29403	3.13043	-0.35359
3233.000	3.05947	-0.24634	3.08904	-0.34367
3234.000	3.05355	-0.27415	3.22306	-0.42506
3235.000	3.02201	-0.23443	3.12649	-0.28009
3236.000	2.99638	-0.27019	3.13832	-0.38934
3237.000	3.04369	-0.27415	3.07524	-0.48868
3238.000	3.04172	-0.20462	3.15605	-0.38337
3239.000	3.03187	-0.26422	3.16591	-0.39131
3240.000	3.03187	-0.22846	3.15408	-0.39926
3241.000	3.02398	-0.26224	3.10086	-0.32380
3242.000	3.05158	-0.23243	3.12255	-0.34962
3243.000	3.07327	-0.25627	3.10875	-0.33969
3244.000	3.02201	-0.33574	3.13240	-0.33571
3245.000	3.03384	-0.27614	3.18562	-0.34960
3246.000	3.02398	-0.23244	3.09889	-0.34764
3247.000	3.06341	-0.27017	3.10086	-0.36552
3248.000	3.03187	-0.28012	3.09101	-0.35559
3249.000	3.04961	-0.30594	3.19153	-0.28206
3250.000	3.01018	-0.29403	3.13240	-0.34763
3251.000	3.03975	-0.28806	3.18365	-0.32179
3252.000	3.06144	-0.29997	3.19941	-0.37343
3253.000	3.04764	-0.25429	3.11466	-0.28605
3254.000	3.02004	-0.31190	3.16000	-0.31981
3255.000	3.03187	-0.32779	3.22504	-0.36547
3256.000	3.03187	-0.27217	3.16591	-0.30988
3257.000	3.05355	-0.22051	3.17971	-0.27412
3258.000	3.05947	-0.24832	3.21715	-0.29596
3259.000	3.05749	-0.24435	3.26248	-0.30985
3260.000	3.01018	-0.25429	3.24080	-0.28403
3261.000	3.05552	-0.23839	3.15014	-0.35159
3262.000	3.01412	-0.23840	3.21518	-0.30986
3263.000	3.02792	-0.30992	3.16394	-0.37543
3264.000	3.01609	-0.24833	3.15408	-0.42906
3265.000	2.99638	-0.29800	3.27627	-0.31580
3266.000	3.01215	-0.27615	3.16788	-0.27809
3267.000	2.98455	-0.27218	3.20533	-0.33370
3268.000	3.03975	-0.25826	3.19547	-0.32774
3269.000	3.00032	-0.29800	3.05749	-0.35361
3270.000	2.98652	-0.29205	3.16000	-0.43899
3271.000	2.96483	-0.33775	3.14226	-0.28406
3272.000	2.98652	-0.32185	3.19350	-0.32973
3273.000	3.01018	-0.30992	3.18759	-0.37144
3274.000	3.02398	-0.28409	3.23292	-0.29794
3275.000	2.96878	-0.32185	3.18759	-0.43500
3276.000	3.00032	-0.33575	3.25065	-0.32574
3277.000	2.98849	-0.31986	3.20139	-0.28603
3278.000	2.97863	-0.31589	3.20730	-0.34164
3279.000	2.97075	-0.34569	3.18562	-0.43898
3280.000	3.00229	-0.37747	3.25263	-0.33368
3281.000	2.96089	-0.31987	3.23686	-0.38930
3282.000	2.97469	-0.35364	3.13634	-0.37941
3283.000	3.01215	-0.30992	3.17182	-0.38734
3284.000	2.99638	-0.33178	3.21124	-0.41513
3285.000	2.99441	-0.31589	3.18956	-0.27014
3286.000	3.04961	-0.35560	3.16985	-0.43501
3287.000	2.98849	-0.35165	3.18956	-0.35953
3288.000	3.00624	-0.32582	3.21912	-0.41116
3289.000	3.01018	-0.31588	3.17774	-0.32775
3290.000	3.00821	-0.33177	3.25263	-0.33567
3291.000	2.99638	-0.34171	3.12649	-0.33571
3292.000	3.00032	-0.29800	3.16985	-0.37145
3293.000	3.00032	-0.33972	3.13634	-0.28207
3294.000	2.98258	-0.33576	3.24868	-0.32177
3295.000	2.95695	-0.34570	3.14620	-0.35755
3296.000	2.99835	-0.32979	3.24868	-0.38532
3297.000	2.97075	-0.30993	3.16394	-0.29001
3298.000	2.97863	-0.27218	3.15408	-0.33173
3299.000	2.97272	-0.30993	3.23095	-0.34958
3300.000	3.02004	-0.29403	3.12846	-0.36352
3301.000	2.97075	-0.30795	3.15014	-0.29995
3302.000	2.96286	-0.30795	3.19744	-0.29795
3303.000	2.97075	-0.31788	3.23095	-0.31780
3304.000	2.98455	-0.33973	3.23095	-0.35951
3305.000	2.94511	-0.31987	3.10875	-0.36949
3306.000	2.98455	-0.30198	3.18956	-0.28603
3307.000	2.96286	-0.32583	3.26051	-0.29793
3308.000	2.98455	-0.30595	3.21912	-0.35356
3309.000	2.94906	-0.29603	3.20927	-0.36548
3310.000	2.94314	-0.35563	3.26445	-0.38333
3311.000	2.99835	-0.31390	3.20927	-0.35952
3312.000	3.01215	-0.32184	3.26642	-0.38929
3313.000	2.97863	-0.32980	3.18168	-0.35953
3314.000	2.98258	-0.31390	3.16788	-0.30590
3315.000	2.99638	-0.31787	3.18956	-0.30192
3316.000	2.98849	-0.30794	3.29204	-0.31580
3317.000	2.99244	-0.26026	3.24868	-0.32574
3318.000	2.95892	-0.29007	3.23095	-0.27808
3319.000	2.93526	-0.28809	3.25657	-0.30985
3320.000	2.91554	-0.32783	3.28021	-0.27012
3321.000	2.95300	-0.32384	3.23883	-0.31978
3322.000	2.97075	-0.26821	3.24868	-0.25821
3323.000	2.91357	-0.31790	3.22898	-0.26020
3324.000	2.89582	-0.29604	3.29992	-0.30785
3325.000	2.88596	-0.33181	3.19547	-0.29398
3326.000	2.92540	-0.28412	3.31568	-0.22046
3327.000	2.91948	-0.27816	3.25657	-0.26019
3328.000	2.86821	-0.31195	3.33341	-0.25024
3329.000	2.85638	-0.28016	3.26445	-0.22841
3330.000	2.84257	-0.32388	3.31962	-0.27209
3331.000	2.91357	-0.27617	3.27233	-0.28800
3332.000	2.89976	-0.27618	3.29795	-0.18670
3333.000	2.88596	-0.29207	3.35115	-0.21648
3334.000	2.88004	-0.30797	3.32750	-0.22244
3335.000	2.88990	-0.33578	3.27430	-0.20259
3336.000	2.92934	-0.24239	3.23095	-0.19863
3337.000	2.86624	-0.30599	3.34918	-0.10327
3338.000	2.94511	-0.26027	3.29204	-0.23436
3339.000	2.90962	-0.27617	3.27036	-0.12513
3340.000	2.88990	-0.21856	3.32947	-0.09335
3341.000	2.92342	-0.24637	3.30386	-0.19663
3342.000	2.97469	-0.19669	3.26248	-0.06753
3343.000	2.92540	-0.23047	3.28218	-0.12116
3344.000	2.96878	-0.20464	3.25657	-0.09534
3345.000	2.93723	-0.24835	3.26445	-0.12116
3346.000	2.93131	-0.21259	3.33538	-0.04965
3347.000	2.95892	-0.17285	3.32356	0.00000
3348.000	2.95497	-0.15298	3.25657	-0.05561
3349.000	2.93131	-0.12517	3.27233	-0.02582
3350.000	2.81496	-0.06756	3.19350	-0.01589
3351.000	2.75776	-0.05961	3.17971	0.06754
3352.000	2.60981	-0.05565	3.15605	0.05562
3353.000	2.42236	-0.06957	3.08312	-0.02583
3354.000	2.27828	-0.13517	2.96483	0.00199
3355.000	2.17958	-0.15109	2.84652	-0.03378
3356.000	1.96635	-0.17894	2.73212	-0.10731
3357.000	1.79058	-0.29230	2.59403	-0.12123
3358.000	1.57132	-0.36591	2.51708	-0.31601
3359.000	1.37573	-0.40373	2.40065	-0.30610
3360.000	1.22555	-0.48530	2.26644	-0.34589
3361.000	1.07141	-0.58477	2.13023	-0.35188
3362.000	0.95678	-0.69816	2.06507	-0.42943
3363.000	0.87377	-0.75188	2.03743	-0.41353
3364.000	0.80063	-0.93287	2.06507	-0.38967
3365.000	0.64052	-1.36242	1.98017	-0.44934
3366.000	0.57331	-1.39624	2.00979	-0.41951
3367.000	0.49622	-1.25906	1.95647	-0.33601
3368.000	0.46261	-1.05624	2.04533	-0.38371
3369.000	0.49819	-0.75790	2.08679	-0.48708
3370.000	0.43493	-0.49136	NaN	NaN
3371.000	0.36772	-0.17308	NaN	NaN
3372.000	0.33213	0.08554	NaN	NaN
3373.000	0.21945	0.48143	NaN	NaN
3374.000	0.08106	0.70621	NaN	NaN
3375.000	-0.03756	1.00058	NaN	NaN
3376.000	NaN	NaN	NaN	NaN
3377.000	NaN	NaN	NaN	NaN
3378.000	NaN	NaN	NaN	NaN
3379.000	NaN	NaN	NaN	NaN
3380.000	NaN	NaN	NaN	NaN
3381.000	NaN	NaN	NaN	NaN
3382.000	NaN	NaN	NaN	NaN
3383.000	NaN	NaN	NaN	NaN
3384.000	NaN	NaN	NaN	NaN
3385.000	NaN	NaN	NaN	NaN
3386.000	NaN	NaN	NaN	NaN
3387.000	NaN	NaN	NaN	NaN
3388.000	NaN	NaN	NaN	NaN
3389.000	NaN	NaN	NaN	NaN
3390.000	NaN	NaN	NaN	NaN
3391.000	NaN	NaN	NaN	NaN
3392.000	NaN	NaN	NaN	NaN
3393.000	NaN	NaN	NaN	NaN
3394.000	NaN	NaN	NaN	NaN
3395.000	NaN	NaN	NaN	NaN
3396.000	NaN	NaN	NaN	NaN
3397.000	NaN	NaN	NaN	NaN
3398.000	NaN	NaN	NaN	NaN
3399.000	NaN	NaN	NaN	NaN
3400.000	NaN	NaN	NaN	NaN
3401.000	NaN	NaN	NaN	NaN
3402.000	NaN	NaN	NaN	NaN
3403.000	NaN	NaN	NaN	NaN
3404.000	NaN	NaN	NaN	NaN
3405.000	NaN	NaN	NaN	NaN
3406.000	NaN	NaN	NaN	NaN
3407.000	NaN	NaN	NaN	NaN
3408.000	NaN	NaN	NaN	NaN
3409.000	NaN	NaN	NaN	NaN
3410.000	NaN	NaN	NaN	NaN
3411.000	NaN	NaN	NaN	NaN
3412.000	NaN	NaN	NaN	NaN
3413.000	NaN	NaN	NaN	NaN
3414.000	NaN	NaN	NaN	NaN
3415.000	NaN	NaN	NaN	NaN
3416.000	NaN	NaN	NaN	NaN
3417.000	NaN	NaN	NaN	NaN
3418.000	NaN	NaN	NaN	NaN
3419.000	NaN	NaN	NaN	NaN
3420.000	NaN	NaN	NaN	NaN
3421.000	NaN	NaN	NaN	NaN
3422.000	-2.20525	2.08644	NaN	NaN
3423.000	-2.43420	2.20916	NaN	NaN
3424.000	-2.76368	2.14112	NaN	NaN
3425.000	-2.58219	2.08190	NaN	NaN
3426.000	-2.43815	1.93522	NaN	NaN
3427.000	-2.24867	1.86598	28.72630	-2.67600
3428.000	-2.17761	1.68534	15.36557	-1.87545
3429.000	-2.06902	1.52057	-0.75319	0.08156
3430.000	-1.95252	1.41934	-0.63064	0.64650
3431.000	-1.90513	1.22662	-0.61680	0.41775
3432.000	-1.77873	1.07763	-0.52191	0.71414
3433.000	-1.76886	0.95439	-0.51005	0.76586
3434.000	-1.61083	0.89084	-0.51994	0.81359
3435.000	-1.57132	0.81531	-0.45865	0.79570
3436.000	-1.53971	0.66818	-0.47645	0.87724
3437.000	-1.51996	0.55683	-0.52191	0.86133
3438.000	-1.51798	0.41166	-0.50610	0.91105
3439.000	-1.35992	0.47533	-0.51203	0.96872
3440.000	-1.30657	0.36198	-0.46459	0.90708
3441.000	-1.26903	0.30828	-0.55354	1.00253
3442.000	-1.18603	0.22675	-0.54564	0.99060
3443.000	-1.12675	0.19095	-0.54761	1.06418
3444.000	-1.04177	0.13327	-0.46063	1.06419
3445.000	-0.97654	0.07161	-0.40726	1.00851
3446.000	-0.92713	0.02387	-0.36376	1.03835
3447.000	-0.82633	0.07161	-0.35981	1.10796
3448.000	-0.84017	-0.02785	-0.38156	1.09204
3449.000	-0.75319	0.05968	-0.36376	1.08011
3450.000	-0.71366	-0.02188	-0.33213	1.00256
3451.000	-0.74726	0.05371	-0.33411	1.05824
3452.000	-0.71959	0.58483	-0.21549	1.05626
3453.000	-0.67017	0.66042	-0.26294	0.95682
3454.000	-0.68994	0.72009	-0.20956	0.97671
3455.000	-0.59506	0.82551	-0.19375	0.98865
3456.000	-0.57529	0.82552	-0.19177	0.96478
3457.000	-0.52982	0.91304	-0.19968	0.92301
3458.000	-0.53773	0.97668	-0.17595	0.91705
3459.000	-0.50610	0.99657	-0.23131	0.99461
3460.000	-0.46261	1.05027	-0.17200	1.01848
3461.000	-0.45470	1.04232	-0.06326	0.96479
3462.000	-0.40133	1.05028	-0.08699	0.96081
3463.000	-0.42505	1.06619	-0.09490	0.99263
3464.000	-0.37563	1.09205	-0.01582	1.03837
3465.000	-0.34004	1.08211	0.02966	0.96081
3466.000	-0.29457	1.12586	0.00791	0.93296
3467.000	-0.35388	1.05227	0.06920	0.99064
3468.000	-0.36574	1.07415	0.09885	0.99064
3469.000	-0.39737	1.08011	0.08303	0.93694
3470.000	-0.37958	1.06221	-0.01186	0.94490
3471.000	-0.40726	1.06619	0.00198	0.92501
3472.000	-0.45272	1.01050	-0.06920	0.86534
3473.000	-0.44679	0.97868	-0.07117	0.87528
3474.000	-0.40330	1.03835	-0.10280	0.88324
3475.000	-0.41121	1.00056	-0.09687	0.82755
3476.000	-0.45075	0.99459	-0.05536	0.85539
3477.000	-0.41516	1.01846	-0.10478	0.85141
3478.000	-0.44679	0.98464	-0.18979	0.85738
3479.000	-0.48435	1.04430	-0.09094	0.85738
3480.000	-0.46854	1.02442	-0.11664	0.86733
3481.000	-0.47447	1.03635	-0.09687	0.85937
3482.000	-0.47645	1.03237	-0.07117	0.92501
3483.000	-0.47645	1.06220	-0.01977	0.88523
3484.000	-0.44284	1.10795	-0.13444	0.90909
3485.000	-0.48238	1.10595	-0.06722	0.98666
3486.000	-0.39737	1.14772	-0.00989	0.96280
3487.000	-0.41121	1.14176	-0.01384	0.93296
3488.000	-0.40923	1.17556	-0.03954	1.01252
3489.000	-0.40528	1.15170	-0.00198	1.00854
3490.000	-0.43098	1.14971	0.01384	1.00058
3491.000	-0.41912	1.16164	-0.02175	1.03837
3492.000	-0.40528	1.17755	0.02175	1.01650
3493.000	-0.41516	1.14176	0.02966	1.05826
3494.000	-0.37365	1.13381	0.00989	1.02047
3495.000	-0.35783	1.13580	0.08699	1.04633
3496.000	-0.33609	1.10796	0.03163	1.02644
3497.000	-0.32620	1.11790	-0.00593	1.01848
3498.000	-0.35190	1.08409	0.00989	1.04633
3499.000	-0.34993	1.08608	0.01186	1.03439
3500.000	-0.31236	1.06620	-0.02372	1.06025
3501.000	-0.36376	1.01250	0.07513	0.99263
3502.000	-0.35388	0.97073	-0.01186	1.05627
3503.000	-0.36772	1.03835	-0.01186	1.03837
3504.000	-0.34202	1.01847	0.02768	1.06820
3505.000	-0.33016	0.97074	-0.02372	1.13184
3506.000	-0.35981	0.90709	-0.04943	1.11792
3507.000	-0.31434	0.88323	0.01779	1.11593
3508.000	-0.36376	0.87527	0.04547	1.18355
3509.000	-0.34993	0.86135	0.07315	1.16764
3510.000	-0.37365	0.86930	-0.04745	1.18951
3511.000	-0.36969	0.86930	0.03163	1.20940
3512.000	-0.38749	0.86333	0.03954	1.22133
3513.000	-0.41121	0.80366	0.02372	1.25116
3514.000	-0.38353	0.84344	0.05338	1.30484
3515.000	-0.40528	0.85139	-0.00395	1.29888
3516.000	-0.39539	0.81162	0.03361	1.32274
3517.000	-0.38749	0.85537	-0.01582	1.28894
3518.000	-0.41714	0.81559	-0.02570	1.33268
3519.000	-0.43493	0.44561	0.02570	1.28695
3520.000	-0.42307	0.80167	0.00791	1.29291
3521.000	-0.39935	0.81361	0.00198	1.24917
3522.000	-0.44877	0.28448	0.02372	1.25712
3523.000	-0.38156	0.78576	0.06129	1.27104
3524.000	-0.36969	0.77979	0.05140	1.31876
3525.000	-0.39144	0.45158	-0.01384	1.26309
3526.000	-0.39935	0.75791	0.01384	1.21337
3527.000	-0.37563	0.35411	0.01977	1.25911
3528.000	-0.38946	0.39190	0.04547	1.28695
3529.000	-0.35586	0.69029	0.03559	1.30683
3530.000	-0.37760	0.73206	0.05140	1.25513
3531.000	-0.36772	0.78775	0.02175	1.28496
3532.000	-0.37958	0.80764	0.03756	1.28695
3533.000	-0.37563	0.77383	0.07117	1.23525
3534.000	-0.37167	0.85140	0.05536	1.27104
3535.000	-0.41121	0.85736	0.02570	1.24320
3536.000	-0.37563	0.84344	0.02372	1.27303
3537.000	-0.34202	0.86135	0.03954	1.23525
3538.000	-0.37563	0.87924	-0.03954	1.22531
3539.000	-0.35586	0.90510	0.02175	1.24718
3540.000	-0.32422	0.91903	0.07117	1.23127
3541.000	-0.34597	0.93295	0.05733	1.18355
3542.000	-0.34202	0.99062	0.10083	1.16565
3543.000	-0.32422	0.98267	0.02966	1.20741
3544.000	-0.32620	0.92499	0.03756	1.15571
3545.000	-0.29457	1.01449	0.05733	1.21139
3546.000	-0.36574	0.98664	0.06722	1.18355
3547.000	-0.30841	1.00853	0.03361	1.19150
3548.000	-0.33411	0.98267	0.07513	1.14974
3549.000	-0.34202	0.97869	0.00989	1.21934
3550.000	-0.32620	0.99858	0.02768	1.21735
3551.000	-0.31236	1.00654	0.00791	1.21338
3552.000	-0.34795	1.01648	0.00000	1.24121
3553.000	-0.32422	0.96079	0.01779	1.20940
3554.000	-0.31829	1.04233	0.07710	1.22332
3555.000	-0.34993	0.95880	0.00395	1.26905
3556.000	-0.33806	0.91902	0.03559	1.24320
3557.000	-0.32422	0.91306	-0.02175	1.22531
3558.000	-0.31434	0.99858	0.02372	1.24718
3559.000	-0.31829	0.90113	-0.01384	1.29093
3560.000	-0.35190	0.84543	0.00000	1.33865
3561.000	-0.34795	0.80565	0.04349	1.39432
3562.000	-0.34399	0.81162	0.05733	1.36251
3563.000	-0.32225	0.68233	-0.01384	1.38637
3564.000	-0.37167	0.52121	0.02175	1.44999
3565.000	-0.40330	0.52319	-0.03756	1.45595
3566.000	-0.42900	0.59281	0.04349	1.48975
3567.000	-0.42900	0.64055	-0.04745	1.50963
3568.000	-0.46459	0.65646	-0.01582	1.51957
3569.000	-0.50017	0.84144	-0.04349	1.47385
3570.000	-0.59703	0.95479	0.07908	1.32473
3571.000	-0.63657	1.17154	NaN	NaN
3572.000	-0.70773	1.39819	NaN	NaN
3573.000	-0.75517	1.73808	NaN	NaN
3574.000	-0.87574	2.07781	NaN	NaN
3575.000	-0.91132	2.45117	NaN	NaN
3576.000	-0.95876	2.80843	NaN	NaN
3577.000	-1.06746	3.22489	NaN	NaN
3578.000	-1.22555	3.47248	NaN	NaN
3579.000	-1.28879	3.80915	NaN	NaN
3580.000	NaN	NaN	NaN	NaN
3581.000	NaN	NaN	NaN	NaN
3582.000	NaN	NaN	NaN	NaN
3583.000	NaN	NaN	NaN	NaN
3584.000	NaN	NaN	NaN	NaN
3585.000	NaN	NaN	NaN	NaN
3586.000	NaN	NaN	NaN	NaN
3587.000	NaN	NaN	NaN	NaN
3588.000	NaN	NaN	NaN	NaN
3589.000	NaN	NaN	NaN	NaN
3590.000	NaN	NaN	NaN	NaN
3591.000	NaN	NaN	NaN	NaN
3592.000	NaN	NaN	NaN	NaN
3593.000	NaN	NaN	NaN	NaN
3594.000	NaN	NaN	NaN	NaN
3595.000	NaN	NaN	NaN	NaN
3596.000	NaN	NaN	NaN	NaN
3597.000	NaN	NaN	NaN	NaN
3598.000	NaN	NaN	NaN	NaN
3599.000	NaN	NaN	NaN	NaN
3600.000	NaN	NaN	NaN	NaN
3601.000	NaN	NaN	NaN	NaN
3602.000	NaN	NaN	NaN	NaN
3603.000	NaN	NaN	NaN	NaN
3604.000	NaN	NaN	NaN	NaN
3605.000	NaN	NaN	NaN	NaN
3606.000	NaN	NaN	NaN	NaN
3607.000	NaN	NaN	NaN	NaN
3608.000	NaN	NaN	NaN	NaN
3609.000	NaN	NaN	NaN	NaN
3610.000	NaN	NaN	NaN	NaN
3611.000	NaN	NaN	NaN	NaN
3612.000	NaN	NaN	NaN	NaN
3613.000	NaN	NaN	NaN	NaN
3614.000	NaN	NaN	NaN	NaN
3615.000	NaN	NaN	NaN	NaN
3616.000	NaN	NaN	NaN	NaN
3617.000	NaN	NaN	NaN	NaN
3618.000	NaN	NaN	NaN	NaN
3619.000	NaN	NaN	NaN	NaN
3620.000	NaN	NaN	NaN	NaN
3621.000	NaN	NaN	NaN	NaN
3622.000	NaN	NaN	NaN	NaN
3623.000	NaN	NaN	NaN	NaN
3624.000	NaN	NaN	NaN	NaN
3625.000	NaN	NaN	NaN	NaN
3626.000	NaN	NaN	NaN	NaN
3627.000	NaN	NaN	NaN	NaN
3628.000	NaN	NaN	NaN	NaN
3629.000	NaN	NaN	NaN	NaN
3630.000	NaN	NaN	NaN	NaN
3631.000	NaN	NaN	NaN	NaN
3632.000	NaN	NaN	NaN	NaN
3633.000	NaN	NaN	NaN	NaN
3634.000	NaN	NaN	NaN	NaN
3635.000	NaN	NaN	NaN	NaN
3636.000	NaN	NaN	NaN	NaN
3637.000	NaN	NaN	NaN	NaN
3638.000	NaN	NaN	NaN	NaN
3639.000	NaN	NaN	NaN	NaN
3640.000	NaN	NaN	NaN	NaN
3641.000	NaN	NaN	NaN	NaN
3642.000	NaN	NaN	NaN	NaN
3643.000	NaN	NaN	NaN	NaN
3644.000	NaN	NaN	NaN	NaN
3645.000	NaN	NaN	NaN	NaN
3646.000	NaN	NaN	NaN	NaN
3647.000	NaN	NaN	NaN	NaN
3648.000	NaN	NaN	NaN	NaN
3649.000	NaN	NaN	NaN	NaN
3650.000	NaN	NaN	NaN	NaN
3651.000	NaN	NaN	NaN	NaN
3652.000	NaN	NaN	NaN	NaN
3653.000	NaN	NaN	NaN	NaN
3654.000	NaN	NaN	NaN	NaN
3655.000	NaN	NaN	NaN	NaN
3656.000	NaN	NaN	NaN	NaN
3657.000	NaN	NaN	NaN	NaN
3658.000	NaN	NaN	NaN	NaN
3659.000	NaN	NaN	NaN	NaN
3660.000	NaN	NaN	NaN	NaN
3661.000	NaN	NaN	NaN	NaN
3662.000	NaN	NaN	NaN	NaN
3663.000	NaN	NaN	NaN	NaN
3664.000	NaN	NaN	NaN	NaN
3665.000	NaN	NaN	NaN	NaN
3666.000	NaN	NaN	NaN	NaN
3667.000	NaN	NaN	NaN	NaN
3668.000	NaN	NaN	NaN	NaN
3669.000	NaN	NaN	NaN	NaN
3670.000	NaN	NaN	NaN	NaN
3671.000	NaN	NaN	NaN	NaN
3672.000	NaN	NaN	NaN	NaN
3673.000	NaN	NaN	NaN	NaN
3674.000	NaN	NaN	NaN	NaN
3675.000	NaN	NaN	NaN	NaN
3676.000	NaN	NaN	NaN	NaN
3677.000	NaN	NaN	NaN	NaN
3678.000	NaN	NaN	NaN	NaN
3679.000	NaN	NaN	NaN	NaN
3680.000	NaN	NaN	NaN	NaN
3681.000	NaN	NaN	NaN	NaN
3682.000	NaN	NaN	NaN	NaN
3683.000	NaN	NaN	NaN	NaN
3684.000	NaN	NaN	NaN	NaN
3685.000	NaN	NaN	NaN	NaN
3686.000	NaN	NaN	NaN	NaN
3687.000	NaN	NaN	NaN	NaN
3688.000	NaN	NaN	NaN	NaN
3689.000	NaN	NaN	NaN	NaN
3690.000	NaN	NaN	NaN	NaN
3691.000	NaN	NaN	NaN	NaN
3692.000	NaN	NaN	NaN	NaN
3693.000	NaN	NaN	NaN	NaN
3694.000	NaN	NaN	NaN	NaN
3695.000	NaN	NaN	NaN	NaN
3696.000	NaN	NaN	NaN	NaN
3697.000	NaN	NaN	NaN	NaN
3698.000	NaN	NaN	NaN	NaN
3699.000	NaN	NaN	NaN	NaN
3700.000	NaN	NaN	NaN	NaN
3701.000	-0.46063	1.16362	NaN	NaN
3702.000	0.24712	1.52751	NaN	NaN
3703.000	0.49028	1.24117	NaN	NaN
3704.000	0.54168	1.16162	NaN	NaN
3705.000	0.64052	0.95080	NaN	NaN
3706.000	0.58320	0.82751	NaN	NaN
3707.000	0.65831	0.65445	NaN	NaN
3708.000	0.70773	0.51720	NaN	NaN
3709.000	0.73936	0.33022	NaN	NaN
3710.000	0.73145	0.20688	NaN	NaN
3711.000	0.79668	0.03978	NaN	NaN
3712.000	0.79866	-0.01392	NaN	NaN
3713.000	0.85400	-0.06962	NaN	NaN
3714.000	0.89946	-0.11537	NaN	NaN
3715.000	0.94690	-0.14919	NaN	NaN
3716.000	1.01014	-0.09548	38.14269	-0.06728
3717.000	1.03188	0.25858	2.18353	-1.65951
3718.000	1.06351	0.40776	2.44210	-0.89635
3719.000	1.10106	0.49725	1.70367	0.55280
3720.000	1.11094	0.53504	1.65627	0.59656
3721.000	1.11291	0.52112	1.65824	0.64826
3722.000	1.14256	0.53504	1.61083	0.70792
3723.000	1.14848	0.56686	1.64639	0.74967
3724.000	1.12477	0.50918	1.68985	0.82321
3725.000	1.12477	0.49725	1.63256	0.80137
3726.000	1.12082	0.47338	1.71750	0.80531
3727.000	1.16825	0.48133	1.67404	0.77153
3728.000	1.12675	0.45349	1.68787	0.74567
3729.000	1.17813	0.43956	1.66812	0.69995
3730.000	1.13860	0.41968	1.62664	0.59856
3731.000	1.15244	0.45946	1.70762	0.64625
3732.000	1.14651	0.43758	1.74515	0.62437
3733.000	1.18010	0.45150	1.73330	0.62835
3734.000	1.18010	0.38387	1.67404	0.56275
3735.000	1.15244	0.43559	1.74120	0.54484
3736.000	1.18801	0.38387	1.78071	0.54681
3737.000	1.17418	0.41172	1.76491	0.53290
3738.000	1.18998	0.40177	1.77478	0.48915
3739.000	1.18208	0.40177	1.73330	0.44940
3740.000	1.19789	0.41172	1.76095	0.45933
3741.000	1.18801	0.41172	1.82218	0.49511
3742.000	1.25124	0.39381	1.79848	0.56073
3743.000	1.20579	0.42962	1.82218	0.54084
3744.000	1.21963	0.45746	1.82613	0.47323
3745.000	1.24927	0.45546	1.79848	0.49313
3746.000	1.25322	0.44552	1.81428	0.42949
3747.000	1.23544	0.44552	1.82613	0.48715
3748.000	1.23741	0.46143	1.72540	0.53291
3749.000	1.23544	0.41967	1.83996	0.45931
3750.000	1.21963	0.40774	1.80243	0.45336
3751.000	1.21765	0.40177	1.82613	0.43347
3752.000	1.21370	0.39580	1.82218	0.36189
3753.000	1.20579	0.38387	1.87353	0.47123
3754.000	1.18406	0.40376	1.87353	0.39767
3755.000	1.17220	0.37194	1.88143	0.42550
3756.000	1.18406	0.36001	1.82416	0.43745
3757.000	1.18208	0.36995	1.90908	0.47918
3758.000	1.15046	0.37791	1.89525	0.46328
3759.000	1.18603	0.35802	1.87551	0.36983
3760.000	1.14453	0.33217	1.88341	0.41954
3761.000	1.17615	0.36399	1.88341	0.41954
3762.000	1.16627	0.33415	1.84588	0.34995
3763.000	1.19394	0.36199	1.83798	0.36189
3764.000	1.19987	0.37393	1.84193	0.35990
3765.000	1.20579	0.38188	1.86168	0.39767
3766.000	1.21370	0.37989	1.86761	0.30223
3767.000	1.19789	0.32818	1.86366	0.25451
3768.000	1.20382	0.35603	1.85971	0.30422
3769.000	1.19196	0.32420	1.80836	0.30025
3770.000	1.20579	0.32619	1.84193	0.30422
3771.000	1.18801	0.32222	1.85576	0.34399
3772.000	1.22753	0.36000	1.87156	0.28036
3773.000	1.23544	0.34409	1.87353	0.31416
3774.000	1.22753	0.33017	1.86958	0.28831
3775.000	1.21567	0.30033	1.86563	0.29428
3776.000	1.21963	0.34210	1.88341	0.32808
3777.000	1.23346	0.35403	1.83403	0.30423
3778.000	1.21172	0.30034	1.86761	0.32013
3779.000	1.23939	0.28840	1.81428	0.23463
3780.000	1.21172	0.28840	1.83206	0.28633
3781.000	1.23741	0.33812	1.87551	0.33404
3782.000	1.23148	0.28243	1.80836	0.33803
3783.000	1.22358	0.29238	1.82613	0.26844
3784.000	1.25322	0.29834	1.85181	0.28036
3785.000	1.20184	0.30034	1.86563	0.33404
3786.000	1.25520	0.29834	1.88933	0.32012
3787.000	1.25124	0.36795	1.86761	0.32410
3788.000	1.28286	0.29834	1.85971	0.32808
3789.000	1.25322	0.28641	1.87353	0.34995
3790.000	1.21963	0.31227	1.86958	0.27439
3791.000	1.23741	0.29238	1.85773	0.30422
3792.000	1.26508	0.30431	1.87156	0.27439
3793.000	1.23741	0.28840	1.86958	0.30422
3794.000	1.24927	0.29834	1.84391	0.28832
3795.000	1.22951	0.23271	1.83601	0.29031
3796.000	1.21963	0.25459	1.81823	0.30622
3797.000	1.26310	0.28044	1.91698	0.26047
3798.000	1.23346	0.26055	1.90710	0.24854
3799.000	1.21765	0.28243	1.90118	0.25649
3800.000	1.22753	0.26254	1.96635	0.25450
3801.000	1.24729	0.23470	1.87748	0.19287
3802.000	1.26903	0.26055	1.94265	0.28432
3803.000	1.25915	0.23470	1.85576	0.25849
3804.000	1.29669	0.23668	1.90710	0.23462
3805.000	1.23741	0.27647	1.92488	0.26842
3806.000	1.26508	0.22873	1.87551	0.24258
3807.000	1.28088	0.24464	1.86958	0.21276
3808.000	1.24334	0.26055	1.89328	0.24059
3809.000	1.27100	0.25856	1.88735	0.31217
3810.000	1.25520	0.23668	1.91500	0.17100
3811.000	1.23741	0.28243	1.88143	0.24854
3812.000	1.26903	0.24663	1.86168	0.17100
3813.000	1.27496	0.25458	1.95647	0.21871
3814.000	1.24532	0.21481	1.93080	0.22865
3815.000	1.26705	0.23867	1.87748	0.21673
3816.000	1.26903	0.18696	1.87156	0.20083
3817.000	1.27298	0.18497	1.96832	0.19684
3818.000	1.25520	0.21481	1.92093	0.18292
3819.000	1.25322	0.20486	1.91698	0.16901
3820.000	1.27100	0.19293	1.88735	0.17895
3821.000	1.24136	0.21879	1.94857	0.22666
3822.000	1.27100	0.23867	1.89328	0.15509
3823.000	1.26705	0.24464	1.97622	0.23064
3824.000	1.31448	0.22475	1.95647	0.18093
3825.000	1.30262	0.25060	1.93672	0.18491
3826.000	1.28879	0.23469	1.94462	0.17895
3827.000	1.25322	0.21878	1.89130	0.18492
3828.000	1.27100	0.25657	1.94857	0.24456
3829.000	1.28681	0.26055	2.01966	0.23063
3830.000	1.31448	0.25458	1.91500	0.19486
3831.000	1.30262	0.21480	1.93870	0.20082
3832.000	1.33819	0.28640	1.98807	0.10935
3833.000	1.27298	0.23668	1.94067	0.24655
3834.000	1.29867	0.22077	1.94462	0.18690
3835.000	1.28484	0.24265	1.95055	0.20877
3836.000	1.31645	0.27248	1.96042	0.26444
3837.000	1.30657	0.24662	1.97819	0.16105
3838.000	1.29472	0.21480	1.98214	0.14912
3839.000	1.29274	0.22475	2.00386	0.13719
3840.000	1.33226	0.23071	1.92685	0.16105
3841.000	1.29472	0.21083	1.92685	0.09345
3842.000	1.30657	0.23469	1.96240	0.16701
3843.000	1.33028	0.25060	1.87748	0.11533
3844.000	1.30855	0.26850	1.93278	0.10737
3845.000	1.28681	0.27845	1.97622	0.14514
3846.000	1.32831	0.27248	1.92488	0.12328
3847.000	1.32040	0.27049	1.95252	0.16105
3848.000	1.30657	0.23071	1.88143	0.16702
3849.000	1.33819	0.23668	1.97424	0.11731
3850.000	1.35992	0.21281	1.87551	0.20082
3851.000	1.29472	0.24861	1.87353	0.10737
3852.000	1.27298	0.24663	1.87946	0.17895
3853.000	1.33621	0.22673	1.88735	0.23462
3854.000	1.29472	0.21679	1.90315	0.19883
3855.000	1.29076	0.18895	1.92883	0.19684
3856.000	1.29669	0.19094	1.86761	0.22866
3857.000	1.34016	0.18696	1.91895	0.23860
3858.000	1.33028	0.15712	1.88341	0.21474
3859.000	1.27693	0.18099	1.92093	0.21474
3860.000	1.30855	0.21679	1.90513	0.19287
3861.000	1.26705	0.17304	1.88538	0.16503
3862.000	1.32040	0.21281	1.89328	0.22667
3863.000	1.29669	0.17304	1.90315	0.16106
3864.000	1.30460	0.19491	2.01769	0.17894
3865.000	1.31843	0.21878	1.89723	0.17299
3866.000	1.30064	0.18497	1.99991	0.17496
3867.000	1.29274	0.20486	1.91698	0.14515
3868.000	1.31843	0.23668	1.90710	0.18094
3869.000	1.28484	0.20287	1.92883	0.20082
3870.000	1.35004	0.19292	1.84391	0.17299
3871.000	1.28879	0.16110	1.93870	0.23263
3872.000	1.31250	0.21480	2.01176	0.19087
3873.000	1.30855	0.19889	1.94660	0.13322
3874.000	1.32238	0.20088	1.96635	0.25450
3875.000	1.30064	0.18895	1.98609	0.23063
3876.000	1.27100	0.18696	1.93672	0.23859
3877.000	1.30064	0.19889	1.90315	0.18094
3878.000	1.30262	0.21480	1.95845	0.18889
3879.000	1.30262	0.16309	1.88933	0.22071
3880.000	1.25520	0.13525	1.91105	0.18690
3881.000	1.32633	0.15911	1.94857	0.17497
3882.000	1.31250	0.16110	1.85378	0.24059
3883.000	1.30855	0.15712	1.96437	0.16900
3884.000	1.28879	0.19491	1.93278	0.24854
3885.000	1.30460	0.13525	1.88538	0.19088
3886.000	1.29274	0.15713	1.85576	0.21475
3887.000	1.31250	0.15116	1.92685	0.26643
3888.000	1.36190	0.17303	1.89525	0.11135
3889.000	1.32436	0.14320	1.93870	0.16702
3890.000	1.35202	0.18894	1.95450	0.16701
3891.000	1.31843	0.17900	1.96635	0.23461
3892.000	1.35004	0.14718	1.95647	0.19087
3893.000	1.35202	0.22872	1.89328	0.23065
3894.000	1.35399	0.15712	1.90710	0.21474
3895.000	1.37178	0.18894	1.86168	0.21276
3896.000	1.35202	0.17701	1.93870	0.13322
3897.000	1.36585	0.17701	1.96240	0.10935
3898.000	1.35399	0.16309	1.92488	0.22070
3899.000	1.35202	0.16905	1.90710	0.16901
3900.000	1.37375	0.14718	1.87156	0.14316
3901.000	1.37178	0.15314	1.97819	0.17497
3902.000	1.32040	0.16110	1.95647	0.14117
3903.000	1.40142	0.17900	1.89920	0.17696
3904.000	1.38758	0.19888	1.86958	0.15112
3905.000	1.36783	0.16508	1.88735	0.20878
3906.000	1.41525	0.15314	1.94462	0.16105
3907.000	1.39154	0.16507	1.93672	0.19485
3908.000	1.41525	0.18297	1.95252	0.17099
3909.000	1.36387	0.12331	1.96832	0.08748
3910.000	1.39746	0.17701	1.90513	0.15509
3911.000	1.40142	0.16507	1.96240	0.08748
3912.000	1.43105	0.17104	1.90908	0.18293
3913.000	1.37178	0.12530	1.91303	0.22269
3914.000	1.43500	0.18098	1.87353	0.21474
3915.000	1.38166	0.17104	1.93672	0.17497
3916.000	1.38166	0.18496	1.88143	0.14117
3917.000	1.41525	0.16109	1.98214	0.14514
3918.000	1.40932	0.18695	2.00781	0.14315
3919.000	1.36980	0.15911	1.97424	0.17099
3920.000	1.41525	0.14518	1.95845	0.17298
3921.000	1.40537	0.18695	1.90710	0.11333
3922.000	1.40339	0.17303	1.91698	0.17298
3923.000	1.37771	0.15513	1.89328	0.14117
3924.000	1.40734	0.12331	1.97029	0.22268
3925.000	1.40142	0.19093	2.00781	0.12725
3926.000	1.41920	0.16308	1.92883	0.15708
3927.000	1.39351	0.14121	1.98807	0.16304
3928.000	1.40932	0.14916	1.93475	0.12129
3929.000	1.40339	0.13126	1.92093	0.18094
3930.000	1.44291	0.12132	1.97029	0.07754
3931.000	1.40734	0.12927	1.82218	0.08749
3932.000	1.41920	0.15513	1.92093	0.23263
3933.000	1.40537	0.13922	1.89723	0.14913
3934.000	1.40537	0.16308	1.90315	0.16503
3935.000	1.39154	0.12132	1.92488	0.19684
3936.000	1.36783	0.12928	1.85576	0.17100
3937.000	1.36387	0.13922	1.96832	0.11134
3938.000	1.35597	0.17701	1.88933	0.10936
3939.000	1.39944	0.10939	1.93475	0.16901
3940.000	1.40339	0.16110	1.91895	0.14515
3941.000	1.41327	0.17502	1.95647	0.12924
3942.000	1.44488	0.18098	1.89920	0.11532
3943.000	1.46464	0.15115	1.85576	0.11732
3944.000	1.40932	0.12331	1.89920	0.08152
3945.000	1.40142	0.14916	1.93475	0.05170
3946.000	1.44093	0.15314	1.97029	0.21473
3947.000	1.43105	0.09546	1.92488	0.12328
3948.000	1.43500	0.12927	1.97029	0.14912
3949.000	1.43303	0.10342	1.93870	0.11731
3950.000	1.44488	0.16507	1.97227	0.12725
3951.000	1.45871	0.10143	2.01374	0.10537
3952.000	1.45476	0.13524	1.91698	0.12328
3953.000	1.47254	0.10938	2.00189	0.13918
3954.000	1.51403	0.11137	1.95845	0.19485
3955.000	1.47254	0.13723	1.99399	0.12725
3956.000	1.42710	0.11535	1.92290	0.07556
3957.000	1.39746	0.09745	1.89920	0.16702
3958.000	1.43303	0.08353	1.91698	0.12725
3959.000	1.43303	0.10342	2.01176	0.09742
3960.000	1.42908	0.11933	1.96240	0.10935
3961.000	1.46266	0.10143	1.99794	0.07356
3962.000	1.44686	0.08353	1.95647	0.09941
3963.000	1.44291	0.07557	1.91698	0.05567
3964.000	1.47452	0.06762	2.01571	0.05567
3965.000	1.49823	0.11336	1.97424	0.11333
3966.000	1.48835	0.09347	1.92488	0.04971
3967.000	1.48242	0.13126	1.95055	0.05368
3968.000	1.49823	0.08154	1.96437	0.09544
3969.000	1.46859	0.10739	1.94462	0.11731
3970.000	1.45279	0.07359	1.96635	0.13520
3971.000	1.47452	0.07756	1.91698	0.09942
3972.000	1.43698	0.12728	2.01176	0.04573
3973.000	1.47254	0.07955	1.88933	0.09743
3974.000	1.50218	0.13523	2.00781	0.12327
3975.000	1.47057	0.07557	2.02558	0.07953
3976.000	1.47649	0.13126	1.98609	0.15111
3977.000	1.51008	0.06961	1.94462	0.14713
3978.000	1.54169	0.10142	2.00386	0.10339
3979.000	1.52391	0.08552	1.95252	0.17099
3980.000	1.51008	0.10540	2.01176	0.20280
3981.000	1.50218	0.12529	1.91698	0.07556
3982.000	1.48440	0.10143	1.94265	0.10538
3983.000	1.56145	0.10739	2.00979	0.18689
3984.000	1.50415	0.09944	2.00386	0.12128
3985.000	1.53379	0.09944	1.98214	0.11532
3986.000	1.51008	0.10739	1.99202	0.11532
3987.000	1.53971	0.05767	1.92290	0.12129
3988.000	1.52589	0.11535	1.95252	0.09544
3989.000	1.51601	0.09546	1.99597	0.07158
3990.000	1.48045	0.08353	1.99004	0.12128
3991.000	1.55157	0.06762	2.06112	0.11134
3992.000	1.55157	0.13523	2.01374	0.03579
3993.000	1.51798	0.11734	1.98017	0.12327
3994.000	1.52589	0.10938	1.99597	0.07356
3995.000	1.54169	0.08154	1.99202	0.10339
3996.000	1.56540	0.09347	2.00979	0.07754
3997.000	1.52193	0.10540	1.99597	0.11731
3998.000	1.50020	0.07557	1.98412	0.10737
3999.000	1.54762	0.07358	2.03546	0.11531
4000.000	1.51798	0.09347	2.00584	0.17894
4001.000	1.50613	0.11535	1.99399	0.10935
4002.000	1.53181	0.07159	1.95845	0.13123
4003.000	1.56540	0.06762	1.93672	0.11731
4004.000	1.55354	0.09347	1.99202	0.12526
4005.000	1.53774	0.06563	1.96042	0.11333
4006.000	1.54367	0.09148	1.96437	0.16701
4007.000	1.51008	0.03381	2.02361	0.20478
4008.000	1.52984	0.07358	2.02163	0.07555
4009.000	1.50020	0.04375	1.99004	0.07356
4010.000	1.51798	0.06762	2.05125	0.05169
4011.000	1.49823	0.05370	1.93672	0.17099
4012.000	1.50218	0.02585	1.93870	0.01591
4013.000	1.50613	0.04773	2.00386	0.04374
4014.000	1.50218	0.02784	1.97622	0.06561
4015.000	1.50613	0.04773	1.94067	0.16702
4016.000	1.52193	0.01392	2.00584	0.14315
4017.000	1.50020	0.03978	1.99004	0.08947
4018.000	1.51996	0.04176	1.98807	0.07953
4019.000	1.50613	0.03779	2.05323	0.02187
4020.000	1.50415	0.03580	2.06902	0.07754
4021.000	1.52984	0.01591	2.01571	0.07158
4022.000	1.50415	0.00597	1.98412	0.07555
4023.000	1.52193	0.04176	1.98807	0.12924
4024.000	1.49625	0.03381	1.95252	0.11532
4025.000	1.52391	0.05767	2.00781	0.19087
4026.000	1.50218	0.04773	2.02163	0.04175
4027.000	1.47649	0.06762	1.96832	0.09941
4028.000	1.50810	0.07159	1.95845	0.08748
4029.000	1.51403	0.08949	1.95450	0.10538
4030.000	1.53181	0.05568	1.92883	0.15509
4031.000	1.52391	0.09148	1.98609	0.06561
4032.000	1.52391	0.03580	2.03743	0.10935
4033.000	1.51601	0.01392	2.03151	0.02386
4034.000	1.52589	0.02386	1.92093	0.12526
4035.000	1.48637	0.00199	2.03743	0.11531
4036.000	1.48242	-0.00597	1.97424	0.04772
4037.000	1.51403	0.01989	1.96240	0.07357
4038.000	1.49428	0.01591	1.94462	0.03579
4039.000	1.47057	0.00199	2.02163	0.01193
4040.000	1.49823	-0.04375	1.95055	0.09544
4041.000	1.51206	0.03580	2.03941	0.08152
4042.000	1.48440	0.00994	1.97424	0.11930
4043.000	1.48242	0.00398	2.03151	0.08350
4044.000	1.47847	0.01193	1.96240	0.10737
4045.000	1.49032	0.02784	1.90513	0.07953
4046.000	1.52193	0.02386	1.98017	0.05567
4047.000	1.51601	0.02784	1.93080	0.07556
4048.000	1.51403	-0.01989	1.96042	0.10737
4049.000	1.57527	0.03381	1.95845	0.08550
4050.000	1.52786	0.02188	1.96437	0.02187
4051.000	1.54762	0.01591	2.00584	0.07754
4052.000	1.53181	0.03977	1.93672	0.02784
4053.000	1.50415	0.00597	1.96240	0.09544
4054.000	1.52391	-0.00398	2.07889	0.06362
4055.000	1.50415	0.03978	1.96832	0.07953
4056.000	1.49032	0.02983	2.02163	0.02982
4057.000	1.53181	0.01591	1.95055	0.07357
4058.000	1.51601	0.00994	1.90908	0.09743
4059.000	1.54762	0.02983	1.99597	0.06959
4060.000	1.54762	0.06762	1.96832	0.01392
4061.000	1.51008	0.05966	1.94660	0.07953
4062.000	1.55354	0.05171	1.98807	0.05368
4063.000	1.53576	0.02983	1.97424	0.01591
4064.000	1.53774	0.03381	2.03546	0.05567
4065.000	1.56935	0.02585	2.03941	0.07157
4066.000	1.57923	0.06762	1.96042	0.09743
4067.000	1.52984	0.00994	2.00979	0.01193
4068.000	1.54959	0.04972	1.93080	0.00795
4069.000	1.53181	0.02386	2.02558	0.08152
4070.000	1.55749	0.02386	1.94660	0.06959
4071.000	1.54959	0.02386	2.02163	0.10935
4072.000	1.55947	0.01591	1.97227	0.13520
4073.000	1.52984	0.04574	1.96437	0.02585
4074.000	1.52786	0.03977	1.90908	0.08550
4075.000	1.58910	0.03778	1.96832	0.06362
4076.000	1.55947	0.04972	2.01571	0.05368
4077.000	1.53379	0.02784	2.05718	0.04772
4078.000	1.55552	0.04574	1.88538	0.09345
4079.000	1.54367	0.03381	2.03348	0.06959
4080.000	1.57527	0.02784	1.96437	0.10935
4081.000	1.57330	0.07358	1.91698	0.10936
4082.000	1.53379	0.07358	1.98807	0.12526
4083.000	1.58120	0.04574	2.03941	0.10736
4084.000	1.56737	0.05966	1.91698	0.04573
4085.000	1.58318	0.06960	1.95252	0.06362
4086.000	1.60096	0.07159	2.05125	0.05964
4087.000	1.59305	0.06960	1.97424	0.06362
4088.000	1.60096	0.05171	1.95647	0.10538
4089.000	1.58318	0.00398	1.95055	0.08748
4090.000	1.61676	0.04574	1.94857	0.10538
4091.000	1.58318	0.07159	1.93080	0.12725
4092.000	1.60293	0.04176	1.96832	0.07754
4093.000	1.57330	-0.00597	1.89920	0.07953
4094.000	1.58120	0.02585	1.92093	0.07357
4095.000	1.60096	0.02585	1.88143	0.09743
4096.000	1.59503	0.03778	1.90118	0.08550
4097.000	1.56145	0.04773	1.96635	0.09146
4098.000	1.58515	-0.00398	1.89723	0.06760
4099.000	1.59108	0.02188	1.97424	0.10140
4100.000	1.60096	0.02188	1.95647	0.06959
4101.000	1.58318	-0.00398	1.92685	0.11135
4102.000	1.60293	-0.01591	1.99399	0.07158
4103.000	1.59503	0.00000	1.99004	0.05169
4104.000	1.58120	0.05369	2.03151	0.05169
4105.000	1.57330	-0.00597	1.99991	0.08549
4106.000	1.60096	-0.00994	1.98214	0.06959
4107.000	1.54762	0.03381	1.93672	0.11532
4108.000	1.56935	0.02983	2.01571	0.05169
4109.000	1.55749	-0.01591	1.98609	0.08947
4110.000	1.56935	0.00398	2.04533	0.07754
4111.000	1.61478	0.01989	1.98609	0.15309
4112.000	1.57923	0.06165	1.96635	0.10538
4113.000	1.56342	0.02983	2.01374	0.10140
4114.000	1.59305	0.02784	1.99794	0.12725
4115.000	1.56145	-0.00994	1.93278	0.05965
4116.000	1.52193	0.01790	1.96437	0.09544
4117.000	1.57923	0.01193	1.91303	0.12129
4118.000	1.54367	0.04773	1.95647	0.06561
4119.000	1.58910	0.02386	1.92685	0.14713
4120.000	1.56737	0.00597	1.88933	0.10737
4121.000	1.57923	0.05171	2.00979	0.10736
4122.000	1.58910	0.02188	1.96240	0.13123
4123.000	1.58318	0.03977	1.93672	0.08351
4124.000	1.57725	0.01392	1.91500	0.08947
4125.000	1.56145	-0.01790	2.03151	0.00000
4126.000	1.54564	0.02386	1.97227	0.00398
4127.000	1.54762	0.00994	1.95647	0.08351
4128.000	1.54762	-0.01392	1.97424	0.03181
4129.000	1.53181	0.00000	1.89723	0.09146
4130.000	1.55552	0.00000	1.88341	0.02187
4131.000	1.53576	-0.01392	1.90513	0.03579
4132.000	1.55552	0.01989	1.98017	0.08351
4133.000	1.53971	-0.01193	1.96240	0.08550
4134.000	1.52193	-0.04574	2.04928	0.05766
4135.000	1.52193	-0.07557	1.95647	0.03579
4136.000	1.56935	-0.04773	1.91303	0.07357
4137.000	1.54762	-0.02188	1.99991	0.00795
4138.000	1.53181	-0.02983	1.93475	0.09544
4139.000	1.54762	-0.03977	1.96437	-0.00795
4140.000	1.52984	-0.05171	2.00781	0.00398
4141.000	1.56540	-0.01392	2.01374	0.02585
4142.000	1.54564	-0.01392	1.92883	-0.03181
4143.000	1.55354	-0.01591	1.93870	0.07556
4144.000	1.55749	-0.00795	1.94857	0.01789
4145.000	1.55354	-0.00795	1.87551	0.06363
4146.000	1.60688	0.02386	2.00979	-0.01193
4147.000	1.54762	-0.00199	1.93475	0.01392
4148.000	1.53181	-0.00398	1.87156	0.08152
4149.000	1.54367	-0.01591	1.96832	0.07754
4150.000	1.57527	-0.01989	1.95647	0.08947
4151.000	1.55552	-0.04176	1.94660	0.04971
4152.000	1.55552	-0.00199	1.98412	-0.02982
4153.000	1.56737	-0.01989	1.93870	0.04971
4154.000	1.59305	-0.02188	1.90315	0.03579
4155.000	1.52786	-0.04375	1.91105	0.05766
4156.000	1.53774	-0.01790	1.85971	0.09345
4157.000	1.54762	-0.05370	1.84588	0.09743
4158.000	1.54367	0.00795	1.94265	0.05567
4159.000	1.57527	-0.03381	1.88538	0.08749
4160.000	1.54959	-0.03580	1.92290	0.14117
4161.000	1.54367	-0.03977	1.86761	0.10141
4162.000	1.54959	-0.01790	1.92883	0.00199
4163.000	1.56737	-0.05369	1.96240	0.06760
4164.000	1.53774	-0.03182	1.90315	0.08948
4165.000	1.54564	-0.03580	1.90710	0.12328
4166.000	1.57527	-0.01392	1.89328	0.05369
4167.000	1.57330	-0.04972	1.96240	0.10538
4168.000	1.56737	-0.08154	1.90710	0.04573
4169.000	1.58713	-0.02983	1.89920	0.05965
4170.000	1.57132	-0.02983	1.89723	0.00795
4171.000	1.57330	-0.04375	1.92290	0.04573
4172.000	1.55354	-0.06762	1.87551	0.03181
4173.000	1.57132	-0.03977	1.93672	0.05766
4174.000	1.62269	-0.04773	1.94857	0.02982
4175.000	1.58120	-0.07358	1.86958	0.09942
4176.000	1.60491	-0.00795	1.90315	0.03380
4177.000	1.63059	-0.06165	1.92290	0.06760
4178.000	1.58713	-0.02585	1.97622	-0.01591
4179.000	1.60688	-0.06563	1.92488	0.05766
4180.000	1.59503	-0.06761	1.90118	0.01392
4181.000	1.58318	-0.06960	1.85576	0.07755
4182.000	1.61873	-0.05170	1.88143	0.09544
4183.000	1.58318	-0.03580	1.89920	0.05369
4184.000	1.65232	-0.04773	2.01966	0.08947
4185.000	1.58515	-0.06165	1.93870	0.03778
4186.000	1.63059	-0.06165	1.91303	0.03181
4187.000	1.60096	-0.05966	1.87353	0.11334
4188.000	1.58515	-0.06761	1.85378	0.06959
4189.000	1.60491	-0.05966	1.84391	0.07755
4190.000	1.65034	0.00398	1.90513	0.07755
4191.000	1.56342	-0.06165	1.90315	0.07953
4192.000	1.62861	-0.04574	1.93475	0.08351
4193.000	1.59108	-0.04176	1.92685	0.06959
4194.000	1.57132	-0.04375	1.85576	0.06363
4195.000	1.61873	-0.02983	1.91895	0.03579
4196.000	1.60491	-0.02784	1.86168	0.07755
4197.000	1.57132	-0.05369	1.91500	0.08550
4198.000	1.61281	-0.06165	1.86761	0.04971
4199.000	1.57527	-0.03977	1.80638	0.11931
4200.000	1.58910	-0.05369	1.91303	0.06760
4201.000	1.60886	-0.08949	1.84983	0.07357
4202.000	1.59700	-0.06563	1.90513	0.05170
4203.000	1.59108	-0.03580	1.91698	0.04175
4204.000	1.57725	-0.07159	1.95450	0.07357
4205.000	1.63849	-0.04375	1.92290	0.07953
4206.000	1.60491	-0.05568	1.97424	0.04374
4207.000	1.62466	-0.09347	1.84193	0.04374
4208.000	1.60491	-0.05966	1.89525	0.12725
4209.000	1.61281	-0.03778	1.85971	0.06959
4210.000	1.61676	-0.07955	1.89328	0.03778
4211.000	1.62269	-0.02585	1.85773	0.02784
4212.000	1.62861	-0.00994	1.93278	0.09743
4213.000	1.63059	-0.05767	1.82416	0.01591
4214.000	1.62071	-0.02585	1.94265	0.04772
4215.000	1.61478	-0.07159	1.87748	-0.00398
4216.000	1.62071	-0.06960	1.90710	0.07357
4217.000	1.64046	-0.05170	1.92883	0.07754
4218.000	1.61873	-0.08949	1.91698	0.10140
4219.000	1.60886	-0.07557	1.88143	0.10737
4220.000	1.61873	-0.07159	1.89328	0.07755
4221.000	1.64046	-0.03778	1.94462	0.12526
4222.000	1.65429	-0.01989	1.87551	0.05965
4223.000	1.59700	-0.05966	1.84786	0.06164
4224.000	1.63256	-0.04375	1.89328	0.02983
4225.000	1.62664	-0.05568	1.85773	0.11731
4226.000	1.63059	0.01193	1.87946	0.09146
4227.000	1.62466	-0.04176	1.92093	-0.02187
4228.000	1.61873	-0.06364	1.91105	0.01392
4229.000	1.61676	-0.10341	1.94660	0.05368
4230.000	1.59305	-0.04574	1.88735	0.06959
4231.000	1.64244	-0.02784	1.87353	0.04573
4232.000	1.67997	-0.06562	1.89525	0.00398
4233.000	1.60491	-0.04773	1.86761	0.05965
4234.000	1.65824	-0.01790	1.82613	-0.00597
4235.000	1.61478	-0.03182	1.82811	0.05965
4236.000	1.67207	-0.07755	1.89723	0.07357
4237.000	1.60886	-0.06364	1.79256	0.07158
4238.000	1.59503	-0.07358	1.81033	0.02983
4239.000	1.58713	-0.10938	1.86958	0.07158
4240.000	1.61281	-0.04375	1.89920	0.04772
4241.000	1.61083	-0.07557	1.89130	0.02983
4242.000	1.64046	-0.05568	1.91303	0.08550
4243.000	1.62071	-0.06563	1.83403	0.04971
4244.000	1.60688	-0.05767	1.85181	0.10936
4245.000	1.64046	-0.04972	1.91698	0.03181
4246.000	1.62269	-0.08551	1.87353	-0.04772
4247.000	1.66022	-0.06761	1.91698	0.03778
4248.000	1.64837	-0.05369	1.93080	0.02187
4249.000	1.62071	-0.08750	1.89130	-0.08152
4250.000	1.62664	-0.06165	1.89920	0.06164
4251.000	1.58318	-0.04773	1.88933	-0.04573
4252.000	1.58910	-0.06364	1.88538	0.01392
4253.000	1.61281	-0.05369	1.89920	-0.01392
4254.000	1.61083	-0.11733	1.90908	0.01591
4255.000	1.61478	-0.07159	1.88143	-0.01193
4256.000	1.63059	-0.08551	1.87946	-0.10141
4257.000	1.59700	-0.05369	1.92685	-0.02585
4258.000	1.60886	-0.05369	1.87551	0.00398
4259.000	1.61281	-0.05170	1.86761	0.00398
4260.000	1.57527	-0.08352	1.84193	-0.07755
4261.000	1.59700	-0.07955	1.89920	-0.03977
4262.000	1.61478	-0.07159	1.89328	0.05766
4263.000	1.60491	-0.09347	1.86761	-0.00398
4264.000	1.60688	-0.06165	1.86761	0.00398
4265.000	1.61281	-0.00398	1.90118	0.05170
4266.000	1.61083	-0.04574	1.99202	0.03579
4267.000	1.58515	-0.04375	1.84983	0.04573
4268.000	1.59700	-0.06761	1.86168	-0.00398
4269.000	1.65232	-0.04574	1.88143	0.01193
4270.000	1.63651	-0.10142	1.93080	-0.00596
4271.000	1.65824	-0.01591	1.91895	0.01193
4272.000	1.64046	-0.04972	1.94660	-0.01193
4273.000	1.60886	-0.05767	1.89130	-0.03380
4274.000	1.64046	-0.03977	1.84588	0.05568
4275.000	1.59503	-0.03778	1.89920	0.01392
4276.000	1.62071	-0.02585	1.93870	-0.01591
4277.000	1.60491	-0.05171	1.91895	0.03380
4278.000	1.64244	-0.06960	1.88341	-0.00795
4279.000	1.62861	-0.05170	1.88538	-0.00795
4280.000	1.62071	-0.03580	1.85971	0.01392
4281.000	1.62466	-0.09148	1.89130	-0.00398
4282.000	1.62664	-0.06960	1.90513	0.00199
4283.000	1.61676	-0.07557	1.83996	-0.00199
4284.000	1.64441	-0.06761	1.86761	-0.00994
4285.000	1.65429	0.01193	1.90315	0.06363
4286.000	1.64046	-0.08352	1.92290	0.04175
4287.000	1.63849	-0.05568	1.88933	0.02983
4288.000	1.62269	-0.04375	1.86168	0.07357
4289.000	1.60688	-0.03580	1.80441	-0.07357
4290.000	1.68392	0.00199	1.89130	-0.01591
4291.000	1.63651	-0.00199	1.84391	-0.01392
4292.000	1.63059	-0.04375	1.88933	0.01790
4293.000	1.64441	-0.02386	1.84193	0.02386
4294.000	1.63849	-0.03977	1.87353	0.00199
4295.000	1.64441	-0.06364	1.83996	0.05369
4296.000	1.63849	-0.06562	1.92685	0.02187
4297.000	1.65824	-0.03579	1.83798	-0.07158
4298.000	1.64639	-0.01989	1.87353	0.01790
4299.000	1.62861	-0.09148	1.84588	-0.01988
4300.000	1.65034	-0.09744	1.77676	-0.04772
4301.000	1.61281	-0.07756	1.90315	0.02585
4302.000	1.59305	-0.04773	1.81033	-0.08749
4303.000	1.60096	-0.05767	1.80836	0.00994
4304.000	1.60491	-0.09744	1.77873	0.03579
4305.000	1.62861	-0.07358	1.78466	-0.02784
4306.000	1.62071	-0.06364	1.86366	-0.00597
4307.000	1.61676	-0.02983	1.71355	-0.02585
4308.000	1.59108	-0.06960	1.83403	0.01193
