time (ms)	lx (deg)	ly (deg)	rx (deg)	ry (deg)
0.000	-1.32831	-3.31181	-1.58515	-3.43232
1.000	-1.31448	-3.33363	-1.58318	-3.45214
2.000	-1.29472	-3.32969	-1.51996	-3.44035
3.000	-1.29669	-3.34951	-1.55157	-3.47597
4.000	-1.28286	-3.32178	-1.49823	-3.41859
5.000	-1.34412	-3.35341	-1.52786	-3.49186
6.000	-1.31843	-3.33362	-1.51206	-3.47009
7.000	-1.24729	-3.34363	-1.58713	-3.47195
8.000	-1.32633	-3.36533	-1.53181	-3.44430
9.000	-1.29076	-3.36538	-1.54367	-3.48391
10.000	-1.32831	-3.30784	-1.59898	-3.50561
11.000	-1.28879	-3.33366	-1.46859	-3.43845
12.000	-1.30657	-3.31778	-1.47452	-3.46420
13.000	-1.28286	-3.33169	-1.50218	-3.45821
14.000	-1.25322	-3.30596	-1.57923	-3.36099
15.000	-1.28681	-3.34159	-1.63849	-3.45997
16.000	-1.28879	-3.31979	-1.44488	-3.39687
17.000	-1.29274	-3.28807	-1.51996	-3.42648
18.000	-1.28879	-3.29402	-1.60491	-3.39067
19.000	-1.29669	-3.28806	-1.54762	-3.44823
20.000	-1.26903	-3.34558	-1.55354	-3.47002
21.000	-1.33819	-3.35144	-1.56737	-3.39073
22.000	-1.29867	-3.32770	-1.55552	-3.49379
23.000	-1.27891	-3.30791	-1.50415	-3.40074
24.000	-1.27496	-3.30196	-1.50810	-3.42650
25.000	-1.24927	-3.35552	-1.55552	-3.40463
26.000	-1.25717	-3.33172	-1.48045	-3.44240
27.000	-1.26508	-3.31982	-1.49823	-3.40868
28.000	-1.25717	-3.34362	-1.50810	-3.37101
29.000	-1.24927	-3.32975	-1.46859	-3.48601
30.000	-1.30064	-3.37924	-1.48440	-3.41068
31.000	-1.26112	-3.34956	-1.44686	-3.34534
32.000	-1.28484	-3.33763	-1.56145	-3.36894
33.000	-1.27496	-3.35549	-1.55552	-3.37688
34.000	-1.28879	-3.31384	-1.61281	-3.39660
35.000	-1.30460	-3.35346	-1.56145	-3.43830
36.000	-1.28681	-3.31781	-1.59898	-3.43428
37.000	-1.27496	-3.26826	-1.59700	-3.35700
38.000	-1.26705	-3.29999	-1.53181	-3.34719
39.000	-1.21963	-3.22670	-1.45279	-3.36911
40.000	-1.13465	-3.20697	-1.39944	-3.42270
41.000	-1.10698	-3.12768	-1.31448	-3.29597
42.000	-0.86784	-3.06443	-1.03781	-3.12577
43.000	-0.66820	-2.85626	-0.89353	-2.94737
44.000	-0.38353	-2.72540	-0.76901	-2.71331
45.000	-0.16804	-2.47133	-0.50412	-2.41167
46.000	0.09885	-2.22903	-0.36376	-2.01443
47.000	0.29062	-1.96675	-0.05140	-1.73426
48.000	0.53180	-1.58312	0.10478	-1.38438
49.000	0.78284	-1.19139	0.31829	-1.03040
50.000	0.93702	-0.83340	0.48435	-0.64055
51.000	1.12279	-0.47736	0.49622	-0.31829
52.000	1.16034	-0.20885	0.63064	-0.07360
53.000	1.17022	0.11337	0.65634	0.15318
54.000	1.14453	0.38587	0.67215	0.43565
55.000	1.09710	0.54499	0.54366	0.58684
56.000	0.94492	0.61861	0.46854	0.66044
57.000	0.71959	0.68229	0.35783	0.65448
58.000	0.52389	0.65049	0.20956	0.55503
59.000	0.33016	0.57492	0.00000	0.42175
60.000	0.14432	0.39987	-0.21747	0.32626
61.000	-0.02175	0.22083	-0.37760	0.16910
62.000	-0.16014	0.05769	-0.41121	-0.14522
63.000	-0.24910	-0.17706	-0.55947	-0.28845
64.000	-0.33411	-0.36803	-0.52982	-0.58286
65.000	-0.36179	-0.57094	-0.61680	-0.66639
66.000	-0.41121	-0.76587	-0.64645	-0.84341
67.000	-0.38749	-0.87924	-0.59703	-1.04030
68.000	-0.38946	-1.04431	-0.64052	-1.11586
69.000	-0.29259	-1.17160	-0.49028	-1.19543
70.000	-0.22340	-1.15570	-0.37760	-1.30879
71.000	-0.20956	-1.22729	-0.28271	-1.30682
72.000	-0.14037	-1.23525	-0.27480	-1.20342
73.000	-0.10676	-1.24519	-0.15421	-1.21536
74.000	-0.01977	-1.18752	-0.17200	-1.07417
75.000	0.02768	-1.19349	-0.05140	-1.12786
76.000	0.05140	-1.09605	0.03361	-0.95683
77.000	0.10280	-1.06422	0.01977	-0.78180
78.000	0.14630	-0.89318	0.05140	-0.83749
79.000	0.14037	-0.88324	0.02768	-0.68632
80.000	0.19770	-0.82158	0.09885	-0.63063
81.000	0.25899	-0.77384	0.05536	-0.59880
82.000	0.28271	-0.68433	0.12257	-0.45756
83.000	0.25503	-0.65449	0.06524	-0.50928
84.000	0.28469	-0.56895	0.07908	-0.41976
85.000	0.35190	-0.58685	0.01779	-0.35014
86.000	0.26887	-0.55503	0.06129	-0.39191
87.000	0.28271	-0.53514	0.02570	-0.34815
88.000	0.28864	-0.48739	0.05931	-0.39788
89.000	0.31236	-0.45755	0.08897	-0.39390
90.000	0.31434	-0.42771	0.03361	-0.44761
91.000	0.31039	-0.39589	-0.00989	-0.40982
92.000	0.27282	-0.40583	-0.04152	-0.41976
93.000	0.25899	-0.37599	0.04547	-0.42175
94.000	0.25305	-0.34814	-0.07710	-0.36804
95.000	0.25108	-0.37401	-0.04943	-0.39191
96.000	0.24317	-0.38196	-0.07908	-0.41976
97.000	0.22933	-0.35809	-0.05733	-0.39589
98.000	0.19572	-0.40186	-0.01582	-0.44960
99.000	0.21154	-0.40981	0.01582	-0.49337
100.000	0.19968	-0.42772	-0.08106	-0.44761
101.000	0.20561	-0.42573	0.00395	-0.51326
102.000	0.20956	-0.43766	-0.07513	-0.47546
103.000	0.21549	-0.42971	0.02570	-0.46950
104.000	0.21154	-0.37798	-0.06920	-0.46751
105.000	0.16211	-0.40186	-0.08897	-0.47546
106.000	0.20165	-0.39390	-0.02570	-0.45159
107.000	0.17595	-0.43965	-0.06722	-0.46552
108.000	0.23131	-0.45756	-0.05931	-0.54907
109.000	0.17398	-0.43965	0.01779	-0.50133
110.000	0.21154	-0.49734	0.00791	-0.50331
111.000	0.19375	-0.41777	-0.01582	-0.55702
112.000	0.15025	-0.43966	-0.03559	-0.48939
113.000	0.13444	-0.45557	0.01384	-0.46950
114.000	0.14630	-0.46950	-0.03756	-0.53912
115.000	0.17793	-0.41180	-0.02768	-0.51326
116.000	0.14630	-0.50132	-0.00791	-0.50530
117.000	0.17002	-0.47148	0.00989	-0.55504
118.000	0.17595	-0.42971	0.02175	-0.54708
119.000	0.19770	-0.45955	-0.04547	-0.46552
120.000	0.19375	-0.44562	0.00000	-0.51326
121.000	0.17991	-0.46750	-0.01384	-0.46353
122.000	0.19770	-0.45756	-0.04943	-0.47944
123.000	0.21352	-0.41180	0.03756	-0.49934
124.000	0.18584	-0.43369	-0.07117	-0.49138
125.000	0.19572	-0.48541	-0.03954	-0.44165
126.000	0.22538	-0.46949	-0.11664	-0.48740
127.000	0.19572	-0.44960	0.01977	-0.53116
128.000	0.19572	-0.43369	0.03361	-0.53514
129.000	0.20956	-0.42573	-0.06920	-0.52719
130.000	0.22735	-0.42374	-0.04745	-0.51127
131.000	0.20165	-0.42374	0.04547	-0.55106
132.000	0.20165	-0.46154	0.01186	-0.60477
133.000	0.19968	-0.42971	-0.00198	-0.48740
134.000	0.19375	-0.42573	0.05931	-0.51127
135.000	0.21945	-0.46750	-0.01779	-0.50729
136.000	0.22538	-0.47546	-0.00791	-0.54509
137.000	0.19968	-0.42772	0.02570	-0.52122
138.000	0.17002	-0.46552	0.07117	-0.50928
139.000	0.18979	-0.45557	0.02175	-0.50133
140.000	0.18781	-0.43369	0.02175	-0.55305
141.000	0.20165	-0.45557	0.01977	-0.51525
142.000	0.18188	-0.46750	-0.02570	-0.48939
143.000	0.17002	-0.42175	0.00791	-0.47546
144.000	0.19375	-0.43767	-0.00198	-0.57095
145.000	0.18979	-0.46353	-0.05733	-0.52122
146.000	0.17398	-0.44960	-0.04547	-0.56896
147.000	0.15816	-0.46751	0.04152	-0.57294
148.000	0.20561	-0.46949	0.06524	-0.55504
149.000	0.19572	-0.43568	-0.05536	-0.54708
150.000	0.17200	-0.47347	0.02570	-0.52520
151.000	0.15816	-0.46949	0.02372	-0.55106
152.000	0.16014	-0.48143	0.06920	-0.55702
153.000	0.20165	-0.48342	-0.01186	-0.53912
154.000	0.20363	-0.48939	-0.04152	-0.53116
155.000	0.15816	-0.45557	0.00593	-0.57294
156.000	0.20956	-0.42971	0.06326	-0.52719
157.000	0.17595	-0.44363	0.06920	-0.52719
158.000	0.17991	-0.38594	0.02372	-0.58487
159.000	0.17991	-0.42772	-0.01186	-0.50331
160.000	0.18188	-0.39987	-0.04152	-0.44364
161.000	0.16409	-0.40385	-0.04349	-0.51127
162.000	0.21549	-0.37798	-0.01384	-0.53713
163.000	0.21352	-0.43369	-0.07710	-0.41578
164.000	0.16804	-0.39987	0.00198	-0.52520
165.000	0.17991	-0.37799	0.04152	-0.56697
166.000	0.20165	-0.43568	0.02372	-0.47745
167.000	0.18188	-0.39987	-0.04349	-0.54310
168.000	0.19770	-0.46353	0.02966	-0.56299
169.000	0.19770	-0.46154	0.00198	-0.50331
170.000	0.18781	-0.47546	-0.02966	-0.60278
171.000	0.16409	-0.44960	-0.04547	-0.54310
172.000	0.17793	-0.48143	-0.04943	-0.57692
173.000	0.17002	-0.47546	0.01779	-0.64455
174.000	0.17200	-0.47745	0.05536	-0.52917
175.000	0.16211	-0.47546	0.01582	-0.57692
176.000	0.19572	-0.45557	-0.02175	-0.50331
177.000	0.17991	-0.42971	-0.03954	-0.52520
178.000	0.16804	-0.42971	-0.03756	-0.52321
179.000	0.17793	-0.46154	-0.11071	-0.50132
180.000	0.17595	-0.37799	0.05733	-0.60079
181.000	0.19968	-0.42772	-0.00791	-0.56498
182.000	0.20363	-0.42573	-0.00791	-0.49337
183.000	0.18584	-0.44164	-0.06920	-0.52520
184.000	0.14827	-0.43170	0.01384	-0.50331
185.000	0.19375	-0.38992	-0.04349	-0.48143
186.000	0.14234	-0.43568	0.00000	-0.44960
187.000	0.16804	-0.41777	-0.03559	-0.51127
188.000	0.18584	-0.37799	-0.01186	-0.62466
189.000	0.17595	-0.44164	-0.03163	-0.58885
190.000	0.17595	-0.44761	-0.05140	-0.56100
191.000	0.17200	-0.38196	0.04943	-0.57493
192.000	0.21352	-0.40385	0.08699	-0.50928
193.000	0.15223	-0.40982	0.00000	-0.57095
194.000	0.16014	-0.40982	-0.02175	-0.47745
195.000	0.20956	-0.37798	-0.02175	-0.51326
196.000	0.12653	-0.43966	0.03756	-0.53912
197.000	0.18584	-0.44164	0.00791	-0.53514
198.000	0.18188	-0.42971	-0.02768	-0.60079
199.000	0.18979	-0.44164	-0.03756	-0.51724
200.000	0.19375	-0.41180	0.01779	-0.51127
201.000	0.21549	-0.43766	-0.04349	-0.47348
202.000	0.15223	-0.42971	0.11862	-0.50928
203.000	0.21747	-0.43170	-0.03559	-0.55702
204.000	0.16014	-0.43568	0.01779	-0.55106
205.000	0.17398	-0.47148	-0.08303	-0.53116
206.000	0.19375	-0.41976	-0.01186	-0.49536
207.000	0.23329	-0.42374	0.06524	-0.55901
208.000	0.18386	-0.41777	-0.00593	-0.56896
209.000	0.23724	-0.42772	0.02372	-0.62267
210.000	0.25108	-0.42971	0.00000	-0.60278
211.000	0.20758	-0.42175	0.01977	-0.57294
212.000	0.23526	-0.41976	-0.04745	-0.60278
213.000	0.21549	-0.40186	-0.00395	-0.52321
214.000	0.23724	-0.39788	-0.03559	-0.50729
215.000	0.22735	-0.38793	0.00000	-0.54509
216.000	0.22735	-0.43170	-0.01779	-0.51127
217.000	0.22142	-0.40584	-0.02768	-0.54310
218.000	0.24910	-0.43368	-0.03954	-0.53116
219.000	0.20956	-0.44164	-0.06326	-0.52520
220.000	0.23922	-0.43170	-0.02175	-0.58487
221.000	0.21352	-0.39788	-0.04152	-0.55305
222.000	0.24317	-0.40782	-0.00791	-0.50133
223.000	0.23131	-0.40782	-0.01582	-0.63063
224.000	0.20956	-0.42971	-0.04349	-0.58288
225.000	0.17200	-0.46751	-0.00989	-0.59283
226.000	0.23526	-0.40385	-0.04745	-0.52122
227.000	0.19572	-0.42175	0.00000	-0.58885
228.000	0.24119	-0.41578	-0.07315	-0.52321
229.000	0.24910	-0.40782	-0.11467	-0.52917
230.000	0.23526	-0.40385	-0.03954	-0.60874
231.000	0.19572	-0.40981	-0.01186	-0.48740
232.000	0.20758	-0.41379	-0.05931	-0.57891
233.000	0.25899	-0.40583	-0.03361	-0.55504
234.000	0.19572	-0.44562	-0.07315	-0.58288
235.000	0.22340	-0.43567	0.01582	-0.58487
236.000	0.21549	-0.40186	0.02966	-0.50729
237.000	0.25108	-0.42175	0.00989	-0.53912
238.000	0.20561	-0.44761	0.00198	-0.55106
239.000	0.20758	-0.41976	-0.02175	-0.53713
240.000	0.23329	-0.41777	-0.03361	-0.54310
241.000	0.21747	-0.41578	-0.00791	-0.56100
242.000	0.19572	-0.44562	0.03756	-0.58686
243.000	0.22735	-0.39191	-0.09885	-0.51724
244.000	0.23724	-0.37997	0.00989	-0.49536
245.000	0.24712	-0.40186	-0.00593	-0.53713
246.000	0.20561	-0.38395	-0.00989	-0.53912
247.000	0.19177	-0.44164	-0.02966	-0.49934
248.000	0.21747	-0.40584	0.02768	-0.48939
249.000	0.21154	-0.41180	0.00791	-0.44960
250.000	0.19572	-0.38196	0.00989	-0.53514
251.000	0.19770	-0.38992	0.06326	-0.51724
252.000	0.19572	-0.37202	0.03163	-0.54310
253.000	0.18979	-0.39589	-0.01779	-0.55702
254.000	0.20363	-0.39390	0.02966	-0.50331
255.000	0.16804	-0.42772	0.04547	-0.47149
256.000	0.20758	-0.42374	0.04349	-0.49536
257.000	0.19968	-0.41180	0.00395	-0.54310
258.000	0.18386	-0.42573	0.12455	-0.55106
259.000	0.17398	-0.42971	0.06920	-0.55305
260.000	0.17793	-0.46552	0.03163	-0.50331
261.000	0.18979	-0.43568	0.03361	-0.52918
262.000	0.18584	-0.42573	-0.00198	-0.52122
263.000	0.17793	-0.43568	0.03163	-0.49536
264.000	0.17793	-0.42374	0.00791	-0.56498
265.000	0.18979	-0.46750	-0.01779	-0.54310
266.000	0.19770	-0.39788	-0.02372	-0.48541
267.000	0.21154	-0.43568	-0.00791	-0.45358
268.000	0.20363	-0.43766	0.07117	-0.50331
269.000	0.17595	-0.46154	-0.05733	-0.45955
270.000	0.20956	-0.42175	0.07117	-0.46353
271.000	0.17398	-0.43170	0.07117	-0.52122
272.000	0.17793	-0.39589	0.03361	-0.51127
273.000	0.17793	-0.42573	0.02570	-0.46950
274.000	0.19375	-0.41578	0.03756	-0.51525
275.000	0.16607	-0.41379	-0.01779	-0.48740
276.000	0.17991	-0.43965	-0.11071	-0.47347
277.000	0.17200	-0.44363	0.08897	-0.48541
278.000	0.19572	-0.40981	0.02372	-0.46751
279.000	0.18979	-0.43170	0.04745	-0.51724
280.000	0.19177	-0.39191	0.01186	-0.49337
281.000	0.18781	-0.44761	-0.02372	-0.50530
282.000	0.20956	-0.41379	-0.02570	-0.46353
283.000	0.17991	-0.45159	0.00395	-0.51525
284.000	0.16409	-0.43369	-0.01582	-0.49138
285.000	0.21549	-0.47148	-0.01582	-0.46950
286.000	0.23131	-0.41379	0.00000	-0.49536
287.000	0.20363	-0.42374	0.10083	-0.47546
288.000	0.21154	-0.45955	0.06524	-0.51127
289.000	0.19770	-0.44164	0.00593	-0.42175
290.000	0.20956	-0.41976	0.07513	-0.48939
291.000	0.17991	-0.49337	-0.02570	-0.44562
292.000	0.21154	-0.43766	0.00000	-0.52918
293.000	0.18979	-0.42772	-0.04547	-0.45358
294.000	0.19572	-0.38992	-0.00593	-0.51525
295.000	0.19375	-0.38594	0.09094	-0.55702
296.000	0.17398	-0.40783	0.00791	-0.55504
297.000	0.20165	-0.41976	-0.01186	-0.51724
298.000	0.19572	-0.42374	-0.00198	-0.53514
299.000	0.16211	-0.41976	0.00395	-0.56896
300.000	0.19770	-0.42573	0.04152	-0.50729
301.000	0.20165	-0.38992	0.06129	-0.45557
302.000	0.19572	-0.39987	0.01384	-0.47149
303.000	0.19572	-0.40186	-0.02966	-0.43767
304.000	0.17991	-0.39589	0.01779	-0.49536
305.000	0.23131	-0.38992	0.07315	-0.48541
306.000	0.18781	-0.37799	0.02570	-0.56498
307.000	0.17200	-0.43170	-0.04745	-0.53514
308.000	0.22340	-0.42573	0.04152	-0.48939
309.000	0.17595	-0.42772	-0.01779	-0.51724
310.000	0.20165	-0.40584	0.03163	-0.50133
311.000	0.20561	-0.42772	0.02372	-0.53713
312.000	0.17200	-0.41379	-0.00198	-0.52122
313.000	0.22538	-0.42573	0.02372	-0.56498
314.000	0.20561	-0.42573	-0.02768	-0.55504
315.000	0.18188	-0.42573	0.02175	-0.45159
316.000	0.19770	-0.39390	0.03559	-0.50133
317.000	0.22538	-0.42573	-0.01186	-0.54907
318.000	0.21352	-0.42772	-0.01779	-0.52918
319.000	0.20363	-0.40385	-0.07315	-0.56498
320.000	0.18781	-0.39788	0.01582	-0.53713
321.000	0.20165	-0.38196	0.04745	-0.50928
322.000	0.22538	-0.41379	0.08501	-0.50729
323.000	0.23922	-0.40583	0.07117	-0.53315
324.000	0.27282	-0.42573	0.04547	-0.57095
325.000	0.24317	-0.44960	0.08501	-0.53912
326.000	0.21747	-0.35610	0.05733	-0.53514
327.000	0.21747	-0.40385	-0.00198	-0.49735
328.000	0.19770	-0.40584	0.05140	-0.49934
329.000	0.24712	-0.40782	0.00989	-0.55305
330.000	0.25108	-0.38395	0.04943	-0.50729
331.000	0.21549	-0.37798	0.02768	-0.57095
332.000	0.23526	-0.32626	-0.02175	-0.48740
333.000	0.22538	-0.39987	0.01582	-0.50928
334.000	0.22735	-0.39987	-0.02175	-0.54509
335.000	0.21549	-0.37600	0.08106	-0.49735
336.000	0.23724	-0.40385	0.02570	-0.46552
337.000	0.21747	-0.39589	-0.03163	-0.44165
338.000	0.21154	-0.43568	-0.06129	-0.59283
339.000	0.25899	-0.41578	0.00593	-0.50133
340.000	0.20956	-0.43568	-0.02372	-0.53514
341.000	0.23922	-0.44562	-0.00989	-0.50331
342.000	0.21549	-0.41777	0.06722	-0.52520
343.000	0.19572	-0.44761	-0.00395	-0.52122
344.000	0.24712	-0.45159	-0.01582	-0.47149
345.000	0.21154	-0.42175	-0.06524	-0.44562
346.000	0.20758	-0.43369	-0.05733	-0.49735
347.000	0.21352	-0.41976	-0.01384	-0.47745
348.000	0.20165	-0.38395	0.02175	-0.50133
349.000	0.22538	-0.42573	-0.03559	-0.43369
350.000	0.21352	-0.43568	-0.02372	-0.46950
351.000	0.23329	-0.45358	0.01977	-0.54907
352.000	0.19968	-0.39191	-0.05733	-0.46751
353.000	0.20956	-0.38395	-0.02966	-0.40783
354.000	0.20165	-0.46353	0.04943	-0.44761
355.000	0.20165	-0.42772	0.02768	-0.48342
356.000	0.19375	-0.43170	-0.01977	-0.46751
357.000	0.19177	-0.42772	0.00198	-0.43170
358.000	0.20165	-0.35809	-0.08699	-0.44364
359.000	0.23329	-0.33223	0.00000	-0.38197
360.000	0.25108	-0.33820	0.02175	-0.39191
361.000	0.23526	-0.27056	0.05931	-0.35213
362.000	0.20956	-0.22679	0.00791	-0.30836
363.000	0.27876	-0.18104	0.04745	-0.24271
364.000	0.29259	-0.14125	0.11664	-0.21088
365.000	0.35388	-0.05570	0.05931	-0.21287
366.000	0.37167	-0.05172	0.07315	-0.14324
367.000	0.38353	0.01393	0.14234	-0.05371
368.000	0.41912	0.11538	0.08699	0.00995
369.000	0.42505	0.11538	0.12850	0.10345
370.000	0.43098	0.18302	0.10083	0.09151
371.000	0.43889	0.20093	0.14234	0.12136
372.000	0.40528	0.20292	0.17595	0.13528
373.000	0.39144	0.14324	0.14234	0.04775
374.000	0.38353	0.16114	0.17398	0.07361
375.000	0.33609	0.10942	0.11269	0.11937
376.000	0.39144	0.08753	0.08106	-0.00398
377.000	0.28469	0.00398	0.07513	0.03382
378.000	0.30050	0.01194	0.04152	-0.01194
379.000	0.29457	-0.04576	0.04943	-0.07162
380.000	0.26689	-0.04974	0.02175	-0.06764
381.000	0.24712	-0.14523	0.05140	-0.15518
382.000	0.27678	-0.09549	0.08897	-0.17905
383.000	0.28271	-0.14125	0.10676	-0.16711
384.000	0.30050	-0.15119	0.01977	-0.17905
385.000	0.26887	-0.17109	0.09292	-0.18303
386.000	0.30841	-0.16512	0.10874	-0.12931
387.000	0.32422	-0.13926	0.15816	-0.10146
388.000	0.33609	-0.12533	0.10874	-0.11738
389.000	0.27678	-0.15915	0.08106	-0.06167
390.000	0.34399	-0.13329	0.14234	-0.12732
391.000	0.32620	-0.12732	0.14630	-0.14125
392.000	0.31434	-0.13329	0.10083	-0.12533
393.000	0.29259	-0.08157	0.06129	-0.09350
394.000	0.33411	-0.08952	0.17200	-0.11937
395.000	0.36376	-0.03581	0.11862	-0.07560
396.000	0.34795	-0.11737	0.07908	-0.13130
397.000	0.36179	-0.04775	0.09885	-0.06963
398.000	0.31632	-0.06565	0.15816	-0.09350
399.000	0.34597	-0.03780	0.05931	-0.07759
400.000	0.36179	-0.07162	0.12653	-0.10544
401.000	0.33213	-0.06167	0.09490	-0.09947
402.000	0.33213	-0.07361	0.18386	-0.11937
403.000	0.34597	-0.07958	0.10083	-0.07361
404.000	0.34795	-0.06764	0.09687	-0.11340
405.000	0.34597	-0.09748	0.15223	-0.06167
406.000	0.35190	-0.08554	0.10280	-0.05570
407.000	0.30643	-0.07958	0.12455	-0.01592
408.000	0.35783	-0.10942	0.14630	-0.07958
409.000	0.32818	-0.07162	0.13839	-0.08952
410.000	0.36376	-0.06565	0.08699	-0.19695
411.000	0.36376	-0.04178	0.20956	-0.07162
412.000	0.38156	-0.02586	0.09094	-0.12334
413.000	0.36969	-0.04576	0.14037	-0.09947
414.000	0.37760	-0.07759	0.11862	-0.16910
415.000	0.34795	-0.04178	0.17398	-0.08753
416.000	0.34399	-0.07759	0.18979	-0.12732
417.000	0.38946	-0.05769	0.20363	-0.07958
418.000	0.35783	-0.05570	0.18979	-0.11738
419.000	0.34795	-0.05172	0.11269	-0.10345
420.000	0.34795	-0.07162	0.20363	-0.06764
421.000	0.34399	-0.06565	0.12455	0.00796
422.000	0.39539	-0.05371	0.15223	-0.06366
423.000	0.41121	-0.08753	0.13641	-0.05173
424.000	0.35981	-0.06764	0.12850	-0.06366
425.000	0.35783	-0.08753	0.10280	-0.06963
426.000	0.39539	-0.09549	0.10280	-0.08754
427.000	0.39144	-0.12135	0.07117	-0.06764
428.000	0.35190	-0.06366	0.06129	-0.08952
429.000	0.33609	-0.08355	0.13641	-0.05570
430.000	0.34399	-0.10942	0.13444	-0.01393
431.000	0.37563	-0.09549	0.18584	-0.13926
432.000	0.33411	-0.07958	0.10676	-0.05570
433.000	0.36574	-0.08753	0.08303	-0.21088
434.000	0.36574	-0.06565	0.07513	-0.15518
435.000	0.36969	-0.12533	0.11862	-0.11539
436.000	0.34795	-0.04377	0.18979	-0.12135
437.000	0.31434	-0.04974	0.09687	-0.12334
438.000	0.34597	-0.07958	0.11071	-0.09549
439.000	0.34993	-0.07759	0.02966	-0.08952
440.000	0.34597	-0.09350	0.15223	-0.06366
441.000	0.39935	-0.09947	0.10280	-0.03780
442.000	0.37958	-0.11737	0.08699	-0.12334
443.000	0.39144	-0.04973	0.12850	-0.11340
444.000	0.34004	-0.12135	0.09094	-0.13926
445.000	0.39342	-0.09549	0.09094	-0.11937
446.000	0.37958	-0.07361	0.13246	-0.17905
447.000	0.40726	-0.05968	0.14037	-0.12931
448.000	0.37167	-0.10544	0.13444	-0.15319
449.000	0.39737	-0.05570	0.07117	-0.12732
450.000	0.37365	-0.07361	0.06722	-0.05173
451.000	0.39737	-0.06565	0.04349	-0.11539
452.000	0.38946	-0.04775	0.05536	-0.03979
453.000	0.37958	-0.05172	0.08106	-0.05769
454.000	0.34993	-0.08554	0.06524	-0.11340
455.000	0.36772	-0.08753	0.04547	-0.00398
456.000	0.36574	-0.09151	0.04152	-0.05570
457.000	0.39539	-0.05769	0.10083	-0.02586
458.000	0.36376	-0.06366	0.17398	-0.00398
459.000	0.35586	-0.08554	0.03163	-0.05968
460.000	0.35190	-0.08952	0.10478	0.00995
461.000	0.35388	-0.07759	0.08106	-0.01989
462.000	0.38156	-0.04775	0.19770	-0.08952
463.000	0.36772	-0.05371	0.15421	-0.05371
464.000	0.32620	-0.10146	0.12060	-0.01790
465.000	0.31829	-0.10146	0.13641	-0.00199
466.000	0.34202	-0.08355	0.09094	-0.08157
467.000	0.36376	-0.06167	0.09292	-0.02586
468.000	0.34795	-0.05570	0.11467	0.00796
469.000	0.34795	-0.03780	0.13048	-0.04178
470.000	0.34993	-0.05769	0.13839	0.00995
471.000	0.34202	-0.07162	0.14234	0.00398
472.000	0.39737	-0.06764	0.12850	-0.03979
473.000	0.36376	-0.05371	0.05338	-0.02387
474.000	0.37958	-0.04377	0.16607	-0.04775
475.000	0.33411	-0.06167	0.16409	-0.05173
476.000	0.36574	-0.10146	0.18584	-0.04178
477.000	0.37760	-0.06167	0.16804	-0.05173
478.000	0.37958	-0.06963	0.17595	-0.06764
479.000	0.37958	-0.04178	0.14432	0.00796
480.000	0.39144	-0.06764	0.07908	-0.06963
481.000	0.37365	-0.08157	0.16211	-0.03979
482.000	0.40726	-0.06565	0.17991	-0.02785
483.000	0.36376	-0.07958	0.19177	-0.11937
484.000	0.39737	-0.06565	0.11467	-0.02785
485.000	0.37760	-0.11340	0.11862	-0.01393
486.000	0.38749	-0.10146	0.09885	-0.03979
487.000	0.35783	-0.07759	0.11862	-0.04775
488.000	0.41516	-0.10146	0.13246	-0.01393
489.000	0.37958	-0.08952	0.08501	-0.01592
490.000	0.40726	-0.09748	0.12653	-0.00199
491.000	0.37958	-0.07361	0.10676	-0.04576
492.000	0.39935	-0.09549	0.15025	-0.04974
493.000	0.41319	-0.11538	0.12653	-0.06366
494.000	0.36772	-0.09350	0.17002	-0.05968
495.000	0.35388	-0.09748	0.09687	-0.07162
496.000	0.38156	-0.07162	0.07117	-0.03780
497.000	0.36574	-0.09947	0.08501	-0.00597
498.000	0.41912	-0.09151	0.09094	0.00597
499.000	0.36772	-0.11737	0.06722	-0.03979
500.000	0.36574	-0.10345	0.11664	-0.04576
501.000	0.34004	-0.10743	0.08897	-0.00796
502.000	0.37958	-0.07958	0.16014	-0.05968
503.000	0.38156	-0.08554	0.10874	-0.02785
504.000	0.36969	-0.12931	0.20561	0.00398
505.000	0.40133	-0.07560	0.08501	-0.01592
506.000	0.39935	-0.07958	0.05536	0.00796
507.000	0.40133	-0.10942	0.06722	-0.00199
508.000	0.38749	-0.09748	0.14827	0.01790
509.000	0.38353	-0.11538	0.10280	0.02785
510.000	0.38946	-0.09151	0.13048	-0.06565
511.000	0.41912	-0.08355	0.10280	-0.02586
512.000	0.40528	-0.06963	0.10280	0.00597
513.000	0.40726	-0.07560	0.15618	-0.00199
514.000	0.38353	-0.10345	0.10280	-0.02586
515.000	0.37760	-0.07560	0.07908	0.05769
516.000	0.40923	-0.08156	0.12653	0.01393
517.000	0.39737	-0.10544	0.09292	-0.01989
518.000	0.37958	-0.08952	0.08303	0.04576
519.000	0.35586	-0.12533	0.13641	0.06366
520.000	0.40528	-0.08355	0.12653	0.08555
521.000	0.38749	-0.07162	0.13048	0.02586
522.000	0.38749	-0.08554	0.16804	0.07361
523.000	0.39737	-0.10544	0.13048	0.02984
524.000	0.41319	-0.07759	0.13641	0.00597
525.000	0.41319	-0.07759	0.17793	0.04775
526.000	0.40133	-0.11141	0.13246	0.03979
527.000	0.36376	-0.09549	0.15025	0.06167
528.000	0.42702	-0.05570	0.17595	0.03382
529.000	0.39144	-0.09748	0.12257	0.07162
530.000	0.40330	-0.13528	0.11664	0.03780
531.000	0.37760	-0.08753	0.19375	0.00995
532.000	0.41714	-0.12334	0.09687	0.07560
533.000	0.42307	-0.12533	0.07117	0.09151
534.000	0.40330	-0.09549	0.11071	-0.00796
535.000	0.41912	-0.11339	0.08897	0.05968
536.000	0.43296	-0.10345	0.20561	0.05371
537.000	0.43889	-0.10942	0.12257	0.03780
538.000	0.40923	-0.13926	0.10280	0.02984
539.000	0.43889	-0.13727	0.19572	0.03581
540.000	0.40528	-0.11737	0.11664	0.04377
541.000	0.46261	-0.08554	0.12060	0.04377
542.000	0.44482	-0.12732	0.13048	0.07560
543.000	0.45668	-0.12533	0.07908	0.12533
544.000	0.41714	-0.14125	0.20561	0.04576
545.000	0.47447	-0.12732	0.12850	0.06366
546.000	0.47842	-0.12931	0.18386	0.13329
547.000	0.45470	-0.09549	0.18979	0.11340
548.000	0.49819	-0.11538	0.18584	0.12135
549.000	0.48040	-0.13329	0.13246	0.09549
550.000	0.46459	-0.13528	0.17991	0.09748
551.000	0.44679	-0.15915	0.19375	0.08356
552.000	0.39539	-0.11141	0.09490	0.11539
553.000	0.41714	-0.17705	0.16211	0.03979
554.000	0.43889	-0.11538	0.15025	0.12732
555.000	0.48831	-0.10146	0.10676	0.08157
556.000	0.43098	-0.14920	0.06326	0.12533
557.000	0.45272	-0.14323	0.17200	0.06565
558.000	0.45272	-0.13727	0.15025	0.06963
559.000	0.41516	-0.14920	0.12455	0.12533
560.000	0.44877	-0.10345	0.16211	0.05968
561.000	0.49226	-0.14721	0.11269	0.07759
562.000	0.42900	-0.14324	0.15421	0.08356
563.000	0.45865	-0.10942	0.10478	0.07759
564.000	0.50215	-0.06963	0.17991	0.09947
565.000	0.44482	-0.09549	0.09490	0.10345
566.000	0.44877	-0.08952	0.12060	0.14125
567.000	0.46063	-0.09350	0.08303	0.07361
568.000	0.46261	-0.11737	0.12257	0.09748
569.000	0.44877	-0.10942	0.16409	0.08952
570.000	0.44877	-0.14125	0.21154	0.06366
571.000	0.47052	-0.14124	0.17793	0.07361
572.000	0.43098	-0.13130	0.06524	0.16711
573.000	0.39935	-0.16512	0.11071	0.13528
574.000	0.43691	-0.13329	0.11467	0.13329
575.000	0.43889	-0.14920	0.12257	0.18104
576.000	0.42702	-0.14125	0.19572	0.15319
577.000	0.44284	-0.16512	0.15421	0.08753
578.000	0.46063	-0.13528	0.17200	0.12334
579.000	0.44482	-0.13926	0.19770	0.17507
580.000	0.41912	-0.13329	0.17002	0.16910
581.000	0.45668	-0.17109	0.08897	0.11937
582.000	0.45075	-0.10743	0.16014	0.10146
583.000	0.41319	-0.11737	0.14234	0.07958
584.000	0.45272	-0.12334	0.16804	0.10146
585.000	0.46854	-0.14125	0.25108	0.15120
586.000	0.49226	-0.13130	0.12653	0.15915
587.000	0.48040	-0.10743	0.20363	0.13727
588.000	0.48238	-0.11737	0.18584	0.08356
589.000	0.46656	-0.13130	0.10083	0.19297
590.000	0.47249	-0.11936	0.16409	0.13926
591.000	0.47249	-0.13926	0.21945	0.10345
592.000	0.45865	-0.13130	0.15421	0.09947
593.000	0.46854	-0.10743	0.09885	0.13130
594.000	0.47842	-0.07361	0.20758	0.12533
595.000	0.47249	-0.07759	0.17002	0.13727
596.000	0.48633	-0.09748	0.11862	0.15120
597.000	0.49028	-0.12135	0.24317	0.13926
598.000	0.50017	-0.10941	0.18979	0.13727
599.000	0.43889	-0.12135	0.17398	0.11141
600.000	0.48831	-0.10345	0.20956	0.12533
601.000	0.47052	-0.10345	0.20758	0.15915
602.000	0.48831	-0.08355	0.13641	0.10743
603.000	0.46656	-0.08952	0.10874	0.14523
604.000	0.48040	-0.13329	0.24317	0.13528
605.000	0.47447	-0.10146	0.22142	0.12533
606.000	0.44679	-0.08952	0.13048	0.20690
607.000	0.44679	-0.12135	0.20363	0.11937
608.000	0.47645	-0.09947	0.17002	0.14324
609.000	0.48435	-0.09549	0.15816	0.18502
610.000	0.48435	-0.10544	0.23329	0.20491
611.000	0.44877	-0.15318	0.17991	0.09748
612.000	0.47447	-0.10544	0.21747	0.14722
613.000	0.44679	-0.10942	0.17398	0.17706
614.000	0.47052	-0.13528	0.23131	0.09151
615.000	0.50017	-0.11339	0.21945	0.15915
616.000	0.47645	-0.14323	0.20561	0.22480
617.000	0.44877	-0.16512	0.22933	0.14324
618.000	0.44877	-0.18501	0.13246	0.14125
619.000	0.41912	-0.20093	0.20165	0.14921
620.000	0.43296	-0.17308	0.15618	0.15518
621.000	0.43889	-0.16711	0.16804	0.18701
622.000	0.41912	-0.15119	0.18584	0.09350
623.000	0.45668	-0.17506	0.13048	0.15915
624.000	0.45470	-0.14522	0.19375	0.07560
625.000	0.45668	-0.20689	0.10478	0.13130
626.000	0.45075	-0.15119	0.17991	0.08753
627.000	0.50610	-0.16512	0.19375	0.11738
628.000	0.45272	-0.13130	0.17200	0.13926
629.000	0.43889	-0.19098	0.11071	0.18104
630.000	0.46656	-0.13727	0.18188	0.12135
631.000	0.46656	-0.17307	0.18188	0.13926
632.000	0.44877	-0.18700	0.17200	0.12135
633.000	0.45470	-0.17904	0.15816	0.16711
634.000	0.45865	-0.16910	0.13641	0.20690
635.000	0.42307	-0.16910	0.20363	0.29642
636.000	0.42702	-0.19297	0.21352	0.18701
637.000	0.42702	-0.19695	0.16014	0.14324
638.000	0.42900	-0.18501	0.24712	0.12334
639.000	0.44284	-0.21087	0.11664	0.20491
640.000	0.43691	-0.19894	0.16014	0.21685
641.000	0.46261	-0.17705	0.17793	0.13727
642.000	0.44482	-0.17506	0.16607	0.14921
643.000	0.43889	-0.18899	0.11862	0.17905
644.000	0.43493	-0.21286	0.15618	0.08952
645.000	0.44877	-0.15915	0.12850	0.15319
646.000	0.41714	-0.16711	0.08699	0.15518
647.000	0.41912	-0.21286	0.16409	0.09748
648.000	0.43889	-0.19496	0.15025	0.17706
649.000	0.44086	-0.17109	0.13839	0.18701
650.000	0.45075	-0.18700	0.09687	0.07958
651.000	0.44086	-0.22480	0.17793	0.12732
652.000	0.43493	-0.16114	0.13048	0.19098
653.000	0.40133	-0.19496	0.15816	0.14324
654.000	0.41319	-0.21485	0.17200	0.16910
655.000	0.39737	-0.16114	0.16211	0.15915
656.000	0.43691	-0.19695	0.14630	0.07958
657.000	0.48435	-0.14721	0.17595	0.17706
658.000	0.41319	-0.17109	0.19968	0.12334
659.000	0.44482	-0.18501	0.17002	0.18303
660.000	0.40330	-0.18899	0.15816	0.18104
661.000	0.49226	-0.16114	0.21352	0.15319
662.000	0.44482	-0.17506	0.13839	0.15716
663.000	0.47447	-0.18103	0.17991	0.17308
664.000	0.48040	-0.17705	0.15421	0.16910
665.000	0.47249	-0.16910	0.14234	0.16512
666.000	0.47052	-0.18700	0.17002	0.12135
667.000	0.42505	-0.20888	0.16607	0.09947
668.000	0.44679	-0.20888	0.20561	0.13727
669.000	0.43691	-0.18700	0.15025	0.17905
670.000	0.41714	-0.22082	0.10874	0.17905
671.000	0.45865	-0.11936	0.21154	0.17308
672.000	0.44086	-0.19496	0.22142	0.15517
673.000	0.45668	-0.17506	0.18781	0.16114
674.000	0.42702	-0.20689	0.15816	0.12533
675.000	0.46854	-0.18700	0.16409	0.11141
676.000	0.45272	-0.19297	0.24119	0.19098
677.000	0.43296	-0.18700	0.15618	0.19297
678.000	0.47645	-0.19496	0.20956	0.15517
679.000	0.41516	-0.22281	0.24910	0.14125
680.000	0.44877	-0.18899	0.23329	0.17109
681.000	0.45865	-0.21485	0.18584	0.17706
682.000	0.47249	-0.21485	0.20363	0.14523
683.000	0.40726	-0.24668	0.16607	0.18701
684.000	0.43296	-0.23872	0.22735	0.11539
685.000	0.43691	-0.23475	0.21747	0.12931
686.000	0.38353	-0.24469	0.13444	0.20690
687.000	0.42900	-0.23872	0.14037	0.15518
688.000	0.43493	-0.24071	0.12060	0.13727
689.000	0.41516	-0.21286	0.14234	0.15120
690.000	0.40726	-0.25066	0.16211	0.19098
691.000	0.43691	-0.16512	0.21154	0.15319
692.000	0.41319	-0.18302	0.18781	0.17308
693.000	0.42702	-0.22281	0.12257	0.22282
694.000	0.44877	-0.21485	0.19572	0.18899
695.000	0.42900	-0.20093	0.13641	0.20491
696.000	0.40923	-0.21485	0.12653	0.07162
697.000	0.41912	-0.24071	0.18188	0.18701
698.000	0.43098	-0.23475	0.17002	0.16711
699.000	0.41319	-0.21485	0.21352	0.18899
700.000	0.43296	-0.23673	0.15025	0.19496
701.000	0.42702	-0.23872	0.19770	0.22679
702.000	0.42900	-0.20689	0.12653	0.19496
703.000	0.47645	-0.24071	0.20165	0.13528
704.000	0.47842	-0.23872	0.22735	0.16711
705.000	0.46261	-0.27453	0.17398	0.21884
706.000	0.40726	-0.23276	0.16409	0.19695
707.000	0.47052	-0.22679	0.17595	0.21486
708.000	0.44877	-0.22082	0.14630	0.18502
709.000	0.46854	-0.25265	0.19572	0.19695
710.000	0.44482	-0.21485	0.13641	0.19297
711.000	0.43098	-0.21087	0.16211	0.18502
712.000	0.43691	-0.24867	0.17002	0.12334
713.000	0.48435	-0.19894	0.21945	0.13926
714.000	0.44284	-0.26061	0.16804	0.17706
715.000	0.41319	-0.27254	0.16014	0.18303
716.000	0.41516	-0.21485	0.21352	0.13727
717.000	0.46854	-0.25464	0.15618	0.16910
718.000	0.42702	-0.24270	0.19375	0.16910
719.000	0.46063	-0.22679	0.20758	0.25464
720.000	0.43493	-0.24469	0.21549	0.16512
721.000	0.44679	-0.26657	0.17793	0.20093
722.000	0.44482	-0.20292	0.20758	0.17905
723.000	0.42702	-0.28647	0.21154	0.19496
724.000	0.41121	-0.24270	0.22142	0.12135
725.000	0.42109	-0.26856	0.18979	0.19496
726.000	0.43098	-0.22480	0.19572	0.18104
727.000	0.44086	-0.28050	0.17595	0.08356
728.000	0.43296	-0.25862	0.21945	0.17507
729.000	0.44679	-0.22082	0.18188	0.16512
730.000	0.44482	-0.25066	0.17200	0.17308
731.000	0.43296	-0.23475	0.17793	0.12931
732.000	0.42702	-0.25265	0.15618	0.18303
733.000	0.44284	-0.26061	0.11269	0.15120
734.000	0.43691	-0.29244	0.25305	0.15716
735.000	0.43493	-0.26061	0.18979	0.17507
736.000	0.40923	-0.30437	0.19572	0.16114
737.000	0.39737	-0.28448	0.14630	0.22480
738.000	0.47249	-0.25663	0.14234	0.22282
739.000	0.43098	-0.27652	0.21154	0.16711
740.000	0.46854	-0.24071	0.24515	0.24271
741.000	0.43691	-0.24668	0.17595	0.25067
742.000	0.46063	-0.25663	0.17200	0.16711
743.000	0.43691	-0.25066	0.16409	0.23077
744.000	0.43098	-0.25265	0.16409	0.16313
745.000	0.47249	-0.26856	0.19770	0.18104
746.000	0.43493	-0.27851	0.12850	0.18104
747.000	0.45865	-0.24270	0.14234	0.13130
748.000	0.48633	-0.26061	0.18188	0.22878
749.000	0.43889	-0.27453	0.15618	0.14523
750.000	0.43493	-0.24469	0.19770	0.15716
751.000	0.44086	-0.26856	0.14432	0.15120
752.000	0.40133	-0.29045	0.20165	0.21088
753.000	0.43296	-0.25663	0.14037	0.21287
754.000	0.41714	-0.26658	0.23922	0.23276
755.000	0.42307	-0.24469	0.12653	0.22083
756.000	0.47052	-0.25265	0.15223	0.21884
757.000	0.38156	-0.31631	0.16804	0.21486
758.000	0.44482	-0.30039	0.14234	0.14921
759.000	0.39144	-0.25862	0.21352	0.20690
760.000	0.44877	-0.24668	0.18386	0.10146
761.000	0.42109	-0.28050	0.13246	0.21884
762.000	0.44086	-0.31432	0.15223	0.15716
763.000	0.40528	-0.33222	0.17991	0.18899
764.000	0.39342	-0.32228	0.17398	0.22679
765.000	0.39737	-0.28249	0.18584	0.13926
766.000	0.39935	-0.29443	0.15618	0.20292
767.000	0.36772	-0.26658	0.18386	0.20889
768.000	0.35783	-0.33223	0.15223	0.14125
769.000	0.39144	-0.31233	0.19177	0.21287
770.000	0.41121	-0.25862	0.15025	0.19496
771.000	0.43098	-0.33819	0.11664	0.24470
772.000	0.44284	-0.31233	0.19375	0.21685
773.000	0.42505	-0.31034	0.13641	0.14523
774.000	0.42307	-0.28448	0.17200	0.12732
775.000	0.40528	-0.30039	0.21747	0.16114
776.000	0.43493	-0.29045	0.15223	0.14523
777.000	0.41319	-0.32228	0.17595	0.21685
778.000	0.43691	-0.35808	0.14827	0.24072
779.000	0.38946	-0.26658	0.20956	0.19496
780.000	0.42900	-0.29443	0.19770	0.15120
781.000	0.37563	-0.32626	0.14037	0.24868
782.000	0.40726	-0.28249	0.18781	0.23475
783.000	0.42109	-0.29045	0.20363	0.20093
784.000	0.37563	-0.29642	0.16409	0.17109
785.000	0.42900	-0.30039	0.17200	0.18899
786.000	0.43098	-0.26061	0.21945	0.22878
787.000	0.38551	-0.26857	0.17200	0.22083
788.000	0.41516	-0.32029	0.08699	0.16711
789.000	0.39935	-0.24270	0.16409	0.18104
790.000	0.47447	-0.26657	0.16211	0.16910
791.000	0.40528	-0.30835	0.14234	0.15319
792.000	0.42109	-0.27055	0.14630	0.16512
793.000	0.41121	-0.30636	0.07513	0.17308
794.000	0.39935	-0.28050	0.14432	0.17308
795.000	0.38749	-0.34018	0.21747	0.21088
796.000	0.44877	-0.34217	0.16804	0.24271
797.000	0.37563	-0.32427	0.20363	0.18502
798.000	0.41319	-0.29244	0.17595	0.14921
799.000	0.41912	-0.33222	0.15223	0.20690
800.000	0.40923	-0.30437	0.25503	0.23475
801.000	0.45470	-0.28249	0.17595	0.14921
802.000	0.40726	-0.29642	0.15025	0.14921
803.000	0.42505	-0.29840	0.19770	0.16910
804.000	0.41121	-0.29443	0.18188	0.13727
805.000	0.41516	-0.29443	0.19375	0.15319
806.000	0.39737	-0.26857	0.14432	0.18303
807.000	0.39737	-0.31432	0.13246	0.18104
808.000	0.43691	-0.29244	0.12257	0.16711
809.000	0.46063	-0.28050	0.17991	0.11340
810.000	0.44086	-0.30636	0.17200	0.08952
811.000	0.42307	-0.31034	0.15025	0.15518
812.000	0.42109	-0.30039	0.19968	0.18104
813.000	0.34597	-0.27851	0.16804	0.20093
814.000	0.28073	-0.23674	0.00791	0.14125
815.000	0.17793	-0.21685	-0.19968	0.20491
816.000	-0.00791	-0.17905	-0.34597	0.19894
817.000	-0.30643	-0.14523	-0.56540	0.26657
818.000	-0.62273	-0.07360	-0.88760	0.32821
819.000	-0.98445	-0.00398	-1.36387	0.39578
820.000	-1.34609	0.07359	-1.63454	0.38579
821.000	-1.77281	0.21476	-2.01176	0.56662
822.000	-2.22893	0.24054	-2.40855	0.66584
823.000	-2.56641	0.34780	-2.80313	0.74113
824.000	-2.89976	0.54638	-3.11860	0.89782
825.000	-3.20139	0.68724	-3.46935	0.98486
826.000	-3.50086	0.77439	-3.82574	1.20075
827.000	-3.71944	0.87543	-4.11299	1.26975
828.000	-3.90446	0.91294	-4.36663	1.32287
829.000	-4.05399	1.03577	-4.54545	1.38994
830.000	-4.12086	1.03370	-4.67509	1.37977
831.000	-4.23492	0.98000	-4.81057	1.48847
832.000	-4.25261	0.99981	-4.91853	1.52190
833.000	-4.26834	0.95616	-4.88124	1.50020
834.000	-4.23492	0.86298	-4.89105	1.37340
835.000	-4.11496	0.80756	-4.73793	1.38956
836.000	-3.94578	0.79582	-4.56314	1.29873
837.000	-3.84739	0.66294	-4.39612	1.23360
838.000	-3.60721	0.59364	-4.20542	1.16449
839.000	-3.42404	0.50440	-4.03825	1.02786
840.000	-3.27824	0.49455	-3.81786	0.99836
841.000	-3.11860	0.42311	-3.63478	0.93506
842.000	-2.99244	0.41919	-3.32947	0.87976
843.000	-2.92342	0.37750	-3.29204	0.86391
844.000	-2.85638	0.31990	-3.13240	0.82035
845.000	-2.81891	0.35567	-3.03187	0.83831
846.000	-2.76171	0.35569	-2.89976	0.79669
847.000	-2.80905	0.37753	-2.88990	0.81855
848.000	-2.85638	0.39739	-2.88793	0.84438
849.000	-2.88990	0.40135	-2.92540	0.82250
850.000	-3.03581	0.43308	-2.97666	0.81253
851.000	-3.12452	0.45489	-3.05355	0.90781
852.000	-3.16394	0.53433	-3.15408	0.85410
853.000	-3.23883	0.53230	-3.25065	0.92749
854.000	-3.34721	0.55409	-3.40040	1.00677
855.000	-3.38858	0.58981	-3.48708	0.97888
856.000	-3.42010	0.59376	-3.58949	1.08199
857.000	-3.43980	0.65729	-3.65250	0.96878
858.000	-3.44768	0.66324	-3.67613	1.04021
859.000	-3.52253	0.65922	-3.73125	1.03816
860.000	-3.54025	0.67310	-3.85526	1.12730
861.000	-3.53828	0.65722	-3.73322	1.05403
862.000	-3.52647	0.69098	-3.92020	1.11332
863.000	-3.48904	0.68307	-3.93988	1.12123
864.000	-3.47132	0.66322	-3.89855	1.10541
865.000	-3.51662	0.72871	-3.96939	1.06961
866.000	-3.53041	0.65723	-3.91036	1.06175
867.000	-3.50480	0.61753	-3.96349	1.11723
868.000	-3.52253	0.66517	-3.93594	1.11529
869.000	-3.56389	0.65323	-3.90052	1.16295
870.000	-3.56783	0.64727	-3.93004	1.13712
871.000	-3.48314	0.66520	-3.84148	1.08565
872.000	-3.52056	0.64135	-3.89462	1.15701
873.000	-3.49692	0.70093	-3.82770	1.10749
874.000	-3.48904	0.65527	-3.83361	1.04994
875.000	-3.48314	0.70292	-3.80802	1.11744
876.000	-3.49101	0.65924	-3.83361	1.09955
877.000	-3.48904	0.65527	-3.75094	1.06790
878.000	-3.44571	0.70097	-3.74503	1.15721
879.000	-3.46147	0.63940	-3.79424	1.08571
880.000	-3.45556	0.69103	-3.75684	1.05996
881.000	-3.42601	0.67914	-3.77259	1.12939
882.000	-3.42207	0.67914	-3.78046	1.00833
883.000	-3.43980	0.66523	-3.72338	1.10564
884.000	-3.43980	0.65133	-3.69385	1.05408
885.000	-3.43192	0.61361	-3.69188	1.11560
886.000	-3.42601	0.67715	-3.73716	1.08776
887.000	-3.45556	0.62154	-3.78440	0.99642
888.000	-3.45556	0.65331	-3.70172	1.11956
889.000	-3.45753	0.68309	-3.73913	1.07387
890.000	-3.45556	0.68706	-3.76275	1.06987
891.000	-3.40040	0.60966	-3.75487	1.03813
892.000	-3.43980	0.69501	-3.76472	1.05796
893.000	-3.42207	0.68113	-3.76865	1.07185
894.000	-3.35312	0.71295	-3.76669	1.07185
895.000	-3.41616	0.63943	-3.74109	1.05799
896.000	-3.42010	0.68907	-3.78637	1.05000
897.000	-3.39843	0.71887	-3.83164	1.04002
898.000	-3.39646	0.72682	-3.82377	1.08964
899.000	-3.42798	0.69502	-3.76472	1.04209
900.000	-3.39646	0.71689	-3.76472	1.02423
901.000	-3.40040	0.70100	-3.75487	1.07782
902.000	-3.41813	0.73077	-3.87887	1.12330
903.000	-3.41419	0.69503	-3.78243	1.07382
904.000	-3.40040	0.70497	-3.81983	1.07774
905.000	-3.35903	0.70103	-3.81983	1.13727
906.000	-3.40040	0.68511	-3.84739	1.07175
907.000	-3.41419	0.72283	-3.75291	1.10560
908.000	-3.43389	0.75657	-3.82574	1.05193
909.000	-3.42601	0.74268	-3.79031	1.03412
910.000	-3.42404	0.69105	-3.80999	1.05195
911.000	-3.44768	0.70891	-3.82967	1.06780
912.000	-3.45359	0.72677	-3.68203	1.10172
913.000	-3.43389	0.71686	-3.84935	1.08365
914.000	-3.45556	0.72280	-3.73913	1.11753
915.000	-3.39449	0.71689	-3.78046	1.03016
916.000	-3.41419	0.72680	-3.83558	1.11145
917.000	-3.39843	0.77844	-3.80802	1.07180
918.000	-3.41222	0.73078	-3.87887	1.13917
919.000	-3.43586	0.73274	-3.87297	1.07965
920.000	-3.43783	0.71289	-3.89265	1.07963
921.000	-3.39646	0.68512	-3.81983	1.01027
922.000	-3.45162	0.71486	-3.86707	1.10546
923.000	-3.45359	0.67316	-3.78834	1.03412
924.000	-3.46541	0.70294	-3.87297	1.03997
925.000	-3.42404	0.76055	-3.82967	1.05590
926.000	-3.42207	0.73474	-3.83558	1.06780
927.000	-3.45359	0.68508	-3.76078	1.09369
928.000	-3.44177	0.74465	-3.88084	1.11337
929.000	-3.38267	0.69506	-3.81196	1.10156
930.000	-3.46935	0.69499	-3.86510	1.08959
931.000	-3.42798	0.71686	-3.89659	1.09748
932.000	-3.39646	0.77447	-3.87494	1.02211
933.000	-3.40237	0.74865	-3.83361	1.11542
934.000	-3.42010	0.73673	-3.85132	1.04992
935.000	-3.38267	0.76654	-3.79818	1.09165
936.000	-3.42601	0.75261	-3.87100	1.01021
937.000	-3.43389	0.74664	-3.84935	1.10349
938.000	-3.41813	0.78835	-3.89462	1.03994
939.000	-3.42995	0.76650	-3.84542	1.10152
940.000	-3.40040	0.74270	-3.82574	1.06979
941.000	-3.41616	0.76056	-3.86116	1.07967
942.000	-3.43980	0.71686	-3.82967	1.09757
943.000	-3.40434	0.74667	-3.85132	1.05785
944.000	-3.43389	0.77643	-3.86510	1.07966
945.000	-3.43389	0.75061	-3.84542	1.01818
946.000	-3.36494	0.77847	-3.78046	1.00238
947.000	-3.38661	0.80823	-3.87691	1.08163
948.000	-3.40237	0.78042	-3.94775	1.06567
949.000	-3.37479	0.79037	-3.91430	1.11928
950.000	-3.36888	0.79435	-3.87494	1.00425
951.000	-3.36297	0.82811	-3.89068	1.11336
952.000	-3.38267	0.80427	-3.85526	1.05190
953.000	-3.37676	0.76257	-3.84739	1.06778
954.000	-3.41616	0.78041	-3.81786	1.05790
955.000	-3.39252	0.74866	-3.84542	1.03604
956.000	-3.37676	0.78243	-3.84739	1.04000
957.000	-3.38661	0.78044	-3.89462	1.08756
958.000	-3.38464	0.72087	-3.90249	1.09946
959.000	-3.34918	0.79436	-3.85919	1.08562
960.000	-3.39055	0.73675	-3.89265	1.13122
961.000	-3.34130	0.76061	-3.89659	1.04986
962.000	-3.39843	0.78241	-3.84148	1.06580
963.000	-3.40040	0.74071	-3.89265	1.06574
964.000	-3.43783	0.78039	-3.86313	1.02014
965.000	-3.35509	0.79833	-3.83754	0.96262
966.000	-3.39252	0.77646	-3.88084	1.09552
967.000	-3.38070	0.76257	-3.85723	1.07967
968.000	-3.40237	0.75858	-3.88478	1.05583
969.000	-3.37085	0.76059	-3.89265	1.09352
970.000	-3.39252	0.76455	-3.89659	1.06970
971.000	-3.34918	0.79238	-3.87297	1.05783
972.000	-3.39252	0.78242	-3.83164	1.10550
973.000	-3.38464	0.74072	-3.87887	1.02409
974.000	-3.30977	0.81227	-3.84739	0.97849
975.000	-3.38858	0.77249	-3.85919	1.01816
976.000	-3.36494	0.76655	-3.93988	1.05973
977.000	-3.36888	0.77251	-3.92217	1.10340
978.000	-3.36888	0.81023	-3.93004	1.01411
979.000	-3.33933	0.77452	-3.89068	0.97050
980.000	-3.36494	0.76060	-3.94381	0.98631
981.000	-3.31962	0.77652	-3.83754	0.97651
982.000	-3.36888	0.79038	-3.89659	0.97049
983.000	-3.35115	0.77848	-3.92217	1.01213
984.000	-3.36888	0.74669	-3.92413	1.02403
985.000	-3.39055	0.77646	-3.91823	1.00420
986.000	-3.37085	0.82612	-3.89855	1.00224
987.000	-3.37479	0.78442	-3.89855	1.03795
988.000	-3.38267	0.78838	-3.96349	0.98034
989.000	-3.40237	0.80623	-3.84345	0.96658
990.000	-3.38464	0.78242	-3.91823	0.99031
991.000	-3.31962	0.83410	-3.92020	1.00420
992.000	-3.39646	0.78043	-3.93791	1.01608
993.000	-3.39843	0.83006	-3.84345	0.98444
994.000	-3.35509	0.80429	-3.97333	0.94064
995.000	-3.31765	0.80035	-3.90839	1.02802
996.000	-3.36100	0.83208	-3.92807	0.95855
997.000	-3.34130	0.84004	-3.94578	1.03393
998.000	-3.34524	0.86188	-3.88871	1.03797
999.000	-3.29598	0.82817	-3.95365	1.02995
1000.000	-3.37873	0.78441	-3.83754	1.02017
1001.000	-3.37085	0.84796	-3.91430	0.99031
1002.000	-3.32356	0.81424	-3.90446	1.00223
1003.000	-3.37282	0.83406	-3.97726	1.03190
1004.000	-3.35706	0.81421	-3.91626	1.03198
1005.000	-3.29007	0.84803	-3.94775	0.99424
1006.000	-3.34918	0.84599	-4.00677	0.99616
1007.000	-3.36297	0.88966	-3.91036	0.93278
1008.000	-3.38070	0.88369	-3.92020	0.99031
1009.000	-3.31174	0.84801	-3.94578	0.92678
1010.000	-3.33341	0.83409	-3.95562	0.92677
1011.000	-3.29795	0.81823	-3.93791	0.94862
1012.000	-3.29992	0.81029	-3.89068	1.00423
1013.000	-3.34130	0.79437	-3.97726	0.96841
1014.000	-3.31568	0.81028	-4.02251	1.04375
1015.000	-3.39055	0.84000	-3.93988	1.02005
1016.000	-3.30780	0.83610	-3.99300	1.05172
1017.000	-3.33933	0.84799	-3.89659	0.99232
1018.000	-3.35706	0.79634	-3.96349	1.01803
1019.000	-3.34721	0.77650	-4.00087	0.99815
1020.000	-3.35115	0.84996	-4.02841	0.99415
1021.000	-3.31371	0.79241	-3.96349	0.93470
1022.000	-3.33933	0.79239	-3.94971	0.95654
1023.000	-3.33144	0.78048	-3.98906	0.95451
1024.000	-3.35312	0.85393	-3.92807	0.94665
1025.000	-3.30583	0.83809	-3.98119	0.97635
1026.000	-3.33144	0.84799	-4.01661	0.91083
1027.000	-3.38464	0.84993	-3.98119	0.97039
1028.000	-3.35706	0.83804	-3.94971	0.91686
1029.000	-3.30977	0.81425	-3.91036	0.92087
1030.000	-3.30977	0.87581	-3.93594	0.92481
1031.000	-3.30583	0.83809	-4.03825	1.03976
1032.000	-3.30780	0.82220	-3.98513	0.97237
1033.000	-3.33538	0.77452	-4.00874	0.95647
1034.000	-3.35115	0.83209	-3.94381	0.87916
1035.000	-3.34130	0.84401	-3.94971	0.98035
1036.000	-3.34130	0.85195	-3.98119	0.94460
1037.000	-3.32750	0.85594	-3.97726	0.86524
1038.000	-3.29401	0.83611	-3.96152	0.95851
1039.000	-3.30780	0.83213	-3.97529	0.98429
1040.000	-3.34130	0.85791	-3.96742	0.96843
1041.000	-3.36691	0.84995	-3.94775	0.96250
1042.000	-3.37479	0.87178	-4.00480	0.92870
1043.000	-3.35903	0.87577	-3.99497	0.98030
1044.000	-3.32947	0.91550	-3.99890	0.91879
1045.000	-3.33538	0.87380	-3.96545	0.98827
1046.000	-3.35509	0.85194	-3.93988	0.89703
1047.000	-3.33538	0.80430	-4.03038	0.88701
1048.000	-3.41419	0.80424	-3.99103	0.88308
1049.000	-3.34918	0.82415	-3.94971	0.92876
1050.000	-3.36888	0.85590	-4.02448	0.94455
1051.000	-3.31568	0.87183	-4.04415	0.85525
1052.000	-3.37873	0.83604	-4.03235	0.94653
1053.000	-3.40237	0.86381	-3.94381	0.86527
1054.000	-3.31962	0.85793	-4.03825	0.89692
1055.000	-3.34524	0.86982	-3.95955	0.89701
1056.000	-3.31765	0.86786	-4.03825	0.88105
1057.000	-3.38267	0.82214	-4.05595	0.97427
1058.000	-3.29401	0.85597	-4.07562	0.86910
1059.000	-3.34327	0.87975	-3.99103	0.92276
1060.000	-3.37282	0.86384	-4.01267	0.93068
1061.000	-3.33144	0.88969	-4.05595	0.91674
1062.000	-3.34524	0.81422	-3.95562	0.92479
1063.000	-3.29598	0.88376	-4.04021	0.97429
1064.000	-3.36888	0.89958	-3.92413	0.91887
1065.000	-3.36100	0.88371	-3.98513	0.93468
1066.000	-3.34327	0.89564	-3.97726	0.92675
1067.000	-3.33341	0.91947	-4.05399	0.94253
1068.000	-3.34918	0.88769	-4.07169	0.84728
1069.000	-3.36691	0.86782	-4.04808	0.87905
1070.000	-3.33341	0.89564	-3.99497	0.95451
1071.000	-3.36888	0.86782	-4.00874	0.86124
1072.000	-3.30977	0.89765	-4.06972	0.88895
1073.000	-3.38267	0.89163	-3.97333	0.93271
1074.000	-3.31371	0.89765	-4.08742	0.87107
1075.000	-3.26839	0.86592	-3.89068	0.91692
1076.000	-3.18168	0.86599	-3.86313	0.95863
1077.000	-3.01215	0.80853	-3.77850	0.90911
1078.000	-2.87807	0.78479	-3.66234	0.80799
1079.000	-2.84849	0.59210	-3.37085	0.72684
1080.000	-2.63349	0.47298	-3.16197	0.62569
1081.000	-2.36908	0.33195	-2.83666	0.43514
1082.000	-2.12233	0.15905	-2.54865	0.28023
1083.000	-1.85576	-0.00795	-2.30789	0.06162
1084.000	-1.61478	-0.23864	-1.96437	-0.07953
1085.000	-1.24729	-0.40773	-1.58318	-0.35199
1086.000	-0.93899	-0.69816	-1.32831	-0.65233
1087.000	-0.68401	-0.94284	-0.88563	-1.05416
1088.000	-0.49028	-1.19345	-0.67215	-1.29879
1089.000	-0.29655	-1.42611	-0.33411	-1.57720
1090.000	-0.03361	-1.62096	-0.05733	-1.85748
1091.000	0.17793	-1.82568	0.22735	-2.06413
1092.000	0.49028	-1.90710	0.42307	-2.37396
1093.000	0.71959	-2.09974	0.76703	-2.57436
1094.000	0.97457	-2.32603	0.99236	-2.77268
1095.000	1.25124	-2.44295	1.23148	-2.85579
1096.000	1.51601	-2.60941	1.49428	-3.03400
1097.000	1.82416	-2.78558	1.63651	-3.18448
1098.000	2.05520	-2.98351	1.76491	-3.39634
1099.000	2.30789	-3.17329	1.98017	-3.63758
1100.000	2.55457	-3.35299	2.18353	-3.79746
1101.000	2.76763	-3.60384	2.28026	-3.87241
1102.000	2.96680	-3.64477	2.43223	-3.88188
1103.000	3.12255	-3.76294	2.44999	-3.91546
1104.000	3.24277	-3.87126	2.63743	-3.99203
1105.000	3.30583	-3.97579	2.60192	-4.13650
1106.000	3.35706	-4.00325	2.77354	-4.15173
1107.000	3.39843	-4.03668	2.71042	-4.17567
1108.000	3.38070	-4.06639	2.73804	-4.22894
1109.000	3.32356	-4.09034	2.68675	-4.21726
1110.000	3.32553	-4.02314	2.66308	-4.15804
1111.000	3.31174	-4.03506	2.68281	-4.20739
1112.000	3.20730	-4.00187	2.48156	-4.18631
1113.000	3.16000	-3.98229	2.55654	-4.17421
1114.000	3.12649	-3.89147	2.50919	-4.09725
1115.000	3.07524	-3.85211	2.47959	-3.97077
1116.000	3.03384	-3.78897	2.48354	-3.98658
1117.000	3.07524	-3.76508	2.49340	-3.97864
1118.000	3.07129	-3.74730	2.53879	-3.93894
1119.000	3.09298	-3.75315	2.47367	-3.99452
1120.000	3.12452	-3.77678	2.53681	-3.97653
1121.000	3.16000	-3.78258	2.50130	-4.05575
1122.000	3.20730	-3.80021	2.64138	-3.99795
1123.000	3.25263	-3.83959	2.64138	-4.04542
1124.000	3.24671	-3.87322	2.66703	-4.15012
1125.000	3.32159	-3.91050	2.74593	-4.16962
1126.000	3.35509	-3.95385	2.83468	-4.14559
1127.000	3.41025	-3.95758	2.83074	-4.13572
1128.000	3.45359	-3.97716	2.88004	-4.17507
1129.000	3.48314	-4.01063	2.94117	-4.22227
1130.000	3.56783	-4.05769	2.89187	-4.25605
1131.000	3.56979	-4.09521	2.90371	-4.25205
1132.000	3.54419	-4.12496	2.83863	-4.33923
1133.000	3.58161	-4.14652	2.86821	-4.24823
1134.000	3.56979	-4.13275	2.82877	-4.19502
1135.000	3.55404	-4.13282	2.91751	-4.22236
1136.000	3.58358	-4.12083	2.80313	-4.19314
1137.000	3.58752	-4.14057	2.86821	-4.26404
1138.000	3.64856	-4.13239	2.90173	-4.25601
1139.000	3.59933	-4.12669	2.84454	-4.19101
1140.000	3.67022	-4.11451	2.83666	-4.25625
1141.000	3.63084	-4.11469	2.81102	-4.24647
1142.000	3.59146	-4.17610	2.80116	-4.23662
1143.000	3.61312	-4.15033	2.78538	-4.22482
1144.000	3.63478	-4.16603	2.76171	-4.21898
1145.000	3.59146	-4.15635	2.84652	-4.23843
1146.000	3.59736	-4.18397	2.80116	-4.21686
1147.000	3.59540	-4.11090	2.83863	-4.24439
1148.000	3.57964	-4.18010	2.81496	-4.21681
1149.000	3.58752	-4.18599	2.80116	-4.18919
1150.000	3.59933	-4.14446	2.77157	-4.15965
1151.000	3.56586	-4.13276	2.69662	-4.18560
1152.000	3.59146	-4.17808	2.77157	-4.25847
1153.000	3.58949	-4.11488	2.68675	-4.15401
1154.000	3.53828	-4.09140	2.75185	-4.17750
1155.000	3.57964	-4.12480	2.69267	-4.15003
1156.000	3.55207	-4.03997	2.77157	-4.12604
1157.000	3.54419	-4.09928	2.73409	-4.15187
1158.000	3.54222	-4.10324	2.71042	-4.18160
1159.000	3.55404	-4.11109	2.79129	-4.10620
1160.000	3.51465	-4.13299	2.68083	-4.14019
1161.000	3.50874	-4.05202	2.78735	-4.17738
1162.000	3.54025	-4.07954	2.76171	-4.16363
1163.000	3.53435	-4.05586	2.76368	-4.09444
1164.000	3.52647	-4.04799	2.76763	-4.23081
1165.000	3.56192	-4.10117	2.82680	-4.16736
1166.000	3.53041	-4.09144	2.77749	-4.17939
1167.000	3.53238	-4.05784	2.81102	-4.19904
1168.000	3.58161	-4.08133	2.81496	-4.20100
1169.000	3.54616	-4.08742	2.68873	-4.15993
1170.000	3.53631	-4.04795	2.77946	-4.22089
1171.000	3.57767	-4.04974	2.74790	-4.15380
1172.000	3.56192	-4.07747	2.79918	-4.15362
1173.000	3.56192	-4.07154	2.75185	-4.18541
1174.000	3.52647	-4.07565	2.71634	-4.21123
1175.000	3.54616	-4.06964	2.77157	-4.18929
1176.000	3.54025	-4.05188	2.78538	-4.16948
1177.000	3.55601	-4.04588	2.72029	-4.18157
1178.000	3.56192	-4.05969	2.69859	-4.17571
1179.000	3.54813	-4.09728	2.76565	-4.18536
1180.000	3.53828	-4.05584	2.76960	-4.17349
1181.000	3.53828	-4.09140	2.77552	-4.14777
1182.000	3.53238	-4.08945	2.74790	-4.24274
1183.000	3.55798	-4.10712	2.80707	-4.27612
1184.000	3.57373	-4.11495	2.71831	-4.24087
1185.000	3.52450	-4.08356	2.79129	-4.29594
1186.000	3.55207	-4.05776	2.79721	-4.25442
1187.000	3.55798	-4.03007	2.75382	-4.30398
1188.000	3.58358	-4.12083	2.73607	-4.27045
1189.000	3.54813	-4.11111	2.67492	-4.27659
1190.000	3.57570	-4.10506	2.75579	-4.19330
1191.000	3.54025	-4.09534	2.74790	-4.21705
1192.000	3.56586	-4.09128	2.73804	-4.15976
1193.000	3.53435	-4.05981	2.73212	-4.22106
1194.000	3.55207	-4.07751	2.77552	-4.16754
1195.000	3.54222	-4.09336	2.68281	-4.24494
1196.000	3.55404	-4.08541	2.75382	-4.16366
1197.000	3.51465	-4.11521	2.81102	-4.24449
1198.000	3.55995	-4.10513	2.72620	-4.27048
1199.000	3.55995	-4.12884	2.75185	-4.12216
1200.000	3.54616	-4.11112	2.66703	-4.18768
1201.000	3.56979	-4.16435	2.66111	-4.13432
1202.000	3.56192	-4.12685	2.63743	-4.18383
1203.000	3.56979	-4.12682	2.71634	-4.14205
1204.000	3.55010	-4.14073	2.71042	-4.14207
1205.000	3.61509	-4.06340	2.80905	-4.17335
1206.000	3.53238	-4.08748	2.77552	-4.12800
1207.000	3.57767	-4.18801	2.73212	-4.12815
1208.000	3.57767	-4.07542	2.64335	-4.18578
1209.000	3.56783	-4.12485	2.73804	-4.15383
1210.000	3.57176	-4.06162	2.69859	-4.22315
1211.000	3.57964	-4.09122	2.73212	-4.12025
1212.000	3.55601	-4.10120	2.75382	-4.11622
1213.000	3.60327	-4.06346	2.73409	-4.12617
1214.000	3.58752	-4.10699	2.72029	-4.16575
1215.000	3.55404	-4.06763	2.69267	-4.18166
1216.000	3.59736	-4.10892	2.70648	-4.12429
1217.000	3.60918	-4.03775	2.74396	-4.19334
1218.000	3.58161	-4.02009	2.71240	-4.21520
1219.000	3.59933	-4.02594	2.77946	-4.15171
1220.000	3.62887	-4.10087	2.77157	-4.11418
1221.000	3.57176	-4.06952	2.71831	-4.08273
1222.000	3.58752	-4.10501	2.74593	-4.14590
1223.000	3.56586	-4.10313	2.72029	-4.15587
1224.000	3.57964	-4.07146	2.73804	-4.17558
1225.000	3.52450	-4.12505	2.75776	-4.15376
1226.000	3.56979	-4.06756	2.77552	-4.17544
1227.000	3.53631	-4.08351	2.69662	-4.19746
1228.000	3.52056	-4.14482	2.76171	-4.14980
1229.000	3.60327	-4.07136	2.77157	-4.20906
1230.000	3.54813	-4.12099	2.78932	-4.21295
1231.000	3.51859	-4.08951	2.73212	-4.13804
1232.000	3.54025	-4.12498	2.80313	-4.15953
1233.000	3.54616	-4.08742	2.73212	-4.17164
1234.000	3.56783	-4.09917	2.80313	-4.20104
1235.000	3.59736	-4.11879	2.79524	-4.11607
1236.000	3.57373	-4.09717	2.81891	-4.15553
1237.000	3.55404	-4.07553	2.74987	-4.20914
1238.000	3.54813	-4.07160	2.72620	-4.16376
1239.000	3.56389	-4.08536	2.74987	-4.15379
1240.000	3.53238	-4.09143	2.70648	-4.17371
1241.000	3.57767	-4.00035	2.74396	-4.12218
1242.000	3.55798	-4.03600	2.75185	-4.13204
1243.000	3.55798	-3.99055	2.74987	-4.09844
1244.000	3.59736	-4.04175	2.72620	-4.20131
1245.000	3.53435	-4.04400	2.74790	-4.23681
1246.000	3.58752	-4.00821	2.77749	-4.20311
1247.000	3.62296	-4.06139	2.75579	-4.09446
1248.000	3.61312	-4.04563	2.70648	-4.22312
1249.000	3.58358	-4.04379	2.70056	-4.08674
1250.000	3.61312	-4.02192	2.75776	-4.16167
1251.000	3.54025	-4.05188	2.67097	-4.16790
1252.000	3.59736	-4.05756	2.75974	-4.18341
1253.000	3.56389	-4.04783	2.77354	-4.19324
1254.000	3.55601	-4.05379	2.73015	-4.10839
1255.000	3.55995	-4.05179	2.74790	-4.17554
1256.000	3.57176	-4.11101	2.77157	-4.19127
1257.000	3.58949	-4.03388	2.77552	-4.12405
1258.000	3.59736	-4.04768	2.82088	-4.19702
1259.000	3.59343	-4.10696	2.72620	-4.18352
1260.000	3.56979	-4.12287	2.84060	-4.11196
1261.000	3.59933	-4.05162	2.77946	-4.15764
1262.000	3.61903	-4.09697	2.77946	-4.17345
1263.000	3.56192	-4.11500	2.75974	-4.16957
1264.000	3.58949	-4.09908	2.76368	-4.18339
1265.000	3.57176	-4.11891	2.83074	-4.14758
1266.000	3.60721	-4.05356	2.75382	-4.14982
1267.000	3.59343	-4.06745	2.71831	-4.17169
1268.000	3.60918	-4.05158	2.78735	-4.16750
1269.000	3.58752	-4.08131	2.82877	-4.15747
1270.000	3.53435	-4.08944	2.72226	-4.13214
1271.000	3.61115	-4.09700	2.80116	-4.16547
1272.000	3.56389	-4.12882	2.67886	-4.12833
1273.000	3.59736	-4.09114	2.74987	-4.10239
1274.000	3.61903	-4.04166	2.79918	-4.21094
1275.000	3.59933	-4.08718	2.86624	-4.12768
1276.000	3.59343	-4.06943	2.72226	-4.15191
1277.000	3.58752	-4.07933	2.78341	-4.14972
1278.000	3.59933	-4.10101	2.81496	-4.18716
1279.000	3.55404	-4.07355	2.76960	-4.12605
1280.000	3.59540	-4.08522	2.69070	-4.18562
1281.000	3.58555	-4.00229	2.81102	-4.17532
1282.000	3.62887	-4.01395	2.80510	-4.18522
1283.000	3.62099	-4.00016	2.77354	-4.20905
1284.000	3.63084	-4.05148	2.76763	-4.18140
1285.000	3.62887	-4.02186	2.73212	-4.20327
1286.000	3.63872	-4.00008	2.72818	-4.14794
1287.000	3.67416	-3.99597	2.76565	-4.15967
1288.000	3.62099	-4.04757	2.70056	-4.16187
1289.000	3.64462	-4.03166	2.68478	-4.17181
1290.000	3.62493	-4.03768	2.77946	-4.23868
1291.000	3.61509	-4.05550	2.76171	-4.24072
1292.000	3.62099	-4.04362	2.82088	-4.19900
1293.000	3.62493	-4.05546	2.72423	-4.22108
1294.000	3.62887	-4.06334	2.68478	-4.18960
1295.000	3.65841	-4.00987	2.72226	-4.19540
1296.000	3.63281	-4.04555	2.71634	-4.17367
1297.000	3.65447	-4.04347	2.76565	-4.09245
1298.000	3.66234	-4.01973	2.70845	-4.15789
1299.000	3.67219	-4.03154	2.73607	-4.22302
1300.000	3.60130	-4.02790	2.70056	-4.18954
1301.000	3.69188	-4.02750	2.69662	-4.15990
1302.000	3.64265	-4.06130	2.80313	-4.13384
1303.000	3.61115	-4.02984	2.72620	-4.16969
1304.000	3.66825	-4.05526	2.72620	-4.12817
1305.000	3.69385	-4.07293	2.84652	-4.20286
1306.000	3.67810	-4.03744	2.66111	-4.10467
1307.000	3.67022	-4.02957	2.82482	-4.15946
1308.000	3.66431	-4.03157	2.72029	-4.18354
1309.000	3.68597	-4.04728	2.84849	-4.17716
1310.000	3.68006	-4.03743	2.76763	-4.12803
1311.000	3.71156	-4.01556	2.72226	-4.13610
1312.000	3.66628	-4.00786	2.79918	-4.15560
1313.000	3.67416	-3.98609	2.74001	-4.21510
1314.000	3.68991	-3.98404	2.74198	-4.15975
1315.000	3.66825	-4.00390	2.85046	-4.18901
1316.000	3.65644	-3.98419	2.76960	-4.23871
1317.000	3.63084	-4.04160	2.77354	-4.09638
1318.000	3.66234	-3.99405	2.73409	-4.19140
1319.000	3.69385	-4.00378	2.74001	-4.16371
1320.000	3.69778	-3.99389	2.75185	-4.06482
1321.000	3.64265	-4.06328	2.77749	-4.13788
1322.000	3.67416	-3.99399	2.72423	-4.14597
1323.000	3.61312	-4.02785	2.70845	-4.23300
1324.000	3.67219	-3.99795	2.75776	-4.20713
1325.000	3.63872	-4.04354	2.80313	-4.15756
1326.000	3.62887	-3.99419	2.75185	-4.18739
1327.000	3.64069	-4.00007	2.75382	-4.27039
1328.000	3.68597	-3.98801	2.74790	-4.18542
1329.000	3.65250	-3.96248	2.84257	-4.13963
1330.000	3.60918	-4.03972	2.76171	-4.21107
1331.000	3.60327	-4.01209	2.76763	-4.18535
1332.000	3.62887	-4.01593	2.73409	-4.14198
1333.000	3.66431	-4.05923	2.75776	-4.16958
1334.000	3.64265	-3.97833	2.79327	-4.21491
1335.000	3.66234	-3.99800	2.72818	-4.15980
1336.000	3.67219	-4.01771	2.80707	-4.22474
1337.000	3.67810	-3.97422	2.74396	-4.09648
1338.000	3.61509	-4.03179	2.77552	-4.19916
1339.000	3.64265	-4.00599	2.69859	-4.11641
1340.000	3.61115	-4.02391	2.75974	-4.16166
1341.000	3.62493	-4.01397	2.77946	-4.12799
1342.000	3.69188	-4.04923	2.74396	-4.15579
1343.000	3.66234	-4.04146	2.72818	-4.14794
1344.000	3.63675	-4.03960	2.72029	-4.10842
1345.000	3.64856	-4.01584	2.82482	-4.10609
1346.000	3.63281	-4.00603	2.75776	-4.09446
1347.000	3.66431	-3.99206	2.72029	-4.12819
1348.000	3.64462	-4.03957	2.78735	-4.12006
1349.000	3.64069	-4.02180	2.67097	-4.17976
1350.000	3.63872	-3.98625	2.74001	-4.06091
1351.000	3.62887	-3.99024	2.78538	-4.08250
1352.000	3.64659	-3.98226	2.75185	-4.13599
1353.000	3.68597	-4.02358	2.76960	-4.12209
1354.000	3.64265	-3.99611	2.75776	-4.05689
1355.000	3.61509	-4.00216	2.74198	-4.13405
1356.000	3.67022	-4.02562	2.68478	-4.05318
1357.000	3.64856	-4.04745	2.74790	-4.10635
1358.000	3.65250	-4.01187	2.83074	-4.10804
1359.000	3.66825	-3.99600	2.71437	-4.09856
1360.000	3.63872	-3.98822	2.74593	-4.10241
1361.000	3.65053	-4.02176	2.68873	-4.12039
1362.000	3.63281	-3.99220	2.78538	-4.11018
1363.000	3.60524	-3.99825	2.73804	-4.11232
1364.000	3.63084	-4.02580	2.75185	-4.11029
1365.000	3.61706	-4.01005	2.73212	-4.12815
1366.000	3.66431	-4.04738	2.71042	-4.15195
1367.000	3.61903	-4.04561	2.80313	-4.08244
1368.000	3.62493	-4.04756	2.72818	-4.12619
1369.000	3.64462	-4.02376	2.77354	-4.09638
1370.000	3.63281	-3.99220	2.70253	-4.11639
1371.000	3.67416	-3.99795	2.69070	-4.10457
1372.000	3.65841	-4.03358	2.72620	-4.09852
1373.000	3.66628	-4.04144	2.75382	-4.10633
1374.000	3.68597	-4.02950	2.79918	-4.12792
1375.000	3.68006	-3.98804	2.76565	-4.08652
1376.000	3.67219	-4.02364	2.79721	-4.18327
1377.000	3.64659	-4.01387	2.76565	-4.17746
1378.000	3.66825	-4.03946	2.77157	-4.15174
1379.000	3.63084	-3.99616	2.77946	-4.14973
1380.000	3.63084	-4.02975	2.76960	-4.21697
1381.000	3.62690	-4.05742	2.77354	-4.15964
1382.000	3.66038	-4.02962	2.76171	-4.11619
1383.000	3.63084	-4.07519	2.79918	-4.13780
1384.000	3.62887	-4.05939	2.79721	-4.14770
1385.000	3.66038	-4.02962	2.74593	-4.13997
1386.000	3.66431	-4.04935	2.79129	-4.18527
1387.000	3.65644	-4.03161	2.75776	-4.14388
1388.000	3.68203	-4.03742	2.77749	-4.14776
1389.000	3.64856	-4.04350	2.74593	-4.17752
1390.000	3.67613	-4.05720	2.74396	-4.10834
1391.000	3.68991	-4.06504	2.78341	-4.16751
1392.000	3.62493	-4.03175	2.67492	-4.15998
1393.000	3.68203	-4.10261	2.76763	-4.12803
1394.000	3.67022	-4.10464	2.79129	-4.08446
1395.000	3.65841	-4.04543	2.73212	-4.09257
1396.000	3.67613	-4.04733	2.71634	-4.15588
1397.000	3.65447	-4.05533	2.76171	-4.12608
1398.000	3.64856	-4.06720	2.74593	-4.11229
1399.000	3.63675	-3.97835	2.75382	-4.12017
1400.000	3.68400	-4.03544	2.74790	-4.16566
1401.000	3.68597	-4.00184	2.75382	-4.12413
1402.000	3.67219	-4.03549	2.74396	-4.08660
1403.000	3.68006	-4.00780	2.73607	-4.15977
1404.000	3.71550	-4.00566	2.82088	-4.17133
1405.000	3.65841	-4.04345	2.80905	-4.17533
1406.000	3.71550	-4.00369	2.71634	-4.06890
1407.000	3.68597	-4.01172	2.74593	-4.07077
1408.000	3.65250	-4.03163	2.77946	-4.14973
1409.000	3.71747	-4.03133	2.75776	-4.12016
1410.000	3.66431	-4.03157	2.74198	-4.07474
1411.000	3.68203	-4.05125	2.77157	-4.16558
1412.000	3.69385	-4.05317	2.72818	-4.20131
1413.000	3.69188	-4.04923	2.83468	-4.10803
1414.000	3.71156	-4.09062	2.72029	-4.14599
1415.000	3.69778	-4.03340	2.76763	-4.13199
1416.000	3.72338	-4.04909	2.78735	-4.22086
1417.000	3.68400	-4.08680	2.77749	-4.06473
1418.000	3.69385	-4.05120	2.82482	-4.18515
1419.000	3.67810	-4.05917	2.74790	-4.07077
1420.000	3.70566	-4.07287	2.79327	-4.05479
1421.000	3.70960	-4.01359	2.72029	-4.13017
1422.000	3.70172	-4.04326	2.79918	-4.12199
1423.000	3.66628	-4.06515	2.80116	-4.13582
1424.000	3.65644	-4.08297	2.83863	-4.04673
1425.000	3.69975	-4.01561	2.71831	-4.12622
1426.000	3.68203	-4.06310	2.78538	-4.17343
1427.000	3.70369	-4.05708	2.79721	-4.16944
1428.000	3.72338	-4.04118	2.79524	-4.14375
1429.000	3.71156	-4.06692	2.74593	-4.15183
1430.000	3.70960	-4.06298	2.75382	-4.17750
1431.000	3.69778	-4.08081	2.75579	-4.13598
1432.000	3.69188	-4.07096	2.70451	-4.09662
1433.000	3.69385	-4.07095	2.72423	-4.17365
1434.000	3.74109	-4.07271	2.80707	-4.07452
1435.000	3.70172	-4.10054	2.80510	-4.20103
1436.000	3.64856	-4.08696	2.74987	-4.11030
1437.000	3.73125	-4.06090	2.77157	-4.12406
1438.000	3.67810	-4.03546	2.79129	-4.16946
1439.000	3.66431	-4.08096	2.75185	-4.16762
1440.000	3.68597	-4.06704	2.78341	-4.12798
1441.000	3.63675	-4.06133	2.76565	-4.16560
1442.000	3.62296	-3.99817	2.77946	-4.07857
1443.000	3.57373	-3.89365	2.74790	-4.11031
1444.000	3.46147	-3.90005	2.64927	-4.12843
1445.000	3.28021	-3.80784	2.44210	-4.04011
1446.000	3.11860	-3.68185	2.30000	-3.92776
1447.000	2.96483	-3.48051	2.08877	-3.79373
1448.000	2.65716	-3.36658	1.75305	-3.66973
1449.000	2.44210	-3.15317	1.50613	-3.51369
1450.000	2.20525	-2.88408	1.25124	-3.37137
1451.000	1.92488	-2.67036	0.94690	-3.16353
1452.000	1.68392	-2.50004	0.70971	-2.94949
1453.000	1.40142	-2.29787	0.50215	-2.84840
1454.000	1.20975	-2.10937	0.30446	-2.65198
1455.000	1.06153	-1.93068	0.21352	-2.50706
1456.000	0.96864	-1.85324	0.01582	-2.42566
1457.000	0.92713	-1.77179	0.06326	-2.33828
1458.000	0.92713	-1.64460	0.02966	-2.20122
1459.000	0.98247	-1.64258	0.08501	-2.15950
1460.000	1.08920	-1.53520	0.11664	-2.11778
1461.000	1.17418	-1.51130	0.23922	-2.04028
1462.000	1.26705	-1.51523	0.42109	-2.00249
1463.000	1.32831	-1.55096	0.41121	-1.97865
1464.000	1.40339	-1.53899	0.47842	-1.96870
1465.000	1.48835	-1.56874	0.57924	-1.99450
1466.000	1.45279	-1.56281	0.62471	-1.99051
1467.000	1.45674	-1.59858	0.62075	-2.02230
1468.000	1.50020	-1.58662	0.64052	-2.08388
1469.000	1.47254	-1.61247	0.65436	-2.02626
1470.000	1.41525	-1.61649	0.65436	-2.15341
1471.000	1.46266	-1.65421	0.57529	-2.13357
1472.000	1.40537	-1.66220	0.64448	-2.10375
1473.000	1.38561	-1.69997	0.59703	-2.27062
1474.000	1.36190	-1.74768	0.55750	-2.20112
1475.000	1.37968	-1.74568	0.65436	-2.26067
1476.000	1.39944	-1.78540	0.60889	-2.29843
1477.000	1.36980	-1.82914	0.61878	-2.34013
1478.000	1.35597	-1.81921	0.68006	-2.34804
1479.000	1.39154	-1.83508	0.65436	-2.28053
1480.000	1.34016	-1.80730	0.62273	-2.34608
1481.000	1.35992	-1.84703	0.66227	-2.39174
1482.000	1.33424	-1.83910	0.64645	-2.32820
1483.000	1.36190	-1.78146	0.62668	-2.32622
1484.000	1.34016	-1.80333	0.53180	-2.32825
1485.000	1.37178	-1.77152	0.53575	-2.29448
1486.000	1.29274	-1.79144	0.50610	-2.22299
1487.000	1.27298	-1.70800	0.42505	-2.16143
1488.000	1.27496	-1.68813	0.49819	-2.18723
1489.000	1.30855	-1.64438	0.40923	-2.19521
1490.000	1.21370	-1.68220	0.31829	-2.15351
1491.000	1.20579	-1.69612	0.38353	-2.11774
1492.000	1.20777	-1.64445	0.38353	-2.01045
1493.000	1.19987	-1.62458	0.36969	-2.05218
1494.000	1.21765	-1.61662	0.41121	-2.06409
1495.000	1.23544	-1.61064	0.30643	-2.06213
1496.000	1.22358	-1.62059	0.39539	-2.10184
1497.000	1.21963	-1.61264	0.43296	-2.06210
1498.000	1.20777	-1.57290	0.40133	-2.05416
1499.000	1.21765	-1.56494	0.34795	-2.05616
1500.000	1.23346	-1.56295	0.36376	-2.00847
1501.000	1.20579	-1.60470	0.36574	-2.04026
1502.000	1.23148	-1.55897	0.43691	-2.05017
1503.000	1.18998	-1.55502	0.40330	-1.99654
1504.000	1.24532	-1.60269	0.41121	-2.09190
1505.000	1.21172	-1.58880	0.44482	-2.08792
1506.000	1.24729	-1.52518	0.33016	-2.05815
1507.000	1.26112	-1.58479	0.37167	-2.10781
1508.000	1.19196	-1.56695	0.44284	-2.14752
1509.000	1.25322	-1.59473	0.40528	-2.05018
1510.000	1.24729	-1.56095	0.44482	-2.07799
1511.000	1.23346	-1.56493	0.48238	-2.03427
1512.000	1.24729	-1.54903	0.45075	-2.06606
1513.000	1.26705	-1.58479	0.48040	-2.07400
1514.000	1.21370	-1.57290	0.55157	-2.15345
1515.000	1.26705	-1.57286	0.45668	-2.04620
1516.000	1.24136	-1.55897	0.40330	-2.09191
1517.000	1.27891	-1.57484	0.47447	-2.08195
1518.000	1.27891	-1.55696	0.42900	-2.15150
1519.000	1.27693	-1.57683	0.47249	-2.07599
1520.000	1.26903	-1.60665	0.41714	-2.04422
1521.000	1.31052	-1.57483	0.48633	-2.03427
1522.000	1.24136	-1.64641	0.44284	-2.00447
1523.000	1.31843	-1.54700	0.36969	-2.05814
1524.000	1.25520	-1.62852	0.40528	-1.94090
1525.000	1.26112	-1.58877	0.48040	-2.01241
1526.000	1.27891	-1.61658	0.47052	-2.02831
1527.000	1.29867	-1.58676	0.46854	-2.05414
1528.000	1.23939	-1.61660	0.41319	-2.02833
1529.000	1.27891	-1.62055	0.49028	-1.97863
1530.000	1.26310	-1.56094	0.43098	-2.06607
1531.000	1.24136	-1.59474	0.41714	-2.03627
1532.000	1.23741	-1.57089	0.35388	-1.97866
1533.000	1.26705	-1.58876	0.39935	-1.96475
1534.000	1.25915	-1.63448	0.42307	-2.04422
1535.000	1.21765	-1.66431	0.41912	-2.03230
1536.000	1.29076	-1.58676	0.44086	-1.92102
1537.000	1.26903	-1.55100	0.43098	-1.97865
1538.000	1.24729	-1.59474	0.39539	-1.90116
1539.000	1.21172	-1.58681	0.36179	-1.93892
1540.000	1.24927	-1.58480	0.39737	-1.94686
1541.000	1.22160	-1.61264	0.41319	-1.93096
1542.000	1.29472	-1.61260	0.36969	-1.97270
1543.000	1.22555	-1.58481	0.39539	-1.91308
1544.000	1.22555	-1.61463	0.36179	-1.99257
1545.000	1.20777	-1.66233	0.41714	-1.95481
1546.000	1.27693	-1.57683	0.44086	-1.92897
1547.000	1.24136	-1.60865	0.38749	-1.96276
1548.000	1.25124	-1.65038	0.39737	-2.03826
1549.000	1.24729	-1.59474	0.46656	-1.99652
1550.000	1.22753	-1.64245	0.38551	-1.99853
1551.000	1.24136	-1.59077	0.43296	-2.01839
1552.000	1.24334	-1.54903	0.41121	-1.97269
1553.000	1.21567	-1.59476	0.54366	-2.01438
1554.000	1.19789	-1.66234	0.44482	-2.00845
1555.000	1.22555	-1.62655	0.47842	-2.02433
1556.000	1.23544	-1.63847	0.37760	-2.00648
1557.000	1.26903	-1.66031	0.46261	-2.04421
1558.000	1.20184	-1.65240	0.39935	-2.01839
1559.000	1.25322	-1.62653	0.36969	-1.98661
1560.000	1.22358	-1.68220	0.39342	-2.05019
1561.000	1.19196	-1.65638	0.46261	-1.98460
1562.000	1.24729	-1.64641	0.39342	-2.03429
1563.000	1.21172	-1.65836	0.43098	-2.01640
1564.000	1.22951	-1.61065	0.40133	-2.09985
1565.000	1.16627	-1.63056	0.38551	-2.03827
1566.000	1.19591	-1.66830	0.34399	-2.02238
1567.000	1.18406	-1.65639	0.43691	-2.04024
1568.000	1.24532	-1.61859	0.38353	-2.11178
1569.000	1.21567	-1.67028	0.44877	-2.04222
1570.000	1.22555	-1.66033	0.30841	-2.06809
1571.000	1.19789	-1.63849	0.33016	-2.01046
1572.000	1.22358	-1.61065	0.36969	-2.07403
1573.000	1.23939	-1.60468	0.35783	-2.06410
1574.000	1.21963	-1.65835	0.44679	-2.08395
1575.000	1.20184	-1.63849	0.42900	-2.00249
1576.000	1.19196	-1.60868	0.40726	-2.06210
1577.000	1.21567	-1.62457	0.33609	-2.03629
1578.000	1.22951	-1.65040	0.39935	-2.02038
1579.000	1.19394	-1.59477	0.42307	-1.97865
1580.000	1.20184	-1.64644	0.35586	-2.07801
1581.000	1.18406	-1.62657	0.36772	-1.97667
1582.000	1.22358	-1.59277	0.42900	-2.00050
1583.000	1.20579	-1.60470	0.40923	-2.04422
1584.000	1.16825	-1.59677	0.44679	-1.98063
1585.000	1.25124	-1.57486	0.42702	-2.03627
1586.000	1.19394	-1.53713	0.40133	-2.07601
1587.000	1.22358	-1.59873	0.33806	-2.04424
1588.000	1.25717	-1.58281	0.35388	-2.02039
1589.000	1.21172	-1.56495	0.41121	-1.97269
1590.000	1.23148	-1.59276	0.43889	-2.10580
1591.000	1.23148	-1.54506	0.39539	-2.06807
1592.000	1.22555	-1.57090	0.44284	-1.96871
1593.000	1.22753	-1.60866	0.41912	-1.97070
1594.000	1.26508	-1.59870	0.48435	-2.06407
1595.000	1.15441	-1.63255	0.41319	-2.09985
1596.000	1.29867	-1.57881	0.47645	-1.98658
1597.000	1.23544	-1.60270	0.43296	-2.03825
1598.000	1.23148	-1.57885	0.47842	-1.98857
1599.000	1.28879	-1.59273	0.37958	-2.09589
1600.000	1.25915	-1.62057	0.48040	-2.09983
1601.000	1.28088	-1.55894	0.42307	-2.07998
1602.000	1.21370	-1.62258	0.38749	-2.08992
1603.000	1.24729	-1.60468	0.38156	-2.04025
1604.000	1.27496	-1.60267	0.45470	-2.08792
1605.000	1.24532	-1.59871	0.46063	-2.08990
1606.000	1.20382	-1.60470	0.43691	-2.08792
1607.000	1.22753	-1.61264	0.46854	-2.04023
1608.000	1.24532	-1.56692	0.40330	-2.01442
1609.000	1.19394	-1.61067	0.34993	-2.05417
1610.000	1.24532	-1.59275	0.40528	-2.04820
1611.000	1.17418	-1.63652	0.43296	-2.04620
1612.000	1.17418	-1.64645	0.43098	-1.99852
1613.000	1.22160	-1.58482	0.47052	-2.07599
1614.000	1.24729	-1.61064	0.46063	-2.06606
1615.000	1.17418	-1.65242	0.50808	-2.14551
1616.000	1.21963	-1.61860	0.45075	-2.03428
1617.000	1.21567	-1.63649	0.33609	-2.01046
1618.000	1.18010	-1.62459	0.38353	-2.06012
1619.000	1.21765	-1.64444	0.44877	-2.01043
1620.000	1.20975	-1.63848	0.44086	-2.09587
1621.000	1.21963	-1.62258	0.46656	-1.99652
1622.000	1.22358	-1.66829	0.43691	-2.03825
1623.000	1.23148	-1.61860	0.48238	-2.04023
1624.000	1.22951	-1.54307	0.46854	-2.02036
1625.000	1.24334	-1.61859	0.45668	-2.04421
1626.000	1.24927	-1.62057	0.42702	-2.02236
1627.000	1.21963	-1.60668	0.45865	-2.01242
1628.000	1.17813	-1.65241	0.53575	-2.03028
1629.000	1.24532	-1.64442	0.46656	-1.99652
1630.000	1.21370	-1.61861	0.50808	-2.01836
1631.000	1.23346	-1.64841	0.46656	-2.08195
1632.000	1.18010	-1.60074	0.49424	-2.06208
1633.000	1.22160	-1.61264	0.38156	-2.01840
1634.000	1.22555	-1.57488	0.44877	-2.03229
1635.000	1.20184	-1.61066	0.45668	-2.03825
1636.000	1.19196	-1.63452	0.46656	-2.04619
1637.000	1.23346	-1.59872	0.46459	-2.01838
1638.000	1.23544	-1.62257	0.47645	-2.00446
1639.000	1.19196	-1.59080	0.43098	-2.03031
1640.000	1.25124	-1.59871	0.39935	-2.00647
1641.000	1.23939	-1.63449	0.41121	-2.01243
1642.000	1.24927	-1.60865	0.49819	-2.02433
1643.000	1.24334	-1.60269	0.44284	-1.98262
1644.000	1.25124	-1.61262	0.47249	-1.98658
1645.000	1.22951	-1.59872	0.48238	-1.99453
1646.000	1.18998	-1.61465	0.46063	-1.99652
1647.000	1.22555	-1.59674	0.43098	-2.03428
1648.000	1.23939	-1.61064	0.46854	-1.98857
1649.000	1.23148	-1.57487	0.48238	-2.03228
1650.000	1.27298	-1.63844	0.43493	-2.04223
1651.000	1.19987	-1.61464	0.43493	-1.98063
1652.000	1.23939	-1.63847	0.42505	-2.05415
1653.000	1.20975	-1.58880	0.39539	-1.99256
1654.000	1.22358	-1.65835	0.37958	-2.01442
1655.000	1.26705	-1.62454	0.44482	-2.00447
1656.000	1.20777	-1.65637	0.47052	-2.03626
1657.000	1.23544	-1.63449	0.45470	-2.05613
1658.000	1.22160	-1.63450	0.38551	-2.06410
1659.000	1.22358	-1.64245	0.47447	-2.07202
1660.000	1.22555	-1.65636	0.41714	-1.95878
1661.000	1.18998	-1.62458	0.40330	-2.03826
1662.000	1.27100	-1.61460	0.39737	-2.07999
1663.000	1.22951	-1.61661	0.39737	-2.07005
1664.000	1.23148	-1.60468	0.36969	-2.04622
1665.000	1.22753	-1.63251	0.47052	-2.10381
1666.000	1.24729	-1.58679	0.41714	-2.05813
1667.000	1.26508	-1.63447	0.41714	-2.04223
1668.000	1.21765	-1.65835	0.44086	-2.07004
1669.000	1.21765	-1.65040	0.36574	-2.03231
1670.000	1.21370	-1.65041	0.42307	-2.01839
1671.000	1.24532	-1.60666	0.41912	-2.12369
1672.000	1.26310	-1.61460	0.45865	-2.07401
1673.000	1.23148	-1.66431	0.44679	-2.06805
1674.000	1.23741	-1.65039	0.43493	-2.08792
1675.000	1.23346	-1.62456	0.40528	-2.07402
1676.000	1.21765	-1.64842	0.47052	-2.12169
1677.000	1.23544	-1.64046	0.41516	-1.99256
1678.000	1.23939	-1.61859	0.44679	-2.12567
1679.000	1.18010	-1.63254	0.45668	-2.07004
1680.000	1.24927	-1.57089	0.46656	-2.09189
1681.000	1.27298	-1.61062	0.42307	-2.02634
1682.000	1.22951	-1.58282	0.48831	-2.02036
1683.000	1.25520	-1.59275	0.44679	-2.15745
1684.000	1.28879	-1.65235	0.35586	-2.13761
1685.000	1.25520	-1.67621	0.42702	-2.09190
1686.000	1.29472	-1.60067	0.37365	-2.09191
1687.000	1.27100	-1.58677	0.46459	-2.12368
1688.000	1.24334	-1.55499	0.46459	-2.04023
1689.000	1.24334	-1.63449	0.44482	-2.09587
1690.000	1.26705	-1.56889	0.37167	-2.11973
1691.000	1.25322	-1.63647	0.43296	-2.10978
1692.000	1.24532	-1.59076	0.42109	-2.11375
1693.000	1.25520	-1.59076	0.46854	-2.07997
1694.000	1.23148	-1.65636	0.49819	-2.11969
1695.000	1.29076	-1.58279	0.49226	-2.10976
1696.000	1.22160	-1.64046	0.36969	-2.10185
1697.000	1.14453	-1.61269	0.44679	-2.08792
1698.000	1.27100	-1.61261	0.36969	-2.09191
1699.000	1.14256	-1.67231	0.41516	-2.08396
1700.000	1.18801	-1.65241	0.46063	-2.03030
1701.000	1.17813	-1.59875	0.41121	-2.07998
1702.000	1.21963	-1.65438	0.41121	-2.12170
1703.000	1.20184	-1.67625	0.39935	-2.09787
1704.000	1.19591	-1.64048	0.51994	-2.08790
1705.000	1.23544	-1.60866	0.41319	-2.08396
1706.000	1.17813	-1.62062	0.46261	-2.03229
1707.000	1.18010	-1.64049	0.44284	-2.14156
1708.000	1.14453	-1.66635	0.47842	-2.06208
1709.000	1.23346	-1.63449	0.41714	-2.06210
1710.000	1.24532	-1.58878	0.43493	-2.10580
1711.000	1.20579	-1.62259	0.45865	-2.08196
1712.000	1.19789	-1.60073	0.47249	-2.02831
1713.000	1.22951	-1.64046	0.47645	-2.05414
1714.000	1.18603	-1.67626	0.48238	-1.94485
1715.000	1.18010	-1.64446	0.53971	-2.06802
1716.000	1.18406	-1.66036	0.41912	-2.07203
1717.000	1.20184	-1.63650	0.46261	-2.03626
1718.000	1.20382	-1.66830	0.46261	-2.00248
1719.000	1.19789	-1.64445	0.48238	-2.08195
1720.000	1.19196	-1.64048	0.38551	-2.01641
1721.000	1.24136	-1.64443	0.43296	-1.98461
1722.000	1.20382	-1.68022	0.45272	-1.97467
1723.000	1.24729	-1.61660	0.48633	-2.07003
1724.000	1.19196	-1.64843	0.40923	-2.01640
1725.000	1.20184	-1.66234	0.46261	-1.96870
1726.000	1.18603	-1.63254	0.43098	-1.94487
1727.000	1.13268	-1.66039	0.43098	-2.01044
1728.000	1.21765	-1.60469	0.42900	-2.02435
1729.000	1.18208	-1.66434	0.41516	-2.00647
1730.000	1.20975	-1.63252	0.39144	-1.97270
1731.000	1.19394	-1.67824	0.44679	-1.99454
1732.000	1.19987	-1.67625	0.36969	-2.00052
1733.000	1.18406	-1.64844	0.36376	-2.02834
1734.000	1.22160	-1.65636	0.45470	-2.02831
1735.000	1.23544	-1.66033	0.41319	-2.02634
1736.000	1.21172	-1.64246	0.51598	-2.05214
1737.000	1.17418	-1.68024	0.48238	-2.07202
1738.000	1.20975	-1.65637	0.49226	-2.01837
1739.000	1.25322	-1.64044	0.44284	-2.00249
1740.000	1.19196	-1.68818	0.44284	-1.98063
1741.000	1.21567	-1.70605	0.43889	-2.07799
1742.000	1.18998	-1.67824	0.50412	-2.02830
1743.000	1.18208	-1.68222	0.41714	-2.00051
1744.000	1.25915	-1.67025	0.50412	-2.06208
1745.000	1.24927	-1.65038	0.44679	-2.07600
1746.000	1.17615	-1.59478	0.36179	-2.08993
1747.000	1.02991	-1.59088	0.31632	-1.96874
1748.000	1.00026	-1.54518	0.18781	-1.81176
1749.000	0.82633	-1.44785	0.04547	-1.77798
1750.000	0.50215	-1.42409	-0.17793	-1.76804
1751.000	0.24119	-1.23723	-0.49424	-1.59506
1752.000	-0.00791	-1.12588	-0.70575	-1.52343
1753.000	-0.38551	-0.94885	-1.13860	-1.38013
1754.000	-0.82633	-0.79763	-1.54564	-1.23082
1755.000	-1.17813	-0.52310	-2.01769	-1.03972
1756.000	-1.64046	-0.34403	-2.39868	-0.76124
1757.000	-1.91303	-0.07754	-2.82482	-0.43118
1758.000	-2.21314	0.21669	-3.26642	-0.20656
1759.000	-2.61376	0.41535	-3.57570	0.03971
1760.000	-2.91751	0.63776	-3.80605	0.34738
1761.000	-3.17774	0.81039	-4.13266	0.56947
1762.000	-3.40434	0.88367	-4.47276	0.61086
1763.000	-3.62690	0.94499	-4.66920	0.73361
1764.000	-3.76865	0.98255	-4.86554	0.83249
1765.000	-3.98906	1.02197	-5.16178	0.79448
1766.000	-4.18773	1.12882	-5.26374	0.90130
1767.000	-4.30963	1.11476	-5.44992	0.97032
1768.000	-4.40398	1.20781	-5.64773	0.93635
1769.000	-4.51598	1.20763	-5.69275	1.07085
1770.000	-4.57296	1.27691	-5.78474	1.05287
1771.000	-4.72419	1.31032	-5.84345	1.12596
1772.000	-4.75364	1.38953	-5.93930	1.24840
1773.000	-4.86161	1.41110	-6.05662	1.23627
1774.000	-4.79094	1.43898	-6.08204	1.29157
1775.000	-4.80272	1.48056	-6.00970	1.35304
1776.000	-4.76149	1.51829	-5.90800	1.33550
1777.000	-4.61421	1.53050	-5.79061	1.47029
1778.000	-4.44918	1.54869	-5.65556	1.43700
1779.000	-4.32732	1.49938	-5.54786	1.48673
1780.000	-4.19953	1.48972	-5.31274	1.44574
1781.000	-4.02448	1.45832	-5.17551	1.52526
1782.000	-3.98316	1.42467	-4.98721	1.50986
1783.000	-3.86313	1.40901	-4.80272	1.38546
1784.000	-3.87691	1.38518	-4.66135	1.40556
1785.000	-3.86313	1.35743	-4.63974	1.20940
1786.000	-3.92807	1.31368	-4.59064	1.28282
1787.000	-3.90249	1.30579	-4.62796	1.21735
1788.000	-4.05005	1.25398	-4.53956	1.24129
1789.000	-4.11693	1.27371	-4.62207	1.16186
1790.000	-4.26441	1.20010	-4.75560	1.14975
1791.000	-4.32732	1.20397	-4.89694	1.18913
1792.000	-4.47276	1.11650	-4.94993	1.20093
1793.000	-4.49437	1.21956	-5.08137	1.18880
1794.000	-4.58082	1.28284	-5.14609	1.21047
1795.000	-4.54742	1.30867	-5.18335	1.32327
1796.000	-4.65545	1.30451	-5.38134	1.28326
1797.000	-4.66920	1.33619	-5.41465	1.28715
1798.000	-4.60439	1.40964	-5.48518	1.31866
1799.000	-4.60635	1.39180	-5.45971	1.44737
1800.000	-4.58082	1.46518	-5.59290	1.44507
1801.000	-4.59653	1.50478	-5.53611	1.47489
1802.000	-4.61028	1.49682	-5.58507	1.48070
1803.000	-4.57492	1.54842	-5.65947	1.49436
1804.000	-4.54938	1.54055	-5.55178	1.57181
1805.000	-4.52188	1.57430	-5.51456	1.56795
1806.000	-4.56510	1.55637	-5.56549	1.69444
1807.000	-4.58867	1.62369	-5.44796	1.53646
1808.000	-4.60439	1.57214	-5.54982	1.59160
1809.000	-4.56510	1.54844	-5.53023	1.55406
1810.000	-4.55724	1.53657	-5.45579	1.57998
1811.000	-4.57689	1.56625	-5.41857	1.58997
1812.000	-4.52777	1.64761	-5.43816	1.51670
1813.000	-4.49634	1.57832	-5.42249	1.59788
1814.000	-4.50420	1.51092	-5.41857	1.54247
1815.000	-4.47079	1.51892	-5.39701	1.58607
1816.000	-4.41184	1.56463	-5.27942	1.49333
1817.000	-4.44918	1.52491	-5.34018	1.49912
1818.000	-4.45507	1.51102	-5.35782	1.45949
1819.000	-4.44721	1.51698	-5.21473	1.52121
1820.000	-4.39022	1.55872	-5.25786	1.50922
1821.000	-4.38236	1.52901	-5.28530	1.51312
1822.000	-4.39218	1.57260	-5.25590	1.48547
1823.000	-4.46097	1.50110	-5.26374	1.51515
1824.000	-4.43739	1.53484	-5.20884	1.53904
1825.000	-4.44328	1.49122	-5.24413	1.43996
1826.000	-4.40791	1.47940	-5.27746	1.44385
1827.000	-4.38629	1.51512	-5.23629	1.43998
1828.000	-4.39415	1.51709	-5.22845	1.47762
1829.000	-4.40791	1.49526	-5.23825	1.46374
1830.000	-4.42559	1.55072	-5.23825	1.46769
1831.000	-4.42953	1.50513	-5.23041	1.52513
1832.000	-4.47079	1.49910	-5.28530	1.41017
1833.000	-4.43739	1.57052	-5.27550	1.51908
1834.000	-4.39415	1.50916	-5.21473	1.49547
1835.000	-4.39808	1.56664	-5.25982	1.43795
1836.000	-4.43935	1.51502	-5.25590	1.40034
1837.000	-4.46490	1.52884	-5.26178	1.35083
1838.000	-4.36270	1.56076	-5.31666	1.42594
1839.000	-4.43346	1.54674	-5.30098	1.42201
1840.000	-4.42756	1.52693	-5.20884	1.45588
1841.000	-4.47079	1.52486	-5.25786	1.44389
1842.000	-4.44132	1.50312	-5.25590	1.46765
1843.000	-4.46293	1.55064	-5.22845	1.43406
1844.000	-4.50027	1.49111	-5.20884	1.40638
1845.000	-4.47472	1.50702	-5.22257	1.55880
1846.000	-4.41970	1.53488	-5.26962	1.45970
1847.000	-4.47865	1.55061	-5.24413	1.49540
1848.000	-4.53367	1.48906	-5.27158	1.44980
1849.000	-4.46490	1.51298	-5.25590	1.46567
1850.000	-4.46097	1.51894	-5.27942	1.41612
1851.000	-4.49044	1.54464	-5.27942	1.47552
1852.000	-4.52777	1.50691	-5.31666	1.50512
1853.000	-4.47276	1.49513	-5.28334	1.45967
1854.000	-4.47276	1.50306	-5.33430	1.42788
1855.000	-4.48848	1.48519	-5.31470	1.50711
1856.000	-4.47865	1.55656	-5.21865	1.47764
1857.000	-4.48455	1.51889	-5.20884	1.43410
1858.000	-4.44525	1.55663	-5.24021	1.38453
1859.000	-4.46883	1.52090	-5.24217	1.43007
1860.000	-4.46686	1.49316	-5.31274	1.47940
1861.000	-4.49044	1.54464	-5.23629	1.47958
1862.000	-4.51795	1.49503	-5.24021	1.48353
1863.000	-4.46883	1.49910	-5.30294	1.52099
1864.000	-4.49044	1.51887	-5.27746	1.53689
1865.000	-4.46490	1.50505	-5.25786	1.49141
1866.000	-4.45507	1.47534	-5.22453	1.45981
1867.000	-4.48062	1.57439	-5.31862	1.44771
1868.000	-4.44918	1.49914	-5.27354	1.43792
1869.000	-4.50616	1.52479	-5.33626	1.45361
1870.000	-4.41380	1.55273	-5.26374	1.44586
1871.000	-4.49241	1.53869	-5.32058	1.37446
1872.000	-4.47669	1.53278	-5.25002	1.39441
1873.000	-4.50420	1.50299	-5.26962	1.43397
1874.000	-4.45507	1.47534	-5.25590	1.34490
1875.000	-4.48258	1.51691	-5.28138	1.36068
1876.000	-4.46097	1.53281	-5.39506	1.38221
1877.000	-4.47472	1.55656	-5.30686	1.43982
1878.000	-4.49044	1.52680	-5.22845	1.40238
1879.000	-4.45311	1.46147	-5.28530	1.37849
1880.000	-4.46883	1.53676	-5.26374	1.51317
1881.000	-4.51598	1.48513	-5.26374	1.41418
1882.000	-4.47472	1.48720	-5.29314	1.42599
1883.000	-4.45900	1.51498	-5.20296	1.46382
1884.000	-4.49241	1.48320	-5.32842	1.42393
1885.000	-4.46883	1.54270	-5.28922	1.43392
1886.000	-4.47276	1.50107	-5.28334	1.41810
1887.000	-4.47079	1.50901	-5.31666	1.42792
1888.000	-4.47472	1.52882	-5.33038	1.43184
1889.000	-4.41577	1.54876	-5.21865	1.45190
1890.000	-4.49830	1.53075	-5.26374	1.42804
1891.000	-4.48455	1.48718	-5.27942	1.39831
1892.000	-4.48848	1.53275	-5.25786	1.49339
1893.000	-4.41970	1.56461	-5.34802	1.43378
1894.000	-4.45114	1.53283	-5.28138	1.53886
1895.000	-4.49241	1.50302	-5.33626	1.43579
1896.000	-4.46097	1.48128	-5.30882	1.48534
1897.000	-4.50223	1.51290	-5.20688	1.44599
1898.000	-4.49044	1.50698	-5.36958	1.44759
1899.000	-4.44328	1.48329	-5.31470	1.52096
1900.000	-4.47276	1.50107	-5.32450	1.39820
1901.000	-4.44132	1.51699	-5.36370	1.46740
1902.000	-4.49437	1.53076	-5.29902	1.42994
1903.000	-4.46883	1.50901	-5.23041	1.50335
1904.000	-4.42953	1.52297	-5.38134	1.45152
1905.000	-4.45114	1.49319	-5.31274	1.42595
1906.000	-4.43542	1.50710	-5.24806	1.49935
1907.000	-4.46686	1.51298	-5.32842	1.44571
1908.000	-4.49634	1.46931	-5.26178	1.43200
1909.000	-4.43149	1.51503	-5.28922	1.50519
1910.000	-4.50027	1.49111	-5.30686	1.46357
1911.000	-4.41773	1.52101	-5.28530	1.48738
1912.000	-4.47669	1.51296	-5.24609	1.46570
1913.000	-4.44721	1.52887	-5.31078	1.41407
1914.000	-4.47669	1.51098	-5.24806	1.48945
1915.000	-4.46686	1.49514	-5.21865	1.49348
1916.000	-4.50223	1.51885	-5.33038	1.51498
1917.000	-4.53367	1.45140	-5.25198	1.43599
1918.000	-4.47079	1.51495	-5.31078	1.46158
1919.000	-4.48651	1.48321	-5.34214	1.47141
1920.000	-4.42559	1.59036	-5.30490	1.41211
1921.000	-4.49634	1.51490	-5.33234	1.43976
1922.000	-4.46293	1.49317	-5.28922	1.52102
1923.000	-4.41380	1.48930	-5.26374	1.38844
1924.000	-4.47669	1.47332	-5.27746	1.41811
1925.000	-4.50027	1.46534	-5.25394	1.40430
1926.000	-4.45900	1.57444	-5.29314	1.50518
1927.000	-4.42756	1.48333	-5.33234	1.39621
1928.000	-4.49044	1.52680	-5.24217	1.50530
1929.000	-4.51009	1.49307	-5.27942	1.37257
1930.000	-4.47472	1.47530	-5.24217	1.44987
1931.000	-4.50223	1.52678	-5.23825	1.46967
1932.000	-4.46490	1.51496	-5.25982	1.46962
1933.000	-4.42363	1.52298	-5.24021	1.40829
1934.000	-4.48651	1.50897	-5.25198	1.46766
1935.000	-4.41773	1.47542	-5.22061	1.42220
1936.000	-4.44525	1.44563	-5.23237	1.43207
1937.000	-4.46097	1.48128	-5.25394	1.51121
1938.000	-4.45900	1.49912	-5.16767	1.39262
1939.000	-4.43739	1.51106	-5.30686	1.48931
1940.000	-4.43346	1.48530	-5.29314	1.44777
1941.000	-4.51991	1.51683	-5.26962	1.42605
1942.000	-4.47079	1.51693	-5.27550	1.48740
1943.000	-4.46097	1.47137	-5.26570	1.47555
1944.000	-4.44328	1.46347	-5.27550	1.44979
1945.000	-4.44721	1.48923	-5.23825	1.36672
1946.000	-4.49241	1.47725	-5.27354	1.46761
1947.000	-4.45311	1.44760	-5.30098	1.43389
1948.000	-4.43739	1.47736	-5.25002	1.51716
1949.000	-4.44132	1.47735	-5.28334	1.45967
1950.000	-4.41577	1.42586	-5.24021	1.46967
1951.000	-4.40398	1.51311	-5.26374	1.37458
1952.000	-4.40398	1.52698	-5.25590	1.43598
1953.000	-4.46883	1.46937	-5.23825	1.40236
1954.000	-4.43149	1.49323	-5.14413	1.48970
1955.000	-4.43346	1.48530	-5.17943	1.53515
1956.000	-4.36860	1.49534	-5.17355	1.45795
1957.000	-4.40791	1.52896	-5.21669	1.53110
1958.000	-4.33125	1.47162	-5.21473	1.50735
1959.000	-4.35091	1.46167	-5.15982	1.54906
1960.000	-4.38825	1.52900	-5.20296	1.47372
1961.000	-4.37056	1.46956	-5.31470	1.46949
1962.000	-4.36074	1.51716	-5.27354	1.62598
1963.000	-4.39415	1.49727	-5.26962	1.48148
1964.000	-4.40594	1.50121	-5.22453	1.54692
1965.000	-4.37450	1.46163	-5.23825	1.50531
1966.000	-4.35484	1.39823	-5.27158	1.48939
1967.000	-4.36467	1.44182	-5.24609	1.45778
1968.000	-4.41577	1.45956	-5.15590	1.51343
1969.000	-4.39415	1.49529	-5.25394	1.58842
1970.000	-4.49634	1.41976	-5.18728	1.41435
1971.000	-4.51009	1.52478	-5.24021	1.51521
1972.000	-4.67313	1.46102	-5.40877	1.43760
1973.000	-4.79683	1.44689	-5.49497	1.50270
1974.000	-4.98917	1.49401	-5.67905	1.51212
1975.000	-5.22257	1.48357	-5.91192	1.41855
1976.000	-5.50085	1.50466	-6.20516	1.42964
1977.000	-5.88649	1.53925	-6.62296	1.48771
1978.000	-6.27159	1.55791	-6.98162	1.45108
1979.000	-6.70292	1.57435	-7.37474	1.45969
1980.000	-7.00305	1.64044	-7.74387	1.57467
1981.000	-7.42723	1.69804	-8.29441	1.61778
1982.000	-7.77686	1.69665	-8.65607	1.70469
1983.000	-8.31376	1.69638	-9.03633	1.83248
1984.000	-8.74107	1.73181	-9.43310	1.83042
1985.000	-8.91867	1.76043	-9.92107	1.90803
1986.000	-9.20979	1.74331	-10.18367	2.02970
1987.000	-9.50235	1.74772	-10.44774	2.00845
1988.000	-9.84048	1.79297	-10.73428	2.03977
1989.000	-10.12428	1.74836	-10.91928	2.13605
1990.000	-10.25260	1.79264	-11.16686	2.24924
1991.000	-10.31385	1.78838	-11.24866	2.23691
1992.000	-10.41906	1.79560	-11.51656	2.20172
1993.000	-10.47833	1.81089	-11.50896	2.27574
1994.000	-10.55287	1.76356	-11.50517	2.27577
1995.000	-10.57579	1.75171	-11.55641	2.31428
1996.000	-10.45539	1.79148	-11.60195	2.35671
1997.000	-10.38272	1.79581	-11.48049	2.31490
1998.000	-10.22197	1.90234	-11.40262	2.33890
1999.000	-10.00737	1.89970	-11.17257	2.37974
2000.000	-9.87119	1.85154	-11.01455	2.37713
2001.000	-9.73297	1.90324	-10.82585	2.36889
2002.000	-9.47927	1.94974	-10.61209	2.36861
2003.000	-9.44080	1.84803	-10.34064	2.24758
2004.000	-9.30223	1.89191	-10.20090	2.26812
2005.000	-9.23483	1.91385	-10.07063	2.25340
2006.000	-9.24061	1.87851	-9.96710	2.20912
2007.000	-9.19245	1.92781	-9.90572	2.20366
2008.000	-9.24831	1.91181	-9.85583	2.22161
2009.000	-9.33303	1.87605	-9.88462	2.21946
2010.000	-9.47350	1.82433	-9.86927	2.09235
2011.000	-9.58887	1.77472	-9.91148	2.08229
2012.000	-9.63115	1.83916	-10.03229	2.05609
2013.000	-9.75217	1.79736	-10.10896	2.13775
2014.000	-9.77329	1.86188	-10.27748	2.07993
2015.000	-9.95176	1.85500	-10.31576	2.10704
2016.000	-9.95176	1.84717	-10.45539	2.08265
2017.000	-9.99778	1.89584	-10.47833	2.09618
2018.000	-10.09171	1.85811	-10.63119	2.09318
2019.000	-10.15494	1.85775	-10.63882	2.11656
2020.000	-10.10896	1.91866	-10.84492	2.16780
2021.000	-10.19324	1.83992	-10.74000	2.10219
2022.000	-10.12812	1.88529	-10.81059	2.17976
2023.000	-10.18558	1.87126	-10.90212	2.23566
2024.000	-10.03805	1.89560	-10.86971	2.20469
2025.000	-10.12812	1.92051	-10.87734	2.20463
2026.000	-10.10704	1.86585	-10.98979	2.27400
2027.000	-10.12428	1.95965	-10.97454	2.31506
2028.000	-10.11662	1.91862	-10.92118	2.31548
2029.000	-10.18750	1.91233	-10.97645	2.31115
2030.000	-10.04763	1.87989	-10.91165	2.23754
2031.000	-10.09746	1.96177	-10.87353	2.30219
2032.000	-10.09363	1.89136	-10.88687	2.24943
2033.000	-10.03229	1.92695	-10.82776	2.27523
2034.000	-10.10896	1.87954	-10.81822	2.23433
2035.000	-10.05721	1.96397	-10.74573	2.30513
2036.000	-10.07830	1.94819	-10.80106	2.29495
2037.000	-10.02079	1.88592	-10.73809	2.29738
2038.000	-10.06105	1.95221	-10.78389	2.29313
2039.000	-10.01121	1.95055	-10.70946	2.29564
2040.000	-10.02654	1.90741	-10.70946	2.22343
2041.000	-9.97861	1.96836	-10.74191	2.29930
2042.000	-10.06296	1.87393	-10.67510	2.25101
2043.000	-10.02271	1.83111	-10.77244	2.20540
2044.000	-10.01121	1.90163	-10.62546	2.21038
2045.000	-10.03996	1.88972	-10.75908	2.24843
2046.000	-9.99395	1.93892	-10.71901	2.26044
2047.000	-9.93833	1.91184	-10.75718	2.26796
2048.000	-9.98628	1.85676	-10.70374	2.24299
2049.000	-9.91915	1.90413	-10.73618	2.25251
2050.000	-9.94792	1.92157	-10.62546	2.19866
2051.000	-9.91723	1.90218	-10.74382	2.20171
2052.000	-9.88846	1.90430	-10.69801	2.20595
2053.000	-9.86543	1.92010	-10.72473	2.18818
2054.000	-9.88654	1.86124	-10.70183	2.25276
2055.000	-9.88654	1.86124	-10.70756	2.27614
2056.000	-9.89229	1.87687	-10.68847	2.27238
2057.000	-9.89997	1.86900	-10.70565	2.28591
2058.000	-9.92682	1.85710	-10.65601	2.21992
2059.000	-9.85775	1.91623	-10.68465	2.25289
2060.000	-9.88078	1.88477	-10.69228	2.29187
2061.000	-9.91148	1.91983	-10.68847	2.30166
2062.000	-9.90380	1.89051	-10.72092	2.32093
2063.000	-9.88270	1.91021	-10.66174	2.27648
2064.000	-9.98628	1.87438	-10.70946	2.28979
2065.000	-9.94409	1.90594	-10.71710	2.22728
2066.000	-9.83664	1.93789	-10.67319	2.31153
2067.000	-9.90956	1.90418	-10.64455	2.25904
2068.000	-9.86735	1.90834	-10.77244	2.24443
2069.000	-9.95943	1.88432	-10.74573	2.27000
2070.000	-9.89037	1.89059	-10.73809	2.28177
2071.000	-9.87886	1.86716	-10.67892	2.20608
2072.000	-9.89613	1.87294	-10.77626	2.26196
2073.000	-9.93833	1.87661	-10.71137	2.30929
2074.000	-9.93833	1.85703	-10.65983	2.28821
2075.000	-9.91148	1.85523	-10.74382	2.27001
2076.000	-9.90572	1.87680	-10.66556	2.22180
2077.000	-9.91340	1.85130	-10.74382	2.23879
2078.000	-9.94601	1.80414	-10.80296	2.20908
2079.000	-9.95176	1.83151	-10.78198	2.31656
2080.000	-9.96519	1.81382	-10.72282	2.28383
2081.000	-9.94601	1.86091	-10.77244	2.26199
2082.000	-9.90380	1.87681	-10.75908	2.21135
2083.000	-9.88846	1.80837	-10.72473	2.18623
2084.000	-9.87119	1.92007	-10.85064	2.23214
2085.000	-9.92299	1.90215	-10.79152	2.28136
2086.000	-9.84624	1.87909	-10.76672	2.24447
2087.000	-9.87694	1.85934	-10.70565	2.25859
2088.000	-9.94409	1.87853	-10.72664	2.25258
2089.000	-9.86927	1.84568	-10.76290	2.23084
2090.000	-9.91723	1.82779	-10.79724	2.23449
2091.000	-9.87886	1.85150	-10.70946	2.22928
2092.000	-9.83472	1.84979	-10.77244	2.26785
2093.000	-9.86159	1.87117	-10.72473	2.21551
2094.000	-9.89229	1.88862	-10.80487	2.30077
2095.000	-9.80977	1.84797	-10.79343	2.24623
2096.000	-9.86351	1.82613	-10.72473	2.22332
2097.000	-9.85200	1.82032	-10.77816	2.22097
2098.000	-9.89613	1.84161	-10.74191	2.22514
2099.000	-9.87694	1.82606	-10.76862	2.27373
2100.000	-9.84048	1.85367	-10.70946	2.22538
2101.000	-9.83472	1.85175	-10.80678	2.25978
2102.000	-9.83664	1.86740	-10.68083	2.27634
2103.000	-9.82896	1.85765	-10.77435	2.26003
2104.000	-9.84240	1.89674	-10.74000	2.29541
2105.000	-9.84048	1.83605	-10.72855	2.21939
2106.000	-9.90956	1.82783	-10.81250	2.22462
2107.000	-9.95751	1.85497	-10.75336	2.29141
2108.000	-9.92299	1.82188	-10.76862	2.21128
2109.000	-9.85008	1.86341	-10.76862	2.23080
2110.000	-9.81745	1.85576	-10.75145	2.21336
2111.000	-9.84816	1.88300	-10.69801	2.24303
2112.000	-9.89229	1.84751	-10.67319	2.22565
2113.000	-9.88078	1.84757	-10.77626	2.21318
2114.000	-9.85583	1.87512	-10.68847	2.22553
2115.000	-9.89037	1.83773	-10.74191	2.20367
2116.000	-9.90956	1.85524	-10.78961	2.27162
2117.000	-9.79441	1.87351	-10.72473	2.23893
2118.000	-9.91340	1.84347	-10.76481	2.21717
2119.000	-9.87694	1.83584	-10.74382	2.32270
2120.000	-9.86543	1.80654	-10.71519	2.28389
2121.000	-9.92107	1.85322	-10.68656	2.21384
2122.000	-9.92874	1.87862	-10.73237	2.19594
2123.000	-9.88654	1.78097	-10.71710	2.30144
2124.000	-9.92107	1.81602	-10.71137	2.26635
2125.000	-9.93450	1.81790	-10.70946	2.30930
2126.000	-9.86543	1.83591	-10.70756	2.28395
2127.000	-9.86927	1.87113	-10.67892	2.22560
2128.000	-9.85967	1.89468	-10.71137	2.34051
2129.000	-9.83472	1.85566	-10.71137	2.26635
2130.000	-9.87886	1.88674	-10.74954	2.27192
2131.000	-9.86735	1.86331	-10.71901	2.29167
2132.000	-9.88270	1.81428	-10.67128	2.29984
2133.000	-9.85391	1.80856	-10.68083	2.25682
2134.000	-9.93833	1.85899	-10.69801	2.25279
2135.000	-9.88078	1.83582	-10.73046	2.26036
2136.000	-9.91340	1.80627	-10.78198	2.21509
2137.000	-9.87502	1.78691	-10.72282	2.30920
2138.000	-9.84624	1.85755	-10.69228	2.31724
2139.000	-9.93450	1.85118	-10.70946	2.27027
2140.000	-9.93066	1.82184	-10.74000	2.28565
2141.000	-9.91148	1.88264	-10.71519	2.35415
2142.000	-9.90572	1.90616	-10.77053	2.25420
2143.000	-9.90380	1.91400	-10.76099	2.27769
2144.000	-9.86543	1.88486	-10.75718	2.27967
2145.000	-9.91340	1.92569	-10.76862	2.27373
2146.000	-9.86159	1.87901	-10.76862	2.27763
2147.000	-9.91340	1.89437	-10.69228	2.29577
2148.000	-9.89997	1.87487	-10.82204	2.24406
2149.000	-9.88270	1.82994	-10.81059	2.29097
2150.000	-9.91340	1.83368	-10.74382	2.27782
2151.000	-9.92874	1.90211	-10.76481	2.23473
2152.000	-9.95943	1.88040	-10.75527	2.28749
2153.000	-9.89997	1.82789	-10.72855	2.26232
2154.000	-9.90572	1.85330	-10.78389	2.19556
2155.000	-9.98820	1.83718	-10.73237	2.26815
2156.000	-9.95943	1.87845	-10.77435	2.26978
2157.000	-9.86159	1.84572	-10.78198	2.26387
2158.000	-9.90572	1.89246	-10.77816	2.21317
2159.000	-9.95368	1.87652	-10.76481	2.27376
2160.000	-9.91340	1.88654	-10.79533	2.25207
2161.000	-9.92491	1.84341	-10.75145	2.22897
2162.000	-9.94025	1.84528	-10.74573	2.21145
2163.000	-9.91531	1.86108	-10.70756	2.24296
2164.000	-9.91531	1.86108	-10.70374	2.22933
2165.000	-9.93642	1.86292	-10.72282	2.22528
2166.000	-9.95943	1.77079	-10.69419	2.28795
2167.000	-9.92491	1.82970	-10.74382	2.21927
2168.000	-9.91531	1.90415	-10.73428	2.21739
2169.000	-9.92491	1.84537	-10.74573	2.25048
2170.000	-9.90189	1.83571	-10.63310	2.24741
2171.000	-9.94025	1.86485	-10.74382	2.21147
2172.000	-9.85583	1.85163	-10.72664	2.23892
2173.000	-9.93066	1.85316	-10.77435	2.22685
2174.000	-9.92107	1.78470	-10.66747	2.20421
2175.000	-9.94601	1.88440	-10.78007	2.18973
2176.000	-9.97861	1.78634	-10.79915	2.12520
2177.000	-9.99587	1.78429	-10.74000	2.20954
2178.000	-9.97094	1.80204	-10.76862	2.21714
2179.000	-9.99970	1.78818	-10.72855	2.17254
2180.000	-10.00929	1.83706	-10.64646	2.24146
2181.000	-9.95943	1.84126	-10.74382	2.20756
2182.000	-9.89805	1.85726	-10.75145	2.14896
2183.000	-9.94217	1.82373	-10.82013	2.22847
2184.000	-10.00354	1.79795	-10.67701	2.19048
2185.000	-9.96135	1.80210	-10.69038	2.20600
2186.000	-9.93450	1.85706	-10.69419	2.17084
2187.000	-9.91148	1.83957	-10.66174	2.13397
2188.000	-9.92874	1.76116	-10.68274	2.16506
2189.000	-9.95943	1.80406	-10.69610	2.17863
2190.000	-9.96519	1.83535	-10.72664	2.21940
2191.000	-9.93258	1.80421	-10.75718	2.22113
2192.000	-9.94984	1.90786	-10.76099	2.15279
2193.000	-9.88462	1.85538	-10.70946	2.20586
2194.000	-9.96902	1.82750	-10.71901	2.18237
2195.000	-9.95751	1.84127	-10.76862	2.15859
2196.000	-9.94025	1.82766	-10.83157	2.25765
2197.000	-9.94409	1.83938	-10.74382	2.19780
2198.000	-9.86735	1.84373	-10.72664	2.19793
2199.000	-9.94217	1.80612	-10.73428	2.18812
2200.000	-9.88078	1.82603	-10.74763	2.18021
2201.000	-9.94409	1.83743	-10.77816	2.19170
2202.000	-9.94217	1.84918	-10.70756	2.12389
2203.000	-9.90189	1.85137	-10.73237	2.11005
2204.000	-9.93642	1.86096	-10.74954	2.17434
2205.000	-9.89421	1.78484	-10.77053	2.17029
2206.000	-9.97669	1.77656	-10.74763	2.17826
2207.000	-9.86927	1.85938	-10.70565	2.11414
2208.000	-9.90572	1.83960	-10.71137	2.19609
2209.000	-9.89805	1.87292	-10.79915	2.17203
2210.000	-9.92299	1.85125	-10.70183	2.21373
2211.000	-9.88078	1.89456	-10.68656	2.22945
2212.000	-9.72529	1.86607	-10.49171	2.23282
2213.000	-9.64460	1.87435	-10.29854	2.25570
2214.000	-9.36190	1.82884	-10.12620	2.20608
2215.000	-9.05176	1.77156	-9.89421	2.19396
2216.000	-8.83375	1.73138	-9.40617	2.08738
2217.000	-8.43567	1.57393	-9.05368	2.04433
2218.000	-7.95146	1.46362	-8.43374	1.93570
2219.000	-7.58464	1.32497	-8.01157	1.76261
2220.000	-7.03421	1.23977	-7.29695	1.49150
2221.000	-6.45319	0.98832	-6.81600	1.28773
2222.000	-5.99992	0.81510	-6.11722	1.11947
2223.000	-5.37938	0.58824	-5.40681	0.86545
2224.000	-4.95189	0.31910	-4.89498	0.59067
2225.000	-4.47276	0.11305	-4.31356	0.45626
2226.000	-4.02448	-0.08533	-3.82770	-0.03374
2227.000	-3.64069	-0.28193	-3.22898	-0.19664
2228.000	-3.21715	-0.53827	-2.87215	-0.46295
2229.000	-2.89187	-0.86424	-2.50919	-0.75522
2230.000	-2.50919	-1.02943	-2.10259	-0.97805
2231.000	-2.17563	-1.24827	-1.72145	-1.36587
2232.000	-1.83996	-1.48700	-1.32040	-1.67021
2233.000	-1.46464	-1.65819	-1.08722	-1.89689
2234.000	-1.13268	-1.78161	-0.69982	-2.18517
2235.000	-0.76901	-1.97852	-0.36376	-2.22303
2236.000	-0.37563	-2.12171	-0.00593	-2.41573
2237.000	-0.06129	-2.29061	0.32225	-2.53682
2238.000	0.42900	-2.44545	0.74924	-2.73317
2239.000	0.86981	-2.56833	1.14453	-2.97492
2240.000	1.29669	-2.73469	1.44291	-3.07571
2241.000	1.79848	-2.88083	1.93475	-3.03528
2242.000	2.13418	-3.09438	2.28815	-3.20703
2243.000	2.58811	-3.28952	2.65124	-3.24973
2244.000	3.02792	-3.37936	3.09298	-3.36134
2245.000	3.40828	-3.49683	3.52056	-3.47861
2246.000	3.84739	-3.58016	3.87297	-3.46734
2247.000	4.26834	-3.61782	4.17789	-3.51546
2248.000	4.62207	-3.63979	4.48062	-3.49233
2249.000	4.97151	-3.71096	4.81450	-3.55190
2250.000	5.29314	-3.63018	5.15786	-3.57176
2251.000	5.56549	-3.68179	5.28530	-3.57103
2252.000	5.79453	-3.67639	5.46559	-3.52658
2253.000	5.92170	-3.64994	5.58115	-3.42923
2254.000	6.10549	-3.62703	5.71429	-3.39688
2255.000	6.24033	-3.61627	5.75735	-3.43213
2256.000	6.32042	-3.58420	5.90996	-3.42331
2257.000	6.39657	-3.51868	5.89235	-3.36820
2258.000	6.38486	-3.49709	5.87866	-3.34462
2259.000	6.35166	-3.40866	5.90018	-3.33857
2260.000	6.31846	-3.33597	5.80823	-3.27008
2261.000	6.24424	-3.35813	5.79061	-3.33528
2262.000	6.12113	-3.25639	5.71233	-3.31601
2263.000	5.97841	-3.23950	5.55373	-3.36428
2264.000	5.83562	-3.30543	5.50085	-3.41194
2265.000	5.75930	-3.34138	5.46167	-3.40821
2266.000	5.67514	-3.33990	5.36566	-3.52716
2267.000	5.57332	-3.39376	5.27746	-3.55924
2268.000	5.57528	-3.47661	5.32058	-3.57675
2269.000	5.55765	-3.52603	5.32058	-3.62410
2270.000	5.57136	-3.54173	5.29706	-3.65384
2271.000	5.60073	-3.61058	5.33234	-3.62009
2272.000	5.70841	-3.68877	5.37546	-3.68690
2273.000	5.72212	-3.83060	5.47734	-3.70798
2274.000	5.85127	-3.80411	5.54394	-3.60501
2275.000	6.00970	-3.89559	5.60269	-3.71114
2276.000	6.08399	-3.92263	5.77496	-3.72185
2277.000	6.21102	-3.96106	5.70254	-3.69276
2278.000	6.36533	-3.91463	5.81801	-3.74325
2279.000	6.44148	-3.99865	5.89431	-3.70924
2280.000	6.50589	-3.93913	5.89822	-3.69739
2281.000	6.58199	-3.93656	5.96277	-3.70878
2282.000	6.65807	-3.92809	6.01948	-3.78129
2283.000	6.63076	-3.90274	5.95103	-3.71674
2284.000	6.72437	-3.92362	5.97255	-3.70674
2285.000	6.67367	-3.93583	5.90018	-3.70329
2286.000	6.71462	-3.92370	5.93734	-3.75821
2287.000	6.71072	-3.93357	5.88649	-3.76053
2288.000	6.68732	-3.88262	5.88649	-3.72703
2289.000	6.70097	-3.85891	5.92561	-3.80755
2290.000	6.62296	-3.86346	5.89431	-3.74471
2291.000	6.61320	-3.86157	5.77887	-3.70803
2292.000	6.61320	-3.81041	5.81018	-3.68417
2293.000	6.59760	-3.82234	5.80236	-3.66057
2294.000	6.56248	-3.79506	5.78279	-3.58381
2295.000	6.53711	-3.80312	5.76126	-3.60564
2296.000	6.51174	-3.82890	5.72212	-3.51912
2297.000	6.53126	-3.76971	5.64773	-3.50182
2298.000	6.48637	-3.72478	5.72212	-3.60983
2299.000	6.51760	-3.73439	5.66535	-3.49777
2300.000	6.45709	-3.74271	5.66143	-3.50963
2301.000	6.47076	-3.72490	5.68884	-3.53116
2302.000	6.42976	-3.73110	5.64185	-3.53736
2303.000	6.44928	-3.74080	5.56940	-3.54372
2304.000	6.44928	-3.69356	5.64381	-3.60243
2305.000	6.39267	-3.72350	5.64185	-3.47622
2306.000	6.38486	-3.72946	5.62815	-3.53744
2307.000	6.41610	-3.69577	5.59094	-3.54556
2308.000	6.45514	-3.72895	5.59290	-3.57119
2309.000	6.43562	-3.75271	5.63794	-3.61035
2310.000	6.42195	-3.75084	5.65556	-3.59644
2311.000	6.44928	-3.75458	5.60465	-3.57506
2312.000	6.39267	-3.78452	5.51848	-3.52824
2313.000	6.45514	-3.74273	5.57528	-3.61468
2314.000	6.44733	-3.75263	5.57919	-3.61072
2315.000	6.43172	-3.75668	5.57528	-3.54960
2316.000	6.46880	-3.73278	5.67709	-3.57659
2317.000	6.44343	-3.79005	5.62619	-3.62226
2318.000	6.43757	-3.77435	5.57332	-3.65217
2319.000	6.44343	-3.79399	5.64773	-3.60438
2320.000	6.44343	-3.72903	5.63402	-3.63404
2321.000	6.46100	-3.83322	5.67318	-3.63182
2322.000	6.42391	-3.76461	5.58311	-3.64224
2323.000	6.43757	-3.80387	5.64773	-3.65170
2324.000	6.45319	-3.77227	5.59094	-3.55936
2325.000	6.45905	-3.83127	5.64968	-3.56295
2326.000	6.47466	-3.80360	5.66339	-3.63977
2327.000	6.42195	-3.79809	5.79061	-3.60348
2328.000	6.48052	-3.79962	5.62619	-3.66169
2329.000	6.47076	-3.78198	5.68688	-3.61005
2330.000	6.49418	-3.78574	5.71233	-3.67889
2331.000	6.50003	-3.76404	5.64381	-3.63595
2332.000	6.49808	-3.80932	5.71624	-3.66507
2333.000	6.48052	-3.82520	5.67318	-3.64760
2334.000	6.48052	-3.84094	5.75735	-3.67663
2335.000	6.49418	-3.78574	5.69275	-3.65733
2336.000	6.50199	-3.82307	5.65360	-3.66152
2337.000	6.50394	-3.76205	5.64577	-3.63791
2338.000	6.51955	-3.83474	5.66535	-3.69891
2339.000	6.47076	-3.82724	5.60661	-3.72491
2340.000	6.49223	-3.79559	5.71429	-3.59410
2341.000	6.49808	-3.80342	5.64773	-3.77590
2342.000	6.49613	-3.79359	5.67122	-3.67521
2343.000	6.49418	-3.79164	5.68492	-3.67907
2344.000	6.50784	-3.81712	5.69667	-3.65139
2345.000	6.49418	-3.76802	5.68688	-3.68694
2346.000	6.48052	-3.81733	5.69667	-3.62970
2347.000	6.50589	-3.83485	5.66730	-3.73832
2348.000	6.48637	-3.79760	5.73582	-3.66691
2349.000	6.48052	-3.80552	5.68688	-3.70271
2350.000	6.48832	-3.83695	5.71037	-3.65130
2351.000	6.48052	-3.81339	5.65947	-3.70880
2352.000	6.48832	-3.83498	5.69863	-3.74798
2353.000	6.46490	-3.79973	5.68101	-3.66726
2354.000	6.48637	-3.83106	5.70254	-3.73809
2355.000	6.51174	-3.84070	5.68297	-3.76976
2356.000	6.49027	-3.82316	5.60661	-3.77223
2357.000	6.54102	-3.85229	5.63990	-3.71484
2358.000	6.53126	-3.80710	5.71037	-3.74001
2359.000	6.50979	-3.83285	5.66535	-3.73439
2360.000	6.52931	-3.82483	5.69275	-3.77167
2361.000	6.52345	-3.80913	5.63990	-3.67935
2362.000	6.53711	-3.77951	5.65752	-3.67136
2363.000	6.54297	-3.76963	5.62815	-3.74252
2364.000	6.51760	-3.83082	5.67122	-3.72647
2365.000	6.54687	-3.81092	5.67318	-3.66731
2366.000	6.53321	-3.81496	5.62619	-3.70113
2367.000	6.51174	-3.82890	5.60857	-3.77419
2368.000	6.50784	-3.79941	5.65752	-3.73839
2369.000	6.53516	-3.78149	5.73582	-3.66889
2370.000	6.51174	-3.81512	5.65752	-3.70487
2371.000	6.54297	-3.80505	5.67318	-3.73434
2372.000	6.51955	-3.82294	5.72603	-3.74977
2373.000	6.52931	-3.78350	5.61248	-3.70910
2374.000	6.51955	-3.79342	5.72212	-3.74782
2375.000	6.51955	-3.81113	5.65556	-3.69700
2376.000	6.55663	-3.80691	5.68492	-3.65738
2377.000	6.51565	-3.78951	5.70646	-3.75581
2378.000	6.53711	-3.78541	5.70254	-3.72627
2379.000	6.54687	-3.78140	5.69275	-3.72239
2380.000	6.51565	-3.80525	5.72995	-3.74383
2381.000	6.56053	-3.80295	5.72603	-3.78722
2382.000	6.54492	-3.79913	5.73777	-3.80093
2383.000	6.55467	-3.81283	5.66143	-3.75807
2384.000	6.54882	-3.79516	5.76713	-3.77709
2385.000	6.53711	-3.81690	5.66926	-3.70874
2386.000	6.60735	-3.81046	5.72799	-3.73793
2387.000	6.55467	-3.80496	5.65752	-3.76993
2388.000	6.57223	-3.77924	5.69275	-3.75196
2389.000	6.56248	-3.80490	5.66730	-3.74621
2390.000	6.56833	-3.78321	5.71233	-3.77154
2391.000	6.54297	-3.78734	5.68492	-3.80720
2392.000	6.52150	-3.81899	5.72212	-3.78724
2393.000	6.54492	-3.81684	5.75539	-3.76928
2394.000	6.54297	-3.78931	5.68492	-3.82099
2395.000	6.55663	-3.81281	5.66730	-3.75804
2396.000	6.54687	-3.76960	5.66339	-3.77383
2397.000	6.52540	-3.78747	5.67318	-3.78953
2398.000	6.49808	-3.79948	5.71624	-3.74195
2399.000	6.52345	-3.81700	5.70058	-3.77950
2400.000	6.55858	-3.77935	5.76126	-3.76136
2401.000	6.47271	-3.82329	5.72799	-3.75961
2402.000	6.46295	-3.80959	5.68884	-3.70073
2403.000	6.50784	-3.82302	5.68688	-3.69088
2404.000	6.50199	-3.78371	5.71233	-3.73409
2405.000	6.52345	-3.84652	5.72603	-3.71429
2406.000	6.50199	-3.83291	5.72799	-3.65711
2407.000	6.50003	-3.86834	5.72995	-3.67287
2408.000	6.48052	-3.87243	5.69667	-3.70659
2409.000	6.50003	-3.84473	5.73190	-3.67482
2410.000	6.50003	-3.84473	5.67709	-3.73235
2411.000	6.52150	-3.83276	5.73973	-3.71814
2412.000	6.48442	-3.82714	5.68101	-3.71852
2413.000	6.51369	-3.85446	5.76126	-3.75151
2414.000	6.51565	-3.79935	5.70841	-3.80113
2415.000	6.51760	-3.79934	5.64381	-3.70496
2416.000	6.52150	-3.81111	5.67318	-3.74026
2417.000	6.49808	-3.84868	5.74365	-3.74374
2418.000	6.51369	-3.80527	5.73973	-3.77727
2419.000	6.53711	-3.81887	5.60073	-3.73678
2420.000	6.51955	-3.80326	5.68101	-3.74218
2421.000	6.51174	-3.81119	5.69863	-3.76374
2422.000	6.50003	-3.81521	5.74365	-3.77725
2423.000	6.45709	-3.78798	5.66926	-3.72451
2424.000	6.45905	-3.78403	5.65947	-3.76400
2425.000	6.50784	-3.80335	5.72212	-3.75571
2426.000	6.53321	-3.82480	5.75343	-3.77718
2427.000	6.57419	-3.75365	5.69471	-3.80319
2428.000	6.47856	-3.77011	5.77300	-3.73763
2429.000	6.57028	-3.86583	5.70450	-3.72823
2430.000	6.50784	-3.82893	5.67905	-3.71065
2431.000	6.55272	-3.81875	5.71429	-3.79518
2432.000	6.52150	-3.84653	5.75147	-3.80084
2433.000	6.51760	-3.81901	5.72995	-3.70441
2434.000	6.56248	-3.79506	5.74952	-3.78509
2435.000	6.54102	-3.80309	5.73973	-3.78318
2436.000	6.55467	-3.76757	5.72212	-3.67489
2437.000	6.56443	-3.79308	5.74560	-3.71613
2438.000	6.58979	-3.80863	5.67514	-3.71067
2439.000	6.57614	-3.80086	5.67318	-3.59633
2440.000	6.59174	-3.76926	5.64185	-3.66948
2441.000	6.59174	-3.78893	5.71820	-3.85033
2442.000	6.53711	-3.78345	5.79649	-3.73354
2443.000	6.51369	-3.79740	5.76909	-3.72780
2444.000	6.56248	-3.81277	5.66926	-3.74225
2445.000	6.53516	-3.76575	5.79061	-3.68824
2446.000	6.57419	-3.79104	5.65947	-3.66937
2447.000	6.52736	-3.77565	5.68884	-3.73227
2448.000	6.54492	-3.77945	5.78279	-3.70012
2449.000	6.53126	-3.80120	5.75343	-3.70425
2450.000	6.53516	-3.77165	5.79453	-3.62908
2451.000	6.53516	-3.75788	5.65947	-3.63585
2452.000	6.59370	-3.76531	5.71820	-3.65520
2453.000	6.56053	-3.77146	5.74560	-3.66882
2454.000	6.54687	-3.82076	5.64773	-3.66550
2455.000	6.60345	-3.79278	5.67318	-3.66928
2456.000	6.55467	-3.82857	5.71429	-3.70056
2457.000	6.57614	-3.76347	5.73777	-3.66493
2458.000	6.50589	-3.81123	5.69080	-3.76577
2459.000	6.53321	-3.77560	5.73582	-3.72408
2460.000	6.52345	-3.80520	5.72016	-3.74389
2461.000	6.48637	-3.81138	5.72995	-3.72609
2462.000	6.47856	-3.77601	5.69471	-3.77560
2463.000	6.46490	-3.75250	5.61640	-3.69133
2464.000	6.49223	-3.76213	5.80236	-3.68422
2465.000	6.50003	-3.72074	5.76322	-3.70025
2466.000	6.55858	-3.73409	5.87866	-3.58320
2467.000	6.67562	-3.59742	5.88844	-3.50428
2468.000	6.84524	-3.48597	6.07422	-3.41046
2469.000	7.04200	-3.32121	6.22861	-3.28924
2470.000	7.39029	-3.12986	6.41415	-3.01015
2471.000	7.69728	-2.94875	6.73217	-2.73035
2472.000	8.06197	-2.67301	6.99136	-2.41750
2473.000	8.49756	-2.36764	7.35529	-1.92893
2474.000	8.88780	-1.90392	7.67203	-1.50401
2475.000	9.37923	-1.50908	7.96892	-1.05789
2476.000	9.84816	-0.87219	8.43180	-0.56084
2477.000	10.31193	-0.34448	8.61549	0.07278
2478.000	10.71328	0.22480	8.90902	0.59747
2479.000	11.03741	0.84543	9.14813	1.02124
2480.000	11.32661	1.46855	9.33496	1.45630
2481.000	11.51276	1.83572	9.50812	1.86334
2482.000	11.76879	2.20945	9.56196	2.25882
2483.000	11.84456	2.53344	9.71376	2.54751
2484.000	11.90514	2.82812	9.67342	2.84525
2485.000	11.92596	3.14044	9.90572	3.10517
2486.000	12.03191	3.32153	9.88270	3.21871
2487.000	12.10375	3.38655	9.92491	3.31010
2488.000	12.05082	3.40079	10.06488	3.38091
2489.000	12.08107	3.44306	10.05721	3.41418
2490.000	12.08107	3.39072	10.15302	3.34096
2491.000	12.08107	3.41592	10.22962	3.18989
2492.000	12.09052	3.41580	10.41715	3.10997
2493.000	12.10753	3.39038	10.48024	3.07227
2494.000	12.05838	3.36774	10.44201	3.13508
2495.000	12.01678	3.33335	10.44774	3.09991
2496.000	11.95813	3.26230	10.49171	3.17163
2497.000	11.89379	3.27666	10.37890	3.21960
2498.000	11.78963	3.20608	10.50127	3.04476
2499.000	11.69677	3.18385	10.27940	3.06839
2500.000	11.61143	3.20620	10.27748	3.14062
2501.000	11.47669	3.09500	10.16643	3.07143
2502.000	11.37602	3.12721	10.11854	3.01525
2503.000	11.21062	3.05117	10.09554	3.01547
2504.000	11.13451	3.04029	10.11854	2.98791
2505.000	10.98979	2.98531	10.12428	2.88628
2506.000	10.94215	2.96826	10.00545	2.96355
2507.000	10.89831	2.93168	9.96902	2.84858
2508.000	10.92881	2.85929	10.05913	2.87319
2509.000	10.94977	2.82986	10.23345	2.86382
2510.000	11.01646	2.84286	10.19899	2.79576
2511.000	11.05645	2.84442	10.19899	2.87975
2512.000	11.12499	2.84960	10.31385	2.88456
2513.000	11.22774	2.87584	10.39420	3.01654
2514.000	11.29429	2.90242	10.36742	3.00704
2515.000	11.33421	2.96038	10.42289	3.12747
2516.000	11.46720	3.02900	10.48598	3.24774
2517.000	11.56970	3.12895	10.54331	3.22569
2518.000	11.65885	3.15709	10.48024	3.28290
2519.000	11.76311	3.27628	10.59872	3.41026
2520.000	11.83320	3.29097	10.56815	3.51972
2521.000	11.93164	3.37514	10.57579	3.51184
2522.000	11.94867	3.38850	10.59872	3.65961
2523.000	11.94678	3.41762	10.56433	3.62496
2524.000	11.94489	3.46612	10.49171	3.70959
2525.000	11.93543	3.51473	10.56242	3.65031
2526.000	11.92596	3.56914	10.50892	3.70159
2527.000	11.85781	3.54676	10.50318	3.67244
2528.000	11.87675	3.58530	10.53567	3.68569
2529.000	11.82941	3.59368	10.46877	3.61244
2530.000	11.75553	3.59852	10.46113	3.62812
2531.000	11.72899	3.59693	10.44201	3.59911
2532.000	11.72520	3.61444	10.43818	3.59916
2533.000	11.70246	3.62832	10.39229	3.58409
2534.000	11.66075	3.60170	10.31576	3.50892
2535.000	11.65885	3.58425	10.30236	3.61826
2536.000	11.61713	3.56926	10.50700	3.45416
2537.000	11.61713	3.54597	10.38655	3.51398
2538.000	11.61143	3.54410	10.38655	3.55687
2539.000	11.61523	3.52075	10.45157	3.50350
2540.000	11.56400	3.53305	10.41715	3.56432
2541.000	11.58298	3.49786	10.33681	3.46579
2542.000	11.56780	3.50582	10.38464	3.44772
2543.000	11.53554	3.47320	10.41524	3.45518
2544.000	11.53364	3.45769	10.40950	3.43184
2545.000	11.56211	3.47676	10.44392	3.42367
2546.000	11.49188	3.46597	10.45157	3.45672
2547.000	11.55831	3.49817	10.39420	3.35596
2548.000	11.54693	3.44976	10.40950	3.44354
2549.000	11.54693	3.44199	10.41524	3.35184
2550.000	11.56590	3.42040	10.44010	3.34962
2551.000	11.53744	3.48872	10.36551	3.46937
2552.000	11.53364	3.44798	10.39994	3.32860
2553.000	11.56590	3.45924	10.37125	3.41276
2554.000	11.62471	3.42939	10.47260	3.25958
2555.000	11.60195	3.41219	10.35977	3.46749
2556.000	11.59816	3.44719	10.38081	3.36586
2557.000	11.59057	3.38902	10.48980	3.39587
2558.000	11.56211	3.45928	10.44010	3.40811
2559.000	11.57539	3.46300	10.36168	3.40702
2560.000	11.56400	3.46120	10.43818	3.44907
2561.000	11.59626	3.49187	10.34255	3.36432
2562.000	11.57729	3.43191	10.44774	3.42168
2563.000	11.58867	3.44536	10.39611	3.43394
2564.000	11.61523	3.44504	10.49554	3.39386
2565.000	11.61143	3.48391	10.42097	3.41027
2566.000	11.60954	3.43928	10.42671	3.45895
2567.000	11.64178	3.49130	10.41332	3.42205
2568.000	11.64747	3.46793	10.46495	3.44293
2569.000	11.63989	3.45444	10.39994	3.48654
2570.000	11.62282	3.48183	10.45922	3.50732
2571.000	11.63040	3.44291	10.43245	3.42769
2572.000	11.67781	3.44232	10.49554	3.48937
2573.000	11.62851	3.47011	10.45348	3.43526
2574.000	11.64368	3.41362	10.47642	3.51492
2575.000	11.65316	3.44651	10.41906	3.49802
2576.000	11.66643	3.43470	10.42289	3.52137
2577.000	11.62661	3.43519	10.50700	3.47365
2578.000	11.64747	3.49899	10.40376	3.56642
2579.000	11.63230	3.45453	10.43627	3.45299
2580.000	11.63609	3.46808	10.44966	3.45480
2581.000	11.62661	3.46237	10.40950	3.42405
2582.000	11.61143	3.47227	10.47833	3.42329
2583.000	11.66454	3.47160	10.42289	3.41220
2584.000	11.69298	3.47707	10.40567	3.44553
2585.000	11.64937	3.49315	10.42289	3.41610
2586.000	11.59626	3.44333	10.47833	3.52464
2587.000	11.61902	3.48188	10.46686	3.39028
2588.000	11.62092	3.45661	10.42671	3.41021
2589.000	11.60764	3.49561	10.48789	3.42708
2590.000	11.61713	3.47414	10.42480	3.48626
2591.000	11.60385	3.47818	10.42097	3.49410
2592.000	11.60005	3.48600	10.44392	3.43147
2593.000	11.63609	3.45837	10.45922	3.46833
2594.000	11.59626	3.47245	10.39994	3.40270
2595.000	11.59436	3.46083	10.40567	3.40264
2596.000	11.61143	3.50333	10.39037	3.50029
2597.000	11.56780	3.49222	10.29854	3.47206
2598.000	11.58298	3.49398	10.37507	3.48292
2599.000	11.54882	3.48858	10.39229	3.42033
2600.000	11.57729	3.49793	10.39802	3.48656
2601.000	11.53744	3.45959	10.42097	3.49800
2602.000	11.56780	3.47086	10.43245	3.51541
2603.000	11.62661	3.46431	10.42862	3.48037
2604.000	11.56970	3.47084	10.31959	3.48548
2605.000	11.60385	3.44518	10.39420	3.50805
2606.000	11.60195	3.48209	10.39229	3.45933
2607.000	11.61143	3.47032	10.39802	3.49046
2608.000	11.61523	3.47610	10.39611	3.49048
2609.000	11.62282	3.47212	10.43245	3.42379
2610.000	11.58677	3.48810	10.42097	3.42197
2611.000	11.56780	3.46504	10.43053	3.49594
2612.000	11.55262	3.47105	10.37890	3.42243
2613.000	11.59816	3.48408	10.34064	3.45795
2614.000	11.57918	3.49014	10.35020	3.45979
2615.000	11.56021	3.49038	10.39994	3.51188
2616.000	11.58488	3.43764	10.46113	3.41958
2617.000	11.59816	3.45107	10.42097	3.56817
2618.000	11.60574	3.50922	10.39994	3.45145
2619.000	11.64178	3.45053	10.39994	3.42610
2620.000	11.62661	3.45072	10.39611	3.46904
2621.000	11.59626	3.44915	10.32533	3.50687
2622.000	11.60195	3.50345	10.40376	3.43386
2623.000	11.62661	3.46043	10.50509	3.39765
2624.000	11.58867	3.44730	10.40950	3.36945
2625.000	11.61333	3.48389	10.43627	3.41985
2626.000	11.58108	3.49206	10.46686	3.46630
2627.000	11.59816	3.48408	10.44774	3.46261
2628.000	11.63420	3.46033	10.38464	3.47501
2629.000	11.61902	3.44693	10.45539	3.47227
2630.000	11.60385	3.45683	10.37316	3.51803
2631.000	11.59816	3.44913	10.51847	3.42090
2632.000	11.61902	3.46829	10.44774	3.49185
2633.000	11.60385	3.46459	10.43436	3.48615
2634.000	11.62092	3.42943	10.41332	3.44545
2635.000	11.60385	3.44518	10.59490	3.45317
2636.000	11.64747	3.44270	10.47642	3.51687
2637.000	11.67212	3.41327	10.36933	3.52002
2638.000	11.61713	3.42560	10.46304	3.43710
2639.000	11.67023	3.44436	10.36742	3.48300
2640.000	11.62851	3.38080	10.50892	3.47168
2641.000	11.60574	3.43739	10.53758	3.47915
2642.000	11.66264	3.40368	10.48024	3.46030
2643.000	11.62471	3.40220	10.51083	3.60416
2644.000	11.62471	3.40997	10.53567	3.52399
2645.000	11.61523	3.42562	10.45922	3.43520
2646.000	11.62092	3.41196	10.58917	3.42986
2647.000	11.63609	3.38847	10.44392	3.40417
2648.000	11.64747	3.41551	10.44201	3.46268
2649.000	11.63420	3.39044	10.52994	3.54159
2650.000	11.63609	3.36711	10.47833	3.49346
2651.000	11.61713	3.39258	10.53567	3.45968
2652.000	11.64178	3.38258	10.48024	3.50708
2653.000	11.62471	3.42939	10.52420	3.49294
2654.000	11.67402	3.42684	10.42480	3.47651
2655.000	11.67781	3.34719	10.45348	3.46255
2656.000	11.64558	3.38059	10.51083	3.55545
2657.000	11.64937	3.37472	10.46686	3.46240
2658.000	11.67781	3.37826	10.43053	3.46670
2659.000	11.67402	3.37248	10.49171	3.56931
2660.000	11.67212	3.38803	10.40950	3.56830
2661.000	11.64178	3.37287	10.40185	3.51771
2662.000	11.60385	3.40246	10.35785	3.51625
2663.000	11.60385	3.39469	10.47642	3.41161
2664.000	11.61713	3.43336	10.42289	3.49213
2665.000	11.60195	3.44132	10.45348	3.52687
2666.000	11.60195	3.40442	10.39802	3.57428
2667.000	11.64178	3.45636	10.37125	3.57069
2668.000	11.61143	3.44120	10.46495	3.52479
2669.000	11.61902	3.45664	10.41906	3.53311
2670.000	11.62092	3.40225	10.52420	3.62349
2671.000	11.58108	3.41050	10.46113	3.55797
2672.000	11.62282	3.36921	10.34638	3.48518
2673.000	11.60005	3.38502	10.52229	3.48712
2674.000	11.61902	3.40033	10.37316	3.59016
2675.000	11.64368	3.43692	10.42671	3.49599
2676.000	11.59436	3.41422	10.46304	3.62615
2677.000	11.60385	3.41411	10.45539	3.58142
2678.000	11.59816	3.38116	10.43245	3.59727
2679.000	11.57729	3.39307	10.40376	3.52743
2680.000	11.59057	3.40650	10.40950	3.50398
2681.000	11.60954	3.39073	10.41524	3.49027
2682.000	11.63799	3.40204	10.43053	3.52908
2683.000	11.59246	3.35987	10.49171	3.60828
2684.000	11.58298	3.39688	10.47451	3.56366
2685.000	11.55831	3.35639	10.52612	3.60009
2686.000	11.57539	3.38726	10.41906	3.60522
2687.000	11.57729	3.42997	10.37125	3.59603
2688.000	11.58867	3.38710	10.43627	3.52902
2689.000	11.57729	3.35811	10.49362	3.52836
2690.000	11.59816	3.41029	10.38655	3.55102
2691.000	11.60385	3.35002	10.46877	3.55398
2692.000	11.63420	3.33218	10.41524	3.50781
2693.000	11.58298	3.34056	10.47451	3.54417
2694.000	11.57918	3.36197	10.54331	3.52975
2695.000	11.60764	3.35386	10.48216	3.57332
2696.000	11.61713	3.36734	10.61400	3.57958
2697.000	11.56590	3.41845	10.48789	3.53623
2698.000	11.56211	3.36023	10.48216	3.61229
2699.000	11.60574	3.35582	10.53185	3.56690
2700.000	11.60195	3.35199	10.44201	3.55039
2701.000	11.57918	3.39499	10.36742	3.46545
2702.000	11.59057	3.40262	10.49171	3.62971
2703.000	11.61143	3.40236	10.58726	3.56431
2704.000	11.60005	3.38308	10.53185	3.51819
2705.000	11.60195	3.39859	10.55860	3.49060
2706.000	11.57729	3.40472	10.56433	3.54120
2707.000	11.61523	3.39067	10.50318	3.63153
2708.000	11.60385	3.39857	10.51465	3.49500
2709.000	11.56400	3.39906	10.55287	3.52379
2710.000	11.56970	3.37568	10.46304	3.59107
2711.000	11.56021	3.38939	10.49936	3.50297
2712.000	11.58488	3.36967	10.47642	3.53636
2713.000	11.61713	3.37317	10.49554	3.59070
2714.000	11.57539	3.36978	10.46304	3.48778
2715.000	11.61523	3.39261	10.41906	3.56235
2716.000	11.60005	3.39085	10.47833	3.59869
2717.000	11.58108	3.37748	10.46304	3.56574
2718.000	11.61143	3.38489	10.53185	3.53377
2719.000	11.60005	3.39473	10.55096	3.63876
2720.000	11.65126	3.35334	10.45348	3.58729
2721.000	11.58488	3.38715	10.46304	3.54041
2722.000	11.49947	3.41538	10.50700	3.53990
2723.000	11.41212	3.40283	10.25451	3.49985
2724.000	11.18969	3.36267	10.25451	3.37501
2725.000	10.89640	3.36797	9.99395	3.35041
2726.000	10.57579	3.25654	9.71376	3.11869
2727.000	10.23537	2.95753	9.41771	2.95701
2728.000	9.74257	2.72925	9.10573	2.71076
2729.000	9.30608	2.44865	8.77004	2.28349
2730.000	8.78356	2.10475	8.34086	2.04233
2731.000	8.26730	1.90309	8.04065	1.57747
2732.000	7.80986	1.55079	7.68174	1.29708
2733.000	7.35529	1.12648	7.31640	0.85040
2734.000	6.90565	0.82352	7.08873	0.53895
2735.000	6.47661	0.26290	6.66782	0.15610
2736.000	6.09181	-0.12660	6.45319	-0.25106
2737.000	5.73777	-0.52257	6.22275	-0.56165
2738.000	5.49497	-0.84552	5.94125	-0.76969
2739.000	5.24217	-1.07958	5.80627	-1.04492
2740.000	5.02448	-1.46026	5.57724	-1.33825
2741.000	4.80861	-1.75787	5.42249	-1.66912
2742.000	4.61814	-2.04358	5.15002	-1.80842
2743.000	4.47079	-2.25196	5.05587	-2.06997
2744.000	4.40791	-2.39276	4.77916	-2.23713
2745.000	4.27424	-2.60901	4.59064	-2.53665
2746.000	4.16610	-2.74598	4.40398	-2.69565
2747.000	4.09923	-2.93229	4.22312	-2.71213
2748.000	4.01071	-2.99199	3.98513	-2.83966
2749.000	4.07562	-3.01549	3.82574	-2.90158
2750.000	4.06579	-3.17778	3.68597	-3.01292
2751.000	4.10513	-3.26664	3.60918	-3.11217
2752.000	4.03038	-3.33221	3.51071	-3.22930
2753.000	4.00480	-3.32836	3.43192	-3.18998
2754.000	4.02251	-3.35795	3.41419	-3.06332
2755.000	4.07169	-3.37357	3.37282	-3.16641
2756.000	4.09726	-3.35369	3.35903	-3.14270
2757.000	4.14053	-3.25265	3.28218	-3.08155
2758.000	4.19559	-3.24451	3.38464	-2.97231
2759.000	4.20542	-3.22073	3.54419	-2.91636
2760.000	4.31553	-3.13128	3.53435	-2.88074
2761.000	4.39218	-3.01822	3.70566	-2.74552
2762.000	4.41380	-2.93900	3.75094	-2.66417
2763.000	4.44328	-2.90130	3.82574	-2.59263
2764.000	4.48062	-2.82597	3.93201	-2.52298
2765.000	4.50223	-2.73883	4.00874	-2.53661
2766.000	4.48455	-2.71317	4.05792	-2.47901
2767.000	4.51991	-2.67544	4.09529	-2.54426
2768.000	4.48455	-2.65578	4.08349	-2.42942
2769.000	4.51795	-2.64972	4.04218	-2.52660
2770.000	4.45704	-2.68557	4.02448	-2.49892
2771.000	4.39415	-2.66798	3.99497	-2.54061
2772.000	4.34305	-2.70181	3.93397	-2.64577
2773.000	4.31356	-2.74546	3.81393	-2.76102
2774.000	4.22116	-2.84080	3.70172	-2.64451
2775.000	4.13660	-2.89257	3.64659	-2.79918
2776.000	4.05989	-2.95816	3.53041	-2.90452
2777.000	4.03628	-3.01564	3.56192	-2.94997
2778.000	3.96939	-3.10296	3.43192	-2.99395
2779.000	3.93791	-3.11693	3.39252	-3.10695
2780.000	3.91626	-3.21001	3.29598	-3.13894
2781.000	3.91626	-3.27135	3.26445	-3.14300
2782.000	3.92217	-3.24956	3.32553	-3.21804
2783.000	3.92610	-3.24559	3.29204	-3.17657
2784.000	3.90642	-3.29315	3.28021	-3.17661
2785.000	3.91036	-3.36039	3.23292	-3.21636
2786.000	3.89068	-3.31695	3.25460	-3.21035
2787.000	3.96152	-3.32062	3.21518	-3.18870
2788.000	3.99497	-3.32247	3.23686	-3.12526
2789.000	3.98316	-3.32647	3.21518	-3.14117
2790.000	4.02054	-3.35796	3.19547	-3.17490
2791.000	4.02251	-3.30455	3.29401	-3.18449
2792.000	4.02644	-3.29662	3.33341	-3.16060
2793.000	4.06579	-3.25691	3.24474	-3.10741
2794.000	4.06185	-3.23121	3.22898	-3.11736
2795.000	4.15036	-3.20711	3.26642	-3.10339
2796.000	4.14053	-3.22100	3.34130	-3.10315
2797.000	4.10709	-3.26663	3.33736	-2.99820
2798.000	4.15036	-3.20514	3.36297	-3.12883
2799.000	4.14840	-3.17943	3.34721	-3.02590
2800.000	4.12676	-3.22303	3.40828	-3.11284
2801.000	4.15626	-3.21500	3.44571	-3.02559
2802.000	4.14053	-3.17353	3.44768	-3.01172
2803.000	4.16216	-3.22882	3.44768	-2.98004
2804.000	4.12873	-3.23094	3.40237	-3.06137
2805.000	4.18969	-3.22080	3.39252	-2.96832
2806.000	4.14840	-3.17349	3.36888	-3.05158
2807.000	4.15626	-3.16753	3.42207	-2.96823
2808.000	4.12086	-3.17954	3.42207	-2.95239
2809.000	4.10119	-3.12818	3.35312	-3.03578
2810.000	4.15233	-3.16161	3.43389	-3.05335
2811.000	4.13463	-3.19135	3.38464	-2.99013
2812.000	4.14446	-3.14384	3.34721	-3.08729
2813.000	4.11299	-3.17759	3.38661	-3.05350
2814.000	4.13856	-3.18342	3.35706	-2.93674
2815.000	4.15823	-3.18335	3.40631	-3.00789
2816.000	4.12283	-3.20327	3.39646	-3.05545
2817.000	4.10316	-3.16378	3.43389	-3.04147
2818.000	4.10906	-3.18552	3.38267	-3.02777
2819.000	4.06775	-3.20745	3.44965	-2.99389
2820.000	4.10906	-3.19343	3.38661	-3.02380
2821.000	4.10709	-3.16970	3.47329	-3.02748
2822.000	4.10709	-3.21322	3.44374	-3.05530
2823.000	4.08939	-3.15592	3.46541	-3.08493
2824.000	4.10119	-3.15192	3.36691	-3.08723
2825.000	4.06382	-3.25296	3.45359	-3.09685
2826.000	4.06775	-3.23514	3.43586	-3.05929
2827.000	4.07169	-3.25490	3.36888	-3.04960
2828.000	4.03235	-3.24319	3.40040	-3.07524
2829.000	4.03235	-3.25506	3.35115	-3.03975
2830.000	4.03628	-3.25307	3.37282	-2.98423
2831.000	4.03235	-3.31440	3.40434	-3.11681
2832.000	4.04808	-3.31038	3.39055	-3.07131
2833.000	4.02448	-3.24916	3.41616	-3.07717
2834.000	4.05595	-3.21343	3.40040	-3.00593
2835.000	4.05595	-3.28464	3.30977	-3.06364
2836.000	4.10119	-3.24687	3.41222	-3.00391
2837.000	4.07759	-3.21334	3.34918	-3.05164
2838.000	4.06972	-3.24304	3.39646	-3.10100
2839.000	4.08152	-3.23904	3.31371	-3.02204
2840.000	4.06972	-3.31425	3.38858	-3.01389
2841.000	4.13070	-3.22500	3.38858	-3.04161
2842.000	4.08939	-3.26670	3.37479	-2.99016
2843.000	4.08939	-3.26670	3.32553	-3.01012
2844.000	4.08546	-3.26869	3.35706	-3.08924
2845.000	4.09136	-3.23109	3.38661	-3.00201
2846.000	4.06185	-3.22527	3.42995	-2.98405
2847.000	4.08152	-3.17970	3.38070	-3.07332
2848.000	4.08349	-3.23112	3.41419	-3.05540
2849.000	4.06185	-3.22725	3.36691	-3.02188
2850.000	4.10316	-3.18752	3.32750	-3.05963
2851.000	4.09726	-3.19941	3.35509	-3.07142
2852.000	4.05399	-3.24706	3.38858	-3.02973
2853.000	4.08546	-3.20540	3.32356	-3.00220
2854.000	4.06972	-3.19952	3.36691	-2.97038
2855.000	4.08939	-3.20142	3.31765	-2.95468
2856.000	4.07562	-3.19752	3.34130	-3.02394
2857.000	4.07759	-3.24103	3.34327	-3.00413
2858.000	4.07562	-3.15004	3.43783	-3.01571
2859.000	4.07366	-3.22127	3.36691	-3.00999
2860.000	4.07366	-3.20940	3.34130	-3.01403
2861.000	4.06972	-3.18765	3.37282	-2.98225
2862.000	4.06972	-3.19952	3.35706	-2.94466
2863.000	4.06382	-3.20944	3.37085	-2.99018
2864.000	4.08742	-3.20934	3.37085	-2.98622
2865.000	4.07562	-3.18565	3.31962	-2.98835
2866.000	4.06382	-3.20153	3.38858	-2.99804
2867.000	4.08742	-3.21528	3.42995	-2.99395
2868.000	4.12676	-3.21117	3.37676	-3.03175
2869.000	4.09136	-3.20735	3.39646	-3.08119
2870.000	4.09726	-3.23700	3.38464	-3.06935
2871.000	4.09529	-3.22316	3.45950	-3.08891
2872.000	4.05005	-3.21345	3.35509	-3.01003
2873.000	4.09726	-3.22513	3.35312	-2.96448
2874.000	4.07366	-3.20544	3.42601	-2.99397
2875.000	4.08349	-3.20738	3.37479	-3.01195
2876.000	4.12086	-3.19339	3.42010	-3.09300
2877.000	4.08939	-3.24494	3.38464	-3.02380
2878.000	4.09529	-3.21525	3.39055	-3.03369
2879.000	4.09923	-3.23106	3.42010	-3.05934
2880.000	4.07956	-3.19751	3.38464	-3.11688
2881.000	4.05792	-3.24903	3.42995	-3.06129
2882.000	4.13463	-3.21509	3.34130	-3.02394
2883.000	4.08546	-3.22122	3.32356	-3.04182
2884.000	4.09529	-3.19942	3.39449	-3.08120
2885.000	4.08742	-3.21924	3.31962	-3.02004
2886.000	4.06185	-3.21934	3.37873	-3.01590
2887.000	4.07562	-3.17972	3.39449	-3.05546
2888.000	4.03825	-3.25504	3.36888	-3.05950
2889.000	4.09726	-3.17963	3.33538	-3.05564
2890.000	4.07956	-3.20344	3.32356	-3.05568
2891.000	4.05399	-3.16793	3.31962	-3.06955
2892.000	4.06579	-3.24899	3.42798	-3.05337
2893.000	4.09333	-3.21130	3.39449	-3.03962
2894.000	4.07366	-3.19555	3.35903	-3.06547
2895.000	4.07366	-3.21533	3.31174	-3.09928
2896.000	4.11693	-3.20329	3.31371	-3.04977
2897.000	4.10316	-3.22708	3.29598	-3.06171
2898.000	4.06579	-3.18965	3.37479	-3.05750
2899.000	4.09726	-3.25282	3.33144	-3.05169
2900.000	4.11299	-3.25276	3.37085	-3.06543
2901.000	4.12086	-3.23295	3.38661	-3.07925
2902.000	4.08349	-3.19156	3.36100	-3.04170
2903.000	4.06972	-3.22326	3.42601	-3.10288
2904.000	4.06775	-3.22921	3.30780	-3.03196
2905.000	4.08939	-3.24099	3.37479	-3.04166
2906.000	4.09529	-3.22909	3.38267	-3.05549
2907.000	4.04415	-3.27480	3.36494	-3.09516
2908.000	4.07956	-3.25092	3.38661	-3.08321
2909.000	4.07956	-3.23311	3.40434	-3.09107
2910.000	4.02054	-3.21950	3.33933	-3.11702
2911.000	4.07169	-3.21930	3.38858	-3.01983
2912.000	4.05005	-3.21345	3.43389	-3.08900
2913.000	4.04021	-3.23723	3.33538	-3.05564
2914.000	4.04218	-3.21150	3.34327	-3.13879
2915.000	4.06185	-3.22527	3.45950	-3.13247
2916.000	4.06382	-3.20746	3.34327	-3.01799
2917.000	4.07759	-3.23708	3.37479	-3.14463
2918.000	4.09529	-3.21129	3.32159	-3.06559
2919.000	4.08939	-3.17373	3.36691	-3.17039
2920.000	4.08742	-3.22715	3.35312	-3.05361
2921.000	4.06775	-3.24701	3.44374	-3.09490
2922.000	4.07366	-3.20940	3.31568	-3.11709
2923.000	4.10119	-3.23698	3.31174	-3.12305
2924.000	4.03431	-3.27088	3.38267	-3.13272
2925.000	4.06382	-3.23713	3.35706	-3.14468
2926.000	4.09333	-3.24493	3.35903	-3.11300
2927.000	4.04808	-3.25302	3.35706	-3.13874
2928.000	4.06185	-3.28264	3.39252	-3.12081
2929.000	4.06579	-3.26284	3.40237	-3.19205
2930.000	4.08349	-3.26079	3.34721	-3.17046
2931.000	4.08546	-3.28847	3.37676	-3.12086
2932.000	4.08349	-3.26870	3.39449	-3.14654
2933.000	4.05595	-3.23321	3.36297	-3.16645
2934.000	4.08939	-3.28846	3.42798	-3.19791
2935.000	4.08939	-3.22121	3.35706	-3.17636
2936.000	4.09726	-3.26073	3.42601	-3.15832
2937.000	4.12086	-3.25470	3.39449	-3.16832
2938.000	4.10513	-3.26070	3.37282	-3.11097
2939.000	4.06579	-3.29449	3.38858	-3.20200
2940.000	4.08742	-3.24297	3.43389	-3.21175
2941.000	4.07562	-3.22917	3.37085	-3.10306
2942.000	4.04808	-3.23324	3.32356	-3.14875
2943.000	4.07759	-3.29839	3.27036	-3.10931
2944.000	4.04612	-3.27479	3.42010	-3.18804
2945.000	4.05595	-3.22134	3.35509	-3.16251
2946.000	4.01858	-3.27688	3.28021	-3.23205
2947.000	4.02251	-3.28675	3.35509	-3.18429
2948.000	4.09333	-3.23306	3.36100	-3.10903
2949.000	4.04415	-3.28271	3.36100	-3.15061
2950.000	4.06185	-3.23516	3.35312	-3.17242
2951.000	4.07759	-3.27268	3.44965	-3.13448
2952.000	4.02251	-3.26499	3.36888	-3.02979
2953.000	4.05595	-3.25497	3.41222	-3.14055
2954.000	4.08349	-3.25288	3.35115	-3.10708
2955.000	4.08939	-3.28252	3.32750	-3.13290
2956.000	4.07562	-3.26478	3.36100	-3.12487
2957.000	4.05792	-3.26881	3.34130	-3.07543
2958.000	4.11299	-3.30023	3.30189	-3.06961
2959.000	4.09726	-3.24293	3.39843	-3.11683
2960.000	4.06185	-3.25890	3.29795	-3.10131
2961.000	4.06382	-3.27472	3.36691	-3.13871
2962.000	4.08152	-3.28453	3.39055	-3.09111
2963.000	4.03628	-3.26296	3.36100	-3.06745
2964.000	4.02644	-3.23333	3.33538	-3.10515
2965.000	4.06775	-3.26481	3.36888	-3.15059
2966.000	4.08742	-3.24495	3.35509	-3.05558
2967.000	4.03431	-3.21549	3.40040	-3.21186
2968.000	4.08742	-3.24495	3.32750	-3.14478
2969.000	4.05989	-3.24704	3.38464	-3.11490
2970.000	4.07169	-3.30237	3.34130	-3.08335
2971.000	4.03431	-3.28868	3.40631	-3.17026
2972.000	4.06185	-3.28857	3.40631	-3.11483
2973.000	4.02054	-3.28082	3.36888	-3.11891
2974.000	4.06185	-3.33999	3.36494	-3.12090
2975.000	4.04218	-3.31832	3.38070	-3.11887
2976.000	4.05595	-3.30046	3.41222	-3.17024
2977.000	4.00677	-3.30264	3.39055	-3.10498
2978.000	4.01267	-3.32833	3.42207	-3.14249
2979.000	4.06185	-3.27472	3.45162	-3.18397
2980.000	4.02251	-3.27686	3.37085	-3.20602
2981.000	4.02251	-3.30653	3.40631	-3.11483
2982.000	4.08349	-3.30233	3.38267	-3.11490
2983.000	4.00480	-3.32638	3.38070	-3.17431
2984.000	4.02251	-3.30060	3.41813	-3.09895
2985.000	4.03825	-3.31240	3.38464	-3.13668
2986.000	4.00874	-3.29274	3.35903	-3.14864
2987.000	4.03431	-3.26494	3.37873	-3.13471
2988.000	4.03431	-3.26692	3.33538	-3.25959
2989.000	4.05399	-3.27080	3.29401	-3.14093
2990.000	4.00284	-3.31452	3.33736	-3.15663
2991.000	4.02054	-3.29269	3.36691	-3.12683
2992.000	4.00874	-3.29867	3.26248	-3.10736
2993.000	4.01858	-3.24127	3.31962	-3.09134
2994.000	4.02841	-3.24123	3.32750	-3.15864
2995.000	3.98119	-3.26516	3.34327	-3.19423
2996.000	4.01661	-3.25117	3.24868	-3.11136
2997.000	4.02841	-3.27090	3.33933	-3.09524
2998.000	4.01267	-3.25712	3.33144	-3.07150
2999.000	4.02251	-3.28082	3.37085	-3.10504
3000.000	4.06185	-3.28066	3.34721	-3.09125
3001.000	4.04218	-3.25898	3.31765	-3.09729
3002.000	4.04218	-3.24909	3.42601	-3.13654
3003.000	4.03235	-3.24319	3.23095	-3.05200
3004.000	4.01464	-3.28085	3.29204	-3.10133
3005.000	4.02251	-3.27488	3.30386	-3.13495
3006.000	4.04612	-3.31435	3.46738	-3.05126
3007.000	4.06972	-3.25887	3.34524	-3.11304
3008.000	4.02251	-3.27884	3.33144	-3.11110
3009.000	4.04415	-3.25501	3.31962	-3.11114
3010.000	4.03431	-3.27088	3.38661	-3.10499
3011.000	4.01858	-3.22940	3.32553	-3.13687
3012.000	4.06775	-3.23514	3.36100	-3.13081
3013.000	4.06579	-3.27273	3.35509	-3.16845
3014.000	4.02054	-3.25907	3.41222	-3.16431
3015.000	4.02054	-3.27687	3.44177	-3.14639
3016.000	4.01071	-3.24130	3.36297	-3.10506
3017.000	3.99890	-3.24530	3.34524	-3.17244
3018.000	4.02054	-3.26500	3.34721	-3.18234
3019.000	4.04218	-3.28074	3.43586	-3.13849
3020.000	3.99300	-3.23346	3.32947	-3.16457
3021.000	4.04218	-3.25502	3.42207	-3.12863
3022.000	4.01661	-3.28084	3.35706	-3.16250
3023.000	4.01661	-3.25512	3.31371	-3.24382
3024.000	4.03825	-3.23526	3.40237	-3.21779
3025.000	4.02644	-3.24124	3.38661	-3.20597
3026.000	4.01661	-3.25512	3.37676	-3.23767
3027.000	3.98513	-3.26514	3.39055	-3.17824
3028.000	4.01267	-3.26305	3.39646	-3.20197
3029.000	4.01464	-3.26107	3.39449	-3.18416
3030.000	4.06972	-3.27271	3.34721	-3.18234
3031.000	4.02841	-3.25310	3.38070	-3.17827
3032.000	4.06382	-3.26680	3.41222	-3.21578
3033.000	4.04218	-3.27480	3.41025	-3.15243
3034.000	4.04808	-3.28665	3.37479	-3.13473
3035.000	4.01267	-3.28283	3.32750	-3.19230
3036.000	4.04808	-3.25896	3.32356	-3.14677
3037.000	4.00874	-3.27494	3.40434	-3.18611
3038.000	4.01267	-3.26503	3.40237	-3.19997
3039.000	4.03431	-3.25703	3.40237	-3.18414
3040.000	4.03038	-3.23331	3.33144	-3.17645
3041.000	4.02251	-3.29862	3.40631	-3.19204
3042.000	4.00677	-3.29670	3.34524	-3.24570
3043.000	4.05595	-3.25892	3.36297	-3.18031
3044.000	4.01858	-3.27490	3.46344	-3.19185
3045.000	4.01071	-3.28680	3.37282	-3.26342
3046.000	4.03628	-3.24516	3.27824	-3.22018
3047.000	4.06972	-3.30238	3.42601	-3.27908
3048.000	4.04021	-3.29459	3.34130	-3.22393
3049.000	4.00677	-3.24725	3.40040	-3.26531
3050.000	3.98906	-3.27106	3.40237	-3.24947
3051.000	4.02644	-3.23530	3.33144	-3.14675
3052.000	4.01661	-3.27095	3.37873	-3.14065
3053.000	3.99103	-3.26710	3.36888	-3.13277
3054.000	4.00087	-3.28090	3.45556	-3.24928
3055.000	3.99300	-3.23544	3.33341	-3.16060
3056.000	4.02644	-3.25904	3.28218	-3.24590
3057.000	4.00677	-3.25516	3.34524	-3.20214
3058.000	3.97529	-3.27903	3.31568	-3.20224
3059.000	4.02841	-3.27684	3.39252	-3.19803
3060.000	4.04021	-3.24316	3.40434	-3.25738
3061.000	4.02448	-3.27092	3.31174	-3.15869
3062.000	3.98119	-3.29087	3.34524	-3.29914
3063.000	3.99890	-3.24728	3.38070	-3.22578
3064.000	3.96152	-3.24941	3.26839	-3.21427
3065.000	4.00874	-3.23735	3.39252	-3.09705
3066.000	3.98710	-3.23546	3.39055	-3.22773
3067.000	3.98316	-3.26119	3.41222	-3.24745
3068.000	3.97923	-3.27308	3.32553	-3.17053
3069.000	3.99693	-3.23938	3.36691	-3.21395
3070.000	3.97726	-3.26319	3.36494	-3.23573
3071.000	3.99103	-3.25127	3.35115	-3.15064
3072.000	4.02644	-3.24322	3.29007	-3.12510
3073.000	3.99890	-3.24926	3.37873	-3.23173
3074.000	4.02251	-3.25312	3.30780	-3.12306
3075.000	3.99103	-3.22951	3.31174	-3.22007
3076.000	4.00480	-3.29078	3.35115	-3.20014
3077.000	3.98710	-3.27502	3.41419	-3.22765
3078.000	3.98119	-3.27505	3.28612	-3.23401
3079.000	4.04808	-3.26489	3.29795	-3.23991
3080.000	4.02054	-3.24522	3.27036	-3.18060
3081.000	4.04612	-3.27281	3.31371	-3.22996
3082.000	4.03628	-3.22340	3.33144	-3.21803
3083.000	4.02251	-3.25510	3.38267	-3.16440
3084.000	4.01661	-3.24721	3.39449	-3.19604
3085.000	3.98513	-3.27503	3.32553	-3.22596
3086.000	3.97726	-3.23154	3.35115	-3.22984
3087.000	3.97529	-3.23551	3.39055	-3.26534
3088.000	4.00874	-3.23340	3.42995	-3.23749
3089.000	3.95955	-3.26722	3.43586	-3.21372
3090.000	3.98316	-3.27702	3.35706	-3.22982
3091.000	3.95758	-3.25338	3.36100	-3.25554
3092.000	3.96939	-3.22366	3.41813	-3.14251
3093.000	3.96939	-3.27312	3.38267	-3.25151
3094.000	3.99300	-3.23741	3.35509	-3.25952
3095.000	3.98119	-3.25131	3.37282	-3.19017
3096.000	3.98513	-3.25723	3.31962	-3.18837
3097.000	3.99693	-3.27498	3.32159	-3.24775
3098.000	3.99497	-3.28290	3.33736	-3.19623
3099.000	4.00677	-3.24132	3.36888	-3.21196
3100.000	3.97529	-3.29485	3.33341	-3.17248
3101.000	3.98906	-3.26908	3.31962	-3.28537
3102.000	3.98513	-3.24338	3.34327	-3.17839
3103.000	3.99890	-3.22354	3.34721	-3.11699
3104.000	4.02841	-3.29464	3.33144	-3.23386
3105.000	4.02644	-3.22541	3.42207	-3.16031
3106.000	3.98119	-3.25724	3.41025	-3.11679
3107.000	3.98906	-3.28688	3.37479	-3.17631
3108.000	3.95365	-3.26724	3.30583	-3.13297
3109.000	3.96939	-3.26718	3.37873	-3.21391
3110.000	4.03038	-3.23924	3.38464	-3.17627
3111.000	4.00087	-3.26903	3.42010	-3.14646
3112.000	4.03038	-3.25111	3.36297	-3.18624
3113.000	4.03235	-3.27682	3.34524	-3.18234
3114.000	4.01858	-3.23534	3.30780	-3.14682
3115.000	4.01267	-3.28086	3.33144	-3.13883
3116.000	4.01661	-3.26699	3.37282	-3.20205
3117.000	3.99103	-3.27896	3.31765	-3.16065
3118.000	3.98513	-3.26514	3.40828	-3.21975
3119.000	4.01858	-3.26896	3.40434	-3.24946
3120.000	4.01464	-3.24129	3.48904	-3.17791
3121.000	3.99693	-3.27696	3.32947	-3.17249
3122.000	4.01464	-3.23337	3.42798	-3.15435
3123.000	3.98710	-3.26711	3.37676	-3.20204
3124.000	4.00874	-3.27889	3.43389	-3.24936
3125.000	4.04612	-3.24512	3.37282	-3.15057
3126.000	4.04612	-3.27874	3.46147	-3.15424
3127.000	3.99497	-3.23938	3.34327	-3.18829
3128.000	4.02251	-3.24125	3.36297	-3.21000
3129.000	4.03825	-3.23130	3.44768	-3.15429
3130.000	4.04808	-3.23522	3.39252	-3.15447
3131.000	4.00087	-3.22551	3.29795	-3.17655
3132.000	4.06382	-3.23713	3.41419	-3.13262
3133.000	4.02448	-3.19377	3.39843	-3.08119
3134.000	4.03038	-3.23924	3.41025	-3.10095
3135.000	4.00677	-3.27297	3.34130	-3.14078
3136.000	4.03235	-3.28275	3.35312	-3.15460
3137.000	4.04021	-3.27086	3.30386	-3.19832
3138.000	4.00480	-3.31451	3.48511	-3.06507
3139.000	4.05399	-3.27871	3.37085	-3.09712
3140.000	4.01071	-3.31053	3.30780	-3.12504
3141.000	3.97726	-3.29880	3.36888	-3.18425
3142.000	3.97923	-3.28099	3.45359	-3.15625
3143.000	3.97136	-3.27706	3.38070	-3.04758
3144.000	3.97136	-3.29685	3.35706	-3.17240
3145.000	3.97333	-3.29684	3.35509	-3.09915
3146.000	3.97923	-3.23549	3.27627	-3.13306
3147.000	3.99890	-3.27300	3.28612	-3.07758
3148.000	4.03431	-3.20758	3.34918	-3.15263
3149.000	4.03825	-3.24713	3.28415	-3.09541
3150.000	3.95758	-3.23162	3.34918	-3.13481
3151.000	4.03038	-3.22935	3.33341	-3.11308
3152.000	4.04612	-3.22929	3.31962	-3.11510
3153.000	4.04612	-3.22138	3.33736	-3.12297
3154.000	4.02054	-3.20961	3.29007	-3.08153
3155.000	4.01464	-3.21359	3.39252	-3.13269
3156.000	4.03628	-3.23329	3.40631	-3.12077
3157.000	4.00480	-3.25122	3.39055	-3.10102
3158.000	4.03235	-3.23330	3.32159	-3.09133
3159.000	4.02841	-3.24519	3.36494	-3.12882
3160.000	3.96349	-3.28896	3.35312	-3.12688
3161.000	3.96152	-3.26721	3.32750	-3.06953
3162.000	3.91626	-3.25354	3.41222	-3.17816
3163.000	3.95758	-3.27118	3.38464	-3.12282
3164.000	3.94578	-3.26134	3.31765	-3.11115
3165.000	3.95562	-3.26724	3.33341	-3.09724
3166.000	3.99497	-3.26510	3.40040	-3.20394
3167.000	3.95955	-3.27118	3.40434	-3.12671
3168.000	3.95955	-3.26920	3.42404	-3.15239
3169.000	3.99890	-3.24728	3.34524	-3.10116
3170.000	4.01267	-3.25514	3.38267	-3.09906
3171.000	3.97726	-3.25132	3.33144	-3.16655
3172.000	3.97923	-3.26912	3.30977	-3.11711
3173.000	3.94775	-3.24748	3.30977	-3.15474
3174.000	4.00087	-3.21364	3.36100	-3.10309
3175.000	3.98906	-3.25128	3.39252	-3.08715
3176.000	3.98119	-3.25724	3.32750	-3.12300
3177.000	3.98316	-3.25724	3.29795	-3.11715
3178.000	4.01858	-3.23929	3.33538	-3.14475
3179.000	3.95955	-3.28898	3.29992	-3.17853
3180.000	4.01858	-3.23336	3.32356	-3.19231
3181.000	3.96152	-3.26721	3.39646	-3.19603
3182.000	3.98710	-3.20381	3.35509	-3.26744
3183.000	3.96152	-3.25336	3.36494	-3.18228
3184.000	3.95758	-3.25338	3.41222	-3.15243
3185.000	3.98710	-3.22755	3.42207	-3.21179
3186.000	3.94971	-3.27715	3.39449	-3.20198
3187.000	3.99497	-3.22356	3.38661	-3.25150
3188.000	3.95365	-3.21383	3.42601	-3.19990
3189.000	3.97529	-3.22957	3.39449	-3.25345
3190.000	3.96545	-3.26522	3.43192	-3.30281
3191.000	3.96152	-3.22765	3.38070	-3.30496
3192.000	3.94578	-3.23760	3.40040	-3.25739
3193.000	3.92610	-3.20206	3.35312	-3.23775
3194.000	3.97333	-3.24343	3.34524	-3.20214
3195.000	3.94971	-3.23165	3.38464	-3.25348
3196.000	3.95365	-3.21581	3.36100	-3.29513
3197.000	3.96939	-3.20387	3.40040	-3.23364
3198.000	3.99103	-3.23544	3.42207	-3.28701
3199.000	3.97333	-3.23156	3.38070	-3.29903
3200.000	3.98906	-3.24336	3.38858	-3.24555
3201.000	3.97726	-3.26913	3.43783	-3.22757
3202.000	3.98119	-3.23350	3.36888	-3.19414
3203.000	4.02251	-3.25312	3.43783	-3.19194
3204.000	3.97333	-3.24145	3.38858	-3.25743
3205.000	3.99497	-3.24532	3.44768	-3.25921
3206.000	3.99497	-3.23345	3.35509	-3.22389
3207.000	3.97726	-3.25924	3.42404	-3.22762
3208.000	4.02448	-3.24125	3.41419	-3.27318
3209.000	3.97726	-3.26913	3.39252	-3.25742
3210.000	3.96545	-3.26324	3.34918	-3.21203
3211.000	3.97529	-3.26320	3.39646	-3.25146
3212.000	4.01661	-3.21952	3.34918	-3.22193
3213.000	3.98119	-3.27109	3.41025	-3.23756
3214.000	3.94971	-3.27319	3.28612	-3.18451
3215.000	3.98513	-3.25525	3.44177	-3.23152
3216.000	3.95168	-3.25340	3.38464	-3.22775
3217.000	3.93988	-3.21586	3.29795	-3.20625
3218.000	4.00284	-3.22155	3.35903	-3.11894
3219.000	4.00677	-3.24923	3.35115	-3.17638
3220.000	3.97923	-3.24538	3.34524	-3.13284
3221.000	3.97923	-3.27901	3.31371	-3.05373
3222.000	3.97726	-3.22758	3.31962	-3.13886
3223.000	4.02054	-3.25511	3.29992	-3.09338
3224.000	3.99300	-3.27302	3.38464	-3.12480
3225.000	3.95955	-3.22370	3.34327	-3.10117
3226.000	3.96349	-3.24544	3.32159	-3.09331
3227.000	3.97923	-3.22362	3.31765	-3.08342
3228.000	4.02644	-3.21354	3.26642	-3.10339
3229.000	3.96742	-3.21377	3.25854	-3.18658
3230.000	3.96152	-3.26919	3.30386	-3.08347
3231.000	3.98513	-3.23547	3.37282	-3.13077
3232.000	3.96349	-3.23951	3.36297	-3.22386
3233.000	4.02251	-3.18982	3.42010	-3.14844
3234.000	3.96152	-3.21578	3.38464	-3.16440
3235.000	4.01464	-3.25711	3.35312	-3.11500
3236.000	4.01071	-3.18393	3.36888	-3.12287
3237.000	4.04218	-3.24711	3.38464	-3.09707
3238.000	4.00677	-3.26505	3.35706	-3.16844
3239.000	3.99497	-3.26115	3.32750	-3.05765
3240.000	3.98710	-3.24139	3.32159	-3.18044
3241.000	4.01464	-3.19183	3.31568	-3.10125
3242.000	3.96742	-3.23751	3.31568	-3.06759
3243.000	3.96545	-3.21378	3.30977	-3.08543
3244.000	3.96742	-3.20388	3.31568	-3.18244
3245.000	3.97529	-3.25133	3.27036	-3.14100
3246.000	3.98906	-3.21171	3.30189	-3.13298
3247.000	3.95955	-3.20787	3.26445	-3.15092
3248.000	3.95365	-3.19404	3.23883	-3.12922
3249.000	4.00087	-3.20969	3.35115	-3.13282
3250.000	3.97136	-3.23552	3.35115	-3.12094
3251.000	4.02054	-3.13839	3.34721	-3.07343
3252.000	4.01464	-3.17600	3.37873	-3.04759
3253.000	3.96349	-3.22962	3.29992	-3.09734
3254.000	4.02841	-3.20364	3.44374	-3.15232
3255.000	4.00677	-3.18197	3.36494	-3.15258
3256.000	3.97726	-3.23154	3.33341	-3.14080
3257.000	3.97726	-3.20384	3.39646	-3.12674
3258.000	3.98906	-3.17214	3.37676	-3.09116
3259.000	3.97923	-3.17020	3.33736	-3.15465
3260.000	3.97726	-3.22561	3.41025	-3.16629
3261.000	3.99693	-3.21959	3.38070	-3.14857
3262.000	3.97529	-3.21177	3.39843	-3.15049
3263.000	3.96939	-3.22762	3.33933	-3.14078
3264.000	3.94971	-3.22571	3.36494	-3.16842
3265.000	3.98316	-3.25328	3.38661	-3.20992
3266.000	4.00284	-3.24925	3.31174	-3.10919
3267.000	4.00087	-3.29871	3.42404	-3.08507
3268.000	4.00677	-3.27297	3.40631	-3.19798
3269.000	3.98906	-3.22160	3.28810	-3.16867
3270.000	4.00480	-3.26111	3.30780	-3.14286
3271.000	4.02841	-3.23134	3.36691	-3.16841
3272.000	3.99890	-3.22354	3.29401	-3.13102
3273.000	4.02644	-3.31245	3.43389	-3.18997
3274.000	3.98513	-3.24932	3.32947	-3.18239
3275.000	4.02251	-3.21752	3.39646	-3.19405
3276.000	3.99890	-3.23937	3.33341	-3.13288
3277.000	3.99693	-3.21564	3.32947	-3.12497
3278.000	4.05005	-3.24312	3.39449	-3.20990
3279.000	4.04612	-3.24907	3.34524	-3.14472
3280.000	4.03235	-3.22341	3.38858	-3.19606
3281.000	4.02841	-3.20760	3.38661	-3.18023
3282.000	4.01464	-3.24326	3.42207	-3.17219
3283.000	4.04808	-3.20554	3.36297	-3.17437
3284.000	4.02448	-3.28674	3.35706	-3.13082
3285.000	4.02448	-3.23136	3.35706	-3.14072
3286.000	4.06972	-3.22128	3.40434	-3.14057
3287.000	4.01858	-3.24523	3.39843	-3.18217
3288.000	4.03825	-3.24713	3.29992	-3.11516
3289.000	4.01858	-3.24720	3.31765	-3.14877
3290.000	4.00284	-3.24925	3.39055	-3.16042
3291.000	4.01071	-3.28482	3.34918	-3.17837
3292.000	4.01267	-3.24921	3.37282	-3.15255
3293.000	4.01858	-3.21951	3.36297	-3.18624
3294.000	4.00087	-3.23145	3.38070	-3.14659
3295.000	4.00677	-3.30264	3.38070	-3.11887
3296.000	4.00087	-3.25321	3.31174	-3.17453
3297.000	3.99300	-3.25522	3.35903	-3.08725
3298.000	3.98710	-3.22161	3.42404	-3.16427
3299.000	4.00087	-3.22749	3.35706	-3.12290
3300.000	4.03235	-3.23924	3.38661	-3.11291
3301.000	4.06579	-3.21734	3.31962	-3.12500
3302.000	3.97136	-3.24541	3.29598	-3.14488
3303.000	4.02448	-3.17794	3.42601	-3.14842
3304.000	3.96152	-3.20390	3.30977	-3.09335
3305.000	3.99300	-3.21961	3.34524	-3.08532
3306.000	4.00087	-3.18199	3.34918	-3.09917
3307.000	4.05202	-3.19959	3.36691	-3.16445
3308.000	4.02054	-3.23335	3.40237	-3.18018
3309.000	3.98906	-3.17610	3.32553	-3.15667
3310.000	4.00677	-3.23143	3.33341	-3.13288
3311.000	4.02841	-3.20364	3.40631	-3.18214
3312.000	4.01858	-3.24523	3.43783	-3.15234
3313.000	4.03038	-3.20957	3.43389	-3.25134
3314.000	4.00874	-3.22944	3.28810	-3.13302
3315.000	4.03431	-3.27681	3.31765	-3.10125
3316.000	3.99497	-3.22158	3.41025	-3.14649
3317.000	3.99300	-3.21763	3.37676	-3.16244
3318.000	3.99497	-3.22949	3.35903	-3.13082
3319.000	3.98316	-3.25130	3.32356	-3.23191
3320.000	3.95562	-3.23756	3.36494	-3.16842
3321.000	3.97923	-3.22164	3.38464	-3.15846
3322.000	3.97726	-3.20978	3.39252	-3.24950
3323.000	3.98513	-3.21173	3.31371	-3.22006
3324.000	3.98513	-3.22162	3.34918	-3.18233
3325.000	4.01071	-3.16810	3.34524	-3.25164
3326.000	4.02841	-3.22343	3.34524	-3.25559
3327.000	3.96545	-3.21180	3.37085	-3.27135
3328.000	3.99693	-3.23146	3.36691	-3.24760
3329.000	4.02644	-3.24519	3.32750	-3.24180
3330.000	4.02054	-3.19576	3.32750	-3.26159
3331.000	4.05202	-3.17585	3.36100	-3.29909
3332.000	4.01858	-3.24918	3.39449	-3.26929
3333.000	4.06579	-3.17580	3.41813	-3.28900
3334.000	4.04415	-3.17589	3.31174	-3.24581
3335.000	4.04218	-3.21348	3.30583	-3.29136
3336.000	4.05399	-3.18772	3.35509	-3.26348
3337.000	4.05989	-3.19363	3.34524	-3.20808
3338.000	4.08546	-3.17374	3.37085	-3.16444
3339.000	4.06972	-3.19755	3.34721	-3.24371
3340.000	4.06382	-3.20350	3.29401	-3.22607
3341.000	4.02644	-3.22937	3.34918	-3.14471
3342.000	4.04612	-3.16005	3.44965	-3.23347
3343.000	4.08349	-3.19156	3.32947	-3.20219
3344.000	4.05792	-3.19561	3.37282	-3.22779
3345.000	4.02644	-3.18387	3.36691	-3.22385
3346.000	4.03825	-3.21745	3.35312	-3.25557
3347.000	4.01661	-3.21754	3.37085	-3.21592
3348.000	4.03628	-3.21350	3.38464	-3.19607
3349.000	4.04612	-3.20160	3.25657	-3.20639
3350.000	3.96545	-3.20982	3.30977	-3.25175
3351.000	4.01464	-3.21359	3.40434	-3.19799
3352.000	4.03431	-3.20956	3.36297	-3.27137
3353.000	4.04612	-3.20555	3.38858	-3.32077
3354.000	4.00087	-3.24727	3.35706	-3.23180
3355.000	4.00874	-3.25516	3.31371	-3.24976
3356.000	3.98119	-3.26713	3.30977	-3.27155
3357.000	4.03825	-3.27878	3.46344	-3.28884
3358.000	3.99103	-3.25918	3.30189	-3.22802
3359.000	4.01267	-3.23932	3.42995	-3.22562
3360.000	4.00874	-3.25516	3.34524	-3.20808
3361.000	3.97529	-3.27507	3.34721	-3.19224
3362.000	4.00677	-3.22351	3.36494	-3.23771
3363.000	4.01071	-3.23932	3.26445	-3.19844
3364.000	3.98316	-3.25921	3.38464	-3.29703
3365.000	3.98906	-3.26117	3.23489	-3.23220
3366.000	3.97333	-3.26914	3.38070	-3.18619
3367.000	3.96152	-3.26919	3.36297	-3.23574
3368.000	4.00087	-3.32244	3.33341	-3.23980
3369.000	3.98316	-3.24734	3.35706	-3.27337
3370.000	4.04808	-3.23720	3.28218	-3.22610
3371.000	4.00284	-3.22155	3.33341	-3.19426
3372.000	3.99300	-3.25324	3.33341	-3.20218
3373.000	3.97726	-3.22165	3.43783	-3.20579
3374.000	3.96545	-3.26126	3.37085	-3.23571
3375.000	3.98710	-3.27502	3.29992	-3.29336
3376.000	3.97923	-3.25527	3.39843	-3.24156
3377.000	3.99103	-3.21764	3.31962	-3.23984
3378.000	3.98316	-3.27900	3.32750	-3.21408
3379.000	3.99693	-3.20179	3.31371	-3.25966
3380.000	4.00284	-3.21759	3.41222	-3.15639
3381.000	3.94381	-3.23959	3.38464	-3.19805
3382.000	3.94971	-3.25737	3.35312	-3.24765
3383.000	3.95955	-3.20391	3.39252	-3.23762
3384.000	3.96545	-3.28104	3.40828	-3.28706
3385.000	3.98906	-3.24139	3.33736	-3.18633
3386.000	3.91823	-3.27727	3.35312	-3.18826
3387.000	3.92807	-3.23173	3.34130	-3.25363
3388.000	3.99300	-3.24533	3.32750	-3.16260
3389.000	3.99300	-3.23346	3.40434	-3.21581
3390.000	3.98906	-3.24534	3.31568	-3.27549
3391.000	3.98906	-3.22952	3.30977	-3.17850
3392.000	4.00677	-3.26308	3.39843	-3.21780
3393.000	3.93988	-3.26532	3.38267	-3.32277
3394.000	4.00087	-3.27101	3.32553	-3.20221
3395.000	4.00087	-3.31453	3.36297	-3.20604
3396.000	4.03235	-3.27484	3.35312	-3.20806
3397.000	3.90249	-3.26546	3.38661	-3.18419
3398.000	3.85723	-3.23596	3.26642	-3.19646
3399.000	3.77259	-3.21451	3.29992	-3.32701
3400.000	3.59736	-3.24879	3.03975	-3.18527
3401.000	3.44965	-3.23149	2.95103	-3.22712
3402.000	3.15605	-3.24828	2.73409	-3.21584
3403.000	2.85638	-3.30067	2.44210	-3.33545
3404.000	2.44604	-3.35128	2.13812	-3.36389
3405.000	2.07889	-3.28674	1.71158	-3.49947
3406.000	1.63849	-3.35296	1.29076	-3.51995
3407.000	1.11687	-3.38343	0.81645	-3.53238
3408.000	0.53971	-3.48898	0.39935	-3.60399
3409.000	0.09094	-3.52480	-0.07315	-3.82596
3410.000	-0.44877	-3.60397	-0.57331	-3.86736
3411.000	-0.89946	-3.76607	-1.03188	-3.86890
3412.000	-1.40537	-3.81491	-1.34016	-4.09609
3413.000	-1.62664	-3.95309	-1.76293	-4.09726
3414.000	-1.94265	-3.99396	-2.10851	-4.20124
3415.000	-2.30394	-4.19080	-2.41841	-4.33476
3416.000	-2.62560	-4.33802	-2.67097	-4.39121
3417.000	-2.92145	-4.46533	-2.99046	-4.45518
3418.000	-3.23489	-4.68901	-3.23883	-4.61204
3419.000	-3.56979	-4.86485	-3.45359	-4.73334
3420.000	-3.82180	-4.97185	-3.64462	-4.86642
3421.000	-4.03825	-5.06706	-3.83951	-4.99342
3422.000	-4.23885	-5.23110	-4.04415	-5.06309
3423.000	-4.23885	-5.26651	-4.28407	-5.21505
3424.000	-4.42363	-5.41074	-4.49634	-5.19588
3425.000	-4.62207	-5.46233	-4.75364	-5.21366
3426.000	-4.72026	-5.61478	-4.83609	-5.28970
3427.000	-4.87142	-5.63710	-5.02056	-5.28234
3428.000	-5.02056	-5.70649	-5.22061	-5.32588
3429.000	-5.21080	-5.84601	-5.38918	-5.47952
3430.000	-5.41269	-5.84214	-5.49302	-5.40989
3431.000	-5.55569	-5.92696	-5.72995	-5.49402
3432.000	-5.69275	-5.95691	-5.88844	-5.61599
3433.000	-5.84540	-5.90637	-6.04489	-5.65162
3434.000	-6.04685	-5.98055	-6.26377	-5.66106
3435.000	-6.27159	-6.00542	-6.51760	-5.59954
3436.000	-6.50394	-6.06332	-6.79651	-5.70985
3437.000	-6.68732	-6.03373	-7.03421	-5.75195
3438.000	-6.87447	-6.08024	-7.20940	-5.70287
3439.000	-6.92903	-6.13031	-7.30667	-5.74854
3440.000	-7.01863	-6.16233	-7.47388	-5.72099
3441.000	-7.04005	-6.15034	-7.66233	-5.63065
3442.000	-7.08483	-6.16145	-7.62543	-5.67604
3443.000	-7.02836	-6.09778	-7.67398	-5.67345
3444.000	-6.92513	-6.15769	-7.57298	-5.61814
3445.000	-6.89006	-6.06637	-7.62543	-5.52761
3446.000	-6.73607	-6.09174	-7.46417	-5.52771
3447.000	-6.58784	-5.99976	-7.46611	-5.56090
3448.000	-6.54492	-6.00223	-7.21719	-5.60700
3449.000	-6.39267	-5.96687	-7.18605	-5.57611
3450.000	-6.37705	-5.98270	-7.05757	-5.55223
3451.000	-6.27549	-5.90561	-6.89785	-5.49541
3452.000	-6.29112	-5.92891	-6.95046	-5.55350
3453.000	-6.28917	-5.93089	-6.91734	-5.59693
3454.000	-6.36143	-5.91246	-6.91928	-5.66341
3455.000	-6.47271	-5.92878	-6.87057	-5.66203
3456.000	-6.46880	-5.92687	-6.91149	-5.64785
3457.000	-6.53321	-5.96522	-7.01084	-5.66231
3458.000	-6.60930	-5.96432	-7.01084	-5.78351
3459.000	-6.72047	-5.98643	-7.12182	-5.78018
3460.000	-6.77312	-6.04440	-7.14323	-5.76428
3461.000	-6.77702	-6.04630	-7.18994	-5.80277
3462.000	-6.84329	-6.08649	-7.37474	-5.80625
3463.000	-6.89590	-6.09363	-7.36307	-5.88451
3464.000	-6.92903	-6.09516	-7.42140	-5.86617
3465.000	-6.93292	-6.19858	-7.45445	-5.85987
3466.000	-6.97383	-6.22147	-7.42918	-5.87582
3467.000	-7.00499	-6.22496	-7.48554	-5.85360
3468.000	-6.95435	-6.21001	-7.47194	-5.92014
3469.000	-7.06147	-6.24567	-7.52247	-5.86091
3470.000	-7.00889	-6.22686	-7.42918	-5.83873
3471.000	-7.00305	-6.25230	-7.48554	-5.78332
3472.000	-7.04978	-6.24387	-7.53024	-5.86471
3473.000	-7.01668	-6.26968	-7.51858	-5.83754
3474.000	-6.97383	-6.20390	-7.51664	-5.76729
3475.000	-6.93292	-6.22200	-7.54773	-5.80202
3476.000	-6.99136	-6.16464	-7.47194	-5.76593
3477.000	-6.92903	-6.20449	-7.49720	-5.75974
3478.000	-7.00889	-6.17026	-7.46028	-5.78951
3479.000	-6.94461	-6.19062	-7.45056	-5.72324
3480.000	-6.98747	-6.14126	-7.34946	-5.72455
3481.000	-6.94851	-6.11249	-7.40390	-5.71799
3482.000	-6.90370	-6.15797	-7.39807	-5.72197
3483.000	-6.92903	-6.15569	-7.43695	-5.73904
3484.000	-6.88032	-6.14656	-7.41946	-5.67872
3485.000	-6.88421	-6.10941	-7.43306	-5.73128
3486.000	-6.94461	-6.15939	-7.36891	-5.68718
3487.000	-6.89980	-6.17949	-7.40779	-5.72966
3488.000	-6.94071	-6.13992	-7.42918	-5.75477
3489.000	-6.91734	-6.15779	-7.27555	-5.79777
3490.000	-6.86083	-6.12728	-7.36891	-5.73406
3491.000	-6.85888	-6.16050	-7.37085	-5.79459
3492.000	-6.87057	-6.13692	-7.32612	-5.71703
3493.000	-6.83744	-6.15491	-7.37085	-5.71060
3494.000	-6.81405	-6.13764	-7.37863	-5.73003
3495.000	-6.79651	-6.16325	-7.40974	-5.72768
3496.000	-6.77702	-6.13225	-7.40002	-5.73952
3497.000	-6.86083	-6.17609	-7.41946	-5.76661
3498.000	-6.79846	-6.15736	-7.33001	-5.69744
3499.000	-6.79261	-6.11252	-7.33001	-5.76582
3500.000	-6.78286	-6.11069	-7.39418	-5.73960
3501.000	-6.79651	-6.13396	-7.34752	-5.78122
3502.000	-6.73997	-6.13076	-7.42140	-5.75682
3503.000	-6.78871	-6.10281	-7.37668	-5.77107
3504.000	-6.78676	-6.13213	-7.37668	-5.66168
3505.000	-6.79261	-6.12033	-7.40779	-5.79801
3506.000	-6.81600	-6.15128	-7.41751	-5.77836
3507.000	-6.80626	-6.11626	-7.39418	-5.77280
3508.000	-6.81210	-6.12204	-7.42918	-5.72157
3509.000	-6.78871	-6.13796	-7.39224	-5.75720
3510.000	-6.77896	-6.17323	-7.48554	-5.80675
3511.000	-6.79456	-6.12812	-7.38057	-5.73391
3512.000	-6.83159	-6.18818	-7.40002	-5.71608
3513.000	-6.78871	-6.15163	-7.38641	-5.76118
3514.000	-6.80236	-6.14950	-7.39613	-5.72981
3515.000	-6.80236	-6.18660	-7.39224	-5.71814
3516.000	-6.82380	-6.17461	-7.33390	-5.71498
3517.000	-6.82965	-6.14916	-7.40779	-5.72575
3518.000	-6.84719	-6.16260	-7.41362	-5.72568
3519.000	-6.81015	-6.18650	-7.41557	-5.70807
3520.000	-6.79456	-6.19647	-7.41168	-5.74523
3521.000	-6.78871	-6.17702	-7.41946	-5.73146
3522.000	-6.82965	-6.19602	-7.43112	-5.76451
3523.000	-6.83354	-6.20182	-7.41946	-5.72169
3524.000	-6.81405	-6.17083	-7.38641	-5.74361
3525.000	-6.80236	-6.18075	-7.44667	-5.74868
3526.000	-6.82185	-6.17659	-7.39224	-5.78259
3527.000	-6.83354	-6.18425	-7.38835	-5.74944
3528.000	-6.82965	-6.13939	-7.40779	-5.77653
3529.000	-6.81990	-6.16685	-7.39029	-5.76699
3530.000	-6.78091	-6.15954	-7.37863	-5.80815
3531.000	-6.80626	-6.14945	-7.37280	-5.80237
3532.000	-6.79261	-6.09885	-7.42918	-5.76258
3533.000	-6.80041	-6.14367	-7.37280	-5.80823
3534.000	-6.83159	-6.10812	-7.44862	-5.82090
3535.000	-6.82380	-6.12189	-7.41751	-5.79984
3536.000	-6.81795	-6.11025	-7.39029	-5.85096
3537.000	-6.76727	-6.13042	-7.40974	-5.82142
3538.000	-6.82380	-6.13947	-7.43112	-5.79966
3539.000	-6.74777	-6.08574	-7.40196	-5.72778
3540.000	-6.81600	-6.16690	-7.48943	-5.75789
3541.000	-6.83549	-6.16080	-7.33001	-5.74238
3542.000	-6.85693	-6.16052	-7.41168	-5.75695
3543.000	-6.86862	-6.15061	-7.36891	-5.76727
3544.000	-6.83354	-6.15496	-7.41168	-5.75890
3545.000	-6.81990	-6.15319	-7.42335	-5.73727
3546.000	-6.81015	-6.14940	-7.40390	-5.82930
3547.000	-6.83744	-6.13344	-7.36502	-5.76732
3548.000	-6.80431	-6.17877	-7.40390	-5.83125
3549.000	-6.78091	-6.24545	-7.39224	-5.78454
3550.000	-6.85108	-6.16841	-7.39224	-5.81969
3551.000	-6.82185	-6.16292	-7.30084	-5.76033
3552.000	-6.79846	-6.15541	-7.36502	-5.77123
3553.000	-6.80236	-6.12216	-7.44667	-5.77407
3554.000	-6.78676	-6.13798	-7.31640	-5.77185
3555.000	-6.78676	-6.14580	-7.39418	-5.80405
3556.000	-6.71267	-6.09985	-7.38446	-5.78464
3557.000	-6.78286	-6.15366	-7.37085	-5.78287
3558.000	-6.79456	-6.12226	-7.37280	-5.79261
3559.000	-6.86473	-6.13309	-7.41946	-5.83496
3560.000	-6.77896	-6.14980	-7.33585	-5.80090
3561.000	-6.81210	-6.19429	-7.33974	-5.84186
3562.000	-6.80431	-6.12995	-7.42723	-5.80166
3563.000	-6.78871	-6.15358	-7.40585	-5.80389
3564.000	-6.81015	-6.13769	-7.40974	-5.81556
3565.000	-6.78871	-6.13601	-7.40974	-5.80579
3566.000	-6.77312	-6.08152	-7.42335	-5.78218
3567.000	-6.75167	-6.12476	-7.40002	-5.80202
3568.000	-6.77507	-6.13227	-7.35724	-5.81234
3569.000	-6.79846	-6.12612	-7.36502	-5.77318
3570.000	-6.77702	-6.11467	-7.44862	-5.81505
3571.000	-6.76532	-6.10310	-7.47000	-5.80891
3572.000	-6.78286	-6.12827	-7.38057	-5.80813
3573.000	-6.80431	-6.14753	-7.39029	-5.84315
3574.000	-6.81600	-6.13957	-7.34557	-5.84373
3575.000	-6.74192	-6.15808	-7.42918	-5.80749
3576.000	-6.80820	-6.13771	-7.39807	-5.86062
3577.000	-6.78091	-6.15759	-7.42335	-5.84467
3578.000	-6.77117	-6.12060	-7.44667	-5.79945
3579.000	-6.76922	-6.14992	-7.33779	-5.90241
3580.000	-6.76532	-6.14802	-7.43501	-5.78008
3581.000	-6.77312	-6.16745	-7.46805	-5.76793
3582.000	-6.72437	-6.07431	-7.37668	-5.78084
3583.000	-6.77896	-6.11074	-7.43890	-5.84251
3584.000	-6.76142	-6.15393	-7.42723	-5.83485
3585.000	-6.74387	-6.09165	-7.40002	-5.82154
3586.000	-6.74582	-6.14631	-7.41751	-5.87403
3587.000	-6.72632	-6.14070	-7.41168	-5.84091
3588.000	-6.73412	-6.09958	-7.38252	-5.81006
3589.000	-6.75557	-6.09931	-7.40974	-5.83313
3590.000	-6.78481	-6.11067	-7.37280	-5.78480
3591.000	-6.73412	-6.13084	-7.44667	-5.88535
3592.000	-6.70097	-6.09023	-7.41946	-5.87205
3593.000	-6.74777	-6.08965	-7.43306	-5.88748
3594.000	-6.71657	-6.09980	-7.44862	-5.85800
3595.000	-6.72047	-6.10366	-7.38835	-5.86075
3596.000	-6.73802	-6.10149	-7.41946	-5.86619
3597.000	-6.76142	-6.12463	-7.41751	-5.84865
3598.000	-6.75167	-6.03294	-7.43306	-5.83673
3599.000	-6.76532	-6.08552	-7.35141	-5.86904
3600.000	-6.75752	-6.08757	-7.41751	-5.86427
3601.000	-6.77507	-6.14594	-7.41362	-5.80770
3602.000	-6.77507	-6.13423	-7.38835	-5.80412
3603.000	-6.69902	-6.09611	-7.47000	-5.77181
3604.000	-6.74582	-6.08576	-7.40002	-5.79421
3605.000	-6.73607	-6.08784	-7.37668	-5.81599
3606.000	-6.74387	-6.15220	-7.43112	-5.83285
3607.000	-6.74387	-6.10923	-7.45445	-5.80716
3608.000	-6.73022	-6.13674	-7.43890	-5.75074
3609.000	-6.76532	-6.13826	-7.44667	-5.79360
3610.000	-6.74582	-6.12678	-7.44473	-5.80143
3611.000	-6.78286	-6.10483	-7.43306	-5.78011
3612.000	-6.78676	-6.16728	-7.42918	-5.75086
3613.000	-6.72437	-6.15049	-7.38835	-5.76897
3614.000	-6.74777	-6.12090	-7.45833	-5.84615
3615.000	-6.65417	-6.10644	-7.30862	-5.82078
3616.000	-6.68342	-6.08654	-7.36307	-5.72242
3617.000	-6.63271	-6.04222	-7.22691	-5.76713
3618.000	-6.50199	-5.98319	-7.08094	-5.70838
3619.000	-6.28721	-5.94461	-6.81795	-5.74871
3620.000	-6.07617	-5.83343	-6.72242	-5.63050
3621.000	-5.63990	-5.72430	-6.39462	-5.61656
3622.000	-5.41073	-5.64609	-6.10354	-5.40604
3623.000	-4.97151	-5.39473	-5.68492	-5.30412
3624.000	-4.50027	-5.33744	-5.26178	-5.04062
3625.000	-4.07956	-5.22625	-4.70848	-4.84411
3626.000	-3.61903	-4.94934	-4.24082	-4.67972
3627.000	-3.14029	-4.77428	-3.71550	-4.54659
3628.000	-2.63941	-4.52169	-3.14423	-4.32420
3629.000	-2.11048	-4.21508	-2.66111	-4.04140
3630.000	-1.55947	-4.01853	-2.13220	-3.75206
3631.000	-1.02398	-3.71246	-1.68985	-3.46979
3632.000	-0.60494	-3.44137	-1.16232	-3.13952
3633.000	-0.27876	-3.19566	-0.89946	-2.87991
3634.000	0.02768	-2.91400	-0.46854	-2.65391
3635.000	0.27480	-2.61823	-0.13444	-2.43559
3636.000	0.57924	-2.40568	0.17398	-2.35813
3637.000	0.85005	-2.18310	0.33411	-2.07603
3638.000	0.95678	-2.02015	0.61285	-1.95673
3639.000	1.25717	-1.84313	0.82831	-1.85133
3640.000	1.42710	-1.75160	0.89749	-1.83540
3641.000	1.52391	-1.69391	1.07734	-1.72998
3642.000	1.63651	-1.62626	1.21172	-1.66034
3643.000	1.81823	-1.60623	1.21567	-1.69015
3644.000	1.87551	-1.64592	1.36783	-1.78940
3645.000	1.95647	-1.63193	1.39746	-1.84898
3646.000	1.93475	-1.65778	1.36190	-1.91060
3647.000	1.92883	-1.65381	1.34412	-1.87485
3648.000	1.88538	-1.72537	1.38561	-1.99203
3649.000	1.73923	-1.70366	1.37771	-1.99601
3650.000	1.64639	-1.75341	1.23346	-2.14113
3651.000	1.55552	-1.83495	1.32238	-2.17482
3652.000	1.41327	-1.82712	1.19394	-2.15705
3653.000	1.26903	-1.90868	1.12279	-2.30209
3654.000	1.15441	-1.94254	1.00619	-2.32402
3655.000	1.04769	-2.05386	1.01410	-2.33394
3656.000	0.94887	-2.12544	0.93504	-2.37173
3657.000	0.90539	-2.15924	0.87970	-2.34595
3658.000	0.84610	-2.30029	0.94492	-2.44717
3659.000	0.85005	-2.36582	0.95283	-2.39951
3660.000	0.86191	-2.43135	1.01014	-2.52257
3661.000	0.85993	-2.50680	0.93702	-2.50079
3662.000	0.86191	-2.57231	1.00224	-2.41536
3663.000	0.93899	-2.56630	1.05362	-2.48879
3664.000	1.03188	-2.57615	0.99829	-2.44515
3665.000	1.11094	-2.52646	1.17813	-2.42912
3666.000	1.17615	-2.51449	1.22160	-2.36952
3667.000	1.25717	-2.50846	1.29867	-2.37938
3668.000	1.30262	-2.39526	1.33819	-2.30587
3669.000	1.42710	-2.35939	1.41327	-2.20254
3670.000	1.53379	-2.23221	1.43303	-2.17670
3671.000	1.63256	-2.15466	1.51403	-2.13691
3672.000	1.74515	-2.11680	1.57330	-2.03754
3673.000	1.80638	-2.01943	1.64837	-1.98583
3674.000	1.85181	-1.95185	1.57923	-1.98192
3675.000	1.93278	-1.87629	1.73528	-1.97978
3676.000	1.96832	-1.86235	1.62466	-1.80707
3677.000	1.98214	-1.78884	1.67207	-1.80306
3678.000	2.01176	-1.78484	1.68590	-1.83681
3679.000	2.06112	-1.77286	1.64441	-1.79116
3680.000	2.01374	-1.74312	1.63454	-1.77726
3681.000	2.02361	-1.69345	1.60688	-1.78722
3682.000	1.99399	-1.70739	1.57132	-1.76937
3683.000	1.99202	-1.73321	1.53774	-1.83099
3684.000	1.99794	-1.78882	1.59305	-1.85677
3685.000	1.96437	-1.80674	1.57725	-1.89055
3686.000	1.91698	-1.78494	1.53181	-1.87073
3687.000	1.89130	-1.82072	1.51601	-1.88067
3688.000	1.88341	-1.82271	1.46859	-1.97011
3689.000	1.87156	-1.89026	1.49032	-1.91844
3690.000	1.87353	-1.85053	1.52391	-2.00581
3691.000	1.87156	-1.85848	1.43698	-1.98404
3692.000	1.78071	-1.90029	1.42315	-2.05159
3693.000	1.79058	-1.95589	1.45871	-1.97806
3694.000	1.80046	-1.92013	1.42908	-2.07740
3695.000	1.79848	-1.94595	1.49625	-2.04755
3696.000	1.76886	-1.95393	1.45279	-1.98403
3697.000	1.79453	-1.95589	1.45279	-2.07341
3698.000	1.80441	-1.94793	1.43698	-2.00390
3699.000	1.80243	-2.00553	1.48637	-2.09920
3700.000	1.80441	-2.00354	1.45674	-2.02772
3701.000	1.79848	-2.00355	1.41525	-2.03968
3702.000	1.80046	-2.00355	1.42710	-2.05953
3703.000	1.82218	-2.04125	1.48637	-2.07338
3704.000	1.77873	-1.97775	1.40339	-2.05955
3705.000	1.82021	-1.98565	1.38166	-1.99005
3706.000	1.78071	-2.02541	1.37968	-1.98806
3707.000	1.79848	-1.97971	1.38363	-2.03375
3708.000	1.78663	-2.00356	1.42117	-2.05755
3709.000	1.77676	-2.03336	1.32633	-2.00201
3710.000	1.80638	-1.99957	1.38956	-2.03771
3711.000	1.80638	-1.98964	1.34807	-1.98809
3712.000	1.79651	-1.96979	1.33621	-2.00002
3713.000	1.81428	-1.98764	1.46266	-1.99991
3714.000	1.83206	-2.03529	1.50810	-1.95815
3715.000	1.82021	-1.98366	1.42908	-1.93637
3716.000	1.82218	-1.96380	1.37375	-1.94834
3717.000	1.82416	-2.01146	1.41722	-2.02379
3718.000	1.84193	-1.96179	1.44488	-2.02177
3719.000	1.84786	-1.97172	1.42513	-1.97610
3720.000	1.86366	-1.95581	1.39351	-1.94236
3721.000	1.86563	-1.96971	1.40339	-2.00989
3722.000	1.87551	-2.00545	1.40734	-1.97215
3723.000	1.91105	-1.94185	1.40734	-1.97016
3724.000	1.85971	-1.96972	1.47649	-1.98202
3725.000	1.89525	-1.95975	1.43698	-2.00390
3726.000	1.87946	-1.98558	1.38166	-1.96422
3727.000	1.87946	-1.99750	1.42513	-1.94829
3728.000	1.88735	-1.93394	1.48242	-1.95222
3729.000	1.87353	-1.94786	1.47254	-1.92243
3730.000	1.86168	-1.97170	1.35992	-1.97616
3731.000	1.86563	-1.93992	1.43303	-1.94829
3732.000	1.87353	-1.97367	1.49823	-1.94028
3733.000	1.82613	-1.94592	1.45674	-1.97210
3734.000	1.83403	-1.93995	1.39746	-1.93640
3735.000	1.82218	-1.94593	1.44883	-1.94033
3736.000	1.83601	-1.95981	1.49428	-1.98200
3737.000	1.85576	-1.96972	1.52193	-1.96211
3738.000	1.86168	-1.92006	1.40142	-1.92050
3739.000	1.86168	-1.94390	1.43698	-1.96418
3740.000	1.83996	-1.97768	1.52786	-1.95019
3741.000	1.88933	-1.87832	1.39944	-1.93441
3742.000	1.85773	-1.94589	1.42117	-1.96220
3743.000	1.88341	-1.91209	1.48637	-1.96612
3744.000	1.87551	-1.95580	1.42710	-1.91849
3745.000	1.88735	-1.93195	1.45871	-1.95422
3746.000	1.91105	-1.96172	1.45476	-1.94628
3747.000	1.90908	-1.93987	1.42908	-1.90260
3748.000	1.87748	-1.95182	1.46266	-1.96415
3749.000	1.89920	-1.96967	1.44883	-1.90656
3750.000	1.87156	-1.97566	1.39154	-1.99202
3751.000	1.91303	-1.94185	1.42908	-1.95822
3752.000	1.93870	-2.01729	1.46464	-1.96812
3753.000	1.91698	-1.97958	1.49625	-1.92638
3754.000	1.88933	-1.96968	1.43303	-2.02178
3755.000	1.90118	-2.00740	1.45081	-2.01978
3756.000	1.93475	-1.95970	1.48637	-1.94427
3757.000	1.92685	-1.95971	1.38956	-1.98607
3758.000	1.93475	-1.95176	1.45674	-1.87079
3759.000	1.90908	-1.97959	1.42513	-2.03172
3760.000	1.93080	-1.97758	1.40339	-1.96420
3761.000	1.90710	-1.96172	1.44291	-1.88073
3762.000	1.90315	-1.96768	1.45674	-1.91052
3763.000	1.88341	-1.98558	1.48045	-1.91249
3764.000	1.92093	-2.01135	1.39746	-1.84501
3765.000	1.89723	-2.00145	1.43500	-1.94630
3766.000	1.88735	-2.00543	1.39944	-1.95825
3767.000	1.93672	-1.97162	1.44291	-1.96616
3768.000	1.88341	-1.98558	1.45871	-1.92443
3769.000	1.91500	-1.98356	1.45081	-1.97012
3770.000	1.89130	-1.97763	1.36980	-1.98211
3771.000	1.93278	-1.95176	1.49230	-1.91049
3772.000	1.95252	-1.97358	1.31250	-1.94839
3773.000	1.95252	-1.97557	1.46069	-1.89661
3774.000	1.89723	-1.99152	1.41525	-1.92248
3775.000	1.95450	-1.96762	1.43698	-1.94232
3776.000	1.93672	-1.95771	1.39351	-1.87084
3777.000	1.94067	-1.95771	1.44488	-1.88073
3778.000	1.91105	-1.92001	1.38561	-1.88078
3779.000	1.91698	-1.99547	1.51601	-1.94027
3780.000	1.92093	-1.97958	1.40339	-1.93838
3781.000	1.91895	-1.99745	1.40142	-1.99798
3782.000	1.92685	-1.99347	1.46859	-1.91051
3783.000	1.89130	-2.03323	1.46069	-1.90853
3784.000	1.93278	-1.97559	1.42710	-1.96220
3785.000	1.93870	-1.97757	1.46266	-1.92641
3786.000	1.92093	-1.97362	1.39944	-1.90858
3787.000	1.91105	-2.01136	1.47452	-1.91051
3788.000	1.95252	-2.00933	1.43500	-2.01185
3789.000	1.98412	-2.00929	1.45476	-1.93436
3790.000	1.95845	-2.02322	1.44883	-1.92046
3791.000	1.99597	-1.97750	1.43303	-1.90061
3792.000	1.94462	-1.98948	1.43698	-1.96219
3793.000	1.94265	-2.06097	1.39154	-1.92250
3794.000	1.95647	-2.01727	1.46464	-1.90456
3795.000	1.92093	-2.00341	1.43698	-1.84895
3796.000	1.96042	-1.96762	1.39746	-1.88077
3797.000	1.92685	-2.03319	1.34609	-1.90863
3798.000	1.90908	-2.00541	1.43303	-1.95027
3799.000	1.92883	-1.98553	1.43698	-1.88670
3800.000	1.95055	-1.97954	1.41525	-1.87678
3801.000	1.92685	-2.01135	1.45674	-1.90456
3802.000	1.89920	-1.99549	1.45476	-1.94430
3803.000	1.93475	-1.97956	1.41327	-1.91652
3804.000	1.92883	-1.97361	1.48835	-1.92241
3805.000	1.93870	-1.97757	1.39154	-1.88276
3806.000	1.89130	-2.01337	1.39154	-1.89071
3807.000	1.89130	-2.03125	1.46859	-1.92243
3808.000	1.94067	-1.92990	1.36585	-1.87285
3809.000	1.87156	-1.99552	1.45674	-1.90456
3810.000	1.93870	-2.02722	1.38561	-1.84899
3811.000	1.94857	-2.01132	1.44686	-1.92841
3812.000	1.94857	-1.97955	1.48045	-1.89064
3813.000	1.93870	-2.02523	1.42710	-1.86088
3814.000	1.95450	-1.99741	1.46464	-1.93237
3815.000	1.97029	-1.95767	1.47649	-1.87872
3816.000	1.93672	-1.95970	1.37375	-1.89470
3817.000	1.96635	-1.99740	1.49823	-1.92837
3818.000	1.96240	-1.98747	1.44686	-1.87676
3819.000	1.94067	-1.98551	1.39549	-1.83905
3820.000	1.94265	-1.96565	1.39944	-1.86686
3821.000	1.97819	-1.99143	1.36585	-1.89073
3822.000	1.97227	-1.99143	1.42315	-1.92048
3823.000	1.95450	-1.98152	1.41327	-1.86685
3824.000	1.96240	-1.99144	1.43303	-1.90856
3825.000	1.95450	-2.04110	1.42710	-1.83704
3826.000	1.97424	-1.97951	1.38363	-1.90065
3827.000	1.98609	-1.95567	1.33621	-1.88479
3828.000	2.00781	-1.96955	1.33621	-1.89075
3829.000	1.96832	-1.99144	1.48242	-1.94228
3830.000	1.93870	-1.95573	1.45279	-1.86881
3831.000	1.97029	-1.96363	1.42117	-1.91254
3832.000	1.91895	-2.01533	1.46069	-1.93038
3833.000	1.94067	-1.96962	1.46859	-1.93634
3834.000	1.90710	-1.98357	1.41525	-1.92248
3835.000	1.94265	-1.99941	1.40537	-1.88673
3836.000	1.93672	-1.97360	1.42710	-1.95028
3837.000	1.91303	-1.99547	1.39549	-1.90263
3838.000	1.94462	-1.96962	1.45081	-1.97608
3839.000	1.93080	-1.99744	1.43500	-1.91650
3840.000	1.93475	-1.95573	1.44093	-1.91252
3841.000	1.97227	-1.98945	1.34412	-1.88479
3842.000	1.95450	-2.00138	1.42513	-1.91452
3843.000	1.95055	-1.95968	1.46662	-1.87078
3844.000	1.94265	-1.99345	1.43698	-1.92047
3845.000	1.93278	-1.97361	1.44093	-1.92246
3846.000	1.93080	-1.99943	1.49230	-1.85884
3847.000	1.93475	-1.96963	1.42908	-1.97014
3848.000	1.91303	-1.99547	1.43698	-1.89067
3849.000	1.94265	-2.00537	1.43105	-1.93041
3850.000	1.91500	-1.99944	1.35004	-1.88081
3851.000	1.94857	-1.98947	1.36783	-1.86490
3852.000	1.95450	-2.01330	1.46662	-1.89065
3853.000	1.96437	-1.99144	1.43896	-1.89464
3854.000	1.95055	-1.97756	1.46464	-1.88866
3855.000	1.91895	-1.99745	1.52589	-1.93827
3856.000	1.93475	-2.01928	1.46859	-1.91846
3857.000	1.96240	-1.96960	1.51403	-1.89855
3858.000	1.97424	-2.05100	1.44686	-1.92046
3859.000	1.96042	-1.98549	1.41722	-1.91850
3860.000	1.93080	-2.04709	1.41327	-1.91255
3861.000	1.96042	-1.98350	1.41920	-1.90062
3862.000	1.96832	-2.04307	1.44488	-1.84299
3863.000	1.98412	-1.97553	1.48637	-1.91050
3864.000	1.98807	-2.01723	1.44686	-1.86086
3865.000	1.92883	-2.03120	1.37968	-1.87880
3866.000	1.92883	-2.02326	1.39944	-1.88872
3867.000	1.96437	-2.02719	1.42710	-1.89267
3868.000	1.95055	-2.01926	1.45674	-1.92443
3869.000	1.97029	-2.04505	1.45476	-1.91251
3870.000	1.94265	-2.03118	1.46266	-1.94628
3871.000	1.93475	-2.00935	1.54367	-1.91045
3872.000	1.97029	-2.04108	1.47057	-1.89660
3873.000	1.95252	-1.98748	1.48637	-1.87474
3874.000	1.94857	-1.97756	1.40932	-1.86686
3875.000	1.98412	-2.02716	1.47452	-1.86283
3876.000	1.92093	-2.02922	1.41920	-1.91453
3877.000	1.97029	-2.01328	1.45279	-1.94827
3878.000	1.97227	-1.97753	1.45081	-1.92642
3879.000	1.99597	-2.00332	1.44291	-1.89464
3880.000	1.95450	-2.05301	1.46266	-1.91052
3881.000	1.96042	-2.01528	1.46859	-1.88469
3882.000	1.99399	-2.05098	1.45871	-1.84695
3883.000	1.97424	-2.01129	1.47254	-1.89263
3884.000	2.01571	-1.99535	1.46266	-1.92045
3885.000	2.00584	-2.01919	1.44686	-1.86881
3886.000	2.02558	-2.07080	1.42117	-1.92049
3887.000	2.00386	-1.99934	1.43303	-1.88869
3888.000	1.98807	-2.06886	1.43105	-1.89862
3889.000	2.00781	-2.03110	1.43105	-1.89862
3890.000	1.97227	-2.03313	1.42908	-1.82512
3891.000	2.01374	-1.99734	1.39154	-1.84700
3892.000	2.00584	-2.02714	1.42908	-1.84697
3893.000	2.05520	-2.01715	1.47847	-1.86481
3894.000	2.00386	-2.02912	1.41525	-1.85890
3895.000	2.03546	-2.03901	1.45279	-1.84099
3896.000	2.03151	-2.03108	1.43303	-1.86286
3897.000	1.98214	-2.03709	1.37375	-1.90066
3898.000	1.99004	-2.03113	1.45476	-1.95621
3899.000	2.00979	-2.04897	1.40142	-1.98804
3900.000	1.99597	-2.01921	1.50415	-1.90850
3901.000	2.00189	-2.03111	1.42117	-1.94035
3902.000	1.99004	-2.03113	1.41722	-1.88870
3903.000	2.01571	-2.01719	1.41920	-1.92049
3904.000	2.04533	-1.98936	1.39944	-1.91057
3905.000	2.02558	-2.01718	1.47254	-1.83303
3906.000	1.99399	-2.01126	1.50415	-1.92637
3907.000	2.01374	-2.00925	1.42710	-1.91253
3908.000	2.04730	-2.05885	1.48045	-1.87276
3909.000	2.00979	-2.03706	1.47649	-1.94229
3910.000	1.99399	-2.03509	1.49428	-1.94625
3911.000	1.96042	-2.04109	1.49230	-1.95618
3912.000	1.99004	-2.07084	1.51601	-1.91643
3913.000	1.98807	-2.05099	1.42117	-1.85493
3914.000	1.96832	-2.08278	1.50810	-1.90849
3915.000	2.04335	-2.04695	1.36980	-1.89271
3916.000	2.01571	-2.00925	1.40734	-1.87083
3917.000	2.00189	-2.03508	1.51206	-1.93233
3918.000	1.99794	-2.05693	1.49428	-1.91049
3919.000	2.02163	-2.06087	1.37968	-1.86291
3920.000	2.01571	-2.07478	1.49032	-1.92043
3921.000	2.00584	-2.04501	1.51403	-1.91246
3922.000	2.00386	-2.08274	1.50415	-1.91644
3923.000	1.98214	-2.06688	1.49625	-1.96015
3924.000	2.01769	-2.01719	1.46662	-1.87674
3925.000	1.97424	-2.01129	1.43105	-1.89862
3926.000	1.98017	-2.06688	1.49823	-1.88466
3927.000	1.94660	-2.02522	1.47057	-1.92243
3928.000	1.98807	-2.00929	1.49625	-1.87870
3929.000	2.00584	-2.06884	1.47452	-1.94229
3930.000	2.00781	-2.05890	1.51996	-1.89060
3931.000	2.00584	-2.04699	1.40142	-1.88474
3932.000	2.00781	-2.01919	1.45081	-1.85689
3933.000	1.93672	-2.00736	1.47057	-1.90654
3934.000	1.97029	-2.01328	1.41722	-1.87281
3935.000	1.99202	-2.03311	1.50218	-1.87870
3936.000	1.97227	-2.02718	1.38166	-1.90065
3937.000	2.01769	-2.00726	1.42908	-1.88671
3938.000	1.98412	-2.01922	1.42315	-1.85492
3939.000	2.01769	-2.04301	1.48440	-1.91249
3940.000	1.99597	-1.98346	1.42315	-1.90856
3941.000	1.98807	-1.98744	1.43698	-1.87279
3942.000	2.03546	-2.04696	1.41722	-1.87480
3943.000	2.00386	-2.00331	1.43500	-1.88074
3944.000	1.99794	-1.98147	1.47649	-1.89461
3945.000	2.05718	-1.98934	1.43303	-1.86485
3946.000	2.00386	-1.99537	1.45081	-1.91053
3947.000	2.03546	-1.99731	1.46464	-1.86681
3948.000	2.03546	-1.97746	1.50218	-1.91843
3949.000	2.05520	-2.00126	1.50020	-1.82109
3950.000	2.05718	-1.98736	1.49230	-1.90652
3951.000	2.02953	-1.99931	1.44686	-1.81914
3952.000	2.05520	-1.99729	1.47649	-1.88071
3953.000	2.06705	-2.00919	1.50415	-1.90850
3954.000	2.09074	-2.02306	1.50613	-1.88068
3955.000	2.08679	-2.01711	1.50020	-1.89261
3956.000	2.07297	-2.02507	1.48835	-1.87871
3957.000	2.06507	-2.01713	1.45476	-1.84298
3958.000	2.03941	-1.99532	1.50613	-1.91247
3959.000	2.01176	-1.98344	1.42315	-1.89863
3960.000	1.99597	-1.99140	1.41722	-1.92248
3961.000	1.91698	-1.99348	1.33226	-1.98611
3962.000	1.74318	-2.00361	1.15046	-1.99420
3963.000	1.51601	-2.08924	1.02003	-2.03600
3964.000	1.33226	-2.08742	0.79273	-2.08580
3965.000	0.97457	-2.15919	0.48831	-2.32628
3966.000	0.57924	-2.22097	0.24712	-2.43160
3967.000	0.20956	-2.35018	-0.13444	-2.55671
3968.000	-0.17200	-2.50707	-0.49622	-2.75116
3969.000	-0.52982	-2.72336	-0.90934	-2.95728
3970.000	-0.94690	-2.94931	-1.35597	-3.12739
3971.000	-1.36585	-3.07582	-1.59503	-3.30943
3972.000	-1.71553	-3.35481	-1.95450	-3.50692
3973.000	-1.98412	-3.55043	-2.16774	-3.56586
3974.000	-2.13418	-3.71246	-2.39276	-3.72170
3975.000	-2.29210	-3.86051	-2.59798	-3.88337
3976.000	-2.44012	-4.00451	-2.70845	-3.97401
3977.000	-2.48354	-4.08349	-2.78538	-4.02516
3978.000	-2.42631	-4.20428	-2.77946	-3.99355
3979.000	-2.33750	-4.21641	-2.75974	-4.03316
3980.000	-2.20722	-4.24249	-2.62757	-3.99800
3981.000	-1.98807	-4.17782	-2.49932	-3.96280
3982.000	-1.73133	-4.14085	-2.24670	-3.88042
3983.000	-1.48440	-4.06220	-2.14010	-3.76194
3984.000	-1.23939	-3.97553	-1.90908	-3.60406
3985.000	-0.95480	-3.81751	-1.70762	-3.51136
3986.000	-0.82238	-3.70871	-1.59700	-3.43626
3987.000	-0.71168	-3.55822	-1.41920	-3.38303
3988.000	-0.57331	-3.49490	-1.35992	-3.32762
3989.000	-0.49424	-3.43350	-1.29076	-3.33168
3990.000	-0.41714	-3.33243	-1.32238	-3.26226
3991.000	-0.41912	-3.26304	-1.26112	-3.20285
3992.000	-0.46854	-3.23129	-1.21963	-3.23463
3993.000	-0.48633	-3.21541	-1.30460	-3.19289
3994.000	-0.56145	-3.22727	-1.32040	-3.23252
3995.000	-0.61087	-3.20741	-1.40734	-3.24033
3996.000	-0.67610	-3.25100	-1.44291	-3.29182
3997.000	-0.78087	-3.30049	-1.46662	-3.25809
3998.000	-0.80656	-3.33021	-1.45674	-3.30172
3999.000	-0.87574	-3.38566	-1.61281	-3.33319
4000.000	-0.95283	-3.40541	-1.55157	-3.37292
4001.000	-1.01212	-3.43706	-1.67800	-3.33308
4002.000	-1.08722	-3.51030	-1.74120	-3.35873
4003.000	-1.09315	-3.50039	-1.77478	-3.43595
4004.000	-1.18603	-3.55774	-1.76886	-3.44785
4005.000	-1.18603	-3.57161	-1.76886	-3.48945
4006.000	-1.24334	-3.56757	-1.86563	-3.50710
4007.000	-1.29076	-3.59326	-1.86958	-3.58038
4008.000	-1.30460	-3.61305	-1.85971	-3.48532
4009.000	-1.30064	-3.56947	-2.01571	-3.54244
4010.000	-1.32436	-3.60510	-2.01176	-3.57810
4011.000	-1.33621	-3.58725	-2.03348	-3.50477
4012.000	-1.35992	-3.61495	-1.96240	-3.58414
4013.000	-1.35795	-3.60109	-2.00189	-3.57218
4014.000	-1.33226	-3.64074	-2.03151	-3.61172
4015.000	-1.29669	-3.62495	-2.00979	-3.56424
4016.000	-1.32436	-3.61302	-2.08877	-3.57198
4017.000	-1.28286	-3.61308	-1.97424	-3.59600
4018.000	-1.28484	-3.58931	-1.91105	-3.60604
4019.000	-1.25717	-3.62698	-1.89920	-3.53872
4020.000	-1.21172	-3.67261	-1.96042	-3.54454
4021.000	-1.26112	-3.63886	-1.99794	-3.59397
4022.000	-1.22753	-3.66862	-1.99991	-3.55040
4023.000	-1.19196	-3.62113	-2.02361	-3.56223
4024.000	-1.21963	-3.69042	-1.94462	-3.63369
4025.000	-1.22555	-3.65674	-2.00781	-3.52265
4026.000	-1.20777	-3.66667	-1.92290	-3.57631
4027.000	-1.21963	-3.68448	-1.94265	-3.54259
4028.000	-1.21370	-3.64685	-1.94660	-3.46137
4029.000	-1.19394	-3.62311	-1.91105	-3.52681
4030.000	-1.21370	-3.59337	-1.93278	-3.46140
4031.000	-1.20184	-3.59338	-1.95055	-3.49504
4032.000	-1.19789	-3.61320	-1.87946	-3.53282
4033.000	-1.21370	-3.63299	-1.89723	-3.53675
4034.000	-1.20184	-3.54979	-1.92488	-3.52282
4035.000	-1.20975	-3.55176	-1.85773	-3.47542
4036.000	-1.23939	-3.56559	-1.93672	-3.51289
4037.000	-1.22753	-3.57353	-1.86958	-3.46945
4038.000	-1.20382	-3.54583	-1.90118	-3.47533
4039.000	-1.18998	-3.51810	-1.88933	-3.48328
4040.000	-1.18603	-3.54783	-1.86761	-3.47342
4041.000	-1.18208	-3.54189	-1.86366	-3.47144
4042.000	-1.19196	-3.58547	-1.89130	-3.46148
4043.000	-1.18801	-3.53594	-1.90513	-3.49909
4044.000	-1.16034	-3.54985	-1.93278	-3.47923
4045.000	-1.23346	-3.54975	-1.87551	-3.51104
4046.000	-1.19394	-3.52603	-1.86563	-3.46351
4047.000	-1.19196	-3.53990	-1.93278	-3.50102
4048.000	-1.18208	-3.54784	-1.86761	-3.49917
4049.000	-1.22160	-3.53986	-1.87748	-3.52490
4050.000	-1.19394	-3.55773	-1.83403	-3.42791
4051.000	-1.20579	-3.51016	-1.89525	-3.47732
4052.000	-1.21963	-3.54184	-1.88143	-3.51499
4053.000	-1.23741	-3.56758	-1.95055	-3.51485
4054.000	-1.22951	-3.51409	-1.96042	-3.46134
4055.000	-1.22555	-3.56759	-1.90710	-3.52286
4056.000	-1.20579	-3.54582	-1.93278	-3.50102
4057.000	-1.22753	-3.57552	-1.89723	-3.51496
4058.000	-1.23346	-3.57353	-1.90908	-3.49909
4059.000	-1.24334	-3.57946	-1.90118	-3.52287
4060.000	-1.18998	-3.59340	-1.93870	-3.52874
4061.000	-1.21370	-3.58940	-1.87156	-3.51303
4062.000	-1.17813	-3.55180	-1.92290	-3.48123
4063.000	-1.19196	-3.56764	-1.89130	-3.46743
4064.000	-1.17220	-3.54785	-1.89525	-3.46544
4065.000	-1.18010	-3.53001	-1.97029	-3.53857
4066.000	-1.19987	-3.55970	-1.93475	-3.47328
4067.000	-1.22160	-3.57156	-1.92093	-3.50104
4068.000	-1.24136	-3.53983	-1.88933	-3.44366
4069.000	-1.19394	-3.52603	-1.91895	-3.50105
4070.000	-1.19987	-3.56366	-1.89525	-3.50506
4071.000	-1.22160	-3.53590	-1.89130	-3.47733
4072.000	-1.15837	-3.56570	-1.89328	-3.41987
4073.000	-1.20777	-3.62111	-1.89920	-3.40797
4074.000	-1.21765	-3.55175	-1.87353	-3.50708
4075.000	-1.21765	-3.60128	-1.89525	-3.57834
4076.000	-1.18998	-3.60132	-1.91105	-3.49710
4077.000	-1.21370	-3.55572	-1.95647	-3.48908
4078.000	-1.16429	-3.59343	-1.91895	-3.45746
4079.000	-1.21765	-3.60128	-1.87156	-3.54868
4080.000	-1.18998	-3.62509	-1.95055	-3.46929
4081.000	-1.17813	-3.63898	-1.87946	-3.46943
4082.000	-1.18208	-3.58746	-1.88735	-3.53875
4083.000	-1.23346	-3.65277	-1.88538	-3.48725
4084.000	-1.21765	-3.62704	-1.94857	-3.44948
4085.000	-1.21765	-3.62902	-1.90513	-3.53277
4086.000	-1.18801	-3.59142	-1.88735	-3.45753
4087.000	-1.18801	-3.60925	-1.82613	-3.41406
4088.000	-1.23741	-3.59333	-1.89328	-3.40006
4089.000	-1.18208	-3.60529	-1.93080	-3.40593
4090.000	-1.16627	-3.59739	-1.94067	-3.38808
4091.000	-1.18208	-3.63105	-1.86958	-3.46747
4092.000	-1.22358	-3.59335	-1.85181	-3.43977
4093.000	-1.14256	-3.58553	-1.95252	-3.42966
4094.000	-1.17418	-3.62313	-1.86366	-3.47144
4095.000	-1.18998	-3.59538	-1.91105	-3.44956
4096.000	-1.24334	-3.64285	-1.89525	-3.43572
4097.000	-1.20184	-3.63895	-1.85378	-3.44571
4098.000	-1.20382	-3.63696	-1.84786	-3.47147
4099.000	-1.20382	-3.66073	-1.89328	-3.52091
4100.000	-1.18998	-3.67858	-1.90118	-3.43769
4101.000	-1.20184	-3.67460	-1.85181	-3.44769
4102.000	-1.18603	-3.67462	-1.89328	-3.36439
4103.000	-1.19987	-3.65876	-1.86761	-3.45360
4104.000	-1.19196	-3.68650	-1.90315	-3.37230
4105.000	-1.21172	-3.70232	-1.89525	-3.42779
4106.000	-1.18406	-3.71622	-1.90513	-3.39607
4107.000	-1.18998	-3.66273	-1.85576	-3.47344
4108.000	-1.18801	-3.67858	-1.84983	-3.40014
4109.000	-1.14848	-3.69448	-1.84588	-3.41798
4110.000	-1.15639	-3.72022	-1.88538	-3.43574
4111.000	-1.20579	-3.74392	-1.86958	-3.44369
4112.000	-1.18801	-3.69641	-1.86563	-3.42983
4113.000	-1.20579	-3.70827	-1.78663	-3.39234
4114.000	-1.14848	-3.71231	-1.83996	-3.44177
4115.000	-1.15639	-3.74597	-1.86958	-3.42388
4116.000	-1.18998	-3.73008	-1.80046	-3.44383
4117.000	-1.19394	-3.73403	-1.79453	-3.44186
4118.000	-1.17418	-3.67860	-1.79651	-3.42798
4119.000	-1.19394	-3.71027	-1.83798	-3.44376
4120.000	-1.18406	-3.72811	-1.82811	-3.43387
4121.000	-1.18406	-3.71424	-1.80836	-3.45570
4122.000	-1.21370	-3.71816	-1.84588	-3.46157
4123.000	-1.19789	-3.71422	-1.85181	-3.47543
4124.000	-1.19196	-3.75186	-1.86761	-3.50115
4125.000	-1.23148	-3.66862	-1.89723	-3.48524
4126.000	-1.19196	-3.70235	-1.80046	-3.50326
4127.000	-1.18603	-3.67858	-1.78268	-3.47556
4128.000	-1.16429	-3.66277	-1.81033	-3.43588
4129.000	-1.15244	-3.66476	-1.82811	-3.47745
4130.000	-1.17022	-3.68455	-1.86168	-3.40408
4131.000	-1.16627	-3.68653	-1.85181	-3.46948
4132.000	-1.18406	-3.69443	-1.83206	-3.45764
4133.000	-1.16825	-3.73605	-1.81626	-3.50719
4134.000	-1.19789	-3.67857	-1.83996	-3.48337
4135.000	-1.18406	-3.71226	-1.80836	-3.43589
4136.000	-1.16232	-3.71229	-1.79651	-3.46167
4137.000	-1.19196	-3.69442	-1.75305	-3.44193
4138.000	-1.14848	-3.70240	-1.77083	-3.44785
4139.000	-1.14256	-3.71231	-1.80441	-3.49137
4140.000	-1.19789	-3.73007	-1.85971	-3.37437
4141.000	-1.19394	-3.71225	-1.85576	-3.45561
4142.000	-1.21765	-3.73004	-1.83008	-3.41603
4143.000	-1.13860	-3.71628	-1.75305	-3.45977
4144.000	-1.20184	-3.70233	-1.70762	-3.45192
4145.000	-1.18010	-3.67661	-1.79058	-3.45771
4146.000	-1.16825	-3.74595	-1.79651	-3.40024
4147.000	-1.21567	-3.72608	-1.73133	-3.42414
4148.000	-1.19591	-3.71621	-1.81823	-3.40813
4149.000	-1.21567	-3.68845	-1.82021	-3.45370
4150.000	-1.19591	-3.68649	-1.77281	-3.42605
4151.000	-1.13860	-3.66082	-1.74120	-3.46969
4152.000	-1.19196	-3.64886	-1.75898	-3.43994
4153.000	-1.16825	-3.72020	-1.80638	-3.41410
4154.000	-1.18010	-3.70632	-1.79256	-3.46960
4155.000	-1.18406	-3.68453	-1.76095	-3.46966
4156.000	-1.19591	-3.70432	-1.78663	-3.49734
4157.000	-1.18998	-3.73206	-1.84391	-3.43582
4158.000	-1.16627	-3.73209	-1.77873	-3.44783
4159.000	-1.20184	-3.72016	-1.77478	-3.48746
4160.000	-1.17022	-3.69643	-1.81428	-3.43588
4161.000	-1.19394	-3.72017	-1.77281	-3.47954
4162.000	-1.20382	-3.70827	-1.77083	-3.43992
4163.000	-1.14848	-3.73607	-1.77873	-3.45972
4164.000	-1.21370	-3.72410	-1.78663	-3.47357
4165.000	-1.16034	-3.72021	-1.76095	-3.43399
4166.000	-1.21370	-3.73203	-1.76095	-3.43003
4167.000	-1.15639	-3.76181	-1.79256	-3.43988
4168.000	-1.16825	-3.69445	-1.75700	-3.45778
4169.000	-1.19196	-3.77167	-1.84983	-3.42986
4170.000	-1.16232	-3.78161	-1.84588	-3.42789
4171.000	-1.21172	-3.73401	-1.78071	-3.40027
4172.000	-1.21963	-3.72212	-1.76293	-3.43993
4173.000	-1.18406	-3.73603	-1.75305	-3.40231
4174.000	-1.22753	-3.76568	-1.78071	-3.42999
4175.000	-1.20777	-3.74788	-1.66219	-3.38067
4176.000	-1.17220	-3.72614	-1.81231	-3.42597
4177.000	-1.18801	-3.73404	-1.82811	-3.44377
4178.000	-1.18406	-3.76970	-1.79256	-3.46167
4179.000	-1.22753	-3.75775	-1.78466	-3.42801
4180.000	-1.19987	-3.75779	-1.73725	-3.50140
4181.000	-1.23741	-3.80923	-1.81231	-3.45371
4182.000	-1.22753	-3.73003	-1.80243	-3.45175
4183.000	-1.18406	-3.77960	-1.78663	-3.43593
4184.000	-1.20777	-3.79145	-1.72935	-3.54103
4185.000	-1.23741	-3.75576	-1.73725	-3.45979
4186.000	-1.24729	-3.79337	-1.71355	-3.46974
4187.000	-1.20975	-3.75778	-1.78466	-3.46961
4188.000	-1.19789	-3.78948	-1.72343	-3.45189
4189.000	-1.21963	-3.79341	-1.77478	-3.45180
4190.000	-1.23741	-3.80329	-1.70170	-3.44599
4191.000	-1.23148	-3.82706	-1.78861	-3.49338
4192.000	-1.24532	-3.81912	-1.75108	-3.45581
4193.000	-1.24532	-3.82110	-1.66812	-3.48964
4194.000	-1.25915	-3.82504	-1.73923	-3.45781
4195.000	-1.23939	-3.80922	-1.74120	-3.38251
4196.000	-1.19196	-3.75780	-1.81823	-3.41605
4197.000	-1.21370	-3.82906	-1.76293	-3.45182
4198.000	-1.19591	-3.79146	-1.74515	-3.41223
4199.000	-1.21172	-3.81124	-1.76293	-3.44192
4200.000	-1.21765	-3.81916	-1.74910	-3.49543
4201.000	-1.22753	-3.79142	-1.72540	-3.41821
4202.000	-1.23741	-3.83299	-1.74515	-3.47365
4203.000	-1.19394	-3.73205	-1.77281	-3.40821
4204.000	-1.22358	-3.81321	-1.81033	-3.46164
4205.000	-1.20184	-3.82116	-1.75305	-3.45382
4206.000	-1.23148	-3.76567	-1.82021	-3.40813
4207.000	-1.21567	-3.79540	-1.74910	-3.43600
4208.000	-1.22358	-3.80925	-1.80836	-3.42004
4209.000	-1.24136	-3.83100	-1.73528	-3.45187
4210.000	-1.21963	-3.81123	-1.68590	-3.44800
4211.000	-1.23148	-3.82112	-1.74713	-3.48157
4212.000	-1.22951	-3.85082	-1.81428	-3.46361
4213.000	-1.22160	-3.82509	-1.82021	-3.39822
4214.000	-1.21765	-3.84292	-1.74120	-3.42016
4215.000	-1.18998	-3.81127	-1.74120	-3.41818
4216.000	-1.22358	-3.83499	-1.70565	-3.39843
4217.000	-1.22753	-3.77162	-1.74318	-3.44393
4218.000	-1.19394	-3.83503	-1.75305	-3.45778
4219.000	-1.20382	-3.81918	-1.69972	-3.36277
4220.000	-1.18010	-3.81327	-1.78466	-3.42008
4221.000	-1.20975	-3.78550	-1.70960	-3.41625
4222.000	-1.19196	-3.76770	-1.72540	-3.37461
4223.000	-1.18801	-3.80930	-1.67602	-3.42820
4224.000	-1.19196	-3.78751	-1.70367	-3.46382
4225.000	-1.20777	-3.79937	-1.70762	-3.42815
4226.000	-1.22160	-3.77559	-1.74120	-3.48554
4227.000	-1.19987	-3.78354	-1.73330	-3.46575
4228.000	-1.24136	-3.83298	-1.69577	-3.44600
4229.000	-1.19196	-3.81721	-1.75108	-3.42807
4230.000	-1.27298	-3.83690	-1.72145	-3.48162
4231.000	-1.23346	-3.80527	-1.72145	-3.43407
4232.000	-1.22753	-3.78746	-1.76293	-3.38247
4233.000	-1.22555	-3.81717	-1.69577	-3.41232
4234.000	-1.22555	-3.82311	-1.68392	-3.39847
4235.000	-1.18998	-3.82316	-1.69182	-3.45988
4236.000	-1.18801	-3.79345	-1.78268	-3.44386
4237.000	-1.17022	-3.82714	-1.65034	-3.43419
4238.000	-1.22951	-3.80132	-1.69775	-3.45788
4239.000	-1.20184	-3.76967	-1.70170	-3.43410
4240.000	-1.19394	-3.78553	-1.72343	-3.44793
4241.000	-1.23544	-3.75576	-1.74120	-3.45186
4242.000	-1.18603	-3.77167	-1.74910	-3.45185
4243.000	-1.21370	-3.81322	-1.67404	-3.44406
4244.000	-1.20184	-3.79344	-1.72738	-3.45189
4245.000	-1.20777	-3.77957	-1.64244	-3.44213
4246.000	-1.19987	-3.79740	-1.69775	-3.46581
4247.000	-1.21370	-3.80530	-1.67207	-3.47576
4248.000	-1.18208	-3.81723	-1.68392	-3.55300
4249.000	-1.19591	-3.80335	-1.68392	-3.48367
4250.000	-1.21765	-3.83302	-1.74120	-3.45384
4251.000	-1.22358	-3.83697	-1.76293	-3.44984
4252.000	-1.18208	-3.82713	-1.78663	-3.44782
4253.000	-1.17813	-3.79347	-1.76688	-3.40822
4254.000	-1.23148	-3.79339	-1.75898	-3.49938
4255.000	-1.18208	-3.81921	-1.72738	-3.45585
4256.000	-1.14848	-3.83311	-1.75898	-3.49145
4257.000	-1.21567	-3.85282	-1.70565	-3.45589
4258.000	-1.23148	-3.86468	-1.71948	-3.55294
4259.000	-1.23741	-3.83695	-1.69182	-3.48563
4260.000	-1.19394	-3.87859	-1.79058	-3.41413
4261.000	-1.22555	-3.80726	-1.70367	-3.48561
4262.000	-1.20579	-3.80333	-1.73330	-3.48754
4263.000	-1.17220	-3.78357	-1.72540	-3.48557
4264.000	-1.21567	-3.83896	-1.74120	-3.46771
4265.000	-1.24927	-3.87257	-1.74713	-3.48355
4266.000	-1.22555	-3.80330	-1.69972	-3.50147
4267.000	-1.17418	-3.79941	-1.69775	-3.54506
4268.000	-1.22951	-3.81320	-1.77083	-3.48153
4269.000	-1.22358	-3.85677	-1.74318	-3.48356
4270.000	-1.20184	-3.86670	-1.72540	-3.45189
4271.000	-1.19987	-3.86670	-1.66614	-3.52728
4272.000	-1.20975	-3.87065	-1.73133	-3.47962
4273.000	-1.19394	-3.83305	-1.71948	-3.44199
4274.000	-1.19987	-3.87660	-1.68787	-3.49357
4275.000	-1.21765	-3.81322	-1.68195	-3.46584
4276.000	-1.23741	-3.82705	-1.67009	-3.48963
4277.000	-1.24334	-3.84684	-1.74910	-3.53506
4278.000	-1.23148	-3.87656	-1.74318	-3.45186
4279.000	-1.24927	-3.86663	-1.71750	-3.41426
4280.000	-1.24532	-3.84882	-1.70762	-3.42815
4281.000	-1.23741	-3.88645	-1.72935	-3.45387
4282.000	-1.24334	-3.87456	-1.73330	-3.47961
4283.000	-1.21370	-3.80728	-1.69775	-3.44203
4284.000	-1.21567	-3.83896	-1.75305	-3.49543
4285.000	-1.20382	-3.83898	-1.72343	-3.47567
4286.000	-1.22358	-3.79143	-1.76095	-3.43994
4287.000	-1.23148	-3.81122	-1.74515	-3.43997
4288.000	-1.18998	-3.83306	-1.72343	-3.43208
4289.000	-1.19591	-3.85285	-1.64046	-3.44213
4290.000	-1.21567	-3.84688	-1.63454	-3.44413
4291.000	-1.16825	-3.81724	-1.69972	-3.41627
4292.000	-1.18998	-3.81325	-1.74120	-3.46177
4293.000	-1.21963	-3.85084	-1.66417	-3.45794
4294.000	-1.20382	-3.85482	-1.67009	-3.49756
4295.000	-1.23544	-3.88447	-1.72145	-3.40236
4296.000	-1.24532	-3.85476	-1.66812	-3.42227
4297.000	-1.18208	-3.84099	-1.79058	-3.45177
4298.000	-1.18998	-3.82316	-1.68985	-3.40836
4299.000	-1.19789	-3.87463	-1.72540	-3.39443
4300.000	-1.19394	-3.84097	-1.74318	-3.44790
4301.000	-1.22358	-3.86667	-1.68195	-3.46782
4302.000	-1.20975	-3.84887	-1.77281	-3.40821
4303.000	-1.18998	-3.93205	-1.72540	-3.44595
4304.000	-1.22358	-3.87063	-1.73528	-3.45385
4305.000	-1.18010	-3.87069	-1.65627	-3.39851
4306.000	-1.21963	-3.85876	-1.74515	-3.44591
4307.000	-1.22951	-3.92803	-1.69577	-3.43807
4308.000	-1.26508	-3.88047	-1.68787	-3.45394
4309.000	-1.23939	-3.88249	-1.71553	-3.45389
4310.000	-1.21370	-3.88054	-1.64639	-3.45203
4311.000	-1.28681	-3.94181	-1.74318	-3.46969
4312.000	-1.28484	-3.90024	-1.67404	-3.41235
4313.000	-1.24136	-3.89238	-1.69972	-3.44401
4314.000	-1.22753	-3.86666	-1.70367	-3.49156
4315.000	-1.28088	-3.92400	-1.72145	-3.38651
4316.000	-1.25717	-3.92601	-1.80441	-3.36654
4317.000	-1.25520	-3.89830	-1.68392	-3.38658
4318.000	-1.20777	-3.93994	-1.68392	-3.40639
4319.000	-1.25520	-3.89830	-1.73133	-3.44990
4320.000	-1.23544	-3.91417	-1.75700	-3.37456
4321.000	-1.25322	-3.92404	-1.74318	-3.34089
4322.000	-1.25717	-3.90622	-1.75898	-3.43202
4323.000	-1.27298	-3.93985	-1.71750	-3.40039
4324.000	-1.22555	-3.92606	-1.69380	-3.50148
4325.000	-1.25915	-3.97352	-1.71553	-3.43011
4326.000	-1.27693	-3.91411	-1.76688	-3.45578
4327.000	-1.26508	-3.88443	-1.74515	-3.43204
4328.000	-1.28286	-3.89430	-1.68590	-3.46187
4329.000	-1.23939	-3.93198	-1.74515	-3.49148
4330.000	-1.27496	-3.88045	-1.70170	-3.47373
4331.000	-1.25322	-3.90622	-1.68195	-3.44801
4332.000	-1.25520	-3.92998	-1.68985	-3.45790
4333.000	-1.25124	-3.90029	-1.67404	-3.48765
4334.000	-1.26903	-3.87452	-1.73528	-3.44197
4335.000	-1.24729	-3.91415	-1.65232	-3.39456
4336.000	-1.19987	-3.86670	-1.67997	-3.47179
4337.000	-1.20777	-3.91025	-1.72540	-3.43208
4338.000	-1.24729	-3.92009	-1.71355	-3.49946
4339.000	-1.22358	-3.91814	-1.67404	-3.53717
4340.000	-1.24729	-3.85278	-1.63651	-3.42034
4341.000	-1.26508	-3.85275	-1.69182	-3.46384
4342.000	-1.30262	-3.86853	-1.73133	-3.43603
4343.000	-1.25520	-3.90820	-1.65627	-3.48966
4344.000	-1.28286	-3.90222	-1.63059	-3.45008
4345.000	-1.24334	-3.88446	-1.74515	-3.44393
4346.000	-1.26310	-3.85275	-1.72343	-3.47765
4347.000	-1.26112	-3.90225	-1.65232	-3.51542
4348.000	-1.26310	-3.88245	-1.66022	-3.49163
4349.000	-1.21765	-3.87064	-1.70367	-3.48759
4350.000	-1.24927	-3.86465	-1.72145	-3.46973
4351.000	-1.21567	-3.91816	-1.76886	-3.47360
4352.000	-1.23346	-3.89041	-1.72145	-3.47567
4353.000	-1.22951	-3.90824	-1.75108	-3.51524
4354.000	-1.22555	-3.89240	-1.64244	-3.50355
4355.000	-1.19196	-3.87265	-1.72145	-3.52322
4356.000	-1.24729	-3.90623	-1.69182	-3.51733
4357.000	-1.20777	-3.88451	-1.72343	-3.52124
4358.000	-1.21370	-3.85282	-1.67997	-3.53122
4359.000	-1.25717	-3.90622	-1.63256	-3.56498
4360.000	-1.24136	-3.87654	-1.67207	-3.53718
4361.000	-1.23544	-3.93198	-1.67009	-3.55501
4362.000	-1.26705	-3.89828	-1.61676	-3.49765
4363.000	-1.27693	-3.90223	-1.68195	-3.52924
4364.000	-1.26112	-3.87849	-1.67404	-3.43019
4365.000	-1.31645	-3.91602	-1.64441	-3.54515
4366.000	-1.33226	-3.91600	-1.65232	-3.42824
4367.000	-1.29472	-3.89824	-1.69972	-3.45788
4368.000	-1.30064	-3.88041	-1.64837	-3.36880
4369.000	-1.15244	-3.84301	-1.44686	-3.26605
4370.000	-1.04177	-3.75403	-1.35992	-3.20868
4371.000	-0.89946	-3.63137	-1.19196	-3.08594
4372.000	-0.60692	-3.54245	-0.99631	-2.92150
4373.000	-0.33213	-3.36221	-0.78087	-2.85420
4374.000	-0.03361	-3.11834	-0.51401	-2.70749
4375.000	0.20956	-2.93779	-0.28073	-2.46336
4376.000	0.52587	-2.74718	-0.01582	-2.32438
4377.000	0.84017	-2.54652	0.18781	-2.07804
4378.000	1.14453	-2.33384	0.47052	-1.74613
4379.000	1.38561	-2.05162	0.87377	-1.47765
4380.000	1.66812	-1.79511	0.98247	-1.26489
4381.000	1.86761	-1.55056	1.17813	-1.09780
4382.000	2.04533	-1.33779	1.30262	-0.87903
4383.000	2.21906	-1.11708	1.52193	-0.70994
4384.000	2.34342	-0.87654	1.63849	-0.60452
4385.000	2.36710	-0.75331	1.61478	-0.44942
4386.000	2.30789	-0.57049	1.70565	-0.40566
4387.000	2.21314	-0.49698	1.59700	-0.29631
4388.000	2.02756	-0.46125	1.54169	-0.33012
4389.000	1.83798	-0.39569	1.28484	-0.29237
4390.000	1.59700	-0.38579	1.21172	-0.30630
4391.000	1.37178	-0.37987	0.93306	-0.31826
4392.000	1.12872	-0.42565	0.73343	-0.31629
4393.000	0.87772	-0.44756	0.57331	-0.35012
4394.000	0.64645	-0.51124	0.25305	-0.47347
4395.000	0.42702	-0.57889	0.08699	-0.45557
4396.000	0.30050	-0.69427	-0.06129	-0.52917
4397.000	0.16804	-0.71019	-0.12850	-0.60874
4398.000	0.06129	-0.80965	-0.17991	-0.59880
4399.000	0.01977	-0.90711	-0.24910	-0.74201
4400.000	0.04547	-0.96677	-0.27480	-0.69626
4401.000	0.01186	-1.11593	-0.21549	-0.74599
4402.000	0.07117	-1.17559	-0.17793	-0.76787
4403.000	0.11664	-1.25115	-0.04943	-0.84346
4404.000	0.26294	-1.34261	0.03954	-0.90512
4405.000	0.38156	-1.37838	0.19770	-0.91506
4406.000	0.46063	-1.45790	0.24119	-0.93892
4407.000	0.59901	-1.50756	0.40133	-0.97272
4408.000	0.68796	-1.52145	0.53575	-0.99259
4409.000	0.77494	-1.54329	0.58122	-1.05622
4410.000	0.87377	-1.51343	0.74133	-1.05419
4411.000	0.97062	-1.50147	0.77296	-0.93089
4412.000	1.02991	-1.42789	0.76505	-1.01243
4413.000	1.07536	-1.40998	0.82040	-1.00844
4414.000	1.11094	-1.36026	0.80656	-0.93685
4415.000	1.12872	-1.29068	0.94097	-0.87119
4416.000	1.14848	-1.24097	0.93109	-0.83539
4417.000	1.14453	-1.16939	0.83621	-0.81752
4418.000	1.11094	-1.11771	0.80854	-0.69421
4419.000	1.15046	-1.05009	0.83028	-0.75586
4420.000	1.08920	-1.05807	0.72750	-0.72207
4421.000	1.05362	-0.99047	0.71564	-0.59278
4422.000	1.03781	-0.93679	0.66029	-0.60672
4423.000	1.00817	-0.91691	0.67215	-0.59478
4424.000	1.02991	-0.91094	0.60296	-0.55103
4425.000	1.01212	-0.91691	0.52784	-0.54109
4426.000	1.04967	-0.90298	0.51203	-0.53711
4427.000	1.03781	-0.89702	0.55552	-0.56098
4428.000	1.03386	-0.86918	0.58517	-0.51721
4429.000	1.00421	-0.89504	0.53180	-0.54109
4430.000	0.99038	-0.89106	0.53971	-0.52716
4431.000	1.01014	-0.87913	0.53378	-0.58087
4432.000	0.99631	-0.90498	0.46656	-0.50529
4433.000	0.99433	-0.91493	0.59308	-0.55699
4434.000	0.96666	-0.90300	0.55157	-0.56496
4435.000	0.98445	-0.94277	0.58715	-0.60871
4436.000	0.94887	-0.89704	0.55750	-0.58485
4437.000	0.90144	-0.90898	0.58517	-0.63855
4438.000	0.91923	-0.96267	0.59308	-0.59678
4439.000	0.93504	-0.96267	0.52784	-0.63657
4440.000	0.92120	-0.92489	0.54168	-0.59678
4441.000	0.93306	-0.98256	0.47645	-0.60872
4442.000	0.93504	-0.93881	0.56343	-0.59877
4443.000	0.92318	-0.94477	0.56738	-0.61468
4444.000	0.89749	-0.95870	0.53378	-0.61071
4445.000	0.88563	-0.97262	0.51005	-0.63458
4446.000	0.90342	-0.96268	0.57133	-0.60076
4447.000	0.85598	-1.02434	0.52982	-0.66044
4448.000	0.90539	-1.00841	0.48633	-0.66442
4449.000	0.89749	-0.99052	0.60692	-0.64054
4450.000	0.90539	-1.03427	0.63855	-0.63655
4451.000	0.93109	-0.96665	0.54761	-0.67834
4452.000	0.92516	-0.98852	0.57331	-0.68032
4453.000	0.91527	-1.02830	0.62471	-0.73004
4454.000	0.91923	-1.02631	0.55157	-0.64253
4455.000	0.94097	-0.99250	0.54564	-0.71812
4456.000	0.97654	-1.00243	0.55947	-0.71811
4457.000	0.94295	-0.98852	0.50017	-0.74000
4458.000	0.94492	-0.99647	0.52191	-0.74597
4459.000	0.97457	-0.91493	0.47645	-0.66641
4460.000	0.95480	-0.96863	0.52982	-0.72011
4461.000	0.95876	-0.94476	0.53971	-0.67635
4462.000	0.92516	-0.98256	0.54564	-0.73204
4463.000	0.92516	-0.95671	0.49819	-0.68630
4464.000	0.96666	-0.95868	0.56540	-0.65844
4465.000	0.95283	-0.95471	0.56540	-0.70220
4466.000	0.91527	-0.95870	0.59308	-0.67435
4467.000	0.93504	-0.91494	0.61285	-0.68429
4468.000	0.95678	-0.92687	0.55947	-0.65844
4469.000	0.95876	-0.90897	0.63262	-0.68031
4470.000	0.94295	-0.92687	0.56738	-0.64850
4471.000	0.94492	-0.95471	0.53378	-0.73602
4472.000	0.95085	-0.92289	0.55157	-0.64850
4473.000	0.95678	-0.93681	0.54366	-0.70817
4474.000	0.97062	-0.94277	0.56145	-0.60076
4475.000	0.93899	-0.93880	0.59506	-0.71015
4476.000	0.91330	-0.91296	0.59901	-0.72209
4477.000	0.95085	-0.91891	0.55552	-0.63457
4478.000	0.94097	-0.93483	0.57529	-0.74397
4479.000	0.97654	-0.95669	0.59308	-0.71612
4480.000	0.93899	-0.91693	0.58122	-0.71413
4481.000	0.90737	-0.89108	0.51203	-0.70221
4482.000	0.97259	-0.92289	0.57529	-0.66441
4483.000	0.93306	-0.89903	0.56738	-0.66640
4484.000	0.95678	-0.93084	0.55552	-0.70021
4485.000	0.94492	-0.93085	0.57133	-0.70021
4486.000	0.87970	-0.89706	0.54564	-0.71414
4487.000	0.88958	-0.93882	0.53773	-0.64452
4488.000	0.88365	-0.95473	0.55157	-0.68828
4489.000	0.89946	-0.92887	0.51401	-0.67237
4490.000	0.90539	-0.91694	0.56145	-0.73204
4491.000	0.90539	-0.92688	0.55947	-0.71016
4492.000	0.89156	-0.91694	0.54366	-0.67038
4493.000	0.90539	-0.93086	0.49622	-0.69425
4494.000	0.88365	-0.87916	0.48831	-0.73602
4495.000	0.88365	-0.90501	0.58715	-0.70419
4496.000	0.86784	-0.92888	0.57727	-0.77182
4497.000	0.84807	-0.97462	0.55354	-0.74994
4498.000	0.88365	-0.91098	0.61285	-0.79170
4499.000	0.88760	-0.93086	0.57529	-0.68231
4500.000	0.88563	-0.93683	0.57727	-0.73402
4501.000	0.89353	-0.92092	0.52982	-0.69027
4502.000	0.89946	-0.91893	0.56145	-0.68828
4503.000	0.87772	-0.91893	0.55552	-0.75193
4504.000	0.90144	-0.90700	0.52587	-0.73005
4505.000	0.86784	-0.95274	0.62075	-0.77778
4506.000	0.85400	-0.90303	0.52982	-0.79967
4507.000	0.89353	-0.94478	0.58913	-0.66441
4508.000	0.87377	-0.92888	0.52389	-0.72011
4509.000	0.91330	-0.92290	0.60692	-0.68430
4510.000	0.90144	-0.92887	0.59703	-0.70021
4511.000	0.90342	-0.90302	0.56540	-0.72010
4512.000	0.84214	-0.92491	0.53773	-0.69226
4513.000	0.87772	-0.92291	0.53971	-0.69823
4514.000	0.87574	-0.92888	0.62273	-0.71612
4515.000	0.87179	-0.92291	0.50017	-0.69226
4516.000	0.85400	-0.91098	0.54564	-0.76784
4517.000	0.89749	-0.91097	0.60494	-0.70021
4518.000	0.92120	-0.89705	0.55750	-0.66441
4519.000	0.89353	-0.90302	0.58517	-0.72806
4520.000	0.88760	-0.93882	0.55552	-0.70220
4521.000	0.87377	-0.96070	0.59308	-0.72209
4522.000	0.84610	-0.92888	0.57924	-0.72209
4523.000	0.90539	-0.91694	0.57133	-0.73204
4524.000	0.85598	-0.90899	0.57133	-0.68828
4525.000	0.86388	-0.94678	0.55157	-0.67237
4526.000	0.87574	-0.93484	0.52191	-0.68629
4527.000	0.84807	-0.91297	0.58913	-0.81159
4528.000	0.85598	-0.92689	0.57529	-0.70220
4529.000	0.90737	-0.94478	0.55157	-0.69425
4530.000	0.89946	-0.90501	0.56936	-0.69226
4531.000	0.87574	-0.92291	0.55552	-0.66640
4532.000	0.88167	-0.92689	0.57331	-0.70817
4533.000	0.86388	-0.93087	0.61680	-0.73601
4534.000	0.88365	-0.90899	0.56540	-0.69027
4535.000	0.88365	-0.90700	0.59901	-0.70021
4536.000	0.88365	-0.92092	0.58715	-0.66839
4537.000	0.87574	-0.93882	0.57529	-0.70021
4538.000	0.88365	-0.90700	0.60494	-0.68231
4539.000	0.82435	-0.94082	0.50412	-0.69425
4540.000	0.87970	-0.91098	0.62273	-0.74396
4541.000	0.86388	-0.94678	0.54761	-0.72011
4542.000	0.84807	-0.91695	0.60296	-0.76386
4543.000	0.88167	-0.89507	0.56936	-0.68828
4544.000	0.87377	-0.93683	0.58122	-0.77579
4545.000	0.85993	-0.95076	0.59506	-0.68231
4546.000	0.85598	-0.89706	0.58122	-0.73005
4547.000	0.84610	-0.91099	0.58913	-0.75192
4548.000	0.85993	-0.92291	0.50017	-0.70022
4549.000	0.85796	-0.90502	0.56343	-0.73403
4550.000	0.88563	-0.91098	0.63657	-0.73203
4551.000	0.88760	-0.92092	0.56738	-0.75789
4552.000	0.85993	-0.92093	0.57133	-0.73601
4553.000	0.86388	-0.90700	0.57133	-0.69623
4554.000	0.90342	-0.92290	0.55947	-0.70817
4555.000	0.87574	-0.93484	0.54959	-0.63656
4556.000	0.85598	-0.91496	0.56343	-0.69623
4557.000	0.85993	-0.93087	0.60889	-0.71811
4558.000	0.84412	-0.95474	0.59506	-0.74795
4559.000	0.91132	-0.95074	0.56540	-0.69027
4560.000	0.85005	-0.90900	0.65436	-0.73998
4561.000	0.83621	-0.92093	0.59901	-0.71612
4562.000	0.86784	-0.93286	0.63262	-0.69225
4563.000	0.86586	-0.92888	0.51203	-0.66442
4564.000	0.84214	-0.92093	0.58122	-0.79369
4565.000	0.84610	-0.89508	0.64250	-0.76186
