time (ms)	lx (deg)	ly (deg)	rx (deg)	ry (deg)
0.000	3.02792	0.78468	3.35706	1.03262
1.000	3.01807	0.79065	3.31174	1.06642
2.000	3.03384	0.79064	3.38464	1.05641
3.000	3.06341	0.76082	3.25460	1.08038
4.000	3.06538	0.77870	3.32947	1.09420
5.000	3.07327	0.79259	3.32356	1.07435
6.000	3.10086	0.77668	3.35509	1.10608
7.000	3.04764	0.76679	3.34327	1.09021
8.000	3.05355	0.78069	3.31371	1.01877
9.000	3.03581	0.78468	3.33538	1.13390
10.000	3.05355	0.78864	3.26248	1.07243
11.000	3.05749	0.72110	3.31765	1.04855
12.000	3.01609	0.75887	3.35115	1.06836
13.000	3.05355	0.75686	3.40040	1.13184
14.000	3.07918	0.76280	3.35115	1.16366
15.000	3.06735	0.82636	3.41813	1.13181
16.000	3.03384	0.72707	3.27824	1.08433
17.000	3.03187	0.70920	3.32553	1.13986
18.000	3.08706	0.75485	3.33933	1.07433
19.000	3.10086	0.76675	3.32356	1.05052
20.000	3.04567	0.75487	3.32159	1.04854
21.000	3.05552	0.74891	3.31174	1.12400
22.000	3.09889	0.79853	3.38464	1.14774
23.000	3.05552	0.75685	3.27430	1.16970
24.000	3.02201	0.76085	3.35115	1.07829
25.000	3.04172	0.72508	3.32356	1.12200
26.000	3.07524	0.76280	3.36494	1.11004
27.000	3.05158	0.75686	3.31765	1.03465
28.000	3.02792	0.74297	3.31371	1.08826
29.000	3.01018	0.74099	3.30583	1.06444
30.000	3.00821	0.75689	3.27824	1.08830
31.000	3.04369	0.72111	3.38070	1.11399
32.000	3.05947	0.76678	3.31962	1.09222
33.000	3.05355	0.79459	3.30583	1.03069
34.000	3.03975	0.72906	3.38070	1.10407
35.000	3.05947	0.75486	3.38464	1.07428
36.000	3.07918	0.77074	3.40828	1.06036
37.000	3.05552	0.79658	3.35903	1.06637
38.000	3.06538	0.76479	3.31765	1.10017
39.000	3.04961	0.75289	3.34524	1.10013
40.000	3.06932	0.78068	3.29992	1.08033
41.000	3.05355	0.77672	3.27824	1.09822
42.000	3.02004	0.77476	3.41813	1.11196
43.000	3.05355	0.73501	3.36494	1.07430
44.000	3.02398	0.72311	3.28810	1.10417
45.000	3.03581	0.76680	3.30583	1.12599
46.000	3.06538	0.76678	3.32553	1.00684
47.000	3.04764	0.76679	3.32750	1.15376
48.000	3.01807	0.73106	3.36100	1.08026
49.000	3.09101	0.75087	3.35509	1.04056
50.000	3.01412	0.72510	3.32947	1.09023
51.000	3.03187	0.78865	3.36691	1.11798
52.000	3.07918	0.74691	3.38070	1.09414
53.000	3.04764	0.76282	3.38661	1.08421
54.000	3.05552	0.79658	3.34524	1.06241
55.000	3.08706	0.75683	3.37282	1.10209
56.000	3.06735	0.74493	3.36100	1.07034
57.000	3.06932	0.74294	3.34327	1.11205
58.000	3.10875	0.74887	3.43389	1.13577
59.000	3.01412	0.76086	3.37085	1.09216
60.000	3.07721	0.75684	3.42995	1.15761
61.000	3.09889	0.78066	3.36297	1.12195
62.000	3.05749	0.81644	3.42995	1.08217
63.000	3.00624	0.78867	3.34327	1.09021
64.000	2.95695	0.77281	3.35115	1.16167
65.000	2.79721	0.75703	3.25657	1.09428
66.000	2.65519	0.69353	3.08115	0.97332
67.000	2.47959	0.66382	2.90962	0.95560
68.000	2.25460	0.55659	2.72818	0.91800
69.000	2.01966	0.44137	2.51511	0.70355
70.000	1.67602	0.22670	2.22696	0.60630
71.000	1.32040	0.06166	1.99399	0.34992
72.000	1.00619	-0.08752	1.69775	0.35197
73.000	0.62866	-0.30038	1.33621	0.08353
74.000	0.30050	-0.49336	1.10698	0.00995
75.000	-0.01977	-0.62864	0.80261	-0.18301
76.000	-0.22538	-0.72212	0.53378	-0.31232
77.000	-0.45470	-0.85537	0.23131	-0.43965
78.000	-0.57727	-1.01048	0.14827	-0.51525
79.000	-0.68796	-1.04029	0.00198	-0.62466
80.000	-0.73540	-1.07408	-0.02175	-0.67041
81.000	-0.68994	-1.13176	-0.10280	-0.66245
82.000	-0.59901	-1.11985	-0.05140	-0.59880
83.000	-0.48435	-1.09800	0.04349	-0.59482
84.000	-0.34597	-1.01847	0.11071	-0.55106
85.000	-0.19375	-0.97671	0.24515	-0.49933
86.000	-0.08699	-0.94887	0.31829	-0.32626
87.000	0.10478	-0.83351	0.47842	-0.30437
88.000	0.30248	-0.76985	0.51994	-0.12135
89.000	0.42900	-0.64652	0.74726	-0.16710
90.000	0.48633	-0.65248	0.78680	-0.03581
91.000	0.52784	-0.55700	0.90737	0.02586
92.000	0.56343	-0.54108	0.91132	0.03581
93.000	0.57924	-0.50528	0.89551	0.00796
94.000	0.59506	-0.51522	0.99433	0.03183
95.000	0.56540	-0.54506	0.93504	-0.00398
96.000	0.59308	-0.43963	0.91527	-0.00398
97.000	0.51994	-0.47743	0.89156	-0.01989
98.000	0.47249	-0.55502	0.90934	-0.01989
99.000	0.43691	-0.51126	0.79866	-0.00199
100.000	0.36179	-0.55105	0.78877	-0.00995
101.000	0.34795	-0.55900	0.72552	-0.03979
102.000	0.25108	-0.59680	0.68203	-0.06366
103.000	0.24712	-0.58885	0.70773	-0.15516
104.000	0.21945	-0.60874	0.70378	-0.14124
105.000	0.21154	-0.61272	0.68006	-0.22280
106.000	0.13641	-0.62864	0.65831	-0.16710
107.000	0.14037	-0.63659	0.56738	-0.17705
108.000	0.07908	-0.65251	0.56145	-0.13527
109.000	0.09292	-0.66444	0.61087	-0.21286
110.000	0.08501	-0.70621	0.53575	-0.16909
111.000	0.07315	-0.71616	0.51994	-0.17506
112.000	0.04152	-0.72809	0.57331	-0.18501
113.000	-0.00791	-0.74202	0.61482	-0.28049
114.000	0.03756	-0.73605	0.52982	-0.22480
115.000	0.00593	-0.74401	0.55552	-0.26458
116.000	-0.01186	-0.72014	0.56936	-0.25463
117.000	-0.00395	-0.76390	0.49424	-0.24270
118.000	-0.01779	-0.78180	0.42109	-0.24469
119.000	-0.02175	-0.74600	0.52982	-0.25662
120.000	0.01186	-0.76589	0.46063	-0.30636
121.000	0.01384	-0.73207	0.41714	-0.23872
122.000	0.03559	-0.77583	0.39342	-0.21883
123.000	0.00395	-0.79771	0.43098	-0.30636
124.000	0.02966	-0.79970	0.47842	-0.22679
125.000	0.05733	-0.75793	0.43493	-0.26459
126.000	0.03954	-0.75196	0.40330	-0.20888
127.000	0.07908	-0.80169	0.49819	-0.25663
128.000	0.08106	-0.77185	0.47645	-0.29442
129.000	0.05140	-0.77185	0.41714	-0.26856
130.000	0.05931	-0.75793	0.46063	-0.24270
131.000	0.07710	-0.75196	0.48238	-0.28050
132.000	0.10280	-0.75992	0.47052	-0.30437
133.000	0.08106	-0.75196	0.53773	-0.24270
134.000	0.06722	-0.74202	0.49819	-0.26856
135.000	0.13641	-0.76986	0.42702	-0.26459
136.000	0.11862	-0.76589	0.48040	-0.25663
137.000	0.14827	-0.72809	0.55552	-0.29641
138.000	0.13839	-0.74003	0.51005	-0.23673
139.000	0.08501	-0.75196	0.54564	-0.22082
140.000	0.16804	-0.73406	0.47842	-0.28647
141.000	0.15025	-0.74400	0.54761	-0.25662
142.000	0.15816	-0.70422	0.52784	-0.27851
143.000	0.13048	-0.70621	0.50412	-0.27652
144.000	0.13048	-0.73008	0.58715	-0.23076
145.000	0.13048	-0.74798	0.51796	-0.26060
146.000	0.21154	-0.69825	0.53180	-0.30039
147.000	0.16607	-0.74997	0.52587	-0.20291
148.000	0.16409	-0.68234	0.58122	-0.23474
149.000	0.16607	-0.74003	0.52389	-0.22480
150.000	0.13641	-0.74202	0.53180	-0.33620
151.000	0.13246	-0.73605	0.54168	-0.24270
152.000	0.11269	-0.74202	0.55552	-0.22877
153.000	0.14827	-0.69428	0.56145	-0.25264
154.000	0.14432	-0.74202	0.50215	-0.27652
155.000	0.10874	-0.71616	0.47052	-0.21286
156.000	0.12455	-0.70223	0.55354	-0.22082
157.000	0.15816	-0.71019	0.48633	-0.21485
158.000	0.14234	-0.68433	0.44877	-0.25464
159.000	0.17991	-0.68632	0.45075	-0.20888
160.000	0.14234	-0.72809	0.55947	-0.28248
161.000	0.14827	-0.71815	0.51005	-0.24071
162.000	0.15816	-0.68433	0.51401	-0.23076
163.000	0.14037	-0.70024	0.53378	-0.27254
164.000	0.14630	-0.70024	0.57727	-0.32426
165.000	0.13246	-0.67439	0.53180	-0.20092
166.000	0.14037	-0.72809	0.54761	-0.34017
167.000	0.16014	-0.72610	0.51598	-0.21485
168.000	0.20165	-0.70820	0.49424	-0.27652
169.000	0.15421	-0.69627	0.47447	-0.26259
170.000	0.16014	-0.71218	0.47842	-0.19098
171.000	0.17002	-0.67637	0.50017	-0.19894
172.000	0.16409	-0.71218	0.51598	-0.25265
173.000	0.17793	-0.69229	0.54564	-0.22877
174.000	0.11664	-0.75395	0.49622	-0.30437
175.000	0.12850	-0.72213	0.47645	-0.21087
176.000	0.13641	-0.72014	0.46854	-0.24469
177.000	0.17002	-0.73207	0.44284	-0.18103
178.000	0.10676	-0.72610	0.54959	-0.23872
179.000	0.10676	-0.76788	0.54168	-0.26856
180.000	0.14827	-0.68831	0.51203	-0.24469
181.000	0.14630	-0.69428	0.47447	-0.25464
182.000	0.12850	-0.73605	0.49226	-0.26060
183.000	0.12455	-0.70820	0.49622	-0.24270
184.000	0.10280	-0.70422	0.49028	-0.28448
185.000	0.09885	-0.70025	0.51005	-0.22877
186.000	0.17398	-0.71616	0.52784	-0.25464
187.000	0.16607	-0.73207	0.47842	-0.24469
188.000	0.13246	-0.73605	0.51401	-0.23275
189.000	0.12455	-0.75594	0.54168	-0.23474
190.000	0.14432	-0.74401	0.52784	-0.20092
191.000	0.10083	-0.74003	0.50412	-0.25265
192.000	0.15421	-0.75594	0.55552	-0.22082
193.000	0.12850	-0.73406	0.46854	-0.20093
194.000	0.11664	-0.73804	0.43691	-0.23276
195.000	0.14630	-0.69428	0.55750	-0.21485
196.000	0.10874	-0.71815	0.55354	-0.21485
197.000	0.12060	-0.72809	0.54564	-0.26657
198.000	0.14827	-0.70820	0.52587	-0.18700
199.000	0.13641	-0.73605	0.55552	-0.16710
200.000	0.12850	-0.68035	0.56145	-0.16710
201.000	0.12850	-0.71218	0.49622	-0.15915
202.000	0.11269	-0.74003	0.48435	-0.16711
203.000	0.13048	-0.75196	0.48238	-0.14920
204.000	0.11071	-0.68433	0.51994	-0.11339
205.000	0.09885	-0.72014	0.47447	-0.14920
206.000	0.15816	-0.72809	0.54959	-0.10742
207.000	0.09490	-0.72014	0.49226	-0.14522
208.000	0.09094	-0.71815	0.51005	-0.12732
209.000	0.13444	-0.70820	0.52389	-0.19496
210.000	0.11467	-0.71019	0.50808	-0.16313
211.000	0.14432	-0.73207	0.46063	-0.12931
212.000	0.10676	-0.69826	0.48633	-0.23077
213.000	0.07315	-0.73406	0.47447	-0.19894
214.000	0.14234	-0.70820	0.43889	-0.05968
215.000	0.08897	-0.73605	0.50610	-0.14920
216.000	0.12653	-0.73804	0.53378	-0.23474
217.000	0.09885	-0.70621	0.50017	-0.18302
218.000	0.09687	-0.75594	0.47052	-0.21684
219.000	0.13444	-0.73008	0.52784	-0.11737
220.000	0.13839	-0.71417	0.52191	-0.28050
221.000	0.15618	-0.70024	0.49226	-0.19695
222.000	0.07315	-0.75395	0.54168	-0.24270
223.000	0.14827	-0.71616	0.51203	-0.19496
224.000	0.12060	-0.71616	0.50412	-0.19098
225.000	0.10874	-0.74401	0.49424	-0.19695
226.000	0.12257	-0.71815	0.56540	-0.17705
227.000	0.10874	-0.72809	0.49028	-0.16711
228.000	0.15025	-0.72014	0.51203	-0.17904
229.000	0.12060	-0.71815	0.52784	-0.23076
230.000	0.13839	-0.71019	0.53378	-0.17108
231.000	0.12060	-0.70025	0.54168	-0.24867
232.000	0.13839	-0.68632	0.53378	-0.17904
233.000	0.10478	-0.70422	0.44482	-0.19297
234.000	0.10280	-0.68831	0.45470	-0.24469
235.000	0.08501	-0.70025	0.51401	-0.24071
236.000	0.08699	-0.73605	0.49226	-0.19297
237.000	0.10280	-0.70621	0.56936	-0.16909
238.000	0.11269	-0.70621	0.49226	-0.19894
239.000	0.10083	-0.70621	0.51203	-0.16909
240.000	0.09292	-0.70422	0.45865	-0.12135
241.000	0.07710	-0.73207	0.53378	-0.16710
242.000	0.05536	-0.72014	0.52587	-0.15915
243.000	0.10874	-0.69229	0.44482	-0.12931
244.000	0.09292	-0.71417	0.52784	-0.20291
245.000	0.07513	-0.70422	0.47842	-0.24867
246.000	0.13444	-0.72610	0.51598	-0.14920
247.000	0.12060	-0.70820	0.58517	-0.17108
248.000	0.11862	-0.73605	0.54959	-0.18302
249.000	0.10676	-0.74202	0.45668	-0.19496
250.000	0.14630	-0.69428	0.56540	-0.13329
251.000	0.10478	-0.68035	0.55354	-0.16909
252.000	0.11862	-0.69229	0.56145	-0.21883
253.000	0.13246	-0.74202	0.55157	-0.17904
254.000	0.11467	-0.71019	0.49819	-0.13926
255.000	0.11467	-0.68632	0.56145	-0.19297
256.000	0.11269	-0.71815	0.47052	-0.16910
257.000	0.13839	-0.70422	0.55750	-0.15517
258.000	0.11467	-0.69229	0.51598	-0.27851
259.000	0.11071	-0.67041	0.57924	-0.14323
260.000	0.07117	-0.74600	0.53575	-0.15318
261.000	0.11467	-0.67439	0.54168	-0.20490
262.000	0.08106	-0.71417	0.51796	-0.21883
263.000	0.09687	-0.71218	0.53971	-0.19098
264.000	0.09094	-0.70820	0.54564	-0.17108
265.000	0.04943	-0.72412	0.64448	-0.15119
266.000	0.11467	-0.68433	0.58122	-0.15517
267.000	0.12455	-0.67836	0.55947	-0.18899
268.000	0.11071	-0.73804	0.54366	-0.17904
269.000	0.11467	-0.69826	0.49226	-0.18700
270.000	0.12850	-0.74202	0.51994	-0.16114
271.000	0.10478	-0.73406	0.56540	-0.13726
272.000	0.12850	-0.72014	0.55552	-0.17506
273.000	0.07908	-0.71218	0.51796	-0.20291
274.000	0.08106	-0.71218	0.54959	-0.14323
275.000	0.09885	-0.69627	0.53575	-0.14124
276.000	0.10083	-0.66842	0.59703	-0.17108
277.000	0.11269	-0.74003	0.51005	-0.20888
278.000	0.07315	-0.68433	0.53378	-0.20490
279.000	0.10280	-0.71218	0.57133	-0.19098
280.000	0.08897	-0.69428	0.51401	-0.19893
281.000	0.11862	-0.70025	0.54168	-0.15318
282.000	0.08303	-0.67240	0.52389	-0.22877
283.000	0.08106	-0.71417	0.48831	-0.11936
284.000	0.06920	-0.70025	0.54959	-0.19098
285.000	0.04943	-0.69030	0.52191	-0.18103
286.000	0.07117	-0.70820	0.50412	-0.20689
287.000	0.07710	-0.74003	0.51598	-0.14920
288.000	0.06326	-0.72611	0.52389	-0.10941
289.000	0.07315	-0.68035	0.50017	-0.08554
290.000	0.06524	-0.68234	0.50610	-0.15318
291.000	0.09687	-0.73008	0.52982	-0.12931
292.000	0.08303	-0.72014	0.51796	-0.19496
293.000	0.07710	-0.73406	0.55947	-0.16710
294.000	0.05536	-0.73406	0.52389	-0.21286
295.000	0.07513	-0.70820	0.57924	-0.23275
296.000	0.08303	-0.72412	0.55947	-0.20291
297.000	0.05931	-0.70820	0.56145	-0.22678
298.000	0.08303	-0.73804	0.56145	-0.25463
299.000	0.06524	-0.71019	0.58517	-0.17705
300.000	0.07710	-0.71218	0.57924	-0.14522
301.000	0.09687	-0.72610	0.57331	-0.19893
302.000	0.05733	-0.74003	0.58715	-0.14323
303.000	0.04745	-0.72809	0.58517	-0.20888
304.000	0.07117	-0.71815	0.63262	-0.14124
305.000	0.05733	-0.69826	0.58320	-0.23474
306.000	0.06920	-0.72014	0.57727	-0.21485
307.000	0.07117	-0.72213	0.56738	-0.16313
308.000	0.06129	-0.74799	0.52389	-0.13727
309.000	0.08303	-0.72014	0.53378	-0.09549
310.000	0.04745	-0.73207	0.56343	-0.18103
311.000	0.07710	-0.73207	0.54366	-0.13726
312.000	0.03954	-0.73207	0.57727	-0.18103
313.000	-0.00593	-0.77583	0.54959	-0.18700
314.000	0.05931	-0.74600	0.53180	-0.19297
315.000	0.05733	-0.76589	0.53180	-0.20689
316.000	0.08303	-0.74202	0.56540	-0.19694
317.000	0.01779	-0.75793	0.54366	-0.22082
318.000	0.05536	-0.77981	0.47842	-0.20093
319.000	0.06920	-0.77583	0.50017	-0.21684
320.000	0.08106	-0.76788	0.58517	-0.16114
321.000	-0.00395	-0.76390	0.56540	-0.16909
322.000	0.07315	-0.74799	0.56343	-0.20689
323.000	0.07908	-0.79373	0.56540	-0.16710
324.000	0.04152	-0.78180	0.49622	-0.20888
325.000	0.05536	-0.75992	0.54168	-0.18700
326.000	0.05733	-0.80567	0.50017	-0.20490
327.000	0.05140	-0.76390	0.54366	-0.16313
328.000	0.06722	-0.72213	0.55157	-0.26657
329.000	0.06129	-0.74401	0.50215	-0.16711
330.000	0.03163	-0.76589	0.49028	-0.16711
331.000	0.09885	-0.71417	0.51005	-0.18103
332.000	0.05536	-0.74003	0.49622	-0.14124
333.000	0.05733	-0.75992	0.48040	-0.11339
334.000	0.05931	-0.72809	0.51005	-0.12931
335.000	0.07513	-0.77981	0.53378	-0.16313
336.000	0.09292	-0.76589	0.49622	-0.18501
337.000	0.09094	-0.71218	0.52587	-0.22877
338.000	0.08501	-0.75395	0.57924	-0.14124
339.000	0.09885	-0.78379	0.59110	-0.19694
340.000	0.09292	-0.77583	0.57133	-0.21286
341.000	0.06524	-0.76390	0.51005	-0.19297
342.000	0.08699	-0.75395	0.56145	-0.17705
343.000	0.07117	-0.76987	0.58913	-0.20291
344.000	0.06129	-0.76390	0.61878	-0.17705
345.000	0.09490	-0.74997	0.47447	-0.21485
346.000	0.09094	-0.75594	0.53575	-0.19694
347.000	0.04943	-0.76589	0.49028	-0.19695
348.000	0.06129	-0.79572	0.53575	-0.22082
349.000	0.08303	-0.79174	0.56936	-0.22877
350.000	0.09885	-0.79373	0.57133	-0.20490
351.000	0.06920	-0.81362	0.56540	-0.22479
352.000	0.07117	-0.76390	0.56540	-0.23474
353.000	0.13641	-0.79373	0.49226	-0.23275
354.000	0.09490	-0.75992	0.51598	-0.14721
355.000	0.06722	-0.75395	0.52191	-0.15318
356.000	0.06129	-0.76987	0.49424	-0.15517
357.000	0.06326	-0.75992	0.44284	-0.21087
358.000	0.07513	-0.74401	0.55750	-0.18302
359.000	0.08303	-0.71417	0.50017	-0.18103
360.000	0.07908	-0.78379	0.54168	-0.16512
361.000	0.11664	-0.75594	0.56343	-0.17506
362.000	0.05338	-0.74600	0.51005	-0.17108
363.000	0.07710	-0.75594	0.54366	-0.17705
364.000	0.05733	-0.73406	0.49622	-0.14721
365.000	0.08106	-0.74997	0.58715	-0.14124
366.000	0.09687	-0.75992	0.57529	-0.23474
367.000	0.07710	-0.73207	0.54366	-0.25861
368.000	0.09490	-0.76589	0.56145	-0.18501
369.000	0.10478	-0.77384	0.49819	-0.18302
370.000	0.08106	-0.74401	0.51994	-0.17108
371.000	0.05931	-0.77583	0.54168	-0.15915
372.000	0.09292	-0.75793	0.52784	-0.18899
373.000	0.06524	-0.77384	0.54959	-0.25463
374.000	0.06129	-0.78976	0.58320	-0.22678
375.000	0.09292	-0.73207	0.53971	-0.18103
376.000	0.08106	-0.76589	0.49622	-0.16114
377.000	0.05733	-0.76390	0.51598	-0.20689
378.000	0.07315	-0.77782	0.54564	-0.19297
379.000	0.08897	-0.76390	0.47842	-0.23275
380.000	0.07117	-0.78379	0.49622	-0.18899
381.000	0.10478	-0.75196	0.52982	-0.29044
382.000	0.08501	-0.78976	0.50412	-0.21485
383.000	0.08897	-0.76191	0.51598	-0.22877
384.000	0.06524	-0.78379	0.55354	-0.24270
385.000	0.01779	-0.77583	0.52982	-0.23275
386.000	0.02175	-0.80567	0.59703	-0.24270
387.000	0.05536	-0.76788	0.59506	-0.21883
388.000	0.02966	-0.82556	0.52587	-0.17506
389.000	0.02966	-0.73804	0.54959	-0.18501
390.000	0.06326	-0.76589	0.59308	-0.20092
391.000	0.06326	-0.81164	0.63262	-0.19694
392.000	0.08106	-0.76390	0.59110	-0.17108
393.000	0.08699	-0.75992	0.54761	-0.16313
394.000	0.07117	-0.77981	0.59308	-0.19495
395.000	0.08303	-0.76589	0.58320	-0.24867
396.000	0.08699	-0.77583	0.53180	-0.22082
397.000	0.05733	-0.77782	0.51994	-0.19496
398.000	0.01582	-0.80368	0.58320	-0.22877
399.000	0.06129	-0.76589	0.56145	-0.17705
400.000	0.02966	-0.78976	0.50017	-0.24071
401.000	0.03163	-0.76589	0.56343	-0.19495
402.000	0.05733	-0.77384	0.58517	-0.30834
403.000	0.03954	-0.79175	0.51401	-0.21883
404.000	0.02966	-0.77384	0.47447	-0.19695
405.000	0.04943	-0.77981	0.58517	-0.24867
406.000	0.07710	-0.78578	0.53180	-0.20291
407.000	0.05338	-0.77782	0.56540	-0.17307
408.000	0.05931	-0.81760	0.54168	-0.20689
409.000	0.03954	-0.75992	0.52389	-0.19695
410.000	0.06129	-0.77782	0.51598	-0.27055
411.000	0.07710	-0.75793	0.57529	-0.20092
412.000	0.03361	-0.79970	0.57727	-0.26856
413.000	0.04152	-0.77782	0.46459	-0.18700
414.000	0.04349	-0.75196	0.55947	-0.14124
415.000	0.04152	-0.78578	0.54168	-0.16512
416.000	0.08501	-0.77583	0.56936	-0.26458
417.000	0.04152	-0.77981	0.52587	-0.19496
418.000	0.06920	-0.74401	0.51401	-0.16313
419.000	0.07908	-0.74799	0.54366	-0.25662
420.000	0.06524	-0.74202	0.49424	-0.17506
421.000	0.10083	-0.73008	0.55354	-0.14721
422.000	0.05536	-0.71815	0.50215	-0.13528
423.000	0.07513	-0.74202	0.54366	-0.23673
424.000	0.03756	-0.69826	0.64448	-0.21286
425.000	0.08699	-0.72412	0.48435	-0.24469
426.000	0.09687	-0.68234	0.52389	-0.20689
427.000	0.08897	-0.69030	0.64052	-0.17307
428.000	0.09490	-0.72610	0.59506	-0.20490
429.000	0.04547	-0.71616	0.54564	-0.18700
430.000	0.05536	-0.73207	0.58715	-0.18700
431.000	0.06722	-0.72213	0.59703	-0.21485
432.000	0.07513	-0.74202	0.55750	-0.22678
433.000	0.05536	-0.72014	0.52982	-0.18700
434.000	0.03559	-0.74799	0.52982	-0.20291
435.000	0.04547	-0.72014	0.55947	-0.19694
436.000	0.02966	-0.73605	0.59506	-0.12334
437.000	0.04349	-0.73406	0.57529	-0.17705
438.000	0.05338	-0.74600	0.54959	-0.16114
439.000	0.07710	-0.73804	0.50808	-0.18302
440.000	0.04745	-0.74600	0.49424	-0.23673
441.000	0.06722	-0.71616	0.55157	-0.24469
442.000	0.10280	-0.73605	0.54564	-0.24071
443.000	0.08501	-0.75793	0.55157	-0.23673
444.000	0.03559	-0.77583	0.60296	-0.23474
445.000	0.08106	-0.76986	0.59901	-0.22280
446.000	0.03954	-0.80965	0.55354	-0.22877
447.000	0.07710	-0.78180	0.55947	-0.25066
448.000	0.05536	-0.81362	0.55157	-0.29840
449.000	0.03954	-0.78180	0.64448	-0.26458
450.000	0.03756	-0.79771	0.61878	-0.25264
451.000	0.01384	-0.78578	0.55750	-0.29044
452.000	0.04943	-0.77583	0.58517	-0.24668
453.000	0.06722	-0.79970	0.59110	-0.29840
454.000	0.04349	-0.84943	0.56540	-0.28646
455.000	0.01779	-0.78976	0.53773	-0.20490
456.000	0.05338	-0.78777	0.63064	-0.23076
457.000	0.06920	-0.83153	0.62471	-0.26458
458.000	0.08303	-0.82954	0.50808	-0.32028
459.000	0.09687	-0.77384	0.57331	-0.25662
460.000	0.06129	-0.81561	0.51203	-0.27652
461.000	0.06326	-0.81362	0.64052	-0.23076
462.000	0.06722	-0.83351	0.55354	-0.21883
463.000	0.07117	-0.79373	0.51994	-0.27254
464.000	0.09490	-0.80965	0.59308	-0.23076
465.000	0.08699	-0.79771	0.52982	-0.26259
466.000	0.07315	-0.82158	0.61087	-0.29044
467.000	0.06920	-0.80368	0.60494	-0.24469
468.000	0.07117	-0.78180	0.60099	-0.23673
469.000	0.08897	-0.77384	0.53971	-0.31829
470.000	0.08699	-0.81760	0.57529	-0.29243
471.000	0.05931	-0.78180	0.59506	-0.27850
472.000	0.10676	-0.74202	0.64645	-0.26060
473.000	0.09292	-0.78578	0.62273	-0.22081
474.000	0.07513	-0.76390	0.63064	-0.29442
475.000	0.09490	-0.77981	0.51994	-0.28050
476.000	0.10478	-0.71616	0.57727	-0.23872
477.000	0.11862	-0.75395	0.59901	-0.25861
478.000	0.10280	-0.74600	0.53180	-0.26657
479.000	0.11071	-0.74997	0.66029	-0.28646
480.000	0.14037	-0.76787	0.58913	-0.25662
481.000	0.10280	-0.74202	0.58913	-0.16511
482.000	0.09094	-0.73008	0.58122	-0.26259
483.000	0.12455	-0.75196	0.65238	-0.26060
484.000	0.10280	-0.77583	0.67610	-0.25861
485.000	0.08303	-0.77583	0.58517	-0.29044
486.000	0.09292	-0.76788	0.64448	-0.27651
487.000	0.12257	-0.73804	0.67017	-0.24667
488.000	0.14630	-0.74599	0.55947	-0.24469
489.000	0.12257	-0.76986	0.58320	-0.22081
490.000	0.10676	-0.74600	0.63262	-0.29044
491.000	0.10083	-0.76788	0.59901	-0.18501
492.000	0.08106	-0.78180	0.53773	-0.25265
493.000	0.11269	-0.72610	0.55157	-0.26657
494.000	0.12060	-0.75594	0.63855	-0.29044
495.000	0.11269	-0.74401	0.60889	-0.28845
496.000	0.12850	-0.76986	0.70378	-0.23473
497.000	0.10083	-0.74600	0.54168	-0.25463
498.000	0.09687	-0.75793	0.52587	-0.25662
499.000	0.11862	-0.78578	0.67017	-0.26060
500.000	0.08897	-0.76788	0.54959	-0.21684
501.000	0.08897	-0.75594	0.62866	-0.22479
502.000	0.07908	-0.77583	0.61680	-0.31033
503.000	0.11467	-0.73605	0.63262	-0.21485
504.000	0.08106	-0.77981	0.57529	-0.21485
505.000	0.11071	-0.77782	0.58320	-0.29243
506.000	0.10083	-0.77583	0.60296	-0.22479
507.000	0.12455	-0.71218	0.63657	-0.22678
508.000	0.11269	-0.72213	0.56540	-0.21684
509.000	0.13246	-0.74401	0.75715	-0.24866
510.000	0.11664	-0.75395	0.64448	-0.16312
511.000	0.14234	-0.73207	0.67808	-0.26457
512.000	0.10676	-0.74997	0.54564	-0.24270
513.000	0.14037	-0.74401	0.58517	-0.25463
514.000	0.11862	-0.74401	0.61680	-0.18700
515.000	0.11467	-0.74798	0.61285	-0.25861
516.000	0.09885	-0.72610	0.58320	-0.22479
517.000	0.12653	-0.75594	0.62668	-0.16909
518.000	0.10874	-0.75395	0.61482	-0.18103
519.000	0.15025	-0.73406	0.60494	-0.20092
520.000	0.12455	-0.72809	0.59703	-0.22081
521.000	0.10676	-0.73605	0.57529	-0.25861
522.000	0.10083	-0.71815	0.64843	-0.20888
523.000	0.10083	-0.77185	0.60494	-0.22678
524.000	0.10676	-0.73605	0.61680	-0.19097
525.000	0.07315	-0.75594	0.65831	-0.20888
526.000	0.09292	-0.77583	0.67017	-0.21683
527.000	0.10083	-0.79572	0.69389	-0.16710
528.000	0.06722	-0.74401	0.61482	-0.15517
529.000	0.08106	-0.74003	0.57727	-0.22479
530.000	0.09687	-0.74798	0.60099	-0.17307
531.000	0.07315	-0.80368	0.61087	-0.16113
532.000	0.10478	-0.73804	0.63855	-0.15914
533.000	0.11071	-0.75992	0.62471	-0.12533
534.000	0.11269	-0.75395	0.67017	-0.13527
535.000	0.09094	-0.74003	0.63855	-0.10344
536.000	0.10280	-0.75594	0.55157	-0.20689
537.000	0.11862	-0.74401	0.58320	-0.19098
538.000	0.11664	-0.76390	0.57924	-0.18700
539.000	0.10083	-0.78180	0.63262	-0.20092
540.000	0.11269	-0.76191	0.66227	-0.15119
541.000	0.09687	-0.76390	0.65831	-0.18302
542.000	0.10478	-0.72610	0.64448	-0.16511
543.000	0.09885	-0.74600	0.60692	-0.19097
544.000	0.09885	-0.74798	0.66029	-0.20092
545.000	0.10280	-0.73406	0.62471	-0.17307
546.000	0.08897	-0.70621	0.66227	-0.20092
547.000	0.08897	-0.74401	0.66029	-0.19893
548.000	0.10478	-0.77384	0.69785	-0.16710
549.000	0.12060	-0.69030	0.63459	-0.20092
550.000	0.17398	-0.74599	0.67610	-0.22081
551.000	0.14037	-0.69627	0.63459	-0.22479
552.000	0.09094	-0.73605	0.72354	-0.23274
553.000	0.07908	-0.69229	0.73343	-0.20489
554.000	0.12060	-0.70820	0.71168	-0.23274
555.000	0.10676	-0.75395	0.72354	-0.20489
556.000	0.08303	-0.70621	0.71564	-0.29242
557.000	0.12257	-0.73605	0.62273	-0.21882
558.000	0.11467	-0.71218	0.75715	-0.23075
559.000	0.11467	-0.70621	0.71761	-0.27054
560.000	0.10280	-0.73804	0.72157	-0.22081
561.000	0.11862	-0.67638	0.65238	-0.23872
562.000	0.16211	-0.67836	0.66622	-0.29441
563.000	0.10874	-0.73605	0.68994	-0.21683
564.000	0.12850	-0.69826	0.66029	-0.17705
565.000	0.10478	-0.68831	0.67215	-0.21285
566.000	0.11467	-0.68433	0.68796	-0.19694
567.000	0.12060	-0.69229	0.70378	-0.19296
568.000	0.12257	-0.71815	0.62273	-0.14124
569.000	0.12060	-0.74003	0.68203	-0.23672
570.000	0.11467	-0.72610	0.67017	-0.15715
571.000	0.09687	-0.74600	0.68796	-0.15119
572.000	0.07315	-0.74202	0.67808	-0.16909
573.000	0.11664	-0.74600	0.67808	-0.08355
574.000	0.09687	-0.74798	0.64645	-0.10742
575.000	0.10478	-0.76390	0.72750	-0.18699
576.000	0.12060	-0.74003	0.72552	-0.12930
577.000	0.06524	-0.77583	0.71564	-0.23076
578.000	0.10083	-0.76788	0.72552	-0.20092
579.000	0.03163	-0.75395	0.74529	-0.18699
580.000	0.04349	-0.76788	0.74331	-0.19893
581.000	0.06326	-0.76191	0.71366	-0.20688
582.000	0.07710	-0.73207	0.66029	-0.14522
583.000	0.04943	-0.79970	0.70971	-0.07559
584.000	0.09687	-0.72809	0.66820	-0.17108
585.000	0.03361	-0.70820	0.74133	-0.13925
586.000	0.05733	-0.77981	0.65634	-0.15914
587.000	0.05733	-0.71815	0.65831	-0.19296
588.000	0.11664	-0.75594	0.69389	-0.16909
589.000	0.11071	-0.74600	0.75517	-0.21484
590.000	0.11269	-0.70025	0.68006	-0.15715
591.000	0.10478	-0.71218	0.70378	-0.21882
592.000	0.11269	-0.71616	0.66622	-0.24269
593.000	0.06129	-0.70621	0.68006	-0.20490
594.000	0.12653	-0.71616	0.70971	-0.19296
595.000	0.10676	-0.72610	0.76110	-0.24070
596.000	0.10083	-0.71019	0.71564	-0.19495
597.000	0.11664	-0.69627	0.74331	-0.17108
598.000	0.11269	-0.68234	0.70180	-0.18102
599.000	0.11071	-0.67240	0.69785	-0.14522
600.000	0.15223	-0.69826	0.69192	-0.13726
601.000	0.10280	-0.65052	0.70378	-0.21285
602.000	0.09687	-0.69030	0.65436	-0.12732
603.000	0.11269	-0.67836	0.66424	-0.16710
604.000	0.09490	-0.70025	0.72947	-0.14522
605.000	0.12455	-0.69030	0.66820	-0.23474
606.000	0.11664	-0.74600	0.75319	-0.21882
607.000	0.06129	-0.70422	0.68796	-0.32226
608.000	0.12257	-0.65648	0.65634	-0.15318
609.000	0.11862	-0.70025	0.68203	-0.19296
610.000	0.09292	-0.64853	0.66029	-0.22877
611.000	0.10478	-0.65648	0.72750	-0.12731
612.000	0.12455	-0.66444	0.70575	-0.20092
613.000	0.15025	-0.68234	0.73343	-0.17307
614.000	0.12455	-0.72809	0.69587	-0.17904
615.000	0.11467	-0.66643	0.71564	-0.21086
616.000	0.12850	-0.66046	0.73540	-0.21285
617.000	0.14234	-0.68035	0.64052	-0.28447
618.000	0.09292	-0.66842	0.69982	-0.18500
619.000	0.13048	-0.70621	0.73343	-0.26059
620.000	0.14827	-0.65250	0.74529	-0.19296
621.000	0.11071	-0.68632	0.73738	-0.22678
622.000	0.14037	-0.65648	0.71959	-0.17307
623.000	0.15816	-0.69826	0.78482	-0.17306
624.000	0.11664	-0.72411	0.72947	-0.18301
625.000	0.08699	-0.67439	0.74529	-0.22479
626.000	0.10280	-0.66046	0.68994	-0.19097
627.000	0.11269	-0.66046	0.72354	-0.15914
628.000	0.10478	-0.66046	0.74529	-0.16909
629.000	0.09885	-0.71019	0.73343	-0.20887
630.000	0.07710	-0.66842	0.78877	-0.16511
631.000	0.08897	-0.66444	0.78284	-0.20489
632.000	0.08699	-0.68632	0.70971	-0.19296
633.000	0.10478	-0.69229	0.73540	-0.23473
634.000	0.11664	-0.70025	0.75912	-0.19694
635.000	0.12850	-0.69229	0.74726	-0.17704
636.000	0.12257	-0.68035	0.71366	-0.11140
637.000	0.11862	-0.71019	0.69192	-0.19097
638.000	0.10874	-0.67240	0.77691	-0.19694
639.000	0.07710	-0.71218	0.66424	-0.20092
640.000	0.14037	-0.68433	0.72552	-0.16511
641.000	0.12653	-0.66842	0.72552	-0.28049
642.000	0.14827	-0.66643	0.72354	-0.17903
643.000	0.11862	-0.65847	0.73738	-0.23274
644.000	0.09292	-0.66245	0.79866	-0.21285
645.000	0.14234	-0.65052	0.76110	-0.10941
646.000	0.14234	-0.68035	0.73145	-0.24070
647.000	0.10083	-0.64853	0.82040	-0.21285
648.000	0.10280	-0.65251	0.73540	-0.20887
649.000	0.13048	-0.64853	0.65831	-0.19893
650.000	0.17398	-0.63659	0.75122	-0.15914
651.000	0.15223	-0.69826	0.75122	-0.25661
652.000	0.15223	-0.66245	0.72552	-0.17903
653.000	0.12850	-0.63659	0.74331	-0.19893
654.000	0.15816	-0.64256	0.80459	-0.15516
655.000	0.13048	-0.60874	0.69192	-0.17307
656.000	0.16014	-0.65052	0.69785	-0.19893
657.000	0.12653	-0.66444	0.69982	-0.15914
658.000	0.16014	-0.69428	0.76901	-0.12930
659.000	0.12850	-0.66444	0.74726	-0.17307
660.000	0.15223	-0.68234	0.67017	-0.14124
661.000	0.15421	-0.71417	0.67215	-0.17307
662.000	0.17595	-0.69030	0.68203	-0.21882
663.000	0.14234	-0.65648	0.68203	-0.17904
664.000	0.15618	-0.66245	0.74726	-0.14323
665.000	0.19177	-0.68433	0.71168	-0.24866
666.000	0.17200	-0.66842	0.71959	-0.21086
667.000	0.17991	-0.67240	0.73145	-0.17704
668.000	0.16409	-0.68831	0.68796	-0.26258
669.000	0.16211	-0.70223	0.72157	-0.20887
670.000	0.14037	-0.72014	0.75319	-0.11936
671.000	0.19770	-0.72013	0.74331	-0.16113
672.000	0.14827	-0.71218	0.75912	-0.21484
673.000	0.19177	-0.67637	0.71959	-0.21882
674.000	0.18781	-0.70422	0.68994	-0.19296
675.000	0.17200	-0.69627	0.78680	-0.13726
676.000	0.17595	-0.67637	0.70180	-0.24070
677.000	0.16607	-0.67637	0.73145	-0.20291
678.000	0.20758	-0.67239	0.69785	-0.19296
679.000	0.14827	-0.67240	0.67215	-0.16312
680.000	0.16409	-0.68433	0.76308	-0.19893
681.000	0.17398	-0.68433	0.70378	-0.14124
682.000	0.20165	-0.66842	0.69982	-0.19296
683.000	0.17991	-0.67637	0.75715	-0.10941
684.000	0.21549	-0.65051	0.70378	-0.23473
685.000	0.19770	-0.66643	0.81249	-0.24467
686.000	0.19572	-0.65648	0.74924	-0.12532
687.000	0.17398	-0.65250	0.81249	-0.20091
688.000	0.16607	-0.64256	0.73936	-0.19495
689.000	0.14827	-0.66444	0.75912	-0.17903
690.000	0.20758	-0.62465	0.74726	-0.24070
691.000	0.19770	-0.63062	0.79668	-0.18898
692.000	0.20363	-0.66245	0.72354	-0.23076
693.000	0.21945	-0.69427	0.79470	-0.15317
694.000	0.19968	-0.65847	0.77691	-0.19097
695.000	0.14827	-0.67637	0.76308	-0.14919
696.000	0.18979	-0.63062	0.75517	-0.17108
697.000	0.16804	-0.63858	0.70575	-0.16710
698.000	0.17200	-0.65250	0.73540	-0.22877
699.000	0.16607	-0.67439	0.75319	-0.21882
700.000	0.20363	-0.65051	0.74924	-0.15317
701.000	0.19572	-0.65847	0.71564	-0.15516
702.000	0.17200	-0.65051	0.74133	-0.17108
703.000	0.15421	-0.63261	0.69785	-0.20689
704.000	0.18584	-0.63858	0.76308	-0.22081
705.000	0.15618	-0.66444	0.67610	-0.22479
706.000	0.18979	-0.65648	0.76505	-0.20290
707.000	0.20165	-0.67637	0.78284	-0.13527
708.000	0.16211	-0.67439	0.75715	-0.15118
709.000	0.20165	-0.63858	0.73936	-0.18301
710.000	0.20561	-0.67041	0.73738	-0.07161
711.000	0.19572	-0.61670	0.73540	-0.18699
712.000	0.20956	-0.64057	0.76308	-0.16312
713.000	0.22933	-0.63858	0.71564	-0.18102
714.000	0.19770	-0.61471	0.73343	-0.19296
715.000	0.22933	-0.64256	0.74331	-0.19097
716.000	0.23329	-0.63858	0.79866	-0.12930
717.000	0.18979	-0.65250	0.83819	-0.27451
718.000	0.20956	-0.65250	0.72157	-0.18898
719.000	0.20758	-0.69030	0.76110	-0.15715
720.000	0.20956	-0.64455	0.78482	-0.20887
721.000	0.18188	-0.66842	0.79470	-0.16113
722.000	0.18386	-0.67438	0.77889	-0.16511
723.000	0.19968	-0.61869	0.71366	-0.17705
724.000	0.17991	-0.66444	0.78482	-0.16909
725.000	0.20561	-0.64852	0.78284	-0.15317
726.000	0.21154	-0.66842	0.73738	-0.24070
727.000	0.17200	-0.63460	0.81842	-0.18898
728.000	0.17200	-0.67637	0.72354	-0.22678
729.000	0.20561	-0.66046	0.77098	-0.20091
730.000	0.20956	-0.64455	0.67413	-0.13726
731.000	0.22538	-0.64653	0.73738	-0.05570
732.000	0.18781	-0.60675	0.77296	-0.18898
733.000	0.24515	-0.63858	0.73343	-0.16113
734.000	0.20956	-0.63261	0.78680	-0.11339
735.000	0.25701	-0.60874	0.72750	-0.13527
736.000	0.24712	-0.56697	0.75912	-0.13527
737.000	0.22933	-0.63858	0.72354	-0.13726
738.000	0.25503	-0.61471	0.73738	-0.17506
739.000	0.25305	-0.59481	0.73145	-0.11737
740.000	0.23526	-0.59680	0.64645	-0.08753
741.000	0.24515	-0.57293	0.72157	-0.04973
742.000	0.22933	-0.56697	0.69192	-0.05172
743.000	0.22142	-0.55503	0.76703	-0.13925
744.000	0.20956	-0.54906	0.76505	-0.15715
745.000	0.22933	-0.56498	0.69587	-0.04575
746.000	0.21747	-0.57293	0.69785	-0.10344
747.000	0.25503	-0.55304	0.71959	-0.08355
748.000	0.25108	-0.59481	0.71366	-0.11140
749.000	0.26096	-0.57492	0.66424	-0.11737
750.000	0.25503	-0.56895	0.68006	-0.15119
751.000	0.23526	-0.54707	0.69192	-0.14323
752.000	0.21945	-0.54707	0.70575	-0.12731
753.000	0.23724	-0.56697	0.73738	-0.11538
754.000	0.23131	-0.59283	0.71366	-0.11538
755.000	0.21549	-0.59283	0.71761	-0.13328
756.000	0.20165	-0.52519	0.69982	-0.12334
757.000	0.19968	-0.58686	0.70773	-0.15516
758.000	0.18386	-0.57294	0.73343	-0.13129
759.000	0.24712	-0.56100	0.71761	-0.15715
760.000	0.22340	-0.53713	0.66029	-0.19893
761.000	0.19770	-0.54906	0.75122	-0.11737
762.000	0.23329	-0.52917	0.72354	-0.16312
763.000	0.21945	-0.54111	0.73343	-0.09350
764.000	0.20561	-0.53912	0.70773	-0.14920
765.000	0.23329	-0.52718	0.72354	-0.12532
766.000	0.23526	-0.49137	0.67215	-0.09549
767.000	0.24317	-0.52320	0.69587	-0.13925
768.000	0.20758	-0.52320	0.68796	-0.10742
769.000	0.22735	-0.52121	0.65634	-0.15517
770.000	0.18188	-0.54509	0.62471	-0.14721
771.000	0.21352	-0.53315	0.73540	-0.10344
772.000	0.22142	-0.50530	0.67215	-0.12135
773.000	0.19572	-0.50928	0.72354	-0.16909
774.000	0.22142	-0.44761	0.71366	-0.13328
775.000	0.18584	-0.50331	0.72947	-0.17704
776.000	0.18584	-0.47745	0.69192	-0.18301
777.000	0.18979	-0.50928	0.72750	-0.12930
778.000	0.21549	-0.48541	0.70773	-0.09350
779.000	0.18781	-0.47148	0.61087	-0.10941
780.000	0.24515	-0.40981	0.70378	-0.11140
781.000	0.22735	-0.45756	0.64645	-0.15716
782.000	0.20363	-0.43369	0.70773	-0.16113
783.000	0.24515	-0.46949	0.65634	-0.15517
784.000	0.22340	-0.43965	0.63855	-0.15914
785.000	0.21549	-0.43369	0.76505	-0.17505
786.000	0.19770	-0.44960	0.69785	-0.13925
787.000	0.21352	-0.46154	0.71959	-0.17506
788.000	0.17398	-0.45358	0.70180	-0.10145
789.000	0.21747	-0.43965	0.69587	-0.15914
790.000	0.26294	-0.34218	0.65831	-0.09350
791.000	0.24515	-0.35610	0.69192	-0.06366
792.000	0.29655	-0.34615	0.66820	-0.08952
793.000	0.26294	-0.36207	0.67610	-0.14920
794.000	0.20758	-0.35610	0.66227	-0.12732
795.000	0.23526	-0.35212	0.67610	-0.10344
796.000	0.29062	-0.34615	0.61680	-0.06963
797.000	0.28864	-0.36207	0.57924	-0.14323
798.000	0.24910	-0.35212	0.64843	-0.15119
799.000	0.29852	-0.36406	0.70378	-0.16511
800.000	0.31434	-0.40583	0.76308	-0.15516
801.000	0.42109	-0.36405	0.79273	-0.11935
802.000	0.58122	-0.41775	1.02595	-0.00995
803.000	0.73145	-0.40978	1.12082	-0.06564
804.000	0.90144	-0.42568	1.28286	-0.13127
805.000	1.09908	-0.45350	1.49230	-0.10342
806.000	1.44686	-0.46935	1.71553	-0.10738
807.000	1.71355	-0.43151	1.99202	-0.11134
808.000	2.03151	-0.46324	2.23683	-0.09741
809.000	2.26249	-0.45919	2.42433	-0.08348
810.000	2.47564	-0.44918	2.78143	-0.17685
811.000	2.68281	-0.42725	2.88004	-0.14505
812.000	2.78538	-0.41331	3.12058	-0.18673
813.000	2.91554	-0.47286	3.23095	-0.25027
814.000	2.93131	-0.52650	3.27824	-0.34162
815.000	2.88596	-0.56625	3.33341	-0.41310
816.000	2.79721	-0.60206	3.25854	-0.42703
817.000	2.73212	-0.67561	3.13437	-0.52044
818.000	2.54865	-0.78699	3.01807	-0.55625
819.000	2.39276	-0.84272	2.88793	-0.60400
820.000	2.20919	-0.89252	2.70845	-0.61403
821.000	2.02756	-0.96021	2.59600	-0.62600
822.000	1.91895	-0.95629	2.50722	-0.60816
823.000	1.85971	-0.98614	2.32763	-0.63806
824.000	1.83008	-1.00405	2.25657	-0.60231
825.000	1.76886	-1.03390	2.21906	-0.52281
826.000	1.74910	-1.02397	2.21117	-0.49499
827.000	1.75503	-0.94445	2.21117	-0.44728
828.000	1.81033	-0.94045	2.14207	-0.38369
829.000	1.82021	-0.91261	2.29605	-0.36576
830.000	1.84983	-0.84898	2.28420	-0.33992
831.000	1.92685	-0.77341	2.28815	-0.33793
832.000	1.96240	-0.76146	2.37105	-0.33592
833.000	2.03941	-0.70775	2.38881	-0.32996
834.000	2.08482	-0.66003	2.41052	-0.26436
835.000	2.11048	-0.65206	2.49340	-0.26633
836.000	2.12036	-0.63218	2.46578	-0.24646
837.000	2.14602	-0.63813	2.47367	-0.32994
838.000	2.17169	-0.59439	2.44210	-0.33591
839.000	2.14207	-0.61826	2.43618	-0.31802
840.000	2.15589	-0.60434	2.52103	-0.36768
841.000	2.17169	-0.61030	2.48354	-0.32993
842.000	2.18748	-0.62619	2.58417	-0.30805
843.000	2.25460	-0.61622	2.58811	-0.35574
844.000	2.21906	-0.64009	2.53879	-0.35973
845.000	2.24670	-0.67586	2.53089	-0.31203
846.000	2.29802	-0.68378	2.50919	-0.31800
847.000	2.24867	-0.64604	2.58614	-0.41337
848.000	2.27828	-0.63609	2.51708	-0.27428
849.000	2.25262	-0.61225	2.59995	-0.32792
850.000	2.27828	-0.63013	2.57430	-0.37363
851.000	2.31579	-0.62415	2.54273	-0.39351
852.000	2.31973	-0.66390	2.52103	-0.43327
853.000	2.30394	-0.62813	2.54076	-0.42730
854.000	2.32565	-0.62613	2.52497	-0.42532
855.000	2.30394	-0.65595	2.47959	-0.40745
856.000	2.30197	-0.67384	2.58022	-0.43921
857.000	2.30394	-0.65397	2.57627	-0.45511
858.000	2.30197	-0.64999	2.51313	-0.42135
859.000	2.29802	-0.65795	2.53484	-0.41339
860.000	2.33355	-0.63607	2.57233	-0.45114
861.000	2.29407	-0.66987	2.54471	-0.42531
862.000	2.26249	-0.65597	2.55457	-0.44717
863.000	2.28815	-0.66789	2.51905	-0.33589
864.000	2.29210	-0.61223	2.50327	-0.42135
865.000	2.30789	-0.62813	2.53681	-0.48096
866.000	2.29802	-0.67186	2.46775	-0.40944
867.000	2.28420	-0.66590	2.44802	-0.45317
868.000	2.29605	-0.66590	2.50919	-0.44719
869.000	2.29210	-0.68379	2.45986	-0.41143
870.000	2.29013	-0.68975	2.49340	-0.41937
871.000	2.23091	-0.70767	2.45591	-0.48099
872.000	2.29605	-0.64602	2.47564	-0.44521
873.000	2.29013	-0.65596	2.49735	-0.44321
874.000	2.24473	-0.66393	2.42433	-0.50286
875.000	2.30592	-0.65397	2.51708	-0.43923
876.000	2.30394	-0.63409	2.48748	-0.44520
877.000	2.27433	-0.62615	2.48551	-0.35378
878.000	2.28815	-0.61025	2.38289	-0.47505
879.000	2.28618	-0.67186	2.53089	-0.46904
880.000	2.27828	-0.58640	2.37105	-0.47506
881.000	2.28420	-0.58242	2.42828	-0.43131
882.000	2.27631	-0.61820	2.49340	-0.46110
883.000	2.24473	-0.59039	2.46380	-0.40149
884.000	2.29013	-0.60031	2.49735	-0.42135
885.000	2.28815	-0.63807	2.46183	-0.44919
886.000	2.27828	-0.64007	2.39868	-0.49095
887.000	2.30592	-0.59633	2.52300	-0.46308
888.000	2.28815	-0.58441	2.40855	-0.50486
889.000	2.30986	-0.53670	2.43618	-0.44125
890.000	2.31381	-0.58837	2.48156	-0.51874
891.000	2.31381	-0.59434	2.59403	-0.47895
892.000	2.33158	-0.58837	2.48748	-0.47899
893.000	2.33355	-0.56253	2.47170	-0.47502
894.000	2.31579	-0.60030	2.42433	-0.49690
895.000	2.31184	-0.60030	2.46578	-0.52670
896.000	2.30986	-0.55458	2.49143	-0.54060
897.000	2.33552	-0.55656	2.51116	-0.54457
898.000	2.32565	-0.55458	2.42433	-0.47703
899.000	2.33552	-0.58836	2.41644	-0.46510
900.000	2.31776	-0.56849	2.38486	-0.45716
901.000	2.31776	-0.56253	2.48946	-0.41738
902.000	2.29210	-0.56055	2.40657	-0.53467
903.000	2.33158	-0.52277	2.44407	-0.49491
904.000	2.35131	-0.53469	2.47959	-0.57240
905.000	2.35526	-0.53867	2.37105	-0.47108
906.000	2.35131	-0.54463	2.45591	-0.52670
907.000	2.36315	-0.57046	2.52103	-0.47103
908.000	2.37500	-0.54462	2.48156	-0.49489
909.000	2.35131	-0.50885	2.47762	-0.52669
910.000	2.31579	-0.53868	2.40065	-0.50089
911.000	2.36513	-0.55854	2.41249	-0.56647
912.000	2.31381	-0.54464	2.45986	-0.55452
913.000	2.31776	-0.55856	2.43420	-0.45317
914.000	2.37105	-0.52475	2.47959	-0.53067
915.000	2.31381	-0.53868	2.43618	-0.53665
916.000	2.34539	-0.54463	2.39868	-0.50287
917.000	2.32171	-0.55060	2.43025	-0.54261
918.000	2.38881	-0.51480	2.36118	-0.57841
919.000	2.33552	-0.54265	2.50130	-0.49687
920.000	2.34737	-0.50289	2.44012	-0.54658
921.000	2.35921	-0.53071	2.47367	-0.56644
922.000	2.34539	-0.50687	2.46972	-0.56843
923.000	2.34342	-0.54066	2.36513	-0.58438
924.000	2.33750	-0.53470	2.44012	-0.59031
925.000	2.38092	-0.49095	2.39671	-0.49691
926.000	2.36710	-0.56847	2.46183	-0.56645
927.000	2.35526	-0.52475	2.36908	-0.54264
928.000	2.35131	-0.51879	2.47170	-0.57638
929.000	2.37500	-0.48301	2.41249	-0.54858
930.000	2.40460	-0.52672	2.41841	-0.56249
931.000	2.34539	-0.49892	2.42236	-0.57044
932.000	2.38881	-0.50288	2.36315	-0.60823
933.000	2.32171	-0.50489	2.44604	-0.56248
934.000	2.34342	-0.50091	2.41249	-0.55653
935.000	2.31184	-0.53272	2.48946	-0.55650
936.000	2.34539	-0.52078	2.37302	-0.58437
937.000	2.39868	-0.51082	2.39868	-0.64200
938.000	2.35329	-0.53072	2.36118	-0.58438
939.000	2.39078	-0.49493	2.48551	-0.57637
940.000	2.36513	-0.49494	2.43420	-0.59230
941.000	2.38684	-0.48698	2.42039	-0.61615
942.000	2.40460	-0.50685	2.37105	-0.49295
943.000	2.37894	-0.53269	2.48354	-0.52272
944.000	2.42236	-0.49690	2.51313	-0.53860
945.000	2.41052	-0.48697	2.42828	-0.58634
946.000	2.40263	-0.52672	2.41052	-0.59231
947.000	2.37500	-0.48698	2.37697	-0.53071
948.000	2.44210	-0.47901	2.43025	-0.60621
949.000	2.41052	-0.48498	2.41052	-0.54461
950.000	2.40855	-0.43927	2.37697	-0.55456
951.000	2.43815	-0.44125	2.39078	-0.62809
952.000	2.37500	-0.47108	2.42631	-0.62012
953.000	2.43420	-0.44721	2.43223	-0.59230
954.000	2.42433	-0.46113	2.28815	-0.53273
955.000	2.43420	-0.50286	2.33947	-0.56252
956.000	2.37500	-0.53270	2.39276	-0.53865
957.000	2.40263	-0.45517	2.38092	-0.60822
958.000	2.41841	-0.45914	2.38486	-0.53269
959.000	2.44210	-0.48895	2.34342	-0.52476
960.000	2.42828	-0.48100	2.36315	-0.51879
961.000	2.39868	-0.49095	2.40855	-0.52275
962.000	2.38486	-0.46710	2.34144	-0.52078
963.000	2.38289	-0.42338	2.33552	-0.57445
964.000	2.39276	-0.49691	2.38486	-0.47108
965.000	2.41644	-0.43529	2.43025	-0.57044
966.000	2.40657	-0.42933	2.49735	-0.60419
967.000	2.40460	-0.46710	2.37894	-0.52474
968.000	2.37105	-0.48301	2.37105	-0.56847
969.000	2.34539	-0.47507	2.37500	-0.53667
970.000	2.36908	-0.48102	2.46183	-0.50484
971.000	2.41249	-0.44722	2.39276	-0.49691
972.000	2.39671	-0.45915	2.38684	-0.54859
973.000	2.42039	-0.44523	2.34144	-0.58836
974.000	2.39473	-0.46511	2.35329	-0.58239
975.000	2.40657	-0.44921	2.34539	-0.59233
976.000	2.41644	-0.45318	2.35329	-0.52674
977.000	2.42236	-0.44920	2.39078	-0.57642
978.000	2.38881	-0.39555	2.36710	-0.53866
979.000	2.42236	-0.43330	2.42631	-0.53268
980.000	2.41447	-0.44920	2.42039	-0.59826
981.000	2.42433	-0.39951	2.30394	-0.57645
982.000	2.38684	-0.42735	2.36315	-0.63208
983.000	2.43025	-0.43330	2.34934	-0.59233
984.000	2.42236	-0.46908	2.34934	-0.59432
985.000	2.46183	-0.42733	2.30394	-0.62415
986.000	2.41249	-0.42535	2.34934	-0.63805
987.000	2.39276	-0.43729	2.38881	-0.60623
988.000	2.42828	-0.44125	2.39868	-0.62610
989.000	2.41644	-0.43728	2.34737	-0.63407
990.000	2.44604	-0.41938	2.39078	-0.53269
991.000	2.43618	-0.41938	2.42039	-0.58435
992.000	2.42039	-0.43330	2.31381	-0.61222
993.000	2.40657	-0.40946	2.39078	-0.58834
994.000	2.40657	-0.38759	2.41249	-0.55852
995.000	2.41841	-0.38759	2.34934	-0.52078
996.000	2.40263	-0.46113	2.32171	-0.65595
997.000	2.42433	-0.39554	2.31184	-0.69173
998.000	2.39671	-0.43530	2.44604	-0.62608
999.000	2.42039	-0.39753	2.44407	-0.52671
1000.000	2.39671	-0.40151	2.32763	-0.60029
1001.000	2.38289	-0.41145	2.44210	-0.65589
1002.000	2.42236	-0.39355	2.42236	-0.58435
1003.000	2.42631	-0.39951	2.30394	-0.68378
1004.000	2.42631	-0.41740	2.39868	-0.67181
1005.000	2.45196	-0.37565	2.34737	-0.63407
1006.000	2.41644	-0.42337	2.27828	-0.61224
1007.000	2.43815	-0.38162	2.30394	-0.68577
1008.000	2.44012	-0.42733	2.35526	-0.70562
1009.000	2.44407	-0.39354	2.37105	-0.67580
1010.000	2.44999	-0.43727	2.36908	-0.67580
1011.000	2.38881	-0.40747	2.36710	-0.57444
1012.000	2.41249	-0.38958	2.30789	-0.67980
1013.000	2.38289	-0.39157	2.30986	-0.60427
1014.000	2.43025	-0.37566	2.38092	-0.63008
1015.000	2.44012	-0.38361	2.32763	-0.57644
1016.000	2.43223	-0.38162	2.31579	-0.61222
1017.000	2.44802	-0.37566	2.32368	-0.62414
1018.000	2.43815	-0.39752	2.39078	-0.61418
1019.000	2.47762	-0.35776	2.30592	-0.72751
1020.000	2.41447	-0.37368	2.35131	-0.67780
1021.000	2.47170	-0.36571	2.32565	-0.65594
1022.000	2.43025	-0.33392	2.35723	-0.64997
1023.000	2.43815	-0.33789	2.35329	-0.70761
1024.000	2.45986	-0.39155	2.37105	-0.67381
1025.000	2.44407	-0.37566	2.38289	-0.66387
1026.000	2.41841	-0.36374	2.32565	-0.64601
1027.000	2.43223	-0.37765	2.30197	-0.68378
1028.000	2.43815	-0.38162	2.35329	-0.69767
1029.000	2.46972	-0.40347	2.28618	-0.69373
1030.000	2.42433	-0.36572	2.32565	-0.75929
1031.000	2.44407	-0.38361	2.30394	-0.68974
1032.000	2.45394	-0.33988	2.35921	-0.71357
1033.000	2.41447	-0.43330	2.34934	-0.74934
1034.000	2.46183	-0.38758	2.29802	-0.70366
1035.000	2.44210	-0.37963	2.26841	-0.70169
1036.000	2.45986	-0.39354	2.31184	-0.65993
1037.000	2.45788	-0.32795	2.28815	-0.71360
1038.000	2.48551	-0.38558	2.43815	-0.71551
1039.000	2.42433	-0.35380	2.33552	-0.62613
1040.000	2.45986	-0.33789	2.29013	-0.64006
1041.000	2.43618	-0.37765	2.41841	-0.69167
1042.000	2.45986	-0.39553	2.29605	-0.81098
1043.000	2.43223	-0.35976	2.41052	-0.75130
1044.000	2.47959	-0.38360	2.28618	-0.69969
1045.000	2.44210	-0.35976	2.29013	-0.67385
1046.000	2.47170	-0.36372	2.30789	-0.74937
1047.000	2.45591	-0.33988	2.26249	-0.77722
1048.000	2.44999	-0.35578	2.37894	-0.66188
1049.000	2.46775	-0.38559	2.32368	-0.71358
1050.000	2.43223	-0.36572	2.29605	-0.72751
1051.000	2.49143	-0.36968	2.33355	-0.75532
1052.000	2.47170	-0.38757	2.31973	-0.68974
1053.000	2.45394	-0.36373	2.35329	-0.76127
1054.000	2.47564	-0.39950	2.36513	-0.75729
1055.000	2.46972	-0.40347	2.35526	-0.81493
1056.000	2.43815	-0.40945	2.30197	-0.73943
1057.000	2.43025	-0.37765	2.33552	-0.71557
1058.000	2.47367	-0.37764	2.24275	-0.71959
1059.000	2.51708	-0.35974	2.31381	-0.72750
1060.000	2.49538	-0.36570	2.31381	-0.57446
1061.000	2.46972	-0.34385	2.34539	-0.72351
1062.000	2.47367	-0.33789	2.33750	-0.66786
1063.000	2.47367	-0.34186	2.30789	-0.78315
1064.000	2.45788	-0.36770	2.28223	-0.68379
1065.000	2.41447	-0.32796	2.31579	-0.65794
1066.000	2.40855	-0.35579	2.25262	-0.70169
1067.000	2.29013	-0.36576	2.20722	-0.69774
1068.000	2.07889	-0.39961	2.08482	-0.75147
1069.000	1.89723	-0.37182	1.91105	-0.69191
1070.000	1.62466	-0.41959	1.61083	-0.75962
1071.000	1.33424	-0.37987	1.44093	-0.83922
1072.000	1.00026	-0.34611	1.02398	-0.80753
1073.000	0.62273	-0.33221	0.62075	-0.79965
1074.000	0.24119	-0.24072	0.25305	-0.86334
1075.000	-0.33411	-0.25066	-0.21549	-0.81163
1076.000	-0.86981	-0.18301	-0.67808	-0.77379
1077.000	-1.37573	-0.16309	-1.17022	-0.72198
1078.000	-1.89525	-0.21076	-1.57725	-0.75963
1079.000	-2.25854	-0.17493	-2.06705	-0.78129
1080.000	-2.69070	-0.15103	-2.45788	-0.67973
1081.000	-2.99441	-0.16887	-2.85638	-0.68348
1082.000	-3.33736	-0.18868	-3.14817	-0.66344
1083.000	-3.61706	-0.19458	-3.57176	-0.57977
1084.000	-3.93594	-0.24412	-3.92217	-0.68075
1085.000	-4.26441	-0.24204	-4.23885	-0.72015
1086.000	-4.57689	-0.28160	-4.50027	-0.66438
1087.000	-4.80272	-0.26763	-4.88124	-0.72149
1088.000	-5.11275	-0.27147	-5.15982	-0.75090
1089.000	-5.39701	-0.33670	-5.41857	-0.72286
1090.000	-5.68297	-0.36425	-5.75147	-0.85307
1091.000	-6.02534	-0.31853	-6.11331	-0.81889
1092.000	-6.43367	-0.48433	-6.39657	-0.83821
1093.000	-6.62101	-0.42092	-6.80041	-0.86913
1094.000	-6.98162	-0.50353	-7.08094	-0.84098
1095.000	-7.27361	-0.49137	-7.36891	-0.97063
1096.000	-7.52441	-0.56012	-7.60406	-0.88139
1097.000	-7.68174	-0.61314	-7.98249	-0.90029
1098.000	-7.84478	-0.64640	-8.24019	-0.92727
1099.000	-7.99218	-0.69542	-8.38730	-0.95840
1100.000	-8.04646	-0.69335	-8.56524	-0.90093
1101.000	-8.13173	-0.72865	-8.56717	-0.83995
1102.000	-8.15885	-0.72269	-8.67733	-0.80038
1103.000	-8.02514	-0.62248	-8.53044	-0.71414
1104.000	-7.96116	-0.60485	-8.58457	-0.67273
1105.000	-7.87970	-0.52024	-8.46662	-0.67688
1106.000	-7.73222	-0.47903	-8.38150	-0.57666
1107.000	-7.69145	-0.44753	-8.33118	-0.53146
1108.000	-7.57104	-0.40427	-8.28473	-0.52759
1109.000	-7.56715	-0.36484	-8.07166	-0.50818
1110.000	-7.51664	-0.39446	-7.96504	-0.55165
1111.000	-7.43112	-0.37087	-7.95146	-0.51227
1112.000	-7.51858	-0.42404	-7.93207	-0.64429
1113.000	-7.50498	-0.36489	-7.84672	-0.55575
1114.000	-7.59629	-0.38059	-7.83896	-0.65429
1115.000	-7.60795	-0.39241	-7.81374	-0.71542
1116.000	-7.60600	-0.40030	-7.80209	-0.70953
1117.000	-7.74387	-0.47310	-7.83120	-0.77845
1118.000	-7.85642	-0.46509	-7.86030	-0.77249
1119.000	-7.90298	-0.48277	-7.86418	-0.73110
1120.000	-7.97473	-0.50436	-8.01351	-0.75644
1121.000	-7.98830	-0.52601	-8.03095	-0.78989
1122.000	-8.01545	-0.47082	-8.18597	-0.85455
1123.000	-8.11623	-0.41950	-8.18209	-0.78566
1124.000	-8.10848	-0.50222	-8.20340	-0.72852
1125.000	-8.09491	-0.42740	-8.26537	-0.78549
1126.000	-8.08910	-0.48649	-8.33118	-0.71254
1127.000	-8.13948	-0.49431	-8.41439	-0.73797
1128.000	-8.17241	-0.46473	-8.38537	-0.78131
1129.000	-8.18984	-0.45486	-8.41439	-0.69665
1130.000	-8.14141	-0.41356	-8.44921	-0.78512
1131.000	-8.16079	-0.50806	-8.41439	-0.75764
1132.000	-8.10266	-0.48450	-8.49756	-0.79486
1133.000	-8.12785	-0.48841	-8.50530	-0.78304
1134.000	-8.10072	-0.47072	-8.42793	-0.73991
1135.000	-8.12398	-0.48054	-8.44148	-0.75366
1136.000	-8.14335	-0.53565	-8.37763	-0.72623
1137.000	-8.06197	-0.51016	-8.48596	-0.78308
1138.000	-8.12398	-0.50811	-8.36795	-0.75970
1139.000	-8.07166	-0.50621	-8.43761	-0.77531
1140.000	-8.02514	-0.50823	-8.43761	-0.71038
1141.000	-8.04258	-0.44715	-8.35634	-0.74201
1142.000	-8.00963	-0.47871	-8.32538	-0.79128
1143.000	-8.01545	-0.51416	-8.27892	-0.74216
1144.000	-7.99606	-0.48660	-8.24600	-0.79340
1145.000	-8.00188	-0.47084	-8.31957	-0.71453
1146.000	-7.95728	-0.46498	-8.20727	-0.76592
1147.000	-7.99024	-0.49449	-8.30021	-0.74212
1148.000	-8.00963	-0.47871	-8.26149	-0.84061
1149.000	-7.93207	-0.38422	-8.25375	-0.77370
1150.000	-7.97861	-0.44131	-8.25568	-0.74024
1151.000	-7.92237	-0.47093	-8.24213	-0.77569
1152.000	-7.98055	-0.48465	-8.22470	-0.80132
1153.000	-7.93013	-0.47880	-8.23245	-0.74422
1154.000	-7.96116	-0.45512	-8.20921	-0.77379
1155.000	-8.01545	-0.49052	-8.27117	-0.72249
1156.000	-7.96892	-0.42950	-8.21308	-0.75410
1157.000	-7.96116	-0.44724	-8.23438	-0.72649
1158.000	-7.98637	-0.44918	-8.23632	-0.77374
1159.000	-8.00188	-0.43341	-8.22858	-0.70485
1160.000	-7.96504	-0.44133	-8.27698	-0.69295
1161.000	-8.01545	-0.44127	-8.23632	-0.71271
1162.000	-7.94952	-0.36844	-8.30602	-0.78541
1163.000	-7.97473	-0.41570	-8.30796	-0.68896
1164.000	-8.01157	-0.41961	-8.31376	-0.72044
1165.000	-7.99800	-0.45114	-8.27892	-0.62209
1166.000	-7.96892	-0.47284	-8.31570	-0.72635
1167.000	-8.03677	-0.40579	-8.24213	-0.70286
1168.000	-8.01351	-0.43536	-8.31763	-0.75390
1169.000	-7.94177	-0.41968	-8.31763	-0.72044
1170.000	-7.98830	-0.45115	-8.27698	-0.71461
1171.000	-7.99606	-0.42159	-8.25762	-0.70480
1172.000	-8.04258	-0.45503	-8.26343	-0.70873
1173.000	-8.06778	-0.49045	-8.29634	-0.71851
1174.000	-7.99994	-0.45508	-8.36795	-0.70460
1175.000	-7.96892	-0.43738	-8.32731	-0.71255
1176.000	-7.99218	-0.41569	-8.33118	-0.65349
1177.000	-8.02320	-0.45111	-8.38924	-0.68882
1178.000	-8.01351	-0.46294	-8.32925	-0.71845
1179.000	-8.03289	-0.42746	-8.24407	-0.79144
1180.000	-8.04258	-0.38215	-8.27892	-0.73625
1181.000	-8.04840	-0.41169	-8.31376	-0.74997
1182.000	-8.05421	-0.44320	-8.28085	-0.67917
1183.000	-7.99606	-0.45508	-8.32538	-0.68893
1184.000	-8.00769	-0.43931	-8.30215	-0.72637
1185.000	-7.97279	-0.42950	-8.31376	-0.70667
1186.000	-8.01157	-0.45113	-8.29441	-0.69292
1187.000	-7.97473	-0.43344	-8.30989	-0.72439
1188.000	-7.98637	-0.43145	-8.32731	-0.70271
1189.000	-8.01157	-0.40976	-8.31183	-0.72045
1190.000	-8.00963	-0.45507	-8.36021	-0.69674
1191.000	-7.97861	-0.40191	-8.26537	-0.65557
1192.000	-7.93013	-0.42363	-8.35634	-0.67313
1193.000	-7.99800	-0.42947	-8.34667	-0.74400
1194.000	-7.91656	-0.38621	-8.29441	-0.69686
1195.000	-7.91849	-0.41970	-8.34280	-0.62789
1196.000	-7.98637	-0.42554	-8.28473	-0.75986
1197.000	-7.93013	-0.39605	-8.36989	-0.74396
1198.000	-7.89716	-0.36849	-8.30796	-0.77753
1199.000	-7.88552	-0.36653	-8.33893	-0.67316
1200.000	-7.89134	-0.35864	-8.40472	-0.65534
1201.000	-7.93207	-0.43151	-8.35634	-0.68101
1202.000	-7.88552	-0.38033	-8.32925	-0.70270
1203.000	-7.90686	-0.42365	-8.36215	-0.70855
1204.000	-7.90104	-0.38031	-8.36215	-0.73019
1205.000	-7.86612	-0.34093	-8.36989	-0.66917
1206.000	-7.87776	-0.40398	-8.33118	-0.76371
1207.000	-7.92237	-0.40197	-8.39117	-0.66323
1208.000	-7.87194	-0.36063	-8.40085	-0.72028
1209.000	-7.87000	-0.32319	-8.35634	-0.66329
1210.000	-7.86612	-0.35275	-8.35828	-0.73414
1211.000	-7.89716	-0.40593	-8.31570	-0.74800
1212.000	-7.92043	-0.37241	-8.41439	-0.77929
1213.000	-7.96116	-0.41966	-8.36408	-0.72035
1214.000	-7.95922	-0.34282	-8.37569	-0.68884
1215.000	-7.92237	-0.32709	-8.37956	-0.75968
1216.000	-7.97861	-0.42358	-8.42793	-0.69662
1217.000	-7.92625	-0.31132	-8.47049	-0.67293
1218.000	-7.94759	-0.40391	-8.33699	-0.72434
1219.000	-7.97473	-0.37433	-8.36408	-0.68690
1220.000	-7.86224	-0.35867	-8.42020	-0.77337
1221.000	-7.91074	-0.40198	-8.36215	-0.70658
1222.000	-7.95534	-0.36253	-8.32925	-0.60036
1223.000	-7.91462	-0.42562	-8.39504	-0.70258
1224.000	-7.90492	-0.37637	-8.38730	-0.72424
1225.000	-7.96116	-0.38617	-8.34086	-0.68694
1226.000	-7.90686	-0.40789	-8.42793	-0.65136
1227.000	-7.91268	-0.33301	-8.38537	-0.74196
1228.000	-7.92043	-0.36059	-8.33699	-0.74992
1229.000	-7.99800	-0.40977	-8.43374	-0.69268
1230.000	-7.93789	-0.37043	-8.40665	-0.72027
1231.000	-7.94565	-0.42164	-8.42987	-0.73597
1232.000	-7.99218	-0.38417	-8.41439	-0.75371
1233.000	-8.01738	-0.36444	-8.36989	-0.71837
1234.000	-7.92237	-0.40197	-8.42213	-0.70057
1235.000	-7.95534	-0.35465	-8.43180	-0.67497
1236.000	-7.92237	-0.38817	-8.33893	-0.68497
1237.000	-7.91656	-0.38424	-8.41052	-0.65336
1238.000	-7.93401	-0.40195	-8.41826	-0.71828
1239.000	-7.91074	-0.33104	-8.30989	-0.66140
1240.000	-7.98637	-0.43145	-8.39504	-0.72029
1241.000	-7.92431	-0.40984	-8.34667	-0.78139
1242.000	-7.99412	-0.39204	-8.43954	-0.67299
1243.000	-7.93983	-0.40786	-8.36215	-0.71445
1244.000	-7.93789	-0.40195	-8.39311	-0.68094
1245.000	-7.93401	-0.36452	-8.33118	-0.61216
1246.000	-7.90298	-0.35666	-8.44148	-0.65724
1247.000	-7.95922	-0.40784	-8.37569	-0.71639
1248.000	-7.93013	-0.34679	-8.40085	-0.62976
1249.000	-7.89910	-0.35076	-8.44534	-0.71823
1250.000	-7.95922	-0.38617	-8.42407	-0.70056
1251.000	-7.97279	-0.33690	-8.34667	-0.70070
1252.000	-7.95728	-0.38814	-8.36215	-0.77152
1253.000	-7.97861	-0.36842	-8.47242	-0.71425
1254.000	-7.92043	-0.40394	-8.39504	-0.68094
1255.000	-8.01157	-0.42355	-8.42213	-0.68679
1256.000	-7.96892	-0.42359	-8.43567	-0.71628
1257.000	-7.99024	-0.43933	-8.42020	-0.72615
1258.000	-7.95922	-0.40193	-8.41826	-0.70057
1259.000	-7.95534	-0.42755	-8.43374	-0.70448
1260.000	-7.92819	-0.34876	-8.50917	-0.65516
1261.000	-7.98249	-0.43343	-8.50917	-0.70238
1262.000	-7.95146	-0.38617	-8.36795	-0.68295
1263.000	-7.93013	-0.36452	-8.34473	-0.74597
1264.000	-7.99994	-0.36446	-8.39311	-0.75769
1265.000	-8.01157	-0.40385	-8.38537	-0.78525
1266.000	-8.03289	-0.38807	-8.40472	-0.71831
1267.000	-7.97473	-0.40191	-8.43567	-0.63167
1268.000	-8.01351	-0.39400	-8.39891	-0.71045
1269.000	-8.02902	-0.35458	-8.41633	-0.72025
1270.000	-7.98249	-0.35068	-8.36408	-0.72232
1271.000	-8.02708	-0.37822	-8.36021	-0.71642
1272.000	-8.03677	-0.38412	-8.36795	-0.67508
1273.000	-8.04065	-0.40776	-8.39311	-0.73801
1274.000	-8.11235	-0.43920	-8.45115	-0.69855
1275.000	-8.00963	-0.39991	-8.35054	-0.68298
1276.000	-8.02514	-0.41171	-8.38730	-0.67505
1277.000	-8.03483	-0.34867	-8.42020	-0.76550
1278.000	-8.02902	-0.38216	-8.40665	-0.66321
1279.000	-8.00188	-0.35264	-8.44341	-0.66708
1280.000	-8.02126	-0.36838	-8.38343	-0.68293
1281.000	-7.99994	-0.32309	-8.41633	-0.75961
1282.000	-8.06972	-0.39788	-8.39311	-0.71439
1283.000	-8.03289	-0.35852	-8.41052	-0.66910
1284.000	-8.06584	-0.43531	-8.46275	-0.65918
1285.000	-8.01351	-0.42157	-8.38343	-0.61798
1286.000	-8.02126	-0.38611	-8.36989	-0.72231
1287.000	-7.99024	-0.39993	-8.38343	-0.64554
1288.000	-8.01545	-0.39005	-8.35441	-0.65936
1289.000	-8.07747	-0.38409	-8.39311	-0.75572
1290.000	-8.08328	-0.41953	-8.44341	-0.61789
1291.000	-8.05809	-0.39001	-8.43567	-0.62774
1292.000	-8.05809	-0.44123	-8.32151	-0.72437
1293.000	-8.06584	-0.40182	-8.44534	-0.71627
1294.000	-8.10654	-0.44117	-8.38730	-0.66127
1295.000	-8.10266	-0.45102	-8.39311	-0.65929
1296.000	-8.03483	-0.37428	-8.44148	-0.74775
1297.000	-8.12010	-0.41556	-8.39698	-0.71832
1298.000	-8.10072	-0.40179	-8.37956	-0.66719
1299.000	-8.06972	-0.40182	-8.40278	-0.63763
1300.000	-8.10266	-0.45299	-8.42020	-0.68876
1301.000	-8.10460	-0.45890	-8.37956	-0.61012
1302.000	-8.08716	-0.36241	-8.38537	-0.67111
1303.000	-8.06390	-0.45107	-8.37763	-0.60028
1304.000	-8.06778	-0.40970	-8.40472	-0.64747
1305.000	-8.06584	-0.43728	-8.42600	-0.66908
1306.000	-8.08522	-0.41362	-8.33312	-0.63775
1307.000	-8.03677	-0.40776	-8.43180	-0.67694
1308.000	-8.06972	-0.41561	-8.41633	-0.61400
1309.000	-8.05615	-0.39395	-8.42407	-0.66514
1310.000	-8.11041	-0.39390	-8.42213	-0.66121
1311.000	-7.99800	-0.41962	-8.47242	-0.61194
1312.000	-8.05615	-0.39789	-8.38150	-0.72425
1313.000	-8.12010	-0.40768	-8.36795	-0.61998
1314.000	-8.08716	-0.39589	-8.37569	-0.60619
1315.000	-8.13173	-0.40570	-8.42407	-0.69072
1316.000	-8.10654	-0.39981	-8.44341	-0.67495
1317.000	-8.06972	-0.39000	-8.46856	-0.69065
1318.000	-8.09104	-0.38013	-8.37763	-0.71245
1319.000	-8.07941	-0.43135	-8.41246	-0.69271
1320.000	-8.10848	-0.40572	-8.38343	-0.64554
1321.000	-8.12591	-0.42933	-8.41826	-0.67893
1322.000	-8.09491	-0.44512	-8.36408	-0.64163
1323.000	-8.11623	-0.46676	-8.28860	-0.68506
1324.000	-8.11235	-0.40966	-8.42600	-0.64743
1325.000	-8.06972	-0.41167	-8.36408	-0.68296
1326.000	-8.08135	-0.40181	-8.36795	-0.63178
1327.000	-8.13560	-0.43720	-8.39698	-0.66716
1328.000	-8.08716	-0.41165	-8.38343	-0.65341
1329.000	-8.09297	-0.38998	-8.42020	-0.69270
1330.000	-8.10072	-0.41951	-8.37763	-0.61209
1331.000	-8.09297	-0.39786	-8.38537	-0.65144
1332.000	-8.09685	-0.40573	-8.43180	-0.66710
1333.000	-8.04646	-0.38805	-8.39117	-0.71243
1334.000	-8.09685	-0.41164	-8.33893	-0.65151
1335.000	-8.00188	-0.35658	-8.39698	-0.66519
1336.000	-8.07166	-0.42939	-8.35634	-0.70069
1337.000	-8.01545	-0.40581	-8.32151	-0.66138
1338.000	-8.02514	-0.41368	-8.40085	-0.68683
1339.000	-8.00769	-0.38415	-8.39117	-0.60223
1340.000	-8.02320	-0.37626	-8.36021	-0.58063
1341.000	-8.04258	-0.39397	-8.39891	-0.60222
1342.000	-7.99606	-0.37431	-8.39311	-0.59829
1343.000	-7.99024	-0.42751	-8.36021	-0.65541
1344.000	-7.93789	-0.33102	-8.35054	-0.63772
1345.000	-8.00381	-0.38613	-8.35441	-0.61213
1346.000	-8.03483	-0.42352	-8.33893	-0.65151
1347.000	-7.88164	-0.36851	-8.35247	-0.59048
1348.000	-7.95340	-0.44922	-8.33505	-0.65939
1349.000	-8.04840	-0.37032	-8.31183	-0.65943
1350.000	-7.99800	-0.36052	-8.41633	-0.66713
1351.000	-7.99412	-0.38416	-8.29441	-0.69686
1352.000	-7.98443	-0.39402	-8.37182	-0.68098
1353.000	-7.97473	-0.40782	-8.38730	-0.63372
1354.000	-7.99412	-0.40189	-8.28473	-0.67522
1355.000	-8.01157	-0.39006	-8.37763	-0.61603
1356.000	-8.06972	-0.42546	-8.39891	-0.72422
1357.000	-7.99800	-0.40780	-8.35441	-0.69085
1358.000	-7.97861	-0.37630	-8.31183	-0.62400
1359.000	-8.04840	-0.45502	-8.36989	-0.63178
1360.000	-7.96504	-0.42556	-8.33118	-0.66727
1361.000	-8.05421	-0.37820	-8.28279	-0.66145
1362.000	-7.97861	-0.37039	-8.39504	-0.60025
1363.000	-8.07359	-0.44712	-8.30796	-0.59055
1364.000	-8.09297	-0.44316	-8.31183	-0.63581
1365.000	-8.07166	-0.45106	-8.31763	-0.62399
1366.000	-8.13560	-0.39782	-8.37956	-0.61012
1367.000	-8.06778	-0.43137	-8.28473	-0.54531
1368.000	-8.11623	-0.46282	-8.28473	-0.69097
1369.000	-8.07747	-0.38015	-8.32731	-0.62201
1370.000	-8.07553	-0.37621	-8.33699	-0.62396
1371.000	-8.09297	-0.41755	-8.31763	-0.67910
1372.000	-8.07166	-0.39788	-8.30989	-0.67715
1373.000	-8.11041	-0.44314	-8.37569	-0.69081
1374.000	-8.06972	-0.49439	-8.31957	-0.59643
1375.000	-8.10266	-0.47269	-8.31957	-0.64564
1376.000	-8.09491	-0.49239	-8.36989	-0.63572
1377.000	-8.10266	-0.41951	-8.36408	-0.67706
1378.000	-8.07166	-0.42545	-8.25762	-0.66937
1379.000	-8.09491	-0.45694	-8.40472	-0.69863
1380.000	-8.09491	-0.46679	-8.34473	-0.65741
1381.000	-8.10848	-0.45496	-8.37376	-0.65342
1382.000	-8.09685	-0.44709	-8.26149	-0.66345
1383.000	-8.06778	-0.46879	-8.36602	-0.70657
1384.000	-8.12010	-0.48448	-8.32925	-0.69286
1385.000	-8.09491	-0.43134	-8.37569	-0.67113
1386.000	-8.05034	-0.43729	-8.42600	-0.64743
1387.000	-7.98830	-0.43539	-8.33699	-0.65939
1388.000	-8.15691	-0.52579	-8.36215	-0.67312
1389.000	-8.14916	-0.44113	-8.34667	-0.68693
1390.000	-8.09491	-0.49633	-8.32151	-0.71453
1391.000	-8.14141	-0.42932	-8.27892	-0.70870
1392.000	-8.11235	-0.47268	-8.31763	-0.71650
1393.000	-8.06584	-0.44910	-8.33505	-0.70466
1394.000	-8.06390	-0.42940	-8.34280	-0.70268
1395.000	-8.08328	-0.45892	-8.37376	-0.75576
1396.000	-8.06584	-0.44122	-8.31570	-0.70666
1397.000	-8.08910	-0.45498	-8.32538	-0.69287
1398.000	-8.09879	-0.50420	-8.31570	-0.65746
1399.000	-8.12204	-0.39586	-8.32925	-0.71845
1400.000	-8.08328	-0.45892	-8.28860	-0.69490
1401.000	-8.08716	-0.48255	-8.28666	-0.69294
1402.000	-8.11041	-0.46086	-8.31183	-0.74210
1403.000	-8.01351	-0.46294	-8.33699	-0.72827
1404.000	-8.06003	-0.49046	-8.37182	-0.69475
1405.000	-8.11429	-0.47661	-8.37376	-0.69081
1406.000	-8.11816	-0.46282	-8.29441	-0.73426
1407.000	-8.04452	-0.45109	-8.36215	-0.71248
1408.000	-8.02126	-0.43930	-8.32538	-0.74798
1409.000	-8.05809	-0.45107	-8.31376	-0.62990
1410.000	-8.05421	-0.43926	-8.31376	-0.73225
1411.000	-8.05421	-0.43926	-8.29441	-0.75985
1412.000	-8.14529	-0.51399	-8.28860	-0.66144
1413.000	-8.06778	-0.45106	-8.30602	-0.66338
1414.000	-8.11623	-0.48055	-8.37182	-0.71640
1415.000	-8.03871	-0.46094	-8.28085	-0.65948
1416.000	-8.12010	-0.50418	-8.27505	-0.65556
1417.000	-8.06003	-0.43925	-8.26730	-0.63785
1418.000	-8.10848	-0.49631	-8.29441	-0.63978
1419.000	-8.04646	-0.43139	-8.34086	-0.71055
1420.000	-8.03871	-0.45306	-8.26730	-0.62998
1421.000	-7.98830	-0.38811	-8.38730	-0.69669
1422.000	-8.06778	-0.41167	-8.34086	-0.65151
1423.000	-8.06003	-0.39986	-8.26537	-0.69888
1424.000	-8.12010	-0.46479	-8.32344	-0.64170
1425.000	-8.03095	-0.41762	-8.30602	-0.66535
1426.000	-8.08910	-0.49634	-8.25956	-0.66346
1427.000	-8.07941	-0.43332	-8.34667	-0.65347
1428.000	-8.06584	-0.42743	-8.27698	-0.64965
1429.000	-8.08522	-0.47074	-8.27505	-0.67721
1430.000	-8.10848	-0.42738	-8.32925	-0.72435
1431.000	-8.04258	-0.48458	-8.28085	-0.67129
1432.000	-8.06197	-0.48258	-8.32538	-0.72239
1433.000	-8.07747	-0.50226	-8.23245	-0.72453
1434.000	-8.11429	-0.47464	-8.34860	-0.69676
1435.000	-8.09297	-0.46876	-8.26924	-0.67525
1436.000	-8.07747	-0.44908	-8.28279	-0.63980
1437.000	-8.03289	-0.42943	-8.31763	-0.73815
1438.000	-8.06972	-0.46485	-8.33312	-0.63775
1439.000	-8.11816	-0.50221	-8.30408	-0.67125
1440.000	-8.12010	-0.51599	-8.30408	-0.65748
1441.000	-8.11041	-0.47465	-8.26730	-0.70084
1442.000	-8.11041	-0.45692	-8.31376	-0.67517
1443.000	-8.15304	-0.52777	-8.24407	-0.69498
1444.000	-8.10072	-0.46875	-8.25956	-0.69692
1445.000	-8.09297	-0.44119	-8.22858	-0.62020
1446.000	-8.13948	-0.47068	-8.28860	-0.64372
1447.000	-8.12785	-0.47069	-8.28085	-0.69688
1448.000	-8.13560	-0.49037	-8.30602	-0.72833
1449.000	-8.16660	-0.48246	-8.27117	-0.71462
1450.000	-8.13754	-0.49825	-8.26730	-0.69100
1451.000	-8.14141	-0.48643	-8.37182	-0.67311
1452.000	-8.13173	-0.43327	-8.31376	-0.68502
1453.000	-8.12785	-0.41161	-8.34860	-0.72235
1454.000	-8.12204	-0.46873	-8.33118	-0.69483
1455.000	-8.17628	-0.48835	-8.23245	-0.78162
1456.000	-8.13173	-0.45099	-8.27311	-0.68509
1457.000	-8.12591	-0.42737	-8.31763	-0.71256
1458.000	-8.17435	-0.51198	-8.31763	-0.63383
1459.000	-8.06972	-0.46879	-8.20340	-0.72261
1460.000	-8.08135	-0.49438	-8.24213	-0.71861
1461.000	-8.12785	-0.42342	-8.30021	-0.66929
1462.000	-8.12010	-0.46676	-8.22083	-0.70880
1463.000	-8.14335	-0.50218	-8.25568	-0.64771
1464.000	-8.14141	-0.41159	-8.26149	-0.66148
1465.000	-8.08328	-0.48059	-8.28473	-0.67129
1466.000	-8.10654	-0.48253	-8.35828	-0.64755
1467.000	-8.11235	-0.48252	-8.26343	-0.72644
1468.000	-8.10072	-0.46284	-8.27698	-0.70083
1469.000	-8.15885	-0.49231	-8.31183	-0.68699
1470.000	-8.12398	-0.43328	-8.25568	-0.63984
1471.000	-8.08522	-0.42347	-8.31957	-0.66729
1472.000	-8.08716	-0.48452	-8.22858	-0.68516
1473.000	-8.13366	-0.47068	-8.32731	-0.65744
1474.000	-8.06778	-0.42940	-8.35441	-0.65739
1475.000	-8.13948	-0.44507	-8.29247	-0.68112
1476.000	-8.13173	-0.45296	-8.27892	-0.70870
1477.000	-8.13560	-0.39978	-8.28666	-0.64570
1478.000	-8.18790	-0.48637	-8.20921	-0.66945
1479.000	-8.14335	-0.45098	-8.31957	-0.66729
1480.000	-8.16272	-0.45096	-8.27505	-0.63587
1481.000	-8.17241	-0.46079	-8.25568	-0.70087
1482.000	-8.20534	-0.44697	-8.30602	-0.63976
1483.000	-8.07553	-0.44711	-8.33118	-0.63775
1484.000	-8.06390	-0.40773	-8.31763	-0.65155
1485.000	-8.13173	-0.43130	-8.28279	-0.62799
1486.000	-8.15885	-0.39976	-8.28279	-0.59255
1487.000	-8.16660	-0.42732	-8.24019	-0.61624
1488.000	-8.12591	-0.41949	-8.30602	-0.63779
1489.000	-8.16660	-0.42535	-8.29247	-0.62403
1490.000	-8.16660	-0.43914	-8.27698	-0.60831
1491.000	-8.18016	-0.48047	-8.29441	-0.57285
1492.000	-8.14529	-0.42734	-8.29247	-0.64765
1493.000	-8.11429	-0.38405	-8.31957	-0.59250
1494.000	-8.10072	-0.42542	-8.25956	-0.61621
1495.000	-8.11816	-0.41359	-8.32151	-0.61611
1496.000	-8.08135	-0.43726	-8.30408	-0.65944
1497.000	-8.04452	-0.41760	-8.32731	-0.62988
1498.000	-8.17241	-0.47064	-8.33699	-0.63577
1499.000	-8.08328	-0.42544	-8.31376	-0.60432
1500.000	-8.06197	-0.44713	-8.32151	-0.67910
1501.000	-8.14723	-0.48445	-8.36021	-0.58653
1502.000	-8.14335	-0.42144	-8.32344	-0.57871
1503.000	-8.04840	-0.43139	-8.29053	-0.62404
1504.000	-8.06972	-0.43136	-8.26924	-0.65557
1505.000	-8.14335	-0.50612	-8.31957	-0.56494
1506.000	-8.06972	-0.44712	-8.27117	-0.61816
1507.000	-8.13754	-0.47068	-8.28473	-0.61027
1508.000	-8.12591	-0.43130	-8.34280	-0.62592
1509.000	-8.12785	-0.46084	-8.30215	-0.56497
1510.000	-8.03677	-0.44322	-8.27311	-0.63587
1511.000	-8.13560	-0.46083	-8.28666	-0.64963
1512.000	-8.08522	-0.44120	-8.35634	-0.64755
1513.000	-8.12010	-0.49039	-8.31957	-0.60037
1514.000	-8.06778	-0.43137	-8.27892	-0.62405
1515.000	-8.17628	-0.43125	-8.35441	-0.66723
1516.000	-8.05809	-0.44910	-8.30796	-0.64172
1517.000	-8.03871	-0.42155	-8.34860	-0.59836
1518.000	-8.10654	-0.45299	-8.21115	-0.68519
1519.000	-8.02514	-0.42747	-8.36021	-0.58063
1520.000	-8.07553	-0.45499	-8.36795	-0.56487
1521.000	-8.07941	-0.43529	-8.33505	-0.65349
1522.000	-8.11041	-0.41753	-8.29828	-0.61025
1523.000	-8.02902	-0.43141	-8.28860	-0.59648
1524.000	-8.03871	-0.38215	-8.34280	-0.63970
1525.000	-8.03483	-0.46489	-8.36795	-0.62194
1526.000	-8.01157	-0.44325	-8.40665	-0.57465
1527.000	-8.06778	-0.39000	-8.33505	-0.62987
1528.000	-8.04065	-0.39988	-8.38730	-0.69473
1529.000	-8.02708	-0.39201	-8.33699	-0.66333
1530.000	-8.02126	-0.42354	-8.33118	-0.69483
1531.000	-8.01351	-0.39006	-8.34280	-0.65544
1532.000	-8.11623	-0.39980	-8.37763	-0.74001
1533.000	-8.04452	-0.42351	-8.39311	-0.58058
1534.000	-8.00769	-0.35657	-8.35054	-0.69479
1535.000	-8.01545	-0.45900	-8.31957	-0.74996
1536.000	-8.03483	-0.43928	-8.35054	-0.65346
1537.000	-8.01738	-0.39596	-8.39311	-0.67110
1538.000	-8.02126	-0.47081	-8.36795	-0.69476
1539.000	-8.03095	-0.36640	-8.32151	-0.66926
1540.000	-8.08716	-0.47074	-8.33118	-0.64169
1541.000	-7.99218	-0.41372	-8.33893	-0.60034
1542.000	-8.04452	-0.44321	-8.35634	-0.63180
1543.000	-8.04452	-0.41366	-8.32538	-0.67122
1544.000	-8.07747	-0.47666	-8.24600	-0.65757
1545.000	-7.98249	-0.40782	-8.10654	-0.64402
1546.000	-7.84672	-0.44539	-8.10266	-0.63615
1547.000	-7.64291	-0.36674	-7.87582	-0.54980
1548.000	-7.33390	-0.38279	-7.63514	-0.53829
1549.000	-7.09262	-0.25665	-7.45250	-0.61938
1550.000	-6.78676	-0.24694	-7.16853	-0.49741
1551.000	-6.42391	-0.11862	-6.79066	-0.33780
1552.000	-5.96081	-0.06530	-6.29112	-0.39944
1553.000	-5.63990	-0.01584	-5.96277	-0.30273
1554.000	-5.06960	0.11890	-5.47343	-0.23764
1555.000	-4.65349	0.16260	-4.97740	-0.21405
1556.000	-4.23885	0.21625	-4.47276	-0.15074
1557.000	-3.75881	0.26204	-4.17789	-0.14286
1558.000	-3.34524	0.37536	-3.73125	-0.07345
1559.000	-2.92737	0.44703	-3.23489	-0.01589
1560.000	-2.56838	0.44120	-2.72423	0.04372
1561.000	-2.16576	0.48109	-2.41052	0.00596
1562.000	-1.90908	0.53286	-2.11443	0.04771
1563.000	-1.57527	0.52102	-1.67207	0.05767
1564.000	-1.24334	0.51314	-1.30460	0.00994
1565.000	-0.92318	0.52712	-1.09117	-0.07558
1566.000	-0.66820	0.50925	-0.73145	-0.12333
1567.000	-0.35388	0.50330	-0.45865	-0.02586
1568.000	-0.10083	0.50530	-0.34202	-0.01592
1569.000	0.01186	0.49735	0.03361	-0.14921
1570.000	0.31434	0.51723	0.19177	-0.16711
1571.000	0.49819	0.45555	0.34004	-0.11340
1572.000	0.61285	0.43366	0.51401	-0.17307
1573.000	0.82238	0.48337	0.62075	-0.15716
1574.000	0.84412	0.50923	0.65436	-0.15715
1575.000	0.91923	0.57088	0.71959	-0.12334
1576.000	0.93109	0.57684	0.71168	-0.15516
1577.000	0.91330	0.55894	0.59308	-0.10345
1578.000	0.86586	0.59475	0.53180	-0.06963
1579.000	0.71564	0.59875	0.50017	0.00796
1580.000	0.57331	0.62662	0.45865	0.02785
1581.000	0.43889	0.67636	0.27085	-0.00995
1582.000	0.34993	0.67835	0.14037	0.00000
1583.000	0.29655	0.67836	0.20561	-0.02785
1584.000	0.18188	0.67041	0.01582	0.00597
1585.000	0.12060	0.63261	0.04943	-0.06764
1586.000	0.06129	0.64057	0.05536	0.00000
1587.000	0.04943	0.63659	0.04943	-0.01989
1588.000	0.08106	0.59084	0.07513	-0.06565
1589.000	0.12060	0.59283	0.12455	-0.01790
1590.000	0.17398	0.60277	0.23131	-0.04974
1591.000	0.20956	0.55702	0.34202	-0.03979
1592.000	0.29655	0.52917	0.42900	-0.13528
1593.000	0.35190	0.49734	0.48633	-0.03183
1594.000	0.50610	0.51722	0.60296	-0.15318
1595.000	0.64250	0.56495	0.63459	-0.07957
1596.000	0.67413	0.53908	0.60692	-0.05570
1597.000	0.79668	0.48536	0.73936	-0.00597
1598.000	0.82040	0.52315	0.70378	-0.00199
1599.000	0.90342	0.56690	0.72947	0.12930
1600.000	0.96271	0.55894	0.78680	0.02188
1601.000	0.97654	0.52313	0.85796	0.02387
1602.000	1.06153	0.63847	0.81249	0.00796
1603.000	1.05362	0.56489	0.76308	0.04177
1604.000	1.01607	0.58876	0.77494	-0.03780
1605.000	0.94887	0.55496	0.76505	0.04575
1606.000	0.99829	0.57683	0.73540	0.11936
1607.000	0.97062	0.60468	0.69785	0.09151
1608.000	1.00421	0.59274	0.69587	-0.01393
1609.000	0.94690	0.57485	0.57727	0.07162
1610.000	0.87179	0.59674	0.66424	0.04774
1611.000	0.94097	0.58678	0.72157	-0.00995
1612.000	0.93109	0.61463	0.62668	0.02387
1613.000	0.92713	0.60270	0.67610	-0.06764
1614.000	0.87772	0.57287	0.63657	-0.05570
1615.000	0.89156	0.57486	0.58122	0.00995
1616.000	0.83424	0.58481	0.58913	-0.00796
1617.000	0.85796	0.57089	0.55157	-0.05968
1618.000	0.86586	0.59276	0.55157	-0.06963
1619.000	0.79075	0.55299	0.52587	-0.15517
1620.000	0.77098	0.55300	0.52587	-0.09947
1621.000	0.81052	0.57885	0.43296	-0.03382
1622.000	0.82040	0.55896	0.50808	0.02188
1623.000	0.78482	0.57487	0.52191	-0.05371
1624.000	0.76901	0.57885	0.49424	-0.05769
1625.000	0.71564	0.56693	0.47842	-0.05371
1626.000	0.75517	0.55499	0.49424	-0.10345
1627.000	0.80459	0.56294	0.42702	-0.10345
1628.000	0.74331	0.55300	0.48633	-0.03183
1629.000	0.74331	0.60472	0.38156	-0.01790
1630.000	0.75912	0.59079	0.52191	0.00597
1631.000	0.75517	0.58482	0.51598	-0.04178
1632.000	0.74529	0.53510	0.54366	-0.02188
1633.000	0.74133	0.57289	0.38749	0.00398
1634.000	0.73343	0.51123	0.50808	0.05172
1635.000	0.71564	0.51322	0.51994	-0.00199
1636.000	0.73145	0.55499	0.47842	0.04774
1637.000	0.73936	0.54703	0.53971	-0.01393
1638.000	0.75122	0.54504	0.59308	0.00995
1639.000	0.72750	0.54505	0.55157	0.04774
1640.000	0.78284	0.57289	0.46063	-0.03183
1641.000	0.74924	0.55499	0.50017	-0.02586
1642.000	0.73540	0.55897	0.49028	0.06764
1643.000	0.70773	0.57091	0.60889	-0.02785
1644.000	0.73738	0.52117	0.54564	0.06366
1645.000	0.79866	0.59476	0.54761	0.10146
1646.000	0.78284	0.57090	0.47447	0.00398
1647.000	0.79075	0.51520	0.49028	0.09151
1648.000	0.77296	0.57289	0.54959	0.03979
1649.000	0.78087	0.58681	0.56540	0.00796
1650.000	0.79866	0.55697	0.48831	0.01393
1651.000	0.78087	0.58681	0.54564	0.06167
1652.000	0.81645	0.58283	0.52784	-0.03979
1653.000	0.80656	0.57885	0.56145	0.00597
1654.000	0.79075	0.57090	0.52389	0.02188
1655.000	0.82238	0.56890	0.53773	0.01790
1656.000	0.78877	0.59476	0.52191	0.00199
1657.000	0.84412	0.57288	0.56343	0.00199
1658.000	0.79273	0.57288	0.52389	0.02586
1659.000	0.75319	0.52316	0.51598	0.00199
1660.000	0.80063	0.54305	0.45668	-0.04377
1661.000	0.74133	0.53311	0.55552	-0.02188
1662.000	0.77296	0.54504	0.56145	0.00199
1663.000	0.73145	0.56692	0.61285	-0.02188
1664.000	0.76110	0.54106	0.46459	-0.05968
1665.000	0.75912	0.56095	0.49226	-0.10743
1666.000	0.79866	0.57487	0.51401	-0.12135
1667.000	0.73936	0.59278	0.59308	-0.07758
1668.000	0.78680	0.53907	0.56343	-0.08156
1669.000	0.73936	0.55897	0.60099	-0.06565
1670.000	0.71959	0.56494	0.57133	-0.09549
1671.000	0.74529	0.55698	0.55354	-0.04973
1672.000	0.74133	0.58284	0.53378	-0.02785
1673.000	0.79470	0.54703	0.52982	-0.12135
1674.000	0.77098	0.51918	0.56936	-0.06167
1675.000	0.71761	0.56693	0.50610	-0.05570
1676.000	0.74924	0.53709	0.52587	-0.03780
1677.000	0.70575	0.57290	0.51203	-0.07361
1678.000	0.72947	0.59676	0.58913	-0.09350
1679.000	0.73145	0.57488	0.49424	-0.03780
1680.000	0.74924	0.57687	0.51401	-0.08156
1681.000	0.76308	0.53907	0.51203	-0.05968
1682.000	0.73343	0.57090	0.50808	-0.08554
1683.000	0.75912	0.59477	0.55750	-0.02984
1684.000	0.75517	0.63455	0.55750	-0.00199
1685.000	0.75122	0.56493	0.45865	-0.05769
1686.000	0.77098	0.53708	0.45668	-0.07759
1687.000	0.79273	0.56095	0.53378	0.00597
1688.000	0.74924	0.61466	0.53180	-0.05371
1689.000	0.68994	0.54903	0.60692	-0.04774
1690.000	0.74529	0.56891	0.53378	-0.06366
1691.000	0.73738	0.57289	0.57133	-0.02387
1692.000	0.76703	0.57885	0.52784	-0.02387
1693.000	0.73540	0.56096	0.58320	-0.12732
1694.000	0.77889	0.57090	0.54564	-0.02785
1695.000	0.67610	0.54306	0.57133	-0.10345
1696.000	0.74331	0.55897	0.60692	-0.02984
1697.000	0.74133	0.57886	0.49424	-0.03183
1698.000	0.69587	0.59080	0.63262	-0.08355
1699.000	0.73738	0.60074	0.55552	-0.06565
1700.000	0.73540	0.60273	0.57529	-0.04377
1701.000	0.74726	0.57886	0.61878	-0.04973
1702.000	0.71959	0.58483	0.52389	-0.03780
1703.000	0.72157	0.58881	0.54564	-0.03581
1704.000	0.77691	0.60073	0.52389	-0.04774
1705.000	0.71168	0.55300	0.56343	-0.06565
1706.000	0.72947	0.54505	0.56738	-0.04973
1707.000	0.69982	0.53112	0.58715	-0.03382
1708.000	0.74331	0.58880	0.61482	-0.00398
1709.000	0.73738	0.52913	0.62668	-0.03979
1710.000	0.72947	0.57687	0.62668	-0.06167
1711.000	0.71564	0.60273	0.61285	-0.09151
1712.000	0.72552	0.55698	0.57924	-0.07559
1713.000	0.73343	0.54703	0.60099	-0.14323
1714.000	0.66622	0.54306	0.56540	-0.10146
1715.000	0.77889	0.59477	0.59901	-0.05769
1716.000	0.71761	0.57488	0.60889	-0.01393
1717.000	0.74726	0.58880	0.57331	-0.16909
1718.000	0.74726	0.57090	0.59110	-0.03780
1719.000	0.73343	0.59079	0.57133	-0.02785
1720.000	0.74133	0.58681	0.54959	-0.09151
1721.000	0.71366	0.60671	0.63064	0.03382
1722.000	0.74529	0.59477	0.55552	-0.05769
1723.000	0.74331	0.59676	0.55947	0.04774
1724.000	0.74331	0.58085	0.60889	-0.08753
1725.000	0.71761	0.58483	0.57133	0.02387
1726.000	0.70575	0.64052	0.54366	-0.00199
1727.000	0.69982	0.57886	0.48831	-0.03183
1728.000	0.72947	0.57488	0.60296	0.01194
1729.000	0.75319	0.63853	0.56540	-0.03382
1730.000	0.73936	0.61864	0.61680	0.04178
1731.000	0.73145	0.57289	0.50017	0.00995
1732.000	0.73738	0.59875	0.62471	-0.10146
1733.000	0.75715	0.62460	0.52389	0.02188
1734.000	0.72552	0.60472	0.57529	-0.06167
1735.000	0.74331	0.61864	0.56145	-0.08554
1736.000	0.75912	0.66041	0.60494	-0.00995
1737.000	0.76505	0.58681	0.56936	0.03382
1738.000	0.74133	0.60074	0.58122	0.02785
1739.000	0.79470	0.64648	0.60494	0.00597
1740.000	0.76703	0.63057	0.63657	0.02387
1741.000	0.78284	0.65841	0.55157	-0.04377
1742.000	0.81249	0.65443	0.53378	-0.00199
1743.000	0.82435	0.65642	0.58517	0.04774
1744.000	0.78284	0.61664	0.57727	-0.00796
1745.000	0.80656	0.61465	0.55750	0.00000
1746.000	0.79866	0.58880	0.60692	-0.03183
1747.000	0.74726	0.59676	0.59308	0.00398
1748.000	0.73738	0.61267	0.59703	-0.03780
1749.000	0.72947	0.63455	0.55552	-0.01989
1750.000	0.81645	0.63653	0.56738	-0.02984
1751.000	0.83028	0.65244	0.56738	0.07361
1752.000	0.73343	0.59278	0.62668	-0.00796
1753.000	0.76703	0.62659	0.60494	-0.04774
1754.000	0.75715	0.63057	0.58517	0.05968
1755.000	0.76110	0.60670	0.63064	-0.01591
1756.000	0.81249	0.62857	0.59901	0.01591
1757.000	0.76308	0.59875	0.61285	0.01393
1758.000	0.76703	0.59278	0.59308	-0.04575
1759.000	0.75319	0.64052	0.56343	-0.08156
1760.000	0.77494	0.62261	0.57727	-0.04178
1761.000	0.72157	0.63058	0.66227	-0.04575
1762.000	0.75122	0.58482	0.63064	-0.01790
1763.000	0.71761	0.52317	0.61285	-0.05570
1764.000	0.75715	0.60272	0.53773	-0.01790
1765.000	0.79075	0.59079	0.63459	0.03581
1766.000	0.76505	0.62261	0.62471	-0.04178
1767.000	0.71366	0.56096	0.60692	-0.03979
1768.000	0.75517	0.59676	0.61482	0.00995
1769.000	0.75122	0.59278	0.60494	-0.01393
1770.000	0.79273	0.60073	0.53773	-0.05769
1771.000	0.75319	0.59875	0.63459	0.01591
1772.000	0.72354	0.58284	0.63657	-0.02387
1773.000	0.71959	0.60074	0.67610	-0.02387
1774.000	0.72354	0.59477	0.64250	-0.00398
1775.000	0.73343	0.54504	0.56145	-0.04575
1776.000	0.73540	0.60869	0.56343	-0.05968
1777.000	0.71959	0.57289	0.65238	-0.06764
1778.000	0.71168	0.58483	0.65831	-0.06167
1779.000	0.74529	0.59278	0.63064	-0.09151
1780.000	0.72947	0.55101	0.57924	-0.00796
1781.000	0.70575	0.58483	0.63855	0.03979
1782.000	0.74133	0.60869	0.64843	-0.07758
1783.000	0.65436	0.56494	0.69587	-0.03382
1784.000	0.73343	0.59875	0.55552	-0.02984
1785.000	0.72552	0.59079	0.61285	-0.03581
1786.000	0.72157	0.52913	0.59110	-0.04178
1787.000	0.65041	0.57887	0.66820	-0.05769
1788.000	0.64645	0.52516	0.68796	-0.07161
1789.000	0.72552	0.56295	0.53378	0.01989
1790.000	0.68401	0.54107	0.61285	-0.02984
1791.000	0.66227	0.52914	0.57529	-0.05371
1792.000	0.69785	0.55698	0.60889	0.01591
1793.000	0.68599	0.55102	0.65436	-0.05968
1794.000	0.70773	0.53709	0.68599	-0.00796
1795.000	0.67808	0.55500	0.68401	-0.00995
1796.000	0.73145	0.56891	0.66029	-0.04575
1797.000	0.69785	0.54306	0.59901	-0.08753
1798.000	0.70378	0.58085	0.61482	-0.01591
1799.000	0.70971	0.53112	0.54366	-0.07162
1800.000	0.74133	0.60869	0.64250	0.02586
1801.000	0.73738	0.54902	0.60099	-0.02387
1802.000	0.68994	0.57091	0.62668	0.00796
1803.000	0.70180	0.55499	0.66820	-0.05769
1804.000	0.73738	0.57289	0.55947	-0.00398
1805.000	0.66029	0.59080	0.63855	-0.00597
1806.000	0.71168	0.59279	0.59506	-0.01591
1807.000	0.76901	0.62460	0.66227	0.01591
1808.000	0.69192	0.51919	0.60889	0.06167
1809.000	0.71959	0.58284	0.62471	0.03581
1810.000	0.74726	0.57289	0.64645	-0.05172
1811.000	0.70378	0.58085	0.63064	0.03183
1812.000	0.72750	0.56891	0.64250	-0.02785
1813.000	0.72947	0.60273	0.69982	-0.06167
1814.000	0.71761	0.59278	0.68203	-0.01194
1815.000	0.73936	0.59875	0.69389	-0.01989
1816.000	0.76901	0.58482	0.60692	-0.00199
1817.000	0.72552	0.56096	0.66424	-0.03581
1818.000	0.73343	0.56494	0.54564	-0.02785
1819.000	0.70575	0.54903	0.63657	-0.00796
1820.000	0.74529	0.55101	0.67610	0.06565
1821.000	0.72947	0.57289	0.64052	0.03183
1822.000	0.74529	0.56692	0.54959	0.03581
1823.000	0.69587	0.53113	0.65634	-0.00199
1824.000	0.73145	0.57687	0.60692	0.03979
1825.000	0.70773	0.61268	0.66424	-0.02188
1826.000	0.74726	0.60471	0.64448	0.01591
1827.000	0.72552	0.55101	0.60889	0.06963
1828.000	0.73738	0.54902	0.60099	0.01790
1829.000	0.74726	0.56294	0.71761	-0.00995
1830.000	0.73936	0.58085	0.67215	0.04376
1831.000	0.76703	0.59477	0.68796	0.08554
1832.000	0.75319	0.54902	0.60692	0.06963
1833.000	0.73738	0.59875	0.58715	0.09947
1834.000	0.75319	0.62858	0.67808	-0.07758
1835.000	0.70773	0.56892	0.66622	0.02188
1836.000	0.73738	0.51720	0.63262	0.11339
1837.000	0.72354	0.54902	0.61087	0.09549
1838.000	0.75912	0.57488	0.65634	0.03780
1839.000	0.72947	0.54107	0.56936	0.12533
1840.000	0.74133	0.59676	0.57924	0.01591
1841.000	0.73540	0.56692	0.65041	0.09748
1842.000	0.71366	0.53709	0.61285	0.08952
1843.000	0.75715	0.57289	0.59110	-0.00199
1844.000	0.76901	0.54504	0.57529	0.09549
1845.000	0.72354	0.55300	0.67215	0.09151
1846.000	0.71761	0.58085	0.67808	0.04376
1847.000	0.74331	0.60273	0.66227	0.11140
1848.000	0.76308	0.58681	0.66029	0.13925
1849.000	0.75912	0.61267	0.62866	0.03183
1850.000	0.70378	0.59080	0.69192	0.08952
1851.000	0.74726	0.54305	0.63855	0.04376
1852.000	0.72552	0.57289	0.72157	0.10344
1853.000	0.74331	0.56692	0.63064	0.05968
1854.000	0.73738	0.58880	0.61087	0.10941
1855.000	0.70575	0.56494	0.57529	0.05570
1856.000	0.67017	0.55301	0.62668	0.08753
1857.000	0.76703	0.55300	0.64448	0.08554
1858.000	0.73343	0.55300	0.59110	0.12931
1859.000	0.72354	0.57289	0.66424	0.12732
1860.000	0.77098	0.57289	0.57529	0.04774
1861.000	0.68796	0.53908	0.57727	0.12135
1862.000	0.69587	0.51919	0.71761	0.05769
1863.000	0.70378	0.51720	0.58320	0.05968
1864.000	0.68599	0.57489	0.67413	0.03581
1865.000	0.67610	0.55301	0.58913	0.09748
1866.000	0.71564	0.57488	0.64448	0.09549
1867.000	0.69785	0.52118	0.64645	0.04178
1868.000	0.68796	0.56096	0.60296	0.07758
1869.000	0.68994	0.51322	0.64250	0.08753
1870.000	0.68796	0.56892	0.68994	0.04973
1871.000	0.67610	0.55301	0.63262	0.08355
1872.000	0.70971	0.51521	0.58715	0.00199
1873.000	0.66622	0.53312	0.65041	0.06167
1874.000	0.75122	0.56294	0.57727	0.08753
1875.000	0.72157	0.55897	0.65041	0.09748
1876.000	0.69587	0.52118	0.57133	-0.00199
1877.000	0.68203	0.57887	0.72157	0.05570
1878.000	0.71761	0.56295	0.58517	0.08355
1879.000	0.69389	0.57091	0.58320	0.07559
1880.000	0.67017	0.53113	0.51796	0.06167
1881.000	0.68401	0.56892	0.55354	0.13329
1882.000	0.70378	0.53311	0.64448	0.04774
1883.000	0.68994	0.56096	0.67017	0.03581
1884.000	0.70971	0.57488	0.72750	0.07161
1885.000	0.82633	0.59476	0.67413	0.02586
1886.000	0.89353	0.54104	0.78680	0.07161
1887.000	1.00026	0.55495	0.95480	0.10145
1888.000	1.20184	0.44752	1.19394	0.05569
1889.000	1.41722	0.42560	1.29472	0.04972
1890.000	1.69775	0.36390	1.59898	-0.02784
1891.000	2.03546	0.30021	1.86958	-0.12328
1892.000	2.29210	0.22860	2.15589	-0.17296
1893.000	2.68478	0.18879	2.48946	-0.25838
1894.000	3.00624	0.08344	2.82877	-0.27023
1895.000	3.29795	0.00000	3.13437	-0.44694
1896.000	3.59933	-0.07148	3.34721	-0.52629
1897.000	3.75881	-0.15683	3.59933	-0.60953
1898.000	3.93004	-0.24412	3.76865	-0.68682
1899.000	4.01858	-0.27585	4.05005	-0.76993
1900.000	4.09923	-0.29170	4.06972	-0.87705
1901.000	4.03431	-0.38697	3.99300	-0.90689
1902.000	3.91823	-0.39100	4.00874	-0.91481
1903.000	3.82967	-0.36722	3.91036	-1.05381
1904.000	3.61509	-0.36334	3.65250	-1.09382
1905.000	3.39843	-0.37335	3.56783	-1.01254
1906.000	3.20730	-0.35356	3.26051	-0.99897
1907.000	3.12649	-0.33770	3.13437	-0.97923
1908.000	2.91554	-0.29207	2.91159	-0.90594
1909.000	2.79129	-0.30601	2.71240	-0.95576
1910.000	2.66308	-0.22456	2.63743	-0.91012
1911.000	2.64533	-0.21065	2.51905	-0.89630
1912.000	2.58417	-0.23451	2.46775	-0.81486
1913.000	2.56641	-0.30209	2.52695	-0.80091
1914.000	2.57627	-0.27029	2.47762	-0.77113
1915.000	2.63349	-0.23848	2.55852	-0.72538
1916.000	2.69070	-0.31597	2.56641	-0.74127
1917.000	2.82088	-0.25632	2.72818	-0.75509
1918.000	2.84060	-0.24837	2.83271	-0.67356
1919.000	2.91948	-0.27617	2.80313	-0.75305
1920.000	2.99835	-0.22847	2.94511	-0.76686
1921.000	3.03581	-0.24436	3.04961	-0.70720
1922.000	3.10481	-0.22845	3.01609	-0.68736
1923.000	3.08706	-0.21455	3.04567	-0.70919
1924.000	3.16000	-0.20063	3.07327	-0.71910
1925.000	3.17182	-0.16884	3.14817	-0.72104
1926.000	3.12846	-0.16289	3.09101	-0.72505
1927.000	3.16000	-0.18076	3.14029	-0.64557
1928.000	3.16985	-0.18076	3.08904	-0.71115
1929.000	3.23883	-0.18869	3.17379	-0.67534
1930.000	3.21715	-0.18075	3.15803	-0.70514
1931.000	3.22701	-0.20657	3.11269	-0.73298
1932.000	3.25263	-0.20458	3.09889	-0.83825
1933.000	3.21321	-0.22842	3.09692	-0.78264
1934.000	3.25263	-0.22643	3.14620	-0.81041
1935.000	3.22109	-0.27609	3.18168	-0.82230
1936.000	3.19153	-0.30590	3.14226	-0.77665
1937.000	3.25460	-0.28601	3.05552	-0.75884
1938.000	3.24080	-0.26814	3.07721	-0.70321
1939.000	3.24474	-0.28403	3.11466	-0.81640
1940.000	3.26248	-0.28800	3.02201	-0.75886
1941.000	3.20927	-0.29596	3.06932	-0.81444
1942.000	3.21321	-0.31781	3.07918	-0.82040
1943.000	3.17971	-0.29994	3.14029	-0.83822
1944.000	3.18562	-0.36747	3.09692	-0.86805
1945.000	3.23489	-0.32972	3.08509	-0.82238
1946.000	3.17971	-0.27610	3.03778	-0.83830
1947.000	3.20139	-0.29795	3.11269	-0.86208
1948.000	3.18956	-0.30788	3.02989	-0.84824
1949.000	3.20927	-0.32178	3.07918	-0.80252
1950.000	3.13437	-0.35160	3.08509	-0.81840
1951.000	3.16197	-0.32378	3.04764	-0.89192
1952.000	3.10875	-0.30195	3.06735	-0.86807
1953.000	3.19744	-0.26815	2.98652	-0.84430
1954.000	3.20336	-0.27014	2.98258	-0.80060
1955.000	3.19744	-0.31185	3.00821	-0.87408
1956.000	3.18956	-0.32973	2.99244	-0.82841
1957.000	3.20139	-0.31980	2.99835	-0.83436
1958.000	3.19350	-0.31185	2.98258	-0.76286
1959.000	3.21715	-0.27609	3.00624	-0.87805
1960.000	3.17576	-0.28604	3.05947	-0.76877
1961.000	3.20730	-0.25425	3.02398	-0.80653
1962.000	3.17774	-0.30391	3.06144	-0.82239
1963.000	3.16788	-0.27213	3.03384	-0.76680
1964.000	3.13832	-0.32975	2.99244	-0.77478
1965.000	3.17182	-0.30987	3.03778	-0.78467
1966.000	3.21715	-0.26815	3.04567	-0.82837
1967.000	3.15408	-0.25426	2.95892	-0.85425
1968.000	3.17576	-0.30193	2.96483	-0.81055
1969.000	3.16591	-0.31583	3.03384	-0.82837
1970.000	3.20927	-0.26815	3.03187	-0.84625
1971.000	3.17182	-0.23837	3.08115	-0.77670
1972.000	3.17971	-0.26617	3.08706	-0.81443
1973.000	3.20336	-0.29993	3.00032	-0.83237
1974.000	3.13043	-0.25625	3.07918	-0.83033
1975.000	3.21124	-0.27212	3.06341	-0.82637
1976.000	3.22109	-0.29397	3.06932	-0.82835
1977.000	3.19744	-0.28802	2.95497	-0.84234
1978.000	3.20336	-0.30986	3.10678	-0.83825
1979.000	3.22306	-0.24034	3.06735	-0.80650
1980.000	3.15014	-0.32577	3.04961	-0.78069
1981.000	3.17576	-0.29795	3.06538	-0.88198
1982.000	3.18168	-0.28603	3.08312	-0.81245
1983.000	3.19350	-0.29596	3.05158	-0.82637
1984.000	3.20730	-0.28801	3.04961	-0.81247
1985.000	3.24671	-0.25424	3.03187	-0.84625
1986.000	3.20533	-0.27014	3.04172	-0.85419
1987.000	3.18759	-0.27610	3.02595	-0.75290
1988.000	3.17971	-0.29994	3.10678	-0.82435
1989.000	3.22898	-0.29595	3.04961	-0.83631
1990.000	3.22109	-0.25226	3.00229	-0.76682
1991.000	3.21715	-0.29198	3.16591	-0.79054
1992.000	3.20336	-0.26617	3.01215	-0.77873
1993.000	3.18562	-0.24432	3.02398	-0.83831
1994.000	3.24080	-0.22047	2.99046	-0.80854
1995.000	3.23489	-0.27808	3.02792	-0.81050
1996.000	3.18168	-0.28206	3.07129	-0.81643
1997.000	3.18365	-0.28603	3.08706	-0.84025
1998.000	3.19153	-0.29199	3.07918	-0.80252
1999.000	3.19350	-0.27213	3.06932	-0.82040
2000.000	3.22898	-0.27212	3.09692	-0.73498
2001.000	3.18956	-0.25822	3.01609	-0.80257
2002.000	3.21124	-0.24829	2.95892	-0.76089
2003.000	3.19153	-0.30391	2.99835	-0.79463
2004.000	3.20927	-0.30788	2.98258	-0.78471
2005.000	3.20139	-0.27213	3.04172	-0.80255
2006.000	3.20730	-0.30390	3.03187	-0.86016
2007.000	3.21124	-0.24829	3.02989	-0.81845
2008.000	3.20336	-0.23836	3.11072	-0.85016
2009.000	3.18562	-0.26617	2.94511	-0.82050
2010.000	3.19153	-0.26816	3.03384	-0.83632
2011.000	3.26445	-0.23636	3.02595	-0.82044
2012.000	3.19941	-0.28603	3.05947	-0.79856
2013.000	3.23686	-0.28006	3.02595	-0.78270
2014.000	3.19350	-0.29000	2.97863	-0.80657
2015.000	3.18956	-0.29001	3.05947	-0.82041
2016.000	3.19744	-0.24432	3.04961	-0.85418
2017.000	3.19941	-0.27610	3.05552	-0.82041
2018.000	3.20139	-0.28802	3.08904	-0.80053
2019.000	3.23095	-0.26417	2.96089	-0.84631
2020.000	3.20139	-0.30391	3.04172	-0.90384
2021.000	3.22701	-0.27013	3.00624	-0.83237
2022.000	3.23686	-0.26616	2.95892	-0.84234
2023.000	3.19350	-0.28405	3.00229	-0.89792
2024.000	3.21715	-0.22445	3.01807	-0.84825
2025.000	3.23292	-0.23835	3.03187	-0.85221
2026.000	3.20927	-0.30788	3.04369	-0.85419
2027.000	3.23095	-0.25821	3.01412	-0.88400
2028.000	3.20927	-0.26021	2.98061	-0.84232
2029.000	3.20336	-0.24829	3.04369	-0.93165
2030.000	3.24671	-0.26417	3.10678	-0.95344
2031.000	3.21518	-0.25623	3.06932	-0.86807
2032.000	3.24868	-0.26814	3.02398	-0.79859
2033.000	3.23095	-0.28602	3.03778	-0.87207
2034.000	3.22504	-0.28801	3.12255	-0.92959
2035.000	3.18759	-0.31583	3.04961	-0.82240
2036.000	3.22109	-0.25424	3.01609	-0.88996
2037.000	3.25263	-0.27807	2.99046	-0.86615
2038.000	3.20139	-0.28206	3.04764	-0.88398
2039.000	3.21321	-0.29000	3.04172	-0.84823
2040.000	3.20336	-0.26418	3.04369	-0.86412
2041.000	3.24080	-0.30389	3.10086	-0.89784
2042.000	3.21321	-0.29000	3.01412	-0.86216
2043.000	3.20927	-0.27610	3.04961	-0.85220
2044.000	3.22701	-0.21253	3.06735	-0.88793
2045.000	3.22898	-0.29397	3.01215	-0.90387
2046.000	3.22701	-0.29198	3.01609	-0.94160
2047.000	3.24671	-0.30985	3.00229	-0.87011
2048.000	3.27627	-0.28998	3.02004	-0.88797
2049.000	3.22898	-0.26815	3.02004	-0.80256
2050.000	3.24080	-0.26814	2.99046	-0.90786
2051.000	3.22109	-0.25027	3.00821	-0.87805
2052.000	3.21518	-0.29397	3.00032	-0.88402
2053.000	3.26642	-0.27012	3.05552	-0.91178
2054.000	3.23883	-0.26218	3.01609	-0.93564
2055.000	3.25854	-0.27608	3.02398	-0.83633
2056.000	3.20533	-0.27808	3.01018	-0.94359
2057.000	3.25460	-0.27211	2.99835	-0.87011
2058.000	3.23095	-0.28999	3.14226	-0.95539
2059.000	3.26051	-0.27012	3.04764	-0.93164
2060.000	3.24671	-0.28800	3.00032	-0.89395
2061.000	3.22701	-0.29595	2.98455	-0.89992
2062.000	3.22306	-0.28404	3.01018	-0.90188
2063.000	3.26248	-0.29594	3.02792	-0.90981
2064.000	3.24474	-0.28602	3.01215	-0.93167
2065.000	3.25657	-0.31382	3.02792	-0.94954
2066.000	3.25657	-0.27608	3.07721	-0.85019
2067.000	3.26051	-0.31183	3.06538	-0.87999
2068.000	3.29401	-0.30388	3.00624	-0.88600
2069.000	3.25657	-0.25424	3.01412	-0.90784
2070.000	3.27036	-0.22245	3.04764	-0.97137
2071.000	3.29598	-0.25621	3.02201	-0.86414
2072.000	3.24671	-0.28800	3.03384	-0.89789
2073.000	3.30189	-0.26614	3.09101	-0.90579
2074.000	3.22898	-0.28205	3.08312	-0.88395
2075.000	3.23883	-0.28801	2.98652	-0.91382
2076.000	3.28415	-0.31580	3.07524	-0.92368
2077.000	3.26642	-0.28800	3.00229	-0.90785
2078.000	3.27036	-0.33964	3.07918	-0.86210
2079.000	3.28810	-0.33963	3.03384	-0.89988
2080.000	3.29598	-0.29395	3.03384	-0.86810
2081.000	3.25854	-0.27211	3.07918	-0.86608
2082.000	3.30977	-0.26614	3.09692	-0.89188
2083.000	3.30189	-0.27011	3.09298	-0.87997
2084.000	3.30386	-0.26614	2.95695	-0.88405
2085.000	3.25657	-0.28800	3.02792	-0.91180
2086.000	3.29598	-0.32970	3.01215	-0.89791
2087.000	3.26051	-0.26615	3.02792	-0.87406
2088.000	3.26051	-0.30587	3.03187	-0.90584
2089.000	3.28218	-0.28998	3.06932	-0.87999
2090.000	3.26445	-0.31978	3.03187	-0.91577
2091.000	3.28810	-0.30388	3.00229	-0.88401
2092.000	3.31371	-0.27408	3.13240	-0.94944
2093.000	3.29598	-0.32175	3.03778	-0.98925
2094.000	3.28612	-0.35353	3.04172	-0.88001
2095.000	3.28021	-0.30587	2.99835	-0.95155
2096.000	3.28612	-0.30984	3.10283	-0.98919
2097.000	3.24277	-0.33964	3.11860	-0.92960
2098.000	3.27233	-0.33964	2.99835	-0.95751
2099.000	3.24474	-0.33567	3.01807	-0.87407
2100.000	3.28218	-0.30388	2.95103	-0.85625
2101.000	3.28021	-0.25820	3.11466	-0.88789
2102.000	3.28218	-0.32970	3.10086	-0.91372
2103.000	3.29401	-0.32573	3.02004	-0.83633
2104.000	3.31174	-0.27607	3.08509	-0.90182
2105.000	3.30977	-0.28004	3.07129	-0.86012
2106.000	3.26248	-0.32574	3.02989	-0.87009
2107.000	3.25065	-0.36149	3.10875	-0.87201
2108.000	3.34327	-0.28599	3.00821	-0.90784
2109.000	3.30583	-0.29593	3.05947	-0.86609
2110.000	3.30780	-0.31182	3.03975	-0.83632
2111.000	3.25657	-0.34560	3.05355	-0.90582
2112.000	3.31765	-0.30586	2.99835	-0.85621
2113.000	3.32553	-0.28599	3.07129	-0.94155
2114.000	3.32356	-0.29394	3.07524	-0.83232
2115.000	3.33341	-0.29592	3.12058	-0.83228
2116.000	3.29795	-0.31381	3.06735	-0.91177
2117.000	3.29401	-0.29593	3.04369	-0.88597
2118.000	3.34524	-0.31181	3.14029	-0.92759
2119.000	3.31371	-0.31182	3.02989	-0.90187
2120.000	3.32947	-0.33366	3.00821	-0.89990
2121.000	3.34524	-0.31578	3.08509	-0.87799
2122.000	3.27824	-0.35155	3.00032	-0.87607
2123.000	3.31765	-0.32572	3.01215	-0.89990
2124.000	3.26642	-0.32375	3.07524	-0.78266
2125.000	3.29992	-0.28203	3.10875	-0.91967
2126.000	3.34327	-0.31578	2.99244	-0.86217
2127.000	3.36100	-0.28201	3.08509	-0.86806
2128.000	3.35706	-0.35351	2.97666	-0.86219
2129.000	3.32750	-0.28004	2.99441	-0.93765
2130.000	3.35903	-0.34159	3.04369	-0.88001
2131.000	3.30189	-0.34161	3.06341	-0.89191
2132.000	3.32356	-0.32770	3.05355	-0.87404
2133.000	3.32947	-0.27805	3.05552	-0.89589
2134.000	3.29204	-0.33566	3.02201	-0.95153
2135.000	3.33933	-0.32372	3.11269	-0.92563
2136.000	3.34918	-0.28797	3.06144	-0.92965
2137.000	3.32553	-0.32571	3.07918	-0.87799
2138.000	3.34327	-0.33961	3.02201	-0.90585
2139.000	3.32947	-0.30188	3.02201	-0.96543
2140.000	3.31765	-0.32572	3.05355	-0.94157
2141.000	3.27430	-0.34162	3.00426	-0.91579
2142.000	3.37479	-0.30187	2.99441	-0.91580
2143.000	3.32750	-0.33564	3.10086	-0.94947
2144.000	3.34327	-0.32174	3.02989	-0.88995
2145.000	3.29007	-0.32374	3.06341	-0.94950
2146.000	3.36100	-0.34358	3.03778	-0.87604
2147.000	3.35312	-0.29393	3.12452	-0.92363
2148.000	3.29401	-0.30984	3.02989	-0.93365
2149.000	3.34524	-0.28400	3.08509	-0.81245
2150.000	3.31174	-0.31380	3.06932	-0.93957
2151.000	3.31962	-0.29990	3.02201	-0.95153
2152.000	3.32159	-0.29791	3.09692	-0.90380
2153.000	3.31568	-0.28798	3.09692	-0.91373
2154.000	3.33736	-0.30386	3.09692	-0.99515
2155.000	3.36888	-0.32570	3.03384	-0.95946
2156.000	3.34918	-0.32571	3.05355	-0.99321
2157.000	3.31962	-0.39126	3.15803	-0.92758
2158.000	3.33144	-0.34359	3.03581	-0.95549
2159.000	3.35312	-0.23832	3.02004	-0.88996
2160.000	3.30583	-0.33168	3.03581	-0.89590
2161.000	3.33736	-0.32571	3.06538	-0.87205
2162.000	3.35706	-0.25818	3.10283	-0.96933
2163.000	3.25065	-0.32574	3.06144	-0.85020
2164.000	3.29992	-0.30586	3.00821	-0.82839
2165.000	3.31962	-0.28798	3.10875	-0.97925
2166.000	3.33144	-0.27010	3.07327	-0.88594
2167.000	3.32356	-0.29990	3.19547	-0.83619
2168.000	3.43192	-0.24029	3.16591	-0.86402
2169.000	3.54222	-0.25217	3.33341	-0.80431
2170.000	3.74503	-0.28785	3.39252	-0.82610
2171.000	3.90446	-0.28581	3.70172	-0.82979
2172.000	4.23492	-0.32934	3.83361	-0.89714
2173.000	4.55135	-0.34507	4.19363	-0.84914
2174.000	4.91068	-0.37462	4.56706	-0.89828
2175.000	5.26570	-0.46355	4.94796	-0.85023
2176.000	5.73973	-0.46714	5.33234	-0.80218
2177.000	6.15045	-0.44306	5.68688	-0.69878
2178.000	6.43367	-0.51991	6.07617	-0.81697
2179.000	6.88616	-0.42266	6.39462	-0.76903
2180.000	7.26972	-0.45388	6.69512	-0.76264
2181.000	7.54578	-0.56403	7.02642	-0.78777
2182.000	7.76910	-0.53812	7.27166	-0.77157
2183.000	8.05615	-0.50623	7.45639	-0.76533
2184.000	8.34473	-0.50783	7.75357	-0.77662
2185.000	8.49370	-0.47222	7.97861	-0.83924
2186.000	8.62322	-0.46616	8.10266	-0.85670
2187.000	8.85113	-0.43835	8.22858	-0.78360
2188.000	9.04790	-0.48330	8.33505	-0.79913
2189.000	9.15970	-0.47726	8.44148	-0.82055
2190.000	9.26372	-0.39662	8.57684	-0.71995
2191.000	9.36383	-0.44950	8.72562	-0.60956
2192.000	9.52350	-0.48657	8.81445	-0.71557
2193.000	9.53888	-0.45320	8.86850	-0.72922
2194.000	9.59656	-0.50216	8.82024	-0.75290
2195.000	9.56196	-0.46297	8.86464	-0.76853
2196.000	9.48312	-0.48859	8.79707	-0.82371
2197.000	9.37923	-0.50640	8.68505	-0.78857
2198.000	9.28105	-0.47513	8.53044	-0.82823
2199.000	9.13464	-0.44390	8.48983	-0.86373
2200.000	8.99583	-0.46176	8.38730	-0.87183
2201.000	8.87043	-0.42457	8.39117	-0.76753
2202.000	8.75073	-0.40111	8.23826	-0.81310
2203.000	8.69278	-0.40511	8.11816	-0.78184
2204.000	8.62902	-0.43665	8.21502	-0.75409
2205.000	8.53237	-0.42692	8.23245	-0.81115
2206.000	8.56910	-0.46622	8.22470	-0.79345
2207.000	8.58457	-0.42490	8.30215	-0.89170
2208.000	8.63482	-0.46221	8.33505	-0.74402
2209.000	8.70051	-0.45623	8.32925	-0.71648
2210.000	8.72755	-0.46799	8.44148	-0.70250
2211.000	8.84727	-0.50126	8.53237	-0.81249
2212.000	8.93218	-0.45398	8.59810	-0.70418
2213.000	9.00933	-0.46567	8.58843	-0.74747
2214.000	9.12115	-0.44981	8.67539	-0.67061
2215.000	9.15199	-0.48905	8.66767	-0.72175
2216.000	9.24253	-0.47715	8.68699	-0.74924
2217.000	9.31186	-0.45153	8.65607	-0.77880
2218.000	9.35421	-0.50840	8.71983	-0.71575
2219.000	9.34073	-0.48094	8.69665	-0.72169
2220.000	9.36190	-0.48876	8.72948	-0.78651
2221.000	9.40232	-0.48870	8.74493	-0.73733
2222.000	9.37923	-0.50051	8.73141	-0.85728
2223.000	9.38885	-0.50835	8.69858	-0.78461
2224.000	9.37153	-0.46912	8.65801	-0.68834
2225.000	9.38885	-0.46713	8.61743	-0.77888
2226.000	9.34266	-0.49664	8.63095	-0.76901
2227.000	9.36768	-0.45735	8.61356	-0.71595
2228.000	9.36768	-0.46912	8.65414	-0.79256
2229.000	9.34073	-0.44757	8.70051	-0.74528
2230.000	9.35805	-0.45540	8.62709	-0.77296
2231.000	9.31186	-0.45742	8.63482	-0.76901
2232.000	9.32918	-0.47310	8.60390	-0.76120
2233.000	9.29068	-0.49082	8.62322	-0.82606
2234.000	9.28683	-0.46138	8.57297	-0.74356
2235.000	9.28490	-0.44764	8.52850	-0.80660
2236.000	9.28683	-0.49279	8.62516	-0.74149
2237.000	9.24061	-0.47518	8.57104	-0.83994
2238.000	9.23290	-0.48501	8.61936	-0.77494
2239.000	9.25024	-0.44179	8.52077	-0.76530
2240.000	9.18667	-0.45955	8.51110	-0.73975
2241.000	9.23483	-0.46145	8.52850	-0.72791
2242.000	9.23098	-0.43396	8.55364	-0.76327
2243.000	9.17126	-0.49492	8.57104	-0.82224
2244.000	9.19438	-0.46936	8.56910	-0.83011
2245.000	9.15777	-0.46351	8.51690	-0.76334
2246.000	9.17318	-0.49688	8.53624	-0.79674
2247.000	9.20401	-0.46542	8.56524	-0.73178
2248.000	9.15199	-0.45566	8.51497	-0.70040
2249.000	9.14813	-0.47727	8.47629	-0.76933
2250.000	9.17126	-0.44386	8.42987	-0.83828
2251.000	9.15777	-0.45762	8.43567	-0.80482
2252.000	9.17704	-0.46742	8.58457	-0.82615
2253.000	9.17126	-0.49688	8.58070	-0.70814
2254.000	9.13850	-0.47729	8.57684	-0.81436
2255.000	9.16355	-0.45172	8.56717	-0.74357
2256.000	9.16740	-0.42619	8.58070	-0.72191
2257.000	9.15199	-0.50084	8.64834	-0.77488
2258.000	9.19438	-0.51452	8.56910	-0.78488
2259.000	9.20208	-0.50273	8.55557	-0.81637
2260.000	9.16162	-0.48707	8.50723	-0.77320
2261.000	9.20979	-0.50861	8.53624	-0.74363
2262.000	9.22135	-0.53215	8.51110	-0.77516
2263.000	9.15199	-0.45763	8.49370	-0.76339
2264.000	9.19052	-0.50078	8.61549	-0.72775
2265.000	9.20786	-0.49879	8.51884	-0.88333
2266.000	9.21557	-0.48896	8.55364	-0.74360
2267.000	9.20016	-0.43400	8.49950	-0.74961
2268.000	9.21557	-0.49485	8.57684	-0.81633
2269.000	9.22712	-0.53607	8.56524	-0.77702
2270.000	9.24446	-0.47518	8.49950	-0.82043
2271.000	9.22520	-0.49877	8.59037	-0.81237
2272.000	9.24638	-0.49088	8.54010	-0.83608
2273.000	9.23098	-0.49287	8.57297	-0.67669
2274.000	9.21171	-0.46933	8.65221	-0.82403
2275.000	9.22520	-0.49680	8.57684	-0.75929
2276.000	9.21557	-0.47326	8.54784	-0.81246
2277.000	9.22712	-0.47324	8.57490	-0.82223
2278.000	9.20594	-0.50272	8.56524	-0.79275
2279.000	9.21749	-0.45951	8.50143	-0.79682
2280.000	9.19245	-0.45758	8.46469	-0.74181
2281.000	9.20016	-0.46935	8.59230	-0.84776
2282.000	9.20208	-0.47327	8.53044	-0.79282
2283.000	9.23483	-0.51839	8.51303	-0.72991
2284.000	9.17896	-0.50276	8.49176	-0.84995
2285.000	9.18474	-0.46151	8.59037	-0.74353
2286.000	9.20016	-0.49291	8.43567	-0.84811
2287.000	9.18667	-0.44187	8.60583	-0.75137
2288.000	9.20016	-0.48899	8.56910	-0.80848
2289.000	9.19245	-0.43205	8.53817	-0.80854
2290.000	9.18667	-0.48900	8.55944	-0.71605
2291.000	9.21171	-0.51253	8.44534	-0.73004
2292.000	9.20016	-0.46346	8.50917	-0.81451
2293.000	9.15970	-0.49493	8.48596	-0.81455
2294.000	9.21557	-0.48896	8.61163	-0.70219
2295.000	9.19052	-0.44187	8.52270	-0.77710
2296.000	9.18860	-0.44383	8.52270	-0.80464
2297.000	9.18474	-0.41831	8.52270	-0.76923
2298.000	9.16933	-0.48903	8.52270	-0.75743
2299.000	9.18860	-0.47525	8.51110	-0.83614
2300.000	9.20208	-0.46149	8.54204	-0.73969
2301.000	9.20979	-0.47130	8.52077	-0.80071
2302.000	9.22520	-0.49288	8.49563	-0.76339
2303.000	9.19630	-0.46935	8.46662	-0.80476
2304.000	9.20979	-0.50664	8.53817	-0.73970
2305.000	9.25409	-0.50658	8.51110	-0.84598
2306.000	9.20594	-0.47327	8.52464	-0.73382
2307.000	9.21942	-0.46343	8.49370	-0.79683
2308.000	9.21171	-0.51450	8.51497	-0.78892
2309.000	9.23098	-0.47913	8.59037	-0.78680
2310.000	9.21942	-0.53216	8.48016	-0.76342
2311.000	9.23675	-0.54195	8.54010	-0.78493
2312.000	9.19630	-0.44579	8.57297	-0.87141
2313.000	9.21171	-0.50271	8.46856	-0.71819
2314.000	9.21749	-0.45951	8.51303	-0.78106
2315.000	9.23098	-0.48109	8.54590	-0.67870
2316.000	9.21557	-0.46933	8.51884	-0.72793
2317.000	9.23098	-0.48502	8.48403	-0.72406
2318.000	9.20016	-0.52630	8.54204	-0.80460
2319.000	9.18667	-0.51257	8.51303	-0.74171
2320.000	9.20979	-0.47130	8.47242	-0.72408
2321.000	9.21171	-0.49486	8.53430	-0.77708
2322.000	9.17126	-0.49492	8.54010	-0.73182
2323.000	9.20016	-0.47328	8.60003	-0.76711
2324.000	9.19823	-0.49095	8.48983	-0.72208
2325.000	9.21171	-0.51057	8.50143	-0.68272
2326.000	9.24253	-0.48893	8.45115	-0.75167
2327.000	9.19245	-0.53023	8.47436	-0.71424
2328.000	9.21557	-0.50075	8.53237	-0.72004
2329.000	9.21942	-0.50270	8.46856	-0.74377
2330.000	9.20594	-0.50272	8.53237	-0.73381
2331.000	9.21942	-0.46147	8.50337	-0.62960
2332.000	9.23290	-0.48501	8.44534	-0.71233
2333.000	9.23098	-0.48502	8.55750	-0.72786
2334.000	9.21942	-0.50467	8.51303	-0.76532
2335.000	9.23868	-0.46144	8.50917	-0.75156
2336.000	9.23868	-0.47322	8.53237	-0.70430
2337.000	9.23868	-0.49875	8.51884	-0.85776
2338.000	9.21171	-0.48308	8.50723	-0.82041
2339.000	9.24638	-0.42413	8.53817	-0.74757
2340.000	9.21749	-0.45754	8.47629	-0.71818
2341.000	9.23675	-0.48501	8.49563	-0.70437
2342.000	9.22712	-0.50269	8.54397	-0.75149
2343.000	9.23675	-0.45359	8.45502	-0.78708
2344.000	9.21171	-0.48504	8.49563	-0.77912
2345.000	9.21364	-0.47522	8.56137	-0.63540
2346.000	9.19438	-0.47917	8.57684	-0.69635
2347.000	9.23675	-0.47519	8.57104	-0.80061
2348.000	9.21557	-0.44576	8.49756	-0.72797
2349.000	9.22520	-0.45753	8.49950	-0.76731
2350.000	9.19823	-0.50077	8.53624	-0.71610
2351.000	9.18089	-0.50669	8.50530	-0.75550
2352.000	9.18474	-0.50668	8.65994	-0.80435
2353.000	9.17704	-0.49294	8.49756	-0.76732
2354.000	9.18667	-0.51453	8.57490	-0.69832
2355.000	9.18089	-0.47527	8.57877	-0.75142
2356.000	9.15584	-0.52440	8.53237	-0.73774
2357.000	9.19052	-0.50274	8.44341	-0.71627
2358.000	9.20208	-0.51255	8.58650	-0.77107
2359.000	9.23098	-0.51250	8.51884	-0.75547
2360.000	9.23483	-0.51643	8.40859	-0.75766
2361.000	9.21171	-0.47719	8.58263	-0.79271
2362.000	9.19823	-0.49095	8.56717	-0.81242
2363.000	9.21749	-0.51645	8.42407	-0.77140
2364.000	9.19438	-0.50667	8.62709	-0.78672
2365.000	9.20401	-0.48505	8.46469	-0.80673
2366.000	9.24831	-0.48696	8.49950	-0.71026
2367.000	9.23868	-0.49482	8.49950	-0.73387
2368.000	9.25216	-0.50266	8.45695	-0.70050
2369.000	9.22327	-0.50663	8.59617	-0.73958
2370.000	9.23483	-0.45556	8.51690	-0.78302
2371.000	9.22905	-0.47520	8.53044	-0.74758
2372.000	9.23675	-0.43788	8.56330	-0.80062
2373.000	9.19245	-0.48114	8.44921	-0.90120
2374.000	9.18282	-0.48508	8.52270	-0.81054
2375.000	9.22712	-0.50269	8.52077	-0.75940
2376.000	9.23290	-0.45949	8.48403	-0.79685
2377.000	9.18667	-0.46544	8.62322	-0.74740
2378.000	9.21171	-0.46344	8.47629	-0.84802
2379.000	9.24061	-0.52624	8.66380	-0.76108
2380.000	9.21942	-0.47129	8.57297	-0.81830
2381.000	9.24638	-0.49874	8.49370	-0.78896
2382.000	9.20979	-0.48897	8.62709	-0.79262
2383.000	9.26179	-0.47123	8.53237	-0.75544
2384.000	9.23675	-0.52035	8.54204	-0.81247
2385.000	9.20979	-0.48112	8.47049	-0.86574
2386.000	9.16548	-0.50474	8.50143	-0.95025
2387.000	9.05754	-0.59330	8.54977	-1.03864
2388.000	8.90516	-0.66036	8.37956	-1.16698
2389.000	8.75652	-0.79235	8.27117	-1.19289
2390.000	8.49563	-0.99157	8.06778	-1.42187
2391.000	8.20534	-1.15175	7.84478	-1.55656
2392.000	7.90298	-1.34366	7.67398	-1.93933
2393.000	7.55938	-1.56549	7.43695	-2.20439
2394.000	7.24053	-1.84071	7.26777	-2.43181
2395.000	6.92513	-2.13193	6.95825	-2.72512
2396.000	6.58004	-2.47678	6.78676	-3.08275
2397.000	6.30674	-2.73858	6.52150	-3.30510
2398.000	6.02143	-3.02818	6.35362	-3.58791
2399.000	5.75147	-3.34143	6.14458	-3.84933
2400.000	5.51652	-3.62293	5.77105	-4.11393
2401.000	5.30882	-3.95551	5.69863	-4.43533
2402.000	5.10883	-4.19729	5.56744	-4.67637
2403.000	5.01467	-4.44619	5.28530	-4.95393
2404.000	4.83020	-4.66213	5.13629	-5.28337
2405.000	4.68688	-4.87379	5.02841	-5.49443
2406.000	4.59849	-5.09482	4.86554	-5.70585
2407.000	4.51991	-5.36089	4.66135	-5.81353
2408.000	4.48651	-5.58125	4.60046	-5.97492
2409.000	4.45114	-5.73079	4.35681	-6.13187
2410.000	4.45311	-5.82109	4.29783	-6.32447
2411.000	4.39612	-5.96481	4.16806	-6.42350
2412.000	4.35091	-6.07896	4.04021	-6.46763
2413.000	4.28014	-6.17562	3.84148	-6.62394
2414.000	4.15036	-6.29234	3.82377	-6.66912
2415.000	4.08742	-6.31439	3.71550	-6.76785
2416.000	4.02448	-6.26390	3.62099	-6.76856
2417.000	4.02841	-6.27956	3.57373	-6.77282
2418.000	4.03628	-6.21871	3.58949	-6.79032
2419.000	4.06185	-6.19498	3.54616	-6.66335
2420.000	4.07562	-6.14584	3.60918	-6.64722
2421.000	4.12480	-6.08661	3.56586	-6.54369
2422.000	4.16020	-6.03925	3.64069	-6.45299
2423.000	4.24082	-5.92481	3.76275	-6.37958
2424.000	4.23492	-5.89148	3.75094	-6.30711
2425.000	4.28211	-5.81259	3.89659	-6.27859
2426.000	4.28407	-5.83418	3.78046	-6.20097
2427.000	4.30766	-5.75545	3.85723	-6.19650
2428.000	4.29390	-5.74377	3.90839	-6.17847
2429.000	4.27424	-5.74588	3.94971	-6.21544
2430.000	4.28604	-5.79882	3.93004	-6.22343
2431.000	4.27424	-5.85388	3.90249	-6.30012
2432.000	4.22312	-5.88568	3.80408	-6.43809
2433.000	4.18773	-5.95269	3.82574	-6.44185
2434.000	4.19166	-6.00565	3.74109	-6.51695
2435.000	4.09923	-6.03382	3.68203	-6.56049
2436.000	4.08152	-6.06732	3.67416	-6.61345
2437.000	4.06775	-6.13020	3.68991	-6.66034
2438.000	4.05595	-6.13029	3.56586	-6.66516
2439.000	3.99103	-6.23278	3.53631	-6.71630
2440.000	3.98119	-6.24462	3.56192	-6.85317
2441.000	3.99103	-6.24847	3.46344	-6.85976
2442.000	3.96349	-6.28986	3.52647	-6.84756
2443.000	3.96939	-6.27609	3.49101	-6.85956
2444.000	3.96152	-6.27419	3.55404	-6.90803
2445.000	3.95562	-6.34089	3.54025	-6.90226
2446.000	3.97333	-6.35056	3.51465	-6.88875
2447.000	3.99693	-6.32490	3.52450	-6.89063
2448.000	3.95562	-6.32129	3.50086	-6.86144
2449.000	3.96545	-6.35454	3.51071	-6.83005
2450.000	3.96349	-6.33691	3.50677	-6.84183
2451.000	3.95562	-6.34874	3.45162	-6.84027
2452.000	3.98710	-6.29164	3.48708	-6.90656
2453.000	3.97923	-6.28778	3.60721	-6.81956
2454.000	3.98513	-6.29950	3.54813	-6.75538
2455.000	4.01071	-6.30911	3.50283	-6.76942
2456.000	4.03628	-6.25205	3.52450	-6.68505
2457.000	4.00874	-6.27383	3.63478	-6.73713
2458.000	4.04612	-6.25786	3.55798	-6.69656
2459.000	4.09529	-6.28885	3.55207	-6.75144
2460.000	4.08742	-6.29871	3.55798	-6.68873
2461.000	4.07956	-6.24583	3.64659	-6.72333
2462.000	4.11889	-6.20631	3.57176	-6.70430
2463.000	4.10709	-6.24170	3.59343	-6.74722
2464.000	4.11299	-6.22400	3.56586	-6.64753
2465.000	4.06185	-6.21067	3.63281	-6.69602
2466.000	4.14840	-6.18059	3.52647	-6.57532
2467.000	4.12283	-6.21412	3.61115	-6.65700
2468.000	4.14643	-6.15118	3.58161	-6.64154
2469.000	4.12873	-6.14347	3.58358	-6.65132
2470.000	4.13266	-6.13952	3.65447	-6.66060
2471.000	4.19166	-6.12729	3.68203	-6.62122
2472.000	4.10906	-6.10831	3.58161	-6.68268
2473.000	4.10513	-6.11815	3.56783	-6.63577
2474.000	4.14446	-6.08646	3.62690	-6.64709
2475.000	4.14053	-6.10218	3.53828	-6.61051
2476.000	4.13463	-6.09438	3.61903	-6.70199
2477.000	4.12676	-6.07875	3.66038	-6.67427
2478.000	4.14053	-6.07079	3.57570	-6.71406
2479.000	4.13463	-6.02374	3.58161	-6.61412
2480.000	4.08939	-6.07903	3.63478	-6.65683
2481.000	4.15233	-6.09817	3.61312	-6.63152
2482.000	4.08546	-6.07317	3.57570	-6.63767
2483.000	4.12283	-6.11213	3.67416	-6.65458
2484.000	4.06579	-6.06743	3.60918	-6.62959
2485.000	4.11693	-6.14748	3.64462	-6.63129
2486.000	4.05989	-6.08906	3.59736	-6.58657
2487.000	4.10513	-6.14169	3.67810	-6.64868
2488.000	4.04218	-6.14020	3.50677	-6.64404
2489.000	4.08742	-6.13202	3.62296	-6.65104
2490.000	4.07956	-6.18896	3.56586	-6.61031
2491.000	4.07759	-6.14975	3.56192	-6.62013
2492.000	4.08349	-6.14970	3.52450	-6.66546
2493.000	4.07562	-6.16153	3.61115	-6.70793
2494.000	4.07366	-6.14585	3.53238	-6.73983
2495.000	4.05005	-6.12641	3.51071	-6.68710
2496.000	4.03235	-6.13832	3.62099	-6.70394
2497.000	4.07562	-6.15957	3.62887	-6.67254
2498.000	4.06972	-6.16550	3.52056	-6.68899
2499.000	4.09923	-6.12800	3.63675	-6.71753
2500.000	4.05399	-6.16366	3.57570	-6.70231
2501.000	4.05595	-6.11656	3.54616	-6.68293
2502.000	4.07169	-6.16941	3.64659	-6.63911
2503.000	4.04415	-6.10684	3.55010	-6.70837
2504.000	4.06579	-6.17337	3.55798	-6.65543
2505.000	4.01661	-6.15021	3.65053	-6.66651
2506.000	4.05005	-6.15976	3.64069	-6.67246
2507.000	4.03235	-6.14813	3.58555	-6.68461
2508.000	4.04021	-6.20691	3.66431	-6.67424
2509.000	4.05399	-6.11461	3.65447	-6.68802
2510.000	4.06382	-6.15377	3.59736	-6.66690
2511.000	4.04218	-6.12059	3.63084	-6.68820
2512.000	4.03825	-6.13239	3.58358	-6.71596
2513.000	4.05005	-6.11857	3.60327	-6.69623
2514.000	4.04612	-6.11663	3.63281	-6.71952
2515.000	4.00480	-6.15618	3.55995	-6.67108
2516.000	4.05202	-6.10874	3.63084	-6.71561
2517.000	4.00677	-6.14439	3.66431	-6.64094
2518.000	4.01858	-6.18550	3.65053	-6.75071
2519.000	4.06185	-6.15575	3.52056	-6.69291
2520.000	4.04021	-6.14610	3.59736	-6.63359
2521.000	4.04612	-6.10486	3.56783	-6.68670
2522.000	4.05202	-6.15386	3.48314	-6.68142
2523.000	4.06579	-6.10275	3.54222	-6.63987
2524.000	4.07366	-6.11446	3.57373	-6.76499
2525.000	4.05399	-6.18327	3.58752	-6.69243
2526.000	4.08349	-6.15755	3.63478	-6.69600
2527.000	4.05989	-6.14596	3.61115	-6.70793
2528.000	4.13266	-6.08851	3.57964	-6.71991
2529.000	4.07169	-6.16744	3.55601	-6.67503
2530.000	4.09726	-6.14567	3.70172	-6.72096
2531.000	4.10709	-6.09263	3.56192	-6.73570
2532.000	4.06775	-6.13805	3.61706	-6.78425
2533.000	4.07759	-6.11247	3.63872	-6.72731
2534.000	4.07759	-6.10266	3.56389	-6.70631
2535.000	4.07169	-6.10663	3.68400	-6.75242
2536.000	4.08742	-6.12809	3.56389	-6.73569
2537.000	4.07562	-6.15172	3.65841	-6.78002
2538.000	4.03825	-6.13435	3.64462	-6.71747
2539.000	4.03628	-6.12848	3.64462	-6.72922
2540.000	4.06972	-6.15177	3.58358	-6.71008
2541.000	4.06775	-6.09881	3.59146	-6.73744
2542.000	4.08152	-6.14775	3.63478	-6.72342
2543.000	4.06972	-6.12626	3.63281	-6.68426
2544.000	4.04612	-6.10682	3.51662	-6.74386
2545.000	4.07169	-6.07131	3.56586	-6.72196
2546.000	4.09529	-6.07506	3.52450	-6.72030
2547.000	4.12480	-6.10819	3.57964	-6.76103
2548.000	4.08939	-6.11238	3.59736	-6.62576
2549.000	4.09333	-6.13001	3.61312	-6.66678
2550.000	4.06579	-6.10864	3.57373	-6.64160
2551.000	4.04612	-6.12056	3.58752	-6.66893
2552.000	4.09529	-6.10841	3.57373	-6.68470
2553.000	4.07562	-6.13014	3.62887	-6.73913
2554.000	4.08939	-6.17319	3.60918	-6.70794
2555.000	4.08152	-6.13402	3.61706	-6.70201
2556.000	4.08152	-6.10263	3.50874	-6.70083
2557.000	4.08546	-6.11634	3.58161	-6.66113
2558.000	4.06185	-6.13417	3.66234	-6.68992
2559.000	4.01071	-6.15810	3.66038	-6.66839
2560.000	4.03825	-6.15593	3.64856	-6.72136
2561.000	4.06382	-6.12239	3.59933	-6.64533
2562.000	4.07956	-6.13992	3.65053	-6.67042
2563.000	4.07169	-6.15568	3.63281	-6.64705
2564.000	4.05005	-6.15192	3.64659	-6.70375
2565.000	4.06382	-6.14789	3.60918	-6.63743
2566.000	4.07562	-6.14388	3.63478	-6.64704
2567.000	4.07759	-6.13209	3.59146	-6.63168
2568.000	4.09333	-6.08096	3.56389	-6.67105
2569.000	4.09333	-6.13589	3.54222	-6.72801
2570.000	4.05005	-6.10483	3.55404	-6.65937
2571.000	4.11299	-6.10043	3.55010	-6.69074
2572.000	4.10513	-6.14365	3.58752	-6.69831
2573.000	4.05595	-6.17737	3.59146	-6.61405
2574.000	4.06775	-6.14001	3.63872	-6.64505
2575.000	4.09529	-6.16923	3.57373	-6.67490
2576.000	4.06579	-6.14003	3.66038	-6.65860
2577.000	4.05399	-6.16954	3.65053	-6.62733
2578.000	4.10513	-6.15346	3.58949	-6.60230
2579.000	4.06972	-6.16354	3.56783	-6.70432
2580.000	4.10906	-6.16520	3.57373	-6.64160
2581.000	4.08546	-6.11437	3.60918	-6.69227
2582.000	4.07956	-6.16542	3.54616	-6.60653
2583.000	4.09923	-6.18489	3.61706	-6.71963
2584.000	4.05792	-6.14989	3.59736	-6.68844
2585.000	4.08152	-6.14187	3.59933	-6.70018
2586.000	4.03235	-6.16382	3.57570	-6.61416
2587.000	4.08939	-6.13592	3.63675	-6.62547
2588.000	4.07562	-6.14584	3.65053	-6.65671
2589.000	4.04415	-6.08722	3.55601	-6.66719
2590.000	4.04218	-6.21474	3.50086	-6.71460
2591.000	4.06775	-6.16159	3.55601	-6.65152
2592.000	4.02054	-6.17764	3.60524	-6.63941
2593.000	4.04415	-6.15785	3.60721	-6.66095
2594.000	4.06972	-6.13804	3.59933	-6.65513
2595.000	4.06972	-6.13804	3.59540	-6.59051
2596.000	4.06579	-6.15768	3.54025	-6.69277
2597.000	4.05989	-6.13811	3.66628	-6.59391
2598.000	4.03038	-6.15403	3.68203	-6.63885
2599.000	4.05399	-6.17543	3.63281	-6.64313
2600.000	4.02841	-6.13050	3.64462	-6.61758
2601.000	4.02644	-6.16386	3.63675	-6.63331
2602.000	4.03825	-6.12062	3.61706	-6.64912
2603.000	4.02251	-6.16389	3.56979	-6.70039
2604.000	3.98316	-6.18773	3.54222	-6.67905
2605.000	4.04415	-6.14608	3.51268	-6.61069
2606.000	4.03431	-6.20303	3.59540	-6.62577
2607.000	4.02251	-6.14231	3.53828	-6.65165
2608.000	4.00480	-6.10517	3.49298	-6.64609
2609.000	3.99693	-6.16408	3.58752	-6.62191
2610.000	3.98513	-6.14259	3.60524	-6.57672
2611.000	3.98710	-6.10530	3.60918	-6.63155
2612.000	4.01464	-6.15414	3.60721	-6.61393
2613.000	3.98316	-6.16223	3.62690	-6.61379
2614.000	4.01858	-6.10310	3.61312	-6.66678
2615.000	3.98906	-6.14649	3.54813	-6.60456
2616.000	4.03038	-6.14618	3.57767	-6.62982
2617.000	4.00087	-6.11697	3.58555	-6.57882
2618.000	4.03038	-6.13833	3.47526	-6.65013
2619.000	3.98906	-6.14453	3.58752	-6.55725
2620.000	3.98710	-6.20339	3.63281	-6.64705
2621.000	4.02644	-6.13640	3.63281	-6.64901
2622.000	3.98710	-6.15043	3.51859	-6.57537
2623.000	4.02644	-6.14425	3.51662	-6.64005
2624.000	4.00087	-6.19936	3.48314	-6.67359
2625.000	3.99497	-6.17979	3.53238	-6.61055
2626.000	3.97923	-6.18776	3.67613	-6.65848
2627.000	3.94971	-6.19778	3.60524	-6.70209
2628.000	3.98316	-6.18577	3.63872	-6.61175
2629.000	4.00874	-6.19930	3.57767	-6.61610
2630.000	3.97529	-6.19956	3.54025	-6.59090
2631.000	3.99300	-6.14842	3.60918	-6.57473
2632.000	3.94184	-6.13310	3.52647	-6.58708
2633.000	4.03235	-6.17559	3.59343	-6.56505
2634.000	4.00480	-6.08751	3.57964	-6.60238
2635.000	3.97923	-6.12105	3.46935	-6.63842
2636.000	4.00677	-6.12870	3.52056	-6.60671
2637.000	4.01858	-6.10507	3.61706	-6.60994
2638.000	3.97136	-6.14269	3.53435	-6.59486
2639.000	3.97333	-6.12306	3.59146	-6.60425
2640.000	4.01267	-6.15220	3.57373	-6.65335
2641.000	4.00677	-6.10515	3.49692	-6.58728
2642.000	4.03431	-6.08729	3.45950	-6.63457
2643.000	3.99497	-6.13860	3.59540	-6.58071
2644.000	3.96939	-6.16625	3.58161	-6.59061
2645.000	3.96349	-6.13883	3.61706	-6.63737
2646.000	3.99103	-6.12489	3.56192	-6.58879
2647.000	4.02054	-6.16587	3.55995	-6.67108
2648.000	3.98316	-6.14261	3.59146	-6.62384
2649.000	4.01661	-6.15217	3.57767	-6.70034
2650.000	4.03038	-6.09321	3.51465	-6.68316
2651.000	4.01661	-6.20905	3.55995	-6.63974
2652.000	3.99300	-6.16215	3.57964	-6.62001
2653.000	4.01858	-6.16785	3.57570	-6.62004
2654.000	4.03235	-6.08927	3.61903	-6.61189
2655.000	4.00480	-6.13460	3.63872	-6.62742
2656.000	4.01071	-6.13063	3.52450	-6.61648
2657.000	4.00087	-6.14051	3.57373	-6.62397
2658.000	4.00677	-6.15420	3.56389	-6.58681
2659.000	3.99300	-6.17785	3.52450	-6.55378
2660.000	4.00087	-6.14640	3.56192	-6.63777
2661.000	3.96939	-6.13682	3.56389	-6.58289
2662.000	3.94775	-6.17230	3.54419	-6.60459
2663.000	4.03628	-6.14810	3.62099	-6.64518
2664.000	3.97529	-6.15444	3.53041	-6.64975
2665.000	3.97333	-6.17015	3.58949	-6.52196
2666.000	3.97923	-6.19560	3.54025	-6.65163
2667.000	3.99103	-6.14255	3.55995	-6.56529
2668.000	4.01858	-6.19923	3.53435	-6.63209
2669.000	3.99693	-6.17782	3.58555	-6.52395
2670.000	4.00480	-6.17383	3.51071	-6.60286
2671.000	4.01464	-6.20318	3.65447	-6.63514
2672.000	3.95758	-6.16634	3.53238	-6.61055
2673.000	4.00874	-6.15615	3.57964	-6.63960
2674.000	3.98513	-6.13867	3.56389	-6.61620
2675.000	3.97333	-6.15445	3.54616	-6.66335
2676.000	3.98513	-6.13671	3.50677	-6.63032
2677.000	4.01071	-6.14436	3.56389	-6.59661
2678.000	3.97923	-6.12105	3.55798	-6.66130
2679.000	3.94775	-6.19388	3.49889	-6.61666
2680.000	4.00087	-6.10716	3.56586	-6.62011
2681.000	3.97136	-6.15643	3.63675	-6.63723
2682.000	3.96152	-6.20358	3.67022	-6.64090
2683.000	4.03825	-6.15789	3.55601	-6.62997
2684.000	3.97333	-6.18976	3.63478	-6.72538
2685.000	3.95955	-6.17613	3.60130	-6.60614
2686.000	3.95365	-6.14675	3.54025	-6.58306
2687.000	4.00874	-6.18361	3.63675	-6.69599
2688.000	3.99300	-6.17000	3.54025	-6.55171
2689.000	3.97333	-6.17603	3.56586	-6.61031
2690.000	3.98710	-6.15631	3.59933	-6.61595
2691.000	3.98906	-6.18180	3.54419	-6.66924
2692.000	3.97529	-6.16817	3.54616	-6.64180
2693.000	4.00284	-6.16404	3.52647	-6.65565
2694.000	3.98710	-6.19358	3.55798	-6.63780
2695.000	3.99103	-6.19944	3.57176	-6.66904
2696.000	3.97136	-6.22901	3.51465	-6.62047
2697.000	4.00480	-6.17187	3.52844	-6.62821
2698.000	4.00087	-6.20917	3.64265	-6.63131
2699.000	3.94971	-6.22524	3.57767	-6.62982
2700.000	4.03038	-6.20503	3.55798	-6.61037
2701.000	3.99300	-6.18569	3.60130	-6.62965
2702.000	3.93397	-6.13708	3.55207	-6.63000
2703.000	3.97726	-6.19169	3.55207	-6.60845
2704.000	4.02054	-6.16979	3.53041	-6.72418
2705.000	3.97726	-6.19562	3.59933	-6.65513
2706.000	3.97529	-6.20544	3.61903	-6.60797
2707.000	3.95758	-6.19184	3.63281	-6.64313
2708.000	3.95562	-6.18009	3.57767	-6.65137
2709.000	3.98316	-6.14653	3.52647	-6.60471
2710.000	3.95365	-6.14871	3.56192	-6.63189
2711.000	3.94578	-6.19193	3.58752	-6.66109
2712.000	4.01267	-6.14239	3.65447	-6.60183
2713.000	4.00087	-6.16798	3.61312	-6.71574
2714.000	3.98710	-6.18574	3.55404	-6.68484
2715.000	3.97923	-6.14067	3.58949	-6.61602
2716.000	3.96939	-6.11720	3.58949	-6.71200
2717.000	3.97726	-6.15246	3.55601	-6.59471
2718.000	3.97333	-6.08774	3.59146	-6.60817
2719.000	3.98316	-6.13672	3.59343	-6.63950
2720.000	3.98513	-6.08177	3.50480	-6.63034
2721.000	3.99103	-6.11900	3.57767	-6.75125
2722.000	3.96545	-6.15647	3.59343	-6.67476
2723.000	4.01071	-6.16791	3.58358	-6.61214
2724.000	3.98906	-6.15433	3.63084	-6.68624
2725.000	3.99497	-6.16018	3.61312	-6.68637
2726.000	3.98513	-6.17987	3.58161	-6.69051
2727.000	3.96545	-6.19571	3.61903	-6.72549
2728.000	3.97726	-6.16031	3.61903	-6.65694
2729.000	3.98906	-6.13668	3.61115	-6.72359
2730.000	3.99693	-6.13858	3.53041	-6.63407
2731.000	3.98710	-6.17985	3.61706	-6.72942
2732.000	3.99890	-6.13857	3.57964	-6.66115
2733.000	3.97529	-6.19367	3.60130	-6.67862
2734.000	3.98710	-6.14650	3.57964	-6.63764
2735.000	3.98119	-6.17401	3.62690	-6.71760
2736.000	3.98906	-6.11706	3.53828	-6.67711
2737.000	3.97529	-6.14070	3.57373	-6.77478
2738.000	3.99693	-6.13858	3.63084	-6.65686
2739.000	3.97923	-6.11909	3.56389	-6.71610
2740.000	3.99890	-6.17584	3.64265	-6.72336
2741.000	4.02251	-6.14231	3.54813	-6.68488
2742.000	3.94971	-6.18209	3.55995	-6.70830
2743.000	3.94578	-6.15858	3.62296	-6.73721
2744.000	4.00874	-6.14830	3.58358	-6.66504
2745.000	3.98119	-6.13477	3.52450	-6.61844
2746.000	3.96742	-6.16234	3.60327	-6.67860
2747.000	3.96152	-6.15454	3.55995	-6.70242
2748.000	3.99693	-6.15035	3.64265	-6.72140
2749.000	4.00480	-6.16010	3.64265	-6.70769
2750.000	3.96742	-6.14665	3.55404	-6.69659
2751.000	3.98513	-6.17006	3.59146	-6.68457
2752.000	3.98119	-6.10927	3.62099	-6.74702
2753.000	3.97923	-6.18972	3.50677	-6.67538
2754.000	3.98119	-6.13870	3.63084	-6.73520
2755.000	3.96152	-6.15454	3.57767	-6.70621
2756.000	4.00480	-6.14441	3.61312	-6.69812
2757.000	4.01661	-6.12470	3.64659	-6.66654
2758.000	3.98513	-6.14652	3.55995	-6.69459
2759.000	3.97136	-6.13092	3.56979	-6.71214
2760.000	4.00480	-6.14833	3.51071	-6.64793
2761.000	3.98906	-6.17003	3.56783	-6.74937
2762.000	3.98316	-6.17007	3.55601	-6.69070
2763.000	3.97726	-6.13088	3.58358	-6.70029
2764.000	4.00284	-6.16796	3.62493	-6.80964
2765.000	3.99103	-6.18178	3.57570	-6.74148
2766.000	3.93791	-6.14294	3.57570	-6.75322
2767.000	4.00480	-6.15029	3.57176	-6.69842
2768.000	4.04612	-6.17548	3.66431	-6.71732
2769.000	3.99693	-6.16605	3.65250	-6.70370
2770.000	4.01858	-6.15019	3.57570	-6.68272
2771.000	3.96742	-6.18784	3.56389	-6.69260
2772.000	3.99300	-6.20727	3.62690	-6.69606
2773.000	3.97136	-6.18389	3.57570	-6.67293
2774.000	3.92610	-6.18226	3.56586	-6.68279
2775.000	3.98119	-6.20736	3.59146	-6.72765
2776.000	4.02054	-6.16783	3.57176	-6.77871
2777.000	3.97136	-6.17408	3.56783	-6.71999
2778.000	3.94971	-6.18994	3.55207	-6.71031
2779.000	3.97726	-6.18973	3.57964	-6.73361
2780.000	3.94775	-6.18995	3.66234	-6.71342
2781.000	4.03431	-6.19911	3.62099	-6.67652
2782.000	3.95365	-6.18402	3.56586	-6.81595
2783.000	4.00874	-6.21107	3.66038	-6.76239
2784.000	3.97529	-6.19759	3.60130	-6.74129
2785.000	3.97136	-6.17016	3.59540	-6.71392
2786.000	3.98316	-6.19361	3.66628	-6.70360
2787.000	4.03825	-6.19320	3.56783	-6.68278
2788.000	4.03825	-6.21869	3.54222	-6.71234
2789.000	3.99693	-6.21705	3.52647	-6.68699
2790.000	4.05595	-6.14795	3.49692	-6.71462
2791.000	3.99103	-6.17001	3.58555	-6.71399
2792.000	3.99300	-6.21119	3.64659	-6.69787
2793.000	4.03235	-6.16970	3.60918	-6.69619
2794.000	3.98513	-6.22106	3.63872	-6.67247
2795.000	4.03628	-6.22263	3.57964	-6.62589
2796.000	3.98119	-6.17990	3.63084	-6.67645
2797.000	3.97923	-6.18383	3.58161	-6.72772
2798.000	3.98119	-6.16616	3.63872	-6.67247
2799.000	3.99497	-6.21510	3.57570	-6.77868
2800.000	4.01071	-6.19537	3.57373	-6.67882
2801.000	3.96742	-6.18000	3.61509	-6.65501
2802.000	4.02054	-6.21687	3.58949	-6.71004
2803.000	3.99103	-6.20336	3.66825	-6.70359
2804.000	3.98906	-6.21514	3.59736	-6.66690
2805.000	4.00480	-6.15618	3.58949	-6.72571
2806.000	4.00087	-6.20329	3.70172	-6.70138
2807.000	3.95365	-6.24679	3.68597	-6.74458
2808.000	4.02251	-6.19135	3.61706	-6.71963
2809.000	3.98513	-6.21321	3.52253	-6.68114
2810.000	3.97923	-6.19364	3.58752	-6.73747
2811.000	3.95168	-6.21935	3.56979	-6.72977
2812.000	4.00677	-6.22678	3.70566	-6.74443
2813.000	3.97136	-6.21135	3.59343	-6.65713
2814.000	4.00284	-6.22681	3.66628	-6.64680
2815.000	4.02054	-6.18745	3.63872	-6.71556
2816.000	3.96152	-6.18985	3.62296	-6.70784
2817.000	3.98906	-6.15433	3.58949	-6.64541
2818.000	4.02251	-6.15408	3.66431	-6.70753
2819.000	4.03038	-6.14422	3.54025	-6.73194
2820.000	4.00874	-6.21303	3.55207	-6.71423
2821.000	4.01858	-6.19335	3.59933	-6.64533
2822.000	3.99300	-6.20335	3.61312	-6.65111
2823.000	4.02841	-6.15796	3.67810	-6.71135
2824.000	3.98710	-6.19162	3.50086	-6.72243
2825.000	3.99890	-6.16799	3.53631	-6.69280
2826.000	3.99103	-6.16413	3.55798	-6.68285
2827.000	3.96939	-6.17410	3.61115	-6.66288
2828.000	3.99693	-6.20920	3.60130	-6.74716
2829.000	3.95562	-6.14673	3.52056	-6.71641
2830.000	3.99693	-6.16212	3.59540	-6.62185
2831.000	3.99103	-6.15040	3.57767	-6.63961
2832.000	3.99103	-6.18178	3.61115	-6.66484
2833.000	4.00087	-6.18171	3.64462	-6.60582
2834.000	3.99890	-6.18761	3.62099	-6.72939
2835.000	3.98513	-6.16025	3.57767	-6.71013
2836.000	3.97333	-6.16426	3.54419	-6.65748
2837.000	3.97923	-6.20149	3.52844	-6.61645
2838.000	3.94971	-6.16051	3.57373	-6.67294
2839.000	3.97333	-6.19172	3.66825	-6.74079
2840.000	4.01267	-6.21497	3.62493	-6.63339
2841.000	3.93594	-6.20573	3.61509	-6.72160
2842.000	3.97136	-6.17605	3.66038	-6.66643
2843.000	3.97923	-6.21326	3.65447	-6.71740
2844.000	3.96152	-6.20947	3.55010	-6.65548
2845.000	3.95955	-6.17221	3.67416	-6.63303
2846.000	3.96152	-6.23300	3.61706	-6.69809
2847.000	3.97923	-6.15048	3.56389	-6.62600
2848.000	4.02644	-6.20113	3.66825	-6.65854
2849.000	3.99300	-6.19746	3.64856	-6.58424
2850.000	4.00677	-6.18167	3.59343	-6.69043
2851.000	4.01071	-6.21302	3.60721	-6.65115
2852.000	3.99497	-6.18568	3.58358	-6.71792
2853.000	3.95955	-6.20163	3.63872	-6.68814
2854.000	3.96742	-6.21334	3.57176	-6.77088
2855.000	4.01071	-6.20910	3.63084	-6.69799
2856.000	3.97529	-6.20936	3.68006	-6.71721
2857.000	3.98906	-6.16610	3.64462	-6.67634
2858.000	3.95168	-6.18992	3.65053	-6.68022
2859.000	3.98513	-6.19556	3.57964	-6.65135
2860.000	4.00480	-6.23856	3.63478	-6.69208
2861.000	3.99103	-6.17001	3.63675	-6.69795
2862.000	3.96742	-6.19569	3.57176	-6.65337
2863.000	3.99300	-6.19550	3.59933	-6.67472
2864.000	3.94578	-6.19193	3.66431	-6.75061
2865.000	3.96349	-6.22318	3.57570	-6.70623
2866.000	3.96742	-6.22903	3.68794	-6.72106
2867.000	3.96545	-6.23886	3.67219	-6.65068
2868.000	3.97923	-6.18972	3.62887	-6.67450
2869.000	3.96349	-6.26633	3.60130	-6.64140
2870.000	3.99693	-6.19743	3.65447	-6.66648
2871.000	4.03038	-6.22660	3.50677	-6.66167
2872.000	4.03431	-6.19519	3.58949	-6.74725
2873.000	3.96939	-6.24079	3.59343	-6.70218
2874.000	3.97529	-6.21721	3.70566	-6.70135
2875.000	4.01464	-6.23064	3.67613	-6.68590
2876.000	3.98316	-6.19361	3.59933	-6.74914
2877.000	3.96939	-6.22117	3.64462	-6.69985
2878.000	3.94775	-6.23114	3.66234	-6.76825
2879.000	4.00677	-6.19932	3.62887	-6.68429
2880.000	3.97529	-6.23486	3.67022	-6.77210
2881.000	3.96742	-6.24669	3.60327	-6.79218
2882.000	3.97333	-6.25056	3.65447	-6.71152
2883.000	3.97333	-6.22507	3.61312	-6.70204
2884.000	3.93594	-6.20769	3.70172	-6.62108
2885.000	3.96742	-6.18588	3.61903	-6.70003
2886.000	3.93791	-6.22141	3.65644	-6.68213
2887.000	3.94775	-6.17230	3.64659	-6.68612
2888.000	3.93201	-6.19595	3.63872	-6.75276
2889.000	3.93594	-6.21946	3.61115	-6.67659
2890.000	3.93988	-6.22728	3.54419	-6.69666
2891.000	3.94381	-6.17036	3.63281	-6.69602
2892.000	3.93594	-6.24104	3.64462	-6.75272
2893.000	3.92217	-6.23329	3.64069	-6.64503
2894.000	3.93004	-6.19204	3.67416	-6.72313
2895.000	3.92807	-6.16656	3.63084	-6.68428
2896.000	3.92217	-6.22545	3.57570	-6.66509
2897.000	3.94971	-6.24486	3.57373	-6.68274
2898.000	4.01464	-6.20907	3.60918	-6.61784
2899.000	3.91823	-6.17644	3.61706	-6.64129
2900.000	4.00480	-6.22875	3.62099	-6.60796
2901.000	3.96152	-6.18004	3.63281	-6.70189
2902.000	3.97529	-6.18582	3.59146	-6.66694
2903.000	3.96349	-6.20553	3.70566	-6.68568
2904.000	3.96349	-6.19572	3.65447	-6.67823
2905.000	3.94971	-6.16836	3.61903	-6.69416
2906.000	3.95955	-6.17025	3.58358	-6.63369
2907.000	3.96939	-6.18391	3.65447	-6.67235
2908.000	3.97923	-6.19560	3.70369	-6.63282
2909.000	3.95758	-6.18399	3.59146	-6.58074
2910.000	3.90839	-6.23340	3.71156	-6.60925
2911.000	3.93791	-6.17629	3.67613	-6.61147
2912.000	3.91823	-6.19998	3.60130	-6.56695
2913.000	3.91036	-6.18434	3.61312	-6.58254
2914.000	3.89855	-6.17462	3.60721	-6.53555
2915.000	3.93397	-6.10961	3.67416	-6.57426
2916.000	3.93791	-6.13313	3.65053	-6.50585
2917.000	3.89265	-6.12757	3.69581	-6.45260
2918.000	3.94971	-6.12716	3.65447	-6.48426
2919.000	3.93004	-6.07039	3.70566	-6.47213
2920.000	3.88871	-6.06676	3.70369	-6.41530
2921.000	3.91233	-6.07837	3.69581	-6.47024
2922.000	3.87494	-6.08845	3.65644	-6.46464
2923.000	3.92610	-6.05668	3.69581	-6.51728
2924.000	3.93988	-6.02714	3.63281	-6.50401
2925.000	3.92807	-6.05274	3.75487	-6.52468
2926.000	3.89855	-5.99799	3.75094	-6.54039
2927.000	3.89265	-6.02159	3.69581	-6.53883
2928.000	3.90642	-6.01757	3.69188	-6.50555
2929.000	3.90446	-6.03132	3.74503	-6.45420
2930.000	3.93397	-5.97615	3.72731	-6.48765
2931.000	3.92610	-5.91730	3.76669	-6.41680
2932.000	3.93988	-5.93487	3.80015	-6.30479
2933.000	3.97726	-5.85213	3.78834	-6.29507
2934.000	4.00677	-5.76157	3.79227	-6.14399
2935.000	4.04808	-5.73181	3.84148	-6.07691
2936.000	4.11693	-5.59573	3.91626	-5.86238
2937.000	4.14250	-5.46778	4.08939	-5.68240
2938.000	4.23689	-5.25866	4.09923	-5.54868
2939.000	4.34305	-5.09659	4.19166	-5.43008
2940.000	4.41577	-4.94847	4.26441	-5.30961
2941.000	4.46883	-4.70195	4.39415	-5.05098
2942.000	4.55528	-4.48267	4.43542	-4.92275
2943.000	4.58671	-4.31688	4.59260	-4.76614
2944.000	4.75560	-4.07526	4.71633	-4.52500
2945.000	4.82628	-3.86966	4.70848	-4.34768
2946.000	4.85965	-3.79054	4.85180	-4.14569
2947.000	4.90479	-3.64422	4.86161	-4.00559
2948.000	4.96759	-3.51358	4.96955	-3.92013
2949.000	5.07156	-3.41627	4.94600	-3.79202
2950.000	5.11079	-3.33708	5.07549	-3.84059
2951.000	5.16767	-3.30913	5.16963	-3.71377
2952.000	5.21669	-3.20816	5.22845	-3.64043
2953.000	5.21277	-3.13905	5.26962	-3.50797
2954.000	5.27550	-3.01429	5.31078	-3.38340
2955.000	5.23237	-2.88212	5.22845	-3.31079
2956.000	5.26962	-2.66257	5.26178	-3.18818
2957.000	5.23825	-2.50255	5.26178	-3.03214
2958.000	5.29706	-2.30259	5.30294	-2.81856
2959.000	5.30882	-2.07706	5.28334	-2.66053
2960.000	5.22257	-1.96852	5.17943	-2.55025
2961.000	5.23629	-1.75672	5.11079	-2.31712
2962.000	5.26962	-1.50524	5.11079	-2.03615
2963.000	5.22453	-1.30933	5.08922	-1.76504
2964.000	5.15198	-1.02229	4.96170	-1.49606
2965.000	5.12452	-0.80839	5.01860	-1.29786
2966.000	5.13041	-0.58253	4.90675	-1.03259
2967.000	5.07353	-0.37056	4.89694	-0.85822
2968.000	5.11079	-0.18824	5.01075	-0.62623
2969.000	5.14609	0.13870	5.00094	-0.36664
2970.000	5.09902	0.26949	4.98328	-0.14468
2971.000	5.10099	0.51915	4.97151	0.09513
2972.000	5.12256	0.76085	4.98721	0.37656
2973.000	5.06372	1.00460	4.91656	0.56488
2974.000	5.11275	1.26004	5.08922	0.82825
2975.000	5.19120	1.51334	4.92834	1.01868
2976.000	5.11864	1.72933	5.05979	1.26213
2977.000	5.19708	1.95474	4.93423	1.50008
2978.000	5.18924	2.14671	4.94404	1.63473
2979.000	5.24806	2.26915	5.01664	1.84245
2980.000	5.29314	2.45488	4.97740	1.94551
2981.000	5.35782	2.58905	5.04410	2.00667
2982.000	5.41661	2.67576	5.06568	2.15504
2983.000	5.45775	2.65186	5.06764	2.24605
2984.000	5.62423	2.76964	5.09118	2.38841
2985.000	5.64773	2.81496	5.21080	2.45520
2986.000	5.76322	2.93483	5.27158	2.63686
2987.000	5.79844	3.13202	5.31078	2.75924
2988.000	5.79257	3.21690	5.33626	2.85200
2989.000	5.77300	3.34722	5.42837	3.00762
2990.000	5.80823	3.39435	5.33822	3.27467
2991.000	5.79844	3.53048	5.27942	3.49016
2992.000	5.76517	3.64110	5.25590	3.59291
2993.000	5.74756	3.82058	5.24609	3.79026
2994.000	5.77496	3.97407	5.31862	3.94953
2995.000	5.75930	4.15537	5.18335	4.06474
2996.000	5.72995	4.28552	5.23433	4.14719
2997.000	5.77496	4.44458	5.12844	4.14789
2998.000	5.76909	4.48200	5.16963	4.25601
2999.000	5.83758	4.59946	5.20884	4.31879
3000.000	5.90018	4.67169	5.19316	4.39572
3001.000	5.85714	4.69368	5.20884	4.43697
3002.000	5.86888	4.78989	5.19316	4.55523
3003.000	5.85127	4.86274	5.27746	4.59989
3004.000	5.84540	4.91977	5.20100	4.76576
3005.000	5.82779	5.01028	5.08333	4.85322
3006.000	5.79061	5.11273	5.04802	4.97151
3007.000	5.69863	5.17247	4.96366	5.00166
3008.000	5.58115	5.25795	4.96955	5.01341
3009.000	5.55569	5.34063	4.90283	5.22038
3010.000	5.50673	5.41173	4.80272	5.21919
3011.000	5.44208	5.45549	4.73597	5.23149
3012.000	5.39701	5.57167	4.59457	5.21287
3013.000	5.33234	5.59384	4.66920	5.37943
3014.000	5.33626	5.63304	4.58671	5.33877
3015.000	5.32842	5.68608	4.63385	5.37184
3016.000	5.34410	5.74869	4.65153	5.39529
3017.000	5.34018	5.72127	4.65349	5.47781
3018.000	5.42053	5.72052	4.65938	5.52295
3019.000	5.44992	5.74377	4.77524	5.47882
3020.000	5.47343	5.70041	4.78898	5.38244
3021.000	5.54786	5.65265	4.86554	5.38183
3022.000	5.56549	5.61522	4.87535	5.30708
3023.000	5.58507	5.51893	4.88713	5.23230
3024.000	5.61444	5.44606	4.88516	5.15368
3025.000	5.64381	5.40851	4.99113	5.17055
3026.000	5.60269	5.39515	4.97936	5.21192
3027.000	5.63011	5.27910	5.03037	5.10537
3028.000	5.61444	5.27532	4.98132	4.97398
3029.000	5.54786	5.23861	4.93030	5.00191
3030.000	5.57136	5.22073	5.02645	4.98741
3031.000	5.50477	5.17417	4.93030	4.97240
3032.000	5.53023	5.21127	4.93815	5.02938
3033.000	5.53023	5.20341	4.92441	4.99802
3034.000	5.46951	5.22358	4.91460	5.00006
3035.000	5.52240	5.26239	4.91853	5.07083
3036.000	5.51064	5.27624	4.98917	5.01523
3037.000	5.48322	5.31575	4.94404	5.01951
3038.000	5.48126	5.34129	4.99505	5.04272
3039.000	5.47734	5.38451	4.92638	5.07864
3040.000	5.46755	5.36301	4.94993	4.99192
3041.000	5.46951	5.38066	4.94993	5.12959
3042.000	5.43620	5.35936	4.94993	5.07846
3043.000	5.47343	5.39240	4.89890	5.15554
3044.000	5.47734	5.43555	4.94796	5.18072
3045.000	5.44600	5.37694	4.93423	5.11988
3046.000	5.41465	5.41256	4.90675	5.17514
3047.000	5.44208	5.38090	4.84787	5.10087
3048.000	5.44992	5.40635	4.87731	5.18126
3049.000	5.42249	5.41445	4.94208	5.07065
3050.000	5.43032	5.38886	4.88713	5.09860
3051.000	5.44992	5.37887	4.88516	5.04158
3052.000	5.43228	5.37118	4.88320	5.01209
3053.000	5.43228	5.37118	4.93423	5.05301
3054.000	5.48126	5.37663	4.91460	5.04923
3055.000	5.46755	5.40031	4.96955	5.03308
3056.000	5.43620	5.38096	4.96366	4.98592
3057.000	5.44012	5.40251	4.96170	4.99970
3058.000	5.47343	5.39829	4.95974	5.09608
3059.000	5.43424	5.41631	4.93815	5.05888
3060.000	5.44992	5.38476	4.85769	5.08899
3061.000	5.40877	5.33212	4.92441	5.02359
3062.000	5.43424	5.40257	4.85180	5.11067
3063.000	5.41857	5.34774	4.84983	5.07725
3064.000	5.41661	5.40272	4.90479	5.07094
3065.000	5.38330	5.36768	4.89498	5.04938
3066.000	5.41661	5.38113	4.85572	5.02803
3067.000	5.45579	5.38471	4.87339	5.05347
3068.000	5.42837	5.33587	4.83020	5.07543
3069.000	5.42837	5.39084	4.87928	5.07310
3070.000	5.47343	5.35707	4.82628	4.95939
3071.000	5.43620	5.31813	4.93619	5.02940
3072.000	5.45775	5.38076	4.91853	4.95281
3073.000	5.48322	5.40802	4.83806	5.05177
3074.000	5.49106	5.40795	4.92245	5.04130
3075.000	5.48518	5.34715	4.89890	5.00411
3076.000	5.49302	5.34904	4.87928	4.95704
3077.000	5.51260	5.35083	4.79683	4.98912
3078.000	5.49889	5.38236	4.87142	5.01808
3079.000	5.48714	5.37069	4.94796	5.08438
3080.000	5.44992	5.39654	4.94208	5.11588
3081.000	5.50085	5.40982	4.91068	4.96468
3082.000	5.47343	5.35314	4.99898	5.02499
3083.000	5.47538	5.38257	4.92441	5.00588
3084.000	5.46167	5.36306	4.85769	5.06146
3085.000	5.48126	5.37663	4.99505	4.93847
3086.000	5.44796	5.38085	4.95189	5.02338
3087.000	5.46167	5.33361	4.93815	5.02152
3088.000	5.44992	5.33568	4.94404	4.99394
3089.000	5.45384	5.38080	4.93226	4.98222
3090.000	5.45384	5.32387	4.95189	5.00961
3091.000	5.47343	5.33351	4.90086	5.08473
3092.000	5.45188	5.35726	4.90479	4.98046
3093.000	5.47147	5.37475	4.94404	4.99787
3094.000	5.46363	5.34145	4.96366	5.02132
3095.000	5.37938	5.38931	4.91656	4.94889
3096.000	5.42837	5.36139	4.96170	4.94659
3097.000	5.42837	5.39477	4.97543	5.09596
3098.000	5.41661	5.39683	4.93619	5.04907
3099.000	5.39114	5.40295	4.95189	5.01158
3100.000	5.39114	5.40099	5.00094	4.97974
3101.000	5.44796	5.40048	4.94993	5.00766
3102.000	5.42249	5.34770	4.85180	4.93953
3103.000	5.38918	5.31854	4.96170	5.03707
3104.000	5.40877	5.33408	4.97347	5.00355
3105.000	5.44992	5.35139	4.93030	4.94289
3106.000	5.42445	5.35554	4.93423	5.01958
3107.000	5.47734	5.31384	4.96170	4.96626
3108.000	5.42249	5.30254	4.91068	5.01189
3109.000	5.41073	5.37137	4.94404	4.95066
3110.000	5.43228	5.36725	5.02056	5.05039
3111.000	5.42445	5.35554	5.02056	4.95205
3112.000	5.42641	5.38693	4.94796	4.99981
3113.000	5.42445	5.38695	4.94600	4.99785
3114.000	5.37742	5.38540	4.93423	4.98811
3115.000	5.39310	5.33618	4.92441	4.98425
3116.000	5.40093	5.31648	4.97151	4.93865
3117.000	5.43620	5.32795	4.94796	5.00177
3118.000	5.38918	5.38922	4.97151	5.06453
3119.000	5.36174	5.32074	4.92049	4.96067
3120.000	5.43032	5.33585	4.93030	5.03534
3121.000	5.44992	5.35924	4.93815	5.00381
3122.000	5.42837	5.31427	4.94208	4.94084
3123.000	5.47538	5.35901	4.94796	5.04504
3124.000	5.42641	5.28484	5.01664	4.98355
3125.000	5.40289	5.30664	4.89890	5.02771
3126.000	5.40681	5.31446	4.89301	4.99825
3127.000	5.38526	5.32643	4.94600	5.00179
3128.000	5.40289	5.30468	4.95189	4.97027
3129.000	5.39310	5.30673	4.95974	4.98792
3130.000	5.41073	5.33210	4.99113	4.90112
3131.000	5.38722	5.37746	4.91264	5.00991
3132.000	5.38330	5.34216	4.95974	4.95644
3133.000	5.41857	5.33007	4.88320	4.94127
3134.000	5.38134	5.32057	4.94404	4.99590
3135.000	5.41073	5.39100	4.98524	5.07032
3136.000	5.42641	5.34374	4.95777	5.11183
3137.000	5.38918	5.36567	4.95974	4.98792
3138.000	5.40485	5.33608	4.99113	4.99948
3139.000	5.40289	5.34984	4.95777	5.04104
3140.000	5.37938	5.35397	4.97151	4.97799
3141.000	5.39114	5.32834	4.96366	4.96035
3142.000	5.36762	5.34818	4.96562	4.94263
3143.000	5.41269	5.32815	4.95581	4.99778
3144.000	5.42837	5.32213	4.95581	4.96041
3145.000	5.36958	5.28926	4.92441	5.01965
3146.000	5.42837	5.33587	4.89890	4.92541
3147.000	5.37154	5.33244	4.94011	5.00577
3148.000	5.35978	5.27756	4.94404	4.85818
3149.000	5.41073	5.30068	4.97347	5.03698
3150.000	5.38722	5.33820	4.90283	4.94900
3151.000	5.39701	5.31258	4.94600	4.93294
3152.000	5.38722	5.34998	4.87731	4.95705
3153.000	5.38918	5.28123	4.98524	4.94051
3154.000	5.35390	5.32474	4.96170	4.87183
3155.000	5.43424	5.31815	4.95189	4.97617
3156.000	5.35978	5.30702	5.02841	5.00116
3157.000	5.40877	5.28499	4.98917	4.96212
3158.000	5.40289	5.30271	4.93815	4.96644
3159.000	5.41073	5.33799	4.97151	4.96816
3160.000	5.42249	5.30254	5.04214	5.05612
3161.000	5.41073	5.33603	4.97936	4.96613
3162.000	5.42445	5.29467	4.96759	5.00949
3163.000	5.44404	5.31806	4.91656	5.03938
3164.000	5.40485	5.30662	4.94600	4.85030
3165.000	5.41661	5.28296	4.98524	4.84017
3166.000	5.41465	5.29672	4.90871	4.90370
3167.000	5.44992	5.29445	4.97151	4.87766
3168.000	5.40093	5.26345	5.00683	4.93052
3169.000	5.44012	5.32399	4.99309	4.93652
3170.000	5.39701	5.29491	4.96562	4.84622
3171.000	5.40877	5.33801	4.97347	4.84026
3172.000	5.44796	5.28857	5.01271	4.85965
3173.000	5.42249	5.26327	4.95189	4.95060
3174.000	5.37938	5.28917	4.88909	4.91958
3175.000	5.40681	5.24769	5.00094	4.92466
3176.000	5.42053	5.28096	5.00683	4.96789
3177.000	5.40485	5.32626	4.95581	4.86400
3178.000	5.41073	5.28497	5.00290	4.87349
3179.000	5.46559	5.29824	4.95385	4.81482
3180.000	5.38918	5.31265	4.98721	4.82245
3181.000	5.39114	5.24979	5.00486	4.83609
3182.000	5.41661	5.29081	5.04018	4.85354
3183.000	5.35978	5.30702	5.04606	4.89678
3184.000	5.39114	5.22033	4.98917	4.84605
3185.000	5.34998	5.27175	4.97543	4.85205
3186.000	5.39506	5.24190	5.00290	4.80265
3187.000	5.39701	5.25563	4.97151	4.79698
3188.000	5.39310	5.30084	5.00879	4.86755
3189.000	5.39114	5.26550	4.97936	4.86383
3190.000	5.38918	5.30087	4.97936	4.88350
3191.000	5.42445	5.27700	4.98524	4.89133
3192.000	5.41465	5.26923	4.86554	4.81152
3193.000	5.40681	5.25751	4.96759	4.88162
3194.000	5.46363	5.24327	5.03429	4.87523
3195.000	5.39897	5.29489	5.05587	4.78258
3196.000	5.39701	5.22421	4.98917	4.79685
3197.000	5.42641	5.28876	4.97543	4.76546
3198.000	5.44600	5.29841	5.01860	4.77105
3199.000	5.41073	5.24766	4.94404	4.71844
3200.000	5.43032	5.28087	4.99309	4.84602
3201.000	5.43620	5.29261	4.95385	4.85811
3202.000	5.45775	5.31205	4.95777	4.78920
3203.000	5.46363	5.29433	4.98524	4.81459
3204.000	5.42249	5.30843	4.92441	4.88981
3205.000	5.44012	5.30043	4.94011	4.94282
3206.000	5.44600	5.29448	4.98917	4.97196
3207.000	5.44992	5.32390	4.94993	4.86995
3208.000	5.47343	5.26479	4.93423	4.92319
3209.000	5.45384	5.25318	4.99309	4.93062
3210.000	5.42837	5.26714	4.89105	4.89793
3211.000	5.45384	5.30423	4.92245	4.85440
3212.000	5.43816	5.24546	4.94011	4.83656
3213.000	5.43032	5.22785	5.00683	4.89707
3214.000	5.43228	5.24944	4.91460	4.92727
3215.000	5.44404	5.29057	4.94404	4.79521
3216.000	5.47147	5.30604	4.91068	4.91352
3217.000	5.44796	5.26108	4.96562	4.83638
3218.000	5.41465	5.26334	4.96366	4.81671
3219.000	5.44012	5.25919	5.07156	4.86314
3220.000	5.43228	5.24747	4.98917	4.80866
3221.000	5.46167	5.23151	4.92441	4.92129
3222.000	5.43816	5.24742	5.01467	4.82815
3223.000	5.44600	5.29645	5.04214	4.92041
3224.000	5.45579	5.22566	4.93619	4.83856
3225.000	5.46755	5.30804	4.97151	4.80091
3226.000	5.45579	5.27476	4.97543	4.87960
3227.000	5.41661	5.26528	4.95189	4.81090
3228.000	5.44012	5.26901	4.95385	4.81875
3229.000	5.42249	5.26523	4.92638	4.88783
3230.000	5.44208	5.21989	4.92834	4.89175
3231.000	5.43228	5.25729	4.98917	4.85982
3232.000	5.45188	5.28265	5.03625	4.83389
3233.000	5.41073	5.21623	5.02056	4.79859
3234.000	5.48126	5.27846	4.97151	4.79894
3235.000	5.49106	5.25482	4.90675	4.83877
3236.000	5.46755	5.25109	4.96562	4.82064
3237.000	5.49497	5.23318	4.92834	4.87994
3238.000	5.46559	5.21969	4.96562	4.83048
3239.000	5.46559	5.26289	4.94011	4.79327
3240.000	5.46559	5.23933	5.01860	4.77695
3241.000	5.45384	5.24729	4.98721	4.80867
3242.000	5.47343	5.23337	4.92834	4.80910
3243.000	5.48910	5.30981	4.94404	4.87393
3244.000	5.41269	5.24961	4.98524	4.88346
3245.000	5.45775	5.27278	4.96562	4.84228
3246.000	5.47343	5.27461	4.97543	4.82450
3247.000	5.47343	5.22158	4.98132	4.84414
3248.000	5.44796	5.25912	4.91656	4.84854
3249.000	5.44600	5.22575	4.95581	4.80890
3250.000	5.43228	5.24944	4.94011	4.81885
3251.000	5.45971	5.24134	4.97740	4.79300
3252.000	5.48518	5.27058	4.98917	4.86376
3253.000	5.43816	5.23367	4.97740	4.79300
3254.000	5.44796	5.24144	4.93815	4.85035
3255.000	5.48714	5.26663	5.04410	4.87319
3256.000	5.44012	5.25526	4.98132	4.82249
3257.000	5.49889	5.24493	4.95777	4.81676
3258.000	5.51456	5.23301	5.00879	4.83213
3259.000	5.45579	5.22370	4.89694	4.85459
3260.000	5.45971	5.21581	4.95974	4.88758
3261.000	5.44208	5.21203	4.96170	4.77540
3262.000	5.44992	5.23750	4.97740	4.74379
3263.000	5.41465	5.20441	4.87142	4.82722
3264.000	5.42837	5.22787	4.97347	4.88158
3265.000	5.41661	5.21225	4.98524	4.80278
3266.000	5.42053	5.22401	4.99898	4.81055
3267.000	5.40093	5.22221	4.98524	4.82836
3268.000	5.44796	5.17859	4.96170	4.79902
3269.000	5.44208	5.19632	4.89498	4.81131
3270.000	5.44600	5.21986	4.96562	4.83835
3271.000	5.46167	5.22954	4.94208	4.84245
3272.000	5.45384	5.18836	4.92834	4.87404
3273.000	5.45384	5.18836	5.00683	4.83411
3274.000	5.45971	5.25116	4.97936	4.80873
3275.000	5.46363	5.19024	4.92049	4.89574
3276.000	5.43228	5.20623	4.96955	4.76353
3277.000	5.47343	5.16659	4.95189	4.85419
3278.000	5.47343	5.25301	4.93226	4.83465
3279.000	5.42445	5.21415	4.94600	4.84046
3280.000	5.40485	5.22021	4.97543	4.82647
3281.000	5.45775	5.20404	4.98917	4.92081
3282.000	5.42445	5.20433	4.99702	4.78301
3283.000	5.43424	5.17871	4.97347	4.85994
3284.000	5.41661	5.16314	5.04999	4.85150
3285.000	5.39897	5.17312	4.99702	4.84402
3286.000	5.42053	5.19651	4.98721	4.84606
3287.000	5.37154	5.17138	4.94993	4.83649
3288.000	5.39114	5.13193	4.99113	4.82242
3289.000	5.39114	5.12603	4.96759	4.86195
3290.000	5.39506	5.15547	4.97543	4.80679
3291.000	5.39114	5.13586	4.99309	4.82831
3292.000	5.40877	5.16518	4.98917	4.90507
3293.000	5.40681	5.15537	4.98917	4.78898
3294.000	5.39897	5.18883	5.01271	4.84784
3295.000	5.38134	5.16737	5.06764	4.80218
3296.000	5.40093	5.13577	4.94600	4.88768
3297.000	5.46363	5.12542	4.95189	4.85419
3298.000	5.39897	5.15347	4.99505	4.74366
3299.000	5.41073	5.13569	5.02056	4.82614
3300.000	5.41465	5.16316	4.97740	4.79300
3301.000	5.39701	5.08275	5.04606	4.80824
3302.000	5.40289	5.13576	4.96366	4.88362
3303.000	5.38526	5.13001	4.98917	4.82243
3304.000	5.38722	5.12606	4.97936	4.85399
3305.000	5.37154	5.12620	4.99113	4.77519
3306.000	5.41269	5.14550	5.01271	4.76125
3307.000	5.41465	5.16316	4.97543	4.78317
3308.000	5.36370	5.14984	5.06372	4.83369
3309.000	5.39701	5.14170	4.97740	4.78513
3310.000	5.40093	5.14363	5.06960	4.88086
3311.000	5.40289	5.11414	5.05195	4.83771
3312.000	5.36762	5.13409	4.94404	4.83063
3313.000	5.37938	5.14774	5.05391	4.78850
3314.000	5.37938	5.14578	5.01075	4.75142
3315.000	5.41465	5.14941	4.97936	4.80676
3316.000	5.36958	5.14193	4.97347	4.80877
3317.000	5.39310	5.14959	5.02252	4.83006
3318.000	5.40093	5.14756	5.01271	4.90490
3319.000	5.39701	5.14956	5.08922	4.77840
3320.000	5.34410	5.16572	5.07156	4.83363
3321.000	5.40877	5.14160	5.05783	4.87505
3322.000	5.36566	5.14393	4.96366	4.83049
3323.000	5.38134	5.15362	5.01467	4.75140
3324.000	5.36762	5.08889	4.95385	4.82859
3325.000	5.36762	5.07317	4.99309	4.90701
3326.000	5.37742	5.11043	5.01271	4.84390
3327.000	5.33038	5.11868	4.96170	4.80295
3328.000	5.37154	5.19692	4.97151	4.76155
3329.000	5.35978	5.13808	4.94993	4.77942
3330.000	5.35782	5.09487	4.99898	4.86762
3331.000	5.40877	5.11999	5.04606	4.74920
3332.000	5.33822	5.14023	4.94208	4.82474
3333.000	5.34802	5.15390	5.09706	4.85705
3334.000	5.37546	5.09669	4.97543	4.78514
3335.000	5.34998	5.12638	4.91068	4.87614
3336.000	5.35782	5.11059	5.00486	4.79477
3337.000	5.34606	5.13820	4.98132	4.82446
3338.000	5.33822	5.09700	5.01664	4.83207
3339.000	5.34214	5.13037	4.98132	4.84610
3340.000	5.35194	5.13815	5.04410	4.87909
3341.000	5.38526	5.12215	5.00879	4.85180
3342.000	5.38526	5.14966	5.01467	4.81634
3343.000	5.38330	5.16539	4.99309	4.76927
3344.000	5.34802	5.12246	5.05587	4.83768
3345.000	5.38526	5.14376	5.00683	4.79475
3346.000	5.36762	5.13409	5.04999	4.79640
3347.000	5.35978	5.16363	5.02252	4.88712
3348.000	5.37350	5.14190	4.99113	4.76141
3349.000	5.40485	5.13967	5.02056	4.79072
3350.000	5.35586	5.16562	4.96759	4.81865
3351.000	5.38918	5.11622	4.97151	4.85405
3352.000	5.36566	5.14393	4.98721	4.83229
3353.000	5.41661	5.12778	5.01860	4.80451
3354.000	5.35978	5.12629	5.01467	4.82225
3355.000	5.34802	5.15390	5.05391	4.79441
3356.000	5.39310	5.12601	5.02056	4.83007
3357.000	5.37154	5.07314	5.05195	4.85148
3358.000	5.40289	5.11611	4.99113	4.78503
3359.000	5.38918	5.13784	5.05195	4.84361
3360.000	5.42053	5.12578	4.99898	4.78890
3361.000	5.35194	5.09295	5.05587	4.75503
3362.000	5.40093	5.11023	4.99505	4.77122
3363.000	5.38526	5.13198	4.93030	4.81892
3364.000	5.36958	5.12818	4.97936	4.86973
3365.000	5.40877	5.13767	4.93619	4.75590
3366.000	5.39310	5.10637	4.93226	4.86220
3367.000	5.39114	5.17515	4.98917	4.79882
3368.000	5.36566	5.13410	4.96366	4.81278
3369.000	5.36370	5.13412	5.00879	4.81442
3370.000	5.38134	5.17916	5.03037	4.78868
3371.000	5.36762	5.11444	5.07353	4.79229
3372.000	5.38330	5.14378	4.98132	4.78903
3373.000	5.37742	5.15365	5.07353	4.81787
3374.000	5.34410	5.11070	5.10099	4.83144
3375.000	5.37546	5.10651	5.09314	4.80789
3376.000	5.35978	5.09289	4.99505	4.85978
3377.000	5.38134	5.15362	5.01271	4.74944
3378.000	5.37742	5.12222	4.99702	4.75546
3379.000	5.36174	5.14200	4.98328	4.92086
3380.000	5.38918	5.13587	4.96759	4.75174
3381.000	5.36566	5.16358	5.04018	4.87518
3382.000	5.36762	5.10658	5.05783	4.75502
3383.000	5.38722	5.17911	5.00683	4.79869
3384.000	5.36174	5.15771	4.98917	4.78307
3385.000	5.41073	5.14748	4.94011	4.76374
3386.000	5.35978	5.14987	5.01075	4.87343
3387.000	5.36958	5.18319	5.06568	4.86122
3388.000	5.33430	5.13240	5.00290	4.80265
3389.000	5.36762	5.14391	5.00486	4.78099
3390.000	5.32646	5.15015	5.04410	4.82006
3391.000	5.34410	5.16572	4.97936	4.81266
3392.000	5.38330	5.14771	4.99898	4.82433
3393.000	5.35586	5.17938	5.04410	4.82990
3394.000	5.33038	5.16584	5.00094	4.79283
3395.000	5.39506	5.12993	4.99898	4.81646
3396.000	5.38722	5.17715	5.06568	4.88286
3397.000	5.36958	5.14390	5.01467	4.78682
3398.000	5.36174	5.14200	4.99702	4.81057
3399.000	5.36174	5.10073	4.95385	4.77939
3400.000	5.38918	5.11426	4.97347	4.89338
3401.000	5.39506	5.15350	5.00683	4.83608
3402.000	5.34606	5.11658	5.00879	4.78293
3403.000	5.38134	5.10646	5.03233	4.84376
3404.000	5.33626	5.04985	4.89301	4.87823
3405.000	5.35978	5.01624	5.06176	4.83370
3406.000	5.25982	4.95610	4.93030	4.72444
3407.000	5.23433	4.83830	4.84591	4.70338
3408.000	5.19512	4.74613	4.87928	4.52590
3409.000	5.10883	4.57355	4.97347	4.34795
3410.000	5.07353	4.38866	4.83609	4.05506
3411.000	5.05195	4.19963	4.93226	3.81381
3412.000	4.94208	4.00709	4.83413	3.67422
3413.000	4.94208	3.76836	4.85769	3.32651
3414.000	4.88713	3.47253	4.92834	3.16217
3415.000	4.81843	3.24964	4.90086	2.99233
3416.000	4.81057	2.99273	4.79094	2.81089
3417.000	4.76542	2.78133	4.83609	2.57137
3418.000	4.83020	2.69404	4.95581	2.45024
3419.000	4.84983	2.55945	4.96170	2.29589
3420.000	4.90086	2.47616	4.95777	2.17716
3421.000	4.98524	2.46991	5.03233	2.17494
3422.000	5.03625	2.49543	5.01467	2.11562
3423.000	5.08137	2.43592	5.00486	2.13347
3424.000	5.12844	2.44168	5.00486	2.16315
3425.000	5.13629	2.50493	5.13433	2.12710
3426.000	5.22649	2.52040	5.02448	2.15913
3427.000	5.20884	2.57385	5.03037	2.22441
3428.000	5.25394	2.60530	4.94208	2.27617
3429.000	5.22257	2.67067	4.90675	2.28025
3430.000	5.28922	2.77909	4.94600	2.39488
3431.000	5.29118	2.83640	4.91853	2.45631
3432.000	5.32450	2.91923	4.89694	2.46628
3433.000	5.31470	3.01608	4.89105	2.54346
3434.000	5.31470	3.07534	4.85376	2.65241
3435.000	5.32842	3.16019	4.91656	2.73127
3436.000	5.30882	3.18992	4.94993	2.84384
3437.000	5.29118	3.27887	4.84983	2.82844
3438.000	5.28922	3.31244	4.90675	2.86775
3439.000	5.34018	3.33783	4.90675	2.88554
3440.000	5.31666	3.36954	4.84198	2.94514
3441.000	5.29706	3.31240	4.82824	2.94124
3442.000	5.29510	3.36374	4.86357	2.91143
3443.000	5.28530	3.27890	4.91853	2.92503
3444.000	5.29902	3.28870	4.77524	2.85842
3445.000	5.25590	3.22376	4.76542	2.84066
3446.000	5.28922	3.19199	4.85769	2.86203
3447.000	5.28726	3.14263	4.77524	2.78327
3448.000	5.23237	3.12118	4.89694	2.69179
3449.000	5.21669	3.01458	4.90283	2.69177
3450.000	5.21473	3.03039	4.90871	2.68977
3451.000	5.19904	2.97119	4.90871	2.66208
3452.000	5.12844	2.89840	4.87142	2.62267
3453.000	5.17943	2.85864	4.98524	2.56684
3454.000	5.17943	2.84283	4.89498	2.54543
3455.000	5.14217	2.78172	4.88713	2.56920
3456.000	5.20100	2.80716	4.95974	2.53529
3457.000	5.18139	2.75190	4.93815	2.51361
3458.000	5.13825	2.78569	4.93423	2.47406
3459.000	5.17943	2.75586	4.90675	2.47020
3460.000	5.19708	2.73602	4.91853	2.49588
3461.000	5.19120	2.74988	4.90283	2.51374
3462.000	5.15002	2.75006	4.89694	2.43661
3463.000	5.18139	2.70841	5.00094	2.48370
3464.000	5.18924	2.70442	4.94208	2.46809
3465.000	5.19904	2.71426	4.82824	2.46060
3466.000	5.21080	2.74782	4.88516	2.50787
3467.000	5.22649	2.71810	4.90086	2.49595
3468.000	5.20492	2.74389	4.91460	2.55129
3469.000	5.22845	2.74774	4.84198	2.57530
3470.000	5.24217	2.72791	4.85769	2.51985
3471.000	5.24806	2.71603	4.85965	2.57128
3472.000	5.26178	2.79108	4.81450	2.51605
3473.000	5.23629	2.78921	4.87535	2.61869
3474.000	5.27550	2.80682	4.92049	2.53544
3475.000	5.23629	2.78131	4.80468	2.52202
3476.000	5.25394	2.81680	4.79880	2.59921
3477.000	5.26374	2.78316	4.77524	2.54390
3478.000	5.24413	2.81289	4.85572	2.62075
3479.000	5.25394	2.80297	4.79880	2.59525
3480.000	5.28726	2.82060	4.88909	2.51380
3481.000	5.21277	2.80711	4.92245	2.57104
3482.000	5.26570	2.80489	4.89498	2.57906
3483.000	5.24021	2.76548	4.86161	2.54555
3484.000	5.21865	2.75371	4.90675	2.63044
3485.000	5.24609	2.82079	4.89890	2.58893
3486.000	5.19120	2.80523	4.85965	2.53765
3487.000	5.23433	2.81887	4.93226	2.61649
3488.000	5.24217	2.80105	4.88516	2.56327
3489.000	5.25198	2.80298	4.87535	2.54946
3490.000	5.20296	2.82098	4.88124	2.62461
3491.000	5.20100	2.76367	4.92049	2.55324
3492.000	5.24806	2.80695	4.87928	2.53955
3493.000	5.24217	2.78721	4.93030	2.55716
3494.000	5.26178	2.78515	4.89694	2.56520
3495.000	5.21865	2.78336	4.93226	2.64221
3496.000	5.20100	2.75379	4.90675	2.57110
3497.000	5.23041	2.78133	4.82628	2.51403
3498.000	5.22453	2.76357	4.91068	2.58493
3499.000	5.23825	2.78327	4.88124	2.54548
3500.000	5.20492	2.80319	4.86161	2.57127
3501.000	5.20688	2.75179	4.95385	2.54718
3502.000	5.20492	2.75970	4.93619	2.51560
3503.000	5.17551	2.77960	4.92049	2.52555
3504.000	5.20884	2.75573	4.85769	2.57129
3505.000	5.17159	2.77764	4.93030	2.49781
3506.000	5.18924	2.75780	4.83413	2.57929
3507.000	5.20884	2.76759	4.92049	2.50774
3508.000	5.22453	2.78334	4.91656	2.51567
3509.000	5.18335	2.79735	4.94600	2.55117
3510.000	5.20100	2.76170	4.93815	2.61252
3511.000	5.22453	2.78927	4.85965	2.58710
3512.000	5.20296	2.80122	4.87339	2.49011
3513.000	5.21080	2.76363	4.84198	2.49616
3514.000	5.18531	2.75979	4.91068	2.54932
3515.000	5.24217	2.80302	4.98328	2.57080
3516.000	5.20296	2.77750	4.87339	2.61277
3517.000	5.15982	2.75199	5.04018	2.52904
3518.000	5.18139	2.75585	4.91460	2.52359
3519.000	5.21080	2.75770	4.88909	2.53160
3520.000	5.18924	2.78547	4.89498	2.59488
3521.000	5.19316	2.75975	4.77131	2.47663
3522.000	5.19708	2.75776	4.89105	2.52368
3523.000	5.19316	2.75580	4.88124	2.52372
3524.000	5.20100	2.73600	4.86161	2.53962
3525.000	5.14217	2.73625	4.91068	2.59482
3526.000	5.16178	2.75791	4.84787	2.56935
3527.000	5.14021	2.72638	4.92834	2.42858
3528.000	5.18531	2.72421	4.86946	2.53761
3529.000	5.16374	2.77372	4.89105	2.58105
3530.000	5.17551	2.72623	4.93619	2.53736
3531.000	5.16963	2.76776	4.89890	2.55926
3532.000	5.13825	2.75011	4.86946	2.52772
3533.000	5.15786	2.74014	4.82039	2.49822
3534.000	5.18531	2.76177	4.89301	2.60280
3535.000	5.15394	2.73027	5.04802	2.51517
3536.000	5.17551	2.76774	4.91460	2.47611
3537.000	5.19120	2.74000	4.93030	2.50968
3538.000	5.17551	2.73611	4.95385	2.61443
3539.000	5.12452	2.72249	4.93815	2.55317
3540.000	5.15590	2.77375	4.95581	2.49178
3541.000	5.16767	2.74801	4.93423	2.47406
3542.000	5.18728	2.71431	4.99505	2.47977
3543.000	5.20492	2.74982	4.92049	2.53939
3544.000	5.19316	2.75185	4.96759	2.46602
3545.000	5.20492	2.75970	4.89694	2.56916
3546.000	5.19708	2.73602	4.99113	2.52726
3547.000	5.20884	2.75771	4.98328	2.51146
3548.000	5.21080	2.73793	4.96759	2.48976
3549.000	5.23041	2.73587	4.91656	2.46819
3550.000	5.19316	2.74592	4.90675	2.56319
3551.000	5.19708	2.76962	4.94796	2.48588
3552.000	5.19120	2.74395	4.87535	2.48021
3553.000	5.22453	2.74380	4.85572	2.54558
3554.000	5.22453	2.76950	4.96366	2.51945
3555.000	5.23433	2.79713	4.88713	2.53359
3556.000	5.21277	2.77153	4.97543	2.48973
3557.000	5.22845	2.73588	4.94208	2.54920
3558.000	5.25002	2.76148	4.86750	2.48816
3559.000	5.21865	2.76162	4.84591	2.51791
3560.000	5.22453	2.75764	4.95385	2.52938
3561.000	5.22453	2.73985	4.89890	2.49200
3562.000	5.23629	2.75364	4.89890	2.41483
3563.000	5.20688	2.75772	4.94404	2.43248
3564.000	5.25394	2.74565	4.86357	2.59698
3565.000	5.23041	2.77343	4.90479	2.49791
3566.000	5.23629	2.78328	4.92638	2.43254
3567.000	5.24021	2.75955	4.92441	2.57894
3568.000	5.24806	2.77137	4.94993	2.51950
3569.000	5.21865	2.76162	4.85965	2.43476
3570.000	5.22845	2.74972	4.97740	2.49566
3571.000	5.24609	2.78522	4.86161	2.53764
3572.000	5.26766	2.73966	4.95385	2.45816
3573.000	5.25002	2.77532	4.90871	2.48602
3574.000	5.24609	2.75359	4.87928	2.46041
3575.000	5.26374	2.73573	4.95189	2.49575
3576.000	5.24021	2.72002	4.93226	2.54726
3577.000	5.24021	2.76548	4.89890	2.44451
3578.000	5.22845	2.73390	4.89890	2.48804
3579.000	5.23041	2.73192	4.83413	2.54170
3580.000	5.24806	2.76149	4.92245	2.51763
3581.000	5.22257	2.70823	4.94993	2.46015
3582.000	5.24217	2.73582	4.84002	2.48232
3583.000	5.27942	2.74159	4.91656	2.58886
3584.000	5.25198	2.69427	4.92638	2.53146
3585.000	5.23629	2.68841	4.88909	2.53160
3586.000	5.25786	2.71796	4.88713	2.54941
3587.000	5.24021	2.68048	4.92245	2.53741
3588.000	5.21865	2.68848	4.85769	2.59305
3589.000	5.26766	2.65071	4.87928	2.54944
3590.000	5.23041	2.68052	4.94404	2.54920
3591.000	5.26374	2.74363	4.97347	2.50952
3592.000	5.21277	2.72014	4.91460	2.57107
3593.000	5.20688	2.68260	4.92638	2.54333
3594.000	5.25002	2.69823	4.88320	2.49205
3595.000	5.21669	2.68651	4.96759	2.45415
3596.000	5.18139	2.70643	4.88713	2.47819
3597.000	5.22453	2.73392	4.93423	2.49582
3598.000	5.19708	2.68857	4.93226	2.53539
3599.000	5.22257	2.67858	4.92245	2.53345
3600.000	5.24609	2.70813	4.96955	2.52338
3601.000	5.19708	2.67276	4.91460	2.55722
3602.000	5.20296	2.65494	4.97151	2.47985
3603.000	5.21669	2.66872	4.94993	2.52346
3604.000	5.23237	2.66470	4.89301	2.54148
3605.000	5.24609	2.66662	5.00486	2.53709
3606.000	5.19120	2.68860	4.88124	2.48613
3607.000	5.20688	2.67865	4.86161	2.44069
3608.000	5.22649	2.70624	4.90479	2.45043
3609.000	5.18924	2.66488	4.95581	2.44628
3610.000	5.20296	2.63517	4.94404	2.43643
3611.000	5.19708	2.66287	4.95189	2.52147
3612.000	5.18924	2.69256	4.87339	2.47626
3613.000	5.18335	2.65898	4.98721	2.51540
3614.000	5.17943	2.61747	4.90675	2.55132
3615.000	5.19904	2.68263	4.92245	2.44443
3616.000	5.15394	2.71841	4.95974	2.47199
3617.000	5.16767	2.64125	4.86554	2.49806
3618.000	5.16767	2.68474	5.00879	2.49158
3619.000	5.17943	2.65504	4.92049	2.46818
3620.000	5.18335	2.65700	4.96562	2.47394
3621.000	5.18531	2.62338	4.93815	2.53537
3622.000	5.14413	2.65914	4.81450	2.52990
3623.000	5.17355	2.62343	4.83806	2.47639
3624.000	5.16963	2.67485	4.90675	2.52758
3625.000	5.13825	2.59985	4.96759	2.47591
3626.000	5.16374	2.63138	4.98917	2.44418
3627.000	5.16767	2.67288	4.95777	2.45221
3628.000	5.16767	2.63927	4.98721	2.49760
3629.000	5.14217	2.69078	4.96955	2.45414
3630.000	5.11864	2.65925	4.95189	2.46410
3631.000	5.16374	2.67685	4.94600	2.43840
3632.000	5.20100	2.67670	4.97936	2.41256
3633.000	5.12648	2.64933	4.91264	2.50975
3634.000	5.17943	2.66690	4.93423	2.46021
3635.000	5.17551	2.66692	4.93030	2.52551
3636.000	5.16374	2.63929	4.86946	2.41098
3637.000	5.13237	2.69082	4.98524	2.44815
3638.000	5.14806	2.67099	4.97151	2.43435
3639.000	5.17551	2.63726	4.87339	2.46439
3640.000	5.18728	2.63128	4.97151	2.41259
3641.000	5.17943	2.66690	4.89301	2.42475
3642.000	5.16963	2.68869	4.88124	2.47623
3643.000	5.17551	2.68867	4.86750	2.42880
3644.000	5.18139	2.65503	4.90871	2.49394
3645.000	5.17943	2.76377	4.95189	2.38496
3646.000	5.18924	2.72814	4.96955	2.37896
3647.000	5.18924	2.73012	4.93030	2.47012
3648.000	5.18728	2.73408	4.94993	2.40278
3649.000	5.17943	2.73016	4.93030	2.45033
3650.000	5.18139	2.73806	4.92049	2.40684
3651.000	5.18924	2.79535	4.95385	2.39485
3652.000	5.17551	2.75588	5.01075	2.44212
3653.000	5.18531	2.75386	4.88713	2.41290
3654.000	5.19708	2.75381	4.94600	2.43247
3655.000	5.17943	2.73214	4.94993	2.42256
3656.000	5.18531	2.72223	4.89694	2.39703
3657.000	5.17551	2.73216	4.95385	2.40474
3658.000	5.21473	2.73396	4.96170	2.43043
3659.000	5.17943	2.74202	4.95189	2.40475
3660.000	5.21669	2.68849	4.96366	2.38690
3661.000	5.17943	2.68469	4.94208	2.38104
3662.000	5.22453	2.72404	4.97151	2.47392
3663.000	5.18531	2.65699	4.90283	2.46626
3664.000	5.18139	2.71632	5.00290	2.41050
3665.000	5.20296	2.70239	4.93030	2.37515
3666.000	5.17943	2.73016	4.90283	2.39701
3667.000	5.16571	2.74011	4.94796	2.44631
3668.000	5.20100	2.69646	4.97740	2.44027
3669.000	5.18531	2.72223	4.93423	2.39492
3670.000	5.17159	2.69066	4.89694	2.40890
3671.000	5.17551	2.69064	4.85769	2.37343
3672.000	5.21080	2.73398	4.90479	2.40492
3673.000	5.24806	2.70022	4.98917	2.41055
3674.000	5.26178	2.69620	4.95385	2.44629
3675.000	5.21669	2.69244	4.93423	2.40679
3676.000	5.22257	2.70823	4.91460	2.37916
3677.000	5.19904	2.64903	4.90675	2.35544
3678.000	5.22257	2.68253	4.86357	2.44266
3679.000	5.20884	2.71225	4.96955	2.52536
3680.000	5.19316	2.72615	4.92834	2.45034
3681.000	5.16767	2.75789	4.95777	2.45617
3682.000	5.12256	2.72052	4.89301	2.40298
3683.000	5.03233	2.70113	4.81254	2.39337
3684.000	4.94011	2.68173	4.68688	2.30078
3685.000	4.80272	2.56556	4.59260	2.23178
3686.000	4.61224	2.45147	4.39218	2.21853
3687.000	4.41970	2.27786	4.31356	2.01867
3688.000	4.17396	2.08840	4.12873	1.81104
3689.000	3.93791	1.83922	3.91036	1.60330
3690.000	3.58161	1.58010	3.67810	1.33589
3691.000	3.25657	1.24715	3.47920	1.17343
3692.000	2.93328	1.07872	3.39252	0.81816
3693.000	2.72226	0.92992	3.12649	0.59989
3694.000	2.48946	0.68766	2.96286	0.45695
3695.000	2.39671	0.46909	2.87215	0.25631
3696.000	2.19932	0.25247	2.77749	0.05564
3697.000	2.16379	0.06362	2.67097	-0.06161
3698.000	2.06507	-0.08350	2.62362	-0.09539
3699.000	2.05915	-0.28033	2.58614	-0.22458
3700.000	2.10259	-0.35785	2.59798	-0.31202
3701.000	2.12430	-0.32405	2.47959	-0.25242
3702.000	2.18353	-0.38566	2.50722	-0.32993
3703.000	2.22301	-0.39957	2.46380	-0.32596
3704.000	2.26052	-0.32005	2.51116	-0.22260
3705.000	2.32960	-0.27431	2.49340	-0.24844
3706.000	2.42433	-0.20075	2.53879	-0.17092
3707.000	2.41841	-0.17690	2.59995	-0.11328
3708.000	2.49340	-0.05963	2.60587	-0.01192
3709.000	2.56049	-0.04571	2.59600	0.04770
3710.000	2.70253	0.05763	2.63546	0.08744
3711.000	2.74987	0.11923	2.74396	0.11128
3712.000	2.80707	0.15102	2.79327	0.16890
3713.000	2.85243	0.18677	2.73804	0.19673
3714.000	2.91357	0.19670	2.86229	0.19075
3715.000	2.90371	0.22650	2.82877	0.20466
3716.000	2.96680	0.26027	2.86821	0.24638
3717.000	2.95497	0.29802	2.91948	0.21458
3718.000	2.99441	0.30198	2.97469	0.26622
3719.000	3.01807	0.34369	2.94906	0.33775
3720.000	2.98652	0.31589	2.98258	0.32781
3721.000	3.00624	0.39336	2.98849	0.26821
3722.000	2.95103	0.35563	2.88004	0.30400
3723.000	2.91357	0.35366	2.88596	0.22849
3724.000	2.88596	0.35963	2.88793	0.28810
3725.000	2.82482	0.35965	2.77946	0.24242
3726.000	2.80313	0.31991	2.71831	0.23449
3727.000	2.75185	0.29608	2.81496	0.21261
3728.000	2.65913	0.26431	2.72226	0.23449
3729.000	2.68281	0.22853	2.72226	0.20071
3730.000	2.67886	0.16296	2.64927	0.16892
3731.000	2.56246	0.13713	2.68478	0.14904
3732.000	2.59600	0.14110	2.68873	0.06359
3733.000	2.50327	0.07751	2.62954	0.05962
3734.000	2.50722	0.05764	2.65716	0.06161
3735.000	2.51511	0.05565	2.63349	0.04968
3736.000	2.47170	0.04770	2.59008	0.03577
3737.000	2.51708	0.00994	2.59798	-0.01789
3738.000	2.50524	-0.01590	2.57627	-0.07552
3739.000	2.45394	-0.00795	2.60784	-0.04173
3740.000	2.51511	-0.03180	2.66505	-0.04372
3741.000	2.53089	-0.02782	2.60192	-0.01789
3742.000	2.52103	-0.00795	2.63152	0.04372
3743.000	2.52103	-0.07155	2.65124	0.02186
3744.000	2.53484	-0.03975	2.53879	-0.07751
3745.000	2.54865	-0.04571	2.59403	-0.02584
3746.000	2.56838	-0.01192	2.58022	-0.04770
3747.000	2.56049	-0.04174	2.56641	-0.04174
3748.000	2.55260	-0.04969	2.59403	-0.00994
3749.000	2.56049	-0.03577	2.60390	-0.03776
3750.000	2.54471	-0.04372	2.74198	-0.02186
3751.000	2.56049	-0.03776	2.66900	0.00596
3752.000	2.57825	0.00199	2.70648	-0.02782
3753.000	2.55654	-0.06956	2.67294	-0.03180
3754.000	2.61968	0.00397	2.66505	-0.04372
3755.000	2.59008	-0.00596	2.66703	-0.08545
3756.000	2.60192	0.03776	2.65716	-0.05763
3757.000	2.56444	-0.02981	2.67294	-0.08744
3758.000	2.61376	0.00397	2.69267	-0.03378
3759.000	2.61179	0.01789	2.67886	-0.03180
3760.000	2.58614	0.03379	2.64335	0.03180
3761.000	2.59403	0.02584	2.61376	-0.05167
3762.000	2.64138	0.01192	2.62757	-0.04968
3763.000	2.65124	0.05962	2.63941	0.00795
3764.000	2.61376	0.03180	2.68478	0.01391
3765.000	2.64730	0.04571	2.67097	-0.01192
3766.000	2.63349	0.03975	2.68281	0.01590
3767.000	2.59206	0.04571	2.65716	0.01590
3768.000	2.62165	0.04770	2.63743	-0.02186
3769.000	2.61771	0.04571	2.64533	-0.03180
3770.000	2.61771	0.01987	2.70451	-0.02186
3771.000	2.59008	0.04174	2.70451	-0.04372
3772.000	2.60587	0.07155	2.67097	-0.04968
3773.000	2.56641	0.00000	2.62757	-0.03975
3774.000	2.60784	0.05763	2.65124	0.00397
3775.000	2.61179	0.04173	2.66111	-0.03577
3776.000	2.62165	0.06558	2.61968	-0.02981
3777.000	2.59008	0.01192	2.54668	-0.01789
3778.000	2.58022	0.04770	2.65519	-0.04968
3779.000	2.62362	0.08943	2.64138	-0.05962
3780.000	2.55852	0.04174	2.68083	-0.02981
3781.000	2.55260	0.03180	2.61771	-0.01987
3782.000	2.57825	0.07155	2.60390	-0.05763
3783.000	2.57233	0.08148	2.59600	-0.00596
3784.000	2.57035	0.02981	2.63152	-0.05763
3785.000	2.53484	0.00199	2.60587	0.02584
3786.000	2.55457	0.05962	2.63546	-0.06359
3787.000	2.53484	0.01789	2.65913	-0.08545
3788.000	2.56444	0.01192	2.57627	0.00000
3789.000	2.57627	0.02584	2.58811	-0.08148
3790.000	2.60587	0.07155	2.62165	-0.01391
3791.000	2.57035	0.00199	2.57825	-0.00199
3792.000	2.59008	-0.00199	2.60192	-0.02584
3793.000	2.57825	0.01391	2.58811	-0.01590
3794.000	2.55062	0.02584	2.60192	-0.02981
3795.000	2.58219	0.02385	2.61376	-0.00199
3796.000	2.58614	0.03776	2.58614	0.00596
3797.000	2.57430	0.02186	2.55654	0.01192
3798.000	2.56641	-0.00397	2.57825	-0.01192
3799.000	2.58022	0.04571	2.53681	0.00000
3800.000	2.59403	0.02385	2.68873	-0.02583
3801.000	2.60784	0.07353	2.62757	-0.00994
3802.000	2.60390	0.00795	2.61573	-0.03180
3803.000	2.63941	0.08148	2.61179	-0.01789
3804.000	2.61179	0.02186	2.61376	0.01391
3805.000	2.61573	0.01590	2.61771	0.00000
3806.000	2.63941	0.02584	2.61771	-0.05565
3807.000	2.58022	0.00795	2.59600	-0.00994
3808.000	2.67689	0.00596	2.64335	-0.02186
3809.000	2.62362	0.03577	2.58614	-0.01789
3810.000	2.62560	0.02385	2.63152	-0.04770
3811.000	2.66900	0.01192	2.60981	-0.05167
3812.000	2.64138	0.01192	2.60192	-0.09937
3813.000	2.61376	0.05962	2.64533	-0.00397
3814.000	2.62954	0.00397	2.59206	-0.10334
3815.000	2.64533	0.03180	2.62560	-0.06956
3816.000	2.62560	0.05167	2.60981	0.00000
3817.000	2.59995	0.01590	2.61179	-0.06757
3818.000	2.62165	0.05763	2.62757	-0.06757
3819.000	2.60390	0.02782	2.61573	-0.02186
3820.000	2.64335	0.07949	2.66308	-0.01590
3821.000	2.63546	0.05565	2.51116	0.02186
3822.000	2.60390	0.04968	2.65519	-0.06558
3823.000	2.59798	0.05565	2.61573	-0.06558
3824.000	2.62757	0.00795	2.65519	-0.05366
3825.000	2.59403	0.05167	2.63152	0.00199
3826.000	2.58219	0.04174	2.70056	-0.00795
3827.000	2.60981	0.01192	2.64730	-0.06757
3828.000	2.62560	0.00795	2.63941	-0.05366
3829.000	2.62362	0.02981	2.61573	-0.12322
3830.000	2.62757	0.03378	2.64533	-0.03180
3831.000	2.61179	0.03180	2.62165	0.02782
3832.000	2.61771	0.08347	2.59798	-0.08546
3833.000	2.60192	0.00199	2.64533	-0.04968
3834.000	2.63152	0.06359	2.63941	-0.02981
3835.000	2.64335	0.06558	2.63349	-0.03577
3836.000	2.62165	0.06956	2.57430	-0.04571
3837.000	2.63546	0.08744	2.56838	0.01192
3838.000	2.58811	0.02385	2.66505	-0.02981
3839.000	2.60784	0.03379	2.55654	0.01987
3840.000	2.62165	0.10732	2.61376	-0.07949
3841.000	2.59008	0.07751	2.63743	-0.04770
3842.000	2.64138	0.13315	2.65519	0.02385
3843.000	2.62757	0.03577	2.63941	-0.03975
3844.000	2.60981	0.07552	2.68083	-0.07353
3845.000	2.64730	0.09738	2.57233	0.00199
3846.000	2.61179	0.06161	2.70845	-0.11923
3847.000	2.65519	0.07353	2.62165	-0.02782
3848.000	2.63941	0.11725	2.67294	-0.07552
3849.000	2.63349	0.07353	2.65716	-0.08943
3850.000	2.64335	0.08545	2.58811	-0.07155
3851.000	2.62165	0.05962	2.68873	-0.06359
3852.000	2.65519	0.08545	2.69662	-0.02782
3853.000	2.65322	0.11725	2.63152	-0.00397
3854.000	2.64335	0.09539	2.68281	-0.09539
3855.000	2.64927	0.07751	2.57233	-0.01789
3856.000	2.65322	0.05763	2.67886	-0.09539
3857.000	2.63941	0.03180	2.65322	-0.06956
3858.000	2.63152	0.06161	2.67689	-0.11129
3859.000	2.63349	0.05763	2.63349	-0.06757
3860.000	2.62757	0.07751	2.63743	-0.03378
3861.000	2.62954	0.07949	2.68083	-0.09936
3862.000	2.64927	0.07949	2.66505	-0.04968
3863.000	2.61376	0.08148	2.63941	-0.08347
3864.000	2.63546	0.03577	2.59995	-0.05565
3865.000	2.60390	0.00994	2.64730	-0.10135
3866.000	2.64927	0.05167	2.66308	-0.14706
3867.000	2.68873	0.07750	2.67492	-0.12520
3868.000	2.66505	0.06757	2.60192	-0.08148
3869.000	2.65322	0.02981	2.70451	-0.07551
3870.000	2.64730	0.05167	2.59995	-0.09738
3871.000	2.65913	0.09936	2.66703	-0.12520
3872.000	2.62757	0.02584	2.65913	-0.11129
3873.000	2.64138	0.10533	2.72620	-0.11526
3874.000	2.66111	0.11129	2.61771	-0.16893
3875.000	2.62757	0.09937	2.64927	-0.03975
3876.000	2.62954	0.09738	2.63743	-0.09340
3877.000	2.64927	0.08744	2.60390	-0.16098
3878.000	2.66703	0.06359	2.62954	-0.11527
3879.000	2.65124	0.07353	2.64533	-0.07552
3880.000	2.65519	0.10135	2.65519	-0.09340
3881.000	2.64533	0.06757	2.62165	-0.01391
3882.000	2.65322	0.08545	2.59206	-0.06956
3883.000	2.62165	0.07154	2.62165	-0.07353
3884.000	2.65716	0.06956	2.61179	-0.00397
3885.000	2.62362	0.08148	2.59600	-0.01590
3886.000	2.66900	0.05962	2.64335	-0.02186
3887.000	2.67097	0.07750	2.62165	-0.01590
3888.000	2.64927	0.05763	2.67886	-0.08148
3889.000	2.65124	0.06359	2.61376	-0.03975
3890.000	2.65716	0.12917	2.69267	-0.01987
3891.000	2.63152	0.10930	2.59403	-0.07155
3892.000	2.63743	0.04571	2.63743	0.00000
3893.000	2.60981	0.05763	2.67097	-0.08347
3894.000	2.60784	0.06558	2.62954	-0.05962
3895.000	2.60981	0.05565	2.57430	-0.05565
3896.000	2.62165	0.07154	2.63546	0.00596
3897.000	2.61376	0.07751	2.59403	-0.02584
3898.000	2.63349	0.11328	2.58219	-0.02981
3899.000	2.61771	0.05763	2.67097	-0.04571
3900.000	2.67097	0.13315	2.57825	0.01391
3901.000	2.62165	0.06360	2.61179	0.00000
3902.000	2.63941	0.07353	2.65716	-0.06757
3903.000	2.65716	0.06757	2.60587	-0.05565
3904.000	2.62362	0.07949	2.63349	-0.06757
3905.000	2.68478	0.05366	2.59206	-0.01391
3906.000	2.67492	0.05962	2.66111	-0.06161
3907.000	2.68478	0.09141	2.63152	-0.08347
3908.000	2.65519	0.07750	2.59403	-0.02186
3909.000	2.64335	0.07353	2.59008	-0.01987
3910.000	2.66111	0.10334	2.59403	-0.04174
3911.000	2.63349	0.09142	2.54076	-0.05565
3912.000	2.67294	0.08347	2.59798	-0.06956
3913.000	2.61179	0.05962	2.60784	-0.02385
3914.000	2.65322	0.07154	2.63941	0.00397
3915.000	2.63152	0.06161	2.64335	-0.04372
3916.000	2.63941	0.09142	2.64730	0.00397
3917.000	2.59995	0.11328	2.59206	0.01590
3918.000	2.63152	0.09340	2.60587	-0.07155
3919.000	2.67492	0.05962	2.74198	0.00994
3920.000	2.66111	0.08943	2.61771	0.02981
3921.000	2.60390	0.09937	2.56049	-0.00199
3922.000	2.62560	0.08744	2.63349	0.02584
3923.000	2.63152	0.03975	2.63546	-0.00596
3924.000	2.62954	0.05167	2.64927	0.00596
3925.000	2.62362	0.07552	2.60587	-0.03577
3926.000	2.61968	0.05763	2.61179	0.00199
3927.000	2.59995	0.12521	2.52103	-0.03578
3928.000	2.65716	0.07552	2.64138	0.02584
3929.000	2.62954	0.08744	2.58614	-0.02584
3930.000	2.61573	0.06360	2.58417	-0.05366
3931.000	2.58219	0.08943	2.60587	-0.02584
3932.000	2.60390	0.07353	2.51313	0.00398
3933.000	2.59206	0.03975	2.58811	-0.01590
3934.000	2.66703	0.08943	2.67294	-0.12719
3935.000	2.62362	0.08148	2.59995	-0.07155
3936.000	2.62362	0.08943	2.58417	-0.08546
3937.000	2.64927	0.12321	2.57035	-0.09341
3938.000	2.63743	0.06757	2.56246	0.01987
3939.000	2.61771	0.09142	2.62954	-0.03577
3940.000	2.65322	0.07154	2.55457	-0.03577
3941.000	2.62757	0.10334	2.61573	-0.03975
3942.000	2.66111	0.06757	2.58219	-0.01987
3943.000	2.63941	0.08943	2.58219	0.00596
3944.000	2.60192	0.02782	2.63349	-0.03378
3945.000	2.63152	0.06558	2.57825	-0.04174
3946.000	2.65322	0.05366	2.56641	-0.00596
3947.000	2.59995	0.07155	2.62165	-0.04968
3948.000	2.64927	0.06161	2.59008	-0.06360
3949.000	2.62362	0.07751	2.49735	-0.06956
3950.000	2.60192	0.09341	2.60784	-0.06161
3951.000	2.64533	0.06558	2.54865	-0.04174
3952.000	2.61968	0.03776	2.65716	-0.02583
3953.000	2.64730	0.09539	2.59206	-0.08546
3954.000	2.64730	0.10930	2.60784	-0.05366
3955.000	2.65322	0.07552	2.59798	-0.04372
3956.000	2.65519	0.08744	2.53681	-0.01789
3957.000	2.62362	0.09142	2.58811	-0.06161
3958.000	2.65519	0.10334	2.61968	-0.07949
3959.000	2.64730	0.09738	2.60784	-0.09142
3960.000	2.59798	0.07353	2.61376	-0.11129
3961.000	2.65124	0.06558	2.60981	-0.04770
3962.000	2.63546	0.07949	2.55260	-0.02186
3963.000	2.63152	0.07751	2.58811	-0.10335
3964.000	2.64138	0.08744	2.58219	-0.06161
3965.000	2.61968	0.04173	2.59008	-0.02385
3966.000	2.60192	0.07155	2.61968	-0.08546
3967.000	2.63152	0.07552	2.55457	-0.10136
3968.000	2.64138	0.07949	2.55852	-0.06559
3969.000	2.62757	0.12123	2.61573	-0.07751
3970.000	2.62362	0.09738	2.59600	-0.14110
3971.000	2.58417	0.06161	2.52497	-0.09341
3972.000	2.60784	0.04571	2.57825	-0.04969
3973.000	2.61179	0.10334	2.57035	-0.10136
3974.000	2.60981	0.06161	2.59206	-0.04174
3975.000	2.63941	0.06558	2.54273	-0.06161
3976.000	2.57627	0.05764	2.61771	-0.06757
3977.000	2.61573	0.08148	2.51905	-0.06161
3978.000	2.61179	0.10136	2.51116	-0.06559
3979.000	2.64335	0.05366	2.59206	-0.00199
3980.000	2.60981	0.11129	2.64533	-0.03776
3981.000	2.60587	0.08347	2.62362	-0.05167
3982.000	2.59995	0.11328	2.57233	-0.00596
3983.000	2.63743	0.08546	2.57825	-0.02186
3984.000	2.64138	0.10135	2.53089	-0.03776
3985.000	2.64533	0.08148	2.65519	-0.07154
3986.000	2.60587	0.09341	2.55852	-0.02782
3987.000	2.62362	0.09738	2.51511	-0.02385
3988.000	2.62954	0.02782	2.62165	-0.09142
3989.000	2.63152	0.10135	2.57627	-0.00994
3990.000	2.62560	0.09738	2.56838	-0.11328
3991.000	2.61179	0.11527	2.61179	-0.05565
3992.000	2.63152	0.07949	2.66900	-0.09340
3993.000	2.61179	0.09142	2.59206	-0.03776
3994.000	2.62362	0.08347	2.56838	-0.04571
3995.000	2.62757	0.06956	2.63152	-0.07552
3996.000	2.63743	0.11924	2.50722	-0.04969
3997.000	2.60784	0.09341	2.62757	-0.04571
3998.000	2.64730	0.10930	2.61179	-0.07552
3999.000	2.63349	0.04968	2.63349	-0.04571
4000.000	2.62165	0.11328	2.61771	-0.02782
4001.000	2.62362	0.09539	2.64927	-0.06161
4002.000	2.63941	0.10533	2.61771	-0.02186
4003.000	2.67689	0.12718	2.57627	-0.01391
4004.000	2.62362	0.12322	2.55852	-0.06757
4005.000	2.67886	0.11924	2.58417	-0.02782
4006.000	2.65913	0.09738	2.59403	-0.04372
4007.000	2.59600	0.10334	2.60587	-0.04770
4008.000	2.63349	0.07154	2.57627	-0.10931
4009.000	2.66111	0.11924	2.61573	-0.09937
4010.000	2.67886	0.10930	2.62560	-0.02385
4011.000	2.64138	0.09738	2.56246	-0.03379
4012.000	2.66111	0.08545	2.66505	-0.01590
4013.000	2.67492	0.11526	2.59206	0.00199
4014.000	2.65124	0.13514	2.68478	-0.09141
4015.000	2.63349	0.10732	2.56444	-0.14508
4016.000	2.60784	0.07353	2.59008	-0.10136
4017.000	2.60192	0.07950	2.60981	-0.14110
4018.000	2.64730	0.13315	2.62560	-0.15303
4019.000	2.65913	0.08347	2.63941	-0.16892
4020.000	2.61573	0.06161	2.63743	-0.13514
4021.000	2.64927	0.05763	2.61968	-0.14110
4022.000	2.63349	0.09937	2.71240	-0.17090
4023.000	2.64138	0.09539	2.60981	-0.10334
4024.000	2.64533	0.13712	2.68083	-0.10532
4025.000	2.67294	0.11129	2.61968	-0.12918
4026.000	2.63349	0.11527	2.61179	-0.07949
4027.000	2.65124	0.07353	2.56246	-0.12720
4028.000	2.62560	0.10334	2.62560	-0.13911
4029.000	2.63349	0.13713	2.65322	-0.12123
4030.000	2.63743	0.13911	2.66505	-0.10334
4031.000	2.67294	0.14706	2.62560	-0.16892
4032.000	2.60390	0.07751	2.60390	-0.09937
4033.000	2.59403	0.11129	2.65124	-0.06956
4034.000	2.66308	0.11526	2.59008	-0.14905
4035.000	2.64730	0.11924	2.61771	-0.07949
4036.000	2.64335	0.10334	2.67097	-0.05763
4037.000	2.63152	0.10135	2.63941	-0.13514
4038.000	2.61376	0.14309	2.59206	-0.16694
4039.000	2.63546	0.10533	2.61573	-0.13912
4040.000	2.62757	0.08744	2.54668	-0.15701
4041.000	2.61376	0.10931	2.61179	-0.12918
4042.000	2.60390	0.10334	2.59995	-0.11924
4043.000	2.57430	0.12123	2.59798	-0.09341
4044.000	2.63941	0.09738	2.62165	-0.14905
4045.000	2.63152	0.14508	2.62560	-0.11328
4046.000	2.65519	0.14507	2.60192	-0.13912
4047.000	2.64138	0.11129	2.65322	-0.12917
4048.000	2.58811	0.06558	2.66505	-0.03378
4049.000	2.61376	0.12918	2.59995	-0.11527
4050.000	2.58417	0.12521	2.59600	-0.13117
4051.000	2.62560	0.11129	2.57627	-0.14508
4052.000	2.59600	0.10136	2.60587	-0.10931
4053.000	2.58417	0.13912	2.64730	-0.16296
4054.000	2.63743	0.13713	2.61771	-0.08943
4055.000	2.61179	0.13117	2.63152	-0.13116
4056.000	2.65913	0.13911	2.63546	-0.09539
4057.000	2.59600	0.07751	2.61179	-0.12719
4058.000	2.64138	0.12918	2.59995	-0.16694
4059.000	2.60981	0.08347	2.59600	-0.07751
4060.000	2.54471	0.08944	2.58219	-0.10931
4061.000	2.63546	0.12123	2.59798	-0.14905
4062.000	2.64335	0.18681	2.54865	-0.15701
4063.000	2.59008	0.11527	2.57627	-0.16893
4064.000	2.57233	0.10732	2.63941	-0.17290
4065.000	2.57627	0.09540	2.60390	-0.15502
4066.000	2.61573	0.11328	2.64927	-0.14706
4067.000	2.60192	0.08943	2.59206	-0.13912
4068.000	2.60784	0.09539	2.61376	-0.16694
4069.000	2.60784	0.10136	2.64335	-0.15899
4070.000	2.59798	0.12918	2.61968	-0.16495
4071.000	2.58811	0.11328	2.59008	-0.18880
4072.000	2.57430	0.12123	2.57825	-0.16694
4073.000	2.60390	0.12719	2.56641	-0.18881
4074.000	2.60784	0.14110	2.63941	-0.10533
4075.000	2.62362	0.06956	2.56444	-0.13316
4076.000	2.59206	0.09738	2.61771	-0.16495
4077.000	2.59600	0.07950	2.58417	-0.12719
4078.000	2.61179	0.07552	2.59206	-0.18085
4079.000	2.61968	0.07949	2.61968	-0.09937
4080.000	2.60390	0.14905	2.61771	-0.12322
4081.000	2.60784	0.15700	2.66308	-0.14308
4082.000	2.59798	0.14508	2.66900	-0.12719
4083.000	2.61968	0.14508	2.60784	-0.08943
4084.000	2.60587	0.15104	2.57825	-0.14906
4085.000	2.56838	0.10335	2.57825	-0.08148
4086.000	2.61573	0.13315	2.60192	-0.13315
4087.000	2.61179	0.06757	2.66308	-0.15103
4088.000	2.59798	0.09539	2.61573	-0.21463
4089.000	2.61573	0.12918	2.62560	-0.15104
4090.000	2.59995	0.13713	2.62165	-0.10732
4091.000	2.60784	0.13514	2.61573	-0.14110
4092.000	2.58219	0.12719	2.61376	-0.19874
4093.000	2.53681	0.12720	2.65716	-0.17488
4094.000	2.56641	0.10732	2.46380	-0.20472
4095.000	2.48156	0.02981	2.53681	-0.22856
4096.000	2.42631	0.06758	2.50524	-0.17093
4097.000	2.32960	-0.00994	2.35329	-0.29816
4098.000	2.22104	-0.06560	2.33947	-0.29419
4099.000	2.05915	-0.10537	2.21906	-0.30415
4100.000	1.95252	-0.17696	2.12233	-0.46122
4101.000	1.83008	-0.27440	2.04138	-0.54474
4102.000	1.70367	-0.31220	1.90513	-0.55274
4103.000	1.61873	-0.40170	1.81626	-0.52891
4104.000	1.52193	-0.45740	1.64639	-0.63235
4105.000	1.47057	-0.50514	1.68590	-0.66813
4106.000	1.47057	-0.56678	1.59700	-0.61050
4107.000	1.45674	-0.64434	1.68590	-0.66217
4108.000	1.44883	-0.68014	1.71553	-0.70590
4109.000	1.52786	-0.66222	1.77083	-0.69792
4110.000	1.57527	-0.66220	1.85971	-0.73765
4111.000	1.67800	-0.67012	1.87156	-0.65017
4112.000	1.73133	-0.65619	1.81231	-0.67803
4113.000	1.77676	-0.61442	2.02163	-0.62825
4114.000	1.86761	-0.62035	2.01571	-0.61831
4115.000	1.95252	-0.60442	2.10654	-0.49900
4116.000	1.99794	-0.60440	2.06310	-0.51889
4117.000	2.08284	-0.54075	2.10259	-0.49900
4118.000	2.09074	-0.49304	2.16576	-0.52681
4119.000	2.15984	-0.44531	2.18353	-0.52283
4120.000	2.11443	-0.48707	2.18550	-0.49102
4121.000	2.13220	-0.43935	2.17169	-0.49103
4122.000	2.07889	-0.41949	2.17958	-0.55265
4123.000	2.08482	-0.38768	2.15194	-0.52284
4124.000	2.07100	-0.41750	2.18748	-0.49500
4125.000	2.05323	-0.37774	2.09074	-0.49503
4126.000	1.99597	-0.36384	2.17169	-0.49103
4127.000	1.96635	-0.36981	2.07692	-0.53082
4128.000	1.97819	-0.35589	2.09666	-0.49503
4129.000	1.96240	-0.38771	2.07692	-0.50100
4130.000	1.92488	-0.37976	2.04533	-0.47317
4131.000	1.90513	-0.39567	2.06507	-0.45925
4132.000	1.94660	-0.36186	2.05915	-0.48907
4133.000	1.91698	-0.38971	1.99991	-0.51295
4134.000	1.88538	-0.37977	1.99597	-0.49506
4135.000	1.84983	-0.41557	1.96437	-0.50700
4136.000	1.85773	-0.44539	2.05718	-0.59642
4137.000	1.84391	-0.39767	1.99794	-0.48114
4138.000	1.86563	-0.41556	2.05915	-0.53281
4139.000	1.86563	-0.40165	1.95845	-0.54079
4140.000	1.83008	-0.44540	2.02163	-0.55668
4141.000	1.85971	-0.47323	2.03546	-0.59643
4142.000	1.80836	-0.43148	2.00781	-0.54277
4143.000	1.81626	-0.43347	1.96240	-0.62429
4144.000	1.82416	-0.47324	1.94462	-0.57261
4145.000	1.81033	-0.44739	1.98017	-0.54079
4146.000	1.81033	-0.48318	2.00189	-0.56861
4147.000	1.78466	-0.43149	2.00584	-0.61235
4148.000	1.82613	-0.44739	1.98017	-0.53681
4149.000	1.83996	-0.46528	2.02361	-0.50101
4150.000	1.87551	-0.47322	1.99004	-0.51693
4151.000	1.81231	-0.40365	1.97622	-0.52886
4152.000	1.83798	-0.42551	1.99794	-0.53283
4153.000	1.85773	-0.47919	2.03941	-0.53878
4154.000	1.85181	-0.44142	2.03941	-0.59842
4155.000	1.86761	-0.47720	2.03743	-0.64613
4156.000	1.83798	-0.49709	1.98609	-0.61434
4157.000	1.85971	-0.46130	1.98807	-0.57259
4158.000	1.86168	-0.49907	1.99202	-0.51892
4159.000	1.89920	-0.48316	2.01769	-0.59048
4160.000	1.85378	-0.45136	2.07889	-0.56859
4161.000	1.92093	-0.46526	1.99004	-0.54277
4162.000	1.87353	-0.46527	2.06507	-0.55269
4163.000	1.93870	-0.42151	1.97424	-0.58850
4164.000	1.91500	-0.48713	2.02953	-0.60041
4165.000	1.93080	-0.47321	1.97029	-0.59844
4166.000	1.92883	-0.45333	1.94857	-0.62231
4167.000	1.95252	-0.43741	2.01374	-0.58650
4168.000	1.91698	-0.44140	1.98412	-0.57458
4169.000	1.92488	-0.45333	2.04335	-0.56860
4170.000	1.93475	-0.45531	2.02163	-0.55270
4171.000	1.94462	-0.43344	2.04928	-0.59444
4172.000	1.94857	-0.44537	1.93475	-0.53086
4173.000	1.94462	-0.44736	1.92685	-0.53285
4174.000	1.94462	-0.48116	1.96832	-0.52886
4175.000	1.92093	-0.40362	2.00386	-0.58650
4176.000	1.92093	-0.45532	1.94462	-0.51694
4177.000	1.92883	-0.42748	2.01176	-0.57259
4178.000	1.94857	-0.38572	1.94660	-0.52291
4179.000	1.94462	-0.41356	2.01966	-0.53282
4180.000	1.95647	-0.43145	1.93080	-0.54677
4181.000	1.95450	-0.47519	1.95450	-0.54278
4182.000	1.91303	-0.39766	1.99991	-0.57060
4183.000	1.93475	-0.41952	1.96832	-0.61435
4184.000	1.91105	-0.44140	1.98017	-0.54476
4185.000	1.92488	-0.45134	1.95252	-0.56664
4186.000	1.95845	-0.40759	1.97622	-0.62627
4187.000	1.92290	-0.43941	2.00189	-0.57259
4188.000	1.90908	-0.43345	2.02163	-0.60041
4189.000	1.89920	-0.42749	2.04928	-0.50896
4190.000	1.92093	-0.48116	2.00584	-0.60440
4191.000	1.90315	-0.46128	1.96042	-0.58453
4192.000	1.88143	-0.46924	1.98609	-0.58651
4193.000	1.91698	-0.45333	1.96437	-0.59447
4194.000	1.89723	-0.51298	2.00189	-0.55470
4195.000	1.88538	-0.48117	1.96240	-0.55670
4196.000	1.89130	-0.53088	2.05718	-0.56064
4197.000	1.94067	-0.49110	1.99004	-0.59049
4198.000	1.89723	-0.46725	1.99597	-0.51891
4199.000	1.91303	-0.49906	2.04335	-0.63818
4200.000	1.88341	-0.50503	2.08482	-0.63021
4201.000	1.91698	-0.51297	2.04533	-0.54474
4202.000	1.86168	-0.50504	1.99991	-0.57458
4203.000	1.86168	-0.53685	1.96042	-0.64219
4204.000	1.87748	-0.49509	2.01571	-0.61831
4205.000	1.86366	-0.51100	2.05915	-0.55070
4206.000	1.85181	-0.50504	1.96437	-0.58851
4207.000	1.87748	-0.52094	2.03348	-0.60240
4208.000	1.87946	-0.53883	1.99399	-0.63422
4209.000	1.88933	-0.48316	1.92883	-0.58255
4210.000	1.92488	-0.49508	2.05718	-0.63618
4211.000	1.86761	-0.51696	1.96042	-0.59447
4212.000	1.90710	-0.46526	1.97819	-0.59248
4213.000	1.89920	-0.51298	1.99399	-0.56862
4214.000	1.90908	-0.48315	2.01176	-0.59247
4215.000	1.89525	-0.49906	1.94462	-0.58056
4216.000	1.86366	-0.45931	2.08284	-0.61431
4217.000	1.91698	-0.47122	1.97819	-0.61435
4218.000	1.87748	-0.54877	1.95845	-0.59646
4219.000	1.89130	-0.49708	1.96437	-0.55073
4220.000	1.89723	-0.45731	1.97227	-0.62826
4221.000	1.85971	-0.50901	1.94660	-0.58851
4222.000	1.87946	-0.50901	1.97622	-0.55073
4223.000	1.88538	-0.49708	1.97029	-0.54874
4224.000	1.83601	-0.50902	1.99399	-0.56862
4225.000	1.86563	-0.47124	1.97622	-0.59645
4226.000	1.87156	-0.47123	1.98807	-0.62627
4227.000	1.87551	-0.50304	1.93870	-0.60442
4228.000	1.89130	-0.50304	1.98807	-0.52687
4229.000	1.85971	-0.49510	1.95055	-0.60243
4230.000	1.84983	-0.49112	1.98017	-0.57458
4231.000	1.89328	-0.53883	2.04335	-0.60637
4232.000	1.90908	-0.50701	2.02756	-0.59644
4233.000	1.86563	-0.51895	2.00386	-0.61632
4234.000	1.86563	-0.47124	1.87748	-0.56468
4235.000	1.90315	-0.48316	1.93870	-0.58852
4236.000	1.85181	-0.51100	1.99004	-0.58651
4237.000	1.89130	-0.51895	1.88933	-0.59450
4238.000	1.90118	-0.52888	2.00386	-0.58054
4239.000	1.91698	-0.50104	1.97622	-0.68591
4240.000	1.90315	-0.51099	1.96042	-0.58056
4241.000	1.86168	-0.55474	1.93080	-0.57858
4242.000	1.91500	-0.49707	2.00584	-0.61036
4243.000	1.87748	-0.49907	1.88538	-0.61040
4244.000	1.86958	-0.54878	1.97622	-0.61633
4245.000	1.88341	-0.51100	2.01176	-0.61433
4246.000	1.85576	-0.53089	1.93870	-0.64418
4247.000	1.87353	-0.52492	2.01176	-0.57259
4248.000	1.87748	-0.49509	1.91698	-0.64618
4249.000	1.86563	-0.49509	1.97029	-0.63622
4250.000	1.86563	-0.53884	2.01769	-0.66602
4251.000	1.86168	-0.50106	2.02361	-0.56264
4252.000	1.88341	-0.48515	1.96240	-0.56465
4253.000	1.84786	-0.50902	1.91500	-0.64618
4254.000	1.90513	-0.46327	1.96437	-0.59845
4255.000	1.89525	-0.45731	1.93672	-0.53484
4256.000	1.89130	-0.49111	1.94462	-0.60442
4257.000	1.87551	-0.54082	1.90118	-0.55871
4258.000	1.86761	-0.51696	1.91895	-0.55274
4259.000	1.85378	-0.49510	1.94265	-0.57857
4260.000	1.87946	-0.51696	1.86761	-0.60445
4261.000	1.83996	-0.55276	1.93278	-0.53285
4262.000	1.86366	-0.49708	1.95647	-0.58056
4263.000	1.87353	-0.50702	1.98807	-0.58452
4264.000	1.86563	-0.54878	1.95845	-0.64815
4265.000	1.88341	-0.53684	1.94067	-0.62629
4266.000	1.87156	-0.54877	1.97227	-0.56266
4267.000	1.86958	-0.57263	1.95055	-0.61833
4268.000	1.88735	-0.55275	1.93672	-0.62430
4269.000	1.86761	-0.51696	1.92883	-0.58653
4270.000	1.82218	-0.54680	1.95647	-0.61833
4271.000	1.85971	-0.53287	1.95845	-0.62429
4272.000	1.84193	-0.51896	1.98609	-0.63820
4273.000	1.87748	-0.51299	1.93278	-0.61834
4274.000	1.85576	-0.52890	1.90315	-0.65016
4275.000	1.84193	-0.52294	1.94067	-0.61834
4276.000	1.87748	-0.51100	2.05125	-0.60040
4277.000	1.90710	-0.54081	1.95647	-0.59845
4278.000	1.87551	-0.49310	1.90118	-0.54280
4279.000	1.86563	-0.51498	1.95647	-0.56068
4280.000	1.86563	-0.52492	1.93475	-0.61834
4281.000	1.88143	-0.51298	1.94660	-0.59448
4282.000	1.86366	-0.50702	1.95647	-0.65014
4283.000	1.83403	-0.50107	1.98017	-0.59049
4284.000	1.86958	-0.52889	1.93672	-0.56267
4285.000	1.84391	-0.50902	1.91303	-0.59250
4286.000	1.89130	-0.51298	1.95845	-0.62628
4287.000	1.85773	-0.51100	1.95252	-0.60640
4288.000	1.87353	-0.58257	1.92685	-0.58057
4289.000	1.84391	-0.50703	2.00584	-0.60042
4290.000	1.89130	-0.51298	1.91500	-0.66805
4291.000	1.90118	-0.55274	1.97227	-0.61236
4292.000	1.86761	-0.53685	1.94067	-0.67400
4293.000	1.86563	-0.51697	1.93475	-0.58255
4294.000	1.87353	-0.58456	1.90513	-0.50304
4295.000	1.84193	-0.53685	1.92093	-0.64816
4296.000	1.88933	-0.55672	1.96240	-0.60441
4297.000	1.83008	-0.54680	1.89525	-0.64022
4298.000	1.89130	-0.53883	1.87551	-0.61637
4299.000	1.89328	-0.50900	1.94857	-0.57261
4300.000	1.89130	-0.54280	2.01176	-0.60638
4301.000	1.84193	-0.53884	1.94462	-0.59050
4302.000	1.85181	-0.57065	1.97029	-0.59248
4303.000	1.87156	-0.52889	1.97029	-0.57856
4304.000	1.84786	-0.51697	1.92488	-0.62232
4305.000	1.86168	-0.56071	1.93672	-0.59249
4306.000	1.84193	-0.51300	1.92488	-0.64816
4307.000	1.85773	-0.54679	1.91895	-0.58057
4308.000	1.82218	-0.56867	1.92883	-0.60442
4309.000	1.84588	-0.53685	1.99991	-0.53482
4310.000	1.89130	-0.53883	1.94660	-0.62032
4311.000	1.84786	-0.49908	1.95055	-0.57459
4312.000	1.86563	-0.54480	1.98017	-0.58651
4313.000	1.84786	-0.54878	1.93672	-0.55671
4314.000	1.87946	-0.52293	1.94265	-0.54080
4315.000	1.86958	-0.58257	1.94462	-0.56068
