time (ms)	lx (deg)	ly (deg)	rx (deg)	ry (deg)
0.000	-1.25915	-0.27845	-1.18406	0.34807
1.000	-1.30262	-0.29436	-1.18801	0.31625
2.000	-1.24927	-0.40375	-1.14453	0.29239
3.000	-1.26310	-0.34210	-1.20579	0.28840
4.000	-1.30064	-0.37789	-1.22951	0.29834
5.000	-1.23741	-0.31227	-1.19987	0.33614
6.000	-1.26112	-0.33414	-1.18603	0.33813
7.000	-1.20382	-0.35801	-1.14848	0.27250
8.000	-1.28088	-0.29436	-1.17022	0.32222
9.000	-1.22951	-0.34409	-1.19987	0.34608
10.000	-1.28088	-0.33812	-1.19196	0.35205
11.000	-1.28681	-0.31624	-1.20382	0.35404
12.000	-1.24136	-0.28840	-1.18010	0.31625
13.000	-1.23939	-0.30431	-1.19591	0.28840
14.000	-1.27496	-0.31425	-1.19789	0.35205
15.000	-1.26310	-0.39977	-1.17813	0.29437
16.000	-1.27298	-0.38386	-1.19196	0.30432
17.000	-1.32436	-0.40573	-1.15441	0.32421
18.000	-1.28484	-0.36596	-1.19394	0.34210
19.000	-1.24927	-0.34409	-1.22753	0.28840
20.000	-1.23148	-0.38387	-1.20382	0.31625
21.000	-1.26705	-0.29237	-1.16034	0.32222
22.000	-1.19196	-0.34211	-1.17418	0.34211
23.000	-1.25915	-0.33215	-1.18998	0.33614
24.000	-1.26705	-0.32817	-1.17615	0.29437
25.000	-1.32633	-0.37192	-1.16627	0.28841
26.000	-1.29669	-0.30629	-1.13465	0.36797
27.000	-1.20975	-0.33017	-1.15046	0.34609
28.000	-1.22358	-0.33017	-1.14651	0.37592
29.000	-1.24334	-0.33017	-1.16034	0.33813
30.000	-1.17813	-0.30034	-1.15046	0.31228
31.000	-1.19591	-0.26454	-1.16429	0.32819
32.000	-1.24729	-0.24862	-1.16429	0.33216
33.000	-1.20184	-0.34807	-1.18801	0.33017
34.000	-1.12675	-0.28841	-1.15837	0.34211
35.000	-1.23346	-0.30630	-1.19196	0.37393
36.000	-1.23741	-0.31624	-1.18998	0.33017
37.000	-1.25322	-0.30829	-1.18998	0.28045
38.000	-1.26508	-0.36994	-1.15837	0.34012
39.000	-1.26112	-0.33414	-1.17022	0.36796
40.000	-1.22555	-0.39381	-1.19196	0.30432
41.000	-1.31448	-0.33016	-1.15639	0.34609
42.000	-1.19196	-0.38586	-1.19394	0.36597
43.000	-1.17220	-0.39979	-1.17418	0.33017
44.000	-1.23741	-0.32022	-1.16627	0.35404
45.000	-1.26310	-0.30232	-1.14453	0.30830
46.000	-1.22951	-0.32818	-1.13268	0.33615
47.000	-1.16232	-0.33614	-1.14848	0.32222
48.000	-1.22358	-0.31426	-1.15639	0.39581
49.000	-1.27496	-0.30232	-1.19789	0.31028
50.000	-1.12082	-0.28642	-1.15639	0.34012
51.000	-1.19394	-0.26454	-1.12872	0.31029
52.000	-1.18010	-0.33017	-1.17022	0.32421
53.000	-1.17615	-0.31625	-1.14453	0.30830
54.000	-1.15244	-0.34808	-1.20184	0.31028
55.000	-1.20382	-0.33216	-1.13663	0.33217
56.000	-1.11489	-0.25659	-1.17418	0.31824
57.000	-1.18406	-0.34608	-1.14058	0.33018
58.000	-1.13465	-0.25261	-1.16627	0.31824
59.000	-1.16825	-0.32222	-1.15639	0.31625
60.000	-1.15837	-0.28642	-1.12872	0.28443
61.000	-1.05165	-0.27449	-1.12872	0.29835
62.000	-1.16429	-0.30233	-1.13070	0.32023
63.000	-1.25124	-0.26851	-1.13860	0.33217
64.000	-1.15441	-0.27250	-1.14453	0.34410
65.000	-1.10698	-0.36996	-1.10106	0.33018
66.000	-1.10698	-0.29836	-1.12082	0.29040
67.000	-1.13268	-0.23272	-1.09710	0.30234
68.000	-1.08524	-0.29836	-1.10896	0.29637
69.000	-1.06746	-0.25659	-1.13268	0.27846
70.000	-1.14453	-0.28045	-1.11687	0.27051
71.000	-1.13860	-0.32421	-1.13860	0.28642
72.000	-1.13663	-0.22476	-1.13070	0.28443
73.000	-1.12279	-0.30432	-1.14256	0.31029
74.000	-1.21370	-0.25857	-1.11687	0.29836
75.000	-1.13070	-0.36399	-1.13663	0.29835
76.000	-1.10698	-0.28046	-1.10501	0.26255
77.000	-1.16429	-0.35802	-1.15244	0.25658
78.000	-1.17813	-0.39979	-1.11489	0.29836
79.000	-1.16825	-0.42365	-1.15244	0.27250
80.000	-1.22358	-0.30232	-1.16825	0.31227
81.000	-1.11094	-0.33615	-1.15639	0.29040
82.000	-1.17813	-0.29636	-1.15244	0.33614
83.000	-1.19196	-0.26652	-1.12675	0.24664
84.000	-1.20382	-0.28641	-1.12477	0.28841
85.000	-1.23544	-0.33215	-1.13465	0.28244
86.000	-1.18801	-0.28045	-1.13465	0.28443
87.000	-1.14848	-0.29636	-1.18801	0.29039
88.000	-1.08129	-0.26852	-1.10106	0.28841
89.000	-1.16429	-0.27051	-1.18208	0.33415
90.000	-1.06351	-0.26654	-1.18010	0.33017
91.000	-1.11687	-0.32819	-1.18010	0.27846
92.000	-1.14848	-0.21680	-1.18406	0.29636
93.000	-1.10698	-0.21084	-1.20184	0.28244
94.000	-1.16232	-0.27051	-1.17022	0.28642
95.000	-1.17022	-0.21680	-1.17418	0.27448
96.000	-1.14256	-0.26056	-1.20579	0.31824
97.000	-1.20382	-0.27647	-1.17022	0.33017
98.000	-1.20382	-0.33614	-1.18801	0.32023
99.000	-1.11291	-0.30035	-1.18010	0.36597
100.000	-1.11687	-0.22675	-1.17220	0.33017
101.000	-1.19789	-0.25857	-1.18603	0.34608
102.000	-1.25124	-0.28840	-1.19789	0.35404
103.000	-1.21370	-0.25459	-1.15639	0.38388
104.000	-1.17813	-0.26454	-1.15441	0.35802
105.000	-1.23148	-0.26055	-1.15046	0.33614
106.000	-1.20184	-0.28045	-1.18406	0.30630
107.000	-1.18801	-0.24465	-1.19196	0.30432
108.000	-1.15046	-0.26454	-1.18406	0.32619
109.000	-1.06746	-0.24863	-1.17022	0.28841
110.000	-1.18406	-0.22675	-1.15837	0.29835
111.000	-1.17220	-0.17106	-1.17022	0.28443
112.000	-1.18406	-0.26851	-1.15244	0.30631
113.000	-1.11884	-0.22078	-1.14256	0.34808
114.000	-1.20382	-0.28045	-1.15046	0.30830
115.000	-1.22358	-0.23470	-1.17022	0.33813
116.000	-1.13268	-0.19095	-1.15244	0.32421
117.000	-1.21172	-0.28243	-1.13465	0.35405
118.000	-1.19196	-0.26255	-1.13860	0.37592
119.000	-1.11687	-0.32620	-1.17220	0.40575
120.000	-1.19789	-0.20487	-1.15639	0.34609
121.000	-1.22753	-0.25061	-1.17813	0.35802
122.000	-1.15837	-0.35404	-1.13465	0.31427
123.000	-1.18208	-0.35006	-1.16627	0.33017
124.000	-1.21963	-0.25658	-1.15046	0.30830
125.000	-1.11291	-0.24863	-1.18998	0.34211
126.000	-1.15441	-0.17305	-1.17220	0.36001
127.000	-1.17418	-0.19492	-1.17615	0.33017
128.000	-1.13465	-0.24465	-1.14058	0.29835
129.000	-1.18801	-0.29636	-1.16034	0.33415
130.000	-1.19196	-0.26255	-1.14058	0.34211
131.000	-1.17022	-0.27846	-1.14848	0.35007
132.000	-1.17615	-0.27647	-1.15441	0.35205
133.000	-1.19394	-0.31028	-1.15639	0.30631
134.000	-1.20579	-0.34608	-1.12675	0.37394
135.000	-1.28286	-0.33414	-1.17615	0.33614
136.000	-1.19591	-0.30829	-1.19789	0.34409
137.000	-1.15639	-0.31824	-1.15639	0.34609
138.000	-1.17220	-0.30233	-1.14651	0.33018
139.000	-1.19591	-0.35006	-1.14453	0.33415
140.000	-1.20382	-0.33216	-1.18010	0.33813
141.000	-1.10303	-0.24068	-1.12675	0.35802
142.000	-1.15244	-0.30631	-1.14848	0.31625
143.000	-1.24927	-0.30232	-1.18010	0.35404
144.000	-1.20777	-0.33415	-1.16034	0.34211
145.000	-1.20975	-0.30829	-1.17220	0.35006
146.000	-1.11489	-0.28244	-1.17615	0.30631
147.000	-1.20579	-0.37591	-1.18998	0.35802
148.000	-1.14848	-0.34211	-1.15639	0.31426
149.000	-1.07339	-0.36798	-1.19196	0.30432
150.000	-1.17813	-0.34012	-1.19394	0.31227
151.000	-1.11291	-0.35405	-1.17418	0.32620
152.000	-1.21963	-0.35205	-1.18010	0.35802
153.000	-1.16232	-0.35205	-1.15639	0.33216
154.000	-1.22160	-0.40575	-1.19394	0.25658
155.000	-1.06351	-0.28046	-1.15441	0.35205
156.000	-1.12279	-0.36001	-1.08920	0.26455
157.000	-1.11687	-0.29637	-1.13860	0.33018
158.000	-1.14256	-0.30034	-1.16034	0.33018
159.000	-1.16034	-0.36598	-1.17418	0.32421
160.000	-1.13465	-0.39383	-1.12872	0.31228
161.000	-1.10501	-0.32421	-1.15046	0.32023
162.000	-1.07536	-0.39184	-1.10896	0.32222
163.000	-1.17813	-0.40575	-1.09513	0.29836
164.000	-1.13070	-0.33615	-1.08129	0.33217
165.000	-1.11094	-0.32222	-1.12477	0.33018
166.000	-1.15639	-0.31625	-1.12872	0.32819
167.000	-1.12675	-0.31029	-1.14453	0.28443
168.000	-1.09710	-0.36400	-1.12279	0.28841
169.000	-1.09315	-0.28245	-1.11687	0.32222
170.000	-1.11687	-0.33018	-1.14453	0.29438
171.000	-1.12279	-0.35803	-1.11687	0.31228
172.000	-1.11884	-0.31626	-1.15837	0.33216
173.000	-1.18406	-0.35404	-1.14453	0.28244
174.000	-1.14256	-0.34211	-1.11291	0.29239
175.000	-1.10303	-0.34609	-1.14058	0.31427
176.000	-1.08920	-0.28841	-1.15441	0.31228
177.000	-1.17813	-0.29835	-1.09513	0.29239
178.000	-1.12675	-0.23670	-1.13070	0.31228
179.000	-1.13070	-0.29637	-1.10896	0.27847
180.000	-1.07536	-0.33018	-1.14256	0.34012
181.000	-1.11094	-0.28642	-1.13663	0.34012
182.000	-1.09117	-0.26455	-1.10303	0.37394
183.000	-1.07932	-0.31029	-1.05955	0.42566
184.000	-1.06153	-0.27648	-1.00421	0.39384
185.000	-0.98247	-0.41572	-0.89353	0.44358
186.000	-0.78680	-0.38591	-0.77494	0.43962
187.000	-0.53180	-0.35808	-0.60296	0.47345
188.000	-0.34004	-0.26857	-0.39144	0.46551
189.000	-0.00198	-0.33422	-0.15421	0.43767
190.000	0.26294	-0.27653	0.02570	0.46751
191.000	0.51401	-0.35211	0.29259	0.43965
192.000	0.61285	-0.29044	0.48831	0.48738
193.000	0.88167	-0.21483	0.66227	0.48936
194.000	1.04769	-0.26455	0.79866	0.46945
195.000	1.13860	-0.26056	0.91132	0.47143
196.000	0.99631	-0.20886	0.96666	0.44954
197.000	1.12279	-0.21283	0.89946	0.42767
198.000	0.93306	-0.22080	0.86191	0.42369
199.000	0.94492	-0.08354	0.73540	0.47344
200.000	0.66029	-0.07957	0.62273	0.41178
201.000	0.52982	-0.07957	0.39539	0.43965
202.000	0.48040	0.06366	0.26689	0.48143
203.000	0.26689	-0.01592	0.12060	0.46950
204.000	0.10478	0.02984	-0.04152	0.49536
205.000	-0.03756	-0.00199	-0.16014	0.48541
206.000	-0.19375	-0.06963	-0.26492	0.48740
207.000	-0.27085	-0.06963	-0.40330	0.49733
208.000	-0.41912	-0.15915	-0.46459	0.49136
209.000	-0.43296	-0.14721	-0.42505	0.52319
210.000	-0.38156	-0.14523	-0.39935	0.52916
211.000	-0.43098	-0.17506	-0.37760	0.50131
212.000	-0.36179	-0.15517	-0.30643	0.51126
213.000	-0.31632	-0.20093	-0.30841	0.52917
214.000	-0.27678	-0.22480	-0.21352	0.47944
215.000	-0.13246	-0.17308	-0.17200	0.52519
216.000	-0.13839	-0.17308	-0.15223	0.56299
217.000	-0.13839	-0.19894	-0.12257	0.52718
218.000	0.05536	-0.12732	-0.10083	0.51724
219.000	-0.04745	-0.12533	-0.07513	0.53116
220.000	-0.04152	-0.19297	-0.05140	0.53912
221.000	0.01186	-0.18502	-0.04745	0.51923
222.000	0.00989	-0.13727	-0.07513	0.52122
223.000	0.09885	-0.06764	-0.07513	0.51326
224.000	0.05140	-0.14722	-0.08897	0.50928
225.000	0.09094	-0.16512	-0.06920	0.50331
226.000	0.06722	-0.15120	-0.02570	0.48342
227.000	-0.00198	-0.21088	-0.04547	0.50729
228.000	0.03559	-0.23276	0.00198	0.56100
229.000	0.05931	-0.20292	0.01384	0.54111
230.000	0.06129	-0.25664	0.02372	0.52918
231.000	-0.00395	-0.19099	0.04152	0.55305
232.000	0.03361	-0.18303	-0.00198	0.50729
233.000	0.10874	-0.16313	0.05536	0.52719
234.000	0.04547	-0.14125	0.03163	0.58885
235.000	0.07117	-0.13130	-0.00395	0.55702
236.000	-0.00791	-0.25266	-0.00395	0.50331
237.000	0.04349	-0.13926	0.00395	0.49337
238.000	0.06129	-0.18104	0.00989	0.54111
239.000	0.04745	-0.20491	-0.04745	0.51923
240.000	0.04152	-0.15120	-0.03559	0.52719
241.000	0.07513	-0.21884	-0.00593	0.51724
242.000	0.12257	-0.14722	-0.01186	0.50530
243.000	0.11862	-0.16711	-0.02372	0.47348
244.000	0.11862	-0.16114	-0.01582	0.53912
245.000	0.13641	-0.11340	-0.02768	0.50928
246.000	0.13444	-0.14921	-0.00198	0.48143
247.000	0.07315	-0.13130	0.00989	0.48740
248.000	0.08897	-0.09947	-0.02175	0.52918
249.000	0.07710	-0.12732	0.00000	0.52321
250.000	0.11862	-0.14722	0.00791	0.47745
251.000	0.13444	-0.15518	-0.03559	0.51525
252.000	0.07908	-0.12334	-0.01384	0.49337
253.000	0.01582	-0.16910	-0.04745	0.50133
254.000	0.10083	-0.18502	-0.05338	0.50530
255.000	0.10676	-0.21088	-0.00989	0.50133
256.000	0.15816	-0.18502	-0.02372	0.50133
257.000	0.11862	-0.13329	-0.02175	0.52122
258.000	0.01977	-0.18502	-0.02768	0.52122
259.000	0.03954	-0.14324	0.00395	0.48143
260.000	0.09687	-0.15120	-0.00198	0.55702
261.000	0.09094	-0.17706	0.00395	0.51724
262.000	0.11862	-0.11937	-0.01384	0.47546
263.000	0.09687	-0.16711	-0.06326	0.51127
264.000	0.04152	-0.15717	-0.03559	0.51326
265.000	0.09490	-0.19894	-0.03954	0.51525
266.000	0.15421	-0.18502	-0.02966	0.50729
267.000	0.14432	-0.14125	-0.02570	0.50133
268.000	0.17398	-0.21884	-0.07315	0.54310
269.000	0.07513	-0.15915	-0.01384	0.50133
270.000	0.05140	-0.13329	-0.03954	0.53912
271.000	0.08303	-0.15319	-0.03954	0.53912
272.000	0.08897	-0.07759	-0.00791	0.51525
273.000	0.10676	-0.15319	0.03361	0.49536
274.000	0.10676	-0.16910	0.01384	0.48342
275.000	0.11269	-0.15716	0.00593	0.50331
276.000	0.14630	-0.10743	0.02570	0.54907
277.000	0.08501	-0.10743	0.03756	0.47745
278.000	0.12257	-0.14125	0.00593	0.53315
279.000	0.11071	-0.15120	-0.01186	0.53912
280.000	0.08303	-0.10146	-0.00198	0.59283
281.000	0.13048	-0.07560	-0.05536	0.57294
282.000	0.19375	-0.21287	-0.01779	0.55305
283.000	0.06722	-0.16114	0.00000	0.56100
284.000	0.09490	-0.18502	-0.04349	0.50928
285.000	0.14432	-0.15518	-0.01977	0.52321
286.000	0.14432	-0.10942	-0.01977	0.52122
287.000	0.06326	-0.14324	-0.01582	0.50729
288.000	0.14432	-0.17109	-0.02570	0.52122
289.000	0.11664	-0.15319	-0.00395	0.54708
290.000	0.06129	-0.17308	0.00989	0.53514
291.000	0.05931	-0.18303	0.01384	0.50133
292.000	0.08699	-0.16711	-0.03163	0.56697
293.000	0.15816	-0.17109	0.00989	0.59880
294.000	0.09687	-0.16114	-0.00989	0.53912
295.000	0.12653	-0.15319	0.00989	0.55305
296.000	0.06129	-0.23077	-0.03954	0.56498
297.000	0.17200	-0.08555	0.02966	0.55901
298.000	0.13839	-0.11141	-0.03361	0.50928
299.000	0.13048	-0.12533	-0.06524	0.52321
300.000	0.12455	-0.13926	0.00791	0.54509
301.000	0.18781	-0.20093	0.01582	0.54708
302.000	0.07908	-0.16711	-0.00989	0.53116
303.000	0.09292	-0.14722	-0.00593	0.56498
304.000	0.08699	-0.09151	-0.00395	0.57493
305.000	0.10874	-0.14523	-0.01582	0.56299
306.000	0.16211	-0.15716	-0.02372	0.56498
307.000	0.14827	-0.14324	0.00198	0.56498
308.000	0.10874	-0.15518	-0.01582	0.53514
309.000	0.15223	-0.13926	0.00791	0.56498
310.000	0.09292	-0.11937	-0.00593	0.59681
311.000	0.14234	-0.16711	-0.00989	0.54708
312.000	0.15816	-0.13329	-0.01384	0.53116
313.000	0.15618	-0.10345	-0.03756	0.55702
314.000	0.10676	-0.12732	0.01779	0.56498
315.000	0.07908	-0.15915	0.02372	0.53514
316.000	0.17002	-0.14324	-0.01779	0.56498
317.000	0.16014	-0.09748	0.02768	0.55106
318.000	0.12455	-0.20889	-0.01977	0.56896
319.000	0.16409	-0.14324	0.00989	0.55702
320.000	0.10083	-0.16512	-0.04547	0.55901
321.000	0.14234	-0.13329	0.01384	0.56498
322.000	0.13246	-0.13130	-0.00791	0.55106
323.000	0.14234	-0.07162	-0.03756	0.57891
324.000	0.14037	-0.11340	-0.01779	0.55305
325.000	0.09094	-0.15518	-0.02372	0.56697
326.000	0.12653	-0.15915	-0.05931	0.55305
327.000	0.13839	-0.18900	0.00593	0.56498
328.000	0.12060	-0.18900	-0.01582	0.54907
329.000	0.08897	-0.11738	-0.00395	0.54907
330.000	0.13444	-0.15518	-0.00593	0.59084
331.000	0.12257	-0.08952	0.02175	0.58090
332.000	0.08106	-0.12533	0.02175	0.59482
333.000	0.00989	-0.10345	-0.00593	0.59681
334.000	0.23526	-0.16512	0.00593	0.57891
335.000	0.17793	-0.15915	-0.00395	0.53315
336.000	0.08699	-0.11738	-0.01977	0.56498
337.000	0.12850	-0.11141	-0.04349	0.58487
338.000	0.08699	-0.09350	0.02372	0.50530
339.000	0.08501	-0.14324	0.00989	0.55702
340.000	0.05140	-0.17109	-0.00593	0.56896
341.000	0.15025	-0.16114	0.01186	0.57493
342.000	0.10083	-0.17109	-0.00395	0.57493
343.000	0.06722	-0.12931	0.03756	0.58090
344.000	0.10280	-0.09947	0.02768	0.58090
345.000	0.06129	-0.17905	0.01779	0.57095
346.000	0.12060	-0.18303	-0.00791	0.55901
347.000	0.10083	-0.11340	0.03163	0.60278
348.000	0.02570	-0.16910	-0.00791	0.61073
349.000	0.15223	-0.13727	-0.01384	0.59283
350.000	0.13641	-0.10544	-0.00593	0.61869
351.000	0.10874	-0.13926	-0.00593	0.60477
352.000	0.00989	-0.15120	-0.00989	0.59681
353.000	0.06524	-0.12136	0.01977	0.53315
354.000	0.06920	-0.18303	-0.02768	0.60278
355.000	0.07710	-0.17905	0.01779	0.57891
356.000	0.07513	-0.18104	0.01779	0.52520
357.000	0.08699	-0.12931	0.03756	0.57891
358.000	0.09292	-0.13329	-0.01186	0.60079
359.000	0.12060	-0.10345	0.03559	0.62267
360.000	0.07513	-0.16711	-0.04547	0.55901
361.000	0.13444	-0.16313	-0.03163	0.57493
362.000	0.07117	-0.15120	0.04152	0.61471
363.000	0.03756	-0.16910	0.00593	0.58885
364.000	0.07710	-0.16910	-0.02175	0.60278
365.000	0.03756	-0.13130	-0.01779	0.55702
366.000	0.04943	-0.13528	0.02570	0.59084
367.000	0.06920	-0.17905	0.01977	0.61272
368.000	0.08501	-0.16313	0.05733	0.54509
369.000	0.02372	-0.13926	-0.00395	0.59283
370.000	0.13048	-0.15518	-0.00989	0.56100
371.000	0.08501	-0.18104	0.03163	0.60278
372.000	0.04547	-0.23077	0.03559	0.60676
373.000	0.03559	-0.20491	0.03361	0.58487
374.000	0.01582	-0.17706	0.02966	0.59681
375.000	0.03756	-0.11937	-0.01582	0.64256
376.000	-0.02768	-0.19099	0.01186	0.59482
377.000	0.04943	-0.17507	-0.00395	0.64057
378.000	0.05536	-0.17706	-0.00593	0.59880
379.000	0.04152	-0.17507	0.07315	0.61869
380.000	0.05536	-0.22481	0.04547	0.56896
381.000	-0.00198	-0.21685	-0.01582	0.58090
382.000	0.13246	-0.15319	0.03163	0.60676
383.000	0.02768	-0.18900	0.01582	0.56697
384.000	0.08106	-0.22083	0.01977	0.58487
385.000	0.10676	-0.14722	0.00593	0.60477
386.000	0.04745	-0.16114	0.03361	0.57891
387.000	0.03361	-0.17507	0.05931	0.60278
388.000	0.05931	-0.16910	0.06920	0.58090
389.000	0.05536	-0.11738	0.04547	0.54907
390.000	0.01582	-0.15518	0.03954	0.63063
391.000	0.02768	-0.21088	0.02570	0.66046
392.000	0.06524	-0.15120	0.04152	0.60676
393.000	0.05733	-0.23077	0.04745	0.63460
394.000	0.03954	-0.14125	0.02768	0.62665
395.000	0.08303	-0.16910	0.02372	0.60676
396.000	0.10280	-0.17905	0.03361	0.60676
397.000	0.05536	-0.14324	0.00395	0.66444
398.000	-0.03361	-0.13130	0.04745	0.62068
399.000	0.00791	-0.19099	0.02966	0.62267
400.000	0.07908	-0.18104	0.07710	0.60675
401.000	0.04349	-0.21088	0.00791	0.62466
402.000	-0.01384	-0.18303	0.02570	0.59283
403.000	-0.02570	-0.16711	0.04349	0.58686
404.000	0.06129	-0.20491	0.03954	0.64455
405.000	0.04547	-0.19297	0.05140	0.54310
406.000	0.04745	-0.16512	0.02372	0.56896
407.000	-0.00395	-0.17308	0.04152	0.63659
408.000	0.01384	-0.15717	0.02372	0.63262
409.000	0.05536	-0.16313	0.04152	0.67837
410.000	0.07315	-0.14523	-0.00989	0.62466
411.000	-0.01779	-0.14523	0.02966	0.61670
412.000	0.01977	-0.10544	0.01977	0.66643
413.000	0.07908	-0.09350	0.04943	0.64455
414.000	0.07513	-0.10146	0.01384	0.64853
415.000	0.01384	-0.14324	0.05733	0.63858
416.000	0.14037	-0.08157	0.02768	0.65847
417.000	0.05338	-0.13528	0.08699	0.61073
418.000	0.07117	-0.19099	0.07710	0.65251
419.000	0.07117	-0.18502	0.06722	0.62267
420.000	0.00989	-0.11539	0.04943	0.62068
421.000	0.05536	-0.01393	0.02966	0.63262
422.000	-0.02570	-0.14523	0.04943	0.61869
423.000	-0.03756	-0.21486	0.04943	0.60079
424.000	0.08501	-0.15518	0.06326	0.64654
425.000	0.06326	-0.23475	0.06326	0.62068
426.000	0.00791	-0.16910	0.05931	0.61073
427.000	0.10083	-0.13528	0.07117	0.62665
428.000	0.10676	-0.07958	0.06326	0.65450
429.000	0.02570	-0.08555	0.03163	0.65847
430.000	0.08897	-0.10345	0.06524	0.65251
431.000	0.06722	-0.17507	0.04547	0.61670
432.000	0.09094	-0.16711	0.05931	0.60676
433.000	0.01779	-0.19099	0.05536	0.62665
434.000	0.08303	-0.12732	0.07315	0.61869
435.000	0.04943	-0.13130	0.06524	0.64256
436.000	0.08699	-0.17308	0.06326	0.62864
437.000	0.05536	-0.13727	0.07710	0.66842
438.000	0.01977	-0.13329	0.06722	0.60278
439.000	0.07908	-0.12931	0.06326	0.59681
440.000	0.04943	-0.15120	0.06920	0.65847
441.000	-0.01977	-0.18502	0.07315	0.67041
442.000	0.03163	-0.20093	0.11269	0.64455
443.000	0.10676	-0.18104	0.08897	0.67837
444.000	0.06326	-0.12931	0.11071	0.64256
445.000	0.00593	-0.16512	0.09687	0.60278
446.000	0.01779	-0.20491	0.07908	0.66842
447.000	0.05931	-0.19894	0.07908	0.65648
448.000	0.04547	-0.12732	0.07710	0.64853
449.000	0.05536	-0.10544	0.08699	0.63261
450.000	0.08106	-0.10146	0.12060	0.65847
451.000	0.05338	-0.16114	0.05733	0.64654
452.000	-0.03954	-0.16910	0.06524	0.68234
453.000	0.04349	-0.09549	0.07117	0.62267
454.000	-0.00395	-0.13329	0.08106	0.65847
455.000	-0.00395	-0.17308	0.13246	0.64057
456.000	0.05733	-0.16114	0.07908	0.61670
457.000	0.06722	-0.10743	0.10478	0.64853
458.000	0.05338	-0.12334	0.05536	0.68831
459.000	0.06326	-0.16313	0.05733	0.68433
460.000	0.08303	-0.13727	0.08897	0.68433
461.000	0.03163	-0.17109	0.10676	0.64256
462.000	0.05931	-0.21287	0.08303	0.63063
463.000	-0.01186	-0.17507	0.06920	0.62665
464.000	0.04943	-0.15717	0.09490	0.63063
465.000	-0.02966	-0.12334	0.09687	0.66444
466.000	-0.05338	-0.17308	0.08501	0.62068
467.000	0.06524	-0.12732	0.10676	0.62665
468.000	-0.06129	-0.25266	0.08897	0.64057
469.000	0.00989	-0.18900	0.06129	0.61869
470.000	0.00000	-0.15120	0.09292	0.64256
471.000	0.02966	-0.22282	0.08106	0.65251
472.000	0.02372	-0.18303	0.07908	0.64455
473.000	0.00791	-0.17109	0.06129	0.65847
474.000	-0.00198	-0.18104	0.10676	0.65847
475.000	-0.03163	-0.22083	0.09885	0.62267
476.000	-0.01977	-0.12533	0.10874	0.62068
477.000	-0.08501	-0.19695	0.10280	0.65450
478.000	0.07710	-0.19496	0.06722	0.69229
479.000	0.01582	-0.15717	0.06722	0.70025
480.000	0.05733	-0.14722	0.07117	0.69229
481.000	-0.01779	-0.24470	0.05140	0.67240
482.000	-0.04349	-0.15717	0.06920	0.66643
483.000	-0.02966	-0.20491	0.08699	0.61869
484.000	-0.03559	-0.12334	0.09292	0.63261
485.000	0.01977	-0.17507	0.08897	0.66444
486.000	0.01582	-0.12334	0.08106	0.66046
487.000	-0.03559	-0.13130	0.08897	0.67837
488.000	-0.04745	-0.22679	0.12060	0.66643
489.000	0.04943	-0.08157	0.11862	0.66444
490.000	0.02175	-0.15319	0.10874	0.68234
491.000	-0.02175	-0.18900	0.11664	0.68433
492.000	-0.06326	-0.17905	0.07315	0.67439
493.000	-0.06920	-0.25465	0.09687	0.64853
494.000	-0.03756	-0.22481	0.08897	0.62466
495.000	-0.02966	-0.13528	0.12257	0.61471
496.000	0.02768	-0.12533	0.10083	0.61073
497.000	0.00791	-0.19297	0.08501	0.64853
498.000	-0.03756	-0.17905	0.10478	0.63261
499.000	0.01582	-0.19496	0.10083	0.63261
500.000	-0.07710	-0.15915	0.09292	0.64057
501.000	0.01186	-0.22282	0.08699	0.62466
502.000	0.05140	-0.13727	0.13641	0.62466
503.000	0.00198	-0.13727	0.13246	0.63261
504.000	0.02175	-0.13926	0.09292	0.68831
505.000	0.02966	-0.14722	0.13246	0.62864
506.000	-0.01384	-0.22282	0.14037	0.62863
507.000	-0.02372	-0.18900	0.09885	0.64654
508.000	0.04547	-0.16512	0.12455	0.64455
509.000	0.00989	-0.22282	0.13641	0.63858
510.000	-0.05733	-0.18104	0.09490	0.65450
511.000	0.02768	-0.17905	0.10676	0.65450
512.000	-0.04349	-0.22481	0.10874	0.68234
513.000	-0.10083	-0.19297	0.10874	0.66643
514.000	0.01384	-0.05570	0.09094	0.62466
515.000	-0.00593	-0.14125	0.07513	0.65450
516.000	0.01582	-0.15518	0.07117	0.69428
517.000	-0.03559	-0.15915	0.06129	0.64256
518.000	0.01384	-0.06963	0.12653	0.62665
519.000	0.02175	-0.07162	0.08699	0.64256
520.000	-0.03756	-0.12136	0.08897	0.68433
521.000	0.02175	-0.20292	0.10280	0.67638
522.000	-0.01977	-0.13130	0.12850	0.62466
523.000	-0.02966	-0.20690	0.08699	0.70025
524.000	0.00791	-0.11539	0.13048	0.67041
525.000	-0.06326	-0.20093	0.11269	0.65449
526.000	-0.07908	-0.19894	0.14827	0.66046
527.000	-0.03163	-0.14523	0.12653	0.69030
528.000	0.03954	-0.10942	0.09292	0.67041
529.000	-0.06326	-0.19099	0.10478	0.67240
530.000	-0.01977	-0.16313	0.09292	0.68632
531.000	0.00791	-0.17507	0.12060	0.66046
532.000	-0.01186	-0.16114	0.13839	0.67638
533.000	-0.14432	-0.16910	0.18781	0.62068
534.000	0.00593	-0.19496	0.17002	0.64654
535.000	-0.07315	-0.23077	0.12060	0.63659
536.000	0.04152	-0.12533	0.17793	0.61073
537.000	-0.03559	-0.20292	0.17200	0.64455
538.000	-0.06129	-0.23276	0.14827	0.63460
539.000	-0.02966	-0.19099	0.13641	0.68234
540.000	0.03954	-0.15319	0.10874	0.66046
541.000	0.00593	-0.19894	0.12653	0.63261
542.000	-0.07710	-0.17905	0.10280	0.66643
543.000	0.00791	-0.23475	0.10478	0.69229
544.000	-0.00989	-0.18104	0.13444	0.65648
545.000	0.05733	-0.13727	0.13641	0.64256
546.000	-0.03163	-0.18900	0.15421	0.68234
547.000	0.02768	-0.16313	0.15816	0.65052
548.000	-0.01582	-0.14125	0.17200	0.63659
549.000	0.06722	-0.16910	0.11862	0.63460
550.000	0.03954	-0.12533	0.14432	0.67637
551.000	-0.06524	-0.12533	0.15816	0.65648
552.000	-0.06129	-0.16910	0.18188	0.59681
553.000	-0.01779	-0.14523	0.20363	0.66643
554.000	-0.00198	-0.18303	0.16409	0.65449
555.000	-0.06920	-0.17507	0.18188	0.61471
556.000	-0.06920	-0.11340	0.20758	0.60476
557.000	0.01779	-0.15518	0.14432	0.62863
558.000	-0.05931	-0.22282	0.18386	0.59880
559.000	-0.03756	-0.21287	0.15618	0.62863
560.000	0.00593	-0.15319	0.15618	0.60675
561.000	-0.02570	-0.15319	0.21154	0.68433
562.000	-0.02175	-0.16910	0.24119	0.62863
563.000	0.10083	-0.11539	0.21747	0.64057
564.000	0.02175	-0.12931	0.21352	0.64256
565.000	0.09687	-0.14921	0.18584	0.61471
566.000	0.04547	-0.11141	0.20363	0.64654
567.000	0.00198	-0.14324	0.20165	0.62664
568.000	0.03954	-0.12334	0.17002	0.64455
569.000	0.00593	-0.16313	0.19177	0.59482
570.000	0.00989	-0.11539	0.17200	0.65051
571.000	0.01779	-0.13727	0.19572	0.59283
572.000	-0.06722	-0.20292	0.18979	0.64057
573.000	-0.08501	-0.19099	0.18979	0.62465
574.000	-0.02570	-0.15518	0.23329	0.60476
575.000	-0.05536	-0.16313	0.18781	0.66046
576.000	0.01779	-0.17109	0.21945	0.59879
577.000	-0.04943	-0.20292	0.20758	0.61869
578.000	0.00989	-0.20292	0.21945	0.64653
579.000	-0.08501	-0.22282	0.20956	0.66046
580.000	0.00989	-0.16711	0.22735	0.61073
581.000	0.02175	-0.16711	0.19770	0.64256
582.000	-0.00198	-0.13130	0.21154	0.67637
583.000	-0.05536	-0.18502	0.22933	0.63261
584.000	-0.10280	-0.16313	0.21747	0.66245
585.000	-0.10280	-0.22083	0.21747	0.67637
586.000	-0.04547	-0.14921	0.24119	0.63261
587.000	-0.04745	-0.15915	0.19770	0.67637
588.000	-0.07908	-0.17706	0.21747	0.63858
589.000	-0.05140	-0.19894	0.18979	0.66245
590.000	-0.08303	-0.09748	0.18188	0.68831
591.000	-0.00593	-0.15518	0.19968	0.67836
592.000	0.05733	-0.13926	0.17200	0.71218
593.000	0.02768	-0.19894	0.19968	0.68433
594.000	0.00000	-0.08952	0.21747	0.68433
595.000	-0.00593	-0.20690	0.20561	0.68234
596.000	-0.00791	-0.14324	0.22340	0.70024
597.000	0.03756	-0.15717	0.19177	0.67438
598.000	-0.05733	-0.20690	0.20363	0.72809
599.000	-0.03559	-0.11340	0.18386	0.68433
600.000	-0.10676	-0.18701	0.18386	0.67438
601.000	-0.04943	-0.20690	0.18386	0.67836
602.000	-0.13246	-0.16711	0.20363	0.68632
603.000	-0.02372	-0.13329	0.21747	0.69427
604.000	-0.04547	-0.17706	0.21747	0.71417
605.000	-0.03361	-0.18502	0.23922	0.65250
606.000	0.04547	-0.12533	0.23922	0.72013
607.000	-0.00593	-0.15518	0.20758	0.70223
608.000	-0.12060	-0.22282	0.20561	0.70024
609.000	-0.08303	-0.13130	0.22538	0.65847
610.000	-0.04547	-0.26658	0.16804	0.68831
611.000	-0.04745	-0.15319	0.19177	0.74400
612.000	-0.15816	-0.14523	0.16607	0.68433
613.000	-0.07117	-0.20690	0.18386	0.67240
614.000	-0.06129	-0.16313	0.19177	0.69825
615.000	-0.04349	-0.17308	0.23526	0.68234
616.000	-0.08303	-0.18701	0.21549	0.68035
617.000	-0.09490	-0.24669	0.18584	0.68632
618.000	-0.05140	-0.24868	0.17002	0.66643
619.000	-0.08897	-0.14722	0.19968	0.63261
620.000	-0.08303	-0.23475	0.22340	0.70422
621.000	-0.01779	-0.19894	0.21154	0.64852
622.000	-0.01779	-0.21884	0.19770	0.64455
623.000	0.00000	-0.24470	0.15025	0.69627
624.000	-0.03361	-0.16512	0.21549	0.69030
625.000	-0.07315	-0.17109	0.19968	0.65051
626.000	-0.05140	-0.17905	0.19968	0.68433
627.000	-0.01977	-0.20690	0.18979	0.63659
628.000	-0.07908	-0.20690	0.18979	0.68234
629.000	-0.18584	-0.21287	0.21945	0.68632
630.000	-0.06722	-0.10544	0.21747	0.67836
631.000	-0.03954	-0.14921	0.24317	0.63062
632.000	-0.02966	-0.19695	0.22735	0.66046
633.000	-0.07513	-0.18104	0.26096	0.63062
634.000	-0.16804	-0.19695	0.22735	0.68234
635.000	-0.16014	-0.24072	0.27282	0.59084
636.000	-0.13444	-0.16512	0.23526	0.66841
637.000	-0.06326	-0.23077	0.23329	0.62664
638.000	-0.06326	-0.25266	0.22735	0.65250
639.000	-0.09490	-0.17308	0.25305	0.63261
640.000	-0.11664	-0.26061	0.25899	0.66245
641.000	-0.03361	-0.19894	0.25701	0.66642
642.000	-0.11071	-0.23475	0.23526	0.65051
643.000	-0.09094	-0.22083	0.27480	0.64454
644.000	-0.08897	-0.18502	0.22538	0.64256
645.000	-0.07315	-0.19099	0.20758	0.70820
646.000	-0.04547	-0.15518	0.27678	0.63858
647.000	-0.09292	-0.20690	0.25899	0.69029
648.000	-0.09885	-0.21287	0.23922	0.71416
649.000	-0.03756	-0.23873	0.26887	0.68433
650.000	-0.00593	-0.16910	0.29259	0.63460
651.000	-0.05536	-0.17308	0.28864	0.65648
652.000	-0.07513	-0.17706	0.24712	0.65051
653.000	-0.08699	-0.14125	0.23131	0.64852
654.000	-0.08897	-0.24271	0.25899	0.62266
655.000	-0.09687	-0.24669	0.28666	0.65449
656.000	-0.14827	-0.27255	0.30248	0.61669
657.000	-0.21549	-0.26459	0.27085	0.63460
658.000	-0.08303	-0.24868	0.30050	0.61868
659.000	-0.06326	-0.20292	0.29655	0.61073
660.000	-0.15025	-0.22083	0.27876	0.61471
661.000	-0.05140	-0.25664	0.29457	0.57492
662.000	-0.04152	-0.13528	0.27480	0.56696
663.000	-0.02966	-0.17109	0.28469	0.60675
664.000	0.00198	-0.22481	0.28469	0.64255
665.000	-0.05338	-0.17507	0.26096	0.59680
666.000	0.05733	-0.17507	0.29457	0.57094
667.000	-0.00198	-0.25266	0.28271	0.57492
668.000	-0.04547	-0.28648	0.25701	0.59879
669.000	-0.07315	-0.27255	0.22735	0.56697
670.000	-0.04745	-0.29443	0.26689	0.55304
671.000	-0.07117	-0.33223	0.22538	0.56896
672.000	-0.07117	-0.29443	0.24712	0.56498
673.000	-0.09490	-0.26061	0.23526	0.57691
674.000	-0.03361	-0.29046	0.23329	0.57890
675.000	-0.04547	-0.32825	0.21945	0.58885
676.000	-0.05733	-0.22679	0.21747	0.60476
677.000	-0.04547	-0.24669	0.19968	0.60277
678.000	0.00000	-0.24072	0.18584	0.63261
679.000	-0.12653	-0.27454	0.22538	0.64256
680.000	-0.03756	-0.28051	0.20956	0.61471
681.000	-0.11071	-0.26260	0.23922	0.64454
682.000	-0.05536	-0.30438	0.19572	0.66643
683.000	-0.07908	-0.25266	0.21154	0.67836
684.000	-0.09490	-0.23475	0.19572	0.65648
685.000	-0.07908	-0.27255	0.20956	0.67836
686.000	-0.07117	-0.28449	0.20758	0.63659
687.000	-0.11071	-0.27653	0.21154	0.63460
688.000	-0.03954	-0.25862	0.22538	0.61869
689.000	-0.06920	-0.24271	0.22142	0.67040
690.000	-0.09885	-0.26857	0.19572	0.66643
691.000	-0.07315	-0.28250	0.20165	0.66842
692.000	-0.11071	-0.28847	0.19770	0.66643
693.000	-0.24119	-0.21884	0.18979	0.66444
694.000	-0.11862	-0.28648	0.22142	0.69626
695.000	-0.14432	-0.26857	0.24119	0.73604
696.000	-0.09687	-0.36008	0.23922	0.70422
697.000	-0.17991	-0.24072	0.19968	0.66046
698.000	-0.11467	-0.23674	0.27678	0.69626
699.000	-0.15223	-0.28449	0.23724	0.69228
700.000	-0.09094	-0.27454	0.29259	0.69228
701.000	-0.13641	-0.29443	0.23329	0.68831
702.000	-0.15223	-0.33422	0.20758	0.64852
703.000	-0.12060	-0.29244	0.22933	0.67836
704.000	-0.17793	-0.30040	0.22340	0.68433
705.000	-0.15816	-0.28449	0.17002	0.65250
706.000	-0.11071	-0.28051	0.25503	0.65847
707.000	-0.08699	-0.22878	0.21549	0.67040
708.000	-0.08501	-0.29841	0.24910	0.71217
709.000	-0.15223	-0.25266	0.23526	0.70422
710.000	-0.10874	-0.29045	0.22142	0.70223
711.000	-0.04943	-0.31035	0.26294	0.70422
712.000	-0.14037	-0.29642	0.27876	0.70621
713.000	-0.15421	-0.33422	0.25701	0.67637
714.000	-0.15816	-0.34616	0.26294	0.67040
715.000	-0.11664	-0.32427	0.27678	0.69029
716.000	-0.09885	-0.33820	0.25108	0.68234
717.000	-0.13048	-0.34218	0.25108	0.64255
718.000	-0.13839	-0.30239	0.24317	0.64454
719.000	-0.05931	-0.31035	0.22538	0.71814
720.000	-0.16211	-0.37202	0.28666	0.68631
721.000	-0.20165	-0.31035	0.24317	0.66444
722.000	-0.18584	-0.28648	0.24317	0.64653
723.000	-0.09292	-0.24271	0.23724	0.65648
724.000	-0.12653	-0.22679	0.25701	0.64653
725.000	-0.09687	-0.23276	0.24910	0.65847
726.000	-0.13641	-0.30040	0.24910	0.67637
727.000	-0.13444	-0.26260	0.17595	0.68632
728.000	-0.07908	-0.25067	0.26689	0.67239
729.000	-0.11862	-0.20491	0.20956	0.66444
730.000	-0.15618	-0.26260	0.19572	0.66842
731.000	-0.08699	-0.26260	0.22933	0.67040
732.000	-0.10676	-0.27056	0.17991	0.65847
733.000	-0.16804	-0.29244	0.20758	0.66842
734.000	-0.10676	-0.24868	0.25503	0.64255
735.000	-0.07315	-0.21088	0.25108	0.62664
736.000	-0.09687	-0.27852	0.19375	0.66444
737.000	-0.12257	-0.27056	0.19770	0.65250
738.000	-0.12850	-0.28648	0.18781	0.63062
739.000	-0.12257	-0.26061	0.22735	0.67040
740.000	-0.06326	-0.22481	0.21747	0.65449
741.000	-0.03954	-0.23674	0.17793	0.65250
742.000	-0.07908	-0.26260	0.19572	0.66444
743.000	-0.04152	-0.22282	0.18188	0.67041
744.000	-0.13246	-0.27255	0.17200	0.71815
745.000	-0.04745	-0.24470	0.17595	0.66643
746.000	-0.04547	-0.27852	0.21352	0.68433
747.000	-0.14827	-0.25862	0.21945	0.65449
748.000	-0.11071	-0.27454	0.17991	0.65250
749.000	-0.11269	-0.27255	0.20165	0.65051
750.000	-0.09687	-0.24470	0.19968	0.67041
751.000	-0.07908	-0.26459	0.20956	0.68632
752.000	-0.14037	-0.28250	0.19572	0.63261
753.000	-0.05536	-0.33024	0.15618	0.63659
754.000	-0.09490	-0.29841	0.22142	0.61869
755.000	-0.08897	-0.31831	0.20165	0.62267
756.000	-0.09094	-0.30438	0.20758	0.62465
757.000	-0.15421	-0.29841	0.20758	0.60277
758.000	-0.06920	-0.29046	0.19968	0.63261
759.000	-0.07710	-0.26061	0.20561	0.63062
760.000	-0.08699	-0.28847	0.18584	0.64057
761.000	-0.07908	-0.28449	0.20561	0.64455
762.000	0.00000	-0.24669	0.19770	0.65051
763.000	-0.01186	-0.30239	0.16014	0.62068
764.000	-0.04152	-0.23873	0.18584	0.64455
765.000	-0.04547	-0.27653	0.20561	0.64057
766.000	-0.01582	-0.21884	0.21154	0.59482
767.000	0.02768	-0.26658	0.18781	0.67240
768.000	-0.09490	-0.26260	0.20165	0.59283
769.000	-0.06722	-0.23674	0.20758	0.56498
770.000	-0.06129	-0.28648	0.21747	0.58686
771.000	-0.06920	-0.23475	0.21945	0.57492
772.000	-0.11269	-0.37799	0.21549	0.59482
773.000	-0.06326	-0.24072	0.20561	0.63460
774.000	-0.10874	-0.31632	0.21154	0.57492
775.000	-0.11071	-0.26459	0.18188	0.58686
776.000	-0.12850	-0.31632	0.18386	0.61471
777.000	-0.04547	-0.26658	0.22933	0.61272
778.000	-0.03163	-0.28051	0.19968	0.58885
779.000	-0.03361	-0.31831	0.19968	0.64852
780.000	-0.05536	-0.26061	0.17595	0.64455
781.000	-0.00198	-0.30239	0.19177	0.60476
782.000	-0.07513	-0.28051	0.21154	0.58885
783.000	-0.03163	-0.25862	0.18386	0.57691
784.000	-0.04349	-0.27653	0.21352	0.64256
785.000	0.00000	-0.24470	0.20956	0.61073
786.000	-0.05338	-0.30438	0.24317	0.57293
787.000	-0.04349	-0.24470	0.26294	0.57293
788.000	-0.04547	-0.24669	0.19177	0.56100
789.000	-0.01582	-0.26061	0.24119	0.59283
790.000	-0.08501	-0.29045	0.22142	0.57691
791.000	-0.07710	-0.31035	0.15816	0.56299
792.000	-0.10874	-0.27852	0.21945	0.53912
793.000	0.00989	-0.25664	0.22933	0.56896
794.000	-0.07908	-0.17308	0.23724	0.53912
795.000	-0.04349	-0.19297	0.24910	0.60476
796.000	-0.02966	-0.28250	0.22340	0.57890
797.000	-0.10083	-0.18502	0.20561	0.57691
798.000	-0.06524	-0.22282	0.23922	0.57492
799.000	-0.04152	-0.17507	0.24317	0.58686
800.000	-0.08501	-0.19894	0.25108	0.56100
801.000	0.01384	-0.24470	0.28073	0.60078
802.000	-0.07513	-0.19496	0.18979	0.60476
803.000	-0.04745	-0.15518	0.21549	0.56896
804.000	-0.06524	-0.25067	0.22735	0.56498
805.000	-0.03954	-0.23077	0.22735	0.56498
806.000	-0.03361	-0.22481	0.25503	0.55702
807.000	-0.00593	-0.17507	0.23526	0.58885
808.000	-0.03559	-0.23873	0.23724	0.56100
809.000	-0.05733	-0.25266	0.22142	0.51326
810.000	0.01186	-0.20093	0.21945	0.50928
811.000	0.01186	-0.20690	0.24119	0.58885
812.000	-0.04547	-0.17109	0.20363	0.56100
813.000	0.01977	-0.21486	0.19968	0.56100
814.000	-0.04349	-0.24669	0.23724	0.56697
815.000	0.00198	-0.26658	0.26689	0.57094
816.000	-0.02570	-0.18104	0.20165	0.58487
817.000	-0.01779	-0.16114	0.25305	0.57492
818.000	0.00395	-0.16313	0.24317	0.62067
819.000	-0.00395	-0.19894	0.25503	0.58089
820.000	0.01977	-0.23674	0.24515	0.52917
821.000	-0.03954	-0.23475	0.23329	0.55304
822.000	-0.05338	-0.21088	0.21154	0.58686
823.000	0.02372	-0.22083	0.26096	0.50331
824.000	0.04349	-0.16910	0.22538	0.51922
825.000	-0.04943	-0.14722	0.22735	0.51127
826.000	-0.05338	-0.21685	0.24119	0.59084
827.000	0.02570	-0.17507	0.23922	0.56299
828.000	0.02372	-0.13329	0.18781	0.58686
829.000	-0.05140	-0.20292	0.23724	0.57691
830.000	-0.03559	-0.24470	0.24515	0.53713
831.000	-0.05733	-0.25862	0.20363	0.58288
832.000	-0.07315	-0.26260	0.21945	0.55304
833.000	-0.01582	-0.17507	0.24119	0.57691
834.000	-0.01977	-0.18303	0.26096	0.51922
835.000	-0.01582	-0.13727	0.21352	0.57095
836.000	0.01977	-0.13130	0.22340	0.54509
837.000	-0.00791	-0.19496	0.21154	0.56498
838.000	0.01977	-0.26857	0.22933	0.49137
839.000	0.00395	-0.20491	0.23526	0.57691
840.000	-0.01779	-0.24271	0.21352	0.57095
841.000	-0.03559	-0.25067	0.24119	0.51723
842.000	-0.01779	-0.18303	0.23526	0.50928
843.000	-0.04152	-0.19695	0.22538	0.54111
844.000	0.05733	-0.13329	0.18386	0.52917
845.000	-0.02966	-0.22083	0.19572	0.54708
846.000	-0.01186	-0.22679	0.19770	0.59283
847.000	-0.00198	-0.12334	0.20363	0.56299
848.000	-0.05140	-0.15319	0.19770	0.58885
849.000	0.03756	-0.18900	0.22735	0.57293
850.000	-0.01186	-0.22282	0.19177	0.58288
851.000	-0.02372	-0.15717	0.19968	0.57890
852.000	-0.04349	-0.16114	0.20165	0.55702
853.000	0.01186	-0.15518	0.19572	0.53315
854.000	0.01186	-0.11340	0.18386	0.56896
855.000	-0.01186	-0.19099	0.17398	0.57890
856.000	-0.03163	-0.15518	0.20561	0.45955
857.000	-0.06524	-0.17109	0.20758	0.55702
858.000	0.01582	-0.21287	0.22142	0.55105
859.000	-0.08897	-0.18701	0.16409	0.56100
860.000	0.03163	-0.15518	0.20758	0.57691
861.000	-0.04745	-0.15319	0.19375	0.58686
862.000	0.02570	-0.13528	0.15025	0.64057
863.000	-0.00395	-0.10146	0.18979	0.61272
864.000	-0.04943	-0.17109	0.17793	0.56100
865.000	-0.08303	-0.14722	0.18979	0.62863
866.000	-0.07710	-0.20491	0.19572	0.64455
867.000	-0.04152	-0.12732	0.21549	0.62068
868.000	-0.09292	-0.21088	0.25701	0.63261
869.000	-0.04745	-0.23276	0.32225	0.60476
870.000	0.00198	-0.25067	0.45075	0.63458
871.000	0.12060	-0.26857	0.51401	0.68828
872.000	0.25503	-0.25663	0.62668	0.69424
873.000	0.39539	-0.24469	0.78284	0.66040
874.000	0.49819	-0.24668	0.89749	0.71011
875.000	0.68401	-0.28845	1.09710	0.64443
876.000	0.79470	-0.20887	1.20382	0.67026
877.000	0.96469	-0.19494	1.31843	0.58870
878.000	1.12279	-0.26056	1.49823	0.56081
879.000	1.14651	-0.23073	1.56540	0.50512
880.000	1.16627	-0.23271	1.60293	0.51903
881.000	1.14256	-0.29239	1.62466	0.42954
882.000	1.12872	-0.18100	1.59503	0.38977
883.000	1.12872	-0.20089	1.58713	0.38381
884.000	0.96666	-0.29240	1.52589	0.40371
885.000	0.94097	-0.21483	1.43105	0.38582
886.000	0.93899	-0.25660	1.38956	0.35401
887.000	0.86388	-0.24268	1.35004	0.35203
888.000	0.74529	-0.26656	1.30064	0.37988
889.000	0.73738	-0.18699	1.23544	0.40773
890.000	0.74529	-0.18898	1.21370	0.43558
891.000	0.65634	-0.19296	1.16429	0.39979
892.000	0.53378	-0.24469	1.12082	0.41968
893.000	0.57529	-0.21883	1.10303	0.45748
894.000	0.59506	-0.24071	1.03386	0.49130
895.000	0.56540	-0.25861	1.04769	0.51119
896.000	0.55750	-0.22281	1.05165	0.54699
897.000	0.55552	-0.22281	1.04572	0.50323
898.000	0.51203	-0.23275	1.04769	0.57881
899.000	0.51598	-0.20888	1.01805	0.60865
900.000	0.52191	-0.21883	1.06746	0.59273
901.000	0.55552	-0.20490	1.07932	0.60267
902.000	0.51401	-0.24867	1.09908	0.61659
903.000	0.42505	-0.20292	1.10896	0.62454
904.000	0.51401	-0.20689	1.09513	0.60068
905.000	0.47052	-0.19098	1.14058	0.55890
906.000	0.54564	-0.19893	1.16429	0.56685
907.000	0.57133	-0.15517	1.16627	0.52708
908.000	0.48831	-0.20092	1.19196	0.58276
909.000	0.58517	-0.19098	1.17418	0.58077
910.000	0.55947	-0.23474	1.20184	0.53105
911.000	0.56540	-0.23275	1.19987	0.59867
912.000	0.53180	-0.26657	1.23939	0.53104
913.000	0.63262	-0.24468	1.26705	0.53501
914.000	0.53575	-0.19893	1.21963	0.51712
915.000	0.49819	-0.21087	1.26310	0.54496
916.000	0.53378	-0.14522	1.27496	0.61655
917.000	0.43098	-0.20689	1.27693	0.53899
918.000	0.55552	-0.19297	1.27100	0.60263
919.000	0.54959	-0.16512	1.28088	0.58075
920.000	0.51796	-0.18899	1.28286	0.50518
921.000	0.44877	-0.23673	1.33226	0.53102
922.000	0.48040	-0.15915	1.28286	0.52904
923.000	0.54761	-0.15517	1.26903	0.60661
924.000	0.59703	-0.19495	1.27891	0.53899
925.000	0.55552	-0.11936	1.30064	0.53103
926.000	0.48040	-0.21883	1.30855	0.58472
927.000	0.52982	-0.11140	1.30460	0.60063
928.000	0.51203	-0.16114	1.30262	0.60063
929.000	0.47842	-0.20689	1.30855	0.50915
930.000	0.50412	-0.13727	1.33028	0.56284
931.000	0.37167	-0.26061	1.30064	0.56682
932.000	0.57133	-0.18700	1.28484	0.51910
933.000	0.49424	-0.12533	1.29867	0.55290
934.000	0.52982	-0.18899	1.35202	0.54891
935.000	0.49819	-0.22679	1.35202	0.51113
936.000	0.56343	-0.15716	1.31645	0.56284
937.000	0.47052	-0.15517	1.31052	0.53301
938.000	0.48040	-0.16114	1.37968	0.51510
939.000	0.43889	-0.15318	1.38166	0.53896
940.000	0.46063	-0.19894	1.39154	0.57874
941.000	0.35783	-0.20889	1.37771	0.53101
942.000	0.47447	-0.18103	1.36585	0.52107
943.000	0.39342	-0.18899	1.38956	0.53697
944.000	0.45668	-0.16711	1.37178	0.53897
945.000	0.41714	-0.19894	1.36783	0.55488
946.000	0.39539	-0.19496	1.40537	0.52106
947.000	0.44482	-0.12533	1.38166	0.53300
948.000	0.37760	-0.18899	1.39746	0.50913
949.000	0.35190	-0.21088	1.41920	0.43554
950.000	0.36574	-0.20889	1.37968	0.48527
951.000	0.39737	-0.14324	1.41920	0.49521
952.000	0.43493	-0.15318	1.42117	0.48327
953.000	0.40726	-0.20690	1.41327	0.54890
954.000	0.40330	-0.17308	1.42710	0.52106
955.000	0.31236	-0.21088	1.40734	0.48725
956.000	0.41319	-0.21485	1.45871	0.51111
957.000	0.35981	-0.15716	1.43698	0.52702
958.000	0.36772	-0.16114	1.42908	0.53299
959.000	0.38353	-0.22480	1.42908	0.49321
960.000	0.33411	-0.18700	1.40537	0.55288
961.000	0.32225	-0.22480	1.42710	0.51111
962.000	0.31039	-0.17109	1.44883	0.50315
963.000	0.23526	-0.22082	1.45081	0.51906
964.000	0.27876	-0.26260	1.43896	0.51111
965.000	0.23131	-0.22878	1.46069	0.56281
966.000	0.30248	-0.24271	1.49230	0.55485
967.000	0.24910	-0.24072	1.51206	0.52899
968.000	0.27085	-0.24470	1.52193	0.51706
969.000	0.24119	-0.27056	1.49230	0.54888
970.000	0.19770	-0.21685	1.50613	0.52104
971.000	0.25899	-0.23276	1.56145	0.52301
972.000	0.19375	-0.25464	1.52786	0.50115
973.000	0.20165	-0.23475	1.55157	0.49120
974.000	0.19968	-0.23475	1.53576	0.54290
975.000	0.23922	-0.20491	1.47057	0.52304
976.000	0.24119	-0.15716	1.49823	0.52303
977.000	0.16607	-0.25663	1.54564	0.47529
978.000	0.28864	-0.16313	1.52391	0.51308
979.000	0.25701	-0.29443	1.51008	0.46536
980.000	0.19375	-0.18303	1.53181	0.54291
981.000	0.15025	-0.22282	1.51601	0.51507
982.000	0.22340	-0.20093	1.48637	0.48326
983.000	0.24712	-0.24868	1.51206	0.49717
984.000	0.25305	-0.19695	1.50020	0.47132
985.000	0.24712	-0.17905	1.53971	0.49319
986.000	0.08303	-0.27852	1.52589	0.49120
987.000	0.19968	-0.16711	1.53774	0.50114
988.000	0.10676	-0.26459	1.52193	0.53893
989.000	0.09687	-0.19098	1.57725	0.51506
990.000	0.11862	-0.22679	1.52391	0.51706
991.000	0.08106	-0.16711	1.57330	0.54290
992.000	0.18584	-0.17308	1.52786	0.56478
993.000	0.10676	-0.22083	1.50020	0.47530
994.000	0.10280	-0.27056	1.55157	0.53296
995.000	0.05931	-0.26459	1.52193	0.49319
996.000	0.15421	-0.18303	1.52589	0.46535
997.000	0.14827	-0.18104	1.56935	0.52301
998.000	0.20956	-0.19098	1.58515	0.45341
999.000	0.09687	-0.23276	1.54367	0.44347
1000.000	0.14037	-0.27454	1.62466	0.46931
1001.000	0.15025	-0.18701	1.58318	0.45142
1002.000	0.17991	-0.22878	1.57132	0.54687
1003.000	0.15025	-0.16512	1.61478	0.52300
1004.000	0.15421	-0.17706	1.57923	0.55482
1005.000	0.14432	-0.18104	1.62664	0.52300
1006.000	0.17002	-0.18104	1.57527	0.51108
1007.000	0.06129	-0.14921	1.55947	0.52500
1008.000	0.12257	-0.21287	1.61083	0.46732
1009.000	0.06129	-0.20093	1.61478	0.47726
1010.000	0.09885	-0.12334	1.61281	0.46335
1011.000	0.17991	-0.20690	1.59898	0.48323
1012.000	0.09292	-0.19297	1.62664	0.48720
1013.000	0.10874	-0.16711	1.64046	0.47726
1014.000	0.09885	-0.22480	1.62269	0.49317
1015.000	0.04547	-0.19496	1.60293	0.49119
1016.000	0.09292	-0.17507	1.63651	0.48521
1017.000	0.12653	-0.22878	1.63059	0.46931
1018.000	-0.02372	-0.19894	1.58515	0.45142
1019.000	0.15618	-0.14125	1.64441	0.52100
1020.000	0.12850	-0.17706	1.62861	0.46135
1021.000	0.01384	-0.16512	1.60886	0.40369
1022.000	0.03756	-0.22282	1.62269	0.44545
1023.000	0.00989	-0.22083	1.65034	0.42754
1024.000	0.04547	-0.14523	1.67009	0.43350
1025.000	0.09094	-0.18701	1.69577	0.47724
1026.000	0.04547	-0.22481	1.66614	0.45140
1027.000	0.12455	-0.09947	1.63849	0.46930
1028.000	0.11071	-0.16114	1.66022	0.44743
1029.000	0.06920	-0.15915	1.67404	0.50907
1030.000	0.14234	-0.14125	1.64441	0.43152
1031.000	0.09490	-0.18502	1.64244	0.48720
1032.000	0.09885	-0.08356	1.66417	0.51503
1033.000	0.04745	-0.14125	1.67207	0.45935
1034.000	0.06524	-0.22282	1.62664	0.50908
1035.000	0.00989	-0.13130	1.66417	0.47725
1036.000	0.10478	-0.14722	1.68392	0.46929
1037.000	0.04349	-0.19695	1.64046	0.49714
1038.000	0.10478	-0.15120	1.67602	0.50310
1039.000	0.11467	-0.13329	1.69380	0.49514
1040.000	0.00989	-0.09947	1.66614	0.51702
1041.000	0.04745	-0.22481	1.69577	0.51900
1042.000	0.03756	-0.17109	1.75898	0.43945
1043.000	0.10676	-0.17308	1.75700	0.44740
1044.000	0.00791	-0.23475	1.72738	0.48121
1045.000	0.13048	-0.07162	1.72540	0.48320
1046.000	-0.05931	-0.11141	1.73528	0.48718
1047.000	-0.04547	-0.19496	1.70960	0.45935
1048.000	0.00791	-0.16711	1.74713	0.44542
1049.000	-0.03361	-0.21685	1.73923	0.48320
1050.000	0.06129	-0.16711	1.72935	0.44940
1051.000	0.04943	-0.24669	1.76688	0.47325
1052.000	0.06326	-0.15518	1.73923	0.44542
1053.000	0.04943	-0.16313	1.75108	0.44144
1054.000	0.07513	-0.19297	1.78071	0.41956
1055.000	0.13048	-0.06764	1.79651	0.44143
1056.000	0.01384	-0.18303	1.76293	0.48319
1057.000	0.05140	-0.15518	1.75700	0.47524
1058.000	0.01977	-0.13727	1.77281	0.50904
1059.000	0.03559	-0.11937	1.79453	0.46529
1060.000	-0.03361	-0.13528	1.77478	0.45933
1061.000	0.10676	-0.13727	1.73133	0.47724
1062.000	0.06920	-0.14722	1.75305	0.46928
1063.000	-0.00791	-0.20690	1.79651	0.45336
1064.000	0.05733	-0.23674	1.83206	0.42551
1065.000	-0.00593	-0.07759	1.81823	0.46330
1066.000	-0.01582	-0.13926	1.82811	0.49511
1067.000	0.02372	-0.13727	1.83206	0.38177
1068.000	-0.12060	-0.11937	1.79651	0.42155
1069.000	-0.09885	-0.16910	1.71750	0.35992
1070.000	-0.21352	-0.16313	1.62466	0.27841
1071.000	-0.31039	-0.21287	1.49625	0.26848
1072.000	-0.39737	-0.28846	1.40142	0.04574
1073.000	-0.54564	-0.41577	1.24334	-0.00796
1074.000	-0.59901	-0.46549	1.08327	-0.24664
1075.000	-0.84412	-0.57685	0.99829	-0.39185
1076.000	-1.15441	-0.72198	0.83226	-0.43762
1077.000	-1.31448	-0.83131	0.80063	-0.54901
1078.000	-1.43698	-1.00226	0.68994	-0.68031
1079.000	-1.59108	-1.05785	0.61087	-0.73601
1080.000	-1.55947	-1.31032	0.50412	-0.88519
1081.000	-1.71158	-1.41755	0.51994	-0.89713
1082.000	-1.74515	-1.42348	0.50215	-1.05026
1083.000	-1.62664	-1.64812	0.51005	-1.18549
1084.000	-1.62269	-1.68787	0.55354	-1.24314
1085.000	-1.54169	-1.81112	0.55552	-1.36841
1086.000	-1.47847	-1.74560	0.59901	-1.46383
1087.000	-1.34016	-1.89870	0.65831	-1.41809
1088.000	-1.44488	-1.95424	0.73540	-1.44589
1089.000	-1.35597	-2.09336	0.71564	-1.47572
1090.000	-1.31448	-2.24036	0.80656	-1.65061
1091.000	-1.16627	-2.28418	0.81447	-1.81954
1092.000	-1.20382	-2.50851	0.85005	-1.93875
1093.000	-1.17220	-2.59390	0.81447	-2.03016
1094.000	-1.20777	-2.61173	0.85796	-2.18707
1095.000	-1.03584	-2.68334	0.81645	-2.21292
1096.000	-1.11687	-2.82615	0.84412	-2.27447
1097.000	-1.15046	-2.95507	0.84807	-2.32015
1098.000	-1.11687	-3.06817	0.86191	-2.40156
1099.000	-1.09315	-3.15149	0.87574	-2.50282
1100.000	-1.11094	-3.29225	0.89749	-2.62588
1101.000	-1.02398	-3.37957	0.89156	-2.67750
1102.000	-1.14256	-3.51420	0.88167	-2.80452
1103.000	-1.06746	-3.54798	0.89156	-2.93746
1104.000	-0.95480	-3.53026	0.86981	-3.00294
1105.000	-1.04177	-3.62528	0.81645	-3.09819
1106.000	-1.01014	-3.71248	0.79273	-3.16168
1107.000	-1.10698	-3.78960	0.72354	-3.24303
1108.000	-1.05362	-3.81343	0.73145	-3.37587
1109.000	-1.14453	-3.95587	0.67413	-3.33626
1110.000	-1.14453	-3.96577	0.66227	-3.40367
1111.000	-1.06943	-3.91242	0.62273	-3.41361
1112.000	-1.20777	-4.04089	0.64448	-3.42548
1113.000	-1.13860	-3.99349	0.62075	-3.41559
1114.000	-1.06548	-4.02130	0.61482	-3.41361
1115.000	-1.07141	-3.98170	0.61482	-3.39973
1116.000	-1.08327	-3.97377	0.63064	-3.36008
1117.000	-0.99829	-3.95804	0.63657	-3.32835
1118.000	-1.07734	-3.83717	0.61087	-3.19948
1119.000	-1.03188	-3.89266	0.59901	-3.19156
1120.000	-0.95283	-3.72442	0.59110	-3.13801
1121.000	-0.96864	-3.74817	0.57331	-3.11224
1122.000	-0.89749	-3.71656	0.54959	-3.13208
1123.000	-0.94887	-3.78187	0.56540	-3.10827
1124.000	-0.95876	-3.65508	0.51203	-3.12615
1125.000	-0.88167	-3.62545	0.51994	-3.06664
1126.000	-1.00224	-3.69268	0.51994	-3.07854
1127.000	-1.04967	-3.66885	0.51598	-3.10433
1128.000	-0.95480	-3.73036	0.52982	-3.14598
1129.000	-1.02793	-3.72830	0.49424	-3.16186
1130.000	-1.02200	-3.81743	0.52389	-3.19160
1131.000	-1.01607	-3.75802	0.52982	-3.20548
1132.000	-1.01212	-3.76001	0.51005	-3.17375
1133.000	-1.03188	-3.83524	0.55157	-3.19555
1134.000	-0.90934	-3.81558	0.60099	-3.19949
1135.000	-0.95876	-3.82344	0.59703	-3.19156
1136.000	-1.01410	-3.92040	0.58715	-3.21338
1137.000	-1.06351	-3.95202	0.51401	-3.16780
1138.000	-1.06943	-3.90846	0.53378	-3.26893
1139.000	-1.09710	-3.94999	0.55750	-3.22728
1140.000	-1.14651	-3.93409	0.57529	-3.26296
1141.000	-1.05560	-4.00745	0.57924	-3.29666
1142.000	-1.04769	-3.94610	0.57924	-3.29468
1143.000	-1.04967	-3.86096	0.54761	-3.30858
1144.000	-1.08920	-4.00147	0.56540	-3.27486
1145.000	-1.14058	-3.99546	0.62273	-3.34422
1146.000	-1.06746	-3.97181	0.57924	-3.27882
1147.000	-1.10303	-3.98562	0.57529	-3.28675
1148.000	-1.02003	-4.03521	0.53971	-3.32841
1149.000	-1.02595	-3.97582	0.58122	-3.26692
1150.000	-1.07932	-4.00940	0.61285	-3.32638
1151.000	-0.97852	-3.95806	0.63459	-3.33430
1152.000	-1.05165	-3.95005	0.57133	-3.33434
1153.000	-1.06943	-3.97379	0.60099	-3.29863
1154.000	-0.97852	-3.97786	0.60296	-3.36802
1155.000	-0.98840	-3.93825	0.63855	-3.33033
1156.000	-1.04374	-4.01935	0.59308	-3.32838
1157.000	-0.99631	-3.96002	0.58517	-3.32244
1158.000	-1.06351	-3.99755	0.59506	-3.37596
1159.000	-1.09710	-3.97573	0.58320	-3.35218
1160.000	-0.99829	-3.99565	0.54168	-3.33237
1161.000	-1.03781	-3.91048	0.59308	-3.35812
1162.000	-1.06548	-3.91440	0.61087	-3.37793
1163.000	-1.00026	-3.96199	0.60889	-3.36009
1164.000	-0.92713	-3.97000	0.58913	-3.33036
1165.000	-0.93306	-4.03927	0.59308	-3.31252
1166.000	-1.02793	-3.97978	0.64250	-3.32240
1167.000	-0.89749	-3.98587	0.59506	-3.35613
1168.000	-0.92120	-3.88487	0.59703	-3.37596
1169.000	-0.93899	-3.84525	0.61087	-3.31449
1170.000	-0.99631	-4.00159	0.57924	-3.34623
1171.000	-0.97654	-3.87293	0.61087	-3.34026
1172.000	-0.96271	-3.93630	0.64052	-3.33430
1173.000	-1.00026	-4.03721	0.62471	-3.38387
1174.000	-0.89551	-3.94430	0.62471	-3.29465
1175.000	-0.97062	-3.98578	0.60692	-3.32639
1176.000	-0.89551	-3.92054	0.56540	-3.28279
1177.000	-1.03584	-3.93226	0.58122	-3.27684
1178.000	-0.94887	-3.98185	0.59901	-3.33631
1179.000	-0.96271	-3.91056	0.58320	-3.35812
1180.000	-0.87772	-3.88492	0.60692	-3.34621
1181.000	-0.93899	-3.91455	0.59506	-3.32441
1182.000	-0.94295	-3.91851	0.58320	-3.36804
1183.000	-0.99236	-3.98576	0.59308	-3.33631
1184.000	-0.91132	-3.86112	0.60296	-3.33432
1185.000	-0.96469	-3.92838	0.55947	-3.35814
1186.000	-0.90737	-3.91261	0.58715	-3.30657
1187.000	-0.96666	-3.99965	0.59506	-3.37001
1188.000	-0.95085	-3.98581	0.55750	-3.30461
1189.000	-1.00026	-3.90458	0.62866	-3.31250
1190.000	-0.90934	-3.97398	0.62273	-3.30259
1191.000	-1.00619	-3.91447	0.61285	-3.37198
1192.000	-0.99631	-3.97586	0.58320	-3.32045
1193.000	-0.97062	-4.02537	0.57924	-3.31451
1194.000	-0.97062	-3.95807	0.56738	-3.30460
1195.000	-1.03584	-3.95205	0.55750	-3.34228
1196.000	-1.00224	-3.93032	0.55157	-3.33435
1197.000	-0.93306	-4.04323	0.56540	-3.34426
1198.000	-0.98840	-4.06494	0.54959	-3.31651
1199.000	-1.07734	-4.04107	0.59110	-3.31450
1200.000	-1.02398	-4.08270	0.62866	-3.37197
1201.000	-1.00619	-4.01741	0.58517	-3.37596
1202.000	-1.07932	-3.97773	0.57727	-3.33830
1203.000	-0.95678	-4.06102	0.55750	-3.33237
1204.000	-0.99631	-3.98180	0.53575	-3.30264
1205.000	-0.96073	-4.01153	0.57331	-3.32641
1206.000	-1.03188	-3.95800	0.56738	-3.31055
1207.000	-0.96271	-3.98381	0.58320	-3.34226
1208.000	-1.04769	-4.01736	0.57529	-3.36209
1209.000	-0.98445	-4.00754	0.61680	-3.37396
1210.000	-0.99038	-4.03723	0.57133	-3.31848
1211.000	-1.03188	-3.91444	0.51005	-3.32644
1212.000	-1.01805	-3.99958	0.54564	-3.32444
1213.000	-1.01212	-4.12824	0.58320	-3.34425
1214.000	-0.93899	-3.98582	0.59308	-3.34424
1215.000	-1.04769	-4.09653	0.62668	-3.36008
1216.000	-1.08327	-4.04898	0.56738	-3.32839
1217.000	-0.96864	-4.06694	0.57924	-3.32640
1218.000	-1.05758	-3.99558	0.56343	-3.35814
1219.000	-1.00421	-3.97387	0.59110	-3.38191
1220.000	-0.96864	-4.04913	0.52389	-3.33437
1221.000	-1.07536	-3.96982	0.55750	-3.35814
1222.000	-0.92318	-3.94625	0.51598	-3.35816
1223.000	-0.99236	-3.96200	0.58517	-3.37596
1224.000	-1.01212	-4.03720	0.61285	-3.36802
1225.000	-0.91923	-3.99376	0.56936	-3.39580
1226.000	-1.00224	-3.96397	0.58715	-3.37398
1227.000	-1.02991	-4.02728	0.58715	-3.37795
1228.000	-0.91923	-4.04918	0.60099	-3.34820
1229.000	-0.99829	-3.96398	0.56738	-3.42157
1230.000	-0.98247	-3.98181	0.57133	-3.36606
1231.000	-1.09513	-4.03907	0.57727	-3.34425
1232.000	-1.00421	-3.99366	0.57727	-3.38588
1233.000	-1.08722	-4.04106	0.60494	-3.33828
1234.000	-1.05560	-3.99162	0.58913	-3.30459
1235.000	-0.93504	-4.06302	0.58913	-3.28476
1236.000	-0.87179	-3.97006	0.54564	-3.37202
1237.000	-1.01607	-3.98573	0.56936	-3.34624
1238.000	-1.00421	-3.99762	0.57133	-3.34029
1239.000	-1.00817	-3.96594	0.58715	-3.35614
1240.000	-1.02595	-3.93623	0.58320	-3.35218
1241.000	-0.96864	-3.96797	0.55552	-3.34624
1242.000	-1.04177	-4.10643	0.55157	-3.35616
1243.000	-0.97457	-4.02933	0.56343	-3.28874
1244.000	-0.93899	-4.07093	0.58913	-3.38984
1245.000	-1.03386	-4.08269	0.55552	-3.37003
1246.000	-1.00619	-3.99762	0.59308	-3.33631
1247.000	-1.05955	-4.01141	0.61087	-3.31052
1248.000	-1.11489	-4.01133	0.59308	-3.31450
1249.000	-1.11291	-4.11821	0.58913	-3.29269
1250.000	-1.02793	-3.96988	0.55947	-3.32047
1251.000	-1.07339	-4.05098	0.59506	-3.35217
1252.000	-1.07932	-4.08263	0.63459	-3.27879
1253.000	-1.05955	-4.02328	0.55750	-3.30461
1254.000	-0.98643	-3.99962	0.58913	-3.32838
1255.000	-1.08722	-4.02325	0.58517	-3.25700
1256.000	-1.08327	-3.97179	0.57529	-3.37201
1257.000	-1.10303	-3.97968	0.55157	-3.32840
1258.000	-1.09513	-4.06876	0.59308	-3.34820
1259.000	-1.13268	-4.07266	0.53378	-3.37203
1260.000	-1.18603	-4.03103	0.52784	-3.30859
1261.000	-1.12279	-4.05487	0.54959	-3.31056
1262.000	-1.03979	-4.12028	0.52191	-3.29471
1263.000	-1.09117	-4.07470	0.57331	-3.32046
1264.000	-1.07932	-4.04107	0.60889	-3.38784
1265.000	-1.17615	-4.13592	0.64645	-3.35412
1266.000	-1.08722	-4.02919	0.61285	-3.36009
1267.000	-1.07141	-4.03119	0.55552	-3.30064
1268.000	-1.02003	-4.03323	0.61482	-3.39181
1269.000	-1.12675	-4.10829	0.56738	-3.32046
1270.000	-1.15639	-4.14387	0.60889	-3.37397
1271.000	-1.10896	-4.10634	0.60889	-3.42551
1272.000	-1.22160	-4.11607	0.65041	-3.40962
1273.000	-1.19987	-4.07455	0.58320	-3.36011
1274.000	-1.12279	-4.04101	0.58320	-3.36209
1275.000	-1.16627	-4.10626	0.55552	-3.33831
1276.000	-1.13663	-4.02318	0.59110	-3.34028
1277.000	-1.20579	-4.12797	0.58715	-3.34623
1278.000	-1.18998	-4.08050	0.61285	-3.34621
1279.000	-1.20579	-4.05673	0.59110	-3.37993
1280.000	-1.07339	-4.04504	0.59308	-3.38785
1281.000	-1.03979	-4.06289	0.62471	-3.31448
1282.000	-1.10896	-4.04697	0.59506	-3.31846
1283.000	-1.14256	-3.95785	0.55157	-3.36012
1284.000	-1.09710	-4.00740	0.62273	-3.36999
1285.000	-1.13465	-4.03110	0.63262	-3.34025
1286.000	-1.12279	-4.07664	0.64448	-3.34024
1287.000	-1.19591	-4.06070	0.57331	-3.40372
1288.000	-1.14848	-4.05681	0.59901	-3.33631
1289.000	-1.16627	-4.10626	0.60889	-3.31053
1290.000	-1.20777	-4.06662	0.65238	-3.33032
1291.000	-1.12675	-4.01726	0.56936	-3.38787
1292.000	-1.15441	-4.10825	0.64843	-3.33033
1293.000	-1.12872	-4.04892	0.56936	-3.33632
1294.000	-1.08524	-4.04304	0.64645	-3.34421
1295.000	-1.22753	-4.09034	0.63262	-3.32637
1296.000	-1.16825	-3.94792	0.67610	-3.35608
1297.000	-1.15244	-4.12013	0.66424	-3.36798
1298.000	-1.21963	-4.07650	0.68006	-3.33031
1299.000	-1.07734	-4.02128	0.62075	-3.33431
1300.000	-1.15441	-4.09440	0.62668	-3.32836
1301.000	-1.10106	-4.02917	0.61878	-3.29267
1302.000	-1.07141	-4.07275	0.65436	-3.28076
1303.000	-1.20777	-4.04881	0.65041	-3.35412
1304.000	-1.04374	-4.01539	0.59703	-3.31053
1305.000	-1.16825	-4.03897	0.65436	-3.27877
1306.000	-1.11884	-3.94601	0.63262	-3.30853
1307.000	-1.09315	-4.01334	0.62866	-3.32439
1308.000	-1.07932	-4.11232	0.60099	-3.36406
1309.000	-1.29274	-4.08430	0.65238	-3.29265
1310.000	-1.19196	-4.06268	0.62273	-3.32043
1311.000	-1.15046	-4.06077	0.65041	-3.30059
1312.000	-1.13070	-4.06277	0.65238	-3.35610
1313.000	-1.16034	-4.06867	0.58517	-3.25899
1314.000	-1.16034	-4.04096	0.62866	-3.27086
1315.000	-1.14848	-4.02910	0.65831	-3.28670
1316.000	-1.14453	-4.11025	0.68796	-3.26884
1317.000	-1.17813	-4.01323	0.67610	-3.32238
1318.000	-1.22555	-4.00326	0.65436	-3.27481
1319.000	-1.15639	-4.09242	0.64448	-3.27481
1320.000	-1.20777	-4.07256	0.64843	-3.34024
1321.000	-1.16627	-3.98355	0.65831	-3.31842
1322.000	-1.15837	-4.07857	0.61087	-3.34225
1323.000	-1.16429	-4.10824	0.59110	-3.31450
1324.000	-1.25520	-4.16350	0.61680	-3.33431
1325.000	-1.14058	-4.07463	0.64052	-3.33628
1326.000	-1.17615	-4.09041	0.64250	-3.30456
1327.000	-1.21963	-4.04879	0.61680	-3.27483
1328.000	-1.09710	-4.01730	0.62668	-3.26888
1329.000	-1.15046	-4.05681	0.66424	-3.25299
1330.000	-1.14256	-4.12014	0.67215	-3.32436
1331.000	-1.14651	-4.01723	0.69587	-3.29064
1332.000	-1.14848	-3.99941	0.65436	-3.25894
1333.000	-1.19789	-4.07653	0.61878	-3.29466
1334.000	-1.16034	-3.97960	0.65238	-3.31050
1335.000	-1.19394	-4.08247	0.64250	-3.32438
1336.000	-1.19591	-3.97757	0.64250	-3.29464
1337.000	-1.05955	-4.08068	0.63855	-3.26887
1338.000	-1.14058	-3.94004	0.62273	-3.33431
1339.000	-1.16825	-4.00928	0.68006	-3.28470
1340.000	-1.17615	-3.93405	0.65238	-3.28671
1341.000	-1.14453	-3.97764	0.63064	-3.26887
1342.000	-1.17615	-4.03500	0.64448	-3.22921
1343.000	-1.14256	-3.98359	0.61680	-3.25897
1344.000	-1.07932	-4.03315	0.65634	-3.31248
1345.000	-1.18208	-3.92810	0.67413	-3.27479
1346.000	-1.07141	-3.91043	0.63064	-3.24508
1347.000	-1.13465	-3.97172	0.66029	-3.29661
1348.000	-1.19196	-4.06862	0.65831	-3.27480
1349.000	-1.08524	-3.99950	0.64448	-3.23714
1350.000	-1.08129	-4.03909	0.66622	-3.18358
1351.000	-1.18406	-3.93404	0.70378	-3.28072
1352.000	-1.21370	-3.96765	0.67808	-3.27876
1353.000	-1.14256	-3.95983	0.66227	-3.24704
1354.000	-1.05758	-3.92431	0.66227	-3.21135
1355.000	-1.20382	-3.90827	0.59308	-3.26295
1356.000	-1.12082	-3.87671	0.67808	-3.23315
1357.000	-1.22160	-4.05472	0.63459	-3.32241
1358.000	-1.26112	-4.04477	0.65831	-3.24704
1359.000	-1.12872	-4.01725	0.69389	-3.29461
1360.000	-1.07932	-4.00742	0.76505	-3.30843
1361.000	-1.07536	-4.09253	0.78680	-3.35203
1362.000	-0.94097	-4.09468	0.85598	-3.40946
1363.000	-0.93306	-4.13229	0.88958	-3.45898
1364.000	-0.72750	-4.19187	1.02398	-3.54208
1365.000	-0.73343	-4.39759	1.14256	-3.62714
1366.000	-0.66029	-4.46489	1.20184	-3.75581
1367.000	-0.68994	-4.55580	1.28681	-3.87846
1368.000	-0.51401	-4.70615	1.39746	-3.84066
1369.000	-0.35388	-4.80109	1.50613	-3.88601
1370.000	-0.30446	-4.86827	1.60886	-3.94718
1371.000	-0.16607	-4.88017	1.62664	-3.92142
1372.000	-0.04547	-4.83871	1.69972	-3.91732
1373.000	0.00000	-4.83871	1.75108	-3.91919
1374.000	0.01779	-4.88611	1.82416	-3.97840
1375.000	0.00395	-4.91771	1.85378	-3.87741
1376.000	0.14432	-4.90190	1.85378	-3.99219
1377.000	0.09687	-4.95128	1.88933	-3.89514
1378.000	0.14234	-4.92757	1.91895	-3.93861
1379.000	0.26689	-4.92951	2.00386	-3.91863
1380.000	0.34993	-4.92355	1.98214	-3.90087
1381.000	0.34597	-4.98673	2.05915	-3.94224
1382.000	0.41319	-4.90574	2.11443	-3.89857
1383.000	0.44284	-4.86622	2.14207	-3.81142
1384.000	0.47645	-4.88002	2.16181	-3.86678
1385.000	0.50215	-4.90568	2.17366	-3.87665
1386.000	0.49226	-4.90766	2.16774	-3.85885
1387.000	0.55947	-4.85428	2.11838	-3.86491
1388.000	0.42307	-4.89191	2.08679	-3.85905
1389.000	0.44086	-4.84844	2.10654	-3.90056
1390.000	0.41121	-4.91364	2.06310	-3.88880
1391.000	0.29259	-4.81297	2.01769	-3.83151
1392.000	0.32818	-4.83468	1.97424	-3.87120
1393.000	0.25305	-4.85249	1.94857	-3.89105
1394.000	0.22735	-4.78336	1.95252	-3.81781
1395.000	0.19572	-4.81695	1.88735	-3.81399
1396.000	0.31632	-4.71220	1.90710	-3.83374
1397.000	0.19770	-4.81103	1.84983	-3.83981
1398.000	0.23131	-4.73397	1.83403	-3.77649
1399.000	0.26689	-4.79125	1.89920	-3.81990
1400.000	0.21154	-4.75175	1.84983	-3.75864
1401.000	0.26689	-4.80113	1.90513	-3.87136
1402.000	0.27085	-4.75173	1.88143	-3.81202
1403.000	0.29852	-4.72999	1.91500	-3.88717
1404.000	0.36969	-4.80305	1.93278	-3.91088
1405.000	0.29062	-4.89593	1.88933	-3.87931
1406.000	0.40528	-4.87809	1.93475	-3.82972
1407.000	0.41121	-4.87216	1.90315	-3.86542
1408.000	0.28666	-4.88210	1.95252	-3.92468
1409.000	0.34795	-4.92750	1.96635	-3.91476
1410.000	0.35981	-4.91762	1.93475	-3.85347
1411.000	0.34202	-4.88208	1.91105	-3.90103
1412.000	0.35783	-4.87022	1.98807	-3.91470
1413.000	0.27678	-4.96505	1.94265	-3.90492
1414.000	0.27480	-4.90186	1.94462	-3.94845
1415.000	0.34202	-4.82480	1.94660	-3.87324
1416.000	0.37365	-4.81886	1.93080	-3.91880
1417.000	0.39539	-4.89982	1.94265	-3.93856
1418.000	0.35586	-4.91367	1.90908	-3.85155
1419.000	0.35388	-4.85245	1.96635	-3.90882
1420.000	0.33411	-4.94330	1.94857	-3.91084
1421.000	0.34993	-4.84257	1.95450	-3.88906
1422.000	0.40528	-4.91957	1.97424	-3.97806
1423.000	0.37563	-4.87613	1.93278	-3.85348
1424.000	0.39342	-4.83465	1.94265	-3.87919
1425.000	0.39539	-4.93339	1.93278	-3.89900
1426.000	0.44482	-4.86029	1.95845	-3.89498
1427.000	0.31632	-4.89394	1.91698	-3.87529
1428.000	0.31039	-4.93146	1.96635	-3.88705
1429.000	0.34795	-4.82084	1.91105	-3.90103
1430.000	0.31829	-4.84259	1.94857	-3.89896
1431.000	0.33411	-4.81690	1.95450	-3.88906
1432.000	0.42900	-4.85635	1.92883	-3.92276
1433.000	0.34399	-4.83467	1.89328	-3.89315
1434.000	0.37563	-4.81688	1.95055	-3.84156
1435.000	0.32620	-4.79320	1.93278	-3.94056
1436.000	0.37365	-4.92748	1.93870	-3.85347
1437.000	0.43098	-4.88598	1.97424	-3.87318
1438.000	0.34795	-4.91960	1.93672	-3.89899
1439.000	0.36376	-4.95711	1.96635	-3.87715
1440.000	0.33806	-4.97687	1.97424	-3.93453
1441.000	0.33213	-4.90578	1.95055	-3.92865
1442.000	0.24515	-4.98875	1.96832	-3.90486
1443.000	0.36376	-4.91366	1.97424	-3.90088
1444.000	0.38353	-4.91958	1.99991	-3.94634
1445.000	0.36772	-4.89786	1.91895	-3.94257
1446.000	0.30050	-4.87025	1.98017	-3.89098
1447.000	0.28271	-4.90185	1.92093	-3.92871
1448.000	0.40726	-4.88797	1.93870	-3.90492
1449.000	0.31039	-4.95121	1.94067	-3.89305
1450.000	0.29655	-4.85050	1.95252	-3.92468
1451.000	0.20758	-4.98482	1.91500	-3.90102
1452.000	0.21154	-4.95520	1.93870	-3.88315
1453.000	0.29655	-4.87617	1.91698	-3.83174
1454.000	0.21352	-4.95520	1.98412	-3.89888
1455.000	0.33609	-4.87023	2.00386	-3.91665
1456.000	0.22933	-4.81694	2.00584	-3.86123
1457.000	0.39935	-4.86822	2.00979	-3.82955
1458.000	0.35981	-4.90577	2.01176	-3.84934
1459.000	0.35388	-4.84257	1.97227	-3.92266
1460.000	0.38156	-4.90576	1.95450	-3.82176
1461.000	0.35981	-4.87614	2.00189	-3.88301
1462.000	0.32225	-4.92158	1.98017	-3.85337
1463.000	0.26887	-4.96505	1.95647	-3.86926
1464.000	0.43691	-4.91560	1.99991	-3.79790
1465.000	0.35190	-4.78924	2.00189	-3.80582
1466.000	0.44482	-4.85042	1.99991	-3.83749
1467.000	0.36969	-5.02028	2.03348	-3.86116
1468.000	0.37365	-4.90181	2.04730	-3.87696
1469.000	0.22340	-4.87028	1.98807	-3.79595
1470.000	0.27480	-5.03020	2.01769	-3.86714
1471.000	0.26689	-4.94333	1.98807	-3.80783
1472.000	0.32027	-4.93146	2.01571	-3.87704
1473.000	0.33016	-4.89986	1.97819	-3.82962
1474.000	0.30643	-4.96306	1.99004	-3.85335
1475.000	0.40133	-4.88994	1.94462	-3.85939
1476.000	0.27876	-4.89198	1.99004	-3.83158
1477.000	0.32818	-4.89393	1.99399	-3.87115
1478.000	0.29852	-4.87025	2.00189	-3.84540
1479.000	0.33609	-4.97884	2.02558	-3.83743
1480.000	0.33016	-4.90973	2.01176	-3.84142
1481.000	0.21549	-4.89793	2.02163	-3.85327
1482.000	0.32818	-4.87221	2.07100	-3.84524
1483.000	0.38353	-4.88798	2.03941	-3.88490
1484.000	0.41516	-4.87809	2.04730	-3.91060
1485.000	0.34597	-4.85640	2.00781	-3.85924
1486.000	0.23131	-4.91965	1.99399	-3.85532
1487.000	0.32818	-4.83468	1.99991	-3.81374
1488.000	0.20956	-4.83473	2.02558	-3.82951
1489.000	0.30050	-4.88605	2.00386	-3.86915
1490.000	0.29259	-4.78531	2.00979	-3.83945
1491.000	0.34993	-4.78529	1.98609	-3.82763
1492.000	0.32818	-4.89591	1.95845	-3.82373
1493.000	0.34004	-4.77541	1.98214	-3.85732
1494.000	0.36179	-4.90379	1.97029	-3.78807
1495.000	0.37958	-4.85243	1.99794	-3.84739
1496.000	0.29852	-4.86432	1.93475	-3.84556
1497.000	0.32818	-4.87023	1.99202	-3.82761
1498.000	0.33213	-4.85443	1.99004	-3.83553
1499.000	0.35190	-4.90182	1.93278	-3.78024
1500.000	0.33213	-4.86628	1.98214	-3.88701
1501.000	0.44086	-4.83067	1.97622	-3.81379
1502.000	0.32620	-4.84456	1.98807	-3.80981
1503.000	0.42702	-4.77141	1.94857	-3.80990
1504.000	0.36969	-4.88009	1.95055	-3.76238
1505.000	0.38551	-4.76946	1.95450	-3.85343
1506.000	0.43889	-4.84054	1.95647	-3.89499
1507.000	0.34399	-4.83467	1.95647	-3.92863
1508.000	0.43493	-4.71806	1.95647	-3.86926
1509.000	0.39935	-4.81489	1.98412	-3.79200
1510.000	0.34399	-4.84060	1.91500	-3.80007
1511.000	0.40528	-4.76945	2.00781	-3.84935
1512.000	0.35586	-4.78528	1.96437	-3.81382
1513.000	0.44284	-4.73979	2.01966	-3.84734
1514.000	0.38353	-4.84848	1.93672	-3.87524
1515.000	0.42307	-4.80105	1.96832	-3.78412
1516.000	0.35586	-4.76355	1.98017	-3.82764
1517.000	0.40923	-4.81093	1.98412	-3.78012
1518.000	0.51203	-4.67651	1.90710	-3.80207
1519.000	0.36969	-4.79318	1.93870	-3.80596
1520.000	0.39737	-4.78723	1.91500	-3.81789
1521.000	0.40726	-4.87019	1.92290	-3.79214
1522.000	0.39539	-4.79316	1.95055	-3.81583
1523.000	0.50808	-4.77136	1.96240	-3.82966
1524.000	0.42307	-4.74376	1.96437	-3.80590
1525.000	0.47249	-4.78324	1.96240	-3.80789
1526.000	0.48040	-4.73977	1.96437	-3.77621
1527.000	0.41121	-4.77537	1.99597	-3.77218
1528.000	0.38946	-4.75761	1.96832	-3.77224
1529.000	0.29062	-4.82680	1.99399	-3.85532
1530.000	0.42900	-4.71609	1.98609	-3.89096
1531.000	0.37563	-4.74576	1.97424	-3.78410
1532.000	0.41319	-4.79118	1.96635	-3.84944
1533.000	0.37958	-4.84256	1.94067	-3.88513
1534.000	0.38946	-4.71809	1.92883	-3.85943
1535.000	0.37563	-4.80700	2.01769	-3.80578
1536.000	0.45272	-4.77535	1.95252	-3.84354
1537.000	0.30446	-4.75370	1.99991	-3.82561
1538.000	0.30841	-4.90974	1.98412	-3.86920
1539.000	0.32225	-4.86234	2.01966	-3.87307
1540.000	0.28073	-4.82878	2.00386	-3.84936
1541.000	0.33806	-4.77541	2.01374	-3.82360
1542.000	0.36969	-4.79515	2.03546	-3.84730
1543.000	0.36179	-4.79713	2.04335	-3.80770
1544.000	0.40726	-4.76550	2.03546	-3.81959
1545.000	0.37563	-4.78922	2.03151	-3.85127
1546.000	0.35586	-4.84652	1.99597	-3.82958
1547.000	0.43296	-4.88400	2.00979	-3.84934
1548.000	0.40528	-4.80896	1.99597	-3.86125
1549.000	0.41516	-4.76154	1.98609	-3.89690
1550.000	0.34993	-4.82874	1.99399	-3.89292
1551.000	0.36772	-4.80306	2.04335	-3.84333
1552.000	0.35388	-4.91564	2.03348	-3.85720
1553.000	0.34597	-4.85837	2.01571	-3.87308
1554.000	0.34004	-4.83665	2.04138	-3.87104
1555.000	0.38551	-4.82675	2.01571	-3.87704
1556.000	0.28469	-4.91765	2.06310	-3.87692
1557.000	0.35190	-4.93737	2.03348	-3.87897
1558.000	0.29655	-4.88012	1.99794	-3.83156
1559.000	0.33609	-4.77541	2.03941	-3.88292
1560.000	0.34399	-4.81690	1.99794	-3.83552
1561.000	0.30841	-4.92159	2.01966	-3.83942
1562.000	0.35783	-4.89787	1.99597	-3.87115
1563.000	0.34399	-4.88800	2.01571	-3.81568
1564.000	0.36376	-4.86034	2.04138	-3.86114
1565.000	0.29655	-4.87222	1.98807	-3.85731
1566.000	0.27480	-4.87223	1.95450	-3.81582
1567.000	0.33213	-4.92750	2.00979	-3.79986
1568.000	0.32422	-4.82876	2.02756	-3.87305
1569.000	0.34597	-4.88010	1.95647	-3.84155
1570.000	0.40923	-4.80698	1.96635	-3.83757
1571.000	0.33213	-4.84456	1.96240	-3.88904
1572.000	0.24119	-4.94926	1.99794	-3.83749
1573.000	0.28666	-4.85050	1.96832	-3.78016
1574.000	0.28666	-4.94135	1.97227	-3.80984
1575.000	0.28469	-4.81890	2.00781	-3.88101
1576.000	0.27085	-4.92951	1.94265	-3.78813
1577.000	0.30050	-4.96899	1.99597	-3.83156
1578.000	0.29259	-4.94135	1.92290	-3.82777
1579.000	0.18584	-4.84659	1.94462	-3.91283
1580.000	0.34795	-4.85837	1.93870	-3.87326
1581.000	0.24119	-4.92359	1.94265	-3.87127
1582.000	0.30841	-4.84852	1.89328	-3.87732
1583.000	0.28271	-4.86433	1.92290	-3.90694
1584.000	0.33609	-4.86035	1.99004	-3.89689
1585.000	0.34795	-4.90972	1.92488	-3.87131
1586.000	0.30446	-4.87025	1.95845	-3.89300
1587.000	0.28864	-4.89198	1.92093	-3.84955
1588.000	0.22340	-4.82682	1.95252	-3.88312
1589.000	0.37563	-4.74378	1.99597	-3.85729
1590.000	0.31829	-4.86826	1.96635	-3.83361
1591.000	0.26294	-4.79323	1.96437	-3.81382
1592.000	0.27282	-4.88606	1.97029	-3.88110
1593.000	0.27480	-4.84261	1.90118	-3.83376
1594.000	0.28864	-4.77741	1.94857	-3.86136
1595.000	0.30446	-4.81099	1.92685	-3.85151
1596.000	0.37365	-4.95710	1.90710	-3.83770
1597.000	0.31236	-4.78530	1.93080	-3.85150
1598.000	0.37563	-4.82873	1.86958	-3.80215
1599.000	0.26294	-4.88409	1.93278	-3.90296
1600.000	0.30643	-4.87419	1.92883	-3.87328
1601.000	0.32225	-4.84654	1.93475	-3.81587
1602.000	0.36376	-4.84256	1.93672	-3.85743
1603.000	0.34202	-4.89590	1.94660	-3.85939
1604.000	0.35586	-4.83862	1.96437	-3.88705
1605.000	0.24712	-4.80508	1.90315	-3.86542
1606.000	0.31039	-4.86234	1.98214	-3.83555
1607.000	0.33016	-4.85641	1.95450	-3.80988
1608.000	0.31632	-4.81888	1.92290	-3.84756
1609.000	0.35388	-4.84454	1.92290	-3.82183
1610.000	0.28864	-4.88013	1.93672	-3.80398
1611.000	0.25305	-4.83669	1.91698	-3.80007
1612.000	0.28666	-4.84655	1.91500	-3.79809
1613.000	0.24515	-4.80113	1.94857	-3.79604
1614.000	0.31434	-4.74381	1.95252	-3.79603
1615.000	0.33806	-4.83270	1.94067	-3.87919
1616.000	0.33213	-4.87023	1.88143	-3.82588
1617.000	0.43296	-4.75363	1.87946	-3.90902
1618.000	0.30050	-4.86630	1.90315	-3.82385
1619.000	0.33411	-4.78529	1.97227	-3.85537
1620.000	0.38353	-4.77341	1.92685	-3.79807
1621.000	0.28864	-4.73592	1.93278	-3.83962
1622.000	0.31434	-4.86432	1.89328	-3.79814
1623.000	0.32422	-4.80505	1.98214	-3.84545
1624.000	0.38353	-4.78527	1.89130	-3.78825
1625.000	0.32422	-4.78530	1.97622	-3.81973
1626.000	0.37167	-4.74378	1.99202	-3.83751
1627.000	0.38156	-4.77737	1.97424	-3.85734
1628.000	0.34202	-4.74973	1.98214	-3.82368
1629.000	0.45470	-4.76349	1.99202	-3.87907
1630.000	0.35586	-4.71613	1.97424	-3.89297
1631.000	0.35190	-4.75565	1.98214	-3.87118
1632.000	0.36179	-4.76552	1.92488	-3.81589
1633.000	0.36969	-4.75169	1.97029	-3.92266
1634.000	0.32027	-4.74381	1.94462	-3.85543
1635.000	0.28864	-4.74580	1.91895	-3.81590
1636.000	0.39539	-4.79119	1.92093	-3.85746
1637.000	0.33213	-4.78727	1.94857	-3.85344
1638.000	0.24712	-4.78731	1.95845	-3.89894
1639.000	0.45470	-4.78917	1.93870	-3.90492
1640.000	0.34004	-4.76751	1.94857	-3.85344
1641.000	0.42109	-4.62321	1.93672	-3.89899
1642.000	0.36376	-4.69637	1.94067	-3.84554
1643.000	0.45075	-4.65877	1.94857	-3.80792
1644.000	0.40330	-4.76550	1.92488	-3.80995
1645.000	0.43296	-4.56391	1.92883	-3.85943
1646.000	0.43493	-4.75165	1.90315	-3.84563
1647.000	0.34004	-4.68255	1.91698	-3.81986
1648.000	0.32225	-4.65489	1.90315	-3.87136
1649.000	0.41121	-4.70820	1.96042	-3.82571
1650.000	0.36574	-4.69439	1.92488	-3.84756
1651.000	0.38353	-4.74378	1.94660	-3.84751
1652.000	0.39935	-4.71808	1.93870	-3.80002
1653.000	0.41516	-4.76549	1.93475	-3.76836
1654.000	0.37167	-4.66474	1.95450	-3.79009
1655.000	0.37365	-4.79120	1.96042	-3.76038
1656.000	0.47249	-4.63899	1.93672	-3.78617
1657.000	0.38749	-4.69833	1.99991	-3.78009
1658.000	0.50808	-4.67256	2.05125	-3.71068
1659.000	0.52784	-4.66069	2.10654	-3.70857
1660.000	0.64448	-4.63293	2.16971	-3.65100
1661.000	0.69587	-4.66055	2.27828	-3.57748
1662.000	0.81447	-4.57148	2.33158	-3.48625
1663.000	0.90934	-4.49625	2.50524	-3.34321
1664.000	1.03584	-4.36954	2.71831	-3.31492
1665.000	1.44291	-4.32142	2.89976	-3.26489
1666.000	1.56935	-4.12338	3.10875	-3.18704
1667.000	1.78466	-4.02005	3.21518	-2.92329
1668.000	1.93080	-3.94254	3.40434	-2.84746
1669.000	1.98017	-3.58807	3.50086	-2.68274
1670.000	2.18945	-3.46876	3.60327	-2.62498
1671.000	2.21314	-3.38749	3.67022	-2.40880
1672.000	2.14405	-3.20734	3.68991	-2.28388
1673.000	2.16181	-3.13000	3.70369	-2.20059
1674.000	2.05915	-3.00135	3.62887	-2.07785
1675.000	2.03348	-2.97959	3.57964	-2.13150
1676.000	1.90908	-2.86875	3.49495	-2.09600
1677.000	1.92093	-2.78939	3.41419	-2.13188
1678.000	1.77083	-2.65075	3.40828	-2.10214
1679.000	1.69380	-2.70046	3.40828	-2.08033
1680.000	1.64639	-2.74815	3.38267	-2.13988
1681.000	1.61083	-2.72438	3.38070	-2.12005
1682.000	1.54959	-2.72645	3.38464	-2.10418
1683.000	1.62466	-2.69063	3.33736	-2.11618
1684.000	1.43303	-2.82580	3.38858	-2.14780
1685.000	1.49625	-2.76620	3.40434	-2.09819
1686.000	1.54959	-2.84549	3.40828	-2.17552
1687.000	1.64837	-2.76005	3.42207	-2.15764
1688.000	1.57527	-2.92678	3.46935	-2.21107
1689.000	1.52786	-2.84354	3.46147	-2.16747
1690.000	1.54959	-2.88913	3.44374	-2.15363
1691.000	1.50020	-2.89118	3.45162	-2.17146
1692.000	1.59305	-2.96841	3.47920	-2.22096
1693.000	1.58713	-3.03387	3.47723	-2.23088
1694.000	1.55947	-2.95656	3.42798	-2.21513
1695.000	1.62269	-2.97828	3.43389	-2.28254
1696.000	1.61676	-2.95053	3.47920	-2.31415
1697.000	1.62466	-2.97035	3.45359	-2.25870
1698.000	1.71158	-2.93849	3.45753	-2.23688
1699.000	1.72540	-3.00193	3.47723	-2.24674
1700.000	1.67800	-2.97622	3.48904	-2.26853
1701.000	1.70565	-2.94643	3.44965	-2.17146
1702.000	1.65824	-2.98220	3.50677	-2.21892
1703.000	1.72540	-2.90276	3.46344	-2.17936
1704.000	1.77873	-2.99193	3.48117	-2.11785
1705.000	1.72935	-2.92061	3.51071	-2.13563
1706.000	1.76688	-2.79162	3.46344	-2.13177
1707.000	1.85576	-2.88272	3.48511	-2.09404
1708.000	1.80441	-2.86297	3.51859	-2.10388
1709.000	1.86563	-2.79345	3.51071	-2.05829
1710.000	1.75108	-2.69840	3.49495	-2.08212
1711.000	1.80441	-2.71221	3.42207	-2.02476
1712.000	1.80836	-2.71815	3.48904	-1.99289
1713.000	1.75503	-2.70038	3.46541	-2.03855
1714.000	1.78861	-2.72810	3.42404	-2.01088
1715.000	1.84391	-2.75183	3.46541	-2.07029
1716.000	1.83206	-2.61494	3.49495	-2.08212
1717.000	1.80441	-2.75585	3.45359	-2.03858
1718.000	1.73133	-2.70835	3.49692	-2.03849
1719.000	1.84983	-2.71611	3.49495	-1.99486
1720.000	1.84786	-2.72008	3.54419	-2.03640
1721.000	1.79058	-2.74000	3.47329	-2.01474
1722.000	1.77083	-2.74400	3.54025	-2.01063
1723.000	1.83996	-2.63477	3.44965	-2.00686
1724.000	1.81033	-2.70823	3.55207	-1.99870
1725.000	1.80836	-2.73799	3.46935	-1.99095
1726.000	1.80836	-2.67252	3.47920	-2.10199
1727.000	1.74318	-2.73015	3.47526	-2.01473
1728.000	1.86168	-2.67046	3.51465	-1.93333
1729.000	1.79256	-2.69437	3.47920	-1.98299
1730.000	1.83008	-2.67447	3.47526	-1.99887
1731.000	1.75700	-2.77378	3.45753	-2.00882
1732.000	1.83798	-2.76969	3.48708	-2.01273
1733.000	1.82613	-2.67845	3.46935	-2.02665
1734.000	1.80243	-2.66062	3.49692	-1.99089
1735.000	1.79453	-2.72214	3.44571	-2.02075
1736.000	1.74515	-2.75197	3.47920	-2.02266
1737.000	1.73528	-2.69644	3.49298	-2.04841
1738.000	1.73133	-2.77580	3.47526	-2.00085
1739.000	1.81231	-2.69037	3.48904	-2.03255
1740.000	1.80836	-2.65069	3.46147	-2.01278
1741.000	1.85971	-2.69427	3.47920	-2.03853
1742.000	1.76293	-2.78171	3.44374	-2.03860
1743.000	1.79058	-2.82332	3.47526	-2.03457
1744.000	1.77083	-2.79360	3.41025	-1.97123
1745.000	1.73528	-2.75794	3.47920	-2.00084
1746.000	1.80638	-2.62292	3.44374	-1.96918
1747.000	1.77676	-2.77177	3.43192	-1.93152
1748.000	1.74910	-2.74006	3.43980	-1.94935
1749.000	1.79848	-2.73007	3.44768	-1.96719
1750.000	1.73528	-2.72818	3.42995	-1.90574
1751.000	1.80243	-2.67054	3.45753	-1.97312
1752.000	1.89328	-2.69422	3.43783	-2.00886
1753.000	1.76293	-2.82336	3.48314	-1.96513
1754.000	1.83008	-2.69233	3.45556	-1.97709
1755.000	1.76491	-2.71425	3.46738	-2.01277
1756.000	1.72145	-2.75994	3.42404	-2.00493
1757.000	1.80441	-2.66459	3.43980	-2.04456
1758.000	1.76688	-2.75988	3.44965	-2.06834
1759.000	1.75898	-2.69243	3.48117	-2.09405
1760.000	1.81823	-2.71814	3.44177	-2.04456
1761.000	1.81231	-2.74989	3.45359	-2.01280
1762.000	1.75503	-2.77973	3.47329	-2.00284
1763.000	1.74318	-2.80356	3.46147	-2.06633
1764.000	1.77676	-2.71622	3.48117	-2.09802
1765.000	1.80638	-2.74990	3.42798	-2.08822
1766.000	1.71948	-2.74011	3.46738	-2.05045
1767.000	1.76095	-2.79758	3.44177	-2.09810
1768.000	1.74515	-2.81149	3.42995	-2.09416
1769.000	1.72343	-2.85318	3.47920	-2.11389
1770.000	1.74515	-2.83331	3.49101	-2.13964
1771.000	1.66219	-2.83740	3.47132	-2.10795
1772.000	1.78071	-2.78961	3.48708	-2.15353
1773.000	1.68787	-2.78975	3.43980	-2.03861
1774.000	1.70367	-2.75402	3.44768	-1.96124
1775.000	1.79651	-2.80348	3.43192	-2.10011
1776.000	1.82218	-2.66655	3.46935	-2.11986
1777.000	1.80243	-2.75387	3.47329	-2.10993
1778.000	1.82021	-2.77170	3.44768	-2.00686
1779.000	1.76886	-2.70432	3.46344	-2.05443
1780.000	1.72935	-2.77184	3.44965	-2.09610
1781.000	1.74318	-2.73214	3.47132	-2.01276
1782.000	1.71158	-2.76393	3.48708	-2.01273
1783.000	1.77676	-2.83326	3.41419	-2.05453
1784.000	1.75898	-2.79758	3.40434	-2.06050
1785.000	1.70565	-2.79171	3.42404	-2.09219
1786.000	1.64244	-2.84735	3.44965	-2.08619
1787.000	1.77873	-2.73804	3.44768	-2.06041
1788.000	1.65824	-2.77194	3.44374	-2.05248
1789.000	1.71355	-2.62702	3.43783	-2.06043
1790.000	1.77083	-2.74598	3.42601	-2.02277
1791.000	1.75700	-2.72815	3.44965	-2.09412
1792.000	1.80243	-2.63483	3.37479	-2.02685
1793.000	1.71948	-2.75796	3.43389	-2.01879
1794.000	1.64837	-2.81361	3.41222	-2.03867
1795.000	1.71158	-2.72425	3.44965	-2.02669
1796.000	1.78663	-2.76183	3.42207	-2.04856
1797.000	1.86761	-2.77361	3.48904	-2.05239
1798.000	1.71948	-2.79764	3.42010	-2.03865
1799.000	1.71553	-2.77582	3.42798	-2.10805
1800.000	1.74515	-2.86901	3.42010	-2.04064
1801.000	1.77281	-2.84319	3.43192	-2.01681
1802.000	1.75108	-2.75593	3.41419	-1.98709
1803.000	1.81428	-2.80742	3.45359	-2.08420
1804.000	1.75108	-2.78767	3.47132	-2.08019
1805.000	1.72540	-2.75399	3.46738	-2.07425
1806.000	1.82811	-2.73598	3.45162	-2.03660
1807.000	1.80046	-2.76578	3.44768	-2.01876
1808.000	1.75898	-2.74600	3.43980	-2.03464
1809.000	1.87353	-2.74384	3.44768	-2.02868
1810.000	1.74515	-2.72023	3.46344	-2.07426
1811.000	1.78861	-2.67850	3.43980	-2.00093
1812.000	1.72540	-2.71232	3.46344	-2.06038
1813.000	1.71948	-2.68455	3.42798	-2.02673
1814.000	1.84588	-2.77960	3.43783	-1.98903
1815.000	1.81626	-2.67251	3.43783	-2.04853
1816.000	1.79058	-2.74992	3.45359	-2.01280
1817.000	1.82811	-2.76177	3.43192	-2.03664
1818.000	1.76491	-2.73012	3.43783	-1.98506
1819.000	1.72540	-2.83532	3.44768	-2.03066
1820.000	1.78861	-2.71025	3.42207	-2.04460
1821.000	1.73133	-2.71033	3.46935	-2.02070
1822.000	1.71750	-2.80756	3.45162	-2.03858
1823.000	1.71553	-2.72424	3.47329	-2.02664
1824.000	1.77083	-2.72218	3.44768	-2.06041
1825.000	1.73725	-2.72223	3.48708	-2.04247
1826.000	1.73725	-2.70635	3.50283	-2.05037
1827.000	1.77478	-2.81541	3.46344	-2.04649
1828.000	1.77478	-2.77970	3.48708	-2.00281
1829.000	1.80441	-2.75189	3.44768	-2.06834
1830.000	1.71158	-2.80757	3.43783	-2.06638
1831.000	1.80441	-2.77371	3.50874	-2.03846
1832.000	1.71553	-2.84724	3.41616	-2.00891
1833.000	1.84588	-2.78158	3.47723	-2.09406
1834.000	1.80836	-2.79354	3.46147	-2.03261
1835.000	1.73330	-2.81944	3.44965	-1.99892
1836.000	1.59503	-2.77401	3.44965	-2.04652
1837.000	1.77083	-2.80550	3.46738	-2.05243
1838.000	1.79651	-2.79356	3.55010	-2.04234
1839.000	1.76293	-2.81741	3.51071	-2.05432
1840.000	1.76688	-2.84319	3.50677	-2.06226
1841.000	1.65232	-2.73822	3.45556	-2.06634
1842.000	1.74713	-2.76387	3.45556	-2.06634
1843.000	1.74910	-2.76982	3.47920	-2.06629
1844.000	1.79453	-2.78761	3.45950	-2.05840
1845.000	1.72145	-2.77582	3.45950	-2.04452
1846.000	1.76688	-2.81741	3.52450	-2.04834
1847.000	1.75305	-2.76585	3.50480	-2.08805
1848.000	1.74120	-2.81943	3.51465	-2.03448
1849.000	1.72145	-2.77582	3.43192	-2.01879
1850.000	1.75305	-2.83925	3.54025	-2.04632
1851.000	1.69775	-2.75204	3.44374	-2.04852
1852.000	1.73330	-2.73215	3.52253	-2.04438
1853.000	1.76886	-2.82137	3.45753	-2.04254
1854.000	1.80638	-2.80941	3.47723	-1.99886
1855.000	1.71158	-2.92659	3.47526	-1.99887
1856.000	1.79651	-2.71420	3.46147	-2.04451
1857.000	1.78861	-2.76381	3.50677	-2.03648
1858.000	1.81823	-2.77765	3.45753	-2.02469
1859.000	1.70565	-2.73219	3.47723	-1.95126
1860.000	1.74515	-2.86306	3.48314	-2.04843
1861.000	1.78663	-2.86697	3.43192	-2.07631
1862.000	1.80441	-2.73998	3.45950	-2.07625
1863.000	1.84983	-2.82918	3.47526	-2.00482
1864.000	1.90513	-2.79537	3.48117	-2.03852
1865.000	1.79848	-2.78959	3.49298	-2.04246
1866.000	1.65627	-2.85129	3.48904	-2.09007
1867.000	1.83601	-2.77564	3.49692	-1.99684
1868.000	1.72343	-2.79565	3.51662	-2.02060
1869.000	1.76095	-2.71822	3.51071	-1.98293
1870.000	1.76095	-2.73806	3.45556	-2.03064
1871.000	1.75305	-2.72022	3.44571	-2.06438
1872.000	1.79848	-2.75586	3.51859	-2.06224
1873.000	1.82416	-2.77368	3.48117	-2.07422
1874.000	1.69775	-2.69450	3.45950	-2.01477
1875.000	1.75898	-2.70434	3.42798	-2.02673
1876.000	1.71948	-2.76391	3.46541	-2.07624
1877.000	1.76491	-2.71028	3.45753	-2.03461
1878.000	1.80638	-2.75387	3.51071	-2.11381
1879.000	1.80836	-2.66657	3.47920	-2.04447
1880.000	1.81428	-2.71814	3.49101	-2.11783
1881.000	1.77676	-2.76978	3.53631	-2.10781
1882.000	1.84193	-2.86291	3.49495	-2.07221
1883.000	1.69775	-2.95834	3.49889	-2.03848
1884.000	1.80441	-2.69832	3.50677	-2.09994
1885.000	1.76095	-2.71822	3.51268	-2.02457
1886.000	1.70762	-2.75798	3.50086	-2.07021
1887.000	1.78268	-2.87094	3.51071	-2.10985
1888.000	1.76688	-2.74599	3.49889	-2.02460
1889.000	1.83008	-2.76177	3.49692	-2.07220
1890.000	1.74120	-2.81943	3.48117	-2.07025
1891.000	1.82416	-2.78360	3.53435	-2.05030
1892.000	1.84588	-2.65461	3.53435	-2.09195
1893.000	1.76886	-2.82732	3.53238	-2.04436
1894.000	1.84193	-2.76175	3.51268	-2.10191
1895.000	1.73528	-2.73612	3.50874	-2.05433
1896.000	1.73725	-2.84919	3.52647	-2.09990
1897.000	1.86366	-2.74584	3.43980	-2.02671
1898.000	1.78861	-2.76580	3.53238	-2.06022
1899.000	1.76491	-2.80948	3.52253	-2.09594
1900.000	1.83601	-2.82920	3.44965	-2.00090
1901.000	1.77873	-2.74200	3.47920	-1.98299
1902.000	1.77873	-2.75391	3.50874	-2.02855
1903.000	1.78071	-2.72018	3.51071	-2.13959
1904.000	1.85971	-2.74585	3.52844	-2.00074
1905.000	1.89525	-2.78944	3.48511	-2.07818
1906.000	1.83798	-2.79548	3.51859	-2.10190
1907.000	1.87748	-2.81922	3.52056	-2.10784
1908.000	1.78268	-2.77771	3.48117	-2.08017
1909.000	1.74318	-2.78967	3.46738	-2.10796
1910.000	1.76688	-2.76781	3.51071	-2.06424
1911.000	1.87156	-2.77559	3.50086	-2.05831
1912.000	1.82416	-2.74987	3.49101	-2.05238
1913.000	1.77281	-2.85509	3.44374	-2.04257
1914.000	1.78861	-2.77373	3.52647	-2.06024
1915.000	1.78466	-2.83127	3.56979	-2.09583
1916.000	1.83996	-2.71215	3.47920	-2.05241
1917.000	1.83206	-2.75978	3.48511	-1.97703
1918.000	1.75305	-2.80751	3.50086	-2.04443
1919.000	1.74515	-2.74205	3.50086	-2.06228
1920.000	1.75898	-2.83726	3.50677	-1.99285
1921.000	1.79453	-2.81340	3.45753	-2.08617
1922.000	1.76688	-2.74996	3.45753	-2.06832
1923.000	1.75898	-2.70434	3.51662	-2.02258
1924.000	1.80638	-2.82131	3.54222	-2.07012
1925.000	1.80836	-2.73402	3.49298	-2.06229
1926.000	1.76886	-2.77178	3.53631	-2.05427
1927.000	1.71355	-2.75004	3.47723	-2.08018
1928.000	1.77083	-2.80947	3.52844	-2.10386
1929.000	1.79058	-2.77174	3.47723	-2.02861
1930.000	1.76491	-2.74203	3.50283	-2.03451
1931.000	1.79058	-2.74000	3.46344	-2.05839
1932.000	1.82218	-2.73400	3.53041	-2.03841
1933.000	1.75503	-2.83131	3.55207	-2.06018
1934.000	1.82811	-2.80541	3.52056	-2.06223
1935.000	1.84983	-2.79347	3.54813	-2.11968
1936.000	1.74713	-2.75395	3.50086	-2.09401
1937.000	1.79058	-2.81340	3.48511	-2.05636
1938.000	1.87946	-2.74383	3.46738	-2.04252
1939.000	1.85576	-2.69427	3.50283	-2.09400
1940.000	1.77083	-2.74995	3.48117	-2.08413
1941.000	1.72343	-2.82144	3.49889	-2.01270
1942.000	1.71553	-2.79963	3.55207	-2.09587
1943.000	1.78861	-2.80944	3.42010	-2.06840
1944.000	1.74910	-2.81347	3.49298	-2.09402
1945.000	1.71158	-2.74805	3.53238	-2.09988
1946.000	1.71750	-2.70241	3.46541	-2.08020
1947.000	1.78466	-2.78961	3.47132	-2.08217
1948.000	1.76886	-2.74995	3.47132	-2.07622
1949.000	1.76491	-2.77972	3.48314	-2.09206
1950.000	1.85378	-2.71213	3.49889	-2.03848
1951.000	1.84193	-2.75580	3.46738	-2.03657
1952.000	1.81428	-2.77964	3.47920	-1.99688
1953.000	1.79651	-2.74793	3.48708	-2.03454
1954.000	1.78268	-2.79755	3.50874	-2.10787
1955.000	1.83008	-2.82921	3.48904	-2.08808
1956.000	1.84193	-2.76175	3.49495	-2.12377
1957.000	1.74910	-2.78569	3.49889	-2.13169
1958.000	1.76293	-2.78766	3.51859	-2.06620
1959.000	1.82613	-2.79748	3.46935	-2.10201
1960.000	1.79453	-2.80745	3.49495	-2.08410
1961.000	1.74515	-2.65674	3.53238	-2.12566
1962.000	1.69380	-2.88893	3.48117	-2.11190
1963.000	1.82021	-2.68441	3.50677	-2.06028
1964.000	1.83996	-2.73596	3.52647	-2.09791
1965.000	1.83403	-2.81730	3.48904	-2.07618
1966.000	1.78861	-2.84713	3.53238	-2.06022
1967.000	1.79848	-2.77967	3.49692	-2.12376
1968.000	1.79058	-2.73802	3.47329	-2.12976
1969.000	1.70960	-2.76194	3.53041	-2.14351
1970.000	1.81428	-2.78361	3.52253	-2.08801
1971.000	1.82811	-2.83913	3.48708	-2.09404
1972.000	1.67404	-2.76398	3.46935	-2.09804
1973.000	1.70170	-2.76592	3.52647	-2.12766
1974.000	1.81231	-2.76378	3.51465	-2.07414
1975.000	1.84193	-2.74389	3.47526	-2.15157
1976.000	1.87551	-2.76566	3.47723	-2.09009
1977.000	1.78861	-2.74199	3.45556	-2.08221
1978.000	1.84983	-2.78951	3.47920	-2.08017
1979.000	1.73725	-2.83927	3.54419	-2.08598
1980.000	1.81033	-2.80345	3.48708	-2.08214
1981.000	1.78071	-2.75391	3.41616	-2.11799
1982.000	1.82021	-2.69631	3.54616	-2.10977
1983.000	1.80441	-2.76776	3.51662	-2.05828
1984.000	1.87551	-2.61290	3.43586	-2.05647
1985.000	1.79256	-2.85506	3.45950	-2.02270
1986.000	1.86366	-2.72997	3.41616	-2.04659
1987.000	1.82218	-2.73004	3.49101	-2.09998
1988.000	1.81231	-2.80345	3.49692	-2.08410
1989.000	1.79651	-2.77967	3.46935	-2.03458
1990.000	1.73725	-2.73611	3.45950	-2.07823
1991.000	1.78071	-2.78961	3.44768	-2.04851
1992.000	1.71948	-2.82541	3.43783	-2.09018
1993.000	1.83403	-2.73002	3.40631	-2.06645
1994.000	1.83798	-2.70819	3.47920	-2.14561
1995.000	1.80836	-2.76378	3.49692	-2.14756
1996.000	1.80243	-2.74395	3.45556	-2.07626
1997.000	1.76491	-2.82534	3.45753	-2.09807
1998.000	1.82811	-2.72804	3.47920	-2.11190
1999.000	1.77083	-2.84914	3.47920	-2.15156
2000.000	1.76491	-2.80749	3.46147	-2.11789
2001.000	1.80441	-2.77768	3.45753	-2.04254
2002.000	1.77676	-2.82136	3.37282	-2.04669
2003.000	1.89130	-2.72596	3.45556	-2.05246
2004.000	1.82613	-2.71217	3.42601	-2.07037
2005.000	1.78861	-2.74993	3.45556	-2.09609
2006.000	1.87353	-2.75971	3.42798	-2.06839
2007.000	1.69775	-2.79172	3.44965	-2.08420
2008.000	1.85181	-2.75181	3.47526	-2.05837
2009.000	1.75305	-2.75791	3.49298	-2.09997
2010.000	1.84786	-2.72801	3.48314	-2.04248
2011.000	1.84193	-2.67445	3.44965	-2.02272
2012.000	1.76688	-2.61107	3.46147	-2.00683
2013.000	1.76886	-2.58328	3.39252	-1.88399
2014.000	1.59503	-2.49420	3.34524	-1.80472
2015.000	1.45871	-2.43877	3.21912	-1.82082
2016.000	1.35004	-2.22444	2.98455	-1.60486
2017.000	1.01212	-2.01217	2.78538	-1.51976
2018.000	0.93306	-1.80358	2.62362	-1.40080
2019.000	0.62866	-1.62484	2.45196	-1.25001
2020.000	0.50412	-1.36047	2.21314	-0.94618
2021.000	0.25108	-1.09206	2.01374	-0.62626
2022.000	-0.11664	-0.88523	1.75108	-0.35992
2023.000	-0.19572	-0.54906	1.59108	-0.16506
2024.000	-0.32818	-0.26061	1.50415	0.13523
2025.000	-0.47447	0.06764	1.39154	0.42163
2026.000	-0.52982	0.32824	1.31843	0.80546
2027.000	-0.58517	0.53114	1.24532	1.04409
2028.000	-0.49424	0.73006	1.26310	1.28266
2029.000	-0.46854	0.94884	1.32040	1.42774
2030.000	-0.42702	1.03238	1.35992	1.51915
2031.000	-0.32027	1.12387	1.50415	1.54489
2032.000	-0.08303	1.12985	1.56540	1.69387
2033.000	-0.00593	1.22332	1.70565	1.65402
2034.000	0.04943	1.12190	1.85181	1.68965
2035.000	0.29852	1.03637	1.99004	1.59217
2036.000	0.26294	0.99461	2.09666	1.47087
2037.000	0.33411	0.94488	2.21314	1.37540
2038.000	0.44877	0.78973	2.25854	1.31973
2039.000	0.59506	0.73800	2.34934	1.15275
2040.000	0.52982	0.65447	2.45788	1.08908
2041.000	0.58320	0.53710	2.46775	1.01953
2042.000	0.55552	0.57689	2.53681	0.92808
2043.000	0.45272	0.48341	2.57627	0.87639
2044.000	0.43493	0.48142	2.62954	0.81277
2045.000	0.37563	0.37599	2.60192	0.82471
2046.000	0.37958	0.33620	2.62757	0.73726
2047.000	0.28469	0.36406	2.61376	0.72535
2048.000	0.32818	0.41578	2.56641	0.74326
2049.000	0.38551	0.46352	2.51708	0.71348
2050.000	0.29259	0.36804	2.46775	0.72941
2051.000	0.26689	0.39191	2.41841	0.80296
2052.000	0.32620	0.41379	2.33750	0.80699
2053.000	0.24317	0.41777	2.33947	0.79506
2054.000	0.29655	0.44761	2.28223	0.86465
2055.000	0.11071	0.44562	2.19735	0.92433
2056.000	0.20956	0.49734	2.14207	0.89256
2057.000	0.22933	0.50729	2.17169	0.96409
2058.000	0.22735	0.50928	2.11246	1.01580
2059.000	0.22340	0.63858	2.10061	1.05159
2060.000	0.20561	0.58487	2.06112	1.08739
2061.000	0.22735	0.63858	2.08482	1.10327
2062.000	0.19177	0.65847	2.08087	1.04961
2063.000	0.16014	0.68234	2.06310	1.11521
2064.000	0.17200	0.69627	2.09271	1.11121
2065.000	0.20561	0.77185	2.10259	1.12711
2066.000	0.22340	0.73207	2.06705	1.14303
2067.000	0.19770	0.81760	2.09666	1.13903
2068.000	0.33016	0.78974	2.10851	1.13108
2069.000	0.15816	0.79373	2.07297	1.18277
2070.000	0.17793	0.77583	2.09074	1.14699
2071.000	0.20165	0.76787	2.06310	1.15893
2072.000	0.24515	0.72411	2.05125	1.19471
2073.000	0.21549	0.71615	2.05125	1.18279
2074.000	0.22142	0.73803	2.06310	1.21458
2075.000	0.24515	0.79174	2.10061	1.15692
2076.000	0.23724	0.77980	2.12825	1.16683
2077.000	0.21352	0.76986	2.12430	1.15491
2078.000	0.22933	0.80964	2.15194	1.17675
2079.000	0.26689	0.80168	2.12430	1.16684
2080.000	0.31039	0.77980	2.12233	1.21056
2081.000	0.18584	0.75594	2.17761	1.18070
2082.000	0.20758	0.80367	2.13615	1.11516
2083.000	0.14234	0.69627	2.12233	1.08933
2084.000	0.24317	0.66841	2.12430	1.11119
2085.000	0.11862	0.63261	2.13220	1.07541
2086.000	0.18584	0.65051	2.13615	1.07541
2087.000	0.23922	0.67239	2.13615	1.04163
2088.000	0.18386	0.72809	2.10851	1.05357
2089.000	0.12257	0.70820	2.17761	1.06942
2090.000	0.10478	0.64853	2.17958	1.05749
2091.000	0.21352	0.73008	2.12628	1.10722
2092.000	0.21747	0.71615	2.18156	1.04756
2093.000	0.18584	0.69626	2.19932	1.03562
2094.000	0.26096	0.79373	2.15589	1.02770
2095.000	0.16804	0.72014	2.14800	1.03168
2096.000	0.14432	0.64853	2.16774	1.06148
2097.000	0.16211	0.73008	2.15589	1.05155
2098.000	0.23724	0.70024	2.15984	1.02770
2099.000	0.20363	0.70024	2.11641	0.98599
2100.000	0.22735	0.70024	2.13615	1.01181
2101.000	0.16804	0.69428	2.18550	0.97601
2102.000	0.15618	0.65449	2.16774	0.95416
2103.000	0.19572	0.68831	2.18550	1.00184
2104.000	0.22340	0.68831	2.13418	0.97604
2105.000	0.21549	0.65250	2.18550	1.05749
2106.000	0.23526	0.70024	2.14010	1.06348
2107.000	0.20363	0.71616	2.16774	0.99391
2108.000	0.27678	0.69825	2.14602	1.00982
2109.000	0.21549	0.64852	2.16971	1.03365
2110.000	0.22735	0.74002	2.17366	1.03365
2111.000	0.23526	0.64852	2.18156	1.03961
2112.000	0.23724	0.65847	2.15984	0.99789
2113.000	0.23922	0.71218	2.16576	1.02173
2114.000	0.26294	0.78776	2.16181	1.06943
2115.000	0.18781	0.68632	2.16379	0.96807
2116.000	0.23724	0.66444	2.13418	1.06746
2117.000	0.32620	0.82356	2.14207	1.03765
2118.000	0.27480	0.74201	2.13023	1.01381
2119.000	0.18781	0.74400	2.10061	1.01184
2120.000	0.22538	0.65449	2.13220	1.02970
2121.000	0.28271	0.71615	2.11838	1.04363
2122.000	0.33016	0.76786	2.07692	1.07148
2123.000	0.34004	0.76389	2.14207	0.99989
2124.000	0.20758	0.71417	2.10851	1.01183
2125.000	0.27678	0.77582	2.14405	1.04957
2126.000	0.29655	0.74599	2.15787	0.98596
2127.000	0.33609	0.76587	2.10456	1.01184
2128.000	0.13048	0.71218	2.17366	0.98397
2129.000	0.19177	0.83351	2.11838	1.04959
2130.000	0.21747	0.77782	2.10851	1.04562
2131.000	0.19770	0.78577	2.15787	1.06546
2132.000	0.25899	0.67040	2.16774	1.01179
2133.000	0.25503	0.76588	2.12825	0.98996
2134.000	0.27480	0.76389	2.15787	1.07540
2135.000	0.29457	0.71416	2.12233	1.03766
2136.000	0.25108	0.80566	2.10259	1.02376
2137.000	0.30248	0.79173	2.08679	0.99992
2138.000	0.29655	0.71814	2.06902	1.04763
2139.000	0.30248	0.73007	2.08482	1.05358
2140.000	0.27678	0.75196	2.07889	1.00788
2141.000	0.29852	0.78179	2.03743	1.06753
2142.000	0.22735	0.70223	2.09271	1.02576
2143.000	0.25899	0.81561	2.13220	1.05157
2144.000	0.19572	0.76588	2.08284	1.07346
2145.000	0.33213	0.75593	2.10456	1.03171
2146.000	0.27876	0.75792	2.18353	1.00383
2147.000	0.31039	0.78776	2.15589	1.06546
2148.000	0.28469	0.74997	2.11641	1.09132
2149.000	0.14432	0.74599	2.06112	1.07745
2150.000	0.32225	0.78974	2.14010	0.99989
2151.000	0.29457	0.73604	2.11443	1.08735
2152.000	0.29852	0.80168	2.12825	1.05753
2153.000	0.23131	0.76389	2.08087	1.00788
2154.000	0.21154	0.69427	2.08877	0.95818
2155.000	0.25108	0.75196	2.13418	0.95219
2156.000	0.18386	0.81362	2.05915	0.97410
2157.000	0.23131	0.81561	2.11048	0.96214
2158.000	0.17200	0.66046	2.08877	0.97011
2159.000	0.27085	0.74798	2.06310	1.03174
2160.000	0.23526	0.79969	2.08877	0.99197
2161.000	0.30643	0.72212	2.08482	0.95222
2162.000	0.21352	0.81163	2.06507	0.97608
2163.000	0.20165	0.74599	2.01966	1.02978
2164.000	0.34202	0.74399	2.12430	0.99791
2165.000	0.27480	0.76787	2.07889	1.00986
2166.000	0.32818	0.79372	2.02953	1.00195
2167.000	0.32818	0.75991	2.04730	1.01982
2168.000	0.30050	0.80964	2.07692	0.95819
2169.000	0.27282	0.72610	2.09864	0.97010
2170.000	0.24910	0.79771	2.07889	0.98999
2171.000	0.18979	0.78577	2.04730	1.02777
2172.000	0.33213	0.77582	2.05125	1.01982
2173.000	0.20561	0.68632	2.04138	0.98604
2174.000	0.23526	0.81362	2.08482	0.98999
2175.000	0.43098	0.80565	2.09864	0.97010
2176.000	0.22735	0.72411	2.06112	1.07149
2177.000	0.33411	0.85737	2.08284	0.96812
2178.000	0.29259	0.82953	2.05915	0.97410
2179.000	0.33411	0.70620	2.03743	0.94629
2180.000	0.36969	0.81957	2.06507	1.01584
2181.000	0.32027	0.81560	2.04928	0.94628
2182.000	0.24317	0.74798	2.06310	0.95223
2183.000	0.21549	0.73804	2.05915	0.96615
2184.000	0.22538	0.77185	2.03151	0.97809
2185.000	0.14234	0.74003	2.02361	0.97213
2186.000	0.24910	0.71814	2.05323	0.99398
2187.000	0.20363	0.72610	2.05323	1.01386
2188.000	0.16607	0.76191	2.02361	0.99201
2189.000	0.23922	0.77980	2.04730	1.01585
2190.000	0.19177	0.71218	2.07100	1.02776
2191.000	0.08303	0.73804	1.95055	0.96224
2192.000	-0.01779	0.87926	1.82811	1.03784
2193.000	-0.19968	0.97075	1.66417	1.03793
2194.000	-0.50808	0.91503	1.41525	1.01022
2195.000	-0.86388	0.95473	1.19987	1.04013
2196.000	-1.19987	1.02025	0.86388	1.14961
2197.000	-1.42117	1.23487	0.48633	1.27100
2198.000	-2.00386	1.27424	0.09687	1.27502
2199.000	-2.44407	1.41888	-0.33213	1.38634
2200.000	-2.80116	1.65079	-0.73936	1.56715
2201.000	-3.15605	1.80506	-1.18010	1.72594
2202.000	-3.57570	1.87767	-1.53576	1.86675
2203.000	-4.05989	1.99554	-1.90118	2.01932
2204.000	-4.35287	2.10970	-2.23486	2.18367
2205.000	-4.56706	2.17246	-2.61376	2.22473
2206.000	-4.91656	2.19511	-2.83074	2.25211
2207.000	-5.31862	2.16604	-3.05158	2.41231
2208.000	-5.42249	2.21907	-3.25263	2.56053
2209.000	-5.64968	2.23205	-3.44768	2.54219
2210.000	-5.82584	2.21753	-3.57570	2.50419
2211.000	-6.03903	2.16531	-3.62887	2.52980
2212.000	-6.12504	2.24990	-3.81196	2.59069
2213.000	-6.16803	2.14109	-3.91036	2.59237
2214.000	-6.29307	2.20574	-3.99693	2.49505
2215.000	-6.61516	2.22013	-4.10513	2.48085
2216.000	-6.61516	2.27735	-4.17199	2.44697
2217.000	-6.72632	2.19201	-4.20542	2.51024
2218.000	-6.79456	2.28835	-4.30176	2.53764
2219.000	-6.75752	2.22343	-4.33518	2.67017
2220.000	-6.87057	2.28404	-4.40398	2.63826
2221.000	-6.85303	2.31370	-4.42166	2.69955
2222.000	-6.80431	2.25280	-4.40791	2.72335
2223.000	-6.76727	2.45414	-4.43739	2.65595
2224.000	-6.55077	2.38420	-4.39218	2.75705
2225.000	-6.57028	2.33478	-4.34501	2.74733
2226.000	-6.48247	2.27598	-4.28211	2.81089
2227.000	-6.27940	2.34006	-4.22116	2.79330
2228.000	-6.24033	2.29877	-4.07366	2.73046
2229.000	-6.21688	2.17249	-3.98119	2.80403
2230.000	-6.00383	2.20101	-3.84935	2.80448
2231.000	-5.90996	2.24288	-3.81196	2.76697
2232.000	-5.85323	2.20359	-3.72928	2.79694
2233.000	-5.81605	2.18990	-3.70369	2.81485
2234.000	-5.79453	2.15441	-3.71353	2.71777
2235.000	-5.88649	2.16394	-3.68597	2.77133
2236.000	-5.91192	2.18162	-3.74109	2.71570
2237.000	-5.96668	2.15770	-3.76669	2.70770
2238.000	-6.06640	2.13359	-3.81589	2.71943
2239.000	-6.06444	2.17509	-3.92020	2.72899
2240.000	-6.06444	2.18892	-4.01267	2.64948
2241.000	-6.20712	2.25547	-4.05399	2.64539
2242.000	-6.24228	2.37379	-4.16413	2.71036
2243.000	-6.33995	2.25687	-4.22312	2.62502
2244.000	-6.36338	2.23900	-4.24868	2.63286
2245.000	-6.39853	2.22108	-4.30176	2.65841
2246.000	-6.33799	2.30426	-4.41773	2.68967
2247.000	-6.44928	2.32152	-4.41773	2.69363
2248.000	-6.37510	2.24882	-4.46293	2.69940
2249.000	-6.47661	2.28982	-4.43739	2.69158
2250.000	-6.44538	2.37088	-4.50420	2.74278
2251.000	-6.40829	2.30395	-4.48848	2.72701
2252.000	-6.49613	2.28184	-4.48651	2.77055
2253.000	-6.52540	2.30933	-4.51795	2.78032
2254.000	-6.43562	2.33738	-4.49241	2.78042
2255.000	-6.57223	2.32688	-4.46883	2.82800
2256.000	-6.54297	2.26584	-4.50420	2.78433
2257.000	-6.52736	2.25604	-4.44525	2.82809
2258.000	-6.49808	2.33117	-4.47472	2.82797
2259.000	-6.54492	2.28359	-4.41184	2.84207
2260.000	-6.49027	2.27002	-4.41184	2.77875
2261.000	-6.50784	2.30349	-4.36074	2.79477
2262.000	-6.43172	2.31174	-4.36270	2.82246
2263.000	-6.36924	2.30215	-4.39612	2.80453
2264.000	-6.41219	2.28814	-4.37843	2.72741
2265.000	-6.44928	2.29389	-4.36860	2.79474
2266.000	-6.27940	2.44074	-4.37450	2.75909
2267.000	-6.37510	2.29817	-4.37646	2.73732
2268.000	-6.25400	2.34215	-4.44721	2.72320
2269.000	-6.21688	2.39365	-4.38039	2.69772
2270.000	-6.31260	2.31030	-4.39218	2.67788
2271.000	-6.25791	2.30462	-4.34108	2.74140
2272.000	-6.43367	2.22488	-4.36074	2.73737
2273.000	-6.32042	2.44646	-4.36467	2.69382
2274.000	-6.28135	2.29267	-4.39218	2.73132
2275.000	-6.32823	2.34774	-4.39415	2.69569
2276.000	-6.26182	2.24339	-4.39022	2.71550
2277.000	-6.22470	2.36202	-4.33322	2.72956
2278.000	-6.17194	2.22205	-4.32929	2.70384
2279.000	-6.31456	2.36162	-4.38432	2.66406
2280.000	-6.37900	2.29618	-4.38825	2.69373
2281.000	-6.12308	2.36840	-4.37056	2.70171
2282.000	-6.29893	2.35971	-4.37450	2.61065
2283.000	-6.20907	2.36209	-4.33518	2.66423
2284.000	-6.21102	2.30482	-4.36467	2.69975
2285.000	-6.25596	2.27896	-4.34108	2.71567
2286.000	-6.22079	2.32058	-4.39808	2.69172
2287.000	-6.27940	2.29663	-4.42363	2.68767
2288.000	-6.19148	2.39179	-4.40987	2.74709
2289.000	-6.32628	2.31024	-4.40005	2.74317
2290.000	-6.14849	2.42160	-4.36663	2.70766
2291.000	-6.18367	2.41354	-4.40398	2.75107
2292.000	-6.22861	2.31067	-4.39022	2.74716
2293.000	-6.19344	2.30490	-4.39808	2.76494
2294.000	-6.16217	2.40179	-4.36467	2.71361
2295.000	-6.27745	2.30058	-4.39415	2.71746
2296.000	-6.15045	2.31299	-4.37646	2.73336
2297.000	-6.23251	2.32447	-4.35091	2.70772
2298.000	-6.28135	2.34992	-4.39808	2.70161
2299.000	-6.23251	2.36396	-4.40987	2.74511
2300.000	-6.16217	2.32478	-4.39808	2.77682
2301.000	-6.16608	2.39980	-4.39612	2.77287
2302.000	-6.34776	2.29632	-4.39218	2.76892
2303.000	-6.26573	2.40724	-4.37843	2.82636
2304.000	-6.24619	2.30467	-4.39218	2.78673
2305.000	-6.19344	2.38783	-4.43149	2.78461
2306.000	-6.09181	2.41396	-4.39022	2.77091
2307.000	-6.21688	2.32059	-4.42363	2.79255
2308.000	-6.22275	2.38770	-4.39808	2.83618
2309.000	-6.13872	2.38413	-4.42756	2.77473
2310.000	-6.09963	2.42379	-4.40987	2.78073
2311.000	-6.13286	2.39995	-4.41577	2.85392
2312.000	-6.19539	2.36610	-4.38236	2.75709
2313.000	-6.04489	2.40824	-4.37450	2.82638
2314.000	-6.31651	2.26882	-4.38236	2.77094
2315.000	-6.21688	2.34626	-4.31749	2.74149
2316.000	-6.08595	2.38634	-4.36663	2.89962
2317.000	-6.20712	2.31274	-4.34698	2.82054
2318.000	-6.06444	2.45950	-4.38039	2.80261
2319.000	-6.02925	2.40634	-4.37253	2.88970
2320.000	-6.00774	2.32348	-4.39415	2.80058
2321.000	-6.13286	2.47695	-4.39218	2.79861
2322.000	-6.07226	2.38442	-4.38236	2.80260
2323.000	-6.09963	2.43959	-4.42166	2.80443
2324.000	-6.14067	2.44730	-4.37056	2.83035
2325.000	-6.13872	2.31501	-4.41773	2.80841
2326.000	-6.11331	2.31710	-4.44132	2.78259
2327.000	-6.06444	2.41803	-4.43542	2.85187
2328.000	-6.13090	2.37626	-4.42953	2.85783
2329.000	-6.16999	2.44717	-4.38236	2.80656
2330.000	-6.07422	2.33702	-4.39218	2.83423
2331.000	-6.15045	2.43541	-4.38236	2.82041
2332.000	-6.21298	2.36010	-4.39218	2.80059
2333.000	-5.97841	2.49346	-4.41184	2.79655
2334.000	-6.15826	2.38996	-4.38432	2.79072
2335.000	-6.12113	2.37038	-4.38432	2.80853
2336.000	-6.20125	2.37990	-4.40594	2.77481
2337.000	-6.13090	2.38021	-4.39218	2.79267
2338.000	-6.03316	2.46161	-4.41380	2.82425
2339.000	-6.02339	2.42414	-4.34108	2.78890
2340.000	-6.07422	2.46143	-4.39218	2.82037
2341.000	-6.12308	2.41776	-4.44328	2.77269
2342.000	-6.07813	2.45746	-4.38629	2.81842
2343.000	-6.15240	2.32088	-4.42559	2.81233
2344.000	-6.10354	2.41588	-4.37450	2.79076
2345.000	-5.99797	2.38080	-4.37646	2.77690
2346.000	-6.01165	2.44394	-4.39808	2.74120
2347.000	-6.14067	2.36437	-4.39415	2.69767
2348.000	-6.11331	2.36647	-4.42166	2.72923
2349.000	-6.07031	2.33111	-4.37646	2.71159
2350.000	-6.09572	2.38234	-4.40987	2.73917
2351.000	-6.13481	2.37230	-4.40594	2.76294
2352.000	-6.12308	2.38420	-4.40791	2.76095
2353.000	-6.09963	2.38233	-4.41970	2.67383
2354.000	-6.00579	2.30571	-4.40005	2.74713
2355.000	-6.14654	2.37422	-4.40398	2.76294
2356.000	-6.04880	2.35490	-4.40398	2.69170
2357.000	-6.10745	2.31120	-4.36467	2.66809
2358.000	-6.15631	2.34456	-4.29390	2.73959
2359.000	-6.04489	2.37467	-4.23885	2.70812
2360.000	-5.88844	2.33583	-4.12873	2.86093
2361.000	-5.88649	2.40301	-3.92610	2.94874
2362.000	-5.50085	2.32555	-3.71550	2.93363
2363.000	-5.31470	2.33219	-3.50874	2.97786
2364.000	-5.05587	2.30743	-3.25065	2.99846
2365.000	-4.79487	2.22916	-2.83863	3.10264
2366.000	-4.36467	2.31566	-2.42828	3.15320
2367.000	-3.92020	2.30904	-1.95252	3.17204
2368.000	-3.54616	2.32588	-1.50613	3.20252
2369.000	-3.24474	2.37816	-1.13268	3.23076
2370.000	-2.76960	2.40498	-0.64448	3.36800
2371.000	-2.35723	2.44941	-0.15223	3.29880
2372.000	-1.95845	2.47783	0.23724	3.29482
2373.000	-1.43105	2.50828	0.61087	3.26889
2374.000	-1.11884	2.55226	1.07536	3.28039
2375.000	-0.70378	2.59822	1.30657	3.16909
2376.000	-0.55750	2.58638	1.64244	3.11508
2377.000	-0.15025	2.59443	1.81428	3.17229
2378.000	0.09687	2.60833	2.13220	3.06663
2379.000	0.31434	2.57256	2.25657	2.96528
2380.000	0.33411	2.48917	2.37105	2.91944
2381.000	0.40923	2.52290	2.43815	2.81620
2382.000	0.59506	2.50496	2.38486	2.80243
2383.000	0.61087	2.56650	2.35131	2.81241
2384.000	0.63855	2.58237	2.29407	2.77286
2385.000	0.49424	2.56258	2.14010	2.81877
2386.000	0.59703	2.59430	1.99202	2.89638
2387.000	0.29655	2.68771	1.84786	2.95810
2388.000	0.16014	2.59046	1.67207	3.06745
2389.000	0.02175	2.65201	1.49032	3.21048
2390.000	-0.13444	2.74729	1.30460	3.26426
2391.000	-0.32225	2.79290	1.16825	3.27632
2392.000	-0.38551	2.84448	1.06548	3.40133
2393.000	-0.50808	2.86031	0.96864	3.42125
2394.000	-0.67808	2.83442	0.92713	3.36975
2395.000	-0.70180	2.91180	0.85796	3.46694
2396.000	-0.80854	2.84228	0.82040	3.45508
2397.000	-0.81249	2.89982	0.89353	3.45898
2398.000	-0.83621	2.95337	0.89946	3.44906
2399.000	-0.79470	2.91967	0.96666	3.40936
2400.000	-0.73936	2.91773	1.02398	3.39542
2401.000	-0.70971	2.90386	1.15244	3.40123
2402.000	-0.67413	2.92372	1.22555	3.42294
2403.000	-0.58320	2.84638	1.31052	3.32372
2404.000	-0.43493	2.92384	1.41327	3.41079
2405.000	-0.32027	2.86236	1.44291	3.31363
2406.000	-0.24119	2.83261	1.53379	3.22033
2407.000	-0.27085	2.78100	1.55157	3.28968
2408.000	-0.13444	2.87232	1.58515	3.27972
2409.000	-0.02372	2.77111	1.67602	3.23398
2410.000	0.02175	2.75722	1.67800	3.20821
2411.000	0.10676	2.74530	1.68985	3.17052
2412.000	0.07117	2.75722	1.68392	3.23000
2413.000	0.09292	2.74531	1.72540	3.19029
2414.000	0.16607	2.79492	1.77083	3.16642
2415.000	0.19968	2.79491	1.75700	3.17834
2416.000	0.22340	2.78498	1.74910	3.19223
2417.000	0.24712	2.82467	1.75898	3.16248
2418.000	0.24910	2.76315	1.78861	3.13467
2419.000	0.22735	2.81475	1.77083	3.12281
2420.000	0.28864	2.80680	1.70367	3.19230
2421.000	0.36179	2.80480	1.71355	3.18238
2422.000	0.34004	2.83457	1.68787	3.16458
2423.000	0.26887	2.80879	1.75108	3.25566
2424.000	0.32225	2.80481	1.71948	3.24184
2425.000	0.31829	2.82267	1.71158	3.20022
2426.000	0.33609	2.81274	1.70367	3.14671
2427.000	0.36772	2.83258	1.70367	3.24781
2428.000	0.36772	2.88814	1.70170	3.16455
2429.000	0.37760	2.78296	1.68985	3.28351
2430.000	0.31434	2.84450	1.70762	3.23393
2431.000	0.36969	2.84449	1.69577	3.21214
2432.000	0.31829	2.86435	1.67207	3.21813
2433.000	0.30446	2.92586	1.69972	3.19429
2434.000	0.37958	2.87226	1.71158	3.19824
2435.000	0.21352	2.93977	1.68985	3.20819
2436.000	0.27876	2.87229	1.70367	3.12688
2437.000	0.28073	2.87031	1.64837	3.23402
2438.000	0.24119	2.77506	1.65034	3.25583
2439.000	0.25503	2.82467	1.65232	3.20626
2440.000	0.36772	2.95561	1.67404	3.23002
2441.000	0.26096	2.94373	1.64244	3.22809
2442.000	0.35190	2.92783	1.61281	3.19047
2443.000	0.30841	2.92189	1.65627	3.19436
2444.000	0.26887	2.87230	1.63651	3.16862
2445.000	0.27876	2.95365	1.66022	3.17453
2446.000	0.27876	2.97349	1.66614	3.21417
2447.000	0.22735	2.92191	1.66219	3.14479
2448.000	0.25305	2.97746	1.56342	3.23218
2449.000	0.28271	2.93182	1.60096	3.22419
2450.000	0.28864	2.91595	1.60688	3.19444
2451.000	0.33411	2.92982	1.59305	3.15680
2452.000	0.23131	2.94771	1.62466	3.16666
2453.000	0.21549	2.86437	1.61676	3.13098
2454.000	0.21945	3.00128	1.60886	3.19444
2455.000	0.25305	2.90802	1.65034	3.17455
2456.000	0.25701	2.93381	1.64046	3.21025
2457.000	0.21352	2.96160	1.61083	3.14487
2458.000	0.30446	2.92983	1.56145	3.19451
2459.000	0.19770	2.86437	1.63849	3.17655
2460.000	0.26492	2.93183	1.60096	3.17066
2461.000	0.20758	2.84850	1.62664	3.14881
2462.000	0.26887	2.89214	1.56737	3.20442
2463.000	0.24910	2.91397	1.59898	3.13894
2464.000	0.31434	2.95959	1.63849	3.13888
2465.000	0.31829	2.95165	1.64441	3.19438
2466.000	0.33411	2.92982	1.55157	3.18263
2467.000	0.23131	2.90009	1.57725	3.20638
2468.000	0.24712	2.97548	1.64244	3.17853
2469.000	0.34202	3.01514	1.60096	3.22419
2470.000	0.26492	2.91595	1.56737	3.22028
2471.000	0.31236	2.93380	1.62071	3.21226
2472.000	0.29062	2.96158	1.58515	3.16474
2473.000	0.25108	2.93183	1.58120	3.21232
2474.000	0.30643	2.96158	1.59898	3.24798
2475.000	0.38353	2.97147	1.60096	3.21824
2476.000	0.31236	2.95166	1.58515	3.19844
2477.000	0.20561	2.97351	1.56737	3.25596
2478.000	0.25305	2.92588	1.60491	3.13100
2479.000	0.25108	2.92389	1.60293	3.17264
2480.000	0.27282	2.91595	1.59108	3.19050
2481.000	0.29062	2.94373	1.60688	3.21823
2482.000	0.23526	2.93977	1.59108	3.20240
2483.000	0.30446	2.94372	1.57725	3.24801
2484.000	0.28666	3.01912	1.52589	3.23422
2485.000	0.27282	3.00325	1.58318	3.23809
2486.000	0.28271	2.95563	1.55354	3.23814
2487.000	0.33609	2.94768	1.57527	3.24405
2488.000	0.28271	2.94571	1.53971	3.24014
2489.000	0.26096	2.93580	1.56935	3.20838
2490.000	0.24910	2.95762	1.60096	3.23806
2491.000	0.28864	2.95960	1.60491	3.25590
2492.000	0.31039	2.90999	1.57725	3.34910
2493.000	0.30446	2.93182	1.54762	3.30356
2494.000	0.28864	2.93380	1.55354	3.32139
2495.000	0.30643	3.02308	1.54762	3.32933
2496.000	0.38156	2.94370	1.61281	3.31139
2497.000	0.26294	3.01119	1.55947	3.30354
2498.000	0.34004	2.94570	1.56737	3.30155
2499.000	0.25503	2.87031	1.52984	3.29566
2500.000	0.39539	2.88615	1.56935	3.25992
2501.000	0.34399	2.89609	1.56935	3.27578
2502.000	0.36772	2.91989	1.53576	3.29961
2503.000	0.33609	2.93776	1.57527	3.23810
2504.000	0.36772	2.98735	1.57527	3.25793
2505.000	0.37958	2.99528	1.59305	3.25394
2506.000	0.35388	2.90204	1.56737	3.22820
2507.000	0.33411	3.00522	1.59700	3.28366
2508.000	0.33806	2.93776	1.57527	3.23810
2509.000	0.40330	2.95956	1.53971	3.23816
2510.000	0.30643	3.00919	1.59700	3.28366
2511.000	0.35388	2.97942	1.54169	3.27978
2512.000	0.36772	2.98140	1.59108	3.26385
2513.000	0.30643	3.02903	1.52391	3.26990
2514.000	0.41121	2.97742	1.56935	3.27776
2515.000	0.35981	3.02902	1.53379	3.26989
2516.000	0.37760	2.90005	1.53181	3.27583
2517.000	0.34795	2.94768	1.56935	3.27974
2518.000	0.47842	2.95358	1.53576	3.30358
2519.000	0.42307	2.89408	1.57725	3.23215
2520.000	0.41319	2.98138	1.53774	3.30952
2521.000	0.39539	2.94369	1.56145	3.21434
2522.000	0.34597	2.94966	1.54169	3.25798
2523.000	0.46656	3.01112	1.59503	3.27772
2524.000	0.43889	2.99725	1.55749	3.26985
2525.000	0.34202	2.96950	1.56342	3.26587
2526.000	0.36376	2.96553	1.57923	3.24999
2527.000	0.45075	2.99922	1.53379	3.25204
2528.000	0.39737	2.98536	1.55749	3.23813
2529.000	0.46261	2.96549	1.55749	3.23218
2530.000	0.52389	2.98134	1.51601	3.28577
2531.000	0.47645	2.93374	1.56935	3.23415
2532.000	0.44086	2.97344	1.55749	3.20641
2533.000	0.45865	2.99525	1.56737	3.18856
2534.000	0.47645	2.97739	1.58713	3.24800
2535.000	0.37365	2.96156	1.54959	3.21436
2536.000	0.31632	3.01316	1.54367	3.27780
2537.000	0.39144	2.96552	1.64837	3.28556
2538.000	0.40330	2.89607	1.63059	3.28163
2539.000	0.41912	2.98138	1.75108	3.26557
2540.000	0.50610	2.96944	1.86958	3.25148
2541.000	0.74529	3.05064	1.98807	3.28891
2542.000	0.99038	3.06234	2.16576	3.39751
2543.000	1.16034	3.09787	2.48354	3.43833
2544.000	1.54959	3.16281	2.82088	3.52649
2545.000	1.79848	3.23377	3.17971	3.60646
2546.000	2.29210	3.27637	3.55010	3.64860
2547.000	2.74396	3.45148	3.95365	3.74377
2548.000	3.17379	3.52931	4.30963	3.79937
2549.000	3.58555	3.59506	4.73793	4.00237
2550.000	4.12283	3.70544	4.98721	4.16062
2551.000	4.47669	3.83209	5.39114	4.18555
2552.000	4.94011	3.95187	5.65556	4.15415
2553.000	5.24806	4.00519	5.96472	4.13219
2554.000	5.45775	3.99396	6.10940	4.22947
2555.000	5.72212	3.92321	6.42781	4.15414
2556.000	5.99210	4.05718	6.54102	4.10996
2557.000	6.12895	4.08765	6.65222	3.95370
2558.000	6.24619	4.07690	6.78286	3.89169
2559.000	6.21102	4.10276	6.75362	3.83686
2560.000	6.14067	4.11511	6.73217	3.82129
2561.000	6.13090	4.14076	6.64441	3.84558
2562.000	6.06640	4.19833	6.65417	3.87501
2563.000	6.08204	4.24936	6.52150	4.01375
2564.000	5.98232	4.27769	6.44343	4.14025
2565.000	5.92756	4.31353	6.38876	4.20559
2566.000	5.90996	4.34515	6.30284	4.33411
2567.000	5.81997	4.46783	6.24814	4.44466
2568.000	5.74952	4.49199	6.19930	4.42148
2569.000	5.74365	4.58449	6.12504	4.57937
2570.000	5.75539	4.61586	6.13090	4.63435
2571.000	5.62032	4.67398	6.05076	4.65076
2572.000	5.54786	4.67063	5.94712	4.66540
2573.000	5.56744	4.78847	5.97646	4.65336
2574.000	5.42249	4.74439	5.86497	4.68968
2575.000	5.34606	4.67612	5.81605	4.62520
2576.000	5.27942	4.59397	5.79257	4.61753
2577.000	5.18139	4.59468	5.79844	4.55062
2578.000	5.19316	4.57491	5.80236	4.43453
2579.000	5.08529	4.47525	5.74560	4.50580
2580.000	5.10883	4.37660	5.76909	4.44462
2581.000	5.10491	4.26432	5.84932	4.40071
2582.000	5.10295	4.20324	5.86692	4.40057
2583.000	5.10295	4.19733	5.91387	4.41004
2584.000	5.10099	4.10272	5.98037	4.44491
2585.000	5.21080	4.05865	6.01557	4.38759
2586.000	5.26178	4.16869	6.09181	4.41647
2587.000	5.28922	4.07982	6.17390	4.38040
2588.000	5.41269	4.06521	6.20321	4.43128
2589.000	5.45384	4.15950	6.24228	4.42702
2590.000	5.53611	4.14514	6.25400	4.41512
2591.000	5.57136	4.11338	6.28526	4.40110
2592.000	5.59682	4.19395	6.24424	4.43093
2593.000	5.65947	4.15609	6.25987	4.47405
2594.000	5.71037	4.19510	6.29698	4.36168
2595.000	5.71820	4.19701	6.27549	4.45819
2596.000	5.68688	4.27600	6.27159	4.49360
2597.000	5.72799	4.26191	6.29112	4.43250
2598.000	5.68884	4.24842	6.27745	4.46997
2599.000	5.76126	4.28922	6.31065	4.47754
2600.000	5.78083	4.30679	6.30479	4.50707
2601.000	5.70646	4.28176	6.32823	4.50490
2602.000	5.76713	4.29902	6.31846	4.49713
2603.000	5.75735	4.34633	6.27940	4.52301
2604.000	5.77496	4.33635	6.29112	4.52291
2605.000	5.76909	4.33049	6.30284	4.50905
2606.000	5.81214	4.36362	6.29307	4.53469
2607.000	5.73582	4.40553	6.25987	4.51139
2608.000	5.75539	4.37980	6.29893	4.52088
2609.000	5.72407	4.34461	6.26963	4.49755
2610.000	5.72995	4.35441	6.25596	4.57627
2611.000	5.72995	4.39770	6.24228	4.56460
2612.000	5.66926	4.42572	6.21688	4.48621
2613.000	5.76126	4.42304	6.25205	4.43283
2614.000	5.73190	4.46065	6.19930	4.53353
2615.000	5.71233	4.46081	6.21493	4.50981
2616.000	5.76517	4.40137	6.28331	4.54263
2617.000	5.76322	4.41122	6.25010	4.54488
2618.000	5.72016	4.40171	6.25596	4.51142
2619.000	5.72212	4.40170	6.26963	4.54668
2620.000	5.72995	4.48034	6.20321	4.56691
2621.000	5.76909	4.41314	6.22665	4.53919
2622.000	5.74365	4.45859	6.23447	4.58236
2623.000	5.78866	4.47398	6.25010	4.55471
2624.000	5.75343	4.43097	6.21688	4.56089
2625.000	5.72212	4.41941	6.23447	4.58825
2626.000	5.77496	4.45835	6.23447	4.54109
2627.000	5.78670	4.43071	6.21493	4.54912
2628.000	5.73973	4.41927	6.22470	4.55100
2629.000	5.76322	4.48992	6.22275	4.55298
2630.000	5.70646	4.46085	6.22079	4.57265
2631.000	5.74169	4.44090	6.19344	4.61808
2632.000	5.74365	4.46646	6.22275	4.53136
2633.000	5.79649	4.46212	6.25010	4.57043
2634.000	5.77300	4.48591	6.25400	4.49179
2635.000	5.74169	4.42910	6.16999	4.53771
2636.000	5.72212	4.42334	6.26573	4.55850
2637.000	5.73777	4.48225	6.22275	4.63748
2638.000	5.74952	4.36410	6.25791	4.56447
2639.000	5.76713	4.52923	6.23251	4.58041
2640.000	5.72995	4.43706	6.24619	4.57636
2641.000	5.70841	4.42739	6.22470	4.55689
2642.000	5.73386	4.39767	6.33213	4.52059
2643.000	5.67122	4.37060	6.26377	4.52708
2644.000	5.74952	4.48413	6.30870	4.57385
2645.000	5.71429	4.45489	6.27745	4.49945
2646.000	5.73386	4.51769	6.28526	4.55833
2647.000	5.72016	4.45878	6.31846	4.47944
2648.000	5.71820	4.50011	6.31456	4.53253
2649.000	5.70646	4.46282	6.27354	4.58005
2650.000	5.72016	4.45484	6.25205	4.56845
2651.000	5.69275	4.52588	6.29307	4.49735
2652.000	5.78083	4.43863	6.25791	4.51337
2653.000	5.75539	4.40735	6.31065	4.50899
2654.000	5.74952	4.43887	6.21688	4.59233
2655.000	5.71233	4.38997	6.28721	4.49543
2656.000	5.78474	4.39925	6.27159	4.50539
2657.000	5.72407	4.41152	6.28135	4.51514
2658.000	5.72603	4.37412	6.33799	4.51661
2659.000	5.77692	4.42095	6.35557	4.47126
2660.000	5.72016	4.34661	6.27354	4.53682
2661.000	5.69471	4.38026	6.35166	4.48308
2662.000	5.64577	4.41606	6.28331	4.52101
2663.000	5.71233	4.36045	6.30870	4.51097
2664.000	5.74756	4.39363	6.29698	4.46194
2665.000	5.63402	4.42795	6.36338	4.46137
2666.000	5.69863	4.42353	6.29112	4.50522
2667.000	5.74756	4.34050	6.33409	4.50289
2668.000	5.67709	4.40991	6.34385	4.49101
2669.000	5.65164	4.42388	6.25987	4.53890
2670.000	5.63011	4.41814	6.30674	4.54636
2671.000	5.64185	4.42396	6.25400	4.56450
2672.000	5.60073	4.39081	6.28331	4.53084
2673.000	5.70450	4.32901	6.29503	4.52681
2674.000	5.72016	4.39975	6.27354	4.52896
2675.000	5.63598	4.51255	6.30089	4.54641
2676.000	5.66926	4.40013	6.28721	4.55832
2677.000	5.71037	4.42344	6.26182	4.54675
2678.000	5.65164	4.46127	6.25205	4.54487
2679.000	5.68492	4.41576	6.28526	4.53868
2680.000	5.57332	4.40676	6.28917	4.50328
2681.000	5.71429	4.42144	6.30479	4.54048
2682.000	5.64185	4.42396	6.27159	4.49753
2683.000	5.65556	4.42976	6.32628	4.55208
2684.000	5.69080	4.41375	6.26768	4.50346
2685.000	5.66535	4.42772	6.23838	4.57839
2686.000	5.61836	4.37690	6.26768	4.56242
2687.000	5.60857	4.37697	6.22079	4.54121
2688.000	5.65164	4.37665	6.27354	4.56237
2689.000	5.62032	4.44577	6.23447	4.53912
2690.000	5.64381	4.44953	6.22275	4.55495
2691.000	5.72799	4.45478	6.21884	4.51567
2692.000	5.66339	4.41002	6.21493	4.55108
2693.000	5.65752	4.48287	6.25010	4.50165
2694.000	5.65360	4.53013	6.28721	4.55242
2695.000	5.65556	4.43566	6.26573	4.55064
2696.000	5.67122	4.43751	6.27745	4.54661
2697.000	5.64773	4.42391	6.22861	4.60206
2698.000	5.63011	4.45357	6.22861	4.60795
2699.000	5.74952	4.45068	6.24619	4.62352
2700.000	5.75735	4.44078	6.22079	4.66304
2701.000	5.67905	4.50435	6.21298	4.65917
2702.000	5.67709	4.44730	6.24424	4.61764
2703.000	5.73386	4.49408	6.23838	4.64520
2704.000	5.68297	4.46890	6.19930	4.68091
2705.000	5.70254	4.51204	6.27354	4.60166
2706.000	5.74756	4.39954	6.22470	4.58834
2707.000	5.71233	4.40768	6.23447	4.60201
2708.000	5.64185	4.49677	6.21688	4.59823
2709.000	5.68688	4.46100	6.23251	4.61578
2710.000	5.72407	4.52367	6.21298	4.57468
2711.000	5.68884	4.56329	6.27159	4.55845
2712.000	5.75735	4.42701	6.25987	4.49763
2713.000	5.60857	4.46160	6.28135	4.52496
2714.000	5.64185	4.49874	6.27745	4.59966
2715.000	5.68101	4.47876	6.25596	4.58020
2716.000	5.68297	4.53580	6.28917	4.54454
2717.000	5.69863	4.45107	6.26963	4.58991
2718.000	5.63206	4.50275	6.27159	4.57810
2719.000	5.63794	4.50860	6.24228	4.61569
2720.000	5.64773	4.43966	6.27745	4.56823
2721.000	5.59486	4.40857	6.33213	4.51273
2722.000	5.63206	4.42010	6.27159	4.56631
2723.000	5.64577	4.52035	6.30870	4.56009
2724.000	5.68297	4.52596	6.31846	4.51874
2725.000	5.64773	4.43769	6.27940	4.55052
2726.000	5.65164	4.43372	6.30674	4.53064
2727.000	5.63011	4.44176	6.33018	4.51275
2728.000	5.64773	4.43966	6.33604	4.53038
2729.000	5.66730	4.47296	6.31846	4.54232
2730.000	5.65360	4.49471	6.32042	4.50104
2731.000	5.60661	4.44194	6.28526	4.49741
2732.000	5.69080	4.47475	6.27940	4.60947
2733.000	5.65947	4.46712	6.28917	4.63493
2734.000	5.65947	4.51434	6.33213	4.55596
2735.000	5.64381	4.44362	6.28721	4.60547
2736.000	5.60465	4.51083	6.28135	4.50727
2737.000	5.64185	4.53415	6.31260	4.53059
2738.000	5.73777	4.52946	6.24619	4.54885
2739.000	5.66730	4.51625	6.30089	4.55623
2740.000	5.62815	4.49097	6.33213	4.55596
2741.000	5.62423	4.41819	6.29307	4.59363
2742.000	5.64773	4.47114	6.31651	4.53841
2743.000	5.64577	4.50264	6.30479	4.54244
2744.000	5.73190	4.43901	6.33213	4.62472
2745.000	5.66143	4.45726	6.33604	4.55396
2746.000	5.69080	4.52393	6.28331	4.55442
2747.000	5.63011	4.44766	6.26377	4.60371
2748.000	5.67514	4.50241	6.29503	4.62898
2749.000	5.61444	4.55994	6.31065	4.55811
2750.000	5.68297	4.43939	6.26768	4.56635
2751.000	5.64968	4.50064	6.28135	4.57605
2752.000	5.55569	4.47578	6.25010	4.59205
2753.000	5.60465	4.47344	6.26377	4.54477
2754.000	5.57136	4.45992	6.26377	4.52118
2755.000	5.69080	4.46491	6.27940	4.57017
2756.000	5.64381	4.47314	6.27354	4.57809
2757.000	5.67514	4.48667	6.34580	4.55387
2758.000	5.67905	4.44926	6.30284	4.55032
2759.000	5.64185	4.44364	6.26182	4.64499
2760.000	5.64577	4.47706	6.29112	4.56221
2761.000	5.66339	4.49463	6.34776	4.54403
2762.000	5.62815	4.44374	6.34776	4.52438
2763.000	5.63402	4.44370	6.28721	4.50722
2764.000	5.60857	4.43602	6.33604	4.52449
2765.000	5.63990	4.44562	6.33799	4.52840
2766.000	5.70841	4.42345	6.24424	4.54886
2767.000	5.64185	4.57153	6.31456	4.49520
2768.000	5.63402	4.54011	6.24424	4.58031
2769.000	5.56744	4.48356	6.27354	4.52699
2770.000	5.64185	4.51448	6.30089	4.58374
2771.000	5.60661	4.43603	6.27354	4.59773
2772.000	5.64185	4.43773	6.27354	4.53879
2773.000	5.61640	4.41037	6.30089	4.50514
2774.000	5.64381	4.54397	6.26573	4.54671
2775.000	5.58507	4.46375	6.30284	4.48351
2776.000	5.52436	4.44649	6.28917	4.52096
2777.000	5.64185	4.45348	6.26573	4.52903
2778.000	5.58703	4.41847	6.29112	4.46985
2779.000	5.63990	4.39445	6.27549	4.55449
2780.000	5.64773	4.40423	6.22861	4.51559
2781.000	5.61444	4.46156	6.29112	4.49343
2782.000	5.62032	4.47135	6.28526	4.50724
2783.000	5.62619	4.48115	6.25400	4.52323
2784.000	5.60857	4.43996	6.24033	4.49190
2785.000	5.58311	4.51493	6.25400	4.53502
2786.000	5.70058	4.48844	6.26573	4.53099
2787.000	5.64577	4.48296	6.30089	4.48156
2788.000	5.57919	4.45789	6.27159	4.49753
2789.000	5.58115	4.47952	6.29307	4.48359
2790.000	5.60073	4.45576	6.28721	4.50722
2791.000	5.57919	4.42246	6.26377	4.47794
2792.000	5.57136	4.45401	6.31846	4.44406
2793.000	5.61640	4.45761	6.28917	4.46593
2794.000	5.62619	4.43392	6.28135	4.49745
2795.000	5.72212	4.51975	6.29307	4.45607
2796.000	5.69080	4.41768	6.28917	4.49935
2797.000	5.61836	4.47727	6.28331	4.47974
2798.000	5.65556	4.43369	6.34580	4.46348
2799.000	5.58507	4.42636	6.27354	4.46410
2800.000	5.60465	4.44983	6.26573	4.47400
2801.000	5.62423	4.46542	6.31065	4.47951
2802.000	5.52436	4.53309	6.28526	4.46007
2803.000	5.58311	4.46377	6.30870	4.49328
2804.000	5.66339	4.45725	6.24033	4.45456
2805.000	5.62032	4.43199	6.29893	4.49337
2806.000	5.66730	4.44148	6.24228	4.53316
2807.000	5.68101	4.45121	6.25010	4.43088
2808.000	5.67905	4.48074	6.29893	4.48550
2809.000	5.68688	4.46494	6.27549	4.53287
2810.000	5.63206	4.51062	6.29893	4.51105
2811.000	5.60073	4.44002	6.28526	4.44042
2812.000	5.59682	4.42627	6.29893	4.42654
2813.000	5.62423	4.43787	6.31651	4.48535
2814.000	5.56353	4.43439	6.30284	4.47368
2815.000	5.62815	4.49294	6.29307	4.50324
2816.000	5.64185	4.43183	6.22665	4.51561
2817.000	5.62619	4.46147	6.34580	4.45759
2818.000	5.56549	4.50129	6.25791	4.51927
2819.000	5.64773	4.41211	6.22079	4.49404
2820.000	5.63990	4.49285	6.25400	4.53502
2821.000	5.53023	4.52714	6.25010	4.54881
2822.000	5.66730	4.50444	6.23838	4.52730
2823.000	5.64577	4.52822	6.26182	4.58408
2824.000	5.65360	4.47897	6.25400	4.57629
2825.000	5.63402	4.42599	6.27940	4.52105
2826.000	5.58311	4.46967	6.22275	4.54905
2827.000	5.48518	4.48812	6.23838	4.58036
2828.000	5.55178	4.41480	6.23447	4.60594
2829.000	5.57136	4.52289	6.21688	4.57465
2830.000	5.62815	4.47523	6.26963	4.56437
2831.000	5.56549	4.38517	6.19930	4.55515
2832.000	5.59878	4.46365	6.23251	4.55290
2833.000	5.59878	4.45971	6.21688	4.56875
2834.000	5.61053	4.44584	6.20321	4.57084
2835.000	5.65360	4.41797	6.22275	4.58049
2836.000	5.60857	4.43996	6.21493	4.53536
2837.000	5.65164	4.49866	6.15045	4.57522
2838.000	5.64773	4.49869	6.21688	4.57465
2839.000	5.58703	4.43618	6.22079	4.57658
2840.000	5.54982	4.44040	6.18953	4.55327
2841.000	5.55178	4.49352	6.20321	4.62389
2842.000	5.54003	4.46606	6.17976	4.58087
2843.000	5.60661	4.47933	6.23838	4.48799
2844.000	5.56353	4.41471	6.24228	4.56264
2845.000	5.55569	4.36949	6.20712	4.52363
2846.000	5.53807	4.45820	6.24814	4.50756
2847.000	5.58899	4.45388	6.21298	4.55896
2848.000	5.55961	4.47969	6.24619	4.45647
2849.000	5.51260	4.40131	6.20125	4.51386
2850.000	5.54003	4.42473	6.20907	4.54327
2851.000	5.54982	4.46598	6.26768	4.53098
2852.000	5.53219	4.49564	6.26377	4.54673
2853.000	5.57136	4.42252	6.18562	4.53365
2854.000	5.52827	4.36773	6.22275	4.52154
2855.000	5.60073	4.42230	6.19344	4.58861
2856.000	5.53415	4.43067	6.24814	4.54687
2857.000	5.56157	4.42260	6.26768	4.51132
2858.000	5.53611	4.37554	6.22470	4.53135
2859.000	5.58311	4.41063	6.22470	4.44486
2860.000	5.58311	4.39685	6.20712	4.52363
2861.000	5.62619	4.42211	6.25205	4.54094
2862.000	5.56549	4.39698	6.27745	4.42476
2863.000	5.55569	4.44232	6.20125	4.48634
2864.000	5.65164	4.44553	6.22665	4.53329
2865.000	5.56549	4.42847	6.24424	4.51742
2866.000	5.61053	4.46159	6.19735	4.49817
2867.000	5.64381	4.53020	6.11918	4.54207
2868.000	5.63598	4.51846	6.18758	4.60438
2869.000	5.60073	4.46757	6.16022	4.57907
2870.000	5.59682	4.47350	6.16608	4.66352
2871.000	5.64577	4.49674	6.13677	4.69914
2872.000	5.69080	4.61245	6.13090	4.67561
2873.000	5.57528	4.52680	6.17194	4.66936
2874.000	5.63011	4.53424	6.11918	4.75234
2875.000	5.64968	4.58524	6.09767	4.76039
2876.000	5.59682	4.57188	6.09767	4.74271
2877.000	5.57528	4.58582	6.10354	4.73676
2878.000	5.58703	4.65261	6.02925	4.73938
2879.000	5.54590	4.66277	6.01948	4.78465
2880.000	5.56157	4.68625	5.96081	4.81267
2881.000	5.51064	4.65911	5.91583	4.70301
2882.000	5.37154	4.63264	5.78083	4.71790
2883.000	5.35586	4.59930	5.72407	4.63185
2884.000	5.29706	4.43044	5.69080	4.42162
2885.000	5.14609	4.33104	5.69863	4.20503
2886.000	5.07941	4.16397	5.64381	4.07545
2887.000	4.93030	4.01110	5.59878	3.88857
2888.000	4.83609	3.78277	5.58507	3.61068
2889.000	4.69080	3.53278	5.51456	3.42370
2890.000	4.60635	3.21900	5.51260	3.25596
2891.000	4.43542	2.93298	5.50085	2.97961
2892.000	4.28800	2.68221	5.65752	2.40793
2893.000	4.10513	2.33427	5.87475	2.01971
2894.000	4.08939	2.03511	5.87475	2.27069
2895.000	3.97529	1.87879	6.00383	2.50124
2896.000	3.83164	1.65899	6.06640	2.95296
2897.000	3.80999	1.41505	6.07617	3.58979
2898.000	3.71353	1.40528	6.04098	4.20836
2899.000	3.75094	1.38538	6.12504	4.87996
2900.000	3.81589	1.34957	6.12699	5.82505
2901.000	3.73913	1.19889	6.13481	6.44679
2902.000	3.66234	0.99854	6.13286	7.30078
2903.000	3.65053	1.12359	6.08790	8.30137
2904.000	3.86313	1.14713	6.23642	9.22245
2905.000	3.91430	1.38710	6.41024	10.14342
2906.000	4.05595	1.78940	NaN	NaN
2907.000	4.16020	2.14193	NaN	NaN
2908.000	4.22902	2.53788	NaN	NaN
2909.000	4.34698	2.89970	NaN	NaN
2910.000	4.39612	3.42158	NaN	NaN
2911.000	4.41773	3.98245	NaN	NaN
2912.000	4.51991	4.51837	NaN	NaN
2913.000	4.44721	5.05849	NaN	NaN
2914.000	4.48455	5.72072	NaN	NaN
2915.000	4.56903	6.31237	NaN	NaN
2916.000	4.64171	7.07650	NaN	NaN
2917.000	4.74971	7.73245	NaN	NaN
2918.000	4.73204	8.42841	NaN	NaN
2919.000	4.86750	9.19717	NaN	NaN
2920.000	4.95974	9.88404	NaN	NaN
2921.000	NaN	NaN	NaN	NaN
2922.000	NaN	NaN	NaN	NaN
2923.000	NaN	NaN	NaN	NaN
2924.000	NaN	NaN	NaN	NaN
2925.000	NaN	NaN	NaN	NaN
2926.000	NaN	NaN	NaN	NaN
2927.000	NaN	NaN	NaN	NaN
2928.000	NaN	NaN	NaN	NaN
2929.000	NaN	NaN	NaN	NaN
2930.000	NaN	NaN	NaN	NaN
2931.000	NaN	NaN	NaN	NaN
2932.000	NaN	NaN	NaN	NaN
2933.000	NaN	NaN	NaN	NaN
2934.000	NaN	NaN	NaN	NaN
2935.000	NaN	NaN	NaN	NaN
2936.000	NaN	NaN	NaN	NaN
2937.000	NaN	NaN	NaN	NaN
2938.000	NaN	NaN	NaN	NaN
2939.000	NaN	NaN	NaN	NaN
2940.000	NaN	NaN	NaN	NaN
2941.000	NaN	NaN	NaN	NaN
2942.000	NaN	NaN	NaN	NaN
2943.000	NaN	NaN	NaN	NaN
2944.000	NaN	NaN	NaN	NaN
2945.000	NaN	NaN	NaN	NaN
2946.000	NaN	NaN	NaN	NaN
2947.000	NaN	NaN	NaN	NaN
2948.000	NaN	NaN	NaN	NaN
2949.000	NaN	NaN	NaN	NaN
2950.000	NaN	NaN	NaN	NaN
2951.000	NaN	NaN	NaN	NaN
2952.000	NaN	NaN	NaN	NaN
2953.000	NaN	NaN	NaN	NaN
2954.000	NaN	NaN	NaN	NaN
2955.000	NaN	NaN	NaN	NaN
2956.000	NaN	NaN	NaN	NaN
2957.000	NaN	NaN	NaN	NaN
2958.000	NaN	NaN	NaN	NaN
2959.000	NaN	NaN	NaN	NaN
2960.000	NaN	NaN	NaN	NaN
2961.000	NaN	NaN	NaN	NaN
2962.000	NaN	NaN	NaN	NaN
2963.000	NaN	NaN	NaN	NaN
2964.000	NaN	NaN	NaN	NaN
2965.000	NaN	NaN	NaN	NaN
2966.000	NaN	NaN	NaN	NaN
2967.000	NaN	NaN	NaN	NaN
2968.000	NaN	NaN	NaN	NaN
2969.000	NaN	NaN	NaN	NaN
2970.000	NaN	NaN	NaN	NaN
2971.000	NaN	NaN	NaN	NaN
2972.000	NaN	NaN	NaN	NaN
2973.000	NaN	NaN	NaN	NaN
2974.000	NaN	NaN	NaN	NaN
2975.000	NaN	NaN	NaN	NaN
2976.000	NaN	NaN	NaN	NaN
2977.000	NaN	NaN	NaN	NaN
2978.000	NaN	NaN	NaN	NaN
2979.000	NaN	NaN	NaN	NaN
2980.000	NaN	NaN	NaN	NaN
2981.000	NaN	NaN	NaN	NaN
2982.000	NaN	NaN	NaN	NaN
2983.000	NaN	NaN	NaN	NaN
2984.000	NaN	NaN	NaN	NaN
2985.000	NaN	NaN	NaN	NaN
2986.000	NaN	NaN	NaN	NaN
2987.000	NaN	NaN	NaN	NaN
2988.000	NaN	NaN	NaN	NaN
2989.000	NaN	NaN	NaN	NaN
2990.000	NaN	NaN	NaN	NaN
2991.000	NaN	NaN	NaN	NaN
2992.000	NaN	NaN	NaN	NaN
2993.000	NaN	NaN	NaN	NaN
2994.000	NaN	NaN	NaN	NaN
2995.000	NaN	NaN	NaN	NaN
2996.000	NaN	NaN	NaN	NaN
2997.000	NaN	NaN	NaN	NaN
2998.000	NaN	NaN	NaN	NaN
2999.000	NaN	NaN	NaN	NaN
3000.000	NaN	NaN	NaN	NaN
3001.000	NaN	NaN	NaN	NaN
3002.000	NaN	NaN	NaN	NaN
3003.000	NaN	NaN	NaN	NaN
3004.000	NaN	NaN	NaN	NaN
3005.000	NaN	NaN	NaN	NaN
3006.000	NaN	NaN	NaN	NaN
3007.000	NaN	NaN	NaN	NaN
3008.000	NaN	NaN	NaN	NaN
3009.000	NaN	NaN	NaN	NaN
3010.000	NaN	NaN	NaN	NaN
3011.000	NaN	NaN	NaN	NaN
3012.000	NaN	NaN	NaN	NaN
3013.000	NaN	NaN	NaN	NaN
3014.000	NaN	NaN	NaN	NaN
3015.000	NaN	NaN	NaN	NaN
3016.000	NaN	NaN	NaN	NaN
3017.000	NaN	NaN	NaN	NaN
3018.000	NaN	NaN	NaN	NaN
3019.000	NaN	NaN	NaN	NaN
3020.000	NaN	NaN	NaN	NaN
3021.000	NaN	NaN	NaN	NaN
3022.000	NaN	NaN	NaN	NaN
3023.000	NaN	NaN	NaN	NaN
3024.000	NaN	NaN	NaN	NaN
3025.000	NaN	NaN	NaN	NaN
3026.000	NaN	NaN	NaN	NaN
3027.000	NaN	NaN	NaN	NaN
3028.000	NaN	NaN	NaN	NaN
3029.000	NaN	NaN	NaN	NaN
3030.000	NaN	NaN	NaN	NaN
3031.000	NaN	NaN	NaN	NaN
3032.000	NaN	NaN	NaN	NaN
3033.000	NaN	NaN	NaN	NaN
3034.000	NaN	NaN	NaN	NaN
3035.000	NaN	NaN	NaN	NaN
3036.000	NaN	NaN	NaN	NaN
3037.000	NaN	NaN	NaN	NaN
3038.000	NaN	NaN	NaN	NaN
3039.000	NaN	NaN	NaN	NaN
3040.000	NaN	NaN	NaN	NaN
3041.000	NaN	NaN	NaN	NaN
3042.000	NaN	NaN	NaN	NaN
3043.000	NaN	NaN	NaN	NaN
3044.000	NaN	NaN	NaN	NaN
3045.000	NaN	NaN	NaN	NaN
3046.000	NaN	NaN	NaN	NaN
3047.000	NaN	NaN	NaN	NaN
3048.000	NaN	NaN	NaN	NaN
3049.000	NaN	NaN	NaN	NaN
3050.000	NaN	NaN	NaN	NaN
3051.000	NaN	NaN	NaN	NaN
3052.000	NaN	NaN	NaN	NaN
3053.000	NaN	NaN	NaN	NaN
3054.000	NaN	NaN	NaN	NaN
3055.000	NaN	NaN	NaN	NaN
3056.000	NaN	NaN	NaN	NaN
3057.000	NaN	NaN	NaN	NaN
3058.000	NaN	NaN	NaN	NaN
3059.000	NaN	NaN	NaN	NaN
3060.000	NaN	NaN	NaN	NaN
3061.000	NaN	NaN	NaN	NaN
3062.000	NaN	NaN	NaN	NaN
3063.000	NaN	NaN	NaN	NaN
3064.000	NaN	NaN	NaN	NaN
3065.000	NaN	NaN	NaN	NaN
3066.000	NaN	NaN	NaN	NaN
3067.000	NaN	NaN	NaN	NaN
3068.000	NaN	NaN	NaN	NaN
3069.000	NaN	NaN	NaN	NaN
3070.000	NaN	NaN	NaN	NaN
3071.000	NaN	NaN	NaN	NaN
3072.000	NaN	NaN	NaN	NaN
3073.000	NaN	NaN	NaN	NaN
3074.000	NaN	NaN	NaN	NaN
3075.000	NaN	NaN	NaN	NaN
3076.000	NaN	NaN	NaN	NaN
3077.000	NaN	NaN	NaN	NaN
3078.000	NaN	NaN	NaN	NaN
3079.000	NaN	NaN	NaN	NaN
3080.000	NaN	NaN	NaN	NaN
3081.000	NaN	NaN	NaN	NaN
3082.000	NaN	NaN	NaN	NaN
3083.000	NaN	NaN	NaN	NaN
3084.000	NaN	NaN	NaN	NaN
3085.000	NaN	NaN	NaN	NaN
3086.000	NaN	NaN	NaN	NaN
3087.000	NaN	NaN	NaN	NaN
3088.000	NaN	NaN	NaN	NaN
3089.000	NaN	NaN	NaN	NaN
3090.000	NaN	NaN	NaN	NaN
3091.000	NaN	NaN	NaN	NaN
3092.000	NaN	NaN	NaN	NaN
3093.000	NaN	NaN	NaN	NaN
3094.000	NaN	NaN	NaN	NaN
3095.000	NaN	NaN	NaN	NaN
3096.000	NaN	NaN	NaN	NaN
3097.000	NaN	NaN	NaN	NaN
3098.000	NaN	NaN	NaN	NaN
3099.000	NaN	NaN	NaN	NaN
3100.000	NaN	NaN	NaN	NaN
3101.000	NaN	NaN	NaN	NaN
3102.000	NaN	NaN	NaN	NaN
3103.000	NaN	NaN	NaN	NaN
3104.000	NaN	NaN	NaN	NaN
3105.000	NaN	NaN	NaN	NaN
3106.000	NaN	NaN	NaN	NaN
3107.000	NaN	NaN	NaN	NaN
3108.000	NaN	NaN	NaN	NaN
3109.000	NaN	NaN	NaN	NaN
3110.000	NaN	NaN	NaN	NaN
3111.000	NaN	NaN	NaN	NaN
3112.000	NaN	NaN	NaN	NaN
3113.000	NaN	NaN	NaN	NaN
3114.000	NaN	NaN	NaN	NaN
3115.000	NaN	NaN	NaN	NaN
3116.000	NaN	NaN	NaN	NaN
3117.000	NaN	NaN	NaN	NaN
3118.000	NaN	NaN	NaN	NaN
3119.000	NaN	NaN	NaN	NaN
3120.000	NaN	NaN	NaN	NaN
3121.000	NaN	NaN	NaN	NaN
3122.000	NaN	NaN	NaN	NaN
3123.000	NaN	NaN	NaN	NaN
3124.000	NaN	NaN	NaN	NaN
3125.000	NaN	NaN	NaN	NaN
3126.000	NaN	NaN	NaN	NaN
3127.000	NaN	NaN	NaN	NaN
3128.000	NaN	NaN	NaN	NaN
3129.000	NaN	NaN	NaN	NaN
3130.000	NaN	NaN	NaN	NaN
3131.000	NaN	NaN	NaN	NaN
3132.000	NaN	NaN	NaN	NaN
3133.000	NaN	NaN	NaN	NaN
3134.000	NaN	NaN	NaN	NaN
3135.000	NaN	NaN	NaN	NaN
3136.000	NaN	NaN	NaN	NaN
3137.000	NaN	NaN	NaN	NaN
3138.000	NaN	NaN	NaN	NaN
3139.000	NaN	NaN	NaN	NaN
3140.000	NaN	NaN	NaN	NaN
3141.000	NaN	NaN	NaN	NaN
3142.000	NaN	NaN	NaN	NaN
3143.000	NaN	NaN	NaN	NaN
3144.000	NaN	NaN	NaN	NaN
3145.000	NaN	NaN	NaN	NaN
3146.000	NaN	NaN	NaN	NaN
3147.000	NaN	NaN	NaN	NaN
3148.000	NaN	NaN	NaN	NaN
3149.000	NaN	NaN	NaN	NaN
3150.000	NaN	NaN	NaN	NaN
3151.000	NaN	NaN	NaN	NaN
3152.000	NaN	NaN	NaN	NaN
3153.000	NaN	NaN	NaN	NaN
3154.000	NaN	NaN	NaN	NaN
3155.000	NaN	NaN	NaN	NaN
3156.000	NaN	NaN	NaN	NaN
3157.000	NaN	NaN	NaN	NaN
3158.000	NaN	NaN	NaN	NaN
3159.000	NaN	NaN	NaN	NaN
3160.000	NaN	NaN	NaN	NaN
3161.000	NaN	NaN	NaN	NaN
3162.000	NaN	NaN	NaN	NaN
3163.000	NaN	NaN	NaN	NaN
3164.000	NaN	NaN	NaN	NaN
3165.000	NaN	NaN	NaN	NaN
3166.000	NaN	NaN	NaN	NaN
3167.000	NaN	NaN	NaN	NaN
3168.000	NaN	NaN	NaN	NaN
3169.000	NaN	NaN	NaN	NaN
3170.000	NaN	NaN	NaN	NaN
3171.000	NaN	NaN	NaN	NaN
3172.000	NaN	NaN	NaN	NaN
3173.000	NaN	NaN	NaN	NaN
3174.000	NaN	NaN	NaN	NaN
3175.000	NaN	NaN	NaN	NaN
3176.000	NaN	NaN	NaN	NaN
3177.000	NaN	NaN	NaN	NaN
3178.000	NaN	NaN	NaN	NaN
3179.000	NaN	NaN	NaN	NaN
3180.000	NaN	NaN	NaN	NaN
3181.000	NaN	NaN	NaN	NaN
3182.000	NaN	NaN	NaN	NaN
3183.000	NaN	NaN	NaN	NaN
3184.000	NaN	NaN	NaN	NaN
3185.000	NaN	NaN	NaN	NaN
3186.000	NaN	NaN	NaN	NaN
3187.000	NaN	NaN	NaN	NaN
3188.000	NaN	NaN	NaN	NaN
3189.000	NaN	NaN	NaN	NaN
3190.000	NaN	NaN	NaN	NaN
3191.000	NaN	NaN	NaN	NaN
3192.000	NaN	NaN	NaN	NaN
3193.000	NaN	NaN	NaN	NaN
3194.000	NaN	NaN	NaN	NaN
3195.000	NaN	NaN	NaN	NaN
3196.000	NaN	NaN	NaN	NaN
3197.000	NaN	NaN	NaN	NaN
3198.000	NaN	NaN	NaN	NaN
3199.000	NaN	NaN	NaN	NaN
3200.000	NaN	NaN	NaN	NaN
3201.000	NaN	NaN	NaN	NaN
3202.000	NaN	NaN	NaN	NaN
3203.000	NaN	NaN	NaN	NaN
3204.000	NaN	NaN	NaN	NaN
3205.000	NaN	NaN	NaN	NaN
3206.000	NaN	NaN	NaN	NaN
3207.000	NaN	NaN	NaN	NaN
3208.000	NaN	NaN	NaN	NaN
3209.000	NaN	NaN	NaN	NaN
3210.000	NaN	NaN	NaN	NaN
3211.000	NaN	NaN	NaN	NaN
3212.000	NaN	NaN	NaN	NaN
3213.000	NaN	NaN	NaN	NaN
3214.000	NaN	NaN	NaN	NaN
3215.000	NaN	NaN	NaN	NaN
3216.000	NaN	NaN	NaN	NaN
3217.000	NaN	NaN	NaN	NaN
3218.000	NaN	NaN	NaN	NaN
3219.000	NaN	NaN	NaN	NaN
3220.000	NaN	NaN	NaN	NaN
3221.000	NaN	NaN	NaN	NaN
3222.000	NaN	NaN	NaN	NaN
3223.000	NaN	NaN	NaN	NaN
3224.000	NaN	NaN	NaN	NaN
3225.000	NaN	NaN	NaN	NaN
3226.000	NaN	NaN	NaN	NaN
3227.000	NaN	NaN	NaN	NaN
3228.000	NaN	NaN	NaN	NaN
3229.000	NaN	NaN	NaN	NaN
3230.000	NaN	NaN	NaN	NaN
3231.000	NaN	NaN	NaN	NaN
3232.000	NaN	NaN	NaN	NaN
3233.000	NaN	NaN	NaN	NaN
3234.000	NaN	NaN	NaN	NaN
3235.000	NaN	NaN	NaN	NaN
3236.000	NaN	NaN	NaN	NaN
3237.000	NaN	NaN	NaN	NaN
3238.000	NaN	NaN	NaN	NaN
3239.000	NaN	NaN	NaN	NaN
3240.000	NaN	NaN	NaN	NaN
3241.000	NaN	NaN	NaN	NaN
3242.000	NaN	NaN	NaN	NaN
3243.000	NaN	NaN	NaN	NaN
3244.000	-0.78877	10.75313	NaN	NaN
3245.000	0.51796	9.69985	NaN	NaN
3246.000	1.54762	8.34478	NaN	NaN
3247.000	1.49625	7.92206	NaN	NaN
3248.000	1.28088	7.58691	NaN	NaN
3249.000	1.40932	7.21099	NaN	NaN
3250.000	1.26310	6.82544	NaN	NaN
3251.000	1.13465	6.44307	NaN	NaN
3252.000	1.20777	6.15797	NaN	NaN
3253.000	1.01014	5.79635	NaN	NaN
3254.000	0.88167	5.46560	NaN	NaN
3255.000	0.77098	5.10678	NaN	NaN
3256.000	0.73145	4.79289	NaN	NaN
3257.000	0.60889	4.49063	NaN	NaN
3258.000	0.50215	4.16830	NaN	NaN
3259.000	0.39935	3.83379	NaN	NaN
3260.000	0.28469	3.60205	NaN	NaN
3261.000	0.22538	3.33646	NaN	NaN
3262.000	0.03954	2.99733	NaN	NaN
3263.000	0.01779	2.83264	NaN	NaN
3264.000	-0.04349	2.55870	NaN	NaN
3265.000	-0.19968	2.30847	NaN	NaN
3266.000	-0.23526	2.11379	NaN	NaN
3267.000	-0.23724	1.81176	NaN	NaN
3268.000	-0.31434	1.64081	NaN	NaN
3269.000	-0.32422	1.46388	NaN	NaN
3270.000	-0.38551	1.27101	NaN	NaN
3271.000	-0.36574	1.07017	NaN	NaN
3272.000	-0.43493	0.94487	NaN	NaN
3273.000	-0.36772	0.76388	NaN	NaN
3274.000	-0.43098	0.54905	NaN	NaN
3275.000	-0.42702	0.45954	NaN	NaN
3276.000	-0.42702	0.32029	NaN	NaN
3277.000	-0.42505	0.22082	6.75947	7.30546
3278.000	-0.49819	0.04774	4.73793	6.89388
3279.000	-0.46854	-0.04576	2.64138	6.38062
3280.000	-0.43493	-0.12931	2.70845	6.00514
3281.000	-0.49226	-0.28249	2.65124	5.65729
3282.000	-0.54761	-0.38394	2.60390	5.36018
3283.000	-0.55157	-0.50528	2.72620	4.99896
3284.000	-0.55947	-0.64452	2.67492	4.73084
3285.000	-0.56540	-0.76585	2.59206	4.48631
3286.000	-0.62273	-0.82153	2.64730	4.14426
3287.000	-0.69192	-0.95477	2.58219	3.86166
3288.000	-0.69587	-1.05023	2.65519	3.62199
3289.000	-0.66424	-1.16955	2.59600	3.33109
3290.000	-0.68401	-1.21727	2.56246	3.15288
3291.000	-0.65634	-1.36043	2.49340	2.95089
3292.000	-0.71959	-1.45385	2.36710	2.72710
3293.000	-0.69982	-1.48567	2.62560	2.44494
3294.000	-0.69192	-1.61289	2.68083	2.19882
3295.000	-0.67413	-1.67451	2.46775	2.09200
3296.000	-0.73145	-1.66654	2.53287	1.90729
3297.000	-0.74133	-1.77187	2.61573	1.74635
3298.000	-0.74331	-1.77386	2.57035	1.52599
3299.000	-0.72750	-1.90701	2.57627	1.43859
3300.000	-0.75122	-1.84937	2.44407	1.31756
3301.000	-0.71366	-1.89311	2.48354	1.12681
3302.000	-0.65831	-1.95473	2.53287	0.97775
3303.000	-0.75517	-1.98052	2.51116	0.87842
3304.000	-0.66227	-1.84544	2.33158	0.85469
3305.000	-0.69192	-1.94081	2.46380	0.60818
3306.000	-0.68401	-1.87325	2.52497	0.46507
3307.000	-0.64250	-1.88519	2.58022	0.29811
3308.000	-0.60494	-1.89116	2.52103	0.30011
3309.000	-0.56145	-1.87925	2.59206	0.14111
3310.000	-0.46656	-1.79979	2.54076	-0.02981
3311.000	-0.47249	-1.77991	2.49143	-0.13118
3312.000	-0.45470	-1.76402	2.49932	-0.18484
3313.000	-0.51796	-1.73618	2.64138	-0.38752
3314.000	-0.45272	-1.73023	2.39276	-0.32797
3315.000	-0.43691	-1.65669	2.59206	-0.63197
3316.000	-0.36179	-1.69050	2.64730	-0.69950
3317.000	-0.36376	-1.62689	2.46183	-0.70556
3318.000	-0.37365	-1.61297	2.78932	-0.95570
3319.000	-0.39144	-1.58514	2.60390	-0.98564
3320.000	-0.34399	-1.59906	2.65716	-1.07302
3321.000	-0.39737	-1.57917	2.73607	-1.25370
3322.000	-0.31039	-1.56726	2.48156	-1.15860
3323.000	-0.34795	-1.54340	2.74593	-1.39073
3324.000	-0.34202	-1.52750	2.48551	-1.29964
3325.000	-0.35783	-1.57918	2.56838	-1.41675
3326.000	-0.30446	-1.51955	2.43223	-1.39505
3327.000	-0.34004	-1.53744	2.51905	-1.52406
3328.000	-0.25108	-1.50564	2.57035	-1.66699
3329.000	-0.34004	-1.48376	2.54076	-1.64915
3330.000	-0.31236	-1.51557	2.39671	-1.67515
3331.000	-0.32422	-1.51955	2.27828	-1.60975
3332.000	-0.32027	-1.51160	2.55457	-1.87351
3333.000	-0.39935	-1.49170	2.12430	-1.61587
3334.000	-0.36574	-1.49171	2.12628	-1.72512
3335.000	-0.37167	-1.54340	2.11246	-1.72911
3336.000	-0.39539	-1.52550	2.22499	-1.89381
3337.000	-0.34993	-1.51159	1.95647	-1.71537
3338.000	-0.29062	-1.46786	2.02953	-1.77290
3339.000	-0.35783	-1.50364	1.94462	-1.79285
3340.000	-0.34795	-1.50165	1.91105	-1.80481
3341.000	-0.30248	-1.49172	1.86563	-1.76314
3342.000	-0.23724	-1.53348	1.92488	-1.88424
3343.000	-0.29655	-1.50762	1.79256	-1.75924
3344.000	-0.24119	-1.50366	1.85971	-1.94191
3345.000	-0.24317	-1.54540	1.78861	-1.86055
3346.000	-0.21747	-1.53547	1.79256	-1.87644
3347.000	-0.14037	-1.59511	1.73528	-1.88841
3348.000	-0.23131	-1.51360	1.77083	-1.96981
3349.000	-0.17595	-1.48776	1.70762	-1.88050
3350.000	-0.17002	-1.49969	1.65034	-1.85870
3351.000	-0.17595	-1.51559	1.63256	-1.87461
3352.000	-0.19375	-1.50167	1.59503	-1.91437
3353.000	-0.16409	-1.44203	1.61676	-1.93024
3354.000	-0.15223	-1.46191	1.54762	-1.89058
3355.000	-0.16607	-1.49372	1.49428	-1.85685
3356.000	-0.23131	-1.44004	1.50218	-1.89062
3357.000	-0.15025	-1.44998	1.50020	-1.73168
3358.000	-0.17002	-1.56330	1.44686	-1.78338
3359.000	-0.23131	-1.59709	1.43896	-1.74961
3360.000	-0.24317	-1.56330	1.37573	-1.70395
3361.000	-0.19375	-1.53944	1.36387	-1.61851
3362.000	-0.31632	-1.55931	1.37573	-1.57280
3363.000	-0.24119	-1.49769	1.39944	-1.63240
3364.000	-0.27678	-1.62293	1.38363	-1.55292
3365.000	-0.20561	-1.57523	1.38363	-1.51913
3366.000	-0.22340	-1.60504	1.40142	-1.50918
3367.000	-0.21747	-1.61896	1.31448	-1.51719
3368.000	-0.26294	-1.56528	1.32040	-1.49532
3369.000	-0.29852	-1.57522	1.30262	-1.46750
3370.000	-0.28469	-1.64082	1.34412	-1.46748
3371.000	-0.32422	-1.58316	1.30855	-1.45160
3372.000	-0.32620	-1.56726	1.31843	-1.39395
3373.000	-0.33213	-1.57720	1.29472	-1.46751
3374.000	-0.33609	-1.54539	1.27496	-1.38801
3375.000	-0.25701	-1.57920	1.29472	-1.46552
3376.000	-0.28864	-1.42810	1.26705	-1.40988
3377.000	-0.29852	-1.47184	1.27100	-1.42777
3378.000	-0.25899	-1.57125	1.27298	-1.43373
3379.000	-0.29259	-1.55534	1.32633	-1.47147
3380.000	-0.26096	-1.55534	1.29669	-1.39794
3381.000	-0.31632	-1.55931	1.30657	-1.48340
3382.000	-0.29259	-1.54937	1.26112	-1.46156
3383.000	-0.29852	-1.57124	1.25520	-1.49933
3384.000	-0.30248	-1.60106	1.27100	-1.45758
3385.000	-0.32422	-1.54539	1.25717	-1.50529
3386.000	-0.30643	-1.63087	1.23148	-1.48941
3387.000	-0.32620	-1.52949	1.25915	-1.53709
3388.000	-0.22933	-1.55534	1.20975	-1.51128
3389.000	-0.26887	-1.51160	1.23939	-1.55102
3390.000	-0.32225	-1.54341	1.26112	-1.59076
3391.000	-0.28666	-1.52552	1.19789	-1.59079
3392.000	-0.21549	-1.58119	1.25520	-1.59275
3393.000	-0.22933	-1.52553	1.24334	-1.61859
3394.000	-0.29259	-1.45196	1.20184	-1.60470
3395.000	-0.28469	-1.55136	1.19987	-1.61265
3396.000	-0.21352	-1.54739	1.21765	-1.58084
3397.000	-0.23131	-1.56528	1.21567	-1.61662
3398.000	-0.29259	-1.54739	1.23939	-1.58679
3399.000	-0.35190	-1.49966	1.23148	-1.63052
3400.000	-0.23922	-1.48179	1.22160	-1.58879
3401.000	-0.31829	-1.52750	1.23939	-1.60269
3402.000	-0.28666	-1.52552	1.23148	-1.59077
3403.000	-0.24910	-1.50763	1.20777	-1.63451
3404.000	-0.21549	-1.53547	1.18010	-1.63651
3405.000	-0.22142	-1.45594	1.21765	-1.66233
3406.000	-0.22933	-1.53547	1.19394	-1.60073
3407.000	-0.21352	-1.57721	1.20579	-1.61265
3408.000	-0.23724	-1.54143	1.17022	-1.62261
3409.000	-0.22340	-1.52950	1.20579	-1.66631
3410.000	-0.25701	-1.49371	1.20975	-1.68817
3411.000	-0.17991	-1.51559	1.17418	-1.63652
3412.000	-0.15025	-1.54541	1.17813	-1.62658
3413.000	-0.15618	-1.54144	1.19394	-1.63651
3414.000	-0.20956	-1.60107	1.21567	-1.63451
3415.000	-0.15421	-1.57126	1.16627	-1.64845
3416.000	-0.17793	-1.49571	1.20579	-1.63849
3417.000	-0.15421	-1.49174	1.19196	-1.67228
3418.000	-0.21154	-1.56529	1.19789	-1.61663
3419.000	-0.17200	-1.49969	1.26705	-1.64838
3420.000	-0.19572	-1.52354	1.20382	-1.61265
3421.000	-0.19177	-1.57920	1.23148	-1.69014
3422.000	-0.16409	-1.51559	1.20184	-1.62060
3423.000	-0.20165	-1.50167	1.21567	-1.62457
3424.000	-0.22142	-1.50763	1.26508	-1.71397
3425.000	-0.14432	-1.51162	1.19987	-1.67625
3426.000	-0.14827	-1.50764	1.19591	-1.66035
3427.000	-0.20758	-1.51161	1.21567	-1.67226
3428.000	-0.14037	-1.52553	1.22753	-1.71796
3429.000	-0.12850	-1.54939	1.19987	-1.71003
3430.000	-0.12257	-1.55337	1.17813	-1.68819
3431.000	-0.09490	-1.46589	1.16034	-1.68223
3432.000	-0.13444	-1.56728	1.16429	-1.67826
3433.000	-0.10280	-1.61698	1.14848	-1.64448
3434.000	-0.07710	-1.53945	1.18208	-1.66632
3435.000	-0.07908	-1.55337	1.15837	-1.65640
3436.000	-0.07908	-1.55933	1.17615	-1.64447
3437.000	-0.11269	-1.64083	1.15244	-1.67032
3438.000	-0.04349	-1.60506	1.14651	-1.70212
3439.000	-0.06326	-1.58319	1.14256	-1.62660
3440.000	-0.10083	-1.68059	1.18208	-1.63453
3441.000	-0.14432	-1.54740	1.18406	-1.63651
3442.000	-0.11467	-1.57523	1.15046	-1.62262
3443.000	-0.09687	-1.55536	1.19789	-1.64644
3444.000	-0.12455	-1.51162	1.19789	-1.59874
3445.000	-0.15421	-1.59909	1.18208	-1.61664
3446.000	-0.00395	-1.56132	1.14256	-1.63852
3447.000	-0.08106	-1.60704	1.16825	-1.64050
3448.000	-0.07117	-1.58915	1.10698	-1.60476
3449.000	-0.04547	-1.59909	1.13663	-1.56101
3450.000	-0.04547	-1.58716	1.17022	-1.59280
3451.000	-0.08699	-1.59511	1.14453	-1.58089
3452.000	-0.05338	-1.67065	1.11489	-1.56103
3453.000	-0.05733	-1.66071	1.12675	-1.60077
3454.000	-0.00198	-1.62692	1.11489	-1.60674
3455.000	-0.07513	-1.70047	1.13860	-1.60474
3456.000	-0.12060	-1.68059	1.09710	-1.60277
3457.000	-0.13839	-1.68257	1.14651	-1.57890
3458.000	-0.16211	-1.65474	1.07734	-1.59483
3459.000	-0.09687	-1.71438	1.13465	-1.59480
3460.000	-0.11269	-1.63288	1.12279	-1.58487
3461.000	-0.03954	-1.61102	1.12675	-1.55903
3462.000	-0.12060	-1.64282	1.15441	-1.58287
3463.000	-0.11664	-1.67661	1.14058	-1.52722
3464.000	-0.14827	-1.71636	1.11291	-1.57494
3465.000	-0.08501	-1.67860	1.13465	-1.61468
3466.000	-0.12257	-1.69251	1.14058	-1.54312
3467.000	-0.06920	-1.71438	1.08920	-1.58688
3468.000	-0.09885	-1.70245	1.14256	-1.60076
3469.000	0.00989	-1.71637	1.11094	-1.62662
3470.000	-0.06524	-1.70047	1.15244	-1.63653
3471.000	-0.07513	-1.74618	1.14256	-1.61070
3472.000	-0.08106	-1.77202	1.12082	-1.63854
3473.000	0.00791	-1.69649	1.09513	-1.63656
3474.000	-0.02966	-1.73823	1.09315	-1.60874
3475.000	-0.05536	-1.71836	1.12082	-1.65443
3476.000	-0.04152	-1.73028	1.11291	-1.63854
3477.000	-0.14234	-1.75612	1.10698	-1.65643
3478.000	-0.06920	-1.75016	1.10698	-1.61867
3479.000	-0.07513	-1.72829	1.13070	-1.63654
3480.000	-0.12850	-1.77599	1.09513	-1.65047
3481.000	-0.03756	-1.71637	1.12477	-1.58487
3482.000	-0.14827	-1.70444	1.12082	-1.61469
3483.000	-0.06920	-1.76805	1.08129	-1.61073
3484.000	-0.14630	-1.74220	1.09117	-1.65644
3485.000	-0.13641	-1.74817	1.14848	-1.63852
3486.000	-0.08106	-1.78196	1.10698	-1.62463
3487.000	-0.05338	-1.79786	1.12279	-1.60077
3488.000	-0.03756	-1.73227	1.10698	-1.61668
3489.000	-0.03954	-1.76606	1.07339	-1.64055
3490.000	-0.03559	-1.75811	1.12477	-1.64450
3491.000	-0.03954	-1.71239	1.10698	-1.61469
3492.000	-0.03954	-1.71836	1.09513	-1.62662
3493.000	-0.00989	-1.75612	1.07734	-1.63856
3494.000	-0.05140	-1.75612	1.06943	-1.63658
3495.000	-0.03559	-1.77401	1.11489	-1.62264
3496.000	-0.05140	-1.74420	1.10501	-1.61668
3497.000	-0.03559	-1.72830	1.07141	-1.59086
3498.000	-0.06920	-1.75215	1.09513	-1.63259
3499.000	-0.09687	-1.73426	1.03584	-1.61076
3500.000	0.04547	-1.73823	1.04769	-1.60677
3501.000	-0.06524	-1.78196	1.10501	-1.64451
3502.000	-0.00791	-1.73426	1.08129	-1.64253
3503.000	-0.06920	-1.72631	1.02595	-1.64455
3504.000	0.00000	-1.79190	1.06548	-1.67434
3505.000	-0.02570	-1.82171	1.06943	-1.65446
3506.000	-0.06722	-1.79587	1.02793	-1.63262
3507.000	0.00198	-1.81575	1.04177	-1.66044
3508.000	0.01779	-1.83960	1.01410	-1.63064
3509.000	0.02768	-1.74022	1.04177	-1.63460
3510.000	0.04349	-1.79190	1.06548	-1.63857
3511.000	0.09885	-1.72432	1.05362	-1.61671
3512.000	-0.01779	-1.74221	1.08129	-1.63856
3513.000	0.02768	-1.77997	1.04374	-1.63261
3514.000	0.14432	-1.73028	1.08722	-1.70215
3515.000	0.06524	-1.74221	1.04572	-1.65845
3516.000	0.03954	-1.73625	1.07141	-1.65844
3517.000	0.06920	-1.82171	1.05165	-1.66242
3518.000	0.10478	-1.78991	1.01212	-1.59288
3519.000	-0.01186	-1.77401	1.06943	-1.64850
3520.000	0.08106	-1.76208	1.05362	-1.69621
3521.000	0.07513	-1.81575	1.07734	-1.72402
3522.000	0.00198	-1.73227	1.06943	-1.71806
3523.000	0.03954	-1.77600	1.06153	-1.69819
3524.000	0.00989	-1.81774	1.09117	-1.68625
3525.000	0.00593	-1.77799	1.01805	-1.69026
3526.000	0.12850	-1.76009	1.05362	-1.68627
3527.000	0.03361	-1.79786	1.02003	-1.70417
3528.000	0.09490	-1.78395	1.02991	-1.66641
3529.000	0.10280	-1.79786	1.01805	-1.71809
3530.000	0.10083	-1.79190	1.04177	-1.67236
3531.000	0.09687	-1.79587	1.05758	-1.69620
3532.000	0.08106	-1.74221	1.01014	-1.65449
3533.000	0.10676	-1.78196	1.03386	-1.70615
3534.000	0.02570	-1.76805	1.04769	-1.69224
3535.000	0.11862	-1.73624	1.02200	-1.69026
3536.000	0.11071	-1.78593	1.01805	-1.71014
3537.000	0.12455	-1.77202	1.00224	-1.67835
3538.000	0.16014	-1.76208	1.04177	-1.69423
3539.000	0.08897	-1.76010	1.01805	-1.69821
3540.000	0.10280	-1.83959	1.04967	-1.72403
3541.000	0.12455	-1.81177	1.03781	-1.70416
3542.000	0.12850	-1.84555	1.04967	-1.72403
3543.000	0.14630	-1.81972	1.07536	-1.70812
3544.000	0.14432	-1.81177	1.05955	-1.69024
3545.000	0.13048	-1.82767	1.06943	-1.70613
3546.000	0.09687	-1.78792	1.03781	-1.63063
3547.000	0.12257	-1.81177	1.04177	-1.70218
3548.000	0.15816	-1.80779	0.99829	-1.67239
3549.000	0.05931	-1.73823	1.02200	-1.67834
3550.000	0.01779	-1.82370	1.00421	-1.69425
3551.000	0.07513	-1.89921	1.05758	-1.74191
3552.000	0.08303	-1.82568	1.02793	-1.71212
3553.000	0.06129	-1.82171	0.98050	-1.70022
3554.000	0.06326	-1.85947	0.98840	-1.73201
3555.000	0.05338	-1.87139	1.01212	-1.69822
3556.000	0.04547	-1.77202	1.01805	-1.71610
3557.000	0.06129	-1.90319	1.01805	-1.69225
3558.000	0.14037	-1.83760	1.09315	-1.70811
3559.000	0.05140	-1.83562	1.03781	-1.73000
3560.000	0.05338	-1.82767	1.04374	-1.75384
3561.000	0.03756	-1.84755	1.04177	-1.70416
3562.000	0.06129	-1.89723	1.04177	-1.69621
3563.000	0.06524	-1.92902	1.08524	-1.76773
3564.000	0.12060	-1.90716	1.02398	-1.73994
3565.000	0.09885	-1.91710	1.03584	-1.71609
3566.000	0.04745	-1.88729	1.00619	-1.74592
3567.000	0.01977	-1.80382	1.03584	-1.75186
3568.000	0.04745	-1.86146	1.02991	-1.68628
3569.000	0.14037	-1.85152	1.02793	-1.70218
3570.000	0.04547	-1.86941	0.99038	-1.71413
3571.000	0.06129	-1.88729	1.00026	-1.73996
3572.000	0.00000	-1.86146	1.00817	-1.74790
3573.000	0.02372	-1.88332	0.96864	-1.71613
3574.000	0.02570	-1.86941	1.02991	-1.72206
3575.000	0.06524	-1.83960	0.99631	-1.70419
3576.000	-0.03954	-1.88729	1.02793	-1.77571
3577.000	0.02175	-1.81773	1.02595	-1.75187
3578.000	0.08699	-1.85549	1.06548	-1.73793
3579.000	0.01384	-1.85947	1.02398	-1.74591
3580.000	0.01779	-1.80581	1.02398	-1.75982
3581.000	0.02570	-1.85748	0.99631	-1.72207
3582.000	0.16014	-1.82568	1.01607	-1.76181
3583.000	0.08699	-1.79985	0.98643	-1.74791
3584.000	0.07908	-1.87338	1.01212	-1.73200
3585.000	0.10280	-1.84357	1.01212	-1.77970
3586.000	0.05931	-1.77798	1.00421	-1.71213
3587.000	0.18386	-1.83164	1.00619	-1.76380
3588.000	0.07513	-1.75811	1.01805	-1.76181
3589.000	0.13048	-1.83363	0.99433	-1.73002
3590.000	0.07315	-1.82171	1.01607	-1.76777
3591.000	0.11664	-1.76009	0.99236	-1.76580
3592.000	0.07315	-1.74817	1.00817	-1.78765
3593.000	0.07117	-1.74022	1.02200	-1.78565
3594.000	0.12455	-1.83363	0.98445	-1.77375
3595.000	0.13641	-1.84357	0.96469	-1.78370
3596.000	0.16409	-1.82369	0.99038	-1.77375
3597.000	0.16804	-1.85549	1.01410	-1.78367
3598.000	0.08897	-1.82767	1.01805	-1.79758
3599.000	0.05338	-1.84556	1.02200	-1.81745
3600.000	0.14827	-1.84555	0.99829	-1.79759
3601.000	0.15025	-1.88132	1.03386	-1.79161
3602.000	0.16211	-1.79388	0.99631	-1.80752
3603.000	0.12257	-1.73823	1.00026	-1.81348
3604.000	0.14827	-1.80978	0.96864	-1.81549
3605.000	0.11269	-1.86145	1.00421	-1.80553
3606.000	0.14630	-1.82369	0.99236	-1.73996
3607.000	0.05140	-1.77798	0.97852	-1.83337
3608.000	0.09292	-1.80978	1.02003	-1.83334
3609.000	0.10478	-1.77003	1.02200	-1.78764
3610.000	0.10676	-1.81972	0.98840	-1.78170
3611.000	0.17398	-1.78990	0.99236	-1.83535
3612.000	0.18188	-1.77798	0.93702	-1.74993
3613.000	0.11862	-1.77401	0.98840	-1.81945
3614.000	0.12455	-1.72829	0.96271	-1.74793
3615.000	0.20363	-1.78592	0.94887	-1.78569
3616.000	0.17398	-1.73425	0.98050	-1.78170
3617.000	0.13444	-1.76606	0.96073	-1.79363
3618.000	0.16607	-1.77997	1.01410	-1.76181
3619.000	0.14630	-1.77202	1.02793	-1.79558
3620.000	0.12850	-1.73823	0.98050	-1.77773
3621.000	0.10280	-1.79587	0.98445	-1.78368
3622.000	0.07513	-1.77798	1.00619	-1.77175
3623.000	0.16607	-1.80183	0.99631	-1.77772
3624.000	0.22142	-1.85548	1.01607	-1.76380
3625.000	0.16607	-1.76804	0.98840	-1.78368
3626.000	0.15223	-1.76009	1.02200	-1.78168
3627.000	0.19177	-1.76406	1.00224	-1.77175
3628.000	0.14630	-1.80183	0.99038	-1.80753
3629.000	0.19375	-1.80978	0.97062	-1.83337
3630.000	0.11862	-1.83363	0.96469	-1.76382
3631.000	0.20165	-1.86343	0.92318	-1.77974
3632.000	0.16409	-1.82766	0.96469	-1.79562
3633.000	0.16014	-1.84158	0.97457	-1.80754
3634.000	0.10083	-1.80978	0.95085	-1.77178
3635.000	0.18584	-1.86741	0.93306	-1.78371
3636.000	0.19375	-1.80183	0.96666	-1.81152
3637.000	0.16607	-1.84158	0.94887	-1.79364
3638.000	0.21154	-1.79984	0.94295	-1.86121
3639.000	0.09490	-1.80183	0.94690	-1.77576
3640.000	0.13048	-1.85947	0.91527	-1.80757
3641.000	0.15025	-1.78394	0.93702	-1.78570
3642.000	0.15816	-1.89325	0.97062	-1.82344
3643.000	0.15223	-1.78990	0.99038	-1.82740
3644.000	0.20956	-1.86741	0.94887	-1.79364
3645.000	0.18188	-1.82965	1.00421	-1.82342
3646.000	0.19770	-1.79785	0.93306	-1.82346
3647.000	0.21747	-1.77996	0.92318	-1.80558
3648.000	0.18386	-1.83164	1.00026	-1.81150
3649.000	0.13641	-1.83959	0.96864	-1.81748
3650.000	0.11664	-1.86145	0.95283	-1.83934
3651.000	0.15421	-1.84555	0.93702	-1.77576
3652.000	0.06326	-1.88729	0.97852	-1.79561
3653.000	0.16409	-1.85946	0.93702	-1.80358
3654.000	0.10478	-1.89524	0.92713	-1.82743
3655.000	0.17793	-1.78394	0.90539	-1.79565
3656.000	0.18979	-1.88927	0.92120	-1.82545
3657.000	0.14037	-1.80978	0.90144	-1.78174
3658.000	0.18781	-1.87138	0.90934	-1.79763
3659.000	0.12455	-1.83959	0.91330	-1.79565
3660.000	0.23526	-1.78592	0.92120	-1.80359
3661.000	0.21747	-1.87337	0.92318	-1.85327
3662.000	0.20758	-1.84356	0.86388	-1.74599
3663.000	0.16409	-1.79388	0.90144	-1.81155
3664.000	0.15816	-1.84754	0.94492	-1.78569
3665.000	0.21352	-1.85350	0.95283	-1.86716
3666.000	0.18188	-1.82965	0.88167	-1.83342
3667.000	0.12257	-1.79388	0.87574	-1.77778
3668.000	0.12455	-1.78196	0.85993	-1.79567
3669.000	0.20956	-1.86939	0.88563	-1.79963
3670.000	0.16804	-1.79785	0.90539	-1.81353
3671.000	0.17595	-1.84754	0.89749	-1.86123
3672.000	0.16409	-1.80183	0.88563	-1.84931
3673.000	0.16804	-1.79189	0.89156	-1.82546
3674.000	0.15025	-1.79984	0.92713	-1.82942
3675.000	0.18188	-1.80779	0.91330	-1.86321
3676.000	0.20561	-1.79785	0.90539	-1.84135
3677.000	0.22735	-1.77201	0.91330	-1.82148
3678.000	0.17200	-1.81971	0.90144	-1.82148
3679.000	0.20363	-1.81772	0.94097	-1.80954
3680.000	0.22735	-1.77002	0.87574	-1.78771
3681.000	0.24317	-1.72629	0.88958	-1.79963
3682.000	0.20561	-1.82369	0.89749	-1.79565
3683.000	0.20956	-1.82369	0.87574	-1.80163
3684.000	0.12257	-1.79189	0.88760	-1.82547
3685.000	0.20363	-1.79189	0.89156	-1.81155
3686.000	0.18584	-1.81176	0.87179	-1.81554
3687.000	0.17200	-1.82170	0.87179	-1.79765
3688.000	0.19177	-1.80779	0.88167	-1.79367
3689.000	0.28073	-1.77001	0.89946	-1.79764
3690.000	0.15025	-1.77202	0.90934	-1.77975
3691.000	0.21747	-1.84356	0.87377	-1.75989
3692.000	0.20956	-1.84753	0.86388	-1.74002
3693.000	0.19770	-1.77797	0.86191	-1.76189
3694.000	0.23922	-1.80778	0.89156	-1.75194
3695.000	0.27282	-1.81374	0.88760	-1.75790
3696.000	0.24712	-1.90516	0.90342	-1.81950
3697.000	0.19572	-1.85151	0.85005	-1.70028
3698.000	0.17200	-1.84356	0.88563	-1.74001
3699.000	0.16409	-1.85151	0.86784	-1.72810
3700.000	0.22340	-1.85151	0.89156	-1.77976
3701.000	0.25899	-1.82368	0.83819	-1.77978
3702.000	0.17595	-1.87139	0.83819	-1.72612
3703.000	0.18386	-1.83760	0.84412	-1.78972
3704.000	0.19177	-1.85350	0.84807	-1.75593
3705.000	0.24515	-1.74219	0.87772	-1.76188
3706.000	0.17398	-1.78394	0.82040	-1.76389
3707.000	0.22933	-1.81573	0.81842	-1.78973
3708.000	0.23131	-1.78195	0.78680	-1.72615
3709.000	0.21747	-1.81573	0.86191	-1.71816
3710.000	0.28271	-1.83957	0.86784	-1.72214
3711.000	0.29457	-1.80579	0.86586	-1.74002
3712.000	0.23329	-1.80182	0.82040	-1.68638
3713.000	0.19770	-1.83760	0.78877	-1.70230
3714.000	0.18979	-1.80978	0.87179	-1.72015
3715.000	0.22142	-1.88927	0.80261	-1.72813
3716.000	0.20165	-1.72033	0.82831	-1.76985
3717.000	0.28864	-1.80181	0.81052	-1.67844
3718.000	0.19177	-1.81772	0.77691	-1.71621
3719.000	0.19572	-1.77798	0.83226	-1.72016
3720.000	0.12060	-1.73624	0.78877	-1.75993
3721.000	0.17002	-1.81971	0.78877	-1.70031
3722.000	0.21352	-1.84753	0.77691	-1.73609
3723.000	0.29457	-1.78790	0.78680	-1.72018
3724.000	0.21549	-1.80580	0.79668	-1.69037
3725.000	0.15223	-1.77798	0.79866	-1.74403
3726.000	0.29852	-1.76405	0.78284	-1.69832
3727.000	0.22933	-1.81772	0.78482	-1.65261
3728.000	0.12653	-1.82171	0.78087	-1.68839
3729.000	0.17991	-1.83760	0.82435	-1.71619
3730.000	0.25305	-1.77996	0.77889	-1.70826
3731.000	0.19177	-1.78195	0.80656	-1.73210
3732.000	0.25899	-1.78989	0.85203	-1.73605
3733.000	0.22735	-1.77201	0.81249	-1.76588
3734.000	0.21549	-1.74816	0.82831	-1.72812
3735.000	0.18386	-1.80779	0.80854	-1.75595
3736.000	0.33609	-1.77199	0.78284	-1.76391
3737.000	0.19770	-1.77996	0.82633	-1.77383
3738.000	0.23329	-1.85151	0.81842	-1.75992
3739.000	0.22933	-1.77996	0.83028	-1.73408
3740.000	0.23131	-1.76605	0.84017	-1.76786
3741.000	0.25503	-1.80381	0.80854	-1.71819
3742.000	0.20165	-1.80182	0.79668	-1.74602
3743.000	0.19968	-1.88728	0.81052	-1.75197
3744.000	0.20561	-1.76804	0.78680	-1.76391
3745.000	0.23329	-1.76207	0.79273	-1.74403
3746.000	0.19375	-1.80381	0.76703	-1.73609
3747.000	0.15816	-1.80978	0.79668	-1.71819
3748.000	0.17200	-1.77997	0.84807	-1.68836
3749.000	0.15618	-1.78593	0.81447	-1.72216
3750.000	0.15223	-1.77599	0.84214	-1.71619
3751.000	0.18188	-1.80381	0.76901	-1.66852
3752.000	0.17991	-1.78195	0.78087	-1.72615
3753.000	0.12455	-1.81177	0.78087	-1.72615
3754.000	0.14234	-1.72233	0.80459	-1.71421
3755.000	0.18979	-1.82965	0.78877	-1.73012
3756.000	0.13444	-1.78394	0.80459	-1.75396
3757.000	0.11071	-1.86742	0.78284	-1.69832
3758.000	0.16607	-1.77997	0.81052	-1.70427
3759.000	0.19968	-1.81574	0.77494	-1.74006
3760.000	0.22340	-1.78195	0.81249	-1.70030
3761.000	0.16804	-1.72630	0.78680	-1.71422
3762.000	0.22142	-1.84356	0.79866	-1.73012
3763.000	0.11071	-1.79388	0.82435	-1.69831
3764.000	0.18386	-1.81375	0.77296	-1.70031
3765.000	0.16211	-1.82170	0.81645	-1.68638
3766.000	0.23526	-1.81573	0.84017	-1.71817
3767.000	0.23922	-1.73623	0.81249	-1.69235
3768.000	0.22142	-1.78592	0.80656	-1.69633
3769.000	0.16804	-1.77003	0.81052	-1.72216
3770.000	0.21352	-1.81176	0.80459	-1.70626
3771.000	0.14037	-1.81177	0.77889	-1.68839
3772.000	0.05931	-1.72233	0.83226	-1.70625
3773.000	0.23922	-1.71437	0.80063	-1.69633
3774.000	0.18188	-1.81375	0.83226	-1.70228
3775.000	0.11467	-1.73823	0.81842	-1.67446
3776.000	0.16014	-1.81375	0.79470	-1.65857
3777.000	0.13839	-1.79189	0.81447	-1.65856
3778.000	0.12653	-1.79786	0.84807	-1.69432
3779.000	0.15025	-1.79189	0.85005	-1.69034
3780.000	0.22538	-1.76406	0.81249	-1.65458
3781.000	0.14432	-1.72432	0.81842	-1.69632
3782.000	0.17200	-1.76406	0.81249	-1.68440
3783.000	0.12653	-1.75811	0.81052	-1.64067
3784.000	0.15025	-1.78792	0.79470	-1.67049
3785.000	0.11071	-1.78394	0.81249	-1.69235
3786.000	0.18188	-1.72034	0.82435	-1.64265
3787.000	0.18386	-1.73226	0.84214	-1.64463
3788.000	0.08303	-1.76805	0.87377	-1.67245
3789.000	0.15223	-1.78990	0.81645	-1.67843
3790.000	0.11467	-1.73227	0.83819	-1.69432
3791.000	0.13444	-1.75612	0.85598	-1.63867
3792.000	0.10280	-1.81574	0.88563	-1.71219
3793.000	0.13246	-1.75612	0.85400	-1.72612
3794.000	0.19968	-1.72034	0.83226	-1.71818
3795.000	0.22538	-1.74220	0.86981	-1.71617
3796.000	0.13839	-1.75015	0.83424	-1.73209
3797.000	0.19770	-1.83362	0.85203	-1.75195
3798.000	0.21945	-1.73822	0.79470	-1.74005
3799.000	0.16804	-1.84953	0.82040	-1.75594
3800.000	0.06129	-1.83562	0.84610	-1.74003
3801.000	0.09292	-1.76805	0.81052	-1.72812
3802.000	0.11071	-1.85350	0.81249	-1.75197
3803.000	0.19572	-1.75015	0.78877	-1.73012
3804.000	0.11664	-1.73823	0.82831	-1.71023
3805.000	0.08897	-1.72034	0.78877	-1.73211
3806.000	0.18781	-1.82369	0.83819	-1.72215
3807.000	0.15223	-1.71835	0.85005	-1.75792
3808.000	0.13444	-1.71239	0.83621	-1.71619
3809.000	0.15816	-1.79984	0.84412	-1.70028
3810.000	0.11664	-1.70643	0.80063	-1.68242
3811.000	0.10478	-1.78593	0.87179	-1.72412
3812.000	0.10874	-1.76407	0.85400	-1.70227
3813.000	0.04745	-1.75215	0.84214	-1.78972
3814.000	0.16804	-1.73624	0.81447	-1.68042
3815.000	0.15618	-1.73425	0.82633	-1.71222
3816.000	0.09687	-1.71438	0.82633	-1.71619
3817.000	0.06524	-1.72830	0.84412	-1.74798
3818.000	0.13839	-1.73227	0.79273	-1.73012
3819.000	0.17793	-1.70444	0.85005	-1.69829
3820.000	0.12257	-1.77202	0.81645	-1.74998
3821.000	0.05140	-1.71637	0.84017	-1.67445
3822.000	0.08501	-1.73227	0.81447	-1.71222
3823.000	-0.00395	-1.73625	0.78482	-1.69832
3824.000	0.12455	-1.71637	0.80854	-1.68639
3825.000	0.08501	-1.69053	0.79470	-1.75595
3826.000	0.11664	-1.73227	0.85203	-1.71221
3827.000	0.09490	-1.72034	0.84017	-1.80760
3828.000	0.14234	-1.73425	0.82831	-1.69632
3829.000	0.07908	-1.67065	0.83621	-1.70824
3830.000	0.06722	-1.70444	0.84807	-1.73208
3831.000	0.04152	-1.77401	0.81052	-1.77383
3832.000	0.11664	-1.69649	0.84017	-1.76587
3833.000	0.06326	-1.78991	0.81645	-1.75594
3834.000	0.08699	-1.72829	0.82831	-1.74600
3835.000	0.12060	-1.78196	0.79668	-1.67645
3836.000	0.08699	-1.73823	0.79470	-1.71621
3837.000	0.05338	-1.73028	0.82040	-1.72017
3838.000	0.08106	-1.76606	0.80656	-1.70030
3839.000	0.01977	-1.71041	0.83226	-1.76985
3840.000	0.10478	-1.73028	0.85005	-1.68836
3841.000	0.08501	-1.73426	0.84610	-1.73606
3842.000	0.04745	-1.80780	0.81645	-1.73408
3843.000	0.13444	-1.73624	0.83028	-1.72017
3844.000	0.15618	-1.65872	0.80854	-1.66850
3845.000	0.03361	-1.76606	0.83226	-1.74998
3846.000	0.08897	-1.65674	0.82435	-1.74998
3847.000	0.13048	-1.66866	0.83028	-1.80562
3848.000	0.04152	-1.70246	0.84807	-1.75991
3849.000	0.10874	-1.66071	0.82831	-1.79171
3850.000	0.12455	-1.64083	0.85598	-1.76785
3851.000	0.14037	-1.71438	0.81249	-1.75396
3852.000	0.04349	-1.71637	0.84214	-1.73606
3853.000	0.02372	-1.65674	0.84412	-1.74003
3854.000	0.16607	-1.71835	0.84017	-1.69234
3855.000	0.01186	-1.75811	0.86388	-1.72413
3856.000	0.03954	-1.65276	0.84807	-1.74202
3857.000	0.04547	-1.69649	0.82040	-1.74799
3858.000	0.03163	-1.76805	0.80261	-1.76191
3859.000	0.11467	-1.68059	0.80261	-1.82153
3860.000	0.06524	-1.69450	0.77494	-1.80366
3861.000	0.04745	-1.71239	0.81249	-1.76787
3862.000	0.06722	-1.75413	0.79075	-1.79173
3863.000	0.08897	-1.71836	0.78877	-1.76391
3864.000	0.08106	-1.69848	0.78877	-1.79173
3865.000	0.11664	-1.68854	0.76308	-1.74802
3866.000	0.12653	-1.71835	0.75319	-1.79771
3867.000	0.03163	-1.73625	0.78877	-1.76987
3868.000	0.14234	-1.77003	0.80656	-1.78377
3869.000	-0.01186	-1.71240	0.77296	-1.73808
3870.000	0.08897	-1.70047	0.79273	-1.78576
3871.000	0.06129	-1.73227	0.81842	-1.77383
3872.000	0.10676	-1.70047	0.78482	-1.82154
3873.000	0.01384	-1.71041	0.87179	-1.80163
3874.000	0.11269	-1.66667	0.82435	-1.76985
3875.000	0.05733	-1.71239	0.79668	-1.78775
3876.000	-0.00593	-1.69252	0.85203	-1.82151
3877.000	0.00593	-1.71836	0.82831	-1.78575
3878.000	0.08501	-1.65077	0.81842	-1.77780
3879.000	-0.01582	-1.76606	0.77889	-1.77385
3880.000	0.01186	-1.64879	0.80459	-1.79172
3881.000	0.06920	-1.65475	0.78284	-1.75000
3882.000	0.04943	-1.71239	0.76901	-1.76590
3883.000	0.05338	-1.69848	0.78087	-1.81757
3884.000	0.03954	-1.67463	0.79075	-1.75794
3885.000	0.06722	-1.69649	0.76901	-1.78975
3886.000	-0.00395	-1.70246	0.77296	-1.80167
3887.000	0.03756	-1.65475	0.78877	-1.83147
3888.000	0.06129	-1.64084	0.81052	-1.76986
3889.000	0.04349	-1.72035	0.79866	-1.75198
3890.000	0.03361	-1.67860	0.81052	-1.75992
3891.000	0.05338	-1.68258	0.83028	-1.81953
3892.000	0.07513	-1.71637	0.83226	-1.83940
3893.000	0.02768	-1.64680	0.82435	-1.77780
3894.000	0.05931	-1.66270	0.83621	-1.76587
3895.000	-0.03163	-1.74420	0.81249	-1.82153
3896.000	0.00000	-1.71438	0.81842	-1.84934
3897.000	0.00000	-1.68059	0.85993	-1.84138
3898.000	0.03954	-1.73028	0.82633	-1.80960
3899.000	0.03361	-1.74618	0.82238	-1.83543
3900.000	0.04349	-1.77600	0.79273	-1.80166
3901.000	0.02175	-1.66469	0.82831	-1.83940
3902.000	0.00593	-1.71041	0.82040	-1.78575
3903.000	0.03361	-1.74618	0.83621	-1.85331
3904.000	-0.01977	-1.64084	0.79866	-1.84141
3905.000	-0.01779	-1.72233	0.82040	-1.79966
3906.000	-0.02175	-1.61301	0.81052	-1.79967
3907.000	0.02372	-1.69053	0.79470	-1.82750
3908.000	-0.04349	-1.61897	0.82238	-1.83543
3909.000	0.02966	-1.65475	0.79075	-1.80564
3910.000	-0.03163	-1.65276	0.81249	-1.79768
3911.000	0.03756	-1.70047	0.81645	-1.81954
3912.000	-0.00198	-1.66071	0.81447	-1.79569
3913.000	0.01384	-1.69252	0.79668	-1.80762
3914.000	0.07117	-1.70047	0.79866	-1.81358
3915.000	0.07315	-1.66668	0.80459	-1.82550
3916.000	0.00395	-1.69451	0.77494	-1.84142
3917.000	0.00791	-1.69252	0.80854	-1.79172
3918.000	0.05733	-1.73823	0.82435	-1.81953
3919.000	0.01582	-1.63885	0.78877	-1.80166
3920.000	-0.00395	-1.72432	0.81842	-1.85133
3921.000	0.10676	-1.64680	0.78087	-1.79173
3922.000	-0.03163	-1.63885	0.76505	-1.75199
3923.000	0.02570	-1.59909	0.80063	-1.82153
3924.000	-0.02570	-1.62692	0.78680	-1.79769
3925.000	0.00791	-1.65475	0.77494	-1.86327
3926.000	-0.03756	-1.70643	0.75715	-1.83546
3927.000	-0.03756	-1.64680	0.75715	-1.81956
3928.000	-0.01384	-1.64481	0.83621	-1.82350
3929.000	-0.00198	-1.68258	0.79273	-1.78974
3930.000	0.03559	-1.68655	0.83424	-1.83741
3931.000	-0.02175	-1.67065	0.81645	-1.82749
3932.000	0.11269	-1.65077	0.80459	-1.79172
3933.000	0.00198	-1.72233	0.76901	-1.79969
3934.000	0.05140	-1.58915	0.78482	-1.84539
3935.000	0.07513	-1.61102	0.85796	-1.83542
3936.000	0.05140	-1.64481	0.78087	-1.82949
3937.000	0.14827	-1.59710	0.80854	-1.87518
3938.000	0.01779	-1.60506	0.78877	-1.83545
3939.000	0.02372	-1.62891	0.79075	-1.80365
3940.000	-0.01186	-1.56331	0.78680	-1.82750
3941.000	0.01582	-1.61102	0.75517	-1.81360
3942.000	0.05338	-1.57921	0.77494	-1.82154
3943.000	-0.04745	-1.56132	0.78284	-1.82750
3944.000	0.00395	-1.60307	0.80063	-1.73409
3945.000	0.00395	-1.62295	0.81645	-1.76787
3946.000	-0.02372	-1.66071	0.82831	-1.78774
3947.000	-0.04349	-1.62295	0.84807	-1.78773
3948.000	0.01186	-1.63885	0.80063	-1.82153
3949.000	-0.01384	-1.62295	0.81249	-1.79172
3950.000	-0.01186	-1.64084	0.81447	-1.77979
3951.000	0.02372	-1.62493	0.78877	-1.80365
3952.000	0.01977	-1.66668	0.80656	-1.84140
3953.000	-0.00395	-1.64879	0.78482	-1.78974
3954.000	0.03361	-1.59114	0.77494	-1.82154
3955.000	-0.00989	-1.72035	0.80656	-1.78576
3956.000	-0.00395	-1.61301	0.78087	-1.77981
3957.000	-0.00593	-1.64879	0.78680	-1.78378
3958.000	-0.04152	-1.62096	0.77494	-1.81757
3959.000	-0.07710	-1.61897	0.79470	-1.77384
3960.000	0.03361	-1.61102	0.80656	-1.79967
3961.000	-0.00989	-1.59710	0.78877	-1.81756
3962.000	0.01384	-1.61897	0.83424	-1.78376
3963.000	-0.01384	-1.61897	0.80459	-1.76589
3964.000	0.03361	-1.59710	0.79668	-1.79570
3965.000	0.00791	-1.55933	0.76703	-1.81161
3966.000	0.05338	-1.60505	0.80063	-1.80166
3967.000	-0.03756	-1.58716	0.79470	-1.75198
3968.000	-0.00395	-1.57325	0.80854	-1.76787
3969.000	0.03559	-1.57921	0.80063	-1.76191
3970.000	-0.02175	-1.48776	0.76901	-1.74205
3971.000	0.02175	-1.60704	0.85005	-1.74798
3972.000	0.02175	-1.55337	0.81447	-1.74203
3973.000	-0.06920	-1.55933	0.80261	-1.78974
3974.000	-0.03559	-1.62493	0.79075	-1.73409
3975.000	0.02175	-1.63686	0.78284	-1.75596
3976.000	0.04547	-1.56530	0.79075	-1.74602
3977.000	0.06129	-1.56331	0.78877	-1.76589
3978.000	0.02372	-1.61102	0.76110	-1.80565
3979.000	-0.08699	-1.57126	0.76110	-1.73411
3980.000	-0.02570	-1.54939	0.76505	-1.73410
3981.000	-0.04152	-1.56132	0.76505	-1.77584
3982.000	-0.03559	-1.61698	0.76308	-1.73013
3983.000	-0.00395	-1.53548	0.70575	-1.71028
3984.000	0.00989	-1.53548	0.75319	-1.76193
3985.000	-0.02966	-1.59313	0.77691	-1.76192
3986.000	0.01384	-1.54939	0.76505	-1.75597
3987.000	0.01582	-1.55337	0.76110	-1.79373
3988.000	-0.01582	-1.53945	0.78087	-1.74006
3989.000	0.02372	-1.53945	0.81249	-1.78178
3990.000	-0.00593	-1.59512	0.82831	-1.75594
3991.000	-0.04152	-1.53349	0.83424	-1.77184
3992.000	0.09094	-1.57921	0.77494	-1.72814
3993.000	0.02570	-1.56331	0.81249	-1.75396
3994.000	-0.00198	-1.52753	0.74529	-1.76790
3995.000	0.01779	-1.53945	0.76308	-1.72218
3996.000	-0.07908	-1.50168	0.78087	-1.71224
3997.000	0.00395	-1.56132	0.73540	-1.74405
3998.000	-0.01977	-1.55337	0.74924	-1.72616
3999.000	-0.01582	-1.58716	0.76901	-1.71622
4000.000	-0.03756	-1.61102	0.74529	-1.72815
4001.000	-0.05338	-1.60505	0.74133	-1.77386
4002.000	-0.10874	-1.60903	0.76110	-1.70231
4003.000	-0.00593	-1.55337	0.79668	-1.70825
4004.000	0.04152	-1.51957	0.82040	-1.64464
4005.000	-0.04152	-1.58319	0.77889	-1.68441
4006.000	-0.02966	-1.56728	0.77296	-1.68243
4007.000	0.02175	-1.44800	0.79470	-1.68838
4008.000	-0.06524	-1.58716	0.81249	-1.69036
4009.000	-0.01779	-1.59313	0.77296	-1.71820
4010.000	-0.07117	-1.54740	0.78680	-1.71820
4011.000	0.02570	-1.54542	0.79470	-1.69633
4012.000	-0.02768	-1.54542	0.77098	-1.70032
4013.000	-0.03361	-1.54542	0.78087	-1.72814
4014.000	-0.07315	-1.53945	0.79273	-1.68441
4015.000	-0.05733	-1.48776	0.82831	-1.73010
4016.000	-0.09292	-1.54144	0.82831	-1.67048
4017.000	-0.02570	-1.56132	0.79273	-1.71024
4018.000	-0.02768	-1.50764	0.78087	-1.70031
4019.000	0.00593	-1.56331	0.78087	-1.71422
4020.000	-0.02966	-1.48180	0.78877	-1.67646
4021.000	0.02372	-1.53349	0.83226	-1.72414
4022.000	-0.01779	-1.49969	0.76308	-1.77982
4023.000	-0.03559	-1.55337	0.77889	-1.74602
4024.000	-0.00198	-1.52156	0.76703	-1.73212
4025.000	-0.00198	-1.49969	0.77691	-1.73410
4026.000	0.00989	-1.46788	0.78680	-1.69832
4027.000	0.02966	-1.45198	0.75517	-1.68641
4028.000	-0.05338	-1.49572	0.79668	-1.71024
4029.000	0.00989	-1.49174	0.80261	-1.70825
4030.000	-0.10676	-1.55535	0.78482	-1.66056
4031.000	-0.02966	-1.51361	0.77296	-1.66454
4032.000	-0.00198	-1.46589	0.83226	-1.71023
4033.000	0.05931	-1.42215	0.80459	-1.71421
4034.000	-0.02966	-1.48379	0.76901	-1.70032
4035.000	-0.01779	-1.46192	0.79866	-1.68440
4036.000	0.03954	-1.39830	0.82435	-1.63669
4037.000	0.00395	-1.50168	0.81645	-1.67843
4038.000	-0.06920	-1.52554	0.78680	-1.75596
4039.000	0.04152	-1.43607	0.79470	-1.71024
4040.000	-0.02570	-1.45794	0.78680	-1.67050
4041.000	0.00198	-1.45198	0.78482	-1.71025
4042.000	-0.00989	-1.57126	0.81645	-1.70228
4043.000	0.00000	-1.55933	0.80063	-1.68242
4044.000	-0.06920	-1.48975	0.76703	-1.65659
4045.000	-0.03163	-1.53747	0.81447	-1.72613
4046.000	-0.02768	-1.47782	0.79866	-1.67447
4047.000	-0.02966	-1.52554	0.79866	-1.68639
4048.000	0.04547	-1.45595	0.75912	-1.66852
4049.000	-0.02966	-1.45595	0.80459	-1.65459
4050.000	0.05536	-1.44800	0.83226	-1.65855
4051.000	-0.05338	-1.44204	0.81052	-1.67844
4052.000	0.00000	-1.41420	0.76110	-1.68044
4053.000	-0.01977	-1.40824	0.76703	-1.65460
4054.000	0.02966	-1.45198	0.73936	-1.63672
4055.000	0.01186	-1.48180	0.73343	-1.62679
4056.000	-0.04152	-1.39034	0.70575	-1.69239
4057.000	-0.05536	-1.44402	0.80063	-1.66055
4058.000	-0.01582	-1.41420	0.75122	-1.67051
4059.000	0.00989	-1.45397	0.78877	-1.68242
4060.000	-0.05536	-1.51162	0.80854	-1.65856
4061.000	-0.03361	-1.51560	0.80459	-1.67248
4062.000	-0.05338	-1.49969	0.80459	-1.71024
4063.000	-0.05733	-1.48776	0.75122	-1.69834
4064.000	-0.00593	-1.44999	0.77889	-1.65062
4065.000	-0.03163	-1.47186	0.77691	-1.65857
4066.000	-0.08501	-1.42613	0.80459	-1.69434
4067.000	-0.05733	-1.49572	0.74529	-1.64269
4068.000	-0.01186	-1.45993	0.76308	-1.62678
4069.000	-0.01779	-1.40227	0.79668	-1.69832
4070.000	-0.05140	-1.44402	0.77494	-1.68044
4071.000	0.02175	-1.45993	0.80854	-1.65260
4072.000	0.00395	-1.45198	0.84017	-1.65656
4073.000	0.00791	-1.42812	0.79470	-1.66254
4074.000	-0.03163	-1.48578	0.78680	-1.67845
4075.000	0.00989	-1.44601	0.77691	-1.66255
4076.000	-0.04745	-1.46987	0.78680	-1.69037
4077.000	0.07908	-1.43408	0.82435	-1.63272
4078.000	-0.01779	-1.44999	0.79470	-1.72217
4079.000	-0.00395	-1.42812	0.79273	-1.66254
4080.000	0.00000	-1.47186	0.80656	-1.60887
4081.000	-0.04547	-1.47782	0.81842	-1.72216
4082.000	0.00198	-1.38438	0.81645	-1.65061
4083.000	-0.07315	-1.46192	0.81645	-1.71421
4084.000	-0.03559	-1.48975	0.81447	-1.59694
4085.000	0.00000	-1.39034	0.80656	-1.70626
4086.000	-0.04152	-1.35853	0.81645	-1.60489
4087.000	-0.02175	-1.43607	0.82633	-1.64067
4088.000	-0.01977	-1.44999	0.80854	-1.64067
4089.000	0.01582	-1.48975	0.80261	-1.68639
4090.000	-0.03559	-1.40625	0.77494	-1.63075
4091.000	-0.01384	-1.43408	0.80063	-1.63471
4092.000	-0.03559	-1.43011	0.81842	-1.65657
4093.000	0.05733	-1.40625	0.80854	-1.67446
4094.000	-0.04152	-1.42414	0.80261	-1.64863
4095.000	-0.01582	-1.43408	0.77296	-1.61286
4096.000	-0.00395	-1.40426	0.77494	-1.71025
4097.000	0.09687	-1.41818	0.79668	-1.65658
4098.000	-0.01977	-1.40426	0.79866	-1.67248
4099.000	0.00395	-1.38637	0.82040	-1.65657
4100.000	-0.00593	-1.37046	0.81052	-1.65061
4101.000	-0.01384	-1.46589	0.82435	-1.63470
4102.000	0.00989	-1.44204	0.81645	-1.63471
4103.000	-0.01977	-1.44403	0.83028	-1.65458
4104.000	-0.02768	-1.40426	0.82435	-1.68042
4105.000	-0.09490	-1.42215	0.84610	-1.64066
4106.000	-0.01977	-1.36450	0.76505	-1.67249
4107.000	-0.03954	-1.43806	0.78680	-1.60888
4108.000	-0.08897	-1.37642	0.84412	-1.62675
4109.000	-0.01186	-1.38836	0.80656	-1.59098
4110.000	-0.00989	-1.43806	0.79075	-1.61882
4111.000	-0.12060	-1.40028	0.79668	-1.62478
4112.000	0.00791	-1.38836	0.79273	-1.62478
4113.000	0.01977	-1.39631	0.77691	-1.62280
4114.000	-0.07908	-1.40426	0.79866	-1.64664
4115.000	-0.03756	-1.37841	0.78680	-1.61882
4116.000	0.01582	-1.37444	0.81842	-1.59694
4117.000	-0.03559	-1.45198	0.78284	-1.60888
4118.000	-0.03559	-1.37245	0.79470	-1.61484
4119.000	0.02372	-1.38040	0.81052	-1.65459
4120.000	-0.02570	-1.39034	0.83819	-1.64861
4121.000	-0.01186	-1.41420	0.84807	-1.64463
4122.000	-0.14234	-1.51957	0.82831	-1.60091
4123.000	-0.03163	-1.38040	0.82633	-1.58501
4124.000	0.05140	-1.41221	0.78284	-1.59099
4125.000	-0.00198	-1.45397	0.78482	-1.60689
4126.000	-0.06129	-1.37444	0.78284	-1.58702
4127.000	-0.01779	-1.39631	0.83424	-1.57507
4128.000	-0.03361	-1.36052	0.80656	-1.61285
4129.000	-0.00791	-1.40227	0.78284	-1.55919
4130.000	0.00593	-1.34064	0.79866	-1.58900
4131.000	-0.03361	-1.40625	0.80261	-1.58105
4132.000	-0.00791	-1.34461	0.79470	-1.61285
4133.000	-0.05931	-1.43806	0.82435	-1.58899
4134.000	-0.05536	-1.40625	0.78877	-1.61683
4135.000	-0.02372	-1.37046	0.79470	-1.59695
4136.000	-0.00198	-1.32871	0.78482	-1.60888
4137.000	0.00000	-1.32473	0.77889	-1.56714
4138.000	-0.11269	-1.41420	0.82238	-1.61085
4139.000	-0.02768	-1.38239	0.80261	-1.60291
4140.000	-0.00791	-1.35058	0.76110	-1.56715
4141.000	0.00198	-1.25712	0.84214	-1.60687
4142.000	-0.07908	-1.37444	0.74726	-1.58107
4143.000	-0.11467	-1.39631	0.74331	-1.62281
4144.000	-0.12850	-1.39034	0.74924	-1.62678
4145.000	0.00395	-1.33666	0.81052	-1.57110
4146.000	-0.12257	-1.35455	0.79273	-1.62478
4147.000	0.05140	-1.29888	0.81249	-1.56514
4148.000	-0.00395	-1.35257	0.77691	-1.56714
4149.000	-0.02372	-1.30882	0.78680	-1.56913
4150.000	-0.03756	-1.30484	0.77494	-1.56317
4151.000	0.04152	-1.32871	0.77098	-1.53136
4152.000	-0.08897	-1.36449	0.76901	-1.52341
4153.000	-0.06524	-1.35256	0.78482	-1.54130
4154.000	-0.05140	-1.32672	0.74331	-1.57709
4155.000	-0.06326	-1.35256	0.75715	-1.59299
4156.000	-0.03756	-1.29490	0.78877	-1.57708
4157.000	-0.04152	-1.38438	0.76703	-1.54727
4158.000	-0.06326	-1.36052	0.75715	-1.52540
4159.000	-0.05140	-1.32075	0.78680	-1.59497
4160.000	-0.05733	-1.29888	0.74133	-1.59896
4161.000	0.02768	-1.27900	0.78877	-1.56515
4162.000	-0.10280	-1.30087	0.79075	-1.54527
4163.000	-0.10478	-1.38835	0.78877	-1.55123
4164.000	-0.03559	-1.40227	0.75122	-1.61287
4165.000	-0.08303	-1.35853	0.77494	-1.57112
4166.000	-0.07117	-1.35256	0.77494	-1.53732
4167.000	-0.06722	-1.27899	0.76505	-1.59299
4168.000	-0.05536	-1.37245	0.74924	-1.55125
4169.000	-0.07315	-1.34063	0.73738	-1.56517
4170.000	-0.02768	-1.32871	0.77889	-1.53136
4171.000	-0.02570	-1.32871	0.73540	-1.53933
4172.000	-0.13048	-1.30086	0.76110	-1.52938
4173.000	-0.08699	-1.30683	0.72354	-1.50355
4174.000	-0.03559	-1.26110	0.74726	-1.58107
4175.000	-0.02372	-1.29291	0.78284	-1.56714
4176.000	-0.07315	-1.28496	0.75912	-1.52143
4177.000	-0.00198	-1.28894	0.78877	-1.51744
4178.000	-0.04745	-1.26905	0.78284	-1.59099
4179.000	-0.03954	-1.29689	0.75715	-1.55522
4180.000	-0.02570	-1.30683	0.75715	-1.53534
4181.000	-0.03361	-1.27701	0.75517	-1.55721
4182.000	0.03361	-1.27303	0.75122	-1.52541
4183.000	-0.04943	-1.27104	0.80261	-1.56514
4184.000	-0.00791	-1.26110	0.75912	-1.58106
4185.000	-0.10478	-1.26507	0.75122	-1.56715
4186.000	-0.12455	-1.20741	0.77296	-1.56317
4187.000	-0.11071	-1.27502	0.75122	-1.59498
4188.000	-0.04943	-1.28297	0.80854	-1.53731
4189.000	-0.02570	-1.27701	0.75715	-1.53534
4190.000	-0.02372	-1.24320	0.73738	-1.50951
4191.000	0.00395	-1.28098	0.73145	-1.51547
4192.000	-0.03756	-1.31479	0.75122	-1.60691
4193.000	-0.05536	-1.31081	0.70180	-1.52344
4194.000	-0.12455	-1.28098	0.73936	-1.53137
4195.000	-0.07117	-1.24121	0.72750	-1.48963
4196.000	-0.11664	-1.25712	0.71959	-1.50951
4197.000	-0.13641	-1.31677	0.73936	-1.53535
4198.000	0.00989	-1.24718	0.72157	-1.47771
4199.000	-0.03361	-1.32075	0.74726	-1.52342
4200.000	-0.05536	-1.24320	0.73540	-1.49361
4201.000	-0.04943	-1.27303	0.75715	-1.51348
4202.000	-0.04943	-1.26706	0.76308	-1.52341
4203.000	-0.08303	-1.30484	0.76505	-1.55919
4204.000	-0.09094	-1.28297	0.77494	-1.53534
4205.000	-0.06722	-1.23127	0.79075	-1.46973
4206.000	-0.04745	-1.24519	0.75517	-1.49956
4207.000	-0.03163	-1.25513	0.74133	-1.46577
4208.000	0.02768	-1.26508	0.80854	-1.47768
4209.000	-0.06129	-1.23525	0.79075	-1.47570
4210.000	-0.02966	-1.26110	0.78087	-1.46377
4211.000	-0.10676	-1.25513	0.74529	-1.46378
4212.000	-0.02966	-1.21735	0.73540	-1.48565
4213.000	-0.13048	-1.26507	0.72750	-1.43993
4214.000	-0.07513	-1.23922	0.69982	-1.48368
4215.000	-0.06722	-1.30087	0.74529	-1.45782
4216.000	-0.08699	-1.28695	0.79273	-1.49359
4217.000	-0.11269	-1.24320	0.73343	-1.49162
4218.000	-0.10478	-1.28695	0.76505	-1.49360
4219.000	-0.04745	-1.24917	0.79075	-1.46973
4220.000	-0.07710	-1.32870	0.83819	-1.49754
4221.000	0.00791	-1.28297	0.80854	-1.48762
4222.000	-0.06524	-1.22928	0.75122	-1.44191
4223.000	-0.10874	-1.24121	0.80261	-1.46575
4224.000	-0.07117	-1.22332	0.81645	-1.44388
4225.000	-0.08699	-1.25116	0.77098	-1.42998
