time (ms)	lx (deg)	ly (deg)	rx (deg)	ry (deg)
0.000	-0.70378	-2.06597	-0.06129	-1.71438
1.000	-0.70180	-2.10968	-0.04547	-1.71637
2.000	-0.74133	-2.16131	-0.08303	-1.72829
3.000	-0.75319	-2.08979	-0.03954	-1.72432
4.000	-0.71168	-2.08385	-0.02768	-1.73426
5.000	-0.75912	-2.10965	-0.07513	-1.67860
6.000	-0.66622	-2.14744	-0.06129	-1.71836
7.000	-0.68401	-2.04214	-0.03756	-1.69252
8.000	-0.67808	-2.05406	-0.05931	-1.68258
9.000	-0.73343	-2.07788	-0.08501	-1.72233
10.000	-0.71168	-2.05604	-0.03756	-1.67463
11.000	-0.71168	-2.06200	-0.10874	-1.66469
12.000	-0.71366	-2.08782	-0.06326	-1.65475
13.000	-0.70180	-2.08385	-0.06326	-1.66071
14.000	-0.73738	-2.04609	-0.04547	-1.69451
15.000	-0.75517	-2.13747	-0.06326	-1.73227
16.000	-0.75122	-2.12754	-0.04745	-1.69649
17.000	-0.74924	-2.07787	-0.07710	-1.66668
18.000	-0.68994	-2.08783	-0.07513	-1.70047
19.000	-0.69982	-2.01631	-0.11269	-1.64481
20.000	-0.63459	-2.06998	-0.09885	-1.69649
21.000	-0.68994	-2.11763	-0.08897	-1.64083
22.000	-0.65634	-2.12559	-0.07710	-1.66469
23.000	-0.67808	-2.12558	-0.06326	-1.68059
24.000	-0.70378	-2.02226	-0.04943	-1.69252
25.000	-0.66820	-2.02029	-0.10676	-1.71836
26.000	-0.74133	-1.97059	-0.04547	-1.69053
27.000	-0.70575	-2.11166	-0.07710	-1.66071
28.000	-0.60692	-2.08191	-0.06524	-1.66668
29.000	-0.71761	-2.09577	-0.08303	-1.73227
30.000	-0.63855	-2.07395	-0.07513	-1.71836
31.000	-0.66424	-2.05606	-0.07513	-1.69450
32.000	-0.66227	-2.09579	-0.05536	-1.70047
33.000	-0.66622	-1.99049	-0.06524	-1.71836
34.000	-0.63262	-2.00243	-0.08897	-1.73624
35.000	-0.73738	-2.04609	-0.10478	-1.71239
36.000	-0.70773	-2.04412	-0.09292	-1.68655
37.000	-0.69982	-2.00637	-0.10083	-1.64680
38.000	-0.62866	-2.05607	-0.01977	-1.67860
39.000	-0.71959	-2.07391	-0.05931	-1.69053
40.000	-0.69389	-2.07591	-0.06129	-1.67860
41.000	-0.70971	-2.00835	-0.06326	-1.68258
42.000	-0.69192	-1.94478	-0.05733	-1.62295
43.000	-0.68796	-2.03221	-0.08303	-1.67065
44.000	-0.70180	-2.07591	-0.06129	-1.62493
45.000	-0.64843	-2.04216	-0.03361	-1.67463
46.000	-0.67215	-1.97459	-0.02966	-1.70643
47.000	-0.69785	-1.93484	-0.06129	-1.61698
48.000	-0.60099	-2.05409	-0.05733	-1.66469
49.000	-0.73343	-2.00437	-0.06129	-1.63885
50.000	-0.65436	-2.00639	-0.03559	-1.62493
51.000	-0.65238	-1.93486	-0.05140	-1.66270
52.000	-0.64052	-2.05607	-0.07710	-1.64282
53.000	-0.62866	-1.98057	-0.05931	-1.62692
54.000	-0.64448	-2.00242	-0.07117	-1.66668
55.000	-0.69785	-1.96465	-0.04745	-1.60108
56.000	-0.59901	-2.01635	-0.07513	-1.65873
57.000	-0.56343	-1.94483	-0.03361	-1.69252
58.000	-0.67215	-2.03817	0.00198	-1.67860
59.000	-0.67215	-2.00440	-0.01779	-1.69252
60.000	-0.62866	-1.99448	-0.03559	-1.72233
61.000	-0.59703	-2.04615	-0.03954	-1.65078
62.000	-0.62075	-2.04614	-0.04152	-1.70246
63.000	-0.60296	-1.96866	-0.02768	-1.67065
64.000	-0.60099	-1.95674	0.00395	-1.67662
65.000	-0.59901	-1.97462	-0.03361	-1.69252
66.000	-0.63657	-1.98255	-0.04943	-1.65077
67.000	-0.62668	-2.00243	-0.02570	-1.70047
68.000	-0.64843	-2.00838	-0.01977	-1.67065
69.000	-0.60494	-1.97064	0.02768	-1.62493
70.000	-0.60692	-1.98257	-0.00198	-1.66270
71.000	-0.58122	-1.96867	0.01186	-1.70444
72.000	-0.69587	-2.04214	-0.01977	-1.64282
73.000	-0.61878	-2.05806	-0.01779	-1.69252
74.000	-0.53575	-1.99252	-0.00791	-1.69649
75.000	-0.60692	-1.98058	-0.03559	-1.69451
76.000	-0.54959	-2.01438	0.00791	-1.69252
77.000	-0.64448	-2.02030	-0.00989	-1.63885
78.000	-0.63657	-1.99646	-0.03361	-1.64680
79.000	-0.60692	-1.99449	0.02768	-1.68655
80.000	-0.60692	-1.95673	0.02570	-1.69053
81.000	-0.59703	-2.03025	0.01977	-1.64879
82.000	-0.59901	-2.05211	0.00000	-1.64481
83.000	-0.64052	-2.01037	0.02768	-1.65674
84.000	-0.61878	-2.03422	0.00198	-1.74817
85.000	-0.64645	-2.00242	0.03559	-1.68655
86.000	-0.65238	-1.96467	0.00198	-1.71240
87.000	-0.64843	-1.97262	0.00198	-1.71240
88.000	-0.62668	-1.99845	0.04349	-1.67860
89.000	-0.57529	-1.99450	0.05733	-1.57722
90.000	-0.59110	-1.94084	0.04745	-1.54343
91.000	-0.54564	-1.82361	0.10083	-1.50565
92.000	-0.48633	-1.71830	0.13641	-1.32274
93.000	-0.54366	-1.64275	0.15421	-1.17360
94.000	-0.36376	-1.45990	0.18979	-0.97671
95.000	-0.30446	-1.22131	0.23329	-0.83550
96.000	-0.22538	-0.97472	0.24317	-0.59084
97.000	-0.04943	-0.73008	0.30248	-0.40782
98.000	0.10478	-0.47944	0.37167	-0.21883
99.000	0.19968	-0.19098	0.36772	-0.04973
100.000	0.19968	-0.06366	0.42109	0.11141
101.000	0.27876	0.13130	0.42900	0.26459
102.000	0.22538	0.17308	0.41319	0.35013
103.000	0.27085	0.32029	0.42109	0.36206
104.000	0.26096	0.30836	0.36772	0.37201
105.000	0.14432	0.27653	0.34202	0.36803
106.000	0.12257	0.25266	0.37167	0.29841
107.000	0.04745	0.17109	0.34202	0.18700
108.000	-0.02175	-0.00398	0.37563	0.07560
109.000	-0.08699	-0.11738	0.36574	-0.08952
110.000	-0.20363	-0.24669	0.31829	-0.18302
111.000	-0.24910	-0.38992	0.35586	-0.28249
112.000	-0.27480	-0.44562	0.37958	-0.37002
113.000	-0.28271	-0.59879	0.38749	-0.46949
114.000	-0.37958	-0.77780	0.36969	-0.54707
115.000	-0.45075	-0.82156	0.38749	-0.60276
116.000	-0.45075	-0.84542	0.38946	-0.60674
117.000	-0.42900	-0.90708	0.37167	-0.62067
118.000	-0.44877	-0.90708	0.39342	-0.61271
119.000	-0.37760	-0.95681	0.37365	-0.55105
120.000	-0.43098	-0.87327	0.35586	-0.54508
121.000	-0.33609	-0.85936	0.33411	-0.50132
122.000	-0.28864	-0.75991	0.32818	-0.49734
123.000	-0.34597	-0.75991	0.27282	-0.47347
124.000	-0.32818	-0.68830	0.28073	-0.42971
125.000	-0.22735	-0.67239	0.28666	-0.42573
126.000	-0.24317	-0.74201	0.27282	-0.42374
127.000	-0.19572	-0.65449	0.29259	-0.43766
128.000	-0.22142	-0.66444	0.28073	-0.40384
129.000	-0.22340	-0.57890	0.26887	-0.37798
130.000	-0.13641	-0.59880	0.29062	-0.37798
131.000	-0.18584	-0.60078	0.28666	-0.39390
132.000	-0.16409	-0.54111	0.29852	-0.39589
133.000	-0.21945	-0.55503	0.34795	-0.34416
134.000	-0.15618	-0.61869	0.34993	-0.33819
135.000	-0.15223	-0.54509	0.33213	-0.31830
136.000	-0.17398	-0.52917	0.35586	-0.34615
137.000	-0.20561	-0.51724	0.39342	-0.27851
138.000	-0.21549	-0.51127	0.34202	-0.28846
139.000	-0.18584	-0.48143	0.35586	-0.30040
140.000	-0.15816	-0.46751	0.35190	-0.30636
141.000	-0.11862	-0.44761	0.37365	-0.29443
142.000	-0.15618	-0.49337	0.41912	-0.29244
143.000	-0.14827	-0.46353	0.42505	-0.29642
144.000	-0.12257	-0.49138	0.37563	-0.28249
145.000	-0.12653	-0.46552	0.38551	-0.27056
146.000	-0.17595	-0.54111	0.38946	-0.30835
147.000	-0.07315	-0.41181	0.37167	-0.29244
148.000	-0.09490	-0.44363	0.39737	-0.27453
149.000	-0.13839	-0.45358	0.39342	-0.29045
150.000	-0.07513	-0.45159	0.38946	-0.31233
151.000	-0.11269	-0.47944	0.36969	-0.22878
152.000	-0.08501	-0.48541	0.37760	-0.25663
153.000	-0.10874	-0.41976	0.38946	-0.27453
154.000	-0.13839	-0.49536	0.38946	-0.26061
155.000	-0.10676	-0.42772	0.36376	-0.27056
156.000	-0.07710	-0.50729	0.40133	-0.24469
157.000	-0.18188	-0.47546	0.39539	-0.28846
158.000	-0.09885	-0.48541	0.39144	-0.25663
159.000	-0.10083	-0.48740	0.40330	-0.25464
160.000	-0.11071	-0.45955	0.38946	-0.25663
161.000	-0.16607	-0.41578	0.38551	-0.28249
162.000	-0.09094	-0.43966	0.36772	-0.19894
163.000	-0.05733	-0.41181	0.35981	-0.25265
164.000	-0.06524	-0.47546	0.34399	-0.27056
165.000	-0.07513	-0.42772	0.35783	-0.22082
166.000	-0.11071	-0.50331	0.35586	-0.20292
167.000	0.00395	-0.45955	0.37563	-0.22878
168.000	-0.08501	-0.43966	0.35586	-0.21684
169.000	-0.04943	-0.44562	0.36574	-0.22480
170.000	-0.07908	-0.42573	0.37167	-0.20889
171.000	-0.10478	-0.43767	0.41121	-0.25066
172.000	-0.05338	-0.45557	0.39342	-0.24071
173.000	-0.05536	-0.44562	0.37958	-0.23873
174.000	-0.11071	-0.49536	0.38551	-0.21883
175.000	-0.04152	-0.41777	0.38551	-0.26658
176.000	-0.15223	-0.43369	0.36179	-0.19297
177.000	-0.04943	-0.47944	0.39342	-0.19894
178.000	-0.08501	-0.38197	0.39539	-0.19695
179.000	-0.00593	-0.39191	0.38946	-0.19695
180.000	-0.03163	-0.41181	0.40923	-0.17109
181.000	-0.12850	-0.42772	0.37958	-0.14523
182.000	-0.02570	-0.36406	0.33806	-0.19496
183.000	-0.02966	-0.43170	0.38749	-0.14324
184.000	0.00593	-0.40783	0.35981	-0.19297
185.000	-0.06326	-0.41380	0.41121	-0.17308
186.000	-0.04547	-0.39987	0.40133	-0.20690
187.000	-0.10280	-0.44165	0.39935	-0.19496
188.000	-0.08303	-0.38396	0.41714	-0.18302
189.000	-0.03559	-0.39788	0.43296	-0.19098
190.000	-0.08106	-0.36804	0.43691	-0.17904
191.000	-0.02570	-0.40982	0.42900	-0.20292
192.000	-0.04943	-0.42175	0.47249	-0.18302
193.000	-0.01186	-0.39191	0.42307	-0.14324
194.000	-0.00989	-0.37202	0.41912	-0.13528
195.000	0.01582	-0.37202	0.39737	-0.15716
196.000	-0.02966	-0.35412	0.42505	-0.08753
197.000	0.00593	-0.34616	0.43493	-0.14920
198.000	-0.03361	-0.39390	0.42109	-0.16114
199.000	-0.02570	-0.39191	0.41319	-0.17705
200.000	0.01582	-0.37401	0.39935	-0.11936
201.000	-0.04943	-0.40385	0.44482	-0.14920
202.000	-0.05140	-0.39390	0.43296	-0.15716
203.000	-0.00791	-0.43767	0.44284	-0.13130
204.000	-0.04349	-0.31234	0.45865	-0.18899
205.000	-0.06326	-0.42971	0.49226	-0.16313
206.000	-0.00791	-0.36804	0.45272	-0.15517
207.000	-0.01186	-0.38793	0.45668	-0.18302
208.000	0.00198	-0.41777	0.41714	-0.19098
209.000	-0.06722	-0.37799	0.45075	-0.16114
210.000	-0.07315	-0.37998	0.46063	-0.19894
211.000	-0.00198	-0.35213	0.48831	-0.14124
212.000	0.02768	-0.38594	0.49819	-0.18501
213.000	0.03361	-0.34019	0.50215	-0.19098
214.000	-0.07315	-0.42573	0.47249	-0.20093
215.000	0.01977	-0.39390	0.45865	-0.18103
216.000	-0.07710	-0.41380	0.52389	-0.18899
217.000	-0.11664	-0.38197	0.45470	-0.18501
218.000	-0.04943	-0.35014	0.48435	-0.20490
219.000	-0.07710	-0.41181	0.50610	-0.19297
220.000	-0.05338	-0.40385	0.49424	-0.18103
221.000	-0.10083	-0.40186	0.49028	-0.15318
222.000	-0.01779	-0.40385	0.48040	-0.16910
223.000	-0.01779	-0.43369	0.45470	-0.16313
224.000	-0.06524	-0.35412	0.48435	-0.16910
225.000	-0.02570	-0.39589	0.48831	-0.19297
226.000	-0.01779	-0.34218	0.46063	-0.22281
227.000	0.00395	-0.36406	0.51005	-0.20490
228.000	-0.02966	-0.34019	0.44086	-0.19695
229.000	-0.01384	-0.30040	0.45470	-0.21883
230.000	0.05140	-0.36605	0.45865	-0.19894
231.000	-0.01977	-0.30438	0.45075	-0.18899
232.000	0.01582	-0.36605	0.41912	-0.22082
233.000	0.01779	-0.37401	0.44086	-0.18103
234.000	-0.01582	-0.34815	0.44482	-0.23276
235.000	-0.03163	-0.38396	0.45075	-0.19496
236.000	-0.09885	-0.33621	0.45075	-0.19098
237.000	-0.03559	-0.31632	0.41912	-0.14522
238.000	-0.02175	-0.40385	0.39935	-0.17109
239.000	0.02372	-0.36605	0.42505	-0.18302
240.000	-0.12850	-0.37401	0.45272	-0.17308
241.000	-0.06524	-0.37998	0.45470	-0.21485
242.000	-0.02768	-0.33024	0.45272	-0.16910
243.000	-0.01779	-0.36207	0.39539	-0.14523
244.000	0.00000	-0.36008	0.42307	-0.19496
245.000	0.00791	-0.32626	0.47447	-0.20888
246.000	-0.04349	-0.40385	0.43691	-0.22082
247.000	-0.03163	-0.38396	0.45865	-0.19695
248.000	0.01186	-0.37600	0.44877	-0.21485
249.000	-0.00989	-0.35213	0.45075	-0.18103
250.000	-0.01186	-0.39589	0.47249	-0.17904
251.000	0.02966	-0.33024	0.44877	-0.22480
252.000	0.01582	-0.33223	0.47645	-0.20888
253.000	0.01384	-0.31831	0.46854	-0.17307
254.000	-0.00593	-0.38594	0.47249	-0.16711
255.000	-0.01384	-0.36406	0.43493	-0.16910
256.000	0.00791	-0.32626	0.45272	-0.17506
257.000	-0.02570	-0.34815	0.46261	-0.16313
258.000	-0.00989	-0.29244	0.47842	-0.17705
259.000	-0.06326	-0.33621	0.46656	-0.16313
260.000	0.01977	-0.36008	0.45668	-0.18899
261.000	-0.06722	-0.35014	0.44086	-0.17506
262.000	-0.07710	-0.30040	0.44482	-0.16313
263.000	0.01186	-0.29443	0.51005	-0.19695
264.000	-0.03163	-0.33024	0.45075	-0.15318
265.000	0.05140	-0.23475	0.47447	-0.15318
266.000	0.05140	-0.37799	0.48238	-0.17705
267.000	-0.01779	-0.32626	0.46459	-0.17705
268.000	-0.00198	-0.28449	0.47842	-0.18899
269.000	-0.04547	-0.38793	0.43889	-0.23673
270.000	0.01384	-0.36008	0.47842	-0.28050
271.000	0.00000	-0.34218	0.49424	-0.18899
272.000	-0.03954	-0.35412	0.44877	-0.22679
273.000	-0.02570	-0.30637	0.46063	-0.22480
274.000	-0.01779	-0.35014	0.44482	-0.20490
275.000	-0.02768	-0.33024	0.48831	-0.21286
276.000	-0.05140	-0.32427	0.45075	-0.21485
277.000	0.05536	-0.37799	0.47447	-0.20490
278.000	-0.02372	-0.31831	0.46854	-0.19496
279.000	0.02372	-0.31433	0.47645	-0.21485
280.000	0.00593	-0.29642	0.48435	-0.19297
281.000	-0.03163	-0.36008	0.46459	-0.19695
282.000	-0.00198	-0.28250	0.44877	-0.18103
283.000	-0.07710	-0.33223	0.46459	-0.21087
284.000	-0.03954	-0.29046	0.47249	-0.24469
285.000	-0.04943	-0.35809	0.49424	-0.20490
286.000	0.00395	-0.31035	0.47842	-0.17109
287.000	-0.03163	-0.29642	0.49622	-0.15915
288.000	0.04547	-0.36008	0.50215	-0.20888
289.000	0.05338	-0.34616	0.44284	-0.15915
290.000	0.07710	-0.33621	0.50610	-0.18700
291.000	-0.04745	-0.31234	0.45470	-0.15119
292.000	-0.02570	-0.36207	0.46656	-0.16313
293.000	-0.00989	-0.34616	0.50610	-0.16711
294.000	-0.04349	-0.35014	0.48435	-0.20093
295.000	0.01186	-0.32427	0.48831	-0.15915
296.000	0.04943	-0.35809	0.46656	-0.15915
297.000	0.03163	-0.38992	0.50610	-0.17705
298.000	-0.01582	-0.35213	0.47447	-0.14124
299.000	0.00791	-0.34815	0.54168	-0.15119
300.000	0.01186	-0.37998	0.52389	-0.13727
301.000	-0.02966	-0.38197	0.48831	-0.12732
302.000	0.04547	-0.37600	0.55552	-0.18302
303.000	-0.01186	-0.39191	0.53971	-0.19694
304.000	0.03559	-0.36207	0.51796	-0.18501
305.000	0.01779	-0.28847	0.52587	-0.12334
306.000	0.04547	-0.36605	0.50017	-0.17108
307.000	0.08106	-0.29841	0.47249	-0.15915
308.000	0.04349	-0.32427	0.53378	-0.14920
309.000	0.07315	-0.36406	0.59308	-0.12931
310.000	0.12060	-0.33223	0.50412	-0.15318
311.000	0.05536	-0.33820	0.52982	-0.11737
312.000	0.08106	-0.38594	0.55354	-0.09549
313.000	0.06524	-0.34019	0.57727	-0.14124
314.000	0.07908	-0.35014	0.57133	-0.09947
315.000	0.09292	-0.32825	0.56540	-0.11936
316.000	0.08699	-0.34019	0.56343	-0.09350
317.000	0.03163	-0.44165	0.56738	-0.10742
318.000	0.02966	-0.30040	0.56343	-0.15318
319.000	0.07513	-0.40783	0.55552	-0.16909
320.000	0.05338	-0.28051	0.51203	-0.16909
321.000	0.06722	-0.32626	0.56145	-0.17705
322.000	0.04349	-0.34218	0.50808	-0.10146
323.000	0.09490	-0.32228	0.53971	-0.08355
324.000	0.02570	-0.34417	0.55552	-0.10146
325.000	0.08303	-0.33621	0.57924	-0.12334
326.000	0.12060	-0.36804	0.55552	-0.11538
327.000	0.07117	-0.34616	0.56936	-0.11339
328.000	0.07315	-0.36008	0.51401	-0.07560
329.000	0.09885	-0.37998	0.57727	-0.07361
330.000	0.05931	-0.34019	0.53378	-0.10544
331.000	0.14827	-0.33024	0.56540	-0.10345
332.000	0.06129	-0.28648	0.52587	-0.11936
333.000	0.06129	-0.39788	0.54168	-0.07162
334.000	0.06129	-0.31831	0.51994	-0.09350
335.000	0.03163	-0.36406	0.52389	-0.10544
336.000	0.04745	-0.36008	0.51005	-0.05570
337.000	0.04745	-0.35412	0.54168	-0.05371
338.000	0.15223	-0.33820	0.53773	-0.00199
339.000	0.05338	-0.30239	0.49622	-0.06167
340.000	0.09094	-0.33223	0.52587	-0.05172
341.000	0.10280	-0.33422	0.54168	-0.02984
342.000	0.07710	-0.30637	0.53180	-0.05172
343.000	0.10083	-0.33024	0.50017	-0.02387
344.000	0.04349	-0.38197	0.52784	-0.02188
345.000	0.06920	-0.32626	0.52587	-0.04377
346.000	0.07117	-0.27454	0.51796	-0.05172
347.000	0.08303	-0.33024	0.52587	-0.04377
348.000	0.06524	-0.38594	0.51005	-0.05172
349.000	0.03756	-0.29046	0.54959	-0.06565
350.000	0.04745	-0.36605	0.54366	-0.07162
351.000	0.09885	-0.25862	0.50017	-0.07162
352.000	0.07513	-0.31234	0.51203	-0.02387
353.000	0.06722	-0.28250	0.47842	-0.07957
354.000	0.06326	-0.29642	0.53575	-0.07361
355.000	0.11664	-0.30239	0.51796	-0.04774
356.000	0.05733	-0.22481	0.51796	-0.04377
357.000	0.12257	-0.25465	0.52389	-0.06167
358.000	0.07908	-0.23873	0.51005	-0.04774
359.000	0.07513	-0.26459	0.54959	-0.09350
360.000	0.06722	-0.23873	0.53180	-0.07162
361.000	0.03954	-0.25862	0.50215	-0.05570
362.000	0.08501	-0.27653	0.50808	-0.05570
363.000	0.10083	-0.31035	0.51796	-0.03382
364.000	0.04745	-0.24072	0.52784	-0.05769
365.000	0.10874	-0.25067	0.55157	-0.07162
366.000	0.11664	-0.21685	0.48633	-0.06764
367.000	0.04745	-0.35412	0.55354	-0.06963
368.000	0.06920	-0.28250	0.52191	-0.07162
369.000	0.12455	-0.27056	0.53180	-0.06764
370.000	0.05140	-0.35809	0.51796	-0.09947
371.000	0.08699	-0.32228	0.51994	-0.07758
372.000	0.07513	-0.32626	0.55354	-0.07758
373.000	0.03163	-0.28648	0.51203	-0.07758
374.000	0.04547	-0.24072	0.51203	-0.09151
375.000	0.12455	-0.22679	0.54959	-0.08355
376.000	0.17002	-0.25663	0.53773	-0.05371
377.000	0.09687	-0.26061	0.53971	-0.07560
378.000	0.01977	-0.24868	0.55157	-0.07560
379.000	0.11071	-0.20491	0.53575	-0.03979
380.000	0.12060	-0.24271	0.54959	-0.02387
381.000	0.06524	-0.24072	0.56343	-0.00199
382.000	0.05338	-0.29443	0.56540	-0.03780
383.000	0.06129	-0.25266	0.53773	-0.03183
384.000	0.07117	-0.23276	0.53575	-0.06366
385.000	0.13246	-0.27255	0.53773	-0.07361
386.000	0.10676	-0.27852	0.52784	-0.07361
387.000	0.07315	-0.27852	0.52587	-0.08355
388.000	0.15816	-0.25663	0.54564	-0.06167
389.000	0.06129	-0.27852	0.56738	-0.08952
390.000	0.07908	-0.30040	0.54761	-0.08554
391.000	0.09094	-0.26857	0.57924	-0.05172
392.000	0.01582	-0.29841	0.53773	-0.00796
393.000	0.12257	-0.33024	0.54959	-0.05172
394.000	0.09490	-0.23873	0.57727	-0.09350
395.000	0.10676	-0.23475	0.52389	-0.04774
396.000	0.13048	-0.22878	0.56145	-0.11140
397.000	0.02372	-0.27852	0.57133	-0.06366
398.000	0.09687	-0.27056	0.54564	-0.08554
399.000	0.11071	-0.27454	0.52982	-0.05570
400.000	0.10874	-0.28648	0.57727	-0.05371
401.000	0.09687	-0.28250	0.59308	-0.10543
402.000	0.12257	-0.28051	0.56936	-0.08952
403.000	0.08501	-0.25266	0.59110	-0.12334
404.000	0.14234	-0.26459	0.59110	-0.10941
405.000	0.10280	-0.29841	0.57727	-0.08355
406.000	0.10478	-0.25266	0.55947	-0.06764
407.000	0.10083	-0.26857	0.54564	-0.09549
408.000	0.08897	-0.22480	0.58913	-0.08554
409.000	0.06326	-0.28250	0.53378	-0.04178
410.000	0.04152	-0.21685	0.57924	-0.07559
411.000	0.08699	-0.26857	0.51005	-0.07361
412.000	0.02175	-0.33621	0.53575	-0.04377
413.000	0.01977	-0.31035	0.54366	-0.06167
414.000	-0.03361	-0.25465	0.51598	-0.01194
415.000	0.05536	-0.26260	0.57331	-0.02188
416.000	0.03361	-0.33024	0.57133	-0.02586
417.000	0.06326	-0.29841	0.57331	-0.08554
418.000	0.10083	-0.24470	0.57133	-0.03780
419.000	0.08303	-0.29244	0.56540	-0.04377
420.000	-0.01582	-0.33621	0.60296	-0.07361
421.000	0.09687	-0.30040	0.55750	-0.00597
422.000	0.11862	-0.29045	0.56936	-0.00995
423.000	0.07117	-0.22878	0.57924	-0.03183
424.000	0.09292	-0.28449	0.58913	-0.03581
425.000	0.08303	-0.27454	0.57331	0.00199
426.000	0.03163	-0.34815	0.57331	-0.04178
427.000	0.05338	-0.30040	0.53575	-0.01194
428.000	0.06722	-0.28648	0.57133	-0.02387
429.000	0.05931	-0.29642	0.56343	-0.05371
430.000	0.06524	-0.26260	0.54564	-0.04575
431.000	0.15816	-0.28051	0.55552	-0.03581
432.000	0.07710	-0.25266	0.55750	-0.07758
433.000	0.05536	-0.29244	0.53971	-0.05172
434.000	0.09094	-0.29045	0.58517	-0.05172
435.000	0.10874	-0.31831	0.53378	0.00597
436.000	0.17793	-0.31035	0.58913	-0.05371
437.000	0.09885	-0.27056	0.53180	-0.02785
438.000	0.09094	-0.34815	0.57924	-0.02586
439.000	0.10280	-0.30438	0.55552	-0.06963
440.000	0.07513	-0.27255	0.55552	-0.12732
441.000	0.07908	-0.32427	0.53773	-0.08156
442.000	0.05536	-0.35809	0.56145	-0.06764
443.000	0.05733	-0.32229	0.57924	-0.08753
444.000	0.16014	-0.29443	0.61087	-0.09549
445.000	0.01977	-0.31035	0.56540	-0.03581
446.000	0.04547	-0.31632	0.55947	-0.13925
447.000	0.03954	-0.26061	0.56936	-0.07758
448.000	0.18584	-0.29244	0.59901	-0.10344
449.000	0.08501	-0.27653	0.62668	-0.15517
450.000	0.08501	-0.32030	0.59506	-0.11936
451.000	0.06722	-0.26061	0.57924	-0.17705
452.000	0.13641	-0.24072	0.59506	-0.09947
453.000	0.16211	-0.23077	0.54959	-0.13130
454.000	0.20165	-0.28647	0.58320	-0.11737
455.000	0.23526	-0.26857	0.60099	-0.11140
456.000	0.17398	-0.30836	0.61482	-0.09947
457.000	0.17002	-0.24868	0.57331	-0.04973
458.000	0.14234	-0.21088	0.64052	-0.08156
459.000	0.14827	-0.29841	0.61482	-0.03382
460.000	0.12060	-0.25664	0.57529	-0.09151
461.000	0.19968	-0.24271	0.60494	-0.06764
462.000	0.09490	-0.21685	0.62075	-0.06565
463.000	0.18386	-0.22281	0.60296	-0.05968
464.000	0.12850	-0.19695	0.60889	-0.05769
465.000	0.15025	-0.27056	0.62668	-0.04973
466.000	0.19375	-0.21486	0.59110	-0.04377
467.000	0.15816	-0.26658	0.64645	-0.10543
468.000	0.13641	-0.24072	0.63855	-0.08156
469.000	0.18979	-0.21884	0.62668	-0.07559
470.000	0.14234	-0.27255	0.62273	-0.05769
471.000	0.17793	-0.27454	0.64448	-0.04575
472.000	0.23131	-0.25464	0.62273	-0.05570
473.000	0.22538	-0.26260	0.63855	-0.09151
474.000	0.11071	-0.26061	0.62471	-0.05371
475.000	0.13839	-0.26061	0.62668	-0.02387
476.000	0.14630	-0.18303	0.63657	-0.03780
477.000	0.14630	-0.29642	0.61878	-0.06167
478.000	0.17002	-0.24868	0.59506	-0.01591
479.000	0.17991	-0.29841	0.62668	-0.06167
480.000	0.14630	-0.30040	0.62668	-0.03581
481.000	0.14827	-0.29045	0.61680	-0.02586
482.000	0.10280	-0.25862	0.58715	-0.05769
483.000	0.10874	-0.30836	0.60494	-0.06565
484.000	0.11862	-0.22878	0.60692	-0.05570
485.000	0.21352	-0.25663	0.61285	-0.06366
486.000	0.16211	-0.25266	0.58320	-0.05371
487.000	0.12455	-0.28648	0.57727	-0.02387
488.000	0.14630	-0.26061	0.58122	-0.05371
489.000	0.17793	-0.22878	0.58517	-0.05769
490.000	0.13444	-0.14921	0.62273	-0.05968
491.000	0.11862	-0.25067	0.62471	-0.07360
492.000	0.11269	-0.23674	0.60296	-0.03979
493.000	0.09490	-0.28847	0.58320	-0.04774
494.000	0.13444	-0.25266	0.60099	-0.07361
495.000	0.12455	-0.17905	0.61482	-0.06167
496.000	0.15816	-0.23475	0.57331	-0.05968
497.000	0.07513	-0.18104	0.57727	-0.07957
498.000	0.11071	-0.25862	0.55157	-0.01790
499.000	0.13839	-0.21486	0.57529	-0.08355
500.000	0.11467	-0.23077	0.58320	-0.06764
501.000	0.15618	-0.21287	0.60692	-0.07162
502.000	0.16014	-0.31632	0.55552	-0.07758
503.000	0.21747	-0.22082	0.56343	-0.05172
504.000	0.08106	-0.30438	0.58517	-0.07957
505.000	0.13641	-0.27653	0.58320	-0.11140
506.000	0.12257	-0.33223	0.55552	-0.05371
507.000	0.09094	-0.27255	0.59506	-0.06167
508.000	0.11664	-0.27056	0.58715	-0.04973
509.000	0.15618	-0.28449	0.56540	-0.06963
510.000	0.13641	-0.19695	0.61285	-0.07360
511.000	0.16211	-0.35014	0.56738	-0.04774
512.000	0.15618	-0.21884	0.61087	-0.12334
513.000	0.18386	-0.26260	0.58320	-0.11140
514.000	0.15421	-0.22878	0.55947	-0.06764
515.000	0.17398	-0.23475	0.51796	-0.05769
516.000	0.17595	-0.23276	0.57727	-0.05968
517.000	0.18584	-0.31433	0.60889	-0.10543
518.000	0.17793	-0.26260	0.58913	-0.10146
519.000	0.14630	-0.24868	0.57529	-0.06366
520.000	0.18979	-0.15915	0.59506	-0.11339
521.000	0.17002	-0.27255	0.53378	-0.07560
522.000	0.14630	-0.23077	0.56343	-0.04377
523.000	0.11664	-0.27255	0.57133	-0.06167
524.000	0.15223	-0.34218	0.56738	-0.02785
525.000	0.19177	-0.26459	0.60494	-0.07162
526.000	0.18584	-0.27056	0.59901	-0.04178
527.000	0.17002	-0.26658	0.57133	-0.01989
528.000	0.11664	-0.25266	0.56738	-0.00995
529.000	0.21154	-0.23674	0.57133	-0.03780
530.000	0.22142	-0.22281	0.58517	-0.02188
531.000	0.23922	-0.25663	0.59110	-0.00199
532.000	0.14630	-0.27653	0.57924	-0.04377
533.000	0.10083	-0.22083	0.56343	-0.05968
534.000	0.06129	-0.31632	0.54366	-0.04377
535.000	0.16607	-0.31433	0.57331	-0.00597
536.000	0.15223	-0.31433	0.53378	0.03979
537.000	0.12653	-0.29244	0.53773	-0.01194
538.000	0.09094	-0.29642	0.58122	0.01989
539.000	0.04943	-0.29841	0.58122	0.03979
540.000	0.06722	-0.25862	0.54168	0.05371
541.000	0.08897	-0.33820	0.59901	-0.00398
542.000	0.16014	-0.30239	0.60099	0.00199
543.000	0.12060	-0.28449	0.59110	0.01194
544.000	0.16607	-0.24271	0.55157	-0.00597
545.000	0.17595	-0.31433	0.56343	-0.00995
546.000	0.09885	-0.24868	0.58122	-0.04377
547.000	0.08303	-0.26260	0.57331	-0.01393
548.000	0.11269	-0.23674	0.56540	-0.01393
549.000	0.11269	-0.26260	0.57924	-0.03581
550.000	0.11467	-0.32427	0.53971	0.00995
551.000	0.11664	-0.27653	0.56936	-0.00597
552.000	0.10280	-0.27255	0.57133	-0.00995
553.000	0.10874	-0.24271	0.56936	0.02785
554.000	0.04745	-0.31234	0.59308	-0.00995
555.000	0.08897	-0.34019	0.57529	0.00597
556.000	0.10280	-0.30239	0.56145	-0.01194
557.000	0.05931	-0.34815	0.59308	-0.00398
558.000	0.17398	-0.26459	0.58122	0.00796
559.000	0.13444	-0.26061	0.58122	0.00199
560.000	0.14630	-0.28051	0.57133	0.04575
561.000	0.16211	-0.21088	0.53575	-0.00199
562.000	0.09885	-0.24669	0.56343	0.01393
563.000	0.16211	-0.24470	0.57133	-0.00398
564.000	0.19177	-0.23077	0.58320	0.00796
565.000	0.17200	-0.22480	0.59110	-0.04377
566.000	0.14234	-0.22083	0.61878	-0.01790
567.000	0.16014	-0.23873	0.57924	-0.07559
568.000	0.12060	-0.28847	0.58320	-0.06963
569.000	0.16804	-0.18502	0.61482	-0.00796
570.000	0.13246	-0.28847	0.56540	-0.03979
571.000	0.08106	-0.30637	0.55947	-0.08156
572.000	0.04547	-0.32427	0.59506	-0.04377
573.000	0.15421	-0.30637	0.55947	0.00000
574.000	0.15618	-0.24072	0.58320	-0.02387
575.000	0.16804	-0.20889	0.60494	-0.02586
576.000	0.15025	-0.24072	0.57727	0.00398
577.000	0.15618	-0.27653	0.57331	0.00796
578.000	0.15421	-0.29841	0.56540	-0.04575
579.000	0.08699	-0.32228	0.56343	-0.01591
580.000	0.09885	-0.33223	0.57924	0.00000
581.000	0.10280	-0.25664	0.53180	0.01591
582.000	0.15421	-0.29841	0.57529	-0.03382
583.000	0.17793	-0.26857	0.60099	0.00995
584.000	0.17002	-0.25067	0.55157	0.00199
585.000	0.12455	-0.29244	0.55947	0.02984
586.000	0.18386	-0.30637	0.55552	-0.00398
587.000	0.07908	-0.26061	0.60494	-0.06565
588.000	0.13444	-0.25862	0.54168	-0.01790
589.000	0.13839	-0.29045	0.57924	0.00000
590.000	0.06920	-0.26260	0.56738	-0.00995
591.000	0.15223	-0.28051	0.58913	-0.01989
592.000	0.16607	-0.15319	0.57331	-0.06963
593.000	0.20363	-0.22480	0.58913	-0.04973
594.000	0.23724	-0.25265	0.58122	-0.04575
595.000	0.22142	-0.20491	0.61285	-0.06366
596.000	0.21747	-0.24669	0.53180	-0.11339
597.000	0.07117	-0.25067	0.58320	-0.07758
598.000	0.18979	-0.26459	0.56936	-0.07957
599.000	0.23329	-0.33024	0.53378	-0.05968
600.000	0.22735	-0.29244	0.57727	-0.11936
601.000	0.23922	-0.29841	0.58715	-0.06565
602.000	0.20165	-0.26857	0.56540	-0.08753
603.000	0.20758	-0.29244	0.61087	-0.09748
604.000	0.18188	-0.28846	0.60099	-0.01194
605.000	0.12455	-0.29841	0.57331	-0.06366
606.000	0.12257	-0.29244	0.55354	-0.05172
607.000	0.19375	-0.27255	0.60099	-0.00995
608.000	0.19968	-0.32427	0.55157	-0.01989
609.000	0.17793	-0.26260	0.50808	0.00398
610.000	0.15816	-0.33223	0.60494	-0.02188
611.000	0.13641	-0.27056	0.53773	-0.03581
612.000	0.15421	-0.24470	0.59308	0.00199
613.000	0.11664	-0.28648	0.56540	-0.04575
614.000	0.06524	-0.32229	0.57529	0.00199
615.000	0.13444	-0.32427	0.58320	-0.04575
616.000	0.11269	-0.30040	0.57727	-0.00597
617.000	0.15816	-0.33820	0.55750	-0.02984
618.000	0.17398	-0.21884	0.51994	0.03183
619.000	0.12653	-0.30637	0.49226	-0.01989
620.000	0.08501	-0.31831	0.54761	-0.00199
621.000	0.16804	-0.25465	0.51203	-0.01393
622.000	0.11269	-0.28051	0.50808	0.01393
623.000	0.06129	-0.26061	0.56145	0.00398
624.000	0.12850	-0.27454	0.56738	-0.01591
625.000	0.12060	-0.29244	0.52389	-0.01591
626.000	0.07710	-0.32030	0.51401	-0.03183
627.000	0.16607	-0.33621	0.54761	-0.02387
628.000	0.11862	-0.30637	0.51994	-0.02188
629.000	0.07513	-0.34616	0.51796	-0.04377
630.000	0.09094	-0.31831	0.51401	-0.01393
631.000	0.09490	-0.33422	0.52389	0.04178
632.000	0.10874	-0.24868	0.51994	-0.00796
633.000	0.06129	-0.26260	0.55552	0.00597
634.000	0.16409	-0.25862	0.52587	-0.02785
635.000	0.09687	-0.36207	0.50412	0.00995
636.000	0.14432	-0.28449	0.48831	0.01989
637.000	0.11467	-0.28847	0.53180	0.01393
638.000	0.07513	-0.24072	0.51994	-0.01194
639.000	0.17002	-0.33223	0.53575	-0.04576
640.000	0.12455	-0.35213	0.51994	-0.03382
641.000	0.09687	-0.22679	0.51005	-0.05968
642.000	0.14234	-0.25067	0.49622	-0.04576
643.000	0.11269	-0.27653	0.52784	-0.04774
644.000	0.08897	-0.26857	0.48040	-0.04377
645.000	0.05931	-0.32229	0.46854	-0.05968
646.000	0.10280	-0.24271	0.46063	-0.07162
647.000	0.14432	-0.25465	0.47645	-0.03979
648.000	0.17793	-0.33621	0.46261	-0.05570
649.000	0.05733	-0.29244	0.50412	-0.04774
650.000	0.15421	-0.25266	0.49819	0.00000
651.000	0.10676	-0.27852	0.51401	-0.03780
652.000	0.10280	-0.26459	0.51994	0.00597
653.000	0.11467	-0.26260	0.46261	0.01194
654.000	0.11269	-0.31632	0.49819	0.01790
655.000	0.04547	-0.27056	0.45865	-0.05371
656.000	0.11664	-0.27454	0.48633	-0.01591
657.000	0.08501	-0.28250	0.49226	-0.03183
658.000	0.10280	-0.24470	0.44086	0.02785
659.000	0.08699	-0.27255	0.49424	-0.03183
660.000	0.13641	-0.20889	0.52784	0.01989
661.000	0.16211	-0.21486	0.49622	0.03382
662.000	0.15025	-0.27454	0.50215	-0.03183
663.000	0.12455	-0.22878	0.50017	-0.02586
664.000	0.17002	-0.22878	0.46656	0.02984
665.000	0.10083	-0.22480	0.49424	0.00000
666.000	0.15618	-0.29443	0.48831	-0.01591
667.000	0.16409	-0.26658	0.46854	-0.03382
668.000	0.13641	-0.26459	0.45668	-0.05769
669.000	0.09094	-0.29642	0.47842	-0.06963
670.000	0.11862	-0.28847	0.50215	-0.06366
671.000	0.10874	-0.30637	0.47842	-0.05968
672.000	0.16804	-0.30438	0.51598	-0.06963
673.000	0.17002	-0.26857	0.48633	-0.06366
674.000	0.12455	-0.28250	0.51005	-0.07957
675.000	0.06524	-0.29443	0.52784	-0.03183
676.000	0.06920	-0.28449	0.50412	-0.02387
677.000	0.15421	-0.21287	0.50610	-0.06764
678.000	0.11664	-0.23475	0.54959	-0.07162
679.000	0.12455	-0.25266	0.54959	-0.08355
680.000	0.13048	-0.23276	0.50808	-0.08355
681.000	0.10478	-0.25465	0.53773	-0.07361
682.000	0.15025	-0.24868	0.49028	-0.05570
683.000	0.13641	-0.19098	0.51796	-0.06565
684.000	0.10083	-0.29443	0.48435	-0.08156
685.000	0.17200	-0.25067	0.53971	-0.07957
686.000	0.08897	-0.25862	0.51796	-0.06167
687.000	0.06524	-0.26061	0.49622	-0.06764
688.000	0.08106	-0.28648	0.50610	-0.05570
689.000	0.13048	-0.28449	0.51796	-0.07957
690.000	0.06326	-0.23674	0.50808	-0.06167
691.000	0.21747	-0.30040	0.49424	-0.08753
692.000	0.16014	-0.26459	0.53971	-0.02785
693.000	0.09490	-0.27255	0.49622	-0.04576
694.000	0.11071	-0.26658	0.49819	-0.08952
695.000	0.14037	-0.23873	0.50610	-0.10146
696.000	0.14630	-0.29244	0.49424	-0.09748
697.000	0.14234	-0.29443	0.52982	-0.06565
698.000	0.09687	-0.25465	0.50808	-0.10146
699.000	0.07710	-0.22282	0.51994	-0.09350
700.000	0.08699	-0.28648	0.52191	-0.09350
701.000	0.09687	-0.29443	0.47842	-0.07957
702.000	0.07315	-0.28449	0.48238	-0.05570
703.000	0.12850	-0.28250	0.50412	-0.04973
704.000	0.15025	-0.29443	0.50808	-0.05172
705.000	0.09885	-0.21486	0.50412	-0.03979
706.000	0.08501	-0.31035	0.50610	-0.01591
707.000	0.05536	-0.26459	0.48633	-0.02785
708.000	0.14432	-0.20690	0.48040	-0.02984
709.000	0.11664	-0.21685	0.47249	-0.04178
710.000	0.11269	-0.24271	0.45865	0.00597
711.000	0.11467	-0.28051	0.47249	-0.00995
712.000	0.12455	-0.24669	0.45668	0.02586
713.000	0.10083	-0.21884	0.47645	0.03780
714.000	0.11467	-0.23077	0.49622	-0.00199
715.000	0.12455	-0.21486	0.47447	0.01393
716.000	0.15816	-0.21884	0.45272	0.05570
717.000	0.16211	-0.24470	0.49424	0.06963
718.000	0.10478	-0.22083	0.47052	0.02586
719.000	0.19572	-0.25266	0.48435	0.03581
720.000	0.16014	-0.25465	0.48633	0.01194
721.000	0.06722	-0.24669	0.52389	0.00597
722.000	0.09094	-0.26857	0.52982	0.04576
723.000	0.11862	-0.27653	0.48831	0.02984
724.000	0.13444	-0.28449	0.48831	0.00796
725.000	0.14037	-0.27056	0.50808	0.05371
726.000	0.11269	-0.28051	0.49819	0.04377
727.000	0.12060	-0.23674	0.51005	0.05172
728.000	0.15816	-0.24072	0.47249	0.03581
729.000	0.12060	-0.21685	0.51005	0.05172
730.000	0.15421	-0.26658	0.51005	0.05570
731.000	0.09885	-0.29642	0.51796	0.05769
732.000	0.07908	-0.25664	0.50808	0.05570
733.000	0.11071	-0.24470	0.47447	0.09947
734.000	0.14827	-0.22083	0.53773	0.04576
735.000	0.06722	-0.18900	0.53575	0.08952
736.000	0.07513	-0.19496	0.49622	0.00000
737.000	0.13444	-0.21088	0.51203	0.06963
738.000	0.08897	-0.23873	0.47842	0.07361
739.000	0.10874	-0.22083	0.47842	0.09947
740.000	0.07117	-0.20292	0.51598	0.09151
741.000	0.20758	-0.20093	0.57924	0.11936
742.000	0.31829	-0.20093	0.67413	0.13527
743.000	0.38156	-0.24867	0.84017	0.14521
744.000	0.56343	-0.20888	1.02200	0.16907
745.000	0.69982	-0.29043	1.21765	0.21481
746.000	0.95480	-0.31031	1.46464	0.18695
747.000	1.21370	-0.25260	1.71948	0.21675
748.000	1.56145	-0.29035	1.96635	0.28432
749.000	1.98214	-0.25052	2.34539	0.34587
750.000	2.25262	-0.27035	2.63349	0.36765
751.000	2.59206	-0.29016	3.05158	0.37944
752.000	2.85243	-0.22651	3.25657	0.46278
753.000	3.25657	-0.15890	3.58358	0.43284
754.000	3.48314	-0.09134	3.89265	0.48231
755.000	3.70566	-0.00794	4.12283	0.49209
756.000	3.97333	0.08534	4.37646	0.47606
757.000	4.01661	0.07938	4.49437	0.43831
758.000	4.08742	0.04167	4.67117	0.40449
759.000	4.22312	0.09127	4.75560	0.42427
760.000	4.24672	0.13689	4.90871	0.39444
761.000	4.29390	0.15871	5.03625	0.39833
762.000	4.31553	0.17457	5.10099	0.37847
763.000	4.29194	0.22417	5.14021	0.36260
764.000	4.30570	0.21624	5.16571	0.35268
765.000	4.46097	0.25189	5.17551	0.38239
766.000	4.47276	0.28560	5.21473	0.39623
767.000	4.56117	0.39265	5.19120	0.51116
768.000	4.59849	0.41445	5.21080	0.57255
769.000	4.59457	0.40057	5.14217	0.62809
770.000	4.62010	0.41443	5.14217	0.65781
771.000	4.67313	0.46199	5.10491	0.76285
772.000	4.60439	0.50566	5.16571	0.74693
773.000	4.58474	0.51558	5.09314	0.80051
774.000	4.52384	0.42639	5.08137	0.75693
775.000	4.45900	0.46808	5.07156	0.74110
776.000	4.47472	0.50575	4.98917	0.70552
777.000	4.36467	0.42648	4.96955	0.69960
778.000	4.21919	0.41267	4.94993	0.71745
779.000	4.17593	0.39881	4.87731	0.71555
780.000	4.12676	0.31153	4.83806	0.68586
781.000	4.07169	0.31750	4.80468	0.69779
782.000	4.02251	0.28577	4.84591	0.70567
783.000	4.05989	0.31155	4.77720	0.68989
784.000	4.02054	0.21830	4.78505	0.75331
785.000	4.03038	0.21830	4.76935	0.72756
786.000	4.01267	0.26394	4.78505	0.73547
787.000	4.07169	0.24805	4.77720	0.79692
788.000	4.06185	0.23019	4.80861	0.79094
789.000	4.01267	0.19846	4.82432	0.78299
790.000	4.10906	0.22026	4.90479	0.74128
791.000	4.13856	0.23414	4.89890	0.79876
792.000	4.19363	0.15873	4.89105	0.78094
793.000	4.17003	0.20238	4.94208	0.81853
794.000	4.19559	0.22420	5.02056	0.77682
795.000	4.20542	0.20634	5.00683	0.83034
796.000	4.28800	0.25592	4.99505	0.84026
797.000	4.28407	0.29758	5.03429	0.83624
798.000	4.35287	0.30350	5.04606	0.86595
799.000	4.30766	0.31939	5.04214	0.89964
800.000	4.35484	0.31342	5.06372	0.90159
801.000	4.35484	0.34317	5.10883	0.90549
802.000	4.37646	0.33721	5.07941	0.92138
803.000	4.41184	0.40067	5.07353	0.90157
804.000	4.41773	0.34513	5.11668	0.90349
805.000	4.46097	0.34511	5.11472	0.94312
806.000	4.46293	0.32329	5.09510	0.95503
807.000	4.44721	0.40462	5.14217	0.90346
808.000	4.42756	0.35703	5.13433	0.95299
809.000	4.48848	0.35700	5.14413	0.92524
810.000	4.48651	0.35303	5.17355	0.91926
811.000	4.45900	0.38081	5.15198	0.89750
812.000	4.44918	0.38478	5.16571	0.91135
813.000	4.46883	0.38477	5.15198	0.91137
814.000	4.44721	0.42247	5.17355	0.89747
815.000	4.46883	0.46609	5.16767	0.89154
816.000	4.51991	0.42441	5.11668	0.89755
817.000	4.43346	0.40661	5.16178	0.95493
818.000	4.47669	0.45022	5.18335	0.86972
819.000	4.39612	0.42845	5.14806	0.86779
820.000	4.48258	0.44823	5.19708	0.90734
821.000	4.46686	0.45617	5.15982	0.90541
822.000	4.44328	0.47602	5.16571	0.88956
823.000	4.43739	0.41454	5.15002	0.88166
824.000	4.44918	0.45817	5.16374	0.91927
825.000	4.45311	0.42643	5.19512	0.90140
826.000	4.45507	0.48196	5.20100	0.87960
827.000	4.45114	0.43635	5.16374	0.83806
828.000	4.44328	0.44230	5.16178	0.90145
829.000	4.48651	0.46013	5.14609	0.93317
830.000	4.40005	0.44233	5.21669	0.91127
831.000	4.45900	0.51171	5.22061	0.89344
832.000	4.41577	0.50579	5.21277	0.93307
833.000	4.43346	0.42247	5.15394	0.90740
834.000	4.43739	0.46809	5.21080	0.89940
835.000	4.43935	0.48792	5.17747	0.88756
836.000	4.41970	0.46413	5.19708	0.92517
837.000	4.40791	0.46414	5.21669	0.95287
838.000	4.38432	0.43440	5.19316	0.90735
839.000	4.44132	0.47602	5.23041	0.89541
840.000	4.46293	0.52360	5.21080	0.93505
841.000	4.41773	0.45422	5.23825	0.93501
842.000	4.46293	0.42444	5.28530	0.94088
843.000	4.47276	0.49583	5.21473	1.00239
844.000	4.43542	0.45817	5.23237	0.97067
845.000	4.41184	0.44232	5.28922	0.94682
846.000	4.41577	0.47207	5.28530	0.94286
847.000	4.43935	0.53155	5.26962	0.92704
848.000	4.47472	0.52360	5.32254	0.90914
849.000	4.43739	0.52759	5.29706	0.89333
850.000	4.41970	0.53950	5.27942	0.94089
851.000	4.43935	0.52560	5.30294	0.87352
852.000	4.41184	0.49191	5.31078	0.86757
853.000	4.46686	0.51369	5.33234	0.93883
854.000	4.42559	0.53553	5.34410	0.89326
855.000	4.42559	0.49785	5.28530	0.90721
856.000	4.50420	0.51763	5.28334	0.93296
857.000	4.42756	0.47008	5.33038	0.91705
858.000	4.44328	0.58907	5.34998	0.94870
859.000	4.43346	0.56329	5.31862	0.96459
860.000	4.44328	0.58312	5.30686	0.93293
861.000	4.35091	0.58914	5.34410	0.91307
862.000	4.38629	0.52961	5.33430	0.92496
863.000	4.39218	0.50184	5.31666	0.98242
864.000	4.41970	0.57917	5.31862	0.95667
865.000	4.44132	0.56130	5.32646	0.94676
866.000	4.34108	0.64468	5.33822	0.92694
867.000	4.32732	0.55544	5.30098	0.96066
868.000	4.40201	0.58117	5.34410	0.92891
869.000	4.40398	0.59901	5.38918	0.94270
870.000	4.35287	0.61492	5.33822	0.98238
871.000	4.38432	0.59903	5.36174	0.93284
872.000	4.36663	0.58714	5.38134	0.88925
873.000	4.36270	0.56136	5.40093	0.93080
874.000	4.34305	0.60700	5.35194	0.97840
875.000	4.36270	0.59310	5.37938	0.96846
876.000	4.39218	0.60497	5.40485	0.97832
877.000	4.43935	0.65848	5.38918	0.99418
878.000	4.38629	0.54746	5.41465	0.93870
879.000	4.42166	0.64065	5.41269	0.94464
880.000	4.39415	0.62877	5.41857	0.94860
881.000	4.41380	0.59901	5.45775	0.95051
882.000	4.43346	0.59899	5.41661	0.94860
883.000	4.41184	0.64066	5.39114	0.95854
884.000	4.42166	0.60297	5.39310	0.92289
885.000	4.43346	0.64064	5.48518	0.92671
886.000	4.43935	0.69021	5.47343	0.99800
887.000	4.37056	0.58317	5.50281	0.98410
888.000	4.42756	0.61089	5.46167	0.92477
889.000	4.40005	0.62480	5.46167	0.91487
890.000	4.39612	0.67042	5.47930	0.97424
891.000	4.41773	0.65652	5.47930	0.96434
892.000	4.43149	0.68625	5.47343	0.95247
893.000	4.44918	0.61881	5.47343	0.99206
894.000	4.41577	0.65652	5.46363	0.95644
895.000	4.47865	0.59895	5.48126	0.95642
896.000	4.39808	0.65257	5.53415	0.93257
897.000	4.39612	0.65852	5.48910	1.00788
898.000	4.42166	0.65453	5.53415	0.97613
899.000	4.39612	0.68430	5.49889	0.96827
900.000	4.44918	0.68822	5.52044	0.94447
901.000	4.37843	0.70812	5.50085	0.96034
902.000	4.42953	0.71402	5.51064	0.97814
903.000	4.43739	0.72393	5.48910	1.04153
904.000	4.44918	0.65649	5.50673	0.97419
905.000	4.46293	0.69614	5.54003	0.98403
906.000	4.44721	0.73582	5.52827	1.00187
907.000	4.43346	0.73187	5.51064	1.02368
908.000	4.40987	0.68231	5.52044	1.05137
909.000	4.38236	0.70812	5.51260	1.02367
910.000	4.49044	0.66240	5.59094	1.02354
911.000	4.48062	0.75760	5.53611	0.99394
912.000	4.36663	0.71408	5.53611	0.98008
913.000	4.43739	0.71600	5.56549	1.01764
914.000	4.45507	0.73779	5.51260	0.98408
915.000	4.36663	0.67640	5.53219	1.02760
916.000	4.43149	0.75368	5.52240	1.02168
917.000	4.42166	0.74774	5.50869	1.04546
918.000	4.41184	0.72594	5.54982	1.00777
919.000	4.38039	0.70217	5.52631	1.04147
920.000	4.35877	0.72202	5.50869	1.07713
921.000	4.40201	0.67240	5.55373	1.04340
922.000	4.39612	0.71207	5.54394	1.02956
923.000	4.43149	0.71204	5.52436	1.06522
924.000	4.44328	0.72194	5.52827	1.05730
925.000	4.37450	0.65656	5.51848	1.06127
926.000	4.32929	0.68040	5.55178	1.00975
927.000	4.38629	0.71605	5.53023	1.10876
928.000	4.35091	0.72798	5.50281	1.08308
929.000	4.35681	0.73591	5.54198	1.05529
930.000	4.36467	0.71012	5.52827	1.05136
931.000	4.33911	0.71212	5.53807	1.10281
932.000	4.40594	0.73586	5.56157	1.10276
933.000	4.36467	0.73987	5.57332	1.05128
934.000	4.37253	0.66846	5.57136	1.02951
935.000	4.35287	0.72203	5.54786	1.07310
936.000	4.42953	0.74377	5.59290	1.05322
937.000	4.39022	0.68431	5.60465	1.00174
938.000	4.36270	0.74979	5.52436	1.04147
939.000	4.39218	0.67241	5.58311	0.99980
940.000	4.36663	0.67640	5.57919	1.05325
941.000	4.41380	0.72395	5.57919	1.03543
942.000	4.39022	0.72993	5.52631	1.06126
943.000	4.34501	0.73394	5.58507	1.10668
944.000	4.42166	0.76559	5.61248	1.15215
945.000	4.53956	0.79521	5.64968	1.17384
946.000	4.52777	0.73772	5.71820	1.18557
947.000	4.75757	0.69387	5.93147	1.19501
948.000	4.96170	0.79869	6.14263	1.21036
949.000	5.14806	0.73506	6.33604	1.24154
950.000	5.42053	0.72484	6.57809	1.26860
951.000	5.68101	0.64732	6.89980	1.28355
952.000	5.99992	0.70037	7.20940	1.33596
953.000	6.29307	0.77511	7.62931	1.30118
954.000	6.58004	0.62450	8.04646	1.25656
955.000	6.91344	0.58260	8.35054	1.23396
956.000	7.24248	0.55258	8.69278	1.24858
957.000	7.63514	0.51660	9.01126	1.23572
958.000	8.03677	0.50822	9.36575	1.18347
959.000	8.37956	0.35624	9.70224	1.10194
960.000	8.60196	0.44455	9.91340	1.05618
961.000	8.82217	0.31847	10.03996	1.08514
962.000	9.09802	0.36537	10.27940	1.08237
963.000	9.26372	0.32397	10.46304	1.08174
964.000	9.28490	0.36126	10.70374	0.99490
965.000	9.40424	0.32973	10.79915	1.02780
966.000	9.45811	0.34734	10.86209	0.97094
967.000	9.52543	0.38062	10.85637	0.97291
968.000	9.45811	0.26492	10.92309	1.00394
969.000	9.41771	0.34934	10.91356	0.98640
970.000	9.43887	0.32381	10.83539	0.94954
971.000	9.41001	0.34543	10.74573	0.96936
972.000	9.28490	0.37893	10.64073	1.01661
973.000	9.25024	0.34755	10.61973	0.97563
974.000	9.17126	0.34762	10.50892	1.01314
975.000	9.10573	0.39680	10.43627	0.99773
976.000	9.01705	0.36742	10.35020	0.97648
977.000	8.99969	0.41853	10.26026	0.97089
978.000	8.89937	0.37933	10.25643	0.96307
979.000	8.80673	0.39516	10.24303	0.96703
980.000	8.78935	0.44236	10.17601	1.02596
981.000	8.78549	0.51903	10.15685	1.04559
982.000	8.76038	0.46402	10.18941	1.10029
983.000	8.71017	0.53094	10.23345	1.05317
984.000	8.74687	0.53678	10.15494	1.08671
985.000	8.77197	0.50922	10.21814	1.11781
986.000	8.77776	0.56033	10.24686	1.14511
987.000	8.82603	0.56222	10.22388	1.20194
988.000	8.90323	0.56800	10.23728	1.21950
989.000	8.91481	0.58370	10.26791	1.17242
990.000	8.96690	0.54432	10.29662	1.19384
991.000	8.96111	0.45787	10.33490	1.23282
992.000	9.00933	0.44209	10.35977	1.19360
993.000	9.04212	0.51671	10.36742	1.23660
994.000	9.15199	0.46352	10.38272	1.19547
995.000	9.18282	0.44973	10.38464	1.28935
996.000	9.18667	0.43009	10.39802	1.21693
997.000	9.15584	0.40067	10.37507	1.26005
998.000	9.23868	0.42217	10.43627	1.19331
999.000	9.27912	0.39856	10.45539	1.26950
1000.000	9.27142	0.38876	10.49554	1.23219
1001.000	9.26949	0.37894	10.54331	1.17139
1002.000	9.23290	0.36327	10.54331	1.20658
1003.000	9.31763	0.35337	10.56242	1.18696
1004.000	9.31378	0.36712	10.53185	1.17730
1005.000	9.28105	0.40642	10.51465	1.21647
1006.000	9.24446	0.44965	10.52229	1.17538
1007.000	9.26564	0.38876	10.51274	1.22430
1008.000	9.25409	0.45357	10.51465	1.21060
1009.000	9.34843	0.43971	10.50318	1.15786
1010.000	9.28683	0.44175	10.47069	1.18535
1011.000	9.26564	0.43981	10.47833	1.21857
1012.000	9.19630	0.42811	10.44774	1.20695
1013.000	9.25409	0.42608	10.45157	1.16587
1014.000	9.26564	0.39269	10.50892	1.13046
1015.000	9.27527	0.42606	10.49936	1.16569
1016.000	9.25409	0.41037	10.52994	1.18513
1017.000	9.29453	0.41425	10.52038	1.16366
1018.000	9.29260	0.40248	10.52229	1.13432
1019.000	9.26949	0.42803	10.57770	1.11848
1020.000	9.19245	0.42026	10.57770	1.17908
1021.000	9.22135	0.46539	10.58726	1.11062
1022.000	9.23868	0.39665	10.52994	1.16167
1023.000	9.22135	0.39667	10.58153	1.13410
1024.000	9.19245	0.37313	10.54714	1.10490
1025.000	9.21942	0.37310	10.57388	1.11654
1026.000	9.18282	0.39475	10.54714	1.13032
1027.000	9.20401	0.40258	10.53185	1.14993
1028.000	9.19823	0.40847	10.48216	1.17358
1029.000	9.16740	0.45172	10.51656	1.16367
1030.000	9.22905	0.37309	10.52803	1.15190
1031.000	9.22135	0.43790	10.52994	1.17340
1032.000	9.23098	0.45949	10.50892	1.11677
1033.000	9.18474	0.41438	10.49362	1.16180
1034.000	9.25409	0.39663	10.53758	1.15577
1035.000	9.23290	0.41236	10.57197	1.14782
1036.000	9.21557	0.48700	10.49171	1.20874
1037.000	9.20786	0.43006	10.56433	1.12830
1038.000	9.22712	0.40255	10.54140	1.21441
1039.000	9.23290	0.46341	10.59490	1.13601
1040.000	9.20208	0.43007	10.60636	1.13206
1041.000	9.18667	0.37903	10.59490	1.16142
1042.000	9.25794	0.35539	10.59681	1.21614
1043.000	9.23675	0.37309	10.57579	1.16149
1044.000	9.21364	0.39668	10.57579	1.15954
1045.000	9.29453	0.45548	10.51465	1.15195
1046.000	9.27142	0.40839	10.55287	1.14789
1047.000	9.25216	0.39860	10.54905	1.15573
1048.000	9.23290	0.42022	10.52612	1.15581
1049.000	9.23290	0.40843	10.60254	1.14380
1050.000	9.20401	0.40847	10.57962	1.14779
1051.000	9.23483	0.46341	10.60254	1.15162
1052.000	9.23675	0.39076	10.59681	1.16923
1053.000	9.25987	0.39270	10.62737	1.10071
1054.000	9.22712	0.37310	10.64837	1.12213
1055.000	9.19245	0.41634	10.56624	1.14980
1056.000	9.28297	0.43390	10.60445	1.18679
1057.000	9.25409	0.43197	10.59490	1.15556
1058.000	9.27527	0.47710	10.55287	1.19872
1059.000	9.29260	0.40837	10.61782	1.14179
1060.000	9.26179	0.37306	10.55287	1.17331
1061.000	9.23868	0.44574	10.52803	1.19491
1062.000	9.26179	0.47516	10.48789	1.20289
1063.000	9.28490	0.31806	10.60636	1.16333
1064.000	9.29453	0.38480	10.53567	1.15578
1065.000	9.27142	0.44766	10.56624	1.16739
1066.000	9.28683	0.40445	10.55287	1.14398
1067.000	9.26564	0.37109	10.55096	1.15181
1068.000	9.23675	0.39665	10.53949	1.18118
1069.000	9.29260	0.42800	10.56051	1.15373
1070.000	9.24061	0.34952	10.51465	1.20278
1071.000	9.25216	0.43983	10.56242	1.23192
1072.000	9.25987	0.41429	10.51274	1.22821
1073.000	9.31378	0.42601	10.59299	1.20443
1074.000	9.30608	0.41817	10.54140	1.22809
1075.000	9.28683	0.40445	10.55860	1.18111
1076.000	9.25216	0.43590	10.55287	1.24173
1077.000	9.28875	0.36518	10.57388	1.22796
1078.000	9.29838	0.36713	10.53567	1.24767
1079.000	9.27720	0.34359	10.53185	1.26723
1080.000	9.25987	0.45945	10.53949	1.23788
1081.000	9.27142	0.36323	10.53376	1.24963
1082.000	9.21364	0.39471	10.51656	1.30444
1083.000	9.21749	0.35151	10.50892	1.29665
1084.000	9.26372	0.35342	10.55669	1.23390
1085.000	9.30800	0.33178	10.57197	1.24361
1086.000	9.25794	0.34558	10.51656	1.21060
1087.000	9.30030	0.37695	10.55287	1.22805
1088.000	9.25409	0.37110	10.56051	1.26125
1089.000	9.30800	0.40835	10.50700	1.24192
1090.000	9.30993	0.36712	10.60636	1.19461
1091.000	9.36190	0.41025	10.56815	1.24362
1092.000	9.22327	0.25921	10.50700	1.31034
1093.000	9.18667	0.33779	10.54905	1.24957
1094.000	9.22905	0.28473	10.55860	1.21629
1095.000	9.23868	0.36523	10.57770	1.31591
1096.000	9.31571	0.32000	10.58535	1.22010
1097.000	9.25601	0.32005	10.57006	1.19866
1098.000	9.21364	0.32402	10.55096	1.24760
1099.000	9.21171	0.34758	10.54714	1.18311
1100.000	9.21942	0.32205	10.58535	1.26506
1101.000	9.26757	0.29452	10.52420	1.22816
1102.000	9.25024	0.32791	10.51274	1.33574
1103.000	9.27527	0.41035	10.58153	1.26703
1104.000	9.20979	0.27886	10.58726	1.27678
1105.000	9.24446	0.34755	10.57770	1.22599
1106.000	9.24831	0.33184	10.53758	1.30630
1107.000	9.22905	0.31419	10.56051	1.25343
1108.000	9.26372	0.28274	10.56624	1.24559
1109.000	9.17511	0.27299	10.55860	1.26321
1110.000	9.28297	0.29647	10.60254	1.25912
1111.000	9.10381	0.27697	10.60063	1.19658
1112.000	9.24446	0.31417	10.53758	1.24961
1113.000	9.22712	0.35150	10.60063	1.22981
1114.000	9.18474	0.26513	10.61400	1.31771
1115.000	9.27912	0.31021	10.55287	1.27692
1116.000	9.18667	0.33583	10.52612	1.30440
1117.000	9.20016	0.32010	10.58535	1.29437
1118.000	9.26757	0.36127	10.53949	1.26524
1119.000	9.18860	0.31422	10.51083	1.32010
1120.000	9.24253	0.33185	10.52612	1.29658
1121.000	9.28105	0.37108	10.55096	1.30038
1122.000	9.18860	0.27298	10.55669	1.32382
1123.000	9.17126	0.29853	10.52994	1.26333
1124.000	9.20594	0.33777	10.58153	1.25530
1125.000	9.15006	0.26908	10.56242	1.29643
1126.000	9.22712	0.30044	10.61209	1.24345
1127.000	9.14043	0.29855	10.59872	1.29041
1128.000	9.24446	0.32988	10.55478	1.27496
1129.000	9.13464	0.29463	10.54522	1.28477
1130.000	9.17704	0.32012	10.57579	1.25532
1131.000	9.15006	0.28087	10.59681	1.21419
1132.000	9.20401	0.31224	10.56051	1.29839
1133.000	9.17126	0.29853	10.57388	1.24947
1134.000	9.18474	0.35743	10.59490	1.30411
1135.000	9.21171	0.21994	10.55478	1.29841
1136.000	9.22135	0.29259	10.58344	1.22402
1137.000	9.23675	0.27294	10.59681	1.19073
1138.000	9.14043	0.24552	10.61591	1.22389
1139.000	9.20786	0.31617	10.61209	1.19654
1140.000	9.11537	0.23375	10.66174	1.18853
1141.000	9.15391	0.27497	10.63882	1.21598
1142.000	9.20016	0.23762	10.67510	1.16307
1143.000	9.20401	0.28475	10.64837	1.15731
1144.000	9.21171	0.28278	10.59108	1.20444
1145.000	9.17511	0.22389	10.56624	1.19085
1146.000	9.18667	0.18264	10.68274	1.16499
1147.000	9.28105	0.26309	10.59299	1.17120
1148.000	9.15970	0.21997	10.63882	1.14562
1149.000	9.16740	0.22783	10.65601	1.16705
1150.000	9.17318	0.28870	10.60636	1.16333
1151.000	9.13464	0.18856	10.62928	1.13979
1152.000	9.15584	0.31622	10.62164	1.17500
1153.000	9.18667	0.26905	10.70374	1.12583
1154.000	9.19630	0.25334	10.70565	1.17468
1155.000	9.17511	0.29263	10.66938	1.13182
1156.000	9.18860	0.20621	10.69610	1.13954
1157.000	9.16548	0.25140	10.67319	1.14158
1158.000	9.15777	0.17480	10.71328	1.12775
1159.000	9.15970	0.21015	10.68847	1.12980
1160.000	9.12886	0.25142	10.67128	1.12595
1161.000	9.18089	0.23174	10.69419	1.21576
1162.000	9.13657	0.23767	10.65983	1.12013
1163.000	9.18860	0.27495	10.66747	1.16896
1164.000	9.12501	0.17875	10.68465	1.16499
1165.000	9.19823	0.22781	10.63501	1.19449
1166.000	9.20594	0.21602	10.69992	1.13953
1167.000	9.20208	0.23173	10.64837	1.21203
1168.000	9.20401	0.24744	10.65792	1.20222
1169.000	9.16933	0.29853	10.65792	1.19636
1170.000	9.19052	0.26120	10.70756	1.21375
1171.000	9.16355	0.23176	10.68847	1.18842
1172.000	9.21364	0.24743	10.66365	1.21001
1173.000	9.21557	0.20030	10.68656	1.20015
1174.000	9.23675	0.26902	10.64837	1.23939
1175.000	9.19245	0.28476	10.72092	1.20588
1176.000	9.29645	0.24541	10.64073	1.23747
1177.000	9.22327	0.23368	10.71328	1.22740
1178.000	9.18089	0.21211	10.67319	1.21975
1179.000	9.21171	0.20423	10.71901	1.19612
1180.000	9.17896	0.20032	10.70946	1.18443
1181.000	9.14621	0.16892	10.71328	1.13948
1182.000	9.17126	0.13552	10.68274	1.20994
1183.000	9.19630	0.21210	10.71901	1.22933
1184.000	9.15777	0.14338	10.74000	1.19017
1185.000	9.19823	0.17871	10.66174	1.25106
1186.000	9.14235	0.12374	10.75145	1.20771
1187.000	9.13657	0.20035	10.69038	1.19232
1188.000	9.16355	0.17087	10.65410	1.22960
1189.000	9.15199	0.14534	10.69992	1.21182
1190.000	9.13657	0.15714	10.70756	1.22547
1191.000	9.15970	0.10606	10.68465	1.21970
1192.000	9.10381	0.04518	10.66938	1.21390
1193.000	9.05947	0.09037	10.68656	1.26854
1194.000	9.09802	0.16501	10.64455	1.20032
1195.000	9.13850	0.19838	10.74573	1.22727
1196.000	9.16740	0.15319	10.70756	1.24892
1197.000	9.14428	0.12767	10.70183	1.21963
1198.000	9.16548	0.15123	10.67510	1.20997
1199.000	9.14235	0.15124	10.68847	1.19428
1200.000	9.16933	0.08445	10.67319	1.29986
1201.000	9.17896	0.14140	10.66747	1.25690
1202.000	9.21942	0.14139	10.69419	1.25679
1203.000	9.17704	0.17087	10.63882	1.24138
1204.000	9.17318	0.11784	10.60063	1.31190
1205.000	9.18089	0.20032	10.68274	1.27833
1206.000	9.15970	0.13552	10.64837	1.27066
1207.000	9.21942	0.22976	10.64646	1.23940
1208.000	9.14235	0.18856	10.65792	1.24130
1209.000	9.18860	0.21996	10.65410	1.27650
1210.000	9.22520	0.19048	10.69038	1.27244
1211.000	9.13850	0.26909	10.64073	1.31954
1212.000	9.16355	0.23176	10.62546	1.25707
1213.000	9.11152	0.26911	10.65219	1.30582
1214.000	9.15391	0.23373	10.63882	1.28633
1215.000	9.16355	0.19837	10.64264	1.21987
1216.000	9.10381	0.18858	10.62737	1.25706
1217.000	9.12501	0.28874	10.60063	1.25913
1218.000	9.09417	0.21412	10.59872	1.25718
1219.000	9.15970	0.29264	10.69038	1.27439
1220.000	9.19630	0.26512	10.66747	1.20609
1221.000	9.10188	0.21805	10.57197	1.30616
1222.000	9.11730	0.23964	10.63310	1.29026
1223.000	9.11344	0.22393	10.63501	1.27462
1224.000	9.04983	0.28488	10.64264	1.32540
1225.000	9.08839	0.23377	10.59872	1.30214
1226.000	9.14428	0.30641	10.66938	1.30965
1227.000	9.11344	0.20036	10.61018	1.30209
1228.000	9.20979	0.31813	10.60445	1.29820
1229.000	9.09031	0.25341	10.68847	1.29003
1230.000	9.18089	0.30048	10.58153	1.27094
1231.000	9.16548	0.30246	10.65410	1.28822
1232.000	9.15777	0.31621	10.60636	1.31383
1233.000	9.18282	0.29262	10.65601	1.31948
1234.000	9.10573	0.31430	10.65601	1.23350
1235.000	9.12115	0.28089	10.60827	1.26301
1236.000	9.12308	0.26125	10.69228	1.27243
1237.000	9.06525	0.27897	10.60445	1.29820
1238.000	9.15970	0.34764	10.65028	1.22570
1239.000	9.14813	0.37514	10.65601	1.24718
1240.000	9.14621	0.26516	10.72473	1.25666
1241.000	9.14428	0.28284	10.64073	1.25115
1242.000	9.13079	0.17089	10.61400	1.27862
1243.000	9.19438	0.24352	10.64264	1.25896
1244.000	9.11152	0.30643	10.65410	1.27650
1245.000	9.16548	0.31031	10.66556	1.27449
1246.000	9.18474	0.30244	10.62546	1.32743
1247.000	9.10573	0.29269	10.64455	1.33125
1248.000	9.18474	0.30244	10.63882	1.41531
1249.000	9.18282	0.31030	10.57388	1.39606
1250.000	9.18474	0.31619	10.55096	1.42939
1251.000	9.15584	0.30443	10.63310	1.36452
1252.000	9.16740	0.32210	10.59872	1.40963
1253.000	9.21171	0.34955	10.62928	1.37040
1254.000	9.15006	0.32604	10.58535	1.42337
1255.000	9.17318	0.31620	10.55669	1.40982
1256.000	9.20979	0.35937	10.59490	1.45850
1257.000	9.15777	0.36728	10.65601	1.42109
1258.000	9.25024	0.37504	10.54905	1.42158
1259.000	9.25601	0.34558	10.59490	1.43114
1260.000	9.21557	0.34562	10.60063	1.47802
1261.000	9.22327	0.39470	10.54331	1.52520
1262.000	9.26949	0.53797	10.52612	1.51551
1263.000	9.32148	0.58893	10.56242	1.56028
1264.000	9.31186	0.63606	10.48598	1.54308
1265.000	9.35998	0.62419	10.55287	1.49584
1266.000	9.46581	0.69660	10.51083	1.53123
1267.000	9.41001	0.66139	10.52038	1.49990
1268.000	9.37730	0.69089	10.51465	1.49602
1269.000	9.36383	0.66344	10.49936	1.47459
1270.000	9.33111	0.64387	10.50509	1.42179
1271.000	9.40617	0.65158	10.51465	1.47061
1272.000	9.38885	0.66928	10.55096	1.43917
1273.000	9.41386	0.73595	10.55669	1.50559
1274.000	9.49081	0.75344	10.53567	1.37278
1275.000	9.37153	0.69483	10.64646	1.14559
1276.000	9.38885	0.78507	10.83730	0.75223
1277.000	9.42348	0.79480	10.97835	0.64447
1278.000	9.41386	0.82622	10.90594	0.75206
1279.000	9.35998	0.83027	10.95739	0.96868
1280.000	9.38692	0.87534	10.94024	1.26747
1281.000	9.20594	0.90524	10.95739	1.68900
1282.000	9.11923	0.85440	10.79152	2.21697
1283.000	8.82796	0.82954	10.79915	2.70261
1284.000	8.60776	0.84379	10.48980	3.25745
1285.000	8.41246	0.88751	10.32916	3.85766
1286.000	8.02902	0.92973	10.00737	4.58055
1287.000	7.71669	1.01715	9.73873	5.19742
1288.000	7.47194	1.05914	9.58887	5.80029
1289.000	7.16464	1.12103	9.36768	6.52965
1290.000	6.88811	1.14934	9.22520	7.28511
1291.000	6.54492	1.15805	9.01126	8.19806
1292.000	6.41415	1.46067	9.00933	8.94929
1293.000	6.23447	1.66671	9.05947	9.93451
1294.000	6.21102	2.05006	NaN	NaN
1295.000	6.14849	2.40975	NaN	NaN
1296.000	6.15631	2.92484	NaN	NaN
1297.000	6.23838	3.48034	NaN	NaN
1298.000	6.30870	4.00755	NaN	NaN
1299.000	6.41805	4.58074	NaN	NaN
1300.000	6.49418	5.23346	NaN	NaN
1301.000	6.49027	5.81513	NaN	NaN
1302.000	6.62881	6.42112	NaN	NaN
1303.000	6.66392	7.13185	NaN	NaN
1304.000	6.66002	7.82732	NaN	NaN
1305.000	6.58199	8.62610	NaN	NaN
1306.000	6.50199	9.43525	NaN	NaN
1307.000	NaN	NaN	NaN	NaN
1308.000	NaN	NaN	NaN	NaN
1309.000	NaN	NaN	NaN	NaN
1310.000	NaN	NaN	NaN	NaN
1311.000	NaN	NaN	NaN	NaN
1312.000	NaN	NaN	NaN	NaN
1313.000	NaN	NaN	NaN	NaN
1314.000	NaN	NaN	NaN	NaN
1315.000	NaN	NaN	NaN	NaN
1316.000	NaN	NaN	NaN	NaN
1317.000	NaN	NaN	NaN	NaN
1318.000	NaN	NaN	NaN	NaN
1319.000	NaN	NaN	NaN	NaN
1320.000	NaN	NaN	NaN	NaN
1321.000	NaN	NaN	NaN	NaN
1322.000	NaN	NaN	NaN	NaN
1323.000	NaN	NaN	NaN	NaN
1324.000	NaN	NaN	NaN	NaN
1325.000	NaN	NaN	NaN	NaN
1326.000	NaN	NaN	NaN	NaN
1327.000	NaN	NaN	NaN	NaN
1328.000	NaN	NaN	NaN	NaN
1329.000	NaN	NaN	NaN	NaN
1330.000	NaN	NaN	NaN	NaN
1331.000	NaN	NaN	NaN	NaN
1332.000	NaN	NaN	NaN	NaN
1333.000	NaN	NaN	NaN	NaN
1334.000	NaN	NaN	NaN	NaN
1335.000	NaN	NaN	NaN	NaN
1336.000	NaN	NaN	NaN	NaN
1337.000	NaN	NaN	NaN	NaN
1338.000	NaN	NaN	NaN	NaN
1339.000	NaN	NaN	NaN	NaN
1340.000	NaN	NaN	NaN	NaN
1341.000	NaN	NaN	NaN	NaN
1342.000	NaN	NaN	NaN	NaN
1343.000	NaN	NaN	NaN	NaN
1344.000	NaN	NaN	NaN	NaN
1345.000	NaN	NaN	NaN	NaN
1346.000	NaN	NaN	NaN	NaN
1347.000	NaN	NaN	NaN	NaN
1348.000	NaN	NaN	NaN	NaN
1349.000	NaN	NaN	NaN	NaN
1350.000	NaN	NaN	NaN	NaN
1351.000	NaN	NaN	NaN	NaN
1352.000	NaN	NaN	NaN	NaN
1353.000	NaN	NaN	NaN	NaN
1354.000	NaN	NaN	NaN	NaN
1355.000	NaN	NaN	NaN	NaN
1356.000	NaN	NaN	NaN	NaN
1357.000	NaN	NaN	NaN	NaN
1358.000	NaN	NaN	NaN	NaN
1359.000	NaN	NaN	NaN	NaN
1360.000	NaN	NaN	NaN	NaN
1361.000	NaN	NaN	NaN	NaN
1362.000	NaN	NaN	NaN	NaN
1363.000	NaN	NaN	NaN	NaN
1364.000	NaN	NaN	NaN	NaN
1365.000	NaN	NaN	NaN	NaN
1366.000	NaN	NaN	NaN	NaN
1367.000	NaN	NaN	NaN	NaN
1368.000	NaN	NaN	NaN	NaN
1369.000	NaN	NaN	NaN	NaN
1370.000	NaN	NaN	NaN	NaN
1371.000	NaN	NaN	NaN	NaN
1372.000	NaN	NaN	NaN	NaN
1373.000	NaN	NaN	NaN	NaN
1374.000	NaN	NaN	NaN	NaN
1375.000	NaN	NaN	NaN	NaN
1376.000	NaN	NaN	NaN	NaN
1377.000	NaN	NaN	NaN	NaN
1378.000	NaN	NaN	NaN	NaN
1379.000	NaN	NaN	NaN	NaN
1380.000	NaN	NaN	NaN	NaN
1381.000	NaN	NaN	NaN	NaN
1382.000	NaN	NaN	NaN	NaN
1383.000	NaN	NaN	NaN	NaN
1384.000	NaN	NaN	NaN	NaN
1385.000	NaN	NaN	NaN	NaN
1386.000	NaN	NaN	NaN	NaN
1387.000	NaN	NaN	NaN	NaN
1388.000	NaN	NaN	NaN	NaN
1389.000	NaN	NaN	NaN	NaN
1390.000	NaN	NaN	NaN	NaN
1391.000	NaN	NaN	NaN	NaN
1392.000	NaN	NaN	NaN	NaN
1393.000	NaN	NaN	NaN	NaN
1394.000	NaN	NaN	NaN	NaN
1395.000	NaN	NaN	NaN	NaN
1396.000	NaN	NaN	NaN	NaN
1397.000	NaN	NaN	NaN	NaN
1398.000	NaN	NaN	NaN	NaN
1399.000	NaN	NaN	NaN	NaN
1400.000	NaN	NaN	NaN	NaN
1401.000	NaN	NaN	NaN	NaN
1402.000	NaN	NaN	NaN	NaN
1403.000	NaN	NaN	NaN	NaN
1404.000	NaN	NaN	NaN	NaN
1405.000	NaN	NaN	NaN	NaN
1406.000	NaN	NaN	NaN	NaN
1407.000	NaN	NaN	NaN	NaN
1408.000	NaN	NaN	NaN	NaN
1409.000	NaN	NaN	NaN	NaN
1410.000	NaN	NaN	NaN	NaN
1411.000	NaN	NaN	NaN	NaN
1412.000	NaN	NaN	NaN	NaN
1413.000	NaN	NaN	NaN	NaN
1414.000	NaN	NaN	NaN	NaN
1415.000	NaN	NaN	NaN	NaN
1416.000	NaN	NaN	NaN	NaN
1417.000	NaN	NaN	NaN	NaN
1418.000	NaN	NaN	NaN	NaN
1419.000	NaN	NaN	NaN	NaN
1420.000	NaN	NaN	NaN	NaN
1421.000	NaN	NaN	NaN	NaN
1422.000	NaN	NaN	NaN	NaN
1423.000	NaN	NaN	NaN	NaN
1424.000	NaN	NaN	NaN	NaN
1425.000	NaN	NaN	NaN	NaN
1426.000	NaN	NaN	NaN	NaN
1427.000	NaN	NaN	NaN	NaN
1428.000	NaN	NaN	NaN	NaN
1429.000	NaN	NaN	NaN	NaN
1430.000	NaN	NaN	NaN	NaN
1431.000	NaN	NaN	NaN	NaN
1432.000	NaN	NaN	NaN	NaN
1433.000	NaN	NaN	NaN	NaN
1434.000	NaN	NaN	NaN	NaN
1435.000	NaN	NaN	NaN	NaN
1436.000	NaN	NaN	NaN	NaN
1437.000	NaN	NaN	NaN	NaN
1438.000	NaN	NaN	NaN	NaN
1439.000	NaN	NaN	NaN	NaN
1440.000	NaN	NaN	NaN	NaN
1441.000	NaN	NaN	NaN	NaN
1442.000	NaN	NaN	NaN	NaN
1443.000	NaN	NaN	NaN	NaN
1444.000	NaN	NaN	NaN	NaN
1445.000	NaN	NaN	NaN	NaN
1446.000	NaN	NaN	NaN	NaN
1447.000	NaN	NaN	NaN	NaN
1448.000	NaN	NaN	NaN	NaN
1449.000	NaN	NaN	NaN	NaN
1450.000	NaN	NaN	NaN	NaN
1451.000	NaN	NaN	NaN	NaN
1452.000	NaN	NaN	NaN	NaN
1453.000	NaN	NaN	NaN	NaN
1454.000	NaN	NaN	NaN	NaN
1455.000	NaN	NaN	NaN	NaN
1456.000	NaN	NaN	NaN	NaN
1457.000	NaN	NaN	NaN	NaN
1458.000	NaN	NaN	NaN	NaN
1459.000	NaN	NaN	NaN	NaN
1460.000	NaN	NaN	NaN	NaN
1461.000	NaN	NaN	NaN	NaN
1462.000	NaN	NaN	NaN	NaN
1463.000	NaN	NaN	NaN	NaN
1464.000	NaN	NaN	NaN	NaN
1465.000	NaN	NaN	NaN	NaN
1466.000	NaN	NaN	NaN	NaN
1467.000	NaN	NaN	NaN	NaN
1468.000	NaN	NaN	NaN	NaN
1469.000	NaN	NaN	NaN	NaN
1470.000	NaN	NaN	NaN	NaN
1471.000	NaN	NaN	NaN	NaN
1472.000	NaN	NaN	NaN	NaN
1473.000	NaN	NaN	NaN	NaN
1474.000	NaN	NaN	NaN	NaN
1475.000	NaN	NaN	NaN	NaN
1476.000	NaN	NaN	NaN	NaN
1477.000	NaN	NaN	NaN	NaN
1478.000	NaN	NaN	NaN	NaN
1479.000	NaN	NaN	NaN	NaN
1480.000	NaN	NaN	NaN	NaN
1481.000	NaN	NaN	NaN	NaN
1482.000	NaN	NaN	NaN	NaN
1483.000	NaN	NaN	NaN	NaN
1484.000	NaN	NaN	NaN	NaN
1485.000	NaN	NaN	NaN	NaN
1486.000	NaN	NaN	NaN	NaN
1487.000	NaN	NaN	NaN	NaN
1488.000	NaN	NaN	NaN	NaN
1489.000	NaN	NaN	NaN	NaN
1490.000	NaN	NaN	NaN	NaN
1491.000	NaN	NaN	NaN	NaN
1492.000	NaN	NaN	NaN	NaN
1493.000	NaN	NaN	NaN	NaN
1494.000	NaN	NaN	NaN	NaN
1495.000	NaN	NaN	NaN	NaN
1496.000	NaN	NaN	NaN	NaN
1497.000	NaN	NaN	NaN	NaN
1498.000	NaN	NaN	NaN	NaN
1499.000	NaN	NaN	NaN	NaN
1500.000	NaN	NaN	NaN	NaN
1501.000	NaN	NaN	NaN	NaN
1502.000	NaN	NaN	NaN	NaN
1503.000	NaN	NaN	NaN	NaN
1504.000	NaN	NaN	NaN	NaN
1505.000	NaN	NaN	NaN	NaN
1506.000	NaN	NaN	NaN	NaN
1507.000	NaN	NaN	NaN	NaN
1508.000	NaN	NaN	NaN	NaN
1509.000	NaN	NaN	NaN	NaN
1510.000	NaN	NaN	NaN	NaN
1511.000	NaN	NaN	NaN	NaN
1512.000	NaN	NaN	NaN	NaN
1513.000	NaN	NaN	NaN	NaN
1514.000	NaN	NaN	NaN	NaN
1515.000	NaN	NaN	NaN	NaN
1516.000	NaN	NaN	NaN	NaN
1517.000	NaN	NaN	NaN	NaN
1518.000	NaN	NaN	NaN	NaN
1519.000	NaN	NaN	NaN	NaN
1520.000	NaN	NaN	NaN	NaN
1521.000	NaN	NaN	NaN	NaN
1522.000	NaN	NaN	NaN	NaN
1523.000	NaN	NaN	NaN	NaN
1524.000	NaN	NaN	NaN	NaN
1525.000	NaN	NaN	NaN	NaN
1526.000	NaN	NaN	NaN	NaN
1527.000	NaN	NaN	NaN	NaN
1528.000	NaN	NaN	NaN	NaN
1529.000	NaN	NaN	NaN	NaN
1530.000	NaN	NaN	NaN	NaN
1531.000	NaN	NaN	NaN	NaN
1532.000	NaN	NaN	NaN	NaN
1533.000	NaN	NaN	NaN	NaN
1534.000	NaN	NaN	NaN	NaN
1535.000	NaN	NaN	NaN	NaN
1536.000	NaN	NaN	NaN	NaN
1537.000	NaN	NaN	NaN	NaN
1538.000	NaN	NaN	NaN	NaN
1539.000	NaN	NaN	NaN	NaN
1540.000	NaN	NaN	NaN	NaN
1541.000	NaN	NaN	NaN	NaN
1542.000	NaN	NaN	NaN	NaN
1543.000	NaN	NaN	NaN	NaN
1544.000	NaN	NaN	NaN	NaN
1545.000	NaN	NaN	NaN	NaN
1546.000	NaN	NaN	NaN	NaN
1547.000	NaN	NaN	NaN	NaN
1548.000	NaN	NaN	NaN	NaN
1549.000	NaN	NaN	NaN	NaN
1550.000	NaN	NaN	NaN	NaN
1551.000	NaN	NaN	NaN	NaN
1552.000	NaN	NaN	NaN	NaN
1553.000	NaN	NaN	NaN	NaN
1554.000	NaN	NaN	NaN	NaN
1555.000	NaN	NaN	NaN	NaN
1556.000	NaN	NaN	NaN	NaN
1557.000	NaN	NaN	NaN	NaN
1558.000	NaN	NaN	NaN	NaN
1559.000	NaN	NaN	NaN	NaN
1560.000	NaN	NaN	NaN	NaN
1561.000	NaN	NaN	NaN	NaN
1562.000	NaN	NaN	NaN	NaN
1563.000	NaN	NaN	NaN	NaN
1564.000	NaN	NaN	NaN	NaN
1565.000	NaN	NaN	NaN	NaN
1566.000	NaN	NaN	NaN	NaN
1567.000	NaN	NaN	NaN	NaN
1568.000	NaN	NaN	NaN	NaN
1569.000	NaN	NaN	NaN	NaN
1570.000	NaN	NaN	NaN	NaN
1571.000	NaN	NaN	NaN	NaN
1572.000	NaN	NaN	NaN	NaN
1573.000	NaN	NaN	NaN	NaN
1574.000	NaN	NaN	NaN	NaN
1575.000	NaN	NaN	NaN	NaN
1576.000	NaN	NaN	NaN	NaN
1577.000	NaN	NaN	NaN	NaN
1578.000	NaN	NaN	NaN	NaN
1579.000	NaN	NaN	NaN	NaN
1580.000	NaN	NaN	NaN	NaN
1581.000	NaN	NaN	NaN	NaN
1582.000	NaN	NaN	NaN	NaN
1583.000	NaN	NaN	NaN	NaN
1584.000	NaN	NaN	NaN	NaN
1585.000	NaN	NaN	NaN	NaN
1586.000	NaN	NaN	NaN	NaN
1587.000	NaN	NaN	NaN	NaN
1588.000	NaN	NaN	NaN	NaN
1589.000	NaN	NaN	NaN	NaN
1590.000	NaN	NaN	NaN	NaN
1591.000	NaN	NaN	NaN	NaN
1592.000	NaN	NaN	NaN	NaN
1593.000	NaN	NaN	NaN	NaN
1594.000	NaN	NaN	NaN	NaN
1595.000	NaN	NaN	NaN	NaN
1596.000	NaN	NaN	NaN	NaN
1597.000	NaN	NaN	NaN	NaN
1598.000	NaN	NaN	NaN	NaN
1599.000	NaN	NaN	NaN	NaN
1600.000	NaN	NaN	NaN	NaN
1601.000	NaN	NaN	NaN	NaN
1602.000	NaN	NaN	NaN	NaN
1603.000	NaN	NaN	NaN	NaN
1604.000	NaN	NaN	NaN	NaN
1605.000	NaN	NaN	NaN	NaN
1606.000	NaN	NaN	NaN	NaN
1607.000	NaN	NaN	NaN	NaN
1608.000	NaN	NaN	NaN	NaN
1609.000	NaN	NaN	NaN	NaN
1610.000	NaN	NaN	NaN	NaN
1611.000	NaN	NaN	NaN	NaN
1612.000	0.57331	11.95824	NaN	NaN
1613.000	0.97852	11.10161	NaN	NaN
1614.000	1.07339	9.86663	NaN	NaN
1615.000	0.78680	9.31429	NaN	NaN
1616.000	0.62866	8.71305	NaN	NaN
1617.000	0.34795	8.05920	NaN	NaN
1618.000	0.19968	7.67277	NaN	NaN
1619.000	-0.02768	7.11522	NaN	NaN
1620.000	-0.17991	6.69168	NaN	NaN
1621.000	-0.39539	6.24570	NaN	NaN
1622.000	-0.59308	5.83041	NaN	NaN
1623.000	-0.80063	5.42629	NaN	NaN
1624.000	-1.04769	5.09060	NaN	NaN
1625.000	-1.20382	4.83765	NaN	NaN
1626.000	-1.43500	4.40448	NaN	NaN
1627.000	-1.65034	4.13706	NaN	NaN
1628.000	-1.71553	3.75495	NaN	NaN
1629.000	-1.85971	3.44173	NaN	NaN
1630.000	-1.94660	3.18989	-4.55331	8.00702
1631.000	-2.10061	2.88825	-2.13812	7.68511
1632.000	-2.16774	2.61243	0.39539	7.00925
1633.000	-2.17169	2.28698	0.48040	6.56193
1634.000	-2.24867	2.10226	0.45470	6.23189
1635.000	-2.23880	1.76869	0.55750	5.72017
1636.000	-2.28815	1.63556	0.58517	5.31019
1637.000	-2.35329	1.33951	0.55354	4.97475
1638.000	-2.31184	1.18457	0.60494	4.58355
1639.000	-2.38486	0.92023	0.66227	4.21765
1640.000	-2.41841	0.79700	0.68203	3.90886
1641.000	-2.47367	0.52669	0.72354	3.56020
1642.000	-2.49735	0.34384	0.71366	3.22519
1643.000	-2.46578	0.29019	0.63657	3.01500
1644.000	-2.48551	0.07354	0.71564	2.61409
1645.000	-2.43223	-0.00994	0.71168	2.26660
1646.000	-2.39671	-0.05168	0.79866	1.97851
1647.000	-2.43223	-0.15305	0.68796	1.64072
1648.000	-2.39473	-0.21865	0.74133	1.27690
1649.000	-2.37302	-0.14510	0.73145	1.03033
1650.000	-2.27236	-0.19282	0.85005	0.72006
1651.000	-2.32171	-0.22661	0.77889	0.47940
1652.000	-2.19735	-0.12723	0.77494	0.28645
1653.000	-2.21906	-0.08349	0.99236	-0.11935
1654.000	-2.16379	-0.01789	0.93306	-0.27649
1655.000	-2.12036	0.05765	0.90737	-0.35805
1656.000	-2.15392	0.10338	0.82831	-0.58083
1657.000	-2.11641	0.12922	0.74924	-0.62659
1658.000	-2.17761	0.04374	0.46063	-0.57491
1659.000	-2.17958	0.09940	0.54366	-0.74795
1660.000	-2.09271	0.05368	0.40923	-0.73404
1661.000	-2.09864	0.02783	0.33609	-0.78974
1662.000	-2.15984	0.04970	0.23526	-0.82754
1663.000	-2.14010	-0.00199	0.21549	-0.74002
1664.000	-2.11838	0.04970	0.17200	-0.66444
1665.000	-2.09074	-0.00398	0.05536	-0.54708
1666.000	-2.08482	0.05368	0.07117	-0.53713
1667.000	-2.13418	0.07753	0.04349	-0.49536
1668.000	-2.13418	0.05964	0.00395	-0.32427
1669.000	-2.18353	0.04374	-0.04152	-0.28648
1670.000	-2.21117	0.06958	-0.06129	-0.21884
1671.000	-2.19340	0.01193	-0.09885	-0.25664
1672.000	-2.15787	0.03578	-0.09490	-0.16711
1673.000	-2.17169	0.03181	-0.06129	-0.20292
1674.000	-2.17958	0.02982	-0.12257	-0.16910
1675.000	-2.30394	0.07355	-0.13246	-0.16711
1676.000	-2.23486	0.08747	-0.14234	-0.15120
1677.000	-2.32368	0.03578	-0.13246	-0.19098
1678.000	-2.25854	0.05169	-0.16804	-0.23873
1679.000	-2.17563	0.07157	-0.15223	-0.23276
1680.000	-2.32171	-0.02385	-0.17002	-0.21088
1681.000	-2.28815	-0.02982	-0.15421	-0.26061
1682.000	-2.22696	-0.04175	-0.16014	-0.20889
1683.000	-2.30592	-0.01988	-0.15421	-0.31632
1684.000	-2.28026	-0.06759	-0.17595	-0.23475
1685.000	-2.28618	-0.08349	-0.17991	-0.20093
1686.000	-2.23880	-0.06759	-0.17793	-0.26658
1687.000	-2.24670	-0.05169	-0.17002	-0.31831
1688.000	-2.29013	-0.01590	-0.17793	-0.35013
1689.000	-2.27236	-0.07951	-0.18188	-0.31831
1690.000	-2.27039	-0.02385	-0.14432	-0.29045
1691.000	-2.30592	-0.00398	-0.15421	-0.35411
1692.000	-2.30000	-0.00596	-0.15618	-0.28648
1693.000	-2.22893	-0.01392	-0.16804	-0.28051
1694.000	-2.29210	-0.08349	-0.16607	-0.28648
1695.000	-2.29407	-0.06560	-0.19177	-0.28051
1696.000	-2.26447	-0.01193	-0.19968	-0.28846
1697.000	-2.24078	0.02584	-0.17398	-0.29443
1698.000	-2.26249	-0.04175	-0.21945	-0.34616
1699.000	-2.26841	-0.00596	-0.20758	-0.28051
1700.000	-2.25657	-0.04572	-0.19572	-0.26061
1701.000	-2.26644	-0.01988	-0.21549	-0.25663
1702.000	-2.26052	0.00994	-0.20165	-0.22083
1703.000	-2.25657	-0.05169	-0.20956	-0.24470
1704.000	-2.18550	-0.08151	-0.21945	-0.23674
1705.000	-2.21512	-0.06759	-0.22933	-0.27255
1706.000	-2.19143	-0.00795	-0.21352	-0.23475
1707.000	-2.25657	0.01193	-0.18188	-0.26658
1708.000	-2.19735	0.01193	-0.23922	-0.20292
1709.000	-2.23683	-0.00596	-0.20363	-0.26658
1710.000	-2.20327	-0.07157	-0.22340	-0.25862
1711.000	-2.19143	-0.05566	-0.20956	-0.24470
1712.000	-2.21512	-0.01988	-0.21747	-0.19496
1713.000	-2.20130	-0.00795	-0.21945	-0.18899
1714.000	-2.23091	0.04771	-0.20561	-0.19098
1715.000	-2.27039	-0.00596	-0.23526	-0.17905
1716.000	-2.22696	0.00000	-0.22538	-0.19894
1717.000	-2.15984	-0.00994	-0.30248	-0.11737
1718.000	-2.16576	0.00596	-0.25108	-0.16114
1719.000	-2.29605	0.03777	-0.25701	-0.13926
1720.000	-2.20525	-0.04572	-0.24910	-0.11340
1721.000	-2.20525	-0.02386	-0.27282	-0.17308
1722.000	-2.23683	-0.01789	-0.28666	-0.15318
1723.000	-2.21314	-0.08151	-0.24910	-0.21685
1724.000	-2.20327	-0.04175	-0.24910	-0.18104
1725.000	-2.22499	-0.07554	-0.23922	-0.13727
1726.000	-2.15589	-0.04374	-0.24317	-0.22679
1727.000	-2.19932	-0.05368	-0.22538	-0.20889
1728.000	-2.07100	-0.00795	-0.20561	-0.23276
1729.000	-2.13812	-0.00596	-0.28469	-0.21883
1730.000	-2.17958	-0.07554	-0.28271	-0.19695
1731.000	-2.16774	-0.09145	-0.28469	-0.14523
1732.000	-2.09864	-0.13121	-0.25899	-0.14125
1733.000	-2.19538	0.01590	-0.26492	-0.12533
1734.000	-2.08877	0.02585	-0.28271	-0.16910
1735.000	-2.15392	-0.02783	-0.23131	-0.18502
1736.000	-2.21512	-0.05566	-0.27480	-0.14324
1737.000	-2.14010	-0.02783	-0.21154	-0.22281
1738.000	-2.18945	-0.08747	-0.20165	-0.18104
1739.000	-2.21117	-0.07355	-0.25503	-0.16114
1740.000	-2.11048	-0.06958	-0.21352	-0.20491
1741.000	-2.15787	-0.07356	-0.20956	-0.22480
1742.000	-2.17169	-0.10536	-0.20165	-0.16711
1743.000	-2.20722	-0.04374	-0.17398	-0.16711
1744.000	-2.21906	-0.09145	-0.16804	-0.22083
1745.000	-2.25854	-0.06958	-0.16409	-0.17507
1746.000	-2.11048	-0.08350	-0.22538	-0.13528
1747.000	-2.21709	-0.18488	-0.17002	-0.18701
1748.000	-2.16576	-0.13717	-0.18584	-0.13528
1749.000	-2.13023	-0.09543	-0.15816	-0.17905
1750.000	-2.17169	-0.11729	-0.19177	-0.11539
1751.000	-2.23091	-0.00994	-0.20363	-0.13926
1752.000	-2.22893	-0.07952	-0.18386	-0.13727
1753.000	-2.14800	-0.14910	-0.19770	-0.15716
1754.000	-2.15984	-0.12525	-0.17991	-0.17308
1755.000	-2.16181	-0.11332	-0.17991	-0.17905
1756.000	-2.19932	-0.09343	-0.17991	-0.19297
1757.000	-2.14997	-0.14314	-0.16014	-0.14125
1758.000	-2.25262	-0.11927	-0.17002	-0.12732
1759.000	-2.15787	-0.12525	-0.22340	-0.13130
1760.000	-2.16774	-0.12723	-0.23131	-0.07759
1761.000	-2.17761	-0.15109	-0.19572	-0.12334
1762.000	-2.19143	-0.13916	-0.18781	-0.13727
1763.000	-2.14207	-0.17892	-0.18781	-0.15517
1764.000	-2.19143	-0.16898	-0.20165	-0.20491
1765.000	-2.20327	-0.18090	-0.17991	-0.12931
1766.000	-2.15984	-0.07753	-0.20758	-0.21685
1767.000	-2.17563	-0.13121	-0.18188	-0.18104
1768.000	-2.26052	-0.16897	-0.15816	-0.18502
1769.000	-2.25262	-0.19481	-0.17398	-0.20292
1770.000	-2.24078	-0.14313	-0.17200	-0.23873
1771.000	-2.18550	-0.18886	-0.20165	-0.22679
1772.000	-2.20919	-0.26837	-0.21549	-0.26260
1773.000	-2.28026	-0.11132	-0.20363	-0.24271
1774.000	-2.27631	-0.15903	-0.17595	-0.28449
1775.000	-2.33355	-0.21667	-0.21154	-0.32228
1776.000	-2.27631	-0.24053	-0.18386	-0.24868
1777.000	-2.31184	-0.26835	-0.19968	-0.32626
1778.000	-2.34342	-0.12523	-0.18188	-0.29244
1779.000	-2.26052	-0.19680	-0.21154	-0.31433
1780.000	-2.28026	-0.26637	-0.13246	-0.34616
1781.000	-2.06310	-0.21074	0.03361	-0.38197
1782.000	-1.99794	-0.21672	0.09490	-0.36406
1783.000	-1.67800	-0.28238	0.28864	-0.32427
1784.000	-1.59108	-0.31421	0.54564	-0.32028
1785.000	-1.19789	-0.49525	0.87970	-0.27451
1786.000	-0.87772	-0.54304	1.22358	-0.33216
1787.000	-0.42109	-0.64055	1.58713	-0.34205
1788.000	0.00791	-0.83550	1.92883	-0.47321
1789.000	0.21352	-1.08411	2.28223	-0.63609
1790.000	0.60099	-1.13576	2.58811	-0.67171
1791.000	0.94690	-1.42395	2.97075	-0.83438
1792.000	1.26903	-1.54504	3.35115	-1.02866
1793.000	1.51206	-1.66212	3.59540	-1.17129
1794.000	1.68787	-1.76331	3.84542	-1.34754
1795.000	1.79848	-1.95588	3.99693	-1.56348
1796.000	1.92488	-2.00936	4.06185	-1.66249
1797.000	1.95845	-2.05301	4.09529	-1.83292
1798.000	1.98412	-2.06688	4.05595	-1.86076
1799.000	1.96635	-2.10264	4.02448	-1.94409
1800.000	1.92883	-2.07489	3.90249	-1.94835
1801.000	1.89130	-2.04515	3.77850	-1.89707
1802.000	1.79651	-2.01944	3.68991	-1.92305
1803.000	1.70565	-2.02152	3.55601	-1.86383
1804.000	1.67800	-1.96395	3.41813	-1.86807
1805.000	1.58713	-1.94616	3.32356	-1.79881
1806.000	1.48440	-1.94626	3.23095	-1.75929
1807.000	1.40734	-1.89268	3.09692	-1.71982
1808.000	1.28879	-2.02389	3.01412	-1.78942
1809.000	1.15244	-2.02598	2.85441	-1.75395
1810.000	1.01805	-2.01018	2.79721	-1.73418
1811.000	0.81645	-2.05201	2.59206	-1.71263
1812.000	0.72750	-2.04212	2.48156	-1.77036
1813.000	0.61285	-2.05012	2.41447	-1.78237
1814.000	0.46854	-2.01043	2.25262	-1.72895
1815.000	0.38946	-2.00647	2.17761	-1.75486
1816.000	0.18781	-1.90318	2.13418	-1.65559
1817.000	0.14432	-1.86940	2.12233	-1.61389
1818.000	0.10280	-1.89524	2.11641	-1.59006
1819.000	0.19572	-1.85548	2.11641	-1.51854
1820.000	0.21747	-1.80381	2.15589	-1.48274
1821.000	0.35388	-1.82168	2.26644	-1.49653
1822.000	0.35586	-1.75211	2.37302	-1.38716
1823.000	0.52982	-1.76002	2.42631	-1.35731
1824.000	0.63855	-1.78980	2.59798	-1.41076
1825.000	0.81842	-1.71818	2.68478	-1.37492
1826.000	0.98840	-1.76182	2.80313	-1.33109
1827.000	1.04374	-1.72602	2.89779	-1.32899
1828.000	1.10303	-1.81342	2.89582	-1.33098
1829.000	1.20184	-1.83919	2.93328	-1.35675
1830.000	1.18208	-1.88689	2.95695	-1.39445
1831.000	1.16627	-1.85710	3.00821	-1.42218
1832.000	1.27298	-1.93252	3.01807	-1.49364
1833.000	1.22160	-1.87097	2.94709	-1.49970
1834.000	1.25717	-1.92856	2.98849	-1.48773
1835.000	1.28286	-1.96033	2.95497	-1.54535
1836.000	1.18801	-1.95841	2.95497	-1.54535
1837.000	1.23939	-1.98420	2.91751	-1.57518
1838.000	1.20382	-1.99615	2.90568	-1.59307
1839.000	1.16627	-2.04981	2.86032	-1.61695
1840.000	1.16429	-2.02597	2.94511	-1.66448
1841.000	1.15244	-2.10941	2.90173	-1.64866
1842.000	1.17418	-2.14118	2.86624	-1.64276
1843.000	1.17813	-2.14912	2.86427	-1.66063
1844.000	1.17615	-2.16501	2.88793	-1.67449
1845.000	1.13663	-2.09353	2.84257	-1.63683
1846.000	1.12675	-2.12532	2.88399	-1.61891
1847.000	1.16429	-2.09351	2.84060	-1.61103
1848.000	1.13070	-2.14320	2.83666	-1.57529
1849.000	1.10303	-2.12732	2.83863	-1.58720
1850.000	1.09710	-2.15712	2.81891	-1.58723
1851.000	1.07536	-2.07570	2.81102	-1.55944
1852.000	1.11094	-2.08163	2.80905	-1.57533
1853.000	1.17813	-2.10939	2.79327	-1.59521
1854.000	1.14651	-2.09154	2.77946	-1.58530
1855.000	1.08129	-2.07768	2.84454	-1.61301
1856.000	1.10501	-2.04588	2.78341	-1.57537
1857.000	1.18801	-2.11137	2.78735	-1.54558
1858.000	1.13860	-2.08559	2.75579	-1.56349
1859.000	1.11291	-2.08362	2.70056	-1.53774
1860.000	1.13465	-2.03593	2.79524	-1.54358
1861.000	1.06153	-2.03598	2.76960	-1.56744
1862.000	1.12477	-2.07566	2.77552	-1.48602
1863.000	1.15441	-2.07763	2.76960	-1.52971
1864.000	1.13268	-2.14518	2.75974	-1.52973
1865.000	1.06746	-2.05385	2.76960	-1.55751
1866.000	1.09513	-2.10151	2.76960	-1.52376
1867.000	1.11489	-2.06375	2.75185	-1.56349
1868.000	1.15837	-2.11338	2.76171	-1.53568
1869.000	1.17418	-2.07761	2.77749	-1.53566
1870.000	1.16232	-2.07564	2.72226	-1.55956
1871.000	1.15046	-2.15113	2.77749	-1.58133
1872.000	1.15441	-2.08160	2.79524	-1.55748
1873.000	1.14651	-2.09551	2.75974	-1.51185
1874.000	1.18603	-2.03192	2.74987	-1.53570
1875.000	1.18010	-2.08555	2.76368	-1.53766
1876.000	1.21765	-2.04778	2.79327	-1.54358
1877.000	1.10896	-2.07965	2.76763	-1.44036
1878.000	1.19987	-2.00211	2.78932	-1.46813
1879.000	1.16627	-2.02994	2.79524	-1.50188
1880.000	1.19394	-2.08753	2.76368	-1.49199
1881.000	1.12675	-2.01209	2.76960	-1.47610
1882.000	1.29669	-2.01594	2.78143	-1.50388
1883.000	1.18208	-1.96239	2.76960	-1.55553
1884.000	1.18406	-2.04582	2.78932	-1.54160
1885.000	1.17022	-2.03193	2.75579	-1.50987
1886.000	1.23939	-2.03784	2.82088	-1.44426
1887.000	1.16429	-2.01207	2.84454	-1.53954
1888.000	1.23544	-2.08353	2.77552	-1.53765
1889.000	1.20777	-2.00806	2.80313	-1.56343
1890.000	1.17220	-2.03987	2.80707	-1.55746
1891.000	1.21765	-2.00011	2.79918	-1.55350
1892.000	1.24532	-2.01002	2.81102	-1.61504
1893.000	1.21567	-2.02991	2.79721	-1.58130
1894.000	1.22555	-2.00209	2.83074	-1.61898
1895.000	1.21172	-1.95243	2.85441	-1.60505
1896.000	1.20579	-1.96038	2.83863	-1.59117
1897.000	1.20777	-1.95641	2.81102	-1.56540
1898.000	1.27693	-2.03781	2.85835	-1.61299
1899.000	1.15639	-2.04386	2.79524	-1.53762
1900.000	1.18603	-1.96636	2.80905	-1.57930
1901.000	1.17418	-2.03391	2.86624	-1.54944
1902.000	1.20975	-2.00607	2.82877	-1.57530
1903.000	1.21567	-2.01004	2.83863	-1.54551
1904.000	1.24729	-2.00803	2.84849	-1.58123
1905.000	1.18208	-2.03391	2.83468	-1.59118
1906.000	1.23544	-1.94447	2.83468	-1.56140
1907.000	1.25915	-1.94445	2.85835	-1.55144
1908.000	1.21172	-1.95045	2.85441	-1.58123
1909.000	1.15837	-1.97830	2.81891	-1.56738
1910.000	1.19591	-1.99615	2.81693	-1.53958
1911.000	1.20382	-2.05574	2.83271	-1.58324
1912.000	1.23148	-2.01599	2.83863	-1.52962
1913.000	1.20777	-1.96634	2.86821	-1.59908
1914.000	1.23148	-1.98619	2.81891	-1.59716
1915.000	1.16825	-2.00412	2.83468	-1.57728
1916.000	1.17615	-1.93061	2.87413	-1.58318
1917.000	1.16232	-1.98823	2.84257	-1.61301
1918.000	1.08129	-2.07371	2.86032	-1.56732
1919.000	1.16429	-2.04981	2.83271	-1.56339
1920.000	1.19196	-2.03191	2.82482	-1.62892
1921.000	1.13860	-2.07565	2.83468	-1.62295
1922.000	1.14256	-2.08558	2.82680	-1.62097
1923.000	1.15837	-2.10543	2.83863	-1.62890
1924.000	1.14848	-2.02996	2.86229	-1.68445
1925.000	1.16627	-2.01604	2.83074	-1.66266
1926.000	1.08920	-2.04192	2.83468	-1.65074
1927.000	1.19591	-1.95841	2.83074	-1.62295
1928.000	1.14651	-1.99420	2.81102	-1.66864
1929.000	1.09908	-2.05780	2.80707	-1.62894
1930.000	1.25124	-2.00207	2.78735	-1.61309
1931.000	1.16627	-2.03988	2.80905	-1.59320
1932.000	1.18998	-2.01403	2.81102	-1.61305
1933.000	1.16232	-2.02001	2.79721	-1.59719
1934.000	1.16034	-2.05379	2.81693	-1.62099
1935.000	1.16825	-2.04186	2.79524	-1.64286
1936.000	1.14256	-2.06969	2.77749	-1.59324
1937.000	1.13860	-2.03791	2.79327	-1.66470
1938.000	1.16627	-2.08557	2.73607	-1.61315
1939.000	1.14453	-2.06770	2.76565	-1.63694
1940.000	1.18603	-2.05377	2.77749	-1.60516
1941.000	1.21765	-1.93058	2.76171	-1.56944
1942.000	1.17813	-2.00808	2.70648	-1.58539
1943.000	1.14453	-1.97632	2.72620	-1.56948
1944.000	1.13465	-2.01209	2.69464	-1.51988
1945.000	1.17615	-1.95445	2.74198	-1.46620
1946.000	1.19591	-2.01403	2.68083	-1.45436
1947.000	1.13268	-2.05778	2.69662	-1.49605
1948.000	1.16627	-2.04385	2.67097	-1.48218
1949.000	1.23741	-1.93652	2.68083	-1.49209
1950.000	1.17022	-2.01206	2.67492	-1.43848
1951.000	1.22358	-2.02990	2.68281	-1.45237
1952.000	1.21765	-1.97428	2.64138	-1.46632
1953.000	1.12082	-2.02799	2.66308	-1.46034
1954.000	1.13465	-2.00811	2.65913	-1.50404
1955.000	1.17813	-2.03192	2.69267	-1.45236
1956.000	1.20777	-2.04183	2.63743	-1.45243
1957.000	1.23741	-1.97824	2.66900	-1.47622
1958.000	1.24729	-2.01598	2.63152	-1.44250
1959.000	1.26705	-1.99808	2.64927	-1.46830
1960.000	1.23148	-2.01003	2.64730	-1.46830
1961.000	1.25322	-1.98220	2.63941	-1.41667
1962.000	1.20184	-2.01005	2.70056	-1.46625
1963.000	1.19987	-2.06766	2.65519	-1.43850
1964.000	1.14848	-2.02002	2.63941	-1.45242
1965.000	1.21370	-2.05573	2.65124	-1.42659
1966.000	1.22358	-2.02394	2.66505	-1.46232
1967.000	1.21963	-2.03785	2.66111	-1.46630
1968.000	1.22753	-1.99017	2.62954	-1.48223
1969.000	1.18998	-2.06171	2.69859	-1.51789
1970.000	1.23346	-2.04777	2.67492	-1.49806
1971.000	1.19591	-2.12130	2.66308	-1.50006
1972.000	1.25520	-2.01001	2.63743	-1.48817
1973.000	1.20579	-2.00012	2.58417	-1.45447
1974.000	1.23346	-2.03585	2.66703	-1.50403
1975.000	1.23939	-2.03188	2.63743	-1.48222
1976.000	1.22358	-2.06169	2.64730	-1.45440
1977.000	1.27891	-2.06363	2.66111	-1.52588
1978.000	1.28879	-2.05766	2.63349	-1.50605
1979.000	1.13268	-2.06573	2.70648	-1.53178
1980.000	1.25520	-2.14310	2.62757	-1.53982
1981.000	1.25124	-2.04180	2.67689	-1.57948
1982.000	1.21370	-2.03587	2.68675	-1.61322
1983.000	1.26508	-2.09939	2.65716	-1.55567
1984.000	1.28088	-2.05369	2.65716	-1.57950
1985.000	1.25915	-2.12323	2.66900	-1.60530
1986.000	1.17813	-2.09350	2.62560	-1.58947
1987.000	1.15244	-2.03790	2.64927	-1.58348
1988.000	1.22555	-2.05970	2.67886	-1.60926
1989.000	1.19591	-2.05773	2.65716	-1.61127
1990.000	1.19196	-2.09151	2.66111	-1.61921
1991.000	1.20382	-2.10143	2.66308	-1.59538
1992.000	1.19591	-2.01602	2.65322	-1.58546
1993.000	1.21370	-2.05375	2.65913	-1.60730
1994.000	1.17220	-2.03789	2.62954	-1.58748
1995.000	1.19987	-2.06568	2.64927	-1.58944
1996.000	1.18801	-2.01404	2.63941	-1.57357
1997.000	1.20975	-2.08355	2.63349	-1.61329
1998.000	1.26112	-2.01398	2.64138	-1.54378
1999.000	1.21765	-2.04977	2.64927	-1.58944
2000.000	1.24334	-2.01201	2.65322	-1.61922
2001.000	1.19591	-2.00807	2.62165	-1.63515
2002.000	1.22555	-2.07956	2.55260	-1.55977
2003.000	1.22753	-2.03189	2.61968	-1.58948
2004.000	1.15046	-2.11736	2.62362	-1.59742
2005.000	1.15046	-2.08359	2.61179	-1.62523
2006.000	1.15639	-2.08359	2.63152	-1.58946
2007.000	1.24532	-2.10140	2.63743	-1.66094
2008.000	1.20184	-2.06369	2.57430	-1.55577
2009.000	1.23346	-2.05770	2.61771	-1.62721
2010.000	1.18603	-2.04781	2.60192	-1.59149
2011.000	1.17615	-2.02994	2.55062	-1.55580
2012.000	1.12279	-2.05779	2.60192	-1.60142
2013.000	1.25915	-2.07159	2.59798	-1.62922
2014.000	1.25915	-2.08947	2.57825	-1.66698
2015.000	1.24927	-2.08352	2.63152	-1.62124
2016.000	1.20975	-2.03587	2.56049	-1.60345
2017.000	1.19196	-2.04184	2.60784	-1.63120
2018.000	1.21567	-2.13519	2.59206	-1.62724
2019.000	1.21963	-2.06765	2.58219	-1.65109
2020.000	1.26508	-2.14110	2.61968	-1.63317
2021.000	1.20382	-2.07362	2.60784	-1.63914
2022.000	1.19591	-2.01602	2.63546	-1.68279
2023.000	1.18010	-2.08754	2.60587	-1.66893
2024.000	1.20579	-2.07759	2.63546	-1.63513
2025.000	1.22753	-2.08353	2.59995	-1.63716
2026.000	1.18801	-2.01801	2.58811	-1.63519
2027.000	1.23346	-1.99612	2.60784	-1.66694
2028.000	1.23148	-2.08154	2.58219	-1.68881
2029.000	1.18603	-2.05178	2.57627	-1.69875
2030.000	1.18208	-2.06966	2.59798	-1.70865
2031.000	1.21172	-2.04382	2.57627	-1.67889
2032.000	1.20579	-2.04183	2.60390	-1.64113
2033.000	1.23939	-1.98420	2.51905	-1.67897
2034.000	1.18208	-1.98424	2.56444	-1.67295
2035.000	1.25520	-2.03782	2.55457	-1.72857
2036.000	1.21370	-2.02594	2.52695	-1.76037
2037.000	1.17418	-2.07960	2.55457	-1.75636
2038.000	1.23346	-1.98420	2.56838	-1.77223
2039.000	1.21172	-2.04978	2.59600	-1.78013
2040.000	1.21963	-2.06566	2.56444	-1.80996
2041.000	1.25915	-1.92260	2.55062	-1.83579
2042.000	1.17615	-1.99617	2.53879	-1.82588
2043.000	1.22753	-2.03189	2.60192	-1.87344
2044.000	1.18010	-1.94848	2.54865	-1.77424
2045.000	1.21370	-1.99614	2.58219	-1.85560
2046.000	1.15639	-2.04187	2.57035	-1.83775
2047.000	1.23346	-1.96632	2.57035	-1.85164
2048.000	1.18603	-1.97431	2.56246	-1.80401
2049.000	1.17022	-1.94054	2.56246	-1.83776
2050.000	1.19987	-1.98224	2.56838	-1.81194
2051.000	1.22358	-1.94845	2.60981	-1.85357
2052.000	1.22753	-1.88090	2.57233	-1.82583
2053.000	1.23939	-1.99811	2.61573	-1.84364
2054.000	1.25717	-1.93253	2.60981	-1.80791
2055.000	1.26310	-1.95836	2.61573	-1.78805
2056.000	1.23148	-1.97427	2.64335	-1.86543
2057.000	1.24136	-1.94645	2.60981	-1.80195
2058.000	1.28286	-1.92258	2.63546	-1.79397
2059.000	1.23544	-1.97427	2.64927	-1.79395
2060.000	1.21567	-1.93256	2.60390	-1.84564
2061.000	1.25322	-1.90472	2.64533	-1.80786
2062.000	1.18998	-1.93060	2.64335	-1.76815
2063.000	1.17615	-1.90279	2.62165	-1.83966
2064.000	1.18998	-2.00013	2.67689	-1.85347
2065.000	1.20184	-1.86900	2.69859	-1.85344
2066.000	1.23148	-1.91467	2.69267	-1.87330
2067.000	1.21567	-1.91667	2.66900	-1.81775
2068.000	1.22555	-1.96832	2.73409	-1.80177
2069.000	1.20579	-1.93853	2.70845	-1.82762
2070.000	1.25124	-1.95042	2.69662	-1.82962
2071.000	1.23741	-1.91069	2.73607	-1.79581
2072.000	1.26112	-1.96630	2.70056	-1.73432
2073.000	1.26112	-1.94048	2.69464	-1.81970
2074.000	1.20579	-1.95244	2.71240	-1.79188
2075.000	1.25322	-1.95638	2.72620	-1.75811
2076.000	1.21370	-1.89084	2.74593	-1.77396
2077.000	1.30657	-1.94839	2.71634	-1.71047
2078.000	1.25322	-1.96234	2.70451	-1.78593
2079.000	1.26508	-1.96829	2.74198	-1.76602
2080.000	1.27100	-1.93451	2.70845	-1.75019
2081.000	1.23148	-1.91070	2.75776	-1.74218
2082.000	1.29076	-1.87887	2.77157	-1.75804
2083.000	1.26112	-1.89280	2.75382	-1.73424
2084.000	1.24334	-1.88287	2.76763	-1.72231
2085.000	1.23148	-1.87295	2.80707	-1.71828
2086.000	1.21567	-1.89482	2.74790	-1.72830
2087.000	1.29472	-1.87688	2.77354	-1.71436
2088.000	1.19394	-1.90874	2.80707	-1.73416
2089.000	1.26310	-1.92657	2.79327	-1.71830
2090.000	1.25322	-1.92856	2.74198	-1.73426
2091.000	1.26705	-1.90869	2.80116	-1.71631
2092.000	1.28879	-1.95238	2.78538	-1.70442
2093.000	1.20777	-1.96237	2.81299	-1.67658
2094.000	1.31645	-1.88282	2.79524	-1.67264
2095.000	1.27891	-1.90272	2.77354	-1.73620
2096.000	1.21963	-1.93256	2.79918	-1.71829
2097.000	1.23939	-1.96632	2.81693	-1.67261
2098.000	1.29076	-1.93251	2.79918	-1.67859
2099.000	1.23939	-1.91864	2.80313	-1.69645
2100.000	1.25915	-1.92061	2.79327	-1.63690
2101.000	1.24729	-1.84711	2.80510	-1.71431
2102.000	1.19196	-1.93258	2.82482	-1.69245
2103.000	1.22951	-1.87692	2.81891	-1.65672
2104.000	1.29472	-1.87290	2.80116	-1.73020
2105.000	1.33028	-1.83115	2.78932	-1.65081
2106.000	1.30460	-1.86892	2.76368	-1.70643
2107.000	1.29867	-1.86297	2.79129	-1.67661
2108.000	1.25915	-1.86498	2.78143	-1.70641
2109.000	1.27891	-1.88682	2.73607	-1.58734
2110.000	1.28484	-1.86695	2.74396	-1.65484
2111.000	1.30460	-1.91462	2.75974	-1.66872
2112.000	1.35795	-1.85895	2.75579	-1.69652
2113.000	1.27693	-1.88086	2.76368	-1.65481
2114.000	1.29867	-1.88085	2.78538	-1.69449
2115.000	1.27298	-1.87093	2.77157	-1.64289
2116.000	1.28484	-1.84311	2.75776	-1.64886
2117.000	1.34016	-1.82916	2.77354	-1.67068
2118.000	1.24532	-1.79744	2.78538	-1.63294
2119.000	1.29274	-1.84906	2.73015	-1.70847
2120.000	1.23544	-1.84513	2.75776	-1.65879
2121.000	1.29669	-1.79541	2.77946	-1.66869
2122.000	1.29867	-1.83912	2.77552	-1.66274
2123.000	1.29472	-1.78349	2.78538	-1.72824
2124.000	1.27100	-1.88484	2.76763	-1.66871
2125.000	1.22358	-1.83719	2.74987	-1.67866
2126.000	1.31448	-1.82123	2.70451	-1.65291
2127.000	1.23544	-1.86897	2.71042	-1.68268
2128.000	1.22358	-1.81335	2.73015	-1.66082
2129.000	1.31052	-1.81130	2.75579	-1.65482
2130.000	1.28484	-1.90073	2.74987	-1.65086
2131.000	1.31052	-1.81925	2.72818	-1.65486
2132.000	1.31645	-1.82719	2.74001	-1.67470
2133.000	1.29472	-1.85900	2.73804	-1.63301
2134.000	1.32831	-1.89076	2.72029	-1.65884
2135.000	1.30460	-1.86892	2.73804	-1.71640
2136.000	1.28484	-1.89675	2.75579	-1.70843
2137.000	1.31052	-1.79540	2.78538	-1.69251
2138.000	1.34016	-1.79538	2.71240	-1.67871
2139.000	1.29867	-1.84707	2.69464	-1.68072
2140.000	1.26903	-1.85107	2.77552	-1.71634
2141.000	1.29669	-1.80734	2.77157	-1.68061
2142.000	1.21172	-1.88886	2.76763	-1.67863
2143.000	1.25520	-1.82326	2.73212	-1.70052
2144.000	1.27891	-1.78947	2.74396	-1.67668
2145.000	1.28088	-1.83516	2.75776	-1.68262
2146.000	1.28681	-1.77754	2.73607	-1.65485
2147.000	1.30460	-1.82323	2.72818	-1.71443
2148.000	1.26112	-1.80339	2.69859	-1.71050
2149.000	1.32436	-1.82917	2.74198	-1.72235
2150.000	1.29274	-1.80336	2.73607	-1.68066
2151.000	1.31052	-1.82322	2.63941	-1.71455
2152.000	1.38758	-1.74965	2.67294	-1.69862
2153.000	1.31052	-1.78944	2.72620	-1.69259
2154.000	1.38166	-1.75760	2.71634	-1.66878
2155.000	1.35597	-1.76557	2.73409	-1.67471
2156.000	1.27891	-1.81530	2.67294	-1.64302
2157.000	1.37375	-1.77747	2.71240	-1.70849
2158.000	1.31645	-1.72585	2.72423	-1.72039
2159.000	1.34609	-1.78147	2.74396	-1.64293
2160.000	1.31645	-1.78944	2.75579	-1.65880
2161.000	1.25915	-1.79743	2.74001	-1.67272
2162.000	1.35202	-1.76159	2.76368	-1.67864
2163.000	1.32633	-1.70200	2.73212	-1.69655
2164.000	1.31250	-1.78745	2.72029	-1.68664
2165.000	1.36190	-1.83709	2.72620	-1.68068
2166.000	1.30657	-1.76958	2.72226	-1.71642
2167.000	1.31645	-1.77156	2.72620	-1.69855
2168.000	1.27891	-1.84113	2.74987	-1.70844
2169.000	1.34412	-1.77750	2.72029	-1.68068
2170.000	1.37771	-1.78343	2.72029	-1.67671
2171.000	1.37771	-1.81125	2.78538	-1.66074
2172.000	1.39351	-1.78143	2.75579	-1.65284
2173.000	1.34412	-1.81127	2.75776	-1.62305
2174.000	1.31448	-1.72585	2.74198	-1.69058
2175.000	1.32633	-1.74770	2.75579	-1.64490
2176.000	1.38561	-1.73971	2.71634	-1.54765
2177.000	1.35795	-1.75762	2.71437	-1.63900
2178.000	1.36585	-1.69800	2.76763	-1.60914
2179.000	1.33424	-1.71591	2.72423	-1.64891
2180.000	1.37771	-1.67812	2.71042	-1.67673
2181.000	1.32040	-1.72585	2.77552	-1.65281
2182.000	1.37771	-1.73773	2.77552	-1.66075
2183.000	1.37375	-1.72979	2.71831	-1.68863
2184.000	1.29669	-1.80734	2.75776	-1.69056
2185.000	1.35597	-1.77153	2.72423	-1.70053
2186.000	1.44093	-1.77544	2.71042	-1.64496
2187.000	1.38166	-1.76753	2.75185	-1.66079
2188.000	1.37968	-1.74568	2.74790	-1.59924
2189.000	1.38166	-1.69799	2.70845	-1.63503
2190.000	1.45279	-1.73768	2.74001	-1.62903
2191.000	1.36190	-1.73973	2.79721	-1.67462
2192.000	1.35399	-1.72980	2.75776	-1.64886
2193.000	1.36980	-1.66024	2.72226	-1.63700
2194.000	1.37573	-1.74767	2.74790	-1.65285
2195.000	1.44488	-1.69993	2.78143	-1.63493
2196.000	1.33424	-1.70200	2.74790	-1.64689
2197.000	1.38956	-1.71587	2.74987	-1.68263
2198.000	1.42513	-1.70392	2.75382	-1.65681
2199.000	1.37375	-1.69799	2.74001	-1.69853
2200.000	1.32633	-1.70796	2.72620	-1.62111
2201.000	1.33621	-1.72783	2.73212	-1.66478
2202.000	1.31052	-1.75368	2.77157	-1.67267
2203.000	1.41327	-1.71187	2.72029	-1.62509
2204.000	1.39944	-1.78143	2.77749	-1.65678
2205.000	1.39746	-1.74368	2.74987	-1.64888
2206.000	1.38363	-1.70196	2.77157	-1.65083
2207.000	1.37573	-1.73575	2.74790	-1.61115
2208.000	1.35992	-1.72582	2.75579	-1.68659
2209.000	1.17615	-1.74979	2.64335	-1.61725
2210.000	1.13070	-1.70014	2.52103	-1.59357
2211.000	1.02991	-1.72802	2.43618	-1.71482
2212.000	0.84610	-1.67246	2.29802	-1.70307
2213.000	0.61285	-1.60496	2.11443	-1.64369
2214.000	0.32225	-1.66069	1.84786	-1.67773
2215.000	0.07710	-1.56728	1.58515	-1.66008
2216.000	-0.23526	-1.58318	1.28484	-1.60465
2217.000	-0.51203	-1.47776	1.03584	-1.59883
2218.000	-0.74133	-1.44192	0.79075	-1.59894
2219.000	-0.94492	-1.39811	0.57331	-1.54534
2220.000	-1.27298	-1.42976	0.45865	-1.49368
2221.000	-1.42908	-1.47935	0.28666	-1.48576
2222.000	-1.61676	-1.44941	0.26689	-1.45991
2223.000	-1.57725	-1.40770	0.15816	-1.41619
2224.000	-1.62071	-1.41761	0.15816	-1.36648
2225.000	-1.53379	-1.51903	0.21352	-1.35057
2226.000	-1.48440	-1.51906	0.34004	-1.30085
2227.000	-1.25717	-1.43374	0.45272	-1.26106
2228.000	-1.08524	-1.47557	0.68796	-1.20732
2229.000	-0.80063	-1.46575	0.86388	-1.22517
2230.000	-0.48633	-1.42012	1.02200	-1.15353
2231.000	-0.25305	-1.38635	1.16034	-1.06798
2232.000	-0.04943	-1.36251	1.37968	-1.08181
2233.000	0.28469	-1.31875	1.52984	-1.10560
2234.000	0.47842	-1.28690	1.66022	-1.08366
2235.000	0.62075	-1.20933	1.77676	-1.08160
2236.000	0.71168	-1.23118	1.85773	-1.10740
2237.000	0.83424	-1.17746	1.92685	-1.17692
2238.000	0.80261	-1.33852	1.93870	-1.20076
2239.000	0.81052	-1.20928	1.89130	-1.22861
2240.000	0.76901	-1.30075	1.82811	-1.25648
2241.000	0.72157	-1.29082	1.79651	-1.34196
2242.000	0.56540	-1.42010	1.72935	-1.32810
2243.000	0.48633	-1.35649	1.62861	-1.28245
2244.000	0.39935	-1.37043	1.56145	-1.36200
2245.000	0.33609	-1.36845	1.52589	-1.41171
2246.000	0.19968	-1.41618	1.42117	-1.38395
2247.000	0.18188	-1.42215	1.38561	-1.38795
2248.000	0.05931	-1.44999	1.38758	-1.41975
2249.000	-0.02768	-1.46589	1.34807	-1.39393
2250.000	-0.10676	-1.44402	1.30657	-1.43371
2251.000	-0.08106	-1.44601	1.30064	-1.41583
2252.000	-0.12455	-1.52951	1.31052	-1.37408
2253.000	-0.14630	-1.47384	1.28879	-1.41186
2254.000	-0.04745	-1.47782	1.28681	-1.38801
2255.000	0.01384	-1.42017	1.29867	-1.37408
2256.000	-0.06326	-1.39034	1.31052	-1.38600
2257.000	-0.05140	-1.42215	1.34807	-1.36611
2258.000	-0.00395	-1.39432	1.29274	-1.33632
2259.000	-0.08106	-1.38438	1.31645	-1.35221
2260.000	0.01977	-1.25911	1.34016	-1.39394
2261.000	0.02570	-1.36648	1.33028	-1.32636
2262.000	-0.06326	-1.42613	1.33226	-1.36810
2263.000	-0.00989	-1.34660	1.31645	-1.35618
2264.000	0.02768	-1.32871	1.34412	-1.34623
2265.000	-0.00989	-1.36450	1.35004	-1.29852
2266.000	-0.02570	-1.34859	1.34412	-1.33828
2267.000	0.06920	-1.26309	1.35399	-1.29852
2268.000	-0.03163	-1.35853	1.35202	-1.28063
2269.000	-0.01977	-1.27303	1.40339	-1.27861
2270.000	-0.02175	-1.31678	1.35004	-1.28858
2271.000	0.02966	-1.33865	1.36783	-1.29652
2272.000	-0.00791	-1.30882	1.39154	-1.32633
2273.000	-0.01977	-1.36847	1.35795	-1.28858
2274.000	0.02372	-1.34461	1.36980	-1.26670
2275.000	0.03756	-1.33467	1.35795	-1.29653
2276.000	0.01186	-1.34461	1.34214	-1.32834
2277.000	0.06326	-1.33666	1.33819	-1.35418
2278.000	0.11269	-1.36250	1.34016	-1.35021
2279.000	0.08699	-1.30087	1.35399	-1.31243
2280.000	0.07117	-1.30484	1.29274	-1.35023
2281.000	0.12455	-1.30484	1.34807	-1.38002
2282.000	0.09490	-1.36251	1.32633	-1.33630
2283.000	0.10083	-1.30285	1.36980	-1.30447
2284.000	0.00791	-1.33666	1.29274	-1.32042
2285.000	0.01779	-1.41221	1.31448	-1.30649
2286.000	0.06920	-1.30882	1.31645	-1.29059
2287.000	0.12455	-1.27899	1.34412	-1.29653
2288.000	0.08303	-1.24121	1.30657	-1.33631
2289.000	0.07117	-1.31280	1.32238	-1.29655
2290.000	0.04349	-1.30683	1.36783	-1.29453
2291.000	0.06524	-1.27899	1.33819	-1.29853
2292.000	0.07315	-1.29888	1.35004	-1.30448
2293.000	0.08501	-1.34461	1.35399	-1.30846
2294.000	0.15223	-1.29888	1.32633	-1.27269
2295.000	0.08106	-1.27502	1.32831	-1.30251
2296.000	0.08501	-1.31876	1.31448	-1.30649
2297.000	0.02768	-1.30484	1.33819	-1.34027
2298.000	0.08106	-1.30683	1.33819	-1.31840
2299.000	0.09490	-1.29888	1.31250	-1.35420
2300.000	0.08106	-1.28695	1.31052	-1.34625
2301.000	0.13048	-1.25911	1.30657	-1.31246
2302.000	0.12653	-1.27899	1.34214	-1.37605
2303.000	0.12653	-1.31876	1.33621	-1.32834
2304.000	0.13048	-1.34461	1.32633	-1.31642
2305.000	0.03954	-1.27900	1.29472	-1.30252
2306.000	0.03954	-1.34262	1.34807	-1.29454
2307.000	0.12257	-1.27104	1.32040	-1.30649
2308.000	0.00395	-1.24121	1.32436	-1.29456
2309.000	0.18386	-1.27501	1.30855	-1.33233
2310.000	0.09885	-1.29490	1.31843	-1.33034
2311.000	0.03954	-1.31677	1.31448	-1.28065
2312.000	0.03954	-1.30683	1.32040	-1.32239
2313.000	0.12653	-1.29092	1.32633	-1.26871
2314.000	0.11269	-1.27502	1.31448	-1.29257
2315.000	0.12850	-1.30484	1.33621	-1.22299
2316.000	0.16409	-1.25513	1.36190	-1.25080
2317.000	0.15816	-1.26706	1.31052	-1.27270
2318.000	0.11269	-1.27104	1.33226	-1.25877
2319.000	0.14037	-1.29092	1.30262	-1.25083
2320.000	0.09490	-1.24121	1.29867	-1.22300
2321.000	0.14037	-1.25115	1.30855	-1.24487
2322.000	0.09094	-1.25513	1.30262	-1.21704
2323.000	0.09687	-1.34262	1.30657	-1.19318
2324.000	0.14037	-1.20741	1.31448	-1.20709
2325.000	0.11862	-1.23922	1.31645	-1.18920
2326.000	0.12257	-1.24917	1.28286	-1.23494
2327.000	0.10083	-1.27104	1.28286	-1.24687
2328.000	0.10676	-1.25712	1.30262	-1.22499
2329.000	0.06129	-1.20343	1.31448	-1.29456
2330.000	0.09687	-1.26706	1.28484	-1.26873
2331.000	0.07710	-1.24519	1.31448	-1.24486
2332.000	0.14037	-1.20741	1.24927	-1.23098
2333.000	0.05733	-1.29093	1.27496	-1.23494
2334.000	0.03559	-1.27701	1.24927	-1.19321
2335.000	0.06326	-1.30087	1.30064	-1.25879
2336.000	0.09094	-1.31280	1.29669	-1.22499
2337.000	0.13048	-1.27502	1.26310	-1.24688
2338.000	0.08897	-1.25314	1.30064	-1.22101
2339.000	0.09094	-1.27104	1.30855	-1.23493
2340.000	0.04943	-1.25314	1.29867	-1.19716
2341.000	0.10874	-1.24320	1.27693	-1.18126
2342.000	0.14827	-1.28297	1.25915	-1.20911
2343.000	0.16607	-1.23723	1.28484	-1.24289
2344.000	0.13246	-1.25314	1.30064	-1.23493
2345.000	0.09490	-1.21934	1.27496	-1.23693
2346.000	0.05931	-1.32473	1.33424	-1.21901
2347.000	0.10676	-1.22332	1.32831	-1.26474
2348.000	0.06920	-1.20741	1.32040	-1.21305
2349.000	0.10280	-1.21337	1.29076	-1.21903
2350.000	0.07117	-1.21934	1.25520	-1.19320
2351.000	0.14432	-1.17957	1.30262	-1.23891
2352.000	0.06524	-1.28297	1.27100	-1.18127
2353.000	0.15223	-1.25115	1.34807	-1.22894
2354.000	0.12850	-1.24519	1.29867	-1.17728
2355.000	0.06524	-1.23326	1.28879	-1.18126
2356.000	0.06920	-1.24718	1.32238	-1.20510
2357.000	0.07710	-1.23922	1.32436	-1.18124
2358.000	0.08303	-1.24718	1.27693	-1.19916
2359.000	0.12257	-1.25712	1.27891	-1.21506
2360.000	0.11071	-1.16565	1.30262	-1.25083
2361.000	0.05733	-1.26905	1.30460	-1.19318
2362.000	0.06920	-1.20940	1.29274	-1.19319
2363.000	0.04547	-1.26905	1.31645	-1.22498
2364.000	0.09885	-1.22133	1.24532	-1.21508
2365.000	0.09292	-1.28695	1.33028	-1.19714
2366.000	0.12257	-1.28297	1.28681	-1.17530
2367.000	0.04349	-1.29490	1.30657	-1.22101
2368.000	0.07315	-1.20144	1.29472	-1.15740
2369.000	0.10874	-1.23724	1.31645	-1.20311
2370.000	0.11862	-1.23127	1.30460	-1.19517
2371.000	0.14037	-1.23525	1.34016	-1.18322
2372.000	0.15025	-1.27303	1.30064	-1.19716
2373.000	0.08501	-1.23525	1.34609	-1.23093
2374.000	0.03954	-1.25513	1.28088	-1.17927
2375.000	0.07315	-1.22928	1.28286	-1.17530
2376.000	0.06524	-1.31280	1.27298	-1.20910
2377.000	0.06326	-1.26706	1.29669	-1.22300
2378.000	0.04349	-1.26905	1.26310	-1.22700
2379.000	0.08897	-1.26110	1.26903	-1.18524
2380.000	0.06920	-1.26706	1.29472	-1.22698
2381.000	0.08106	-1.31280	1.30064	-1.20909
2382.000	0.10280	-1.25314	1.31052	-1.20312
2383.000	0.06524	-1.26508	1.29274	-1.23493
2384.000	0.07117	-1.29490	1.32238	-1.21305
2385.000	0.08897	-1.28894	1.28879	-1.23494
2386.000	0.14234	-1.21735	1.32436	-1.21106
2387.000	0.06129	-1.23923	1.31843	-1.24089
2388.000	0.12653	-1.20144	1.32238	-1.24486
2389.000	0.10874	-1.20542	1.31448	-1.22300
2390.000	0.00593	-1.22729	1.25915	-1.21706
2391.000	0.17991	-1.15371	1.32238	-1.19914
2392.000	0.19770	-1.17161	1.29274	-1.16734
2393.000	0.17200	-1.23127	1.30460	-1.22896
2394.000	0.07513	-1.20940	1.31448	-1.21107
2395.000	0.16804	-1.20144	1.28484	-1.22102
2396.000	0.17200	-1.18951	1.31645	-1.22498
2397.000	0.08501	-1.28496	1.30657	-1.19119
2398.000	0.16014	-1.22530	1.31645	-1.21305
2399.000	0.19375	-1.24717	1.29274	-1.16138
2400.000	0.12850	-1.20939	1.29274	-1.17927
2401.000	0.15421	-1.24718	1.31448	-1.21703
2402.000	0.09490	-1.23127	1.32633	-1.22895
2403.000	0.14630	-1.30484	1.33028	-1.18919
2404.000	0.10280	-1.19746	1.33028	-1.24088
2405.000	0.09885	-1.22729	1.26310	-1.21109
2406.000	0.08303	-1.26309	1.30460	-1.22101
2407.000	0.15421	-1.21735	1.30657	-1.23294
2408.000	0.12850	-1.23525	1.32831	-1.26871
2409.000	0.17200	-1.19945	1.29472	-1.19517
2410.000	0.16014	-1.19150	1.29472	-1.21505
2411.000	0.16607	-1.26109	1.31843	-1.21107
2412.000	0.15816	-1.27104	1.29076	-1.18921
2413.000	0.16607	-1.19746	1.30460	-1.24884
2414.000	0.17595	-1.14775	1.30262	-1.16336
2415.000	0.10676	-1.26905	1.28879	-1.21307
2416.000	0.15618	-1.16962	1.28484	-1.12957
2417.000	0.12455	-1.24519	1.30064	-1.21505
2418.000	0.08699	-1.21735	1.32040	-1.19715
2419.000	0.21945	-1.19149	1.26508	-1.21904
2420.000	0.18584	-1.23723	1.31052	-1.20908
2421.000	0.17002	-1.20343	1.28879	-1.20313
2422.000	0.20561	-1.17558	1.32040	-1.23094
2423.000	0.21549	-1.18553	1.30460	-1.17529
2424.000	0.22538	-1.26507	1.30262	-1.18324
2425.000	0.18781	-1.09405	1.30460	-1.16336
2426.000	0.18781	-1.18354	1.25717	-1.16139
2427.000	0.19770	-1.17360	1.31645	-1.19119
2428.000	0.19770	-1.13979	1.27100	-1.17133
2429.000	0.17991	-1.11593	1.24729	-1.17730
2430.000	0.21154	-1.11593	1.25322	-1.18128
2431.000	0.18781	-1.18354	1.25915	-1.15940
2432.000	0.21945	-1.10797	1.25322	-1.17730
2433.000	0.16607	-1.18155	1.29669	-1.16933
2434.000	0.22538	-1.13979	1.28088	-1.17331
2435.000	0.09490	-1.12786	1.24729	-1.19917
2436.000	0.24515	-1.11592	1.28879	-1.22500
2437.000	0.14432	-1.16763	1.27100	-1.22103
2438.000	0.14234	-1.14377	1.23148	-1.23298
2439.000	0.12653	-1.20542	1.25915	-1.20712
2440.000	0.13641	-1.16763	1.27298	-1.18325
2441.000	0.14234	-1.11991	1.25124	-1.17730
2442.000	0.14234	-1.18752	1.26112	-1.18724
2443.000	0.14037	-1.11792	1.24532	-1.15543
2444.000	0.15618	-1.14178	1.23939	-1.17333
2445.000	0.20165	-1.09803	1.23741	-1.12164
2446.000	0.20758	-1.12587	1.19196	-1.15943
2447.000	0.18979	-1.11792	1.21765	-1.16737
2448.000	0.15025	-1.16763	1.25520	-1.19519
2449.000	0.22538	-1.14774	1.25322	-1.19320
2450.000	0.15816	-1.08610	1.25124	-1.21706
2451.000	0.20758	-1.13581	1.23148	-1.21906
2452.000	0.25305	-1.09604	1.23741	-1.12363
2453.000	0.18386	-1.16763	1.22358	-1.17135
2454.000	0.24317	-1.13780	1.24927	-1.24291
2455.000	0.16607	-1.07417	1.24729	-1.20514
2456.000	0.17793	-1.16962	1.23346	-1.15743
2457.000	0.12850	-1.09604	1.20184	-1.17931
2458.000	0.13444	-1.18155	1.23544	-1.16935
2459.000	0.14432	-1.12190	1.21765	-1.08785
2460.000	0.19177	-1.08809	1.21370	-1.14352
2461.000	0.14037	-1.13582	1.18801	-1.12563
2462.000	0.24317	-1.08410	1.17022	-1.11769
2463.000	0.17991	-1.09405	1.23939	-1.16736
2464.000	0.20956	-1.10598	1.22951	-1.17135
2465.000	0.21549	-1.09405	1.19987	-1.12961
2466.000	0.14630	-1.13780	1.20382	-1.11767
2467.000	0.19572	-1.12388	1.16627	-1.13360
2468.000	0.18386	-1.07019	1.22753	-1.11568
2469.000	0.16409	-1.13383	1.18998	-1.13359
2470.000	0.15618	-1.04235	1.15639	-1.14155
2471.000	0.11467	-1.10002	1.19789	-1.15545
2472.000	0.20561	-1.05229	1.19591	-1.12165
2473.000	0.19572	-1.06422	1.19591	-1.14353
2474.000	0.25701	-1.08808	1.22555	-1.11170
2475.000	0.23329	-1.14575	1.19987	-1.18528
2476.000	0.16211	-1.10797	1.19196	-1.11569
2477.000	0.19572	-1.14576	1.17022	-1.11570
2478.000	0.14234	-1.10797	1.19394	-1.15744
2479.000	0.17398	-1.11991	1.19394	-1.12364
2480.000	0.19375	-1.09206	1.20579	-1.11767
2481.000	0.23131	-1.10598	1.14058	-1.12963
2482.000	0.26294	-1.12785	1.20382	-1.16738
2483.000	0.18386	-1.10201	1.19394	-1.11967
2484.000	0.17200	-1.11593	1.18998	-1.10774
2485.000	0.20165	-1.10797	1.17813	-1.08388
2486.000	0.18781	-1.11394	1.16825	-1.17336
2487.000	0.17398	-1.12985	1.17615	-1.09184
2488.000	0.20165	-1.06422	1.16034	-1.10576
2489.000	0.19968	-1.11990	1.16825	-1.09383
2490.000	0.17398	-1.08013	1.17813	-1.10576
2491.000	0.23922	-1.12587	1.19196	-1.15148
2492.000	0.19375	-1.09206	1.19591	-1.15744
2493.000	0.19572	-1.16962	1.19789	-1.11569
2494.000	0.23329	-1.09604	1.19394	-1.11768
2495.000	0.25503	-1.11791	1.17220	-1.17932
2496.000	0.18386	-1.09803	1.17813	-1.09383
2497.000	0.24119	-1.06819	1.19789	-1.10774
2498.000	0.21154	-1.03638	1.18406	-1.11768
2499.000	0.21549	-1.00058	1.18998	-1.09581
2500.000	0.17002	-1.11792	1.16232	-1.06997
2501.000	0.21352	-1.09206	1.20777	-1.11171
2502.000	0.20363	-1.05626	1.16627	-1.09980
2503.000	0.17595	-1.12587	1.15244	-1.13161
2504.000	0.22735	-1.13780	1.15244	-1.13161
2505.000	0.16409	-1.07814	1.13663	-1.09583
2506.000	0.18584	-1.12786	1.18998	-1.13955
2507.000	0.17793	-1.08411	1.18801	-1.07990
2508.000	0.15223	-1.14178	1.18998	-1.05803
2509.000	0.10874	-1.19945	1.23741	-1.07790
2510.000	0.20165	-1.16564	1.15639	-1.09383
2511.000	0.15816	-1.14576	1.22358	-1.12363
2512.000	0.16804	-1.10002	1.20777	-1.05802
2513.000	0.15816	-1.10996	1.22951	-1.10375
2514.000	0.19968	-1.13184	1.18010	-1.07792
2515.000	0.12653	-1.13582	1.15441	-1.07793
2516.000	0.15223	-1.07615	1.17022	-1.07196
2517.000	0.23526	-1.13780	1.13070	-1.09583
2518.000	0.15223	-1.12189	1.18010	-1.11172
2519.000	0.18188	-1.13581	1.17022	-1.11968
2520.000	0.09094	-1.15769	1.12675	-1.11969
2521.000	0.17200	-1.10201	1.10106	-1.12567
2522.000	0.13641	-1.20144	1.14848	-1.11173
2523.000	0.17002	-1.11593	1.13663	-1.14554
2524.000	0.14827	-1.14576	1.10896	-1.09783
2525.000	0.05536	-1.13582	1.12872	-1.03419
2526.000	0.14432	-1.08411	1.15046	-1.09583
2527.000	0.11664	-1.09604	1.11489	-1.11175
2528.000	0.21549	-1.04632	1.09315	-1.07199
2529.000	0.10083	-1.17957	1.12279	-1.11572
2530.000	0.11071	-1.07019	1.12477	-1.08589
2531.000	0.14037	-1.11394	1.07536	-1.07597
2532.000	0.10083	-1.08610	1.10698	-1.11374
2533.000	0.17595	-1.13581	1.09908	-1.09982
2534.000	0.12850	-1.18752	1.09315	-1.10380
2535.000	0.16804	-1.06820	1.08920	-1.08392
2536.000	0.17793	-1.09803	1.10303	-1.07198
2537.000	0.16804	-1.10400	1.11291	-1.05806
2538.000	0.15421	-1.13184	1.09710	-1.00637
2539.000	0.13048	-1.09008	1.11489	-1.03619
2540.000	0.16607	-1.12786	1.09315	-1.04415
2541.000	0.10280	-1.10997	1.13465	-1.01232
2542.000	0.14234	-1.15371	1.12477	-1.06601
2543.000	0.17793	-1.07218	1.08920	-1.03818
2544.000	0.15223	-1.11593	1.09513	-1.05210
2545.000	0.16211	-1.09604	1.07141	-1.05012
2546.000	0.20758	-1.15769	1.07536	-1.05807
2547.000	0.18188	-1.14178	1.08129	-1.02029
2548.000	0.16211	-1.15769	1.12082	-1.07993
2549.000	0.13641	-1.05826	1.08920	-1.03222
2550.000	0.18781	-1.12388	1.07734	-1.08193
2551.000	0.13839	-1.17758	1.09710	-0.99245
2552.000	0.11467	-1.14377	1.11687	-1.02028
2553.000	0.11664	-1.17161	1.13663	-1.06601
2554.000	0.13048	-1.16167	1.08129	-1.08790
2555.000	0.20758	-1.17956	1.10896	-1.06005
2556.000	0.12257	-1.13781	1.11687	-1.06999
2557.000	0.19375	-1.15172	1.13070	-1.07396
2558.000	0.23329	-1.10996	1.10106	-1.04017
2559.000	0.15421	-1.15172	1.10698	-1.07397
2560.000	0.18584	-1.16365	1.10896	-1.03420
2561.000	0.14827	-1.17360	1.09315	-1.06602
2562.000	0.25503	-1.08609	1.10896	-1.01233
2563.000	0.20758	-1.12388	1.13860	-1.02624
2564.000	0.28666	-1.11990	1.10106	-1.07397
2565.000	0.15223	-1.06025	1.09513	-1.05608
2566.000	0.22735	-1.05825	1.08722	-0.99046
2567.000	0.21747	-1.05825	1.08524	-1.04216
2568.000	0.26096	-1.12189	1.07932	-0.99643
2569.000	0.16804	-1.09803	1.06351	-1.06603
2570.000	0.16409	-1.08610	1.09710	-1.04216
2571.000	0.22735	-1.08212	1.12082	-1.03817
2572.000	0.16014	-1.09604	1.10501	-1.04414
2573.000	0.21154	-1.07814	1.07141	-1.04813
2574.000	0.27282	-1.01052	1.12279	-1.01034
2575.000	0.17002	-1.06024	1.12082	-1.01431
2576.000	0.29457	-1.06819	1.11094	-1.02426
2577.000	0.18781	-1.02842	1.09710	-1.02029
2578.000	0.22340	-1.05427	1.09315	-1.01233
2579.000	0.22142	-1.07814	1.06548	-0.97058
2580.000	0.16804	-1.05627	1.08524	-1.03222
2581.000	0.25108	-1.07615	1.07141	-0.97655
2582.000	0.21945	-1.01450	1.04769	-1.03223
2583.000	0.21154	-1.11990	1.05362	-0.98650
2584.000	0.18979	-1.11990	1.07734	-1.07199
2585.000	0.17002	-1.06024	1.06153	-1.06206
2586.000	0.19968	-1.10797	1.04967	-1.04217
2587.000	0.25503	-1.02245	1.07734	-1.04614
