time (ms)	lx (deg)	ly (deg)	rx (deg)	ry (deg)
0.000	0.11862	-0.28250	0.33213	-0.11539
1.000	-0.00989	-0.37600	0.30643	-0.13528
2.000	-0.00989	-0.38197	0.30050	-0.17905
3.000	-0.01779	-0.39390	0.32422	-0.13329
4.000	-0.02372	-0.36207	0.33016	-0.13926
5.000	0.00593	-0.32825	0.33213	-0.08952
6.000	-0.02768	-0.35412	0.27282	-0.11340
7.000	0.07513	-0.35809	0.34202	-0.13130
8.000	0.04349	-0.39589	0.32422	-0.11141
9.000	0.05536	-0.33621	0.33609	-0.14523
10.000	0.04943	-0.36605	0.28469	-0.12135
11.000	0.07513	-0.32030	0.31632	-0.10544
12.000	-0.01186	-0.39191	0.30643	-0.11340
13.000	0.04547	-0.32229	0.30248	-0.11340
14.000	0.03954	-0.28449	0.29457	-0.09350
15.000	0.03163	-0.32030	0.31236	-0.10146
16.000	-0.02966	-0.34218	0.30841	-0.13727
17.000	0.04943	-0.31632	0.33806	-0.11340
18.000	-0.02372	-0.40385	0.29062	-0.10942
19.000	0.07117	-0.30239	0.31236	-0.10942
20.000	0.00198	-0.34616	0.31434	-0.09350
21.000	-0.01779	-0.38594	0.33609	-0.12135
22.000	-0.02175	-0.31831	0.31632	-0.11340
23.000	0.01977	-0.30239	0.30643	-0.13727
24.000	-0.00198	-0.34417	0.30248	-0.14125
25.000	0.10280	-0.32626	0.29457	-0.10146
26.000	-0.01384	-0.36008	0.28271	-0.10345
27.000	0.04349	-0.33820	0.33016	-0.13926
28.000	0.02768	-0.27255	0.29259	-0.19496
29.000	0.04152	-0.37600	0.29062	-0.15716
30.000	0.00989	-0.37003	0.29852	-0.12533
31.000	0.08699	-0.33422	0.32422	-0.11737
32.000	0.00593	-0.33422	0.27876	-0.13329
33.000	0.09094	-0.24271	0.32225	-0.13727
34.000	0.02768	-0.29046	0.30248	-0.11340
35.000	0.06920	-0.30836	0.31632	-0.15119
36.000	0.03559	-0.32229	0.31236	-0.17507
37.000	0.06326	-0.34218	0.33609	-0.16910
38.000	0.06326	-0.30239	0.32225	-0.21485
39.000	0.08303	-0.30040	0.30248	-0.12135
40.000	0.10874	-0.29642	0.35388	-0.16512
41.000	0.07315	-0.28648	0.35190	-0.18103
42.000	0.04745	-0.27852	0.31434	-0.17308
43.000	0.01779	-0.28648	0.33806	-0.15318
44.000	-0.02966	-0.33422	0.33609	-0.17308
45.000	0.06920	-0.29046	0.32620	-0.15318
46.000	0.04943	-0.29443	0.30841	-0.13528
47.000	0.00198	-0.27454	0.31236	-0.15915
48.000	0.09292	-0.28648	0.34399	-0.18302
49.000	-0.00198	-0.32427	0.34399	-0.14523
50.000	0.06129	-0.22282	0.29062	-0.11340
51.000	0.04349	-0.22083	0.29655	-0.12732
52.000	0.12850	-0.25663	0.32818	-0.15716
53.000	0.11071	-0.23276	0.30446	-0.12732
54.000	-0.05140	-0.36008	0.35981	-0.19496
55.000	-0.01977	-0.28250	0.31039	-0.17109
56.000	0.04943	-0.26260	0.31434	-0.18302
57.000	0.04745	-0.31035	0.31632	-0.14125
58.000	-0.01582	-0.31433	0.32620	-0.17308
59.000	0.09885	-0.26459	0.31434	-0.16711
60.000	0.07908	-0.24868	0.34597	-0.12732
61.000	0.01977	-0.29046	0.34597	-0.16313
62.000	0.05733	-0.28250	0.28864	-0.11936
63.000	0.06129	-0.29046	0.32620	-0.14722
64.000	0.06129	-0.28051	0.34202	-0.11737
65.000	0.04349	-0.30637	0.30446	-0.10544
66.000	0.07117	-0.31035	0.32225	-0.14125
67.000	0.05536	-0.27056	0.34202	-0.18700
68.000	0.11071	-0.20889	0.30446	-0.15517
69.000	0.07513	-0.24868	0.28073	-0.17706
70.000	0.04745	-0.28648	0.29457	-0.15517
71.000	0.06129	-0.21486	0.31434	-0.16114
72.000	0.15223	-0.31234	0.28469	-0.13528
73.000	0.13048	-0.23674	0.33411	-0.18302
74.000	0.01186	-0.32427	0.33806	-0.13926
75.000	0.12653	-0.28449	0.31434	-0.13528
76.000	0.05733	-0.29046	0.31236	-0.14125
77.000	-0.01977	-0.25266	0.36376	-0.13926
78.000	0.01582	-0.30040	0.33213	-0.12135
79.000	0.03756	-0.28648	0.32027	-0.10345
80.000	0.04745	-0.23276	0.33806	-0.16114
81.000	0.09292	-0.24868	0.33609	-0.14125
82.000	0.03954	-0.25862	0.31434	-0.16910
83.000	0.12850	-0.26658	0.34202	-0.15318
84.000	0.12257	-0.23077	0.31434	-0.18302
85.000	0.05338	-0.21287	0.30643	-0.13329
86.000	0.07117	-0.28847	0.30050	-0.13727
87.000	0.07117	-0.31035	0.31829	-0.12732
88.000	0.03163	-0.29046	0.30248	-0.11737
89.000	0.04943	-0.27852	0.30841	-0.15517
90.000	0.04745	-0.25664	0.31236	-0.13329
91.000	-0.00791	-0.32626	0.33213	-0.14125
92.000	0.01977	-0.29642	0.33411	-0.10345
93.000	0.05536	-0.31035	0.32620	-0.11539
94.000	0.01779	-0.25465	0.30446	-0.14523
95.000	0.07513	-0.31433	0.36574	-0.12533
96.000	0.00000	-0.21486	0.31236	-0.10146
97.000	0.05536	-0.26857	0.31434	-0.10345
98.000	0.03361	-0.30836	0.31632	-0.12931
99.000	0.08106	-0.23077	0.29852	-0.16313
100.000	0.02372	-0.24072	0.29457	-0.06764
101.000	0.00989	-0.25664	0.25305	-0.15517
102.000	0.05931	-0.25266	0.29259	-0.16711
103.000	0.04547	-0.30836	0.27678	-0.17507
104.000	0.07117	-0.25465	0.28271	-0.14523
105.000	-0.01186	-0.26260	0.26887	-0.12732
106.000	0.05140	-0.22282	0.28271	-0.14523
107.000	0.03954	-0.27653	0.29852	-0.14523
108.000	0.05140	-0.20690	0.29062	-0.10942
109.000	0.06524	-0.24271	0.35190	-0.13130
110.000	-0.02966	-0.29642	0.28864	-0.12931
111.000	-0.02966	-0.28250	0.34597	-0.11737
112.000	0.00000	-0.22083	0.27282	-0.14324
113.000	0.00791	-0.28051	0.28666	-0.16910
114.000	0.00791	-0.22679	0.26294	-0.16711
115.000	0.10478	-0.19894	0.29852	-0.13528
116.000	0.10874	-0.25067	0.27480	-0.15716
117.000	0.01977	-0.32825	0.28864	-0.15119
118.000	0.02768	-0.28847	0.28864	-0.14324
119.000	-0.01384	-0.29841	0.28271	-0.12135
120.000	0.03559	-0.25664	0.31236	-0.12533
121.000	0.04547	-0.25465	0.25899	-0.14722
122.000	0.02966	-0.27255	0.25305	-0.08952
123.000	0.02966	-0.25067	0.30643	-0.10942
124.000	-0.05536	-0.29244	0.28271	-0.13926
125.000	-0.01384	-0.28449	0.28666	-0.13130
126.000	0.03954	-0.23077	0.30248	-0.11340
127.000	0.05536	-0.25266	0.26689	-0.10146
128.000	0.00989	-0.26857	0.24515	-0.07759
129.000	-0.01582	-0.18900	0.25305	-0.04178
130.000	-0.03163	-0.31035	0.28073	-0.11539
131.000	-0.04152	-0.23674	0.27282	-0.09549
132.000	-0.01779	-0.19496	0.28469	-0.10544
133.000	-0.01977	-0.20491	0.28864	-0.07361
134.000	-0.06129	-0.28847	0.31434	-0.05769
135.000	-0.01779	-0.23077	0.29655	-0.07162
136.000	0.00791	-0.30239	0.22538	-0.07958
137.000	-0.06920	-0.25266	0.25701	-0.09748
138.000	-0.05338	-0.26459	0.28469	-0.10942
139.000	-0.04152	-0.28250	0.24910	-0.08356
140.000	0.02966	-0.23873	0.23131	-0.10942
141.000	-0.03559	-0.30040	0.27085	-0.12533
142.000	-0.04547	-0.32825	0.29655	-0.11340
143.000	0.03559	-0.23276	0.22933	-0.07162
144.000	-0.06129	-0.29046	0.23724	-0.12732
145.000	-0.03163	-0.25664	0.24712	-0.04178
146.000	0.00000	-0.22083	0.27282	-0.09549
147.000	0.03163	-0.27454	0.24119	-0.05371
148.000	0.01779	-0.22481	0.23131	-0.03979
149.000	0.02175	-0.20093	0.28666	-0.09151
150.000	-0.05338	-0.30836	0.27085	-0.05371
151.000	-0.02175	-0.22282	0.26096	-0.09350
152.000	-0.03756	-0.25862	0.23526	-0.09748
153.000	-0.00593	-0.23475	0.26887	-0.07361
154.000	0.02768	-0.27852	0.25305	-0.10146
155.000	-0.00593	-0.17308	0.23526	-0.02785
156.000	-0.06326	-0.30239	0.25108	-0.07361
157.000	-0.03756	-0.23873	0.25305	-0.06167
158.000	-0.06722	-0.25664	0.23922	-0.08554
159.000	0.00791	-0.22878	0.25899	-0.09151
160.000	-0.03756	-0.28250	0.21549	-0.08753
161.000	0.03163	-0.27852	0.20561	-0.03979
162.000	0.00791	-0.24072	0.27085	-0.08356
163.000	-0.03361	-0.24868	0.23526	-0.06764
164.000	0.03361	-0.18701	0.26492	-0.06366
165.000	-0.01779	-0.20690	0.26492	-0.10942
166.000	-0.06524	-0.23077	0.23131	-0.05769
167.000	0.00989	-0.25465	0.27282	-0.11141
168.000	0.05140	-0.21287	0.28271	-0.07958
169.000	0.00791	-0.15319	0.30446	-0.06366
170.000	-0.04349	-0.25266	0.26096	-0.02387
171.000	0.03361	-0.24271	0.26294	-0.04974
172.000	0.00989	-0.29244	0.28271	-0.04576
173.000	-0.02570	-0.16910	0.26492	-0.04974
174.000	0.00000	-0.23077	0.27480	-0.06167
175.000	-0.02768	-0.24072	0.23724	-0.02984
176.000	0.00989	-0.21486	0.32620	-0.06366
177.000	0.05536	-0.24072	0.22538	-0.05570
178.000	0.06524	-0.21287	0.26294	-0.03979
179.000	-0.05338	-0.27056	0.28073	-0.04377
180.000	0.01186	-0.26260	0.26887	-0.06963
181.000	0.05536	-0.27056	0.23526	-0.04775
182.000	-0.00989	-0.25465	0.25305	-0.02387
183.000	0.00000	-0.24072	0.25899	-0.05968
184.000	-0.03756	-0.27454	0.25503	-0.06565
185.000	-0.03163	-0.23674	0.28271	-0.05769
186.000	0.03954	-0.27056	0.27876	-0.04377
187.000	-0.04547	-0.26260	0.25899	-0.03581
188.000	-0.03954	-0.26459	0.25701	-0.04775
189.000	0.06524	-0.21884	0.28271	-0.08157
190.000	0.05338	-0.22679	0.26492	-0.07958
191.000	-0.00198	-0.23873	0.30050	-0.07560
192.000	-0.01384	-0.23873	0.27678	-0.04377
193.000	0.03361	-0.25266	0.22340	0.01790
194.000	-0.04943	-0.26260	0.28073	-0.04775
195.000	0.01186	-0.24470	0.24119	-0.08356
196.000	-0.03559	-0.23873	0.23526	-0.08356
197.000	0.07117	-0.28449	0.26492	-0.09549
198.000	-0.05338	-0.24072	0.29655	-0.08356
199.000	0.04745	-0.25465	0.25899	-0.12334
200.000	-0.03559	-0.24072	0.27678	-0.05172
201.000	0.07513	-0.23276	0.23724	-0.08157
202.000	-0.00593	-0.20491	0.24910	-0.01790
203.000	0.01186	-0.27056	0.26887	-0.12533
204.000	0.05140	-0.21287	0.28073	-0.08753
205.000	0.01384	-0.27852	0.29457	-0.03382
206.000	-0.04547	-0.28250	0.26887	-0.01592
207.000	0.01582	-0.26260	0.24712	-0.06764
208.000	0.04547	-0.21088	0.30050	-0.05371
209.000	0.03756	-0.22282	0.28864	-0.04775
210.000	0.01582	-0.18104	0.27085	-0.06366
211.000	0.02768	-0.27056	0.28271	-0.07162
212.000	0.00989	-0.26260	0.26492	-0.07759
213.000	0.07117	-0.25862	0.29852	-0.04178
214.000	-0.01384	-0.26061	0.26689	-0.05172
215.000	0.01977	-0.24271	0.25899	-0.05172
216.000	-0.00791	-0.25266	0.26294	-0.05371
217.000	0.01977	-0.25465	0.23922	-0.06963
218.000	-0.00395	-0.26857	0.23724	-0.06366
219.000	0.02175	-0.22481	0.26096	-0.01393
220.000	0.04547	-0.21884	0.28666	0.00597
221.000	-0.03756	-0.25266	0.26887	-0.03183
222.000	-0.03361	-0.28847	0.29852	-0.06963
223.000	0.04349	-0.30239	0.29259	-0.05968
224.000	-0.00395	-0.25266	0.27678	-0.05371
225.000	0.00198	-0.27454	0.22142	0.00199
226.000	-0.04943	-0.27056	0.29655	-0.04377
227.000	0.02966	-0.24669	0.26887	-0.04377
228.000	-0.01977	-0.24669	0.24910	0.00000
229.000	-0.03954	-0.25266	0.27282	-0.09549
230.000	-0.02570	-0.25266	0.29259	-0.06565
231.000	-0.01977	-0.22878	0.25503	-0.02586
232.000	0.03559	-0.23276	0.27085	-0.05172
233.000	-0.00989	-0.25465	0.26492	-0.01790
234.000	-0.06920	-0.19695	0.27085	-0.03780
235.000	-0.01582	-0.25465	0.24910	-0.05570
236.000	-0.01582	-0.16711	0.27678	0.00000
237.000	0.01384	-0.20093	0.23724	-0.04178
238.000	0.02570	-0.16910	0.24119	-0.03581
239.000	-0.01384	-0.17109	0.25305	-0.06963
240.000	0.00395	-0.18900	0.27678	-0.03581
241.000	-0.00395	-0.15120	0.26492	-0.04775
242.000	0.00395	-0.21884	0.25503	0.00000
243.000	0.01186	-0.20491	0.29259	-0.00398
244.000	-0.05931	-0.25266	0.25701	-0.05172
245.000	-0.03756	-0.20093	0.23724	-0.06963
246.000	-0.04547	-0.11141	0.26887	-0.05769
247.000	0.02570	-0.17706	0.26689	-0.06167
248.000	-0.11862	-0.17507	0.27876	0.00398
249.000	-0.04152	-0.23475	0.29062	-0.03382
250.000	-0.07513	-0.21685	0.24712	-0.02387
251.000	-0.04547	-0.19894	0.27678	-0.01393
252.000	-0.08106	-0.25067	0.24317	-0.07162
253.000	-0.06722	-0.16711	0.28864	-0.03183
254.000	-0.08699	-0.21287	0.30841	-0.03581
255.000	-0.11269	-0.25266	0.30643	-0.00597
256.000	-0.02175	-0.19496	0.30050	-0.00398
257.000	-0.06920	-0.22679	0.27678	-0.09350
258.000	-0.06524	-0.23276	0.29457	-0.03581
259.000	-0.03756	-0.23276	0.27678	0.00796
260.000	-0.07710	-0.23276	0.32620	-0.02785
261.000	-0.02966	-0.18900	0.30050	-0.04178
262.000	-0.09885	-0.23276	0.29655	-0.04775
263.000	-0.09292	-0.23674	0.25305	-0.05570
264.000	-0.10676	-0.17507	0.30841	0.00597
265.000	-0.05733	-0.19099	0.28666	-0.02785
266.000	-0.15816	-0.19098	0.27480	-0.03382
267.000	-0.04943	-0.25465	0.28271	-0.03382
268.000	-0.13246	-0.23674	0.28864	-0.01989
269.000	-0.10874	-0.27852	0.28666	-0.02785
270.000	-0.07908	-0.21486	0.28469	-0.02586
271.000	-0.08699	-0.27454	0.31039	-0.04377
272.000	-0.07513	-0.22679	0.31434	-0.02586
273.000	-0.08106	-0.31035	0.30841	0.00597
274.000	-0.04943	-0.21088	0.28469	0.00000
275.000	-0.07710	-0.23077	0.33213	-0.06167
276.000	-0.02966	-0.22282	0.27480	-0.05172
277.000	-0.14432	-0.20889	0.30050	-0.02586
278.000	-0.06524	-0.17706	0.23922	-0.01393
279.000	-0.03756	-0.15120	0.31039	-0.02188
280.000	-0.07710	-0.18701	0.28864	0.01592
281.000	0.00593	-0.17507	0.31434	0.02188
282.000	-0.10083	-0.22679	0.28864	0.00398
283.000	-0.04349	-0.20292	0.27876	0.03979
284.000	-0.04349	-0.25266	0.32225	0.00000
285.000	-0.03163	-0.26658	0.29259	-0.00398
286.000	-0.05140	-0.23873	0.29062	-0.05968
287.000	-0.06722	-0.29443	0.25305	-0.00995
288.000	-0.07513	-0.28250	0.25305	-0.00597
289.000	-0.04547	-0.23276	0.30643	-0.04377
290.000	-0.11664	-0.28648	0.27085	-0.02586
291.000	-0.07117	-0.22481	0.25503	-0.03382
292.000	-0.07117	-0.25862	0.25503	0.01393
293.000	-0.12257	-0.23276	0.29457	0.00796
294.000	-0.04349	-0.21884	0.28271	-0.01393
295.000	-0.01186	-0.24271	0.31829	-0.03780
296.000	-0.13048	-0.25067	0.31039	-0.03979
297.000	-0.08501	-0.24271	0.30248	-0.01989
298.000	-0.06524	-0.27056	0.27876	0.00199
299.000	-0.04547	-0.25862	0.28864	-0.04377
300.000	-0.08699	-0.23276	0.34399	0.01393
301.000	-0.05338	-0.25266	0.29852	-0.04576
302.000	0.00593	-0.25465	0.31039	-0.00597
303.000	-0.09094	-0.25067	0.30643	-0.02984
304.000	-0.05931	-0.26658	0.27876	0.00796
305.000	-0.02966	-0.27056	0.29457	-0.08356
306.000	-0.07908	-0.27454	0.27876	-0.00796
307.000	-0.06722	-0.29841	0.29457	-0.01592
308.000	-0.07908	-0.25862	0.28073	0.01194
309.000	-0.08897	-0.27056	0.31039	-0.00796
310.000	-0.05140	-0.26658	0.28271	-0.00199
311.000	-0.05931	-0.27852	0.36574	-0.00597
312.000	-0.11467	-0.22480	0.32422	0.02984
313.000	-0.03756	-0.24470	0.32620	0.00796
314.000	-0.09687	-0.24868	0.33213	0.00000
315.000	-0.15421	-0.26857	0.29062	0.03382
316.000	-0.04152	-0.25465	0.31632	0.00796
317.000	-0.10676	-0.29841	0.31829	-0.01393
318.000	-0.08501	-0.26459	0.31236	-0.02188
319.000	-0.04745	-0.23077	0.32225	-0.00199
320.000	-0.08106	-0.22679	0.30643	-0.03780
321.000	-0.04943	-0.20292	0.35388	-0.01989
322.000	-0.06920	-0.20292	0.29457	0.01790
323.000	-0.13641	-0.28648	0.37760	-0.05371
324.000	-0.09885	-0.23077	0.29852	-0.03183
325.000	-0.03756	-0.23276	0.33411	0.03382
326.000	-0.10280	-0.22083	0.33806	-0.01592
327.000	-0.04547	-0.16512	0.32818	-0.01989
328.000	-0.07117	-0.25067	0.33213	-0.02188
329.000	-0.01186	-0.17905	0.33411	-0.01790
330.000	-0.06524	-0.23674	0.34202	-0.03382
331.000	-0.07117	-0.20292	0.33213	-0.01790
332.000	-0.07315	-0.22679	0.37563	-0.00796
333.000	-0.09094	-0.21685	0.32027	-0.02785
334.000	-0.10478	-0.18701	0.36376	-0.00995
335.000	-0.12257	-0.19894	0.31039	-0.01194
336.000	-0.05931	-0.16711	0.31236	-0.06366
337.000	-0.02570	-0.22481	0.32225	-0.01989
338.000	-0.02570	-0.19297	0.31236	0.00597
339.000	-0.09094	-0.22679	0.29852	0.02387
340.000	-0.07710	-0.17308	0.30248	0.01790
341.000	-0.07315	-0.20491	0.30446	0.00796
342.000	-0.03361	-0.13926	0.31236	-0.04974
343.000	-0.04943	-0.15319	0.32422	0.01194
344.000	-0.06326	-0.16910	0.27480	0.04775
345.000	-0.07908	-0.17507	0.32225	0.01989
346.000	-0.04943	-0.17109	0.31039	0.01790
347.000	0.03163	-0.20093	0.34597	0.03382
348.000	-0.04943	-0.23276	0.32225	-0.02785
349.000	-0.02768	-0.17905	0.35586	-0.01393
350.000	-0.01977	-0.21685	0.33016	0.00199
351.000	-0.00989	-0.20491	0.34202	0.00398
352.000	-0.03756	-0.19894	0.33411	0.02188
353.000	-0.02768	-0.15319	0.39935	-0.04377
354.000	-0.04745	-0.16114	0.30050	0.02188
355.000	-0.04152	-0.20690	0.32620	-0.01592
356.000	-0.06129	-0.21287	0.30248	0.04377
357.000	-0.12850	-0.16313	0.33806	-0.00995
358.000	-0.11071	-0.12931	0.27678	0.04974
359.000	-0.13839	-0.20889	0.27678	0.05172
360.000	-0.14234	-0.12732	0.20561	0.06366
361.000	-0.21945	-0.12334	0.15025	0.08356
362.000	-0.22538	0.00398	0.09490	0.12732
363.000	-0.32620	0.00995	0.07513	0.16512
364.000	-0.35190	0.03780	-0.00791	0.19894
365.000	-0.36772	0.10146	-0.02570	0.21088
366.000	-0.51005	0.10941	-0.09490	0.26260
367.000	-0.48831	0.09151	-0.14037	0.33223
368.000	-0.53575	0.21087	-0.14234	0.36406
369.000	-0.50412	0.20092	-0.13641	0.37600
370.000	-0.46854	0.25066	-0.11664	0.41379
371.000	-0.46261	0.27851	-0.12060	0.44165
372.000	-0.43098	0.25265	-0.01779	0.42971
373.000	-0.33411	0.22082	-0.01582	0.42175
374.000	-0.32818	0.25663	-0.00989	0.43966
375.000	-0.28271	0.18104	0.07315	0.41380
376.000	-0.22933	0.16114	0.11269	0.34218
377.000	-0.21945	0.11539	0.16804	0.36804
378.000	-0.22538	0.13329	0.15421	0.33422
379.000	-0.19572	0.07759	0.17991	0.31433
380.000	-0.18979	0.05769	0.17793	0.29244
381.000	-0.16014	0.01989	0.18979	0.25862
382.000	-0.15816	0.02785	0.20956	0.26658
383.000	-0.14432	0.03581	0.19177	0.24669
384.000	-0.17793	0.06565	0.21352	0.22878
385.000	-0.16409	0.05769	0.20956	0.30438
386.000	-0.22933	0.04775	0.23131	0.22480
387.000	-0.24910	0.00199	0.17793	0.28250
388.000	-0.22933	0.05371	0.24119	0.27653
389.000	-0.24119	0.04775	0.19177	0.29045
390.000	-0.14827	0.03382	0.21549	0.28250
391.000	-0.15421	0.09947	0.21154	0.28647
392.000	-0.24910	0.06167	0.17793	0.26260
393.000	-0.21154	0.07560	0.14432	0.24669
394.000	-0.21747	0.12533	0.18386	0.32228
395.000	-0.19770	0.02785	0.16607	0.29045
396.000	-0.23922	0.08554	0.16409	0.25862
397.000	-0.19177	0.03979	0.12850	0.30637
398.000	-0.23131	0.06366	0.15618	0.28648
399.000	-0.25305	0.11539	0.18188	0.29443
400.000	-0.23922	0.10544	0.17200	0.38594
401.000	-0.22538	0.07958	0.16211	0.31433
402.000	-0.22933	0.13727	0.16409	0.30438
403.000	-0.25503	0.07958	0.15816	0.35610
404.000	-0.25108	0.08356	0.12060	0.29642
405.000	-0.25305	0.09748	0.13246	0.32030
406.000	-0.26096	0.07759	0.13641	0.29443
407.000	-0.27876	0.18700	0.15025	0.36207
408.000	-0.23724	0.11539	0.14037	0.30637
409.000	-0.24910	0.09350	0.17398	0.32029
410.000	-0.19572	0.06764	0.14827	0.35212
411.000	-0.23526	0.11141	0.13444	0.31234
412.000	-0.20165	0.14125	0.16211	0.35610
413.000	-0.22933	0.13926	0.17200	0.30836
414.000	-0.24119	0.09151	0.19968	0.33820
415.000	-0.19968	0.08952	0.17991	0.33024
416.000	-0.23526	0.11340	0.19177	0.33820
417.000	-0.24515	0.12931	0.17200	0.33621
418.000	-0.20758	0.14722	0.17793	0.36406
419.000	-0.29655	0.06167	0.20561	0.33422
420.000	-0.27876	0.10146	0.16804	0.36605
421.000	-0.25305	0.14523	0.20165	0.35809
422.000	-0.27678	0.11539	0.19770	0.33223
423.000	-0.22933	0.08555	0.20165	0.34417
424.000	-0.27876	0.07560	0.18781	0.38196
425.000	-0.24712	0.15716	0.20758	0.30637
426.000	-0.26492	0.10544	0.19572	0.35411
427.000	-0.31632	0.10743	0.23922	0.33024
428.000	-0.21747	0.07958	0.16607	0.34616
429.000	-0.22142	0.03780	0.21945	0.31433
430.000	-0.29062	0.14125	0.23329	0.33621
431.000	-0.27282	0.11936	0.20561	0.35809
432.000	-0.24317	0.12135	0.24712	0.31035
433.000	-0.20758	0.09350	0.21945	0.33223
434.000	-0.26096	0.07958	0.19770	0.32427
435.000	-0.20758	0.07162	0.22142	0.34019
436.000	-0.19770	0.10942	0.20561	0.30239
437.000	-0.24910	0.09947	0.19375	0.35809
438.000	-0.22340	0.14523	0.20956	0.32626
439.000	-0.20758	0.14523	0.20758	0.38992
440.000	-0.26294	0.15120	0.19375	0.36804
441.000	-0.25108	0.03581	0.21945	0.35212
442.000	-0.19177	0.10942	0.21747	0.33820
443.000	-0.16014	0.04974	0.25503	0.37202
444.000	-0.16804	0.10743	0.24317	0.37003
445.000	-0.20956	0.12533	0.26689	0.32427
446.000	-0.18781	0.10544	0.26887	0.35610
447.000	-0.25305	0.06963	0.24119	0.35610
448.000	-0.24317	0.11539	0.24119	0.34814
449.000	-0.23724	0.07162	0.27282	0.33024
450.000	-0.25108	0.14523	0.26492	0.36406
451.000	-0.20561	0.07759	0.24119	0.31830
452.000	-0.15618	0.07958	0.21352	0.36406
453.000	-0.19375	0.17109	0.22538	0.32427
454.000	-0.19770	0.11738	0.26096	0.33621
455.000	-0.21154	0.12334	0.25503	0.32228
456.000	-0.17002	0.12533	0.25305	0.30438
457.000	-0.18781	0.11738	0.24910	0.27852
458.000	-0.20758	0.17905	0.23724	0.37003
459.000	-0.17793	0.11141	0.21352	0.36804
460.000	-0.21154	0.09549	0.17200	0.31831
461.000	-0.17002	0.09549	0.24119	0.32626
462.000	-0.20165	0.08555	0.23329	0.27255
463.000	-0.17793	0.13329	0.19770	0.34019
464.000	-0.18188	0.07560	0.24515	0.35013
465.000	-0.20956	0.09947	0.20363	0.33024
466.000	-0.17002	0.08952	0.24317	0.30438
467.000	-0.16804	0.09748	0.16409	0.38594
468.000	-0.24119	0.05570	0.23724	0.35610
469.000	-0.18979	0.09350	0.25503	0.32626
470.000	-0.21352	0.11539	0.25305	0.35013
471.000	-0.11862	0.10146	0.26492	0.34814
472.000	-0.13641	0.16711	0.19177	0.34417
473.000	-0.15025	0.11340	0.24910	0.34814
474.000	-0.15223	0.14523	0.22933	0.34218
475.000	-0.12653	0.11340	0.23329	0.36207
476.000	-0.20758	0.06565	0.27678	0.36605
477.000	-0.17200	0.12931	0.22735	0.32825
478.000	-0.19375	0.07560	0.26492	0.33223
479.000	-0.12257	0.08952	0.23922	0.33223
480.000	-0.16014	0.06764	0.26689	0.36605
481.000	-0.18386	0.06565	0.21154	0.32626
482.000	-0.18386	0.06366	0.27678	0.29443
483.000	-0.22538	0.08753	0.26096	0.32825
484.000	-0.19177	0.12334	0.25899	0.32626
485.000	-0.15421	0.08356	0.23724	0.32427
486.000	-0.15421	0.08356	0.23329	0.37798
487.000	-0.16804	0.09748	0.25503	0.32825
488.000	-0.11862	0.06764	0.21945	0.37003
489.000	-0.14234	0.11937	0.24119	0.32228
490.000	-0.20561	0.05570	0.23526	0.41379
491.000	-0.18781	0.05570	0.24119	0.36605
492.000	-0.21549	0.04576	0.22340	0.35610
493.000	-0.20561	0.08356	0.24712	0.34417
494.000	-0.15025	0.03183	0.27678	0.30836
495.000	-0.23329	-0.00199	0.23922	0.36406
496.000	-0.17002	0.04775	0.23526	0.32228
497.000	-0.15421	0.04377	0.23329	0.33820
498.000	-0.21154	0.01790	0.26294	0.31830
499.000	-0.15025	0.09549	0.25305	0.36605
500.000	-0.17200	0.07162	0.23526	0.36406
501.000	-0.15421	0.05371	0.25701	0.34615
502.000	-0.15421	0.11539	0.22735	0.33621
503.000	-0.19177	0.03979	0.27282	0.34416
504.000	-0.13048	0.07162	0.26294	0.31432
505.000	-0.17595	0.05173	0.27085	0.35013
506.000	-0.20758	-0.04775	0.30050	0.37599
507.000	-0.14827	0.02785	0.29457	0.31432
508.000	-0.17200	0.02984	0.29655	0.35212
509.000	-0.18979	0.03780	0.27085	0.35013
510.000	-0.18781	0.03183	0.29062	0.34019
511.000	-0.16014	0.05371	0.28469	0.33223
512.000	-0.19968	0.02387	0.25108	0.34814
513.000	-0.17002	0.01790	0.26887	0.37599
514.000	-0.15618	0.00398	0.31632	0.34615
515.000	-0.20165	0.03581	0.23329	0.37798
516.000	-0.21352	0.07759	0.26689	0.37599
517.000	-0.19375	0.03979	0.28864	0.35411
518.000	-0.18781	0.02785	0.29259	0.34217
519.000	-0.17595	0.02586	0.24119	0.33820
520.000	-0.13444	-0.01592	0.27678	0.32029
521.000	-0.13839	0.04775	0.26887	0.32427
522.000	-0.14630	0.07560	0.25899	0.33223
523.000	-0.22735	0.00398	0.22538	0.32427
524.000	-0.14827	0.02387	0.23526	0.31035
525.000	-0.19968	-0.00398	0.30248	0.31432
526.000	-0.14827	0.04178	0.24910	0.29443
527.000	-0.15025	-0.01790	0.27876	0.32427
528.000	-0.17002	0.03382	0.24515	0.34417
529.000	-0.19572	0.02188	0.26096	0.30239
530.000	-0.16607	0.03581	0.28073	0.32427
531.000	-0.15025	0.01592	0.26492	0.32427
532.000	-0.20363	0.01989	0.25503	0.34615
533.000	-0.17595	0.04377	0.25108	0.35610
534.000	-0.19177	0.05173	0.29852	0.32228
535.000	-0.21154	0.10146	0.22340	0.35809
536.000	-0.13839	0.04576	0.23922	0.35013
537.000	-0.17002	0.06366	0.23131	0.36406
538.000	-0.20165	-0.02984	0.27876	0.28647
539.000	-0.11269	0.01989	0.26294	0.34814
540.000	-0.17398	0.04576	0.26096	0.33621
541.000	-0.18781	0.04377	0.26294	0.28448
542.000	-0.12455	0.05769	0.18188	0.35809
543.000	-0.13246	0.05173	0.29852	0.33223
544.000	-0.12060	0.02387	0.26689	0.34814
545.000	-0.13641	0.09947	0.27678	0.31035
546.000	-0.13246	0.04576	0.23724	0.32626
547.000	-0.11664	0.05769	0.20363	0.31632
548.000	-0.12653	0.05173	0.27085	0.31233
549.000	-0.14630	0.04974	0.22735	0.32228
550.000	-0.19968	0.00199	0.24119	0.31234
551.000	-0.09292	0.07162	0.22933	0.28846
552.000	-0.12455	0.00995	0.22735	0.33024
553.000	-0.19177	0.04775	0.25108	0.32825
554.000	-0.10478	0.05371	0.22142	0.30637
555.000	-0.19177	0.06963	0.26492	0.33024
556.000	-0.15421	0.09350	0.25503	0.38196
557.000	-0.19375	0.05371	0.26492	0.34814
558.000	-0.11467	0.03979	0.25899	0.33223
559.000	-0.13444	0.10345	0.25899	0.32228
560.000	-0.20561	0.06764	0.26689	0.31035
561.000	-0.11071	0.07162	0.24317	0.35809
562.000	-0.12850	0.08555	0.20561	0.37003
563.000	-0.14432	0.03581	0.28271	0.27852
564.000	-0.11862	0.00199	0.23922	0.29642
565.000	-0.16607	0.03780	0.20956	0.29642
566.000	-0.10280	0.04377	0.28271	0.32427
567.000	-0.13048	0.06366	0.22933	0.27255
568.000	-0.11467	0.03382	0.27480	0.28846
569.000	-0.14827	0.04775	0.25108	0.25862
570.000	-0.14630	0.02586	0.22142	0.27852
571.000	-0.14234	0.07162	0.24515	0.28250
572.000	-0.16211	0.02387	0.25701	0.28051
573.000	-0.14827	0.04576	0.24910	0.30239
574.000	-0.13641	0.06565	0.26096	0.30040
575.000	-0.08501	0.04974	0.27876	0.28051
576.000	-0.09094	0.11141	0.23131	0.35809
577.000	-0.06920	0.03183	0.25108	0.33621
578.000	-0.08501	0.08356	0.24910	0.31432
579.000	-0.14234	0.03382	0.20165	0.34814
580.000	-0.14432	0.02188	0.27876	0.29443
581.000	-0.12455	0.08555	0.21945	0.33024
582.000	-0.11467	0.03979	0.27085	0.30438
583.000	-0.13246	-0.00597	0.28073	0.33024
584.000	-0.18584	0.03581	0.28864	0.29841
585.000	-0.13641	0.03382	0.28073	0.32228
586.000	-0.12850	0.00597	0.27678	0.31631
587.000	-0.12060	0.03979	0.19770	0.32427
588.000	-0.12257	0.04974	0.27678	0.32427
589.000	-0.14827	0.03979	0.29457	0.27653
590.000	-0.14037	0.00199	0.24910	0.30836
591.000	-0.12455	0.05570	0.29259	0.34019
592.000	-0.17595	-0.01194	0.24317	0.27454
593.000	-0.17595	0.01592	0.28073	0.28647
594.000	-0.14827	-0.03382	0.29457	0.30040
595.000	-0.12653	0.01592	0.30643	0.30836
596.000	-0.13246	0.02387	0.28073	0.33024
597.000	-0.09885	0.01393	0.24515	0.32427
598.000	-0.16211	-0.01790	0.25108	0.32626
599.000	-0.09885	-0.02586	0.28666	0.29642
600.000	-0.06326	0.04576	0.27876	0.31233
601.000	-0.13048	-0.01790	0.26096	0.30836
602.000	-0.11071	0.03581	0.25305	0.33024
603.000	-0.10676	-0.00796	0.24515	0.33223
604.000	-0.15223	-0.02785	0.28666	0.28249
605.000	-0.08303	0.00995	0.26689	0.32029
606.000	-0.11071	0.04178	0.27876	0.30239
607.000	-0.17991	-0.02785	0.30248	0.31432
608.000	-0.12060	0.03382	0.29259	0.31830
609.000	-0.15223	0.03581	0.28469	0.31035
610.000	-0.17595	-0.00796	0.28666	0.31233
611.000	-0.14827	-0.01194	0.28666	0.28050
612.000	-0.13641	-0.02586	0.30050	0.29244
613.000	-0.13641	0.00199	0.31039	0.27851
614.000	-0.07315	0.01393	0.27678	0.32228
615.000	-0.13048	-0.01989	0.30050	0.31233
616.000	-0.17793	0.00199	0.27085	0.32427
617.000	-0.18584	0.07560	0.25899	0.31234
618.000	-0.08501	-0.02785	0.29259	0.27852
619.000	-0.11071	0.01790	0.32422	0.28249
620.000	-0.09094	0.03581	0.27282	0.30836
621.000	-0.12653	0.03183	0.26492	0.29841
622.000	-0.09885	0.06167	0.24910	0.29642
623.000	-0.10676	-0.04377	0.27678	0.30239
624.000	-0.10676	0.01393	0.28271	0.30836
625.000	-0.21945	0.02188	0.30050	0.30637
626.000	-0.15618	0.00398	0.26096	0.31035
627.000	-0.18781	-0.03382	0.27085	0.31035
628.000	-0.14630	-0.00796	0.25701	0.28051
629.000	-0.19968	0.03979	0.29062	0.28050
630.000	-0.20758	-0.04576	0.23526	0.26260
631.000	-0.22538	-0.00796	0.29259	0.28846
632.000	-0.16211	0.00597	0.28469	0.30836
633.000	-0.18386	0.00796	0.28469	0.25066
634.000	-0.18188	0.01592	0.28073	0.22878
635.000	-0.20165	-0.01592	0.26689	0.29443
636.000	-0.15223	0.03183	0.26689	0.29244
637.000	-0.23329	-0.02188	0.26689	0.24271
638.000	-0.13246	0.00796	0.25305	0.30438
639.000	-0.09490	0.05173	0.27876	0.27255
640.000	-0.16211	0.04576	0.23922	0.26658
641.000	-0.14630	-0.01989	0.24515	0.27653
642.000	-0.17398	-0.02188	0.27678	0.27454
643.000	-0.13444	-0.00796	0.22933	0.27454
644.000	-0.21549	0.00995	0.24910	0.32427
645.000	-0.13444	-0.04576	0.25108	0.26459
646.000	-0.22142	0.01393	0.26492	0.25066
647.000	-0.16804	0.01194	0.26294	0.27056
648.000	-0.19968	-0.05371	0.22340	0.26857
649.000	-0.17991	-0.02785	0.27480	0.28448
650.000	-0.10280	-0.02785	0.24317	0.28647
651.000	-0.20561	-0.00796	0.25899	0.29244
652.000	-0.20956	-0.01592	0.25108	0.27852
653.000	-0.20363	-0.04775	0.23922	0.29045
654.000	-0.17793	-0.02387	0.25305	0.27255
655.000	-0.15618	-0.02387	0.23922	0.28647
656.000	-0.15025	-0.02188	0.26689	0.26260
657.000	-0.16409	-0.03183	0.26096	0.29841
658.000	-0.19770	-0.09350	0.26887	0.28249
659.000	-0.21945	0.00199	0.23526	0.27454
660.000	-0.18188	-0.03382	0.25503	0.32626
661.000	-0.12653	-0.04377	0.24712	0.28051
662.000	-0.20363	-0.04178	0.23922	0.28051
663.000	-0.14432	-0.08157	0.25701	0.31432
664.000	-0.13444	0.01592	0.29852	0.26857
665.000	-0.15816	-0.01393	0.23329	0.26061
666.000	-0.22933	-0.06764	0.26492	0.23674
667.000	-0.13444	-0.09748	0.25899	0.28051
668.000	-0.20165	-0.10345	0.27678	0.22878
669.000	-0.17793	-0.04178	0.27678	0.22878
670.000	-0.15025	0.02586	0.29259	0.27852
671.000	-0.11664	-0.04576	0.22340	0.25663
672.000	-0.15618	-0.05371	0.21154	0.23077
673.000	-0.19375	-0.02586	0.26887	0.28846
674.000	-0.15223	0.00000	0.24119	0.26459
675.000	-0.14827	-0.01592	0.20956	0.30836
676.000	-0.04152	-0.02387	0.29457	0.26459
677.000	-0.18584	-0.03382	0.24910	0.24868
678.000	-0.09687	-0.04178	0.24712	0.28846
679.000	-0.11269	-0.03979	0.25503	0.24669
680.000	-0.14630	-0.03183	0.26689	0.24470
681.000	-0.17002	-0.04377	0.24515	0.23276
682.000	-0.11664	0.00000	0.24317	0.25067
683.000	-0.11071	-0.00796	0.24712	0.26857
684.000	-0.13444	-0.03382	0.21549	0.27454
685.000	-0.15223	-0.04775	0.28073	0.29045
686.000	-0.13839	-0.00995	0.26294	0.27454
687.000	-0.11467	-0.04576	0.27085	0.30836
688.000	-0.14827	-0.05173	0.24317	0.32626
689.000	-0.16804	-0.01790	0.31039	0.28846
690.000	-0.11071	-0.02586	0.28469	0.29642
691.000	-0.11269	-0.03979	0.29852	0.24271
692.000	-0.18386	0.01790	0.31039	0.25066
693.000	-0.12653	-0.02984	0.27282	0.27454
694.000	-0.17595	-0.01194	0.28073	0.26459
695.000	-0.22538	-0.08555	0.27678	0.25265
696.000	-0.18584	-0.02586	0.26096	0.25066
697.000	-0.17595	-0.03581	0.25899	0.28647
698.000	-0.16409	-0.06565	0.24317	0.26857
699.000	-0.14827	-0.05371	0.26096	0.28051
700.000	-0.18188	-0.06764	0.31632	0.28647
701.000	-0.23922	-0.06167	0.27876	0.27852
702.000	-0.22142	-0.05172	0.28469	0.30637
703.000	-0.14432	-0.09549	0.27876	0.27852
704.000	-0.15618	-0.05173	0.28864	0.24867
705.000	-0.20561	-0.06764	0.27282	0.25066
706.000	-0.19770	-0.08356	0.28469	0.23077
707.000	-0.19177	-0.06963	0.30050	0.28050
708.000	-0.14630	-0.08157	0.24712	0.32029
709.000	-0.14432	-0.07361	0.30248	0.24867
710.000	-0.20363	-0.07560	0.28469	0.27255
711.000	-0.10478	-0.02785	0.29655	0.29045
712.000	-0.14432	-0.05570	0.30841	0.28050
713.000	-0.13641	-0.01989	0.29457	0.27454
714.000	-0.15421	-0.07560	0.27085	0.27852
715.000	-0.16607	-0.06366	0.29655	0.32228
716.000	-0.20165	-0.11340	0.28469	0.32228
717.000	-0.10874	-0.03183	0.28469	0.29642
718.000	-0.13048	-0.17905	0.28073	0.30438
719.000	-0.16014	-0.11937	0.23526	0.30836
720.000	-0.14827	-0.10345	0.24712	0.30040
721.000	-0.12850	-0.11539	0.30446	0.30239
722.000	-0.14630	-0.17308	0.29655	0.25265
723.000	-0.17002	-0.10942	0.29259	0.30239
724.000	-0.14432	-0.11539	0.33016	0.26260
725.000	-0.09490	-0.14722	0.28864	0.27653
726.000	-0.13246	-0.13926	0.27678	0.27852
727.000	-0.16014	-0.16114	0.29655	0.27056
728.000	-0.10874	-0.12136	0.31829	0.33024
729.000	-0.14630	-0.11937	0.29259	0.33024
730.000	-0.05733	-0.14125	0.28666	0.35809
731.000	-0.06722	-0.15518	0.25899	0.35610
732.000	-0.05338	-0.16910	0.28864	0.32626
733.000	-0.08699	-0.11937	0.29852	0.30438
734.000	-0.07117	-0.15915	0.30446	0.28846
735.000	-0.06129	-0.09947	0.27480	0.28051
736.000	-0.11664	-0.19496	0.33411	0.28846
737.000	-0.08897	-0.15319	0.27480	0.22082
738.000	-0.06326	-0.12533	0.29852	0.32228
739.000	-0.06326	-0.18502	0.26887	0.28249
740.000	-0.08897	-0.12136	0.32818	0.33223
741.000	-0.06920	-0.09947	0.28073	0.30438
742.000	-0.14630	-0.11340	0.27678	0.26061
743.000	-0.12653	-0.16114	0.30643	0.30637
744.000	-0.10478	-0.10743	0.27085	0.32825
745.000	-0.08501	-0.13329	0.30050	0.34615
746.000	-0.12455	-0.11937	0.27282	0.34218
747.000	-0.14432	-0.11141	0.30446	0.37201
748.000	-0.03756	-0.11738	0.27876	0.36008
749.000	-0.06326	-0.09947	0.28271	0.38196
750.000	-0.05931	-0.11539	0.27678	0.32626
751.000	-0.13246	-0.11539	0.33213	0.34416
752.000	-0.05733	-0.10146	0.29259	0.33024
753.000	-0.12257	-0.09748	0.27876	0.32228
754.000	-0.09490	-0.10146	0.32027	0.27851
755.000	-0.05140	-0.06764	0.30050	0.30836
756.000	-0.10478	-0.10345	0.25108	0.34417
757.000	-0.13048	-0.08952	0.27876	0.31432
758.000	-0.09885	-0.06366	0.27480	0.30836
759.000	-0.07117	-0.09549	0.26689	0.29244
760.000	-0.06524	-0.01592	0.30050	0.31432
761.000	-0.06524	-0.11539	0.29655	0.28647
762.000	-0.02966	-0.13329	0.29259	0.26857
763.000	-0.03954	-0.07958	0.28666	0.30239
764.000	-0.07315	-0.09947	0.29852	0.29642
765.000	-0.03163	-0.01592	0.32225	0.28448
766.000	-0.10478	-0.14921	0.32620	0.30040
767.000	-0.09490	-0.10345	0.33806	0.31034
768.000	-0.03361	-0.09350	0.33016	0.28050
769.000	-0.05338	-0.09151	0.29852	0.32825
770.000	-0.04547	-0.08356	0.30841	0.32029
771.000	-0.04547	-0.08356	0.34202	0.30835
772.000	-0.03163	-0.07361	0.30841	0.29443
773.000	-0.08897	-0.08356	0.32620	0.24867
774.000	-0.03163	-0.08754	0.31039	0.31432
775.000	-0.07513	-0.08555	0.29062	0.32029
776.000	-0.07908	-0.08157	0.32225	0.31233
777.000	0.02175	-0.10345	0.35981	0.27453
778.000	-0.03756	-0.09549	0.32818	0.31432
779.000	-0.01582	-0.05173	0.33609	0.32228
780.000	-0.00593	-0.11539	0.34004	0.29244
781.000	-0.00198	-0.08356	0.34004	0.28249
782.000	-0.07908	-0.06366	0.30841	0.31830
783.000	-0.05733	-0.07759	0.34004	0.30636
784.000	-0.05931	-0.17308	0.30248	0.33024
785.000	-0.09094	-0.11539	0.34795	0.33422
786.000	-0.03163	-0.06565	0.35190	0.30636
787.000	-0.09885	-0.09549	0.33806	0.33024
788.000	-0.07710	-0.08555	0.33609	0.30637
789.000	-0.10874	-0.13130	0.34004	0.31432
790.000	-0.01977	-0.09947	0.32027	0.32228
791.000	-0.08501	-0.12931	0.34795	0.36604
792.000	-0.00989	-0.06764	0.35190	0.34018
793.000	-0.00791	-0.13130	0.34399	0.34615
794.000	-0.08106	-0.06167	0.28469	0.33820
795.000	-0.03756	-0.11141	0.32225	0.34416
796.000	-0.09292	-0.09350	0.30248	0.38992
797.000	-0.12455	-0.11539	0.34202	0.31233
798.000	-0.05733	-0.11937	0.33609	0.33819
799.000	-0.10676	-0.07361	0.33411	0.32228
800.000	-0.05733	-0.09350	0.30643	0.35411
801.000	-0.04745	-0.05769	0.35586	0.29045
802.000	0.02768	-0.10345	0.31632	0.30438
803.000	0.03954	-0.13528	0.32620	0.31830
804.000	-0.02570	-0.12533	0.33806	0.29244
805.000	-0.01384	-0.19695	0.36376	0.29841
806.000	0.01582	-0.05570	0.36772	0.34018
807.000	-0.05536	-0.11539	0.36772	0.29841
808.000	-0.02768	-0.11539	0.32620	0.37201
809.000	-0.03163	-0.06963	0.31829	0.33621
810.000	-0.00791	-0.04576	0.31236	0.31034
811.000	-0.04943	-0.07560	0.31039	0.32029
812.000	-0.02768	-0.07361	0.31236	0.33820
813.000	-0.09490	-0.07958	0.31039	0.36605
814.000	-0.09885	-0.08555	0.30050	0.33621
815.000	-0.03361	-0.13130	0.34202	0.37002
816.000	-0.04943	-0.09549	0.30446	0.32228
817.000	-0.03163	-0.13926	0.29655	0.32825
818.000	-0.06920	-0.16512	0.26887	0.37202
819.000	-0.03163	-0.06963	0.32818	0.33223
820.000	-0.01582	-0.13329	0.29062	0.37201
821.000	-0.03954	-0.17308	0.33609	0.36207
822.000	-0.09292	-0.16313	0.30643	0.37997
823.000	-0.08897	-0.17706	0.30841	0.40384
824.000	-0.07513	-0.14722	0.32620	0.33621
825.000	-0.13246	-0.19297	0.30446	0.37599
826.000	-0.05931	-0.19297	0.32818	0.33621
827.000	-0.02966	-0.07759	0.32818	0.31432
828.000	-0.02570	-0.11340	0.27480	0.36406
829.000	-0.00395	-0.12533	0.30841	0.36008
830.000	-0.03559	-0.10942	0.33806	0.38594
831.000	-0.08501	-0.09350	0.32225	0.32228
832.000	0.01186	-0.11937	0.29655	0.33024
833.000	0.04547	-0.13727	0.33609	0.35013
834.000	-0.02768	-0.07361	0.31434	0.34416
835.000	0.01779	-0.12732	0.32422	0.34217
836.000	0.02768	-0.13926	0.33806	0.35212
837.000	-0.06722	-0.15120	0.33609	0.32626
838.000	-0.00593	-0.18104	0.32620	0.31830
839.000	-0.03756	-0.15915	0.34399	0.33819
840.000	-0.00593	-0.09549	0.35783	0.33819
841.000	-0.06920	-0.14324	0.30643	0.39589
842.000	0.00791	-0.05769	0.36376	0.35809
843.000	-0.00198	-0.10544	0.34597	0.36406
844.000	0.00989	-0.12732	0.34202	0.41777
845.000	-0.00395	-0.11738	0.34597	0.35212
846.000	0.02768	-0.11738	0.31829	0.42175
847.000	0.01384	-0.07361	0.35981	0.35411
848.000	0.04152	-0.09947	0.31829	0.41578
849.000	-0.01186	-0.11340	0.32422	0.40981
850.000	-0.05140	-0.15915	0.34399	0.40981
851.000	0.02966	-0.12931	0.32620	0.41976
852.000	0.03954	-0.07560	0.31236	0.36406
853.000	-0.01779	-0.09350	0.34795	0.35212
854.000	0.01977	-0.13528	0.39935	0.36206
855.000	-0.00395	-0.15120	0.34993	0.39389
856.000	0.05931	-0.14921	0.33806	0.36605
857.000	0.03559	-0.11340	0.35586	0.38992
858.000	0.05140	-0.07560	0.35388	0.38793
859.000	0.09490	-0.09350	0.32620	0.37599
860.000	0.04349	-0.09151	0.35981	0.39787
861.000	0.04943	-0.08356	0.30248	0.41379
862.000	0.03163	-0.09748	0.33806	0.39390
863.000	0.01582	-0.12931	0.29655	0.41976
864.000	0.00593	-0.12334	0.32422	0.38793
865.000	0.01779	-0.15319	0.35783	0.37599
866.000	-0.02175	-0.16512	0.37167	0.37002
867.000	0.04547	-0.12334	0.38353	0.41975
868.000	0.02768	-0.10146	0.35388	0.41777
869.000	0.05338	-0.12136	0.34597	0.38395
870.000	-0.02768	-0.16114	0.34399	0.41180
871.000	0.05931	-0.10544	0.33609	0.40583
872.000	0.04943	-0.13130	0.37760	0.37997
873.000	0.02372	-0.16711	0.34202	0.37997
874.000	0.01779	-0.19894	0.35981	0.43567
875.000	0.04152	-0.13926	0.33806	0.42771
876.000	0.04547	-0.16910	0.34399	0.46750
877.000	0.00791	-0.19099	0.32422	0.42175
878.000	-0.02768	-0.19099	0.33411	0.41180
879.000	0.06524	-0.12533	0.30446	0.42771
880.000	0.02570	-0.12732	0.33213	0.45357
881.000	0.04349	-0.11738	0.28469	0.45756
882.000	-0.00593	-0.17905	0.33806	0.38594
883.000	-0.02966	-0.19099	0.31236	0.43766
884.000	0.01977	-0.15915	0.35190	0.40185
885.000	0.02768	-0.14324	0.33016	0.38395
886.000	-0.00395	-0.17706	0.33016	0.38196
887.000	-0.00395	-0.13926	0.33806	0.39390
888.000	-0.02175	-0.16512	0.33213	0.42572
889.000	0.04745	-0.15319	0.31434	0.48143
890.000	-0.03361	-0.18701	0.34993	0.39787
891.000	0.03756	-0.17706	0.32818	0.45556
892.000	0.02966	-0.11937	0.30643	0.44164
893.000	0.03954	-0.13329	0.34202	0.38793
894.000	-0.00395	-0.16313	0.33411	0.42175
895.000	0.02570	-0.15319	0.30248	0.46551
896.000	0.04547	-0.11738	0.35388	0.42373
897.000	0.03163	-0.17507	0.34399	0.40981
898.000	0.03163	-0.17507	0.34399	0.38196
899.000	0.00593	-0.11141	0.31632	0.42374
900.000	0.00791	-0.07958	0.31829	0.43766
901.000	0.03163	-0.13329	0.33806	0.39787
902.000	0.00395	-0.14125	0.30446	0.44363
903.000	-0.00198	-0.20690	0.35190	0.40185
904.000	0.00989	-0.09947	0.33016	0.41578
905.000	0.04547	-0.11937	0.27085	0.42772
906.000	0.04943	-0.08754	0.32225	0.43567
907.000	-0.08106	-0.16711	0.32818	0.45954
908.000	-0.01582	-0.11738	0.33016	0.40782
909.000	0.01582	-0.17308	0.30248	0.42772
910.000	-0.00593	-0.09350	0.30248	0.42772
911.000	-0.00989	-0.14125	0.32620	0.47347
912.000	0.00198	-0.19099	0.34993	0.46153
913.000	0.05931	-0.13727	0.33016	0.47745
914.000	0.05338	-0.11539	0.31236	0.45358
915.000	-0.01779	-0.11539	0.35783	0.42373
916.000	0.01582	-0.13329	0.32620	0.42572
917.000	0.03163	-0.11539	0.36969	0.43169
918.000	-0.01384	-0.11738	0.33213	0.43368
919.000	-0.00593	-0.14324	0.32027	0.43368
920.000	0.02175	-0.12533	0.34004	0.44164
921.000	0.03954	-0.13926	0.37563	0.39986
922.000	-0.00791	-0.15717	0.34795	0.42572
923.000	-0.04152	-0.11141	0.35783	0.43169
924.000	-0.02768	-0.10743	0.34399	0.42970
925.000	-0.00989	-0.21287	0.30248	0.42374
926.000	0.02768	-0.14921	0.35981	0.40981
927.000	0.03163	-0.18900	0.31039	0.47148
928.000	0.01582	-0.15717	0.33016	0.43965
929.000	0.07315	-0.12732	0.30248	0.47745
930.000	0.01779	-0.14125	0.34993	0.46153
931.000	0.07513	-0.15915	0.34004	0.45158
932.000	0.04745	-0.18303	0.29852	0.44761
933.000	0.05338	-0.16910	0.31632	0.45954
934.000	0.05338	-0.19496	0.36179	0.45158
935.000	0.05733	-0.12931	0.32225	0.46551
936.000	0.07315	-0.13329	0.32422	0.49933
937.000	0.04943	-0.10544	0.32620	0.50927
938.000	0.07710	-0.17706	0.31829	0.45556
939.000	0.01582	-0.14324	0.31039	0.47745
940.000	0.03559	-0.07958	0.31632	0.44562
941.000	0.08699	-0.16910	0.28469	0.45954
942.000	0.01384	-0.13926	0.30446	0.43169
943.000	0.01384	-0.12732	0.31434	0.49137
944.000	0.03163	-0.14921	0.29062	0.48938
945.000	0.00395	-0.09748	0.27480	0.47944
946.000	0.00198	-0.11738	0.31632	0.47148
947.000	0.02175	-0.12732	0.32620	0.38992
948.000	0.03163	-0.13727	0.31632	0.44960
949.000	0.04943	-0.12931	0.31632	0.50530
950.000	0.01582	-0.12931	0.32422	0.49336
951.000	-0.02372	-0.12931	0.33609	0.51126
952.000	0.03954	-0.07361	0.34795	0.49137
953.000	0.05140	-0.08754	0.31829	0.51723
954.000	0.02768	-0.08754	0.34597	0.49734
955.000	-0.00198	-0.10942	0.30643	0.51922
956.000	0.01779	-0.13727	0.31236	0.50331
957.000	0.02372	-0.12732	0.27678	0.48143
958.000	0.05140	-0.06167	0.30643	0.46352
959.000	0.03756	-0.07560	0.34202	0.46750
960.000	0.03954	-0.04775	0.30643	0.49137
961.000	0.05536	-0.07162	0.27678	0.50928
962.000	0.04943	-0.07361	0.36179	0.50132
963.000	0.06129	-0.06167	0.28469	0.47944
964.000	0.04349	-0.05173	0.31434	0.53513
965.000	-0.00593	-0.05173	0.29852	0.48540
966.000	0.01186	-0.05968	0.29852	0.51723
967.000	0.04547	-0.05968	0.23922	0.53116
968.000	0.05931	-0.06565	0.29259	0.55901
969.000	0.07117	-0.04775	0.27480	0.53514
970.000	0.00593	-0.08754	0.30248	0.53116
971.000	0.06722	-0.01592	0.33213	0.53712
972.000	0.06722	-0.05769	0.29457	0.54309
973.000	0.08106	-0.03581	0.33411	0.55702
974.000	0.05931	-0.06366	0.27480	0.58686
975.000	0.08106	-0.04576	0.28271	0.63460
976.000	0.08699	-0.02785	0.32225	0.52519
977.000	0.02175	-0.00597	0.29259	0.53514
978.000	0.07315	-0.05968	0.29655	0.45557
979.000	0.04152	-0.20093	0.30841	0.37798
980.000	0.01186	-0.19496	0.31236	0.21883
981.000	-0.04943	-0.39390	0.32422	0.14523
982.000	-0.06920	-0.53116	0.31632	0.05570
983.000	-0.13444	-0.75196	0.32818	-0.12334
984.000	-0.22933	-0.91903	0.34202	-0.40185
985.000	-0.39144	-1.20539	0.32620	-0.61271
986.000	-0.50017	-1.35251	0.42900	-0.84940
987.000	-0.66029	-1.60892	0.37958	-1.08011
988.000	-0.66424	-1.74408	0.40923	-1.28294
989.000	-0.62471	-1.93686	0.43889	-1.43205
990.000	-0.71761	-2.00438	0.47842	-1.59108
991.000	-0.73145	-2.13351	0.47052	-1.70240
992.000	-0.67215	-2.32819	0.53378	-1.74015
993.000	-0.56540	-2.32823	0.52587	-1.82561
994.000	-0.56343	-2.33419	0.55947	-1.82162
995.000	-0.35190	-2.31241	0.51598	-1.77593
996.000	-0.33609	-2.22900	0.54564	-1.70834
997.000	-0.18979	-2.21710	0.58517	-1.66063
998.000	-0.13839	-2.09394	0.54168	-1.61293
999.000	0.00593	-2.04229	0.54761	-1.51752
1000.000	0.03163	-1.96877	0.50017	-1.46186
1001.000	0.06524	-1.93101	0.48435	-1.45789
1002.000	0.06524	-1.83960	0.38749	-1.38435
1003.000	0.02966	-1.76209	0.34004	-1.32272
1004.000	0.01384	-1.74022	0.30643	-1.34857
1005.000	-0.08303	-1.67065	0.27480	-1.21336
1006.000	-0.10478	-1.67463	0.21945	-1.23524
1007.000	-0.13641	-1.58120	0.16804	-1.19945
1008.000	-0.13839	-1.55734	0.10874	-1.13781
1009.000	-0.19572	-1.54740	0.13839	-1.15173
1010.000	-0.21945	-1.46787	0.15223	-1.05229
1011.000	-0.26294	-1.39232	0.15618	-1.05826
1012.000	-0.22735	-1.40624	0.16409	-0.99064
1013.000	-0.24317	-1.35653	0.14827	-1.03240
1014.000	-0.16607	-1.37045	0.18386	-0.94887
1015.000	-0.15816	-1.29689	0.20561	-0.93495
1016.000	-0.11071	-1.33467	0.23526	-0.94091
1017.000	-0.13444	-1.29888	0.21549	-1.01052
1018.000	-0.10874	-1.35654	0.21549	-1.01052
1019.000	-0.10478	-1.35853	0.25305	-1.05825
1020.000	-0.13048	-1.39630	0.28469	-1.06819
1021.000	-0.14630	-1.44800	0.30248	-1.06222
1022.000	-0.13246	-1.44005	0.29852	-1.12188
1023.000	-0.11269	-1.50168	0.28864	-1.12387
1024.000	-0.09490	-1.48776	0.30446	-1.15171
1025.000	-0.18386	-1.53945	0.30050	-1.18154
1026.000	-0.17398	-1.60505	0.27678	-1.12984
1027.000	-0.21945	-1.59113	0.29259	-1.19745
1028.000	-0.24910	-1.58914	0.27480	-1.19944
1029.000	-0.26096	-1.59709	0.24515	-1.20939
1030.000	-0.22340	-1.59312	0.25108	-1.18155
1031.000	-0.22538	-1.61697	0.26294	-1.17757
1032.000	-0.30643	-1.61497	0.33213	-1.18949
1033.000	-0.24119	-1.63287	0.31632	-1.14177
1034.000	-0.31039	-1.70442	0.30050	-1.17558
1035.000	-0.26887	-1.64082	0.31434	-1.17359
1036.000	-0.30643	-1.64280	0.31632	-1.15569
1037.000	-0.27876	-1.59907	0.26294	-1.16564
1038.000	-0.26096	-1.62094	0.28666	-1.20342
1039.000	-0.37563	-1.69049	0.28864	-1.16563
1040.000	-0.30446	-1.66864	0.29852	-1.16563
1041.000	-0.33411	-1.67062	0.29457	-1.16762
1042.000	-0.29062	-1.63286	0.28271	-1.14376
1043.000	-0.33213	-1.63882	0.28469	-1.17160
1044.000	-0.35981	-1.65074	0.29655	-1.11194
1045.000	-0.26492	-1.65672	0.25503	-1.12785
1046.000	-0.35586	-1.70839	0.30643	-1.09802
1047.000	-0.38749	-1.70838	0.30841	-1.12188
1048.000	-0.35586	-1.58515	0.26096	-1.07814
1049.000	-0.34993	-1.69646	0.27678	-1.11194
1050.000	-0.41121	-1.63881	0.25899	-1.08410
1051.000	-0.34004	-1.71634	0.28469	-1.13779
1052.000	-0.39342	-1.63483	0.26887	-1.12189
1053.000	-0.32422	-1.62690	0.26492	-1.13382
1054.000	-0.35783	-1.57521	0.27876	-1.13779
1055.000	-0.32027	-1.60901	0.24317	-1.10200
1056.000	-0.38551	-1.64676	0.28666	-1.13978
1057.000	-0.36376	-1.68652	0.26689	-1.14177
1058.000	-0.36179	-1.61695	0.30841	-1.12188
1059.000	-0.34993	-1.63882	0.26294	-1.10598
1060.000	-0.41319	-1.64676	0.30446	-1.14177
1061.000	-0.38156	-1.58912	0.26689	-1.10200
1062.000	-0.41714	-1.57520	0.28271	-1.09802
1063.000	-0.41121	-1.65272	0.27678	-1.10200
1064.000	-0.40330	-1.60303	0.26294	-1.11194
1065.000	-0.40528	-1.66664	0.29062	-1.15370
1066.000	-0.39737	-1.64676	0.26492	-1.11990
1067.000	-0.41516	-1.61694	0.27678	-1.10001
1068.000	-0.45865	-1.69048	0.34004	-1.14972
1069.000	-0.42307	-1.67260	0.34202	-1.15767
1070.000	-0.46261	-1.74215	0.28864	-1.10796
1071.000	-0.47645	-1.68252	0.30841	-1.12188
1072.000	-0.43691	-1.71235	0.30643	-1.19347
1073.000	-0.49819	-1.67854	0.33411	-1.11790
1074.000	-0.41516	-1.67657	0.33411	-1.16364
1075.000	-0.39935	-1.66266	0.33411	-1.12586
1076.000	-0.50808	-1.65469	0.34597	-1.16961
1077.000	-0.49226	-1.69643	0.32027	-1.12785
1078.000	-0.52587	-1.71034	0.29655	-1.03040
1079.000	-0.49424	-1.71829	0.36772	-1.10398
1080.000	-0.48633	-1.63283	0.34399	-1.12983
1081.000	-0.47052	-1.65271	0.31434	-1.11790
1082.000	-0.51005	-1.73817	0.33213	-1.13381
1083.000	-0.50412	-1.63680	0.31829	-1.14972
1084.000	-0.50412	-1.65071	0.35190	-1.13580
1085.000	-0.41516	-1.60700	0.34399	-1.13779
1086.000	-0.49622	-1.69444	0.30446	-1.14177
1087.000	-0.50215	-1.71432	0.32620	-1.10199
1088.000	-0.48831	-1.69246	0.36376	-1.15966
1089.000	-0.52191	-1.67058	0.39144	-1.15170
1090.000	-0.48040	-1.65668	0.34399	-1.10199
1091.000	-0.57331	-1.59901	0.35783	-1.11193
1092.000	-0.47447	-1.69246	0.32818	-1.09802
1093.000	-0.49226	-1.63084	0.32422	-1.06620
1094.000	-0.49226	-1.62487	0.35190	-1.13381
1095.000	-0.50808	-1.63481	0.35586	-1.07017
1096.000	-0.48238	-1.61494	0.31632	-1.07813
1097.000	-0.50610	-1.63282	0.35190	-1.11790
1098.000	-0.50610	-1.64674	0.34597	-1.13381
1099.000	-0.46656	-1.65867	0.32225	-1.09404
1100.000	-0.54366	-1.63082	0.31434	-1.11790
1101.000	-0.53971	-1.66859	0.34399	-1.09404
1102.000	-0.53773	-1.56324	0.36179	-1.08210
1103.000	-0.54168	-1.66660	0.34993	-1.09006
1104.000	-0.56343	-1.70039	0.31039	-1.12586
1105.000	-0.55157	-1.69642	0.33806	-1.10597
1106.000	-0.51994	-1.64474	0.34795	-1.11392
1107.000	-0.55552	-1.67853	0.34993	-1.11989
1108.000	-0.58320	-1.71032	0.34993	-1.13182
1109.000	-0.56145	-1.69244	0.35981	-1.13381
1110.000	-0.55947	-1.72225	0.37365	-1.16761
1111.000	-0.52784	-1.67456	0.37365	-1.13580
1112.000	-0.54959	-1.66064	0.36772	-1.13182
1113.000	-0.59308	-1.66063	0.34597	-1.12387
1114.000	-0.64250	-1.62881	0.36969	-1.13977
1115.000	-0.59703	-1.70038	0.33016	-1.09404
1116.000	-0.60296	-1.71429	0.36179	-1.10994
1117.000	-0.51994	-1.65866	0.39539	-1.15170
1118.000	-0.59506	-1.70236	0.28666	-1.07416
1119.000	-0.67413	-1.72023	0.39737	-1.12784
1120.000	-0.65634	-1.71626	0.39539	-1.09005
1121.000	-0.59703	-1.62286	0.34202	-1.10597
1122.000	-0.58320	-1.57516	0.41319	-1.11590
1123.000	-0.59506	-1.69839	0.38156	-1.13381
1124.000	-0.69192	-1.74606	0.36179	-1.12585
1125.000	-0.57924	-1.64672	0.34993	-1.10199
1126.000	-0.65831	-1.64470	0.41319	-1.15766
1127.000	-0.59901	-1.64870	0.39539	-1.11392
1128.000	-0.67017	-1.65265	0.35981	-1.13779
1129.000	-0.55947	-1.59305	0.39539	-1.15170
1130.000	-0.64250	-1.64073	0.38749	-1.06420
1131.000	-0.64843	-1.68048	0.40528	-1.08806
1132.000	-0.62273	-1.59105	0.37760	-1.07614
1133.000	-0.55552	-1.59107	0.34597	-1.09603
1134.000	-0.62668	-1.62881	0.35388	-1.10398
1135.000	-0.60889	-1.67255	0.37760	-1.06420
1136.000	-0.53773	-1.62089	0.38946	-1.12386
1137.000	-0.63262	-1.67453	0.43296	-1.07215
1138.000	-0.61285	-1.60695	0.43493	-1.09403
1139.000	-0.62866	-1.64074	0.38946	-1.09602
1140.000	-0.67413	-1.68246	0.44679	-1.10397
1141.000	-0.68994	-1.67252	0.40923	-1.10994
1142.000	-0.62075	-1.67652	0.45470	-1.14772
1143.000	-0.66029	-1.58905	0.43296	-1.10994
1144.000	-0.64448	-1.61290	0.45470	-1.14573
1145.000	-0.64645	-1.67253	0.45075	-1.15169
1146.000	-0.73145	-1.66058	0.46459	-1.21135
1147.000	-0.71959	-1.61487	0.48238	-1.19544
1148.000	-0.67413	-1.61290	0.43691	-1.21334
1149.000	-0.92911	-1.61280	0.35388	-1.21534
1150.000	-1.05362	-1.57298	0.25503	-1.16564
1151.000	-1.15639	-1.56697	0.17398	-1.20740
1152.000	-1.29274	-1.47745	-0.01186	-1.13582
1153.000	-1.59305	-1.40173	-0.25503	-1.13382
1154.000	-1.93080	-1.20871	-0.55750	-1.01247
1155.000	-2.37302	-1.22028	-0.92318	-0.98455
1156.000	-2.78143	-1.18811	-1.30460	-0.90687
1157.000	-3.12452	-1.02889	-1.64244	-0.77750
1158.000	-3.59146	-0.94701	-2.07692	-0.64611
1159.000	-4.02644	-0.80566	-2.42039	-0.49492
1160.000	-4.23885	-0.69635	-2.80707	-0.35170
1161.000	-4.76935	-0.54717	-3.21912	-0.30191
1162.000	-5.18924	-0.48936	-3.55207	-0.12311
1163.000	-5.45384	-0.35647	-3.92217	-0.00595
1164.000	-5.82975	-0.22760	-4.28800	-0.03571
1165.000	-6.30674	-0.26299	-4.56510	0.08131
1166.000	-6.60930	-0.26876	-4.85769	0.14272
1167.000	-6.93487	-0.20736	-5.13041	0.08718
1168.000	-7.31834	-0.15983	-5.36174	0.20996
1169.000	-7.47194	-0.11243	-5.66535	0.13660
1170.000	-7.83120	-0.13993	-5.97255	0.14246
1171.000	-8.12204	-0.12014	-6.19148	0.23141
1172.000	-8.26343	0.03938	-6.54882	0.19172
1173.000	-8.64061	0.05507	-6.81600	0.23309
1174.000	-8.88394	0.09042	-7.10625	0.32376
1175.000	-9.04404	0.16700	-7.37085	0.33146
1176.000	-9.51196	0.23349	-7.63708	0.49294
1177.000	-9.65997	0.44323	-7.94759	0.52212
1178.000	-9.77521	0.41367	-8.23245	0.56113
1179.000	-10.16260	0.47780	-8.51690	0.73580
1180.000	-10.41141	0.46372	-8.80673	0.78831
1181.000	-10.46304	0.57515	-9.13464	0.89364
1182.000	-10.71137	0.73300	-9.38692	0.83609
1183.000	-10.95930	0.75973	-9.64076	0.87273
1184.000	-11.17257	0.79430	-9.80977	1.03887
1185.000	-11.32851	0.77827	-9.97094	1.00898
1186.000	-11.58298	0.80095	-10.20665	1.06500
1187.000	-11.61523	0.86126	-10.38464	1.11722
1188.000	-11.74605	1.03221	-10.44010	1.13853
1189.000	-11.91461	0.87005	-10.55669	1.13810
1190.000	-11.95246	0.91079	-10.62546	1.17694
1191.000	-11.93543	0.92058	-10.64837	1.17490
1192.000	-11.88053	0.89157	-10.70374	1.18836
1193.000	-11.87296	0.93636	-10.67892	1.18064
1194.000	-11.75553	0.92703	-10.65792	1.24521
1195.000	-11.70056	0.97201	-10.62928	1.25901
1196.000	-11.59626	0.90223	-10.56815	1.29836
1197.000	-11.55072	0.92771	-10.45539	1.29492
1198.000	-11.54503	0.86732	-10.38272	1.26980
1199.000	-11.34942	0.95567	-10.26791	1.30939
1200.000	-11.26958	0.94814	-10.19133	1.29209
1201.000	-11.21442	0.97758	-10.12045	1.32174
1202.000	-11.22013	1.02438	-10.06680	1.31413
1203.000	-11.27338	0.94227	-10.02463	1.34955
1204.000	-11.21062	0.85859	-10.00545	1.33983
1205.000	-11.34752	0.89718	-10.02079	1.37110
1206.000	-11.39502	0.90288	-10.03421	1.33972
1207.000	-11.39122	0.85999	-10.11854	1.35111
1208.000	-11.48998	0.93181	-10.17026	1.33719
1209.000	-11.52795	0.93558	-10.23920	1.33690
1210.000	-11.58867	0.87108	-10.33298	1.40301
1211.000	-11.65126	0.91959	-10.34638	1.44794
1212.000	-11.88243	0.88573	-10.45348	1.42398
1213.000	-11.78774	0.88409	-10.48980	1.46682
1214.000	-11.86917	0.85852	-10.53185	1.45098
1215.000	-11.85592	0.88776	-10.56242	1.46843
1216.000	-11.88053	1.01030	-10.60063	1.46825
1217.000	-11.91272	0.96153	-10.64264	1.44460
1218.000	-12.02434	0.84636	-10.62355	1.48572
1219.000	-11.85592	0.90528	-10.63692	1.47589
1220.000	-11.89189	0.91878	-10.67510	1.49524
1221.000	-11.89189	0.96938	-10.64455	1.53447
1222.000	-11.89947	0.99076	-10.67319	1.51869
1223.000	-12.03380	1.01750	-10.64073	1.46805
1224.000	-11.87107	0.95778	-10.69228	1.55376
1225.000	-11.89000	0.96550	-10.66556	1.54804
1226.000	-11.93921	0.98089	-10.65028	1.55202
1227.000	-11.86349	0.96170	-10.65601	1.53246
1228.000	-12.02812	0.94555	-10.60827	1.51511
1229.000	-11.88243	0.97915	-10.66556	1.51287
1230.000	-11.92407	0.95759	-10.63119	1.56580
1231.000	-11.89947	0.98103	-10.68083	1.57922
1232.000	-11.85403	1.01429	-10.65601	1.59107
1233.000	-11.95624	0.97888	-10.61400	1.56198
1234.000	-11.86349	1.00647	-10.58917	1.61877
1235.000	-11.87864	0.97527	-10.61973	1.58735
1236.000	-11.77447	0.99901	-10.54140	1.61707
1237.000	-12.00165	1.06431	-10.57388	1.67552
1238.000	-11.86160	1.03567	-10.57579	1.59148
1239.000	-11.83698	1.03965	-10.54714	1.66198
1240.000	-11.81047	1.02223	-10.55669	1.63262
1241.000	-11.86160	0.92472	-10.58535	1.62856
1242.000	-11.88621	1.04531	-10.57962	1.63250
1243.000	-11.89379	0.97522	-10.60254	1.63824
1244.000	-11.92407	1.02375	-10.59490	1.60897
1245.000	-11.85971	0.93641	-10.57006	1.61887
1246.000	-11.79531	0.96389	-10.60827	1.62648
1247.000	-11.84835	0.95007	-10.58726	1.61878
1248.000	-11.90325	0.97518	-10.58344	1.61294
1249.000	-11.87107	1.02201	-10.64073	1.53644
1250.000	-11.84645	0.97538	-10.59490	1.54253
1251.000	-11.95435	0.98084	-10.63119	1.59315
1252.000	-11.86539	0.99089	-10.59108	1.56014
1253.000	-11.87296	0.96167	-10.62737	1.64006
1254.000	-11.82562	1.01829	-10.65028	1.58328
1255.000	-11.90704	0.95376	-10.60445	1.57375
1256.000	-11.94110	1.00034	-10.61400	1.66358
1257.000	-11.94110	0.97699	-10.65028	1.63212
1258.000	-11.92596	1.02180	-10.59872	1.59136
1259.000	-11.86917	1.03564	-10.63692	1.59703
1260.000	-11.94489	0.90498	-10.65028	1.63408
1261.000	-11.86160	0.94030	-10.59872	1.62849
1262.000	-11.99975	1.04681	-10.63882	1.65758
1263.000	-11.90325	0.98880	-10.60063	1.59722
1264.000	-11.96003	1.06253	-10.62164	1.59515
1265.000	-11.94489	0.96919	-10.60254	1.61675
1266.000	-11.95057	1.06257	-10.63882	1.58920
1267.000	-11.89000	1.01804	-10.64455	1.60285
1268.000	-11.84835	1.02599	-10.65219	1.63797
1269.000	-11.94489	1.00422	-10.68274	1.62999
1270.000	-12.00732	0.93590	-10.64455	1.60871
1271.000	-11.88243	1.02391	-10.68083	1.64954
1272.000	-11.86728	0.96558	-10.62737	1.62638
1273.000	-11.90893	0.98489	-10.67510	1.66520
1274.000	-12.02812	1.02531	-10.63310	1.62831
1275.000	-11.96192	0.94189	-10.64646	1.65168
1276.000	-12.05649	0.96490	-10.67510	1.61441
1277.000	-12.00543	0.99232	-10.69992	1.62209
1278.000	-11.86160	1.07459	-10.69801	1.60843
1279.000	-11.95435	0.93803	-10.66747	1.63984
1280.000	-11.96949	1.00802	-10.65983	1.62621
1281.000	-11.84645	0.96955	-10.63501	1.62634
1282.000	-11.95057	1.00420	-10.68083	1.65735
1283.000	-11.94489	0.97892	-10.67892	1.63392
1284.000	-11.95246	0.93609	-10.65983	1.65356
1285.000	-11.89757	0.99661	-10.62546	1.64398
1286.000	-11.99408	0.98458	-10.64264	1.68882
1287.000	-11.94867	0.91859	-10.67510	1.64762
1288.000	-11.85592	0.94226	-10.64264	1.63998
1289.000	-11.91272	0.95569	-10.62164	1.64400
1290.000	-11.93543	0.94782	-10.66556	1.69260
1291.000	-11.96192	0.98470	-10.64455	1.71225
1292.000	-11.94300	1.03536	-10.65219	1.63993
1293.000	-11.89000	1.02583	-10.67128	1.67889
1294.000	-11.94110	0.96337	-10.63119	1.66739
1295.000	-11.95624	1.06644	-10.69801	1.66507
1296.000	-11.97516	1.07804	-10.64455	1.69857
1297.000	-11.93921	0.94392	-10.68083	1.66712
1298.000	-12.01867	0.95337	-10.63882	1.69274
1299.000	-11.92407	1.02959	-10.66556	1.66330
1300.000	-12.09997	1.01531	-10.65792	1.63794
1301.000	-12.00921	1.02149	-10.60636	1.64994
1302.000	-11.94110	1.01396	-10.61782	1.64402
1303.000	-12.07350	1.06403	-10.61591	1.65575
1304.000	-12.01110	1.01370	-10.62355	1.63813
1305.000	-11.94678	0.99448	-10.61400	1.67335
1306.000	-12.01110	1.03121	-10.63501	1.71621
1307.000	-12.02434	1.00003	-10.67510	1.68473
1308.000	-12.00921	1.01760	-10.66747	1.71603
1309.000	-11.98273	0.99435	-10.64455	1.71420
1310.000	-11.99219	1.00988	-10.67701	1.70621
1311.000	-11.93732	1.04705	-10.65792	1.72194
1312.000	-12.12643	0.91215	-10.65219	1.68876
1313.000	-11.99975	0.96122	-10.68465	1.64756
1314.000	-12.10753	1.00167	-10.65983	1.73951
1315.000	-11.99597	0.95150	-10.66365	1.66721
1316.000	-12.01110	1.03510	-10.65601	1.64577
1317.000	-11.98840	0.95347	-10.65410	1.69657
1318.000	-12.08485	0.96091	-10.66365	1.67893
1319.000	-12.14155	0.97043	-10.64073	1.64389
1320.000	-12.05271	1.04272	-10.61400	1.64990
1321.000	-12.08296	0.91230	-10.60445	1.71638
1322.000	-12.06405	0.97849	-10.71328	1.70405
1323.000	-12.04325	1.03303	-10.61400	1.69093
1324.000	-12.10942	0.98610	-10.63692	1.69666
1325.000	-12.08674	1.00369	-10.63882	1.69665
1326.000	-12.12832	0.97826	-10.64455	1.66732
1327.000	-12.17744	1.03251	-10.69801	1.66898
1328.000	-11.99975	0.94760	-10.69610	1.71391
1329.000	-12.02056	0.95336	-10.69992	1.69631
1330.000	-12.05649	0.96296	-10.67319	1.72576
1331.000	-12.02434	0.94362	-10.68274	1.65539
1332.000	-12.17933	0.96446	-10.69610	1.65727
1333.000	-12.09997	0.95502	-10.69038	1.71394
1334.000	-12.05649	0.99797	-10.70374	1.68848
1335.000	-12.05082	0.97076	-10.63882	1.69861
1336.000	-12.03569	1.00583	-10.62546	1.72408
1337.000	-12.08485	0.99786	-10.63692	1.67908
1338.000	-12.16800	0.97228	-10.65983	1.70044
1339.000	-12.11131	0.92776	-10.63119	1.70451
1340.000	-12.02623	1.00197	-10.63310	1.68105
1341.000	-12.13777	0.99183	-10.60445	1.66949
1342.000	-12.18689	0.92944	-10.60827	1.71831
1343.000	-12.19255	1.05967	-10.60636	1.68706
1344.000	-12.16422	0.91591	-10.65983	1.74732
1345.000	-12.08296	0.84423	-10.65219	1.69462
1346.000	-12.26053	0.92529	-10.63119	1.71818
1347.000	-12.06972	0.89095	-10.62164	1.74949
1348.000	-12.13210	0.95491	-10.60445	1.75936
1349.000	-12.11509	0.96080	-10.63882	1.71228
1350.000	-12.18689	0.94888	-10.65028	1.69854
1351.000	-12.13399	0.99962	-10.62164	1.73191
1352.000	-12.23599	0.91372	-10.60636	1.68511
1353.000	-12.12265	0.94133	-10.60063	1.71835
1354.000	-12.20011	0.96050	-10.65028	1.77277
1355.000	-12.01489	0.98256	-10.62164	1.70652
1356.000	-12.15099	1.00345	-10.63310	1.73380
1357.000	-12.20200	0.88662	-10.62928	1.73578
1358.000	-12.16233	0.99952	-10.57006	1.71071
1359.000	-12.14721	0.90041	-10.56624	1.74590
1360.000	-12.24543	1.03030	-10.61400	1.75344
1361.000	-12.16611	0.89646	-10.56433	1.71270
1362.000	-12.16233	0.97813	-10.59299	1.77506
1363.000	-12.13966	0.90822	-10.60254	1.73788
1364.000	-12.26808	1.03993	-10.60827	1.74176
1365.000	-12.17933	0.90808	-10.64073	1.75329
1366.000	-12.26242	0.87281	-10.60636	1.75153
1367.000	-12.21711	0.91767	-10.59299	1.79068
1368.000	-12.22466	0.88265	-10.62928	1.74945
1369.000	-12.13399	0.98796	-10.55669	1.76745
1370.000	-12.11887	0.84995	-10.60636	1.78475
1371.000	-12.10564	0.87722	-10.61591	1.73390
1372.000	-12.13021	0.91603	-10.59299	1.73989
1373.000	-12.06027	0.94350	-10.60254	1.79258
1374.000	-12.14344	0.93154	-10.57197	1.69898
1375.000	-12.19633	0.88664	-10.57770	1.71262
1376.000	-12.09619	1.00754	-10.54331	1.74017
1377.000	-12.16611	0.84785	-10.56051	1.75375
1378.000	-12.23977	0.92537	-10.55860	1.75962
1379.000	-12.29451	0.84550	-10.57197	1.76150
1380.000	-12.25676	0.96418	-10.59299	1.73207
1381.000	-12.26053	0.89614	-10.61591	1.75148
1382.000	-12.29640	0.85326	-10.56242	1.76546
1383.000	-12.26053	1.00303	-10.61018	1.76128
1384.000	-12.28319	0.76779	-10.59490	1.74379
1385.000	-12.15288	0.95483	-10.56433	1.74787
1386.000	-12.28885	0.90187	-10.58344	1.76339
1387.000	-12.24543	0.87092	-10.61400	1.77298
1388.000	-12.20200	0.79136	-10.58344	1.73017
1389.000	-12.23410	0.76016	-10.58344	1.75753
1390.000	-12.23032	0.84959	-10.54905	1.72646
1391.000	-12.19255	0.88471	-10.58726	1.77313
1392.000	-12.20766	0.88660	-10.61591	1.70655
1393.000	-12.31338	0.82212	-10.52420	1.73442
1394.000	-12.20389	0.94104	-10.58153	1.74972
1395.000	-12.27186	0.81253	-10.58535	1.73602
1396.000	-12.17933	0.92558	-10.56242	1.73615
1397.000	-12.25865	0.89226	-10.57770	1.70481
1398.000	-12.28885	0.92131	-10.61973	1.71825
1399.000	-12.31150	0.92900	-10.54140	1.78317
1400.000	-12.22655	0.77573	-10.59681	1.71251
1401.000	-12.31904	0.85902	-10.57962	1.70284
1402.000	-12.23599	0.75432	-10.59681	1.72814
1403.000	-12.21711	0.92933	-10.59299	1.69691
1404.000	-12.33225	0.79097	-10.58535	1.71063
1405.000	-12.18689	0.94888	-10.59490	1.72229
1406.000	-12.31716	0.77935	-10.56242	1.68144
1407.000	-12.33225	0.82789	-10.59108	1.73990
1408.000	-12.14344	0.85959	-10.53758	1.73434
1409.000	-12.23221	0.87291	-10.56815	1.71463
1410.000	-12.20011	0.86718	-10.57388	1.71850
1411.000	-12.29640	0.85132	-10.51656	1.71492
1412.000	-12.32848	0.84344	-10.55287	1.71276
1413.000	-12.39450	0.86849	-10.56433	1.72442
1414.000	-12.25676	0.87672	-10.56624	1.71659
1415.000	-12.27564	0.77948	-10.54905	1.68933
1416.000	-12.25298	0.85146	-10.58726	1.69498
1417.000	-12.26808	0.91555	-10.55287	1.71276
1418.000	-12.24543	0.80678	-10.53567	1.74803
1419.000	-12.38130	0.75973	-10.56051	1.75375
1420.000	-12.22088	0.94293	-10.55860	1.73618
1421.000	-12.21899	0.93710	-10.56815	1.74785
1422.000	-12.37376	0.82193	-10.57006	1.73025
1423.000	-12.37564	0.79666	-10.56242	1.77328
1424.000	-12.27375	0.81447	-10.52994	1.79691
1425.000	-12.30772	0.78715	-10.55860	1.75376
1426.000	-12.33225	0.88812	-10.54140	1.73823
1427.000	-12.32282	0.86678	-10.54522	1.77142
1428.000	-12.33603	0.86674	-10.52994	1.74611
1429.000	-12.25865	0.84172	-10.52420	1.80086
1430.000	-12.32093	0.91148	-10.53758	1.74411
1431.000	-12.27564	0.83001	-10.56433	1.78499
1432.000	-12.34735	0.83367	-10.54331	1.78902
1433.000	-12.36432	0.82779	-10.53567	1.76562
1434.000	-12.24732	0.83010	-10.55287	1.78701
1435.000	-12.37753	0.91517	-10.53949	1.78513
1436.000	-12.35678	0.82975	-10.52612	1.80280
1437.000	-12.35866	0.90746	-10.54140	1.77145
1438.000	-12.36998	0.90548	-10.51274	1.77552
1439.000	-12.32848	0.90368	-10.55096	1.77530
1440.000	-12.26053	0.87865	-10.48980	1.82841
1441.000	-12.34923	0.87252	-10.48216	1.81283
1442.000	-12.29262	0.86882	-10.46877	1.80509
1443.000	-12.39827	0.81991	-10.48407	1.82259
1444.000	-12.32470	0.89398	-10.50700	1.83027
1445.000	-12.40016	0.94617	-10.51847	1.83020
1446.000	-12.42467	0.80428	-10.52229	1.82822
1447.000	-12.32659	0.82790	-10.48024	1.84215
1448.000	-12.26997	0.97385	-10.52994	1.81645
1449.000	-12.37187	0.84330	-10.48216	1.82064
1450.000	-12.31904	0.90566	-10.51847	1.84974
1451.000	-12.33225	0.79485	-10.53758	1.85158
1452.000	-12.37941	0.94430	-10.49745	1.87527
1453.000	-12.43222	0.88001	-10.49936	1.89675
1454.000	-12.35678	0.86278	-10.52420	1.84775
1455.000	-12.36998	0.87634	-10.46495	1.88719
1456.000	-12.23221	0.85347	-10.45348	1.84817
1457.000	-12.32470	0.86094	-10.45539	1.83253
1458.000	-12.33791	0.85896	-10.47642	1.87930
1459.000	-12.37376	0.89964	-10.50509	1.88695
1460.000	-12.42656	0.78485	-10.54140	1.85156
1461.000	-12.27941	0.80862	-10.51083	1.86542
1462.000	-12.33791	0.89782	-10.48407	1.85972
1463.000	-12.33037	0.87453	-10.44010	1.83066
1464.000	-12.40582	0.86650	-10.52612	1.84579
1465.000	-12.27564	0.87277	-10.49171	1.84599
1466.000	-12.32470	0.88232	-10.48598	1.81280
1467.000	-12.45672	0.72067	-10.51465	1.88103
1468.000	-12.40205	0.88012	-10.42671	1.87570
1469.000	-12.38884	0.76360	-10.49936	1.82250
1470.000	-12.37941	0.90545	-10.42862	1.85809
1471.000	-12.40770	0.86067	-10.49554	1.85574
1472.000	-12.37187	0.92102	-10.45157	1.88532
1473.000	-12.36055	0.89191	-10.47260	1.85783
1474.000	-12.37187	0.88216	-10.48024	1.84801
1475.000	-12.45295	0.81973	-10.46495	1.85788
1476.000	-12.31527	0.86875	-10.48789	1.87533
1477.000	-12.35866	0.82392	-10.48598	1.89292
1478.000	-12.35678	0.87833	-10.47260	1.86174
1479.000	-12.33225	0.80068	-10.46304	1.92824
1480.000	-12.29640	0.86881	-10.44201	1.86583
1481.000	-12.42090	0.86451	-10.46686	1.85982
1482.000	-12.36055	0.78117	-10.47642	1.90666
1483.000	-12.46049	0.74202	-10.50318	1.90845
1484.000	-12.35678	0.81809	-10.48980	1.80301
1485.000	-12.31716	0.89012	-10.42862	1.85614
1486.000	-12.51703	0.81371	-10.47451	1.88127
1487.000	-12.42844	0.90528	-10.45539	1.85207
1488.000	-12.41902	0.81207	-10.46113	1.88917
1489.000	-12.38884	0.82771	-10.48980	1.82646
1490.000	-12.39073	0.78690	-10.42289	1.89526
1491.000	-12.41336	0.87231	-10.43436	1.83851
1492.000	-12.32659	0.76572	-10.47451	1.80701
1493.000	-12.38696	0.88794	-10.42862	1.88350
1494.000	-12.53587	0.83889	-10.42862	1.84050
1495.000	-12.49630	0.81377	-10.47069	1.83830
1496.000	-12.52457	0.77679	-10.42289	1.87376
1497.000	-12.54152	0.78256	-10.44774	1.85993
1498.000	-12.33980	0.77929	-10.44774	1.89707
1499.000	-12.40393	0.78881	-10.42862	1.80141
1500.000	-12.42279	0.85479	-10.44774	1.84625
1501.000	-12.48876	0.81380	-10.46113	1.84422
1502.000	-12.50196	0.77686	-10.44966	1.88142
1503.000	-12.53964	0.77480	-10.48980	1.87531
1504.000	-12.34923	0.79674	-10.50509	1.86154
1505.000	-12.50761	0.73995	-10.44583	1.91858
1506.000	-12.32093	0.81432	-10.45157	1.90095
1507.000	-12.42279	0.88976	-10.42097	1.88746
1508.000	-12.55847	0.83493	-10.45157	1.91463
1509.000	-12.36810	0.85303	-10.44583	1.89121
1510.000	-12.37753	0.82969	-10.49936	1.87916
1511.000	-12.39827	0.91121	-10.44774	1.87752
1512.000	-12.37187	0.78696	-10.44583	1.84626
1513.000	-12.48123	0.86237	-10.47260	1.80702
1514.000	-12.39450	0.83740	-10.50127	1.85961
1515.000	-12.52645	0.83892	-10.48407	1.87730
1516.000	-12.38884	0.81411	-10.48598	1.89879
1517.000	-12.54340	0.79421	-10.50892	1.85761
1518.000	-12.41713	0.87424	-10.48407	1.84017
1519.000	-12.46238	0.84301	-10.46113	1.90480
1520.000	-12.36055	0.74619	-10.44010	1.89320
1521.000	-12.44353	0.77121	-10.41906	1.90115
1522.000	-12.43222	0.81397	-10.43245	1.89325
1523.000	-12.34169	0.83952	-10.43818	1.86195
1524.000	-12.40582	0.85679	-10.39611	1.91106
1525.000	-12.40393	0.78104	-10.44010	1.89125
1526.000	-12.49630	0.85261	-10.45730	1.88333
1527.000	-12.52080	0.85253	-10.45539	1.86380
1528.000	-12.42656	0.82759	-10.46495	1.86374
1529.000	-12.36998	0.91519	-10.47451	1.84023
1530.000	-12.46049	0.87021	-10.50318	1.88891
1531.000	-12.54340	0.85051	-10.46495	1.81684
1532.000	-12.38130	0.76945	-10.47260	1.85001
1533.000	-12.44164	0.80812	-10.42862	1.82878
1534.000	-12.48123	0.81965	-10.47069	1.80508
1535.000	-12.36810	0.86857	-10.47260	1.78357
1536.000	-12.48688	0.75943	-10.43818	1.80526
1537.000	-12.50196	0.78074	-10.41332	1.84255
1538.000	-12.35489	0.88805	-10.47260	1.78552
1539.000	-12.42279	0.85091	-10.43245	1.80139
1540.000	-12.50384	0.86035	-10.47451	1.86368
1541.000	-12.43976	0.76345	-10.44774	1.84821
1542.000	-12.50196	0.92638	-10.44966	1.85797
1543.000	-12.50384	0.84676	-10.44392	1.84041
1544.000	-12.47557	0.90705	-10.41715	1.85816
1545.000	-12.52080	0.80981	-10.47260	1.87542
1546.000	-12.52833	0.89522	-10.44966	1.83842
1547.000	-12.56789	0.85043	-10.46113	1.83054
1548.000	-12.51515	0.87585	-10.49362	1.81862
1549.000	-12.52268	0.82922	-10.45730	1.79929
1550.000	-12.51326	0.85644	-10.46304	1.76603
1551.000	-12.47934	0.88180	-10.48024	1.85778
1552.000	-12.38319	0.89378	-10.39802	1.85241
1553.000	-12.47557	0.87404	-10.46686	1.84418
1554.000	-12.53210	0.87579	-10.50892	1.81462
1555.000	-12.50761	0.88752	-10.45348	1.83645
1556.000	-12.47557	0.84879	-10.48598	1.87338
1557.000	-12.48688	0.97304	-10.40376	1.84847
1558.000	-12.54529	0.85051	-10.44583	1.85994
1559.000	-12.45484	0.95180	-10.51083	1.83415
1560.000	-12.56412	0.81550	-10.48216	1.82846
1561.000	-12.46049	0.86438	-10.44392	1.81891
1562.000	-12.41147	0.86066	-10.45730	1.84620
1563.000	-12.43787	0.90913	-10.45348	1.84622
1564.000	-12.65826	0.79579	-10.44774	1.83257
1565.000	-12.58296	0.86203	-10.43436	1.80138
1566.000	-12.56036	0.80969	-10.40376	1.82697
1567.000	-12.53210	0.80395	-10.46877	1.84808
1568.000	-12.44164	0.83725	-10.42862	1.78968
1569.000	-12.43976	0.81978	-10.39994	1.88563
1570.000	-12.54152	0.85829	-10.35403	1.85463
1571.000	-12.49442	0.90893	-10.34255	1.92703
1572.000	-12.51138	0.82538	-10.45539	1.92242
1573.000	-12.69778	0.87522	-10.50509	1.85764
1574.000	-12.66391	0.89669	-10.57579	1.82204
1575.000	-12.94777	0.80069	-10.64646	1.71810
1576.000	-12.99283	0.75210	-10.73428	1.62191
1577.000	-13.23473	0.64486	-10.88687	1.55666
1578.000	-13.43689	0.49147	-11.05836	1.46015
1579.000	-13.53597	0.39843	-11.14783	1.30364
1580.000	-13.82154	0.21830	-11.18779	1.21568
1581.000	-13.92961	0.11586	-11.25056	1.13350
1582.000	-13.90912	0.01931	-11.39882	1.02764
1583.000	-14.15474	-0.06945	-11.42162	0.94568
1584.000	-14.08595	-0.28172	-11.49188	0.81681
1585.000	-14.20120	-0.29122	-11.45390	0.80522
1586.000	-14.11384	-0.35114	-11.43871	0.71558
1587.000	-14.09152	-0.43800	-11.41402	0.67860
1588.000	-14.01711	-0.40920	-11.34181	0.60856
1589.000	-14.00222	-0.58873	-11.34181	0.56175
1590.000	-13.94264	-0.49621	-11.25627	0.58143
1591.000	-13.85136	-0.51186	-11.28479	0.55016
1592.000	-13.86813	-0.57748	-11.26387	0.55605
1593.000	-13.79730	-0.56993	-11.23535	0.55611
1594.000	-13.92029	-0.55225	-11.27718	0.56188
1595.000	-13.80103	-0.58151	-11.31901	0.56960
1596.000	-13.79543	-0.49846	-11.30190	0.58914
1597.000	-13.87558	-0.49828	-11.39502	0.58115
1598.000	-13.85509	-0.42687	-11.46909	0.63168
1599.000	-13.98733	-0.44399	-11.45390	0.56543
1600.000	-13.92216	-0.51942	-11.52035	0.59843
1601.000	-13.81408	-0.34774	-11.57918	0.61779
1602.000	-13.97057	-0.36488	-11.60574	0.65476
1603.000	-13.94451	-0.36878	-11.58108	0.63922
1604.000	-13.89608	-0.33216	-11.54313	0.69583
1605.000	-13.86627	-0.30710	-11.62471	0.68199
1606.000	-13.80849	-0.37286	-11.62851	0.71315
1607.000	-13.82154	-0.35738	-11.58108	0.69379
1608.000	-13.89794	-0.26264	-11.58677	0.75808
1609.000	-13.86999	-0.34186	-11.59626	0.72687
1610.000	-13.81221	-0.28206	-11.61523	0.80476
1611.000	-13.77865	-0.20481	-11.57539	0.77954
1612.000	-13.88863	-0.28389	-11.53933	0.77380
1613.000	-13.78798	-0.34971	-11.53364	0.74068
1614.000	-13.93892	-0.35720	-11.54503	0.70167
1615.000	-13.86440	-0.35732	-11.52795	0.71926
1616.000	-13.94078	-0.33017	-11.51466	0.75437
1617.000	-13.96313	-0.33593	-11.49568	0.72908
1618.000	-13.92216	-0.31475	-11.53933	0.69194
1619.000	-13.96871	-0.33206	-11.52984	0.67832
1620.000	-13.95940	-0.28381	-11.56970	0.69382
1621.000	-13.97616	-0.39769	-11.52035	0.64326
1622.000	-13.89608	-0.34761	-11.55641	0.69580
1623.000	-13.92402	-0.41322	-11.54123	0.62177
1624.000	-13.95195	-0.37263	-11.58867	0.65674
1625.000	-13.95754	-0.41895	-11.58867	0.64700
1626.000	-13.86999	-0.49443	-11.55641	0.59446
1627.000	-13.87745	-0.50987	-11.54882	0.61201
1628.000	-13.85322	-0.40176	-11.55262	0.61980
1629.000	-14.02083	-0.44779	-11.56970	0.62366
1630.000	-13.92029	-0.37654	-11.58298	0.57491
1631.000	-14.01711	-0.49412	-11.58488	0.62752
1632.000	-14.01152	-0.34744	-11.55831	0.62369
1633.000	-13.94078	-0.46918	-11.55452	0.62564
1634.000	-13.91843	-0.48468	-11.57918	0.59831
1635.000	-14.02083	-0.44586	-11.53364	0.64713
1636.000	-14.03200	-0.44198	-11.55831	0.63538
1637.000	-13.89608	-0.36886	-11.59246	0.63335
1638.000	-13.99664	-0.47293	-11.54503	0.67244
1639.000	-13.87745	-0.43262	-11.54882	0.65684
1640.000	-14.00966	-0.45939	-11.58867	0.62167
1641.000	-13.88490	-0.43647	-11.54503	0.63151
1642.000	-14.00780	-0.40342	-11.53364	0.60620
1643.000	-13.91843	-0.45185	-11.56590	0.64121
1644.000	-13.95754	-0.40544	-11.54693	0.62566
1645.000	-13.83831	-0.42496	-11.56970	0.64120
1646.000	-13.84949	-0.43846	-11.54313	0.60813
1647.000	-13.99664	-0.43239	-11.55831	0.61589
1648.000	-13.95195	-0.37842	-11.54123	0.65101
1649.000	-13.96871	-0.42279	-11.53174	0.59061
1650.000	-13.93892	-0.41899	-11.58298	0.58076
1651.000	-13.92216	-0.43640	-11.55452	0.66852
1652.000	-13.89049	-0.38238	-11.54503	0.61202
1653.000	-13.97430	-0.45753	-11.52795	0.62375
1654.000	-13.94823	-0.38808	-11.56021	0.69969
1655.000	-13.94637	-0.43249	-11.58108	0.65286
1656.000	-13.95940	-0.42281	-11.55452	0.63928
1657.000	-14.00966	-0.44395	-11.54882	0.60032
1658.000	-13.94078	-0.48849	-11.53554	0.63153
1659.000	-13.94078	-0.40547	-11.53554	0.62179
1660.000	-14.05246	-0.47667	-11.54503	0.61982
1661.000	-13.96685	-0.47106	-11.51086	0.61794
1662.000	-14.00408	-0.44782	-11.55072	0.61980
1663.000	-13.96126	-0.41316	-11.56211	0.62368
1664.000	-13.98733	-0.38222	-11.51466	0.55751
1665.000	-13.98174	-0.42663	-11.53554	0.67636
1666.000	-13.97988	-0.36872	-11.48428	0.65309
1667.000	-14.00222	-0.50187	-11.48808	0.63554
1668.000	-13.95754	-0.43826	-11.51276	0.63548
1669.000	-13.98174	-0.42470	-11.47859	0.65895
1670.000	-13.93519	-0.46340	-11.52225	0.63936
1671.000	-13.92774	-0.38811	-11.48239	0.63360
1672.000	-13.98360	-0.43049	-11.51086	0.66862
1673.000	-13.97057	-0.42086	-11.49188	0.63553
1674.000	-13.96499	-0.44983	-11.52984	0.65104
1675.000	-13.88304	-0.40750	-11.54882	0.62955
1676.000	-13.95940	-0.41123	-11.49188	0.62383
1677.000	-13.90912	-0.45573	-11.48428	0.63165
1678.000	-14.04316	-0.45354	-11.52984	0.63544
1679.000	-13.95568	-0.47301	-11.53174	0.61790
1680.000	-13.90912	-0.41518	-11.53744	0.61983
1681.000	-13.97244	-0.47298	-11.50707	0.60431
1682.000	-13.95568	-0.43633	-11.56400	0.61977
1683.000	-13.94823	-0.46531	-11.53744	0.66661
1684.000	-13.95382	-0.47495	-11.55641	0.61589
1685.000	-14.09338	-0.46501	-11.51656	0.59454
1686.000	-13.89608	-0.42293	-11.49188	0.63748
1687.000	-13.98547	-0.44014	-11.50137	0.67449
1688.000	-14.05804	-0.51526	-11.51466	0.65497
1689.000	-14.00780	-0.45554	-11.50896	0.61990
1690.000	-14.00594	-0.51344	-11.52035	0.58869
1691.000	-13.89422	-0.46542	-11.50707	0.62965
1692.000	-13.91471	-0.42096	-11.50517	0.65109
1693.000	-13.95940	-0.46335	-11.51846	0.60818
1694.000	-13.92774	-0.51748	-11.45580	0.58102
1695.000	-13.99664	-0.52505	-11.56021	0.65486
1696.000	-13.97802	-0.44787	-11.51846	0.61598
1697.000	-13.94451	-0.45373	-11.54503	0.57304
1698.000	-13.90726	-0.40553	-11.53744	0.62958
1699.000	-14.00036	-0.53276	-11.49188	0.66672
1700.000	-13.92029	-0.47502	-11.53554	0.64518
1701.000	-13.95940	-0.45563	-11.60385	0.61774
1702.000	-13.90353	-0.43643	-11.53554	0.60425
1703.000	-13.88304	-0.43261	-11.52035	0.63741
1704.000	-13.96685	-0.45755	-11.51276	0.63743
1705.000	-13.83458	-0.52155	-11.51466	0.61014
1706.000	-13.98547	-0.35906	-11.49947	0.62577
1707.000	-13.96871	-0.39770	-11.48428	0.65309
1708.000	-13.98733	-0.45365	-11.49378	0.65892
1709.000	-13.99477	-0.45170	-11.46530	0.66678
1710.000	-13.95754	-0.46529	-11.52035	0.68419
1711.000	-13.86999	-0.39787	-11.50896	0.63744
1712.000	-13.98733	-0.45558	-11.47479	0.66481
1713.000	-13.96126	-0.43825	-11.53554	0.66077
1714.000	-13.90726	-0.49435	-11.50896	0.64913
1715.000	-14.00780	-0.40535	-11.54123	0.64126
1716.000	-13.96126	-0.49617	-11.52035	0.66470
1717.000	-13.98733	-0.45751	-11.53364	0.64518
1718.000	-13.83831	-0.43462	-11.54123	0.66660
1719.000	-14.04316	-0.42652	-11.52035	0.64716
1720.000	-13.99850	-0.55592	-11.53554	0.63543
1721.000	-13.86813	-0.43650	-11.55072	0.65294
1722.000	-13.97802	-0.47297	-11.52415	0.62181
1723.000	-13.94264	-0.50972	-11.50896	0.63744
1724.000	-13.90167	-0.51754	-11.50327	0.67254
1725.000	-13.91471	-0.50399	-11.49378	0.68426
1726.000	-13.93147	-0.48465	-11.50707	0.65499
1727.000	-13.89608	-0.36886	-11.51656	0.67056
1728.000	-13.97430	-0.40348	-11.53174	0.66467
1729.000	-13.98733	-0.43627	-11.53933	0.68609
1730.000	-13.99850	-0.47872	-11.56780	0.63536
1731.000	-13.90726	-0.50208	-11.51276	0.66082
1732.000	-13.97988	-0.52508	-11.51466	0.63938
1733.000	-13.92588	-0.39391	-11.56211	0.63537
1734.000	-14.00594	-0.45554	-11.54123	0.69973
1735.000	-13.99664	-0.36097	-11.52035	0.64911
1736.000	-13.92961	-0.49817	-11.56970	0.61392
1737.000	-14.04130	-0.43231	-11.49378	0.63747
1738.000	-13.99291	-0.45363	-11.51846	0.64911
1739.000	-13.99105	-0.43047	-11.54693	0.62566
1740.000	-14.04502	-0.43809	-11.48808	0.64528
1741.000	-13.95940	-0.50390	-11.52035	0.66665
1742.000	-13.91284	-0.43255	-11.56211	0.69383
1743.000	-13.92961	-0.45376	-11.55641	0.63733
1744.000	-14.03572	-0.43039	-11.57918	0.66846
1745.000	-13.89980	-0.60444	-11.54313	0.63541
1746.000	-13.93333	-0.49237	-11.49947	0.62771
1747.000	-14.00408	-0.40150	-11.56590	0.66849
1748.000	-14.01152	-0.49413	-11.49757	0.63941
1749.000	-14.02083	-0.44007	-11.54693	0.62371
1750.000	-13.95754	-0.39386	-11.52605	0.65494
1751.000	-14.00780	-0.48835	-11.52415	0.59842
1752.000	-14.03013	-0.43619	-11.52984	0.62960
1753.000	-13.90167	-0.48471	-11.52795	0.64519
1754.000	-13.97430	-0.50193	-11.48808	0.59265
1755.000	-13.92216	-0.39585	-11.52605	0.63935
1756.000	-14.02455	-0.40918	-11.53174	0.60425
1757.000	-13.91843	-0.51557	-11.52795	0.63740
1758.000	-13.88676	-0.40556	-11.50327	0.64915
1759.000	-13.84018	-0.50609	-11.52984	0.63739
1760.000	-13.92588	-0.44604	-11.48808	0.61994
1761.000	-13.93519	-0.49043	-11.47669	0.68820
1762.000	-13.92029	-0.41709	-11.50137	0.61407
1763.000	-13.92774	-0.37460	-11.51846	0.64911
1764.000	-13.95568	-0.50197	-11.50896	0.62185
1765.000	-13.92588	-0.41322	-11.45770	0.66875
1766.000	-13.92774	-0.44025	-11.54313	0.65100
1767.000	-14.02455	-0.39953	-11.54123	0.65296
1768.000	-13.97244	-0.43244	-11.54123	0.64711
1769.000	-13.91098	-0.36690	-11.53554	0.68221
1770.000	-13.83645	-0.57756	-11.49947	0.65111
1771.000	-14.04130	-0.46126	-11.54503	0.61397
1772.000	-13.95195	-0.49619	-11.49568	0.61993
1773.000	-13.95940	-0.45949	-11.51086	0.63159
1774.000	-13.84204	-0.46166	-11.46909	0.64533
1775.000	-13.88490	-0.43647	-11.48049	0.64530
1776.000	-14.02455	-0.44971	-11.50137	0.61796
1777.000	-13.98733	-0.42469	-11.54123	0.63542
1778.000	-13.93706	-0.39003	-11.47479	0.61997
1779.000	-13.83831	-0.40565	-11.52035	0.64521
1780.000	-13.94078	-0.48463	-11.50327	0.69398
1781.000	-13.87558	-0.32447	-11.56970	0.61586
1782.000	-13.91843	-0.37268	-11.55072	0.69386
1783.000	-14.01152	-0.41500	-11.53174	0.71340
1784.000	-13.87372	-0.47125	-11.45580	0.75258
1785.000	-13.81408	-0.42887	-11.35512	0.73530
1786.000	-13.73948	-0.52563	-11.26197	0.78040
1787.000	-13.54905	-0.47770	-11.07740	0.71453
1788.000	-13.48177	-0.47397	-10.88306	0.65054
1789.000	-13.11853	-0.49793	-10.62737	0.55920
1790.000	-12.90457	-0.69226	-10.25068	0.49724
1791.000	-12.39450	-0.73833	-9.90189	0.50953
1792.000	-12.03191	-0.88329	-9.46388	0.32967
1793.000	-11.58298	-0.98216	-9.03247	0.13753
1794.000	-11.18208	-1.01086	-8.59230	-0.00984
1795.000	-10.80106	-1.15672	-8.12204	-0.18513
1796.000	-10.38464	-1.35389	-7.62737	-0.28986
1797.000	-9.85583	-1.30714	-7.20356	-0.37698
1798.000	-9.67534	-1.50581	-6.73802	-0.51367
1799.000	-9.06525	-1.56539	-6.25791	-0.57743
1800.000	-8.75459	-1.69246	-5.95690	-0.76967
1801.000	-8.37569	-1.76887	-5.45775	-0.77628
1802.000	-8.07941	-1.75445	-5.10295	-0.91342
1803.000	-7.79627	-1.78519	-4.75757	-0.94561
1804.000	-7.45833	-1.76492	-4.44328	-1.05706
1805.000	-7.08483	-1.86500	-4.08546	-1.05359
1806.000	-6.76532	-1.93731	-3.84345	-1.20271
1807.000	-6.41610	-1.93077	-3.51662	-1.19720
1808.000	-6.11136	-1.97537	-3.30386	-1.29077
1809.000	-5.68297	-2.03226	-3.06538	-1.28709
1810.000	-5.27746	-2.00198	-2.92934	-1.41633
1811.000	-5.07549	-2.11543	-2.62954	-1.36902
1812.000	-4.79880	-2.06879	-2.37697	-1.33551
1813.000	-4.43739	-2.14115	-2.11246	-1.37946
1814.000	-4.21722	-2.30224	-1.82613	-1.40951
1815.000	-3.99693	-2.31675	-1.51996	-1.41569
1816.000	-3.62099	-2.29794	-1.25717	-1.46753
1817.000	-3.25263	-2.43762	-0.98247	-1.60482
1818.000	-2.88990	-2.57330	-0.66029	-1.71029
1819.000	-2.61376	-2.59571	-0.40726	-1.73024
1820.000	-2.44407	-2.75273	-0.18188	-1.85946
1821.000	-2.17958	-2.80481	0.00395	-1.89922
1822.000	-1.94462	-2.77745	0.25701	-1.94292
1823.000	-1.81626	-2.79154	0.33213	-1.90912
1824.000	-1.64046	-2.80569	0.41912	-1.95282
1825.000	-1.60096	-2.83550	0.46656	-1.95082
1826.000	-1.52786	-2.82766	0.48040	-1.92101
1827.000	-1.51996	-2.78403	0.47842	-1.92300
1828.000	-1.36190	-2.74850	0.41319	-1.78788
1829.000	-1.24729	-2.73077	0.43889	-1.83159
1830.000	-1.32633	-2.68901	0.41516	-1.80378
1831.000	-1.38758	-2.70879	0.40330	-1.76005
1832.000	-1.29076	-2.63348	0.35586	-1.77398
1833.000	-1.34807	-2.62548	0.30446	-1.71038
1834.000	-1.35202	-2.60364	0.31632	-1.78591
1835.000	-1.36585	-2.60561	0.32620	-1.77199
1836.000	-1.30460	-2.52033	0.26096	-1.72629
1837.000	-1.38561	-2.62941	0.27876	-1.78591
1838.000	-1.37968	-2.59170	0.37167	-1.82763
1839.000	-1.37178	-2.56393	0.34993	-1.75410
1840.000	-1.33424	-2.55999	0.36772	-1.78590
1841.000	-1.37178	-2.50438	0.40528	-1.78788
1842.000	-1.34412	-2.57189	0.43691	-1.81967
1843.000	-1.36387	-2.52423	0.48435	-1.76003
1844.000	-1.37573	-2.61950	0.48040	-1.83158
1845.000	-1.36387	-2.55599	0.48435	-1.80575
1846.000	-1.32831	-2.53420	0.54761	-1.84150
1847.000	-1.33424	-2.59374	0.53180	-1.90907
1848.000	-1.30657	-2.58781	0.53180	-1.88125
1849.000	-1.27496	-2.52234	0.57331	-1.88919
1850.000	-1.18010	-2.59588	0.57727	-1.85540
1851.000	-1.04177	-2.59004	0.63657	-1.94679
1852.000	-1.10106	-2.61778	0.65436	-1.90505
1853.000	-1.09908	-2.59793	0.68796	-1.94478
1854.000	-1.10896	-2.56418	0.67215	-1.95870
1855.000	-1.07734	-2.49274	0.65041	-1.89512
1856.000	-1.07932	-2.65353	0.69192	-1.94081
1857.000	-1.11687	-2.63762	0.71366	-1.95669
1858.000	-1.09710	-2.66741	0.69389	-1.91299
1859.000	-1.06548	-2.64759	0.69192	-1.94279
1860.000	-1.09315	-2.68527	0.66820	-1.95472
1861.000	-1.11094	-2.67335	0.70378	-1.93881
1862.000	-1.09315	-2.67138	0.63459	-1.91102
1863.000	-0.96469	-2.68141	0.61482	-1.93487
1864.000	-1.09513	-2.72893	0.65238	-1.89313
1865.000	-1.02398	-2.65754	0.63657	-1.90109
1866.000	-1.07734	-2.64162	0.60296	-1.91501
1867.000	-1.12082	-2.66738	0.61878	-1.92693
1868.000	-1.09710	-2.68527	0.61482	-1.90109
1869.000	-1.14848	-2.75468	0.58913	-1.91501
1870.000	-1.07536	-2.63368	0.68203	-1.97658
1871.000	-1.07932	-2.63169	0.65238	-1.92095
1872.000	-0.99631	-2.62184	0.69587	-1.92491
1873.000	-1.09710	-2.58801	0.69389	-1.98452
1874.000	-1.13465	-2.68722	0.71761	-1.91695
1875.000	-1.05758	-2.64362	0.69192	-1.90703
1876.000	-1.05560	-2.64561	0.65831	-1.97460
1877.000	-1.04769	-2.57217	0.62866	-1.95474
1878.000	-1.09315	-2.65352	0.69389	-1.90504
1879.000	-1.10106	-2.63763	0.66622	-1.91498
1880.000	-1.15837	-2.63162	0.60889	-1.91699
1881.000	-1.10698	-2.64159	0.63657	-1.91500
1882.000	-1.14256	-2.61774	0.67610	-1.91498
1883.000	-1.10106	-2.64954	0.67610	-1.94081
1884.000	-1.14058	-2.60584	0.60692	-1.83949
1885.000	-1.10501	-2.65748	0.67017	-1.86530
1886.000	-1.03386	-2.64364	0.68401	-1.86927
1887.000	-1.13268	-2.60386	0.68401	-1.89908
1888.000	-1.11489	-2.63563	0.66622	-1.92492
1889.000	-1.12675	-2.60783	0.67017	-1.90703
1890.000	-1.11094	-2.71106	0.67215	-1.89710
1891.000	-1.16825	-2.64749	0.68796	-1.88914
1892.000	-1.10303	-2.61976	0.64448	-1.87724
1893.000	-1.08327	-2.63566	0.66622	-1.91101
1894.000	-1.11291	-2.58204	0.66029	-1.89909
1895.000	-1.15244	-2.59789	0.61878	-1.92891
1896.000	-1.16429	-2.63956	0.70180	-1.94676
1897.000	-1.08327	-2.64162	0.70378	-1.88318
1898.000	-1.12872	-2.60585	0.65436	-1.94082
1899.000	-1.16034	-2.63956	0.69982	-1.93882
1900.000	-1.11884	-2.55425	0.66820	-1.92691
1901.000	-1.07932	-2.59001	0.72157	-1.96066
1902.000	-1.12279	-2.60387	0.72157	-1.94675
1903.000	-1.16429	-2.66337	0.69389	-1.91100
1904.000	-1.08327	-2.58207	0.70575	-1.91696
1905.000	-1.06746	-2.69125	0.69389	-1.91895
1906.000	-1.07141	-2.60590	0.69587	-1.96266
1907.000	-1.15244	-2.60980	0.73343	-1.93284
1908.000	-1.16429	-2.62765	0.70575	-1.90305
1909.000	-1.15441	-2.60979	0.68994	-1.93683
1910.000	-1.10698	-2.63961	0.75122	-1.93879
1911.000	-1.11291	-2.58601	0.68796	-1.85536
1912.000	-1.05165	-2.55033	0.76901	-1.92686
1913.000	-1.12675	-2.65349	0.68994	-1.86530
1914.000	-1.11884	-2.58005	0.69192	-1.91299
1915.000	-1.18801	-2.61770	0.69785	-1.88715
1916.000	-1.19789	-2.69708	0.71564	-1.89112
1917.000	-1.10501	-2.58205	0.71959	-1.92291
1918.000	-1.13268	-2.65348	0.73145	-1.87323
1919.000	-1.09513	-2.57610	0.65436	-1.77986
1920.000	-1.11489	-2.51256	0.72750	-1.86329
1921.000	-1.24136	-2.58986	0.67215	-1.82755
1922.000	-1.17022	-2.63757	0.75122	-1.87123
1923.000	-1.11291	-2.60388	0.75517	-1.86924
1924.000	-1.13268	-2.69516	0.67017	-1.87325
1925.000	-1.08722	-2.62176	0.67610	-1.85537
1926.000	-1.17418	-2.60978	0.71366	-1.89311
1927.000	-1.15639	-2.60384	0.71959	-1.93285
1928.000	-1.12279	-2.57806	0.69389	-1.93882
1929.000	-1.17615	-2.53037	0.68994	-1.90305
1930.000	-1.11687	-2.57608	0.66227	-1.95075
1931.000	-1.18406	-2.66931	0.74924	-1.93879
1932.000	-1.16232	-2.59589	0.72157	-1.94675
1933.000	-1.22951	-2.65537	0.74331	-1.91893
1934.000	-1.13860	-2.59194	0.70378	-1.88914
1935.000	-1.01212	-2.55632	0.68401	-1.90902
1936.000	-1.14256	-2.66736	0.70378	-1.91298
1937.000	-1.09710	-2.57610	0.73936	-1.90701
1938.000	-1.12675	-2.56218	0.69192	-1.92491
1939.000	-1.08722	-2.56221	0.71564	-1.88913
1940.000	-1.12477	-2.55424	0.67808	-1.82357
1941.000	-1.07536	-2.59200	0.71564	-1.91496
1942.000	-1.08327	-2.58405	0.70971	-1.87523
1943.000	-1.05560	-2.58606	0.69785	-1.92689
1944.000	-1.22555	-2.53628	0.69587	-1.89510
1945.000	-1.12872	-2.62570	0.71366	-1.92887
1946.000	-1.18801	-2.64350	0.67610	-1.98055
1947.000	-1.09315	-2.59794	0.73540	-1.95867
1948.000	-1.09117	-2.56419	0.67413	-1.91299
1949.000	-1.05955	-2.59598	0.74331	-2.00437
1950.000	-1.08327	-2.56817	0.71564	-1.95868
1951.000	-1.08327	-2.58207	0.72750	-2.01232
1952.000	-1.11884	-2.54829	0.71168	-1.91497
1953.000	-1.07339	-2.49671	0.69587	-1.91696
1954.000	-1.17220	-2.58993	0.74529	-1.94873
1955.000	-1.12279	-2.56814	0.73540	-1.97457
1956.000	-1.07141	-2.51855	0.70971	-1.90901
1957.000	-1.00224	-2.58412	0.69389	-1.94677
1958.000	-1.08920	-2.54435	0.67413	-1.90703
1959.000	-1.07536	-2.60391	0.66424	-1.92889
1960.000	-1.10698	-2.59197	0.71959	-1.88317
1961.000	-1.07734	-2.57612	0.67215	-1.90902
1962.000	-0.96073	-2.58018	0.65831	-1.92890
1963.000	-1.06153	-2.55429	0.69389	-1.89709
1964.000	-1.07734	-2.56619	0.73145	-1.89111
1965.000	-0.99829	-2.59405	0.66227	-1.90108
1966.000	-1.03188	-2.56623	0.72354	-1.89509
1967.000	-1.09117	-2.60588	0.69587	-1.93683
1968.000	-1.11687	-2.64953	0.64052	-1.90705
1969.000	-1.04769	-2.51857	0.64052	-1.95672
1970.000	-1.10106	-2.66343	0.70180	-1.92491
1971.000	-1.08129	-2.58008	0.69389	-1.90901
1972.000	-1.06153	-2.63568	0.70378	-1.96266
1973.000	-1.06351	-2.51459	0.75319	-1.94277
1974.000	-1.02793	-2.53447	0.67808	-1.95472
1975.000	-1.06746	-2.61384	0.69587	-1.91299
1976.000	-1.03584	-2.60593	0.68796	-1.94081
1977.000	-1.01410	-2.60793	0.72750	-1.89509
1978.000	-1.20975	-2.64547	0.72947	-1.86131
1979.000	-1.11687	-2.67731	0.71761	-1.86529
1980.000	-1.07141	-2.60391	0.67610	-1.86133
1981.000	-1.04572	-2.53247	0.68796	-1.91100
1982.000	-0.94295	-2.53056	0.68599	-1.89312
1983.000	-1.12279	-2.58997	0.71761	-1.90702
1984.000	-1.00817	-2.59205	0.71168	-1.94477
1985.000	-1.03979	-2.60195	0.70773	-1.91497
1986.000	-0.99829	-2.58412	0.70378	-1.90305
1987.000	-0.99038	-2.62780	0.70180	-1.90702
1988.000	-1.04572	-2.59996	0.67610	-1.88120
1989.000	-1.07932	-2.60192	0.73936	-1.96860
1990.000	-1.11884	-2.65746	0.68203	-1.92889
1991.000	-1.07339	-2.57811	0.66622	-1.87524
1992.000	-1.11687	-2.62571	0.72947	-1.89509
1993.000	-1.08327	-2.54832	0.69982	-1.91298
1994.000	-1.00619	-2.58015	0.70971	-1.88715
1995.000	-1.07141	-2.59994	0.66622	-1.83351
1996.000	-1.07141	-2.52649	0.67215	-1.90703
1997.000	-1.01805	-2.55234	0.65831	-1.93088
1998.000	-1.12477	-2.58203	0.75715	-1.98052
1999.000	-1.04769	-2.57614	0.67017	-1.92293
2000.000	-1.07141	-2.62972	0.68994	-1.91100
2001.000	-1.06351	-2.57811	0.67017	-2.00241
2002.000	-1.05955	-2.62774	0.68203	-2.03221
2003.000	-1.12279	-2.61975	0.70378	-2.03617
2004.000	-1.07932	-2.57215	0.72157	-2.01828
2005.000	-1.05165	-2.58606	0.70180	-2.05207
2006.000	-1.13268	-2.64951	0.70180	-2.08584
2007.000	-1.05362	-2.52651	0.70575	-2.00240
2008.000	-1.08327	-2.63963	0.73540	-2.01629
2009.000	-0.97457	-2.56826	0.72157	-2.00636
2010.000	-1.04177	-2.54240	0.75122	-2.00436
2011.000	-0.98247	-2.58413	0.72750	-1.95867
2012.000	-1.09315	-2.55427	0.72947	-1.95073
2013.000	-1.01805	-2.56624	0.70575	-1.99842
2014.000	-1.12082	-2.62372	0.70378	-1.99445
2015.000	-1.09117	-2.58603	0.68203	-2.00837
2016.000	-0.99236	-2.57420	0.67413	-2.02228
2017.000	-1.10501	-2.61579	0.71959	-1.97855
2018.000	-1.04769	-2.54239	0.73343	-2.00834
2019.000	-1.06153	-2.52650	0.71761	-2.01232
2020.000	-1.12082	-2.59394	0.72354	-1.99643
2021.000	-1.01805	-2.55631	0.70378	-2.04412
2022.000	-0.99433	-2.61589	0.69389	-1.96266
2023.000	-1.05758	-2.55231	0.72157	-2.07590
2024.000	-1.02991	-2.63174	0.69587	-2.01432
2025.000	-1.05165	-2.54239	0.71959	-2.02623
2026.000	-0.98247	-2.57024	0.67610	-2.00241
2027.000	-0.95678	-2.51070	0.68994	-1.99247
2028.000	-1.00817	-2.59404	0.69192	-1.94478
2029.000	-0.99038	-2.61986	0.78482	-1.98448
2030.000	-0.96864	-2.49282	0.71959	-1.99643
2031.000	-0.99829	-2.50868	0.75912	-2.05005
2032.000	-1.03584	-2.45108	0.67413	-2.03022
2033.000	-1.01805	-2.57021	0.70575	-1.94875
2034.000	-1.03979	-2.54637	0.70378	-1.95868
2035.000	-1.00421	-2.63970	0.68203	-2.01631
2036.000	-0.96864	-2.55238	0.68796	-2.02426
2037.000	-1.05955	-2.59995	0.72157	-2.00438
2038.000	-1.02991	-2.58410	0.70378	-2.00637
2039.000	-1.09315	-2.61977	0.70180	-1.98650
2040.000	-1.10698	-2.51257	0.73145	-1.95470
2041.000	-1.05758	-2.59995	0.73738	-2.05006
2042.000	-1.05560	-2.60393	0.73343	-2.01232
2043.000	-1.04572	-2.54041	0.70378	-1.94676
2044.000	-1.08722	-2.61978	0.73343	-2.00040
2045.000	-1.14453	-2.58598	0.72354	-1.98451
2046.000	-1.13465	-2.61577	0.68401	-1.96863
2047.000	-1.08327	-2.53641	0.73738	-2.00636
2048.000	-0.97259	-2.54642	0.71959	-1.98848
2049.000	-1.12279	-2.52844	0.71366	-1.97259
2050.000	-1.14256	-2.54430	0.73540	-1.96066
2051.000	-1.04177	-2.63371	0.76110	-1.96065
2052.000	-1.06153	-2.53444	0.76703	-1.98647
2053.000	-1.07932	-2.62574	0.74331	-1.97059
2054.000	-1.11489	-2.56814	0.72354	-1.94477
2055.000	-1.14058	-2.56812	0.72750	-1.95470
2056.000	-0.98840	-2.58611	0.73145	-1.93880
2057.000	-1.07141	-2.53245	0.75319	-1.95270
2058.000	-1.02200	-2.54837	0.73145	-1.90304
2059.000	-1.09908	-2.53640	0.75517	-1.95667
2060.000	-1.14651	-2.53834	0.69587	-1.96266
2061.000	-1.08920	-2.51457	0.72947	-1.92688
2062.000	-1.17615	-2.58397	0.71564	-1.96067
2063.000	-1.16034	-2.56810	0.73738	-1.93284
2064.000	-1.13663	-2.65348	0.71366	-1.92093
2065.000	-1.09710	-2.60985	0.69389	-1.88318
2066.000	-1.13465	-2.52247	0.68203	-1.86331
2067.000	-1.09908	-2.63366	0.73343	-1.97258
2068.000	-1.14651	-2.56216	0.70773	-1.90305
2069.000	-1.08129	-2.57413	0.74529	-1.94078
2070.000	-1.07734	-2.55031	0.72750	-1.96066
2071.000	-1.08327	-2.59795	0.70971	-1.93682
2072.000	-1.03979	-2.62776	0.66622	-1.95870
2073.000	-0.98445	-2.62185	0.70180	-1.95471
2074.000	-1.08524	-2.61383	0.73343	-1.94079
2075.000	-1.00421	-2.60397	0.71168	-1.93086
2076.000	-1.11489	-2.60189	0.72947	-2.00437
2077.000	-1.03979	-2.63173	0.74331	-1.99840
2078.000	-1.04769	-2.64760	0.72157	-1.96861
2079.000	-1.06351	-2.64957	0.73738	-1.94873
2080.000	-1.03386	-2.57814	0.73145	-1.98053
2081.000	-1.06351	-2.63171	0.73738	-1.99245
2082.000	-1.14651	-2.65148	0.75122	-1.96462
2083.000	-1.08524	-2.55427	0.75715	-1.94873
2084.000	-1.18208	-2.59389	0.75715	-1.96661
2085.000	-1.07339	-2.62178	0.73540	-1.94675
2086.000	-1.09513	-2.64954	0.75319	-1.96065
2087.000	-1.15441	-2.55620	0.73936	-1.95867
2088.000	-1.05362	-2.61782	0.77098	-1.98250
2089.000	-1.05560	-2.54040	0.76703	-1.96263
2090.000	-1.06153	-2.53841	0.75517	-1.96264
2091.000	-1.08524	-2.51259	0.78877	-1.96262
2092.000	-1.09315	-2.56618	0.76308	-1.98449
2093.000	-1.09315	-2.62374	0.78087	-1.95269
2094.000	-1.09513	-2.56618	0.77296	-2.00038
2095.000	-1.13663	-2.62569	0.79866	-2.00235
2096.000	-1.08722	-2.60985	0.79075	-1.98646
2097.000	-1.12477	-2.60784	0.78877	-2.03216
2098.000	-1.08722	-2.58008	0.77494	-1.96263
2099.000	-1.10106	-2.61381	0.76308	-1.99840
2100.000	-1.14453	-2.65148	0.75319	-1.95866
2101.000	-1.07141	-2.53046	0.74726	-1.91296
2102.000	-1.17418	-2.66733	0.68796	-1.92491
2103.000	-1.10896	-2.54631	0.70378	-1.93285
2104.000	-1.04967	-2.57614	0.74331	-1.97258
2105.000	-1.15837	-2.55620	0.74924	-1.96264
2106.000	-1.16034	-2.64552	0.77889	-1.91096
2107.000	-1.08722	-2.61779	0.73540	-1.89707
2108.000	-1.10106	-2.61977	0.70773	-1.95272
2109.000	-1.05362	-2.60988	0.73540	-1.91496
2110.000	-1.03386	-2.53248	0.71366	-1.92093
2111.000	-1.06943	-2.59002	0.70180	-1.88119
2112.000	-1.14453	-2.63759	0.72552	-1.88317
2113.000	-1.05165	-2.59797	0.70773	-1.90106
2114.000	-1.02991	-2.53844	0.70378	-1.95670
2115.000	-1.08129	-2.56619	0.76703	-1.91693
2116.000	-1.10896	-2.53242	0.68796	-1.96664
2117.000	-1.10896	-2.62770	0.72157	-1.89310
2118.000	-1.12872	-2.54233	0.71761	-1.96663
2119.000	-1.12082	-2.58997	0.72354	-1.92092
2120.000	-1.11687	-2.56020	0.76110	-1.91495
2121.000	-1.07536	-2.65155	0.76110	-1.95270
2122.000	-1.16429	-2.56413	0.73343	-1.96265
2123.000	-1.16034	-2.62170	0.74924	-1.97853
2124.000	-1.18998	-2.60778	0.71168	-1.92291
2125.000	-1.12477	-2.61975	0.71959	-1.89509
2126.000	-1.16627	-2.53634	0.81842	-1.94274
2127.000	-1.25520	-2.66726	0.77494	-1.96064
2128.000	-1.10896	-2.49073	0.79470	-1.99441
2129.000	-1.19196	-2.52639	0.77296	-1.89904
2130.000	-1.05955	-2.57613	0.79470	-1.97454
2131.000	-1.11687	-2.52447	0.80261	-1.94076
2132.000	-1.15244	-2.56017	0.79273	-1.92685
2133.000	-1.26508	-2.58785	0.80459	-1.99043
2134.000	-1.08524	-2.60589	0.76110	-1.93879
2135.000	-1.21765	-2.55614	0.76308	-1.95667
2136.000	-1.16627	-2.61772	0.76505	-1.98250
2137.000	-1.12477	-2.50858	0.76901	-1.95269
2138.000	-1.22753	-2.52239	0.70575	-1.96067
2139.000	-1.15244	-2.58598	0.71959	-1.94278
2140.000	-1.25915	-2.46875	0.69982	-1.93683
2141.000	-1.22555	-2.44496	0.65831	-1.95075
2142.000	-1.25322	-2.40126	0.57133	-1.99450
2143.000	-1.46859	-2.38318	0.49028	-1.97664
2144.000	-1.75898	-2.26174	0.18386	-1.85747
2145.000	-2.11246	-2.16598	0.00198	-1.92306
2146.000	-2.40657	-2.03652	-0.35190	-1.84751
2147.000	-2.83863	-1.93261	-0.74529	-1.71623
2148.000	-3.17774	-1.77724	-1.12477	-1.57295
2149.000	-3.71944	-1.64333	-1.56145	-1.42958
2150.000	-4.11496	-1.52161	-1.99202	-1.34181
2151.000	-4.51205	-1.48910	-2.36118	-1.17857
2152.000	-4.97936	-1.36529	-2.81891	-0.93779
2153.000	-5.49106	-1.26125	-3.25460	-0.91359
2154.000	-5.71429	-1.14007	-3.60130	-0.72070
2155.000	-6.14849	-0.93946	-4.02841	-0.64693
2156.000	-6.55272	-0.82412	-4.34108	-0.49195
2157.000	-6.90370	-0.76823	-4.66724	-0.34699
2158.000	-7.27361	-0.66107	-5.01860	-0.31114
2159.000	-7.77492	-0.58738	-5.28530	-0.17433
2160.000	-7.94371	-0.49257	-5.58507	-0.06930
2161.000	-8.41633	-0.37588	-5.90996	0.01385
2162.000	-8.78356	-0.39321	-6.26573	0.05142
2163.000	-8.94568	-0.27906	-6.51369	0.14231
2164.000	-9.44272	-0.34147	-6.87057	0.21529
2165.000	-9.65805	-0.11375	-7.18410	0.24278
2166.000	-10.03421	-0.11362	-7.50886	0.33924
2167.000	-10.41524	0.04892	-7.87194	0.32319
2168.000	-10.73618	0.09382	-8.15497	0.39583
2169.000	-10.94024	0.13868	-8.46275	0.47029
2170.000	-11.31140	0.17947	-8.84147	0.46785
2171.000	-11.65885	0.13639	-8.99583	0.60715
2172.000	-11.77447	0.23566	-9.24061	0.65975
2173.000	-12.06405	0.22957	-9.54465	0.67878
2174.000	-12.16611	0.32283	-9.75985	0.73520
2175.000	-12.51138	0.31269	-9.92682	0.88569
2176.000	-12.61685	0.52610	-10.18175	0.95743
2177.000	-12.90645	0.58173	-10.34255	1.09389
2178.000	-13.12603	0.49210	-10.49745	1.07966
2179.000	-13.25908	0.57897	-10.67319	1.12204
2180.000	-13.23098	0.77460	-10.76672	1.24867
2181.000	-13.31152	0.70079	-10.84492	1.27178
2182.000	-13.31900	0.76852	-10.87543	1.36343
2183.000	-13.25721	0.76678	-10.91547	1.38277
2184.000	-13.23660	0.72424	-10.88306	1.47078
2185.000	-13.07914	0.74215	-10.81059	1.45161
2186.000	-12.93462	0.74258	-10.65410	1.44454
2187.000	-12.81626	0.73129	-10.54905	1.46263
2188.000	-12.68649	0.65404	-10.43818	1.48466
2189.000	-12.57919	0.67179	-10.26026	1.47572
2190.000	-12.36055	0.70733	-10.16260	1.50553
2191.000	-12.31338	0.68608	-10.00929	1.41422
2192.000	-12.21144	0.68246	-9.95368	1.40467
2193.000	-12.29640	0.66864	-9.89613	1.41080
2194.000	-12.26808	0.65316	-9.89229	1.39318
2195.000	-12.21144	0.53859	-9.91531	1.34216
2196.000	-12.40016	0.64117	-9.93450	1.38517
2197.000	-12.41525	0.57897	-10.00545	1.36137
2198.000	-12.50196	0.60985	-10.08596	1.39236
2199.000	-12.62062	0.47757	-10.15685	1.41162
2200.000	-12.67332	0.63661	-10.32150	1.42849
2201.000	-12.77114	0.65965	-10.43818	1.45924
2202.000	-12.78994	0.60140	-10.50127	1.45699
2203.000	-13.00221	0.64741	-10.58153	1.50156
2204.000	-13.00972	0.55823	-10.60445	1.52099
2205.000	-13.09227	0.61230	-10.68847	1.57527
2206.000	-13.06601	0.66662	-10.76862	1.55142
2207.000	-13.10915	0.69556	-10.77435	1.58849
2208.000	-13.04913	0.63372	-10.74573	1.56716
2209.000	-13.11103	0.58900	-10.82204	1.58043
2210.000	-13.00409	0.68810	-10.82204	1.60386
2211.000	-13.19164	0.68371	-10.86781	1.61728
2212.000	-13.09227	0.62974	-10.82967	1.61358
2213.000	-13.07351	0.73054	-10.88687	1.61913
2214.000	-13.18601	0.69534	-10.83730	1.62330
2215.000	-13.10352	0.70526	-10.89259	1.58591
2216.000	-13.11853	0.59673	-10.82204	1.58824
2217.000	-13.24972	0.67580	-10.83539	1.61746
2218.000	-13.10165	0.62971	-10.79533	1.67430
2219.000	-13.17664	0.69537	-10.76290	1.65300
2220.000	-13.02661	0.68610	-10.75908	1.61787
2221.000	-13.01160	0.73266	-10.70565	1.68065
2222.000	-12.96467	0.64751	-10.72664	1.69226
2223.000	-12.97593	0.69594	-10.74191	1.69803
2224.000	-12.93838	0.66308	-10.74954	1.72728
2225.000	-12.99095	0.67845	-10.61400	1.66162
2226.000	-12.89706	0.70003	-10.66174	1.66332
2227.000	-12.88391	0.61863	-10.63119	1.69669
2228.000	-12.94026	0.69991	-10.64073	1.71227
2229.000	-12.80874	0.74489	-10.62355	1.66352
2230.000	-12.91772	0.68834	-10.61782	1.65183
2231.000	-12.94589	0.70184	-10.61973	1.73778
2232.000	-12.78994	0.68287	-10.65028	1.65166
2233.000	-12.94589	0.67082	-10.66174	1.69457
2234.000	-12.92336	0.73680	-10.69610	1.72758
2235.000	-12.97218	0.65136	-10.71901	1.69425
2236.000	-12.90645	0.67868	-10.72664	1.70397
2237.000	-13.07351	0.68210	-10.74000	1.69023
2238.000	-12.98344	0.72305	-10.73046	1.71762
2239.000	-13.00033	0.70750	-10.71519	1.72161
2240.000	-12.90269	0.69226	-10.67892	1.65541
2241.000	-12.86888	0.70981	-10.69610	1.68071
2242.000	-12.94777	0.64173	-10.69228	1.66120
2243.000	-12.97030	0.63974	-10.72282	1.68642
2244.000	-12.79558	0.66734	-10.70946	1.63766
2245.000	-12.99095	0.67263	-10.68083	1.67298
2246.000	-12.98344	0.73662	-10.64455	1.68295
2247.000	-12.92148	0.73486	-10.66747	1.71603
2248.000	-12.93650	0.74451	-10.69038	1.68855
2249.000	-12.85573	0.62646	-10.72282	1.66884
2250.000	-12.78430	0.80122	-10.71901	1.66691
2251.000	-12.96467	0.67464	-10.68083	1.73353
2252.000	-12.86136	0.77770	-10.74382	1.70778
2253.000	-12.91960	0.69997	-10.71901	1.65910
2254.000	-12.96655	0.65525	-10.73237	1.67269
2255.000	-12.92148	0.69803	-10.72282	1.69423
2256.000	-13.00784	0.62995	-10.77053	1.66272
2257.000	-12.96467	0.62618	-10.74382	1.66482
2258.000	-13.02098	0.68612	-10.73809	1.63751
2259.000	-12.97405	0.63004	-10.73428	1.70393
2260.000	-12.95152	0.67856	-10.70565	1.68651
2261.000	-12.91021	0.64765	-10.73237	1.64535
2262.000	-12.97969	0.66297	-10.73618	1.67853
2263.000	-12.91209	0.65928	-10.75718	1.67451
2264.000	-12.99470	0.62998	-10.74763	1.68628
2265.000	-12.88955	0.65158	-10.71137	1.69429
2266.000	-13.01535	0.69001	-10.74573	1.69410
2267.000	-13.02286	0.68611	-10.75527	1.66280
2268.000	-12.82754	0.70799	-10.76862	1.68226
2269.000	-12.96842	0.71728	-10.79533	1.65672
2270.000	-12.92899	0.70188	-10.75718	1.69404
2271.000	-12.98532	0.76956	-10.76290	1.70572
2272.000	-12.93650	0.66115	-10.76099	1.71159
2273.000	-13.00409	0.64934	-10.75336	1.64524
2274.000	-12.90457	0.64766	-10.72282	1.68251
2275.000	-12.97405	0.68819	-10.73046	1.71762
2276.000	-13.06226	0.64919	-10.75527	1.68428
2277.000	-12.93275	0.61075	-10.76481	1.70766
2278.000	-13.12040	0.67809	-10.75145	1.69602
2279.000	-12.90269	0.60501	-10.75336	1.71359
2280.000	-13.03224	0.74423	-10.77244	1.71934
2281.000	-12.94401	0.62623	-10.70183	1.66114
2282.000	-12.79558	0.74105	-10.67510	1.72184
2283.000	-12.86512	0.68267	-10.62546	1.60099
2284.000	-12.80686	0.65179	-10.54140	1.59752
2285.000	-12.56224	0.56117	-10.31767	1.68081
2286.000	-12.38319	0.62761	-9.99970	1.70597
2287.000	-12.12265	0.56405	-9.68687	1.65272
2288.000	-11.71193	0.63698	-9.32918	1.57207
2289.000	-11.15734	0.59529	-8.86271	1.60358
2290.000	-10.81059	0.43772	-8.24600	1.54715
2291.000	-10.26600	0.39543	-7.64291	1.39770
2292.000	-9.72529	0.25099	-7.04589	1.36603
2293.000	-9.09417	0.16698	-6.43562	1.27489
2294.000	-8.55944	0.04525	-5.77105	1.17953
2295.000	-7.92043	-0.12217	-5.14217	1.09758
2296.000	-7.33974	-0.07893	-4.49437	0.94199
2297.000	-7.02447	-0.15006	-3.89265	0.78992
2298.000	-6.35947	-0.16213	-3.27824	0.70704
2299.000	-5.94908	-0.28296	-2.79721	0.51066
2300.000	-5.41269	-0.29510	-2.30394	0.43930
2301.000	-5.02448	-0.54101	-1.80638	0.23662
2302.000	-4.52188	-0.67427	-1.38561	0.07160
2303.000	-4.30176	-0.73794	-0.92713	-0.12134
2304.000	-3.89265	-0.89112	-0.49424	-0.23673
2305.000	-3.59540	-0.98274	-0.11467	-0.43170
2306.000	-3.19941	-1.07448	0.19572	-0.50132
2307.000	-2.74001	-1.22589	0.56936	-0.69623
2308.000	-2.45394	-1.32749	0.95283	-0.68822
2309.000	-1.93278	-1.43327	1.35992	-0.79351
2310.000	-1.64244	-1.56664	1.73330	-0.83910
2311.000	-1.37375	-1.75164	2.12430	-0.90052
2312.000	-0.93702	-1.80159	2.43420	-0.86655
2313.000	-0.60099	-1.86334	2.78538	-0.92392
2314.000	-0.05338	-1.93896	3.13634	-0.83028
2315.000	0.34004	-2.05616	3.47526	-0.93919
2316.000	0.84017	-2.04604	3.88675	-1.00027
2317.000	1.19591	-2.27621	4.29194	-1.03149
2318.000	1.67800	-2.22212	4.61814	-1.11628
2319.000	2.19538	-2.43778	4.97740	-1.15135
2320.000	2.48748	-2.41743	5.33038	-1.18239
2321.000	2.94117	-2.46015	5.63206	-1.27282
2322.000	3.14620	-2.59054	5.90605	-1.42252
2323.000	3.48117	-2.62929	6.12895	-1.46345
2324.000	3.84935	-2.64208	6.28331	-1.41559
2325.000	4.04415	-2.62760	6.38291	-1.37778
2326.000	4.22312	-2.71411	6.50979	-1.44064
2327.000	4.35484	-2.71167	6.48247	-1.41307
2328.000	4.51598	-2.58838	6.45905	-1.34793
2329.000	4.56314	-2.50508	6.43367	-1.37566
2330.000	4.70259	-2.43136	6.32628	-1.28702
2331.000	4.58474	-2.25755	6.19930	-1.25768
2332.000	4.49437	-2.25189	6.07617	-1.15119
2333.000	4.47865	-2.13113	5.94712	-1.05454
2334.000	4.35484	-2.08394	5.87866	-1.02698
2335.000	4.27228	-1.96925	5.71820	-1.05300
2336.000	4.10906	-2.00929	5.60073	-1.00571
2337.000	4.06185	-1.88454	5.49693	-0.99203
2338.000	3.91823	-2.03157	5.44404	-0.96043
2339.000	3.92413	-2.05931	5.45188	-0.97626
2340.000	3.87100	-2.05944	5.48518	-0.96433
2341.000	3.90052	-1.92456	5.54198	-1.06519
2342.000	3.83361	-2.01591	5.60465	-1.06706
2343.000	3.80015	-2.09331	5.70841	-1.10051
2344.000	3.88478	-2.04553	5.79257	-1.09045
2345.000	3.98710	-2.06708	5.86888	-1.14174
2346.000	3.97529	-2.04729	5.93930	-1.10797
2347.000	4.15626	-2.12411	6.00970	-1.20078
2348.000	4.29390	-2.05637	6.02730	-1.19480
2349.000	4.37450	-1.99672	6.12308	-1.21239
2350.000	4.41380	-2.11151	6.19148	-1.23002
2351.000	4.47079	-2.13511	6.20516	-1.28139
2352.000	4.54938	-2.13092	6.21102	-1.23393
2353.000	4.57885	-2.03775	6.18367	-1.28144
2354.000	4.64956	-2.13854	6.25010	-1.30895
2355.000	4.72419	-2.07298	6.18758	-1.23992
2356.000	4.72419	-2.11060	6.22079	-1.22798
2357.000	4.72222	-2.08288	6.16803	-1.26171
2358.000	4.79683	-2.17570	6.19148	-1.22014
2359.000	4.83217	-2.15184	6.22470	-1.31099
2360.000	4.78505	-2.19752	6.18562	-1.26957
2361.000	4.76542	-2.20352	6.19539	-1.24583
2362.000	4.79880	-2.15986	6.18367	-1.30714
2363.000	4.86161	-2.23488	6.16413	-1.25974
2364.000	4.80272	-2.16975	6.17585	-1.26960
2365.000	4.78702	-2.16386	6.15240	-1.28942
2366.000	4.72615	-2.19771	6.14458	-1.26770
2367.000	4.68295	-2.19190	6.06640	-1.24218
2368.000	4.76542	-2.17976	6.09181	-1.20257
2369.000	4.70651	-2.12055	6.07226	-1.17493
2370.000	4.65153	-2.18606	6.03903	-1.22246
2371.000	4.67117	-2.14442	6.08986	-1.14919
2372.000	4.74579	-2.11449	6.00970	-1.22055
2373.000	4.60439	-2.16244	6.07422	-1.21447
2374.000	4.68884	-2.15624	6.06053	-1.20264
2375.000	4.64563	-2.16232	6.01557	-1.24031
2376.000	4.67509	-2.02956	6.04880	-1.23628
2377.000	4.62010	-2.05942	6.01165	-1.28976
2378.000	4.60635	-2.15254	6.01165	-1.28976
2379.000	4.67117	-2.09492	6.04880	-1.25408
2380.000	4.52777	-2.07949	6.06444	-1.31534
2381.000	4.59064	-2.10308	6.03512	-1.27982
2382.000	4.59849	-2.02185	6.02339	-1.25612
2383.000	4.57885	-2.05756	6.05076	-1.31933
2384.000	4.57492	-2.09520	6.06053	-1.29953
2385.000	4.51795	-2.04189	6.04685	-1.23629
2386.000	4.61421	-2.04954	6.06444	-1.25998
2387.000	4.57689	-2.01795	6.08399	-1.24213
2388.000	4.62207	-2.06140	6.06444	-1.24613
2389.000	4.52581	-2.04385	6.09572	-1.25990
2390.000	4.60832	-1.97033	6.02730	-1.22249
2391.000	4.53956	-2.09134	6.05858	-1.22044
2392.000	4.55528	-2.01009	6.03121	-1.19875
2393.000	4.56510	-2.00808	6.05467	-1.25011
2394.000	4.51205	-2.06765	6.01557	-1.19681
2395.000	4.49241	-2.13109	6.06053	-1.23428
2396.000	4.55528	-2.01009	6.03316	-1.17304
2397.000	4.52974	-2.00818	6.04294	-1.15917
2398.000	4.52188	-2.01415	6.04880	-1.21651
2399.000	4.57492	-2.08926	6.04880	-1.21058
2400.000	4.53367	-2.05571	6.04489	-1.24025
2401.000	4.58278	-2.00209	5.97646	-1.20678
2402.000	4.63189	-2.00393	5.99797	-1.17311
2403.000	4.60635	-2.10699	5.96472	-1.17516
2404.000	4.53760	-2.10917	5.99992	-1.19289
2405.000	4.58474	-2.04170	5.99406	-1.26212
2406.000	4.59849	-2.02581	6.01948	-1.19284
2407.000	4.61617	-2.06141	6.02730	-1.23238
2408.000	4.59457	-2.01592	6.01752	-1.25020
2409.000	4.51598	-2.04585	5.99797	-1.23442
2410.000	4.68688	-2.03546	6.03512	-1.25411
2411.000	4.55528	-2.01405	6.00774	-1.15529
2412.000	4.60046	-2.05750	6.01361	-1.18692
2413.000	4.54938	-2.04180	6.07422	-1.25600
2414.000	4.59260	-2.01197	5.99210	-1.22652
2415.000	4.52777	-2.09138	5.99210	-1.14148
2416.000	4.54938	-2.05170	6.00970	-1.22253
2417.000	4.62796	-1.94057	5.99797	-1.22058
2418.000	4.54349	-2.02795	6.01361	-1.20670
2419.000	4.62599	-2.02376	5.99406	-1.19290
2420.000	4.58474	-2.03972	6.03707	-1.24818
2421.000	4.57689	-2.01201	6.02143	-1.19679
2422.000	4.60242	-2.04165	6.03316	-1.20072
2423.000	4.58867	-2.02584	6.03316	-1.25609
2424.000	4.53760	-2.00618	6.00774	-1.18891
2425.000	4.54545	-2.07350	6.03903	-1.22840
2426.000	4.59064	-1.98821	6.01752	-1.25415
2427.000	4.56117	-2.03384	5.98428	-1.25225
2428.000	4.60832	-2.03371	6.02730	-1.22447
2429.000	4.55135	-2.02595	6.03121	-1.26005
2430.000	4.56706	-2.01798	6.00383	-1.24627
2431.000	4.65153	-2.00784	6.01752	-1.21460
2432.000	4.51402	-2.01219	6.05271	-1.20464
2433.000	4.61421	-1.98418	6.08204	-1.23225
2434.000	4.56903	-1.95261	6.07617	-1.28170
2435.000	4.59064	-1.93076	6.04685	-1.26199
2436.000	4.55331	-1.99029	6.06053	-1.26196
2437.000	4.59260	-1.96245	6.08204	-1.24412
2438.000	4.57296	-2.01400	6.04098	-1.25805
2439.000	4.46883	-2.03410	6.06053	-1.21055
2440.000	4.55331	-1.98435	6.03707	-1.23038
2441.000	4.57689	-2.01399	6.03512	-1.28971
2442.000	4.54153	-1.99825	6.03707	-1.26795
2443.000	4.54349	-1.96060	6.06053	-1.23626
2444.000	4.61224	-1.96240	6.04685	-1.26595
2445.000	4.56706	-1.96846	6.09181	-1.25200
2446.000	4.53956	-2.06361	6.02534	-1.29566
2447.000	4.52777	-2.06761	6.09377	-1.23025
2448.000	4.58671	-1.92879	6.04294	-1.30551
2449.000	4.56903	-1.96450	6.10354	-1.30536
2450.000	4.48062	-2.01228	6.05076	-1.32131
2451.000	4.58671	-2.01396	6.09572	-1.24804
2452.000	4.50420	-1.99042	6.01361	-1.22252
2453.000	4.51991	-1.96859	6.08986	-1.30737
2454.000	4.54742	-1.95861	6.11527	-1.31126
2455.000	4.50616	-1.98844	6.09963	-1.30537
2456.000	4.54742	-1.95663	6.02925	-1.27390
2457.000	4.59653	-1.96442	6.07813	-1.28960
2458.000	4.55921	-1.95066	6.08008	-1.33705
2459.000	4.58671	-2.03575	6.08008	-1.34694
2460.000	4.60439	-2.01391	6.08204	-1.28366
2461.000	4.53956	-2.02004	6.04098	-1.26596
2462.000	4.53760	-2.03985	6.09181	-1.27968
2463.000	4.56117	-1.98631	6.07813	-1.32519
2464.000	4.48062	-2.01624	6.13286	-1.32506
2465.000	4.52384	-2.02008	6.09181	-1.27573
2466.000	4.54153	-2.04182	6.06835	-1.26985
2467.000	4.57099	-1.95063	6.10354	-1.29152
2468.000	4.57296	-1.98429	6.07226	-1.29555
2469.000	4.55331	-2.02198	6.09963	-1.32514
2470.000	4.52581	-1.97848	6.08204	-1.31530
2471.000	4.53760	-1.97449	6.09572	-1.30142
2472.000	4.51598	-2.01416	6.09377	-1.31725
2473.000	4.51598	-1.98049	6.09572	-1.32910
2474.000	4.47079	-1.99052	6.06444	-1.34302
2475.000	4.50223	-2.00033	6.05858	-1.31931
2476.000	4.50420	-2.04589	6.13872	-1.35074
2477.000	4.54938	-1.97643	6.09767	-1.32119
2478.000	4.50027	-2.05580	6.11918	-1.31521
2479.000	4.52777	-2.07949	6.09572	-1.29945
2480.000	4.42756	-2.03422	6.10354	-1.29745
2481.000	4.54742	-1.98833	6.13481	-1.28749
2482.000	4.50027	-2.00826	6.08595	-1.27970
2483.000	4.45114	-2.00246	6.07226	-1.30939
2484.000	4.49241	-2.01819	6.09377	-1.31922
2485.000	4.48455	-2.04990	6.08204	-1.33309
2486.000	4.46490	-1.99053	6.08399	-1.31134
2487.000	4.46686	-2.01430	6.12113	-1.39626
2488.000	4.50027	-1.96666	6.10354	-1.31524
2489.000	4.47276	-2.03805	6.07226	-1.31730
2490.000	4.50813	-1.97060	6.12308	-1.35078
2491.000	4.57492	-2.02984	6.12308	-1.32706
2492.000	4.50420	-1.98844	6.07422	-1.33904
2493.000	4.51205	-2.02012	6.11136	-1.37256
2494.000	4.52974	-1.92300	6.12504	-1.34287
2495.000	4.56314	-2.02591	6.13090	-1.32704
2496.000	4.48848	-2.05584	6.14263	-1.39620
2497.000	4.49634	-1.96469	6.11331	-1.28359
2498.000	4.52974	-2.00224	6.11136	-1.37454
2499.000	4.52581	-1.95273	6.10745	-1.33698
2500.000	4.45704	-2.01234	6.16413	-1.35859
2501.000	4.50223	-1.97656	6.06444	-1.31336
2502.000	4.50813	-1.96070	6.11527	-1.37650
2503.000	4.46490	-2.05194	6.10354	-1.33699
2504.000	4.48258	-1.91520	6.09572	-1.39237
2505.000	4.52777	-1.97055	6.08986	-1.31528
2506.000	4.53367	-2.03590	6.12895	-1.33495
2507.000	4.43739	-1.99457	6.07617	-1.32322
2508.000	4.50813	-1.94683	6.14263	-1.34678
2509.000	4.46293	-2.08760	6.09377	-1.35877
2510.000	4.48848	-2.05782	6.07226	-1.31137
2511.000	4.47669	-2.01823	6.07226	-1.34103
2512.000	4.46293	-2.00638	6.11331	-1.36860
2513.000	4.48062	-2.00039	6.11136	-1.31720
2514.000	4.49634	-2.05779	6.13090	-1.31518
2515.000	4.46883	-2.01627	6.15631	-1.35663
2516.000	4.45900	-2.00243	6.09767	-1.29944
2517.000	4.48455	-1.93897	6.11136	-1.31720
2518.000	4.42559	-1.96686	6.08204	-1.32716
2519.000	4.45311	-2.04009	6.09181	-1.33505
2520.000	4.47472	-1.99249	6.13090	-1.35472
2521.000	4.45507	-1.96679	6.12113	-1.31916
2522.000	4.43542	-2.01636	6.14263	-1.27956
2523.000	4.42756	-2.06987	6.06835	-1.32324
2524.000	4.43935	-1.99060	6.10549	-1.38641
2525.000	4.43542	-2.03221	6.10940	-1.35675
2526.000	4.45704	-2.06781	6.13090	-1.38239
2527.000	4.36663	-2.02844	6.11722	-1.35278
2528.000	4.47276	-2.04796	6.10354	-1.33502
2529.000	4.44721	-2.05397	6.07617	-1.37858
2530.000	4.42166	-2.03819	6.13481	-1.35273
2531.000	4.42756	-2.08968	6.17194	-1.31508
2532.000	4.50420	-2.00825	6.11331	-1.32708
2533.000	4.41184	-2.04614	6.18367	-1.30319
2534.000	4.46686	-1.97468	6.14849	-1.34479
2535.000	4.44721	-1.96086	6.09572	-1.36667
2536.000	4.43739	-1.97476	6.15435	-1.31314
2537.000	4.44918	-2.01237	6.11527	-1.32510
2538.000	4.46490	-2.00242	6.10940	-1.33698
2539.000	4.41184	-1.94907	6.13481	-1.27365
2540.000	4.42756	-2.05204	6.10745	-1.29942
2541.000	4.45507	-1.99452	6.13481	-1.32505
2542.000	4.47276	-1.93900	6.13481	-1.32308
2543.000	4.45704	-1.94697	6.13481	-1.23015
2544.000	4.48258	-1.96671	6.13872	-1.36854
2545.000	4.49241	-1.98253	6.16022	-1.33487
2546.000	4.48258	-1.97067	6.15631	-1.30721
2547.000	4.44918	-1.92520	6.18758	-1.32492
2548.000	4.50420	-2.00825	6.16803	-1.33683
2549.000	4.58278	-1.95455	6.18562	-1.39016
2550.000	4.44525	-1.93115	6.11918	-1.32905
2551.000	4.51205	-2.00031	6.13286	-1.34878
2552.000	4.45114	-1.96680	6.15240	-1.30326
2553.000	4.43935	-1.96683	6.12699	-1.29146
2554.000	4.49241	-2.00829	6.13481	-1.30133
2555.000	4.47865	-2.01228	6.16999	-1.33090
2556.000	4.40987	-2.04021	6.13090	-1.31715
2557.000	4.51402	-1.98842	6.11722	-1.34882
2558.000	4.45507	-1.99650	6.09767	-1.31526
2559.000	4.48651	-1.96868	6.12504	-1.27367
2560.000	4.52384	-1.94679	6.13286	-1.29343
2561.000	4.54153	-1.93288	6.20516	-1.33476
2562.000	4.42756	-2.02233	6.14849	-1.33293
2563.000	4.52188	-1.90321	6.18367	-1.36842
2564.000	4.49044	-1.89735	6.14458	-1.33294
2565.000	4.51991	-2.00227	6.17194	-1.33089
2566.000	4.47472	-1.94296	6.17976	-1.29727
2567.000	4.44132	-2.00446	6.16608	-1.32102
2568.000	4.42756	-1.99459	6.15045	-1.35664
2569.000	4.49634	-2.03601	6.12308	-1.34881
2570.000	4.45704	-2.01036	6.10158	-1.30734
2571.000	4.51009	-2.00626	6.14654	-1.36852
2572.000	4.50223	-1.92704	6.15045	-1.30129
2573.000	4.46097	-1.95885	6.18367	-1.35063
2574.000	4.51009	-1.98447	6.19148	-1.33677
2575.000	4.46293	-1.97073	6.14263	-1.38829
2576.000	4.43739	-2.03023	6.18171	-1.35656
2577.000	4.51009	-1.98248	6.17781	-1.33483
2578.000	4.38432	-1.96697	6.12895	-1.30727
2579.000	4.41184	-1.90746	6.16999	-1.34869
2580.000	4.54349	-1.89721	6.13286	-1.33099
2581.000	4.52384	-1.93292	6.13677	-1.30923
2582.000	4.45900	-1.98659	6.11527	-1.32312
2583.000	4.50223	-1.94883	6.12699	-1.32507
2584.000	4.49437	-1.96074	6.17781	-1.30518
2585.000	4.41184	-1.93124	6.11918	-1.35079
2586.000	4.45507	-2.02622	6.09181	-1.33505
2587.000	4.33518	-2.06220	6.04098	-1.35890
2588.000	4.15430	-2.09439	5.87670	-1.46611
2589.000	4.12676	-2.20543	5.80823	-1.57506
2590.000	3.93201	-2.31297	5.68884	-1.81868
2591.000	3.73322	-2.38881	5.56353	-2.03465
2592.000	3.51859	-2.55389	5.36566	-2.15005
2593.000	3.21912	-2.66765	5.26178	-2.30470
2594.000	3.10481	-2.79480	5.10491	-2.49715
2595.000	2.88793	-2.83499	4.98132	-2.53718
2596.000	2.66308	-3.07733	4.86554	-2.60093
2597.000	2.55852	-3.21431	4.73204	-2.72608
2598.000	2.47564	-3.27197	4.75168	-2.90202
2599.000	2.44604	-3.47408	4.66920	-2.91819
2600.000	2.32565	-3.52587	4.70062	-2.98332
2601.000	2.47959	-3.61853	4.73990	-3.02071
2602.000	2.49340	-3.62839	4.76149	-3.07004
2603.000	2.52497	-3.66393	4.72615	-3.06625
2604.000	2.63743	-3.62402	4.76935	-2.97709
2605.000	2.64533	-3.63390	4.72419	-2.95751
2606.000	2.82877	-3.53834	4.75168	-2.90993
2607.000	2.87215	-3.50851	4.70259	-2.78356
2608.000	2.86427	-3.49468	4.69866	-2.91411
2609.000	2.91948	-3.42127	4.66135	-2.79361
2610.000	2.86427	-3.43133	4.60635	-2.79976
2611.000	2.89976	-3.32628	4.55528	-2.79007
2612.000	2.88990	-3.37384	4.58867	-2.77609
2613.000	2.89187	-3.37779	4.52581	-2.81393
2614.000	2.88201	-3.36792	4.53956	-2.79211
2615.000	2.85638	-3.25908	4.57689	-2.72470
2616.000	2.87018	-3.28478	4.59260	-2.70287
2617.000	2.95892	-3.19739	4.63385	-2.61368
2618.000	3.01807	-3.20118	4.66724	-2.59574
2619.000	2.94906	-3.18949	4.65938	-2.54036
2620.000	2.92737	-3.20540	4.74579	-2.47871
2621.000	3.10678	-3.06623	4.74382	-2.50246
2622.000	3.10481	-3.08605	4.72615	-2.38972
2623.000	3.15014	-3.02451	4.72026	-2.39567
2624.000	3.14620	-2.98490	4.75757	-2.49054
2625.000	3.06932	-3.02078	4.71437	-2.42538
2626.000	3.15408	-3.01459	4.70651	-2.46895
2627.000	3.01018	-3.08037	4.67509	-2.45125
2628.000	3.07129	-3.01681	4.67902	-2.49082
2629.000	2.98849	-3.09232	4.63974	-2.56418
2630.000	2.97863	-3.10027	4.64956	-2.60570
2631.000	2.99046	-3.13986	4.62403	-2.63548
2632.000	2.90173	-3.25103	4.60832	-2.63554
2633.000	2.95103	-3.16176	4.64760	-2.70860
2634.000	2.86032	-3.24718	4.64760	-2.66507
2635.000	2.82680	-3.23143	4.64367	-2.71653
2636.000	2.94906	-3.23108	4.70455	-2.75190
2637.000	2.84257	-3.22545	4.64760	-2.69871
2638.000	2.88596	-3.19957	4.66920	-2.77182
2639.000	2.85441	-3.24522	4.66527	-2.77975
2640.000	2.89779	-3.28074	4.67509	-2.77180
2641.000	2.85441	-3.25908	4.64956	-2.71453
2642.000	2.88399	-3.18373	4.66527	-2.68083
2643.000	2.93723	-3.29251	4.60439	-2.67117
2644.000	2.91948	-3.31039	4.66331	-2.73624
2645.000	2.87018	-3.22735	4.62796	-2.67504
2646.000	2.88201	-3.24910	4.63581	-2.69677
2647.000	2.87413	-3.21149	4.59064	-2.66726
2648.000	2.88793	-3.29860	4.62403	-2.73243
2649.000	2.84060	-3.27299	4.60242	-2.72460
2650.000	2.86427	-3.24717	4.64760	-2.67496
2651.000	2.88201	-3.26098	4.60832	-2.70281
2652.000	2.96089	-3.21917	4.64563	-2.69871
2653.000	2.88201	-3.20553	4.63974	-2.64531
2654.000	2.96089	-3.22907	4.68491	-2.66295
2655.000	2.91159	-3.19752	4.66724	-2.66697
2656.000	2.87807	-3.16196	4.62992	-2.66514
2657.000	2.97666	-3.17357	4.64956	-2.70266
2658.000	2.90568	-3.29260	4.61224	-2.69290
2659.000	2.99244	-3.21908	4.57885	-2.69303
2660.000	2.94117	-3.17367	4.64956	-2.68881
2661.000	2.95497	-3.22513	4.63581	-2.64335
2662.000	2.91751	-3.28069	4.63581	-2.65324
2663.000	2.85243	-3.22146	4.67117	-2.70851
2664.000	2.93526	-3.22518	4.62796	-2.66514
2665.000	2.96878	-3.16765	4.60635	-2.66325
2666.000	2.91751	-3.20741	4.63778	-2.70072
2667.000	2.97469	-3.18942	4.63189	-2.67107
2668.000	2.97075	-3.15576	4.63189	-2.65524
2669.000	2.96089	-3.13994	4.60439	-2.63357
2670.000	2.88596	-3.28474	4.60832	-2.62762
2671.000	3.03384	-3.22291	4.60046	-2.62369
2672.000	2.97075	-3.25281	4.57885	-2.66731
2673.000	2.95300	-3.21325	4.59849	-2.62766
2674.000	2.92737	-3.18757	4.60832	-2.69886
2675.000	2.88004	-3.14413	4.60242	-2.65139
2676.000	2.89385	-3.18569	4.65349	-2.63933
2677.000	2.92145	-3.27671	4.65742	-2.68284
2678.000	2.98455	-3.19533	4.58082	-2.73062
2679.000	2.96483	-3.21321	4.61421	-2.67311
2680.000	2.92540	-3.24106	4.70259	-2.64903
2681.000	2.91751	-3.26682	4.66724	-2.64323
2682.000	3.01215	-3.18139	4.63974	-2.69874
2683.000	2.98652	-3.17552	4.61421	-2.67311
2684.000	2.88990	-3.25700	4.65349	-2.71055
2685.000	3.01215	-3.22496	4.63974	-2.69280
2686.000	2.94117	-3.23111	4.64563	-2.66706
2687.000	2.91751	-3.21335	4.62599	-2.61173
2688.000	2.95695	-3.18155	4.63974	-2.69676
2689.000	2.94314	-3.16772	4.62403	-2.67307
2690.000	2.98061	-3.16563	4.66135	-2.68678
2691.000	2.95892	-3.20927	4.61617	-2.63749
2692.000	2.99244	-3.23888	4.63778	-2.68489
2693.000	2.98258	-3.18147	4.61814	-2.67705
2694.000	2.95103	-3.22712	4.63581	-2.68490
2695.000	2.91751	-3.18958	4.58867	-2.64946
2696.000	2.96286	-3.21124	4.64171	-2.67696
2697.000	2.84652	-3.26703	4.62403	-2.67901
2698.000	3.00426	-3.18735	4.58278	-2.68708
2699.000	2.99244	-3.19531	4.68688	-2.67679
2700.000	2.93131	-3.22519	4.63974	-2.65323
2701.000	2.94709	-3.23703	4.62992	-2.64931
2702.000	2.92145	-3.14203	4.67313	-2.67289
2703.000	2.91751	-3.24900	4.62010	-2.67111
2704.000	2.98849	-3.23097	4.60242	-2.64150
2705.000	2.96878	-3.22509	4.63778	-2.66709
2706.000	2.90568	-3.29656	4.62010	-2.65924
2707.000	2.87215	-3.25507	4.63581	-2.63741
2708.000	2.97272	-3.18942	4.64367	-2.62749
2709.000	2.90173	-3.23122	4.65349	-2.60371
2710.000	2.93723	-3.17368	4.61814	-2.63748
2711.000	2.92934	-3.21926	4.62796	-2.65525
2712.000	2.90371	-3.19160	4.69277	-2.66292
2713.000	2.97075	-3.18745	4.62992	-2.67305
2714.000	2.91751	-3.27078	4.68099	-2.67681
2715.000	2.88596	-3.21740	4.62207	-2.66121
2716.000	2.91948	-3.20938	4.63974	-2.67499
2717.000	2.95497	-3.24097	4.61617	-2.67310
2718.000	2.94117	-3.21922	4.59457	-2.65142
2719.000	2.88399	-3.16393	4.56117	-2.64363
2720.000	2.93526	-3.20538	4.59457	-2.65340
2721.000	2.85638	-3.13231	4.61224	-2.62761
2722.000	2.90962	-3.16584	4.62599	-2.70275
2723.000	2.96680	-3.23895	4.63385	-2.64731
2724.000	2.86427	-3.21746	4.64171	-2.62948
2725.000	2.96286	-3.15380	4.63385	-2.58795
2726.000	3.00032	-3.16360	4.61421	-2.63354
2727.000	2.90568	-3.15000	4.59849	-2.58214
2728.000	2.90568	-3.22131	4.61421	-2.63749
2729.000	2.91948	-3.20146	4.59653	-2.60985
2730.000	2.96680	-3.21717	4.64171	-2.58396
2731.000	2.95892	-3.17956	4.62010	-2.61966
2732.000	2.98258	-3.25277	4.61617	-2.59395
2733.000	2.93723	-3.25488	4.63385	-2.59982
2734.000	3.04961	-3.17138	4.63581	-2.55232
2735.000	2.95103	-3.18553	4.62796	-2.55433
2736.000	2.95892	-3.16570	4.61421	-2.55240
2737.000	2.92934	-3.16974	4.66135	-2.57796
2738.000	2.90568	-3.16387	4.59653	-2.61381
2739.000	2.93131	-3.16974	4.65545	-2.54038
2740.000	2.90765	-3.17971	4.58082	-2.56242
2741.000	2.90568	-3.19160	4.60439	-2.57618
2742.000	2.92540	-3.16777	4.66920	-2.58980
2743.000	2.85046	-3.16006	4.68884	-2.59764
2744.000	2.85441	-3.21551	4.61028	-2.57220
2745.000	2.84060	-3.15018	4.66135	-2.60566
2746.000	2.85638	-3.22937	4.60635	-2.59597
2747.000	2.86624	-3.15803	4.64367	-2.58791
2748.000	2.91159	-3.18564	4.57885	-2.60596
2749.000	2.80116	-3.16415	4.68295	-2.62537
2750.000	2.83074	-3.17794	4.69277	-2.70842
2751.000	2.89582	-3.21143	4.73597	-2.60142
2752.000	2.97469	-3.28052	4.78702	-2.73970
2753.000	2.96878	-3.37954	4.88713	-2.85597
2754.000	3.14029	-3.43838	5.03037	-2.97395
2755.000	3.25657	-3.63388	5.06568	-3.12792
2756.000	3.40040	-3.73817	5.25786	-3.32446
2757.000	3.47723	-3.89801	5.39701	-3.51711
2758.000	3.62690	-4.22926	5.55961	-3.65817
2759.000	3.66628	-4.47581	5.67122	-3.85065
2760.000	3.72141	-4.61363	5.78083	-4.08629
2761.000	3.73125	-4.86989	5.79061	-4.37165
2762.000	3.77259	-5.06472	5.83953	-4.59945
2763.000	3.77456	-5.15333	5.82388	-4.77651
2764.000	3.72731	-5.32488	5.76713	-5.02653
2765.000	3.71353	-5.58662	5.65947	-5.15122
2766.000	3.69581	-5.60246	5.66535	-5.21989
2767.000	3.72141	-5.73205	5.61248	-5.18698
2768.000	3.68794	-5.83641	5.61836	-5.30473
2769.000	3.74700	-5.91657	5.54786	-5.27002
2770.000	3.77653	-5.98117	5.47930	-5.30597
2771.000	3.82770	-5.95922	5.48518	-5.35893
2772.000	3.83754	-5.93166	5.45775	-5.32383
2773.000	3.94184	-5.97609	5.46167	-5.38662
2774.000	3.86707	-5.95895	5.45775	-5.37880
2775.000	3.90052	-5.90766	5.45188	-5.30818
2776.000	3.93004	-6.02721	5.46559	-5.38658
2777.000	3.97333	-6.00335	5.49106	-5.34317
2778.000	3.90249	-6.01171	5.51652	-5.38809
2779.000	3.99890	-6.00512	5.51456	-5.35866
2780.000	3.98906	-6.00127	5.48518	-5.36482
2781.000	4.09726	-6.03776	5.49106	-5.35887
2782.000	4.04415	-5.96946	5.52436	-5.38213
2783.000	4.09529	-6.01815	5.55569	-5.35437
2784.000	4.13266	-5.92562	5.60857	-5.36763
2785.000	4.17789	-5.95276	5.58311	-5.36589
2786.000	4.22902	-5.94060	5.65556	-5.32402
2787.000	4.23885	-5.85219	5.58507	-5.26576
2788.000	4.21526	-5.74436	5.62032	-5.19476
2789.000	4.27031	-5.74591	5.62227	-5.12994
2790.000	4.23295	-5.71476	5.62815	-5.12596
2791.000	4.28604	-5.62204	5.62815	-4.99238
2792.000	4.23492	-5.62634	5.60857	-5.08096
2793.000	4.23492	-5.60669	5.59290	-4.99464
2794.000	4.22509	-5.55566	5.51848	-4.99724
2795.000	4.25458	-5.53776	5.51064	-4.98551
2796.000	4.18576	-5.58346	5.48322	-4.98181
2797.000	4.16020	-5.61705	5.50869	-4.98160
2798.000	4.17593	-5.56387	5.44796	-4.99193
2799.000	4.13266	-5.65851	5.46951	-5.07036
2800.000	4.08152	-5.66673	5.41465	-5.03937
2801.000	4.16020	-5.68779	5.47343	-5.05657
2802.000	4.09136	-5.75115	5.47930	-5.15672
2803.000	4.15233	-5.77821	5.45384	-5.16872
2804.000	4.18576	-5.84473	5.49106	-5.16054
2805.000	4.20936	-5.93682	5.46755	-5.19217
2806.000	4.22116	-5.90729	5.49497	-5.22532
2807.000	4.19953	-5.91923	5.48910	-5.19395
2808.000	4.16413	-5.93324	5.51848	-5.27421
2809.000	4.23099	-5.92881	5.48714	-5.28627
2810.000	4.23492	-5.91896	5.52631	-5.30948
2811.000	4.19559	-5.98600	5.53415	-5.26622
2812.000	4.12283	-6.01010	5.50281	-5.27042
2813.000	4.14250	-5.99817	5.49497	-5.29602
2814.000	4.16413	-5.95679	5.47930	-5.32953
2815.000	4.21526	-5.99958	5.49106	-5.26660
2816.000	4.18773	-5.97624	5.47538	-5.21371
2817.000	4.14840	-6.02168	5.51652	-5.23103
2818.000	4.12283	-5.98654	5.52240	-5.24079
2819.000	4.12283	-5.95121	5.52631	-5.29181
2820.000	4.14840	-6.00794	5.55373	-5.31120
2821.000	4.20149	-6.04090	5.57724	-5.25209
2822.000	4.18183	-5.99003	5.58899	-5.32462
2823.000	4.16806	-6.05489	5.57136	-5.29141
2824.000	4.22705	-5.94454	5.55765	-5.31902
2825.000	4.23099	-6.04459	5.54394	-5.24846
2826.000	4.22312	-5.97597	5.52240	-5.32915
2827.000	4.13463	-6.04925	5.51652	-5.24085
2828.000	4.11496	-6.07295	5.51652	-5.35865
2829.000	4.11299	-6.01998	5.53807	-5.27993
2830.000	4.15036	-5.98241	5.51064	-5.26053
2831.000	4.17003	-5.99797	5.53219	-5.24856
2832.000	4.19559	-5.99385	5.56744	-5.23451
2833.000	4.10906	-5.93757	5.53807	-5.24655
2834.000	4.13660	-6.01588	5.60073	-5.25384
2835.000	4.20149	-6.03501	5.57528	-5.21087
2836.000	4.21919	-5.99170	5.54394	-5.23275
2837.000	4.22902	-5.96415	5.58311	-5.21277
2838.000	4.25261	-5.87957	5.55569	-5.24050
2839.000	4.23492	-5.97588	5.58115	-5.25402
2840.000	4.21919	-6.00544	5.60269	-5.29702
2841.000	4.15233	-5.99221	5.59486	-5.30298
2842.000	4.22312	-6.04858	5.59094	-5.23822
2843.000	4.18773	-6.00961	5.62423	-5.27523
2844.000	4.19363	-5.96835	5.57528	-5.21873
2845.000	4.13463	-5.95505	5.57919	-5.23047
2846.000	4.23295	-5.90916	5.61640	-5.23211
2847.000	4.16806	-5.99209	5.54786	-5.21701
2848.000	4.18773	-6.06062	5.64381	-5.22008
2849.000	4.17396	-6.06269	5.54786	-5.24646
2850.000	4.16806	-5.99406	5.57136	-5.22858
2851.000	4.17396	-5.99794	5.60661	-5.20274
2852.000	4.14446	-5.92357	5.58899	-5.20093
2853.000	4.16216	-5.98821	5.58115	-5.23635
2854.000	4.19953	-5.95849	5.63794	-5.25744
2855.000	4.18576	-5.97822	5.60073	-5.20868
2856.000	4.18379	-6.04299	5.63011	-5.23984
2857.000	4.19953	-5.95064	5.59290	-5.18126
2858.000	4.11496	-6.05137	5.61248	-5.18894
2859.000	4.18576	-5.96448	5.64968	-5.24751
2860.000	4.18379	-6.02141	5.61053	-5.23609
2861.000	4.23295	-6.01122	5.59682	-5.19694
2862.000	4.23492	-5.96215	5.57919	-5.17942
2863.000	4.23295	-6.07008	5.59878	-5.18121
2864.000	4.18576	-5.94878	5.57136	-5.23447
2865.000	4.18773	-5.92325	5.60269	-5.21063
2866.000	4.19559	-5.97030	5.56744	-5.23058
2867.000	4.13070	-5.97275	5.57919	-5.23637
2868.000	4.11299	-5.98466	5.58115	-5.25402
2869.000	4.14840	-5.96476	5.60465	-5.20079
2870.000	4.19756	-6.01738	5.63990	-5.29864
2871.000	4.14643	-6.07467	5.59094	-5.21663
2872.000	4.24082	-6.05433	5.58311	-5.22455
2873.000	4.16020	-5.96860	5.59290	-5.20679
2874.000	4.24082	-6.03078	5.64185	-5.22010
2875.000	4.12873	-6.05519	5.61836	-5.29295
2876.000	4.18183	-6.03712	5.59486	-5.25586
2877.000	4.17789	-5.96454	5.53023	-5.25054
2878.000	4.23885	-5.96997	5.58115	-5.25206
2879.000	4.20346	-5.95061	5.59878	-5.23423
2880.000	4.16610	-5.95089	5.60073	-5.28526
2881.000	4.16610	-5.95285	5.56744	-5.22272
2882.000	4.20739	-6.01142	5.57136	-5.25607
2883.000	4.20739	-5.97021	5.63206	-5.23000
2884.000	4.21919	-5.98189	5.58115	-5.21475
2885.000	4.26441	-5.98351	5.61248	-5.28908
2886.000	4.19756	-6.00953	5.55569	-5.25425
2887.000	4.20346	-6.07031	5.52631	-5.21719
2888.000	4.19953	-6.02129	5.57528	-5.27174
2889.000	4.25065	-5.96987	5.54590	-5.20328
2890.000	4.20346	-6.04284	5.60857	-5.29304
2891.000	4.20936	-6.03887	5.56744	-5.26592
2892.000	4.12676	-6.00025	5.58703	-5.28538
2893.000	4.14840	-5.96280	5.57919	-5.27563
2894.000	4.15823	-6.04123	5.61248	-5.24785
2895.000	4.22705	-5.96024	5.53807	-5.28385
2896.000	4.14840	-5.98439	5.55373	-5.25034
2897.000	4.14053	-6.00800	5.57919	-5.26189
2898.000	4.18773	-5.97624	5.57919	-5.24815
2899.000	4.19953	-6.01933	5.56744	-5.24825
2900.000	4.23295	-5.97394	5.60661	-5.22630
2901.000	4.19953	-6.03502	5.65947	-5.25332
2902.000	4.18773	-5.98213	5.57528	-5.27174
2903.000	4.21526	-5.89163	5.61640	-5.27530
2904.000	4.12086	-5.94338	5.58507	-5.16169
2905.000	4.17593	-5.99203	5.58899	-5.30107
2906.000	4.23492	-5.98766	5.63206	-5.23197
2907.000	4.16020	-5.99215	5.54394	-5.21900
2908.000	4.13856	-6.02175	5.58311	-5.23044
2909.000	4.17986	-5.98023	5.60465	-5.27148
2910.000	4.13266	-6.00217	5.63206	-5.29086
2911.000	4.20542	-6.04087	5.54590	-5.20524
2912.000	4.29194	-5.97348	5.54394	-5.26809
2913.000	4.19363	-5.96050	5.58311	-5.23044
2914.000	4.19559	-5.96441	5.60465	-5.23221
2915.000	4.24672	-5.94635	5.63011	-5.28303
2916.000	4.17396	-5.97046	5.63598	-5.29083
2917.000	4.16806	-5.98032	5.62815	-5.25164
2918.000	4.16216	-5.97055	5.62423	-5.26934
2919.000	4.23492	-5.95429	5.66730	-5.22772
2920.000	4.21919	-6.04468	5.56549	-5.19525
2921.000	4.11496	-6.00819	5.57332	-5.19714
2922.000	4.18576	-6.01551	5.60073	-5.24795
2923.000	4.20346	-6.03892	5.55569	-5.23265
2924.000	4.20346	-6.00164	5.55765	-5.24048
2925.000	4.17396	-5.99990	5.60073	-5.20868
2926.000	4.17593	-6.07052	5.61248	-5.23607
2927.000	4.18379	-5.97235	5.54786	-5.19344
2928.000	4.18576	-5.99196	5.55373	-5.25230
2929.000	4.16413	-6.00586	5.60073	-5.25188
2930.000	4.17396	-6.00775	5.55961	-5.26010
2931.000	4.24672	-6.07194	5.60269	-5.30094
2932.000	4.16020	-6.03533	5.60661	-5.25968
2933.000	4.23492	-6.04652	5.58507	-5.21668
2934.000	4.16806	-6.05292	5.57332	-5.21482
2935.000	4.16020	-5.98626	5.57332	-5.22071
2936.000	4.19559	-6.05860	5.62423	-5.25952
2937.000	4.17593	-6.05090	5.59094	-5.24411
2938.000	4.22509	-6.02894	5.58311	-5.21080
2939.000	4.20149	-5.98399	5.63598	-5.20248
2940.000	4.14250	-6.02761	5.61836	-5.22620
2941.000	4.25458	-5.96199	5.60465	-5.19883
2942.000	4.22705	-5.99361	5.57919	-5.24226
2943.000	4.17199	-6.02346	5.54198	-5.17778
2944.000	4.24868	-5.96596	5.58115	-5.18529
2945.000	4.22705	-5.97006	5.59682	-5.22443
2946.000	4.22705	-5.96809	5.58115	-5.22260
2947.000	4.17199	-5.99403	5.64381	-5.26131
2948.000	4.17396	-5.90568	5.60857	-5.28519
2949.000	4.17396	-5.97635	5.59878	-5.28135
2950.000	4.22509	-6.00932	5.64773	-5.25539
2951.000	4.13856	-6.02175	5.56744	-5.27966
2952.000	4.26048	-5.92466	5.64185	-5.29077
2953.000	4.12480	-6.01793	5.61053	-5.21056
2954.000	4.16806	-6.03527	5.65752	-5.25726
2955.000	4.18183	-5.97236	5.55765	-5.21103
2956.000	4.15036	-5.95101	5.56744	-5.21487
2957.000	4.16806	-6.09020	5.60269	-5.25186
2958.000	4.26245	-6.02669	5.63794	-5.25547
2959.000	4.12283	-6.01206	5.58311	-5.21669
2960.000	4.15233	-6.06482	5.56157	-5.18743
2961.000	4.15233	-6.01576	5.59094	-5.17539
2962.000	4.21526	-6.08984	5.60073	-5.21850
2963.000	4.17199	-6.04308	5.61248	-5.23803
2964.000	4.18969	-6.01744	5.63402	-5.22017
2965.000	4.22902	-5.97985	5.60269	-5.16350
2966.000	4.12283	-6.00028	5.60465	-5.21650
2967.000	4.21132	-5.98588	5.64968	-5.20628
2968.000	4.19756	-5.88784	5.63206	-5.23393
2969.000	4.13266	-5.94329	5.63990	-5.18085
2970.000	4.21132	-5.95447	5.61640	-5.18498
2971.000	4.14840	-5.99028	5.61248	-5.22821
2972.000	4.19953	-5.90942	5.63990	-5.20245
2973.000	4.17003	-5.98030	5.59682	-5.19890
2974.000	4.23492	-5.96411	5.56940	-5.19129
2975.000	4.18183	-5.91740	5.59878	-5.14389
2976.000	4.17003	-6.00778	5.57528	-5.22462
2977.000	4.19953	-5.92316	5.60073	-5.18316
2978.000	4.23492	-5.98373	5.59682	-5.17534
2979.000	4.23885	-5.97193	5.63011	-5.19468
2980.000	4.24475	-6.05822	5.58703	-5.24219
2981.000	4.08152	-6.05162	5.60073	-5.24010
2982.000	4.24082	-6.02686	5.58899	-5.17344
2983.000	4.22312	-5.95242	5.61248	-5.20269
2984.000	4.24868	-5.97185	5.61640	-5.23603
2985.000	4.17003	-5.98423	5.60857	-5.20272
2986.000	4.21329	-5.92502	5.58703	-5.19113
2987.000	4.20346	-5.96631	5.58899	-5.19504
2988.000	4.20739	-5.91917	5.58899	-5.19897
2989.000	4.21329	-5.99371	5.62619	-5.14562
2990.000	4.28014	-5.93040	5.59878	-5.13407
2991.000	4.20936	-5.95253	5.55178	-5.20715
2992.000	4.12283	-6.00225	5.56157	-5.24634
2993.000	4.12873	-5.99239	5.55373	-5.18553
2994.000	4.17396	-5.97831	5.61248	-5.17323
2995.000	4.19363	-6.01545	5.52631	-5.23880
2996.000	4.24278	-5.97975	5.58115	-5.21475
2997.000	4.06972	-5.98694	5.55765	-5.25030
2998.000	4.19559	-6.03309	5.61640	-5.23800
2999.000	4.16610	-6.03724	5.61053	-5.25965
3000.000	4.25065	-5.87958	5.65164	-5.31228
3001.000	4.18773	-6.01745	5.57528	-5.25996
3002.000	4.25851	-5.92860	5.66143	-5.30630
3003.000	4.14250	-6.00210	5.58311	-5.34234
3004.000	4.17986	-6.01555	5.64968	-5.26126
3005.000	4.15036	-6.04129	5.60661	-5.30091
3006.000	4.11693	-6.03173	5.59878	-5.36771
3007.000	4.18379	-6.06458	5.63598	-5.31242
3008.000	4.08349	-5.98095	5.57724	-5.33454
3009.000	4.22116	-5.98384	5.61444	-5.31850
3010.000	4.19363	-5.96639	5.55569	-5.34848
3011.000	4.20739	-5.96628	5.57724	-5.40127
3012.000	4.21132	-6.00746	5.54982	-5.31909
3013.000	4.20149	-6.02127	5.58899	-5.36388
3014.000	4.18969	-5.97623	5.57332	-5.32476
3015.000	4.16413	-5.98035	5.54003	-5.43301
3016.000	4.21919	-5.99759	5.56353	-5.36804
3017.000	4.12086	-5.98852	5.58311	-5.38945
3018.000	4.16216	-5.93522	5.51848	-5.31348
3019.000	4.20542	-5.93293	5.54982	-5.32301
3020.000	4.20346	-5.96042	5.56353	-5.31504
3021.000	4.18379	-5.99394	5.62032	-5.33219
3022.000	4.19559	-5.88000	5.54590	-5.35249
3023.000	4.17593	-5.99988	5.57528	-5.35615
3024.000	4.12086	-6.00422	5.57332	-5.36795
3025.000	4.21329	-5.90539	5.56744	-5.31696
3026.000	4.21329	-5.98194	5.56940	-5.35424
3027.000	4.17986	-5.95471	5.57332	-5.30513
3028.000	4.15626	-5.99807	5.58311	-5.37178
3029.000	4.15430	-5.93724	5.51064	-5.35674
3030.000	4.23295	-5.96805	5.55178	-5.38777
3031.000	4.16806	-5.98424	5.52631	-5.37426
3032.000	4.13856	-5.99035	5.56157	-5.40731
3033.000	4.23295	-5.96805	5.50869	-5.35283
3034.000	4.12086	-6.07879	5.55569	-5.33277
3035.000	4.23492	-6.01121	5.49497	-5.27834
3036.000	4.16610	-5.93911	5.52631	-5.29377
3037.000	4.25851	-5.87953	5.52436	-5.34483
3038.000	4.13856	-6.03353	5.53415	-5.24855
3039.000	4.20149	-5.95062	5.51064	-5.20555
3040.000	4.11889	-5.95517	5.49693	-5.12710
3041.000	4.16806	-5.99209	5.50085	-5.19385
3042.000	4.15823	-5.90187	5.51652	-5.16622
3043.000	4.18576	-5.91541	5.41661	-5.08259
3044.000	4.13660	-5.95307	5.49889	-5.12512
3045.000	4.14250	-5.95696	5.49889	-5.11137
3046.000	4.12480	-5.95513	5.41857	-5.12187
3047.000	4.07956	-6.01631	5.45775	-5.09993
3048.000	4.14446	-5.86860	5.48126	-5.09973
3049.000	4.21132	-5.86810	5.48126	-5.09383
3050.000	4.13266	-6.01983	5.44012	-5.09025
3051.000	4.13660	-5.89614	5.47147	-5.06248
3052.000	4.19756	-5.86231	5.48518	-5.10166
3053.000	4.13856	-5.89024	5.41465	-5.10422
3054.000	4.14053	-5.90789	5.48322	-5.12329
3055.000	4.14643	-5.90981	5.44796	-5.07643
3056.000	4.10316	-5.93958	5.42837	-5.04712
3057.000	4.18379	-5.96253	5.44796	-5.08822
3058.000	4.13856	-5.93932	5.43620	-5.01758
3059.000	4.20149	-5.92707	5.45384	-5.06066
3060.000	4.20936	-5.91327	5.47734	-5.05261
3061.000	4.13266	-6.02180	5.42445	-5.11986
3062.000	4.12873	-5.86282	5.45775	-5.02526
3063.000	4.11496	-5.91397	5.47343	-5.06639
3064.000	4.13070	-6.00415	5.45384	-5.06459
3065.000	4.13266	-5.88832	5.54590	-5.10310
3066.000	4.20542	-5.83084	5.44208	-5.07059
3067.000	4.12480	-5.90408	5.48910	-5.07215
3068.000	4.15430	-5.91565	5.53023	-5.11306
3069.000	4.20149	-5.87996	5.48714	-5.17040
3070.000	4.14840	-5.89409	5.48714	-5.10361
3071.000	4.13856	-5.86079	5.45775	-5.20011
3072.000	4.15626	-5.93722	5.45971	-5.23545
3073.000	4.18576	-5.94682	5.51064	-5.15645
3074.000	4.22116	-5.88570	5.49693	-5.13103
3075.000	4.16806	-5.93910	5.46363	-5.15096
3076.000	4.15823	-5.94899	5.48714	-5.22146
3077.000	4.15626	-5.94900	5.50085	-5.17224
3078.000	4.19166	-5.93500	5.50673	-5.24486
3079.000	4.13856	-5.89809	5.48910	-5.21359
3080.000	4.19166	-5.82898	5.54394	-5.22490
3081.000	4.20936	-5.92897	5.50281	-5.24489
3082.000	4.20149	-5.82105	5.51064	-5.18394
3083.000	4.16020	-5.92542	5.52044	-5.22117
3084.000	4.19953	-5.86230	5.51848	-5.22119
3085.000	4.25851	-5.83633	5.51652	-5.23495
3086.000	4.21526	-5.91126	5.50869	-5.29982
3087.000	4.15036	-5.89801	5.49889	-5.22529
3088.000	4.14840	-5.92943	5.47147	-5.22946
3089.000	4.20739	-5.89562	5.50085	-5.24098
3090.000	4.14446	-5.88627	5.50673	-5.21344
3091.000	4.22509	-5.92297	5.46951	-5.27268
3092.000	4.18576	-5.86829	5.50281	-5.20365
3093.000	4.18576	-5.88400	5.48322	-5.24899
3094.000	4.22705	-5.87780	5.50673	-5.18594
3095.000	4.13463	-5.90009	5.49497	-5.26067
3096.000	4.18379	-5.92131	5.51064	-5.21144
3097.000	4.07956	-5.90049	5.49302	-5.17231
3098.000	4.11889	-5.91002	5.48910	-5.25876
3099.000	4.09529	-5.89841	5.49302	-5.21552
3100.000	4.12873	-5.95902	5.48910	-5.19395
3101.000	4.10316	-5.90424	5.51260	-5.16625
3102.000	4.16020	-5.88615	5.49302	-5.23909
3103.000	4.14840	-5.90195	5.43424	-5.17675
3104.000	4.21132	-5.91522	5.50085	-5.24884
3105.000	4.23099	-5.88366	5.48910	-5.16056
3106.000	4.16020	-5.90382	5.50281	-5.18401
3107.000	4.22902	-5.84834	5.48910	-5.14877
3108.000	4.17199	-5.86250	5.51456	-5.17016
3109.000	4.13856	-5.87061	5.49693	-5.18996
3110.000	4.17593	-5.91745	5.54198	-5.14832
3111.000	4.22509	-5.86996	5.49497	-5.18801
3112.000	4.23689	-5.87773	5.47538	-5.17836
3113.000	4.20542	-5.90152	5.51064	-5.20358
3114.000	4.23885	-5.96997	5.47147	-5.21178
3115.000	4.14053	-5.84703	5.44992	-5.17465
3116.000	4.19756	-5.94477	5.44992	-5.21393
3117.000	4.18379	-5.84867	5.49106	-5.20375
3118.000	4.18183	-5.86047	5.45579	-5.26494
3119.000	4.17986	-5.86834	5.47734	-5.22351
3120.000	4.24278	-5.84431	5.45384	-5.15301
3121.000	4.22312	-5.84838	5.48910	-5.20377
3122.000	4.19166	-5.88984	5.44600	-5.20022
3123.000	4.23885	-5.81292	5.49302	-5.19981
3124.000	4.23885	-5.81685	5.48910	-5.21163
3125.000	4.19953	-5.81517	5.51064	-5.15448
3126.000	4.17593	-5.85462	5.48322	-5.17829
3127.000	4.15430	-5.80372	5.48126	-5.16848
3128.000	4.18969	-5.82310	5.51064	-5.15841
3129.000	4.23099	-5.75995	5.52631	-5.19363
3130.000	4.17199	-5.78395	5.55765	-5.20906
3131.000	4.17396	-5.79180	5.57332	-5.17161
3132.000	4.14643	-5.82735	5.53415	-5.17785
3133.000	4.15036	-5.84499	5.52044	-5.16815
3134.000	4.22116	-5.83072	5.54003	-5.09726
3135.000	4.21722	-5.90143	5.55569	-5.14034
3136.000	4.26638	-5.86965	5.51652	-5.09353
3137.000	4.23885	-5.88556	5.53023	-5.07181
3138.000	4.13266	-5.83334	5.47930	-5.11153
3139.000	4.16806	-5.82915	5.52827	-5.12290
3140.000	4.18183	-5.83494	5.51064	-5.00320
3141.000	4.20542	-5.81906	5.49693	-4.99938
3142.000	4.17003	-5.83699	5.51064	-5.04053
3143.000	4.20936	-5.78761	5.45188	-5.01155
3144.000	4.18379	-5.81333	5.47147	-4.95242
3145.000	4.17199	-5.77806	5.53219	-4.95782
3146.000	4.17789	-5.86442	5.47343	-4.91506
3147.000	4.09136	-5.79240	5.48714	-4.99750
3148.000	4.17593	-5.76429	5.49106	-5.00926
3149.000	4.12873	-5.83140	5.52240	-4.98541
3150.000	4.13856	-5.87453	5.49106	-4.95030
3151.000	4.18183	-5.91937	5.48714	-5.00339
3152.000	4.22509	-5.85426	5.51456	-4.99727
3153.000	4.21919	-5.88375	5.51652	-5.02673
3154.000	4.15823	-5.88617	5.45775	-5.04884
3155.000	4.19559	-5.91141	5.45384	-5.07049
3156.000	4.15233	-5.90781	5.46363	-5.03896
3157.000	4.12676	-5.96296	5.48322	-5.03880
3158.000	4.09726	-5.95140	5.48714	-5.07414
3159.000	4.08742	-5.93184	5.47734	-5.07815
3160.000	4.09136	-5.94556	5.44404	-5.09022
3161.000	4.15430	-5.91957	5.44600	-5.10396
3162.000	4.15036	-5.98830	5.48714	-5.13700
3163.000	4.13463	-5.92561	5.49106	-5.07607
3164.000	4.12676	-5.93941	5.47734	-5.10762
3165.000	4.17003	-5.94694	5.48518	-5.01324
3166.000	4.11496	-5.95520	5.47147	-5.06051
3167.000	4.13070	-5.94723	5.51652	-5.11318
3168.000	4.12283	-5.90999	5.48714	-5.05449
3169.000	4.17789	-5.87817	5.45579	-5.00366
3170.000	4.16610	-5.92734	5.50085	-5.04455
3171.000	4.13660	-5.93344	5.49693	-5.05833
3172.000	4.18379	-5.95468	5.50673	-5.01895
3173.000	4.14446	-5.97068	5.44012	-5.05292
3174.000	4.13266	-5.90206	5.45971	-5.09795
3175.000	4.24475	-5.87767	5.49693	-5.05833
3176.000	4.15036	-5.97064	5.48322	-5.07417
3177.000	4.20936	-5.84652	5.49889	-5.04063
3178.000	4.13266	-5.86083	5.46167	-5.01343
3179.000	4.22116	-5.81698	5.47343	-4.97599
3180.000	4.11103	-5.82564	5.49497	-5.02102
3181.000	4.15823	-5.88028	5.47147	-5.03104
3182.000	4.16610	-5.87237	5.49889	-5.01312
3183.000	4.16610	-5.79578	5.50085	-4.97970
3184.000	4.17003	-5.85663	5.42641	-4.97835
3185.000	4.12086	-5.89430	5.47147	-4.94260
3186.000	4.11496	-5.86292	5.47930	-4.97005
3187.000	4.16020	-5.88223	5.47538	-5.01921
3188.000	4.20542	-5.83084	5.44992	-5.03908
3189.000	4.21329	-5.82882	5.50673	-5.04450
3190.000	4.24278	-5.84038	5.47538	-5.03101
3191.000	4.23295	-5.85420	5.46755	-5.00552
3192.000	4.24278	-5.91302	5.46559	-5.11558
3193.000	4.20149	-5.87603	5.50085	-5.09563
3194.000	4.21329	-5.90146	5.51848	-5.04047
3195.000	4.15036	-5.93531	5.49693	-5.07602
3196.000	4.07956	-5.87300	5.47930	-4.99953
3197.000	4.11693	-5.84916	5.48126	-5.10955
3198.000	4.14053	-5.90593	5.50477	-5.10542
3199.000	4.18183	-5.95470	5.45971	-5.08616
3200.000	4.09923	-5.87089	5.49106	-5.05249
3201.000	4.21329	-5.89165	5.46559	-5.09986
3202.000	4.07956	-5.95546	5.45384	-5.12747
3203.000	4.13266	-5.89617	5.48910	-5.07805
3204.000	4.10119	-5.90622	5.46559	-5.07235
3205.000	4.15036	-5.89408	5.47538	-5.07817
3206.000	4.15233	-5.93529	5.49889	-5.08975
3207.000	4.11889	-5.92376	5.46755	-5.04286
3208.000	4.18773	-5.90165	5.45971	-5.09205
3209.000	4.22509	-5.81302	5.48910	-5.10556
3210.000	4.16610	-5.89985	5.49889	-5.08779
3211.000	4.13070	-5.87066	5.45188	-5.04692
3212.000	4.14840	-5.82733	5.46167	-4.99968
3213.000	4.18183	-5.90562	5.49302	-5.02693
3214.000	4.16413	-5.89987	5.48714	-5.07807
3215.000	4.18183	-5.82316	5.47734	-5.08011
3216.000	4.13856	-5.80187	5.48126	-5.06043
3217.000	4.13070	-5.79997	5.48518	-5.07415
3218.000	4.16610	-5.80364	5.49106	-5.00926
3219.000	4.15823	-5.78209	5.44208	-5.00180
3220.000	4.10513	-5.81979	5.46755	-4.97801
3221.000	4.18576	-5.81331	5.45384	-4.94864
3222.000	4.14250	-5.85487	5.47734	-4.95631
3223.000	4.17986	-5.80943	5.51064	-4.99534
3224.000	4.12283	-5.84127	5.47930	-4.99363
3225.000	4.05202	-5.89087	5.42445	-4.97050
3226.000	4.11889	-5.80595	5.45384	-4.97026
3227.000	4.10513	-5.80212	5.45579	-4.95648
3228.000	4.17986	-5.87815	5.42445	-4.91742
3229.000	4.16806	-5.80951	5.37546	-4.94338
3230.000	4.06382	-5.84169	5.42249	-4.88205
3231.000	4.07366	-5.83377	5.44404	-4.87991
3232.000	4.17003	-5.87430	5.46363	-4.95445
3233.000	4.12480	-5.77251	5.43424	-4.91341
3234.000	4.14840	-5.85286	5.43816	-4.89372
3235.000	4.17003	-5.78593	5.44012	-4.91533
3236.000	4.10119	-5.76286	5.48322	-5.00146
3237.000	4.14840	-5.75466	5.49302	-4.92080
3238.000	4.15036	-5.83125	5.48910	-4.92279
3239.000	4.14840	-5.78216	5.48714	-4.94443
3240.000	4.16806	-5.75059	5.43816	-4.93107
3241.000	4.11103	-5.78047	5.45579	-4.92110
3242.000	4.15626	-5.81549	5.48910	-4.90510
3243.000	4.11299	-5.73528	5.47734	-4.93272
3244.000	4.11693	-5.83542	5.45971	-4.88175
3245.000	4.19953	-5.66393	5.48322	-4.91105
3246.000	4.14053	-5.79204	5.42249	-4.93710
3247.000	4.08742	-5.81992	5.46363	-4.94266
3248.000	4.13660	-5.83331	5.47147	-4.96029
3249.000	4.15823	-5.78209	5.52044	-4.97167
3250.000	4.10119	-5.76090	5.48714	-4.96212
3251.000	4.13266	-5.73513	5.44600	-4.97622
3252.000	4.05202	-5.76125	5.40485	-4.97263
3253.000	3.93988	-5.64805	5.36566	-4.96115
3254.000	3.75094	-5.64143	5.20688	-4.88178
3255.000	3.51465	-5.42651	5.09706	-4.91410
3256.000	3.24474	-5.38863	4.86161	-4.82335
3257.000	2.94906	-5.23255	4.62403	-4.65957
3258.000	2.70451	-4.94382	4.30963	-4.39542
3259.000	2.41052	-4.64494	3.92807	-4.19226
3260.000	2.02756	-4.43671	3.61706	-4.03771
3261.000	1.64441	-4.14894	3.32356	-3.80175
3262.000	1.21172	-3.91618	2.95300	-3.52608
3263.000	0.82435	-3.57002	2.63941	-3.17052
3264.000	0.42505	-3.30467	2.31973	-2.95523
3265.000	0.15223	-3.12230	2.11838	-2.66211
3266.000	-0.15025	-2.83858	1.83798	-2.42640
3267.000	-0.37958	-2.65593	1.69577	-2.29556
3268.000	-0.61482	-2.48311	1.51996	-2.08328
3269.000	-0.75912	-2.39765	1.32436	-2.01592
3270.000	-0.83819	-2.19106	1.31250	-1.88680
3271.000	-1.02003	-2.23265	1.22555	-1.78155
3272.000	-1.09710	-2.20479	1.01410	-1.60679
3273.000	-1.31645	-2.11921	1.04967	-1.53323
3274.000	-1.38956	-2.10922	0.96864	-1.42792
3275.000	-1.38758	-1.95826	0.87179	-1.32656
3276.000	-1.59898	-1.91834	0.76703	-1.27093
3277.000	-1.70367	-1.79111	0.62668	-1.22722
3278.000	-1.83206	-1.74132	0.51005	-0.99856
3279.000	-2.00386	-1.56235	0.38749	-0.78974
3280.000	-2.26447	-1.47866	0.20363	-0.68433
3281.000	-2.27236	-1.20646	0.12850	-0.64654
3282.000	-2.41447	-1.04142	-0.01977	-0.45159
3283.000	-2.55062	-0.85852	-0.02768	-0.31234
3284.000	-2.71831	-0.82066	-0.07117	-0.13926
3285.000	-2.72423	-0.66965	-0.18584	0.03979
3286.000	-2.62560	-0.45509	-0.25305	0.22480
3287.000	-2.69859	-0.34776	-0.30050	0.44363
3288.000	-2.67492	-0.18084	-0.29062	0.59879
3289.000	-2.54865	-0.13714	-0.25701	0.64057
3290.000	-2.51708	-0.06758	-0.23329	0.69030
3291.000	-2.53681	-0.00795	-0.21352	0.79373
3292.000	-2.42236	-0.03777	-0.22538	0.77981
3293.000	-2.40657	-0.01789	-0.08501	0.73804
3294.000	-2.44210	-0.01590	-0.00791	0.70025
3295.000	-2.40065	-0.00795	0.03361	0.63262
3296.000	-2.37105	-0.14113	0.13048	0.53912
3297.000	-2.41249	-0.12522	0.14827	0.49536
3298.000	-2.36908	-0.14709	0.19177	0.46353
3299.000	-2.39276	-0.24051	0.21549	0.37798
3300.000	-2.40065	-0.22262	0.24317	0.30040
3301.000	-2.33947	-0.24648	0.24910	0.32427
3302.000	-2.44802	-0.27230	0.26887	0.25663
3303.000	-2.41249	-0.25840	0.25701	0.21486
3304.000	-2.45196	-0.31205	0.22142	0.26857
3305.000	-2.45196	-0.26236	0.19572	0.25464
3306.000	-2.43223	-0.23454	0.17991	0.25464
3307.000	-2.43420	-0.26634	0.12060	0.29244
3308.000	-2.47367	-0.26236	0.13246	0.21088
3309.000	-2.53879	-0.28421	0.03756	0.37600
3310.000	-2.53089	-0.27427	-0.08699	0.32228
3311.000	-2.53879	-0.24048	-0.07315	0.37202
3312.000	-2.52497	-0.22459	-0.13048	0.40783
3313.000	-2.63743	-0.14706	-0.12455	0.39390
3314.000	-2.56246	-0.14508	-0.16211	0.36207
3315.000	-2.56049	-0.10533	-0.21154	0.43369
3316.000	-2.64927	-0.07751	-0.22142	0.47347
3317.000	-2.55654	0.00994	-0.28073	0.42175
3318.000	-2.64335	-0.07751	-0.25503	0.46949
3319.000	-2.67886	-0.12917	-0.25701	0.55702
3320.000	-2.73409	-0.02782	-0.25108	0.56697
3321.000	-2.65124	0.00397	-0.31829	0.60476
3322.000	-2.62954	-0.06558	-0.29259	0.57094
3323.000	-2.66308	0.01192	-0.32620	0.60476
3324.000	-2.75185	-0.05365	-0.31632	0.57890
3325.000	-2.72620	-0.02782	-0.32225	0.57492
3326.000	-2.70253	0.09936	-0.28469	0.60476
3327.000	-2.63152	0.01192	-0.26689	0.60476
3328.000	-2.62560	0.12322	-0.24119	0.68632
3329.000	-2.61573	0.12719	-0.34202	0.68830
3330.000	-2.62757	0.09341	-0.28469	0.64056
3331.000	-2.56641	0.06161	-0.30643	0.71615
3332.000	-2.61968	0.11924	-0.25305	0.65051
3333.000	-2.53484	0.11130	-0.28469	0.70223
3334.000	-2.50722	0.09341	-0.32027	0.67836
3335.000	-2.57233	0.07950	-0.29062	0.67239
3336.000	-2.52300	0.07751	-0.30841	0.67836
3337.000	-2.55457	0.09341	-0.30248	0.69626
3338.000	-2.61573	0.05763	-0.25305	0.66245
3339.000	-2.58417	0.08745	-0.27085	0.60476
3340.000	-2.51116	0.15701	-0.20561	0.62068
3341.000	-2.58811	0.06956	-0.26887	0.66443
3342.000	-2.52103	0.05366	-0.22538	0.66643
3343.000	-2.43420	0.05565	-0.28469	0.59680
3344.000	-2.55457	0.06559	-0.27282	0.60476
3345.000	-2.55654	0.03776	-0.26492	0.63460
3346.000	-2.49932	0.04969	-0.27282	0.58885
3347.000	-2.45394	0.05963	-0.27678	0.59083
3348.000	-2.46183	0.07950	-0.27480	0.62465
3349.000	-2.56444	0.09540	-0.30841	0.62465
3350.000	-2.50327	0.07354	-0.33806	0.59680
3351.000	-2.60784	0.07950	-0.26096	0.56895
3352.000	-2.41644	0.09342	-0.28271	0.56895
3353.000	-2.55062	0.10732	-0.28073	0.57890
3354.000	-2.53681	0.04969	-0.26689	0.54309
3355.000	-2.54668	0.05962	-0.34004	0.58089
3356.000	-2.59600	0.03180	-0.30643	0.48341
3357.000	-2.51116	0.06956	-0.34993	0.59680
3358.000	-2.48156	0.00994	-0.29457	0.57492
3359.000	-2.44999	0.15305	-0.30248	0.52718
3360.000	-2.53287	0.12521	-0.33411	0.60476
3361.000	-2.53879	0.09341	-0.29457	0.61868
3362.000	-2.45788	0.12522	-0.33609	0.52121
3363.000	-2.51511	0.04770	-0.32225	0.55304
3364.000	-2.52695	0.00199	-0.32027	0.58288
3365.000	-2.49932	0.04571	-0.33609	0.55503
3366.000	-2.53089	0.00199	-0.33411	0.58287
3367.000	-2.56049	0.02782	-0.36179	0.57492
3368.000	-2.47367	-0.05565	-0.33411	0.60476
3369.000	-2.53681	-0.00199	-0.30446	0.57094
3370.000	-2.44999	-0.01193	-0.31434	0.55503
3371.000	-2.53879	0.05764	-0.33806	0.54508
3372.000	-2.57233	-0.01391	-0.32027	0.61072
3373.000	-2.46775	0.04969	-0.32225	0.53315
3374.000	-2.49735	0.04373	-0.34399	0.60476
3375.000	-2.56444	0.04571	-0.31434	0.62067
3376.000	-2.56049	0.00596	-0.35586	0.64454
3377.000	-2.69859	0.01987	-0.31236	0.58089
3378.000	-2.48946	0.04174	-0.29259	0.60277
3379.000	-2.53287	-0.01192	-0.30248	0.60874
3380.000	-2.50524	0.11528	-0.33806	0.65448
3381.000	-2.52103	0.08546	-0.34202	0.62465
3382.000	-2.57430	-0.03180	-0.34795	0.58088
3383.000	-2.44012	0.08746	-0.30050	0.63857
3384.000	-2.48748	0.04969	-0.34399	0.62465
3385.000	-2.52695	0.00398	-0.33213	0.65449
3386.000	-2.49340	0.08149	-0.34202	0.63857
3387.000	-2.45986	0.01988	-0.33016	0.62863
3388.000	-2.51708	0.00994	-0.33213	0.59282
3389.000	-2.48156	0.04174	-0.32620	0.60476
3390.000	-2.49932	0.08745	-0.30643	0.60277
3391.000	-2.56246	0.07950	-0.32422	0.63459
3392.000	-2.46183	0.09540	-0.31434	0.55304
3393.000	-2.58219	0.04770	-0.35586	0.59481
3394.000	-2.62757	0.04372	-0.34795	0.63260
3395.000	-2.61968	0.02782	-0.31039	0.59680
3396.000	-2.52300	0.09143	-0.34597	0.58089
3397.000	-2.56838	0.01987	-0.32620	0.61271
3398.000	-2.54865	0.11130	-0.38156	0.62464
3399.000	-2.43025	0.07752	-0.33016	0.60476
3400.000	-2.49143	-0.01988	-0.39935	0.64056
3401.000	-2.51313	0.05764	-0.29259	0.60277
3402.000	-2.47762	0.11925	-0.30248	0.58884
3403.000	-2.47564	0.02783	-0.34993	0.60277
3404.000	-2.51313	0.08149	-0.32620	0.58089
3405.000	-2.47959	0.07354	-0.30841	0.58487
3406.000	-2.43618	0.07553	-0.38156	0.57293
3407.000	-2.49735	0.05168	-0.31829	0.57293
3408.000	-2.44210	0.18286	-0.30841	0.56298
3409.000	-2.50722	0.13515	-0.35190	0.55701
3410.000	-2.55260	0.07155	-0.35783	0.56696
3411.000	-2.51313	0.10733	-0.37365	0.59282
3412.000	-2.43815	0.16299	-0.35981	0.59282
3413.000	-2.53681	0.05366	-0.43098	0.57889
3414.000	-2.53681	0.10732	-0.43691	0.62663
3415.000	-2.52695	0.06559	-0.36376	0.58685
3416.000	-2.48946	0.06559	-0.35981	0.57492
3417.000	-2.55260	0.06559	-0.34597	0.55503
3418.000	-2.45591	0.11727	-0.31434	0.56497
3419.000	-2.47564	0.07752	-0.35783	0.51723
3420.000	-2.45394	0.00994	-0.36376	0.58287
3421.000	-2.54471	0.04174	-0.35783	0.59083
3422.000	-2.47367	0.07354	-0.33806	0.56895
3423.000	-2.43025	0.12522	-0.36376	0.60276
3424.000	-2.52300	0.15304	-0.37563	0.61669
3425.000	-2.48551	0.06559	-0.36376	0.56895
3426.000	-2.47959	0.03578	-0.39342	0.63260
3427.000	-2.46578	0.15901	-0.35586	0.53911
3428.000	-2.49340	0.14310	-0.42505	0.56894
3429.000	-2.44999	0.14510	-0.40923	0.49932
3430.000	-2.42828	0.08746	-0.40528	0.57491
3431.000	-2.45986	0.15305	-0.38749	0.52916
3432.000	-2.45788	0.04571	-0.41912	0.60674
3433.000	-2.48551	0.06956	-0.39935	0.57491
3434.000	-2.41249	0.03777	-0.37365	0.50330
3435.000	-2.36118	0.05764	-0.38946	0.53314
3436.000	-2.49143	0.09938	-0.37958	0.56099
3437.000	-2.43025	0.03379	-0.43691	0.53513
3438.000	-2.40460	0.06758	-0.40330	0.52518
3439.000	-2.47762	0.03379	-0.37760	0.50728
3440.000	-2.52695	0.03578	-0.49028	0.55303
3441.000	-2.42631	0.05168	-0.41319	0.60475
3442.000	-2.42039	0.04572	-0.42505	0.53314
3443.000	-2.37302	0.09541	-0.43098	0.54110
3444.000	-2.40855	0.03379	-0.37958	0.48341
3445.000	-2.44407	0.03975	-0.44679	0.57889
3446.000	-2.40657	0.07354	-0.40528	0.55701
3447.000	-2.48946	0.06758	-0.44482	0.59878
3448.000	-2.42039	0.08149	-0.39539	0.51126
3449.000	-2.33750	0.04174	-0.37958	0.53712
3450.000	-2.46380	0.03975	-0.41121	0.55502
3451.000	-2.43815	0.08746	-0.42505	0.53314
3452.000	-2.42631	0.01391	-0.42702	0.55701
3453.000	-2.54865	-0.00199	-0.45470	0.54507
3454.000	-2.45196	0.02385	-0.43296	0.53513
3455.000	-2.40657	-0.02982	-0.40923	0.47147
3456.000	-2.45591	0.03379	-0.38551	0.54110
3457.000	-2.52695	0.06559	-0.42900	0.54706
3458.000	-2.45788	0.08348	-0.41714	0.50529
3459.000	-2.45591	0.02385	-0.40528	0.54508
3460.000	-2.40065	0.11926	-0.37958	0.55900
3461.000	-2.38289	0.02186	-0.38946	0.57491
3462.000	-2.45986	0.04174	-0.43098	0.56894
3463.000	-2.40657	0.11529	-0.37760	0.46750
3464.000	-2.42828	0.11926	-0.44679	0.55701
3465.000	-2.43815	0.11926	-0.43098	0.50330
3466.000	-2.52695	0.03379	-0.39144	0.51126
3467.000	-2.42631	0.12125	-0.40923	0.53115
3468.000	-2.43025	0.03777	-0.43098	0.51126
3469.000	-2.48748	0.10534	-0.47249	0.52120
3470.000	-2.48156	0.02584	-0.41319	0.49336
3471.000	-2.36118	0.07156	-0.42307	0.55303
3472.000	-2.46775	0.05366	-0.35783	0.53712
3473.000	-2.45788	0.01988	-0.40528	0.59083
3474.000	-2.45394	-0.00994	-0.40923	0.54309
3475.000	-2.38881	0.05367	-0.42109	0.57491
3476.000	-2.45591	0.06360	-0.41516	0.52717
3477.000	-2.34342	0.10933	-0.41912	0.50330
3478.000	-2.40657	0.07951	-0.38749	0.51524
3479.000	-2.41644	0.09541	-0.44284	0.50728
3480.000	-2.44604	0.03776	-0.40923	0.51922
3481.000	-2.44802	0.11131	-0.38156	0.53115
3482.000	-2.45591	0.06559	-0.39144	0.57094
3483.000	-2.41841	0.14112	-0.43098	0.61271
3484.000	-2.41644	0.03975	-0.49424	0.55104
3485.000	-2.44999	0.01590	-0.38551	0.51922
3486.000	-2.41249	0.02982	-0.45668	0.55303
3487.000	-2.39078	0.03578	-0.36376	0.50132
3488.000	-2.42236	-0.00795	-0.41516	0.51524
3489.000	-2.46775	0.11131	-0.37365	0.50728
3490.000	-2.38684	0.05963	-0.44482	0.53712
3491.000	-2.42631	0.03578	-0.42702	0.59083
3492.000	-2.38092	0.02982	-0.43296	0.55900
3493.000	-2.41841	0.09938	-0.38551	0.54110
3494.000	-2.34737	0.10535	-0.43098	0.55104
3495.000	-2.38684	0.05566	-0.40923	0.55104
3496.000	-2.52497	0.00795	-0.42900	0.52717
3497.000	-2.44210	0.07951	-0.48040	0.52319
3498.000	-2.40855	0.06361	-0.44086	0.55502
3499.000	-2.37697	0.11330	-0.47249	0.50330
3500.000	-2.35723	0.04969	-0.44877	0.46550
3501.000	-2.30592	0.09343	-0.42307	0.49335
3502.000	-2.36908	0.05764	-0.41714	0.49336
3503.000	-2.41249	0.06162	-0.50610	0.55700
3504.000	-2.38092	0.03777	-0.47249	0.47744
3505.000	-2.30789	0.13517	-0.43889	0.52120
3506.000	-2.34539	0.07355	-0.42702	0.53314
3507.000	-2.33552	-0.00596	-0.43098	0.55104
3508.000	-2.35723	0.09342	-0.45865	0.54109
3509.000	-2.30592	0.07554	-0.44877	0.54905
3510.000	-2.38684	0.11529	-0.47447	0.53910
3511.000	-2.34737	0.07156	-0.42702	0.57292
3512.000	-2.33355	0.10535	-0.48040	0.55502
3513.000	-2.36118	0.06361	-0.44482	0.56496
3514.000	-2.29605	0.14710	-0.46063	0.48341
3515.000	-2.36315	0.00994	-0.40923	0.50330
3516.000	-2.39276	0.05963	-0.47052	0.46948
3517.000	-2.42236	0.03180	-0.49819	0.49335
3518.000	-2.37697	0.04174	-0.43691	0.49136
3519.000	-2.29802	0.09542	-0.46459	0.51722
3520.000	-2.37697	0.01193	-0.46854	0.57491
3521.000	-2.31776	0.04771	-0.43493	0.53513
3522.000	-2.29802	0.03181	-0.48633	0.51125
3523.000	-2.28420	0.13120	-0.48435	0.50330
3524.000	-2.34934	0.04969	-0.45272	0.51523
3525.000	-2.35723	0.07156	-0.53378	0.52318
3526.000	-2.32763	0.06162	-0.48040	0.51921
3527.000	-2.34737	0.07156	-0.52191	0.52319
3528.000	-2.25460	0.03578	-0.51401	0.52120
3529.000	-2.29802	0.07355	-0.47842	0.51921
3530.000	-2.29013	0.05367	-0.50412	0.49335
3531.000	-2.32960	0.03976	-0.51005	0.55104
3532.000	-2.34737	0.14113	-0.48831	0.50926
3533.000	-2.36908	0.04969	-0.48238	0.50330
3534.000	-2.34144	0.03976	-0.44877	0.53115
3535.000	-2.39078	0.00596	-0.46656	0.55104
3536.000	-2.34144	0.11132	-0.48831	0.54109
3537.000	-2.33355	0.02783	-0.46261	0.48738
3538.000	-2.30394	0.08945	-0.49424	0.53114
3539.000	-2.29605	0.09740	-0.50017	0.50727
3540.000	-2.34539	0.08746	-0.45668	0.49932
3541.000	-2.39671	-0.01590	-0.48238	0.48539
3542.000	-2.33355	0.00795	-0.52191	0.47147
3543.000	-2.33355	0.01988	-0.49622	0.52916
3544.000	-2.27631	-0.00398	-0.50610	0.46152
3545.000	-2.28223	0.04373	-0.51598	0.43765
3546.000	-2.36908	0.02783	-0.49819	0.46550
3547.000	-2.36908	0.06560	-0.49226	0.52518
3548.000	-2.29013	0.16499	-0.53575	0.50727
3549.000	-2.30394	0.00795	-0.46063	0.46152
3550.000	-2.28618	0.04373	-0.50215	0.50727
3551.000	-2.25065	0.02187	-0.51796	0.57093
3552.000	-2.35329	-0.01193	-0.48633	0.49932
3553.000	-2.34342	0.02187	-0.52982	0.49931
3554.000	-2.32960	0.04969	-0.46656	0.48937
3555.000	-2.31579	-0.00795	-0.52389	0.50528
3556.000	-2.31579	0.06759	-0.49819	0.52319
3557.000	-2.34144	0.05168	-0.47645	0.51523
3558.000	-2.30197	0.05963	-0.47842	0.50330
3559.000	-2.30592	0.01193	-0.50215	0.49335
3560.000	-2.35723	0.04969	-0.48435	0.49136
3561.000	-2.25262	0.07952	-0.44877	0.45556
3562.000	-2.30592	0.02187	-0.45470	0.49136
3563.000	-2.27433	0.03578	-0.48435	0.47744
3564.000	-2.22893	0.06163	-0.42900	0.45158
3565.000	-2.31184	-0.03578	-0.50215	0.45158
3566.000	-2.32763	0.05566	-0.51796	0.49136
3567.000	-2.33158	-0.00795	-0.48040	0.52518
3568.000	-2.35921	0.01391	-0.50412	0.50131
3569.000	-2.30789	0.03379	-0.46063	0.43367
3570.000	-2.37302	0.04572	-0.44086	0.43964
3571.000	-2.36513	0.03180	-0.46063	0.49932
3572.000	-2.37302	0.07156	-0.48633	0.47346
3573.000	-2.31184	0.04572	-0.49424	0.55501
3574.000	-2.24473	0.07554	-0.49226	0.55700
3575.000	-2.25262	0.05964	-0.49226	0.49932
3576.000	-2.32368	0.04174	-0.54366	0.50329
3577.000	-2.29210	0.04970	-0.47447	0.49932
3578.000	-2.30592	0.04572	-0.46063	0.52319
3579.000	-2.34934	0.08349	-0.46459	0.54109
3580.000	-2.31184	0.05566	-0.50017	0.55899
3581.000	-2.26644	0.04970	-0.43889	0.45954
3582.000	-2.33947	-0.00795	-0.47447	0.51523
3583.000	-2.31973	0.04373	-0.46261	0.50131
3584.000	-2.37697	0.06758	-0.44679	0.48341
3585.000	-2.22893	0.06163	-0.50215	0.52915
3586.000	-2.30000	0.04970	-0.48435	0.51324
3587.000	-2.33750	0.03976	-0.47645	0.47744
3588.000	-2.31381	0.12126	-0.45668	0.52319
3589.000	-2.18945	0.12922	-0.47052	0.54109
3590.000	-2.34539	0.06162	-0.46459	0.49932
3591.000	-2.40657	0.09342	-0.53378	0.55501
3592.000	-2.33947	0.09541	-0.49028	0.51125
3593.000	-2.33355	0.06560	-0.50215	0.53711
3594.000	-2.28618	0.03181	-0.48633	0.55303
3595.000	-2.20525	0.06361	-0.49622	0.52120
3596.000	-2.35329	0.01789	-0.49819	0.52916
3597.000	-2.33750	-0.00398	-0.46459	0.52518
3598.000	-2.13220	0.05567	-0.43493	0.55502
3599.000	-2.02558	0.02585	-0.29259	0.53315
3600.000	-2.01769	0.00596	-0.22933	0.54707
3601.000	-1.89920	-0.11334	-0.00198	0.52122
3602.000	-1.73528	-0.16505	0.13444	0.45557
3603.000	-1.51996	-0.24859	0.25503	0.44960
3604.000	-1.33424	-0.28242	0.53575	0.37996
3605.000	-1.15244	-0.33614	0.69587	0.30038
3606.000	-1.04769	-0.50522	0.93306	0.24268
3607.000	-0.77691	-0.54703	1.08524	0.16509
3608.000	-0.57331	-0.60673	1.29076	0.06563
3609.000	-0.50215	-0.73403	1.45081	0.05569
3610.000	-0.43889	-0.79968	1.56540	-0.03779
3611.000	-0.39539	-0.87327	1.60688	-0.18494
3612.000	-0.34795	-0.87527	1.69775	-0.27442
3613.000	-0.24119	-0.84544	1.61083	-0.33210
3614.000	-0.39935	-0.79570	1.55947	-0.35398
3615.000	-0.44482	-0.80962	1.49823	-0.46735
3616.000	-0.55157	-0.84143	1.33424	-0.48130
3617.000	-0.66820	-0.96472	1.20975	-0.47934
3618.000	-0.76505	-0.88117	1.10501	-0.52112
3619.000	-0.83424	-0.88712	0.93702	-0.52314
3620.000	-0.86388	-0.92093	0.84610	-0.53111
3621.000	-1.07932	-0.93479	0.80261	-0.60073
3622.000	-1.02595	-0.88906	0.71761	-0.53311
3623.000	-1.07932	-0.96064	0.70575	-0.57687
3624.000	-1.17615	-1.00833	0.68203	-0.55102
3625.000	-1.14453	-0.96459	0.67017	-0.54505
3626.000	-1.12477	-0.96460	0.66029	-0.50925
3627.000	-1.07339	-0.98052	0.66820	-0.46350
3628.000	-1.03979	-0.92684	0.65041	-0.45753
3629.000	-1.14058	-0.99840	0.64843	-0.41377
3630.000	-1.06351	-0.87116	0.73540	-0.34613
3631.000	-1.09315	-0.87711	0.72750	-0.32624
3632.000	-1.00421	-0.86123	0.75517	-0.23075
3633.000	-1.06548	-0.75183	0.74924	-0.17903
3634.000	-1.02991	-0.71207	0.74331	-0.11339
3635.000	-0.91527	-0.62657	0.77098	-0.14919
3636.000	-0.89551	-0.59873	0.79668	-0.11339
3637.000	-0.89946	-0.57088	0.78284	-0.07758
3638.000	-0.86784	-0.54105	0.82040	-0.15914
3639.000	-0.85203	-0.55895	0.83424	-0.08952
3640.000	-0.88760	-0.52712	0.86784	-0.12134
3641.000	-0.75912	-0.52515	0.87970	-0.11338
3642.000	-0.80261	-0.50923	0.86388	-0.14123
3643.000	-0.77691	-0.54305	0.90737	-0.13526
3644.000	-0.79668	-0.47741	0.91132	-0.16311
3645.000	-0.78284	-0.59079	0.90144	-0.14919
3646.000	-0.79668	-0.66637	0.87970	-0.17306
3647.000	-0.76308	-0.60670	0.93109	-0.15516
3648.000	-0.86388	-0.67033	0.95480	-0.22875
3649.000	-0.82831	-0.64448	0.89353	-0.16908
3650.000	-0.76703	-0.68427	0.92120	-0.20091
3651.000	-0.84017	-0.71211	0.90342	-0.20687
3652.000	-0.87970	-0.73398	0.93504	-0.27053
3653.000	-0.85203	-0.72801	0.93899	-0.23273
3654.000	-0.77691	-0.73996	0.90737	-0.24666
3655.000	-0.79273	-0.70814	0.90342	-0.27252
3656.000	-0.81447	-0.71211	0.92713	-0.30235
3657.000	-0.79273	-0.72206	0.93109	-0.35407
3658.000	-0.84017	-0.71012	0.88167	-0.32026
3659.000	-0.93702	-0.83539	0.93109	-0.36202
3660.000	-0.87772	-0.84137	0.94295	-0.34611
3661.000	-0.85796	-0.82746	0.95876	-0.33417
3662.000	-0.76308	-0.80759	0.91725	-0.34214
3663.000	-0.87377	-0.80756	0.89749	-0.34810
3664.000	-0.78284	-0.82150	0.86586	-0.29639
3665.000	-0.82040	-0.84536	0.89749	-0.29440
3666.000	-0.85993	-0.81154	0.90539	-0.26854
3667.000	-0.77889	-0.84338	0.87772	-0.32623
3668.000	-0.80261	-0.80161	0.88958	-0.33020
3669.000	-0.75517	-0.80560	0.85400	-0.34413
3670.000	-0.74331	-0.72406	0.85203	-0.32026
3671.000	-0.84807	-0.81552	0.83028	-0.27650
3672.000	-0.81052	-0.72603	0.84214	-0.31230
3673.000	-0.75912	-0.72007	0.80063	-0.31629
3674.000	-0.77691	-0.75189	0.85005	-0.27053
3675.000	-0.79470	-0.77974	0.83226	-0.28247
3676.000	-0.76110	-0.74991	0.84214	-0.30037
3677.000	-0.75122	-0.80958	0.82435	-0.29440
3678.000	-0.73540	-0.72803	0.79075	-0.21683
3679.000	-0.67808	-0.73401	0.80656	-0.29639
3680.000	-0.79075	-0.77775	0.85005	-0.26257
3681.000	-0.78680	-0.75388	0.83028	-0.24268
3682.000	-0.73738	-0.73400	0.78284	-0.27650
3683.000	-0.80459	-0.80360	0.80854	-0.21882
3684.000	-0.81249	-0.81752	0.78087	-0.25263
3685.000	-0.84017	-0.80359	0.75319	-0.22876
3686.000	-0.84017	-0.78768	0.77098	-0.22478
3687.000	-0.89353	-0.83739	0.78087	-0.19296
3688.000	-0.75319	-0.77378	0.72750	-0.21683
3689.000	-0.82238	-0.80956	0.76110	-0.21285
3690.000	-0.77889	-0.77974	0.81842	-0.28247
3691.000	-0.78680	-0.82548	0.77691	-0.27849
3692.000	-0.75122	-0.79764	0.73738	-0.21683
3693.000	-0.80261	-0.77576	0.74924	-0.27651
3694.000	-0.77098	-0.85333	0.76505	-0.20091
3695.000	-0.83028	-0.82945	0.76901	-0.27253
3696.000	-0.79470	-0.88117	0.73738	-0.24468
3697.000	-0.78087	-0.81554	0.76703	-0.30435
3698.000	-0.74331	-0.85134	0.78877	-0.33220
3699.000	-0.75122	-0.90305	0.78877	-0.29441
3700.000	-0.72157	-0.86129	0.80063	-0.30833
3701.000	-0.77691	-0.88117	0.78087	-0.27849
3702.000	-0.74133	-0.81753	0.76308	-0.30435
3703.000	-0.81447	-0.90304	0.80656	-0.27849
3704.000	-0.75517	-0.86924	0.71761	-0.30237
3705.000	-0.82040	-0.84139	0.72947	-0.27651
3706.000	-0.74924	-0.83543	0.72947	-0.26059
3707.000	-0.74924	-0.84737	0.78482	-0.24667
3708.000	-0.84610	-0.89706	0.79470	-0.23274
3709.000	-0.77494	-0.83344	0.79273	-0.27054
3710.000	-0.73738	-0.86129	0.76505	-0.23075
3711.000	-0.85400	-0.86922	0.77889	-0.20489
3712.000	-0.74726	-0.86924	0.78482	-0.27253
3713.000	-0.76901	-0.89708	0.80854	-0.32623
3714.000	-0.78087	-0.89907	0.79668	-0.30037
3715.000	-0.77691	-0.96271	0.79470	-0.33419
3716.000	-0.78284	-0.95276	0.72947	-0.33817
3717.000	-0.71959	-0.88715	0.76110	-0.34414
3718.000	-0.82238	-0.85531	0.72552	-0.32425
3719.000	-0.75122	-0.89709	0.74133	-0.31032
3720.000	-0.80854	-0.93884	0.74529	-0.28645
3721.000	-0.70773	-0.94284	0.74924	-0.28247
3722.000	-0.72947	-0.87124	0.73343	-0.31231
3723.000	-0.76110	-0.89311	0.75715	-0.34414
3724.000	-0.75122	-0.87720	0.70180	-0.25065
3725.000	-0.72354	-0.86726	0.76703	-0.29839
3726.000	-0.78680	-0.91697	0.77098	-0.28645
3727.000	-0.68006	-0.85533	0.77494	-0.31828
3728.000	-0.72750	-0.85334	0.76308	-0.32226
3729.000	-0.68994	-0.88715	0.70378	-0.27054
3730.000	-0.71366	-0.96869	0.77098	-0.29441
3731.000	-0.70773	-0.97466	0.74726	-0.25860
3732.000	-0.70971	-0.96471	0.77098	-0.30236
3733.000	-0.71366	-0.89510	0.76308	-0.33021
3734.000	-0.71366	-0.89908	0.74924	-0.30038
3735.000	-0.73343	-0.96272	0.76703	-0.33220
3736.000	-0.78482	-0.96867	0.75715	-0.33817
3737.000	-0.71168	-0.87323	0.70378	-0.30237
3738.000	-0.73540	-0.85532	0.73343	-0.34016
3739.000	-0.64645	-0.91898	0.71366	-0.31828
3740.000	-0.67215	-0.93887	0.68796	-0.34017
3741.000	-0.62668	-0.89313	0.70378	-0.33221
3742.000	-0.71959	-0.85334	0.69982	-0.37199
3743.000	-0.66227	-0.81158	0.70575	-0.35210
3744.000	-0.72552	-0.90505	0.70773	-0.32624
3745.000	-0.66424	-0.85931	0.76110	-0.42768
3746.000	-0.75715	-0.91697	0.70575	-0.34812
3747.000	-0.68994	-0.93687	0.72552	-0.40978
3748.000	-0.71761	-0.88118	0.72947	-0.35806
3749.000	-0.75319	-0.92095	0.74924	-0.41774
3750.000	-0.76703	-0.91498	0.67610	-0.39586
3751.000	-0.74133	-0.92493	0.67017	-0.34812
3752.000	-0.74529	-0.95675	0.72947	-0.37995
3753.000	-0.71959	-0.93886	0.67215	-0.32027
3754.000	-0.71564	-0.92295	0.68401	-0.37597
3755.000	-0.69192	-0.89710	0.73540	-0.32624
3756.000	-0.65634	-0.90307	0.67215	-0.37000
3757.000	-0.65634	-0.97467	0.71959	-0.31430
3758.000	-0.73145	-0.98459	0.69389	-0.37199
3759.000	-0.68401	-0.87323	0.67413	-0.33221
3760.000	-0.65831	-0.94285	0.63657	-0.33420
3761.000	-0.68203	-0.88914	0.73738	-0.35210
3762.000	-0.67017	-0.89312	0.70773	-0.37796
3763.000	-0.63657	-0.84937	0.69587	-0.37597
3764.000	-0.68994	-0.91699	0.71366	-0.34613
3765.000	-0.65831	-0.92296	0.71168	-0.38592
3766.000	-0.65041	-0.95677	0.67017	-0.38791
3767.000	-0.66227	-0.94086	0.71761	-0.36801
3768.000	-0.65238	-0.93887	0.67808	-0.36603
3769.000	-0.75517	-0.98658	0.74726	-0.34812
3770.000	-0.66820	-0.88517	0.68599	-0.37597
3771.000	-0.70378	-0.92892	0.70773	-0.46349
3772.000	-0.71366	-0.92494	0.72552	-0.39984
3773.000	-0.71366	-0.91101	0.68203	-0.39387
3774.000	-0.76703	-0.94083	0.65634	-0.40581
3775.000	-0.73145	-0.93090	0.68006	-0.35210
3776.000	-0.74133	-0.98459	0.66622	-0.43167
3777.000	-0.70575	-0.97466	0.69785	-0.38592
3778.000	-0.68599	-0.92295	0.70971	-0.38194
3779.000	-0.71564	-0.95676	0.71168	-0.43366
3780.000	-0.74726	-0.94482	0.69192	-0.42968
3781.000	-0.62866	-0.91899	0.70180	-0.31828
3782.000	-0.75122	-0.93686	0.68599	-0.44360
3783.000	-0.67808	-0.90108	0.69192	-0.38990
3784.000	-0.70180	-0.92494	0.68401	-0.34812
3785.000	-0.74331	-0.93686	0.66622	-0.38393
3786.000	-0.71366	-0.95676	0.69587	-0.40183
3787.000	-0.67017	-0.94881	0.67413	-0.36603
3788.000	-0.62075	-0.93291	0.70378	-0.38989
3789.000	-0.63855	-0.91898	0.67610	-0.37796
3790.000	-0.65238	-0.96075	0.71168	-0.39586
3791.000	-0.63064	-0.92296	0.63855	-0.39786
3792.000	-0.63262	-0.91302	0.67808	-0.38990
3793.000	-0.59901	-0.92297	0.67808	-0.38791
3794.000	-0.69389	-0.89511	0.64052	-0.40581
3795.000	-0.67610	-0.94682	0.66820	-0.35210
3796.000	-0.66622	-0.88915	0.66622	-0.36006
3797.000	-0.64448	-0.96870	0.64052	-0.35210
3798.000	-0.74924	-0.89112	0.67215	-0.36603
3799.000	-0.62075	-0.94882	0.66820	-0.34613
3800.000	-0.68994	-0.92295	0.63459	-0.36802
3801.000	-0.71564	-0.97465	0.69389	-0.39188
3802.000	-0.69587	-0.96273	0.64052	-0.35210
3803.000	-0.71564	-0.94283	0.64645	-0.38990
3804.000	-0.68401	-0.92494	0.64448	-0.35210
3805.000	-0.72157	-0.94880	0.63262	-0.33619
3806.000	-0.65238	-0.93887	0.67017	-0.37398
3807.000	-0.62273	-0.90308	0.56936	-0.33421
3808.000	-0.64448	-0.94086	0.65238	-0.34415
3809.000	-0.64448	-0.94086	0.63657	-0.34614
3810.000	-0.67017	-0.95080	0.64052	-0.31431
3811.000	-0.70180	-0.97466	0.65634	-0.36205
3812.000	-0.64448	-0.95478	0.66622	-0.37597
3813.000	-0.68796	-0.93488	0.68994	-0.38592
3814.000	-0.67808	-0.91301	0.64843	-0.37995
3815.000	-0.64645	-0.97865	0.63459	-0.39189
3816.000	-0.68203	-0.94881	0.61285	-0.39388
3817.000	-0.68994	-0.94881	0.63459	-0.43167
3818.000	-0.59506	-0.98462	0.59506	-0.38791
3819.000	-0.68006	-0.93290	0.58913	-0.38990
3820.000	-0.60889	-1.00848	0.62273	-0.37001
3821.000	-0.67017	-0.97267	0.60494	-0.43764
3822.000	-0.62471	-0.95677	0.56145	-0.34813
3823.000	-0.64250	-0.91699	0.55354	-0.29641
3824.000	-0.62866	-0.96075	0.60692	-0.39786
3825.000	-0.67413	-1.04029	0.56936	-0.34415
3826.000	-0.66424	-1.00450	0.57133	-0.31829
3827.000	-0.73540	-1.01840	0.56936	-0.37598
3828.000	-0.65436	-1.04427	0.57529	-0.30039
3829.000	-0.56936	-0.97468	0.59110	-0.33818
3830.000	-0.67017	-0.98858	0.53971	-0.30636
3831.000	-0.59703	-0.91700	0.62866	-0.36802
3832.000	-0.65238	-1.02041	0.58715	-0.35410
3833.000	-0.59901	-0.97468	0.57331	-0.33619
3834.000	-0.65831	-0.99455	0.57924	-0.33023
3835.000	-0.56540	-0.95877	0.55750	-0.33421
3836.000	-0.66227	-1.00847	0.54564	-0.30636
3837.000	-0.66424	-1.01842	0.55157	-0.33421
3838.000	-0.64052	-1.01444	0.54366	-0.33421
3839.000	-0.60692	-1.00053	0.57331	-0.30636
3840.000	-0.64448	-1.02439	0.55947	-0.31033
3841.000	-0.62866	-0.97865	0.57331	-0.36404
3842.000	-0.65634	-0.99455	0.57529	-0.31630
3843.000	-0.64645	-0.95478	0.55354	-0.32227
3844.000	-0.66424	-0.99256	0.57727	-0.36404
3845.000	-0.68203	-0.99654	0.56343	-0.37001
3846.000	-0.66424	-1.00648	0.56540	-0.30039
3847.000	-0.59506	-0.94882	0.56540	-0.29442
3848.000	-0.59110	-0.92894	0.56343	-0.32625
3849.000	-0.67017	-0.98063	0.58715	-0.34216
3850.000	-0.64448	-1.01047	0.54564	-0.32426
3851.000	-0.66227	-1.01245	0.54168	-0.31829
3852.000	-0.64448	-0.94285	0.54761	-0.32227
3853.000	-0.66424	-1.03830	0.58122	-0.33023
3854.000	-0.63459	-1.00052	0.58715	-0.30635
3855.000	-0.58517	-1.01843	0.58715	-0.36802
3856.000	-0.65238	-1.00847	0.54168	-0.36802
3857.000	-0.65041	-1.03234	0.53971	-0.39985
3858.000	-0.66424	-1.02438	0.55947	-0.38593
3859.000	-0.68203	-1.05222	0.53378	-0.32824
3860.000	-0.67610	-1.03035	0.53773	-0.37200
3861.000	-0.72354	-1.03829	0.52191	-0.30238
3862.000	-0.67215	-1.02836	0.55552	-0.33818
3863.000	-0.65238	-1.04029	0.51796	-0.32824
3864.000	-0.67215	-1.03233	0.55552	-0.38991
3865.000	-0.60494	-0.97865	0.54761	-0.35410
3866.000	-0.65831	-0.98063	0.59506	-0.32028
3867.000	-0.65238	-1.11387	0.57924	-0.42372
3868.000	-0.62075	-1.06019	0.55157	-0.36603
3869.000	-0.61878	-1.08405	0.53180	-0.35012
3870.000	-0.61285	-1.04229	0.55354	-0.31232
3871.000	-0.63064	-1.09996	0.49819	-0.37201
3872.000	-0.61482	-0.96274	0.51203	-0.33620
3873.000	-0.61087	-1.04627	0.50215	-0.32625
3874.000	-0.63657	-1.01047	0.53971	-0.38593
3875.000	-0.62668	-1.06217	0.50215	-0.33819
3876.000	-0.63262	-0.97268	0.54168	-0.39985
3877.000	-0.59901	-1.02241	0.48040	-0.37598
3878.000	-0.60494	-1.00650	0.49622	-0.37002
3879.000	-0.65634	-0.97467	0.47645	-0.32824
3880.000	-0.66820	-1.00648	0.50017	-0.32426
3881.000	-0.58913	-0.99655	0.51598	-0.37598
3882.000	-0.54761	-1.01247	0.51203	-0.35211
3883.000	-0.61087	-0.99058	0.51401	-0.33819
3884.000	-0.55354	-0.99457	0.51401	-0.38394
3885.000	-0.56343	-0.98264	0.49424	-0.37996
3886.000	-0.63459	-0.98660	0.46063	-0.38593
3887.000	-0.56738	-0.96076	0.55354	-0.35012
3888.000	-0.56936	-1.04031	0.49819	-0.38792
3889.000	-0.58913	-1.00849	0.47447	-0.33421
3890.000	-0.56738	-0.97468	0.53180	-0.37200
3891.000	-0.52784	-0.96474	0.48040	-0.39389
3892.000	-0.58715	-0.99655	0.48633	-0.38593
3893.000	-0.60692	-1.00451	0.47447	-0.38792
3894.000	-0.55552	-0.94883	0.44877	-0.36405
3895.000	-0.58913	-0.90507	0.48831	-0.42174
3896.000	-0.53575	-0.95679	0.49226	-0.41975
3897.000	-0.53773	-0.95679	0.46459	-0.40781
3898.000	-0.52191	-0.94287	0.47645	-0.36803
3899.000	-0.56343	-0.94684	0.48040	-0.39389
3900.000	-0.57924	-0.90706	0.49622	-0.36007
3901.000	-0.53971	-0.95281	0.50808	-0.40383
3902.000	-0.57924	-0.98065	0.49622	-0.38991
3903.000	-0.54761	-0.92894	0.45272	-0.36604
3904.000	-0.60889	-0.99456	0.46854	-0.33620
3905.000	-0.58715	-0.95479	0.44877	-0.37201
3906.000	-0.56738	-0.98065	0.49622	-0.37399
3907.000	-0.50610	-0.95083	0.45272	-0.37599
3908.000	-0.54366	-1.01446	0.46656	-0.34615
3909.000	-0.51401	-0.96674	0.44482	-0.39787
3910.000	-0.55157	-0.92496	0.46063	-0.34615
3911.000	-0.55552	-1.02241	0.45668	-0.37002
3912.000	-0.62075	-1.01445	0.43296	-0.35808
3913.000	-0.52982	-0.97469	0.45865	-0.32625
3914.000	-0.47249	-0.92895	0.43889	-0.34615
3915.000	-0.51203	-0.95480	0.46459	-0.39190
3916.000	-0.52389	-0.92298	0.42109	-0.40185
3917.000	-0.53180	-1.01645	0.37760	-0.30239
3918.000	-0.53971	-0.95878	0.40528	-0.31034
3919.000	-0.48633	-0.95282	0.42900	-0.34416
3920.000	-0.46261	-0.98464	0.39935	-0.36803
3921.000	-0.54959	-1.03037	0.44284	-0.31233
3922.000	-0.52191	-1.01446	0.42702	-0.33023
3923.000	-0.53378	-0.99656	0.45075	-0.34615
3924.000	-0.52587	-1.04429	0.45075	-0.29045
3925.000	-0.56145	-1.06020	0.42505	-0.34018
3926.000	-0.50412	-1.03833	0.42307	-0.32626
3927.000	-0.58913	-1.10394	0.42505	-0.36007
3928.000	-0.46854	-1.08607	0.45075	-0.33620
3929.000	-0.54564	-1.04827	0.44482	-0.37798
3930.000	-0.49028	-0.95680	0.37958	-0.41180
3931.000	-0.53971	-1.02441	0.46656	-0.39588
3932.000	-0.50610	-1.04032	0.43889	-0.34018
3933.000	-0.50215	-1.01646	0.45668	-0.38991
3934.000	-0.51796	-1.00651	0.45668	-0.37599
3935.000	-0.49424	-1.01049	0.45272	-0.32426
3936.000	-0.47842	-1.03436	0.42307	-0.35609
3937.000	-0.49819	-1.04828	0.45865	-0.36007
3938.000	-0.46854	-1.03237	0.42109	-0.38792
3939.000	-0.51203	-1.03038	0.45272	-0.37798
3940.000	-0.47645	-1.01646	0.42900	-0.38991
3941.000	-0.50610	-1.04231	0.40133	-0.33620
3942.000	-0.45272	-0.98862	0.44877	-0.38792
3943.000	-0.45470	-1.03635	0.45075	-0.35013
3944.000	-0.54564	-0.99855	0.45668	-0.39588
3945.000	-0.45272	-1.02641	0.46656	-0.34416
3946.000	-0.45865	-0.99061	0.45865	-0.36405
3947.000	-0.51994	-1.02640	0.44679	-0.37002
3948.000	-0.52784	-1.03833	0.42505	-0.29840
3949.000	-0.48238	-0.99259	0.38353	-0.34217
3950.000	-0.48238	-1.01845	0.44877	-0.38195
3951.000	-0.48831	-0.95481	0.42307	-0.40782
3952.000	-0.44284	-0.96277	0.42702	-0.39190
3953.000	-0.43296	-0.96675	0.41912	-0.35013
3954.000	-0.44679	-0.99260	0.42307	-0.37997
3955.000	-0.46854	-0.92697	0.43296	-0.38991
3956.000	-0.51796	-1.00651	0.42900	-0.35411
3957.000	-0.39539	-0.94289	0.43098	-0.40185
3958.000	-0.47447	-0.96276	0.43889	-0.39190
3959.000	-0.46854	-1.01248	0.41912	-0.35610
3960.000	-0.41912	-0.97669	0.42109	-0.37997
3961.000	-0.36376	-0.97670	0.41714	-0.39588
3962.000	-0.44086	-1.01050	0.42505	-0.33023
3963.000	-0.41516	-0.96078	0.41121	-0.36405
3964.000	-0.48040	-0.97470	0.38749	-0.36604
3965.000	-0.43889	-0.94487	0.38551	-0.34814
3966.000	-0.36772	-1.01647	0.40133	-0.37798
3967.000	-0.44877	-0.95282	0.43296	-0.37599
3968.000	-0.43296	-0.98862	0.42900	-0.38196
3969.000	-0.36574	-0.93891	0.44877	-0.35609
3970.000	-0.41516	-1.02641	0.37958	-0.33620
3971.000	-0.43889	-0.99260	0.45272	-0.38593
3972.000	-0.41319	-0.95681	0.42900	-0.40981
3973.000	-0.38353	-1.01051	0.41912	-0.39588
3974.000	-0.48435	-0.94884	0.43493	-0.38593
3975.000	-0.39935	-0.92499	0.38551	-0.39190
3976.000	-0.42702	-0.98465	0.42505	-0.37201
3977.000	-0.43493	-1.00056	0.43098	-0.34217
3978.000	-0.42702	-0.98664	0.35981	-0.34416
3979.000	-0.48238	-1.01049	0.40528	-0.37002
3980.000	-0.37760	-1.00056	0.41121	-0.40185
3981.000	-0.35783	-0.88322	0.39144	-0.33222
3982.000	-0.43098	-0.99260	0.41516	-0.35610
3983.000	-0.39737	-1.00454	0.36772	-0.35809
3984.000	-0.41912	-0.95482	0.37760	-0.35212
3985.000	-0.40528	-0.93294	0.38353	-0.36604
3986.000	-0.37760	-0.94090	0.35388	-0.39191
3987.000	-0.39539	-0.99658	0.36376	-0.31233
3988.000	-0.41319	-0.99062	0.34795	-0.38196
3989.000	-0.41516	-1.00255	0.37167	-0.35013
3990.000	-0.40726	-0.98067	0.43493	-0.33023
3991.000	-0.38551	-0.96277	0.39342	-0.34416
3992.000	-0.53378	-1.05821	0.39737	-0.35411
3993.000	-0.38946	-1.03636	0.42307	-0.35808
3994.000	-0.42505	-0.96675	0.40726	-0.31830
3995.000	-0.33213	-0.99261	0.41121	-0.32029
3996.000	-0.36772	-0.98664	0.40133	-0.38991
3997.000	-0.45470	-0.92498	0.39342	-0.37997
3998.000	-0.38156	-0.89913	0.35783	-0.34615
3999.000	-0.36969	-1.00056	0.38946	-0.34416
4000.000	-0.37167	-1.02642	0.38156	-0.33421
4001.000	-0.38749	-0.95681	0.37958	-0.31034
4002.000	-0.35981	-0.88720	0.34993	-0.34416
4003.000	-0.38353	-0.95880	0.40726	-0.37599
4004.000	-0.32225	-0.93096	0.37760	-0.32029
4005.000	-0.28469	-0.92301	0.36574	-0.30040
4006.000	-0.42109	-0.98863	0.38749	-0.33819
4007.000	-0.35981	-0.99261	0.38749	-0.34814
4008.000	-0.35388	-0.90311	0.35190	-0.30835
4009.000	-0.33806	-0.96079	0.39342	-0.30437
4010.000	-0.33016	-0.94886	0.39935	-0.29642
4011.000	-0.34993	-0.96278	0.40923	-0.31631
4012.000	-0.37760	-0.98266	0.44679	-0.31034
4013.000	-0.29062	-0.93693	0.37958	-0.36206
4014.000	-0.33411	-0.94289	0.38749	-0.33421
4015.000	-0.37167	-0.91504	0.39737	-0.30835
4016.000	-0.37563	-0.96675	0.37760	-0.27851
4017.000	-0.38353	-0.91902	0.40528	-0.29841
4018.000	-0.41912	-0.96476	0.37563	-0.30636
4019.000	-0.29259	-0.91505	0.38353	-0.27453
4020.000	-0.29259	-0.92301	0.39144	-0.28647
4021.000	-0.37167	-0.87527	0.39737	-0.30437
4022.000	-0.32620	-0.92300	0.38156	-0.34018
4023.000	-0.33806	-0.91704	0.42900	-0.33819
4024.000	-0.31829	-0.93096	0.36574	-0.30835
4025.000	-0.34993	-0.90112	0.37365	-0.31034
4026.000	-0.33213	-0.92499	0.33016	-0.28647
4027.000	-0.33016	-0.90908	0.36179	-0.28647
4028.000	-0.28469	-0.98068	0.37167	-0.23674
4029.000	-0.32225	-0.93494	0.37365	-0.28448
4030.000	-0.27678	-0.92699	0.35388	-0.23674
4031.000	-0.27876	-0.89914	0.35586	-0.24867
4032.000	-0.37958	-0.87328	0.38156	-0.26459
4033.000	-0.34795	-0.92698	0.35190	-0.22679
4034.000	-0.40528	-0.87327	0.36376	-0.25862
4035.000	-0.31829	-0.90113	0.34597	-0.19894
4036.000	-0.32620	-0.92300	0.37760	-0.19496
4037.000	-0.27480	-0.92301	0.33213	-0.20093
4038.000	-0.34597	-0.89317	0.32027	-0.22082
4039.000	-0.33016	-0.92897	0.34202	-0.28050
4040.000	-0.32027	-0.93892	0.34399	-0.26658
4041.000	-0.32422	-0.95880	0.32027	-0.26857
4042.000	-0.33016	-0.87527	0.33016	-0.27255
4043.000	-0.32422	-0.89914	0.33016	-0.20889
4044.000	-0.33411	-0.92897	0.27876	-0.22281
4045.000	-0.31434	-0.94488	0.33806	-0.21287
4046.000	-0.35981	-0.95084	0.32818	-0.26061
4047.000	-0.28073	-0.91306	0.30248	-0.21287
4048.000	-0.34399	-0.86532	0.30248	-0.19297
4049.000	-0.35190	-0.95283	0.33016	-0.20491
4050.000	-0.32818	-0.89317	0.34202	-0.22480
4051.000	-0.33806	-0.87328	0.34795	-0.21286
4052.000	-0.29457	-0.87527	0.33016	-0.18302
4053.000	-0.35388	-0.82554	0.37760	-0.20292
4054.000	-0.35586	-0.96477	0.35586	-0.22878
4055.000	-0.33213	-0.94687	0.34399	-0.21684
4056.000	-0.35981	-0.97073	0.34399	-0.26260
4057.000	-0.25305	-0.94489	0.36772	-0.21485
4058.000	-0.32422	-0.92300	0.31039	-0.26260
4059.000	-0.34399	-0.91704	0.28469	-0.25862
4060.000	-0.28073	-0.89317	0.31434	-0.28448
4061.000	-0.33016	-0.98267	0.30446	-0.28448
4062.000	-0.31632	-0.90908	0.30050	-0.30438
4063.000	-0.33806	-0.92499	0.31829	-0.27851
4064.000	-0.26887	-0.88124	0.27480	-0.25066
4065.000	-0.37563	-0.94090	0.34795	-0.27255
4066.000	-0.28271	-0.87328	0.36772	-0.26857
4067.000	-0.27282	-0.87130	0.30446	-0.24867
4068.000	-0.24317	-0.86732	0.32818	-0.22082
4069.000	-0.27282	-0.91107	0.31039	-0.27255
4070.000	-0.26887	-0.90710	0.29259	-0.23077
4071.000	-0.25305	-0.89318	0.31236	-0.24271
4072.000	-0.23329	-0.91704	0.33213	-0.27255
4073.000	-0.29259	-0.89914	0.29655	-0.25663
4074.000	-0.22933	-0.84345	0.30248	-0.33223
4075.000	-0.23131	-0.91704	0.31039	-0.30040
4076.000	-0.25305	-0.92699	0.29457	-0.30836
4077.000	-0.24712	-0.90511	0.34004	-0.28846
4078.000	-0.23724	-0.89914	0.30050	-0.24669
4079.000	-0.26294	-0.88721	0.32422	-0.28647
4080.000	-0.28271	-0.88721	0.34399	-0.27255
4081.000	-0.26096	-0.84345	0.31829	-0.24668
4082.000	-0.21549	-0.87130	0.33411	-0.26260
4083.000	-0.27480	-0.88124	0.33609	-0.23674
4084.000	-0.23329	-0.92699	0.31434	-0.23873
4085.000	-0.21154	-0.86334	0.29259	-0.26061
4086.000	-0.20758	-0.84147	0.34795	-0.28249
4087.000	-0.26689	-0.84146	0.30446	-0.26857
4088.000	-0.26689	-0.84146	0.32620	-0.27056
4089.000	-0.20165	-0.91108	0.30050	-0.18104
4090.000	-0.21549	-0.87329	0.29852	-0.22878
4091.000	-0.25305	-0.89119	0.32620	-0.25663
4092.000	-0.23329	-0.91506	0.29062	-0.21883
4093.000	-0.23526	-0.92699	0.34202	-0.24271
4094.000	-0.22735	-0.89914	0.35783	-0.18302
4095.000	-0.24317	-0.89914	0.30446	-0.23475
4096.000	-0.22142	-0.90511	0.36772	-0.24072
4097.000	-0.22933	-0.88323	0.31039	-0.26260
4098.000	-0.17002	-0.90511	0.35783	-0.22480
4099.000	-0.17991	-0.88522	0.31632	-0.23873
4100.000	-0.23329	-0.86931	0.32422	-0.26459
4101.000	-0.16014	-0.86335	0.30643	-0.22878
4102.000	-0.16014	-0.90313	0.32422	-0.25663
4103.000	-0.21747	-0.92500	0.31236	-0.25663
4104.000	-0.12455	-0.90313	0.35783	-0.24867
4105.000	-0.14827	-0.86931	0.29655	-0.22480
4106.000	-0.10874	-0.79572	0.35783	-0.21684
4107.000	-0.19177	-0.93097	0.32225	-0.20093
4108.000	-0.18386	-0.90312	0.30841	-0.21684
4109.000	-0.13048	-0.94291	0.30643	-0.24271
4110.000	-0.14234	-0.89119	0.31434	-0.22480
4111.000	-0.22340	-0.89318	0.34004	-0.24867
4112.000	-0.14827	-0.94489	0.36179	-0.18700
4113.000	-0.18979	-0.89915	0.26887	-0.22082
4114.000	-0.19375	-0.89318	0.33806	-0.24271
4115.000	-0.17002	-0.87329	0.29852	-0.20093
4116.000	-0.15223	-0.86733	0.32422	-0.25663
4117.000	-0.21352	-0.92102	0.30841	-0.21486
4118.000	-0.20561	-0.90710	0.29062	-0.21486
4119.000	-0.22735	-0.82356	0.32225	-0.19695
4120.000	-0.22340	-0.89119	0.32818	-0.20889
4121.000	-0.22735	-0.87727	0.26096	-0.18104
4122.000	-0.23131	-0.91307	0.28073	-0.21486
4123.000	-0.22735	-0.89914	0.28469	-0.23077
4124.000	-0.21747	-0.91307	0.25503	-0.20292
4125.000	-0.17991	-0.91307	0.31039	-0.14324
4126.000	-0.19770	-0.89915	0.27085	-0.22878
4127.000	-0.18781	-0.85340	0.29062	-0.23475
4128.000	-0.21352	-0.85141	0.26294	-0.18700
4129.000	-0.09490	-0.88324	0.25899	-0.20093
4130.000	-0.16211	-0.90114	0.24119	-0.25862
4131.000	-0.19968	-0.87528	0.27282	-0.24470
4132.000	-0.23526	-0.84544	0.30446	-0.19695
4133.000	-0.20561	-0.91904	0.24119	-0.16711
4134.000	-0.18979	-0.92301	0.27282	-0.12931
4135.000	-0.15816	-0.86136	0.26492	-0.14523
4136.000	-0.18979	-0.89517	0.26492	-0.16512
4137.000	-0.26492	-0.87726	0.26689	-0.14324
4138.000	-0.26294	-0.86334	0.30050	-0.15119
4139.000	-0.19770	-0.82555	0.22735	-0.13727
4140.000	-0.23526	-0.88721	0.31632	-0.20093
4141.000	-0.20165	-0.86334	0.26887	-0.15915
4142.000	-0.14234	-0.87130	0.28271	-0.24669
4143.000	-0.16409	-0.88920	0.28073	-0.20889
4144.000	-0.10676	-0.86932	0.24515	-0.17109
4145.000	-0.17793	-0.83152	0.28666	-0.19894
4146.000	-0.12455	-0.83550	0.25701	-0.21088
4147.000	-0.15816	-0.88324	0.27085	-0.20690
4148.000	-0.17200	-0.83749	0.26294	-0.16711
4149.000	-0.14827	-0.85738	0.26294	-0.17109
4150.000	-0.17793	-0.89318	0.30643	-0.15517
4151.000	-0.12850	-0.82158	0.26689	-0.14523
4152.000	-0.15025	-0.87926	0.25503	-0.14722
4153.000	-0.13641	-0.84545	0.22933	-0.15716
4154.000	-0.17793	-0.86931	0.30050	-0.15517
4155.000	-0.11862	-0.87926	0.24317	-0.12931
4156.000	-0.17200	-0.85141	0.29457	-0.12533
4157.000	-0.14827	-0.82755	0.25108	-0.18104
4158.000	-0.11269	-0.83351	0.28271	-0.15120
4159.000	-0.15816	-0.81362	0.25108	-0.14324
4160.000	-0.14827	-0.86136	0.28271	-0.16910
4161.000	-0.16607	-0.81561	0.26492	-0.16512
4162.000	-0.12060	-0.85738	0.30248	-0.11539
4163.000	-0.14630	-0.80368	0.29062	-0.08554
4164.000	-0.08303	-0.80965	0.23922	-0.06963
4165.000	-0.09687	-0.84744	0.29457	-0.13727
4166.000	-0.09094	-0.76191	0.25899	-0.10345
4167.000	-0.08897	-0.83351	0.24119	-0.10146
4168.000	-0.19572	-0.83749	0.26689	-0.08157
4169.000	-0.11269	-0.86335	0.25305	-0.13329
4170.000	-0.11269	-0.81760	0.28469	-0.11936
4171.000	-0.08303	-0.80965	0.24712	-0.08554
4172.000	-0.17398	-0.79174	0.29457	-0.09350
4173.000	-0.12060	-0.80368	0.27480	-0.12334
4174.000	-0.09292	-0.79970	0.31039	-0.16711
4175.000	-0.13246	-0.81163	0.29457	-0.15318
4176.000	-0.07315	-0.74202	0.29259	-0.13727
4177.000	-0.12257	-0.78975	0.25701	-0.09350
4178.000	-0.09490	-0.81362	0.31236	-0.10942
4179.000	-0.11862	-0.82954	0.25108	-0.10942
4180.000	-0.10478	-0.80965	0.23526	-0.08157
4181.000	-0.11269	-0.81163	0.22933	-0.07958
4182.000	-0.11664	-0.78578	0.25701	-0.10942
4183.000	-0.10280	-0.75992	0.25305	-0.07560
4184.000	-0.07513	-0.78379	0.23922	-0.10743
4185.000	-0.09490	-0.76986	0.25108	-0.07958
4186.000	-0.03756	-0.80169	0.27085	-0.08356
4187.000	-0.08897	-0.76191	0.26887	-0.16114
4188.000	-0.04943	-0.79373	0.25899	-0.14125
4189.000	-0.08699	-0.77981	0.28666	-0.11738
4190.000	-0.07117	-0.79572	0.31434	-0.11737
4191.000	-0.04943	-0.80567	0.26887	-0.08356
4192.000	-0.07117	-0.77384	0.25108	-0.13727
4193.000	-0.04152	-0.77185	0.26294	-0.11539
4194.000	0.04547	-0.76987	0.24910	-0.08554
4195.000	-0.09687	-0.76788	0.27282	-0.07162
4196.000	-0.08699	-0.71019	0.25899	-0.09151
4197.000	-0.09292	-0.80368	0.27480	-0.09748
4198.000	-0.06524	-0.73804	0.23724	-0.07162
4199.000	-0.06524	-0.74202	0.25899	-0.05968
4200.000	-0.05140	-0.72809	0.23526	-0.07958
4201.000	-0.02570	-0.69428	0.26689	-0.08753
4202.000	-0.05140	-0.77384	0.25701	-0.08356
4203.000	-0.00395	-0.76589	0.21549	-0.05769
4204.000	-0.04547	-0.74401	0.25701	-0.08356
4205.000	-0.07117	-0.72809	0.25701	-0.05968
4206.000	-0.00791	-0.77782	0.21945	-0.02785
4207.000	-0.05931	-0.74401	0.26492	-0.02586
4208.000	-0.07710	-0.73008	0.21945	-0.05371
4209.000	-0.07908	-0.74997	0.23922	-0.06565
4210.000	-0.02768	-0.72014	0.25108	-0.05968
4211.000	-0.04745	-0.75594	0.25305	-0.09947
4212.000	0.03163	-0.74003	0.24317	-0.07361
4213.000	-0.08501	-0.76589	0.26294	-0.09748
4214.000	-0.00989	-0.77782	0.26887	-0.08157
4215.000	0.00989	-0.72412	0.23131	-0.05769
4216.000	-0.04349	-0.71417	0.24515	-0.09748
4217.000	-0.05338	-0.72611	0.28666	-0.02785
4218.000	-0.05338	-0.74003	0.26689	-0.06565
4219.000	-0.03756	-0.73008	0.22933	-0.02387
4220.000	-0.04943	-0.74997	0.29655	-0.03780
4221.000	-0.08106	-0.71218	0.25305	-0.04576
4222.000	0.00593	-0.70025	0.23131	-0.05968
4223.000	-0.04349	-0.74600	0.27876	-0.05968
4224.000	-0.02372	-0.67638	0.29062	-0.06963
4225.000	-0.09885	-0.70621	0.26689	-0.09748
4226.000	-0.01384	-0.68234	0.28864	-0.10146
4227.000	-0.02570	-0.76589	0.28666	-0.06167
4228.000	0.00000	-0.74799	0.25899	-0.07162
4229.000	-0.03559	-0.70423	0.26492	-0.05570
4230.000	-0.04943	-0.70820	0.23922	-0.03780
4231.000	-0.05140	-0.74202	0.22538	-0.05769
4232.000	-0.06326	-0.73008	0.25503	-0.04775
4233.000	-0.03361	-0.75196	0.20561	-0.06366
4234.000	-0.02768	-0.70423	0.24119	0.00398
4235.000	-0.06326	-0.72412	0.27282	-0.04775
4236.000	-0.07710	-0.72014	0.25701	-0.04178
4237.000	0.02175	-0.75196	0.20956	-0.01592
4238.000	0.02372	-0.63858	0.27678	-0.00995
4239.000	-0.05536	-0.69229	0.20165	-0.03183
4240.000	-0.00791	-0.64853	0.26492	-0.01989
4241.000	0.02372	-0.66444	0.25108	-0.00597
4242.000	0.03163	-0.66245	0.25899	0.00398
4243.000	-0.01582	-0.67837	0.27480	0.00000
4244.000	-0.05733	-0.66643	0.25503	-0.05968
4245.000	-0.03559	-0.64853	0.25899	-0.04576
4246.000	0.00791	-0.67638	0.26096	-0.01393
4247.000	-0.06326	-0.71218	0.25701	0.00597
4248.000	-0.10083	-0.68632	0.21747	-0.02984
4249.000	-0.27876	-0.68631	0.22340	-0.00597
4250.000	-0.29259	-0.68234	0.10280	-0.00597
4251.000	-0.43098	-0.71216	-0.00989	0.00597
4252.000	-0.54761	-0.65049	-0.20758	0.01194
4253.000	-0.72947	-0.66041	-0.32818	-0.00398
4254.000	-0.95085	-0.56888	-0.51203	-0.09151
4255.000	-1.19196	-0.66828	-0.71959	-0.11538
4256.000	-1.46464	-0.60656	-1.00026	-0.11736
4257.000	-1.87946	-0.75752	-1.23544	-0.13326
4258.000	-2.08284	-0.76339	-1.40142	-0.12729
4259.000	-2.27039	-0.77721	-1.59108	-0.14517
4260.000	-2.62560	-0.91013	-1.71355	-0.27044
4261.000	-2.72423	-1.04316	-1.84391	-0.24656
4262.000	-2.88399	-1.09466	-1.92093	-0.34398
4263.000	-2.87018	-1.11851	-1.94857	-0.35590
4264.000	-2.94511	-1.23759	-1.93080	-0.43941
4265.000	-2.87807	-1.31511	-1.83601	-0.41756
4266.000	-2.71240	-1.29941	-1.77676	-0.44143
4267.000	-2.66703	-1.37692	-1.68985	-0.38379
4268.000	-2.54471	-1.40089	-1.61083	-0.38380
4269.000	-2.31973	-1.33954	-1.52589	-0.38979
4270.000	-2.20130	-1.29593	-1.41327	-0.33014
4271.000	-2.01374	-1.27224	-1.32436	-0.29038
4272.000	-1.88933	-1.16502	-1.28681	-0.18895
4273.000	-1.73923	-1.08560	-1.24729	-0.18895
4274.000	-1.63454	-1.05584	-1.19789	-0.14321
4275.000	-1.51206	-0.99030	-1.18010	-0.12332
4276.000	-1.43500	-0.87103	-1.14256	-0.07359
4277.000	-1.42908	-0.74775	-1.17220	-0.03182
4278.000	-1.38561	-0.74578	-1.14848	-0.00796
4279.000	-1.34609	-0.74181	-1.11094	-0.03183
4280.000	-1.36190	-0.69408	-1.11094	-0.02188
4281.000	-1.37771	-0.71396	-1.12675	-0.00796
4282.000	-1.33819	-0.68614	-1.15046	-0.00995
4283.000	-1.43698	-0.69008	-1.15837	-0.05370
4284.000	-1.35202	-0.74380	-1.06548	-0.12531
4285.000	-1.40932	-0.77361	-1.11884	-0.09746
4286.000	-1.50218	-0.73978	-1.18406	-0.06962
4287.000	-1.47452	-0.77359	-1.12675	-0.13327
4288.000	-1.45871	-0.83722	-1.15441	-0.13724
4289.000	-1.56342	-0.87695	-1.20382	-0.11934
4290.000	-1.48440	-0.87300	-1.19394	-0.16906
4291.000	-1.60491	-0.89681	-1.23148	-0.15315
4292.000	-1.64244	-0.88089	-1.22753	-0.16111
4293.000	-1.62861	-0.87692	-1.25124	-0.13724
4294.000	-1.68392	-0.88882	-1.21172	-0.17503
4295.000	-1.72738	-0.88681	-1.27100	-0.17304
4296.000	-1.63454	-0.84709	-1.20382	-0.15116
4297.000	-1.64046	-0.87691	-1.22358	-0.17503
4298.000	-1.66219	-0.84907	-1.26310	-0.15116
4299.000	-1.70367	-0.86297	-1.23939	-0.16508
4300.000	-1.66417	-0.89281	-1.27693	-0.17702
4301.000	-1.65627	-0.83714	-1.25124	-0.16906
4302.000	-1.66614	-0.83515	-1.28879	-0.10144
4303.000	-1.63256	-0.87891	-1.28879	-0.15713
4304.000	-1.65232	-0.82522	-1.29867	-0.13326
4305.000	-1.64837	-0.89878	-1.29076	-0.14320
4306.000	-1.76491	-0.89077	-1.27496	-0.15116
4307.000	-1.71948	-0.85899	-1.25322	-0.14519
4308.000	-1.64244	-0.87691	-1.27496	-0.13127
4309.000	-1.75108	-0.85301	-1.32633	-0.13127
4310.000	-1.62071	-0.81529	-1.30064	-0.06166
4311.000	-1.60886	-0.82325	-1.26903	-0.11934
4312.000	-1.68787	-0.86099	-1.27100	-0.12729
4313.000	-1.73528	-0.83313	-1.27693	-0.14320
4314.000	-1.59503	-0.80734	-1.28088	-0.13127
4315.000	-1.60491	-0.79143	-1.30460	-0.10342
4316.000	-1.65627	-0.85305	-1.23939	-0.11934
4317.000	-1.62269	-0.80932	-1.31250	-0.07558
4318.000	-1.65627	-0.86895	-1.29669	-0.11934
4319.000	-1.61478	-0.80336	-1.26508	-0.12928
4320.000	-1.65627	-0.77949	-1.25322	-0.13127
4321.000	-1.63454	-0.83119	-1.30855	-0.11138
4322.000	-1.58910	-0.76162	-1.26903	-0.07757
4323.000	-1.64639	-0.84510	-1.28286	-0.11138
4324.000	-1.60886	-0.81529	-1.28286	-0.09945
4325.000	-1.65429	-0.84510	-1.26705	-0.11536
4326.000	-1.62664	-0.85704	-1.28088	-0.11138
4327.000	-1.64046	-0.83119	-1.28484	-0.14121
4328.000	-1.61676	-0.84710	-1.28879	-0.15514
4329.000	-1.69775	-0.79537	-1.27298	-0.10939
4330.000	-1.64441	-0.82323	-1.31250	-0.10342
4331.000	-1.65824	-0.84311	-1.28286	-0.06563
4332.000	-1.71158	-0.76157	-1.32040	-0.09149
4333.000	-1.64441	-0.76557	-1.29867	-0.06961
4334.000	-1.60688	-0.78746	-1.23544	-0.08553
4335.000	-1.57527	-0.76957	-1.33424	-0.03978
4336.000	-1.63454	-0.75961	-1.28088	-0.07160
4337.000	-1.55552	-0.76561	-1.29274	-0.08950
4338.000	-1.64441	-0.79738	-1.28088	-0.11934
4339.000	-1.58318	-0.77156	-1.26310	-0.11138
4340.000	-1.62269	-0.83716	-1.27496	-0.11337
4341.000	-1.64837	-0.85703	-1.25717	-0.09945
4342.000	-1.67009	-0.80135	-1.27693	-0.08354
4343.000	-1.67404	-0.86099	-1.26705	-0.13326
4344.000	-1.66219	-0.82322	-1.25520	-0.07757
4345.000	-1.61873	-0.83716	-1.31250	-0.06762
4346.000	-1.66022	-0.79340	-1.24729	-0.13326
4347.000	-1.67602	-0.83713	-1.27298	-0.05370
4348.000	-1.70565	-0.77748	-1.27496	-0.05171
4349.000	-1.61873	-0.84312	-1.23346	-0.07359
4350.000	-1.59503	-0.76559	-1.29669	-0.04376
4351.000	-1.61873	-0.72582	-1.27693	-0.07359
4352.000	-1.68787	-0.83315	-1.27496	-0.03779
4353.000	-1.61873	-0.76757	-1.27891	-0.06564
4354.000	-1.65824	-0.80136	-1.24927	-0.06564
4355.000	-1.57527	-0.75963	-1.28286	-0.08354
4356.000	-1.70565	-0.75760	-1.28879	-0.04972
4357.000	-1.58713	-0.75168	-1.27496	-0.09746
4358.000	-1.62071	-0.80336	-1.31448	-0.06762
4359.000	-1.60293	-0.75763	-1.23544	-0.08354
4360.000	-1.67800	-0.78544	-1.29076	-0.06166
4361.000	-1.67800	-0.80334	-1.26112	-0.06365
4362.000	-1.67602	-0.74568	-1.26112	-0.04575
4363.000	-1.67404	-0.78743	-1.28484	0.00199
4364.000	-1.63651	-0.84312	-1.20975	-0.06564
4365.000	-1.62664	-0.78149	-1.22358	0.00597
4366.000	-1.67404	-0.77153	-1.23544	-0.02983
4367.000	-1.65034	-0.74370	-1.23544	-0.00199
4368.000	-1.69380	-0.80929	-1.24532	-0.06961
4369.000	-1.68590	-0.74369	-1.24532	-0.02387
4370.000	-1.66219	-0.79539	-1.23741	-0.05768
4371.000	-1.61281	-0.82523	-1.26310	0.00000
4372.000	-1.67602	-0.75562	-1.25717	-0.02586
4373.000	-1.65232	-0.70791	-1.26903	-0.02983
4374.000	-1.64244	-0.73973	-1.23346	-0.03779
4375.000	-1.67404	-0.72381	-1.27100	-0.00398
4376.000	-1.63059	-0.73973	-1.25124	-0.00199
4377.000	-1.63454	-0.82920	-1.21567	-0.02785
4378.000	-1.65429	-0.78147	-1.20382	-0.02785
4379.000	-1.65824	-0.72779	-1.26508	0.01392
4380.000	-1.70170	-0.74766	-1.22160	0.00000
4381.000	-1.64639	-0.81130	-1.22358	-0.00994
4382.000	-1.63651	-0.75365	-1.26112	-0.01989
4383.000	-1.67800	-0.76954	-1.25717	0.00796
4384.000	-1.66417	-0.72580	-1.22753	0.00597
4385.000	-1.73330	-0.74168	-1.21370	-0.02586
4386.000	-1.67602	-0.76556	-1.28286	0.02188
4387.000	-1.64046	-0.76359	-1.24927	-0.01193
4388.000	-1.68392	-0.76953	-1.27100	-0.02785
4389.000	-1.72145	-0.75162	-1.23346	0.00994
4390.000	-1.69775	-0.74368	-1.25322	0.00796
4391.000	-1.68590	-0.76754	-1.25915	0.02387
4392.000	-1.61676	-0.77950	-1.21963	0.02387
4393.000	-1.64639	-0.75762	-1.23544	0.03182
4394.000	-1.72145	-0.71186	-1.26112	0.07956
4395.000	-1.72145	-0.73174	-1.25322	0.04376
4396.000	-1.71355	-0.74169	-1.23346	0.03381
4397.000	-1.67009	-0.71188	-1.27496	0.04177
4398.000	-1.74910	-0.73968	-1.27891	0.01193
4399.000	-1.73923	-0.80927	-1.28484	0.00597
4400.000	-1.61083	-0.70792	-1.25124	0.02387
4401.000	-1.70367	-0.75163	-1.24729	0.02983
4402.000	-1.63256	-0.68604	-1.27298	0.05370
4403.000	-1.72738	-0.73770	-1.28681	0.05967
4404.000	-1.72343	-0.73771	-1.24532	0.03381
4405.000	-1.69775	-0.70590	-1.26310	0.04376
4406.000	-1.64837	-0.72779	-1.22160	0.08752
4407.000	-1.66417	-0.76954	-1.24729	0.05967
4408.000	-1.68985	-0.73374	-1.23346	0.02785
4409.000	-1.68590	-0.72380	-1.22160	0.02983
4410.000	-1.66022	-0.69796	-1.26310	0.04972
4411.000	-1.64441	-0.70592	-1.21567	-0.00398
4412.000	-1.65034	-0.77949	-1.25124	0.02586
4413.000	-1.64441	-0.69201	-1.23741	0.01591
4414.000	-1.65429	-0.73773	-1.27891	0.02785
4415.000	-1.65429	-0.76557	-1.24927	0.04177
4416.000	-1.67800	-0.77550	-1.26508	0.01392
4417.000	-1.65627	-0.77153	-1.20777	0.07956
4418.000	-1.61281	-0.71985	-1.25124	0.03978
4419.000	-1.60688	-0.73179	-1.26508	0.00994
4420.000	-1.68787	-0.68006	-1.23346	0.02188
4421.000	-1.63454	-0.76160	-1.21963	0.01591
4422.000	-1.66614	-0.72381	-1.26310	0.04575
4423.000	-1.64837	-0.70393	-1.25322	0.01989
4424.000	-1.64441	-0.70990	-1.28088	0.06365
4425.000	-1.61281	-0.66418	-1.26705	0.05370
4426.000	-1.66022	-0.69001	-1.24729	0.01392
4427.000	-1.67800	-0.72182	-1.22555	0.04376
4428.000	-1.63454	-0.70593	-1.27496	0.06762
4429.000	-1.64837	-0.68803	-1.25717	0.01790
4430.000	-1.67602	-0.75164	-1.24729	0.01989
4431.000	-1.69775	-0.72778	-1.26903	0.00994
4432.000	-1.60886	-0.71588	-1.25717	0.06166
4433.000	-1.65034	-0.69996	-1.26112	0.03978
4434.000	-1.58910	-0.66816	-1.27693	0.03381
4435.000	-1.66022	-0.69399	-1.26903	0.04972
4436.000	-1.68787	-0.74170	-1.24334	0.01989
4437.000	-1.62664	-0.70394	-1.26112	0.02983
4438.000	-1.68590	-0.71983	-1.25717	0.02983
4439.000	-1.71158	-0.72181	-1.27100	0.04972
4440.000	-1.62071	-0.70394	-1.26705	0.03381
4441.000	-1.67009	-0.68007	-1.22753	0.03580
4442.000	-1.62861	-0.66020	-1.25124	0.04774
4443.000	-1.69182	-0.70392	-1.27496	0.10342
4444.000	-1.62861	-0.67412	-1.24136	0.09945
4445.000	-1.67009	-0.67808	-1.25717	0.04773
4446.000	-1.64441	-0.70990	-1.27496	0.05967
4447.000	-1.68195	-0.69398	-1.27298	0.09149
4448.000	-1.67009	-0.71983	-1.22951	0.10542
4449.000	-1.67800	-0.67410	-1.25520	0.08950
4450.000	-1.68787	-0.70193	-1.25915	0.09348
4451.000	-1.68392	-0.68205	-1.23346	0.07956
4452.000	-1.65627	-0.66218	-1.23148	0.06763
4453.000	-1.68787	-0.62240	-1.20382	0.07558
4454.000	-1.68392	-0.71386	-1.23544	0.05569
4455.000	-1.62861	-0.63236	-1.24532	0.12332
4456.000	-1.61281	-0.65225	-1.27100	0.07160
4457.000	-1.63849	-0.65224	-1.25322	0.07956
4458.000	-1.67404	-0.68404	-1.22160	0.09149
4459.000	-1.68392	-0.66614	-1.23939	0.06564
4460.000	-1.64837	-0.63633	-1.29076	0.11138
4461.000	-1.71750	-0.69596	-1.24334	0.09945
4462.000	-1.61676	-0.65821	-1.22358	0.10144
4463.000	-1.69775	-0.65222	-1.24729	0.09348
4464.000	-1.63454	-0.59856	-1.23544	0.10343
4465.000	-1.69182	-0.67409	-1.22555	0.11138
4466.000	-1.66812	-0.60849	-1.21370	0.10144
4467.000	-1.63256	-0.63832	-1.25915	0.09149
4468.000	-1.71355	-0.63034	-1.26903	0.17105
4469.000	-1.69577	-0.63433	-1.29867	0.12729
4470.000	-1.62466	-0.64230	-1.23939	0.10144
4471.000	-1.65232	-0.69001	-1.22555	0.10740
4472.000	-1.66614	-0.60451	-1.22160	0.12332
4473.000	-1.66022	-0.64826	-1.25915	0.09746
4474.000	-1.58318	-0.61647	-1.24927	0.13127
4475.000	-1.65034	-0.62241	-1.20777	0.07558
4476.000	-1.64837	-0.59855	-1.27100	0.14917
4477.000	-1.60293	-0.61447	-1.23544	0.13127
4478.000	-1.58120	-0.58863	-1.22555	0.15912
4479.000	-1.65627	-0.57866	-1.21370	0.16111
4480.000	-1.62861	-0.62639	-1.22160	0.12928
4481.000	-1.62071	-0.54885	-1.22951	0.16310
4482.000	-1.60688	-0.63634	-1.24927	0.14321
