time (ms)	lx (deg)	ly (deg)	rx (deg)	ry (deg)
0.000	0.49622	-0.64254	1.46266	-1.26268
1.000	0.42900	-0.66045	1.43698	-1.26667
2.000	0.38749	-0.69227	1.41920	-1.30047
3.000	0.32422	-0.67040	1.42117	-1.29252
4.000	0.37760	-0.76587	1.45476	-1.26666
5.000	0.42307	-0.69824	1.40932	-1.28855
6.000	0.36179	-0.62067	1.41129	-1.27662
7.000	0.36574	-0.67040	1.39746	-1.25078
8.000	0.36376	-0.61868	1.41327	-1.21897
9.000	0.40923	-0.67437	1.42513	-1.27065
10.000	0.38156	-0.63260	1.42710	-1.28456
11.000	0.40923	-0.64254	1.43105	-1.31239
12.000	0.48435	-0.68829	1.41327	-1.25475
13.000	0.41516	-0.66442	1.43698	-1.26667
14.000	0.43296	-0.74001	1.43500	-1.31239
15.000	0.48238	-0.66044	1.42710	-1.30842
16.000	0.40528	-0.70421	1.42710	-1.31239
17.000	0.43889	-0.65647	1.43500	-1.28853
18.000	0.42109	-0.61072	1.41920	-1.32631
19.000	0.43889	-0.64254	1.41129	-1.28060
20.000	0.44086	-0.66442	1.42710	-1.31239
21.000	0.44877	-0.66840	1.39351	-1.30048
22.000	0.38551	-0.63857	1.45081	-1.24678
23.000	0.39935	-0.75592	1.38956	-1.29651
24.000	0.41319	-0.64851	1.41525	-1.32234
25.000	0.42702	-0.69426	1.40339	-1.32632
26.000	0.42109	-0.66045	1.41327	-1.32035
27.000	0.37167	-0.66045	1.42908	-1.35413
28.000	0.38156	-0.77582	1.41920	-1.31240
29.000	0.44679	-0.64652	1.41129	-1.25277
30.000	0.37167	-0.73604	1.41327	-1.31240
31.000	0.44086	-0.66044	1.36783	-1.28062
32.000	0.34202	-0.69427	1.39154	-1.29651
33.000	0.48831	-0.62265	1.43303	-1.30841
34.000	0.40726	-0.71017	1.40734	-1.27066
35.000	0.37167	-0.70023	1.36980	-1.26471
36.000	0.36772	-0.67040	1.34412	-1.29852
37.000	0.37958	-0.71416	1.35597	-1.26075
38.000	0.47447	-0.62066	1.34609	-1.23888
39.000	0.39539	-0.67238	1.34016	-1.27467
40.000	0.39737	-0.63857	1.42315	-1.24680
41.000	0.43098	-0.67835	1.39549	-1.31837
42.000	0.45865	-0.65050	1.38561	-1.23886
43.000	0.44482	-0.66243	1.35597	-1.28858
44.000	0.36376	-0.68034	1.39351	-1.30446
45.000	0.43493	-0.66442	1.39746	-1.32632
46.000	0.38946	-0.65846	1.40734	-1.32234
47.000	0.44482	-0.66840	1.37178	-1.29056
48.000	0.46063	-0.63458	1.36387	-1.21104
49.000	0.41516	-0.67039	1.35399	-1.26075
50.000	0.42900	-0.72410	1.30855	-1.25878
51.000	0.36772	-0.65050	1.33226	-1.26871
52.000	0.44877	-0.67636	1.37771	-1.29850
53.000	0.44679	-0.65647	1.38956	-1.27464
54.000	0.43296	-0.68233	1.34214	-1.25280
55.000	0.42505	-0.64453	1.33621	-1.32039
56.000	0.44877	-0.62663	1.35399	-1.34424
57.000	0.40528	-0.68233	1.34609	-1.27864
58.000	0.38946	-0.64454	1.36585	-1.29255
59.000	0.44679	-0.68033	1.35399	-1.28659
60.000	0.39539	-0.62663	1.32831	-1.26672
61.000	0.48435	-0.64453	1.35795	-1.29255
62.000	0.45272	-0.69426	1.35992	-1.27267
63.000	0.44679	-0.59281	1.34609	-1.27467
64.000	0.47645	-0.59082	1.37968	-1.27862
65.000	0.50017	-0.66839	1.37771	-1.29850
66.000	0.46063	-0.61071	1.36783	-1.23887
67.000	0.46459	-0.63259	1.31052	-1.28264
68.000	0.46854	-0.63060	1.35597	-1.26075
69.000	0.50808	-0.63657	1.32040	-1.28860
70.000	0.51203	-0.63458	1.36783	-1.29453
71.000	0.36574	-0.63260	1.36980	-1.25875
72.000	0.51401	-0.64452	1.36585	-1.27664
73.000	0.60494	-0.63457	1.34214	-1.29057
74.000	0.51598	-0.65447	1.34807	-1.22894
75.000	0.47842	-0.66641	1.35202	-1.27268
76.000	0.54366	-0.60872	1.34016	-1.24087
77.000	0.49226	-0.68232	1.35992	-1.26472
78.000	0.57133	-0.59081	1.31843	-1.23691
79.000	0.52982	-0.58684	1.36585	-1.20905
80.000	0.51796	-0.54905	1.35597	-1.18918
81.000	0.53575	-0.58286	1.34016	-1.16533
82.000	0.50017	-0.54706	1.37178	-1.25875
83.000	0.50808	-0.61668	1.35202	-1.23689
84.000	0.53378	-0.66441	1.33028	-1.21702
85.000	0.46261	-0.61071	1.34609	-1.25081
86.000	0.55157	-0.62662	1.35399	-1.25677
87.000	0.50412	-0.56098	1.31843	-1.21902
88.000	0.59506	-0.54705	1.36585	-1.29255
89.000	0.53180	-0.57888	1.34412	-1.20708
90.000	0.54959	-0.61667	1.34016	-1.20708
91.000	0.46063	-0.66840	1.36783	-1.25875
92.000	0.52587	-0.58684	1.36980	-1.24285
93.000	0.56145	-0.57490	1.37375	-1.24881
94.000	0.48435	-0.55104	1.35795	-1.21303
95.000	0.51796	-0.65049	1.32238	-1.24088
96.000	0.54168	-0.59877	1.34214	-1.27069
97.000	0.57727	-0.54705	1.35004	-1.29454
98.000	0.54366	-0.60872	1.36980	-1.25875
99.000	0.60692	-0.53312	1.32040	-1.23492
100.000	0.48040	-0.62464	1.40339	-1.24482
101.000	0.44877	-0.58883	1.33621	-1.27268
102.000	0.54366	-0.61866	1.28484	-1.22699
103.000	0.50017	-0.56496	1.30855	-1.22300
104.000	0.52191	-0.61071	1.32633	-1.26076
105.000	0.51598	-0.57292	1.32831	-1.24883
106.000	0.59506	-0.61468	1.35795	-1.21900
107.000	0.56145	-0.56893	1.34412	-1.27467
108.000	0.53773	-0.59479	1.32633	-1.26474
109.000	0.58715	-0.54108	1.35992	-1.21701
110.000	0.55552	-0.59678	1.35399	-1.23292
111.000	0.56738	-0.59479	1.31843	-1.24884
112.000	0.56738	-0.59280	1.35597	-1.32237
113.000	0.54761	-0.62065	1.33424	-1.24883
114.000	0.57331	-0.60673	1.29472	-1.24090
115.000	0.59110	-0.60076	1.29274	-1.26277
116.000	0.57133	-0.66640	1.35202	-1.32834
117.000	0.60296	-0.66043	1.35795	-1.26671
118.000	0.65634	-0.55699	1.34016	-1.22895
119.000	0.55354	-0.61269	1.32436	-1.29456
120.000	0.60099	-0.54705	1.33424	-1.28461
121.000	0.53971	-0.60872	1.33621	-1.26076
122.000	0.48238	-0.70420	1.36585	-1.24683
123.000	0.57727	-0.61667	1.35399	-1.26671
124.000	0.57924	-0.52318	1.30657	-1.24686
125.000	0.58320	-0.63059	1.32436	-1.27468
126.000	0.56540	-0.49533	1.34214	-1.27864
127.000	0.52982	-0.65248	1.30064	-1.23294
128.000	0.54366	-0.64054	1.31052	-1.22896
129.000	0.57727	-0.57092	1.29867	-1.23891
130.000	0.53971	-0.55103	1.31448	-1.28462
131.000	0.58517	-0.57291	1.29669	-1.28861
132.000	0.61087	-0.60473	1.30657	-1.25083
133.000	0.55947	-0.61667	1.30855	-1.26475
134.000	0.54168	-0.63259	1.30064	-1.32638
135.000	0.58517	-0.56097	1.29274	-1.29060
136.000	0.61878	-0.66639	1.30657	-1.26872
137.000	0.56738	-0.64452	1.29472	-1.28861
138.000	0.67413	-0.55102	1.33819	-1.33033
139.000	0.65238	-0.57290	1.32436	-1.27269
140.000	0.64250	-0.55500	1.33028	-1.28461
141.000	0.56343	-0.60076	1.31645	-1.28661
142.000	0.60296	-0.57887	1.30460	-1.25680
143.000	0.59703	-0.61468	1.31645	-1.31444
144.000	0.67017	-0.54903	1.27496	-1.27868
145.000	0.64843	-0.64053	1.24532	-1.28665
146.000	0.66820	-0.59876	1.29274	-1.28662
147.000	0.58913	-0.66441	1.27693	-1.31048
148.000	0.59901	-0.62264	1.26508	-1.26079
149.000	0.62273	-0.65645	1.25717	-1.33236
150.000	0.57529	-0.62065	1.29867	-1.31445
151.000	0.59110	-0.59280	1.26112	-1.31248
152.000	0.64250	-0.57091	1.29472	-1.28662
153.000	0.61680	-0.52318	1.25915	-1.27869
154.000	0.68994	-0.59677	1.25322	-1.25881
155.000	0.66029	-0.58484	1.32238	-1.30251
156.000	0.59110	-0.60076	1.27891	-1.24289
157.000	0.65634	-0.61268	1.28879	-1.29458
158.000	0.64448	-0.59279	1.28286	-1.28464
159.000	0.61680	-0.60473	1.25717	-1.28068
160.000	0.65041	-0.53909	1.25520	-1.28664
161.000	0.61482	-0.60075	1.26112	-1.26477
162.000	0.58913	-0.66441	1.25520	-1.27869
163.000	0.61285	-0.63457	1.27100	-1.29856
164.000	0.53773	-0.64452	1.21370	-1.24491
165.000	0.56540	-0.68629	1.23148	-1.21309
166.000	0.62273	-0.64650	1.24532	-1.25881
167.000	0.61087	-0.56097	1.21370	-1.25088
168.000	0.62668	-0.63258	1.25322	-1.23098
169.000	0.61285	-0.66639	1.24729	-1.18525
170.000	0.55157	-0.56694	1.23346	-1.24888
171.000	0.62471	-0.56694	1.25915	-1.27471
172.000	0.58715	-0.64452	1.23148	-1.25286
173.000	0.59901	-0.62065	1.24136	-1.24291
174.000	0.60296	-0.59877	1.21765	-1.27274
175.000	0.61878	-0.59081	1.20382	-1.26877
176.000	0.61878	-0.66440	1.24136	-1.30056
177.000	0.54761	-0.61667	1.22160	-1.29461
178.000	0.64645	-0.64053	1.20975	-1.25684
179.000	0.65238	-0.58881	1.21765	-1.26280
180.000	0.60889	-0.58484	1.21765	-1.32642
181.000	0.58320	-0.59280	1.19394	-1.26281
182.000	0.62668	-0.58086	1.22951	-1.31051
183.000	0.64645	-0.56097	1.15639	-1.24891
184.000	0.61878	-0.62263	1.21370	-1.28467
185.000	0.61680	-0.63457	1.18801	-1.26679
186.000	0.54168	-0.57490	1.16627	-1.26680
187.000	0.58517	-0.61070	1.19987	-1.27872
188.000	0.64250	-0.52317	1.18801	-1.22504
189.000	0.58320	-0.57490	1.18603	-1.28270
190.000	0.70180	-0.57886	1.17813	-1.24692
191.000	0.62471	-0.53312	1.17022	-1.23698
192.000	0.69192	-0.61467	1.18801	-1.29462
193.000	0.61285	-0.63059	1.16232	-1.26084
194.000	0.63064	-0.57489	1.15837	-1.28072
195.000	0.68006	-0.60273	1.13860	-1.19922
196.000	0.61878	-0.53710	1.17220	-1.23499
197.000	0.59110	-0.63059	1.17022	-1.23897
198.000	0.62866	-0.59081	1.14058	-1.28073
199.000	0.62471	-0.51124	1.18998	-1.25486
200.000	0.63064	-0.54705	1.16034	-1.25289
201.000	0.61680	-0.60871	1.17615	-1.23101
202.000	0.58913	-0.52915	1.17022	-1.25686
203.000	0.64052	-0.60274	1.18801	-1.21311
204.000	0.60099	-0.56495	1.19789	-1.20715
205.000	0.73936	-0.57090	1.16429	-1.25289
206.000	0.68006	-0.50925	1.19789	-1.19522
207.000	0.66820	-0.56693	1.14848	-1.23500
208.000	0.60099	-0.59678	1.15441	-1.21313
209.000	0.68796	-0.55102	1.14848	-1.25091
210.000	0.66227	-0.50925	1.11094	-1.18332
211.000	0.62668	-0.57290	1.15244	-1.22903
212.000	0.62075	-0.59677	1.12675	-1.21314
213.000	0.70575	-0.55499	1.15837	-1.24096
214.000	0.73936	-0.56295	1.12872	-1.23302
215.000	0.66029	-0.51124	1.16825	-1.27674
216.000	0.61878	-0.50130	1.19196	-1.23101
217.000	0.66424	-0.61666	1.19789	-1.25088
218.000	0.65831	-0.56494	1.16232	-1.29662
219.000	0.71959	-0.60671	1.11291	-1.24496
220.000	0.74133	-0.52515	1.13860	-1.21314
221.000	0.68994	-0.55698	1.14848	-1.23301
222.000	0.68599	-0.56096	1.14058	-1.18331
223.000	0.66424	-0.58483	1.12082	-1.23104
224.000	0.75517	-0.58085	1.12279	-1.19127
225.000	0.74133	-0.47741	1.10303	-1.16543
226.000	0.67017	-0.53511	1.10698	-1.20122
227.000	0.72354	-0.55101	1.16429	-1.20517
228.000	0.69785	-0.51720	1.13070	-1.18729
229.000	0.67808	-0.56096	1.15639	-1.22704
230.000	0.72750	-0.60074	1.17615	-1.19125
231.000	0.65831	-0.56892	1.14848	-1.25488
232.000	0.71366	-0.55698	1.09710	-1.25689
233.000	0.72354	-0.61466	1.15244	-1.21313
234.000	0.76308	-0.57488	1.11094	-1.19923
235.000	0.77098	-0.58283	1.07536	-1.26088
236.000	0.67610	-0.59677	1.11489	-1.19326
237.000	0.73540	-0.61466	1.12477	-1.19326
238.000	0.75122	-0.61864	1.13465	-1.14554
239.000	0.78680	-0.55697	1.14848	-1.21114
240.000	0.72947	-0.56494	1.09117	-1.21514
241.000	0.82633	-0.54702	1.11489	-1.16940
242.000	0.72354	-0.57090	1.12675	-1.22706
243.000	0.83028	-0.53509	1.10303	-1.17339
244.000	0.78680	-0.54504	1.08722	-1.11971
245.000	0.78284	-0.56294	1.14651	-1.21114
246.000	0.82238	-0.54105	1.14058	-1.19325
247.000	0.81447	-0.54702	1.10698	-1.18730
248.000	0.70180	-0.58085	1.14453	-1.20319
249.000	0.74331	-0.51521	1.12872	-1.15548
250.000	0.80656	-0.55299	1.14848	-1.16144
251.000	0.78284	-0.56294	1.11094	-1.17139
252.000	0.82040	-0.54503	1.14058	-1.20916
253.000	0.79866	-0.52912	1.17220	-1.22107
254.000	0.82831	-0.50724	1.12675	-1.24097
255.000	0.82435	-0.57686	1.11094	-1.16344
256.000	0.74331	-0.56096	1.12872	-1.23899
257.000	0.86784	-0.53707	1.11687	-1.24495
258.000	0.89749	-0.61663	1.11884	-1.20121
259.000	0.82633	-0.57288	1.09117	-1.19526
260.000	0.77691	-0.58084	1.10303	-1.24098
261.000	0.85993	-0.55696	1.10303	-1.21116
262.000	0.85203	-0.55696	1.14453	-1.24097
263.000	0.78087	-0.51719	1.15046	-1.25488
264.000	0.85005	-0.48934	1.13860	-1.22705
265.000	0.84017	-0.51917	1.13268	-1.27477
266.000	0.88365	-0.61265	1.12279	-1.25887
267.000	0.85400	-0.48138	1.13070	-1.21314
268.000	0.77494	-0.53907	1.13070	-1.23700
269.000	0.84214	-0.57089	1.12477	-1.23700
270.000	0.85796	-0.56293	1.13663	-1.25886
271.000	0.85796	-0.55895	1.13465	-1.27278
272.000	0.84214	-0.57288	1.10106	-1.19128
273.000	0.86981	-0.54702	1.08920	-1.23105
274.000	0.89946	-0.61663	1.08327	-1.20123
275.000	0.80459	-0.55498	1.09908	-1.20918
276.000	0.85796	-0.54105	1.08327	-1.18532
277.000	0.83028	-0.55896	1.07734	-1.16345
278.000	0.77098	-0.62460	1.10896	-1.22508
279.000	0.83424	-0.59078	1.10698	-1.21911
280.000	0.78482	-0.52913	1.12279	-1.19525
281.000	0.77889	-0.55498	1.11291	-1.17537
282.000	0.87970	-0.53309	1.08722	-1.19129
283.000	0.80261	-0.54901	1.14453	-1.19922
284.000	0.79470	-0.52912	1.18406	-1.22107
285.000	0.88958	-0.52314	1.14848	-1.17337
286.000	0.81842	-0.57089	1.13465	-1.23699
287.000	0.83424	-0.52713	1.18406	-1.28270
288.000	0.88167	-0.45950	1.15244	-1.20717
289.000	0.90539	-0.55497	1.13465	-1.21513
290.000	0.81249	-0.60073	1.14453	-1.24295
291.000	0.92911	-0.57087	1.17220	-1.22903
292.000	0.90342	-0.51121	1.12872	-1.18928
293.000	0.92713	-0.48734	1.17418	-1.19125
294.000	0.88760	-0.58679	1.15441	-1.20915
295.000	0.90934	-0.54104	1.16034	-1.22704
296.000	0.86191	-0.63254	1.17418	-1.18529
297.000	0.86981	-0.51320	1.10896	-1.20520
298.000	0.89551	-0.53906	1.15244	-1.19325
299.000	0.90342	-0.52911	1.14453	-1.17536
300.000	0.95283	-0.49131	1.14058	-1.19126
301.000	0.91527	-0.50126	1.15046	-1.17734
302.000	0.95085	-0.57286	1.13268	-1.20916
303.000	0.86191	-0.54304	1.13268	-1.18332
304.000	0.81447	-0.50127	1.11094	-1.19128
305.000	0.95480	-0.56291	1.11687	-1.13362
306.000	0.97654	-0.58479	1.17813	-1.22306
307.000	0.90934	-0.58679	1.09513	-1.20520
308.000	0.87772	-0.50326	1.19591	-1.21311
309.000	0.90539	-0.48734	1.10106	-1.16345
310.000	0.93899	-0.50524	1.10106	-1.16146
311.000	0.90539	-0.49132	1.12477	-1.19525
312.000	0.94887	-0.52711	1.09315	-1.19327
313.000	0.94690	-0.53507	1.08722	-1.10778
314.000	0.84610	-0.53707	1.05758	-1.13761
315.000	0.81249	-0.48536	1.01805	-1.15354
316.000	0.73738	-0.46548	0.91725	-1.11579
317.000	0.78680	-0.38790	0.87179	-1.09791
318.000	0.69982	-0.40979	0.75319	-1.04027
319.000	0.59308	-0.29044	0.68796	-0.96869
320.000	0.51401	-0.24668	0.55947	-0.85535
321.000	0.33016	-0.10942	0.43296	-0.82752
322.000	0.24712	-0.02586	0.34399	-0.73604
323.000	0.17200	0.02785	0.23724	-0.59879
324.000	0.07117	0.14921	0.15618	-0.52122
325.000	-0.02175	0.22878	0.08699	-0.46950
326.000	0.02175	0.23674	0.09490	-0.36008
327.000	0.04547	0.26459	0.05931	-0.32229
328.000	0.09292	0.28449	0.07315	-0.31234
329.000	0.14234	0.32228	0.14630	-0.26061
330.000	0.17002	0.21685	0.16211	-0.27056
331.000	0.18386	0.26857	0.23724	-0.28250
332.000	0.30050	0.22281	0.29457	-0.32228
333.000	0.34795	0.14722	0.38353	-0.30835
334.000	0.42702	0.11936	0.41516	-0.35013
335.000	0.50412	0.15119	0.49226	-0.38593
336.000	0.45470	0.02188	0.48633	-0.40980
337.000	0.56738	0.07361	0.51005	-0.44163
338.000	0.57727	0.00597	0.54366	-0.50926
339.000	0.54168	0.04575	0.51401	-0.53313
340.000	0.55750	0.00995	0.53971	-0.51324
341.000	0.53180	0.08355	0.54366	-0.54904
342.000	0.51796	0.00796	0.56540	-0.54307
343.000	0.49028	0.07759	0.54564	-0.53313
344.000	0.49028	0.09151	0.48238	-0.55502
345.000	0.49819	0.12533	0.47645	-0.56894
346.000	0.49424	0.06366	0.49226	-0.58883
347.000	0.49424	0.02387	0.47249	-0.56297
348.000	0.45865	0.08355	0.47447	-0.55303
349.000	0.39935	0.08753	0.46459	-0.53513
350.000	0.42505	0.06764	0.46063	-0.53115
351.000	0.45272	-0.00199	0.45470	-0.52120
352.000	0.39737	0.01989	0.43098	-0.53314
353.000	0.44482	0.06167	0.44482	-0.54507
354.000	0.42307	0.04377	0.42109	-0.47346
355.000	0.49226	0.04973	0.43691	-0.49534
356.000	0.45668	0.05371	0.42900	-0.55104
357.000	0.43889	0.05769	0.41912	-0.51723
358.000	0.45865	0.11936	0.41912	-0.50131
359.000	0.43493	0.01592	0.45075	-0.52717
360.000	0.52982	0.08355	0.42900	-0.53115
361.000	0.42307	0.09748	0.43098	-0.49932
362.000	0.41714	0.11538	0.45865	-0.52319
363.000	0.45865	0.07560	0.40133	-0.46949
364.000	0.49226	0.05968	0.45865	-0.50728
365.000	0.47249	0.00199	0.42505	-0.49534
366.000	0.45075	0.10544	0.44877	-0.47545
367.000	0.44877	0.11140	0.40726	-0.51922
368.000	0.48435	0.10146	0.42900	-0.44163
369.000	0.53378	0.14323	0.39737	-0.45954
370.000	0.41319	0.10146	0.40726	-0.42970
371.000	0.46261	0.08554	0.40330	-0.44959
372.000	0.48831	0.13329	0.41516	-0.45755
373.000	0.39737	0.10345	0.43098	-0.47943
374.000	0.51203	0.08753	0.40330	-0.45158
375.000	0.50412	0.13329	0.41319	-0.42174
376.000	0.42109	0.08952	0.37958	-0.47744
377.000	0.50412	0.06167	0.39737	-0.43567
378.000	0.45470	0.08156	0.36179	-0.44562
379.000	0.51401	0.09549	0.37760	-0.48341
380.000	0.49819	0.18103	0.41714	-0.44760
381.000	0.51203	0.13727	0.41319	-0.44959
382.000	0.53180	0.09151	0.38353	-0.45158
383.000	0.52784	0.12732	0.38156	-0.42771
384.000	0.46854	0.02785	0.39935	-0.44561
385.000	0.56936	0.09151	0.40133	-0.43169
386.000	0.48435	0.13528	0.38749	-0.45357
387.000	0.54366	0.12533	0.38551	-0.38594
388.000	0.44482	0.16114	0.39144	-0.46551
389.000	0.49424	0.16114	0.37563	-0.37798
390.000	0.47447	0.11339	0.32620	-0.41379
391.000	0.49819	0.13727	0.38749	-0.45755
392.000	0.43296	0.13727	0.34795	-0.43169
393.000	0.49424	0.08952	0.40528	-0.40981
394.000	0.55552	0.19694	0.37563	-0.48540
395.000	0.49028	0.09151	0.34202	-0.41578
396.000	0.53971	0.04576	0.34993	-0.36207
397.000	0.41121	0.12135	0.36772	-0.42174
398.000	0.53180	0.06963	0.38946	-0.43567
399.000	0.50215	0.09350	0.37958	-0.41578
400.000	0.51401	0.18899	0.35586	-0.39191
401.000	0.46459	0.13130	0.39342	-0.41578
402.000	0.45470	0.07957	0.39935	-0.42771
403.000	0.48831	0.21485	0.35586	-0.42572
404.000	0.52982	0.11140	0.35783	-0.38992
405.000	0.55552	0.16512	0.36969	-0.40981
406.000	0.59703	0.17705	0.36574	-0.37400
407.000	0.48831	0.15318	0.33806	-0.37400
408.000	0.49028	0.11339	0.37563	-0.37201
409.000	0.57331	0.11140	0.42109	-0.40384
410.000	0.55552	0.20291	0.35190	-0.35411
411.000	0.58122	0.08156	0.37760	-0.37201
412.000	0.55157	0.13130	0.32620	-0.33024
413.000	0.51994	0.14124	0.34993	-0.38793
414.000	0.50412	0.12135	0.37365	-0.41379
415.000	0.52784	0.12533	0.34004	-0.38793
416.000	0.52587	0.13130	0.32620	-0.36803
417.000	0.52191	0.15517	0.34795	-0.35411
418.000	0.56145	0.16511	0.36376	-0.34814
419.000	0.55552	0.16114	0.40726	-0.40185
420.000	0.52784	0.18501	0.34597	-0.31631
421.000	0.53378	0.19496	0.35190	-0.33024
422.000	0.58913	0.17506	0.34993	-0.37798
423.000	0.55157	0.15915	0.39144	-0.27652
424.000	0.62471	0.13129	0.33806	-0.38992
425.000	0.57331	0.17904	0.34399	-0.40384
426.000	0.57924	0.16114	0.36376	-0.36405
427.000	0.60889	0.09748	0.33609	-0.28647
428.000	0.56540	0.17506	0.36772	-0.32825
429.000	0.58122	0.14323	0.33609	-0.34416
430.000	0.56145	0.18103	0.35388	-0.38992
431.000	0.54564	0.15517	0.37760	-0.39588
432.000	0.57727	0.24270	0.34993	-0.35411
433.000	0.60692	0.19694	0.39342	-0.37798
434.000	0.61087	0.19694	0.35586	-0.36008
435.000	0.51796	0.20092	0.35783	-0.44164
436.000	0.57331	0.17904	0.35981	-0.35411
437.000	0.51796	0.18103	0.36179	-0.37201
438.000	0.60494	0.20689	0.38551	-0.37400
439.000	0.63064	0.19893	0.30643	-0.34615
440.000	0.61285	0.27055	0.34202	-0.36604
441.000	0.60099	0.14124	0.34795	-0.35411
442.000	0.61285	0.25662	0.36969	-0.37798
443.000	0.54564	0.20888	0.33213	-0.38992
444.000	0.56540	0.19297	0.34399	-0.33422
445.000	0.62668	0.18700	0.37958	-0.31631
446.000	0.58517	0.16114	0.35783	-0.32825
447.000	0.57133	0.18700	0.32422	-0.31830
448.000	0.60692	0.25264	0.33016	-0.33422
449.000	0.63855	0.24468	0.37365	-0.32029
450.000	0.65436	0.22479	0.36772	-0.35610
451.000	0.51598	0.26259	0.35981	-0.34217
452.000	0.61285	0.22479	0.36969	-0.37599
453.000	0.57924	0.20291	0.35190	-0.33223
454.000	0.57331	0.25065	0.38749	-0.35809
455.000	0.60296	0.24270	0.36376	-0.31432
456.000	0.63459	0.21484	0.34597	-0.37997
457.000	0.59901	0.24071	0.33411	-0.30438
458.000	0.63459	0.24071	0.32225	-0.32626
459.000	0.64645	0.26458	0.32620	-0.32228
460.000	0.51994	0.25066	0.36179	-0.37798
461.000	0.57331	0.16710	0.31434	-0.32029
462.000	0.65238	0.26855	0.34597	-0.38992
463.000	0.59506	0.26458	0.36179	-0.35013
464.000	0.68599	0.28248	0.32620	-0.35212
465.000	0.56936	0.24270	0.30248	-0.35809
466.000	0.67808	0.24468	0.36376	-0.35013
467.000	0.67413	0.25264	0.33411	-0.30835
468.000	0.58913	0.24866	0.36772	-0.34018
469.000	0.63262	0.22678	0.37958	-0.33222
470.000	0.62866	0.22479	0.32818	-0.33024
471.000	0.58913	0.21684	0.36574	-0.32228
472.000	0.64250	0.26856	0.37760	-0.32626
473.000	0.68006	0.30436	0.32818	-0.32228
474.000	0.57529	0.23076	0.36772	-0.34416
475.000	0.61878	0.26458	0.35783	-0.32029
476.000	0.65831	0.27054	0.38353	-0.30238
477.000	0.68994	0.29441	0.32620	-0.30040
478.000	0.68401	0.33420	0.31434	-0.29841
479.000	0.64843	0.28049	0.32620	-0.35809
480.000	0.71564	0.38393	0.35586	-0.34018
481.000	0.65041	0.37796	0.34202	-0.31830
482.000	0.68994	0.28447	0.37365	-0.31233
483.000	0.70378	0.34613	0.35190	-0.34615
484.000	0.75517	0.30435	0.33609	-0.35809
485.000	0.60099	0.31033	0.40528	-0.36206
486.000	0.66622	0.26259	0.31632	-0.32427
487.000	0.71959	0.28049	0.37365	-0.32427
488.000	0.69587	0.27253	0.35586	-0.33223
489.000	0.67215	0.26259	0.33609	-0.31432
490.000	0.63459	0.28845	0.39935	-0.31631
491.000	0.69785	0.28049	0.35388	-0.33422
492.000	0.61878	0.22877	0.37167	-0.29045
493.000	0.61680	0.35608	0.32027	-0.30438
494.000	0.65041	0.33022	0.34399	-0.26857
495.000	0.66820	0.32624	0.31434	-0.29244
496.000	0.71564	0.31430	0.34795	-0.30835
497.000	0.66029	0.30237	0.30841	-0.27454
498.000	0.73936	0.31430	0.33016	-0.31432
499.000	0.60296	0.31829	0.31829	-0.30637
500.000	0.71959	0.31629	0.31632	-0.35212
501.000	0.61680	0.24071	0.31236	-0.30637
502.000	0.63064	0.25861	0.34597	-0.31233
503.000	0.75715	0.31430	0.34399	-0.24072
504.000	0.60494	0.27452	0.36969	-0.31432
505.000	0.68994	0.29640	0.37760	-0.32228
506.000	0.74529	0.38790	0.35981	-0.27255
507.000	0.64843	0.30834	0.37563	-0.28249
508.000	0.63855	0.23673	0.34993	-0.25663
509.000	0.72552	0.33618	0.35981	-0.31233
510.000	0.68796	0.29839	0.37563	-0.24867
511.000	0.73145	0.36005	0.38156	-0.31631
512.000	0.68994	0.31232	0.38353	-0.26260
513.000	0.73936	0.29839	0.36969	-0.31432
514.000	0.68796	0.27253	0.35981	-0.22679
515.000	0.66029	0.31630	0.34202	-0.27255
516.000	0.73738	0.32425	0.33016	-0.28249
517.000	0.70971	0.28049	0.32225	-0.25066
518.000	0.74924	0.33021	0.33016	-0.24470
519.000	0.66424	0.34216	0.33213	-0.23873
520.000	0.69192	0.35807	0.33411	-0.22480
521.000	0.68203	0.32226	0.35783	-0.29244
522.000	0.66424	0.27452	0.28864	-0.21486
523.000	0.60889	0.28447	0.33806	-0.28050
524.000	0.75122	0.24667	0.33016	-0.21287
525.000	0.68796	0.35011	0.33016	-0.24867
526.000	0.66424	0.26855	0.34004	-0.28846
527.000	0.72947	0.26855	0.35981	-0.32228
528.000	0.67413	0.32425	0.33609	-0.25464
529.000	0.66029	0.31232	0.37760	-0.27652
530.000	0.67413	0.38194	0.34202	-0.27454
531.000	0.68994	0.34215	0.34993	-0.26658
532.000	0.65041	0.20888	0.31829	-0.22480
533.000	0.66029	0.30237	0.33213	-0.27056
534.000	0.70575	0.37995	0.35586	-0.22679
535.000	0.66820	0.31630	0.33609	-0.27454
536.000	0.68203	0.34613	0.31434	-0.21684
537.000	0.63262	0.38194	0.33411	-0.19496
538.000	0.67215	0.27452	0.32027	-0.18700
539.000	0.70180	0.33022	0.30050	-0.21486
540.000	0.69982	0.26258	0.35190	-0.23674
541.000	0.67808	0.27054	0.33016	-0.24867
542.000	0.77889	0.31629	0.32422	-0.21287
543.000	0.69389	0.29839	0.29852	-0.22281
544.000	0.64645	0.28447	0.35190	-0.25663
545.000	0.70575	0.30237	0.35190	-0.27056
546.000	0.71168	0.33420	0.35190	-0.23276
547.000	0.63855	0.24866	0.32027	-0.24271
548.000	0.61285	0.32028	0.33213	-0.24072
549.000	0.64052	0.28049	0.31829	-0.26061
550.000	0.63855	0.27850	0.32818	-0.24072
551.000	0.68599	0.30834	0.33806	-0.26061
552.000	0.74529	0.26258	0.33016	-0.23077
553.000	0.66227	0.23872	0.32027	-0.23077
554.000	0.66820	0.30237	0.32620	-0.21684
555.000	0.68006	0.26855	0.40133	-0.19098
556.000	0.72157	0.31032	0.34202	-0.21485
557.000	0.65634	0.32226	0.31829	-0.18501
558.000	0.70180	0.28447	0.33411	-0.21088
559.000	0.68006	0.25662	0.29259	-0.20690
560.000	0.63262	0.30834	0.34795	-0.26061
561.000	0.65041	0.25264	0.35190	-0.23276
562.000	0.70378	0.24269	0.32027	-0.23276
563.000	0.72354	0.31629	0.32818	-0.20093
564.000	0.69192	0.31629	0.33609	-0.21883
565.000	0.71168	0.27054	0.32818	-0.23276
566.000	0.65436	0.29044	0.31039	-0.22480
567.000	0.69982	0.22479	0.35388	-0.20292
568.000	0.66820	0.28248	0.34399	-0.20690
569.000	0.63459	0.29641	0.36179	-0.21684
570.000	0.61878	0.31431	0.35981	-0.20690
571.000	0.68599	0.27850	0.37760	-0.21485
572.000	0.67808	0.25861	0.29259	-0.18501
573.000	0.65041	0.27452	0.34993	-0.20491
574.000	0.64250	0.29442	0.35586	-0.21485
575.000	0.66227	0.28845	0.34993	-0.13926
576.000	0.67610	0.28248	0.33609	-0.19894
577.000	0.65634	0.25065	0.33609	-0.21485
578.000	0.63064	0.32227	0.33016	-0.20690
579.000	0.68401	0.29640	0.36376	-0.22082
580.000	0.63459	0.33818	0.30248	-0.20292
581.000	0.63262	0.33420	0.34004	-0.21485
582.000	0.64843	0.31232	0.32225	-0.18700
583.000	0.59506	0.34017	0.34399	-0.21883
584.000	0.67413	0.29044	0.32818	-0.21287
585.000	0.65634	0.28447	0.32225	-0.19894
586.000	0.62075	0.34017	0.36179	-0.18899
587.000	0.61285	0.28248	0.32818	-0.16910
588.000	0.68994	0.26855	0.35783	-0.18103
589.000	0.67610	0.31232	0.33016	-0.19894
590.000	0.60296	0.28248	0.30643	-0.18302
591.000	0.65436	0.26259	0.31039	-0.14921
592.000	0.63459	0.29442	0.36179	-0.19098
593.000	0.60889	0.26458	0.28666	-0.09748
594.000	0.63855	0.28646	0.33016	-0.15318
595.000	0.64250	0.32028	0.33213	-0.19098
596.000	0.59110	0.25662	0.30841	-0.21287
597.000	0.60099	0.27055	0.28666	-0.17109
598.000	0.66029	0.24269	0.27876	-0.21088
599.000	0.57529	0.21883	0.29655	-0.25663
600.000	0.51796	0.26060	0.31829	-0.19496
601.000	0.59506	0.24668	0.31434	-0.22082
602.000	0.58517	0.25861	0.36376	-0.16711
603.000	0.60099	0.31431	0.31434	-0.16910
604.000	0.62273	0.31829	0.35190	-0.21684
605.000	0.62075	0.26259	0.33806	-0.21287
606.000	0.66820	0.24866	0.35190	-0.22480
607.000	0.62668	0.31033	0.32225	-0.18302
608.000	0.65041	0.29839	0.33806	-0.24271
609.000	0.58913	0.25264	0.29457	-0.19496
610.000	0.67610	0.24866	0.29655	-0.21287
611.000	0.65436	0.32425	0.36376	-0.25265
612.000	0.56540	0.27055	0.31236	-0.18700
613.000	0.68006	0.28646	0.31434	-0.21485
614.000	0.62075	0.28646	0.29852	-0.24271
615.000	0.62668	0.29839	0.30643	-0.22281
616.000	0.57133	0.28248	0.29259	-0.17308
617.000	0.68401	0.30635	0.34795	-0.18501
618.000	0.67215	0.27850	0.30643	-0.17905
619.000	0.63459	0.28845	0.33806	-0.21485
620.000	0.62471	0.28845	0.31434	-0.17308
621.000	0.68401	0.32624	0.30841	-0.17905
622.000	0.69192	0.29242	0.27480	-0.15318
623.000	0.63855	0.33221	0.29655	-0.17905
624.000	0.56738	0.23474	0.26887	-0.15318
625.000	0.60494	0.29840	0.33609	-0.19894
626.000	0.67017	0.31033	0.28271	-0.19098
627.000	0.58517	0.23673	0.30248	-0.15915
628.000	0.60889	0.28646	0.32422	-0.19695
629.000	0.66227	0.26060	0.31236	-0.15119
630.000	0.65634	0.30436	0.33806	-0.17507
631.000	0.61878	0.25463	0.31236	-0.15318
632.000	0.61087	0.33818	0.32225	-0.10942
633.000	0.59506	0.24469	0.33016	-0.13528
634.000	0.63064	0.27452	0.30446	-0.19098
635.000	0.64250	0.29640	0.28271	-0.16512
636.000	0.69192	0.32425	0.32422	-0.16910
637.000	0.65634	0.31232	0.31236	-0.17706
638.000	0.66424	0.23076	0.32620	-0.13926
639.000	0.59308	0.23474	0.34993	-0.18700
640.000	0.65238	0.24070	0.33411	-0.19695
641.000	0.60099	0.21684	0.32027	-0.22878
642.000	0.65634	0.28646	0.28271	-0.13727
643.000	0.63064	0.28049	0.29457	-0.20093
644.000	0.63064	0.32028	0.29655	-0.16313
645.000	0.61482	0.31829	0.31039	-0.09350
646.000	0.60296	0.26856	0.31236	-0.08952
647.000	0.55354	0.25463	0.27480	-0.15120
648.000	0.58715	0.32426	0.28073	-0.14921
649.000	0.58517	0.25264	0.29062	-0.18501
650.000	0.64843	0.24071	0.25701	-0.10544
651.000	0.63855	0.21484	0.30841	-0.18700
652.000	0.66227	0.31829	0.29457	-0.13727
653.000	0.58517	0.25463	0.29852	-0.15318
654.000	0.62866	0.32426	0.28271	-0.13727
655.000	0.53575	0.24668	0.29259	-0.15119
656.000	0.70971	0.23076	0.31236	-0.16512
657.000	0.63459	0.28049	0.28864	-0.14921
658.000	0.60692	0.25662	0.29852	-0.11936
659.000	0.53575	0.24867	0.29457	-0.10345
660.000	0.57133	0.23275	0.31434	-0.16313
661.000	0.65041	0.26855	0.33213	-0.16313
662.000	0.62273	0.23872	0.29852	-0.14921
663.000	0.65831	0.29441	0.26689	-0.12732
664.000	0.61680	0.26458	0.32225	-0.14921
665.000	0.58913	0.28646	0.33016	-0.17905
666.000	0.59703	0.27453	0.28469	-0.13926
667.000	0.61482	0.28049	0.29655	-0.16910
668.000	0.56936	0.27254	0.28469	-0.16910
669.000	0.61087	0.26259	0.27678	-0.15120
670.000	0.65238	0.27054	0.26294	-0.15120
671.000	0.58122	0.29044	0.28271	-0.16711
672.000	0.57133	0.28248	0.28666	-0.19098
673.000	0.53773	0.27851	0.30446	-0.15716
674.000	0.58517	0.26259	0.31829	-0.16512
675.000	0.57331	0.25065	0.28271	-0.11340
676.000	0.62866	0.25065	0.28864	-0.15517
677.000	0.57331	0.23275	0.28864	-0.20491
678.000	0.59308	0.28845	0.24910	-0.17507
679.000	0.60494	0.27055	0.30050	-0.17109
680.000	0.58517	0.25662	0.30446	-0.14921
681.000	0.53971	0.30039	0.27876	-0.16313
682.000	0.61285	0.25662	0.30050	-0.16512
683.000	0.55947	0.19893	0.26492	-0.19297
684.000	0.58517	0.33420	0.28271	-0.17507
685.000	0.55157	0.25066	0.24317	-0.19894
686.000	0.65831	0.32823	0.28864	-0.18899
687.000	0.53378	0.24270	0.29457	-0.17507
688.000	0.51796	0.20888	0.29457	-0.17706
689.000	0.61680	0.26060	0.25899	-0.17706
690.000	0.53971	0.24270	0.31434	-0.18899
691.000	0.59901	0.27055	0.30643	-0.21486
692.000	0.59703	0.28248	0.30841	-0.17109
693.000	0.62866	0.22479	0.32027	-0.22082
694.000	0.56145	0.22877	0.30050	-0.18700
695.000	0.55552	0.25463	0.27876	-0.13727
696.000	0.56145	0.25662	0.29062	-0.19297
697.000	0.56145	0.27453	0.30841	-0.17706
698.000	0.51598	0.20092	0.30841	-0.21287
699.000	0.53180	0.25861	0.27876	-0.19098
700.000	0.47842	0.24867	0.28666	-0.13926
701.000	0.58517	0.29044	0.28666	-0.18899
702.000	0.54168	0.22281	0.29259	-0.17507
703.000	0.56145	0.29840	0.28073	-0.16313
704.000	0.55750	0.25463	0.29062	-0.14523
705.000	0.54761	0.26060	0.30446	-0.17109
706.000	0.52389	0.29442	0.34795	-0.15517
707.000	0.59506	0.33023	0.29062	-0.18501
708.000	0.55750	0.29044	0.34202	-0.14324
709.000	0.53180	0.24867	0.31632	-0.19098
710.000	0.51994	0.26856	0.31434	-0.21287
711.000	0.55354	0.27254	0.34202	-0.20889
712.000	0.54168	0.31630	0.32620	-0.12931
713.000	0.55157	0.26458	0.33016	-0.14920
714.000	0.51005	0.30835	0.35388	-0.18899
715.000	0.52587	0.29840	0.33016	-0.14523
716.000	0.54761	0.31033	0.32422	-0.17109
717.000	0.58913	0.31829	0.35586	-0.18501
718.000	0.59901	0.27453	0.33016	-0.15716
719.000	0.55947	0.27652	0.32027	-0.15915
720.000	0.55157	0.28050	0.33411	-0.16313
721.000	0.56343	0.26060	0.31039	-0.11737
722.000	0.49424	0.25265	0.34597	-0.14125
723.000	0.56145	0.27652	0.30841	-0.12931
724.000	0.57924	0.31829	0.30841	-0.17109
725.000	0.57924	0.26259	0.32225	-0.17706
726.000	0.64645	0.33221	0.29457	-0.16910
727.000	0.52587	0.24270	0.33411	-0.12533
728.000	0.53180	0.27254	0.31236	-0.15716
729.000	0.52191	0.27055	0.35586	-0.13130
730.000	0.53773	0.23076	0.32027	-0.15318
731.000	0.50808	0.29641	0.33806	-0.12334
732.000	0.56145	0.28646	0.32027	-0.19297
733.000	0.55750	0.32227	0.34202	-0.16711
734.000	0.49226	0.27851	0.31236	-0.16114
735.000	0.58122	0.29442	0.31236	-0.14324
736.000	0.62075	0.29044	0.31236	-0.16711
737.000	0.60692	0.26458	0.33609	-0.14125
738.000	0.54564	0.19694	0.31039	-0.20093
739.000	0.52191	0.26657	0.26294	-0.16910
740.000	0.51005	0.21087	0.33016	-0.20889
741.000	0.59308	0.26060	0.33411	-0.21088
742.000	0.53773	0.21883	0.28073	-0.20491
743.000	0.57924	0.23673	0.30248	-0.19894
744.000	0.52587	0.27652	0.33806	-0.18302
745.000	0.58122	0.24270	0.29457	-0.17507
746.000	0.59308	0.26259	0.28073	-0.25066
747.000	0.61482	0.26657	0.28469	-0.22679
748.000	0.50412	0.23474	0.28271	-0.23674
749.000	0.57331	0.24270	0.25899	-0.19496
750.000	0.56343	0.35012	0.27480	-0.24868
751.000	0.60494	0.23673	0.28469	-0.22281
752.000	0.52784	0.26060	0.27480	-0.23475
753.000	0.58517	0.27453	0.24515	-0.24470
754.000	0.53971	0.21883	0.28073	-0.23077
755.000	0.55157	0.24668	0.27876	-0.25464
756.000	0.56145	0.22678	0.29259	-0.22281
757.000	0.56738	0.27055	0.25503	-0.23276
758.000	0.50808	0.24270	0.25899	-0.20491
759.000	0.50808	0.26856	0.28073	-0.17109
760.000	0.48633	0.24867	0.24515	-0.23475
761.000	0.51598	0.29442	0.26492	-0.18899
762.000	0.60692	0.34216	0.22538	-0.20292
763.000	0.53773	0.33222	0.27678	-0.23077
764.000	0.59506	0.37598	0.26689	-0.15318
765.000	0.54366	0.29840	0.27085	-0.16910
766.000	0.53575	0.34216	0.27085	-0.15318
767.000	0.54959	0.32426	0.26096	-0.11738
768.000	0.54366	0.24668	0.28666	-0.12533
769.000	0.49226	0.25464	0.24317	-0.09748
770.000	0.54168	0.36405	0.22933	-0.08753
771.000	0.54564	0.35808	0.23724	-0.13130
772.000	0.56343	0.34813	0.27480	-0.12931
773.000	0.51994	0.25265	0.24317	-0.13130
774.000	0.52784	0.26259	0.26689	-0.20889
775.000	0.55552	0.26259	0.30248	-0.15119
776.000	0.52982	0.26060	0.26096	-0.15318
777.000	0.65634	0.26458	0.31039	-0.17308
778.000	0.51005	0.27055	0.28469	-0.17109
779.000	0.53180	0.35012	0.26689	-0.15120
780.000	0.54168	0.30039	0.28469	-0.16711
781.000	0.57727	0.32625	0.28864	-0.11936
782.000	0.54761	0.33421	0.29457	-0.16313
783.000	0.57133	0.28248	0.29655	-0.12931
784.000	0.53773	0.17705	0.30841	-0.15517
785.000	0.52389	0.24867	0.27876	-0.11340
786.000	0.59901	0.23872	0.30248	-0.17706
787.000	0.59901	0.23673	0.28271	-0.17706
788.000	0.61285	0.28049	0.29655	-0.14125
789.000	0.61878	0.29044	0.28271	-0.18303
790.000	0.58320	0.29442	0.26096	-0.21883
791.000	0.60296	0.31829	0.24712	-0.18104
792.000	0.50610	0.29641	0.32225	-0.21287
793.000	0.53378	0.27851	0.27876	-0.18501
794.000	0.57331	0.32625	0.29852	-0.18700
795.000	0.61087	0.28248	0.31829	-0.14125
796.000	0.60889	0.24469	0.23329	-0.10743
797.000	0.59703	0.27651	0.27678	-0.16711
798.000	0.57924	0.30834	0.30446	-0.13329
799.000	0.54168	0.30238	0.30643	-0.15318
800.000	0.51796	0.28845	0.28864	-0.16711
801.000	0.55947	0.26657	0.28864	-0.12334
802.000	0.55354	0.31431	0.28271	-0.12931
803.000	0.54761	0.21087	0.25899	-0.12732
804.000	0.55157	0.21883	0.24119	-0.12732
805.000	0.54366	0.24867	0.28666	-0.17507
806.000	0.59506	0.25463	0.27678	-0.16114
807.000	0.56738	0.26259	0.30446	-0.17308
808.000	0.57133	0.26060	0.26096	-0.20491
809.000	0.63459	0.31232	0.26294	-0.14324
810.000	0.56343	0.27055	0.32818	-0.15517
811.000	0.51796	0.31630	0.28666	-0.15716
812.000	0.57924	0.24867	0.27282	-0.15915
813.000	0.53378	0.22480	0.25305	-0.18502
814.000	0.55947	0.26060	0.25899	-0.11936
815.000	0.47249	0.28448	0.37760	-0.14125
816.000	0.59703	0.25861	0.30446	-0.18899
817.000	0.54564	0.26060	0.27085	-0.12135
818.000	0.49819	0.21485	0.25899	-0.12533
819.000	0.52982	0.26060	0.28271	-0.18700
820.000	0.58122	0.26856	0.29062	-0.17706
821.000	0.54168	0.26856	0.25503	-0.16711
822.000	0.58122	0.26458	0.26689	-0.20889
823.000	0.57331	0.25861	0.23922	-0.17109
824.000	0.57331	0.25861	0.25899	-0.13727
825.000	0.60692	0.26458	0.25899	-0.12931
826.000	0.52587	0.35609	0.29655	-0.17308
827.000	0.52982	0.31630	0.24712	-0.16313
828.000	0.46656	0.27254	0.25899	-0.14125
829.000	0.50808	0.26259	0.24119	-0.16910
830.000	0.51994	0.30039	0.23131	-0.13329
831.000	0.53773	0.24071	0.24910	-0.13528
832.000	0.48831	0.29044	0.23922	-0.15318
833.000	0.57924	0.31829	0.26492	-0.16910
834.000	0.55157	0.28646	0.26096	-0.16910
835.000	0.60296	0.27254	0.24712	-0.19894
836.000	0.51994	0.21286	0.24712	-0.17706
837.000	0.48435	0.28846	0.27085	-0.23873
838.000	0.48040	0.34416	0.24910	-0.18303
839.000	0.55750	0.28248	0.21154	-0.18104
840.000	0.55157	0.31431	0.23922	-0.20292
841.000	0.56343	0.30834	0.25503	-0.17905
842.000	0.54959	0.32426	0.23526	-0.18303
843.000	0.55947	0.30835	0.25503	-0.16512
844.000	0.48831	0.32227	0.21747	-0.15915
845.000	0.55947	0.28049	0.21549	-0.12931
846.000	0.53971	0.29641	0.20363	-0.13926
847.000	0.56936	0.30039	0.23329	-0.15915
848.000	0.50412	0.26458	0.20165	-0.17706
849.000	0.55750	0.23275	0.19375	-0.14722
850.000	0.49622	0.30238	0.14827	-0.15716
851.000	0.53773	0.29442	0.20363	-0.15716
852.000	0.55157	0.29243	0.21154	-0.19496
853.000	0.48831	0.26856	0.17595	-0.16512
854.000	0.61285	0.33420	0.15618	-0.17706
855.000	0.52587	0.30238	0.18584	-0.14523
856.000	0.53180	0.29840	0.17398	-0.13329
857.000	0.55157	0.29442	0.17002	-0.16114
858.000	0.47842	0.36405	0.18781	-0.16512
859.000	0.45470	0.32228	0.15025	-0.15716
860.000	0.49819	0.26060	0.20758	-0.14722
861.000	0.51005	0.25464	0.17002	-0.17905
862.000	0.54564	0.32426	0.13444	-0.16313
863.000	0.52191	0.31829	0.21549	-0.14722
864.000	0.48040	0.32824	0.20561	-0.21088
865.000	0.53773	0.33421	0.18979	-0.18502
866.000	0.45865	0.33222	0.13839	-0.19894
867.000	0.45470	0.25066	0.15421	-0.19496
868.000	0.53180	0.33819	0.15223	-0.14722
869.000	0.54761	0.32625	0.16607	-0.21287
870.000	0.42505	0.25265	0.20165	-0.16512
871.000	0.57331	0.33619	0.19572	-0.18303
872.000	0.44086	0.30238	0.22538	-0.17308
873.000	0.48238	0.29641	0.21945	-0.15319
874.000	0.46261	0.31631	0.20165	-0.15517
875.000	0.49028	0.36007	0.22735	-0.17706
876.000	0.54564	0.24270	0.19375	-0.17706
877.000	0.48040	0.29243	0.22933	-0.14921
878.000	0.47842	0.26061	0.18584	-0.14722
879.000	0.52191	0.31233	0.20956	-0.19496
880.000	0.40133	0.26658	0.19572	-0.15517
881.000	0.42307	0.22480	0.24515	-0.16114
882.000	0.47052	0.26856	0.17595	-0.12135
883.000	0.46656	0.26061	0.19572	-0.14324
884.000	0.45272	0.25464	0.20561	-0.12931
885.000	0.51598	0.30636	0.22933	-0.13926
886.000	0.45075	0.28249	0.20758	-0.12334
887.000	0.55354	0.25463	0.20363	-0.13727
888.000	0.46063	0.22082	0.22142	-0.15915
889.000	0.50017	0.24071	0.18979	-0.12732
890.000	0.50215	0.26458	0.20758	-0.15517
891.000	0.37958	0.28647	0.20165	-0.12334
892.000	0.45668	0.26061	0.19572	-0.13926
893.000	0.52191	0.30636	0.17398	-0.18899
894.000	0.42702	0.31034	0.23526	-0.12334
895.000	0.46261	0.32426	0.21352	-0.13329
896.000	0.47645	0.36206	0.19968	-0.14324
897.000	0.53180	0.32028	0.16607	-0.09350
898.000	0.47645	0.31830	0.19572	-0.08555
899.000	0.45865	0.37798	0.17595	-0.05173
900.000	0.45865	0.35211	0.17595	-0.08753
901.000	0.41516	0.35411	0.18386	-0.03979
902.000	0.45470	0.33819	0.20758	-0.06366
903.000	0.43098	0.33222	0.19177	-0.10942
904.000	0.46656	0.30835	0.16607	-0.06963
905.000	0.45470	0.34814	0.16804	-0.07560
906.000	0.48435	0.29641	0.19968	-0.05769
907.000	0.42109	0.34615	0.21747	-0.07162
908.000	0.37563	0.28050	0.19968	-0.09350
909.000	0.40330	0.33421	0.20561	-0.09549
910.000	0.45865	0.38593	0.19572	-0.06167
911.000	0.43296	0.34814	0.15025	-0.05371
912.000	0.41912	0.34416	0.17398	-0.03581
913.000	0.37365	0.39190	0.18781	-0.03979
914.000	0.38946	0.36803	0.17398	-0.11340
915.000	0.33806	0.40782	0.17398	-0.08356
916.000	0.38156	0.39588	0.21945	-0.06963
917.000	0.36179	0.36604	0.15223	-0.02984
918.000	0.37365	0.38793	0.19375	-0.03979
919.000	0.35783	0.33223	0.22538	-0.09549
920.000	0.38946	0.31034	0.24515	-0.05172
921.000	0.46261	0.38991	0.28271	-0.03382
922.000	0.52784	0.34614	0.27480	-0.03183
923.000	0.56936	0.45356	0.41516	0.05968
924.000	0.75912	0.40182	0.54761	0.03382
925.000	1.03386	0.38787	0.72947	0.09350
926.000	1.19987	0.51116	0.94295	0.13725
927.000	1.28681	0.51114	1.12082	0.15117
928.000	1.39944	0.54692	1.34016	0.19491
929.000	1.73528	0.56870	1.64639	0.07954
930.000	1.99597	0.64018	1.87946	0.09345
931.000	2.15194	0.73752	2.06902	0.08549
932.000	2.39868	0.77118	2.28026	0.11927
933.000	2.55852	0.77705	2.38289	0.12324
934.000	2.69070	0.76504	2.60587	0.05366
935.000	2.86229	0.78678	2.75185	0.07154
936.000	2.98652	0.78868	2.91357	0.00397
937.000	3.02989	0.84228	2.98258	0.00993
938.000	3.11860	0.80249	3.06735	-0.09536
939.000	3.24080	0.85800	3.12058	-0.06953
940.000	3.27627	0.83811	3.12255	-0.11720
941.000	3.24277	0.82622	3.14423	-0.16289
942.000	3.22109	0.77262	3.10678	-0.12912
943.000	3.18759	0.80442	3.04764	-0.12714
944.000	3.18956	0.75874	3.03778	-0.04967
945.000	3.16591	0.79848	3.05355	-0.05960
946.000	3.14620	0.82431	3.06341	-0.06158
947.000	3.15014	0.80644	3.03975	-0.00596
948.000	3.12649	0.78858	3.07524	0.03179
949.000	3.12255	0.86207	3.06144	0.08145
950.000	3.15014	0.81041	3.01807	0.09933
951.000	3.13832	0.82234	3.04172	0.10926
952.000	3.05158	0.81446	3.07524	0.10132
953.000	3.05355	0.83035	3.01018	0.10132
954.000	3.03384	0.78070	3.01412	0.04967
955.000	3.01215	0.78867	3.00426	0.11324
956.000	3.01018	0.84826	3.00229	0.07549
957.000	3.00426	0.88401	3.00624	0.12914
958.000	2.90173	0.83443	3.02201	0.07549
959.000	2.95892	0.82049	2.94511	0.08543
960.000	2.94906	0.84036	3.00032	0.10530
961.000	2.94709	0.87413	3.00229	0.02583
962.000	2.91357	0.83442	2.97666	0.09934
963.000	2.87610	0.83048	2.93131	0.04768
964.000	2.90173	0.81457	2.95103	0.11722
965.000	2.86624	0.81062	2.93328	0.06954
966.000	2.86624	0.79076	2.96286	0.10133
967.000	2.90568	0.83244	2.97666	0.10530
968.000	2.91357	0.81655	2.98455	0.11722
969.000	2.92540	0.89202	2.97075	0.11523
970.000	2.88004	0.89206	3.02595	0.09933
971.000	2.95300	0.88207	2.99244	0.09139
972.000	2.91357	0.88607	2.98849	0.12119
973.000	2.89187	0.89403	3.01018	0.12119
974.000	2.96680	0.86418	3.00426	0.12119
975.000	2.91554	0.88806	3.09101	0.14303
976.000	2.95103	0.87810	3.08706	0.10926
977.000	2.91948	0.92579	3.08904	0.12714
978.000	2.96680	0.87014	3.13437	0.14501
979.000	2.99046	0.91978	3.17182	0.11322
980.000	2.97863	0.92177	3.11072	0.13310
981.000	2.93920	0.97146	3.17971	0.12315
982.000	2.94906	0.88008	3.16788	0.12117
983.000	3.02201	0.93167	3.17971	0.17083
984.000	2.94906	0.91187	3.17379	0.11521
985.000	2.92145	0.89600	3.15014	0.12912
986.000	2.95103	0.92577	3.16394	0.12117
987.000	2.94906	0.92180	3.17379	0.09733
988.000	3.00821	0.89990	3.21518	0.08740
989.000	2.98849	0.87807	3.23292	0.11719
990.000	2.93328	0.93174	3.20139	0.08938
991.000	2.95103	0.89796	3.21715	0.08740
992.000	2.98258	0.94163	3.25065	0.12116
993.000	2.95300	0.93967	3.23489	0.10726
994.000	2.96089	0.99528	3.19547	0.15891
995.000	2.89582	0.91985	3.23883	0.06753
996.000	2.89976	0.93971	3.22898	0.13109
997.000	2.93526	0.95558	3.24671	0.07746
998.000	2.90765	0.94765	3.28021	0.10527
999.000	2.94511	0.95358	3.27627	0.08541
1000.000	2.94314	0.93769	3.22701	0.13308
1001.000	2.94709	0.92180	3.23292	0.15493
1002.000	2.93920	0.88605	3.26051	0.12712
1003.000	2.91357	0.85230	3.24080	0.10924
1004.000	2.90371	0.94567	3.26445	0.07150
1005.000	2.90371	0.87813	3.28218	0.08739
1006.000	2.85835	0.94174	3.25263	0.11917
1007.000	2.93131	0.94565	3.26642	0.09931
1008.000	2.85441	0.88413	3.28021	0.09931
1009.000	2.86229	0.92783	3.25460	0.16883
1010.000	2.87413	0.87418	3.27824	0.04767
1011.000	2.86624	0.89803	3.28810	0.15492
1012.000	2.86427	0.88611	3.31568	0.10526
1013.000	2.80707	0.89410	3.30977	0.08540
1014.000	2.77354	0.88022	3.28810	0.13109
1015.000	2.88399	0.88014	3.36100	0.10327
1016.000	2.86032	0.90002	3.35903	0.08143
1017.000	2.80510	0.86430	3.36691	0.09930
1018.000	2.79721	0.90801	3.36888	0.08143
1019.000	2.85835	0.92187	3.30977	0.05363
1020.000	2.75382	0.88818	3.33341	0.09732
1021.000	2.75185	0.86633	3.36297	0.09930
1022.000	2.82680	0.87025	3.36494	0.07745
1023.000	2.83271	0.81462	3.36494	0.10724
1024.000	2.85638	0.85235	3.36888	0.11122
1025.000	2.80707	0.78682	3.38661	0.11320
1026.000	2.92342	0.84236	3.42010	0.10128
1027.000	2.74198	0.87031	3.37676	0.10526
1028.000	2.78143	0.85439	3.38858	0.13703
1029.000	2.73607	0.87627	3.38858	0.14299
1030.000	2.70845	0.88623	3.40828	0.12710
1031.000	2.78735	0.88418	3.41419	0.04766
1032.000	2.69070	0.88227	3.43192	0.12908
1033.000	2.72620	0.88621	3.43192	0.06156
1034.000	2.74001	0.88223	3.41616	0.07546
1035.000	2.71831	0.85443	3.44374	0.05759
1036.000	2.71831	0.90410	3.40631	0.08937
1037.000	2.66900	0.89619	3.43783	0.06752
1038.000	2.66505	0.84851	3.43586	0.05163
1039.000	2.71042	0.85642	3.41813	0.03376
1040.000	2.66900	0.87831	3.44177	0.08142
1041.000	2.70648	0.82464	3.42404	0.10525
1042.000	2.67886	0.78095	3.42601	0.07149
1043.000	2.72423	0.81271	3.50086	0.02581
1044.000	2.75579	0.87427	3.45950	0.06355
1045.000	2.66703	0.85645	3.48904	0.04964
1046.000	2.70253	0.82265	3.46541	0.04567
1047.000	2.66111	0.90613	3.48511	0.02581
1048.000	2.67097	0.88427	3.48511	0.04567
1049.000	2.61968	0.80681	3.49692	0.02184
1050.000	2.58614	0.80485	3.55404	-0.01390
1051.000	2.66900	0.81473	3.49495	-0.01390
1052.000	2.56049	0.83666	3.51268	-0.02780
1053.000	2.58417	0.81280	3.50086	0.01986
1054.000	2.56641	0.85851	3.51071	0.02979
1055.000	2.62560	0.76707	3.50480	-0.01191
1056.000	2.61573	0.76708	3.56586	-0.00596
1057.000	2.60587	0.73529	3.52647	-0.01986
1058.000	2.56246	0.71544	3.49889	0.01589
1059.000	2.61771	0.79291	3.56979	0.00596
1060.000	2.58811	0.76511	3.54813	-0.01390
1061.000	2.61376	0.81079	3.53631	-0.02383
1062.000	2.54471	0.76315	3.53041	-0.00993
1063.000	2.54668	0.76911	3.56783	0.02184
1064.000	2.52892	0.66380	3.54616	0.01390
1065.000	2.59600	0.78298	3.56389	-0.00794
1066.000	2.56049	0.72737	3.58949	0.05758
1067.000	2.52892	0.84065	3.58949	0.00199
1068.000	2.53484	0.74725	3.56783	-0.01191
1069.000	2.55260	0.79295	3.57373	0.00596
1070.000	2.54471	0.73930	3.58161	-0.03773
1071.000	2.60390	0.77106	3.57176	0.00199
1072.000	2.54076	0.77110	3.60918	-0.02383
1073.000	2.54471	0.73334	3.55798	0.02581
1074.000	2.61179	0.69356	3.68006	0.01985
1075.000	2.71437	0.70940	3.71944	0.02382
1076.000	2.76960	0.75903	3.81196	0.06749
1077.000	2.88990	0.80663	4.01071	0.00198
1078.000	3.06932	0.74691	4.08742	0.16272
1079.000	3.28218	0.77655	4.30373	0.23409
1080.000	3.50086	0.75850	4.52974	0.23204
1081.000	3.53435	0.70686	4.71044	0.26370
1082.000	3.83754	0.77409	4.89694	0.29931
1083.000	3.98316	0.78190	5.07549	0.23383
1084.000	4.16806	0.90272	5.26962	0.23574
1085.000	4.34894	0.87276	5.37938	0.23174
1086.000	4.36467	0.87671	5.42445	0.23964
1087.000	4.42166	0.87070	5.45384	0.23765
1088.000	4.42363	0.97778	5.42053	0.25153
1089.000	4.37450	0.93025	5.36174	0.24363
1090.000	4.25851	0.94229	5.36762	0.26937
1091.000	4.21919	1.00977	5.27942	0.25159
1092.000	4.11693	1.08330	5.16571	0.19417
1093.000	4.02251	1.00804	5.12648	0.24570
1094.000	3.92217	1.02800	5.05391	0.24375
1095.000	3.81786	1.02416	5.01271	0.25169
1096.000	3.72731	0.95481	4.96366	0.26558
1097.000	3.64265	0.97078	4.93030	0.22992
1098.000	3.67416	0.90127	4.92638	0.21208
1099.000	3.59343	0.89738	4.90871	0.21407
1100.000	3.60524	0.80209	4.93226	0.24181
1101.000	3.59736	0.80210	4.92638	0.30127
1102.000	3.63281	0.81199	4.95974	0.22198
1103.000	3.64462	0.84175	4.96955	0.26360
1104.000	3.74503	0.77616	4.89301	0.27949
1105.000	3.60524	0.74055	4.99898	0.29331
1106.000	3.68400	0.84966	4.98328	0.25567
1107.000	3.62887	0.73656	4.96562	0.29135
1108.000	3.57176	0.79219	4.95974	0.26955
1109.000	3.63478	0.74053	4.94011	0.28938
1110.000	3.61706	0.81597	4.97740	0.27152
1111.000	3.60130	0.78621	4.98917	0.25566
1112.000	3.67810	0.86356	4.98328	0.24972
1113.000	3.64462	0.85962	4.98524	0.23981
1114.000	3.75094	0.83570	5.01860	0.29727
1115.000	3.71747	0.79802	5.00486	0.35673
1116.000	3.67613	0.75836	5.03037	0.31510
1117.000	3.75487	0.85157	5.04802	0.28735
1118.000	3.73519	0.89327	5.07353	0.32895
1119.000	3.73322	0.78808	5.07353	0.26554
1120.000	3.79621	0.82970	5.07745	0.30121
1121.000	3.73322	0.84167	5.03037	0.34879
1122.000	3.71550	0.88734	5.11472	0.31308
1123.000	3.70566	0.82780	5.06960	0.30121
1124.000	3.76472	0.85355	5.06176	0.37057
1125.000	3.76078	0.87935	5.07549	0.29130
1126.000	3.68991	0.77224	5.04018	0.37653
1127.000	3.73913	0.95281	5.04018	0.35869
1128.000	3.67219	0.87944	5.10883	0.34082
1129.000	3.75487	0.86944	5.08529	0.38443
1130.000	3.74503	0.83571	5.04214	0.35473
1131.000	3.72928	0.92900	5.05587	0.38444
1132.000	3.70960	0.78413	5.06960	0.36858
1133.000	3.63281	0.92116	5.07353	0.34084
1134.000	3.71156	0.90322	5.10295	0.31308
1135.000	3.65644	0.81594	5.12256	0.33685
1136.000	3.68991	0.80797	5.02645	0.36861
1137.000	3.63478	0.86360	5.08726	0.34083
1138.000	3.63478	0.83382	5.06176	0.36859
1139.000	3.72338	0.83970	5.04999	0.32500
1140.000	3.66628	0.84570	5.07549	0.31111
1141.000	3.71944	0.82779	5.12648	0.38242
1142.000	3.64659	0.86359	5.08529	0.36461
1143.000	3.61903	0.81002	5.11668	0.31506
1144.000	3.63478	0.83978	5.06372	0.27347
1145.000	3.60918	0.81201	5.08922	0.28337
1146.000	3.63872	0.80007	5.08922	0.32894
1147.000	3.66234	0.83181	5.10099	0.34875
1148.000	3.70960	0.86750	5.08333	0.39632
1149.000	3.62099	0.75443	5.13629	0.33090
1150.000	3.65841	0.89930	5.07745	0.28535
1151.000	3.65053	0.86557	5.15982	0.31504
1152.000	3.57373	0.79021	5.04214	0.41021
1153.000	3.64462	0.79808	5.17159	0.29522
1154.000	3.65841	0.83182	5.11275	0.34280
1155.000	3.65644	0.83182	5.07156	0.32102
1156.000	3.55010	0.79817	5.14021	0.27145
1157.000	3.57964	0.83983	5.12060	0.33487
1158.000	3.58949	0.81203	5.14609	0.27343
1159.000	3.66628	0.82387	5.11275	0.33091
1160.000	3.69385	0.78216	5.11275	0.36856
1161.000	3.65841	0.88144	5.13041	0.30316
1162.000	3.58949	0.83585	5.11668	0.37648
1163.000	3.61509	0.88347	5.14806	0.29721
1164.000	3.64659	0.86359	5.16571	0.32098
1165.000	3.56192	0.86367	5.14609	0.29325
1166.000	3.64462	0.90527	5.14609	0.33486
1167.000	3.60918	0.87553	5.15002	0.32297
1168.000	3.58752	0.81600	5.13237	0.29127
1169.000	3.67613	0.89333	5.17159	0.30710
1170.000	3.63084	0.87551	5.15198	0.35268
1171.000	3.64659	0.83977	5.17159	0.33088
1172.000	3.67613	0.83577	5.15786	0.34476
1173.000	3.62493	0.83185	5.12844	0.39629
1174.000	3.62887	0.87154	5.13825	0.35864
1175.000	3.68203	0.77225	5.15394	0.36457
1176.000	3.67416	0.81989	5.18924	0.36257
1177.000	3.62887	0.78817	5.13629	0.39232
1178.000	3.71944	0.83374	5.18728	0.38635
1179.000	3.65250	0.89534	5.15590	0.42599
1180.000	3.63478	0.80603	5.14217	0.42798
1181.000	3.53631	0.74458	5.18728	0.37842
1182.000	3.64069	0.89337	5.17747	0.39230
1183.000	3.70172	0.91712	5.17159	0.36852
1184.000	3.60721	0.87752	5.18139	0.34672
1185.000	3.58161	0.84181	5.17355	0.33286
1186.000	3.58752	0.82990	5.15590	0.35466
1187.000	3.65447	0.86159	5.17159	0.38437
1188.000	3.57176	0.84182	5.15982	0.37249
1189.000	3.67022	0.89929	5.18335	0.35663
1190.000	3.67022	0.87547	5.15982	0.37051
1191.000	3.60327	0.83584	5.20296	0.32888
1192.000	3.63675	0.81993	5.14806	0.39231
1193.000	3.54222	0.82795	5.17355	0.39626
1194.000	3.66431	0.91121	5.16374	0.38636
1195.000	3.61706	0.82987	5.18728	0.36851
1196.000	3.62887	0.85765	5.18335	0.37842
1197.000	3.59146	0.81600	5.13041	0.38638
1198.000	3.58752	0.82196	5.15590	0.39231
1199.000	3.72141	0.90916	5.15590	0.36655
1200.000	3.59343	0.78026	5.16571	0.34475
1201.000	3.56586	0.80411	5.14609	0.36061
1202.000	3.58752	0.77828	5.16963	0.38041
1203.000	3.60721	0.83782	5.16374	0.37645
1204.000	3.57373	0.84579	5.17747	0.39626
1205.000	3.59146	0.80607	5.18924	0.34276
1206.000	3.62887	0.90132	5.18728	0.37248
1207.000	3.59933	0.79415	5.23237	0.35660
1208.000	3.57373	0.81800	5.17159	0.35069
1209.000	3.59343	0.84776	5.23825	0.40414
1210.000	3.54616	0.90537	5.21080	0.36454
1211.000	3.67810	0.89928	5.25198	0.38036
1212.000	3.60130	0.85371	5.23041	0.31698
1213.000	3.61312	0.90530	5.23825	0.36650
1214.000	3.69975	0.88934	5.15198	0.44382
1215.000	3.60918	0.85767	5.18728	0.40021
1216.000	3.60918	0.84179	5.23433	0.35660
1217.000	3.72141	0.85161	5.23041	0.29717
1218.000	3.79031	0.88925	5.18924	0.37842
1219.000	3.69581	0.91118	5.21080	0.34473
1220.000	3.62690	0.82391	5.22061	0.29519
1221.000	3.68006	0.84172	5.25590	0.35659
1222.000	3.72338	0.84763	5.25198	0.35857
1223.000	3.58555	0.81997	5.23825	0.38433
1224.000	3.62887	0.83780	5.25394	0.31697
1225.000	3.64659	0.87351	5.27550	0.35063
1226.000	3.65447	0.91320	5.26766	0.27734
1227.000	3.57767	0.83785	5.29706	0.24960
1228.000	3.63478	0.85764	5.30490	0.26346
1229.000	3.66825	0.92113	5.34410	0.23769
1230.000	3.57964	0.86365	5.27746	0.33082
1231.000	3.55404	0.81603	5.28138	0.31101
1232.000	3.59736	0.84974	5.27158	0.31696
1233.000	3.60524	0.86164	5.25198	0.35065
1234.000	3.65250	0.87152	5.20884	0.29916
1235.000	3.55995	0.88551	5.25394	0.35263
1236.000	3.59146	0.94106	5.27158	0.33083
1237.000	3.56586	0.90734	5.22453	0.29717
1238.000	3.65447	0.88343	5.24413	0.26150
1239.000	3.62493	0.87750	5.25590	0.32093
1240.000	3.55404	0.81206	5.23237	0.30707
1241.000	3.59736	0.89738	5.24021	0.26745
1242.000	3.60130	0.90333	5.25002	0.31895
1243.000	3.62493	0.85567	5.29118	0.27337
1244.000	3.54222	0.85575	5.26570	0.27338
1245.000	3.49101	0.88954	5.25590	0.28527
1246.000	3.53435	0.81009	5.27942	0.32686
1247.000	3.58161	0.83189	5.37350	0.28522
1248.000	3.67022	0.88738	5.25002	0.31895
1249.000	3.61312	0.87156	5.27550	0.29517
1250.000	3.57373	0.86564	5.25982	0.29716
1251.000	3.60524	0.87157	5.26766	0.34668
1252.000	3.67219	0.89731	5.34606	0.28523
1253.000	3.62296	0.89934	5.21080	0.32690
1254.000	3.64069	0.86756	5.24413	0.29122
1255.000	3.62690	0.81597	5.25982	0.32687
1256.000	3.60721	0.89539	5.26374	0.32291
1257.000	3.58161	0.90335	5.25002	0.27933
1258.000	3.49889	0.83792	5.27942	0.31696
1259.000	3.68203	0.86752	5.30882	0.32883
1260.000	3.54419	0.80413	5.22845	0.33679
1261.000	3.56586	0.86168	5.22453	0.33680
1262.000	3.55798	0.92918	5.28922	0.31299
1263.000	3.52450	0.82400	5.32058	0.30901
1264.000	3.55601	0.86367	5.29902	0.27337
1265.000	3.53828	0.89744	5.31078	0.28129
1266.000	3.60524	0.86164	5.32058	0.29317
1267.000	3.63478	0.87154	5.26570	0.30508
1268.000	3.62296	0.93705	5.29902	0.27733
1269.000	3.54419	0.87758	5.25786	0.28329
1270.000	3.59736	0.87951	5.24413	0.28528
1271.000	3.50086	0.84983	5.30686	0.23177
1272.000	3.66628	0.84769	5.24413	0.27735
1273.000	3.53435	0.80215	5.24609	0.29320
1274.000	3.58949	0.81203	5.27354	0.28724
1275.000	3.59933	0.86562	5.29314	0.28724
1276.000	3.67416	0.85761	5.27354	0.26942
1277.000	3.57767	0.76241	5.25786	0.31102
1278.000	3.64069	0.89535	5.25002	0.31301
1279.000	3.62887	0.90926	5.31274	0.26742
1280.000	3.60327	0.89340	5.27354	0.28526
1281.000	3.59933	0.95693	5.28334	0.31695
1282.000	3.58949	0.91922	5.27550	0.26743
1283.000	3.60524	0.83782	5.27354	0.38233
1284.000	3.59933	0.90532	5.25198	0.37046
1285.000	3.61115	0.83583	5.24217	0.33084
1286.000	3.60327	0.87355	5.23825	0.35066
1287.000	3.59146	0.75049	5.25786	0.33876
1288.000	3.55207	0.87757	5.28138	0.34865
1289.000	3.51268	0.92526	5.25982	0.37838
1290.000	3.52253	0.89348	5.24609	0.33480
1291.000	3.54419	0.84383	5.24413	0.37641
1292.000	3.56192	0.77632	5.26374	0.37045
1293.000	3.49101	0.85381	5.27354	0.37044
1294.000	3.57570	0.82395	5.30098	0.33675
1295.000	3.59933	0.94105	5.22061	0.36651
1296.000	3.60524	0.86760	5.31274	0.36646
1297.000	3.54025	0.92324	5.29510	0.36053
1298.000	3.54616	0.84383	5.29902	0.32289
1299.000	3.54419	0.89942	5.29902	0.32883
1300.000	3.57176	0.86366	5.28334	0.39421
1301.000	3.46935	0.85581	5.28726	0.36647
1302.000	3.49298	0.86373	5.25394	0.34272
1303.000	3.56979	0.85175	5.23041	0.36651
1304.000	3.56389	0.88352	5.21865	0.42199
1305.000	3.64265	0.92711	5.24806	0.35065
1306.000	3.62296	0.92514	5.25786	0.38828
1307.000	3.64069	0.83183	5.26178	0.42790
1308.000	3.52844	0.82399	5.26962	0.34271
1309.000	3.55995	0.90536	5.24609	0.34075
1310.000	3.54813	0.86964	5.26178	0.34272
1311.000	3.45162	0.84193	5.26570	0.33083
1312.000	3.43586	0.81613	5.25786	0.35064
1313.000	3.57373	0.89939	5.24413	0.37244
1314.000	3.59146	0.79813	5.27746	0.35460
1315.000	3.53828	0.90736	5.26570	0.36847
1316.000	3.55207	0.86368	5.25394	0.33480
1317.000	3.60327	0.87951	5.30294	0.35656
1318.000	3.47329	0.85184	5.22453	0.32293
1319.000	3.47920	0.86970	5.26766	0.33677
1320.000	3.54025	0.84979	5.26570	0.33479
1321.000	3.69778	0.85758	5.27354	0.40808
1322.000	3.60130	0.77430	5.24806	0.44178
1323.000	3.54616	0.88155	5.23237	0.39622
1324.000	3.47329	0.86971	5.25982	0.39026
1325.000	3.47329	0.83993	5.25198	0.42791
1326.000	3.43783	0.87371	5.21473	0.42199
1327.000	3.38858	0.87375	5.12844	0.41808
1328.000	3.24080	0.99700	5.09118	0.36659
1329.000	3.13240	0.95540	4.89890	0.29534
1330.000	2.85638	0.94770	4.67902	0.21612
1331.000	2.56838	0.93997	4.46490	0.27172
1332.000	2.11048	0.89854	4.13266	0.21628
1333.000	1.79453	0.94443	3.79031	0.25607
1334.000	1.43500	0.87501	3.52450	0.14893
1335.000	1.03584	0.88906	3.23095	0.08938
1336.000	0.70773	0.94085	2.81299	0.08743
1337.000	0.40528	0.91504	2.48748	0.09938
1338.000	-0.05338	0.76390	2.26052	-0.00795
1339.000	-0.42505	0.67636	1.95055	-0.02386
1340.000	-0.79866	0.70217	1.62466	0.03977
1341.000	-1.25520	0.63445	1.40932	-0.04773
1342.000	-1.69775	0.62836	1.10698	0.00995
1343.000	-1.94462	0.54080	0.78680	-0.05570
1344.000	-2.30394	0.61620	0.56145	-0.10941
1345.000	-2.68281	0.47097	0.24515	-0.10743
1346.000	-2.97272	0.57415	0.00593	-0.11340
1347.000	-2.95497	0.69932	-0.27876	-0.17308
1348.000	-3.33341	0.52034	-0.52191	-0.15716
1349.000	-3.55207	0.57581	-0.92516	-0.20290
1350.000	-3.94578	0.52991	-1.18406	-0.16310
1351.000	-4.34305	0.50187	-1.43698	-0.29832
1352.000	-4.67509	0.34501	-1.68195	-0.38578
1353.000	-4.79291	0.42424	-1.94857	-0.32011
1354.000	-5.22649	0.46358	-2.19340	-0.51090
1355.000	-5.38918	0.47534	-2.59008	-0.57434
1356.000	-5.47147	0.47132	-2.81693	-0.46893
1357.000	-5.73386	0.42162	-3.03778	-0.51651
1358.000	-5.90800	0.41951	-3.36100	-0.61366
1359.000	-6.02339	0.44119	-3.68794	-0.58763
1360.000	-6.20125	0.52608	-3.87100	-0.56965
1361.000	-6.63076	0.50192	-4.12873	-0.58534
1362.000	-6.77507	0.43264	-4.46490	-0.54542
1363.000	-7.04394	0.37908	-4.68688	-0.63843
1364.000	-7.36307	0.35120	-4.85769	-0.49358
1365.000	-7.53413	0.45558	-5.15982	-0.50128
1366.000	-7.76328	0.48490	-5.42837	-0.51690
1367.000	-8.10072	0.34861	-5.64381	-0.43357
1368.000	-8.15497	0.54352	-5.79844	-0.30282
1369.000	-8.34860	0.54915	-5.89431	-0.28892
1370.000	-8.42793	0.60807	-6.14067	-0.29077
1371.000	-8.44728	0.63559	-6.21493	-0.18195
1372.000	-8.59230	0.57241	-6.38095	-0.14828
1373.000	-8.59810	0.53896	-6.45124	-0.09687
1374.000	-8.54784	0.60002	-6.43562	-0.09291
1375.000	-8.48983	0.67684	-6.40243	-0.00989
1376.000	-8.42987	0.63168	-6.35947	-0.01186
1377.000	-8.35634	0.64558	-6.30479	0.01384
1378.000	-8.22858	0.60051	-6.24228	0.01582
1379.000	-8.27311	0.59650	-6.13286	0.02374
1380.000	-8.16853	0.61635	-6.01557	-0.00396
1381.000	-8.08716	0.56724	-6.00188	0.04353
1382.000	-8.05615	0.54562	-5.91778	0.02572
1383.000	-8.09879	0.52193	-5.93343	0.00792
1384.000	-7.97279	0.47284	-5.89040	-0.03760
1385.000	-8.01545	0.55552	-5.87475	-0.04354
1386.000	-8.14916	0.47854	-5.90213	-0.03958
1387.000	-8.20534	0.40562	-5.91974	-0.02375
1388.000	-8.16853	0.34265	-5.94517	-0.01781
1389.000	-8.14723	0.46673	-5.96668	-0.02770
1390.000	-8.18984	0.45880	-6.02730	-0.02176
1391.000	-8.26343	0.44494	-6.02339	-0.01978
1392.000	-8.24600	0.42921	-6.13872	0.00198
1393.000	-8.43180	0.43097	-6.11918	-0.04352
1394.000	-8.46275	0.39552	-6.18758	-0.01978
1395.000	-8.40859	0.43493	-6.25791	-0.02175
1396.000	-8.43567	0.35422	-6.23251	0.01384
1397.000	-8.55170	0.33247	-6.31456	-0.03757
1398.000	-8.56330	0.38164	-6.27549	0.06724
1399.000	-8.60003	0.37964	-6.33604	0.00593
1400.000	-8.42213	0.42704	-6.36729	0.04943
1401.000	-8.55557	0.35608	-6.42000	0.07512
1402.000	-8.61163	0.28521	-6.36924	-0.01384
1403.000	-8.59810	0.46619	-6.38095	-0.00198
1404.000	-8.59617	0.35604	-6.38486	0.02175
1405.000	-8.58070	0.35999	-6.37510	0.09490
1406.000	-8.55944	0.34230	-6.36533	0.11665
1407.000	-8.54010	0.48593	-6.36729	0.00593
1408.000	-8.52464	0.33446	-6.40048	0.09490
1409.000	-8.54590	0.42691	-6.36338	0.06920
1410.000	-8.45695	0.37388	-6.34580	0.05141
1411.000	-8.37182	0.41332	-6.28331	0.07119
1412.000	-8.59617	0.39735	-6.36143	0.03757
1413.000	-8.55170	0.41116	-6.32628	0.06327
1414.000	-8.51884	0.39349	-6.31846	0.03955
1415.000	-8.61549	0.40716	-6.33604	0.07909
1416.000	-8.59230	0.32457	-6.32823	0.11666
1417.000	-8.49176	0.33253	-6.29698	0.10678
1418.000	-8.59230	0.48586	-6.34580	0.10479
1419.000	-8.54784	0.42100	-6.37705	0.06525
1420.000	-8.48983	0.42107	-6.34971	0.07513
1421.000	-8.51690	0.38366	-6.37119	0.08106
1422.000	-8.65801	0.33631	-6.36533	0.04547
1423.000	-8.61163	0.40520	-6.33018	0.08898
1424.000	-8.51303	0.38169	-6.31846	0.05141
1425.000	-8.65028	0.42679	-6.32823	0.08502
1426.000	-8.54977	0.39543	-6.38291	0.10281
1427.000	-8.61163	0.35799	-6.33799	0.07711
1428.000	-8.52077	0.36004	-6.36143	0.01977
1429.000	-8.58650	0.36785	-6.33799	0.05339
1430.000	-8.61356	0.27931	-6.35947	0.05536
1431.000	-8.66960	0.30484	-6.35166	0.08304
1432.000	-8.57490	0.28131	-6.34776	0.02966
1433.000	-8.58263	0.33048	-6.35362	0.04943
1434.000	-8.77776	0.31261	-6.35557	0.05734
1435.000	-8.57684	0.44064	-6.42195	0.06524
1436.000	-8.56717	0.26558	-6.37705	0.00989
1437.000	-8.67733	0.38743	-6.34385	0.05536
1438.000	-8.55557	0.38165	-6.41219	0.01977
1439.000	-8.53237	0.34233	-6.37510	0.05536
1440.000	-8.57104	0.33049	-6.37900	0.06722
1441.000	-8.46856	0.38370	-6.37119	0.05338
1442.000	-8.57877	0.39736	-6.35166	0.07909
1443.000	-8.71017	0.28514	-6.33018	0.04548
1444.000	-8.65028	0.32059	-6.36143	0.05734
1445.000	-8.56330	0.25574	-6.33995	0.04548
1446.000	-8.49370	0.40335	-6.38291	0.07711
1447.000	-8.60390	0.35800	-6.38095	0.06327
1448.000	-8.59810	0.22425	-6.36924	0.10083
1449.000	-8.69471	0.32841	-6.36729	0.06525
1450.000	-8.63289	0.32060	-6.36143	0.04745
1451.000	-8.65414	0.26551	-6.34971	0.04350
1452.000	-8.72176	0.30873	-6.33018	0.06921
1453.000	-8.52464	0.43873	-6.35557	0.07513
1454.000	-8.57684	0.35606	-6.34776	0.09886
1455.000	-8.69665	0.34414	-6.40243	0.07315
1456.000	-8.59230	0.37768	-6.38876	0.03559
1457.000	-8.62322	0.33044	-6.35557	0.01186
1458.000	-8.69858	0.31071	-6.35752	0.06129
1459.000	-8.76618	0.40700	-6.34190	0.09491
1460.000	-8.66960	0.29107	-6.34385	0.07909
1461.000	-8.65607	0.35992	-6.37119	0.07711
1462.000	-8.76038	0.34015	-6.38486	0.08502
1463.000	-8.74300	0.34214	-6.40438	0.04745
1464.000	-8.66960	0.39530	-6.34190	0.03955
1465.000	-8.63675	0.30093	-6.39853	0.01977
1466.000	-8.69085	0.36578	-6.35947	0.09095
1467.000	-8.67733	0.28516	-6.37119	0.06722
1468.000	-8.71983	0.33036	-6.37705	0.04745
1469.000	-8.62902	0.27143	-6.38876	0.10479
1470.000	-8.62129	0.33831	-6.35166	0.02570
1471.000	-8.70437	0.39133	-6.43172	0.04349
1472.000	-8.64255	0.31666	-6.36729	0.08897
1473.000	-8.63868	0.37370	-6.37900	0.03757
1474.000	-8.66380	0.44841	-6.39072	0.02570
1475.000	-8.82217	0.34206	-6.39267	0.04152
1476.000	-8.64255	0.42090	-6.42391	0.00000
1477.000	-8.55750	0.32460	-6.35752	0.07711
1478.000	-8.72562	0.27136	-6.36924	0.10677
1479.000	-8.66380	0.31271	-6.41610	0.08303
1480.000	-8.74107	0.24382	-6.39462	0.05931
1481.000	-8.62709	0.35404	-6.33995	0.03361
1482.000	-8.83761	0.21820	-6.38486	0.05536
1483.000	-8.62902	0.31470	-6.33799	0.06130
1484.000	-8.75845	0.23201	-6.37900	0.03559
1485.000	-8.73141	0.31658	-6.35752	0.07316
1486.000	-8.78163	0.33620	-6.38876	0.04547
1487.000	-8.78549	0.39321	-6.39267	0.00989
1488.000	-8.76425	0.25954	-6.37314	0.07513
1489.000	-8.70244	0.26548	-6.41024	0.06524
1490.000	-8.76618	0.32835	-6.44148	0.07314
1491.000	-8.62129	0.33241	-6.37510	0.06129
1492.000	-8.77390	0.40502	-6.38291	0.03559
1493.000	-8.80866	0.25951	-6.34776	0.07909
1494.000	-8.63675	0.33633	-6.37510	0.08699
1495.000	-8.76811	0.29689	-6.37900	0.06920
1496.000	-8.72948	0.30282	-6.37119	0.05734
1497.000	-8.80093	0.23985	-6.37705	0.04745
1498.000	-8.60390	0.32653	-6.36143	0.07118
1499.000	-8.75266	0.35392	-6.37900	0.10676
1500.000	-8.71983	0.24974	-6.39657	0.06920
1501.000	-8.71596	0.25957	-6.38876	0.07315
1502.000	-8.85692	0.38134	-6.38291	0.02175
1503.000	-8.73335	0.31855	-6.34971	0.06327
1504.000	-8.65028	0.23012	-6.40048	0.07513
1505.000	-8.80093	0.33029	-6.42586	0.00593
1506.000	-8.72369	0.34215	-6.42195	0.04942
1507.000	-8.72369	0.29103	-6.45124	0.04744
1508.000	-8.72176	0.31856	-6.42976	0.09094
1509.000	-8.74107	0.37360	-6.37705	0.05141
1510.000	-8.72562	0.35592	-6.37510	0.12654
1511.000	-8.65028	0.32649	-6.38876	0.09292
1512.000	-8.63868	0.30880	-6.38486	0.06129
1513.000	-8.62516	0.24587	-6.37900	0.00989
1514.000	-8.71403	0.25761	-6.37900	0.05141
1515.000	-8.73335	0.29102	-6.34385	0.09886
1516.000	-8.69278	0.27139	-6.37314	0.07909
1517.000	-8.72755	0.35002	-6.37119	0.09688
1518.000	-8.68892	0.32449	-6.35557	0.05536
1519.000	-8.67926	0.43856	-6.37705	0.06129
1520.000	-8.57104	0.35606	-6.44538	0.08896
1521.000	-8.68312	0.31859	-6.40634	0.10478
1522.000	-8.57104	0.27344	-6.33799	0.07118
1523.000	-8.74107	0.28118	-6.34190	0.09293
1524.000	-8.64448	0.18685	-6.35947	0.08700
1525.000	-8.74300	0.35393	-6.36143	0.13247
1526.000	-8.61743	0.35012	-6.38291	0.10281
1527.000	-8.81445	0.34993	-6.33995	0.08898
1528.000	-8.67346	0.22617	-6.38681	0.07315
1529.000	-8.80673	0.25951	-6.36338	0.08897
1530.000	-8.69665	0.28122	-6.37705	0.10083
1531.000	-8.76038	0.32246	-6.35947	0.05141
1532.000	-8.64061	0.39140	-6.34580	0.12259
1533.000	-8.80673	0.25558	-6.42976	0.07710
1534.000	-8.74107	0.27725	-6.36924	0.13445
1535.000	-8.81638	0.30668	-6.39267	0.13839
1536.000	-8.71403	0.31267	-6.35362	0.13247
1537.000	-8.75845	0.27724	-6.35752	0.14434
1538.000	-8.78549	0.19857	-6.40048	0.07117
1539.000	-8.67926	0.35989	-6.38095	0.08897
1540.000	-8.70244	0.24778	-6.35362	0.07711
1541.000	-8.76618	0.24381	-6.42586	0.07710
1542.000	-8.80866	0.21036	-6.42976	0.08303
1543.000	-8.79707	0.23002	-6.38876	0.04943
1544.000	-8.76811	0.31065	-6.42195	0.04349
1545.000	-8.86464	0.31647	-6.34776	0.06525
1546.000	-8.81252	0.31258	-6.35166	0.11270
1547.000	-8.77004	0.35194	-6.33604	0.05932
1548.000	-8.82796	0.27915	-6.37314	0.06525
1549.000	-8.76038	0.30280	-6.36338	0.05536
1550.000	-8.61936	0.24784	-6.43562	0.06128
1551.000	-8.60969	0.28128	-6.41024	0.09094
1552.000	-8.59617	0.35801	-6.37705	0.03954
1553.000	-8.63289	0.36977	-6.37314	0.07513
1554.000	-8.79900	0.26934	-6.39462	0.11665
1555.000	-8.76232	0.27920	-6.42000	0.07710
1556.000	-8.68312	0.25173	-6.35362	0.08107
1557.000	-8.69665	0.32055	-6.39462	0.09094
1558.000	-8.81831	0.19659	-6.40438	0.04943
1559.000	-8.78742	0.25166	-6.38291	0.11467
1560.000	-8.77969	0.27919	-6.44538	0.09884
1561.000	-8.74880	0.29691	-6.37119	0.06129
1562.000	-8.87043	0.35185	-6.39462	0.05931
1563.000	-8.83954	0.22803	-6.40243	0.05338
1564.000	-8.93025	0.34786	-6.39462	0.06524
1565.000	-8.68119	0.30286	-6.41610	0.13048
1566.000	-8.70824	0.33037	-6.39072	0.03559
1567.000	-8.77390	0.33424	-6.35947	0.08700
1568.000	-8.80093	0.26738	-6.37510	0.03757
1569.000	-8.92060	0.19850	-6.37705	0.12851
1570.000	-8.72176	0.36378	-6.35362	0.14829
1571.000	-8.72562	0.32839	-6.33604	0.11271
1572.000	-8.76618	0.25954	-6.35557	0.08304
1573.000	-8.75652	0.32836	-6.37314	0.04350
1574.000	-8.84727	0.20051	-6.34190	0.09689
1575.000	-8.83568	0.31453	-6.28721	0.09096
1576.000	-8.75459	0.26348	-6.35752	0.06129
1577.000	-8.84920	0.32435	-6.36533	0.04350
1578.000	-8.92060	0.12971	-6.34580	0.10282
1579.000	-8.65414	0.34615	-6.37510	0.10874
1580.000	-8.70244	0.22025	-6.38876	0.07117
1581.000	-8.85885	0.25554	-6.38095	0.09886
1582.000	-8.68892	0.39528	-6.34580	0.07514
1583.000	-8.80673	0.27327	-6.33604	0.08305
1584.000	-8.72176	0.33036	-6.36143	0.06920
1585.000	-8.81831	0.27719	-6.35947	0.09293
1586.000	-8.72369	0.30676	-6.36143	0.09688
1587.000	-8.69278	0.30678	-6.32628	0.09096
1588.000	-8.82217	0.27326	-6.34776	0.11468
1589.000	-8.80673	0.29686	-6.33799	0.05536
1590.000	-8.81252	0.39515	-6.39072	0.08897
1591.000	-8.68892	0.32449	-6.33213	0.08305
1592.000	-8.75845	0.31066	-6.34580	0.13248
1593.000	-8.79321	0.29884	-6.34580	0.16213
1594.000	-8.83375	0.30863	-6.33018	0.08898
1595.000	-8.83568	0.35974	-6.36533	0.15817
1596.000	-8.77776	0.34407	-6.33995	0.12655
1597.000	-8.70630	0.38936	-6.34776	0.11270
1598.000	-8.65801	0.31468	-6.37314	0.11270
1599.000	-8.69858	0.31268	-6.37705	0.14433
1600.000	-8.69085	0.46804	-6.36338	0.10874
1601.000	-8.63675	0.25963	-6.37900	0.10479
1602.000	-8.78356	0.38535	-6.35947	0.07909
1603.000	-8.67539	0.37366	-6.33409	0.10677
1604.000	-8.72176	0.25760	-6.32823	0.09293
1605.000	-8.73721	0.31855	-6.38095	0.10281
1606.000	-8.85692	0.40296	-6.37900	0.11863
1607.000	-8.71210	0.32643	-6.30674	0.11271
1608.000	-8.64641	0.36189	-6.35947	0.11072
1609.000	-8.66380	0.27534	-6.36924	0.13049
1610.000	-8.71403	0.25761	-6.35752	0.07909
1611.000	-8.74880	0.22416	-6.31651	0.15423
1612.000	-8.68505	0.33432	-6.31260	0.11666
1613.000	-8.70051	0.38740	-6.32042	0.07909
1614.000	-8.67926	0.30680	-6.33995	0.08305
1615.000	-8.74300	0.38933	-6.31846	0.10282
1616.000	-8.68119	0.46608	-6.33604	0.07514
1617.000	-8.75459	0.31067	-6.33213	0.09886
1618.000	-8.66573	0.28517	-6.38681	0.12456
1619.000	-8.59037	0.33637	-6.37119	0.08699
1620.000	-8.69471	0.33038	-6.32042	0.17005
1621.000	-8.73721	0.31658	-6.36533	0.11270
1622.000	-8.68892	0.38348	-6.33604	0.06723
1623.000	-8.74107	0.26939	-6.35947	0.14236
1624.000	-8.57684	0.34032	-6.32042	0.12062
1625.000	-8.61743	0.22030	-6.33018	0.05734
1626.000	-8.83568	0.26538	-6.32823	0.10875
1627.000	-8.64448	0.34616	-6.36338	0.08897
1628.000	-8.81445	0.27916	-6.34971	0.09293
1629.000	-8.71596	0.34216	-6.35947	0.15422
1630.000	-8.68312	0.36776	-6.36729	0.13445
1631.000	-8.71210	0.32053	-6.32628	0.08502
1632.000	-8.72176	0.27530	-6.32042	0.14039
1633.000	-8.77969	0.35783	-6.40634	0.11664
1634.000	-8.67926	0.32843	-6.29307	0.11865
1635.000	-8.68892	0.26549	-6.35166	0.10677
1636.000	-8.67539	0.36186	-6.30089	0.09294
1637.000	-8.58650	0.34818	-6.32432	0.12655
1638.000	-8.70824	0.30677	-6.32432	0.11864
1639.000	-8.64641	0.29502	-6.31260	0.13842
1640.000	-8.74107	0.36966	-6.33018	0.11073
1641.000	-8.74880	0.34016	-6.37510	0.15817
1642.000	-8.71017	0.25958	-6.34971	0.08700
1643.000	-8.73528	0.34214	-6.38486	0.15421
1644.000	-8.77390	0.36570	-6.33409	0.17796
1645.000	-8.82989	0.23394	-6.30284	0.20565
1646.000	-8.79321	0.36961	-6.37900	0.14433
1647.000	-8.72948	0.29299	-6.32432	0.14830
1648.000	-8.73721	0.35394	-6.37119	0.17992
1649.000	-8.68505	0.31662	-6.35557	0.10281
1650.000	-8.66187	0.35401	-6.36338	0.09688
1651.000	-8.60583	0.40717	-6.37900	0.05536
1652.000	-8.72755	0.26153	-6.38876	0.15421
1653.000	-8.81638	0.27130	-6.39072	0.12456
1654.000	-8.81831	0.31848	-6.36143	0.13643
1655.000	-8.73141	0.28316	-6.34190	0.14434
1656.000	-8.74687	0.34213	-6.35362	0.11270
1657.000	-8.73528	0.24776	-6.41219	0.06722
1658.000	-8.82603	0.32633	-6.36143	0.10479
1659.000	-8.76811	0.26347	-6.37900	0.10281
1660.000	-8.86271	0.22212	-6.37900	0.13642
1661.000	-8.77776	0.23593	-6.37314	0.15224
1662.000	-8.73528	0.39916	-6.36729	0.16608
1663.000	-8.90130	0.27910	-6.35947	0.17597
1664.000	-8.83182	0.28308	-6.44538	0.14629
1665.000	-8.74880	0.33427	-6.36729	0.16806
1666.000	-8.75266	0.35786	-6.36143	0.17201
1667.000	-8.78742	0.20840	-6.37510	0.13247
1668.000	-8.76618	0.41289	-6.38876	0.15026
1669.000	-8.81059	0.31455	-6.38095	0.14828
1670.000	-8.56137	0.41902	-6.31065	0.17796
1671.000	-8.58263	0.42883	-6.35166	0.17993
1672.000	-8.71789	0.42081	-6.38291	0.16212
1673.000	-8.73528	0.29888	-6.35752	0.17992
1674.000	-8.64448	0.25569	-6.37510	0.22935
1675.000	-8.81059	0.25557	-6.36729	0.21156
1676.000	-8.62902	0.29504	-6.31651	0.13051
1677.000	-8.66767	0.33237	-6.29503	0.20565
1678.000	-8.71210	0.31857	-6.32237	0.15423
1679.000	-8.74107	0.38343	-6.30089	0.17203
1680.000	-8.79514	0.41286	-6.33995	0.13445
1681.000	-8.77583	0.32834	-6.30870	0.11667
1682.000	-8.73141	0.38934	-6.30870	0.22344
1683.000	-8.73528	0.35787	-6.33018	0.12457
1684.000	-8.68119	0.32646	-6.28526	0.17006
1685.000	-8.74880	0.38932	-6.32237	0.11666
1686.000	-8.68119	0.33039	-6.28917	0.12260
1687.000	-8.66380	0.52904	-6.28721	0.13051
1688.000	-8.75459	0.47386	-6.30870	0.14830
1689.000	-8.74880	0.38145	-6.32042	0.16412
1690.000	-8.66767	0.43070	-6.29503	0.12062
1691.000	-8.67153	0.32647	-6.32432	0.12259
1692.000	-8.68699	0.38742	-6.32628	0.19378
1693.000	-8.55944	0.35214	-6.30479	0.17599
1694.000	-8.56330	0.43869	-6.32237	0.17598
1695.000	-8.57104	0.36786	-6.29893	0.09689
1696.000	-8.63095	0.36387	-6.35947	0.15224
1697.000	-8.65221	0.38549	-6.32237	0.15819
1698.000	-8.64255	0.35599	-6.30089	0.17797
1699.000	-8.63675	0.40517	-6.32628	0.17400
1700.000	-8.62129	0.35208	-6.32628	0.12259
1701.000	-8.59423	0.44259	-6.32823	0.16214
1702.000	-8.62902	0.28913	-6.33018	0.14039
1703.000	-8.70824	0.44835	-6.31065	0.16214
1704.000	-8.66573	0.31074	-6.29307	0.17995
1705.000	-8.80480	0.41482	-6.31065	0.14435
1706.000	-8.65994	0.36778	-6.35752	0.15027
1707.000	-8.66960	0.40907	-6.32432	0.12062
1708.000	-8.60776	0.36783	-6.30089	0.14040
1709.000	-8.61549	0.37372	-6.30870	0.13248
1710.000	-8.68312	0.46608	-6.31260	0.16808
1711.000	-8.72948	0.37558	-6.34385	0.15818
1712.000	-8.71210	0.33037	-6.29503	0.15424
1713.000	-8.62129	0.37175	-6.29893	0.15819
1714.000	-8.69665	0.23992	-6.28526	0.16018
1715.000	-8.74300	0.39326	-6.30284	0.18192
1716.000	-8.67733	0.36973	-6.27940	0.17995
1717.000	-8.76232	0.42470	-6.26377	0.17798
1718.000	-8.65028	0.23602	-6.28721	0.15820
1719.000	-8.70244	0.25368	-6.29112	0.26300
1720.000	-8.71017	0.45425	-6.28526	0.16611
1721.000	-8.61743	0.22817	-6.28135	0.21159
1722.000	-8.71403	0.36183	-6.29698	0.20367
1723.000	-8.83182	0.34599	-6.29503	0.19577
1724.000	-8.76618	0.31262	-6.29112	0.17797
1725.000	-8.74687	0.41488	-6.34190	0.25111
1726.000	-8.78356	0.34603	-6.32628	0.14039
1727.000	-8.64448	0.52316	-6.26768	0.19775
1728.000	-8.81445	0.32241	-6.28526	0.13645
1729.000	-8.65801	0.39925	-6.27940	0.18984
1730.000	-8.71789	0.41098	-6.26963	0.19380
1731.000	-8.59617	0.36981	-6.18367	0.19383
1732.000	-8.59617	0.43865	-6.14263	0.17802
1733.000	-8.53044	0.39741	-6.05858	0.11672
1734.000	-8.39698	0.38378	-5.84345	0.22562
1735.000	-8.12010	0.37026	-5.59094	0.24156
1736.000	-7.80791	0.37645	-5.31274	0.24761
1737.000	-7.38252	0.45771	-4.93226	0.29533
1738.000	-6.94461	0.34757	-4.63974	0.15268
1739.000	-6.53126	0.44669	-4.26638	0.12697
1740.000	-6.20321	0.43511	-3.84739	0.23422
1741.000	-5.72407	0.51664	-3.39843	0.34952
1742.000	-5.55569	0.42967	-2.92737	0.25431
1743.000	-5.15982	0.48146	-2.53089	0.15502
1744.000	-4.70455	0.44611	-2.18748	0.25645
1745.000	-4.48455	0.45814	-1.79058	0.25651
1746.000	-4.18379	0.42063	-1.41722	0.20684
1747.000	-3.61115	0.63731	-1.10896	0.11338
1748.000	-3.36100	0.50642	-0.76505	0.15317
1749.000	-3.04567	0.59199	-0.45075	0.06565
1750.000	-2.74001	0.51267	-0.16804	0.06963
1751.000	-2.39868	0.56250	0.18188	0.14523
1752.000	-2.16576	0.62620	0.53971	0.05371
1753.000	-1.90118	0.54877	0.83226	-0.02984
1754.000	-1.84193	0.54680	1.14651	0.11536
1755.000	-1.50810	0.45541	1.39746	0.11138
1756.000	-1.12675	0.39383	1.71750	0.01989
1757.000	-0.82831	0.33220	1.91303	0.03977
1758.000	-0.46261	0.45954	2.21709	0.15506
1759.000	0.00989	0.39788	2.45986	0.09540
1760.000	0.17595	0.32228	2.75974	0.11923
1761.000	0.50412	0.42373	2.96483	0.17285
1762.000	0.86981	0.38192	3.32947	0.19066
1763.000	0.96666	0.20687	3.61312	0.11119
1764.000	1.33226	0.14519	3.82180	0.08139
1765.000	1.65824	0.23863	4.06775	0.18257
1766.000	2.15984	0.24254	4.48455	0.06347
1767.000	2.48748	0.24646	4.88124	0.07532
1768.000	2.83074	0.19671	5.15786	0.15851
1769.000	3.11466	0.13310	5.39310	0.16043
1770.000	3.38858	0.19860	5.69667	0.23557
1771.000	3.75684	0.21043	5.95299	0.27702
1772.000	4.22116	0.33530	6.19930	0.31842
1773.000	4.58474	0.39859	6.37510	0.34599
1774.000	4.84198	0.27951	6.64246	0.45647
1775.000	5.12060	0.29326	6.82770	0.42074
1776.000	5.35978	0.50111	6.99915	0.43638
1777.000	5.58899	0.53458	7.16075	0.47176
1778.000	5.75735	0.55026	7.25999	0.52099
1779.000	5.82192	0.68872	7.20356	0.56447
1780.000	5.77300	0.57597	7.23275	0.57035
1781.000	5.80823	0.49677	7.18216	0.57831
1782.000	5.82388	0.62539	7.09457	0.55671
1783.000	5.75735	0.80952	7.05757	0.52714
1784.000	5.66926	0.75027	6.90759	0.57865
1785.000	5.62619	0.76616	6.85498	0.58662
1786.000	5.58899	0.88300	6.76727	0.60450
1787.000	5.53415	0.86527	6.71267	0.63816
1788.000	5.46363	0.85547	6.70292	0.62039
1789.000	5.47734	0.94058	6.65417	0.65009
1790.000	5.38134	0.89519	6.57419	0.67391
1791.000	5.30882	0.87945	6.60540	0.69362
1792.000	5.32450	0.87745	6.66197	0.65600
1793.000	5.29118	0.92701	6.65807	0.69157
1794.000	5.37546	0.80411	6.75167	0.63415
1795.000	5.34018	0.91901	6.74777	0.65194
1796.000	5.42445	0.84760	6.78676	0.64003
1797.000	5.45384	0.91488	6.84524	0.63206
1798.000	5.45384	0.85350	6.98162	0.54697
1799.000	5.61248	0.90870	6.91539	0.57075
1800.000	5.61444	0.97401	6.98941	0.54696
1801.000	5.70646	0.87688	6.97578	0.60621
1802.000	5.75735	0.78577	7.06731	0.49159
1803.000	5.72603	0.86498	7.09457	0.49946
1804.000	5.75735	0.82140	7.10819	0.50734
1805.000	5.64577	0.66122	7.07120	0.54489
1806.000	5.77105	0.79763	7.12571	0.49943
1807.000	5.84736	0.82126	7.07899	0.51330
1808.000	5.77300	0.74815	7.07315	0.54292
1809.000	5.83366	0.69464	7.08678	0.60212
1810.000	5.83366	0.71641	7.21913	0.51117
1811.000	5.90409	0.83899	7.13545	0.56850
1812.000	5.86105	0.71440	7.12377	0.56852
1813.000	5.87084	0.75198	7.11403	0.61195
1814.000	5.89627	0.82119	7.10819	0.63368
1815.000	5.83366	0.79556	7.05173	0.62783
1816.000	5.85323	0.85885	7.07704	0.59424
1817.000	5.84932	0.78169	7.07315	0.60609
1818.000	5.82388	0.74610	7.05757	0.65546
1819.000	5.74169	0.76007	7.07899	0.63964
1820.000	5.86888	0.82915	7.07704	0.59819
1821.000	5.83953	0.78170	7.08094	0.67319
1822.000	5.86888	0.80145	7.07899	0.63372
1823.000	5.85323	0.83906	7.10235	0.61000
1824.000	5.80823	0.79362	7.06342	0.58438
1825.000	5.67318	0.76412	7.08678	0.63963
1826.000	5.76517	0.76795	7.08483	0.58830
1827.000	5.83758	0.81732	7.10819	0.60604
1828.000	5.77300	0.81148	7.12571	0.59220
1829.000	5.74560	0.74027	7.07704	0.62187
1830.000	5.82584	0.78964	7.15296	0.61782
1831.000	5.72407	0.76405	7.11014	0.62578
1832.000	5.74952	0.73433	7.15686	0.67111
1833.000	5.74169	0.84517	7.14518	0.61191
1834.000	5.86105	0.82322	7.08289	0.64161
1835.000	5.71233	0.82740	7.10625	0.62776
1836.000	5.86301	0.79552	7.11209	0.65341
1837.000	5.75539	0.80161	7.13155	0.60996
1838.000	5.77887	0.78376	7.14907	0.58427
1839.000	5.83562	0.78764	7.13934	0.60600
1840.000	5.74365	0.80756	7.14713	0.55467
1841.000	5.76909	0.72639	7.15296	0.57243
1842.000	5.77887	0.71054	7.16075	0.62768
1843.000	5.77887	0.77585	7.14518	0.61981
1844.000	5.75930	0.84712	7.20940	0.60591
1845.000	5.77300	0.77586	7.14518	0.63362
1846.000	5.84149	0.77774	7.13350	0.64154
1847.000	5.81605	0.85891	7.16270	0.58820
1848.000	5.80823	0.80549	7.12182	0.62971
1849.000	5.87866	0.82913	7.14129	0.58428
1850.000	5.77300	0.76200	7.22886	0.61180
1851.000	5.85127	0.91821	7.19189	0.58619
1852.000	5.81997	0.92618	7.18021	0.60594
1853.000	5.80236	0.79165	7.18410	0.61581
1854.000	5.76713	0.87283	7.15880	0.61387
1855.000	5.85714	0.86082	7.16464	0.57636
1856.000	5.78866	0.87082	7.21329	0.59603
1857.000	5.81801	0.85692	7.19189	0.60198
1858.000	5.78083	0.82532	7.17437	0.57832
1859.000	5.82388	0.84504	7.13155	0.66325
1860.000	5.86301	0.93995	7.18605	0.56054
1861.000	5.80823	0.92224	7.17632	0.60792
1862.000	5.74560	0.79173	7.16853	0.62767
1863.000	5.81410	0.87474	7.21913	0.61181
1864.000	5.90409	0.90230	7.18410	0.52502
1865.000	5.89822	0.88252	7.22302	0.58023
1866.000	5.83562	0.93407	7.20940	0.54078
1867.000	5.91778	0.90227	7.26777	0.56439
1868.000	5.92561	0.89435	7.16853	0.64543
1869.000	5.81997	0.85494	7.18994	0.58817
1870.000	5.86105	0.84103	7.18994	0.52304
1871.000	5.82388	0.79953	7.18216	0.61778
1872.000	5.98037	0.92591	7.22497	0.55260
1873.000	5.76126	0.88472	7.20551	0.59210
1874.000	5.87084	0.94390	7.23470	0.61771
1875.000	5.88844	0.82516	7.24442	0.46970
1876.000	5.89627	0.89440	7.21329	0.48946
1877.000	5.81410	0.88463	7.26972	0.52689
1878.000	5.89822	0.83504	7.20940	0.53486
1879.000	5.89431	0.90231	7.26193	0.49138
1880.000	5.91387	0.95965	7.19578	0.65724
1881.000	5.85127	0.88457	7.26193	0.51309
1882.000	5.82584	0.88857	7.18410	0.60791
1883.000	5.84149	0.98154	7.25999	0.60189
1884.000	5.83953	0.91427	7.27750	0.57424
1885.000	5.87670	0.81529	7.15880	0.59808
1886.000	5.85323	0.88457	7.20940	0.55459
1887.000	5.81605	0.90837	7.31251	0.56433
1888.000	5.88844	0.78163	7.26582	0.49138
1889.000	5.83758	0.82524	7.22497	0.55063
1890.000	5.81997	0.85296	7.26972	0.50914
1891.000	5.77496	0.78575	7.25804	0.55848
1892.000	5.89235	0.81328	7.26582	0.49730
1893.000	5.77887	0.84313	7.22886	0.59207
1894.000	5.82192	0.79756	7.25999	0.54861
1895.000	5.81018	0.86485	7.21135	0.50328
1896.000	5.94125	0.79739	7.15296	0.56651
1897.000	5.81605	0.87078	7.18410	0.57436
1898.000	5.85714	0.84697	7.22108	0.58418
1899.000	5.87084	0.85684	7.19189	0.61185
1900.000	5.80823	0.83715	7.18605	0.61383
1901.000	5.80236	0.87278	7.18994	0.59804
1902.000	5.77692	0.81741	7.19383	0.66513
1903.000	5.81801	0.82922	7.22497	0.62562
1904.000	5.89431	0.87857	7.19967	0.62960
1905.000	5.90409	0.89043	7.24053	0.55456
1906.000	5.83953	0.82128	7.16270	0.62768
1907.000	5.78083	0.86094	7.22108	0.64536
1908.000	5.89235	0.86275	7.18605	0.60396
1909.000	5.87475	0.83112	7.18216	0.60397
1910.000	5.75930	0.76994	7.20940	0.62169
1911.000	5.87866	0.86672	7.14129	0.64350
1912.000	5.88844	0.89836	7.18216	0.63949
1913.000	5.85910	0.83114	7.19578	0.64145
1914.000	5.89627	0.82119	7.14323	0.65731
1915.000	5.85518	0.92018	7.17632	0.68884
1916.000	5.88453	0.81330	7.20356	0.64736
1917.000	5.85518	0.85489	7.18800	0.62370
1918.000	5.77496	0.84907	7.10819	0.73829
1919.000	5.85518	0.90435	7.19189	0.64935
1920.000	5.78474	0.91040	7.16464	0.58426
1921.000	5.91583	0.89634	7.14323	0.68100
1922.000	5.89040	0.88253	7.20746	0.64538
1923.000	5.80431	0.87871	7.11014	0.68697
1924.000	5.82975	0.84108	7.15102	0.68691
1925.000	5.80236	0.89257	7.13155	0.69088
1926.000	5.82975	0.85493	7.14129	0.69087
1927.000	5.78474	0.90447	7.11793	0.68301
1928.000	5.81018	0.90245	7.13934	0.67311
1929.000	5.85518	0.84104	7.15491	0.66716
1930.000	5.86497	0.88257	7.11209	0.70868
1931.000	5.83758	0.79951	7.12182	0.68498
1932.000	5.86888	0.85685	7.17048	0.69082
1933.000	5.89431	0.87461	7.09651	0.65146
1934.000	5.82779	0.79557	7.16659	0.67899
1935.000	5.92952	0.83499	7.21135	0.63748
1936.000	5.87866	0.85287	7.17243	0.67306
1937.000	5.84540	0.83710	7.17437	0.67108
1938.000	5.92561	0.91611	7.18021	0.68884
1939.000	5.82192	0.90639	7.19967	0.69670
1940.000	5.77496	0.93219	7.23470	0.60982
1941.000	5.80431	0.96973	7.20551	0.65722
1942.000	5.82975	0.94595	7.19578	0.62369
1943.000	5.80823	0.91037	7.24832	0.66308
1944.000	5.86497	0.88653	7.18994	0.70461
1945.000	5.92170	0.96557	7.18994	0.66711
1946.000	5.73582	0.87486	7.19773	0.69868
1947.000	5.87670	0.89245	7.19967	0.64539
1948.000	5.81997	0.87671	7.18605	0.66317
1949.000	5.87279	0.87267	7.22886	0.63351
1950.000	5.82779	0.84504	7.25221	0.64531
1951.000	5.77496	0.87480	7.27361	0.63936
1952.000	5.79257	0.83322	7.23275	0.63942
1953.000	5.79061	0.83124	7.27166	0.57622
1954.000	5.85518	0.84302	7.20746	0.62564
1955.000	6.00383	0.93378	7.31251	0.57420
1956.000	5.85714	0.91424	7.25804	0.60387
1957.000	5.80823	0.86881	7.22886	0.66311
1958.000	5.95103	0.87650	7.23275	0.63745
1959.000	5.95299	1.00508	7.27944	0.61370
1960.000	5.85323	0.79751	7.25610	0.64334
1961.000	5.76713	0.92033	7.30084	0.63538
1962.000	5.92952	0.86071	7.24637	0.65716
1963.000	5.87475	0.87860	7.27555	0.59990
1964.000	5.83758	0.81138	7.23275	0.69862
1965.000	5.94517	0.90025	7.22497	0.65917
1966.000	5.91583	0.87854	7.21135	0.71050
1967.000	5.78866	0.86291	7.26972	0.64134
1968.000	5.89431	0.87264	7.24832	0.60783
1969.000	5.90409	0.97747	7.24832	0.63940
1970.000	5.90996	0.88646	7.30473	0.61564
1971.000	5.92952	0.89632	7.21135	0.65919
1972.000	5.88649	0.91222	7.29889	0.66892
1973.000	5.90605	0.96758	7.27555	0.61963
1974.000	5.80823	0.87079	7.27555	0.54662
1975.000	5.83758	0.78962	7.21524	0.60195
1976.000	5.86497	0.81728	7.28722	0.59594
1977.000	5.91974	0.91018	7.24832	0.64532
1978.000	5.97059	0.91999	7.21329	0.60195
1979.000	5.92756	0.90226	7.29500	0.55252
1980.000	5.86692	0.93797	7.24248	0.58613
1981.000	5.89431	0.92407	7.32807	0.55050
1982.000	5.82584	0.84900	7.27361	0.54860
1983.000	5.85127	0.84698	7.31834	0.50711
1984.000	5.84149	0.85887	7.31445	0.59985
1985.000	5.87866	0.92014	7.34363	0.53667
1986.000	5.79844	0.92225	7.29889	0.59592
1987.000	5.94125	0.95169	7.25221	0.52100
1988.000	5.95299	0.98332	7.25415	0.56046
1989.000	5.84932	0.89249	7.33196	0.52485
1990.000	5.83953	0.80940	7.32807	0.55642
1991.000	5.96277	0.86659	7.23664	0.63744
1992.000	5.84345	0.89448	7.25415	0.57230
1993.000	5.93147	0.98138	7.28722	0.56042
1994.000	5.80236	0.90840	7.26388	0.58610
1995.000	5.87866	0.93993	7.25026	0.56638
1996.000	5.84736	0.97559	7.29111	0.57423
1997.000	5.83758	0.88460	7.31640	0.53671
1998.000	5.87866	0.86079	7.32029	0.59786
1999.000	5.79844	0.88862	7.35335	0.51299
2000.000	5.80823	0.89454	7.29111	0.58015
2001.000	5.88453	0.92607	7.36307	0.57611
2002.000	5.81997	0.80152	7.36502	0.53665
2003.000	5.90605	0.88053	7.32223	0.57419
2004.000	5.88844	0.87660	7.31251	0.56039
2005.000	5.82388	0.85692	7.35335	0.55639
2006.000	5.79649	0.93215	7.27750	0.63739
2007.000	5.89235	0.97552	7.36307	0.53665
2008.000	5.87084	0.92411	7.30667	0.59591
2009.000	5.84540	0.82522	7.29500	0.59001
2010.000	5.80627	0.91433	7.27555	0.58214
2011.000	5.93539	0.94181	7.26193	0.60978
2012.000	5.81410	0.89057	7.22497	0.63154
2013.000	5.84540	0.95581	7.24248	0.60191
2014.000	5.86301	0.87268	7.25804	0.58808
2015.000	5.98623	0.90216	7.22886	0.60391
2016.000	5.72016	0.89270	7.28722	0.63540
2017.000	5.86888	0.92807	7.28333	0.63935
2018.000	5.90018	0.89835	7.26972	0.68673
2019.000	5.82192	0.92419	7.28917	0.58804
2020.000	5.83366	0.94594	7.20940	0.60196
2021.000	5.86105	0.88258	7.23275	0.59009
2022.000	5.86692	0.86476	7.28917	0.61961
2023.000	5.85323	0.92414	7.32807	0.61166
2024.000	5.91192	0.93987	7.28333	0.62948
2025.000	5.86692	0.80145	7.22886	0.67100
2026.000	5.77300	0.93615	7.29306	0.61763
2027.000	5.85714	0.92414	7.25804	0.66701
2028.000	5.75147	0.86494	7.23081	0.66311
2029.000	5.88649	0.85880	7.20940	0.69668
2030.000	5.91974	0.92997	7.27361	0.69264
2031.000	5.95299	0.86067	7.25221	0.67886
2032.000	5.82779	0.84900	7.26582	0.66503
2033.000	5.76517	0.88669	7.22302	0.66114
2034.000	5.82779	1.02114	7.18605	0.74606
2035.000	5.91387	0.89239	7.23470	0.69665
2036.000	5.84736	0.89052	7.22302	0.73218
2037.000	5.79844	0.92621	7.26388	0.71633
2038.000	5.83562	0.92615	7.22302	0.74008
2039.000	5.79257	0.87873	7.25221	0.68675
2040.000	5.83953	0.93208	7.25026	0.73411
2041.000	5.85127	0.95185	7.31445	0.72809
2042.000	5.89235	0.95178	7.27750	0.75972
2043.000	5.86301	0.88060	7.23275	0.73611
2044.000	5.80431	0.91433	7.21329	0.75983
2045.000	5.77692	0.91635	7.26582	0.75579
2046.000	5.85127	1.01120	7.22302	0.72824
2047.000	5.86888	0.94390	7.24442	0.73018
2048.000	5.87279	0.82914	7.26582	0.75185
2049.000	5.81410	0.96972	7.27555	0.66699
2050.000	5.83171	0.82722	7.22886	0.74204
2051.000	5.78279	0.93217	7.24053	0.77951
2052.000	5.86692	0.98941	7.26193	0.81894
2053.000	5.84540	0.98153	7.26972	0.77354
2054.000	5.86888	0.97754	7.26972	0.79525
2055.000	5.89627	0.98936	7.21135	0.84666
2056.000	5.92561	1.05854	7.22691	0.88609
2057.000	5.80236	0.98754	7.30473	0.85634
2058.000	5.88844	1.03883	7.18605	0.82500
2059.000	5.85714	1.02702	7.20746	0.86837
2060.000	5.82584	1.09434	7.31056	0.85239
2061.000	5.92365	1.02887	7.23081	0.86635
2062.000	5.87670	1.06853	7.29500	0.80309
2063.000	5.90018	1.14563	7.22302	0.83874
2064.000	5.87670	1.14172	7.24637	0.83475
2065.000	5.91974	1.07636	7.25221	0.83671
2066.000	5.91387	1.12780	7.29111	0.81494
2067.000	5.89431	1.15949	7.30278	0.76757
2068.000	5.91192	1.19308	7.28139	0.83666
2069.000	5.87866	1.20502	7.28333	0.88992
2070.000	5.94517	1.35914	7.28722	1.00434
2071.000	5.95103	1.41252	7.23275	1.11297
2072.000	5.91387	1.58861	7.22691	1.30632
2073.000	5.79257	1.74716	7.23275	1.50354
2074.000	5.85127	1.85374	7.20551	1.73240
2075.000	5.83758	2.06333	7.10819	1.99703
2076.000	5.85714	2.20555	7.09651	2.12129
2077.000	5.81018	2.53965	7.13350	2.31626
2078.000	5.82192	2.89702	7.01473	2.69524
2079.000	5.96277	3.33425	7.03031	3.01816
2080.000	5.81018	3.79257	6.98941	3.33536
2081.000	5.69667	3.96673	6.98747	3.57935
2082.000	5.64577	4.31567	7.02642	3.75406
2083.000	5.51652	4.55873	7.03031	3.95844
2084.000	5.54982	4.85939	6.97188	4.18685
2085.000	5.58899	5.08702	6.99720	4.33587
2086.000	5.67905	5.36109	7.01473	4.54179
2087.000	5.73190	5.52342	6.99526	4.74796
2088.000	5.83953	5.53806	7.11403	4.88788
2089.000	5.86105	5.68094	7.22886	4.90820
2090.000	5.82192	5.75579	7.25026	5.04312
2091.000	5.93734	5.79966	7.30862	5.05813
2092.000	5.98428	5.89119	7.41557	5.04321
2093.000	6.03316	5.84564	7.42335	5.12925
2094.000	6.06640	5.75913	7.47388	5.07386
2095.000	6.08790	5.77848	7.53801	4.99288
2096.000	6.01752	5.65778	7.54773	4.92034
2097.000	5.93147	5.48225	7.60212	4.80421
2098.000	5.84540	5.48506	7.59435	4.73184
2099.000	5.78083	5.37976	7.58075	4.59486
2100.000	5.74169	5.21723	7.55938	4.54609
2101.000	5.66926	5.09025	7.63125	4.40227
2102.000	5.65752	5.08446	7.53413	4.34640
2103.000	5.60073	5.02601	7.57298	4.29306
2104.000	5.56940	4.98698	7.52247	4.32494
2105.000	5.68688	4.96044	7.45639	4.29617
2106.000	5.59094	5.06343	7.50303	4.33886
2107.000	5.67709	5.00768	7.47971	4.36263
2108.000	5.71233	5.06434	7.47000	4.37253
2109.000	5.61248	5.08485	7.44473	4.48063
2110.000	5.73973	5.13086	7.45250	4.46291
2111.000	5.72212	5.18011	7.39613	4.52426
2112.000	5.72407	5.14279	7.43306	4.56113
2113.000	5.77300	5.23658	7.40974	4.63782
2114.000	5.66730	5.14722	7.40974	4.62998
2115.000	5.83171	5.36947	7.38252	4.74197
2116.000	5.81018	5.38929	7.39807	4.73592
2117.000	5.73973	5.46058	7.44473	4.73542
2118.000	5.71037	5.35884	7.38057	4.78901
2119.000	5.85910	5.44963	7.35141	4.82263
2120.000	5.73190	5.37433	7.33196	4.76210
2121.000	5.84149	5.45960	7.36113	4.75395
2122.000	5.79649	5.39138	7.36891	4.89100
2123.000	5.80823	5.48542	7.32418	4.80137
2124.000	5.76126	5.46234	7.33585	4.87374
2125.000	5.76517	5.51917	7.28333	4.89390
2126.000	5.75147	5.50362	7.36113	4.82253
2127.000	5.82388	5.62839	7.30667	4.88777
2128.000	5.81214	5.53637	7.30862	4.87795
2129.000	5.77692	5.57985	7.32029	4.91504
2130.000	5.84932	5.56737	7.28722	4.92128
2131.000	5.86888	5.71221	7.27361	4.90576
2132.000	5.75930	5.68588	7.29111	4.91340
2133.000	5.84736	5.57327	7.27555	4.90770
2134.000	5.76126	5.63881	7.34557	4.94610
2135.000	5.78866	5.56209	7.37863	4.89677
2136.000	5.76322	5.65056	7.27750	4.96448
2137.000	5.75147	5.52911	7.26582	4.92739
2138.000	5.72603	5.53328	7.29111	4.90557
2139.000	5.78866	5.57973	7.30862	4.96414
2140.000	5.84932	5.59874	7.33779	4.85021
2141.000	5.76517	5.58192	7.32223	4.82687
2142.000	5.84149	5.56353	7.32612	4.85817
2143.000	5.78866	5.63266	7.34363	4.82860
2144.000	5.79844	5.53062	7.34557	4.81486
2145.000	5.81018	5.58932	7.26582	4.85294
2146.000	5.79061	5.52677	7.28333	4.80769
2147.000	5.78279	5.61900	7.29500	4.88202
2148.000	5.83758	5.57729	7.33974	4.80905
2149.000	5.82388	5.59311	7.28917	4.87620
2150.000	5.75343	5.55066	7.25415	4.81388
2151.000	5.78474	5.52291	7.29889	4.83104
2152.000	5.78670	5.50328	7.25415	4.86091
2153.000	5.78279	5.48567	7.27361	4.80975
2154.000	5.76909	5.46226	7.26972	4.85094
2155.000	5.78083	5.48372	7.27166	4.77254
2156.000	5.80431	5.52860	7.26777	4.83333
2157.000	5.75735	5.40745	7.32612	4.81115
2158.000	5.76322	5.59567	7.26777	4.92345
2159.000	5.79061	5.54442	7.29306	4.84677
2160.000	5.73777	5.49590	7.33974	4.91091
2161.000	5.83758	5.59101	7.30667	4.87405
2162.000	5.79061	5.52285	7.26388	4.90195
2163.000	5.75147	5.68791	7.30667	4.88973
2164.000	5.76517	5.60741	7.28333	4.88214
2165.000	5.80431	5.51291	7.30278	4.82512
2166.000	5.85910	5.61040	7.28139	4.81947
2167.000	5.77887	5.63276	7.26777	4.86860
2168.000	5.87084	5.66516	7.22886	4.86118
2169.000	5.83171	5.54794	7.23275	4.87681
2170.000	5.83562	5.58907	7.27361	4.83327
2171.000	5.87084	5.50050	7.28722	4.85859
2172.000	5.90409	5.52958	7.23081	4.84352
2173.000	5.78083	5.55040	7.27166	4.81173
2174.000	5.79257	5.57773	7.27555	4.80385
2175.000	5.84736	5.63796	7.28528	4.80375
2176.000	5.76909	5.58777	7.26388	4.82161
2177.000	5.75930	5.60551	7.31056	4.78389
2178.000	5.85714	5.56141	7.23859	4.79641
2179.000	5.87475	5.63572	7.24832	4.82178
2180.000	5.84540	5.66934	7.31251	4.81326
2181.000	5.90605	5.68244	7.27166	4.90774
2182.000	5.89431	5.62769	7.31056	4.87989
2183.000	5.74169	5.58803	7.26388	4.83925
2184.000	5.92170	5.58429	7.28917	4.85661
2185.000	5.85714	5.58494	7.28917	4.87620
2186.000	5.90018	5.68446	7.29306	4.84286
2187.000	5.81410	5.55792	7.25804	4.88438
2188.000	5.81410	5.60889	7.19967	4.90656
2189.000	5.84149	5.61058	7.25026	4.87075
2190.000	5.74560	5.63309	7.23470	4.86308
2191.000	5.88062	5.56510	7.18216	4.86560
2192.000	5.81410	5.64809	7.28528	4.84490
2193.000	5.86497	5.58682	7.18605	4.89103
2194.000	5.86692	5.62012	7.22302	4.89063
2195.000	5.89627	5.65119	7.28139	4.83514
2196.000	5.84149	5.60666	7.29500	4.96037
2197.000	5.88649	5.62581	7.24248	4.84536
2198.000	5.86692	5.63972	7.22886	4.85530
2199.000	5.98819	5.69531	7.23859	4.87675
2200.000	5.93343	5.64885	7.24637	4.85511
2201.000	5.92170	5.72147	7.26972	4.85878
2202.000	5.88844	5.64343	7.23664	4.79643
2203.000	5.93734	5.67820	7.25221	4.79234
2204.000	5.85714	5.66138	7.25610	4.82954
2205.000	5.85910	5.64176	7.23859	4.85520
2206.000	5.84345	5.67328	7.27166	4.79410
2207.000	5.88649	5.62973	7.27361	4.83523
2208.000	5.85323	5.58498	7.24442	4.83162
2209.000	5.82975	5.70085	7.19578	4.87525
2210.000	5.85518	5.68100	7.25999	4.81970
2211.000	5.86105	5.63194	7.24053	4.82186
2212.000	5.84932	5.63598	7.21913	4.88480
2213.000	5.93539	5.65863	7.21135	4.85353
2214.000	5.83562	5.63220	7.29306	4.84286
2215.000	5.86692	5.64168	7.28917	4.81938
2216.000	5.85714	5.65942	7.25221	4.90011
2217.000	5.90213	5.62369	7.25415	4.88638
2218.000	5.85323	5.61830	7.24637	4.86295
2219.000	5.88257	5.71207	7.25610	4.90007
2220.000	5.88649	5.67284	7.22497	4.87102
2221.000	5.83171	5.61067	7.22108	4.86126
2222.000	5.86692	5.62600	7.20940	4.85747
2223.000	5.92365	5.73516	7.26582	4.78044
2224.000	5.85714	5.64766	7.20356	4.84577
2225.000	5.80823	5.62463	7.25415	4.81388
2226.000	5.90409	5.63739	7.25999	4.78638
2227.000	5.88062	5.68270	7.22302	4.82989
2228.000	5.85127	5.65360	7.24442	4.81398
2229.000	5.85323	5.59870	7.24248	4.81204
2230.000	5.86105	5.71621	7.20356	4.81050
2231.000	5.87670	5.60238	7.25221	4.88052
2232.000	5.95299	5.68392	7.23470	4.85916
2233.000	5.89431	5.68844	7.24248	4.87671
2234.000	5.82779	5.65579	7.25999	4.80402
2235.000	5.84149	5.61842	7.22691	4.86316
2236.000	5.82975	5.72436	7.25804	4.84715
2237.000	5.80627	5.58740	7.21329	4.88878
2238.000	5.96081	5.66620	7.22886	4.87881
2239.000	5.82584	5.68325	7.20356	4.82422
2240.000	5.90800	5.72357	7.21913	4.83973
2241.000	5.91192	5.77642	7.16464	4.84619
2242.000	5.84345	5.64584	7.24248	4.83164
2243.000	5.90018	5.71385	7.23470	4.82389
2244.000	5.82388	5.68719	7.25999	4.80206
2245.000	5.91387	5.66276	7.29111	4.83700
2246.000	5.86105	5.69269	7.30084	4.84277
2247.000	5.79453	5.66593	7.28722	4.80765
2248.000	5.85910	5.62804	7.28917	4.79979
2249.000	5.88453	5.61799	7.25415	4.77665
2250.000	5.86497	5.71029	7.26193	4.74520
2251.000	5.88844	5.78450	7.22691	4.86708
2252.000	5.92170	5.73322	7.22691	4.84944
2253.000	5.88649	5.67284	7.25804	4.83539
2254.000	5.89431	5.74330	7.26582	4.80396
2255.000	5.86888	5.71809	7.27361	4.81563
2256.000	5.93343	5.72134	7.21135	4.78690
2257.000	5.90996	5.65497	7.25804	4.85499
2258.000	5.92952	5.69983	7.28139	4.73912
2259.000	5.96277	5.76805	7.26582	4.83335
2260.000	5.91192	5.74508	7.27361	4.80975
2261.000	5.91974	5.71169	7.26388	4.82357
2262.000	5.90018	5.79221	7.26972	4.76864
2263.000	5.88844	5.69438	7.31640	4.75443
2264.000	5.83366	5.69689	7.32223	4.77396
2265.000	5.94517	5.84853	7.23470	4.76117
2266.000	5.97255	5.81691	7.24248	4.80617
2267.000	5.99406	5.67566	7.23664	4.83170
2268.000	5.99797	5.80490	7.25610	4.80014
2269.000	5.98623	5.83048	7.27555	4.78034
2270.000	5.97450	5.77185	7.26193	4.82947
2271.000	5.97255	5.74053	7.30278	4.83687
2272.000	5.94125	5.68208	7.25999	4.78638
2273.000	5.99992	5.74024	7.24637	4.79241
2274.000	5.92170	5.76260	7.27555	4.76466
2275.000	5.98232	5.80506	7.23859	4.77093
2276.000	5.90409	5.78433	7.23470	4.87091
2277.000	5.82584	5.79689	7.16659	4.81285
2278.000	5.75930	5.81325	7.08678	4.78035
2279.000	5.70058	5.79425	7.01278	4.74974
2280.000	5.53611	5.98592	6.83354	4.85157
2281.000	5.33626	6.07213	6.66977	4.80023
2282.000	5.01467	6.17708	6.42391	4.90072
2283.000	4.69866	6.31906	6.12504	5.00169
2284.000	4.25065	6.53056	5.80236	5.11852
2285.000	3.85723	6.54938	5.42641	5.21610
2286.000	3.47526	6.82444	5.18335	5.31834
2287.000	3.07721	6.86825	4.90283	5.43458
2288.000	2.76171	7.00136	4.47669	5.62454
2289.000	2.18156	6.91036	4.15036	5.79393
2290.000	1.92093	6.92519	3.86903	5.78216
2291.000	1.60096	7.01258	3.69385	5.79118
2292.000	1.46859	6.92484	3.53238	5.83151
2293.000	1.17418	6.92761	3.39055	5.93063
2294.000	0.98840	6.79666	3.25065	5.90985
2295.000	0.90737	6.78701	3.20730	5.81772
2296.000	0.96864	6.81239	3.13240	5.85549
2297.000	0.81645	6.83032	3.21518	5.84913
2298.000	0.72354	6.79516	3.07524	5.98749
2299.000	0.84807	6.99690	3.02004	5.97404
2300.000	0.73936	6.90299	2.99244	6.00563
2301.000	0.65238	7.03248	2.92342	6.03941
2302.000	0.60692	7.11483	2.76368	6.18169
2303.000	0.46063	7.22466	2.63152	6.22949
2304.000	0.43296	7.33039	2.42828	6.31884
2305.000	0.17595	7.33252	2.17761	6.32780
2306.000	-0.02570	7.46168	1.89525	6.57038
2307.000	-0.30248	7.45571	1.69775	6.50042
2308.000	-0.50412	7.46727	1.47649	6.43435
2309.000	-0.72552	7.36915	1.34214	6.44650
2310.000	-0.90934	7.27293	1.16429	6.40569
2311.000	-0.99433	7.41168	1.06943	6.39214
2312.000	-1.22555	7.31720	1.02003	6.30776
2313.000	-1.12082	7.14325	1.01212	6.31760
2314.000	-1.05362	7.19628	0.93504	6.30791
2315.000	-1.15639	7.13533	1.08129	6.27422
2316.000	-1.01607	7.08277	1.12675	6.30557
2317.000	-0.95283	7.03589	1.22951	6.27980
2318.000	-0.74529	7.07545	1.33028	6.36600
2319.000	-0.60099	7.13050	1.42513	6.34218
2320.000	-0.62471	7.03448	1.52786	6.37724
2321.000	-0.40528	7.09742	1.58910	6.40259
2322.000	-0.34597	7.09746	1.59305	6.37705
2323.000	-0.31039	7.19738	1.69972	6.44151
2324.000	-0.18188	7.18374	1.70170	6.39241
2325.000	-0.23724	7.11712	1.70367	6.41008
2326.000	-0.22538	7.23463	1.68195	6.36891
2327.000	-0.23329	7.20330	1.67997	6.39445
2328.000	-0.28864	7.18173	1.68392	6.34730
2329.000	-0.33806	7.24826	1.66219	6.26682
2330.000	-0.23922	7.19546	1.59503	6.28078
2331.000	-0.41319	7.19534	1.53576	6.27310
2332.000	-0.55552	7.26959	1.52589	6.24168
2333.000	-0.41319	7.29127	1.48637	6.21428
2334.000	-0.59506	7.27737	1.46859	6.28311
2335.000	-0.56145	7.24609	1.44488	6.29497
2336.000	-0.61482	7.16770	1.39549	6.24401
2337.000	-0.53575	7.27548	1.38363	6.34032
2338.000	-0.50610	7.22462	1.31250	6.32675
2339.000	-0.67017	7.24594	1.27891	6.39363
2340.000	-0.71366	7.22238	1.26112	6.35831
2341.000	-0.68994	7.24395	1.27891	6.39560
2342.000	-0.68599	7.23809	1.27496	6.40935
2343.000	-0.78284	7.34362	1.26903	6.35044
2344.000	-0.72750	7.21453	1.21172	6.33486
2345.000	-0.81447	7.24962	1.25520	6.41726
2346.000	-0.77691	7.26143	1.20777	6.37219
2347.000	-0.82238	7.15563	1.25915	6.36618
2348.000	-0.72157	7.35155	1.18801	6.38992
2349.000	-0.76505	7.26928	1.18801	6.42920
2350.000	-0.78482	7.28882	1.20184	6.36828
2351.000	-0.81052	7.20068	1.22753	6.39965
2352.000	-0.81447	7.28290	1.24136	6.37997
2353.000	-0.77889	7.26534	1.21765	6.35056
2354.000	-0.69389	7.30463	1.18603	6.36635
2355.000	-0.73343	7.24976	1.22753	6.36036
2356.000	-0.79273	7.20463	1.25322	6.34262
2357.000	-0.72157	7.26152	1.25717	6.34457
2358.000	-0.65436	7.30664	1.21963	6.39967
2359.000	-0.67215	7.33402	1.20382	6.46452
2360.000	-0.60296	7.25974	1.26705	6.35241
2361.000	-0.74133	7.24387	1.25322	6.40548
2362.000	-0.68006	7.30269	1.23544	6.41338
2363.000	-0.80063	7.18308	1.17615	6.35262
2364.000	-0.72354	7.21258	1.17615	6.40566
2365.000	-0.78284	7.19682	1.20184	6.40757
2366.000	-0.79668	7.25357	1.21370	6.41539
2367.000	-0.65041	7.25772	1.15639	6.37035
2368.000	-0.67413	7.29683	1.22358	6.38001
2369.000	-0.65634	7.19114	1.17813	6.38012
2370.000	-0.73540	7.23801	1.22358	6.35840
2371.000	-0.63855	7.20683	1.21963	6.38395
2372.000	-0.69785	7.25373	1.17418	6.40174
2373.000	-0.66029	7.23029	1.16825	6.42139
2374.000	-0.67215	7.24202	1.19394	6.39383
2375.000	-0.68994	7.22438	1.18801	6.37813
2376.000	-0.68599	7.25571	1.19394	6.43312
2377.000	-0.62075	7.25384	1.19591	6.42722
2378.000	-0.64645	7.27730	1.22951	6.39571
2379.000	-0.60889	7.19708	1.19789	6.36239
2380.000	-0.60494	7.23429	1.16825	6.41550
2381.000	-0.58913	7.28129	1.15046	6.37429
2382.000	-0.57924	7.22649	1.10303	6.36457
2383.000	-0.72750	7.10682	1.17418	6.39781
2384.000	-0.62273	7.19119	1.15441	6.34677
2385.000	-0.69982	7.23023	1.20382	6.35059
2386.000	-0.72552	7.26935	1.16232	6.38408
2387.000	-0.64052	7.13241	1.15244	6.38214
2388.000	-0.63657	7.24207	1.15046	6.40375
2389.000	-0.64052	7.24207	1.17418	6.36638
2390.000	-0.65634	7.23226	1.12872	6.44701
2391.000	-0.79075	7.27120	1.13663	6.37432
2392.000	-0.66820	7.25182	1.15244	6.40375
2393.000	-0.57529	7.20300	1.19591	6.40169
2394.000	-0.74726	7.18904	1.16825	6.39389
2395.000	-0.71564	7.31046	1.15046	6.38018
2396.000	-0.66424	7.19113	1.19196	6.40562
2397.000	-0.61878	7.22839	1.15046	6.41947
2398.000	-0.73936	7.28107	1.18208	6.30938
2399.000	-0.58913	7.12660	1.14651	6.41162
2400.000	-0.71564	7.26153	1.21765	6.44092
2401.000	-0.69982	7.19891	1.17813	6.38994
2402.000	-0.69389	7.24982	1.15244	6.39982
2403.000	-0.70378	7.18715	1.17220	6.39585
2404.000	-0.65238	7.28120	1.17022	6.41549
2405.000	-0.60296	7.22058	1.16825	6.42336
2406.000	-0.64052	7.33993	1.15244	6.38607
2407.000	-0.62866	7.23230	1.14453	6.39395
2408.000	-0.61680	7.21273	1.19591	6.43901
2409.000	-0.65238	7.17744	1.16429	6.44497
2410.000	-0.67017	7.20091	1.14848	6.39983
2411.000	-0.69192	7.16171	1.15837	6.42338
2412.000	-0.69587	7.26156	1.15046	6.43322
2413.000	-0.70575	7.18715	1.14651	6.41162
2414.000	-0.61680	7.16965	1.14651	6.35072
2415.000	-0.62668	7.22055	1.19196	6.35062
2416.000	-0.67808	7.24984	1.16627	6.42532
2417.000	-0.66424	7.24008	1.11489	6.39794
2418.000	-0.61878	7.18532	1.13465	6.39397
2419.000	-0.62273	7.22839	1.14651	6.39001
2420.000	-0.70180	7.15387	1.18998	6.39777
2421.000	-0.67610	7.26159	1.15837	6.36445
2422.000	-0.63855	7.19704	1.17615	6.40173
2423.000	-0.72157	7.17929	1.13465	6.36254
2424.000	-0.62668	7.18531	1.18010	6.37029
2425.000	-0.64250	7.20682	1.13268	6.33110
2426.000	-0.78482	7.25946	1.13465	6.36843
2427.000	-0.61482	7.24602	1.16825	6.40371
2428.000	-0.66029	7.20876	1.16034	6.38998
2429.000	-0.72157	7.21845	1.13860	6.41949
2430.000	-0.62273	7.24992	1.14848	6.39394
2431.000	-0.65436	7.30860	1.13465	6.37432
2432.000	-0.61482	7.32823	1.13860	6.35467
2433.000	-0.51005	7.22461	1.14848	6.38608
2434.000	-0.61087	7.20099	1.16825	6.42532
2435.000	-0.68006	7.24593	1.15441	6.40571
2436.000	-0.58122	7.28521	1.13268	6.34486
2437.000	-0.67413	7.21461	1.20382	6.35059
2438.000	-0.52784	7.26179	1.15046	6.39786
2439.000	-0.66424	7.30467	1.14453	6.35465
2440.000	-0.61482	7.25581	1.13465	6.46664
2441.000	-0.63459	7.29493	1.15244	6.36446
2442.000	-0.71564	7.21651	1.17813	6.36047
2443.000	-0.58122	7.22844	1.16825	6.35657
2444.000	-0.61680	7.24014	1.17220	6.32119
2445.000	-0.53971	7.33811	1.16429	6.40765
2446.000	-0.60889	7.18925	1.14848	6.34875
2447.000	-0.61878	7.15986	1.16034	6.35462
2448.000	-0.66227	7.20288	1.15639	6.33891
2449.000	-0.65831	7.30664	1.15639	6.34088
2450.000	-0.68006	7.12256	1.16429	6.37229
2451.000	-0.61285	7.29496	1.16627	6.30745
2452.000	-0.63855	7.12458	1.14848	6.41751
2453.000	-0.65831	7.22638	1.14848	6.38804
2454.000	-0.53971	7.21479	1.13070	6.37237
2455.000	-0.66424	7.20875	1.19987	6.37418
2456.000	-0.70971	7.35157	1.15244	6.35660
2457.000	-0.70180	7.25960	1.18208	6.27990
2458.000	-0.65634	7.25183	1.16034	6.38802
2459.000	-0.57133	7.29697	1.16825	6.36639
2460.000	-0.68796	7.17543	1.18406	6.37814
2461.000	-0.54761	7.29700	1.17615	6.34673
2462.000	-0.72947	7.27521	1.16429	6.40569
2463.000	-0.60494	7.21471	1.19789	6.35257
2464.000	-0.54959	7.31461	1.15244	6.39393
2465.000	-0.66424	7.28510	1.15244	6.38411
2466.000	-0.69389	7.23807	1.10698	6.34884
2467.000	-0.53575	7.24416	1.17615	6.34476
2468.000	-0.59703	7.21080	1.12675	6.33898
2469.000	-0.57529	7.25977	1.17813	6.34672
2470.000	-0.51796	7.30682	1.13070	6.33111
2471.000	-0.58517	7.27542	1.16232	6.34283
2472.000	-0.52191	7.22851	1.13663	6.40182
2473.000	-0.53180	7.34790	1.18208	6.30545
2474.000	-0.57727	7.28326	1.15244	6.34481
2475.000	-0.63064	7.31255	1.17813	6.34869
2476.000	-0.59901	7.32238	1.15244	6.31338
2477.000	-0.58913	7.36348	1.14848	6.33893
2478.000	-0.52784	7.31659	1.13268	6.35861
2479.000	-0.58715	7.29695	1.13268	6.29966
2480.000	-0.52389	7.33421	1.13070	6.32914
2481.000	-0.51005	7.34988	1.16627	6.33692
2482.000	-0.52191	7.25788	1.19196	6.35258
2483.000	-0.49424	7.24421	1.14848	6.33696
2484.000	-0.63459	7.19704	1.15639	6.31533
2485.000	-0.56343	7.25587	1.17615	6.36637
2486.000	-0.66820	7.20679	1.16034	6.32908
2487.000	-0.75715	7.24189	1.13465	6.29966
2488.000	-0.63064	7.29885	1.20777	6.33487
2489.000	-0.75517	7.38280	1.13860	6.26821
2490.000	-0.82435	7.37485	1.11489	6.28791
2491.000	-0.96073	7.29631	1.03386	6.36667
2492.000	-1.09117	7.32929	0.90539	6.37281
2493.000	-1.35795	7.43224	0.67413	6.34958
2494.000	-1.70367	7.30196	0.48435	6.24169
2495.000	-1.96437	7.35763	0.20956	6.28905
2496.000	-2.20722	7.43862	-0.06326	6.25764
2497.000	-2.49143	7.27486	-0.40726	6.28500
2498.000	-2.89779	7.28810	-0.73145	6.16867
2499.000	-3.21124	7.21953	-1.15639	6.14826
2500.000	-3.53041	7.19374	-1.36980	6.01600
2501.000	-3.89462	7.02858	-1.74318	6.03854
2502.000	-4.30176	6.94100	-1.98807	5.96494
2503.000	-4.51795	6.77087	-2.21117	5.89723
2504.000	-4.83020	6.80502	-2.43815	5.79204
2505.000	-5.08137	6.63242	-2.58219	5.81697
2506.000	-5.34606	6.52409	-2.66900	5.74772
2507.000	-5.43620	6.41754	-2.74790	5.72178
2508.000	-5.61836	6.39798	-2.86821	5.65036
2509.000	-5.68492	6.23884	-2.95695	5.60073
2510.000	-5.72016	6.21890	-3.02004	5.62205
2511.000	-5.88062	6.23084	-3.04961	5.57271
2512.000	-5.91974	6.18151	-3.12255	5.57036
2513.000	-5.95886	6.15369	-3.24474	5.51067
2514.000	-5.89627	6.13873	-3.31568	5.54373
2515.000	-5.84149	6.27234	-3.40631	5.52355
2516.000	-5.80627	6.31379	-3.45359	5.58426
2517.000	-5.72603	6.36356	-3.46147	5.64912
2518.000	-5.81997	6.33906	-3.53238	5.61723
2519.000	-5.68492	6.39530	-3.56979	5.68976
2520.000	-5.74365	6.32035	-3.56979	5.69369
2521.000	-5.64577	6.42506	-3.58358	5.70540
2522.000	-5.62423	6.38228	-3.56192	5.73109
2523.000	-5.58311	6.39641	-3.52450	5.76670
2524.000	-5.60465	6.35120	-3.46541	5.74741
2525.000	-5.45188	6.37434	-3.40434	5.77333
2526.000	-5.36370	6.44764	-3.29992	5.75821
2527.000	-5.29118	6.42101	-3.23292	5.78809
2528.000	-5.29118	6.37405	-3.12846	5.81816
2529.000	-5.10687	6.33676	-3.08115	5.80466
2530.000	-5.07745	6.39772	-3.05158	5.84217
2531.000	-4.98721	6.38882	-2.97863	5.86222
2532.000	-4.99898	6.48264	-2.96089	5.86428
2533.000	-5.03233	6.40599	-2.95695	5.86823
2534.000	-5.00879	6.53536	-3.01215	5.83845
2535.000	-5.08726	6.50524	-3.01412	5.92887
2536.000	-5.02841	6.60558	-2.99244	5.87394
2537.000	-5.12256	6.60462	-3.05158	5.87363
2538.000	-5.17551	6.57084	-3.12255	5.89682
2539.000	-5.14806	6.53005	-3.13832	5.85742
2540.000	-5.25982	6.47610	-3.19744	5.88068
2541.000	-5.45384	6.54835	-3.27233	5.83504
2542.000	-5.34214	6.52608	-3.30780	5.78372
2543.000	-5.44796	6.47217	-3.31568	5.77385
2544.000	-5.56744	6.50215	-3.34721	5.73631
2545.000	-5.52827	6.45175	-3.39449	5.67311
2546.000	-5.57528	6.42974	-3.42207	5.63558
2547.000	-5.57136	6.41023	-3.42995	5.67880
2548.000	-5.63402	6.41932	-3.41813	5.59233
2549.000	-5.67709	6.40125	-3.46344	5.67270
2550.000	-5.70058	6.42250	-3.45556	5.71797
2551.000	-5.54394	6.38314	-3.41222	5.61991
2552.000	-5.69471	6.36782	-3.35509	5.63204
2553.000	-5.63011	6.40568	-3.43192	5.63159
2554.000	-5.54590	6.37334	-3.46147	5.65305
2555.000	-5.58899	6.38070	-3.47526	5.64117
2556.000	-5.59682	6.42950	-3.45359	5.69832
2557.000	-5.55765	6.39277	-3.46147	5.65502
2558.000	-5.61248	6.30418	-3.43389	5.69451
2559.000	-5.57919	6.55479	-3.43586	5.66107
2560.000	-5.61640	6.47816	-3.43980	5.68464
2561.000	-5.64185	6.44465	-3.42798	5.63161
2562.000	-5.50477	6.41290	-3.41616	5.76343
2563.000	-5.50673	6.42265	-3.43586	5.72202
2564.000	-5.61248	6.39023	-3.42404	5.78304
2565.000	-5.55569	6.45537	-3.42010	5.72605
2566.000	-5.55373	6.34784	-3.38464	5.75378
2567.000	-5.62423	6.41161	-3.38661	5.76360
2568.000	-5.46363	6.42311	-3.43192	5.77513
2569.000	-5.54198	6.43401	-3.40040	5.76745
2570.000	-5.47147	6.32328	-3.40434	5.76546
2571.000	-5.56744	6.42396	-3.41222	5.80670
2572.000	-5.51260	6.39717	-3.45162	5.69637
2573.000	-5.46559	6.40940	-3.45359	5.73961
2574.000	-5.56940	6.43567	-3.43192	5.76727
2575.000	-5.59094	6.33179	-3.44768	5.76520
2576.000	-5.54982	6.42806	-3.42404	5.79483
2577.000	-5.38134	6.43376	-3.46935	5.76704
2578.000	-5.42053	6.35902	-3.40040	5.79301
2579.000	-5.40485	6.50391	-3.41419	5.79096
2580.000	-5.48910	6.39938	-3.36888	5.79909
2581.000	-5.58703	6.48239	-3.40237	5.80676
2582.000	-5.55961	6.52765	-3.41025	5.80081
2583.000	-5.44012	6.43705	-3.43783	5.82030
2584.000	-5.48518	6.42680	-3.42798	5.76336
2585.000	-5.60857	6.37267	-3.44177	5.78490
2586.000	-5.44600	6.41157	-3.40631	5.73400
2587.000	-5.52044	6.42642	-3.39843	5.85985
2588.000	-5.46559	6.43483	-3.42995	5.77711
2589.000	-5.44404	6.41941	-3.42601	5.75747
2590.000	-5.46755	6.42894	-3.38464	5.86976
2591.000	-5.52240	6.49287	-3.42010	5.81058
2592.000	-5.46755	6.49346	-3.38661	5.81864
2593.000	-5.53611	6.46926	-3.39055	5.77538
2594.000	-5.52436	6.43420	-3.40040	5.78908
2595.000	-5.50085	6.50679	-3.42995	5.74565
2596.000	-5.52044	6.35210	-3.43783	5.82816
2597.000	-5.44992	6.45064	-3.42798	5.79481
2598.000	-5.57528	6.45906	-3.39843	5.85395
2599.000	-5.44208	6.42921	-3.46344	5.79656
2600.000	-5.45384	6.42909	-3.43783	5.87729
2601.000	-5.47343	6.39367	-3.41813	5.83811
2602.000	-5.46363	6.47004	-3.37676	5.87373
2603.000	-5.49302	6.39151	-3.40237	5.81855
2604.000	-5.50869	6.45001	-3.39055	5.80486
2605.000	-5.38526	6.51390	-3.37873	5.77545
2606.000	-5.46363	6.45636	-3.39646	5.81859
2607.000	-5.44992	6.49170	-3.41616	5.81060
2608.000	-5.42249	6.37074	-3.35312	5.79132
2609.000	-5.55178	6.39870	-3.39252	5.83040
2610.000	-5.39897	6.51766	-3.43980	5.80850
2611.000	-5.51064	6.44608	-3.40434	5.82640
2612.000	-5.54198	6.40859	-3.40040	5.83232
2613.000	-5.47343	6.43279	-3.44768	5.85758
2614.000	-5.49302	6.40520	-3.40237	5.76351
2615.000	-5.57332	6.46104	-3.40040	5.84608
2616.000	-5.49889	6.52831	-3.41025	5.85781
2617.000	-5.65360	6.38978	-3.39646	5.84610
2618.000	-5.42837	6.39806	-3.43389	5.86946
2619.000	-5.57136	6.53729	-3.43586	5.79869
2620.000	-5.50673	6.49891	-3.41616	5.84795
2621.000	-5.50281	6.40901	-3.41222	5.89317
2622.000	-5.54003	6.44380	-3.38070	5.94248
2623.000	-5.57136	6.50407	-3.38661	5.92673
2624.000	-5.55569	6.48860	-3.44177	5.90478
2625.000	-5.50085	6.44423	-3.44374	5.93227
2626.000	-5.54982	6.45543	-3.40631	5.87552
2627.000	-5.54982	6.49062	-3.41813	5.91082
2628.000	-5.50673	6.37181	-3.39843	5.94041
2629.000	-5.54003	6.54545	-3.40040	5.84804
2630.000	-5.39701	6.51377	-3.44571	5.86742
2631.000	-5.48322	6.43073	-3.38464	5.82062
2632.000	-5.44992	6.42717	-3.40040	5.84804
2633.000	-5.52436	6.53976	-3.39252	5.86381
2634.000	-5.61836	6.47814	-3.37479	5.87768
2635.000	-5.55178	6.39675	-3.37873	5.85210
2636.000	-5.44208	6.49765	-3.40631	5.86373
2637.000	-5.44012	6.39207	-3.42995	5.85572
2638.000	-5.51848	6.49487	-3.40237	5.90895
2639.000	-5.49106	6.48539	-3.40631	5.88731
2640.000	-5.62619	6.42527	-3.38858	5.87956
2641.000	-5.49302	6.33283	-3.43389	5.93823
2642.000	-5.56940	6.54122	-3.40434	5.90108
2643.000	-5.55961	6.34386	-3.42207	5.90293
2644.000	-5.62815	6.43307	-3.42010	5.94224
2645.000	-5.50477	6.52434	-3.44965	5.88312
2646.000	-5.49693	6.46773	-3.42207	5.86953
2647.000	-5.54198	6.41250	-3.46147	5.92823
2648.000	-5.52240	6.43031	-3.47723	5.81810
2649.000	-5.64773	6.51299	-3.42010	5.87937
2650.000	-5.53415	6.44778	-3.43389	5.87339
2651.000	-5.53415	6.40672	-3.43586	5.89695
2652.000	-5.56744	6.49629	-3.45359	5.91256
2653.000	-5.57528	6.50402	-3.43389	5.88321
2654.000	-5.59486	6.44125	-3.45556	5.86932
2655.000	-5.52044	6.38926	-3.46344	5.91250
2656.000	-5.58899	6.47455	-3.47723	5.81220
2657.000	-5.57332	6.44735	-3.41222	5.87548
2658.000	-5.58311	6.47266	-3.40040	5.88342
2659.000	-5.54590	6.47502	-3.47723	5.89277
2660.000	-5.59878	6.51940	-3.45556	5.89290
2661.000	-5.49106	6.41109	-3.44374	5.92245
2662.000	-5.58507	6.44918	-3.46344	5.89678
2663.000	-5.58115	6.49614	-3.44571	5.93815
2664.000	-5.61640	6.46839	-3.44177	5.88316
2665.000	-5.55178	6.46714	-3.49889	5.90049
2666.000	-5.60073	6.56042	-3.48904	5.93199
2667.000	-5.52240	6.43226	-3.45162	5.90275
2668.000	-5.57724	6.43949	-3.48511	5.83967
2669.000	-5.67709	6.51071	-3.50086	5.91423
2670.000	-5.40681	6.45110	-3.47723	5.84364
2671.000	-5.43816	6.51333	-3.45950	5.88502
2672.000	-5.70646	6.53969	-3.45556	5.81626
2673.000	-5.57136	6.52947	-3.47723	5.86330
2674.000	-5.50673	6.46763	-3.45753	5.87914
2675.000	-5.61248	6.53879	-3.44374	5.75933
2676.000	-5.50673	6.45003	-3.48511	5.82787
2677.000	-5.62619	6.40181	-3.46935	5.86924
2678.000	-5.63794	6.39777	-3.49101	5.86911
2679.000	-5.55961	6.53938	-3.51859	5.79229
2680.000	-5.62619	6.56209	-3.48708	5.86716
2681.000	-5.62032	6.50548	-3.47723	5.87509
2682.000	-5.43816	6.55047	-3.46935	5.90657
2683.000	-5.53807	6.57870	-3.42995	5.88913
2684.000	-5.59682	6.53115	-3.41616	5.86563
2685.000	-5.57919	6.48443	-3.43586	5.87731
2686.000	-5.59878	6.48617	-3.45950	5.69829
2687.000	-5.74560	6.50994	-3.58161	5.61496
2688.000	-5.86692	6.37763	-3.63872	5.44939
2689.000	-5.86692	6.10579	-3.70960	5.28365
2690.000	-5.96668	5.95990	-3.81393	4.85564
2691.000	-6.18953	5.62464	-3.94381	4.59075
2692.000	-6.35947	5.30542	-4.09923	4.00976
2693.000	-6.53126	4.85652	-4.09726	3.71347
2694.000	-6.60540	4.54565	-4.19953	3.41059
2695.000	-6.89396	4.08144	-4.33715	2.96898
2696.000	-6.85108	3.78889	-4.23492	2.56757
2697.000	-6.89980	3.46589	-4.32732	2.23259
2698.000	-7.10430	3.08264	-4.30373	1.93746
2699.000	-7.25610	2.71942	-4.39415	1.57457
2700.000	-7.17243	2.49734	-4.30766	1.34478
2701.000	-7.19578	2.16616	-4.28997	1.09694
2702.000	-7.16464	1.87848	-4.39022	0.96394
2703.000	-7.20162	1.62593	-4.48848	0.78337
2704.000	-7.33974	1.39670	-4.57689	0.65439
2705.000	-7.32807	1.16994	-4.73008	0.50953
2706.000	-7.34752	1.22314	-4.76346	0.38263
2707.000	-7.65844	1.02714	-4.87928	0.26363
2708.000	-7.62154	0.93458	-5.09118	0.29922
2709.000	-7.76134	0.88697	-5.23237	0.22585
2710.000	-7.83314	0.74101	-5.40877	0.16241
2711.000	-7.92043	0.67584	-5.56157	0.07722
2712.000	-8.14916	0.58291	-5.68101	0.03761
2713.000	-8.14723	0.56125	-5.91583	-0.05145
2714.000	-8.38730	0.58846	-6.14263	-0.12066
2715.000	-8.54204	0.52724	-6.33018	-0.11666
2716.000	-8.61356	0.53894	-6.52345	-0.10476
2717.000	-8.81831	0.58189	-6.67172	-0.11658
2718.000	-8.94568	0.53060	-6.80236	-0.13630
2719.000	-9.05561	0.55205	-6.99720	-0.14217
2720.000	-9.20594	0.60483	-7.12182	-0.11450
2721.000	-9.24253	0.57532	-7.22302	-0.09474
2722.000	-9.25987	0.61848	-7.32418	-0.06709
2723.000	-9.41771	0.72417	-7.40974	0.00986
2724.000	-9.40809	0.75951	-7.44084	0.09074
2725.000	-9.27335	0.81281	-7.42335	0.13612
2726.000	-9.21171	0.86400	-7.37668	0.22097
2727.000	-9.13850	0.93683	-7.34363	0.18745
2728.000	-8.91288	0.86275	-7.25026	0.23682
2729.000	-8.94954	0.89803	-7.18605	0.27041
2730.000	-8.77197	0.90043	-7.08094	0.28429
2731.000	-8.72176	0.92807	-7.00110	0.29619
2732.000	-8.58070	1.07002	-6.90175	0.22910
2733.000	-8.53817	0.92263	-6.84913	0.25678
2734.000	-8.42020	1.07440	-6.78286	0.20940
2735.000	-8.33505	0.97034	-6.74192	0.19559
2736.000	-8.55557	0.92258	-6.80041	0.14223
2737.000	-8.42407	0.88945	-6.76922	0.12446
2738.000	-8.47436	0.95032	-6.79261	0.07309
2739.000	-8.48209	0.90899	-6.82965	0.10469
2740.000	-8.47823	0.82047	-6.85693	0.00198
2741.000	-8.59810	0.81628	-6.92513	0.04740
2742.000	-8.61936	0.75921	-6.92903	-0.02962
2743.000	-8.73335	0.75308	-6.98162	-0.03752
2744.000	-8.75073	0.58200	-6.99331	-0.05529
2745.000	-8.76038	0.61344	-7.05368	-0.11254
2746.000	-8.80286	0.56422	-7.10041	-0.08686
2747.000	-8.79128	0.47184	-7.06731	-0.14807
2748.000	-8.82796	0.47966	-7.05563	-0.17572
2749.000	-8.83375	0.45017	-7.07315	-0.17374
2750.000	-8.82989	0.45607	-7.06731	-0.19546
2751.000	-8.85306	0.40493	-7.06731	-0.21125
2752.000	-8.87236	0.45798	-7.08678	-0.18953
2753.000	-8.99390	0.33797	-7.06731	-0.18164
2754.000	-8.97847	0.37139	-7.10430	-0.18754
2755.000	-8.93989	0.39108	-7.05173	-0.16782
2756.000	-8.92253	0.44220	-7.10041	-0.22111
2757.000	-8.95340	0.37731	-7.12571	-0.24478
2758.000	-8.91481	0.40880	-7.16464	-0.18160
2759.000	-9.00548	0.47157	-7.15880	-0.21121
2760.000	-8.92060	0.43041	-7.18994	-0.26054
2761.000	-8.82024	0.43053	-7.23275	-0.23486
2762.000	-8.89166	0.40882	-7.16075	-0.18555
2763.000	-8.91867	0.43434	-7.15880	-0.23095
2764.000	-8.94568	0.49916	-7.16853	-0.26647
2765.000	-8.87622	0.46977	-7.12961	-0.15398
2766.000	-8.94182	0.38518	-7.14713	-0.19740
2767.000	-8.99005	0.33994	-7.10041	-0.16780
2768.000	-8.71596	0.50144	-7.14713	-0.15002
2769.000	-8.79707	0.42859	-7.11793	-0.13424
2770.000	-8.81059	0.43840	-7.14907	-0.10857
2771.000	-8.86078	0.49141	-7.17827	-0.11843
2772.000	-8.78935	0.49937	-7.18994	-0.12632
2773.000	-8.85692	0.44621	-7.13739	-0.15003
2774.000	-8.89937	0.50905	-7.10430	-0.18557
2775.000	-8.92639	0.41861	-7.14713	-0.15200
2776.000	-8.81059	0.45413	-7.15491	-0.14805
2777.000	-8.92639	0.32428	-7.14713	-0.15989
2778.000	-8.71210	0.47195	-7.14129	-0.12831
2779.000	-8.79514	0.54458	-7.15686	-0.15199
2780.000	-8.80480	0.44627	-7.14713	-0.14410
2781.000	-8.90709	0.42060	-7.16464	-0.13225
2782.000	-8.89552	0.45009	-7.15686	-0.10462
2783.000	-8.80673	0.53670	-7.14129	-0.15595
2784.000	-8.90130	0.41274	-7.14518	-0.17963
2785.000	-8.83954	0.51110	-7.15491	-0.16186
2786.000	-8.83568	0.45606	-7.17632	-0.13225
2787.000	-8.90709	0.48152	-7.13934	-0.14608
2788.000	-8.89744	0.42651	-7.12766	-0.15398
2789.000	-8.84147	0.49537	-7.11987	-0.13424
2790.000	-8.72755	0.46013	-7.12766	-0.09081
2791.000	-8.80673	0.50131	-7.14323	-0.14608
2792.000	-8.94568	0.51291	-7.14713	-0.15792
2793.000	-8.72562	0.46800	-7.16075	-0.15002
2794.000	-8.81252	0.45806	-7.18800	-0.13817
2795.000	-8.82989	0.38727	-7.19383	-0.14211
2796.000	-8.80093	0.53081	-7.16853	-0.19739
2797.000	-8.85885	0.44817	-7.15686	-0.12041
2798.000	-8.83375	0.42658	-7.14518	-0.13620
2799.000	-8.86657	0.48747	-7.16853	-0.12830
2800.000	-8.86464	0.48944	-7.16464	-0.09870
2801.000	-8.82217	0.50915	-7.10819	-0.10266
2802.000	-8.96497	0.42643	-7.14323	-0.05527
2803.000	-8.80673	0.53277	-7.13155	-0.10857
2804.000	-8.83761	0.45606	-7.13155	-0.08686
2805.000	-8.82024	0.47377	-7.09651	-0.08884
2806.000	-8.82989	0.51504	-7.08873	-0.09279
2807.000	-8.86078	0.51696	-7.10625	-0.10068
2808.000	-8.84727	0.50126	-7.07120	-0.08095
2809.000	-8.79900	0.46790	-7.08678	-0.09279
2810.000	-8.81059	0.45020	-7.11403	-0.07502
2811.000	-8.82989	0.47180	-7.13739	-0.10462
2812.000	-8.88008	0.47370	-7.11793	0.02369
2813.000	-8.79707	0.52688	-7.09067	-0.08884
2814.000	-8.78356	0.55836	-7.12571	-0.05725
2815.000	-8.90709	0.49528	-7.15686	-0.06909
2816.000	-8.87815	0.53463	-7.13739	-0.07304
2817.000	-8.84340	0.47571	-7.11209	-0.06120
2818.000	-8.84147	0.44426	-7.06731	-0.04738
2819.000	-8.81252	0.51310	-7.10625	-0.02369
2820.000	-8.82024	0.50916	-7.12961	-0.10462
2821.000	-8.96883	0.46769	-7.09457	-0.05133
2822.000	-8.83182	0.53863	-7.10041	-0.12042
2823.000	-8.77583	0.50135	-7.11793	-0.04146
2824.000	-8.78935	0.45809	-7.10430	-0.10858
2825.000	-8.86850	0.46192	-7.08873	-0.07305
2826.000	-8.76618	0.43059	-7.11014	-0.08884
2827.000	-8.78935	0.48757	-7.10625	-0.04935
2828.000	-8.80480	0.53670	-7.11598	-0.05922
2829.000	-8.89166	0.44420	-7.11987	-0.10068
2830.000	-8.87815	0.42653	-7.09262	-0.05923
2831.000	-8.77583	0.45614	-7.13545	-0.04343
2832.000	-8.85306	0.52680	-7.10625	-0.03948
2833.000	-8.89166	0.50906	-7.10235	-0.02172
2834.000	-8.70630	0.46605	-7.13934	-0.02961
2835.000	-8.80866	0.46199	-7.15491	0.02961
2836.000	-8.76811	0.52103	-7.11598	-0.01777
2837.000	-8.89937	0.45991	-7.11793	-0.00197
2838.000	-8.77776	0.46990	-7.13739	-0.05922
2839.000	-8.89744	0.39506	-7.12377	0.03751
2840.000	-8.78935	0.44236	-7.15296	-0.03553
2841.000	-8.87622	0.53070	-7.17632	-0.02171
2842.000	-8.86464	0.46979	-7.19383	-0.04737
2843.000	-8.86078	0.55038	-7.17827	-0.05922
2844.000	-8.98812	0.42640	-7.19967	-0.07895
2845.000	-8.84147	0.42854	-7.19383	-0.01579
2846.000	-9.03247	0.57762	-7.20356	-0.03553
2847.000	-8.90516	0.47170	-7.18410	-0.02369
2848.000	-8.88780	0.52675	-7.17827	-0.03750
2849.000	-8.83954	0.44033	-7.21524	-0.03355
2850.000	-8.90130	0.56014	-7.21524	0.00592
2851.000	-8.86657	0.41278	-7.19578	-0.08882
2852.000	-8.80866	0.50131	-7.22497	-0.04737
2853.000	-8.92832	0.47756	-7.15880	-0.04145
2854.000	-8.79900	0.48560	-7.18216	0.00592
2855.000	-8.86271	0.61524	-7.21329	-0.06908
2856.000	-8.86657	0.39902	-7.21329	-0.04737
2857.000	-8.94568	0.42841	-7.18216	-0.06316
2858.000	-8.88587	0.38917	-7.20746	-0.01184
2859.000	-8.78163	0.46006	-7.16659	-0.04935
2860.000	-8.94568	0.51881	-7.17632	-0.05724
2861.000	-8.91867	0.48347	-7.21524	-0.07500
2862.000	-8.89744	0.47367	-7.18994	-0.06711
2863.000	-9.11730	0.49499	-7.22691	-0.00592
2864.000	-8.98619	0.41461	-7.20162	-0.03158
2865.000	-8.97462	0.44999	-7.20162	-0.05132
2866.000	-8.77969	0.48759	-7.17243	-0.03553
2867.000	-8.93411	0.48149	-7.22497	-0.01579
2868.000	-9.05561	0.46561	-7.23859	-0.04342
2869.000	-8.91288	0.45990	-7.21719	-0.03355
2870.000	-8.92060	0.49919	-7.20551	-0.00197
2871.000	-8.95726	0.50504	-7.20551	0.01776
2872.000	-8.89937	0.45402	-7.20356	-0.00987
2873.000	-8.85306	0.49535	-7.11987	-0.00790
2874.000	-8.99583	0.42835	-7.13155	-0.02764
2875.000	-8.88008	0.41866	-7.19967	-0.03355
2876.000	-8.98426	0.39889	-7.14907	-0.02566
2877.000	-8.94761	0.47557	-7.18410	-0.05527
2878.000	-8.88587	0.47172	-7.12961	-0.08291
2879.000	-8.93989	0.40091	-7.14129	-0.03948
2880.000	-8.91288	0.40094	-7.16464	-0.04343
2881.000	-8.99776	0.42835	-7.16270	-0.01974
2882.000	-8.96690	0.43232	-7.15102	-0.01974
2883.000	-9.02283	0.42832	-7.13350	-0.01579
2884.000	-8.97269	0.39105	-7.16464	0.04737
2885.000	-8.88394	0.41080	-7.13934	0.02566
2886.000	-9.08839	0.38699	-7.13934	-0.00790
2887.000	-8.85306	0.52287	-7.09457	0.04738
2888.000	-8.88201	0.44814	-7.11403	0.01777
2889.000	-8.82989	0.46000	-7.09067	0.03554
2890.000	-8.90902	0.45597	-7.15880	0.07501
2891.000	-8.95726	0.41268	-7.14129	0.04343
2892.000	-9.02862	0.38902	-7.14518	0.06712
2893.000	-8.95919	0.42643	-7.09457	-0.00790
2894.000	-8.96304	0.45590	-7.13155	-0.06317
2895.000	-8.93796	0.38912	-7.10625	-0.04343
2896.000	-8.99390	0.39299	-7.14518	-0.02369
2897.000	-9.01705	0.46959	-7.11793	0.04146
2898.000	-8.91674	0.43827	-7.11987	0.07107
2899.000	-8.99390	0.43622	-7.10041	0.07304
2900.000	-8.92639	0.47364	-7.10235	0.06317
2901.000	-8.95726	0.40678	-7.12571	0.05725
2902.000	-8.92060	0.46185	-7.10430	0.06712
2903.000	-8.93025	0.47560	-7.09651	0.09081
2904.000	-8.96111	0.48538	-7.11403	0.04540
2905.000	-8.91481	0.48348	-7.13155	0.02171
2906.000	-8.89744	0.45795	-7.09846	0.07107
2907.000	-8.98040	0.42837	-7.15102	0.05330
2908.000	-8.99969	0.44603	-7.08289	0.02961
2909.000	-8.99969	0.38512	-7.09457	0.04738
2910.000	-8.84147	0.45409	-7.11014	0.05133
2911.000	-8.95726	0.52469	-7.07120	0.07502
2912.000	-8.99969	0.45782	-7.11209	0.05330
2913.000	-8.97462	0.37533	-7.11598	0.11450
2914.000	-8.98040	0.42444	-7.08678	0.06910
2915.000	-8.98040	0.46374	-7.11598	0.02566
2916.000	-9.03055	0.45778	-7.09262	0.06910
2917.000	-9.04983	0.39096	-7.09457	0.03751
2918.000	-8.96497	0.40481	-7.07510	0.08687
2919.000	-9.10959	0.38304	-7.13155	0.06712
2920.000	-9.03440	0.47742	-7.11793	0.07502
2921.000	-9.05561	0.42239	-7.08678	0.06910
2922.000	-9.05368	0.48722	-7.07510	0.02567
2923.000	-8.99005	0.45194	-7.08289	0.09279
2924.000	-9.18667	0.39081	-7.12182	0.09870
2925.000	-9.11730	0.35946	-7.12766	0.04935
2926.000	-8.90130	0.40685	-7.04200	0.04541
2927.000	-8.94182	0.40484	-7.13155	0.06317
2928.000	-9.07104	0.44791	-7.11793	0.08883
2929.000	-9.02090	0.41064	-7.09067	0.06515
2930.000	-9.09802	0.49305	-7.13155	0.06909
2931.000	-9.09224	0.43020	-7.11598	0.11845
2932.000	-8.98233	0.43623	-7.15102	0.07698
2933.000	-9.03633	0.49510	-7.16075	0.04343
2934.000	-8.96111	0.49324	-7.13350	0.08488
2935.000	-8.96304	0.46966	-7.16270	0.08685
2936.000	-9.05561	0.44007	-7.18994	0.02369
2937.000	-9.01898	0.47352	-7.14713	0.02764
2938.000	-9.12308	0.50677	-7.16270	0.03750
2939.000	-9.12693	0.41052	-7.17827	0.04935
2940.000	-9.09610	0.45574	-7.15102	0.05922
2941.000	-8.97076	0.45393	-7.13739	0.02171
2942.000	-9.03633	0.44009	-7.15491	0.05132
2943.000	-9.11344	0.47536	-7.12766	0.00592
2944.000	-9.06332	0.42435	-7.14713	0.02171
2945.000	-9.01319	0.37725	-7.18216	0.07106
2946.000	-9.11923	0.48713	-7.14713	0.04540
2947.000	-9.03826	0.42830	-7.15491	0.03158
2948.000	-9.08260	0.41843	-7.19383	0.04934
2949.000	-9.11537	0.39089	-7.16853	0.02566
2950.000	-8.92253	0.44023	-7.17243	0.06119
2951.000	-9.05368	0.35756	-7.15296	0.05922
2952.000	-9.05176	0.37132	-7.15686	0.07501
2953.000	-9.00355	0.51676	-7.15880	0.07304
2954.000	-9.01705	0.38707	-7.17437	0.05132
2955.000	-8.89166	0.52478	-7.18605	0.00790
2956.000	-9.02476	0.44207	-7.15296	0.05922
2957.000	-9.05561	0.55401	-7.22497	0.00789
2958.000	-9.01898	0.41261	-7.17827	-0.02566
2959.000	-8.89937	0.42847	-7.17243	0.02171
2960.000	-8.99198	0.46569	-7.17243	0.02369
2961.000	-8.98040	0.51483	-7.17243	0.03356
2962.000	-9.03440	0.50493	-7.20746	0.04540
2963.000	-8.98040	0.46178	-7.14323	0.01382
2964.000	-8.99198	0.54625	-7.20940	0.01974
2965.000	-9.06332	0.52453	-7.19578	0.01579
2966.000	-8.92446	0.46381	-7.18994	0.06908
2967.000	-9.00355	0.51873	-7.15686	0.01777
2968.000	-8.83761	0.49537	-7.19773	0.02763
2969.000	-8.86271	0.51106	-7.15686	-0.00987
2970.000	-8.93796	0.44611	-7.21719	0.08289
2971.000	-8.91674	0.52081	-7.19189	0.06908
2972.000	-8.95919	0.59346	-7.21719	0.06710
2973.000	-8.90323	0.54245	-7.23470	0.06513
2974.000	-8.96111	0.49324	-7.19773	0.01184
2975.000	-8.91867	0.59352	-7.23859	0.04342
2976.000	-8.90709	0.45597	-7.19773	0.05527
2977.000	-8.93218	0.50507	-7.19578	0.09277
2978.000	-9.02476	0.41260	-7.20940	0.03750
2979.000	-8.81252	0.49344	-7.20356	0.07500
2980.000	-9.03440	0.48921	-7.20746	0.06908
2981.000	-8.94761	0.55025	-7.15296	0.06909
2982.000	-9.07296	0.49112	-7.24637	0.07302
2983.000	-8.92060	0.52671	-7.18410	0.06514
2984.000	-8.95919	0.50896	-7.21719	0.14803
2985.000	-9.08453	0.44004	-7.21719	0.11250
2986.000	-9.06332	0.37327	-7.19578	0.09277
2987.000	-9.02669	0.49119	-7.18021	0.10659
2988.000	-9.05754	0.37720	-7.18800	0.06316
2989.000	-9.13272	0.50283	-7.20551	0.09277
2990.000	-8.89552	0.55033	-7.18605	0.05132
2991.000	-8.90902	0.46776	-7.20551	0.08882
2992.000	-8.97847	0.46571	-7.20940	0.06908
2993.000	-9.06911	0.45184	-7.18800	0.04342
2994.000	-8.93603	0.53258	-7.20356	0.09474
2995.000	-8.99390	0.46569	-7.16659	0.11646
2996.000	-9.06332	0.39881	-7.22886	0.13618
2997.000	-8.95147	0.42448	-7.21135	0.14803
2998.000	-8.94375	0.44414	-7.26972	0.12235
2999.000	-9.02476	0.52655	-7.18410	0.10856
3000.000	-8.92253	0.51098	-7.19967	0.09474
3001.000	-8.96690	0.54629	-7.20940	0.13224
3002.000	-9.07875	0.52058	-7.22691	0.15197
3003.000	-8.98426	0.53251	-7.22497	0.16381
3004.000	-8.99583	0.53249	-7.19383	0.11645
3005.000	-9.02669	0.55995	-7.19773	0.15987
3006.000	-9.01512	0.53639	-7.16853	0.13620
3007.000	-8.93603	0.43039	-7.20162	0.09869
3008.000	-8.99005	0.44015	-7.22108	0.14408
3009.000	-9.03633	0.48725	-7.21524	0.09474
3010.000	-8.83954	0.38333	-7.16659	0.14212
3011.000	-9.00548	0.50890	-7.16464	0.15002
3012.000	-9.00355	0.45192	-7.18800	0.18948
3013.000	-9.06525	0.46167	-7.18605	0.14606
3014.000	-8.95726	0.45788	-7.16659	0.15791
3015.000	-8.95726	0.47360	-7.19967	0.17369
3016.000	-9.13850	0.41836	-7.18021	0.17172
3017.000	-9.00355	0.36744	-7.15296	0.18358
3018.000	-9.11537	0.41053	-7.19189	0.20725
3019.000	-9.07682	0.35754	-7.17437	0.15001
3020.000	-9.12501	0.44784	-7.17632	0.20133
3021.000	-8.98233	0.52072	-7.18021	0.17172
3022.000	-9.06718	0.34576	-7.16464	0.17765
3023.000	-8.91095	0.52082	-7.18994	0.16382
3024.000	-8.98233	0.48928	-7.19189	0.16382
3025.000	-9.04983	0.58742	-7.17437	0.19541
3026.000	-8.99583	0.37334	-7.20746	0.20132
3027.000	-8.87236	0.48157	-7.20356	0.18356
3028.000	-9.04404	0.43616	-7.13934	0.12239
3029.000	-8.94568	0.46379	-7.13350	0.13621
3030.000	-9.02283	0.55013	-7.18605	0.13225
3031.000	-8.94761	0.59151	-7.18410	0.19343
3032.000	-9.16548	0.47136	-7.17632	0.17962
3033.000	-8.91867	0.38521	-7.12182	0.14213
3034.000	-8.99583	0.51677	-7.16659	0.13028
3035.000	-8.97269	0.44410	-7.15491	0.11251
3036.000	-8.99969	0.44603	-7.14518	0.15792
3037.000	-8.93796	0.52865	-7.14129	0.12239
3038.000	-8.95533	0.52862	-7.10041	0.06317
3039.000	-8.90323	0.53852	-7.11793	0.10463
3040.000	-9.09224	0.51467	-7.16270	0.09870
3041.000	-8.83954	0.53665	-7.11598	0.10068
3042.000	-8.98619	0.49714	-7.17827	0.13817
3043.000	-9.03826	0.58547	-7.14323	0.09673
3044.000	-9.03440	0.51082	-7.10819	0.10463
3045.000	-9.05947	0.48525	-7.16075	0.12830
3046.000	-8.95340	0.50504	-7.08483	0.13820
3047.000	-9.03633	0.43224	-7.12961	0.15990
3048.000	-9.00162	0.51873	-7.11209	0.08489
3049.000	-8.97269	0.51288	-7.12377	0.12042
3050.000	-8.89744	0.54443	-7.07899	0.11648
3051.000	-8.98812	0.53643	-7.04784	0.18559
3052.000	-8.99390	0.48730	-7.07899	0.16386
3053.000	-9.03247	0.54226	-7.09846	0.15991
3054.000	-9.05754	0.47543	-7.12766	0.16385
3055.000	-9.00933	0.51282	-7.10235	0.15991
3056.000	-8.90709	0.48742	-7.11403	0.14806
3057.000	-9.01898	0.44601	-7.11209	0.14411
3058.000	-9.10381	0.43608	-7.11598	0.12239
3059.000	-8.89937	0.57587	-7.09262	0.17570
3060.000	-8.98812	0.52464	-7.11598	0.09871
3061.000	-8.90902	0.49331	-7.08483	0.16584
3062.000	-8.86657	0.58771	-7.08289	0.12043
3063.000	-8.86657	0.47961	-7.07120	0.17374
3064.000	-8.98426	0.57180	-7.05952	0.20336
3065.000	-8.91674	0.53654	-7.07899	0.15597
3066.000	-8.89552	0.54639	-7.07510	0.16387
3067.000	-8.87622	0.53856	-7.09846	0.21124
3068.000	-8.91867	0.55422	-7.04784	0.20336
3069.000	-9.04790	0.46562	-7.07704	0.23494
3070.000	-8.95533	0.50504	-7.04200	0.23693
3071.000	-8.96497	0.52664	-7.08289	0.27245
3072.000	-8.93218	0.41467	-7.13545	0.31782
3073.000	-9.02090	0.56389	-7.06926	0.22704
3074.000	-9.15584	0.48315	-7.07704	0.23494
3075.000	-9.05754	0.52454	-7.13739	0.18951
3076.000	-9.09995	0.44591	-7.06536	0.21125
3077.000	-9.07489	0.43808	-7.11209	0.16385
3078.000	-8.94761	0.51095	-7.10819	0.15398
3079.000	-9.06525	0.42827	-7.09651	0.18755
3080.000	-9.11152	0.41643	-7.08289	0.19545
3081.000	-9.08067	0.47343	-7.10235	0.22505
3082.000	-9.04212	0.40080	-7.09262	0.20334
3083.000	-9.12115	0.44785	-7.07120	0.19151
3084.000	-9.05561	0.48525	-7.05173	0.21916
3085.000	-9.01512	0.44405	-7.06147	0.20928
3086.000	-9.01898	0.46762	-7.12182	0.24281
3087.000	-9.19245	0.44187	-7.05563	0.29813
3088.000	-9.10381	0.48323	-7.10430	0.26454
3089.000	-8.99969	0.41263	-7.12182	0.26453
3090.000	-9.14428	0.41050	-7.06926	0.20138
3091.000	-9.22712	0.38291	-7.07315	0.25468
3092.000	-9.05561	0.54419	-7.12961	0.21320
3093.000	-9.02862	0.43225	-7.11987	0.24676
3094.000	-9.24638	0.43591	-7.08289	0.23099
3095.000	-9.06140	0.48918	-7.10235	0.21716
3096.000	-9.09610	0.55591	-7.09457	0.21914
3097.000	-9.06718	0.50095	-7.09846	0.21913
3098.000	-8.91867	0.45203	-7.06147	0.21520
3099.000	-9.03633	0.44992	-7.09651	0.27836
3100.000	-9.01705	0.55800	-7.09067	0.22111
3101.000	-9.00741	0.44013	-7.06731	0.24679
3102.000	-9.12308	0.48123	-7.07315	0.25271
3103.000	-9.00162	0.50105	-7.11598	0.24479
3104.000	-9.03633	0.48332	-7.09651	0.21716
3105.000	-8.96304	0.50503	-7.12182	0.24281
3106.000	-8.87043	0.50123	-7.12182	0.16780
3107.000	-8.87622	0.50711	-7.13155	0.17174
3108.000	-8.87429	0.48746	-7.11209	0.17965
3109.000	-8.94761	0.45199	-7.12961	0.17766
3110.000	-8.98233	0.57377	-7.14907	0.20924
3111.000	-9.05176	0.57170	-7.13739	0.21319
3112.000	-9.04404	0.47741	-7.15102	0.19147
3113.000	-9.04597	0.47152	-7.13350	0.19938
3114.000	-9.00355	0.57963	-7.14518	0.24083
3115.000	-9.01705	0.52460	-7.11403	0.21123
3116.000	-9.01898	0.45780	-7.14129	0.20530
3117.000	-8.94568	0.48147	-7.10625	0.19149
3118.000	-8.99969	0.43031	-7.09067	0.20927
3119.000	-9.03055	0.50493	-7.08094	0.26850
3120.000	-9.07682	0.43219	-7.09651	0.24085
3121.000	-8.87236	0.47764	-7.06342	0.22705
3122.000	-8.96304	0.44608	-7.07315	0.22704
3123.000	-9.25601	0.40644	-7.05368	0.28233
3124.000	-9.01512	0.51871	-7.06342	0.27048
3125.000	-9.05368	0.54026	-7.12766	0.29216
3126.000	-8.88780	0.58571	-7.08873	0.24480
3127.000	-9.07104	0.53238	-7.10235	0.19149
3128.000	-9.01319	0.48531	-7.06926	0.26850
3129.000	-9.00741	0.44406	-7.13545	0.24280
3130.000	-9.09224	0.46556	-7.07510	0.27245
3131.000	-8.95726	0.42840	-7.11598	0.27835
3132.000	-9.00548	0.55998	-7.09651	0.22901
3133.000	-9.09802	0.42823	-7.09262	0.29810
3134.000	-9.06332	0.46167	-7.09651	0.30008
3135.000	-9.08839	0.44003	-7.09067	0.23296
3136.000	-9.17704	0.53615	-7.07899	0.27640
3137.000	-9.04212	0.42634	-7.08094	0.27245
3138.000	-9.05368	0.50883	-7.13155	0.29018
3139.000	-9.09610	0.37127	-7.08094	0.24678
3140.000	-9.00741	0.45388	-7.07510	0.28232
3141.000	-8.98812	0.53643	-7.10819	0.28625
3142.000	-9.08839	0.48325	-7.10430	0.27441
3143.000	-8.99390	0.41460	-7.08483	0.26850
3144.000	-9.04404	0.45187	-7.07510	0.23099
3145.000	-9.07104	0.55006	-7.07704	0.25073
3146.000	-9.01898	0.55210	-7.10819	0.21716
3147.000	-9.00548	0.45389	-7.07120	0.23099
3148.000	-9.13657	0.44194	-7.16075	0.22503
3149.000	-9.01705	0.47745	-7.10625	0.21716
3150.000	-9.00933	0.48925	-7.11014	0.18754
3151.000	-9.00355	0.46568	-7.15880	0.24871
3152.000	-9.05176	0.49901	-7.07704	0.19545
3153.000	-9.05561	0.58544	-7.13155	0.18951
3154.000	-8.93603	0.53258	-7.07315	0.16979
3155.000	-9.06525	0.49703	-7.10625	0.20531
3156.000	-9.00355	0.61303	-7.12182	0.24084
3157.000	-9.11730	0.46749	-7.08094	0.16189
3158.000	-8.99198	0.52071	-7.12377	0.15200
3159.000	-8.88394	0.42849	-7.07315	0.19151
3160.000	-9.03055	0.51672	-7.08483	0.14807
3161.000	-8.78742	0.69203	-7.12377	0.16385
3162.000	-8.91095	0.64463	-7.07120	0.12438
3163.000	-8.96111	0.54040	-7.06731	0.19941
3164.000	-8.90516	0.52869	-7.02252	0.21720
3165.000	-8.89744	0.58373	-6.93487	0.14022
3166.000	-8.82024	0.62513	-6.79651	0.21730
3167.000	-8.71017	0.61549	-6.70487	0.19363
3168.000	-8.52850	0.53709	-6.56248	0.16009
3169.000	-8.42793	0.48214	-6.35557	0.16015
3170.000	-8.27892	0.32286	-6.02730	0.18399
3171.000	-7.90104	0.36455	-5.72212	0.13461
3172.000	-7.72640	0.33907	-5.33430	0.12083
3173.000	-7.19967	0.30198	-5.01664	0.05945
3174.000	-6.78871	0.18767	-4.58474	0.00793
3175.000	-6.33995	0.23134	-4.13070	0.08532
3176.000	-5.99797	0.13652	-3.67022	-0.03177
3177.000	-5.69080	0.08710	-3.33144	-0.13505
3178.000	-5.37154	0.14855	-3.03975	-0.11324
3179.000	-5.13041	0.03170	-2.65519	-0.21661
3180.000	-4.91460	0.01586	-2.30789	-0.28624
3181.000	-4.63778	-0.02974	-2.04138	-0.35985
3182.000	-4.54938	-0.11701	-1.84786	-0.41159
3183.000	-4.31749	-0.20235	-1.60886	-0.43352
3184.000	-4.12480	-0.18652	-1.42513	-0.56083
3185.000	-3.90642	-0.20840	-1.19987	-0.59668
3186.000	-3.91626	-0.29176	-1.08524	-0.63648
3187.000	-3.68794	-0.40500	-1.08327	-0.56090
3188.000	-3.60327	-0.52019	-1.01607	-0.51716
3189.000	-3.42207	-0.42100	-0.94492	-0.61264
3190.000	-3.26248	-0.41908	-0.92318	-0.66237
3191.000	-3.27430	-0.50448	-0.93702	-0.62457
3192.000	-3.28612	-0.46674	-0.87970	-0.49729
3193.000	-3.18759	-0.47473	-0.89946	-0.50325
3194.000	-3.14620	-0.48269	-0.92516	-0.43562
3195.000	-2.84849	-0.43117	-0.88760	-0.38192
3196.000	-2.74396	-0.38948	-0.74924	-0.39188
3197.000	-2.76171	-0.44511	-0.63459	-0.35012
3198.000	-2.72423	-0.52063	-0.57331	-0.32625
3199.000	-2.69070	-0.41731	-0.46459	-0.36206
3200.000	-2.56444	-0.31401	-0.34597	-0.37201
3201.000	-2.57035	-0.41139	-0.28073	-0.37400
3202.000	-2.40065	-0.33592	-0.14432	-0.37799
3203.000	-2.43025	-0.36572	-0.08106	-0.37998
3204.000	-2.35723	-0.34189	0.01384	-0.40584
3205.000	-2.32960	-0.29618	0.05338	-0.37600
3206.000	-2.33947	-0.18685	0.09292	-0.32626
3207.000	-2.24078	-0.28228	0.17991	-0.35013
3208.000	-2.22104	-0.24452	0.16211	-0.34218
3209.000	-2.23683	-0.27036	0.17991	-0.39390
3210.000	-1.92290	-0.19088	0.13246	-0.37003
3211.000	-2.12430	-0.18688	0.12455	-0.33223
3212.000	-2.04335	-0.18689	0.13048	-0.37799
3213.000	-2.17366	-0.24651	0.11071	-0.37799
3214.000	-2.14010	-0.27236	0.09885	-0.39788
3215.000	-2.16971	-0.23657	0.06326	-0.38594
3216.000	-2.10456	-0.18887	0.08897	-0.37003
3217.000	-2.13023	-0.15507	0.03756	-0.32030
3218.000	-2.11838	-0.22266	0.01977	-0.34417
3219.000	-2.06902	-0.14315	0.04349	-0.32229
3220.000	-2.14405	-0.18091	0.00989	-0.33820
3221.000	-2.11048	-0.21272	0.01186	-0.25067
3222.000	-2.17958	-0.30217	0.04152	-0.30637
3223.000	-2.02361	-0.16701	0.08106	-0.28648
3224.000	-2.05520	-0.26243	0.04943	-0.30040
3225.000	-1.99597	-0.17099	0.09687	-0.36804
3226.000	-1.98609	-0.25449	0.13048	-0.33223
3227.000	-1.94462	-0.16702	0.11467	-0.31035
3228.000	-1.98214	-0.18491	0.15025	-0.35809
3229.000	-1.93080	-0.19883	0.16211	-0.30637
3230.000	-1.90118	-0.12924	0.16804	-0.29841
3231.000	-2.01769	-0.18291	0.13641	-0.30637
3232.000	-2.00584	-0.15508	0.18979	-0.29642
3233.000	-1.93672	-0.19286	0.18188	-0.32029
3234.000	-1.89130	-0.22071	0.16607	-0.29244
3235.000	-1.97029	-0.15111	0.16409	-0.28449
3236.000	-1.91698	-0.12924	0.23131	-0.27056
3237.000	-1.87551	-0.12328	0.13641	-0.31433
3238.000	-1.82811	-0.12925	0.17398	-0.29244
3239.000	-1.91105	-0.19883	0.22538	-0.30438
3240.000	-1.82416	-0.17299	0.17793	-0.26459
3241.000	-1.89130	-0.17100	0.19572	-0.26260
3242.000	-1.89525	-0.14913	0.18188	-0.32228
3243.000	-1.86958	-0.13919	0.20956	-0.26658
3244.000	-1.83798	-0.00398	0.21549	-0.29045
3245.000	-1.88933	-0.08152	0.20165	-0.29443
3246.000	-1.94660	-0.07555	0.23724	-0.29642
3247.000	-1.75700	0.01392	0.22735	-0.27653
3248.000	-1.81626	-0.04971	0.27085	-0.23276
3249.000	-1.84588	-0.07158	0.25701	-0.26061
3250.000	-1.95252	-0.12129	0.23526	-0.27454
3251.000	-1.84391	-0.10539	0.30643	-0.36406
3252.000	-1.83206	-0.08153	0.25701	-0.33422
3253.000	-1.85378	-0.11334	0.24317	-0.33422
3254.000	-1.91500	-0.07357	0.29852	-0.37201
3255.000	-1.75305	-0.07159	0.24515	-0.27454
3256.000	-1.87748	-0.07357	0.28271	-0.30438
3257.000	-1.79651	-0.08948	0.26689	-0.35411
3258.000	-1.93278	-0.15906	0.25899	-0.26658
3259.000	-1.80046	-0.04772	0.28666	-0.27653
3260.000	-1.68787	-0.00597	0.23131	-0.30637
3261.000	-1.84391	-0.02187	0.24712	-0.31035
3262.000	-1.72738	0.04176	0.26096	-0.30040
3263.000	-1.98214	0.00994	0.29062	-0.25066
3264.000	-1.82021	-0.06363	0.27480	-0.27653
3265.000	-1.83601	-0.02983	0.30248	-0.29244
3266.000	-1.80638	-0.08351	0.27876	-0.36804
3267.000	-1.79848	-0.00795	0.27678	-0.30836
3268.000	-1.82416	-0.07954	0.28469	-0.29443
3269.000	-1.87748	-0.03380	0.29062	-0.21684
3270.000	-1.80046	-0.02386	0.28666	-0.28249
3271.000	-1.76293	-0.05965	0.32422	-0.24271
3272.000	-1.81033	-0.00795	0.30446	-0.25862
3273.000	-1.83008	-0.06562	0.28864	-0.21684
3274.000	-1.75305	-0.00994	0.32620	-0.26658
3275.000	-1.79058	0.03977	0.34202	-0.30239
3276.000	-1.82613	-0.03181	0.29062	-0.22480
3277.000	-1.69380	-0.05170	0.31236	-0.25862
3278.000	-1.76293	0.04772	0.32225	-0.20690
3279.000	-1.78071	-0.03778	0.26689	-0.18501
3280.000	-1.78071	0.05965	0.30841	-0.26459
3281.000	-1.80441	-0.09346	0.32422	-0.26061
3282.000	-1.77676	-0.10539	0.31434	-0.21485
3283.000	-1.91105	0.02982	0.30841	-0.22281
3284.000	-1.83601	0.05170	0.32027	-0.19297
3285.000	-1.81231	0.10936	0.33411	-0.18501
3286.000	-1.76688	0.03579	0.32422	-0.23276
3287.000	-1.80836	0.06960	0.33016	-0.19297
3288.000	-1.87748	0.04971	0.33411	-0.22480
3289.000	-1.82218	0.02784	0.31434	-0.18700
3290.000	-1.77281	0.00199	0.32027	-0.20093
3291.000	-1.82811	0.12328	0.33609	-0.16114
3292.000	-1.79058	0.05965	0.33609	-0.19297
3293.000	-1.77873	0.16305	0.30643	-0.27056
3294.000	-1.75898	0.08551	0.29852	-0.22480
3295.000	-1.78663	0.01392	0.34597	-0.27454
3296.000	-1.81626	0.16703	0.37958	-0.26061
3297.000	-1.77873	0.05965	0.33806	-0.27255
3298.000	-1.70367	0.05966	0.35783	-0.27652
3299.000	-1.76293	0.04176	0.34795	-0.26260
3300.000	-1.76886	-0.00199	0.34004	-0.25663
3301.000	-1.79651	0.04176	0.26096	-0.27852
3302.000	-1.69182	0.00795	0.30643	-0.26857
3303.000	-1.72540	0.05369	0.34795	-0.29642
3304.000	-1.84193	0.03181	0.31236	-0.27056
3305.000	-1.73133	0.11136	0.32620	-0.26857
3306.000	-1.76886	0.01193	0.33016	-0.28846
3307.000	-1.78466	0.08948	0.31434	-0.29642
3308.000	-1.75305	0.13323	0.34202	-0.34814
3309.000	-1.67009	0.08551	0.32422	-0.26260
3310.000	-1.72343	0.10340	0.34795	-0.26459
3311.000	-1.66022	0.11335	0.30841	-0.24669
3312.000	-1.76293	0.06363	0.30050	-0.27056
3313.000	-1.69577	0.06761	0.27480	-0.28448
3314.000	-1.74318	0.06562	0.34993	-0.25265
3315.000	-1.77281	0.00000	0.29852	-0.27056
3316.000	-1.71158	0.09346	0.32620	-0.32029
3317.000	-1.72145	0.19686	0.25899	-0.27056
3318.000	-1.75700	0.02784	0.28666	-0.22878
3319.000	-1.72738	0.16306	0.24515	-0.23873
3320.000	-1.67207	0.21079	0.25701	-0.27255
3321.000	-1.72935	0.06761	0.26492	-0.21088
3322.000	-1.75305	0.14317	0.21945	-0.17905
3323.000	-1.75108	0.12925	0.28073	-0.16512
3324.000	-1.74515	0.12726	0.26887	-0.27255
3325.000	-1.70565	0.16306	0.28073	-0.22281
3326.000	-1.81033	0.07556	0.27085	-0.13329
3327.000	-1.63256	0.06761	0.27678	-0.24072
3328.000	-1.72343	0.07954	0.26294	-0.22878
3329.000	-1.76491	0.02585	0.28271	-0.19496
3330.000	-1.81033	0.21674	0.28864	-0.17507
3331.000	-1.69972	0.06165	0.22933	-0.12931
3332.000	-1.67997	0.03778	0.29062	-0.16512
3333.000	-1.73330	0.07358	0.32027	-0.22480
3334.000	-1.76095	0.01591	0.27678	-0.17507
3335.000	-1.84786	0.11135	0.27876	-0.20690
3336.000	-1.81823	0.08948	0.28271	-0.19695
3337.000	-1.62466	0.12926	0.29852	-0.20690
3338.000	-1.82613	0.01392	0.30841	-0.24867
3339.000	-1.83996	0.01193	0.29259	-0.26857
3340.000	-1.73133	0.03380	0.32422	-0.21684
3341.000	-1.78071	0.02784	0.30050	-0.25862
3342.000	-1.82218	0.05568	0.28666	-0.26260
3343.000	-1.77676	0.12925	0.31632	-0.24470
3344.000	-1.72540	0.10142	0.34004	-0.33024
3345.000	-1.78466	0.06562	0.31632	-0.24867
3346.000	-1.82613	0.09147	0.33213	-0.30438
3347.000	-1.84193	0.08550	0.29259	-0.25862
3348.000	-1.75700	0.09942	0.27085	-0.30438
3349.000	-1.80046	0.09545	0.27678	-0.24470
3350.000	-1.69775	0.07954	0.29457	-0.28846
3351.000	-1.82416	0.06363	0.32225	-0.29642
3352.000	-1.80638	0.08749	0.30446	-0.33223
3353.000	-1.67404	0.04971	0.30050	-0.25066
3354.000	-1.80638	0.12130	0.31632	-0.28249
3355.000	-1.68590	0.10142	0.27085	-0.32029
3356.000	-1.68392	0.14119	0.31236	-0.27851
3357.000	-1.72343	0.12528	0.31434	-0.29642
3358.000	-1.56737	0.04375	0.29457	-0.27255
3359.000	-1.67997	0.09346	0.26689	-0.21883
3360.000	-1.77478	0.11135	0.27282	-0.28647
3361.000	-1.64837	0.03381	0.29457	-0.30040
3362.000	-1.64837	0.10142	0.24317	-0.24271
3363.000	-1.73923	0.01989	0.26887	-0.23077
3364.000	-1.67602	0.13324	0.25899	-0.25066
3365.000	-1.73923	0.03977	0.30841	-0.28448
3366.000	-1.73133	0.02983	0.26689	-0.28846
3367.000	-1.77083	-0.06562	0.31039	-0.29045
3368.000	-1.65824	0.08949	0.30050	-0.26658
3369.000	-1.72540	0.10937	0.28073	-0.25265
3370.000	-1.55947	0.10341	0.29457	-0.31631
3371.000	-1.65429	0.18693	0.31829	-0.22878
3372.000	-1.66614	0.12528	0.31236	-0.29244
3373.000	-1.59700	0.10938	0.27282	-0.29045
3374.000	-1.64837	0.07159	0.32422	-0.27454
3375.000	-1.63849	0.15511	0.22340	-0.23077
3376.000	-1.60491	0.16705	0.26887	-0.26857
3377.000	-1.60491	0.12926	0.27678	-0.33024
3378.000	-1.69380	0.06960	0.28073	-0.24669
3379.000	-1.59305	0.10142	0.24712	-0.28051
3380.000	-1.61083	0.11136	0.29062	-0.25862
3381.000	-1.62861	0.10142	0.28864	-0.26658
3382.000	-1.55157	0.04176	0.28666	-0.33422
3383.000	-1.56145	0.09148	0.25503	-0.28647
3384.000	-1.56935	0.07159	0.29259	-0.33820
3385.000	-1.46662	0.16905	0.24910	-0.27852
3386.000	-1.58318	0.07756	0.24910	-0.32029
3387.000	-1.68985	0.09744	0.25305	-0.28448
3388.000	-1.61281	0.03977	0.25108	-0.31631
3389.000	-1.56145	0.14915	0.29259	-0.28448
3390.000	-1.55947	0.14716	0.27282	-0.26061
3391.000	-1.57132	0.10341	0.26689	-0.27454
3392.000	-1.60293	0.14318	0.30643	-0.30438
3393.000	-1.51601	0.10739	0.27480	-0.35212
3394.000	-1.56737	0.09148	0.31829	-0.34018
3395.000	-1.61083	0.13125	0.34004	-0.29244
3396.000	-1.61281	0.02585	0.28666	-0.34217
3397.000	-1.61873	0.16705	0.27282	-0.30239
3398.000	-1.53181	0.13126	0.23526	-0.27454
3399.000	-1.47847	0.13723	0.28469	-0.34217
3400.000	-1.53181	0.08949	0.28469	-0.27454
3401.000	-1.58713	0.13921	0.31434	-0.31631
3402.000	-1.50415	0.05966	0.29457	-0.33621
3403.000	-1.57132	0.01790	0.31236	-0.36406
3404.000	-1.67207	0.09148	0.22538	-0.35411
3405.000	-1.62269	0.07756	0.30248	-0.36207
3406.000	-1.57725	-0.00199	0.25108	-0.34019
3407.000	-1.51996	0.02784	0.26294	-0.34416
3408.000	-1.54564	0.11733	0.26096	-0.40384
3409.000	-1.49823	0.14717	0.26294	-0.36605
3410.000	-1.63849	0.08551	0.30841	-0.35809
3411.000	-1.62861	0.04176	0.27085	-0.38594
3412.000	-1.56935	0.23268	0.31039	-0.39390
3413.000	-1.56737	0.06762	0.31039	-0.35809
3414.000	-1.67800	0.14517	0.30841	-0.33024
3415.000	-1.51798	0.09944	0.32225	-0.34814
3416.000	-1.68787	0.15710	0.32818	-0.32626
3417.000	-1.65824	0.18494	0.29259	-0.24470
3418.000	-1.59898	0.18693	0.29852	-0.31034
3419.000	-1.58120	0.22074	0.33806	-0.30637
3420.000	-1.63849	0.20880	0.30643	-0.26658
3421.000	-1.56737	0.22870	0.34795	-0.22679
3422.000	-1.54564	0.32217	0.27678	-0.21883
3423.000	-1.69775	0.30226	0.32620	-0.26459
3424.000	-1.56540	0.28239	0.33609	-0.21088
3425.000	-1.56145	0.29234	0.29259	-0.20292
3426.000	-1.54564	0.24461	0.33411	-0.23674
3427.000	-1.64837	0.22272	0.37365	-0.17308
3428.000	-1.56145	0.31421	0.35981	-0.16114
3429.000	-1.53774	0.32217	0.32620	-0.15915
3430.000	-1.50020	0.32217	0.31236	-0.10942
3431.000	-1.56342	0.30626	0.32620	-0.11141
3432.000	-1.48440	0.33610	0.39144	-0.07560
3433.000	-1.54564	0.23467	0.36179	-0.07958
3434.000	-1.43105	0.42958	0.36574	-0.00796
3435.000	-1.49230	0.40968	0.33806	-0.03183
3436.000	-1.50415	0.43553	0.40923	-0.07759
3437.000	-1.42513	0.41566	0.41714	-0.03581
3438.000	-1.48440	0.47530	0.38946	-0.00597
3439.000	-1.42117	0.47333	0.41714	-0.04973
3440.000	-1.48440	0.33809	0.39737	-0.03382
3441.000	-1.34016	0.47335	0.43296	-0.03979
3442.000	-1.34214	0.51909	0.45470	-0.11339
3443.000	-1.36585	0.56880	0.42307	-0.06565
3444.000	-1.28286	0.55689	0.44679	-0.09151
3445.000	-1.33028	0.51909	0.43493	-0.15517
3446.000	-1.41129	0.54890	0.45272	-0.13727
3447.000	-1.38758	0.61453	0.49424	-0.09549
3448.000	-1.34214	0.56085	0.50610	-0.12334
3449.000	-1.37178	0.53101	0.55157	-0.19098
3450.000	-1.30262	0.57677	0.55354	-0.16114
3451.000	-1.29076	0.53103	0.57133	-0.23275
3452.000	-1.26310	0.50120	0.60296	-0.20092
3453.000	-1.13465	0.56089	0.63262	-0.23872
3454.000	-1.06943	0.59074	0.72552	-0.18500
3455.000	-0.99631	0.49727	0.80854	-0.17107
3456.000	-1.00817	0.51716	0.80261	-0.08156
3457.000	-0.85598	0.52713	0.85005	-0.07360
3458.000	-0.83819	0.56293	0.89551	-0.12731
3459.000	-0.76110	0.41575	0.92318	-0.09150
3460.000	-0.62273	0.33022	0.99433	-0.11338
3461.000	-0.59901	0.36802	1.07536	-0.06962
3462.000	-0.49028	0.29641	1.12477	-0.02188
3463.000	-0.46656	0.19695	1.14848	-0.05171
3464.000	-0.43691	0.18501	1.21172	-0.09348
3465.000	-0.33411	0.09350	1.32633	-0.06563
3466.000	-0.37563	0.00796	1.37968	-0.00597
3467.000	-0.34597	-0.08554	1.41525	-0.00796
3468.000	-0.19375	-0.01989	1.42117	0.12530
3469.000	-0.23131	-0.00995	1.52193	0.16506
3470.000	-0.23131	0.02586	1.63454	0.14517
3471.000	-0.06326	-0.05570	1.57725	0.41364
3472.000	-0.16409	-0.04775	1.71355	0.53689
3473.000	-0.16211	-0.13926	1.75503	0.76553
3474.000	-0.16804	-0.02387	1.94660	0.96622
3475.000	-0.17793	-0.15120	2.05915	1.18080
3476.000	-0.26887	-0.18501	2.24670	1.39325
3477.000	-0.31434	-0.19695	2.28223	1.89573
3478.000	-0.37760	-0.40981	2.39473	2.18541
3479.000	-0.39144	-0.48540	2.38289	2.71914
3480.000	-0.39539	-0.40981	2.55457	3.08949
3481.000	-0.32818	-0.26260	2.56246	3.52327
3482.000	-0.28864	-0.07162	2.57825	4.08714
3483.000	-0.30841	0.11737	2.56444	4.62465
3484.000	-0.22340	0.32427	2.53287	5.18705
3485.000	-0.27876	0.62266	2.49932	5.81538
3486.000	-0.35388	0.84543	2.49932	6.42843
3487.000	-0.36179	1.14176	NaN	NaN
3488.000	-0.22340	1.45396	NaN	NaN
3489.000	-0.28271	1.74020	NaN	NaN
3490.000	-0.16607	2.05619	NaN	NaN
3491.000	-0.10083	2.48920	NaN	NaN
3492.000	-0.00593	2.80882	NaN	NaN
3493.000	0.10478	3.15007	NaN	NaN
3494.000	0.20561	3.48713	NaN	NaN
3495.000	0.35783	3.91698	NaN	NaN
3496.000	0.42505	4.32662	NaN	NaN
3497.000	0.60099	4.73375	NaN	NaN
3498.000	0.82238	5.16986	NaN	NaN
3499.000	1.11687	5.67997	NaN	NaN
3500.000	1.46069	6.08656	NaN	NaN
3501.000	1.59108	6.66954	NaN	NaN
3502.000	1.74120	7.20202	NaN	NaN
3503.000	1.87551	7.68047	NaN	NaN
3504.000	1.90315	8.20889	NaN	NaN
3505.000	2.02163	8.75873	NaN	NaN
3506.000	1.99794	9.22243	NaN	NaN
3507.000	2.07889	9.79633	NaN	NaN
3508.000	2.07692	10.26480	NaN	NaN
3509.000	NaN	NaN	NaN	NaN
3510.000	NaN	NaN	NaN	NaN
3511.000	NaN	NaN	NaN	NaN
3512.000	NaN	NaN	NaN	NaN
3513.000	NaN	NaN	NaN	NaN
3514.000	NaN	NaN	NaN	NaN
3515.000	NaN	NaN	NaN	NaN
3516.000	NaN	NaN	NaN	NaN
3517.000	NaN	NaN	NaN	NaN
3518.000	NaN	NaN	NaN	NaN
3519.000	NaN	NaN	NaN	NaN
3520.000	NaN	NaN	NaN	NaN
3521.000	NaN	NaN	NaN	NaN
3522.000	NaN	NaN	NaN	NaN
3523.000	NaN	NaN	NaN	NaN
3524.000	NaN	NaN	NaN	NaN
3525.000	NaN	NaN	NaN	NaN
3526.000	NaN	NaN	NaN	NaN
3527.000	NaN	NaN	NaN	NaN
3528.000	NaN	NaN	NaN	NaN
3529.000	NaN	NaN	NaN	NaN
3530.000	NaN	NaN	NaN	NaN
3531.000	NaN	NaN	NaN	NaN
3532.000	NaN	NaN	NaN	NaN
3533.000	NaN	NaN	NaN	NaN
3534.000	NaN	NaN	NaN	NaN
3535.000	NaN	NaN	NaN	NaN
3536.000	NaN	NaN	NaN	NaN
3537.000	NaN	NaN	NaN	NaN
3538.000	NaN	NaN	NaN	NaN
3539.000	NaN	NaN	NaN	NaN
3540.000	NaN	NaN	NaN	NaN
3541.000	NaN	NaN	NaN	NaN
3542.000	NaN	NaN	NaN	NaN
3543.000	NaN	NaN	NaN	NaN
3544.000	NaN	NaN	NaN	NaN
3545.000	NaN	NaN	NaN	NaN
3546.000	NaN	NaN	NaN	NaN
3547.000	NaN	NaN	NaN	NaN
3548.000	NaN	NaN	NaN	NaN
3549.000	NaN	NaN	NaN	NaN
3550.000	NaN	NaN	NaN	NaN
3551.000	NaN	NaN	NaN	NaN
3552.000	NaN	NaN	NaN	NaN
3553.000	NaN	NaN	NaN	NaN
3554.000	NaN	NaN	NaN	NaN
3555.000	NaN	NaN	NaN	NaN
3556.000	NaN	NaN	NaN	NaN
3557.000	NaN	NaN	NaN	NaN
3558.000	NaN	NaN	NaN	NaN
3559.000	NaN	NaN	NaN	NaN
3560.000	NaN	NaN	NaN	NaN
3561.000	NaN	NaN	NaN	NaN
3562.000	NaN	NaN	NaN	NaN
3563.000	NaN	NaN	NaN	NaN
3564.000	NaN	NaN	NaN	NaN
3565.000	NaN	NaN	NaN	NaN
3566.000	NaN	NaN	NaN	NaN
3567.000	NaN	NaN	NaN	NaN
3568.000	NaN	NaN	NaN	NaN
3569.000	NaN	NaN	NaN	NaN
3570.000	NaN	NaN	NaN	NaN
3571.000	NaN	NaN	NaN	NaN
3572.000	NaN	NaN	NaN	NaN
3573.000	NaN	NaN	NaN	NaN
3574.000	NaN	NaN	NaN	NaN
3575.000	NaN	NaN	NaN	NaN
3576.000	NaN	NaN	NaN	NaN
3577.000	NaN	NaN	NaN	NaN
3578.000	NaN	NaN	NaN	NaN
3579.000	NaN	NaN	NaN	NaN
3580.000	NaN	NaN	NaN	NaN
3581.000	NaN	NaN	NaN	NaN
3582.000	NaN	NaN	NaN	NaN
3583.000	NaN	NaN	NaN	NaN
3584.000	NaN	NaN	NaN	NaN
3585.000	NaN	NaN	NaN	NaN
3586.000	NaN	NaN	NaN	NaN
3587.000	NaN	NaN	NaN	NaN
3588.000	NaN	NaN	NaN	NaN
3589.000	NaN	NaN	NaN	NaN
3590.000	NaN	NaN	NaN	NaN
3591.000	NaN	NaN	NaN	NaN
3592.000	NaN	NaN	NaN	NaN
3593.000	NaN	NaN	NaN	NaN
3594.000	NaN	NaN	NaN	NaN
3595.000	NaN	NaN	NaN	NaN
3596.000	NaN	NaN	NaN	NaN
3597.000	NaN	NaN	NaN	NaN
3598.000	NaN	NaN	NaN	NaN
3599.000	NaN	NaN	NaN	NaN
3600.000	NaN	NaN	NaN	NaN
3601.000	NaN	NaN	NaN	NaN
3602.000	NaN	NaN	NaN	NaN
3603.000	NaN	NaN	NaN	NaN
3604.000	NaN	NaN	NaN	NaN
3605.000	NaN	NaN	NaN	NaN
3606.000	NaN	NaN	NaN	NaN
3607.000	NaN	NaN	NaN	NaN
3608.000	NaN	NaN	NaN	NaN
3609.000	NaN	NaN	NaN	NaN
3610.000	NaN	NaN	NaN	NaN
3611.000	NaN	NaN	NaN	NaN
3612.000	NaN	NaN	NaN	NaN
3613.000	NaN	NaN	NaN	NaN
3614.000	NaN	NaN	NaN	NaN
3615.000	NaN	NaN	NaN	NaN
3616.000	NaN	NaN	NaN	NaN
3617.000	NaN	NaN	NaN	NaN
3618.000	NaN	NaN	NaN	NaN
3619.000	NaN	NaN	NaN	NaN
3620.000	NaN	NaN	NaN	NaN
3621.000	NaN	NaN	NaN	NaN
3622.000	NaN	NaN	NaN	NaN
3623.000	NaN	NaN	NaN	NaN
3624.000	NaN	NaN	NaN	NaN
3625.000	NaN	NaN	NaN	NaN
3626.000	NaN	NaN	NaN	NaN
3627.000	NaN	NaN	NaN	NaN
3628.000	NaN	NaN	NaN	NaN
3629.000	NaN	NaN	NaN	NaN
3630.000	NaN	NaN	NaN	NaN
3631.000	NaN	NaN	NaN	NaN
3632.000	NaN	NaN	NaN	NaN
3633.000	NaN	NaN	NaN	NaN
3634.000	NaN	NaN	NaN	NaN
3635.000	NaN	NaN	NaN	NaN
3636.000	NaN	NaN	NaN	NaN
3637.000	NaN	NaN	NaN	NaN
3638.000	NaN	NaN	NaN	NaN
3639.000	NaN	NaN	NaN	NaN
3640.000	NaN	NaN	NaN	NaN
3641.000	NaN	NaN	NaN	NaN
3642.000	NaN	NaN	NaN	NaN
3643.000	NaN	NaN	NaN	NaN
3644.000	NaN	NaN	NaN	NaN
3645.000	NaN	NaN	NaN	NaN
3646.000	NaN	NaN	NaN	NaN
3647.000	NaN	NaN	NaN	NaN
3648.000	NaN	NaN	NaN	NaN
3649.000	NaN	NaN	NaN	NaN
3650.000	NaN	NaN	NaN	NaN
3651.000	NaN	NaN	NaN	NaN
3652.000	NaN	NaN	NaN	NaN
3653.000	NaN	NaN	NaN	NaN
3654.000	NaN	NaN	NaN	NaN
3655.000	NaN	NaN	NaN	NaN
3656.000	NaN	NaN	NaN	NaN
3657.000	NaN	NaN	NaN	NaN
3658.000	NaN	NaN	NaN	NaN
3659.000	NaN	NaN	NaN	NaN
3660.000	NaN	NaN	NaN	NaN
3661.000	NaN	NaN	NaN	NaN
3662.000	NaN	NaN	NaN	NaN
3663.000	NaN	NaN	NaN	NaN
3664.000	NaN	NaN	NaN	NaN
3665.000	NaN	NaN	NaN	NaN
3666.000	NaN	NaN	NaN	NaN
3667.000	NaN	NaN	NaN	NaN
3668.000	NaN	NaN	NaN	NaN
3669.000	NaN	NaN	NaN	NaN
3670.000	NaN	NaN	NaN	NaN
3671.000	NaN	NaN	NaN	NaN
3672.000	NaN	NaN	NaN	NaN
3673.000	NaN	NaN	NaN	NaN
3674.000	NaN	NaN	NaN	NaN
3675.000	NaN	NaN	NaN	NaN
3676.000	NaN	NaN	NaN	NaN
3677.000	NaN	NaN	NaN	NaN
3678.000	NaN	NaN	NaN	NaN
3679.000	NaN	NaN	NaN	NaN
3680.000	NaN	NaN	NaN	NaN
3681.000	NaN	NaN	NaN	NaN
3682.000	NaN	NaN	NaN	NaN
3683.000	NaN	NaN	NaN	NaN
3684.000	NaN	NaN	NaN	NaN
3685.000	NaN	NaN	NaN	NaN
3686.000	NaN	NaN	NaN	NaN
3687.000	NaN	NaN	NaN	NaN
3688.000	NaN	NaN	NaN	NaN
3689.000	NaN	NaN	NaN	NaN
3690.000	NaN	NaN	NaN	NaN
3691.000	NaN	NaN	NaN	NaN
3692.000	NaN	NaN	NaN	NaN
3693.000	NaN	NaN	NaN	NaN
3694.000	NaN	NaN	NaN	NaN
3695.000	NaN	NaN	NaN	NaN
3696.000	NaN	NaN	NaN	NaN
3697.000	NaN	NaN	NaN	NaN
3698.000	NaN	NaN	NaN	NaN
3699.000	NaN	NaN	NaN	NaN
3700.000	NaN	NaN	NaN	NaN
3701.000	NaN	NaN	NaN	NaN
3702.000	NaN	NaN	NaN	NaN
3703.000	NaN	NaN	NaN	NaN
3704.000	NaN	NaN	NaN	NaN
3705.000	NaN	NaN	NaN	NaN
3706.000	NaN	NaN	NaN	NaN
3707.000	NaN	NaN	NaN	NaN
3708.000	NaN	NaN	NaN	NaN
3709.000	NaN	NaN	NaN	NaN
3710.000	NaN	NaN	NaN	NaN
3711.000	NaN	NaN	NaN	NaN
3712.000	NaN	NaN	NaN	NaN
3713.000	NaN	NaN	NaN	NaN
3714.000	NaN	NaN	NaN	NaN
3715.000	NaN	NaN	NaN	NaN
3716.000	NaN	NaN	NaN	NaN
3717.000	NaN	NaN	NaN	NaN
3718.000	NaN	NaN	NaN	NaN
3719.000	NaN	NaN	NaN	NaN
3720.000	NaN	NaN	NaN	NaN
3721.000	NaN	NaN	NaN	NaN
3722.000	NaN	NaN	NaN	NaN
3723.000	NaN	NaN	NaN	NaN
3724.000	NaN	NaN	NaN	NaN
3725.000	NaN	NaN	NaN	NaN
3726.000	NaN	NaN	NaN	NaN
3727.000	NaN	NaN	NaN	NaN
3728.000	NaN	NaN	NaN	NaN
3729.000	NaN	NaN	NaN	NaN
3730.000	NaN	NaN	NaN	NaN
3731.000	NaN	NaN	NaN	NaN
3732.000	NaN	NaN	NaN	NaN
3733.000	NaN	NaN	NaN	NaN
3734.000	NaN	NaN	NaN	NaN
3735.000	NaN	NaN	NaN	NaN
3736.000	NaN	NaN	NaN	NaN
3737.000	NaN	NaN	NaN	NaN
3738.000	NaN	NaN	NaN	NaN
3739.000	NaN	NaN	NaN	NaN
3740.000	NaN	NaN	NaN	NaN
3741.000	NaN	NaN	NaN	NaN
3742.000	-0.77494	11.70241	NaN	NaN
3743.000	0.35981	10.55986	NaN	NaN
3744.000	1.48242	9.27335	NaN	NaN
3745.000	1.23346	8.86116	NaN	NaN
3746.000	1.18801	8.42194	NaN	NaN
3747.000	1.10501	8.13780	NaN	NaN
3748.000	0.97259	7.69712	NaN	NaN
3749.000	0.83621	7.41591	NaN	NaN
3750.000	0.83226	7.05767	NaN	NaN
3751.000	0.53971	6.66983	NaN	NaN
3752.000	0.43296	6.32429	NaN	NaN
3753.000	0.19770	6.04521	NaN	NaN
3754.000	0.11862	5.72043	NaN	NaN
3755.000	0.00791	5.46230	NaN	NaN
3756.000	-0.19968	5.15063	NaN	NaN
3757.000	-0.25899	4.90581	NaN	NaN
3758.000	-0.27876	4.66479	NaN	NaN
3759.000	-0.27480	4.42954	NaN	NaN
3760.000	-0.39935	4.17627	NaN	NaN
3761.000	-0.48040	3.92286	NaN	NaN
3762.000	-0.47447	3.70104	NaN	NaN
3763.000	-0.51598	3.53656	NaN	NaN
3764.000	-0.52191	3.31454	NaN	NaN
3765.000	-0.59308	3.14198	NaN	NaN
3766.000	-0.62273	2.91184	NaN	NaN
3767.000	-0.69192	2.71335	NaN	NaN
3768.000	-0.66820	2.55654	NaN	NaN
3769.000	-0.72947	2.38774	NaN	NaN
3770.000	-0.80854	2.29237	NaN	NaN
3771.000	-0.95876	2.08968	NaN	NaN
3772.000	-0.90934	1.89500	NaN	NaN
3773.000	-1.05758	1.80948	-2.88596	7.43474
3774.000	-1.01805	1.59884	-0.68203	7.08142
3775.000	-1.09315	1.46165	1.39944	6.68385
3776.000	-1.11489	1.28869	1.36783	6.31679
3777.000	-1.16232	1.15149	1.44686	5.92727
3778.000	-1.24927	0.92280	1.37375	5.60261
3779.000	-1.28286	0.80746	1.29274	5.35447
3780.000	-1.20184	0.71998	1.31843	5.04077
3781.000	-1.31448	0.63245	1.30262	4.77427
3782.000	-1.29472	0.48926	1.23346	4.39495
3783.000	-1.27100	0.39182	1.19394	4.15173
3784.000	-1.28681	0.25657	1.30855	3.81902
3785.000	-1.30657	0.17304	1.33028	3.53179
3786.000	-1.24532	0.07160	1.19987	3.39324
3787.000	-1.28484	-0.05370	1.35399	3.07186
3788.000	-1.31843	-0.09746	1.25322	2.78632
3789.000	-1.30262	-0.16707	1.19196	2.61968
3790.000	-1.23939	-0.23868	1.19196	2.39734
3791.000	-1.32040	-0.30828	1.17220	2.24446
3792.000	-1.30657	-0.29436	1.22160	1.94647
3793.000	-1.30657	-0.35800	1.24729	1.71596
3794.000	-1.29076	-0.45943	1.15837	1.60473
3795.000	-1.36190	-0.49721	1.10501	1.35430
3796.000	-1.29669	-0.47733	1.24729	1.21309
3797.000	-1.24532	-0.51513	1.30855	1.03214
3798.000	-1.17418	-0.55890	1.22555	0.89895
3799.000	-1.23544	-0.58076	1.21567	0.75975
3800.000	-1.22753	-0.57281	1.23741	0.56883
3801.000	-1.16232	-0.47934	1.22358	0.43956
3802.000	-1.16825	-0.52708	1.19789	0.23271
3803.000	-1.15441	-0.46343	1.27298	-0.01591
3804.000	-1.08327	-0.38985	1.29867	-0.10740
3805.000	-1.10698	-0.46742	1.06943	-0.14918
3806.000	-1.09908	-0.45549	1.42117	-0.50316
3807.000	-1.15441	-0.34012	1.22160	-0.52309
3808.000	-1.13465	-0.37791	1.08524	-0.55494
3809.000	-1.10303	-0.34808	1.25915	-0.83331
3810.000	-1.11489	-0.33018	0.92516	-0.69021
3811.000	-1.16429	-0.36598	0.86981	-0.66437
3812.000	-1.13663	-0.35007	0.81842	-0.80161
3813.000	-1.12872	-0.35206	0.80854	-0.88514
3814.000	-1.19987	-0.39382	0.90737	-1.07404
3815.000	-1.15441	-0.36995	0.71168	-1.04028
3816.000	-1.18010	-0.35404	0.69192	-1.12579
3817.000	-1.10106	-0.37394	0.61878	-1.15166
3818.000	-1.18208	-0.38785	0.60889	-1.21529
3819.000	-1.15441	-0.38189	0.60692	-1.20336
3820.000	-1.11094	-0.40974	0.56738	-1.18548
3821.000	-1.23346	-0.41370	0.57727	-1.26899
3822.000	-1.13860	-0.37393	0.53180	-1.30081
3823.000	-1.14848	-0.36996	0.51598	-1.32666
3824.000	-1.12082	-0.37195	0.54761	-1.27695
3825.000	-1.05955	-0.39582	0.50610	-1.28889
3826.000	-1.13663	-0.30233	0.54959	-1.26701
3827.000	-1.15046	-0.38786	0.49622	-1.24316
3828.000	-1.08129	-0.34212	0.48040	-1.27299
3829.000	-1.10896	-0.36399	0.42702	-1.24516
3830.000	-1.13268	-0.37394	0.45668	-1.24117
3831.000	-1.11094	-0.36996	0.40923	-1.26107
3832.000	-1.03781	-0.33814	0.39935	-1.17159
3833.000	-1.12082	-0.45946	0.31829	-1.09603
3834.000	-1.07536	-0.32621	0.31829	-1.11989
3835.000	-1.09513	-0.26852	0.36376	-1.11392
3836.000	-1.08920	-0.38588	0.33411	-1.07216
3837.000	-1.11291	-0.35803	0.30841	-1.06819
3838.000	-1.07339	-0.32621	0.28073	-1.00455
3839.000	-1.15837	-0.32620	0.28666	-0.96676
3840.000	-1.05560	-0.37991	0.26887	-0.98069
3841.000	-1.07932	-0.36400	0.24317	-0.91903
3842.000	-1.05560	-0.37792	0.25108	-0.98466
3843.000	-1.13663	-0.28841	0.25701	-0.97273
3844.000	-1.05758	-0.36599	0.23922	-1.01052
3845.000	-1.07734	-0.29438	0.24910	-0.97870
3846.000	-1.09908	-0.28245	0.23724	-1.00058
3847.000	-1.06153	-0.28643	0.20956	-0.98268
3848.000	-1.09513	-0.32620	0.22538	-1.01251
3849.000	-1.06351	-0.25659	0.18979	-1.04831
3850.000	-1.03979	-0.24068	0.19968	-1.01649
3851.000	-1.07734	-0.33416	0.21154	-0.98268
3852.000	-1.11094	-0.28443	0.19572	-1.00853
3853.000	-1.04769	-0.31428	0.16409	-1.06820
3854.000	-1.01212	-0.20886	0.21945	-1.06820
3855.000	-1.01014	-0.20886	0.17793	-1.07615
3856.000	-0.95876	-0.25660	0.18386	-1.11394
3857.000	-1.00619	-0.28842	0.18188	-1.10002
3858.000	-1.01014	-0.18101	0.18781	-1.07416
3859.000	-1.02398	-0.25063	0.17398	-1.07615
3860.000	-1.13860	-0.23868	0.20956	-1.10002
3861.000	-1.07141	-0.23869	0.19177	-1.13780
3862.000	-1.06548	-0.30433	0.21154	-1.14178
3863.000	-1.14651	-0.26653	0.18979	-1.10201
3864.000	-1.04177	-0.30234	0.21945	-1.10996
3865.000	-1.11291	-0.28443	0.19177	-1.12189
3866.000	-1.11291	-0.24266	0.21154	-1.12189
3867.000	-1.15639	-0.30034	0.23131	-1.14178
3868.000	-1.11094	-0.29040	0.19177	-1.17956
3869.000	-1.15046	-0.34012	0.15816	-1.14775
3870.000	-1.11094	-0.26852	0.16014	-1.13780
3871.000	-1.16825	-0.34609	0.21154	-1.12786
3872.000	-1.15837	-0.31029	0.17200	-1.15769
3873.000	-1.12477	-0.30034	0.17595	-1.13184
3874.000	-1.10698	-0.35803	0.14432	-1.13582
3875.000	-1.16034	-0.35404	0.17398	-1.15570
3876.000	-1.16825	-0.31426	0.14827	-1.20144
3877.000	-1.08327	-0.29239	0.17200	-1.15172
3878.000	-1.10303	-0.30830	0.15816	-1.12985
3879.000	-1.17022	-0.32023	0.13641	-1.13582
3880.000	-1.13268	-0.33018	0.16607	-1.19150
3881.000	-1.14848	-0.23868	0.12257	-1.16764
3882.000	-1.11687	-0.32620	0.14827	-1.16763
3883.000	-1.15639	-0.29040	0.12257	-1.20542
3884.000	-1.17615	-0.35006	0.13839	-1.20144
3885.000	-1.14651	-0.34808	0.10083	-1.19945
3886.000	-1.15639	-0.31029	0.10676	-1.19150
3887.000	-1.14256	-0.32819	0.09094	-1.21138
3888.000	-1.07734	-0.30433	0.11862	-1.17758
3889.000	-1.09908	-0.33615	0.10874	-1.12985
3890.000	-1.12872	-0.35604	0.10280	-1.11991
3891.000	-1.15046	-0.36797	0.10874	-1.17957
3892.000	-1.15639	-0.33813	0.07908	-1.16366
3893.000	-1.09513	-0.29836	0.09094	-1.07616
3894.000	-1.13268	-0.36001	0.09885	-1.17161
3895.000	-1.13860	-0.30830	0.07710	-1.13582
3896.000	-1.08524	-0.29438	0.10478	-1.19349
3897.000	-1.13465	-0.29637	0.07908	-1.18951
3898.000	-1.10303	-0.36399	0.07315	-1.23326
3899.000	-1.17615	-0.31028	0.07117	-1.14178
3900.000	-1.18998	-0.38188	0.08897	-1.19349
3901.000	-1.11884	-0.39781	0.09687	-1.24121
3902.000	-1.14848	-0.38388	0.03163	-1.20741
3903.000	-1.21765	-0.38188	0.07315	-1.19945
3904.000	-1.25915	-0.43160	0.08897	-1.19349
3905.000	-1.14848	-0.35802	0.05931	-1.19548
3906.000	-1.15244	-0.46741	0.05140	-1.16167
3907.000	-1.17022	-0.45349	0.08699	-1.14775
3908.000	-1.18998	-0.41768	0.07117	-1.16366
3909.000	-1.20975	-0.45149	0.05733	-1.21536
3910.000	-1.11094	-0.42366	0.07710	-1.17559
3911.000	-1.19196	-0.39978	0.08699	-1.18951
3912.000	-1.08327	-0.41770	0.05733	-1.18553
3913.000	-1.19196	-0.43956	0.01582	-1.20343
3914.000	-1.18406	-0.48531	0.03163	-1.19349
3915.000	-1.16825	-0.49724	0.02570	-1.18951
3916.000	-1.17615	-0.52906	0.03954	-1.19150
3917.000	-1.18010	-0.47337	0.01582	-1.20741
3918.000	-1.18208	-0.43360	0.05536	-1.21337
3919.000	-1.10106	-0.49129	0.02966	-1.17360
3920.000	-1.14453	-0.49526	0.02372	-1.22332
3921.000	-1.23346	-0.47535	0.07710	-1.24917
3922.000	-1.20184	-0.51315	0.02966	-1.24121
3923.000	-1.16825	-0.50520	0.04349	-1.23923
3924.000	-1.10106	-0.56687	0.04152	-1.20741
3925.000	-1.10896	-0.58476	0.01384	-1.20741
3926.000	-1.16429	-0.50918	0.04943	-1.21735
3927.000	-1.09710	-0.50322	0.04152	-1.24121
3928.000	-1.13465	-0.54100	0.02768	-1.18553
3929.000	-1.21172	-0.54894	0.03756	-1.23525
3930.000	-1.17418	-0.55492	0.00198	-1.15173
3931.000	-1.12872	-0.52311	0.00593	-1.17957
3932.000	-1.13860	-0.51913	0.02966	-1.19548
3933.000	-1.16825	-0.55492	-0.00791	-1.21139
3934.000	-1.17813	-0.57083	0.04547	-1.23923
3935.000	-1.11884	-0.52709	0.03361	-1.26508
3936.000	-1.18406	-0.61856	0.02966	-1.23724
3937.000	-1.11884	-0.58874	-0.01186	-1.22928
3938.000	-1.20579	-0.59270	0.04349	-1.26110
3939.000	-1.23148	-0.52110	0.03361	-1.30286
3940.000	-1.16034	-0.59072	0.01186	-1.24917
3941.000	-1.13268	-0.56288	0.03163	-1.23923
3942.000	-1.20184	-0.61060	0.01977	-1.26309
3943.000	-1.14651	-0.64243	-0.00989	-1.19548
3944.000	-1.16825	-0.61657	0.02570	-1.22928
3945.000	-1.14058	-0.60862	-0.00989	-1.25712
3946.000	-1.18208	-0.60066	0.00198	-1.23923
3947.000	-1.14848	-0.57282	0.03756	-1.22531
3948.000	-1.18801	-0.62055	-0.04349	-1.26905
3949.000	-1.22753	-0.61457	0.01186	-1.28098
3950.000	-1.28286	-0.59467	0.00791	-1.29888
3951.000	-1.14848	-0.64641	-0.00989	-1.26110
3952.000	-1.22753	-0.64241	-0.01779	-1.29888
3953.000	-1.17418	-0.55492	-0.01779	-1.28297
3954.000	-1.24532	-0.66429	0.00395	-1.24917
3955.000	-1.21172	-0.61656	-0.01582	-1.28297
3956.000	-1.15046	-0.63249	-0.01582	-1.31876
3957.000	-1.22951	-0.63844	-0.01779	-1.24121
3958.000	-1.16429	-0.62453	-0.05536	-1.28695
3959.000	-1.13663	-0.64045	0.00000	-1.30683
3960.000	-1.24532	-0.68815	-0.03361	-1.29689
3961.000	-1.13465	-0.57879	-0.04152	-1.26706
3962.000	-1.12477	-0.61857	-0.04943	-1.28297
3963.000	-1.03584	-0.62058	-0.01779	-1.28297
3964.000	-1.15441	-0.62851	-0.05931	-1.28297
3965.000	-1.14058	-0.72596	-0.06129	-1.22332
3966.000	-1.14256	-0.68022	-0.04745	-1.22531
3967.000	-1.16232	-0.66828	-0.07908	-1.24519
3968.000	-1.07339	-0.58079	-0.07710	-1.20940
3969.000	-1.12477	-0.66233	-0.07315	-1.20741
3970.000	-1.13465	-0.59470	-0.10083	-1.23922
3971.000	-1.06153	-0.63251	-0.10874	-1.25314
3972.000	-1.12477	-0.56885	-0.06920	-1.24718
3973.000	-1.10303	-0.63051	-0.07908	-1.16167
3974.000	-1.04967	-0.59870	-0.08897	-1.25911
3975.000	-1.13268	-0.62454	-0.06920	-1.26706
3976.000	-1.07536	-0.57880	-0.09490	-1.26905
3977.000	-1.12279	-0.64443	-0.10478	-1.26110
3978.000	-1.08327	-0.68023	-0.10676	-1.23922
3979.000	-1.00224	-0.57683	-0.07513	-1.22531
3980.000	-1.11489	-0.62653	-0.07117	-1.26706
3981.000	-1.11489	-0.64443	-0.08106	-1.24121
3982.000	-1.06943	-0.63847	-0.12653	-1.21934
3983.000	-1.10106	-0.58278	-0.12653	-1.26706
3984.000	-1.13663	-0.65238	-0.08897	-1.23724
3985.000	-1.05165	-0.70411	-0.13246	-1.20542
3986.000	-1.15244	-0.62055	-0.14432	-1.21337
3987.000	-1.05560	-0.66831	-0.13444	-1.27303
3988.000	-1.09908	-0.66233	-0.16607	-1.25314
3989.000	-1.07141	-0.64245	-0.14037	-1.25911
3990.000	-1.05560	-0.63251	-0.18188	-1.25513
3991.000	-1.05955	-0.66234	-0.13246	-1.26706
3992.000	-1.08327	-0.69416	-0.12653	-1.25712
3993.000	-1.12279	-0.65238	-0.16607	-1.22530
3994.000	-1.07339	-0.69615	-0.20363	-1.31080
3995.000	-1.04572	-0.66234	-0.15025	-1.23524
3996.000	-1.12082	-0.67028	-0.12060	-1.23326
3997.000	-1.06153	-0.67029	-0.15223	-1.26706
3998.000	-1.04177	-0.73195	-0.11664	-1.30087
3999.000	-1.14453	-0.70210	-0.13444	-1.29490
4000.000	-1.04769	-0.65836	-0.13444	-1.23326
4001.000	-1.02595	-0.73792	-0.14630	-1.28893
4002.000	-1.01212	-0.67229	-0.17002	-1.23922
4003.000	-1.01410	-0.70809	-0.12850	-1.25513
4004.000	-1.05165	-0.71604	-0.10280	-1.28496
4005.000	-1.02991	-0.69218	-0.11467	-1.31876
4006.000	-1.02003	-0.73196	-0.12653	-1.27104
4007.000	-1.02991	-0.67826	-0.13246	-1.32671
4008.000	-1.12675	-0.70210	-0.11862	-1.29291
4009.000	-1.07536	-0.55494	-0.15025	-1.25712
4010.000	-1.07536	-0.67427	-0.15421	-1.27700
4011.000	-1.14058	-0.67425	-0.11664	-1.29291
4012.000	-1.05362	-0.65637	-0.11862	-1.30484
4013.000	-1.07141	-0.71802	-0.15421	-1.28893
4014.000	-1.15046	-0.67027	-0.17200	-1.31080
4015.000	-1.01607	-0.69019	-0.16211	-1.26905
4016.000	-1.06746	-0.60267	-0.15618	-1.25314
4017.000	-1.06153	-0.77968	-0.11664	-1.35057
4018.000	-1.02200	-0.69417	-0.13839	-1.30683
4019.000	-1.02991	-0.71803	-0.15618	-1.25911
4020.000	-1.12477	-0.68818	-0.15816	-1.30882
4021.000	-1.14256	-0.75380	-0.15816	-1.31279
4022.000	-1.05165	-0.68223	-0.11862	-1.32075
4023.000	-1.00421	-0.72798	-0.17991	-1.31876
4024.000	-1.02991	-0.75781	-0.13839	-1.32671
4025.000	-1.04374	-0.64444	-0.13839	-1.32274
4026.000	-1.10106	-0.75978	-0.16607	-1.34262
4027.000	-1.04967	-0.77173	-0.20363	-1.34460
4028.000	-1.05758	-0.66831	-0.18386	-1.34858
4029.000	-1.04177	-0.70809	-0.15618	-1.31279
4030.000	-1.11884	-0.72597	-0.16804	-1.32273
4031.000	-1.03386	-0.74389	-0.18188	-1.31478
4032.000	-1.08129	-0.68819	-0.17398	-1.32075
4033.000	-1.08129	-0.65239	-0.14827	-1.35057
4034.000	-1.12872	-0.67426	-0.14234	-1.34660
4035.000	-1.02793	-0.74389	-0.21747	-1.37244
4036.000	-1.08129	-0.73393	-0.21747	-1.34261
4037.000	-1.04374	-0.74190	-0.17793	-1.32273
4038.000	-1.09710	-0.75779	-0.15816	-1.36051
4039.000	-1.10896	-0.78364	-0.18979	-1.34659
4040.000	-1.05758	-0.69416	-0.19572	-1.35852
4041.000	-1.05758	-0.68422	-0.16014	-1.33467
4042.000	-1.07734	-0.67825	-0.15223	-1.33467
4043.000	-1.05560	-0.72797	-0.19770	-1.32273
4044.000	-1.02200	-0.72798	-0.20363	-1.29688
4045.000	-1.06351	-0.68024	-0.18781	-1.32472
4046.000	-1.02200	-0.71605	-0.19968	-1.32671
4047.000	-1.04374	-0.71206	-0.17991	-1.32273
4048.000	-1.05362	-0.77570	-0.19770	-1.31080
4049.000	-1.03188	-0.79559	-0.20561	-1.36846
4050.000	-1.03781	-0.71604	-0.19177	-1.34262
4051.000	-1.01014	-0.75582	-0.18386	-1.33665
4052.000	-1.04572	-0.75383	-0.18781	-1.32671
4053.000	-1.01212	-0.72997	-0.18781	-1.33466
4054.000	-1.10698	-0.79359	-0.16211	-1.38835
4055.000	-1.10501	-0.70409	-0.16409	-1.37045
4056.000	-1.13860	-0.73789	-0.18386	-1.33069
4057.000	-1.09513	-0.77370	-0.16804	-1.36847
4058.000	-1.03979	-0.77968	-0.16607	-1.34461
4059.000	-1.06548	-0.70211	-0.20561	-1.36250
4060.000	-1.05758	-0.71007	-0.17002	-1.37045
4061.000	-1.08524	-0.76376	-0.21352	-1.31080
4062.000	-1.04769	-0.74388	-0.21945	-1.31677
4063.000	-1.09710	-0.73393	-0.22933	-1.27103
4064.000	-0.98247	-0.75981	-0.20561	-1.35256
4065.000	-1.00817	-0.74986	-0.19572	-1.38636
4066.000	-1.05955	-0.76377	-0.19375	-1.32472
4067.000	-0.98247	-0.74191	-0.21352	-1.32074
4068.000	-0.93306	-0.76579	-0.23131	-1.28296
4069.000	-0.96073	-0.80953	-0.22340	-1.29290
4070.000	-0.98247	-0.71407	-0.19572	-1.27700
4071.000	-0.99631	-0.77373	-0.19770	-1.32074
4072.000	-0.96073	-0.71009	-0.24712	-1.31477
4073.000	-0.98643	-0.74787	-0.21549	-1.30484
4074.000	-0.97457	-0.73793	-0.19968	-1.29887
4075.000	-0.96271	-0.75584	-0.19375	-1.26507
4076.000	-1.01410	-0.73991	-0.23724	-1.30285
4077.000	-0.96469	-0.71009	-0.18781	-1.30086
4078.000	-0.89156	-0.73397	-0.21352	-1.27899
4079.000	-0.93899	-0.69220	-0.21747	-1.26706
4080.000	-0.92516	-0.74391	-0.23724	-1.27898
4081.000	-0.91330	-0.70215	-0.25108	-1.25313
4082.000	-0.94690	-0.77970	-0.24515	-1.27898
4083.000	-0.95678	-0.79760	-0.25899	-1.23524
4084.000	-0.96271	-0.85527	-0.19177	-1.23524
4085.000	-0.94887	-0.76180	-0.30446	-1.18154
4086.000	-0.93504	-0.78766	-0.25503	-1.25512
4087.000	-0.92318	-0.76380	-0.22538	-1.24518
4088.000	-0.97457	-0.75186	-0.23922	-1.19746
4089.000	-0.85993	-0.77575	-0.22538	-1.25512
4090.000	-0.99038	-0.78566	-0.25701	-1.21137
4091.000	-0.98445	-0.77373	-0.24119	-1.23921
4092.000	-0.95678	-0.77970	-0.24317	-1.30284
4093.000	-0.86981	-0.72006	-0.23329	-1.22331
4094.000	-0.95876	-0.75584	-0.24119	-1.24916
4095.000	-1.01410	-0.83537	-0.21154	-1.24916
4096.000	-1.01410	-0.72997	-0.19770	-1.24518
4097.000	-1.02595	-0.81747	-0.18386	-1.25314
4098.000	-0.92516	-0.82744	-0.22933	-1.22728
4099.000	-1.07141	-0.78962	-0.21352	-1.24121
4100.000	-1.00619	-0.75185	-0.22340	-1.22927
4101.000	-0.91527	-0.79562	-0.24317	-1.18155
4102.000	-0.97062	-0.77174	-0.26096	-1.18552
4103.000	-0.91725	-0.84335	-0.27282	-1.21734
4104.000	-0.91923	-0.80557	-0.24515	-1.23325
4105.000	-0.87377	-0.74591	-0.22933	-1.28495
4106.000	-0.91923	-0.80159	-0.26294	-1.20143
4107.000	-0.96271	-0.77970	-0.25701	-1.22132
4108.000	-0.97259	-0.84732	-0.22735	-1.27899
4109.000	-1.04177	-0.84332	-0.23922	-1.17160
4110.000	-0.96469	-0.82345	-0.20561	-1.21138
4111.000	-0.97457	-0.79561	-0.25108	-1.19149
4112.000	-0.98643	-0.74390	-0.24712	-1.22927
4113.000	-0.92911	-0.74590	-0.27282	-1.21933
4114.000	-0.92318	-0.79363	-0.25108	-1.24518
4115.000	-0.85400	-0.77972	-0.23131	-1.24518
4116.000	-0.94295	-0.80158	-0.23329	-1.26308
4117.000	-0.90934	-0.82943	-0.22340	-1.24916
4118.000	-0.88760	-0.82347	-0.28864	-1.20541
4119.000	-0.89353	-0.79960	-0.23724	-1.27103
4120.000	-0.92516	-0.77772	-0.25899	-1.24120
4121.000	-0.94492	-0.74987	-0.30446	-1.22927
4122.000	-0.85400	-0.84337	-0.23922	-1.22331
4123.000	-0.91132	-0.77375	-0.25503	-1.21933
4124.000	-0.81052	-0.79167	-0.28666	-1.23126
4125.000	-0.90342	-0.83739	-0.27282	-1.25711
4126.000	-0.99236	-0.77969	-0.27282	-1.21137
4127.000	-0.95678	-0.76976	-0.29655	-1.21137
4128.000	-0.92120	-0.78767	-0.27876	-1.27500
4129.000	-0.96469	-0.78368	-0.28864	-1.23722
4130.000	-0.91132	-0.75784	-0.32620	-1.16364
4131.000	-0.96864	-0.81947	-0.24317	-1.19746
4132.000	-0.86191	-0.76978	-0.28073	-1.21535
4133.000	-0.95283	-0.84931	-0.26689	-1.27699
4134.000	-0.96864	-0.88113	-0.28073	-1.15569
4135.000	-0.93504	-0.85528	-0.29259	-1.22529
4136.000	-0.88365	-0.85132	-0.27678	-1.16961
4137.000	-0.95480	-0.80556	-0.26492	-1.16763
4138.000	-0.95480	-0.81351	-0.30446	-1.21733
4139.000	-0.89749	-0.76579	-0.31434	-1.20938
4140.000	-0.92516	-0.79562	-0.29259	-1.19944
4141.000	-0.87970	-0.82944	-0.25108	-1.19547
4142.000	-0.95876	-0.79163	-0.26887	-1.25313
4143.000	-0.97457	-0.86720	-0.31039	-1.21535
4144.000	-0.86388	-0.79364	-0.25503	-1.28495
4145.000	-1.08722	-0.76774	-0.31434	-1.21733
4146.000	-0.98050	-0.83737	-0.26294	-1.25711
4147.000	-0.91527	-0.80557	-0.27282	-1.20740
4148.000	-0.84017	-0.79166	-0.28864	-1.21933
4149.000	-0.94690	-0.81351	-0.24515	-1.28296
4150.000	-1.04374	-0.77968	-0.29852	-1.26307
4151.000	-0.84017	-0.88911	-0.26492	-1.23126
4152.000	-0.98643	-0.85328	-0.29259	-1.24518
4153.000	-0.85598	-0.80956	-0.24317	-1.21933
4154.000	-0.90144	-0.82943	-0.27282	-1.25114
4155.000	-0.89749	-0.78767	-0.27876	-1.22529
4156.000	-0.96271	-0.84135	-0.26689	-1.22132
4157.000	-0.94097	-0.80357	-0.26492	-1.22728
4158.000	-0.90144	-0.82745	-0.29259	-1.24518
4159.000	-0.93702	-0.80954	-0.31039	-1.25114
4160.000	-0.95876	-0.85726	-0.24712	-1.25313
4161.000	-0.96666	-0.82942	-0.32027	-1.22131
4162.000	-0.94492	-0.86920	-0.31829	-1.26108
4163.000	-0.94887	-0.87516	-0.29062	-1.25909
4164.000	-0.95678	-0.86522	-0.32225	-1.20540
4165.000	-0.95085	-0.86124	-0.26689	-1.23524
4166.000	-0.94887	-0.84732	-0.27480	-1.27103
4167.000	-0.97852	-0.87118	-0.24515	-1.26109
4168.000	-0.92120	-0.81352	-0.28469	-1.26108
4169.000	-0.94887	-0.81351	-0.31434	-1.19745
4170.000	-0.91330	-0.82943	-0.31632	-1.21336
4171.000	-0.99236	-0.86720	-0.29259	-1.21932
4172.000	-0.95283	-0.85329	-0.26689	-1.27103
4173.000	-0.94690	-0.86124	-0.29062	-1.28097
4174.000	-0.90342	-0.79960	-0.29259	-1.25711
4175.000	-0.86586	-0.85530	-0.29457	-1.21535
4176.000	-0.90144	-0.78568	-0.29655	-1.28494
4177.000	-0.89749	-0.90302	-0.27876	-1.25910
4178.000	-0.98445	-0.84731	-0.28864	-1.30085
4179.000	-1.01014	-0.81549	-0.28666	-1.27699
4180.000	-0.95678	-0.79561	-0.28864	-1.30284
4181.000	-1.02595	-0.84531	-0.23922	-1.27103
4182.000	-0.93504	-0.80556	-0.29259	-1.25909
4183.000	-1.01410	-0.77770	-0.29457	-1.23722
4184.000	-0.94097	-0.92091	-0.27876	-1.27500
4185.000	-0.89353	-0.89506	-0.30248	-1.31079
4186.000	-0.92318	-0.86324	-0.27480	-1.32273
4187.000	-0.96666	-0.84135	-0.31434	-1.25511
4188.000	-0.87179	-0.89308	-0.32225	-1.22728
4189.000	-0.89353	-0.86325	-0.28469	-1.27301
4190.000	-1.00619	-0.85327	-0.26492	-1.26307
4191.000	-0.94097	-0.88710	-0.27480	-1.23126
4192.000	-0.95876	-0.82147	-0.29259	-1.26506
4193.000	-0.94097	-0.83340	-0.30643	-1.25114
4194.000	-0.91923	-0.77176	-0.28073	-1.25711
4195.000	-0.98840	-0.84731	-0.26887	-1.23921
4196.000	-0.96864	-0.87914	-0.29259	-1.24120
4197.000	-0.95876	-0.85726	-0.34004	-1.26704
4198.000	-0.92713	-0.85130	-0.31236	-1.27102
4199.000	-0.87377	-0.87319	-0.31039	-1.25512
4200.000	-0.91527	-0.89108	-0.28469	-1.28494
4201.000	-0.87179	-0.87121	-0.31632	-1.28295
4202.000	-0.93109	-0.77374	-0.27085	-1.29489
4203.000	-0.91923	-0.92290	-0.27876	-1.31278
4204.000	-0.99236	-0.90101	-0.29655	-1.33465
4205.000	-0.92713	-0.85528	-0.32027	-1.31278
4206.000	-0.86191	-0.86524	-0.30643	-1.24120
4207.000	-0.93702	-0.88909	-0.27480	-1.30881
4208.000	-0.94690	-0.86323	-0.28864	-1.30881
4209.000	-0.87772	-0.84734	-0.28469	-1.33267
4210.000	-0.95678	-0.78169	-0.30446	-1.24915
4211.000	-0.87179	-0.87518	-0.31236	-1.29091
4212.000	-0.87377	-0.80160	-0.30248	-1.26307
4213.000	-0.87377	-0.80160	-0.29062	-1.27301
4214.000	-0.95480	-0.91692	-0.25503	-1.28892
4215.000	-0.87772	-0.90501	-0.26887	-1.33068
4216.000	-0.90539	-0.83540	-0.32027	-1.28892
4217.000	-0.94492	-0.91096	-0.29655	-1.33068
4218.000	-0.95085	-0.88710	-0.28271	-1.32074
4219.000	-0.91725	-0.86722	-0.29062	-1.31676
4220.000	-1.00619	-0.79759	-0.26492	-1.29688
4221.000	-0.86191	-0.81751	-0.31632	-1.35056
4222.000	-0.90539	-0.83341	-0.31829	-1.29687
4223.000	-0.89749	-0.79165	-0.31236	-1.27898
4224.000	-0.97654	-0.82743	-0.26492	-1.35454
4225.000	-0.91923	-0.80755	-0.30446	-1.29886
4226.000	-0.96073	-0.85130	-0.27876	-1.32272
4227.000	-0.93109	-0.86324	-0.27085	-1.33863
4228.000	-0.87377	-0.78569	-0.30248	-1.38834
4229.000	-0.87574	-0.76779	-0.27480	-1.36249
4230.000	-0.84017	-0.85729	-0.26096	-1.39232
4231.000	-0.91132	-0.83341	-0.29852	-1.34459
4232.000	-0.89749	-0.75585	-0.29457	-1.36249
4233.000	-0.87574	-0.87717	-0.31236	-1.38237
4234.000	-0.94690	-0.83937	-0.29457	-1.35255
4235.000	-0.89551	-0.88313	-0.30841	-1.37839
4236.000	-0.94492	-0.92488	-0.26096	-1.37840
4237.000	-0.93504	-0.82346	-0.26294	-1.38039
4238.000	-0.85796	-0.80956	-0.27085	-1.36249
4239.000	-0.90737	-0.82347	-0.27876	-1.38039
4240.000	-0.91527	-0.81352	-0.28073	-1.37044
4241.000	-0.94887	-0.83937	-0.27282	-1.31875
4242.000	-0.88563	-0.86921	-0.24317	-1.35454
4243.000	-0.91527	-0.80954	-0.25899	-1.39828
4244.000	-0.91923	-0.84534	-0.29062	-1.32272
4245.000	-0.95480	-0.84931	-0.27678	-1.34659
4246.000	-0.95480	-0.79561	-0.23329	-1.38636
4247.000	-0.91923	-0.86523	-0.23922	-1.41419
4248.000	-0.87970	-0.78767	-0.26294	-1.37243
4249.000	-0.95876	-0.81749	-0.26887	-1.35852
4250.000	-0.96864	-0.79163	-0.27678	-1.40424
4251.000	-0.88760	-0.86722	-0.23131	-1.37641
4252.000	-0.89156	-0.83540	-0.20956	-1.42016
4253.000	-0.94097	-0.83539	-0.23922	-1.38834
4254.000	-0.86191	-0.83342	-0.21945	-1.41817
4255.000	-0.95283	-0.84732	-0.21747	-1.43209
4256.000	-0.90144	-0.82546	-0.21352	-1.40624
4257.000	-0.94097	-0.81153	-0.19375	-1.40226
4258.000	-0.87970	-0.83739	-0.22142	-1.38636
4259.000	-0.88563	-0.82148	-0.20165	-1.34460
4260.000	-0.83226	-0.78172	-0.22933	-1.37443
4261.000	-0.85796	-0.78569	-0.21549	-1.36647
4262.000	-0.84017	-0.74989	-0.24317	-1.37641
4263.000	-0.90342	-0.78568	-0.20363	-1.39431
4264.000	-0.88958	-0.84336	-0.20758	-1.38636
4265.000	-0.90342	-0.80358	-0.21747	-1.34659
4266.000	-0.84610	-0.82348	-0.20363	-1.38636
4267.000	-0.81842	-0.81951	-0.21945	-1.37045
4268.000	-1.02398	-0.87713	-0.19177	-1.40028
4269.000	-0.91132	-0.78170	-0.21352	-1.36647
4270.000	-0.89749	-0.82546	-0.18979	-1.41419
4271.000	-0.92713	-0.80755	-0.16409	-1.41420
4272.000	-0.87377	-0.79563	-0.19177	-1.42016
4273.000	-0.92911	-0.73198	-0.19968	-1.42016
4274.000	-0.87179	-0.81353	-0.17002	-1.38238
4275.000	-0.88563	-0.71607	-0.18584	-1.42414
4276.000	-0.88167	-0.78966	-0.18188	-1.39829
4277.000	-0.80261	-0.68824	-0.23329	-1.36647
4278.000	-0.86586	-0.76182	-0.23131	-1.38834
4279.000	-0.81052	-0.70813	-0.19177	-1.37841
4280.000	-0.83621	-0.72802	-0.21352	-1.37840
4281.000	-0.89156	-0.79165	-0.19770	-1.45396
4282.000	-0.85203	-0.73398	-0.18781	-1.36449
4283.000	-0.82238	-0.75189	-0.17595	-1.41022
4284.000	-0.87179	-0.77972	-0.18781	-1.41618
4285.000	-0.92516	-0.78369	-0.20561	-1.38039
4286.000	-0.80854	-0.75189	-0.15816	-1.39233
4287.000	-0.84017	-0.72802	-0.18584	-1.34461
4288.000	-0.84017	-0.78172	-0.20956	-1.38835
4289.000	-0.89551	-0.71408	-0.17793	-1.38040
4290.000	-0.86191	-0.74591	-0.22735	-1.37443
4291.000	-0.81842	-0.80360	-0.19572	-1.41618
4292.000	-0.89353	-0.76182	-0.17398	-1.35256
4293.000	-0.86784	-0.72006	-0.23526	-1.38636
4294.000	-0.87179	-0.80756	-0.17200	-1.39829
4295.000	-0.94492	-0.75982	-0.20561	-1.38636
4296.000	-0.91725	-0.76380	-0.18781	-1.39232
4297.000	-0.80656	-0.70217	-0.24910	-1.37244
4298.000	-0.87377	-0.71011	-0.18781	-1.37841
4299.000	-0.86388	-0.70017	-0.20758	-1.37244
4300.000	-0.84214	-0.71210	-0.21747	-1.31875
4301.000	-0.89749	-0.72801	-0.21154	-1.33068
4302.000	-0.83621	-0.73398	-0.20758	-1.31279
4303.000	-0.82040	-0.71808	-0.18188	-1.29887
4304.000	-0.91132	-0.73994	-0.22538	-1.30086
4305.000	-0.87772	-0.73199	-0.21352	-1.32870
4306.000	-0.85598	-0.69221	-0.18584	-1.31279
4307.000	-0.80261	-0.74990	-0.24712	-1.29290
4308.000	-0.80854	-0.73996	-0.22142	-1.29092
4309.000	-0.85203	-0.70415	-0.20363	-1.30285
4310.000	-0.87970	-0.74790	-0.23526	-1.30086
4311.000	-0.84017	-0.76779	-0.25305	-1.29091
4312.000	-0.87574	-0.72602	-0.22933	-1.32671
4313.000	-0.87179	-0.74591	-0.22735	-1.34460
4314.000	-0.88563	-0.72005	-0.18781	-1.29291
4315.000	-0.84412	-0.76183	-0.17200	-1.31279
4316.000	-0.86981	-0.74790	-0.18386	-1.29291
4317.000	-0.87970	-0.70613	-0.15421	-1.34063
4318.000	-0.92516	-0.73198	-0.18386	-1.33268
4319.000	-0.91132	-0.72601	-0.17398	-1.28297
4320.000	-0.84412	-0.74194	-0.12455	-1.30285
4321.000	-0.92713	-0.71010	-0.16409	-1.31478
4322.000	-0.89156	-0.68425	-0.20165	-1.30881
4323.000	-0.95480	-0.71407	-0.14037	-1.32870
4324.000	-0.88958	-0.67033	-0.16014	-1.28893
4325.000	-0.93899	-0.69220	-0.13246	-1.29092
4326.000	-1.00619	-0.72400	-0.15421	-1.29291
4327.000	-0.96469	-0.72998	-0.14037	-1.31081
4328.000	-0.91725	-0.67828	-0.13641	-1.28496
4329.000	-0.95085	-0.71009	-0.11071	-1.30683
4330.000	-0.88365	-0.69420	-0.07117	-1.29291
4331.000	-0.87179	-0.78966	-0.08699	-1.27104
4332.000	-0.90539	-0.66038	-0.09094	-1.22133
4333.000	-0.88958	-0.69618	-0.10874	-1.27303
4334.000	-0.85796	-0.67829	-0.12653	-1.33864
4335.000	-0.82831	-0.75387	-0.09490	-1.31677
4336.000	-0.88167	-0.69619	-0.14827	-1.34461
4337.000	-0.89353	-0.74591	-0.12060	-1.32473
4338.000	-0.94097	-0.69419	-0.09292	-1.34262
4339.000	-0.96271	-0.76976	-0.16607	-1.31478
4340.000	-0.87377	-0.66635	-0.08303	-1.37245
4341.000	-0.91330	-0.69618	-0.10083	-1.35455
4342.000	-0.87574	-0.68823	-0.09490	-1.30484
4343.000	-0.96469	-0.72799	-0.09292	-1.29888
4344.000	-0.93899	-0.65839	-0.08303	-1.27104
4345.000	-0.90342	-0.66436	-0.08303	-1.31479
4346.000	-0.93504	-0.66435	-0.11269	-1.31677
4347.000	-0.96271	-0.66634	-0.10676	-1.28098
4348.000	-0.89551	-0.71806	-0.12455	-1.30683
4349.000	-0.89353	-0.69618	-0.11269	-1.32075
4350.000	-0.90934	-0.69220	-0.13048	-1.26308
4351.000	-0.90737	-0.74988	-0.06326	-1.34859
4352.000	-0.88563	-0.65243	-0.12455	-1.31876
4353.000	-1.01805	-0.66434	-0.12455	-1.31280
4354.000	-0.92713	-0.66237	-0.11071	-1.36052
4355.000	-0.91132	-0.67828	-0.11467	-1.32671
4356.000	-1.04769	-0.77173	-0.13246	-1.32870
4357.000	-0.96666	-0.74589	-0.10083	-1.33865
4358.000	-0.91527	-0.69419	-0.13641	-1.30285
4359.000	-0.90737	-0.69021	-0.13444	-1.36449
4360.000	-0.88365	-0.61862	-0.12455	-1.37443
4361.000	-0.88958	-0.73198	-0.13641	-1.30484
4362.000	-0.91527	-0.70016	-0.14432	-1.32671
4363.000	-0.92911	-0.71607	-0.13839	-1.33069
4364.000	-0.90144	-0.64248	-0.12850	-1.35654
4365.000	-0.86981	-0.73000	-0.16014	-1.35455
4366.000	-0.87970	-0.65641	-0.16607	-1.32075
4367.000	-1.01014	-0.69019	-0.14827	-1.37244
4368.000	-0.95480	-0.64048	-0.14827	-1.31478
4369.000	-0.96271	-0.74390	-0.17595	-1.28297
4370.000	-0.90737	-0.71209	-0.14827	-1.32870
4371.000	-0.92318	-0.66634	-0.17002	-1.29689
4372.000	-0.99829	-0.68025	-0.13641	-1.33467
4373.000	-1.01014	-0.65042	-0.15618	-1.33268
4374.000	-0.91132	-0.64049	-0.18979	-1.31080
4375.000	-0.92318	-0.62657	-0.15618	-1.32274
4376.000	-0.87970	-0.61464	-0.16607	-1.31876
4377.000	-1.03188	-0.74588	-0.16211	-1.30882
4378.000	-0.94097	-0.62855	-0.17002	-1.31876
4379.000	-0.94887	-0.66833	-0.13048	-1.29490
4380.000	-0.94887	-0.60866	-0.17398	-1.33069
4381.000	-0.86784	-0.70414	-0.14037	-1.33069
4382.000	-0.91330	-0.64248	-0.14234	-1.34858
4383.000	-0.93504	-0.69220	-0.11664	-1.36052
4384.000	-0.87377	-0.73000	-0.10676	-1.33268
4385.000	-0.90539	-0.70812	-0.11071	-1.33467
4386.000	-0.91330	-0.69419	-0.09490	-1.36052
4387.000	-0.93702	-0.65441	-0.08699	-1.33268
4388.000	-0.86388	-0.71210	-0.09885	-1.31876
4389.000	-0.93899	-0.70612	-0.10280	-1.37245
4390.000	-0.95283	-0.62656	-0.11269	-1.33268
4391.000	-0.94295	-0.69617	-0.09094	-1.35058
4392.000	-0.90144	-0.67430	-0.09885	-1.29291
4393.000	-0.89353	-0.58083	-0.09885	-1.28894
4394.000	-0.98445	-0.64247	-0.10280	-1.28098
4395.000	-0.91132	-0.64646	-0.10478	-1.28098
4396.000	-0.95283	-0.61861	-0.06129	-1.31479
4397.000	-0.90539	-0.68226	-0.13246	-1.21138
4398.000	-0.90539	-0.62259	-0.08303	-1.33467
4399.000	-0.98643	-0.66832	-0.10083	-1.25513
4400.000	-0.95678	-0.67628	-0.11071	-1.29490
4401.000	-0.99236	-0.65838	-0.08501	-1.29092
4402.000	-0.93109	-0.64844	-0.06722	-1.29291
4403.000	-0.93702	-0.67430	-0.04152	-1.28496
4404.000	-0.92516	-0.61861	-0.04349	-1.28098
4405.000	-1.02991	-0.60666	-0.04547	-1.26309
4406.000	-0.95283	-0.60667	-0.07710	-1.23724
4407.000	-0.98840	-0.60667	-0.06722	-1.25314
4408.000	-0.95678	-0.61463	-0.07513	-1.24718
4409.000	-0.90934	-0.62657	-0.08303	-1.25116
4410.000	-0.95283	-0.64247	-0.09490	-1.23525
4411.000	-0.87772	-0.60271	-0.07908	-1.24320
4412.000	-0.86388	-0.57486	-0.05733	-1.27303
4413.000	-0.91527	-0.60270	-0.07315	-1.28894
4414.000	-0.99433	-0.61860	-0.03756	-1.28496
4415.000	-0.92911	-0.64844	-0.04349	-1.28496
4416.000	-0.99631	-0.62655	-0.04547	-1.29490
4417.000	-0.94295	-0.63253	-0.07315	-1.28098
4418.000	-0.91923	-0.61066	-0.08501	-1.25314
4419.000	-0.96073	-0.64446	-0.01779	-1.26110
4420.000	-1.02200	-0.64843	-0.05931	-1.27502
4421.000	-0.99038	-0.60468	-0.08303	-1.21934
4422.000	-0.93504	-0.64248	-0.07117	-1.22332
4423.000	-1.05165	-0.54102	-0.07315	-1.25513
4424.000	-1.08129	-0.60665	-0.12455	-1.21138
4425.000	-0.95678	-0.65242	-0.10874	-1.19746
4426.000	-1.03188	-0.67229	-0.09885	-1.24121
4427.000	-0.97852	-0.67827	-0.09292	-1.22133
4428.000	-1.02793	-0.64644	-0.09094	-1.29689
4429.000	-1.06548	-0.62455	-0.11269	-1.23525
4430.000	-0.98643	-0.62258	-0.12653	-1.23127
4431.000	-0.94295	-0.66236	-0.11269	-1.26905
4432.000	-0.98247	-0.61462	-0.11071	-1.22530
4433.000	-0.99038	-0.64445	-0.11664	-1.20542
4434.000	-1.05955	-0.68621	-0.13246	-1.23326
4435.000	-1.00421	-0.63650	-0.13048	-1.18354
4436.000	-1.06746	-0.63449	-0.10280	-1.18553
4437.000	-1.04177	-0.64047	-0.12653	-1.25911
4438.000	-1.01212	-0.62058	-0.14037	-1.20939
4439.000	-0.98050	-0.64247	-0.12455	-1.24519
4440.000	-0.96271	-0.64645	-0.13641	-1.24519
4441.000	-0.89353	-0.64447	-0.19375	-1.21933
4442.000	-0.99631	-0.60666	-0.13839	-1.24121
4443.000	-1.02595	-0.59870	-0.15025	-1.21735
4444.000	-0.93306	-0.67231	-0.14827	-1.17758
4445.000	-0.95085	-0.62059	-0.17002	-1.25115
4446.000	-0.92713	-0.59474	-0.13444	-1.15968
4447.000	-0.97852	-0.66435	-0.13246	-1.21934
4448.000	-1.03584	-0.60467	-0.09885	-1.20741
4449.000	-0.99236	-0.68821	-0.13444	-1.26706
4450.000	-1.02003	-0.65837	-0.15421	-1.23127
4451.000	-0.91132	-0.75187	-0.09292	-1.21934
4452.000	-0.93306	-0.65043	-0.07315	-1.22729
4453.000	-0.90144	-0.61066	-0.13641	-1.25712
4454.000	-0.98840	-0.64843	-0.12060	-1.28496
4455.000	-0.95085	-0.65838	-0.11862	-1.23525
4456.000	-0.89156	-0.63453	-0.11269	-1.23525
4457.000	-0.90539	-0.59077	-0.14432	-1.21934
4458.000	-0.89353	-0.62458	-0.11862	-1.26905
4459.000	-0.91923	-0.57684	-0.13246	-1.23723
4460.000	-0.97062	-0.64446	-0.07513	-1.28098
4461.000	-0.94690	-0.59673	-0.13246	-1.23127
4462.000	-0.87772	-0.56293	-0.08897	-1.28098
4463.000	-0.89551	-0.61265	-0.14037	-1.27303
4464.000	-0.96271	-0.55496	-0.13641	-1.23525
4465.000	-1.00026	-0.54302	-0.07117	-1.26706
4466.000	-0.99631	-0.63451	-0.09094	-1.27104
4467.000	-0.97062	-0.56689	-0.06524	-1.25513
4468.000	-0.90342	-0.61464	-0.09885	-1.21735
4469.000	-0.94097	-0.61065	-0.12455	-1.22530
4470.000	-0.95085	-0.54899	-0.06524	-1.21337
4471.000	-0.94097	-0.54899	-0.08303	-1.21139
4472.000	-0.97457	-0.53705	-0.04943	-1.22928
4473.000	-0.92713	-0.63054	-0.07908	-1.22332
4474.000	-0.93702	-0.57286	-0.06722	-1.24917
4475.000	-0.92318	-0.53110	-0.04152	-1.22332
