time (ms)	lx (deg)	ly (deg)	rx (deg)	ry (deg)
0.000	0.96864	-0.44755	0.59703	-1.10593
1.000	0.97852	-0.52512	0.60099	-1.12383
2.000	0.96666	-0.50125	0.51401	-1.11987
3.000	0.91330	-0.48535	0.53971	-1.08208
4.000	0.95876	-0.49927	0.54366	-1.12384
5.000	0.97852	-0.49131	0.57529	-1.09400
6.000	0.98247	-0.53109	0.56540	-1.11389
7.000	0.96666	-0.50125	0.57924	-1.13377
8.000	0.96271	-0.56689	0.58715	-1.09997
9.000	0.96864	-0.50324	0.56936	-1.08008
10.000	0.92516	-0.48734	0.56343	-1.10594
11.000	0.97259	-0.49728	0.52389	-1.08009
12.000	1.00421	-0.47340	0.55947	-1.11389
13.000	0.95678	-0.44755	0.57924	-1.07412
14.000	0.99631	-0.47738	0.51203	-1.10595
15.000	0.93899	-0.45352	0.56738	-1.04429
16.000	0.95678	-0.54501	0.59506	-1.05423
17.000	0.98445	-0.54302	0.53575	-1.08208
18.000	0.94887	-0.51319	0.55947	-1.08804
19.000	1.03386	-0.51318	0.58320	-1.03633
20.000	1.02398	-0.47141	0.56145	-1.07412
21.000	0.95876	-0.47739	0.57331	-1.07014
22.000	0.98643	-0.46346	0.58715	-1.08406
23.000	0.91527	-0.50126	0.56145	-1.09599
24.000	0.97457	-0.45749	0.54564	-1.08009
25.000	1.01212	-0.52313	0.56540	-1.02042
26.000	0.98643	-0.43164	0.57331	-1.03633
27.000	1.02595	-0.44953	0.54761	-1.03236
28.000	1.02793	-0.45351	0.54761	-1.10793
29.000	0.98840	-0.45550	0.55947	-1.07412
30.000	1.04967	-0.46942	0.56145	-1.06815
31.000	0.97457	-0.44556	0.53773	-1.02838
32.000	0.95283	-0.52910	0.56936	-1.03633
33.000	1.02200	-0.50323	0.56540	-1.03037
34.000	1.04177	-0.44953	0.53575	-1.07412
35.000	0.93899	-0.47739	0.51005	-1.05623
36.000	0.94295	-0.51717	0.52389	-1.04628
37.000	0.96271	-0.55297	0.54761	-1.01844
38.000	0.96666	-0.41175	0.54564	-1.03435
39.000	0.96666	-0.48932	0.52191	-1.04827
40.000	0.94295	-0.47739	0.53378	-1.04827
41.000	0.95085	-0.45750	0.58122	-1.00849
42.000	0.89551	-0.48734	0.56540	-1.06417
43.000	0.94492	-0.47938	0.54959	-1.04230
44.000	1.01014	-0.43760	0.55552	-1.02639
45.000	0.92318	-0.47341	0.56343	-1.04031
46.000	0.99631	-0.47539	0.57924	-1.09002
47.000	0.99829	-0.44556	0.53378	-0.98861
48.000	0.95480	-0.52910	0.55947	-1.03037
49.000	0.96073	-0.49529	0.56343	-1.04429
50.000	0.93899	-0.44159	0.54564	-1.08208
51.000	1.03781	-0.49727	0.53575	-1.01844
52.000	0.97852	-0.46744	0.53773	-1.08407
53.000	1.00421	-0.45749	0.53378	-1.05821
54.000	1.03386	-0.43362	0.53773	-1.02441
55.000	1.05955	-0.44953	0.53378	-1.02043
56.000	0.94097	-0.50126	0.54959	-1.02241
57.000	0.98247	-0.41373	0.58517	-1.02440
58.000	1.01014	-0.51318	0.56343	-0.99656
59.000	0.94690	-0.43164	0.56540	-0.99457
60.000	1.00026	-0.40777	0.52191	-0.99259
61.000	1.00619	-0.45351	0.55947	-0.98662
62.000	0.98643	-0.43760	0.53378	-1.02441
63.000	1.02398	-0.42964	0.54959	-0.99656
64.000	1.06943	-0.44356	0.51401	-1.05822
65.000	1.04177	-0.39384	0.54168	-1.03833
66.000	1.01805	-0.45948	0.51203	-1.00452
67.000	1.01805	-0.48732	0.57727	-1.06019
68.000	0.94492	-0.49330	0.58122	-1.05025
69.000	0.99631	-0.47539	0.56343	-1.04628
70.000	1.03386	-0.46345	0.53773	-1.04032
71.000	0.97457	-0.45153	0.51796	-1.05822
72.000	1.02200	-0.41174	0.53575	-1.06219
73.000	0.98840	-0.36799	0.52784	-1.06617
74.000	1.06943	-0.44356	0.54168	-1.06020
75.000	1.05165	-0.47936	0.55947	-1.06020
76.000	0.97654	-0.42368	0.51005	-1.00253
77.000	1.06746	-0.39781	0.53773	-1.00850
78.000	1.07141	-0.43759	0.54168	-0.96872
79.000	1.01014	-0.39384	0.56540	-1.03037
80.000	1.05758	-0.43163	0.54564	-1.04429
81.000	1.01805	-0.42765	0.52191	-1.02043
82.000	0.99433	-0.46346	0.53773	-0.97270
83.000	0.98643	-0.36003	0.57924	-1.00650
84.000	0.99038	-0.39384	0.59703	-1.00650
85.000	1.01014	-0.45152	0.55552	-1.01446
86.000	1.04572	-0.41572	0.54761	-0.97667
87.000	1.01410	-0.36997	0.55354	-0.96872
88.000	1.01212	-0.35406	0.52587	-1.02242
89.000	1.01212	-0.44158	0.53971	-0.98264
90.000	1.02991	-0.40776	0.55354	-1.01048
91.000	1.00224	-0.39384	0.52587	-0.98066
92.000	1.08327	-0.40775	0.51598	-0.98066
93.000	1.07734	-0.36798	0.52784	-0.95480
94.000	0.95678	-0.37992	0.53971	-0.99855
95.000	1.02595	-0.42367	0.56343	-0.95877
96.000	1.01014	-0.42765	0.53773	-0.94883
97.000	1.04177	-0.36599	0.51401	-0.96674
98.000	1.01212	-0.38986	0.54959	-0.95877
99.000	1.00619	-0.34610	0.57331	-0.94684
100.000	1.01212	-0.33616	0.55947	-0.97866
101.000	0.99433	-0.34611	0.54761	-0.96076
102.000	1.08129	-0.37792	0.50412	-0.89514
103.000	1.06153	-0.34610	0.56145	-0.92297
104.000	1.02595	-0.34411	0.49622	-0.94287
105.000	1.04177	-0.38190	0.54564	-0.99457
106.000	1.00421	-0.37395	0.55552	-0.95082
107.000	0.99433	-0.36997	0.52784	-0.91502
108.000	1.03386	-0.38389	0.53773	-0.97469
109.000	1.00421	-0.33218	0.56936	-0.97269
110.000	1.00619	-0.36401	0.54168	-0.93093
111.000	1.02793	-0.36400	0.52982	-0.95679
112.000	1.14256	-0.35007	0.57331	-0.96474
113.000	1.07141	-0.37792	0.54564	-0.96474
114.000	0.98247	-0.34810	0.51203	-0.90906
115.000	1.00224	-0.35008	0.55354	-0.95480
116.000	1.05955	-0.32820	0.54761	-0.93093
117.000	1.03979	-0.39980	0.56936	-0.97866
118.000	0.93504	-0.32025	0.54168	-0.98065
119.000	1.07141	-0.34610	0.51005	-0.98662
120.000	0.92713	-0.37794	0.52191	-0.96077
121.000	1.09908	-0.30631	0.53773	-0.95082
122.000	1.02003	-0.34212	0.52389	-0.96276
123.000	1.06943	-0.34809	0.50215	-0.97469
124.000	1.07932	-0.35405	0.52389	-0.90309
125.000	1.10303	-0.33217	0.52389	-0.95281
126.000	1.04967	-0.32024	0.53575	-0.91105
127.000	1.05758	-0.33615	0.53773	-0.96077
128.000	0.99829	-0.28047	0.52389	-0.96475
129.000	1.00619	-0.32621	0.51796	-0.96276
130.000	1.03188	-0.35406	0.54564	-0.95480
131.000	1.08524	-0.33814	0.56540	-0.94485
132.000	0.99631	-0.38191	0.56936	-0.94485
133.000	1.04967	-0.32422	0.51796	-0.93293
134.000	1.01805	-0.40975	0.57727	-0.95877
135.000	0.99829	-0.37992	0.55750	-0.92894
136.000	1.04967	-0.34013	0.51796	-0.91304
137.000	1.08327	-0.35803	0.51203	-0.95083
138.000	1.02003	-0.34809	0.57924	-0.95678
139.000	1.01212	-0.33417	0.53971	-0.88519
140.000	1.01607	-0.27450	0.51203	-0.92099
141.000	1.06153	-0.31228	0.53773	-0.94486
142.000	1.06943	-0.33814	0.52982	-0.90508
143.000	0.99631	-0.35406	0.55750	-0.90508
144.000	1.02991	-0.29836	0.50215	-0.93889
145.000	1.05955	-0.23471	0.54761	-0.91104
146.000	1.02200	-0.34610	0.55750	-0.94883
147.000	1.06548	-0.31825	0.51994	-0.90906
148.000	1.04374	-0.29240	0.54761	-0.93690
149.000	1.01014	-0.31428	0.50215	-0.89315
150.000	1.09908	-0.31427	0.53180	-0.93889
151.000	1.03188	-0.30234	0.46854	-0.84940
152.000	1.04572	-0.32223	0.51994	-0.90309
153.000	0.96666	-0.33815	0.55354	-0.91104
154.000	0.95876	-0.32622	0.52389	-0.89315
155.000	1.03188	-0.27847	0.50610	-0.91901
156.000	1.01410	-0.26654	0.55750	-0.92894
157.000	0.98247	-0.32224	0.55354	-0.90110
158.000	1.04572	-0.26057	0.54564	-0.91303
159.000	1.06746	-0.30632	0.53180	-0.85138
160.000	1.06943	-0.23073	0.50808	-0.90309
161.000	1.04374	-0.29439	0.50017	-0.89713
162.000	1.09513	-0.25261	0.54168	-0.89513
163.000	1.02991	-0.27450	0.55157	-0.90508
164.000	1.05955	-0.33218	0.49028	-0.91503
165.000	0.98445	-0.28445	0.53575	-0.89911
166.000	1.05955	-0.33218	0.48435	-0.88520
167.000	0.99829	-0.31428	0.46261	-0.87327
168.000	1.05955	-0.25460	0.52784	-0.89911
169.000	1.03584	-0.24864	0.50017	-0.88122
170.000	1.02793	-0.30831	0.54564	-0.92298
171.000	0.99038	-0.28842	0.54168	-0.88121
172.000	1.01410	-0.25461	0.56540	-0.88916
173.000	0.98247	-0.25262	0.50215	-0.85934
174.000	1.06548	-0.28245	0.54959	-0.92497
175.000	1.01410	-0.29439	0.50808	-0.89116
176.000	1.03781	-0.35804	0.54564	-0.88320
177.000	1.07734	-0.24068	0.51598	-0.90508
178.000	1.06153	-0.29438	0.47052	-0.90310
179.000	1.04769	-0.27847	0.53378	-0.86729
180.000	1.05955	-0.29637	0.50412	-0.85735
181.000	1.05362	-0.28842	0.50017	-0.85337
182.000	1.00619	-0.24864	0.49226	-0.87127
183.000	0.98840	-0.23273	0.48633	-0.87724
184.000	1.08920	-0.28841	0.51796	-0.83746
185.000	1.08129	-0.24466	0.52784	-0.86132
186.000	1.08327	-0.23670	0.51005	-0.84542
187.000	1.03188	-0.25063	0.51994	-0.86729
188.000	1.02991	-0.24267	0.51994	-0.90707
189.000	1.03781	-0.24267	0.52389	-0.89514
190.000	1.06351	-0.36798	0.50215	-0.89116
191.000	1.04374	-0.24267	0.49819	-0.87525
192.000	1.02991	-0.25262	0.49819	-0.87326
193.000	1.00817	-0.22477	0.50215	-0.87923
194.000	1.09117	-0.25261	0.46656	-0.84741
195.000	1.04374	-0.23272	0.49226	-0.88321
196.000	1.03979	-0.29637	0.48238	-0.89514
197.000	1.12082	-0.25062	0.50412	-0.83945
198.000	1.01410	-0.23273	0.52982	-0.88917
199.000	1.02991	-0.30234	0.53575	-0.90309
200.000	0.98050	-0.28445	0.52982	-0.85934
201.000	1.10106	-0.21880	0.48238	-0.86332
202.000	1.04572	-0.26256	0.51994	-0.85536
203.000	0.95085	-0.26854	0.50017	-0.88122
204.000	1.06746	-0.21880	0.46656	-0.84343
205.000	1.02398	-0.21880	0.43493	-0.86730
206.000	1.07734	-0.29836	0.44086	-0.86730
207.000	1.05758	-0.20687	0.46261	-0.91106
208.000	1.02200	-0.27649	0.45668	-0.84144
209.000	0.98445	-0.27052	0.47645	-0.82155
210.000	1.02398	-0.17305	0.45668	-0.83349
211.000	1.05165	-0.18697	0.49226	-0.83547
212.000	1.07141	-0.23073	0.49226	-0.80962
213.000	1.09513	-0.24664	0.47645	-0.88122
214.000	1.04177	-0.25858	0.50610	-0.84343
215.000	1.02793	-0.22875	0.49226	-0.82553
216.000	1.04177	-0.18896	0.45470	-0.84542
217.000	1.04572	-0.23869	0.44679	-0.83349
218.000	1.05362	-0.23471	0.47447	-0.85338
219.000	1.03584	-0.19692	0.48238	-0.85139
220.000	0.99433	-0.21085	0.43493	-0.87526
221.000	1.01410	-0.26057	0.43493	-0.85736
222.000	1.01607	-0.22477	0.43493	-0.80763
223.000	1.03386	-0.20687	0.48633	-0.86929
224.000	1.06351	-0.20885	0.43889	-0.81559
225.000	0.94097	-0.29837	0.48040	-0.84741
226.000	1.01212	-0.26853	0.49226	-0.83348
227.000	0.98445	-0.24864	0.48633	-0.80763
228.000	1.02200	-0.18698	0.46656	-0.78575
229.000	1.01805	-0.22676	0.42307	-0.85338
230.000	0.97259	-0.18101	0.48040	-0.80365
231.000	1.00817	-0.25262	0.49028	-0.85735
232.000	1.02200	-0.24864	0.46063	-0.78575
233.000	1.04177	-0.28444	0.43296	-0.80366
234.000	0.95876	-0.24665	0.40726	-0.81957
235.000	1.07734	-0.20885	0.46063	-0.81758
236.000	1.00224	-0.21284	0.45470	-0.85338
237.000	1.02398	-0.21482	0.43691	-0.79968
238.000	1.03781	-0.20687	0.42900	-0.82554
239.000	1.02003	-0.23472	0.46261	-0.81758
240.000	1.00224	-0.26256	0.47842	-0.78774
241.000	1.00224	-0.24466	0.44284	-0.80962
242.000	0.98050	-0.24665	0.45668	-0.82752
243.000	1.04177	-0.22278	0.48040	-0.86929
244.000	1.05560	-0.21681	0.45865	-0.77979
245.000	0.97062	-0.23671	0.44086	-0.80564
246.000	1.01805	-0.20090	0.42900	-0.82951
247.000	0.97654	-0.23671	0.43889	-0.84940
248.000	0.96271	-0.23074	0.46854	-0.82354
249.000	1.05955	-0.26256	0.40923	-0.79570
250.000	1.02200	-0.17106	0.43296	-0.83946
251.000	1.05955	-0.16907	0.44679	-0.80962
252.000	1.02200	-0.15714	0.37563	-0.82156
253.000	1.09315	-0.26057	0.39737	-0.76786
254.000	1.02003	-0.18300	0.41912	-0.78775
255.000	1.00817	-0.16908	0.44086	-0.78576
256.000	1.04967	-0.13725	0.48435	-0.79768
257.000	1.00619	-0.20488	0.45865	-0.78973
258.000	1.04177	-0.19493	0.44482	-0.78178
259.000	1.01607	-0.19891	0.43493	-0.81758
260.000	1.05955	-0.14123	0.46261	-0.80166
261.000	1.00026	-0.18300	0.43691	-0.82752
262.000	0.97852	-0.23074	0.43889	-0.78576
263.000	1.01014	-0.23273	0.44086	-0.78973
264.000	1.04769	-0.19692	0.46459	-0.77979
265.000	0.99829	-0.19692	0.41319	-0.79769
266.000	1.03386	-0.19095	0.40330	-0.81162
267.000	0.97062	-0.20488	0.41121	-0.76189
268.000	1.04177	-0.21880	0.40330	-0.78974
269.000	0.97259	-0.17703	0.40330	-0.76587
270.000	1.03386	-0.13924	0.42109	-0.80565
271.000	1.00817	-0.17305	0.45075	-0.82156
272.000	1.05560	-0.18896	0.38749	-0.80963
273.000	1.02003	-0.22676	0.41121	-0.77382
274.000	1.04572	-0.13725	0.42109	-0.77979
275.000	1.04967	-0.19493	0.43889	-0.80366
276.000	1.09117	-0.13924	0.42307	-0.78178
277.000	1.03781	-0.21880	0.39935	-0.77581
278.000	1.06943	-0.19891	0.41912	-0.80963
279.000	0.97457	-0.16311	0.34399	-0.76786
280.000	1.06746	-0.25659	0.39935	-0.77581
281.000	1.00619	-0.18300	0.38353	-0.74399
282.000	1.01805	-0.21085	0.34597	-0.76587
283.000	1.00817	-0.20886	0.37365	-0.76786
284.000	0.96073	-0.21881	0.41121	-0.77382
285.000	1.03584	-0.17106	0.39342	-0.79372
286.000	1.05362	-0.16311	0.41516	-0.80963
287.000	0.98445	-0.21880	0.38749	-0.77979
288.000	0.99038	-0.19493	0.42505	-0.73603
289.000	0.97852	-0.18101	0.41714	-0.76388
290.000	0.99829	-0.16908	0.41121	-0.74200
291.000	0.98247	-0.16311	0.41121	-0.74200
292.000	1.05758	-0.17703	0.43098	-0.74001
293.000	1.08722	-0.09746	0.38156	-0.75593
294.000	1.03979	-0.17106	0.34004	-0.72808
295.000	1.00619	-0.17902	0.39144	-0.76985
296.000	0.94492	-0.19693	0.34597	-0.74797
297.000	1.03188	-0.17703	0.35388	-0.75195
298.000	1.01014	-0.16709	0.38749	-0.73802
299.000	1.03979	-0.17703	0.40528	-0.76985
300.000	1.02398	-0.13725	0.36969	-0.73007
301.000	0.97654	-0.16311	0.35783	-0.80565
302.000	1.00817	-0.20488	0.40330	-0.76786
303.000	1.07734	-0.17305	0.42702	-0.75194
304.000	1.07339	-0.17305	0.40133	-0.75592
305.000	1.01607	-0.17106	0.42702	-0.77581
306.000	1.05165	-0.18101	0.41516	-0.73603
307.000	0.97259	-0.19295	0.35981	-0.79969
308.000	0.96666	-0.20488	0.37563	-0.76189
309.000	1.00619	-0.15117	0.35783	-0.74598
310.000	1.06351	-0.08553	0.35388	-0.73007
311.000	1.03386	-0.13128	0.38156	-0.74996
312.000	1.02991	-0.11935	0.37958	-0.74200
313.000	0.95480	-0.16510	0.40528	-0.75393
314.000	1.01212	-0.15714	0.40726	-0.76388
315.000	0.99631	-0.21284	0.39737	-0.74001
316.000	0.92318	-0.16510	0.36574	-0.68233
317.000	0.97852	-0.12532	0.38156	-0.72410
318.000	1.04177	-0.17305	0.36376	-0.74996
319.000	0.99433	-0.10542	0.36772	-0.77184
320.000	1.02398	-0.09349	0.33806	-0.69626
321.000	0.93109	-0.18101	0.34202	-0.67438
322.000	0.89353	-0.13725	0.29852	-0.72411
323.000	0.80854	-0.13726	0.30446	-0.71615
324.000	0.71959	-0.12334	0.19375	-0.65847
325.000	0.64052	-0.04178	0.12257	-0.62466
326.000	0.55552	0.00796	-0.05536	-0.58885
327.000	0.45865	0.01989	-0.13444	-0.56498
328.000	0.41516	0.08554	-0.15618	-0.49337
329.000	0.36179	0.13926	-0.31434	-0.42374
330.000	0.28469	0.18501	-0.31236	-0.34814
331.000	0.15816	0.21685	-0.36772	-0.32626
332.000	0.18781	0.19695	-0.34597	-0.28846
333.000	0.17002	0.27852	-0.37760	-0.26260
334.000	0.20363	0.23077	-0.33609	-0.21088
335.000	0.24712	0.25663	-0.24910	-0.27255
336.000	0.30446	0.22281	-0.20165	-0.21088
337.000	0.46656	0.19695	-0.20561	-0.21287
338.000	0.48435	0.22480	-0.15025	-0.21088
339.000	0.53180	0.23275	-0.08699	-0.22679
340.000	0.60494	0.16312	-0.04349	-0.26061
341.000	0.60494	0.13527	-0.00198	-0.26260
342.000	0.61087	0.16511	-0.00989	-0.30836
343.000	0.63459	0.13129	0.03954	-0.33024
344.000	0.67808	0.10344	0.03559	-0.36406
345.000	0.68796	0.06366	0.02372	-0.36804
346.000	0.64448	0.14522	0.02372	-0.38197
347.000	0.68401	0.11936	0.00593	-0.41777
348.000	0.61680	0.12732	0.01186	-0.39788
349.000	0.62668	0.11936	0.03361	-0.44364
350.000	0.57133	0.11936	0.04349	-0.46751
351.000	0.58517	0.07162	0.02570	-0.43767
352.000	0.60494	0.11936	-0.00198	-0.41181
353.000	0.63064	0.12732	-0.02175	-0.45557
354.000	0.56738	0.08952	-0.04943	-0.41976
355.000	0.55750	0.11140	0.00791	-0.43767
356.000	0.63855	0.13726	-0.05536	-0.42175
357.000	0.60296	0.10344	-0.04943	-0.42971
358.000	0.60099	0.07559	-0.03163	-0.42573
359.000	0.56540	0.15119	-0.03756	-0.40982
360.000	0.53180	0.08753	-0.06722	-0.39589
361.000	0.60296	0.07559	-0.07513	-0.42175
362.000	0.64843	0.13726	-0.05338	-0.41181
363.000	0.64052	0.15716	-0.07710	-0.41578
364.000	0.56540	0.10345	-0.08699	-0.38793
365.000	0.58913	0.15915	-0.09094	-0.41777
366.000	0.49226	0.15119	-0.08303	-0.42374
367.000	0.53971	0.13528	-0.06722	-0.40982
368.000	0.56343	0.11936	-0.04745	-0.40186
369.000	0.56145	0.15716	-0.09687	-0.37600
370.000	0.51796	0.13528	-0.08303	-0.39589
371.000	0.55157	0.16114	-0.06129	-0.38793
372.000	0.56145	0.16313	-0.05140	-0.37202
373.000	0.54366	0.16909	-0.07315	-0.39788
374.000	0.53575	0.10544	-0.08303	-0.39589
375.000	0.48040	0.08952	-0.05931	-0.38197
376.000	0.47645	0.14323	-0.08303	-0.37003
377.000	0.50610	0.10146	-0.08303	-0.35411
378.000	0.55552	0.09350	-0.09292	-0.37600
379.000	0.54959	0.12732	-0.05536	-0.31433
380.000	0.55354	0.11538	-0.08699	-0.36406
381.000	0.52587	0.15716	-0.06524	-0.38396
382.000	0.57133	0.18302	-0.05733	-0.36605
383.000	0.56343	0.11339	-0.06722	-0.38793
384.000	0.55947	0.14522	-0.08303	-0.35809
385.000	0.47842	0.11737	-0.10676	-0.34815
386.000	0.53575	0.13528	-0.08303	-0.31035
387.000	0.51401	0.16114	-0.12455	-0.35213
388.000	0.50412	0.14323	-0.08897	-0.33024
389.000	0.58320	0.12533	-0.06920	-0.32626
390.000	0.48831	0.09549	-0.09094	-0.37202
391.000	0.49819	0.07361	-0.06326	-0.35014
392.000	0.55157	0.14522	-0.03954	-0.41181
393.000	0.53971	0.16512	-0.09885	-0.35213
394.000	0.52784	0.05371	-0.04745	-0.36207
395.000	0.46261	0.10942	-0.06326	-0.36605
396.000	0.49226	0.13329	-0.08303	-0.37202
397.000	0.53773	0.08156	-0.08303	-0.36207
398.000	0.53378	0.14721	-0.09292	-0.39589
399.000	0.48238	0.17506	-0.15025	-0.33820
400.000	0.51203	0.10345	-0.08501	-0.35809
401.000	0.56936	0.16313	-0.09687	-0.34815
402.000	0.54564	0.14323	-0.05140	-0.40783
403.000	0.49424	0.06565	-0.07513	-0.38594
404.000	0.56936	0.10146	-0.09094	-0.33024
405.000	0.53378	0.16909	-0.04152	-0.27454
406.000	0.49622	0.16910	-0.05733	-0.37799
407.000	0.56343	0.16511	-0.09687	-0.35809
408.000	0.49226	0.17705	-0.11862	-0.31433
409.000	0.54564	0.19893	-0.09094	-0.37401
410.000	0.56540	0.14721	-0.08106	-0.34019
411.000	0.51401	0.11339	-0.09885	-0.31433
412.000	0.52587	0.17307	-0.06920	-0.31632
413.000	0.52784	0.15318	-0.09885	-0.29443
414.000	0.49819	0.15716	-0.07315	-0.29841
415.000	0.52389	0.11140	-0.05733	-0.33422
416.000	0.52389	0.08156	-0.05931	-0.32626
417.000	0.49226	0.15915	-0.06524	-0.36207
418.000	0.51401	0.17307	-0.06524	-0.32825
419.000	0.47249	0.16114	-0.08106	-0.33024
420.000	0.44877	0.14721	-0.07117	-0.33223
421.000	0.49819	0.10941	-0.12653	-0.32626
422.000	0.49226	0.14721	-0.11071	-0.31433
423.000	0.54168	0.10941	-0.09094	-0.32030
424.000	0.46656	0.11936	-0.07315	-0.34417
425.000	0.45075	0.15318	-0.05536	-0.30239
426.000	0.45865	0.12135	-0.05733	-0.30836
427.000	0.48831	0.15716	-0.07710	-0.30438
428.000	0.45272	0.12533	-0.04152	-0.30836
429.000	0.43098	0.14920	-0.03163	-0.35412
430.000	0.49622	0.10345	-0.07908	-0.29841
431.000	0.42900	0.10345	-0.03163	-0.33621
432.000	0.54761	0.15716	-0.07117	-0.33223
433.000	0.49028	0.14721	-0.10280	-0.32030
434.000	0.50412	0.13130	-0.09490	-0.30637
435.000	0.53773	0.15119	-0.08303	-0.32825
436.000	0.43098	0.17109	-0.06920	-0.28051
437.000	0.41516	0.16114	-0.02570	-0.30836
438.000	0.50412	0.13130	-0.04745	-0.33621
439.000	0.44679	0.16114	-0.08501	-0.30040
440.000	0.45865	0.07759	-0.08501	-0.27056
441.000	0.44679	0.17308	-0.03954	-0.31035
442.000	0.47842	0.15119	-0.06524	-0.29046
443.000	0.46656	0.09151	-0.05931	-0.30438
444.000	0.50610	0.18501	-0.05931	-0.35014
445.000	0.47842	0.17705	-0.06524	-0.33223
446.000	0.46656	0.16313	-0.05733	-0.30637
447.000	0.42505	0.12533	-0.05733	-0.30040
448.000	0.47447	0.16114	-0.04152	-0.33621
449.000	0.36179	0.15517	-0.08303	-0.30239
450.000	0.49028	0.15517	-0.07908	-0.32626
451.000	0.36179	0.13130	-0.08699	-0.29244
452.000	0.48435	0.17904	-0.12257	-0.26658
453.000	0.37760	0.15318	-0.07908	-0.28847
454.000	0.47447	0.11140	-0.09094	-0.30438
455.000	0.51994	0.14721	-0.11664	-0.27056
456.000	0.47249	0.11140	-0.09094	-0.26857
457.000	0.48633	0.09549	-0.09292	-0.26857
458.000	0.45272	0.15318	-0.08303	-0.29244
459.000	0.46063	0.12135	-0.10083	-0.28449
460.000	0.47447	0.20291	-0.05931	-0.31035
461.000	0.49226	0.10941	-0.08897	-0.27852
462.000	0.44284	0.18501	-0.09885	-0.29841
463.000	0.42900	0.18501	-0.11664	-0.26260
464.000	0.45075	0.18700	-0.15025	-0.28449
465.000	0.37365	0.09549	-0.09687	-0.30040
466.000	0.43691	0.07560	-0.09490	-0.30040
467.000	0.42307	0.10146	-0.13641	-0.31234
468.000	0.41714	0.06167	-0.07908	-0.29642
469.000	0.38551	0.03183	-0.11467	-0.27056
470.000	0.45470	0.07560	-0.08699	-0.26459
471.000	0.41121	0.06366	-0.10280	-0.29642
472.000	0.44877	0.08554	-0.12060	-0.26061
473.000	0.42900	0.03183	-0.09687	-0.25664
474.000	0.49028	0.06565	-0.11467	-0.23276
475.000	0.39935	0.12533	-0.12653	-0.21088
476.000	0.47447	0.07162	-0.10676	-0.26658
477.000	0.42109	0.04576	-0.08699	-0.23674
478.000	0.50215	0.10743	-0.15421	-0.21685
479.000	0.46459	0.10942	-0.11071	-0.23077
480.000	0.45865	0.12931	-0.10478	-0.29443
481.000	0.44679	0.08355	-0.13246	-0.22878
482.000	0.50215	0.10345	-0.10874	-0.22679
483.000	0.42900	0.04576	-0.12850	-0.23674
484.000	0.46459	0.11140	-0.09885	-0.25067
485.000	0.40923	0.06565	-0.09490	-0.22083
486.000	0.47052	0.10146	-0.06326	-0.27454
487.000	0.41912	0.07162	-0.09687	-0.27056
488.000	0.46261	0.03382	-0.14234	-0.27056
489.000	0.46459	0.04576	-0.11862	-0.27056
490.000	0.48633	0.09947	-0.11269	-0.20491
491.000	0.49424	0.03780	-0.06722	-0.26260
492.000	0.47447	0.06366	-0.13048	-0.30239
493.000	0.39144	0.08355	-0.10083	-0.32626
494.000	0.40330	0.06366	-0.12653	-0.27255
495.000	0.35783	0.11340	-0.11664	-0.25067
496.000	0.37958	0.05172	-0.11664	-0.26260
497.000	0.35586	0.08355	-0.13444	-0.27454
498.000	0.43889	0.06963	-0.10676	-0.30040
499.000	0.42505	0.02785	-0.05338	-0.29443
500.000	0.37563	0.07958	-0.06524	-0.30040
501.000	0.42109	0.02586	-0.11269	-0.29443
502.000	0.36376	0.09748	-0.11269	-0.30040
503.000	0.43098	0.15915	-0.08699	-0.30836
504.000	0.45668	0.17109	-0.06920	-0.31234
505.000	0.51401	0.13727	-0.12850	-0.27454
506.000	0.47645	0.12931	-0.13048	-0.26260
507.000	0.46261	0.10146	-0.08897	-0.24470
508.000	0.43691	0.13329	-0.10874	-0.22480
509.000	0.44877	0.13329	-0.09490	-0.27852
510.000	0.40330	0.21485	-0.05536	-0.26459
511.000	0.46261	0.11936	-0.03954	-0.31632
512.000	0.42505	0.13727	-0.07117	-0.26857
513.000	0.45075	0.19297	-0.10083	-0.26061
514.000	0.43296	0.15915	-0.07710	-0.27852
515.000	0.49226	0.21087	-0.09885	-0.28648
516.000	0.42702	0.22679	-0.08501	-0.23276
517.000	0.43691	0.10942	-0.10083	-0.26061
518.000	0.49424	0.20092	-0.08501	-0.28847
519.000	0.43889	0.21286	-0.10874	-0.24868
520.000	0.41319	0.21286	-0.09885	-0.27056
521.000	0.44284	0.16711	-0.09490	-0.29841
522.000	0.44086	0.20689	-0.08699	-0.28648
523.000	0.45865	0.18501	-0.07710	-0.27255
524.000	0.43691	0.18103	-0.06722	-0.30438
525.000	0.46656	0.14125	-0.03756	-0.29244
526.000	0.43691	0.14920	-0.06326	-0.28449
527.000	0.46656	0.11140	-0.08106	-0.28847
528.000	0.40726	0.17109	-0.08303	-0.35014
529.000	0.49028	0.15716	-0.06524	-0.30836
530.000	0.40528	0.18501	-0.06920	-0.33820
531.000	0.37365	0.11737	-0.08106	-0.32427
532.000	0.49226	0.22480	-0.06129	-0.31234
533.000	0.41319	0.13528	-0.12653	-0.33223
534.000	0.40726	0.20888	-0.12060	-0.31433
535.000	0.40923	0.12732	-0.11862	-0.34019
536.000	0.42307	0.11737	-0.13444	-0.31433
537.000	0.44482	0.12334	-0.07710	-0.30239
538.000	0.45668	0.07560	-0.12257	-0.32626
539.000	0.41319	0.13727	-0.13641	-0.28449
540.000	0.46063	0.13130	-0.12060	-0.29244
541.000	0.49226	0.11140	-0.11664	-0.28250
542.000	0.38353	0.14324	-0.09687	-0.31632
543.000	0.47249	0.15517	-0.14432	-0.24072
544.000	0.43098	0.09549	-0.12257	-0.27653
545.000	0.41516	0.14920	-0.10874	-0.29642
546.000	0.42505	0.14920	-0.10478	-0.28051
547.000	0.51005	0.10941	-0.13444	-0.28051
548.000	0.45075	0.10544	-0.12455	-0.28051
549.000	0.51005	0.20092	-0.13048	-0.20889
550.000	0.52389	0.11936	-0.14037	-0.27653
551.000	0.49622	0.20092	-0.08303	-0.26459
552.000	0.53575	0.15915	-0.10478	-0.26658
553.000	0.44086	0.17705	-0.13839	-0.28648
554.000	0.50017	0.17307	-0.15816	-0.23674
555.000	0.44284	0.15318	-0.11664	-0.29642
556.000	0.44877	0.16114	-0.14432	-0.26857
557.000	0.45075	0.11538	-0.14037	-0.28648
558.000	0.39737	0.16114	-0.12060	-0.31632
559.000	0.44284	0.16114	-0.08303	-0.30438
560.000	0.46656	0.14920	-0.08106	-0.29841
561.000	0.38749	0.17706	-0.10083	-0.27852
562.000	0.37563	0.18899	-0.10280	-0.27454
563.000	0.40330	0.18103	-0.10676	-0.27056
564.000	0.41319	0.16114	-0.09687	-0.26857
565.000	0.38749	0.20491	-0.09885	-0.26061
566.000	0.46854	0.15318	-0.13641	-0.27454
567.000	0.49226	0.22679	-0.08106	-0.30239
568.000	0.40726	0.17109	-0.11467	-0.32825
569.000	0.45668	0.16711	-0.10874	-0.28847
570.000	0.40726	0.17109	-0.11467	-0.30637
571.000	0.47052	0.16711	-0.11664	-0.28250
572.000	0.52784	0.22877	-0.10478	-0.32825
573.000	0.44679	0.17904	-0.12060	-0.30438
574.000	0.45865	0.24469	-0.15816	-0.27255
575.000	0.47052	0.17506	-0.10083	-0.29642
576.000	0.43889	0.19496	-0.18584	-0.31035
577.000	0.44877	0.21286	-0.15421	-0.29244
578.000	0.38156	0.15517	-0.14827	-0.31632
579.000	0.47447	0.20291	-0.12455	-0.33621
580.000	0.45075	0.16313	-0.11664	-0.32825
581.000	0.46063	0.19695	-0.10478	-0.31433
582.000	0.48040	0.17109	-0.08501	-0.32427
583.000	0.47052	0.15119	-0.13839	-0.33422
584.000	0.41516	0.21286	-0.14827	-0.27852
585.000	0.46656	0.24867	-0.08699	-0.32030
586.000	0.49424	0.24270	-0.13641	-0.32427
587.000	0.50017	0.24469	-0.16409	-0.32825
588.000	0.37365	0.19894	-0.17398	-0.30040
589.000	0.47052	0.14522	-0.13641	-0.29045
590.000	0.41121	0.17308	-0.13048	-0.32228
591.000	0.47052	0.24469	-0.15223	-0.24470
592.000	0.53180	0.15716	-0.12257	-0.36804
593.000	0.45272	0.18501	-0.12060	-0.31433
594.000	0.45668	0.17904	-0.10874	-0.32030
595.000	0.45075	0.16711	-0.11071	-0.32228
596.000	0.47447	0.23673	-0.12257	-0.31632
597.000	0.45865	0.16313	-0.11664	-0.31035
598.000	0.53773	0.22082	-0.09885	-0.29841
599.000	0.49028	0.16114	-0.10280	-0.29244
600.000	0.49028	0.22679	-0.13246	-0.27653
601.000	0.51203	0.15119	-0.12455	-0.31234
602.000	0.51203	0.14124	-0.09687	-0.26459
603.000	0.51401	0.14323	-0.09094	-0.25465
604.000	0.49226	0.12732	-0.06326	-0.26260
605.000	0.54168	0.18700	-0.06722	-0.30040
606.000	0.45668	0.16114	-0.09292	-0.25664
607.000	0.43493	0.15915	-0.08897	-0.27056
608.000	0.44679	0.19297	-0.06722	-0.23276
609.000	0.43691	0.15119	-0.05931	-0.22481
610.000	0.50017	0.14323	-0.07908	-0.25664
611.000	0.46656	0.14522	-0.11862	-0.26857
612.000	0.51796	0.12931	-0.12257	-0.26459
613.000	0.47052	0.14920	-0.10676	-0.21486
614.000	0.49424	0.21087	-0.13246	-0.22083
615.000	0.52389	0.13727	-0.12060	-0.23674
616.000	0.49028	0.14124	-0.11467	-0.24470
617.000	0.54761	0.20291	-0.10083	-0.27255
618.000	0.53575	0.13528	-0.13444	-0.25266
619.000	0.39737	0.14324	-0.13246	-0.22878
620.000	0.45865	0.13926	-0.12653	-0.21486
621.000	0.48238	0.14323	-0.11071	-0.22282
622.000	0.45865	0.19496	-0.09292	-0.23276
623.000	0.50215	0.17506	-0.09687	-0.24868
624.000	0.52587	0.21485	-0.12060	-0.20889
625.000	0.50412	0.18103	-0.15025	-0.24868
626.000	0.51598	0.19695	-0.11269	-0.19496
627.000	0.55157	0.24469	-0.10478	-0.20292
628.000	0.47249	0.22480	-0.11664	-0.24271
629.000	0.48633	0.26061	-0.16211	-0.20690
630.000	0.51598	0.26060	-0.16014	-0.19894
631.000	0.53575	0.25265	-0.11467	-0.20292
632.000	0.59506	0.24071	-0.12455	-0.21287
633.000	0.50412	0.32028	-0.12257	-0.21287
634.000	0.50808	0.28050	-0.17595	-0.20491
635.000	0.51401	0.22679	-0.14827	-0.23873
636.000	0.53971	0.22281	-0.12653	-0.23873
637.000	0.53971	0.26458	-0.14037	-0.24072
638.000	0.51401	0.23474	-0.13444	-0.27454
639.000	0.46459	0.15915	-0.11862	-0.23276
640.000	0.48238	0.27851	-0.12257	-0.25862
641.000	0.45470	0.25663	-0.10083	-0.22878
642.000	0.51401	0.24270	-0.11664	-0.27454
643.000	0.55947	0.15716	-0.12850	-0.16910
644.000	0.50610	0.21485	-0.10280	-0.18502
645.000	0.54168	0.20092	-0.15421	-0.20690
646.000	0.52191	0.20689	-0.16409	-0.20093
647.000	0.48238	0.21485	-0.16607	-0.26061
648.000	0.57331	0.21485	-0.13048	-0.21685
649.000	0.48435	0.17904	-0.14037	-0.22282
650.000	0.55750	0.19694	-0.16607	-0.21287
651.000	0.57331	0.17506	-0.13246	-0.22878
652.000	0.46063	0.11737	-0.11862	-0.24072
653.000	0.49819	0.16711	-0.14234	-0.21884
654.000	0.48435	0.18501	-0.11664	-0.23276
655.000	0.48435	0.15915	-0.13444	-0.21685
656.000	0.44284	0.18899	-0.14432	-0.23475
657.000	0.48831	0.18899	-0.12455	-0.24271
658.000	0.56540	0.18103	-0.15025	-0.21884
659.000	0.45865	0.15517	-0.15816	-0.21685
660.000	0.52389	0.16114	-0.10676	-0.23475
661.000	0.57924	0.25065	-0.10874	-0.26260
662.000	0.58913	0.26458	-0.13839	-0.24669
663.000	0.52982	0.18501	-0.09885	-0.26459
664.000	0.55157	0.24071	-0.11467	-0.28250
665.000	0.48040	0.21485	-0.12060	-0.26459
666.000	0.56540	0.20490	-0.12257	-0.27454
667.000	0.53971	0.26458	-0.10083	-0.27255
668.000	0.50808	0.22480	-0.15421	-0.27852
669.000	0.48435	0.23275	-0.13444	-0.27653
670.000	0.51401	0.26657	-0.15421	-0.28846
671.000	0.55552	0.23076	-0.15025	-0.25266
672.000	0.53971	0.24071	-0.20956	-0.30836
673.000	0.43691	0.29840	-0.18188	-0.24868
674.000	0.60099	0.27651	-0.19572	-0.25067
675.000	0.51401	0.31034	-0.19770	-0.26658
676.000	0.52587	0.28845	-0.15223	-0.25465
677.000	0.44284	0.25464	-0.20956	-0.23475
678.000	0.46854	0.19496	-0.13444	-0.24868
679.000	0.47842	0.18899	-0.16014	-0.26857
680.000	0.50808	0.23872	-0.15816	-0.25663
681.000	0.52784	0.19496	-0.15618	-0.24072
682.000	0.52587	0.21087	-0.14827	-0.25266
683.000	0.49819	0.25066	-0.15025	-0.22878
684.000	0.52587	0.23673	-0.14827	-0.29244
685.000	0.56145	0.23673	-0.16409	-0.24669
686.000	0.48040	0.20093	-0.11664	-0.25465
687.000	0.52784	0.26657	-0.17991	-0.23873
688.000	0.54366	0.21286	-0.17200	-0.23077
689.000	0.54366	0.20689	-0.16409	-0.23077
690.000	0.41912	0.26061	-0.14037	-0.23873
691.000	0.53971	0.22082	-0.16409	-0.24868
692.000	0.55552	0.27055	-0.17991	-0.23873
693.000	0.47052	0.22480	-0.22142	-0.26658
694.000	0.48831	0.20689	-0.15421	-0.27852
695.000	0.41912	0.22480	-0.15025	-0.29642
696.000	0.57924	0.25264	-0.20165	-0.24868
697.000	0.58715	0.24270	-0.15816	-0.29244
698.000	0.50610	0.26657	-0.14630	-0.26857
699.000	0.55157	0.27851	-0.12455	-0.21884
700.000	0.47249	0.28050	-0.14432	-0.22878
701.000	0.56936	0.25861	-0.14630	-0.22083
702.000	0.44679	0.27851	-0.13048	-0.25266
703.000	0.52784	0.24071	-0.12653	-0.25067
704.000	0.54366	0.24071	-0.15025	-0.22679
705.000	0.52982	0.25861	-0.10083	-0.26857
706.000	0.46261	0.29442	-0.10874	-0.25465
707.000	0.51994	0.26856	-0.07908	-0.25862
708.000	0.57133	0.27851	-0.14037	-0.25067
709.000	0.52191	0.27851	-0.12455	-0.26260
710.000	0.50808	0.29243	-0.08501	-0.30040
711.000	0.47249	0.26061	-0.15025	-0.26260
712.000	0.56343	0.27254	-0.13444	-0.26658
713.000	0.52784	0.31034	-0.12455	-0.27454
714.000	0.59901	0.32227	-0.13641	-0.23276
715.000	0.54959	0.29243	-0.12850	-0.28051
716.000	0.55947	0.28845	-0.13641	-0.24470
717.000	0.56738	0.28248	-0.10874	-0.27454
718.000	0.47645	0.25464	-0.16014	-0.23674
719.000	0.51203	0.25464	-0.14630	-0.27255
720.000	0.50215	0.33421	-0.15421	-0.24072
721.000	0.49226	0.26657	-0.13641	-0.22878
722.000	0.48831	0.30437	-0.12060	-0.27454
723.000	0.52389	0.34018	-0.15025	-0.23276
724.000	0.48831	0.26060	-0.09687	-0.27454
725.000	0.50808	0.32824	-0.10083	-0.24072
726.000	0.60296	0.30436	-0.14234	-0.25266
727.000	0.48831	0.29442	-0.14432	-0.22679
728.000	0.47447	0.28846	-0.12850	-0.23077
729.000	0.46656	0.31830	-0.10874	-0.23674
730.000	0.51401	0.25066	-0.10280	-0.28250
731.000	0.51203	0.24668	-0.13641	-0.21287
732.000	0.53971	0.20291	-0.13444	-0.23873
733.000	0.49622	0.24071	-0.11862	-0.23674
734.000	0.48633	0.25265	-0.13246	-0.24868
735.000	0.51598	0.26657	-0.11071	-0.24868
736.000	0.44482	0.28846	-0.15421	-0.24072
737.000	0.50017	0.23872	-0.12455	-0.23276
738.000	0.51598	0.34813	-0.12060	-0.28051
739.000	0.49226	0.32227	-0.07513	-0.27653
740.000	0.44284	0.30437	-0.09292	-0.25067
741.000	0.53773	0.28646	-0.08699	-0.31234
742.000	0.46459	0.30238	-0.09687	-0.26459
743.000	0.46459	0.26856	-0.14234	-0.25266
744.000	0.44679	0.32029	-0.11664	-0.27653
745.000	0.45668	0.32824	-0.12653	-0.29244
746.000	0.43098	0.30437	-0.10083	-0.25862
747.000	0.40133	0.35610	-0.07513	-0.29443
748.000	0.39144	0.28448	-0.09687	-0.29045
749.000	0.43296	0.31631	-0.09292	-0.33820
750.000	0.35586	0.36207	-0.10280	-0.29841
751.000	0.42109	0.32824	-0.14630	-0.29244
752.000	0.44086	0.32427	-0.14630	-0.29443
753.000	0.46261	0.31432	-0.12257	-0.29841
754.000	0.44086	0.32625	-0.11269	-0.34019
755.000	0.47249	0.26657	-0.12257	-0.31831
756.000	0.46063	0.30039	-0.15223	-0.27454
757.000	0.38156	0.25862	-0.11664	-0.31831
758.000	0.48238	0.28448	-0.11269	-0.31632
759.000	0.51796	0.30636	-0.11071	-0.27852
760.000	0.50017	0.25066	-0.16211	-0.30637
761.000	0.50017	0.30437	-0.10083	-0.30836
762.000	0.51005	0.30437	-0.10874	-0.25266
763.000	0.44877	0.29443	-0.13839	-0.29841
764.000	0.40923	0.27453	-0.06129	-0.28847
765.000	0.47052	0.31631	-0.07710	-0.27653
766.000	0.50808	0.33023	-0.10874	-0.24271
767.000	0.42109	0.31631	-0.10280	-0.27454
768.000	0.41912	0.31830	-0.09490	-0.29841
769.000	0.46656	0.35410	-0.13246	-0.29244
770.000	0.38353	0.31034	-0.15421	-0.32825
771.000	0.46261	0.30636	-0.14432	-0.31632
772.000	0.42505	0.31830	-0.13246	-0.29841
773.000	0.37958	0.34416	-0.15421	-0.32228
774.000	0.42900	0.32625	-0.16409	-0.32228
775.000	0.35388	0.35610	-0.09687	-0.30637
776.000	0.37760	0.34814	-0.13839	-0.35014
777.000	0.39144	0.34814	-0.11071	-0.30239
778.000	0.39539	0.24668	-0.07513	-0.30836
779.000	0.50412	0.30835	0.02570	-0.25664
780.000	0.64448	0.37597	0.15025	-0.26857
781.000	0.81249	0.36005	0.31236	-0.14921
782.000	0.93702	0.39186	0.47249	-0.07957
783.000	1.24532	0.37989	0.73936	0.06764
784.000	1.51601	0.55086	0.99829	0.20687
785.000	1.97227	0.66405	1.35992	0.31822
786.000	2.27236	0.79112	1.65232	0.49515
787.000	2.56641	1.01150	1.93080	0.63226
788.000	2.98652	1.14024	2.27828	0.87260
789.000	3.36100	1.40185	2.62165	1.11079
790.000	3.68991	1.73463	2.94906	1.27929
791.000	4.03628	1.99758	3.22306	1.48938
792.000	4.44525	2.22630	3.38464	1.70544
793.000	4.70259	2.59957	3.58752	1.90145
794.000	4.84395	2.86406	3.72535	2.07961
795.000	4.96562	3.02959	3.90446	2.20801
796.000	5.10687	3.28575	4.05792	2.35422
797.000	5.25786	3.61658	4.21329	2.48843
798.000	5.38526	3.84659	4.21919	2.61712
799.000	5.32450	3.98498	4.25851	2.77337
800.000	5.33234	4.14063	4.32732	2.85228
801.000	5.35586	4.22716	4.30766	3.02449
802.000	5.36566	4.33149	4.34501	3.11138
803.000	5.36762	4.42993	4.38039	3.15870
804.000	5.39897	4.55962	4.33125	3.24987
805.000	5.39701	4.53798	4.37450	3.28923
806.000	5.33038	4.58178	4.37843	3.30305
807.000	5.25786	4.56657	4.44132	3.35021
808.000	5.23629	4.64546	4.34305	3.40600
809.000	5.13629	4.60092	4.31946	3.45553
810.000	5.08137	4.59343	4.28800	3.44974
811.000	5.00683	4.54473	4.26834	3.47552
812.000	4.88713	4.49433	4.20149	3.45013
813.000	4.83217	4.45135	4.18969	3.41261
814.000	4.65153	4.44856	4.14643	3.40885
815.000	4.57296	4.30119	4.13266	3.36540
816.000	4.44918	4.28614	4.16216	3.32573
817.000	4.38629	4.25297	4.15823	3.25257
818.000	4.28800	4.19432	4.17199	3.20307
819.000	4.27621	4.09571	4.18183	3.14369
820.000	4.20542	4.08424	4.23099	3.14349
821.000	4.28407	3.95551	4.24278	3.13355
822.000	4.33911	4.02629	4.27031	3.07014
823.000	4.43346	3.99026	4.29194	3.10368
824.000	4.49044	4.00179	4.32339	3.05806
825.000	4.52777	3.96014	4.32732	3.07387
826.000	4.63778	3.99702	4.39612	3.11710
827.000	4.62796	3.96551	4.37253	3.11720
828.000	4.66724	3.94752	4.36074	3.11329
829.000	4.70651	3.99071	4.38236	3.17253
830.000	4.72811	4.04781	4.39022	3.17447
831.000	4.79487	4.08292	4.41773	3.20995
832.000	4.76346	4.14228	4.40594	3.25152
833.000	4.80861	4.18342	4.39022	3.27532
834.000	4.79880	4.20517	4.36663	3.29124
835.000	4.82628	4.28780	4.44328	3.27508
836.000	4.86750	4.32302	4.44525	3.34426
837.000	4.90871	4.37597	4.44721	3.32449
838.000	4.90479	4.40161	4.48848	3.37569
839.000	4.93030	4.42114	4.47276	3.42913
840.000	4.94796	4.42300	4.47079	3.43309
841.000	4.97543	4.49176	4.53956	3.46241
842.000	4.95974	4.57853	4.48258	3.45280
843.000	5.00879	4.58016	4.49437	3.44484
844.000	4.97740	4.52720	4.51205	3.52972
845.000	4.97740	4.52129	4.53956	3.48414
846.000	4.95777	4.54506	4.53760	3.46439
847.000	4.97347	4.61979	4.50027	3.51199
848.000	4.94993	4.61405	4.50616	3.50208
849.000	4.99113	4.61376	4.51598	3.50796
850.000	4.88320	4.65389	4.46097	3.49637
851.000	4.95189	4.63372	4.52777	3.54545
852.000	4.95777	4.68094	4.54742	3.52559
853.000	4.88516	4.59874	4.51402	3.55934
854.000	4.98721	4.59606	4.54545	3.52363
855.000	4.96170	4.72816	4.55331	3.51173
856.000	4.95974	4.61989	4.53760	3.54540
857.000	4.96759	4.72418	4.48062	3.50813
858.000	4.86750	4.67369	4.46490	3.51809
859.000	4.87535	4.63819	4.51598	3.52575
860.000	4.83413	4.63847	4.53170	3.53752
861.000	4.90086	4.62620	4.52974	3.52568
862.000	4.88124	4.66178	4.51795	3.54352
863.000	4.95974	4.62185	4.53170	3.52172
864.000	4.87339	4.64214	4.57492	3.51361
865.000	4.89694	4.60260	4.51598	3.52377
866.000	4.82824	4.61882	4.55331	3.56113
867.000	4.84983	4.56549	4.56706	3.56303
868.000	4.80861	4.59138	4.55724	3.51567
869.000	4.81646	4.60511	4.57689	3.54125
870.000	4.81450	4.58149	4.58671	3.51552
871.000	4.84787	4.60884	4.55528	3.53346
872.000	4.90479	4.63799	4.62599	3.54694
873.000	4.82824	4.59912	4.58082	3.53728
874.000	4.77327	4.63692	4.58082	3.59457
875.000	4.75757	4.68035	4.60832	3.52925
876.000	4.84591	4.64627	4.62010	3.55487
877.000	4.76935	4.66255	4.63385	3.58048
878.000	4.75364	4.60356	4.62207	3.52720
879.000	4.75560	4.68430	4.64171	3.61401
880.000	4.79094	4.68603	4.65349	3.56063
881.000	4.82432	4.67990	4.68688	3.53478
882.000	4.76346	4.66456	4.67313	3.54077
883.000	4.86750	4.64612	4.66527	3.55859
884.000	4.79683	4.67812	4.69080	3.57624
885.000	4.76935	4.64088	4.69473	3.54857
886.000	4.78113	4.62111	4.66527	3.56649
887.000	4.76542	4.72756	4.70259	3.60975
888.000	4.80272	4.73321	4.64563	3.58042
889.000	4.79880	4.69976	4.72419	3.54447
890.000	4.81450	4.73904	4.67706	3.50125
891.000	4.76935	4.73738	4.72419	3.52866
892.000	4.74775	4.67451	4.71241	3.59785
893.000	4.80076	4.69187	4.71241	3.58798
894.000	4.81646	4.75674	4.75757	3.52652
895.000	4.75168	4.74734	4.75560	3.53245
896.000	4.79291	4.71753	4.72419	3.54842
897.000	4.84198	4.69159	4.72419	3.59976
898.000	4.75364	4.75127	4.70848	3.58800
899.000	4.81843	4.70160	4.75560	3.58775
900.000	4.82235	4.80198	4.75953	3.57588
901.000	4.81450	4.74494	4.79291	3.51646
902.000	4.80076	4.69975	4.78702	3.55007
903.000	4.75168	4.73947	4.75168	3.52655
904.000	4.73008	4.70811	4.77327	3.59359
905.000	4.74186	4.71000	4.73793	3.63326
906.000	4.77720	4.76883	4.78898	3.62115
907.000	4.84395	4.78017	4.76542	3.61535
908.000	4.75560	4.82410	4.83217	3.58933
909.000	4.84591	4.81756	4.79880	3.58358
910.000	4.75168	4.79460	4.82235	3.53014
911.000	4.78113	4.83180	4.86554	3.57138
912.000	4.83217	4.79010	4.84983	3.53592
913.000	4.73008	4.76718	4.86554	3.51806
914.000	4.80272	4.77456	4.84002	3.54979
915.000	4.77916	4.80228	4.87535	3.53183
916.000	4.78309	4.78650	4.88909	3.51399
917.000	4.81843	4.79807	4.94011	3.55519
918.000	4.84002	4.81366	4.89890	3.58897
919.000	4.91068	4.86827	4.93226	3.57102
920.000	4.79291	4.78053	4.92441	3.56514
921.000	4.77131	4.83186	4.94796	3.49591
922.000	4.78113	4.87904	4.93226	3.59669
923.000	4.75560	4.79457	4.96170	3.52545
924.000	4.76346	4.82011	4.95974	3.50374
925.000	4.73793	4.79076	4.95189	3.56302
926.000	4.80272	4.88872	4.99702	3.48972
927.000	4.73793	4.84391	4.93619	3.59272
928.000	4.70455	4.80870	4.99309	3.56280
929.000	4.74775	4.87927	4.99898	3.49169
930.000	4.78505	4.83177	4.96366	3.54519
931.000	4.73597	4.80061	5.02448	3.51327
932.000	4.80272	4.81196	5.03037	3.47770
933.000	4.80665	4.84343	4.99702	3.56080
934.000	4.83413	4.91408	5.01271	3.52518
935.000	4.76738	4.82205	5.05195	3.47561
936.000	4.77524	4.84955	5.08333	3.52480
937.000	4.76935	4.81416	5.05587	3.51705
938.000	4.80272	4.82771	5.03822	3.48753
939.000	4.82824	4.89444	5.07745	3.47547
940.000	4.66135	4.85034	5.06372	3.52096
941.000	4.68099	4.82265	5.08529	3.49320
942.000	4.78113	4.83967	5.04410	3.52699
943.000	4.75560	4.88315	5.11079	3.45358
944.000	4.72811	4.80657	5.09118	3.48725
945.000	4.72419	4.83613	5.09706	3.45957
946.000	4.70455	4.83430	5.06764	3.44394
947.000	4.76738	4.82205	5.11275	3.50292
948.000	4.77524	4.83774	5.13041	3.48111
949.000	4.73597	4.89116	5.10883	3.46148
950.000	4.78113	4.88494	5.12844	3.47125
951.000	4.75757	4.92644	5.15198	3.47507
952.000	4.81646	4.89453	5.14609	3.50274
953.000	4.79094	4.91833	5.17355	3.43350
954.000	4.74579	4.89109	5.10295	3.49903
955.000	4.83217	4.88458	5.16178	3.47896
956.000	4.83806	4.91799	5.12256	3.44956
957.000	4.79683	4.88483	5.16767	3.43353
958.000	4.74186	4.95410	5.13825	3.45738
959.000	4.79487	4.91633	5.18531	3.42356
960.000	4.76149	4.98544	5.16571	3.44143
961.000	4.80076	4.94187	5.14806	3.48891
962.000	4.79683	4.89860	5.19316	3.44918
963.000	4.78505	4.95576	5.22453	3.47665
964.000	4.76935	4.94013	5.22061	3.49048
965.000	4.69866	4.88749	5.15394	3.48493
966.000	4.75168	4.98354	5.24021	3.48840
967.000	4.80861	4.95952	5.18335	3.50056
968.000	4.68491	4.94663	5.21865	3.51221
969.000	4.74971	4.90681	5.20884	3.46884
970.000	4.71437	4.97791	5.25590	3.49226
971.000	4.67902	4.93290	5.20492	3.45504
972.000	4.68688	4.87379	5.21865	3.51813
973.000	4.72615	4.90304	5.21865	3.49444
974.000	4.72419	4.91290	5.27746	3.45464
975.000	4.67706	4.97030	5.23825	3.47460
976.000	4.71437	4.88541	5.28334	3.53750
977.000	4.73793	4.91674	5.27158	3.51980
978.000	4.72811	4.90106	5.19316	3.51432
979.000	4.66331	4.86805	5.16767	3.54999
980.000	4.74382	4.93637	5.23433	3.54962
981.000	4.65545	4.95077	5.25002	3.53966
982.000	4.69670	5.00952	5.26570	3.52181
983.000	4.68884	4.93283	5.25198	3.51202
984.000	4.71437	4.94839	5.23825	3.56144
985.000	4.69473	4.98592	5.29510	3.49994
986.000	4.71241	4.90904	5.27550	3.51978
987.000	4.72419	4.97587	5.24806	3.53375
988.000	4.75757	5.01498	5.23237	3.52397
989.000	4.75953	4.96578	5.20884	3.52016
990.000	4.74971	4.97962	5.25786	3.55343
991.000	4.67706	4.98014	5.27746	3.59081
992.000	4.65349	5.00983	5.27550	3.56714
993.000	4.72615	4.92272	5.22845	3.56347
994.000	4.70259	4.96028	5.34802	3.55291
995.000	4.62403	4.99626	5.30686	3.53539
996.000	4.59260	4.97877	5.26178	3.59288
997.000	4.65153	4.96458	5.29314	3.54534
998.000	4.61421	4.98649	5.30882	3.55906
999.000	4.69866	4.94260	5.26374	3.50011
1000.000	4.67313	4.99788	5.26374	3.57313
1001.000	4.67313	4.97623	5.29706	3.52953
1002.000	4.70455	4.95043	5.30098	3.54924
1003.000	4.70259	4.97996	5.32254	3.53925
1004.000	4.69080	4.93675	5.29902	3.57293
1005.000	4.70062	5.04097	5.33038	3.58656
1006.000	4.65742	4.97634	5.30686	3.60840
1007.000	4.67902	5.00768	5.28334	3.58091
1008.000	4.64171	4.92725	5.29510	3.57492
1009.000	4.65938	4.99011	5.32450	3.57278
1010.000	4.62403	4.97855	5.31470	3.54324
1011.000	4.69277	4.99184	5.28138	3.58290
1012.000	4.63581	4.96862	5.35194	3.59433
1013.000	4.64760	4.97445	5.32842	3.57473
1014.000	4.67117	4.91917	5.31862	3.58465
1015.000	4.66331	4.94481	5.32646	3.60829
1016.000	4.60439	4.94719	5.33626	3.57666
1017.000	4.60635	5.03180	5.32254	3.59647
1018.000	4.66724	4.99792	5.31862	3.58071
1019.000	4.69277	4.98200	5.31078	3.56102
1020.000	4.68491	4.92301	5.35390	3.59431
1021.000	4.62207	4.86833	5.32450	3.57081
1022.000	4.66920	4.97626	5.25982	3.58697
1023.000	4.61224	4.91368	5.30882	3.58668
1024.000	4.58278	4.91782	5.31274	3.61034
1025.000	4.65742	4.94682	5.29706	3.58478
1026.000	4.61617	4.93530	5.36370	3.55282
1027.000	4.62599	4.91161	5.34998	3.62985
1028.000	4.57885	4.96902	5.34998	3.58842
1029.000	4.60635	4.97080	5.34606	3.56871
1030.000	4.66135	5.00977	5.38526	3.54481
1031.000	4.60046	4.92950	5.37938	3.58035
1032.000	4.58474	4.91780	5.35586	3.53511
1033.000	4.57885	4.98280	5.32842	3.60630
1034.000	4.70651	4.98780	5.36958	3.61790
1035.000	4.63385	4.96273	5.40289	3.58613
1036.000	4.58082	4.96507	5.33234	3.60628
1037.000	4.63385	4.96273	5.35586	3.57260
1038.000	4.62796	4.97852	5.38330	3.61584
1039.000	4.61224	4.94320	5.40681	3.54073
1040.000	4.62796	4.92735	5.40877	3.56440
1041.000	4.64956	4.94885	5.41661	3.65115
1042.000	4.65349	4.90158	5.44992	3.55626
1043.000	4.63581	4.95682	5.44012	3.55238
1044.000	4.60439	4.93932	5.42053	3.58406
1045.000	4.69277	4.92493	5.42837	3.59387
1046.000	4.59849	4.94133	5.46559	3.56998
1047.000	4.59260	4.99254	5.36762	3.58042
1048.000	4.64760	4.97641	5.40681	3.60584
1049.000	4.65153	4.96851	5.40485	3.61966
1050.000	4.61617	4.92349	5.38330	3.55863
1051.000	4.63778	5.01387	5.40485	3.61374
1052.000	4.65742	4.98618	5.43424	3.54057
1053.000	4.59653	4.96299	5.39701	3.58222
1054.000	4.57689	4.98478	5.42249	3.53078
1055.000	4.54153	4.96337	5.47147	3.53838
1056.000	4.56117	4.90025	5.48518	3.57381
1057.000	4.60832	4.90189	5.41661	3.53278
1058.000	4.52974	4.97723	5.44796	3.57403
1059.000	4.57492	4.93952	5.44208	3.51882
1060.000	4.58474	4.97488	5.43032	3.58005
1061.000	4.57296	4.93954	5.43424	3.56425
1062.000	4.63974	4.95285	5.52436	3.69388
1063.000	4.54938	4.92001	5.55373	3.69961
1064.000	4.68099	4.95256	5.60857	3.75447
1065.000	4.75560	5.03664	5.69863	3.73615
1066.000	4.88713	5.05927	5.88844	3.80780
1067.000	5.10099	5.08909	5.93343	4.01430
1068.000	5.23433	5.15681	6.17390	3.95543
1069.000	5.47734	5.27064	6.32823	4.04872
1070.000	5.53807	5.23280	6.40634	4.12482
1071.000	5.74560	5.30552	6.56053	4.22972
1072.000	5.81605	5.42454	6.71852	4.21265
1073.000	5.94321	5.47233	6.80626	4.22957
1074.000	5.92365	5.55291	6.83939	4.31571
1075.000	6.01557	5.55394	6.84134	4.28623
1076.000	5.98819	5.64829	6.85498	4.31360
1077.000	5.88649	5.66696	6.78286	4.33586
1078.000	5.85127	5.73590	6.72242	4.34622
1079.000	5.70841	5.74322	6.66587	4.30350
1080.000	5.63011	5.75379	6.64051	4.27031
1081.000	5.57919	5.73273	6.55077	4.28287
1082.000	5.51652	5.80390	6.51565	4.24976
1083.000	5.50477	5.79422	6.49223	4.26765
1084.000	5.51260	5.68043	6.43172	4.26422
1085.000	5.34802	5.70159	6.38486	4.23709
1086.000	5.35782	5.64069	6.35557	4.25896
1087.000	5.36566	5.54449	6.38095	4.27644
1088.000	5.31666	5.56455	6.45709	4.26008
1089.000	5.29510	5.44895	6.42976	4.23671
1090.000	5.35390	5.46217	6.42586	4.15809
1091.000	5.34018	5.48192	6.43367	4.18163
1092.000	5.33038	5.43293	6.46490	4.19317
1093.000	5.25786	5.45712	6.51760	4.12588
1094.000	5.29902	5.36056	6.41219	4.16214
1095.000	5.41073	5.45970	6.44343	4.12255
1096.000	5.35194	5.41704	6.42586	4.15023
1097.000	5.33234	5.43880	6.44343	4.13828
1098.000	5.33038	5.44864	6.41024	4.18182
1099.000	5.39897	5.44018	6.37705	4.17226
1100.000	5.43424	5.52817	6.44733	4.14022
1101.000	5.50673	5.47257	6.47661	4.18521
1102.000	5.41661	5.44198	6.50199	4.14764
1103.000	5.49497	5.52565	6.50784	4.18102
1104.000	5.47343	5.46502	6.48832	4.23033
1105.000	5.47930	5.41787	6.52736	4.22214
1106.000	5.46363	5.43567	6.46880	4.22853
1107.000	5.38918	5.51484	6.57419	4.24730
1108.000	5.51260	5.48821	6.52345	4.25952
1109.000	5.50673	5.51573	6.52736	4.24769
1110.000	5.49693	5.47462	6.53126	4.20245
1111.000	5.46559	5.49453	6.53516	4.26728
1112.000	5.45775	5.47301	6.55077	4.25536
1113.000	5.43032	5.55371	6.55858	4.30050
1114.000	5.49889	5.48049	6.48052	4.29723
1115.000	5.44796	5.54178	6.54687	4.30060
1116.000	5.46363	5.53771	6.57419	4.27874
1117.000	5.42445	5.55180	6.53906	4.33211
1118.000	5.42837	5.58512	6.49613	4.28137
1119.000	5.45579	5.62802	6.53711	4.28889
1120.000	5.38330	5.55414	6.52540	4.24968
1121.000	5.43228	5.54781	6.51565	4.28121
1122.000	5.44404	5.59282	6.53516	4.25549
1123.000	5.49302	5.48839	6.53711	4.30461
1124.000	5.36762	5.54447	6.51760	4.28512
1125.000	5.40877	5.56960	6.51369	4.30874
1126.000	5.44404	5.46529	6.47271	4.37985
1127.000	5.47147	5.55333	6.49613	4.31675
1128.000	5.49889	5.43731	6.53126	4.37148
1129.000	5.36566	5.49739	6.47466	4.31694
1130.000	5.44796	5.56336	6.48052	4.33654
1131.000	5.50281	5.47849	6.45319	4.34267
1132.000	5.42641	5.48507	6.49223	4.37575
1133.000	5.42445	5.54592	6.49418	4.29318
1134.000	5.42837	5.49879	6.44343	4.33096
1135.000	5.38526	5.55020	6.45905	4.37407
1136.000	5.41857	5.52635	6.47076	4.32680
1137.000	5.41857	5.54597	6.45319	4.37608
1138.000	5.42445	5.54199	6.42781	4.39399
1139.000	5.47147	5.48466	6.49223	4.29320
1140.000	5.38918	5.54231	6.46490	4.39957
1141.000	5.51260	5.60003	6.46490	4.37991
1142.000	5.41073	5.53623	6.41415	4.45110
1143.000	5.42641	5.51254	6.50589	4.38545
1144.000	5.44600	5.47508	6.49418	4.38752
1145.000	5.40289	5.49706	6.44928	4.44097
1146.000	5.51260	5.59611	6.44928	4.40560
1147.000	5.44404	5.54378	6.45905	4.46250
1148.000	5.44992	5.46719	6.44148	4.41156
1149.000	5.44208	5.53202	6.39853	4.41193
1150.000	5.44012	5.60266	6.49027	4.35611
1151.000	5.38918	5.50307	6.49808	4.38159
1152.000	5.38526	5.45993	6.45905	4.40748
1153.000	5.35586	5.47196	6.49613	4.38161
1154.000	5.39897	5.48335	6.45124	4.35252
1155.000	5.48518	5.57675	6.45124	4.43506
1156.000	5.44992	5.45346	6.50784	4.39133
1157.000	5.47343	5.48268	6.45514	4.40948
1158.000	5.46755	5.47096	6.44928	4.42328
1159.000	5.49889	5.52169	6.51174	4.39130
1160.000	5.47343	5.50426	6.50979	4.39721
1161.000	5.47343	5.44932	6.46685	4.39758
1162.000	5.42641	5.50862	6.50979	4.37952
1163.000	5.42641	5.56159	6.48832	4.40133
1164.000	5.43620	5.49479	6.45709	4.34853
1165.000	5.45188	5.55744	6.44343	4.37420
1166.000	5.48518	5.54928	6.46685	4.38579
1167.000	5.40877	5.49112	6.48442	4.33061
1168.000	5.44992	5.54568	6.51174	4.38344
1169.000	5.43228	5.62235	6.50394	4.40512
1170.000	5.47343	5.53762	6.52931	4.37149
1171.000	5.42249	5.50865	6.56443	4.37119
1172.000	5.44012	5.54381	6.53126	4.39113
1173.000	5.45971	5.58287	6.50589	4.44047
1174.000	5.35978	5.59359	6.57223	4.37898
1175.000	5.45775	5.47497	6.56248	4.28867
1176.000	5.39897	5.49120	6.50784	4.37561
1177.000	5.37546	5.46983	6.57223	4.34951
1178.000	5.46951	5.58474	6.56443	4.30831
1179.000	5.43228	5.51053	6.57028	4.35149
1180.000	5.40681	5.47347	6.52931	4.37935
1181.000	5.39897	5.48728	6.56443	4.32599
1182.000	5.47538	5.52975	6.54102	4.35960
1183.000	5.35586	5.48374	6.56248	4.42818
1184.000	5.44992	5.44364	6.58004	4.29835
1185.000	5.49497	5.51780	6.56833	4.34364
1186.000	5.39701	5.51870	6.54687	4.36152
1187.000	5.49497	5.52369	6.60735	4.27453
1188.000	5.43228	5.44380	6.58589	4.39065
1189.000	5.49497	5.51584	6.54492	4.36939
1190.000	5.40485	5.48134	6.54687	4.35759
1191.000	5.40485	5.54413	6.55467	4.34180
1192.000	5.40093	5.45390	6.58394	4.39852
1193.000	5.43228	5.43791	6.54882	4.37722
1194.000	5.41073	5.52250	6.57223	4.33968
1195.000	5.38722	5.42850	6.58589	4.38475
1196.000	5.45188	5.44951	6.61906	4.32945
1197.000	5.43228	5.49090	6.62881	4.32936
1198.000	5.35978	5.51707	6.59174	4.26483
1199.000	5.35390	5.44450	6.58784	4.30221
1200.000	5.39701	5.36560	6.60345	4.36102
1201.000	5.41465	5.47536	6.64051	4.30961
1202.000	5.33038	5.48789	6.60345	4.34334
1203.000	5.43620	5.41629	6.65612	4.26428
1204.000	5.33430	5.44860	6.55858	4.42429
1205.000	5.41073	5.46951	6.52931	4.40097
1206.000	5.34606	5.42298	6.58784	4.38670
1207.000	5.37742	5.45607	6.54492	4.38315
1208.000	5.38722	5.48739	6.56443	4.37708
1209.000	5.34998	5.49361	6.62491	4.41191
1210.000	5.37742	5.47570	6.63856	4.34303
1211.000	5.29706	5.44108	6.60540	4.33153
1212.000	5.32450	5.39568	6.63856	4.35285
1213.000	5.28922	5.21726	6.68147	4.25817
1214.000	5.34606	5.20500	6.67952	4.26997
1215.000	5.49106	5.25285	6.77896	4.20033
1216.000	5.50477	5.18989	6.81405	4.07230
1217.000	5.57724	4.89651	6.87057	3.99713
1218.000	5.57332	4.78449	6.98747	3.80352
1219.000	5.72603	4.67116	7.13934	3.66075
1220.000	5.68492	4.38427	7.25804	3.47894
1221.000	5.69863	4.17747	7.36307	3.26184
1222.000	5.80040	4.03692	7.42723	3.13747
1223.000	5.82388	3.88114	7.59047	2.92195
1224.000	5.81605	3.71764	7.60212	2.78417
1225.000	5.84149	3.51246	7.66621	2.67556
1226.000	5.83562	3.40207	7.65456	2.61858
1227.000	5.88453	3.30119	7.69922	2.47073
1228.000	5.96668	3.41310	7.71087	2.48837
1229.000	5.97255	3.22967	7.65262	2.45919
1230.000	6.04098	3.26673	7.62154	2.43969
1231.000	6.14067	3.26613	7.64096	2.40809
1232.000	6.25791	3.28117	7.69339	2.46486
1233.000	6.27159	3.24955	7.70893	2.48051
1234.000	6.30674	3.20005	7.72834	2.44301
1235.000	6.32432	3.28864	7.64291	2.52616
1236.000	6.33799	3.29840	7.72446	2.48436
1237.000	6.39462	3.29213	7.70698	2.54152
1238.000	6.40438	3.25069	7.68369	2.55347
1239.000	6.38681	3.27444	7.65456	2.59693
1240.000	6.33018	3.27678	7.63514	2.63444
1241.000	6.32628	3.29848	7.66621	2.71491
1242.000	6.39657	3.41231	7.63320	2.73282
1243.000	6.35557	3.43425	7.53413	2.82199
1244.000	6.34190	3.46783	7.51858	2.87915
1245.000	6.30284	3.45824	7.54578	2.92028
1246.000	6.31651	3.46800	7.47388	2.96011
1247.000	6.33213	3.53290	7.51469	2.94016
1248.000	6.48637	3.60469	7.53218	2.92824
1249.000	6.37314	3.65079	7.51275	2.99132
1250.000	6.37510	3.65077	7.52247	2.98929
1251.000	6.42781	3.56179	7.52635	2.98926
1252.000	6.35362	3.60760	7.57492	2.96729
1253.000	6.39267	3.61520	7.54384	2.91833
1254.000	6.37900	3.53258	7.56133	2.85133
1255.000	6.34385	3.48161	7.55744	2.85725
1256.000	6.40243	3.44379	7.61572	2.79392
1257.000	6.35166	3.46974	7.59047	2.75671
1258.000	6.29503	3.41298	7.57298	2.80010
1259.000	6.30870	3.44441	7.57298	2.79223
1260.000	6.32628	3.38519	7.59435	2.73897
1261.000	6.37510	3.34152	7.57881	2.74301
1262.000	6.33213	3.30830	7.58075	2.77054
1263.000	6.32042	3.31231	7.63125	2.74464
1264.000	6.29503	3.27306	7.56715	2.77259
1265.000	6.29112	3.35388	7.57298	2.78239
1266.000	6.39462	3.37686	7.55161	2.73728
1267.000	6.47076	3.30543	7.60018	2.73697
1268.000	6.42391	3.33332	7.69145	2.69311
1269.000	6.37119	3.27849	7.66038	2.67363
1270.000	6.35752	3.23127	7.65067	2.73861
1271.000	6.38291	3.36314	7.58464	2.77838
1272.000	6.43757	3.31353	7.67398	2.69715
1273.000	6.33604	3.26886	7.60600	2.77038
1274.000	6.37314	3.23117	7.69533	2.65767
1275.000	6.41610	3.24076	7.61766	2.66799
1276.000	6.44928	3.27996	7.60406	2.70546
1277.000	6.29698	3.28093	7.65650	2.66972
1278.000	6.37900	3.29420	7.58658	2.65835
1279.000	6.34580	3.28850	7.60989	2.77035
1280.000	6.38291	3.26462	7.66427	2.72279
1281.000	6.39853	3.32166	7.60406	2.71530
1282.000	6.38681	3.24488	7.71863	2.65163
1283.000	6.43952	3.29578	7.66038	2.68150
1284.000	6.35166	3.31802	7.64873	2.68551
1285.000	6.41415	3.35506	7.65844	2.65987
1286.000	6.42000	3.29197	7.64679	2.68749
1287.000	6.33018	3.33984	7.67786	2.71877
1288.000	6.45514	3.27007	7.65262	2.66187
1289.000	6.37119	3.47551	7.64873	2.71699
1290.000	6.41024	3.35902	7.67786	2.68532
1291.000	6.33604	3.30630	7.57881	2.72136
1292.000	6.33213	3.34574	7.61377	2.70737
1293.000	6.39072	3.33354	7.67203	2.68733
1294.000	6.42781	3.27812	7.64485	2.73472
1295.000	6.31846	3.25517	7.64679	2.69142
1296.000	6.40048	3.32165	7.61377	2.70737
1297.000	6.34385	3.22150	7.62737	2.67974
1298.000	6.41610	3.31170	7.60989	2.74871
1299.000	6.38486	3.20351	7.64291	2.71309
1300.000	6.43562	3.32536	7.59629	2.70158
1301.000	6.33213	3.26100	7.66427	2.72476
1302.000	6.28135	3.24357	7.59629	2.66813
1303.000	6.36338	3.36721	7.60406	2.74088
1304.000	6.35166	3.30226	7.58075	2.72135
1305.000	6.34190	3.20181	7.61766	2.72309
1306.000	6.30284	3.26906	7.60018	2.67597
1307.000	6.22861	3.24587	7.61183	2.73493
1308.000	6.33995	3.24715	7.60406	2.76252
1309.000	6.31065	3.20791	7.65067	2.68943
1310.000	6.34971	3.31804	7.62931	2.75252
1311.000	6.34971	3.26877	7.59824	2.77830
1312.000	6.29112	3.23169	7.60600	2.72119
1313.000	6.32042	3.26895	7.59241	2.79801
1314.000	6.34580	3.29047	7.55161	2.74318
1315.000	6.25987	3.27722	7.58464	2.80003
1316.000	6.37705	3.26465	7.57492	2.72532
1317.000	6.35557	3.25494	7.64291	2.73670
1318.000	6.35166	3.21751	7.60600	2.67003
1319.000	6.37314	3.16022	7.59629	2.71338
1320.000	6.30479	3.13501	7.55938	2.73526
1321.000	6.23447	3.18078	7.60018	2.74877
1322.000	6.29893	3.23952	7.58075	2.74103
1323.000	6.33409	3.27281	7.63125	2.73087
1324.000	6.23838	3.13541	7.52830	2.78662
1325.000	6.33213	3.28465	7.58658	2.72328
1326.000	6.36338	3.32386	7.59629	2.76650
1327.000	6.28135	3.17064	7.60212	2.76253
1328.000	6.29112	3.21197	7.56133	2.72147
1329.000	6.32042	3.25319	7.60212	2.76253
1330.000	6.29112	3.22774	7.61572	2.76441
1331.000	6.35947	3.23914	7.56327	2.73327
1332.000	6.41610	3.22105	7.62737	2.76237
1333.000	6.35557	3.22537	7.57687	2.75286
1334.000	6.24228	3.20439	7.53218	2.76298
1335.000	6.36338	3.24700	7.59047	2.78228
1336.000	6.35362	3.19385	7.58464	2.75477
1337.000	6.43757	3.16179	7.52830	2.73349
1338.000	6.39853	3.13838	7.59047	2.72326
1339.000	6.34971	3.17219	7.51081	2.75918
1340.000	6.36338	3.25883	7.53024	2.75512
1341.000	6.35166	3.22934	7.57687	2.72728
1342.000	6.27745	3.23571	7.56521	2.79228
1343.000	6.34385	3.30231	7.57298	2.70959
1344.000	6.29698	3.14886	7.54190	2.83178
1345.000	6.37314	3.25285	7.57492	2.78238
1346.000	6.37119	3.20359	7.57492	2.80992
1347.000	6.26377	3.24171	7.59629	2.75864
1348.000	6.33799	3.13086	7.57104	2.79421
1349.000	6.36143	3.17409	7.57492	2.78828
1350.000	6.31846	3.27094	7.58270	2.71937
1351.000	6.32237	3.20981	7.55355	2.74907
1352.000	6.39657	3.28424	7.52247	2.76107
1353.000	6.35752	3.23127	7.57492	2.78238
1354.000	6.36338	3.18787	7.57104	2.75289
1355.000	6.32628	3.29848	7.63320	2.77414
1356.000	6.35362	3.29436	7.59047	2.73506
1357.000	6.39462	3.26060	7.56327	2.77262
1358.000	6.33213	3.24917	7.64485	2.77406
1359.000	6.30089	3.18235	7.60795	2.76250
1360.000	6.32628	3.30636	7.54773	2.70975
1361.000	6.35362	3.19385	7.54384	2.75897
1362.000	6.36338	3.28445	7.58658	2.80001
1363.000	6.27940	3.25936	7.58075	2.76857
1364.000	6.35752	3.23324	7.55550	2.72938
1365.000	6.33799	3.21366	7.54190	2.77276
1366.000	6.36338	3.30021	7.59435	2.73504
1367.000	6.33213	3.19989	7.59435	2.74881
1368.000	6.35362	3.27269	7.60212	2.73302
1369.000	6.28917	3.24747	7.57881	2.70365
1370.000	6.33995	3.25701	7.57492	2.71942
1371.000	6.29307	3.20605	7.55161	2.77663
1372.000	6.34971	3.26483	7.61766	2.75260
1373.000	6.33604	3.22549	7.61766	2.70341
1374.000	6.33018	3.19202	7.54773	2.74911
1375.000	6.30479	3.21978	7.58075	2.77447
1376.000	6.20125	3.16323	7.60406	2.77236
1377.000	6.24814	3.21421	7.60989	2.74281
1378.000	6.25791	3.23584	7.52052	2.76896
1379.000	6.28917	3.23761	7.59435	2.72717
1380.000	6.33604	3.21170	7.61572	2.76835
1381.000	6.29112	3.24746	7.64485	2.76619
1382.000	6.33213	3.21763	7.62737	2.75844
1383.000	6.27745	3.13714	7.57687	2.76466
1384.000	6.32042	3.23348	7.58658	2.71541
1385.000	6.34971	3.16825	7.59824	2.73895
1386.000	6.26377	3.18849	7.60212	2.70744
1387.000	6.37119	3.16614	7.56133	2.72934
1388.000	6.30479	3.19218	7.60212	2.66219
1389.000	6.25596	3.11953	7.61766	2.68964
1390.000	6.30089	3.22966	7.61960	2.70143
1391.000	6.39072	3.16011	7.63708	2.70919
1392.000	6.36533	3.27064	7.63320	2.61871
1393.000	6.29307	3.20605	7.63125	2.64627
1394.000	6.29112	3.15086	7.65067	2.70910
1395.000	6.29698	3.21785	7.58464	2.68001
1396.000	6.28917	3.18636	7.66038	2.71494
1397.000	6.28526	3.19230	7.60212	2.73892
1398.000	6.30479	3.26905	7.68563	2.66560
1399.000	6.29698	3.17251	7.65262	2.61859
1400.000	6.33604	3.12299	7.63125	2.71710
1401.000	6.31651	3.14085	7.67398	2.64994
1402.000	6.26768	3.18649	7.64291	2.70719
1403.000	6.29307	3.21196	7.62349	2.69550
1404.000	6.31065	3.19214	7.64679	2.70519
1405.000	6.30870	3.24735	7.60795	2.69560
1406.000	6.37900	3.22325	7.63125	2.64627
1407.000	6.33799	3.28264	7.62154	2.65026
1408.000	6.27159	3.16478	7.59435	2.70552
1409.000	6.26573	3.23382	7.60600	2.67003
1410.000	6.36924	3.19375	7.57104	2.64270
1411.000	6.28135	3.18247	7.61183	2.65032
1412.000	6.26377	3.15497	7.57298	2.66630
1413.000	6.34776	3.22542	7.62543	2.68762
1414.000	6.29307	3.23759	7.56910	2.67223
1415.000	6.21884	3.18284	7.60989	2.70739
1416.000	6.24228	3.22805	7.58464	2.71346
1417.000	6.31846	3.24531	7.47000	2.74566
1418.000	6.25205	3.20630	7.56715	2.63092
1419.000	6.24619	3.23591	7.47777	2.72790
1420.000	6.17585	3.15550	7.55744	2.70969
1421.000	6.24814	3.19450	7.45445	2.77528
1422.000	6.34385	3.27472	7.48943	2.77112
1423.000	6.28526	3.26917	7.47388	2.75548
1424.000	6.30870	3.18033	7.46805	2.72206
1425.000	6.32432	3.21768	7.48360	2.77510
1426.000	6.26963	3.27321	7.44862	2.82845
1427.000	6.30674	3.18428	7.42140	2.79123
1428.000	6.22470	3.23604	7.47583	2.79876
1429.000	6.32823	3.20189	7.48360	2.73967
1430.000	6.30870	3.22172	7.48943	2.74948
1431.000	6.24424	3.30294	7.45639	2.75165
1432.000	6.27549	3.29486	7.50303	2.78678
1433.000	6.36533	3.24699	7.46028	2.76540
1434.000	6.30284	3.19613	7.44278	2.78126
1435.000	6.29112	3.23169	7.47777	2.76726
1436.000	6.33409	3.22945	7.46028	2.74966
1437.000	6.26768	3.28900	7.44278	2.74780
1438.000	6.26963	3.18648	7.49720	2.76320
1439.000	6.30674	3.25130	7.47777	2.74955
1440.000	6.29503	3.32824	7.51858	2.66073
1441.000	6.30479	3.20006	7.54190	2.71176
1442.000	6.33018	3.30634	7.47388	2.82239
1443.000	6.35752	3.27857	7.55161	2.72547
1444.000	6.21102	3.25387	7.48554	2.76721
1445.000	6.38095	3.31981	7.53024	2.74135
1446.000	6.25400	3.24177	7.52247	2.70991
1447.000	6.25400	3.26937	7.54578	2.67041
1448.000	6.35166	3.26284	7.58075	2.73512
1449.000	6.38681	3.29021	7.52441	2.69809
1450.000	6.27549	3.24952	7.56133	2.68015
1451.000	6.30479	3.23949	7.55355	2.68807
1452.000	6.30089	3.22571	7.50886	2.70409
1453.000	6.32823	3.23934	7.51858	2.70993
1454.000	6.25791	3.22795	7.47971	2.69246
1455.000	6.33604	3.23929	7.50498	2.74938
1456.000	6.39267	3.29805	7.49915	2.68447
1457.000	6.31260	3.20593	7.53801	2.68620
1458.000	6.19930	3.19282	7.53995	2.72161
1459.000	6.27940	3.27710	7.57492	2.66039
1460.000	6.26377	3.21609	7.54967	2.66448
1461.000	6.27940	3.28695	7.53218	2.71772
1462.000	6.27354	3.23771	7.54773	2.67433
1463.000	6.32628	3.17825	7.52635	2.70792
1464.000	6.39657	3.28029	7.56521	2.74703
1465.000	6.31065	3.24142	7.55355	2.71955
1466.000	6.33018	3.29057	7.49526	2.73566
1467.000	6.30479	3.21189	7.52052	2.72960
1468.000	6.30089	3.19614	7.51858	2.67648
1469.000	6.33604	3.23338	7.53801	2.71572
1470.000	6.25205	3.18264	7.55355	2.69201
1471.000	6.33409	3.22156	7.47194	2.72794
1472.000	6.31651	3.20985	7.53218	2.65278
1473.000	6.26377	3.15694	7.52635	2.68037
1474.000	6.31846	3.24926	7.48360	2.71802
1475.000	6.33213	3.24523	7.49332	2.73764
1476.000	6.26573	3.20227	7.47388	2.74367
1477.000	6.28135	3.21795	7.48554	2.71408
1478.000	6.35362	3.26874	7.47000	2.76534
1479.000	6.38095	3.24295	7.45250	2.73396
1480.000	6.33213	3.28070	7.50692	2.66474
1481.000	6.25400	3.23783	7.46417	2.73389
1482.000	6.28331	3.20611	7.46222	2.73587
1483.000	6.32432	3.30046	7.44667	2.73597
1484.000	6.42586	3.27419	7.49137	2.69436
1485.000	6.33604	3.26097	7.46222	2.78507
1486.000	6.31260	3.29265	7.45639	2.71032
1487.000	6.32823	3.19795	7.48166	2.72197
1488.000	6.26573	3.21016	7.47388	2.74761
1489.000	6.24619	3.24379	7.47194	2.69054
1490.000	6.38486	3.25475	7.42723	2.71641
1491.000	6.30674	3.18231	7.43306	2.73999
1492.000	6.31456	3.18226	7.50109	2.76121
1493.000	6.27745	3.15686	7.41751	2.78339
1494.000	6.31846	3.15661	7.41168	2.75784
1495.000	6.35166	3.25890	7.43112	2.75968
1496.000	6.30674	3.20202	7.43501	2.74785
1497.000	6.30284	3.18233	7.43695	2.74193
1498.000	6.31065	3.29661	7.38057	2.70882
1499.000	6.24228	3.19650	7.47583	2.70823
1500.000	6.21102	3.19669	7.43306	2.74983
1501.000	6.37119	3.16614	7.42335	2.69084
1502.000	6.25791	3.20232	7.46611	2.73781
1503.000	6.29307	3.21196	7.46417	2.65516
1504.000	6.28331	3.17260	7.54578	2.63302
1505.000	6.33018	3.20582	7.56133	2.67228
1506.000	6.25596	3.20431	7.54773	2.68220
1507.000	6.29112	3.24549	7.54190	2.68224
1508.000	6.30674	3.22765	7.56133	2.69589
1509.000	6.32237	3.28077	7.56910	2.69978
1510.000	6.23838	3.11963	7.52635	2.68234
1511.000	6.20516	3.24602	7.58658	2.68590
1512.000	6.20907	3.14741	7.55744	2.65066
1513.000	6.31846	3.11127	7.53218	2.64884
1514.000	6.25010	3.23194	7.56521	2.62109
1515.000	6.26573	3.14116	7.56133	2.68015
1516.000	6.24228	3.16299	7.53607	2.63898
1517.000	6.28135	3.12923	7.50692	2.61947
1518.000	6.24424	3.15115	7.56715	2.56007
1519.000	6.22470	3.11774	7.60212	2.57757
1520.000	6.31456	3.20395	7.57687	2.61708
1521.000	6.29698	3.29078	7.60600	2.57164
1522.000	6.32042	3.28866	7.59824	2.64647
1523.000	6.30870	3.14090	7.54967	2.61331
1524.000	6.30870	3.21384	7.57298	2.62695
1525.000	6.25596	3.22008	7.62543	2.63253
1526.000	6.41415	3.19938	7.64096	2.65408
1527.000	6.35166	3.19780	7.58464	2.65246
1528.000	6.38095	3.21339	7.61766	2.60109
1529.000	6.37705	3.18188	7.61183	2.59326
1530.000	6.25596	3.14910	7.62931	2.64628
1531.000	6.38486	3.29022	7.62543	2.54201
1532.000	6.26768	3.26140	7.58270	2.61902
1533.000	6.38095	3.22127	7.60795	2.54802
1534.000	6.27354	3.15294	7.60018	2.62481
1535.000	6.23447	3.21627	7.63708	2.54588
1536.000	6.32432	3.22163	7.54190	2.63501
1537.000	6.26768	3.23972	7.63902	2.57145
1538.000	6.28331	3.15091	7.52441	2.65086
1539.000	6.33799	3.22154	7.58658	2.63080
1540.000	6.36533	3.23714	7.54190	2.62714
1541.000	6.36533	3.20954	7.60406	2.61889
1542.000	6.31651	3.20393	7.58658	2.60522
1543.000	6.44928	3.21493	7.58270	2.63673
1544.000	6.43952	3.19528	7.54967	2.60544
1545.000	6.32237	3.23543	7.55550	2.66444
1546.000	6.27745	3.18643	7.50303	2.63327
1547.000	6.33995	3.21364	7.56521	2.62109
1548.000	6.37119	3.21345	7.53607	2.63898
1549.000	6.31260	3.28083	7.56133	2.63686
1550.000	6.31651	3.16648	7.58852	2.64653
1551.000	6.29112	3.23169	7.55744	2.65853
1552.000	6.38486	3.20745	7.61960	2.59518
1553.000	6.32237	3.19207	7.55550	2.65067
1554.000	6.31651	3.21576	7.54384	2.68223
1555.000	6.33213	3.22749	7.57492	2.60135
1556.000	6.37900	3.17792	7.56521	2.62306
1557.000	6.37900	3.23114	7.51081	2.65094
1558.000	6.34580	3.23529	7.56715	2.62305
1559.000	6.35752	3.29631	7.51664	2.66862
1560.000	6.41024	3.15014	7.55355	2.61132
1561.000	6.35166	3.18992	7.57687	2.55214
1562.000	6.33799	3.21957	7.53801	2.66652
1563.000	6.34776	3.25104	7.55744	2.68017
1564.000	6.46100	3.24047	7.55355	2.67823
1565.000	6.29893	3.21784	7.64291	2.61668
1566.000	6.35166	3.27467	7.57492	2.57773
1567.000	6.35752	3.26281	7.57298	2.61711
1568.000	6.33409	3.24325	7.51858	2.63909
1569.000	6.34580	3.19193	7.58658	2.56782
1570.000	6.37119	3.19965	7.55744	2.64869
1571.000	6.31651	3.22759	7.60212	2.60119
1572.000	6.40634	3.27235	7.58075	2.55211
1573.000	6.23447	3.31089	7.56133	2.60143
1574.000	6.28721	3.20411	7.53995	2.65864
1575.000	6.28135	3.20809	7.58464	2.62884
1576.000	6.31260	3.25324	7.57104	2.68403
1577.000	6.42195	3.21313	7.55161	2.66250
1578.000	6.28721	3.23565	7.61766	2.60306
1579.000	6.31846	3.21969	7.60406	2.68579
1580.000	6.32823	3.17232	7.57881	2.62298
1581.000	6.28135	3.21006	7.52247	2.60560
1582.000	6.36533	3.31597	7.57492	2.57970
1583.000	6.41219	3.19151	7.56715	2.64666
1584.000	6.40048	3.22509	7.55744	2.63098
1585.000	6.33409	3.20974	7.59435	2.54810
1586.000	6.33018	3.24918	7.60018	2.59529
1587.000	6.36338	3.21547	7.56133	2.63883
1588.000	6.33604	3.20775	7.57492	2.66432
1589.000	6.37900	3.22720	7.58270	2.55407
1590.000	6.31651	3.19802	7.57104	2.58760
1591.000	6.27159	3.19041	7.61572	2.60504
1592.000	6.37705	3.25086	7.59241	2.59534
1593.000	6.36338	3.31204	7.60212	2.53231
1594.000	6.29112	3.14889	7.56327	2.59748
1595.000	6.37705	3.25283	7.60600	2.59723
1596.000	6.31651	3.24336	7.57492	2.57577
1597.000	6.32628	3.23344	7.56133	2.62899
1598.000	6.35362	3.23327	7.56910	2.63878
1599.000	6.40829	3.17577	7.57687	2.62889
1600.000	6.38681	3.25277	7.59824	2.62286
1601.000	6.31065	3.25325	7.57881	2.55409
1602.000	6.44343	3.29379	7.60406	2.56182
1603.000	6.37119	3.24104	7.56910	2.55218
1604.000	6.39462	3.25666	7.61377	2.60702
1605.000	6.40243	3.25661	7.60600	2.59723
1606.000	6.39462	3.14235	7.60018	2.64843
1607.000	6.36143	3.26278	7.63708	2.59507
1608.000	6.42000	3.21708	7.57881	2.58165
1609.000	6.36924	3.19375	7.58075	2.57376
1610.000	6.35166	3.20963	7.64485	2.57928
1611.000	6.41024	3.26838	7.62154	2.65616
1612.000	6.41219	3.21122	7.59629	2.61893
1613.000	6.38291	3.30994	7.64485	2.58912
1614.000	6.32823	3.21569	7.59435	2.59730
1615.000	6.41610	3.29002	7.62931	2.58331
1616.000	6.39267	3.21134	7.59435	2.62288
1617.000	6.39072	3.22712	7.62543	2.56366
1618.000	6.36924	3.30018	7.61766	2.55977
1619.000	6.36729	3.26274	7.64485	2.58715
1620.000	6.39267	3.24485	7.57687	2.56198
1621.000	6.34776	3.23331	7.63320	2.59116
1622.000	6.34776	3.20177	7.58270	2.56588
1623.000	6.35557	3.18989	7.56715	2.58369
1624.000	6.36729	3.23515	7.60795	2.60705
1625.000	6.35947	3.15833	7.59629	2.61303
1626.000	6.43172	3.27219	7.63708	2.55572
1627.000	6.35166	3.22934	7.57492	2.58561
1628.000	6.44538	3.27210	7.61377	2.59324
1629.000	6.37900	3.21143	7.64096	2.56947
1630.000	6.33799	3.33782	7.61572	2.55584
1631.000	6.34971	3.26877	7.61572	2.56371
1632.000	6.36924	3.25682	7.61377	2.60112
1633.000	6.40048	3.19553	7.61960	2.59518
1634.000	6.38681	3.30794	7.62737	2.61481
1635.000	6.39072	3.26457	7.60406	2.58346
1636.000	6.37119	3.31002	7.65844	2.53788
1637.000	6.44148	3.27606	7.58852	2.54616
1638.000	6.38876	3.31187	7.62737	2.58136
1639.000	6.36143	3.29234	7.54384	2.55430
1640.000	6.33018	3.14274	7.59824	2.62089
1641.000	6.37900	3.27449	7.58852	2.55010
1642.000	6.39267	3.17981	7.60212	2.58938
1643.000	6.35166	3.28058	7.58852	2.62292
1644.000	6.36533	3.24699	7.55355	2.56212
1645.000	6.33799	3.19789	7.55550	2.60934
1646.000	6.41024	3.18364	7.58075	2.55015
1647.000	6.32432	3.29061	7.60212	2.57757
1648.000	6.34776	3.18797	7.58464	2.52454
1649.000	6.42781	3.20127	7.56910	2.53447
1650.000	6.36143	3.26081	7.56910	2.56596
1651.000	6.32823	3.24525	7.52052	2.56625
1652.000	6.32432	3.28864	7.54773	2.55034
1653.000	6.32432	3.16446	7.53801	2.58976
1654.000	6.35947	3.21155	7.53995	2.58975
1655.000	6.38095	3.23113	7.56715	2.55613
1656.000	6.37705	3.20750	7.59241	2.58157
1657.000	6.31065	3.26704	7.45250	2.61389
1658.000	6.33018	3.26889	7.53607	2.52482
1659.000	6.33799	3.23337	7.51081	2.57024
1660.000	6.29112	3.24351	7.51275	2.60172
1661.000	6.32042	3.22165	7.46417	2.60792
1662.000	6.35752	3.23127	7.49526	2.62742
1663.000	6.39267	3.23105	7.50303	2.63524
1664.000	6.36338	3.22532	7.48166	2.64718
1665.000	6.32042	3.25319	7.43501	2.63565
1666.000	6.37314	3.30212	7.44084	2.66318
1667.000	6.32237	3.27485	7.45250	2.64539
1668.000	6.34776	3.29046	7.39418	2.64968
1669.000	6.34580	3.32594	7.48360	2.65504
1670.000	6.35947	3.30024	7.47000	2.61576
1671.000	6.34580	3.21952	7.47388	2.58818
1672.000	6.36533	3.31202	7.50498	2.59980
1673.000	6.44538	3.24451	7.52441	2.59575
1674.000	6.29112	3.22183	7.47971	2.64719
1675.000	6.40048	3.24874	7.43306	2.63763
1676.000	6.40048	3.27042	7.48166	2.63931
1677.000	6.41219	3.19545	7.45833	2.64339
1678.000	6.33604	3.27083	7.48749	2.60975
1679.000	6.29698	3.22377	7.47000	2.59804
1680.000	6.34580	3.26682	7.52635	2.64101
1681.000	6.28526	3.22778	7.47777	2.58619
1682.000	6.27159	3.27912	7.45250	2.60799
1683.000	6.29503	3.26911	7.50692	2.60570
1684.000	6.39072	3.30989	7.54578	2.59365
1685.000	6.33213	3.29450	7.53218	2.58783
1686.000	6.33409	3.22156	7.53607	2.61143
1687.000	6.31651	3.33007	7.53413	2.59176
1688.000	6.26573	3.21410	7.54578	2.62121
1689.000	6.42000	3.25059	7.52441	2.60559
1690.000	6.26768	3.27520	7.53995	2.63502
1691.000	6.40438	3.28024	7.54384	2.58186
1692.000	6.35557	3.29238	7.54578	2.62514
1693.000	6.38291	3.37890	7.52441	2.58394
1694.000	6.33799	3.20774	7.51081	2.57615
1695.000	6.36924	3.25485	7.56715	2.60140
1696.000	6.33995	3.28854	7.55550	2.60934
1697.000	6.40634	3.36693	7.55161	2.61330
1698.000	6.36924	3.32973	7.52247	2.60954
1699.000	6.30089	3.34200	7.53024	2.67641
1700.000	6.35947	3.32389	7.52830	2.52487
1701.000	6.37705	3.24298	7.49915	2.58803
1702.000	6.34190	3.35356	7.51858	2.62924
1703.000	6.34776	3.28061	7.53607	2.57600
1704.000	6.31846	3.26700	7.57298	2.55610
1705.000	6.42391	3.31953	7.53218	2.61539
1706.000	6.40829	3.39844	7.57881	2.55606
1707.000	6.42781	3.32738	7.57298	2.63482
1708.000	6.39267	3.28229	7.60018	2.61891
1709.000	6.33604	3.29645	7.55161	2.59559
1710.000	6.41219	3.31369	7.62349	2.55383
1711.000	6.33409	3.27872	7.57687	2.58166
1712.000	6.37119	3.34745	7.55355	2.64281
1713.000	6.44928	3.29178	7.52247	2.59379
1714.000	6.39853	3.32363	7.56910	2.52266
1715.000	6.42195	3.30772	7.53024	2.58587
1716.000	6.33213	3.37332	7.56521	2.54236
1717.000	6.25205	3.28712	7.58075	2.55408
1718.000	6.36924	3.29623	7.61377	2.50272
1719.000	6.30479	3.30453	7.49720	2.61166
1720.000	6.39657	3.35911	7.64679	2.52811
1721.000	6.34385	3.38113	7.57492	2.57773
1722.000	6.31065	3.30646	7.57298	2.58955
1723.000	6.40243	3.26449	7.59629	2.55596
1724.000	6.34971	3.23526	7.58270	2.56588
1725.000	6.32823	3.23934	7.60018	2.57168
1726.000	6.40829	3.33736	7.58075	2.54424
1727.000	6.37900	3.35134	7.56715	2.55613
1728.000	6.42000	3.29000	7.57104	2.56004
1729.000	6.36533	3.37311	7.51664	2.51115
1730.000	6.29307	3.31643	7.60212	2.53034
1731.000	6.41610	3.33534	7.58270	2.55801
1732.000	6.40829	3.33539	7.57687	2.54426
1733.000	6.32042	3.25910	7.54384	2.57595
1734.000	6.35362	3.27663	7.54384	2.64484
1735.000	6.41415	3.40628	7.57881	2.58362
1736.000	6.43952	3.38050	7.60212	2.52443
1737.000	6.38681	3.39464	7.59824	2.54020
1738.000	6.37705	3.34742	7.63708	2.50455
1739.000	6.38681	3.37888	7.60018	2.59726
1740.000	6.33604	3.31812	7.57298	2.54035
1741.000	6.42976	3.28599	7.58658	2.59341
1742.000	6.35557	3.40076	7.60600	2.53032
1743.000	6.41415	3.34520	7.58464	2.58161
1744.000	6.40048	3.36500	7.58270	2.56391
1745.000	6.41219	3.30975	7.53995	2.57597
1746.000	6.35557	3.34953	7.51858	2.63712
1747.000	6.42586	3.36680	7.50109	2.60376
1748.000	6.32823	3.35365	7.56910	2.58171
1749.000	6.41415	3.27624	7.51858	2.59578
1750.000	6.39853	3.39850	7.55744	2.56406
1751.000	6.41415	3.40628	7.54578	2.55626
1752.000	6.47271	3.36846	7.56715	2.52070
1753.000	6.48637	3.39791	7.56133	2.58175
1754.000	6.38095	3.33951	7.58852	2.60324
1755.000	6.39072	3.35127	7.55744	2.58374
1756.000	6.43367	3.35296	7.53801	2.60551
1757.000	6.46490	3.38624	7.54773	2.61529
1758.000	6.45905	3.33900	7.55355	2.57393
1759.000	6.35752	3.36134	7.56327	2.57780
1760.000	6.34776	3.35746	7.52441	2.59575
1761.000	6.41415	3.40628	7.53995	2.54842
1762.000	6.40634	3.44376	7.52052	2.56822
1763.000	6.46295	3.33897	7.53607	2.57403
1764.000	6.47856	3.35857	7.52052	2.61939
1765.000	6.39267	3.38081	7.54384	2.58186
1766.000	6.32823	3.36350	7.53413	2.53861
1767.000	6.37510	3.32181	7.50303	2.57422
1768.000	6.44343	3.29182	7.51275	2.58795
1769.000	6.43757	3.35096	7.54384	2.51887
1770.000	6.42000	3.28606	7.52635	2.59180
1771.000	6.42391	3.34514	7.44667	2.66511
1772.000	6.46490	3.33305	7.52441	2.57804
1773.000	6.44343	3.40017	7.50109	2.58408
1774.000	6.48442	3.37626	7.51858	2.58791
1775.000	6.39657	3.26650	7.44473	2.63756
1776.000	6.45514	3.43555	7.45833	2.59024
1777.000	6.40048	3.36303	7.47583	2.63934
1778.000	6.44538	3.35288	7.45833	2.59811
1779.000	6.41219	3.38856	7.48749	2.60581
1780.000	6.46295	3.43944	7.54578	2.54051
1781.000	6.43367	3.35296	7.41362	2.68499
1782.000	6.31260	3.34586	7.44667	2.62180
1783.000	6.44733	3.30164	7.49915	2.57622
1784.000	6.42781	3.31950	7.44278	2.62773
1785.000	6.42781	3.36088	7.47583	2.60194
1786.000	6.41805	3.38852	7.43501	2.67109
1787.000	6.43952	3.32928	7.45833	2.65323
1788.000	6.42195	3.34121	7.45056	2.60013
1789.000	6.41610	3.32549	7.43890	2.62776
1790.000	6.36533	3.29232	7.47971	2.65704
1791.000	6.36729	3.28442	7.46611	2.60594
1792.000	6.41219	3.28414	7.52052	2.60561
1793.000	6.47076	3.30149	7.46222	2.63746
1794.000	6.44733	3.32922	7.48360	2.62158
1795.000	6.45514	3.34099	7.45250	2.67295
1796.000	6.34971	3.35154	7.42335	2.64753
1797.000	6.43952	3.48293	7.39613	2.60635
1798.000	6.42586	3.43378	7.43306	2.65338
1799.000	6.45124	3.32526	7.46222	2.64139
1800.000	6.42586	3.37468	7.43501	2.61794
1801.000	6.40829	3.44966	7.45445	2.61979
1802.000	6.41805	3.29395	7.48749	2.60975
1803.000	6.42000	3.35896	7.45250	2.62374
1804.000	6.49808	3.38996	7.45056	2.63556
1805.000	6.46880	3.34878	7.45639	2.59222
1806.000	6.50784	3.36034	7.42529	2.63374
1807.000	6.49418	3.37226	7.47777	2.62162
1808.000	6.49027	3.42940	7.48360	2.63339
1809.000	6.42391	3.41212	7.49915	2.59590
1810.000	6.47856	3.41176	7.50303	2.59194
1811.000	6.38291	3.40846	7.48360	2.63339
1812.000	6.45319	3.41390	7.47971	2.61176
1813.000	6.50003	3.38797	7.47971	2.57436
1814.000	6.39462	3.34927	7.44667	2.61590
1815.000	6.40048	3.36500	7.47000	2.58623
1816.000	6.42976	3.37662	7.49526	2.58214
1817.000	6.41024	3.33144	7.51275	2.58991
1818.000	6.45124	3.41391	7.45056	2.61587
1819.000	6.49418	3.33680	7.49526	2.59002
1820.000	6.48637	3.43337	7.49137	2.59792
1821.000	6.47856	3.34084	7.45056	2.60800
1822.000	6.46685	3.42365	7.45250	2.63358
1823.000	6.42195	3.30969	7.53024	2.59965
1824.000	6.48442	3.38808	7.50886	2.64308
1825.000	6.46880	3.34681	7.48360	2.55072
1826.000	6.50003	3.47267	7.50109	2.58605
1827.000	6.48832	3.30334	7.45833	2.60402
1828.000	6.44928	3.41983	7.52052	2.56034
1829.000	6.49223	3.45106	7.46222	2.59612
1830.000	6.42391	3.34514	7.49720	2.59788
1831.000	6.53516	3.43698	7.50303	2.60178
1832.000	6.50589	3.45490	7.50303	2.59588
1833.000	6.43172	3.40025	7.48554	2.63338
1834.000	6.46880	3.44925	7.48360	2.55859
1835.000	6.48637	3.44125	7.46222	2.53312
1836.000	6.44538	3.40213	7.48360	2.59993
1837.000	6.56443	3.41905	7.45056	2.61784
1838.000	6.43952	3.44551	7.53024	2.62524
1839.000	6.50199	3.41357	7.46805	2.61774
1840.000	6.49808	3.41556	7.51275	2.56433
1841.000	6.52931	3.55320	7.52441	2.59181
1842.000	6.46295	3.42171	7.51469	2.53479
1843.000	6.33409	3.57426	7.53607	2.45986
1844.000	6.15826	3.54984	7.33196	2.55750
1845.000	5.98037	3.61408	7.17048	2.55054
1846.000	5.70450	3.61388	6.96020	2.63841
1847.000	5.38918	3.54478	6.74387	2.53708
1848.000	5.10687	3.66678	6.48832	2.57587
1849.000	4.71241	3.70448	6.18171	2.61096
1850.000	4.41380	3.74355	5.86888	2.66380
1851.000	3.94578	3.73194	5.54003	2.64755
1852.000	3.53238	3.81080	5.21473	2.65884
1853.000	3.30583	3.84334	4.93030	2.65804
1854.000	2.95695	3.83868	4.71830	2.68656
1855.000	2.58614	3.77656	4.47669	2.80422
1856.000	2.25460	3.74186	4.22509	2.79922
1857.000	1.99004	3.72468	3.98119	2.75454
1858.000	1.73725	3.76877	3.81983	2.84616
1859.000	1.64244	3.79865	3.77850	2.74925
1860.000	1.46662	3.76135	3.57964	2.79741
1861.000	1.34609	3.73183	3.42010	2.85930
1862.000	1.21765	3.65081	3.36494	2.75644
1863.000	1.17813	3.68058	3.22504	2.73700
1864.000	1.06746	3.71835	3.19350	2.73313
1865.000	1.02793	3.63520	3.03581	2.74741
1866.000	0.91132	3.55012	2.91357	2.74573
1867.000	0.71959	3.65531	2.67689	2.69671
1868.000	0.66029	3.60978	2.60390	2.69687
1869.000	0.64843	3.65734	2.51708	2.69507
1870.000	0.44284	3.64558	2.44012	2.65953
1871.000	0.31434	3.68922	2.29407	2.67766
1872.000	0.21747	3.64170	2.20130	2.79684
1873.000	0.16014	3.78831	2.09469	2.68000
1874.000	0.11071	3.71502	2.06902	2.75741
1875.000	0.00593	3.59813	1.94660	2.75365
1876.000	-0.04152	3.61398	1.89920	2.71008
1877.000	0.07710	3.64767	1.91500	2.69418
1878.000	-0.13444	3.70115	1.88143	2.75375
1879.000	-0.12455	3.68332	1.82218	2.83716
1880.000	-0.05536	3.72097	1.85181	2.78752
1881.000	-0.10874	3.70908	1.83403	2.77366
1882.000	-0.10083	3.75267	1.77478	2.78962
1883.000	-0.06326	3.78634	1.80243	2.77768
1884.000	-0.07908	3.70314	1.78268	2.75589
1885.000	-0.06326	3.68927	1.84588	2.79546
1886.000	-0.03163	3.72890	1.80046	2.80347
1887.000	-0.03163	3.73880	1.83601	2.82722
1888.000	-0.02768	3.73682	1.83601	2.81928
1889.000	0.05338	3.73880	1.91105	2.80131
1890.000	0.00395	3.75663	1.85378	2.82917
1891.000	0.06129	3.80219	1.89920	2.82117
1892.000	0.02570	3.68135	1.88143	2.87475
1893.000	0.06722	3.73880	1.84983	2.86488
1894.000	-0.03756	3.70116	1.85576	2.84504
1895.000	0.01384	3.71701	1.89130	2.90052
1896.000	0.11467	3.73682	1.83403	2.86094
1897.000	0.10478	3.77247	1.87551	2.84104
1898.000	0.03361	3.77248	1.77873	2.90070
1899.000	-0.00791	3.73286	1.75503	2.84520
1900.000	-0.01582	3.66154	1.72145	2.84921
1901.000	-0.03756	3.73484	1.73330	2.75001
1902.000	-0.18188	3.65558	1.69182	2.81553
1903.000	-0.25503	3.66745	1.67997	2.83341
1904.000	-0.16014	3.67738	1.64837	2.75608
1905.000	-0.13641	3.71106	1.65232	2.78187
1906.000	-0.20758	3.64368	1.64837	2.75410
1907.000	-0.31632	3.62780	1.62071	2.75612
1908.000	-0.13641	3.73879	1.61478	2.75216
1909.000	-0.17793	3.71303	1.61083	2.82557
1910.000	-0.22735	3.71500	1.65232	2.77393
1911.000	-0.27085	3.74272	1.58713	2.81568
1912.000	-0.16211	3.66152	1.61083	2.76605
1913.000	-0.25305	3.69717	1.65232	2.85328
1914.000	-0.16211	3.74869	1.62269	2.78587
1915.000	-0.28864	3.72291	1.62466	2.77397
1916.000	-0.24712	3.73877	1.58713	2.84346
1917.000	-0.21352	3.67142	1.60491	2.82558
1918.000	-0.24910	3.77244	1.62269	2.86721
1919.000	-0.27876	3.66744	1.60688	2.80574
1920.000	-0.28469	3.69121	1.60688	2.85533
1921.000	-0.20165	3.73482	1.58713	2.79187
1922.000	-0.23724	3.68925	1.60293	2.80177
1923.000	-0.34795	3.69119	1.55947	2.83357
1924.000	-0.29062	3.66744	1.61281	2.81565
1925.000	-0.17002	3.73086	1.50810	2.82372
1926.000	-0.36969	3.63174	1.52391	2.85148
1927.000	-0.27678	3.74668	1.56935	2.85737
1928.000	-0.24119	3.65358	1.56737	2.85340
1929.000	-0.28469	3.71102	1.60491	2.87715
1930.000	-0.21945	3.71897	1.56935	2.82959
1931.000	-0.22538	3.64170	1.54762	2.83756
1932.000	-0.18386	3.64765	1.52984	2.85544
1933.000	-0.26294	3.70509	1.58318	2.87123
1934.000	-0.23922	3.66547	1.57725	2.83950
1935.000	-0.24910	3.66150	1.56342	2.83158
1936.000	-0.18584	3.67935	1.53576	2.78797
1937.000	-0.29062	3.65555	1.57725	2.82760
1938.000	-0.22933	3.67736	1.55354	2.81374
1939.000	-0.19375	3.75463	1.56737	2.83356
1940.000	-0.26887	3.61395	1.51601	2.85149
1941.000	-0.20758	3.64566	1.56935	2.83158
1942.000	-0.20165	3.68331	1.54959	2.82565
1943.000	-0.16014	3.68332	1.55552	2.80580
1944.000	-0.21352	3.69123	1.52193	2.78601
1945.000	-0.24119	3.65953	1.51206	2.82173
1946.000	-0.09292	3.73286	1.52391	2.81378
1947.000	-0.24515	3.69717	1.57923	2.79784
1948.000	-0.14037	3.63973	1.57923	2.83355
1949.000	-0.20165	3.69124	1.59108	2.78790
1950.000	-0.16409	3.64964	1.58120	2.80379
1951.000	-0.23922	3.68132	1.53379	2.82170
1952.000	-0.12850	3.68332	1.51008	2.81578
1953.000	-0.23131	3.70113	1.53774	2.81773
1954.000	-0.25503	3.60999	1.54762	2.83756
1955.000	-0.25108	3.74669	1.55947	2.81770
1956.000	-0.14630	3.65756	1.54367	2.76614
1957.000	-0.19968	3.67935	1.51601	2.83958
1958.000	-0.15816	3.65360	1.52786	2.76021
1959.000	-0.07710	3.71305	1.45279	2.83768
1960.000	-0.27085	3.63178	1.51601	2.79792
1961.000	-0.18584	3.63774	1.54564	2.79590
1962.000	-0.17595	3.70115	1.55354	2.79787
1963.000	-0.20956	3.64765	1.54367	2.77804
1964.000	-0.15421	3.70511	1.56342	2.83158
1965.000	-0.21549	3.66746	1.51008	2.80983
1966.000	-0.26096	3.68330	1.53971	2.84352
1967.000	-0.14234	3.62983	1.53774	2.82567
1968.000	-0.29062	3.64168	1.50415	2.86737
1969.000	-0.26096	3.65952	1.53576	2.89113
1970.000	-0.21549	3.66548	1.51798	2.84950
1971.000	-0.16804	3.71502	1.49230	2.84755
1972.000	-0.21154	3.68529	1.55552	2.80779
1973.000	-0.26096	3.64961	1.47057	2.81583
1974.000	-0.17793	3.73086	1.51601	2.82570
1975.000	-0.22142	3.67142	1.48045	2.81979
1976.000	-0.10874	3.72295	1.47057	2.79599
1977.000	-0.17398	3.65360	1.49428	2.80588
1978.000	-0.08501	3.67342	1.52391	2.85743
1979.000	-0.20561	3.66944	1.52589	2.79394
1980.000	-0.23724	3.65358	1.56737	2.80579
1981.000	-0.19375	3.73284	1.50613	2.87530
1982.000	-0.18979	3.68529	1.51403	2.83562
1983.000	-0.16607	3.60604	1.51601	2.81578
1984.000	-0.12257	3.60605	1.51996	2.89512
1985.000	-0.17200	3.68728	1.52786	2.82370
1986.000	-0.20561	3.65953	1.50415	2.82571
1987.000	-0.17002	3.71502	1.51601	2.86339
1988.000	-0.20165	3.62783	1.54959	2.80780
1989.000	-0.15025	3.71700	1.51206	2.83165
1990.000	-0.15025	3.72691	1.50218	2.86142
1991.000	-0.17398	3.65954	1.50020	2.82572
1992.000	-0.09490	3.66748	1.51403	2.82570
1993.000	-0.24119	3.65358	1.46859	2.81980
1994.000	-0.13246	3.64370	1.48045	2.91898
1995.000	-0.16409	3.71105	1.48637	2.89715
1996.000	-0.17002	3.51686	1.51798	2.82173
1997.000	-0.26294	3.64367	1.49032	2.84358
1998.000	-0.14234	3.67540	1.49823	2.91697
1999.000	-0.18386	3.64765	1.50810	2.82372
2000.000	-0.14037	3.63379	1.51798	2.88719
2001.000	-0.28864	3.65159	1.49625	2.87532
2002.000	-0.21549	3.58622	1.52786	2.87924
2003.000	-0.15816	3.66945	1.50810	2.86340
2004.000	-0.18979	3.71897	1.48440	2.92889
2005.000	-0.23724	3.64169	1.50613	2.86737
2006.000	-0.28073	3.69914	1.47254	2.81782
2007.000	-0.17398	3.64369	1.50218	2.80389
2008.000	-0.18188	3.63576	1.48045	2.89716
2009.000	-0.17793	3.69322	1.51206	2.81975
2010.000	-0.23724	3.68330	1.54367	2.80979
2011.000	-0.25108	3.58225	1.47847	2.89915
2012.000	-0.19177	3.68331	1.51206	2.79396
2013.000	-0.13839	3.61794	1.52786	2.84354
2014.000	-0.13444	3.67144	1.46859	2.81584
2015.000	-0.21549	3.61594	1.50218	2.86737
2016.000	-0.12850	3.73681	1.47847	2.89319
2017.000	-0.21747	3.66349	1.46662	2.90511
2018.000	-0.15223	3.68530	1.51403	2.82967
2019.000	-0.09094	3.71106	1.52786	2.85147
2020.000	-0.13246	3.68332	1.51403	2.81975
2021.000	-0.24317	3.68528	1.47847	2.83963
2022.000	-0.16211	3.65558	1.50218	2.89118
2023.000	-0.12257	3.67342	1.52984	2.80584
2024.000	-0.10676	3.71899	1.51601	2.81379
2025.000	-0.17398	3.72888	1.47057	2.88130
2026.000	-0.10280	3.79624	1.51996	2.79990
2027.000	-0.11862	3.70314	1.44093	2.83769
2028.000	-0.15025	3.75068	1.51008	2.85348
2029.000	-0.17793	3.72294	1.46266	2.91504
2030.000	-0.09490	3.69323	1.51996	2.89116
2031.000	-0.21945	3.67736	1.51206	2.86538
2032.000	-0.18188	3.59811	1.48242	2.85550
2033.000	-0.14432	3.75662	1.48637	2.87930
2034.000	-0.18584	3.74473	1.54959	2.83755
2035.000	-0.19770	3.70510	1.51996	2.89711
2036.000	-0.22538	3.66944	1.54367	2.87922
2037.000	-0.24515	3.65556	1.49823	2.92094
2038.000	-0.23131	3.66151	1.49823	2.88325
2039.000	-0.17002	3.68530	1.48045	2.86740
2040.000	-0.14827	3.67143	1.50218	2.88523
2041.000	-0.20561	3.68727	1.48242	2.84161
2042.000	-0.12455	3.69125	1.48045	2.87931
2043.000	-0.14234	3.64171	1.49823	2.87730
2044.000	-0.18188	3.68728	1.49823	2.87928
2045.000	-0.17991	3.68133	1.49032	2.85747
2046.000	-0.17200	3.57434	1.52193	2.81378
2047.000	-0.19770	3.73086	1.52786	2.84354
2048.000	-0.14432	3.73681	1.48045	2.85153
2049.000	-0.20956	3.72689	1.49428	2.90309
2050.000	-0.26096	3.75461	1.52589	2.86734
2051.000	-0.13839	3.72493	1.48440	2.89914
2052.000	-0.17991	3.65756	1.54564	2.90699
2053.000	-0.16014	3.60406	1.50613	2.89514
2054.000	-0.16211	3.73285	1.52786	2.85345
2055.000	-0.17398	3.62982	1.49032	2.88326
2056.000	-0.17200	3.60406	1.49230	2.91103
2057.000	-0.15816	3.73879	1.51206	2.86339
2058.000	-0.20363	3.60604	1.47649	2.82773
2059.000	-0.25305	3.66348	1.49230	2.88524
2060.000	-0.08501	3.65559	1.49032	2.90905
2061.000	-0.08699	3.65559	1.48440	2.93088
2062.000	-0.05338	3.74078	1.47452	2.87535
2063.000	-0.14432	3.64964	1.48835	2.88326
2064.000	-0.19177	3.65359	1.51206	2.81975
2065.000	-0.14234	3.65558	1.50415	2.87332
2066.000	-0.32818	3.68525	1.55354	2.86334
2067.000	-0.17793	3.60010	1.52391	2.89512
2068.000	-0.20561	3.59613	1.50218	2.91895
2069.000	-0.21747	3.70708	1.53774	2.88121
2070.000	-0.16014	3.63973	1.53576	2.85543
2071.000	-0.06920	3.69522	1.50810	2.88919
2072.000	-0.17398	3.77642	1.57725	2.88314
2073.000	-0.16409	3.64964	1.51996	2.81577
2074.000	-0.07315	3.70116	1.53181	2.92486
2075.000	-0.28864	3.70706	1.51601	2.90306
2076.000	-0.15223	3.60208	1.51996	2.90107
2077.000	-0.11071	3.58425	1.52589	2.84751
2078.000	-0.27678	3.59611	1.51798	2.85743
2079.000	-0.21747	3.63179	1.51601	2.88918
2080.000	-0.16804	3.66152	1.52984	2.86139
2081.000	-0.14234	3.68927	1.49625	2.93086
2082.000	-0.17793	3.65360	1.49625	2.88325
2083.000	-0.15025	3.70908	1.57330	2.87125
2084.000	-0.25899	3.57630	1.50218	2.88920
2085.000	-0.15618	3.66351	1.51601	2.89513
2086.000	-0.23922	3.66943	1.51403	2.89315
2087.000	-0.31632	3.61195	1.55749	2.82366
2088.000	-0.07513	3.67342	1.51601	2.86934
2089.000	-0.26492	3.62385	1.49823	2.94276
2090.000	-0.17002	3.61199	1.55552	2.90103
2091.000	-0.24910	3.68132	1.50218	2.88324
2092.000	-0.16211	3.64567	1.47649	2.89518
2093.000	-0.17398	3.66747	1.51008	2.81975
2094.000	-0.22340	3.77047	1.51798	2.89909
2095.000	-0.15421	3.67341	1.50218	2.94077
2096.000	-0.17398	3.71303	1.51996	2.89711
2097.000	-0.18584	3.64369	1.55354	2.86731
2098.000	-0.20165	3.65557	1.53181	2.88717
2099.000	-0.16409	3.62388	1.51601	2.91496
2100.000	-0.15816	3.69521	1.48045	2.88922
2101.000	-0.12257	3.75464	1.53379	2.87725
2102.000	-0.23922	3.53667	1.51008	2.92886
2103.000	-0.14432	3.71304	1.48242	2.91303
2104.000	-0.23526	3.68132	1.52589	2.83759
2105.000	-0.15618	3.64567	1.52391	2.92289
2106.000	-0.12060	3.62785	1.51403	2.92092
2107.000	-0.22735	3.64566	1.51798	2.88124
2108.000	-0.14234	3.65757	1.54367	2.86534
2109.000	-0.18979	3.68529	1.53181	2.81972
2110.000	-0.22538	3.62585	1.52786	2.89710
2111.000	-0.19968	3.68925	1.49428	2.95665
2112.000	-0.22340	3.60405	1.55354	2.85937
2113.000	-0.22538	3.71104	1.54367	2.90303
2114.000	-0.24712	3.69519	1.49230	2.89318
2115.000	-0.16409	3.72492	1.50415	2.86539
2116.000	-0.19770	3.65755	1.49230	2.89119
2117.000	-0.18584	3.59415	1.52589	2.91892
2118.000	-0.16607	3.65954	1.52984	2.88916
2119.000	-0.12060	3.62983	1.54367	2.88319
2120.000	-0.10280	3.67342	1.52589	2.90900
2121.000	-0.23724	3.60405	1.54762	2.91095
2122.000	-0.09885	3.69918	1.51008	2.91101
2123.000	-0.27678	3.66942	1.54367	2.86335
2124.000	-0.16014	3.68926	1.50810	2.94870
2125.000	-0.22340	3.70906	1.55157	2.94070
2126.000	-0.16804	3.77246	1.49823	2.91102
2127.000	-0.14630	3.77445	1.51601	2.92092
2128.000	-0.24119	3.65754	1.47847	2.93088
2129.000	-0.08897	3.68135	1.51206	2.88918
2130.000	-0.06920	3.72295	1.49032	2.88524
2131.000	-0.06524	3.65757	1.46662	2.92296
2132.000	-0.24119	3.56243	1.51206	2.88323
2133.000	-0.12455	3.60605	1.49625	2.89515
2134.000	-0.12060	3.62388	1.47057	2.85551
2135.000	-0.20758	3.71897	1.49230	2.84953
2136.000	-0.25899	3.62584	1.53774	2.83955
2137.000	-0.15025	3.68530	1.48637	2.83962
2138.000	-0.23526	3.74670	1.51403	2.85942
2139.000	-0.29457	3.62583	1.43500	2.89325
2140.000	-0.38551	3.84172	1.35992	2.92111
2141.000	-0.53180	3.73864	1.26112	2.95099
2142.000	-0.67610	3.84352	1.09513	2.93727
2143.000	-0.95876	3.84721	0.91725	2.87196
2144.000	-1.20975	3.89045	0.68401	2.95546
2145.000	-1.51008	3.92362	0.42900	2.99923
2146.000	-1.79256	4.04971	0.16211	3.01518
2147.000	-2.26447	3.96743	-0.22538	3.05683
2148.000	-2.41249	4.05602	-0.55157	3.08448
2149.000	-2.86821	4.09407	-0.84807	3.13585
2150.000	-3.42601	4.14918	-1.15244	3.23272
2151.000	-3.61903	4.27273	-1.51403	3.27190
2152.000	-4.05202	4.16400	-1.87551	3.30498
2153.000	-4.27031	4.12535	-2.16971	3.41137
2154.000	-4.61421	4.17472	-2.31973	3.41498
2155.000	-4.88909	4.12377	-2.55654	3.43022
2156.000	-5.18335	4.08643	-2.75185	3.41582
2157.000	-5.36958	4.05367	-2.96286	3.49042
2158.000	-5.39310	4.11854	-3.06735	3.50196
2159.000	-5.53611	4.06240	-3.12649	3.53343
2160.000	-5.70450	4.10259	-3.28612	3.54475
2161.000	-5.82779	3.95400	-3.41616	3.57593
2162.000	-5.91583	3.98686	-3.45753	3.54215
2163.000	-5.92756	4.10491	-3.50480	3.58549
2164.000	-5.84345	4.08387	-3.54025	3.58337
2165.000	-5.86497	4.05418	-3.56586	3.61492
2166.000	-5.83758	4.18432	-3.53041	3.58737
2167.000	-5.81410	4.06045	-3.60130	3.65433
2168.000	-5.83171	4.18043	-3.63084	3.67794
2169.000	-5.68688	4.20315	-3.60721	3.64244
2170.000	-5.59486	4.20381	-3.65447	3.67191
2171.000	-5.60857	4.17614	-3.65250	3.64621
2172.000	-5.67318	4.13826	-3.55601	3.65451
2173.000	-5.58703	4.06402	-3.50480	3.59735
2174.000	-5.51652	4.05860	-3.50283	3.60132
2175.000	-5.47734	4.05098	-3.43389	3.58378
2176.000	-5.40093	4.05543	-3.34721	3.54651
2177.000	-5.39506	3.91750	-3.26445	3.57055
2178.000	-5.27354	3.88870	-3.21715	3.50739
2179.000	-5.27354	3.93799	-3.16000	3.50759
2180.000	-5.16767	3.87752	-3.13437	3.48195
2181.000	-5.19708	3.89509	-3.11466	3.51961
2182.000	-5.12060	3.91330	-3.09889	3.50779
2183.000	-5.13041	3.90930	-3.14226	3.48192
2184.000	-5.08137	4.01412	-3.13832	3.51953
2185.000	-5.19708	3.91678	-3.15211	3.58083
2186.000	-5.20884	3.92262	-3.21715	3.55290
2187.000	-5.07745	4.09302	-3.30386	3.54469
2188.000	-5.30882	4.03042	-3.31174	3.52091
2189.000	-5.32646	4.05593	-3.38464	3.58198
2190.000	-5.25394	4.02092	-3.45359	3.58172
2191.000	-5.43032	4.04538	-3.53435	3.53592
2192.000	-5.45188	4.01174	-3.57176	3.46061
2193.000	-5.41465	4.12628	-3.62099	3.50196
2194.000	-5.56157	3.98538	-3.61706	3.46439
2195.000	-5.50085	4.04491	-3.64659	3.45835
2196.000	-5.51260	4.01133	-3.65053	3.54734
2197.000	-5.64185	4.05970	-3.62099	3.43471
2198.000	-5.50477	4.14536	-3.63478	3.44652
2199.000	-5.58507	4.07192	-3.60721	3.46443
2200.000	-5.56940	4.06414	-3.64856	3.45834
2201.000	-5.44992	4.14968	-3.62690	3.43666
2202.000	-5.49693	4.16905	-3.60327	3.52972
2203.000	-5.52631	4.17673	-3.58555	3.48627
2204.000	-5.68688	4.09090	-3.59146	3.50999
2205.000	-5.59682	4.00485	-3.55404	3.50815
2206.000	-5.55373	4.16275	-3.54222	3.57941
2207.000	-5.53807	4.00525	-3.56586	3.51009
2208.000	-5.45971	4.08657	-3.58949	3.61680
2209.000	-5.61640	4.05200	-3.58949	3.56340
2210.000	-5.48714	4.09229	-3.54025	3.55766
2211.000	-5.60073	4.00482	-3.59933	3.60292
2212.000	-5.46363	4.00772	-3.56192	3.52395
2213.000	-5.58507	3.98720	-3.55995	3.55561
2214.000	-5.56744	4.10750	-3.56192	3.52395
2215.000	-5.56549	4.06220	-3.60721	3.55147
2216.000	-5.58311	3.96356	-3.54813	3.53587
2217.000	-5.54003	3.97765	-3.55404	3.54969
2218.000	-5.49693	4.05085	-3.54419	3.53786
2219.000	-5.55373	4.11350	-3.54222	3.61105
2220.000	-5.50281	3.97987	-3.53041	3.63088
2221.000	-5.48910	3.94842	-3.53238	3.61505
2222.000	-5.51064	3.94434	-3.51465	3.55380
2223.000	-5.51652	4.01328	-3.52647	3.60914
2224.000	-5.48714	4.02924	-3.54616	3.60708
2225.000	-5.53415	3.97375	-3.53041	3.57154
2226.000	-5.43424	4.00988	-3.55207	3.56948
2227.000	-5.59486	4.12897	-3.55404	3.61496
2228.000	-5.47343	4.11800	-3.53828	3.60514
2229.000	-5.38918	4.11266	-3.54813	3.57543
2230.000	-5.58507	4.04236	-3.54813	3.57147
2231.000	-5.40877	4.04553	-3.53435	3.55966
2232.000	-5.43424	3.98426	-3.50086	3.58155
2233.000	-5.50085	4.05673	-3.53828	3.59920
2234.000	-5.55373	3.98347	-3.52647	3.57551
2235.000	-5.52827	3.99546	-3.59343	3.56537
2236.000	-5.54198	3.92837	-3.56979	3.56546
2237.000	-5.58703	3.95171	-3.54222	3.58336
2238.000	-5.57332	3.95378	-3.53435	3.55373
2239.000	-5.49693	3.85770	-3.59736	3.53370
2240.000	-5.54394	3.97171	-3.60130	3.56336
2241.000	-5.56353	3.99719	-3.56192	3.59318
2242.000	-5.42641	3.95672	-3.60327	3.57324
2243.000	-5.44600	3.94082	-3.58358	3.56343
2244.000	-5.50085	3.99762	-3.56389	3.61690
2245.000	-5.56157	3.97356	-3.51859	3.57554
2246.000	-5.58115	3.94781	-3.54813	3.52598
2247.000	-5.53023	3.95801	-3.53041	3.56165
2248.000	-5.51848	4.07434	-3.52253	3.53003
2249.000	-5.53023	3.98363	-3.50677	3.56768
2250.000	-5.47538	4.04705	-3.51465	3.51226
2251.000	-5.47930	3.98397	-3.49101	3.50443
2252.000	-5.57724	3.97937	-3.55798	3.54572
2253.000	-5.47147	3.99584	-3.54025	3.52008
2254.000	-5.56549	4.06614	-3.53631	3.60910
2255.000	-5.59682	4.02455	-3.54616	3.52797
2256.000	-5.69275	4.04556	-3.52844	3.58342
2257.000	-5.37546	4.01816	-3.51859	3.58148
2258.000	-5.45971	4.01563	-3.56783	3.64062
2259.000	-5.55373	4.01894	-3.51662	3.58742
2260.000	-5.56353	4.01690	-3.53828	3.58140
2261.000	-5.48714	3.94844	-3.55404	3.55365
2262.000	-5.55373	3.94997	-3.54025	3.61106
2263.000	-5.57528	3.93800	-3.55995	3.57143
2264.000	-5.46167	4.04714	-3.52253	3.57157
2265.000	-5.37742	4.13047	-3.50874	3.56371
2266.000	-5.53807	3.99934	-3.58358	3.53376
2267.000	-5.57528	3.93012	-3.58161	3.53376
2268.000	-5.31470	3.98899	-3.57373	3.50412
2269.000	-5.47147	4.02934	-3.56586	3.52196
2270.000	-5.47343	3.99583	-3.55798	3.54375
2271.000	-5.37742	3.95704	-3.56586	3.54569
2272.000	-5.56744	3.98732	-3.56192	3.63471
2273.000	-5.52631	3.96986	-3.54813	3.54378
2274.000	-5.35978	4.06556	-3.51071	3.64678
2275.000	-5.37742	4.00238	-3.55798	3.55561
2276.000	-5.47538	4.09237	-3.57373	3.59313
2277.000	-5.44992	3.99599	-3.54025	3.64073
2278.000	-5.47343	4.09238	-3.55798	3.57144
2279.000	-5.56549	3.98339	-3.52450	3.60717
2280.000	-5.46167	4.07276	-3.55798	3.57539
2281.000	-5.44992	3.96839	-3.54616	3.61895
2282.000	-5.56549	4.01097	-3.52844	3.58342
2283.000	-5.41465	4.07702	-3.55798	3.57935
2284.000	-5.61640	3.96531	-3.54616	3.51016
2285.000	-5.53807	4.01904	-3.53828	3.63480
2286.000	-5.54982	3.95788	-3.58949	3.55747
2287.000	-5.44992	4.03146	-3.62690	3.60281
2288.000	-5.58311	3.99903	-3.57373	3.62280
2289.000	-5.53219	4.03682	-3.54025	3.57151
2290.000	-5.55178	3.88888	-3.55798	3.61693
2291.000	-5.56353	4.01099	-3.59343	3.57921
2292.000	-5.39506	4.04168	-3.58161	3.62277
2293.000	-5.55178	3.83566	-3.55601	3.58133
2294.000	-5.55765	4.04255	-3.56979	3.63863
2295.000	-5.57919	3.91629	-3.57570	3.58324
2296.000	-5.50085	3.98973	-3.55404	3.59123
2297.000	-5.49889	4.02916	-3.57964	3.59904
2298.000	-5.49106	3.92082	-3.54616	3.61104
2299.000	-5.39310	4.00424	-3.59933	3.58908
2300.000	-5.49497	3.89320	-3.55404	3.62090
2301.000	-5.39114	3.90570	-3.58358	3.59507
2302.000	-5.48518	3.98984	-3.54616	3.57939
2303.000	-5.48714	3.94450	-3.53828	3.57942
2304.000	-5.45971	3.91511	-3.55404	3.63276
2305.000	-5.60465	3.93189	-3.57964	3.57729
2306.000	-5.50869	3.98771	-3.56192	3.61296
2307.000	-5.52240	3.93638	-3.54222	3.62292
2308.000	-5.52827	3.92649	-3.56979	3.59512
2309.000	-5.45384	3.95260	-3.56192	3.54571
2310.000	-5.54982	3.97167	-3.59343	3.59108
2311.000	-5.51456	3.97979	-3.63675	3.54542
2312.000	-5.44404	3.90930	-3.59933	3.55150
2313.000	-5.53023	3.98757	-3.55995	3.56352
2314.000	-5.44992	3.93883	-3.57176	3.54171
2315.000	-5.51260	3.96009	-3.59540	3.53371
2316.000	-5.49106	4.00556	-3.60524	3.53763
2317.000	-5.42249	4.00799	-3.53041	3.59528
2318.000	-5.46559	4.05106	-3.57176	3.51402
2319.000	-5.35390	4.04392	-3.53828	3.54975
2320.000	-5.39114	4.08900	-3.56979	3.49227
2321.000	-5.47734	4.05492	-3.59343	3.52581
2322.000	-5.50477	3.93255	-3.54222	3.56359
2323.000	-5.37350	4.07335	-3.58949	3.55154
2324.000	-5.37546	4.03787	-3.58555	3.54562
2325.000	-5.46167	4.01364	-3.62690	3.55139
2326.000	-5.36958	3.96892	-3.56389	3.58328
2327.000	-5.43620	3.94286	-3.62099	3.52372
2328.000	-5.44796	3.95461	-3.56783	3.57931
2329.000	-5.42249	4.06711	-3.58161	3.55354
2330.000	-5.41661	3.90356	-3.56586	3.57141
2331.000	-5.52631	3.92650	-3.55404	3.57739
2332.000	-5.46951	3.98403	-3.57176	3.57534
2333.000	-5.37742	4.00435	-3.57373	3.56346
2334.000	-5.48714	4.02924	-3.54025	3.55173
2335.000	-5.46363	4.05107	-3.56192	3.55955
2336.000	-5.42053	4.05333	-3.61115	3.61672
2337.000	-5.51848	4.01720	-3.51465	3.59732
2338.000	-5.49106	4.00556	-3.58161	3.57332
2339.000	-5.39114	3.97863	-3.61312	3.58111
2340.000	-5.46559	4.00376	-3.57570	3.61488
2341.000	-5.42445	3.92322	-3.55207	3.55366
2342.000	-5.42837	4.05722	-3.58161	3.63265
2343.000	-5.42837	3.95868	-3.56389	3.62284
2344.000	-5.48126	4.07854	-3.57373	3.54171
2345.000	-5.45971	4.02154	-3.56389	3.56350
2346.000	-5.37546	4.08713	-3.56389	3.60504
2347.000	-5.44012	3.96649	-3.55601	3.56353
2348.000	-5.46951	3.93476	-3.57964	3.60300
2349.000	-5.45384	4.01567	-3.55010	3.57740
2350.000	-5.41269	4.09871	-3.55404	3.58332
2351.000	-5.34802	4.06761	-3.56192	3.48043
2352.000	-5.42249	4.02376	-3.59343	3.56932
2353.000	-5.48126	4.02140	-3.58752	3.62077
2354.000	-5.53415	4.05453	-3.59343	3.59701
2355.000	-5.36566	3.99851	-3.62493	3.58502
2356.000	-5.46167	4.08064	-3.59540	3.59502
2357.000	-5.46167	3.98014	-3.56586	3.59910
2358.000	-5.44992	4.03540	-3.59736	3.56337
2359.000	-5.48126	3.96227	-3.60721	3.63058
2360.000	-5.47930	3.92090	-3.57767	3.62476
2361.000	-5.46363	4.01166	-3.56783	3.61491
2362.000	-5.45579	3.96047	-3.54222	3.56754
2363.000	-5.44796	4.01374	-3.58555	3.59902
2364.000	-5.52436	3.96396	-3.58555	3.54364
2365.000	-5.49497	3.91882	-3.54419	3.61896
2366.000	-5.38918	3.96091	-3.55995	3.57143
2367.000	-5.35390	3.96311	-3.57964	3.59311
2368.000	-5.43620	4.06308	-3.59343	3.61085
2369.000	-5.46755	3.99193	-3.56389	3.56548
2370.000	-5.55765	3.97162	-3.60130	3.58116
2371.000	-5.52240	3.92455	-3.61115	3.53563
2372.000	-5.52436	4.03687	-3.56783	3.55162
2373.000	-5.56549	4.05826	-3.60327	3.53368
2374.000	-5.45384	4.02552	-3.59146	3.59504
2375.000	-5.51652	3.94233	-3.55601	3.57342
2376.000	-5.48910	4.00755	-3.57767	3.56938
2377.000	-5.44600	4.03937	-3.59933	3.55150
2378.000	-5.50281	3.98184	-3.62493	3.54744
2379.000	-5.54786	4.02883	-3.59736	3.59106
2380.000	-5.44796	4.02950	-3.56586	3.57338
2381.000	-5.46951	3.95053	-3.60524	3.52972
2382.000	-5.42837	3.99810	-3.59146	3.57328
2383.000	-5.49302	3.93460	-3.63084	3.54742
2384.000	-5.48322	3.96226	-3.53828	3.55767
2385.000	-5.47538	3.97217	-3.59343	3.63854
2386.000	-5.36566	4.11479	-3.57767	3.62080
2387.000	-5.38134	3.96490	-3.57964	3.53773
2388.000	-5.48126	4.01942	-3.59343	3.59701
2389.000	-5.55569	3.97754	-3.60918	3.58113
2390.000	-5.44796	4.01768	-3.58752	3.53968
2391.000	-5.52436	3.91469	-3.60918	3.50794
2392.000	-5.41857	3.96269	-3.60327	3.53368
2393.000	-5.49889	3.96610	-3.61312	3.58309
2394.000	-5.47538	4.01552	-3.61312	3.50991
2395.000	-5.42837	3.98430	-3.59540	3.61085
2396.000	-5.44404	4.03150	-3.62690	3.54348
2397.000	-5.45775	4.07476	-3.60918	3.50003
2398.000	-5.35194	4.01634	-3.63675	3.53157
2399.000	-5.41073	3.96077	-3.60327	3.51588
2400.000	-5.49693	3.91487	-3.58555	3.54166
2401.000	-5.45188	3.97232	-3.62493	3.52766
2402.000	-5.46951	4.03921	-3.58358	3.53376
2403.000	-5.43620	4.02958	-3.59736	3.56733
2404.000	-5.41269	3.97849	-3.58752	3.49220
2405.000	-5.50281	3.96016	-3.59146	3.47636
2406.000	-5.47343	3.94262	-3.62493	3.54349
2407.000	-5.47147	3.96431	-3.64069	3.52365
2408.000	-5.45775	4.00579	-3.61509	3.53363
2409.000	-5.45775	3.99790	-3.63478	3.57311
2410.000	-5.41073	4.03369	-3.54025	3.50623
2411.000	-5.39897	3.99632	-3.61706	3.52769
2412.000	-5.42053	4.05727	-3.69188	3.52542
2413.000	-5.53611	4.01314	-3.71944	3.43433
2414.000	-5.62619	4.01056	-3.78440	3.47956
2415.000	-5.57528	4.03455	-3.85723	3.42192
2416.000	-5.77887	3.94252	-3.96152	3.30480
2417.000	-6.11527	3.80425	-4.16806	3.10022
2418.000	-6.29307	3.60014	-4.34698	2.86408
2419.000	-6.42586	3.46333	-4.42953	2.61837
2420.000	-6.77117	3.14982	-4.57885	2.35656
2421.000	-6.81600	3.09241	-4.64367	2.14648
2422.000	-6.94461	2.72520	-4.71633	1.96013
2423.000	-7.12182	2.53505	-4.73793	1.71843
2424.000	-7.20940	2.29617	-4.77916	1.46873
2425.000	-7.22108	2.01033	-4.78898	1.29435
2426.000	-7.24442	1.83478	-4.76346	1.07442
2427.000	-7.33585	1.49531	-4.76542	0.80883
2428.000	-7.35918	1.30002	-4.79487	0.67005
2429.000	-7.24637	1.24511	-4.71437	0.56307
2430.000	-7.30084	1.03587	-4.73400	0.60270
2431.000	-7.15102	1.04016	-4.73400	0.54918
2432.000	-7.18410	1.05193	-4.69473	0.51352
2433.000	-7.22108	0.92556	-4.77327	0.44606
2434.000	-7.11987	0.95735	-4.81057	0.41829
2435.000	-7.01084	0.78583	-4.83217	0.33502
2436.000	-7.06536	0.67716	-4.86946	0.21408
2437.000	-7.10819	0.54880	-4.92441	0.02180
2438.000	-7.06731	0.49357	-4.84983	-0.12885
2439.000	-6.80041	0.46224	-4.83020	-0.19824
2440.000	-6.99526	0.31396	-4.75168	-0.37669
2441.000	-6.90565	0.12838	-4.73204	-0.57693
2442.000	-6.86473	-0.08296	-4.64760	-0.77526
2443.000	-6.82575	-0.24296	-4.57885	-1.07669
2444.000	-6.86862	-0.38713	-4.48258	-1.26914
2445.000	-6.77702	-0.54918	-4.42166	-1.48730
2446.000	-6.74582	-0.67169	-4.37253	-1.50524
2447.000	-6.79456	-0.81384	-4.28800	-1.57876
2448.000	-6.60930	-0.88330	-4.27817	-1.69772
2449.000	-6.57809	-0.97029	-4.24672	-1.69382
2450.000	-6.61711	-0.95638	-4.17593	-1.79904
2451.000	-6.55663	-1.16000	-4.15036	-1.78324
2452.000	-6.45319	-1.18988	-4.17789	-1.94372
2453.000	-6.53906	-1.16795	-4.17593	-1.99129
2454.000	-6.48832	-1.27871	-4.16806	-2.08643
2455.000	-6.51565	-1.30630	-4.22312	-2.12789
2456.000	-6.41805	-1.26505	-4.22312	-2.17940
2457.000	-6.45709	-1.34992	-4.28014	-2.19113
2458.000	-6.43172	-1.38357	-4.32732	-2.17118
2459.000	-6.42195	-1.33420	-4.36467	-2.14136
2460.000	-6.51369	-1.34581	-4.39808	-2.14523
2461.000	-6.43952	-1.18003	-4.46686	-2.05788
2462.000	-6.50003	-1.15816	-4.50420	-1.97854
2463.000	-6.47856	-1.13845	-4.54742	-1.93484
2464.000	-6.44928	-1.02587	-4.52777	-1.86160
2465.000	-6.45905	-0.99621	-4.60439	-1.79206
2466.000	-6.45124	-0.94089	-4.60439	-1.78414
2467.000	-6.46880	-0.96457	-4.65742	-1.72655
2468.000	-6.50979	-0.97635	-4.61814	-1.65136
2469.000	-6.38876	-0.81450	-4.61617	-1.68307
2470.000	-6.42586	-0.91129	-4.66331	-1.63145
2471.000	-6.49027	-0.87363	-4.66135	-1.64136
2472.000	-6.33018	-0.88972	-4.64760	-1.64337
2473.000	-6.42000	-0.87177	-4.67313	-1.68095
2474.000	-6.49027	-0.93489	-4.64563	-1.66319
2475.000	-6.38681	-0.98054	-4.63189	-1.70086
2476.000	-6.34385	-0.93714	-4.62403	-1.69098
2477.000	-6.39267	-0.98251	-4.61421	-1.77025
2478.000	-6.30089	-1.05978	-4.58671	-1.82579
2479.000	-6.42586	-1.12671	-4.61421	-1.79204
2480.000	-6.42391	-1.19193	-4.57885	-1.84165
2481.000	-6.36729	-1.15451	-4.63189	-1.83954
2482.000	-6.40243	-1.15838	-4.62207	-1.93068
2483.000	-6.38095	-1.14262	-4.62599	-1.87917
2484.000	-6.47076	-1.25109	-4.60439	-1.90696
2485.000	-6.48052	-1.18191	-4.60439	-1.87923
2486.000	-6.48442	-1.25303	-4.59064	-1.92284
2487.000	-6.33604	-1.19213	-4.55135	-1.94870
2488.000	-6.43367	-1.22945	-4.55135	-1.90512
2489.000	-6.46100	-1.22741	-4.54938	-1.89918
2490.000	-6.44928	-1.21755	-4.52581	-1.87745
2491.000	-6.41610	-1.29470	-4.55135	-1.89125
2492.000	-6.35166	-1.28696	-4.57296	-1.97439
2493.000	-6.34190	-1.22769	-4.57099	-1.93478
2494.000	-6.36143	-1.25927	-4.58474	-1.95455
2495.000	-6.47271	-1.28468	-4.58278	-1.96644
2496.000	-6.40243	-1.30461	-4.59457	-2.02583
2497.000	-6.33995	-1.29687	-4.57689	-2.00607
2498.000	-6.33018	-1.33642	-4.54349	-1.96655
2499.000	-6.29503	-1.24954	-4.64563	-1.96230
2500.000	-6.47076	-1.29456	-4.61224	-2.00201
2501.000	-6.43757	-1.36577	-4.54153	-1.99626
2502.000	-6.29698	-1.33255	-4.56706	-1.99421
2503.000	-6.42391	-1.31049	-4.58278	-1.99615
2504.000	-6.37705	-1.30073	-4.55921	-1.98235
2505.000	-6.46100	-1.31632	-4.58278	-1.98030
2506.000	-6.42195	-1.25912	-4.60832	-1.97429
2507.000	-6.33995	-1.24351	-4.60242	-1.96837
2508.000	-6.39267	-1.30266	-4.58474	-1.96841
2509.000	-6.33409	-1.31862	-4.62403	-1.94850
2510.000	-6.35362	-1.33438	-4.59653	-1.99809
2511.000	-6.38095	-1.24736	-4.58474	-1.92484
2512.000	-6.40829	-1.32041	-4.58671	-1.96247
2513.000	-6.35557	-1.28497	-4.57099	-1.97439
2514.000	-6.36729	-1.25530	-4.55331	-1.98237
2515.000	-6.23251	-1.22597	-4.55724	-1.90114
2516.000	-6.30870	-1.30485	-4.51205	-1.93097
2517.000	-6.32042	-1.25739	-4.54545	-1.92098
2518.000	-6.34776	-1.20791	-4.55135	-1.91898
2519.000	-6.35557	-1.30078	-4.53170	-1.88338
2520.000	-6.29112	-1.24955	-4.56706	-1.87734
2521.000	-6.25596	-1.19824	-4.53956	-1.94477
2522.000	-6.31846	-1.25146	-4.54349	-1.90514
2523.000	-6.34580	-1.18223	-4.58278	-1.92088
2524.000	-6.37705	-1.10705	-4.57296	-1.86940
2525.000	-6.31846	-1.20403	-4.55921	-1.90510
2526.000	-6.35557	-1.29288	-4.58867	-1.86738
2527.000	-6.34385	-1.27314	-4.56510	-1.91102
2528.000	-6.32628	-1.34038	-4.52188	-1.93491
2529.000	-6.28135	-1.23969	-4.53956	-1.93883
2530.000	-6.32628	-1.25540	-4.54349	-1.89325
2531.000	-6.16413	-1.18857	-4.57689	-1.95457
2532.000	-6.21298	-1.18648	-4.53367	-1.88139
2533.000	-6.35947	-1.34622	-4.54349	-1.90514
2534.000	-6.28135	-1.19423	-4.55921	-1.88331
2535.000	-6.24228	-1.14490	-4.53563	-1.88139
2536.000	-6.21884	-1.24973	-4.53563	-1.84969
2537.000	-6.16217	-1.18857	-4.54545	-1.82985
2538.000	-6.23251	-1.23586	-4.54153	-1.84967
2539.000	-6.28721	-1.18631	-4.52384	-1.87349
2540.000	-6.34776	-1.20001	-4.51009	-1.82202
2541.000	-6.24619	-1.14687	-4.56117	-1.79613
2542.000	-6.12895	-1.16690	-4.49241	-1.81612
2543.000	-6.24424	-1.23385	-4.48848	-1.87160
2544.000	-6.25205	-1.22593	-4.48258	-1.90134
2545.000	-6.31260	-1.26729	-4.51205	-1.89135
2546.000	-6.27159	-1.24169	-4.51205	-1.89532
2547.000	-6.23838	-1.18642	-4.50027	-1.85770
2548.000	-6.28135	-1.25748	-4.56117	-1.85953
2549.000	-6.40243	-1.34611	-4.51598	-1.83587
2550.000	-6.33604	-1.24352	-4.52974	-1.86753
2551.000	-6.21884	-1.11332	-4.53563	-1.86752
2552.000	-6.38681	-1.18608	-4.51205	-1.82597
2553.000	-6.24228	-1.19235	-4.51795	-1.84973
2554.000	-6.28526	-1.19818	-4.52188	-1.78236
2555.000	-6.21102	-1.22998	-4.50813	-1.80221
2556.000	-6.24033	-1.17851	-4.44721	-1.83208
2557.000	-6.32237	-1.19216	-4.44918	-1.84000
2558.000	-6.37510	-1.24540	-4.42559	-1.82421
2559.000	-6.20321	-1.20034	-4.46490	-1.80628
2560.000	-6.28526	-1.30096	-4.44918	-1.84793
2561.000	-6.28331	-1.20016	-4.45507	-1.78847
2562.000	-6.18953	-1.19642	-4.43149	-1.83608
2563.000	-6.24814	-1.24373	-4.45311	-1.81820
2564.000	-6.24228	-1.15479	-4.46490	-1.83798
2565.000	-6.13677	-1.17874	-4.46490	-1.79439
2566.000	-6.26377	-1.18439	-4.46686	-1.81618
2567.000	-6.16803	-1.25182	-4.44525	-1.77660
2568.000	-6.29893	-1.09536	-4.45114	-1.79244
2569.000	-6.20516	-1.17464	-4.43935	-1.83804
2570.000	-6.26573	-1.19822	-4.48651	-1.82406
2571.000	-6.23056	-1.22202	-4.47079	-1.81221
2572.000	-6.28135	-1.20016	-4.43149	-1.80240
2573.000	-6.27549	-1.22390	-4.43935	-1.82814
2574.000	-6.21298	-1.22997	-4.46097	-1.79242
2575.000	-6.16608	-1.22810	-4.45900	-1.81818
2576.000	-6.24424	-1.24967	-4.40201	-1.88965
2577.000	-6.31065	-1.26532	-4.39218	-1.95705
2578.000	-6.26963	-1.35041	-4.35877	-1.98091
2579.000	-6.21884	-1.38216	-4.24082	-2.10209
2580.000	-6.14849	-1.56420	-4.10906	-2.14801
2581.000	-6.01752	-1.61203	-3.99693	-2.33656
2582.000	-5.87084	-1.77064	-3.83951	-2.42419
2583.000	-5.65556	-2.02049	-3.67022	-2.52176
2584.000	-5.54198	-2.31945	-3.43389	-2.89491
2585.000	-5.47538	-2.56483	-3.20336	-3.10952
2586.000	-5.29706	-2.72767	-2.99244	-3.37551
2587.000	-5.13825	-3.04459	-2.78735	-3.71461
2588.000	-4.94993	-3.30234	-2.67294	-3.90094
2589.000	-4.89694	-3.49618	-2.47367	-4.02023
2590.000	-4.93226	-3.70526	-2.41841	-4.19639
2591.000	-4.83609	-3.81435	-2.44604	-4.39593
2592.000	-4.92638	-4.08410	-2.42039	-4.58368
2593.000	-4.76935	-4.21915	-2.48156	-4.73156
2594.000	-4.88516	-4.19280	-2.50722	-4.88343
2595.000	-4.78702	-4.20721	-2.53681	-5.05494
2596.000	-4.81646	-4.33517	-2.56444	-5.11398
2597.000	-4.79487	-4.43779	-2.64138	-5.12747
2598.000	-4.80665	-4.47910	-2.64533	-5.16885
2599.000	-4.83806	-4.45131	-2.73409	-5.03442
2600.000	-4.92441	-4.54135	-2.78341	-4.97308
2601.000	-4.84983	-4.50049	-2.78538	-4.89221
2602.000	-4.78309	-4.55806	-2.72620	-4.91020
2603.000	-4.64956	-4.54711	-2.73015	-4.78983
2604.000	-4.73793	-4.57412	-2.72423	-4.82538
2605.000	-4.56510	-4.58509	-2.66505	-4.83350
2606.000	-4.52188	-4.67403	-2.62362	-4.90075
2607.000	-4.45900	-4.62123	-2.55062	-4.92273
2608.000	-4.47079	-4.55218	-2.54471	-5.00954
2609.000	-4.49241	-4.62102	-2.59600	-4.89099
2610.000	-4.43542	-4.57014	-2.59008	-4.89693
2611.000	-4.36467	-4.45623	-2.65913	-4.90653
2612.000	-4.50027	-4.42781	-2.67294	-4.78611
2613.000	-4.48455	-4.45157	-2.68873	-4.80184
2614.000	-4.48848	-4.44169	-2.71042	-4.78202
2615.000	-4.49634	-4.32728	-2.70056	-4.74456
2616.000	-4.50616	-4.30356	-2.71042	-4.68728
2617.000	-4.55528	-4.38214	-2.72423	-4.65959
2618.000	-4.48062	-4.23467	-2.71831	-4.63790
2619.000	-4.43149	-4.23101	-2.74198	-4.63584
2620.000	-4.40987	-4.23705	-2.72620	-4.62405
2621.000	-4.34698	-4.06770	-2.73015	-4.66747
2622.000	-4.40201	-4.11674	-2.70845	-4.66360
2623.000	-4.40201	-4.26274	-2.74593	-4.64569
2624.000	-4.37056	-4.22346	-2.72818	-4.67932
2625.000	-4.46883	-4.32152	-2.70845	-4.68334
2626.000	-4.35681	-4.26694	-2.70451	-4.69323
2627.000	-4.23295	-4.33668	-2.63941	-4.78229
2628.000	-4.42559	-4.39671	-2.65519	-4.72895
2629.000	-4.40594	-4.41261	-2.65716	-4.83748
2630.000	-4.37450	-4.37532	-2.70451	-4.77612
2631.000	-4.33125	-4.46234	-2.62757	-4.83957
2632.000	-4.30963	-4.48416	-2.64927	-4.82962
2633.000	-4.41970	-4.41647	-2.68675	-4.88471
2634.000	-4.44721	-4.42813	-2.62757	-4.94019
2635.000	-4.41577	-4.60573	-2.64335	-4.92631
2636.000	-4.34305	-4.55296	-2.57825	-4.93249
2637.000	-4.42363	-4.60765	-2.60390	-4.89096
2638.000	-4.34108	-4.59831	-2.57233	-4.94632
2639.000	-4.36467	-4.48186	-2.59995	-4.94621
2640.000	-4.47276	-4.54231	-2.56049	-4.91480
2641.000	-4.32339	-4.48210	-2.60390	-4.92252
2642.000	-4.28407	-4.54937	-2.56838	-4.90491
2643.000	-4.39218	-4.49549	-2.60784	-4.92645
2644.000	-4.39612	-4.54672	-2.59008	-4.93836
2645.000	-4.33125	-4.57668	-2.56049	-4.87929
2646.000	-4.39022	-4.62560	-2.62757	-4.90468
2647.000	-4.41184	-4.58211	-2.61573	-4.90867
2648.000	-4.36270	-4.61394	-2.62362	-4.89680
2649.000	-4.29980	-4.62615	-2.59206	-4.86141
2650.000	-4.42756	-4.59580	-2.59403	-4.92256
2651.000	-4.39612	-4.55264	-2.60192	-4.89294
2652.000	-4.47276	-4.59355	-2.60784	-4.92645
2653.000	-4.38432	-4.52905	-2.60390	-4.90082
2654.000	-4.50813	-4.59136	-2.59600	-4.90085
2655.000	-4.39022	-4.55662	-2.56049	-4.88521
2656.000	-4.51402	-4.59132	-2.53879	-4.90502
2657.000	-4.46490	-4.48323	-2.60192	-4.83967
2658.000	-4.47669	-4.56397	-2.55654	-4.90890
2659.000	-4.45114	-4.55427	-2.59995	-4.92846
2660.000	-4.40594	-4.60776	-2.61771	-4.89485
2661.000	-4.40791	-4.49934	-2.57627	-4.92460
2662.000	-4.44132	-4.43606	-2.57627	-4.83976
2663.000	-4.43935	-4.47155	-2.61968	-4.84749
2664.000	-4.41184	-4.57816	-2.60587	-4.86136
2665.000	-4.37843	-4.53500	-2.60390	-4.84558
2666.000	-4.37056	-4.56856	-2.64927	-4.79804
2667.000	-4.35287	-4.56078	-2.59403	-4.83772
2668.000	-4.40201	-4.50924	-2.57233	-4.80426
2669.000	-4.45704	-4.54241	-2.58417	-4.84960
2670.000	-4.28997	-4.55130	-2.58811	-4.83183
2671.000	-4.39612	-4.48759	-2.55654	-4.81813
2672.000	-4.31159	-4.50386	-2.60390	-4.82585
2673.000	-4.40201	-4.47178	-2.61376	-4.80015
2674.000	-4.36270	-4.46610	-2.58811	-4.79630
2675.000	-4.37646	-4.51530	-2.60981	-4.82385
2676.000	-4.34894	-4.44252	-2.60784	-4.85346
2677.000	-4.30570	-4.48418	-2.58219	-4.81014
2678.000	-4.28407	-4.54345	-2.62165	-4.81394
2679.000	-4.41773	-4.59784	-2.63349	-4.82179
2680.000	-4.42363	-4.51305	-2.61771	-4.84552
2681.000	-4.46097	-4.54041	-2.54076	-4.86160
2682.000	-4.45311	-4.52469	-2.58219	-4.85355
2683.000	-4.36663	-4.57253	-2.58811	-4.82985
2684.000	-4.54153	-4.50247	-2.61179	-4.86725
2685.000	-4.38825	-4.48566	-2.58811	-4.84169
2686.000	-4.36074	-4.53905	-2.60390	-4.83768
2687.000	-4.40791	-4.45597	-2.57233	-4.82794
2688.000	-4.36074	-4.43456	-2.61376	-4.83173
2689.000	-4.37056	-4.48774	-2.60981	-4.86923
2690.000	-4.41184	-4.49735	-2.60784	-4.86332
2691.000	-4.47276	-4.59749	-2.58219	-4.83185
2692.000	-4.31553	-4.42891	-2.58811	-4.84366
2693.000	-4.30373	-4.49996	-2.63546	-4.84743
2694.000	-4.44328	-4.46759	-2.64533	-4.81779
2695.000	-4.45114	-4.65872	-2.59798	-4.82389
2696.000	-4.38236	-4.56258	-2.63546	-4.80599
2697.000	-4.43542	-4.57014	-2.57627	-4.84766
2698.000	-4.49437	-4.47122	-2.64335	-4.82767
2699.000	-4.40594	-4.48358	-2.67492	-4.82557
2700.000	-4.48258	-4.61320	-2.65124	-4.84145
2701.000	-4.50027	-4.48301	-2.61179	-4.80805
2702.000	-4.46490	-4.53645	-2.61179	-4.85344
2703.000	-4.29587	-4.50001	-2.62757	-4.76458
2704.000	-4.42756	-4.45191	-2.61179	-4.78240
2705.000	-4.38236	-4.48767	-2.60390	-4.81203
2706.000	-4.43346	-4.50313	-2.65913	-4.78024
2707.000	-4.39022	-4.51719	-2.63743	-4.80006
2708.000	-4.36270	-4.44638	-2.65124	-4.83356
2709.000	-4.33715	-4.50174	-2.63349	-4.75666
2710.000	-4.39022	-4.40678	-2.62560	-4.76656
2711.000	-4.50027	-4.52046	-2.63546	-4.78034
2712.000	-4.40791	-4.42837	-2.62165	-4.77052
2713.000	-4.29980	-4.46252	-2.64335	-4.75070
2714.000	-4.49830	-4.47711	-2.64730	-4.77832
2715.000	-4.43346	-4.50707	-2.65322	-4.80000
2716.000	-4.37253	-4.45027	-2.58417	-4.73908
2717.000	-4.32535	-4.49786	-2.64138	-4.74479
2718.000	-4.46490	-4.45366	-2.64533	-4.76056
2719.000	-4.37253	-4.48378	-2.65913	-4.79406
2720.000	-4.37253	-4.50941	-2.65716	-4.78420
2721.000	-4.38432	-4.49948	-2.62165	-4.80012
2722.000	-4.43935	-4.46564	-2.63152	-4.77246
2723.000	-4.34501	-4.51746	-2.63349	-4.80600
2724.000	-4.40987	-4.58606	-2.63152	-4.79811
2725.000	-4.46490	-4.47140	-2.63546	-4.78823
2726.000	-4.36663	-4.41284	-2.66308	-4.78812
2727.000	-4.41184	-4.38102	-2.63349	-4.81192
2728.000	-4.49241	-4.39829	-2.61376	-4.83173
2729.000	-4.55135	-4.48664	-2.65716	-4.87694
2730.000	-4.48455	-4.51070	-2.63743	-4.79217
2731.000	-4.43346	-4.46962	-2.59600	-4.80022
2732.000	-4.41380	-4.48156	-2.63546	-4.83954
2733.000	-4.45704	-4.49313	-2.60784	-4.83372
2734.000	-4.40987	-4.52102	-2.66308	-4.83746
2735.000	-4.45311	-4.47541	-2.65124	-4.83553
2736.000	-4.45704	-4.34131	-2.64533	-4.81779
2737.000	-4.46490	-4.48717	-2.58614	-4.86340
2738.000	-4.42756	-4.46177	-2.63152	-4.92044
2739.000	-4.49830	-4.51456	-2.69662	-4.89848
2740.000	-4.46883	-4.49503	-2.64335	-4.88291
2741.000	-4.47865	-4.47526	-2.64138	-4.92238
2742.000	-4.47865	-4.45357	-2.62560	-4.88298
2743.000	-4.53563	-4.46111	-2.62165	-4.88892
2744.000	-4.48651	-4.40029	-2.63349	-4.87703
2745.000	-4.49437	-4.44756	-2.65913	-4.81774
2746.000	-4.37450	-4.46406	-2.63349	-4.85138
2747.000	-4.42953	-4.44796	-2.66703	-4.89268
2748.000	-4.41773	-4.52688	-2.64533	-4.82963
2749.000	-4.40987	-4.39681	-2.66900	-4.85322
2750.000	-4.49241	-4.50868	-2.60981	-4.82582
2751.000	-4.55921	-4.40774	-2.61179	-4.82187
2752.000	-4.45114	-4.43600	-2.63546	-4.87703
2753.000	-4.51009	-4.42184	-2.62362	-4.86129
2754.000	-4.47079	-4.45165	-2.64138	-4.87108
2755.000	-4.43542	-4.47749	-2.61968	-4.86919
2756.000	-4.50616	-4.37849	-2.60192	-4.77652
2757.000	-4.44721	-4.40053	-2.60981	-4.74885
2758.000	-4.49241	-4.48700	-2.61376	-4.81002
2759.000	-4.51598	-4.49080	-2.54273	-4.75108
2760.000	-4.45507	-4.46160	-2.55457	-4.84379
2761.000	-4.46293	-4.43593	-2.60587	-4.84162
2762.000	-4.40987	-4.43033	-2.59798	-4.83376
2763.000	-4.48258	-4.52057	-2.61179	-4.79819
2764.000	-4.47079	-4.51276	-2.65519	-4.79013
2765.000	-4.51598	-4.49277	-2.60390	-4.82585
2766.000	-4.42559	-4.52880	-2.61771	-4.80606
2767.000	-4.47669	-4.44767	-2.59403	-4.79825
2768.000	-4.46293	-4.49507	-2.62165	-4.78236
2769.000	-4.41970	-4.42041	-2.59600	-4.78838
2770.000	-4.50223	-4.45343	-2.62165	-4.80802
2771.000	-4.42756	-4.44994	-2.62362	-4.83366
2772.000	-4.41773	-4.38296	-2.64730	-4.74477
2773.000	-4.44132	-4.46957	-2.63349	-4.83362
2774.000	-4.47865	-4.38260	-2.63546	-4.82770
2775.000	-4.47865	-4.41611	-2.64927	-4.83948
2776.000	-4.51598	-4.41392	-2.62362	-4.78630
2777.000	-4.54153	-4.50444	-2.62362	-4.75670
2778.000	-4.54153	-4.37039	-2.63546	-4.77639
2779.000	-4.54349	-4.51822	-2.65124	-4.82172
2780.000	-4.50616	-4.32328	-2.60981	-4.77057
2781.000	-4.55331	-4.44917	-2.60587	-4.65806
2782.000	-4.39808	-4.40082	-2.57035	-4.71347
2783.000	-4.43149	-4.39865	-2.55062	-4.73328
2784.000	-4.30570	-4.29682	-2.38881	-4.71017
2785.000	-4.14643	-4.35886	-2.29407	-4.66902
2786.000	-3.80408	-4.35672	-2.08877	-4.53929
2787.000	-3.61115	-4.31621	-1.76688	-4.42354
2788.000	-3.31371	-4.29188	-1.49032	-4.26793
2789.000	-2.92145	-4.16701	-1.10106	-4.15384
2790.000	-2.39671	-4.13121	-0.62471	-3.95048
2791.000	-2.13812	-4.09832	-0.14037	-3.83387
2792.000	-1.65232	-3.81843	0.27085	-3.66348
2793.000	-1.11884	-3.66679	0.69785	-3.59390
2794.000	-0.64448	-3.43936	1.07339	-3.42907
2795.000	-0.16804	-3.06676	1.50810	-3.09744
2796.000	0.25701	-2.94969	1.83206	-3.00968
2797.000	0.62668	-2.75308	2.18550	-2.71951
2798.000	0.94492	-2.54446	2.61179	-2.55803
2799.000	1.23544	-2.36156	2.84849	-2.46630
2800.000	1.34016	-2.19665	3.06341	-2.31312
2801.000	1.75898	-1.96387	3.28612	-2.20554
2802.000	1.89328	-1.83462	3.59146	-2.16716
2803.000	2.03348	-1.66563	3.74503	-2.04586
2804.000	2.18156	-1.50854	3.85329	-1.86122
2805.000	2.30789	-1.33359	4.05792	-1.82904
2806.000	2.48156	-1.26190	4.23689	-1.67600
2807.000	2.69859	-1.14052	4.43935	-1.71717
2808.000	2.70451	-1.23586	4.50420	-1.65361
2809.000	2.76960	-1.01134	4.62796	-1.50273
2810.000	2.91159	-0.97347	4.71241	-1.48472
2811.000	2.97272	-0.90787	4.80272	-1.38546
2812.000	3.19744	-0.79846	4.93030	-1.42680
2813.000	3.15211	-0.84218	5.03625	-1.39488
2814.000	3.22898	-0.81432	5.11079	-1.34323
2815.000	3.28021	-0.81229	5.13825	-1.26396
2816.000	3.28810	-0.82420	5.15786	-1.26590
2817.000	3.32159	-0.85991	5.18335	-1.21040
2818.000	3.29795	-0.86986	5.16963	-1.21042
2819.000	3.26445	-0.85003	5.15982	-1.15499
2820.000	3.27824	-0.87385	5.07156	-1.07987
2821.000	3.26839	-0.91159	5.06960	-1.19080
2822.000	3.27824	-0.95526	5.01860	-1.15920
2823.000	3.09101	-0.95941	4.99898	-1.12556
2824.000	3.05749	-0.96341	4.92834	-1.14153
2825.000	3.03975	-1.01308	4.90479	-1.15346
2826.000	3.00426	-0.98928	4.92049	-1.12767
2827.000	2.99441	-0.98134	4.86161	-1.11192
2828.000	2.97469	-0.99328	4.90283	-1.09204
2829.000	3.00426	-0.96942	4.89105	-1.08611
2830.000	2.98455	-0.97539	4.98328	-1.08596
2831.000	3.06932	-0.98723	4.94404	-1.05630
2832.000	3.13634	-0.91965	5.00879	-1.09186
2833.000	3.09889	-0.95543	5.05587	-1.07792
2834.000	3.22898	-0.95333	5.05979	-1.01848
2835.000	3.32356	-0.96316	5.10295	-0.99662
2836.000	3.28810	-0.96121	5.07941	-0.93326
2837.000	3.31765	-0.99295	5.14806	-0.93712
2838.000	3.37676	-0.93134	5.17943	-0.89152
2839.000	3.41813	-0.90549	5.18335	-0.92915
2840.000	3.51662	-0.85180	5.16178	-0.87570
2841.000	3.54025	-0.79619	5.18924	-0.85387
2842.000	3.50086	-0.77439	5.22845	-0.88155
2843.000	3.57373	-0.69293	5.25590	-0.89537
2844.000	3.47920	-0.77639	5.25002	-0.88944
2845.000	3.53828	-0.66715	5.20296	-0.79839
2846.000	3.55404	-0.69493	5.20688	-0.83998
2847.000	3.59736	-0.72269	5.13237	-0.79848
2848.000	3.51662	-0.65525	5.17159	-0.87965
2849.000	3.50480	-0.72673	5.18924	-0.81425
2850.000	3.57964	-0.71873	5.18728	-0.80237
2851.000	3.59736	-0.61549	5.16374	-0.79844
2852.000	3.59736	-0.71276	5.15786	-0.77467
2853.000	3.62099	-0.64128	5.15198	-0.81034
2854.000	3.60918	-0.66709	5.11472	-0.77473
2855.000	3.61312	-0.73657	5.10883	-0.77275
2856.000	3.55207	-0.58772	5.15786	-0.84599
2857.000	3.66825	-0.59162	5.11472	-0.81831
2858.000	3.59343	-0.65321	5.11668	-0.76482
2859.000	3.53238	-0.68899	5.11472	-0.78859
2860.000	3.56192	-0.64728	5.10687	-0.77870
2861.000	3.41222	-0.68312	5.06960	-0.78667
2862.000	3.53435	-0.67708	5.08333	-0.77674
2863.000	3.55995	-0.69890	5.12452	-0.76283
2864.000	3.49692	-0.64534	5.06176	-0.77083
2865.000	3.55798	-0.68897	5.03429	-0.77482
2866.000	3.55995	-0.65720	5.09510	-0.76682
2867.000	3.53041	-0.66120	5.12060	-0.80642
2868.000	3.47132	-0.69301	5.10491	-0.77672
2869.000	3.50480	-0.67710	5.13041	-0.79452
2870.000	3.49101	-0.66122	5.13041	-0.83216
2871.000	3.49692	-0.73270	5.07745	-0.80449
2872.000	3.43586	-0.70097	5.09706	-0.80446
2873.000	3.49889	-0.76645	5.13433	-0.82225
2874.000	3.48314	-0.66520	5.15394	-0.84599
2875.000	3.48117	-0.66520	5.12452	-0.86981
2876.000	3.46344	-0.71882	5.16963	-0.81626
2877.000	3.54616	-0.68898	5.12256	-0.80839
2878.000	3.53041	-0.69098	5.15198	-0.86581
2879.000	3.54419	-0.64530	5.17943	-0.85586
2880.000	3.53631	-0.64134	5.14021	-0.80837
2881.000	3.48708	-0.71682	5.22257	-0.82015
2882.000	3.54616	-0.67111	5.14806	-0.78855
2883.000	3.59540	-0.65321	5.15982	-0.79646
2884.000	3.44965	-0.62353	5.16571	-0.82221
2885.000	3.55995	-0.73066	5.12844	-0.80443
2886.000	3.56389	-0.63933	5.16374	-0.85192
2887.000	3.53238	-0.70884	5.20492	-0.87960
2888.000	3.55798	-0.64728	5.11864	-0.76085
2889.000	3.49692	-0.69497	5.19120	-0.86179
2890.000	3.57570	-0.69094	5.22061	-0.85779
2891.000	3.51071	-0.63738	5.25394	-0.81417
2892.000	3.59343	-0.60358	5.22453	-0.83798
2893.000	3.53828	-0.66913	5.19708	-0.79245
2894.000	3.49495	-0.73071	5.15786	-0.75882
2895.000	3.50480	-0.71284	5.15590	-0.81033
2896.000	3.50480	-0.66320	5.18139	-0.78851
2897.000	3.44374	-0.61757	5.17159	-0.81229
2898.000	3.50283	-0.71681	5.22061	-0.82808
2899.000	3.45950	-0.63146	5.14806	-0.82619
2900.000	3.55404	-0.62743	5.18335	-0.79643
2901.000	3.46738	-0.71683	5.15394	-0.79845
2902.000	3.52844	-0.67311	5.18924	-0.82416
2903.000	3.50677	-0.60165	5.19708	-0.81820
2904.000	3.58555	-0.58571	5.19512	-0.75878
2905.000	3.58161	-0.56983	5.18728	-0.83010
2906.000	3.56192	-0.60955	5.20100	-0.84791
2907.000	3.53435	-0.65325	5.25394	-0.82407
2908.000	3.59933	-0.58571	5.19708	-0.75878
2909.000	3.63675	-0.60553	5.22845	-0.83599
2910.000	3.56979	-0.59168	5.21865	-0.80827
2911.000	3.59736	-0.56387	5.24413	-0.83399
2912.000	3.49298	-0.68902	5.22061	-0.78252
2913.000	3.48117	-0.60564	5.16178	-0.79052
2914.000	3.51859	-0.61951	5.27158	-0.84584
2915.000	3.52253	-0.56590	5.21473	-0.83601
2916.000	3.51859	-0.58179	5.21080	-0.87365
2917.000	3.54222	-0.68104	5.22845	-0.83203
2918.000	3.45556	-0.66125	5.22845	-0.84589
2919.000	3.54813	-0.69692	5.24806	-0.84785
2920.000	3.47723	-0.65726	5.23237	-0.84589
2921.000	3.57964	-0.57182	5.22061	-0.73498
2922.000	3.53631	-0.61553	5.24609	-0.83795
2923.000	3.49692	-0.56790	5.21865	-0.78054
2924.000	3.54813	-0.51029	5.26766	-0.75077
2925.000	3.57767	-0.54006	5.25002	-0.77456
2926.000	3.62690	-0.49834	5.19708	-0.70529
2927.000	3.62887	-0.51422	5.16178	-0.71524
2928.000	3.46344	-0.66323	5.13825	-0.66573
2929.000	3.57176	-0.59565	5.17747	-0.65975
2930.000	3.65250	-0.47648	5.16767	-0.70929
2931.000	3.64462	-0.54002	5.11275	-0.62019
2932.000	3.60918	-0.45864	5.11864	-0.62811
2933.000	3.58161	-0.53807	5.16963	-0.65183
2934.000	3.62690	-0.56584	5.17355	-0.62211
2935.000	3.61706	-0.53606	5.14021	-0.57460
2936.000	3.59343	-0.49835	5.16571	-0.62608
2937.000	3.66825	-0.46456	5.14413	-0.58648
2938.000	3.55995	-0.41101	5.10883	-0.52707
2939.000	3.58161	-0.36137	5.16767	-0.57061
2940.000	3.64069	-0.41892	5.14021	-0.56469
2941.000	3.68400	-0.29780	5.06568	-0.55287
2942.000	3.53631	-0.34153	5.09314	-0.53105
2943.000	3.53435	-0.35146	5.03233	-0.45382
2944.000	3.64265	-0.21641	5.12648	-0.36459
2945.000	3.73913	-0.19653	5.01467	-0.28538
2946.000	3.70172	-0.08537	4.97936	-0.26954
2947.000	3.71550	-0.19058	4.94600	-0.13874
2948.000	3.68794	-0.12110	4.95385	-0.23982
2949.000	3.71353	-0.06948	4.96366	-0.26162
2950.000	3.78637	0.00000	4.93619	-0.28740
2951.000	3.60721	0.00397	4.95974	-0.29531
2952.000	3.70566	0.04765	4.87928	-0.24579
2953.000	3.71156	0.02779	4.93619	-0.29136
2954.000	3.68597	0.05162	4.90479	-0.09316
2955.000	3.76078	0.04764	4.90086	0.00000
2956.000	3.76472	0.04764	4.95581	0.04162
2957.000	3.81983	0.12704	5.11472	-0.27741
2958.000	3.83558	0.14490	5.27942	-0.09509
2959.000	3.79227	0.16675	5.42053	0.30104
2960.000	3.78834	0.11911	5.51456	0.80590
2961.000	3.78440	0.09131	5.66143	1.38356
2962.000	3.84739	0.19849	5.68101	2.11332
2963.000	3.90446	0.17665	5.68101	2.96290
2964.000	3.97923	0.14488	5.74952	3.73976
2965.000	4.17199	0.19246	5.84736	4.40073
2966.000	4.26638	0.22418	5.87279	5.35534
2967.000	4.38236	0.28762	5.99210	6.13963
2968.000	4.46293	0.35304	6.19539	7.07604
2969.000	4.67117	0.22406	6.61516	8.02964
2970.000	4.63189	0.07733	6.98162	8.93151
2971.000	4.84395	0.20616	NaN	NaN
2972.000	4.96955	0.38846	NaN	NaN
2973.000	5.19512	0.67558	NaN	NaN
2974.000	5.41073	1.12284	NaN	NaN
2975.000	5.59682	1.62708	NaN	NaN
2976.000	5.73386	2.03208	NaN	NaN
2977.000	5.92365	2.62208	NaN	NaN
2978.000	6.19735	3.25395	NaN	NaN
2979.000	6.33409	3.87157	NaN	NaN
2980.000	6.53906	4.54822	NaN	NaN
2981.000	6.56248	5.15826	NaN	NaN
2982.000	6.76532	5.85883	NaN	NaN
2983.000	6.99915	6.65398	NaN	NaN
2984.000	NaN	NaN	NaN	NaN
2985.000	NaN	NaN	NaN	NaN
2986.000	NaN	NaN	NaN	NaN
2987.000	NaN	NaN	NaN	NaN
2988.000	NaN	NaN	NaN	NaN
2989.000	NaN	NaN	NaN	NaN
2990.000	NaN	NaN	NaN	NaN
2991.000	NaN	NaN	NaN	NaN
2992.000	NaN	NaN	NaN	NaN
2993.000	NaN	NaN	NaN	NaN
2994.000	NaN	NaN	NaN	NaN
2995.000	NaN	NaN	NaN	NaN
2996.000	NaN	NaN	NaN	NaN
2997.000	NaN	NaN	NaN	NaN
2998.000	NaN	NaN	NaN	NaN
2999.000	NaN	NaN	NaN	NaN
3000.000	NaN	NaN	NaN	NaN
3001.000	NaN	NaN	NaN	NaN
3002.000	NaN	NaN	NaN	NaN
3003.000	NaN	NaN	NaN	NaN
3004.000	NaN	NaN	NaN	NaN
3005.000	NaN	NaN	NaN	NaN
3006.000	NaN	NaN	NaN	NaN
3007.000	NaN	NaN	NaN	NaN
3008.000	NaN	NaN	NaN	NaN
3009.000	NaN	NaN	NaN	NaN
3010.000	NaN	NaN	NaN	NaN
3011.000	NaN	NaN	NaN	NaN
3012.000	NaN	NaN	NaN	NaN
3013.000	NaN	NaN	NaN	NaN
3014.000	NaN	NaN	NaN	NaN
3015.000	NaN	NaN	NaN	NaN
3016.000	NaN	NaN	NaN	NaN
3017.000	NaN	NaN	NaN	NaN
3018.000	NaN	NaN	NaN	NaN
3019.000	NaN	NaN	NaN	NaN
3020.000	NaN	NaN	NaN	NaN
3021.000	NaN	NaN	NaN	NaN
3022.000	NaN	NaN	NaN	NaN
3023.000	NaN	NaN	NaN	NaN
3024.000	NaN	NaN	NaN	NaN
3025.000	NaN	NaN	NaN	NaN
3026.000	NaN	NaN	NaN	NaN
3027.000	NaN	NaN	NaN	NaN
3028.000	NaN	NaN	NaN	NaN
3029.000	NaN	NaN	NaN	NaN
3030.000	NaN	NaN	NaN	NaN
3031.000	NaN	NaN	NaN	NaN
3032.000	NaN	NaN	NaN	NaN
3033.000	NaN	NaN	NaN	NaN
3034.000	NaN	NaN	NaN	NaN
3035.000	NaN	NaN	NaN	NaN
3036.000	NaN	NaN	NaN	NaN
3037.000	NaN	NaN	NaN	NaN
3038.000	NaN	NaN	NaN	NaN
3039.000	NaN	NaN	NaN	NaN
3040.000	NaN	NaN	NaN	NaN
3041.000	NaN	NaN	NaN	NaN
3042.000	NaN	NaN	NaN	NaN
3043.000	NaN	NaN	NaN	NaN
3044.000	NaN	NaN	NaN	NaN
3045.000	NaN	NaN	NaN	NaN
3046.000	NaN	NaN	NaN	NaN
3047.000	NaN	NaN	NaN	NaN
3048.000	NaN	NaN	NaN	NaN
3049.000	NaN	NaN	NaN	NaN
3050.000	NaN	NaN	NaN	NaN
3051.000	NaN	NaN	NaN	NaN
3052.000	NaN	NaN	NaN	NaN
3053.000	NaN	NaN	NaN	NaN
3054.000	NaN	NaN	NaN	NaN
3055.000	NaN	NaN	NaN	NaN
3056.000	NaN	NaN	NaN	NaN
3057.000	NaN	NaN	NaN	NaN
3058.000	NaN	NaN	NaN	NaN
3059.000	NaN	NaN	NaN	NaN
3060.000	NaN	NaN	NaN	NaN
3061.000	NaN	NaN	NaN	NaN
3062.000	NaN	NaN	NaN	NaN
3063.000	NaN	NaN	NaN	NaN
3064.000	NaN	NaN	NaN	NaN
3065.000	NaN	NaN	NaN	NaN
3066.000	NaN	NaN	NaN	NaN
3067.000	NaN	NaN	NaN	NaN
3068.000	NaN	NaN	NaN	NaN
3069.000	NaN	NaN	NaN	NaN
3070.000	NaN	NaN	NaN	NaN
3071.000	NaN	NaN	NaN	NaN
3072.000	NaN	NaN	NaN	NaN
3073.000	NaN	NaN	NaN	NaN
3074.000	NaN	NaN	NaN	NaN
3075.000	NaN	NaN	NaN	NaN
3076.000	NaN	NaN	NaN	NaN
3077.000	NaN	NaN	NaN	NaN
3078.000	NaN	NaN	NaN	NaN
3079.000	NaN	NaN	NaN	NaN
3080.000	NaN	NaN	NaN	NaN
3081.000	NaN	NaN	NaN	NaN
3082.000	NaN	NaN	NaN	NaN
3083.000	NaN	NaN	NaN	NaN
3084.000	NaN	NaN	NaN	NaN
3085.000	NaN	NaN	NaN	NaN
3086.000	13.18227	7.79072	NaN	NaN
3087.000	11.81804	7.34356	NaN	NaN
3088.000	10.41141	6.65009	NaN	NaN
3089.000	10.19133	6.35702	NaN	NaN
3090.000	10.05913	6.12153	NaN	NaN
3091.000	9.78097	5.79506	NaN	NaN
3092.000	9.65229	5.50010	NaN	NaN
3093.000	9.50812	5.25737	NaN	NaN
3094.000	9.26949	4.98829	NaN	NaN
3095.000	9.02283	4.69325	NaN	NaN
3096.000	8.66380	4.44571	NaN	NaN
3097.000	8.44148	4.09409	NaN	NaN
3098.000	8.27117	3.88623	NaN	NaN
3099.000	7.94952	3.69905	NaN	NaN
3100.000	7.67203	3.45405	NaN	NaN
3101.000	7.47583	3.23151	NaN	NaN
3102.000	7.28139	3.04208	NaN	NaN
3103.000	7.02252	2.88036	NaN	NaN
3104.000	6.83939	2.58586	NaN	NaN
3105.000	6.62491	2.41540	NaN	NaN
3106.000	6.50589	2.19101	NaN	NaN
3107.000	6.37705	2.08692	NaN	NaN
3108.000	6.28917	1.97668	NaN	NaN
3109.000	6.22470	1.89000	NaN	NaN
3110.000	6.19344	1.76959	NaN	NaN
3111.000	6.18758	1.74392	NaN	NaN
3112.000	6.18367	1.72615	NaN	NaN
3113.000	6.18562	1.63524	NaN	NaN
3114.000	6.13481	1.52471	NaN	NaN
3115.000	6.16217	1.57207	NaN	NaN
3116.000	6.10940	1.51292	NaN	NaN
3117.000	6.03707	1.53487	NaN	NaN
3118.000	6.04489	1.44786	NaN	NaN
3119.000	5.94517	1.45010	NaN	NaN
3120.000	5.84345	1.39697	NaN	NaN
3121.000	5.77692	1.39318	NaN	NaN
3122.000	5.63990	1.47265	NaN	NaN
3123.000	5.54786	1.35217	NaN	NaN
3124.000	5.40485	1.32478	NaN	NaN
3125.000	5.34410	1.31105	NaN	NaN
3126.000	5.30294	1.28144	NaN	NaN
3127.000	5.26766	1.22013	9.07875	6.54853
3128.000	5.22649	1.19249	7.98637	6.04355
3129.000	5.20100	1.26383	7.04589	5.19618
3130.000	5.19120	1.16285	6.99720	4.88518
3131.000	5.18139	1.15891	7.01473	4.53394
3132.000	5.11275	1.12536	6.96409	4.27334
3133.000	5.08922	1.18879	7.06536	3.93653
3134.000	5.09706	1.15510	7.10235	3.55093
3135.000	5.04018	1.20472	7.11209	3.25381
3136.000	5.05783	1.17102	7.03226	3.00239
3137.000	4.96170	1.13949	6.91928	2.69382
3138.000	4.95385	1.16724	6.99720	2.44507
3139.000	4.97543	1.15135	6.97383	2.15735
3140.000	4.96759	1.22467	6.92708	1.88142
3141.000	4.90086	1.13167	6.92708	1.70582
3142.000	4.92834	1.17719	7.07315	1.32649
3143.000	4.95385	1.21479	7.04200	1.12528
3144.000	5.01467	1.20477	7.01668	0.94374
3145.000	4.91656	1.23269	7.05563	0.68310
3146.000	4.97936	1.28606	7.07704	0.57647
3147.000	5.00683	1.28600	7.11598	0.34152
3148.000	5.05783	1.36513	7.20162	0.09277
3149.000	5.01860	1.22655	7.10625	0.02764
3150.000	5.04018	1.35130	7.16853	-0.18752
3151.000	5.07156	1.33737	6.92318	-0.14219
3152.000	5.12256	1.35905	7.20356	-0.48355
3153.000	5.06960	1.37698	6.97188	-0.25079
3154.000	5.05783	1.40276	7.06926	-0.51528
3155.000	5.02841	1.37509	6.76337	-0.33387
3156.000	5.09118	1.36308	6.72827	-0.35958
3157.000	4.97347	1.35144	6.76337	-0.37338
3158.000	5.07941	1.43242	6.62686	-0.40313
3159.000	5.07745	1.37697	6.49418	-0.22534
3160.000	5.05979	1.37106	6.46490	-0.20558
3161.000	5.00879	1.30977	6.36533	-0.03757
3162.000	4.94796	1.31187	6.25010	0.00396
3163.000	4.96759	1.40889	6.18171	0.10680
3164.000	5.01467	1.44048	6.21688	0.04747
3165.000	4.95385	1.39308	6.04880	0.32247
3166.000	4.96170	1.46635	5.93930	0.48874
3167.000	4.94993	1.44260	5.87670	0.51452
3168.000	4.85376	1.46064	5.84932	0.61151
3169.000	4.90283	1.46648	5.81214	0.64915
3170.000	4.80076	1.37358	5.81410	0.61749
3171.000	4.80272	1.30423	5.71037	0.67104
3172.000	4.85376	1.45272	5.68101	0.74431
3173.000	4.82824	1.45871	5.68101	0.71462
3174.000	4.85180	1.45470	5.69275	0.71065
3175.000	4.79487	1.40926	5.65556	0.69090
3176.000	4.87142	1.37938	5.65164	0.69684
3177.000	4.75168	1.40736	5.62227	0.71865
3178.000	4.79291	1.36567	5.64773	0.70279
3179.000	4.73400	1.42523	5.57332	0.74643
3180.000	4.83217	1.43493	5.53023	0.77222
3181.000	4.75364	1.35782	5.58115	0.73652
3182.000	4.69866	1.35595	5.59878	0.68305
3183.000	4.78898	1.37162	5.58899	0.77017
3184.000	4.77524	1.39146	5.59094	0.70879
3185.000	4.75560	1.48859	5.64185	0.73249
3186.000	4.63974	1.34615	5.53611	0.75836
3187.000	4.79094	1.41917	5.54590	0.78012
3188.000	4.68688	1.43127	5.55961	0.82762
3189.000	4.76542	1.38356	5.56744	0.84542
3190.000	4.75757	1.39348	5.53219	0.79202
3191.000	4.66527	1.38574	5.55373	0.83356
3192.000	4.74971	1.32811	5.58311	0.82362
3193.000	4.72811	1.39354	5.58507	0.79789
3194.000	4.66527	1.31638	5.57919	0.77216
3195.000	4.72026	1.38563	5.54198	0.84546
3196.000	4.75953	1.37763	5.52827	0.84746
3197.000	4.71830	1.35393	5.45579	0.89112
3198.000	4.67706	1.36590	5.49889	0.85938
3199.000	4.71241	1.39952	5.48126	0.93464
3200.000	4.79487	1.36765	5.45971	0.92081
3201.000	4.75560	1.38160	5.47734	0.93266
3202.000	4.69080	1.39560	5.45579	0.88122
3203.000	4.77916	1.32805	5.44012	0.94856
3204.000	4.71633	1.38762	5.45971	0.90695
3205.000	4.65153	1.38378	5.44992	0.90103
3206.000	4.73204	1.34994	5.43228	0.97431
3207.000	4.72811	1.37174	5.44012	0.95252
3208.000	4.68884	1.34606	5.43816	0.89709
3209.000	4.80272	1.32404	5.41661	0.96048
3210.000	4.67509	1.38374	5.43032	0.91492
3211.000	4.66135	1.36791	5.42249	0.91691
3212.000	4.76738	1.38752	5.39897	0.96645
3213.000	4.65545	1.42341	5.41857	0.89513
3214.000	4.63974	1.39768	5.40681	0.96643
3215.000	4.59260	1.43741	5.40289	0.97634
3216.000	4.66920	1.40753	5.42249	0.93671
3217.000	4.71437	1.37772	5.45384	0.95052
3218.000	4.64956	1.42342	5.40289	0.95258
3219.000	4.63778	1.38381	5.40485	0.97634
3220.000	4.66331	1.37782	5.39310	0.97438
3221.000	4.64563	1.38380	5.39506	0.94071
3222.000	4.56314	1.46521	5.39506	1.04367
3223.000	4.66527	1.36394	5.43816	0.92678
3224.000	4.64171	1.39569	5.41857	0.95058
3225.000	4.57689	1.35024	5.47734	0.90891
3226.000	4.59653	1.35813	5.38526	0.98627
3227.000	4.51205	1.40387	5.43424	0.98817
3228.000	4.59064	1.38985	5.44208	0.94460
3229.000	4.70848	1.39754	5.41661	0.93474
3230.000	4.59457	1.32642	5.39897	0.99219
3231.000	4.62207	1.38979	5.40093	0.97436
3232.000	4.63385	1.38580	5.41269	0.92088
3233.000	4.67706	1.40355	5.38330	1.00211
3234.000	4.65153	1.36793	5.42249	0.97037
3235.000	4.63778	1.38381	5.39506	0.93675
3236.000	4.60832	1.34621	5.44600	0.93865
3237.000	4.58278	1.42950	5.44600	0.95251
3238.000	4.59457	1.37795	5.37154	0.99619
3239.000	4.63974	1.43137	5.41073	0.96841
3240.000	4.61224	1.38386	5.42445	0.93275
3241.000	4.57689	1.29276	5.40485	0.95258
3242.000	4.58474	1.34031	5.38526	1.03577
3243.000	4.59457	1.36606	5.42445	0.93869
3244.000	4.58671	1.31058	5.41857	0.93672
3245.000	4.62796	1.29266	5.39506	0.96843
3246.000	4.55528	1.34433	5.32254	1.01805
3247.000	4.55724	1.41568	5.42641	0.98224
3248.000	4.51009	1.37216	5.35390	0.92097
3249.000	4.43346	1.31878	5.38330	1.00607
3250.000	4.57689	1.37402	5.42837	1.00204
3251.000	4.59064	1.34823	5.36370	0.93086
3252.000	4.52581	1.34835	5.42641	0.94264
3253.000	4.47276	1.34448	5.37546	0.96648
3254.000	4.49437	1.30678	5.40877	0.93475
3255.000	4.51009	1.32459	5.42249	0.96047
3256.000	4.51205	1.32459	5.39701	0.97239
3257.000	4.54742	1.27299	5.40485	0.98822
3258.000	4.46293	1.31873	5.43424	0.99213
3259.000	4.52581	1.32655	5.38526	0.97241
3260.000	4.51598	1.32855	5.37154	0.96055
3261.000	4.45507	1.33659	5.43228	0.92283
3262.000	4.48651	1.36428	5.35782	1.01800
3263.000	4.56706	1.37206	5.37350	0.94075
3264.000	4.43346	1.30292	5.38722	0.94072
3265.000	4.52384	1.28691	5.43816	0.91887
3266.000	4.44918	1.24937	5.39506	0.89517
3267.000	4.43346	1.22164	5.41857	0.85355
3268.000	4.49044	1.21758	5.44404	0.81590
3269.000	4.37450	1.35061	5.41073	0.77238
3270.000	4.39612	1.31290	5.44404	0.78817
3271.000	4.50813	1.27108	5.42445	0.80206
3272.000	4.36074	1.25943	5.45579	0.81588
3273.000	4.41380	1.20185	5.44012	0.82184
3274.000	4.32535	1.26742	5.42837	0.81592
3275.000	4.41184	1.23754	5.43424	0.80997
3276.000	4.40791	1.24746	5.45188	0.78816
3277.000	4.40005	1.25738	5.45579	0.85548
3278.000	4.37843	1.19596	5.42641	0.81988
3279.000	4.46883	1.24735	5.48518	0.82178
3280.000	4.39022	1.15430	5.47930	0.82773
3281.000	4.40987	1.22763	5.51064	0.79007
3282.000	4.36663	1.15632	5.53611	0.78607
3283.000	4.40201	1.09876	5.46755	0.75844
3284.000	4.36074	1.19202	5.52044	0.76828
3285.000	4.28800	1.15049	5.47930	0.74655
3286.000	4.36074	1.09486	5.49889	0.77028
3287.000	4.33715	1.12662	5.54786	0.71677
3288.000	4.43542	1.17406	5.54003	0.77419
3289.000	4.36663	1.10873	5.51064	0.76433
3290.000	4.30963	1.23771	5.55961	0.73655
3291.000	4.37646	1.14837	5.59878	0.76817
3292.000	4.39022	1.15033	5.56157	0.73853
3293.000	4.32535	1.14052	5.54982	0.76428
3294.000	4.42756	1.12450	5.59682	0.73848
3295.000	4.35287	1.11866	5.56744	0.75832
3296.000	4.42559	1.17605	5.60269	0.75233
3297.000	4.37253	1.15036	5.56157	0.74644
3298.000	4.30176	1.04338	5.57332	0.74049
3299.000	4.30570	1.14451	5.56549	0.76426
3300.000	4.32339	1.11276	5.56940	0.78801
3301.000	4.36860	1.10476	5.57136	0.80384
3302.000	4.34698	1.17023	5.55961	0.80782
3303.000	4.42953	1.11260	5.56549	0.79395
3304.000	4.44721	1.14231	5.60073	0.78005
3305.000	4.31946	1.12466	5.53611	0.74252
3306.000	4.33911	1.16231	5.60465	0.74639
3307.000	4.38039	1.09285	5.58507	0.77215
3308.000	4.32732	1.16629	5.54003	0.78013
3309.000	4.24082	1.15056	5.53807	0.73460
3310.000	4.42363	1.14235	5.53219	0.73064
3311.000	4.34108	1.17024	5.59486	0.66128
3312.000	4.39612	1.16817	5.60073	0.62960
3313.000	4.40791	1.18005	5.57136	0.68506
3314.000	4.33911	1.04531	5.57724	0.67516
3315.000	4.38825	1.06706	5.58115	0.60190
3316.000	4.43542	1.06104	5.55961	0.72467
3317.000	4.30373	1.08701	5.56549	0.70289
3318.000	4.44328	1.06301	5.51848	0.71086
3319.000	4.42363	1.11657	5.57136	0.68902
3320.000	4.37253	1.16027	5.55178	0.66133
3321.000	4.34108	1.04729	5.58703	0.65931
3322.000	4.32339	1.10879	5.54590	0.72865
3323.000	4.38039	1.02146	5.54590	0.68707
3324.000	4.28800	0.99778	5.47734	0.76635
3325.000	4.36467	1.03536	5.55178	0.72468
3326.000	4.33911	1.03540	5.54198	0.69697
3327.000	4.35681	1.01356	5.50085	0.70098
3328.000	4.35877	0.95406	5.52631	0.67719
3329.000	4.41773	1.03529	5.52436	0.71877
3330.000	4.33911	0.98582	5.50281	0.68712
3331.000	4.36270	1.01752	5.56549	0.68309
3332.000	4.38236	0.95205	5.48714	0.70298
3333.000	4.35484	0.94019	5.51848	0.67126
3334.000	4.29783	1.03347	5.51064	0.69503
3335.000	4.35091	0.94812	5.57724	0.67516
3336.000	4.34501	1.09091	5.55765	0.70289
3337.000	4.31749	1.01361	5.56940	0.62765
3338.000	4.26834	0.94624	5.55961	0.64944
3339.000	4.30570	1.00371	5.53023	0.70095
3340.000	4.22116	1.01771	5.52436	0.63562
3341.000	4.25851	0.98592	5.52240	0.62176
3342.000	4.39415	0.92031	5.55569	0.66528
3343.000	4.28604	0.97399	5.49497	0.73267
3344.000	4.17789	0.97809	5.52827	0.69897
3345.000	4.27228	0.95417	5.54786	0.63163
3346.000	4.27817	1.03945	5.55961	0.67518
3347.000	4.28604	1.01365	5.56549	0.71080
3348.000	4.32732	0.94815	5.49693	0.71881
3349.000	4.37843	0.99568	5.56157	0.68903
3350.000	4.30373	1.03148	5.49889	0.69108
3351.000	4.29980	0.86092	5.56549	0.64745
3352.000	4.27424	1.00177	5.52240	0.63562
3353.000	4.24475	0.95024	5.54198	0.64946
3354.000	4.35681	0.98976	5.50477	0.60198
3355.000	4.35681	1.05520	5.56744	0.59597
3356.000	4.32142	1.00171	5.55178	0.62371
3357.000	4.41577	1.09478	5.53611	0.66728
3358.000	4.39022	1.08292	5.49497	0.62773
3359.000	4.35287	1.09685	5.49889	0.63762
3360.000	4.35287	1.04529	5.57724	0.57617
3361.000	4.38039	1.09086	5.52240	0.64552
3362.000	4.35877	1.13650	5.52044	0.66334
3363.000	4.39415	1.10869	5.53415	0.61977
3364.000	4.39022	1.10275	5.51260	0.62969
3365.000	4.40594	1.08488	5.50673	0.66138
3366.000	4.40594	1.14039	5.52044	0.62572
3367.000	4.35091	1.09884	5.52044	0.60592
3368.000	4.26638	1.10888	5.52044	0.60394
3369.000	4.29390	1.09892	5.55178	0.58015
3370.000	4.38432	1.08689	5.54982	0.66331
3371.000	4.39022	1.07300	5.50085	0.63564
3372.000	4.27031	1.06524	5.56157	0.64548
3373.000	4.40398	1.13247	5.61248	0.59197
3374.000	4.43149	1.15225	5.58311	0.61378
3375.000	4.35484	1.18013	5.52436	0.59998
3376.000	4.34501	1.12066	5.57724	0.61180
3377.000	4.30373	1.22978	5.52631	0.68313
3378.000	4.39612	1.14438	5.53807	0.59996
3379.000	4.37843	1.22570	5.50673	0.64158
3380.000	4.44132	1.16810	5.47343	0.64953
3381.000	4.30373	1.15641	5.54982	0.57619
3382.000	4.44132	1.09870	5.51064	0.67919
3383.000	4.34108	1.21386	5.50869	0.67919
3384.000	4.34698	1.21782	5.52827	0.65739
3385.000	4.36074	1.20986	5.46559	0.70696
3386.000	4.35287	1.20591	5.44404	0.75451
3387.000	4.35681	1.29711	5.44992	0.70500
3388.000	4.38629	1.29309	5.42053	0.80207
3389.000	4.38825	1.25344	5.38330	0.78231
3390.000	4.41380	1.24745	5.37350	0.79619
3391.000	4.33125	1.34474	5.36174	0.82987
3392.000	4.31356	1.30512	5.33822	0.90911
3393.000	4.42166	1.35845	5.33822	0.89921
3394.000	4.39218	1.43780	5.36566	0.91699
3395.000	4.46097	1.40397	5.31470	0.90519
3396.000	4.46686	1.41189	5.28138	0.92900
3397.000	4.55724	1.47315	5.29118	0.93295
3398.000	4.54938	1.49695	5.26570	0.95675
3399.000	4.52188	1.51881	5.28530	0.99831
3400.000	4.48848	1.50104	5.29902	0.97453
3401.000	4.49437	1.52878	5.32842	0.90715
3402.000	4.56903	1.54844	5.50673	0.74849
3403.000	4.59849	1.47703	5.66143	0.53253
3404.000	4.52581	1.53267	5.72407	0.50674
3405.000	4.50027	1.44354	5.76909	0.82732
3406.000	4.51402	1.47324	5.82779	1.37129
3407.000	4.51598	1.49108	5.75735	2.06165
3408.000	4.54349	1.63766	5.76909	2.76302
3409.000	4.52188	1.63375	5.75343	3.42624
3410.000	4.60439	1.71083	5.73582	4.15751
3411.000	4.58671	1.75050	5.79257	4.82002
3412.000	4.57296	1.85554	5.85323	5.61634
3413.000	4.63778	1.98411	6.18758	6.46569
3414.000	4.59849	2.07533	6.27940	7.41158
3415.000	4.64563	2.12668	6.45124	8.40597
3416.000	4.52974	2.08543	NaN	NaN
3417.000	4.44525	2.29561	NaN	NaN
3418.000	4.34894	2.56322	NaN	NaN
3419.000	4.23099	2.85858	NaN	NaN
3420.000	4.21329	3.13367	NaN	NaN
3421.000	4.23492	3.48556	NaN	NaN
3422.000	4.12086	3.86153	NaN	NaN
3423.000	4.11693	4.20906	NaN	NaN
3424.000	4.07366	4.67479	NaN	NaN
3425.000	4.04612	5.10442	NaN	NaN
3426.000	4.06972	5.48597	NaN	NaN
3427.000	4.13660	5.94522	NaN	NaN
3428.000	4.10119	6.48870	NaN	NaN
3429.000	4.21329	6.96720	NaN	NaN
3430.000	4.27424	7.51528	NaN	NaN
3431.000	4.29390	8.11870	NaN	NaN
3432.000	4.35484	8.66553	NaN	NaN
3433.000	4.61814	9.37811	NaN	NaN
3434.000	4.74579	9.86210	NaN	NaN
3435.000	4.92245	10.48175	NaN	NaN
3436.000	NaN	NaN	NaN	NaN
3437.000	NaN	NaN	NaN	NaN
3438.000	NaN	NaN	NaN	NaN
3439.000	NaN	NaN	NaN	NaN
3440.000	NaN	NaN	NaN	NaN
3441.000	NaN	NaN	NaN	NaN
3442.000	NaN	NaN	NaN	NaN
3443.000	NaN	NaN	NaN	NaN
3444.000	NaN	NaN	NaN	NaN
3445.000	NaN	NaN	NaN	NaN
3446.000	NaN	NaN	NaN	NaN
3447.000	NaN	NaN	NaN	NaN
3448.000	NaN	NaN	NaN	NaN
3449.000	NaN	NaN	NaN	NaN
3450.000	NaN	NaN	NaN	NaN
3451.000	NaN	NaN	NaN	NaN
3452.000	NaN	NaN	NaN	NaN
3453.000	NaN	NaN	NaN	NaN
3454.000	NaN	NaN	NaN	NaN
3455.000	NaN	NaN	NaN	NaN
3456.000	NaN	NaN	NaN	NaN
3457.000	NaN	NaN	NaN	NaN
3458.000	NaN	NaN	NaN	NaN
3459.000	NaN	NaN	NaN	NaN
3460.000	NaN	NaN	NaN	NaN
3461.000	NaN	NaN	NaN	NaN
3462.000	NaN	NaN	NaN	NaN
3463.000	NaN	NaN	NaN	NaN
3464.000	NaN	NaN	NaN	NaN
3465.000	NaN	NaN	NaN	NaN
3466.000	NaN	NaN	NaN	NaN
3467.000	NaN	NaN	NaN	NaN
3468.000	NaN	NaN	NaN	NaN
3469.000	NaN	NaN	NaN	NaN
3470.000	NaN	NaN	NaN	NaN
3471.000	NaN	NaN	NaN	NaN
3472.000	NaN	NaN	NaN	NaN
3473.000	NaN	NaN	NaN	NaN
3474.000	NaN	NaN	NaN	NaN
3475.000	NaN	NaN	NaN	NaN
3476.000	NaN	NaN	NaN	NaN
3477.000	NaN	NaN	NaN	NaN
3478.000	NaN	NaN	NaN	NaN
3479.000	NaN	NaN	NaN	NaN
3480.000	NaN	NaN	NaN	NaN
3481.000	NaN	NaN	NaN	NaN
3482.000	NaN	NaN	NaN	NaN
3483.000	NaN	NaN	NaN	NaN
3484.000	NaN	NaN	NaN	NaN
3485.000	NaN	NaN	NaN	NaN
3486.000	NaN	NaN	NaN	NaN
3487.000	NaN	NaN	NaN	NaN
3488.000	NaN	NaN	NaN	NaN
3489.000	NaN	NaN	NaN	NaN
3490.000	NaN	NaN	NaN	NaN
3491.000	NaN	NaN	NaN	NaN
3492.000	NaN	NaN	NaN	NaN
3493.000	NaN	NaN	NaN	NaN
3494.000	NaN	NaN	NaN	NaN
3495.000	NaN	NaN	NaN	NaN
3496.000	NaN	NaN	NaN	NaN
3497.000	NaN	NaN	NaN	NaN
3498.000	NaN	NaN	NaN	NaN
3499.000	NaN	NaN	NaN	NaN
3500.000	NaN	NaN	NaN	NaN
3501.000	NaN	NaN	NaN	NaN
3502.000	NaN	NaN	NaN	NaN
3503.000	NaN	NaN	NaN	NaN
3504.000	NaN	NaN	NaN	NaN
3505.000	NaN	NaN	NaN	NaN
3506.000	NaN	NaN	NaN	NaN
3507.000	NaN	NaN	NaN	NaN
3508.000	NaN	NaN	NaN	NaN
3509.000	NaN	NaN	NaN	NaN
3510.000	NaN	NaN	NaN	NaN
3511.000	NaN	NaN	NaN	NaN
3512.000	NaN	NaN	NaN	NaN
3513.000	NaN	NaN	NaN	NaN
3514.000	NaN	NaN	NaN	NaN
3515.000	NaN	NaN	NaN	NaN
3516.000	NaN	NaN	NaN	NaN
3517.000	NaN	NaN	NaN	NaN
3518.000	NaN	NaN	NaN	NaN
3519.000	NaN	NaN	NaN	NaN
3520.000	NaN	NaN	NaN	NaN
3521.000	NaN	NaN	NaN	NaN
3522.000	NaN	NaN	NaN	NaN
3523.000	NaN	NaN	NaN	NaN
3524.000	NaN	NaN	NaN	NaN
3525.000	NaN	NaN	NaN	NaN
3526.000	NaN	NaN	NaN	NaN
3527.000	NaN	NaN	NaN	NaN
3528.000	NaN	NaN	NaN	NaN
3529.000	NaN	NaN	NaN	NaN
3530.000	NaN	NaN	NaN	NaN
3531.000	NaN	NaN	NaN	NaN
3532.000	NaN	NaN	NaN	NaN
3533.000	NaN	NaN	NaN	NaN
3534.000	NaN	NaN	NaN	NaN
3535.000	NaN	NaN	NaN	NaN
3536.000	NaN	NaN	NaN	NaN
3537.000	NaN	NaN	NaN	NaN
3538.000	NaN	NaN	NaN	NaN
3539.000	NaN	NaN	NaN	NaN
3540.000	NaN	NaN	NaN	NaN
3541.000	NaN	NaN	NaN	NaN
3542.000	NaN	NaN	NaN	NaN
3543.000	NaN	NaN	NaN	NaN
3544.000	NaN	NaN	NaN	NaN
3545.000	NaN	NaN	NaN	NaN
3546.000	NaN	NaN	NaN	NaN
3547.000	NaN	NaN	NaN	NaN
3548.000	NaN	NaN	NaN	NaN
3549.000	NaN	NaN	NaN	NaN
3550.000	NaN	NaN	NaN	NaN
3551.000	NaN	NaN	NaN	NaN
3552.000	NaN	NaN	NaN	NaN
3553.000	NaN	NaN	NaN	NaN
3554.000	NaN	NaN	NaN	NaN
3555.000	NaN	NaN	NaN	NaN
3556.000	NaN	NaN	NaN	NaN
3557.000	NaN	NaN	NaN	NaN
3558.000	NaN	NaN	NaN	NaN
3559.000	NaN	NaN	NaN	NaN
3560.000	NaN	NaN	NaN	NaN
3561.000	NaN	NaN	NaN	NaN
3562.000	NaN	NaN	NaN	NaN
3563.000	NaN	NaN	NaN	NaN
3564.000	NaN	NaN	NaN	NaN
3565.000	NaN	NaN	NaN	NaN
3566.000	NaN	NaN	NaN	NaN
3567.000	NaN	NaN	NaN	NaN
3568.000	NaN	NaN	NaN	NaN
3569.000	NaN	NaN	NaN	NaN
3570.000	NaN	NaN	NaN	NaN
3571.000	NaN	NaN	NaN	NaN
3572.000	NaN	NaN	NaN	NaN
3573.000	NaN	NaN	NaN	NaN
3574.000	NaN	NaN	NaN	NaN
3575.000	NaN	NaN	NaN	NaN
3576.000	NaN	NaN	NaN	NaN
3577.000	NaN	NaN	NaN	NaN
3578.000	NaN	NaN	NaN	NaN
3579.000	NaN	NaN	NaN	NaN
3580.000	NaN	NaN	NaN	NaN
3581.000	NaN	NaN	NaN	NaN
3582.000	NaN	NaN	NaN	NaN
3583.000	NaN	NaN	NaN	NaN
3584.000	NaN	NaN	NaN	NaN
3585.000	NaN	NaN	NaN	NaN
3586.000	NaN	NaN	NaN	NaN
3587.000	NaN	NaN	NaN	NaN
3588.000	NaN	NaN	NaN	NaN
3589.000	NaN	NaN	NaN	NaN
3590.000	NaN	NaN	NaN	NaN
3591.000	NaN	NaN	NaN	NaN
3592.000	NaN	NaN	NaN	NaN
3593.000	NaN	NaN	NaN	NaN
3594.000	NaN	NaN	NaN	NaN
3595.000	NaN	NaN	NaN	NaN
3596.000	NaN	NaN	NaN	NaN
3597.000	NaN	NaN	NaN	NaN
3598.000	NaN	NaN	NaN	NaN
3599.000	NaN	NaN	NaN	NaN
3600.000	NaN	NaN	NaN	NaN
3601.000	NaN	NaN	NaN	NaN
3602.000	NaN	NaN	NaN	NaN
3603.000	NaN	NaN	NaN	NaN
3604.000	NaN	NaN	NaN	NaN
3605.000	NaN	NaN	NaN	NaN
3606.000	NaN	NaN	NaN	NaN
3607.000	NaN	NaN	NaN	NaN
3608.000	NaN	NaN	NaN	NaN
3609.000	NaN	NaN	NaN	NaN
3610.000	NaN	NaN	NaN	NaN
3611.000	NaN	NaN	NaN	NaN
3612.000	NaN	NaN	NaN	NaN
3613.000	NaN	NaN	NaN	NaN
3614.000	NaN	NaN	NaN	NaN
3615.000	NaN	NaN	NaN	NaN
3616.000	NaN	NaN	NaN	NaN
3617.000	NaN	NaN	NaN	NaN
3618.000	NaN	NaN	NaN	NaN
3619.000	NaN	NaN	NaN	NaN
3620.000	NaN	NaN	NaN	NaN
3621.000	NaN	NaN	NaN	NaN
3622.000	NaN	NaN	NaN	NaN
3623.000	NaN	NaN	NaN	NaN
3624.000	NaN	NaN	NaN	NaN
3625.000	NaN	NaN	NaN	NaN
3626.000	NaN	NaN	NaN	NaN
3627.000	NaN	NaN	NaN	NaN
3628.000	NaN	NaN	NaN	NaN
3629.000	NaN	NaN	NaN	NaN
3630.000	NaN	NaN	NaN	NaN
3631.000	NaN	NaN	NaN	NaN
3632.000	NaN	NaN	NaN	NaN
3633.000	NaN	NaN	NaN	NaN
3634.000	NaN	NaN	NaN	NaN
3635.000	NaN	NaN	NaN	NaN
3636.000	NaN	NaN	NaN	NaN
3637.000	NaN	NaN	NaN	NaN
3638.000	NaN	NaN	NaN	NaN
3639.000	NaN	NaN	NaN	NaN
3640.000	NaN	NaN	NaN	NaN
3641.000	NaN	NaN	NaN	NaN
3642.000	NaN	NaN	NaN	NaN
3643.000	NaN	NaN	NaN	NaN
3644.000	NaN	NaN	NaN	NaN
3645.000	NaN	NaN	NaN	NaN
3646.000	NaN	NaN	NaN	NaN
3647.000	NaN	NaN	NaN	NaN
3648.000	NaN	NaN	NaN	NaN
3649.000	NaN	NaN	NaN	NaN
3650.000	NaN	NaN	NaN	NaN
3651.000	NaN	NaN	NaN	NaN
3652.000	NaN	NaN	NaN	NaN
3653.000	NaN	NaN	NaN	NaN
3654.000	NaN	NaN	NaN	NaN
3655.000	NaN	NaN	NaN	NaN
3656.000	NaN	NaN	NaN	NaN
3657.000	NaN	NaN	NaN	NaN
3658.000	NaN	NaN	NaN	NaN
3659.000	NaN	NaN	NaN	NaN
3660.000	NaN	NaN	NaN	NaN
3661.000	NaN	NaN	NaN	NaN
3662.000	NaN	NaN	NaN	NaN
3663.000	NaN	NaN	NaN	NaN
3664.000	NaN	NaN	NaN	NaN
3665.000	NaN	NaN	NaN	NaN
3666.000	NaN	NaN	NaN	NaN
3667.000	NaN	NaN	NaN	NaN
3668.000	NaN	NaN	NaN	NaN
3669.000	NaN	NaN	NaN	NaN
3670.000	NaN	NaN	NaN	NaN
3671.000	NaN	NaN	NaN	NaN
3672.000	NaN	NaN	NaN	NaN
3673.000	NaN	NaN	NaN	NaN
3674.000	NaN	NaN	NaN	NaN
3675.000	NaN	NaN	NaN	NaN
3676.000	NaN	NaN	NaN	NaN
3677.000	NaN	NaN	NaN	NaN
3678.000	NaN	NaN	NaN	NaN
3679.000	NaN	NaN	NaN	NaN
3680.000	NaN	NaN	NaN	NaN
3681.000	NaN	NaN	NaN	NaN
3682.000	NaN	NaN	NaN	NaN
3683.000	NaN	NaN	NaN	NaN
3684.000	NaN	NaN	NaN	NaN
3685.000	NaN	NaN	NaN	NaN
3686.000	NaN	NaN	NaN	NaN
3687.000	NaN	NaN	NaN	NaN
3688.000	NaN	NaN	NaN	NaN
3689.000	NaN	NaN	NaN	NaN
3690.000	NaN	NaN	NaN	NaN
3691.000	NaN	NaN	NaN	NaN
3692.000	NaN	NaN	NaN	NaN
3693.000	NaN	NaN	NaN	NaN
3694.000	NaN	NaN	NaN	NaN
3695.000	NaN	NaN	NaN	NaN
3696.000	NaN	NaN	NaN	NaN
3697.000	NaN	NaN	NaN	NaN
3698.000	NaN	NaN	NaN	NaN
3699.000	NaN	NaN	NaN	NaN
3700.000	NaN	NaN	NaN	NaN
3701.000	NaN	NaN	NaN	NaN
3702.000	NaN	NaN	NaN	NaN
3703.000	NaN	NaN	NaN	NaN
3704.000	NaN	NaN	NaN	NaN
3705.000	NaN	NaN	NaN	NaN
3706.000	NaN	NaN	NaN	NaN
3707.000	NaN	NaN	NaN	NaN
3708.000	NaN	NaN	NaN	NaN
3709.000	NaN	NaN	NaN	NaN
3710.000	NaN	NaN	NaN	NaN
3711.000	NaN	NaN	NaN	NaN
3712.000	NaN	NaN	NaN	NaN
3713.000	NaN	NaN	NaN	NaN
3714.000	NaN	NaN	NaN	NaN
3715.000	NaN	NaN	NaN	NaN
3716.000	NaN	NaN	NaN	NaN
3717.000	NaN	NaN	NaN	NaN
3718.000	NaN	NaN	NaN	NaN
3719.000	NaN	NaN	NaN	NaN
3720.000	NaN	NaN	NaN	NaN
3721.000	NaN	NaN	NaN	NaN
3722.000	NaN	NaN	NaN	NaN
3723.000	NaN	NaN	NaN	NaN
3724.000	NaN	NaN	NaN	NaN
3725.000	NaN	NaN	NaN	NaN
3726.000	NaN	NaN	NaN	NaN
3727.000	NaN	NaN	NaN	NaN
3728.000	NaN	NaN	NaN	NaN
3729.000	NaN	NaN	NaN	NaN
3730.000	NaN	NaN	NaN	NaN
3731.000	NaN	NaN	NaN	NaN
3732.000	NaN	NaN	NaN	NaN
3733.000	NaN	NaN	NaN	NaN
3734.000	NaN	NaN	NaN	NaN
3735.000	NaN	NaN	NaN	NaN
3736.000	NaN	NaN	NaN	NaN
3737.000	NaN	NaN	NaN	NaN
3738.000	NaN	NaN	NaN	NaN
3739.000	NaN	NaN	NaN	NaN
3740.000	NaN	NaN	NaN	NaN
3741.000	NaN	NaN	NaN	NaN
3742.000	NaN	NaN	NaN	NaN
3743.000	NaN	NaN	NaN	NaN
3744.000	NaN	NaN	NaN	NaN
3745.000	NaN	NaN	NaN	NaN
3746.000	NaN	NaN	NaN	NaN
3747.000	NaN	NaN	NaN	NaN
3748.000	NaN	NaN	NaN	NaN
3749.000	NaN	NaN	NaN	NaN
3750.000	NaN	NaN	NaN	NaN
3751.000	NaN	NaN	NaN	NaN
3752.000	NaN	NaN	NaN	NaN
3753.000	NaN	NaN	NaN	NaN
3754.000	NaN	NaN	NaN	NaN
3755.000	NaN	NaN	NaN	NaN
3756.000	NaN	NaN	NaN	NaN
3757.000	NaN	NaN	NaN	NaN
3758.000	NaN	NaN	NaN	NaN
3759.000	NaN	NaN	NaN	NaN
3760.000	NaN	NaN	NaN	NaN
3761.000	NaN	NaN	NaN	NaN
3762.000	NaN	NaN	NaN	NaN
3763.000	NaN	NaN	NaN	NaN
3764.000	NaN	NaN	NaN	NaN
3765.000	NaN	NaN	NaN	NaN
3766.000	NaN	NaN	NaN	NaN
3767.000	NaN	NaN	NaN	NaN
3768.000	NaN	NaN	NaN	NaN
3769.000	NaN	NaN	NaN	NaN
3770.000	-0.39935	10.57519	NaN	NaN
3771.000	0.65436	9.66483	NaN	NaN
3772.000	1.31645	8.59467	NaN	NaN
3773.000	1.15046	8.23706	NaN	NaN
3774.000	0.91527	7.92958	NaN	NaN
3775.000	0.78680	7.50205	NaN	NaN
3776.000	0.67808	7.15782	NaN	NaN
3777.000	0.47447	6.84646	NaN	NaN
3778.000	0.36574	6.56988	NaN	NaN
3779.000	0.40330	6.20244	NaN	NaN
3780.000	0.12257	5.91339	NaN	NaN
3781.000	0.14827	5.63768	NaN	NaN
3782.000	-0.04547	5.29863	NaN	NaN
3783.000	-0.17991	4.96508	NaN	NaN
3784.000	-0.24119	4.64108	NaN	NaN
3785.000	-0.23724	4.35637	NaN	NaN
3786.000	-0.37365	4.15056	NaN	NaN
3787.000	-0.45668	3.80009	NaN	NaN
3788.000	-0.43889	3.58614	NaN	NaN
3789.000	-0.47447	3.42558	NaN	NaN
3790.000	-0.68994	3.21331	NaN	NaN
3791.000	-0.63459	2.94358	NaN	NaN
3792.000	-0.80854	2.72122	NaN	NaN
3793.000	-0.86191	2.49290	NaN	NaN
3794.000	-0.97852	2.31609	NaN	NaN
3795.000	-1.16825	2.14714	NaN	NaN
3796.000	-1.16034	2.01008	NaN	NaN
3797.000	-1.19789	1.77958	NaN	NaN
3798.000	-1.27891	1.62850	NaN	NaN
3799.000	-1.39154	1.52310	NaN	NaN
3800.000	-1.36783	1.35218	NaN	NaN
3801.000	-1.32831	1.23690	NaN	NaN
3802.000	-1.39549	1.09771	NaN	NaN
3803.000	-1.37968	1.01819	NaN	NaN
3804.000	-1.42117	0.85314	NaN	NaN
3805.000	-1.43105	0.68611	NaN	NaN
3806.000	-1.40339	0.59862	NaN	NaN
3807.000	-1.46859	0.43554	NaN	NaN
3808.000	-1.46266	0.33212	5.83562	6.42489
3809.000	-1.48440	0.22075	3.42995	6.23278
3810.000	-1.46859	0.07756	0.96469	5.99522
3811.000	-1.50415	-0.01790	0.98247	5.63097
3812.000	-1.54564	-0.13125	1.10303	5.32329
3813.000	-1.49823	-0.15711	1.07734	5.19513
3814.000	-1.54367	-0.38978	1.04769	4.80038
3815.000	-1.52786	-0.45342	1.09117	4.56321
3816.000	-1.51403	-0.48524	1.18998	4.23483
3817.000	-1.56737	-0.64232	1.17022	3.99344
3818.000	-1.53576	-0.69602	1.04374	3.72234
3819.000	-1.52193	-0.68608	1.12675	3.45675
3820.000	-1.46464	-0.86704	1.02793	3.16940
3821.000	-1.45871	-1.00424	1.02991	2.99685
3822.000	-1.47452	-1.02610	1.02200	2.65358
3823.000	-1.54564	-1.08968	1.14058	2.45298
3824.000	-1.52984	-1.14337	1.05560	2.23461
3825.000	-1.56145	-1.22684	1.05165	2.03002
3826.000	-1.49823	-1.26862	1.12477	1.82335
3827.000	-1.54564	-1.31630	1.17418	1.50335
3828.000	-1.50218	-1.29843	1.09117	1.35431
3829.000	-1.47649	-1.32628	1.16825	1.17932
3830.000	-1.48045	-1.34218	1.10501	1.02625
3831.000	-1.43105	-1.40382	1.07141	0.80752
3832.000	-1.45081	-1.46940	1.35795	0.48726
3833.000	-1.51403	-1.39383	1.25717	0.31823
3834.000	-1.42117	-1.43166	1.09117	0.21283
3835.000	-1.39351	-1.36210	1.26310	0.00796
3836.000	-1.40142	-1.40583	1.11884	-0.05569
3837.000	-1.41129	-1.29849	1.11094	-0.24863
3838.000	-1.39154	-1.24482	1.05560	-0.35207
3839.000	-1.33424	-1.34027	1.06351	-0.54301
3840.000	-1.31250	-1.13950	1.23939	-0.76372
3841.000	-1.34016	-1.15539	1.12675	-0.86517
3842.000	-1.30262	-1.18722	1.34609	-1.04007
3843.000	-1.27298	-1.11168	1.29867	-1.17131
3844.000	-1.33424	-1.07388	1.43500	-1.48332
3845.000	-1.31250	-1.16137	1.22160	-1.47152
3846.000	-1.31052	-1.11365	0.97457	-1.40406
3847.000	-1.32831	-1.07388	1.04572	-1.52330
3848.000	-1.35795	-1.14743	0.86191	-1.52139
3849.000	-1.25915	-1.09180	0.76505	-1.63274
3850.000	-1.26112	-1.08584	0.76110	-1.68044
3851.000	-1.24136	-1.10772	0.71366	-1.71027
3852.000	-1.26310	-1.07391	0.68006	-1.79972
3853.000	-1.25124	-1.08783	0.64448	-1.89512
3854.000	-1.22555	-1.01030	0.57924	-1.86732
3855.000	-1.23939	-1.10374	0.56936	-1.85938
3856.000	-1.24334	-1.04012	0.50610	-1.86139
3857.000	-1.24136	-1.02222	0.50215	-1.89119
3858.000	-1.19394	-1.10575	0.52982	-1.92894
3859.000	-1.18603	-0.94072	0.44877	-1.87929
3860.000	-1.23939	-1.00632	0.49819	-1.96074
3861.000	-1.18406	-1.07792	0.46459	-1.93095
3862.000	-1.27693	-1.06197	0.51005	-1.98657
3863.000	-1.25322	-0.90093	0.40330	-1.90712
3864.000	-1.20184	-1.02820	0.43098	-1.96871
3865.000	-1.27891	-1.05998	0.38353	-1.97270
3866.000	-1.23346	-1.08386	0.40726	-1.98064
3867.000	-1.16232	-1.04412	0.36179	-1.90315
3868.000	-1.24927	-1.04807	0.30050	-1.83361
3869.000	-1.21567	-0.97849	0.24910	-1.85747
3870.000	-1.25520	-1.03613	0.23131	-1.71039
3871.000	-1.21172	-1.01428	0.22538	-1.67660
3872.000	-1.16034	-0.99044	0.20363	-1.62294
3873.000	-1.26903	-1.03613	0.19770	-1.66070
3874.000	-1.21567	-0.95661	0.20363	-1.62294
3875.000	-1.25322	-0.93075	0.21352	-1.59709
3876.000	-1.18998	-1.05406	0.17793	-1.63288
3877.000	-1.19591	-1.01031	0.16607	-1.60505
3878.000	-1.22753	-0.95065	0.14630	-1.64878
3879.000	-1.18998	-0.98645	0.14432	-1.70245
3880.000	-1.22555	-0.97053	0.14630	-1.73028
3881.000	-1.20184	-0.95463	0.15618	-1.67462
3882.000	-1.31448	-0.99833	0.13444	-1.65673
3883.000	-1.18998	-0.94867	0.13246	-1.70046
3884.000	-1.18998	-0.93077	0.16409	-1.71438
3885.000	-1.22555	-0.92480	0.13839	-1.71637
3886.000	-1.11094	-0.95068	0.12455	-1.73624
3887.000	-1.13268	-0.93875	0.12455	-1.71040
3888.000	-1.26112	-0.90291	0.16211	-1.70444
3889.000	-1.18208	-0.94668	0.14234	-1.75413
3890.000	-1.19394	-1.03218	0.15618	-1.68655
3891.000	-1.23741	-1.00234	0.14234	-1.72034
3892.000	-1.24334	-0.98643	0.16014	-1.71636
3893.000	-1.25717	-0.95859	0.13444	-1.71239
3894.000	-1.15046	-0.91488	0.16014	-1.70643
3895.000	-1.16232	-1.04214	0.14432	-1.73425
3896.000	-1.21963	-0.94071	0.14234	-1.74022
3897.000	-1.21370	-0.96059	0.10676	-1.74817
3898.000	-1.20579	-0.94270	0.14432	-1.70444
3899.000	-1.13070	-1.00834	0.12850	-1.71637
3900.000	-1.26508	-1.00829	0.12850	-1.71637
3901.000	-1.24532	-0.99438	0.09885	-1.76407
3902.000	-1.21765	-1.03814	0.13444	-1.75016
3903.000	-1.28286	-1.05601	0.15223	-1.76804
3904.000	-1.34412	-1.04007	0.15421	-1.70841
3905.000	-1.29669	-1.05004	0.14037	-1.73624
3906.000	-1.25322	-1.07988	0.15025	-1.69649
3907.000	-1.29472	-1.01425	0.11664	-1.71835
3908.000	-1.33424	-1.06593	0.12850	-1.75811
3909.000	-1.28879	-1.08583	0.10478	-1.76009
3910.000	-1.22160	-0.99042	0.11862	-1.76606
3911.000	-1.27298	-0.98443	0.11862	-1.78196
3912.000	-1.26903	-1.05800	0.11071	-1.80779
3913.000	-1.29669	-1.08185	0.12257	-1.78792
3914.000	-1.25124	-1.14748	0.13048	-1.76606
3915.000	-1.28286	-1.07987	0.09885	-1.79985
3916.000	-1.26508	-1.11566	0.15816	-1.81177
3917.000	-1.22951	-1.14948	0.11071	-1.78792
3918.000	-1.29472	-1.10571	0.12455	-1.80779
3919.000	-1.34609	-1.08381	0.14432	-1.79785
3920.000	-1.26705	-1.03812	0.11467	-1.74419
3921.000	-1.29472	-1.04208	0.13641	-1.81177
3922.000	-1.24532	-1.08783	0.11467	-1.75811
3923.000	-1.29472	-1.12559	0.07513	-1.76010
3924.000	-1.25915	-1.04806	0.09490	-1.79786
3925.000	-1.27891	-1.04010	0.13048	-1.78792
3926.000	-1.38166	-1.08976	0.08303	-1.77003
3927.000	-1.29274	-1.04407	0.08501	-1.74618
3928.000	-1.35202	-1.10966	0.10083	-1.80780
3929.000	-1.28879	-1.13951	0.10280	-1.74419
3930.000	-1.26705	-1.17332	0.10874	-1.72233
3931.000	-1.28681	-1.10571	0.07513	-1.76010
3932.000	-1.31448	-1.08184	0.11862	-1.79388
3933.000	-1.31448	-1.05798	0.06524	-1.78991
3934.000	-1.29867	-1.13155	0.08106	-1.77997
3935.000	-1.30657	-1.13155	0.11467	-1.78394
3936.000	-1.37771	-1.14344	0.07513	-1.76606
3937.000	-1.27891	-1.07390	0.09687	-1.79190
3938.000	-1.26112	-1.18922	0.10874	-1.82568
3939.000	-1.34609	-1.15738	0.11664	-1.77202
3940.000	-1.26705	-1.19121	0.07710	-1.80382
3941.000	-1.29472	-1.16734	0.12455	-1.81972
3942.000	-1.34807	-1.09773	0.09292	-1.84556
3943.000	-1.34412	-1.04604	0.05140	-1.86941
3944.000	-1.32238	-1.13552	0.07908	-1.85549
3945.000	-1.37178	-1.13549	0.08897	-1.90518
3946.000	-1.30855	-1.09377	0.09490	-1.87537
3947.000	-1.30460	-1.09377	0.13444	-1.93896
3948.000	-1.22555	-1.09977	0.08106	-1.87735
3949.000	-1.18801	-1.06201	0.10874	-1.92703
3950.000	-1.25520	-1.05999	0.11862	-1.97671
3951.000	-1.26112	-1.05602	0.11664	-1.94690
3952.000	-1.29669	-1.13752	0.03163	-1.85748
3953.000	-1.33028	-1.07388	0.10676	-1.95883
3954.000	-1.25520	-1.05204	0.06920	-1.89723
3955.000	-1.29867	-1.08781	0.07315	-1.93697
3956.000	-1.27891	-1.06794	0.05338	-1.94890
3957.000	-1.30262	-1.05997	0.08897	-1.96280
3958.000	-1.26508	-1.04806	0.05140	-2.03036
3959.000	-1.32436	-1.05201	0.06920	-1.98665
3960.000	-1.30657	-1.03611	0.06129	-2.06811
3961.000	-1.31250	-1.04406	0.01582	-2.05818
3962.000	-1.25717	-1.07988	0.04943	-2.02440
3963.000	-1.34807	-0.98639	0.03163	-2.07805
3964.000	-1.29076	-1.03413	0.07710	-2.11381
3965.000	-1.34609	-1.04206	0.03756	-2.07408
3966.000	-1.35004	-1.04803	0.03559	-2.04229
3967.000	-1.31052	-1.00828	0.04943	-2.05222
3968.000	-1.27298	-1.04010	0.01977	-2.05619
3969.000	-1.41525	-1.05595	0.08303	-2.09792
3970.000	-1.25915	-1.05800	0.05733	-2.08202
3971.000	-1.26310	-1.04607	0.03559	-2.04030
3972.000	-1.31448	-1.06395	0.07315	-2.04825
3973.000	-1.40142	-0.99233	0.05931	-2.10785
3974.000	-1.35202	-1.03013	0.04547	-2.02242
3975.000	-1.35004	-1.06592	0.07315	-2.05222
3976.000	-1.41327	-1.07782	0.07710	-2.05619
3977.000	-1.33226	-1.02020	0.07710	-2.08202
3978.000	-1.43303	-1.02612	0.07315	-2.00255
3979.000	-1.35795	-0.97247	0.07513	-2.03036
3980.000	-1.41327	-1.04203	0.09292	-2.03831
3981.000	-1.36783	-1.07784	0.06524	-2.02043
3982.000	-1.43105	-1.07582	0.07908	-2.05023
3983.000	-1.40537	-1.06788	0.10083	-2.04228
3984.000	-1.41722	-1.00624	0.08897	-2.04427
3985.000	-1.43303	-1.02413	0.06722	-2.05421
3986.000	-1.41525	-1.01817	0.06524	-2.04427
3987.000	-1.43698	-1.10167	0.02768	-2.03434
3988.000	-1.43303	-1.02413	0.01582	-2.03831
3989.000	-1.44093	-1.08576	0.08897	-2.02241
3990.000	-1.33028	-1.11563	0.05536	-2.01844
3991.000	-1.38561	-1.16133	0.09885	-2.04030
3992.000	-1.43500	-1.11956	0.08501	-2.03632
3993.000	-1.41525	-1.11162	0.06722	-2.01844
3994.000	-1.37178	-1.05994	0.09885	-2.01248
3995.000	-1.38561	-1.06789	0.14037	-1.95485
3996.000	-1.30460	-1.09576	0.07117	-1.92902
3997.000	-1.49032	-1.09965	0.09885	-1.97274
3998.000	-1.34016	-1.06394	0.08501	-1.97075
3999.000	-1.29867	-1.05799	0.08699	-1.95287
4000.000	-1.31843	-1.15938	0.06524	-1.95486
4001.000	-1.36585	-1.10965	0.06722	-1.92902
4002.000	-1.30657	-1.13155	0.06722	-1.98665
4003.000	-1.39746	-1.08379	0.03756	-1.93499
4004.000	-1.38956	-1.08976	0.06524	-1.98268
4005.000	-1.32831	-1.14744	0.06722	-1.93300
4006.000	-1.41525	-1.05197	0.06920	-1.95883
4007.000	-1.40537	-1.11162	0.07908	-1.90915
4008.000	-1.37968	-1.04006	0.06326	-1.94095
4009.000	-1.38758	-1.06590	0.05931	-1.91313
4010.000	-1.30855	-1.14546	0.07117	-1.90120
4011.000	-1.41129	-1.08975	0.06129	-1.85152
4012.000	-1.37771	-1.06392	0.09885	-1.91511
4013.000	-1.34214	-1.09376	0.09687	-1.89325
4014.000	-1.32040	-1.07786	0.05536	-1.84755
4015.000	-1.36387	-1.01024	0.01582	-1.88729
4016.000	-1.38561	-0.99830	0.02966	-1.88729
4017.000	-1.29669	-0.95659	0.05931	-1.87139
4018.000	-1.39746	-1.09373	-0.00198	-1.90120
4019.000	-1.30064	-1.07787	0.01384	-1.85351
4020.000	-1.31645	-1.05798	0.02768	-1.90319
4021.000	-1.38363	-1.03012	0.05536	-1.90915
4022.000	-1.26112	-1.01426	0.05338	-1.87736
4023.000	-1.35004	-1.07387	0.05931	-1.91511
4024.000	-1.36783	-1.05199	0.06129	-1.98864
4025.000	-1.35399	-1.05200	0.04547	-1.99261
4026.000	-1.33819	-1.08382	0.02570	-1.89524
4027.000	-1.28879	-1.08782	0.02768	-1.88928
4028.000	-1.35202	-1.12159	0.05140	-1.92107
4029.000	-1.35399	-1.11363	0.01779	-1.92108
4030.000	-1.36190	-1.10965	0.02570	-1.92306
4031.000	-1.36190	-1.08182	0.00395	-1.92505
4032.000	-1.28681	-1.05203	0.00593	-1.95088
4033.000	-1.38561	-1.05199	0.01384	-1.94492
4034.000	-1.37573	-1.05796	0.00395	-1.94492
4035.000	-1.28681	-1.04408	0.02768	-1.90319
4036.000	-1.39746	-1.07783	0.00989	-1.92505
4037.000	-1.35597	-1.07586	-0.01977	-1.93300
4038.000	-1.33424	-1.05996	0.00000	-1.93499
4039.000	-1.39746	-1.13747	-0.01582	-1.94890
4040.000	-1.37178	-1.04205	0.00593	-1.92306
4041.000	-1.35004	-1.05995	0.00395	-1.94691
4042.000	-1.40339	-1.07584	-0.09490	-1.92703
4043.000	-1.35399	-1.03212	0.01384	-1.95684
4044.000	-1.34807	-1.12954	-0.02768	-1.93697
4045.000	-1.38166	-1.09573	0.00395	-1.93300
4046.000	-1.34412	-1.07387	-0.00198	-1.95287
4047.000	-1.36190	-1.11562	-0.01977	-1.90915
4048.000	-1.31843	-1.07389	-0.05733	-1.86543
4049.000	-1.31448	-1.08780	-0.02570	-1.91313
4050.000	-1.30657	-1.11564	-0.05140	-1.92107
4051.000	-1.34807	-1.03411	-0.05140	-1.92505
4052.000	-1.33424	-1.08581	-0.01977	-1.87934
4053.000	-1.37573	-1.08778	-0.05338	-1.84357
4054.000	-1.32040	-1.14148	-0.04349	-1.87338
4055.000	-1.35597	-1.02814	-0.01977	-1.96479
4056.000	-1.30657	-1.06395	-0.07513	-1.89524
4057.000	-1.40339	-1.09771	-0.04152	-1.90518
4058.000	-1.29669	-1.01822	-0.06722	-1.93697
4059.000	-1.35597	-1.03411	-0.08699	-1.85152
4060.000	-1.29669	-1.12559	-0.04349	-1.92306
4061.000	-1.39549	-1.14145	-0.06524	-1.94293
4062.000	-1.30460	-1.09974	-0.05140	-1.94890
4063.000	-1.32238	-1.14943	-0.09292	-1.89126
4064.000	-1.33028	-1.15142	-0.08699	-1.93498
4065.000	-1.23148	-1.12562	-0.06326	-1.87139
4066.000	-1.24136	-1.12362	-0.06326	-1.86941
4067.000	-1.22753	-1.09182	-0.05338	-1.87139
4068.000	-1.30262	-1.10372	-0.05338	-1.83562
4069.000	-1.42117	-1.13547	-0.07908	-1.90319
4070.000	-1.23346	-1.08983	-0.06524	-1.88332
4071.000	-1.24532	-1.10573	-0.09687	-1.86940
4072.000	-1.31448	-1.10967	-0.08501	-1.86146
4073.000	-1.36190	-1.16930	-0.08699	-1.89524
4074.000	-1.22358	-1.19123	-0.07908	-1.88530
4075.000	-1.24136	-1.13754	-0.11071	-1.86940
4076.000	-1.36783	-1.17923	-0.05931	-1.92704
4077.000	-1.25717	-1.14946	-0.06129	-1.92902
4078.000	-1.19591	-1.17931	-0.07908	-1.86543
4079.000	-1.25322	-1.20116	-0.04943	-1.92108
4080.000	-1.27100	-1.15940	-0.08303	-1.90319
4081.000	-1.31052	-1.21902	-0.04547	-1.91313
4082.000	-1.25124	-1.14549	-0.07710	-1.93498
4083.000	-1.26705	-1.19320	-0.03559	-1.92108
4084.000	-1.34214	-1.29455	-0.07117	-1.95088
4085.000	-1.35795	-1.23291	-0.09687	-1.92703
4086.000	-1.33028	-1.16335	-0.06920	-1.93697
4087.000	-1.28088	-1.25482	-0.04745	-1.98864
4088.000	-1.28484	-1.24687	-0.05931	-1.93101
4089.000	-1.33028	-1.25281	-0.09490	-1.91114
4090.000	-1.35399	-1.28063	-0.07908	-1.87139
4091.000	-1.32436	-1.22498	-0.08699	-1.92306
4092.000	-1.34016	-1.26871	-0.11664	-1.92306
4093.000	-1.31645	-1.32040	-0.07315	-1.92107
4094.000	-1.34214	-1.23292	-0.07710	-1.90518
4095.000	-1.31448	-1.22896	-0.07908	-1.88729
4096.000	-1.31645	-1.24685	-0.09094	-1.92306
4097.000	-1.27693	-1.26874	-0.04745	-1.94095
4098.000	-1.30460	-1.28662	-0.04745	-1.95287
4099.000	-1.29669	-1.25282	-0.09490	-1.89126
4100.000	-1.23544	-1.24093	-0.07710	-1.91313
4101.000	-1.30064	-1.32041	-0.08699	-1.89127
4102.000	-1.28484	-1.30849	-0.09687	-1.94889
4103.000	-1.28681	-1.25283	-0.11467	-1.94889
4104.000	-1.25717	-1.21905	-0.09094	-1.95486
4105.000	-1.28879	-1.26476	-0.09094	-1.89325
4106.000	-1.33226	-1.28859	-0.11862	-1.97274
4107.000	-1.24334	-1.21309	-0.14630	-1.89126
4108.000	-1.27100	-1.19320	-0.07315	-1.90518
4109.000	-1.17418	-1.23698	-0.08303	-1.93101
4110.000	-1.21370	-1.27274	-0.13444	-1.92703
4111.000	-1.30855	-1.22499	-0.11862	-1.92107
4112.000	-1.24532	-1.34628	-0.13444	-1.88729
4113.000	-1.24136	-1.25683	-0.14630	-1.88729
4114.000	-1.23148	-1.23099	-0.15618	-1.89921
4115.000	-1.21370	-1.24094	-0.15025	-1.89921
4116.000	-1.31843	-1.39395	-0.15025	-1.86344
4117.000	-1.23939	-1.30056	-0.15618	-1.83959
4118.000	-1.22358	-1.27075	-0.15618	-1.89921
4119.000	-1.28088	-1.29657	-0.12653	-1.91710
4120.000	-1.25322	-1.32839	-0.12455	-1.86344
4121.000	-1.27496	-1.29657	-0.11664	-1.88530
4122.000	-1.35202	-1.31641	-0.11071	-1.85350
4123.000	-1.27891	-1.26675	-0.13839	-1.93299
4124.000	-1.25322	-1.34429	-0.15421	-1.89126
4125.000	-1.24334	-1.36815	-0.15618	-1.88331
4126.000	-1.23741	-1.26279	-0.13048	-1.90319
4127.000	-1.28286	-1.32837	-0.13444	-1.90716
4128.000	-1.26310	-1.26079	-0.11467	-1.92902
4129.000	-1.25124	-1.22700	-0.11664	-1.95485
4130.000	-1.28681	-1.24090	-0.11664	-1.97870
4131.000	-1.23939	-1.29460	-0.13048	-1.98267
4132.000	-1.31843	-1.25480	-0.11269	-1.90120
4133.000	-1.34412	-1.30647	-0.12455	-1.89921
4134.000	-1.31250	-1.23691	-0.12653	-1.90319
4135.000	-1.31843	-1.28661	-0.09094	-1.99062
4136.000	-1.32633	-1.25679	-0.08106	-1.93300
4137.000	-1.20579	-1.22702	-0.13444	-1.91908
4138.000	-1.23544	-1.25285	-0.10083	-1.93101
4139.000	-1.24334	-1.25484	-0.10676	-1.90915
4140.000	-1.24927	-1.31845	-0.15816	-1.94293
4141.000	-1.24729	-1.25682	-0.15618	-1.97870
4142.000	-1.24927	-1.21507	-0.08897	-1.95883
4143.000	-1.31250	-1.25679	-0.12060	-1.97472
4144.000	-1.26112	-1.35820	-0.11269	-1.95684
4145.000	-1.22951	-1.28268	-0.08501	-1.92306
4146.000	-1.17813	-1.23101	-0.09687	-1.97274
4147.000	-1.31250	-1.33233	-0.12257	-1.98466
4148.000	-1.24729	-1.24490	-0.09687	-1.99460
4149.000	-1.27693	-1.29259	-0.13246	-1.95883
4150.000	-1.32238	-1.31642	-0.11467	-2.01446
4151.000	-1.30262	-1.32836	-0.12257	-1.94690
4152.000	-1.21567	-1.26082	-0.09687	-1.98466
4153.000	-1.23346	-1.28466	-0.14630	-1.98664
4154.000	-1.20579	-1.29462	-0.10676	-2.01447
4155.000	-1.16232	-1.29265	-0.15421	-1.96081
4156.000	-1.24532	-1.35225	-0.15223	-1.96677
4157.000	-1.24334	-1.27472	-0.13246	-1.97472
4158.000	-1.14453	-1.29862	-0.13444	-1.97274
4159.000	-1.18998	-1.23101	-0.12455	-1.96876
4160.000	-1.27298	-1.27669	-0.15025	-1.99459
4161.000	-1.16232	-1.24494	-0.11664	-1.99459
4162.000	-1.21370	-1.32244	-0.15025	-1.99857
4163.000	-1.18010	-1.25884	-0.10083	-1.96678
4164.000	-1.18208	-1.27872	-0.14630	-1.97671
4165.000	-1.15046	-1.25488	-0.12850	-2.01844
4166.000	-1.16825	-1.27475	-0.13641	-2.03235
4167.000	-1.17220	-1.35626	-0.14234	-1.94293
4168.000	-1.21963	-1.33834	-0.11664	-2.02837
4169.000	-1.16825	-1.37018	-0.12257	-2.01248
4170.000	-1.16429	-1.25686	-0.16211	-1.96479
4171.000	-1.18998	-1.22703	-0.15421	-1.99459
4172.000	-1.20777	-1.23895	-0.15816	-1.95882
4173.000	-1.19789	-1.17136	-0.19572	-1.91510
4174.000	-1.23346	-1.21906	-0.17595	-1.96280
4175.000	-1.19196	-1.23697	-0.18979	-1.99061
4176.000	-1.19789	-1.20715	-0.17595	-1.94690
4177.000	-1.12082	-1.20121	-0.14630	-1.95883
4178.000	-1.19987	-1.16937	-0.10280	-2.00056
4179.000	-1.22753	-1.19123	-0.12455	-1.98068
4180.000	-1.22753	-1.21111	-0.18386	-1.93696
4181.000	-1.18801	-1.24492	-0.18584	-1.95485
4182.000	-1.13268	-1.24296	-0.18188	-1.95087
4183.000	-1.22753	-1.26479	-0.14037	-1.94293
4184.000	-1.10698	-1.18730	-0.15618	-2.05420
4185.000	-1.19196	-1.30854	-0.18979	-2.01048
4186.000	-1.14453	-1.25290	-0.17200	-1.99856
4187.000	-1.16627	-1.25289	-0.13048	-1.98466
4188.000	-1.17418	-1.29264	-0.18781	-1.97670
4189.000	-1.22160	-1.24292	-0.21352	-1.97273
4190.000	-1.20382	-1.25684	-0.22142	-1.97074
4191.000	-1.17615	-1.23101	-0.19770	-2.02439
4192.000	-1.10698	-1.27080	-0.22933	-1.96676
4193.000	-1.11489	-1.27677	-0.17793	-2.01645
4194.000	-1.13860	-1.25489	-0.21945	-2.01048
4195.000	-1.22358	-1.24888	-0.15816	-2.03830
4196.000	-1.18406	-1.23697	-0.21154	-2.00055
4197.000	-1.21172	-1.33437	-0.19572	-2.03433
4198.000	-1.05560	-1.30860	-0.23724	-2.00650
4199.000	-1.08327	-1.22906	-0.18386	-2.06810
4200.000	-1.11884	-1.22308	-0.21549	-2.01644
4201.000	-1.15837	-1.22108	-0.21352	-2.02638
4202.000	-1.11291	-1.20519	-0.16804	-2.03036
4203.000	-1.13663	-1.25091	-0.20363	-2.03631
4204.000	-1.10698	-1.24695	-0.19177	-2.07804
4205.000	-1.09117	-1.26485	-0.21352	-2.00849
4206.000	-1.11687	-1.12566	-0.18188	-2.04029
4207.000	-1.23544	-1.23099	-0.14432	-2.06811
4208.000	-1.01212	-1.29470	-0.17398	-2.03433
4209.000	-1.06153	-1.15948	-0.20956	-2.06214
4210.000	-1.12872	-1.26483	-0.20956	-2.03830
4211.000	-1.11291	-1.31255	-0.18386	-2.05221
4212.000	-1.11687	-1.25887	-0.18188	-2.09791
4213.000	-1.11489	-1.26682	-0.21747	-2.03035
4214.000	-1.07932	-1.21515	-0.19177	-2.03035
4215.000	-1.09315	-1.22906	-0.18386	-2.05022
4216.000	-1.05560	-1.24697	-0.18188	-2.06214
4217.000	-1.07141	-1.31058	-0.17002	-2.08400
4218.000	-1.07141	-1.21316	-0.18386	-2.08797
4219.000	-1.01607	-1.34838	-0.19770	-2.04625
4220.000	-1.14453	-1.26085	-0.16607	-2.11579
4221.000	-1.06153	-1.29468	-0.14234	-2.19724
4222.000	-1.06153	-1.25889	-0.18386	-2.20320
4223.000	-1.05362	-1.23902	-0.15421	-2.15950
4224.000	-1.07932	-1.33841	-0.15618	-2.12771
4225.000	-1.06746	-1.21118	-0.16804	-2.18135
4226.000	-1.10698	-1.29665	-0.17398	-2.16148
4227.000	-1.07536	-1.26287	-0.17595	-2.14758
4228.000	-1.17220	-1.25487	-0.14037	-2.19128
4229.000	-1.12082	-1.31056	-0.13641	-2.22704
4230.000	-1.12279	-1.27477	-0.15816	-2.19724
4231.000	-1.09513	-1.26683	-0.10280	-2.21910
4232.000	-1.06351	-1.28673	-0.15618	-2.19526
4233.000	-1.16232	-1.30855	-0.06326	-2.27472
4234.000	-1.08722	-1.28075	-0.13839	-2.25088
4235.000	-1.12872	-1.34435	-0.16211	-2.27670
4236.000	-1.12872	-1.32447	-0.11071	-2.24691
4237.000	-1.05165	-1.29468	-0.13839	-2.23101
4238.000	-1.12477	-1.39604	-0.15223	-2.24690
4239.000	-1.15837	-1.29265	-0.14630	-2.22505
4240.000	-1.15639	-1.24891	-0.13641	-2.25286
4241.000	-1.14058	-1.33838	-0.11664	-2.26478
4242.000	-1.17813	-1.27475	-0.12850	-2.27670
4243.000	-1.14256	-1.30459	-0.12060	-2.24691
4244.000	-1.11094	-1.30460	-0.18584	-2.27074
4245.000	-1.11687	-1.27676	-0.14827	-2.23499
4246.000	-1.05955	-1.33643	-0.17002	-2.27868
4247.000	-1.23148	-1.32244	-0.13246	-2.27670
4248.000	-1.11094	-1.25291	-0.15025	-2.29656
4249.000	-1.15441	-1.35428	-0.17398	-2.25286
4250.000	-1.20975	-1.30058	-0.15421	-2.26677
4251.000	-1.09908	-1.31455	-0.16211	-2.27670
4252.000	-1.13465	-1.38808	-0.17002	-2.28663
4253.000	-1.05758	-1.34240	-0.12455	-2.30451
4254.000	-1.18406	-1.30854	-0.07315	-2.27670
4255.000	-1.03584	-1.31457	-0.12257	-2.35813
4256.000	-1.13268	-1.27278	-0.10280	-2.31047
4257.000	-1.12477	-1.35628	-0.12455	-2.32834
4258.000	-1.09710	-1.28075	-0.13641	-2.31642
4259.000	-1.12082	-1.32845	-0.10874	-2.25287
4260.000	-1.14651	-1.28272	-0.14234	-2.29060
4261.000	-1.14058	-1.32645	-0.11269	-2.32238
4262.000	-1.14256	-1.25687	-0.08501	-2.30848
4263.000	-1.21765	-1.33636	-0.08699	-2.30451
4264.000	-1.08524	-1.28473	-0.10280	-2.32437
4265.000	-1.11291	-1.32050	-0.13839	-2.31444
4266.000	-1.05955	-1.32251	-0.09885	-2.31444
4267.000	-1.12279	-1.32646	-0.14432	-2.29259
4268.000	-1.06746	-1.26287	-0.09292	-2.30650
4269.000	-1.14256	-1.28073	-0.05338	-2.32239
4270.000	-1.20975	-1.37413	-0.08897	-2.34622
4271.000	-1.09315	-1.33045	-0.05733	-2.29061
4272.000	-1.03584	-1.34042	-0.00593	-2.24294
4273.000	-1.09117	-1.31057	0.02768	-2.28266
4274.000	-0.97852	-1.20922	0.06722	-2.28068
4275.000	-0.88760	-1.29475	0.17595	-2.29060
4276.000	-0.85598	-1.31265	0.24712	-2.27867
4277.000	-0.68203	-1.35446	0.35190	-2.23694
4278.000	-0.50610	-1.39029	0.47447	-2.20711
4279.000	-0.33213	-1.42213	0.63459	-2.11368
4280.000	-0.12257	-1.31081	0.80261	-2.07785
4281.000	0.13444	-1.36449	0.94887	-2.03605
4282.000	0.37958	-1.37838	1.22358	-1.96435
4283.000	0.61285	-1.29881	1.35992	-1.86689
4284.000	0.82831	-1.25500	1.52589	-1.91841
4285.000	0.93702	-1.25497	1.67404	-1.87258
4286.000	1.05165	-1.13364	1.83403	-1.92406
4287.000	1.19196	-1.15148	1.90315	-1.91207
4288.000	1.21567	-1.09381	1.95252	-1.82661
4289.000	1.35795	-1.02019	1.97227	-1.89611
4290.000	1.22555	-1.06796	1.93672	-1.92594
4291.000	1.17220	-1.06997	1.85378	-1.92206
4292.000	1.10106	-1.07596	1.76886	-1.94995
4293.000	0.88167	-1.02433	1.63651	-1.96002
4294.000	0.79866	-1.11384	1.52984	-1.99786
4295.000	0.71761	-1.12380	1.41722	-2.09132
4296.000	0.52587	-1.20935	1.32040	-2.16688
4297.000	0.40330	-1.16960	1.23346	-2.15106
4298.000	0.27678	-1.27699	1.14256	-2.20873
4299.000	0.23922	-1.34659	1.08722	-2.20281
4300.000	0.10083	-1.31876	1.03781	-2.25051
4301.000	-0.04547	-1.35853	0.99236	-2.23267
4302.000	0.03756	-1.47782	0.97062	-2.24460
4303.000	-0.07908	-1.41221	0.94492	-2.16120
4304.000	-0.14630	-1.42016	0.92911	-2.14730
4305.000	-0.06326	-1.50367	0.94887	-2.18900
4306.000	-0.10083	-1.42016	0.92516	-2.13340
4307.000	-0.12257	-1.46589	0.92516	-2.06785
4308.000	-0.07710	-1.42414	0.96469	-2.06981
4309.000	0.03954	-1.35058	0.98840	-2.05589
4310.000	0.16014	-1.29092	1.03188	-2.04792
4311.000	0.14432	-1.31279	1.00026	-1.99430
4312.000	0.16607	-1.27104	1.04967	-1.95652
4313.000	0.14827	-1.24916	1.03584	-1.95653
4314.000	0.24119	-1.18950	1.09908	-1.96642
4315.000	0.21945	-1.25115	1.07536	-1.94657
4316.000	0.25503	-1.19149	1.09710	-1.99622
4317.000	0.23922	-1.27103	1.09315	-2.03794
4318.000	0.29062	-1.27699	1.15046	-2.01804
4319.000	0.39144	-1.18551	1.13663	-1.97235
4320.000	0.31829	-1.23921	1.13663	-1.97831
4321.000	0.33806	-1.26505	1.13070	-1.98030
4322.000	0.24712	-1.22728	1.17418	-1.98822
4323.000	0.31039	-1.26108	1.17813	-2.01007
4324.000	0.36376	-1.23522	1.15837	-2.00412
4325.000	0.26887	-1.29688	1.18603	-1.97431
4326.000	0.24515	-1.27302	1.17418	-1.99418
4327.000	0.31434	-1.27898	1.13860	-1.99619
4328.000	0.23131	-1.25711	1.14848	-1.96440
4329.000	0.23724	-1.23922	1.15639	-1.94453
4330.000	0.28073	-1.29489	1.15837	-1.98426
4331.000	0.27678	-1.29886	1.14058	-1.91871
4332.000	0.25305	-1.20143	1.12082	-1.92468
4333.000	0.21747	-1.29092	1.14058	-1.94851
4334.000	0.27678	-1.19546	1.13268	-1.88891
4335.000	0.24910	-1.25910	1.13268	-1.91077
4336.000	0.25899	-1.25114	1.17220	-1.91670
4337.000	0.26096	-1.24717	1.14453	-1.91871
4338.000	0.35190	-1.22131	1.17022	-1.88293
4339.000	0.30248	-1.18552	1.09908	-1.95847
4340.000	0.24712	-1.19746	1.12477	-1.91475
4341.000	0.15421	-1.19349	1.16429	-1.93061
4342.000	0.27282	-1.16961	1.16429	-1.90677
4343.000	0.32620	-1.18949	1.12477	-1.90084
4344.000	0.31632	-1.18751	1.12477	-1.89686
4345.000	0.31829	-1.19944	1.14453	-1.89685
4346.000	0.36376	-1.15369	1.18208	-1.92067
4347.000	0.32422	-1.18949	1.16627	-1.85312
4348.000	0.28469	-1.19745	1.18010	-1.90676
4349.000	0.29259	-1.23523	1.19394	-1.80542
4350.000	0.32225	-1.16364	1.21963	-1.90276
4351.000	0.37760	-1.21335	1.22951	-1.85706
4352.000	0.40133	-1.17159	1.16825	-1.84518
4353.000	0.34399	-1.18551	1.23148	-1.86500
4354.000	0.39144	-1.17358	1.24334	-1.79942
4355.000	0.29852	-1.16166	1.23544	-1.90871
4356.000	0.29457	-1.18552	1.25322	-1.81730
4357.000	0.25305	-1.14575	1.19789	-1.79945
4358.000	0.32027	-1.12984	1.20777	-1.81733
4359.000	0.31434	-1.18552	1.24532	-1.82128
4360.000	0.23329	-1.16365	1.20579	-1.76766
4361.000	0.28469	-1.16563	1.22753	-1.81136
4362.000	0.38156	-1.16761	1.25915	-1.83121
4363.000	0.28666	-1.18751	1.21172	-1.80739
4364.000	0.32620	-1.09603	1.23346	-1.80341
4365.000	0.33411	-1.17756	1.21172	-1.81534
4366.000	0.36969	-1.18949	1.23148	-1.79546
4367.000	0.31434	-1.16961	1.18801	-1.77164
4368.000	0.36179	-1.09801	1.24136	-1.81930
4369.000	0.33213	-1.11790	1.17220	-1.76569
4370.000	0.34597	-1.17159	1.23939	-1.77757
4371.000	0.29655	-1.17558	1.18406	-1.79549
4372.000	0.34004	-1.16762	1.19196	-1.76568
4373.000	0.25899	-1.06422	1.23741	-1.76764
4374.000	0.43296	-1.19942	1.23148	-1.76963
4375.000	0.38156	-1.12386	1.25520	-1.80140
4376.000	0.31829	-1.12387	1.27693	-1.80139
4377.000	0.30050	-1.15171	1.27891	-1.79741
4378.000	0.33016	-1.13978	1.23939	-1.81731
4379.000	0.34202	-1.03637	1.24136	-1.78949
4380.000	0.36574	-1.10000	1.25717	-1.82326
4381.000	0.42702	-1.14175	1.28286	-1.79940
4382.000	0.34795	-1.13580	1.29669	-1.80932
4383.000	0.28864	-1.16365	1.26508	-1.76166
4384.000	0.34795	-1.13779	1.27496	-1.80536
4385.000	0.37563	-1.16364	1.24334	-1.83519
4386.000	0.40923	-1.09801	1.27496	-1.76364
4387.000	0.35586	-1.17159	1.24927	-1.77558
4388.000	0.34597	-1.10199	1.22358	-1.79944
4389.000	0.33806	-1.15966	1.23346	-1.81135
4390.000	0.35190	-1.13381	1.23346	-1.82725
4391.000	0.37760	-1.11193	1.19591	-1.78356
4392.000	0.28666	-1.15967	1.25520	-1.77955
4393.000	0.35981	-1.11193	1.24729	-1.85307
4394.000	0.33806	-1.02841	1.26112	-1.81332
4395.000	0.31632	-1.05427	1.26310	-1.80935
4396.000	0.31236	-1.14972	1.26112	-1.82922
4397.000	0.33213	-1.17160	1.30657	-1.88482
4398.000	0.38551	-1.18352	1.22160	-1.84514
4399.000	0.38946	-1.16363	1.29274	-1.85105
4400.000	0.36376	-1.19744	1.26903	-1.88683
4401.000	0.34004	-1.17557	1.27496	-1.83914
4402.000	0.41121	-1.15965	1.27891	-1.78549
4403.000	0.32620	-1.25710	1.23346	-1.81731
4404.000	0.34399	-1.16165	1.25915	-1.83121
4405.000	0.37760	-1.15966	1.24729	-1.83916
4406.000	0.33806	-1.15171	1.21370	-1.83124
4407.000	0.36772	-1.16563	1.27891	-1.87093
4408.000	0.33806	-1.12785	1.16825	-1.78556
4409.000	0.32620	-1.20739	1.24927	-1.82923
4410.000	0.34399	-1.13381	1.23741	-1.86301
4411.000	0.42900	-1.14374	1.19196	-1.78356
4412.000	0.37760	-1.21534	1.21172	-1.84713
4413.000	0.34399	-1.12983	1.23346	-1.81930
4414.000	0.37958	-1.19147	1.21370	-1.81137
4415.000	0.32422	-1.21534	1.20975	-1.81534
4416.000	0.40726	-1.23124	1.25520	-1.83121
4417.000	0.42900	-1.12584	1.24334	-1.87493
4418.000	0.48238	-1.17555	1.24136	-1.89281
4419.000	0.45272	-1.23720	1.24136	-1.87692
4420.000	0.45470	-1.23919	1.20382	-1.84515
4421.000	0.33411	-1.11989	1.26705	-1.86299
4422.000	0.33016	-1.24318	1.20777	-1.88489
4423.000	0.35981	-1.22528	1.18010	-1.85312
4424.000	0.37760	-1.18352	1.19591	-1.82330
4425.000	0.36969	-1.18551	1.21765	-1.84912
4426.000	0.35388	-1.13182	1.18801	-1.82728
4427.000	0.30050	-1.11791	1.14058	-1.81936
4428.000	0.35388	-1.12983	1.17022	-1.83325
4429.000	0.31632	-1.17160	1.20382	-1.84714
4430.000	0.32027	-1.19148	1.18406	-1.84516
4431.000	0.28469	-1.23126	1.17220	-1.83524
4432.000	0.31829	-1.22131	1.18801	-1.81734
4433.000	0.31829	-1.19546	1.23346	-1.81930
4434.000	0.35388	-1.28891	1.24136	-1.80141
4435.000	0.30841	-1.15967	1.20579	-1.87495
4436.000	0.31236	-1.23324	1.22951	-1.88885
4437.000	0.35190	-1.19744	1.21963	-1.84117
4438.000	0.35388	-1.15767	1.25915	-1.85902
4439.000	0.23329	-1.15570	1.18998	-1.84913
4440.000	0.30446	-1.25710	1.22358	-1.81533
4441.000	0.36772	-1.25113	1.17813	-1.83325
4442.000	0.41912	-1.19545	1.17813	-1.84119
4443.000	0.35388	-1.15370	1.21172	-1.90674
4444.000	0.40528	-1.20738	1.20975	-1.83323
4445.000	0.43098	-1.16562	1.18406	-1.88888
4446.000	0.30446	-1.15370	1.21370	-1.82726
4447.000	0.30446	-1.21733	1.15244	-1.86108
4448.000	0.35586	-1.22329	1.21765	-1.87693
4449.000	0.29852	-1.22529	1.20382	-1.84913
4450.000	0.37760	-1.17756	1.17813	-1.84716
4451.000	0.34399	-1.19744	1.19987	-1.87694
4452.000	0.35783	-1.11989	1.23741	-1.84910
4453.000	0.37563	-1.14972	1.15639	-1.85710
4454.000	0.35981	-1.21733	1.18801	-1.85112
4455.000	0.32422	-1.16563	1.14848	-1.85512
4456.000	0.40330	-1.11392	1.14651	-1.85115
4457.000	0.26294	-1.20541	1.20579	-1.84316
4458.000	0.33411	-1.18750	1.19987	-1.85906
4459.000	0.36376	-1.10994	1.13268	-1.82930
4460.000	0.42109	-1.11391	1.19987	-1.85112
4461.000	0.36969	-1.18352	1.17022	-1.81736
4462.000	0.36376	-1.12784	1.20184	-1.85111
4463.000	0.36376	-1.24517	1.15441	-1.82531
4464.000	0.43296	-1.10198	1.19591	-1.87496
4465.000	0.36969	-1.22130	1.19987	-1.86304
4466.000	0.40330	-1.17954	1.18998	-1.81536
4467.000	0.39342	-1.20340	1.20184	-1.82131
4468.000	0.41121	-1.20141	1.19789	-1.83125
4469.000	0.46854	-1.16760	1.16232	-1.84319
4470.000	0.46063	-1.17357	1.20975	-1.86502
4471.000	0.36574	-1.16364	1.18801	-1.83523
4472.000	0.38156	-1.15568	1.16825	-1.87498
4473.000	0.39144	-1.19943	1.17022	-1.83524
4474.000	0.42702	-1.19942	1.17418	-1.81735
4475.000	0.39342	-1.13380	1.14256	-1.82930
4476.000	0.43691	-1.20141	1.15046	-1.86506
4477.000	0.22933	-1.18751	1.16034	-1.83723
4478.000	0.39144	-1.16164	1.18208	-1.86901
4479.000	0.38946	-1.22727	1.17418	-1.89087
4480.000	0.39539	-1.20340	1.17220	-1.84319
4481.000	0.35981	-1.19148	1.17615	-1.84716
4482.000	0.43691	-1.16164	1.18208	-1.80741
4483.000	0.36574	-1.21733	1.17418	-1.83524
4484.000	0.41121	-1.17954	1.17418	-1.79947
4485.000	0.38156	-1.21136	1.19789	-1.88489
4486.000	0.39935	-1.17159	1.17813	-1.81139
4487.000	0.42307	-1.17158	1.18208	-1.79947
4488.000	0.38551	-1.13579	1.17813	-1.79351
4489.000	0.42505	-1.14573	1.16034	-1.77961
4490.000	0.43691	-1.16760	1.15244	-1.79551
4491.000	0.40726	-1.21931	1.13465	-1.84321
4492.000	0.41912	-1.20937	1.16232	-1.80941
4493.000	0.40726	-1.16960	1.14651	-1.82333
4494.000	0.36179	-1.21136	1.18208	-1.81139
4495.000	0.43098	-1.23323	1.21765	-1.84912
4496.000	0.36179	-1.18750	1.15639	-1.81538
4497.000	0.31236	-1.13183	1.17418	-1.82530
4498.000	0.43691	-1.20141	1.16034	-1.80743
4499.000	0.35190	-1.18949	1.14651	-1.82333
4500.000	0.34399	-1.20341	1.17022	-1.81140
4501.000	0.14037	-1.11792	1.18603	-1.81337
4502.000	0.33609	-1.17557	1.17615	-1.81537
4503.000	0.31236	-1.15569	1.18801	-1.89682
4504.000	0.32620	-1.23125	1.18998	-1.77760
4505.000	0.33806	-1.16364	1.16627	-1.84319
4506.000	0.27282	-1.13780	1.19591	-1.82926
4507.000	0.43098	-1.16363	1.24532	-1.81532
4508.000	0.33609	-1.18750	1.16627	-1.82928
4509.000	0.42505	-1.16959	1.19591	-1.80144
4510.000	0.35981	-1.11989	1.18603	-1.83722
4511.000	0.36969	-1.13580	1.17813	-1.83325
4512.000	0.33016	-1.14773	1.21567	-1.91468
4513.000	0.31829	-1.19546	1.18603	-1.85907
4514.000	0.37563	-1.22926	1.19789	-1.82131
4515.000	0.30643	-1.11989	1.15046	-1.85313
4516.000	0.28469	-1.26307	1.15046	-1.89883
4517.000	0.34399	-1.20142	1.21172	-1.86502
4518.000	0.34795	-1.13978	1.16627	-1.83723
4519.000	0.41319	-1.14772	1.12477	-1.84719
4520.000	0.35388	-1.17557	1.16825	-1.83524
4521.000	0.34202	-1.12586	1.18208	-1.80940
4522.000	0.40528	-1.19147	1.18406	-1.86702
4523.000	0.41912	-1.08607	1.13860	-1.79552
4524.000	0.37167	-1.10597	1.18998	-1.85112
4525.000	0.37563	-1.15767	1.18406	-1.83126
4526.000	0.35388	-1.13779	1.19394	-1.86503
4527.000	0.35388	-1.11392	1.18010	-1.86106
4528.000	0.40726	-1.17159	1.13465	-1.85315
4529.000	0.38946	-1.12187	1.17615	-1.91074
4530.000	0.43889	-1.18351	1.15639	-1.86505
4531.000	0.37563	-1.15568	1.16429	-1.86703
4532.000	0.43098	-1.17158	1.19394	-1.83324
4533.000	0.44482	-1.12982	1.23148	-1.81334
4534.000	0.43691	-1.12584	1.18406	-1.81337
4535.000	0.40923	-1.08607	1.22160	-1.82924
4536.000	0.42505	-1.19147	1.19394	-1.81337
4537.000	0.43493	-1.13181	1.21172	-1.85707
4538.000	0.38946	-1.13182	1.22753	-1.85904
4539.000	0.40133	-1.11789	1.21567	-1.81733
4540.000	0.44679	-1.12783	1.18010	-1.88689
4541.000	0.35388	-1.17955	1.25322	-1.83121
4542.000	0.41319	-1.14971	1.21765	-1.84514
4543.000	0.44086	-1.09999	1.19196	-1.79350
4544.000	0.41319	-1.16960	1.21567	-1.84514
4545.000	0.44679	-1.09800	1.18801	-1.81337
4546.000	0.29062	-1.09802	1.19591	-1.85907
4547.000	0.43098	-1.12584	1.20579	-1.84515
4548.000	0.47842	-1.06618	1.14058	-1.83923
4549.000	0.40923	-1.05227	1.17615	-1.79351
4550.000	0.36772	-1.15369	1.16232	-1.77762
4551.000	0.42109	-1.22328	1.17813	-1.84318
4552.000	0.44086	-1.07016	1.19789	-1.80740
4553.000	0.38946	-1.03039	1.20579	-1.82131
4554.000	0.36574	-1.08409	1.18603	-1.84119
4555.000	0.36574	-1.18551	1.19591	-1.86304
4556.000	0.40133	-1.12187	1.19789	-1.81535
4557.000	0.38353	-1.10199	1.22951	-1.83321
4558.000	0.33016	-1.07813	1.21370	-1.87694
4559.000	0.38353	-1.13381	1.17418	-1.81338
4560.000	0.39935	-1.12784	1.18603	-1.82927
4561.000	0.46656	-1.11590	1.16232	-1.82730
4562.000	0.42505	-1.12187	1.16429	-1.80941
4563.000	0.38353	-1.05028	1.15441	-1.80346
4564.000	0.41319	-1.15170	1.17022	-1.79152
4565.000	0.51203	-1.12782	1.20382	-1.85906
4566.000	0.43296	-1.13181	1.16627	-1.78755
4567.000	0.38551	-1.14773	1.16825	-1.79947
4568.000	0.45865	-1.13578	1.18801	-1.84516
4569.000	0.37167	-1.16165	1.16232	-1.85909
4570.000	0.42505	-1.04630	1.19394	-1.85509
4571.000	0.35981	-1.10796	1.14651	-1.85711
4572.000	0.38749	-1.08210	1.17615	-1.83921
4573.000	0.38156	-1.09403	1.20777	-1.84515
4574.000	0.33213	-1.13779	1.17022	-1.81736
4575.000	0.44482	-1.11590	1.17022	-1.80345
4576.000	0.40133	-1.12983	1.18801	-1.81138
4577.000	0.37958	-1.15767	1.18208	-1.78754
4578.000	0.42702	-1.14573	1.19394	-1.76369
4579.000	0.34399	-1.07017	1.20975	-1.79349
4580.000	0.36969	-1.11591	1.17418	-1.73787
4581.000	0.42505	-1.08607	1.16034	-1.74980
4582.000	0.43098	-1.05624	1.18603	-1.76966
4583.000	0.45272	-1.03237	1.18801	-1.76966
4584.000	0.41319	-1.04431	1.13268	-1.72200
4585.000	0.47249	-1.08408	1.14058	-1.75577
4586.000	0.42109	-1.09403	1.18801	-1.75376
4587.000	0.41121	-1.06818	1.16429	-1.73589
4588.000	0.40330	-1.08409	1.15639	-1.75775
4589.000	0.36574	-1.11591	1.18010	-1.70806
4590.000	0.36772	-1.04829	1.19196	-1.78158
4591.000	0.38946	-1.16562	1.18010	-1.76569
4592.000	0.35388	-1.06619	1.21963	-1.78553
4593.000	0.42109	-1.08011	1.18406	-1.76568
4594.000	0.42900	-1.03039	1.19591	-1.77362
4595.000	0.41912	-1.11193	1.16034	-1.73390
4596.000	0.39144	-1.05824	1.13663	-1.80546
4597.000	0.39342	-1.01051	1.15837	-1.76967
4598.000	0.41516	-1.07414	1.13663	-1.73193
4599.000	0.36376	-1.04432	1.13268	-1.71405
4600.000	0.45668	-1.04431	1.17220	-1.75377
4601.000	0.39539	-1.02045	1.17022	-1.77165
4602.000	0.40726	-1.07215	1.15837	-1.74384
4603.000	0.39935	-1.01647	1.16627	-1.68024
4604.000	0.36574	-0.99858	1.15639	-1.69019
4605.000	0.41121	-1.09403	1.17813	-1.70806
4606.000	0.37563	-1.10994	1.13860	-1.72597
4607.000	0.40726	-1.02442	1.17220	-1.70608
4608.000	0.32027	-1.03438	1.14453	-1.71802
4609.000	0.35190	-0.98466	1.18010	-1.74780
4610.000	0.36772	-1.03437	1.15441	-1.69416
4611.000	0.35586	-1.08210	1.15046	-1.70013
4612.000	0.31434	-1.11393	1.17813	-1.73985
4613.000	0.40133	-1.04630	1.18208	-1.69216
4614.000	0.37365	-1.07812	1.15837	-1.70211
4615.000	0.41121	-1.13579	1.13268	-1.71405
4616.000	0.33213	-1.10796	1.13860	-1.66834
4617.000	0.39935	-1.10795	1.18603	-1.69812
4618.000	0.48435	-1.07015	1.15639	-1.68422
4619.000	0.38946	-1.12784	1.18010	-1.71998
4620.000	0.39539	-1.03437	1.15244	-1.68820
4621.000	0.40726	-1.08607	1.16627	-1.68223
4622.000	0.43889	-1.03635	1.15639	-1.70012
4623.000	0.43691	-1.07812	1.11489	-1.68624
4624.000	0.48633	-1.01845	1.15046	-1.65839
4625.000	0.46854	-1.04828	1.16429	-1.67826
4626.000	0.38353	-1.02244	1.14256	-1.68026
4627.000	0.37563	-1.07812	1.12872	-1.65642
4628.000	0.42505	-0.98862	1.16034	-1.66634
4629.000	0.41714	-1.05624	1.17022	-1.66434
4630.000	0.42900	-1.10795	1.15639	-1.71403
4631.000	0.41714	-1.01647	1.13268	-1.70411
4632.000	0.41121	-1.04232	1.18406	-1.67427
4633.000	0.46656	-0.99260	1.19591	-1.63650
4634.000	0.42900	-1.03834	1.16429	-1.67031
4635.000	0.42702	-0.99260	1.13465	-1.67629
4636.000	0.30841	-1.00455	1.14848	-1.71205
4637.000	0.46063	-1.02044	1.15441	-1.71403
4638.000	0.43098	-1.04431	1.19196	-1.73587
4639.000	0.43098	-1.02641	1.15639	-1.68224
4640.000	0.42109	-1.06619	1.14058	-1.66834
4641.000	0.45668	-1.08806	1.17615	-1.67825
4642.000	0.38551	-0.98863	1.14848	-1.69218
4643.000	0.41516	-1.09602	1.17813	-1.70011
4644.000	0.40133	-1.10199	1.17813	-1.66036
4645.000	0.41516	-1.00653	1.18208	-1.60074
4646.000	0.41714	-1.00851	1.17022	-1.67229
4647.000	0.42702	-1.03437	1.14058	-1.66237
4648.000	0.46459	-1.02044	1.20184	-1.60470
4649.000	0.42900	-0.94885	1.18801	-1.64843
4650.000	0.39935	-1.01846	1.16627	-1.64248
4651.000	0.46459	-0.96078	1.19394	-1.68221
4652.000	0.43098	-1.05028	1.18010	-1.64844
4653.000	0.41516	-1.00851	1.19196	-1.68420
4654.000	0.47447	-1.06817	1.20975	-1.63650
4655.000	0.44877	-1.00055	1.19591	-1.65638
4656.000	0.44679	-1.07016	1.23939	-1.67821
4657.000	0.41516	-1.11391	1.20777	-1.70804
4658.000	0.33609	-1.05029	1.18010	-1.70607
4659.000	0.45865	-0.99658	1.19789	-1.68619
4660.000	0.49028	-1.05822	1.20184	-1.67227
4661.000	0.47842	-1.02442	1.20975	-1.70605
4662.000	0.44086	-1.06419	1.20777	-1.69810
4663.000	0.44482	-1.07016	1.20184	-1.67625
4664.000	0.39539	-1.02244	1.23741	-1.73187
4665.000	0.46854	-1.01447	1.20184	-1.63849
4666.000	0.40528	-0.98266	1.19394	-1.67427
4667.000	0.47052	-1.05425	1.25322	-1.66628
4668.000	0.48831	-1.04629	1.19987	-1.67824
4669.000	0.40330	-1.04431	1.22951	-1.66629
4670.000	0.43296	-1.11391	1.22753	-1.72194
4671.000	0.42702	-1.07812	1.21765	-1.65637
4672.000	0.45272	-1.07613	1.23346	-1.70802
4673.000	0.35981	-1.10000	1.23346	-1.63251
4674.000	0.45075	-0.97072	1.21370	-1.63252
4675.000	0.48435	-1.08209	1.19394	-1.65042
4676.000	0.41516	-1.01647	1.25520	-1.67820
4677.000	0.46261	-1.00453	1.21567	-1.65239
4678.000	0.45668	-1.03635	1.21765	-1.65637
4679.000	0.40726	-1.02442	1.21567	-1.68419
4680.000	0.43296	-1.01448	1.22358	-1.65040
4681.000	0.40528	-0.97471	1.18010	-1.62459
4682.000	0.45865	-1.01646	1.20184	-1.65439
4683.000	0.35981	-1.05227	1.21370	-1.60271
4684.000	0.51005	-1.03634	1.25520	-1.76564
4685.000	0.45075	-1.04431	1.23346	-1.64244
4686.000	0.44679	-1.01448	1.22358	-1.63053
4687.000	0.39144	-1.02840	1.18406	-1.68222
4688.000	0.40133	-1.01448	1.23148	-1.62655
4689.000	0.42307	-1.04431	1.20579	-1.65637
4690.000	0.40923	-1.04033	1.20579	-1.63849
4691.000	0.40923	-1.08409	1.22753	-1.70604
4692.000	0.41912	-1.02641	1.20382	-1.63849
4693.000	0.46459	-1.03436	1.23741	-1.69411
4694.000	0.40726	-0.98465	1.20975	-1.63650
4695.000	0.47249	-1.08010	1.29669	-1.65631
4696.000	0.33213	-1.05625	1.27298	-1.69806
4697.000	0.39342	-0.99261	1.21370	-1.63649
4698.000	0.40330	-1.08011	1.23939	-1.64045
4699.000	0.37760	-1.02045	1.27100	-1.64441
4700.000	0.34795	-0.98863	1.22160	-1.63450
4701.000	0.40726	-1.01050	1.27891	-1.69806
4702.000	0.38156	-1.09602	1.24729	-1.66628
4703.000	0.38353	-1.01647	1.22555	-1.65437
4704.000	0.45272	-0.97669	1.22951	-1.70604
4705.000	0.27678	-1.07813	1.23148	-1.66033
4706.000	0.36179	-1.06818	1.21963	-1.67425
4707.000	0.44086	-1.04431	1.20382	-1.64246
4708.000	0.43493	-1.02243	1.22753	-1.67027
4709.000	0.37958	-1.07812	1.19394	-1.64048
4710.000	0.44877	-1.02641	1.22555	-1.66232
4711.000	0.40133	-1.10000	1.17813	-1.64049
4712.000	0.37958	-1.03039	1.24532	-1.62455
4713.000	0.41121	-1.03636	1.20975	-1.62855
4714.000	0.40528	-1.07613	1.23741	-1.66033
4715.000	0.40923	-1.06221	1.27298	-1.67819
4716.000	0.39737	-1.11591	1.26310	-1.70999
4717.000	0.39342	-1.05426	1.22753	-1.66630
4718.000	0.37563	-0.99261	1.26903	-1.67223
4719.000	0.48435	-1.08407	1.27693	-1.62652
4720.000	0.41912	-1.01846	1.25520	-1.67820
4721.000	0.41516	-1.00851	1.22160	-1.65239
4722.000	0.46459	-0.94089	1.23741	-1.66430
4723.000	0.40726	-0.95482	1.23544	-1.69014
4724.000	0.42505	-0.97073	1.23148	-1.68020
4725.000	0.48040	-1.05623	1.24136	-1.67424
4726.000	0.35388	-1.04830	1.23148	-1.65834
4727.000	0.41714	-1.04232	1.22358	-1.62655
4728.000	0.42307	-1.03636	1.22951	-1.66828
4729.000	0.43493	-1.05027	1.25322	-1.67025
4730.000	0.37958	-1.01846	1.21765	-1.69412
4731.000	0.38749	-1.07812	1.20975	-1.60470
4732.000	0.35190	-1.04631	1.25717	-1.68217
4733.000	0.42307	-1.08210	1.25717	-1.69410
4734.000	0.36376	-1.08011	1.24927	-1.69013
4735.000	0.43691	-1.04630	1.23544	-1.69809
4736.000	0.47447	-1.04231	1.25520	-1.67423
4737.000	0.34993	-1.00454	1.23741	-1.69610
4738.000	0.39342	-0.99460	1.26112	-1.69410
4739.000	0.44482	-1.05027	1.27891	-1.68415
