time (ms)	lx (deg)	ly (deg)	rx (deg)	ry (deg)
0.000	-0.59506	-0.43764	-0.28073	0.40782
1.000	-0.67610	-0.45952	-0.25305	0.41777
2.000	-0.58320	-0.44560	-0.26492	0.39589
3.000	-0.51994	-0.46152	-0.25899	0.41379
4.000	-0.56738	-0.47345	-0.29062	0.39191
5.000	-0.55947	-0.45754	-0.24515	0.42175
6.000	-0.56738	-0.44361	-0.25305	0.41379
7.000	-0.51796	-0.47147	-0.27876	0.42374
8.000	-0.55552	-0.38394	-0.23922	0.40583
9.000	-0.52191	-0.45356	-0.25108	0.41180
10.000	-0.53575	-0.42372	-0.25701	0.39987
11.000	-0.56343	-0.47743	-0.22538	0.43766
12.000	-0.46063	-0.43765	-0.29062	0.38992
13.000	-0.53773	-0.44362	-0.27876	0.42573
14.000	-0.50017	-0.46550	-0.30050	0.39986
15.000	-0.48435	-0.39986	-0.27085	0.43368
16.000	-0.51005	-0.44163	-0.25899	0.44761
17.000	-0.57924	-0.40383	-0.25108	0.41379
18.000	-0.55750	-0.45953	-0.27480	0.43169
19.000	-0.46063	-0.43765	-0.23526	0.43170
20.000	-0.53773	-0.42372	-0.28271	0.45358
21.000	-0.52982	-0.39389	-0.28073	0.41379
22.000	-0.53378	-0.37200	-0.26887	0.43766
23.000	-0.51005	-0.37797	-0.29655	0.47745
24.000	-0.47052	-0.41179	-0.26096	0.41777
25.000	-0.52191	-0.43367	-0.26096	0.43368
26.000	-0.52982	-0.43566	-0.22538	0.41777
27.000	-0.56540	-0.38195	-0.27282	0.46352
28.000	-0.59110	-0.43367	-0.23724	0.40385
29.000	-0.59110	-0.42770	-0.21747	0.34616
30.000	-0.51598	-0.41179	-0.21549	0.41578
31.000	-0.50215	-0.45754	-0.25899	0.38395
32.000	-0.52784	-0.48937	-0.23131	0.42374
33.000	-0.50610	-0.39190	-0.25701	0.45358
34.000	-0.48633	-0.34416	-0.28666	0.45358
35.000	-0.53378	-0.44759	-0.21154	0.39788
36.000	-0.49424	-0.47545	-0.25701	0.44960
37.000	-0.54761	-0.44163	-0.26689	0.46352
38.000	-0.51598	-0.46152	-0.22933	0.41976
39.000	-0.50017	-0.38792	-0.22538	0.42573
40.000	-0.51203	-0.42373	-0.22933	0.41976
41.000	-0.54564	-0.45754	-0.24910	0.40981
42.000	-0.55750	-0.40184	-0.24712	0.36406
43.000	-0.47052	-0.43765	-0.20363	0.42374
44.000	-0.52784	-0.42770	-0.22933	0.40782
45.000	-0.46854	-0.42771	-0.24910	0.45955
46.000	-0.48238	-0.42970	-0.24712	0.40583
47.000	-0.48435	-0.42771	-0.25701	0.43766
48.000	-0.52389	-0.39985	-0.24317	0.41180
49.000	-0.51203	-0.48141	-0.19572	0.44761
50.000	-0.44679	-0.41776	-0.20758	0.42374
51.000	-0.46854	-0.46550	-0.22142	0.39589
52.000	-0.49819	-0.40383	-0.24712	0.41777
53.000	-0.55947	-0.37797	-0.20363	0.41578
54.000	-0.50610	-0.39787	-0.19177	0.45756
55.000	-0.46854	-0.39190	-0.23329	0.45159
56.000	-0.50017	-0.45555	-0.23724	0.42971
57.000	-0.42900	-0.39588	-0.18781	0.41777
58.000	-0.47249	-0.41179	-0.22735	0.40385
59.000	-0.41319	-0.39190	-0.21747	0.46154
60.000	-0.44877	-0.37002	-0.22340	0.42971
61.000	-0.46063	-0.36604	-0.22538	0.41976
62.000	-0.39342	-0.36803	-0.20363	0.37600
63.000	-0.39935	-0.38792	-0.24317	0.40782
64.000	-0.46854	-0.32824	-0.25503	0.41777
65.000	-0.38353	-0.34416	-0.21747	0.41180
66.000	-0.51598	-0.35808	-0.23526	0.44164
67.000	-0.44877	-0.41179	-0.19968	0.39589
68.000	-0.51598	-0.38394	-0.19968	0.41180
69.000	-0.48238	-0.39389	-0.21154	0.42175
70.000	-0.43889	-0.31830	-0.22340	0.40981
71.000	-0.51401	-0.39190	-0.21352	0.39788
72.000	-0.41714	-0.35212	-0.21154	0.41777
73.000	-0.38156	-0.32029	-0.24119	0.41379
74.000	-0.43296	-0.34217	-0.20561	0.41976
75.000	-0.46063	-0.33819	-0.21352	0.41180
76.000	-0.45075	-0.37400	-0.21945	0.40981
77.000	-0.44679	-0.37201	-0.24119	0.40981
78.000	-0.44679	-0.37400	-0.22735	0.44562
79.000	-0.48633	-0.32824	-0.25305	0.42573
80.000	-0.37760	-0.32228	-0.16607	0.40186
81.000	-0.47645	-0.36803	-0.23526	0.39390
82.000	-0.43098	-0.33421	-0.23922	0.41976
83.000	-0.48238	-0.33023	-0.24317	0.41578
84.000	-0.48831	-0.40582	-0.18584	0.40186
85.000	-0.49226	-0.36803	-0.21352	0.41578
86.000	-0.45668	-0.37996	-0.18979	0.40385
87.000	-0.42900	-0.35808	-0.18584	0.42772
88.000	-0.44086	-0.36007	-0.21352	0.39788
89.000	-0.43098	-0.35212	-0.21549	0.41777
90.000	-0.43493	-0.38792	-0.22538	0.39589
91.000	-0.39935	-0.36405	-0.20956	0.40981
92.000	-0.49226	-0.37598	-0.21747	0.41180
93.000	-0.43889	-0.30039	-0.24515	0.43170
94.000	-0.35981	-0.33421	-0.18584	0.45358
95.000	-0.43296	-0.32228	-0.22340	0.46353
96.000	-0.41121	-0.33620	-0.24712	0.48143
97.000	-0.43493	-0.32625	-0.18386	0.42772
98.000	-0.40726	-0.38395	-0.19770	0.45159
99.000	-0.45075	-0.37599	-0.19572	0.46750
100.000	-0.47447	-0.37996	-0.21549	0.46154
101.000	-0.38551	-0.38395	-0.20363	0.44562
102.000	-0.41319	-0.37599	-0.21549	0.39191
103.000	-0.43098	-0.34416	-0.17793	0.43568
104.000	-0.43296	-0.36007	-0.18386	0.40385
105.000	-0.43098	-0.38792	-0.24515	0.42573
106.000	-0.40923	-0.39588	-0.17398	0.41578
107.000	-0.45470	-0.34814	-0.21747	0.43170
108.000	-0.48040	-0.40383	-0.19177	0.40783
109.000	-0.42900	-0.40185	-0.20165	0.44761
110.000	-0.46459	-0.37798	-0.18188	0.40981
111.000	-0.51796	-0.40980	-0.16607	0.37998
112.000	-0.48040	-0.36604	-0.21549	0.44960
113.000	-0.52389	-0.35609	-0.17595	0.46353
114.000	-0.46459	-0.38394	-0.20758	0.44562
115.000	-0.46854	-0.39588	-0.19572	0.48939
116.000	-0.40330	-0.40583	-0.20561	0.43965
117.000	-0.44877	-0.38394	-0.19375	0.40981
118.000	-0.47052	-0.44163	-0.18386	0.43369
119.000	-0.49226	-0.41577	-0.19572	0.40981
120.000	-0.45865	-0.34018	-0.22933	0.43567
121.000	-0.44284	-0.34416	-0.22538	0.40782
122.000	-0.41319	-0.36007	-0.22538	0.44363
123.000	-0.43889	-0.35609	-0.21747	0.45955
124.000	-0.49819	-0.38593	-0.21154	0.45159
125.000	-0.40330	-0.38792	-0.23526	0.41379
126.000	-0.47447	-0.43168	-0.21352	0.39987
127.000	-0.49028	-0.39190	-0.21945	0.41578
128.000	-0.49226	-0.33023	-0.19968	0.43766
129.000	-0.50610	-0.37996	-0.19770	0.42971
130.000	-0.50215	-0.40184	-0.20561	0.44363
131.000	-0.47447	-0.36604	-0.20758	0.46949
132.000	-0.46063	-0.41179	-0.21154	0.43766
133.000	-0.41121	-0.36007	-0.18188	0.47944
134.000	-0.51994	-0.42174	-0.24515	0.47745
135.000	-0.47645	-0.37002	-0.21945	0.46949
136.000	-0.43098	-0.36007	-0.17991	0.44363
137.000	-0.49622	-0.38593	-0.21747	0.46154
138.000	-0.40923	-0.39588	-0.24910	0.49137
139.000	-0.46459	-0.34217	-0.18584	0.46750
140.000	-0.40726	-0.35212	-0.22538	0.49734
141.000	-0.42307	-0.37599	-0.22340	0.44761
142.000	-0.43889	-0.39389	-0.22142	0.46949
143.000	-0.41319	-0.46153	-0.26096	0.40583
144.000	-0.51203	-0.38195	-0.23131	0.42971
145.000	-0.49226	-0.40383	-0.24712	0.45955
146.000	-0.52389	-0.43367	-0.22340	0.45955
147.000	-0.45075	-0.41975	-0.24712	0.45358
148.000	-0.47249	-0.42771	-0.21747	0.46551
149.000	-0.47645	-0.38991	-0.20561	0.43965
150.000	-0.43889	-0.45755	-0.19572	0.43369
151.000	-0.46656	-0.49733	-0.20956	0.43568
152.000	-0.46656	-0.44362	-0.23922	0.42971
153.000	-0.45075	-0.41179	-0.23724	0.46750
154.000	-0.46459	-0.40781	-0.23724	0.41976
155.000	-0.42900	-0.36604	-0.25503	0.43567
156.000	-0.44482	-0.45556	-0.23724	0.46750
157.000	-0.41912	-0.41378	-0.18979	0.44960
158.000	-0.39144	-0.34615	-0.24317	0.46551
159.000	-0.39144	-0.45556	-0.25108	0.48938
160.000	-0.45668	-0.44163	-0.25701	0.48342
161.000	-0.45272	-0.46152	-0.24712	0.44164
162.000	-0.42307	-0.40981	-0.23329	0.47347
163.000	-0.46459	-0.45158	-0.24712	0.47347
164.000	-0.50017	-0.49733	-0.21352	0.48342
165.000	-0.52982	-0.45356	-0.21154	0.45756
166.000	-0.46656	-0.46550	-0.23922	0.45159
167.000	-0.44877	-0.46948	-0.21549	0.44761
168.000	-0.43889	-0.41776	-0.24712	0.38594
169.000	-0.42900	-0.46749	-0.23526	0.43170
170.000	-0.47447	-0.43367	-0.24317	0.48342
171.000	-0.45865	-0.45556	-0.22142	0.44164
172.000	-0.42900	-0.51524	-0.27678	0.48541
173.000	-0.41319	-0.47943	-0.22142	0.45756
174.000	-0.38946	-0.42373	-0.24712	0.47944
175.000	-0.48633	-0.48937	-0.24119	0.41180
176.000	-0.45075	-0.43765	-0.19968	0.42971
177.000	-0.47645	-0.48142	-0.23329	0.48342
178.000	-0.37760	-0.40981	-0.22735	0.46551
179.000	-0.41912	-0.41776	-0.23131	0.44363
180.000	-0.37563	-0.37400	-0.24317	0.44164
181.000	-0.40528	-0.38196	-0.21945	0.48541
182.000	-0.38353	-0.41975	-0.23526	0.43170
183.000	-0.41319	-0.39986	-0.19968	0.46353
184.000	-0.35783	-0.43965	-0.23329	0.46352
185.000	-0.41912	-0.44561	-0.23526	0.43766
186.000	-0.36969	-0.40185	-0.23922	0.47944
187.000	-0.40330	-0.41776	-0.25305	0.41777
188.000	-0.38946	-0.36206	-0.23922	0.43965
189.000	-0.41912	-0.41378	-0.22340	0.43369
190.000	-0.38156	-0.42970	-0.24119	0.43369
191.000	-0.38156	-0.41578	-0.19572	0.40385
192.000	-0.41912	-0.40583	-0.22538	0.43766
193.000	-0.39342	-0.45556	-0.24712	0.42374
194.000	-0.43889	-0.42373	-0.23526	0.43965
195.000	-0.41714	-0.43169	-0.21352	0.44164
196.000	-0.38156	-0.39389	-0.20363	0.41777
197.000	-0.33609	-0.41379	-0.22340	0.44960
198.000	-0.34795	-0.34018	-0.16804	0.45955
199.000	-0.37760	-0.40583	-0.20561	0.45358
200.000	-0.39737	-0.41180	-0.22538	0.41578
201.000	-0.40923	-0.37400	-0.20956	0.45159
202.000	-0.30643	-0.35610	-0.22538	0.42971
203.000	-0.43493	-0.40583	-0.19770	0.42175
204.000	-0.43493	-0.41577	-0.22735	0.42374
205.000	-0.40528	-0.38991	-0.24910	0.41578
206.000	-0.37958	-0.40981	-0.26492	0.46153
207.000	-0.41516	-0.38593	-0.25305	0.39589
208.000	-0.33609	-0.42572	-0.25899	0.43368
209.000	-0.37958	-0.43368	-0.27876	0.45557
210.000	-0.35586	-0.37400	-0.24119	0.46154
211.000	-0.40528	-0.30835	-0.25503	0.43965
212.000	-0.34399	-0.41976	-0.22340	0.45358
213.000	-0.31434	-0.40583	-0.19177	0.43965
214.000	-0.34795	-0.34416	-0.21747	0.44363
215.000	-0.29259	-0.38992	-0.21945	0.42374
216.000	-0.29259	-0.34814	-0.21945	0.45955
217.000	-0.34795	-0.34416	-0.23131	0.42175
218.000	-0.30841	-0.31034	-0.23526	0.40782
219.000	-0.36179	-0.39986	-0.22340	0.40782
220.000	-0.35388	-0.34814	-0.20165	0.38594
221.000	-0.40330	-0.39190	-0.23526	0.40782
222.000	-0.37167	-0.41180	-0.23526	0.41777
223.000	-0.33806	-0.37201	-0.23131	0.37600
224.000	-0.36376	-0.37002	-0.22142	0.40782
225.000	-0.34202	-0.38196	-0.19375	0.36804
226.000	-0.37167	-0.34615	-0.23329	0.40981
227.000	-0.33411	-0.34018	-0.27876	0.41777
228.000	-0.29259	-0.30836	-0.24317	0.40981
229.000	-0.36969	-0.44164	-0.22142	0.41180
230.000	-0.36969	-0.39588	-0.28666	0.48739
231.000	-0.40528	-0.37400	-0.21945	0.42175
232.000	-0.39539	-0.37997	-0.24119	0.43567
233.000	-0.34597	-0.37002	-0.23131	0.42573
234.000	-0.37167	-0.37002	-0.21549	0.43170
235.000	-0.29655	-0.40185	-0.19770	0.43568
236.000	-0.30643	-0.38196	-0.21747	0.43170
237.000	-0.31829	-0.43766	-0.22142	0.42175
238.000	-0.34993	-0.41976	-0.24712	0.36605
239.000	-0.33213	-0.38793	-0.21945	0.41777
240.000	-0.32225	-0.39787	-0.23724	0.37997
241.000	-0.37167	-0.34416	-0.24515	0.43368
242.000	-0.27085	-0.36207	-0.26096	0.37798
243.000	-0.37760	-0.40981	-0.24910	0.38992
244.000	-0.37365	-0.36604	-0.24119	0.41777
245.000	-0.35783	-0.34814	-0.25108	0.39390
246.000	-0.32620	-0.42970	-0.20758	0.39191
247.000	-0.31039	-0.37002	-0.20758	0.39390
248.000	-0.28666	-0.36207	-0.19375	0.41777
249.000	-0.28073	-0.36008	-0.22735	0.42374
250.000	-0.26492	-0.40583	-0.21549	0.43170
251.000	-0.27480	-0.43965	-0.19572	0.43568
252.000	-0.30248	-0.36406	-0.22538	0.44562
253.000	-0.26887	-0.42772	-0.26492	0.44562
254.000	-0.31039	-0.37400	-0.20561	0.37997
255.000	-0.29457	-0.41180	-0.23922	0.37401
256.000	-0.28666	-0.42374	-0.26887	0.37798
257.000	-0.32422	-0.34018	-0.25701	0.37599
258.000	-0.34202	-0.39787	-0.25899	0.37997
259.000	-0.31632	-0.37599	-0.25701	0.38594
260.000	-0.30643	-0.34416	-0.22142	0.37600
261.000	-0.31039	-0.41578	-0.23131	0.35610
262.000	-0.33213	-0.42771	-0.25701	0.37798
263.000	-0.25899	-0.40782	-0.22735	0.37600
264.000	-0.33806	-0.44761	-0.22933	0.39788
265.000	-0.28666	-0.42772	-0.24910	0.46551
266.000	-0.34399	-0.37201	-0.22933	0.39589
267.000	-0.30643	-0.37599	-0.23922	0.41379
268.000	-0.32027	-0.35809	-0.23526	0.41976
269.000	-0.28864	-0.37400	-0.24910	0.38395
270.000	-0.33411	-0.40981	-0.26689	0.37202
271.000	-0.32422	-0.41777	-0.23329	0.35809
272.000	-0.34202	-0.40185	-0.29655	0.38594
273.000	-0.32225	-0.40782	-0.28666	0.43169
274.000	-0.32225	-0.40782	-0.26294	0.35212
275.000	-0.26689	-0.43965	-0.26294	0.34814
276.000	-0.26294	-0.35212	-0.27480	0.39191
277.000	-0.31039	-0.42970	-0.28469	0.37599
278.000	-0.32225	-0.32825	-0.26096	0.37599
279.000	-0.35586	-0.37997	-0.21154	0.40186
280.000	-0.21549	-0.36804	-0.32027	0.42572
281.000	-0.28666	-0.39987	-0.22340	0.43170
282.000	-0.28666	-0.38793	-0.23724	0.40782
283.000	-0.27876	-0.40185	-0.27480	0.37202
284.000	-0.27085	-0.41976	-0.27085	0.36605
285.000	-0.27876	-0.40185	-0.24119	0.35013
286.000	-0.30248	-0.41777	-0.27085	0.35212
287.000	-0.30248	-0.43567	-0.25305	0.33024
288.000	-0.24515	-0.39191	-0.26294	0.34416
289.000	-0.35981	-0.41180	-0.27678	0.30438
290.000	-0.30643	-0.42175	-0.27876	0.38793
291.000	-0.27480	-0.40186	-0.26096	0.36605
292.000	-0.25701	-0.35411	-0.27282	0.37798
293.000	-0.31632	-0.39191	-0.19177	0.34019
294.000	-0.29062	-0.42772	-0.27282	0.36406
295.000	-0.31632	-0.36605	-0.26689	0.39788
296.000	-0.28073	-0.37400	-0.25305	0.38992
297.000	-0.28469	-0.41976	-0.23922	0.42772
298.000	-0.24515	-0.34615	-0.31434	0.35013
299.000	-0.30248	-0.43368	-0.21352	0.38793
300.000	-0.22538	-0.38793	-0.26492	0.37400
301.000	-0.18781	-0.35212	-0.26492	0.35411
302.000	-0.27480	-0.41379	-0.23329	0.34814
303.000	-0.19375	-0.34616	-0.23329	0.35809
304.000	-0.33411	-0.41379	-0.25503	0.37997
305.000	-0.32225	-0.39191	-0.29457	0.35809
306.000	-0.25899	-0.36804	-0.22933	0.33621
307.000	-0.27876	-0.37599	-0.28666	0.28846
308.000	-0.28271	-0.40384	-0.28271	0.33223
309.000	-0.29457	-0.39390	-0.26294	0.35610
310.000	-0.25108	-0.38793	-0.25503	0.37599
311.000	-0.24712	-0.39191	-0.23526	0.35610
312.000	-0.28271	-0.42772	-0.26294	0.32626
313.000	-0.24515	-0.36406	-0.25305	0.33820
314.000	-0.24910	-0.38992	-0.30841	0.34814
315.000	-0.32225	-0.37997	-0.28666	0.35411
316.000	-0.22340	-0.37401	-0.27480	0.36008
317.000	-0.24119	-0.35411	-0.23724	0.36406
318.000	-0.23724	-0.36207	-0.26492	0.40384
319.000	-0.24712	-0.34615	-0.26294	0.36605
320.000	-0.30643	-0.33621	-0.28864	0.37003
321.000	-0.21549	-0.39191	-0.29062	0.37798
322.000	-0.22735	-0.33820	-0.25701	0.33422
323.000	-0.25899	-0.36406	-0.27282	0.38992
324.000	-0.33213	-0.38594	-0.26492	0.36008
325.000	-0.25899	-0.36605	-0.25305	0.35212
326.000	-0.26492	-0.35809	-0.29062	0.34019
327.000	-0.21945	-0.35212	-0.29259	0.35212
328.000	-0.27678	-0.38395	-0.24910	0.34814
329.000	-0.30643	-0.39191	-0.27678	0.36406
330.000	-0.30446	-0.35411	-0.22933	0.34616
331.000	-0.21549	-0.31631	-0.27876	0.36406
332.000	-0.26294	-0.31432	-0.25108	0.35411
333.000	-0.24515	-0.33223	-0.26492	0.33024
334.000	-0.19177	-0.39191	-0.23329	0.35411
335.000	-0.22933	-0.36008	-0.29457	0.34615
336.000	-0.30248	-0.31830	-0.26096	0.31631
337.000	-0.23526	-0.37599	-0.26294	0.38395
338.000	-0.25899	-0.40384	-0.25899	0.32626
339.000	-0.24119	-0.37202	-0.27876	0.33223
340.000	-0.26492	-0.39390	-0.28469	0.32029
341.000	-0.30050	-0.32825	-0.23526	0.31631
342.000	-0.25701	-0.36406	-0.24712	0.30040
343.000	-0.27282	-0.32626	-0.27876	0.34416
344.000	-0.23526	-0.33422	-0.26294	0.31631
345.000	-0.17991	-0.38793	-0.23329	0.32626
346.000	-0.18584	-0.34417	-0.24910	0.32626
347.000	-0.13641	-0.33621	-0.20758	0.36406
348.000	-0.00989	-0.30836	-0.14630	0.33223
349.000	-0.00989	-0.29841	-0.14037	0.37799
350.000	0.04349	-0.29046	-0.02966	0.34417
351.000	0.13641	-0.45955	0.02570	0.35610
352.000	0.22538	-0.34417	0.12060	0.29244
353.000	0.28666	-0.35013	0.21352	0.30040
354.000	0.32225	-0.38793	0.24515	0.30438
355.000	0.39737	-0.35212	0.31039	0.32825
356.000	0.46854	-0.33222	0.34993	0.30835
357.000	0.46459	-0.34217	0.40726	0.26459
358.000	0.49424	-0.28846	0.42307	0.30835
359.000	0.46656	-0.28647	0.40133	0.32029
360.000	0.43296	-0.25663	0.40726	0.26658
361.000	0.37365	-0.33024	0.33016	0.31432
362.000	0.34202	-0.32228	0.29852	0.31233
363.000	0.30050	-0.28448	0.23329	0.31234
364.000	0.27282	-0.26459	0.15223	0.33422
365.000	0.25503	-0.26658	0.15025	0.32626
366.000	0.20758	-0.28051	0.11664	0.37202
367.000	0.22933	-0.29841	0.06326	0.30836
368.000	0.15223	-0.28449	0.03559	0.31632
369.000	0.12257	-0.30438	0.02372	0.32427
370.000	0.15223	-0.34815	0.00593	0.26857
371.000	0.10083	-0.27653	0.02966	0.31433
372.000	0.11269	-0.26260	-0.01384	0.31035
373.000	0.04152	-0.30040	0.02570	0.36605
374.000	0.17002	-0.28250	0.02175	0.32030
375.000	0.12060	-0.28449	0.05536	0.27852
376.000	0.11467	-0.29244	0.02768	0.27255
377.000	0.08699	-0.35610	0.05140	0.31035
378.000	0.04349	-0.32229	0.04152	0.35014
379.000	0.15618	-0.28250	0.08501	0.34019
380.000	0.17991	-0.29443	0.07513	0.33024
381.000	0.16014	-0.28051	0.08106	0.33024
382.000	0.11467	-0.30239	0.11862	0.34019
383.000	0.20758	-0.25266	0.09490	0.36406
384.000	0.11862	-0.27653	0.13444	0.32825
385.000	0.14432	-0.37003	0.10083	0.32427
386.000	0.11664	-0.34019	0.04943	0.35412
387.000	0.15223	-0.30239	0.12257	0.31035
388.000	0.15223	-0.31433	0.10874	0.27852
389.000	0.16014	-0.35014	0.11664	0.33223
390.000	0.11862	-0.34815	0.14630	0.29642
391.000	0.15618	-0.30637	0.10083	0.31234
392.000	0.20561	-0.33422	0.14827	0.25266
393.000	0.16211	-0.29841	0.12060	0.29841
394.000	0.15421	-0.38594	0.07315	0.31035
395.000	0.17200	-0.29443	0.09687	0.30040
396.000	0.16409	-0.33820	0.10280	0.28648
397.000	0.11467	-0.33820	0.11664	0.27852
398.000	0.12455	-0.31433	0.09292	0.31234
399.000	0.19177	-0.33024	0.08897	0.28648
400.000	0.17398	-0.28250	0.10676	0.34417
401.000	0.17991	-0.31831	0.07513	0.28449
402.000	0.15223	-0.27056	0.07315	0.33024
403.000	0.16409	-0.31433	0.11862	0.26260
404.000	0.19177	-0.30836	0.06326	0.30438
405.000	0.18188	-0.30836	0.06722	0.32427
406.000	0.13444	-0.35014	0.11269	0.28847
407.000	0.18188	-0.34417	0.09292	0.30040
408.000	0.19770	-0.36406	0.08501	0.27454
409.000	0.16607	-0.30836	0.12060	0.29045
410.000	0.16607	-0.30040	0.11467	0.25067
411.000	0.19177	-0.29443	0.10083	0.32030
412.000	0.22142	-0.28051	0.09094	0.31632
413.000	0.17991	-0.28449	0.09094	0.24868
414.000	0.16211	-0.30438	0.08106	0.29642
415.000	0.20363	-0.31433	0.07710	0.25664
416.000	0.14037	-0.35411	0.08501	0.28051
417.000	0.16804	-0.31632	0.03361	0.29244
418.000	0.14827	-0.37401	0.11071	0.27056
419.000	0.18386	-0.35212	0.06722	0.25266
420.000	0.17398	-0.36207	0.09292	0.25664
421.000	0.15421	-0.34019	0.11269	0.28250
422.000	0.14630	-0.35411	0.12257	0.26459
423.000	0.15421	-0.38196	0.09094	0.21884
424.000	0.15223	-0.39788	0.08303	0.25862
425.000	0.14827	-0.34218	0.06129	0.24868
426.000	0.16804	-0.41379	0.07513	0.24072
427.000	0.18386	-0.37202	0.07315	0.24868
428.000	0.10874	-0.34616	0.08699	0.27056
429.000	0.07710	-0.41578	0.07117	0.30637
430.000	0.12653	-0.35014	0.09490	0.21287
431.000	0.13444	-0.35610	0.06920	0.28250
432.000	0.14630	-0.38992	0.06129	0.27454
433.000	0.15223	-0.38793	0.06129	0.30040
434.000	0.17793	-0.32626	0.09885	0.30438
435.000	0.18386	-0.30040	0.09687	0.27056
436.000	0.22340	-0.28250	0.06129	0.23674
437.000	0.11269	-0.35014	0.11071	0.26459
438.000	0.21352	-0.36406	0.08699	0.25862
439.000	0.23329	-0.37202	0.09885	0.26658
440.000	0.15025	-0.32427	0.06722	0.25266
441.000	0.15025	-0.39390	0.10478	0.25862
442.000	0.16804	-0.32427	0.07117	0.26658
443.000	0.13444	-0.35212	0.11862	0.25664
444.000	0.19572	-0.33621	0.09687	0.25465
445.000	0.16014	-0.37202	0.06326	0.28250
446.000	0.17595	-0.30836	0.03756	0.22878
447.000	0.17793	-0.33422	0.06524	0.26658
448.000	0.22142	-0.31830	0.10083	0.27056
449.000	0.17991	-0.32029	0.05931	0.28648
450.000	0.20363	-0.36406	0.04152	0.29046
451.000	0.22933	-0.33223	0.06920	0.28051
452.000	0.20758	-0.31632	0.08303	0.26857
453.000	0.14432	-0.32228	0.05338	0.25862
454.000	0.19770	-0.29841	0.01977	0.25664
455.000	0.19177	-0.34218	0.07513	0.24470
456.000	0.18188	-0.31234	0.05536	0.25862
457.000	0.18979	-0.33820	0.08106	0.24470
458.000	0.20956	-0.29841	0.05931	0.22679
459.000	0.21549	-0.35411	0.03954	0.28449
460.000	0.26492	-0.32825	0.09490	0.20889
461.000	0.27282	-0.25265	0.09094	0.22083
462.000	0.22142	-0.34616	0.13839	0.23475
463.000	0.25701	-0.31631	0.09687	0.21088
464.000	0.22538	-0.36008	0.07117	0.23674
465.000	0.19375	-0.29045	0.07117	0.26459
466.000	0.20363	-0.28449	0.01582	0.23475
467.000	0.15421	-0.31831	0.05931	0.25862
468.000	0.17595	-0.27255	0.09885	0.25465
469.000	0.20956	-0.28449	0.04152	0.25266
470.000	0.27480	-0.29642	0.08501	0.23873
471.000	0.21549	-0.28250	0.02966	0.25266
472.000	0.25899	-0.25265	0.04349	0.18303
473.000	0.22735	-0.24271	0.01977	0.22282
474.000	0.20956	-0.26857	0.03163	0.23077
475.000	0.17595	-0.26658	0.06920	0.22679
476.000	0.22538	-0.27653	0.05338	0.22878
477.000	0.18188	-0.30239	0.04943	0.23276
478.000	0.21945	-0.26260	0.00989	0.22481
479.000	0.23329	-0.27852	0.07710	0.22083
480.000	0.22933	-0.29642	0.06129	0.26459
481.000	0.18979	-0.38594	0.00000	0.23475
482.000	0.20956	-0.27852	0.03954	0.23873
483.000	0.23131	-0.31234	0.02966	0.21088
484.000	0.21352	-0.26061	0.05140	0.21287
485.000	0.21154	-0.29642	0.04745	0.21287
486.000	0.17991	-0.32626	0.05733	0.17905
487.000	0.18386	-0.32029	0.05733	0.16313
488.000	0.19572	-0.29443	-0.01186	0.27653
489.000	0.18386	-0.28250	0.02570	0.20491
490.000	0.16211	-0.33820	0.05931	0.24470
491.000	0.17595	-0.30836	0.02175	0.23674
492.000	0.18979	-0.27852	0.03163	0.26857
493.000	0.17002	-0.33223	0.03756	0.22481
494.000	0.22933	-0.30040	0.03756	0.20292
495.000	0.14234	-0.29443	0.04349	0.22282
496.000	0.21154	-0.35212	0.05733	0.24072
497.000	0.20758	-0.28250	0.02175	0.22282
498.000	0.20165	-0.29841	-0.00791	0.25266
499.000	0.16211	-0.29642	0.03756	0.21486
500.000	0.21352	-0.24470	-0.01977	0.28250
501.000	0.19572	-0.25266	-0.02966	0.21088
502.000	0.20758	-0.29443	0.00000	0.25863
503.000	0.24119	-0.28250	0.03756	0.21486
504.000	0.14827	-0.24470	0.00593	0.23873
505.000	0.21154	-0.25862	0.00593	0.18701
506.000	0.17398	-0.24868	-0.00989	0.22679
507.000	0.15816	-0.30637	0.01582	0.21685
508.000	0.17793	-0.24271	-0.01186	0.21884
509.000	0.16014	-0.26260	0.02768	0.25862
510.000	0.16409	-0.26061	0.01186	0.20690
511.000	0.19968	-0.29841	0.01977	0.21088
512.000	0.17595	-0.30836	0.01384	0.17706
513.000	0.18188	-0.24669	0.01977	0.23276
514.000	0.13048	-0.32626	0.00989	0.19894
515.000	0.26294	-0.25066	0.02372	0.17706
516.000	0.21945	-0.24072	-0.02570	0.20889
517.000	0.14432	-0.23873	-0.00791	0.21486
518.000	0.17002	-0.26857	0.00395	0.21486
519.000	0.21945	-0.27056	0.00593	0.22282
520.000	0.19770	-0.23873	-0.01977	0.19496
521.000	0.18386	-0.26658	0.00593	0.19297
522.000	0.19770	-0.27852	-0.01779	0.18701
523.000	0.17991	-0.26260	0.00000	0.20491
524.000	0.12850	-0.33820	0.00593	0.20889
525.000	0.16607	-0.24271	-0.02570	0.20889
526.000	0.09885	-0.24470	0.01582	0.18701
527.000	0.19572	-0.29642	-0.03163	0.22083
528.000	0.19572	-0.23475	-0.04943	0.24072
529.000	0.15618	-0.25465	-0.05140	0.21486
530.000	0.21549	-0.25067	-0.00593	0.20093
531.000	0.19968	-0.27852	-0.03559	0.18900
532.000	0.17002	-0.30637	-0.01977	0.22878
533.000	0.18386	-0.26658	-0.01779	0.20292
534.000	0.15025	-0.30637	-0.01186	0.22282
535.000	0.18584	-0.32029	-0.01384	0.15120
536.000	0.18584	-0.30239	-0.00791	0.18104
537.000	0.19770	-0.32228	-0.04745	0.24072
538.000	0.20561	-0.31433	-0.00791	0.20292
539.000	0.25701	-0.31035	-0.03163	0.20690
540.000	0.18386	-0.29841	0.00593	0.21486
541.000	0.21154	-0.26857	0.03756	0.19496
542.000	0.16409	-0.24271	-0.01186	0.21287
543.000	0.15223	-0.30637	0.00791	0.19894
544.000	0.18584	-0.30637	-0.04745	0.22481
545.000	0.19375	-0.30438	-0.02570	0.21685
546.000	0.23526	-0.31234	-0.00791	0.16313
547.000	0.17991	-0.33820	-0.00989	0.20889
548.000	0.16804	-0.31632	-0.02768	0.17109
549.000	0.18386	-0.35610	-0.00989	0.25067
550.000	0.17991	-0.28449	-0.04349	0.22481
551.000	0.12455	-0.34417	-0.02768	0.17507
552.000	0.18979	-0.25067	0.02175	0.21088
553.000	0.15223	-0.29841	0.02372	0.20690
554.000	0.15025	-0.33223	-0.00791	0.23475
555.000	0.19375	-0.24470	-0.02570	0.22878
556.000	0.20758	-0.26061	-0.03361	0.21287
557.000	0.19770	-0.30637	-0.00395	0.22282
558.000	0.18781	-0.32228	-0.00395	0.21088
559.000	0.18188	-0.25663	-0.05140	0.24669
560.000	0.16804	-0.31433	-0.03756	0.22282
561.000	0.20758	-0.28647	-0.03954	0.22083
562.000	0.21352	-0.29841	-0.01977	0.17109
563.000	0.25108	-0.30239	-0.00989	0.18701
564.000	0.12653	-0.30239	-0.00395	0.21486
565.000	0.16211	-0.29443	-0.02175	0.18701
566.000	0.15025	-0.28051	-0.02570	0.19099
567.000	0.14630	-0.26061	-0.00593	0.22878
568.000	0.16014	-0.28250	-0.02175	0.18502
569.000	0.15223	-0.30040	-0.02570	0.18502
570.000	0.17595	-0.34019	-0.00989	0.19099
571.000	0.20561	-0.26658	-0.04349	0.19099
572.000	0.20758	-0.30637	-0.01977	0.16711
573.000	0.14432	-0.32029	0.00593	0.17109
574.000	0.15421	-0.29244	-0.01186	0.17308
575.000	0.18979	-0.32626	0.01384	0.16711
576.000	0.17002	-0.29841	-0.02570	0.18900
577.000	0.15223	-0.30637	0.00000	0.19297
578.000	0.17398	-0.29045	0.04152	0.19099
579.000	0.19770	-0.27255	0.03361	0.22878
580.000	0.11467	-0.30836	-0.00989	0.19695
581.000	0.14432	-0.29642	0.00791	0.25067
582.000	0.22538	-0.30040	0.01384	0.21287
583.000	0.16607	-0.33820	-0.01582	0.22878
584.000	0.18781	-0.28647	-0.03163	0.21884
585.000	0.23329	-0.27056	0.00791	0.20491
586.000	0.14630	-0.28250	0.00000	0.21884
587.000	0.15618	-0.21486	-0.00791	0.22282
588.000	0.15421	-0.28648	-0.03559	0.23873
589.000	0.17991	-0.29244	-0.02570	0.21486
590.000	0.14234	-0.24470	-0.02570	0.21486
591.000	0.14827	-0.27056	0.00395	0.19297
592.000	0.12653	-0.27653	-0.02175	0.19297
593.000	0.18781	-0.26260	0.04547	0.23674
594.000	0.12850	-0.25862	-0.03559	0.19297
595.000	0.18386	-0.26459	0.01186	0.23674
596.000	0.19375	-0.26061	-0.00198	0.22481
597.000	0.21352	-0.28647	0.01186	0.20491
598.000	0.15816	-0.27454	0.03163	0.25266
599.000	0.15025	-0.27255	0.01582	0.27852
600.000	0.11467	-0.34616	0.03559	0.21685
601.000	0.19375	-0.29244	0.00198	0.23077
602.000	0.15223	-0.26459	0.00791	0.25863
603.000	0.15223	-0.30637	0.06722	0.20292
604.000	0.06524	-0.31035	0.04943	0.23077
605.000	0.13048	-0.26857	-0.01779	0.26857
606.000	0.12060	-0.28449	-0.03954	0.25266
607.000	0.12653	-0.26857	0.00000	0.24271
608.000	0.13641	-0.26658	-0.00198	0.22481
609.000	0.14037	-0.24271	0.03559	0.23873
610.000	0.16804	-0.27056	0.00593	0.22282
611.000	0.20758	-0.21884	0.00198	0.19099
612.000	0.17793	-0.26857	0.03163	0.19496
613.000	0.15421	-0.26061	-0.00198	0.22878
614.000	0.13246	-0.24470	0.00395	0.26459
615.000	0.18188	-0.22281	0.02372	0.24470
616.000	0.18781	-0.24868	0.00198	0.20690
617.000	0.17200	-0.22480	0.01977	0.23276
618.000	0.15618	-0.30040	0.00395	0.22083
619.000	0.20363	-0.27454	0.07315	0.22083
620.000	0.12060	-0.25465	0.03163	0.20690
621.000	0.19375	-0.22679	-0.00198	0.21088
622.000	0.20165	-0.25663	0.02372	0.21884
623.000	0.21945	-0.27852	-0.00395	0.17706
624.000	0.12850	-0.20491	-0.01186	0.20690
625.000	0.19177	-0.23077	0.01186	0.20292
626.000	0.20363	-0.25067	-0.00791	0.24868
627.000	0.11071	-0.23873	0.01384	0.24669
628.000	0.19375	-0.27852	-0.01582	0.24669
629.000	0.18781	-0.23077	-0.02570	0.23077
630.000	0.19770	-0.29244	0.02966	0.22481
631.000	0.22933	-0.21486	0.00395	0.21486
632.000	0.17793	-0.27653	-0.00198	0.19496
633.000	0.17793	-0.28051	-0.00395	0.24271
634.000	0.20956	-0.25266	0.00593	0.22282
635.000	0.19572	-0.18303	0.02570	0.21088
636.000	0.21549	-0.21287	0.00000	0.20093
637.000	0.19177	-0.22083	0.00593	0.24271
638.000	0.19572	-0.25266	0.00395	0.18701
639.000	0.17200	-0.20690	-0.03559	0.28051
640.000	0.23922	-0.18104	-0.00198	0.20690
641.000	0.24910	-0.20889	-0.02372	0.22481
642.000	0.12257	-0.24072	-0.00395	0.24271
643.000	0.22538	-0.24470	-0.01186	0.22679
644.000	0.19375	-0.30637	0.01384	0.19297
645.000	0.15223	-0.27056	-0.01384	0.22878
646.000	0.17991	-0.26857	0.02768	0.22679
647.000	0.21747	-0.23077	-0.00791	0.25664
648.000	0.23329	-0.23475	-0.00791	0.20690
649.000	0.20561	-0.21287	0.01384	0.23674
650.000	0.21352	-0.20889	0.00791	0.22679
651.000	0.19572	-0.25266	-0.03559	0.26260
652.000	0.21352	-0.18701	-0.00198	0.25664
653.000	0.17793	-0.23873	-0.03163	0.25664
654.000	0.17595	-0.24470	-0.00989	0.25863
655.000	0.20561	-0.24868	0.00000	0.22481
656.000	0.18781	-0.30040	-0.05733	0.25465
657.000	0.24910	-0.26857	0.00198	0.29244
658.000	0.20165	-0.24669	-0.03361	0.24072
659.000	0.25503	-0.22878	-0.03756	0.26260
660.000	0.16014	-0.27255	-0.01977	0.21685
661.000	0.15618	-0.23873	-0.02175	0.25664
662.000	0.19572	-0.25862	-0.01977	0.20491
663.000	0.20165	-0.27653	-0.03954	0.26061
664.000	0.22340	-0.25663	0.01582	0.23674
665.000	0.24515	-0.22281	-0.00791	0.26061
666.000	0.28073	-0.21486	-0.00593	0.23674
667.000	0.21154	-0.13329	0.01582	0.22679
668.000	0.25899	-0.19297	0.00000	0.23475
669.000	0.20165	-0.23873	-0.01186	0.24271
670.000	0.28864	-0.19894	-0.00791	0.24072
671.000	0.19968	-0.17308	-0.04547	0.19695
672.000	0.22538	-0.21884	-0.00593	0.23674
673.000	0.21154	-0.18303	0.01582	0.20093
674.000	0.26096	-0.15318	-0.00395	0.24868
675.000	0.17200	-0.22480	0.00989	0.25067
676.000	0.20956	-0.21884	-0.01384	0.25266
677.000	0.19770	-0.16114	-0.01186	0.21884
678.000	0.23724	-0.19297	0.01186	0.25664
679.000	0.19177	-0.21287	-0.02570	0.24271
680.000	0.20561	-0.18899	-0.05338	0.25465
681.000	0.23724	-0.18502	0.03361	0.30438
682.000	0.20165	-0.15517	0.04547	0.27454
683.000	0.23329	-0.14921	0.02175	0.24868
684.000	0.23131	-0.24271	-0.01582	0.28051
685.000	0.25701	-0.20690	0.00989	0.26260
686.000	0.23526	-0.17109	0.01186	0.31035
687.000	0.26096	-0.21883	0.03954	0.27852
688.000	0.29259	-0.17706	-0.02372	0.30836
689.000	0.23724	-0.20690	0.00791	0.25266
690.000	0.34597	-0.20889	0.04152	0.30438
691.000	0.23329	-0.20093	0.00791	0.26260
692.000	0.21747	-0.17308	0.04349	0.30637
693.000	0.24317	-0.19098	-0.00989	0.25664
694.000	0.29062	-0.17706	0.01186	0.24470
695.000	0.25701	-0.16512	0.05338	0.31831
696.000	0.27480	-0.13727	0.04152	0.24868
697.000	0.20956	-0.13926	0.00791	0.24868
698.000	0.23724	-0.17905	0.05140	0.29841
699.000	0.23724	-0.16910	0.03163	0.24470
700.000	0.28271	-0.18899	0.04349	0.26061
701.000	0.25108	-0.15517	0.06524	0.25465
702.000	0.25108	-0.17109	0.00791	0.23077
703.000	0.24317	-0.14523	0.05338	0.27056
704.000	0.27282	-0.14523	0.03361	0.22282
705.000	0.26689	-0.15517	0.01977	0.24072
706.000	0.26096	-0.16313	0.02768	0.23077
707.000	0.28271	-0.14722	0.01186	0.28250
708.000	0.28073	-0.14722	0.03163	0.18900
709.000	0.28073	-0.11936	-0.00198	0.21287
710.000	0.22933	-0.15915	-0.01779	0.23475
711.000	0.27085	-0.09350	0.03361	0.18104
712.000	0.26294	-0.20690	0.04349	0.26061
713.000	0.25503	-0.16512	0.04943	0.21287
714.000	0.24712	-0.15716	0.02175	0.23077
715.000	0.29655	-0.20491	0.07117	0.21486
716.000	0.23922	-0.15517	0.06129	0.19297
717.000	0.22735	-0.18104	0.03361	0.23276
718.000	0.29259	-0.13329	0.02570	0.24669
719.000	0.25503	-0.12135	0.04943	0.22878
720.000	0.28469	-0.17507	-0.00198	0.22878
721.000	0.24119	-0.16512	0.05338	0.22481
722.000	0.30643	-0.13727	-0.00791	0.22878
723.000	0.27085	-0.17507	0.00395	0.20093
724.000	0.29655	-0.17507	0.03756	0.18303
725.000	0.25701	-0.21287	-0.00395	0.22679
726.000	0.29457	-0.15716	0.00395	0.22282
727.000	0.31039	-0.14921	0.01582	0.23276
728.000	0.28666	-0.18899	0.04349	0.23276
729.000	0.29259	-0.15318	0.00198	0.19496
730.000	0.29852	-0.17905	0.01384	0.22282
731.000	0.30643	-0.12931	0.04349	0.20093
732.000	0.33609	-0.16512	0.03361	0.24072
733.000	0.29457	-0.16512	0.00198	0.23475
734.000	0.31632	-0.13528	0.01977	0.22083
735.000	0.31039	-0.19297	0.03163	0.21685
736.000	0.32027	-0.13528	0.00989	0.24868
737.000	0.31039	-0.12135	-0.01582	0.22481
738.000	0.32422	-0.16313	-0.04152	0.26459
739.000	0.30050	-0.15716	0.04745	0.18104
740.000	0.25899	-0.12732	0.01977	0.22679
741.000	0.33016	-0.13329	0.03163	0.21685
742.000	0.31039	-0.11737	-0.01186	0.24669
743.000	0.28666	-0.12931	0.00395	0.24669
744.000	0.27282	-0.11141	-0.01779	0.21088
745.000	0.28666	-0.18303	-0.00791	0.25266
746.000	0.32422	-0.16711	0.03163	0.25266
747.000	0.34399	-0.16114	-0.00395	0.30040
748.000	0.29655	-0.12732	0.03361	0.25465
749.000	0.31236	-0.13528	0.02570	0.22679
750.000	0.32225	-0.16711	0.01582	0.28051
751.000	0.28469	-0.15318	0.00593	0.27454
752.000	0.30446	-0.12533	0.02372	0.23077
753.000	0.33213	-0.18501	-0.00198	0.22679
754.000	0.27282	-0.14523	0.02570	0.23873
755.000	0.27085	-0.19496	-0.00593	0.23674
756.000	0.33411	-0.12732	0.04547	0.22679
757.000	0.30643	-0.16711	0.05931	0.26857
758.000	0.29852	-0.12135	0.00000	0.21486
759.000	0.32818	-0.19894	0.01977	0.24470
760.000	0.27678	-0.16512	0.00000	0.20889
761.000	0.26492	-0.18700	-0.05338	0.26260
762.000	0.32620	-0.16512	-0.01977	0.29046
763.000	0.33609	-0.15318	-0.05733	0.26658
764.000	0.33213	-0.18104	-0.03163	0.24470
765.000	0.36772	-0.14523	-0.03756	0.24470
766.000	0.33213	-0.15716	-0.07908	0.30040
767.000	0.30446	-0.15119	-0.00791	0.26459
768.000	0.34202	-0.14324	-0.01779	0.30239
769.000	0.33411	-0.14920	-0.02175	0.24271
770.000	0.29259	-0.12931	-0.01186	0.25664
771.000	0.29259	-0.19098	-0.02768	0.26260
772.000	0.33609	-0.14920	-0.02966	0.29244
773.000	0.30841	-0.09350	-0.02570	0.23276
774.000	0.27480	-0.15716	0.00000	0.22878
775.000	0.31039	-0.13926	-0.06129	0.24072
776.000	0.29852	-0.15517	-0.00989	0.24072
777.000	0.34004	-0.15318	0.00989	0.22878
778.000	0.35586	-0.18700	-0.05140	0.23475
779.000	0.34795	-0.18700	-0.01384	0.21287
780.000	0.33213	-0.16711	-0.00989	0.21685
781.000	0.34795	-0.15716	0.01779	0.22282
782.000	0.35190	-0.18103	0.03559	0.17706
783.000	0.32027	-0.13528	0.00395	0.26260
784.000	0.32620	-0.14921	-0.00395	0.21486
785.000	0.37365	-0.16711	0.02570	0.22282
786.000	0.28666	-0.09748	0.00000	0.25664
787.000	0.31039	-0.13926	0.02175	0.25863
788.000	0.35190	-0.17507	-0.00198	0.26459
789.000	0.29259	-0.18104	0.00791	0.25266
790.000	0.28271	-0.13130	-0.00198	0.25266
791.000	0.35783	-0.13329	0.03559	0.20093
792.000	0.34202	-0.13130	0.00198	0.21287
793.000	0.32422	-0.08554	-0.03559	0.22878
794.000	0.31829	-0.14125	-0.01779	0.25465
795.000	0.33411	-0.17109	-0.01384	0.23276
796.000	0.33609	-0.15119	-0.01186	0.20491
797.000	0.31236	-0.14324	-0.01779	0.26061
798.000	0.32818	-0.21088	0.00198	0.22481
799.000	0.40133	-0.14523	-0.01186	0.23276
800.000	0.35981	-0.18501	-0.02175	0.25067
801.000	0.33806	-0.22878	0.01384	0.27255
802.000	0.27085	-0.17507	0.01779	0.26857
803.000	0.34399	-0.18302	-0.02570	0.27056
804.000	0.32422	-0.19695	-0.01384	0.27454
805.000	0.36772	-0.15318	-0.00593	0.23873
806.000	0.25503	-0.16313	-0.02966	0.26061
807.000	0.29259	-0.16711	-0.00198	0.24072
808.000	0.37167	-0.12135	-0.02570	0.23475
809.000	0.31829	-0.15119	-0.03163	0.22878
810.000	0.28469	-0.20690	-0.02372	0.27255
811.000	0.34993	-0.17706	-0.01977	0.27255
812.000	0.31632	-0.15915	-0.00593	0.29244
813.000	0.28864	-0.20093	0.01186	0.22083
814.000	0.32818	-0.23674	0.01779	0.20690
815.000	0.27480	-0.19496	-0.00198	0.21884
816.000	0.32620	-0.15119	0.03361	0.26061
817.000	0.32225	-0.21485	-0.01779	0.25465
818.000	0.36574	-0.16910	0.02175	0.27653
819.000	0.33411	-0.19297	-0.01779	0.22878
820.000	0.31829	-0.20292	-0.01582	0.25266
821.000	0.30446	-0.19695	-0.01384	0.29443
822.000	0.30841	-0.15915	-0.05536	0.24868
823.000	0.28666	-0.19098	0.00000	0.24271
824.000	0.32225	-0.20491	0.03163	0.22679
825.000	0.38156	-0.14523	-0.00198	0.24271
826.000	0.27282	-0.14722	-0.00198	0.23276
827.000	0.36179	-0.20292	0.00395	0.29841
828.000	0.37958	-0.16512	0.00593	0.29046
829.000	0.38946	-0.18700	0.04349	0.26658
830.000	0.38946	-0.18501	-0.01582	0.27255
831.000	0.38551	-0.18103	-0.03163	0.26260
832.000	0.40726	-0.15318	0.00791	0.28051
833.000	0.31632	-0.18104	-0.01186	0.29244
834.000	0.33016	-0.18501	0.00000	0.29443
835.000	0.32422	-0.12533	-0.03559	0.22083
836.000	0.34202	-0.15517	-0.02570	0.25465
837.000	0.38946	-0.14920	-0.01186	0.29244
838.000	0.28864	-0.17706	0.01186	0.25465
839.000	0.37167	-0.14721	-0.00593	0.26260
840.000	0.33016	-0.16910	0.01384	0.22481
841.000	0.31434	-0.13130	-0.03163	0.24470
842.000	0.33806	-0.12334	0.00395	0.29642
843.000	0.34202	-0.16512	-0.02768	0.27056
844.000	0.34993	-0.12135	-0.08501	0.29443
845.000	0.37563	-0.12334	-0.06129	0.21088
846.000	0.33213	-0.11141	-0.03954	0.26061
847.000	0.36969	-0.11538	-0.05733	0.26459
848.000	0.30841	-0.10942	-0.02570	0.26459
849.000	0.35190	-0.17905	0.00395	0.26260
850.000	0.29655	-0.13727	-0.00198	0.28449
851.000	0.33411	-0.12135	0.07710	0.26658
852.000	0.45668	-0.09151	0.15025	0.28449
853.000	0.45865	-0.15915	0.25503	0.25862
854.000	0.72947	-0.12930	0.42900	0.34416
855.000	1.02398	-0.15913	0.66820	0.35608
856.000	1.25124	-0.10740	0.86388	0.36203
857.000	1.60491	-0.03580	1.22753	0.39779
858.000	1.90118	-0.10737	1.55749	0.43949
859.000	2.30197	-0.04572	1.94462	0.53285
860.000	2.69267	0.01192	2.24867	0.60033
861.000	3.05749	0.08741	2.59600	0.57235
862.000	3.43783	0.14100	2.88004	0.59804
863.000	3.70960	0.22830	3.18365	0.68129
864.000	3.88871	0.30170	3.45162	0.64140
865.000	4.14643	0.37898	3.64069	0.66906
866.000	4.27031	0.41265	3.81786	0.63121
867.000	4.33518	0.50783	3.86707	0.65499
868.000	4.30766	0.51776	3.84148	0.65700
869.000	4.22116	0.56543	3.80999	0.57763
870.000	4.11496	0.53376	3.62493	0.65120
871.000	3.97923	0.62117	3.47329	0.59373
872.000	3.80015	0.69672	3.32553	0.56204
873.000	3.60524	0.64129	3.15014	0.65748
874.000	3.44177	0.60368	3.01412	0.63571
875.000	3.30189	0.61766	2.83468	0.59608
876.000	3.05947	0.55424	2.75776	0.57426
877.000	2.99244	0.51852	2.68478	0.61205
878.000	2.89187	0.48877	2.59403	0.64985
879.000	2.80707	0.45900	2.49735	0.68766
880.000	2.73607	0.43717	2.50327	0.63201
881.000	2.63546	0.41535	2.51511	0.67771
882.000	2.65322	0.35771	2.53287	0.67572
883.000	2.62757	0.35573	2.51708	0.69758
884.000	2.65913	0.31200	2.50524	0.64990
885.000	2.63349	0.30605	2.56838	0.63993
886.000	2.59798	0.28221	2.56246	0.64788
887.000	2.66900	0.28815	2.56641	0.63993
888.000	2.65519	0.35771	2.54471	0.69359
889.000	2.68675	0.30405	2.59403	0.58626
890.000	2.73409	0.28814	2.56838	0.66974
891.000	2.76960	0.33383	2.60192	0.58427
892.000	2.80116	0.30799	2.66308	0.66174
893.000	2.83074	0.30004	2.67097	0.64385
894.000	2.88793	0.31989	2.70056	0.62396
895.000	2.90173	0.32585	2.72620	0.65972
896.000	2.97272	0.35165	2.70845	0.66966
897.000	2.94709	0.34570	2.75579	0.66963
898.000	3.00032	0.35760	2.76368	0.70341
899.000	2.98061	0.33377	2.78538	0.70339
900.000	3.03187	0.35759	2.80510	0.71530
901.000	3.01807	0.36952	2.77946	0.75704
902.000	3.06144	0.42910	2.80313	0.76298
903.000	3.05749	0.42115	2.79721	0.74312
904.000	3.08509	0.45690	2.79721	0.80272
905.000	3.02201	0.39931	2.85638	0.71726
906.000	3.05947	0.40129	2.84652	0.76494
907.000	3.07327	0.42115	2.89582	0.78279
908.000	3.08706	0.41121	2.81496	0.83251
909.000	3.09298	0.39333	2.89779	0.79073
910.000	3.11269	0.42312	2.86229	0.71924
911.000	3.12846	0.42510	2.86821	0.74308
912.000	3.09101	0.46683	2.90371	0.70928
913.000	3.07524	0.43704	2.86229	0.75500
914.000	3.09101	0.40525	2.90371	0.69537
915.000	3.13437	0.42907	2.86624	0.67950
916.000	3.13437	0.41516	2.86229	0.71924
917.000	3.05749	0.41917	2.86624	0.69738
918.000	3.12255	0.48668	2.85243	0.74706
919.000	3.08706	0.48669	2.85441	0.73315
920.000	3.04369	0.41719	2.85638	0.74904
921.000	3.04567	0.45691	2.85046	0.70137
922.000	3.08115	0.44895	2.86624	0.72321
923.000	3.07721	0.43306	2.85441	0.70732
924.000	3.08115	0.42710	2.91948	0.69139
925.000	3.05552	0.45691	2.93920	0.72515
926.000	3.08904	0.43107	2.85638	0.68944
927.000	3.09101	0.49066	2.88793	0.71922
928.000	3.00426	0.40925	2.85243	0.73117
929.000	3.09692	0.47676	2.85243	0.77289
930.000	3.04369	0.45890	2.88990	0.78478
931.000	3.01412	0.41720	2.87413	0.72519
932.000	2.97863	0.48476	2.83666	0.73714
933.000	3.00032	0.43508	2.87018	0.75698
934.000	3.02398	0.47679	2.83666	0.76296
935.000	3.02989	0.50062	2.87018	0.80863
936.000	3.01609	0.50063	2.86229	0.74109
937.000	2.97075	0.48277	2.85835	0.76891
938.000	3.01412	0.51454	2.89582	0.77683
939.000	3.07721	0.51451	2.91948	0.82449
940.000	2.99244	0.45098	2.89976	0.76093
941.000	3.03975	0.50062	2.91751	0.73510
942.000	3.00624	0.52845	2.92540	0.75694
943.000	2.98455	0.54832	2.91751	0.78476
944.000	2.97666	0.54038	2.94906	0.76090
945.000	3.01807	0.48672	2.92145	0.77085
946.000	2.93526	0.51457	2.99441	0.75888
947.000	2.96089	0.50860	2.97666	0.73109
948.000	2.98061	0.49469	2.94117	0.72714
949.000	2.99244	0.53243	2.91948	0.78873
950.000	2.94511	0.48080	2.97469	0.78273
951.000	2.93920	0.54835	2.98652	0.75492
952.000	2.99244	0.51455	2.96878	0.80856
953.000	3.00426	0.57016	2.97666	0.80657
954.000	3.00426	0.49269	2.96089	0.76884
955.000	2.97666	0.54237	2.99835	0.78669
956.000	2.93723	0.54040	2.95892	0.81850
957.000	2.92934	0.54239	2.99441	0.84628
958.000	2.95300	0.55430	2.99638	0.75888
959.000	2.93131	0.54239	2.99244	0.80854
960.000	2.95300	0.48477	2.97469	0.82445
961.000	2.88004	0.50069	3.02595	0.77277
962.000	2.92737	0.50663	3.00229	0.74696
963.000	2.89976	0.52850	3.00821	0.74894
964.000	2.90173	0.48876	2.98652	0.74300
965.000	2.90765	0.54439	3.04961	0.70124
966.000	2.96878	0.46291	3.06341	0.75486
967.000	2.92934	0.47087	3.07524	0.76677
968.000	2.96089	0.52450	3.08115	0.80649
969.000	2.95497	0.49073	3.07918	0.77273
970.000	2.90765	0.54041	3.09889	0.77668
971.000	2.87018	0.58017	3.06735	0.79856
972.000	2.88596	0.52453	3.07129	0.70917
973.000	2.88399	0.51857	3.06144	0.74890
974.000	2.85835	0.58812	3.07918	0.74095
975.000	2.86427	0.57421	3.05355	0.68733
976.000	2.87018	0.55633	3.07721	0.75088
977.000	2.81693	0.54244	3.07129	0.78465
978.000	2.88201	0.59804	3.10086	0.75881
979.000	2.84257	0.53448	3.12255	0.74688
980.000	2.90568	0.55631	3.09889	0.77867
981.000	2.91948	0.52849	3.08904	0.80450
982.000	2.89582	0.56029	3.14620	0.81240
983.000	2.92934	0.57815	3.12846	0.79652
984.000	2.88990	0.59605	3.07918	0.80848
985.000	2.89779	0.54638	3.13832	0.81638
986.000	2.83666	0.48680	3.12452	0.81639
987.000	2.85441	0.50468	3.15408	0.76473
988.000	2.83468	0.57025	3.12846	0.77666
989.000	2.80510	0.60802	3.16788	0.76670
990.000	2.79524	0.56828	3.14817	0.78261
991.000	2.85441	0.49077	3.16788	0.79054
992.000	2.81693	0.56430	3.15014	0.71905
993.000	2.79524	0.54643	3.18562	0.79449
994.000	2.77749	0.48484	3.20533	0.76469
995.000	2.71831	0.47692	3.18956	0.76272
996.000	2.74987	0.51267	3.17379	0.81238
997.000	2.76368	0.50472	3.20927	0.80639
998.000	2.69662	0.48090	3.18365	0.76471
999.000	2.74001	0.41928	3.19744	0.77661
1000.000	2.72226	0.44910	3.20336	0.80242
1001.000	2.74790	0.47094	3.22504	0.78652
1002.000	2.67294	0.42129	3.20730	0.76866
1003.000	2.70648	0.43718	3.16985	0.83025
1004.000	2.70451	0.45109	3.25263	0.76068
1005.000	2.67492	0.37956	3.22701	0.79645
1006.000	2.68675	0.47097	3.28810	0.75867
1007.000	2.72620	0.44313	3.22306	0.80042
1008.000	2.69464	0.49680	3.21124	0.78256
1009.000	2.71634	0.46499	3.23489	0.81431
1010.000	2.61179	0.44317	3.19547	0.82825
1011.000	2.64927	0.47297	3.18562	0.80840
1012.000	2.62362	0.46106	3.23686	0.80637
1013.000	2.65519	0.42726	3.26445	0.83613
1014.000	2.66308	0.39745	3.22504	0.81035
1015.000	2.64927	0.44117	3.23489	0.86595
1016.000	2.70648	0.48884	3.22701	0.83418
1017.000	2.60981	0.40144	3.22306	0.80241
1018.000	2.60981	0.43920	3.30386	0.79242
1019.000	2.62954	0.37560	3.26642	0.81826
1020.000	2.66111	0.44514	3.26445	0.80039
1021.000	2.60784	0.42330	3.26839	0.78053
1022.000	2.62165	0.44317	3.30583	0.84404
1023.000	2.54076	0.35575	3.30386	0.83809
1024.000	2.58417	0.40344	3.30386	0.85397
1025.000	2.56641	0.38755	3.29401	0.83412
1026.000	2.58614	0.35773	3.27233	0.80237
1027.000	2.65124	0.36367	3.32356	0.81027
1028.000	2.55852	0.36370	3.31962	0.81027
1029.000	2.49143	0.40148	3.30780	0.77454
1030.000	2.54273	0.35178	3.33341	0.80828
1031.000	2.59798	0.36766	3.33144	0.76062
1032.000	2.50919	0.31403	3.34721	0.80231
1033.000	2.51116	0.34185	3.38661	0.80625
1034.000	2.53287	0.36768	3.36297	0.79435
1035.000	2.53879	0.36172	3.36297	0.80627
1036.000	2.44999	0.34584	3.35509	0.84400
1037.000	2.49735	0.34782	3.33736	0.84600
1038.000	2.49932	0.38558	3.32750	0.80232
1039.000	2.52892	0.38358	3.33736	0.83607
1040.000	2.56444	0.38556	3.40828	0.85190
1041.000	2.46972	0.30012	3.40237	0.77447
1042.000	2.50130	0.35577	3.36494	0.77450
1043.000	2.49932	0.36372	3.39449	0.82014
1044.000	2.48354	0.37962	3.41616	0.78835
1045.000	2.54865	0.34780	3.35509	0.81422
1046.000	2.48748	0.35179	3.37085	0.83803
1047.000	2.48354	0.41539	3.38070	0.78044
1048.000	2.48748	0.34186	3.39252	0.86382
1049.000	2.47367	0.40944	3.39843	0.76057
1050.000	2.48748	0.36968	3.38661	0.79235
1051.000	2.42236	0.30411	3.40631	0.77843
1052.000	2.47564	0.34186	3.38858	0.77646
1053.000	2.43420	0.32796	3.38661	0.80823
1054.000	2.48354	0.33590	3.37873	0.76456
1055.000	2.50327	0.35775	3.41025	0.79431
1056.000	2.50919	0.39750	3.40237	0.82808
1057.000	2.36908	0.32996	3.35903	0.77649
1058.000	2.43815	0.31603	3.41813	0.79034
1059.000	2.46972	0.36969	3.44571	0.81613
1060.000	2.48946	0.34981	3.40828	0.83204
1061.000	2.43223	0.38957	3.43192	0.78635
1062.000	2.42631	0.37964	3.39843	0.81219
1063.000	2.46578	0.36770	3.41025	0.77049
1064.000	2.46972	0.35577	3.41616	0.84196
1065.000	2.47762	0.36173	3.43389	0.83996
1066.000	2.38684	0.32797	3.39843	0.85190
1067.000	2.38684	0.29020	3.38070	0.83802
1068.000	2.35921	0.31605	3.46541	0.80022
1069.000	2.44999	0.30609	3.43389	0.85584
1070.000	2.42433	0.33989	3.46935	0.75456
1071.000	2.43223	0.34386	3.44768	0.79031
1072.000	2.39276	0.29020	3.48511	0.78035
1073.000	2.42236	0.33790	3.51859	0.82202
1074.000	2.42236	0.34585	3.53435	0.79223
1075.000	2.38486	0.26834	3.51268	0.78430
1076.000	2.45591	0.39950	3.48708	0.80616
1077.000	2.39276	0.32995	3.52056	0.77834
1078.000	2.41249	0.31206	3.47526	0.84985
1079.000	2.47762	0.34583	3.50874	0.82004
1080.000	2.46380	0.38559	3.48904	0.80418
1081.000	2.38486	0.30412	3.49101	0.88359
1082.000	2.38881	0.38163	3.50086	0.79424
1083.000	2.39276	0.28424	3.49101	0.89947
1084.000	2.46972	0.30807	3.49495	0.85976
1085.000	2.38684	0.30809	3.46147	0.91538
1086.000	2.38092	0.33393	3.46935	0.81412
1087.000	2.42828	0.29019	3.47526	0.84787
1088.000	2.40460	0.40151	3.53435	0.84781
1089.000	2.35921	0.23257	3.47723	0.82205
1090.000	2.34539	0.30810	3.48314	0.86374
1091.000	2.35921	0.30611	3.48511	0.89352
1092.000	2.36710	0.31605	3.48708	0.86572
1093.000	2.37894	0.30809	3.44768	0.85186
1094.000	2.39868	0.30014	3.55010	0.84383
1095.000	2.36118	0.27828	3.55404	0.88750
1096.000	2.34539	0.27232	3.51071	0.89746
1097.000	2.30986	0.33196	3.51859	0.85378
1098.000	2.32368	0.33991	3.49495	0.86770
1099.000	2.29013	0.32998	3.49101	0.81807
1100.000	2.20327	0.30416	3.46935	0.83596
1101.000	2.13812	0.33995	3.36888	0.87973
1102.000	2.06705	0.36979	3.30977	0.92148
1103.000	1.95647	0.39964	3.26642	0.92152
1104.000	1.97819	0.44735	3.17774	0.93351
1105.000	1.89130	0.48713	3.10283	0.89982
1106.000	1.78268	0.42354	3.06932	0.92964
1107.000	1.68392	0.39174	3.01609	0.95550
1108.000	1.67009	0.46930	2.95300	0.99727
1109.000	1.56342	0.43750	2.94314	0.98338
1110.000	1.50613	0.37189	2.89385	1.07280
1111.000	1.49428	0.45144	2.86032	1.07085
1112.000	1.58318	0.38580	2.90371	1.07279
1113.000	1.49625	0.41167	2.83468	1.15032
1114.000	1.56737	0.39574	2.90568	1.13635
1115.000	1.64639	0.44942	2.92145	1.10257
1116.000	1.64244	0.39971	2.95695	1.04493
1117.000	1.73923	0.34998	2.96286	1.07869
1118.000	1.71948	0.38179	3.02201	1.03097
1119.000	1.71553	0.32612	3.02004	1.08261
1120.000	1.67404	0.30624	3.03581	1.07266
1121.000	1.84193	0.40762	3.07129	1.09646
1122.000	1.80243	0.34599	3.08115	1.04482
1123.000	1.81823	0.39569	3.07721	1.05078
1124.000	1.79256	0.34997	3.06144	1.05476
1125.000	1.83996	0.36586	3.05355	1.03491
1126.000	1.77873	0.33008	3.09692	1.11033
1127.000	1.80243	0.36786	3.09495	1.11629
1128.000	1.72343	0.32015	3.07918	1.09049
1129.000	1.77478	0.35593	3.15605	1.04276
1130.000	1.77281	0.37781	3.17379	1.05267
1131.000	1.74713	0.33208	3.17182	1.09834
1132.000	1.72145	0.34004	3.13634	1.06660
1133.000	1.67404	0.36788	3.06538	1.08455
1134.000	1.77873	0.38974	3.12255	1.05867
1135.000	1.74515	0.31418	3.10875	1.13018
1136.000	1.71355	0.34401	3.11663	1.10634
1137.000	1.73330	0.40366	3.12649	1.07654
1138.000	1.67997	0.38379	3.13437	1.05271
1139.000	1.76688	0.38974	3.08509	1.09644
1140.000	1.68985	0.40566	3.07129	1.07263
1141.000	1.73133	0.38776	3.05947	1.10441
1142.000	1.70565	0.41560	3.08706	1.08254
1143.000	1.69577	0.34799	3.09101	1.11034
1144.000	1.69972	0.40566	3.05158	1.12031
1145.000	1.71553	0.39969	3.07524	1.11234
1146.000	1.67800	0.42157	3.08904	1.12623
1147.000	1.72738	0.40565	3.08509	1.08254
1148.000	1.73330	0.46928	3.10283	1.06664
1149.000	1.73725	0.48320	3.12846	1.09441
1150.000	1.74910	0.50308	3.12846	1.14207
1151.000	1.64046	0.46533	3.10678	1.09046
1152.000	1.77676	0.37781	3.09889	1.09246
1153.000	1.75305	0.40366	3.07918	1.11829
1154.000	1.77083	0.40564	3.11860	1.08251
1155.000	1.67404	0.43549	3.13437	1.10632
1156.000	1.78071	0.43547	3.08904	1.08254
1157.000	1.75503	0.44343	3.13240	1.11029
1158.000	1.78268	0.39172	3.10086	1.10040
1159.000	1.69972	0.42753	3.08706	1.10240
1160.000	1.71355	0.40765	3.07327	1.06071
1161.000	1.69775	0.43151	3.07524	1.13816
1162.000	1.66614	0.43549	3.12846	1.08647
1163.000	1.65429	0.44942	3.13240	1.07654
1164.000	1.75108	0.42951	3.11466	1.11428
1165.000	1.75108	0.39571	3.11466	1.09244
1166.000	1.67207	0.42953	3.07129	1.06866
1167.000	1.75898	0.44343	3.11269	1.09443
1168.000	1.77281	0.44143	3.09692	1.08650
1169.000	1.72343	0.43548	3.10283	1.07260
1170.000	1.67997	0.39373	3.10678	1.11826
1171.000	1.73330	0.46332	3.11860	1.12222
1172.000	1.69380	0.50309	3.08904	1.15006
1173.000	1.72145	0.45934	3.10086	1.14806
1174.000	1.69972	0.45935	3.09101	1.11431
1175.000	1.69380	0.48918	3.11269	1.13216
1176.000	1.75108	0.47922	3.12846	1.18575
1177.000	1.70170	0.45338	3.09889	1.10040
1178.000	1.68590	0.44742	3.12452	1.12817
1179.000	1.67602	0.49713	3.04567	1.09847
1180.000	1.64837	0.50112	3.11269	1.08053
1181.000	1.67602	0.43748	3.09298	1.12821
1182.000	1.68590	0.46134	3.15211	1.11027
1183.000	1.64639	0.42953	3.12846	1.14207
1184.000	1.67997	0.41163	3.14226	1.15397
1185.000	1.69380	0.43549	3.14029	1.09043
1186.000	1.71158	0.44543	3.13240	1.12419
1187.000	1.72145	0.40566	3.15605	1.10233
1188.000	1.70170	0.43350	3.07327	1.16596
1189.000	1.65429	0.38380	3.11269	1.11826
1190.000	1.70367	0.38180	3.11860	1.11229
1191.000	1.66022	0.37584	3.08706	1.13814
1192.000	1.67207	0.44544	3.13240	1.09242
1193.000	1.68590	0.43151	3.15408	1.12219
1194.000	1.71553	0.38577	3.16394	1.09239
1195.000	1.68590	0.38975	3.11663	1.12421
1196.000	1.65429	0.43351	3.15014	1.10432
1197.000	1.67602	0.43549	3.11663	1.11627
1198.000	1.77281	0.48916	3.14620	1.13808
1199.000	1.81428	0.46926	3.13437	1.10036
1200.000	1.66614	0.49912	3.15014	1.09042
1201.000	1.72145	0.48917	3.18759	1.13406
1202.000	1.72935	0.48917	3.15014	1.08843
1203.000	1.67207	0.46930	3.10086	1.14409
1204.000	1.67602	0.41561	3.15803	1.15991
1205.000	1.58910	0.43949	3.19350	1.10229
1206.000	1.68787	0.50310	3.15014	1.16389
1207.000	1.74713	0.41360	3.20927	1.14198
1208.000	1.64441	0.42953	3.19744	1.13207
1209.000	1.69380	0.50111	3.15605	1.16984
1210.000	1.74910	0.46331	3.16788	1.15990
1211.000	1.70170	0.39572	3.17774	1.11025
1212.000	1.73528	0.45337	3.12846	1.14406
1213.000	1.71750	0.47525	3.16985	1.14798
1214.000	1.64046	0.37584	3.13043	1.12221
1215.000	1.67602	0.42157	3.16985	1.15791
1216.000	1.71158	0.47525	3.17576	1.12812
1217.000	1.66022	0.44941	3.19744	1.06654
1218.000	1.81428	0.39967	3.25657	1.12803
1219.000	1.73725	0.32810	3.27036	1.06646
1220.000	1.92290	0.32012	3.41222	0.97300
1221.000	1.92290	0.27041	3.47920	0.84191
1222.000	2.01374	0.09742	3.59540	0.79614
1223.000	2.18353	-0.07952	3.75094	0.60347
1224.000	2.26644	-0.29818	3.98119	0.44852
1225.000	2.45196	-0.49292	4.21919	0.24800
1226.000	2.54865	-0.77109	4.34108	0.03571
1227.000	2.59008	-0.94592	4.51205	-0.12296
1228.000	2.80116	-1.12652	4.54349	-0.36093
1229.000	2.79129	-1.37281	4.70455	-0.49964
1230.000	2.82088	-1.45022	4.71830	-0.72959
1231.000	2.82088	-1.62892	4.71241	-0.91197
1232.000	2.75382	-1.80770	4.71437	-1.16765
1233.000	2.75382	-1.99031	4.71830	-1.29448
1234.000	2.74396	-2.10147	4.77720	-1.33994
1235.000	2.81299	-2.25214	4.66331	-1.37385
1236.000	2.87413	-2.26591	4.66135	-1.45709
1237.000	2.94709	-2.25981	4.69473	-1.45900
1238.000	3.02004	-2.22197	4.74579	-1.54805
1239.000	3.08904	-2.28134	4.77131	-1.47865
1240.000	3.14423	-2.28320	4.78113	-1.46674
1241.000	3.28218	-2.24918	4.76738	-1.45092
1242.000	3.42601	-2.32023	4.88124	-1.45464
1243.000	3.44965	-2.35189	4.98917	-1.48609
1244.000	3.74306	-2.31348	5.05391	-1.45624
1245.000	3.70960	-2.37897	5.11864	-1.50956
1246.000	3.79031	-2.42036	5.19316	-1.51532
1247.000	3.84148	-2.36276	5.19904	-1.46185
1248.000	3.84148	-2.39446	5.16178	-1.45005
1249.000	3.85132	-2.30328	5.19708	-1.41433
1250.000	3.78834	-2.36885	5.18139	-1.36882
1251.000	3.80802	-2.20231	5.04410	-1.26414
1252.000	3.74306	-2.15490	5.06568	-1.26608
1253.000	3.69778	-2.14907	4.97347	-1.29597
1254.000	3.68006	-2.04006	5.05195	-1.18687
1255.000	3.74109	-2.02406	4.96955	-1.13948
1256.000	3.58555	-1.98277	4.98132	-1.14540
1257.000	3.60130	-1.93315	4.93030	-1.14152
1258.000	3.71353	-1.88928	4.94011	-1.12764
1259.000	3.66431	-1.91913	4.95385	-1.08601
1260.000	3.62887	-1.93904	4.98917	-1.10774
1261.000	3.62887	-2.01440	4.99113	-1.13944
1262.000	3.62887	-1.92318	4.96759	-1.09787
1263.000	3.69188	-2.00038	4.96366	-1.12166
1264.000	3.64462	-2.05601	5.04410	-1.22650
1265.000	3.63084	-2.06397	5.03822	-1.16709
1266.000	3.62099	-2.15520	5.01075	-1.20280
1267.000	3.61706	-2.14926	4.99113	-1.25632
1268.000	3.65644	-2.12934	4.99898	-1.32960
1269.000	3.65447	-2.25226	5.02645	-1.27804
1270.000	3.68006	-2.23039	5.03037	-1.34934
1271.000	3.65644	-2.24829	5.04802	-1.33148
1272.000	3.67022	-2.31565	5.02841	-1.25823
1273.000	3.60918	-2.24048	5.01860	-1.32361
1274.000	3.71156	-2.23824	5.01860	-1.32956
1275.000	3.66825	-2.26808	5.06176	-1.33343
1276.000	3.73322	-2.33332	5.04802	-1.37505
1277.000	3.71156	-2.25806	5.04606	-1.38694
1278.000	3.66825	-2.33944	5.07353	-1.34133
1279.000	3.65447	-2.32957	5.07353	-1.36707
1280.000	3.67219	-2.34934	5.01860	-1.34738
1281.000	3.67022	-2.28592	5.09314	-1.38486
1282.000	3.67810	-2.40482	5.05979	-1.33145
1283.000	3.66038	-2.32162	5.04410	-1.37902
1284.000	3.69581	-2.24621	5.05587	-1.34532
1285.000	3.71156	-2.32743	5.08529	-1.33338
1286.000	3.72338	-2.30560	5.02252	-1.29191
1287.000	3.68203	-2.27003	5.04214	-1.29584
1288.000	3.74700	-2.29365	5.03822	-1.28396
1289.000	3.67810	-2.26013	5.02252	-1.29786
1290.000	3.69581	-2.25810	5.01271	-1.27609
1291.000	3.68991	-2.26406	4.99898	-1.30186
1292.000	3.67022	-2.31565	5.05587	-1.31165
1293.000	3.65841	-2.28595	4.98917	-1.27217
1294.000	3.74109	-2.28177	5.02448	-1.27012
1295.000	3.74109	-2.29168	5.07156	-1.31756
1296.000	3.76078	-2.37289	5.03037	-1.37311
1297.000	3.76472	-2.29558	5.03822	-1.25821
1298.000	3.73322	-2.27386	5.07941	-1.29378
1299.000	3.75881	-2.30749	5.07549	-1.26606
1300.000	3.80999	-2.27961	5.08137	-1.30566
1301.000	3.70566	-2.26997	5.05391	-1.30572
1302.000	3.80212	-2.23206	5.08137	-1.28585
1303.000	3.82770	-2.23199	5.04410	-1.27008
1304.000	3.75487	-2.23813	5.08529	-1.33140
1305.000	3.77062	-2.30746	5.05783	-1.32551
1306.000	3.72928	-2.26594	5.02645	-1.26417
1307.000	3.76669	-2.26387	5.02841	-1.28200
1308.000	3.73716	-2.22430	5.11472	-1.30757
1309.000	3.73913	-2.26592	5.03037	-1.23644
1310.000	3.70172	-2.26800	5.04214	-1.28791
1311.000	3.81393	-2.24987	5.04802	-1.27404
1312.000	3.72338	-2.31155	5.01271	-1.21072
1313.000	3.75881	-2.28371	5.02841	-1.26417
1314.000	3.85329	-2.25967	5.04214	-1.27603
1315.000	3.75684	-2.26191	5.08137	-1.27793
1316.000	3.76865	-2.32530	5.02841	-1.29586
1317.000	3.78440	-2.22616	5.05783	-1.33938
1318.000	3.79227	-2.24794	5.06372	-1.31362
1319.000	3.78637	-2.21228	5.04018	-1.27603
1320.000	3.77456	-2.25790	5.06568	-1.32154
1321.000	3.78637	-2.26381	5.10295	-1.32146
1322.000	3.73716	-2.24214	5.06176	-1.28391
1323.000	3.69581	-2.23233	5.09118	-1.32743
1324.000	3.76078	-2.31541	5.07156	-1.35718
1325.000	3.73519	-2.31746	5.06764	-1.36114
1326.000	3.72731	-2.35712	5.06568	-1.36709
1327.000	3.67022	-2.32952	5.13237	-1.29565
1328.000	3.76669	-2.28963	5.11275	-1.38481
1329.000	3.80212	-2.32521	5.10099	-1.32939
1330.000	3.71747	-2.27787	5.09314	-1.37099
1331.000	3.76865	-2.32134	5.12256	-1.35905
1332.000	3.70172	-2.28782	5.12060	-1.31746
1333.000	3.72535	-2.34325	5.12648	-1.32141
1334.000	3.72141	-2.31353	5.10687	-1.30363
1335.000	3.68400	-2.33543	5.10491	-1.34720
1336.000	3.77062	-2.26782	5.06568	-1.26410
1337.000	3.73322	-2.35711	5.10883	-1.39472
1338.000	3.72928	-2.28576	5.11079	-1.39472
1339.000	3.80212	-2.27368	5.11668	-1.31351
1340.000	3.78440	-2.28364	5.09706	-1.35118
1341.000	3.83164	-2.30730	5.05979	-1.32551
1342.000	3.81786	-2.22013	5.10491	-1.31750
1343.000	3.82180	-2.24985	5.10883	-1.33333
1344.000	3.84148	-2.36276	5.10687	-1.35908
1345.000	3.73519	-2.20646	5.15786	-1.37481
1346.000	3.72928	-2.31946	5.13433	-1.33724
1347.000	3.76078	-2.27775	5.06176	-1.33541
1348.000	3.74700	-2.29959	5.13825	-1.36694
1349.000	3.77456	-2.29556	5.15002	-1.36295
1350.000	3.77456	-2.34907	5.05979	-1.27996
1351.000	3.73913	-2.31349	5.14021	-1.37287
1352.000	3.78046	-2.31140	5.10883	-1.35710
1353.000	3.74109	-2.34717	5.15590	-1.38076
1354.000	3.77850	-2.27771	5.11864	-1.33529
1355.000	3.80408	-2.30142	5.14806	-1.32929
1356.000	3.83164	-2.23198	5.05195	-1.33741
1357.000	3.84148	-2.26169	5.14413	-1.41841
1358.000	3.80999	-2.32519	5.12060	-1.32539
1359.000	3.77850	-2.28564	5.15198	-1.38077
1360.000	3.79227	-2.25389	5.16374	-1.35500
1361.000	3.81196	-2.27762	5.14609	-1.38276
1362.000	3.74897	-2.32535	5.14806	-1.33919
1363.000	3.76078	-2.33721	5.13629	-1.39268
1364.000	3.78637	-2.36885	5.19904	-1.42027
1365.000	3.74503	-2.34716	5.09314	-1.33931
1366.000	3.70566	-2.34331	5.19904	-1.39849
1367.000	3.76472	-2.27973	5.15786	-1.36491
1368.000	3.71156	-2.27986	5.13629	-1.39070
1369.000	3.75291	-2.35903	5.13433	-1.36892
1370.000	3.74503	-2.25005	5.14217	-1.43624
1371.000	3.71156	-2.31951	5.14609	-1.37088
1372.000	3.83361	-2.27162	5.17551	-1.36884
1373.000	3.83754	-2.19035	5.17747	-1.34507
1374.000	3.70369	-2.34133	5.15002	-1.39067
1375.000	3.75487	-2.30354	5.11668	-1.36698
1376.000	3.76865	-2.34710	5.14609	-1.34316
1377.000	3.78440	-2.33517	5.14217	-1.38277
1378.000	3.80802	-2.23403	5.16374	-1.35896
1379.000	3.70960	-2.32744	5.19316	-1.40048
1380.000	3.78243	-2.30148	5.18531	-1.35891
1381.000	3.76669	-2.24603	5.14217	-1.37683
1382.000	3.74503	-2.24608	5.15786	-1.36095
1383.000	3.77062	-2.26782	5.15002	-1.30948
1384.000	3.71156	-2.30960	5.17943	-1.33516
1385.000	3.79818	-2.24396	5.14021	-1.37485
1386.000	3.87100	-2.30323	5.10099	-1.35117
1387.000	3.76865	-2.21827	5.14413	-1.30751
1388.000	3.77259	-2.28763	5.14021	-1.39862
1389.000	3.80212	-2.31332	5.15198	-1.39067
1390.000	3.80212	-2.24197	5.15786	-1.37679
1391.000	3.79227	-2.27173	5.14217	-1.37287
1392.000	3.70960	-2.26005	5.20884	-1.34500
1393.000	3.80802	-2.25979	5.16767	-1.36291
1394.000	3.76669	-2.32927	5.11275	-1.31946
1395.000	3.77850	-2.33518	5.13825	-1.34911
1396.000	3.80015	-2.28360	5.14021	-1.34119
1397.000	3.78637	-2.35300	5.18924	-1.36683
1398.000	3.85723	-2.23984	5.15198	-1.39463
1399.000	3.77850	-2.31536	5.13629	-1.39862
1400.000	3.70960	-2.26401	5.14609	-1.27384
1401.000	3.72928	-2.32342	5.18531	-1.38664
1402.000	3.74897	-2.27382	5.17943	-1.31932
1403.000	3.70566	-2.30168	5.15590	-1.29561
1404.000	3.78834	-2.31732	5.16374	-1.32728
1405.000	3.75684	-2.26785	5.17355	-1.38666
1406.000	3.78243	-2.26977	5.17159	-1.25003
1407.000	3.83951	-2.30926	5.12452	-1.35112
1408.000	3.76865	-2.26782	5.15198	-1.24016
1409.000	3.81393	-2.28554	5.13433	-1.33130
1410.000	3.80605	-2.28556	5.11275	-1.26797
1411.000	3.74897	-2.36301	5.15786	-1.34907
1412.000	3.74897	-2.34914	5.19512	-1.40642
1413.000	3.69778	-2.33936	5.15590	-1.35304
1414.000	3.74306	-2.31744	5.14413	-1.38475
1415.000	3.80999	-2.24393	5.19904	-1.31532
1416.000	3.77456	-2.24997	5.20688	-1.39847
1417.000	3.73716	-2.27980	5.20492	-1.39451
1418.000	3.74306	-2.30555	5.18335	-1.37674
1419.000	3.73913	-2.30952	5.19708	-1.33909
1420.000	3.70172	-2.28187	5.20492	-1.30145
1421.000	3.73125	-2.29963	5.16963	-1.31934
1422.000	3.78243	-2.27968	5.18728	-1.31534
1423.000	3.65841	-2.33154	5.17355	-1.28567
1424.000	3.77259	-2.28565	5.14806	-1.30552
1425.000	3.80212	-2.24792	5.16767	-1.32331
1426.000	3.71353	-2.32545	5.17355	-1.29161
1427.000	3.79818	-2.24396	5.15394	-1.27779
1428.000	3.82377	-2.28353	5.11079	-1.25807
1429.000	3.83951	-2.30529	5.19708	-1.31334
1430.000	3.79031	-2.28759	5.15198	-1.27977
1431.000	3.82574	-2.25776	5.19512	-1.32523
1432.000	3.90249	-2.28332	5.15198	-1.31542
1433.000	3.86313	-2.27947	5.22845	-1.36080
1434.000	3.91823	-2.16437	5.19904	-1.28364
1435.000	3.86707	-2.23189	5.20492	-1.32323
1436.000	3.85329	-2.24184	5.13433	-1.30753
1437.000	3.84935	-2.26365	5.18728	-1.31138
1438.000	3.80015	-2.19639	5.15590	-1.27184
1439.000	3.90052	-2.18027	5.15002	-1.29364
1440.000	3.80605	-2.26574	5.17355	-1.27577
1441.000	3.85329	-2.16454	5.19904	-1.27572
1442.000	3.86903	-2.21405	5.15394	-1.30749
1443.000	3.88281	-2.28932	5.21865	-1.26577
1444.000	3.82967	-2.25379	5.17355	-1.29557
1445.000	3.82574	-2.24785	5.18139	-1.26189
1446.000	3.81786	-2.16265	5.20492	-1.33313
1447.000	3.83754	-2.21017	5.22257	-1.25983
1448.000	3.87691	-2.18033	5.22845	-1.31922
1449.000	3.85329	-2.15066	5.24609	-1.30136
1450.000	3.78637	-2.30543	5.24021	-1.33701
1451.000	3.91233	-2.16835	5.23041	-1.28555
1452.000	3.87494	-2.18629	5.23041	-1.26377
1453.000	3.80802	-2.25583	5.21669	-1.33112
1454.000	3.85919	-2.25173	5.18924	-1.31732
1455.000	3.90249	-2.27341	5.18531	-1.27574
1456.000	3.85526	-2.22003	5.18924	-1.21236
1457.000	3.84739	-2.23392	5.23041	-1.28555
1458.000	3.85526	-2.22201	5.20688	-1.38659
1459.000	3.85723	-2.20219	5.25394	-1.31323
1460.000	3.85132	-2.15860	5.26766	-1.36665
1461.000	3.89265	-2.20408	5.23825	-1.30138
1462.000	3.85329	-2.25967	5.22845	-1.35288
1463.000	3.86903	-2.16846	5.25394	-1.30332
1464.000	3.85526	-2.23985	5.21669	-1.34499
1465.000	3.87494	-2.16448	5.18139	-1.30150
1466.000	3.86116	-2.16650	5.21080	-1.35094
1467.000	3.87691	-2.23979	5.24021	-1.27167
1468.000	3.86116	-2.23785	5.20296	-1.34303
1469.000	3.84345	-2.23988	5.28530	-1.33494
1470.000	3.79424	-2.23208	5.28530	-1.36068
1471.000	3.91626	-2.14456	5.27550	-1.34684
1472.000	3.79621	-2.29154	5.26178	-1.40033
1473.000	3.83361	-2.21018	5.28530	-1.37058
1474.000	3.85919	-2.22993	5.30686	-1.34281
1475.000	3.84739	-2.19230	5.31274	-1.33290
1476.000	3.84935	-2.24185	5.29314	-1.30720
1477.000	3.77456	-2.23015	5.25394	-1.34887
1478.000	3.76472	-2.26982	5.26766	-1.33102
1479.000	3.84935	-2.21410	5.33038	-1.33286
1480.000	3.80212	-2.28161	5.26962	-1.33299
1481.000	3.82180	-2.24192	5.28334	-1.33890
1482.000	3.80212	-2.28359	5.27354	-1.33496
1483.000	3.80802	-2.20033	5.23825	-1.25187
1484.000	3.80212	-2.24395	5.22257	-1.29151
1485.000	3.79621	-2.21622	5.26374	-1.33498
1486.000	3.75487	-2.23615	5.21865	-1.33112
1487.000	3.67810	-2.33545	5.16963	-1.35103
1488.000	3.61903	-2.18692	5.04018	-1.26811
1489.000	3.37479	-2.16171	5.02056	-1.32955
1490.000	3.23686	-1.97555	4.78702	-1.30228
1491.000	3.07129	-2.05523	4.64563	-1.33821
1492.000	2.79721	-1.87909	4.36663	-1.18209
1493.000	2.40657	-1.68705	4.09529	-0.91074
1494.000	2.19143	-1.45886	3.80408	-0.74038
1495.000	1.83601	-1.38367	3.49889	-0.55996
1496.000	1.57330	-1.07178	3.28415	-0.38928
1497.000	1.38166	-0.84918	2.99441	-0.19072
1498.000	1.11094	-0.58476	2.77749	0.00994
1499.000	0.85598	-0.44955	2.56641	0.18086
1500.000	0.68006	-0.25264	2.38881	0.36772
1501.000	0.55750	0.00796	2.23880	0.57449
1502.000	0.39737	0.05570	2.10061	0.75543
1503.000	0.37760	0.33819	1.98214	0.89663
1504.000	0.20165	0.34616	1.90118	1.01792
1505.000	-0.03954	0.31632	1.81231	1.11140
1506.000	-0.17002	0.27255	1.76293	1.03788
1507.000	-0.20165	0.34218	1.61083	1.02603
1508.000	-0.34004	0.34615	1.52391	1.06385
1509.000	-0.49819	0.37797	1.38363	0.98836
1510.000	-0.53773	0.45953	1.26112	0.95063
1511.000	-0.86586	0.29042	1.10698	0.91887
1512.000	-0.90737	0.37595	1.05362	0.84133
1513.000	-1.16627	0.36598	0.77691	0.79764
1514.000	-1.21963	0.33415	0.66227	0.81954
1515.000	-1.49032	0.33610	0.52784	0.83149
1516.000	-1.56737	0.38381	0.44679	0.82553
1517.000	-1.64441	0.45538	0.39737	0.78377
1518.000	-1.78071	0.42950	0.33411	0.81759
1519.000	-1.79848	0.31616	0.29259	0.87129
1520.000	-1.88538	0.47720	0.35586	0.87129
1521.000	-1.75108	0.38775	0.33213	0.90709
1522.000	-1.74713	0.46331	0.35388	0.95482
1523.000	-1.83798	0.36586	0.42702	1.00652
1524.000	-1.57923	0.50312	0.45470	1.00851
1525.000	-1.56935	0.45938	0.50808	1.00253
1526.000	-1.54169	0.59262	0.60889	1.04229
1527.000	-1.49032	0.45741	0.58517	1.11587
1528.000	-1.43896	0.47333	0.61680	1.09598
1529.000	-1.39746	0.49720	0.67017	1.11387
1530.000	-1.37573	0.48129	0.65634	1.09001
1531.000	-1.27298	0.45944	0.62075	1.03235
1532.000	-1.48242	0.47928	0.60889	1.11587
1533.000	-1.36585	0.49323	0.58913	1.10593
1534.000	-1.41129	0.49322	0.52587	1.06617
1535.000	-1.48242	0.49718	0.51598	1.07810
1536.000	-1.52193	0.56677	0.50808	1.10396
1537.000	-1.45476	0.46736	0.39935	1.06420
1538.000	-1.47254	0.66422	0.39737	1.10994
1539.000	-1.50020	0.61251	0.41714	1.13977
1540.000	-1.46464	0.66025	0.33609	1.13978
1541.000	-1.56935	0.54091	0.36179	1.10199
1542.000	-1.59700	0.60851	0.32027	1.13779
1543.000	-1.52391	0.56876	0.32422	1.14574
1544.000	-1.56935	0.60056	0.31236	1.18353
1545.000	-1.58120	0.65425	0.29259	1.17359
1546.000	-1.60886	0.69401	0.27480	1.12586
1547.000	-1.63849	0.62241	0.27085	1.15569
1548.000	-1.68392	0.59854	0.31039	1.21336
1549.000	-1.72935	0.61046	0.26689	1.20143
1550.000	-1.56540	0.69800	0.28666	1.21734
1551.000	-1.68392	0.65024	0.24515	1.18751
1552.000	-1.63849	0.72780	0.31632	1.20143
1553.000	-1.61676	0.60254	0.24119	1.25512
1554.000	-1.71355	0.59257	0.31039	1.21137
1555.000	-1.68590	0.72579	0.27876	1.27898
1556.000	-1.69577	0.70392	0.25899	1.27699
1557.000	-1.64639	0.71785	0.28864	1.22131
1558.000	-1.59305	0.67810	0.25305	1.25910
1559.000	-1.62861	0.67412	0.29852	1.20540
1560.000	-1.54959	0.66022	0.27678	1.22529
1561.000	-1.64639	0.68007	0.22735	1.26705
1562.000	-1.67207	0.59854	0.23922	1.24120
1563.000	-1.57527	0.69004	0.28864	1.28892
1564.000	-1.57527	0.70794	0.23131	1.31080
1565.000	-1.61873	0.70991	0.24712	1.30682
1566.000	-1.56145	0.71987	0.28271	1.26705
1567.000	-1.61676	0.67014	0.25503	1.24717
1568.000	-1.71553	0.69794	0.30050	1.20540
1569.000	-1.69182	0.65222	0.27282	1.21336
1570.000	-1.49428	0.74177	0.26689	1.24717
1571.000	-1.66022	0.66416	0.24515	1.27501
1572.000	-1.64441	0.62838	0.27085	1.26705
1573.000	-1.73725	0.64227	0.30248	1.24716
1574.000	-1.67207	0.65422	0.26492	1.24120
1575.000	-1.60886	0.63435	0.31829	1.27699
1576.000	-1.60688	0.66020	0.25503	1.29688
1577.000	-1.59503	0.62839	0.26294	1.24319
1578.000	-1.65034	0.68405	0.25108	1.24518
1579.000	-1.58318	0.67413	0.27480	1.31278
1580.000	-1.67404	0.65621	0.24515	1.27700
1581.000	-1.68985	0.66415	0.26096	1.26307
1582.000	-1.61281	0.70395	0.28864	1.22529
1583.000	-1.63059	0.68604	0.22735	1.21138
1584.000	-1.59503	0.69003	0.20165	1.27103
1585.000	-1.72343	0.61642	0.27085	1.23921
1586.000	-1.65824	0.61445	0.23526	1.29489
1587.000	-1.66219	0.68206	0.22735	1.23325
1588.000	-1.60688	0.59459	0.26294	1.27898
1589.000	-1.67602	0.65422	0.32818	1.20739
1590.000	-1.67207	0.58463	0.27282	1.23325
1591.000	-1.64046	0.69598	0.28666	1.24518
1592.000	-1.79256	0.64821	0.27678	1.20541
1593.000	-1.59700	0.66021	0.28666	1.25114
1594.000	-1.70762	0.68801	0.24119	1.23723
1595.000	-1.69577	0.64029	0.24712	1.21138
1596.000	-1.58318	0.65822	0.19572	1.26308
1597.000	-1.54367	0.69602	0.26096	1.25711
1598.000	-1.68590	0.56076	0.23131	1.23922
1599.000	-1.67207	0.68007	0.26294	1.26506
1600.000	-1.66614	0.64627	0.18584	1.25513
1601.000	-1.54762	0.70993	0.20165	1.29092
1602.000	-1.61873	0.68207	0.24712	1.24518
1603.000	-1.61676	0.69201	0.27085	1.25313
1604.000	-1.68195	0.72778	0.26294	1.25910
1605.000	-1.74910	0.67805	0.25701	1.27898
1606.000	-1.73133	0.67806	0.27876	1.20143
1607.000	-1.70170	0.63432	0.22735	1.21337
1608.000	-1.72145	0.61642	0.22933	1.27302
1609.000	-1.72540	0.59455	0.25305	1.22132
1610.000	-1.77281	0.58062	0.22340	1.23126
1611.000	-1.67009	0.65422	0.21945	1.20939
1612.000	-1.77676	0.61839	0.22340	1.28694
1613.000	-1.62269	0.64429	0.18979	1.23524
1614.000	-1.68392	0.65819	0.26096	1.24120
1615.000	-1.69577	0.64228	0.27876	1.23722
1616.000	-1.62071	0.56277	0.24119	1.23921
1617.000	-1.69577	0.69994	0.23724	1.25512
1618.000	-1.72343	0.59654	0.20561	1.28694
1619.000	-1.57725	0.78150	0.25503	1.29091
1620.000	-1.56342	0.70396	0.26294	1.28694
1621.000	-1.67009	0.65819	0.24515	1.29091
1622.000	-1.71750	0.61841	0.20363	1.26308
1623.000	-1.65824	0.59855	0.19177	1.26109
1624.000	-1.65824	0.64229	0.14432	1.29092
1625.000	-1.72738	0.68203	0.21945	1.25512
1626.000	-1.63651	0.72979	0.22933	1.21535
1627.000	-1.69577	0.64228	0.20165	1.24320
1628.000	-1.67404	0.69597	0.21747	1.24121
1629.000	-1.73330	0.56671	0.28073	1.26506
1630.000	-1.70762	0.62637	0.22142	1.31875
1631.000	-1.66219	0.58860	0.26492	1.20938
1632.000	-1.71948	0.70590	0.26492	1.25512
1633.000	-1.56540	0.59858	0.21945	1.26706
1634.000	-1.71158	0.69397	0.24712	1.24319
1635.000	-1.67207	0.64626	0.23526	1.23325
1636.000	-1.77676	0.58857	0.25305	1.24916
1637.000	-1.64046	0.69399	0.20561	1.32074
1638.000	-1.60688	0.64032	0.20363	1.19149
1639.000	-1.61478	0.66816	0.22735	1.23922
1640.000	-1.66219	0.71785	0.20165	1.32870
1641.000	-1.67997	0.72182	0.23131	1.26109
1642.000	-1.61873	0.74968	0.23526	1.26507
1643.000	-1.70170	0.60251	0.19770	1.25711
1644.000	-1.69182	0.61842	0.21352	1.26904
1645.000	-1.61478	0.74172	0.18781	1.29887
1646.000	-1.70960	0.78940	0.22142	1.24518
1647.000	-1.66614	0.66416	0.21549	1.24916
1648.000	-1.62466	0.72979	0.24712	1.26109
1649.000	-1.60096	0.76957	0.23724	1.20143
1650.000	-1.62861	0.73774	0.18386	1.23325
1651.000	-1.71158	0.72181	0.22933	1.21734
1652.000	-1.60491	0.66418	0.21747	1.27700
1653.000	-1.62071	0.69400	0.21549	1.28694
1654.000	-1.59108	0.68805	0.25899	1.30085
1655.000	-1.60688	0.61646	0.22340	1.27103
1656.000	-1.69182	0.65819	0.25899	1.23126
1657.000	-1.51996	0.71790	0.19572	1.32870
1658.000	-1.50415	0.66024	0.18584	1.26905
1659.000	-1.53576	0.65824	0.20165	1.23723
1660.000	-1.64244	0.65025	0.21352	1.30881
1661.000	-1.64837	0.65621	0.13246	1.29689
1662.000	-1.64837	0.66218	0.20561	1.26904
1663.000	-1.62466	0.62640	0.15223	1.27700
1664.000	-1.57923	0.60255	0.21352	1.29291
1665.000	-1.56935	0.69998	0.21747	1.25115
1666.000	-1.64639	0.59855	0.14630	1.28893
1667.000	-1.60886	0.71588	0.24317	1.26506
1668.000	-1.60293	0.68407	0.21945	1.24121
1669.000	-1.62071	0.66418	0.21154	1.26308
1670.000	-1.63256	0.62440	0.20561	1.23922
1671.000	-1.58120	0.65027	0.24712	1.24120
1672.000	-1.55947	0.69203	0.22142	1.21337
1673.000	-1.52984	0.72982	0.23724	1.26904
1674.000	-1.50020	0.67018	0.18188	1.24916
1675.000	-1.58515	0.68407	0.21549	1.19149
1676.000	-1.56935	0.69402	0.18584	1.18553
1677.000	-1.55354	0.72385	0.25899	1.23722
1678.000	-1.67207	0.64229	0.22340	1.24120
1679.000	-1.55749	0.63835	0.26096	1.20143
1680.000	-1.54169	0.70198	0.21549	1.26308
1681.000	-1.58713	0.68606	0.19968	1.23922
1682.000	-1.61281	0.68605	0.25503	1.22331
1683.000	-1.56737	0.65226	0.26294	1.24916
1684.000	-1.58515	0.63436	0.24119	1.23126
1685.000	-1.62861	0.67412	0.23131	1.19746
1686.000	-1.51008	0.69006	0.20363	1.26507
1687.000	-1.52193	0.64233	0.24712	1.24319
1688.000	-1.61676	0.62441	0.21747	1.21734
1689.000	-1.56737	0.64033	0.25503	1.22132
1690.000	-1.60293	0.62839	0.25701	1.18353
1691.000	-1.67602	0.65422	0.20758	1.23325
1692.000	-1.65034	0.69598	0.22735	1.24717
1693.000	-1.68590	0.64029	0.22933	1.29290
1694.000	-1.55354	0.64431	0.18386	1.24518
1695.000	-1.66417	0.69200	0.19770	1.16962
1696.000	-1.69972	0.64029	0.21747	1.29887
1697.000	-1.61676	0.62839	0.21352	1.24121
1698.000	-1.60293	0.59459	0.22538	1.25711
1699.000	-1.65824	0.59059	0.23922	1.19944
1700.000	-1.55552	0.67215	0.24910	1.26109
1701.000	-1.64639	0.59656	0.23329	1.23126
1702.000	-1.65034	0.63235	0.25108	1.23524
1703.000	-1.72540	0.58063	0.22538	1.21933
1704.000	-1.76886	0.53290	0.22340	1.28694
1705.000	-1.67997	0.56076	0.18979	1.21337
1706.000	-1.66417	0.69001	0.21154	1.26904
1707.000	-1.70565	0.59655	0.21352	1.25513
1708.000	-1.72145	0.63233	0.22735	1.20939
1709.000	-1.73330	0.55080	0.21747	1.24916
1710.000	-1.67404	0.68404	0.21549	1.22132
1711.000	-1.60688	0.60652	0.17991	1.20939
1712.000	-1.63651	0.61645	0.22538	1.22927
1713.000	-1.64046	0.58662	0.21549	1.19945
1714.000	-1.59305	0.58067	0.20758	1.25115
1715.000	-1.64244	0.67212	0.22340	1.17359
1716.000	-1.65034	0.63235	0.25305	1.25313
1717.000	-1.65824	0.65025	0.19968	1.20939
1718.000	-1.71553	0.66812	0.25305	1.20342
1719.000	-1.65429	0.66417	0.22735	1.24717
1720.000	-1.62466	0.66815	0.25108	1.15768
1721.000	-1.72145	0.60052	0.20165	1.22331
1722.000	-1.69380	0.66216	0.21352	1.22927
1723.000	-1.60096	0.66021	0.21352	1.22331
1724.000	-1.62071	0.63634	0.18781	1.22331
1725.000	-1.58318	0.60255	0.19177	1.27899
1726.000	-1.70367	0.62239	0.20758	1.24121
1727.000	-1.60293	0.67810	0.24317	1.29887
1728.000	-1.64244	0.59458	0.23724	1.22132
1729.000	-1.66614	0.58264	0.21154	1.22530
1730.000	-1.62269	0.54089	0.22933	1.22530
1731.000	-1.68195	0.61644	0.25305	1.18353
1732.000	-1.54169	0.57074	0.21747	1.17956
1733.000	-1.63256	0.58066	0.23724	1.23325
1734.000	-1.62269	0.61844	0.23724	1.23325
1735.000	-1.60886	0.68009	0.28666	1.22330
1736.000	-1.67800	0.65422	0.25701	1.25910
1737.000	-1.60688	0.65822	0.29457	1.19149
1738.000	-1.69775	0.60848	0.26096	1.23325
1739.000	-1.59305	0.67612	0.23526	1.24916
1740.000	-1.73330	0.63630	0.18584	1.20740
1741.000	-1.63849	0.77552	0.20363	1.22132
1742.000	-1.77676	0.67605	0.12850	1.22530
1743.000	-1.82811	0.66410	0.11664	1.21735
1744.000	-1.87353	0.75554	-0.00791	1.27900
1745.000	-1.90118	0.80125	-0.13641	1.31478
1746.000	-1.93278	0.84894	-0.22933	1.34659
1747.000	-2.02361	0.96617	-0.25899	1.37243
1748.000	-2.14405	1.06547	-0.41319	1.47580
1749.000	-2.31381	1.06733	-0.52982	1.59505
1750.000	-2.48946	1.21024	-0.63262	1.59104
1751.000	-2.64335	1.23791	-0.77098	1.69435
1752.000	-2.71240	1.27160	-0.82633	1.75197
1753.000	-2.73015	1.34507	-0.93109	1.80358
1754.000	-2.84849	1.40054	-0.91527	1.90891
1755.000	-2.81299	1.39264	-0.92713	1.93871
1756.000	-2.79524	1.40259	-0.94492	1.97049
1757.000	-2.67294	1.41862	-0.80459	2.04805
1758.000	-2.64138	1.57555	-0.81842	2.14538
1759.000	-2.61771	1.41074	-0.72750	2.06000
1760.000	-2.61771	1.46834	-0.64843	2.09580
1761.000	-2.48946	1.46848	-0.57133	2.12165
1762.000	-2.33947	1.50043	-0.53971	2.12365
1763.000	-2.39276	1.46660	-0.52982	2.09981
1764.000	-2.39868	1.47653	-0.42505	2.06409
1765.000	-2.29013	1.38526	-0.40923	1.96077
1766.000	-2.31579	1.40510	-0.40923	1.96276
1767.000	-2.24867	1.40517	-0.35783	1.83956
1768.000	-2.19143	1.43502	-0.43493	1.79781
1769.000	-2.30592	1.35147	-0.43098	1.74017
1770.000	-2.29605	1.36737	-0.40726	1.78390
1771.000	-2.27828	1.28991	-0.43493	1.76998
1772.000	-2.35921	1.31169	-0.40133	1.74415
1773.000	-2.35723	1.35341	-0.41121	1.71036
1774.000	-2.29210	1.29983	-0.42307	1.75806
1775.000	-2.39473	1.34741	-0.40923	1.74217
1776.000	-2.28026	1.37534	-0.42505	1.77197
1777.000	-2.30394	1.34353	-0.46261	1.73619
1778.000	-2.27631	1.39521	-0.49819	1.77394
1779.000	-2.22104	1.38731	-0.48831	1.74215
1780.000	-2.24670	1.39921	-0.52191	1.81766
1781.000	-2.31579	1.35742	-0.51796	1.76996
1782.000	-2.30592	1.31571	-0.52982	1.79381
1783.000	-2.33355	1.34548	-0.51203	1.73220
1784.000	-2.39671	1.32556	-0.53575	1.77592
1785.000	-2.36513	1.36333	-0.54761	1.76200
1786.000	-2.28026	1.37335	-0.52784	1.76201
1787.000	-2.36908	1.33750	-0.57331	1.80175
1788.000	-2.31381	1.42497	-0.53575	1.82163
1789.000	-2.40657	1.39110	-0.52982	1.80573
1790.000	-2.44012	1.33942	-0.50610	1.80773
1791.000	-2.43618	1.43875	-0.55354	1.79380
1792.000	-2.35131	1.43685	-0.50215	1.80375
1793.000	-2.44604	1.42881	-0.49226	1.80972
1794.000	-2.39276	1.47455	-0.51598	1.84747
1795.000	-2.32565	1.40310	-0.52389	1.83753
1796.000	-2.37500	1.42888	-0.55157	1.87727
1797.000	-2.43618	1.38114	-0.56145	1.84150
1798.000	-2.39671	1.41495	-0.56936	1.85739
1799.000	-2.28618	1.38725	-0.54959	1.84746
1800.000	-2.37894	1.42292	-0.54564	1.84746
1801.000	-2.44012	1.43080	-0.54959	1.86137
1802.000	-2.44210	1.33346	-0.53378	1.83554
1803.000	-2.37105	1.46067	-0.58715	1.85142
1804.000	-2.32763	1.41502	-0.53773	1.85740
1805.000	-2.37697	1.37723	-0.53575	1.89317
1806.000	-2.40657	1.35336	-0.51994	1.83952
1807.000	-2.43618	1.34936	-0.50808	1.88324
1808.000	-2.43223	1.42683	-0.51598	1.76798
1809.000	-2.38092	1.43483	-0.55750	1.85342
1810.000	-2.38486	1.42490	-0.55354	1.83554
1811.000	-2.39276	1.39708	-0.50412	1.84549
1812.000	-2.41447	1.38315	-0.54366	1.79778
1813.000	-2.47170	1.36919	-0.57133	1.85540
1814.000	-2.50327	1.41087	-0.51401	1.85741
1815.000	-2.53484	1.31946	-0.57924	1.83950
1816.000	-2.46183	1.39899	-0.57331	1.82162
1817.000	-2.34539	1.46665	-0.61087	1.91103
1818.000	-2.49735	1.35724	-0.54761	1.82163
1819.000	-2.41447	1.40500	-0.55552	1.84348
1820.000	-2.44012	1.36922	-0.56145	1.81367
1821.000	-2.45196	1.42681	-0.57727	1.83752
1822.000	-2.44802	1.42284	-0.53575	1.84150
1823.000	-2.56641	1.35915	-0.47447	1.80177
1824.000	-2.51905	1.39099	-0.52784	1.79977
1825.000	-2.56838	1.44258	-0.54168	1.83753
1826.000	-2.54076	1.37309	-0.50215	1.90709
1827.000	-2.43025	1.37519	-0.52784	1.83952
1828.000	-2.48156	1.43473	-0.54168	1.85343
1829.000	-2.57233	1.33333	-0.53971	1.87330
1830.000	-2.53879	1.29165	-0.52389	1.84349
1831.000	-2.47959	1.41089	-0.55157	1.85342
1832.000	-2.56838	1.36313	-0.55947	1.83355
1833.000	-2.52497	1.31550	-0.52982	1.80375
1834.000	-2.40263	1.39905	-0.56343	1.81566
1835.000	-2.44802	1.31756	-0.52982	1.89914
1836.000	-2.44999	1.41490	-0.59110	1.93488
1837.000	-2.56246	1.37108	-0.57133	1.91104
1838.000	-2.64533	1.36701	-0.56540	1.88521
1839.000	-2.53879	1.31350	-0.57529	1.88521
1840.000	-2.59403	1.40878	-0.53575	1.85541
1841.000	-2.52892	1.34330	-0.51796	1.89318
1842.000	-2.49735	1.37512	-0.50017	1.84549
1843.000	-2.56246	1.27970	-0.52784	1.92696
1844.000	-2.59008	1.33728	-0.51005	1.89914
1845.000	-2.46972	1.34138	-0.59308	1.91700
1846.000	-2.45591	1.38311	-0.50610	1.87927
1847.000	-2.43420	1.40101	-0.57331	1.87925
1848.000	-2.47959	1.45062	-0.53773	1.86734
1849.000	-2.48156	1.39103	-0.55354	1.87329
1850.000	-2.40657	1.41097	-0.53575	1.87330
1851.000	-2.51905	1.30954	-0.55354	1.85541
1852.000	-2.49735	1.39101	-0.54168	1.84746
1853.000	-2.44802	1.38510	-0.54761	1.81368
1854.000	-2.46578	1.40296	-0.53971	1.89317
1855.000	-2.42236	1.39109	-0.50017	1.80177
1856.000	-2.37302	1.38716	-0.50017	1.86337
1857.000	-2.38684	1.34345	-0.52389	1.82561
1858.000	-2.48354	1.42479	-0.52982	1.78188
1859.000	-2.45394	1.39503	-0.50412	1.80972
1860.000	-2.40065	1.36529	-0.51796	1.79381
1861.000	-2.46183	1.33543	-0.52191	1.81369
1862.000	-2.48551	1.37314	-0.54168	1.81765
1863.000	-2.44604	1.32551	-0.53378	1.82958
1864.000	-2.44604	1.38908	-0.46459	1.81171
1865.000	-2.42433	1.35732	-0.47842	1.78786
1866.000	-2.44407	1.35928	-0.50215	1.81767
1867.000	-2.43815	1.44868	-0.53378	1.80573
1868.000	-2.39473	1.36529	-0.49424	1.80574
1869.000	-2.23486	1.46478	-0.48040	1.80773
1870.000	-2.44604	1.41689	-0.50610	1.76003
1871.000	-2.40263	1.44077	-0.48831	1.82959
1872.000	-2.42433	1.36129	-0.44284	1.80576
1873.000	-2.45986	1.35728	-0.55947	1.80771
1874.000	-2.37894	1.38319	-0.50610	1.79382
1875.000	-2.39078	1.31364	-0.51401	1.85145
1876.000	-2.32763	1.41701	-0.56738	1.81168
1877.000	-2.43815	1.33346	-0.49819	1.77196
1878.000	-2.32960	1.35343	-0.53773	1.83952
1879.000	-2.48354	1.40493	-0.56738	1.80771
1880.000	-2.47762	1.41884	-0.54168	1.82759
1881.000	-2.38092	1.37325	-0.54168	1.87926
1882.000	-2.38684	1.43085	-0.50412	1.82164
1883.000	-2.40263	1.34740	-0.51796	1.79182
1884.000	-2.44999	1.36126	-0.53378	1.82561
1885.000	-2.52695	1.38303	-0.50808	1.82363
1886.000	-2.45591	1.46256	-0.51005	1.76003
1887.000	-2.40460	1.36727	-0.53575	1.82362
1888.000	-2.42828	1.41889	-0.47645	1.79979
1889.000	-2.36908	1.35737	-0.51005	1.77195
1890.000	-2.50327	1.38902	-0.56540	1.80175
1891.000	-2.44210	1.36723	-0.55157	1.82759
1892.000	-2.37894	1.44477	-0.51598	1.79381
1893.000	-2.49340	1.38903	-0.59703	1.82559
1894.000	-2.43223	1.38710	-0.57529	1.76001
1895.000	-2.47959	1.39500	-0.53773	1.82163
1896.000	-2.46380	1.43077	-0.50610	1.80177
1897.000	-2.48946	1.41883	-0.58122	1.83950
1898.000	-2.46972	1.38309	-0.56936	1.81765
1899.000	-2.39868	1.46660	-0.52784	1.83554
1900.000	-2.49735	1.39697	-0.55750	1.78386
1901.000	-2.45591	1.36722	-0.55750	1.83355
1902.000	-2.48156	1.37712	-0.52389	1.79580
1903.000	-2.47959	1.36520	-0.47447	1.74612
1904.000	-2.41841	1.30964	-0.42109	1.79980
1905.000	-2.32565	1.29582	-0.38156	1.79385
1906.000	-2.23880	1.19854	-0.27085	1.69051
1907.000	-2.17169	1.09128	-0.11664	1.67661
1908.000	-2.04533	0.99200	0.13839	1.52354
1909.000	-1.76293	0.89873	0.36376	1.41815
1910.000	-1.53379	0.69403	0.55354	1.19940
1911.000	-1.43105	0.46140	0.82238	1.08997
1912.000	-1.22358	0.14520	1.04769	0.88906
1913.000	-1.02595	-0.00199	1.32633	0.68614
1914.000	-1.05560	-0.21880	1.49625	0.34007
1915.000	-0.73145	-0.36602	1.66614	0.15511
1916.000	-0.62273	-0.58683	1.85181	0.00000
1917.000	-0.54366	-0.77779	1.99004	-0.19286
1918.000	-0.35586	-0.89317	2.12036	-0.41351
1919.000	-0.37365	-1.18153	2.18550	-0.54270
1920.000	-0.20165	-1.19945	2.31973	-0.69570
1921.000	0.00198	-1.23127	2.34342	-0.84474
1922.000	0.14630	-1.33864	2.44802	-0.92615
1923.000	0.32422	-1.44997	2.48156	-0.93010
1924.000	0.46656	-1.49169	2.59008	-1.02936
1925.000	0.67413	-1.54332	2.66308	-1.00546
1926.000	0.77691	-1.65261	2.73212	-1.08487
1927.000	0.93306	-1.69428	2.88990	-1.05691
1928.000	1.06548	-1.70614	3.02595	-1.02898
1929.000	1.20382	-1.90674	3.05552	-1.13818
1930.000	1.29669	-2.01594	3.17182	-1.15791
1931.000	1.32040	-2.16489	3.24080	-1.18960
1932.000	1.39944	-2.08140	3.25460	-1.23921
1933.000	1.48637	-2.06941	3.27430	-1.21934
1934.000	1.63849	-1.95009	3.34524	-1.26491
1935.000	1.76095	-2.01749	3.38858	-1.22912
1936.000	1.75503	-2.01551	3.39843	-1.21918
1937.000	1.79453	-2.02540	3.40828	-1.21520
1938.000	1.75898	-2.00359	3.42798	-1.18738
1939.000	1.85576	-1.90219	3.37479	-1.09812
1940.000	1.89130	-1.88031	3.45556	-1.11192
1941.000	1.80441	-1.89033	3.39055	-1.06633
1942.000	1.86761	-1.82670	3.38464	-0.97700
1943.000	1.85181	-1.73534	3.42601	-0.97299
1944.000	1.74120	-1.73147	3.38661	-0.96509
1945.000	1.79453	-1.66983	3.34327	-0.89762
1946.000	1.69972	-1.67588	3.36297	-0.93334
1947.000	1.69577	-1.62224	3.33144	-0.87381
1948.000	1.64244	-1.58651	3.29204	-0.84803
1949.000	1.68392	-1.60635	3.30780	-0.90163
1950.000	1.68590	-1.62423	3.27627	-0.98307
1951.000	1.72540	-1.63016	3.24080	-0.96324
1952.000	1.72540	-1.57254	3.26051	-0.98904
1953.000	1.63454	-1.68786	3.24868	-0.99699
1954.000	1.72343	-1.75533	3.29598	-1.04261
1955.000	1.68985	-1.75337	3.25065	-1.10024
1956.000	1.76886	-1.78906	3.28415	-1.08233
1957.000	1.74318	-1.77716	3.29401	-1.11806
1958.000	1.74910	-1.89635	3.31371	-1.10613
1959.000	1.79058	-1.80890	3.33538	-1.15375
1960.000	1.83601	-1.87043	3.37479	-1.19142
1961.000	1.80243	-1.95786	3.37282	-1.19142
1962.000	1.90710	-1.92597	3.40237	-1.16558
1963.000	1.84786	-1.95781	3.44374	-1.24890
1964.000	1.87353	-2.02531	3.43980	-1.17744
1965.000	1.88143	-2.05112	3.41025	-1.22909
1966.000	1.87946	-2.02927	3.43192	-1.22509
1967.000	1.85378	-2.02732	3.40828	-1.20726
1968.000	1.94265	-2.02721	3.37479	-1.20333
1969.000	1.92883	-1.98354	3.42601	-1.25289
1970.000	1.89525	-2.01933	3.42798	-1.27671
1971.000	1.94660	-1.99941	3.45556	-1.19132
1972.000	1.89130	-2.01933	3.42995	-1.24098
1973.000	1.86563	-2.04915	3.45950	-1.27071
1974.000	1.87946	-2.03722	3.46541	-1.22108
1975.000	1.96240	-1.99144	3.44768	-1.19927
1976.000	1.89328	-2.00145	3.44374	-1.25287
1977.000	1.94857	-1.99742	3.48117	-1.24488
1978.000	1.99202	-2.01524	3.48708	-1.21510
1979.000	1.86563	-2.01936	3.52450	-1.21902
1980.000	1.90908	-1.99548	3.49298	-1.21906
1981.000	1.89723	-2.02329	3.47329	-1.20916
1982.000	2.01571	-1.99734	3.47132	-1.18932
1983.000	2.00584	-1.96955	3.44374	-1.17148
1984.000	1.98412	-2.02915	3.43980	-1.12186
1985.000	1.95450	-2.02521	3.42601	-1.10401
1986.000	1.90710	-1.96172	3.42010	-1.13578
1987.000	1.92883	-2.01531	3.44374	-1.16156
1988.000	2.02558	-1.97151	3.45359	-1.18140
1989.000	1.92093	-1.99348	3.44965	-1.18339
1990.000	2.07100	-2.01514	3.47329	-1.19527
1991.000	1.96437	-2.01329	3.44571	-1.20523
1992.000	1.95845	-2.02322	3.40828	-1.22314
1993.000	1.97819	-2.03313	3.42995	-1.17944
1994.000	1.95845	-2.00932	3.48708	-1.21113
1995.000	1.94462	-2.01132	3.47723	-1.19328
1996.000	1.96635	-2.00931	3.47526	-1.16946
1997.000	1.94660	-2.00536	3.45162	-1.16949
1998.000	2.03743	-1.93178	3.44965	-1.17148
1999.000	1.90513	-2.03123	3.45359	-1.14765
2000.000	1.97227	-1.99938	3.44571	-1.17744
2001.000	1.90118	-2.03719	3.48511	-1.13173
2002.000	2.04138	-2.04695	3.49298	-1.11982
2003.000	1.99202	-1.98942	3.49101	-1.16746
2004.000	1.96042	-2.06889	3.42995	-1.14967
2005.000	1.99794	-2.00133	3.45162	-1.16949
2006.000	1.93870	-2.02126	3.43192	-1.15760
2007.000	1.95252	-1.98550	3.42207	-1.10005
2008.000	1.90908	-2.05108	3.47132	-1.13771
2009.000	1.98017	-2.09667	3.47329	-1.09999
2010.000	1.99794	-2.02317	3.49298	-1.11188
2011.000	1.94067	-2.01331	3.44571	-1.11392
2012.000	1.99794	-2.02715	3.48708	-1.17143
2013.000	1.98609	-2.07879	3.50283	-1.16149
2014.000	1.97819	-2.01327	3.47329	-1.16549
2015.000	1.95055	-2.02919	3.49889	-1.26867
2016.000	1.96635	-2.04307	3.44177	-1.21119
2017.000	2.03151	-2.03505	3.55404	-1.34004
2018.000	1.92883	-2.08482	3.49692	-1.24287
2019.000	2.00979	-2.04302	3.47920	-1.25679
2020.000	1.97424	-2.04902	3.47920	-1.24687
2021.000	1.92685	-2.00539	3.44374	-1.26279
2022.000	1.97227	-2.07285	3.49495	-1.23494
2023.000	2.00189	-2.07678	3.44374	-1.22111
2024.000	2.00386	-2.04700	3.51071	-1.31827
2025.000	1.99004	-2.07084	3.44768	-1.27668
2026.000	2.03546	-2.09262	3.46147	-1.26277
2027.000	2.04730	-2.00326	3.45162	-1.28263
2028.000	2.02163	-2.04300	3.44965	-1.30248
2029.000	1.95450	-2.12450	3.48904	-1.26670
2030.000	1.96240	-2.10463	3.52647	-1.24879
2031.000	1.93278	-2.04907	3.46147	-1.25483
2032.000	1.93080	-2.03716	3.50677	-1.25278
2033.000	2.00979	-2.08670	3.46738	-1.25879
2034.000	1.97227	-2.02321	3.51465	-1.25873
2035.000	1.97622	-2.09469	3.48117	-1.19923
2036.000	1.93870	-2.06296	3.44768	-1.21118
2037.000	1.91303	-2.06101	3.44571	-1.24294
2038.000	1.95055	-2.01330	3.50874	-1.25477
2039.000	2.01966	-2.01322	3.49889	-1.25875
2040.000	1.96042	-2.04506	3.50283	-1.31035
2041.000	1.97424	-2.09469	3.49692	-1.29845
2042.000	1.97029	-2.05498	3.50677	-1.26668
2043.000	1.99991	-2.02317	3.46935	-1.31238
2044.000	1.96042	-2.07485	3.53435	-1.23885
2045.000	1.99202	-2.04304	3.54616	-1.30830
2046.000	2.04730	-1.99730	3.51859	-1.33017
2047.000	1.98017	-2.03312	3.49692	-1.26868
2048.000	1.94660	-2.03714	3.53435	-1.23092
2049.000	2.00189	-2.07480	3.51465	-1.27659
2050.000	1.94462	-2.02125	3.50677	-1.29248
2051.000	1.92685	-2.05106	3.54222	-1.25869
2052.000	1.90315	-2.00542	3.50283	-1.22897
2053.000	1.98609	-2.05099	3.53631	-1.27259
2054.000	1.99399	-2.05098	3.50874	-1.23889
2055.000	1.95450	-2.04308	3.51662	-1.29247
2056.000	1.96437	-2.02322	3.53238	-1.26664
2057.000	2.00386	-1.99139	3.52253	-1.26864
2058.000	2.00584	-2.04302	3.48708	-1.25083
2059.000	1.98412	-1.96759	3.49495	-1.23494
2060.000	2.01966	-2.03903	3.47329	-1.26672
2061.000	1.90908	-1.92795	3.48511	-1.27068
2062.000	1.95252	-2.11060	3.51662	-1.26269
2063.000	1.96635	-2.08874	3.55010	-1.25273
2064.000	1.98017	-2.01128	3.51662	-1.19124
2065.000	2.02953	-1.98541	3.57964	-1.22292
2066.000	2.03743	-2.00724	3.50677	-1.24485
2067.000	1.99991	-1.99338	3.54222	-1.18923
2068.000	2.02361	-2.01321	3.51071	-1.24087
2069.000	1.97424	-2.03115	3.55995	-1.24279
2070.000	1.97227	-1.95767	3.54025	-1.24679
2071.000	1.93870	-2.01332	3.55207	-1.29242
2072.000	1.96635	-2.07881	3.50283	-1.29248
2073.000	1.99004	-1.98347	3.51662	-1.30636
2074.000	1.98807	-2.02914	3.52844	-1.22894
2075.000	2.05915	-1.97544	3.57176	-1.29636
2076.000	1.94067	-2.01927	3.59146	-1.29831
2077.000	1.96437	-2.00534	3.54222	-1.27854
2078.000	2.05520	-1.95162	3.55404	-1.29241
2079.000	2.07297	-2.01514	3.56389	-1.29240
2080.000	1.95647	-2.00138	3.58161	-1.30627
2081.000	2.04928	-1.97744	3.54813	-1.30433
2082.000	2.02953	-2.06682	3.52253	-1.30833
2083.000	2.05323	-1.91389	3.56783	-1.25072
2084.000	2.01571	-1.98145	3.50283	-1.29050
2085.000	1.96832	-2.05498	3.58161	-1.29634
2086.000	2.02558	-2.00130	3.52450	-1.23688
2087.000	2.00979	-2.00529	3.57767	-1.27452
2088.000	1.94462	-1.99345	3.51662	-1.24880
2089.000	2.03348	-2.04894	3.54025	-1.23686
2090.000	2.00189	-2.01125	3.55010	-1.25273
2091.000	2.07495	-2.00124	3.55601	-1.27058
2092.000	1.97424	-2.01923	3.56192	-1.23286
2093.000	1.96832	-1.90803	3.51859	-1.24681
2094.000	2.06310	-2.01118	3.57373	-1.23285
2095.000	1.96832	-1.99541	3.55995	-1.25470
2096.000	2.04730	-1.93574	3.55995	-1.25470
2097.000	2.05915	-1.94962	3.60130	-1.19113
2098.000	2.00979	-1.97153	3.51662	-1.24880
2099.000	1.99399	-1.95367	3.62099	-1.29033
2100.000	1.98017	-1.97355	3.54025	-1.23885
2101.000	2.05125	-1.92978	3.53631	-1.27061
2102.000	1.99202	-1.96162	3.57570	-1.28444
2103.000	1.95647	-1.91201	3.55207	-1.28845
2104.000	2.03546	-2.03901	3.56192	-1.24676
2105.000	2.01571	-1.99734	3.54616	-1.30830
2106.000	2.04533	-1.89801	3.52056	-1.25872
2107.000	1.99399	-1.93183	3.57176	-1.22690
2108.000	2.09074	-1.93568	3.60721	-1.18716
2109.000	2.02558	-1.97350	3.65644	-1.16725
2110.000	2.10061	-2.03099	3.75881	-1.14528
2111.000	2.21512	-2.02289	3.86116	-1.16102
2112.000	2.39276	-2.01470	3.97923	-1.15292
2113.000	2.70845	-2.03405	4.15430	-1.18440
2114.000	2.79524	-2.08550	4.41970	-1.23158
2115.000	3.05355	-2.07312	4.64760	-1.28668
2116.000	3.32159	-2.20348	4.86750	-1.34373
2117.000	3.44374	-2.31225	5.09902	-1.38880
2118.000	3.64069	-2.29392	5.32450	-1.54271
2119.000	3.85723	-2.34290	5.49497	-1.52842
2120.000	3.95365	-2.41395	5.66143	-1.61701
2121.000	4.09726	-2.43730	5.80627	-1.65418
2122.000	4.24672	-2.37742	5.86301	-1.71333
2123.000	4.25851	-2.43878	5.85910	-1.78847
2124.000	4.19166	-2.34788	5.84149	-1.72328
2125.000	4.25065	-2.30016	5.80236	-1.69769
2126.000	4.09333	-2.34421	5.65752	-1.64472
2127.000	3.97923	-2.29104	5.61248	-1.75364
2128.000	3.95168	-2.31687	5.49106	-1.70256
2129.000	3.90249	-2.26945	5.38330	-1.69297
2130.000	3.77456	-2.18456	5.28138	-1.65367
2131.000	3.66234	-2.17492	5.22453	-1.63996
2132.000	3.67810	-2.16696	5.18924	-1.62818
2133.000	3.56389	-2.16128	5.07156	-1.53937
2134.000	3.57570	-2.12160	5.08529	-1.55122
2135.000	3.56586	-2.16128	5.04606	-1.55329
2136.000	3.50086	-2.18522	5.11668	-1.52936
2137.000	3.58555	-2.19494	5.09706	-1.47396
2138.000	3.57767	-2.10573	5.09902	-1.48386
2139.000	3.57373	-2.19100	5.16571	-1.53518
2140.000	3.58358	-2.14736	5.16767	-1.49756
2141.000	3.52647	-2.19904	5.20100	-1.49154
2142.000	3.59540	-2.20086	5.19316	-1.53314
2143.000	3.55010	-2.16528	5.20492	-1.49747
2144.000	3.58161	-2.21081	5.16178	-1.47975
2145.000	3.54222	-2.28029	5.17943	-1.48367
2146.000	3.63872	-2.16309	5.17355	-1.57080
2147.000	3.55207	-2.22872	5.17747	-1.52724
2148.000	3.58949	-2.26828	5.20100	-1.56480
2149.000	3.61903	-2.21865	5.20296	-1.51134
2150.000	3.72731	-2.26991	5.20688	-1.50341
2151.000	3.62493	-2.34153	5.20296	-1.55885
2152.000	3.66628	-2.23042	5.19512	-1.51333
2153.000	3.67416	-2.25023	5.25198	-1.47360
2154.000	3.71550	-2.29373	5.20492	-1.48757
2155.000	3.68006	-2.29580	5.22453	-1.45387
2156.000	3.71747	-2.23426	5.28726	-1.52499
2157.000	3.74503	-2.33725	5.29118	-1.46163
2158.000	3.75094	-2.25796	5.27158	-1.47158
2159.000	3.75094	-2.25003	5.26962	-1.47554
2160.000	3.75487	-2.31939	5.19904	-1.45393
2161.000	3.70763	-2.32150	5.27354	-1.44583
2162.000	3.74897	-2.29364	5.24609	-1.45976
2163.000	3.79031	-2.27570	5.27354	-1.52898
2164.000	3.77259	-2.27178	5.23629	-1.52313
2165.000	3.77062	-2.27575	5.23825	-1.52313
2166.000	3.77850	-2.28564	5.26962	-1.52701
2167.000	3.78440	-2.20436	5.30294	-1.49724
2168.000	3.74897	-2.27382	5.30294	-1.48734
2169.000	3.74109	-2.21834	5.26374	-1.49139
2170.000	3.72338	-2.24416	5.25590	-1.50725
2171.000	3.73716	-2.36106	5.20884	-1.45984
2172.000	3.73125	-2.32144	5.27942	-1.49333
2173.000	3.77456	-2.23808	5.28726	-1.48144
2174.000	3.79621	-2.24000	5.29510	-1.46360
2175.000	3.76865	-2.27179	5.28530	-1.47748
2176.000	3.73913	-2.22826	5.26962	-1.49138
2177.000	3.74700	-2.32734	5.25394	-1.46766
2178.000	3.75094	-2.19453	5.26374	-1.48743
2179.000	3.71747	-2.24021	5.27550	-1.42207
2180.000	3.81393	-2.17653	5.23237	-1.41623
2181.000	3.84739	-2.28149	5.25198	-1.48350
2182.000	3.81393	-2.30140	5.23041	-1.43604
2183.000	3.86116	-2.27154	5.28334	-1.46561
2184.000	3.73913	-2.29961	5.25198	-1.49340
2185.000	3.84148	-2.23592	5.19708	-1.42819
2186.000	3.78834	-2.26381	5.25590	-1.45182
2187.000	3.75487	-2.25993	5.26178	-1.46962
2188.000	3.83951	-2.26962	5.28334	-1.46363
2189.000	3.83164	-2.23198	5.24217	-1.43799
2190.000	3.74306	-2.23618	5.24021	-1.45383
2191.000	3.77259	-2.27772	5.28530	-1.50124
2192.000	3.87494	-2.21800	5.22649	-1.45584
2193.000	3.80015	-2.29747	5.25394	-1.45182
2194.000	3.86116	-2.29136	5.24609	-1.41026
2195.000	3.85919	-2.24380	5.29706	-1.47745
2196.000	3.83558	-2.22603	5.26178	-1.43992
2197.000	3.80802	-2.23997	5.32450	-1.45759
2198.000	3.84935	-2.22401	5.24217	-1.45383
2199.000	3.87691	-2.15259	5.22257	-1.44199
2200.000	3.85723	-2.30921	5.25394	-1.43994
2201.000	3.82180	-2.24192	5.29314	-1.47548
2202.000	3.87887	-2.11888	5.25786	-1.47557
2203.000	3.79424	-2.25388	5.23629	-1.40830
2204.000	3.80605	-2.29944	5.26374	-1.49733
2205.000	3.76275	-2.23216	5.22845	-1.43802
2206.000	3.83558	-2.23792	5.27354	-1.44583
2207.000	3.65841	-2.30577	5.31274	-1.41407
2208.000	3.79031	-2.25191	5.26570	-1.40824
2209.000	3.76078	-2.22424	5.27550	-1.44781
2210.000	3.73913	-2.27781	5.32842	-1.41799
2211.000	3.77259	-2.30151	5.31862	-1.46157
2212.000	3.86510	-2.25766	5.33234	-1.45559
2213.000	3.80605	-2.24592	5.27354	-1.44781
2214.000	3.83164	-2.28748	5.29706	-1.43192
2215.000	3.78243	-2.19049	5.28530	-1.38839
2216.000	3.75881	-2.24406	5.27354	-1.43396
2217.000	3.81983	-2.25382	5.23825	-1.46769
2218.000	3.80605	-2.22610	5.28138	-1.44978
2219.000	3.77259	-2.21628	5.24806	-1.41026
2220.000	3.68597	-2.29182	5.30882	-1.47941
2221.000	3.75291	-2.31543	5.28922	-1.42996
2222.000	3.75291	-2.20642	5.28726	-1.46560
2223.000	3.72928	-2.22234	5.29118	-1.44975
2224.000	3.76865	-2.18656	5.34410	-1.49714
2225.000	3.76078	-2.27577	5.28334	-1.43591
2226.000	3.84345	-2.23393	5.25394	-1.42212
2227.000	3.87691	-2.20808	5.25394	-1.37460
2228.000	3.76275	-2.24009	5.32646	-1.42591
2229.000	3.78243	-2.26779	5.24609	-1.41620
2230.000	3.75094	-2.25400	5.28138	-1.43394
2231.000	3.75487	-2.25399	5.27746	-1.48938
2232.000	3.79031	-2.24795	5.30686	-1.44180
2233.000	3.80605	-2.26773	5.26766	-1.44585
2234.000	3.78637	-2.25589	5.27550	-1.43989
2235.000	3.79621	-2.26181	5.27746	-1.41613
2236.000	3.83951	-2.16656	5.28922	-1.42996
2237.000	3.75684	-2.25993	5.31862	-1.41999
2238.000	3.76275	-2.25396	5.23629	-1.46572
2239.000	3.80408	-2.21620	5.25982	-1.47556
2240.000	3.77259	-2.21232	5.29706	-1.44578
2241.000	3.76275	-2.22027	5.24609	-1.42412
2242.000	3.81786	-2.23400	5.27746	-1.48542
2243.000	3.84935	-2.16851	5.30294	-1.40617
2244.000	3.75487	-2.27579	5.26570	-1.40428
2245.000	3.72535	-2.25604	5.24806	-1.43006
2246.000	3.75684	-2.29957	5.26570	-1.49139
2247.000	3.80999	-2.23402	5.32058	-1.49125
2248.000	3.80802	-2.24592	5.28530	-1.50520
2249.000	3.75487	-2.21831	5.31862	-1.46948
2250.000	3.81393	-2.24987	5.33822	-1.46548
2251.000	3.76865	-2.20440	5.34214	-1.48724
2252.000	3.72928	-2.24216	5.31666	-1.48533
2253.000	3.71747	-2.28976	5.36174	-1.46344
2254.000	3.74306	-2.20446	5.31078	-1.45763
2255.000	3.83951	-2.22205	5.29510	-1.40421
2256.000	3.74109	-2.18663	5.27550	-1.46563
2257.000	3.73519	-2.25007	5.32058	-1.47938
2258.000	3.70369	-2.26205	5.30490	-1.47348
2259.000	3.76472	-2.24801	5.29118	-1.43194
2260.000	3.73716	-2.25007	5.30882	-1.46951
2261.000	3.70960	-2.22833	5.33234	-1.48529
2262.000	3.78637	-2.23805	5.31274	-1.44970
2263.000	3.81196	-2.21816	5.34410	-1.53672
2264.000	3.82377	-2.28948	5.34606	-1.46942
2265.000	3.79818	-2.20829	5.26962	-1.45178
2266.000	3.77653	-2.23609	5.30882	-1.50316
2267.000	3.79621	-2.23802	5.31666	-1.48533
2268.000	3.83164	-2.21613	5.31666	-1.40218
2269.000	3.80408	-2.21025	5.26766	-1.45377
2270.000	3.73519	-2.30755	5.27550	-1.44781
2271.000	3.72338	-2.26001	5.28138	-1.40622
2272.000	3.88281	-2.25167	5.28334	-1.42601
2273.000	3.73125	-2.24017	5.31274	-1.45762
2274.000	3.80212	-2.18053	5.29314	-1.41609
2275.000	3.82574	-2.18245	5.23237	-1.46375
2276.000	3.72928	-2.21044	5.32254	-1.45364
2277.000	3.79621	-2.15874	5.30882	-1.44377
2278.000	3.85919	-2.21011	5.28530	-1.41809
2279.000	3.68400	-2.30570	5.23825	-1.41424
2280.000	3.79621	-2.24199	5.31470	-1.42198
2281.000	3.79818	-2.22018	5.28530	-1.42997
2282.000	3.85329	-2.24184	5.29314	-1.46757
2283.000	3.80802	-2.18646	5.29510	-1.50319
2284.000	3.77850	-2.27573	5.32058	-1.44375
2285.000	3.79818	-2.24396	5.28138	-1.49333
2286.000	3.81983	-2.16462	5.30294	-1.44577
2287.000	3.77456	-2.22817	5.32254	-1.41009
2288.000	3.80999	-2.23006	5.26766	-1.44189
2289.000	3.87691	-2.19024	5.31078	-1.48732
2290.000	3.86903	-2.21207	5.27746	-1.43989
2291.000	3.88478	-2.18428	5.30686	-1.47941
2292.000	3.77653	-2.28564	5.29314	-1.48142
2293.000	3.81983	-2.24985	5.31470	-1.44772
2294.000	3.72338	-2.26001	5.30294	-1.42399
2295.000	3.75881	-2.28767	5.28530	-1.42799
2296.000	3.78834	-2.24399	5.30490	-1.42596
2297.000	3.77062	-2.23611	5.25590	-1.39044
2298.000	3.76865	-2.21431	5.24609	-1.45382
2299.000	3.86903	-2.18630	5.24021	-1.47759
2300.000	3.77850	-2.23807	5.28530	-1.44779
2301.000	3.73322	-2.20052	5.32646	-1.46155
2302.000	3.76865	-2.23413	5.26962	-1.38447
2303.000	3.78046	-2.19842	5.26178	-1.45378
2304.000	3.80212	-2.18449	5.32842	-1.41601
2305.000	3.88871	-2.20409	5.24217	-1.30731
2306.000	3.83558	-2.29539	5.26374	-1.40824
2307.000	3.87887	-2.20213	5.34214	-1.36649
2308.000	3.78243	-2.24797	5.29510	-1.34482
2309.000	3.97726	-2.20385	5.37350	-1.30505
2310.000	3.86116	-2.27947	5.44992	-1.39000
2311.000	4.01071	-2.18989	5.52436	-1.31660
2312.000	4.13463	-2.23711	5.57528	-1.26899
2313.000	4.30963	-2.26829	5.69080	-1.25884
2314.000	4.33322	-2.21673	5.84540	-1.23278
2315.000	4.56117	-2.18436	5.96081	-1.24044
2316.000	4.70651	-2.13243	6.06835	-1.19274
2317.000	4.80272	-2.11630	6.17781	-1.16284
2318.000	4.89105	-2.02892	6.24619	-1.12315
2319.000	4.95385	-2.08019	6.37510	-1.17425
2320.000	5.03233	-1.97702	6.36533	-1.10115
2321.000	4.91460	-2.02687	6.46100	-1.11675
2322.000	4.90871	-1.93581	6.33018	-1.10122
2323.000	4.83609	-1.93206	6.31260	-1.08940
2324.000	4.75364	-1.97784	6.22861	-1.12121
2325.000	4.69080	-1.90672	6.21102	-1.18056
2326.000	4.61421	-1.87722	6.02339	-1.17108
2327.000	4.40005	-1.89957	5.99797	-1.22849
2328.000	4.38236	-1.98085	5.91583	-1.20494
2329.000	4.29587	-1.85821	5.87866	-1.14963
2330.000	4.17986	-1.97344	5.78279	-1.16170
2331.000	4.16413	-2.03888	5.77692	-1.21315
2332.000	4.20739	-2.04273	5.83171	-1.26051
2333.000	4.24868	-2.02083	5.80236	-1.23090
2334.000	4.25655	-2.04260	5.84736	-1.19322
2335.000	4.31553	-2.02659	5.88649	-1.21093
2336.000	4.28604	-2.03460	5.91192	-1.20890
2337.000	4.37646	-2.02445	5.94321	-1.25630
2338.000	4.38039	-2.02642	5.96863	-1.19493
2339.000	4.36467	-2.02844	5.95299	-1.20486
2340.000	4.39808	-2.08976	5.93930	-1.17126
2341.000	4.38432	-2.07594	5.98819	-1.20478
2342.000	4.40398	-2.03428	5.98428	-1.21863
2343.000	4.37843	-2.10567	5.96863	-1.16724
2344.000	4.44721	-2.12924	5.99406	-1.21465
2345.000	4.42953	-2.02034	5.93147	-1.21084
2346.000	4.43149	-2.18673	5.99210	-1.23641
2347.000	4.44721	-2.11934	5.93539	-1.22665
2348.000	4.37253	-2.03437	6.01165	-1.22846
2349.000	4.44918	-2.06585	5.99406	-1.21663
2350.000	4.39218	-2.06205	5.98037	-1.22457
2351.000	4.47865	-2.05388	5.95299	-1.20683
2352.000	4.41184	-2.04218	5.98819	-1.24829
2353.000	4.43149	-2.08571	6.00188	-1.17508
2354.000	4.41380	-2.08774	5.99210	-1.20081
2355.000	4.43542	-2.06787	6.01948	-1.20471
2356.000	4.46097	-1.99054	6.01361	-1.16319
2357.000	4.45507	-2.07178	5.98819	-1.17907
2358.000	4.45114	-2.03019	5.98232	-1.17710
2359.000	4.40791	-1.94314	6.00970	-1.20473
2360.000	4.45704	-1.97470	5.97646	-1.25820
2361.000	4.35681	-2.01856	5.94125	-1.17719
2362.000	4.43542	-2.02231	6.03316	-1.21654
2363.000	4.43346	-2.03816	6.01752	-1.14736
2364.000	4.46097	-1.97073	6.04685	-1.19674
2365.000	4.47865	-1.98455	5.99797	-1.18894
2366.000	4.48651	-2.02811	5.97450	-1.18305
2367.000	4.44525	-2.08567	6.05076	-1.20266
2368.000	4.39808	-2.02241	5.97450	-1.24832
2369.000	4.42756	-2.04808	5.99015	-1.15335
2370.000	4.50813	-2.08153	5.99992	-1.17311
2371.000	4.37646	-2.06011	5.98623	-1.18105
2372.000	4.49241	-2.00630	5.99797	-1.24233
2373.000	4.43935	-2.03418	6.01557	-1.18890
2374.000	4.47276	-1.98457	5.96668	-1.15934
2375.000	4.50420	-2.05777	6.03316	-1.24225
2376.000	4.48651	-2.10140	6.01557	-1.18890
2377.000	4.39612	-2.04817	6.06444	-1.18088
2378.000	4.43739	-2.02032	6.01948	-1.19680
2379.000	4.44918	-2.10547	5.95690	-1.19100
2380.000	4.52581	-1.98244	6.00774	-1.21462
2381.000	4.51205	-2.02210	5.99015	-1.18500
2382.000	4.45704	-1.99848	5.99992	-1.20475
2383.000	4.43935	-2.05795	5.98037	-1.16128
2384.000	4.48848	-2.05980	5.99015	-1.16720
2385.000	4.40005	-2.02042	6.02143	-1.22646
2386.000	4.44132	-1.98267	5.99992	-1.20871
2387.000	4.44525	-2.10944	5.97255	-1.13163
2388.000	4.49830	-2.02412	5.96277	-1.21077
2389.000	4.38236	-2.10368	5.95886	-1.10793
2390.000	4.36860	-2.13541	6.05076	-1.22639
2391.000	4.38825	-2.07394	5.99406	-1.13752
2392.000	4.41380	-2.10953	5.99406	-1.17708
2393.000	4.40987	-2.13133	5.97450	-1.19492
2394.000	4.49241	-2.10138	6.02339	-1.12757
2395.000	4.43935	-2.04211	6.00579	-1.13948
2396.000	4.41773	-2.08377	5.93539	-1.18116
2397.000	4.41380	-2.08576	6.00188	-1.19288
2398.000	4.42166	-2.11347	5.98037	-1.21073
2399.000	4.40987	-2.04615	5.93539	-1.15940
2400.000	4.42363	-2.08573	5.97646	-1.17514
2401.000	4.45507	-2.01829	5.97255	-1.15932
2402.000	4.43739	-2.08569	5.97255	-1.11977
2403.000	4.46097	-2.07572	5.96081	-1.18110
2404.000	4.52581	-2.09732	6.00383	-1.20474
2405.000	4.43346	-2.07976	5.95494	-1.15936
2406.000	4.40791	-2.15709	6.03903	-1.13150
2407.000	4.40594	-2.10163	5.95690	-1.09606
2408.000	4.40398	-2.05211	5.96081	-1.07232
2409.000	4.43346	-2.10551	5.97841	-1.14942
2410.000	4.40791	-2.09172	5.96081	-1.09408
2411.000	4.48455	-2.10933	5.96472	-1.09209
2412.000	4.45507	-2.05593	5.99015	-1.16918
2413.000	4.47865	-2.06775	5.95886	-1.11584
2414.000	4.42953	-2.03817	5.98428	-1.15337
2415.000	4.40201	-2.05410	6.01165	-1.17704
2416.000	4.43149	-2.06590	5.98623	-1.13952
2417.000	4.40987	-2.08577	5.97646	-1.15536
2418.000	4.42756	-2.11345	6.02534	-1.21063
2419.000	4.45704	-2.03413	5.98037	-1.12766
2420.000	4.41773	-2.18082	5.90605	-1.14760
2421.000	4.38039	-2.16311	6.00383	-1.16915
2422.000	4.34501	-2.07604	6.01165	-1.19484
2423.000	4.38629	-2.08187	5.98623	-1.18303
2424.000	4.46883	-2.05193	5.97059	-1.18504
2425.000	4.44525	-2.10350	6.06835	-1.18285
2426.000	4.40201	-2.10758	5.96863	-1.20284
2427.000	4.39612	-2.09967	6.02143	-1.18493
2428.000	4.36467	-2.00269	5.98232	-1.20677
2429.000	4.36074	-2.06015	6.03316	-1.23039
2430.000	4.38629	-2.02244	5.98037	-1.19886
2431.000	4.39808	-2.07590	5.99210	-1.22455
2432.000	4.42559	-2.03224	6.00579	-1.18101
2433.000	4.43935	-2.06390	5.96863	-1.18109
2434.000	4.36270	-2.09383	5.98623	-1.19489
2435.000	4.47079	-2.03013	5.98819	-1.18698
2436.000	4.41970	-2.10555	6.04294	-1.20663
2437.000	4.44328	-2.05794	5.99601	-1.20872
2438.000	4.39612	-2.06996	5.99797	-1.18102
2439.000	4.42953	-2.07779	5.94517	-1.17718
2440.000	4.45311	-2.07178	5.99601	-1.23245
2441.000	4.45311	-2.07376	5.98623	-1.17709
2442.000	4.44918	-2.05793	6.00188	-1.22255
2443.000	4.40398	-2.09371	5.98623	-1.19292
2444.000	4.41577	-2.03623	5.93734	-1.16929
2445.000	4.47079	-2.05985	5.97841	-1.23447
2446.000	4.44132	-1.97277	5.99406	-1.17708
2447.000	4.42953	-1.98072	5.99210	-1.16522
2448.000	4.39022	-1.99668	6.03903	-1.24026
2449.000	4.39415	-2.05610	6.03512	-1.21654
2450.000	4.42559	-2.02233	5.97841	-1.20876
2451.000	4.42756	-2.05997	6.03316	-1.22445
2452.000	4.44721	-1.99058	5.99797	-1.24035
2453.000	4.46686	-2.04203	6.03707	-1.20863
2454.000	4.46883	-1.99052	6.02925	-1.19480
2455.000	4.40791	-2.08181	6.02339	-1.23041
2456.000	4.51991	-2.01019	6.02339	-1.19284
2457.000	4.49241	-2.00234	5.98428	-1.23643
2458.000	4.41577	-2.00849	6.01557	-1.29568
2459.000	4.46883	-1.99052	5.93539	-1.25830
2460.000	4.41184	-2.04416	6.02925	-1.21458
2461.000	4.44132	-2.02427	6.03512	-1.21258
2462.000	4.44328	-2.04804	6.03512	-1.25609
2463.000	4.43935	-2.02230	5.94908	-1.20289
2464.000	4.37253	-2.08786	6.00383	-1.21661
2465.000	4.38432	-2.00858	6.00383	-1.14739
2466.000	4.49830	-2.05185	6.05858	-1.27185
2467.000	4.44132	-2.02427	5.98232	-1.21666
2468.000	4.43346	-2.08372	6.06640	-1.23624
2469.000	4.49044	-2.07564	6.03707	-1.21060
2470.000	4.44721	-1.98464	6.08204	-1.25005
2471.000	4.45900	-1.97272	6.05662	-1.20660
2472.000	4.47276	-1.97268	6.00774	-1.23242
2473.000	4.43346	-2.06193	6.00774	-1.18496
2474.000	4.45704	-2.01829	6.03121	-1.24423
2475.000	4.47669	-1.94890	5.99992	-1.16718
2476.000	4.43346	-1.98665	6.00188	-1.27792
2477.000	4.42756	-2.07383	5.97059	-1.18504
2478.000	4.52188	-1.95472	6.01361	-1.22054
2479.000	4.51402	-2.04982	5.98819	-1.15929
2480.000	4.44328	-1.93710	6.02925	-1.20073
2481.000	4.54545	-1.98239	6.00774	-1.22253
2482.000	4.47472	-2.05587	5.99210	-1.13950
2483.000	4.45114	-2.03019	5.99992	-1.15729
2484.000	4.49241	-2.04592	5.99797	-1.19882
2485.000	4.42166	-1.95102	5.98232	-1.21468
2486.000	4.41773	-2.03028	6.00970	-1.15331
2487.000	4.44721	-2.03020	5.97059	-1.13757
2488.000	4.45114	-1.99453	6.00188	-1.13751
2489.000	4.42559	-2.02035	5.99406	-1.19685
2490.000	4.44525	-1.99653	5.99406	-1.13752
2491.000	4.46293	-1.99252	5.98623	-1.18501
2492.000	4.43149	-2.01241	6.02534	-1.20074
2493.000	4.46097	-2.07770	5.94125	-1.16730
2494.000	4.34894	-2.05820	6.03121	-1.21457
2495.000	4.46686	-1.98855	5.96863	-1.13362
2496.000	4.45507	-2.00839	5.95103	-1.16530
2497.000	4.52974	-1.98045	6.00579	-1.13354
2498.000	4.38039	-2.12349	5.98623	-1.09205
2499.000	4.40398	-2.01843	6.02339	-1.19679
2500.000	4.44525	-1.95889	6.03707	-1.14732
2501.000	4.46490	-2.08363	5.98232	-1.22061
2502.000	4.44328	-2.05200	6.01165	-1.09595
2503.000	4.41773	-2.01443	6.02534	-1.16317
2504.000	4.49634	-1.99837	5.98232	-1.14150
2505.000	4.41577	-2.04019	5.99015	-1.12764
2506.000	4.40987	-2.04615	6.08399	-1.20654
2507.000	4.46097	-1.97469	5.96472	-1.14550
2508.000	4.41184	-2.05605	5.98623	-1.16127
2509.000	4.44525	-1.98860	5.98428	-1.12172
2510.000	4.43542	-2.04014	5.97255	-1.12570
2511.000	4.47865	-1.99842	5.96277	-1.15143
2512.000	4.46293	-2.03214	5.95886	-1.11584
2513.000	4.46883	-2.00439	6.00188	-1.16124
2514.000	4.44918	-1.95888	6.04098	-1.20268
2515.000	4.44328	-2.01832	6.01361	-1.20077
2516.000	4.44721	-1.99652	6.00970	-1.17111
2517.000	4.50223	-2.06174	5.97646	-1.16723
2518.000	4.38825	-2.06800	6.00774	-1.21660
2519.000	4.38432	-2.02245	6.02339	-1.17899
2520.000	4.49044	-1.92905	5.99406	-1.19290
2521.000	4.45704	-2.01036	5.98232	-1.20281
2522.000	4.39808	-2.02637	6.00188	-1.15926
2523.000	4.47276	-1.98457	5.93930	-1.07236
2524.000	4.43346	-2.01241	6.01752	-1.20867
2525.000	4.47276	-2.02617	6.01165	-1.21264
2526.000	4.45311	-1.96481	5.99210	-1.18301
2527.000	4.43739	-2.03617	5.97450	-1.15734
2528.000	4.45900	-2.05394	6.05076	-1.21057
2529.000	4.48258	-1.97067	6.07422	-1.20459
2530.000	4.39022	-2.06205	6.03316	-1.22841
2531.000	4.51991	-2.07357	6.01752	-1.24229
2532.000	4.42756	-2.01441	6.09181	-1.19071
2533.000	4.48455	-1.98652	6.06249	-1.20857
2534.000	4.41970	-1.96886	6.04685	-1.26002
2535.000	4.48455	-1.96274	6.03707	-1.20269
2536.000	4.42953	-2.01638	6.01361	-1.22648
2537.000	4.49241	-1.90329	6.06640	-1.23031
2538.000	4.58278	-1.96446	5.98623	-1.22258
2539.000	4.46883	-2.02222	6.00774	-1.20474
2540.000	4.48455	-1.98255	6.02925	-1.24819
2541.000	4.44918	-1.96086	5.98428	-1.18303
2542.000	4.47472	-1.94494	6.01557	-1.23043
2543.000	4.42363	-1.99064	6.01948	-1.20075
2544.000	4.47865	-1.93503	6.04098	-1.27585
2545.000	4.45704	-1.96480	6.01165	-1.22648
2546.000	4.43346	-2.03222	6.00188	-1.17904
2547.000	4.47472	-2.04597	5.99992	-1.24431
2548.000	4.42559	-1.95894	5.99601	-1.19487
2549.000	4.53563	-1.91506	6.02534	-1.19679
2550.000	4.51009	-2.03399	6.03121	-1.24423
2551.000	4.47669	-2.03408	5.97059	-1.21471
2552.000	4.55724	-2.00216	6.01557	-1.27591
2553.000	4.47472	-1.98060	6.04098	-1.27783
2554.000	4.37253	-2.05418	6.02730	-1.24227
2555.000	4.40201	-1.99070	6.02534	-1.26007
2556.000	4.47276	-2.00636	6.01361	-1.19879
2557.000	4.53170	-1.98837	6.03316	-1.26796
2558.000	4.41184	-2.08775	6.01948	-1.24426
2559.000	4.38629	-2.06603	5.98037	-1.22062
2560.000	4.38825	-2.07394	6.04098	-1.26201
2561.000	4.43149	-2.10552	6.02534	-1.26204
2562.000	4.46883	-2.03212	6.02730	-1.24227
2563.000	4.40005	-2.02835	6.08008	-1.22435
2564.000	4.35877	-2.08591	6.01948	-1.23635
2565.000	4.48651	-2.08555	5.98232	-1.22259
2566.000	4.40987	-2.06002	5.98819	-1.17907
2567.000	4.53760	-1.98241	5.98819	-1.22258
2568.000	4.47472	-2.00833	6.04489	-1.24618
2569.000	4.52777	-1.97055	6.00774	-1.22056
2570.000	4.49044	-2.03602	6.06249	-1.20857
2571.000	4.49437	-2.07959	6.04880	-1.27385
2572.000	4.47276	-1.99645	6.00579	-1.22847
2573.000	4.43346	-2.05797	6.00774	-1.20276
2574.000	4.42756	-1.98073	6.03903	-1.24422
2575.000	4.39415	-2.04619	5.97450	-1.23645
2576.000	4.47472	-1.99843	5.98428	-1.27598
2577.000	4.36270	-2.05024	5.98819	-1.20082
2578.000	4.34305	-2.04039	5.95299	-1.20486
2579.000	4.45704	-2.02819	5.94517	-1.22465
2580.000	4.42559	-2.07582	5.98428	-1.21863
2581.000	4.44721	-2.03020	5.92952	-1.16337
2582.000	4.39612	-2.00458	5.99992	-1.18498
2583.000	4.48062	-2.03803	6.02534	-1.17899
2584.000	4.43149	-2.02628	5.96668	-1.26020
2585.000	4.40201	-2.08381	6.01752	-1.20274
2586.000	4.46097	-2.02620	5.97450	-1.17910
2587.000	4.43935	-1.99654	5.95690	-1.21078
2588.000	4.39022	-2.01253	5.95690	-1.24836
2589.000	4.39612	-1.99072	5.95886	-1.25033
2590.000	4.38432	-2.04820	6.00383	-1.25616
2591.000	4.32732	-2.05826	6.01165	-1.23439
2592.000	4.40594	-2.02041	5.95690	-1.19694
2593.000	4.41577	-2.03623	5.99210	-1.16522
2594.000	4.39218	-2.07195	6.03316	-1.29367
2595.000	4.40398	-2.10361	6.04098	-1.23630
2596.000	4.48455	-2.04000	5.95886	-1.19100
2597.000	4.48062	-2.05586	5.99797	-1.19289
2598.000	4.41380	-2.07387	5.98819	-1.25224
2599.000	4.40594	-2.05409	6.00579	-1.21858
2600.000	4.45114	-2.02028	5.99406	-1.23641
2601.000	4.34305	-1.97897	5.98232	-1.23841
2602.000	4.40201	-2.09768	6.00579	-1.18101
2603.000	4.49830	-2.02610	5.99210	-1.17510
2604.000	4.47865	-2.02813	5.98819	-1.17709
2605.000	4.50027	-1.96666	5.96277	-1.19890
2606.000	4.46686	-2.02420	5.93734	-1.20687
2607.000	4.41970	-2.00452	5.94517	-1.16927
2608.000	4.47865	-2.01625	5.97450	-1.18108
2609.000	4.42363	-2.01045	5.96277	-1.13165
2610.000	4.39218	-2.04422	5.99210	-1.14148
2611.000	4.50223	-2.00232	5.95886	-1.18902
2612.000	4.39808	-1.97882	5.95494	-1.18507
2613.000	4.49634	-1.89536	5.93930	-1.14753
2614.000	4.43542	-2.06985	5.98819	-1.14347
2615.000	4.40005	-1.97486	5.92170	-1.16339
2616.000	4.37843	-2.04624	5.98819	-1.21664
2617.000	4.45900	-1.98857	5.94517	-1.16334
2618.000	4.42953	-2.00053	5.94712	-1.15147
2619.000	4.51402	-1.98049	5.97059	-1.19295
2620.000	4.45507	-1.98065	5.95494	-1.17321
2621.000	4.47669	-1.91522	5.97646	-1.22260
2622.000	4.40791	-1.89162	5.97255	-1.18504
2623.000	4.46293	-1.98459	5.96863	-1.15340
2624.000	4.41773	-1.99660	5.99015	-1.22257
2625.000	4.51205	-2.00031	5.93343	-1.21083
2626.000	4.45114	-1.97868	5.96668	-1.23449
2627.000	4.47472	-1.91919	5.99992	-1.23442
2628.000	4.41773	-2.01443	5.97841	-1.26413
2629.000	4.46490	-2.05788	5.98428	-1.22259
2630.000	4.37253	-2.01059	5.95494	-1.23452
2631.000	4.45311	-2.02622	5.95886	-1.23253
2632.000	4.41184	-1.99662	5.96277	-1.27999
2633.000	4.36467	-2.01854	5.97059	-1.23448
2634.000	4.42363	-1.98866	5.95690	-1.30571
2635.000	4.40987	-2.04417	5.96668	-1.26218
2636.000	4.40201	-2.07193	5.98037	-1.21271
2637.000	4.45900	-2.02819	5.99992	-1.22453
2638.000	4.44132	-2.02823	5.96668	-1.23251
2639.000	4.45311	-1.96481	5.94125	-1.20686
2640.000	4.38825	-1.97885	5.94908	-1.21278
2641.000	4.46686	-2.01826	5.98037	-1.19095
2642.000	4.46686	-2.00637	5.91192	-1.17725
2643.000	4.39808	-2.06797	5.93343	-1.20292
2644.000	4.40594	-2.05805	5.94125	-1.22664
2645.000	4.43739	-2.15304	5.95103	-1.24639
2646.000	4.40005	-2.14324	5.97059	-1.21866
2647.000	4.40791	-2.08776	5.95103	-1.25431
2648.000	4.51205	-1.97852	5.92170	-1.21284
2649.000	4.43149	-2.05996	5.97646	-1.26414
2650.000	4.43346	-2.05401	5.97059	-1.24239
2651.000	4.43935	-2.02230	5.92561	-1.26030
2652.000	4.42756	-1.99658	5.92952	-1.22864
2653.000	4.41577	-1.96293	5.90996	-1.24253
2654.000	4.37843	-2.06407	5.97646	-1.23051
2655.000	4.42363	-1.93319	5.95886	-1.20089
2656.000	4.41773	-2.00849	5.90800	-1.25638
2657.000	4.40594	-2.04418	5.93343	-1.27017
2658.000	4.37843	-2.06010	5.97059	-1.26019
2659.000	4.46097	-2.01233	5.96668	-1.26614
2660.000	4.45704	-2.02423	5.97255	-1.27997
2661.000	4.50420	-2.09541	5.99406	-1.28189
2662.000	4.47079	-2.05192	5.91192	-1.19308
2663.000	4.41380	-2.02237	5.95886	-1.24835
2664.000	4.49241	-1.95480	5.86692	-1.22878
2665.000	4.43935	-1.98664	5.93343	-1.27412
2666.000	4.44525	-1.91926	5.92365	-1.21085
2667.000	4.44918	-1.97274	5.93147	-1.21875
2668.000	4.38629	-1.93527	5.91387	-1.24054
2669.000	4.42363	-1.97083	5.91974	-1.24251
2670.000	4.38825	-1.94121	5.87084	-1.18525
2671.000	4.42363	-2.03423	5.91974	-1.20691
2672.000	4.49044	-1.91122	5.88257	-1.24853
2673.000	4.43149	-1.98072	5.94908	-1.22662
2674.000	4.47079	-1.93505	5.88257	-1.15951
2675.000	4.53563	-1.90120	5.92365	-1.24448
2676.000	4.39218	-1.99469	5.90018	-1.23069
2677.000	4.40005	-2.02439	5.88062	-1.22479
2678.000	4.44918	-1.94105	5.94125	-1.20093
2679.000	4.44525	-2.01238	5.91778	-1.17922
2680.000	4.42953	-1.93912	5.86888	-1.22086
2681.000	4.43935	-2.01041	5.85910	-1.18528
2682.000	4.42953	-1.94704	5.84345	-1.19520
2683.000	4.45114	-1.94897	5.89822	-1.23860
2684.000	4.38236	-2.00264	5.88649	-1.21489
2685.000	4.45114	-1.93510	5.85910	-1.21891
2686.000	4.42559	-1.96092	5.88257	-1.21292
2687.000	4.41184	-1.97086	5.92365	-1.28404
2688.000	4.46883	-1.92911	5.85910	-1.21693
2689.000	4.39415	-1.96298	5.86497	-1.20703
2690.000	4.35484	-1.97894	5.92365	-1.21877
2691.000	4.36860	-2.04032	5.85518	-1.28222
2692.000	4.33518	-1.97106	5.84932	-1.19123
2693.000	4.45900	-1.93111	5.87475	-1.23074
2694.000	4.42953	-1.94902	5.85518	-1.21694
2695.000	4.43346	-1.97279	5.89431	-1.21092
2696.000	4.45704	-1.94697	5.82584	-1.19524
2697.000	4.43739	-1.97872	5.84149	-1.21499
2698.000	4.44328	-1.90540	5.85323	-1.19716
2699.000	4.40201	-1.92730	5.85518	-1.18133
2700.000	4.48651	-1.96274	5.86692	-1.22087
2701.000	4.52777	-1.93489	5.87084	-1.19317
2702.000	4.45311	-1.92717	5.87475	-1.12986
2703.000	4.41380	-1.96888	5.84345	-1.19322
2704.000	4.45311	-1.97670	5.90409	-1.22079
2705.000	4.44721	-1.96681	5.90800	-1.25836
2706.000	4.46293	-1.91724	5.91192	-1.18912
2707.000	4.41577	-1.95302	5.86888	-1.22284
2708.000	4.42756	-1.95893	5.89431	-1.19114
2709.000	4.47079	-1.90929	5.84149	-1.14575
2710.000	4.42166	-1.91536	5.89627	-1.20894
2711.000	4.40791	-1.92134	5.88257	-1.25248
2712.000	4.45900	-1.99649	5.81997	-1.19327
2713.000	4.43542	-2.02033	5.82388	-1.16557
2714.000	4.45900	-1.96479	5.84345	-1.25257
2715.000	4.43739	-1.92523	5.84149	-1.25060
2716.000	4.40987	-1.97285	5.83953	-1.21104
2717.000	4.42166	-1.96687	5.83171	-1.20116
2718.000	4.43542	-1.97278	5.87670	-1.21491
2719.000	4.40201	-1.97881	5.86105	-1.22286
2720.000	4.36270	-1.98486	5.86692	-1.25450
2721.000	4.45900	-2.04998	5.92365	-1.27019
2722.000	4.46097	-1.92319	5.86497	-1.22878
2723.000	4.49437	-1.95083	5.88844	-1.21093
2724.000	4.41970	-1.92924	5.84345	-1.18333
2725.000	4.43935	-1.87767	5.91583	-1.24450
2726.000	4.50616	-1.96665	5.85714	-1.23276
2727.000	4.48848	-1.94490	5.83953	-1.22093
2728.000	4.49437	-1.88942	5.82975	-1.22688
2729.000	4.45900	-1.90140	5.90800	-1.23265
2730.000	4.45507	-1.98858	5.83366	-1.23874
2731.000	4.50027	-1.91714	5.88257	-1.17534
2732.000	4.44328	-1.97078	5.89040	-1.27027
2733.000	4.44721	-1.93313	5.85323	-1.21694
2734.000	4.40005	-1.89362	5.88844	-1.23862
2735.000	4.43739	-1.94504	5.92756	-1.27216
2736.000	4.53760	-1.92100	5.82192	-1.19921
2737.000	4.45507	-1.93707	5.87866	-1.23469
2738.000	4.41184	-1.91341	5.83171	-1.26447
2739.000	4.41577	-1.94906	5.83171	-1.20710
2740.000	4.48455	-1.90529	5.84540	-1.27235
2741.000	4.41970	-1.92131	5.86301	-1.22285
2742.000	4.48848	-1.91915	5.91778	-1.29789
2743.000	4.37450	-1.96898	5.89040	-1.29994
2744.000	4.42166	-1.97084	5.91387	-1.29988
2745.000	4.42559	-1.99064	5.86888	-1.26438
2746.000	4.44328	-1.95691	5.89822	-1.27223
2747.000	4.54153	-1.86552	5.88453	-1.27621
2748.000	4.46293	-1.90139	5.98232	-1.40650
2749.000	4.53563	-1.90912	5.96277	-1.29581
2750.000	4.44132	-1.92126	5.90213	-1.34144
2751.000	4.47865	-1.84587	5.97255	-1.37291
2752.000	4.43935	-1.88758	5.93539	-1.33543
2753.000	4.47865	-1.89342	5.95886	-1.35910
2754.000	4.49437	-1.82007	5.93734	-1.35718
2755.000	4.46686	-1.86968	5.95494	-1.33143
2756.000	4.49241	-1.93301	5.95886	-1.38481
2757.000	4.40201	-1.96098	5.96668	-1.34524
2758.000	4.47472	-1.90730	5.91974	-1.36513
2759.000	4.46686	-1.91128	5.98623	-1.36695
2760.000	4.42756	-1.88563	5.92365	-1.33941
2761.000	4.54742	-1.90117	5.97646	-1.35313
2762.000	4.45114	-1.88359	5.92170	-1.35722
2763.000	4.45900	-1.96281	5.98428	-1.43023
2764.000	4.47472	-1.87560	5.99406	-1.40252
2765.000	4.41577	-1.94312	6.04098	-1.45578
2766.000	4.43739	-1.90938	5.96472	-1.40062
2767.000	4.38825	-1.94319	6.02339	-1.45583
2768.000	4.51402	-1.87946	5.92561	-1.37698
2769.000	4.43542	-1.92920	5.97255	-1.35709
2770.000	4.50027	-1.92704	5.93734	-1.36113
2771.000	4.43149	-1.91930	6.00579	-1.37283
2772.000	4.53760	-1.97647	5.93734	-1.37893
2773.000	4.49634	-1.88347	5.91387	-1.38690
2774.000	4.40987	-1.90945	5.92561	-1.46400
2775.000	4.42756	-1.87770	5.87279	-1.38305
2776.000	4.30373	-1.88197	5.82388	-1.35152
2777.000	4.14053	-1.84273	5.71820	-1.36167
2778.000	3.97136	-1.90457	5.55961	-1.31652
2779.000	3.77653	-1.88320	5.34998	-1.23581
2780.000	3.52844	-1.82818	5.20100	-1.32324
2781.000	3.32750	-1.62021	4.92638	-1.30201
2782.000	3.07721	-1.57892	4.62403	-1.20150
2783.000	2.71634	-1.46226	4.36074	-1.08296
2784.000	2.39078	-1.33152	4.03431	-0.97628
2785.000	1.97819	-1.32394	3.75487	-0.97264
2786.000	1.69380	-1.18502	3.46344	-1.00670
2787.000	1.45279	-1.04201	3.19153	-0.88187
2788.000	1.09315	-1.05409	2.93328	-0.78674
2789.000	0.85796	-0.97661	2.70253	-0.67960
2790.000	0.51005	-1.02839	2.54273	-0.74328
2791.000	0.40133	-0.93493	2.34144	-0.70562
2792.000	0.23922	-0.91704	2.15984	-0.60235
2793.000	0.05536	-0.86733	1.99991	-0.57458
2794.000	-0.09292	-0.85937	1.91105	-0.56069
2795.000	-0.25503	-0.96279	1.85181	-0.55276
2796.000	-0.35190	-0.87129	1.72935	-0.44542
2797.000	-0.29259	-0.76787	1.60688	-0.32415
2798.000	-0.36376	-0.68830	1.54959	-0.26251
2799.000	-0.38551	-0.55701	1.48242	-0.17700
2800.000	-0.39539	-0.56099	1.44488	-0.03381
2801.000	-0.34004	-0.48739	1.42513	0.06961
2802.000	-0.43098	-0.49932	1.44883	0.14518
2803.000	-0.35388	-0.35809	1.45279	0.17104
2804.000	-0.36969	-0.25663	1.39944	0.26849
2805.000	-0.27085	-0.22082	1.41722	0.39776
2806.000	-0.25899	-0.11141	1.50415	0.38979
2807.000	-0.26492	-0.08554	1.50613	0.41962
2808.000	-0.21945	-0.03780	1.59305	0.36193
2809.000	-0.18188	-0.06963	1.62466	0.35994
2810.000	-0.13444	-0.07162	1.73133	0.37583
2811.000	-0.10874	-0.13727	1.77676	0.36786
2812.000	-0.02372	-0.12334	1.82218	0.29031
2813.000	0.00198	-0.26459	1.87353	0.28036
2814.000	0.16211	-0.24072	1.90908	0.19486
2815.000	0.16804	-0.34218	1.94462	0.13520
2816.000	0.16211	-0.39390	2.01176	0.00398
2817.000	0.26887	-0.40384	2.05323	0.04374
2818.000	0.20758	-0.44960	2.09074	-0.08151
2819.000	0.30446	-0.43766	2.03546	-0.12923
2820.000	0.30248	-0.44363	2.00584	-0.20479
2821.000	0.19770	-0.51923	1.98609	-0.18292
2822.000	0.09094	-0.53713	1.93475	-0.22468
2823.000	0.16014	-0.40584	1.95252	-0.20280
2824.000	0.08303	-0.49934	1.82021	-0.19288
2825.000	0.03756	-0.44364	1.82021	-0.20680
2826.000	0.00989	-0.36605	1.73330	-0.17300
2827.000	-0.01186	-0.36008	1.68985	-0.12926
2828.000	-0.06326	-0.29443	1.64837	-0.10739
2829.000	-0.12257	-0.37401	1.60293	-0.11136
2830.000	-0.15025	-0.33621	1.55947	-0.06563
2831.000	-0.15816	-0.34417	1.53379	-0.02386
2832.000	-0.18979	-0.29443	1.52984	-0.08353
2833.000	-0.09292	-0.32228	1.50020	0.01591
2834.000	-0.15421	-0.24470	1.45081	0.05171
2835.000	-0.09687	-0.29642	1.50218	0.04176
2836.000	-0.18386	-0.29244	1.52391	0.00398
2837.000	-0.15223	-0.24868	1.54564	0.06165
2838.000	-0.16211	-0.29443	1.54959	0.05171
2839.000	-0.19770	-0.20292	1.47847	0.05966
2840.000	-0.12455	-0.24072	1.48440	0.07756
2841.000	-0.21154	-0.19496	1.50415	0.10143
2842.000	-0.17200	-0.22878	1.51996	0.06165
2843.000	-0.22142	-0.18502	1.51206	0.09148
2844.000	-0.22933	-0.25663	1.50613	0.14717
2845.000	-0.19572	-0.17109	1.48045	0.13723
2846.000	-0.17002	-0.18303	1.51008	0.07159
2847.000	-0.18386	-0.19297	1.48835	0.08949
2848.000	-0.17991	-0.24271	1.49032	0.12529
2849.000	-0.18188	-0.17706	1.54959	0.08353
2850.000	-0.24910	-0.20690	1.49032	0.10540
2851.000	-0.14827	-0.21884	1.47057	0.15115
2852.000	-0.15618	-0.16114	1.47452	0.17501
2853.000	-0.20561	-0.21287	1.49032	0.12529
2854.000	-0.23329	-0.24669	1.46662	0.16308
2855.000	-0.13246	-0.11738	1.46069	0.16507
2856.000	-0.11664	-0.30239	1.46266	0.20286
2857.000	-0.14037	-0.20491	1.48242	0.09347
2858.000	-0.09687	-0.26857	1.51206	0.11137
2859.000	-0.16607	-0.24072	1.48242	0.09347
2860.000	-0.17991	-0.26658	1.49428	0.07756
2861.000	-0.19177	-0.24470	1.51601	0.06165
2862.000	-0.22142	-0.20491	1.48637	0.13126
2863.000	-0.15618	-0.24072	1.52786	0.04972
2864.000	-0.11862	-0.18502	1.53181	0.05171
2865.000	-0.17200	-0.18701	1.46464	0.09148
2866.000	-0.14037	-0.18900	1.51206	0.04375
2867.000	-0.17200	-0.28051	1.51206	0.08552
2868.000	-0.07908	-0.18104	1.46464	0.10541
2869.000	-0.16014	-0.23276	1.43303	0.10541
2870.000	-0.21549	-0.24072	1.48835	0.04773
2871.000	-0.17793	-0.26658	1.49032	0.07955
2872.000	-0.09094	-0.19695	1.49230	0.04574
2873.000	-0.13444	-0.19297	1.47649	0.07955
2874.000	-0.13246	-0.24470	1.48440	0.02387
2875.000	-0.15816	-0.22878	1.51601	0.02983
2876.000	-0.15618	-0.28648	1.51206	0.10143
2877.000	-0.17595	-0.24868	1.46662	0.02188
2878.000	-0.11862	-0.22679	1.47452	0.00199
2879.000	-0.14037	-0.24271	1.48440	0.00796
2880.000	-0.12653	-0.24072	1.44291	0.03779
2881.000	-0.22735	-0.26857	1.46266	0.02387
2882.000	-0.16804	-0.24470	1.46859	-0.00597
2883.000	-0.17398	-0.25862	1.47649	0.01392
2884.000	-0.22142	-0.20093	1.52984	0.02386
2885.000	-0.22538	-0.23674	1.50810	0.04574
2886.000	-0.15025	-0.23475	1.49625	0.06165
2887.000	-0.13641	-0.21486	1.48835	0.03381
2888.000	-0.13444	-0.23873	1.51403	0.01392
2889.000	-0.15025	-0.23674	1.50020	0.01392
2890.000	-0.11269	-0.21486	1.48440	0.03182
2891.000	-0.17200	-0.24072	1.55354	0.03977
2892.000	-0.12653	-0.20093	1.52391	0.00398
2893.000	-0.14037	-0.23077	1.49428	0.04972
2894.000	-0.14037	-0.25266	1.49428	0.05370
2895.000	-0.17595	-0.16114	1.49428	0.02387
2896.000	-0.19968	-0.25067	1.52589	0.04176
2897.000	-0.23329	-0.26459	1.49032	0.03978
2898.000	-0.10874	-0.23475	1.51008	0.02983
2899.000	-0.13048	-0.25067	1.45081	0.05171
2900.000	-0.17398	-0.24072	1.46859	0.03580
2901.000	-0.12257	-0.19496	1.44291	0.04375
2902.000	-0.14234	-0.24470	1.48045	0.06961
2903.000	-0.17002	-0.27852	1.48045	0.02387
2904.000	-0.09687	-0.19695	1.46266	0.07160
2905.000	-0.04943	-0.22083	1.50020	0.03779
2906.000	-0.13246	-0.25465	1.50613	0.00795
2907.000	-0.16804	-0.19695	1.48835	0.07358
2908.000	-0.11467	-0.13329	1.50613	0.00994
2909.000	-0.07513	-0.25067	1.47452	0.04375
2910.000	-0.16211	-0.16711	1.45674	0.04773
2911.000	-0.10874	-0.17905	1.42513	0.08751
2912.000	-0.12060	-0.21287	1.46266	0.08552
2913.000	-0.09885	-0.23475	1.43303	0.01989
2914.000	-0.10676	-0.23873	1.44093	0.09347
2915.000	-0.03756	-0.19099	1.44093	0.02387
2916.000	-0.13641	-0.21685	1.43303	0.06563
2917.000	-0.13444	-0.22878	1.41722	0.02387
2918.000	-0.14630	-0.21486	1.45871	0.03779
2919.000	-0.13641	-0.18303	1.41525	0.06762
2920.000	-0.24317	-0.24271	1.41722	0.06762
2921.000	-0.15421	-0.13130	1.38363	0.08950
2922.000	-0.14234	-0.21685	1.40142	0.12331
2923.000	-0.13246	-0.26857	1.40734	0.03978
2924.000	-0.15223	-0.21486	1.44686	0.04972
2925.000	-0.18584	-0.19695	1.37178	0.04773
2926.000	-0.14432	-0.22679	1.43698	0.09149
2927.000	-0.12455	-0.17706	1.42710	0.01591
2928.000	-0.13048	-0.21088	1.39746	0.04972
2929.000	-0.14827	-0.23276	1.37968	0.05370
2930.000	-0.04349	-0.20889	1.43500	0.07359
2931.000	-0.07513	-0.21486	1.38758	0.08154
2932.000	-0.13839	-0.30239	1.40734	0.03580
2933.000	-0.17595	-0.24072	1.40142	0.06165
2934.000	-0.09687	-0.21088	1.39549	0.04375
2935.000	-0.12850	-0.23873	1.37771	0.05967
2936.000	-0.18188	-0.21287	1.40537	0.03580
2937.000	-0.07710	-0.12931	1.38166	0.06961
2938.000	-0.17991	-0.16114	1.44291	0.05370
2939.000	-0.16409	-0.24072	1.37573	0.07558
2940.000	-0.10478	-0.18502	1.38166	0.05370
2941.000	-0.17002	-0.23276	1.36980	0.07558
2942.000	-0.11664	-0.22480	1.41525	0.01193
2943.000	-0.11071	-0.19297	1.44883	0.02188
2944.000	-0.17398	-0.18701	1.36783	0.05569
2945.000	-0.19375	-0.24271	1.41327	0.06762
2946.000	-0.13246	-0.15518	1.35795	0.04574
2947.000	-0.08699	-0.19496	1.36783	0.08353
2948.000	-0.17200	-0.26061	1.37573	0.05967
2949.000	-0.13048	-0.21486	1.40932	0.04574
2950.000	-0.09687	-0.25664	1.40339	0.08950
2951.000	-0.15421	-0.21685	1.33028	0.11337
2952.000	-0.12060	-0.15716	1.36190	0.09745
2953.000	-0.17991	-0.17706	1.37375	0.07757
2954.000	-0.15025	-0.22083	1.33226	0.12729
2955.000	-0.14432	-0.21685	1.37573	0.12928
2956.000	-0.02570	-0.18900	1.34412	0.08751
2957.000	-0.09292	-0.21088	1.35004	0.10143
2958.000	-0.17991	-0.18303	1.32831	0.05967
2959.000	-0.14630	-0.19695	1.38363	0.11138
2960.000	-0.04943	-0.14324	1.34609	0.09149
2961.000	-0.11467	-0.16910	1.38561	0.10939
2962.000	-0.17991	-0.14125	1.35597	0.06364
2963.000	-0.08897	-0.16313	1.38561	0.08950
2964.000	-0.10874	-0.20491	1.34412	0.07160
2965.000	-0.05338	-0.14125	1.36783	0.09547
2966.000	-0.07908	-0.15915	1.35202	0.06364
2967.000	-0.13641	-0.22480	1.35597	0.10939
2968.000	-0.05140	-0.13926	1.38166	0.07359
2969.000	-0.13839	-0.24868	1.28484	0.10342
2970.000	-0.15025	-0.17706	1.31645	0.10143
2971.000	-0.10280	-0.19695	1.34016	0.05370
2972.000	-0.12653	-0.21486	1.33819	0.07956
2973.000	-0.08501	-0.12732	1.30064	0.09149
2974.000	-0.13246	-0.12533	1.38363	0.08552
2975.000	-0.12257	-0.12732	1.34016	0.05569
2976.000	-0.05338	-0.18701	1.35795	0.10740
2977.000	-0.15421	-0.16910	1.31250	0.05967
2978.000	-0.06920	-0.15915	1.31843	0.07956
2979.000	-0.14630	-0.14722	1.32633	0.10541
2980.000	-0.16014	-0.16114	1.29274	0.11735
2981.000	-0.15618	-0.22281	1.27100	0.12331
2982.000	-0.07908	-0.08754	1.32831	0.15712
2983.000	-0.11664	-0.13130	1.32040	0.09547
2984.000	-0.16409	-0.17308	1.32040	0.08751
2985.000	-0.17991	-0.16114	1.29867	0.12132
2986.000	-0.12257	-0.32228	1.35004	0.03182
2987.000	-0.11071	-0.21685	1.33621	0.06762
2988.000	-0.13048	-0.18701	1.34807	0.11536
2989.000	-0.10874	-0.20093	1.33226	0.07359
2990.000	-0.13246	-0.16910	1.36980	0.08552
2991.000	-0.11664	-0.19297	1.35004	0.10143
2992.000	-0.13641	-0.22878	1.34807	0.09944
2993.000	-0.12850	-0.18502	1.34609	0.10342
2994.000	-0.08501	-0.17905	1.29076	0.15713
2995.000	-0.06129	-0.11539	1.29669	0.14718
2996.000	-0.11269	-0.17507	1.29867	0.17701
2997.000	-0.07513	-0.23475	1.30064	0.13724
2998.000	-0.06920	-0.21287	1.29076	0.12530
2999.000	-0.14827	-0.19496	1.34214	0.13723
3000.000	-0.14432	-0.21685	1.33028	0.10939
3001.000	-0.10280	-0.23873	1.31645	0.11138
3002.000	-0.08699	-0.19496	1.30460	0.10342
3003.000	-0.06920	-0.18104	1.32040	0.11536
3004.000	-0.09885	-0.17706	1.33424	0.08751
3005.000	-0.10676	-0.25266	1.28286	0.17900
3006.000	-0.08699	-0.19695	1.26705	0.11138
3007.000	-0.11071	-0.21685	1.32831	0.08552
3008.000	-0.12060	-0.22679	1.33819	0.14718
3009.000	-0.13839	-0.21088	1.32040	0.15513
3010.000	-0.09490	-0.20292	1.30855	0.09348
3011.000	-0.15025	-0.20690	1.32238	0.09945
3012.000	-0.13641	-0.20491	1.30064	0.13525
3013.000	-0.14234	-0.20491	1.33819	0.10342
3014.000	-0.11862	-0.19496	1.29669	0.11536
3015.000	-0.10083	-0.18104	1.32040	0.13922
3016.000	-0.10280	-0.16910	1.37375	0.07359
3017.000	-0.03361	-0.19894	1.30262	0.10939
3018.000	-0.05140	-0.20491	1.30460	0.09945
3019.000	-0.03163	-0.18502	1.32831	0.06762
3020.000	-0.05931	-0.17308	1.30657	0.01392
3021.000	-0.07710	-0.20889	1.36190	0.03779
3022.000	-0.10676	-0.24669	1.32831	0.02586
3023.000	-0.04152	-0.21884	1.33819	0.04574
3024.000	-0.12060	-0.20690	1.30855	0.04972
3025.000	-0.07513	-0.18104	1.30262	0.09149
3026.000	-0.09885	-0.16711	1.34016	0.12729
3027.000	-0.03954	-0.12732	1.35004	0.07757
3028.000	-0.11071	-0.18104	1.33424	0.08751
3029.000	-0.11664	-0.18900	1.32436	0.11337
3030.000	-0.05338	-0.19099	1.31448	0.10939
3031.000	-0.05931	-0.17109	1.30262	0.09945
3032.000	-0.07908	-0.14324	1.34609	0.04773
3033.000	-0.10478	-0.17308	1.32831	0.09746
3034.000	-0.06524	-0.13528	1.35004	0.05370
3035.000	-0.10676	-0.20491	1.34016	0.09149
3036.000	-0.05931	-0.17109	1.30064	0.06762
3037.000	-0.06920	-0.21287	1.34016	0.11536
3038.000	-0.08106	-0.20292	1.33424	0.08751
3039.000	-0.08501	-0.16910	1.37573	0.04972
3040.000	-0.01779	-0.22481	1.32436	0.11933
3041.000	-0.01384	-0.15518	1.30657	0.12729
3042.000	-0.09490	-0.24669	1.32436	0.12530
3043.000	-0.04745	-0.18303	1.29867	0.08751
3044.000	-0.06129	-0.20093	1.29472	0.09149
3045.000	0.00000	-0.18900	1.32633	0.10342
3046.000	-0.10676	-0.21088	1.31843	0.06762
3047.000	-0.08303	-0.23475	1.30657	0.11138
3048.000	-0.09094	-0.17507	1.30855	0.14917
3049.000	-0.06920	-0.16114	1.32238	0.11536
3050.000	-0.03361	-0.11539	1.33028	0.11337
3051.000	-0.07908	-0.19496	1.37178	0.11337
3052.000	-0.10280	-0.18303	1.34609	0.06961
3053.000	-0.08501	-0.15716	1.36585	0.11138
3054.000	-0.01384	-0.18303	1.34609	0.07558
3055.000	-0.10083	-0.19098	1.32831	0.14121
3056.000	-0.06524	-0.23873	1.36980	0.11138
3057.000	-0.01186	-0.14722	1.36783	0.09745
3058.000	-0.13444	-0.22480	1.34214	0.09348
3059.000	0.03756	-0.11340	1.33621	0.09348
3060.000	-0.05536	-0.15120	1.32633	0.07359
3061.000	-0.07908	-0.15915	1.36783	0.03182
3062.000	-0.02570	-0.14921	1.30460	0.06762
3063.000	-0.06722	-0.16512	1.36190	0.03381
3064.000	-0.13839	-0.22679	1.40932	0.04773
3065.000	-0.12257	-0.15716	1.31645	0.09149
3066.000	0.04547	-0.13727	1.33621	0.04574
3067.000	-0.12257	-0.18104	1.38363	0.09149
3068.000	-0.06722	-0.16910	1.36190	0.07757
3069.000	-0.02372	-0.20889	1.37178	0.04376
3070.000	-0.09292	-0.12533	1.36783	0.04773
3071.000	-0.04547	-0.14125	1.34016	0.09746
3072.000	-0.08897	-0.22480	1.36980	0.04177
3073.000	-0.01186	-0.11340	1.36783	0.06961
3074.000	-0.00989	-0.23276	1.33424	0.07757
3075.000	-0.02570	-0.13727	1.33621	0.07757
3076.000	-0.03163	-0.18104	1.39351	0.08154
3077.000	-0.02372	-0.17507	1.33621	0.10740
3078.000	-0.03954	-0.11937	1.36585	0.09348
3079.000	-0.05140	-0.13926	1.35992	0.04574
3080.000	-0.05338	-0.14125	1.34016	0.10342
3081.000	-0.03163	-0.17507	1.31052	0.12132
3082.000	0.02175	-0.11937	1.30855	0.10740
3083.000	-0.00395	-0.13130	1.31250	0.09945
3084.000	0.02372	-0.10544	1.28286	0.12331
3085.000	-0.05140	-0.17507	1.35992	0.13524
3086.000	-0.01977	-0.09151	1.29472	0.11138
3087.000	0.02372	-0.15319	1.33819	0.05569
3088.000	-0.07117	-0.15120	1.33621	0.14519
3089.000	-0.02570	-0.14722	1.39746	0.09348
3090.000	0.00593	-0.15518	1.35992	0.11734
3091.000	0.01977	-0.13130	1.36387	0.05569
3092.000	-0.04349	-0.08952	1.39746	0.06762
3093.000	0.01582	-0.13329	1.38561	0.07955
3094.000	0.00989	-0.14324	1.33028	0.13922
3095.000	0.01779	-0.18104	1.35004	0.12928
3096.000	-0.00593	-0.12334	1.32436	0.11536
3097.000	-0.03361	-0.18502	1.36783	0.10740
3098.000	-0.01779	-0.16512	1.34609	0.12132
3099.000	-0.04943	-0.17706	1.35202	0.16110
3100.000	-0.04152	-0.14722	1.34412	0.14121
3101.000	0.03756	-0.13926	1.34214	0.16906
3102.000	0.00395	-0.14324	1.34807	0.14320
3103.000	0.02768	-0.16512	1.34412	0.11933
3104.000	-0.01186	-0.12732	1.32831	0.12729
3105.000	-0.01186	-0.12533	1.32831	0.12132
3106.000	0.00395	-0.16711	1.34609	0.10740
3107.000	-0.03954	-0.14523	1.35399	0.17303
3108.000	-0.08501	-0.20093	1.36783	0.10143
3109.000	0.00000	-0.17507	1.38166	0.08751
3110.000	-0.06129	-0.16910	1.35992	0.12928
3111.000	0.02372	-0.15120	1.34609	0.13127
3112.000	0.01977	-0.12533	1.36585	0.13524
3113.000	0.01186	-0.11340	1.34412	0.17701
3114.000	0.09885	-0.15915	1.33424	0.17502
3115.000	0.04745	-0.11539	1.31843	0.16309
3116.000	0.04547	-0.16114	1.32238	0.16508
3117.000	0.02372	-0.12533	1.36190	0.15115
3118.000	0.08303	-0.11738	1.36585	0.14917
3119.000	0.02570	-0.11340	1.33621	0.21480
3120.000	0.00198	-0.15518	1.33424	0.13922
3121.000	-0.00593	-0.18303	1.32633	0.14519
3122.000	0.10478	-0.17109	1.31052	0.14718
3123.000	0.06920	-0.12136	1.31645	0.20088
3124.000	0.04943	-0.14921	1.32831	0.19292
3125.000	0.07315	-0.15319	1.34016	0.12928
3126.000	0.01977	-0.15319	1.36783	0.14519
3127.000	0.08106	-0.13528	1.32633	0.22077
3128.000	0.03756	-0.14324	1.32633	0.17502
3129.000	0.06326	-0.12136	1.31052	0.24265
3130.000	0.02768	-0.12931	1.32238	0.23469
3131.000	0.02768	-0.15319	1.31250	0.18298
3132.000	0.01779	-0.15120	1.29076	0.17304
3133.000	0.03163	-0.13130	1.33424	0.22872
3134.000	0.01779	-0.14722	1.26508	0.23271
3135.000	0.07710	-0.11937	1.29669	0.18895
3136.000	0.00000	-0.10743	1.31250	0.14320
3137.000	0.07710	-0.18104	1.33819	0.14917
3138.000	0.01186	-0.18104	1.33621	0.14320
3139.000	0.05140	-0.17109	1.32040	0.17502
3140.000	0.01186	-0.15319	1.31250	0.16309
3141.000	-0.02966	-0.14324	1.34412	0.10740
3142.000	0.08699	-0.08356	1.29669	0.14320
3143.000	0.04152	-0.09549	1.33424	0.12331
3144.000	0.01779	-0.13130	1.29867	0.18696
3145.000	0.04547	-0.10544	1.33621	0.18298
3146.000	0.05140	-0.17905	1.32831	0.23270
3147.000	0.09094	-0.12136	1.33621	0.19093
3148.000	-0.01582	-0.17507	1.33226	0.16508
3149.000	0.03954	-0.11141	1.30262	0.20685
3150.000	0.08303	-0.14722	1.32436	0.19889
3151.000	0.03756	-0.11738	1.39351	0.17701
3152.000	0.02175	-0.18900	1.38166	0.20684
3153.000	0.06524	-0.11937	1.33621	0.26054
3154.000	0.05733	-0.14921	1.29274	0.18497
3155.000	0.03361	-0.08356	1.29076	0.23270
3156.000	0.06326	-0.19894	1.32831	0.19889
3157.000	0.01779	-0.13329	1.32040	0.18497
3158.000	0.06326	-0.21685	1.31052	0.20685
3159.000	0.07513	-0.16313	1.27496	0.21480
3160.000	0.07117	-0.12931	1.29472	0.24066
3161.000	0.00989	-0.19297	1.29669	0.16906
3162.000	0.01582	-0.19496	1.32831	0.17502
3163.000	0.07710	-0.12334	1.32040	0.21480
3164.000	0.04152	-0.15518	1.30657	0.22674
3165.000	0.04745	-0.15717	1.36783	0.24861
3166.000	0.09687	-0.11937	1.29274	0.22873
3167.000	0.07315	-0.12334	1.34412	0.15513
3168.000	0.00395	-0.17706	1.31052	0.23668
3169.000	0.10280	-0.08754	1.35399	0.19889
3170.000	0.09490	-0.09549	1.26508	0.18895
3171.000	0.05733	-0.15717	1.34609	0.20088
3172.000	0.10280	-0.10544	1.30460	0.16508
3173.000	0.08699	-0.08952	1.30064	0.20884
3174.000	0.03954	-0.05968	1.32633	0.20287
3175.000	0.03954	-0.13926	1.31250	0.14917
3176.000	0.06326	-0.07560	1.29867	0.18298
3177.000	0.03559	-0.08555	1.31843	0.21281
3178.000	0.10874	-0.15518	1.35992	0.19491
3179.000	0.06524	-0.15319	1.33028	0.20684
3180.000	0.07117	-0.13727	1.34214	0.20485
3181.000	0.12060	-0.12931	1.33028	0.21082
3182.000	0.03559	-0.18701	1.33621	0.18696
3183.000	0.00198	-0.18900	1.29867	0.18497
3184.000	0.07315	-0.17905	1.31052	0.26651
3185.000	0.01779	-0.14722	1.31645	0.21082
3186.000	0.03361	-0.14324	1.26310	0.24464
3187.000	0.04943	-0.15717	1.26112	0.22276
3188.000	0.11664	-0.21287	1.23741	0.22475
3189.000	-0.03756	-0.27454	1.31645	0.23071
3190.000	0.08106	-0.21685	1.36387	0.18298
3191.000	0.06326	-0.13130	1.33226	0.21082
3192.000	0.01384	-0.23873	1.31250	0.23270
3193.000	0.05733	-0.22679	1.32831	0.21281
3194.000	0.03559	-0.25664	1.33819	0.24662
3195.000	-0.00593	-0.16512	1.32831	0.21281
3196.000	0.04547	-0.20093	1.29669	0.22873
3197.000	0.02768	-0.21685	1.32238	0.23270
3198.000	-0.03559	-0.17507	1.29669	0.22077
3199.000	0.04152	-0.18303	1.37375	0.21679
3200.000	0.08106	-0.22282	1.30855	0.21082
3201.000	0.08699	-0.19099	1.34609	0.22872
3202.000	0.04943	-0.17706	1.28879	0.24862
3203.000	0.03756	-0.15717	1.26705	0.25061
3204.000	-0.05733	-0.18701	1.29274	0.22873
3205.000	0.03756	-0.17308	1.29076	0.21679
3206.000	0.04745	-0.14324	1.28681	0.17304
3207.000	-0.01977	-0.19297	1.34609	0.18894
3208.000	-0.01384	-0.18303	1.29274	0.18895
3209.000	-0.00593	-0.12136	1.32633	0.17900
3210.000	0.02966	-0.12931	1.35202	0.17303
3211.000	0.06326	-0.14722	1.35597	0.18695
3212.000	0.00198	-0.15717	1.31448	0.13525
3213.000	-0.05536	-0.14324	1.29472	0.22674
3214.000	0.05338	-0.10942	1.32040	0.14917
3215.000	0.09687	-0.15716	1.29274	0.20287
3216.000	0.05140	-0.09748	1.26508	0.19889
3217.000	0.07908	-0.06764	1.31843	0.17502
3218.000	0.04745	-0.06963	1.34016	0.16508
3219.000	0.00593	-0.10146	1.28681	0.20685
3220.000	0.08106	-0.09350	1.35004	0.12530
3221.000	0.16014	-0.03979	1.32238	0.18298
3222.000	0.13246	-0.09748	1.31843	0.14121
3223.000	0.10478	-0.01989	1.31448	0.16110
3224.000	0.08699	-0.04974	1.30657	0.16110
3225.000	0.09094	-0.08754	1.25520	0.24265
3226.000	0.05536	-0.11738	1.32633	0.16707
3227.000	0.05536	-0.05968	1.28879	0.11138
3228.000	0.07117	-0.11141	1.27100	0.19889
3229.000	0.10874	-0.08952	1.34214	0.16707
3230.000	0.06920	-0.10146	1.31448	0.16906
3231.000	0.06920	-0.09549	1.34807	0.18497
3232.000	0.10280	-0.04377	1.33424	0.13127
3233.000	0.12850	-0.10345	1.31250	0.17502
3234.000	0.08106	-0.07560	1.29669	0.19094
3235.000	0.00791	-0.10743	1.29076	0.20486
3236.000	0.06326	-0.09350	1.27693	0.20486
3237.000	0.05338	-0.15915	1.30460	0.18298
3238.000	0.10478	-0.08952	1.33819	0.18298
3239.000	0.14234	-0.06366	1.27693	0.16906
3240.000	0.17002	-0.07958	1.26705	0.14917
3241.000	0.14630	-0.06366	1.32633	0.17900
3242.000	0.08501	-0.09151	1.32238	0.24861
3243.000	0.03361	-0.11141	1.27496	0.18099
3244.000	0.06524	-0.12732	1.31250	0.09746
3245.000	0.07908	-0.14921	1.34016	0.20088
3246.000	0.06722	-0.08555	1.35202	0.17701
3247.000	0.13641	-0.04576	1.29274	0.19690
3248.000	0.09885	-0.09947	1.30855	0.21480
3249.000	0.06326	-0.09748	1.27100	0.23867
3250.000	0.07513	-0.09350	1.31448	0.19093
3251.000	0.11269	-0.09350	1.30657	0.23270
3252.000	0.11862	-0.06764	1.31052	0.19690
3253.000	0.08106	-0.07560	1.30064	0.24464
3254.000	0.13839	-0.08753	1.29472	0.16508
3255.000	0.09094	-0.10942	1.30064	0.19094
3256.000	0.16211	-0.11141	1.28286	0.25856
3257.000	0.21352	-0.08157	1.31843	0.21082
3258.000	0.26492	-0.06167	1.26112	0.29237
3259.000	0.10676	-0.04178	1.31645	0.22276
3260.000	0.18188	-0.04377	1.22753	0.22078
3261.000	0.21549	-0.13528	1.30657	0.24861
3262.000	0.15223	-0.06764	1.24136	0.26453
3263.000	0.18386	-0.06963	1.30855	0.22475
3264.000	0.16211	-0.12334	1.34214	0.22474
3265.000	0.15816	-0.07958	1.29472	0.30629
3266.000	0.19770	-0.01592	1.26310	0.24862
3267.000	0.14234	-0.11340	1.26508	0.23072
3268.000	0.09687	-0.05173	1.26903	0.20486
3269.000	0.13048	-0.10743	1.26310	0.23470
3270.000	0.13444	-0.07560	1.27693	0.26851
3271.000	0.21747	-0.06963	1.25717	0.27249
3272.000	0.17200	-0.02984	1.25520	0.26254
3273.000	0.19375	-0.08952	1.28088	0.23469
3274.000	0.14630	-0.10942	1.26705	0.26453
3275.000	0.15223	-0.11937	1.29076	0.27646
3276.000	0.16211	-0.06764	1.28484	0.28442
3277.000	0.11862	-0.08555	1.23939	0.31227
3278.000	0.13444	-0.12931	1.26310	0.29436
3279.000	0.19177	-0.10942	1.26508	0.30630
3280.000	0.16211	-0.15120	1.23939	0.27845
3281.000	0.08501	-0.11738	1.23148	0.26254
3282.000	0.17595	-0.14523	1.24927	0.28442
3283.000	0.12257	-0.14921	1.26310	0.30431
3284.000	0.14827	-0.15915	1.25322	0.33613
3285.000	0.14037	-0.14921	1.29274	0.33811
3286.000	0.14827	-0.19098	1.26508	0.29436
3287.000	0.18188	-0.09947	1.22358	0.26652
3288.000	0.21154	-0.09748	1.25717	0.24265
3289.000	0.17595	-0.12135	1.25322	0.34011
3290.000	0.13839	-0.14921	1.31052	0.29635
3291.000	0.22340	-0.09549	1.32238	0.28242
3292.000	0.19770	-0.16512	1.31250	0.29436
3293.000	0.12060	-0.11937	1.33028	0.29038
3294.000	0.17595	-0.10345	1.27693	0.30033
3295.000	0.17398	-0.14125	1.26903	0.25856
3296.000	0.20758	-0.17905	1.27298	0.28243
3297.000	0.22340	-0.12732	1.29472	0.30033
3298.000	0.21352	-0.12334	1.30262	0.27845
3299.000	0.23724	-0.11738	1.28484	0.25259
3300.000	0.21747	-0.15915	1.29274	0.29436
3301.000	0.12060	-0.19297	1.24532	0.25658
3302.000	0.22933	-0.17308	1.27298	0.31823
3303.000	0.19375	-0.10743	1.28088	0.28442
3304.000	0.17398	-0.10743	1.29076	0.30033
3305.000	0.18386	-0.06963	1.28879	0.29038
3306.000	0.23922	-0.10544	1.24334	0.32420
3307.000	0.20758	-0.15915	1.30262	0.36397
3308.000	0.23526	-0.15120	1.31448	0.33214
3309.000	0.28271	-0.16512	1.26310	0.36198
3310.000	0.14037	-0.17706	1.23544	0.37591
3311.000	0.27085	-0.18104	1.26310	0.31425
3312.000	0.20758	-0.18899	1.26903	0.30431
3313.000	0.20363	-0.09748	1.26310	0.29237
3314.000	0.26887	-0.16512	1.29274	0.33016
3315.000	0.23922	-0.13727	1.33424	0.33214
3316.000	0.24910	-0.14523	1.29076	0.25657
3317.000	0.19375	-0.17507	1.32633	0.29833
3318.000	0.17200	-0.20491	1.34412	0.31225
3319.000	0.12850	-0.21088	1.28286	0.35602
3320.000	0.20758	-0.18104	1.34016	0.31026
3321.000	0.18188	-0.11937	1.31250	0.33612
3322.000	0.15025	-0.14722	1.27298	0.29436
3323.000	0.23131	-0.20491	1.30657	0.27646
3324.000	0.28271	-0.16711	1.26508	0.31027
3325.000	0.21945	-0.15319	1.32040	0.24861
3326.000	0.25899	-0.13926	1.32040	0.26452
3327.000	0.24712	-0.11539	1.32238	0.27646
3328.000	0.21549	-0.19894	1.29076	0.28044
3329.000	0.17200	-0.14523	1.33819	0.20684
3330.000	0.27678	-0.09549	1.29472	0.21281
3331.000	0.18584	-0.18104	1.30262	0.23469
3332.000	0.19968	-0.06366	1.33819	0.18696
3333.000	0.19770	-0.12533	1.31250	0.25657
3334.000	0.26689	-0.11936	1.29472	0.25259
3335.000	0.15025	-0.18303	1.34609	0.23071
3336.000	0.20561	-0.13528	1.31250	0.21082
3337.000	0.24712	-0.09748	1.29076	0.21679
3338.000	0.30446	-0.11141	1.31250	0.22276
3339.000	0.21352	-0.15915	1.28681	0.19690
3340.000	0.25701	-0.14125	1.27891	0.26851
3341.000	0.29259	-0.19496	1.37968	0.21082
3342.000	0.26294	-0.11738	1.31645	0.22673
3343.000	0.29852	-0.13130	1.31843	0.19889
3344.000	0.22735	-0.17308	1.28879	0.23469
3345.000	0.25108	-0.17706	1.32238	0.24662
3346.000	0.32027	-0.13329	1.29472	0.24861
3347.000	0.23131	-0.18303	1.34016	0.18497
3348.000	0.30446	-0.12732	1.33028	0.23867
3349.000	0.27282	-0.12135	1.29076	0.22475
3350.000	0.29852	-0.08157	1.33621	0.24463
3351.000	0.34399	-0.15517	1.32436	0.24662
3352.000	0.30248	-0.14523	1.33424	0.24463
3353.000	0.33806	-0.12135	1.30855	0.25060
3354.000	0.28073	-0.09350	1.33226	0.23071
3355.000	0.31039	-0.12732	1.30855	0.26452
3356.000	0.29259	-0.12334	1.31843	0.19690
3357.000	0.34399	-0.12931	1.34214	0.21878
3358.000	0.34399	-0.13130	1.32633	0.24463
3359.000	0.40726	-0.11538	1.31250	0.26253
3360.000	0.33806	-0.14125	1.31645	0.25060
3361.000	0.33806	-0.11737	1.28088	0.30629
3362.000	0.24712	-0.19098	1.35202	0.22275
3363.000	0.33609	-0.11340	1.32831	0.29833
3364.000	0.36969	-0.04576	1.28681	0.26453
3365.000	0.25305	-0.20491	1.34412	0.26054
3366.000	0.26689	-0.15915	1.34412	0.23071
3367.000	0.38749	-0.09947	1.31250	0.28242
3368.000	0.21747	-0.14523	1.30460	0.29436
3369.000	0.34399	-0.13727	1.33226	0.25657
3370.000	0.36376	-0.12135	1.32633	0.26054
3371.000	0.38353	-0.08554	1.29867	0.25458
3372.000	0.31632	-0.10544	1.28484	0.23072
3373.000	0.31829	-0.10146	1.33819	0.21679
3374.000	0.35388	-0.09549	1.31052	0.33016
3375.000	0.38749	-0.17109	1.30855	0.24861
3376.000	0.34004	-0.12931	1.33819	0.22872
3377.000	0.35586	-0.10544	1.30657	0.20088
3378.000	0.33411	-0.11737	1.31052	0.20685
3379.000	0.29259	-0.15915	1.28484	0.25657
3380.000	0.38551	-0.11538	1.30064	0.25458
3381.000	0.33016	-0.14722	1.30460	0.25458
3382.000	0.34399	-0.12732	1.26508	0.21481
3383.000	0.33213	-0.12135	1.25717	0.25458
3384.000	0.32422	-0.12732	1.28088	0.24066
3385.000	0.29852	-0.12533	1.23741	0.28243
3386.000	0.33609	-0.12135	1.25322	0.25260
3387.000	0.32225	-0.09151	1.22160	0.29238
3388.000	0.33213	-0.14722	1.27496	0.30629
3389.000	0.31829	-0.12931	1.21963	0.33613
3390.000	0.25108	-0.13329	1.25915	0.22276
3391.000	0.27678	-0.18104	1.27693	0.30431
3392.000	0.32620	-0.10345	1.26903	0.27248
3393.000	0.37167	-0.06764	1.25520	0.28442
3394.000	0.31632	-0.12533	1.23741	0.25856
3395.000	0.34202	-0.09350	1.22555	0.28641
3396.000	0.32225	-0.13329	1.21765	0.29636
3397.000	0.33213	-0.08355	1.25915	0.30033
3398.000	0.32027	-0.12135	1.21963	0.31028
3399.000	0.33806	-0.11539	1.22555	0.29238
3400.000	0.34597	-0.19297	1.28484	0.31624
3401.000	0.35981	-0.09350	1.24532	0.30033
3402.000	0.33806	-0.11737	1.26903	0.27845
3403.000	0.38946	-0.11936	1.27891	0.31823
3404.000	0.32225	-0.21088	1.22160	0.30431
3405.000	0.34399	-0.15716	1.22951	0.29039
3406.000	0.33016	-0.17905	1.29867	0.29436
3407.000	0.37167	-0.06565	1.19394	0.30630
3408.000	0.40726	-0.17109	1.25520	0.29436
3409.000	0.40133	-0.18899	1.20184	0.28244
3410.000	0.38551	-0.14125	1.22358	0.26652
3411.000	0.37760	-0.17706	1.25322	0.30829
3412.000	0.32818	-0.18501	1.22753	0.31624
3413.000	0.38156	-0.14125	1.23741	0.35005
3414.000	0.30841	-0.24271	1.23741	0.34011
3415.000	0.36772	-0.12334	1.20184	0.35802
3416.000	0.30841	-0.14523	1.23939	0.38387
3417.000	0.40330	-0.07162	1.23939	0.34608
3418.000	0.36376	-0.11936	1.23939	0.38387
3419.000	0.34597	-0.14920	1.20777	0.39183
3420.000	0.35783	-0.07560	1.28088	0.36596
3421.000	0.36772	-0.16512	1.25124	0.39779
3422.000	0.39342	-0.08156	1.23148	0.35006
3423.000	0.38946	-0.13329	1.24927	0.45347
3424.000	0.44679	-0.16711	1.22358	0.41768
3425.000	0.41319	-0.10544	1.18406	0.43360
3426.000	0.47645	-0.10345	1.22358	0.45149
3427.000	0.47842	-0.09748	1.23939	0.46143
3428.000	0.49028	-0.12334	1.22160	0.40972
3429.000	0.42900	-0.08156	1.21370	0.40376
3430.000	0.41516	-0.16313	1.24927	0.40773
3431.000	0.38946	-0.12135	1.26112	0.43557
3432.000	0.47249	-0.07361	1.26903	0.42364
3433.000	0.39342	-0.15716	1.27496	0.42563
3434.000	0.40923	-0.17507	1.25124	0.44552
3435.000	0.43098	-0.09947	1.27891	0.45148
3436.000	0.47447	-0.13528	1.22951	0.51115
3437.000	0.40528	-0.11538	1.25322	0.53899
3438.000	0.46063	-0.08355	1.21370	0.49525
3439.000	0.40726	-0.02984	1.26112	0.56882
3440.000	0.39935	-0.08952	1.20382	0.56088
3441.000	0.49028	-0.03382	1.21963	0.60264
3442.000	0.43889	0.03581	1.20777	0.58872
3443.000	0.44086	0.02984	1.19394	0.62253
3444.000	0.46063	0.04377	1.21765	0.61258
3445.000	0.48040	0.06963	1.22555	0.65832
3446.000	0.54366	0.15517	1.20184	0.64043
3447.000	0.50808	0.15119	1.19591	0.68220
3448.000	0.41319	0.14324	1.16232	0.68618
3449.000	0.54366	0.17506	1.17022	0.69811
3450.000	0.50215	0.13727	1.19591	0.71799
3451.000	0.53378	0.22678	1.16232	0.70607
3452.000	0.52982	0.22281	1.15837	0.74783
3453.000	0.56343	0.18302	1.13663	0.81744
3454.000	0.54366	0.24668	1.15046	0.78761
3455.000	0.61285	0.23076	1.14848	0.86517
3456.000	0.60889	0.21286	1.12872	0.96858
3457.000	0.58517	0.20490	1.17813	0.95663
3458.000	0.63855	0.13925	1.22358	0.94468
3459.000	0.67215	0.12135	1.21370	0.91287
3460.000	0.72354	0.05769	1.31052	0.91880
3461.000	0.80459	-0.01989	1.33819	0.84721
3462.000	0.84807	-0.10742	1.38561	0.84918
3463.000	0.87772	-0.19295	1.45081	0.75769
3464.000	0.92318	-0.31230	1.64046	0.61844
3465.000	0.94295	-0.49927	1.72145	0.68005
3466.000	0.91725	-0.69618	1.90513	0.75751
3467.000	0.78482	-0.76383	2.03941	0.93237
3468.000	0.75319	-0.82350	2.09864	1.18077
3469.000	0.77494	-0.80957	2.23486	1.55219
3470.000	0.69587	-0.74196	2.23091	2.07648
3471.000	0.64250	-0.80960	2.24670	2.71543
3472.000	0.57331	-0.83944	2.29605	3.39126
3473.000	0.47645	-0.95083	2.20525	4.04869
3474.000	0.34004	-1.30880	2.30394	4.80521
3475.000	0.26492	-1.26109	2.11443	5.66539
3476.000	0.16211	-1.12985	1.97227	6.47391
3477.000	0.06920	-0.82357	1.88538	7.45183
3478.000	0.15618	-0.43170	1.87353	8.36869
3479.000	0.23724	-0.05769	1.89328	9.47466
3480.000	0.30446	0.32825	1.95055	10.60596
3481.000	0.49424	0.75194	NaN	NaN
3482.000	0.52389	1.15566	NaN	NaN
3483.000	0.70575	1.67649	NaN	NaN
3484.000	0.85796	2.15132	NaN	NaN
3485.000	1.00421	2.74290	NaN	NaN
3486.000	1.11291	3.31604	NaN	NaN
3487.000	1.23741	3.85081	NaN	NaN
3488.000	1.35597	4.49161	NaN	NaN
3489.000	1.45674	5.15295	NaN	NaN
3490.000	1.55947	5.69668	NaN	NaN
3491.000	1.62861	6.43978	NaN	NaN
3492.000	1.62269	7.04189	NaN	NaN
3493.000	1.67800	7.79648	NaN	NaN
3494.000	1.78466	8.47612	NaN	NaN
3495.000	1.60096	9.39483	NaN	NaN
3496.000	1.48835	10.25646	NaN	NaN
3497.000	1.36980	11.11542	NaN	NaN
3498.000	-2.40065	12.87190	NaN	NaN
3499.000	-2.60981	13.76569	NaN	NaN
3500.000	-2.91554	14.70496	NaN	NaN
3501.000	-2.80313	15.49351	NaN	NaN
3502.000	-3.15605	16.31921	NaN	NaN
3503.000	-3.36888	17.11565	NaN	NaN
3504.000	NaN	NaN	NaN	NaN
3505.000	NaN	NaN	NaN	NaN
3506.000	NaN	NaN	NaN	NaN
3507.000	NaN	NaN	NaN	NaN
3508.000	NaN	NaN	NaN	NaN
3509.000	NaN	NaN	NaN	NaN
3510.000	NaN	NaN	NaN	NaN
3511.000	NaN	NaN	NaN	NaN
3512.000	NaN	NaN	NaN	NaN
3513.000	NaN	NaN	NaN	NaN
3514.000	NaN	NaN	NaN	NaN
3515.000	NaN	NaN	NaN	NaN
3516.000	NaN	NaN	NaN	NaN
3517.000	NaN	NaN	NaN	NaN
3518.000	NaN	NaN	NaN	NaN
3519.000	NaN	NaN	NaN	NaN
3520.000	NaN	NaN	NaN	NaN
3521.000	NaN	NaN	NaN	NaN
3522.000	NaN	NaN	NaN	NaN
3523.000	NaN	NaN	NaN	NaN
3524.000	NaN	NaN	NaN	NaN
3525.000	NaN	NaN	NaN	NaN
3526.000	NaN	NaN	NaN	NaN
3527.000	NaN	NaN	NaN	NaN
3528.000	NaN	NaN	NaN	NaN
3529.000	NaN	NaN	NaN	NaN
3530.000	NaN	NaN	NaN	NaN
3531.000	NaN	NaN	NaN	NaN
3532.000	NaN	NaN	NaN	NaN
3533.000	NaN	NaN	NaN	NaN
3534.000	NaN	NaN	NaN	NaN
3535.000	NaN	NaN	NaN	NaN
3536.000	NaN	NaN	NaN	NaN
3537.000	NaN	NaN	NaN	NaN
3538.000	NaN	NaN	NaN	NaN
3539.000	NaN	NaN	NaN	NaN
3540.000	NaN	NaN	NaN	NaN
3541.000	NaN	NaN	NaN	NaN
3542.000	NaN	NaN	NaN	NaN
3543.000	NaN	NaN	NaN	NaN
3544.000	NaN	NaN	NaN	NaN
3545.000	NaN	NaN	NaN	NaN
3546.000	NaN	NaN	NaN	NaN
3547.000	NaN	NaN	NaN	NaN
3548.000	NaN	NaN	NaN	NaN
3549.000	NaN	NaN	NaN	NaN
3550.000	NaN	NaN	NaN	NaN
3551.000	NaN	NaN	NaN	NaN
3552.000	NaN	NaN	NaN	NaN
3553.000	NaN	NaN	NaN	NaN
3554.000	NaN	NaN	NaN	NaN
3555.000	NaN	NaN	NaN	NaN
3556.000	NaN	NaN	NaN	NaN
3557.000	NaN	NaN	NaN	NaN
3558.000	NaN	NaN	NaN	NaN
3559.000	NaN	NaN	NaN	NaN
3560.000	NaN	NaN	NaN	NaN
3561.000	NaN	NaN	NaN	NaN
3562.000	NaN	NaN	NaN	NaN
3563.000	NaN	NaN	NaN	NaN
3564.000	NaN	NaN	NaN	NaN
3565.000	NaN	NaN	NaN	NaN
3566.000	NaN	NaN	NaN	NaN
3567.000	NaN	NaN	NaN	NaN
3568.000	NaN	NaN	NaN	NaN
3569.000	NaN	NaN	NaN	NaN
3570.000	NaN	NaN	NaN	NaN
3571.000	NaN	NaN	NaN	NaN
3572.000	NaN	NaN	NaN	NaN
3573.000	NaN	NaN	NaN	NaN
3574.000	NaN	NaN	NaN	NaN
3575.000	NaN	NaN	NaN	NaN
3576.000	NaN	NaN	NaN	NaN
3577.000	NaN	NaN	NaN	NaN
3578.000	NaN	NaN	NaN	NaN
3579.000	NaN	NaN	NaN	NaN
3580.000	NaN	NaN	NaN	NaN
3581.000	NaN	NaN	NaN	NaN
3582.000	NaN	NaN	NaN	NaN
3583.000	NaN	NaN	NaN	NaN
3584.000	NaN	NaN	NaN	NaN
3585.000	NaN	NaN	NaN	NaN
3586.000	NaN	NaN	NaN	NaN
3587.000	NaN	NaN	NaN	NaN
3588.000	NaN	NaN	NaN	NaN
3589.000	NaN	NaN	NaN	NaN
3590.000	NaN	NaN	NaN	NaN
3591.000	NaN	NaN	NaN	NaN
3592.000	NaN	NaN	NaN	NaN
3593.000	NaN	NaN	NaN	NaN
3594.000	NaN	NaN	NaN	NaN
3595.000	0.98643	12.16255	NaN	NaN
3596.000	2.23486	10.87464	NaN	NaN
3597.000	3.55404	9.27821	NaN	NaN
3598.000	3.41419	8.76818	NaN	NaN
3599.000	3.16985	8.30991	NaN	NaN
3600.000	3.02792	7.84948	NaN	NaN
3601.000	2.91159	7.28801	NaN	NaN
3602.000	2.68675	6.89996	NaN	NaN
3603.000	2.54076	6.48514	NaN	NaN
3604.000	2.36513	6.01458	NaN	NaN
3605.000	2.23880	5.60980	NaN	NaN
3606.000	2.16379	5.18644	NaN	NaN
3607.000	2.11048	4.86308	NaN	NaN
3608.000	1.91698	4.40933	NaN	NaN
3609.000	1.80441	4.03385	NaN	NaN
3610.000	1.73725	3.74699	NaN	NaN
3611.000	1.64639	3.46194	NaN	NaN
3612.000	1.52984	3.14301	NaN	NaN
3613.000	1.44883	2.80594	NaN	NaN
3614.000	1.30657	2.49452	NaN	NaN
3615.000	1.22753	2.22058	NaN	NaN
3616.000	1.06351	1.94657	NaN	NaN
3617.000	0.98247	1.68432	NaN	NaN
3618.000	0.91527	1.46968	NaN	NaN
3619.000	0.78482	1.21724	NaN	NaN
3620.000	0.68203	1.02239	NaN	NaN
3621.000	0.62471	0.81954	NaN	NaN
3622.000	0.50017	0.64254	NaN	NaN
3623.000	0.41912	0.46948	NaN	NaN
3624.000	0.39342	0.26260	6.58199	8.94459
3625.000	0.34993	0.06366	4.07956	8.59291
3626.000	0.32422	-0.07560	1.57132	7.80275
3627.000	0.32422	-0.33223	1.63849	7.26894
3628.000	0.31236	-0.44562	1.78466	6.74341
3629.000	0.31829	-0.63857	1.75503	6.25473
3630.000	0.34993	-0.77184	1.75898	5.69217
3631.000	0.38946	-0.87924	1.78071	5.26257
3632.000	0.37167	-1.05824	1.90118	4.82027
3633.000	0.49226	-1.08407	1.84588	4.49054
3634.000	0.47249	-1.17356	1.94067	4.09091
3635.000	0.52389	-1.24116	1.89130	3.64767
3636.000	0.53180	-1.31274	1.96635	3.27904
3637.000	0.58913	-1.29682	2.03348	2.86259
3638.000	0.60099	-1.32466	2.07100	2.52132
3639.000	0.68203	-1.24908	2.02953	2.16212
3640.000	0.67808	-1.22124	2.40460	1.71089
3641.000	0.73540	-1.22521	2.29013	1.47466
3642.000	0.77296	-1.23712	2.28223	1.21043
3643.000	0.75517	-1.27292	2.19143	1.00184
3644.000	0.83424	-1.22518	2.34539	0.70165
3645.000	0.69389	-1.20732	2.34144	0.45122
3646.000	0.74924	-1.24111	2.40263	0.21467
3647.000	0.74133	-1.28286	2.20919	0.12723
3648.000	0.77889	-1.28882	2.26447	-0.11530
3649.000	0.81052	-1.29080	2.20919	-0.22464
3650.000	0.80656	-1.27887	2.11048	-0.41550
3651.000	0.79273	-1.29876	2.03743	-0.53480
3652.000	0.72947	-1.34252	1.63651	-0.43152
3653.000	0.77691	-1.36039	1.53774	-0.48325
3654.000	0.77691	-1.33654	1.52589	-0.63438
3655.000	0.73738	-1.33854	1.46069	-0.72189
3656.000	0.70773	-1.39620	1.43500	-0.80740
3657.000	0.75122	-1.34450	1.36585	-0.90486
3658.000	0.70971	-1.32662	1.28286	-0.95659
3659.000	0.75319	-1.36239	1.21172	-0.99241
3660.000	0.72157	-1.37632	1.20382	-1.02621
3661.000	0.67017	-1.34651	1.23741	-1.16538
3662.000	0.74529	-1.32660	1.18406	-1.16142
3663.000	0.73145	-1.34848	1.17813	-1.24095
3664.000	0.71564	-1.44590	1.17813	-1.16938
3665.000	0.64843	-1.37435	1.15639	-1.20120
3666.000	0.61482	-1.44394	1.13070	-1.14753
3667.000	0.68796	-1.41609	1.05165	-1.07598
3668.000	0.68796	-1.49362	1.00619	-1.00043
3669.000	0.72552	-1.42602	0.98840	-0.97061
3670.000	0.68994	-1.40615	0.95678	-0.90897
3671.000	0.62471	-1.44195	0.90144	-0.96069
3672.000	0.68994	-1.45386	0.91527	-0.87517
3673.000	0.70773	-1.39421	0.89749	-0.85728
3674.000	0.67808	-1.47176	0.88167	-0.83541
3675.000	0.74133	-1.42999	0.84017	-0.84138
3676.000	0.75122	-1.40016	0.86784	-0.90303
3677.000	0.77889	-1.41407	0.82831	-0.88116
3678.000	0.75319	-1.45782	0.87970	-0.89507
3679.000	0.78877	-1.44190	0.85005	-0.95076
3680.000	0.77296	-1.42998	0.85005	-0.94082
3681.000	0.70180	-1.44988	0.85005	-0.96866
3682.000	0.72157	-1.45385	0.85598	-0.94081
3683.000	0.74331	-1.46776	0.91527	-0.99847
3684.000	0.69785	-1.39620	0.89156	-0.96268
3685.000	0.63064	-1.42207	0.86784	-1.00246
3686.000	0.67610	-1.43796	0.86191	-1.02036
3687.000	0.67808	-1.45386	0.89551	-1.01836
3688.000	0.70575	-1.44789	0.86586	-0.99848
3689.000	0.71564	-1.39421	0.83424	-0.98855
3690.000	0.68994	-1.42006	0.83621	-1.01042
3691.000	0.70575	-1.43199	0.87179	-0.98854
3692.000	0.69389	-1.47175	0.84017	-1.00843
3693.000	0.71959	-1.39421	0.83028	-0.99451
3694.000	0.64448	-1.44990	0.85993	-0.96865
3695.000	0.69587	-1.45783	0.83621	-1.02832
3696.000	0.64843	-1.45586	0.87377	-0.95473
3697.000	0.63064	-1.52147	0.84610	-0.94678
3698.000	0.64645	-1.49363	0.87179	-0.95871
3699.000	0.62866	-1.50755	0.87970	-0.97462
3700.000	0.66227	-1.53339	0.84214	-0.97462
3701.000	0.59506	-1.45389	0.89156	-0.96268
3702.000	0.59703	-1.42208	0.84214	-0.97661
3703.000	0.55552	-1.48372	0.83819	-0.98457
3704.000	0.54761	-1.52149	0.82435	-1.01440
3705.000	0.60494	-1.46184	0.84214	-0.96667
3706.000	0.59901	-1.52744	0.83424	-0.95872
3707.000	0.62471	-1.45786	0.79866	-0.91895
3708.000	0.63459	-1.49364	0.85598	-0.94280
3709.000	0.61285	-1.52943	0.83621	-0.95474
3710.000	0.63459	-1.46581	0.82435	-0.95673
3711.000	0.59506	-1.52546	0.82040	-1.00645
3712.000	0.55750	-1.51155	0.83424	-0.96269
3713.000	0.65041	-1.55923	0.81447	-0.90304
3714.000	0.57924	-1.53142	0.80459	-0.92691
3715.000	0.58913	-1.54931	0.83621	-0.91894
3716.000	0.59308	-1.54931	0.85598	-0.95871
3717.000	0.56145	-1.54534	0.82238	-0.90503
3718.000	0.64843	-1.49960	0.87377	-0.93087
3719.000	0.61285	-1.52545	0.84412	-0.90104
3720.000	0.58122	-1.56522	0.84214	-0.95076
3721.000	0.61285	-1.48967	0.85993	-0.92490
3722.000	0.62273	-1.51153	0.85993	-0.88911
3723.000	0.56738	-1.51354	0.80854	-0.91099
3724.000	0.65436	-1.52941	0.85005	-0.96468
3725.000	0.64843	-1.56718	0.84214	-0.89110
3726.000	0.61482	-1.55328	0.83621	-0.93883
3727.000	0.62866	-1.48966	0.83424	-0.95275
3728.000	0.62273	-1.55924	0.82040	-0.97662
3729.000	0.66424	-1.56122	0.81249	-0.95673
3730.000	0.65041	-1.48568	0.83621	-0.90104
3731.000	0.70180	-1.57114	0.82633	-0.91298
3732.000	0.62471	-1.51153	0.81249	-0.93685
3733.000	0.59703	-1.53738	0.85005	-0.96070
3734.000	0.61087	-1.52147	0.85005	-0.97661
3735.000	0.62273	-1.51551	0.85796	-0.91297
3736.000	0.67017	-1.52345	0.82040	-0.98855
3737.000	0.70971	-1.53735	0.83819	-0.96269
3738.000	0.66424	-1.57314	0.86191	-0.95076
3739.000	0.67610	-1.55724	0.82238	-1.00048
3740.000	0.64250	-1.56917	0.79866	-0.97265
3741.000	0.68796	-1.55922	0.84017	-0.97463
3742.000	0.66424	-1.57712	0.83028	-0.98258
3743.000	0.63657	-1.51749	0.83621	-1.01042
3744.000	0.65041	-1.52941	0.83226	-0.97463
3745.000	0.68796	-1.56320	0.83424	-1.00644
3746.000	0.70378	-1.55325	0.83226	-1.02633
3747.000	0.62866	-1.55129	0.83028	-0.99253
3748.000	0.63459	-1.56520	0.85400	-1.03229
3749.000	0.63064	-1.53141	0.81842	-1.01639
3750.000	0.68203	-1.53338	0.82435	-1.00247
3751.000	0.64645	-1.57514	0.81842	-1.00247
3752.000	0.66227	-1.56122	0.85796	-1.04223
3753.000	0.63064	-1.58508	0.85598	-0.99848
3754.000	0.63064	-1.56123	0.83819	-0.94082
3755.000	0.64843	-1.59899	0.86388	-1.00246
3756.000	0.68203	-1.53338	0.85400	-0.99849
3757.000	0.70971	-1.54132	0.80854	-1.03031
3758.000	0.64448	-1.58309	0.81249	-0.98855
3759.000	0.66227	-1.60097	0.80261	-1.00446
3760.000	0.72354	-1.55126	0.85400	-1.01638
3761.000	0.66029	-1.54531	0.85796	-1.03030
3762.000	0.70773	-1.55921	0.86191	-1.01439
3763.000	0.74133	-1.50951	0.87574	-1.05615
3764.000	0.71366	-1.56716	0.83819	-1.05218
3765.000	0.71168	-1.60294	0.84017	-1.02036
3766.000	0.67413	-1.59103	0.88760	-1.05614
3767.000	0.70180	-1.61090	0.81052	-1.06213
3768.000	0.64448	-1.65266	0.81052	-1.04225
3769.000	0.64645	-1.60495	0.82831	-1.07605
3770.000	0.66820	-1.58706	0.81052	-1.12775
3771.000	0.69587	-1.60494	0.81645	-1.06014
3772.000	0.66622	-1.62681	0.79075	-1.08202
3773.000	0.66227	-1.56718	0.82633	-1.08798
3774.000	0.66227	-1.55724	0.85400	-1.12774
3775.000	0.66820	-1.62880	0.83028	-1.09792
3776.000	0.70575	-1.53337	0.79075	-1.08799
3777.000	0.61878	-1.54135	0.82435	-1.07804
3778.000	0.71366	-1.61089	0.83226	-1.13769
3779.000	0.65041	-1.61688	0.78680	-1.14764
3780.000	0.67808	-1.62283	0.83028	-1.17547
3781.000	0.72157	-1.64866	0.83028	-1.17746
3782.000	0.69785	-1.60692	0.78877	-1.16753
3783.000	0.75122	-1.63672	0.79075	-1.17150
3784.000	0.72947	-1.57908	0.80063	-1.13969
3785.000	0.66622	-1.60296	0.79866	-1.16156
3786.000	0.68401	-1.59898	0.85796	-1.18341
3787.000	0.76703	-1.61286	0.82040	-1.14962
3788.000	0.67808	-1.61091	0.82435	-1.16155
3789.000	0.68006	-1.59103	0.81842	-1.15956
3790.000	0.63855	-1.62682	0.80656	-1.12378
3791.000	0.65238	-1.61489	0.79668	-1.16752
3792.000	0.64052	-1.66657	0.83226	-1.14962
3793.000	0.69785	-1.56717	0.86981	-1.12972
3794.000	0.67808	-1.61886	0.83424	-1.19535
3795.000	0.65238	-1.63278	0.80063	-1.15957
3796.000	0.63064	-1.61688	0.81249	-1.16951
3797.000	0.65436	-1.65862	0.83621	-1.17746
3798.000	0.65436	-1.64669	0.82831	-1.17547
3799.000	0.66029	-1.65663	0.80854	-1.18542
3800.000	0.63262	-1.67453	0.79866	-1.15559
3801.000	0.66424	-1.63079	0.78087	-1.14367
3802.000	0.64052	-1.61688	0.79075	-1.15162
3803.000	0.65238	-1.66657	0.83819	-1.13967
3804.000	0.63064	-1.63080	0.81249	-1.11980
3805.000	0.72552	-1.66257	0.86191	-1.14563
3806.000	0.58913	-1.69243	0.79273	-1.09395
3807.000	0.70971	-1.66257	0.83424	-1.13968
3808.000	0.62471	-1.65068	0.83028	-1.11780
3809.000	0.73738	-1.64666	0.80459	-1.11582
3810.000	0.71761	-1.73015	0.84412	-1.11979
3811.000	0.69785	-1.66258	0.82040	-1.14763
3812.000	0.73343	-1.60890	0.84412	-1.10388
3813.000	0.66424	-1.67452	0.78482	-1.12776
3814.000	0.67215	-1.68246	0.82040	-1.14366
3815.000	0.68401	-1.62084	0.79273	-1.14168
3816.000	0.66227	-1.69638	0.80656	-1.13968
3817.000	0.71564	-1.62481	0.80854	-1.15360
3818.000	0.60296	-1.61888	0.76505	-1.15163
3819.000	0.68203	-1.65662	0.75517	-1.12379
3820.000	0.63459	-1.64074	0.76505	-1.12180
3821.000	0.67808	-1.62482	0.80261	-1.14764
3822.000	0.64250	-1.66459	0.79273	-1.13571
3823.000	0.64843	-1.62483	0.75912	-1.13373
3824.000	0.63064	-1.63477	0.76901	-1.13572
3825.000	0.72947	-1.60493	0.80063	-1.09196
3826.000	0.66227	-1.64470	0.83621	-1.08400
3827.000	0.62075	-1.68844	0.77494	-1.13373
3828.000	0.70180	-1.69637	0.82435	-1.13173
3829.000	0.62075	-1.71627	0.80261	-1.13173
3830.000	0.67808	-1.71029	0.79668	-1.14565
3831.000	0.67808	-1.67451	0.80656	-1.14167
3832.000	0.68006	-1.67054	0.77691	-1.15162
3833.000	0.63459	-1.72024	0.77296	-1.13174
3834.000	0.67017	-1.68644	0.78877	-1.16156
3835.000	0.68994	-1.68047	0.79273	-1.11583
3836.000	0.70971	-1.63276	0.76901	-1.07606
3837.000	0.64448	-1.65862	0.78482	-1.12776
3838.000	0.65831	-1.65067	0.79866	-1.12179
3839.000	0.61680	-1.69242	0.78877	-1.10588
3840.000	0.67808	-1.73811	0.79470	-1.13173
3841.000	0.70575	-1.73810	0.81249	-1.14167
3842.000	0.63657	-1.70633	0.80261	-1.19735
3843.000	0.61680	-1.71031	0.82040	-1.17547
3844.000	0.69982	-1.71823	0.78877	-1.12179
3845.000	0.67610	-1.70830	0.79273	-1.10390
3846.000	0.66424	-1.71626	0.80261	-1.14167
3847.000	0.63459	-1.75005	0.81052	-1.14366
3848.000	0.65238	-1.73216	0.78877	-1.08202
3849.000	0.66820	-1.73017	0.76901	-1.10191
3850.000	0.63262	-1.77788	0.78680	-1.12378
3851.000	0.64052	-1.74608	0.85796	-1.08598
3852.000	0.68796	-1.69041	0.79075	-1.09594
3853.000	0.62075	-1.68248	0.80459	-1.07406
3854.000	0.65238	-1.71427	0.83621	-1.08201
3855.000	0.62273	-1.66459	0.79668	-1.07804
3856.000	0.64843	-1.70831	0.81052	-1.05020
3857.000	0.60099	-1.73218	0.77296	-1.07407
3858.000	0.66622	-1.76992	0.77494	-1.13174
3859.000	0.67610	-1.74209	0.78877	-1.10390
3860.000	0.64052	-1.70036	0.79273	-1.05418
3861.000	0.65634	-1.73216	0.79075	-1.08600
3862.000	0.67215	-1.71228	0.83028	-1.11979
3863.000	0.67808	-1.72023	0.79866	-1.08799
3864.000	0.64448	-1.75005	0.81447	-1.08003
3865.000	0.64250	-1.75402	0.82633	-1.07008
3866.000	0.68006	-1.69439	0.82633	-1.07008
3867.000	0.63262	-1.68844	0.80459	-1.02833
3868.000	0.64250	-1.72421	0.78284	-1.10191
3869.000	0.64843	-1.70235	0.79668	-1.06611
3870.000	0.63262	-1.71627	0.80854	-1.08003
3871.000	0.64843	-1.74011	0.80459	-1.05816
3872.000	0.60099	-1.68050	0.82040	-1.07406
3873.000	0.58715	-1.71429	0.83819	-1.06809
3874.000	0.64052	-1.72819	0.80261	-1.04622
3875.000	0.66424	-1.78383	0.80063	-1.05617
3876.000	0.58122	-1.73814	0.79273	-1.09594
3877.000	0.62866	-1.72819	0.83819	-1.09593
3878.000	0.65041	-1.73216	0.83028	-1.11979
3879.000	0.62866	-1.73415	0.81645	-1.06014
3880.000	0.66622	-1.71029	0.84214	-1.02434
3881.000	0.65634	-1.79178	0.85203	-1.11581
3882.000	0.67215	-1.68246	0.81249	-1.04225
3883.000	0.64250	-1.72223	0.81249	-1.06213
3884.000	0.62866	-1.73813	0.80261	-1.03628
3885.000	0.63855	-1.70831	0.84017	-1.08996
3886.000	0.65238	-1.67850	0.82831	-1.00247
3887.000	0.64843	-1.66458	0.87772	-1.05615
3888.000	0.64843	-1.67253	0.81249	-1.02435
3889.000	0.67215	-1.70830	0.82831	-1.02434
3890.000	0.64645	-1.68247	0.82040	-1.05815
3891.000	0.65238	-1.70036	0.86388	-0.97064
3892.000	0.72157	-1.65661	0.78877	-0.99452
3893.000	0.69982	-1.68047	0.86191	-1.07206
3894.000	0.63262	-1.68248	0.84610	-1.02832
3895.000	0.67808	-1.68644	0.80854	-1.03628
3896.000	0.67808	-1.72221	0.84807	-1.02633
3897.000	0.69587	-1.67053	0.83226	-0.98656
3898.000	0.67215	-1.67849	0.84610	-1.01638
3899.000	0.60296	-1.67056	0.81842	-0.96668
3900.000	0.74331	-1.64269	0.85993	-0.99252
3901.000	0.66622	-1.71029	0.82040	-0.98060
3902.000	0.67610	-1.64867	0.85993	-1.05019
3903.000	0.71564	-1.70431	0.85598	-1.00843
3904.000	0.67017	-1.72818	0.84214	-0.97661
3905.000	0.71366	-1.70034	0.82435	-0.96866
3906.000	0.70773	-1.64469	0.86981	-0.98257
3907.000	0.70180	-1.67053	0.86784	-0.95672
3908.000	0.70971	-1.65264	0.87970	-0.93285
3909.000	0.68599	-1.67650	0.84412	-0.90900
3910.000	0.78877	-1.68838	0.84610	-0.89905
3911.000	0.68401	-1.68643	0.86586	-0.98058
3912.000	0.69785	-1.69438	0.81249	-0.95475
3913.000	0.70575	-1.68245	0.85993	-0.94678
3914.000	0.71564	-1.63077	0.83028	-0.92889
3915.000	0.72354	-1.67648	0.82633	-0.92093
3916.000	0.72750	-1.71623	0.83621	-0.88513
3917.000	0.74924	-1.66455	0.82040	-0.92491
3918.000	0.71168	-1.61885	0.78284	-0.92890
3919.000	0.72157	-1.65064	0.85993	-0.88712
3920.000	0.68401	-1.68047	0.80459	-0.91696
3921.000	0.75319	-1.61486	0.87970	-0.95473
3922.000	0.73540	-1.66455	0.85598	-0.93087
3923.000	0.67017	-1.65066	0.85005	-0.87320
3924.000	0.70378	-1.67450	0.83621	-0.91894
3925.000	0.66820	-1.70433	0.79668	-0.91100
3926.000	0.67610	-1.67849	0.87772	-0.88314
3927.000	0.71564	-1.60692	0.80459	-0.87122
3928.000	0.70971	-1.65462	0.85796	-0.91894
3929.000	0.72157	-1.58704	0.85005	-0.90900
3930.000	0.68796	-1.65066	0.85400	-0.91695
3931.000	0.73540	-1.67250	0.85598	-0.85132
3932.000	0.75715	-1.64666	0.86586	-0.91894
3933.000	0.72750	-1.62083	0.80459	-0.88315
3934.000	0.77296	-1.62479	0.84610	-0.87718
3935.000	0.81447	-1.57309	0.86191	-0.90502
3936.000	0.70180	-1.65264	0.86388	-0.88115
3937.000	0.74726	-1.63672	0.85203	-0.92888
3938.000	0.69389	-1.62879	0.82633	-0.90502
3939.000	0.74529	-1.59498	0.83028	-0.93684
3940.000	0.71761	-1.63673	0.85400	-0.89905
3941.000	0.73343	-1.58505	0.83819	-0.87519
3942.000	0.72552	-1.64071	0.85993	-0.89507
3943.000	0.69587	-1.64270	0.85005	-0.94479
3944.000	0.71761	-1.59300	0.79273	-0.91895
3945.000	0.72750	-1.63275	0.87970	-0.86921
3946.000	0.74331	-1.60492	0.90144	-0.89307
3947.000	0.76505	-1.61883	0.85796	-0.86126
3948.000	0.70378	-1.61090	0.85993	-0.87121
3949.000	0.76110	-1.58305	0.84412	-0.85928
3950.000	0.75517	-1.58305	0.82435	-0.82547
3951.000	0.73936	-1.56318	0.85005	-0.83143
3952.000	0.79470	-1.61683	0.81447	-0.84139
3953.000	0.78284	-1.61087	0.82831	-0.86724
3954.000	0.80854	-1.54328	0.83621	-0.88911
3955.000	0.81645	-1.60092	0.86784	-0.95075
3956.000	0.76308	-1.55124	0.84017	-0.87718
3957.000	0.81842	-1.60688	0.85993	-0.86325
3958.000	0.79668	-1.56515	0.81645	-0.91497
3959.000	0.80459	-1.58104	0.86388	-0.94081
3960.000	0.81249	-1.56514	0.84610	-0.92491
3961.000	0.80459	-1.59893	0.84214	-0.93087
3962.000	0.73343	-1.53734	0.87179	-0.94280
3963.000	0.68401	-1.57314	0.85203	-0.92491
3964.000	0.79866	-1.55123	0.79668	-0.92492
3965.000	0.75517	-1.58305	0.83621	-0.89508
3966.000	0.74529	-1.53137	0.87179	-0.88712
3967.000	0.81447	-1.52737	0.83226	-0.85729
3968.000	0.78284	-1.51744	0.83424	-0.94480
3969.000	0.73936	-1.51746	0.82238	-0.88315
3970.000	0.72750	-1.48566	0.85005	-0.89508
3971.000	0.80656	-1.54526	0.82435	-0.87718
3972.000	0.77494	-1.57907	0.80656	-0.88116
3973.000	0.81842	-1.54526	0.79866	-0.89310
3974.000	0.81052	-1.52141	0.85400	-0.89706
3975.000	0.74924	-1.52739	0.88563	-0.92291
3976.000	0.78482	-1.52937	0.81447	-0.91099
3977.000	0.75912	-1.56118	0.84807	-0.88314
3978.000	0.80261	-1.55520	0.80459	-0.93287
3979.000	0.77691	-1.55323	0.80854	-0.92094
3980.000	0.77296	-1.51745	0.79470	-0.88713
3981.000	0.80459	-1.50551	0.84017	-0.89110
3982.000	0.75715	-1.54329	0.84807	-0.91496
3983.000	0.82238	-1.48364	0.81842	-0.89906
3984.000	0.80261	-1.52738	0.81249	-0.90105
3985.000	0.79075	-1.47967	0.84412	-0.92690
3986.000	0.76110	-1.52938	0.79470	-0.91100
3987.000	0.80459	-1.47171	0.81645	-0.91099
3988.000	0.72157	-1.52343	0.84610	-0.94678
3989.000	0.80261	-1.54725	0.79273	-0.90901
3990.000	0.75517	-1.54330	0.82040	-0.91895
3991.000	0.80063	-1.52539	0.85005	-0.93883
3992.000	0.76901	-1.53534	0.83028	-0.93883
3993.000	0.77889	-1.51745	0.82831	-0.97463
3994.000	0.78087	-1.52540	0.82633	-0.92690
3995.000	0.84610	-1.54525	0.81052	-0.97066
3996.000	0.74924	-1.51944	0.81249	-0.91497
3997.000	0.70575	-1.53934	0.81052	-0.90901
3998.000	0.82040	-1.56514	0.76703	-0.93288
3999.000	0.72750	-1.53734	0.81645	-0.94480
4000.000	0.74924	-1.51149	0.83819	-0.91497
4001.000	0.81842	-1.50153	0.83819	-0.93684
4002.000	0.76505	-1.46576	0.83226	-0.93286
4003.000	0.73540	-1.49361	0.80063	-0.94083
4004.000	0.81645	-1.54129	0.84017	-0.90701
4005.000	0.80063	-1.48961	0.78284	-0.97066
4006.000	0.81645	-1.54129	0.82435	-0.95275
4007.000	0.84017	-1.53332	0.81447	-0.93486
4008.000	0.80261	-1.51744	0.85796	-0.90899
4009.000	0.83226	-1.50947	0.85400	-0.93087
4010.000	0.79668	-1.47569	0.83819	-0.91099
4011.000	0.86784	-1.51542	0.81052	-0.94480
4012.000	0.82040	-1.53134	0.81645	-0.90900
4013.000	0.83621	-1.49755	0.86586	-0.93882
4014.000	0.75912	-1.53932	0.84214	-0.91496
4015.000	0.78680	-1.49955	0.80854	-0.93287
4016.000	0.79470	-1.45581	0.85400	-0.91496
4017.000	0.83424	-1.47966	0.80854	-0.91099
4018.000	0.78877	-1.55123	0.84017	-0.95673
4019.000	0.79273	-1.55918	0.78877	-0.90503
4020.000	0.76308	-1.48366	0.83621	-0.95872
4021.000	0.76110	-1.52540	0.85400	-0.90701
4022.000	0.79668	-1.53930	0.82238	-0.91895
4023.000	0.80063	-1.50153	0.81249	-0.97463
4024.000	0.77296	-1.46377	0.82435	-0.94480
4025.000	0.79470	-1.49955	0.81645	-0.96071
4026.000	0.81645	-1.50749	0.78482	-0.92691
4027.000	0.74726	-1.50354	0.78877	-0.93685
4028.000	0.81249	-1.51544	0.81645	-0.96071
4029.000	0.76901	-1.54727	0.80656	-0.94878
4030.000	0.76505	-1.55323	0.84017	-0.98258
4031.000	0.74331	-1.54926	0.87772	-0.94479
4032.000	0.75517	-1.57510	0.81052	-0.93884
4033.000	0.77296	-1.58304	0.87574	-0.98058
4034.000	0.74529	-1.56516	0.84610	-0.91297
4035.000	0.78087	-1.53335	0.85203	-0.94081
4036.000	0.78284	-1.53931	0.85796	-0.92490
4037.000	0.80854	-1.53731	0.81052	-0.88514
4038.000	0.78284	-1.47371	0.85005	-0.88513
4039.000	0.80854	-1.47966	0.80063	-0.90105
4040.000	0.79866	-1.56912	0.86586	-0.90303
4041.000	0.75912	-1.51149	0.84807	-0.92292
4042.000	0.76901	-1.49757	0.86981	-0.87319
4043.000	0.79075	-1.46576	0.85598	-0.94877
4044.000	0.80459	-1.52936	0.81645	-0.90702
4045.000	0.79470	-1.51545	0.87970	-0.92291
4046.000	0.81842	-1.53731	0.86191	-0.91098
4047.000	0.77494	-1.56118	0.81447	-0.88912
4048.000	0.71366	-1.57114	0.85005	-0.92093
4049.000	0.79273	-1.61285	0.83819	-0.85928
4050.000	0.74529	-1.52342	0.86784	-0.91894
4051.000	0.76308	-1.55323	0.83424	-0.92491
4052.000	0.81645	-1.50948	0.87970	-0.94081
4053.000	0.81447	-1.57707	0.90934	-0.89108
4054.000	0.71366	-1.52343	0.89749	-0.89904
4055.000	0.83621	-1.54525	0.89156	-0.90302
4056.000	0.84214	-1.60488	0.87574	-0.82149
4057.000	0.78877	-1.51943	0.90342	-0.88512
4058.000	0.79273	-1.50353	0.89749	-0.89308
4059.000	0.79470	-1.51346	0.86784	-0.92490
4060.000	0.76308	-1.55323	0.87772	-0.88910
4061.000	0.80261	-1.53930	0.83621	-0.84735
4062.000	0.77889	-1.52341	0.88563	-0.84336
4063.000	0.82040	-1.53333	0.86191	-0.84535
4064.000	0.81052	-1.55918	0.87772	-0.86325
4065.000	0.72157	-1.51349	0.86388	-0.82944
4066.000	0.78482	-1.57310	0.88563	-0.87120
4067.000	0.80854	-1.55520	0.88365	-0.88115
4068.000	0.77889	-1.53534	0.86191	-0.83939
4069.000	0.75517	-1.60492	0.84807	-0.84735
4070.000	0.78482	-1.53533	0.84807	-0.85530
4071.000	0.69982	-1.53536	0.85005	-0.80160
4072.000	0.69785	-1.54928	0.87574	-0.87717
4073.000	0.74133	-1.52342	0.88563	-0.85330
4074.000	0.73540	-1.60691	0.86191	-0.87320
4075.000	0.74924	-1.59896	0.90342	-0.85927
4076.000	0.73936	-1.55125	0.96469	-0.90300
4077.000	0.72552	-1.59101	0.91132	-0.90898
4078.000	0.72157	-1.57511	0.88563	-0.87518
4079.000	0.73936	-1.61884	0.90144	-0.85728
4080.000	0.74529	-1.60890	0.93109	-0.90301
4081.000	0.75715	-1.58305	0.92516	-0.85329
4082.000	0.76505	-1.57112	0.90342	-0.86125
4083.000	0.79075	-1.59099	0.89749	-0.83142
4084.000	0.73738	-1.62480	0.93899	-0.86721
4085.000	0.73738	-1.60492	0.94295	-0.85727
4086.000	0.74726	-1.59498	0.91527	-0.80954
4087.000	0.75912	-1.60889	0.91725	-0.89506
4088.000	0.81447	-1.52141	0.90539	-0.83540
4089.000	0.76110	-1.58305	0.90342	-0.90302
4090.000	0.75912	-1.56715	0.85400	-0.83541
4091.000	0.72947	-1.53535	0.93109	-0.83341
4092.000	0.69785	-1.51747	0.91330	-0.86722
4093.000	0.71761	-1.61884	0.87179	-0.84535
4094.000	0.67017	-1.56519	0.88365	-0.87120
4095.000	0.75517	-1.61088	0.90144	-0.88910
4096.000	0.73343	-1.55722	0.88958	-0.85728
4097.000	0.81842	-1.54526	0.90539	-0.84733
4098.000	0.76110	-1.57709	0.91132	-0.83739
4099.000	0.78680	-1.55919	0.88563	-0.87319
4100.000	0.79273	-1.55918	0.88563	-0.83739
4101.000	0.81447	-1.51544	0.88760	-0.85927
4102.000	0.71168	-1.55126	0.92318	-0.83738
4103.000	0.77296	-1.58503	0.90342	-0.81352
4104.000	0.82831	-1.51146	0.92516	-0.83738
4105.000	0.81447	-1.56116	0.88958	-0.80159
4106.000	0.79866	-1.56713	0.89749	-0.83142
4107.000	0.78087	-1.53533	0.91527	-0.84136
4108.000	0.80459	-1.55918	0.88563	-0.86126
4109.000	0.77691	-1.53534	0.92318	-0.82346
4110.000	0.72552	-1.57909	0.89946	-0.84733
4111.000	0.80656	-1.62279	0.90342	-0.85728
4112.000	0.75715	-1.60889	0.92516	-0.83540
4113.000	0.81842	-1.55719	0.87772	-0.85132
4114.000	0.86388	-1.59692	0.94492	-0.83937
4115.000	0.79470	-1.54924	0.93306	-0.84733
4116.000	0.79273	-1.57111	0.89551	-0.83938
4117.000	0.83226	-1.59097	0.91527	-0.86523
4118.000	0.80063	-1.51744	0.90539	-0.86125
4119.000	0.80261	-1.59695	0.89156	-0.89109
4120.000	0.84017	-1.57109	0.91330	-0.83142
4121.000	0.84214	-1.57904	0.92516	-0.87119
4122.000	0.88958	-1.52535	0.92713	-0.87318
4123.000	0.84412	-1.58699	0.94690	-0.89903
4124.000	0.85796	-1.55518	0.91132	-0.85529
4125.000	0.90539	-1.52733	0.90144	-0.83341
4126.000	0.91132	-1.58895	0.88958	-0.88910
4127.000	0.87970	-1.54126	0.94887	-0.87715
4128.000	0.88563	-1.56312	0.91330	-0.87318
4129.000	0.88563	-1.58499	0.92911	-0.82346
4130.000	0.86586	-1.56114	0.92911	-0.86523
4131.000	0.88365	-1.59890	0.92120	-0.82545
4132.000	0.86784	-1.55717	0.93109	-0.90898
4133.000	0.86388	-1.57903	0.88167	-0.83143
4134.000	0.79668	-1.63670	0.92120	-0.89904
4135.000	0.90934	-1.57106	0.89946	-0.91694
4136.000	0.90737	-1.57504	0.97259	-0.86323
4137.000	0.93899	-1.56111	0.90934	-0.86523
4138.000	0.94690	-1.59291	0.87772	-0.88513
4139.000	0.86191	-1.55121	0.90539	-0.87120
4140.000	0.93702	-1.50148	0.86586	-0.86524
4141.000	0.85005	-1.55121	0.97654	-0.86720
4142.000	0.93899	-1.55117	0.89551	-0.82944
4143.000	0.92318	-1.56509	0.89353	-0.85728
4144.000	0.94690	-1.55515	0.93109	-0.82147
4145.000	0.94097	-1.54123	0.90737	-0.82546
4146.000	0.87574	-1.49157	0.96073	-0.86323
4147.000	0.89353	-1.52138	0.90737	-0.82744
4148.000	0.91330	-1.55317	0.94295	-0.92687
4149.000	0.90737	-1.57106	0.96666	-0.90101
4150.000	0.89156	-1.55119	0.95876	-0.87914
4151.000	0.91330	-1.58498	0.94295	-0.86522
4152.000	0.94097	-1.51341	0.93702	-0.86920
4153.000	0.85598	-1.55916	0.89353	-0.83540
4154.000	0.92120	-1.52733	0.95085	-0.87317
4155.000	0.93306	-1.57900	0.96073	-0.91096
4156.000	0.97062	-1.52532	0.91527	-0.86523
4157.000	0.90934	-1.55317	0.91923	-0.86722
4158.000	0.96864	-1.53128	0.94492	-0.86721
4159.000	0.99433	-1.54121	0.91132	-0.90103
4160.000	0.97259	-1.59687	0.87377	-0.86922
4161.000	0.91527	-1.56907	0.92911	-0.84335
4162.000	0.94690	-1.55316	0.92120	-0.88909
4163.000	0.92120	-1.60485	0.92516	-0.91892
4164.000	0.90342	-1.57504	0.93109	-0.86721
4165.000	1.03188	-1.54119	0.96271	-0.91295
4166.000	1.01607	-1.56505	0.94690	-0.87914
4167.000	1.04374	-1.54119	0.94887	-0.92090
4168.000	0.95480	-1.55117	0.93702	-0.88511
4169.000	0.88365	-1.57903	0.93702	-0.93682
4170.000	0.93109	-1.58894	0.94887	-0.94278
4171.000	0.97259	-1.53923	0.94887	-0.87914
4172.000	1.02003	-1.58890	0.95480	-0.92886
4173.000	0.96271	-1.54520	0.91923	-0.90102
4174.000	0.98247	-1.57103	0.92318	-0.89506
4175.000	0.95480	-1.58694	0.91923	-0.87318
4176.000	1.03386	-1.52131	0.97062	-0.88510
4177.000	0.99236	-1.59289	0.97457	-0.87913
4178.000	1.02003	-1.55511	0.96864	-0.88709
4179.000	1.05955	-1.54317	0.92713	-0.90500
4180.000	0.97457	-1.58495	0.95085	-0.83340
4181.000	0.96073	-1.55713	0.94492	-0.89107
4182.000	0.95876	-1.57502	0.94690	-0.84533
4183.000	1.01805	-1.51933	0.94887	-0.88710
4184.000	1.00421	-1.54717	0.94097	-0.85329
4185.000	0.98643	-1.55314	0.93702	-0.79959
4186.000	0.98050	-1.55314	0.95085	-0.81550
4187.000	0.93702	-1.58496	0.94295	-0.83937
4188.000	0.96469	-1.57700	0.96469	-0.84533
4189.000	0.95678	-1.62073	0.92713	-0.82346
4190.000	1.00817	-1.54717	0.91527	-0.91097
4191.000	1.03584	-1.57299	1.00421	-0.86123
4192.000	1.02003	-1.57101	0.93899	-0.81749
4193.000	0.98840	-1.55115	0.91527	-0.88313
4194.000	0.98840	-1.60680	0.95085	-0.85528
4195.000	0.97259	-1.57501	0.91132	-0.85926
4196.000	1.01014	-1.56108	0.96864	-0.86522
4197.000	1.02398	-1.59884	0.95283	-0.88113
4198.000	0.99631	-1.56705	0.99038	-0.87714
4199.000	0.96666	-1.61079	1.03386	-0.90298
4200.000	0.98050	-1.56507	0.97457	-0.89107
4201.000	0.93899	-1.60285	0.95283	-0.88511
4202.000	0.92318	-1.60485	0.99829	-0.89305
4203.000	0.99038	-1.58494	0.96864	-0.85129
4204.000	0.96271	-1.58694	0.96073	-0.86522
4205.000	0.96864	-1.55315	0.94097	-0.83141
4206.000	1.00026	-1.59289	0.99433	-0.86123
4207.000	0.94887	-1.62272	1.01014	-0.88509
4208.000	1.02003	-1.51536	0.95085	-0.81749
4209.000	0.96864	-1.56309	0.98840	-0.86720
4210.000	0.94690	-1.56111	1.00421	-0.84134
4211.000	0.92318	-1.52534	0.97062	-0.85527
4212.000	0.96864	-1.59290	0.96666	-0.85925
4213.000	0.94492	-1.58297	1.00026	-0.90299
4214.000	0.96864	-1.52333	0.95480	-0.88709
4215.000	1.05165	-1.52727	0.98643	-0.83936
4216.000	0.97259	-1.57501	0.99038	-0.85726
4217.000	1.00619	-1.53524	0.95678	-0.84931
4218.000	0.97457	-1.54718	0.93504	-0.82744
4219.000	0.95876	-1.63067	0.97457	-0.85527
4220.000	0.98050	-1.52531	0.94295	-0.83141
4221.000	0.97457	-1.53128	0.94690	-0.88511
4222.000	0.98643	-1.53724	0.96469	-0.85527
4223.000	0.92516	-1.59888	0.99829	-0.86322
4224.000	1.02398	-1.58492	1.02595	-0.88111
4225.000	0.96271	-1.61278	1.00421	-0.87117
4226.000	0.98050	-1.53128	1.00421	-0.79560
4227.000	0.96666	-1.55712	1.02398	-0.83736
4228.000	0.97852	-1.55513	0.98643	-0.82743
4229.000	0.97062	-1.55712	0.94690	-0.80954
4230.000	0.96864	-1.58893	0.96864	-0.82345
4231.000	0.99433	-1.53922	0.94295	-0.81948
4232.000	0.97457	-1.52134	0.96864	-0.84732
4233.000	1.01607	-1.50343	1.04769	-0.90298
4234.000	0.99038	-1.49947	1.00619	-0.84930
4235.000	0.99433	-1.62866	0.97852	-0.89107
4236.000	1.02003	-1.57499	0.95876	-0.84135
4237.000	0.98050	-1.60482	1.03386	-0.91293
4238.000	0.96666	-1.58694	0.99829	-0.88509
4239.000	1.03386	-1.57101	1.02793	-0.89105
4240.000	1.03979	-1.57498	0.99038	-0.86521
4241.000	1.01014	-1.54915	1.01410	-0.87316
4242.000	1.01805	-1.56903	0.95283	-0.89704
4243.000	0.97654	-1.55911	1.01014	-0.83736
4244.000	1.03979	-1.58889	1.01014	-0.85327
4245.000	0.96666	-1.49749	0.95678	-0.85329
4246.000	0.98247	-1.62271	0.98840	-0.86919
4247.000	1.00224	-1.52530	0.99038	-0.85527
4248.000	0.98445	-1.53525	1.05955	-0.88110
4249.000	0.99236	-1.57500	1.00817	-0.84930
4250.000	0.97852	-1.56109	1.00619	-0.87316
4251.000	0.98643	-1.53326	1.02398	-0.89304
4252.000	0.95480	-1.58297	1.00421	-0.85725
4253.000	0.99236	-1.59488	1.00817	-0.87316
4254.000	1.01607	-1.55313	0.98247	-0.85527
4255.000	1.01410	-1.54716	0.99038	-0.85726
4256.000	1.03188	-1.53920	1.00421	-0.85526
4257.000	1.00619	-1.49549	1.01014	-0.83935
4258.000	0.96271	-1.52532	1.00421	-0.84333
4259.000	0.97062	-1.50147	1.02793	-0.83139
4260.000	0.98840	-1.48953	0.99433	-0.84134
4261.000	0.93109	-1.53329	1.03979	-0.83537
4262.000	1.02793	-1.52728	1.05165	-0.87713
4263.000	1.03979	-1.55709	1.03188	-0.82344
4264.000	1.04374	-1.54715	1.04177	-0.85923
4265.000	0.98445	-1.55115	1.04177	-0.87514
4266.000	0.98445	-1.48754	1.04572	-0.84929
4267.000	0.96864	-1.53526	1.01212	-0.84333
4268.000	1.04572	-1.53323	1.03584	-0.81150
4269.000	1.01607	-1.50144	1.03188	-0.82145
4270.000	1.00421	-1.51934	1.02003	-0.88708
4271.000	1.01410	-1.51138	1.01805	-0.85128
4272.000	1.04769	-1.51137	1.03584	-0.80355
4273.000	0.99631	-1.47164	1.06153	-0.82343
4274.000	1.05955	-1.49745	1.02595	-0.86918
4275.000	0.99433	-1.48754	1.01607	-0.86123
4276.000	1.03188	-1.51138	0.97852	-0.83339
4277.000	1.01212	-1.49946	1.04572	-0.87116
4278.000	1.01607	-1.55710	1.01607	-0.82941
4279.000	0.98445	-1.52730	1.01805	-0.84134
4280.000	1.02200	-1.52927	1.00026	-0.81350
4281.000	1.02793	-1.50740	0.99631	-0.83339
4282.000	1.00619	-1.55313	1.05165	-0.84531
4283.000	0.97852	-1.53128	1.00026	-0.83737
4284.000	1.01410	-1.53325	1.01410	-0.86322
4285.000	1.01607	-1.55710	1.02793	-0.83935
4286.000	1.01607	-1.51933	1.01805	-0.81350
4287.000	0.98050	-1.51140	1.01805	-0.85725
4288.000	1.02003	-1.54716	1.02991	-0.85128
4289.000	1.00619	-1.48952	1.01607	-0.88907
4290.000	1.03386	-1.54119	1.07932	-0.83734
4291.000	1.01607	-1.48554	1.04572	-0.81150
4292.000	1.03188	-1.54517	1.03188	-0.83338
4293.000	1.00619	-1.53723	1.06351	-0.84928
4294.000	1.05560	-1.49149	1.03584	-0.85724
4295.000	1.04177	-1.48156	1.03386	-0.82542
4296.000	1.03386	-1.47560	1.05955	-0.86121
4297.000	1.03386	-1.57896	1.00619	-0.82941
4298.000	1.01805	-1.55511	1.02793	-0.86321
4299.000	0.99631	-1.54320	1.03979	-0.84133
4300.000	1.02991	-1.55709	1.03979	-0.83934
4301.000	0.93899	-1.57503	1.03386	-0.81150
4302.000	1.01805	-1.51735	1.01607	-0.81946
4303.000	1.03584	-1.50144	1.05362	-0.83536
4304.000	0.96073	-1.55116	1.04572	-0.77968
4305.000	1.04177	-1.46963	1.08920	-0.76376
4306.000	1.00817	-1.52530	1.04572	-0.78962
4307.000	1.04967	-1.46764	1.06153	-0.80354
4308.000	0.99236	-1.51935	1.04967	-0.83338
4309.000	1.04967	-1.48553	1.03781	-0.80156
4310.000	1.03781	-1.45373	1.05165	-0.79559
4311.000	1.00224	-1.45772	0.99236	-0.78765
4312.000	1.03386	-1.46764	0.97259	-0.77174
4313.000	1.05165	-1.50540	1.01014	-0.78963
4314.000	1.01805	-1.49151	1.03386	-0.82542
4315.000	1.01212	-1.50542	1.02200	-0.76974
4316.000	1.00619	-1.47362	1.02003	-0.78565
4317.000	1.00421	-1.51934	0.97654	-0.83339
4318.000	1.04374	-1.48752	1.04572	-0.84133
4319.000	1.00817	-1.50145	1.03188	-0.79361
4320.000	1.05560	-1.47161	1.01607	-0.79759
4321.000	0.95283	-1.55713	1.02793	-0.79361
4322.000	1.00421	-1.49747	1.01607	-0.77770
4323.000	0.97062	-1.50345	1.04177	-0.77968
4324.000	1.00817	-1.53524	1.04572	-0.86321
4325.000	0.91923	-1.51938	1.02595	-0.75582
4326.000	1.04177	-1.51535	1.02991	-0.75781
4327.000	0.96469	-1.54122	1.04967	-0.78962
4328.000	0.99631	-1.48754	1.05758	-0.78962
4329.000	1.01014	-1.49946	1.02398	-0.79957
4330.000	0.99038	-1.47164	1.03781	-0.77769
4331.000	1.02200	-1.44777	1.01212	-0.77571
4332.000	1.04177	-1.52131	1.03781	-0.77173
4333.000	1.00224	-1.50543	1.01607	-0.78367
4334.000	1.02793	-1.48156	1.01805	-0.74389
4335.000	0.95480	-1.48955	1.03188	-0.75582
4336.000	1.03188	-1.47361	1.02200	-0.76974
4337.000	1.00817	-1.53126	1.02595	-0.76378
4338.000	0.97852	-1.50146	0.98247	-0.73992
4339.000	0.99829	-1.52531	1.01607	-0.74986
4340.000	0.97062	-1.48556	1.04572	-0.77570
4341.000	0.97852	-1.55314	1.01014	-0.74389
4342.000	1.00817	-1.47958	1.04177	-0.74786
4343.000	1.01410	-1.49349	1.03386	-0.80355
4344.000	0.99236	-1.48158	1.03188	-0.77571
4345.000	1.03386	-1.47162	1.04967	-0.75383
4346.000	1.00817	-1.46567	1.03188	-0.71008
4347.000	1.07932	-1.47756	1.00619	-0.72997
4348.000	1.03781	-1.47758	1.03781	-0.73991
4349.000	1.03386	-1.46367	1.02595	-0.76378
4350.000	0.96666	-1.49153	1.02991	-0.71803
4351.000	0.97062	-1.41201	1.03584	-0.72002
4352.000	0.98445	-1.43785	1.02200	-0.72798
4353.000	0.98643	-1.49152	1.02200	-0.73991
4354.000	1.01410	-1.42988	1.03584	-0.75383
4355.000	1.02003	-1.49349	1.02991	-0.75582
4356.000	1.00026	-1.45176	1.02793	-0.75781
4357.000	0.99631	-1.45971	1.05165	-0.73593
4358.000	1.02991	-1.45572	1.00817	-0.76378
4359.000	0.95876	-1.55116	1.00817	-0.74588
4360.000	0.94295	-1.50943	1.00817	-0.70213
4361.000	1.04967	-1.51932	1.01805	-0.74190
4362.000	0.98643	-1.54916	1.03386	-0.69616
4363.000	0.96469	-1.46966	1.04967	-0.74388
4364.000	1.04967	-1.44577	1.05560	-0.72200
4365.000	1.03979	-1.41596	1.02793	-0.71406
4366.000	0.99631	-1.45971	1.02991	-0.72997
4367.000	0.97457	-1.47165	1.04177	-0.72797
4368.000	1.02595	-1.53324	1.05362	-0.79161
4369.000	1.02991	-1.44777	1.02595	-0.73792
4370.000	1.04967	-1.43583	1.07734	-0.73791
4371.000	1.03584	-1.48553	1.03386	-0.77173
4372.000	1.03188	-1.43186	1.01410	-0.79560
4373.000	1.06746	-1.48949	1.02398	-0.75383
4374.000	0.98247	-1.48556	1.01607	-0.72400
4375.000	0.97852	-1.48556	1.02003	-0.71605
4376.000	0.97457	-1.50146	1.05560	-0.71803
4377.000	0.95480	-1.47961	1.01607	-0.75383
4378.000	0.99631	-1.48953	1.02793	-0.78366
4379.000	1.00421	-1.47163	1.03188	-0.67428
4380.000	0.96864	-1.47761	1.03781	-0.72798
4381.000	1.00026	-1.50940	1.03781	-0.73593
4382.000	0.97654	-1.48158	1.05560	-0.72399
4383.000	0.99236	-1.47959	1.06943	-0.70808
4384.000	1.01212	-1.48157	1.05165	-0.71604
4385.000	0.98643	-1.45574	1.04177	-0.73593
4386.000	1.00224	-1.43188	1.07536	-0.75183
4387.000	1.01607	-1.43783	1.04572	-0.74587
4388.000	1.01212	-1.44579	1.03584	-0.71207
4389.000	0.95678	-1.45774	1.03188	-0.76576
4390.000	0.94492	-1.40009	1.02793	-0.74588
4391.000	1.01607	-1.48355	1.03979	-0.70411
4392.000	1.01014	-1.45374	1.05165	-0.71405
4393.000	0.97457	-1.46171	1.03584	-0.74786
4394.000	0.95283	-1.49153	1.06746	-0.73990
4395.000	0.96271	-1.51340	1.06746	-0.74189
4396.000	0.98050	-1.48556	1.01805	-0.72400
4397.000	0.99236	-1.44182	1.01805	-0.76378
4398.000	0.97852	-1.45574	1.03781	-0.78963
4399.000	1.00421	-1.51735	1.00817	-0.75781
4400.000	1.04177	-1.46963	1.03584	-0.76377
4401.000	1.00224	-1.47760	1.05955	-0.80155
4402.000	1.02200	-1.49747	1.04177	-0.76178
4403.000	1.01607	-1.45374	1.06351	-0.75382
4404.000	0.96073	-1.47563	1.10106	-0.78563
4405.000	0.96864	-1.52134	1.07339	-0.74785
4406.000	0.86191	-1.47766	1.08524	-0.74984
4407.000	0.99236	-1.44778	1.03584	-0.69814
4408.000	0.95480	-1.47563	1.02200	-0.72798
4409.000	0.97654	-1.42592	1.03386	-0.71008
4410.000	0.98050	-1.41996	1.05165	-0.74985
4411.000	0.99236	-1.41001	1.05165	-0.68024
4412.000	1.00619	-1.42591	1.09710	-0.67824
4413.000	0.93702	-1.45377	1.09117	-0.69614
4414.000	0.93899	-1.44582	1.04177	-0.76178
4415.000	1.01410	-1.42193	1.07932	-0.73791
4416.000	0.95876	-1.42196	1.06153	-0.72598
4417.000	0.98840	-1.39014	1.05560	-0.73195
4418.000	0.96073	-1.43189	1.07734	-0.80950
4419.000	1.00026	-1.43983	1.04769	-0.73792
4420.000	0.98840	-1.40008	1.05362	-0.74587
4421.000	0.96073	-1.43388	1.05165	-0.74985
4422.000	0.92120	-1.43191	0.98643	-0.74589
4423.000	0.95480	-1.42991	1.02200	-0.72201
4424.000	0.97259	-1.37424	0.99038	-0.70412
4425.000	1.02595	-1.39608	1.06351	-0.76178
4426.000	0.92911	-1.44384	1.02991	-0.73394
4427.000	0.98840	-1.38020	1.05560	-0.75979
4428.000	0.96469	-1.40406	1.06746	-0.72399
4429.000	1.01014	-1.42392	1.05362	-0.70212
4430.000	0.95085	-1.37226	1.04177	-0.77570
4431.000	0.95085	-1.41798	1.04177	-0.72599
4432.000	0.95085	-1.41600	1.01410	-0.71008
4433.000	0.96864	-1.44779	1.02003	-0.70809
4434.000	0.95480	-1.43389	0.99236	-0.72003
4435.000	0.99236	-1.44381	1.01212	-0.71008
4436.000	0.93504	-1.38221	1.01410	-0.70610
4437.000	0.97259	-1.36231	0.99038	-0.69616
4438.000	0.94887	-1.38419	0.98247	-0.67827
4439.000	1.04769	-1.32848	0.99829	-0.63650
4440.000	0.98050	-1.30267	0.97457	-0.65241
4441.000	0.99433	-1.34441	1.01014	-0.64644
4442.000	0.98840	-1.32254	1.02200	-0.70411
4443.000	0.96271	-1.39412	1.00224	-0.66832
4444.000	1.00224	-1.33447	1.04177	-0.71803
4445.000	1.02595	-1.35036	1.04374	-0.68422
4446.000	0.99829	-1.31061	1.01014	-0.64445
4447.000	0.97457	-1.36827	1.02793	-0.68223
4448.000	1.05955	-1.31456	0.98840	-0.65440
4449.000	1.01410	-1.28078	0.99236	-0.63053
4450.000	1.05362	-1.33246	1.00619	-0.63451
4451.000	0.99038	-1.31658	0.99038	-0.62655
4452.000	1.03584	-1.30463	0.95480	-0.62656
4453.000	1.03584	-1.34837	1.02398	-0.63848
4454.000	1.07734	-1.26286	1.01607	-0.66235
4455.000	1.06746	-1.25690	1.04177	-0.74786
4456.000	1.07339	-1.33444	1.02991	-0.76378
4457.000	1.01212	-1.33446	1.02200	-0.70610
4458.000	1.07339	-1.29269	0.99038	-0.69815
4459.000	1.03584	-1.27680	0.99829	-0.71804
4460.000	1.02793	-1.34042	1.06153	-0.74388
4461.000	1.05362	-1.27083	1.02398	-0.70411
4462.000	1.03781	-1.30861	1.04374	-0.71206
4463.000	1.09513	-1.29268	1.04967	-0.76178
4464.000	0.99433	-1.29272	1.05758	-0.71405
4465.000	1.09117	-1.27280	1.06746	-0.74388
4466.000	1.05362	-1.23106	1.03386	-0.74588
4467.000	0.98840	-1.31062	1.04967	-0.70411
4468.000	0.99236	-1.26489	0.98840	-0.72799
4469.000	1.09117	-1.30660	1.04572	-0.74189
4470.000	1.12675	-1.25887	0.99631	-0.72997
4471.000	1.08524	-1.22906	0.98247	-0.73793
4472.000	1.14848	-1.29464	0.99433	-0.79361
4473.000	1.04572	-1.24300	0.97457	-0.71805
4474.000	1.13860	-1.24097	0.98643	-0.71605
4475.000	1.09315	-1.28870	1.02398	-0.73196
