time (ms)	lx (deg)	ly (deg)	rx (deg)	ry (deg)
0.000	0.85005	-1.93875	1.43303	-1.76153
1.000	0.87772	-1.90297	1.38561	-1.76157
2.000	0.84017	-1.96260	1.42315	-1.74962
3.000	0.87574	-1.90694	1.45476	-1.78337
4.000	0.86388	-1.91291	1.45081	-1.76351
5.000	0.98247	-1.95854	1.44093	-1.71185
6.000	0.89551	-1.94468	1.38956	-1.75561
7.000	0.85796	-1.93676	1.40339	-1.73771
8.000	0.88958	-1.90097	1.45279	-1.72973
9.000	0.87179	-1.95066	1.40142	-1.73970
10.000	0.92318	-1.94070	1.39746	-1.69003
11.000	0.83621	-1.95266	1.38758	-1.78939
12.000	0.86981	-1.88310	1.41129	-1.76751
13.000	0.83028	-1.94472	1.40734	-1.78341
14.000	0.91527	-1.98838	1.40142	-1.74169
15.000	0.87772	-1.89502	1.35795	-1.72781
16.000	0.87377	-1.94867	1.40537	-1.73771
17.000	0.93306	-1.89698	1.40339	-1.72778
18.000	0.91923	-1.98640	1.41129	-1.76155
19.000	0.91923	-1.95461	1.45476	-1.75357
20.000	0.89156	-1.96058	1.43303	-1.74564
21.000	0.85400	-1.98444	1.41920	-1.73969
22.000	0.86784	-1.91887	1.41327	-1.79334
23.000	0.92516	-1.97447	1.38956	-1.74567
24.000	0.85993	-1.95066	1.46069	-1.77542
25.000	0.90144	-1.95462	1.44093	-1.77146
26.000	0.87574	-1.90694	1.41129	-1.72380
27.000	0.89353	-1.90892	1.41129	-1.74963
28.000	0.87970	-1.95860	1.40932	-1.72976
29.000	0.80854	-1.94672	1.45279	-1.77344
30.000	0.92713	-1.93473	1.42513	-1.77346
31.000	0.88167	-1.92284	1.41722	-1.75757
32.000	0.90539	-1.89103	1.43896	-1.77544
33.000	0.86981	-1.96457	1.40734	-1.74765
34.000	0.95876	-1.89895	1.42117	-1.74962
35.000	0.93306	-1.86717	1.36190	-1.74370
36.000	0.85400	-1.90894	1.46069	-1.77542
37.000	0.92911	-1.92678	1.44291	-1.74762
38.000	0.86586	-1.92483	1.42710	-1.75955
39.000	0.91725	-1.91884	1.41722	-1.77347
40.000	0.87574	-1.86124	1.42513	-1.81121
41.000	0.90539	-1.89699	1.38758	-1.73772
42.000	0.85796	-1.91093	1.45279	-1.78139
43.000	0.84017	-1.90696	1.45081	-1.81715
44.000	0.89749	-1.89302	1.44488	-1.76153
45.000	0.86981	-1.89105	1.38956	-1.74567
46.000	0.94690	-1.90889	1.42908	-1.78935
47.000	0.84017	-1.90895	1.39351	-1.77150
48.000	0.89749	-1.90494	1.39944	-1.77348
49.000	0.90737	-1.88308	1.44093	-1.74563
50.000	0.90539	-1.84732	1.40734	-1.75162
51.000	0.84214	-1.97054	1.40142	-1.75560
52.000	0.88563	-1.92283	1.39549	-1.80130
53.000	0.92713	-1.92877	1.43698	-1.78140
54.000	0.91527	-1.91686	1.40142	-1.75957
55.000	0.86191	-1.89105	1.42513	-1.76750
56.000	0.80656	-1.90896	1.39746	-1.77150
57.000	0.90539	-1.86520	1.44686	-1.75159
58.000	0.89551	-1.84136	1.39944	-1.72977
59.000	0.91132	-1.88109	1.38166	-1.79138
60.000	0.88365	-1.95661	1.39746	-1.74964
61.000	0.87970	-1.88508	1.40142	-1.76355
62.000	0.89946	-1.91289	1.41920	-1.74366
63.000	0.94097	-1.84332	1.42513	-1.79134
64.000	0.88167	-1.91489	1.39944	-1.79136
65.000	0.81249	-1.88909	1.42315	-1.76750
66.000	0.88167	-1.97251	1.42117	-1.75161
67.000	0.85598	-1.97848	1.44291	-1.72576
68.000	0.86191	-1.97053	1.46069	-1.73568
69.000	0.86981	-1.88310	1.41327	-1.75161
70.000	0.89353	-1.90693	1.41525	-1.76354
71.000	0.88365	-1.86322	1.42513	-1.72776
72.000	0.90342	-1.87514	1.42117	-1.73571
73.000	0.92516	-1.90890	1.44093	-1.79531
74.000	0.90144	-1.93475	1.43896	-1.75160
75.000	0.95283	-1.92081	1.38758	-1.78541
76.000	0.93702	-1.87114	1.39154	-1.76951
77.000	0.96073	-1.85523	1.38363	-1.73574
78.000	0.91330	-1.90692	1.38363	-1.75958
79.000	0.95283	-1.92677	1.39944	-1.77547
80.000	0.83226	-1.95465	1.41129	-1.70989
81.000	0.89946	-1.95660	1.43303	-1.78339
82.000	0.91132	-1.87116	1.40339	-1.76950
83.000	0.87970	-1.90297	1.40339	-1.74169
84.000	0.87970	-1.86720	1.41327	-1.79334
85.000	0.89353	-1.97250	1.40142	-1.76355
86.000	0.89551	-1.95462	1.43500	-1.77743
87.000	0.85796	-1.93278	1.40537	-1.75957
88.000	0.92318	-1.94070	1.42117	-1.72180
89.000	0.94492	-1.87313	1.37375	-1.74171
90.000	0.89551	-1.84533	1.42908	-1.74167
91.000	0.92911	-1.89301	1.35795	-1.76159
92.000	0.91330	-1.87712	1.40537	-1.72778
93.000	0.87772	-1.90694	1.41920	-1.70591
94.000	0.87772	-1.86323	1.44093	-1.75755
95.000	0.89551	-1.83738	1.43896	-1.77941
96.000	0.93702	-1.88903	1.48637	-1.75752
97.000	0.91330	-1.83141	1.44093	-1.75557
98.000	0.92516	-1.87314	1.44093	-1.78140
99.000	0.87377	-1.89105	1.43303	-1.73570
100.000	0.94097	-1.83736	1.38758	-1.76554
101.000	0.92516	-1.86718	1.38166	-1.75363
102.000	0.85796	-1.88708	1.38561	-1.74567
103.000	0.90539	-1.84533	1.42117	-1.73373
104.000	0.88760	-1.79764	1.40142	-1.73771
105.000	0.88167	-1.89700	1.40734	-1.80328
106.000	0.90539	-1.87116	1.40932	-1.71188
107.000	0.87970	-1.87117	1.45081	-1.74563
108.000	0.93702	-1.89698	1.41129	-1.75758
109.000	0.81249	-1.85332	1.40339	-1.74566
110.000	0.82040	-1.86723	1.43500	-1.71782
111.000	0.88563	-1.87316	1.44291	-1.72179
112.000	0.90934	-1.96852	1.42513	-1.73174
113.000	0.86388	-1.91291	1.47452	-1.71978
114.000	0.92120	-1.88705	1.43896	-1.75756
115.000	0.86586	-1.85528	1.42513	-1.73372
116.000	0.90144	-1.91885	1.44883	-1.76351
117.000	0.90934	-1.84930	1.44686	-1.76351
118.000	0.89749	-1.85924	1.46662	-1.76946
119.000	0.87970	-1.85925	1.41129	-1.79533
120.000	0.89551	-1.92084	1.41722	-1.75757
121.000	0.85993	-1.96259	1.39746	-1.76554
122.000	0.86388	-1.84932	1.46266	-1.75158
123.000	0.91725	-1.86519	1.39154	-1.72183
124.000	0.90539	-1.91885	1.42710	-1.74366
125.000	0.86388	-1.93278	1.41920	-1.74366
126.000	0.87772	-1.89502	1.41129	-1.74168
127.000	0.89749	-1.84732	1.40537	-1.72778
128.000	0.90737	-1.97845	1.39944	-1.69798
129.000	0.81645	-1.89108	1.39351	-1.71586
130.000	0.89353	-1.90097	1.42117	-1.71187
131.000	0.86388	-1.91490	1.43698	-1.71186
132.000	0.81842	-1.95267	1.42513	-1.71783
133.000	0.84214	-1.96061	1.38956	-1.72978
134.000	0.87970	-1.89104	1.40932	-1.77745
135.000	0.89946	-1.93077	1.32436	-1.75963
136.000	0.84017	-1.91888	1.38956	-1.76753
137.000	0.89749	-1.92283	1.40734	-1.78142
138.000	0.92911	-1.86320	1.37968	-1.73972
139.000	0.94097	-1.87114	1.40142	-1.74566
140.000	0.90539	-1.83937	1.40339	-1.73573
141.000	0.90539	-1.88904	1.39154	-1.78342
142.000	0.90342	-1.86321	1.40932	-1.76155
143.000	0.94492	-1.77377	1.41525	-1.72578
144.000	0.86388	-1.81952	1.42315	-1.72379
145.000	0.90934	-1.83738	1.38166	-1.67414
146.000	0.94690	-1.82146	1.39154	-1.69599
147.000	0.88958	-1.86322	1.39549	-1.70394
148.000	0.90934	-1.84334	1.38561	-1.73574
149.000	0.91725	-1.85128	1.41920	-1.69995
150.000	0.85796	-1.86522	1.38758	-1.67414
151.000	0.93504	-1.87115	1.40339	-1.73175
152.000	0.91923	-1.84532	1.36783	-1.70595
153.000	0.92911	-1.82346	1.41129	-1.77149
154.000	0.88760	-1.89104	1.40537	-1.74169
155.000	0.88958	-1.83341	1.38561	-1.70395
156.000	0.96469	-1.84728	1.38363	-1.74170
157.000	0.87772	-1.83143	1.39944	-1.72381
158.000	0.84214	-1.83741	1.39746	-1.73176
159.000	0.84214	-1.77382	1.37573	-1.71985
160.000	0.91923	-1.83340	1.40537	-1.71784
161.000	0.88958	-1.88110	1.43698	-1.74166
162.000	0.89946	-1.83937	1.39154	-1.70792
163.000	0.91923	-1.86718	1.36783	-1.68011
164.000	0.86981	-1.83144	1.39351	-1.71586
165.000	0.89749	-1.87713	1.39351	-1.70990
166.000	0.89353	-1.86322	1.39549	-1.66420
167.000	0.90934	-1.81552	1.37178	-1.68408
168.000	0.90737	-1.87315	1.38758	-1.68010
169.000	0.90737	-1.81552	1.39351	-1.73573
170.000	0.92713	-1.85525	1.39154	-1.67215
171.000	0.91330	-1.85129	1.32633	-1.67418
172.000	0.86981	-1.83938	1.38166	-1.70395
173.000	0.86981	-1.82746	1.38166	-1.70792
174.000	0.80854	-1.86922	1.37573	-1.68011
175.000	0.87574	-1.86720	1.37573	-1.74966
176.000	0.82040	-1.79966	1.39351	-1.68010
177.000	0.85598	-1.83343	1.37771	-1.68408
178.000	0.91132	-1.79962	1.44883	-1.68800
179.000	0.86388	-1.84734	1.35202	-1.68012
180.000	0.92516	-1.82942	1.38166	-1.68607
181.000	0.87179	-1.86124	1.38166	-1.67613
182.000	0.92911	-1.84134	1.36980	-1.67018
183.000	0.83028	-1.84934	1.35202	-1.67416
184.000	0.89749	-1.82149	1.38166	-1.67613
185.000	0.87772	-1.89502	1.35202	-1.66820
186.000	0.90737	-1.83539	1.32831	-1.70001
187.000	0.82238	-1.88114	1.36585	-1.69204
188.000	0.86586	-1.83939	1.38561	-1.65824
189.000	0.92120	-1.80955	1.35992	-1.68608
190.000	0.83226	-1.77184	1.40339	-1.70195
191.000	0.87970	-1.82547	1.38758	-1.69997
192.000	0.89946	-1.80956	1.38166	-1.72581
193.000	0.85993	-1.75990	1.35795	-1.71986
194.000	0.85598	-1.78375	1.38363	-1.72978
195.000	0.86586	-1.80759	1.36585	-1.70197
196.000	0.91527	-1.80558	1.39746	-1.62644
197.000	0.88958	-1.72411	1.38363	-1.63440
198.000	0.93109	-1.79166	1.34609	-1.64038
199.000	0.91923	-1.74795	1.39549	-1.65426
200.000	0.90737	-1.76981	1.37968	-1.65825
201.000	0.86388	-1.78375	1.37375	-1.69402
202.000	0.99433	-1.87310	1.41327	-1.65226
203.000	0.96073	-1.82344	1.39154	-1.66420
204.000	0.92120	-1.84532	1.34609	-1.64635
205.000	0.92911	-1.80359	1.43698	-1.69795
206.000	0.83819	-1.78773	1.41129	-1.68803
207.000	0.83028	-1.82549	1.38166	-1.68607
208.000	0.94690	-1.74595	1.38758	-1.68407
209.000	0.89946	-1.78572	1.37573	-1.70197
210.000	0.93306	-1.77179	1.36585	-1.66422
211.000	0.89551	-1.77777	1.38363	-1.69203
212.000	0.91330	-1.74596	1.37178	-1.62646
213.000	0.90737	-1.76385	1.38758	-1.65228
214.000	0.94492	-1.77973	1.37178	-1.60460
215.000	0.86191	-1.76586	1.35399	-1.57877
216.000	0.95480	-1.78370	1.38561	-1.65625
217.000	0.95283	-1.74594	1.37968	-1.66023
218.000	0.88563	-1.80758	1.35399	-1.63640
219.000	0.91132	-1.76385	1.35795	-1.66224
220.000	0.96271	-1.78171	1.36980	-1.61453
221.000	0.89946	-1.80559	1.36980	-1.63639
222.000	0.94492	-1.71614	1.36980	-1.61453
223.000	0.92120	-1.75192	1.40142	-1.69400
224.000	0.92713	-1.73999	1.40932	-1.62246
225.000	0.89156	-1.75988	1.39154	-1.62048
226.000	0.89156	-1.76187	1.34807	-1.59865
227.000	1.02200	-1.78168	1.42710	-1.65026
228.000	0.92120	-1.72807	1.43896	-1.61647
229.000	0.90144	-1.75591	1.37375	-1.62844
230.000	0.88365	-1.80560	1.37375	-1.60261
231.000	0.86981	-1.78772	1.40537	-1.60259
232.000	0.83819	-1.82350	1.32238	-1.66425
233.000	0.80854	-1.77185	1.26112	-1.55896
234.000	0.70378	-1.67450	1.22555	-1.54705
235.000	0.55552	-1.69443	1.04572	-1.52330
236.000	0.49028	-1.48373	0.94097	-1.44781
237.000	0.23724	-1.41817	0.75319	-1.33456
238.000	0.13839	-1.33069	0.53575	-1.17355
239.000	-0.10874	-1.10996	0.34004	-1.07813
240.000	-0.32620	-1.04631	0.08303	-0.84744
241.000	-0.50412	-0.86332	-0.05733	-0.67638
242.000	-0.69389	-0.64251	-0.26096	-0.52519
243.000	-0.79668	-0.45354	-0.41319	-0.32626
244.000	-1.01410	-0.29439	-0.54168	-0.10146
245.000	-1.02991	-0.20886	-0.64645	0.06565
246.000	-1.15244	-0.08155	-0.70971	0.22280
247.000	-1.15837	0.06166	-0.72157	0.30635
248.000	-1.08524	0.22476	-0.74726	0.50128
249.000	-1.03386	0.24267	-0.64843	0.59080
250.000	-0.88958	0.30633	-0.57529	0.65446
251.000	-0.65238	0.36603	-0.47645	0.69426
252.000	-0.47645	0.35012	-0.34399	0.70620
253.000	-0.39342	0.35610	-0.19968	0.72411
254.000	-0.17002	0.31035	-0.04943	0.64853
255.000	-0.05140	0.27454	0.02175	0.64654
256.000	0.07710	0.17109	0.17595	0.56498
257.000	0.12455	0.16114	0.24910	0.51723
258.000	0.25305	0.08356	0.38156	0.40583
259.000	0.27876	0.00995	0.42505	0.31034
260.000	0.30446	-0.04775	0.45668	0.26458
261.000	0.31039	-0.03382	0.53971	0.16512
262.000	0.23724	-0.09748	0.55750	0.05172
263.000	0.17398	-0.11937	0.57331	-0.02984
264.000	0.16607	-0.16711	0.54959	-0.03979
265.000	0.06524	-0.31035	0.55552	-0.11140
266.000	-0.01384	-0.34218	0.50412	-0.14920
267.000	0.02966	-0.34019	0.45272	-0.14721
268.000	-0.04349	-0.28847	0.39342	-0.17706
269.000	-0.10874	-0.31035	0.38551	-0.20491
270.000	-0.10083	-0.34616	0.34399	-0.16711
271.000	-0.08106	-0.32825	0.27085	-0.16313
272.000	-0.12455	-0.28648	0.29655	-0.17308
273.000	-0.12060	-0.18900	0.23131	-0.12334
274.000	-0.07908	-0.20292	0.19572	-0.12135
275.000	-0.14234	-0.24470	0.25503	-0.13727
276.000	-0.03954	-0.19099	0.20561	-0.11937
277.000	-0.12455	-0.17507	0.14037	-0.06366
278.000	-0.10478	-0.13130	0.14037	-0.08753
279.000	-0.10478	-0.16711	0.14037	0.02188
280.000	-0.08106	-0.14125	0.14037	-0.02188
281.000	-0.08303	-0.10544	0.11664	0.00000
282.000	-0.05733	-0.06167	0.12257	0.10345
283.000	-0.07513	-0.01194	0.08303	0.09947
284.000	-0.07710	-0.05371	0.14432	0.12931
285.000	-0.13641	-0.09350	0.08699	0.09748
286.000	-0.23724	0.01194	0.14432	0.08952
287.000	-0.16804	0.00199	0.11071	0.13130
288.000	-0.16211	0.01393	0.14827	0.16114
289.000	-0.16607	0.00398	0.08303	0.17109
290.000	-0.12653	0.01592	0.09292	0.19496
291.000	-0.09687	0.06167	0.11467	0.11539
292.000	-0.16804	-0.02785	0.10478	0.17308
293.000	-0.16211	0.02188	0.11467	0.14921
294.000	-0.11269	-0.00995	0.08699	0.19894
295.000	-0.10478	0.04377	0.12455	0.18303
296.000	-0.17398	0.00597	0.12850	0.18303
297.000	-0.10676	0.05371	0.08897	0.19297
298.000	-0.15421	-0.07958	0.11071	0.18502
299.000	-0.05536	-0.00796	0.12455	0.17507
300.000	-0.11269	0.00199	0.12257	0.17905
301.000	-0.11071	-0.02785	0.12455	0.17507
302.000	-0.10280	0.03183	0.11862	0.15120
303.000	-0.15618	-0.02188	0.11467	0.15716
304.000	-0.11467	0.01194	0.13048	0.16910
305.000	-0.02966	0.05371	0.16409	0.18502
306.000	-0.09490	-0.03581	0.14037	0.22282
307.000	-0.10874	0.02586	0.15816	0.18104
308.000	-0.06920	0.02785	0.19770	0.16711
309.000	-0.10478	0.01393	0.18386	0.15319
310.000	-0.01779	-0.00995	0.14234	0.19297
311.000	-0.14432	-0.01989	0.15223	0.16910
312.000	-0.14037	0.07162	0.13444	0.20889
313.000	-0.17793	-0.03780	0.14037	0.18502
314.000	-0.08897	-0.04775	0.13839	0.21088
315.000	-0.07513	-0.00995	0.11862	0.19098
316.000	-0.08501	0.02984	0.13839	0.17706
317.000	-0.16409	-0.00995	0.12257	0.18701
318.000	-0.14234	-0.01790	0.15025	0.15518
319.000	-0.11467	0.00199	0.15421	0.14722
320.000	-0.08699	0.02785	0.18386	0.19098
321.000	-0.07908	0.02586	0.17793	0.19098
322.000	-0.01977	0.03183	0.13444	0.21287
323.000	-0.09885	-0.00398	0.13839	0.17905
324.000	-0.06524	0.05570	0.12850	0.21685
325.000	-0.11269	0.00597	0.14234	0.16711
326.000	-0.05536	0.04178	0.14630	0.22480
327.000	-0.05140	0.10544	0.19770	0.17706
328.000	-0.06722	-0.02586	0.16607	0.17905
329.000	-0.05338	-0.01194	0.16211	0.20690
330.000	-0.13246	0.00199	0.18188	0.19695
331.000	-0.04943	0.00199	0.13048	0.20093
332.000	-0.12257	0.00995	0.15816	0.18104
333.000	-0.09094	0.01592	0.17002	0.22083
334.000	-0.06326	0.00597	0.18188	0.18899
335.000	-0.06920	0.03183	0.18386	0.22480
336.000	-0.12455	-0.00995	0.17398	0.22083
337.000	-0.07117	-0.00995	0.17200	0.22878
338.000	-0.14037	0.03183	0.17595	0.22679
339.000	-0.12850	0.00597	0.16211	0.19098
340.000	0.02966	0.01393	0.19770	0.12533
341.000	-0.01977	0.03581	0.14234	0.19695
342.000	-0.08303	-0.00398	0.16014	0.21685
343.000	0.02966	0.05371	0.17200	0.20889
344.000	-0.07117	0.01989	0.17991	0.17308
345.000	-0.08106	0.04377	0.20561	0.21088
346.000	-0.09292	0.03780	0.14037	0.18701
347.000	-0.03756	0.01393	0.16409	0.22679
348.000	-0.02372	0.00000	0.14432	0.20690
349.000	-0.04943	0.10942	0.13444	0.23873
350.000	-0.05931	-0.02387	0.16211	0.18104
351.000	0.00000	0.02387	0.18781	0.21287
352.000	-0.02768	0.02586	0.16804	0.17308
353.000	-0.09094	0.01790	0.15618	0.18303
354.000	-0.03163	0.02387	0.17002	0.22878
355.000	-0.00198	-0.02984	0.17793	0.20889
356.000	-0.04152	0.01194	0.13839	0.21685
357.000	-0.08106	0.00000	0.17793	0.18502
358.000	-0.13048	-0.05968	0.11269	0.20889
359.000	-0.05733	0.01790	0.19375	0.24072
360.000	-0.07710	0.03780	0.18979	0.19297
361.000	-0.06129	0.11141	0.16211	0.24868
362.000	-0.04745	0.03382	0.13444	0.22480
363.000	-0.07710	0.01393	0.15025	0.23077
364.000	-0.06920	0.04974	0.14234	0.22878
365.000	-0.03756	0.07162	0.11467	0.20093
366.000	0.00989	0.09151	0.14037	0.24669
367.000	0.01186	0.08356	0.16211	0.23276
368.000	0.01977	0.06764	0.11071	0.19098
369.000	-0.05931	0.07958	0.16211	0.18701
370.000	-0.05536	-0.01194	0.18188	0.23674
371.000	-0.04943	0.00398	0.19968	0.22679
372.000	-0.01779	0.06963	0.17991	0.18899
373.000	0.00989	0.00995	0.20363	0.24470
374.000	0.00395	0.11738	0.17595	0.17109
375.000	-0.09885	0.04974	0.18188	0.28846
376.000	0.00000	0.03780	0.16014	0.25663
377.000	0.00989	0.09549	0.12653	0.22679
378.000	-0.00791	0.11340	0.13246	0.20889
379.000	-0.06129	0.14324	0.17793	0.21287
380.000	-0.02372	0.07560	0.13839	0.27056
381.000	-0.01977	0.02387	0.14630	0.17308
382.000	-0.01779	0.10544	0.10083	0.21486
383.000	-0.03756	0.06764	0.16211	0.21088
384.000	-0.04745	0.07958	0.16409	0.19496
385.000	-0.00989	0.09748	0.12653	0.22878
386.000	-0.01582	0.07560	0.17595	0.21486
387.000	-0.01779	0.10743	0.16607	0.18900
388.000	0.04547	0.05173	0.16409	0.22281
389.000	0.03756	0.10146	0.16804	0.16512
390.000	-0.02570	0.15120	0.17002	0.20491
391.000	0.05733	0.06167	0.17595	0.19098
392.000	-0.05931	0.09549	0.12257	0.21884
393.000	-0.04943	0.05371	0.16211	0.18104
394.000	-0.03559	0.10942	0.10676	0.19297
395.000	-0.07710	0.12931	0.10083	0.18104
396.000	-0.06920	0.15120	0.13444	0.18701
397.000	-0.00395	0.12931	0.11467	0.21287
398.000	-0.03559	0.13528	0.11467	0.16910
399.000	-0.09885	0.11141	0.13641	0.15319
400.000	-0.01779	0.14722	0.11664	0.19297
401.000	0.00593	0.12732	0.12257	0.15120
402.000	0.02175	0.16512	0.13246	0.19496
403.000	-0.09687	0.15915	0.08106	0.17308
404.000	0.03756	0.11937	0.09292	0.18303
405.000	-0.04745	0.14921	0.10083	0.17706
406.000	0.00791	0.13130	0.11071	0.18701
407.000	-0.00593	0.09350	0.11269	0.21884
408.000	-0.03954	0.16313	0.13246	0.22878
409.000	-0.02966	0.14921	0.07908	0.21088
410.000	-0.00593	0.12732	0.12257	0.22083
411.000	-0.05536	0.05968	0.07710	0.23873
412.000	0.04943	0.08754	0.11071	0.21287
413.000	-0.05338	0.05968	0.07710	0.17706
414.000	-0.03559	0.02785	0.11664	0.17308
415.000	-0.06920	0.00796	0.10478	0.20292
416.000	-0.06326	0.08952	0.03559	0.17905
417.000	-0.09094	0.02586	0.05733	0.15717
418.000	0.00989	0.01790	0.06326	0.22282
419.000	-0.03163	-0.00597	0.12653	0.19695
420.000	0.00989	0.06366	0.07117	0.20690
421.000	-0.00989	0.06963	0.06920	0.23276
422.000	0.00000	0.10942	0.06920	0.24669
423.000	-0.04547	0.03581	0.11862	0.22083
424.000	-0.00593	0.06366	0.09885	0.23077
425.000	0.02175	0.13130	0.11071	0.22083
426.000	-0.05338	0.18900	0.12653	0.21685
427.000	-0.02570	0.03780	0.10280	0.23674
428.000	-0.05140	0.04178	0.10280	0.18303
429.000	-0.07513	0.01790	0.08897	0.22282
430.000	-0.07117	0.09947	0.07117	0.22282
431.000	-0.01977	0.05968	0.06524	0.23475
432.000	-0.04943	0.03780	0.10676	0.22878
433.000	-0.04943	0.05173	0.08699	0.22480
434.000	-0.06524	0.05968	0.05931	0.23873
435.000	-0.04547	0.06366	0.09885	0.20491
436.000	0.03756	0.07162	0.09885	0.24868
437.000	-0.04943	0.06366	0.07315	0.23077
438.000	0.00791	0.05968	0.09687	0.24072
439.000	-0.00791	0.07759	0.11664	0.23674
440.000	0.01186	0.00796	0.12257	0.25266
441.000	-0.07908	0.07162	0.08106	0.18701
442.000	-0.06326	0.02785	0.10280	0.24470
443.000	-0.00395	0.02984	0.14234	0.23475
444.000	-0.03559	0.06764	0.13839	0.22083
445.000	-0.00395	0.07361	0.14630	0.20093
446.000	-0.02372	0.14722	0.08303	0.25266
447.000	-0.07710	0.11539	0.17002	0.20690
448.000	-0.00791	0.09748	0.10874	0.22878
449.000	-0.01582	0.05173	0.14037	0.23674
450.000	-0.01977	0.08754	0.10280	0.17308
451.000	0.05931	0.06764	0.12653	0.20690
452.000	-0.04943	0.05769	0.12455	0.25067
453.000	0.00989	0.04377	0.12455	0.21287
454.000	0.06326	0.06366	0.11467	0.18502
455.000	0.02768	0.11539	0.09094	0.22480
456.000	0.06722	0.01393	0.07513	0.20889
457.000	0.02570	0.09151	0.09094	0.20292
458.000	0.03163	0.06764	0.14827	0.19695
459.000	0.03361	0.09947	0.08303	0.20889
460.000	0.05140	0.00597	0.08303	0.21884
461.000	-0.04547	0.06764	0.14037	0.22679
462.000	-0.01779	0.09549	0.15421	0.18303
463.000	0.00791	0.11738	0.06326	0.17905
464.000	0.03163	0.13130	0.05931	0.22878
465.000	0.00000	0.09350	0.08897	0.23475
466.000	0.01582	0.10146	0.06920	0.24669
467.000	-0.10676	0.05769	0.09292	0.24072
468.000	0.02372	0.10743	0.09885	0.20889
469.000	-0.02372	0.08754	0.09687	0.20491
470.000	0.02570	0.15120	0.05140	0.22282
471.000	0.05536	0.08754	0.12653	0.20292
472.000	0.02175	0.07560	0.07710	0.18502
473.000	0.01977	0.06565	0.11862	0.21685
474.000	0.01384	0.14125	0.09885	0.19894
475.000	-0.05536	0.11937	0.10478	0.16711
476.000	0.11467	0.08157	0.08501	0.18900
477.000	0.08303	0.09151	0.09687	0.17706
478.000	0.06920	0.08356	0.05931	0.19496
479.000	0.11071	0.11539	0.09885	0.16711
480.000	0.05931	0.12533	0.10874	0.20292
481.000	0.12060	0.11738	0.09094	0.22679
482.000	-0.02966	0.11340	0.11664	0.16512
483.000	0.06129	0.11937	0.11862	0.19695
484.000	0.04745	0.08555	0.10083	0.20690
485.000	0.02570	0.16512	0.10874	0.15716
486.000	0.14037	0.13727	0.10478	0.14324
487.000	0.07117	0.10345	0.15618	0.18303
488.000	0.06129	0.12732	0.12060	0.19496
489.000	0.10478	0.17507	0.12455	0.17507
490.000	0.08106	0.19695	0.09490	0.20690
491.000	0.06920	0.16114	0.11862	0.21486
492.000	0.01582	0.12136	0.16409	0.17507
493.000	0.13839	0.23873	0.17002	0.23077
494.000	0.04152	0.11738	0.15618	0.17507
495.000	0.13048	0.18104	0.16607	0.23475
496.000	0.12653	0.17507	0.17002	0.22679
497.000	0.13641	0.20292	0.15223	0.17905
498.000	0.06920	0.19297	0.13048	0.19496
499.000	0.08897	0.13727	0.13444	0.21884
500.000	0.06326	0.15915	0.16607	0.23276
501.000	0.08106	0.22480	0.16211	0.22679
502.000	0.04943	0.19496	0.15025	0.20491
503.000	0.10874	0.16512	0.11071	0.20491
504.000	0.10280	0.16711	0.16607	0.23475
505.000	0.07710	0.09947	0.11071	0.20889
506.000	0.10676	0.12334	0.10874	0.23674
507.000	0.12455	0.08555	0.15421	0.23276
508.000	0.12060	0.14921	0.12257	0.20690
509.000	0.14037	0.12533	0.11071	0.21287
510.000	0.09490	0.13130	0.08897	0.19098
511.000	0.08106	0.13727	0.10478	0.22282
512.000	0.18979	0.16313	0.14037	0.19496
513.000	0.11071	0.21884	0.09490	0.23475
514.000	0.11071	0.08753	0.12060	0.22878
515.000	0.10478	0.15319	0.16211	0.15716
516.000	0.04547	0.01194	0.12653	0.21486
517.000	0.05338	0.02984	0.13444	0.17706
518.000	0.01384	0.13926	0.18781	0.21088
519.000	0.06129	0.03183	0.13444	0.21287
520.000	0.07710	0.08157	0.15223	0.22679
521.000	0.09490	0.10544	0.14827	0.27454
522.000	0.06920	0.09350	0.12257	0.29045
523.000	0.04547	0.12136	0.10874	0.28449
524.000	0.05733	0.10743	0.11862	0.26061
525.000	0.11269	0.12136	0.11664	0.24669
526.000	0.12060	0.14125	0.12257	0.24072
527.000	0.09885	0.11738	0.14630	0.24072
528.000	0.04349	0.16114	0.12060	0.20093
529.000	0.04943	0.04178	0.11862	0.22679
530.000	0.02768	0.09748	0.12653	0.19695
531.000	0.06722	0.17308	0.13048	0.24470
532.000	0.15025	0.11937	0.10676	0.23077
533.000	0.10478	0.11937	0.11269	0.17308
534.000	0.02966	0.13528	0.08501	0.24072
535.000	0.08303	0.14125	0.13246	0.24271
536.000	0.10478	0.07162	0.14037	0.20491
537.000	0.03559	0.05570	0.14234	0.20491
538.000	0.09490	0.08952	0.14630	0.21884
539.000	0.05733	0.15319	0.16409	0.19297
540.000	0.10874	0.14722	0.11071	0.24669
541.000	0.07117	0.10544	0.12060	0.24271
542.000	0.05931	0.21287	0.12060	0.22480
543.000	0.07513	0.16512	0.11862	0.16711
544.000	0.11862	0.16313	0.13839	0.15518
545.000	0.07117	0.14324	0.10280	0.17905
546.000	0.03559	0.16114	0.11862	0.19695
547.000	0.08699	0.08754	0.11467	0.22480
548.000	0.10676	0.19297	0.10676	0.24669
549.000	0.11467	0.17905	0.11467	0.22083
550.000	0.12257	0.21287	0.12060	0.21685
551.000	0.12850	0.16313	0.14234	0.21287
552.000	0.08501	0.14722	0.12455	0.22679
553.000	0.14827	0.19297	0.11269	0.23475
554.000	0.06920	0.13329	0.11269	0.25266
555.000	0.13246	0.12334	0.11664	0.18303
556.000	0.11467	0.15518	0.14037	0.16910
557.000	0.08501	0.16313	0.13641	0.23873
558.000	0.15421	0.18303	0.11862	0.20093
559.000	0.00198	0.18104	0.16014	0.17706
560.000	0.14037	0.14523	0.09687	0.21685
561.000	0.06722	0.21088	0.13246	0.22480
562.000	0.08106	0.15518	0.17595	0.18899
563.000	0.13839	0.12732	0.11862	0.18502
564.000	0.13048	0.18701	0.16804	0.24868
565.000	0.06722	0.09350	0.14234	0.22878
566.000	0.08897	0.16313	0.13246	0.19297
567.000	0.14234	0.14921	0.14827	0.14722
568.000	0.04745	0.04377	0.13048	0.20690
569.000	0.11664	0.12136	0.11664	0.23276
570.000	0.10676	0.14921	0.08501	0.22878
571.000	0.12653	0.10743	0.14827	0.21486
572.000	0.13839	0.11340	0.13444	0.19496
573.000	0.09292	0.14523	0.15421	0.15518
574.000	0.09292	0.12533	0.11269	0.19894
575.000	0.08501	0.13727	0.15223	0.25663
576.000	0.13048	0.09350	0.16409	0.23276
577.000	0.16211	0.17507	0.13444	0.19098
578.000	0.07513	0.09947	0.16014	0.20690
579.000	0.14037	0.09947	0.12060	0.21088
580.000	0.12060	0.13329	0.15223	0.22679
581.000	0.13246	0.16114	0.11467	0.18502
582.000	0.06326	0.10743	0.12850	0.22282
583.000	0.06129	0.11141	0.13839	0.21088
584.000	0.05733	0.10942	0.12060	0.16711
585.000	0.10874	0.16512	0.11664	0.22480
586.000	0.07117	0.16313	0.14432	0.26658
587.000	0.17991	0.16512	0.14037	0.21685
588.000	0.14432	0.17109	0.13641	0.16114
589.000	0.16409	0.12732	0.16409	0.19695
590.000	0.13641	0.21088	0.14234	0.18104
591.000	0.21945	0.17706	0.16409	0.20292
592.000	0.12455	0.15716	0.13048	0.19695
593.000	0.10083	0.21287	0.16409	0.19098
594.000	0.16607	0.12732	0.14630	0.18502
595.000	0.14432	0.18900	0.14630	0.16910
596.000	0.18386	0.13727	0.16804	0.16313
597.000	0.10280	0.22282	0.16014	0.22083
598.000	0.14630	0.20889	0.16804	0.16711
599.000	0.17398	0.15915	0.16409	0.18303
600.000	0.12060	0.13926	0.15816	0.18104
601.000	0.13839	0.15120	0.16607	0.22083
602.000	0.13444	0.18701	0.17200	0.24072
603.000	0.12653	0.16512	0.15618	0.18701
604.000	0.14827	0.21884	0.16211	0.22281
605.000	0.07908	0.13329	0.18781	0.17109
606.000	0.18584	0.22083	0.17595	0.19496
607.000	0.17398	0.21884	0.13444	0.19894
608.000	0.12653	0.21486	0.10083	0.18701
609.000	0.13839	0.18701	0.14630	0.14523
610.000	0.17398	0.23276	0.08501	0.19297
611.000	0.13048	0.18900	0.08303	0.19496
612.000	0.14827	0.22679	0.16607	0.21486
613.000	0.11071	0.20093	0.13048	0.15319
614.000	0.08106	0.22480	0.12060	0.16711
615.000	0.15223	0.19297	0.12455	0.19297
616.000	0.19770	0.20491	0.13641	0.18502
617.000	0.15223	0.19297	0.12653	0.19894
618.000	0.07710	0.23077	0.14234	0.20889
619.000	0.14432	0.21287	0.14630	0.19098
620.000	0.11269	0.26061	0.17200	0.21486
621.000	0.14432	0.20690	0.15421	0.17706
622.000	0.16014	0.13329	0.13444	0.17308
623.000	0.19375	0.16910	0.09490	0.17109
624.000	0.16607	0.15120	0.12060	0.20093
625.000	0.10874	0.22679	0.15223	0.16910
626.000	0.12653	0.14722	0.11664	0.18900
627.000	0.12455	0.17905	0.10874	0.16910
628.000	0.17002	0.20889	0.16211	0.21287
629.000	0.16804	0.16114	0.11467	0.23873
630.000	0.14432	0.19894	0.06920	0.22282
631.000	0.19177	0.18104	0.14432	0.19098
632.000	0.17002	0.14722	0.09094	0.20889
633.000	0.20758	0.18303	0.07315	0.22282
634.000	0.14432	0.18900	0.15025	0.22083
635.000	0.10280	0.21287	0.09687	0.25465
636.000	0.24317	0.21884	0.14630	0.20690
637.000	0.16211	0.16313	0.12060	0.22282
638.000	0.20363	0.22281	0.11862	0.22679
639.000	0.16409	0.14921	0.10083	0.22878
640.000	0.23526	0.18700	0.10083	0.25862
641.000	0.11664	0.20292	0.06722	0.22878
642.000	0.12850	0.10942	0.10478	0.19894
643.000	0.18979	0.17905	0.14234	0.21486
644.000	0.18188	0.09947	0.10280	0.20690
645.000	0.15223	0.16114	0.07908	0.23077
646.000	0.20956	0.15120	0.11269	0.19695
647.000	0.11467	0.08753	0.12060	0.25664
648.000	0.21549	0.22082	0.13641	0.19297
649.000	0.15025	0.13329	0.09885	0.23873
650.000	0.15618	0.12732	0.15025	0.23276
651.000	0.12257	0.12136	0.11269	0.18502
652.000	0.12455	0.19098	0.14037	0.19098
653.000	0.14630	0.16512	0.12060	0.21287
654.000	0.17002	0.11141	0.10874	0.21884
655.000	0.17200	0.23674	0.09292	0.22282
656.000	0.09885	0.12533	0.07908	0.23276
657.000	0.13641	0.13926	0.07710	0.19695
658.000	0.18386	0.15716	0.10874	0.20292
659.000	0.21154	0.17905	0.10083	0.21884
660.000	0.15618	0.15319	0.07513	0.25067
661.000	0.22735	0.19695	0.12060	0.22878
662.000	0.12060	0.14324	0.09094	0.19894
663.000	0.14827	0.18900	0.11269	0.20491
664.000	0.13246	0.19695	0.10874	0.20093
665.000	0.16409	0.17308	0.10478	0.20889
666.000	0.14827	0.22083	0.14234	0.20491
667.000	0.12850	0.20292	0.08303	0.19099
668.000	0.14827	0.19695	0.08897	0.20491
669.000	0.21352	0.24470	0.12850	0.17109
670.000	0.11467	0.20292	0.12455	0.18701
671.000	0.13839	0.18701	0.08501	0.18303
672.000	0.15025	0.16711	0.11862	0.20491
673.000	0.17991	0.23276	0.10874	0.23674
674.000	0.13444	0.26061	0.09094	0.16910
675.000	0.17595	0.16910	0.13246	0.18900
676.000	0.17991	0.21486	0.08897	0.18900
677.000	0.16014	0.20889	0.07513	0.23674
678.000	0.15223	0.23475	0.10676	0.17905
679.000	0.20165	0.19297	0.12060	0.21088
680.000	0.13641	0.25266	0.08106	0.18900
681.000	0.15025	0.21287	0.06920	0.19496
682.000	0.16607	0.19297	0.09292	0.24868
683.000	0.07117	0.22679	0.09292	0.16910
684.000	0.15816	0.19496	0.07908	0.21287
685.000	0.14234	0.23475	0.06326	0.23674
686.000	0.18188	0.23077	0.07908	0.20690
687.000	0.20758	0.19297	0.11269	0.17905
688.000	0.16607	0.20093	0.09094	0.22679
689.000	0.27480	0.18501	0.09094	0.22480
690.000	0.21549	0.19894	0.14432	0.17109
691.000	0.19572	0.21884	0.12455	0.20292
692.000	0.18979	0.21088	0.13839	0.21884
693.000	0.18386	0.18899	0.10280	0.21685
694.000	0.15618	0.20093	0.10676	0.20292
695.000	0.13839	0.19695	0.13444	0.23276
696.000	0.16804	0.19695	0.10083	0.23276
697.000	0.18781	0.20491	0.11269	0.23674
698.000	0.22735	0.23077	0.09094	0.25266
699.000	0.19572	0.24669	0.12060	0.23276
700.000	0.15816	0.17507	0.10280	0.26459
701.000	0.25108	0.22878	0.08897	0.24271
702.000	0.20561	0.17905	0.12060	0.27255
703.000	0.15025	0.13130	0.11467	0.23674
704.000	0.21945	0.20093	0.14037	0.23674
705.000	0.19177	0.17109	0.13641	0.25266
706.000	0.14037	0.16512	0.11269	0.21287
707.000	0.27480	0.11141	0.13839	0.20292
708.000	0.16804	0.17507	0.10676	0.29045
709.000	0.16014	0.13528	0.14432	0.21884
710.000	0.19968	0.20491	0.07513	0.24868
711.000	0.19572	0.16313	0.13246	0.23276
712.000	0.16607	0.11937	0.13246	0.26459
713.000	0.21945	0.15120	0.10083	0.28648
714.000	0.21549	0.17706	0.13839	0.26260
715.000	0.22538	0.20491	0.08303	0.24669
716.000	0.16211	0.12334	0.12060	0.23873
717.000	0.21747	0.17109	0.10676	0.24271
718.000	0.15025	0.13528	0.11269	0.27653
719.000	0.18781	0.09350	0.13641	0.21884
720.000	0.16014	0.11539	0.12060	0.25266
721.000	0.12850	0.14921	0.11664	0.27255
722.000	0.19375	0.11738	0.13048	0.24470
723.000	0.19770	0.17109	0.10874	0.24470
724.000	0.17793	0.16114	0.12257	0.20491
725.000	0.18386	0.15319	0.10280	0.26061
726.000	0.20363	0.16711	0.12257	0.26260
727.000	0.15618	0.10942	0.12455	0.22679
728.000	0.17398	0.16114	0.12850	0.25465
729.000	0.27282	0.12732	0.12060	0.26260
730.000	0.21945	0.21884	0.10874	0.26459
731.000	0.18979	0.21088	0.14630	0.26658
732.000	0.24119	0.22082	0.10478	0.21088
733.000	0.19968	0.17706	0.11862	0.23873
734.000	0.23724	0.22679	0.12850	0.25663
735.000	0.16409	0.20690	0.14432	0.25862
736.000	0.12060	0.18303	0.10676	0.24271
737.000	0.19770	0.21088	0.12257	0.25266
738.000	0.20165	0.22679	0.15816	0.22878
739.000	0.15816	0.20093	0.15816	0.22679
740.000	0.15025	0.25465	0.13246	0.28051
741.000	0.25701	0.25066	0.11862	0.25465
742.000	0.22340	0.19894	0.13048	0.29244
743.000	0.23724	0.20093	0.14827	0.31035
744.000	0.13641	0.22282	0.16409	0.26260
745.000	0.23724	0.23077	0.13246	0.19695
746.000	0.26492	0.25862	0.10874	0.19894
747.000	0.22933	0.27255	0.15025	0.23873
748.000	0.21945	0.25862	0.11071	0.20292
749.000	0.24515	0.29244	0.13641	0.22679
750.000	0.25503	0.20690	0.13641	0.23674
751.000	0.22538	0.22480	0.19572	0.24271
752.000	0.16014	0.15518	0.17595	0.25266
753.000	0.16607	0.21884	0.19177	0.24072
754.000	0.21549	0.21685	0.16607	0.26459
755.000	0.17398	0.25663	0.12850	0.28449
756.000	0.18781	0.19098	0.18584	0.27454
757.000	0.16014	0.19695	0.15618	0.28051
758.000	0.17398	0.23475	0.15421	0.28250
759.000	0.25503	0.23077	0.17991	0.26857
760.000	0.20561	0.17507	0.14630	0.27454
761.000	0.14432	0.25862	0.17595	0.26658
762.000	0.21352	0.11937	0.18386	0.28846
763.000	0.26096	0.18104	0.15025	0.26857
764.000	0.17200	0.23475	0.12653	0.27056
765.000	0.20561	0.17905	0.15025	0.30040
766.000	0.18386	0.21685	0.13641	0.29642
767.000	0.17595	0.11539	0.12060	0.29443
768.000	0.24317	0.20491	0.09885	0.25862
769.000	0.14630	0.21287	0.16211	0.29841
770.000	0.17595	0.20889	0.14630	0.29443
771.000	0.16804	0.18303	0.14037	0.32427
772.000	0.19770	0.07759	0.13048	0.31234
773.000	0.23922	0.17706	0.10676	0.31831
774.000	0.11862	0.17905	0.11467	0.31035
775.000	0.08897	0.19695	0.15421	0.33024
776.000	0.15025	0.17905	0.12257	0.29841
777.000	0.17002	0.13727	0.13246	0.36804
778.000	0.16804	0.22083	0.09687	0.34218
779.000	0.12060	0.21486	0.15618	0.33422
780.000	0.15421	0.13727	0.15618	0.29443
781.000	0.23922	0.15915	0.16014	0.34417
782.000	0.11862	0.13528	0.13444	0.31632
783.000	0.13048	0.10345	0.15421	0.35411
784.000	0.11664	0.12732	0.14827	0.38594
785.000	0.12455	0.18104	0.17398	0.32825
786.000	0.19968	0.10743	0.13444	0.30836
787.000	0.14037	0.19297	0.16014	0.33223
788.000	0.14432	0.14722	0.15421	0.36605
789.000	0.08699	0.15319	0.15223	0.32626
790.000	0.20363	0.17109	0.14037	0.33820
791.000	0.10478	0.20690	0.13641	0.37401
792.000	0.17595	0.14125	0.11071	0.36605
793.000	0.11071	0.13727	0.09885	0.38395
794.000	0.13641	0.18502	0.09885	0.35809
795.000	0.09292	0.12732	0.15223	0.32825
796.000	0.03361	0.18303	0.14827	0.32825
797.000	0.13444	0.08555	0.10676	0.38594
798.000	0.12653	0.13130	0.10676	0.33820
799.000	0.10676	0.12732	0.10676	0.36406
800.000	0.09687	0.13727	0.13444	0.35809
801.000	0.11269	0.18701	0.13641	0.34616
802.000	0.14037	0.08356	0.09094	0.32427
803.000	0.14630	0.12732	0.16804	0.34019
804.000	0.12257	0.15120	0.14630	0.32228
805.000	0.15421	0.18701	0.13839	0.33223
806.000	0.08303	0.14125	0.16409	0.32427
807.000	0.19770	0.16114	0.16211	0.32427
808.000	0.18188	0.09947	0.17002	0.33223
809.000	0.13444	0.15120	0.17200	0.35013
810.000	0.10874	0.16114	0.13839	0.31831
811.000	0.15223	0.15120	0.14037	0.34815
812.000	0.06326	0.12732	0.16804	0.31234
813.000	0.16409	0.10743	0.17200	0.32626
814.000	0.11269	0.17706	0.10874	0.36605
815.000	0.08699	0.12533	0.10676	0.39390
816.000	0.06129	0.15120	0.14037	0.35212
817.000	0.14037	0.18502	0.14630	0.33024
818.000	0.17595	0.14921	0.12257	0.34218
819.000	0.15618	0.13926	0.13641	0.36804
820.000	0.13048	0.12334	0.15618	0.36207
821.000	0.10874	0.13727	0.15025	0.31831
822.000	0.19375	0.14324	0.10083	0.37202
823.000	0.16014	0.15120	0.15618	0.31035
824.000	0.14037	0.12931	0.15025	0.30239
825.000	0.10874	0.17706	0.12653	0.32427
826.000	0.06722	0.14324	0.14234	0.37401
827.000	0.09292	0.09151	0.14234	0.37600
828.000	0.14827	0.14722	0.12257	0.35809
829.000	0.12850	0.14125	0.10478	0.40186
830.000	0.12060	0.15915	0.11467	0.36207
831.000	0.12653	0.13727	0.12653	0.38594
832.000	0.14037	0.15716	0.15223	0.37799
833.000	0.15618	0.17109	0.12455	0.41578
834.000	0.15223	0.12931	0.08897	0.36008
835.000	0.15223	0.21287	0.12455	0.35213
836.000	0.14432	0.13130	0.14432	0.36008
837.000	0.15816	0.14125	0.13641	0.38197
838.000	0.07908	0.10345	0.10083	0.33621
839.000	0.04943	0.14523	0.15421	0.31433
840.000	0.21549	0.08952	0.09292	0.34019
841.000	0.17398	0.14324	0.12060	0.35411
842.000	0.08303	0.14324	0.15025	0.32626
843.000	0.16607	0.12334	0.13048	0.34815
844.000	0.14630	0.10146	0.14234	0.37799
845.000	0.10676	0.17308	0.12060	0.36605
846.000	0.13444	0.18104	0.14630	0.39390
847.000	0.15223	0.11738	0.13048	0.36008
848.000	0.14432	0.15120	0.14630	0.38992
849.000	0.13048	0.18502	0.09885	0.40186
850.000	0.11269	0.17706	0.15816	0.37799
851.000	0.13246	0.12136	0.16211	0.35610
852.000	0.16211	0.16910	0.15223	0.36008
853.000	0.19770	0.21088	0.16607	0.36605
854.000	0.19177	0.15915	0.12653	0.37600
855.000	0.09885	0.13926	0.17991	0.35610
856.000	0.13246	0.16711	0.12060	0.38197
857.000	0.14827	0.15518	0.15421	0.33422
858.000	0.15223	0.16711	0.17595	0.34616
859.000	0.21747	0.14324	0.11467	0.38395
860.000	0.17991	0.15915	0.12653	0.36008
861.000	0.11862	0.20491	0.10478	0.35809
862.000	0.11269	0.12931	0.11467	0.36804
863.000	0.15223	0.07958	0.16804	0.34815
864.000	0.14630	0.14523	0.13839	0.31035
865.000	0.18188	0.11738	0.13641	0.37799
866.000	0.18584	0.12135	0.16607	0.37799
867.000	0.17398	0.10544	0.12850	0.38395
868.000	0.09292	0.08952	0.12455	0.37600
869.000	0.23922	0.11539	0.16409	0.36804
870.000	0.07513	0.10146	0.11862	0.35213
871.000	0.08699	0.06366	0.13048	0.38395
872.000	0.11862	0.09947	0.12455	0.35014
873.000	0.10478	0.11738	0.11071	0.38992
874.000	0.12455	0.17905	0.12455	0.37600
875.000	0.09292	0.14523	0.08699	0.37202
876.000	0.13641	0.08952	0.10083	0.40385
877.000	0.13839	0.14324	0.15618	0.39987
878.000	0.07315	0.15518	0.09094	0.35809
879.000	0.06722	0.05769	0.07908	0.38197
880.000	0.14630	0.10345	0.08897	0.37202
881.000	0.05536	0.09549	0.14827	0.37202
882.000	0.11664	0.16512	0.11071	0.38197
883.000	0.15025	0.11937	0.16607	0.39987
884.000	0.05536	0.07958	0.14630	0.35212
885.000	0.02768	0.19099	0.10280	0.40385
886.000	0.16409	0.23276	0.14827	0.40982
887.000	0.11664	0.12931	0.09885	0.39191
888.000	0.10874	0.12732	0.10280	0.39191
889.000	0.13048	0.10544	0.11467	0.39390
890.000	0.09885	0.08952	0.10280	0.40186
891.000	0.06920	0.17308	0.09490	0.41181
892.000	0.09094	0.17109	0.11664	0.41181
893.000	0.08897	0.14722	0.09490	0.37600
894.000	0.02768	0.06366	0.10083	0.37799
895.000	0.10280	0.08952	0.09687	0.41777
896.000	0.07710	0.05371	0.12653	0.38395
897.000	0.09687	0.07958	0.11467	0.38395
898.000	0.08106	0.11340	0.08501	0.47347
899.000	0.09490	0.18104	0.10676	0.48541
900.000	0.09490	0.10544	0.17398	0.40186
901.000	0.03756	0.11937	0.13641	0.43170
902.000	0.13048	0.16114	0.09687	0.46751
903.000	0.07908	0.19496	0.10083	0.43767
904.000	0.13641	0.18303	0.10280	0.45557
905.000	0.04943	0.13926	0.10280	0.44960
906.000	0.05338	0.13727	0.09094	0.46751
907.000	0.10676	0.12334	0.14234	0.46552
908.000	0.07315	0.13130	0.13444	0.44363
909.000	0.09885	0.13528	0.14234	0.43369
910.000	0.05536	0.17109	0.17002	0.40783
911.000	0.00593	0.11141	0.12060	0.42772
912.000	0.08106	0.11340	0.13246	0.40584
913.000	0.01977	0.15518	0.16211	0.42175
914.000	0.05931	0.13329	0.11664	0.40584
915.000	0.03756	0.14125	0.14037	0.43767
916.000	0.03559	0.15120	0.11071	0.43170
917.000	0.00395	0.18701	0.13444	0.46353
918.000	0.10874	0.13926	0.14234	0.44363
919.000	0.04349	0.19099	0.16607	0.44761
920.000	0.02175	0.12732	0.14037	0.42374
921.000	0.02372	0.12136	0.17200	0.45955
922.000	-0.03756	0.11539	0.18386	0.48342
923.000	-0.00989	0.13727	0.14630	0.46353
924.000	0.00791	0.18104	0.14234	0.47745
925.000	-0.01582	0.15518	0.19770	0.47148
926.000	0.10478	0.18303	0.16607	0.48939
927.000	-0.02768	0.19099	0.17595	0.44363
928.000	0.06722	0.17706	0.17200	0.47347
929.000	-0.05338	0.14125	0.16014	0.47944
930.000	0.05536	0.14523	0.17991	0.46949
931.000	-0.02768	0.15319	0.19572	0.47347
932.000	-0.00791	0.15120	0.16607	0.44960
933.000	0.01977	0.13727	0.15816	0.46552
934.000	-0.02372	0.24669	0.17398	0.48541
935.000	-0.09490	0.10942	0.20363	0.46750
936.000	-0.01186	0.15120	0.16409	0.51724
937.000	0.00198	0.16114	0.16607	0.48342
938.000	-0.14630	0.12931	0.19375	0.48342
939.000	-0.03559	0.16512	0.20758	0.52320
940.000	-0.02570	0.23873	0.19770	0.49933
941.000	-0.13641	0.14125	0.17002	0.52122
942.000	-0.07117	0.21287	0.17200	0.52718
943.000	-0.14630	0.19695	0.15223	0.52917
944.000	-0.06722	0.17706	0.17595	0.51326
945.000	-0.17595	0.18701	0.17002	0.50729
946.000	-0.10874	0.19297	0.19375	0.52519
947.000	-0.14234	0.16711	0.18584	0.53315
948.000	-0.21154	0.11738	0.19968	0.58487
949.000	-0.19177	0.16711	0.18584	0.59283
950.000	-0.18188	0.21088	0.23329	0.57293
951.000	-0.19177	0.16512	0.22538	0.58089
952.000	-0.13839	0.24868	0.28469	0.68631
953.000	-0.09885	0.29244	0.37167	0.62266
954.000	-0.01779	0.23674	0.36574	0.66841
955.000	-0.05338	0.24072	0.49622	0.73006
956.000	0.12455	0.33223	0.55354	0.74596
957.000	0.28073	0.38395	0.56540	0.83546
958.000	0.36969	0.49336	0.64250	0.88915
959.000	0.42702	0.62265	0.68994	0.94085
960.000	0.45668	0.62663	0.73145	0.96272
961.000	0.52191	0.68431	0.82435	1.05815
962.000	0.56343	0.86530	0.82633	1.14564
963.000	0.53575	0.89116	0.82040	1.12775
964.000	0.54959	0.93093	0.80854	1.14764
965.000	0.50215	0.95878	0.80854	1.20729
966.000	0.48238	0.91503	0.75715	1.20134
967.000	0.43889	0.96476	0.74331	1.19538
968.000	0.23724	0.93693	0.61680	1.21330
969.000	0.16607	0.92898	0.63262	1.19342
970.000	0.14630	0.97870	0.59110	1.17155
971.000	0.10676	0.91307	0.51401	1.19344
972.000	-0.00395	0.85341	0.57529	1.13576
973.000	-0.02966	0.80368	0.55354	1.13974
974.000	-0.11269	0.84744	0.55354	1.07014
975.000	-0.11862	0.75594	0.58715	1.09201
976.000	-0.21549	0.68433	0.58715	1.10991
977.000	-0.11467	0.70621	0.61087	1.07411
978.000	-0.10083	0.62665	0.60099	1.09797
979.000	-0.11071	0.68035	0.58122	1.07213
980.000	-0.09687	0.64057	0.63262	1.02240
981.000	-0.07513	0.65648	0.63064	1.08206
982.000	-0.19177	0.58089	0.64250	1.07410
983.000	-0.15421	0.65250	0.61482	1.05621
984.000	-0.13048	0.61869	0.64843	1.06814
985.000	-0.13641	0.62267	0.59901	1.04428
986.000	-0.13048	0.64256	0.67017	1.07609
987.000	-0.07908	0.61471	0.65436	1.08802
988.000	-0.14234	0.64455	0.65831	1.06217
989.000	-0.11467	0.58885	0.68006	1.07409
990.000	-0.15025	0.56896	0.68006	1.10790
991.000	-0.09490	0.67439	0.66227	1.12978
992.000	-0.13048	0.64654	0.68796	1.08801
993.000	-0.16014	0.68831	0.66029	1.13376
994.000	-0.16607	0.60476	0.67413	1.08006
995.000	-0.08303	0.61272	0.66622	1.11983
996.000	-0.16211	0.63659	0.69587	1.12778
997.000	-0.16211	0.59681	0.68006	1.18147
998.000	-0.12653	0.67240	0.70575	1.12181
999.000	-0.23131	0.63659	0.73936	1.15362
1000.000	-0.18781	0.66046	0.70575	1.16158
1001.000	-0.14827	0.70820	0.70773	1.15164
1002.000	-0.27480	0.60078	0.73936	1.12578
1003.000	-0.22142	0.62863	0.73936	1.16754
1004.000	-0.20956	0.69229	0.72354	1.13772
1005.000	-0.12060	0.59681	0.77296	1.15162
1006.000	-0.25305	0.70422	0.77691	1.10788
1007.000	-0.13444	0.72411	0.72354	1.08999
1008.000	-0.25503	0.71217	0.79273	1.12776
1009.000	-0.23724	0.64653	0.79075	1.06015
1010.000	-0.29655	0.64454	0.74529	1.11982
1011.000	-0.31236	0.69029	0.77296	1.05419
1012.000	-0.22538	0.67438	0.78087	1.06214
1013.000	-0.29852	0.57890	0.80261	1.07605
1014.000	-0.31236	0.71416	0.72750	1.09596
1015.000	-0.26689	0.67239	0.76308	1.08203
1016.000	-0.31632	0.67836	0.80063	1.09196
1017.000	-0.31039	0.62266	0.76308	1.08203
1018.000	-0.28073	0.71217	0.80063	1.08997
1019.000	-0.26689	0.69029	0.80854	1.01441
1020.000	-0.30841	0.62664	0.78087	1.11981
1021.000	-0.35586	0.72808	0.80261	1.10986
1022.000	-0.30050	0.64056	0.82238	1.02832
1023.000	-0.41121	0.60077	0.79668	1.06810
1024.000	-0.26294	0.70422	0.83424	1.03429
1025.000	-0.32620	0.68432	0.83424	1.04423
1026.000	-0.34399	0.60674	0.84610	1.06411
1027.000	-0.31829	0.72808	0.81249	1.10389
1028.000	-0.35981	0.62465	0.79866	1.05219
1029.000	-0.37365	0.67835	0.82435	1.02832
1030.000	-0.40133	0.66244	0.82238	1.03031
1031.000	-0.43691	0.62663	0.81645	1.06014
1032.000	-0.37167	0.61072	0.79470	1.02236
1033.000	-0.40726	0.68631	0.80854	1.10787
1034.000	-0.35783	0.61271	0.84807	1.09593
1035.000	-0.34795	0.68631	0.84807	1.07803
1036.000	-0.26294	0.74400	0.78284	1.09992
1037.000	-0.37563	0.73405	0.84610	1.13570
1038.000	-0.29852	0.68631	0.82040	1.11582
1039.000	-0.46459	0.62066	0.83819	1.09991
1040.000	-0.40923	0.62066	0.82831	1.13570
1041.000	-0.36969	0.61669	0.81842	1.03827
1042.000	-0.44482	0.68431	0.83028	1.11383
1043.000	-0.33411	0.73604	0.84214	1.10587
1044.000	-0.44679	0.64851	0.84412	1.06013
1045.000	-0.41714	0.64055	0.88563	1.08597
1046.000	-0.48040	0.57292	0.84412	1.05417
1047.000	-0.48238	0.67436	0.85005	1.10189
1048.000	-0.44284	0.63856	0.84214	1.06411
1049.000	-0.39144	0.74797	0.86388	1.08996
1050.000	-0.45668	0.69426	0.90934	1.06012
1051.000	-0.43691	0.64851	0.88167	1.04620
1052.000	-0.45272	0.67238	0.87772	1.09791
1053.000	-0.48633	0.68630	0.83028	1.09792
1054.000	-0.53575	0.69027	0.87574	1.07404
1055.000	-0.49819	0.64055	0.90144	1.06608
1056.000	-0.54366	0.65844	0.89551	1.03825
1057.000	-0.43296	0.69227	0.88563	1.07603
1058.000	-0.48435	0.65447	0.84214	1.08599
1059.000	-0.50808	0.70619	0.83621	1.04820
1060.000	-0.45668	0.58287	0.90737	1.04818
1061.000	-0.61285	0.66639	0.90342	1.03029
1062.000	-0.59703	0.67634	0.87772	1.05018
1063.000	-0.46854	0.58088	0.86586	1.05217
1064.000	-0.50017	0.65248	0.91330	1.05813
1065.000	-0.48238	0.64851	0.87772	1.04620
1066.000	-0.49819	0.68829	0.91923	1.03426
1067.000	-0.56738	0.59081	0.89749	1.05018
1068.000	-0.50017	0.66839	0.93306	0.99846
1069.000	-0.53378	0.75392	0.93109	1.00642
1070.000	-0.61482	0.58285	0.93702	1.00443
1071.000	-0.49622	0.60673	0.92911	1.06607
1072.000	-0.59110	0.60473	0.95085	1.03823
1073.000	-0.51598	0.66243	0.91527	1.00245
1074.000	-0.62471	0.65446	0.93504	1.01238
1075.000	-0.67017	0.62064	0.92120	1.01239
1076.000	-0.63855	0.66639	0.96271	1.00442
1077.000	-0.58913	0.60871	0.92911	1.04420
1078.000	-0.59703	0.66242	0.96666	0.98453
1079.000	-0.62866	0.64451	0.95678	0.99846
1080.000	-0.68006	0.63854	0.95480	1.03425
1081.000	-0.57529	0.70220	0.99433	1.01634
1082.000	-0.63855	0.61269	1.00421	0.97657
1083.000	-0.68203	0.74395	0.96864	0.99845
1084.000	-0.66820	0.70617	0.97259	0.95868
1085.000	-0.71366	0.62461	0.97259	0.96067
1086.000	-0.60692	0.66242	0.94690	0.94875
1087.000	-0.72354	0.59477	0.98840	0.97061
1088.000	-0.71168	0.67235	0.96864	1.02828
1089.000	-0.65238	0.65843	0.93306	0.95074
1090.000	-0.58913	0.63457	0.95876	0.99448
1091.000	-0.63262	0.54705	0.98247	1.01038
1092.000	-0.63459	0.67832	1.00619	0.95271
1093.000	-0.78680	0.65245	0.97457	1.00442
1094.000	-0.71761	0.62262	0.99631	1.08395
1095.000	-0.75715	0.50924	0.98247	1.04220
1096.000	-0.69192	0.58085	0.96271	1.03226
1097.000	-0.63657	0.63655	0.98445	1.03027
1098.000	-0.70773	0.60870	0.98840	1.00242
1099.000	-0.72552	0.65444	1.04967	0.94474
1100.000	-0.70378	0.63853	1.03979	0.99247
1101.000	-0.65831	0.62860	1.00421	1.01634
1102.000	-0.66227	0.60870	1.01014	0.95270
1103.000	-0.77098	0.68626	0.99236	0.98850
1104.000	-0.67215	0.65047	1.01212	0.95867
1105.000	-0.75715	0.61466	1.01212	1.00838
1106.000	-0.73145	0.65444	1.01805	0.99645
1107.000	-0.65238	0.64053	1.01805	1.06804
1108.000	-0.72552	0.62461	0.98643	1.03026
1109.000	-0.74924	0.64052	0.99236	1.03424
1110.000	-0.72750	0.58881	1.02200	1.10383
1111.000	-0.76110	0.64250	0.99433	1.08196
1112.000	-0.73540	0.68030	1.01607	1.05809
1113.000	-0.82238	0.68824	0.99829	1.03821
1114.000	-0.72750	0.64649	1.03188	1.01037
1115.000	-0.68401	0.67235	1.04374	1.05212
1116.000	-0.68599	0.61467	1.01805	1.04020
1117.000	-0.73936	0.70616	0.96864	1.05811
1118.000	-0.81052	0.63255	0.99829	1.10184
1119.000	-0.70180	0.58284	1.01607	1.05213
1120.000	-0.78087	0.65245	1.00817	1.08395
1121.000	-0.67610	0.71213	1.00619	1.10184
1122.000	-0.71761	0.68428	0.97852	1.07998
1123.000	-0.69389	0.66042	0.98445	1.11179
1124.000	-0.80261	0.72206	1.02595	1.01037
1125.000	-0.70773	0.64052	1.06351	1.09586
1126.000	-0.72947	0.72605	1.01607	1.06008
1127.000	-0.79866	0.67034	1.03584	1.09388
1128.000	-0.71761	0.61665	1.04769	1.08194
1129.000	-0.81645	0.53111	1.08524	1.04216
1130.000	-0.72947	0.67234	1.07536	1.03819
1131.000	-0.68203	0.65445	1.03188	1.01633
1132.000	-0.77494	0.65444	1.03979	1.05411
1133.000	-0.75715	0.65643	1.04967	1.04217
1134.000	-0.77494	0.72007	1.04572	1.07797
1135.000	-0.70575	0.70019	1.06351	1.09785
1136.000	-0.79668	0.62858	1.03584	1.11774
1137.000	-0.68994	0.70815	1.03979	1.12171
1138.000	-0.75319	0.69820	1.03188	1.07201
1139.000	-0.82633	0.58084	1.03584	1.08791
1140.000	-0.84214	0.66636	1.07141	1.13761
1141.000	-0.76703	0.66637	1.01014	1.16348
1142.000	-0.85796	0.66437	1.08327	1.14357
1143.000	-0.80261	0.62858	1.09315	1.10976
1144.000	-0.79273	0.63653	1.07932	1.09983
1145.000	-0.73738	0.64251	1.08920	1.08193
1146.000	-0.74924	0.67234	1.07932	1.05807
1147.000	-0.76505	0.64847	1.08327	1.06602
1148.000	-0.83819	0.71807	1.08129	1.04614
1149.000	-0.69785	0.73202	1.04572	1.09785
1150.000	-0.71168	0.72406	1.03386	1.12768
1151.000	-0.79273	0.65443	1.11291	1.07397
1152.000	-0.78284	0.73598	1.04967	1.11972
1153.000	-0.72354	0.67632	1.05758	1.13165
1154.000	-0.73540	0.64052	1.04572	1.13165
1155.000	-0.71168	0.70417	1.10501	1.06602
1156.000	-0.69587	0.66837	1.10303	1.09385
1157.000	-0.80854	0.66239	1.12279	1.09385
1158.000	-0.67413	0.62462	1.12082	1.16344
1159.000	-0.70575	0.74992	1.07734	1.09983
1160.000	-0.70575	0.65644	1.10303	1.11175
1161.000	-0.73145	0.77179	1.13663	1.06799
1162.000	-0.70378	0.74196	1.09710	1.16544
1163.000	-0.69785	0.66638	1.10501	1.11175
1164.000	-0.70773	0.64450	1.08920	1.07795
1165.000	-0.81052	0.69222	1.12675	1.07396
1166.000	-0.84412	0.68028	1.13860	1.12565
1167.000	-0.78284	0.64847	1.09117	1.13959
1168.000	-0.70971	0.71611	1.15244	1.14553
1169.000	-0.78284	0.70615	1.05758	1.16943
1170.000	-0.77889	0.62858	1.12477	1.19326
1171.000	-0.65634	0.69026	1.09315	1.22310
1172.000	-0.80656	0.69023	1.12477	1.12367
1173.000	-0.74529	0.64450	1.10501	1.14356
1174.000	-0.75517	0.69024	1.06351	1.14755
1175.000	-0.76703	0.76582	1.12872	1.15349
1176.000	-0.71366	0.75986	1.12279	1.17139
1177.000	-0.75319	0.74394	1.07734	1.19129
1178.000	-0.75122	0.70416	1.10106	1.17736
1179.000	-0.76703	0.71212	1.07932	1.17340
1180.000	-0.70378	0.70616	1.10501	1.16543
1181.000	-0.76505	0.75786	1.09117	1.12170
1182.000	-0.70773	0.66240	1.12279	1.12367
1183.000	-0.77098	0.74195	1.13268	1.15946
1184.000	-0.78482	0.69223	1.14848	1.14354
1185.000	-0.79668	0.70018	1.15441	1.17535
1186.000	-0.70575	0.74594	1.12279	1.13759
1187.000	-0.79075	0.80161	1.14848	1.13957
1188.000	-0.83621	0.69421	1.15441	1.10179
1189.000	-0.72157	0.70616	1.13860	1.12764
1190.000	-0.77889	0.73002	1.16034	1.15547
1191.000	-0.67610	0.70219	1.19196	1.16540
1192.000	-0.69982	0.81158	1.17615	1.15546
1193.000	-0.70971	0.67633	1.16627	1.11769
1194.000	-0.77098	0.75587	1.11884	1.14753
1195.000	-0.78680	0.74990	1.20579	1.16738
1196.000	-0.72157	0.63654	1.13663	1.12565
1197.000	-0.68599	0.71014	1.11884	1.18133
1198.000	-0.76110	0.68030	1.14453	1.15945
1199.000	-0.75319	0.71411	1.12279	1.15151
1200.000	-0.76110	0.74593	1.13070	1.15349
1201.000	-0.86586	0.68227	1.12872	1.13361
1202.000	-0.67017	0.79766	1.14453	1.12963
1203.000	-0.69389	0.83345	1.13663	1.11373
1204.000	-0.77494	0.70814	1.13860	1.09583
1205.000	-0.83424	0.66039	1.17418	1.15745
1206.000	-0.72947	0.75190	1.14848	1.07197
1207.000	-0.70378	0.80362	1.16034	1.06798
1208.000	-0.80063	0.72802	1.17813	1.14552
1209.000	-0.72157	0.72008	1.15639	1.12764
1210.000	-0.77296	0.72604	1.12477	1.12566
1211.000	-0.80261	0.74195	1.13663	1.11174
1212.000	-0.80854	0.68625	1.13663	1.11373
1213.000	-0.82040	0.58084	1.15639	1.13559
1214.000	-0.74726	0.61864	1.10501	1.16344
1215.000	-0.75715	0.67433	1.15837	1.14752
1216.000	-0.86981	0.66834	1.10501	1.13362
1217.000	-0.77889	0.63057	1.10698	1.10976
1218.000	-0.74726	0.73599	1.18406	1.08786
1219.000	-0.84610	0.72802	1.13465	1.15946
1220.000	-0.75122	0.63256	1.11884	1.14753
1221.000	-0.82435	0.67233	1.14453	1.11969
1222.000	-0.84610	0.62260	1.11094	1.17338
1223.000	-0.70575	0.68030	1.11489	1.13362
1224.000	-0.75517	0.73002	1.16627	1.13360
1225.000	-0.86388	0.66636	1.14058	1.14554
1226.000	-0.80656	0.66438	1.13465	1.12764
1227.000	-0.81842	0.65443	1.15837	1.08389
1228.000	-0.77691	0.60073	1.16232	1.13161
1229.000	-0.78680	0.65245	1.14651	1.13758
1230.000	-0.83424	0.69222	1.19591	1.10973
1231.000	-0.79075	0.69222	1.14058	1.12764
1232.000	-0.81842	0.62062	1.14058	1.09782
1233.000	-0.82040	0.65642	1.15639	1.08389
1234.000	-0.85005	0.73995	1.18801	1.12365
1235.000	-0.83226	0.64647	1.17615	1.13558
1236.000	-0.82238	0.56095	1.16825	1.06798
1237.000	-0.77296	0.68825	1.11687	1.14157
1238.000	-0.85598	0.65442	1.15046	1.09384
1239.000	-0.85005	0.64448	1.14256	1.17735
1240.000	-0.84017	0.60470	1.13860	1.10378
1241.000	-0.84610	0.58282	1.15046	1.11968
1242.000	-0.82633	0.53310	1.12872	1.10180
1243.000	-0.93109	0.58877	1.15441	1.13758
1244.000	-0.85203	0.63255	1.16034	1.09781
1245.000	-0.91132	0.57088	1.13663	1.13560
1246.000	-0.85400	0.64647	1.13663	1.12565
1247.000	-0.96271	0.69219	1.14848	1.17536
1248.000	-0.91527	0.59872	1.16825	1.14751
1249.000	-0.82040	0.58680	1.11094	1.14555
1250.000	-0.89156	0.61663	1.10698	1.15549
1251.000	-0.83028	0.70415	1.13860	1.13957
1252.000	-0.88167	0.62061	1.15244	1.07793
1253.000	-0.74133	0.55499	1.13070	1.08191
1254.000	-0.87574	0.63254	1.14058	1.12565
1255.000	-0.89156	0.62458	1.15441	1.07594
1256.000	-0.83819	0.65045	1.15837	1.10974
1257.000	-0.81447	0.65443	1.18406	1.07792
1258.000	-0.79668	0.68825	1.18208	1.13359
1259.000	-0.88563	0.68624	1.13268	1.05010
1260.000	-0.85005	0.68227	1.15046	1.05009
1261.000	-0.78877	0.68825	1.15837	1.07395
1262.000	-0.77296	0.70018	1.16825	1.06798
1263.000	-0.79866	0.67631	1.14256	1.15548
1264.000	-0.78877	0.65841	1.13663	1.07992
1265.000	-0.86191	0.66834	1.12872	1.10379
1266.000	-0.72947	0.78373	1.13663	1.13758
1267.000	-0.78482	0.71410	1.16034	1.11769
1268.000	-0.72750	0.77378	1.13663	1.05606
1269.000	-0.70773	0.63058	1.09908	1.16742
1270.000	-0.76901	0.75389	1.14848	1.10577
1271.000	-0.66424	0.72805	1.14256	1.08787
1272.000	-0.70773	0.80163	1.15244	1.11372
1273.000	-0.70773	0.82550	1.14848	1.10378
1274.000	-0.73936	0.83146	1.15441	1.14354
1275.000	-0.73540	0.78969	1.12279	1.11970
1276.000	-0.77494	0.79764	1.10106	1.11970
1277.000	-0.63064	0.88716	1.17813	1.08190
1278.000	-0.76901	0.87322	1.13465	1.11174
1279.000	-0.73145	0.75986	1.13070	1.05209
1280.000	-0.79075	0.80360	1.17220	1.04014
1281.000	-0.80459	0.73797	1.11884	1.08391
1282.000	-0.81052	0.70018	1.15244	1.08588
1283.000	-0.76703	0.85134	1.14256	1.08390
1284.000	-0.79470	0.73598	1.14453	1.13162
1285.000	-0.70180	0.77180	1.12082	1.16145
1286.000	-0.72552	0.80362	1.14651	1.15945
1287.000	-0.76901	0.78571	1.10896	1.21315
1288.000	-0.74924	0.80958	1.08327	1.16146
1289.000	-0.81052	0.83741	1.10896	1.13760
1290.000	-0.70575	0.72605	1.11094	1.23303
1291.000	-0.80656	0.79167	1.13070	1.16145
1292.000	-0.62668	0.64451	1.15441	1.26880
1293.000	-0.65831	0.79368	1.27298	1.18325
1294.000	-0.65831	0.68628	1.31250	1.22896
1295.000	-0.46656	0.76586	1.40537	1.20506
1296.000	-0.49424	0.74796	1.52589	1.27655
1297.000	-0.34399	0.66443	1.67009	1.17112
1298.000	-0.07117	0.68234	1.78071	1.15515
1299.000	-0.00395	0.62665	1.92883	1.18685
1300.000	0.18979	0.64256	2.06507	1.17880
1301.000	0.42307	0.60873	2.20919	1.17472
1302.000	0.57924	0.63855	2.38486	1.21828
1303.000	0.66227	0.55898	2.58417	1.16645
1304.000	0.75715	0.51918	2.63546	1.17435
1305.000	0.86981	0.63851	2.85835	1.15625
1306.000	0.93109	0.66038	2.85441	1.14633
1307.000	0.97259	0.62855	2.91554	1.14031
1308.000	1.02595	0.63052	2.88004	1.21780
1309.000	1.02793	0.72201	2.88201	1.09267
1310.000	0.96469	0.70015	2.83074	1.10464
1311.000	0.92713	0.79363	2.81102	1.01527
1312.000	0.85400	0.75387	2.73409	1.11665
1313.000	0.86388	0.78569	2.66505	1.04718
1314.000	0.82831	0.78570	2.59008	1.10287
1315.000	0.73738	0.81952	2.55852	1.09098
1316.000	0.65436	0.75191	2.53879	1.11285
1317.000	0.68994	0.78572	2.44012	1.12883
1318.000	0.61680	0.82750	2.42631	1.14871
1319.000	0.50610	0.75392	2.41841	1.17256
1320.000	0.59308	0.74993	2.43420	1.11294
1321.000	0.58122	0.71811	2.46578	1.15464
1322.000	0.59308	0.73999	2.41841	1.11295
1323.000	0.51598	0.67237	2.43815	1.22618
1324.000	0.67413	0.77180	2.44210	1.19439
1325.000	0.63262	0.71214	2.45788	1.23213
1326.000	0.62273	0.78971	2.46380	1.19040
1327.000	0.63262	0.74197	2.48354	1.21224
1328.000	0.65041	0.64849	2.51313	1.18837
1329.000	0.68401	0.79368	2.53287	1.20623
1330.000	0.70378	0.74793	2.47959	1.18641
1331.000	0.66029	0.74396	2.50130	1.17646
1332.000	0.58122	0.72408	2.50327	1.24003
1333.000	0.64250	0.73203	2.48551	1.26587
1334.000	0.69785	0.77776	2.52497	1.20624
1335.000	0.72552	0.72406	2.55062	1.19827
1336.000	0.66424	0.76186	2.48551	1.28773
1337.000	0.70971	0.74793	2.48156	1.25992
1338.000	0.69587	0.77975	2.45788	1.27583
1339.000	0.80459	0.73797	2.48748	1.25991
1340.000	0.79075	0.79565	2.48946	1.26984
1341.000	0.82238	0.72802	2.53287	1.28967
1342.000	0.79273	0.66836	2.48354	1.31554
1343.000	0.77889	0.77974	2.54076	1.23403
1344.000	0.76703	0.72803	2.55852	1.25786
1345.000	0.72157	0.78572	2.52497	1.20624
1346.000	0.74529	0.78173	2.48946	1.26984
1347.000	0.80261	0.69620	2.55654	1.26580
1348.000	0.76505	0.76781	2.53879	1.27973
1349.000	0.75122	0.80560	2.50919	1.29168
1350.000	0.79470	0.64449	2.51708	1.30160
1351.000	0.80063	0.75587	2.51905	1.25591
1352.000	0.70575	0.75787	2.56838	1.26977
1353.000	0.77691	0.72405	2.48156	1.28773
1354.000	0.74529	0.70814	2.49735	1.28374
1355.000	0.72354	0.73997	2.54471	1.27178
1356.000	0.75517	0.70218	2.54668	1.29958
1357.000	0.78482	0.73200	2.51511	1.22015
1358.000	0.79668	0.73996	2.51905	1.26783
1359.000	0.78877	0.69222	2.58811	1.24194
1360.000	0.79866	0.70217	2.54668	1.26780
1361.000	0.72947	0.80759	2.53879	1.27178
1362.000	0.73145	0.77179	2.53287	1.25788
1363.000	0.71959	0.75588	2.57035	1.25387
1364.000	0.72157	0.77776	2.53287	1.28967
1365.000	0.74331	0.74196	2.53879	1.28966
1366.000	0.67215	0.74595	2.53287	1.29364
1367.000	0.68006	0.72208	2.53681	1.31151
1368.000	0.83424	0.77376	2.55457	1.24594
1369.000	0.69389	0.64450	2.56838	1.28367
1370.000	0.82238	0.73598	2.52300	1.39297
1371.000	0.68796	0.72804	2.51708	1.28372
1372.000	0.80261	0.78968	2.55457	1.30554
1373.000	0.80656	0.80758	2.56246	1.29957
1374.000	0.72354	0.77577	2.58219	1.29756
1375.000	0.73145	0.76980	2.52103	1.29564
1376.000	0.81249	0.71410	2.49932	1.31354
1377.000	0.64843	0.76584	2.54668	1.28568
1378.000	0.72157	0.70815	2.52300	1.28372
1379.000	0.71564	0.76583	2.51708	1.27776
1380.000	0.74924	0.72405	2.54865	1.34726
1381.000	0.71564	0.75191	2.58811	1.26379
1382.000	0.78482	0.76780	2.56049	1.27375
1383.000	0.83028	0.85530	2.55457	1.32341
1384.000	0.72354	0.73003	2.56641	1.30354
1385.000	0.74924	0.77378	2.54076	1.28568
1386.000	0.82238	0.76382	2.48946	1.31355
1387.000	0.72947	0.75389	2.55852	1.30752
1388.000	0.71761	0.77378	2.59008	1.30749
1389.000	0.80854	0.77576	2.58417	1.29955
1390.000	0.80261	0.80360	2.54668	1.33335
1391.000	0.83424	0.79564	2.55852	1.32937
1392.000	0.72947	0.81356	2.54471	1.27376
1393.000	0.78284	0.72803	2.58417	1.31345
1394.000	0.62273	0.71612	2.51708	1.27578
1395.000	0.77494	0.75388	2.51313	1.34729
1396.000	0.67808	0.84539	2.54865	1.34328
1397.000	0.86388	0.79166	2.49143	1.35923
1398.000	0.72947	0.75389	2.51511	1.31352
1399.000	0.75122	0.78770	2.57035	1.30552
1400.000	0.78877	0.80559	2.55852	1.30950
1401.000	0.82238	0.83940	2.58614	1.33530
1402.000	0.67413	0.81556	2.57430	1.36312
1403.000	0.78482	0.84139	2.57430	1.28168
1404.000	0.77691	0.75786	2.57430	1.26976
1405.000	0.74529	0.78969	2.59600	1.28563
1406.000	0.73343	0.77179	2.55260	1.29560
1407.000	0.85796	0.78768	2.57825	1.26976
1408.000	0.77691	0.74792	2.57627	1.31743
1409.000	0.80459	0.67233	2.52300	1.30755
1410.000	0.74924	0.75389	2.57825	1.24592
1411.000	0.78482	0.76184	2.52892	1.21815
1412.000	0.84017	0.83541	2.56049	1.25388
1413.000	0.77296	0.73400	2.56444	1.30950
1414.000	0.73738	0.78969	2.58219	1.30749
1415.000	0.75715	0.77974	2.58219	1.32537
1416.000	0.68203	0.79766	2.54076	1.26979
1417.000	0.88167	0.75187	2.54668	1.32739
1418.000	0.67610	0.84340	2.59798	1.29159
1419.000	0.68994	0.67036	2.56444	1.29957
1420.000	0.70180	0.78771	2.61376	1.27369
1421.000	0.73936	0.78571	2.58219	1.30551
1422.000	0.74529	0.78571	2.58811	1.26180
1423.000	0.70575	0.75986	2.54273	1.30157
1424.000	0.76703	0.75389	2.57430	1.28962
1425.000	0.66820	0.72009	2.58022	1.20420
1426.000	0.68796	0.78174	2.60192	1.27569
1427.000	0.74133	0.79566	2.56641	1.30155
1428.000	0.74133	0.67234	2.52103	1.29564
1429.000	0.64448	0.63059	2.61573	1.26574
1430.000	0.70180	0.72406	2.63743	1.23593
1431.000	0.74924	0.71809	2.61771	1.31540
1432.000	0.67215	0.64650	2.61968	1.31937
1433.000	0.72947	0.73400	2.58219	1.28366
1434.000	0.67808	0.74396	2.59403	1.34919
1435.000	0.75517	0.70019	2.57430	1.26579
1436.000	0.64052	0.64252	2.59008	1.30550
1437.000	0.66029	0.70617	2.60784	1.31144
1438.000	0.58715	0.64253	2.54273	1.31548
1439.000	0.67808	0.61467	2.59206	1.28563
1440.000	0.62273	0.67037	2.57627	1.30154
1441.000	0.66029	0.63257	2.61376	1.30150
1442.000	0.68599	0.56494	2.58614	1.34126
1443.000	0.64645	0.64451	2.56444	1.32142
1444.000	0.67017	0.65047	2.58614	1.28167
1445.000	0.61087	0.60672	2.61771	1.26972
1446.000	0.67610	0.69025	2.60587	1.26377
1447.000	0.70971	0.68030	2.62560	1.30943
1448.000	0.61680	0.69026	2.59600	1.23994
1449.000	0.66424	0.71014	2.59206	1.26180
1450.000	0.61087	0.63059	2.54668	1.34328
1451.000	0.71366	0.61466	2.62165	1.25183
1452.000	0.66820	0.62859	2.60587	1.30747
1453.000	0.65436	0.67832	2.55654	1.31944
1454.000	0.57331	0.60275	2.58811	1.28166
1455.000	0.67017	0.66440	2.57233	1.30750
1456.000	0.59308	0.60672	2.62165	1.31937
1457.000	0.69587	0.71014	2.62757	1.30347
1458.000	0.58122	0.59678	2.62165	1.23396
1459.000	0.68203	0.65445	2.61771	1.28759
1460.000	0.67413	0.65445	2.57035	1.34326
1461.000	0.66227	0.67633	2.59995	1.33926
1462.000	0.71761	0.72406	2.56444	1.34327
1463.000	0.75517	0.65842	2.58417	1.29160
1464.000	0.62273	0.67833	2.57430	1.26380
1465.000	0.60099	0.67435	2.59600	1.27570
1466.000	0.78087	0.68228	2.59206	1.26974
1467.000	0.71366	0.72207	2.60981	1.28760
1468.000	0.71168	0.62262	2.56049	1.29758
1469.000	0.73738	0.67632	2.57035	1.27771
1470.000	0.59110	0.67634	2.64730	1.33126
1471.000	0.76901	0.67035	2.58417	1.32338
1472.000	0.65634	0.59876	2.61573	1.25184
1473.000	0.66622	0.64650	2.59995	1.28364
1474.000	0.64843	0.71611	2.61573	1.32931
1475.000	0.67215	0.61467	2.60981	1.25979
1476.000	0.67413	0.69622	2.55852	1.35122
1477.000	0.61878	0.69822	2.59008	1.28365
1478.000	0.72552	0.64052	2.62362	1.31142
1479.000	0.75517	0.75787	2.61179	1.28959
1480.000	0.69587	0.63854	2.61179	1.29753
1481.000	0.68006	0.70616	2.62954	1.21806
1482.000	0.58715	0.62661	2.59206	1.28563
1483.000	0.71761	0.64848	2.60784	1.24390
1484.000	0.63855	0.61467	2.60390	1.25781
1485.000	0.66820	0.61467	2.58811	1.30550
1486.000	0.59308	0.55699	2.60587	1.33925
1487.000	0.67017	0.64451	2.58219	1.31345
1488.000	0.67808	0.57290	2.58022	1.23400
1489.000	0.70575	0.70815	2.67492	1.24781
1490.000	0.74331	0.60472	2.62954	1.29354
1491.000	0.71168	0.63456	2.54668	1.29958
1492.000	0.62668	0.71015	2.56246	1.30155
1493.000	0.61680	0.72209	2.63349	1.28360
1494.000	0.69389	0.68229	2.62165	1.30944
1495.000	0.72947	0.68030	2.58219	1.34523
1496.000	0.67215	0.61666	2.63546	1.26572
1497.000	0.70180	0.75787	2.55062	1.36712
1498.000	0.68994	0.73799	2.55457	1.38698
1499.000	0.72157	0.72207	2.55457	1.32143
1500.000	0.74133	0.67433	2.60587	1.34521
1501.000	0.83621	0.72802	2.57430	1.31743
1502.000	0.72157	0.72008	2.60587	1.31939
1503.000	0.65041	0.66042	2.61376	1.26376
1504.000	0.76703	0.74593	2.64138	1.26969
1505.000	0.70575	0.74793	2.59798	1.31741
1506.000	0.75122	0.75588	2.57233	1.27771
1507.000	0.90342	0.77773	2.62954	1.35114
1508.000	0.90539	0.77176	2.68478	1.38683
1509.000	0.98445	0.66633	2.69267	1.29347
1510.000	1.16232	0.67027	2.80116	1.22384
1511.000	1.17813	0.53105	2.93328	1.21973
1512.000	1.30064	0.37391	3.05552	1.13023
1513.000	1.38166	0.13723	3.23686	0.97913
1514.000	1.53774	-0.03779	3.35509	0.80627
1515.000	1.57132	-0.16705	3.61115	0.56585
1516.000	1.61873	-0.38181	3.69188	0.43279
1517.000	1.83008	-0.49908	3.85526	0.27590
1518.000	1.83601	-0.52692	3.92020	0.18855
1519.000	1.75898	-0.63431	3.88675	0.09527
1520.000	1.80441	-0.75159	3.91036	-0.08336
1521.000	1.76293	-0.80529	3.86707	-0.23819
1522.000	1.81428	-0.72177	3.79424	-0.26600
1523.000	1.75305	-0.77746	3.71944	-0.35734
1524.000	1.64046	-0.86697	3.62099	-0.39907
1525.000	1.63849	-0.88487	3.54025	-0.53214
1526.000	1.47057	-0.94459	3.52253	-0.61951
1527.000	1.54367	-0.97040	3.42404	-0.68708
1528.000	1.41129	-1.02613	3.40040	-0.74468
1529.000	1.34016	-1.06990	3.37873	-0.78044
1530.000	1.32436	-1.22100	3.33933	-0.76657
1531.000	1.20382	-1.38805	3.33144	-0.73084
1532.000	1.28484	-1.45956	3.38464	-0.75859
1533.000	1.40734	-1.54296	3.42601	-0.80621
1534.000	1.65429	-1.41759	3.49692	-0.90145
1535.000	1.64046	-1.66003	3.64462	-1.01444
1536.000	1.86958	-1.73135	3.70960	-1.10764
1537.000	1.94067	-1.83060	3.78046	-1.23455
1538.000	2.03546	-1.88412	3.92807	-1.29385
1539.000	2.05915	-2.08862	4.00480	-1.41670
1540.000	2.08087	-2.13227	4.10316	-1.56724
1541.000	2.17958	-2.15397	4.13266	-1.55330
1542.000	2.13615	-2.17984	4.09529	-1.67829
1543.000	2.08087	-2.26727	4.09726	-1.69018
1544.000	2.14010	-2.16594	4.04415	-1.66055
1545.000	2.09469	-2.32679	4.00087	-1.70624
1546.000	2.11641	-2.20568	3.90249	-1.64695
1547.000	2.07692	-2.14419	3.88871	-1.61723
1548.000	2.08679	-2.10248	3.88281	-1.64501
1549.000	2.07495	-2.09059	3.85526	-1.54986
1550.000	2.09864	-2.07864	3.77456	-1.49842
1551.000	2.03941	-2.00724	3.79031	-1.42301
1552.000	2.12825	-1.96940	3.69188	-1.36960
1553.000	2.15194	-1.90185	3.74700	-1.41118
1554.000	2.19143	-1.90776	3.70172	-1.28030
1555.000	2.24078	-1.86004	3.75291	-1.21673
1556.000	2.16971	-1.84622	3.72338	-1.20883
1557.000	2.25854	-1.81037	3.69581	-1.20887
1558.000	2.26447	-1.83816	3.74109	-1.17904
1559.000	2.30000	-1.87982	3.71747	-1.24654
1560.000	2.18156	-1.90380	3.76669	-1.23655
1561.000	2.20525	-1.90774	3.76472	-1.27227
1562.000	2.14010	-1.91378	3.75881	-1.32386
1563.000	2.05125	-2.03304	3.78243	-1.34962
1564.000	2.19143	-2.01498	3.79227	-1.40119
1565.000	2.09469	-1.94164	3.76865	-1.42503
1566.000	2.02361	-2.00328	3.82180	-1.38130
1567.000	2.09469	-2.05879	3.77456	-1.37542
1568.000	2.10259	-2.05481	3.82180	-1.44677
1569.000	2.08087	-2.07271	3.83164	-1.47452
1570.000	2.16379	-2.14606	3.80999	-1.43885
1571.000	2.21117	-2.05268	3.81589	-1.51026
1572.000	2.19932	-1.98519	3.82574	-1.44478
1573.000	2.15194	-2.08056	3.86313	-1.46455
1574.000	2.11641	-2.10840	3.79031	-1.44285
1575.000	2.20525	-2.06063	3.87494	-1.39907
1576.000	2.21512	-2.03282	3.83361	-1.41302
1577.000	2.12628	-2.08655	3.82770	-1.44874
1578.000	2.05125	-2.09856	3.83164	-1.44080
1579.000	2.12825	-2.02897	3.84148	-1.50624
1580.000	2.01769	-2.11449	3.86510	-1.43479
1581.000	2.14800	-2.02695	3.83754	-1.45467
1582.000	2.07297	-2.11243	3.88478	-1.49228
1583.000	2.12430	-2.16993	3.84542	-1.45863
1584.000	2.12233	-2.08060	3.87691	-1.48833
1585.000	2.02163	-2.12441	3.90052	-1.47440
1586.000	2.08482	-2.04094	3.86707	-1.46256
1587.000	2.15984	-2.02694	3.83164	-1.42096
1588.000	2.17563	-2.06663	3.85329	-1.45663
1589.000	2.17563	-2.03287	3.84542	-1.39515
1590.000	2.10259	-2.08658	3.87100	-1.52206
1591.000	2.16971	-2.02097	3.86116	-1.45662
1592.000	2.18156	-2.03684	3.83951	-1.42095
1593.000	2.14602	-2.09446	3.81786	-1.41107
1594.000	2.17563	-1.98919	3.82574	-1.45469
1595.000	2.14010	-2.04880	3.87691	-1.42485
1596.000	2.14800	-2.09446	3.86903	-1.37329
1597.000	2.16181	-2.06069	3.84739	-1.40308
1598.000	2.08482	-2.09653	3.87100	-1.41098
1599.000	2.16379	-1.95545	3.87100	-1.47842
1600.000	2.14010	-2.04086	3.84739	-1.42887
1601.000	2.14602	-2.02299	3.84148	-1.44277
1602.000	2.21117	-2.14202	3.85919	-1.44075
1603.000	2.14602	-2.08056	3.81786	-1.33965
1604.000	2.19143	-2.00108	3.85132	-1.42291
1605.000	2.14800	-2.03092	3.85723	-1.48440
1606.000	2.23486	-2.01889	3.85329	-1.42688
1607.000	2.17169	-1.95941	3.86116	-1.41694
1608.000	2.21512	-2.00105	3.89855	-1.47242
1609.000	2.15392	-2.11232	3.85329	-1.45068
1610.000	2.16774	-2.02494	3.87100	-1.45462
1611.000	2.20722	-1.91965	3.84542	-1.48442
1612.000	2.15589	-2.09842	3.83951	-1.46657
1613.000	2.15392	-2.00312	3.85132	-1.47250
1614.000	2.17958	-2.01698	3.83361	-1.44080
1615.000	2.19538	-1.94747	3.84739	-1.43482
1616.000	2.10259	-2.05878	3.83754	-1.48046
1617.000	2.13615	-2.04484	3.82770	-1.48048
1618.000	2.16181	-1.96141	3.84345	-1.52608
1619.000	2.07100	-2.02308	3.79227	-1.43491
1620.000	2.12036	-2.03493	3.84542	-1.48442
1621.000	2.17366	-2.04677	3.80605	-1.50234
1622.000	2.20919	-2.00503	3.81393	-1.48645
1623.000	2.15984	-2.02892	3.84148	-1.46657
1624.000	2.21906	-2.09635	3.84345	-1.42491
1625.000	2.16181	-1.99318	3.83754	-1.53600
1626.000	2.15392	-2.07460	3.83951	-1.49434
1627.000	2.20525	-2.06063	3.79424	-1.50831
1628.000	2.11443	-2.06075	3.81196	-1.40314
1629.000	2.10851	-2.01906	3.80999	-1.50828
1630.000	2.11246	-2.05083	3.79621	-1.43689
1631.000	2.06705	-1.93373	3.80999	-1.46662
1632.000	2.07297	-2.05286	3.78440	-1.44683
1633.000	2.15787	-2.02297	3.82574	-1.45469
1634.000	2.07297	-2.03499	3.83361	-1.42493
1635.000	2.19143	-1.99711	3.81393	-1.47257
1636.000	2.14800	-2.02695	3.80605	-1.47060
1637.000	2.11443	-2.11436	3.85329	-1.44275
1638.000	2.15194	-2.08850	3.79621	-1.42896
1639.000	2.16774	-2.01700	3.84739	-1.49433
1640.000	2.23091	-1.97522	3.80015	-1.41705
1641.000	2.18748	-1.86407	3.84345	-1.45466
1642.000	2.22104	-2.00104	3.82180	-1.39916
1643.000	2.18550	-2.01102	3.83164	-1.47849
1644.000	2.17169	-1.94948	3.83164	-1.43485
1645.000	2.14010	-1.96938	3.82770	-1.43089
1646.000	2.20327	-2.03085	3.84148	-1.45467
1647.000	2.17761	-2.07854	3.81589	-1.42099
1648.000	2.16971	-2.06465	3.82180	-1.47256
1649.000	2.17761	-1.99912	3.82377	-1.43486
1650.000	2.16181	-2.05275	3.78637	-1.48849
1651.000	2.05915	-2.08068	3.76865	-1.38535
1652.000	2.22499	-2.03082	3.80802	-1.41902
1653.000	2.10654	-2.02105	3.86116	-1.48439
1654.000	2.22893	-2.08641	3.78440	-1.46468
1655.000	2.12628	-1.97337	3.81786	-1.40511
1656.000	2.09864	-2.08460	3.86313	-1.45661
1657.000	2.12430	-2.03294	3.81589	-1.41900
1658.000	2.18748	-2.09440	3.77456	-1.46668
1659.000	2.16379	-2.01899	3.77850	-1.44882
1660.000	2.10456	-2.06275	3.75881	-1.44290
1661.000	2.18353	-2.06860	3.90446	-1.51406
1662.000	2.11246	-2.04090	3.83361	-1.46262
1663.000	2.21709	-1.97921	3.79621	-1.48847
1664.000	2.11048	-2.10642	3.83754	-1.41698
1665.000	2.12825	-2.04088	3.84345	-1.46062
1666.000	2.14602	-2.07858	3.80408	-1.47854
1667.000	2.12825	-2.01308	3.76865	-1.39924
1668.000	2.21709	-1.96531	3.84345	-1.46855
1669.000	2.17761	-1.94550	3.77653	-1.40716
1670.000	2.16971	-2.07061	3.82967	-1.41105
1671.000	2.18550	-1.99116	3.80999	-1.42100
1672.000	2.16971	-2.05274	3.82967	-1.43882
1673.000	2.20525	-1.98121	3.81196	-1.42496
1674.000	2.22301	-1.96133	3.79424	-1.42499
1675.000	2.22104	-2.08443	3.77850	-1.43494
1676.000	2.25262	-1.96328	3.84935	-1.42490
1677.000	2.18945	-1.97329	3.76865	-1.37940
1678.000	2.26052	-1.94540	3.74700	-1.40324
1679.000	2.11641	-1.95154	3.75487	-1.41910
1680.000	2.20525	-1.96532	3.82770	-1.44279
1681.000	2.20919	-1.96333	3.79818	-1.40515
1682.000	2.14207	-1.97136	3.82180	-1.43486
1683.000	2.17366	-1.99912	3.78440	-1.44485
1684.000	2.17761	-1.91175	3.87100	-1.42486
1685.000	2.20722	-2.00702	3.81196	-1.44480
1686.000	2.17366	-1.98522	3.84542	-1.41499
1687.000	2.10654	-1.90985	3.83951	-1.42492
1688.000	2.18945	-2.00307	3.79818	-1.38729
1689.000	2.20919	-1.97922	3.78046	-1.36351
1690.000	2.21906	-1.96729	3.77456	-1.39130
1691.000	2.09271	-1.95951	3.80212	-1.46465
1692.000	2.22104	-1.92956	3.77653	-1.42105
1693.000	2.12628	-1.95550	3.77653	-1.37939
1694.000	2.13812	-1.97137	3.80408	-1.42894
1695.000	2.21314	-2.05466	3.79818	-1.40118
1696.000	2.24473	-1.88783	3.80212	-1.36149
1697.000	2.16379	-2.01105	3.79621	-1.38928
1698.000	2.20327	-1.96533	3.84739	-1.47648
1699.000	2.06705	-2.15215	3.85919	-1.38521
1700.000	2.14405	-2.07461	3.80408	-1.38133
1701.000	2.28618	-2.15382	3.90839	-1.48034
1702.000	2.23683	-2.22337	3.87297	-1.48437
1703.000	2.28618	-2.33047	3.98316	-1.63886
1704.000	2.44012	-2.48695	4.10709	-1.73774
1705.000	2.46775	-2.61386	4.23099	-1.96935
1706.000	2.60587	-2.81782	4.29980	-2.16730
1707.000	2.69662	-2.99798	4.49634	-2.38059
1708.000	2.78143	-3.15826	4.62010	-2.49894
1709.000	2.87413	-3.36992	4.64760	-2.69277
1710.000	2.79918	-3.57010	4.75953	-2.79322
1711.000	2.84849	-3.66890	4.77131	-2.89799
1712.000	2.91554	-3.87047	4.80272	-3.02637
1713.000	2.94511	-3.97517	4.78898	-3.08178
1714.000	3.01609	-4.03225	4.81450	-3.30498
1715.000	3.11466	-4.06746	4.82628	-3.46692
1716.000	3.16394	-4.11272	4.72811	-3.49704
1717.000	3.15014	-4.35578	4.74775	-3.68850
1718.000	3.15408	-4.48411	4.75364	-3.61344
1719.000	3.16788	-4.41692	4.76346	-3.72000
1720.000	3.23686	-4.55481	4.75560	-3.76348
1721.000	3.26248	-4.56062	4.76149	-3.65881
1722.000	3.37085	-4.55815	4.81254	-3.69013
1723.000	3.43389	-4.56969	4.82628	-3.71572
1724.000	3.51465	-4.59298	4.81254	-3.63287
1725.000	3.46541	-4.70764	4.87535	-3.74505
1726.000	3.59146	-4.69517	4.96759	-3.66164
1727.000	3.64659	-4.74418	4.99113	-3.55096
1728.000	3.73322	-4.64118	4.95385	-3.51760
1729.000	3.77850	-4.60741	4.95777	-3.51758
1730.000	3.78046	-4.60346	4.99898	-3.51538
1731.000	3.75094	-4.49512	4.96759	-3.46421
1732.000	3.81196	-4.47507	4.94404	-3.53345
1733.000	3.76472	-4.48321	4.93815	-3.45054
1734.000	3.61312	-4.32409	4.87928	-3.38764
1735.000	3.71353	-4.42822	4.84395	-3.31077
1736.000	3.61706	-4.43856	4.81646	-3.27336
1737.000	3.60130	-4.31823	4.81254	-3.35439
1738.000	3.56192	-4.29669	4.82824	-3.32665
1739.000	3.55010	-4.35795	4.84002	-3.32067
1740.000	3.61312	-4.30633	4.87142	-3.32249
1741.000	3.57373	-4.34205	4.91656	-3.38942
1742.000	3.60721	-4.37742	4.89694	-3.45668
1743.000	3.55601	-4.40333	4.94208	-3.44854
1744.000	3.58358	-4.37754	4.96759	-3.44446
1745.000	3.56979	-4.33614	4.94011	-3.53347
1746.000	3.58949	-4.44264	4.94011	-3.57888
1747.000	3.62690	-4.52534	4.91656	-3.55136
1748.000	3.59540	-4.46432	4.89498	-3.57715
1749.000	3.63084	-4.51545	4.94208	-3.63217
1750.000	3.57176	-4.47431	4.94208	-3.68152
1751.000	3.57176	-4.55916	4.93423	-3.64603
1752.000	3.64659	-4.50156	4.93815	-3.66180
1753.000	3.57373	-4.57493	4.90086	-3.73504
1754.000	3.55995	-4.48028	4.96562	-3.68534
1755.000	3.65053	-4.54298	4.95189	-3.71502
1756.000	3.65250	-4.57848	4.98917	-3.68915
1757.000	3.60721	-4.58660	4.98524	-3.75628
1758.000	3.66628	-4.60208	4.97347	-3.77016
1759.000	3.55798	-4.60855	4.99113	-3.78782
1760.000	3.68006	-4.58228	5.01860	-3.77582
1761.000	3.64462	-4.58641	4.99702	-3.71082
1762.000	3.60130	-4.61030	4.98132	-3.66354
1763.000	3.67810	-4.57835	4.94404	-3.65782
1764.000	3.65447	-4.61989	4.96955	-3.75834
1765.000	3.70369	-4.50325	4.95777	-3.72683
1766.000	3.71156	-4.54859	5.01860	-3.76003
1767.000	3.63281	-4.53320	4.98328	-3.71090
1768.000	3.71353	-4.57619	5.01075	-3.73837
1769.000	3.65447	-4.55480	4.95385	-3.70119
1770.000	3.68794	-4.58619	4.95385	-3.66566
1771.000	3.64856	-4.61401	5.00879	-3.71273
1772.000	3.69975	-4.54865	4.99702	-3.73450
1773.000	3.59933	-4.62609	5.03233	-3.74811
1774.000	3.68203	-4.63750	5.00486	-3.74630
1775.000	3.67022	-4.53104	4.97347	-3.64976
1776.000	3.60524	-4.59647	4.97740	-3.68527
1777.000	3.64462	-4.58049	4.92638	-3.73687
1778.000	3.64462	-4.60022	4.96170	-3.75246
1779.000	3.65250	-4.54100	4.99505	-3.67136
1780.000	3.71353	-4.55055	5.03233	-3.71851
1781.000	3.64462	-4.56274	5.00486	-3.67328
1782.000	3.75487	-4.55428	5.00290	-3.72855
1783.000	3.74109	-4.49517	4.95777	-3.68341
1784.000	3.69188	-4.57631	4.96366	-3.74258
1785.000	3.67416	-4.63163	4.92834	-3.66186
1786.000	3.65250	-4.63174	4.98524	-3.75430
1787.000	3.75094	-4.67461	4.98328	-3.65563
1788.000	3.66234	-4.55081	4.93815	-3.65193
1789.000	3.77259	-4.55616	4.94600	-3.62623
1790.000	3.70960	-4.61764	4.96759	-3.74059
1791.000	3.71747	-4.56434	4.95974	-3.69129
1792.000	3.67022	-4.52907	4.99898	-3.66541
1793.000	3.74503	-4.59576	4.91853	-3.70336
1794.000	3.76078	-4.54833	4.95777	-3.70907
1795.000	3.71747	-4.53869	4.96562	-3.68336
1796.000	3.76275	-4.51479	4.97543	-3.66752
1797.000	3.77850	-4.54627	4.98328	-3.64576
1798.000	3.73913	-4.62932	4.94796	-3.71899
1799.000	3.68794	-4.54476	4.98328	-3.70695
1800.000	3.82180	-4.50067	4.95974	-3.64787
1801.000	3.69975	-4.59402	4.93815	-3.73089
1802.000	3.71353	-4.49531	4.98721	-3.65166
1803.000	3.71944	-4.60772	4.95777	-3.72091
1804.000	3.66825	-4.56656	4.98328	-3.68721
1805.000	3.72338	-4.67082	4.95974	-3.69327
1806.000	3.70369	-4.54074	4.94993	-3.70516
1807.000	3.70566	-4.58018	5.03625	-3.71652
1808.000	3.75487	-4.46747	4.98524	-3.72865
1809.000	3.70172	-4.58415	5.01271	-3.72849
1810.000	3.71156	-4.62157	4.98132	-3.65367
1811.000	3.73322	-4.58793	5.00486	-3.73248
1812.000	3.66431	-4.58039	4.99702	-3.67529
1813.000	3.77653	-4.52852	4.96562	-3.69521
1814.000	3.78834	-4.50479	4.98524	-3.66549
1815.000	3.72535	-4.54062	4.95189	-3.70120
1816.000	3.71156	-4.54070	4.96170	-3.67944
1817.000	3.82180	-4.57563	4.94796	-3.67359
1818.000	3.64265	-4.56077	4.95385	-3.68146
1819.000	3.76669	-4.48714	4.95189	-3.68936
1820.000	3.72141	-4.55643	4.99898	-3.67726
1821.000	3.75487	-4.54442	4.99113	-3.70888
1822.000	3.74306	-4.47740	4.91853	-3.67968
1823.000	3.73125	-4.57216	4.98132	-3.66749
1824.000	3.72928	-4.48536	4.96759	-3.61426
1825.000	3.68006	-4.51323	4.95581	-3.67947
1826.000	3.76472	-4.58776	4.98524	-3.63588
1827.000	3.70763	-4.60187	4.99702	-3.62595
1828.000	3.75094	-4.56614	4.96759	-3.60045
1829.000	3.70172	-4.49339	4.97543	-3.61225
1830.000	3.71550	-4.52489	4.94993	-3.56303
1831.000	3.76669	-4.54238	4.96170	-3.58863
1832.000	3.77062	-4.45555	5.00683	-3.64366
1833.000	3.77259	-4.40029	5.00094	-3.68909
1834.000	3.82967	-4.57361	5.00879	-3.62588
1835.000	3.87297	-4.45700	4.96955	-3.70505
1836.000	3.79031	-4.47716	4.98721	-3.62600
1837.000	3.83164	-4.49864	4.90086	-3.62055
1838.000	3.68597	-4.44809	4.90871	-3.59089
1839.000	3.75291	-4.49905	4.94600	-3.62820
1840.000	3.76078	-4.37272	4.99702	-3.63384
1841.000	3.78637	-4.53242	4.94404	-3.67559
1842.000	3.73913	-4.38862	4.99113	-3.74046
1843.000	3.71156	-4.49334	4.95974	-3.63997
1844.000	3.79227	-4.56000	4.97740	-3.64580
1845.000	3.79031	-4.53437	5.03429	-3.74613
1846.000	3.80015	-4.44554	4.97936	-3.68526
1847.000	3.78046	-4.50483	5.00879	-3.64562
1848.000	3.71156	-4.57029	4.93030	-3.67764
1849.000	3.68794	-4.44019	4.99702	-3.64174
1850.000	3.89855	-4.39570	4.99702	-3.69503
1851.000	3.71747	-4.50910	5.00094	-3.67527
1852.000	3.72338	-4.49328	4.95974	-3.63997
1853.000	3.73913	-4.48334	4.97543	-3.65765
1854.000	3.78637	-4.49099	4.96562	-3.63007
1855.000	3.69975	-4.51511	5.00290	-3.64565
1856.000	3.76275	-4.56608	4.96562	-3.67547
1857.000	3.77850	-4.60544	4.98524	-3.62404
1858.000	3.69778	-4.43422	4.95581	-3.63012
1859.000	3.78440	-4.49889	4.94600	-3.60254
1860.000	3.75881	-4.43786	4.98132	-3.61616
1861.000	3.72338	-4.48737	4.92049	-3.59280
1862.000	3.77850	-4.43381	4.93030	-3.58683
1863.000	3.70172	-4.53680	4.96366	-3.62416
1864.000	3.72535	-4.37290	4.92834	-3.58289
1865.000	3.72731	-4.53075	4.94404	-3.56504
1866.000	3.69581	-4.48356	4.93619	-3.60457
1867.000	3.67219	-4.42645	4.92441	-3.55724
1868.000	3.71156	-4.47756	4.93030	-3.56708
1869.000	3.74109	-4.47741	4.95777	-3.61827
1870.000	3.72338	-4.44198	4.98328	-3.58457
1871.000	3.73322	-4.47942	4.95385	-3.55116
1872.000	3.78637	-4.50283	4.92834	-3.59868
1873.000	3.76865	-4.46740	4.93226	-3.58484
1874.000	3.79031	-4.49097	4.92441	-3.58686
1875.000	3.79227	-4.47320	4.97347	-3.59449
1876.000	3.74897	-4.44777	4.94600	-3.55121
1877.000	3.77850	-4.45946	4.91460	-3.54742
1878.000	3.72338	-4.40251	4.95777	-3.55114
1879.000	3.79031	-4.36468	4.93030	-3.52957
1880.000	3.79424	-4.46135	4.92638	-3.49405
1881.000	3.76472	-4.45756	4.90479	-3.54155
1882.000	3.67219	-4.40671	4.94993	-3.48602
1883.000	3.72338	-4.44198	4.88124	-3.53378
1884.000	3.71156	-4.36112	4.92245	-3.50986
1885.000	3.75291	-4.42210	4.93030	-3.53747
1886.000	3.81196	-4.53820	4.90675	-3.54352
1887.000	3.83558	-4.46706	4.97543	-3.57671
1888.000	3.78834	-4.35285	4.92441	-3.55527
1889.000	3.85723	-4.45511	4.94011	-3.60652
1890.000	3.73519	-4.46560	4.95581	-3.58866
1891.000	3.78243	-4.49890	4.91068	-3.55732
1892.000	3.75291	-4.39842	4.96759	-3.58268
1893.000	3.84345	-4.40191	4.90479	-3.57314
1894.000	3.67416	-4.45407	4.91656	-3.60467
1895.000	3.74897	-4.47145	4.91656	-3.56913
1896.000	3.63675	-4.42860	4.93226	-3.59274
1897.000	3.69385	-4.50133	4.90871	-3.56917
1898.000	3.66825	-4.40871	4.88713	-3.51202
1899.000	3.73519	-4.41429	4.94404	-3.60057
1900.000	3.74109	-4.42611	4.90283	-3.59487
1901.000	3.64659	-4.48380	4.94796	-3.49393
1902.000	3.75291	-4.45367	4.92049	-3.54542
1903.000	3.84542	-4.47293	4.92638	-3.51379
1904.000	3.77653	-4.45947	4.95777	-3.56496
1905.000	3.76669	-4.43782	4.96170	-3.55310
1906.000	3.71747	-4.43214	4.91853	-3.58294
1907.000	3.71156	-4.45980	4.95581	-3.53338
1908.000	3.77456	-4.44764	4.99309	-3.63979
1909.000	3.70960	-4.42429	4.96759	-3.63006
1910.000	3.68597	-4.53491	4.93030	-3.61842
1911.000	3.66234	-4.54686	4.91853	-3.56517
1912.000	3.76078	-4.48520	4.90283	-3.60277
1913.000	3.74503	-4.47936	4.97151	-3.57081
1914.000	3.77653	-4.43777	4.96562	-3.58071
1915.000	3.67613	-4.46590	4.95189	-3.56697
1916.000	3.67810	-4.45405	4.96562	-3.54913
1917.000	3.74897	-4.47342	4.98132	-3.60037
1918.000	3.65250	-4.50745	4.85572	-3.54379
1919.000	3.63478	-4.54306	4.89301	-3.60480
1920.000	3.69188	-4.45595	4.93030	-3.52562
1921.000	3.67416	-4.54286	4.88124	-3.55945
1922.000	3.67613	-4.38893	4.93815	-3.62035
1923.000	3.73519	-4.50901	4.96562	-3.57084
1924.000	3.75684	-4.33327	4.93815	-3.55915
1925.000	3.72731	-4.41828	4.95581	-3.58274
1926.000	3.76472	-4.47729	4.98721	-3.62600
1927.000	3.74897	-4.43396	4.96170	-3.59061
1928.000	3.74503	-4.47344	4.94011	-3.58875
1929.000	3.73519	-4.51295	4.95385	-3.59460
1930.000	3.65841	-4.45415	4.97347	-3.52934
1931.000	3.75487	-4.50102	4.99505	-3.59240
1932.000	3.80408	-4.49090	4.93226	-3.57102
1933.000	3.69188	-4.55066	4.92441	-3.58489
1934.000	3.77850	-4.48116	4.98917	-3.55492
1935.000	3.71747	-4.44596	4.89105	-3.58506
1936.000	3.71550	-4.50319	4.97740	-3.61026
1937.000	3.71747	-4.52883	4.89694	-3.58306
1938.000	3.75881	-4.53651	5.00486	-3.64367
1939.000	3.68991	-4.56251	4.94404	-3.57886
1940.000	3.71156	-4.49926	4.99898	-3.57856
1941.000	3.73125	-4.49719	4.97151	-3.58661
1942.000	3.69385	-4.40463	4.94993	-3.58277
1943.000	3.71550	-4.56829	4.94011	-3.56111
1944.000	3.72141	-4.48738	4.97543	-3.57276
1945.000	3.68991	-4.42439	4.92245	-3.51381
1946.000	3.64856	-4.58639	4.91068	-3.56324
1947.000	3.73125	-4.51889	4.98917	-3.52926
1948.000	3.65447	-4.50547	4.94208	-3.57097
1949.000	3.66234	-4.50938	4.96759	-3.53727
1950.000	3.67810	-4.57835	4.96366	-3.60836
1951.000	3.76472	-4.57001	4.95581	-3.57090
1952.000	3.65250	-4.53705	4.89890	-3.57318
1953.000	3.67613	-4.49550	4.94208	-3.53543
1954.000	3.66431	-4.49556	4.96759	-3.57873
1955.000	3.73913	-4.56423	4.95581	-3.55313
1956.000	3.66431	-4.53699	4.98917	-3.60230
1957.000	3.74897	-4.48526	4.95581	-3.53733
1958.000	3.64069	-4.48581	4.98917	-3.61809
1959.000	3.75487	-4.48720	4.92049	-3.56121
1960.000	3.74109	-4.50503	4.97740	-3.60237
1961.000	3.73322	-4.48534	4.97543	-3.56684
1962.000	3.67022	-4.51131	5.00683	-3.61405
1963.000	3.78046	-4.46537	4.95974	-3.61431
1964.000	3.66825	-4.40279	5.00094	-3.60816
1965.000	3.75291	-4.45959	4.95777	-3.59063
1966.000	3.74109	-4.47346	4.94208	-3.57294
1967.000	3.74503	-4.41622	4.95189	-3.59263
1968.000	3.82770	-4.48288	4.97936	-3.58261
1969.000	3.73125	-4.49324	4.99898	-3.54500
1970.000	3.76275	-4.46546	4.95385	-3.54129
1971.000	3.73125	-4.46957	5.01271	-3.62191
1972.000	3.74306	-4.51883	4.97936	-3.55695
1973.000	3.71747	-4.43609	4.97347	-3.59252
1974.000	3.73322	-4.50310	4.97347	-3.58067
1975.000	3.71156	-4.44993	4.98524	-3.57271
1976.000	3.68006	-4.38891	5.00879	-3.65154
1977.000	3.68597	-4.43822	4.98721	-3.59047
1978.000	3.70172	-4.40459	5.00094	-3.63382
1979.000	3.72928	-4.46958	4.98524	-3.53915
1980.000	3.78440	-4.48903	4.95581	-3.57485
1981.000	3.74897	-4.47737	5.01664	-3.61597
1982.000	3.74306	-4.44978	5.03822	-3.60401
1983.000	3.75881	-4.36089	4.95777	-3.64788
1984.000	3.75684	-4.50101	4.98328	-3.55101
1985.000	3.68794	-4.47768	5.01271	-3.60612
1986.000	3.72731	-4.45577	4.98132	-3.55102
1987.000	3.75291	-4.48919	5.00290	-3.60815
1988.000	3.74109	-4.52673	5.02448	-3.59619
1989.000	3.67810	-4.53100	4.99702	-3.60423
1990.000	3.79031	-4.44362	4.99898	-3.64962
1991.000	3.73913	-4.46361	4.94796	-3.56896
1992.000	3.77850	-4.47722	5.03625	-3.58428
1993.000	3.77850	-4.40421	5.00094	-3.59237
1994.000	3.75094	-4.47933	4.94011	-3.56506
1995.000	3.67613	-4.51917	4.97151	-3.59055
1996.000	3.67613	-4.43432	5.03037	-3.65340
1997.000	3.76472	-4.46150	5.01860	-3.56069
1998.000	3.72141	-4.49132	5.00879	-3.57653
1999.000	3.76275	-4.52070	5.04802	-3.57434
2000.000	3.69778	-4.40067	4.97936	-3.56090
2001.000	3.69778	-4.46184	4.99505	-3.51935
2002.000	3.75291	-4.51484	4.97936	-3.56287
2003.000	3.73716	-4.50308	5.00486	-3.62393
2004.000	3.68794	-4.45400	5.02056	-3.56265
2005.000	3.73716	-4.43402	5.01860	-3.63372
2006.000	3.72141	-4.45778	4.99702	-3.61410
2007.000	3.73125	-4.46562	5.00290	-3.61012
2008.000	3.74109	-4.53857	4.99702	-3.57067
2009.000	3.74700	-4.48922	4.98328	-3.60628
2010.000	3.78440	-4.43378	5.00094	-3.65553
2011.000	3.75881	-4.36879	4.99702	-3.58647
2012.000	3.71550	-4.51700	5.02645	-3.57644
2013.000	3.73125	-4.45378	5.02252	-3.63173
2014.000	3.73125	-4.43997	5.03822	-3.61782
2015.000	3.78243	-4.38840	5.02645	-3.60605
2016.000	3.71747	-4.42622	5.05783	-3.59205
2017.000	3.76275	-4.40429	5.06176	-3.54860
2018.000	3.71747	-4.41044	5.04018	-3.60400
2019.000	3.68203	-4.48560	5.05391	-3.57628
2020.000	3.68006	-4.45601	5.00486	-3.58445
2021.000	3.73125	-4.54257	5.08529	-3.58203
2022.000	3.66825	-4.35739	5.04018	-3.59413
2023.000	3.78637	-4.45745	5.05587	-3.53482
2024.000	3.63872	-4.55882	5.04018	-3.60400
2025.000	3.69778	-4.50525	5.03822	-3.57834
2026.000	3.74503	-4.53855	5.03625	-3.58230
2027.000	3.71353	-4.51109	5.04999	-3.56249
2028.000	3.79818	-4.49685	5.01467	-3.59821
2029.000	3.68794	-4.51517	4.99898	-3.57066
2030.000	3.69975	-4.57627	5.04018	-3.60400
2031.000	3.80408	-4.53035	4.98917	-3.52926
2032.000	3.70763	-4.51112	5.02252	-3.56659
2033.000	3.72731	-4.43802	5.06568	-3.63346
2034.000	3.72141	-4.51697	5.01664	-3.54688
2035.000	3.65644	-4.46797	5.10295	-3.57996
2036.000	3.71353	-4.58408	5.03625	-3.58428
2037.000	3.68991	-4.45004	5.05391	-3.59405
2038.000	3.74109	-4.58197	5.04999	-3.54077
2039.000	3.68400	-4.51716	5.05195	-3.58419
2040.000	3.70960	-4.50322	5.09706	-3.54446
2041.000	3.74109	-4.45768	5.05979	-3.55651
2042.000	3.67022	-4.47974	5.05391	-3.59208
2043.000	3.75487	-4.49115	5.06764	-3.64134
2044.000	3.76669	-4.57592	5.09314	-3.54448
2045.000	3.75487	-4.49115	5.07549	-3.55050
2046.000	3.65053	-4.50549	5.01467	-3.57847
2047.000	3.74109	-4.47346	5.04018	-3.57241
2048.000	3.80212	-4.48104	5.02056	-3.57449
2049.000	3.74109	-4.49122	5.07156	-3.65514
2050.000	3.73913	-4.61551	5.05783	-3.57824
2051.000	3.75094	-4.49512	5.00290	-3.60420
2052.000	3.78834	-4.51663	5.00683	-3.56075
2053.000	3.79818	-4.45936	5.07941	-3.64917
2054.000	3.75094	-4.52668	5.07941	-3.57614
2055.000	3.74306	-4.46951	5.03429	-3.57442
2056.000	3.69385	-4.46778	5.07156	-3.59987
2057.000	3.73322	-4.52086	5.00683	-3.58444
2058.000	3.72141	-4.48540	5.05391	-3.61181
2059.000	3.75487	-4.42406	5.04410	-3.60792
2060.000	3.75684	-4.43589	5.01664	-3.58833
2061.000	3.70960	-4.46376	5.09118	-3.56621
2062.000	3.70566	-4.42234	5.06568	-3.59004
2063.000	3.67219	-4.44618	5.02252	-3.55672
2064.000	3.67416	-4.51524	5.02056	-3.54686
2065.000	3.69778	-4.54866	5.02841	-3.59419
2066.000	3.64856	-4.57061	5.02841	-3.55668
2067.000	3.74897	-4.54248	5.07353	-3.55841
2068.000	3.68006	-4.53888	5.02841	-3.46389
2069.000	3.69188	-4.62167	5.04802	-3.57829
2070.000	3.69188	-4.57631	5.01664	-3.51331
2071.000	3.72338	-4.58601	5.03822	-3.57637
2072.000	3.72141	-4.53867	5.01467	-3.56860
2073.000	3.66628	-4.65534	5.04410	-3.54673
2074.000	3.73519	-4.55044	5.05587	-3.54666
2075.000	3.67613	-4.53890	5.04606	-3.53685
2076.000	3.66431	-4.54685	5.00290	-3.51734
2077.000	3.77062	-4.54039	5.00094	-3.52919
2078.000	3.70369	-4.64528	5.01467	-3.53307
2079.000	3.69778	-4.54668	4.99702	-3.56475
2080.000	3.67219	-4.55865	5.02841	-3.57445
2081.000	3.67416	-4.59810	5.02645	-3.50339
2082.000	3.76865	-4.51081	5.03233	-3.54679
2083.000	3.68597	-4.64932	5.03233	-3.56653
2084.000	3.68597	-4.57634	5.05195	-3.56050
2085.000	3.70763	-4.58806	5.03429	-3.53888
2086.000	3.65447	-4.54690	5.04018	-3.58228
2087.000	3.66234	-4.56462	5.03233	-3.55074
2088.000	3.60721	-4.69706	5.03822	-3.50727
2089.000	3.69778	-4.51512	5.03037	-3.50534
2090.000	3.63084	-4.68708	5.05783	-3.54270
2091.000	3.61706	-4.60036	5.07156	-3.59593
2092.000	3.60918	-4.54319	5.03233	-3.55074
2093.000	3.69188	-4.66901	5.07941	-3.55838
2094.000	3.67219	-4.50144	5.02252	-3.55079
2095.000	3.74897	-4.55037	5.03429	-3.54086
2096.000	3.69385	-4.63547	5.04802	-3.54078
2097.000	3.72141	-4.60180	5.03429	-3.54678
2098.000	3.69975	-4.54470	5.04606	-3.51118
2099.000	3.69188	-4.61773	5.02448	-3.55078
2100.000	3.65053	-4.59033	5.03625	-3.49939
2101.000	3.72338	-4.57023	5.01075	-3.55086
2102.000	3.71156	-4.55648	5.05783	-3.54863
2103.000	3.65841	-4.62382	5.04410	-3.53883
2104.000	3.68006	-4.54875	5.08137	-3.53665
2105.000	3.76865	-4.62719	5.06960	-3.53869
2106.000	3.72338	-4.64518	5.01664	-3.53701
2107.000	3.73716	-4.55832	5.02252	-3.57053
2108.000	3.77062	-4.55025	5.01467	-3.54886
2109.000	3.69385	-4.59602	5.05783	-3.53678
2110.000	3.71550	-4.50714	5.06764	-3.57621
2111.000	3.72731	-4.60768	5.04410	-3.55462
2112.000	3.71944	-4.62350	5.07745	-3.62550
2113.000	3.77850	-4.54824	5.03233	-3.53495
2114.000	3.73716	-4.54056	5.04999	-3.57236
2115.000	3.68400	-4.61383	5.07156	-3.57619
2116.000	3.69581	-4.54472	5.04606	-3.54079
2117.000	3.68794	-4.54082	5.09706	-3.52867
2118.000	3.73716	-4.45178	5.06568	-3.54266
2119.000	3.72338	-4.62151	5.08922	-3.49515
2120.000	3.74700	-4.55827	5.05783	-3.55060
2121.000	3.79031	-4.49689	5.08529	-3.55835
2122.000	3.78440	-4.53637	5.11275	-3.57398
2123.000	3.71747	-4.51896	5.09314	-3.53461
2124.000	3.80802	-4.54809	5.08726	-3.55439
2125.000	3.80605	-4.52442	5.14806	-3.55997
2126.000	3.76669	-4.52660	5.09118	-3.51883
2127.000	3.70960	-4.62158	5.06960	-3.54659
2128.000	3.68006	-4.51915	5.05391	-3.53483
2129.000	3.75881	-4.45759	5.09118	-3.49712
2130.000	3.69778	-4.59008	5.07156	-3.45576
2131.000	3.76275	-4.49900	5.07745	-3.51298
2132.000	3.64265	-4.64757	5.07745	-3.48929
2133.000	3.78637	-4.50480	5.07549	-3.47943
2134.000	3.72338	-4.57023	5.07941	-3.50903
2135.000	3.71747	-4.65901	5.07745	-3.40834
2136.000	3.77850	-4.61136	5.06372	-3.48147
2137.000	3.72928	-4.52088	5.06176	-3.49530
2138.000	3.68597	-4.58620	5.08333	-3.39646
2139.000	3.74109	-4.57802	5.11275	-3.45751
2140.000	3.68400	-4.44810	5.10491	-3.45361
2141.000	3.79424	-4.52646	5.13629	-3.46331
2142.000	3.69581	-4.53288	5.07549	-3.43994
2143.000	3.76669	-4.53647	5.11472	-3.48317
2144.000	3.81589	-4.46716	5.05195	-3.48153
2145.000	3.75487	-4.59965	5.07745	-3.50706
2146.000	3.68203	-4.57044	5.09902	-3.42995
2147.000	3.74306	-4.49318	5.08137	-3.49322
2148.000	3.69975	-4.54865	5.07156	-3.44786
2149.000	3.74897	-4.55037	5.10295	-3.43980
2150.000	3.70763	-4.51507	5.03429	-3.43621
2151.000	3.74700	-4.50106	5.08333	-3.44385
2152.000	3.66628	-4.56065	5.05195	-3.46574
2153.000	3.71747	-4.55645	5.08529	-3.44582
2154.000	3.75487	-4.56612	5.11275	-3.49305
2155.000	3.70566	-4.58413	5.08726	-3.46160
2156.000	3.74503	-4.56617	5.07549	-3.45377
2157.000	3.76669	-4.55422	5.11275	-3.51279
2158.000	3.69975	-4.54076	5.07156	-3.43997
2159.000	3.71156	-4.53083	5.08137	-3.43004
2160.000	3.74503	-4.59576	5.07941	-3.45967
2161.000	3.70566	-4.52889	5.10295	-3.45164
2162.000	3.77259	-4.48514	5.09706	-3.44773
2163.000	3.67810	-4.50535	5.08922	-3.41025
2164.000	3.79424	-4.45543	5.04802	-3.41442
2165.000	3.78637	-4.54228	5.07941	-3.44585
2166.000	3.73716	-4.46954	5.06372	-3.47752
2167.000	3.82770	-4.49669	5.02448	-3.48563
2168.000	3.79424	-4.45543	5.08726	-3.43791
2169.000	3.78834	-4.62314	5.03233	-3.41253
2170.000	3.72141	-4.53867	5.06764	-3.46171
2171.000	3.55798	-4.48227	4.95777	-3.45439
2172.000	3.40237	-4.46721	4.86357	-3.48647
2173.000	3.20533	-4.41874	4.73204	-3.45356
2174.000	2.99441	-4.39196	4.58671	-3.55503
2175.000	2.64138	-4.38539	4.44918	-3.52212
2176.000	2.42039	-4.20825	4.15626	-3.42067
2177.000	2.09271	-4.11031	3.77062	-3.29565
2178.000	1.70367	-3.97470	3.47920	-3.35014
2179.000	1.20382	-3.97558	3.16985	-3.46402
2180.000	0.93306	-3.76010	2.87413	-3.30260
2181.000	0.42109	-3.75653	2.38092	-3.19294
2182.000	0.07513	-3.75465	2.07297	-3.31449
2183.000	-0.31632	-3.67535	1.84983	-3.33277
2184.000	-0.60494	-3.68115	1.53971	-3.23221
2185.000	-0.89156	-3.66704	1.23148	-3.23263
2186.000	-1.31250	-3.70614	1.07339	-3.23281
2187.000	-1.49625	-3.60483	0.85005	-3.09023
2188.000	-1.81626	-3.61019	0.58913	-3.10826
2189.000	-2.19340	-3.66084	0.34993	-3.07068
2190.000	-2.36513	-3.51983	0.17002	-3.08263
2191.000	-2.71437	-3.58619	-0.05733	-2.87828
2192.000	-3.06735	-3.50592	-0.30643	-2.96158
2193.000	-3.31174	-3.45562	-0.42109	-2.88217
2194.000	-3.43783	-3.33841	-0.72157	-2.83241
2195.000	-3.72338	-3.25229	-0.96469	-2.88383
2196.000	-3.91823	-3.34058	-1.23148	-2.81611
2197.000	-4.18969	-3.30979	-1.38956	-2.80800
2198.000	-4.51205	-3.23722	-1.70762	-2.74409
2199.000	-4.63778	-3.19118	-1.92290	-2.66639
2200.000	-4.96170	-3.14620	-2.12430	-2.70375
2201.000	-5.15590	-3.06624	-2.30986	-2.59829
2202.000	-5.46167	-2.99165	-2.58219	-2.63941
2203.000	-5.55569	-2.84898	-2.74396	-2.54982
2204.000	-5.80627	-2.88131	-2.99638	-2.39855
2205.000	-5.85714	-2.76654	-3.22306	-2.35640
2206.000	-6.12504	-2.78295	-3.52253	-2.23474
2207.000	-6.40634	-2.71833	-3.73913	-2.20447
2208.000	-6.57809	-2.71346	-3.92020	-2.16239
2209.000	-6.87447	-2.59552	-4.08546	-2.01332
2210.000	-6.95825	-2.54185	-4.25261	-1.99902
2211.000	-6.93877	-2.36257	-4.45507	-1.95094
2212.000	-7.04978	-2.36398	-4.54938	-1.85163
2213.000	-7.27750	-2.35493	-4.64367	-1.81970
2214.000	-7.29111	-2.30560	-4.69866	-1.85521
2215.000	-7.27944	-2.24458	-4.66331	-1.71267
2216.000	-7.38252	-2.23618	-4.78505	-1.71633
2217.000	-7.44084	-2.23786	-4.77720	-1.71239
2218.000	-7.47194	-2.15497	-4.76738	-1.73420
2219.000	-7.54967	-2.41057	-4.77131	-1.66487
2220.000	-7.51469	-2.22960	-4.82432	-1.68851
2221.000	-7.32029	-2.21088	-4.77916	-1.65296
2222.000	-7.40002	-2.21837	-4.74971	-1.69265
2223.000	-7.23664	-2.33150	-4.73793	-1.64712
2224.000	-7.37863	-2.26772	-4.69473	-1.64524
2225.000	-7.14323	-2.36942	-4.65349	-1.62552
2226.000	-7.27944	-2.36477	-4.63189	-1.65529
2227.000	-7.19578	-2.33565	-4.60635	-1.66922
2228.000	-7.06536	-2.41121	-4.59849	-1.65141
2229.000	-7.18216	-2.39286	-4.53563	-1.70307
2230.000	-7.15296	-2.36937	-4.56510	-1.67130
2231.000	-7.16075	-2.34371	-4.58474	-1.65540
2232.000	-7.14323	-2.42459	-4.59064	-1.69502
2233.000	-7.14323	-2.37927	-4.60242	-1.72075
2234.000	-7.25804	-2.37276	-4.65349	-1.65921
2235.000	-7.23470	-2.33545	-4.64563	-1.67706
2236.000	-7.20356	-2.42230	-4.69080	-1.63138
2237.000	-7.20746	-2.34150	-4.76346	-1.62131
2238.000	-7.23859	-2.36498	-4.76935	-1.64308
2239.000	-7.25221	-2.34915	-4.81057	-1.62317
2240.000	-7.36891	-2.27959	-4.85769	-1.61514
2241.000	-7.20356	-2.28437	-4.88124	-1.57943
2242.000	-7.28722	-2.44155	-4.92834	-1.58328
2243.000	-7.44084	-2.40920	-4.91264	-1.59322
2244.000	-7.41751	-2.39554	-4.90479	-1.60116
2245.000	-7.29306	-2.27998	-4.90479	-1.63087
2246.000	-7.42529	-2.29703	-4.90479	-1.58532
2247.000	-7.26193	-2.32348	-4.93030	-1.60506
2248.000	-7.42529	-2.33642	-4.93815	-1.60108
2249.000	-7.33196	-2.24432	-4.91460	-1.57143
2250.000	-7.37474	-2.30123	-4.93226	-1.58327
2251.000	-7.29695	-2.35482	-4.89105	-1.60318
2252.000	-7.42529	-2.34233	-4.92638	-1.55556
2253.000	-7.35529	-2.33285	-4.92441	-1.56546
2254.000	-7.32223	-2.29165	-4.93423	-1.53375
2255.000	-7.27750	-2.28794	-4.91656	-1.50804
2256.000	-7.35529	-2.27375	-4.91656	-1.54171
2257.000	-7.31445	-2.19515	-4.92049	-1.55359
2258.000	-7.31834	-2.31531	-4.90086	-1.51798
2259.000	-7.31834	-2.22074	-4.96562	-1.55546
2260.000	-7.45445	-2.23976	-4.94011	-1.49809
2261.000	-7.19578	-2.21149	-4.91853	-1.51992
2262.000	-7.44278	-2.28512	-4.92441	-1.56546
2263.000	-7.37863	-2.28545	-4.92245	-1.54170
2264.000	-7.30473	-2.21884	-4.92638	-1.58527
2265.000	-7.40974	-2.25771	-4.93226	-1.58525
2266.000	-7.31834	-2.32319	-4.90479	-1.58730
2267.000	-7.23859	-2.28223	-4.94796	-1.58917
2268.000	-7.29695	-2.29572	-4.94011	-1.59712
2269.000	-7.22886	-2.29607	-4.96759	-1.57526
2270.000	-7.31056	-2.26216	-4.95777	-1.57331
2271.000	-7.28528	-2.26229	-4.94993	-1.56738
2272.000	-7.33196	-2.30145	-4.94796	-1.59314
2273.000	-7.25999	-2.25650	-4.91068	-1.56748
2274.000	-7.43112	-2.34820	-4.92245	-1.58329
2275.000	-7.18800	-2.14452	-4.93815	-1.52384
2276.000	-7.24442	-2.24279	-4.92638	-1.54961
2277.000	-7.28917	-2.24847	-4.95581	-1.54360
2278.000	-7.26193	-2.15008	-4.96366	-1.55547
2279.000	-7.36696	-2.25202	-4.98524	-1.55344
2280.000	-7.36696	-2.35248	-4.93030	-1.54961
2281.000	-7.31834	-2.28576	-4.94404	-1.53769
2282.000	-7.30278	-2.22673	-4.93423	-1.51394
2283.000	-7.40974	-2.21635	-4.97740	-1.55346
2284.000	-7.32029	-2.22862	-4.94404	-1.57730
2285.000	-7.33974	-2.29944	-4.97151	-1.54951
2286.000	-7.20746	-2.22523	-4.91656	-1.54964
2287.000	-7.36891	-2.27171	-4.89694	-1.50809
2288.000	-7.30084	-2.27403	-4.92049	-1.59518
2289.000	-7.31251	-2.22668	-4.92245	-1.55953
2290.000	-7.44084	-2.25558	-4.93030	-1.59318
2291.000	-7.34168	-2.24624	-4.91656	-1.52785
2292.000	-7.27750	-2.25247	-4.96366	-1.50992
2293.000	-7.30473	-2.24249	-4.94796	-1.51589
2294.000	-7.43890	-2.25756	-4.98721	-1.47223
2295.000	-7.51081	-2.37140	-4.97936	-1.54751
2296.000	-7.36113	-2.20280	-4.96759	-1.50198
2297.000	-7.33390	-2.21673	-4.95385	-1.52974
2298.000	-7.30278	-2.26811	-4.99309	-1.57718
2299.000	-7.35335	-2.28164	-4.98524	-1.49006
2300.000	-7.34168	-2.28367	-4.97543	-1.51583
2301.000	-7.37863	-2.25196	-4.98917	-1.49401
2302.000	-7.26777	-2.22888	-4.96562	-1.53962
2303.000	-7.39418	-2.20658	-5.01271	-1.49990
2304.000	-7.35335	-2.26588	-4.97347	-1.51584
2305.000	-7.38641	-2.25389	-4.96759	-1.53565
2306.000	-7.41362	-2.16314	-5.00290	-1.50190
2307.000	-7.30473	-2.26810	-4.92834	-1.51792
2308.000	-7.27555	-2.10666	-4.97740	-1.53167
2309.000	-7.41946	-2.32463	-5.01075	-1.49000
2310.000	-7.42335	-2.24386	-4.97936	-1.47225
2311.000	-7.45445	-2.24567	-5.00486	-1.53755
2312.000	-7.42529	-2.27536	-5.00290	-1.49596
2313.000	-7.37668	-2.29137	-5.03429	-1.45628
2314.000	-7.32807	-2.33102	-5.06372	-1.46414
2315.000	-7.46611	-2.25939	-5.00879	-1.49595
2316.000	-7.34752	-2.32304	-5.00486	-1.51774
2317.000	-7.39418	-2.34446	-5.02252	-1.49592
2318.000	-7.39807	-2.30505	-5.04018	-1.46023
2319.000	-7.41557	-2.24980	-5.01075	-1.47020
2320.000	-7.41168	-2.22225	-5.04999	-1.44040
2321.000	-7.48554	-2.21793	-5.05783	-1.43840
2322.000	-7.46805	-2.28696	-4.98917	-1.47223
2323.000	-7.39029	-2.27751	-5.02448	-1.42263
2324.000	-7.56327	-2.30614	-5.01271	-1.45435
2325.000	-7.43695	-2.19848	-5.02252	-1.45433
2326.000	-7.41362	-2.25966	-5.02841	-1.51175
2327.000	-7.50109	-2.14301	-5.00094	-1.50191
2328.000	-7.38252	-2.18890	-4.96759	-1.48218
2329.000	-7.32807	-2.29556	-5.06764	-1.51166
2330.000	-7.30862	-2.21094	-5.05391	-1.48000
2331.000	-7.46028	-2.25548	-5.06568	-1.49780
2332.000	-7.43306	-2.23593	-5.04999	-1.47011
2333.000	-7.49915	-2.31830	-5.03822	-1.49588
2334.000	-7.37863	-2.26772	-5.04214	-1.53350
2335.000	-7.41557	-2.21041	-5.01860	-1.45632
2336.000	-7.45445	-2.23779	-5.02645	-1.54740
2337.000	-7.31251	-2.11634	-4.98328	-1.48412
2338.000	-7.53607	-2.25509	-5.05979	-1.47207
2339.000	-7.32418	-2.28573	-5.04606	-1.46616
2340.000	-7.40196	-2.32275	-5.04410	-1.53151
2341.000	-7.35918	-2.21463	-5.04410	-1.42457
2342.000	-7.46611	-2.26727	-5.02056	-1.45235
2343.000	-7.43112	-2.25957	-5.05783	-1.52158
2344.000	-7.47388	-2.26920	-5.01075	-1.52565
2345.000	-7.37474	-2.24804	-5.02645	-1.48205
2346.000	-7.43890	-2.28120	-4.97151	-1.45642
2347.000	-7.40779	-2.26166	-5.05979	-1.47405
2348.000	-7.36502	-2.29340	-5.02841	-1.46818
2349.000	-7.32807	-2.29162	-5.02056	-1.45235
2350.000	-7.36307	-2.16536	-5.04214	-1.48795
2351.000	-7.43112	-2.26942	-5.02056	-1.52365
2352.000	-7.39807	-2.19277	-4.99898	-1.48013
2353.000	-7.40585	-2.23607	-5.01860	-1.50187
2354.000	-7.47000	-2.25346	-5.00683	-1.46823
2355.000	-7.35529	-2.18313	-5.04214	-1.44834
2356.000	-7.44667	-2.13540	-4.96759	-1.47822
2357.000	-7.38057	-2.17512	-4.96366	-1.49407
2358.000	-7.42335	-2.22219	-5.01467	-1.45633
2359.000	-7.41168	-2.08040	-5.02448	-1.45828
2360.000	-7.39807	-2.26762	-5.01860	-1.48404
2361.000	-7.38835	-2.15735	-5.00486	-1.49002
2362.000	-7.57492	-2.21354	-5.04214	-1.49785
2363.000	-7.33974	-2.24625	-4.99898	-1.43061
2364.000	-7.39224	-2.24401	-5.01075	-1.47416
2365.000	-7.47583	-2.19632	-4.99702	-1.43062
2366.000	-7.46222	-2.23381	-4.98917	-1.41479
2367.000	-7.58464	-2.22924	-5.00486	-1.44644
2368.000	-7.35918	-2.24418	-4.99113	-1.43063
2369.000	-7.33974	-2.15956	-5.03625	-1.45628
2370.000	-7.39224	-2.15733	-5.02056	-1.45829
2371.000	-7.38641	-2.19676	-4.99309	-1.43657
2372.000	-7.33390	-2.11427	-5.00486	-1.39495
2373.000	-7.25026	-2.14225	-4.98721	-1.49204
2374.000	-7.42918	-2.23201	-4.99113	-1.40884
2375.000	-7.41557	-2.24784	-5.02645	-1.45234
2376.000	-7.37085	-2.20078	-4.94993	-1.43864
2377.000	-7.38641	-2.21843	-4.97543	-1.45839
2378.000	-7.45639	-2.19642	-4.95974	-1.42277
2379.000	-7.51469	-2.21582	-4.99505	-1.46627
2380.000	-7.47194	-2.18846	-4.98917	-1.46034
2381.000	-7.32223	-2.17147	-4.98917	-1.44846
2382.000	-7.37668	-2.25788	-4.97740	-1.47225
2383.000	-7.41751	-2.13948	-4.94796	-1.40299
2384.000	-7.50303	-2.27890	-4.99898	-1.44250
2385.000	-7.49526	-2.24940	-4.97543	-1.45245
2386.000	-7.45833	-2.10973	-5.00683	-1.41475
2387.000	-7.44473	-2.22011	-4.97740	-1.44849
2388.000	-7.50886	-2.25917	-5.04606	-1.45824
2389.000	-7.41168	-2.16315	-5.00094	-1.44843
2390.000	-7.45250	-2.18265	-5.03233	-1.47213
2391.000	-7.40196	-2.25775	-5.00486	-1.52368
2392.000	-7.33974	-2.21473	-5.00290	-1.55340
2393.000	-7.40585	-2.23804	-5.05783	-1.50574
2394.000	-7.47388	-2.27117	-4.98328	-1.49799
2395.000	-7.44667	-2.15116	-4.98917	-1.47421
2396.000	-7.39613	-2.21642	-5.00290	-1.45635
2397.000	-7.39029	-2.23023	-5.02252	-1.51968
2398.000	-7.43112	-2.21624	-4.99309	-1.45043
2399.000	-7.47194	-2.29481	-5.03429	-1.49589
2400.000	-7.41362	-2.15723	-4.97151	-1.45840
2401.000	-7.45250	-2.23189	-4.97936	-1.41679
2402.000	-7.43112	-2.20836	-5.01467	-1.48207
2403.000	-7.49332	-2.13517	-4.95777	-1.42476
2404.000	-7.43112	-2.18275	-5.03233	-1.44440
2405.000	-7.49915	-2.24544	-4.96759	-1.43662
2406.000	-7.44667	-2.21419	-5.02252	-1.45631
2407.000	-7.54190	-2.25900	-4.99505	-1.45835
2408.000	-7.54190	-2.23734	-4.98917	-1.42667
2409.000	-7.46222	-2.16684	-5.02252	-1.41076
2410.000	-7.40779	-2.17893	-5.03233	-1.47411
2411.000	-7.43695	-2.12757	-5.02645	-1.45432
2412.000	-7.49915	-2.17454	-4.96759	-1.44455
2413.000	-7.38252	-2.10419	-4.96759	-1.41880
2414.000	-7.53801	-2.29053	-4.95581	-1.45646
2415.000	-7.41557	-2.18677	-4.95385	-1.46636
2416.000	-7.56910	-2.19585	-4.99113	-1.39894
2417.000	-7.45639	-2.26732	-4.97347	-1.42473
2418.000	-7.40390	-2.14940	-4.96759	-1.42474
2419.000	-7.40002	-2.09622	-4.99702	-1.44844
2420.000	-7.53218	-2.23148	-4.98328	-1.39103
2421.000	-7.39613	-2.18884	-4.98328	-1.44253
2422.000	-7.41751	-2.20449	-4.98132	-1.47224
2423.000	-7.49720	-2.19030	-4.99898	-1.44844
2424.000	-7.45445	-2.16688	-5.02645	-1.50779
2425.000	-7.44278	-2.11769	-4.95777	-1.50399
2426.000	-7.36113	-2.20477	-5.01860	-1.42067
2427.000	-7.49720	-2.14894	-5.04410	-1.48795
2428.000	-7.42335	-2.20052	-5.00879	-1.51971
2429.000	-7.40974	-2.19271	-5.03429	-1.45430
2430.000	-7.36307	-2.23628	-5.00683	-1.47021
2431.000	-7.42140	-2.10597	-4.98721	-1.48213
2432.000	-7.47388	-2.15693	-5.02841	-1.48204
2433.000	-7.47000	-2.23574	-4.98328	-1.42272
2434.000	-7.50303	-2.28677	-5.00683	-1.48011
2435.000	-7.48554	-2.23763	-5.04018	-1.44637
2436.000	-7.38835	-2.17508	-5.04410	-1.42457
2437.000	-7.46222	-2.22199	-5.05391	-1.52357
2438.000	-7.42529	-2.16702	-5.00879	-1.48407
2439.000	-7.42723	-2.16898	-5.06764	-1.39481
2440.000	-7.42335	-2.19067	-5.03625	-1.42063
2441.000	-7.44084	-2.15513	-5.05783	-1.45425
2442.000	-7.43501	-2.08423	-5.04410	-1.43051
2443.000	-7.50886	-2.27887	-5.11079	-1.44027
2444.000	-7.54190	-2.21174	-5.06764	-1.44234
2445.000	-7.36891	-2.12592	-5.06764	-1.43046
2446.000	-7.46417	-2.09592	-5.06176	-1.43444
2447.000	-7.48943	-2.15292	-5.03625	-1.38498
2448.000	-7.43695	-2.23788	-5.07549	-1.36707
2449.000	-7.57104	-2.23522	-5.05195	-1.39287
2450.000	-7.45250	-2.16886	-5.03822	-1.37705
2451.000	-7.42723	-2.14928	-5.05783	-1.43840
2452.000	-7.50109	-2.21392	-5.04999	-1.39881
2453.000	-7.38641	-2.17312	-5.00290	-1.44249
2454.000	-7.40974	-2.20453	-5.02448	-1.43254
2455.000	-7.45833	-2.14913	-5.06568	-1.38888
2456.000	-7.46417	-2.20622	-5.04018	-1.41468
2457.000	-7.43112	-2.12168	-5.10687	-1.39869
2458.000	-7.43890	-2.18271	-5.06764	-1.36114
2459.000	-7.34752	-2.04130	-5.05195	-1.41861
2460.000	-7.43306	-2.08621	-5.07156	-1.37698
2461.000	-7.53995	-2.08570	-5.04999	-1.35722
2462.000	-7.39418	-2.10413	-5.04999	-1.41268
2463.000	-7.43112	-2.13350	-5.03037	-1.36716
2464.000	-7.39029	-2.16522	-5.07941	-1.43242
2465.000	-7.26582	-2.08306	-5.04214	-1.39883
2466.000	-7.41362	-2.11586	-5.04018	-1.44835
2467.000	-7.40779	-2.18681	-5.07353	-1.39480
2468.000	-7.49137	-2.10366	-5.05783	-1.37899
2469.000	-7.37474	-2.12984	-5.09902	-1.37890
2470.000	-7.39418	-2.17506	-5.04999	-1.35920
2471.000	-7.37668	-2.09830	-5.05195	-1.40673
2472.000	-7.30862	-2.12424	-5.02056	-1.39293
2473.000	-7.21135	-2.03009	-4.93815	-1.34160
2474.000	-7.20746	-2.14246	-4.82235	-1.36759
2475.000	-7.03031	-2.11568	-4.67509	-1.43526
2476.000	-7.06926	-2.06029	-4.40201	-1.32280
2477.000	-6.78286	-2.10495	-4.20936	-1.38659
2478.000	-6.47076	-2.12207	-3.96152	-1.38306
2479.000	-6.08204	-2.10192	-3.65644	-1.30616
2480.000	-5.69667	-1.89775	-3.20336	-1.13802
2481.000	-5.27942	-1.97427	-2.79918	-1.06693
2482.000	-4.75757	-1.78969	-2.35526	-0.96596
2483.000	-4.40594	-1.74301	-2.00189	-0.82307
2484.000	-4.12086	-1.74960	-1.57725	-0.64828
2485.000	-3.59146	-1.54437	-1.11291	-0.68619
2486.000	-3.29401	-1.54088	-0.73738	-0.53112
2487.000	-2.76960	-1.42844	-0.42307	-0.47346
2488.000	-2.38092	-1.26994	-0.07908	-0.45159
2489.000	-2.09666	-1.20660	0.18188	-0.48342
2490.000	-2.00979	-1.20269	0.53180	-0.37001
2491.000	-1.59503	-1.09165	0.80261	-0.37994
2492.000	-1.34412	-1.07984	1.11884	-0.30830
2493.000	-1.09513	-0.98847	1.36387	-0.34805
2494.000	-0.83424	-0.88712	1.60491	-0.29631
2495.000	-0.69982	-0.81158	1.92488	-0.31415
2496.000	-0.40923	-0.87526	2.19932	-0.29223
2497.000	-0.22538	-0.76986	2.42433	-0.35380
2498.000	0.04943	-0.78379	2.67492	-0.23847
2499.000	0.34993	-0.80963	2.91751	-0.17484
2500.000	0.61087	-0.76386	3.19941	-0.15295
2501.000	0.84610	-0.67829	3.41419	-0.04965
2502.000	1.08524	-0.67824	3.60130	0.15685
2503.000	1.33226	-0.73188	3.88478	0.17268
2504.000	1.53774	-0.64034	4.07956	0.28377
2505.000	1.77281	-0.46530	4.27621	0.37297
2506.000	2.01966	-0.41751	4.40791	0.40464
2507.000	2.09666	-0.24652	4.42756	0.61288
2508.000	2.18353	-0.23259	4.56117	0.54336
2509.000	2.31184	-0.12523	4.62992	0.65434
2510.000	2.39671	0.05168	4.70062	0.64437
2511.000	2.52497	0.07950	4.77916	0.69979
2512.000	2.59798	0.14905	4.82824	0.72353
2513.000	2.64138	0.35175	4.80468	0.73941
2514.000	2.65124	0.41335	4.77720	0.71367
2515.000	2.62757	0.35176	4.80468	0.82266
2516.000	2.69070	0.37757	4.76542	0.84847
2517.000	2.68478	0.37757	4.79487	0.78699
2518.000	2.49735	0.45911	4.81646	0.83255
2519.000	2.59600	0.35773	4.75168	0.85047
2520.000	2.54076	0.26831	4.73400	0.81085
2521.000	2.54668	0.31402	4.71241	0.78709
2522.000	2.54668	0.23253	4.68884	0.77324
2523.000	2.52103	0.29017	4.64563	0.74355
2524.000	2.50919	0.20074	4.65153	0.79707
2525.000	2.42433	0.20870	4.65349	0.75147
2526.000	2.48354	0.17093	4.61028	0.74755
2527.000	2.51708	0.15105	4.64367	0.72967
2528.000	2.45788	0.16696	4.67117	0.70982
2529.000	2.41841	0.14510	4.61421	0.75548
2530.000	2.52103	0.22061	4.64956	0.69596
2531.000	2.59600	0.21066	4.72615	0.72760
2532.000	2.59008	0.02584	4.81057	0.70967
2533.000	2.70253	0.20071	4.78309	0.68592
2534.000	2.62560	0.07154	4.83806	0.71559
2535.000	2.70056	0.09539	4.82628	0.73741
2536.000	2.86032	0.15697	4.86357	0.69971
2537.000	2.78341	0.16294	4.87535	0.65609
2538.000	2.86032	0.19671	4.88713	0.68581
2539.000	2.91751	0.21657	4.92441	0.70559
2540.000	2.95103	0.15894	4.85769	0.68584
2541.000	2.89779	0.19273	4.90479	0.70759
2542.000	2.90173	0.24240	4.91853	0.72740
2543.000	2.93328	0.26623	4.89890	0.72345
2544.000	2.97272	0.17682	4.90675	0.72344
2545.000	3.01412	0.25429	4.88909	0.76112
2546.000	2.89976	0.23644	4.86554	0.77304
2547.000	3.02989	0.30992	4.90283	0.79083
2548.000	2.94314	0.28411	4.84198	0.84640
2549.000	2.89976	0.35366	4.86357	0.86817
2550.000	2.97469	0.36754	4.88124	0.80869
2551.000	2.95497	0.23841	4.84198	0.82063
2552.000	2.88793	0.28810	4.83217	0.81668
2553.000	2.98849	0.31390	4.80665	0.83257
2554.000	2.94511	0.36159	4.85769	0.78296
2555.000	2.90568	0.37750	4.81646	0.84048
2556.000	2.88990	0.28214	4.82039	0.87219
2557.000	2.95695	0.38344	4.82432	0.89597
2558.000	2.86821	0.30996	4.81057	0.90391
2559.000	2.89779	0.28015	4.88124	0.92364
2560.000	3.04172	0.31984	4.85376	0.96529
2561.000	2.83863	0.36958	4.76346	0.95353
2562.000	2.90765	0.35565	4.83806	0.94351
2563.000	2.87807	0.25830	4.81057	0.94157
2564.000	2.86821	0.24638	4.76542	0.97334
2565.000	2.96878	0.33775	4.81646	0.90589
2566.000	2.93723	0.31391	4.73400	0.99321
2567.000	2.89582	0.26227	4.75560	0.96146
2568.000	3.05158	0.39732	4.77131	0.98919
2569.000	2.83666	0.27818	4.76346	0.98326
2570.000	2.88990	0.42718	4.73204	0.99123
2571.000	2.91751	0.36558	4.76738	0.99514
2572.000	2.93526	0.28809	4.81057	0.91382
2573.000	2.92737	0.30796	4.78898	0.94358
2574.000	2.87807	0.31194	4.78113	0.94954
2575.000	2.89976	0.29008	4.79880	0.91186
2576.000	2.84060	0.34375	4.78505	0.92178
2577.000	2.87610	0.34175	4.82824	0.91974
2578.000	2.84652	0.30997	4.84787	0.91179
2579.000	2.90173	0.30598	4.83217	0.92767
2580.000	2.84454	0.27221	4.80665	0.88013
2581.000	2.95695	0.29404	4.78113	0.85836
2582.000	3.02595	0.35958	4.87928	0.86617
2583.000	2.93328	0.27418	4.78898	0.83457
2584.000	2.91159	0.26425	4.82039	0.93165
2585.000	2.87610	0.33777	4.80665	0.83455
2586.000	2.98258	0.28609	4.82628	0.81074
2587.000	3.04369	0.34766	4.81843	0.87021
2588.000	2.91357	0.33578	4.85965	0.80079
2589.000	2.88793	0.35963	4.82235	0.88011
2590.000	2.90173	0.34969	4.86357	0.88601
2591.000	2.92737	0.38941	4.86750	0.83844
2592.000	3.00229	0.30992	4.86554	0.88006
2593.000	2.93723	0.35365	4.85572	0.82656
2594.000	3.01609	0.29005	4.86750	0.87807
2595.000	2.85638	0.34573	4.86161	0.87214
2596.000	2.94117	0.37749	4.83020	0.85830
2597.000	2.94314	0.33974	4.86161	0.95339
2598.000	2.80313	0.28613	4.85376	0.88602
2599.000	2.88596	0.35168	4.83217	0.81668
2600.000	2.76368	0.25038	4.89498	0.88596
2601.000	2.95892	0.33179	4.84198	0.82261
2602.000	2.87807	0.35566	4.81646	0.90589
2603.000	2.84849	0.31195	4.79683	0.84051
2604.000	2.90173	0.26823	4.80272	0.84446
2605.000	2.89779	0.36360	4.84395	0.81468
2606.000	2.90371	0.34174	4.80861	0.85833
2607.000	2.88004	0.29605	4.82039	0.87021
2608.000	2.99046	0.41323	4.85572	0.77503
2609.000	2.89582	0.38148	4.74382	0.84454
2610.000	2.98061	0.36754	4.86554	0.77304
2611.000	2.91357	0.32584	4.84002	0.86027
2612.000	2.86032	0.35765	4.81254	0.77508
2613.000	2.88596	0.23843	4.83413	0.79686
2614.000	2.89187	0.27022	4.80272	0.85834
2615.000	2.95300	0.31391	4.81450	0.82265
2616.000	2.95892	0.34768	4.82039	0.79291
2617.000	2.90765	0.33776	4.81646	0.80679
2618.000	2.83863	0.39143	4.84787	0.77702
2619.000	2.89779	0.40333	4.73990	0.82274
2620.000	2.85835	0.31394	4.77327	0.82468
2621.000	2.92540	0.34968	4.81843	0.80877
2622.000	2.94906	0.41126	4.75560	0.83659
2623.000	2.93723	0.39140	4.78309	0.83458
2624.000	2.87413	0.30996	4.80076	0.77906
2625.000	2.92342	0.32783	4.77916	0.80881
2626.000	2.83666	0.33580	4.76935	0.76720
2627.000	2.90568	0.30598	4.85769	0.82061
2628.000	2.96286	0.36556	4.79291	0.85835
2629.000	2.98258	0.29801	4.79880	0.83852
2630.000	2.89779	0.33379	4.82628	0.84047
2631.000	2.75776	0.27820	4.80468	0.84446
2632.000	2.96483	0.25431	4.80861	0.80085
2633.000	3.00426	0.27814	4.80861	0.81473
2634.000	2.83074	0.28215	4.79880	0.84050
2635.000	2.82285	0.24838	4.81450	0.83652
2636.000	2.86032	0.27619	4.81646	0.90787
2637.000	2.83863	0.36362	4.88909	0.79283
2638.000	2.95300	0.28610	4.84591	0.82063
2639.000	2.87018	0.30003	4.80861	0.84842
2640.000	2.83074	0.37157	4.84198	0.81865
2641.000	2.81299	0.33978	4.77916	0.83062
2642.000	2.80905	0.35965	4.79487	0.80880
2643.000	2.86821	0.28413	4.74382	0.89013
2644.000	2.82285	0.23645	4.81057	0.86229
2645.000	2.81891	0.31196	4.80272	0.80879
2646.000	2.84849	0.20466	4.77524	0.76323
2647.000	2.88201	0.30201	4.74775	0.80687
2648.000	2.95695	0.33576	4.76738	0.80486
2649.000	2.90962	0.33776	4.78702	0.79097
2650.000	2.86229	0.37156	4.84395	0.76117
2651.000	2.82877	0.32984	4.87928	0.80473
2652.000	2.87413	0.31989	4.76346	0.81676
2653.000	2.83666	0.26626	4.79487	0.72158
2654.000	2.80510	0.20268	4.79487	0.79294
2655.000	2.81693	0.27620	4.77720	0.78900
2656.000	2.83468	0.19075	4.80272	0.80879
2657.000	2.85441	0.32785	4.76935	0.83856
2658.000	2.92737	0.22650	4.75757	0.83064
2659.000	2.88990	0.24836	4.78113	0.76521
2660.000	2.84454	0.30599	4.81057	0.75328
2661.000	2.91159	0.32187	4.80076	0.78699
2662.000	2.83666	0.22254	4.85180	0.70765
2663.000	2.83863	0.29606	4.76346	0.71765
2664.000	2.96878	0.31192	4.75953	0.80289
2665.000	2.94906	0.26424	4.85572	0.74332
2666.000	2.91357	0.20465	4.77916	0.72953
2667.000	2.85243	0.26029	4.78309	0.79097
2668.000	2.86821	0.29208	4.81450	0.76913
2669.000	2.90173	0.28611	4.77524	0.71169
2670.000	2.87018	0.23644	4.76149	0.74342
2671.000	2.81299	0.28613	4.80272	0.74932
2672.000	2.84652	0.38944	4.76149	0.77514
2673.000	2.95103	0.34769	4.71437	0.84457
2674.000	2.77552	0.27422	4.78309	0.75133
2675.000	2.89779	0.32585	4.76149	0.75532
2676.000	2.94511	0.25431	4.77916	0.84053
2677.000	2.85835	0.35169	4.78309	0.78502
2678.000	2.86427	0.39540	4.76738	0.81874
2679.000	2.94117	0.32583	4.74579	0.77119
2680.000	2.93526	0.31193	4.76738	0.80685
2681.000	2.85243	0.32983	4.74775	0.81480
2682.000	2.92342	0.30398	4.74579	0.80092
2683.000	2.89385	0.38744	4.71437	0.80294
2684.000	2.87413	0.25234	4.76149	0.80091
2685.000	2.84257	0.35368	4.78702	0.84646
2686.000	2.82680	0.32785	4.72222	0.84853
2687.000	2.95103	0.34769	4.75953	0.84055
2688.000	2.94709	0.38742	4.76935	0.82468
2689.000	2.93328	0.29802	4.69866	0.88622
2690.000	2.97272	0.38344	4.77131	0.87027
2691.000	2.83468	0.31196	4.73400	0.82274
2692.000	2.87215	0.33778	4.68491	0.83866
2693.000	2.85638	0.32586	4.80468	0.80680
2694.000	2.85441	0.35765	4.75757	0.84848
2695.000	2.89385	0.34174	4.67706	0.83669
2696.000	2.85046	0.32586	4.70651	0.89216
2697.000	2.91357	0.29405	4.73008	0.86636
2698.000	2.88004	0.31393	4.72615	0.81284
2699.000	2.96878	0.39337	4.77524	0.89603
2700.000	2.87018	0.35566	4.74382	0.87229
2701.000	2.94511	0.39934	4.71044	0.87629
2702.000	2.90568	0.34174	4.73400	0.87626
2703.000	2.88793	0.26426	4.75953	0.88019
2704.000	2.92934	0.34968	4.72419	0.84258
2705.000	2.81299	0.19274	4.72615	0.92385
2706.000	2.85638	0.36361	4.73008	0.86636
2707.000	2.84652	0.39342	4.70848	0.88422
2708.000	2.85441	0.30798	4.69080	0.85055
2709.000	2.91554	0.28809	4.72615	0.89015
2710.000	2.77354	0.30601	4.70848	0.91396
2711.000	2.89385	0.25830	4.73597	0.82869
2712.000	2.85638	0.28612	4.75168	0.82669
2713.000	2.89187	0.39737	4.74971	0.85048
2714.000	2.89582	0.30002	4.73597	0.79102
2715.000	2.88004	0.36758	4.76149	0.86632
2716.000	2.88004	0.22850	4.70455	0.82278
2717.000	2.87807	0.38148	4.71633	0.90404
2718.000	2.90173	0.41724	4.71044	0.92188
2719.000	2.86821	0.35765	4.69473	0.88821
2720.000	2.91357	0.39141	4.72419	0.87826
2721.000	2.87413	0.43712	4.73008	0.87230
2722.000	2.93328	0.32385	4.74775	0.87625
2723.000	2.80707	0.38349	4.68884	0.87830
2724.000	2.81102	0.33382	4.67313	0.90409
2725.000	2.88399	0.33181	4.74971	0.86633
2726.000	2.78143	0.30601	4.74775	0.84651
2727.000	2.88201	0.41725	4.71241	0.86836
2728.000	2.85441	0.39739	4.67313	0.87832
2729.000	2.87215	0.42520	4.69080	0.83469
2730.000	2.85638	0.33579	4.70651	0.85846
2731.000	2.85441	0.27619	4.74186	0.81282
2732.000	2.85243	0.29010	4.73400	0.82671
2733.000	2.84849	0.33977	4.74186	0.87824
2734.000	2.86032	0.33381	4.74579	0.76524
2735.000	2.91948	0.31789	4.73990	0.81481
2736.000	2.85835	0.30003	4.71633	0.84060
2737.000	2.81891	0.32984	4.77524	0.82269
2738.000	2.84849	0.27023	4.79291	0.79492
2739.000	2.78538	0.32787	4.73990	0.84652
2740.000	2.85638	0.36361	4.67706	0.86841
2741.000	2.90173	0.42320	4.72615	0.83663
2742.000	2.76565	0.38550	4.75168	0.81876
2743.000	2.81299	0.35766	4.77916	0.81674
2744.000	2.83468	0.28613	4.76738	0.79892
2745.000	2.81891	0.29606	4.75757	0.78704
2746.000	2.86624	0.29804	4.77327	0.80882
2747.000	2.86032	0.36560	4.76149	0.83659
2748.000	2.81496	0.36561	4.78898	0.76718
2749.000	2.80707	0.33779	4.74971	0.84056
2750.000	2.82680	0.36163	4.75168	0.75334
2751.000	2.92145	0.36359	4.76149	0.80685
2752.000	2.85046	0.27420	4.80468	0.73148
2753.000	2.87215	0.28214	4.72419	0.82672
2754.000	2.85046	0.31195	4.74382	0.84850
2755.000	2.82877	0.27619	4.76149	0.84055
2756.000	2.83271	0.33580	4.74186	0.84652
2757.000	2.84652	0.33182	4.79683	0.78699
2758.000	2.87610	0.31195	4.76542	0.82072
2759.000	2.81693	0.27818	4.73597	0.79499
2760.000	2.85835	0.39143	4.71044	0.81484
2761.000	2.74593	0.43518	4.72222	0.85646
2762.000	2.89976	0.43512	4.76346	0.80685
2763.000	2.85243	0.32586	4.76542	0.88217
2764.000	2.85243	0.33381	4.73400	0.81481
2765.000	2.82680	0.35766	4.69473	0.81882
2766.000	2.82088	0.30799	4.70455	0.91793
2767.000	2.84849	0.35169	4.77327	0.84846
2768.000	2.92145	0.32187	4.71044	0.85251
2769.000	2.82088	0.31395	4.73990	0.86634
2770.000	2.89976	0.35366	4.68688	0.80298
2771.000	2.71042	0.38154	4.74971	0.87228
2772.000	2.81693	0.33382	4.77720	0.84053
2773.000	2.77946	0.33582	4.71241	0.89017
2774.000	2.84454	0.33182	4.79094	0.83655
2775.000	2.76368	0.35966	4.71044	0.88224
2776.000	2.86032	0.39937	4.71241	0.89215
2777.000	2.71634	0.34776	4.73008	0.84059
2778.000	2.81891	0.39541	4.72026	0.82276
2779.000	2.84454	0.31791	4.74382	0.84255
2780.000	2.83468	0.32586	4.71241	0.85845
2781.000	2.95300	0.42318	4.75168	0.80686
2782.000	2.91751	0.33776	4.74382	0.83462
2783.000	2.88990	0.38148	4.77524	0.82468
2784.000	2.86624	0.40334	4.70455	0.85846
2785.000	2.87215	0.33778	4.74775	0.87823
2786.000	2.86427	0.27618	4.68491	0.84857
2787.000	2.82482	0.33779	4.74579	0.81480
2788.000	2.99638	0.43508	4.70062	0.81882
2789.000	2.87807	0.34572	4.73793	0.83067
2790.000	2.90173	0.39936	4.74971	0.80290
2791.000	2.78932	0.39344	4.76149	0.78505
2792.000	2.78143	0.33383	4.78113	0.81278
2793.000	2.83863	0.33580	4.78309	0.87224
2794.000	2.88004	0.39142	4.72026	0.88421
2795.000	2.78735	0.35568	4.74775	0.82867
2796.000	2.83271	0.38150	4.76935	0.84252
2797.000	2.80116	0.37555	4.80272	0.87023
2798.000	2.83074	0.31792	4.79487	0.76123
2799.000	2.76368	0.33185	4.75364	0.83461
2800.000	2.83666	0.37355	4.74579	0.84255
2801.000	2.77552	0.36562	4.77720	0.85044
2802.000	2.82877	0.34971	4.78309	0.82665
2803.000	2.74593	0.33980	4.77327	0.83459
2804.000	2.88793	0.31592	4.70455	0.83864
2805.000	2.73409	0.27025	4.76738	0.78306
2806.000	2.79918	0.35767	4.76542	0.80288
2807.000	2.79129	0.31594	4.76542	0.85838
2808.000	2.88793	0.38148	4.80272	0.82662
2809.000	2.80905	0.30799	4.70062	0.84459
2810.000	2.80510	0.31196	4.80468	0.76716
2811.000	2.72226	0.35769	4.75560	0.77911
2812.000	2.83074	0.26030	4.78898	0.81475
2813.000	2.74987	0.31397	4.74775	0.80489
2814.000	2.81693	0.39144	4.77916	0.78106
2815.000	2.77749	0.34774	4.77131	0.70575
2816.000	2.85441	0.32387	4.76149	0.80091
2817.000	2.84454	0.39342	4.80468	0.77707
2818.000	2.79721	0.27620	4.76149	0.82866
2819.000	2.81102	0.30203	4.78113	0.80683
2820.000	2.86229	0.42123	4.76542	0.75531
2821.000	2.77354	0.34774	4.79291	0.88808
2822.000	2.79721	0.39741	4.74579	0.82273
2823.000	2.76171	0.33781	4.73597	0.84256
2824.000	2.80905	0.37555	4.76149	0.83659
2825.000	2.71042	0.38353	4.77524	0.80089
2826.000	2.79129	0.39542	4.73400	0.85248
2827.000	2.73409	0.31596	4.78702	0.79493
2828.000	2.74987	0.32589	4.77131	0.80288
2829.000	2.82088	0.42124	4.76935	0.76720
2830.000	2.74987	0.41332	4.75757	0.84055
2831.000	2.80313	0.41330	4.81450	0.79490
2832.000	2.84454	0.36759	4.72222	0.82870
2833.000	2.83271	0.41130	4.73990	0.86040
2834.000	2.76960	0.34178	4.79683	0.75329
2835.000	2.83863	0.37554	4.74971	0.80290
2836.000	2.85243	0.32983	4.79291	0.80682
2837.000	2.85046	0.34374	4.84198	0.78099
2838.000	2.82482	0.42521	4.74186	0.89211
2839.000	2.86032	0.40136	4.73597	0.83067
2840.000	2.84060	0.35964	4.73204	0.82473
2841.000	2.83468	0.36958	4.70651	0.84656
2842.000	2.74396	0.41928	4.73793	0.84058
2843.000	2.77552	0.28813	4.73990	0.81877
2844.000	2.80510	0.32786	4.75560	0.82866
2845.000	2.79721	0.36164	4.73008	0.82869
2846.000	2.74790	0.30801	4.73990	0.79102
2847.000	2.75382	0.35172	4.74579	0.76326
2848.000	2.82285	0.27619	4.79094	0.85637
2849.000	2.74396	0.31198	4.76346	0.77315
2850.000	2.83666	0.35964	4.77131	0.81081
2851.000	2.78341	0.32389	4.74382	0.83264
2852.000	2.80510	0.35170	4.83806	0.79883
2853.000	2.76960	0.36562	4.80468	0.73743
2854.000	2.75579	0.39345	4.78505	0.72159
2855.000	2.73804	0.29410	4.73204	0.82671
2856.000	2.75185	0.29211	4.74971	0.78704
2857.000	2.87018	0.33380	4.83217	0.72154
2858.000	2.74790	0.26826	4.83217	0.77704
2859.000	2.77749	0.38748	4.73597	0.73750
2860.000	2.87215	0.45301	4.78113	0.70177
2861.000	2.86229	0.38348	4.79487	0.74537
2862.000	2.75974	0.35569	4.73400	0.77715
2863.000	2.85638	0.40732	4.75560	0.74541
2864.000	2.91554	0.40929	4.76149	0.77316
2865.000	2.72226	0.38948	4.77524	0.73746
2866.000	2.75974	0.39543	4.78113	0.68790
2867.000	2.79721	0.32389	4.74775	0.72163
2868.000	2.84652	0.42322	4.81646	0.70768
2869.000	2.85243	0.39739	4.78702	0.66807
2870.000	2.74593	0.41332	4.78702	0.72754
2871.000	2.81299	0.30004	4.82628	0.63830
2872.000	2.86229	0.41924	4.77524	0.71367
2873.000	2.85243	0.42520	4.77916	0.67403
2874.000	2.79524	0.38350	4.84395	0.70369
2875.000	2.88596	0.45897	4.79880	0.65617
2876.000	2.90371	0.42916	4.78309	0.71168
2877.000	2.92145	0.44505	4.78702	0.69582
2878.000	2.90173	0.42916	4.81254	0.72156
2879.000	2.88596	0.38347	4.79291	0.73348
2880.000	2.88990	0.45102	4.74775	0.74344
2881.000	2.83666	0.42918	4.79683	0.74933
2882.000	2.79327	0.36164	4.80665	0.65616
2883.000	2.80510	0.44112	4.74775	0.72758
2884.000	2.86624	0.49672	4.80468	0.73148
2885.000	2.79129	0.39145	4.78702	0.77511
2886.000	2.75974	0.28416	4.75168	0.72956
2887.000	2.79524	0.40536	4.80665	0.74139
2888.000	2.81496	0.40734	4.75364	0.78902
2889.000	2.79918	0.35171	4.77916	0.74539
2890.000	2.83863	0.38547	4.81057	0.73544
2891.000	2.81891	0.37356	4.78702	0.74339
2892.000	2.90173	0.48479	4.84198	0.69577
2893.000	2.76960	0.36165	4.80665	0.76518
2894.000	2.79524	0.40138	4.84591	0.76711
2895.000	2.84454	0.38348	4.79291	0.76916
2896.000	2.84060	0.38348	4.84787	0.74531
2897.000	2.74198	0.29410	4.77916	0.76917
2898.000	2.79918	0.36760	4.71830	0.80294
2899.000	2.86821	0.41725	4.79291	0.80880
2900.000	2.83074	0.37157	4.78113	0.77908
2901.000	2.88201	0.28611	4.75560	0.81281
2902.000	2.91948	0.35167	4.71633	0.80492
2903.000	2.71634	0.30404	4.73793	0.80886
2904.000	2.75579	0.27621	4.70651	0.81881
2905.000	2.68083	0.32392	4.74775	0.77714
2906.000	2.79721	0.27223	4.76542	0.82667
2907.000	2.79129	0.32786	4.75560	0.84650
2908.000	2.76960	0.26230	4.77720	0.83855
2909.000	2.78932	0.38151	4.71437	0.84061
2910.000	2.82285	0.45303	4.81057	0.86626
2911.000	2.75776	0.31993	4.75364	0.84452
2912.000	2.76171	0.30204	4.79880	0.82861
2913.000	2.87610	0.32188	4.80468	0.82662
2914.000	2.82877	0.29606	4.82628	0.81272
2915.000	2.89385	0.31591	4.77720	0.81476
2916.000	2.88004	0.32983	4.77720	0.80485
2917.000	2.69464	0.31795	4.77524	0.75134
2918.000	2.78735	0.31197	4.76542	0.83063
2919.000	2.80905	0.36362	4.75757	0.82272
2920.000	2.83666	0.31990	4.74382	0.82868
2921.000	2.76763	0.31794	4.73204	0.80689
2922.000	2.78143	0.34575	4.80272	0.83059
2923.000	2.83468	0.30600	4.81057	0.79292
2924.000	2.78735	0.33383	4.74775	0.81876
2925.000	2.77354	0.34377	4.79683	0.83852
2926.000	2.80313	0.38747	4.78113	0.83656
2927.000	2.75579	0.43319	4.79880	0.83456
2928.000	2.79129	0.30402	4.76935	0.89207
2929.000	2.81496	0.42522	4.80468	0.82860
2930.000	2.81891	0.42720	4.80665	0.83653
2931.000	2.83271	0.47091	4.78505	0.79493
2932.000	2.98652	0.47482	4.84198	0.75324
2933.000	2.82877	0.35964	4.76542	0.78306
2934.000	2.83271	0.43117	4.67509	0.79109
2935.000	2.78341	0.31197	4.65938	0.82878
2936.000	2.59206	0.29215	4.59457	0.65041
2937.000	2.43420	0.25243	4.45311	0.63269
2938.000	2.24670	0.22463	4.35877	0.54351
2939.000	2.14010	0.08747	4.14446	0.50795
2940.000	1.87353	-0.00994	4.01464	0.28776
2941.000	1.52391	-0.14518	3.75094	0.22631
2942.000	1.26903	-0.36397	3.61706	0.04169
2943.000	1.08129	-0.43162	3.33736	-0.12115
2944.000	0.73343	-0.64848	3.23095	-0.24431
2945.000	0.60296	-0.85535	3.12058	-0.41715
2946.000	0.36969	-0.89913	2.93920	-0.62384
2947.000	0.22142	-1.00058	2.85835	-0.67156
2948.000	0.23329	-1.10399	2.81299	-0.66762
2949.000	0.24515	-1.13581	2.80707	-0.69543
2950.000	0.19177	-1.19149	2.77157	-0.69943
2951.000	0.31632	-1.16364	2.73212	-0.69746
2952.000	0.29259	-1.27102	2.71042	-0.57627
2953.000	0.45075	-1.21731	2.73607	-0.59017
2954.000	0.48040	-1.23719	2.72423	-0.55640
2955.000	0.51796	-1.17554	2.69859	-0.52660
2956.000	0.66029	-1.05819	2.63743	-0.41137
2957.000	0.64645	-1.09598	2.61573	-0.39150
2958.000	0.62668	-1.10791	2.65913	-0.46502
2959.000	0.66622	-1.03234	2.65913	-0.44117
2960.000	0.63459	-1.06217	2.59798	-0.42927
2961.000	0.61087	-1.04030	2.59600	-0.45908
2962.000	0.64250	-1.09995	2.59206	-0.49684
2963.000	0.53575	-1.10395	2.66703	-0.51668
2964.000	0.73936	-1.14766	2.64138	-0.53259
2965.000	0.77296	-1.07407	2.70451	-0.57230
2966.000	0.80261	-1.07009	2.73607	-0.55838
2967.000	0.78284	-1.12378	2.85243	-0.57223
2968.000	0.87179	-1.11580	2.80707	-0.45701
2969.000	0.91725	-1.09193	2.87807	-0.57222
2970.000	0.94690	-1.12572	2.84849	-0.51263
2971.000	0.97259	-1.11577	2.81102	-0.48681
2972.000	0.98050	-1.07401	2.90371	-0.46095
2973.000	1.02398	-1.03821	2.83863	-0.39739
2974.000	0.97852	-1.07998	2.81299	-0.44509
2975.000	0.92318	-1.06409	2.79524	-0.46099
2976.000	0.95085	-0.97857	2.78143	-0.50272
2977.000	0.90934	-0.99648	2.72818	-0.51467
2978.000	0.87377	-0.97462	2.72423	-0.46698
2979.000	0.86784	-1.03428	2.68675	-0.52263
2980.000	0.73936	-1.00647	2.70845	-0.49282
2981.000	0.80854	-0.98855	2.67492	-0.52065
2982.000	0.62471	-0.99854	2.71042	-0.54448
2983.000	0.67610	-1.08802	2.71240	-0.57627
2984.000	0.62273	-0.98064	2.76960	-0.64777
2985.000	0.75912	-1.07606	2.72029	-0.64184
2986.000	0.68203	-1.03631	2.70451	-0.60807
2987.000	0.64250	-0.99058	2.74001	-0.61401
2988.000	0.67610	-1.07608	2.74593	-0.68156
2989.000	0.73738	-1.23117	2.76368	-0.67758
2990.000	0.66820	-1.10393	2.82680	-0.64973
2991.000	0.59901	-1.06815	2.82088	-0.66960
2992.000	0.58320	-1.23518	2.81102	-0.74510
2993.000	0.75715	-1.10390	2.82482	-0.75105
2994.000	0.67808	-1.17352	2.77946	-0.67558
2995.000	0.66622	-1.08205	2.82285	-0.76694
2996.000	0.68994	-1.12778	2.82285	-0.79873
2997.000	0.55552	-1.08605	2.75974	-0.75904
2998.000	0.64448	-1.11586	2.77354	-0.76102
2999.000	0.65831	-1.08006	2.74001	-0.77693
3000.000	0.61482	-1.17751	2.72818	-0.72926
3001.000	0.76505	-1.05220	2.75185	-0.71533
3002.000	0.67215	-1.07807	2.72029	-0.72529
3003.000	0.73936	-1.01442	2.69859	-0.72133
3004.000	0.78877	-1.07805	2.70648	-0.65973
3005.000	0.67413	-1.14370	2.74987	-0.65176
3006.000	0.71366	-1.10789	2.73804	-0.72130
3007.000	0.67017	-1.21926	2.74593	-0.70143
3008.000	0.70971	-1.11982	2.69662	-0.65576
3009.000	0.71959	-1.09198	2.68281	-0.66173
3010.000	0.76110	-1.14566	2.73607	-0.66965
3011.000	0.65436	-1.08802	2.73015	-0.64779
3012.000	0.74924	-1.09396	2.75185	-0.56632
3013.000	0.67413	-1.10989	2.74790	-0.62593
3014.000	0.67215	-1.12182	2.75185	-0.64182
3015.000	0.75912	-0.96669	2.72620	-0.60806
3016.000	0.71761	-1.10193	2.72620	-0.64382
3017.000	0.75122	-0.98260	2.75776	-0.62592
3018.000	0.74133	-1.06016	2.74396	-0.60407
3019.000	0.82040	-1.00247	2.73015	-0.61203
3020.000	0.74924	-1.06612	2.72620	-0.61203
3021.000	0.73145	-1.05221	2.77946	-0.65373
3022.000	0.66029	-1.04228	2.78341	-0.60604
3023.000	0.72552	-1.06414	2.74987	-0.63785
3024.000	0.74133	-1.11982	2.76171	-0.62791
3025.000	0.71366	-1.13971	2.81299	-0.64377
3026.000	0.69389	-1.07210	2.81299	-0.66762
3027.000	0.64448	-1.07808	2.75382	-0.68553
3028.000	0.67017	-1.11785	2.79721	-0.70140
3029.000	0.62471	-1.15763	2.74987	-0.69944
3030.000	0.70971	-1.02636	2.75974	-0.61201
3031.000	0.73540	-1.04226	2.73804	-0.61798
3032.000	0.65436	-1.07808	2.76763	-0.58022
3033.000	0.69192	-1.05619	2.79918	-0.61795
3034.000	0.67215	-1.04029	2.79721	-0.64378
3035.000	0.72750	-0.98459	2.81891	-0.61000
3036.000	0.79866	-0.94282	2.75185	-0.65970
3037.000	0.72947	-1.07408	2.80707	-0.62391
3038.000	0.77098	-1.06612	2.78341	-0.64578
3039.000	0.69389	-1.05818	2.81891	-0.65370
3040.000	0.69785	-1.11386	2.82482	-0.63185
3041.000	0.73738	-1.05420	2.77749	-0.65174
3042.000	0.68994	-1.09199	2.83666	-0.64376
3043.000	0.70378	-1.08403	2.79918	-0.63782
3044.000	0.78087	-1.05220	2.82482	-0.61595
3045.000	0.80854	-1.06611	2.78538	-0.58021
3046.000	0.69389	-1.06216	2.83468	-0.61396
3047.000	0.71168	-1.13772	2.81891	-0.66960
3048.000	0.74924	-1.13970	2.86821	-0.63580
3049.000	0.76901	-1.11782	2.84060	-0.61793
3050.000	0.66622	-1.04427	2.85243	-0.64177
3051.000	0.66622	-1.09001	2.78143	-0.62392
3052.000	0.76505	-1.08203	2.77354	-0.63386
3053.000	0.81447	-1.05815	2.78143	-0.58021
3054.000	0.59506	-1.07212	2.82680	-0.65966
3055.000	0.69192	-1.05222	2.80313	-0.72126
3056.000	0.69587	-1.06813	2.81496	-0.65569
3057.000	0.67610	-1.03233	2.84652	-0.63779
3058.000	0.68599	-1.05818	2.83863	-0.64575
3059.000	0.68599	-1.07210	2.84849	-0.67753
3060.000	0.62471	-1.07212	2.81693	-0.68152
3061.000	0.80656	-1.09395	2.79327	-0.64180
3062.000	0.76308	-1.02834	2.82877	-0.63979
3063.000	0.73936	-1.17351	2.84060	-0.65965
3064.000	0.76110	-1.06016	2.86624	-0.67950
3065.000	0.74924	-1.00845	2.81891	-0.59807
3066.000	0.62075	-1.01445	2.87018	-0.68149
3067.000	0.68994	-1.01046	2.81102	-0.61199
3068.000	0.71959	-1.12380	2.82680	-0.63979
3069.000	0.72157	-1.01045	2.84849	-0.63183
3070.000	0.76110	-0.98061	2.80116	-0.61795
3071.000	0.59703	-1.01047	2.81102	-0.61397
3072.000	0.67610	-1.07807	2.84849	-0.66561
3073.000	0.75517	-1.03430	2.84454	-0.61793
3074.000	0.69982	-1.01642	2.80905	-0.58417
3075.000	0.80063	-0.99651	2.84257	-0.62389
3076.000	0.68796	-1.05818	2.78735	-0.61200
3077.000	0.78482	-1.09594	2.79129	-0.63783
3078.000	0.69389	-1.08205	2.77946	-0.64181
3079.000	0.69389	-1.13574	2.84257	-0.63382
3080.000	0.71168	-1.17550	2.80905	-0.65768
3081.000	0.71564	-1.04227	2.77354	-0.63585
3082.000	0.76308	-1.04027	2.77749	-0.60604
3083.000	0.70180	-1.10790	2.82285	-0.63781
3084.000	0.78680	-1.07606	2.79327	-0.63385
3085.000	0.69587	-1.15562	2.79129	-0.59411
3086.000	0.75319	-1.18941	2.76565	-0.58817
3087.000	0.65041	-1.23915	2.74198	-0.64977
3088.000	0.70378	-1.14170	2.74987	-0.59414
3089.000	0.64448	-1.13376	2.73212	-0.58024
3090.000	0.74924	-1.11783	2.74396	-0.61997
3091.000	0.80261	-1.11582	2.71634	-0.60806
3092.000	0.66029	-1.17750	2.71634	-0.63389
3093.000	0.66227	-1.23119	2.70648	-0.62396
3094.000	0.65436	-1.11984	2.78735	-0.64180
3095.000	0.76901	-1.02436	2.72423	-0.62594
3096.000	0.72750	-1.12579	2.73409	-0.59414
3097.000	0.70575	-1.08005	2.73804	-0.56632
3098.000	0.89551	-1.13568	2.78735	-0.64975
3099.000	0.72552	-1.05022	2.73212	-0.67561
3100.000	0.66424	-1.09200	2.75579	-0.67758
3101.000	0.75319	-1.10987	2.76368	-0.67758
3102.000	0.74726	-1.20532	2.77946	-0.66366
3103.000	0.74726	-1.15958	2.76565	-0.68950
3104.000	0.79470	-1.06611	2.76171	-0.65970
3105.000	0.72552	-1.10192	2.77157	-0.73320
3106.000	0.81842	-1.17547	2.74987	-0.66566
3107.000	0.68796	-1.17750	2.78143	-0.67359
3108.000	0.79470	-1.13969	2.76171	-0.71732
3109.000	0.70180	-1.13971	2.75579	-0.69944
3110.000	0.74133	-1.12181	2.72818	-0.74118
3111.000	0.77098	-0.99652	2.75776	-0.73321
3112.000	0.79866	-1.08401	2.74593	-0.68951
3113.000	0.93504	-1.05215	2.73607	-0.70144
3114.000	0.84807	-1.08002	2.76171	-0.65572
3115.000	0.85796	-1.07206	2.73015	-0.64581
3116.000	0.72157	-1.17948	2.74198	-0.73322
3117.000	0.82831	-1.03826	2.78735	-0.74909
3118.000	0.74924	-1.04823	2.74790	-0.72130
3119.000	0.79668	-1.11583	2.76763	-0.73917
3120.000	0.83819	-1.04224	2.75579	-0.76500
3121.000	0.75517	-1.15362	2.75776	-0.78884
3122.000	0.77494	-1.08203	2.77552	-0.77890
3123.000	0.78087	-1.07208	2.78735	-0.73319
3124.000	0.88167	-1.05217	2.75579	-0.69149
3125.000	0.92120	-1.01438	2.77354	-0.73916
3126.000	0.89946	-0.99052	2.81299	-0.75900
3127.000	0.87377	-1.01439	2.79524	-0.71332
3128.000	0.80656	-1.09594	2.78341	-0.70538
3129.000	0.84807	-1.12774	2.83666	-0.74111
3130.000	0.85796	-1.15558	2.79129	-0.73319
3131.000	0.84412	-1.10786	2.74593	-0.69547
3132.000	0.82633	-1.09195	2.82680	-0.70138
3133.000	0.85598	-1.15558	2.81693	-0.72125
3134.000	0.79668	-1.11781	2.82482	-0.77092
3135.000	0.74726	-1.04027	2.81496	-0.74112
3136.000	0.78877	-1.04623	2.79129	-0.69346
3137.000	0.82633	-1.13172	2.76960	-0.72724
3138.000	0.85598	-1.12774	2.80313	-0.73914
3139.000	0.87377	-1.10188	2.83271	-0.68151
3140.000	0.85005	-1.08399	2.81891	-0.68351
3141.000	0.82435	-0.92292	2.75776	-0.71334
3142.000	0.89156	-1.11381	2.78143	-0.74710
3143.000	0.93306	-1.11777	2.77552	-0.65174
3144.000	0.89156	-1.15755	2.78143	-0.69545
3145.000	0.88760	-1.09194	2.78143	-0.73717
3146.000	0.83819	-1.08996	2.78735	-0.69346
3147.000	0.78877	-1.14565	2.81299	-0.71530
3148.000	0.83819	-1.14962	2.76960	-0.68552
3149.000	0.88958	-1.11580	2.77157	-0.73320
3150.000	0.81645	-1.06014	2.82877	-0.74509
3151.000	0.81249	-1.08400	2.76763	-0.74115
3152.000	0.75319	-1.13970	2.76368	-0.72526
3153.000	0.86191	-1.11581	2.78341	-0.73916
3154.000	0.92318	-1.04023	2.75382	-0.75904
3155.000	0.83621	-1.03826	2.79327	-0.76100
3156.000	0.87970	-1.12972	2.76763	-0.65969
3157.000	0.85796	-1.08996	2.75579	-0.69944
3158.000	0.82831	-1.08400	2.77552	-0.69347
3159.000	0.91527	-1.00443	2.68873	-0.64384
3160.000	0.74924	-1.07806	2.74001	-0.62394
3161.000	0.91330	-1.13568	2.70253	-0.68755
3162.000	0.91330	-1.07403	2.73607	-0.64779
3163.000	0.94097	-1.11578	2.74790	-0.67163
3164.000	0.88365	-1.14762	2.75579	-0.74315
3165.000	0.83226	-1.14365	2.73212	-0.66965
3166.000	0.82435	-1.16155	2.72029	-0.67760
3167.000	0.86191	-1.14364	2.66703	-0.64981
3168.000	0.84412	-1.14962	2.70648	-0.68556
3169.000	0.82831	-1.14167	2.75974	-0.69943
3170.000	0.81249	-1.11781	2.77157	-0.72327
3171.000	0.88760	-1.12176	2.70845	-0.69350
3172.000	0.85203	-1.03428	2.80116	-0.69544
3173.000	0.83028	-1.11383	2.71240	-0.66966
3174.000	0.87377	-1.11978	2.70648	-0.69748
3175.000	0.80459	-1.12179	2.73409	-0.67958
3176.000	0.83028	-1.16752	2.74198	-0.67958
3177.000	0.83424	-1.13769	2.76171	-0.73917
3178.000	0.88167	-1.13767	2.71831	-0.67562
3179.000	0.87377	-1.18142	2.74001	-0.74713
3180.000	0.85796	-1.14762	2.72818	-0.71535
3181.000	0.97852	-1.12571	2.69859	-0.71934
3182.000	0.87179	-1.15358	2.74987	-0.71335
3183.000	0.87179	-1.14165	2.74593	-0.72527
3184.000	0.88760	-1.12972	2.75382	-0.76699
3185.000	0.89551	-1.17147	2.70451	-0.76106
3186.000	0.93306	-1.12374	2.75382	-0.71335
3187.000	0.84214	-1.12774	2.76368	-0.74116
3188.000	0.90539	-1.13965	2.79327	-0.74908
3189.000	0.94097	-1.17941	2.75382	-0.75706
3190.000	0.93899	-1.16549	2.75776	-0.72725
3191.000	0.85203	-1.17149	2.74593	-0.80276
3192.000	0.85005	-1.15757	2.75382	-0.73123
3193.000	0.91330	-1.11579	2.74987	-0.77891
3194.000	0.88365	-1.15159	2.72226	-0.75310
3195.000	0.90539	-1.13568	2.76171	-0.79877
3196.000	0.90144	-1.12773	2.76763	-0.84446
3197.000	0.84017	-1.14763	2.75382	-0.78288
3198.000	0.91725	-1.09789	2.77552	-0.83651
3199.000	0.83621	-1.19535	2.80313	-0.82457
3200.000	0.88958	-1.16949	2.71437	-0.80476
3201.000	0.92120	-1.13965	2.73212	-0.81270
3202.000	0.91923	-1.10585	2.75185	-0.82262
3203.000	0.83424	-1.19535	2.78143	-0.86631
3204.000	0.89946	-1.18738	2.76565	-0.83254
3205.000	0.96666	-1.13765	2.81102	-0.80271
3206.000	0.97259	-1.13963	2.73409	-0.79084
3207.000	0.91132	-1.13568	2.76171	-0.82857
3208.000	0.88365	-1.13767	2.75185	-0.79878
3209.000	0.96271	-1.15952	2.72423	-0.75707
3210.000	0.93702	-1.16549	2.70845	-0.80080
3211.000	0.82040	-1.15360	2.71437	-0.82463
3212.000	0.97457	-1.14162	2.71042	-0.83854
3213.000	0.93899	-1.12970	2.74987	-0.83852
3214.000	0.92120	-1.11579	2.73409	-0.85442
3215.000	0.90342	-1.07801	2.68675	-0.76902
3216.000	0.95876	-1.11578	2.72029	-0.78887
3217.000	0.91923	-1.09193	2.76368	-0.80076
3218.000	0.91132	-1.19334	2.74987	-0.83653
3219.000	0.87970	-1.13966	2.72423	-0.82065
3220.000	0.85993	-1.12177	2.74396	-0.79481
3221.000	0.87377	-1.08200	2.74987	-0.83653
3222.000	0.90342	-1.13170	2.69464	-0.78094
3223.000	0.79470	-1.23314	2.72029	-0.83258
3224.000	0.89353	-1.18141	2.68675	-0.82863
3225.000	0.80261	-1.19735	2.73607	-0.86038
3226.000	0.84214	-1.22120	2.69662	-0.81670
3227.000	0.86191	-1.15558	2.67886	-0.75909
3228.000	0.84214	-1.17348	2.71240	-0.80874
3229.000	0.90342	-1.10386	2.68281	-0.79286
3230.000	0.86388	-1.15955	2.65716	-0.79686
3231.000	0.90934	-1.11380	2.71240	-0.80874
3232.000	0.78877	-1.13770	2.68873	-0.86240
3233.000	0.83424	-1.18541	2.68478	-0.84452
3234.000	0.88167	-1.15955	2.66703	-0.85049
3235.000	0.90539	-1.17942	2.66308	-0.87831
3236.000	0.94690	-1.12373	2.62954	-0.88430
3237.000	0.90144	-1.16153	2.67294	-0.85446
3238.000	0.93109	-1.12970	2.66111	-0.87434
3239.000	0.93109	-1.13368	2.68478	-0.85247
3240.000	0.92120	-1.06807	2.68083	-0.87433
3241.000	0.88167	-1.18937	2.63941	-0.84455
3242.000	0.97259	-1.12373	2.63152	-0.82866
3243.000	0.85400	-1.22318	2.63941	-0.83660
3244.000	0.88958	-1.25101	2.69464	-0.86637
3245.000	0.90539	-1.10187	2.63152	-0.87039
3246.000	0.93306	-1.08994	2.64335	-0.84852
3247.000	0.98445	-1.11577	2.63152	-0.83860
3248.000	0.88563	-1.19335	2.63941	-0.82866
3249.000	0.89551	-1.14761	2.65913	-0.84057
3250.000	0.83226	-1.18939	2.64730	-0.91409
3251.000	0.91725	-1.18538	2.59600	-0.78497
3252.000	0.93702	-1.16549	2.64533	-0.84057
3253.000	0.96271	-1.13168	2.60390	-0.88630
3254.000	0.91330	-1.25299	2.65124	-0.86640
3255.000	0.99038	-1.20922	2.63941	-0.91012
3256.000	0.93702	-1.17543	2.62560	-0.86046
3257.000	0.90934	-1.18141	2.59995	-0.85849
3258.000	0.93109	-1.20129	2.64533	-0.81872
3259.000	0.98643	-1.16746	2.58417	-0.76511
3260.000	0.97457	-1.13764	2.61573	-0.84656
3261.000	1.03386	-1.15353	2.64927	-0.83461
3262.000	0.94295	-1.18537	2.59008	-0.80286
3263.000	0.93306	-1.13368	2.62954	-0.85648
3264.000	0.97852	-1.17343	2.60192	-0.81676
3265.000	1.01805	-1.19529	2.62954	-0.83462
3266.000	0.97457	-1.28477	2.64138	-0.80084
3267.000	1.03188	-1.13762	2.68083	-0.86042
3268.000	0.98050	-1.18337	2.60587	-0.83067
3269.000	0.98445	-1.18138	2.62954	-0.79687
3270.000	1.03188	-1.20324	2.66505	-0.85050
3271.000	0.97654	-1.15156	2.60587	-0.83265
3272.000	1.01212	-1.19728	2.58614	-0.85254
3273.000	1.05955	-1.19130	2.61179	-0.79291
3274.000	0.87377	-1.14961	2.61573	-0.82073
3275.000	0.91725	-1.19135	2.61771	-0.73330
3276.000	0.92120	-1.21322	2.63743	-0.81872
3277.000	1.03979	-1.16546	2.69464	-0.78491
3278.000	1.01607	-1.17143	2.69859	-0.82266
3279.000	0.98247	-1.19729	2.66505	-0.78493
3280.000	0.93702	-1.18538	2.64138	-0.84058
3281.000	0.99038	-1.17939	2.67492	-0.77697
3282.000	0.96666	-1.15355	2.62954	-0.76309
3283.000	0.88760	-1.25697	2.62560	-0.83661
3284.000	0.90934	-1.22118	2.60390	-0.72138
3285.000	0.96469	-1.24104	2.59798	-0.77305
3286.000	0.95283	-1.21122	2.59995	-0.75914
3287.000	0.91527	-1.26889	2.58417	-0.75915
3288.000	0.94295	-1.20526	2.58417	-0.77107
3289.000	0.94295	-1.26689	2.64533	-0.81474
3290.000	0.87970	-1.20528	2.59403	-0.83067
3291.000	0.89749	-1.22118	2.65519	-0.86838
3292.000	0.95876	-1.25893	2.62165	-0.77105
3293.000	0.88958	-1.27685	2.66111	-0.86639
3294.000	0.98247	-1.29272	2.62954	-0.79886
3295.000	0.92713	-1.24304	2.68281	-0.85843
3296.000	0.89551	-1.25896	2.67689	-0.88228
3297.000	0.96271	-1.20525	2.61771	-0.79291
3298.000	0.85400	-1.28681	2.68675	-0.84055
3299.000	0.90934	-1.19732	2.69662	-0.81074
3300.000	0.97062	-1.26688	2.63152	-0.78495
3301.000	1.02991	-1.23306	2.61771	-0.80085
3302.000	0.96271	-1.26887	2.61376	-0.78496
3303.000	0.95085	-1.23508	2.63349	-0.83661
3304.000	1.01014	-1.21517	2.67492	-0.83459
3305.000	1.00817	-1.20921	2.65716	-0.80480
3306.000	1.00421	-1.21717	2.64335	-0.80879
3307.000	1.04374	-1.24697	2.69859	-0.84650
3308.000	0.96666	-1.27086	2.63941	-0.79687
3309.000	0.93504	-1.28280	2.64927	-0.87634
3310.000	0.91330	-1.28281	2.67689	-0.88426
3311.000	0.98643	-1.24302	2.65913	-0.86838
3312.000	0.91725	-1.21123	2.70845	-0.90411
3313.000	1.04967	-1.25294	2.61968	-0.86443
3314.000	0.93504	-1.28877	2.64335	-0.87833
3315.000	0.93306	-1.27087	2.65716	-0.93593
3316.000	0.93504	-1.26491	2.60390	-0.86246
3317.000	0.97259	-1.24104	2.62757	-0.83463
3318.000	0.84017	-1.18342	2.63349	-0.82071
3319.000	0.99236	-1.17740	2.60981	-0.86643
3320.000	0.98445	-1.17940	2.61376	-0.89822
3321.000	0.94097	-1.16549	2.64533	-0.84654
3322.000	0.86586	-1.18540	2.66308	-0.91209
3323.000	0.94690	-1.25894	2.63546	-0.82667
3324.000	1.11687	-1.18929	2.65716	-0.88626
3325.000	1.00817	-1.23903	2.67886	-0.89022
3326.000	0.96271	-1.29074	2.65322	-0.89620
3327.000	0.98050	-1.29869	2.64335	-0.87237
3328.000	0.95480	-1.29273	2.65913	-0.88229
3329.000	0.97062	-1.23706	2.65124	-0.86640
3330.000	0.93899	-1.27882	2.64927	-0.84653
3331.000	0.97852	-1.23507	2.65124	-0.94190
3332.000	0.92516	-1.22515	2.61179	-0.85053
3333.000	0.99433	-1.22711	2.62757	-0.83065
3334.000	0.96073	-1.25297	2.63152	-0.83462
3335.000	0.98247	-1.18934	2.67294	-0.86440
3336.000	1.01607	-1.24897	2.64533	-0.80481
3337.000	0.94492	-1.22912	2.64533	-0.85846
3338.000	0.93702	-1.29473	2.61968	-0.83463
3339.000	1.03979	-1.21914	2.61573	-0.85649
3340.000	0.96469	-1.16946	2.65716	-0.88626
3341.000	1.10303	-1.19526	2.58219	-0.84856
3342.000	1.00817	-1.18933	2.62954	-0.87039
3343.000	0.90144	-1.21919	2.60981	-0.80483
3344.000	0.97654	-1.23706	2.61376	-0.85252
3345.000	1.01607	-1.28476	2.61968	-0.82271
3346.000	0.96469	-1.32852	2.67492	-0.82863
3347.000	1.04374	-1.23902	2.60784	-0.86643
3348.000	0.99038	-1.23109	2.58417	-0.84062
3349.000	1.09908	-1.23900	2.59008	-0.88432
3350.000	1.01212	-1.29868	2.61573	-0.82867
3351.000	1.01212	-1.21319	2.63941	-0.87038
3352.000	0.98643	-1.26688	2.59600	-0.90022
3353.000	0.98247	-1.22115	2.64533	-0.82468
3354.000	1.01014	-1.20921	2.58614	-0.84459
3355.000	1.04967	-1.28673	2.57035	-0.87242
3356.000	0.96073	-1.23309	2.59206	-0.88830
3357.000	1.01607	-1.24897	2.61376	-0.84854
3358.000	0.93899	-1.19731	2.63152	-0.81475
3359.000	0.97062	-1.18537	2.62165	-0.88232
3360.000	0.91330	-1.25696	2.63743	-0.84058
3361.000	0.96073	-1.33846	2.61376	-0.85450
3362.000	1.06746	-1.13761	2.60587	-0.85054
3363.000	1.06153	-1.21118	2.56444	-0.87441
3364.000	1.04177	-1.27680	2.59206	-0.87041
3365.000	1.02991	-1.27879	2.54865	-0.81481
3366.000	1.08524	-1.21912	2.59008	-0.88035
3367.000	1.06746	-1.25094	2.57430	-0.85254
3368.000	1.02793	-1.23107	2.58811	-0.83267
3369.000	1.03386	-1.28674	2.57430	-0.79691
3370.000	1.07536	-1.21714	2.63349	-0.89025
3371.000	0.98643	-1.18337	2.55260	-0.86249
3372.000	1.06746	-1.09983	2.60981	-0.83265
3373.000	1.02398	-1.21119	2.56641	-0.84858
3374.000	1.06943	-1.21118	2.58417	-0.79293
3375.000	1.05955	-1.12966	2.60192	-0.86445
3376.000	1.15046	-1.09185	2.58811	-0.83863
3377.000	1.07339	-1.13164	2.56049	-0.88633
3378.000	1.05560	-1.15153	2.53287	-0.87642
3379.000	1.03781	-1.13762	2.55654	-0.90819
3380.000	1.09710	-1.12567	2.57035	-0.91017
3381.000	1.06943	-1.13165	2.57825	-0.81479
3382.000	1.08722	-1.19129	2.59403	-0.89426
3383.000	1.08722	-1.13959	2.59206	-0.88631
3384.000	1.04177	-1.19727	2.56246	-0.85057
3385.000	1.05758	-1.13563	2.55852	-0.87044
3386.000	1.05165	-1.14159	2.53089	-0.83668
3387.000	1.05362	-1.17341	2.54076	-0.81680
3388.000	1.03386	-1.18137	2.55062	-0.82474
3389.000	1.06153	-1.17738	2.55654	-0.91217
3390.000	1.07932	-1.16147	2.53681	-0.85058
3391.000	1.07339	-1.19726	2.58219	-0.89228
3392.000	1.04177	-1.11177	2.53287	-0.82475
3393.000	1.05165	-1.25691	2.52695	-0.89033
3394.000	0.99829	-1.20325	2.55852	-0.87242
3395.000	1.03584	-1.10382	2.50130	-0.90624
3396.000	1.05560	-1.20919	2.49735	-0.92214
3397.000	1.06548	-1.18533	2.55062	-0.84064
3398.000	1.15244	-1.15547	2.51116	-0.85060
3399.000	1.07734	-1.17737	2.47170	-0.86851
3400.000	1.03386	-1.11177	2.50919	-0.87445
3401.000	1.03979	-1.07002	2.51511	-0.84066
3402.000	1.06351	-1.04615	2.46972	-0.88043
3403.000	1.12675	-1.12765	2.45591	-0.86653
3404.000	1.04374	-1.12569	2.44210	-0.83276
3405.000	1.13860	-1.09782	2.51116	-0.86252
3406.000	1.02398	-1.11973	2.46972	-0.85460
3407.000	0.98643	-1.20325	2.46380	-0.87845
3408.000	1.04572	-1.16744	2.45591	-0.79301
3409.000	1.13070	-1.10975	2.51708	-0.87245
3410.000	1.04967	-1.15949	2.45394	-0.92019
3411.000	1.02398	-1.15552	2.49932	-0.87246
3412.000	1.08129	-1.16942	2.51511	-0.90425
3413.000	1.08129	-1.12965	2.51905	-0.88835
3414.000	1.08129	-1.22111	2.49340	-0.88439
3415.000	1.07339	-1.16743	2.51511	-0.85060
3416.000	1.06153	-1.17340	2.54865	-0.90422
3417.000	1.12082	-1.16344	2.48946	-0.94202
3418.000	1.09908	-1.09783	2.50919	-0.88438
3419.000	1.08129	-1.18135	2.47564	-0.91620
3420.000	1.15046	-1.11770	2.49538	-0.89830
3421.000	1.13268	-1.19326	2.51116	-0.85457
3422.000	1.07536	-1.15948	2.43815	-0.89834
3423.000	1.15244	-1.11571	2.54668	-0.91813
3424.000	1.06943	-1.13761	2.51116	-0.95790
3425.000	1.11884	-1.18730	2.48946	-0.92016
3426.000	1.10698	-1.17935	2.49340	-0.91817
3427.000	1.08129	-1.17936	2.49340	-0.92215
3428.000	0.96271	-1.20326	2.48551	-0.88042
3429.000	1.13663	-1.14951	2.44999	-0.85660
3430.000	1.06943	-1.12966	2.46183	-0.90031
3431.000	0.96469	-1.18139	2.43815	-0.86058
3432.000	1.04572	-1.15551	2.48551	-0.88440
3433.000	0.99236	-1.15156	2.44407	-0.90032
3434.000	1.09117	-1.16146	2.44604	-0.88840
3435.000	1.05758	-1.17340	2.45196	-0.91224
3436.000	1.10106	-1.21116	2.43420	-0.87648
3437.000	1.10698	-1.14754	2.48551	-0.91619
3438.000	1.02003	-1.18137	2.47762	-0.89632
3439.000	1.06153	-1.09785	2.45394	-0.86653
3440.000	1.09117	-1.18134	2.48156	-0.89036
3441.000	1.05758	-1.17937	2.45986	-0.93012
3442.000	1.13860	-1.15747	2.48748	-0.89632
3443.000	1.11489	-1.14555	2.49340	-0.91022
3444.000	1.09513	-1.15152	2.44012	-0.87648
3445.000	1.05362	-1.17539	2.46775	-0.93210
3446.000	1.12477	-1.13560	2.49735	-0.93009
3447.000	1.09908	-1.17935	2.47762	-0.88440
3448.000	1.13268	-1.11969	2.46775	-0.86851
3449.000	1.00026	-1.16348	2.50327	-0.97777
3450.000	1.08920	-1.22111	2.45196	-0.90230
3451.000	1.08920	-1.14556	2.51116	-0.97379
3452.000	1.08524	-1.17339	2.48156	-0.90824
3453.000	1.02398	-1.18137	2.54471	-0.91416
3454.000	1.08920	-1.16743	2.48354	-0.94600
3455.000	1.07734	-1.05608	2.49735	-0.90625
3456.000	1.00026	-1.18734	2.48551	-0.92612
3457.000	1.07141	-1.11971	2.47564	-0.89633
3458.000	1.05758	-1.09387	2.49735	-0.92016
3459.000	1.02003	-1.07400	2.47564	-0.90427
3460.000	1.13268	-1.12764	2.43223	-0.95994
3461.000	1.10698	-1.11572	2.42631	-0.93809
3462.000	1.14256	-1.07992	2.44407	-0.95199
3463.000	1.10303	-1.13760	2.51708	-0.97180
3464.000	1.09513	-1.07199	2.45196	-0.95595
3465.000	1.14256	-1.15548	2.46578	-0.90031
3466.000	1.13465	-1.15150	2.42236	-0.91623
3467.000	1.08722	-1.20520	2.45788	-0.94999
3468.000	1.14848	-1.09980	2.46972	-0.96389
3469.000	1.13465	-1.07197	2.43618	-0.90430
3470.000	1.12675	-1.22507	2.47762	-0.94203
3471.000	1.15046	-1.13559	2.42039	-0.87848
3472.000	1.02595	-1.11575	2.43223	-0.86655
3473.000	1.02595	-1.16347	2.44407	-0.91821
3474.000	0.99433	-1.18337	2.46380	-0.94800
3475.000	1.15441	-1.09384	2.41052	-0.92816
3476.000	1.11489	-1.13958	2.44407	-0.94205
3477.000	1.11489	-1.16145	2.45591	-0.92416
3478.000	1.08327	-1.17538	2.44210	-0.94603
3479.000	1.10106	-1.15947	2.46380	-0.87845
3480.000	1.11291	-1.15151	2.44210	-0.97583
3481.000	1.03584	-1.10581	2.39078	-0.92818
3482.000	0.83226	-1.10587	2.36118	-0.95801
3483.000	0.76308	-1.08601	2.32171	-0.90239
3484.000	0.63262	-1.20137	2.16181	-0.98795
3485.000	0.51005	-1.16958	1.96042	-0.93441
3486.000	0.27085	-1.16365	1.83798	-1.00206
3487.000	0.09292	-1.15570	1.69972	-1.13731
3488.000	-0.04745	-1.28297	1.44488	-1.14937
3489.000	-0.35783	-1.36845	1.31052	-1.26077
3490.000	-0.63657	-1.36640	1.13268	-1.30857
3491.000	-0.87574	-1.52337	0.95876	-1.37822
3492.000	-1.04572	-1.48155	0.82238	-1.47767
3493.000	-1.30855	-1.66426	0.74331	-1.48963
3494.000	-1.40142	-1.73771	0.58913	-1.48769
3495.000	-1.51403	-1.78333	0.55552	-1.38829
3496.000	-1.52589	-1.84888	0.49226	-1.45590
3497.000	-1.50218	-1.90651	0.50215	-1.39625
3498.000	-1.45674	-1.92840	0.51994	-1.35847
3499.000	-1.29274	-1.93449	0.58715	-1.30279
3500.000	-1.26310	-1.83915	0.62866	-1.26699
3501.000	-1.03386	-1.74789	0.70378	-1.21527
3502.000	-0.90737	-1.72013	0.78877	-1.19934
3503.000	-0.70180	-1.71028	0.87970	-1.11381
3504.000	-0.55947	-1.58709	0.92516	-1.04023
3505.000	-0.45668	-1.53940	1.04177	-1.05610
3506.000	-0.33806	-1.44798	1.15244	-1.04413
3507.000	-0.04349	-1.41420	1.17813	-1.01429
3508.000	-0.01186	-1.43408	1.27891	-1.05004
3509.000	0.17793	-1.34262	1.34016	-0.99832
3510.000	0.11269	-1.38835	1.41920	-1.07384
3511.000	0.09490	-1.41420	1.42710	-1.07384
3512.000	0.18188	-1.40425	1.50218	-1.08374
3513.000	0.20165	-1.45396	1.47254	-1.09171
3514.000	0.20363	-1.46787	1.55354	-1.11950
3515.000	0.16607	-1.40227	1.47847	-1.11556
3516.000	0.10280	-1.48379	1.47452	-1.15334
3517.000	0.08699	-1.43011	1.45871	-1.11160
3518.000	0.02372	-1.45198	1.38166	-1.11760
3519.000	0.02768	-1.38239	1.37771	-1.14941
3520.000	0.05536	-1.40824	1.33424	-1.12756
3521.000	-0.06524	-1.46391	1.33424	-1.15738
3522.000	-0.11269	-1.38636	1.21963	-1.16737
3523.000	-0.09292	-1.36648	1.24334	-1.18923
3524.000	-0.16211	-1.38040	1.19789	-1.18528
3525.000	-0.19572	-1.45992	1.13268	-1.16940
3526.000	-0.22142	-1.42016	1.12675	-1.16741
3527.000	-0.23724	-1.44998	1.11291	-1.22706
3528.000	-0.28073	-1.40822	1.10896	-1.18929
3529.000	-0.32620	-1.48575	1.12279	-1.18730
3530.000	-0.25701	-1.40822	1.14848	-1.22506
3531.000	-0.34597	-1.51955	1.09908	-1.16543
3532.000	-0.31434	-1.51359	1.12675	-1.16741
3533.000	-0.34993	-1.58117	1.17615	-1.17534
3534.000	-0.37958	-1.54340	1.15441	-1.19126
3535.000	-0.34795	-1.50961	1.15639	-1.20319
3536.000	-0.33016	-1.57123	1.16429	-1.17933
3537.000	-0.31829	-1.46190	1.17220	-1.14950
3538.000	-0.25701	-1.60106	1.20382	-1.16738
3539.000	-0.26492	-1.48775	1.21567	-1.17732
3540.000	-0.19968	-1.52752	1.14256	-1.14951
3541.000	-0.25899	-1.47980	1.19789	-1.11768
3542.000	-0.28271	-1.46190	1.23148	-1.14947
3543.000	-0.26492	-1.48974	1.20777	-1.10574
3544.000	-0.20363	-1.43606	1.21765	-1.14948
3545.000	-0.23922	-1.47980	1.14848	-1.10179
3546.000	-0.28469	-1.49570	1.20382	-1.13955
3547.000	-0.21747	-1.42016	1.21567	-1.08586
3548.000	-0.32818	-1.48178	1.20975	-1.14153
3549.000	-0.21352	-1.48577	1.13663	-1.10180
3550.000	-0.25503	-1.48974	1.15837	-1.14155
3551.000	-0.27678	-1.47582	1.13860	-1.07793
3552.000	-0.22933	-1.53149	1.14848	-1.14156
3553.000	-0.22340	-1.43407	1.14848	-1.09185
3554.000	-0.20165	-1.44402	1.17418	-1.07792
3555.000	-0.20956	-1.47781	1.15046	-1.10378
3556.000	-0.20561	-1.46986	1.14848	-1.11372
3557.000	-0.16409	-1.41618	1.19196	-1.14154
3558.000	-0.24515	-1.44600	1.19196	-1.14154
3559.000	-0.24910	-1.46588	1.14058	-1.09384
3560.000	-0.16804	-1.43209	1.20777	-1.08984
3561.000	-0.27480	-1.43407	1.20184	-1.10376
3562.000	-0.17200	-1.44601	1.17022	-1.09184
3563.000	-0.28864	-1.45792	1.17615	-1.10377
3564.000	-0.26492	-1.40027	1.20382	-1.13358
3565.000	-0.26492	-1.46190	1.13663	-1.12367
3566.000	-0.27480	-1.44600	1.18406	-1.11768
3567.000	-0.30446	-1.46587	1.19394	-1.07990
3568.000	-0.20758	-1.44600	1.16034	-1.13956
3569.000	-0.23922	-1.44600	1.17813	-1.15944
3570.000	-0.26887	-1.34659	1.15639	-1.17933
3571.000	-0.18188	-1.41420	1.18406	-1.11967
3572.000	-0.26294	-1.44997	1.22160	-1.21111
3573.000	-0.18188	-1.49571	1.22358	-1.13954
3574.000	-0.19770	-1.44799	1.25915	-1.19718
3575.000	-0.21352	-1.40624	1.19196	-1.14551
3576.000	-0.21154	-1.47583	1.18603	-1.14353
3577.000	-0.20363	-1.37244	1.17615	-1.17932
3578.000	-0.16409	-1.44800	1.18208	-1.18727
3579.000	-0.11862	-1.37841	1.14848	-1.16740
3580.000	-0.25108	-1.38635	1.18010	-1.15148
3581.000	-0.25899	-1.39232	1.19394	-1.14154
3582.000	-0.29259	-1.42611	1.21963	-1.19918
3583.000	-0.18979	-1.39431	1.20382	-1.17136
3584.000	-0.32027	-1.46388	1.20184	-1.16937
3585.000	-0.23724	-1.40226	1.21765	-1.19918
3586.000	-0.24712	-1.37244	1.17418	-1.21710
3587.000	-0.25503	-1.37045	1.21172	-1.22702
3588.000	-0.26492	-1.37045	1.20579	-1.17533
3589.000	-0.26689	-1.41816	1.16429	-1.16541
3590.000	-0.18584	-1.39034	1.21370	-1.20515
3591.000	-0.24119	-1.42811	1.18406	-1.16540
3592.000	-0.17398	-1.36648	1.20579	-1.16738
3593.000	-0.20561	-1.45396	1.20382	-1.18925
3594.000	-0.26492	-1.49172	1.22753	-1.16339
3595.000	-0.14630	-1.40823	1.19394	-1.17733
3596.000	-0.24515	-1.40226	1.20184	-1.20714
3597.000	-0.30050	-1.43406	1.14651	-1.19723
3598.000	-0.16607	-1.43209	1.21172	-1.16738
3599.000	-0.32225	-1.38833	1.14651	-1.20916
3600.000	-0.28271	-1.42214	1.18406	-1.18528
3601.000	-0.30643	-1.41816	1.13860	-1.18928
3602.000	-0.22538	-1.36051	1.17418	-1.21312
3603.000	-0.27678	-1.40822	1.20579	-1.15943
3604.000	-0.19572	-1.31677	1.19196	-1.16142
3605.000	-0.23131	-1.36846	1.16825	-1.14552
3606.000	-0.24119	-1.34858	1.18603	-1.17136
3607.000	-0.29259	-1.42015	1.14651	-1.13162
3608.000	-0.20165	-1.36846	1.20777	-1.15744
3609.000	-0.26096	-1.41419	1.22160	-1.18328
3610.000	-0.16409	-1.39431	1.18208	-1.18528
3611.000	-0.21352	-1.40624	1.15639	-1.17535
3612.000	-0.24317	-1.35255	1.18998	-1.13955
3613.000	-0.23922	-1.38437	1.16429	-1.15547
3614.000	-0.25108	-1.30483	1.12675	-1.17536
3615.000	-0.23526	-1.40823	1.11884	-1.17537
3616.000	-0.28666	-1.43009	1.13465	-1.21513
3617.000	-0.30446	-1.40026	1.17813	-1.24294
3618.000	-0.28864	-1.42611	1.14256	-1.16542
3619.000	-0.17991	-1.44799	1.18010	-1.21312
3620.000	-0.19770	-1.40028	1.16627	-1.21909
3621.000	-0.27876	-1.35255	1.10698	-1.23303
3622.000	-0.29457	-1.50564	1.19591	-1.19522
3623.000	-0.19177	-1.42016	1.18801	-1.20715
3624.000	-0.18188	-1.38636	1.17615	-1.20914
3625.000	-0.17200	-1.43805	1.17418	-1.16540
3626.000	-0.22933	-1.40226	1.21567	-1.19322
3627.000	-0.19572	-1.32870	1.15639	-1.23301
3628.000	-0.31039	-1.39629	1.14058	-1.21910
3629.000	-0.20363	-1.36250	1.18406	-1.21709
3630.000	-0.24910	-1.42413	1.14256	-1.19126
3631.000	-0.13246	-1.42414	1.13860	-1.21115
3632.000	-0.32027	-1.47184	1.20579	-1.19323
3633.000	-0.23526	-1.35454	1.17418	-1.20716
3634.000	-0.22538	-1.37244	1.14651	-1.20916
3635.000	-0.29852	-1.38834	1.18406	-1.18131
3636.000	-0.20165	-1.35057	1.19591	-1.19323
3637.000	-0.23922	-1.38834	1.13070	-1.18332
3638.000	-0.19375	-1.41022	1.14848	-1.17337
3639.000	-0.22735	-1.34063	1.14453	-1.18928
3640.000	-0.27282	-1.36846	1.12279	-1.19127
3641.000	-0.17991	-1.32472	1.14058	-1.16542
3642.000	-0.21747	-1.45197	1.11687	-1.22110
3643.000	-0.07513	-1.36648	1.13663	-1.19127
3644.000	-0.25899	-1.43009	1.12872	-1.18133
3645.000	-0.26294	-1.37641	1.15837	-1.20517
3646.000	-0.20956	-1.44998	1.16034	-1.18927
3647.000	-0.12455	-1.37443	1.12279	-1.18133
3648.000	-0.17398	-1.37244	1.16627	-1.19324
3649.000	-0.22735	-1.43805	1.16034	-1.17535
3650.000	-0.26492	-1.43009	1.17615	-1.21113
3651.000	-0.19572	-1.38437	1.16232	-1.19126
3652.000	-0.17200	-1.40227	1.13663	-1.20121
3653.000	-0.17200	-1.40028	1.19196	-1.18528
3654.000	-0.18781	-1.45396	1.17220	-1.21909
3655.000	-0.15816	-1.34063	1.16232	-1.17535
3656.000	-0.17793	-1.42414	1.14256	-1.18928
3657.000	-0.22735	-1.38238	1.14256	-1.18331
3658.000	-0.20956	-1.37840	1.18801	-1.19522
3659.000	-0.17002	-1.36051	1.13268	-1.17536
3660.000	-0.17200	-1.38636	1.13663	-1.17337
3661.000	-0.29062	-1.44599	1.15639	-1.20716
3662.000	-0.27678	-1.40623	1.13663	-1.21512
3663.000	-0.22340	-1.38834	1.16232	-1.18529
3664.000	-0.16014	-1.38636	1.17022	-1.24891
3665.000	-0.24910	-1.40027	1.15046	-1.15945
3666.000	-0.20363	-1.38238	1.17022	-1.16541
3667.000	-0.23724	-1.47781	1.11094	-1.21315
3668.000	-0.27876	-1.41021	1.15441	-1.21313
3669.000	-0.20758	-1.35057	1.12872	-1.22904
3670.000	-0.16014	-1.36847	1.10896	-1.19128
3671.000	-0.27480	-1.48178	1.14256	-1.18331
3672.000	-0.19968	-1.40823	1.10896	-1.15748
3673.000	-0.16409	-1.38238	1.16627	-1.20517
3674.000	-0.17200	-1.39431	1.11489	-1.18332
3675.000	-0.23526	-1.42214	1.13070	-1.17735
3676.000	-0.24119	-1.40823	1.12477	-1.16940
3677.000	-0.29457	-1.42015	1.12675	-1.20718
3678.000	-0.23131	-1.51558	1.14651	-1.21711
3679.000	-0.16804	-1.35256	1.10698	-1.18531
3680.000	-0.27480	-1.42015	1.13663	-1.22109
3681.000	-0.13048	-1.31081	1.07932	-1.18334
3682.000	-0.16804	-1.40426	1.12279	-1.20121
3683.000	-0.17793	-1.32472	1.10501	-1.20321
3684.000	-0.21154	-1.35454	1.14651	-1.19922
3685.000	-0.25305	-1.40624	1.10698	-1.17736
3686.000	-0.18781	-1.45197	1.12477	-1.21115
3687.000	-0.20165	-1.43010	1.08920	-1.16942
3688.000	-0.29457	-1.40027	1.12477	-1.17537
3689.000	-0.15223	-1.38437	1.12872	-1.21712
3690.000	-0.11664	-1.34859	1.14256	-1.16542
3691.000	-0.17002	-1.46191	1.06351	-1.18732
3692.000	-0.15421	-1.43806	1.09513	-1.18930
3693.000	-0.26492	-1.38238	1.08722	-1.17737
3694.000	-0.16607	-1.37443	1.13860	-1.19325
3695.000	-0.18781	-1.38636	1.14256	-1.23103
3696.000	-0.13246	-1.37841	1.10106	-1.21315
3697.000	-0.18979	-1.37642	1.07536	-1.22111
3698.000	-0.20165	-1.37443	1.10303	-1.21116
3699.000	-0.14234	-1.44402	1.10698	-1.24496
3700.000	-0.20758	-1.44799	1.08524	-1.21316
3701.000	-0.28271	-1.49769	1.11687	-1.13759
3702.000	-0.18979	-1.40028	1.08129	-1.16147
3703.000	-0.14037	-1.35256	1.06351	-1.19130
3704.000	-0.29457	-1.37442	1.13070	-1.18928
3705.000	-0.15223	-1.43607	1.05758	-1.22907
3706.000	-0.12455	-1.39630	1.06746	-1.16744
3707.000	-0.21747	-1.38238	1.08722	-1.13959
3708.000	-0.19572	-1.32671	1.05955	-1.15153
3709.000	-0.17793	-1.37642	1.09513	-1.21117
3710.000	-0.23131	-1.41817	1.09117	-1.15351
3711.000	-0.19770	-1.43209	1.05165	-1.17341
3712.000	-0.20956	-1.38835	1.07932	-1.15351
3713.000	-0.25899	-1.35255	1.08920	-1.18134
3714.000	-0.25305	-1.46190	1.04572	-1.25890
3715.000	-0.18979	-1.42414	1.12279	-1.21712
3716.000	-0.23922	-1.41419	1.07141	-1.22708
3717.000	-0.19572	-1.37642	1.05560	-1.20720
3718.000	-0.19770	-1.32074	1.06153	-1.19328
3719.000	-0.23724	-1.37641	1.00817	-1.17541
3720.000	-0.21747	-1.41419	1.09710	-1.20321
3721.000	-0.20363	-1.39232	1.11884	-1.20519
3722.000	-0.16014	-1.41420	1.07932	-1.22310
3723.000	-0.13641	-1.44004	1.08129	-1.20322
3724.000	-0.17200	-1.34858	1.05165	-1.19726
3725.000	-0.16014	-1.35256	1.08327	-1.16544
3726.000	-0.20758	-1.37244	1.05955	-1.17141
3727.000	-0.22142	-1.39232	1.02398	-1.21915
3728.000	-0.26294	-1.45594	1.05955	-1.21714
3729.000	-0.16014	-1.37244	1.06153	-1.18334
3730.000	-0.18584	-1.35057	1.01212	-1.14956
3731.000	-0.14432	-1.34858	1.09513	-1.17140
3732.000	-0.22142	-1.41419	1.02398	-1.23505
3733.000	-0.13641	-1.38239	1.09710	-1.22906
3734.000	-0.18979	-1.32273	1.06943	-1.17936
3735.000	-0.17991	-1.36250	1.05758	-1.21714
3736.000	-0.15421	-1.34461	1.06351	-1.21714
3737.000	-0.13048	-1.38835	1.05955	-1.20919
3738.000	-0.19968	-1.33466	1.06548	-1.21118
3739.000	-0.20956	-1.37840	1.05560	-1.21516
3740.000	-0.11862	-1.31280	1.06153	-1.21913
3741.000	-0.14037	-1.37046	1.03979	-1.20721
3742.000	-0.22142	-1.33864	1.03188	-1.19926
3743.000	-0.10676	-1.36847	1.04769	-1.20522
3744.000	-0.18386	-1.35455	1.04572	-1.27282
3745.000	-0.22142	-1.36846	1.06153	-1.22708
3746.000	-0.12455	-1.41022	1.09315	-1.25689
3747.000	-0.16211	-1.34262	1.05165	-1.16943
3748.000	-0.29457	-1.38038	1.08327	-1.21713
3749.000	-0.17991	-1.40624	1.07734	-1.20521
3750.000	-0.19770	-1.35653	1.00421	-1.20524
3751.000	-0.16409	-1.39829	1.02991	-1.21517
3752.000	-0.12455	-1.32473	1.06548	-1.17937
3753.000	-0.20363	-1.32074	1.06153	-1.17141
3754.000	-0.21549	-1.38636	0.99038	-1.18536
3755.000	-0.17793	-1.33466	1.03979	-1.20323
3756.000	-0.21945	-1.32273	1.01014	-1.19132
3757.000	-0.21549	-1.33864	1.00026	-1.19331
3758.000	-0.11664	-1.38636	1.05165	-1.23703
3759.000	-0.14827	-1.34660	1.04374	-1.25691
3760.000	-0.21154	-1.33068	0.99038	-1.18337
3761.000	-0.12850	-1.36648	1.04374	-1.20721
3762.000	-0.24119	-1.43407	1.00817	-1.23506
3763.000	-0.17595	-1.34858	1.05955	-1.17738
3764.000	-0.20165	-1.31677	1.02595	-1.22312
3765.000	-0.12850	-1.36052	1.06548	-1.22907
3766.000	-0.12257	-1.38636	0.99829	-1.21120
3767.000	-0.08501	-1.37444	1.01607	-1.18137
3768.000	-0.15816	-1.38238	1.03781	-1.21119
3769.000	-0.24515	-1.43208	1.04769	-1.23902
3770.000	-0.23131	-1.34261	1.02003	-1.20324
3771.000	-0.19968	-1.38238	1.01805	-1.17342
3772.000	-0.17398	-1.44203	0.97457	-1.20922
3773.000	-0.15816	-1.41022	1.02793	-1.20722
3774.000	-0.17991	-1.36250	1.03188	-1.18932
3775.000	-0.16607	-1.38238	0.98247	-1.18934
3776.000	-0.20758	-1.39033	1.05758	-1.15750
3777.000	-0.19177	-1.39431	1.05362	-1.22908
3778.000	-0.14234	-1.36847	1.04967	-1.18534
3779.000	-0.14234	-1.38040	1.07734	-1.19328
3780.000	-0.25899	-1.42811	1.06351	-1.23702
3781.000	-0.15025	-1.28893	1.09315	-1.21117
3782.000	-0.15223	-1.41817	1.04967	-1.19925
3783.000	-0.18584	-1.37244	1.02398	-1.18932
3784.000	-0.16804	-1.39630	1.04769	-1.23902
3785.000	-0.20956	-1.36846	1.03584	-1.14756
3786.000	-0.22142	-1.35852	1.00817	-1.18336
3787.000	-0.23922	-1.36448	1.06548	-1.15153
3788.000	-0.17991	-1.42811	1.04967	-1.18534
3789.000	-0.21945	-1.43407	1.02595	-1.14956
3790.000	-0.15025	-1.39233	1.05955	-1.17340
3791.000	-0.16014	-1.36250	1.03386	-1.20721
3792.000	-0.19375	-1.40425	1.04967	-1.14756
3793.000	-0.16804	-1.34659	1.06746	-1.17340
3794.000	-0.13839	-1.38835	1.08129	-1.17339
3795.000	-0.23131	-1.42612	1.07141	-1.15948
3796.000	-0.14827	-1.38437	1.04572	-1.18534
3797.000	-0.20363	-1.36846	1.05955	-1.20919
3798.000	-0.13048	-1.37245	0.98247	-1.16747
3799.000	-0.12455	-1.37642	1.02793	-1.19131
3800.000	-0.19770	-1.41817	1.00619	-1.13962
3801.000	-0.16014	-1.38238	1.03979	-1.17938
3802.000	-0.19968	-1.39630	1.04967	-1.18335
3803.000	-0.19177	-1.40624	1.00619	-1.20126
3804.000	-0.16211	-1.40823	1.02003	-1.16149
3805.000	-0.24910	-1.40425	1.02991	-1.16148
3806.000	-0.17595	-1.41618	1.02793	-1.12570
3807.000	-0.20561	-1.40624	1.04177	-1.16546
3808.000	-0.11467	-1.38239	1.01410	-1.13763
3809.000	-0.23329	-1.36448	1.08129	-1.20123
3810.000	-0.16014	-1.42811	1.02398	-1.16745
3811.000	-0.16211	-1.34262	1.07536	-1.13960
3812.000	-0.18584	-1.34063	1.03781	-1.13166
3813.000	-0.24910	-1.37045	1.02595	-1.15154
3814.000	-0.17002	-1.41618	1.02595	-1.16944
3815.000	-0.30050	-1.40424	0.99829	-1.16348
3816.000	-0.25108	-1.39431	1.02991	-1.11973
3817.000	-0.19177	-1.43209	1.01014	-1.15155
3818.000	-0.17793	-1.37244	1.00224	-1.15752
3819.000	-0.11862	-1.50168	1.01410	-1.19728
3820.000	-0.17793	-1.34659	1.00421	-1.21518
3821.000	-0.27282	-1.51359	1.03584	-1.09189
3822.000	-0.27282	-1.44997	1.06943	-1.16545
3823.000	-0.24712	-1.28694	1.05955	-1.18533
3824.000	-0.15421	-1.36051	1.01805	-1.16348
3825.000	-0.21945	-1.37244	1.01410	-1.07997
3826.000	-0.18781	-1.32472	1.03781	-1.14756
3827.000	-0.17002	-1.38437	1.04769	-1.20124
3828.000	-0.16409	-1.39431	1.00026	-1.17541
3829.000	-0.22735	-1.36448	0.99433	-1.14957
3830.000	-0.14827	-1.37642	0.96666	-1.16946
3831.000	-0.16607	-1.38040	1.00817	-1.15752
3832.000	-0.21747	-1.35454	1.06548	-1.15551
3833.000	-0.12850	-1.49571	1.01410	-1.13962
3834.000	-0.15816	-1.38238	0.99038	-1.15951
3835.000	-0.20165	-1.38636	1.05362	-1.17937
3836.000	-0.14827	-1.33665	0.99631	-1.13962
3837.000	-0.17793	-1.34461	1.02003	-1.16149
3838.000	-0.20956	-1.39431	1.00619	-1.10582
3839.000	-0.17200	-1.41618	0.99038	-1.10185
3840.000	-0.14827	-1.37642	1.00817	-1.12570
3841.000	-0.12850	-1.35455	0.98050	-1.14361
3842.000	-0.18979	-1.32671	0.99433	-1.10781
3843.000	-0.07908	-1.40824	1.01212	-1.11775
3844.000	-0.17595	-1.36847	1.02793	-1.15950
3845.000	-0.15421	-1.30683	1.05362	-1.20919
3846.000	-0.21549	-1.35256	1.04967	-1.10580
3847.000	-0.08699	-1.29291	1.00817	-1.15354
3848.000	-0.14234	-1.32075	1.02200	-1.13962
3849.000	-0.19375	-1.41221	1.04177	-1.16148
3850.000	-0.12257	-1.39034	1.04374	-1.10382
3851.000	-0.08501	-1.39432	1.03188	-1.11774
3852.000	-0.14432	-1.35057	1.02398	-1.15353
3853.000	-0.08897	-1.33467	1.02200	-1.13564
3854.000	-0.07315	-1.42812	1.02595	-1.12768
3855.000	-0.15618	-1.41221	1.03386	-1.16745
3856.000	-0.15618	-1.37841	1.02003	-1.13763
3857.000	-0.17793	-1.39630	1.05362	-1.11773
3858.000	-0.11071	-1.30683	1.04177	-1.17540
3859.000	-0.16211	-1.38636	1.05362	-1.12966
3860.000	-0.09885	-1.37841	1.00817	-1.11377
3861.000	-0.17398	-1.38040	1.00421	-1.13167
3862.000	-0.19177	-1.39034	0.99236	-1.07003
3863.000	-0.17991	-1.29291	0.99038	-1.10781
3864.000	-0.20758	-1.38636	1.04769	-1.15551
3865.000	-0.17595	-1.35256	0.98840	-1.13366
3866.000	-0.16409	-1.38636	0.96666	-1.11975
3867.000	-0.16014	-1.34858	1.00421	-1.13565
3868.000	-0.09885	-1.43408	1.00421	-1.08792
3869.000	-0.15618	-1.46788	0.99631	-1.07997
3870.000	-0.11862	-1.30087	1.00421	-1.09787
3871.000	-0.12850	-1.37642	0.97062	-1.15952
3872.000	-0.14432	-1.37046	0.99236	-1.16150
3873.000	-0.18188	-1.40425	0.99236	-1.10980
3874.000	-0.17991	-1.38636	1.04177	-1.16148
3875.000	-0.13839	-1.42812	1.04572	-1.14557
3876.000	-0.18979	-1.33864	0.98643	-1.11776
3877.000	-0.11467	-1.33268	1.05560	-1.17539
3878.000	-0.14037	-1.30086	1.01607	-1.07400
3879.000	-0.09094	-1.34063	1.02991	-1.12172
3880.000	-0.10280	-1.40625	1.03386	-1.10979
3881.000	-0.12060	-1.33268	1.02003	-1.11576
3882.000	-0.11664	-1.35455	0.98840	-1.09389
3883.000	-0.19177	-1.38039	1.02003	-1.10184
3884.000	-0.14827	-1.40227	1.02200	-1.10581
3885.000	-0.12653	-1.35455	1.01014	-1.09786
3886.000	-0.14630	-1.38239	1.02398	-1.13564
3887.000	-0.11862	-1.37046	1.05758	-1.13165
3888.000	-0.18188	-1.38238	1.04177	-1.14756
3889.000	-0.13444	-1.33069	1.03386	-1.11376
3890.000	-0.18584	-1.38636	1.01607	-1.10383
3891.000	-0.07315	-1.32473	1.03584	-1.09189
3892.000	-0.10083	-1.35256	1.05165	-1.13762
3893.000	-0.13246	-1.34660	1.00421	-1.13366
3894.000	-0.14432	-1.39630	1.04967	-1.15949
3895.000	-0.08699	-1.40028	1.04769	-1.11376
3896.000	-0.09490	-1.38636	1.05362	-1.15551
3897.000	-0.14630	-1.34063	1.08129	-1.15550
3898.000	-0.05733	-1.30484	1.02398	-1.16944
3899.000	-0.13444	-1.36250	1.04374	-1.17937
3900.000	-0.13048	-1.37642	1.01805	-1.12172
3901.000	-0.04547	-1.35058	1.01410	-1.15751
3902.000	-0.16607	-1.36250	1.04572	-1.19926
3903.000	-0.16211	-1.39829	1.02793	-1.15552
3904.000	-0.14630	-1.30086	1.03386	-1.19926
3905.000	-0.13444	-1.41817	1.00026	-1.14758
3906.000	-0.17398	-1.43209	1.03979	-1.13762
3907.000	-0.18188	-1.49173	1.00817	-1.17342
3908.000	-0.12257	-1.38239	0.99631	-1.15354
3909.000	-0.09885	-1.39233	1.02793	-1.16148
3910.000	-0.13641	-1.31677	1.05165	-1.20522
3911.000	-0.11269	-1.35853	1.03386	-1.17341
3912.000	-0.14037	-1.39034	0.97457	-1.13168
3913.000	-0.22538	-1.34659	1.08722	-1.15947
3914.000	-0.09292	-1.37046	1.00026	-1.18337
3915.000	-0.10280	-1.36648	1.01607	-1.21915
3916.000	-0.28469	-1.35851	1.00619	-1.14559
3917.000	-0.21352	-1.33267	1.02200	-1.20921
3918.000	-0.13444	-1.28098	1.03979	-1.10780
3919.000	-0.17595	-1.35654	1.02595	-1.18733
3920.000	-0.14432	-1.37841	1.02793	-1.14956
3921.000	-0.07315	-1.39631	1.00421	-1.15155
3922.000	-0.12653	-1.36648	1.03584	-1.14955
3923.000	-0.20561	-1.37642	0.99236	-1.14559
3924.000	-0.21352	-1.43805	1.02595	-1.15353
3925.000	-0.17002	-1.36250	1.00026	-1.13962
3926.000	-0.15025	-1.43607	1.00224	-1.14758
3927.000	-0.17991	-1.41221	1.02991	-1.09786
3928.000	-0.19572	-1.44799	0.99433	-1.09190
3929.000	-0.16014	-1.41618	0.98445	-1.08992
3930.000	-0.13444	-1.39630	1.01410	-1.13167
3931.000	-0.17595	-1.38437	1.03584	-1.04814
3932.000	-0.12850	-1.47981	1.02991	-1.07002
3933.000	-0.22340	-1.45594	1.01212	-1.06008
3934.000	-0.09490	-1.45993	1.00817	-1.10184
3935.000	-0.17002	-1.42016	1.05758	-1.13761
3936.000	-0.26492	-1.47383	1.01014	-1.11377
3937.000	-0.22538	-1.45594	0.97259	-1.03425
3938.000	-0.24712	-1.46787	1.03979	-1.10581
3939.000	-0.23724	-1.45395	1.00619	-1.15752
3940.000	-0.19572	-1.44203	1.00421	-1.08991
3941.000	-0.25305	-1.42413	1.01805	-1.10581
3942.000	-0.19770	-1.43408	1.04769	-1.09387
3943.000	-0.20363	-1.42612	1.05165	-1.11574
3944.000	-0.18781	-1.49571	1.00817	-1.05412
3945.000	-0.18781	-1.44799	0.99829	-1.06406
3946.000	-0.11862	-1.46788	1.02595	-1.04815
3947.000	-0.22340	-1.39431	0.97259	-1.09986
3948.000	-0.18386	-1.37841	0.99433	-1.05412
3949.000	-0.17398	-1.35852	0.98840	-1.08594
3950.000	-0.27678	-1.39828	0.98643	-1.04021
3951.000	-0.16804	-1.42811	0.98445	-1.05214
3952.000	-0.15618	-1.39034	1.02398	-1.10581
3953.000	-0.19375	-1.45197	1.04572	-1.15551
3954.000	-0.26294	-1.39629	1.03781	-1.12370
3955.000	-0.21352	-1.44600	1.02200	-1.11774
3956.000	-0.23922	-1.38834	1.05165	-1.10779
3957.000	-0.22142	-1.41618	1.04177	-1.14955
3958.000	-0.18188	-1.40624	1.00619	-1.08395
3959.000	-0.25701	-1.47781	1.01607	-1.10184
3960.000	-0.26096	-1.50167	1.03781	-1.13762
3961.000	-0.20363	-1.47384	1.05362	-1.13364
3962.000	-0.26096	-1.42810	0.98050	-1.07799
3963.000	-0.21945	-1.39232	0.99829	-1.10781
3964.000	-0.12653	-1.35455	1.01805	-1.11775
3965.000	-0.15618	-1.40028	1.03781	-1.09189
3966.000	-0.25701	-1.41220	1.02595	-1.05213
3967.000	-0.25305	-1.44202	1.05165	-1.07399
3968.000	-0.16014	-1.43209	0.99631	-1.10383
3969.000	-0.19968	-1.41022	0.99433	-0.96862
3970.000	-0.15618	-1.40823	1.01212	-1.04020
3971.000	-0.23724	-1.41220	0.96271	-1.05016
3972.000	-0.12653	-1.39034	0.98643	-1.02032
3973.000	-0.22538	-1.42612	0.94887	-1.00045
3974.000	-0.21549	-1.43209	0.98840	-1.09787
3975.000	-0.20165	-1.41817	0.97457	-1.02231
3976.000	-0.12060	-1.44005	1.01805	-1.03025
3977.000	-0.16014	-1.36449	0.96271	-1.04220
3978.000	-0.11664	-1.40028	1.02200	-1.02429
3979.000	-0.13444	-1.41619	1.00026	-1.05611
3980.000	-0.22340	-1.41022	0.99829	-1.00043
3981.000	-0.11269	-1.38636	1.04177	-1.08195
3982.000	-0.19968	-1.36449	1.06548	-1.02030
3983.000	-0.16014	-1.42811	1.02003	-0.98651
3984.000	-0.19770	-1.38835	1.03386	-1.07996
3985.000	-0.14630	-1.35853	0.99631	-1.09389
3986.000	-0.12653	-1.33268	1.02398	-1.07996
3987.000	-0.16607	-1.41420	0.97852	-1.07401
3988.000	-0.16804	-1.39233	0.99631	-1.12769
3989.000	-0.16211	-1.36250	1.01607	-1.05809
3990.000	-0.11664	-1.32870	1.02398	-1.07599
3991.000	-0.19968	-1.38835	0.95480	-1.06408
3992.000	-0.17793	-1.32273	1.02595	-1.04815
3993.000	-0.21945	-1.34261	1.01014	-1.08593
3994.000	-0.17200	-1.36847	0.98840	-1.07202
3995.000	-0.12257	-1.31677	0.97457	-1.07998
3996.000	-0.14432	-1.30086	1.02003	-1.05412
3997.000	-0.12455	-1.34262	0.99236	-1.05412
3998.000	-0.08897	-1.34859	1.02003	-1.04616
3999.000	-0.12850	-1.31677	1.02398	-1.09587
4000.000	-0.11071	-1.29291	1.00619	-1.09389
4001.000	-0.16607	-1.36051	0.95678	-1.04817
4002.000	-0.09292	-1.29092	0.95085	-1.03425
4003.000	-0.14827	-1.38835	0.96666	-1.05214
4004.000	-0.10676	-1.24519	0.94097	-1.05414
4005.000	-0.14827	-1.33864	0.94492	-1.04619
4006.000	-0.12850	-1.33268	0.96271	-1.06408
4007.000	-0.11071	-1.28894	0.97259	-1.06208
4008.000	-0.18584	-1.41221	0.96666	-1.08595
4009.000	-0.18584	-1.34262	0.97457	-1.11179
4010.000	-0.17398	-1.37841	0.97852	-1.01038
4011.000	-0.16409	-1.34063	1.02793	-0.96861
4012.000	-0.14432	-1.29092	0.97852	-1.02430
4013.000	-0.15816	-1.34063	0.97852	-1.05811
4014.000	-0.12850	-1.32473	1.02793	-0.99446
4015.000	-0.12653	-1.31081	1.00224	-1.01037
4016.000	-0.09687	-1.33268	0.98643	-1.01833
4017.000	-0.05140	-1.26110	0.97259	-0.98254
4018.000	-0.08106	-1.30087	0.99433	-0.94078
4019.000	-0.12257	-1.39630	0.96864	-0.97061
4020.000	-0.07513	-1.32672	0.98643	-1.03225
4021.000	-0.14630	-1.39233	0.94690	-0.96863
4022.000	-0.13444	-1.35853	0.97852	-0.97459
4023.000	-0.13444	-1.38239	0.99631	-0.98850
4024.000	-0.14827	-1.35256	0.99829	-1.02827
4025.000	-0.09292	-1.34262	0.96864	-0.98652
4026.000	-0.15421	-1.36648	0.99829	-0.94276
4027.000	-0.09094	-1.29092	0.97852	-0.98652
4028.000	-0.23526	-1.33267	0.97457	-0.97658
4029.000	-0.14630	-1.33069	0.95480	-0.94874
4030.000	-0.07513	-1.35853	0.97457	-0.97857
4031.000	-0.03756	-1.31280	0.98050	-0.99050
4032.000	-0.06326	-1.27502	0.95480	-0.93681
4033.000	-0.18188	-1.34063	1.02991	-0.94673
4034.000	-0.15618	-1.30882	0.98840	-0.96663
4035.000	-0.17398	-1.36449	0.98840	-1.00441
4036.000	-0.13641	-1.30484	0.98840	-0.93680
4037.000	-0.08106	-1.27701	0.94690	-0.95670
4038.000	-0.09687	-1.26507	0.97852	-0.99050
4039.000	-0.16409	-1.25513	0.97457	-0.93879
4040.000	-0.17002	-1.27899	0.94690	-0.99051
4041.000	-0.16607	-1.24916	0.93899	-0.98056
4042.000	-0.13048	-1.32075	0.94492	-0.92886
4043.000	-0.21945	-1.31279	0.97062	-0.95073
4044.000	-0.16014	-1.27899	0.97852	-1.00044
4045.000	-0.13246	-1.28496	0.91527	-0.95273
4046.000	-0.16409	-1.30086	0.97259	-0.94675
4047.000	-0.09292	-1.24519	0.96864	-0.98851
4048.000	-0.08699	-1.27303	0.95283	-0.98653
4049.000	-0.12850	-1.24320	0.96469	-0.98851
4050.000	-0.18781	-1.28098	0.96073	-0.99249
4051.000	-0.13246	-1.25712	0.96271	-0.96067
4052.000	-0.01582	-1.23326	0.92911	-0.93881
4053.000	-0.11664	-1.24121	0.99038	-0.98055
4054.000	-0.16014	-1.26905	0.96666	-0.96067
4055.000	-0.09687	-1.25513	0.97259	-0.97061
4056.000	-0.07513	-1.25314	0.98445	-0.96265
4057.000	-0.07315	-1.22928	0.94295	-0.96664
4058.000	-0.12455	-1.25115	0.95283	-1.04221
4059.000	-0.09292	-1.26706	0.90144	-0.96069
4060.000	-0.04547	-1.18156	0.90539	-0.98455
4061.000	-0.09490	-1.22133	0.97654	-0.96067
4062.000	-0.09687	-1.17957	0.93702	-0.97460
4063.000	-0.14234	-1.24121	0.93702	-0.98852
4064.000	-0.07908	-1.19150	0.96864	-1.01237
4065.000	-0.06722	-1.21934	0.96864	-1.00840
4066.000	-0.10478	-1.20940	0.95480	-0.99846
4067.000	-0.11467	-1.19150	0.97259	-0.98254
4068.000	-0.10280	-1.21337	0.94295	-1.01039
4069.000	-0.12060	-1.26308	0.94887	-1.01437
4070.000	-0.05733	-1.26309	0.95283	-1.02232
4071.000	-0.09292	-1.19746	0.93899	-1.00840
4072.000	-0.05338	-1.21735	0.90539	-1.00245
4073.000	-0.08106	-1.26507	0.92120	-0.97858
4074.000	-0.05338	-1.27701	0.94295	-0.96664
4075.000	-0.12653	-1.21138	0.91330	-1.02034
4076.000	-0.10676	-1.16565	0.91527	-0.95870
4077.000	-0.01384	-1.21337	0.91330	-0.99847
4078.000	-0.12060	-1.21735	0.94492	-0.95272
4079.000	-0.08501	-1.26706	0.99236	-0.97458
4080.000	-0.09292	-1.16764	0.93109	-0.93085
4081.000	-0.18188	-1.24121	0.95876	-0.95670
4082.000	-0.11071	-1.17161	0.93899	-1.01437
4083.000	-0.08501	-1.23525	0.93702	-0.93682
4084.000	-0.05536	-1.13980	0.94295	-0.99051
4085.000	-0.12653	-1.26706	0.94097	-0.93483
4086.000	-0.11862	-1.23127	0.95085	-1.03823
4087.000	-0.12257	-1.23922	0.95283	-0.94675
4088.000	-0.20165	-1.22729	0.91725	-0.99847
4089.000	-0.11664	-1.28695	0.95283	-0.97857
4090.000	-0.10280	-1.25115	0.93899	-0.97460
4091.000	-0.15618	-1.24121	0.91923	-0.94478
4092.000	-0.12653	-1.18951	0.92120	-0.99847
4093.000	-0.15421	-1.31081	0.92516	-0.98057
4094.000	-0.17200	-1.28893	0.93109	-0.96466
4095.000	-0.15421	-1.18155	0.92713	-0.94477
4096.000	-0.17398	-1.14973	0.91725	-0.90898
4097.000	-0.14827	-1.19945	0.89156	-0.94081
4098.000	-0.13444	-1.28893	0.95283	-0.95471
4099.000	-0.13246	-1.23525	0.91725	-0.94080
4100.000	-0.12060	-1.10798	0.93899	-0.94477
4101.000	-0.11862	-1.16167	0.96073	-0.92885
4102.000	-0.11269	-1.20940	0.90934	-0.93483
4103.000	-0.19375	-1.23126	0.92120	-0.91494
4104.000	-0.24119	-1.27501	0.94295	-0.95272
4105.000	-0.21549	-1.28893	0.95876	-0.91692
4106.000	-0.18781	-1.26308	0.93109	-0.92489
4107.000	-0.14630	-1.19746	0.92516	-0.93284
4108.000	-0.14630	-1.26905	0.92516	-0.94477
4109.000	-0.07710	-1.21536	0.96469	-0.92090
4110.000	-0.06326	-1.25116	0.92318	-0.93085
4111.000	-0.08897	-1.20542	0.89946	-0.94478
4112.000	-0.14234	-1.23127	0.93702	-0.92488
4113.000	-0.13444	-1.14377	0.92516	-0.91693
4114.000	-0.12653	-1.19150	0.91330	-0.91296
4115.000	-0.08106	-1.13781	0.93899	-0.94477
4116.000	-0.11071	-1.20741	0.92713	-0.89705
4117.000	-0.08699	-1.15968	0.91132	-0.92489
4118.000	-0.07117	-1.17758	0.93899	-0.83738
4119.000	-0.08501	-1.13184	0.93504	-0.93284
4120.000	-0.10874	-1.21337	0.97654	-0.92686
4121.000	-0.09885	-1.16962	0.94295	-0.90301
4122.000	-0.08501	-1.18553	0.99236	-0.93481
4123.000	-0.11467	-1.21138	0.96469	-0.94675
4124.000	-0.15025	-1.20542	0.96271	-0.91493
4125.000	-0.06326	-1.18553	0.98840	-0.88510
4126.000	-0.17200	-1.23524	0.98840	-0.93879
4127.000	-0.13839	-1.16167	0.96073	-0.88709
4128.000	-0.08106	-1.18752	0.95876	-0.89107
4129.000	-0.15816	-1.17758	0.93899	-0.90301
4130.000	-0.12060	-1.18553	0.94295	-0.89108
4131.000	-0.16804	-1.20542	0.91330	-0.86921
4132.000	-0.16014	-1.14775	0.91923	-0.84733
4133.000	-0.15223	-1.19547	0.93702	-0.86323
4134.000	-0.09885	-1.14576	0.94295	-0.84732
4135.000	-0.15223	-1.16564	0.92713	-0.88511
4136.000	-0.10874	-1.16167	0.92516	-0.88312
4137.000	-0.14037	-1.18354	0.93504	-0.85926
4138.000	-0.06326	-1.20343	0.90539	-0.85529
4139.000	-0.16607	-1.16167	0.97259	-0.86720
4140.000	-0.05140	-1.15372	0.96864	-0.92488
4141.000	-0.07513	-1.13184	0.92911	-0.91892
4142.000	-0.08897	-1.14576	0.91923	-0.86921
4143.000	-0.09687	-1.20940	0.92516	-0.88312
4144.000	-0.14037	-1.18354	0.96469	-0.91294
4145.000	-0.03954	-1.12786	0.97259	-0.90300
4146.000	-0.10478	-1.22530	0.95085	-0.89704
4147.000	-0.13048	-1.12388	0.87377	-0.81353
4148.000	-0.12653	-1.13383	0.91725	-0.91296
4149.000	-0.12257	-1.16366	0.91132	-0.87716
4150.000	-0.09885	-1.17161	1.01212	-0.91492
4151.000	-0.22340	-1.20342	0.98050	-0.89504
4152.000	-0.14037	-1.20542	0.92516	-0.92290
4153.000	-0.10676	-1.16167	0.98247	-0.92885
4154.000	-0.06524	-1.14775	0.91330	-0.89108
4155.000	-0.03163	-1.12588	0.92911	-0.89307
4156.000	-0.13641	-1.17559	0.98050	-0.92487
4157.000	-0.05338	-1.15173	0.97062	-0.92686
4158.000	-0.15223	-1.14974	0.93109	-0.88511
4159.000	-0.07908	-1.13184	0.94492	-0.89306
4160.000	-0.09094	-1.16764	0.96864	-0.88113
4161.000	-0.08106	-1.13781	0.92516	-0.90301
4162.000	-0.11664	-1.09405	0.91923	-0.85131
4163.000	-0.08897	-1.11991	0.96073	-0.92687
4164.000	-0.13839	-1.13383	0.95876	-0.83738
4165.000	-0.15025	-1.09604	0.93899	-0.90500
4166.000	-0.00395	-1.09207	0.94295	-0.86124
4167.000	-0.11664	-1.19945	0.94887	-0.84931
4168.000	-0.06129	-1.09207	0.93504	-0.88710
4169.000	-0.07908	-1.07616	0.96073	-0.87516
4170.000	-0.03163	-1.15769	0.98247	-0.90101
4171.000	-0.09094	-1.13582	0.97259	-0.91294
4172.000	-0.09292	-1.10201	0.96469	-0.89704
4173.000	-0.09094	-1.11792	0.97062	-0.90698
4174.000	-0.10874	-1.07218	0.91132	-0.87517
4175.000	-0.04349	-1.06621	0.96073	-0.87317
4176.000	-0.12455	-1.11991	0.92318	-0.89506
4177.000	-0.08897	-1.13184	0.93306	-0.88710
4178.000	-0.10083	-1.10599	0.93702	-0.88511
4179.000	-0.01582	-1.06621	0.92516	-0.88909
4180.000	-0.07908	-1.03042	0.92911	-0.90699
4181.000	-0.11467	-1.08809	0.94690	-0.88312
4182.000	-0.05733	-1.10997	0.95085	-0.90499
4183.000	-0.13048	-1.10798	0.95678	-0.89306
4184.000	-0.00791	-1.01053	0.92713	-0.92886
