time (ms)	lx (deg)	ly (deg)	rx (deg)	ry (deg)
0.000	0.37563	-0.11141	0.34202	-0.43567
1.000	0.47645	-0.15716	0.30248	-0.41578
2.000	0.41912	-0.09748	0.33806	-0.39390
3.000	0.40528	-0.13727	0.34795	-0.40583
4.000	0.48831	-0.09549	0.31829	-0.38395
5.000	0.49424	-0.13727	0.34597	-0.46551
6.000	0.48040	-0.14721	0.34202	-0.43567
7.000	0.55750	-0.09549	0.33411	-0.39191
8.000	0.50808	-0.12931	0.31434	-0.39390
9.000	0.46261	-0.11737	0.32818	-0.40185
10.000	0.47645	-0.11538	0.36772	-0.41379
11.000	0.49622	-0.15119	0.34004	-0.39390
12.000	0.48435	-0.13926	0.36969	-0.44363
13.000	0.43493	-0.14125	0.34004	-0.42175
14.000	0.43691	-0.13329	0.33411	-0.40185
15.000	0.42307	-0.18103	0.31236	-0.43169
16.000	0.53180	-0.13329	0.36376	-0.44363
17.000	0.43889	-0.14125	0.34202	-0.42175
18.000	0.52389	-0.12334	0.31632	-0.40583
19.000	0.56936	-0.05769	0.31039	-0.38594
20.000	0.51598	-0.06963	0.34597	-0.43965
21.000	0.54761	-0.06963	0.36969	-0.39190
22.000	0.53971	-0.04774	0.34597	-0.40583
23.000	0.50412	-0.02984	0.35190	-0.38992
24.000	0.49226	-0.07759	0.34597	-0.40782
25.000	0.49622	-0.03581	0.31632	-0.41777
26.000	0.51994	-0.10544	0.32620	-0.39589
27.000	0.50215	-0.03979	0.31434	-0.38793
28.000	0.45865	-0.12732	0.32818	-0.45556
29.000	0.54564	-0.08554	0.36772	-0.41976
30.000	0.49226	-0.16512	0.35783	-0.38594
31.000	0.52784	-0.12732	0.33016	-0.38196
32.000	0.42702	-0.06366	0.33609	-0.41578
33.000	0.46656	-0.14920	0.34202	-0.43368
34.000	0.47249	-0.08952	0.35981	-0.37201
35.000	0.45470	-0.13130	0.33411	-0.37201
36.000	0.50412	-0.06366	0.34399	-0.39191
37.000	0.47249	-0.08753	0.32620	-0.37400
38.000	0.50215	-0.05968	0.34399	-0.44164
39.000	0.52191	-0.08156	0.29852	-0.39986
40.000	0.43691	-0.07361	0.33411	-0.42572
41.000	0.57529	-0.04774	0.32027	-0.43965
42.000	0.47447	-0.10146	0.32422	-0.43368
43.000	0.49819	-0.08952	0.34993	-0.40981
44.000	0.47249	-0.05769	0.32027	-0.43766
45.000	0.49226	-0.03581	0.35190	-0.40583
46.000	0.46656	-0.05570	0.33609	-0.43169
47.000	0.52389	-0.12135	0.33806	-0.44363
48.000	0.46854	-0.04774	0.35190	-0.42572
49.000	0.54761	-0.07560	0.32027	-0.42970
50.000	0.47842	-0.02785	0.34993	-0.41379
51.000	0.50215	-0.04377	0.36969	-0.39588
52.000	0.47842	-0.08355	0.35783	-0.37997
53.000	0.43098	-0.11538	0.34993	-0.39588
54.000	0.41319	-0.09350	0.36376	-0.40185
55.000	0.53773	0.00597	0.35783	-0.43368
56.000	0.53378	-0.08156	0.36574	-0.41379
57.000	0.44086	-0.07759	0.32620	-0.39589
58.000	0.52389	-0.11936	0.34004	-0.39191
59.000	0.51005	-0.07560	0.30248	-0.44960
60.000	0.48238	-0.01393	0.30841	-0.45755
61.000	0.48238	-0.07162	0.34795	-0.42970
62.000	0.52982	-0.08554	0.34399	-0.39390
63.000	0.48040	-0.03979	0.31236	-0.40384
64.000	0.55947	-0.06565	0.31434	-0.37997
65.000	0.39342	-0.05570	0.31829	-0.39191
66.000	0.55552	-0.05172	0.33411	-0.36803
67.000	0.45272	-0.05371	0.36772	-0.41976
68.000	0.51796	-0.03979	0.33806	-0.40583
69.000	0.45075	-0.12533	0.31236	-0.32427
70.000	0.43098	-0.07162	0.34004	-0.33819
71.000	0.46459	-0.06565	0.39539	-0.38594
72.000	0.55552	-0.07957	0.37167	-0.35013
73.000	0.53180	0.00995	0.32422	-0.37997
74.000	0.53378	-0.08554	0.31829	-0.40782
75.000	0.51598	-0.00597	0.35981	-0.35610
76.000	0.56343	-0.06565	0.29655	-0.37997
77.000	0.53575	-0.02586	0.32422	-0.38793
78.000	0.49226	-0.01194	0.31434	-0.37798
79.000	0.57331	-0.04178	0.29062	-0.40981
80.000	0.59901	-0.00199	0.30643	-0.40185
81.000	0.54564	0.00000	0.30248	-0.41976
82.000	0.58517	0.03382	0.30643	-0.40384
83.000	0.53180	0.01790	0.31039	-0.39191
84.000	0.54168	0.00000	0.32027	-0.40583
85.000	0.59506	-0.01790	0.28666	-0.39191
86.000	0.51598	0.00796	0.31632	-0.38395
87.000	0.49424	-0.05172	0.27085	-0.33621
88.000	0.51401	-0.05968	0.31236	-0.40981
89.000	0.47842	-0.06366	0.34202	-0.37599
90.000	0.52784	0.00597	0.32225	-0.41180
91.000	0.51401	-0.04178	0.28469	-0.37599
92.000	0.55552	-0.00796	0.31039	-0.38793
93.000	0.52587	0.00199	0.31434	-0.40981
94.000	0.49819	-0.00995	0.30841	-0.40981
95.000	0.50412	-0.00597	0.35783	-0.40384
96.000	0.58715	0.00597	0.31632	-0.39589
97.000	0.50412	0.02984	0.27876	-0.43368
98.000	0.55750	-0.00199	0.28666	-0.41578
99.000	0.57133	-0.00199	0.27282	-0.39390
100.000	0.56343	-0.00995	0.25503	-0.42772
101.000	0.54959	0.01393	0.26294	-0.41180
102.000	0.42900	-0.02387	0.26492	-0.36605
103.000	0.52982	0.00597	0.30446	-0.42374
104.000	0.54366	0.03581	0.26096	-0.40981
105.000	0.45075	-0.01393	0.29655	-0.45954
106.000	0.44482	0.00000	0.28271	-0.41180
107.000	0.53180	0.05968	0.25701	-0.37202
108.000	0.49028	0.04576	0.27480	-0.36804
109.000	0.52191	0.02984	0.26294	-0.37400
110.000	0.56540	-0.00597	0.28073	-0.36804
111.000	0.47645	-0.00597	0.32620	-0.36803
112.000	0.49424	-0.00796	0.27282	-0.36804
113.000	0.51203	0.03382	0.28271	-0.36605
114.000	0.50412	0.04576	0.29457	-0.32825
115.000	0.50017	0.10743	0.28271	-0.37997
116.000	0.44679	0.02586	0.25305	-0.36804
117.000	0.54959	0.05570	0.27876	-0.37202
118.000	0.51005	0.06366	0.24712	-0.33024
119.000	0.55750	0.00597	0.27678	-0.42573
120.000	0.48831	0.06565	0.30050	-0.34217
121.000	0.43493	-0.03183	0.27480	-0.35013
122.000	0.54366	0.08355	0.25305	-0.37401
123.000	0.49819	0.06167	0.24317	-0.33422
124.000	0.51203	0.05172	0.29259	-0.31035
125.000	0.54761	0.03382	0.29457	-0.32626
126.000	0.51796	0.00398	0.25701	-0.35013
127.000	0.54168	0.07361	0.29457	-0.35212
128.000	0.48831	0.02984	0.25108	-0.33024
129.000	0.52389	0.03979	0.28271	-0.35212
130.000	0.44482	-0.00995	0.23329	-0.36804
131.000	0.50808	0.07162	0.28469	-0.39987
132.000	0.46656	0.03581	0.24515	-0.34019
133.000	0.51994	0.05172	0.25503	-0.32825
134.000	0.55157	0.11339	0.25701	-0.31432
135.000	0.46854	0.11339	0.21549	-0.33820
136.000	0.51994	0.07560	0.28073	-0.38992
137.000	0.52784	0.05570	0.25108	-0.33422
138.000	0.51401	0.02984	0.22538	-0.33820
139.000	0.41319	0.00995	0.22538	-0.34417
140.000	0.52982	0.06167	0.26887	-0.35411
141.000	0.57727	0.04973	0.27282	-0.33422
142.000	0.53378	0.04973	0.22933	-0.35411
143.000	0.49819	0.09748	0.30248	-0.33422
144.000	0.54564	0.08156	0.25701	-0.32825
145.000	0.50412	0.09748	0.25305	-0.38196
146.000	0.53575	0.04973	0.25108	-0.34814
147.000	0.50808	0.12334	0.25899	-0.35013
148.000	0.51994	0.07758	0.21154	-0.31433
149.000	0.47249	0.07361	0.23131	-0.32825
150.000	0.57529	0.06565	0.22735	-0.32427
151.000	0.48831	0.11737	0.26689	-0.36008
152.000	0.45668	0.10345	0.21352	-0.32626
153.000	0.42702	0.03581	0.26096	-0.33820
154.000	0.52389	0.06764	0.24515	-0.31035
155.000	0.42109	0.07958	0.26887	-0.37003
156.000	0.55354	0.05968	0.25899	-0.33820
157.000	0.47052	0.08554	0.24910	-0.35411
158.000	0.51005	0.01790	0.25305	-0.36008
159.000	0.52191	0.09350	0.24712	-0.34814
160.000	0.48435	0.10743	0.25503	-0.35013
161.000	0.45865	0.08753	0.23922	-0.31035
162.000	0.47842	0.07759	0.24712	-0.36008
163.000	0.51598	0.09549	0.23724	-0.30239
164.000	0.45272	0.05570	0.25899	-0.35013
165.000	0.50215	0.09748	0.24317	-0.40385
166.000	0.50017	0.03979	0.25899	-0.38992
167.000	0.52982	0.09748	0.29457	-0.38395
168.000	0.48435	0.13130	0.24317	-0.34019
169.000	0.55552	0.13329	0.27282	-0.36207
170.000	0.53575	0.06366	0.23724	-0.36804
171.000	0.58715	0.17705	0.22735	-0.34814
172.000	0.49622	0.07957	0.24317	-0.35809
173.000	0.52982	0.03581	0.27282	-0.40782
174.000	0.54564	0.10941	0.24515	-0.37599
175.000	0.53180	0.11737	0.29457	-0.36605
176.000	0.55947	0.10941	0.25108	-0.37401
177.000	0.53180	0.06366	0.28864	-0.35809
178.000	0.51203	0.10941	0.24712	-0.31631
179.000	0.50017	0.04377	0.23724	-0.34019
180.000	0.46063	0.07361	0.23526	-0.38395
181.000	0.57133	0.06167	0.26096	-0.40782
182.000	0.54168	0.10742	0.24317	-0.35013
183.000	0.48238	0.08355	0.24712	-0.36605
184.000	0.47645	0.01194	0.26887	-0.36804
185.000	0.47052	0.06963	0.26492	-0.37400
186.000	0.48238	0.09151	0.25701	-0.30836
187.000	0.54564	0.09947	0.24317	-0.38793
188.000	0.53575	0.08952	0.27282	-0.37599
189.000	0.47249	0.09151	0.25701	-0.40583
190.000	0.51796	0.11737	0.25701	-0.36008
191.000	0.46459	0.18700	0.25305	-0.37798
192.000	0.52982	0.11936	0.24712	-0.32228
193.000	0.52587	0.11737	0.23922	-0.35013
194.000	0.44679	0.18700	0.26689	-0.34416
195.000	0.54959	0.15716	0.24910	-0.37798
196.000	0.58122	0.09549	0.26689	-0.34218
197.000	0.53180	0.12334	0.29062	-0.35013
198.000	0.54564	0.13329	0.28271	-0.40185
199.000	0.51401	0.10743	0.23526	-0.32228
200.000	0.52784	0.15517	0.26294	-0.34615
201.000	0.53575	0.12334	0.24515	-0.37401
202.000	0.50808	0.08156	0.24910	-0.37997
203.000	0.48238	0.14323	0.20561	-0.35610
204.000	0.54564	0.13726	0.24317	-0.37798
205.000	0.50610	0.16313	0.25305	-0.35212
206.000	0.49819	0.12135	0.21945	-0.37997
207.000	0.50808	0.14124	0.25305	-0.35212
208.000	0.45865	0.13130	0.22735	-0.34218
209.000	0.47842	0.13528	0.23922	-0.31433
210.000	0.59506	0.16909	0.24910	-0.34019
211.000	0.50808	0.11936	0.25108	-0.32427
212.000	0.49028	0.14920	0.24119	-0.43170
213.000	0.50610	0.10345	0.19770	-0.33820
214.000	0.56738	0.10146	0.21549	-0.33024
215.000	0.55157	0.15517	0.22340	-0.35013
216.000	0.60692	0.20291	0.18979	-0.36008
217.000	0.54168	0.17108	0.21549	-0.34616
218.000	0.42900	0.12334	0.21154	-0.33621
219.000	0.42702	0.15915	0.22933	-0.34417
220.000	0.52587	0.15915	0.25108	-0.38992
221.000	0.51005	0.12732	0.21945	-0.35411
222.000	0.50808	0.09947	0.22735	-0.33024
223.000	0.51796	0.21684	0.24515	-0.36008
224.000	0.47842	0.16114	0.21747	-0.39191
225.000	0.51796	0.14323	0.20758	-0.31632
226.000	0.46261	0.11936	0.22538	-0.34814
227.000	0.46459	0.13329	0.21945	-0.32427
228.000	0.51796	0.18103	0.20561	-0.33422
229.000	0.55157	0.12135	0.19572	-0.35610
230.000	0.50017	0.14920	0.18979	-0.32626
231.000	0.56343	0.19297	0.16409	-0.33621
232.000	0.53378	0.15119	0.21549	-0.34019
233.000	0.52191	0.12533	0.20758	-0.38196
234.000	0.54564	0.14323	0.20165	-0.37202
235.000	0.43691	0.14920	0.21352	-0.39788
236.000	0.52982	0.10345	0.20363	-0.36406
237.000	0.55947	0.16710	0.25305	-0.31432
238.000	0.48435	0.16711	0.25701	-0.35212
239.000	0.50215	0.17307	0.21549	-0.36406
240.000	0.45272	0.10544	0.20363	-0.36605
241.000	0.44877	0.10544	0.19375	-0.35809
242.000	0.39144	0.11737	0.19375	-0.33024
243.000	0.46854	0.15119	0.19968	-0.30040
244.000	0.45272	0.12334	0.21549	-0.35809
245.000	0.47249	0.10942	0.22538	-0.32427
246.000	0.48040	0.18899	0.22340	-0.35610
247.000	0.40528	0.15915	0.24317	-0.30040
248.000	0.46261	0.14323	0.19968	-0.30239
249.000	0.51203	0.16909	0.19572	-0.29841
250.000	0.48040	0.14920	0.21352	-0.30637
251.000	0.47645	0.10743	0.22142	-0.34218
252.000	0.54366	0.17506	0.21154	-0.33422
253.000	0.51005	0.09748	0.21352	-0.32427
254.000	0.56738	0.15716	0.18979	-0.37997
255.000	0.53773	0.11936	0.22933	-0.36207
256.000	0.47842	0.15119	0.24119	-0.36207
257.000	0.46261	0.10345	0.22538	-0.33422
258.000	0.47052	0.16114	0.18781	-0.32427
259.000	0.54761	0.14522	0.18781	-0.33223
260.000	0.47447	0.14721	0.20956	-0.30637
261.000	0.43889	0.13329	0.17002	-0.31831
262.000	0.50017	0.15318	0.17595	-0.29443
263.000	0.50610	0.11339	0.17200	-0.33820
264.000	0.49028	0.12533	0.16804	-0.31433
265.000	0.49819	0.18302	0.18386	-0.33621
266.000	0.48040	0.15517	0.17398	-0.37600
267.000	0.56936	0.21883	0.22538	-0.32626
268.000	0.54761	0.10742	0.23329	-0.38594
269.000	0.55354	0.19098	0.23329	-0.37401
270.000	0.47052	0.11936	0.17200	-0.37401
271.000	0.57331	0.16909	0.18386	-0.35013
272.000	0.53378	0.19893	0.20363	-0.37003
273.000	0.53180	0.20490	0.17398	-0.37401
274.000	0.54366	0.23076	0.21549	-0.36406
275.000	0.55354	0.18501	0.18979	-0.32626
276.000	0.55157	0.22479	0.16211	-0.40783
277.000	0.60296	0.24071	0.21154	-0.31035
278.000	0.52784	0.17705	0.21352	-0.28647
279.000	0.45668	0.16313	0.21747	-0.37401
280.000	0.61285	0.26259	0.21747	-0.36804
281.000	0.57529	0.26259	0.20561	-0.31433
282.000	0.51994	0.25464	0.19770	-0.35411
283.000	0.53378	0.20689	0.18781	-0.37600
284.000	0.57331	0.19495	0.19375	-0.36605
285.000	0.53773	0.21286	0.18979	-0.34815
286.000	0.58320	0.17108	0.18979	-0.36207
287.000	0.57529	0.25662	0.19770	-0.37202
288.000	0.52191	0.22082	0.18781	-0.37997
289.000	0.57727	0.20888	0.24317	-0.40782
290.000	0.47447	0.21684	0.21549	-0.37798
291.000	0.51401	0.21087	0.21352	-0.35013
292.000	0.54959	0.23474	0.22142	-0.36008
293.000	0.46261	0.21684	0.21747	-0.32626
294.000	0.52982	0.24867	0.23329	-0.33820
295.000	0.55552	0.19694	0.21154	-0.34019
296.000	0.56936	0.26657	0.20165	-0.32825
297.000	0.54564	0.26060	0.18386	-0.35610
298.000	0.50412	0.23275	0.17991	-0.37401
299.000	0.55354	0.31033	0.21352	-0.35411
300.000	0.53378	0.22281	0.18188	-0.38196
301.000	0.53378	0.24071	0.17398	-0.34616
302.000	0.49819	0.21883	0.18188	-0.31035
303.000	0.52982	0.24071	0.21549	-0.29244
304.000	0.53971	0.21684	0.24317	-0.31830
305.000	0.53378	0.25861	0.19968	-0.30836
306.000	0.57331	0.21286	0.18979	-0.33024
307.000	0.56145	0.26060	0.19177	-0.29244
308.000	0.57924	0.23474	0.18781	-0.29642
309.000	0.56738	0.26060	0.17595	-0.30438
310.000	0.55947	0.26657	0.16409	-0.24470
311.000	0.56936	0.23474	0.17793	-0.28051
312.000	0.58517	0.30834	0.19968	-0.32228
313.000	0.53971	0.29442	0.18979	-0.31433
314.000	0.62273	0.32624	0.18188	-0.32626
315.000	0.53575	0.26458	0.19177	-0.26260
316.000	0.60296	0.26856	0.21154	-0.28846
317.000	0.54366	0.26060	0.25503	-0.31234
318.000	0.51401	0.23474	0.25701	-0.32427
319.000	0.58517	0.25861	0.14827	-0.33223
320.000	0.51401	0.27851	0.22735	-0.34417
321.000	0.57133	0.21883	0.17595	-0.30438
322.000	0.54366	0.28050	0.17991	-0.29841
323.000	0.57133	0.30437	0.20165	-0.31632
324.000	0.50610	0.24867	0.19968	-0.32228
325.000	0.55157	0.21286	0.20758	-0.31234
326.000	0.53773	0.30039	0.20363	-0.30239
327.000	0.49424	0.23673	0.17991	-0.32228
328.000	0.52191	0.23673	0.21549	-0.27056
329.000	0.51005	0.30636	0.15618	-0.29841
330.000	0.50215	0.24668	0.16211	-0.29642
331.000	0.47842	0.26259	0.18781	-0.34019
332.000	0.38551	0.30437	0.14827	-0.32427
333.000	0.40133	0.35411	0.09490	-0.31632
334.000	0.38156	0.36008	0.06722	-0.32626
335.000	0.19770	0.40186	-0.05733	-0.27454
336.000	0.24910	0.36207	-0.09885	-0.29244
337.000	0.14827	0.39589	-0.13048	-0.30438
338.000	0.00989	0.40982	-0.25305	-0.23873
339.000	-0.03361	0.41777	-0.29259	-0.24470
340.000	-0.07117	0.48939	-0.40528	-0.18302
341.000	-0.17398	0.46751	-0.42109	-0.18899
342.000	-0.14037	0.49735	-0.52982	-0.16512
343.000	-0.17991	0.47745	-0.45865	-0.17904
344.000	-0.16014	0.54907	-0.42307	-0.13329
345.000	-0.19375	0.44960	-0.45272	-0.10345
346.000	-0.16014	0.53116	-0.41516	-0.09151
347.000	-0.14037	0.40584	-0.36376	-0.10743
348.000	-0.05536	0.47347	-0.34795	-0.08157
349.000	-0.03559	0.46353	-0.29852	-0.05968
350.000	0.03559	0.37401	-0.20561	-0.10345
351.000	0.12060	0.39788	-0.18781	-0.12334
352.000	0.09885	0.33621	-0.15618	-0.14324
353.000	0.17002	0.41777	-0.12653	-0.16512
354.000	0.18584	0.36008	-0.13048	-0.17507
355.000	0.19572	0.37997	-0.14827	-0.16512
356.000	0.23526	0.39788	-0.12850	-0.21486
357.000	0.30643	0.39986	-0.13839	-0.22083
358.000	0.24317	0.44363	-0.11269	-0.17905
359.000	0.19572	0.38196	-0.11269	-0.17507
360.000	0.16804	0.42374	-0.09490	-0.22878
361.000	0.15816	0.42374	-0.11467	-0.20093
362.000	0.19968	0.48740	-0.13246	-0.16711
363.000	0.14827	0.44960	-0.13246	-0.18900
364.000	0.14037	0.42971	-0.14037	-0.16910
365.000	0.12455	0.36406	-0.09292	-0.14722
366.000	0.20758	0.45159	-0.10083	-0.12533
367.000	0.11269	0.49138	-0.13444	-0.15120
368.000	0.18386	0.41578	-0.11467	-0.16711
369.000	0.14827	0.42374	-0.13246	-0.11937
370.000	0.24119	0.47944	-0.13246	-0.13926
371.000	0.15025	0.48342	-0.13444	-0.13727
372.000	0.16804	0.51326	-0.15223	-0.18701
373.000	0.14630	0.49735	-0.13048	-0.13329
374.000	0.06722	0.49337	-0.14827	-0.14722
375.000	0.14037	0.43369	-0.13444	-0.24868
376.000	0.15816	0.49933	-0.15223	-0.17507
377.000	0.18386	0.54111	-0.14630	-0.13329
378.000	0.22933	0.49137	-0.14234	-0.17507
379.000	0.12060	0.50928	-0.14234	-0.15319
380.000	0.12455	0.49735	-0.17793	-0.15716
381.000	0.10478	0.50132	-0.14827	-0.13727
382.000	0.15618	0.46751	-0.16804	-0.13727
383.000	0.13444	0.44960	-0.11071	-0.12533
384.000	0.15025	0.51326	-0.08106	-0.15716
385.000	0.15223	0.51923	-0.13048	-0.13727
386.000	0.12257	0.51724	-0.16211	-0.13130
387.000	0.17398	0.51724	-0.13839	-0.13329
388.000	0.22735	0.54111	-0.15816	-0.10544
389.000	0.15025	0.53116	-0.16014	-0.14722
390.000	0.26096	0.53713	-0.11467	-0.11937
391.000	0.18584	0.54310	-0.16607	-0.15716
392.000	0.26096	0.51922	-0.11467	-0.14523
393.000	0.16409	0.49337	-0.12060	-0.14921
394.000	0.22340	0.53116	-0.14432	-0.18701
395.000	0.22933	0.53116	-0.11862	-0.14125
396.000	0.22142	0.50928	-0.15025	-0.12334
397.000	0.15025	0.52519	-0.15618	-0.09549
398.000	0.16804	0.54111	-0.19572	-0.09947
399.000	0.17793	0.54111	-0.17595	-0.07759
400.000	0.25701	0.57492	-0.14432	-0.06366
401.000	0.21549	0.56100	-0.13246	-0.08952
402.000	0.25503	0.57293	-0.11862	-0.06963
403.000	0.22340	0.54310	-0.17991	-0.06366
404.000	0.20165	0.53514	-0.13444	-0.08356
405.000	0.18188	0.55105	-0.14827	-0.10743
406.000	0.17991	0.55901	-0.15618	-0.10942
407.000	0.21549	0.57890	-0.13839	-0.06167
408.000	0.28864	0.56299	-0.12850	-0.10942
409.000	0.23329	0.54111	-0.17793	-0.07560
410.000	0.22933	0.56100	-0.12850	-0.11340
411.000	0.21154	0.51525	-0.16607	-0.09748
412.000	0.28073	0.58089	-0.14234	-0.06565
413.000	0.20363	0.53514	-0.15223	-0.07560
414.000	0.17595	0.55901	-0.16211	-0.09350
415.000	0.14234	0.52122	-0.12653	-0.10345
416.000	0.18979	0.53116	-0.16607	-0.02586
417.000	0.17002	0.53116	-0.17595	-0.08753
418.000	0.18188	0.53514	-0.15025	-0.03979
419.000	0.18584	0.42971	-0.11664	-0.08356
420.000	0.27282	0.54707	-0.12060	-0.07361
421.000	0.23329	0.58885	-0.18584	-0.06565
422.000	0.17200	0.55105	-0.17595	-0.07759
423.000	0.13839	0.56100	-0.13444	-0.10345
424.000	0.20561	0.54707	-0.12653	-0.09549
425.000	0.23724	0.53514	-0.14630	-0.15915
426.000	0.17991	0.46353	-0.14234	-0.09350
427.000	0.18781	0.49337	-0.15223	-0.09350
428.000	0.22340	0.54111	-0.17793	-0.06963
429.000	0.20561	0.57691	-0.13839	-0.07958
430.000	0.15816	0.56299	-0.17002	-0.11937
431.000	0.21352	0.52917	-0.14827	-0.10544
432.000	0.16607	0.50331	-0.10874	-0.14324
433.000	0.18188	0.53315	-0.09490	-0.12533
434.000	0.24712	0.58686	-0.10676	-0.12136
435.000	0.12060	0.51127	-0.09687	-0.12931
436.000	0.18584	0.47148	-0.11467	-0.09947
437.000	0.21945	0.54707	-0.09490	-0.14324
438.000	0.26492	0.59481	-0.10280	-0.15518
439.000	0.17200	0.59084	-0.10083	-0.11141
440.000	0.17200	0.57890	-0.09687	-0.13329
441.000	0.21154	0.57095	-0.11664	-0.08952
442.000	0.24515	0.58288	-0.17200	-0.08157
443.000	0.20363	0.60078	-0.12257	-0.07560
444.000	0.15223	0.61471	-0.09490	-0.09549
445.000	0.18188	0.59681	-0.10676	-0.15319
446.000	0.18979	0.59283	-0.12455	-0.09947
447.000	0.19375	0.50530	-0.12455	-0.07560
448.000	0.19177	0.56896	-0.12653	-0.13926
449.000	0.14630	0.54907	-0.11862	-0.10345
450.000	0.25899	0.52917	-0.08897	-0.13727
451.000	0.23526	0.57094	-0.12060	-0.10942
452.000	0.20561	0.55702	-0.16014	-0.10743
453.000	0.20363	0.60277	-0.10478	-0.12533
454.000	0.18188	0.53514	-0.11862	-0.15716
455.000	0.13246	0.53116	-0.14630	-0.15319
456.000	0.17991	0.53315	-0.09292	-0.12334
457.000	0.23724	0.62067	-0.11467	-0.08157
458.000	0.15421	0.62466	-0.09687	-0.15518
459.000	0.18584	0.49138	-0.13641	-0.14921
460.000	0.12653	0.61670	-0.11269	-0.13528
461.000	0.26294	0.60675	-0.07710	-0.11937
462.000	0.23329	0.58686	-0.11467	-0.12334
463.000	0.29259	0.59680	-0.11269	-0.16711
464.000	0.25108	0.53116	-0.09490	-0.15319
465.000	0.23131	0.65250	-0.09885	-0.12136
466.000	0.27085	0.54707	-0.09885	-0.17905
467.000	0.37167	0.56099	-0.13839	-0.14523
468.000	0.21154	0.59482	-0.14234	-0.13926
469.000	0.19968	0.56896	-0.09490	-0.12732
470.000	0.17991	0.59283	-0.16014	-0.16512
471.000	0.18979	0.58487	-0.15025	-0.14125
472.000	0.16804	0.56697	-0.11664	-0.14722
473.000	0.22735	0.54707	-0.12060	-0.13926
474.000	0.16804	0.53912	-0.11071	-0.14523
475.000	0.24712	0.61073	-0.12257	-0.16313
476.000	0.20758	0.58686	-0.12850	-0.05769
477.000	0.18584	0.58885	-0.11071	-0.12533
478.000	0.32422	0.55901	-0.11862	-0.13329
479.000	0.23724	0.60078	-0.11664	-0.14125
480.000	0.26689	0.64255	-0.09687	-0.12533
481.000	0.23131	0.57691	-0.11467	-0.13727
482.000	0.21549	0.55304	-0.08501	-0.12732
483.000	0.20165	0.61073	-0.12850	-0.13528
484.000	0.24515	0.57691	-0.09094	-0.13926
485.000	0.24910	0.63261	-0.09885	-0.14921
486.000	0.18386	0.54310	-0.12257	-0.17706
487.000	0.21945	0.55901	-0.15618	-0.15319
488.000	0.16804	0.53315	-0.11071	-0.15120
489.000	0.22340	0.59680	-0.11071	-0.13528
490.000	0.23922	0.64057	-0.09687	-0.16512
491.000	0.26689	0.60675	-0.10874	-0.15120
492.000	0.21747	0.59879	-0.15025	-0.10544
493.000	0.25503	0.57890	-0.09687	-0.16711
494.000	0.16211	0.53514	-0.11071	-0.13528
495.000	0.18188	0.60874	-0.11071	-0.15915
496.000	0.29457	0.57890	-0.12850	-0.17706
497.000	0.27876	0.58089	-0.11071	-0.17308
498.000	0.22735	0.57293	-0.15421	-0.16910
499.000	0.17398	0.50331	-0.15025	-0.19496
500.000	0.25701	0.56100	-0.12060	-0.20491
501.000	0.16607	0.52917	-0.13444	-0.18502
502.000	0.27085	0.54707	-0.17991	-0.20491
503.000	0.17991	0.61471	-0.15025	-0.19098
504.000	0.22142	0.66842	-0.09885	-0.20690
505.000	0.17398	0.61272	-0.11467	-0.17109
506.000	0.22538	0.55901	-0.11862	-0.17109
507.000	0.28864	0.60874	-0.08106	-0.18502
508.000	0.21352	0.58885	-0.13246	-0.17706
509.000	0.24712	0.54508	-0.13048	-0.20889
510.000	0.25899	0.56100	-0.10676	-0.16114
511.000	0.27085	0.57293	-0.14432	-0.18104
512.000	0.21747	0.56498	-0.10478	-0.15716
513.000	0.21352	0.56299	-0.10478	-0.20093
514.000	0.23922	0.57094	-0.10083	-0.22679
515.000	0.22538	0.60874	-0.14234	-0.22083
516.000	0.27282	0.61272	-0.13048	-0.17905
517.000	0.23131	0.58686	-0.11071	-0.22679
518.000	0.24515	0.63659	-0.13048	-0.19695
519.000	0.20165	0.57294	-0.12850	-0.16114
520.000	0.24515	0.55105	-0.09885	-0.20889
521.000	0.13641	0.57890	-0.10280	-0.19496
522.000	0.25305	0.64454	-0.11664	-0.16910
523.000	0.17595	0.63062	-0.17595	-0.12732
524.000	0.21747	0.57293	-0.10083	-0.18104
525.000	0.23922	0.59680	-0.10280	-0.14722
526.000	0.24910	0.60277	-0.12455	-0.13130
527.000	0.26096	0.57691	-0.13839	-0.08952
528.000	0.25108	0.63460	-0.14827	-0.11738
529.000	0.21945	0.63858	-0.10478	-0.12334
530.000	0.22340	0.60874	-0.12653	-0.11141
531.000	0.19968	0.57890	-0.13444	-0.09350
532.000	0.20956	0.57691	-0.17991	-0.09947
533.000	0.21154	0.60277	-0.10874	-0.10743
534.000	0.22735	0.57293	-0.12455	-0.10544
535.000	0.21945	0.57691	-0.12850	-0.12732
536.000	0.17991	0.53713	-0.12455	-0.11141
537.000	0.24317	0.58885	-0.13246	-0.11340
538.000	0.16211	0.61670	-0.16014	-0.08555
539.000	0.20363	0.62068	-0.14827	-0.11937
540.000	0.22735	0.63858	-0.13246	-0.09947
541.000	0.25503	0.63858	-0.12060	-0.14324
542.000	0.14630	0.60874	-0.11071	-0.11738
543.000	0.17991	0.66245	-0.14234	-0.11141
544.000	0.18979	0.59681	-0.12653	-0.06764
545.000	0.18584	0.60675	-0.13246	-0.11340
546.000	0.19572	0.61272	-0.11862	-0.16313
547.000	0.21747	0.57691	-0.11269	-0.10544
548.000	0.17398	0.62664	-0.12653	-0.12931
549.000	0.17991	0.58885	-0.10280	-0.14921
550.000	0.22735	0.59482	-0.11664	-0.16512
551.000	0.19968	0.59084	-0.17398	-0.14523
552.000	0.19968	0.64654	-0.13839	-0.17109
553.000	0.18188	0.63659	-0.13246	-0.16512
554.000	0.22735	0.61670	-0.14630	-0.14921
555.000	0.17793	0.62863	-0.13641	-0.16313
556.000	0.22538	0.62068	-0.11071	-0.13926
557.000	0.14630	0.64853	-0.14234	-0.16711
558.000	0.22538	0.60874	-0.14234	-0.20491
559.000	0.10280	0.56896	-0.11664	-0.18303
560.000	0.21352	0.59084	-0.08897	-0.23475
561.000	0.17793	0.61471	-0.13048	-0.18104
562.000	0.20165	0.56299	-0.15618	-0.18701
563.000	0.17398	0.57890	-0.14432	-0.18900
564.000	0.21154	0.53514	-0.10874	-0.22282
565.000	0.18584	0.56498	-0.13246	-0.18900
566.000	0.19177	0.59283	-0.10478	-0.20093
567.000	0.16014	0.57691	-0.08897	-0.17706
568.000	0.20561	0.56697	-0.09687	-0.21685
569.000	0.21945	0.60078	-0.09687	-0.18502
570.000	0.16607	0.52122	-0.12455	-0.17905
571.000	0.17002	0.56498	-0.04943	-0.22679
572.000	0.20956	0.57691	-0.10874	-0.16313
573.000	0.22340	0.58686	-0.12850	-0.15518
574.000	0.25503	0.59879	-0.08897	-0.19695
575.000	0.24119	0.61272	-0.11862	-0.17905
576.000	0.18979	0.57492	-0.10676	-0.19695
577.000	0.18188	0.58487	-0.10478	-0.21088
578.000	0.19770	0.66643	-0.12257	-0.20889
579.000	0.20561	0.57095	-0.08303	-0.23475
580.000	0.24910	0.65250	-0.13641	-0.22679
581.000	0.20956	0.62068	-0.10280	-0.22083
582.000	0.14630	0.54509	-0.09687	-0.26658
583.000	0.20956	0.63858	-0.07315	-0.21685
584.000	0.14037	0.59482	-0.11862	-0.23674
585.000	0.20363	0.62664	-0.07117	-0.25266
586.000	0.15025	0.64455	-0.08106	-0.24470
587.000	0.19375	0.59880	-0.06524	-0.24669
588.000	0.13641	0.59283	-0.08897	-0.26260
589.000	0.10676	0.61670	-0.06722	-0.24669
590.000	0.18979	0.61073	-0.06920	-0.19496
591.000	0.23131	0.60874	-0.12850	-0.21287
592.000	0.14827	0.55106	-0.12257	-0.22878
593.000	0.22933	0.61869	-0.09885	-0.21287
594.000	0.14432	0.58885	-0.11467	-0.25664
595.000	0.19968	0.56299	-0.10280	-0.25664
596.000	0.17002	0.58089	-0.11664	-0.27653
597.000	0.24515	0.59481	-0.08699	-0.23276
598.000	0.21154	0.63261	-0.11664	-0.20292
599.000	0.19968	0.58288	-0.07908	-0.19894
600.000	0.15816	0.52917	-0.08303	-0.23276
601.000	0.14630	0.57095	-0.10280	-0.22679
602.000	0.17991	0.61670	-0.03954	-0.27255
603.000	0.16409	0.64455	-0.07710	-0.22878
604.000	0.16409	0.57294	-0.06920	-0.19297
605.000	0.10478	0.68035	-0.07908	-0.20491
606.000	0.19177	0.57691	-0.08303	-0.23873
607.000	0.16014	0.59283	-0.10478	-0.18502
608.000	0.21352	0.59482	-0.08501	-0.20690
609.000	0.18979	0.57691	-0.12060	-0.25664
610.000	0.17793	0.54111	-0.07908	-0.28648
611.000	0.17398	0.58686	-0.10874	-0.27255
612.000	0.15421	0.60874	-0.04943	-0.25664
613.000	0.13641	0.52122	-0.07908	-0.29046
614.000	0.20363	0.59681	-0.05536	-0.27056
615.000	0.20165	0.59482	-0.05733	-0.24271
616.000	0.20561	0.67836	-0.08897	-0.20491
617.000	0.14037	0.62267	-0.03756	-0.24470
618.000	0.19375	0.58686	-0.03163	-0.25664
619.000	0.16014	0.59880	-0.02966	-0.24868
620.000	0.14432	0.57890	-0.07315	-0.23873
621.000	0.11467	0.59482	-0.05733	-0.24470
622.000	0.21154	0.68433	-0.09490	-0.22083
623.000	0.20956	0.60675	-0.09490	-0.23276
624.000	0.09885	0.60675	-0.10083	-0.21685
625.000	0.11664	0.60278	-0.06920	-0.25266
626.000	0.09094	0.65847	-0.05338	-0.25266
627.000	0.13246	0.58089	-0.05931	-0.29046
628.000	0.16804	0.58885	-0.08106	-0.19496
629.000	0.13641	0.59084	-0.09885	-0.24470
630.000	0.12850	0.58686	-0.11467	-0.22083
631.000	0.16014	0.59880	-0.10280	-0.22480
632.000	0.17595	0.60079	-0.10874	-0.18900
633.000	0.15421	0.59482	-0.09687	-0.24072
634.000	0.16211	0.54310	-0.14234	-0.18502
635.000	0.13444	0.54708	-0.10676	-0.18900
636.000	0.20956	0.60277	-0.10478	-0.18701
637.000	0.21352	0.62664	-0.10478	-0.22282
638.000	0.24515	0.59680	-0.09687	-0.21287
639.000	0.18188	0.58089	-0.09094	-0.23276
640.000	0.14037	0.60079	-0.08699	-0.24669
641.000	0.16409	0.60675	-0.09094	-0.22878
642.000	0.13048	0.66245	-0.06722	-0.28250
643.000	0.15223	0.62068	-0.08303	-0.25664
644.000	0.12455	0.55702	-0.04547	-0.24868
645.000	0.20165	0.61272	-0.13048	-0.22282
646.000	0.15223	0.61471	-0.10478	-0.16114
647.000	0.21154	0.59084	-0.09292	-0.18303
648.000	0.11269	0.62864	-0.09885	-0.25664
649.000	0.18979	0.59681	-0.12257	-0.23077
650.000	0.18188	0.59880	-0.09292	-0.22878
651.000	0.16409	0.60874	-0.09094	-0.21884
652.000	0.12257	0.60675	-0.10874	-0.22480
653.000	0.17002	0.62068	-0.07513	-0.22679
654.000	0.18188	0.63062	-0.06920	-0.23276
655.000	0.15618	0.61272	-0.08106	-0.22083
656.000	0.10083	0.57493	-0.10676	-0.24669
657.000	0.12455	0.59283	-0.08897	-0.22480
658.000	0.17002	0.61073	-0.07908	-0.22282
659.000	0.09292	0.62466	-0.10083	-0.24072
660.000	0.13246	0.55901	-0.06524	-0.23276
661.000	0.17002	0.67438	-0.06920	-0.24271
662.000	0.11862	0.64654	-0.02966	-0.26061
663.000	0.16211	0.58885	-0.07710	-0.25067
664.000	0.14630	0.59084	-0.06920	-0.28449
665.000	0.14827	0.59084	-0.02966	-0.28250
666.000	0.05140	0.60278	-0.05733	-0.23674
667.000	0.09094	0.55106	-0.01582	-0.27653
668.000	0.09687	0.48939	-0.09292	-0.24271
669.000	0.15618	0.57095	-0.04152	-0.28250
670.000	0.11269	0.54907	-0.05931	-0.26857
671.000	0.12257	0.49138	-0.05536	-0.23674
672.000	0.06722	0.52917	-0.08106	-0.27653
673.000	0.13048	0.51923	-0.08106	-0.26061
674.000	0.15223	0.55106	-0.06722	-0.24669
675.000	0.11071	0.56697	-0.05536	-0.21685
676.000	0.14234	0.44960	-0.07908	-0.29642
677.000	0.04152	0.49138	-0.07117	-0.25664
678.000	0.07908	0.55702	-0.09292	-0.26459
679.000	0.15025	0.51326	-0.07513	-0.26260
680.000	0.12653	0.53116	-0.05931	-0.28648
681.000	0.08501	0.58089	-0.06722	-0.28051
682.000	0.11862	0.54310	-0.10874	-0.24669
683.000	0.07908	0.56896	-0.09292	-0.26260
684.000	0.14037	0.49933	-0.04745	-0.25862
685.000	0.19375	0.59482	-0.11071	-0.25664
686.000	0.07710	0.60079	-0.11269	-0.27255
687.000	0.09885	0.54310	-0.10083	-0.24271
688.000	0.11071	0.58885	-0.09687	-0.25067
689.000	0.19572	0.57095	-0.07710	-0.24271
690.000	0.17991	0.56697	-0.08897	-0.25266
691.000	0.12257	0.54310	-0.11269	-0.24669
692.000	0.10083	0.60477	-0.11269	-0.26658
693.000	0.14827	0.59681	-0.10280	-0.21287
694.000	0.17991	0.59482	-0.11071	-0.22083
695.000	0.11862	0.57692	-0.07710	-0.19894
696.000	0.09885	0.61272	-0.09292	-0.22679
697.000	0.05536	0.63858	-0.08897	-0.19297
698.000	0.05733	0.56498	-0.10676	-0.17507
699.000	0.14037	0.54509	-0.13048	-0.17905
700.000	0.04745	0.58487	-0.10083	-0.15915
701.000	0.10083	0.57294	-0.11467	-0.18502
702.000	0.09094	0.58686	-0.12455	-0.20093
703.000	0.12060	0.57095	-0.12060	-0.21088
704.000	0.04152	0.58686	-0.12653	-0.22480
705.000	0.04349	0.57692	-0.06524	-0.20690
706.000	0.15421	0.59880	-0.05338	-0.22878
707.000	0.09094	0.62665	-0.02570	-0.25067
708.000	0.09094	0.58288	-0.06326	-0.25465
709.000	0.09094	0.62068	-0.07710	-0.21884
710.000	0.09687	0.58686	-0.10083	-0.19695
711.000	0.09094	0.60079	-0.05338	-0.23873
712.000	0.09094	0.62267	-0.10478	-0.19894
713.000	0.06524	0.67638	-0.05733	-0.23475
714.000	0.02570	0.58885	-0.06524	-0.25067
715.000	0.09885	0.58487	-0.07710	-0.18303
716.000	-0.05536	0.59482	-0.09490	-0.18104
717.000	0.06722	0.66046	-0.10083	-0.14722
718.000	-0.01186	0.57493	-0.06326	-0.17905
719.000	0.03756	0.56100	-0.08897	-0.18900
720.000	0.06722	0.59482	-0.06326	-0.20491
721.000	0.08501	0.61471	-0.06326	-0.21287
722.000	0.04547	0.61869	-0.10083	-0.27056
723.000	0.05733	0.55901	-0.06524	-0.21088
724.000	0.10676	0.59084	-0.10874	-0.24868
725.000	0.04943	0.59681	-0.07513	-0.24470
726.000	0.07117	0.56498	-0.06920	-0.29046
727.000	0.00989	0.54509	-0.07117	-0.30239
728.000	0.05536	0.57692	-0.06129	-0.27852
729.000	0.01186	0.59482	-0.11071	-0.29244
730.000	0.01186	0.56896	-0.09292	-0.23674
731.000	0.05338	0.59681	-0.09292	-0.25266
732.000	0.07117	0.62267	-0.07513	-0.31035
733.000	0.00000	0.56697	-0.04943	-0.32229
734.000	-0.00791	0.57294	-0.06722	-0.29443
735.000	0.05931	0.56498	-0.02768	-0.29244
736.000	0.03756	0.53713	-0.03756	-0.24271
737.000	0.06524	0.56697	-0.04745	-0.27255
738.000	0.08303	0.54509	-0.06722	-0.27255
739.000	0.07117	0.58885	-0.04745	-0.23873
740.000	0.03163	0.53315	-0.03361	-0.26658
741.000	0.05536	0.49337	-0.02570	-0.30438
742.000	0.03954	0.56896	-0.05733	-0.28449
743.000	0.08303	0.57493	-0.02372	-0.28648
744.000	0.02570	0.58487	-0.06326	-0.26857
745.000	0.06920	0.59283	-0.05931	-0.28250
746.000	-0.00989	0.58487	-0.09885	-0.25862
747.000	0.01582	0.61670	-0.06129	-0.23276
748.000	0.10478	0.58288	-0.08106	-0.22480
749.000	-0.01977	0.55702	-0.03361	-0.21884
750.000	-0.05140	0.55106	-0.06129	-0.25862
751.000	-0.00791	0.61073	-0.06524	-0.23674
752.000	-0.01384	0.57493	-0.08106	-0.23674
753.000	0.01779	0.55305	-0.08106	-0.23873
754.000	-0.03756	0.50133	-0.09885	-0.24072
755.000	-0.03163	0.59084	-0.06524	-0.27255
756.000	0.01582	0.59482	-0.04349	-0.25862
757.000	0.03954	0.62068	-0.05733	-0.30239
758.000	0.02768	0.57493	-0.05140	-0.22083
759.000	0.02175	0.60079	-0.04745	-0.25664
760.000	-0.02966	0.62267	-0.06920	-0.25266
761.000	0.04745	0.60079	-0.04547	-0.21884
762.000	-0.05338	0.56100	-0.10676	-0.29244
763.000	0.00989	0.53912	-0.04349	-0.23077
764.000	-0.13246	0.59084	-0.03559	-0.23276
765.000	-0.00593	0.56299	-0.07315	-0.26260
766.000	-0.11071	0.54310	-0.08699	-0.27056
767.000	-0.11664	0.60079	-0.05931	-0.22282
768.000	-0.06524	0.62267	-0.04745	-0.19894
769.000	-0.03559	0.60676	-0.09490	-0.19098
770.000	-0.11269	0.66245	-0.17398	-0.15517
771.000	-0.12455	0.74997	-0.21747	-0.06565
772.000	-0.27876	0.82157	-0.31236	-0.01393
773.000	-0.29655	0.94886	-0.36574	0.06764
774.000	-0.32422	1.08410	-0.51401	0.19098
775.000	-0.46854	1.19743	-0.63657	0.37399
776.000	-0.67413	1.22721	-0.72354	0.49333
777.000	-0.65041	1.44990	-0.80656	0.55896
778.000	-0.81249	1.57309	-0.92318	0.72402
779.000	-0.81447	1.70626	-0.97852	0.87715
780.000	-0.85598	1.82151	-1.01014	0.92884
781.000	-0.88167	1.91886	-1.02595	1.05411
782.000	-0.90539	1.96852	-1.04374	1.09984
783.000	-0.92318	2.02811	-1.06943	1.08790
784.000	-0.75122	2.15336	-0.95876	1.15554
785.000	-0.72750	2.05603	-0.89749	1.11778
786.000	-0.67808	1.99446	-0.84412	1.10985
787.000	-0.58715	1.82161	-0.76901	1.08402
788.000	-0.50215	1.82363	-0.71168	0.94085
789.000	-0.51796	1.68450	-0.63657	0.87921
790.000	-0.49226	1.63879	-0.57331	0.78972
791.000	-0.43098	1.52351	-0.51598	0.70420
792.000	-0.46854	1.52350	-0.50412	0.60076
793.000	-0.47842	1.44795	-0.46459	0.55900
794.000	-0.45272	1.36843	-0.42702	0.50529
795.000	-0.49028	1.37638	-0.46656	0.43566
796.000	-0.49226	1.32866	-0.47447	0.43964
797.000	-0.59901	1.30676	-0.45272	0.42174
798.000	-0.60099	1.28887	-0.45865	0.47346
799.000	-0.59506	1.39027	-0.48435	0.52120
800.000	-0.60494	1.48371	-0.53575	0.43765
801.000	-0.58715	1.38431	-0.53180	0.48141
802.000	-0.55354	1.46583	-0.52982	0.52517
803.000	-0.53378	1.40619	-0.58715	0.55501
804.000	-0.58715	1.44793	-0.58122	0.55302
805.000	-0.64250	1.41411	-0.59506	0.59081
806.000	-0.52784	1.43800	-0.59110	0.54904
807.000	-0.56540	1.41016	-0.58715	0.61070
808.000	-0.57133	1.43799	-0.58715	0.60076
809.000	-0.57331	1.45191	-0.60296	0.63258
810.000	-0.60296	1.46383	-0.62471	0.63457
811.000	-0.62668	1.42207	-0.58122	0.65645
812.000	-0.61087	1.50557	-0.61680	0.62661
813.000	-0.72750	1.47770	-0.59308	0.61070
814.000	-0.65238	1.50158	-0.62273	0.70021
815.000	-0.64052	1.47177	-0.63657	0.64849
816.000	-0.70971	1.51151	-0.63064	0.66042
817.000	-0.67808	1.50555	-0.55947	0.66839
818.000	-0.66029	1.49959	-0.61285	0.70617
819.000	-0.62866	1.55526	-0.62866	0.71612
820.000	-0.73540	1.47373	-0.64250	0.72407
821.000	-0.64052	1.50159	-0.62668	0.77778
822.000	-0.75517	1.50751	-0.63459	0.75987
823.000	-0.67215	1.62085	-0.59506	0.70419
824.000	-0.72354	1.48963	-0.57924	0.71016
825.000	-0.77296	1.46974	-0.59308	0.76982
826.000	-0.79075	1.48762	-0.63657	0.72009
827.000	-0.71959	1.49162	-0.60889	0.75391
828.000	-0.69389	1.51151	-0.59506	0.71214
829.000	-0.78482	1.49955	-0.59506	0.72607
830.000	-0.75122	1.55522	-0.58320	0.73402
831.000	-0.74331	1.53336	-0.63262	0.77181
832.000	-0.72947	1.57710	-0.60692	0.79369
833.000	-0.73936	1.47969	-0.59703	0.76982
834.000	-0.80261	1.55322	-0.56738	0.71811
835.000	-0.84017	1.50748	-0.56540	0.76386
836.000	-0.73936	1.44987	-0.55750	0.75392
837.000	-0.79075	1.50949	-0.58320	0.77977
838.000	-0.74924	1.45782	-0.58320	0.76585
839.000	-0.86388	1.49952	-0.61680	0.77579
840.000	-0.80261	1.47967	-0.58517	0.77181
841.000	-0.79075	1.42997	-0.58122	0.78375
842.000	-0.74331	1.45981	-0.56540	0.73602
843.000	-0.81842	1.54128	-0.62075	0.78971
844.000	-0.87574	1.50151	-0.57133	0.78375
845.000	-0.77691	1.53335	-0.54366	0.72607
846.000	-0.80261	1.51147	-0.57924	0.73005
847.000	-0.84610	1.47170	-0.56540	0.77977
848.000	-0.83424	1.54128	-0.55354	0.77381
849.000	-0.89353	1.48162	-0.55947	0.77182
850.000	-0.85796	1.58699	-0.53971	0.79370
851.000	-0.90539	1.50547	-0.57924	0.76983
852.000	-0.82040	1.52339	-0.61087	0.76783
853.000	-0.89353	1.49553	-0.55157	0.73403
854.000	-0.87574	1.53927	-0.51598	0.77779
855.000	-0.87574	1.48560	-0.55750	0.78375
856.000	-0.81842	1.55719	-0.54761	0.82154
857.000	-0.89156	1.56511	-0.52191	0.81359
858.000	-0.92120	1.55714	-0.53575	0.85138
859.000	-0.83819	1.52935	-0.54366	0.81359
860.000	-0.85796	1.55916	-0.56145	0.78972
861.000	-0.86388	1.56711	-0.50412	0.79768
862.000	-0.87179	1.56512	-0.50610	0.83149
863.000	-0.89946	1.54523	-0.52784	0.83746
864.000	-0.88958	1.53529	-0.49622	0.79768
865.000	-0.97852	1.52730	-0.50412	0.80365
866.000	-0.91132	1.54920	-0.52389	0.82552
867.000	-0.98840	1.57500	-0.52191	0.83149
868.000	-1.01212	1.59089	-0.54366	0.83149
869.000	-0.99236	1.59885	-0.52389	0.84939
870.000	-0.95085	1.57104	-0.50215	0.79967
871.000	-0.93702	1.57900	-0.53575	0.83348
872.000	-1.05165	1.48751	-0.46854	0.85537
873.000	-0.98840	1.56109	-0.50017	0.79569
874.000	-0.96666	1.63862	-0.49819	0.86730
875.000	-0.97259	1.54321	-0.49424	0.85536
876.000	-1.06943	1.53521	-0.47052	0.81956
877.000	-0.97457	1.58495	-0.44086	0.83349
878.000	-1.04967	1.72403	-0.48040	0.87326
879.000	-1.03386	1.48951	-0.46854	0.79769
880.000	-1.00421	1.54916	-0.44086	0.82752
881.000	-1.02991	1.53324	-0.45075	0.76785
882.000	-1.01607	1.49946	-0.48238	0.71415
883.000	-1.06351	1.50540	-0.40528	0.77581
884.000	-1.12279	1.54115	-0.44877	0.80962
885.000	-1.12675	1.52922	-0.48633	0.76586
886.000	-1.05362	1.55311	-0.46459	0.74001
887.000	-1.15639	1.49144	-0.44482	0.78178
888.000	-1.16825	1.62460	-0.42505	0.77183
889.000	-1.18406	1.48745	-0.40133	0.83548
890.000	-1.19591	1.51924	-0.38946	0.74996
891.000	-1.16825	1.59280	-0.38156	0.77780
892.000	-1.15837	1.54113	-0.42307	0.77382
893.000	-1.21370	1.59873	-0.38946	0.84543
894.000	-1.15639	1.59479	-0.39144	0.77383
895.000	-1.17615	1.54310	-0.40330	0.77382
896.000	-1.23346	1.55500	-0.37958	0.83747
897.000	-1.10698	1.63059	-0.40923	0.73007
898.000	-1.17418	1.62261	-0.36376	0.74399
899.000	-1.13663	1.61666	-0.39144	0.77383
900.000	-1.21172	1.55103	-0.39935	0.77979
901.000	-1.10501	1.51532	-0.35981	0.75991
902.000	-1.16825	1.58683	-0.34795	0.75394
903.000	-1.15046	1.60274	-0.34202	0.74996
904.000	-1.20975	1.57886	-0.31039	0.73803
905.000	-1.19591	1.54309	-0.30643	0.70819
906.000	-1.14848	1.57293	-0.34004	0.69825
907.000	-1.24334	1.54704	-0.35586	0.71217
908.000	-1.20382	1.58085	-0.34202	0.73405
909.000	-1.22160	1.54904	-0.33213	0.70222
910.000	-1.25915	1.54306	-0.32422	0.72609
911.000	-1.27891	1.56888	-0.34004	0.76389
912.000	-1.26310	1.54504	-0.31829	0.74002
913.000	-1.25915	1.56691	-0.25503	0.71615
914.000	-1.27693	1.55696	-0.29852	0.77582
915.000	-1.16429	1.53914	-0.32620	0.73405
916.000	-1.23741	1.60269	-0.33213	0.66045
917.000	-1.26903	1.57485	-0.27282	0.72212
918.000	-1.33819	1.59866	-0.27085	0.68035
919.000	-1.42513	1.53699	-0.27480	0.70820
920.000	-1.36387	1.56287	-0.27085	0.72013
921.000	-1.28088	1.55696	-0.24910	0.68632
922.000	-1.21963	1.64841	-0.24515	0.66046
923.000	-1.36980	1.55690	-0.25701	0.73207
924.000	-1.36585	1.54895	-0.24515	0.71218
925.000	-1.23939	1.59872	-0.25701	0.72809
926.000	-1.37573	1.60857	-0.22735	0.71615
927.000	-1.29669	1.60266	-0.22538	0.72212
928.000	-1.23939	1.61263	-0.23131	0.75395
929.000	-1.30064	1.67420	-0.24119	0.68433
930.000	-1.35004	1.58474	-0.19572	0.70621
931.000	-1.40142	1.63637	-0.20758	0.77583
932.000	-1.30855	1.56489	-0.23131	0.74002
933.000	-1.31052	1.57085	-0.21549	0.71417
934.000	-1.45476	1.63633	-0.25305	0.77781
935.000	-1.28681	1.63049	-0.21945	0.75196
936.000	-1.49230	1.57669	-0.20363	0.74201
937.000	-1.40932	1.59861	-0.17991	0.73804
938.000	-1.33424	1.57878	-0.19375	0.74201
939.000	-1.42710	1.63238	-0.21945	0.76986
940.000	-1.37771	1.55491	-0.18979	0.75395
941.000	-1.47649	1.52901	-0.19770	0.76389
942.000	-1.38363	1.54894	-0.20165	0.76389
943.000	-1.40932	1.55687	-0.20363	0.71019
944.000	-1.30855	1.60464	-0.22735	0.75793
945.000	-1.48440	1.54291	-0.14432	0.74997
946.000	-1.43896	1.60058	-0.16014	0.75594
947.000	-1.44883	1.51909	-0.19770	0.71019
948.000	-1.48242	1.54490	-0.19177	0.75395
949.000	-1.47254	1.49721	-0.16607	0.77782
950.000	-1.53379	1.52499	-0.12653	0.76787
951.000	-1.39746	1.62048	-0.17991	0.72212
952.000	-1.50020	1.55482	-0.11269	0.72014
953.000	-1.51996	1.56077	-0.12653	0.72014
954.000	-1.55157	1.51504	-0.09885	0.73008
955.000	-1.51008	1.55680	-0.15618	0.74400
956.000	-1.51206	1.53097	-0.12257	0.78777
957.000	-1.51798	1.64622	-0.14234	0.71019
958.000	-1.49032	1.59458	-0.12455	0.74997
959.000	-1.52391	1.55481	-0.06920	0.71019
960.000	-1.54367	1.58659	-0.11269	0.69229
961.000	-1.58910	1.54284	-0.08897	0.72213
962.000	-1.53379	1.58063	-0.10083	0.70820
963.000	-1.55157	1.55876	-0.11269	0.75196
964.000	-1.44686	1.57275	-0.10874	0.72213
965.000	-1.38758	1.66818	-0.11269	0.71616
966.000	-1.54762	1.52896	-0.08303	0.70025
967.000	-1.54762	1.58460	-0.07710	0.69826
968.000	-1.44686	1.60256	-0.08303	0.69030
969.000	-1.51996	1.56475	-0.12257	0.72411
970.000	-1.51403	1.67206	-0.10676	0.69030
971.000	-1.59305	1.62033	-0.06524	0.69627
972.000	-1.60886	1.56071	-0.14234	0.68632
973.000	-1.55157	1.56274	-0.11664	0.75793
974.000	-1.53971	1.54685	-0.14037	0.71616
975.000	-1.69972	1.52089	-0.17991	0.72013
976.000	-1.58515	1.62829	-0.13246	0.71417
977.000	-1.72145	1.59837	-0.22735	0.73803
978.000	-1.78861	1.62017	-0.21945	0.74997
979.000	-1.74120	1.68578	-0.26887	0.72809
980.000	-1.91500	1.68164	-0.33016	0.76190
981.000	-1.87353	1.68764	-0.32818	0.73206
982.000	-1.96240	1.59617	-0.42900	0.78775
983.000	-2.06310	1.74307	-0.39539	0.77780
984.000	-2.04533	1.68548	-0.42307	0.78973
985.000	-2.03151	1.62193	-0.37563	0.78178
986.000	-1.99794	1.71533	-0.31236	0.77582
987.000	-1.97227	1.65576	-0.29457	0.79173
988.000	-1.93080	1.68361	-0.26887	0.84146
989.000	-1.88143	1.69558	-0.29259	0.81163
990.000	-1.82811	1.65987	-0.20165	0.83152
991.000	-1.79848	1.65990	-0.15421	0.82158
992.000	-1.74910	1.61623	-0.12257	0.79572
993.000	-1.83798	1.69165	-0.16607	0.84743
994.000	-1.81231	1.62810	-0.13048	0.81163
995.000	-1.79848	1.55459	-0.13048	0.76986
996.000	-1.79848	1.59433	-0.18386	0.81163
997.000	-1.77676	1.62813	-0.11862	0.75594
998.000	-1.77676	1.63607	-0.18188	0.77583
999.000	-1.78466	1.60428	-0.20165	0.77782
1000.000	-1.76095	1.57648	-0.19770	0.76787
1001.000	-1.74318	1.71558	-0.12257	0.78777
1002.000	-1.88538	1.71147	-0.16607	0.81760
1003.000	-1.89723	1.57239	-0.20165	0.81362
1004.000	-1.92290	1.60614	-0.18188	0.79174
1005.000	-1.90908	1.61410	-0.10676	0.73804
1006.000	-1.92685	1.60415	-0.12060	0.73605
1007.000	-1.89328	1.67968	-0.12850	0.75395
1008.000	-1.95647	1.65776	-0.16014	0.80169
1009.000	-1.84193	1.63800	-0.10083	0.78180
1010.000	-1.90513	1.65582	-0.11269	0.82158
1011.000	-1.90710	1.57834	-0.16014	0.78578
1012.000	-1.98017	1.63986	-0.11071	0.78777
1013.000	-1.90315	1.63795	-0.17595	0.78180
1014.000	-1.95647	1.63392	-0.14827	0.79174
1015.000	-1.86168	1.63600	-0.16607	0.81561
1016.000	-1.86168	1.63202	-0.12257	0.85340
1017.000	-1.87946	1.59227	-0.14827	0.81163
1018.000	-1.84786	1.64992	-0.19968	0.82754
1019.000	-1.86563	1.62010	-0.14630	0.81163
1020.000	-1.91105	1.73727	-0.09292	0.80766
1021.000	-1.86761	1.62407	-0.10478	0.78379
1022.000	-1.84193	1.67774	-0.13641	0.80368
1023.000	-1.87353	1.65983	-0.13246	0.78777
1024.000	-1.89525	1.63398	-0.10280	0.75196
1025.000	-1.85773	1.67574	-0.14234	0.77782
1026.000	-1.86168	1.63798	-0.13641	0.81760
1027.000	-1.85378	1.63998	-0.12455	0.78975
1028.000	-1.93475	1.70745	-0.05733	0.78379
1029.000	-1.95450	1.62200	-0.16014	0.83550
1030.000	-1.86168	1.71546	-0.10874	0.82556
1031.000	-1.86168	1.61414	-0.13839	0.79174
1032.000	-1.89328	1.62405	-0.10083	0.77185
1033.000	-1.87156	1.70950	-0.11071	0.80766
1034.000	-1.93278	1.61209	-0.11269	0.79373
1035.000	-2.01571	1.66565	-0.06920	0.82357
1036.000	-2.01176	1.54248	-0.06920	0.80766
1037.000	-1.91698	1.65979	-0.05733	0.82357
1038.000	-1.94067	1.55049	-0.16804	0.78577
1039.000	-1.96832	1.60808	-0.13048	0.77981
1040.000	-1.92290	1.58826	-0.06722	0.76788
1041.000	-1.95055	1.65379	-0.12060	0.76390
1042.000	-1.99004	1.56435	-0.09687	0.73406
1043.000	-2.00189	1.59812	-0.06524	0.75196
1044.000	-1.93870	1.67764	-0.07117	0.76589
1045.000	-1.99991	1.66964	-0.08303	0.76191
1046.000	-1.99794	1.64580	-0.10478	0.76788
1047.000	-1.92093	1.64985	-0.07710	0.75793
1048.000	-1.93672	1.66175	-0.06722	0.80368
1049.000	-1.95450	1.63194	-0.08897	0.81959
1050.000	-1.92488	1.65978	-0.09094	0.81362
1051.000	-2.09469	1.59206	-0.07513	0.80368
1052.000	-1.83403	1.69960	-0.11071	0.72610
1053.000	-1.85773	1.65786	-0.11071	0.77583
1054.000	-1.96437	1.62795	-0.10676	0.75395
1055.000	-1.95647	1.70941	-0.08699	0.83948
1056.000	-1.96437	1.66967	-0.08897	0.76986
1057.000	-1.89130	1.65782	-0.07315	0.74997
1058.000	-1.91303	1.67370	-0.08897	0.73406
1059.000	-1.86168	1.63004	-0.05140	0.76987
1060.000	-1.89525	1.63597	-0.06129	0.75196
1061.000	-1.89920	1.63398	-0.06920	0.80368
1062.000	-1.96635	1.57630	-0.02570	0.79970
1063.000	-1.93278	1.67566	-0.05140	0.79771
1064.000	-1.99004	1.62197	0.00395	0.78578
1065.000	-2.00189	1.58421	-0.07710	0.80766
1066.000	-1.98214	1.63588	-0.01384	0.77384
1067.000	-1.95450	1.63988	0.00593	0.79572
1068.000	-1.95647	1.60611	0.00593	0.79771
1069.000	-1.99597	1.58620	0.02372	0.78777
1070.000	-1.99202	1.68554	-0.00593	0.79771
1071.000	-1.91500	1.60217	0.00989	0.84744
1072.000	-2.00189	1.57428	-0.02768	0.79373
1073.000	-1.93475	1.59619	-0.00593	0.79175
1074.000	-2.07889	1.54241	0.01384	0.76390
1075.000	-1.96240	1.69947	0.03954	0.75992
1076.000	-2.02361	1.57624	0.01384	0.83550
1077.000	-1.92093	1.58826	0.02768	0.78180
1078.000	-1.99794	1.59812	0.01186	0.79572
1079.000	-1.90118	1.70351	0.01977	0.81760
1080.000	-1.96635	1.67166	-0.00989	0.85341
1081.000	-2.02361	1.60406	0.04349	0.78976
1082.000	-1.83798	1.69363	-0.02768	0.80368
1083.000	-1.89920	1.55848	0.05733	0.78180
1084.000	-1.97424	1.57430	-0.01186	0.84744
1085.000	-1.94265	1.49287	0.04547	0.83948
1086.000	-2.01769	1.49280	0.01779	0.85142
1087.000	-1.93080	1.60613	0.04745	0.81561
1088.000	-1.99794	1.57031	0.03756	0.81561
1089.000	-1.91698	1.62601	-0.00198	0.81362
1090.000	-1.87551	1.60618	-0.02570	0.80965
1091.000	-1.84193	1.67575	-0.00198	0.80368
1092.000	-1.94660	1.62598	0.05536	0.80766
1093.000	-2.04335	1.56430	-0.01582	0.87330
1094.000	-1.86958	1.57241	0.00989	0.86534
1095.000	-1.95450	1.60214	0.00593	0.83550
1096.000	-2.06310	1.61196	0.01779	0.93694
1097.000	-1.97819	1.58622	0.01977	0.80965
1098.000	-1.93475	1.60017	0.02175	0.88125
1099.000	-2.06705	1.56031	0.04349	0.85142
1100.000	-2.01571	1.68949	0.04349	0.79771
1101.000	-1.98412	1.52065	0.02570	0.81561
1102.000	-1.95647	1.68557	0.02768	0.87131
1103.000	-1.97622	1.53854	0.00198	0.84943
1104.000	-2.02756	1.60604	0.02570	0.87528
1105.000	-2.03941	1.58219	0.05338	0.89120
1106.000	-2.00189	1.57626	-0.00198	0.80368
1107.000	-2.06705	1.61990	0.02768	0.82357
1108.000	-2.08482	1.55234	0.05140	0.87131
1109.000	-1.98609	1.55840	0.01384	0.88324
1110.000	-1.97029	1.59020	0.01582	0.84346
1111.000	-1.91105	1.70350	-0.00593	0.89120
1112.000	-1.93870	1.55248	0.01384	0.89716
1113.000	-2.08679	1.57419	0.06129	0.82357
1114.000	-1.97424	1.64384	0.06722	0.87131
1115.000	-2.06705	1.65368	-0.00198	0.86932
1116.000	-2.01571	1.58022	-0.01384	0.88324
1117.000	-2.00189	1.62196	-0.00395	0.85539
1118.000	-1.91500	1.58827	0.03756	0.87131
1119.000	-2.01176	1.62195	0.05140	0.88324
1120.000	-1.91303	1.58231	-0.03756	0.88921
1121.000	-2.04138	1.65569	0.01384	0.79970
1122.000	-2.10456	1.61788	0.05338	0.83948
1123.000	-2.14405	1.57811	0.03954	0.86733
1124.000	-2.01769	1.62194	0.03559	0.80965
1125.000	-2.06112	1.55832	0.04745	0.87329
1126.000	-2.11048	1.61191	0.02372	0.83948
1127.000	-2.03546	1.61795	0.03756	0.82158
1128.000	-2.02558	1.60405	0.05931	0.79175
1129.000	-2.01571	1.60208	0.05338	0.77782
1130.000	-2.08087	1.56625	0.05536	0.81561
1131.000	-2.06112	1.61594	0.03559	0.85341
1132.000	-1.97227	1.65774	0.01977	0.87727
1133.000	-2.04138	1.64774	-0.02175	0.82556
1134.000	-2.06112	1.60402	0.03559	0.78777
1135.000	-1.99991	1.66566	0.05536	0.89120
1136.000	-1.94660	1.65777	0.03163	0.87727
1137.000	-1.95055	1.58426	0.01582	0.82158
1138.000	-2.01966	1.60605	0.01779	0.87528
1139.000	-1.99991	1.71533	-0.00198	0.81760
1140.000	-2.05125	1.61396	-0.00791	0.86534
1141.000	-2.11048	1.61986	0.06326	0.83948
1142.000	-2.05520	1.61396	0.04745	0.84744
1143.000	-2.19735	1.60586	0.01977	0.82357
1144.000	-2.16576	1.55226	0.06524	0.79572
1145.000	-2.09666	1.59206	-0.02570	0.81760
1146.000	-2.08087	1.64969	0.00395	0.80567
1147.000	-2.14800	1.58208	0.00791	0.79572
1148.000	-2.05718	1.61197	-0.03361	0.79970
1149.000	-2.11443	1.59999	0.01977	0.77384
1150.000	-2.05718	1.58018	0.07513	0.74799
1151.000	-2.02361	1.54644	0.02372	0.76788
1152.000	-2.05125	1.51860	0.03361	0.82755
1153.000	-2.12233	1.50661	0.01582	0.75992
1154.000	-2.03348	1.59213	0.07710	0.75395
1155.000	-2.06902	1.57222	0.03163	0.78578
1156.000	-2.10851	1.51258	0.06722	0.78777
1157.000	-2.13615	1.60791	0.05140	0.77583
1158.000	-2.17761	1.51053	0.06326	0.74401
1159.000	-2.09864	1.44504	0.07908	0.74997
1160.000	-2.02756	1.53054	0.03559	0.72213
1161.000	-2.22696	1.62768	0.01977	0.76589
1162.000	-2.19932	1.62572	0.00593	0.76788
1163.000	-2.14405	1.58605	0.03954	0.71019
1164.000	-2.10259	1.61391	0.02372	0.76987
1165.000	-2.11048	1.59999	0.03163	0.77185
1166.000	-2.10456	1.58212	0.06326	0.78777
1167.000	-2.09074	1.59207	0.04152	0.81760
1168.000	-2.07100	1.55434	0.07117	0.75196
1169.000	-2.11838	1.61786	0.03163	0.80965
1170.000	-2.13615	1.57017	0.06326	0.78180
1171.000	-1.97424	1.70741	0.06524	0.81362
1172.000	-2.17169	1.47875	0.05338	0.75196
1173.000	-2.09074	1.57816	0.03361	0.78180
1174.000	-2.07297	1.65764	0.04943	0.77981
1175.000	-2.10061	1.54835	0.05338	0.77583
1176.000	-2.21709	1.50254	-0.01186	0.78180
1177.000	-2.12036	1.44105	0.05733	0.82556
1178.000	-2.11443	1.48476	0.06326	0.84744
1179.000	-2.05718	1.53846	0.04152	0.83153
1180.000	-2.04730	1.61992	0.03559	0.86136
1181.000	-1.96635	1.57232	0.06920	0.83948
1182.000	-2.07297	1.58613	0.02175	0.81164
1183.000	-2.05718	1.57224	0.05140	0.83550
1184.000	-1.93278	1.55050	0.04745	0.80965
1185.000	-2.07495	1.57619	0.06722	0.86136
1186.000	-2.12628	1.45495	0.11071	0.78379
1187.000	-2.07692	1.65366	0.08106	0.85539
1188.000	-2.09074	1.53843	0.09292	0.87727
1189.000	-2.03546	1.52259	0.08699	0.85142
1190.000	-2.10851	1.60397	0.05536	0.82556
1191.000	-2.06902	1.48878	0.04943	0.83550
1192.000	-2.06507	1.59607	0.14827	0.89915
1193.000	-2.09074	1.59008	0.04943	0.82755
1194.000	-2.06705	1.64573	0.03361	0.90114
1195.000	-2.14800	1.59797	0.06326	0.85340
1196.000	-2.01769	1.62194	0.03756	0.93893
1197.000	-2.02756	1.54644	0.09687	0.87727
1198.000	-2.11641	1.57615	0.07513	0.84943
1199.000	-1.99794	1.58024	0.07513	0.88722
1200.000	-2.00584	1.65374	0.10083	0.86534
1201.000	-2.13418	1.57414	0.06920	0.92103
1202.000	-1.97622	1.61999	0.11862	0.85738
1203.000	-2.06902	1.57222	0.06920	0.89318
1204.000	-1.98214	1.61602	0.10280	0.91705
1205.000	-2.05520	1.62985	0.07513	0.88324
1206.000	-1.99004	1.64779	0.08699	0.89716
1207.000	-2.00386	1.65175	0.08106	0.86534
1208.000	-1.95055	1.65379	0.04943	0.87926
1209.000	-2.02756	1.66563	0.12060	0.89318
1210.000	-2.06310	1.59607	0.14630	0.87926
1211.000	-1.95450	1.68756	0.07117	0.92700
1212.000	-1.99202	1.61203	0.11269	0.84545
1213.000	-2.01571	1.56433	0.12850	0.86931
1214.000	-1.95845	1.62995	0.12455	0.83550
1215.000	-2.05520	1.63780	0.11467	0.83749
1216.000	-2.12825	1.65560	0.12455	0.85141
1217.000	-1.99991	1.59017	0.11269	0.88125
1218.000	-2.01571	1.61996	0.14037	0.78776
1219.000	-2.10259	1.60398	0.10676	0.83550
1220.000	-2.08877	1.61194	0.09687	0.84744
1221.000	-2.00584	1.55242	0.15025	0.84346
1222.000	-2.09271	1.62782	0.13246	0.85937
1223.000	-2.01374	1.66366	0.13444	0.82755
1224.000	-2.06507	1.63381	0.09490	0.89915
1225.000	-2.12233	1.56025	0.13641	0.83948
1226.000	-1.99597	1.65573	0.12850	0.83749
1227.000	-2.14602	1.59598	0.10676	0.82954
1228.000	-2.02953	1.55836	0.11467	0.86733
1229.000	-2.02163	1.64578	0.08897	0.89119
1230.000	-2.02558	1.63584	0.11071	0.82954
1231.000	-2.04533	1.59013	0.17793	0.81760
1232.000	-2.01571	1.67558	0.07315	0.79771
1233.000	-1.90908	1.65582	0.11071	0.79373
1234.000	-2.09469	1.51657	0.09687	0.79771
1235.000	-2.11246	1.53841	0.11862	0.82954
1236.000	-2.10259	1.62384	0.16211	0.84147
1237.000	-2.00386	1.60209	0.13246	0.80567
1238.000	-1.98017	1.59615	0.06326	0.80965
1239.000	-2.08482	1.66160	0.12653	0.78578
1240.000	-2.12430	1.63971	0.15618	0.87528
1241.000	-2.07495	1.62188	0.09490	0.84943
1242.000	-2.05718	1.59012	0.14827	0.86335
1243.000	-2.08284	1.66359	0.11664	0.78777
1244.000	-2.05520	1.57820	0.10083	0.89915
1245.000	-2.13615	1.63970	0.08106	0.80766
1246.000	-2.02558	1.66564	0.12653	0.79572
1247.000	-2.08482	1.67948	0.11071	0.82755
1248.000	-2.11048	1.61390	0.11269	0.76788
1249.000	-2.08087	1.54639	0.10280	0.83749
1250.000	-2.09864	1.72912	0.15025	0.79572
1251.000	-2.02558	1.65968	0.13246	0.78975
1252.000	-2.10654	1.64370	0.12455	0.81561
1253.000	-2.06902	1.70135	0.10083	0.82556
1254.000	-2.17563	1.59595	0.18979	0.79174
1255.000	-2.03941	1.62589	0.12455	0.85738
1256.000	-2.08284	1.65167	0.14630	0.81163
1257.000	-2.06507	1.69341	0.09094	0.90910
1258.000	-2.06507	1.64374	0.17002	0.83152
1259.000	-2.04138	1.61000	0.15618	0.82755
1260.000	-1.99202	1.62197	0.23526	0.84345
1261.000	-1.87748	1.55254	0.33016	0.85339
1262.000	-1.81231	1.66584	0.41714	0.84742
1263.000	-1.70367	1.56262	0.58517	0.83546
1264.000	-1.55552	1.51305	0.73145	0.78969
1265.000	-1.39746	1.35415	0.90144	0.77971
1266.000	-1.29076	1.40192	1.08920	0.74188
1267.000	-1.12477	1.32845	1.28088	0.72394
1268.000	-1.02595	1.24300	1.43896	0.72985
1269.000	-0.85598	1.26494	1.55947	0.68209
1270.000	-0.73738	1.26696	1.70367	0.64228
1271.000	-0.68203	1.33060	1.74120	0.58262
1272.000	-0.69192	1.30276	1.78663	0.60447
1273.000	-0.66622	1.33259	1.76688	0.53887
1274.000	-0.68006	1.30873	1.69380	0.57070
1275.000	-0.73343	1.37432	1.64046	0.57270
1276.000	-0.83226	1.38224	1.54762	0.54489
1277.000	-0.89946	1.42596	1.48242	0.52104
1278.000	-0.92120	1.50347	1.31250	0.62251
1279.000	-0.95876	1.48358	1.26903	0.62451
1280.000	-1.14256	1.44175	1.16232	0.66828
1281.000	-1.10501	1.44376	1.06153	0.67029
1282.000	-1.16034	1.46957	1.02595	0.70212
1283.000	-1.24334	1.61660	0.97852	0.69020
1284.000	-1.12872	1.57493	1.00421	0.78566
1285.000	-1.30064	1.52912	1.00421	0.75384
1286.000	-1.22951	1.51326	1.07536	0.74388
1287.000	-1.14651	1.48150	1.05165	0.78763
1288.000	-1.29472	1.54105	1.07536	0.78166
1289.000	-1.08722	1.49744	1.10698	0.77171
1290.000	-1.05165	1.51137	1.15046	0.78363
1291.000	-1.09513	1.49743	1.17813	0.73788
1292.000	-1.17418	1.41192	1.17220	0.77766
1293.000	-1.08327	1.52129	1.16232	0.79357
1294.000	-1.13465	1.40796	1.20579	0.80151
1295.000	-1.15441	1.43578	1.22358	0.78759
1296.000	-1.03781	1.47559	1.16627	0.81346
1297.000	-1.13070	1.50139	1.16627	0.83334
1298.000	-0.96271	1.49749	1.14651	0.80551
1299.000	-1.02991	1.38217	1.20184	0.77168
1300.000	-1.02991	1.38813	1.21172	0.79753
1301.000	-1.02991	1.37422	1.23148	0.73787
1302.000	-1.10303	1.37418	1.24334	0.80747
1303.000	-1.07141	1.43383	1.21172	0.84725
1304.000	-0.95283	1.53924	1.24334	0.87309
1305.000	-1.11291	1.32448	1.23544	0.82139
1306.000	-1.08722	1.36425	1.23346	0.84923
1307.000	-1.06153	1.38613	1.25717	0.80547
1308.000	-1.08920	1.44774	1.22160	0.83929
1309.000	-1.07339	1.32847	1.22160	0.76969
1310.000	-1.08920	1.34238	1.25520	0.80746
1311.000	-1.02003	1.44777	1.22753	0.76770
1312.000	-1.08722	1.33642	1.19196	0.74981
1313.000	-1.14848	1.38410	1.24136	0.79355
1314.000	-1.10106	1.45171	1.22160	0.75378
1315.000	-1.05362	1.44577	1.24927	0.83729
1316.000	-1.07339	1.38414	1.24532	0.79554
1317.000	-1.00817	1.40802	1.23939	0.76372
1318.000	-0.91725	1.50944	1.23148	0.76571
1319.000	-0.99829	1.50145	1.21567	0.78162
1320.000	-0.95876	1.47960	1.30855	0.79750
1321.000	-1.17813	1.33439	1.23544	0.79753
1322.000	-1.08129	1.40004	1.26903	0.74184
1323.000	-1.06351	1.48950	1.25717	0.83530
1324.000	-0.96864	1.32255	1.29076	0.85319
1325.000	-1.00224	1.32254	1.26705	0.82933
1326.000	-1.02200	1.48753	1.26508	0.79951
1327.000	-0.96666	1.51737	1.29472	0.77563
1328.000	-0.99236	1.46568	1.25520	0.79951
1329.000	-0.98247	1.45574	1.27100	0.80945
1330.000	-0.95678	1.51340	1.25124	0.79156
1331.000	-0.94097	1.46967	1.25915	0.80746
1332.000	-1.00224	1.44579	1.28088	0.74780
1333.000	-1.02793	1.41397	1.27100	0.76769
1334.000	-1.05165	1.40005	1.27693	0.76967
1335.000	-1.00817	1.50940	1.25124	0.73985
1336.000	-0.89946	1.47963	1.29274	0.71797
1337.000	-0.92911	1.44582	1.26705	0.74979
1338.000	-0.91330	1.56709	1.25717	0.74781
1339.000	-1.01410	1.45374	1.22753	0.78560
1340.000	-0.99236	1.41598	1.26508	0.77167
1341.000	-1.01014	1.46964	1.29472	0.78558
1342.000	-1.01607	1.38814	1.24532	0.82139
1343.000	-1.06943	1.39209	1.28088	0.75575
1344.000	-1.05362	1.46764	1.23544	0.76571
1345.000	-1.00421	1.40405	1.26310	0.79752
1346.000	-1.01212	1.48157	1.25717	0.79155
1347.000	-0.92911	1.53925	1.25915	0.81741
1348.000	-0.93899	1.43588	1.26508	0.78758
1349.000	-1.01410	1.40007	1.27298	0.72195
1350.000	-1.04177	1.51137	1.27693	0.79155
1351.000	-0.93306	1.48160	1.31052	0.83727
1352.000	-1.01410	1.45374	1.30262	0.86313
1353.000	-0.94097	1.48359	1.23544	0.76173
1354.000	-0.97852	1.43189	1.25915	0.85718
1355.000	-1.08524	1.40799	1.26508	0.80348
1356.000	-0.91527	1.40806	1.29274	0.85518
1357.000	-0.98247	1.43984	1.29669	0.82932
1358.000	-0.98840	1.42791	1.23939	0.84326
1359.000	-0.87574	1.47765	1.26705	0.80348
1360.000	-0.91725	1.53329	1.29472	0.81541
1361.000	-1.03386	1.33048	1.29669	0.81143
1362.000	-0.87574	1.46771	1.24532	0.81343
1363.000	-0.95480	1.50744	1.26310	0.84524
1364.000	-0.83028	1.53134	1.28286	0.88700
1365.000	-1.03584	1.56902	1.32238	0.85715
1366.000	-0.85005	1.50748	1.27100	0.79950
1367.000	-0.96271	1.45575	1.30064	0.86909
1368.000	-0.99038	1.54519	1.31052	0.86909
1369.000	-0.95678	1.46967	1.30262	0.85517
1370.000	-1.04769	1.43186	1.30262	0.80347
1371.000	-0.97259	1.41002	1.34016	0.81937
1372.000	-0.95678	1.42792	1.32238	0.76171
1373.000	-0.88167	1.47964	1.29867	0.80347
1374.000	-0.99829	1.47959	1.25717	0.75775
1375.000	-0.95876	1.47563	1.28681	0.78558
1376.000	-1.00421	1.43188	1.24927	0.84724
1377.000	-0.98050	1.44381	1.31843	0.73387
1378.000	-1.01410	1.41994	1.32831	0.76966
1379.000	-0.95283	1.49750	1.30460	0.81938
1380.000	-0.98445	1.36032	1.32436	0.81540
1381.000	-0.97259	1.53327	1.26310	0.84524
1382.000	-0.89551	1.44186	1.32238	0.82733
1383.000	-1.00224	1.38417	1.31250	0.82335
1384.000	-0.98643	1.38417	1.35004	0.83130
1385.000	-1.05362	1.43583	1.30855	0.80347
1386.000	-0.96271	1.46569	1.31052	0.74381
1387.000	-0.97852	1.48954	1.27298	0.86115
1388.000	-1.01410	1.45573	1.28681	0.84325
1389.000	-0.98050	1.41996	1.29472	0.78955
1390.000	-0.81645	1.47569	1.30064	0.86313
1391.000	-1.05165	1.45571	1.28879	0.90091
1392.000	-0.93306	1.49751	1.33819	0.88896
1393.000	-0.90539	1.45975	1.30262	0.81938
1394.000	-1.02398	1.45771	1.28681	0.85518
1395.000	-0.80854	1.47768	1.28681	0.82734
1396.000	-0.85203	1.55121	1.29669	0.85716
1397.000	-0.95480	1.50942	1.30855	0.82534
1398.000	-0.83819	1.55917	1.30657	0.84523
1399.000	-0.97654	1.42592	1.34807	0.80346
1400.000	-0.96864	1.48954	1.33424	0.80147
1401.000	-0.98643	1.43586	1.35597	0.83328
1402.000	-0.92318	1.40805	1.28681	0.81541
1403.000	-1.02398	1.37422	1.30064	0.82336
1404.000	-1.06351	1.39209	1.26903	0.87905
1405.000	-0.88760	1.47963	1.29076	0.82137
1406.000	-0.96271	1.38418	1.28681	0.83529
1407.000	-0.95480	1.45973	1.28286	0.86910
1408.000	-0.95876	1.47960	1.28681	0.84126
1409.000	-1.00421	1.52729	1.29867	0.84523
1410.000	-1.09315	1.51930	1.28879	0.83927
1411.000	-1.00817	1.40802	1.25915	0.84127
1412.000	-1.09908	1.51929	1.32831	0.85119
1413.000	-1.00421	1.42194	1.29274	0.84325
1414.000	-1.10896	1.50935	1.25322	0.81940
1415.000	-0.96864	1.40804	1.29076	0.81342
1416.000	-0.96271	1.46768	1.27693	0.79751
1417.000	-0.94690	1.41600	1.24927	0.77963
1418.000	-0.95085	1.33846	1.25322	0.81741
1419.000	-1.03188	1.34837	1.30064	0.84921
1420.000	-1.01014	1.45970	1.30855	0.81142
1421.000	-0.89749	1.55914	1.30657	0.82336
1422.000	-1.00224	1.41001	1.30657	0.82137
1423.000	-0.85796	1.46374	1.26112	0.85320
1424.000	-1.04177	1.45571	1.28088	0.86115
1425.000	-0.98050	1.43189	1.28286	0.80944
1426.000	-0.95876	1.50545	1.23544	0.86713
1427.000	-0.97852	1.51339	1.31052	0.83529
1428.000	-0.95480	1.41997	1.31052	0.87903
1429.000	-0.97457	1.58892	1.30064	0.76569
1430.000	-1.01014	1.39013	1.30855	0.83529
1431.000	-1.02200	1.37621	1.30064	0.82336
1432.000	-1.03979	1.37819	1.29867	0.76967
1433.000	-1.00421	1.45772	1.33028	0.83528
1434.000	-1.00421	1.48356	1.28484	0.82137
1435.000	-1.04967	1.51733	1.27100	0.82734
1436.000	-0.94887	1.45178	1.28681	0.75177
1437.000	-0.96666	1.52731	1.26705	0.83132
1438.000	-0.90737	1.49155	1.29274	0.77365
1439.000	-0.96864	1.39611	1.32238	0.81142
1440.000	-0.93504	1.51142	1.30064	0.81143
1441.000	-0.96073	1.49551	1.30460	0.81739
1442.000	-0.95283	1.44979	1.27100	0.77962
1443.000	-1.05758	1.39607	1.28088	0.80547
1444.000	-0.97259	1.41002	1.29274	0.74581
1445.000	-1.00817	1.44181	1.31052	0.81938
1446.000	-0.93504	1.47166	1.26112	0.84524
1447.000	-0.88563	1.43988	1.30855	0.82733
1448.000	-0.97062	1.43189	1.32040	0.80545
1449.000	-0.96271	1.43388	1.30064	0.82733
1450.000	-0.95283	1.50744	1.31052	0.75177
1451.000	-0.92516	1.50546	1.27693	0.78558
1452.000	-0.92713	1.49353	1.28088	0.87109
1453.000	-1.02398	1.38813	1.29076	0.79154
1454.000	-1.00026	1.45772	1.26705	0.81939
1455.000	-1.02793	1.41000	1.29867	0.74183
1456.000	-1.01410	1.47163	1.29867	0.77365
1457.000	-1.00817	1.37025	1.32040	0.75375
1458.000	-0.98445	1.48556	1.32831	0.76170
1459.000	-0.98247	1.49748	1.29076	0.73586
1460.000	-0.94492	1.49353	1.24532	0.74582
1461.000	-1.09710	1.34834	1.24927	0.84326
1462.000	-1.01014	1.33446	1.25915	0.74582
1463.000	-1.02793	1.42789	1.27496	0.79752
1464.000	-1.04374	1.37023	1.27100	0.84723
1465.000	-0.98445	1.42791	1.28484	0.82933
1466.000	-0.86981	1.48561	1.29867	0.80347
1467.000	-0.97654	1.37424	1.28681	0.81740
1468.000	-0.99433	1.53723	1.29669	0.81342
1469.000	-0.89749	1.50746	1.30657	0.74978
1470.000	-0.98247	1.45375	1.27891	0.81541
1471.000	-0.99829	1.52531	1.27891	0.75973
1472.000	-0.99433	1.38815	1.22160	0.80151
1473.000	-0.89353	1.45975	1.22753	0.77764
1474.000	-0.99236	1.43785	1.26310	0.78758
1475.000	-1.04177	1.46764	1.27100	0.80149
1476.000	-0.99236	1.49350	1.26508	0.84524
1477.000	-0.94887	1.44979	1.30657	0.88102
1478.000	-0.87970	1.53927	1.25520	0.86911
1479.000	-1.02200	1.44578	1.30460	0.77563
1480.000	-0.82633	1.39417	1.31843	0.83727
1481.000	-0.90144	1.51939	1.26903	0.79752
1482.000	-0.96073	1.44183	1.27298	0.85916
1483.000	-0.90934	1.47963	1.26310	0.82337
1484.000	-0.88958	1.50150	1.26903	0.85717
1485.000	-1.02200	1.47163	1.29472	0.81938
1486.000	-1.05955	1.47757	1.29472	0.79552
1487.000	-0.95085	1.50545	1.24729	0.84525
1488.000	-0.94492	1.38817	1.26112	0.83132
1489.000	-0.95085	1.44184	1.34016	0.82533
1490.000	-0.91330	1.45975	1.26508	0.89496
1491.000	-0.94690	1.52135	1.26508	0.90689
1492.000	-1.08722	1.37618	1.29472	0.87904
1493.000	-1.06153	1.45372	1.25915	0.87706
1494.000	-0.91923	1.38022	1.28681	0.82734
1495.000	-1.10501	1.43581	1.29472	0.86313
1496.000	-0.94295	1.40010	1.33028	0.85119
1497.000	-1.09315	1.48551	1.26903	0.84922
1498.000	-1.02991	1.47560	1.24927	0.85519
1499.000	-1.05362	1.44577	1.24532	0.77764
1500.000	-1.06548	1.41793	1.25915	0.84922
1501.000	-0.91132	1.50745	1.24334	0.79554
1502.000	-1.00224	1.39609	1.30064	0.82932
1503.000	-0.86191	1.39217	1.27298	0.89098
1504.000	-1.09710	1.47557	1.27693	0.85916
1505.000	-1.04769	1.45174	1.23148	0.90093
1506.000	-1.02398	1.29072	1.26508	0.90092
1507.000	-1.04769	1.40403	1.33226	0.84522
1508.000	-1.11489	1.44574	1.30262	0.84722
1509.000	-1.04572	1.40403	1.29669	0.83927
1510.000	-0.95085	1.50545	1.30460	0.84523
1511.000	-1.00619	1.34838	1.25717	0.74184
1512.000	-1.01805	1.40802	1.29274	0.82137
1513.000	-1.00817	1.38218	1.35202	0.87106
1514.000	-0.99236	1.51537	1.28879	0.77564
1515.000	-0.98643	1.40207	1.30855	0.85318
1516.000	-1.09710	1.37419	1.29867	0.80944
1517.000	-1.03386	1.37620	1.28286	0.82734
1518.000	-0.99829	1.47959	1.25322	0.84525
1519.000	-1.06943	1.40998	1.31843	0.85716
1520.000	-1.02991	1.38614	1.25520	0.86115
1521.000	-0.95085	1.38419	1.27891	0.85319
1522.000	-1.15046	1.34037	1.31645	0.81938
1523.000	-1.15837	1.46758	1.29472	0.91284
1524.000	-1.09315	1.39009	1.27891	0.83728
1525.000	-0.98445	1.43387	1.29274	0.80149
1526.000	-0.95678	1.51936	1.26508	0.86314
1527.000	-1.02595	1.35036	1.27100	0.85717
1528.000	-1.05362	1.47956	1.24532	0.81741
1529.000	-1.05758	1.44179	1.28286	0.82336
1530.000	-1.08722	1.51930	1.28484	0.82734
1531.000	-0.96666	1.33249	1.24532	0.91087
1532.000	-0.96469	1.48755	1.29472	0.82535
1533.000	-1.07141	1.34438	1.32436	0.80347
1534.000	-0.95876	1.39611	1.25124	0.83531
1535.000	-1.02595	1.41199	1.32238	0.75773
1536.000	-1.03584	1.46963	1.28088	0.81541
1537.000	-1.00421	1.37025	1.29669	0.80944
1538.000	-0.99631	1.37821	1.27100	0.81740
1539.000	-1.17220	1.37216	1.30460	0.85716
1540.000	-1.02793	1.37024	1.30064	0.77364
1541.000	-1.02595	1.41398	1.30262	0.77961
1542.000	-1.12872	1.36821	1.25717	0.87110
1543.000	-1.03979	1.49348	1.28879	0.85717
1544.000	-1.04374	1.49149	1.29669	0.84324
1545.000	-1.02793	1.39807	1.27496	0.83331
1546.000	-0.96469	1.35436	1.28681	0.82336
1547.000	-1.05758	1.30860	1.28286	0.85120
1548.000	-1.08524	1.39606	1.28088	0.77365
1549.000	-0.99038	1.51935	1.24927	0.80548
1550.000	-1.08722	1.37618	1.28484	0.79552
1551.000	-1.02200	1.41994	1.29274	0.78956
1552.000	-1.09908	1.39406	1.33819	0.76966
1553.000	-1.05758	1.45769	1.27496	0.81939
1554.000	-0.93702	1.44980	1.29867	0.83728
1555.000	-1.08524	1.37419	1.30262	0.81938
1556.000	-1.07932	1.34636	1.27496	0.85319
1557.000	-1.01212	1.47759	1.35597	0.74976
1558.000	-1.02200	1.50343	1.32633	0.85715
1559.000	-1.04572	1.34836	1.27891	0.84126
1560.000	-1.01212	1.44181	1.31250	0.83330
1561.000	-0.97852	1.40406	1.31645	0.78358
1562.000	-0.95283	1.45575	1.30460	0.79154
1563.000	-0.99829	1.41995	1.31843	0.77364
1564.000	-1.01212	1.32055	1.29669	0.90688
1565.000	-1.05758	1.34438	1.34807	0.76766
1566.000	-1.05362	1.40800	1.37178	0.80345
1567.000	-1.07141	1.44377	1.29076	0.85518
1568.000	-1.01014	1.27084	1.31052	0.85517
1569.000	-1.00619	1.37621	1.25520	0.83133
1570.000	-1.04769	1.42192	1.28879	0.85717
1571.000	-1.04769	1.36824	1.27100	0.90291
1572.000	-1.07536	1.44775	1.26705	0.85320
1573.000	-0.97457	1.41996	1.26310	0.91086
1574.000	-1.01805	1.35633	1.30262	0.82932
1575.000	-0.99631	1.43387	1.31843	0.89693
1576.000	-0.95480	1.39611	1.26310	0.83928
1577.000	-0.97852	1.34243	1.25322	0.82536
1578.000	-0.92120	1.37625	1.28088	0.87904
1579.000	-1.02398	1.41795	1.28088	0.86711
1580.000	-1.00619	1.41796	1.27496	0.87507
1581.000	-0.93306	1.38618	1.26705	0.84325
1582.000	-1.03584	1.33445	1.31645	0.89891
1583.000	-1.05165	1.49348	1.28879	0.89495
1584.000	-0.94097	1.46570	1.26508	0.91683
1585.000	-1.03781	1.37620	1.31645	0.90090
1586.000	-1.13070	1.35827	1.30460	0.90488
1587.000	-1.01212	1.47561	1.31843	0.84721
1588.000	-0.96864	1.38617	1.27496	0.87706
1589.000	-1.05165	1.50938	1.27693	0.85518
1590.000	-0.97259	1.47761	1.28286	0.90489
1591.000	-1.11094	1.38809	1.29669	0.87904
1592.000	-1.02200	1.44380	1.25520	0.94666
1593.000	-1.06943	1.49546	1.28286	0.89097
1594.000	-0.94690	1.45774	1.31843	0.88102
1595.000	-0.99829	1.39610	1.27298	0.90887
1596.000	-0.94097	1.40407	1.20184	0.94668
1597.000	-0.89946	1.41999	1.28879	0.91483
1598.000	-1.02200	1.50144	1.21765	0.92480
1599.000	-0.92911	1.51937	1.25717	0.90490
1600.000	-1.01212	1.45970	1.30855	0.91284
1601.000	-1.00026	1.41995	1.27693	0.92279
1602.000	-0.86388	1.48561	1.26112	0.91086
1603.000	-1.01212	1.41597	1.30657	0.91284
1604.000	-1.08129	1.38413	1.29472	0.92477
1605.000	-0.95480	1.45973	1.33226	0.91879
1606.000	-0.96073	1.52135	1.27693	0.97648
1607.000	-1.03584	1.38415	1.25717	0.89695
1608.000	-1.02200	1.43584	1.32831	0.84721
1609.000	-0.97062	1.35237	1.26310	0.90092
1610.000	-0.97259	1.44581	1.27693	0.87904
1611.000	-0.92713	1.44185	1.25717	0.84922
1612.000	-1.02200	1.34440	1.30064	0.90091
1613.000	-0.93109	1.46769	1.28286	0.95659
1614.000	-1.05560	1.37420	1.32040	0.96055
1615.000	-1.01212	1.37621	1.28088	0.89893
1616.000	-1.06351	1.39607	1.28879	0.90091
1617.000	-1.09710	1.42587	1.27100	0.92677
1618.000	-1.05560	1.39408	1.24136	0.97450
1619.000	-1.11687	1.40201	1.27693	0.94267
1620.000	-0.97852	1.39014	1.30262	0.99038
1621.000	-1.05955	1.32450	1.44883	0.87302
1622.000	-1.01410	1.34440	1.47847	0.89488
1623.000	-0.74331	1.41210	1.56342	0.94455
1624.000	-0.62668	1.37833	1.75700	0.90668
1625.000	-0.49622	1.42409	2.02953	0.95822
1626.000	-0.08106	1.36052	2.27631	0.96999
1627.000	0.15223	1.35455	2.55654	0.95190
1628.000	0.41912	1.23124	2.82877	0.98347
1629.000	0.74331	1.39619	3.15408	1.07254
1630.000	1.14058	1.48946	3.48904	1.17738
1631.000	1.42513	1.44755	3.91430	1.12920
1632.000	1.73528	1.41753	4.18969	1.11295
1633.000	2.10259	1.62384	4.51402	1.23538
1634.000	2.57233	1.66897	4.84787	1.32395
1635.000	2.78735	1.64088	5.23825	1.33108
1636.000	3.16985	1.74550	5.56157	1.29870
1637.000	3.56979	1.75470	5.84932	1.45431
1638.000	3.88675	1.69259	6.19344	1.42374
1639.000	4.24082	1.75330	6.62101	1.30602
1640.000	4.54938	1.75059	6.94851	1.37816
1641.000	4.82039	1.77368	7.12182	1.42500
1642.000	5.09902	1.87785	7.45833	1.41013
1643.000	5.30490	1.93462	7.65456	1.40161
1644.000	5.57332	1.81113	7.82538	1.48179
1645.000	5.90605	1.93263	7.95340	1.61719
1646.000	6.02925	1.89267	8.15885	1.60653
1647.000	6.24619	2.01635	8.18984	1.68904
1648.000	6.42586	2.03342	8.46856	1.66228
1649.000	6.65612	1.98117	8.53044	1.76619
1650.000	6.72632	2.00456	8.54784	1.75432
1651.000	6.75752	2.13663	8.61549	1.86208
1652.000	6.97383	2.19481	8.70824	1.87734
1653.000	7.17632	2.16429	8.84147	1.93950
1654.000	7.21913	2.23306	8.97847	1.81315
1655.000	7.30667	2.14002	9.11152	1.85957
1656.000	7.32029	2.15177	9.09224	1.81650
1657.000	7.37863	2.18301	9.11923	1.87523
1658.000	7.38057	2.22043	9.16548	1.79454
1659.000	7.44667	2.29298	9.11344	1.85171
1660.000	7.41168	2.25376	9.11923	1.83598
1661.000	7.38835	2.26767	9.01512	1.83455
1662.000	7.24832	2.33538	9.01705	1.83651
1663.000	7.24248	2.26644	8.92639	1.78984
1664.000	7.21524	2.25870	8.88780	1.82930
1665.000	7.18800	2.35933	8.85499	1.88249
1666.000	7.05952	2.25552	8.77004	1.86524
1667.000	7.10430	2.24151	8.80480	1.88274
1668.000	7.06342	2.23579	8.76811	1.91828
1669.000	7.11403	2.23357	8.78742	1.90443
1670.000	7.07510	2.28698	8.77969	1.89858
1671.000	7.16853	2.19980	8.83375	1.82172
1672.000	7.13350	2.19603	8.85692	1.86480
1673.000	7.23081	2.26256	8.93603	1.88011
1674.000	7.21329	2.17396	8.93603	1.84281
1675.000	7.35529	2.14963	9.05561	1.84809
1676.000	7.34168	2.21866	9.01898	1.78742
1677.000	7.39613	2.19278	9.04597	1.89720
1678.000	7.42723	2.18277	9.05368	1.83632
1679.000	7.48943	2.21791	8.99198	1.86608
1680.000	7.60406	2.23111	9.06718	1.85588
1681.000	7.53218	2.21376	9.07489	1.87350
1682.000	7.52052	2.22760	9.02476	1.87376
1683.000	7.58075	2.19973	9.03440	1.88941
1684.000	7.57298	2.24309	9.08260	1.84598
1685.000	7.53995	2.19402	9.02090	1.93462
1686.000	7.61377	2.32359	9.00548	1.93470
1687.000	7.52441	2.31029	9.04404	1.96001
1688.000	7.55550	2.32588	8.99583	1.94653
1689.000	7.56715	2.22146	9.01319	1.99943
1690.000	7.50303	2.23163	8.98619	1.95836
1691.000	7.63320	2.33136	9.04019	1.95611
1692.000	7.64291	2.31359	9.03633	1.99537
1693.000	7.51469	2.28277	8.97847	2.00158
1694.000	7.56327	2.31599	9.01319	1.93270
1695.000	7.58464	2.30406	9.03826	1.95219
1696.000	7.52635	2.34178	8.97847	1.95644
1697.000	7.48943	2.29078	8.97847	1.93877
1698.000	7.50109	2.28678	8.95340	2.00172
1699.000	7.45056	2.32053	8.92060	2.05490
1700.000	7.53607	2.27675	8.94761	1.98016
1701.000	7.51081	2.25719	8.93411	1.97631
1702.000	7.56910	2.27461	8.98426	1.97800
1703.000	7.50303	2.29662	8.93989	1.96842
1704.000	7.42140	2.31477	8.99390	2.00150
1705.000	7.53607	2.34764	8.98233	1.99960
1706.000	7.47583	2.26525	9.05947	1.94226
1707.000	7.52052	2.28668	8.93218	2.04502
1708.000	7.48554	2.30262	9.03440	2.04837
1709.000	7.50109	2.29269	8.99583	2.02700
1710.000	7.56133	2.30025	9.01898	2.02491
1711.000	7.41557	2.23405	8.95147	2.01154
1712.000	7.49526	2.36952	9.01705	1.97389
1713.000	7.41751	2.25767	8.99198	1.94852
1714.000	7.48166	2.24750	9.03055	1.92279
1715.000	7.51664	2.30442	8.95919	1.97813
1716.000	7.44667	2.28313	8.98812	1.96816
1717.000	7.46611	2.25152	8.99005	2.00348
1718.000	7.52247	2.32999	8.94761	2.01745
1719.000	7.56133	2.21361	9.00355	1.96808
1720.000	7.48554	2.31837	8.99583	2.03485
1721.000	7.52052	2.26108	9.00548	2.04264
1722.000	7.48943	2.20807	8.95340	1.97620
1723.000	7.53995	2.37124	8.95726	2.03310
1724.000	7.42918	2.33837	8.98812	1.98779
1725.000	7.50692	2.25130	8.92832	2.00186
1726.000	7.47000	2.32633	8.93796	1.99395
1727.000	7.51664	2.27292	8.91674	2.01174
1728.000	7.54384	2.26687	9.04983	1.98353
1729.000	7.44862	2.30084	8.93989	2.01750
1730.000	7.60212	2.33744	8.98619	2.02509
1731.000	7.57492	2.31593	8.96304	2.00363
1732.000	7.49526	2.36952	9.02862	1.99149
1733.000	7.55938	2.18014	9.01126	2.04065
1734.000	7.51275	2.36549	8.94375	1.94485
1735.000	7.60989	2.33936	8.97462	2.01730
1736.000	7.47777	2.29478	8.94182	2.09011
1737.000	7.52635	2.27287	9.00741	1.98376
1738.000	7.54773	2.28260	8.97847	2.02710
1739.000	7.54190	2.34958	8.99776	2.02895
1740.000	7.60989	2.31968	8.97847	2.05653
1741.000	7.53607	2.31810	9.03440	1.98165
1742.000	7.55938	2.36326	8.99390	1.98187
1743.000	7.52830	2.33390	9.06718	1.94418
1744.000	7.61572	2.36689	8.96304	1.97026
1745.000	7.54384	2.37122	8.99390	2.06233
1746.000	7.57298	2.34153	8.99969	2.00146
1747.000	7.56910	2.30021	8.96111	1.98009
1748.000	7.59824	2.27249	9.04019	2.00909
1749.000	7.59435	2.30795	9.04212	1.99338
1750.000	7.60795	2.36496	8.97847	2.04280
1751.000	7.61766	2.36491	8.99583	1.96223
1752.000	7.54578	2.28064	8.97462	1.95646
1753.000	7.52635	2.33785	8.97462	2.04871
1754.000	7.50303	2.29268	8.99390	1.97598
1755.000	7.46028	2.27321	9.05176	1.95212
1756.000	7.51469	2.25717	8.99005	1.98385
1757.000	7.63320	2.27427	8.99583	1.96027
1758.000	7.51081	2.35171	8.91481	1.98819
1759.000	7.57298	2.39469	9.00162	1.94258
1760.000	7.58270	2.24107	9.03247	1.93260
1761.000	7.50303	2.27299	9.01319	1.97391
1762.000	7.53413	2.35749	9.01898	1.97192
1763.000	7.61572	2.30980	9.02862	2.00915
1764.000	7.65262	2.28992	9.04212	1.98749
1765.000	7.57687	2.37301	9.03633	2.02285
1766.000	7.56133	2.30812	9.00741	2.03282
1767.000	7.65456	2.34896	8.98619	1.99565
1768.000	7.53607	2.32992	9.02283	2.02881
1769.000	7.67980	2.25827	8.99969	2.07408
1770.000	7.69728	2.29558	9.00162	2.02893
1771.000	7.61183	2.25076	9.01898	1.99351
1772.000	7.53218	2.24133	9.01319	1.95625
1773.000	7.57881	2.29031	9.02669	2.02879
1774.000	7.58852	2.35326	9.02862	2.00327
1775.000	7.52635	2.33588	9.06718	1.97558
1776.000	7.49332	2.27501	9.01512	2.00138
1777.000	7.60406	2.30199	9.02476	2.03272
1778.000	7.55355	2.29044	9.05176	2.01884
1779.000	7.47971	2.29674	8.96111	2.02719
1780.000	7.55161	2.32393	9.01898	2.00528
1781.000	7.51664	2.36153	9.06332	2.03251
1782.000	7.60600	2.27835	8.98812	2.02900
1783.000	7.71087	2.31125	9.03440	2.00520
1784.000	7.63514	2.25064	9.01319	2.04456
1785.000	7.67980	2.37047	8.96883	2.05855
1786.000	7.56521	2.26872	8.98040	1.99961
1787.000	7.54967	2.42238	9.05754	2.00311
1788.000	7.57687	2.31592	9.05561	1.96780
1789.000	7.56133	2.23921	9.08839	1.99901
1790.000	7.57881	2.21352	9.06140	2.03056
1791.000	7.63708	2.27228	9.05947	2.00506
1792.000	7.62737	2.30974	9.07682	1.93432
1793.000	7.60600	2.32363	8.98812	2.04078
1794.000	7.65262	2.31944	9.07875	1.96767
1795.000	7.54578	2.32199	9.07104	1.96967
1796.000	7.52247	2.31030	9.04983	1.99138
1797.000	7.53607	2.23146	9.00741	2.03086
1798.000	7.60989	2.37677	9.02476	1.98955
1799.000	7.58270	2.24107	9.01319	1.96606
1800.000	7.58464	2.25681	9.04790	2.01297
1801.000	7.66038	2.33909	9.00741	2.03282
1802.000	7.62543	2.30975	9.06140	1.93440
1803.000	7.60018	2.29020	9.07682	2.04420
1804.000	7.59824	2.24295	9.05754	1.99329
1805.000	7.58075	2.30211	9.06911	1.95791
1806.000	7.55550	2.33178	9.10188	1.90279
1807.000	7.59435	2.29810	9.11730	1.95569
1808.000	7.50498	2.34584	9.06911	2.00108
1809.000	7.55938	2.25891	9.04597	1.97962
1810.000	7.64096	2.40218	9.07875	1.94805
1811.000	7.64679	2.31160	9.11344	2.01653
1812.000	7.53024	2.31223	9.06140	1.97561
1813.000	7.56910	2.26870	9.11730	1.94391
1814.000	7.61183	2.21138	9.07104	1.95790
1815.000	7.54578	2.23535	9.07104	1.93828
1816.000	7.49526	2.31241	9.03826	1.94042
1817.000	7.49332	2.35378	9.04212	1.96591
1818.000	7.61766	2.34326	9.09995	1.97344
1819.000	7.57298	2.32381	9.06911	1.98734
1820.000	7.59047	2.26859	9.09995	1.97736
1821.000	7.60600	2.26654	9.04212	1.98946
1822.000	7.71475	2.27974	9.17511	1.98283
1823.000	7.60406	2.32561	9.09417	1.94600
1824.000	7.58852	2.36901	9.15006	1.93393
1825.000	7.56910	2.26870	9.12115	1.94193
1826.000	7.49915	2.26316	9.11537	1.99297
1827.000	7.58852	2.27254	9.12308	1.95369
1828.000	7.52635	2.26105	9.03247	1.99540
1829.000	7.59241	2.31977	9.08839	2.01274
1830.000	7.55938	2.28844	9.05754	1.98937
1831.000	7.65456	2.31353	9.09031	1.94602
1832.000	7.52441	2.24728	9.08260	1.96569
1833.000	7.57687	2.29426	9.08067	1.94607
1834.000	7.65067	2.38244	9.13079	1.96346
1835.000	7.62737	2.27233	9.06718	1.96773
1836.000	7.58852	2.32373	9.13464	1.98502
1837.000	7.66038	2.33712	9.10959	2.01263
1838.000	7.58658	2.34146	9.15584	1.96332
1839.000	7.63902	2.42188	9.10381	1.97342
1840.000	7.60212	2.32956	9.18474	1.99062
1841.000	7.47777	2.25146	9.04790	1.99924
1842.000	7.49332	2.31636	9.07875	2.00299
1843.000	7.49332	2.25138	9.13850	1.95361
1844.000	7.51469	2.22369	9.08839	1.99116
1845.000	7.45639	2.22202	9.07104	2.00892
1846.000	7.48554	2.29080	9.05754	2.01488
1847.000	7.53607	2.26494	9.06140	1.99131
1848.000	7.60600	2.26457	9.04983	2.00707
1849.000	7.64485	2.32342	9.03247	2.07977
1850.000	7.55938	2.26482	9.06911	1.94417
1851.000	7.54384	2.32397	9.13272	2.01838
1852.000	7.60795	2.35118	9.05561	2.01097
1853.000	7.53413	2.22753	9.07489	2.03636
1854.000	7.61377	2.31375	9.10959	2.02243
1855.000	7.52247	2.31227	9.10766	1.97928
1856.000	7.58658	2.25680	9.01512	2.07006
1857.000	7.50886	2.29265	9.09802	2.04997
1858.000	7.58075	2.36315	9.07296	1.99517
1859.000	7.58464	2.35131	9.07104	2.03246
1860.000	7.55355	2.30226	9.08453	2.01277
1861.000	7.59435	2.27054	9.04983	2.00315
1862.000	7.53607	2.28463	9.09031	1.96957
1863.000	7.53218	2.27480	9.12886	2.02036
1864.000	7.47777	2.37158	9.08646	2.04022
1865.000	7.62931	2.36878	9.11537	1.96158
1866.000	7.48554	2.25929	9.14813	1.95944
1867.000	7.51664	2.28670	9.08839	1.96369
1868.000	7.60406	2.36695	9.08839	2.00490
1869.000	7.54190	2.28066	9.01319	1.99747
1870.000	7.57298	2.28443	9.08260	1.98531
1871.000	7.51081	2.32021	9.11537	2.02240
1872.000	7.59241	2.34143	9.04404	2.00907
1873.000	7.50692	2.28281	9.06718	1.99128
1874.000	7.54384	2.32003	9.07875	1.99514
1875.000	7.60989	2.29408	9.08067	2.04810
1876.000	7.72057	2.34072	9.13079	1.99877
1877.000	7.57687	2.30017	9.11537	2.05575
1878.000	7.60406	2.32955	9.09995	1.99895
1879.000	7.58270	2.31392	9.11152	1.97141
1880.000	7.65456	2.31353	9.10573	2.02442
1881.000	7.60600	2.30198	9.13657	2.04190
1882.000	7.59824	2.35911	9.11152	2.00084
1883.000	7.60212	2.33153	9.05947	1.98936
1884.000	7.49915	2.34390	9.00933	2.00337
1885.000	7.64291	2.34509	9.05176	2.06985
1886.000	7.67009	2.37840	9.07489	1.99712
1887.000	7.61183	2.24682	9.11344	2.01849
1888.000	7.52635	2.27287	9.04790	2.00708
1889.000	7.55938	2.41248	9.08646	2.06965
1890.000	7.63902	2.30771	9.08646	2.07750
1891.000	7.55744	2.37115	9.06140	2.02074
1892.000	7.71669	2.43127	9.03055	1.98167
1893.000	7.68174	2.32125	9.09995	1.98521
1894.000	7.56133	2.31797	9.04983	2.05613
1895.000	7.50303	2.28677	9.10959	2.03224
1896.000	7.63708	2.34709	9.04790	2.04437
1897.000	7.61960	2.44954	9.05561	2.05021
1898.000	7.69922	2.37824	9.06332	2.04428
1899.000	7.58270	2.34345	9.10381	1.98519
1900.000	7.57104	2.37895	9.12115	1.94782
1901.000	7.61377	2.38462	9.10573	1.94986
1902.000	7.58464	2.35525	9.05754	2.05805
1903.000	7.62931	2.35697	9.09802	1.99111
1904.000	7.58075	2.43795	9.02090	2.04256
1905.000	7.60989	2.40432	9.05754	2.03254
1906.000	7.59435	2.40244	9.05368	2.00117
1907.000	7.48749	2.31246	8.97655	2.10168
1908.000	7.54578	2.36334	9.04983	2.00119
1909.000	7.56715	2.33172	9.09031	1.94602
1910.000	7.59435	2.30795	9.02862	2.06606
1911.000	7.63320	2.32546	9.03055	2.03465
1912.000	7.58075	2.30802	9.04790	2.02082
1913.000	7.53801	2.27477	9.03247	2.07977
1914.000	7.62154	2.32749	8.99969	2.06230
1915.000	7.58075	2.34740	9.08260	1.99512
1916.000	7.60795	2.30197	9.08839	2.01863
1917.000	7.56327	2.34158	9.06718	2.04426
1918.000	7.48360	2.29081	9.00162	2.10546
1919.000	7.56715	2.45968	9.06718	2.06388
1920.000	7.54967	2.33772	9.08646	2.03238
1921.000	7.51858	2.29260	9.03440	2.06210
1922.000	7.53218	2.33781	9.09610	2.03428
1923.000	7.55550	2.35541	9.05754	2.09533
1924.000	7.51858	2.31426	9.05368	2.05022
1925.000	7.62543	2.32943	9.08839	2.03825
1926.000	7.59824	2.39652	8.98426	2.06631
1927.000	7.53607	2.32795	9.00741	2.08581
1928.000	7.60406	2.29214	9.03055	2.04447
1929.000	7.54967	2.29834	9.08839	2.08534
1930.000	7.64679	2.27814	9.02283	1.99741
1931.000	7.57881	2.30803	9.03440	2.04052
1932.000	7.58658	2.28042	8.98233	1.98390
1933.000	7.54967	2.27668	9.06332	2.02662
1934.000	7.62543	2.37865	9.04597	1.96392
1935.000	7.54384	2.31216	9.05176	2.02080
1936.000	7.55550	2.33769	9.04019	2.05226
1937.000	7.52247	2.29652	9.09031	1.96761
1938.000	7.54190	2.31217	9.05561	2.03255
1939.000	7.55355	2.33967	9.05754	2.00114
1940.000	7.47000	2.25740	8.99776	2.03091
1941.000	7.58464	2.35525	9.04983	2.02670
1942.000	7.62931	2.37272	9.04212	2.04832
1943.000	7.60989	2.31574	9.02283	2.05432
1944.000	7.66038	2.31547	9.09802	1.96953
1945.000	7.56133	2.26087	9.06525	1.99718
1946.000	7.55938	2.28844	9.03826	1.98163
1947.000	7.62349	2.32748	9.08646	1.97351
1948.000	7.60989	2.29605	9.07682	2.02851
1949.000	7.59241	2.37883	9.05368	1.98939
1950.000	7.58075	2.31590	9.06140	2.03252
1951.000	7.62349	2.29795	9.06140	2.09727
1952.000	7.57492	2.39665	9.01319	1.99550
1953.000	7.56910	2.34943	9.07296	2.04226
1954.000	7.55744	2.30814	9.02669	2.06607
1955.000	7.54190	2.33973	9.00741	2.07207
1956.000	7.56521	2.31795	8.98040	2.02316
1957.000	7.47777	2.35189	8.98619	2.06042
1958.000	7.29500	2.28391	8.94568	1.99784
1959.000	7.24637	2.32159	8.85692	1.96494
1960.000	7.09067	2.28099	8.77776	1.89466
1961.000	6.80431	2.20151	8.64061	1.72834
1962.000	6.60735	2.24779	8.41826	1.72935
1963.000	6.25791	2.14665	8.16272	1.66358
1964.000	5.96668	2.17745	7.80403	1.61974
1965.000	5.52240	1.94184	7.56133	1.38614
1966.000	5.15786	1.94101	7.32223	1.30012
1967.000	4.86161	1.86071	6.91734	1.30917
1968.000	4.48258	1.78444	6.62101	1.29812
1969.000	4.13660	1.74362	6.30284	1.13291
1970.000	3.79031	1.59163	6.15631	0.98493
1971.000	3.46738	1.50489	5.85323	1.03692
1972.000	3.16985	1.50931	5.73190	0.95996
1973.000	2.76565	1.41653	5.58115	0.88895
1974.000	2.75974	1.45625	5.44992	0.80995
1975.000	2.51708	1.39496	5.30490	0.77053
1976.000	2.29802	1.35347	5.14021	0.74300
1977.000	2.24473	1.38530	4.90283	0.76705
1978.000	2.02558	1.28018	4.81450	0.56497
1979.000	1.82021	1.27040	4.65349	0.56312
1980.000	1.79256	1.20483	4.37450	0.59705
1981.000	1.59898	1.18706	4.15233	0.40279
1982.000	1.51798	1.28053	3.93004	0.38305
1983.000	1.22753	1.24689	3.71944	0.35932
1984.000	0.95085	1.18537	3.49298	0.39913
1985.000	0.76110	1.11782	3.27036	0.37141
1986.000	0.52784	1.19940	3.10086	0.31387
1987.000	0.18781	1.14775	2.91948	0.28412
1988.000	0.03756	1.19349	2.72620	0.28615
1989.000	-0.28271	1.04631	2.40460	0.27430
1990.000	-0.52389	1.08208	2.26841	0.23854
1991.000	-0.57727	1.11985	2.02163	0.25846
1992.000	-0.81249	1.15559	1.82218	0.20481
1993.000	-1.00619	1.13763	1.56540	0.28239
1994.000	-1.25322	1.18724	1.36783	0.30628
1995.000	-1.47847	1.09171	1.16232	0.22874
1996.000	-1.47649	1.23881	0.91527	0.32026
1997.000	-1.71750	1.18500	0.70971	0.22280
1998.000	-1.93870	1.15703	0.47249	0.20490
1999.000	-2.07495	1.17482	0.25701	0.20491
2000.000	-2.44999	1.13677	0.02372	0.18502
2001.000	-2.62560	1.09092	-0.19375	0.24072
2002.000	-2.62954	1.07900	-0.33609	0.13926
2003.000	-2.85243	1.12845	-0.58320	0.16710
2004.000	-2.96483	1.16409	-0.69982	0.15516
2005.000	-3.16985	1.06061	-0.81645	0.13726
2006.000	-3.22504	1.13402	-0.88760	0.13328
2007.000	-3.46344	1.07221	-0.91527	0.20488
2008.000	-3.32553	1.13589	-0.96073	0.25859
2009.000	-3.30977	1.07635	-1.00224	0.25859
2010.000	-3.27036	1.06646	-1.00619	0.24267
2011.000	-3.25854	1.02677	-0.95085	0.28843
2012.000	-3.12058	1.01697	-0.89353	0.27849
2013.000	-3.09298	1.04480	-0.79470	0.32424
2014.000	-3.05355	1.00314	-0.80656	0.28048
2015.000	-2.90371	1.10060	-0.69192	0.29242
2016.000	-2.85638	1.05893	-0.60099	0.29840
2017.000	-2.88201	0.98343	-0.51203	0.31233
2018.000	-2.74593	0.98950	-0.46459	0.25066
2019.000	-2.65124	1.05315	-0.48633	0.25862
2020.000	-2.83666	0.99141	-0.47645	0.29243
2021.000	-2.77749	0.98352	-0.45075	0.25464
2022.000	-2.77157	1.01133	-0.46459	0.27254
2023.000	-2.74593	1.07691	-0.53378	0.29840
2024.000	-2.87413	0.89802	-0.55750	0.26060
2025.000	-2.95300	0.84830	-0.55947	0.21286
2026.000	-2.99244	1.00121	-0.60494	0.30436
2027.000	-2.97469	0.98732	-0.65238	0.24667
2028.000	-2.94511	0.97742	-0.68006	0.30436
2029.000	-2.95892	0.87610	-0.71959	0.23473
2030.000	-3.09692	0.90578	-0.72552	0.28248
2031.000	-3.05947	0.96142	-0.79075	0.23473
2032.000	-2.91159	0.94169	-0.78680	0.21086
2033.000	-3.07129	0.98723	-0.82040	0.30634
2034.000	-3.07524	0.89587	-0.82435	0.23871
2035.000	-3.10086	0.90181	-0.84807	0.25860
2036.000	-3.18956	0.95733	-0.81249	0.28645
2037.000	-3.04369	0.93959	-0.84017	0.30236
2038.000	-3.14029	0.87794	-0.86586	0.27053
2039.000	-3.11072	0.92365	-0.88167	0.28445
2040.000	-3.18956	0.98911	-0.89946	0.26456
2041.000	-3.24080	0.88183	-0.87772	0.27252
2042.000	-3.04172	1.03294	-0.94492	0.27848
2043.000	-3.07129	0.93361	-0.91132	0.28047
2044.000	-3.26839	0.92152	-0.90144	0.24467
2045.000	-3.29204	0.85001	-0.90342	0.23472
2046.000	-3.24080	0.89970	-0.94492	0.20090
2047.000	-3.17576	0.92359	-0.96271	0.26654
2048.000	-3.17971	0.86202	-0.95876	0.21085
2049.000	-3.26445	0.99102	-0.90934	0.22279
2050.000	-3.15014	0.99113	-0.90144	0.23273
2051.000	-3.26445	0.87982	-0.85796	0.26059
2052.000	-3.08509	0.88593	-0.86981	0.26655
2053.000	-3.13043	0.79056	-0.91132	0.21682
2054.000	-3.22109	0.92156	-0.85796	0.25661
2055.000	-3.13437	0.87596	-0.84412	0.26655
2056.000	-3.14817	0.87992	-0.88563	0.30434
2057.000	-3.32947	0.82218	-0.89156	0.27451
2058.000	-3.12649	0.96931	-0.89749	0.26655
2059.000	-3.19153	0.88981	-0.90934	0.23273
2060.000	-3.20927	0.86200	-0.91527	0.25660
2061.000	-3.19547	0.94541	-0.85993	0.28843
2062.000	-3.13437	0.93157	-0.91725	0.20687
2063.000	-3.22701	0.93744	-0.89551	0.24865
2064.000	-3.15014	0.86205	-0.91132	0.17704
2065.000	-3.19153	0.88584	-0.90342	0.19693
2066.000	-3.13832	0.92163	-0.90539	0.17505
2067.000	-3.19547	0.85208	-0.91725	0.25660
2068.000	-3.12649	0.89186	-0.89946	0.23273
2069.000	-3.13240	0.94150	-0.91923	0.21483
2070.000	-3.31765	0.85793	-0.90934	0.22677
2071.000	-3.22109	0.83617	-0.92120	0.26854
2072.000	-3.25854	0.98507	-0.94690	0.23870
2073.000	-3.16394	0.91963	-0.96864	0.25461
2074.000	-3.20336	0.92158	-0.93109	0.22279
2075.000	-3.26051	0.82422	-0.90934	0.22876
2076.000	-3.19547	0.94343	-0.96666	0.27052
2077.000	-3.28612	0.90760	-0.92911	0.20886
2078.000	-3.24671	0.87189	-0.87970	0.19892
2079.000	-3.28810	0.83214	-0.92516	0.22478
2080.000	-3.23489	0.87786	-0.89946	0.25263
2081.000	-3.22504	0.88184	-0.93899	0.24467
2082.000	-3.28810	0.91554	-0.94690	0.22080
2083.000	-3.22701	0.84212	-0.91330	0.24467
2084.000	-3.24868	0.83615	-0.91330	0.23074
2085.000	-3.22109	0.90766	-0.92911	0.22080
2086.000	-3.29795	0.85199	-0.92120	0.18300
2087.000	-3.32159	0.81424	-0.97259	0.23273
2088.000	-3.18168	0.88784	-0.95678	0.21682
2089.000	-3.22701	0.90964	-0.95480	0.19096
2090.000	-3.20533	0.89179	-0.90539	0.21483
2091.000	-3.31174	0.79241	-0.94887	0.23671
2092.000	-3.19941	0.90967	-0.91132	0.23273
2093.000	-3.18168	0.92954	-0.90934	0.22279
2094.000	-3.28415	0.89966	-0.93109	0.23273
2095.000	-3.34918	0.88372	-0.95085	0.24864
2096.000	-3.22701	0.99106	-0.91132	0.26456
2097.000	-3.28612	0.93342	-0.93109	0.17704
2098.000	-3.10875	0.88790	-0.92318	0.30036
2099.000	-3.24080	0.97317	-0.93899	0.22478
2100.000	-3.16197	0.89381	-0.97654	0.25461
2101.000	-3.43980	0.85584	-0.93899	0.27450
2102.000	-3.22898	0.85999	-0.94887	0.20289
2103.000	-3.31174	0.84007	-0.95480	0.22875
2104.000	-3.22109	0.95730	-0.92120	0.28843
2105.000	-3.30780	0.86390	-0.95876	0.28644
2106.000	-3.24080	0.87388	-0.97852	0.22079
2107.000	-3.21124	0.81235	-0.93306	0.28047
2108.000	-3.25657	0.99301	-0.99236	0.30235
2109.000	-3.29401	0.89965	-0.97852	0.21085
2110.000	-3.22701	1.01687	-1.01014	0.27848
2111.000	-3.24277	0.91757	-0.99631	0.30036
2112.000	-3.23292	0.97318	-0.98247	0.25262
2113.000	-3.27036	0.95924	-0.95678	0.29638
2114.000	-3.21518	0.97518	-0.99631	0.22676
2115.000	-3.13634	0.99511	-0.92120	0.26854
2116.000	-3.29007	0.85796	-0.94690	0.29638
2117.000	-3.11860	0.93555	-0.93702	0.25660
2118.000	-3.11072	0.96336	-0.92911	0.30036
2119.000	-3.17774	0.85607	-1.02200	0.34610
2120.000	-3.17971	0.94146	-0.96666	0.30235
2121.000	-3.22898	0.92553	-1.01607	0.31428
2122.000	-3.14423	0.99114	-1.02003	0.33417
2123.000	-3.40434	0.90551	-1.01805	0.28643
2124.000	-3.29795	0.84206	-1.00026	0.26057
2125.000	-3.15014	0.91964	-1.01607	0.32223
2126.000	-3.15605	0.97921	-1.01410	0.31229
2127.000	-3.14817	0.94149	-0.99433	0.32423
2128.000	-3.33341	0.92543	-1.01805	0.29837
2129.000	-3.22504	0.86595	-1.00421	0.25461
2130.000	-3.17379	0.91962	-1.03781	0.34809
2131.000	-3.09692	0.94948	-0.98050	0.26257
2132.000	-3.19153	0.91762	-1.01607	0.23670
2133.000	-3.17576	1.04869	-1.01014	0.33019
2134.000	-3.16591	0.95338	-1.00817	0.39185
2135.000	-3.18365	1.04074	-1.07141	0.33416
2136.000	-3.13043	0.92561	-1.00817	0.36003
2137.000	-3.17576	0.97125	-1.04769	0.38986
2138.000	-3.09692	1.03090	-1.01607	0.38191
2139.000	-3.22306	0.95333	-1.01212	0.35406
2140.000	-3.05158	1.00910	-1.01805	0.34213
2141.000	-3.03187	0.91775	-1.02003	0.35008
2142.000	-3.10481	0.88592	-1.00421	0.33616
2143.000	-3.24868	1.01883	-1.00421	0.39185
2144.000	-3.09889	1.03288	-1.04769	0.29637
2145.000	-3.16788	1.00104	-0.99631	0.30831
2146.000	-3.25657	1.11215	-1.00224	0.30831
2147.000	-3.08115	0.99715	-1.02003	0.33417
2148.000	-3.23095	0.92552	-1.03188	0.30433
2149.000	-3.10481	1.06266	-0.97259	0.35605
2150.000	-3.05947	1.00313	-1.00421	0.25859
2151.000	-3.16000	0.93155	-0.98445	0.29837
2152.000	-3.11072	0.98720	-1.00026	0.32025
2153.000	-3.04369	0.99917	-1.03386	0.30035
2154.000	-3.14226	0.94943	-0.96271	0.30832
2155.000	-3.14029	0.92958	-0.97259	0.27450
2156.000	-3.18956	0.99904	-1.02003	0.30035
2157.000	-3.11860	0.99513	-0.99631	0.30632
2158.000	-3.14226	0.93355	-0.98050	0.34810
2159.000	-3.20730	0.96923	-0.97852	0.30434
2160.000	-3.23883	1.00494	-1.01607	0.39583
2161.000	-3.25263	0.86593	-1.05362	0.36201
2162.000	-3.20139	0.95335	-1.02793	0.28643
2163.000	-3.25460	1.00294	-1.11291	0.26255
2164.000	-3.56979	0.99070	-1.11884	0.14520
2165.000	-3.56586	1.02842	-1.32238	0.26651
2166.000	-3.91036	1.08556	-1.53181	0.30029
2167.000	-4.14053	1.02376	-1.77873	0.32412
2168.000	-4.39808	1.09877	-2.08877	0.32008
2169.000	-4.62010	1.02509	-2.33552	0.17890
2170.000	-5.06372	1.09375	-2.61968	0.30406
2171.000	-5.51260	1.08108	-3.00821	0.19470
2172.000	-6.05271	0.97919	-3.37479	0.16682
2173.000	-6.22275	1.01446	-3.70369	0.14890
2174.000	-6.72047	0.86532	-4.04415	0.14288
2175.000	-7.17827	0.84672	-4.32535	0.12299
2176.000	-7.50109	0.85794	-4.57885	0.00595
2177.000	-7.81180	0.79031	-4.79683	-0.06542
2178.000	-8.05615	0.57516	-5.05391	-0.08125
2179.000	-8.21502	0.50799	-5.24806	-0.23179
2180.000	-8.51303	0.43678	-5.42053	-0.34857
2181.000	-8.72948	0.32052	-5.55569	-0.42373
2182.000	-9.01126	0.22989	-5.78670	-0.41169
2183.000	-9.20016	0.22191	-5.94712	-0.49665
2184.000	-9.51581	0.07456	-6.15240	-0.60919
2185.000	-9.54465	0.09809	-6.22470	-0.48848
2186.000	-9.86543	0.06860	-6.36533	-0.54766
2187.000	-9.91915	0.07643	-6.52345	-0.42693
2188.000	-9.95368	0.09210	-6.69122	-0.47223
2189.000	-10.06871	0.08423	-6.77117	-0.46425
2190.000	-10.07638	0.13319	-6.74777	-0.38130
2191.000	-10.01887	0.10579	-6.75752	-0.37141
2192.000	-9.85583	0.13132	-6.74972	-0.26078
2193.000	-9.89997	0.10975	-6.70097	-0.28057
2194.000	-9.85583	-0.00196	-6.73997	-0.27659
2195.000	-9.75217	0.10980	-6.66587	-0.36753
2196.000	-9.68111	-0.02746	-6.72047	-0.40898
2197.000	-9.48119	-0.02747	-6.60345	-0.38931
2198.000	-9.53312	0.00392	-6.57419	-0.39526
2199.000	-9.51966	-0.09222	-6.55467	-0.32018
2200.000	-9.49081	-0.07653	-6.56638	-0.38144
2201.000	-9.46965	-0.05691	-6.63271	-0.34186
2202.000	-9.51581	-0.03336	-6.63466	-0.37348
2203.000	-9.51773	-0.03728	-6.70487	-0.34181
2204.000	-9.62346	-0.04511	-6.73217	-0.32006
2205.000	-9.67150	-0.01177	-6.85888	-0.36146
2206.000	-9.64652	0.02354	-6.86083	-0.36936
2207.000	-9.60809	0.02942	-6.90565	-0.31995
2208.000	-9.63691	0.06080	-6.92513	-0.28241
2209.000	-9.65229	0.10199	-6.94071	-0.32387
2210.000	-9.73105	0.17059	-6.96994	-0.36927
2211.000	-9.56003	0.12556	-7.00305	-0.32580
2212.000	-9.66958	0.15297	-7.00694	-0.31988
2213.000	-9.60232	0.10004	-6.99136	-0.34556
2214.000	-9.70608	0.13727	-7.00694	-0.34752
2215.000	-9.61770	0.16476	-7.03615	-0.33368
2216.000	-9.75217	-0.00588	-7.02447	-0.37120
2217.000	-9.79633	0.17840	-7.05173	-0.34551
2218.000	-9.82896	0.06861	-7.08678	-0.32180
2219.000	-9.78673	0.08038	-7.08873	-0.36720
2220.000	-9.88846	-0.02548	-7.15491	-0.34346
2221.000	-9.94601	0.03331	-7.18994	-0.40857
2222.000	-10.07255	-0.08814	-7.24248	-0.39076
2223.000	-9.92874	-0.04115	-7.20356	-0.35527
2224.000	-9.90956	-0.08427	-7.23664	-0.42037
2225.000	-9.94984	-0.00392	-7.22886	-0.41643
2226.000	-9.97477	-0.13520	-7.19189	-0.40659
2227.000	-9.86351	-0.08232	-7.22108	-0.40459
2228.000	-9.93450	-0.02352	-7.19578	-0.39672
2229.000	-9.75601	-0.00980	-7.18994	-0.39475
2230.000	-9.81937	-0.01176	-7.17827	-0.35726
2231.000	-9.85967	-0.11564	-7.11987	-0.37705
2232.000	-9.88078	-0.05880	-7.11598	-0.39284
2233.000	-9.86543	-0.09212	-7.10625	-0.40272
2234.000	-9.88654	-0.12739	-7.10235	-0.37114
2235.000	-10.02463	-0.07053	-7.14907	-0.36715
2236.000	-9.84816	-0.07056	-7.06926	-0.35932
2237.000	-9.83664	-0.06861	-7.06342	-0.41066
2238.000	-9.76945	-0.08038	-7.16075	-0.35530
2239.000	-9.73297	0.01176	-7.10430	-0.34153
2240.000	-9.75601	0.00196	-7.18994	-0.39870
2241.000	-9.66958	0.05295	-7.12377	-0.36125
2242.000	-9.74641	-0.14509	-7.11403	-0.38495
2243.000	-9.62923	-0.00981	-7.13155	-0.36322
2244.000	-9.67150	0.00784	-7.12571	-0.36915
2245.000	-9.56772	-0.06278	-7.06342	-0.39684
2246.000	-9.65229	0.03923	-7.12182	-0.39481
2247.000	-9.55042	-0.05297	-7.15491	-0.38886
2248.000	-9.67726	-0.11571	-7.13934	-0.39085
2249.000	-9.63691	0.03530	-7.15880	-0.39675
2250.000	-9.64844	-0.07649	-7.14713	-0.39874
2251.000	-9.52735	0.10987	-7.11014	-0.39482
2252.000	-9.47350	-0.00981	-7.08483	-0.36326
2253.000	-9.55234	0.02747	-7.11598	-0.38495
2254.000	-9.60424	-0.12358	-7.11793	-0.37113
2255.000	-9.70224	-0.09805	-7.09846	-0.35338
2256.000	-9.61962	-0.01961	-7.07899	-0.36918
2257.000	-9.58695	-0.02158	-7.09846	-0.36127
2258.000	-9.69455	-0.02353	-7.07899	-0.37708
2259.000	-9.63115	-0.08826	-7.13350	-0.33361
2260.000	-9.68303	0.00784	-7.08483	-0.34944
2261.000	-9.63499	-0.04315	-7.11598	-0.40666
2262.000	-9.66382	0.02942	-7.07899	-0.33562
2263.000	-9.68687	-0.03922	-7.11014	-0.34744
2264.000	-9.71760	-0.00196	-7.11209	-0.39679
2265.000	-9.69647	-0.09217	-7.14323	-0.35926
2266.000	-9.69647	0.01765	-7.15686	-0.36517
2267.000	-9.67918	0.00981	-7.10430	-0.43233
2268.000	-9.61578	0.02942	-7.07899	-0.35734
2269.000	-9.63115	0.02942	-7.05757	-0.35933
2270.000	-9.72336	0.00980	-7.09846	-0.41852
2271.000	-9.72913	-0.01176	-7.07899	-0.35931
2272.000	-9.68879	-0.03138	-7.08289	-0.40274
2273.000	-9.75409	0.02353	-7.13155	-0.32769
2274.000	-9.75025	-0.14117	-7.09651	-0.39681
2275.000	-9.69839	-0.05883	-7.06731	-0.37512
2276.000	-9.69839	-0.09217	-7.06731	-0.42645
2277.000	-9.62731	0.00196	-7.11014	-0.32573
2278.000	-9.64268	0.02354	-7.10430	-0.35337
2279.000	-9.68879	-0.00588	-7.12766	-0.35927
2280.000	-9.69263	0.00000	-7.18216	-0.35923
2281.000	-9.68111	0.03922	-7.14907	-0.36715
2282.000	-9.65037	-0.01961	-7.09846	-0.38694
2283.000	-9.83472	-0.23130	-7.11987	-0.41060
2284.000	-9.64844	0.03138	-7.12377	-0.39284
2285.000	-9.71568	-0.03334	-7.08289	-0.36721
2286.000	-9.68495	0.05099	-7.16270	-0.34346
2287.000	-9.79441	0.07058	-7.12377	-0.38691
2288.000	-9.75025	-0.00784	-7.11014	-0.41456
2289.000	-9.57926	0.04904	-7.07899	-0.36326
2290.000	-9.80401	0.04313	-7.12377	-0.35928
2291.000	-9.65037	-0.00392	-7.07510	-0.41657
2292.000	-9.70800	-0.06471	-7.14713	-0.40466
2293.000	-9.75409	-0.08235	-7.09651	-0.44813
2294.000	-9.80593	-0.03921	-7.06926	-0.38104
2295.000	-9.72721	-0.02353	-7.10041	-0.41852
2296.000	-9.67342	-0.02942	-7.15296	-0.41255
2297.000	-9.74641	0.00392	-7.13155	-0.41652
2298.000	-9.76561	-0.03137	-7.11014	-0.43430
2299.000	-9.71952	0.02745	-7.07120	-0.43434
2300.000	-9.73297	-0.08039	-7.09067	-0.42248
2301.000	-9.65805	-0.06864	-7.11403	-0.41456
2302.000	-9.77905	-0.02157	-7.12766	-0.41257
2303.000	-9.59463	0.09416	-7.12571	-0.40665
2304.000	-9.74449	0.03137	-7.11987	-0.37112
2305.000	-9.74833	-0.03921	-7.15686	-0.36912
2306.000	-9.85008	-0.09605	-7.10625	-0.33955
2307.000	-9.62923	0.03531	-7.09262	-0.38891
2308.000	-9.76753	0.03529	-7.08289	-0.43038
2309.000	-9.63691	0.07649	-7.09651	-0.35535
2310.000	-9.80209	-0.00784	-7.09262	-0.38694
2311.000	-9.65229	0.01961	-7.10041	-0.38693
2312.000	-9.79441	-0.03529	-7.12571	-0.38691
2313.000	-9.79249	-0.07254	-7.09262	-0.34351
2314.000	-9.84624	-0.12937	-7.09262	-0.35141
2315.000	-9.69839	-0.02942	-7.08483	-0.36326
2316.000	-9.77521	-0.00588	-7.05368	-0.41856
2317.000	-9.84624	-0.07252	-7.08094	-0.35339
2318.000	-9.75217	-0.04117	-7.07120	-0.41855
2319.000	-9.70032	-0.02941	-7.15102	-0.42045
2320.000	-9.79633	-0.03921	-7.08289	-0.34944
2321.000	-9.80017	0.00588	-7.07899	-0.41262
2322.000	-9.85391	-0.03920	-7.10041	-0.38299
2323.000	-9.72721	0.14118	-7.08483	-0.42446
2324.000	-9.82129	0.00784	-7.07899	-0.41854
2325.000	-9.75025	-0.07843	-7.09457	-0.45208
2326.000	-9.64076	-0.09022	-7.11209	-0.44614
2327.000	-9.77329	-0.03529	-7.15491	-0.47768
2328.000	-9.72721	-0.00196	-7.15880	-0.42636
2329.000	-9.67534	-0.04903	-7.09262	-0.38694
2330.000	-9.65805	0.04511	-7.11403	-0.42048
2331.000	-9.87310	-0.07840	-7.13545	-0.40664
2332.000	-9.69071	-0.01765	-7.08873	-0.40668
2333.000	-9.74257	-0.04314	-7.15102	-0.41650
2334.000	-9.66958	-0.11571	-7.12766	-0.45008
2335.000	-9.76177	0.01569	-7.14518	-0.47177
2336.000	-9.68111	-0.09217	-7.18410	-0.42436
2337.000	-9.62731	-0.00392	-7.19189	-0.45199
2338.000	-9.61578	-0.00392	-7.15686	-0.45992
2339.000	-9.75409	-0.00784	-7.16075	-0.45004
2340.000	-9.51389	-0.05101	-7.14907	-0.48164
2341.000	-9.76177	-0.07058	-7.18994	-0.42831
2342.000	-9.79441	-0.00392	-7.11014	-0.45009
2343.000	-9.86159	-0.04508	-7.17243	-0.46385
2344.000	-9.80209	-0.05293	-7.20551	-0.48750
2345.000	-9.74449	-0.05294	-7.19578	-0.47369
2346.000	-9.79633	0.01176	-7.10819	-0.46786
2347.000	-9.80017	0.02941	-7.19578	-0.43619
2348.000	-9.77713	-0.07842	-7.12377	-0.47772
2349.000	-9.71568	0.00000	-7.16075	-0.41649
2350.000	-9.76753	0.01961	-7.17827	-0.42239
2351.000	-9.64460	-0.05688	-7.18216	-0.39871
2352.000	-9.69071	-0.10786	-7.17827	-0.42832
2353.000	-9.76753	-0.11175	-7.15491	-0.40663
2354.000	-9.69455	-0.01765	-7.18216	-0.40463
2355.000	-9.69839	-0.00981	-7.15686	-0.43821
2356.000	-9.85200	-0.08428	-7.19578	-0.38685
2357.000	-9.72913	0.00392	-7.16075	-0.37504
2358.000	-9.80401	0.00196	-7.12766	-0.39481
2359.000	-9.65613	0.02354	-7.19578	-0.41843
2360.000	-9.73105	-0.07451	-7.15491	-0.38886
2361.000	-9.59656	-0.01177	-7.22497	-0.39275
2362.000	-9.66189	-0.01765	-7.12182	-0.43429
2363.000	-9.63307	0.03530	-7.14518	-0.38887
2364.000	-9.71184	0.03137	-7.17632	-0.34937
2365.000	-9.66382	0.00000	-7.18605	-0.43620
2366.000	-9.71184	-0.01373	-7.12961	-0.39678
2367.000	-9.72913	0.02745	-7.14907	-0.35926
2368.000	-9.73105	-0.00784	-7.14129	-0.42638
2369.000	-9.73681	0.04706	-7.15491	-0.40070
2370.000	-9.69647	0.04314	-7.13545	-0.41256
2371.000	-9.68111	-0.06668	-7.14129	-0.39085
2372.000	-9.78097	-0.05686	-7.15296	-0.42242
2373.000	-9.67342	-0.03334	-7.19578	-0.41251
2374.000	-9.70416	-0.02549	-7.14129	-0.37111
2375.000	-9.70608	-0.08040	-7.18410	-0.33555
2376.000	-9.66958	-0.01373	-7.21524	-0.42631
2377.000	-9.65613	0.05099	-7.18216	-0.38884
2378.000	-9.73105	-0.03137	-7.19189	-0.38093
2379.000	-9.67918	-0.07060	-7.16270	-0.40267
2380.000	-9.61962	-0.06669	-7.18994	-0.37502
2381.000	-9.59848	-0.02158	-7.18216	-0.37107
2382.000	-9.63691	-0.04903	-7.18605	-0.30594
2383.000	-9.75217	0.00000	-7.20162	-0.33948
2384.000	-9.73297	-0.01569	-7.24442	-0.36313
2385.000	-9.59848	-0.00785	-7.18605	-0.47370
2386.000	-9.70992	0.02549	-7.18216	-0.36318
2387.000	-9.61001	-0.02158	-7.16659	-0.33358
2388.000	-9.65037	-0.14710	-7.23859	-0.41247
2389.000	-9.72913	-0.00196	-7.19773	-0.44606
2390.000	-9.64076	0.10787	-7.17437	-0.38884
2391.000	-9.69263	-0.07256	-7.19578	-0.41448
2392.000	-9.53504	0.11575	-7.23081	-0.35919
2393.000	-9.64460	0.06080	-7.18021	-0.31976
2394.000	-9.69071	0.00784	-7.23081	-0.29407
2395.000	-9.74641	0.01961	-7.19967	-0.34738
2396.000	-9.76561	-0.05490	-7.18994	-0.38883
2397.000	-9.75025	-0.08823	-7.26388	-0.32759
2398.000	-9.64268	-0.04903	-7.24637	-0.37892
2399.000	-9.75601	-0.00196	-7.22108	-0.36315
2400.000	-9.61578	0.01961	-7.18800	-0.40068
2401.000	-9.73297	0.01373	-7.26972	-0.36508
2402.000	-9.62731	-0.07061	-7.20746	-0.33750
2403.000	-9.65229	-0.01961	-7.20162	-0.39474
2404.000	-9.63499	0.04903	-7.22302	-0.29407
2405.000	-9.65805	0.01961	-7.23275	-0.33946
2406.000	-9.68495	-0.06668	-7.22108	-0.35723
2407.000	-9.56965	-0.07455	-7.20940	-0.37697
2408.000	-9.71376	-0.14511	-7.28333	-0.32955
2409.000	-9.62346	0.04904	-7.23470	-0.36708
2410.000	-9.52543	-0.03532	-7.26388	-0.33746
2411.000	-9.63691	-0.00392	-7.24248	-0.33550
2412.000	-9.62154	-0.05688	-7.24637	-0.34734
2413.000	-9.75217	-0.03921	-7.20356	-0.38487
2414.000	-9.71184	-0.00392	-7.20940	-0.34342
2415.000	-9.67918	-0.02942	-7.19773	-0.37106
2416.000	-9.70992	0.04902	-7.25804	-0.34733
2417.000	-9.62538	-0.04511	-7.19967	-0.34540
2418.000	-9.69647	-0.01765	-7.18021	-0.30792
2419.000	-9.71568	-0.02745	-7.26388	-0.30983
2420.000	-9.72336	-0.04706	-7.27166	-0.30588
2421.000	-9.61578	0.10004	-7.21524	-0.30987
2422.000	-9.64268	0.00000	-7.22497	-0.29999
2423.000	-9.84432	0.02156	-7.24053	-0.37103
2424.000	-9.63691	-0.04511	-7.20746	-0.35132
2425.000	-9.63691	0.06080	-7.28139	-0.34534
2426.000	-9.56772	-0.00981	-7.24053	-0.36116
2427.000	-9.70032	-0.05883	-7.27361	-0.37297
2428.000	-9.61001	-0.12358	-7.22886	-0.34143
2429.000	-9.79633	-0.00588	-7.24637	-0.33747
2430.000	-9.64268	-0.00196	-7.25999	-0.33746
2431.000	-9.69071	-0.01961	-7.27944	-0.33547
2432.000	-9.54081	-0.03139	-7.27166	-0.33351
2433.000	-9.64652	-0.00196	-7.22108	-0.34736
2434.000	-9.64652	0.07453	-7.25221	-0.31971
2435.000	-9.61770	0.07454	-7.23275	-0.34143
2436.000	-9.77713	-0.12547	-7.27555	-0.28614
2437.000	-9.68111	-0.01961	-7.23081	-0.29999
2438.000	-9.58695	-0.05100	-7.25999	-0.33352
2439.000	-9.55811	0.02943	-7.25999	-0.32168
2440.000	-9.60617	0.00588	-7.24248	-0.32958
2441.000	-9.71760	-0.02157	-7.25221	-0.33944
2442.000	-9.73105	-0.01569	-7.25610	-0.31773
2443.000	-9.62731	-0.03334	-7.19967	-0.29014
2444.000	-9.64460	-0.04511	-7.23664	-0.30590
2445.000	-9.74065	-0.02157	-7.22108	-0.30986
2446.000	-9.65613	0.01569	-7.25221	-0.37299
2447.000	-9.64460	0.13729	-7.23081	-0.33748
2448.000	-9.60040	-0.03139	-7.26193	-0.26444
2449.000	-9.57926	-0.02158	-7.23664	-0.32761
2450.000	-9.62538	0.06080	-7.26388	-0.29996
2451.000	-9.69263	0.00196	-7.23275	-0.28814
2452.000	-9.61770	0.09415	-7.21719	-0.24868
2453.000	-9.74449	0.04706	-7.23470	-0.29012
2454.000	-9.63499	0.05884	-7.25415	-0.27826
2455.000	-9.65613	0.05295	-7.23275	-0.28222
2456.000	-9.65613	-0.02746	-7.25221	-0.32760
2457.000	-9.66574	0.02157	-7.26777	-0.27628
2458.000	-9.68495	-0.06275	-7.26388	-0.22103
2459.000	-9.56580	0.05689	-7.29695	-0.25258
2460.000	-9.61193	0.07846	-7.26777	-0.29010
2461.000	-9.70224	0.00588	-7.22886	-0.24275
2462.000	-9.69263	-0.01569	-7.23081	-0.29801
2463.000	-9.63884	0.04315	-7.22886	-0.27038
2464.000	-9.66574	-0.02157	-7.24442	-0.25064
2465.000	-9.48504	-0.00785	-7.24832	-0.17564
2466.000	-9.62923	0.13338	-7.28333	-0.22694
2467.000	-9.61962	0.09807	-7.17632	-0.19541
2468.000	-9.57349	0.06866	-7.28528	-0.24864
2469.000	-9.67918	0.06276	-7.24053	-0.16973
2470.000	-9.70992	-0.01765	-7.22302	-0.20526
2471.000	-9.68111	0.00588	-7.26777	-0.31772
2472.000	-9.76561	-0.00588	-7.27944	-0.27825
2473.000	-9.52350	0.12164	-7.25415	-0.28616
2474.000	-9.65997	-0.02942	-7.25610	-0.29997
2475.000	-9.68687	0.08433	-7.25804	-0.29207
2476.000	-9.59463	0.05493	-7.26582	-0.27036
2477.000	-9.56772	0.08828	-7.29889	-0.33349
2478.000	-9.60617	0.01177	-7.27166	-0.43020
2479.000	-9.57733	0.05100	-7.21329	-0.42039
2480.000	-9.67342	-0.13336	-7.23470	-0.48352
2481.000	-9.50043	-0.17071	-7.20940	-0.53683
2482.000	-9.55234	-0.29820	-7.08289	-0.60805
2483.000	-9.70992	-0.48434	-6.98162	-0.68321
2484.000	-9.62538	-0.51192	-6.93292	-0.85704
2485.000	-9.48312	-0.86529	-6.86862	-1.06844
2486.000	-9.72144	-1.11755	-6.72437	-1.21293
2487.000	-9.62731	-1.14924	-6.74972	-1.50707
2488.000	-9.56003	-1.36320	-6.59760	-1.73068
2489.000	-9.63884	-1.58829	-6.59955	-1.81952
2490.000	-9.62154	-1.66284	-6.64051	-1.98320
2491.000	-9.75793	-1.83455	-6.66197	-2.03443
2492.000	-9.77905	-2.02634	-6.69902	-2.16451
2493.000	-9.82705	-2.09261	-6.76337	-2.14449
2494.000	-9.88270	-2.18033	-6.76532	-2.19972
2495.000	-9.89613	-2.15480	-6.86278	-2.18744
2496.000	-10.00162	-2.20497	-6.94656	-2.19100
2497.000	-9.90764	-2.31323	-6.95630	-2.20475
2498.000	-9.91340	-2.28384	-7.05368	-2.17669
2499.000	-9.82705	-2.19245	-7.17827	-2.20567
2500.000	-9.97477	-2.23255	-7.17827	-2.29632
2501.000	-9.84624	-2.33910	-7.26972	-2.34512
2502.000	-9.86735	-2.21762	-7.29889	-2.37648
2503.000	-9.89421	-2.20961	-7.29306	-2.48682
2504.000	-9.91723	-2.21533	-7.32223	-2.56150
2505.000	-9.88846	-2.26053	-7.30862	-2.56551
2506.000	-10.06680	-2.34730	-7.33585	-2.65199
2507.000	-10.03229	-2.37688	-7.31640	-2.59304
2508.000	-9.96710	-2.42235	-7.32223	-2.56937
2509.000	-9.94792	-2.32468	-7.31056	-2.62852
2510.000	-9.94217	-2.35993	-7.30862	-2.59111
2511.000	-9.93450	-2.34043	-7.30667	-2.58522
2512.000	-9.94025	-2.36777	-7.27944	-2.53614
2513.000	-10.00162	-2.23432	-7.27361	-2.48890
2514.000	-9.95751	-2.20527	-7.23470	-2.44972
2515.000	-9.71952	-2.23623	-7.21719	-2.39662
2516.000	-9.70992	-2.18343	-7.25999	-2.24665
2517.000	-9.76177	-2.07149	-7.24442	-2.28614
2518.000	-9.61578	-2.16837	-7.23081	-2.29409
2519.000	-9.56772	-1.90221	-7.27555	-2.24854
2520.000	-9.67342	-1.99956	-7.30084	-2.22083
2521.000	-9.68495	-1.90155	-7.29695	-2.24647
2522.000	-9.64652	-2.06436	-7.31834	-2.17937
2523.000	-9.72529	-2.05996	-7.26972	-2.21902
2524.000	-9.75409	-1.98537	-7.32029	-2.26408
2525.000	-9.75985	-2.03038	-7.37474	-2.26380
2526.000	-9.68111	-2.12095	-7.33196	-2.30539
2527.000	-9.84048	-2.06904	-7.33001	-2.30146
2528.000	-9.76945	-2.08710	-7.34752	-2.31713
2529.000	-9.79825	-2.07909	-7.28528	-2.32927
2530.000	-9.77713	-2.24759	-7.30473	-2.32523
2531.000	-9.80977	-2.20430	-7.31251	-2.42369
2532.000	-9.83856	-2.17280	-7.26972	-2.40225
2533.000	-9.83664	-2.20021	-7.30278	-2.47101
2534.000	-9.79249	-2.19659	-7.28917	-2.40805
2535.000	-9.91531	-2.26621	-7.28917	-2.39032
2536.000	-9.83856	-2.27457	-7.28528	-2.43368
2537.000	-9.88078	-2.17643	-7.30473	-2.38236
2538.000	-9.91531	-2.25056	-7.34168	-2.41762
2539.000	-9.78481	-2.28081	-7.34557	-2.48062
2540.000	-9.82513	-2.30402	-7.31640	-2.38427
2541.000	-9.70416	-2.22262	-7.32029	-2.43743
2542.000	-9.77521	-2.31415	-7.39224	-2.37008
2543.000	-9.83280	-2.29027	-7.38446	-2.46268
2544.000	-9.76945	-2.24568	-7.34363	-2.33094
2545.000	-9.72529	-2.25577	-7.31251	-2.39020
2546.000	-9.92491	-2.27398	-7.33779	-2.39991
2547.000	-9.86735	-2.17848	-7.34168	-2.39201
2548.000	-9.70800	-2.31854	-7.33585	-2.36841
2549.000	-9.84624	-2.29996	-7.28528	-2.37655
2550.000	-9.81745	-2.27080	-7.30084	-2.34101
2551.000	-9.77521	-2.25347	-7.24442	-2.31766
2552.000	-9.76369	-2.25942	-7.21719	-2.37494
2553.000	-9.90956	-2.22125	-7.24832	-2.32355
2554.000	-9.82896	-2.30399	-7.26972	-2.33920
2555.000	-9.85775	-2.24313	-7.28722	-2.41988
2556.000	-9.75025	-2.27518	-7.26582	-2.37272
2557.000	-9.81937	-2.30210	-7.27944	-2.37462
2558.000	-9.87886	-2.27429	-7.23859	-2.31769
2559.000	-9.69071	-2.31278	-7.23859	-2.31966
2560.000	-9.85391	-2.22162	-7.30473	-2.32523
2561.000	-9.85391	-2.26272	-7.28333	-2.31549
2562.000	-9.96327	-2.38130	-7.23664	-2.29209
2563.000	-9.64844	-2.34048	-7.25415	-2.35702
2564.000	-9.77137	-2.34158	-7.26388	-2.33924
2565.000	-9.88846	-2.27031	-7.21135	-2.31783
2566.000	-9.74641	-2.20472	-7.22691	-2.30396
2567.000	-9.80017	-2.22786	-7.17437	-2.33379
2568.000	-9.87310	-2.29390	-7.23275	-2.33940
2569.000	-9.78865	-2.24555	-7.22497	-2.29412
2570.000	-9.82321	-2.24336	-7.21913	-2.30794
2571.000	-9.82321	-2.16115	-7.21719	-2.32371
2572.000	-9.72336	-2.25187	-7.20162	-2.30212
2573.000	-9.84624	-2.22559	-7.23081	-2.31970
2574.000	-9.95943	-2.33829	-7.22302	-2.28822
2575.000	-9.85391	-2.21575	-7.24442	-2.32357
2576.000	-9.79057	-2.29056	-7.25610	-2.29790
2577.000	-9.79825	-2.25332	-7.25026	-2.27823
2578.000	-9.82896	-2.31965	-7.18021	-2.33573
2579.000	-9.85391	-2.29404	-7.20746	-2.33756
2580.000	-9.87886	-2.21363	-7.26193	-2.32348
2581.000	-9.82896	-2.26094	-7.21524	-2.35722
2582.000	-9.82129	-2.25903	-7.24248	-2.34329
2583.000	-9.86927	-2.24501	-7.22691	-2.31775
2584.000	-9.89229	-2.32703	-7.25221	-2.30974
2585.000	-9.84048	-2.29413	-7.23275	-2.33546
2586.000	-9.70992	-2.25783	-7.19189	-2.32581
2587.000	-9.75601	-2.33386	-7.25415	-2.36490
2588.000	-9.80785	-2.19061	-7.25610	-2.28017
2589.000	-9.75409	-2.22229	-7.21524	-2.34934
2590.000	-9.85391	-2.23141	-7.24248	-2.30388
2591.000	-9.74833	-2.27127	-7.24832	-2.33932
2592.000	-9.81937	-2.26296	-7.24248	-2.35314
2593.000	-9.80209	-2.19848	-7.21524	-2.30205
2594.000	-9.77329	-2.33961	-7.25999	-2.29394
2595.000	-9.84432	-2.22952	-7.23470	-2.29604
2596.000	-9.88078	-2.28798	-7.23470	-2.35712
2597.000	-9.77905	-2.24953	-7.27361	-2.28402
2598.000	-9.88654	-2.30359	-7.28139	-2.35096
2599.000	-9.78481	-2.25732	-7.24248	-2.31373
2600.000	-9.94984	-2.26793	-7.18410	-2.30221
2601.000	-9.80209	-2.33745	-7.22302	-2.30989
2602.000	-9.84048	-2.20019	-7.20940	-2.34740
2603.000	-9.88846	-2.30554	-7.22108	-2.37098
2604.000	-9.81937	-2.22381	-7.21524	-2.38875
2605.000	-9.76945	-2.19674	-7.24248	-2.32949
2606.000	-9.74833	-2.28302	-7.22886	-2.32562
2607.000	-9.89613	-2.35244	-7.21524	-2.39860
2608.000	-9.79249	-2.22204	-7.19967	-2.33563
2609.000	-9.76753	-2.35923	-7.18605	-2.32978
2610.000	-9.76753	-2.24765	-7.21913	-2.30203
2611.000	-9.85008	-2.31559	-7.24053	-2.30389
2612.000	-9.80593	-2.35308	-7.17437	-2.22540
2613.000	-9.68687	-2.25603	-7.18216	-2.28842
2614.000	-9.90956	-2.27017	-7.18994	-2.27656
2615.000	-9.78865	-2.20444	-7.24248	-2.21718
2616.000	-9.76369	-2.28096	-7.20940	-2.20355
2617.000	-9.86543	-2.28026	-7.21329	-2.25279
2618.000	-9.78481	-2.31800	-7.20162	-2.22526
2619.000	-9.88462	-2.32904	-7.19773	-2.21740
2620.000	-9.86351	-2.32724	-7.20940	-2.24690
2621.000	-9.74449	-2.25368	-7.14907	-2.23143
2622.000	-9.66958	-2.18956	-7.20940	-2.21340
2623.000	-9.82129	-2.28839	-7.21329	-2.20944
2624.000	-9.69263	-2.31081	-7.18021	-2.26872
2625.000	-9.79633	-2.27486	-7.19383	-2.25092
2626.000	-9.82513	-2.31185	-7.18994	-2.21152
2627.000	-9.83280	-2.23742	-7.20356	-2.23314
2628.000	-9.83472	-2.26873	-7.24442	-2.22308
2629.000	-9.84816	-2.24515	-7.24053	-2.25660
2630.000	-9.77905	-2.21430	-7.21913	-2.19167
2631.000	-9.84432	-2.22756	-7.20162	-2.24300
2632.000	-9.89805	-2.24090	-7.21719	-2.23898
2633.000	-9.91340	-2.17230	-7.23859	-2.24873
2634.000	-9.79825	-2.22983	-7.24442	-2.23687
2635.000	-9.79249	-2.29446	-7.25610	-2.26637
2636.000	-9.92874	-2.27786	-7.23081	-2.24088
2637.000	-9.78865	-2.29253	-7.22691	-2.33549
2638.000	-9.87310	-2.27825	-7.25026	-2.28217
2639.000	-9.78289	-2.30236	-7.24832	-2.29794
2640.000	-9.74257	-2.27523	-7.17437	-2.26481
2641.000	-9.78673	-2.29450	-7.16464	-2.26683
2642.000	-9.88462	-2.15684	-7.22886	-2.31183
2643.000	-9.81937	-2.24534	-7.23275	-2.29211
2644.000	-9.77905	-2.16340	-7.22108	-2.26655
2645.000	-9.83664	-2.32351	-7.24832	-2.26838
2646.000	-9.77713	-2.19082	-7.18410	-2.26082
2647.000	-9.80017	-2.23569	-7.22691	-2.28228
2648.000	-9.75409	-2.16160	-7.21329	-2.28038
2649.000	-9.80977	-2.25911	-7.19578	-2.26865
2650.000	-9.75025	-2.15575	-7.27750	-2.28203
2651.000	-9.83664	-2.25306	-7.19578	-2.30609
2652.000	-9.90572	-2.23302	-7.24053	-2.29010
2653.000	-9.93066	-2.24850	-7.25610	-2.36883
2654.000	-9.81745	-2.24340	-7.23275	-2.28620
2655.000	-9.75217	-2.30648	-7.25221	-2.29201
2656.000	-9.83664	-2.31568	-7.22691	-2.35519
2657.000	-9.78481	-2.20643	-7.22302	-2.28427
2658.000	-9.81745	-2.24536	-7.23859	-2.33740
2659.000	-9.97094	-2.28931	-7.23081	-2.27832
2660.000	-9.86927	-2.24501	-7.21135	-2.29222
2661.000	-9.85391	-2.33904	-7.20551	-2.30604
2662.000	-9.66766	-2.26986	-7.24248	-2.29403
2663.000	-9.98820	-2.33222	-7.23081	-2.30788
2664.000	-9.82321	-2.33730	-7.22691	-2.34337
2665.000	-9.88654	-2.34273	-7.24248	-2.26447
2666.000	-9.85775	-2.35858	-7.26193	-2.32151
2667.000	-9.92107	-2.33270	-7.21135	-2.33557
2668.000	-9.86351	-2.20982	-7.21524	-2.29220
2669.000	-9.87694	-2.34475	-7.20162	-2.31394
2670.000	-9.85583	-2.25097	-7.20162	-2.33365
2671.000	-9.67150	-2.25417	-7.24832	-2.27035
2672.000	-9.88846	-2.31336	-7.20356	-2.28240
2673.000	-9.91915	-2.26815	-7.16075	-2.19393
2674.000	-9.89229	-2.25659	-7.18021	-2.23719
2675.000	-9.83856	-2.26870	-7.18410	-2.24309
2676.000	-9.78481	-2.26320	-7.18216	-2.23521
2677.000	-9.73873	-2.37705	-7.22302	-2.11085
2678.000	-9.98436	-2.32247	-7.14323	-2.17627
2679.000	-9.91531	-2.21730	-7.18800	-2.17606
2680.000	-9.82896	-2.18460	-7.15491	-2.20972
2681.000	-9.71376	-2.23431	-7.16853	-2.25499
2682.000	-9.88462	-2.25273	-7.20940	-2.26267
2683.000	-9.88462	-2.27230	-7.23859	-2.27828
2684.000	-9.79249	-2.32186	-7.21719	-2.23307
2685.000	-9.83088	-2.26875	-7.16853	-2.25696
2686.000	-9.73873	-2.19890	-7.21524	-2.30205
2687.000	-9.83280	-2.18262	-7.23859	-2.28420
2688.000	-9.74257	-2.26740	-7.21719	-2.27051
2689.000	-9.79249	-2.26119	-7.20162	-2.31985
2690.000	-9.86927	-2.30567	-7.23664	-2.29406
2691.000	-9.82896	-2.18265	-7.21913	-2.27050
2692.000	-9.77521	-2.23781	-7.20746	-2.28041
2693.000	-9.86543	-2.21176	-7.16853	-2.31017
2694.000	-9.82129	-2.24533	-7.24442	-2.25658
2695.000	-9.85967	-2.24507	-7.21913	-2.24291
2696.000	-9.69455	-2.19919	-7.20551	-2.27057
2697.000	-9.80209	-2.21610	-7.22497	-2.27047
2698.000	-9.74257	-2.35549	-7.22108	-2.27640
2699.000	-9.84624	-2.31562	-7.16659	-2.23923
2700.000	-9.85391	-2.37427	-7.21135	-2.23507
2701.000	-9.76369	-2.29270	-7.16853	-2.30426
2702.000	-9.88270	-2.23709	-7.22691	-2.19952
2703.000	-9.86543	-2.29787	-7.23275	-2.17978
2704.000	-9.68303	-2.29130	-7.20940	-2.22325
2705.000	-9.72721	-2.31449	-7.18800	-2.27263
2706.000	-9.89421	-2.20961	-7.18605	-2.24899
2707.000	-9.79633	-2.13783	-7.21913	-2.21729
2708.000	-9.89037	-2.24682	-7.16270	-2.22742
2709.000	-9.76753	-2.17718	-7.18605	-2.20957
2710.000	-9.62346	-2.19770	-7.15880	-2.21562
2711.000	-9.79825	-2.25332	-7.19578	-2.20558
2712.000	-9.76177	-2.23986	-7.19773	-2.27061
2713.000	-9.83664	-2.31177	-7.20356	-2.23511
2714.000	-9.75985	-2.32992	-7.17437	-2.22145
2715.000	-9.81553	-2.29234	-7.20162	-2.23906
2716.000	-9.85200	-2.34884	-7.19578	-2.24106
2717.000	-9.90764	-2.36214	-7.18410	-2.29629
2718.000	-9.89229	-2.35442	-7.21719	-2.34539
2719.000	-9.75409	-2.31822	-7.21135	-2.33360
2720.000	-9.71760	-2.24211	-7.21719	-2.30598
2721.000	-9.76561	-2.25158	-7.26193	-2.32545
2722.000	-9.74833	-2.28498	-7.22886	-2.28819
2723.000	-9.67918	-2.27566	-7.23859	-2.34528
2724.000	-9.84432	-2.38021	-7.24637	-2.36297
2725.000	-9.72144	-2.27929	-7.23470	-2.33742
2726.000	-9.73873	-2.23023	-7.18994	-2.31991
2727.000	-9.85008	-2.32537	-7.23275	-2.39653
2728.000	-9.70224	-2.24222	-7.27750	-2.35887
2729.000	-9.65229	-2.36200	-7.20940	-2.30799
2730.000	-9.82321	-2.35687	-7.24248	-2.28418
2731.000	-9.65037	-2.13093	-7.17437	-2.28846
2732.000	-9.70800	-2.40271	-7.21524	-2.30599
2733.000	-9.69455	-2.30492	-7.22108	-2.30202
2734.000	-9.86159	-2.34290	-7.20551	-2.33363
2735.000	-9.77329	-2.33178	-7.23859	-2.29405
2736.000	-9.66189	-2.25228	-7.25610	-2.26046
2737.000	-9.75217	-2.31627	-7.24832	-2.31764
2738.000	-9.71952	-2.25776	-7.25999	-2.24862
2739.000	-9.71184	-2.25977	-7.25804	-2.26242
2740.000	-9.71568	-2.30674	-7.26388	-2.31165
2741.000	-9.71952	-2.37327	-7.24442	-2.24870
2742.000	-9.79057	-2.34536	-7.26388	-2.31362
2743.000	-9.75409	-2.32213	-7.26388	-2.23678
2744.000	-9.79249	-2.32773	-7.24053	-2.25660
2745.000	-9.68111	-2.24627	-7.30473	-2.17352
2746.000	-9.80017	-2.29832	-7.18021	-2.21354
2747.000	-9.77905	-2.22408	-7.22302	-2.21136
2748.000	-9.83664	-2.23544	-7.24832	-2.21715
2749.000	-9.80017	-2.27092	-7.22108	-2.22911
2750.000	-9.78097	-2.31216	-7.26777	-2.22691
2751.000	-9.77905	-2.27889	-7.24248	-2.24477
2752.000	-9.71568	-2.27150	-7.16270	-2.21954
2753.000	-9.77329	-2.27698	-7.19773	-2.22725
2754.000	-9.64076	-2.28179	-7.23275	-2.19555
2755.000	-9.77905	-2.28672	-7.24832	-2.23686
2756.000	-9.82321	-2.32948	-7.22886	-2.17586
2757.000	-9.85967	-2.23724	-7.25415	-2.23683
2758.000	-9.77137	-2.24175	-7.27944	-2.24852
2759.000	-9.83472	-2.30983	-7.23859	-2.23690
2760.000	-9.78097	-2.22603	-7.26582	-2.25647
2761.000	-9.66382	-2.22289	-7.29111	-2.29575
2762.000	-9.80977	-2.37458	-7.26388	-2.30968
2763.000	-9.73105	-2.22832	-7.26582	-2.34317
2764.000	-9.74449	-2.22627	-7.27361	-2.29387
2765.000	-9.71568	-2.24213	-7.29695	-2.32133
2766.000	-9.87886	-2.28408	-7.26388	-2.32741
2767.000	-9.85967	-2.22159	-7.28139	-2.26822
2768.000	-9.65037	-2.20731	-7.27750	-2.29779
2769.000	-9.76369	-2.21440	-7.26388	-2.34318
2770.000	-9.81745	-2.26689	-7.28139	-2.32929
2771.000	-9.73489	-2.30073	-7.28722	-2.30562
2772.000	-9.66382	-2.27772	-7.27361	-2.28796
2773.000	-9.72144	-2.24796	-7.27166	-2.35299
2774.000	-9.76945	-2.23785	-7.26193	-2.29590
2775.000	-9.73681	-2.23024	-7.29889	-2.33511
2776.000	-9.65037	-2.14073	-7.32029	-2.35470
2777.000	-9.73105	-2.20091	-7.26777	-2.31360
2778.000	-9.69263	-2.23641	-7.27944	-2.34309
2779.000	-9.84432	-2.12382	-7.27361	-2.32539
2780.000	-9.74257	-2.29089	-7.25804	-2.27030
2781.000	-9.82321	-2.21987	-7.27750	-2.28006
2782.000	-9.71952	-2.20490	-7.30084	-2.24250
2783.000	-9.74833	-2.30455	-7.29695	-2.23464
2784.000	-9.76945	-2.29266	-7.26582	-2.24662
2785.000	-9.80017	-2.31398	-7.20940	-2.22522
2786.000	-9.73681	-2.24199	-7.26972	-2.21113
2787.000	-9.77905	-2.31413	-7.24832	-2.21124
2788.000	-9.74641	-2.28695	-7.19578	-2.21544
2789.000	-9.76369	-2.29466	-7.21524	-2.20943
2790.000	-9.74449	-2.29088	-7.18021	-2.21945
2791.000	-9.79249	-2.29838	-7.12961	-2.23941
2792.000	-9.73489	-2.23417	-7.09262	-2.19819
2793.000	-9.62538	-2.18006	-7.02836	-2.11766
2794.000	-9.46773	-2.12424	-6.93292	-2.22261
2795.000	-9.38115	-2.20513	-6.83744	-2.10076
2796.000	-9.26949	-2.18035	-6.68732	-2.14680
2797.000	-9.06525	-2.26791	-6.36924	-2.18962
2798.000	-8.61356	-2.20785	-5.98819	-2.07265
2799.000	-8.37182	-2.16796	-5.68101	-2.09751
2800.000	-7.99800	-2.18967	-5.29118	-1.97819
2801.000	-7.57104	-2.03238	-4.85180	-2.02310
2802.000	-7.07120	-2.11155	-4.36860	-1.95315
2803.000	-6.68927	-1.99090	-4.01464	-1.90844
2804.000	-6.25791	-2.04395	-3.62099	-1.96087
2805.000	-5.84932	-1.94073	-3.19350	-1.89032
2806.000	-5.38134	-1.79786	-2.77552	-1.95455
2807.000	-4.96759	-1.86833	-2.40855	-1.94916
2808.000	-4.73204	-1.76599	-2.12036	-1.84628
2809.000	-4.45507	-1.80234	-1.79256	-1.94993
2810.000	-4.22705	-1.82469	-1.50218	-1.88664
2811.000	-3.83164	-1.82756	-1.26508	-1.96829
2812.000	-3.68991	-1.81000	-0.97852	-2.03007
2813.000	-3.55601	-1.78845	-0.79273	-2.08580
2814.000	-3.33144	-1.76506	-0.58913	-1.98257
2815.000	-3.16197	-1.77925	-0.33609	-1.96675
2816.000	-2.80905	-1.67262	-0.18386	-2.08201
2817.000	-2.66505	-1.79989	0.02175	-1.98069
2818.000	-2.44604	-1.74062	0.22933	-1.91311
2819.000	-2.21906	-1.67735	0.44086	-1.89519
2820.000	-1.81823	-1.68968	0.59506	-1.83950
2821.000	-1.70170	-1.78714	0.79470	-1.73210
2822.000	-1.48045	-1.77143	1.03584	-1.69423
2823.000	-1.29274	-1.77157	1.25322	-1.72192
2824.000	-0.96073	-1.77774	1.42315	-1.70591
2825.000	-0.82435	-1.78575	1.62466	-1.66203
2826.000	-0.62471	-1.83353	1.74120	-1.62816
2827.000	-0.51203	-1.76599	1.85773	-1.65587
2828.000	-0.49622	-1.74016	1.92488	-1.61210
2829.000	-0.28864	-1.59708	2.05323	-1.67157
2830.000	-0.28073	-1.62094	2.13418	-1.61983
2831.000	-0.27085	-1.58715	2.09666	-1.59206
2832.000	-0.26096	-1.53347	2.09666	-1.54240
2833.000	-0.32027	-1.40026	1.99597	-1.50077
2834.000	-0.38551	-1.36248	1.92290	-1.42930
2835.000	-0.48435	-1.33065	1.85971	-1.44327
2836.000	-0.50412	-1.22924	1.75503	-1.43540
2837.000	-0.51796	-1.13577	1.70565	-1.36787
2838.000	-0.54959	-1.13179	1.70762	-1.32017
2839.000	-0.65831	-1.07211	1.68590	-1.32813
2840.000	-0.71761	-1.16953	1.63849	-1.26655
2841.000	-0.68994	-1.10989	1.60886	-1.29638
2842.000	-0.75517	-1.17947	1.60886	-1.29638
2843.000	-0.69785	-1.30077	1.60491	-1.30433
2844.000	-0.76901	-1.27093	1.66022	-1.30628
2845.000	-0.67017	-1.35247	1.69380	-1.28241
2846.000	-0.69389	-1.29481	1.71355	-1.30824
2847.000	-0.63855	-1.33658	1.73528	-1.35592
2848.000	-0.51598	-1.27696	1.79848	-1.32010
2849.000	-0.54761	-1.34455	1.83996	-1.36578
2850.000	-0.41319	-1.39428	1.87551	-1.35582
2851.000	-0.39737	-1.38236	1.98214	-1.39746
2852.000	-0.34795	-1.35453	1.92093	-1.41738
2853.000	-0.31434	-1.31874	1.93278	-1.45115
2854.000	-0.25305	-1.24717	1.98807	-1.37361
2855.000	-0.25305	-1.35653	1.99399	-1.39745
2856.000	-0.33609	-1.29488	1.94265	-1.43525
2857.000	-0.20363	-1.38039	1.94067	-1.40346
2858.000	-0.09292	-1.30683	2.00781	-1.41731
2859.000	-0.07908	-1.42017	1.94265	-1.46307
2860.000	-0.09687	-1.32473	1.98412	-1.49681
2861.000	-0.10676	-1.30285	2.00189	-1.44513
2862.000	-0.14037	-1.38040	2.01966	-1.48287
2863.000	-0.09490	-1.35654	1.99202	-1.44315
2864.000	-0.20165	-1.25910	1.99991	-1.49481
2865.000	-0.16409	-1.24916	2.00979	-1.41135
2866.000	-0.04152	-1.28894	2.04335	-1.44112
2867.000	-0.21154	-1.37840	2.03743	-1.46894
2868.000	-0.08699	-1.19747	2.02361	-1.45505
2869.000	-0.13246	-1.27104	1.99991	-1.44315
2870.000	-0.02175	-1.25712	1.95647	-1.39947
2871.000	-0.16211	-1.19150	1.92685	-1.44520
2872.000	-0.09490	-1.19150	1.94857	-1.42729
2873.000	0.00000	-1.11394	1.97029	-1.38952
2874.000	-0.01384	-1.16366	1.97029	-1.39946
2875.000	-0.09292	-1.21337	1.98412	-1.43322
2876.000	-0.09094	-1.16565	1.97622	-1.41137
2877.000	-0.19572	-1.16962	1.92093	-1.39950
2878.000	-0.10874	-1.18752	1.95252	-1.33787
2879.000	-0.06129	-1.19349	1.91303	-1.38559
2880.000	-0.08106	-1.13980	1.92488	-1.46308
2881.000	-0.12060	-1.18354	1.92290	-1.39552
2882.000	-0.08106	-1.16366	1.94265	-1.40147
2883.000	-0.21352	-1.13382	1.98214	-1.42727
2884.000	-0.17991	-1.20144	1.92093	-1.42732
2885.000	-0.09885	-1.14974	1.91303	-1.43130
2886.000	-0.21549	-1.26507	1.93672	-1.38558
2887.000	-0.12653	-1.12985	1.91698	-1.41937
2888.000	-0.03954	-1.16963	1.93475	-1.39154
2889.000	-0.16014	-1.18155	1.93475	-1.39353
2890.000	-0.17991	-1.15172	1.93870	-1.42134
2891.000	-0.13048	-1.11991	1.92290	-1.41539
2892.000	-0.07315	-1.10997	1.90513	-1.39355
2893.000	-0.10478	-1.15173	1.94067	-1.43525
2894.000	-0.10676	-1.15968	1.92290	-1.38956
2895.000	-0.14630	-1.10400	1.93870	-1.37961
2896.000	-0.15025	-1.16763	1.94857	-1.35973
2897.000	-0.10280	-1.06820	1.94660	-1.41935
2898.000	-0.11664	-1.13383	1.97227	-1.36369
2899.000	-0.01384	-1.09803	1.92290	-1.35180
2900.000	-0.08699	-1.10798	1.91303	-1.40745
2901.000	-0.14432	-1.07019	1.93672	-1.37961
2902.000	-0.09490	-1.04235	1.89723	-1.36375
2903.000	-0.15618	-1.08809	1.93080	-1.37763
2904.000	-0.07513	-1.15769	1.92093	-1.40943
2905.000	-0.05536	-1.20542	1.95647	-1.39748
2906.000	-0.04745	-1.07019	1.93080	-1.36770
2907.000	-0.16211	-1.07615	1.94067	-1.40147
2908.000	-0.20165	-1.13581	1.92093	-1.38360
2909.000	-0.13048	-1.20144	1.94660	-1.39948
2910.000	-0.06722	-1.08014	1.91303	-1.40745
2911.000	-0.11269	-1.14178	1.95055	-1.43325
2912.000	-0.12060	-1.16366	1.92290	-1.43328
2913.000	-0.09885	-1.09207	1.90710	-1.39951
2914.000	-0.10083	-1.07616	1.96635	-1.36767
2915.000	-0.02768	-1.15968	1.92685	-1.35776
2916.000	-0.13048	-1.16366	1.90710	-1.41143
2917.000	-0.09292	-1.16764	1.98807	-1.37162
2918.000	-0.04943	-1.02843	1.91105	-1.38162
2919.000	-0.13048	-1.09207	1.97227	-1.39548
2920.000	-0.03559	-1.04832	1.97819	-1.40342
2921.000	-0.07908	-1.18752	1.92685	-1.39154
2922.000	-0.05536	-1.10599	1.93672	-1.45115
2923.000	-0.09687	-1.08809	1.92488	-1.43328
2924.000	-0.01779	-1.16764	1.96042	-1.41735
2925.000	-0.07315	-1.14377	1.95647	-1.46504
2926.000	-0.05338	-1.20343	1.95252	-1.44915
2927.000	-0.10874	-1.19945	1.93080	-1.45314
2928.000	-0.18188	-1.18553	1.95252	-1.45312
2929.000	-0.14630	-1.10996	1.90908	-1.44521
2930.000	-0.10478	-1.20741	1.93080	-1.45910
2931.000	-0.15816	-1.09008	1.92093	-1.41142
2932.000	-0.05338	-1.11991	1.93870	-1.40544
2933.000	-0.13839	-1.12985	1.88933	-1.39158
2934.000	-0.16409	-1.04632	1.92685	-1.41936
2935.000	-0.05733	-1.05229	1.90513	-1.29220
2936.000	-0.04349	-1.10798	1.87551	-1.33992
2937.000	-0.12060	-1.12786	1.91698	-1.32597
2938.000	-0.10874	-1.10798	1.89525	-1.33593
2939.000	-0.18188	-1.14576	1.83798	-1.33398
2940.000	-0.11269	-1.17360	1.91303	-1.36175
2941.000	-0.16211	-1.21735	1.87353	-1.32998
2942.000	-0.21945	-1.16564	1.90908	-1.34983
2943.000	-0.14630	-1.08013	1.92290	-1.27231
2944.000	-0.19572	-1.13780	1.85773	-1.32006
2945.000	-0.15816	-1.18155	1.87748	-1.33594
2946.000	-0.11664	-1.03638	1.88735	-1.31010
2947.000	-0.13641	-1.13781	1.91895	-1.30411
2948.000	-0.08303	-1.14775	1.88341	-1.34587
2949.000	-0.10676	-1.09207	1.86761	-1.32999
2950.000	-0.11862	-1.15570	1.86761	-1.34589
2951.000	-0.13246	-1.20144	1.91105	-1.34784
2952.000	-0.08699	-1.10798	1.88933	-1.34189
2953.000	-0.06524	-1.11593	1.88341	-1.34786
2954.000	-0.03954	-1.18156	1.89920	-1.33791
2955.000	-0.16607	-1.20144	1.92093	-1.37367
2956.000	-0.10478	-1.19746	1.91698	-1.41739
2957.000	-0.18979	-1.21138	1.92883	-1.36571
2958.000	-0.16607	-1.19348	1.93080	-1.31802
2959.000	-0.05338	-1.16764	1.90710	-1.33194
2960.000	-0.10874	-1.21934	1.88735	-1.33196
2961.000	-0.15618	-1.11394	1.94067	-1.29217
2962.000	-0.14432	-1.22530	1.91105	-1.35976
2963.000	-0.12257	-1.18354	1.86168	-1.31211
2964.000	-0.08897	-1.21536	1.87353	-1.35780
2965.000	-0.12455	-1.13979	1.90513	-1.34586
2966.000	-0.13048	-1.25513	1.86563	-1.36377
2967.000	0.02175	-1.08809	1.89130	-1.36375
2968.000	-0.07315	-1.14974	1.95450	-1.35178
2969.000	-0.09490	-1.10798	1.88538	-1.26638
2970.000	-0.14827	-1.14974	1.90908	-1.37566
2971.000	-0.08106	-1.21735	1.93080	-1.36571
2972.000	0.00395	-1.21735	1.90118	-1.35182
2973.000	-0.10874	-1.20741	1.90513	-1.43727
2974.000	-0.10676	-1.20940	1.90710	-1.37566
2975.000	-0.08699	-1.29092	1.87353	-1.43332
2976.000	-0.09885	-1.22530	1.91698	-1.46309
2977.000	-0.07710	-1.26706	1.89130	-1.38760
2978.000	-0.07117	-1.25116	1.89130	-1.34189
2979.000	-0.11664	-1.23922	1.88143	-1.41543
2980.000	-0.07710	-1.18752	1.91500	-1.42335
2981.000	-0.15223	-1.17758	1.92093	-1.38758
2982.000	-0.05140	-1.19945	1.89920	-1.38362
2983.000	-0.13839	-1.25712	1.93278	-1.44519
2984.000	-0.16804	-1.28297	1.90908	-1.43528
2985.000	-0.04943	-1.26905	1.95252	-1.41736
2986.000	-0.07513	-1.21536	1.96437	-1.40145
2987.000	-0.16804	-1.28098	1.89920	-1.41541
2988.000	-0.11467	-1.21138	1.90710	-1.47303
2989.000	-0.01582	-1.20144	1.86563	-1.40948
2990.000	-0.09490	-1.21934	1.89920	-1.40349
2991.000	-0.07908	-1.14178	1.91500	-1.47700
2992.000	-0.01977	-1.16764	1.87748	-1.44126
2993.000	-0.03361	-1.14576	1.88143	-1.44921
2994.000	-0.08699	-1.27502	1.92685	-1.45712
2995.000	-0.02570	-1.20741	1.89328	-1.43926
2996.000	-0.14827	-1.17360	1.93278	-1.48294
2997.000	-0.04745	-1.21934	1.92883	-1.46705
2998.000	-0.05338	-1.22531	1.94660	-1.44319
2999.000	-0.05338	-1.21536	1.93278	-1.45115
3000.000	-0.06524	-1.22928	1.93278	-1.40148
3001.000	-0.02570	-1.17360	1.92290	-1.38757
3002.000	-0.11071	-1.14775	1.93672	-1.40147
3003.000	-0.03163	-1.19548	1.93080	-1.42532
3004.000	-0.00593	-1.19548	1.91105	-1.46111
3005.000	-0.03756	-1.14576	1.94067	-1.47499
3006.000	-0.07908	-1.18355	1.95252	-1.44915
3007.000	-0.09292	-1.18553	1.96240	-1.51272
3008.000	-0.02966	-1.11394	1.93672	-1.47499
3009.000	-0.00395	-1.15968	1.88735	-1.52471
3010.000	-0.04745	-1.23923	1.90513	-1.52271
3011.000	-0.04152	-1.16764	1.91500	-1.52071
3012.000	-0.09490	-1.20741	1.90315	-1.50681
3013.000	-0.09687	-1.16565	1.86168	-1.57441
3014.000	-0.01582	-1.18156	1.93870	-1.52466
3015.000	-0.00593	-1.15571	1.96042	-1.49484
3016.000	-0.02175	-1.21735	1.90710	-1.48694
3017.000	0.07315	-1.12389	1.95252	-1.49684
3018.000	0.10083	-1.16366	1.90118	-1.46708
3019.000	0.10478	-1.18752	1.84588	-1.46315
3020.000	0.05140	-1.13582	1.89328	-1.46510
3021.000	-0.03756	-1.17559	1.91105	-1.46707
3022.000	0.08897	-1.13184	1.90710	-1.50284
3023.000	-0.05140	-1.27502	1.84786	-1.49891
3024.000	-0.01977	-1.14576	1.89328	-1.50086
3025.000	0.06722	-1.13582	1.88143	-1.47107
3026.000	-0.02966	-1.16565	1.88341	-1.51478
3027.000	0.03954	-1.07815	1.86761	-1.55652
3028.000	-0.00198	-1.18355	1.89723	-1.55053
3029.000	-0.01384	-1.17758	1.88341	-1.52670
3030.000	-0.00593	-1.26309	1.88933	-1.52670
3031.000	-0.03954	-1.21337	1.89525	-1.56444
3032.000	0.06920	-1.16366	1.84786	-1.44924
3033.000	-0.01582	-1.19349	1.87551	-1.49293
3034.000	0.02570	-1.18752	1.87551	-1.44126
3035.000	0.09885	-1.17161	1.87353	-1.48101
3036.000	0.01779	-1.14775	1.89723	-1.49291
3037.000	0.07513	-1.25911	1.87551	-1.51081
3038.000	-0.00791	-1.18951	1.87551	-1.53863
3039.000	0.00593	-1.17758	1.85181	-1.49692
3040.000	0.11467	-1.12587	1.85971	-1.52473
3041.000	0.04152	-1.16366	1.88341	-1.47703
3042.000	0.00791	-1.20144	1.86563	-1.44723
3043.000	0.02768	-1.19349	1.81823	-1.50490
3044.000	0.02768	-1.21139	1.84391	-1.49494
3045.000	0.05931	-1.11792	1.90118	-1.51278
3046.000	0.02372	-1.19548	1.79651	-1.49697
3047.000	0.06326	-1.21139	1.83403	-1.56052
3048.000	0.12060	-1.18951	1.83008	-1.49098
3049.000	0.04349	-1.17957	1.83206	-1.50687
3050.000	0.12257	-1.14377	1.90315	-1.54655
3051.000	-0.00791	-1.21934	1.86761	-1.52473
3052.000	0.03163	-1.20343	1.84983	-1.50885
3053.000	0.01384	-1.17957	1.82021	-1.52676
3054.000	-0.00593	-1.21338	1.86958	-1.53069
3055.000	0.08897	-1.18355	1.86366	-1.52870
3056.000	0.04745	-1.21934	1.85773	-1.51679
3057.000	0.04152	-1.14576	1.84391	-1.47110
3058.000	0.03756	-1.21139	1.90710	-1.53264
3059.000	0.09094	-1.16962	1.83206	-1.46912
3060.000	-0.02175	-1.20741	1.84193	-1.53468
3061.000	0.04349	-1.22133	1.89525	-1.52073
3062.000	0.04547	-1.22928	1.88933	-1.53464
3063.000	0.04943	-1.27701	1.83996	-1.55257
3064.000	0.05338	-1.28098	1.86958	-1.54062
3065.000	0.04349	-1.20343	1.86168	-1.52672
3066.000	0.04745	-1.22332	1.83996	-1.47706
3067.000	0.02570	-1.29689	1.87748	-1.60022
3068.000	-0.01977	-1.16764	1.80836	-1.56849
3069.000	0.11269	-1.21536	1.87353	-1.58234
3070.000	0.05536	-1.14775	1.86168	-1.57838
3071.000	0.08106	-1.22928	1.88341	-1.59823
3072.000	0.06129	-1.18156	1.83996	-1.58237
3073.000	0.05140	-1.18553	1.82811	-1.62212
3074.000	0.09490	-1.20343	1.81033	-1.63803
3075.000	0.09885	-1.25115	1.89130	-1.56444
3076.000	0.11862	-1.18156	1.87353	-1.58234
3077.000	0.07315	-1.24519	1.87551	-1.61612
3078.000	0.03361	-1.26706	1.92685	-1.64190
3079.000	0.07513	-1.24519	1.87748	-1.60419
3080.000	0.03361	-1.25911	1.92290	-1.63991
3081.000	0.06722	-1.25513	1.89525	-1.63795
3082.000	0.02966	-1.28496	1.87156	-1.56446
3083.000	0.05733	-1.31280	1.82613	-1.63007
3084.000	0.07315	-1.26706	1.83996	-1.66383
3085.000	0.08303	-1.20144	1.84193	-1.62211
3086.000	0.05338	-1.18553	1.85181	-1.64793
3087.000	0.11071	-1.26905	1.84193	-1.59231
3088.000	0.10874	-1.26507	1.83601	-1.63403
3089.000	0.12060	-1.21735	1.90710	-1.58033
3090.000	0.16014	-1.24519	1.85378	-1.62011
3091.000	0.10676	-1.20144	1.87551	-1.62009
3092.000	0.09292	-1.25911	1.88538	-1.59823
3093.000	0.05733	-1.18951	1.86761	-1.59824
3094.000	0.03954	-1.21139	1.83403	-1.60026
3095.000	0.07513	-1.28695	1.84391	-1.65787
3096.000	0.02372	-1.25712	1.88735	-1.60021
3097.000	0.00791	-1.33069	1.86168	-1.61613
3098.000	0.07315	-1.31081	1.86958	-1.60023
3099.000	0.14234	-1.21536	1.85181	-1.58435
3100.000	0.11071	-1.26110	1.82416	-1.53867
3101.000	0.04547	-1.28894	1.86958	-1.63202
3102.000	-0.00198	-1.38239	1.82021	-1.54066
3103.000	0.02570	-1.21735	1.85181	-1.58435
3104.000	0.13246	-1.27303	1.85576	-1.59031
3105.000	0.07513	-1.26508	1.81823	-1.61220
3106.000	0.05536	-1.23326	1.81626	-1.56849
3107.000	0.21747	-1.21933	1.81823	-1.66187
3108.000	0.10478	-1.29888	1.82613	-1.64000
3109.000	0.13246	-1.24320	1.82811	-1.61219
3110.000	0.09490	-1.23525	1.84983	-1.64594
3111.000	0.00198	-1.15769	1.83206	-1.63602
3112.000	0.15816	-1.22729	1.83008	-1.58834
3113.000	0.15816	-1.21735	1.80638	-1.58042
3114.000	0.05931	-1.21934	1.84391	-1.52276
3115.000	0.19375	-1.30285	1.82021	-1.59034
3116.000	0.15223	-1.24320	1.82218	-1.54265
3117.000	0.08106	-1.34262	1.85773	-1.55057
3118.000	0.17002	-1.20343	1.87353	-1.59029
3119.000	0.17398	-1.24916	1.80046	-1.59234
3120.000	0.11664	-1.20343	1.84391	-1.61019
3121.000	0.19177	-1.34262	1.84391	-1.63403
3122.000	0.21352	-1.22729	1.83798	-1.59231
3123.000	0.17595	-1.23325	1.81033	-1.61816
3124.000	0.13444	-1.27501	1.82218	-1.63405
3125.000	0.05931	-1.28894	1.82021	-1.57643
3126.000	0.07513	-1.27502	1.78663	-1.61421
3127.000	0.07513	-1.27899	1.81626	-1.60226
3128.000	0.04349	-1.27900	1.81626	-1.63405
3129.000	0.09687	-1.32870	1.82416	-1.63603
3130.000	0.17595	-1.27899	1.83403	-1.64198
3131.000	0.09292	-1.27899	1.85378	-1.63998
3132.000	0.15223	-1.30285	1.80638	-1.62015
3133.000	0.21549	-1.27302	1.86563	-1.61017
3134.000	0.16804	-1.28496	1.82218	-1.58438
3135.000	0.14037	-1.26507	1.87748	-1.65188
3136.000	0.16409	-1.26706	1.81428	-1.62213
3137.000	0.17398	-1.28893	1.78268	-1.58838
3138.000	0.07315	-1.27899	1.85971	-1.68765
3139.000	0.21352	-1.25115	1.83403	-1.67576
3140.000	0.13641	-1.26110	1.79651	-1.61619
3141.000	0.13246	-1.31876	1.83206	-1.61814
3142.000	0.10874	-1.28098	1.81428	-1.64995
3143.000	0.08106	-1.29888	1.79453	-1.62811
3144.000	0.13839	-1.32870	1.79058	-1.62215
3145.000	0.17002	-1.28098	1.76095	-1.64006
3146.000	0.16014	-1.27303	1.82021	-1.65193
3147.000	0.10676	-1.32870	1.85971	-1.62209
3148.000	0.06326	-1.34660	1.81033	-1.57644
3149.000	0.10874	-1.33666	1.81033	-1.64598
3150.000	0.09490	-1.32274	1.82021	-1.62014
3151.000	0.10478	-1.32870	1.83798	-1.60026
3152.000	0.17200	-1.26706	1.86366	-1.75122
3153.000	0.06129	-1.33467	1.77676	-1.66190
3154.000	0.17002	-1.33466	1.84786	-1.64992
3155.000	0.04547	-1.29689	1.81823	-1.65988
3156.000	0.10874	-1.34262	1.84391	-1.68568
3157.000	0.13246	-1.32473	1.81231	-1.68969
3158.000	0.08501	-1.37046	1.83798	-1.63602
3159.000	0.09885	-1.35058	1.83403	-1.68370
3160.000	0.13246	-1.35455	1.79453	-1.68970
3161.000	0.19375	-1.29092	1.81428	-1.68372
3162.000	0.02768	-1.33865	1.85378	-1.69759
3163.000	0.17002	-1.32075	1.78268	-1.65196
3164.000	0.09094	-1.29490	1.85181	-1.64395
3165.000	0.09885	-1.39034	1.86168	-1.68765
3166.000	0.16607	-1.30285	1.84588	-1.69959
3167.000	0.20561	-1.32273	1.84391	-1.66383
3168.000	0.12850	-1.32274	1.86563	-1.73533
3169.000	0.17991	-1.33864	1.84983	-1.69561
3170.000	0.06920	-1.31677	1.83798	-1.71350
3171.000	0.09490	-1.24320	1.86366	-1.69957
3172.000	0.10874	-1.34859	1.82218	-1.64994
3173.000	0.11269	-1.30484	1.92290	-1.74719
3174.000	0.11664	-1.35654	1.83008	-1.70159
3175.000	0.11664	-1.39829	1.84786	-1.68767
3176.000	0.18188	-1.27104	1.82416	-1.70557
3177.000	0.24910	-1.33665	1.81626	-1.65591
3178.000	0.16804	-1.39431	1.80046	-1.74930
3179.000	0.15816	-1.33268	1.82613	-1.73537
3180.000	0.14432	-1.32870	1.83206	-1.75920
3181.000	0.19375	-1.27899	1.80836	-1.71552
3182.000	0.21549	-1.32273	1.86366	-1.74328
3183.000	0.16409	-1.25712	1.78268	-1.66786
3184.000	-0.01186	-1.37245	1.84786	-1.72740
3185.000	0.13246	-1.33467	1.82021	-1.72742
3186.000	0.08501	-1.35654	1.82218	-1.73736
3187.000	0.10478	-1.30087	1.78071	-1.74733
3188.000	0.06722	-1.28894	1.79848	-1.73341
3189.000	0.11664	-1.27899	1.80243	-1.78108
3190.000	0.06524	-1.34461	1.83403	-1.75522
3191.000	0.17595	-1.32472	1.82811	-1.72742
3192.000	0.10280	-1.28297	1.81231	-1.77908
3193.000	0.11269	-1.28894	1.81033	-1.70955
3194.000	0.11071	-1.35057	1.77676	-1.75528
3195.000	0.12257	-1.29888	1.80441	-1.74731
3196.000	0.10478	-1.36052	1.78268	-1.74931
3197.000	0.12455	-1.37642	1.76886	-1.77714
3198.000	0.15025	-1.31876	1.78268	-1.76123
3199.000	0.09885	-1.33666	1.79058	-1.76123
3200.000	0.07513	-1.34262	1.78861	-1.77712
3201.000	0.09885	-1.30087	1.77478	-1.76323
3202.000	0.06722	-1.30087	1.79256	-1.82479
3203.000	0.09292	-1.37841	1.76688	-1.75330
3204.000	0.13246	-1.43806	1.76886	-1.75131
3205.000	0.17793	-1.26109	1.82021	-1.79894
3206.000	0.20165	-1.31478	1.82218	-1.85456
3207.000	0.11071	-1.38636	1.79453	-1.79301
3208.000	0.12850	-1.36052	1.80638	-1.84862
3209.000	0.16804	-1.33268	1.78663	-1.80891
3210.000	0.09687	-1.23326	1.78268	-1.79500
3211.000	0.11269	-1.31677	1.77873	-1.82679
3212.000	0.13048	-1.31478	1.78268	-1.81090
3213.000	0.05733	-1.29490	1.78861	-1.79500
3214.000	0.04745	-1.34859	1.78268	-1.78507
3215.000	0.09292	-1.33268	1.79848	-1.81287
3216.000	0.13839	-1.21735	1.73528	-1.81094
3217.000	0.08106	-1.32672	1.78663	-1.79301
3218.000	0.09292	-1.32473	1.74318	-1.80696
3219.000	0.09687	-1.32473	1.82416	-1.83072
3220.000	0.13444	-1.25911	1.77873	-1.81090
3221.000	0.17595	-1.32472	1.80046	-1.77711
3222.000	0.22142	-1.30285	1.78861	-1.87843
3223.000	0.15421	-1.30285	1.79651	-1.79698
3224.000	0.24317	-1.28893	1.76688	-1.82879
3225.000	0.15025	-1.27104	1.77873	-1.82282
3226.000	0.20165	-1.29489	1.77281	-1.81289
3227.000	0.20363	-1.28296	1.72145	-1.79109
3228.000	0.17002	-1.30484	1.77676	-1.80693
3229.000	0.16211	-1.28893	1.77873	-1.82878
3230.000	0.20956	-1.31080	1.77873	-1.82282
3231.000	0.07315	-1.36449	1.74318	-1.82484
3232.000	0.16804	-1.30484	1.79453	-1.82280
3233.000	0.16014	-1.23524	1.76491	-1.85263
3234.000	0.19375	-1.29887	1.72145	-1.78712
3235.000	0.12850	-1.28098	1.73923	-1.83080
3236.000	0.21945	-1.25314	1.75503	-1.79304
3237.000	0.17991	-1.28893	1.75108	-1.84668
3238.000	0.14630	-1.28694	1.77281	-1.78905
3239.000	0.07315	-1.34063	1.74515	-1.83080
3240.000	0.13444	-1.28098	1.81033	-1.86649
3241.000	0.12455	-1.30683	1.75898	-1.83476
3242.000	0.15223	-1.25314	1.75108	-1.80099
3243.000	0.14037	-1.36250	1.77083	-1.77316
3244.000	0.04745	-1.34262	1.77083	-1.83673
3245.000	0.14827	-1.29092	1.75898	-1.77715
3246.000	0.08699	-1.37046	1.70367	-1.83282
3247.000	0.16804	-1.32472	1.76688	-1.82482
3248.000	0.13444	-1.32671	1.73725	-1.80498
3249.000	0.15421	-1.22132	1.75898	-1.82483
3250.000	0.11664	-1.32473	1.77676	-1.80296
3251.000	0.11862	-1.29291	1.74910	-1.85860
3252.000	0.22340	-1.25512	1.74713	-1.83278
3253.000	0.12257	-1.31280	1.77281	-1.78508
3254.000	0.10478	-1.30484	1.79848	-1.81287
3255.000	0.11664	-1.29092	1.77083	-1.81687
3256.000	0.06326	-1.24320	1.74515	-1.82881
3257.000	0.10478	-1.29291	1.77873	-1.82679
3258.000	0.20561	-1.29887	1.77083	-1.83475
3259.000	0.20363	-1.31080	1.71355	-1.82686
3260.000	0.18386	-1.32472	1.75503	-1.83079
3261.000	0.18584	-1.22729	1.75108	-1.80894
3262.000	0.16804	-1.29490	1.72540	-1.76327
3263.000	0.18386	-1.22928	1.70762	-1.77720
3264.000	0.15421	-1.25712	1.67602	-1.80901
3265.000	0.16409	-1.27302	1.71355	-1.77918
3266.000	0.11071	-1.29888	1.72738	-1.78115
3267.000	0.19572	-1.26507	1.71158	-1.81692
3268.000	0.18386	-1.28694	1.67800	-1.80504
3269.000	0.09687	-1.29888	1.73330	-1.80498
3270.000	0.12060	-1.30683	1.74515	-1.77319
3271.000	0.13839	-1.26507	1.77676	-1.79302
3272.000	0.26294	-1.26109	1.73528	-1.75333
3273.000	0.12455	-1.19945	1.76491	-1.78708
3274.000	0.14432	-1.24916	1.73725	-1.81094
3275.000	0.10083	-1.26507	1.74713	-1.80894
3276.000	0.15421	-1.31081	1.74910	-1.79504
3277.000	0.17595	-1.33268	1.72935	-1.76923
3278.000	0.14037	-1.32075	1.70960	-1.79507
3279.000	0.12850	-1.28496	1.69972	-1.84276
3280.000	0.20561	-1.27103	1.73725	-1.85464
3281.000	0.06326	-1.30286	1.68985	-1.77324
3282.000	0.12257	-1.35654	1.68195	-1.76729
3283.000	0.07908	-1.28297	1.74120	-1.77121
3284.000	0.16014	-1.29689	1.72145	-1.78712
3285.000	0.18386	-1.23127	1.74318	-1.78312
3286.000	0.12850	-1.28496	1.71355	-1.77520
3287.000	0.20758	-1.21734	1.70367	-1.76925
3288.000	0.14432	-1.24320	1.71553	-1.69375
3289.000	0.17398	-1.31677	1.76688	-1.75926
3290.000	0.16607	-1.34262	1.68787	-1.78715
3291.000	0.13246	-1.26308	1.73725	-1.75532
3292.000	0.17595	-1.25115	1.76886	-1.83276
3293.000	0.23526	-1.28694	1.67997	-1.76729
3294.000	0.12060	-1.33268	1.71355	-1.78116
3295.000	0.17793	-1.32472	1.71750	-1.78513
3296.000	0.16409	-1.26507	1.69972	-1.76528
3297.000	0.19375	-1.20740	1.69775	-1.74741
3298.000	0.17595	-1.32671	1.69577	-1.75138
3299.000	0.10478	-1.25513	1.69577	-1.74145
3300.000	0.13444	-1.24916	1.71553	-1.75136
3301.000	0.15816	-1.30086	1.71158	-1.70964
3302.000	0.25305	-1.26109	1.74120	-1.71757
3303.000	0.22340	-1.23723	1.70170	-1.78316
3304.000	0.19375	-1.24916	1.71158	-1.78911
3305.000	0.11467	-1.22332	1.71158	-1.76925
3306.000	0.17595	-1.33069	1.74713	-1.75531
3307.000	0.15025	-1.27303	1.73923	-1.78313
3308.000	0.15421	-1.32472	1.68787	-1.75735
3309.000	0.11269	-1.33666	1.69182	-1.74344
3310.000	0.20956	-1.31677	1.68985	-1.75536
3311.000	0.12653	-1.34461	1.66022	-1.78121
3312.000	0.15223	-1.25115	1.68787	-1.78516
3313.000	0.13839	-1.31876	1.61083	-1.78126
3314.000	0.14827	-1.29689	1.64441	-1.78123
3315.000	0.25305	-1.18950	1.63849	-1.79911
3316.000	0.19770	-1.27501	1.63651	-1.73355
3317.000	0.13246	-1.28893	1.65824	-1.76333
3318.000	0.18781	-1.29887	1.67997	-1.77722
3319.000	0.21154	-1.26109	1.66812	-1.75339
3320.000	0.22142	-1.31875	1.65232	-1.80109
3321.000	0.28271	-1.20938	1.67800	-1.79709
3322.000	0.19375	-1.31080	1.68392	-1.84079
3323.000	0.19968	-1.31080	1.68787	-1.76132
3324.000	0.24515	-1.31477	1.69577	-1.74145
3325.000	0.21549	-1.25910	1.65824	-1.79313
3326.000	0.18979	-1.24320	1.67404	-1.82292
3327.000	0.22538	-1.34460	1.66614	-1.77922
3328.000	0.19375	-1.28495	1.65824	-1.77724
3329.000	0.13839	-1.25911	1.66417	-1.77128
3330.000	0.15618	-1.21138	1.63454	-1.80508
3331.000	0.17793	-1.27104	1.65034	-1.78520
3332.000	0.18386	-1.26308	1.65232	-1.76731
3333.000	0.20363	-1.34262	1.67404	-1.81696
3334.000	0.13246	-1.27104	1.67207	-1.80902
3335.000	0.19572	-1.32671	1.66417	-1.78320
3336.000	0.17991	-1.30484	1.69972	-1.81495
3337.000	0.18584	-1.35852	1.65429	-1.82492
3338.000	0.17793	-1.24320	1.64639	-1.84480
3339.000	0.23131	-1.28097	1.62861	-1.80111
3340.000	0.14827	-1.24718	1.63651	-1.79713
3341.000	0.15025	-1.27899	1.66417	-1.75737
3342.000	0.16014	-1.25115	1.64639	-1.80705
3343.000	0.19572	-1.25711	1.65824	-1.83287
3344.000	0.12850	-1.23525	1.69775	-1.82091
3345.000	0.18584	-1.32671	1.72935	-1.84472
3346.000	0.26096	-1.27898	1.66219	-1.82094
3347.000	0.12653	-1.32671	1.64837	-1.77328
3348.000	0.05536	-1.27899	1.67009	-1.83484
3349.000	0.18979	-1.34460	1.67207	-1.80306
3350.000	0.19375	-1.35256	1.67207	-1.90039
3351.000	0.17595	-1.28893	1.68195	-1.85867
3352.000	0.17002	-1.31677	1.67404	-1.87457
3353.000	0.15025	-1.37244	1.64837	-1.85473
3354.000	0.19968	-1.35256	1.64639	-1.82096
3355.000	0.19375	-1.31080	1.62466	-1.84879
3356.000	0.14037	-1.32671	1.64837	-1.92028
3357.000	0.23131	-1.25314	1.68787	-1.86264
3358.000	0.20165	-1.36648	1.62861	-1.87660
3359.000	0.16409	-1.28694	1.64441	-1.90241
3360.000	0.15421	-1.37046	1.67404	-1.92224
3361.000	0.23922	-1.27501	1.65824	-1.85273
3362.000	0.13444	-1.27104	1.59898	-1.87067
3363.000	0.14234	-1.31677	1.60293	-1.88457
3364.000	0.25108	-1.37641	1.63651	-1.90242
3365.000	0.16409	-1.35853	1.62071	-1.91633
3366.000	0.12850	-1.36250	1.60688	-1.87463
3367.000	0.17991	-1.43805	1.59503	-1.93026
3368.000	0.22538	-1.33864	1.59305	-1.88060
3369.000	0.15025	-1.43806	1.60886	-1.87662
3370.000	0.24119	-1.28893	1.59503	-1.89053
3371.000	0.18584	-1.42811	1.60688	-1.95210
3372.000	0.10478	-1.36251	1.59503	-1.97396
3373.000	0.16607	-1.34461	1.59898	-1.94417
3374.000	0.10874	-1.33467	1.60293	-1.92032
3375.000	0.18188	-1.33268	1.59700	-1.94417
3376.000	0.22340	-1.29290	1.58318	-1.95014
3377.000	0.17991	-1.25314	1.63651	-1.91632
3378.000	0.21352	-1.31875	1.57330	-1.90247
3379.000	0.16804	-1.36250	1.60491	-1.89251
3380.000	0.17002	-1.32870	1.59503	-1.86670
3381.000	0.22933	-1.33665	1.59700	-1.89649
3382.000	0.16409	-1.37841	1.56935	-1.89453
3383.000	0.18979	-1.42215	1.62861	-1.94612
3384.000	0.19177	-1.35256	1.58120	-1.93028
3385.000	0.17793	-1.33665	1.63256	-1.94811
3386.000	0.23329	-1.32671	1.64046	-1.93022
3387.000	0.18584	-1.34659	1.59305	-1.91040
3388.000	0.12455	-1.32274	1.61676	-1.96203
3389.000	0.23329	-1.33864	1.64046	-1.96399
3390.000	0.17595	-1.33665	1.67009	-1.92026
3391.000	0.22538	-1.38834	1.59503	-1.90047
3392.000	0.30643	-1.32869	1.67997	-1.94607
3393.000	0.16211	-1.33467	1.63059	-1.90441
3394.000	0.18188	-1.34659	1.60886	-1.92429
3395.000	0.24515	-1.36051	1.66022	-1.97986
3396.000	0.30446	-1.29488	1.64244	-1.92823
3397.000	0.18584	-1.37443	1.62071	-1.94017
3398.000	0.18979	-1.32472	1.60096	-1.91635
3399.000	0.21549	-1.26507	1.58713	-1.94815
3400.000	0.24317	-1.36448	1.59108	-1.91835
3401.000	0.15816	-1.33665	1.61873	-1.96600
3402.000	0.27678	-1.34062	1.59108	-1.87862
3403.000	0.23526	-1.33665	1.57527	-1.91836
3404.000	0.16014	-1.38636	1.60491	-1.94217
3405.000	0.19177	-1.33466	1.63059	-1.93818
3406.000	0.24712	-1.35056	1.55749	-1.89653
3407.000	0.20363	-1.34659	1.64441	-1.95207
3408.000	0.11664	-1.34660	1.62071	-1.96599
3409.000	0.19770	-1.39829	1.58120	-1.96405
3410.000	0.23922	-1.35057	1.61083	-1.97196
3411.000	0.17793	-1.37045	1.58318	-1.94219
3412.000	0.06722	-1.30484	1.61873	-1.92230
3413.000	0.18386	-1.38039	1.60688	-1.87860
3414.000	0.20956	-1.25314	1.62664	-1.97393
3415.000	0.23329	-1.30483	1.63454	-1.94612
3416.000	0.24712	-1.42811	1.60096	-1.90642
3417.000	0.17793	-1.31677	1.63454	-1.94016
3418.000	0.22538	-1.29688	1.67207	-1.95601
3419.000	0.22933	-1.35057	1.60096	-1.96403
3420.000	0.17991	-1.33069	1.63059	-1.98187
3421.000	0.22933	-1.34659	1.61873	-1.89647
3422.000	0.22933	-1.34858	1.59305	-1.93424
3423.000	0.17200	-1.30484	1.61281	-1.97196
3424.000	0.25899	-1.27699	1.62466	-1.97394
3425.000	0.22735	-1.33864	1.59898	-1.94019
3426.000	0.20561	-1.34460	1.62861	-1.98784
3427.000	0.28666	-1.33068	1.59503	-1.92430
3428.000	0.19770	-1.27302	1.60293	-1.97793
3429.000	0.25305	-1.36448	1.59108	-1.95410
3430.000	0.30841	-1.26506	1.57725	-1.96206
3431.000	0.24119	-1.30284	1.55157	-2.00579
3432.000	0.20758	-1.42215	1.56737	-1.96009
3433.000	0.20363	-1.33466	1.60096	-1.94615
3434.000	0.19375	-1.36449	1.59503	-1.99979
3435.000	0.19968	-1.32273	1.62071	-1.97990
3436.000	0.20561	-1.39829	1.56342	-1.98194
3437.000	0.18979	-1.31080	1.57132	-1.98392
3438.000	0.15421	-1.38040	1.55552	-1.96208
3439.000	0.12850	-1.27700	1.58713	-1.97596
3440.000	0.25899	-1.27302	1.58515	-1.87664
3441.000	0.15025	-1.36847	1.54169	-2.00580
3442.000	0.20165	-1.32472	1.54169	-1.95216
3443.000	0.20165	-1.31080	1.60491	-1.95012
3444.000	0.18188	-1.38437	1.59898	-1.98786
3445.000	0.14630	-1.32274	1.55552	-1.94222
3446.000	0.24515	-1.38437	1.66219	-2.02752
3447.000	0.23526	-1.34062	1.55157	-2.01770
3448.000	0.24515	-1.34062	1.58515	-1.98192
3449.000	0.23329	-1.28893	1.62664	-1.96003
3450.000	0.27282	-1.25910	1.58318	-1.95014
3451.000	0.29259	-1.32869	1.58318	-1.98192
3452.000	0.24317	-1.28097	1.57132	-1.97995
3453.000	0.21154	-1.24319	1.58713	-1.98390
3454.000	0.21945	-1.35852	1.57330	-2.04152
3455.000	0.17200	-1.29490	1.54959	-1.97798
3456.000	0.27085	-1.31278	1.57527	-1.94816
3457.000	0.17793	-1.33466	1.61478	-1.97990
3458.000	0.14234	-1.36250	1.55354	-1.94421
3459.000	0.20363	-1.32472	1.55947	-1.98194
3460.000	0.14432	-1.35057	1.54564	-1.98593
3461.000	0.22735	-1.34858	1.56737	-2.00180
3462.000	0.25305	-1.38635	1.54564	-1.98196
3463.000	0.22340	-1.36846	1.53774	-1.97998
3464.000	0.20956	-1.35256	1.57330	-1.98392
3465.000	0.09292	-1.34461	1.56737	-1.97399
3466.000	0.18386	-1.39034	1.57527	-1.95611
3467.000	0.14432	-1.38835	1.56342	-1.93625
3468.000	0.17793	-1.36648	1.54959	-1.95812
3469.000	0.16014	-1.31080	1.54367	-1.95018
3470.000	0.15223	-1.34660	1.57527	-1.98789
3471.000	0.09885	-1.30683	1.53181	-1.89655
3472.000	0.13048	-1.40426	1.58910	-1.97198
3473.000	0.19770	-1.33267	1.56935	-1.95015
3474.000	0.15223	-1.34858	1.56342	-1.95612
3475.000	0.15421	-1.32671	1.56737	-1.91440
3476.000	0.17200	-1.33665	1.57132	-1.95611
3477.000	0.16409	-1.32075	1.56342	-1.93427
3478.000	0.21747	-1.33068	1.56935	-2.00180
3479.000	0.27480	-1.32471	1.61676	-1.96004
3480.000	0.18584	-1.31478	1.60688	-1.92231
3481.000	0.23329	-1.31279	1.56737	-1.96406
3482.000	0.16607	-1.28496	1.55749	-1.86474
3483.000	0.20363	-1.24717	1.60688	-1.90046
3484.000	0.14630	-1.31677	1.57132	-1.92035
3485.000	0.20363	-1.31080	1.58515	-1.89849
3486.000	0.17200	-1.27302	1.58713	-1.93226
3487.000	0.23329	-1.24916	1.58318	-1.90246
3488.000	0.09490	-1.29689	1.55157	-1.92236
3489.000	0.21549	-1.33267	1.56935	-1.92433
3490.000	0.24515	-1.25115	1.53774	-1.87072
3491.000	0.14630	-1.30882	1.54169	-1.90449
3492.000	0.16014	-1.26507	1.54959	-1.96010
3493.000	0.23131	-1.24717	1.52786	-1.89457
3494.000	0.25503	-1.31676	1.59503	-1.94020
3495.000	0.24910	-1.27302	1.53576	-1.93231
3496.000	0.23131	-1.24319	1.53774	-1.93429
3497.000	0.29852	-1.27102	1.58910	-1.95609
3498.000	0.21352	-1.31279	1.55749	-1.96804
3499.000	0.32422	-1.24716	1.56540	-1.94817
3500.000	0.17002	-1.36051	1.57923	-1.98391
3501.000	0.15816	-1.31081	1.58910	-1.97397
3502.000	0.20758	-1.27302	1.55749	-1.93626
3503.000	0.15816	-1.27700	1.55552	-1.98791
3504.000	0.19572	-1.28893	1.56540	-1.97002
3505.000	0.23131	-1.23922	1.58120	-1.91041
3506.000	0.23922	-1.19944	1.62861	-1.92427
3507.000	0.17991	-1.21138	1.59108	-1.97993
3508.000	0.14234	-1.28098	1.54564	-1.93826
3509.000	0.20758	-1.27302	1.55749	-1.92037
3510.000	0.27876	-1.26904	1.57330	-1.97001
3511.000	0.29062	-1.26705	1.59108	-1.91438
3512.000	0.24317	-1.31676	1.54959	-1.95414
3513.000	0.24317	-1.20342	1.53181	-1.94621
3514.000	0.22340	-1.25512	1.56342	-1.94420
3515.000	0.24317	-1.31080	1.51601	-1.89259
3516.000	0.31039	-1.25710	1.58910	-1.97198
3517.000	0.25701	-1.29091	1.57923	-1.93425
3518.000	0.25108	-1.26904	1.53379	-1.97601
3519.000	0.22735	-1.29489	1.55157	-1.95414
3520.000	0.18781	-1.21337	1.57923	-1.91041
3521.000	0.25108	-1.25910	1.56540	-1.94817
3522.000	0.24119	-1.27302	1.57923	-1.97795
3523.000	0.28666	-1.23523	1.54564	-1.93031
3524.000	0.22735	-1.28893	1.54762	-1.90846
3525.000	0.26492	-1.25512	1.58120	-1.97795
3526.000	0.24515	-1.28893	1.56145	-1.99585
3527.000	0.21549	-1.26904	1.57725	-1.97597
3528.000	0.25701	-1.21336	1.60293	-1.98985
3529.000	0.25108	-1.22132	1.55157	-1.97401
3530.000	0.29457	-1.20739	1.58910	-1.95808
3531.000	0.32818	-1.26108	1.54169	-2.00182
3532.000	0.21352	-1.25711	1.56540	-1.97201
3533.000	0.25108	-1.23723	1.57330	-1.96008
3534.000	0.26492	-1.19149	1.58515	-1.91637
3535.000	0.24515	-1.27898	1.51798	-1.93629
3536.000	0.23526	-1.22530	1.53774	-1.93032
3537.000	0.23131	-1.23325	1.54762	-2.02565
3538.000	0.13444	-1.20144	1.56145	-1.97598
3539.000	0.22735	-1.25512	1.59503	-1.98191
3540.000	0.23526	-1.20541	1.46662	-1.95620
3541.000	0.32422	-1.18552	1.48242	-1.98599
3542.000	0.27480	-1.24120	1.54564	-1.97600
3543.000	0.18188	-1.26109	1.57725	-1.97398
3544.000	0.31236	-1.26903	1.55354	-1.97400
3545.000	0.24910	-1.28296	1.58318	-1.97993
3546.000	0.26294	-1.26506	1.52589	-1.91642
3547.000	0.27678	-1.25313	1.54564	-1.99387
3548.000	0.33609	-1.20341	1.54169	-1.98593
3549.000	0.21352	-1.23922	1.52984	-1.93827
3550.000	0.25305	-1.21137	1.52984	-1.97403
3551.000	0.27678	-1.27302	1.49428	-2.01378
3552.000	0.23131	-1.20740	1.53774	-1.98792
3553.000	0.19572	-1.32870	1.54564	-1.96408
3554.000	0.28271	-1.26307	1.57527	-1.98789
3555.000	0.28271	-1.32670	1.55354	-1.99784
3556.000	0.29852	-1.22131	1.56342	-2.00379
3557.000	0.21352	-1.30086	1.56145	-1.99386
3558.000	0.21747	-1.26109	1.48045	-1.95619
3559.000	0.24712	-1.25711	1.53971	-1.98395
3560.000	0.24317	-1.27302	1.53181	-1.99190
3561.000	0.23329	-1.27501	1.53971	-1.95812
3562.000	0.37365	-1.24119	1.50415	-1.98001
3563.000	0.25899	-1.26506	1.56540	-2.01968
3564.000	0.27678	-1.19546	1.54367	-2.00182
3565.000	0.25503	-1.24916	1.53379	-1.97601
3566.000	0.20758	-1.24319	1.56737	-2.00776
3567.000	0.16607	-1.29291	1.55947	-1.99386
3568.000	0.18386	-1.26109	1.55749	-1.96208
3569.000	0.26689	-1.25711	1.52786	-1.94423
3570.000	0.29655	-1.19745	1.55749	-2.00578
3571.000	0.22735	-1.25512	1.56737	-1.95611
3572.000	0.31434	-1.30880	1.55749	-2.01968
3573.000	0.28073	-1.27699	1.49230	-1.96810
3574.000	0.32422	-1.30681	1.56540	-1.94420
3575.000	0.28864	-1.27301	1.55749	-1.95612
3576.000	0.33213	-1.22926	1.56342	-1.96009
3577.000	0.25701	-1.29091	1.54169	-1.92634
3578.000	0.25503	-1.27103	1.51403	-1.99986
3579.000	0.29852	-1.26307	1.51996	-1.95616
3580.000	0.26887	-1.26904	1.48835	-1.94029
3581.000	0.28469	-1.23523	1.48637	-1.97605
3582.000	0.27282	-1.23722	1.50613	-1.91048
3583.000	0.26689	-1.26904	1.52589	-1.97204
3584.000	0.29655	-1.26904	1.52193	-1.92834
3585.000	0.28469	-1.25313	1.49823	-1.98001
3586.000	0.26492	-1.26506	1.49230	-1.93632
3587.000	0.35388	-1.15767	1.57527	-1.94816
3588.000	0.33016	-1.23722	1.53971	-1.96408
3589.000	0.28469	-1.22927	1.53576	-1.93628
3590.000	0.30841	-1.18552	1.52193	-1.92636
3591.000	0.34399	-1.23324	1.51798	-1.91842
3592.000	0.27480	-1.24319	1.56145	-1.96804
3593.000	0.29655	-1.23921	1.53774	-1.95813
3594.000	0.31829	-1.27699	1.54762	-1.97997
3595.000	0.29852	-1.20739	1.50810	-1.94822
3596.000	0.28666	-1.25313	1.52589	-1.92635
3597.000	0.33213	-1.26307	1.53576	-1.93231
3598.000	0.31236	-1.28096	1.55157	-2.03359
3599.000	0.40528	-1.21533	1.50020	-1.94426
3600.000	0.36969	-1.24318	1.54169	-1.91442
3601.000	0.25108	-1.27501	1.49625	-1.90254
3602.000	0.28864	-1.22330	1.53971	-1.93429
3603.000	0.26887	-1.25313	1.53181	-1.90847
3604.000	0.34004	-1.17358	1.51206	-1.87869
3605.000	0.29259	-1.19944	1.49428	-1.94823
3606.000	0.34004	-1.27500	1.51601	-1.86279
3607.000	0.30841	-1.25313	1.54169	-1.94025
3608.000	0.30050	-1.19347	1.50613	-1.90849
3609.000	0.34004	-1.22330	1.48835	-1.94625
3610.000	0.35981	-1.21932	1.48440	-1.97009
3611.000	0.31632	-1.27500	1.53774	-1.96409
3612.000	0.42505	-1.17755	1.52589	-1.95218
3613.000	0.30841	-1.23125	1.51206	-1.92438
3614.000	0.26689	-1.24319	1.47847	-1.96811
3615.000	0.33806	-1.28892	1.53774	-1.96409
3616.000	0.32225	-1.24915	1.55552	-1.97797
3617.000	0.34993	-1.23523	1.52984	-1.91642
3618.000	0.35586	-1.23324	1.57330	-1.92830
3619.000	0.29457	-1.22131	1.56342	-1.91043
3620.000	0.28271	-1.18950	1.49625	-1.92837
3621.000	0.32027	-1.30681	1.49823	-1.92042
3622.000	0.32818	-1.20739	1.51206	-1.94027
3623.000	0.28073	-1.23523	1.52786	-2.00184
3624.000	0.35190	-1.19943	1.49823	-1.94624
3625.000	0.33609	-1.17955	1.52984	-1.95217
3626.000	0.30248	-1.19546	1.52193	-1.94026
3627.000	0.28666	-1.19745	1.56935	-1.92830
3628.000	0.29259	-1.14177	1.54564	-1.90051
3629.000	0.26294	-1.23325	1.53379	-1.92237
3630.000	0.25899	-1.21933	1.53774	-1.93032
3631.000	0.35981	-1.18949	1.51798	-1.96410
3632.000	0.36179	-1.23522	1.51206	-1.93431
3633.000	0.29655	-1.20739	1.54762	-1.95017
3634.000	0.32027	-1.24915	1.49230	-1.96413
3635.000	0.35586	-1.20341	1.50415	-1.88863
3636.000	0.35190	-1.19347	1.47452	-1.91647
3637.000	0.30841	-1.16166	1.52786	-1.94423
3638.000	0.33609	-1.06222	1.52984	-1.97800
3639.000	0.32225	-1.16364	1.48440	-1.93434
3640.000	0.25899	-1.19944	1.52391	-1.94423
3641.000	0.32818	-1.17756	1.53971	-1.91641
3642.000	0.34399	-1.25511	1.49823	-1.90254
3643.000	0.28666	-1.20342	1.51206	-1.90452
3644.000	0.31434	-1.13779	1.51008	-1.95021
3645.000	0.34399	-1.17159	1.56145	-1.96406
3646.000	0.30446	-1.21733	1.53576	-1.87072
3647.000	0.26689	-1.24518	1.50020	-1.89459
3648.000	0.34004	-1.20739	1.53774	-1.89655
3649.000	0.36772	-1.18551	1.50218	-1.90452
3650.000	0.36376	-1.17159	1.53181	-1.88662
3651.000	0.31039	-1.22728	1.49032	-1.88864
3652.000	0.37760	-1.11790	1.53774	-1.92436
3653.000	0.31632	-1.18751	1.50218	-1.90651
3654.000	0.37365	-1.10597	1.51601	-1.91047
3655.000	0.32620	-1.16364	1.50613	-1.87671
3656.000	0.32818	-1.15768	1.49625	-1.85486
3657.000	0.33213	-1.12983	1.50613	-1.83697
3658.000	0.33213	-1.13779	1.53181	-1.85086
3659.000	0.42900	-1.09403	1.54169	-1.85284
3660.000	0.33609	-1.17159	1.50810	-1.86479
3661.000	0.30248	-1.19944	1.52391	-1.81908
3662.000	0.34597	-1.13580	1.53181	-1.86079
3663.000	0.34795	-1.20341	1.52589	-1.81709
3664.000	0.32620	-1.11194	1.53774	-1.87072
3665.000	0.31829	-1.17756	1.51008	-1.88266
3666.000	0.36574	-1.12983	1.53971	-1.85681
3667.000	0.34795	-1.14773	1.50810	-1.85088
3668.000	0.34993	-1.14574	1.51008	-1.88862
3669.000	0.28469	-1.23921	1.50020	-1.88665
3670.000	0.29457	-1.18751	1.46662	-1.92442
3671.000	0.34993	-1.11989	1.50020	-1.88863
3672.000	0.38156	-1.13778	1.51601	-1.87471
3673.000	0.27480	-1.15370	1.50415	-1.89856
3674.000	0.36772	-1.21534	1.56145	-1.89851
3675.000	0.29259	-1.16563	1.49625	-1.87274
3676.000	0.33016	-1.15569	1.51008	-1.87074
3677.000	0.28073	-1.18751	1.52589	-1.87272
3678.000	0.33609	-1.18353	1.48835	-1.89063
3679.000	0.31039	-1.13779	1.47057	-1.89462
3680.000	0.37563	-1.09205	1.53971	-1.86873
3681.000	0.28666	-1.21336	1.43896	-1.89862
3682.000	0.38946	-1.19943	1.50415	-1.87671
3683.000	0.26689	-1.18353	1.53576	-1.87072
3684.000	0.27678	-1.18552	1.51996	-1.94027
3685.000	0.39539	-1.11591	1.46069	-1.89860
3686.000	0.32225	-1.14773	1.49032	-1.86282
3687.000	0.30841	-1.14972	1.48045	-1.88269
3688.000	0.31632	-1.22529	1.46069	-1.90655
3689.000	0.30446	-1.18552	1.47057	-1.89660
3690.000	0.26492	-1.18552	1.50810	-1.86479
3691.000	0.28271	-1.14973	1.50613	-1.89657
3692.000	0.31434	-1.14376	1.47649	-1.86680
3693.000	0.30841	-1.23324	1.50613	-1.85088
3694.000	0.33016	-1.09802	1.46069	-1.85092
3695.000	0.32620	-1.18552	1.49428	-1.86480
3696.000	0.36574	-1.17358	1.48045	-1.91646
3697.000	0.38156	-1.17358	1.50810	-1.88068
3698.000	0.32422	-1.10001	1.49032	-1.87275
3699.000	0.30841	-1.19148	1.51601	-1.89259
3700.000	0.34597	-1.18750	1.49428	-1.84294
3701.000	0.40726	-1.13778	1.50218	-1.90850
3702.000	0.34597	-1.10796	1.49428	-1.91248
3703.000	0.32818	-1.18154	1.49823	-1.91645
3704.000	0.28073	-1.21734	1.53379	-1.94224
3705.000	0.33016	-1.16762	1.53971	-1.93230
3706.000	0.30643	-1.13381	1.48835	-1.88666
3707.000	0.37760	-1.20142	1.45871	-1.92443
3708.000	0.34004	-1.13580	1.45279	-1.89662
3709.000	0.43691	-1.14971	1.47649	-1.90653
3710.000	0.37563	-1.13778	1.46266	-1.87873
3711.000	0.34993	-1.15767	1.47847	-1.88865
3712.000	0.34004	-1.12983	1.46662	-1.89263
3713.000	0.36574	-1.15369	1.48045	-1.88865
3714.000	0.33609	-1.16762	1.48045	-1.86282
3715.000	0.44877	-1.17953	1.49428	-1.82506
3716.000	0.36969	-1.15170	1.50613	-1.93432
3717.000	0.40330	-1.19147	1.48440	-1.88865
3718.000	0.37563	-1.15966	1.46266	-1.84694
3719.000	0.36969	-1.20142	1.49823	-1.88665
3720.000	0.34004	-1.12785	1.46069	-1.87476
3721.000	0.33016	-1.14972	1.49625	-1.84890
3722.000	0.36969	-1.10597	1.47057	-1.91051
3723.000	0.41516	-1.11789	1.49625	-1.89062
3724.000	0.43296	-1.16164	1.49428	-1.87274
3725.000	0.41912	-1.13181	1.46266	-1.86284
3726.000	0.38156	-1.18153	1.48637	-1.87672
3727.000	0.46459	-1.15766	1.46266	-1.87674
3728.000	0.37365	-1.20341	1.50810	-1.86876
3729.000	0.38946	-1.11790	1.47649	-1.84892
3730.000	0.44086	-1.09800	1.51206	-1.91047
3731.000	0.42900	-1.14175	1.48440	-1.89858
3732.000	0.45470	-1.12584	1.48637	-1.80719
3733.000	0.43296	-1.14573	1.47057	-1.80323
3734.000	0.44482	-1.15766	1.51403	-1.81313
3735.000	0.31829	-1.21336	1.45081	-1.82907
3736.000	0.19375	-1.17956	1.44488	-1.82908
3737.000	0.10280	-1.12190	1.34609	-1.89075
3738.000	0.00395	-1.08610	1.24136	-1.89082
3739.000	-0.06129	-0.99064	1.12279	-1.90680
3740.000	-0.32818	-0.87925	0.90934	-1.88308
3741.000	-0.59110	-0.81955	0.67017	-1.83550
3742.000	-0.85005	-0.76779	0.43691	-1.71632
3743.000	-1.16627	-0.75579	0.17595	-1.59710
3744.000	-1.43105	-0.64037	-0.10478	-1.50565
3745.000	-1.69972	-0.55479	-0.42307	-1.43802
3746.000	-1.93672	-0.40561	-0.64843	-1.43002
3747.000	-2.19735	-0.29819	-0.89156	-1.24106
3748.000	-2.44802	-0.24249	-1.07536	-1.11772
3749.000	-2.55260	-0.17887	-1.25520	-1.03613
3750.000	-2.66703	-0.20270	-1.33819	-0.88499
3751.000	-2.74198	-0.17090	-1.35992	-0.81737
3752.000	-2.73212	-0.22654	-1.39944	-0.72987
3753.000	-2.74987	-0.19673	-1.35597	-0.75175
3754.000	-2.59798	-0.17886	-1.27100	-0.63047
3755.000	-2.53287	-0.18086	-1.19394	-0.57480
3756.000	-2.40263	-0.25442	-1.02991	-0.54699
3757.000	-2.23683	-0.19283	-0.87772	-0.49331
3758.000	-2.07100	-0.11134	-0.81842	-0.49133
3759.000	-1.91698	-0.12526	-0.75517	-0.47940
3760.000	-1.77873	-0.08948	-0.65238	-0.40979
3761.000	-1.72540	-0.11533	-0.54959	-0.43168
3762.000	-1.61478	-0.10739	-0.46854	-0.33421
3763.000	-1.49230	-0.00796	-0.39737	-0.41577
3764.000	-1.52391	-0.03779	-0.36574	-0.35610
3765.000	-1.41129	0.00398	-0.31039	-0.42573
3766.000	-1.37573	-0.01193	-0.24712	-0.36207
3767.000	-1.31843	-0.00199	-0.24317	-0.45756
3768.000	-1.33621	-0.04177	-0.19572	-0.50132
3769.000	-1.30262	-0.04376	-0.17002	-0.52122
3770.000	-1.25915	-0.10144	-0.14037	-0.58885
3771.000	-1.30855	-0.14519	-0.11862	-0.62267
3772.000	-1.29472	-0.09547	-0.15223	-0.65648
3773.000	-1.28286	-0.22276	-0.13641	-0.70621
3774.000	-1.31250	-0.17701	-0.16409	-0.77384
3775.000	-1.42315	-0.22474	-0.16804	-0.80169
3776.000	-1.35795	-0.25457	-0.22142	-0.79373
3777.000	-1.42710	-0.30031	-0.22340	-0.85141
3778.000	-1.45871	-0.20683	-0.33806	-0.83947
3779.000	-1.47452	-0.29633	-0.32422	-0.82753
3780.000	-1.55552	-0.24660	-0.44482	-0.83946
3781.000	-1.60293	-0.28239	-0.45865	-0.83946
3782.000	-1.55157	-0.26251	-0.48633	-0.81956
3783.000	-1.62466	-0.15312	-0.48831	-0.85735
3784.000	-1.65824	-0.17301	-0.50412	-0.81956
3785.000	-1.67997	-0.20283	-0.48238	-0.81956
3786.000	-1.69775	-0.14119	-0.56936	-0.75590
3787.000	-1.65429	-0.13721	-0.56540	-0.76585
3788.000	-1.70565	-0.11534	-0.60296	-0.76783
3789.000	-1.64046	-0.18494	-0.52389	-0.75989
3790.000	-1.71553	-0.05568	-0.56145	-0.73403
3791.000	-1.71553	-0.10937	-0.55750	-0.73602
3792.000	-1.76886	-0.19487	-0.52389	-0.70420
3793.000	-1.67009	-0.18096	-0.51598	-0.68232
3794.000	-1.81231	-0.12129	-0.51005	-0.65646
3795.000	-1.67009	-0.15909	-0.50215	-0.68033
3796.000	-1.72145	-0.14516	-0.53773	-0.63060
3797.000	-1.66614	-0.10937	-0.49226	-0.65845
3798.000	-1.71355	-0.05568	-0.53773	-0.61667
3799.000	-1.63651	-0.09744	-0.48238	-0.66243
3800.000	-1.74120	-0.15113	-0.50017	-0.66839
3801.000	-1.67800	-0.09744	-0.53378	-0.66441
3802.000	-1.64046	-0.09943	-0.54168	-0.58286
3803.000	-1.63849	-0.04574	-0.50215	-0.63060
3804.000	-1.59898	-0.12330	-0.55552	-0.60275
3805.000	-1.63651	-0.04773	-0.52784	-0.63657
3806.000	-1.64441	-0.09744	-0.51005	-0.60474
3807.000	-1.53379	-0.09347	-0.54564	-0.63060
3808.000	-1.63256	-0.02784	-0.53575	-0.59281
3809.000	-1.64441	-0.08352	-0.54959	-0.58087
3810.000	-1.57923	-0.08154	-0.51994	-0.63060
3811.000	-1.58120	-0.10540	-0.51796	-0.60474
3812.000	-1.57923	-0.07358	-0.54959	-0.65049
3813.000	-1.66812	-0.10540	-0.48633	-0.60872
3814.000	-1.63059	-0.10341	-0.50017	-0.64651
3815.000	-1.57725	-0.05171	-0.48633	-0.63458
3816.000	-1.67404	-0.09744	-0.55354	-0.60872
3817.000	-1.53379	-0.03580	-0.51796	-0.61867
3818.000	-1.60096	-0.09347	-0.49819	-0.60872
3819.000	-1.60096	-0.09546	-0.51994	-0.59678
3820.000	-1.66812	-0.06363	-0.49819	-0.63657
3821.000	-1.60491	-0.09744	-0.51796	-0.67436
3822.000	-1.51798	-0.01790	-0.48040	-0.62265
3823.000	-1.57132	-0.05767	-0.53378	-0.61866
3824.000	-1.57330	-0.04574	-0.54761	-0.60673
3825.000	-1.67009	-0.06761	-0.48435	-0.60872
3826.000	-1.67404	-0.06761	-0.54761	-0.63259
3827.000	-1.60688	-0.10739	-0.54366	-0.64253
3828.000	-1.59700	-0.07955	-0.56540	-0.57689
3829.000	-1.60886	-0.05767	-0.54761	-0.61468
3830.000	-1.61281	-0.07756	-0.50412	-0.61270
3831.000	-1.55157	-0.08154	-0.54959	-0.57689
3832.000	-1.51798	-0.01790	-0.53971	-0.56496
3833.000	-1.55157	-0.02585	-0.58320	-0.56296
3834.000	-1.48242	-0.05966	-0.50017	-0.62066
3835.000	-1.52193	-0.01989	-0.54564	-0.67038
3836.000	-1.57132	-0.04773	-0.50017	-0.59679
3837.000	-1.60886	-0.03381	-0.53971	-0.63259
3838.000	-1.54564	-0.00597	-0.51005	-0.62463
3839.000	-1.52786	-0.11336	-0.46261	-0.68033
3840.000	-1.60293	-0.09347	-0.51796	-0.66640
3841.000	-1.61873	-0.08750	-0.48238	-0.65447
3842.000	-1.58318	-0.07955	-0.52389	-0.65845
3843.000	-1.58120	-0.05767	-0.50215	-0.63458
3844.000	-1.57923	-0.08949	-0.51994	-0.68033
3845.000	-1.63454	-0.02585	-0.53180	-0.64253
3846.000	-1.61281	-0.09148	-0.55947	-0.59678
3847.000	-1.54762	-0.00199	-0.55354	-0.62662
3848.000	-1.55552	-0.04176	-0.56343	-0.57888
3849.000	-1.60096	-0.09347	-0.51401	-0.65845
3850.000	-1.60293	0.03381	-0.51796	-0.58286
3851.000	-1.55354	0.00199	-0.50215	-0.63259
3852.000	-1.57527	0.04176	-0.54761	-0.55103
3853.000	-1.51798	-0.05171	-0.55157	-0.58087
3854.000	-1.56540	-0.01591	-0.53773	-0.61469
3855.000	-1.62861	-0.04773	-0.55947	-0.61468
3856.000	-1.63059	-0.05170	-0.53180	-0.60474
3857.000	-1.59305	0.00795	-0.54366	-0.63458
3858.000	-1.51798	0.00795	-0.55947	-0.60872
3859.000	-1.56935	-0.01989	-0.54761	-0.61866
3860.000	-1.58318	-0.02784	-0.51005	-0.62066
3861.000	-1.60688	-0.00795	-0.52191	-0.63657
3862.000	-1.58515	-0.06165	-0.52191	-0.63458
3863.000	-1.45674	-0.02784	-0.53575	-0.63259
3864.000	-1.45476	-0.04773	-0.49819	-0.59082
3865.000	-1.53971	-0.02585	-0.51401	-0.61270
3866.000	-1.54762	-0.02386	-0.49819	-0.59679
3867.000	-1.51008	0.03977	-0.45470	-0.66243
3868.000	-1.52786	0.00199	-0.50412	-0.54706
3869.000	-1.52391	-0.00199	-0.54959	-0.55501
3870.000	-1.52391	-0.03381	-0.51401	-0.59480
3871.000	-1.49032	0.10342	-0.51796	-0.55302
3872.000	-1.56145	-0.01790	-0.45865	-0.59679
3873.000	-1.54762	-0.00795	-0.47447	-0.58684
3874.000	-1.58713	-0.01392	-0.49226	-0.53910
3875.000	-1.61281	0.00597	-0.48435	-0.60474
3876.000	-1.57923	-0.12330	-0.52784	-0.58485
3877.000	-1.59503	-0.05767	-0.52389	-0.58684
3878.000	-1.60688	0.00597	-0.50808	-0.60474
3879.000	-1.56342	-0.04375	-0.52191	-0.59678
3880.000	-1.62664	-0.05568	-0.50017	-0.58883
3881.000	-1.52786	-0.09944	-0.53575	-0.56894
3882.000	-1.46859	-0.05966	-0.56145	-0.59877
3883.000	-1.53181	-0.04972	-0.56145	-0.52119
3884.000	-1.57527	-0.10938	-0.50610	-0.57292
3885.000	-1.58318	-0.11733	-0.51598	-0.49733
3886.000	-1.63454	-0.11534	-0.52389	-0.51324
3887.000	-1.64837	-0.08551	-0.53180	-0.54507
3888.000	-1.55749	-0.07955	-0.50412	-0.49335
3889.000	-1.57132	-0.07358	-0.53575	-0.46749
3890.000	-1.64441	-0.09346	-0.54761	-0.46948
3891.000	-1.59898	-0.07955	-0.48040	-0.47943
3892.000	-1.54169	-0.04176	-0.50610	-0.53711
3893.000	-1.66812	-0.08352	-0.46854	-0.51324
3894.000	-1.62664	-0.07557	-0.49819	-0.51722
3895.000	-1.61873	-0.10938	-0.51005	-0.52120
3896.000	-1.59700	-0.11733	-0.54168	-0.50926
3897.000	-1.59700	-0.04574	-0.54959	-0.50329
3898.000	-1.60688	-0.02188	-0.55552	-0.55899
3899.000	-1.60688	-0.09148	-0.50215	-0.59878
3900.000	-1.50613	-0.12728	-0.50412	-0.52915
3901.000	-1.51601	-0.09745	-0.52587	-0.54109
3902.000	-1.52786	-0.07756	-0.51796	-0.56496
3903.000	-1.50613	-0.01392	-0.50412	-0.51324
3904.000	-1.53379	-0.05370	-0.52191	-0.52120
3905.000	-1.50810	-0.02188	-0.52784	-0.47346
3906.000	-1.49032	-0.06961	-0.51796	-0.41577
3907.000	-1.57725	-0.02188	-0.49622	-0.47744
3908.000	-1.52391	-0.01193	-0.48435	-0.48937
3909.000	-1.52786	-0.00994	-0.51401	-0.50727
3910.000	-1.49230	0.01193	-0.51796	-0.48340
3911.000	-1.47057	-0.00796	-0.53971	-0.45953
3912.000	-1.51008	-0.01193	-0.52191	-0.47942
3913.000	-1.51798	-0.04972	-0.53378	-0.48539
3914.000	-1.47649	-0.02784	-0.52389	-0.47346
3915.000	-1.51798	0.01989	-0.54761	-0.49335
3916.000	-1.53971	-0.06762	-0.53971	-0.52318
3917.000	-1.49625	-0.01392	-0.53378	-0.48738
3918.000	-1.48835	-0.05370	-0.52191	-0.54507
3919.000	-1.46069	-0.01989	-0.50610	-0.54905
3920.000	-1.53181	-0.01790	-0.53378	-0.48937
3921.000	-1.47057	0.03182	-0.51796	-0.52716
3922.000	-1.43105	0.00199	-0.54366	-0.48937
3923.000	-1.49625	-0.03381	-0.51598	-0.52319
3924.000	-1.53379	0.01790	-0.51005	-0.57093
3925.000	-1.51996	0.02983	-0.52784	-0.49733
3926.000	-1.49428	-0.00199	-0.53575	-0.52120
3927.000	-1.43896	0.01392	-0.56738	-0.54705
3928.000	-1.49823	-0.01392	-0.53971	-0.53114
3929.000	-1.35202	0.04773	-0.55750	-0.58485
3930.000	-1.47649	0.03779	-0.55552	-0.53711
3931.000	-1.43698	-0.01591	-0.56540	-0.57689
3932.000	-1.44883	-0.01989	-0.58913	-0.57291
3933.000	-1.45081	-0.05569	-0.53378	-0.58286
3934.000	-1.46464	-0.01193	-0.52587	-0.53910
3935.000	-1.39154	0.06563	-0.57529	-0.53909
3936.000	-1.37375	-0.00597	-0.51401	-0.54109
3937.000	-1.48637	0.03580	-0.52389	-0.55899
3938.000	-1.47649	-0.04574	-0.52784	-0.53512
3939.000	-1.49032	0.02784	-0.53180	-0.50926
3940.000	-1.42117	0.02983	-0.53971	-0.48340
3941.000	-1.45674	0.06961	-0.53180	-0.51324
3942.000	-1.47847	-0.04574	-0.54564	-0.50926
3943.000	-1.43500	-0.02387	-0.54366	-0.49732
3944.000	-1.42513	0.01790	-0.52982	-0.56695
3945.000	-1.51798	-0.05171	-0.56936	-0.50926
3946.000	-1.40339	-0.01392	-0.52389	-0.56496
3947.000	-1.43698	0.02585	-0.54366	-0.54705
3948.000	-1.43500	0.01193	-0.58913	-0.55302
3949.000	-1.46069	0.07756	-0.56738	-0.48937
3950.000	-1.49230	-0.00994	-0.56936	-0.52517
3951.000	-1.40339	0.01591	-0.57529	-0.52915
3952.000	-1.44291	0.03580	-0.52191	-0.52319
3953.000	-1.44686	0.00597	-0.55947	-0.52517
3954.000	-1.48242	-0.04972	-0.55947	-0.46947
3955.000	-1.48242	0.02188	-0.54366	-0.51125
3956.000	-1.42117	0.06762	-0.51401	-0.48539
3957.000	-1.37968	0.02983	-0.49424	-0.51125
3958.000	-1.47847	0.03381	-0.51005	-0.51125
3959.000	-1.45871	0.06563	-0.51203	-0.51324
3960.000	-1.58515	-0.00398	-0.53773	-0.47743
3961.000	-1.42315	-0.00398	-0.55157	-0.47345
3962.000	-1.43500	-0.00398	-0.53378	-0.46351
3963.000	-1.40734	0.03978	-0.57331	-0.41974
3964.000	-1.48242	0.05966	-0.56145	-0.42173
3965.000	-1.48440	0.07756	-0.56540	-0.39786
3966.000	-1.46662	0.01193	-0.53575	-0.44759
3967.000	-1.46662	-0.00994	-0.51598	-0.48340
3968.000	-1.44488	-0.02188	-0.56343	-0.40582
3969.000	-1.50218	0.01591	-0.55947	-0.47146
3970.000	-1.51206	0.04176	-0.53575	-0.44362
3971.000	-1.50613	0.01591	-0.58320	-0.41377
3972.000	-1.45081	-0.00597	-0.52784	-0.43566
3973.000	-1.44488	-0.01989	-0.53971	-0.45754
3974.000	-1.40339	-0.02585	-0.55552	-0.44163
3975.000	-1.46464	-0.00994	-0.54366	-0.41974
3976.000	-1.39351	-0.00398	-0.53773	-0.44163
3977.000	-1.55552	-0.10142	-0.56343	-0.40781
3978.000	-1.46859	-0.04176	-0.53773	-0.45555
3979.000	-1.44488	0.01392	-0.51005	-0.48340
3980.000	-1.42117	-0.00994	-0.52982	-0.50329
3981.000	-1.42908	-0.04972	-0.56540	-0.39587
3982.000	-1.41525	-0.06563	-0.58122	-0.46549
3983.000	-1.44093	0.00994	-0.54366	-0.47942
3984.000	-1.44093	0.00994	-0.58517	-0.46549
3985.000	-1.46464	-0.06165	-0.56343	-0.45754
3986.000	-1.41722	-0.03779	-0.56936	-0.39985
3987.000	-1.47452	-0.07557	-0.54564	-0.41179
3988.000	-1.39746	-0.03580	-0.56738	-0.42969
3989.000	-1.39746	-0.00994	-0.55354	-0.45157
3990.000	-1.37771	0.00994	-0.60099	-0.47146
3991.000	-1.40932	-0.05370	-0.56343	-0.48937
3992.000	-1.38561	-0.05967	-0.54761	-0.43566
3993.000	-1.43105	-0.02983	-0.57727	-0.43963
3994.000	-1.35597	0.02983	-0.58122	-0.47942
3995.000	-1.39746	0.03978	-0.54959	-0.43367
3996.000	-1.37375	-0.01193	-0.56145	-0.47942
3997.000	-1.42513	0.00994	-0.56145	-0.43168
3998.000	-1.49428	-0.03580	-0.56343	-0.50926
3999.000	-1.46464	0.00796	-0.52587	-0.42969
4000.000	-1.35795	0.03978	-0.54168	-0.48937
4001.000	-1.35004	0.00199	-0.55947	-0.42969
4002.000	-1.42315	0.05768	-0.57331	-0.50528
4003.000	-1.41722	0.02585	-0.56343	-0.47942
4004.000	-1.44686	0.02784	-0.57529	-0.48936
4005.000	-1.45476	-0.02585	-0.54168	-0.50130
4006.000	-1.38561	-0.01989	-0.57331	-0.56098
4007.000	-1.36783	0.05569	-0.54564	-0.55501
4008.000	-1.33621	-0.03580	-0.55947	-0.48539
4009.000	-1.37968	0.00398	-0.55157	-0.49136
4010.000	-1.37178	-0.02586	-0.57924	-0.47942
4011.000	-1.40734	-0.01591	-0.56145	-0.51721
4012.000	-1.35004	-0.04773	-0.54959	-0.51125
4013.000	-1.37968	-0.02983	-0.57529	-0.48340
4014.000	-1.38363	0.00000	-0.54959	-0.42770
4015.000	-1.42710	0.02983	-0.60099	-0.52716
4016.000	-1.46859	0.01193	-0.54564	-0.42372
4017.000	-1.35597	-0.03779	-0.58517	-0.44958
4018.000	-1.43698	-0.06961	-0.59308	-0.47146
4019.000	-1.30657	-0.02188	-0.53378	-0.52120
4020.000	-1.35399	-0.00597	-0.58122	-0.49732
4021.000	-1.40932	0.02387	-0.54564	-0.51324
4022.000	-1.34016	-0.02983	-0.58517	-0.48340
4023.000	-1.39549	-0.01591	-0.59506	-0.48538
4024.000	-1.31645	-0.02387	-0.55750	-0.58087
4025.000	-1.42315	-0.06762	-0.57331	-0.55302
4026.000	-1.38956	0.02387	-0.57133	-0.48340
4027.000	-1.32831	0.03381	-0.54959	-0.43964
4028.000	-1.34016	0.01392	-0.59308	-0.48936
4029.000	-1.37968	-0.00796	-0.56738	-0.45953
4030.000	-1.31645	-0.01790	-0.57133	-0.48937
4031.000	-1.34609	0.04773	-0.54366	-0.39786
4032.000	-1.36980	-0.01392	-0.54564	-0.48141
4033.000	-1.38956	-0.02387	-0.56343	-0.43168
4034.000	-1.39944	-0.04375	-0.59308	-0.40184
4035.000	-1.44686	-0.00796	-0.56738	-0.41179
4036.000	-1.50415	-0.01591	-0.56540	-0.42173
4037.000	-1.42315	0.03381	-0.58715	-0.44361
4038.000	-1.34807	0.01193	-0.54761	-0.47146
4039.000	-1.30064	0.05569	-0.58715	-0.36802
4040.000	-1.35795	0.03779	-0.53773	-0.48738
4041.000	-1.28088	0.00199	-0.58320	-0.47544
4042.000	-1.36783	-0.06563	-0.52587	-0.50727
4043.000	-1.30460	0.07160	-0.59110	-0.44560
4044.000	-1.27496	-0.06365	-0.59506	-0.46350
4045.000	-1.35202	0.01591	-0.56343	-0.41775
4046.000	-1.34214	-0.00398	-0.55157	-0.45953
4047.000	-1.41525	-0.08751	-0.57924	-0.46947
4048.000	-1.42908	-0.00796	-0.57924	-0.45754
4049.000	-1.38956	0.02784	-0.56540	-0.40980
4050.000	-1.41525	0.00796	-0.57924	-0.49334
4051.000	-1.35202	0.01591	-0.58122	-0.40582
4052.000	-1.38956	-0.01193	-0.56738	-0.42770
4053.000	-1.28484	0.04972	-0.56540	-0.44560
4054.000	-1.39351	0.00796	-0.57529	-0.42571
4055.000	-1.40932	0.05768	-0.59110	-0.42571
4056.000	-1.41129	-0.06364	-0.55947	-0.40383
4057.000	-1.34214	0.00597	-0.53773	-0.45157
4058.000	-1.46266	-0.05569	-0.59506	-0.40184
4059.000	-1.39944	-0.05171	-0.58517	-0.40781
4060.000	-1.41525	-0.05370	-0.56936	-0.39189
4061.000	-1.40932	0.02784	-0.55552	-0.40781
4062.000	-1.40537	-0.07359	-0.60296	-0.38791
4063.000	-1.36387	-0.02983	-0.57529	-0.40383
4064.000	-1.29867	0.00398	-0.57133	-0.42173
4065.000	-1.38363	-0.05171	-0.58517	-0.44162
4066.000	-1.46859	-0.04773	-0.54366	-0.41179
4067.000	-1.43105	-0.03978	-0.59110	-0.39587
4068.000	-1.38956	-0.03381	-0.59703	-0.43168
4069.000	-1.47847	-0.02585	-0.62273	-0.36205
4070.000	-1.37178	0.00796	-0.53180	-0.40781
4071.000	-1.41129	-0.10541	-0.53575	-0.38394
4072.000	-1.33819	-0.08552	-0.58517	-0.34813
4073.000	-1.30657	0.05171	-0.58517	-0.34813
4074.000	-1.33819	0.00398	-0.60692	-0.35608
4075.000	-1.40537	-0.03182	-0.55354	-0.37797
4076.000	-1.33424	-0.01790	-0.61087	-0.34614
4077.000	-1.32238	-0.01790	-0.59506	-0.42372
4078.000	-1.34016	0.00994	-0.53971	-0.34614
4079.000	-1.39154	0.02586	-0.61285	-0.33221
4080.000	-1.43303	0.04773	-0.57727	-0.38990
4081.000	-1.43500	-0.03779	-0.60692	-0.38194
4082.000	-1.38956	-0.06165	-0.60692	-0.36603
4083.000	-1.40339	0.02784	-0.57331	-0.36603
4084.000	-1.43303	0.00994	-0.57331	-0.38791
4085.000	-1.43303	-0.00796	-0.53575	-0.39190
4086.000	-1.35597	0.03779	-0.54564	-0.30238
4087.000	-1.38956	0.01989	-0.49226	-0.32227
4088.000	-1.29867	0.07757	-0.43098	-0.27652
4089.000	-1.32436	-0.05370	-0.34399	-0.33223
4090.000	-1.03386	0.00398	-0.26689	-0.32626
4091.000	-1.05560	-0.03183	-0.14234	-0.32029
4092.000	-0.80063	-0.09946	0.00198	-0.37998
4093.000	-0.70378	-0.13726	0.18188	-0.41578
4094.000	-0.35190	-0.06963	0.36376	-0.49734
4095.000	-0.31039	-0.17308	0.57331	-0.45555
4096.000	-0.03559	-0.23873	0.76703	-0.53907
4097.000	0.06129	-0.20093	0.93306	-0.58082
4098.000	0.16607	-0.26061	1.00224	-0.65837
4099.000	0.23526	-0.29443	1.16825	-0.72794
4100.000	0.29062	-0.31233	1.14453	-0.74585
4101.000	0.21945	-0.28250	1.16232	-0.73590
4102.000	0.18979	-0.25464	1.08524	-0.78365
4103.000	0.11664	-0.22878	0.99631	-0.77373
4104.000	0.06524	-0.18104	0.86981	-0.79563
4105.000	-0.13839	-0.12334	0.70575	-0.75390
4106.000	-0.19375	-0.12135	0.57133	-0.69822
4107.000	-0.40330	-0.06764	0.47447	-0.71415
4108.000	-0.52784	-0.05968	0.26689	-0.62664
4109.000	-0.63855	-0.07162	0.11269	-0.51724
4110.000	-0.72354	-0.00398	0.02570	-0.52520
4111.000	-0.75517	0.02785	-0.06524	-0.45756
4112.000	-0.84412	-0.05371	-0.13444	-0.49536
4113.000	-0.86784	0.01392	-0.17595	-0.44960
4114.000	-0.87574	0.03382	-0.16014	-0.39390
