time (ms)	lx (deg)	ly (deg)	rx (deg)	ry (deg)
0.000	1.29472	-0.21281	-0.13839	-1.45993
1.000	1.33424	-0.24066	-0.07315	-1.44005
2.000	1.30262	-0.27049	-0.09292	-1.44999
3.000	1.34807	-0.21480	-0.11467	-1.44601
4.000	1.33424	-0.20684	-0.07513	-1.45198
5.000	1.32238	-0.23668	-0.07315	-1.42017
6.000	1.33028	-0.21082	-0.08501	-1.42812
7.000	1.32633	-0.21878	-0.08897	-1.46987
8.000	1.27496	-0.24066	-0.07908	-1.43607
9.000	1.28879	-0.25060	-0.03559	-1.45397
10.000	1.27891	-0.22077	-0.01977	-1.47584
11.000	1.27693	-0.21282	-0.01779	-1.49969
12.000	1.30855	-0.22872	-0.05338	-1.48975
13.000	1.28879	-0.28442	-0.03954	-1.48379
14.000	1.26903	-0.24066	-0.01186	-1.48180
15.000	1.27100	-0.20685	-0.00395	-1.50963
16.000	1.30064	-0.22077	-0.03559	-1.45993
17.000	1.28484	-0.23469	-0.04152	-1.48578
18.000	1.26705	-0.20884	-0.02966	-1.49572
19.000	1.27298	-0.21282	-0.03163	-1.50764
20.000	1.23346	-0.21481	-0.07513	-1.53945
21.000	1.28681	-0.22276	-0.03361	-1.55536
22.000	1.31843	-0.21679	-0.05140	-1.55734
23.000	1.28879	-0.21480	-0.05931	-1.51957
24.000	1.32831	-0.22276	-0.03163	-1.54144
25.000	1.30657	-0.24662	-0.06129	-1.56132
26.000	1.35202	-0.25060	-0.08501	-1.52752
27.000	1.32633	-0.21480	-0.03163	-1.55735
28.000	1.33424	-0.20088	-0.04349	-1.58319
29.000	1.35597	-0.26253	-0.06129	-1.57325
30.000	1.31250	-0.28441	-0.06920	-1.57921
31.000	1.32633	-0.32618	-0.02175	-1.59512
32.000	1.33819	-0.24065	-0.05338	-1.63288
33.000	1.36190	-0.25457	-0.01977	-1.59710
34.000	1.33424	-0.29833	-0.03756	-1.60307
35.000	1.32436	-0.24265	-0.02966	-1.62891
36.000	1.37573	-0.23270	-0.01384	-1.57722
37.000	1.37178	-0.22673	-0.05338	-1.60903
38.000	1.29274	-0.22873	-0.01384	-1.62295
39.000	1.29274	-0.27447	0.00989	-1.60307
40.000	1.28879	-0.24663	-0.00395	-1.62891
41.000	1.26903	-0.26851	0.01779	-1.61897
42.000	1.28088	-0.23072	-0.01582	-1.62096
43.000	1.26508	-0.26652	0.01384	-1.60704
44.000	1.24729	-0.24663	0.01384	-1.61102
45.000	1.22358	-0.19691	-0.00395	-1.57524
46.000	1.23148	-0.23669	0.00000	-1.64481
47.000	1.28088	-0.18895	-0.01582	-1.59909
48.000	1.27496	-0.25856	-0.01384	-1.63090
49.000	1.29274	-0.25060	-0.01582	-1.62295
50.000	1.29669	-0.20088	-0.00395	-1.64084
51.000	1.29867	-0.21679	-0.02966	-1.63289
52.000	1.28681	-0.23270	0.00395	-1.59710
53.000	1.28484	-0.27049	-0.00791	-1.60903
54.000	1.32831	-0.21480	0.01384	-1.59710
55.000	1.34214	-0.24861	0.02175	-1.59909
56.000	1.28286	-0.24265	-0.01582	-1.55536
57.000	1.34609	-0.24463	0.06129	-1.60307
58.000	1.29867	-0.20287	0.00198	-1.56530
59.000	1.33621	-0.23270	0.00000	-1.54939
60.000	1.31052	-0.25259	-0.00395	-1.48776
61.000	1.21963	-0.26056	0.02175	-1.51560
62.000	1.27298	-0.27447	0.01779	-1.53150
63.000	1.24729	-0.28044	0.01186	-1.55536
64.000	1.21370	-0.25459	0.01977	-1.53945
65.000	1.23346	-0.25260	0.04349	-1.51758
66.000	1.21963	-0.25658	0.02372	-1.57126
67.000	1.23939	-0.27448	0.00198	-1.55735
68.000	1.21963	-0.26851	0.00198	-1.56530
69.000	1.23939	-0.23868	-0.00593	-1.52156
70.000	1.30460	-0.22276	0.01384	-1.53747
71.000	1.30657	-0.23071	-0.00395	-1.57325
72.000	1.29669	-0.19889	0.00395	-1.56331
73.000	1.27100	-0.20685	0.03163	-1.49770
74.000	1.28681	-0.13923	0.03559	-1.51162
75.000	1.26508	-0.16707	-0.02175	-1.50367
76.000	1.26310	-0.09746	-0.03361	-1.50764
77.000	1.19591	-0.09746	-0.05733	-1.51361
78.000	1.14453	-0.05370	-0.07710	-1.46192
79.000	1.15244	-0.00796	-0.11467	-1.42215
80.000	1.15441	0.03779	-0.15816	-1.30086
81.000	1.13070	0.10144	-0.18584	-1.26905
82.000	1.11094	0.17902	-0.23329	-1.12984
83.000	1.06943	0.19095	-0.24515	-1.04831
84.000	1.06746	0.28444	-0.28469	-0.95881
85.000	1.05362	0.33814	-0.28469	-0.81958
86.000	1.09117	0.45151	-0.30446	-0.72610
87.000	1.07141	0.48135	-0.30841	-0.64653
88.000	1.10501	0.48134	-0.29852	-0.54110
89.000	1.10698	0.58079	-0.30643	-0.53712
90.000	1.10896	0.56289	-0.30446	-0.46551
91.000	1.04177	0.55892	-0.28073	-0.50132
92.000	1.08327	0.57085	-0.29852	-0.47745
93.000	1.07536	0.58079	-0.31434	-0.48143
94.000	1.06548	0.54897	-0.29655	-0.52121
95.000	1.09117	0.51516	-0.32620	-0.53911
96.000	1.06746	0.51516	-0.31632	-0.58685
97.000	1.03781	0.51914	-0.31632	-0.61470
98.000	1.02200	0.45550	-0.27678	-0.61272
99.000	0.96666	0.47739	-0.27085	-0.64255
100.000	1.02595	0.45152	-0.27085	-0.63858
101.000	0.98247	0.44755	-0.25503	-0.68632
102.000	1.01410	0.51915	-0.25305	-0.71615
103.000	1.04177	0.46942	-0.22933	-0.70024
104.000	1.02595	0.45550	-0.20561	-0.70223
105.000	1.00224	0.47937	-0.23329	-0.70422
106.000	1.02595	0.47539	-0.22142	-0.72809
107.000	1.01410	0.50125	-0.23922	-0.71416
108.000	1.02991	0.51914	-0.22340	-0.72013
109.000	1.01212	0.52114	-0.26887	-0.70223
110.000	1.02398	0.54699	-0.28073	-0.68433
111.000	1.00421	0.54898	-0.29457	-0.67836
112.000	1.01410	0.54103	-0.28864	-0.61470
113.000	1.03188	0.57086	-0.29259	-0.62067
114.000	0.99829	0.59871	-0.30643	-0.63857
115.000	0.98643	0.58877	-0.27282	-0.63261
116.000	1.02003	0.63649	-0.24317	-0.62664
117.000	0.98840	0.61661	-0.27085	-0.66046
118.000	1.01410	0.62655	-0.27876	-0.61073
119.000	1.00817	0.61263	-0.21154	-0.65449
120.000	1.01607	0.62854	-0.22735	-0.62664
121.000	1.03188	0.61660	-0.26492	-0.61669
122.000	0.97457	0.59871	-0.25701	-0.60675
123.000	0.99829	0.61661	-0.21747	-0.63261
124.000	0.95085	0.59275	-0.20956	-0.66245
125.000	0.97259	0.60070	-0.25305	-0.65449
126.000	0.99038	0.65042	-0.26096	-0.65051
127.000	0.98840	0.64445	-0.27678	-0.64653
128.000	1.01014	0.67031	-0.31236	-0.62664
129.000	1.03781	0.68223	-0.26887	-0.64255
130.000	0.99038	0.63252	-0.28073	-0.62266
131.000	0.97852	0.63849	-0.30643	-0.62266
132.000	1.02793	0.65240	-0.27678	-0.60874
133.000	1.00421	0.63252	-0.27085	-0.62266
134.000	0.99236	0.68622	-0.32225	-0.63857
135.000	0.97457	0.69617	-0.31039	-0.62863
136.000	1.00421	0.66832	-0.27085	-0.61272
137.000	0.93899	0.65640	-0.27876	-0.61868
138.000	1.00619	0.66036	-0.27876	-0.61868
139.000	0.99236	0.63650	-0.23526	-0.62465
140.000	0.99433	0.66235	-0.26096	-0.61073
141.000	0.96666	0.64844	-0.25108	-0.59481
142.000	0.96666	0.64844	-0.26887	-0.63858
143.000	0.96469	0.64247	-0.26294	-0.54906
144.000	0.94097	0.63651	-0.25701	-0.57492
145.000	0.94690	0.61662	-0.24910	-0.55503
146.000	0.92911	0.63253	-0.26294	-0.55702
147.000	0.91923	0.61662	-0.21154	-0.59482
148.000	0.91527	0.63055	-0.24712	-0.58487
149.000	0.92911	0.63253	-0.23922	-0.59482
150.000	0.89946	0.66237	-0.25899	-0.60277
151.000	0.89749	0.63850	-0.25503	-0.59283
152.000	0.90737	0.59475	-0.25701	-0.61073
153.000	0.90539	0.65441	-0.27282	-0.58487
154.000	0.91132	0.67828	-0.24712	-0.60277
155.000	0.90342	0.65243	-0.28666	-0.61868
156.000	0.88563	0.64447	-0.24910	-0.59879
157.000	0.90737	0.67430	-0.25503	-0.59481
158.000	0.90342	0.67033	-0.26096	-0.61868
159.000	0.89551	0.66635	-0.27876	-0.61868
160.000	0.90934	0.66038	-0.28864	-0.63659
161.000	0.91132	0.66635	-0.26689	-0.64255
162.000	0.91725	0.65242	-0.24317	-0.65250
163.000	0.88365	0.68027	-0.27876	-0.61272
164.000	0.90737	0.66237	-0.28469	-0.66443
165.000	0.85400	0.65243	-0.31829	-0.65449
166.000	0.90144	0.68226	-0.27876	-0.66841
167.000	0.85005	0.64647	-0.29655	-0.66045
168.000	0.88365	0.66237	-0.29062	-0.69427
169.000	0.85993	0.65442	-0.32027	-0.68631
170.000	0.86784	0.65442	-0.28666	-0.69626
171.000	0.87377	0.65641	-0.31829	-0.74201
172.000	0.84214	0.64249	-0.25899	-0.72212
173.000	0.85993	0.64846	-0.29457	-0.69626
174.000	0.84412	0.66636	-0.28469	-0.69427
175.000	0.83226	0.65443	-0.29655	-0.66642
176.000	0.86784	0.65044	-0.29062	-0.69029
177.000	0.85400	0.63254	-0.29655	-0.67637
178.000	0.86784	0.63453	-0.27282	-0.62465
179.000	0.85993	0.64448	-0.29457	-0.64852
180.000	0.82831	0.59476	-0.27085	-0.64255
181.000	0.85203	0.60470	-0.25701	-0.67438
182.000	0.87970	0.62657	-0.26689	-0.60874
183.000	0.86388	0.65641	-0.24712	-0.63261
184.000	0.85796	0.59873	-0.28666	-0.60675
185.000	0.83226	0.63653	-0.26294	-0.56498
186.000	0.87179	0.65044	-0.26887	-0.60476
187.000	0.90539	0.63651	-0.23922	-0.57293
188.000	0.87970	0.61663	-0.21945	-0.56498
189.000	0.87574	0.67829	-0.27480	-0.58686
190.000	0.89353	0.67828	-0.29062	-0.61669
191.000	0.92911	0.70214	-0.26689	-0.59680
192.000	0.91527	0.64447	-0.31829	-0.57691
193.000	0.92120	0.66635	-0.27085	-0.58686
194.000	0.93504	0.66236	-0.33806	-0.55503
195.000	0.90342	0.66237	-0.28666	-0.58686
196.000	0.94887	0.67827	-0.30841	-0.56895
197.000	0.94295	0.66435	-0.29457	-0.56299
198.000	0.95085	0.65242	-0.30643	-0.56895
199.000	0.92120	0.67828	-0.28666	-0.56895
200.000	0.93702	0.63850	-0.27678	-0.57492
201.000	0.92120	0.66038	-0.28666	-0.52320
202.000	0.88760	0.66436	-0.28469	-0.57293
203.000	0.89156	0.63453	-0.26294	-0.52917
204.000	0.87179	0.64050	-0.29852	-0.57094
205.000	0.87574	0.63851	-0.27480	-0.56498
206.000	0.86191	0.66238	-0.28864	-0.58885
207.000	0.85400	0.66437	-0.24119	-0.57293
208.000	0.85598	0.65840	-0.27876	-0.57890
209.000	0.85203	0.63255	-0.28271	-0.53514
210.000	0.87377	0.61862	-0.27282	-0.58288
211.000	0.87574	0.64448	-0.25503	-0.57691
212.000	0.85203	0.64846	-0.27876	-0.58089
213.000	0.87377	0.61862	-0.21154	-0.58288
214.000	0.80261	0.61067	-0.22538	-0.55503
215.000	0.84807	0.62658	-0.21945	-0.55901
216.000	0.85796	0.57685	-0.21154	-0.54509
217.000	0.85796	0.59475	-0.21352	-0.52121
218.000	0.87377	0.56293	-0.22538	-0.54111
219.000	0.84214	0.57089	-0.22933	-0.50729
220.000	0.84412	0.59277	-0.23131	-0.52917
221.000	0.89946	0.60469	-0.21352	-0.55105
222.000	0.90144	0.63850	-0.27678	-0.49933
223.000	0.91923	0.62060	-0.26689	-0.47546
224.000	0.91923	0.67828	-0.25305	-0.53116
225.000	0.92120	0.67032	-0.25305	-0.50530
226.000	0.93702	0.68623	-0.25701	-0.53912
227.000	0.91330	0.67629	-0.31039	-0.52519
228.000	0.87574	0.67829	-0.30050	-0.48143
229.000	0.94097	0.67827	-0.25503	-0.51723
230.000	0.90737	0.67828	-0.27282	-0.49933
231.000	0.88365	0.66237	-0.27085	-0.49535
232.000	0.85203	0.67431	-0.30446	-0.51325
233.000	0.87772	0.69619	-0.25108	-0.51723
234.000	0.86388	0.63055	-0.30248	-0.50729
235.000	0.84610	0.66238	-0.30050	-0.47148
236.000	0.85993	0.70017	-0.27678	-0.53116
237.000	0.87377	0.64646	-0.32027	-0.52718
238.000	0.83226	0.72006	-0.33016	-0.49336
239.000	0.81842	0.69222	-0.28073	-0.50729
240.000	0.81052	0.69620	-0.29852	-0.52121
241.000	0.83424	0.69421	-0.30643	-0.49734
242.000	0.81645	0.69023	-0.29655	-0.51325
243.000	0.81645	0.69421	-0.29655	-0.53713
244.000	0.81052	0.62857	-0.32620	-0.53315
245.000	0.78877	0.66040	-0.30643	-0.55503
246.000	0.81052	0.64647	-0.32422	-0.52320
247.000	0.74529	0.62461	-0.29062	-0.53911
248.000	0.81052	0.62658	-0.30643	-0.51126
249.000	0.79075	0.60869	-0.31632	-0.52121
250.000	0.75319	0.61665	-0.26887	-0.52519
251.000	0.76703	0.63853	-0.30248	-0.55901
252.000	0.77098	0.64250	-0.30841	-0.54906
253.000	0.80261	0.62659	-0.33016	-0.55702
254.000	0.78284	0.63455	-0.29259	-0.56100
255.000	0.76110	0.62858	-0.31039	-0.56895
256.000	0.78680	0.64648	-0.29259	-0.52917
257.000	0.79075	0.66438	-0.27678	-0.56498
258.000	0.75715	0.60272	-0.29259	-0.49734
259.000	0.79273	0.64250	-0.30841	-0.55901
260.000	0.80063	0.65045	-0.28864	-0.58487
261.000	0.77889	0.59874	-0.28271	-0.55702
262.000	0.78680	0.68626	-0.28864	-0.53315
263.000	0.80261	0.62460	-0.31236	-0.55503
264.000	0.75912	0.60074	-0.32225	-0.55503
265.000	0.77889	0.67433	-0.30248	-0.58288
266.000	0.77494	0.63455	-0.26294	-0.56697
267.000	0.79273	0.65244	-0.32620	-0.55304
268.000	0.79470	0.63255	-0.29457	-0.53116
269.000	0.77098	0.66438	-0.30050	-0.52121
270.000	0.78877	0.64449	-0.32422	-0.56099
271.000	0.78877	0.64847	-0.28666	-0.54309
272.000	0.79075	0.63057	-0.30248	-0.53315
273.000	0.76308	0.64052	-0.30248	-0.55105
274.000	0.76505	0.68427	-0.31434	-0.55503
275.000	0.76901	0.65643	-0.29259	-0.55901
276.000	0.77494	0.65444	-0.31829	-0.50927
277.000	0.77098	0.68825	-0.29062	-0.53713
278.000	0.78482	0.65642	-0.26492	-0.48740
279.000	0.77691	0.67433	-0.28469	-0.53911
280.000	0.78284	0.63653	-0.26096	-0.50530
281.000	0.81842	0.63056	-0.30050	-0.53514
282.000	0.77296	0.65444	-0.33411	-0.49933
283.000	0.76505	0.62460	-0.27876	-0.48143
284.000	0.75122	0.66637	-0.29259	-0.47546
285.000	0.79866	0.64250	-0.26887	-0.48938
286.000	0.74924	0.67632	-0.30248	-0.45755
287.000	0.78877	0.64648	-0.28864	-0.47546
288.000	0.80459	0.65244	-0.26887	-0.49933
289.000	0.81447	0.64647	-0.26492	-0.46750
290.000	0.79470	0.66637	-0.29655	-0.45755
291.000	0.79866	0.60670	-0.28469	-0.47944
292.000	0.79075	0.61664	-0.28073	-0.49336
293.000	0.78087	0.61664	-0.29062	-0.45755
294.000	0.78284	0.62659	-0.27480	-0.47546
295.000	0.79668	0.63454	-0.28666	-0.48739
296.000	0.79470	0.65443	-0.26492	-0.45358
297.000	0.81249	0.60471	-0.31039	-0.45358
298.000	0.79075	0.64250	-0.29852	-0.48540
299.000	0.80854	0.60073	-0.28666	-0.47944
300.000	0.77889	0.63455	-0.30643	-0.48143
301.000	0.77296	0.58880	-0.32225	-0.51325
302.000	0.75912	0.60670	-0.31039	-0.49535
303.000	0.82435	0.65642	-0.32818	-0.51524
304.000	0.76703	0.62261	-0.30841	-0.49933
305.000	0.79273	0.60670	-0.33016	-0.52121
306.000	0.79075	0.61465	-0.32225	-0.51126
307.000	0.76110	0.66836	-0.34597	-0.49137
308.000	0.76110	0.65842	-0.32620	-0.51126
309.000	0.72750	0.62859	-0.35190	-0.47546
310.000	0.74331	0.67632	-0.34993	-0.49535
311.000	0.75122	0.64847	-0.34202	-0.50132
312.000	0.78284	0.65841	-0.38551	-0.50529
313.000	0.76308	0.65643	-0.34597	-0.50331
314.000	0.73936	0.66041	-0.33806	-0.49137
315.000	0.76308	0.62858	-0.35981	-0.47744
316.000	0.71168	0.66638	-0.36969	-0.50330
317.000	0.75715	0.66637	-0.37365	-0.46750
318.000	0.76308	0.64648	-0.35783	-0.49336
319.000	0.75517	0.68825	-0.39342	-0.42373
320.000	0.75517	0.66438	-0.36179	-0.45357
321.000	0.80261	0.69222	-0.35586	-0.44562
322.000	0.74529	0.63654	-0.38946	-0.38395
323.000	0.76901	0.69024	-0.35388	-0.40782
324.000	0.76505	0.66239	-0.37167	-0.38992
325.000	0.76308	0.67433	-0.37563	-0.43965
326.000	0.78087	0.65841	-0.38749	-0.42771
327.000	0.75912	0.66041	-0.36772	-0.43965
328.000	0.75912	0.65842	-0.37563	-0.41975
329.000	0.76308	0.69621	-0.36574	-0.40782
330.000	0.77889	0.66637	-0.38156	-0.46352
331.000	0.77691	0.67234	-0.37958	-0.39986
332.000	0.78680	0.67830	-0.37760	-0.38594
333.000	0.82040	0.66239	-0.36574	-0.36008
334.000	0.77691	0.68825	-0.35388	-0.45755
335.000	0.77691	0.66637	-0.32620	-0.43169
336.000	0.78877	0.68228	-0.35586	-0.42771
337.000	0.78877	0.67234	-0.35981	-0.44363
338.000	0.78877	0.69024	-0.36376	-0.42970
339.000	0.76308	0.69422	-0.36574	-0.42771
340.000	0.76505	0.67035	-0.37365	-0.40583
341.000	0.78284	0.67432	-0.34795	-0.39588
342.000	0.77098	0.67433	-0.33806	-0.37798
343.000	0.80459	0.68824	-0.30643	-0.40981
344.000	0.79668	0.69222	-0.33213	-0.38594
345.000	0.79668	0.68626	-0.32422	-0.40384
346.000	0.79866	0.66438	-0.34795	-0.41180
347.000	0.78877	0.66239	-0.33609	-0.41379
348.000	0.81447	0.68029	-0.31039	-0.42970
349.000	0.83621	0.67233	-0.33609	-0.41777
350.000	0.82633	0.67432	-0.32225	-0.39986
351.000	0.79273	0.67233	-0.30643	-0.40583
352.000	0.78680	0.66040	-0.33609	-0.39588
353.000	0.80656	0.67432	-0.30643	-0.41578
354.000	0.76901	0.68626	-0.31632	-0.43368
355.000	0.75517	0.68825	-0.33411	-0.41976
356.000	0.79470	0.66836	-0.31236	-0.39589
357.000	0.78284	0.67830	-0.35190	-0.44164
358.000	0.79075	0.69620	-0.32620	-0.45556
359.000	0.76901	0.66637	-0.34795	-0.48341
360.000	0.75912	0.67831	-0.33806	-0.46551
361.000	0.74726	0.67234	-0.37167	-0.46949
362.000	0.75319	0.67831	-0.36574	-0.46352
363.000	0.76901	0.67831	-0.40923	-0.50529
364.000	0.72750	0.67831	-0.40133	-0.45556
365.000	0.72552	0.68030	-0.42109	-0.43965
366.000	0.73343	0.63853	-0.40330	-0.41975
367.000	0.74331	0.61267	-0.41714	-0.40384
368.000	0.74529	0.63853	-0.37167	-0.39389
369.000	0.74529	0.64450	-0.39539	-0.40384
370.000	0.71564	0.64251	-0.41714	-0.38593
371.000	0.75517	0.64251	-0.42307	-0.40384
372.000	0.76901	0.65643	-0.40528	-0.37599
373.000	0.77889	0.62659	-0.38749	-0.34615
374.000	0.74331	0.67632	-0.35783	-0.36207
375.000	0.76901	0.69621	-0.36574	-0.35610
376.000	0.77691	0.68626	-0.41319	-0.32427
377.000	0.78877	0.70416	-0.45470	-0.30636
378.000	0.78087	0.71013	-0.44284	-0.38792
379.000	0.73738	0.66439	-0.39737	-0.37798
380.000	0.77889	0.65046	-0.41319	-0.37201
381.000	0.79075	0.69222	-0.39935	-0.37798
382.000	0.79470	0.68825	-0.39342	-0.32427
383.000	0.79075	0.71012	-0.41912	-0.36604
384.000	0.81645	0.71410	-0.39935	-0.39986
385.000	0.81447	0.70614	-0.41912	-0.41180
386.000	0.81645	0.69421	-0.40923	-0.36007
387.000	0.85993	0.68426	-0.42307	-0.36803
388.000	0.84610	0.71807	-0.43098	-0.33819
389.000	0.84412	0.69619	-0.40726	-0.37201
390.000	0.84017	0.68227	-0.42900	-0.39986
391.000	0.80459	0.67034	-0.41714	-0.40384
392.000	0.83028	0.63056	-0.41516	-0.39986
393.000	0.80656	0.68029	-0.38946	-0.37400
394.000	0.82238	0.68029	-0.43296	-0.36604
395.000	0.83424	0.69222	-0.42900	-0.40384
396.000	0.78680	0.68427	-0.39342	-0.38793
397.000	0.82040	0.65841	-0.38946	-0.38991
398.000	0.79866	0.65443	-0.41714	-0.40782
399.000	0.83424	0.66437	-0.37167	-0.38793
400.000	0.82435	0.66636	-0.39539	-0.38793
401.000	0.84214	0.69023	-0.38946	-0.34416
402.000	0.87377	0.65840	-0.41121	-0.32825
403.000	0.84807	0.69221	-0.40133	-0.35411
404.000	0.80854	0.66636	-0.38353	-0.35411
405.000	0.85993	0.64050	-0.38749	-0.35013
406.000	0.84610	0.63652	-0.39539	-0.37798
407.000	0.82831	0.66835	-0.36574	-0.33223
408.000	0.86586	0.67431	-0.40923	-0.33819
409.000	0.84017	0.67034	-0.38353	-0.33620
410.000	0.79075	0.67631	-0.34004	-0.37599
411.000	0.82831	0.67233	-0.36772	-0.34615
412.000	0.80063	0.64449	-0.35783	-0.37798
413.000	0.79668	0.66239	-0.37958	-0.40782
414.000	0.75912	0.64250	-0.37365	-0.39588
415.000	0.74529	0.64450	-0.34004	-0.33024
416.000	0.76505	0.63256	-0.34202	-0.35610
417.000	0.71564	0.61268	-0.36179	-0.36405
418.000	0.75319	0.58681	-0.35981	-0.33620
419.000	0.73738	0.60671	-0.38156	-0.36803
420.000	0.73343	0.63654	-0.41121	-0.36206
421.000	0.75319	0.64847	-0.39737	-0.34416
422.000	0.78087	0.65444	-0.41714	-0.33023
423.000	0.82435	0.67631	-0.39737	-0.36206
424.000	0.76110	0.69621	-0.37760	-0.37400
425.000	0.78087	0.68029	-0.39737	-0.32228
426.000	0.79273	0.68228	-0.40528	-0.37002
427.000	0.77494	0.64250	-0.41121	-0.34615
428.000	0.81645	0.66239	-0.41121	-0.36405
429.000	0.79075	0.63852	-0.41121	-0.31830
430.000	0.81249	0.67631	-0.42900	-0.31830
431.000	0.83621	0.68426	-0.47052	-0.31233
432.000	0.83028	0.66238	-0.41319	-0.34615
433.000	0.87377	0.67829	-0.44482	-0.30437
434.000	0.82633	0.69222	-0.43296	-0.34217
435.000	0.83028	0.67034	-0.42307	-0.34018
436.000	0.83226	0.69023	-0.44679	-0.32228
437.000	0.82633	0.69023	-0.41714	-0.30238
438.000	0.85598	0.67829	-0.44877	-0.31432
439.000	0.82633	0.66437	-0.41121	-0.32825
440.000	0.87179	0.67232	-0.44877	-0.37997
441.000	0.85598	0.67033	-0.40726	-0.30039
442.000	0.86388	0.70613	-0.46261	-0.34416
443.000	0.85005	0.63255	-0.46854	-0.28249
444.000	0.85993	0.66835	-0.42900	-0.36604
445.000	0.84214	0.68625	-0.40133	-0.34416
446.000	0.84214	0.62061	-0.43691	-0.31631
447.000	0.85598	0.65243	-0.43098	-0.29045
448.000	0.80656	0.62460	-0.46261	-0.33023
449.000	0.77494	0.59675	-0.46063	-0.29840
450.000	0.82435	0.62857	-0.42307	-0.29840
451.000	0.78087	0.64051	-0.41714	-0.32626
452.000	0.81447	0.63852	-0.38749	-0.31432
453.000	0.78482	0.64051	-0.37563	-0.35411
454.000	0.75715	0.61267	-0.39342	-0.29642
455.000	0.76901	0.60272	-0.37563	-0.31631
456.000	0.77889	0.62062	-0.37760	-0.33024
457.000	0.77494	0.63256	-0.37958	-0.33620
458.000	0.76505	0.63654	-0.39935	-0.32427
459.000	0.74726	0.65842	-0.36772	-0.33223
460.000	0.76901	0.64250	-0.43493	-0.33421
461.000	0.77889	0.65245	-0.38946	-0.32825
462.000	0.78284	0.64648	-0.42702	-0.35212
463.000	0.75122	0.64648	-0.40726	-0.33819
464.000	0.79075	0.68825	-0.42702	-0.37599
465.000	0.79668	0.70416	-0.41912	-0.33421
466.000	0.77098	0.67433	-0.41714	-0.38991
467.000	0.74529	0.64450	-0.40923	-0.35411
468.000	0.75912	0.65046	-0.42702	-0.35212
469.000	0.78087	0.70615	-0.43493	-0.37798
470.000	0.80459	0.71012	-0.45865	-0.36206
471.000	0.79866	0.67631	-0.44482	-0.37599
472.000	0.78680	0.69223	-0.40528	-0.36007
473.000	0.78680	0.68825	-0.43296	-0.34416
474.000	0.78877	0.71013	-0.41714	-0.36604
475.000	0.79668	0.70018	-0.50610	-0.33819
476.000	0.79273	0.67035	-0.47249	-0.38792
477.000	0.75912	0.68228	-0.44482	-0.34018
478.000	0.80459	0.71609	-0.41516	-0.38395
479.000	0.78877	0.69222	-0.45668	-0.36206
480.000	0.81052	0.70217	-0.44482	-0.36206
481.000	0.81052	0.69023	-0.45470	-0.36405
482.000	0.74924	0.68825	-0.42702	-0.35411
483.000	0.79668	0.69620	-0.42307	-0.33023
484.000	0.80459	0.67432	-0.45075	-0.31631
485.000	0.78680	0.69223	-0.46656	-0.31631
486.000	0.79075	0.67432	-0.46656	-0.33421
487.000	0.75122	0.66836	-0.46854	-0.33421
488.000	0.78680	0.66438	-0.40330	-0.32029
489.000	0.77494	0.68029	-0.41714	-0.35212
490.000	0.75319	0.69820	-0.45272	-0.32228
491.000	0.79273	0.70217	-0.44482	-0.32426
492.000	0.80063	0.68824	-0.42900	-0.35609
493.000	0.80656	0.68029	-0.40923	-0.32825
494.000	0.74726	0.67831	-0.46459	-0.38394
495.000	0.77889	0.67631	-0.44284	-0.36007
496.000	0.76110	0.63256	-0.47842	-0.34615
497.000	0.77691	0.67631	-0.44482	-0.35013
498.000	0.77889	0.68427	-0.44877	-0.36206
499.000	0.73936	0.68627	-0.44284	-0.34416
500.000	0.75517	0.66438	-0.40133	-0.31830
501.000	0.76505	0.64847	-0.45272	-0.30238
502.000	0.80854	0.65841	-0.43493	-0.35411
503.000	0.82238	0.68029	-0.47842	-0.34814
504.000	0.79866	0.70615	-0.45668	-0.36803
505.000	0.77494	0.68825	-0.48633	-0.35012
506.000	0.74726	0.62858	-0.44086	-0.31830
507.000	0.74331	0.64649	-0.43296	-0.32824
508.000	0.75715	0.64449	-0.44086	-0.29840
509.000	0.72750	0.61267	-0.44086	-0.32625
510.000	0.75715	0.60471	-0.45272	-0.29442
511.000	0.77494	0.65245	-0.45668	-0.29442
512.000	0.74529	0.63654	-0.47052	-0.32426
513.000	0.77098	0.65245	-0.45470	-0.32426
514.000	0.75319	0.63853	-0.42702	-0.30636
515.000	0.72750	0.63058	-0.46656	-0.30437
516.000	0.74529	0.65046	-0.45865	-0.32625
517.000	0.78087	0.65245	-0.44482	-0.33023
518.000	0.78482	0.61068	-0.47249	-0.27453
519.000	0.77098	0.66040	-0.45865	-0.34018
520.000	0.78680	0.64847	-0.44482	-0.32426
521.000	0.77691	0.61664	-0.45470	-0.26856
522.000	0.78087	0.65642	-0.44679	-0.29840
523.000	0.83226	0.66039	-0.46261	-0.30835
524.000	0.82831	0.66437	-0.46261	-0.32426
525.000	0.85993	0.66039	-0.46459	-0.32227
526.000	0.86388	0.67829	-0.45865	-0.28249
527.000	0.84214	0.67034	-0.43493	-0.33023
528.000	0.81842	0.66835	-0.47447	-0.30437
529.000	0.84610	0.72205	-0.47052	-0.30437
530.000	0.82831	0.71012	-0.47447	-0.24867
531.000	0.82040	0.73796	-0.47842	-0.31830
532.000	0.79075	0.67035	-0.47447	-0.30039
533.000	0.80459	0.69023	-0.45668	-0.33222
534.000	0.85005	0.70614	-0.48040	-0.31034
535.000	0.83226	0.72603	-0.46063	-0.33023
536.000	0.79075	0.70814	-0.41121	-0.29244
537.000	0.76703	0.68029	-0.44679	-0.30636
538.000	0.79866	0.69023	-0.44086	-0.33222
539.000	0.82040	0.71410	-0.43493	-0.31830
540.000	0.84214	0.67432	-0.42307	-0.32824
541.000	0.76901	0.67433	-0.43889	-0.33819
542.000	0.77296	0.70018	-0.44482	-0.31432
543.000	0.78680	0.66637	-0.43889	-0.35808
544.000	0.78284	0.71410	-0.43493	-0.32228
545.000	0.78087	0.64648	-0.42307	-0.31034
546.000	0.75715	0.69223	-0.42702	-0.34018
547.000	0.79075	0.66040	-0.43296	-0.29840
548.000	0.83028	0.67830	-0.43098	-0.32625
549.000	0.85993	0.68227	-0.44284	-0.30437
550.000	0.85796	0.68823	-0.47447	-0.30835
551.000	0.86191	0.70017	-0.45668	-0.32824
552.000	0.86784	0.69022	-0.46459	-0.32227
553.000	0.86388	0.68028	-0.46656	-0.29840
554.000	0.89749	0.72602	-0.47052	-0.29243
555.000	0.86388	0.67829	-0.45668	-0.32029
556.000	0.85993	0.71210	-0.44877	-0.31631
557.000	0.87970	0.72204	-0.47645	-0.32426
558.000	0.86388	0.70216	-0.44877	-0.27453
559.000	0.83819	0.66835	-0.47447	-0.31432
560.000	0.85203	0.69619	-0.47249	-0.30636
561.000	0.82238	0.69819	-0.46459	-0.32824
562.000	0.84610	0.69818	-0.47842	-0.28647
563.000	0.86586	0.71608	-0.44679	-0.30437
564.000	0.81842	0.73796	-0.44284	-0.29641
565.000	0.82435	0.68426	-0.46261	-0.29641
566.000	0.85993	0.71011	-0.47447	-0.26061
567.000	0.86191	0.71807	-0.45075	-0.29244
568.000	0.84214	0.67829	-0.44877	-0.31034
569.000	0.86586	0.71608	-0.46261	-0.29641
570.000	0.82633	0.68824	-0.44284	-0.29443
571.000	0.84610	0.70216	-0.45272	-0.28647
572.000	0.86784	0.68028	-0.42505	-0.30238
573.000	0.86388	0.71807	-0.44679	-0.26856
574.000	0.84017	0.69222	-0.42505	-0.34615
575.000	0.85796	0.69619	-0.44877	-0.29045
576.000	0.84412	0.65244	-0.41121	-0.25862
577.000	0.84807	0.69420	-0.39935	-0.27055
578.000	0.82633	0.68227	-0.43098	-0.22878
579.000	0.84017	0.67829	-0.42109	-0.26459
580.000	0.80854	0.62659	-0.39539	-0.27254
581.000	0.81842	0.64051	-0.39342	-0.27652
582.000	0.84412	0.64647	-0.41516	-0.25066
583.000	0.80459	0.67233	-0.37760	-0.27254
584.000	0.85203	0.64647	-0.37167	-0.27056
585.000	0.80459	0.67432	-0.39144	-0.28846
586.000	0.81052	0.62857	-0.41714	-0.32824
587.000	0.79866	0.64051	-0.40726	-0.28050
588.000	0.79273	0.64449	-0.41516	-0.30437
589.000	0.82040	0.63852	-0.41714	-0.31631
590.000	0.80854	0.63255	-0.37958	-0.32626
591.000	0.81842	0.63852	-0.39539	-0.31432
592.000	0.83226	0.66835	-0.39737	-0.33023
593.000	0.83028	0.65841	-0.37958	-0.33620
594.000	0.80063	0.61067	-0.42307	-0.31432
595.000	0.83226	0.62857	-0.40330	-0.32626
596.000	0.81052	0.61465	-0.40528	-0.32029
597.000	0.80261	0.64051	-0.38156	-0.34615
598.000	0.81052	0.63852	-0.38749	-0.32228
599.000	0.82831	0.64448	-0.37760	-0.33024
600.000	0.83621	0.65642	-0.42702	-0.33023
601.000	0.81842	0.65841	-0.39935	-0.34018
602.000	0.81447	0.65045	-0.39737	-0.33222
603.000	0.82633	0.63852	-0.40923	-0.33819
604.000	0.82238	0.62062	-0.40330	-0.31830
605.000	0.84610	0.66835	-0.40133	-0.35013
606.000	0.82238	0.62062	-0.36969	-0.33421
607.000	0.80656	0.66040	-0.36179	-0.33819
608.000	0.80656	0.64846	-0.42109	-0.31631
609.000	0.77889	0.62261	-0.41912	-0.28050
610.000	0.80656	0.64250	-0.39342	-0.33222
611.000	0.77494	0.59675	-0.38749	-0.31830
612.000	0.81052	0.60272	-0.40528	-0.32228
613.000	0.82831	0.69222	-0.42702	-0.37002
614.000	0.81645	0.62857	-0.42702	-0.33222
615.000	0.82040	0.68426	-0.41319	-0.30437
616.000	0.81645	0.64846	-0.40330	-0.32228
617.000	0.79866	0.65244	-0.36376	-0.29642
618.000	0.80261	0.63454	-0.40133	-0.33023
619.000	0.81052	0.63056	-0.36969	-0.35013
620.000	0.85400	0.70216	-0.38156	-0.30437
621.000	0.85796	0.68028	-0.36179	-0.33819
622.000	0.88167	0.66635	-0.38353	-0.34615
623.000	0.88563	0.70016	-0.37760	-0.32825
624.000	0.85993	0.68028	-0.38749	-0.36008
625.000	0.88365	0.67829	-0.37365	-0.37400
626.000	0.88760	0.67232	-0.37958	-0.31034
627.000	0.91725	0.72005	-0.39539	-0.35411
628.000	0.88760	0.73397	-0.34795	-0.34416
629.000	0.93899	0.74789	-0.37958	-0.31830
630.000	0.89946	0.75187	-0.38353	-0.33421
631.000	0.89156	0.75187	-0.36969	-0.28846
632.000	0.91725	0.74391	-0.39935	-0.32029
633.000	0.89946	0.74392	-0.40133	-0.27652
634.000	0.87574	0.74989	-0.36969	-0.33223
635.000	0.90342	0.73397	-0.37760	-0.28647
636.000	0.94097	0.72800	-0.36772	-0.30835
637.000	0.93306	0.76579	-0.40726	-0.34416
638.000	0.90342	0.74988	-0.39342	-0.34814
639.000	0.89946	0.71408	-0.38353	-0.33620
640.000	0.93702	0.75584	-0.37958	-0.34416
641.000	0.90934	0.72800	-0.37563	-0.30636
642.000	0.87574	0.76580	-0.35190	-0.34416
643.000	0.92713	0.73198	-0.37760	-0.31034
644.000	0.91923	0.73397	-0.38156	-0.29642
645.000	0.91132	0.75187	-0.39737	-0.34416
646.000	0.89749	0.74789	-0.39144	-0.30437
647.000	0.86784	0.72801	-0.41121	-0.30437
648.000	0.91330	0.71806	-0.36772	-0.32427
649.000	0.88958	0.72801	-0.33806	-0.35610
650.000	0.91527	0.68425	-0.37167	-0.32825
651.000	0.89353	0.70414	-0.36772	-0.35013
652.000	0.91923	0.75584	-0.35783	-0.34416
653.000	0.87377	0.69619	-0.38749	-0.33620
654.000	0.88958	0.71408	-0.31434	-0.30637
655.000	0.88760	0.71409	-0.35981	-0.35013
656.000	0.86981	0.75387	-0.33609	-0.30637
657.000	0.90737	0.75187	-0.36969	-0.32825
658.000	0.90144	0.70414	-0.35388	-0.34217
659.000	0.93306	0.71805	-0.34004	-0.35212
660.000	0.90144	0.68823	-0.35783	-0.32427
661.000	0.91725	0.69817	-0.35190	-0.33819
662.000	0.89551	0.69817	-0.30841	-0.33621
663.000	0.88365	0.70812	-0.34202	-0.33620
664.000	0.89551	0.70016	-0.33806	-0.35013
665.000	0.90342	0.68624	-0.31434	-0.32626
666.000	0.88167	0.70016	-0.31632	-0.35411
667.000	0.92318	0.68226	-0.35190	-0.36604
668.000	0.87772	0.69818	-0.33806	-0.33621
669.000	0.89749	0.69817	-0.36179	-0.35212
670.000	0.91330	0.67629	-0.32818	-0.37798
671.000	0.88760	0.66436	-0.33806	-0.36803
672.000	0.88958	0.70016	-0.35981	-0.37599
673.000	0.89551	0.68226	-0.31039	-0.36406
674.000	0.88760	0.70414	-0.33609	-0.37798
675.000	0.91527	0.67629	-0.32620	-0.37400
676.000	0.92318	0.68822	-0.34399	-0.38992
677.000	0.88760	0.70215	-0.31632	-0.35809
678.000	0.87179	0.68227	-0.31829	-0.38196
679.000	0.90539	0.67231	-0.32027	-0.35610
680.000	0.87377	0.69022	-0.33213	-0.37599
681.000	0.91132	0.69817	-0.34202	-0.36008
682.000	0.89551	0.70812	-0.32225	-0.39390
683.000	0.89946	0.68027	-0.35981	-0.37201
684.000	0.91132	0.67032	-0.34202	-0.36008
685.000	0.88365	0.69420	-0.37365	-0.37002
686.000	0.91725	0.67032	-0.32818	-0.34416
687.000	0.92516	0.71209	-0.34795	-0.38793
688.000	0.87574	0.67630	-0.33411	-0.32427
689.000	0.89353	0.69618	-0.31236	-0.35809
690.000	0.87772	0.67232	-0.35783	-0.34814
691.000	0.88563	0.67431	-0.36179	-0.35411
692.000	0.91330	0.68425	-0.34399	-0.36406
693.000	0.88760	0.70215	-0.34202	-0.34018
694.000	0.87574	0.68028	-0.31434	-0.32427
695.000	0.91132	0.67828	-0.33016	-0.36406
696.000	0.94492	0.70214	-0.32818	-0.36406
697.000	0.94690	0.72004	-0.32620	-0.35013
698.000	0.87377	0.71011	-0.34399	-0.35809
699.000	0.94097	0.68026	-0.31632	-0.37798
700.000	0.90144	0.69419	-0.32027	-0.37400
701.000	0.92516	0.70413	-0.33411	-0.35610
702.000	0.90342	0.71010	-0.34004	-0.35212
703.000	0.89156	0.70812	-0.30446	-0.36207
704.000	0.90342	0.71806	-0.32225	-0.38395
705.000	0.92911	0.70015	-0.31632	-0.35212
706.000	0.91330	0.68226	-0.31434	-0.34018
707.000	0.89156	0.65839	-0.33016	-0.33024
708.000	0.88760	0.66436	-0.29655	-0.35809
709.000	0.88365	0.69420	-0.30643	-0.38594
710.000	0.89749	0.67232	-0.31236	-0.37002
711.000	0.92318	0.68623	-0.32818	-0.34416
712.000	0.85203	0.69022	-0.33016	-0.36008
713.000	0.87772	0.66238	-0.32422	-0.32626
714.000	0.92318	0.69817	-0.32422	-0.37599
715.000	0.92120	0.66635	-0.29062	-0.38196
716.000	0.90934	0.68425	-0.32027	-0.35013
717.000	0.95283	0.67429	-0.31632	-0.34615
718.000	0.89551	0.64049	-0.28864	-0.38196
719.000	0.88365	0.63851	-0.29852	-0.35212
720.000	0.91330	0.63850	-0.28271	-0.35411
721.000	0.90539	0.63254	-0.31039	-0.34416
722.000	0.92713	0.66436	-0.29852	-0.35809
723.000	0.90144	0.63055	-0.29852	-0.36207
724.000	0.87772	0.63254	-0.30050	-0.36406
725.000	0.87574	0.65044	-0.32422	-0.36406
726.000	0.85993	0.61067	-0.32818	-0.36803
727.000	0.84807	0.62260	-0.33016	-0.34018
728.000	0.87179	0.61663	-0.34202	-0.32825
729.000	0.86981	0.62856	-0.31039	-0.40981
730.000	0.87377	0.62856	-0.31039	-0.33422
731.000	0.86388	0.63851	-0.30841	-0.32825
732.000	0.88958	0.59077	-0.29655	-0.37003
733.000	0.85400	0.63056	-0.32225	-0.36207
734.000	0.84017	0.60868	-0.29062	-0.36406
735.000	0.88167	0.63453	-0.32225	-0.34018
736.000	0.85993	0.59276	-0.32620	-0.35610
737.000	0.87772	0.60867	-0.32818	-0.37599
738.000	0.87179	0.58878	-0.33213	-0.38196
739.000	0.85400	0.58083	-0.34795	-0.37997
740.000	0.86586	0.60271	-0.29655	-0.34814
741.000	0.87772	0.59674	-0.34993	-0.35013
742.000	0.91527	0.61861	-0.33411	-0.36207
743.000	0.85993	0.58879	-0.33609	-0.37400
744.000	0.89156	0.56094	-0.35783	-0.40384
745.000	0.89946	0.62060	-0.34597	-0.36803
746.000	0.89749	0.59873	-0.35783	-0.34615
747.000	0.92120	0.62060	-0.42505	-0.39986
748.000	0.93702	0.56491	-0.39737	-0.40583
749.000	0.94097	0.56888	-0.39737	-0.36604
750.000	0.92120	0.63850	-0.36969	-0.38793
751.000	0.94097	0.64645	-0.38156	-0.44561
752.000	0.92911	0.65839	-0.40726	-0.38594
753.000	0.94295	0.61861	-0.39144	-0.38395
754.000	0.97062	0.66435	-0.37760	-0.38196
755.000	0.93702	0.66634	-0.35586	-0.37997
756.000	0.94097	0.67231	-0.40528	-0.36007
757.000	0.91725	0.68425	-0.37365	-0.37997
758.000	0.93109	0.71209	-0.40528	-0.32825
759.000	0.93306	0.71209	-0.35586	-0.39986
760.000	0.93702	0.69220	-0.40528	-0.37400
761.000	0.95480	0.71606	-0.36772	-0.34814
762.000	0.92911	0.70413	-0.36179	-0.38395
763.000	0.90144	0.66635	-0.34597	-0.37201
764.000	0.93109	0.71010	-0.30643	-0.39390
765.000	0.91725	0.72800	-0.29852	-0.39986
766.000	0.92516	0.69618	-0.30841	-0.36008
767.000	0.93306	0.68822	-0.29852	-0.37599
768.000	0.94492	0.65441	-0.27085	-0.40583
769.000	0.91330	0.69419	-0.25899	-0.37400
770.000	0.94295	0.67032	-0.25899	-0.36406
771.000	0.92318	0.66436	-0.26492	-0.35411
772.000	0.93109	0.65441	-0.25701	-0.32626
773.000	0.94097	0.63651	-0.23922	-0.31433
774.000	0.90934	0.67629	-0.24910	-0.32825
775.000	0.94887	0.67032	-0.27480	-0.31233
776.000	0.93109	0.67231	-0.26294	-0.34218
777.000	0.95480	0.68623	-0.24712	-0.36406
778.000	0.96864	0.67429	-0.27282	-0.36008
779.000	0.97062	0.69816	-0.28666	-0.35610
780.000	0.95085	0.68623	-0.31434	-0.33422
781.000	0.94887	0.70214	-0.29457	-0.33223
782.000	0.94690	0.72998	-0.31236	-0.37599
783.000	0.95283	0.69617	-0.36376	-0.35212
784.000	0.98050	0.71804	-0.33016	-0.38594
785.000	0.96271	0.75584	-0.34202	-0.35411
786.000	0.96469	0.71805	-0.31236	-0.34217
787.000	0.97852	0.75384	-0.30248	-0.36804
788.000	0.93306	0.74590	-0.34004	-0.30835
789.000	0.94690	0.71407	-0.34399	-0.34814
790.000	0.96666	0.68225	-0.33213	-0.32626
791.000	0.92911	0.69220	-0.36179	-0.34814
792.000	0.96073	0.70015	-0.34202	-0.34018
793.000	0.97852	0.70611	-0.36574	-0.33421
794.000	0.95480	0.71009	-0.35190	-0.36008
795.000	0.93306	0.67231	-0.35388	-0.32825
796.000	1.00421	0.76975	-0.38551	-0.35809
797.000	0.95085	0.68822	-0.35783	-0.34217
798.000	0.93702	0.73794	-0.35190	-0.38395
799.000	0.94097	0.68822	-0.34202	-0.37599
800.000	0.93109	0.67430	-0.31039	-0.37997
801.000	0.94492	0.67032	-0.29852	-0.32427
802.000	0.92713	0.67430	-0.27876	-0.38196
803.000	0.92911	0.67629	-0.27678	-0.36207
804.000	0.93504	0.68623	-0.27480	-0.39191
805.000	0.98840	0.69020	-0.24515	-0.38594
806.000	0.99433	0.67230	-0.26492	-0.39788
807.000	0.96469	0.65440	-0.27876	-0.40185
808.000	0.94492	0.63452	-0.25899	-0.37003
809.000	0.94492	0.69220	-0.21747	-0.38395
810.000	0.95480	0.63452	-0.23922	-0.34218
811.000	0.95283	0.67032	-0.23526	-0.37798
812.000	0.93702	0.67629	-0.23526	-0.38594
813.000	0.95480	0.67429	-0.25503	-0.34218
814.000	0.98247	0.69020	-0.23724	-0.34615
815.000	0.92318	0.70016	-0.24119	-0.35212
816.000	0.99236	0.72401	-0.26689	-0.31631
817.000	0.94887	0.72203	-0.26096	-0.33223
818.000	0.98050	0.69418	-0.26689	-0.35809
819.000	0.96271	0.69418	-0.25701	-0.34814
820.000	0.94097	0.69220	-0.28073	-0.32626
821.000	0.90539	0.71010	-0.26689	-0.36804
822.000	0.92120	0.68425	-0.28469	-0.36406
823.000	0.95678	0.71407	-0.25305	-0.34218
824.000	0.93899	0.73595	-0.30643	-0.38594
825.000	0.93899	0.71805	-0.29852	-0.38395
826.000	0.96666	0.65440	-0.25899	-0.38594
827.000	0.94887	0.70811	-0.28469	-0.37798
828.000	0.94097	0.71209	-0.27678	-0.36207
829.000	0.94097	0.69419	-0.28666	-0.37997
830.000	0.95283	0.68822	-0.27876	-0.34416
831.000	0.99433	0.74390	-0.28469	-0.35212
832.000	0.95876	0.67628	-0.29852	-0.35212
833.000	0.92911	0.67231	-0.31632	-0.34018
834.000	0.91923	0.68226	-0.35190	-0.32029
835.000	0.90934	0.67629	-0.31434	-0.35809
836.000	0.93899	0.69220	-0.32818	-0.30637
837.000	0.96666	0.71009	-0.31632	-0.32228
838.000	0.92713	0.72203	-0.34202	-0.37798
839.000	0.97654	0.69617	-0.35388	-0.36406
840.000	0.93306	0.70214	-0.34202	-0.36406
841.000	0.92911	0.67629	-0.35190	-0.41976
842.000	0.90539	0.72403	-0.33213	-0.37798
843.000	0.93504	0.66435	-0.36969	-0.33024
844.000	0.94492	0.64645	-0.34202	-0.36406
845.000	0.92120	0.70811	-0.32620	-0.34416
846.000	0.93109	0.70214	-0.33609	-0.37798
847.000	0.92120	0.72999	-0.36179	-0.33620
848.000	0.92120	0.68425	-0.35190	-0.37599
849.000	0.93899	0.70413	-0.32225	-0.37798
850.000	0.90934	0.69618	-0.28666	-0.36207
851.000	0.91725	0.69220	-0.32818	-0.33024
852.000	0.93109	0.68623	-0.34597	-0.35809
853.000	0.93702	0.70413	-0.31434	-0.35809
854.000	0.89749	0.72602	-0.30446	-0.37599
855.000	0.92713	0.66436	-0.35586	-0.36207
856.000	0.94492	0.70015	-0.28864	-0.34814
857.000	0.96073	0.69816	-0.26887	-0.34615
858.000	0.91725	0.67828	-0.33016	-0.35013
859.000	0.91923	0.68822	-0.28271	-0.37599
860.000	0.89749	0.74193	-0.31236	-0.37798
861.000	0.92120	0.68623	-0.31039	-0.35809
862.000	0.92120	0.68623	-0.26887	-0.36804
863.000	0.90539	0.68624	-0.28666	-0.39987
864.000	0.88365	0.69022	-0.29852	-0.35610
865.000	0.88167	0.68226	-0.28864	-0.36406
866.000	0.89749	0.70215	-0.29852	-0.37003
867.000	0.87772	0.66436	-0.27876	-0.41976
868.000	0.90342	0.70215	-0.31236	-0.35411
869.000	0.89551	0.68624	-0.26689	-0.39788
870.000	0.92120	0.71010	-0.28666	-0.35411
871.000	0.87377	0.69022	-0.23922	-0.42374
872.000	0.88365	0.67033	-0.24119	-0.39589
873.000	0.89749	0.65839	-0.20363	-0.35610
874.000	0.92713	0.69618	-0.24515	-0.41180
875.000	0.90144	0.69618	-0.21549	-0.38793
876.000	0.90342	0.69817	-0.23131	-0.42175
877.000	0.90539	0.66635	-0.22735	-0.38395
878.000	0.89353	0.69420	-0.22735	-0.39589
879.000	0.91527	0.67828	-0.22340	-0.39589
880.000	0.88167	0.67431	-0.20561	-0.37600
881.000	0.89156	0.69221	-0.22340	-0.40385
882.000	0.88958	0.66635	-0.20956	-0.38594
883.000	0.89946	0.62856	-0.22933	-0.36207
884.000	0.90934	0.62259	-0.22538	-0.38395
885.000	0.90539	0.64049	-0.20758	-0.39390
886.000	0.88760	0.62657	-0.25899	-0.38395
887.000	0.87574	0.60072	-0.24515	-0.37798
888.000	0.86586	0.63453	-0.26096	-0.38196
889.000	0.85598	0.62658	-0.27876	-0.32029
890.000	0.86586	0.62260	-0.27876	-0.34814
891.000	0.82831	0.61266	-0.31632	-0.38992
892.000	0.88365	0.64845	-0.32422	-0.38992
893.000	0.87179	0.63851	-0.31632	-0.33621
894.000	0.88563	0.63851	-0.31434	-0.33621
895.000	0.86784	0.69022	-0.32620	-0.37400
896.000	0.86388	0.67829	-0.34004	-0.36406
897.000	0.88365	0.65641	-0.33016	-0.35809
898.000	0.85598	0.66835	-0.31039	-0.35411
899.000	0.88958	0.67828	-0.28666	-0.36406
900.000	0.90737	0.69021	-0.29062	-0.35610
901.000	0.89551	0.71209	-0.25899	-0.30836
902.000	0.87970	0.68226	-0.26492	-0.31432
903.000	0.90934	0.70215	-0.22735	-0.32626
904.000	0.86191	0.67431	-0.20758	-0.33820
905.000	0.87179	0.65641	-0.17595	-0.29841
906.000	0.85400	0.71210	-0.19968	-0.29443
907.000	0.87179	0.66635	-0.17200	-0.30637
908.000	0.91725	0.70612	-0.20165	-0.32427
909.000	0.88958	0.70414	-0.18979	-0.33820
910.000	0.88167	0.70414	-0.16409	-0.31831
911.000	0.89353	0.63851	-0.16804	-0.32626
912.000	0.86784	0.69818	-0.14234	-0.31433
913.000	0.92516	0.70413	-0.17991	-0.35212
914.000	0.88167	0.67630	-0.21747	-0.29443
915.000	0.91923	0.72203	-0.21352	-0.35411
916.000	0.86586	0.70017	-0.19968	-0.31433
917.000	0.87574	0.70215	-0.23724	-0.31631
918.000	0.89749	0.71806	-0.24712	-0.30040
919.000	0.84610	0.71608	-0.23724	-0.30239
920.000	0.87574	0.72801	-0.26689	-0.32228
921.000	0.85598	0.73796	-0.23922	-0.32228
922.000	0.88760	0.76778	-0.27876	-0.29244
923.000	0.86191	0.76182	-0.23329	-0.30836
924.000	0.92911	0.79164	-0.29655	-0.27653
925.000	0.91132	0.77176	-0.28271	-0.25862
926.000	0.91923	0.78568	-0.29062	-0.30040
927.000	0.86784	0.73199	-0.26492	-0.25663
928.000	0.92516	0.76977	-0.25503	-0.26459
929.000	0.91527	0.74192	-0.21747	-0.28449
930.000	0.90144	0.75784	-0.22933	-0.25265
931.000	0.86191	0.71210	-0.16607	-0.27056
932.000	0.87377	0.71409	-0.16804	-0.24669
933.000	0.84807	0.72006	-0.17398	-0.21685
934.000	0.83819	0.73001	-0.12455	-0.20690
935.000	0.84017	0.72603	-0.19177	-0.22083
936.000	0.87574	0.72005	-0.14234	-0.23475
937.000	0.84017	0.74393	-0.15816	-0.20491
938.000	0.87179	0.72602	-0.17200	-0.22083
939.000	0.82040	0.73796	-0.13246	-0.22083
940.000	0.82831	0.74393	-0.13048	-0.20889
941.000	0.80261	0.74393	-0.17793	-0.19894
942.000	0.85400	0.78569	-0.14630	-0.21884
943.000	0.84610	0.79564	-0.12060	-0.22282
944.000	0.84807	0.76580	-0.12653	-0.19496
945.000	0.89156	0.79364	-0.15025	-0.24271
946.000	0.87772	0.79762	-0.16607	-0.21884
947.000	0.89353	0.81154	-0.15025	-0.21685
948.000	0.89946	0.78170	-0.11467	-0.22083
949.000	0.86981	0.81154	-0.19177	-0.19098
950.000	0.90342	0.83540	-0.13641	-0.20690
951.000	0.88365	0.86325	-0.16804	-0.20491
952.000	0.86586	0.80955	-0.13246	-0.15716
953.000	0.88365	0.85728	-0.16607	-0.15120
954.000	0.88563	0.89904	-0.14037	-0.14722
955.000	0.87179	0.84336	-0.13048	-0.11340
956.000	0.87772	0.83938	-0.14827	-0.15120
957.000	0.86784	0.85132	-0.17398	-0.14921
958.000	0.88365	0.87717	-0.17398	-0.14523
959.000	0.86981	0.86524	-0.16409	-0.12732
960.000	0.89156	0.88313	-0.17595	-0.16313
961.000	0.86586	0.87320	-0.19177	-0.16512
962.000	0.85796	0.92292	-0.19177	-0.17706
963.000	0.86191	0.90502	-0.16014	-0.18502
964.000	0.85598	0.90701	-0.16607	-0.16512
965.000	0.81645	0.89309	-0.20561	-0.19695
966.000	0.85203	0.85530	-0.21549	-0.15517
967.000	0.84610	0.90303	-0.17793	-0.17507
968.000	0.81645	0.92889	-0.20165	-0.16910
969.000	0.81447	0.91298	-0.18781	-0.19695
970.000	0.83621	0.91894	-0.16211	-0.16711
971.000	0.84214	0.95275	-0.15421	-0.16711
972.000	0.82238	0.92292	-0.14827	-0.18900
973.000	0.82040	0.93486	-0.18188	-0.13727
974.000	0.83819	0.98457	-0.12257	-0.17507
975.000	0.86191	0.94877	-0.12060	-0.14921
976.000	0.82238	0.97463	-0.09490	-0.11539
977.000	0.82040	0.94082	-0.12060	-0.12931
978.000	0.83819	0.98258	-0.10676	-0.09748
979.000	0.85598	0.94678	-0.16211	-0.10544
980.000	0.83226	0.99252	-0.08303	-0.08356
981.000	0.85005	0.98655	-0.11664	-0.06167
982.000	0.82831	0.98855	-0.12257	-0.06565
983.000	0.86784	1.04223	-0.07908	-0.06167
984.000	0.85005	1.01837	-0.09490	-0.04974
985.000	0.83226	1.02434	-0.08303	-0.03382
986.000	0.84017	1.04224	-0.12257	-0.03382
987.000	0.82831	1.04821	-0.10676	-0.04377
988.000	0.86784	1.05416	-0.12653	-0.02586
989.000	0.86388	1.04621	-0.09490	-0.03382
990.000	0.83424	1.06809	-0.10874	-0.01393
991.000	0.85400	1.07206	-0.10083	-0.02387
992.000	0.85796	1.04820	-0.13839	-0.01194
993.000	0.87179	1.08399	-0.12060	-0.02188
994.000	0.86784	1.08797	-0.11862	0.01790
995.000	0.86191	1.06609	-0.09490	-0.00398
996.000	0.85796	1.09990	-0.10280	0.03581
997.000	0.86586	1.11779	-0.09292	0.04974
998.000	0.84610	1.13371	-0.09490	0.02188
999.000	0.85993	1.11183	-0.13246	0.00199
1000.000	0.87179	1.11779	-0.14037	0.03183
1001.000	0.84610	1.10388	-0.10874	0.04974
1002.000	0.90342	1.16749	-0.11862	0.01194
1003.000	0.88365	1.12574	-0.09885	0.03979
1004.000	0.89156	1.16948	-0.12060	0.03581
1005.000	0.86586	1.14563	-0.07513	0.07759
1006.000	0.90539	1.15755	-0.09292	0.08157
1007.000	0.86586	1.15160	-0.09885	0.06764
1008.000	0.81842	1.15758	-0.07908	0.06565
1009.000	0.89946	1.18937	-0.09490	0.10345
1010.000	0.86981	1.17347	-0.08106	0.08157
1011.000	0.79668	1.16156	-0.14432	0.06565
1012.000	0.81842	1.16354	-0.09687	0.11539
1013.000	0.82633	1.19535	-0.11071	0.06565
1014.000	0.82633	1.15559	-0.09292	0.04576
1015.000	0.83028	1.19535	-0.14432	0.06764
1016.000	0.81249	1.18144	-0.11862	0.07361
1017.000	0.81842	1.23711	-0.10478	0.07759
1018.000	0.85993	1.22517	-0.11071	0.07958
1019.000	0.80854	1.21524	-0.15421	0.08157
1020.000	0.84412	1.23909	-0.12653	0.05570
1021.000	0.85598	1.24704	-0.15816	0.03183
1022.000	0.87179	1.22715	-0.10874	0.05570
1023.000	0.86586	1.25499	-0.08303	0.04576
1024.000	0.86586	1.24903	-0.11269	0.07958
1025.000	0.89749	1.28878	-0.11269	0.10942
1026.000	0.85203	1.27687	-0.09885	0.06167
1027.000	0.87772	1.26294	-0.11269	0.13926
1028.000	0.88760	1.22516	-0.10676	0.12931
1029.000	0.89353	1.26691	-0.08501	0.14125
1030.000	0.87574	1.28879	-0.08501	0.14722
1031.000	0.85598	1.30271	-0.09490	0.12533
1032.000	0.89156	1.29673	-0.08501	0.15518
1033.000	0.87772	1.32060	-0.07513	0.22083
1034.000	0.87772	1.26890	-0.06129	0.15120
1035.000	0.91923	1.29672	-0.05733	0.18900
1036.000	0.94887	1.30864	-0.04349	0.21884
1037.000	0.92911	1.32853	-0.00395	0.24669
1038.000	1.00026	1.37820	-0.00395	0.25266
1039.000	1.00026	1.38616	0.01384	0.30637
1040.000	1.05955	1.49546	-0.03361	0.35213
1041.000	1.05165	1.50342	0.01186	0.39390
1042.000	1.03781	1.50342	0.00791	0.44960
1043.000	1.11489	1.60873	0.00395	0.48143
1044.000	1.12082	1.62661	-0.01186	0.54907
1045.000	1.11094	1.62463	0.03756	0.62267
1046.000	1.14651	1.72000	-0.00989	0.63460
1047.000	1.11687	1.76573	-0.02966	0.78976
1048.000	1.14256	1.83526	-0.05140	0.83351
1049.000	1.13465	1.84122	-0.01384	0.88125
1050.000	1.17813	1.88689	-0.04349	0.88125
1051.000	1.16627	1.91074	-0.06524	0.90114
1052.000	1.18010	1.96438	-0.03954	0.93296
1053.000	1.15244	1.92267	-0.01186	0.92700
1054.000	1.14848	1.93658	-0.06722	0.92302
1055.000	1.18208	1.91471	-0.05931	0.89517
1056.000	1.20382	1.96436	-0.06326	0.85937
1057.000	1.19394	1.96834	-0.04349	0.85142
1058.000	1.16232	1.94055	-0.03163	0.86534
1059.000	1.18603	1.88888	-0.05733	0.84147
1060.000	1.15441	1.85512	-0.03954	0.85341
1061.000	1.17220	1.85312	-0.02966	0.80368
1062.000	1.15837	1.87896	-0.02570	0.80766
1063.000	1.20184	1.89681	-0.02372	0.81164
1064.000	1.20579	1.86701	-0.02175	0.80567
1065.000	1.18010	1.87497	-0.03361	0.78180
1066.000	1.21370	1.88886	-0.01779	0.76987
1067.000	1.18801	1.92265	-0.00791	0.79572
1068.000	1.18208	1.90080	-0.00791	0.80965
1069.000	1.19987	1.91271	-0.03163	0.80368
1070.000	1.21370	1.91866	-0.01384	0.84545
1071.000	1.22555	1.93256	-0.00989	0.83550
1072.000	1.25124	1.95638	-0.00395	0.81760
1073.000	1.19591	1.94450	0.02372	0.81561
1074.000	1.24334	1.97029	0.01977	0.86932
1075.000	1.25520	2.00008	-0.00791	0.86534
1076.000	1.25915	1.98220	-0.04349	0.86733
1077.000	1.23544	1.97626	0.00198	0.85142
1078.000	1.28286	1.98615	-0.00791	0.83749
1079.000	1.24136	1.97625	-0.03361	0.80965
1080.000	1.28286	2.00403	-0.02175	0.86335
1081.000	1.31250	1.97024	0.04152	0.84147
1082.000	1.23741	2.02195	0.00395	0.82954
1083.000	1.28879	2.01793	-0.01977	0.81760
1084.000	1.28681	2.04177	-0.03756	0.82954
1085.000	1.33819	2.00995	-0.01779	0.86136
1086.000	1.29867	2.00998	0.00000	0.78976
1087.000	1.27891	1.99808	-0.04745	0.86335
1088.000	1.33819	2.03776	-0.00395	0.83352
1089.000	1.30855	2.06360	-0.01186	0.86534
1090.000	1.32040	2.01791	-0.00791	0.87131
1091.000	1.34412	2.02583	0.01779	0.87330
1092.000	1.30064	2.05169	-0.00593	0.86932
1093.000	1.35992	2.04966	-0.00593	0.85142
1094.000	1.36585	2.07150	-0.03361	0.90114
1095.000	1.31645	2.07353	-0.00791	0.84545
1096.000	1.34412	2.09138	-0.00198	0.87926
1097.000	1.36190	2.11322	-0.04152	0.89517
1098.000	1.34016	2.07748	-0.03559	0.89915
1099.000	1.35004	2.10528	0.00000	0.88324
1100.000	1.37178	2.13108	-0.00395	0.88921
1101.000	1.30064	2.06957	-0.02768	0.86534
1102.000	1.35399	2.08740	0.00593	0.87926
1103.000	1.35399	2.07350	-0.03163	0.85341
1104.000	1.31843	2.09339	-0.03954	0.91506
1105.000	1.32831	2.09537	-0.01582	0.83352
1106.000	1.32633	2.08147	-0.03756	0.84943
1107.000	1.33819	2.12317	-0.00593	0.85738
1108.000	1.33621	2.08742	-0.02768	0.87926
1109.000	1.31843	2.08147	-0.03163	0.84346
1110.000	1.34214	2.09933	-0.01582	0.86534
1111.000	1.36585	2.10725	-0.01779	0.81959
1112.000	1.35202	2.12514	-0.03954	0.81164
1113.000	1.33424	2.14502	-0.03954	0.83749
1114.000	1.36190	2.10130	-0.03559	0.87131
1115.000	1.32633	2.11325	-0.00593	0.81959
1116.000	1.34016	2.11919	-0.02966	0.85142
1117.000	1.34609	2.11720	-0.02966	0.85341
1118.000	1.31448	2.09935	-0.00791	0.82158
1119.000	1.33028	2.11721	-0.00989	0.81164
1120.000	1.34412	2.11720	0.00198	0.88324
1121.000	1.30262	2.09142	-0.01977	0.81959
1122.000	1.28088	2.10137	-0.00791	0.79572
1123.000	1.32831	2.10331	-0.00791	0.82556
1124.000	1.31052	2.09141	-0.00989	0.83550
1125.000	1.34016	2.09933	-0.01186	0.84147
1126.000	1.32040	2.07551	-0.01186	0.87528
1127.000	1.33028	2.05167	-0.00593	0.89120
1128.000	1.31052	2.08148	0.02175	0.84147
1129.000	1.32436	2.07948	0.01384	0.83153
1130.000	1.30657	2.07354	0.00593	0.83153
1131.000	1.27891	2.03781	0.01779	0.84346
1132.000	1.26903	2.07754	-0.01384	0.83948
1133.000	1.24927	2.06961	0.00395	0.80169
1134.000	1.28879	2.10136	-0.04349	0.85937
1135.000	1.25520	2.08152	-0.07908	0.83948
1136.000	1.25322	2.05769	-0.01582	0.79771
1137.000	1.26112	2.06563	-0.08106	0.75196
1138.000	1.27891	2.04972	-0.04349	0.82357
1139.000	1.29867	2.07354	-0.06920	0.77981
1140.000	1.32238	2.08941	-0.08897	0.79174
1141.000	1.28879	2.10136	-0.06129	0.76390
1142.000	1.28286	2.09938	-0.10676	0.76986
1143.000	1.28088	2.07952	-0.07710	0.73207
1144.000	1.31052	2.11525	-0.13246	0.70820
1145.000	1.28484	2.11924	-0.08699	0.79970
1146.000	1.28484	2.11129	-0.09687	0.71218
1147.000	1.32436	2.13311	-0.10676	0.72213
1148.000	1.34412	2.16288	-0.10874	0.72412
1149.000	1.29867	2.13313	-0.14432	0.68831
1150.000	1.33028	2.13906	-0.11269	0.70422
1151.000	1.31448	2.09737	-0.13641	0.68632
1152.000	1.34807	2.09932	-0.11664	0.68035
1153.000	1.35597	2.11322	-0.12060	0.66245
1154.000	1.30460	2.11326	-0.12455	0.64057
1155.000	1.35004	2.09336	-0.11664	0.71417
1156.000	1.35597	2.11322	-0.10874	0.64853
1157.000	1.31250	2.13113	-0.12850	0.67638
1158.000	1.33819	2.18076	-0.09094	0.65450
1159.000	1.35597	2.14897	-0.12653	0.65251
1160.000	1.34016	2.12714	-0.09490	0.67837
1161.000	1.37573	2.10923	-0.11071	0.67240
1162.000	1.35399	2.17479	-0.13048	0.67638
1163.000	1.36387	2.19266	-0.10083	0.68632
1164.000	1.37573	2.13704	-0.08897	0.66643
1165.000	1.34214	2.13508	-0.13444	0.70621
1166.000	1.39351	2.15490	-0.09687	0.69030
1167.000	1.41525	2.11118	-0.13048	0.69826
1168.000	1.41129	2.13502	-0.08699	0.69428
1169.000	1.36980	2.14300	-0.12455	0.69229
1170.000	1.40142	2.10921	-0.11664	0.66643
1171.000	1.39746	2.12709	-0.17595	0.72013
1172.000	1.37968	2.10327	-0.11071	0.74997
1173.000	1.39351	2.11120	-0.15618	0.70422
1174.000	1.37375	2.15491	-0.15025	0.69428
1175.000	1.40537	2.10126	-0.12455	0.68234
1176.000	1.33621	2.10331	-0.13444	0.76986
1177.000	1.36980	2.10526	-0.14037	0.73804
1178.000	1.39746	2.15489	-0.15421	0.72212
1179.000	1.35202	2.12315	-0.14037	0.70820
1180.000	1.36190	2.10527	-0.17398	0.73605
1181.000	1.39944	2.14099	-0.16211	0.72809
1182.000	1.35992	2.11719	-0.16804	0.75594
1183.000	1.36980	2.11122	-0.15816	0.75594
1184.000	1.39154	2.08340	-0.15025	0.71417
1185.000	1.37968	2.13505	-0.17793	0.71616
1186.000	1.39746	2.13106	-0.18781	0.73406
1187.000	1.35004	2.07350	-0.17595	0.71417
1188.000	1.40932	2.08338	-0.17200	0.78776
1189.000	1.39549	2.08737	-0.17200	0.72809
1190.000	1.40932	2.12509	-0.13444	0.76986
1191.000	1.40537	2.09927	-0.14827	0.74798
1192.000	1.38758	2.08539	-0.14827	0.73804
1193.000	1.40339	2.13105	-0.14432	0.76787
1194.000	1.39351	2.09730	-0.19375	0.73008
1195.000	1.39154	2.05956	-0.15421	0.71815
1196.000	1.43698	2.14691	-0.14432	0.75196
1197.000	1.40932	2.11913	-0.17595	0.73406
1198.000	1.38561	2.08737	-0.14630	0.74599
1199.000	1.38363	2.09333	-0.17200	0.77583
1200.000	1.37771	2.08937	-0.15421	0.76787
1201.000	1.37771	2.14101	-0.17002	0.76191
1202.000	1.38758	2.12312	-0.17200	0.74997
1203.000	1.39944	2.11715	-0.15223	0.73207
1204.000	1.41920	2.11912	-0.18781	0.78577
1205.000	1.42315	2.15288	-0.17398	0.78379
1206.000	1.39549	2.11517	-0.12455	0.76191
1207.000	1.42513	2.16480	-0.12653	0.70621
1208.000	1.37771	2.10923	-0.14630	0.74401
1209.000	1.43500	2.15287	-0.16607	0.80765
1210.000	1.40734	2.17474	-0.08501	0.74997
1211.000	1.41920	2.15884	-0.12060	0.76191
1212.000	1.42315	2.19856	-0.15025	0.81760
1213.000	1.36980	2.15492	-0.11071	0.81760
1214.000	1.44488	2.20251	-0.13048	0.78578
1215.000	1.43896	2.21642	-0.12850	0.75395
1216.000	1.44488	2.24620	-0.12257	0.80965
1217.000	1.41129	2.20651	-0.11269	0.79572
1218.000	1.44093	2.20649	-0.10676	0.73804
1219.000	1.41525	2.19658	-0.07315	0.74997
1220.000	1.48835	2.25410	-0.07315	0.76788
1221.000	1.50218	2.24415	-0.07908	0.79572
1222.000	1.56145	2.30564	-0.05733	0.74997
1223.000	1.55947	2.30366	-0.07710	0.80965
1224.000	1.52984	2.26994	-0.05338	0.79373
1225.000	1.54959	2.30764	-0.07117	0.84147
1226.000	1.46662	2.28390	-0.06524	0.83153
1227.000	1.46069	2.28391	-0.03163	0.86932
1228.000	1.49032	2.31962	-0.03559	0.91109
1229.000	1.48045	2.25609	-0.06722	0.82158
1230.000	1.52391	2.30171	-0.06129	0.78976
1231.000	1.51601	2.33349	-0.09885	0.80368
1232.000	1.57527	2.29570	-0.06524	0.85340
1233.000	1.58318	2.33143	-0.10280	0.82158
1234.000	1.60096	2.29369	-0.05338	0.85738
1235.000	1.61281	2.23808	-0.01582	0.70423
1236.000	1.61281	2.20035	0.01186	-0.38793
1237.000	1.59108	2.27980	0.14827	-0.40584
1238.000	1.68985	2.37101	NaN	NaN
1239.000	1.72738	2.32332	NaN	NaN
1240.000	1.62071	2.40881	NaN	NaN
1241.000	1.69182	2.86116	NaN	NaN
1242.000	1.97029	3.54254	NaN	NaN
1243.000	2.31381	4.56428	NaN	NaN
1244.000	2.64927	5.64353	NaN	NaN
1245.000	3.12255	6.70538	NaN	NaN
1246.000	3.59736	7.79240	NaN	NaN
1247.000	4.21722	8.94995	NaN	NaN
1248.000	4.97936	10.12402	NaN	NaN
1249.000	NaN	NaN	NaN	NaN
1250.000	NaN	NaN	NaN	NaN
1251.000	NaN	NaN	NaN	NaN
1252.000	NaN	NaN	NaN	NaN
1253.000	NaN	NaN	NaN	NaN
1254.000	NaN	NaN	NaN	NaN
1255.000	NaN	NaN	NaN	NaN
1256.000	NaN	NaN	NaN	NaN
1257.000	NaN	NaN	NaN	NaN
1258.000	NaN	NaN	NaN	NaN
1259.000	NaN	NaN	NaN	NaN
1260.000	NaN	NaN	NaN	NaN
1261.000	NaN	NaN	NaN	NaN
1262.000	NaN	NaN	NaN	NaN
1263.000	NaN	NaN	NaN	NaN
1264.000	NaN	NaN	NaN	NaN
1265.000	NaN	NaN	NaN	NaN
1266.000	NaN	NaN	NaN	NaN
1267.000	NaN	NaN	NaN	NaN
1268.000	NaN	NaN	NaN	NaN
1269.000	NaN	NaN	NaN	NaN
1270.000	NaN	NaN	NaN	NaN
1271.000	NaN	NaN	NaN	NaN
1272.000	NaN	NaN	NaN	NaN
1273.000	NaN	NaN	NaN	NaN
1274.000	NaN	NaN	NaN	NaN
1275.000	NaN	NaN	NaN	NaN
1276.000	NaN	NaN	NaN	NaN
1277.000	NaN	NaN	NaN	NaN
1278.000	NaN	NaN	NaN	NaN
1279.000	NaN	NaN	NaN	NaN
1280.000	NaN	NaN	NaN	NaN
1281.000	NaN	NaN	NaN	NaN
1282.000	NaN	NaN	NaN	NaN
1283.000	NaN	NaN	NaN	NaN
1284.000	NaN	NaN	NaN	NaN
1285.000	NaN	NaN	NaN	NaN
1286.000	NaN	NaN	NaN	NaN
1287.000	NaN	NaN	NaN	NaN
1288.000	NaN	NaN	NaN	NaN
1289.000	NaN	NaN	NaN	NaN
1290.000	NaN	NaN	NaN	NaN
1291.000	NaN	NaN	NaN	NaN
1292.000	NaN	NaN	NaN	NaN
1293.000	NaN	NaN	NaN	NaN
1294.000	NaN	NaN	NaN	NaN
1295.000	NaN	NaN	NaN	NaN
1296.000	NaN	NaN	NaN	NaN
1297.000	NaN	NaN	NaN	NaN
1298.000	NaN	NaN	NaN	NaN
1299.000	NaN	NaN	NaN	NaN
1300.000	NaN	NaN	NaN	NaN
1301.000	NaN	NaN	NaN	NaN
1302.000	NaN	NaN	NaN	NaN
1303.000	NaN	NaN	NaN	NaN
1304.000	NaN	NaN	NaN	NaN
1305.000	NaN	NaN	NaN	NaN
1306.000	NaN	NaN	NaN	NaN
1307.000	NaN	NaN	NaN	NaN
1308.000	NaN	NaN	NaN	NaN
1309.000	NaN	NaN	NaN	NaN
1310.000	NaN	NaN	NaN	NaN
1311.000	NaN	NaN	NaN	NaN
1312.000	NaN	NaN	NaN	NaN
1313.000	NaN	NaN	NaN	NaN
1314.000	NaN	NaN	NaN	NaN
1315.000	NaN	NaN	NaN	NaN
1316.000	NaN	NaN	NaN	NaN
1317.000	NaN	NaN	NaN	NaN
1318.000	NaN	NaN	NaN	NaN
1319.000	NaN	NaN	NaN	NaN
1320.000	NaN	NaN	NaN	NaN
1321.000	NaN	NaN	NaN	NaN
1322.000	NaN	NaN	NaN	NaN
1323.000	NaN	NaN	NaN	NaN
1324.000	NaN	NaN	NaN	NaN
1325.000	NaN	NaN	NaN	NaN
1326.000	NaN	NaN	NaN	NaN
1327.000	NaN	NaN	NaN	NaN
1328.000	NaN	NaN	NaN	NaN
1329.000	NaN	NaN	NaN	NaN
1330.000	NaN	NaN	NaN	NaN
1331.000	NaN	NaN	NaN	NaN
1332.000	NaN	NaN	NaN	NaN
1333.000	NaN	NaN	NaN	NaN
1334.000	NaN	NaN	NaN	NaN
1335.000	NaN	NaN	NaN	NaN
1336.000	NaN	NaN	NaN	NaN
1337.000	NaN	NaN	NaN	NaN
1338.000	NaN	NaN	NaN	NaN
1339.000	NaN	NaN	NaN	NaN
1340.000	NaN	NaN	NaN	NaN
1341.000	NaN	NaN	NaN	NaN
1342.000	NaN	NaN	NaN	NaN
1343.000	NaN	NaN	NaN	NaN
1344.000	NaN	NaN	NaN	NaN
1345.000	NaN	NaN	NaN	NaN
1346.000	NaN	NaN	NaN	NaN
1347.000	NaN	NaN	NaN	NaN
1348.000	NaN	NaN	NaN	NaN
1349.000	NaN	NaN	NaN	NaN
1350.000	NaN	NaN	NaN	NaN
1351.000	NaN	NaN	NaN	NaN
1352.000	NaN	NaN	NaN	NaN
1353.000	NaN	NaN	NaN	NaN
1354.000	NaN	NaN	NaN	NaN
1355.000	NaN	NaN	NaN	NaN
1356.000	NaN	NaN	NaN	NaN
1357.000	NaN	NaN	NaN	NaN
1358.000	NaN	NaN	NaN	NaN
1359.000	NaN	NaN	NaN	NaN
1360.000	NaN	NaN	NaN	NaN
1361.000	NaN	NaN	NaN	NaN
1362.000	NaN	NaN	NaN	NaN
1363.000	NaN	NaN	NaN	NaN
1364.000	0.90737	11.67531	NaN	NaN
1365.000	0.47447	11.26747	NaN	NaN
1366.000	-0.10083	10.56966	NaN	NaN
1367.000	-2.34144	9.39847	NaN	NaN
1368.000	-2.36710	9.03031	NaN	NaN
1369.000	-2.41249	8.66712	NaN	NaN
1370.000	-0.93899	9.00566	NaN	NaN
1371.000	-2.14405	8.07716	NaN	NaN
1372.000	2.90371	7.85230	NaN	NaN
1373.000	2.84060	7.55418	NaN	NaN
1374.000	2.77749	7.17738	NaN	NaN
1375.000	2.68675	6.73931	NaN	NaN
1376.000	2.63349	6.46897	NaN	NaN
1377.000	2.66505	6.18022	NaN	NaN
1378.000	2.50130	5.82914	NaN	NaN
1379.000	2.39671	5.50482	NaN	NaN
1380.000	2.19735	5.28490	NaN	NaN
1381.000	2.00584	4.85155	NaN	NaN
1382.000	1.88538	4.55960	NaN	NaN
1383.000	1.78466	4.35628	NaN	NaN
1384.000	1.66417	4.11923	NaN	NaN
1385.000	1.65034	3.84021	1.44291	0.13325
1386.000	1.70170	3.68567	0.56936	-0.30437
1387.000	1.84391	3.69925	-0.33213	-0.70620
1388.000	1.86366	3.44767	-0.37760	-0.71018
1389.000	1.85378	3.24953	-0.39342	-0.75990
1390.000	1.93080	3.10270	-0.36574	-0.63857
1391.000	1.88143	2.95408	-0.33806	-0.15517
1392.000	1.85576	2.76371	-0.33609	-0.00398
1393.000	1.84193	2.61493	-0.33016	0.17507
1394.000	1.86168	2.52957	-0.28469	0.20093
1395.000	1.86563	2.45217	-0.27480	0.28647
1396.000	1.86761	2.38865	-0.26689	0.32626
1397.000	1.88735	2.28143	-0.26096	0.31432
1398.000	1.86168	2.14447	-0.20561	0.28846
1399.000	1.84193	2.16236	-0.23724	0.29443
1400.000	1.85378	2.12462	-0.17002	0.37003
1401.000	1.82218	2.14253	-0.19177	0.33024
1402.000	1.77083	2.01549	-0.22735	0.32427
1403.000	1.70762	1.97782	-0.15816	0.37401
1404.000	1.69972	1.98379	-0.16804	0.34417
1405.000	1.70367	1.94406	-0.17595	0.34616
1406.000	1.64244	1.89844	-0.11467	0.35411
1407.000	1.66219	1.95999	-0.12653	0.28449
1408.000	1.63651	1.91235	-0.18386	0.27852
1409.000	1.65232	1.93220	-0.15421	0.27852
1410.000	1.59305	1.88259	-0.14234	0.25862
1411.000	1.58515	1.94021	-0.11467	0.32626
1412.000	1.52589	1.88265	-0.12257	0.36605
1413.000	1.52391	1.92834	-0.14037	0.31433
1414.000	1.54959	1.91441	-0.12850	0.25266
1415.000	1.49428	1.96611	-0.17793	0.24470
1416.000	1.49823	1.97803	-0.10676	0.23475
1417.000	1.52786	1.97403	-0.14827	0.18900
1418.000	1.48242	1.98400	-0.13048	0.16711
1419.000	1.52193	1.98794	-0.14234	0.19894
1420.000	1.50810	2.00185	-0.12257	0.15915
1421.000	1.47452	1.97606	-0.18584	0.13329
1422.000	1.50020	1.95419	-0.16014	0.13727
1423.000	1.47847	1.95619	-0.16409	0.12135
1424.000	1.50613	1.90452	-0.15421	0.10743
1425.000	1.49230	1.89659	-0.16211	0.13528
1426.000	1.50415	1.90452	-0.11467	0.14523
1427.000	1.51996	1.95020	-0.14037	0.15518
1428.000	1.54959	1.97401	-0.13641	0.17706
1429.000	1.59305	1.94616	-0.09292	0.23475
1430.000	1.60293	1.99382	-0.11071	0.18104
1431.000	1.62071	1.95805	-0.08303	0.22480
1432.000	1.65232	1.98980	-0.06722	0.22878
1433.000	1.60293	1.95409	-0.10478	0.20093
1434.000	1.64837	1.96994	-0.08303	0.19894
1435.000	1.67997	2.00566	-0.05733	0.22083
1436.000	1.66219	1.96397	-0.07908	0.19297
1437.000	1.72540	1.98178	-0.10083	0.16910
1438.000	1.80638	2.03929	-0.07315	0.23077
1439.000	1.77873	1.98569	-0.08897	0.29443
1440.000	1.81823	2.01544	-0.08303	0.27255
1441.000	1.90118	2.00939	-0.09094	0.30239
1442.000	1.82416	2.03728	-0.12653	0.29045
1443.000	1.92883	2.06099	-0.13641	0.29642
1444.000	1.94462	2.08281	-0.16211	0.22878
1445.000	1.97029	2.06888	-0.12850	0.28250
1446.000	1.89920	2.09677	-0.16014	0.31831
1447.000	1.92290	2.10865	-0.16804	0.26658
1448.000	1.90710	2.07491	-0.20758	0.28250
1449.000	1.88143	2.13650	-0.20165	0.26857
1450.000	1.85378	2.11469	-0.20561	0.28051
1451.000	1.88538	2.11068	-0.21549	0.27255
1452.000	1.85576	2.08292	-0.23131	0.24271
1453.000	1.85971	2.09681	-0.24515	0.30438
1454.000	1.87156	2.05510	-0.27282	0.29443
1455.000	1.88933	2.08486	-0.27282	0.32825
1456.000	1.88735	2.05508	-0.29062	0.28249
1457.000	1.90710	2.10073	-0.29655	0.28846
1458.000	1.90908	2.07690	-0.29655	0.29841
1459.000	1.94265	2.04508	-0.29852	0.27852
1460.000	1.94660	2.03118	-0.30841	0.28846
1461.000	1.92290	1.98355	-0.33213	0.30637
1462.000	1.89328	1.99550	-0.28271	0.31035
1463.000	1.94462	2.03317	-0.28271	0.34217
1464.000	1.96437	1.94577	-0.29852	0.36804
1465.000	1.96042	1.98152	-0.25899	0.37798
1466.000	1.93475	2.00141	-0.27085	0.38793
1467.000	1.91105	1.97959	-0.25701	0.44761
1468.000	1.91500	1.91007	-0.26294	0.38793
1469.000	1.87946	1.95381	-0.30446	0.44761
1470.000	1.89130	1.93989	-0.26492	0.42175
1471.000	1.88341	1.98558	-0.24119	0.40583
1472.000	1.89525	1.99152	-0.22735	0.37003
1473.000	1.94462	1.98352	-0.27876	0.40185
1474.000	1.92093	2.00937	-0.27678	0.41777
1475.000	1.90118	1.97364	-0.30248	0.39191
1476.000	1.92685	2.04709	-0.25108	0.43170
1477.000	1.94265	2.05700	-0.29259	0.42772
1478.000	1.95845	2.07287	-0.28073	0.41777
1479.000	1.93870	2.04310	-0.27876	0.45159
1480.000	1.94067	2.13444	-0.25503	0.40186
1481.000	1.97227	2.08476	-0.25305	0.43965
1482.000	1.93672	2.11062	-0.25899	0.40782
1483.000	1.95252	2.15428	-0.25701	0.36605
1484.000	1.92093	2.17021	-0.25503	0.37401
1485.000	1.90315	2.09478	-0.31039	0.37400
1486.000	1.90710	2.16824	-0.27678	0.40384
1487.000	1.88735	2.12458	-0.24515	0.41578
1488.000	1.92488	2.11659	-0.27480	0.38594
1489.000	1.87353	2.14247	-0.30446	0.37798
1490.000	1.90315	2.16229	-0.27678	0.40782
1491.000	1.90908	2.15434	-0.26492	0.40782
1492.000	1.90908	2.17419	-0.23329	0.39589
1493.000	1.84391	2.14647	-0.29457	0.37599
1494.000	1.88143	2.12856	-0.25108	0.39589
1495.000	1.84786	2.13257	-0.28073	0.35809
1496.000	1.82613	2.14054	-0.26492	0.36605
1497.000	1.81823	2.15445	-0.28469	0.38992
1498.000	1.82416	2.06508	-0.26096	0.36804
1499.000	1.75108	2.11878	-0.29259	0.37400
1500.000	1.82416	2.13260	-0.26887	0.37599
1501.000	1.78268	2.06712	-0.27085	0.35212
1502.000	1.76095	2.07707	-0.25701	0.33223
1503.000	1.71553	2.07315	-0.25899	0.35013
1504.000	1.67009	2.04341	-0.27678	0.33024
1505.000	1.65429	2.09704	-0.21747	0.33024
1506.000	1.70565	2.08309	-0.25899	0.33223
1507.000	1.68195	2.00367	-0.20165	0.29244
1508.000	1.61873	2.01962	-0.24712	0.29244
1509.000	1.66417	2.06724	-0.23131	0.28448
1510.000	1.60688	2.04347	-0.21352	0.32029
1511.000	1.68985	2.04338	-0.20561	0.28647
1512.000	1.63256	1.98585	-0.19375	0.26061
1513.000	1.57330	1.97398	-0.18386	0.28250
1514.000	1.61676	1.98785	-0.19572	0.29443
1515.000	1.57725	1.98789	-0.21945	0.26658
1516.000	1.58515	2.00774	-0.16607	0.25663
1517.000	1.53971	1.95812	-0.17595	0.27255
1518.000	1.55947	1.97201	-0.17200	0.24669
1519.000	1.61676	2.02956	-0.16211	0.28051
1520.000	1.52589	1.96807	-0.17398	0.28648
1521.000	1.54169	2.02566	-0.12257	0.25067
1522.000	1.52984	1.98793	-0.20363	0.27852
1523.000	1.52193	1.96807	-0.12257	0.23674
1524.000	1.51601	1.96013	-0.18781	0.26857
1525.000	1.53971	1.99785	-0.15223	0.25067
1526.000	1.49032	1.95420	-0.12653	0.25862
1527.000	1.49032	1.99194	-0.15618	0.29045
1528.000	1.57923	2.01569	-0.12257	0.24470
1529.000	1.55947	1.97598	-0.14827	0.23077
1530.000	1.51008	1.99788	-0.12653	0.18701
1531.000	1.56540	1.97598	-0.15025	0.22282
1532.000	1.51601	1.99986	-0.08699	0.19496
1533.000	1.49032	2.01379	-0.13246	0.14324
1534.000	1.46859	1.94627	-0.08699	0.20690
1535.000	1.51996	1.95814	-0.10083	0.17308
1536.000	1.52589	2.01773	-0.14234	0.17507
1537.000	1.53971	2.05347	-0.15421	0.15915
1538.000	1.48637	1.99790	-0.08897	0.22878
1539.000	1.53379	1.98991	-0.13246	0.12931
1540.000	1.54169	2.01573	-0.10478	0.10146
1541.000	1.50020	1.99987	-0.10083	0.17706
1542.000	1.55749	2.01770	-0.15618	0.21486
1543.000	1.52984	2.01177	-0.12455	0.14125
1544.000	1.55354	2.02763	-0.13641	0.15319
1545.000	1.50613	2.00781	-0.13839	0.14921
1546.000	1.55749	1.97003	-0.14432	0.10345
1547.000	1.57330	2.01172	-0.13444	0.12732
1548.000	1.55947	1.98194	-0.09292	0.16711
1549.000	1.48242	1.98201	-0.15618	0.17109
1550.000	1.51008	1.99589	-0.13048	0.20093
1551.000	1.52589	2.01177	-0.13048	0.14523
1552.000	1.61281	2.01963	-0.13444	0.15716
1553.000	1.53379	2.03361	-0.13839	0.15518
1554.000	1.51403	1.96212	-0.14432	0.12732
1555.000	1.53379	2.01971	-0.11862	0.16313
1556.000	1.55749	1.99386	-0.10280	0.13528
1557.000	1.49823	1.96214	-0.12060	0.15319
1558.000	1.49230	1.97803	-0.12455	0.11340
1559.000	1.51206	1.92041	-0.14432	0.17905
1560.000	1.53379	1.98395	-0.15421	0.16114
1561.000	1.52391	1.95218	-0.10083	0.12334
1562.000	1.55749	1.93427	-0.13444	0.10942
1563.000	1.52786	1.90649	-0.11664	0.13528
1564.000	1.51996	1.95616	-0.12653	0.16711
1565.000	1.55157	1.93825	-0.16607	0.09350
1566.000	1.52984	1.92039	-0.13246	0.13329
1567.000	1.57527	1.86075	-0.14630	0.14125
1568.000	1.51403	1.94226	-0.15618	0.09549
1569.000	1.55947	1.91441	-0.14234	0.13528
1570.000	1.63849	1.94413	-0.13048	0.10146
1571.000	1.58910	1.91239	-0.15421	0.13130
1572.000	1.55749	1.93626	-0.16014	0.13528
1573.000	1.64244	1.94412	-0.13839	0.08356
1574.000	1.57330	1.89850	-0.17991	0.09549
1575.000	1.58515	1.88061	-0.14827	0.16512
1576.000	1.60096	1.90443	-0.08501	0.15915
1577.000	1.62269	1.91832	-0.18584	0.11539
1578.000	1.61083	1.90641	-0.16014	0.15716
1579.000	1.60491	1.93621	-0.16211	0.11937
1580.000	1.60096	1.91238	-0.14827	0.16910
1581.000	1.62664	1.91434	-0.11862	0.15915
1582.000	1.61281	1.83688	-0.15816	0.12533
1583.000	1.63849	1.89447	-0.16211	0.15915
1584.000	1.64441	1.90439	-0.17002	0.18502
1585.000	1.62861	1.88057	-0.14234	0.14722
1586.000	1.67602	1.95005	-0.16211	0.13727
1587.000	1.68985	1.93017	-0.20561	0.15319
1588.000	1.69380	1.93414	-0.18386	0.14921
1589.000	1.61676	1.90641	-0.14234	0.11141
1590.000	1.69775	1.91030	-0.16211	0.12533
1591.000	1.69972	1.88646	-0.20165	0.16313
1592.000	1.68195	1.90436	-0.16804	0.19098
1593.000	1.75503	1.98572	-0.17398	0.22083
1594.000	1.75700	1.93805	-0.17991	0.18899
1595.000	1.72343	1.97384	-0.17991	0.20093
1596.000	1.76886	1.92612	-0.18979	0.13528
1597.000	1.76095	1.94202	-0.19968	0.14125
1598.000	1.79651	1.95787	-0.18781	0.18303
1599.000	1.78466	1.95590	-0.18979	0.18104
1600.000	1.79256	1.87247	-0.18584	0.17507
1601.000	1.77873	1.90823	-0.19572	0.17706
1602.000	1.78663	1.93007	-0.16804	0.23475
1603.000	1.75700	1.94401	-0.20165	0.22679
1604.000	1.82416	1.99955	-0.22142	0.19695
1605.000	1.81626	1.97572	-0.19177	0.22480
1606.000	1.85576	2.00746	-0.24119	0.23077
1607.000	1.79453	1.93007	-0.24317	0.22281
1608.000	1.83996	1.97173	-0.20561	0.22281
1609.000	1.82021	1.95189	-0.20561	0.25266
1610.000	1.80243	1.96184	-0.18584	0.20889
1611.000	1.82218	1.92011	-0.23131	0.19894
1612.000	1.79058	1.90028	-0.20363	0.27454
1613.000	1.85576	1.96178	-0.20758	0.22480
1614.000	1.81033	1.98169	-0.20758	0.22281
1615.000	1.80243	1.90026	-0.24317	0.23873
1616.000	1.82021	1.93401	-0.25899	0.24470
1617.000	1.86958	1.91211	-0.25108	0.23873
1618.000	1.85773	1.91014	-0.25108	0.25067
1619.000	1.84193	1.93001	-0.23526	0.30836
1620.000	1.84588	1.93001	-0.28666	0.25663
1621.000	1.83403	1.91612	-0.27282	0.25464
1622.000	1.85773	1.83664	-0.29062	0.23077
1623.000	1.82218	1.91216	-0.26096	0.24271
1624.000	1.87353	1.87437	-0.29062	0.24669
1625.000	1.83206	1.86448	-0.30446	0.23475
1626.000	1.89328	1.90017	-0.31434	0.28647
1627.000	1.86366	1.92800	-0.27876	0.23674
1628.000	1.87946	1.92997	-0.28073	0.27852
1629.000	1.86366	1.90218	-0.30050	0.25663
1630.000	1.89723	1.87831	-0.31236	0.28249
1631.000	1.88735	1.89223	-0.29852	0.24867
1632.000	1.90710	1.89221	-0.30050	0.26658
1633.000	1.87551	1.89820	-0.30841	0.24271
1634.000	1.89328	1.90811	-0.29259	0.25066
1635.000	1.90710	1.91008	-0.36179	0.25862
1636.000	1.86168	1.86246	-0.32620	0.24867
1637.000	1.90315	1.90810	-0.31039	0.29443
1638.000	1.97029	1.87823	-0.31632	0.28249
1639.000	1.88735	1.87038	-0.33609	0.22878
1640.000	1.94462	1.83258	-0.31829	0.23674
1641.000	1.93475	1.88026	-0.34795	0.32029
1642.000	1.92488	1.85246	-0.32027	0.29443
1643.000	1.98412	1.91397	-0.32225	0.28448
1644.000	1.97227	1.87029	-0.31632	0.24668
1645.000	1.92290	1.89219	-0.36376	0.26061
1646.000	1.90118	1.87235	-0.34399	0.24271
1647.000	1.92488	1.88226	-0.33609	0.24867
1648.000	1.94265	1.89217	-0.32027	0.29841
1649.000	1.90908	1.85049	-0.34993	0.30239
1650.000	1.95647	1.83058	-0.36376	0.29841
1651.000	1.96437	1.85043	-0.34795	0.28249
1652.000	1.97029	1.83056	-0.30841	0.31034
1653.000	1.97227	1.85042	-0.33806	0.26260
1654.000	1.98609	1.86233	-0.32027	0.28647
1655.000	1.95055	1.86038	-0.36772	0.32626
1656.000	1.98609	1.88219	-0.30248	0.28448
1657.000	1.99004	1.87225	-0.35388	0.35013
1658.000	1.95647	1.88421	-0.38353	0.28050
1659.000	1.94067	1.88422	-0.34597	0.30835
1660.000	1.96240	1.89214	-0.37167	0.34416
1661.000	1.97227	1.83255	-0.40528	0.33023
1662.000	2.01374	1.83846	-0.37760	0.21485
1663.000	2.01966	1.85633	-0.38946	0.25464
1664.000	1.99202	1.84643	-0.36969	0.28647
1665.000	2.02163	1.84640	-0.38946	0.28249
1666.000	2.00781	1.80867	-0.39539	0.26459
1667.000	2.02163	1.88810	-0.39935	0.26857
1668.000	1.95845	1.85441	-0.39737	0.24270
1669.000	1.99794	1.83053	-0.41912	0.24469
1670.000	2.00189	1.84841	-0.43098	0.26061
1671.000	1.98609	1.86233	-0.40726	0.23873
1672.000	2.01966	1.87222	-0.42900	0.27254
1673.000	2.03743	1.84042	-0.40923	0.28846
1674.000	2.02756	1.85831	-0.43098	0.26459
1675.000	1.94265	1.83258	-0.41121	0.25265
1676.000	1.92290	1.82267	-0.44877	0.26459
1677.000	1.93080	1.77896	-0.39144	0.33024
1678.000	1.97029	1.82659	-0.43296	0.26061
1679.000	1.93080	1.83458	-0.39539	0.28846
1680.000	1.91500	1.82665	-0.45470	0.28448
1681.000	1.96240	1.77694	-0.42702	0.28249
1682.000	1.96635	1.82064	-0.44679	0.30238
1683.000	1.95055	1.74120	-0.43691	0.27652
1684.000	1.95450	1.79086	-0.45075	0.29244
1685.000	1.98807	1.84246	-0.43691	0.28050
1686.000	1.98412	1.82856	-0.41912	0.26459
1687.000	2.00189	1.80272	-0.41319	0.28647
1688.000	1.92685	1.74917	-0.39539	0.32825
1689.000	1.91895	1.79288	-0.38749	0.28846
1690.000	1.96437	1.81270	-0.39935	0.28846
1691.000	1.91698	1.78295	-0.39737	0.31432
1692.000	1.93870	1.80875	-0.37563	0.32825
1693.000	1.90513	1.80084	-0.40923	0.32825
1694.000	1.93278	1.77300	-0.37958	0.31233
1695.000	1.92685	1.78294	-0.35783	0.27453
1696.000	1.97029	1.77098	-0.39737	0.28249
1697.000	1.96437	1.84646	-0.31434	0.30836
1698.000	1.96042	1.78489	-0.34202	0.29642
1699.000	1.93475	1.81273	-0.34993	0.32228
1700.000	1.94067	1.81073	-0.39144	0.31631
1701.000	1.91698	1.77699	-0.32818	0.30040
1702.000	1.94067	1.81669	-0.38156	0.31631
1703.000	1.92488	1.80082	-0.34597	0.28249
1704.000	1.91500	1.78891	-0.34993	0.29841
1705.000	1.96437	1.80872	-0.35783	0.31631
1706.000	1.94265	1.82066	-0.31829	0.29244
1707.000	1.94067	1.78293	-0.33609	0.27652
1708.000	1.95647	1.75510	-0.31434	0.29443
1709.000	1.98017	1.82658	-0.25899	0.25066
1710.000	2.00189	1.85635	-0.29655	0.28846
1711.000	1.96437	1.80674	-0.28073	0.26061
1712.000	2.01374	1.80668	-0.27876	0.29045
1713.000	2.00386	1.79478	-0.25701	0.33422
1714.000	2.04928	1.86027	-0.28073	0.29244
1715.000	2.00979	1.82853	-0.27480	0.30637
1716.000	1.99597	1.82855	-0.28666	0.26061
1717.000	2.01176	1.78285	-0.20165	0.31234
1718.000	2.06705	1.81854	-0.21747	0.29443
1719.000	1.98214	1.76699	-0.21945	0.30040
1720.000	1.98214	1.80274	-0.24910	0.29642
1721.000	2.00979	1.81265	-0.24712	0.25663
1722.000	1.95055	1.81668	-0.20956	0.29045
1723.000	2.03348	1.84043	-0.19770	0.28051
1724.000	2.05718	1.84437	-0.22933	0.26857
1725.000	1.98017	1.82460	-0.22340	0.27056
1726.000	1.99991	1.81266	-0.24119	0.25862
1727.000	2.02558	1.80270	-0.21549	0.26260
1728.000	2.01571	1.81065	-0.25701	0.24072
1729.000	1.98807	1.81267	-0.21747	0.25464
1730.000	2.00189	1.76896	-0.23329	0.24072
1731.000	1.96832	1.81865	-0.22735	0.25464
1732.000	2.02756	1.84639	-0.21747	0.23276
1733.000	2.00781	1.82655	-0.21549	0.24271
1734.000	2.02361	1.80866	-0.22735	0.22281
1735.000	1.97819	1.84446	-0.21549	0.20690
1736.000	1.99794	1.86033	-0.22538	0.22679
1737.000	2.01966	1.86626	-0.22735	0.22878
1738.000	2.03151	1.86426	-0.21352	0.24868
1739.000	2.02756	1.84639	-0.21154	0.22878
1740.000	2.02953	1.84043	-0.23922	0.24072
1741.000	2.00584	1.87223	-0.22735	0.17507
1742.000	1.99991	1.80868	-0.21549	0.21287
1743.000	2.00781	1.81265	-0.19375	0.23475
1744.000	2.00189	1.88416	-0.18386	0.21287
1745.000	2.00584	1.84840	-0.20363	0.27852
1746.000	2.02558	1.82653	-0.21352	0.25464
1747.000	2.02953	1.84043	-0.19375	0.25464
1748.000	2.05323	1.86622	-0.20758	0.25266
1749.000	1.98609	1.83253	-0.22933	0.25067
1750.000	2.02558	1.82454	-0.22538	0.23873
1751.000	2.04928	1.85232	-0.23724	0.26459
1752.000	2.02953	1.84639	-0.22735	0.22281
1753.000	2.03546	1.84042	-0.21945	0.25663
1754.000	2.00781	1.86429	-0.20165	0.21884
1755.000	1.98609	1.80870	-0.23526	0.18303
1756.000	2.01769	1.79873	-0.19770	0.22083
1757.000	2.02558	1.81064	-0.20956	0.24470
1758.000	2.00584	1.82059	-0.25305	0.22878
1759.000	1.97819	1.78090	-0.20165	0.22480
1760.000	1.98017	1.84644	-0.17002	0.24868
1761.000	1.97622	1.80871	-0.24910	0.20690
1762.000	1.98017	1.76898	-0.20165	0.24271
1763.000	1.97227	1.83255	-0.17002	0.24271
1764.000	1.96832	1.79084	-0.21945	0.21884
1765.000	1.93475	1.76704	-0.20956	0.21884
1766.000	1.92290	1.78294	-0.18584	0.20889
1767.000	1.95845	1.76900	-0.17595	0.23077
1768.000	1.94265	1.79087	-0.25108	0.13926
1769.000	1.90908	1.82467	-0.19968	0.20093
1770.000	1.90513	1.83858	-0.21352	0.16313
1771.000	1.90908	1.80084	-0.20956	0.13528
1772.000	1.89525	1.83660	-0.23526	0.11937
1773.000	1.89328	1.78695	-0.18979	0.14324
1774.000	1.86168	1.82472	-0.19375	0.12732
1775.000	1.92290	1.82068	-0.19770	0.12732
1776.000	1.88143	1.80682	-0.24317	0.09748
1777.000	1.85378	1.82274	-0.22735	0.15517
1778.000	1.89723	1.82071	-0.21154	0.17109
1779.000	1.82613	1.79496	-0.24910	0.15716
1780.000	1.85378	1.79692	-0.21945	0.12533
1781.000	1.85378	1.81678	-0.22933	0.16313
1782.000	1.85971	1.84061	-0.24119	0.11340
1783.000	1.84193	1.87241	-0.16607	0.10544
1784.000	1.87156	1.84457	-0.20165	0.10544
1785.000	1.86168	1.85253	-0.20363	0.09350
1786.000	1.86958	1.88033	-0.18979	0.09350
1787.000	1.87156	1.88033	-0.17200	0.10345
1788.000	1.86761	1.83266	-0.17793	0.03780
1789.000	1.87156	1.84060	-0.18188	0.04974
1790.000	1.90513	1.88824	-0.15816	0.07162
1791.000	1.84983	1.85453	-0.13444	0.07361
1792.000	1.85773	1.85651	-0.16014	0.07958
1793.000	1.86761	1.84855	-0.21154	0.04178
1794.000	1.91500	1.87035	-0.17200	0.05968
1795.000	1.90908	1.86638	-0.16211	0.13329
1796.000	1.91303	1.87234	-0.14037	0.03183
1797.000	1.89328	1.89818	-0.12850	0.06366
1798.000	1.88341	1.86443	-0.15223	0.07162
1799.000	1.92685	1.85445	-0.21549	0.07162
1800.000	1.94857	1.86435	-0.14630	0.06764
1801.000	1.92685	1.87828	-0.19177	0.07560
1802.000	1.93080	1.89019	-0.15223	0.13329
1803.000	1.94462	1.89018	-0.17793	0.06565
1804.000	1.90315	1.89817	-0.21549	0.04377
1805.000	1.91303	1.86638	-0.17595	0.07759
1806.000	1.90908	1.90214	-0.21154	0.03780
1807.000	1.87551	1.82669	-0.16014	0.08356
1808.000	1.92883	1.90211	-0.17200	0.10146
1809.000	1.86761	1.87636	-0.17991	0.13329
1810.000	1.91303	1.82665	-0.20561	0.11539
1811.000	1.88933	1.90414	-0.21945	0.09350
1812.000	1.85181	1.86645	-0.17200	0.07759
1813.000	1.88538	1.85846	-0.22735	0.03183
1814.000	1.86563	1.84061	-0.19770	0.11141
1815.000	1.86563	1.91013	-0.23329	0.04775
1816.000	1.86168	1.86246	-0.21352	0.10942
1817.000	1.84391	1.82871	-0.21945	0.09151
1818.000	1.88143	1.81874	-0.21945	0.05371
1819.000	1.86958	1.89622	-0.21945	0.09549
1820.000	1.93475	1.89218	-0.19770	0.11340
1821.000	1.86958	1.86444	-0.22735	0.04576
1822.000	1.84983	1.89028	-0.20561	0.05371
1823.000	1.83206	1.89229	-0.18188	0.12533
1824.000	1.84391	1.85255	-0.20758	0.07958
1825.000	1.86366	1.86643	-0.21747	0.08356
1826.000	1.83798	1.86249	-0.25305	0.08753
1827.000	1.86168	1.87637	-0.23526	0.09350
1828.000	1.83008	1.84859	-0.23922	0.10544
1829.000	1.88735	1.86045	-0.22142	0.09549
1830.000	1.87946	1.85648	-0.26689	0.05172
1831.000	1.86168	1.89623	-0.24119	0.08753
1832.000	1.84786	1.89028	-0.22142	0.12931
1833.000	1.84588	1.93795	-0.24515	0.08157
1834.000	1.84391	1.86248	-0.24910	0.17109
1835.000	1.88538	1.88429	-0.19968	0.16313
1836.000	1.81823	1.87641	-0.22735	0.15319
1837.000	1.87156	1.89026	-0.23724	0.13130
1838.000	1.79453	1.90226	-0.22538	0.14125
1839.000	1.83601	1.93002	-0.17595	0.13528
1840.000	1.82811	1.89825	-0.20561	0.15120
1841.000	1.85773	1.89226	-0.21352	0.14324
1842.000	1.83008	1.89428	-0.23526	0.14324
1843.000	1.80836	1.89628	-0.21945	0.16512
1844.000	1.80046	1.89033	-0.19968	0.15517
1845.000	1.81626	1.91018	-0.18188	0.19496
1846.000	1.80836	1.85457	-0.18188	0.15517
1847.000	1.84391	1.88433	-0.15618	0.17905
1848.000	1.79256	1.91418	-0.17200	0.21287
1849.000	1.82416	1.91812	-0.15223	0.17706
1850.000	1.84786	1.91809	-0.19375	0.21287
1851.000	1.84391	1.95782	-0.18584	0.24669
1852.000	1.76491	1.94201	-0.17991	0.28051
1853.000	1.70762	1.89043	-0.19770	0.21287
1854.000	1.80243	1.92410	-0.17398	0.32626
1855.000	1.80441	1.95786	-0.21154	0.29244
1856.000	1.74515	1.84073	-0.18584	0.29045
1857.000	1.78663	1.88439	-0.17398	0.24072
1858.000	1.78663	1.94199	-0.21154	0.31830
1859.000	1.79058	1.91021	-0.19968	0.24271
1860.000	1.73133	1.91623	-0.22142	0.23077
1861.000	1.80836	1.93402	-0.27678	0.29045
1862.000	1.81823	1.93401	-0.23131	0.27056
1863.000	1.81428	1.90025	-0.26887	0.24470
1864.000	1.78861	1.93007	-0.28469	0.26260
1865.000	1.75700	1.90627	-0.28864	0.33422
1866.000	1.77478	1.91022	-0.28271	0.22281
1867.000	1.78861	1.91815	-0.27678	0.25663
1868.000	1.77478	1.91618	-0.29655	0.25066
1869.000	1.80836	1.93005	-0.32818	0.26857
1870.000	1.82218	1.94195	-0.26294	0.33422
1871.000	1.75700	1.92812	-0.31434	0.32228
1872.000	1.81428	1.96778	-0.28666	0.32228
1873.000	1.79058	1.96383	-0.30643	0.26857
1874.000	1.79651	1.95390	-0.30248	0.25862
1875.000	1.77083	1.93406	-0.30050	0.30239
1876.000	1.79651	1.97972	-0.28864	0.33223
1877.000	1.76293	1.95393	-0.32027	0.33621
1878.000	1.79848	1.97376	-0.31829	0.31034
1879.000	1.74318	1.93409	-0.31236	0.28249
1880.000	1.76688	1.94797	-0.36179	0.30040
1881.000	1.73725	1.93012	-0.32620	0.29045
1882.000	1.75305	1.90031	-0.31829	0.28647
1883.000	1.78268	1.92809	-0.29062	0.29841
1884.000	1.75700	1.87846	-0.26492	0.29244
1885.000	1.76095	1.90428	-0.26492	0.24669
1886.000	1.72738	1.90431	-0.28666	0.22878
1887.000	1.71750	1.93213	-0.32620	0.27653
1888.000	1.71355	1.88844	-0.30643	0.25862
1889.000	1.75700	1.91024	-0.25701	0.28249
1890.000	1.73133	1.89438	-0.24515	0.26857
1891.000	1.75700	1.93408	-0.25899	0.26658
1892.000	1.75700	1.93805	-0.26096	0.24072
1893.000	1.71355	1.96590	-0.25108	0.22281
1894.000	1.73923	1.94005	-0.25701	0.22878
1895.000	1.75898	1.90825	-0.26294	0.26658
1896.000	1.75700	1.92415	-0.25701	0.24868
1897.000	1.78268	1.92015	-0.24712	0.25663
1898.000	1.76688	1.98173	-0.29655	0.26459
1899.000	1.70170	1.91030	-0.31434	0.27056
1900.000	1.70170	1.91427	-0.31039	0.21088
1901.000	1.73923	1.94800	-0.33016	0.27652
1902.000	1.73725	1.89636	-0.30248	0.24470
1903.000	1.71553	1.92816	-0.32422	0.25663
1904.000	1.71355	1.90035	-0.33016	0.28647
1905.000	1.71948	1.84473	-0.31632	0.28249
1906.000	1.68195	1.85867	-0.39342	0.23276
1907.000	1.72935	1.92219	-0.34795	0.25066
1908.000	1.70762	1.87056	-0.34993	0.27454
1909.000	1.72738	1.89239	-0.37760	0.27851
1910.000	1.72540	1.89240	-0.34597	0.29443
1911.000	1.70170	1.84276	-0.35190	0.32825
1912.000	1.72343	1.89041	-0.32027	0.29841
1913.000	1.74515	1.88443	-0.38946	0.33819
1914.000	1.72935	1.88246	-0.35190	0.28846
1915.000	1.74713	1.86854	-0.33016	0.32228
1916.000	1.69380	1.85270	-0.37760	0.31233
1917.000	1.73528	1.83875	-0.37167	0.32626
1918.000	1.73528	1.89040	-0.41121	0.31830
1919.000	1.74713	1.84470	-0.34597	0.31631
1920.000	1.74120	1.88444	-0.40330	0.33620
1921.000	1.67997	1.83682	-0.35190	0.33422
1922.000	1.66812	1.84279	-0.39737	0.29841
1923.000	1.70762	1.89241	-0.41912	0.27453
1924.000	1.73725	1.86060	-0.37760	0.33819
1925.000	1.75305	1.88641	-0.41121	0.32626
1926.000	1.75898	1.91223	-0.38749	0.33421
1927.000	1.77478	1.92413	-0.42702	0.31830
1928.000	1.75503	1.91819	-0.39935	0.34416
1929.000	1.80243	1.91814	-0.41319	0.37997
1930.000	1.78663	1.94596	-0.40923	0.34416
1931.000	1.77478	1.96584	-0.36179	0.33819
1932.000	1.78663	1.95987	-0.41319	0.32824
1933.000	1.76293	1.91818	-0.42109	0.36803
1934.000	1.76293	1.95195	-0.37958	0.35809
1935.000	1.82021	1.97175	-0.44482	0.38792
1936.000	1.78466	1.96185	-0.39144	0.34814
1937.000	1.77478	1.98967	-0.45075	0.33023
1938.000	1.77083	1.94598	-0.39342	0.38793
1939.000	1.78663	1.94000	-0.38946	0.31034
1940.000	1.75700	1.97380	-0.40528	0.35610
1941.000	1.76095	1.97975	-0.39539	0.30238
1942.000	1.79256	1.92808	-0.39737	0.32029
1943.000	1.79651	1.99362	-0.40923	0.33421
1944.000	1.75305	1.96387	-0.39935	0.27652
1945.000	1.75108	1.97381	-0.41319	0.29244
1946.000	1.78071	1.98768	-0.37760	0.34217
1947.000	1.73528	1.94403	-0.38156	0.31233
1948.000	1.73133	1.96986	-0.42109	0.29642
1949.000	1.70762	1.98378	-0.42900	0.29642
1950.000	1.73725	1.99567	-0.40726	0.33222
1951.000	1.70762	1.98776	-0.42702	0.32228
1952.000	1.68392	1.94210	-0.43493	0.30238
1953.000	1.71750	1.95795	-0.42109	0.33421
1954.000	1.75108	1.96983	-0.41121	0.29244
1955.000	1.70762	1.92221	-0.39342	0.30040
1956.000	1.74120	1.94998	-0.40528	0.29841
1957.000	1.75700	1.96188	-0.38946	0.32427
1958.000	1.76886	1.98173	-0.42307	0.32626
1959.000	1.66812	1.96793	-0.42109	0.32427
1960.000	1.73923	1.97779	-0.38946	0.32626
1961.000	1.68590	1.98778	-0.40133	0.28846
1962.000	1.74515	1.96587	-0.43889	0.32029
1963.000	1.72935	1.97582	-0.44482	0.35808
1964.000	1.73923	1.91423	-0.44482	0.36803
1965.000	1.76688	2.00557	-0.41319	0.37400
1966.000	1.74120	1.95396	-0.42505	0.32824
1967.000	1.70762	1.94803	-0.45865	0.30835
1968.000	1.71355	1.98974	-0.43296	0.32228
1969.000	1.73330	1.95992	-0.46063	0.38792
1970.000	1.74515	1.97977	-0.44284	0.29641
1971.000	1.68195	1.96792	-0.48633	0.30636
1972.000	1.69972	1.97187	-0.48435	0.31432
1973.000	1.76095	1.96188	-0.51203	0.34614
1974.000	1.68787	1.96791	-0.51796	0.34217
1975.000	1.71553	1.99371	-0.51401	0.35808
1976.000	1.70565	1.99173	-0.47447	0.43168
1977.000	1.71750	1.99768	-0.46854	0.49733
1978.000	1.76491	1.99167	-0.42702	0.49733
1979.000	1.88933	2.04316	-0.42702	0.49733
1980.000	1.94857	1.97160	-0.38156	0.45954
1981.000	2.00781	1.84443	-0.21352	0.44761
1982.000	2.12233	1.85820	0.00791	0.38992
1983.000	2.30197	1.82818	0.23922	0.40385
1984.000	2.48551	1.82198	0.48633	0.26061
1985.000	2.77552	1.68061	0.69982	0.20490
1986.000	2.87215	1.43427	1.01805	0.01591
1987.000	3.02201	1.32289	1.34016	-0.12729
1988.000	3.25657	1.19355	1.63849	-0.30028
1989.000	3.51071	1.15751	1.98807	-0.45530
1990.000	3.76472	1.07979	2.24670	-0.65598
1991.000	3.79031	1.00633	2.58417	-0.88632
1992.000	3.99300	0.94062	2.83863	-1.03313
1993.000	4.20346	0.85309	3.06538	-1.23150
1994.000	4.29783	0.72605	3.26445	-1.30670
1995.000	4.38825	0.64464	3.54025	-1.47302
1996.000	4.51402	0.49184	3.72731	-1.62547
1997.000	4.60242	0.36884	3.93201	-1.86501
1998.000	4.71633	0.30137	4.10709	-1.98948
1999.000	4.95777	0.12685	4.20936	-2.01895
2000.000	5.28138	-0.06933	4.31946	-2.07611
2001.000	5.46755	-0.21190	4.45311	-2.16290
2002.000	5.68101	-0.28705	4.64367	-2.41969
2003.000	5.89040	-0.28694	4.79880	-2.59129
2004.000	6.14263	-0.32835	4.94404	-2.66787
2005.000	6.32823	-0.42116	5.12452	-2.77191
2006.000	6.50784	-0.51193	5.27550	-2.84437
2007.000	6.71072	-0.67372	5.44992	-2.95813
2008.000	6.76532	-0.86129	5.56940	-3.06219
2009.000	6.97578	-0.90237	5.68884	-3.16025
2010.000	7.12961	-0.89615	5.79453	-3.14586
2011.000	7.25999	-0.96889	5.89822	-3.21432
2012.000	7.34168	-0.99830	6.00383	-3.33597
2013.000	7.41557	-1.16971	6.12308	-3.33327
2014.000	7.47971	-1.18925	6.18171	-3.30333
2015.000	7.56715	-1.16930	6.17390	-3.33689
2016.000	7.67203	-1.18478	6.26963	-3.33234
2017.000	7.79239	-1.18838	6.26377	-3.37180
2018.000	7.79821	-1.20216	6.31456	-3.37738
2019.000	7.80209	-1.30262	6.30870	-3.38727
2020.000	7.81374	-1.31046	6.28135	-3.39533
2021.000	7.79433	-1.35189	6.23447	-3.42125
2022.000	7.85060	-1.33398	6.20712	-3.47661
2023.000	7.84866	-1.31626	6.16608	-3.42958
2024.000	7.83120	-1.34390	6.14067	-3.43763
2025.000	7.83314	-1.37738	6.09767	-3.38271
2026.000	7.83896	-1.34387	6.03121	-3.45015
2027.000	7.83508	-1.39313	6.06444	-3.43220
2028.000	7.83702	-1.33994	5.97450	-3.34996
2029.000	7.81180	-1.35972	5.96472	-3.40128
2030.000	7.81374	-1.39714	5.97255	-3.44855
2031.000	7.81180	-1.35972	5.92170	-3.43113
2032.000	7.77298	-1.41697	5.91387	-3.35427
2033.000	7.81762	-1.37349	5.94125	-3.33833
2034.000	7.81568	-1.43850	5.94712	-3.36196
2035.000	7.89716	-1.38701	5.97059	-3.32829
2036.000	7.85448	-1.43245	5.98428	-3.31637
2037.000	7.83314	-1.42465	5.98623	-3.33411
2038.000	7.85642	-1.46396	5.97450	-3.36376
2039.000	7.84284	-1.44628	5.99992	-3.38726
2040.000	7.85254	-1.43837	6.00383	-3.48187
2041.000	7.90298	-1.42638	5.99406	-3.44053
2042.000	7.89134	-1.46777	6.04880	-3.41062
2043.000	7.88940	-1.47172	6.06835	-3.47751
2044.000	7.93013	-1.47748	6.07422	-3.41834
2045.000	7.94759	-1.44591	6.04880	-3.45990
2046.000	7.90104	-1.48940	6.06444	-3.47754
2047.000	7.91462	-1.50511	6.05662	-3.49533
2048.000	7.87970	-1.47569	6.04489	-3.47963
2049.000	7.90298	-1.41259	6.05467	-3.50125
2050.000	7.90104	-1.45199	6.05858	-3.47955
2051.000	7.88552	-1.45992	6.02925	-3.49550
2052.000	7.92043	-1.46964	6.01165	-3.51138
2053.000	7.91462	-1.47163	6.03121	-3.51914
2054.000	7.88552	-1.45007	5.99406	-3.50164
2055.000	7.89522	-1.48942	5.99210	-3.49968
2056.000	7.89134	-1.46580	5.97059	-3.54910
2057.000	7.88940	-1.47763	5.93734	-3.53552
2058.000	7.91462	-1.42240	5.92952	-3.57499
2059.000	7.90492	-1.45197	5.90800	-3.53965
2060.000	7.94952	-1.38486	5.90213	-3.50420
2061.000	7.94565	-1.37109	5.90800	-3.53176
2062.000	7.90880	-1.37122	5.87279	-3.54381
2063.000	7.93983	-1.35339	5.90213	-3.55545
2064.000	7.96116	-1.34938	5.87475	-3.56154
2065.000	7.92625	-1.38691	5.89235	-3.50623
2066.000	7.93983	-1.35142	5.87084	-3.47088
2067.000	7.94952	-1.35533	5.84149	-3.46514
2068.000	7.91462	-1.37120	5.84345	-3.46513
2069.000	7.92625	-1.37510	5.87475	-3.48268
2070.000	7.94759	-1.35139	5.87084	-3.54185
2071.000	7.88940	-1.37128	5.88062	-3.52602
2072.000	7.90880	-1.33774	5.90213	-3.51011
2073.000	7.93401	-1.33568	5.89235	-3.50426
2074.000	7.86224	-1.35758	5.93147	-3.48627
2075.000	7.89910	-1.35352	5.89431	-3.49242
2076.000	7.92625	-1.32586	5.88844	-3.49245
2077.000	7.91462	-1.35544	5.94712	-3.51180
2078.000	7.93207	-1.35145	5.91583	-3.51003
2079.000	7.89328	-1.38899	5.90409	-3.52981
2080.000	7.90298	-1.38305	5.88844	-3.54766
2081.000	7.88746	-1.38704	5.90409	-3.55347
2082.000	7.86418	-1.34970	5.90605	-3.51600
2083.000	7.89716	-1.38898	5.93147	-3.49416
2084.000	7.90880	-1.39682	5.89822	-3.45493
2085.000	7.88358	-1.42644	5.86692	-3.48470
2086.000	7.88746	-1.41855	5.92561	-3.50208
2087.000	7.87776	-1.39495	5.90605	-3.49432
2088.000	7.92819	-1.35540	5.92365	-3.49815
2089.000	7.86224	-1.41076	5.91583	-3.51594
2090.000	7.85642	-1.36154	5.91583	-3.49031
2091.000	7.87970	-1.40479	5.91778	-3.45481
2092.000	7.89910	-1.40079	5.93147	-3.50007
2093.000	7.84284	-1.41674	5.93343	-3.48231
2094.000	7.88940	-1.37522	5.93147	-3.43304
2095.000	7.85448	-1.41079	5.93147	-3.45867
2096.000	7.84090	-1.41674	5.92756	-3.47446
2097.000	7.84866	-1.39899	5.88257	-3.48855
2098.000	7.87776	-1.41662	5.85518	-3.44534
2099.000	7.85254	-1.40095	5.90409	-3.46475
2100.000	7.82538	-1.43058	5.88844	-3.48851
2101.000	7.87388	-1.38118	5.92952	-3.45079
2102.000	7.86030	-1.38516	5.89627	-3.49832
2103.000	7.86224	-1.32607	5.90605	-3.45685
2104.000	7.85060	-1.39701	5.90605	-3.43911
2105.000	7.84672	-1.39112	5.90018	-3.44112
2106.000	7.84672	-1.44824	5.92561	-3.45279
2107.000	7.82538	-1.43846	5.90213	-3.41744
2108.000	7.80209	-1.39915	5.91583	-3.44102
2109.000	7.81762	-1.41091	5.87670	-3.42943
2110.000	7.85448	-1.41867	5.89627	-3.42142
2111.000	7.85836	-1.36941	5.90409	-3.38588
2112.000	7.83508	-1.39707	5.89822	-3.40169
2113.000	7.80597	-1.37746	5.87279	-3.44523
2114.000	7.87000	-1.36150	5.86692	-3.43344
2115.000	7.86806	-1.35559	5.90409	-3.45292
2116.000	7.84866	-1.34384	5.89627	-3.49241
2117.000	7.88164	-1.36934	5.87670	-3.46492
2118.000	7.86224	-1.37137	5.87866	-3.47280
2119.000	7.79045	-1.39131	5.93147	-3.48627
2120.000	7.82926	-1.36754	5.87866	-3.46886
2121.000	7.87582	-1.36542	5.87670	-3.47281
2122.000	7.84090	-1.34386	5.93343	-3.46851
2123.000	7.85060	-1.32611	5.90996	-3.43317
2124.000	7.88164	-1.33585	5.85127	-3.44931
2125.000	7.81568	-1.37349	5.88649	-3.44515
2126.000	7.84672	-1.34975	5.89431	-3.47862
2127.000	7.82926	-1.31829	5.89431	-3.49636
2128.000	7.83896	-1.37933	5.90996	-3.43909
2129.000	7.85060	-1.27686	5.90605	-3.47657
2130.000	7.85836	-1.27290	5.90800	-3.47064
2131.000	7.84090	-1.30841	5.90213	-3.42927
2132.000	7.83702	-1.28281	5.91192	-3.46470
2133.000	7.85060	-1.28277	5.87279	-3.45706
2134.000	7.80015	-1.32233	5.88844	-3.46879
2135.000	7.77881	-1.30860	5.90213	-3.54560
2136.000	7.80209	-1.36172	5.90409	-3.48053
2137.000	7.83120	-1.28677	5.89627	-3.54366
2138.000	7.78075	-1.33815	5.89822	-3.53379
2139.000	7.79627	-1.30855	5.91583	-3.54551
2140.000	7.77686	-1.32437	5.90409	-3.52981
2141.000	7.77686	-1.31058	5.90409	-3.51404
2142.000	7.76134	-1.31260	5.86692	-3.50442
2143.000	7.79045	-1.34206	5.89040	-3.54961
2144.000	7.75551	-1.31656	5.84345	-3.48879
2145.000	7.77686	-1.34801	5.92365	-3.48238
2146.000	7.75163	-1.30475	5.88062	-3.51222
2147.000	7.74193	-1.32251	5.89822	-3.50225
2148.000	7.73416	-1.29692	5.88453	-3.54177
2149.000	7.76134	-1.33033	5.93343	-3.51386
2150.000	7.71475	-1.33836	5.90605	-3.46080
2151.000	7.72057	-1.28120	5.91387	-3.43315
2152.000	7.73222	-1.32057	5.90409	-3.44307
2153.000	7.72640	-1.28906	5.92170	-3.45676
2154.000	7.74581	-1.28900	5.93343	-3.45471
2155.000	7.72640	-1.34620	5.90605	-3.49629
2156.000	7.76522	-1.33229	5.87475	-3.51423
2157.000	7.75551	-1.33626	5.86692	-3.45710
2158.000	7.73028	-1.31269	5.94321	-3.49999
2159.000	7.71475	-1.37382	5.88453	-3.48854
2160.000	7.75163	-1.36188	5.86692	-3.49259
2161.000	7.74775	-1.38357	5.88844	-3.48457
2162.000	7.76716	-1.45639	5.90996	-3.49429
2163.000	7.74193	-1.43875	5.88453	-3.53191
2164.000	7.79433	-1.43266	5.90996	-3.51203
2165.000	7.78657	-1.45238	5.86888	-3.49652
2166.000	7.79433	-1.45433	5.85323	-3.49465
2167.000	7.78463	-1.44451	5.89040	-3.46287
2168.000	7.80986	-1.41685	5.91974	-3.44888
2169.000	7.79433	-1.47009	5.89235	-3.42934
2170.000	7.83702	-1.40888	5.90213	-3.51011
2171.000	7.82344	-1.40104	5.90018	-3.53378
2172.000	7.86030	-1.32410	5.91583	-3.56522
2173.000	7.85060	-1.36550	5.89040	-3.53384
2174.000	7.84672	-1.35566	5.93343	-3.54343
2175.000	7.84866	-1.37141	5.92952	-3.53951
2176.000	7.87388	-1.30830	5.91387	-3.55144
2177.000	7.86806	-1.32605	5.89627	-3.59097
2178.000	7.84090	-1.33796	5.92365	-3.50603
2179.000	7.82538	-1.35179	5.90018	-3.48647
2180.000	7.78851	-1.36964	5.93343	-3.55131
2181.000	7.79821	-1.35582	5.95690	-3.52948
2182.000	7.78851	-1.34797	5.92756	-3.51784
2183.000	7.81180	-1.33411	5.91974	-3.51197
2184.000	7.74969	-1.34810	5.93539	-3.46850
2185.000	7.78075	-1.32239	5.94908	-3.50390
2186.000	7.81762	-1.30060	5.94712	-3.46843
2187.000	7.82344	-1.26118	5.92756	-3.52375
2188.000	7.76328	-1.34608	5.93539	-3.41724
2189.000	7.76134	-1.31260	5.93343	-3.49809
2190.000	7.78269	-1.32435	5.94321	-3.46845
2191.000	7.78463	-1.28888	5.90605	-3.44108
2192.000	7.82732	-1.28284	5.90605	-3.42136
2193.000	7.80791	-1.30063	5.87866	-3.39590
2194.000	7.84478	-1.31234	5.92756	-3.36405
2195.000	7.81568	-1.32228	5.94321	-3.41719
2196.000	7.80597	-1.33019	5.93147	-3.37783
2197.000	7.86030	-1.36744	5.92561	-3.40350
2198.000	7.80403	-1.36565	5.96277	-3.39735
2199.000	7.84090	-1.37932	5.90800	-3.43515
2200.000	7.82926	-1.37936	5.95690	-3.42105
2201.000	7.84284	-1.38325	5.93539	-3.40541
2202.000	7.88746	-1.42446	5.89040	-3.45104
2203.000	7.86612	-1.37136	5.87866	-3.44717
2204.000	7.81956	-1.40697	5.90213	-3.41350
2205.000	7.87194	-1.36937	5.91778	-3.41932
2206.000	7.88552	-1.39296	5.89627	-3.43128
2207.000	7.86612	-1.37727	5.94125	-3.42903
2208.000	7.87582	-1.35163	5.89627	-3.44706
2209.000	7.87194	-1.32407	5.93147	-3.40740
2210.000	7.86224	-1.37728	5.93930	-3.41721
2211.000	7.84866	-1.37732	5.92365	-3.38971
2212.000	7.88940	-1.36143	5.90018	-3.38788
2213.000	7.86612	-1.34181	5.93539	-3.34428
2214.000	7.84284	-1.33992	5.94908	-3.36589
2215.000	7.85448	-1.29261	5.96863	-3.40323
2216.000	7.83120	-1.30647	5.98037	-3.43470
2217.000	7.84284	-1.31628	5.99210	-3.46223
2218.000	7.87776	-1.26890	5.95886	-3.38160
2219.000	7.85254	-1.32216	5.95886	-3.36977
2220.000	7.82344	-1.25724	5.97450	-3.42685
2221.000	7.83508	-1.28479	5.94125	-3.35016
2222.000	7.87000	-1.23938	5.97450	-3.37362
2223.000	7.85836	-1.27093	5.92170	-3.37591
2224.000	7.88746	-1.26296	5.98428	-3.35778
2225.000	7.83508	-1.28085	5.98819	-3.40114
2226.000	7.85060	-1.29262	5.94125	-3.31663
2227.000	7.84866	-1.23156	5.99015	-3.32620
2228.000	7.87582	-1.28269	5.98037	-3.34795
2229.000	7.85836	-1.30047	5.92365	-3.32068
2230.000	7.85642	-1.28472	5.94908	-3.33039
2231.000	7.85836	-1.27487	5.94517	-3.33633
2232.000	7.90298	-1.30821	5.93930	-3.34425
2233.000	7.88940	-1.25114	5.96863	-3.31055
2234.000	7.88940	-1.30038	5.95299	-3.38558
2235.000	7.89134	-1.31810	5.94712	-3.30082
2236.000	7.95534	-1.27851	5.96277	-3.32439
2237.000	7.95534	-1.32183	5.95690	-3.31654
2238.000	7.88940	-1.29841	5.91974	-3.31676
2239.000	7.92237	-1.33178	5.96081	-3.34807
2240.000	7.92043	-1.32785	5.91778	-3.33058
2241.000	7.91074	-1.35742	5.97255	-3.31842
2242.000	7.89134	-1.35946	5.91192	-3.30300
2243.000	7.91656	-1.29438	5.93343	-3.34232
2244.000	7.91268	-1.28652	5.94712	-3.28702
2245.000	7.88358	-1.37524	5.92756	-3.31869
2246.000	7.92043	-1.35345	5.91974	-3.31282
2247.000	7.86224	-1.34576	5.94321	-3.27915
2248.000	7.83314	-1.34586	5.94125	-3.26536
2249.000	7.86418	-1.35758	5.95494	-3.23175
2250.000	7.89328	-1.30036	5.92561	-3.29503
2251.000	7.90104	-1.32791	5.91974	-3.25957
2252.000	7.90492	-1.33578	5.91974	-3.29112
2253.000	7.92431	-1.32981	5.94321	-3.26732
2254.000	7.88552	-1.33387	5.91974	-3.30493
2255.000	7.89328	-1.31218	5.94321	-3.25746
2256.000	7.92237	-1.30027	5.91387	-3.27144
2257.000	7.89716	-1.29247	5.92952	-3.27726
2258.000	7.88940	-1.34765	5.97450	-3.24544
2259.000	7.97667	-1.28435	5.92365	-3.28321
2260.000	7.90880	-1.34364	5.90996	-3.27540
2261.000	7.92043	-1.26680	5.92756	-3.30291
2262.000	7.94759	-1.29035	5.96277	-3.29678
2263.000	7.96116	-1.30212	5.94125	-3.32452
2264.000	7.92625	-1.23724	5.94712	-3.33632
2265.000	7.95146	-1.19187	5.94712	-3.32449
2266.000	7.98249	-1.20950	5.96668	-3.32240
2267.000	7.95534	-1.22730	5.93539	-3.29300
2268.000	8.01932	-1.20545	5.94517	-3.33239
2269.000	7.93207	-1.23919	5.96277	-3.29876
2270.000	7.95340	-1.24306	5.95494	-3.30669
2271.000	7.98637	-1.22130	5.95494	-3.30866
2272.000	7.95146	-1.24898	5.93734	-3.29102
2273.000	7.92431	-1.25103	5.95103	-3.27910
2274.000	7.95922	-1.23320	5.94712	-3.28899
2275.000	7.97279	-1.26664	5.96668	-3.29479
2276.000	7.95146	-1.22928	5.93147	-3.33444
2277.000	8.00188	-1.17400	5.95494	-3.33233
2278.000	7.98830	-1.20554	5.98428	-3.29271
2279.000	7.97473	-1.22725	5.98232	-3.30653
2280.000	7.98637	-1.20358	5.96081	-3.30666
2281.000	7.99994	-1.21929	5.97841	-3.29472
2282.000	7.98637	-1.19373	5.98623	-3.23353
2283.000	7.99024	-1.18978	5.95690	-3.29090
2284.000	7.97861	-1.21936	5.93343	-3.28513
2285.000	8.00575	-1.18186	5.96668	-3.27309
2286.000	8.01545	-1.17199	5.95886	-3.24553
2287.000	7.98830	-1.18585	5.94321	-3.32845
2288.000	7.98249	-1.20950	5.95299	-3.33037
2289.000	8.06778	-1.20728	5.95886	-3.35005
2290.000	8.06390	-1.26635	5.98819	-3.33410
2291.000	8.06390	-1.29588	6.08595	-3.33941
2292.000	8.11041	-1.31542	6.11918	-3.36286
2293.000	8.21502	-1.42331	6.27940	-3.46825
2294.000	8.30408	-1.46234	6.49808	-3.44314
2295.000	8.44534	-1.47361	6.58979	-3.48976
2296.000	8.56717	-1.40039	6.73607	-3.48282
2297.000	8.71017	-1.35073	6.88226	-3.48176
2298.000	8.92446	-1.36763	7.04784	-3.54348
2299.000	8.99198	-1.41647	7.23081	-3.48505
2300.000	9.11152	-1.47882	7.35335	-3.53520
2301.000	9.25794	-1.50371	7.43501	-3.48738
2302.000	9.36383	-1.56603	7.54578	-3.51597
2303.000	9.43887	-1.57549	7.67398	-3.54439
2304.000	9.47158	-1.55769	7.80791	-3.59431
2305.000	9.55042	-1.53577	7.87776	-3.63100
2306.000	9.61962	-1.54330	7.96504	-3.66752
2307.000	9.62154	-1.57269	7.93207	-3.69136
2308.000	9.70224	-1.58995	7.97279	-3.70865
2309.000	9.69839	-1.62720	7.97667	-3.73020
2310.000	9.75217	-1.62498	7.95340	-3.72649
2311.000	9.70416	-1.71338	7.96116	-3.75780
2312.000	9.70608	-1.80153	7.94759	-3.80109
2313.000	9.71376	-1.82695	7.99412	-3.83988
2314.000	9.76561	-1.85213	7.93983	-3.81881
2315.000	9.73105	-1.89737	8.00575	-3.85939
2316.000	9.75025	-1.91489	7.97667	-3.91065
2317.000	9.77521	-1.89908	7.99606	-3.96929
2318.000	9.83280	-1.90658	7.99606	-3.90066
2319.000	9.78865	-1.91663	8.00575	-3.96527
2320.000	9.80017	-1.91852	7.97279	-3.94598
2321.000	9.78097	-1.86184	7.98249	-3.97334
2322.000	9.77905	-1.89318	7.93207	-3.99344
2323.000	9.79057	-1.87353	7.92043	-3.92687
2324.000	9.80977	-1.84405	7.94565	-3.93448
2325.000	9.81361	-1.84795	7.91849	-3.96612
2326.000	9.80977	-1.87147	7.91656	-3.96221
2327.000	9.80017	-1.87152	7.90880	-3.96817
2328.000	9.83280	-1.87134	7.89716	-3.99378
2329.000	9.84816	-1.84775	7.90104	-3.96432
2330.000	9.83472	-1.88503	7.92819	-3.99544
2331.000	9.85775	-1.88882	7.91268	-3.97205
2332.000	9.85008	-1.91040	7.95922	-3.98533
2333.000	9.84048	-1.93787	7.92819	-4.04249
2334.000	9.88078	-1.96112	7.93401	-4.04244
2335.000	9.86351	-1.95144	7.91656	-4.03869
2336.000	9.85008	-1.95543	7.91462	-4.03675
2337.000	9.86543	-1.97100	7.91074	-4.01718
2338.000	9.83664	-1.94768	7.91074	-4.00541
2339.000	9.84816	-1.96327	7.92625	-4.07388
2340.000	9.83472	-1.92224	7.91074	-4.09560
2341.000	9.90380	-1.99035	7.90686	-4.04662
2342.000	9.84816	-1.94174	7.93595	-4.10515
2343.000	9.87119	-1.95726	7.92819	-4.08170
2344.000	9.83856	-1.93592	7.94371	-4.07371
2345.000	9.85391	-1.98477	7.90686	-4.09760
2346.000	9.92299	-1.93347	7.96310	-4.13232
2347.000	9.89805	-1.96689	7.89716	-4.15259
2348.000	9.89805	-1.97276	7.96116	-4.12646
2349.000	9.91340	-1.91786	7.88358	-4.10959
2350.000	9.88270	-1.98656	7.93207	-4.06206
2351.000	9.88654	-1.99632	7.93013	-4.09933
2352.000	9.82896	-1.96926	7.91849	-4.12493
2353.000	9.86735	-1.96120	7.97279	-4.07538
2354.000	9.85583	-1.97693	7.96504	-4.16170
2355.000	9.86927	-1.93182	7.91656	-4.11907
2356.000	9.86159	-1.93187	7.93401	-4.08557
2357.000	9.86543	-1.96513	7.90104	-4.12706
2358.000	9.86159	-1.98277	7.94952	-4.18734
2359.000	9.86543	-1.92989	7.95728	-4.11866
2360.000	9.91340	-1.92961	7.92237	-4.10137
2361.000	9.84624	-1.96133	7.93013	-4.10521
2362.000	9.83664	-1.93397	7.91074	-4.10736
2363.000	9.84240	-1.90261	7.92431	-4.12487
2364.000	9.85200	-1.94171	7.94371	-4.09919
2365.000	9.86351	-1.91815	7.93207	-4.09343
2366.000	9.85200	-1.92605	7.93401	-4.08949
2367.000	9.78673	-1.94797	7.92625	-4.10525
2368.000	9.87119	-1.87112	7.90880	-4.07013
2369.000	9.81169	-1.88125	7.89910	-4.12512
2370.000	9.81745	-1.93408	7.91849	-4.07788
2371.000	9.82513	-1.86355	7.88358	-4.05862
2372.000	9.80977	-1.93805	7.89522	-4.05850
2373.000	9.80209	-1.91263	7.93013	-4.05032
2374.000	9.84816	-1.86733	7.90298	-4.07803
2375.000	9.79249	-1.92640	7.89328	-4.02519
2376.000	9.79441	-1.92639	7.88552	-4.05272
2377.000	9.81745	-1.89492	7.87000	-4.06659
2378.000	9.82705	-1.86745	7.87582	-4.04693
2379.000	9.82896	-1.87528	7.83314	-4.04342
2380.000	9.83664	-1.92027	7.84866	-4.00993
2381.000	9.81361	-1.93607	7.83702	-4.01004
2382.000	9.84240	-1.91044	7.84866	-4.01385
2383.000	9.82129	-1.90469	7.77104	-3.99694
2384.000	9.81937	-1.93995	7.82538	-4.06114
2385.000	9.83472	-1.90266	7.76910	-3.99108
2386.000	9.82321	-1.90468	7.79433	-3.94180
2387.000	9.86159	-1.84768	7.77686	-3.95569
2388.000	9.86543	-1.87507	7.80015	-3.93389
2389.000	9.90189	-1.81613	7.79045	-3.93202
2390.000	9.83088	-1.88505	7.80209	-3.96919
2391.000	9.86927	-1.88288	7.80209	-3.97703
2392.000	9.89805	-1.82594	7.83702	-3.98258
2393.000	9.87694	-1.88479	7.80403	-4.01428
2394.000	9.90956	-1.85524	7.84284	-4.02175
2395.000	9.90956	-1.88656	7.85060	-3.99618
2396.000	9.91531	-1.86108	7.85448	-3.99222
2397.000	9.94025	-1.87660	7.88552	-4.03311
2398.000	9.86543	-1.86136	7.85060	-3.99815
2399.000	9.90572	-1.92574	7.86612	-4.02349
2400.000	9.91531	-1.91589	7.89134	-4.05070
2401.000	9.85200	-1.98674	7.86030	-4.01178
2402.000	9.85200	-1.99849	7.85836	-4.01768
2403.000	9.83280	-2.01818	7.78851	-4.05562
2404.000	9.87502	-2.02184	7.84478	-4.04331
2405.000	9.79633	-1.99687	7.89134	-4.08207
2406.000	9.78289	-2.00282	7.86612	-4.09212
2407.000	9.82513	-2.01431	7.86806	-4.04896
2408.000	9.79057	-2.05173	7.84672	-4.12368
2409.000	9.74833	-2.03240	7.86806	-4.05485
2410.000	9.81553	-2.03004	7.89134	-4.09775
2411.000	9.75793	-1.98731	7.87000	-4.07836
2412.000	9.70032	-1.98961	7.87388	-4.08812
2413.000	9.71952	-2.02083	7.87388	-4.19006
2414.000	9.77521	-1.98133	7.86224	-4.20390
2415.000	9.70416	-1.95825	7.87388	-4.21358
2416.000	9.76369	-1.95398	7.90104	-4.17803
2417.000	9.72913	-1.95222	7.84672	-4.21190
2418.000	9.74257	-1.99523	7.85448	-4.18830
2419.000	9.72721	-1.98945	7.84284	-4.23154
2420.000	9.75601	-1.95403	7.86612	-4.19602
2421.000	9.80209	-1.91263	7.84284	-4.14529
2422.000	9.76945	-1.97549	7.81762	-4.18279
2423.000	9.77713	-1.92453	7.80209	-4.13393
2424.000	9.81553	-1.93018	7.75551	-4.12458
2425.000	9.79249	-1.91073	7.83120	-4.12776
2426.000	9.76369	-1.90502	7.75940	-4.11866
2427.000	9.76753	-1.89521	7.74775	-4.13054
2428.000	9.80593	-1.97527	7.77492	-4.08124
2429.000	9.80977	-1.92826	7.80986	-4.04561
2430.000	9.80593	-2.00660	7.77686	-4.00081
2431.000	9.82129	-1.97322	7.81374	-4.06714
2432.000	9.85391	-2.00435	7.83120	-4.01598
2433.000	9.82896	-1.99471	7.83120	-4.07678
2434.000	9.84048	-1.96919	7.81762	-4.01807
2435.000	9.87310	-1.97879	7.78269	-4.09097
2436.000	9.84624	-1.96328	7.76522	-4.05388
2437.000	9.85391	-1.95737	7.83896	-4.04925
2438.000	9.85008	-2.00633	7.82538	-4.04742
2439.000	9.81169	-2.01831	7.80403	-4.02997
2440.000	9.82321	-2.04761	7.89910	-4.06631
2441.000	9.86351	-1.98276	7.85448	-4.03341
2442.000	9.81361	-2.05158	7.84478	-4.09037
2443.000	9.82896	-2.05736	7.87388	-4.04302
2444.000	9.82129	-1.98301	7.88358	-4.07038
2445.000	9.86927	-2.01013	7.88552	-4.10173
2446.000	9.80593	-1.98506	7.86806	-4.10583
2447.000	9.80209	-2.03012	7.90492	-4.15251
2448.000	9.83664	-1.96138	7.90880	-4.21127
2449.000	9.77137	-2.03618	7.92431	-4.16211
2450.000	9.80017	-2.00076	7.87000	-4.16462
2451.000	9.80977	-1.98112	7.83314	-4.13754
2452.000	9.77521	-1.97937	7.88940	-4.12914
2453.000	9.80401	-1.95766	7.88164	-4.15666
2454.000	9.84048	-2.03771	7.89716	-4.13494
2455.000	9.87310	-1.98662	7.93207	-4.16008
2456.000	9.92299	-2.00589	7.97667	-4.19294
2457.000	10.03229	-2.00913	7.92431	-4.16211
2458.000	9.96135	-1.98608	7.91656	-4.12691
2459.000	9.88270	-1.92587	7.87776	-4.04887
2460.000	9.85008	-1.97109	7.79239	-4.00262
2461.000	9.90764	-1.95117	7.60212	-3.94554
2462.000	9.73105	-1.87387	7.58075	-4.01835
2463.000	9.50620	-1.80455	7.47777	-3.92115
2464.000	9.27720	-1.70963	7.32418	-3.87537
2465.000	8.88780	-1.51705	7.08483	-3.76538
2466.000	8.38537	-1.24565	6.85108	-3.61776
2467.000	7.92819	-1.16042	6.54102	-3.53933
2468.000	7.50692	-1.04525	6.25205	-3.52951
2469.000	7.05563	-0.91603	6.06444	-3.38095
2470.000	6.58004	-0.77270	5.63206	-3.16254
2471.000	6.21884	-0.57748	5.17159	-3.03258
2472.000	5.74952	-0.48297	4.79291	-2.75748
2473.000	5.43228	-0.35649	4.53760	-2.66746
2474.000	5.01271	-0.10107	4.31749	-2.38512
2475.000	4.59653	0.05156	3.92217	-2.16238
2476.000	4.18773	0.14087	3.50480	-1.94724
2477.000	3.75094	0.22631	3.06735	-1.60673
2478.000	3.34327	0.45281	2.70648	-1.34113
2479.000	2.87215	0.59010	2.18156	-0.96607
2480.000	2.63546	0.95582	1.73330	-0.68004
2481.000	2.28815	1.11107	1.35399	-0.32816
2482.000	1.97227	1.15303	0.93306	-0.18499
2483.000	1.75700	1.41751	0.65436	0.06366
2484.000	1.37771	1.52311	0.23724	0.22878
2485.000	1.09908	1.64252	-0.09687	0.18104
2486.000	0.83424	1.70228	-0.30050	0.36008
2487.000	0.67215	1.77588	-0.54959	0.40383
2488.000	0.49226	1.91703	-0.81447	0.54106
2489.000	0.32422	1.98463	-1.02595	0.66036
2490.000	0.20165	2.05419	-1.23346	0.66827
2491.000	0.13839	2.10387	-1.31843	0.67620
2492.000	0.08699	2.13169	-1.34214	0.62449
2493.000	0.11071	2.16745	-1.33819	0.64636
2494.000	0.14827	2.15354	-1.33819	0.62847
2495.000	0.22538	2.17935	-1.24136	0.65037
2496.000	0.25108	2.19127	-1.15837	0.60862
2497.000	0.43098	2.17534	-1.08722	0.58875
2498.000	0.48040	2.13559	-1.00224	0.56092
2499.000	0.61878	2.08190	-0.91132	0.51717
2500.000	0.70378	2.00836	-0.86191	0.50922
2501.000	0.78877	2.07189	-0.79273	0.48338
2502.000	0.86784	1.99238	-0.75715	0.44360
2503.000	0.88167	1.94668	-0.74331	0.43365
2504.000	0.90144	1.95064	-0.68994	0.42769
2505.000	0.88760	1.93873	-0.69785	0.45753
2506.000	0.91132	1.93474	-0.65238	0.42968
2507.000	0.84610	1.93875	-0.74133	0.46150
2508.000	0.79470	1.96262	-0.76110	0.44757
2509.000	0.74331	2.05602	-0.84017	0.51917
2510.000	0.75715	2.06595	-0.89946	0.52115
2511.000	0.65041	2.06401	-0.98247	0.53506
2512.000	0.64843	2.08586	-1.07536	0.54300
2513.000	0.60494	2.15343	-1.10106	0.61062
2514.000	0.56540	2.17529	-1.19394	0.62651
2515.000	0.55947	2.15940	-1.26310	0.61456
2516.000	0.55552	2.23886	-1.27496	0.64240
2517.000	0.59110	2.22296	-1.31250	0.64239
2518.000	0.55552	2.18721	-1.27496	0.67223
2519.000	0.55354	2.21304	-1.26112	0.66030
2520.000	0.64250	2.24280	-1.26310	0.68616
2521.000	0.66622	2.23286	-1.24532	0.63048
2522.000	0.64250	2.19115	-1.24927	0.60661
2523.000	0.71168	2.19112	-1.21567	0.66230
2524.000	0.76110	2.17719	-1.18801	0.57878
2525.000	0.76110	2.16925	-1.21963	0.62452
2526.000	0.77296	2.12951	-1.14058	0.62056
2527.000	0.81842	2.14141	-1.12872	0.53106
2528.000	0.85005	2.12550	-1.13860	0.55095
2529.000	0.86191	2.14734	-1.12082	0.54697
2530.000	0.86586	2.15529	-1.13465	0.55294
2531.000	0.83226	2.09968	-1.09710	0.54897
2532.000	0.86191	2.10165	-1.06351	0.52710
2533.000	0.87377	2.14535	-1.10303	0.50521
2534.000	0.88167	2.10164	-1.12872	0.55095
2535.000	0.83028	2.11955	-1.13663	0.49327
2536.000	0.88167	2.10562	-1.17615	0.54497
2537.000	0.83226	2.09968	-1.15046	0.55890
2538.000	0.85993	2.11159	-1.15244	0.56686
2539.000	0.83028	2.10366	-1.17220	0.53304
2540.000	0.85598	2.17913	-1.13268	0.56089
2541.000	0.86586	2.17118	-1.20975	0.54696
2542.000	0.83621	2.15133	-1.23148	0.53303
2543.000	0.84017	2.14338	-1.19394	0.56685
2544.000	0.88365	2.13144	-1.15046	0.57282
2545.000	0.83819	2.16523	-1.22951	0.56485
2546.000	0.85993	2.12748	-1.17418	0.53304
2547.000	0.89946	2.13143	-1.18998	0.54895
2548.000	0.87179	2.16720	-1.16034	0.54896
2549.000	0.87574	2.14932	-1.19591	0.54497
2550.000	0.84017	2.11954	-1.18603	0.52707
2551.000	0.85203	2.11556	-1.19394	0.57281
2552.000	0.88563	2.12548	-1.20975	0.53105
2553.000	0.86784	2.11556	-1.19196	0.51315
2554.000	0.89749	2.17513	-1.20777	0.52707
2555.000	0.91725	2.14334	-1.24729	0.53104
2556.000	0.88167	2.16720	-1.23148	0.56684
2557.000	0.84610	2.09570	-1.21172	0.51315
2558.000	0.86388	2.13145	-1.27100	0.51115
2559.000	0.87970	2.12945	-1.23346	0.52905
2560.000	0.82238	2.05201	-1.20975	0.53303
2561.000	0.85796	2.08576	-1.19196	0.47934
2562.000	0.85203	2.13543	-1.21963	0.51314
2563.000	0.86191	2.13940	-1.23148	0.55292
2564.000	0.85993	2.07583	-1.17220	0.54498
2565.000	0.88760	2.12548	-1.22555	0.47536
2566.000	0.92120	2.09367	-1.19789	0.54895
2567.000	0.92120	2.04202	-1.19789	0.55690
2568.000	0.85796	2.07384	-1.16627	0.52907
2569.000	0.88958	2.09171	-1.14256	0.56089
2570.000	0.96469	2.18303	-1.21370	0.55292
2571.000	0.92318	2.08970	-1.18406	0.53901
2572.000	0.98643	2.06980	-1.21567	0.52707
2573.000	0.99236	2.14130	-1.22555	0.51115
2574.000	0.90934	2.10759	-1.18998	0.54895
2575.000	0.97457	2.06186	-1.18998	0.57480
2576.000	0.98050	2.12145	-1.17813	0.54299
2577.000	0.98840	2.12740	-1.18010	0.56884
2578.000	1.02595	2.14724	-1.17022	0.54100
2579.000	0.96864	2.06583	-1.20184	0.57480
2580.000	1.01607	2.16115	-1.21370	0.57480
2581.000	1.04177	2.12339	-1.19789	0.61657
2582.000	1.06153	2.16112	-1.17022	0.62652
2583.000	1.04177	2.12737	-1.18603	0.61060
2584.000	1.02991	2.17703	-1.18603	0.60066
2585.000	1.05560	2.15318	-1.18208	0.61657
2586.000	1.05165	2.16709	-1.13268	0.62653
2587.000	1.08129	2.16905	-1.15639	0.63448
2588.000	0.99038	2.11747	-1.20975	0.56883
2589.000	1.07932	2.11344	-1.19394	0.60265
2590.000	1.01014	2.17506	-1.15639	0.54896
2591.000	0.96469	2.14331	-1.16232	0.60066
2592.000	0.95480	2.13338	-1.15639	0.61856
2593.000	0.97654	2.12145	-1.14651	0.57084
2594.000	0.99829	2.12740	-1.18801	0.57878
2595.000	1.01607	2.12937	-1.14651	0.61459
2596.000	0.98445	2.12145	-1.21172	0.60264
2597.000	0.95480	2.12742	-1.16232	0.57879
2598.000	0.90342	2.06786	-1.18801	0.60066
2599.000	0.92713	2.12943	-1.20184	0.62253
2600.000	0.98840	2.12144	-1.17418	0.61856
2601.000	0.93306	2.07380	-1.15837	0.61856
2602.000	0.91132	2.08176	-1.18010	0.60862
2603.000	0.92516	2.12347	-1.19591	0.66827
2604.000	0.95283	2.10756	-1.17220	0.63845
2605.000	0.91132	2.06984	-1.20975	0.60463
2606.000	0.98445	2.16713	-1.20184	0.62651
2607.000	0.86586	2.02219	-1.21370	0.60662
2608.000	0.95085	2.11948	-1.19591	0.62452
2609.000	0.92318	2.04202	-1.15639	0.60265
2610.000	0.91725	2.07778	-1.17418	0.62850
2611.000	0.90737	2.04203	-1.15046	0.61658
2612.000	0.98643	2.08569	-1.20579	0.59469
2613.000	0.88958	2.07383	-1.19196	0.65833
2614.000	0.87574	2.06589	-1.16627	0.64044
2615.000	0.89156	2.02615	-1.14848	0.62851
2616.000	0.87574	2.01423	-1.22358	0.66031
2617.000	0.87772	2.00430	-1.17813	0.62850
2618.000	0.89749	2.04800	-1.19196	0.65237
2619.000	0.92120	1.96851	-1.23544	0.57479
2620.000	0.94295	2.04201	-1.22555	0.62054
2621.000	1.01212	2.00025	-1.24729	0.63843
2622.000	0.97259	2.05590	-1.24532	0.64042
2623.000	0.97852	2.05192	-1.22555	0.62452
2624.000	0.94492	2.00824	-1.22753	0.66628
2625.000	0.95678	1.99035	-1.21370	0.61656
2626.000	0.96271	1.97246	-1.17813	0.63646
2627.000	0.99433	2.02013	-1.22951	0.63645
2628.000	1.01014	2.07375	-1.17615	0.63845
2629.000	1.02793	2.04394	-1.24136	0.63644
2630.000	1.01410	2.00621	-1.17022	0.68618
2631.000	1.02003	2.05388	-1.22160	0.64043
2632.000	1.01014	2.01614	-1.24334	0.60065
2633.000	1.01212	2.02607	-1.21963	0.58673
2634.000	1.01805	2.04594	-1.20382	0.60463
2635.000	1.02398	2.00819	-1.24136	0.57678
2636.000	0.99631	2.00820	-1.23939	0.60065
2637.000	0.98643	1.97642	-1.23939	0.58474
2638.000	0.98840	2.00821	-1.24532	0.61059
2639.000	0.94295	2.03208	-1.25520	0.61258
2640.000	1.02793	2.00620	-1.21370	0.62253
2641.000	1.02595	2.08169	-1.24136	0.63644
2642.000	0.99038	1.99629	-1.28484	0.63444
2643.000	0.99236	1.98437	-1.23939	0.62252
2644.000	0.95480	2.05591	-1.23148	0.63446
2645.000	0.99829	2.04794	-1.22753	0.62849
2646.000	0.94492	2.02214	-1.22753	0.62452
2647.000	0.99631	2.05588	-1.23346	0.58872
2648.000	1.04374	2.08366	-1.21567	0.59469
2649.000	1.00619	2.03005	-1.25915	0.63246
2650.000	1.01212	2.08964	-1.22951	0.62849
2651.000	1.03584	2.10155	-1.25717	0.69014
2652.000	1.00817	2.04992	-1.25124	0.66826
2653.000	0.94097	1.99632	-1.25915	0.63644
2654.000	0.97062	2.01219	-1.24334	0.68616
2655.000	0.99631	2.05588	-1.21370	0.68020
2656.000	0.99433	2.06383	-1.25124	0.65036
2657.000	0.94887	2.05591	-1.26310	0.65633
2658.000	0.96469	2.08570	-1.25915	0.66627
2659.000	0.90144	2.03806	-1.26705	0.60462
2660.000	0.90934	1.99236	-1.23939	0.69809
2661.000	1.00619	2.07376	-1.25124	0.69213
2662.000	0.98050	2.03404	-1.26112	0.66030
2663.000	0.95876	2.03803	-1.27100	0.66627
2664.000	0.95480	1.98836	-1.26705	0.67025
2665.000	0.91330	2.04600	-1.25520	0.63644
2666.000	0.93504	2.06387	-1.31843	0.67819
2667.000	0.90737	2.00230	-1.25322	0.67820
2668.000	0.99236	2.06781	-1.29472	0.70603
2669.000	1.00817	2.01018	-1.26310	0.64439
2670.000	0.98247	2.04795	-1.31448	0.62251
2671.000	1.00421	2.09164	-1.28088	0.66825
2672.000	0.98247	2.02808	-1.29076	0.64638
2673.000	0.97654	2.05590	-1.30064	0.66427
2674.000	0.95678	2.02810	-1.28681	0.63246
2675.000	1.01212	2.04594	-1.26705	0.62649
2676.000	0.97457	2.03007	-1.25520	0.58076
2677.000	0.98050	2.02411	-1.25915	0.60860
2678.000	0.93899	2.04996	-1.28088	0.62251
2679.000	0.94492	2.05989	-1.30064	0.60660
2680.000	0.96271	2.05392	-1.27100	0.66627
2681.000	0.96666	2.04796	-1.26705	0.63246
2682.000	0.96864	2.04795	-1.28879	0.62251
2683.000	0.98247	2.03205	-1.30262	0.61256
2684.000	0.95283	2.05591	-1.31052	0.61853
2685.000	0.94887	2.02214	-1.30657	0.62847
2686.000	0.95283	2.07379	-1.30064	0.64637
2687.000	0.94097	2.02612	-1.27693	0.59467
2688.000	0.93504	1.99831	-1.29076	0.61058
2689.000	0.94097	2.00426	-1.27496	0.60462
2690.000	0.88167	1.98244	-1.27496	0.64638
2691.000	0.92713	1.99036	-1.30855	0.59665
2692.000	0.82040	1.97651	-1.30657	0.58472
2693.000	0.88167	1.98046	-1.27891	0.64638
2694.000	0.94492	1.98837	-1.27891	0.61058
2695.000	0.94295	2.02413	-1.27496	0.65036
2696.000	0.87574	2.01225	-1.29867	0.58472
2697.000	0.91132	1.98243	-1.30064	0.60262
2698.000	0.95085	1.98240	-1.27891	0.57280
2699.000	0.89551	1.96257	-1.30657	0.62251
2700.000	0.91132	1.99435	-1.30262	0.63842
2701.000	0.94295	2.03009	-1.29076	0.58870
2702.000	0.92516	1.97447	-1.30855	0.57080
2703.000	0.94690	1.96850	-1.29274	0.59069
2704.000	0.92911	1.98242	-1.27298	0.60661
2705.000	1.01212	2.01813	-1.26310	0.59865
2706.000	0.94887	1.97247	-1.24532	0.64042
2707.000	0.93899	1.96056	-1.26310	0.61257
2708.000	0.95085	1.94465	-1.25520	0.57678
2709.000	0.91725	1.94070	-1.27891	0.62251
2710.000	0.91527	1.95262	-1.28681	0.69410
2711.000	0.91923	1.97249	-1.25717	0.68218
2712.000	0.86388	1.93079	-1.27496	0.60263
2713.000	0.90342	1.95064	-1.26112	0.62252
2714.000	0.90539	1.96455	-1.25915	0.64837
2715.000	0.95678	1.97843	-1.25915	0.61655
2716.000	0.91923	1.93871	-1.25915	0.61655
2717.000	0.96864	1.93868	-1.26112	0.61854
2718.000	0.95480	1.94267	-1.25915	0.61854
2719.000	0.90737	1.97249	-1.22160	0.62452
2720.000	0.89353	1.91488	-1.27100	0.60064
2721.000	0.93109	1.92877	-1.26903	0.57081
2722.000	0.89749	1.88110	-1.27298	0.58672
2723.000	0.92120	1.96255	-1.25717	0.59468
2724.000	0.93504	1.95460	-1.26903	0.61655
2725.000	0.91725	1.87712	-1.27100	0.63445
2726.000	0.93306	1.96056	-1.26903	0.59467
2727.000	0.93702	1.91287	-1.27298	0.56086
2728.000	0.91132	1.93673	-1.26903	0.57876
2729.000	0.92911	1.93672	-1.24927	0.55888
2730.000	0.89551	1.91289	-1.29076	0.56285
2731.000	0.92516	1.93076	-1.26508	0.58672
2732.000	0.93899	1.96254	-1.28286	0.55092
2733.000	0.99038	2.02013	-1.28879	0.59865
2734.000	0.99038	1.98834	-1.28088	0.56683
2735.000	0.95678	1.95459	-1.26508	0.54695
2736.000	0.95876	1.97644	-1.22951	0.57877
2737.000	0.94887	1.98439	-1.23346	0.54297
2738.000	0.96271	1.96054	-1.23346	0.52507
2739.000	1.01212	1.96250	-1.22951	0.54894
2740.000	1.00421	1.95853	-1.28484	0.54893
2741.000	1.01410	1.99031	-1.26705	0.57678
2742.000	1.01014	1.98634	-1.26903	0.50319
2743.000	1.03188	2.01414	-1.28286	0.56086
2744.000	1.02398	2.01216	-1.28088	0.52109
2745.000	0.99038	2.01615	-1.30064	0.52705
2746.000	0.97852	1.94464	-1.27496	0.56683
2747.000	0.97259	1.97643	-1.27496	0.53103
2748.000	1.00619	1.98237	-1.27891	0.56683
2749.000	0.98050	1.98636	-1.30855	0.52307
2750.000	0.98840	1.92278	-1.28879	0.53700
2751.000	1.03386	1.99825	-1.24136	0.58275
2752.000	0.97457	1.92676	-1.30855	0.51710
2753.000	0.99829	1.97840	-1.29076	0.51512
2754.000	1.06351	2.01611	-1.26310	0.51910
2755.000	0.99829	1.99430	-1.25915	0.53899
2756.000	1.00026	1.93867	-1.32831	0.45943
2757.000	1.01410	1.96846	-1.28681	0.50915
2758.000	0.99829	1.97840	-1.29472	0.56683
2759.000	1.04374	1.96447	-1.32238	0.52108
2760.000	1.03781	1.96248	-1.30657	0.55091
2761.000	0.99038	1.96649	-1.30262	0.52506
2762.000	0.97852	1.94663	-1.30262	0.49921
2763.000	1.01410	2.02011	-1.28484	0.52705
2764.000	0.98840	1.99033	-1.28088	0.55291
2765.000	1.03188	2.02606	-1.26705	0.55291
2766.000	0.95480	2.02611	-1.32831	0.51909
2767.000	0.97654	1.99828	-1.31250	0.53103
2768.000	0.95480	2.02810	-1.28484	0.52904
2769.000	0.96469	1.99630	-1.25915	0.54297
2770.000	1.00224	2.01615	-1.32436	0.51710
2771.000	1.02200	1.99230	-1.28681	0.54694
2772.000	0.98840	1.98040	-1.32633	0.55290
2773.000	1.00026	2.02410	-1.28681	0.55291
2774.000	0.97457	1.97444	-1.29274	0.54097
2775.000	0.99829	2.00423	-1.28088	0.54893
2776.000	0.99829	1.99430	-1.27891	0.53501
2777.000	1.02595	1.99825	-1.26112	0.58274
2778.000	1.00421	1.95058	-1.30460	0.53103
2779.000	1.04572	1.99625	-1.27100	0.57280
2780.000	1.00421	1.98039	-1.27298	0.57280
2781.000	0.98050	1.95457	-1.31250	0.53699
2782.000	0.97852	1.95259	-1.25717	0.56286
2783.000	1.00421	1.99032	-1.26310	0.53899
2784.000	1.05362	2.01214	-1.27298	0.59666
2785.000	1.02991	1.98633	-1.30855	0.55290
2786.000	1.01410	2.02011	-1.29669	0.56285
2787.000	1.04769	2.02208	-1.30460	0.57677
2788.000	1.02200	1.99627	-1.22358	0.57281
2789.000	1.01607	2.04197	-1.26310	0.60462
2790.000	1.06548	2.02207	-1.24532	0.57280
2791.000	0.99038	1.98635	-1.31645	0.59864
2792.000	0.98445	1.96848	-1.24334	0.54695
2793.000	0.98445	1.96252	-1.29472	0.59467
2794.000	1.03188	2.02805	-1.27891	0.58075
2795.000	1.06943	2.03200	-1.28088	0.54893
2796.000	1.05955	2.01611	-1.27496	0.59666
2797.000	0.96469	1.95657	-1.25124	0.56286
2798.000	1.01805	1.94859	-1.27891	0.61058
2799.000	0.95678	1.98041	-1.27100	0.54496
2800.000	0.94492	1.93274	-1.25124	0.54496
2801.000	0.97259	1.97643	-1.22555	0.55093
2802.000	0.98840	2.00026	-1.20777	0.61656
2803.000	0.97259	2.02014	-1.20579	0.60662
2804.000	1.00817	1.95257	-1.24136	0.64042
2805.000	1.02595	2.01812	-1.22555	0.63048
2806.000	0.99236	2.00622	-1.27298	0.57677
2807.000	0.96666	2.00028	-1.26903	0.62053
2808.000	0.95678	1.99829	-1.26310	0.57081
2809.000	0.99236	1.95456	-1.26508	0.58274
2810.000	0.93899	2.00824	-1.26705	0.57678
2811.000	0.96864	1.93272	-1.23346	0.62650
2812.000	0.96864	1.98637	-1.28286	0.61456
2813.000	1.02200	1.97839	-1.23939	0.56883
2814.000	1.03979	2.02208	-1.26508	0.59865
2815.000	0.98643	1.96252	-1.26903	0.58274
2816.000	1.07734	2.00418	-1.25322	0.60064
2817.000	1.03584	2.00421	-1.20579	0.58077
2818.000	1.03386	2.00222	-1.18603	0.61856
2819.000	1.03188	1.95057	-1.21963	0.60065
2820.000	1.01410	1.96250	-1.22951	0.57678
2821.000	1.00224	2.02012	-1.26508	0.60263
2822.000	1.01607	1.99031	-1.23346	0.64440
2823.000	0.99631	1.97840	-1.22358	0.66230
2824.000	1.00224	1.98039	-1.18603	0.60066
2825.000	1.00817	1.98833	-1.23741	0.58474
2826.000	1.00026	2.00622	-1.20975	0.66032
2827.000	1.01410	1.99031	-1.18603	0.65833
2828.000	1.00817	1.97641	-1.20382	0.66628
2829.000	0.94295	1.97645	-1.18801	0.62651
2830.000	0.98643	1.99629	-1.18801	0.60663
2831.000	0.95085	2.00823	-1.21765	0.61060
2832.000	0.95678	1.97445	-1.18208	0.62651
2833.000	0.98247	1.97444	-1.23148	0.60860
2834.000	0.91132	1.95858	-1.20777	0.58474
2835.000	0.99829	1.98834	-1.18998	0.59867
2836.000	0.96469	1.95259	-1.19591	0.60662
2837.000	0.96073	1.92478	-1.22358	0.62849
2838.000	0.91923	1.98043	-1.16034	0.57680
2839.000	1.00224	1.98635	-1.20777	0.61656
2840.000	0.96271	1.96253	-1.20777	0.57281
2841.000	0.96271	1.94266	-1.19196	0.57878
2842.000	0.98247	1.93470	-1.18801	0.62254
2843.000	0.97654	1.98438	-1.17418	0.60066
2844.000	0.99829	1.95456	-1.18406	0.58674
2845.000	1.06153	2.02207	-1.16429	0.59271
2846.000	0.98643	1.94463	-1.17220	0.54895
2847.000	0.95480	1.96651	-1.21370	0.58077
2848.000	0.99236	1.96251	-1.19987	0.55292
2849.000	0.96073	2.01220	-1.17220	0.54498
2850.000	0.97062	1.98041	-1.19196	0.59270
2851.000	0.96469	1.93074	-1.16429	0.62652
2852.000	1.02991	1.96646	-1.19196	0.58077
2853.000	0.97062	1.94663	-1.17813	0.59469
2854.000	0.97259	1.99431	-1.16627	0.57282
2855.000	0.96864	1.93670	-1.17022	0.52708
2856.000	0.94690	1.90690	-1.16232	0.56487
2857.000	0.98247	1.96450	-1.17615	0.58077
2858.000	0.96073	1.93471	-1.16232	0.59470
2859.000	1.00619	1.89892	-1.16034	0.54299
2860.000	0.94492	1.96055	-1.21567	0.53104
2861.000	1.01607	1.94660	-1.20382	0.57281
2862.000	0.99038	1.89297	-1.17615	0.56884
2863.000	1.04177	1.97440	-1.17220	0.54696
2864.000	0.98840	1.93470	-1.17615	0.59668
2865.000	0.98840	1.93867	-1.19394	0.55492
2866.000	1.02003	1.92276	-1.18603	0.63049
2867.000	1.03584	1.96845	-1.16429	0.55691
2868.000	1.00224	1.91085	-1.18998	0.50122
2869.000	0.99829	1.94860	-1.17418	0.53702
2870.000	0.98247	1.91483	-1.14256	0.56487
2871.000	0.95480	1.89100	-1.19789	0.54895
2872.000	0.93702	1.89300	-1.19196	0.58475
2873.000	0.97654	1.93471	-1.15837	0.57083
2874.000	0.95480	1.87113	-1.17813	0.54497
2875.000	0.98247	1.88503	-1.11094	0.59670
2876.000	0.98247	1.93271	-1.21963	0.56485
2877.000	0.93899	1.86319	-1.18208	0.54298
2878.000	0.96666	1.84728	-1.18603	0.55492
2879.000	0.91923	1.87513	-1.18010	0.55094
2880.000	0.94295	1.90293	-1.16034	0.57680
2881.000	0.93109	1.87512	-1.15046	0.59470
2882.000	0.96073	1.85126	-1.15244	0.55293
2883.000	0.92318	1.84731	-1.14651	0.62056
2884.000	0.92713	1.80359	-1.14453	0.60862
2885.000	0.89946	1.85527	-1.13663	0.58675
2886.000	0.95480	1.90094	-1.17418	0.54497
2887.000	1.00619	1.90488	-1.14058	0.53703
2888.000	0.95085	1.86915	-1.15441	0.58873
2889.000	0.95678	1.86120	-1.13860	0.58277
2890.000	0.96073	1.87908	-1.14256	0.57481
2891.000	0.93306	1.85724	-1.13070	0.54299
2892.000	0.98643	1.90291	-1.10303	0.56885
2893.000	0.96864	1.86517	-1.11094	0.56289
2894.000	0.93306	1.86916	-1.14453	0.54896
2895.000	0.95283	1.82345	-1.16034	0.57083
2896.000	0.95678	1.84331	-1.15639	0.55691
2897.000	0.94097	1.83140	-1.15639	0.53901
2898.000	0.91330	1.87712	-1.11687	0.59868
2899.000	0.94097	1.87313	-1.12082	0.59073
2900.000	0.94295	1.86121	-1.13663	0.56288
2901.000	0.94295	1.82345	-1.13663	0.50719
2902.000	0.95085	1.88703	-1.11687	0.57084
2903.000	0.95085	1.91088	-1.11687	0.56487
2904.000	0.94690	1.84531	-1.15639	0.58277
2905.000	0.87574	1.86521	-1.12477	0.56288
2906.000	0.92713	1.85327	-1.18208	0.56287
2907.000	0.95085	1.87908	-1.11489	0.52112
2908.000	0.94887	1.83140	-1.15046	0.51714
2909.000	0.90934	1.83340	-1.12279	0.56686
2910.000	0.88563	1.87515	-1.10501	0.51118
2911.000	0.96864	1.85523	-1.14058	0.56885
2912.000	0.90144	1.80956	-1.08722	0.58676
2913.000	0.89156	1.83540	-1.09117	0.54499
2914.000	0.91527	1.78372	-1.09513	0.55891
2915.000	0.88365	1.74399	-1.09315	0.55096
2916.000	0.92911	1.84730	-1.08129	0.58278
2917.000	0.97259	1.82940	-1.09513	0.52112
2918.000	0.90144	1.82745	-1.11884	0.55294
2919.000	0.95283	1.85723	-1.12477	0.57283
2920.000	0.90934	1.83937	-1.09908	0.55294
2921.000	0.95085	1.83736	-1.08524	0.56289
2922.000	0.87772	1.82348	-1.10106	0.56090
2923.000	0.96469	1.85921	-1.06351	0.52908
2924.000	0.94492	1.84332	-1.08327	0.55295
2925.000	0.92911	1.86717	-1.03584	0.60865
2926.000	0.92120	1.80359	-1.09710	0.52510
2927.000	0.92911	1.87115	-1.09513	0.51913
2928.000	0.97457	1.85523	-1.05560	0.56091
2929.000	0.92318	1.84532	-1.06943	0.51914
2930.000	0.97654	1.88106	-1.08920	0.54897
2931.000	0.94690	1.89101	-1.03584	0.52312
2932.000	0.93899	1.81153	-1.09710	0.54300
2933.000	0.96666	1.87113	-1.02398	0.58876
2934.000	0.94690	1.87114	-1.08129	0.54101
2935.000	0.99236	1.90291	-1.06746	0.57483
2936.000	0.90737	1.81751	-1.04572	0.50522
2937.000	0.98840	1.87509	-1.06746	0.53505
2938.000	0.91132	1.86321	-1.08722	0.51118
2939.000	0.92911	1.85128	-1.07339	0.55096
2940.000	0.95480	1.83934	-1.04572	0.51119
2941.000	0.97654	1.83536	-1.06153	0.52710
2942.000	0.95085	1.87312	-1.05560	0.51914
2943.000	0.97062	1.87311	-1.07932	0.49726
2944.000	0.95678	1.80158	-1.04177	0.55097
2945.000	0.95480	1.83139	-1.09117	0.54897
2946.000	0.94097	1.80557	-1.04967	0.55892
2947.000	0.91725	1.86917	-1.05165	0.53306
2948.000	0.99038	1.81150	-1.06548	0.51715
2949.000	0.90144	1.82745	-1.02595	0.48136
2950.000	0.90144	1.84136	-1.05560	0.53107
2951.000	0.96666	1.80555	-0.99236	0.55097
2952.000	0.95678	1.84928	-1.05165	0.56489
2953.000	0.93109	1.83935	-1.03188	0.58677
2954.000	0.92318	1.81154	-1.02595	0.51915
2955.000	0.98247	1.84529	-1.02991	0.57484
2956.000	0.98050	1.81548	-1.03188	0.51716
2957.000	0.88958	1.81553	-1.01014	0.52313
2958.000	0.95480	1.80755	-1.02398	0.57683
2959.000	0.92516	1.76980	-1.04177	0.49925
2960.000	0.94492	1.80159	-1.05362	0.54102
2961.000	0.90737	1.78174	-1.06943	0.51914
2962.000	0.83424	1.77581	-1.05165	0.53903
2963.000	0.89353	1.80957	-1.03386	0.51318
2964.000	0.87377	1.82547	-1.06548	0.53306
2965.000	0.87574	1.79566	-1.04572	0.52113
2966.000	0.90539	1.86917	-1.06351	0.51516
2967.000	0.87772	1.77579	-1.04572	0.59273
2968.000	0.93899	1.83736	-1.02991	0.56489
2969.000	0.86981	1.83740	-0.99038	0.61064
2970.000	0.94295	1.83339	-0.99433	0.54302
2971.000	0.94887	1.82543	-1.04967	0.59074
2972.000	0.90737	1.82546	-1.07536	0.57483
2973.000	0.90144	1.84533	-1.05362	0.53107
2974.000	0.89551	1.83738	-1.04967	0.60665
2975.000	0.93109	1.83141	-1.02398	0.62058
2976.000	0.90737	1.82347	-1.04374	0.56489
2977.000	0.86981	1.83938	-1.03188	0.53307
2978.000	0.97852	1.81548	-1.01410	0.55296
2979.000	0.98445	1.82542	-1.01607	0.57086
2980.000	0.96271	1.75389	-1.04572	0.57483
2981.000	0.94295	1.79563	-1.02595	0.57484
2982.000	0.92318	1.83141	-1.05362	0.58279
2983.000	0.91923	1.81551	-0.99236	0.54302
2984.000	0.99829	1.84727	-1.08327	0.50919
2985.000	0.97457	1.84927	-1.01410	0.52114
2986.000	0.97654	1.83536	-1.02200	0.50125
2987.000	0.96666	1.81549	-1.02595	0.55296
2988.000	0.96073	1.80158	-1.05955	0.50124
2989.000	0.96666	1.88702	-1.05165	0.45947
2990.000	0.92911	1.80160	-0.99038	0.55495
2991.000	0.96666	1.82741	-1.03386	0.52113
2992.000	0.98247	1.85920	-1.07536	0.51118
2993.000	0.98247	1.81548	-1.02991	0.55097
2994.000	0.99038	1.83336	-1.01805	0.56887
2995.000	0.95678	1.81152	-1.05955	0.50721
2996.000	1.00619	1.86316	-0.99236	0.59871
2997.000	0.96864	1.82145	-1.01410	0.56489
2998.000	0.96469	1.82741	-1.04769	0.61660
2999.000	0.95283	1.82941	-1.02200	0.60467
3000.000	0.96271	1.84530	-1.00026	0.62257
3001.000	0.92318	1.85327	-1.00817	0.59672
3002.000	0.94295	1.78569	-0.97457	0.60269
3003.000	0.95085	1.82543	-0.97654	0.60269
3004.000	0.94492	1.82544	-0.95480	0.65043
3005.000	0.95876	1.81947	-0.99236	0.62456
3006.000	0.91132	1.88507	-0.98247	0.67230
3007.000	0.93306	1.86320	-0.98643	0.67628
3008.000	0.96073	1.89100	-0.92516	0.65640
3009.000	0.98643	1.90092	-0.94295	0.68026
3010.000	0.96073	1.91087	-0.95480	0.74987
3011.000	0.96073	1.88901	-0.96864	0.73197
3012.000	0.95480	1.92280	-0.94097	0.74391
3013.000	0.94887	1.93273	-0.97062	0.73992
3014.000	0.94492	1.91088	-0.99829	0.80952
3015.000	0.97062	1.99034	-0.99829	0.75980
3016.000	0.98643	1.98636	-1.01410	0.79958
3017.000	0.94887	2.02413	-1.03781	0.75781
3018.000	0.98050	2.07775	-1.07536	0.75183
3019.000	0.93899	2.07181	-1.08129	0.78763
3020.000	1.00817	2.10157	-1.06351	0.79758
3021.000	0.95480	2.04002	-1.10303	0.82739
3022.000	0.84214	2.09173	-1.05758	0.79559
3023.000	0.84807	2.10762	-0.99631	0.80157
3024.000	0.91330	2.08573	-0.94690	0.76578
3025.000	0.94492	2.05790	-0.93702	0.84136
3026.000	0.87377	1.98245	-0.85005	0.84138
3027.000	1.00619	2.02608	-0.61285	0.89512
3028.000	1.14453	1.93261	-0.36574	0.98863
3029.000	1.33621	1.95234	-0.13641	0.89119
3030.000	1.53774	1.85681	0.19572	0.93296
3031.000	1.66219	1.74942	0.47447	0.98066
3032.000	1.89920	1.70748	0.76308	0.96072
3033.000	2.21117	1.71509	1.07141	0.96462
3034.000	2.51116	1.67898	1.38561	0.88099
3035.000	2.78538	1.63493	1.67997	0.73772
3036.000	2.89976	1.53550	1.90908	0.51695
3037.000	3.16394	1.52321	2.12430	0.48707
3038.000	3.40828	1.36407	2.49735	0.32794
3039.000	3.57964	1.28047	2.70845	0.06558
3040.000	3.72338	1.14731	2.99638	-0.05364
3041.000	3.86510	1.12530	3.35115	-0.11916
3042.000	4.05202	1.04371	3.58358	-0.52417
3043.000	4.28014	0.96606	NaN	NaN
3044.000	4.45900	0.76952	NaN	NaN
3045.000	4.66135	0.74353	NaN	NaN
3046.000	4.91068	0.80073	NaN	NaN
3047.000	5.16374	0.85985	NaN	NaN
3048.000	5.38134	0.77241	NaN	NaN
3049.000	5.49497	0.75247	NaN	NaN
3050.000	5.73190	0.95205	NaN	NaN
3051.000	6.18367	1.30121	NaN	NaN
3052.000	6.32628	1.65258	NaN	NaN
3053.000	6.68537	2.16457	NaN	NaN
3054.000	7.10430	2.73017	NaN	NaN
3055.000	7.72057	3.48311	NaN	NaN
3056.000	8.20921	4.19445	NaN	NaN
3057.000	8.69665	4.87902	NaN	NaN
3058.000	9.09610	5.43101	NaN	NaN
3059.000	9.60617	6.25006	NaN	NaN
3060.000	10.14536	7.06681	NaN	NaN
3061.000	NaN	NaN	NaN	NaN
3062.000	NaN	NaN	NaN	NaN
3063.000	NaN	NaN	NaN	NaN
3064.000	NaN	NaN	NaN	NaN
3065.000	NaN	NaN	NaN	NaN
3066.000	NaN	NaN	NaN	NaN
3067.000	NaN	NaN	NaN	NaN
3068.000	NaN	NaN	NaN	NaN
3069.000	NaN	NaN	NaN	NaN
3070.000	NaN	NaN	NaN	NaN
3071.000	NaN	NaN	NaN	NaN
3072.000	NaN	NaN	NaN	NaN
3073.000	NaN	NaN	NaN	NaN
3074.000	NaN	NaN	NaN	NaN
3075.000	NaN	NaN	NaN	NaN
3076.000	NaN	NaN	NaN	NaN
3077.000	NaN	NaN	NaN	NaN
3078.000	NaN	NaN	NaN	NaN
3079.000	NaN	NaN	NaN	NaN
3080.000	NaN	NaN	NaN	NaN
3081.000	NaN	NaN	NaN	NaN
3082.000	NaN	NaN	NaN	NaN
3083.000	NaN	NaN	NaN	NaN
3084.000	NaN	NaN	NaN	NaN
3085.000	NaN	NaN	NaN	NaN
3086.000	NaN	NaN	NaN	NaN
3087.000	NaN	NaN	NaN	NaN
3088.000	NaN	NaN	NaN	NaN
3089.000	NaN	NaN	NaN	NaN
3090.000	NaN	NaN	NaN	NaN
3091.000	NaN	NaN	NaN	NaN
3092.000	NaN	NaN	NaN	NaN
3093.000	NaN	NaN	NaN	NaN
3094.000	NaN	NaN	NaN	NaN
3095.000	NaN	NaN	NaN	NaN
3096.000	NaN	NaN	NaN	NaN
3097.000	NaN	NaN	NaN	NaN
3098.000	NaN	NaN	NaN	NaN
3099.000	NaN	NaN	NaN	NaN
3100.000	NaN	NaN	NaN	NaN
3101.000	NaN	NaN	NaN	NaN
3102.000	NaN	NaN	NaN	NaN
3103.000	NaN	NaN	NaN	NaN
3104.000	NaN	NaN	NaN	NaN
3105.000	NaN	NaN	NaN	NaN
3106.000	NaN	NaN	NaN	NaN
3107.000	NaN	NaN	NaN	NaN
3108.000	NaN	NaN	NaN	NaN
3109.000	NaN	NaN	NaN	NaN
3110.000	NaN	NaN	NaN	NaN
3111.000	NaN	NaN	NaN	NaN
3112.000	NaN	NaN	NaN	NaN
3113.000	NaN	NaN	NaN	NaN
3114.000	NaN	NaN	NaN	NaN
3115.000	NaN	NaN	NaN	NaN
3116.000	NaN	NaN	NaN	NaN
3117.000	NaN	NaN	NaN	NaN
3118.000	NaN	NaN	NaN	NaN
3119.000	NaN	NaN	NaN	NaN
3120.000	NaN	NaN	NaN	NaN
3121.000	NaN	NaN	NaN	NaN
3122.000	NaN	NaN	NaN	NaN
3123.000	NaN	NaN	NaN	NaN
3124.000	NaN	NaN	NaN	NaN
3125.000	NaN	NaN	NaN	NaN
3126.000	NaN	NaN	NaN	NaN
3127.000	NaN	NaN	NaN	NaN
3128.000	NaN	NaN	NaN	NaN
3129.000	NaN	NaN	NaN	NaN
3130.000	NaN	NaN	NaN	NaN
3131.000	NaN	NaN	NaN	NaN
3132.000	NaN	NaN	NaN	NaN
3133.000	NaN	NaN	NaN	NaN
3134.000	NaN	NaN	NaN	NaN
3135.000	NaN	NaN	NaN	NaN
3136.000	NaN	NaN	NaN	NaN
3137.000	NaN	NaN	NaN	NaN
3138.000	NaN	NaN	NaN	NaN
3139.000	NaN	NaN	NaN	NaN
3140.000	NaN	NaN	NaN	NaN
3141.000	NaN	NaN	NaN	NaN
3142.000	NaN	NaN	NaN	NaN
3143.000	NaN	NaN	NaN	NaN
3144.000	NaN	NaN	NaN	NaN
3145.000	NaN	NaN	NaN	NaN
3146.000	NaN	NaN	NaN	NaN
3147.000	NaN	NaN	NaN	NaN
3148.000	NaN	NaN	NaN	NaN
3149.000	NaN	NaN	NaN	NaN
3150.000	NaN	NaN	NaN	NaN
3151.000	NaN	NaN	NaN	NaN
3152.000	NaN	NaN	NaN	NaN
3153.000	NaN	NaN	NaN	NaN
3154.000	NaN	NaN	NaN	NaN
3155.000	NaN	NaN	NaN	NaN
3156.000	NaN	NaN	NaN	NaN
3157.000	NaN	NaN	NaN	NaN
3158.000	NaN	NaN	NaN	NaN
3159.000	NaN	NaN	NaN	NaN
3160.000	NaN	NaN	NaN	NaN
3161.000	NaN	NaN	NaN	NaN
3162.000	NaN	NaN	NaN	NaN
3163.000	NaN	NaN	NaN	NaN
3164.000	NaN	NaN	NaN	NaN
3165.000	NaN	NaN	NaN	NaN
3166.000	NaN	NaN	NaN	NaN
3167.000	NaN	NaN	NaN	NaN
3168.000	NaN	NaN	NaN	NaN
3169.000	NaN	NaN	NaN	NaN
3170.000	NaN	NaN	NaN	NaN
3171.000	NaN	NaN	NaN	NaN
3172.000	NaN	NaN	NaN	NaN
3173.000	NaN	NaN	NaN	NaN
3174.000	NaN	NaN	NaN	NaN
3175.000	NaN	NaN	NaN	NaN
3176.000	NaN	NaN	NaN	NaN
3177.000	NaN	NaN	NaN	NaN
3178.000	NaN	NaN	NaN	NaN
3179.000	NaN	NaN	NaN	NaN
3180.000	NaN	NaN	NaN	NaN
3181.000	NaN	NaN	NaN	NaN
3182.000	10.78007	7.52938	NaN	NaN
3183.000	10.44774	7.33356	NaN	NaN
3184.000	9.81361	6.77644	NaN	NaN
3185.000	9.75217	6.83181	NaN	NaN
3186.000	9.69839	6.82516	NaN	NaN
3187.000	9.42926	6.70279	NaN	NaN
3188.000	9.23098	6.71237	NaN	NaN
3189.000	9.11923	6.72609	NaN	NaN
3190.000	8.96111	6.72902	NaN	NaN
3191.000	8.94182	6.83014	NaN	NaN
3192.000	8.80673	6.81713	NaN	NaN
3193.000	8.69858	6.81521	NaN	NaN
3194.000	8.61549	6.80119	NaN	NaN
3195.000	8.44728	6.80416	NaN	NaN
3196.000	8.33505	6.80805	NaN	NaN
3197.000	8.25181	6.84053	NaN	NaN
3198.000	8.05809	6.81274	NaN	NaN
3199.000	7.96698	6.83756	NaN	NaN
3200.000	7.75357	6.65053	NaN	NaN
3201.000	7.55938	6.68661	NaN	NaN
3202.000	7.44473	6.82259	NaN	NaN
3203.000	7.29111	6.85411	NaN	NaN
3204.000	7.18800	6.90041	NaN	NaN
3205.000	7.11403	6.89373	NaN	NaN
3206.000	7.01084	7.00421	NaN	NaN
3207.000	6.90759	7.11078	NaN	NaN
3208.000	6.76922	7.16728	NaN	NaN
3209.000	6.62101	7.20250	NaN	NaN
3210.000	6.55272	7.26767	6.04880	4.50531
3211.000	6.40048	7.20563	5.07353	4.78836
3212.000	6.41024	7.25803	4.13266	5.00346
3213.000	6.35362	7.32691	4.03825	5.13203
3214.000	6.38876	7.32836	4.02448	5.24235
3215.000	6.32042	7.32738	3.94971	5.26644
3216.000	6.26377	7.22893	3.95758	5.28213
3217.000	6.23447	7.18651	3.92217	5.31581
3218.000	6.29503	7.19347	3.87100	5.35942
3219.000	6.28526	7.12546	3.87100	5.42041
3220.000	6.28917	7.12152	3.85723	5.43820
3221.000	6.27549	7.13144	3.87297	5.42236
3222.000	6.28721	7.05923	3.88084	5.44395
3223.000	6.29698	7.01430	3.87494	5.49906
3224.000	6.25596	6.98173	3.89265	5.44191
3225.000	6.22665	6.97042	3.86903	5.41845
3226.000	6.25010	6.97206	3.90446	5.43003
3227.000	6.25791	6.94858	3.89068	5.44979
3228.000	6.26963	6.92699	3.87691	5.46561
3229.000	6.28526	6.92873	3.90642	5.48902
3230.000	6.28135	6.95801	3.90839	5.51851
3231.000	6.31456	6.98874	3.89855	5.51464
3232.000	6.34385	6.99224	3.88281	5.54620
3233.000	6.30870	6.94401	3.86116	5.49718
3234.000	6.32823	6.99245	3.85526	5.53262
3235.000	6.26768	7.01859	3.85526	5.48542
3236.000	6.33604	7.03325	3.83951	5.48159
3237.000	6.32237	7.10744	3.85526	5.55621
3238.000	6.32237	7.14248	3.81589	5.55844
3239.000	6.25596	7.16869	3.80999	5.56044
3240.000	6.29698	7.15646	3.78834	5.55468
3241.000	6.33018	7.19104	3.79031	5.56057
3242.000	6.27159	7.19184	3.81983	5.54858
3243.000	6.28331	7.17611	3.81196	5.58009
3244.000	6.32823	7.20858	3.80015	5.55657
3245.000	6.33409	7.22018	3.77259	5.56461
3246.000	6.34385	7.19669	3.78046	5.58816
3247.000	6.35362	7.20434	3.82770	5.56426
3248.000	6.31456	7.16595	3.80015	5.59196
3249.000	6.35362	7.16736	3.78046	5.56653
3250.000	6.35557	7.15760	3.79818	5.53692
3251.000	6.35362	7.14595	3.78046	5.50950
3252.000	6.32042	7.13277	3.76865	5.52137
3253.000	6.31846	7.10944	3.77456	5.50560
3254.000	6.32823	7.09567	3.74503	5.50972
3255.000	6.29893	7.02791	3.79031	5.51533
3256.000	6.32237	7.02370	3.76078	5.48995
3257.000	6.30674	7.00248	3.79031	5.53697
3258.000	6.32628	7.03728	3.76669	5.48795
3259.000	6.30870	6.97128	3.77456	5.51740
3260.000	6.32237	6.99058	3.76472	5.49583
3261.000	6.35362	6.95510	3.76472	5.54303
3262.000	6.32432	6.90093	3.76275	5.48600
3263.000	6.31651	6.89129	3.77259	5.52921
3264.000	6.33213	6.88913	3.76078	5.49585
3265.000	6.36924	6.84966	3.78243	5.47801
3266.000	6.34190	6.87731	3.76472	5.53516
3267.000	6.37314	6.80868	3.74503	5.51365
3268.000	6.35557	6.78747	3.76275	5.48404
3269.000	6.34190	6.78570	3.77259	5.48004
3270.000	6.29112	6.76491	3.76669	5.52335
3271.000	6.35557	6.74652	3.79227	5.50352
3272.000	6.31260	6.78218	3.79227	5.48385
3273.000	6.33018	6.71175	3.80212	5.49952
3274.000	6.31456	6.70220	3.79818	5.52118
3275.000	6.33995	6.73112	3.82770	5.50133
3276.000	6.27940	6.67339	3.80802	5.48965
3277.000	6.32432	6.65331	3.83951	5.47568
3278.000	6.30479	6.65160	3.80015	5.49560
3279.000	6.31456	6.68269	3.82574	5.48757
3280.000	6.33604	6.67071	3.78637	5.49176
3281.000	6.30089	6.67311	3.81393	5.46208
3282.000	6.30674	6.65158	3.78046	5.45245
3283.000	6.31846	6.64363	3.85723	5.49721
3284.000	6.33604	6.64340	3.80212	5.46215
3285.000	6.32237	6.65723	3.80015	5.45036
3286.000	6.33604	6.66291	3.82574	5.44627
3287.000	6.33409	6.63172	3.80802	5.45621
3288.000	6.30870	6.65936	3.81786	5.48762
3289.000	6.36143	6.68209	3.84148	5.46190
3290.000	6.31260	6.65541	3.83164	5.47967
3291.000	6.34190	6.67454	3.83754	5.47766
3292.000	6.31651	6.65731	3.85723	5.50311
3293.000	6.35362	6.71925	3.84935	5.50119
3294.000	6.34776	6.72712	3.81786	5.49549
3295.000	6.38291	6.78126	3.86313	5.51487
3296.000	6.37705	6.73454	3.86313	5.51683
3297.000	6.35166	6.75242	3.85723	5.49917
3298.000	6.37314	6.77749	3.85329	5.51493
3299.000	6.39853	6.80640	3.88478	5.49899
3300.000	6.39853	6.79080	3.80999	5.47981
3301.000	6.40243	6.81999	3.84739	5.45400
3302.000	6.42976	6.83717	3.82967	5.46985
3303.000	6.40243	6.86287	3.85526	5.47362
3304.000	6.42391	6.79826	3.86707	5.46961
3305.000	6.40829	6.84330	3.84345	5.43435
3306.000	6.40243	6.85312	3.87100	5.43811
3307.000	6.40634	6.87061	3.83361	5.49342
3308.000	6.37119	6.88472	3.83361	5.46195
3309.000	6.41415	6.84907	3.86903	5.46369
3310.000	6.42195	6.84897	3.84935	5.52086
3311.000	6.42000	6.88991	3.86707	5.44404
3312.000	6.39267	6.84546	3.86510	5.48732
3313.000	6.40829	6.88617	3.84148	5.44027
3314.000	6.39267	6.89807	3.88281	5.43804
3315.000	6.40634	6.92906	3.84739	5.40088
3316.000	6.40048	6.90187	3.86313	5.40669
3317.000	6.41610	6.87243	3.87691	5.40660
3318.000	6.42781	6.90929	3.89855	5.41236
3319.000	6.41024	6.89004	3.83164	5.36754
3320.000	6.36338	6.89262	3.84739	5.44023
3321.000	6.43367	6.90532	3.86510	5.41454
3322.000	6.37900	6.88462	3.87691	5.38693
3323.000	6.40243	6.89599	3.86903	5.40468
3324.000	6.44538	6.88957	3.89068	5.41241
3325.000	6.42781	6.91319	3.87887	5.40068
3326.000	6.45124	6.90313	3.88084	5.42231
3327.000	6.45709	6.89526	3.86116	5.38899
3328.000	6.46490	6.86788	3.89068	5.39077
3329.000	6.43367	6.88194	3.85919	5.34178
3330.000	6.44343	6.87596	3.87100	5.35745
3331.000	6.45709	6.86603	3.87691	5.37709
3332.000	6.41415	6.84322	3.85329	5.35756
3333.000	6.40829	6.78093	3.87887	5.37904
3334.000	6.42586	6.83332	3.89659	5.39270
3335.000	6.45319	6.84465	3.89068	5.40061
3336.000	6.44928	6.86419	3.88871	5.41636
3337.000	6.45319	6.82516	3.84542	5.38319
3338.000	6.42976	6.84886	3.88281	5.37705
3339.000	6.42586	6.82942	3.88281	5.35738
3340.000	6.43562	6.83124	3.83951	5.32616
3341.000	6.42195	6.82558	3.87887	5.38495
3342.000	6.39462	6.75576	3.88281	5.35934
3343.000	6.42781	6.74948	3.84542	5.33006
3344.000	6.44538	6.75509	3.86707	5.36731
3345.000	6.40243	6.74786	3.86903	5.33582
3346.000	6.42195	6.75150	3.83558	5.38128
3347.000	6.42000	6.77297	3.84739	5.34579
3348.000	6.43757	6.76884	3.84148	5.36747
3349.000	6.38291	6.74617	3.81589	5.34992
3350.000	6.43562	6.76497	3.83558	5.34390
3351.000	6.43367	6.73185	3.82377	5.33807
3352.000	6.38876	6.72464	3.84345	5.34188
3353.000	6.38876	6.73634	3.83558	5.34980
3354.000	6.39657	6.71284	3.84345	5.34188
3355.000	6.42391	6.73783	3.83164	5.36950
3356.000	6.36924	6.70929	3.82770	5.34985
3357.000	6.39072	6.70706	3.82180	5.34595
3358.000	6.36924	6.69759	3.78046	5.33440
3359.000	6.37314	6.68779	3.82574	5.34789
3360.000	6.33995	6.63360	3.78046	5.33637
3361.000	6.35557	6.69387	3.80605	5.30079
3362.000	6.34776	6.63740	3.79818	5.33429
3363.000	6.34385	6.65306	3.76275	5.36009
3364.000	6.34971	6.61982	3.80802	5.32833
3365.000	6.30479	6.61258	3.81983	5.32235
3366.000	6.32237	6.59675	3.80015	5.29492
3367.000	6.33018	6.60446	3.79227	5.34613
3368.000	6.34385	6.61209	3.77456	5.30491
3369.000	6.33995	6.61604	3.76669	5.30103
3370.000	6.26377	6.57797	3.79031	5.31663
3371.000	6.32042	6.58702	3.75094	5.27356
3372.000	6.29503	6.58734	3.75881	5.28730
3373.000	6.33018	6.57714	3.75684	5.30108
3374.000	6.28526	6.59527	3.76472	5.29120
3375.000	6.28917	6.58741	3.77456	5.32263
3376.000	6.30674	6.56182	3.74306	5.27361
3377.000	6.27745	6.52901	3.76669	5.27937
3378.000	6.24228	6.53921	3.77259	5.30493
3379.000	6.26377	6.50771	3.75684	5.32864
3380.000	6.25596	6.51756	3.76669	5.27347
3381.000	6.27745	6.54267	3.72338	5.28357
3382.000	6.24619	6.50207	3.75487	5.29913
3383.000	6.27354	6.48611	3.75291	5.29324
3384.000	6.24228	6.48845	3.73913	5.26970
3385.000	6.23447	6.46902	3.74306	5.28345
3386.000	6.23838	6.50802	3.75094	5.29128
3387.000	6.21493	6.48683	3.71747	5.25408
3388.000	6.26963	6.49592	3.74897	5.30901
3389.000	6.22275	6.50821	3.73322	5.28154
3390.000	6.21884	6.48483	3.74897	5.26177
3391.000	6.22470	6.49647	3.73716	5.31301
3392.000	6.19148	6.48712	3.75881	5.26367
3393.000	6.22665	6.47693	3.72141	5.33673
3394.000	6.21102	6.47907	3.75881	5.31682
3395.000	6.23251	6.47100	3.73519	5.27956
3396.000	6.19930	6.46554	3.70960	5.28759
3397.000	6.18171	6.46576	3.76275	5.31286
3398.000	6.18953	6.44613	3.77456	5.31869
3399.000	6.19930	6.49483	3.70763	5.34271
3400.000	6.17781	6.45604	3.76472	5.32072
3401.000	6.16803	6.47764	3.70960	5.31318
3402.000	6.18562	6.43642	3.75684	5.29321
3403.000	6.17781	6.47947	3.76669	5.35219
3404.000	6.18758	6.45787	3.74503	5.30706
3405.000	6.14458	6.43691	3.73125	5.28746
3406.000	6.16022	6.45625	3.72338	5.31113
3407.000	6.17976	6.50288	3.71747	5.29935
3408.000	6.15435	6.46218	3.72928	5.35242
3409.000	6.15240	6.47978	3.73716	5.35434
3410.000	6.13872	6.49166	3.71550	5.29740
3411.000	6.16999	6.48933	3.71353	5.31512
3412.000	6.16999	6.46004	3.75881	5.36798
3413.000	6.14263	6.44865	3.75291	5.29914
3414.000	6.14067	6.51507	3.74306	5.37005
3415.000	6.18953	6.48714	3.76275	5.35025
3416.000	6.16413	6.50893	3.75881	5.30107
3417.000	6.15826	6.52267	3.76275	5.32073
3418.000	6.15240	6.49150	3.71550	5.30330
3419.000	6.15631	6.51488	3.76669	5.33645
3420.000	6.19148	6.49102	3.73716	5.33466
3421.000	6.14067	6.50531	3.73322	5.36617
3422.000	6.16413	6.50893	3.73716	5.35631
3423.000	6.14458	6.46425	3.72338	5.36820
3424.000	6.14067	6.47797	3.72535	5.39377
3425.000	6.14263	6.51700	3.72535	5.34064
3426.000	6.15826	6.49924	3.73913	5.36023
3427.000	6.11136	6.49980	3.73322	5.34059
3428.000	6.15826	6.48557	3.68991	5.32707
3429.000	6.12895	6.51326	3.72141	5.32885
3430.000	6.10158	6.51359	3.72141	5.35641
3431.000	6.11722	6.52707	3.70763	5.29941
3432.000	6.13481	6.52295	3.69778	5.31128
3433.000	6.14263	6.51114	3.68991	5.33691
3434.000	6.11918	6.48995	3.72338	5.32687
3435.000	6.14458	6.47792	3.68400	5.30546
3436.000	6.12308	6.51528	3.70172	5.37227
3437.000	6.10549	6.48230	3.67219	5.35473
3438.000	6.11331	6.50954	3.67219	5.32718
3439.000	6.10549	6.50769	3.70369	5.30928
3440.000	6.13090	6.50347	3.67810	5.34683
3441.000	6.14849	6.52474	3.69975	5.34670
3442.000	6.12504	6.52307	3.72141	5.34460
3443.000	6.11722	6.50559	3.67810	5.33698
3444.000	6.12113	6.50164	3.68794	5.32315
3445.000	6.11722	6.53488	3.69385	5.32508
3446.000	6.06053	6.48479	3.67613	5.31928
3447.000	6.10745	6.55062	3.66825	5.31736
3448.000	6.08204	6.53921	3.70369	5.33290
3449.000	6.06640	6.50425	3.70763	5.34468
3450.000	6.08595	6.51183	3.67810	5.29565
3451.000	6.09572	6.55662	3.70172	5.30929
3452.000	6.08595	6.53721	3.69385	5.29753
3453.000	6.08204	6.54897	3.68794	5.29756
3454.000	6.10549	6.56236	3.70172	5.32110
3455.000	6.08790	6.53133	3.69581	5.28964
3456.000	6.09181	6.56057	3.70763	5.31122
3457.000	6.13286	6.57959	3.68597	5.28773
3458.000	6.11136	6.56424	3.70369	5.34077
3459.000	6.12113	6.56217	3.73519	5.35632
3460.000	6.08986	6.56450	3.72141	5.33476
3461.000	6.10549	6.56236	3.68203	5.30547
3462.000	6.08008	6.55876	3.76275	5.37190
3463.000	6.12895	6.60306	3.71550	5.31314
3464.000	6.12308	6.59923	3.72535	5.35441
3465.000	6.13090	6.57962	3.73322	5.33862
3466.000	6.09767	6.58978	3.73913	5.36614
3467.000	6.11722	6.63249	3.76472	5.35024
3468.000	6.10940	6.58574	3.73913	5.36417
3469.000	6.13872	6.61075	3.76078	5.31090
3470.000	6.12308	6.65193	3.75487	5.31881
3471.000	6.10354	6.61704	3.71747	5.36036
3472.000	6.09767	6.61906	3.73519	5.38584
3473.000	6.13481	6.67520	3.74109	5.35629
3474.000	6.10745	6.61894	3.72731	5.33669
3475.000	6.13286	6.64595	3.72731	5.32488
3476.000	6.11331	6.59350	3.74109	5.34054
3477.000	6.11918	6.62661	3.76669	5.30693
3478.000	6.10354	6.63656	3.74700	5.32476
3479.000	6.11136	6.64232	3.77456	5.34821
3480.000	6.14654	6.64188	3.77653	5.33049
3481.000	6.11918	6.63441	3.77062	5.29313
3482.000	6.11918	6.61490	3.79227	5.29103
3483.000	6.11136	6.62085	3.75094	5.33458
3484.000	6.11331	6.60716	3.75291	5.34047
3485.000	6.14654	6.64774	3.74109	5.30905
3486.000	6.15435	6.62227	3.77062	5.32659
3487.000	6.15045	6.65940	3.72338	5.33081
3488.000	6.13872	6.64588	3.73322	5.35830
3489.000	6.14263	6.63998	3.76275	5.34238
3490.000	6.10549	6.62677	3.76078	5.35813
3491.000	6.10940	6.62477	3.75291	5.32866
3492.000	6.09181	6.63280	3.74306	5.31888
3493.000	6.10354	6.62875	3.77456	5.34231
3494.000	6.10549	6.67752	3.75684	5.30896
3495.000	6.12699	6.61870	3.76275	5.36206
3496.000	6.10549	6.63848	3.75684	5.38767
3497.000	6.14654	6.70823	3.72731	5.36031
3498.000	6.15045	6.65745	3.70763	5.31713
3499.000	6.16217	6.68852	3.73125	5.31895
3500.000	6.14654	6.64774	3.71550	5.37415
3501.000	6.18758	6.63552	3.70172	5.38604
3502.000	6.17976	6.60049	3.70172	5.38014
3503.000	6.18367	6.54188	3.68006	5.39208
3504.000	6.19148	6.52226	3.63084	5.38450
3505.000	6.26963	6.50763	3.66234	5.37644
3506.000	6.31456	6.51098	3.67416	5.29174
3507.000	6.32628	6.57134	3.66825	5.28193
3508.000	6.37705	6.54728	3.62099	5.21526
3509.000	6.35166	6.52808	3.65841	5.08113
3510.000	6.36729	6.52593	3.73519	4.62539
3511.000	6.35557	6.47338	5.40877	2.29426
3512.000	6.38095	6.48477	5.03822	2.57850
3513.000	6.38876	6.57054	4.70259	2.92596
3514.000	6.43757	6.90721	4.47276	3.27891
3515.000	6.56053	7.39782	4.29587	3.80537
3516.000	6.76922	8.09493	4.03235	4.46206
3517.000	6.99526	8.86765	3.89659	5.09550
3518.000	7.04978	9.48621	3.74503	5.80460
3519.000	7.26972	10.26511	3.65053	6.37058
3520.000	7.56521	11.11529	3.46147	7.04370
3521.000	7.97667	12.06891	3.31174	7.70112
3522.000	8.17047	12.93607	3.04961	8.36336
3523.000	8.76618	13.87495	2.99835	9.04317
3524.000	NaN	NaN	3.00426	9.79523
3525.000	NaN	NaN	2.76565	10.48849
3526.000	NaN	NaN	2.70648	11.11790
3527.000	NaN	NaN	2.50524	11.85828
3528.000	NaN	NaN	NaN	NaN
3529.000	NaN	NaN	NaN	NaN
3530.000	NaN	NaN	NaN	NaN
3531.000	NaN	NaN	NaN	NaN
3532.000	NaN	NaN	NaN	NaN
3533.000	NaN	NaN	NaN	NaN
3534.000	NaN	NaN	NaN	NaN
3535.000	NaN	NaN	NaN	NaN
3536.000	NaN	NaN	NaN	NaN
3537.000	NaN	NaN	NaN	NaN
3538.000	NaN	NaN	NaN	NaN
3539.000	NaN	NaN	NaN	NaN
3540.000	NaN	NaN	NaN	NaN
3541.000	NaN	NaN	NaN	NaN
3542.000	NaN	NaN	NaN	NaN
3543.000	NaN	NaN	NaN	NaN
3544.000	NaN	NaN	NaN	NaN
3545.000	NaN	NaN	NaN	NaN
3546.000	NaN	NaN	NaN	NaN
3547.000	NaN	NaN	NaN	NaN
3548.000	NaN	NaN	NaN	NaN
3549.000	NaN	NaN	NaN	NaN
3550.000	NaN	NaN	NaN	NaN
3551.000	NaN	NaN	NaN	NaN
3552.000	NaN	NaN	NaN	NaN
3553.000	NaN	NaN	NaN	NaN
3554.000	NaN	NaN	NaN	NaN
3555.000	NaN	NaN	NaN	NaN
3556.000	NaN	NaN	NaN	NaN
3557.000	NaN	NaN	NaN	NaN
3558.000	NaN	NaN	NaN	NaN
3559.000	NaN	NaN	NaN	NaN
3560.000	NaN	NaN	NaN	NaN
3561.000	NaN	NaN	NaN	NaN
3562.000	NaN	NaN	NaN	NaN
3563.000	NaN	NaN	NaN	NaN
3564.000	NaN	NaN	NaN	NaN
3565.000	NaN	NaN	NaN	NaN
3566.000	NaN	NaN	NaN	NaN
3567.000	NaN	NaN	NaN	NaN
3568.000	NaN	NaN	NaN	NaN
3569.000	NaN	NaN	NaN	NaN
3570.000	NaN	NaN	NaN	NaN
3571.000	NaN	NaN	NaN	NaN
3572.000	NaN	NaN	NaN	NaN
3573.000	NaN	NaN	NaN	NaN
3574.000	NaN	NaN	NaN	NaN
3575.000	NaN	NaN	NaN	NaN
3576.000	NaN	NaN	NaN	NaN
3577.000	NaN	NaN	NaN	NaN
3578.000	NaN	NaN	NaN	NaN
3579.000	NaN	NaN	NaN	NaN
3580.000	NaN	NaN	NaN	NaN
3581.000	NaN	NaN	NaN	NaN
3582.000	NaN	NaN	NaN	NaN
3583.000	NaN	NaN	NaN	NaN
3584.000	NaN	NaN	NaN	NaN
3585.000	NaN	NaN	NaN	NaN
3586.000	NaN	NaN	NaN	NaN
3587.000	NaN	NaN	NaN	NaN
3588.000	NaN	NaN	NaN	NaN
3589.000	NaN	NaN	NaN	NaN
3590.000	NaN	NaN	NaN	NaN
3591.000	NaN	NaN	NaN	NaN
3592.000	NaN	NaN	NaN	NaN
3593.000	NaN	NaN	NaN	NaN
3594.000	NaN	NaN	NaN	NaN
3595.000	NaN	NaN	NaN	NaN
3596.000	NaN	NaN	NaN	NaN
3597.000	NaN	NaN	NaN	NaN
3598.000	NaN	NaN	NaN	NaN
3599.000	NaN	NaN	NaN	NaN
3600.000	NaN	NaN	NaN	NaN
3601.000	NaN	NaN	NaN	NaN
3602.000	NaN	NaN	NaN	NaN
3603.000	NaN	NaN	NaN	NaN
3604.000	NaN	NaN	NaN	NaN
3605.000	NaN	NaN	NaN	NaN
3606.000	NaN	NaN	NaN	NaN
3607.000	NaN	NaN	NaN	NaN
3608.000	NaN	NaN	NaN	NaN
3609.000	NaN	NaN	NaN	NaN
3610.000	NaN	NaN	NaN	NaN
3611.000	NaN	NaN	NaN	NaN
3612.000	NaN	NaN	NaN	NaN
3613.000	NaN	NaN	NaN	NaN
3614.000	NaN	NaN	NaN	NaN
3615.000	NaN	NaN	NaN	NaN
3616.000	NaN	NaN	NaN	NaN
3617.000	NaN	NaN	NaN	NaN
3618.000	NaN	NaN	NaN	NaN
3619.000	NaN	NaN	NaN	NaN
3620.000	NaN	NaN	NaN	NaN
3621.000	NaN	NaN	NaN	NaN
3622.000	NaN	NaN	NaN	NaN
3623.000	NaN	NaN	NaN	NaN
3624.000	NaN	NaN	NaN	NaN
3625.000	NaN	NaN	NaN	NaN
3626.000	NaN	NaN	NaN	NaN
3627.000	NaN	NaN	NaN	NaN
3628.000	NaN	NaN	NaN	NaN
3629.000	NaN	NaN	NaN	NaN
3630.000	NaN	NaN	NaN	NaN
3631.000	NaN	NaN	NaN	NaN
3632.000	NaN	NaN	NaN	NaN
3633.000	NaN	NaN	NaN	NaN
3634.000	NaN	NaN	NaN	NaN
3635.000	NaN	NaN	NaN	NaN
3636.000	NaN	NaN	NaN	NaN
3637.000	NaN	NaN	NaN	NaN
3638.000	NaN	NaN	NaN	NaN
3639.000	NaN	NaN	NaN	NaN
3640.000	NaN	NaN	NaN	NaN
3641.000	NaN	NaN	NaN	NaN
3642.000	NaN	NaN	NaN	NaN
3643.000	NaN	NaN	NaN	NaN
3644.000	NaN	NaN	NaN	NaN
3645.000	NaN	NaN	NaN	NaN
3646.000	NaN	NaN	NaN	NaN
3647.000	NaN	NaN	NaN	NaN
3648.000	NaN	NaN	NaN	NaN
3649.000	NaN	NaN	NaN	NaN
3650.000	NaN	NaN	NaN	NaN
3651.000	NaN	NaN	NaN	NaN
3652.000	NaN	NaN	NaN	NaN
3653.000	NaN	NaN	NaN	NaN
3654.000	NaN	NaN	NaN	NaN
3655.000	NaN	NaN	NaN	NaN
3656.000	NaN	NaN	NaN	NaN
3657.000	NaN	NaN	NaN	NaN
3658.000	NaN	NaN	NaN	NaN
3659.000	NaN	NaN	NaN	NaN
3660.000	NaN	NaN	NaN	NaN
3661.000	NaN	NaN	NaN	NaN
3662.000	NaN	NaN	NaN	NaN
3663.000	NaN	NaN	NaN	NaN
3664.000	NaN	NaN	NaN	NaN
3665.000	NaN	NaN	NaN	NaN
3666.000	NaN	NaN	NaN	NaN
3667.000	NaN	NaN	NaN	NaN
3668.000	NaN	NaN	NaN	NaN
3669.000	NaN	NaN	NaN	NaN
3670.000	NaN	NaN	NaN	NaN
3671.000	NaN	NaN	NaN	NaN
3672.000	NaN	NaN	NaN	NaN
3673.000	NaN	NaN	NaN	NaN
3674.000	NaN	NaN	NaN	NaN
3675.000	NaN	NaN	NaN	NaN
3676.000	NaN	NaN	NaN	NaN
3677.000	NaN	NaN	NaN	NaN
3678.000	NaN	NaN	NaN	NaN
3679.000	NaN	NaN	NaN	NaN
3680.000	NaN	NaN	NaN	NaN
3681.000	NaN	NaN	NaN	NaN
3682.000	NaN	NaN	NaN	NaN
3683.000	NaN	NaN	NaN	NaN
3684.000	NaN	NaN	NaN	NaN
3685.000	NaN	NaN	NaN	NaN
3686.000	NaN	NaN	NaN	NaN
3687.000	NaN	NaN	NaN	NaN
3688.000	NaN	NaN	NaN	NaN
3689.000	NaN	NaN	NaN	NaN
3690.000	NaN	NaN	NaN	NaN
3691.000	NaN	NaN	NaN	NaN
3692.000	NaN	NaN	NaN	NaN
3693.000	NaN	NaN	NaN	NaN
3694.000	NaN	NaN	NaN	NaN
3695.000	NaN	NaN	NaN	NaN
3696.000	NaN	NaN	NaN	NaN
3697.000	NaN	NaN	NaN	NaN
3698.000	NaN	NaN	NaN	NaN
3699.000	NaN	NaN	NaN	NaN
3700.000	NaN	NaN	NaN	NaN
3701.000	NaN	NaN	NaN	NaN
3702.000	NaN	NaN	NaN	NaN
3703.000	NaN	NaN	NaN	NaN
3704.000	NaN	NaN	NaN	NaN
3705.000	NaN	NaN	NaN	NaN
3706.000	NaN	NaN	NaN	NaN
3707.000	NaN	NaN	NaN	NaN
3708.000	NaN	NaN	NaN	NaN
3709.000	NaN	NaN	NaN	NaN
3710.000	NaN	NaN	NaN	NaN
3711.000	NaN	NaN	NaN	NaN
3712.000	NaN	NaN	NaN	NaN
3713.000	NaN	NaN	NaN	NaN
3714.000	-2.29210	9.47036	NaN	NaN
3715.000	-0.95283	8.74153	NaN	NaN
3716.000	0.38946	7.74688	NaN	NaN
3717.000	0.35190	7.25608	NaN	NaN
3718.000	0.29062	6.85838	NaN	NaN
3719.000	0.24119	6.44820	NaN	NaN
3720.000	0.20561	6.05701	NaN	NaN
3721.000	0.23131	5.71646	NaN	NaN
3722.000	0.24712	5.43071	NaN	NaN
3723.000	0.21549	5.17825	NaN	NaN
3724.000	0.31434	4.88999	NaN	NaN
3725.000	0.40528	4.77340	NaN	NaN
3726.000	0.48238	4.44525	-0.09292	0.85142
3727.000	0.55552	4.24939	-0.81447	0.21086
3728.000	0.54366	4.04556	-1.58910	-0.34404
3729.000	0.60099	3.80000	-1.56737	-0.44944
3730.000	0.55157	3.56032	-1.58515	-0.52698
3731.000	0.55750	3.38193	-1.55749	-0.55682
3732.000	0.50215	3.15988	-1.53379	-0.55086
3733.000	0.40528	2.98139	-1.54564	-0.46137
3734.000	0.30841	2.69763	-1.51996	0.13722
3735.000	0.29259	2.60036	-1.51206	0.29234
3736.000	0.22735	2.35216	-1.53379	0.36791
3737.000	0.22142	2.19127	-1.53774	0.39177
3738.000	0.21154	2.05817	-1.56342	0.41165
3739.000	0.19968	1.85747	-1.52984	0.43950
3740.000	0.21549	1.81176	-1.56935	0.48324
3741.000	0.25305	1.65076	-1.54169	0.47927
3742.000	0.25899	1.60703	-1.57923	0.51903
3743.000	0.25503	1.52353	-1.57132	0.51705
3744.000	0.20956	1.44402	-1.57725	0.55483
3745.000	0.21945	1.42016	-1.57330	0.56676
3746.000	0.18386	1.34063	-1.58713	0.59857
3747.000	0.12653	1.30484	-1.60688	0.58266
3748.000	0.14827	1.32472	-1.59108	0.57669
3749.000	0.12455	1.20940	-1.61676	0.61049
3750.000	0.12060	1.25513	-1.59898	0.56078
3751.000	0.10280	1.13781	-1.60491	0.59061
3752.000	0.10478	1.19150	-1.58910	0.57073
3753.000	0.10083	1.12786	-1.58120	0.56079
3754.000	0.09094	1.14775	-1.57725	0.58266
3755.000	0.09490	1.08212	-1.57923	0.58266
3756.000	0.06524	1.06025	-1.58318	0.56278
3757.000	0.10676	1.04235	-1.56935	0.62244
3758.000	0.08303	1.00456	-1.54367	0.57273
3759.000	0.06722	1.04235	-1.57725	0.57471
3760.000	0.05536	1.01053	-1.59503	0.52897
3761.000	0.06722	1.06224	-1.55354	0.52302
3762.000	0.11664	1.07815	-1.58515	0.51108
3763.000	0.10676	1.04831	-1.55749	0.47330
3764.000	0.06524	1.01649	-1.56935	0.49119
3765.000	0.06524	1.01053	-1.56342	0.43552
3766.000	0.06920	1.01848	-1.57330	0.47131
3767.000	0.07315	1.08212	-1.54762	0.43751
3768.000	0.01186	0.99462	-1.59108	0.45142
3769.000	0.06524	1.08212	-1.56540	0.44347
3770.000	0.04349	1.05428	-1.53181	0.41365
3771.000	0.01779	1.00257	-1.56145	0.41563
3772.000	0.01582	1.00058	-1.55947	0.44347
3773.000	0.01779	1.02047	-1.51601	0.38979
3774.000	0.01582	1.04633	-1.54367	0.41762
3775.000	0.04547	1.06025	-1.55157	0.42756
3776.000	0.01186	1.04434	-1.51798	0.34802
3777.000	0.02175	1.06224	-1.51798	0.35996
3778.000	0.02768	1.12190	-1.49823	0.37189
3779.000	0.02768	1.12985	-1.53774	0.37586
3780.000	0.05140	1.14576	-1.52984	0.33211
3781.000	0.07315	1.15173	-1.50613	0.34604
3782.000	0.06920	1.16167	-1.52984	0.35001
3783.000	0.04152	1.14974	-1.56540	0.31222
3784.000	0.06129	1.15769	-1.48835	0.36394
3785.000	0.05931	1.19747	-1.48637	0.32218
3786.000	0.01977	1.18355	-1.50613	0.27047
3787.000	0.07710	1.23326	-1.51206	0.24660
3788.000	0.06722	1.26706	-1.51798	0.32018
3789.000	0.11071	1.26507	-1.53774	0.29632
3790.000	0.11269	1.23127	-1.52589	0.28836
3791.000	0.04349	1.19945	-1.54367	0.31620
3792.000	0.12455	1.28496	-1.51206	0.28041
3793.000	0.10478	1.29092	-1.49625	0.31223
3794.000	0.12850	1.30882	-1.51206	0.31820
3795.000	0.07117	1.29092	-1.53774	0.24461
3796.000	0.12653	1.31478	-1.50020	0.25854
3797.000	0.12455	1.34063	-1.49823	0.26848
3798.000	0.13641	1.33666	-1.52391	0.27245
3799.000	0.17398	1.32671	-1.51403	0.31820
3800.000	0.12060	1.33268	-1.50613	0.26251
3801.000	0.14037	1.36250	-1.52589	0.27245
3802.000	0.13444	1.36847	-1.53181	0.31422
3803.000	0.14630	1.37841	-1.48637	0.26649
3804.000	0.17398	1.38636	-1.49428	0.28041
3805.000	0.15618	1.38040	-1.51008	0.29234
3806.000	0.16409	1.38040	-1.50415	0.28041
3807.000	0.15816	1.41817	-1.49823	0.24462
3808.000	0.20165	1.41221	-1.52193	0.30427
3809.000	0.17595	1.44998	-1.53181	0.29831
3810.000	0.22340	1.43805	-1.51008	0.30825
3811.000	0.21154	1.44799	-1.50020	0.33013
3812.000	0.21549	1.47384	-1.52193	0.28439
3813.000	0.21154	1.45594	-1.49823	0.28638
3814.000	0.26294	1.48775	-1.48242	0.31820
3815.000	0.20561	1.47781	-1.47649	0.30229
3816.000	0.25108	1.49173	-1.49230	0.32615
3817.000	0.26096	1.46389	-1.46069	0.33014
3818.000	0.22735	1.43010	-1.47452	0.34803
3819.000	0.27876	1.48775	-1.49230	0.36792
3820.000	0.25701	1.49570	-1.47452	0.32814
3821.000	0.27480	1.55335	-1.47254	0.34604
3822.000	0.23922	1.54143	-1.52193	0.32615
3823.000	0.26492	1.51160	-1.49428	0.35002
3824.000	0.25899	1.53347	-1.50218	0.36394
3825.000	0.24515	1.57323	-1.49428	0.34604
3826.000	0.29852	1.54341	-1.49032	0.35201
3827.000	0.26492	1.55932	-1.49230	0.35002
3828.000	0.29655	1.54142	-1.49625	0.37189
3829.000	0.28864	1.53347	-1.53379	0.42160
3830.000	0.29062	1.49570	-1.52984	0.38581
3831.000	0.30248	1.56130	-1.51008	0.40570
3832.000	0.28073	1.51558	-1.46464	0.42559
3833.000	0.33411	1.56925	-1.49625	0.36990
3834.000	0.30841	1.53148	-1.47649	0.44945
3835.000	0.29457	1.54739	-1.49625	0.50115
3836.000	0.33806	1.53744	-1.51996	0.43155
3837.000	0.33411	1.47979	-1.53379	0.47132
3838.000	0.25503	1.50962	-1.49823	0.47729
3839.000	0.32422	1.50762	-1.53971	0.44149
3840.000	0.32422	1.49172	-1.50020	0.45939
3841.000	0.26887	1.49769	-1.56145	0.39574
3842.000	0.28666	1.48178	-1.56737	0.45938
3843.000	0.27085	1.46985	-1.51206	0.46138
3844.000	0.25305	1.43805	-1.55157	0.39774
3845.000	0.29457	1.52353	-1.52391	0.46336
3846.000	0.24515	1.46389	-1.53379	0.45740
3847.000	0.26492	1.47582	-1.53774	0.49717
3848.000	0.26492	1.46787	-1.53576	0.47132
3849.000	0.20165	1.38636	-1.56145	0.49915
3850.000	0.18781	1.37841	-1.56737	0.49517
3851.000	0.23922	1.37244	-1.53181	0.45939
3852.000	0.25108	1.38238	-1.56540	0.47926
3853.000	0.21945	1.34063	-1.53576	0.48325
3854.000	0.19375	1.33466	-1.57725	0.46335
3855.000	0.18781	1.34461	-1.57527	0.50312
3856.000	0.19177	1.32472	-1.58318	0.46733
3857.000	0.15421	1.29490	-1.58318	0.42756
3858.000	0.15223	1.26109	-1.56737	0.44148
3859.000	0.16014	1.28496	-1.52984	0.53098
3860.000	0.12455	1.25712	-1.55354	0.46336
3861.000	0.12850	1.22729	-1.52589	0.49319
3862.000	0.15618	1.25513	-1.56737	0.51903
3863.000	0.15223	1.21735	-1.58713	0.49318
3864.000	0.10083	1.15968	-1.55354	0.51108
3865.000	0.14630	1.21337	-1.61083	0.53891
3866.000	0.13444	1.16962	-1.60886	0.50312
3867.000	0.15816	1.17758	-1.57923	0.53096
3868.000	0.15025	1.18354	-1.56935	0.52898
3869.000	0.13246	1.16366	-1.58713	0.50312
3870.000	0.16014	1.14178	-1.59503	0.46335
3871.000	0.12850	1.11394	-1.57725	0.53693
3872.000	0.17200	1.11195	-1.56145	0.52301
3873.000	0.15816	1.12587	-1.57330	0.48324
3874.000	0.17200	1.12786	-1.56737	0.49120
3875.000	0.13641	1.07814	-1.56737	0.49517
3876.000	0.14432	1.14775	-1.57330	0.44148
3877.000	0.13641	1.07814	-1.55354	0.43154
3878.000	0.13048	1.09207	-1.54564	0.45938
3879.000	0.14432	1.11195	-1.54959	0.48722
3880.000	0.14432	1.09405	-1.54367	0.44745
3881.000	0.11467	1.07815	-1.55947	0.43552
3882.000	0.12060	1.06025	-1.57132	0.41762
3883.000	0.09490	1.07815	-1.59700	0.41165
3884.000	0.12257	1.07616	-1.56342	0.39177
3885.000	0.10874	1.05826	-1.55947	0.42557
3886.000	0.07710	1.00854	-1.51403	0.45342
3887.000	0.09292	1.01252	-1.53379	0.39973
3888.000	0.03756	0.99462	-1.55354	0.42160
3889.000	0.08501	1.00854	-1.56737	0.43353
3890.000	0.07513	1.00058	-1.54959	0.44148
3891.000	0.04547	1.00854	-1.57725	0.44546
3892.000	0.05733	0.99462	-1.55749	0.41961
3893.000	0.03756	0.98865	-1.54762	0.43154
3894.000	0.04349	0.97075	-1.59700	0.43551
3895.000	0.11269	1.01649	-1.58120	0.40966
3896.000	0.10280	1.00655	-1.56935	0.43551
3897.000	0.12060	1.04831	-1.58318	0.37784
3898.000	0.15421	1.01053	-1.52786	0.37586
3899.000	0.13246	1.01848	-1.55749	0.35398
3900.000	0.11269	1.04036	-1.51798	0.41166
3901.000	0.11071	1.00058	-1.52193	0.37189
3902.000	0.12257	1.02047	-1.47847	0.39974
3903.000	0.13246	1.03041	-1.51798	0.35996
3904.000	0.11664	1.03240	-1.51403	0.38780
3905.000	0.07117	1.06820	-1.47254	0.44548
3906.000	0.13444	1.04831	-1.48637	0.37189
3907.000	0.10676	1.08013	-1.46464	0.40173
3908.000	0.12653	1.05030	-1.48440	0.41366
3909.000	0.12060	1.06820	-1.45476	0.42361
3910.000	0.10676	1.04831	-1.45674	0.41565
3911.000	0.16804	1.08411	-1.48637	0.34008
3912.000	0.13246	1.07814	-1.46859	0.37587
3913.000	0.12850	1.10996	-1.51206	0.35996
3914.000	0.11467	1.08610	-1.49823	0.33610
3915.000	0.10874	1.11394	-1.48045	0.33212
3916.000	0.09094	1.10201	-1.45476	0.30428
3917.000	0.11467	1.03042	-1.52193	0.32416
3918.000	0.07513	1.07218	-1.48242	0.32218
3919.000	0.12653	1.06025	-1.50218	0.24660
3920.000	0.09687	1.10002	-1.51403	0.30427
3921.000	0.11269	1.05826	-1.49230	0.28439
3922.000	0.11664	1.06025	-1.51403	0.26848
3923.000	0.15223	1.10400	-1.46069	0.30428
3924.000	0.10478	1.07218	-1.48835	0.28439
3925.000	0.13839	1.14377	-1.46069	0.26252
3926.000	0.19572	1.09405	-1.49428	0.26450
3927.000	0.16014	1.15371	-1.49230	0.26251
3928.000	0.16211	1.14178	-1.43698	0.24064
3929.000	0.16804	1.20144	-1.47649	0.25257
3930.000	0.18188	1.17360	-1.47847	0.21280
3931.000	0.18188	1.17360	-1.48835	0.24263
3932.000	0.20363	1.16564	-1.46662	0.21877
3933.000	0.21945	1.20939	-1.46069	0.24064
3934.000	0.21945	1.24121	-1.46266	0.18695
3935.000	0.20956	1.26308	-1.42315	0.19490
3936.000	0.24317	1.22331	-1.40932	0.22673
3937.000	0.24712	1.25711	-1.39746	0.19491
3938.000	0.24317	1.24319	-1.43896	0.19092
3939.000	0.22538	1.22530	-1.38758	0.23667
3940.000	0.22538	1.23723	-1.40142	0.20684
3941.000	0.22933	1.29489	-1.40142	0.23269
3942.000	0.23526	1.23524	-1.42710	0.16308
3943.000	0.24515	1.23524	-1.42513	0.19689
3944.000	0.24712	1.29887	-1.38166	0.16905
3945.000	0.26492	1.30284	-1.40537	0.20684
3946.000	0.24712	1.35653	-1.41722	0.18297
3947.000	0.21945	1.32870	-1.40932	0.22673
3948.000	0.22933	1.33068	-1.35795	0.20684
3949.000	0.18584	1.35852	-1.39154	0.22474
3950.000	0.26492	1.32074	-1.38956	0.19292
3951.000	0.20956	1.31279	-1.42513	0.19689
3952.000	0.22933	1.29092	-1.41525	0.18496
3953.000	0.20956	1.32074	-1.42315	0.18695
3954.000	0.19770	1.33864	-1.41920	0.16507
3955.000	0.18781	1.37045	-1.40339	0.19888
3956.000	0.20561	1.29291	-1.40142	0.17104
3957.000	0.23724	1.30285	-1.39154	0.20087
3958.000	0.23922	1.30483	-1.40932	0.19093
3959.000	0.23724	1.34659	-1.40537	0.18297
3960.000	0.28271	1.32869	-1.38561	0.15314
3961.000	0.28271	1.37840	-1.42117	0.15911
3962.000	0.22142	1.34858	-1.38561	0.18099
3963.000	0.26294	1.33863	-1.40932	0.14916
3964.000	0.21549	1.34659	-1.42315	0.15115
3965.000	0.20363	1.33466	-1.41327	0.18098
3966.000	0.23131	1.31875	-1.39154	0.18297
3967.000	0.23922	1.33267	-1.40142	0.17104
3968.000	0.20758	1.33069	-1.42117	0.17899
3969.000	0.21154	1.30285	-1.39746	0.19491
3970.000	0.24910	1.32869	-1.38166	0.16110
3971.000	0.29457	1.40822	-1.40537	0.19093
3972.000	0.21549	1.35454	-1.40932	0.15712
3973.000	0.21154	1.37642	-1.39944	0.17303
3974.000	0.23526	1.38834	-1.42710	0.17700
3975.000	0.23131	1.37244	-1.45081	0.19888
3976.000	0.20165	1.37642	-1.37375	0.17701
3977.000	0.21352	1.38238	-1.40932	0.23468
3978.000	0.22735	1.37244	-1.49230	0.24859
3979.000	0.22142	1.39232	-1.46464	0.21479
3980.000	0.14827	1.36648	-1.49230	0.19490
3981.000	0.12060	1.32671	-1.48637	0.23467
3982.000	0.17793	1.37841	-1.52193	0.23467
3983.000	0.18584	1.39232	-1.52589	0.24064
3984.000	0.26492	1.42612	-1.51601	0.22075
3985.000	0.34993	1.47183	-1.44093	0.32019
3986.000	0.51005	1.52349	-1.38956	0.31225
3987.000	0.57924	1.55528	-1.29472	0.35601
3988.000	0.71564	1.56518	-1.16825	0.43758
3989.000	0.77889	1.56118	-1.05758	0.51317
3990.000	0.92120	1.63665	-0.92713	0.57286
3991.000	1.08327	1.64849	-0.73738	0.63455
3992.000	1.18998	1.69017	-0.53773	0.65049
3993.000	1.29867	1.72785	-0.38353	0.76786
3994.000	1.47847	1.79130	-0.19177	0.73605
3995.000	1.56145	1.86275	-0.11467	0.75395
3996.000	1.67404	1.90437	-0.03559	0.80567
3997.000	1.75108	1.97579	0.05536	0.82357
3998.000	1.81231	2.03531	0.14630	0.84744
3999.000	1.81626	2.07899	0.10083	0.93296
4000.000	1.85773	2.18220	0.11664	0.97075
4001.000	1.87156	2.20998	0.06722	0.97672
4002.000	1.84588	2.24376	0.00198	1.02644
4003.000	1.81428	2.31329	-0.06129	0.95683
4004.000	1.73330	2.26971	-0.13839	0.98268
4005.000	1.70762	2.33526	-0.23724	0.97472
4006.000	1.65429	2.32539	-0.34399	1.00653
4007.000	1.62664	2.31351	-0.44482	1.00453
4008.000	1.55749	2.29771	-0.48435	0.99259
4009.000	1.52391	2.30966	-0.56145	0.97468
4010.000	1.51601	2.25605	-0.60889	0.95280
4011.000	1.46859	2.24220	-0.65831	0.96472
4012.000	1.47452	2.18858	-0.64843	0.92097
4013.000	1.47452	2.23227	-0.66227	0.95080
4014.000	1.45279	2.17867	-0.60099	0.94087
4015.000	1.45476	2.18860	-0.65238	0.90307
4016.000	1.45871	2.20448	-0.60099	0.97865
4017.000	1.50810	2.19450	-0.52389	0.92099
4018.000	1.54564	2.18851	-0.50412	0.94884
4019.000	1.53774	2.19249	-0.45470	0.95481
4020.000	1.58318	2.20634	-0.41714	0.96874
4021.000	1.56737	2.14480	-0.39144	0.93294
4022.000	1.57330	2.19444	-0.37563	0.94885
4023.000	1.62269	2.22417	-0.35586	0.96676
4024.000	1.61083	2.20433	-0.36179	0.97869
4025.000	1.59503	2.25200	-0.36376	0.96676
4026.000	1.58713	2.22619	-0.37563	0.98863
4027.000	1.58120	2.22620	-0.36772	0.93891
4028.000	1.60491	2.22617	-0.37760	0.94289
4029.000	1.59108	2.24009	-0.36574	0.94289
4030.000	1.61083	2.22418	-0.41121	1.02045
4031.000	1.57132	2.25004	-0.41121	1.01647
4032.000	1.62861	2.20232	-0.41912	0.96874
4033.000	1.60886	2.25000	-0.40133	1.03039
4034.000	1.59305	2.20832	-0.41516	0.99658
4035.000	1.59700	2.24604	-0.44877	1.00254
4036.000	1.58515	2.26988	-0.45865	0.96277
4037.000	1.63849	2.26585	-0.39144	0.98465
4038.000	1.60886	2.24404	-0.40133	0.97471
4039.000	1.62466	2.30557	-0.42900	1.02044
4040.000	1.58120	2.26988	-0.39935	0.98863
4041.000	1.59305	2.26193	-0.43691	0.98862
4042.000	1.59108	2.26392	-0.40923	1.00653
4043.000	1.61281	2.22617	-0.40726	1.02442
4044.000	1.62664	2.22814	-0.43889	1.04232
4045.000	1.64441	2.27974	-0.44086	1.03834
4046.000	1.63651	2.25592	-0.44877	1.03039
4047.000	1.64837	2.25591	-0.42109	1.01448
4048.000	1.64244	2.29960	-0.46261	0.99260
4049.000	1.66219	2.27773	-0.45668	1.06419
4050.000	1.67009	2.32537	-0.43691	0.97669
4051.000	1.67602	2.33132	-0.41319	1.01050
4052.000	1.66417	2.31943	-0.45668	1.01447
4053.000	1.65824	2.34127	-0.43691	1.00652
4054.000	1.68590	2.37697	-0.42505	0.97073
4055.000	1.68392	2.37896	-0.39539	0.98664
4056.000	1.67997	2.32933	-0.38946	1.01051
4057.000	1.70170	2.36107	-0.38551	1.02642
4058.000	1.70960	2.37099	-0.36574	1.00454
4059.000	1.67009	2.35118	-0.34004	1.02642
4060.000	1.70367	2.38092	-0.33213	1.01847
4061.000	1.71158	2.32135	-0.35190	1.03239
4062.000	1.72935	2.33523	-0.34202	1.01250
4063.000	1.69775	2.35314	-0.33411	1.02046
4064.000	1.69182	2.28564	-0.35388	1.01846
4065.000	1.69577	2.25784	-0.32422	1.02245
4066.000	1.66417	2.26582	-0.34399	1.03239
4067.000	1.69380	2.24196	-0.38749	0.99261
4068.000	1.76293	2.23791	-0.35783	0.99858
4069.000	1.67009	2.22412	-0.42505	1.04431
4070.000	1.69577	2.27174	-0.42307	1.00454
4071.000	1.67009	2.22213	-0.43098	1.02840
4072.000	1.69577	2.22012	-0.43691	1.01647
4073.000	1.66812	2.23206	-0.44679	0.99459
4074.000	1.60688	2.24007	-0.46063	0.98862
4075.000	1.61281	2.19241	-0.40923	1.05624
4076.000	1.62071	2.20431	-0.45272	1.03635
4077.000	1.66417	2.22412	-0.46854	1.09800
4078.000	1.67009	2.17050	-0.42109	1.07613
4079.000	1.67602	2.19234	-0.43691	1.02243
4080.000	1.71355	2.20024	-0.43889	1.06618
4081.000	1.67800	2.18042	-0.42702	1.06420
4082.000	1.69380	2.19033	-0.42109	1.05227
4083.000	1.73133	2.18632	-0.39539	1.07414
4084.000	1.69972	2.19231	-0.35586	1.09801
4085.000	1.77873	2.20413	-0.35388	1.10995
4086.000	1.77873	2.21605	-0.31039	1.10796
4087.000	1.72343	2.20817	-0.33806	1.05426
4088.000	1.74120	2.19227	-0.32620	1.13580
4089.000	1.71948	2.15853	-0.34795	1.14375
4090.000	1.74910	2.16446	-0.30446	1.12387
4091.000	1.77873	2.18428	-0.31632	1.10995
4092.000	1.73725	2.16050	-0.37563	1.10994
4093.000	1.74713	2.19424	-0.35981	1.12387
4094.000	1.70170	2.14862	-0.38946	1.11988
4095.000	1.70565	2.13869	-0.37958	1.15767
4096.000	1.67207	2.15263	-0.37365	1.14972
4097.000	1.73330	2.13866	-0.38946	1.15966
4098.000	1.69182	2.11091	-0.40726	1.15568
4099.000	1.63059	2.03947	-0.39144	1.14971
4100.000	1.59700	2.08320	-0.40133	1.17159
4101.000	1.63059	2.05536	-0.40133	1.15767
4102.000	1.61281	2.02162	-0.39935	1.15568
4103.000	1.62269	2.02955	-0.41912	1.12783
4104.000	1.65034	2.01165	-0.40330	1.16363
4105.000	1.66417	2.02951	-0.38946	1.15170
4106.000	1.73133	1.95992	-0.34993	1.11591
4107.000	1.73133	1.98574	-0.34202	1.11392
4108.000	1.75108	1.98374	-0.31039	1.09205
4109.000	1.72343	1.98178	-0.28864	1.07416
4110.000	1.73133	1.95992	-0.25305	1.16961
4111.000	1.73725	2.00163	-0.30248	1.11393
4112.000	1.73528	1.93609	-0.30050	1.10597
4113.000	1.69380	2.01359	-0.31434	1.15569
4114.000	1.69972	2.03543	-0.30248	1.14575
4115.000	1.68195	1.98778	-0.29852	1.14177
4116.000	1.68195	1.99175	-0.35586	1.12188
4117.000	1.66614	1.95205	-0.35981	1.10597
4118.000	1.61676	1.93819	-0.36179	1.14375
4119.000	1.65034	1.94213	-0.36376	1.14375
4120.000	1.64441	1.91631	-0.39737	1.13778
4121.000	1.65429	1.88849	-0.39144	1.13579
4122.000	1.64837	1.94809	-0.41516	1.13977
4123.000	1.63256	1.92824	-0.41319	1.12784
4124.000	1.63059	1.97592	-0.38749	1.14176
4125.000	1.61676	1.99381	-0.36179	1.12585
4126.000	1.62071	1.95408	-0.40528	1.12386
4127.000	1.62071	1.90243	-0.38946	1.09602
4128.000	1.62269	1.96599	-0.37563	1.17358
4129.000	1.66022	1.99773	-0.38749	1.13182
4130.000	1.63849	1.96598	-0.35783	1.08807
4131.000	1.72738	1.97582	-0.33609	1.09603
4132.000	1.69972	1.97386	-0.31434	1.10398
4133.000	1.72343	1.93411	-0.33213	1.15768
4134.000	1.69972	1.93414	-0.31434	1.15171
4135.000	1.67404	1.92423	-0.29655	1.16166
4136.000	1.68787	1.89442	-0.31434	1.12387
4137.000	1.69577	1.93811	-0.30050	1.10796
4138.000	1.70170	1.92619	-0.29852	1.16762
4139.000	1.67997	1.85073	-0.31039	1.12586
4140.000	1.67009	1.86265	-0.37563	1.16165
4141.000	1.65627	1.87061	-0.32620	1.17756
4142.000	1.70170	1.88249	-0.31236	1.15569
4143.000	1.67800	1.89244	-0.36179	1.12784
4144.000	1.70170	1.89043	-0.38749	1.11392
4145.000	1.70367	1.89242	-0.35981	1.12188
4146.000	1.68787	1.95004	-0.37760	1.13977
4147.000	1.67997	1.88052	-0.39144	1.18750
4148.000	1.65232	1.89445	-0.42702	1.15567
4149.000	1.69775	1.88845	-0.42307	1.12187
4150.000	1.66614	1.89245	-0.38946	1.12983
4151.000	1.67207	1.90635	-0.40923	1.14573
4152.000	1.66614	1.85273	-0.43889	1.11192
4153.000	1.67009	1.89046	-0.45272	1.16760
4154.000	1.60491	1.80709	-0.42702	1.17357
4155.000	1.63256	1.82693	-0.41516	1.16960
4156.000	1.66614	1.88451	-0.42505	1.14772
4157.000	1.65232	1.82691	-0.38749	1.15966
4158.000	1.63454	1.81700	-0.43098	1.12982
4159.000	1.62466	1.82694	-0.43493	1.15965
4160.000	1.64244	1.81500	-0.43296	1.12982
4161.000	1.59898	1.84484	-0.43098	1.15965
4162.000	1.62466	1.86270	-0.41319	1.14971
4163.000	1.64046	1.85672	-0.36179	1.13381
4164.000	1.65232	1.85075	-0.38946	1.17755
4165.000	1.60688	1.84285	-0.39737	1.18153
4166.000	1.63059	1.81303	-0.41516	1.14772
4167.000	1.62664	1.83687	-0.41121	1.19942
4168.000	1.63454	1.82097	-0.41319	1.18948
4169.000	1.67207	1.86067	-0.39737	1.18551
4170.000	1.66614	1.86067	-0.40330	1.14772
4171.000	1.67207	1.85272	-0.40726	1.19346
4172.000	1.63454	1.83090	-0.40133	1.18551
4173.000	1.68195	1.84675	-0.39342	1.20937
4174.000	1.70762	1.85666	-0.38551	1.18551
4175.000	1.67602	1.87059	-0.41912	1.18550
4176.000	1.63651	1.87262	-0.38353	1.17755
4177.000	1.67404	1.88053	-0.40133	1.16562
4178.000	1.63849	1.84878	-0.36574	1.17557
4179.000	1.64639	1.89645	-0.37167	1.13977
4180.000	1.69577	1.88249	-0.38156	1.19147
4181.000	1.65627	1.88849	-0.39539	1.16562
4182.000	1.66614	1.88252	-0.41121	1.16363
4183.000	1.67404	1.87258	-0.40330	1.16761
4184.000	1.66219	1.90438	-0.39935	1.23721
4185.000	1.68787	1.87058	-0.39737	1.19346
4186.000	1.66219	1.85670	-0.38353	1.16761
4187.000	1.65824	1.85869	-0.40923	1.21136
4188.000	1.66219	1.87855	-0.42702	1.17556
4189.000	1.68590	1.88648	-0.41912	1.18550
4190.000	1.65429	1.88452	-0.43889	1.15766
4191.000	1.65429	1.88055	-0.39737	1.20539
4192.000	1.67009	1.89046	-0.39935	1.21335
4193.000	1.69972	1.95797	-0.40528	1.20340
4194.000	1.67602	1.92423	-0.40726	1.15767
4195.000	1.67207	1.92423	-0.39144	1.22130
4196.000	1.67800	1.90833	-0.34993	1.21932
4197.000	1.65232	1.91829	-0.41319	1.18153
4198.000	1.68392	1.93812	-0.40528	1.21732
4199.000	1.70762	1.94009	-0.41516	1.19744
4200.000	1.66614	1.92622	-0.39935	1.25113
4201.000	1.66022	1.92027	-0.41714	1.27697
4202.000	1.70960	1.90036	-0.40133	1.25709
4203.000	1.68195	1.89244	-0.40726	1.23919
4204.000	1.68787	1.90038	-0.41714	1.23919
4205.000	1.66022	1.93417	-0.39935	1.19147
4206.000	1.67207	1.92622	-0.40330	1.23721
4207.000	1.67602	1.91032	-0.44679	1.25510
4208.000	1.66417	1.92027	-0.39342	1.24516
4209.000	1.69380	1.95202	-0.44482	1.22527
4210.000	1.65429	1.87459	-0.43889	1.22328
4211.000	1.67602	1.90436	-0.41319	1.22329
4212.000	1.67207	1.89444	-0.39539	1.21335
4213.000	1.64441	1.93618	-0.41121	1.21136
4214.000	1.66614	1.95006	-0.45865	1.22726
4215.000	1.65824	1.93815	-0.42505	1.22328
4216.000	1.61083	1.92230	-0.40330	1.20340
4217.000	1.60491	1.92231	-0.43493	1.20737
4218.000	1.62861	1.93222	-0.44877	1.22527
4219.000	1.65034	1.88651	-0.41121	1.20738
4220.000	1.60886	1.89847	-0.42307	1.18749
4221.000	1.60688	1.96402	-0.44086	1.20340
4222.000	1.61478	1.89052	-0.49424	1.20339
4223.000	1.58713	1.90643	-0.44284	1.22328
4224.000	1.61281	1.91634	-0.45865	1.21334
4225.000	1.61478	1.89052	-0.46459	1.23720
4226.000	1.59503	1.91437	-0.44482	1.22527
4227.000	1.61281	1.91833	-0.46459	1.23919
4228.000	1.61873	1.98387	-0.50412	1.18748
4229.000	1.58318	1.93623	-0.42505	1.24516
4230.000	1.62664	1.94017	-0.48633	1.24117
4231.000	1.60688	1.92231	-0.43691	1.20539
4232.000	1.63256	1.96797	-0.43098	1.22726
4233.000	1.58120	1.94220	-0.43296	1.23323
4234.000	1.59898	1.97992	-0.47842	1.20140
4235.000	1.58318	1.95610	-0.46063	1.22726
4236.000	1.53971	1.93429	-0.47842	1.20538
4237.000	1.60096	1.94218	-0.42307	1.22328
4238.000	1.57527	1.94021	-0.43691	1.24118
4239.000	1.56342	1.91837	-0.48435	1.23918
4240.000	1.54169	1.97997	-0.46261	1.24913
4241.000	1.54367	1.94819	-0.41714	1.24914
4242.000	1.54169	1.92833	-0.39737	1.23920
4243.000	1.55354	1.93030	-0.41516	1.27101
4244.000	1.54959	1.95414	-0.39342	1.25510
4245.000	1.50218	1.92240	-0.44086	1.25311
4246.000	1.49625	1.95618	-0.40726	1.24715
4247.000	1.51206	1.96212	-0.43296	1.25510
4248.000	1.54564	1.91640	-0.43691	1.25709
4249.000	1.51996	1.95616	-0.43098	1.24913
4250.000	1.52193	1.94424	-0.41714	1.25908
4251.000	1.46069	1.94628	-0.46063	1.22924
4252.000	1.51008	1.92041	-0.45470	1.24316
4253.000	1.51798	1.90451	-0.46459	1.21930
4254.000	1.49428	1.93036	-0.45470	1.17953
4255.000	1.49625	1.95221	-0.49226	1.22526
4256.000	1.48637	1.94824	-0.45470	1.19942
4257.000	1.51601	1.93034	-0.45865	1.19146
4258.000	1.54169	1.97203	-0.46656	1.16760
4259.000	1.48242	1.96215	-0.52389	1.18350
4260.000	1.53576	1.97203	-0.53575	1.18548
4261.000	1.54367	1.95216	-0.50808	1.20935
4262.000	1.57330	2.00775	-0.51796	1.22724
4263.000	1.56145	2.01372	-0.52982	1.19742
4264.000	1.58318	2.00576	-0.52389	1.18549
4265.000	1.57725	2.01569	-0.52982	1.20338
4266.000	1.58910	1.98390	-0.51203	1.22327
4267.000	1.62466	2.00770	-0.51401	1.20140
4268.000	1.58713	2.02363	-0.51401	1.18748
4269.000	1.55354	1.99784	-0.51598	1.21333
4270.000	1.59898	2.01170	-0.51796	1.25309
4271.000	1.57725	2.01172	-0.48435	1.24117
4272.000	1.59700	2.01965	-0.50215	1.22128
4273.000	1.61873	2.07722	-0.48831	1.20538
4274.000	1.56540	2.08323	-0.50808	1.24912
4275.000	1.59305	2.03753	-0.51203	1.13180
4276.000	1.56935	2.05542	-0.46261	1.17754
4277.000	1.55552	2.09913	-0.49819	1.17555
4278.000	1.57132	2.09912	-0.48435	1.14373
4279.000	1.56935	2.13089	-0.46261	1.17357
4280.000	1.54367	2.08524	-0.44679	1.17556
4281.000	1.51996	2.07931	-0.47052	1.23322
4282.000	1.43500	2.04363	-0.47645	1.17555
4283.000	1.44883	2.06150	-0.56145	1.18548
4284.000	1.42513	2.10720	-0.63064	1.09001
4285.000	1.34016	2.09536	-0.68796	1.04625
4286.000	1.21765	2.10539	-0.69982	1.04824
4287.000	1.08524	2.12535	-0.72750	1.01244
4288.000	0.96073	2.11153	-0.78087	1.02634
4289.000	0.82238	2.14935	-0.91923	0.98654
4290.000	0.68796	2.03419	-1.02003	0.94872
4291.000	0.61285	2.03621	-1.12082	0.92881
4292.000	0.45470	1.96473	-1.16034	0.89101
4293.000	0.33213	1.94688	-1.23741	0.83929
4294.000	0.24515	1.85945	-1.27298	0.82734
4295.000	0.21945	1.82368	-1.33028	0.78954
4296.000	0.19572	1.77201	-1.38363	0.77958
4297.000	0.20956	1.81176	-1.39944	0.76964
4298.000	0.20363	1.76009	-1.39944	0.76964
4299.000	0.19375	1.73425	-1.37573	0.70800
4300.000	0.27678	1.77001	-1.36387	0.74380
4301.000	0.29852	1.74417	-1.28088	0.77365
4302.000	0.36772	1.73025	-1.23346	0.71599
4303.000	0.39144	1.71633	-1.19987	0.74583
4304.000	0.49622	1.72227	-1.16627	0.75579
4305.000	0.55552	1.71033	-1.06548	0.74786
4306.000	0.62075	1.74608	-1.04769	0.71007
4307.000	0.66820	1.71824	-1.02398	0.74190
4308.000	0.73145	1.73412	-1.01014	0.76975
4309.000	0.73936	1.75598	-0.95283	0.71009
4310.000	0.74133	1.75995	-0.96271	0.73396
4311.000	0.73145	1.78778	-0.94097	0.72402
4312.000	0.72750	1.77387	-0.98840	0.71208
4313.000	0.71959	1.76592	-0.97062	0.73197
4314.000	0.71168	1.77189	-0.97852	0.75384
4315.000	0.67017	1.82556	-1.01607	0.76378
4316.000	0.63657	1.79775	-1.04572	0.75582
4317.000	0.57727	1.77193	-1.07932	0.73194
4318.000	0.58122	1.81168	-1.04967	0.74388
4319.000	0.56540	1.82162	-1.11884	0.75580
4320.000	0.55947	1.82560	-1.11291	0.74188
4321.000	0.56738	1.82361	-1.13070	0.73989
4322.000	0.55354	1.82361	-1.12082	0.71205
4323.000	0.52191	1.78586	-1.12477	0.75381
4324.000	0.52389	1.79779	-1.09513	0.73393
4325.000	0.56738	1.82162	-1.12477	0.76375
4326.000	0.53971	1.81169	-1.08920	0.75382
4327.000	0.53180	1.80176	-1.10698	0.74586
4328.000	0.51994	1.79580	-1.07932	0.71404
4329.000	0.57529	1.82361	-1.09513	0.73194
4330.000	0.54168	1.82759	-1.05758	0.71206
4331.000	0.53971	1.79778	-1.09513	0.71603
4332.000	0.54168	1.82163	-1.05955	0.74388
4333.000	0.58320	1.82758	-1.07536	0.72001
4334.000	0.56936	1.80175	-1.07932	0.68222
4335.000	0.60889	1.79975	-1.08327	0.73393
4336.000	0.59703	1.82360	-1.07339	0.69814
4337.000	0.60296	1.80372	-1.09710	0.72001
4338.000	0.60296	1.82360	-1.04572	0.67030
4339.000	0.54366	1.82759	-1.09908	0.65040
4340.000	0.53378	1.80573	-1.04769	0.67229
4341.000	0.55157	1.80175	-1.04967	0.67825
4342.000	0.58122	1.79976	-1.08722	0.65836
4343.000	0.58913	1.79578	-1.08920	0.66233
4344.000	0.54959	1.80771	-1.10303	0.65239
4345.000	0.57727	1.76995	-1.08524	0.64046
4346.000	0.58715	1.80969	-1.10501	0.63648
4347.000	0.57133	1.83354	-1.08327	0.62057
4348.000	0.60296	1.83552	-1.06153	0.68024
4349.000	0.55947	1.80771	-1.09315	0.60665
4350.000	0.60889	1.83751	-1.08327	0.66432
4351.000	0.63064	1.84545	-1.09315	0.66830
4352.000	0.58320	1.82956	-1.06746	0.64046
4353.000	0.60494	1.80372	-1.09117	0.62455
4354.000	0.65831	1.85537	-1.06943	0.62057
4355.000	0.60889	1.82757	-1.06351	0.62654
4356.000	0.59506	1.85937	-1.06351	0.64444
4357.000	0.64448	1.86730	-1.10896	0.61261
4358.000	0.61878	1.85737	-1.09710	0.63051
4359.000	0.64448	1.85538	-1.09513	0.61062
4360.000	0.64843	1.84942	-1.06943	0.64046
4361.000	0.68401	1.86133	-1.09710	0.61261
4362.000	0.66029	1.82358	-1.11687	0.58079
4363.000	0.64448	1.84544	-1.09710	0.61062
4364.000	0.68401	1.83947	-1.11884	0.62852
4365.000	0.67413	1.83351	-1.11094	0.63647
4366.000	0.65238	1.84743	-1.04769	0.57483
4367.000	0.69785	1.85337	-1.11291	0.57880
