time (ms)	lx (deg)	ly (deg)	rx (deg)	ry (deg)
0.000	2.45591	1.75848	0.20165	0.65847
1.000	2.39868	1.74466	0.27876	0.68830
2.000	2.42039	1.76250	0.17200	0.68632
3.000	2.43618	1.76049	0.21154	0.70024
4.000	2.42433	1.74859	0.21747	0.68433
5.000	2.42236	1.72278	0.17002	0.67041
6.000	2.44210	1.75254	0.16804	0.61471
7.000	2.44012	1.74262	0.23329	0.63659
8.000	2.43025	1.73071	0.20956	0.72013
9.000	2.47367	1.78824	0.23131	0.61471
10.000	2.43618	1.77439	0.22933	0.62664
11.000	2.41447	1.76052	0.23922	0.64256
12.000	2.46380	1.70684	0.20165	0.52718
13.000	2.46183	1.76245	0.24515	0.63460
14.000	2.39473	1.74665	0.25701	0.63659
15.000	2.44999	1.73665	0.21945	0.58686
16.000	2.46578	1.74060	0.21747	0.57691
17.000	2.43618	1.77241	0.19968	0.57492
18.000	2.41052	1.72875	0.21945	0.60874
19.000	2.44407	1.72672	0.20561	0.59879
20.000	2.43618	1.78631	0.18386	0.53713
21.000	2.40460	1.75458	0.27480	0.63261
22.000	2.48354	1.75249	0.21549	0.57890
23.000	2.45591	1.72870	0.20956	0.59681
24.000	2.43815	1.72078	0.25108	0.57691
25.000	2.41644	1.74066	0.20561	0.52320
26.000	2.46972	1.73265	0.21549	0.54707
27.000	2.43025	1.70490	0.20956	0.58089
28.000	2.41447	1.74265	0.22142	0.54111
29.000	2.41249	1.73074	0.24119	0.60078
30.000	2.45394	1.76047	0.19968	0.58686
31.000	2.39671	1.75856	0.20363	0.58288
32.000	2.44604	1.72076	0.23724	0.58686
33.000	2.39078	1.68310	0.21747	0.57691
34.000	2.44802	1.73466	0.19968	0.56498
35.000	2.48354	1.70483	0.21154	0.61670
36.000	2.43025	1.74462	0.22340	0.58089
37.000	2.45788	1.76245	0.22340	0.50132
38.000	2.44012	1.70687	0.20561	0.55105
39.000	2.43618	1.76645	0.25899	0.54906
40.000	2.44604	1.74261	0.21747	0.54111
41.000	2.42433	1.71881	0.25899	0.59084
42.000	2.45394	1.71083	0.20956	0.56896
43.000	2.39671	1.75062	0.25305	0.58487
44.000	2.41644	1.73868	0.19968	0.51127
45.000	2.41249	1.70889	0.20561	0.56896
46.000	2.44210	1.73864	0.25701	0.54707
47.000	2.43420	1.73667	0.22735	0.53514
48.000	2.50722	1.72863	0.23131	0.52519
49.000	2.43223	1.69099	0.22538	0.55901
50.000	2.46578	1.75450	0.19375	0.56498
51.000	2.44604	1.73864	0.22340	0.53912
52.000	2.41052	1.70294	0.23526	0.52121
53.000	2.45394	1.69097	0.23131	0.59879
54.000	2.43223	1.73667	0.20956	0.53713
55.000	2.45986	1.76841	0.28469	0.52519
56.000	2.48551	1.74256	0.23329	0.59482
57.000	2.47762	1.74654	0.24515	0.51326
58.000	2.41447	1.72081	0.23922	0.49137
59.000	2.43420	1.74461	0.20363	0.53514
60.000	2.44802	1.74261	0.22538	0.49734
61.000	2.42828	1.77838	0.27678	0.47148
62.000	2.45788	1.74061	0.23131	0.51525
63.000	2.45394	1.79621	0.26294	0.54111
64.000	2.45591	1.79621	0.26887	0.55901
65.000	2.47170	1.75250	0.25305	0.54309
66.000	2.44999	1.77239	0.24712	0.60078
67.000	2.42039	1.79626	0.25305	0.55304
68.000	2.47762	1.83986	0.23329	0.53912
69.000	2.43420	1.77638	0.23724	0.62067
70.000	2.43025	1.78036	0.22933	0.59482
71.000	2.44210	1.82204	0.25701	0.54111
72.000	2.44407	1.74658	0.25503	0.60277
73.000	2.46183	1.83393	0.25108	0.61471
74.000	2.45788	1.77238	0.22142	0.63062
75.000	2.46578	1.90342	0.24515	0.64057
76.000	2.44210	1.84388	0.28073	0.60277
77.000	2.40065	1.87372	0.23526	0.73803
78.000	2.47762	1.81802	0.20956	0.66643
79.000	2.42631	1.86178	0.21352	0.71019
80.000	2.43420	1.82801	0.24910	0.70024
81.000	2.41249	1.79230	0.22538	0.70422
82.000	2.40657	1.84393	0.23526	0.69228
83.000	2.40460	1.88762	0.17991	0.67836
84.000	2.38289	1.87176	0.17200	0.69825
85.000	2.42631	1.84391	0.19177	0.66046
86.000	2.42236	1.86178	0.19375	0.68831
87.000	2.38289	1.83999	0.17595	0.66046
88.000	2.44210	1.87168	0.18386	0.67041
89.000	2.38092	1.84794	0.15816	0.73008
90.000	2.36710	1.86186	0.19177	0.64654
91.000	2.40460	1.87173	0.20561	0.72013
92.000	2.44407	1.86969	0.20561	0.61670
93.000	2.44210	1.88161	0.20165	0.70024
94.000	2.43025	1.84191	0.18584	0.70024
95.000	2.45394	1.88755	0.17200	0.68632
96.000	2.41052	1.92136	0.23131	0.71416
97.000	2.39078	1.90352	0.17002	0.73605
98.000	2.30986	1.91554	0.13444	0.72213
99.000	2.28026	1.92948	0.03756	0.66245
100.000	2.13812	1.95548	-0.07117	0.57493
101.000	1.97622	1.96760	-0.23329	0.55304
102.000	1.82218	1.88237	-0.41121	0.57690
103.000	1.64046	1.90042	-0.55157	0.52915
104.000	1.50613	1.94425	-0.68994	0.49134
105.000	1.35399	1.95034	-0.82435	0.57288
106.000	1.24136	1.97228	-0.87377	0.62657
107.000	1.18010	2.01007	-0.90144	0.65044
108.000	1.04967	1.95850	-1.04769	0.71405
109.000	1.02793	1.91679	-1.05758	0.75979
110.000	0.95480	1.97048	-1.11687	0.78762
111.000	0.97457	1.97444	-1.10698	0.77370
112.000	0.98050	1.92278	-1.12082	0.83336
113.000	1.05560	1.88300	-1.05955	0.81349
114.000	1.13070	1.88096	-0.94492	0.78169
115.000	1.22555	1.90673	-0.89946	0.83540
116.000	1.27891	1.89278	-0.83621	0.81155
117.000	1.31645	1.85699	-0.78482	0.75587
118.000	1.35399	1.91061	-0.73343	0.77378
119.000	1.42513	1.84698	-0.72552	0.81356
120.000	1.43500	1.94233	-0.76110	0.72604
121.000	1.46662	1.94627	-0.70773	0.78572
122.000	1.46069	2.02971	-0.76308	0.78372
123.000	1.46464	2.02772	-0.73145	0.77577
124.000	1.44291	2.05157	-0.75122	0.81952
125.000	1.40932	2.10920	-0.76308	0.80162
126.000	1.40339	2.08736	-0.81842	0.92889
127.000	1.40142	2.08935	-0.88167	0.91694
128.000	1.41129	2.13502	-0.95085	0.98056
129.000	1.43896	2.15287	-0.92713	1.00443
130.000	1.45279	2.22633	-0.98247	1.09787
131.000	1.45476	2.28392	-1.00817	1.09588
132.000	1.50613	2.39902	-1.02398	1.15552
133.000	1.55157	2.50418	-1.04769	1.33644
134.000	1.58713	2.43267	-1.06351	1.42589
135.000	1.82218	1.57047	-1.08129	1.39606
136.000	1.83206	1.98762	-1.14453	0.92880
137.000	1.80243	3.24367	-1.17022	0.96260
138.000	1.91698	4.80245	-1.16627	1.84518
139.000	1.98609	6.61908	-1.06351	3.17730
140.000	1.97029	8.91625	-1.04177	4.72335
141.000	1.78071	11.33138	-1.09513	6.48833
142.000	1.39549	13.62157	-1.20579	8.25443
143.000	1.04967	15.58624	-1.40734	10.13930
144.000	NaN	NaN	-1.56342	11.99827
145.000	NaN	NaN	-6.30674	13.53857
146.000	NaN	NaN	-7.88358	14.69700
147.000	NaN	NaN	NaN	NaN
148.000	NaN	NaN	NaN	NaN
149.000	NaN	NaN	NaN	NaN
150.000	NaN	NaN	NaN	NaN
151.000	NaN	NaN	NaN	NaN
152.000	NaN	NaN	NaN	NaN
153.000	NaN	NaN	NaN	NaN
154.000	NaN	NaN	NaN	NaN
155.000	NaN	NaN	NaN	NaN
156.000	NaN	NaN	NaN	NaN
157.000	NaN	NaN	NaN	NaN
158.000	NaN	NaN	NaN	NaN
159.000	NaN	NaN	NaN	NaN
160.000	NaN	NaN	NaN	NaN
161.000	NaN	NaN	NaN	NaN
162.000	NaN	NaN	NaN	NaN
163.000	NaN	NaN	NaN	NaN
164.000	NaN	NaN	NaN	NaN
165.000	NaN	NaN	NaN	NaN
166.000	NaN	NaN	NaN	NaN
167.000	NaN	NaN	NaN	NaN
168.000	NaN	NaN	NaN	NaN
169.000	NaN	NaN	NaN	NaN
170.000	NaN	NaN	NaN	NaN
171.000	NaN	NaN	NaN	NaN
172.000	NaN	NaN	NaN	NaN
173.000	NaN	NaN	NaN	NaN
174.000	NaN	NaN	NaN	NaN
175.000	NaN	NaN	NaN	NaN
176.000	NaN	NaN	NaN	NaN
177.000	NaN	NaN	NaN	NaN
178.000	NaN	NaN	NaN	NaN
179.000	NaN	NaN	NaN	NaN
180.000	NaN	NaN	NaN	NaN
181.000	NaN	NaN	NaN	NaN
182.000	NaN	NaN	NaN	NaN
183.000	NaN	NaN	NaN	NaN
184.000	NaN	NaN	NaN	NaN
185.000	NaN	NaN	NaN	NaN
186.000	NaN	NaN	NaN	NaN
187.000	NaN	NaN	NaN	NaN
188.000	NaN	NaN	NaN	NaN
189.000	NaN	NaN	NaN	NaN
190.000	NaN	NaN	NaN	NaN
191.000	NaN	NaN	NaN	NaN
192.000	NaN	NaN	NaN	NaN
193.000	NaN	NaN	NaN	NaN
194.000	NaN	NaN	NaN	NaN
195.000	NaN	NaN	NaN	NaN
196.000	NaN	NaN	NaN	NaN
197.000	NaN	NaN	NaN	NaN
198.000	NaN	NaN	NaN	NaN
199.000	NaN	NaN	NaN	NaN
200.000	NaN	NaN	NaN	NaN
201.000	NaN	NaN	NaN	NaN
202.000	NaN	NaN	NaN	NaN
203.000	NaN	NaN	NaN	NaN
204.000	NaN	NaN	NaN	NaN
205.000	NaN	NaN	NaN	NaN
206.000	NaN	NaN	NaN	NaN
207.000	NaN	NaN	NaN	NaN
208.000	NaN	NaN	NaN	NaN
209.000	NaN	NaN	NaN	NaN
210.000	NaN	NaN	NaN	NaN
211.000	NaN	NaN	NaN	NaN
212.000	NaN	NaN	NaN	NaN
213.000	NaN	NaN	NaN	NaN
214.000	NaN	NaN	NaN	NaN
215.000	NaN	NaN	NaN	NaN
216.000	NaN	NaN	NaN	NaN
217.000	NaN	NaN	NaN	NaN
218.000	NaN	NaN	NaN	NaN
219.000	NaN	NaN	NaN	NaN
220.000	NaN	NaN	NaN	NaN
221.000	NaN	NaN	NaN	NaN
222.000	NaN	NaN	NaN	NaN
223.000	NaN	NaN	NaN	NaN
224.000	NaN	NaN	NaN	NaN
225.000	NaN	NaN	NaN	NaN
226.000	NaN	NaN	NaN	NaN
227.000	NaN	NaN	NaN	NaN
228.000	NaN	NaN	NaN	NaN
229.000	NaN	NaN	NaN	NaN
230.000	NaN	NaN	NaN	NaN
231.000	NaN	NaN	NaN	NaN
232.000	NaN	NaN	NaN	NaN
233.000	NaN	NaN	NaN	NaN
234.000	NaN	NaN	NaN	NaN
235.000	NaN	NaN	NaN	NaN
236.000	NaN	NaN	NaN	NaN
237.000	NaN	NaN	NaN	NaN
238.000	NaN	NaN	NaN	NaN
239.000	NaN	NaN	NaN	NaN
240.000	NaN	NaN	NaN	NaN
241.000	NaN	NaN	NaN	NaN
242.000	NaN	NaN	NaN	NaN
243.000	NaN	NaN	NaN	NaN
244.000	NaN	NaN	NaN	NaN
245.000	NaN	NaN	NaN	NaN
246.000	NaN	NaN	NaN	NaN
247.000	NaN	NaN	NaN	NaN
248.000	NaN	NaN	NaN	NaN
249.000	NaN	NaN	NaN	NaN
250.000	NaN	NaN	NaN	NaN
251.000	NaN	NaN	NaN	NaN
252.000	NaN	NaN	NaN	NaN
253.000	NaN	NaN	NaN	NaN
254.000	NaN	NaN	NaN	NaN
255.000	NaN	NaN	NaN	NaN
256.000	NaN	NaN	NaN	NaN
257.000	NaN	NaN	NaN	NaN
258.000	NaN	NaN	NaN	NaN
259.000	NaN	NaN	NaN	NaN
260.000	NaN	NaN	NaN	NaN
261.000	NaN	NaN	NaN	NaN
262.000	1.60491	16.69306	NaN	NaN
263.000	2.16774	18.07120	NaN	NaN
264.000	3.02004	18.79830	NaN	NaN
265.000	3.50480	18.60458	NaN	NaN
266.000	4.37450	18.31159	NaN	NaN
267.000	4.51598	18.02004	-5.23433	14.33949
268.000	4.85769	17.60210	-3.10678	13.13423
269.000	4.96366	17.07938	-0.94492	11.26444
270.000	4.95385	16.51652	-1.00817	10.43539
271.000	4.99113	15.81909	-0.93702	9.59457
272.000	5.00290	15.12484	-0.93702	8.86007
273.000	4.80076	14.39699	-0.93504	8.09533
274.000	4.80468	13.75156	-0.85203	7.32393
275.000	4.28997	12.86491	-0.79075	6.59884
276.000	4.48455	12.16797	-0.70378	5.94839
277.000	4.34305	11.38700	-0.69587	5.31007
278.000	4.00677	10.56360	-0.61482	4.67050
279.000	3.80408	9.74292	-0.52389	4.04558
280.000	3.66825	9.03130	-0.49622	3.52269
281.000	3.52253	8.28752	-0.53180	3.14003
282.000	3.40631	7.63406	-0.50412	2.76108
283.000	3.13240	6.92859	-0.52784	2.34414
284.000	2.95300	6.17282	-0.51598	2.00644
285.000	2.82482	5.44586	-0.45668	1.63482
286.000	2.64335	4.74281	-0.43691	1.25907
287.000	2.50722	4.00431	-0.42109	0.98465
288.000	2.36908	3.30789	-0.41912	0.64055
289.000	2.33158	2.69941	-0.45668	0.55104
290.000	2.24670	2.17174	-0.45272	0.35211
291.000	2.21512	1.79255	-0.47052	0.35012
292.000	2.20525	1.39726	-0.48435	0.49932
293.000	2.13418	1.18670	-0.50610	0.66044
294.000	2.20525	0.90047	-0.56540	0.92695
295.000	2.14405	0.76138	-0.57331	1.04031
296.000	1.91303	1.09941	-0.51401	1.06418
297.000	1.89328	1.19880	-0.57331	1.05622
298.000	1.87156	1.62208	-0.51994	1.02242
299.000	1.86168	2.03525	-0.58715	0.94087
300.000	1.76095	2.24982	-0.59506	0.91899
301.000	1.74910	2.29749	-0.58913	0.88120
302.000	1.72738	2.40670	-0.58122	0.87524
303.000	1.69775	2.34718	-0.57529	0.83745
304.000	1.72935	2.35310	-0.58913	0.90308
305.000	1.72343	2.35112	-0.59703	0.88518
306.000	1.67009	2.34523	-0.61482	0.89313
307.000	1.68590	2.29955	-0.60692	0.82352
308.000	1.68590	2.21020	-0.59901	0.74794
309.000	1.64639	2.17649	-0.60889	0.80165
310.000	1.65034	2.24002	-0.60296	0.78772
311.000	1.63059	2.17055	-0.62075	0.77181
312.000	1.65627	2.23406	-0.58913	0.79170
313.000	1.67602	2.08312	-0.63459	0.80164
314.000	1.64244	2.14869	-0.61878	0.84938
315.000	1.66022	2.11888	-0.62273	0.83545
316.000	1.63454	2.16856	-0.61285	0.86927
317.000	1.68985	2.17048	-0.57331	0.82353
318.000	1.68392	2.16453	-0.61285	0.85137
319.000	1.67207	2.21816	-0.60099	0.87722
320.000	1.67009	2.19433	-0.56540	0.80961
321.000	1.65429	2.23009	-0.59506	0.80761
322.000	1.64046	2.24003	-0.64645	0.89909
323.000	1.66614	2.22015	-0.60494	0.88717
324.000	1.68195	2.22807	-0.59703	0.84540
325.000	1.59898	2.23412	-0.61482	0.92098
326.000	1.64441	2.23010	-0.60889	0.86927
327.000	1.65824	2.24796	-0.58517	0.83745
328.000	1.65034	2.23010	-0.65041	0.78573
329.000	1.61281	2.22617	-0.61878	0.86529
330.000	1.64046	2.23805	-0.63459	0.82949
331.000	1.60293	2.20036	-0.62866	0.81159
332.000	1.59898	2.22618	-0.62866	0.80363
333.000	1.60096	2.21824	-0.60494	0.83944
334.000	1.60293	2.19043	-0.60494	0.83347
335.000	1.63849	2.27578	-0.58320	0.81159
336.000	1.60491	2.26390	-0.60889	0.86728
337.000	1.58515	2.23017	-0.55947	0.77580
338.000	1.58713	2.23612	-0.61878	0.79966
339.000	1.60491	2.24603	-0.61087	0.84938
340.000	1.54564	2.21035	-0.62273	0.80164
341.000	1.58713	2.22421	-0.60692	0.78573
342.000	1.58120	2.21627	-0.59308	0.77380
343.000	1.58515	2.17655	-0.57133	0.79568
344.000	1.53576	2.22029	-0.56343	0.79767
345.000	1.57330	2.22224	-0.59110	0.76784
346.000	1.55947	2.21431	-0.54564	0.80364
347.000	1.59503	2.21030	-0.57331	0.75789
348.000	1.55749	2.19247	-0.55354	0.75591
349.000	1.57725	2.18252	-0.59901	0.83745
350.000	1.56935	2.17061	-0.59506	0.80960
351.000	1.54762	2.18056	-0.58122	0.76784
352.000	1.53576	2.15476	-0.52389	0.75591
353.000	1.54762	2.17063	-0.56145	0.77580
354.000	1.56935	2.09713	-0.56343	0.74596
355.000	1.56737	2.12494	-0.51994	0.79768
356.000	1.55749	2.21034	-0.50412	0.81558
357.000	1.55749	2.15275	-0.52587	0.77381
358.000	1.57330	2.17259	-0.50412	0.75989
359.000	1.53971	2.15674	-0.52784	0.80762
360.000	1.50218	2.16671	-0.50215	0.76387
361.000	1.53774	2.12298	-0.46656	0.77581
362.000	1.53379	2.12696	-0.49819	0.77183
363.000	1.54367	2.18255	-0.48238	0.81559
364.000	1.56145	2.15473	-0.52191	0.80564
365.000	1.56145	2.10707	-0.48040	0.80365
366.000	1.58713	2.16066	-0.51005	0.81359
367.000	1.61478	2.11893	-0.50215	0.84939
368.000	1.60096	2.15271	-0.53180	0.82751
369.000	1.60491	2.16064	-0.57331	0.82552
370.000	1.60688	2.11695	-0.55552	0.86928
371.000	1.58515	2.11698	-0.53773	0.83348
372.000	1.58910	2.08917	-0.55947	0.73999
373.000	1.59898	2.14278	-0.54761	0.82353
374.000	1.59700	2.09710	-0.57133	0.77381
375.000	1.55947	2.11303	-0.57133	0.81955
376.000	1.57132	2.06138	-0.51401	0.80564
377.000	1.54959	2.08126	-0.57727	0.78574
378.000	1.56145	2.15076	-0.53971	0.82751
379.000	1.59503	2.12094	-0.57529	0.77380
380.000	1.54762	2.12496	-0.54761	0.85337
381.000	1.58910	2.16066	-0.56145	0.77580
382.000	1.53971	2.08723	-0.57133	0.76585
383.000	1.55947	2.14679	-0.54761	0.80364
384.000	1.52589	2.15477	-0.54959	0.73204
385.000	1.54367	2.10907	-0.57133	0.69623
386.000	1.58515	2.11499	-0.51796	0.70420
387.000	1.51996	2.08725	-0.55750	0.76585
388.000	1.51008	2.09918	-0.58913	0.69623
389.000	1.56342	2.09118	-0.52784	0.73005
390.000	1.52786	2.13888	-0.51401	0.73602
391.000	1.54169	2.12496	-0.57133	0.75193
392.000	1.55157	2.14283	-0.50610	0.72011
393.000	1.49230	2.13494	-0.47842	0.73603
394.000	1.51008	2.13890	-0.53773	0.66640
395.000	1.51996	2.04753	-0.55552	0.76585
396.000	1.50415	2.10315	-0.53180	0.65049
397.000	1.50415	2.05946	-0.53378	0.68231
398.000	1.52589	2.10710	-0.49424	0.72210
399.000	1.55157	2.13290	-0.55157	0.72010
400.000	1.53181	2.12895	-0.47447	0.70022
401.000	1.52589	2.09320	-0.50412	0.70221
402.000	1.52391	2.14087	-0.49028	0.71812
403.000	1.50810	2.12301	-0.51401	0.71812
404.000	1.48242	2.12899	-0.44086	0.73802
405.000	1.50020	2.17068	-0.48238	0.64851
406.000	1.50415	2.15678	-0.49622	0.74199
407.000	1.52589	2.11505	-0.49028	0.72608
408.000	1.47452	2.10914	-0.50215	0.68033
409.000	1.51996	2.05746	-0.49424	0.69823
410.000	1.47649	2.08332	-0.48831	0.71216
411.000	1.51996	2.14484	-0.46063	0.66641
412.000	1.49032	2.15878	-0.50610	0.67834
413.000	1.48242	2.09722	-0.51401	0.66044
414.000	1.47649	2.10517	-0.45668	0.69227
415.000	1.47847	2.10516	-0.51598	0.70221
416.000	1.49823	2.11508	-0.47447	0.69624
417.000	1.48242	2.17070	-0.50412	0.66641
418.000	1.45081	2.06944	-0.48238	0.66442
419.000	1.51206	2.12301	-0.49622	0.73006
420.000	1.49428	2.12501	-0.45075	0.77979
421.000	1.49823	2.10515	-0.51005	0.68828
422.000	1.53379	2.10710	-0.46063	0.72807
423.000	1.49428	2.12501	-0.46656	0.71216
424.000	1.52391	2.10512	-0.46656	0.71216
425.000	1.49625	2.09323	-0.49028	0.75393
426.000	1.49032	2.08132	-0.49028	0.76785
427.000	1.46069	2.08532	-0.50610	0.71414
428.000	1.49625	2.04954	-0.46459	0.70221
429.000	1.47452	2.08729	-0.44482	0.66044
430.000	1.47057	2.05949	-0.49028	0.73801
431.000	1.46069	2.02176	-0.46261	0.75592
432.000	1.43698	2.06151	-0.46656	0.74597
433.000	1.48045	2.06544	-0.45668	0.78376
434.000	1.49823	2.09720	-0.49028	0.70619
435.000	1.49032	2.05351	-0.48633	0.75790
436.000	1.51206	2.09322	-0.48435	0.76586
437.000	1.50810	2.07137	-0.51005	0.72608
438.000	1.50415	2.04953	-0.53575	0.73403
439.000	1.46859	1.99990	-0.46261	0.69028
440.000	1.51601	1.98993	-0.48435	0.70022
441.000	1.47057	2.01182	-0.53773	0.72408
442.000	1.50613	2.01775	-0.49028	0.71613
443.000	1.51008	1.99391	-0.50610	0.71613
444.000	1.47057	2.01182	-0.44086	0.71017
445.000	1.48835	2.09721	-0.49226	0.77382
446.000	1.47452	2.04161	-0.47052	0.70818
447.000	1.47452	2.07538	-0.47645	0.67039
448.000	1.49428	2.03762	-0.50610	0.76984
449.000	1.48835	2.06543	-0.46459	0.69028
450.000	1.48637	2.06742	-0.51401	0.72608
451.000	1.50810	2.09322	-0.48238	0.70420
452.000	1.50218	2.06343	-0.50808	0.64850
453.000	1.51008	2.06144	-0.48831	0.69425
454.000	1.54367	2.08325	-0.47842	0.70420
455.000	1.47847	2.06941	-0.51203	0.66640
456.000	1.47847	2.05551	-0.48633	0.78774
457.000	1.50415	1.99193	-0.46854	0.73603
458.000	1.49625	2.01776	-0.44086	0.69028
459.000	1.46464	2.07737	-0.46261	0.68033
460.000	1.51403	2.04753	-0.44482	0.66641
461.000	1.49428	2.07536	-0.44877	0.71415
462.000	1.48045	2.03167	-0.44086	0.73404
463.000	1.48440	2.04756	-0.40133	0.67437
464.000	1.46464	2.04162	-0.44086	0.65846
465.000	1.49032	2.04557	-0.46854	0.75393
466.000	1.51996	2.02568	-0.49424	0.70818
467.000	1.50020	1.99590	-0.44482	0.74995
468.000	1.50020	2.04556	-0.45865	0.76387
469.000	1.48045	2.01380	-0.44877	0.74796
470.000	1.49625	2.01378	-0.44679	0.71216
471.000	1.52193	2.05150	-0.42505	0.72807
472.000	1.49032	1.99392	-0.50017	0.78774
473.000	1.53379	2.03361	-0.43691	0.76388
474.000	1.48835	2.01379	-0.41516	0.72808
475.000	1.50613	2.03165	-0.45668	0.74597
476.000	1.48242	2.03564	-0.43889	0.75393
477.000	1.45279	2.01978	-0.48435	0.73006
478.000	1.47847	1.98996	-0.43493	0.74995
479.000	1.46464	1.97607	-0.39737	0.72012
480.000	1.47847	1.95818	-0.42307	0.76786
481.000	1.46662	2.00189	-0.44679	0.72211
482.000	1.48242	1.95023	-0.44482	0.75791
483.000	1.48045	1.96612	-0.43493	0.72807
484.000	1.47847	2.00387	-0.39935	0.77979
485.000	1.46069	1.96614	-0.43296	0.79968
486.000	1.44883	1.92046	-0.42109	0.79371
487.000	1.47649	1.97209	-0.43098	0.76388
488.000	1.49230	1.95022	-0.42307	0.82554
489.000	1.45081	2.00389	-0.45075	0.69824
490.000	1.46464	1.97210	-0.41912	0.78974
491.000	1.46464	1.99593	-0.39935	0.78377
492.000	1.49428	1.96413	-0.43691	0.76189
493.000	1.44093	1.96815	-0.43296	0.82752
494.000	1.47847	1.98003	-0.44482	0.80564
495.000	1.46069	2.01779	-0.46656	0.76387
496.000	1.45476	1.94628	-0.43889	0.77382
497.000	1.47847	1.96613	-0.41121	0.83349
498.000	1.51403	1.97801	-0.40726	0.79769
499.000	1.47649	1.95222	-0.44679	0.80167
500.000	1.48045	1.93037	-0.42702	0.83150
501.000	1.46266	1.98799	-0.44086	0.87327
502.000	1.46266	1.97806	-0.47447	0.81559
503.000	1.49823	1.99193	-0.44679	0.78774
504.000	1.43303	1.97411	-0.44679	0.80366
505.000	1.45674	1.97608	-0.41319	0.84941
506.000	1.47847	1.93832	-0.47447	0.82155
507.000	1.44291	2.01780	-0.46459	0.85537
508.000	1.47847	1.94626	-0.45668	0.86730
509.000	1.45674	1.96217	-0.39935	0.80764
510.000	1.43105	1.96617	-0.36179	0.81361
511.000	1.47847	1.99394	-0.45075	0.81957
512.000	1.46069	1.96217	-0.43493	0.82951
513.000	1.44093	1.95027	-0.48831	0.83547
514.000	1.48835	1.91447	-0.46459	0.85934
515.000	1.46662	1.98004	-0.45668	0.82354
516.000	1.44488	1.92245	-0.44877	0.84343
517.000	1.46464	1.97408	-0.43691	0.84344
518.000	1.43896	1.93835	-0.44086	0.83150
519.000	1.43303	1.94233	-0.46854	0.81956
520.000	1.44686	1.92444	-0.45865	0.77979
521.000	1.46266	1.96813	-0.45470	0.81559
522.000	1.41920	1.95624	-0.44679	0.82156
523.000	1.47847	2.01181	-0.42702	0.87526
524.000	1.42710	1.93836	-0.45865	0.79371
525.000	1.44883	1.93635	-0.43493	0.81360
526.000	1.47057	1.99593	-0.45668	0.82951
527.000	1.43896	1.92444	-0.46063	0.78973
528.000	1.45476	1.99594	-0.45272	0.82553
529.000	1.44093	1.95821	-0.48040	0.75790
530.000	1.47057	1.95421	-0.44877	0.77382
531.000	1.48835	1.95023	-0.44679	0.85338
532.000	1.45279	1.94430	-0.46261	0.82553
533.000	1.48045	1.96016	-0.43691	0.79570
534.000	1.45081	1.97012	-0.41912	0.82156
535.000	1.41327	1.97214	-0.46854	0.78177
536.000	1.40932	1.97413	-0.48238	0.82354
537.000	1.48242	2.01181	-0.48435	0.85139
538.000	1.47254	1.97209	-0.44086	0.79371
539.000	1.46662	2.02175	-0.47249	0.78575
540.000	1.43698	2.01781	-0.48435	0.74398
541.000	1.42513	1.98405	-0.47645	0.68630
542.000	1.41920	1.99200	-0.51005	0.72409
543.000	1.35795	1.95431	-0.55552	0.72408
544.000	1.36980	1.90662	-0.50808	0.64850
545.000	1.27298	1.87689	-0.56936	0.63855
546.000	1.22753	1.89282	-0.59308	0.62661
547.000	1.19394	1.91867	-0.67017	0.62859
548.000	1.12279	1.86706	-0.72354	0.56891
549.000	1.06351	1.83133	-0.72750	0.65842
550.000	1.06943	1.79357	-0.75319	0.67234
551.000	1.02003	1.77572	-0.80459	0.70416
552.000	0.99829	1.80355	-0.79075	0.70018
553.000	1.02398	1.83930	-0.75912	0.77179
554.000	0.99433	1.84727	-0.77296	0.74394
555.000	1.03781	1.78564	-0.75517	0.75190
556.000	1.04967	1.89691	-0.78284	0.81355
557.000	1.10303	1.86707	-0.71959	0.84737
558.000	1.10106	1.89688	-0.70378	0.77975
559.000	1.10896	1.90880	-0.70575	0.80362
560.000	1.17615	1.90478	-0.66227	0.87920
561.000	1.14848	1.91076	-0.64645	0.81158
562.000	1.16429	1.91671	-0.63459	0.84341
563.000	1.14453	1.89486	-0.68006	0.76186
564.000	1.17418	1.85709	-0.68401	0.79964
565.000	1.18998	1.87099	-0.67017	0.71611
566.000	1.16034	1.88691	-0.65436	0.80363
567.000	1.13465	1.84718	-0.68994	0.70219
568.000	1.18603	1.84914	-0.65634	0.69423
569.000	1.13663	1.83923	-0.68994	0.68627
570.000	1.12477	1.83129	-0.66820	0.67633
571.000	1.13663	1.83725	-0.68203	0.69025
572.000	1.10501	1.88098	-0.62273	0.62860
573.000	1.11687	1.85713	-0.69192	0.68627
574.000	1.12477	1.86706	-0.67610	0.66042
575.000	1.12477	1.88097	-0.67413	0.67235
576.000	1.12872	1.89487	-0.67413	0.68628
577.000	1.16429	1.85114	-0.65436	0.65644
578.000	1.15639	1.87101	-0.67808	0.67434
579.000	1.15046	1.88095	-0.69785	0.66240
580.000	1.11094	1.88098	-0.70575	0.63058
581.000	1.16034	1.86108	-0.68796	0.68627
582.000	1.11884	1.87104	-0.70773	0.64251
583.000	1.14058	1.85513	-0.65634	0.59677
584.000	1.12675	1.85514	-0.67610	0.62263
585.000	1.12279	1.86110	-0.69982	0.61467
586.000	1.10698	1.82733	-0.71761	0.59477
587.000	1.10501	1.84323	-0.66424	0.59478
588.000	1.12477	1.83129	-0.70773	0.58284
589.000	1.11687	1.84521	-0.67610	0.61865
590.000	1.11489	1.81938	-0.63855	0.60274
591.000	1.13860	1.81142	-0.72552	0.61267
592.000	1.12279	1.80149	-0.69192	0.53311
593.000	1.13465	1.80744	-0.68796	0.57290
594.000	1.05560	1.75384	-0.69192	0.55897
595.000	1.14058	1.80148	-0.72750	0.58483
596.000	1.10698	1.81342	-0.70378	0.54505
597.000	1.10501	1.77567	-0.70378	0.56693
598.000	1.13465	1.81142	-0.68599	0.52516
599.000	1.15441	1.78955	-0.69587	0.61268
600.000	1.12675	1.75380	-0.66029	0.58682
601.000	1.09117	1.79356	-0.68796	0.56096
602.000	1.15639	1.83127	-0.66424	0.63257
603.000	1.11489	1.74784	-0.69192	0.58881
604.000	1.12675	1.73591	-0.67808	0.60273
605.000	1.13465	1.78161	-0.70773	0.59080
606.000	1.13860	1.79353	-0.65634	0.58881
607.000	1.13860	1.78360	-0.72552	0.61864
608.000	1.10303	1.76176	-0.70971	0.57289
609.000	1.17418	1.77165	-0.68401	0.52317
610.000	1.11884	1.77566	-0.69192	0.56693
611.000	1.14453	1.77564	-0.67215	0.57887
612.000	1.18010	1.75178	-0.69982	0.54107
613.000	1.21567	1.79348	-0.66424	0.62263
614.000	1.15244	1.77564	-0.69982	0.56693
615.000	1.15639	1.78359	-0.71168	0.63257
616.000	1.15639	1.75775	-0.74924	0.51720
617.000	1.16034	1.79352	-0.73343	0.57886
618.000	1.19394	1.81138	-0.70575	0.56892
619.000	1.17022	1.74582	-0.72750	0.55101
620.000	1.20579	1.76567	-0.71366	0.60472
621.000	1.20184	1.79548	-0.68401	0.56494
622.000	1.18998	1.79151	-0.71564	0.58085
623.000	1.16429	1.80345	-0.74726	0.54305
624.000	1.17615	1.78357	-0.72354	0.53709
625.000	1.16627	1.77762	-0.72947	0.49532
626.000	1.16232	1.74583	-0.71564	0.54107
627.000	1.17220	1.77563	-0.74726	0.61068
628.000	1.21370	1.79746	-0.70378	0.58682
629.000	1.20975	1.81733	-0.75715	0.63455
630.000	1.18010	1.83126	-0.69587	0.54107
631.000	1.17220	1.78358	-0.71168	0.60472
632.000	1.13860	1.80744	-0.72947	0.51322
633.000	1.18801	1.79151	-0.71564	0.62461
634.000	1.19196	1.74581	-0.75122	0.58482
635.000	1.13663	1.79552	-0.72750	0.58284
636.000	1.19789	1.79151	-0.74331	0.59079
637.000	1.12279	1.74784	-0.72354	0.52714
638.000	1.14651	1.77366	-0.77296	0.49133
639.000	1.17022	1.78159	-0.76703	0.56891
640.000	1.14256	1.77366	-0.77098	0.52316
641.000	1.12872	1.77963	-0.72947	0.51322
642.000	1.15639	1.76769	-0.76110	0.53112
643.000	1.16232	1.80147	-0.74331	0.58085
644.000	1.14848	1.73192	-0.77691	0.56095
645.000	1.09513	1.76574	-0.79866	0.50128
646.000	1.12082	1.74784	-0.73343	0.58483
647.000	1.13070	1.76770	-0.75517	0.52913
648.000	1.08524	1.74388	-0.74924	0.51720
649.000	1.11291	1.69617	-0.78482	0.56692
650.000	1.10501	1.74586	-0.72947	0.57488
651.000	1.08327	1.70414	-0.73343	0.52714
652.000	1.09315	1.75580	-0.75122	0.55698
653.000	1.11687	1.72399	-0.74924	0.58681
654.000	1.13268	1.67231	-0.72750	0.51521
655.000	1.12082	1.63456	-0.78087	0.54305
656.000	1.11489	1.67630	-0.74924	0.56493
657.000	1.11687	1.68027	-0.71564	0.53908
658.000	1.11094	1.67630	-0.76703	0.52913
659.000	1.09513	1.66041	-0.72947	0.52515
660.000	1.11094	1.64450	-0.73936	0.51322
661.000	1.12082	1.66835	-0.72552	0.57289
662.000	1.11489	1.62463	-0.68006	0.53312
663.000	1.11687	1.64847	-0.70575	0.54306
664.000	1.10106	1.63656	-0.70378	0.53908
665.000	1.07932	1.63657	-0.75122	0.57090
666.000	1.06548	1.56304	-0.74726	0.56493
667.000	1.13070	1.60474	-0.73343	0.56295
668.000	1.09710	1.61072	-0.74133	0.57886
669.000	1.11094	1.60475	-0.70378	0.55897
670.000	1.08920	1.55905	-0.76110	0.62858
671.000	1.09315	1.58091	-0.75715	0.57488
672.000	1.10698	1.62463	-0.73343	0.59875
673.000	1.08327	1.62464	-0.68599	0.57290
674.000	1.12477	1.60276	-0.75715	0.55300
675.000	1.07536	1.60477	-0.73936	0.55101
676.000	1.09117	1.66041	-0.72157	0.55897
677.000	1.06943	1.61670	-0.74529	0.60670
678.000	1.08722	1.64650	-0.74133	0.65245
679.000	1.11291	1.62065	-0.70773	0.63257
680.000	1.10698	1.61072	-0.73936	0.61068
681.000	1.12675	1.62263	-0.73738	0.58483
682.000	1.13860	1.59679	-0.74331	0.58880
683.000	1.12872	1.55704	-0.72354	0.58284
684.000	1.11489	1.60873	-0.68599	0.56295
685.000	1.13860	1.58486	-0.73343	0.55897
686.000	1.09710	1.60277	-0.71959	0.51919
687.000	1.12082	1.62065	-0.70971	0.52715
688.000	1.11884	1.63059	-0.75517	0.60272
689.000	1.14651	1.62858	-0.69192	0.55897
690.000	1.15046	1.63057	-0.72947	0.56693
691.000	1.11884	1.60077	-0.69785	0.55698
692.000	1.10501	1.60476	-0.72157	0.57687
693.000	1.12477	1.63058	-0.75715	0.60272
694.000	1.12477	1.57891	-0.69982	0.53311
695.000	1.12279	1.60673	-0.69982	0.60671
696.000	1.15441	1.59678	-0.74133	0.62858
697.000	1.17418	1.59876	-0.72354	0.57289
698.000	1.15046	1.59678	-0.71366	0.52913
699.000	1.18010	1.60472	-0.67610	0.58483
700.000	1.17220	1.55304	-0.70575	0.56693
701.000	1.19591	1.58284	-0.68401	0.63058
702.000	1.18010	1.54509	-0.63855	0.63854
703.000	1.17813	1.61465	-0.67808	0.63257
704.000	1.17220	1.65639	-0.65238	0.60274
705.000	1.16232	1.58286	-0.69785	0.63257
706.000	1.20184	1.61066	-0.69389	0.68627
707.000	1.16034	1.61864	-0.64250	0.67236
708.000	1.19789	1.58881	-0.66424	0.63058
709.000	1.17418	1.60074	-0.70773	0.57886
710.000	1.18603	1.60272	-0.66029	0.62860
711.000	1.16825	1.62460	-0.65634	0.60274
712.000	1.17022	1.65441	-0.63855	0.66838
713.000	1.17220	1.60273	-0.66227	0.68827
714.000	1.18406	1.67228	-0.65436	0.71810
715.000	1.20975	1.64842	-0.67215	0.66042
716.000	1.17615	1.62658	-0.64843	0.72009
717.000	1.22160	1.63848	-0.69587	0.71213
718.000	1.24334	1.64641	-0.68401	0.69423
719.000	1.16034	1.64249	-0.64052	0.76982
720.000	1.16627	1.62062	-0.65634	0.71412
721.000	1.14453	1.61070	-0.65041	0.72805
722.000	1.16429	1.66633	-0.63064	0.68031
723.000	1.19987	1.61663	-0.61680	0.70418
724.000	1.18801	1.61067	-0.62866	0.74197
725.000	1.13860	1.55108	-0.61878	0.71811
726.000	1.17615	1.57491	-0.61285	0.76187
727.000	1.16825	1.62658	-0.65238	0.74794
728.000	1.12675	1.55704	-0.57924	0.72209
729.000	1.17418	1.57292	-0.69389	0.73998
730.000	1.17615	1.60869	-0.65634	0.69423
731.000	1.14453	1.62262	-0.65831	0.73401
732.000	1.15244	1.58486	-0.66029	0.69622
733.000	1.18010	1.54509	-0.61878	0.73601
734.000	1.18010	1.55900	-0.63459	0.72805
735.000	1.17220	1.61664	-0.66820	0.73003
736.000	1.16429	1.57889	-0.63855	0.74197
737.000	1.14453	1.57095	-0.63262	0.66639
738.000	1.14848	1.54312	-0.65238	0.64252
739.000	1.15046	1.49144	-0.65238	0.65843
740.000	1.15441	1.56100	-0.65041	0.59478
741.000	1.13465	1.53716	-0.65238	0.54903
742.000	1.14651	1.54113	-0.63064	0.65645
743.000	1.17220	1.53516	-0.63064	0.68628
744.000	1.14453	1.59082	-0.64052	0.60672
745.000	1.12477	1.55705	-0.65436	0.61666
746.000	1.16034	1.53914	-0.68599	0.59279
747.000	1.15244	1.55703	-0.69389	0.62461
748.000	1.19987	1.54707	-0.67413	0.64053
749.000	1.17418	1.54311	-0.68599	0.56295
750.000	1.17615	1.57093	-0.68599	0.63854
751.000	1.21370	1.57687	-0.63459	0.65048
752.000	1.18208	1.55701	-0.68401	0.67633
753.000	1.18998	1.61663	-0.70575	0.65842
754.000	1.18406	1.52720	-0.68203	0.60075
755.000	1.20382	1.63451	-0.70180	0.69423
756.000	1.19789	1.61067	-0.68006	0.67434
757.000	1.21370	1.60072	-0.68796	0.69025
758.000	1.16232	1.55504	-0.65831	0.67235
759.000	1.20579	1.63252	-0.74726	0.60471
760.000	1.12279	1.55705	-0.68599	0.61865
761.000	1.17418	1.58683	-0.68401	0.66638
762.000	1.20777	1.55899	-0.71168	0.67235
763.000	1.14848	1.55703	-0.71564	0.64251
764.000	1.14058	1.53517	-0.68203	0.69423
765.000	1.18801	1.51328	-0.71366	0.65246
766.000	1.23346	1.51525	-0.71959	0.68229
767.000	1.16825	1.52721	-0.71168	0.63853
768.000	1.16429	1.49938	-0.69982	0.63257
769.000	1.17220	1.49342	-0.72750	0.68826
770.000	1.20975	1.47749	-0.70180	0.58682
771.000	1.19394	1.44769	-0.69982	0.64052
772.000	1.14058	1.47157	-0.70575	0.61864
773.000	1.15639	1.44969	-0.69192	0.61069
774.000	1.20382	1.44172	-0.70773	0.59279
775.000	1.16825	1.42981	-0.72157	0.55300
776.000	1.20382	1.48942	-0.68796	0.59677
777.000	1.19987	1.49539	-0.72157	0.56295
778.000	1.17615	1.44770	-0.72750	0.58881
779.000	1.19789	1.47750	-0.69192	0.63257
780.000	1.21172	1.46756	-0.69587	0.58085
781.000	1.22951	1.49736	-0.71761	0.59477
782.000	1.15639	1.43777	-0.69389	0.61666
783.000	1.20382	1.46557	-0.71168	0.61665
784.000	1.18208	1.49540	-0.69389	0.56693
785.000	1.19987	1.48943	-0.70180	0.67036
786.000	1.17813	1.50335	-0.66227	0.59478
787.000	1.19987	1.41190	-0.71564	0.70218
788.000	1.22358	1.44966	-0.73343	0.65444
789.000	1.19591	1.46359	-0.68599	0.62064
790.000	1.21370	1.52520	-0.66029	0.65843
791.000	1.19789	1.48545	-0.72750	0.64251
792.000	1.23346	1.49338	-0.68006	0.65445
793.000	1.22160	1.46755	-0.68006	0.67036
794.000	1.21567	1.51327	-0.66029	0.62462
795.000	1.18998	1.51130	-0.62075	0.62462
796.000	1.14848	1.47156	-0.63855	0.69225
797.000	1.20382	1.47750	-0.64448	0.63854
798.000	1.18208	1.51130	-0.64843	0.60672
799.000	1.20184	1.49340	-0.63855	0.62263
800.000	1.22753	1.52718	-0.62075	0.61468
801.000	1.20579	1.50731	-0.64843	0.62661
802.000	1.24927	1.53511	-0.68994	0.63058
803.000	1.23939	1.47549	-0.65634	0.67434
804.000	1.21963	1.49339	-0.65634	0.64053
805.000	1.25322	1.52319	-0.69982	0.60671
806.000	1.24532	1.46555	-0.62866	0.65843
807.000	1.27100	1.52715	-0.64645	0.63059
808.000	1.22160	1.47948	-0.60692	0.60274
809.000	1.22951	1.46953	-0.65238	0.64451
810.000	1.22358	1.50531	-0.62273	0.64650
811.000	1.22753	1.48345	-0.60494	0.64054
812.000	1.24136	1.47946	-0.56343	0.64850
813.000	1.24136	1.49338	-0.62866	0.58882
814.000	1.25520	1.52318	-0.64052	0.59279
815.000	1.20777	1.49737	-0.62866	0.61468
816.000	1.22358	1.48941	-0.61680	0.62263
817.000	1.22753	1.48345	-0.63855	0.64053
818.000	1.27496	1.47547	-0.64645	0.59876
819.000	1.16429	1.45764	-0.66622	0.69622
820.000	1.27496	1.46156	-0.63855	0.56694
821.000	1.25124	1.48542	-0.61680	0.59876
822.000	1.18603	1.45365	-0.60296	0.65645
823.000	1.22753	1.47947	-0.64843	0.60473
824.000	1.21963	1.46358	-0.58913	0.58882
825.000	1.22753	1.46755	-0.65041	0.68827
826.000	1.24927	1.51921	-0.64250	0.60473
827.000	1.23741	1.45164	-0.63064	0.62064
828.000	1.21370	1.46954	-0.59110	0.64849
829.000	1.26508	1.47746	-0.61680	0.59081
830.000	1.21172	1.41587	-0.62471	0.65844
831.000	1.26310	1.45361	-0.61482	0.60672
832.000	1.25520	1.53312	-0.60494	0.66242
833.000	1.27298	1.44168	-0.56145	0.61468
834.000	1.21567	1.41786	-0.56540	0.63457
835.000	1.22951	1.42978	-0.63657	0.62462
836.000	1.18801	1.46359	-0.64052	0.63258
837.000	1.17615	1.43179	-0.63064	0.63656
838.000	1.22753	1.43773	-0.57727	0.60672
839.000	1.22358	1.43972	-0.56145	0.62065
840.000	1.22753	1.41388	-0.57133	0.63855
841.000	1.24927	1.41387	-0.57133	0.59479
842.000	1.23544	1.43375	-0.58320	0.62662
843.000	1.23346	1.41984	-0.58122	0.62065
844.000	1.24729	1.43176	-0.61680	0.63258
845.000	1.22358	1.42382	-0.59110	0.59678
846.000	1.20975	1.40792	-0.58122	0.60672
847.000	1.19789	1.45961	-0.64052	0.63456
848.000	1.25322	1.45958	-0.62866	0.64849
849.000	1.23939	1.46953	-0.56936	0.66839
850.000	1.23939	1.45760	-0.57529	0.60474
851.000	1.21172	1.47352	-0.60296	0.61468
852.000	1.23148	1.46953	-0.62075	0.56495
853.000	1.21963	1.48146	-0.58715	0.59877
854.000	1.20382	1.42979	-0.61087	0.57291
855.000	1.24729	1.45163	-0.59110	0.55700
856.000	1.23544	1.46555	-0.62273	0.60871
857.000	1.20579	1.45563	-0.59506	0.54108
858.000	1.17813	1.41589	-0.60889	0.54108
859.000	1.19394	1.42980	-0.61087	0.54506
860.000	1.19196	1.38010	-0.57924	0.60871
861.000	1.20382	1.41588	-0.59901	0.57689
862.000	1.19789	1.40793	-0.60296	0.52318
863.000	1.21963	1.42183	-0.58320	0.58882
864.000	1.20184	1.39600	-0.60494	0.57490
865.000	1.19591	1.43775	-0.58715	0.57888
866.000	1.19196	1.43377	-0.58913	0.53313
867.000	1.22160	1.43177	-0.57529	0.57291
868.000	1.21370	1.39401	-0.60494	0.56495
869.000	1.25520	1.48343	-0.53773	0.61071
870.000	1.18998	1.46558	-0.55947	0.60872
871.000	1.23939	1.45760	-0.58320	0.58882
872.000	1.21963	1.42780	-0.58715	0.61866
873.000	1.21963	1.44171	-0.56738	0.56495
874.000	1.21370	1.43774	-0.57529	0.53909
875.000	1.21370	1.43376	-0.56145	0.61269
876.000	1.22555	1.40593	-0.54564	0.55899
877.000	1.21963	1.45562	-0.59901	0.47146
878.000	1.20975	1.41190	-0.56540	0.55302
879.000	1.17813	1.34830	-0.52587	0.51324
880.000	1.16627	1.40397	-0.54366	0.55700
881.000	1.20579	1.41786	-0.51796	0.51324
882.000	1.20777	1.34829	-0.55157	0.51125
883.000	1.20579	1.39997	-0.54761	0.51523
884.000	1.18603	1.41191	-0.55354	0.58087
885.000	1.20382	1.37215	-0.59308	0.53313
886.000	1.20579	1.38208	-0.55354	0.56694
887.000	1.20579	1.37811	-0.54366	0.54904
888.000	1.20184	1.33835	-0.51994	0.59678
889.000	1.19394	1.36619	-0.55157	0.60872
890.000	1.21172	1.30853	-0.52389	0.62861
891.000	1.26705	1.33434	-0.48435	0.67237
892.000	1.22358	1.33834	-0.54959	0.75591
893.000	1.19987	1.35823	-0.52587	0.72607
894.000	1.19789	1.34034	-0.55354	0.68430
895.000	1.22951	1.33039	-0.52587	0.70221
896.000	1.18406	1.33439	-0.58517	0.76983
897.000	1.17418	1.30258	-0.56936	0.74198
898.000	1.19987	1.37414	-0.55750	0.72209
899.000	1.20975	1.35624	-0.58715	0.78773
900.000	1.19789	1.29462	-0.54761	0.73801
901.000	1.22160	1.33834	-0.53971	0.67038
902.000	1.20184	1.30853	-0.53378	0.71812
903.000	1.23148	1.29858	-0.53378	0.64651
904.000	1.24334	1.35026	-0.54366	0.66839
905.000	1.20579	1.33438	-0.58122	0.73402
906.000	1.22358	1.31250	-0.56738	0.67038
907.000	1.22555	1.38207	-0.54168	0.70817
908.000	1.22160	1.39798	-0.55552	0.67635
909.000	1.19394	1.36619	-0.52191	0.60673
910.000	1.18010	1.33638	-0.53773	0.68430
911.000	1.22160	1.32443	-0.56540	0.69822
912.000	1.20382	1.34432	-0.59110	0.64651
913.000	1.26112	1.38007	-0.54761	0.66242
914.000	1.17418	1.35427	-0.58122	0.60076
915.000	1.19789	1.36817	-0.56738	0.72010
916.000	1.20975	1.37413	-0.56343	0.67634
917.000	1.20975	1.39003	-0.54761	0.69823
918.000	1.18406	1.29661	-0.52784	0.64850
919.000	1.24927	1.40393	-0.53575	0.66043
920.000	1.17813	1.33836	-0.58320	0.63258
921.000	1.23346	1.37809	-0.55947	0.65844
922.000	1.20975	1.31251	-0.62075	0.74396
923.000	1.20975	1.37811	-0.58517	0.72607
924.000	1.20184	1.35823	-0.53180	0.63657
925.000	1.18208	1.33637	-0.59308	0.67435
926.000	1.19196	1.33836	-0.55354	0.73602
927.000	1.20579	1.36618	-0.56738	0.64651
928.000	1.18801	1.31848	-0.57924	0.71612
929.000	1.24729	1.34628	-0.52784	0.66839
930.000	1.21765	1.35425	-0.53378	0.72806
931.000	1.18010	1.34830	-0.52191	0.72608
932.000	1.19789	1.40594	-0.55947	0.65645
933.000	1.19987	1.37016	-0.60889	0.69026
934.000	1.14453	1.33440	-0.53971	0.69027
935.000	1.20777	1.36220	-0.53971	0.67834
936.000	1.14058	1.29067	-0.55947	0.69425
937.000	1.18208	1.31650	-0.58320	0.67833
938.000	1.14848	1.31651	-0.52784	0.71812
939.000	1.15441	1.28271	-0.55157	0.67237
940.000	1.15441	1.35229	-0.57331	0.67237
941.000	1.20382	1.27474	-0.57727	0.69424
942.000	1.14453	1.28470	-0.57924	0.67236
943.000	1.18208	1.35029	-0.59308	0.70021
944.000	1.18010	1.30854	-0.57331	0.61070
945.000	1.16429	1.30855	-0.57331	0.69027
946.000	1.18010	1.32246	-0.56145	0.67436
947.000	1.16232	1.31849	-0.59901	0.63457
948.000	1.16627	1.31849	-0.56936	0.68032
949.000	1.15837	1.32048	-0.60296	0.69225
950.000	1.10896	1.35231	-0.56936	0.65247
951.000	1.11291	1.31056	-0.54564	0.66640
952.000	1.13070	1.34236	-0.54564	0.64651
953.000	1.17418	1.36421	-0.57727	0.65645
954.000	1.16232	1.38409	-0.55947	0.66839
955.000	1.17813	1.39601	-0.58517	0.63656
956.000	1.20382	1.35823	-0.59703	0.59081
957.000	1.19394	1.39004	-0.60296	0.57887
958.000	1.19196	1.40396	-0.61087	0.54705
959.000	1.18208	1.38210	-0.58517	0.52716
960.000	1.20184	1.37612	-0.61285	0.57291
961.000	1.15441	1.40000	-0.58913	0.58285
962.000	1.16627	1.45764	-0.58913	0.65844
963.000	1.18010	1.39999	-0.60099	0.59280
964.000	1.19987	1.38209	-0.58913	0.61866
965.000	1.20382	1.39401	-0.63459	0.58484
966.000	1.17418	1.34234	-0.59506	0.57291
967.000	1.15244	1.36621	-0.62471	0.66042
968.000	1.09908	1.36623	-0.62273	0.64252
969.000	1.10896	1.37418	-0.61878	0.66241
970.000	1.10303	1.32250	-0.57924	0.72408
971.000	1.09117	1.36226	-0.56145	0.71414
972.000	1.13268	1.28272	-0.49424	0.81757
973.000	1.16034	1.21313	-0.42702	0.78178
974.000	1.24729	1.17531	-0.27480	0.78378
975.000	1.39549	1.17723	-0.13444	0.74997
976.000	1.57330	1.10955	0.07513	0.67240
977.000	1.79453	0.98022	0.34597	0.59282
978.000	1.96635	0.94434	0.62471	0.50527
979.000	2.21117	0.91239	0.93504	0.45352
980.000	2.40263	0.71951	1.15837	0.38785
981.000	2.71437	0.75907	1.41525	0.36395
982.000	2.97666	0.72910	1.71948	0.22272
983.000	3.16788	0.59987	2.01374	0.17496
984.000	3.43389	0.59971	2.18550	0.13121
985.000	3.65841	0.63331	2.47762	0.09938
986.000	3.80408	0.57962	2.70648	0.01590
987.000	4.05792	0.64095	2.95892	-0.05166
988.000	4.17789	0.58332	3.15408	-0.13706
989.000	4.36663	0.53756	3.28218	-0.11917
990.000	4.51991	0.43432	3.45950	-0.22440
991.000	4.67509	0.40052	3.69385	-0.25412
992.000	4.83806	0.35682	3.78834	-0.41686
993.000	5.01075	0.35871	3.95955	-0.50211
994.000	5.17943	0.25361	4.09726	-0.47425
995.000	5.27354	0.20801	4.24475	-0.49995
996.000	5.50869	0.18020	4.44132	-0.51569
997.000	5.65164	0.08711	4.50616	-0.53746
998.000	5.72799	0.06334	4.57099	-0.59888
999.000	5.88844	-0.02375	4.69866	-0.58886
1000.000	5.98037	-0.08112	4.73204	-0.64235
1001.000	6.07617	-0.05539	4.73008	-0.69192
1002.000	6.16413	-0.07318	4.78309	-0.70177
1003.000	6.14654	-0.16615	4.88124	-0.78689
1004.000	6.17390	-0.17405	4.94796	-0.84824
1005.000	6.13872	-0.21165	4.99505	-0.81648
1006.000	6.15826	-0.28087	4.99309	-0.85413
1007.000	6.12113	-0.37583	5.04999	-0.83622
1008.000	6.09181	-0.39563	5.05587	-0.89962
1009.000	6.11722	-0.40551	5.07941	-0.91939
1010.000	6.02534	-0.46888	5.06372	-0.97687
1011.000	6.05271	-0.45897	5.09118	-1.02041
1012.000	6.04880	-0.51238	5.08922	-1.03032
1013.000	6.00774	-0.47483	5.07156	-0.93922
1014.000	5.98623	-0.48474	5.09118	-0.96692
1015.000	5.90409	-0.50658	5.04606	-0.87189
1016.000	5.91192	-0.48679	5.08529	-0.85203
1017.000	5.90018	-0.41754	5.03037	-0.81247
1018.000	5.92756	-0.34629	5.06960	-0.73912
1019.000	5.89431	-0.29881	5.02252	-0.70548
1020.000	5.89822	-0.29288	4.97151	-0.75112
1021.000	5.86301	-0.24936	4.98524	-0.69562
1022.000	5.87279	-0.23352	4.98132	-0.64013
1023.000	5.90605	-0.17810	4.98328	-0.64410
1024.000	5.97255	-0.20182	4.98524	-0.62824
1025.000	5.96668	-0.19984	4.94796	-0.69169
1026.000	5.98037	-0.15037	4.95189	-0.67583
1027.000	6.03316	-0.16421	4.95974	-0.68772
1028.000	6.02925	-0.15432	4.96759	-0.73329
1029.000	6.07617	-0.19189	4.92245	-0.67190
1030.000	6.08986	-0.17606	4.95581	-0.68970
1031.000	6.08204	-0.20178	4.96955	-0.72139
1032.000	6.08204	-0.18398	4.91853	-0.72938
1033.000	6.10354	-0.19782	4.94993	-0.71151
1034.000	6.06835	-0.15826	4.88713	-0.68185
1035.000	6.08595	-0.20376	4.92245	-0.73928
1036.000	6.07031	-0.17211	4.91068	-0.76308
1037.000	6.07031	-0.16815	4.91068	-0.76704
1038.000	6.07031	-0.19981	4.90871	-0.69173
1039.000	6.04294	-0.18992	4.93226	-0.72540
1040.000	6.01948	-0.17410	4.91068	-0.67389
1041.000	6.03512	-0.15234	4.88516	-0.66797
1042.000	6.00970	-0.14047	4.92245	-0.68974
1043.000	6.02143	-0.10684	4.93815	-0.71350
1044.000	6.06053	-0.09892	4.89498	-0.71157
1045.000	6.03512	-0.12068	4.89301	-0.71553
1046.000	6.03512	-0.13255	4.86750	-0.65610
1047.000	6.02534	-0.16223	4.85965	-0.64818
1048.000	6.01165	-0.14839	4.86357	-0.67989
1049.000	6.03121	-0.17410	4.89301	-0.70166
1050.000	6.01752	-0.11673	4.90675	-0.72344
1051.000	6.02534	-0.18004	4.86946	-0.69177
1052.000	6.01361	-0.13256	4.84983	-0.75324
1053.000	6.04489	-0.15629	4.90086	-0.71751
1054.000	6.07813	-0.17606	4.89890	-0.66003
1055.000	6.04294	-0.15036	4.91068	-0.68975
1056.000	6.06249	-0.18200	4.85965	-0.65809
1057.000	6.07031	-0.15628	4.85965	-0.68187
1058.000	6.05858	-0.12266	4.85965	-0.70368
1059.000	6.11331	-0.13253	4.85965	-0.72350
1060.000	6.03707	-0.16025	4.87535	-0.72150
1061.000	6.06640	-0.06726	4.84198	-0.69775
1062.000	6.02730	-0.13256	4.82824	-0.68587
1063.000	6.04294	-0.12068	4.86554	-0.69574
1064.000	6.06053	-0.12859	4.85376	-0.67792
1065.000	6.02730	-0.05737	4.86554	-0.65808
1066.000	6.05271	-0.11079	4.87928	-0.74131
1067.000	6.06640	-0.10287	4.88713	-0.67194
1068.000	6.04098	-0.06133	4.86946	-0.65015
1069.000	6.09572	-0.04550	4.83413	-0.66803
1070.000	6.07813	-0.09693	4.88713	-0.64815
1071.000	6.08986	-0.05341	4.88909	-0.66004
1072.000	6.04880	-0.06133	4.86161	-0.65016
1073.000	6.06835	-0.08507	4.89694	-0.60850
1074.000	6.10745	-0.08506	4.87928	-0.64618
1075.000	6.05271	0.00396	4.81646	-0.64624
1076.000	6.05076	-0.02374	4.89301	-0.64022
1077.000	6.10745	-0.02967	4.91068	-0.61047
1078.000	6.11136	-0.01187	4.83609	-0.60856
1079.000	6.08204	-0.03956	4.88909	-0.56491
1080.000	6.03512	0.00594	4.84983	-0.62044
1081.000	6.08986	-0.01187	4.88320	-0.56690
1082.000	6.11331	0.03758	4.88320	-0.57284
1083.000	6.09572	-0.00396	4.85965	-0.58475
1084.000	6.07617	0.05539	4.84787	-0.57684
1085.000	6.10158	-0.01187	4.84002	-0.56099
1086.000	6.10354	-0.03759	4.87339	-0.58871
1087.000	6.11918	0.03561	4.87535	-0.55897
1088.000	6.08399	-0.01780	4.79683	-0.57490
1089.000	6.08986	0.06330	4.91068	-0.64020
1090.000	6.09377	0.08308	4.88124	-0.59861
1091.000	6.06444	0.06528	4.82628	-0.55307
1092.000	6.08986	0.08506	4.86946	-0.59862
1093.000	6.10745	0.07715	4.84002	-0.57288
1094.000	6.09377	0.10089	4.85572	-0.59665
1095.000	6.07617	0.07517	4.85965	-0.58674
1096.000	6.10940	0.07517	4.85376	-0.59467
1097.000	6.08204	0.09891	4.86554	-0.58871
1098.000	6.10549	0.09891	4.82628	-0.63037
1099.000	6.12308	0.16022	4.83806	-0.58081
1100.000	6.11722	0.15627	4.83217	-0.58081
1101.000	6.10940	0.09297	4.85769	-0.65215
1102.000	6.10940	0.06132	4.84983	-0.58278
1103.000	6.10940	0.14045	4.82039	-0.59866
1104.000	6.12504	0.13847	4.86357	-0.51538
1105.000	6.10745	0.13847	4.85965	-0.57088
1106.000	6.14849	0.17208	4.85376	-0.60656
1107.000	6.14067	0.17802	4.84591	-0.58080
1108.000	6.12113	0.15627	4.81843	-0.60858
1109.000	6.16413	0.18790	4.82628	-0.62641
1110.000	6.13286	0.17209	4.87928	-0.60257
1111.000	6.14263	0.13253	4.84395	-0.64225
1112.000	6.16022	0.21757	4.88124	-0.63825
1113.000	6.13286	0.18594	4.85180	-0.66008
1114.000	6.13090	0.14044	4.82824	-0.61055
1115.000	6.14654	0.25318	4.84198	-0.68784
1116.000	6.13090	0.20374	4.86946	-0.67790
1117.000	6.16413	0.12263	4.85180	-0.57287
1118.000	6.15240	0.18395	4.85965	-0.65214
1119.000	6.12504	0.20572	4.84198	-0.66405
1120.000	6.13286	0.12660	4.81843	-0.71165
1121.000	6.20712	0.16415	4.83609	-0.64424
1122.000	6.16999	0.18395	4.85965	-0.61845
1123.000	6.14263	0.20967	4.86357	-0.64421
1124.000	6.17585	0.15230	4.89890	-0.64418
1125.000	6.14654	0.21758	4.84395	-0.66405
1126.000	6.15045	0.22747	4.86161	-0.65809
1127.000	6.14849	0.20175	4.85572	-0.67593
1128.000	6.16217	0.22351	4.79291	-0.65815
1129.000	6.14263	0.18000	4.84591	-0.67991
1130.000	6.11136	0.22748	4.84591	-0.70369
1131.000	6.14067	0.22549	4.82039	-0.71363
1132.000	6.13872	0.22747	4.81254	-0.67597
1133.000	6.17390	0.23537	4.84983	-0.65810
1134.000	6.16413	0.22746	4.83217	-0.67992
1135.000	6.16413	0.28482	4.80665	-0.66211
1136.000	6.18171	0.27097	4.83806	-0.67000
1137.000	6.17390	0.24526	4.83609	-0.63235
1138.000	6.14458	0.26901	4.84591	-0.70964
1139.000	6.14067	0.21165	4.84983	-0.68585
1140.000	6.15240	0.21955	4.80861	-0.67003
1141.000	6.18171	0.25317	4.77524	-0.62249
1142.000	6.17781	0.19185	4.81057	-0.61849
1143.000	6.17976	0.29668	4.75364	-0.62449
1144.000	6.19735	0.28282	4.81646	-0.62840
1145.000	6.18758	0.29667	4.82235	-0.61055
1146.000	6.21884	0.28281	4.78898	-0.59869
1147.000	6.16022	0.27889	4.79487	-0.69581
1148.000	6.24228	0.29071	4.77131	-0.58681
1149.000	6.24424	0.29269	4.84002	-0.62045
1150.000	6.19344	0.29469	4.82235	-0.56893
1151.000	6.24619	0.30455	4.75168	-0.60665
1152.000	6.22861	0.26303	4.82235	-0.58479
1153.000	6.18758	0.26107	4.81254	-0.61255
1154.000	6.17390	0.29075	4.81843	-0.61452
1155.000	6.20712	0.28282	4.82628	-0.59073
1156.000	6.23056	0.31643	4.81254	-0.63435
1157.000	6.20712	0.38962	4.77327	-0.57095
1158.000	6.19344	0.30458	4.85769	-0.63034
1159.000	6.23838	0.33026	4.81646	-0.62245
1160.000	6.22470	0.30852	4.80665	-0.58480
1161.000	6.22861	0.29665	4.85180	-0.62242
1162.000	6.24619	0.36783	4.80076	-0.62445
1163.000	6.25987	0.35003	4.83217	-0.61055
1164.000	6.25596	0.34014	4.82628	-0.61253
1165.000	6.26182	0.36585	4.77524	-0.55906
1166.000	6.25010	0.28873	4.83413	-0.64028
1167.000	6.23838	0.30851	4.77327	-0.67007
1168.000	6.28917	0.34605	4.80861	-0.66012
1169.000	6.29112	0.37967	4.79683	-0.59472
1170.000	6.26573	0.38364	4.79880	-0.62049
1171.000	6.25987	0.37969	4.79880	-0.59472
1172.000	6.29112	0.38955	4.80861	-0.57489
1173.000	6.30479	0.34209	4.79487	-0.57093
1174.000	6.29698	0.43700	4.78898	-0.58085
1175.000	6.32432	0.40930	4.78702	-0.58482
1176.000	6.31260	0.36976	4.75953	-0.51347
1177.000	6.29307	0.43701	4.78702	-0.58878
1178.000	6.28526	0.45481	4.81450	-0.57488
1179.000	6.32237	0.43303	4.77327	-0.60862
1180.000	6.32628	0.41918	4.76542	-0.63638
1181.000	6.29698	0.40932	4.77524	-0.54121
1182.000	6.29698	0.43503	4.71044	-0.53730
1183.000	6.32628	0.39546	4.76542	-0.54717
1184.000	6.32628	0.41523	4.78113	-0.62248
1185.000	6.35362	0.46464	4.78309	-0.61455
1186.000	6.32237	0.37173	4.73597	-0.54918
1187.000	6.33213	0.41325	4.69670	-0.56110
1188.000	6.35362	0.38357	4.71830	-0.60272
1189.000	6.34190	0.36381	4.76738	-0.55708
1190.000	6.36143	0.40729	4.75364	-0.62449
1191.000	6.31651	0.35987	4.78309	-0.54121
1192.000	6.35947	0.39543	4.79487	-0.53525
1193.000	6.33995	0.34009	4.76149	-0.55114
1194.000	6.32432	0.37766	4.71633	-0.59281
1195.000	6.40243	0.48238	4.72811	-0.60073
1196.000	6.36924	0.40926	4.76346	-0.55708
1197.000	6.37314	0.42705	4.73008	-0.56901
1198.000	6.39657	0.38750	4.74971	-0.59674
1199.000	6.39072	0.40332	4.73008	-0.55711
1200.000	6.39462	0.37959	4.73793	-0.57693
1201.000	6.42000	0.41515	4.73204	-0.56107
1202.000	6.40634	0.39144	4.73597	-0.55711
1203.000	6.42000	0.40922	4.73597	-0.56900
1204.000	6.37510	0.50218	4.76738	-0.55312
1205.000	6.42000	0.39736	4.68884	-0.59085
1206.000	6.41415	0.41714	4.72811	-0.56702
1207.000	6.41415	0.44086	4.73793	-0.55116
1208.000	6.40829	0.39539	4.72615	-0.61262
1209.000	6.44538	0.46851	4.74971	-0.61062
1210.000	6.50199	0.49019	4.69670	-0.56110
1211.000	6.45905	0.47838	4.69080	-0.56507
1212.000	6.44343	0.46258	4.71437	-0.63840
1213.000	6.44733	0.43490	4.68884	-0.65627
1214.000	6.46295	0.44279	4.68884	-0.59283
1215.000	6.44343	0.45072	4.68884	-0.60076
1216.000	6.43367	0.48038	4.67313	-0.58491
1217.000	6.43952	0.42107	4.63974	-0.57304
1218.000	6.47466	0.49813	4.68688	-0.59878
1219.000	6.49613	0.47439	4.65938	-0.57501
1220.000	6.54882	0.53758	4.66331	-0.56906
1221.000	6.50003	0.52973	4.67117	-0.59879
1222.000	6.50979	0.54157	4.64367	-0.54528
1223.000	6.46490	0.50209	4.67902	-0.55913
1224.000	6.47661	0.50801	4.64367	-0.62657
1225.000	6.49223	0.56531	4.61028	-0.57505
1226.000	6.55663	0.55733	4.63581	-0.58296
1227.000	6.54297	0.58897	4.66135	-0.59484
1228.000	6.49613	0.55740	4.65545	-0.57700
1229.000	6.51955	0.57912	4.64956	-0.55916
1230.000	6.55663	0.60081	4.61421	-0.56910
1231.000	6.52540	0.61073	4.63778	-0.52943
1232.000	6.52150	0.60085	4.59260	-0.44419
1233.000	6.50199	0.59692	4.58671	-0.52351
1234.000	6.52345	0.60283	4.60832	-0.50962
1235.000	6.50589	0.54356	4.65545	-0.54726
1236.000	6.50784	0.54158	4.70651	-0.45404
1237.000	6.53321	0.49609	4.74579	-0.46987
1238.000	6.56053	0.44468	4.81450	-0.43811
1239.000	6.68147	0.48014	4.90283	-0.48363
1240.000	6.82380	0.49185	5.00290	-0.46176
1241.000	6.94461	0.48185	5.09706	-0.51916
1242.000	7.01278	0.44229	5.17355	-0.48740
1243.000	7.09067	0.47972	5.28922	-0.45363
1244.000	7.30862	0.50514	5.47734	-0.43369
1245.000	7.48749	0.56214	5.64185	-0.39001
1246.000	7.61183	0.62507	5.72799	-0.41767
1247.000	7.83508	0.68977	5.87084	-0.40371
1248.000	7.92237	0.76843	5.96277	-0.28888
1249.000	8.09685	0.79370	6.09963	-0.28090
1250.000	8.24019	0.85444	6.22861	-0.16810
1251.000	8.23245	0.91548	6.28135	-0.03362
1252.000	8.32538	1.08253	6.34190	0.00000
1253.000	8.47049	1.19031	6.36533	0.12456
1254.000	8.52077	1.24915	6.37314	0.26296
1255.000	8.60003	1.32753	6.36729	0.26098
1256.000	8.64834	1.43154	6.40438	0.32621
1257.000	8.67926	1.42357	6.43562	0.36374
1258.000	8.67539	1.46289	6.55663	0.33599
1259.000	8.80093	1.61563	6.56638	0.33203
1260.000	8.85885	1.69394	6.67367	0.41890
1261.000	8.94568	1.76226	6.70292	0.41689
1262.000	8.96304	1.80733	6.77507	0.47610
1263.000	9.03633	1.76575	6.83354	0.50171
1264.000	9.04983	1.81082	6.93487	0.56875
1265.000	9.08453	1.90288	6.87642	0.69916
1266.000	9.12501	1.94191	6.90954	0.71096
1267.000	9.09995	1.99502	6.94266	0.75830
1268.000	9.10766	2.02245	6.91928	0.83337
1269.000	9.04790	2.08950	6.89201	0.89068
1270.000	9.02476	2.09748	6.87057	0.86308
1271.000	9.06911	2.08545	6.94851	0.86096
1272.000	9.00933	2.07795	6.90175	0.78403
1273.000	8.99390	2.05645	6.93097	0.73660
1274.000	8.96690	2.01931	6.87642	0.74458
1275.000	8.95340	2.01546	6.88226	0.73470
1276.000	8.97076	1.93882	6.90759	0.73861
1277.000	8.95340	1.87217	6.90565	0.69714
1278.000	8.97269	1.87599	6.89201	0.72876
1279.000	8.98812	1.80328	6.93292	0.63391
1280.000	8.92253	1.82520	6.87057	0.64980
1281.000	8.99969	1.76985	6.96020	0.61018
1282.000	8.96304	1.79163	6.94071	0.62403
1283.000	8.93411	1.76625	6.94461	0.64377
1284.000	9.02090	1.82078	6.93487	0.60627
1285.000	9.01126	1.81494	6.91344	0.64579
1286.000	9.00933	1.82084	6.93487	0.66353
1287.000	9.04212	1.88152	6.97773	0.68124
1288.000	9.02862	1.89925	6.88811	0.77616
1289.000	9.09031	1.85379	6.93487	0.65563
1290.000	9.11923	1.92232	6.95046	0.64969
1291.000	9.16162	1.90051	6.89590	0.73270
1292.000	9.15006	1.90057	6.91734	0.72280
1293.000	9.13272	1.95560	6.90759	0.68924
1294.000	9.15777	1.86325	6.96799	0.73654
1295.000	9.19438	1.93368	6.91149	0.69516
1296.000	9.15006	1.94177	6.91734	0.76821
1297.000	9.13272	1.89870	6.92903	0.76622
1298.000	9.19630	1.94937	6.86862	0.73077
1299.000	9.17126	1.96716	6.84329	0.71501
1300.000	9.13272	1.95168	6.85498	0.74066
1301.000	9.17704	1.91612	6.88616	0.70507
1302.000	9.16355	1.99663	6.87057	0.65770
1303.000	9.15777	1.96527	6.88226	0.73667
1304.000	9.19245	1.92192	6.89201	0.66754
1305.000	9.20594	1.92970	6.86667	0.63203
1306.000	9.19052	1.97882	6.90370	0.68727
1307.000	9.22135	1.96492	6.89006	0.67149
1308.000	9.23098	1.96683	6.88421	0.68138
1309.000	9.19630	1.92975	6.83159	0.68738
1310.000	9.24253	1.92361	6.83549	0.70712
1311.000	9.21557	2.05517	6.82965	0.69725
1312.000	9.24061	1.92951	6.84134	0.70909
1313.000	9.23483	1.91385	6.86667	0.66165
1314.000	9.22520	1.99628	6.84913	0.72882
1315.000	9.25987	1.92156	6.85888	0.72683
1316.000	9.20979	1.92379	6.86083	0.70511
1317.000	9.19052	1.87878	6.84329	0.69723
1318.000	9.19245	1.93762	6.82185	0.70912
1319.000	9.22520	1.94921	6.79651	0.73088
1320.000	9.21171	1.95713	6.81795	0.73480
1321.000	9.17896	1.88472	6.84719	0.64983
1322.000	9.21749	1.95121	6.78676	0.75262
1323.000	9.25024	1.93338	6.84134	0.74661
1324.000	9.19052	1.88859	6.85498	0.72882
1325.000	9.18667	1.85722	6.81795	0.68147
1326.000	9.29260	1.90177	6.80820	0.71901
1327.000	9.23868	1.89421	6.84524	0.75450
1328.000	9.19630	1.91013	6.81990	0.73084
1329.000	9.27142	1.97052	6.84329	0.78611
1330.000	9.21171	1.95124	6.80041	0.74272
1331.000	9.22905	1.86288	6.84719	0.77227
1332.000	9.26757	1.91955	6.83939	0.73871
1333.000	9.21364	1.87081	6.84524	0.70711
1334.000	9.26757	1.93132	6.86862	0.76237
1335.000	9.20208	1.92776	6.86473	0.76435
1336.000	9.27720	1.92342	6.84524	0.77228
1337.000	9.24831	1.89416	6.80820	0.79209
1338.000	9.24446	1.95302	6.80236	0.78617
1339.000	9.20786	1.92380	6.77896	0.80991
1340.000	9.21749	1.94336	6.76922	0.77438
1341.000	9.24638	1.91182	6.79846	0.73483
1342.000	9.24253	1.95500	6.81990	0.75257
1343.000	9.27527	1.89598	6.83549	0.77427
1344.000	9.28297	1.94104	6.80236	0.77630
1345.000	9.24253	1.93734	6.82770	0.74663
1346.000	9.32341	1.92513	6.80236	0.79605
1347.000	9.32341	1.99180	6.85888	0.73473
1348.000	9.27912	1.97636	6.79456	0.72891
1349.000	9.32918	2.05059	6.83354	0.78217
1350.000	9.26564	1.91172	6.81210	0.67555
1351.000	9.24061	1.96481	6.80041	0.74075
1352.000	9.23868	1.97463	6.84913	0.72092
1353.000	9.28875	1.95082	6.84524	0.73673
1354.000	9.28683	1.95867	6.79846	0.73285
1355.000	9.31763	2.03301	6.86667	0.76632
1356.000	9.30993	1.97815	6.84134	0.69526
1357.000	9.31571	1.94674	6.78091	0.70720
1358.000	9.30223	1.96447	6.81210	0.67160
1359.000	9.33496	1.99762	6.77702	0.72893
1360.000	9.30608	1.95660	6.80820	0.69728
1361.000	9.30030	1.94487	6.82185	0.70912
1362.000	9.33881	1.99171	6.80431	0.67161
1363.000	9.31378	1.93891	6.75752	0.69736
1364.000	9.35421	1.96221	6.76922	0.63611
1365.000	9.33688	1.97016	6.78286	0.71510
1366.000	9.32918	1.93686	6.81210	0.68740
1367.000	9.32533	1.98591	6.80236	0.77037
1368.000	9.34458	1.97011	6.81015	0.75456
1369.000	9.31763	1.92516	6.80626	0.72691
1370.000	9.31378	1.91342	6.84329	0.72883
1371.000	9.37923	1.95227	6.78091	0.75263
1372.000	9.41001	1.95210	6.79261	0.77039
1373.000	9.35998	1.90336	6.79651	0.71705
1374.000	9.32148	1.89180	6.73217	0.78036
1375.000	9.35421	1.96614	6.82380	0.73281
1376.000	9.34651	1.84657	6.79066	0.74866
1377.000	9.33881	1.94661	6.78871	0.77829
1378.000	9.32341	1.90552	6.82185	0.74664
1379.000	9.35613	1.93671	6.77312	0.76252
1380.000	9.34458	1.92109	6.80820	0.75654
1381.000	9.36190	1.87590	6.79261	0.73286
1382.000	9.40809	1.94427	6.80820	0.70519
1383.000	9.38692	1.92478	6.77896	0.75856
1384.000	9.33111	1.92313	6.77507	0.71906
1385.000	9.41964	1.92460	6.80431	0.74667
1386.000	9.41194	1.91876	6.80041	0.71507
1387.000	9.42348	2.02651	6.79456	0.74273
1388.000	9.41771	1.97950	6.74582	0.76651
1389.000	9.39847	1.97961	6.75752	0.70131
1390.000	9.47350	2.05953	6.78091	0.78226
1391.000	9.45811	2.09098	6.73412	0.73690
1392.000	9.41964	1.98341	6.73412	0.83567
1393.000	9.40232	1.87568	6.69317	0.76659
1394.000	9.38115	1.86795	6.60930	0.53949
1395.000	9.32341	1.78785	6.56638	0.38341
1396.000	9.25987	1.64105	6.48637	0.14232
1397.000	9.06911	1.34744	6.43757	-0.04349
1398.000	8.98040	1.01386	6.41024	-0.17002
1399.000	8.85113	0.79214	6.27940	-0.37967
1400.000	8.67539	0.39530	6.23056	-0.75345
1401.000	8.53237	0.00787	6.14067	-0.87224
1402.000	8.47823	-0.33647	6.05271	-1.02665
1403.000	8.29441	-0.66340	6.06249	-1.29755
1404.000	8.27311	-0.75201	6.04098	-1.54079
1405.000	8.20727	-1.00215	6.02143	-1.59818
1406.000	8.21308	-1.26588	6.07226	-1.74035
1407.000	8.20146	-1.46468	6.10158	-1.96355
1408.000	8.25762	-1.49989	6.04489	-2.12775
1409.000	8.24600	-1.62191	6.04489	-2.14751
1410.000	8.27117	-1.81654	6.03316	-2.28189
1411.000	8.23245	-1.94260	6.02143	-2.41230
1412.000	8.23051	-2.18250	5.99797	-2.55459
1413.000	8.22664	-2.27493	5.96472	-2.82720
1414.000	8.21115	-2.40672	5.98037	-2.77382
1415.000	8.20146	-2.48540	5.96472	-2.85878
1416.000	8.14916	-2.54862	5.92170	-3.00505
1417.000	8.14529	-2.61744	5.92365	-3.02477
1418.000	8.10072	-2.64917	5.87866	-3.13157
1419.000	8.12785	-2.73349	5.91778	-3.16686
1420.000	8.10848	-2.72380	5.86497	-3.19676
1421.000	8.08135	-2.73381	5.85910	-3.26387
1422.000	8.07166	-2.72405	5.85910	-3.25400
1423.000	8.11816	-2.68050	5.81214	-3.17536
1424.000	8.08328	-2.72397	5.83562	-3.10419
1425.000	8.04258	-2.65545	5.79257	-3.14587
1426.000	8.07359	-2.65328	5.80236	-3.11029
1427.000	8.09104	-2.54113	5.83366	-3.03710
1428.000	8.09879	-2.49390	5.79844	-2.91491
1429.000	8.17822	-2.43837	5.84932	-2.97189
1430.000	8.14916	-2.44051	5.82779	-2.92068
1431.000	8.15304	-2.41494	5.82975	-2.87526
1432.000	8.16272	-2.47385	5.77496	-2.87159
1433.000	8.15885	-2.47977	5.80431	-2.90501
1434.000	8.18597	-2.48943	5.83758	-2.90681
1435.000	8.14916	-2.53487	5.82388	-2.95820
1436.000	8.16272	-2.55050	5.80236	-2.90304
1437.000	8.14335	-2.54473	5.81997	-2.89111
1438.000	8.16079	-2.61733	5.80236	-3.01753
1439.000	8.17628	-2.56024	5.85518	-3.03699
1440.000	8.15885	-2.64682	5.78083	-3.06107
1441.000	8.11429	-2.63729	5.78083	-3.07291
1442.000	8.10460	-2.72383	5.80431	-3.07476
1443.000	8.06778	-2.66708	5.78866	-3.09063
1444.000	8.09685	-2.68654	5.85323	-3.10212
1445.000	8.12591	-2.65097	5.85323	-3.05081
1446.000	8.11623	-2.68248	5.86105	-3.06655
1447.000	8.14529	-2.69408	5.79453	-3.07679
1448.000	8.11623	-2.64907	5.83366	-3.07460
1449.000	8.09491	-2.70031	5.84149	-2.99364
1450.000	8.14141	-2.65087	5.82584	-3.07267
1451.000	8.16272	-2.66055	5.81801	-3.05890
1452.000	8.12785	-2.61165	5.80236	-3.06095
1453.000	8.13366	-2.59589	5.82975	-3.02923
1454.000	8.14723	-2.61742	5.83562	-3.08248
1455.000	8.17047	-2.55438	5.81410	-2.99181
1456.000	8.21696	-2.59142	5.84932	-3.01728
1457.000	8.16079	-2.58786	5.79061	-3.05312
1458.000	8.18209	-2.53859	5.83171	-2.97790
1459.000	8.19372	-2.57782	5.77105	-2.90518
1460.000	8.16466	-2.55835	5.81997	-2.95230
1461.000	8.18790	-2.53658	5.76909	-2.98415
1462.000	8.20146	-2.52471	5.75735	-2.97632
1463.000	8.19565	-2.48544	5.79257	-2.92481
1464.000	8.19759	-2.50311	5.80823	-3.00566
1465.000	8.29828	-2.55749	5.75539	-3.01581
1466.000	8.23632	-2.47929	5.81214	-3.03327
1467.000	8.25762	-2.54400	5.82779	-3.02529
1468.000	8.27311	-2.52229	5.82388	-3.03518
1469.000	8.22083	-2.53244	5.82388	-2.97992
1470.000	8.27311	-2.52818	5.83171	-3.08842
1471.000	8.20727	-2.54825	5.81018	-3.02539
1472.000	8.22470	-2.53242	5.80040	-3.06096
1473.000	8.22470	-2.51866	5.81605	-3.08654
1474.000	8.21308	-2.58359	5.79061	-3.02746
1475.000	8.24600	-2.57551	5.82975	-3.08251
1476.000	8.23438	-2.50681	5.78279	-3.09659
1477.000	8.22083	-2.53441	5.79453	-3.12020
1478.000	8.20727	-2.49716	5.79844	-3.08268
1479.000	8.19565	-2.59746	5.82584	-3.10030
1480.000	8.22858	-2.52257	5.80627	-3.10632
1481.000	8.24213	-2.47925	5.83562	-3.08643
1482.000	8.26924	-2.56947	5.80236	-3.09056
1483.000	8.27505	-2.50459	5.76909	-3.07692
1484.000	8.27311	-2.52229	5.78670	-2.98011
1485.000	8.28473	-2.47505	5.77300	-2.97821
1486.000	8.25568	-2.57938	5.81997	-3.01349
1487.000	8.23245	-2.53827	5.80040	-3.06491
1488.000	8.30408	-2.52995	5.77887	-3.13213
1489.000	8.29247	-2.55949	5.75147	-3.03557
1490.000	8.21889	-2.54032	5.78474	-3.00381
1491.000	8.25181	-2.52635	5.75735	-2.90920
1492.000	8.25568	-2.49292	5.74952	-2.96254
1493.000	8.19759	-2.56011	5.77300	-2.95452
1494.000	8.24794	-2.56371	5.73973	-2.93890
1495.000	8.26730	-2.51446	5.78474	-2.91498
1496.000	8.24213	-2.53034	5.71624	-2.88374
1497.000	8.28279	-2.52222	5.78279	-2.93276
1498.000	8.26537	-2.52234	5.79453	-2.90901
1499.000	8.31957	-2.51216	5.74560	-2.98428
1500.000	8.29828	-2.51427	5.77887	-2.97028
1501.000	8.28279	-2.56152	5.74952	-2.92898
1502.000	8.25375	-2.47721	5.75147	-2.93292
1503.000	8.27311	-2.58516	5.76517	-2.98615
1504.000	8.31183	-2.55151	5.76713	-2.98811
1505.000	8.28666	-2.53988	5.76713	-2.98219
1506.000	8.29247	-2.46321	5.80431	-2.94844
1507.000	8.28085	-2.52617	5.76713	-2.94863
1508.000	8.30989	-2.51616	5.75930	-3.04342
1509.000	8.25375	-2.51848	5.71233	-2.94891
1510.000	8.29053	-2.48877	5.77300	-2.97426
1511.000	8.28666	-2.49469	5.77887	-2.98805
1512.000	8.18403	-2.52482	5.74560	-3.00797
1513.000	8.34280	-2.51005	5.74756	-2.90332
1514.000	8.31957	-2.52199	5.77692	-2.99990
1515.000	8.27117	-2.53016	5.74169	-2.95271
1516.000	8.33505	-2.46491	5.75735	-2.99014
1517.000	8.29634	-2.49070	5.77496	-2.97030
1518.000	8.32151	-2.52590	5.72212	-3.00019
1519.000	8.33893	-2.56115	5.72603	-2.95082
1520.000	8.29441	-2.51626	5.76517	-2.99799
1521.000	8.32151	-2.53573	5.75539	-2.93290
1522.000	8.31570	-2.48861	5.77496	-2.99794
1523.000	8.32538	-2.53177	5.74560	-2.96848
1524.000	8.24213	-2.54803	5.70450	-2.95883
1525.000	8.32925	-2.51800	5.72016	-2.95677
1526.000	8.29828	-2.51623	5.73582	-2.91918
1527.000	8.29247	-2.53592	5.76126	-2.92892
1528.000	8.31570	-2.53773	5.76909	-2.99797
1529.000	8.29247	-2.55163	5.74560	-2.92703
1530.000	8.30215	-2.57122	5.79061	-2.90113
1531.000	8.26537	-2.56753	5.77105	-2.93479
1532.000	8.35247	-2.55321	5.76909	-2.94270
1533.000	8.26343	-2.57540	5.77887	-2.97028
1534.000	8.28085	-2.52224	5.78279	-2.97026
1535.000	8.26343	-2.52628	5.77692	-2.94068
1536.000	8.28666	-2.48487	5.79649	-2.96032
1537.000	8.31570	-2.47486	5.72212	-2.98637
1538.000	8.29247	-2.60861	5.77300	-2.94860
1539.000	8.31763	-2.57897	5.72212	-2.94294
1540.000	8.28279	-2.49668	5.78474	-2.93472
1541.000	8.31183	-2.53186	5.75735	-2.92499
1542.000	8.30408	-2.50833	5.79257	-2.99390
1543.000	8.29828	-2.53588	5.76126	-2.95656
1544.000	8.33118	-2.48262	5.77496	-2.94267
1545.000	8.32151	-2.52198	5.79061	-2.93469
1546.000	8.28085	-2.46918	5.71820	-2.87583
1547.000	8.30215	-2.49656	5.77887	-2.97621
1548.000	8.29828	-2.51623	5.74365	-2.95665
1549.000	8.25762	-2.49291	5.75147	-2.93292
1550.000	8.32538	-2.50230	5.75343	-3.00398
1551.000	8.33893	-2.51008	5.76909	-2.99995
1552.000	8.31183	-2.46309	5.77300	-2.92491
1553.000	8.27892	-2.45347	5.74952	-2.98228
1554.000	8.35441	-2.51783	5.73777	-3.00603
1555.000	8.31957	-2.53378	5.76322	-2.98221
1556.000	8.33312	-2.46689	5.74756	-2.92504
1557.000	8.28860	-2.49271	5.72407	-3.02190
1558.000	8.36602	-2.46275	5.74560	-2.91518
1559.000	8.30408	-2.44153	5.75735	-2.95855
1560.000	8.32344	-2.51410	5.78670	-2.96827
1561.000	8.35634	-2.48442	5.71820	-2.94099
1562.000	8.31570	-2.51022	5.80431	-2.95239
1563.000	8.34860	-2.47858	5.77496	-2.93082
1564.000	8.35441	-2.46086	5.77105	-2.95848
1565.000	8.35247	-2.50802	5.76713	-2.97824
1566.000	8.35634	-2.47264	5.76322	-2.89140
1567.000	8.30215	-2.51817	5.79061	-2.95246
1568.000	8.36408	-2.54724	5.74756	-2.99019
1569.000	8.35634	-2.51586	5.72407	-2.91924
1570.000	8.40085	-2.47825	5.74365	-2.92309
1571.000	8.39504	-2.46060	5.75930	-2.93090
1572.000	8.30602	-2.51422	5.79844	-2.95044
1573.000	8.34667	-2.47073	5.72603	-2.92515
1574.000	8.37182	-2.50986	5.76517	-2.95654
1575.000	8.39891	-2.45665	5.79844	-2.94649
1576.000	8.36215	-2.50010	5.79453	-2.92480
1577.000	8.32151	-2.45517	5.74952	-2.91319
1578.000	8.34473	-2.49432	5.74365	-2.93296
1579.000	8.33118	-2.47280	5.75343	-2.91711
1580.000	8.32925	-2.55532	5.73386	-2.95275
1581.000	8.36021	-2.48636	5.78866	-2.90509
1582.000	8.38150	-2.47051	5.74952	-2.93490
1583.000	8.34860	-2.51198	5.78866	-2.86363
1584.000	8.40859	-2.44873	5.76322	-2.88350
1585.000	8.35828	-2.49620	5.72799	-2.91132
1586.000	8.40278	-2.41537	5.73190	-2.88563
1587.000	8.36408	-2.57278	5.71624	-2.88374
1588.000	8.34667	-2.48449	5.79061	-2.93272
1589.000	8.43567	-2.46624	5.76517	-2.87954
1590.000	8.40859	-2.47623	5.75930	-2.84995
1591.000	8.36989	-2.46076	5.72212	-2.92517
1592.000	8.42213	-2.45454	5.72407	-2.92121
1593.000	8.40278	-2.49395	5.79453	-2.92677
1594.000	8.37182	-2.45879	5.74169	-2.92902
1595.000	8.33699	-2.42167	5.78083	-2.85577
1596.000	8.39698	-2.45863	5.71820	-2.85806
1597.000	8.34280	-2.49630	5.75735	-2.96053
1598.000	8.36795	-2.49417	5.71037	-2.90351
1599.000	8.33118	-2.48065	5.79649	-2.85569
1600.000	8.35441	-2.49819	5.76713	-2.92099
1601.000	8.39117	-2.48027	5.73973	-2.92113
1602.000	8.42213	-2.46633	5.76322	-2.91312
1603.000	8.42987	-2.44860	5.81605	-2.88718
1604.000	8.40665	-2.43892	5.75539	-2.92500
1605.000	8.43761	-2.50551	5.78279	-2.92289
1606.000	8.43374	-2.40536	5.73973	-2.88362
1607.000	8.36795	-2.49024	5.75539	-2.92895
1608.000	8.36021	-2.47261	5.71624	-2.92520
1609.000	8.37956	-2.49803	5.78670	-2.81823
1610.000	8.29441	-2.44355	5.71429	-2.84820
1611.000	8.31183	-2.40807	5.69471	-2.77523
1612.000	8.25375	-2.47328	5.64577	-2.78929
1613.000	8.27892	-2.29232	5.65164	-2.76359
1614.000	8.24213	-2.28860	5.56157	-2.66523
1615.000	8.18016	-2.19655	5.60857	-2.79342
1616.000	8.20340	-2.18462	5.54394	-2.68309
1617.000	8.21889	-2.21009	5.56157	-2.71265
1618.000	8.19178	-2.25350	5.58311	-2.71453
1619.000	8.16660	-2.18482	5.52631	-2.67922
1620.000	8.22277	-2.21007	5.55569	-2.69490
1621.000	8.21696	-2.22977	5.54003	-2.74831
1622.000	8.23245	-2.24737	5.57919	-2.71257
1623.000	8.20146	-2.26524	5.53219	-2.71674
1624.000	8.20534	-2.32420	5.60857	-2.74206
1625.000	8.19372	-2.37538	5.58311	-2.85675
1626.000	8.22083	-2.34180	5.58899	-2.71845
1627.000	8.21696	-2.29661	5.61444	-2.77562
1628.000	8.25568	-2.36714	5.61836	-2.75980
1629.000	8.22470	-2.32605	5.63990	-2.82290
1630.000	8.26149	-2.40052	5.61836	-2.79733
1631.000	8.25568	-2.41824	5.62032	-2.79534
1632.000	8.20727	-2.34974	5.65556	-2.81887
1633.000	8.21115	-2.37331	5.64968	-2.79322
1634.000	8.22858	-2.37320	5.62032	-2.73016
1635.000	8.16660	-2.39716	5.62619	-2.74001
1636.000	8.25568	-2.34945	5.66143	-2.77539
1637.000	8.15304	-2.34809	5.61836	-2.75189
1638.000	8.21696	-2.31233	5.65164	-2.72408
1639.000	8.20534	-2.37334	5.67122	-2.73979
1640.000	8.22664	-2.38108	5.64773	-2.76756
1641.000	8.25375	-2.32588	5.66339	-2.63514
1642.000	8.22664	-2.31228	5.63402	-2.71429
1643.000	8.23826	-2.36135	5.68101	-2.74370
1644.000	8.24600	-2.37113	5.65947	-2.65886
1645.000	8.24794	-2.34164	5.64773	-2.70632
1646.000	8.25181	-2.36127	5.65947	-2.75368
1647.000	8.18790	-2.40883	5.62423	-2.74594
1648.000	8.18790	-2.36362	5.60073	-2.72235
1649.000	8.28279	-2.30409	5.62815	-2.71629
1650.000	8.27311	-2.35918	5.58115	-2.71454
1651.000	8.27698	-2.29036	5.56353	-2.67708
1652.000	8.28860	-2.37284	5.59878	-2.67494
1653.000	8.19372	-2.30854	5.55178	-2.69096
1654.000	8.26537	-2.35726	5.55178	-2.66528
1655.000	8.21502	-2.35559	5.61248	-2.65117
1656.000	8.30408	-2.30986	5.58115	-2.62168
1657.000	8.22470	-2.28084	5.58703	-2.69080
1658.000	8.20921	-2.32221	5.60073	-2.61764
1659.000	8.27892	-2.30804	5.57919	-2.63156
1660.000	8.25568	-2.27869	5.59682	-2.66507
1661.000	8.25181	-2.28068	5.58899	-2.61967
1662.000	8.26537	-2.24915	5.60857	-2.65317
1663.000	8.26537	-2.23932	5.57724	-2.60984
1664.000	8.22470	-2.25135	5.53807	-2.62187
1665.000	8.22470	-2.21399	5.58703	-2.59399
1666.000	8.30021	-2.16639	5.60269	-2.58799
1667.000	8.29441	-2.19001	5.56744	-2.59012
1668.000	8.27892	-2.22155	5.57919	-2.63354
1669.000	8.28279	-2.21563	5.58703	-2.57620
1670.000	8.30602	-2.12901	5.56353	-2.64942
1671.000	8.31376	-2.17811	5.59290	-2.64533
1672.000	8.28279	-2.16649	5.61248	-2.67685
1673.000	8.29053	-2.18414	5.56353	-2.63559
1674.000	8.26149	-2.21575	5.60465	-2.66109
1675.000	8.30021	-2.15656	5.57332	-2.62369
1676.000	8.26924	-2.17050	5.58311	-2.60981
1677.000	8.26924	-2.20195	5.57528	-2.63751
1678.000	8.30796	-2.19387	5.57332	-2.64542
1679.000	8.26924	-2.17836	5.62619	-2.63333
1680.000	8.34473	-2.16615	5.54394	-2.63172
1681.000	8.32344	-2.19968	5.56744	-2.57827
1682.000	8.33505	-2.15048	5.56157	-2.59015
1683.000	8.29634	-2.20180	5.59486	-2.59988
1684.000	8.31570	-2.22331	5.57724	-2.56044
1685.000	8.34667	-2.14452	5.61053	-2.56227
1686.000	8.30602	-2.22926	5.60269	-2.66702
1687.000	8.32731	-2.24093	5.54590	-2.61788
1688.000	8.34086	-2.22710	5.60661	-2.60773
1689.000	8.30796	-2.19190	5.54982	-2.66529
1690.000	8.27892	-2.25300	5.60857	-2.58796
1691.000	8.33893	-2.24676	5.55569	-2.57239
1692.000	8.35634	-2.20539	5.61248	-2.60178
1693.000	8.28666	-2.21954	5.59878	-2.64728
1694.000	8.32731	-2.23504	5.61248	-2.58992
1695.000	8.30796	-2.24498	5.59682	-2.61173
1696.000	8.33505	-2.28609	5.56549	-2.61977
1697.000	8.30215	-2.25680	5.60465	-2.59984
1698.000	8.32731	-2.26845	5.62032	-2.63731
1699.000	8.36989	-2.26231	5.58311	-2.54263
1700.000	8.34667	-2.21920	5.59486	-2.59000
1701.000	8.32151	-2.23507	5.54982	-2.59810
1702.000	8.28085	-2.21565	5.58115	-2.56042
1703.000	8.33893	-2.24087	5.61444	-2.58004
1704.000	8.35828	-2.27613	5.59878	-2.59196
1705.000	8.31570	-2.29800	5.58507	-2.63154
1706.000	8.30989	-2.20565	5.59878	-2.61567
1707.000	8.30796	-2.21156	5.57136	-2.56639
1708.000	8.31183	-2.23513	5.56744	-2.62371
1709.000	8.35054	-2.24277	5.57919	-2.59995
1710.000	8.27311	-2.27269	5.57332	-2.58022
1711.000	8.38537	-2.29955	5.59290	-2.60384
1712.000	8.30602	-2.25088	5.61444	-2.68870
1713.000	8.30408	-2.28234	5.65947	-2.63713
1714.000	8.26924	-2.25699	5.57528	-2.64146
1715.000	8.33505	-2.19175	5.62032	-2.66497
1716.000	8.30021	-2.27843	5.62619	-2.67284
1717.000	8.28860	-2.28047	5.61836	-2.63732
1718.000	8.35828	-2.22700	5.63598	-2.69650
1719.000	8.27311	-2.26680	5.61640	-2.69264
1720.000	8.36021	-2.26433	5.61053	-2.63735
1721.000	8.33699	-2.23695	5.62423	-2.69656
1722.000	8.27698	-2.22943	5.57136	-2.68297
1723.000	8.30021	-2.23519	5.63011	-2.64121
1724.000	8.29828	-2.24896	5.62815	-2.70444
1725.000	8.32151	-2.24097	5.59682	-2.63741
1726.000	8.27892	-2.27070	5.65360	-2.68457
1727.000	8.28473	-2.22152	5.66926	-2.59955
1728.000	8.32344	-2.18985	5.65360	-2.73988
1729.000	8.31183	-2.24889	5.64381	-2.62930
1730.000	8.23051	-2.24149	5.61640	-2.65708
1731.000	8.29441	-2.22933	5.57919	-2.69084
1732.000	8.32344	-2.15447	5.63598	-2.59772
1733.000	8.33699	-2.23498	5.64577	-2.64904
1734.000	8.30602	-2.27250	5.62815	-2.65110
1735.000	8.32538	-2.19967	5.59290	-2.58211
1736.000	8.30602	-2.23713	5.61836	-2.68868
1737.000	8.32151	-2.22131	5.64185	-2.63721
1738.000	8.34473	-2.26245	5.58311	-2.61969
1739.000	8.35828	-2.19948	5.58899	-2.66511
1740.000	8.33118	-2.21733	5.65556	-2.59368
1741.000	8.35634	-2.21718	5.58507	-2.60783
1742.000	8.34667	-2.24475	5.60073	-2.64135
1743.000	8.32538	-2.26060	5.63990	-2.57400
1744.000	8.34280	-2.26246	5.62815	-2.60961
1745.000	8.36021	-2.25450	5.65752	-2.65887
1746.000	8.30602	-2.17619	5.62423	-2.61753
1747.000	8.36602	-2.23285	5.63011	-2.55033
1748.000	8.32344	-2.27044	5.61836	-2.65707
1749.000	8.38150	-2.27207	5.55373	-2.61785
1750.000	8.35054	-2.23294	5.60073	-2.61171
1751.000	8.37956	-2.27601	5.62423	-2.56221
1752.000	8.38537	-2.31331	5.61053	-2.58796
1753.000	8.33312	-2.29593	5.62032	-2.57803
1754.000	8.35828	-2.25058	5.60269	-2.58799
1755.000	8.37376	-2.27997	5.64773	-2.60952
1756.000	8.34473	-2.28800	5.57724	-2.59403
1757.000	8.33118	-2.24681	5.56157	-2.59608
1758.000	8.33699	-2.25464	5.61248	-2.60178
1759.000	8.35247	-2.20345	5.63402	-2.61551
1760.000	8.36989	-2.30161	5.63206	-2.66491
1761.000	8.35054	-2.25456	5.66535	-2.62327
1762.000	8.36602	-2.21909	5.61248	-2.69068
1763.000	8.40859	-2.21296	5.66535	-2.59957
1764.000	8.44341	-2.11254	5.60465	-2.66504
1765.000	8.46275	-2.08099	5.63011	-2.66690
1766.000	8.38924	-2.14428	5.65360	-2.73000
1767.000	8.35247	-2.10714	5.61248	-2.64524
1768.000	8.44148	-2.07914	5.65360	-2.64308
1769.000	8.38730	-2.12464	5.67318	-2.62916
1770.000	8.36215	-2.17588	5.62227	-2.62544
1771.000	8.38150	-2.09519	5.62815	-2.65308
1772.000	8.38343	-2.10107	5.61053	-2.69464
1773.000	8.32925	-2.10923	5.63598	-2.61155
1774.000	8.40472	-2.09506	5.63402	-2.68861
1775.000	8.42987	-2.16371	5.65164	-2.70828
1776.000	8.42407	-2.15588	5.63011	-2.64516
1777.000	8.38730	-2.14036	5.60269	-2.71048
1778.000	8.42020	-2.11267	5.70254	-2.58952
1779.000	8.43180	-2.17942	5.60661	-2.62947
1780.000	8.41052	-2.17561	5.61640	-2.69659
1781.000	8.35634	-2.12874	5.60661	-2.65120
1782.000	8.44728	-2.15182	5.66143	-2.68256
1783.000	8.39117	-2.09710	5.61836	-2.63929
1784.000	8.38343	-2.11680	5.60661	-2.71837
1785.000	8.34860	-2.14647	5.67905	-2.62321
1786.000	8.39311	-2.11085	5.65164	-2.61741
1787.000	8.33505	-2.04629	5.63990	-2.60166
1788.000	8.32731	-2.10727	5.65556	-2.61739
1789.000	8.35247	-2.19166	5.60073	-2.67691
1790.000	8.38343	-2.07159	5.62423	-2.56221
1791.000	8.43374	-2.08508	5.63011	-2.62936
1792.000	8.44341	-2.02410	5.69080	-2.59550
1793.000	8.44341	-2.05948	5.64577	-2.63126
1794.000	8.48403	-2.06122	5.63598	-2.64316
1795.000	8.43374	-2.16565	5.66339	-2.58575
1796.000	8.45308	-2.09676	5.62619	-2.62345
1797.000	8.46275	-2.06723	5.63402	-2.61354
1798.000	8.43761	-2.07916	5.64773	-2.61150
1799.000	8.41246	-2.11664	5.65360	-2.58776
1800.000	8.44728	-2.16361	5.59290	-2.65916
1801.000	8.41246	-2.18149	5.59486	-2.63545
1802.000	8.47049	-2.13204	5.66730	-2.65092
1803.000	8.43374	-2.19513	5.63206	-2.65306
1804.000	8.37569	-2.16204	5.64381	-2.59769
1805.000	8.45695	-2.07709	5.65752	-2.63714
1806.000	8.44534	-2.10074	5.62227	-2.61754
1807.000	8.44341	-2.08110	5.57724	-2.58810
1808.000	8.40472	-2.07737	5.63794	-2.62537
1809.000	8.41052	-2.13827	5.67122	-2.68251
1810.000	8.44148	-2.09093	5.65360	-2.61345
1811.000	8.37182	-2.16207	5.61248	-2.62944
1812.000	8.36408	-2.14639	5.66535	-2.64303
1813.000	8.43374	-2.09294	5.64773	-2.61743
1814.000	8.43374	-2.05953	5.64577	-2.60361
1815.000	8.40665	-2.05378	5.64968	-2.62927
1816.000	8.43761	-2.09292	5.64381	-2.58781
1817.000	8.47629	-2.11236	5.66730	-2.62326
1818.000	8.48016	-2.13199	5.65164	-2.59568
1819.000	8.36795	-2.05595	5.61836	-2.62546
1820.000	8.38924	-2.03814	5.63402	-2.60168
1821.000	8.46082	-2.06724	5.63598	-2.54240
1822.000	8.48403	-2.03961	5.69080	-2.53821
1823.000	8.44148	-2.06342	5.62619	-2.60172
1824.000	8.45695	-2.02992	5.65556	-2.62332
1825.000	8.46469	-2.02792	5.63402	-2.59773
1826.000	8.42213	-2.00849	5.58311	-2.63747
1827.000	8.43567	-2.04969	5.66535	-2.67266
1828.000	8.44921	-1.99262	5.63402	-2.66688
1829.000	8.47823	-2.03767	5.63011	-2.65702
1830.000	8.47436	-2.08486	5.58899	-2.58410
1831.000	8.42793	-2.11066	5.63206	-2.60959
1832.000	8.49756	-1.99827	5.64968	-2.60359
1833.000	8.47823	-2.09663	5.62032	-2.61953
1834.000	8.49370	-2.03759	5.60073	-2.57812
1835.000	8.44728	-2.02605	5.58311	-2.61179
1836.000	8.45115	-2.04371	5.62423	-2.74594
1837.000	8.43180	-2.09295	5.57528	-2.65332
1838.000	8.44921	-2.05945	5.61444	-2.61362
1839.000	8.47049	-2.14580	5.63011	-2.65307
1840.000	8.46082	-2.07904	5.61053	-2.60969
1841.000	8.39117	-2.11872	5.62619	-2.59184
1842.000	8.45115	-2.10071	5.55961	-2.54471
1843.000	8.47823	-2.15165	5.58703	-2.54656
1844.000	8.45502	-2.14785	5.62032	-2.54444
1845.000	8.45308	-2.14786	5.59682	-2.55047
1846.000	8.41633	-2.17951	5.61640	-2.55434
1847.000	8.47436	-2.16149	5.50085	-2.52717
1848.000	8.43954	-2.16562	5.61444	-2.41799
1849.000	8.40859	-2.13238	5.58899	-2.49320
1850.000	8.38150	-2.10698	5.56940	-2.49723
1851.000	8.41826	-2.12643	5.54394	-2.50327
1852.000	8.45308	-2.13410	5.57528	-2.54069
1853.000	8.47629	-2.14183	5.57528	-2.56638
1854.000	8.39891	-2.12654	5.59486	-2.59593
1855.000	8.42600	-2.06743	5.58507	-2.58016
1856.000	8.47436	-2.12809	5.54003	-2.51119
1857.000	8.47049	-2.02003	5.57724	-2.57427
1858.000	8.46469	-2.05543	5.62619	-2.52071
1859.000	8.44728	-2.06535	5.54003	-2.56060
1860.000	8.46082	-2.10065	5.56353	-2.50714
1861.000	8.47049	-2.09470	5.58899	-2.54853
1862.000	8.40472	-2.06558	5.60269	-2.51883
1863.000	8.53237	-2.04132	5.64185	-2.52657
1864.000	8.46275	-2.04562	5.57136	-2.52885
1865.000	8.50917	-1.97266	5.57332	-2.53279
1866.000	8.42987	-2.09493	5.62619	-2.55430
1867.000	8.47242	-2.12024	5.55765	-2.48938
1868.000	8.53237	-2.07275	5.63990	-2.51274
1869.000	8.43761	-2.03592	5.60465	-2.57020
1870.000	8.45888	-1.98864	5.55569	-2.47951
1871.000	8.51303	-1.96871	5.59486	-2.55048
1872.000	8.52464	-2.00009	5.62619	-2.49106
1873.000	8.47049	-2.05540	5.65360	-2.51071
1874.000	8.46275	-2.04955	5.61836	-2.54840
1875.000	8.48790	-2.02387	5.62815	-2.35864
1876.000	8.51497	-2.03355	5.59290	-2.59001
1877.000	8.47242	-2.02984	5.56744	-2.52293
1878.000	8.50917	-2.05912	5.61444	-2.58004
1879.000	8.55170	-1.99995	5.53807	-2.54678
1880.000	8.56717	-1.97826	5.59094	-2.56631
1881.000	8.47823	-2.00230	5.60661	-2.61168
1882.000	8.44921	-1.98673	5.57332	-2.54465
1883.000	8.50723	-2.01394	5.59878	-2.59394
1884.000	8.42793	-2.02811	5.63598	-2.60562
1885.000	8.47629	-1.97086	5.61640	-2.59188
1886.000	8.46469	-2.03381	5.59486	-2.55443
1887.000	8.54397	-1.94694	5.55178	-2.59019
1888.000	8.44534	-2.01623	5.61444	-2.57608
1889.000	8.51110	-2.09055	5.59878	-2.58998
1890.000	8.53044	-2.04133	5.57136	-2.61382
1891.000	8.49756	-2.03168	5.52436	-2.61995
1892.000	8.45695	-2.00831	5.60073	-2.59985
1893.000	8.46275	-1.96111	5.58115	-2.64341
1894.000	8.46469	-1.90803	5.58115	-2.60785
1895.000	8.48209	-1.95708	5.61640	-2.59386
1896.000	8.48209	-1.99835	5.56744	-2.60000
1897.000	8.51690	-1.99817	5.53807	-2.58432
1898.000	8.55170	-1.94493	5.56353	-2.59607
1899.000	8.54977	-2.00389	5.60269	-2.57021
1900.000	8.52077	-1.94705	5.58703	-2.57225
1901.000	8.50530	-1.97661	5.58311	-2.55251
1902.000	8.53430	-1.97253	5.61836	-2.54643
1903.000	8.51110	-1.98837	5.55178	-2.57241
1904.000	8.50530	-1.93534	5.59094	-2.58014
1905.000	8.52464	-1.98830	5.58507	-2.61376
1906.000	8.51497	-1.95101	5.58507	-2.59202
1907.000	8.49756	-1.94521	5.56549	-2.60396
1908.000	8.47049	-1.87065	5.53023	-2.60807
1909.000	8.47049	-1.93355	5.59682	-2.59592
1910.000	8.52657	-1.98240	5.63011	-2.60368
1911.000	8.55364	-1.93313	5.55765	-2.58226
1912.000	8.47436	-1.94532	5.61444	-2.57016
1913.000	8.50723	-1.93336	5.54786	-2.67122
1914.000	8.49176	-1.85679	5.60073	-2.56034
1915.000	8.52850	-1.96077	5.57332	-2.56638
1916.000	8.54204	-1.83689	5.54590	-2.62381
1917.000	8.50337	-1.84101	5.57136	-2.55058
1918.000	8.46856	-1.89032	5.54590	-2.60603
1919.000	8.52850	-1.89985	5.58115	-2.56833
1920.000	8.53817	-1.93517	5.61640	-2.57410
1921.000	8.50723	-1.88816	5.55765	-2.60202
1922.000	8.53430	-1.93912	5.56353	-2.63163
1923.000	8.56330	-1.93308	5.55569	-2.61784
1924.000	8.54204	-1.82903	5.59486	-2.62359
1925.000	8.52464	-1.93524	5.60857	-2.68873
1926.000	8.56137	-1.91737	5.60269	-2.68875
1927.000	8.53237	-1.99023	5.59486	-2.70854
1928.000	8.57490	-1.98804	5.59682	-2.65124
1929.000	8.53624	-1.92339	5.60465	-2.66306
1930.000	8.54977	-1.92136	5.58507	-2.68093
1931.000	8.61356	-1.85423	5.59682	-2.58802
1932.000	8.51884	-1.97065	5.62619	-2.62938
1933.000	8.51110	-1.94710	5.60857	-2.60575
1934.000	8.51690	-1.92546	5.59878	-2.57615
1935.000	8.51497	-2.02765	5.61444	-2.57411
1936.000	8.52270	-1.96473	5.58899	-2.63745
1937.000	8.50917	-1.90977	5.56744	-2.65730
1938.000	8.50337	-1.98252	5.61836	-2.58397
1939.000	8.51690	-1.91366	5.58703	-2.60189
1940.000	8.53430	-1.88999	5.63011	-2.63529
1941.000	8.54977	-1.94691	5.58703	-2.60584
1942.000	8.55170	-1.94493	5.57136	-2.60986
1943.000	8.53044	-1.99810	5.57919	-2.57624
1944.000	8.51497	-1.99425	5.59682	-2.61765
1945.000	8.50143	-2.06113	5.59878	-2.58998
1946.000	8.58650	-1.94279	5.55765	-2.54669
1947.000	8.54397	-2.00589	5.55178	-2.56648
1948.000	8.53430	-2.00790	5.58507	-2.55448
1949.000	8.53430	-1.97646	5.56157	-2.54272
1950.000	8.50337	-1.99234	5.55961	-2.58225
1951.000	8.54397	-2.03929	5.54198	-2.57443
1952.000	8.49176	-1.96685	5.58507	-2.56436
1953.000	8.57104	-1.96645	5.52436	-2.61007
1954.000	8.52077	-2.07478	5.49497	-2.55684
1955.000	8.46856	-2.03576	5.57919	-2.55648
1956.000	8.50723	-1.98053	5.54394	-2.54280
1957.000	8.47242	-1.99250	5.53219	-2.54878
1958.000	8.48790	-2.10640	5.59878	-2.55837
1959.000	8.48790	-2.04352	5.54394	-2.57442
1960.000	8.54204	-2.11593	5.53219	-2.59423
1961.000	8.55750	-2.13941	5.46755	-2.52138
1962.000	8.47242	-2.17919	5.53611	-2.56655
1963.000	8.48983	-2.07495	5.52631	-2.49742
1964.000	8.51690	-2.10035	5.46755	-2.50952
1965.000	8.48209	-2.12608	5.53023	-2.50333
1966.000	8.51110	-2.14557	5.51652	-2.50339
1967.000	8.48983	-2.08674	5.52631	-2.51323
1968.000	8.48209	-2.13984	5.51064	-2.52515
1969.000	8.51303	-2.17896	5.53415	-2.54877
1970.000	8.46275	-2.17728	5.58311	-2.48927
1971.000	8.55557	-2.13550	5.55373	-2.47754
1972.000	8.49370	-2.12798	5.53219	-2.46972
1973.000	8.43567	-2.15188	5.53611	-2.58631
1974.000	8.47436	-2.18507	5.53415	-2.44995
1975.000	8.48403	-2.13786	5.52827	-2.53298
1976.000	8.50337	-2.16919	5.51652	-2.51722
1977.000	8.43567	-2.15582	5.46951	-2.51742
1978.000	8.44534	-2.13021	5.53807	-2.55666
1979.000	8.50917	-2.15344	5.55961	-2.59806
1980.000	8.48209	-2.23218	5.52044	-2.55476
1981.000	8.45888	-2.19106	5.55373	-2.50125
1982.000	8.54590	-2.11198	5.54394	-2.58627
1983.000	8.53237	-2.14545	5.53807	-2.52306
1984.000	8.47436	-2.09468	5.54394	-2.62777
1985.000	8.49176	-2.09852	5.51456	-2.65161
1986.000	8.52464	-2.10620	5.54003	-2.65150
1987.000	8.45888	-2.15176	5.53611	-2.59026
1988.000	8.48016	-2.12413	5.55373	-2.57833
1989.000	8.47629	-2.10646	5.50281	-2.61610
1990.000	8.49756	-2.11028	5.52436	-2.57450
1991.000	8.45695	-2.12819	5.50673	-2.54889
1992.000	8.47049	-2.16741	5.53219	-2.61794
1993.000	8.44921	-2.13412	5.49889	-2.65563
1994.000	8.47629	-2.05734	5.58311	-2.70465
1995.000	8.48209	-2.15556	5.56157	-2.62374
1996.000	8.45695	-2.13015	5.55961	-2.66129
1997.000	8.50530	-2.06111	5.51456	-2.61407
1998.000	8.53237	-2.06096	5.49889	-2.66156
1999.000	8.50917	-2.05912	5.51064	-2.63582
2000.000	8.44921	-2.06338	5.49889	-2.62995
2001.000	8.45115	-2.06140	5.50281	-2.55681
2002.000	8.48790	-2.03173	5.53023	-2.55076
2003.000	8.51690	-2.10428	5.52827	-2.57251
2004.000	8.51497	-2.02372	5.51064	-2.61408
2005.000	8.52657	-2.01384	5.50477	-2.59830
2006.000	8.50917	-1.98838	5.55373	-2.55264
2007.000	8.52657	-1.99615	5.52436	-2.58636
2008.000	8.47436	-1.97480	5.52436	-2.56264
2009.000	8.51303	-2.00998	5.52240	-2.52708
2010.000	8.46662	-2.02791	5.49106	-2.51338
2011.000	8.49176	-1.99044	5.44600	-2.47799
2012.000	8.51303	-1.99033	5.47734	-2.54704
2013.000	8.49950	-2.00415	5.52631	-2.41836
2014.000	8.52657	-2.03152	5.50869	-2.51726
2015.000	8.57104	-1.96841	5.47930	-2.50750
2016.000	8.54204	-2.00393	5.49693	-2.60426
2017.000	8.48596	-1.97081	5.50673	-2.55284
2018.000	8.52464	-2.05708	5.55178	-2.46371
2019.000	8.47629	-2.01214	5.51064	-2.56666
2020.000	8.54010	-2.03931	5.56940	-2.52293
2021.000	8.51690	-1.96869	5.56940	-2.60197
2022.000	8.48790	-1.95312	5.52044	-2.55080
2023.000	8.49756	-2.01399	5.58703	-2.59004
2024.000	8.52077	-1.95098	5.52240	-2.56463
2025.000	8.57490	-2.04895	5.51260	-2.56072
2026.000	8.49563	-2.06902	5.54982	-2.52103
2027.000	8.45502	-2.03583	5.50869	-2.56271
2028.000	8.52464	-1.95686	5.55765	-2.61783
2029.000	8.53624	-1.95680	5.57332	-2.56441
2030.000	8.57297	-2.03913	5.53219	-2.65153
2031.000	8.50723	-1.98250	5.49106	-2.62800
2032.000	8.50337	-1.97662	5.57919	-2.59007
2033.000	8.50143	-2.06310	5.61640	-2.62942
2034.000	8.52464	-2.01778	5.55765	-2.62178
2035.000	8.54977	-1.97245	5.58115	-2.60587
2036.000	8.50143	-1.97467	5.57332	-2.68889
2037.000	8.52850	-1.98435	5.56157	-2.72845
2038.000	8.49370	-1.99632	5.60269	-2.71246
2039.000	8.54397	-1.96266	5.53807	-2.74634
2040.000	8.55944	-1.91542	5.57528	-2.69481
2041.000	8.53817	-1.96072	5.51456	-2.64766
2042.000	8.45115	-1.93561	5.54198	-2.62975
2043.000	8.53044	-1.95486	5.56157	-2.61979
2044.000	8.51884	-1.99816	5.61248	-2.66698
2045.000	8.54204	-2.10217	5.57332	-2.69086
2046.000	8.56137	-2.04509	5.59486	-2.62952
2047.000	8.55364	-1.96654	5.51260	-2.67731
2048.000	8.53237	-2.05311	5.53023	-2.64759
2049.000	8.54784	-2.03534	5.56157	-2.63955
2050.000	8.50530	-1.95696	5.54590	-2.66926
2051.000	8.56717	-1.98415	5.57528	-2.66517
2052.000	8.52850	-2.05116	5.62032	-2.64126
2053.000	8.58650	-1.92903	5.58311	-2.65130
2054.000	8.56910	-2.02540	5.54590	-2.62381
2055.000	8.60390	-1.95056	5.57724	-2.63355
2056.000	8.54590	-2.01177	5.58507	-2.63154
2057.000	8.55750	-2.04708	5.53415	-2.61201
2058.000	8.60969	-2.04287	5.54394	-2.59813
2059.000	8.54784	-1.99015	5.51848	-2.58836
2060.000	8.56717	-2.06471	5.55373	-2.59413
2061.000	8.56717	-2.00380	5.52631	-2.62390
2062.000	8.54397	-1.95873	5.55765	-2.55855
2063.000	8.56330	-2.00971	5.52044	-2.54685
2064.000	8.57297	-1.93893	5.50869	-2.56864
2065.000	8.60969	-2.02126	5.53415	-2.55865
2066.000	8.62322	-1.93867	5.46951	-2.55300
2067.000	8.54784	-1.96657	5.55373	-2.57240
2068.000	8.59230	-1.97223	5.52436	-2.58438
2069.000	8.54204	-1.96267	5.50085	-2.55682
2070.000	8.64448	-1.83050	5.54003	-2.55665
2071.000	8.61936	-1.93476	5.52436	-2.52905
2072.000	8.56330	-1.91147	5.44796	-2.53925
2073.000	8.59037	-1.93294	5.51456	-2.52909
2074.000	8.59037	-2.01939	5.51456	-2.56071
2075.000	8.61356	-1.92890	5.52827	-2.54682
2076.000	8.57297	-1.88784	5.49693	-2.57660
2077.000	8.55944	-1.96258	5.52827	-2.58041
2078.000	8.59230	-1.89757	5.52240	-2.57253
2079.000	8.58843	-1.88186	5.54590	-2.56453
2080.000	8.52270	-1.95490	5.50673	-2.54691
2081.000	8.60969	-1.96232	5.53219	-2.48158
2082.000	8.59230	-1.87988	5.55765	-2.53088
2083.000	8.60583	-1.93876	5.52240	-2.61799
2084.000	8.58843	-1.90151	5.50281	-2.58052
2085.000	8.56910	-1.85838	5.47538	-2.56286
2086.000	8.56524	-1.95862	5.49106	-2.50942
2087.000	8.64061	-1.92876	5.52827	-2.58041
2088.000	8.57104	-1.92125	5.52044	-2.55871
2089.000	8.58263	-1.91333	5.57136	-2.53477
2090.000	8.60003	-1.92307	5.52631	-2.57252
2091.000	8.56524	-1.95272	5.51652	-2.61406
2092.000	8.59230	-1.91525	5.56157	-2.54865
2093.000	8.55170	-2.02353	5.52436	-2.56462
2094.000	8.57297	-2.03127	5.56549	-2.58815
2095.000	8.60776	-1.93678	5.50085	-2.50938
2096.000	8.59617	-1.90344	5.56157	-2.61386
2097.000	8.58457	-1.91136	5.48518	-2.55491
2098.000	8.61936	-1.95637	5.53219	-2.54878
2099.000	8.55944	-1.95865	5.50869	-2.56074
2100.000	8.58650	-1.90349	5.50869	-2.58050
2101.000	8.60003	-1.94665	5.53807	-2.57444
2102.000	8.60390	-1.91323	5.52044	-2.56661
2103.000	8.59423	-1.99973	5.58507	-2.57621
2104.000	8.56717	-1.92324	5.51456	-2.57059
2105.000	8.54204	-1.95481	5.55961	-2.59806
2106.000	8.53430	-1.94698	5.54786	-2.61392
2107.000	8.56137	-1.94095	5.52240	-2.51917
2108.000	8.55364	-1.95278	5.50477	-2.62794
2109.000	8.55364	-1.95082	5.55569	-2.64945
2110.000	8.59037	-2.04690	5.47538	-2.60436
2111.000	8.53044	-2.00989	5.46951	-2.67355
2112.000	8.56717	-1.96843	5.50673	-2.66548
2113.000	8.53044	-1.96862	5.52240	-2.63379
2114.000	8.56910	-1.99396	5.56744	-2.65335
2115.000	8.56910	-2.03130	5.57724	-2.57625
2116.000	8.55750	-2.03725	5.54394	-2.67322
2117.000	8.55944	-2.01563	5.50869	-2.66942
2118.000	8.51497	-2.03748	5.49693	-2.71097
2119.000	8.55944	-2.04314	5.51848	-2.62591
2120.000	8.55944	-2.04117	5.52044	-2.68715
2121.000	8.53430	-2.05113	5.59486	-2.64532
2122.000	8.51690	-2.01192	5.50477	-2.67339
2123.000	8.52657	-2.03938	5.51652	-2.66544
2124.000	8.56524	-2.08436	5.51456	-2.62395
2125.000	8.56330	-2.08437	5.53415	-2.70290
2126.000	8.54010	-2.08254	5.53807	-2.64558
2127.000	8.53624	-2.10220	5.51064	-2.65163
2128.000	8.54010	-2.08647	5.55373	-2.63168
2129.000	8.52077	-2.09443	5.50477	-2.66549
2130.000	8.56524	-2.06079	5.51064	-2.62397
2131.000	8.48403	-2.03568	5.53023	-2.55274
2132.000	8.53430	-2.10418	5.52044	-2.57254
2133.000	8.54590	-2.06286	5.53611	-2.60014
2134.000	8.56137	-2.02937	5.53219	-2.62782
2135.000	8.54590	-1.99605	5.46559	-2.57278
2136.000	8.48209	-2.00424	5.53415	-2.63769
2137.000	8.50530	-2.01984	5.49497	-2.56079
2138.000	8.51690	-2.03747	5.51064	-2.59432
2139.000	8.48790	-2.06120	5.51652	-2.57256
2140.000	8.45308	-2.11249	5.54590	-2.62183
2141.000	8.48209	-2.10054	5.52436	-2.62786
2142.000	8.55364	-2.02548	5.56549	-2.57432
2143.000	8.53430	-2.11597	5.53219	-2.63968
2144.000	8.56137	-2.15314	5.50477	-2.58052
2145.000	8.52657	-2.05903	5.51260	-2.59629
2146.000	8.52464	-2.05118	5.55569	-2.63365
2147.000	8.50337	-2.01199	5.49497	-2.55487
2148.000	8.52850	-2.01776	5.50281	-2.56076
2149.000	8.50723	-2.15149	5.54003	-2.54479
2150.000	8.51497	-2.08071	5.48322	-2.54108
2151.000	8.54977	-2.11588	5.48910	-2.54106
2152.000	8.53430	-2.04917	5.48714	-2.48375
2153.000	8.48403	-2.10839	5.55961	-2.50518
2154.000	8.49563	-2.12011	5.48126	-2.44621
2155.000	8.51303	-2.07482	5.48714	-2.44421
2156.000	8.49176	-2.06511	5.49693	-2.51335
2157.000	8.50143	-2.11812	5.49693	-2.51335
2158.000	8.57684	-2.10198	5.48910	-2.55094
2159.000	8.50337	-2.11221	5.50085	-2.50938
2160.000	8.49950	-2.11616	5.49106	-2.50349
2161.000	8.52077	-2.12980	5.46559	-2.52930
2162.000	8.45308	-2.14982	5.49497	-2.53708
2163.000	8.59037	-2.13334	5.52044	-2.52511
2164.000	8.49370	-2.12209	5.46559	-2.54116
2165.000	8.51690	-2.16715	5.45775	-2.55107
2166.000	8.54397	-2.13163	5.48910	-2.58651
2167.000	8.49370	-2.10833	5.48322	-2.63792
2168.000	8.55170	-2.15123	5.51260	-2.53898
2169.000	8.54204	-2.18076	5.49302	-2.57266
2170.000	8.53044	-2.12974	5.53807	-2.62582
2171.000	8.51690	-2.13178	5.52827	-2.58832
2172.000	8.53817	-2.14345	5.52044	-2.63578
2173.000	8.48790	-2.17910	5.50673	-2.59236
2174.000	8.54977	-2.10802	5.52436	-2.62390
2175.000	8.45502	-2.13606	5.51652	-2.64568
2176.000	8.48016	-2.17129	5.53219	-2.64363
2177.000	8.52077	-2.13962	5.53415	-2.63967
2178.000	8.51497	-2.18681	5.56940	-2.62568
2179.000	8.50530	-2.12006	5.56157	-2.63362
2180.000	8.49176	-2.07101	5.54590	-2.60998
2181.000	8.54397	-2.15717	5.49106	-2.59441
2182.000	8.49176	-2.14764	5.52827	-2.63772
2183.000	8.48983	-2.16927	5.47930	-2.55889
2184.000	8.50337	-2.16526	5.53611	-2.57050
2185.000	8.46856	-2.19689	5.47930	-2.62213
2186.000	8.51110	-2.12003	5.52044	-2.60219
2187.000	8.50530	-2.19472	5.55178	-2.61786
2188.000	8.52077	-2.16320	5.53023	-2.54879
2189.000	8.45695	-2.14784	5.53611	-2.62978
2190.000	8.50337	-2.16330	5.50673	-2.68721
2191.000	8.47242	-2.25189	5.51848	-2.57848
2192.000	8.45115	-2.18324	5.51260	-2.62988
2193.000	8.48403	-2.16144	5.52044	-2.61799
2194.000	8.48983	-2.20463	5.54003	-2.61988
2195.000	8.46662	-2.21066	5.54394	-2.65938
2196.000	8.49756	-2.18494	5.47930	-2.57470
2197.000	8.49950	-2.17904	5.48714	-2.52130
2198.000	8.49950	-2.24190	5.54590	-2.59219
2199.000	8.46856	-2.21851	5.53807	-2.61396
2200.000	8.45308	-2.20091	5.51848	-2.51524
2201.000	8.44534	-2.20882	5.47538	-2.58855
2202.000	8.54977	-2.12178	5.49889	-2.49951
2203.000	8.50723	-2.24972	5.52044	-2.51523
2204.000	8.51110	-2.22023	5.53415	-2.52703
2205.000	8.47436	-2.19686	5.49889	-2.58449
2206.000	8.48209	-2.15163	5.46755	-2.59451
2207.000	8.51110	-2.15146	5.50281	-2.57855
2208.000	8.52657	-2.18085	5.47734	-2.60237
2209.000	8.52077	-2.11211	5.49889	-2.59437
2210.000	8.53624	-2.12578	5.54394	-2.50722
2211.000	8.54010	-2.13362	5.49302	-2.52720
2212.000	8.47823	-2.12610	5.48714	-2.53316
2213.000	8.48016	-2.06321	5.54198	-2.56257
2214.000	8.50143	-2.12204	5.56549	-2.56444
2215.000	8.54397	-2.16503	5.48322	-2.56282
2216.000	8.48209	-2.16931	5.48714	-2.55885
2217.000	8.46275	-2.13601	5.52240	-2.55475
2218.000	8.48983	-2.15158	5.53219	-2.58040
2219.000	8.47436	-2.13398	5.47343	-2.55100
2220.000	8.48596	-2.15357	5.48910	-2.55489
2221.000	8.49563	-2.11422	5.50477	-2.53506
2222.000	8.50917	-2.12790	5.50869	-2.59236
2223.000	8.49756	-2.11224	5.53219	-2.51518
2224.000	8.49176	-2.12799	5.48518	-2.63001
2225.000	8.50530	-2.06897	5.48322	-2.58258
2226.000	8.50530	-2.14953	5.48910	-2.65963
2227.000	8.43180	-2.16959	5.53611	-2.59224
2228.000	8.47823	-2.09859	5.55569	-2.56251
2229.000	8.49370	-2.11619	5.53023	-2.58040
2230.000	8.52657	-2.18478	5.48518	-2.57665
2231.000	8.52850	-2.13565	5.46755	-2.54510
2232.000	8.44728	-2.14593	5.50869	-2.61014
2233.000	8.50337	-2.16722	5.51848	-2.55081
2234.000	8.47242	-2.14382	5.50673	-2.53505
2235.000	8.51690	-2.15143	5.46755	-2.60439
2236.000	8.43374	-2.15386	5.46755	-2.52534
2237.000	8.39311	-2.12264	5.51848	-2.57057
2238.000	8.47629	-2.17720	5.50477	-2.56075
2239.000	8.44728	-2.15968	5.48518	-2.56084
2240.000	8.46856	-2.23816	5.50477	-2.51727
2241.000	8.44534	-2.18131	5.48126	-2.54504
2242.000	8.44534	-2.21275	5.50085	-2.52519
2243.000	8.42600	-2.21089	5.54982	-2.55463
2244.000	8.45308	-2.16751	5.49889	-2.55485
2245.000	8.50917	-2.20256	5.48910	-2.45804
2246.000	8.49563	-2.20853	5.52436	-2.53893
2247.000	8.48596	-2.18304	5.50281	-2.61412
2248.000	8.43954	-2.18723	5.54394	-2.54280
2249.000	8.42987	-2.13620	5.51064	-2.58247
2250.000	8.45308	-2.12624	5.51456	-2.53897
2251.000	8.44148	-2.21866	5.53219	-2.66537
2252.000	8.44341	-2.15184	5.52044	-2.58242
2253.000	8.45502	-2.15374	5.52631	-2.58240
2254.000	8.46662	-2.16547	5.50869	-2.64966
2255.000	8.42793	-2.17747	5.51848	-2.62195
2256.000	8.43374	-2.14797	5.44404	-2.59264
2257.000	8.46662	-2.11831	5.52044	-2.69110
2258.000	8.49563	-2.10439	5.48714	-2.67347
2259.000	8.40472	-2.17564	5.47538	-2.63005
2260.000	8.39311	-2.17177	5.52240	-2.65355
2261.000	8.43761	-2.17546	5.51848	-2.59824
2262.000	8.41052	-2.13237	5.50673	-2.62596
2263.000	8.44148	-2.12041	5.49693	-2.67936
2264.000	8.48596	-2.12213	5.52240	-2.57056
2265.000	8.42987	-2.12440	5.50869	-2.60224
2266.000	8.42213	-2.20109	5.50869	-2.54888
2267.000	8.46856	-2.14581	5.49302	-2.59835
2268.000	8.51884	-2.13177	5.50281	-2.60029
2269.000	8.49176	-2.11424	5.48126	-2.59643
2270.000	8.52850	-2.11600	5.49497	-2.58253
2271.000	8.41439	-2.12056	5.46363	-2.57872
2272.000	8.44534	-2.16166	5.47734	-2.59842
2273.000	8.54590	-2.09822	5.53023	-2.55669
2274.000	8.49370	-2.11226	5.48518	-2.61024
2275.000	8.50723	-2.11808	5.49889	-2.60228
2276.000	8.41052	-2.09896	5.53023	-2.60017
2277.000	8.50723	-2.09057	5.49302	-2.61219
2278.000	8.49176	-2.07494	5.47538	-2.61819
2279.000	8.47436	-2.12612	5.46363	-2.56488
2280.000	8.45308	-2.10266	5.45775	-2.60443
2281.000	8.47823	-2.06912	5.49889	-2.61216
2282.000	8.54204	-2.01572	5.48910	-2.56280
2283.000	8.50723	-2.10433	5.47147	-2.62611
2284.000	8.48596	-2.07104	5.47343	-2.61227
2285.000	8.53430	-2.12972	5.48714	-2.63593
2286.000	8.49176	-2.04939	5.47147	-2.56090
2287.000	8.50143	-2.09257	5.57724	-2.60589
2288.000	8.48403	-2.05926	5.52240	-2.60613
2289.000	8.46082	-2.08690	5.47734	-2.61028
2290.000	8.47823	-2.09466	5.51064	-2.59235
2291.000	8.50143	-2.03952	5.49497	-2.62403
2292.000	8.49756	-2.04543	5.44992	-2.57285
2293.000	8.50530	-2.14757	5.51064	-2.61408
2294.000	8.49950	-2.13384	5.47734	-2.59249
2295.000	8.42407	-2.14409	5.47343	-2.56682
2296.000	8.46275	-2.13798	5.51064	-2.59630
2297.000	8.50337	-2.08863	5.48322	-2.58654
2298.000	8.44921	-2.12626	5.52044	-2.60614
2299.000	8.39698	-2.12262	5.50869	-2.61805
2300.000	8.49756	-2.13779	5.47930	-2.61422
2301.000	8.45115	-2.14983	5.47343	-2.58460
2302.000	8.44728	-2.13217	5.53219	-2.64956
2303.000	8.52077	-2.07871	5.54590	-2.57836
2304.000	8.47242	-2.14972	5.49889	-2.61018
2305.000	8.44921	-2.11251	5.48910	-2.60825
2306.000	8.43567	-2.12830	5.52436	-2.58438
2307.000	8.48596	-2.17518	5.54590	-2.59417
2308.000	8.38730	-2.14626	5.50673	-2.62793
2309.000	8.45115	-2.12036	5.47734	-2.63004
2310.000	8.42407	-2.15391	5.50085	-2.60820
2311.000	8.47049	-2.09864	5.51848	-2.63183
2312.000	8.44534	-2.16755	5.47147	-2.64192
2313.000	8.43761	-2.19511	5.47734	-2.56680
2314.000	8.41439	-2.16183	5.48322	-2.69127
2315.000	8.48209	-2.17913	5.54198	-2.61987
2316.000	8.41246	-2.24045	5.51848	-2.59034
2317.000	8.40859	-2.21296	5.50085	-2.70700
2318.000	8.37763	-2.28191	5.47538	-2.60238
2319.000	8.37376	-2.18171	5.51652	-2.60615
2320.000	8.35634	-2.26632	5.48714	-2.62605
2321.000	8.44728	-2.24221	5.47734	-2.57668
2322.000	8.37956	-2.28583	5.49497	-2.56277
2323.000	8.37376	-2.24067	5.46363	-2.61627
2324.000	8.36602	-2.19551	5.52827	-2.68712
2325.000	8.40278	-2.18744	5.48322	-2.59247
2326.000	8.43567	-2.24621	5.47538	-2.65969
2327.000	8.42600	-2.20500	5.50869	-2.58445
2328.000	8.41246	-2.24438	5.53807	-2.66336
2329.000	8.40278	-2.20906	5.49693	-2.62007
2330.000	8.41826	-2.27382	5.48910	-2.60232
2331.000	8.37376	-2.27211	5.53415	-2.70092
2332.000	8.40665	-2.23851	5.49889	-2.63390
2333.000	8.45695	-2.31092	5.53415	-2.69895
2334.000	8.40472	-2.29747	5.54394	-2.62382
2335.000	8.41826	-2.32490	5.52240	-2.53498
2336.000	8.39891	-2.32698	5.49693	-2.67738
2337.000	8.36021	-2.36258	5.50281	-2.66155
2338.000	8.37376	-2.30159	5.52827	-2.63970
2339.000	8.36021	-2.34293	5.50477	-2.62597
2340.000	8.42213	-2.24825	5.56744	-2.64940
2341.000	8.34280	-2.28212	5.54198	-2.65939
2342.000	8.44534	-2.27366	5.52044	-2.65554
2343.000	8.36795	-2.28394	5.54982	-2.65145
2344.000	8.41826	-2.28561	5.54003	-2.62779
2345.000	8.40085	-2.26016	5.51456	-2.71287
2346.000	8.37956	-2.30155	5.50673	-2.63782
2347.000	8.34860	-2.29781	5.51260	-2.61605
2348.000	8.43567	-2.25603	5.49497	-2.60032
2349.000	8.39117	-2.35650	5.51652	-2.63184
2350.000	8.37569	-2.36249	5.52827	-2.70885
2351.000	8.37763	-2.32711	5.52827	-2.60610
2352.000	8.37956	-2.24063	5.57332	-2.64345
2353.000	8.36021	-2.31149	5.49693	-2.63786
2354.000	8.35441	-2.30956	5.51260	-2.58048
2355.000	8.42793	-2.26393	5.51848	-2.63381
2356.000	8.38924	-2.22879	5.51848	-2.63381
2357.000	8.40278	-2.20709	5.50673	-2.63782
2358.000	8.42020	-2.27184	5.48518	-2.61617
2359.000	8.37182	-2.31535	5.55569	-2.63760
2360.000	8.39891	-2.27589	5.57724	-2.61774
2361.000	8.39504	-2.27788	5.51848	-2.63776
2362.000	8.41052	-2.34460	5.49106	-2.61219
2363.000	8.40859	-2.29549	5.49497	-2.60823
2364.000	8.42987	-2.28750	5.53611	-2.59816
2365.000	8.38150	-2.28582	5.52631	-2.68910
2366.000	8.39504	-2.26609	5.50477	-2.70303
2367.000	8.39117	-2.26218	5.51652	-2.63975
2368.000	8.36408	-2.27217	5.50869	-2.66942
2369.000	8.36602	-2.26823	5.54786	-2.65937
2370.000	8.33118	-2.33721	5.54003	-2.61198
2371.000	8.42600	-2.32093	5.54786	-2.67715
2372.000	8.39698	-2.28770	5.48518	-2.65965
2373.000	8.40665	-2.30729	5.53611	-2.64164
2374.000	8.38150	-2.27796	5.53023	-2.72662
2375.000	8.41439	-2.28759	5.44404	-2.55113
2376.000	8.38343	-2.27795	5.51064	-2.66349
2377.000	8.40085	-2.30929	5.53023	-2.56855
2378.000	8.36602	-2.35469	5.51848	-2.61603
2379.000	8.37763	-2.31925	5.55961	-2.60201
2380.000	8.33699	-2.34700	5.54982	-2.65541
2381.000	8.36021	-2.25843	5.48322	-2.63199
2382.000	8.41246	-2.22669	5.51064	-2.63187
2383.000	8.37569	-2.22887	5.49106	-2.59836
2384.000	8.35054	-2.27225	5.54982	-2.60403
2385.000	8.36602	-2.20927	5.51456	-2.57652
2386.000	8.39117	-2.25432	5.49497	-2.63787
2387.000	8.38924	-2.18162	5.52044	-2.59230
2388.000	8.40859	-2.25226	5.51652	-2.65556
2389.000	8.37376	-2.24067	5.53807	-2.54085
2390.000	8.39698	-2.24840	5.54198	-2.62580
2391.000	8.37182	-2.20924	5.52044	-2.63973
2392.000	8.37569	-2.24066	5.50869	-2.61014
2393.000	8.32925	-2.31561	5.47734	-2.59644
2394.000	8.36602	-2.25054	5.50477	-2.59633
2395.000	8.31570	-2.29603	5.50085	-2.58448
2396.000	8.32344	-2.24882	5.54590	-2.61393
2397.000	8.36215	-2.20929	5.49302	-2.56476
2398.000	8.31957	-2.30387	5.51652	-2.58442
2399.000	8.34280	-2.25264	5.44208	-2.53335
2400.000	8.38924	-2.20324	5.51456	-2.52316
2401.000	8.36989	-2.25052	5.51848	-2.57453
2402.000	8.32731	-2.26059	5.46363	-2.50559
2403.000	8.36215	-2.15033	5.51064	-2.54492
2404.000	8.34086	-2.24086	5.50477	-2.54099
2405.000	8.36602	-2.22303	5.56157	-2.54272
2406.000	8.34280	-2.24478	5.48518	-2.63001
2407.000	8.34086	-2.26444	5.44404	-2.60647
2408.000	8.37569	-2.23280	5.50673	-2.51529
2409.000	8.37376	-2.27604	5.46755	-2.55498
2410.000	8.35441	-2.14054	5.53023	-2.60214
2411.000	8.31570	-2.19579	5.49497	-2.56079
2412.000	8.33118	-2.24484	5.50281	-2.60226
2413.000	8.31763	-2.27833	5.53807	-2.53097
2414.000	8.32538	-2.20950	5.54003	-2.59815
2415.000	8.37376	-2.26229	5.50869	-2.59236
2416.000	8.36021	-2.24664	5.53611	-2.61792
2417.000	8.31763	-2.30978	5.55569	-2.57634
2418.000	8.30602	-2.26071	5.50281	-2.60819
2419.000	8.42600	-2.23251	5.52631	-2.61402
2420.000	8.37376	-2.27408	5.54982	-2.59218
2421.000	8.35441	-2.20737	5.51652	-2.59627
2422.000	8.31570	-2.30979	5.50281	-2.54495
2423.000	8.38150	-2.21115	5.47930	-2.60632
2424.000	8.32344	-2.26061	5.52044	-2.60811
2425.000	8.34860	-2.29388	5.51456	-2.61012
2426.000	8.36215	-2.25253	5.53611	-2.56852
2427.000	8.34473	-2.22708	5.51652	-2.62987
2428.000	8.35247	-2.26437	5.54786	-2.57638
2429.000	8.36408	-2.19945	5.52827	-2.60808
2430.000	8.34280	-2.24871	5.49497	-2.58451
2431.000	8.33312	-2.24680	5.50869	-2.62200
2432.000	8.33893	-2.30376	5.54590	-2.50919
2433.000	8.36989	-2.26820	5.50869	-2.56469
2434.000	8.34086	-2.24282	5.50477	-2.52320
2435.000	8.35247	-2.28599	5.53219	-2.58237
2436.000	8.34860	-2.20937	5.55373	-2.58623
2437.000	8.35054	-2.24473	5.53023	-2.57052
2438.000	8.37182	-2.24461	5.51848	-2.57057
2439.000	8.36215	-2.28200	5.54198	-2.60011
2440.000	8.34667	-2.24475	5.48910	-2.56873
2441.000	8.30989	-2.27641	5.54786	-2.56847
2442.000	8.35054	-2.22704	5.53415	-2.54284
2443.000	8.33505	-2.26447	5.54198	-2.62975
2444.000	8.35828	-2.26041	5.53219	-2.53890
2445.000	8.36215	-2.25253	5.54394	-2.56849
2446.000	8.32925	-2.22913	5.54394	-2.54873
2447.000	8.33893	-2.24087	5.53415	-2.50134
2448.000	8.36602	-2.26037	5.50673	-2.52912
2449.000	8.34860	-2.20347	5.53807	-2.56654
2450.000	8.32925	-2.32150	5.49106	-2.52919
2451.000	8.30602	-2.33540	5.49889	-2.54101
2452.000	8.31183	-2.27444	5.53807	-2.56061
2453.000	8.32925	-2.27434	5.50085	-2.56670
2454.000	8.33893	-2.28214	5.51848	-2.55476
2455.000	8.33893	-2.28411	5.54590	-2.48943
2456.000	8.31957	-2.29405	5.46755	-2.51348
2457.000	8.37569	-2.26227	5.48714	-2.51932
2458.000	8.32538	-2.25077	5.48322	-2.57468
2459.000	8.36989	-2.22300	5.50085	-2.50741
2460.000	8.36021	-2.26236	5.50281	-2.55483
2461.000	8.42213	-2.20698	5.52631	-2.47963
2462.000	8.33312	-2.26645	5.57136	-2.57232
2463.000	8.38537	-2.33885	5.54003	-2.58234
2464.000	8.30215	-2.34721	5.46363	-2.57872
2465.000	8.24794	-2.37309	5.50869	-2.55678
2466.000	8.20921	-2.32811	5.37938	-2.58303
2467.000	8.06778	-2.17552	5.31666	-2.63074
2468.000	7.92043	-2.15860	5.14217	-2.64531
2469.000	7.69533	-2.28378	4.95974	-2.59858
2470.000	7.42140	-2.30689	4.70651	-2.66089
2471.000	7.11793	-2.16259	4.48258	-2.71120
2472.000	6.83159	-2.26056	4.29194	-2.75544
2473.000	6.55663	-2.26578	3.96939	-2.77636
2474.000	6.22275	-2.19222	3.74306	-2.74540
2475.000	5.84149	-2.35381	3.48117	-2.81157
2476.000	5.52827	-2.20879	3.20927	-2.84604
2477.000	5.23237	-2.26327	3.02398	-2.86437
2478.000	4.91068	-2.27429	2.70451	-2.94445
2479.000	4.61617	-2.28715	2.41052	-2.96693
2480.000	4.26638	-2.35755	2.16576	-3.03485
2481.000	3.95955	-2.38224	1.88341	-3.00960
2482.000	3.57964	-2.49823	1.62861	-3.07148
2483.000	3.35903	-2.54638	1.30855	-3.29003
2484.000	2.98849	-2.67418	1.02793	-3.18527
2485.000	2.66900	-2.71854	0.71959	-3.28071
2486.000	2.27039	-2.75109	0.46261	-3.15593
2487.000	1.98214	-2.83690	0.22340	-3.19171
2488.000	1.71948	-2.88690	-0.07710	-3.20164
2489.000	1.42315	-2.90517	-0.38551	-3.24124
2490.000	1.18208	-3.04232	-0.65634	-3.18359
2491.000	0.85993	-2.90177	-0.93306	-3.25079
2492.000	0.59506	-3.02296	-1.24532	-3.24451
2493.000	0.35388	-2.92585	-1.51996	-3.23026
2494.000	0.01384	-3.03900	-1.73923	-3.18233
2495.000	-0.23329	-3.00128	-2.06902	-3.19362
2496.000	-0.45470	-2.93573	-2.30394	-3.15943
2497.000	-0.79470	-3.01093	-2.64335	-3.08729
2498.000	-1.03386	-2.86988	-2.84652	-3.07884
2499.000	-1.28286	-2.88153	-3.14423	-3.11564
2500.000	-1.55947	-2.85540	-3.43783	-3.04146
2501.000	-1.74515	-2.92852	-3.67416	-3.09809
2502.000	-2.11246	-2.86245	-4.07562	-3.09860
2503.000	-2.30197	-2.92553	-4.25458	-3.00294
2504.000	-2.54273	-2.87942	-4.63974	-3.15559
2505.000	-2.93723	-2.96963	-4.82039	-3.03617
2506.000	-3.13634	-2.93738	-5.11079	-3.04670
2507.000	-3.35903	-2.98625	-5.32058	-3.10493
2508.000	-3.52647	-2.94810	-5.47343	-3.08441
2509.000	-3.75094	-2.93153	-5.63794	-3.12895
2510.000	-3.93988	-3.00610	-5.77105	-3.11638
2511.000	-3.95562	-2.92093	-5.96081	-3.04233
2512.000	-4.10316	-3.03320	-6.03707	-3.04585
2513.000	-4.20936	-2.97343	-6.10354	-3.03758
2514.000	-4.30963	-2.97898	-6.18758	-2.99766
2515.000	-4.39218	-2.96283	-6.25987	-2.98147
2516.000	-4.42953	-2.95675	-6.34580	-2.95139
2517.000	-4.45704	-2.85376	-6.47856	-2.98808
2518.000	-4.50813	-2.93072	-6.49418	-2.93674
2519.000	-4.46097	-2.85771	-6.45514	-2.93105
2520.000	-4.48258	-2.86949	-6.57028	-2.89095
2521.000	-4.39808	-2.85795	-6.51565	-2.93464
2522.000	-4.41773	-2.89349	-6.52736	-2.95034
2523.000	-4.34501	-2.92542	-6.48637	-2.94072
2524.000	-4.31749	-2.92949	-6.44538	-2.99617
2525.000	-4.27817	-2.94151	-6.42000	-3.00420
2526.000	-4.22312	-3.00702	-6.42391	-3.00615
2527.000	-4.23099	-2.98720	-6.40438	-2.96880
2528.000	-4.16806	-2.93203	-6.40438	-3.10484
2529.000	-4.23492	-2.98323	-6.44148	-3.09278
2530.000	-4.19559	-2.92599	-6.34580	-3.18404
2531.000	-4.22312	-2.94370	-6.46880	-3.14386
2532.000	-4.25655	-2.94555	-6.48052	-3.16941
2533.000	-4.34698	-2.90563	-6.50003	-3.12987
2534.000	-4.35484	-2.93132	-6.45319	-3.08483
2535.000	-4.40594	-2.88957	-6.52736	-3.10408
2536.000	-4.41184	-2.95088	-6.58589	-3.05445
2537.000	-4.45704	-2.95268	-6.61906	-3.10745
2538.000	-4.47472	-2.96052	-6.61711	-3.06017
2539.000	-4.53563	-2.91874	-6.57614	-3.00918
2540.000	-4.51009	-2.97818	-6.61516	-3.08383
2541.000	-4.45507	-2.97840	-6.62296	-3.03846
2542.000	-4.47865	-2.94666	-6.60345	-3.00705
2543.000	-4.47472	-2.97635	-6.61320	-2.95969
2544.000	-4.41970	-2.99833	-6.60150	-2.97947
2545.000	-4.43542	-2.99629	-6.62296	-3.04831
2546.000	-4.45704	-2.99818	-6.56638	-3.01713
2547.000	-4.49044	-3.00199	-6.58589	-2.99927
2548.000	-4.38432	-2.99451	-6.57419	-2.94809
2549.000	-4.39218	-2.96481	-6.58589	-3.03277
2550.000	-4.39415	-2.92325	-6.62491	-2.92611
2551.000	-4.37646	-2.93124	-6.55077	-2.96203
2552.000	-4.41577	-2.89943	-6.61125	-2.93013
2553.000	-4.34305	-2.95511	-6.57028	-2.99936
2554.000	-4.40791	-2.94892	-6.61516	-2.99121
2555.000	-4.35484	-2.93726	-6.52736	-3.04298
2556.000	-4.35877	-2.92537	-6.57223	-3.03877
2557.000	-4.38432	-2.92725	-6.58589	-2.94802
2558.000	-4.31749	-2.94532	-6.61711	-2.99120
2559.000	-4.34698	-2.88584	-6.60735	-3.00505
2560.000	-4.39808	-2.91928	-6.61516	-2.98136
2561.000	-4.33125	-2.93933	-6.58784	-2.99926
2562.000	-4.32732	-2.95715	-6.60345	-3.03858
2563.000	-4.35091	-2.96497	-6.54102	-3.01334
2564.000	-4.40201	-2.93312	-6.55467	-2.90878
2565.000	-4.35484	-2.94913	-6.58784	-2.97758
2566.000	-4.32929	-2.91757	-6.52736	-2.96020
2567.000	-4.40005	-2.97862	-6.55077	-2.98568
2568.000	-4.35287	-2.95309	-6.50199	-2.96035
2569.000	-4.37253	-2.98665	-6.55077	-3.01328
2570.000	-4.33518	-2.93338	-6.54687	-3.00148
2571.000	-4.35681	-2.93131	-6.53516	-2.87341
2572.000	-4.36074	-2.94119	-6.49223	-2.97223
2573.000	-4.31749	-2.91564	-6.55858	-2.94424
2574.000	-4.32929	-2.94329	-6.57614	-2.94611
2575.000	-4.36270	-2.95503	-6.54492	-2.97783
2576.000	-4.29390	-2.91375	-6.51760	-3.02925
2577.000	-4.35091	-2.89770	-6.53321	-3.00353
2578.000	-4.29390	-2.88407	-6.53711	-3.05081
2579.000	-4.32535	-2.90571	-6.58979	-3.00319
2580.000	-4.31749	-2.96312	-6.57809	-3.03479
2581.000	-4.35877	-2.95505	-6.56053	-3.02702
2582.000	-4.31159	-2.88796	-6.52931	-3.02721
2583.000	-4.32535	-2.95518	-6.63856	-3.03639
2584.000	-4.32339	-2.97695	-6.56833	-2.99938
2585.000	-4.35681	-2.95506	-6.51760	-2.98588
2586.000	-4.34305	-2.92543	-6.55858	-2.97972
2587.000	-4.33125	-2.97098	-6.61906	-3.02469
2588.000	-4.35877	-2.96296	-6.56443	-2.96983
2589.000	-4.30963	-2.93150	-6.52736	-2.99568
2590.000	-4.38039	-2.93320	-6.55858	-2.94424
2591.000	-4.28997	-2.94344	-6.57028	-2.97177
2592.000	-4.31749	-2.92355	-6.53906	-2.97590
2593.000	-4.30963	-2.95524	-6.59955	-2.93020
2594.000	-4.30766	-2.90578	-6.57614	-3.00130
2595.000	-4.31553	-2.95126	-6.59760	-2.96175
2596.000	-4.31159	-2.95721	-6.54492	-3.00740
2597.000	-4.32142	-2.93541	-6.55467	-3.00340
2598.000	-4.39022	-2.94503	-6.60540	-3.02871
2599.000	-4.28211	-2.91973	-6.63271	-3.00490
2600.000	-4.28997	-2.90189	-6.61320	-3.00896
2601.000	-4.35484	-2.88186	-6.60345	-3.04252
2602.000	-4.26048	-2.89211	-6.60345	-3.03661
2603.000	-4.32339	-2.91957	-6.61320	-3.03852
2604.000	-4.30373	-2.90184	-6.59760	-3.07015
2605.000	-4.34305	-2.88388	-6.56833	-3.01711
2606.000	-4.33715	-2.93930	-6.63856	-3.06398
2607.000	-4.37843	-2.86594	-6.62686	-3.04632
2608.000	-4.34108	-2.90565	-6.62101	-3.07985
2609.000	-4.35091	-2.90759	-6.69317	-3.03211
2610.000	-4.35484	-2.89175	-6.63271	-3.00096
2611.000	-4.32535	-2.91759	-6.65027	-3.00676
2612.000	-4.33715	-2.88192	-6.64832	-3.01269
2613.000	-4.32535	-2.89186	-6.60930	-3.07993
2614.000	-4.37056	-2.91148	-6.59370	-3.02090
2615.000	-4.32929	-2.86217	-6.59760	-2.98737
2616.000	-4.32142	-2.84439	-6.64051	-3.04820
2617.000	-4.36074	-2.94317	-6.66782	-2.96527
2618.000	-4.35877	-2.93724	-6.57028	-2.97965
2619.000	-4.35681	-2.90164	-6.56638	-2.99545
2620.000	-4.35287	-2.93727	-6.61711	-3.03258
2621.000	-4.35287	-2.94122	-6.61125	-3.05036
2622.000	-4.37450	-2.89959	-6.60930	-3.04643
2623.000	-4.42953	-2.99829	-6.63856	-3.06989
2624.000	-4.37843	-2.95299	-6.64051	-3.04426
2625.000	-4.41773	-3.02801	-6.60345	-3.08784
2626.000	-4.41577	-2.97461	-6.60930	-3.07401
2627.000	-4.37646	-2.99850	-6.59565	-3.02680
2628.000	-4.41970	-2.96272	-6.63466	-3.06597
2629.000	-4.45114	-2.95270	-6.58004	-3.13528
2630.000	-4.38236	-3.00837	-6.59174	-3.07609
2631.000	-4.39415	-2.98854	-6.54687	-3.07243
2632.000	-4.35091	-2.95112	-6.58979	-3.08793
2633.000	-4.43739	-3.00617	-6.55467	-3.04676
2634.000	-4.40398	-3.00235	-6.58394	-3.08994
2635.000	-4.39218	-2.96876	-6.54687	-3.06455
2636.000	-4.44132	-2.89142	-6.56053	-3.09008
2637.000	-4.41184	-2.95484	-6.55663	-3.02310
2638.000	-4.40201	-2.91729	-6.56248	-3.02306
2639.000	-4.42166	-2.97063	-6.56638	-3.14719
2640.000	-4.40201	-2.97466	-6.56638	-3.08610
2641.000	-4.39808	-2.94896	-6.56248	-3.08416
2642.000	-4.40398	-2.97267	-6.61125	-3.03262
2643.000	-4.36467	-2.96690	-6.60930	-3.05825
2644.000	-4.40005	-2.97665	-6.57028	-3.00134
2645.000	-4.47865	-2.96644	-6.59370	-3.00119
2646.000	-4.40987	-2.96869	-6.55858	-2.98958
2647.000	-4.39415	-3.00634	-6.62491	-3.03057
2648.000	-4.47865	-2.95259	-6.62296	-3.02269
2649.000	-4.43542	-2.99035	-6.57028	-3.02302
2650.000	-4.50027	-3.00195	-6.64246	-3.09351
2651.000	-4.48258	-2.99412	-6.61516	-3.04245
2652.000	-4.46490	-3.00803	-6.66782	-3.06971
2653.000	-4.48062	-2.93478	-6.61906	-3.02075
2654.000	-4.50813	-2.93269	-6.61906	-3.04637
2655.000	-4.45704	-2.99620	-6.66002	-3.03232
2656.000	-4.47865	-3.00007	-6.59370	-3.07608
2657.000	-4.45900	-3.01004	-6.64246	-2.99302
2658.000	-4.48848	-3.03958	-6.62686	-3.03646
2659.000	-4.47472	-2.99019	-6.60345	-3.07405
2660.000	-4.51991	-2.95836	-6.64637	-3.02452
2661.000	-4.50223	-2.97623	-6.66782	-3.04212
2662.000	-4.47472	-2.96646	-6.65807	-3.03036
2663.000	-4.45900	-2.98630	-6.66977	-3.03226
2664.000	-4.46490	-2.96056	-6.60735	-3.00899
2665.000	-4.45704	-2.99620	-6.66587	-3.00470
2666.000	-4.47079	-2.96449	-6.64051	-3.01668
2667.000	-4.48062	-2.95259	-6.68342	-2.97503
2668.000	-4.40791	-2.92320	-6.63661	-3.02261
2669.000	-4.47472	-2.95063	-6.56833	-3.02106
2670.000	-4.48848	-2.95651	-6.61906	-3.00892
2671.000	-4.47669	-2.92491	-6.65612	-2.97323
2672.000	-4.47865	-2.90314	-6.66587	-2.99681
2673.000	-4.45507	-2.94478	-6.62101	-3.00300
2674.000	-4.45900	-2.92300	-6.63466	-3.00883
2675.000	-4.46686	-2.91505	-6.65807	-3.01066
2676.000	-4.46686	-2.90318	-6.64051	-3.00288
2677.000	-4.52581	-2.89702	-6.61516	-2.96953
2678.000	-4.50813	-2.92676	-6.60150	-2.96173
2679.000	-4.46293	-2.90914	-6.62296	-2.96554
2680.000	-4.48848	-2.90903	-6.61125	-2.96561
2681.000	-4.47669	-2.92688	-6.63271	-2.97731
2682.000	-4.49044	-2.97233	-6.59760	-2.98935
2683.000	-4.48258	-2.94269	-6.61125	-2.98335
2684.000	-4.46490	-2.92891	-6.65027	-2.97917
2685.000	-4.47865	-2.86951	-6.59760	-2.99329
2686.000	-4.52188	-2.95440	-6.62101	-2.98132
2687.000	-4.53563	-2.94247	-6.55467	-3.07632
2688.000	-4.45704	-2.86959	-6.57809	-3.01311
2689.000	-4.49241	-2.93671	-6.65222	-2.99099
2690.000	-4.45704	-2.90916	-6.60930	-2.95774
2691.000	-4.48455	-2.93674	-6.59760	-2.99920
2692.000	-4.53760	-2.94444	-6.65417	-2.97915
2693.000	-4.48848	-2.95453	-6.61711	-3.03061
2694.000	-4.50420	-2.95051	-6.56833	-3.01317
2695.000	-4.48848	-2.96640	-6.61320	-3.00108
2696.000	-4.49830	-2.95449	-6.64246	-2.96345
2697.000	-4.46883	-2.97044	-6.61320	-3.04640
2698.000	-4.50813	-2.93467	-6.55467	-3.01523
2699.000	-4.48651	-2.91300	-6.61125	-2.94590
2700.000	-4.48258	-2.96642	-6.66002	-2.97911
2701.000	-4.45704	-2.87553	-6.57614	-2.94217
2702.000	-4.51991	-2.95243	-6.49223	-3.02151
2703.000	-4.50223	-2.95448	-6.59174	-3.00909
2704.000	-4.53760	-2.99389	-6.60150	-3.00509
2705.000	-4.53563	-2.99192	-6.60930	-2.98139
2706.000	-4.52581	-2.98009	-6.64051	-3.05215
2707.000	-4.53170	-2.97216	-6.64637	-2.98708
2708.000	-4.53563	-2.99192	-6.60540	-3.07798
2709.000	-4.53563	-2.98005	-6.61516	-3.04245
2710.000	-4.51598	-2.96035	-6.61125	-3.09962
2711.000	-4.56314	-3.02345	-6.63076	-3.13102
2712.000	-4.51795	-3.00188	-6.63466	-3.02065
2713.000	-4.52974	-2.98997	-6.60540	-3.05433
2714.000	-4.55921	-3.01160	-6.62686	-3.11922
2715.000	-4.51402	-2.99003	-6.68147	-3.08342
2716.000	-4.55724	-3.01358	-6.65417	-3.10920
2717.000	-4.52581	-2.97020	-6.65612	-2.99096
2718.000	-4.52777	-3.04337	-6.57419	-3.06044
2719.000	-4.50420	-3.03754	-6.61320	-3.12128
2720.000	-4.49437	-3.02769	-6.65027	-3.07770
2721.000	-4.53367	-3.03544	-6.58784	-3.09188
2722.000	-4.53170	-2.93853	-6.58394	-3.08008
2723.000	-4.50223	-2.99601	-6.58589	-3.06234
2724.000	-4.55921	-3.01358	-6.62881	-3.06404
2725.000	-4.53956	-2.98795	-6.59174	-3.00515
2726.000	-4.54938	-3.03142	-6.58199	-3.06236
2727.000	-4.52974	-2.99194	-6.66002	-3.07173
2728.000	-4.54742	-2.99187	-6.60150	-3.09377
2729.000	-4.53760	-2.95038	-6.61516	-3.03260
2730.000	-4.54153	-2.97212	-6.57223	-3.04665
2731.000	-4.56117	-2.99181	-6.64246	-3.06790
2732.000	-4.56510	-2.94631	-6.58784	-3.01503
2733.000	-4.55528	-2.99184	-6.58394	-3.07220
2734.000	-4.52974	-2.98008	-6.62296	-3.10152
2735.000	-4.56117	-2.96215	-6.60735	-3.04644
2736.000	-4.55135	-2.97999	-6.61320	-3.05625
2737.000	-4.54153	-2.94838	-6.57223	-3.10577
2738.000	-4.53367	-2.94841	-6.62296	-3.02861
2739.000	-4.55528	-2.95426	-6.55467	-3.07238
2740.000	-4.57099	-3.01155	-6.60930	-3.07598
2741.000	-4.54153	-2.94443	-6.59760	-3.04059
2742.000	-4.59064	-2.99565	-6.61516	-3.06413
2743.000	-4.58082	-2.97789	-6.59565	-3.07016
2744.000	-4.59260	-2.93235	-6.63271	-3.11131
2745.000	-4.55528	-2.96415	-6.59955	-3.12925
2746.000	-4.56314	-3.07289	-6.57419	-3.11364
2747.000	-4.51598	-3.08100	-6.52736	-3.06861
2748.000	-4.44525	-3.19204	-6.46880	-3.16751
2749.000	-4.35287	-3.17265	-6.36143	-3.14846
2750.000	-4.25261	-3.23240	-6.30284	-3.37746
2751.000	-4.19953	-3.41850	-6.16608	-3.49855
2752.000	-4.19756	-3.64384	-6.11918	-3.73332
2753.000	-4.10513	-3.87346	-5.90800	-3.94555
2754.000	-3.92413	-4.05802	-5.71820	-4.15960
2755.000	-3.77850	-4.26605	-5.61053	-4.37105
2756.000	-3.60918	-4.43465	-5.49497	-4.53528
2757.000	-3.58752	-4.60840	-5.36566	-4.72713
2758.000	-3.45753	-4.91669	-5.20884	-4.91717
2759.000	-3.35115	-5.15963	-5.08922	-5.14226
2760.000	-3.19547	-5.15451	-4.93226	-5.17494
2761.000	-3.03581	-5.23608	-4.83020	-5.21505
2762.000	-2.97666	-5.25606	-4.73793	-5.26293
2763.000	-2.89976	-5.23475	-4.55331	-5.31543
2764.000	-2.72226	-5.30845	-4.41773	-5.42651
2765.000	-2.57233	-5.42729	-4.32142	-5.45669
2766.000	-2.44802	-5.46522	-4.20149	-5.53814
2767.000	-2.34342	-5.54442	-4.11693	-5.67827
2768.000	-2.30592	-5.60954	-4.02054	-5.68288
2769.000	-2.15589	-5.62980	-3.90446	-5.79567
2770.000	-2.02361	-5.70902	-3.79621	-5.81998
2771.000	-1.96635	-5.73284	-3.78440	-6.00075
2772.000	-1.92093	-5.83534	-3.65841	-6.09584
2773.000	-1.92488	-5.80778	-3.62296	-6.02540
2774.000	-1.87946	-5.88860	-3.57176	-6.14157
2775.000	-1.82021	-5.92224	-3.57964	-6.24553
2776.000	-1.81823	-5.93012	-3.54813	-6.23985
2777.000	-1.83206	-5.96548	-3.56192	-6.17893
2778.000	-1.79058	-6.02069	-3.48314	-6.18141
2779.000	-1.73725	-5.96382	-3.45162	-6.08346
2780.000	-1.74713	-5.98936	-3.48117	-6.07345
2781.000	-1.73923	-5.94611	-3.46738	-6.07943
2782.000	-1.72343	-5.87730	-3.48117	-6.07934
2783.000	-1.75898	-5.86932	-3.47526	-6.06760
2784.000	-1.73528	-5.80445	-3.48708	-6.03021
2785.000	-1.74318	-5.76506	-3.47526	-5.98119
2786.000	-1.78466	-5.76887	-3.46738	-5.98124
2787.000	-1.82811	-5.75495	-3.47920	-6.00473
2788.000	-1.78466	-5.74131	-3.49101	-5.98501
2789.000	-1.82811	-5.70771	-3.48117	-5.96543
2790.000	-1.78071	-5.69407	-3.52647	-5.95140
2791.000	-1.78466	-5.65468	-3.47526	-5.94190
2792.000	-1.82613	-5.77858	-3.52253	-5.94553
2793.000	-1.77873	-5.75708	-3.51662	-6.08304
2794.000	-1.80243	-5.84754	-3.52844	-6.02209
2795.000	-1.78268	-5.85547	-3.48314	-5.95364
2796.000	-1.79848	-5.86526	-3.49495	-6.02623
2797.000	-1.74713	-5.91264	-3.50480	-6.03795
2798.000	-1.75305	-5.81817	-3.51465	-6.06342
2799.000	-1.69775	-5.86951	-3.46738	-6.00088
2800.000	-1.69775	-5.85770	-3.43586	-5.99518
2801.000	-1.69182	-5.90888	-3.43586	-6.06981
2802.000	-1.71948	-5.86354	-3.50086	-6.07332
2803.000	-1.72343	-5.88910	-3.43192	-6.01681
2804.000	-1.67997	-5.81446	-3.42601	-6.06987
2805.000	-1.66022	-5.86568	-3.42601	-6.06398
2806.000	-1.69775	-5.90886	-3.46147	-6.03037
2807.000	-1.66417	-5.82828	-3.44374	-6.06976
2808.000	-1.69577	-5.85771	-3.44768	-6.07170
2809.000	-1.70565	-5.86555	-3.39843	-6.01113
2810.000	-1.70170	-5.92065	-3.42010	-6.02278
2811.000	-1.68590	-5.89709	-3.46541	-5.95768
2812.000	-1.68195	-5.93645	-3.43192	-6.03842
2813.000	-1.67602	-5.88335	-3.45162	-6.02258
2814.000	-1.71158	-5.89898	-3.45556	-6.01666
2815.000	-1.64441	-5.97787	-3.42404	-6.01883
2816.000	-1.67602	-5.91876	-3.43389	-6.04430
2817.000	-1.73923	-5.94021	-3.44571	-6.05208
2818.000	-1.69380	-5.89313	-3.45162	-6.05989
2819.000	-1.73528	-5.96383	-3.45753	-6.01862
2820.000	-1.72145	-5.93633	-3.42207	-6.07383
2821.000	-1.70960	-5.95801	-3.42010	-6.14452
2822.000	-1.70367	-5.96589	-3.44374	-6.10707
2823.000	-1.69972	-5.95410	-3.48117	-6.07149
2824.000	-1.71553	-5.94028	-3.48904	-6.07144
2825.000	-1.67602	-5.95417	-3.44177	-6.09137
2826.000	-1.72145	-5.98157	-3.48314	-6.14412
2827.000	-1.74515	-5.96970	-3.48511	-6.11662
2828.000	-1.71750	-5.94421	-3.44374	-6.09136
2829.000	-1.68787	-5.98758	-3.45753	-6.05200
2830.000	-1.74910	-5.98345	-3.46738	-6.04605
2831.000	-1.69972	-6.01114	-3.43389	-6.05019
2832.000	-1.72145	-5.95797	-3.46147	-6.04019
2833.000	-1.70960	-6.00325	-3.46541	-6.15208
2834.000	-1.72343	-5.97960	-3.45556	-5.98131
2835.000	-1.73330	-5.96580	-3.45359	-5.99507
2836.000	-1.71158	-5.98160	-3.46147	-6.01466
2837.000	-1.70762	-5.91867	-3.44571	-6.10509
2838.000	-1.69775	-5.93640	-3.48314	-6.05184
2839.000	-1.72145	-5.97174	-3.44768	-6.06974
2840.000	-1.72738	-5.92254	-3.48314	-6.09504
2841.000	-1.77083	-5.90863	-3.45162	-6.12665
2842.000	-1.69972	-5.90098	-3.46541	-6.01660
2843.000	-1.74713	-5.92051	-3.47329	-6.06957
2844.000	-1.75305	-5.91262	-3.45162	-6.10702
2845.000	-1.72935	-5.90876	-3.49889	-6.05763
2846.000	-1.74515	-5.92248	-3.47329	-6.01852
2847.000	-1.72540	-5.89894	-3.41025	-6.09550
2848.000	-1.74515	-5.92248	-3.46344	-6.07356
2849.000	-1.73528	-5.91858	-3.45950	-6.03628
2850.000	-1.73725	-5.89496	-3.48708	-6.05770
2851.000	-1.73923	-5.97168	-3.41419	-6.10333
2852.000	-1.72145	-5.92649	-3.43980	-6.09335
2853.000	-1.67404	-5.91483	-3.50874	-6.03007
2854.000	-1.70762	-5.87735	-3.46541	-6.13049
2855.000	-1.69775	-5.91279	-3.47723	-6.10685
2856.000	-1.71553	-5.95799	-3.46541	-6.06570
2857.000	-1.67207	-5.92468	-3.45753	-6.11287
2858.000	-1.67997	-5.88333	-3.44374	-6.12474
2859.000	-1.70367	-5.88129	-3.43783	-6.06980
2860.000	-1.70565	-5.89309	-3.44571	-6.04815
2861.000	-1.72145	-5.90879	-3.39252	-6.09365
2862.000	-1.67404	-5.90303	-3.44768	-6.05010
2863.000	-1.70960	-5.88915	-3.48314	-6.04595
2864.000	-1.69380	-5.93051	-3.42995	-6.06199
2865.000	-1.68392	-5.94825	-3.44374	-6.05994
2866.000	-1.70367	-5.90884	-3.47526	-6.03029
2867.000	-1.71355	-5.88126	-3.45359	-6.00096
2868.000	-1.68590	-5.84790	-3.43389	-6.02858
2869.000	-1.70367	-5.90294	-3.49298	-6.06945
2870.000	-1.64639	-5.86572	-3.48511	-6.01059
2871.000	-1.71948	-5.94224	-3.42798	-6.08557
2872.000	-1.66614	-5.89321	-3.42207	-6.03259
2873.000	-1.66022	-5.88930	-3.46344	-6.15013
2874.000	-1.65429	-5.85980	-3.45950	-6.07752
2875.000	-1.65627	-5.90505	-3.46935	-6.05978
2876.000	-1.68787	-5.86560	-3.41025	-6.10139
2877.000	-1.61478	-5.85991	-3.44768	-6.03832
2878.000	-1.67404	-5.90696	-3.42207	-6.02473
2879.000	-1.63256	-5.88151	-3.45753	-6.13447
2880.000	-1.66219	-5.90897	-3.45359	-6.00096
2881.000	-1.67009	-5.88730	-3.43980	-6.04622
2882.000	-1.63849	-5.92478	-3.42798	-6.01880
2883.000	-1.64046	-5.87755	-3.42010	-6.06795
2884.000	-1.62466	-5.93859	-3.45950	-6.05788
2885.000	-1.63454	-5.94053	-3.39843	-6.01898
2886.000	-1.65232	-5.93457	-3.41222	-6.01104
2887.000	-1.63849	-5.91691	-3.46738	-6.02445
2888.000	-1.66614	-5.90305	-3.44571	-6.04422
2889.000	-1.65627	-5.92472	-3.41025	-6.01302
2890.000	-1.63059	-5.95628	-3.38267	-5.94836
2891.000	-1.63651	-5.96019	-3.42010	-6.03653
2892.000	-1.72343	-5.96386	-3.41419	-6.02282
2893.000	-1.65034	-5.90703	-3.44571	-5.99119
2894.000	-1.65034	-5.92671	-3.42207	-6.04633
2895.000	-1.68195	-5.94825	-3.37479	-5.98377
2896.000	-1.68195	-5.96399	-3.39449	-6.02687
2897.000	-1.62861	-5.96612	-3.37085	-5.98183
2898.000	-1.68985	-5.99151	-3.38858	-5.96601
2899.000	-1.64046	-5.91493	-3.43192	-6.03842
2900.000	-1.68195	-5.98169	-3.39646	-5.99936
2901.000	-1.69775	-5.94034	-3.44374	-6.00299
2902.000	-1.65824	-5.95226	-3.41222	-6.06407
2903.000	-1.62861	-5.90513	-3.38070	-6.04070
2904.000	-1.63454	-5.95823	-3.40040	-6.05825
2905.000	-1.65824	-5.92472	-3.43389	-6.02662
2906.000	-1.70565	-5.95998	-3.38858	-6.10545
2907.000	-1.66417	-5.95814	-3.45556	-6.00881
2908.000	-1.64046	-6.00542	-3.39055	-6.05635
2909.000	-1.66614	-5.98568	-3.37085	-6.10164
2910.000	-1.68985	-6.00921	-3.47920	-6.04794
2911.000	-1.66417	-5.94044	-3.43389	-6.01091
2912.000	-1.68590	-5.92463	-3.38661	-6.06816
2913.000	-1.67800	-6.00334	-3.36297	-5.95241
2914.000	-1.66219	-5.95421	-3.43980	-6.00498
2915.000	-1.67404	-5.94828	-3.40434	-6.01698
2916.000	-1.70565	-5.92851	-3.40040	-5.97772
2917.000	-1.68392	-6.00136	-3.42995	-5.92646
2918.000	-1.63651	-5.95626	-3.43783	-5.99713
2919.000	-1.67009	-5.97780	-3.45950	-5.95182
2920.000	-1.68590	-5.92463	-3.44768	-5.96368
2921.000	-1.66417	-5.94437	-3.38464	-5.96210
2922.000	-1.61478	-5.93075	-3.38858	-6.01905
2923.000	-1.62071	-5.97598	-3.45162	-5.95973
2924.000	-1.65429	-5.94834	-3.35312	-5.99176
2925.000	-1.66812	-5.95223	-3.46541	-5.96553
2926.000	-1.67207	-5.95222	-3.34918	-5.95053
2927.000	-1.67602	-5.88925	-3.41813	-5.92457
2928.000	-1.69380	-5.96002	-3.38858	-5.94636
2929.000	-1.67602	-5.94434	-3.36494	-5.94258
2930.000	-1.69972	-5.96000	-3.42207	-5.91276
2931.000	-1.66417	-5.90896	-3.37479	-5.97592
2932.000	-1.67800	-5.94433	-3.38858	-5.97190
2933.000	-1.70960	-5.85570	-3.40434	-5.98163
2934.000	-1.69380	-5.90690	-3.37479	-5.98377
2935.000	-1.69182	-5.91871	-3.39646	-5.95024
2936.000	-1.69380	-5.88723	-3.41616	-6.00905
2937.000	-1.68787	-5.94037	-3.46344	-5.98519
2938.000	-1.70960	-5.89899	-3.39646	-6.03667
2939.000	-1.75305	-5.93426	-3.39843	-5.96595
2940.000	-1.72540	-5.94812	-3.36691	-6.00936
2941.000	-1.69775	-5.93640	-3.42404	-6.00704
2942.000	-1.69182	-5.92855	-3.37282	-6.01718
2943.000	-1.72343	-5.96190	-3.41813	-6.01690
2944.000	-1.73923	-5.98348	-3.38858	-6.04851
2945.000	-1.73923	-5.99135	-3.39055	-5.98761
2946.000	-1.78268	-6.02465	-3.38464	-5.98764
2947.000	-1.70960	-6.01308	-3.44571	-5.96369
2948.000	-1.73923	-6.03659	-3.39252	-5.97384
2949.000	-1.74515	-6.01493	-3.39055	-5.98761
2950.000	-1.78861	-6.04626	-3.39646	-5.89523
2951.000	-1.78268	-6.07971	-3.42207	-5.98741
2952.000	-1.76491	-6.03454	-3.38858	-6.03869
2953.000	-1.75700	-5.99523	-3.43980	-5.95980
2954.000	-1.77676	-6.00893	-3.50874	-6.05167
2955.000	-1.74318	-5.98150	-3.42404	-6.10130
2956.000	-1.74713	-5.93822	-3.37676	-6.00144
2957.000	-1.76491	-5.99127	-3.42798	-6.04433
2958.000	-1.76886	-6.01486	-3.47329	-6.01262
2959.000	-1.78663	-6.02857	-3.44571	-6.05993
2960.000	-1.74120	-6.03265	-3.48117	-6.05971
2961.000	-1.75305	-6.02474	-3.44374	-6.04227
2962.000	-1.78268	-5.99711	-3.45753	-6.00487
2963.000	-1.78466	-5.99907	-3.42404	-6.00704
2964.000	-1.74120	-6.02478	-3.43586	-6.05999
2965.000	-1.80243	-6.02852	-3.45162	-6.01865
2966.000	-1.76293	-6.04241	-3.42404	-6.04043
2967.000	-1.81033	-6.00489	-3.43389	-6.02858
2968.000	-1.82021	-5.98126	-3.43389	-6.04822
2969.000	-1.79651	-6.00100	-3.47329	-6.05583
2970.000	-1.79256	-5.95578	-3.43192	-6.01288
2971.000	-1.77281	-5.97944	-3.41419	-6.01496
2972.000	-1.82613	-5.95960	-3.41419	-6.01889
2973.000	-1.69972	-5.97377	-3.37873	-6.04268
2974.000	-1.63454	-5.93266	-3.32553	-6.06657
2975.000	-1.54169	-6.01751	-3.26445	-6.02962
2976.000	-1.46662	-6.08851	-3.16000	-6.10880
2977.000	-1.35597	-6.19694	-2.98652	-6.17460
2978.000	-1.29274	-6.27571	-2.92145	-6.26921
2979.000	-1.07734	-6.36069	-2.75185	-6.40948
2980.000	-0.85400	-6.36504	-2.58417	-6.38287
2981.000	-0.69587	-6.46742	-2.29210	-6.50398
2982.000	-0.52191	-6.48727	-2.15194	-6.45356
2983.000	-0.43098	-6.52270	-1.93278	-6.54668
2984.000	-0.26096	-6.56602	-1.80441	-6.55305
2985.000	-0.06524	-6.51110	-1.67602	-6.56723
2986.000	0.02966	-6.52485	-1.59108	-6.61460
2987.000	0.01186	-6.49343	-1.49823	-6.59526
2988.000	0.09292	-6.48753	-1.41722	-6.69361
2989.000	0.10478	-6.47771	-1.40142	-6.59947
2990.000	0.08501	-6.48557	-1.34609	-6.68792
2991.000	0.14630	-6.49734	-1.34016	-6.67028
2992.000	0.17398	-6.49144	-1.34214	-6.59963
2993.000	0.23922	-6.47963	-1.36783	-6.60741
2994.000	0.23724	-6.45998	-1.33028	-6.67423
2995.000	0.28864	-6.52084	-1.32633	-6.67032
2996.000	0.34202	-6.47957	-1.37375	-6.68981
2997.000	0.31829	-6.48547	-1.28879	-6.63313
2998.000	0.33806	-6.46582	-1.28681	-6.63903
2999.000	0.39539	-6.45792	-1.31052	-6.64289
3000.000	0.34993	-6.44813	-1.23741	-6.61364
3001.000	0.38353	-6.42061	-1.22160	-6.58816
3002.000	0.36772	-6.38526	-1.28088	-6.57820
3003.000	0.32818	-6.44618	-1.27298	-6.60374
3004.000	0.32818	-6.43833	-1.31250	-6.60167
3005.000	0.29062	-6.39120	-1.30657	-6.58010
3006.000	0.24515	-6.36568	-1.31250	-6.51726
3007.000	0.18979	-6.41286	-1.33621	-6.50346
3008.000	0.20363	-6.36766	-1.34412	-6.48773
3009.000	0.16211	-6.34213	-1.31645	-6.49566
3010.000	0.17002	-6.41286	-1.30657	-6.57617
3011.000	0.18979	-6.39911	-1.36980	-6.52104
3012.000	0.14234	-6.44627	-1.34016	-6.58786
3013.000	0.21154	-6.40696	-1.34412	-6.52700
3014.000	0.22142	-6.46392	-1.30262	-6.44267
3015.000	0.20561	-6.43446	-1.28088	-6.53894
3016.000	0.25701	-6.49729	-1.27891	-6.55465
3017.000	0.24317	-6.51105	-1.35004	-6.59961
3018.000	0.25305	-6.43837	-1.32040	-6.58006
3019.000	0.28469	-6.45210	-1.33621	-6.58395
3020.000	0.28469	-6.46782	-1.31448	-6.57811
3021.000	0.22538	-6.40695	-1.38758	-6.57203
3022.000	0.30841	-6.41673	-1.30657	-6.56636
3023.000	0.26096	-6.39514	-1.35597	-6.50537
3024.000	0.25701	-6.43837	-1.32831	-6.59182
3025.000	0.24119	-6.49337	-1.28286	-6.55660
3026.000	0.24515	-6.41873	-1.32238	-6.53491
3027.000	0.26887	-6.40889	-1.30855	-6.54083
3028.000	0.28864	-6.44621	-1.32238	-6.56435
3029.000	0.28864	-6.42853	-1.29669	-6.54872
3030.000	0.27480	-6.40693	-1.30460	-6.50550
3031.000	0.32027	-6.45012	-1.30657	-6.54869
3032.000	0.27085	-6.45997	-1.28879	-6.54677
3033.000	0.27480	-6.42461	-1.30064	-6.52711
3034.000	0.29655	-6.45995	-1.35795	-6.47002
3035.000	0.33213	-6.44618	-1.35004	-6.54858
3036.000	0.31434	-6.48548	-1.28879	-6.53303
3037.000	0.29259	-6.44424	-1.33819	-6.49560
3038.000	0.30446	-6.41870	-1.36387	-6.56817
3039.000	0.33016	-6.43243	-1.35399	-6.49360
3040.000	0.26492	-6.46783	-1.31250	-6.55653
3041.000	0.26294	-6.40890	-1.32238	-6.52509
3042.000	0.21549	-6.45017	-1.33226	-6.57218
3043.000	0.23329	-6.42856	-1.32633	-6.48385
3044.000	0.26492	-6.43247	-1.37573	-6.56225
3045.000	0.22538	-6.46981	-1.35597	-6.53875
3046.000	0.26492	-6.48747	-1.36190	-6.58388
3047.000	0.23922	-6.40498	-1.37771	-6.55832
3048.000	0.21945	-6.44428	-1.35399	-6.56231
3049.000	0.25305	-6.46587	-1.36387	-6.51713
3050.000	0.23526	-6.44034	-1.31843	-6.58399
3051.000	0.23329	-6.39909	-1.37771	-6.42677
3052.000	0.25503	-6.42069	-1.30064	-6.47214
3053.000	0.21352	-6.39517	-1.30460	-6.50158
3054.000	0.22142	-6.31067	-1.33424	-6.53488
3055.000	0.25305	-6.35978	-1.31448	-6.57223
3056.000	0.22142	-6.29101	-1.32238	-6.54472
3057.000	0.25503	-6.33030	-1.31448	-6.50744
3058.000	0.20956	-6.34211	-1.37375	-6.56422
3059.000	0.21549	-6.25367	-1.35399	-6.48967
3060.000	0.22142	-6.35980	-1.32238	-6.56435
3061.000	0.22340	-6.37158	-1.35399	-6.46807
3062.000	0.23526	-6.36372	-1.31843	-6.50351
3063.000	0.21747	-6.34801	-1.32831	-6.48777
3064.000	0.23922	-6.35586	-1.32436	-6.47011
3065.000	0.28271	-6.37352	-1.34609	-6.47005
3066.000	0.25899	-6.31851	-1.32633	-6.50938
3067.000	0.20165	-6.31854	-1.31250	-6.48585
3068.000	0.28073	-6.31457	-1.31843	-6.50547
3069.000	0.24119	-6.28511	-1.37178	-6.46802
3070.000	0.26492	-6.29885	-1.31843	-6.55062
3071.000	0.25305	-6.26151	-1.36980	-6.52300
3072.000	0.22735	-6.27922	-1.36980	-6.46410
3073.000	0.27085	-6.31850	-1.35992	-6.51518
3074.000	0.24317	-6.32048	-1.38561	-6.54455
3075.000	0.21352	-6.30477	-1.33819	-6.55842
3076.000	0.22142	-6.29494	-1.34016	-6.55057
3077.000	0.21154	-6.30870	-1.36387	-6.58976
3078.000	0.22340	-6.30280	-1.35795	-6.54267
3079.000	0.18584	-6.30085	-1.40339	-6.55039
3080.000	0.27480	-6.31457	-1.35597	-6.48377
3081.000	0.24119	-6.28904	-1.34016	-6.46221
3082.000	0.24515	-6.29886	-1.31645	-6.51529
3083.000	0.22735	-6.27135	-1.27693	-6.50361
3084.000	0.23526	-6.28904	-1.30064	-6.52907
3085.000	0.22142	-6.25759	-1.35795	-6.52696
3086.000	0.22538	-6.25563	-1.32633	-6.49956
3087.000	0.25503	-6.26937	-1.37968	-6.47193
3088.000	0.24119	-6.30083	-1.33226	-6.51918
3089.000	0.21154	-6.26939	-1.37573	-6.50139
3090.000	0.22735	-6.27725	-1.33424	-6.48579
3091.000	0.25108	-6.27134	-1.31843	-6.56240
3092.000	0.22142	-6.28511	-1.36190	-6.48965
3093.000	0.21747	-6.28708	-1.33226	-6.47205
3094.000	0.25503	-6.32834	-1.35795	-6.47395
3095.000	0.20561	-6.29691	-1.36190	-6.49750
3096.000	0.22340	-6.32246	-1.31645	-6.39747
3097.000	0.24515	-6.26348	-1.34214	-6.45828
3098.000	0.23131	-6.25366	-1.34214	-6.43275
3099.000	0.23526	-6.31459	-1.33621	-6.47990
3100.000	0.21154	-6.28119	-1.30262	-6.50158
3101.000	0.21747	-6.28905	-1.35202	-6.43076
3102.000	0.24119	-6.31655	-1.38758	-6.52099
3103.000	0.23131	-6.24776	-1.32436	-6.47404
3104.000	0.15816	-6.29300	-1.32633	-6.47207
3105.000	0.22933	-6.28904	-1.31448	-6.47603
3106.000	0.22340	-6.31656	-1.35992	-6.47591
3107.000	0.22933	-6.34014	-1.39549	-6.43065
3108.000	0.24515	-6.31066	-1.37573	-6.50139
3109.000	0.18781	-6.30871	-1.31843	-6.44852
3110.000	0.22735	-6.27725	-1.34609	-6.47791
3111.000	0.23131	-6.23203	-1.35004	-6.50342
3112.000	0.21352	-6.35194	-1.36190	-6.45823
3113.000	0.21154	-6.30477	-1.38166	-6.42086
3114.000	0.24317	-6.30083	-1.33226	-6.38171
3115.000	0.19770	-6.27530	-1.36585	-6.36198
3116.000	0.25305	-6.28313	-1.37573	-6.40124
3117.000	0.23131	-6.29297	-1.34412	-6.44453
3118.000	0.21945	-6.26939	-1.35399	-6.46218
3119.000	0.24712	-6.33620	-1.34412	-6.45239
3120.000	0.24712	-6.24579	-1.33424	-6.44456
3121.000	0.23329	-6.28511	-1.32831	-6.39351
3122.000	0.19375	-6.27137	-1.37178	-6.43857
3123.000	0.22142	-6.28905	-1.40734	-6.48363
3124.000	0.25305	-6.31655	-1.39746	-6.41493
3125.000	0.26887	-6.26347	-1.39351	-6.42280
3126.000	0.28666	-6.24773	-1.37771	-6.42087
3127.000	0.21945	-6.27529	-1.38363	-6.45424
3128.000	0.25503	-6.30475	-1.41327	-6.45024
3129.000	0.24712	-6.32834	-1.38956	-6.44834
3130.000	0.21747	-6.30281	-1.39154	-6.47190
3131.000	0.18386	-6.27923	-1.34807	-6.47005
3132.000	0.27282	-6.24184	-1.41129	-6.46202
3133.000	0.20363	-6.31657	-1.34214	-6.42097
3134.000	0.25899	-6.29689	-1.34016	-6.45240
3135.000	0.23329	-6.29690	-1.40932	-6.47774
3136.000	0.21945	-6.26742	-1.40932	-6.47970
3137.000	0.29457	-6.25952	-1.37375	-6.48962
3138.000	0.23526	-6.24186	-1.36585	-6.46215
3139.000	0.22538	-6.26742	-1.36980	-6.53871
3140.000	0.24119	-6.31066	-1.33226	-6.40725
3141.000	0.23131	-6.24383	-1.34016	-6.49363
3142.000	0.27678	-6.22808	-1.36190	-6.47787
3143.000	0.24515	-6.28117	-1.36783	-6.45625
3144.000	0.27876	-6.17892	-1.36783	-6.46018
3145.000	0.24515	-6.23203	-1.33226	-6.47794
3146.000	0.25108	-6.24972	-1.36190	-6.44252
3147.000	0.25503	-6.23596	-1.29076	-6.42110
3148.000	0.28469	-6.25953	-1.40142	-6.45616
3149.000	0.25503	-6.27331	-1.35795	-6.43664
3150.000	0.26689	-6.29689	-1.35202	-6.47004
3151.000	0.23329	-6.22220	-1.40537	-6.48168
3152.000	0.21549	-6.25563	-1.42117	-6.48752
3153.000	0.23922	-6.27135	-1.38758	-6.43656
3154.000	0.26096	-6.28117	-1.38363	-6.51708
3155.000	0.22340	-6.24776	-1.36783	-6.44054
3156.000	0.23329	-6.25956	-1.40142	-6.44830
3157.000	0.24910	-6.25365	-1.33028	-6.47991
3158.000	0.22538	-6.19665	-1.33621	-6.42688
3159.000	0.19375	-6.15340	-1.35399	-6.42879
3160.000	0.23329	-6.22220	-1.38956	-6.43263
3161.000	0.22142	-6.27136	-1.30855	-6.47801
3162.000	0.26294	-6.25364	-1.39944	-6.45617
3163.000	0.23329	-6.22810	-1.35597	-6.45432
3164.000	0.23131	-6.24383	-1.40142	-6.47580
3165.000	0.22735	-6.21041	-1.38758	-6.48958
3166.000	0.19572	-6.16520	-1.35795	-6.39343
3167.000	0.23922	-6.25759	-1.34609	-6.46416
3168.000	0.25108	-6.24185	-1.35202	-6.44451
3169.000	0.24119	-6.22023	-1.36387	-6.49161
3170.000	0.21747	-6.20255	-1.36585	-6.43073
3171.000	0.20956	-6.20255	-1.34214	-6.48774
3172.000	0.16804	-6.24385	-1.35004	-6.40720
3173.000	0.17200	-6.25958	-1.34807	-6.44648
3174.000	0.24712	-6.27331	-1.37771	-6.40123
3175.000	0.24712	-6.29886	-1.36980	-6.38358
3176.000	0.23724	-6.20647	-1.35992	-6.39735
3177.000	0.21945	-6.26153	-1.35399	-6.34629
3178.000	0.18584	-6.23992	-1.36783	-6.32465
3179.000	0.15618	-6.24582	-1.37375	-6.25586
3180.000	0.16014	-6.15144	-1.36980	-6.16348
3181.000	0.16014	-5.89370	-1.41722	-6.08865
3182.000	0.13048	-5.90552	-1.42908	-5.83876
3183.000	0.13839	-5.82677	-1.46069	-5.72844
3184.000	0.20956	-5.56082	-1.48440	-5.44077
3185.000	0.17793	-5.20391	-1.45674	-5.13125
3186.000	0.18979	-5.01444	-1.51798	-4.84887
3187.000	0.31236	-4.64699	-1.50020	-4.56643
3188.000	0.36376	-4.24752	-1.49230	-4.31539
3189.000	0.38749	-3.94667	-1.45279	-3.86235
3190.000	0.35388	-3.52474	-1.39154	-3.56538
3191.000	0.37365	-3.14208	-1.40932	-3.18284
3192.000	0.47447	-2.75514	-1.42908	-2.71271
3193.000	0.51401	-2.27264	-1.38956	-2.55200
3194.000	0.61482	-1.93090	-1.41327	-2.10721
3195.000	0.71564	-1.54331	-1.44488	-1.79530
3196.000	0.81645	-1.07406	-1.43303	-1.70391
3197.000	0.84610	-0.93087	-1.39944	-1.29650
3198.000	0.88760	-0.54900	-1.46069	-1.08575
3199.000	0.94690	-0.35009	-1.49428	-0.97837
3200.000	0.95876	-0.10940	-1.50415	-0.85112
3201.000	0.89353	0.18698	-1.54169	-0.67613
3202.000	0.94690	0.31826	-1.60096	-0.58067
3203.000	0.92713	0.46745	-1.58120	-0.31620
3204.000	0.89353	0.70016	-1.60491	-0.11335
3205.000	0.84412	0.91894	-1.60293	0.07159
3206.000	0.86981	1.00644	-1.64639	0.19687
3207.000	0.81249	1.33056	-1.61676	0.34403
3208.000	0.87574	1.61083	-1.60491	0.74372
3209.000	0.86191	1.93079	-1.56342	0.93262
3210.000	0.90144	2.04799	-1.57923	0.99026
3211.000	0.88958	2.13938	-1.54564	1.09962
3212.000	0.91330	2.27642	-1.51996	1.17717
3213.000	1.01410	2.40741	-1.49428	1.27459
3214.000	1.05758	2.50864	-1.50218	1.41173
3215.000	1.12675	2.57607	-1.45081	1.48729
3216.000	1.16429	2.57207	-1.49032	1.46937
3217.000	1.15639	2.61178	-1.48835	1.49720
3218.000	1.13860	2.55621	-1.47649	1.56279
3219.000	1.16232	2.51053	-1.45279	1.45549
3220.000	1.18208	2.41125	-1.39351	1.41975
3221.000	1.15837	2.34574	-1.40932	1.39191
3222.000	1.13860	2.34377	-1.38363	1.34024
3223.000	1.12082	2.34180	-1.36980	1.36808
3224.000	1.09710	2.30211	-1.27496	1.40391
3225.000	1.10698	2.25444	-1.29472	1.42577
3226.000	1.08920	2.20281	-1.24532	1.43573
3227.000	1.08722	2.27232	-1.29076	1.45757
3228.000	1.03386	2.21080	-1.29472	1.48540
3229.000	1.03386	2.22668	-1.35399	1.50126
3230.000	1.11687	2.35968	-1.33621	1.47345
3231.000	1.09513	2.34580	-1.33226	1.50724
3232.000	1.11687	2.41527	-1.35004	1.52114
3233.000	1.12279	2.36960	-1.35795	1.50126
3234.000	1.12082	2.46689	-1.40537	1.50918
3235.000	1.11489	2.48080	-1.40142	1.50918
3236.000	1.18603	2.54823	-1.40932	1.54098
3237.000	1.17615	2.67924	-1.39746	1.59663
3238.000	1.20184	2.69112	-1.37968	1.66222
3239.000	1.18208	2.67527	-1.42513	1.65424
3240.000	1.13465	2.71897	-1.45081	1.64429
3241.000	1.22160	2.71889	-1.46266	1.68998
3242.000	1.16232	2.66735	-1.48045	1.70785
3243.000	1.19591	2.71296	-1.45476	1.64627
3244.000	1.18406	2.69114	-1.51008	1.66014
3245.000	1.18208	2.61969	-1.51206	1.58264
3246.000	1.19789	2.64746	-1.52193	1.58462
3247.000	1.16429	2.63360	-1.50415	1.63630
3248.000	1.19196	2.58395	-1.46859	1.64626
3249.000	1.19987	2.57799	-1.50810	1.64226
3250.000	1.18603	2.61770	-1.48440	1.58067
3251.000	1.20975	2.57600	-1.45279	1.69794
3252.000	1.19196	2.59586	-1.42908	1.63635
3253.000	1.19394	2.57204	-1.49032	1.60849
3254.000	1.19789	2.57005	-1.50218	1.63829
3255.000	1.20579	2.63952	-1.42908	1.68206
3256.000	1.21370	2.64348	-1.45081	1.72774
3257.000	1.20184	2.61769	-1.44291	1.63237
3258.000	1.17022	2.64551	-1.46266	1.61844
3259.000	1.15837	2.65544	-1.44883	1.60454
3260.000	1.17022	2.66337	-1.36190	1.65031
3261.000	1.18603	2.62564	-1.43105	1.61449
3262.000	1.17220	2.59985	-1.44883	1.64230
3263.000	1.16825	2.62368	-1.42315	1.64033
3264.000	1.17813	2.60779	-1.39944	1.69201
3265.000	1.16627	2.66536	-1.44093	1.63436
3266.000	1.18603	2.63755	-1.42710	1.61052
3267.000	1.16232	2.57604	-1.49428	1.62239
3268.000	1.16627	2.62963	-1.51798	1.61840
3269.000	1.17022	2.63757	-1.46859	1.65023
3270.000	1.17813	2.68718	-1.49625	1.64823
3271.000	1.18010	2.68122	-1.50613	1.68200
3272.000	1.18998	2.65740	-1.53576	1.64223
3273.000	1.22951	2.68713	-1.50020	1.64027
3274.000	1.18208	2.62565	-1.50020	1.71380
3275.000	1.15639	2.65346	-1.48045	1.71381
3276.000	1.19987	2.66731	-1.44488	1.71781
3277.000	1.19394	2.66335	-1.54367	1.68594
3278.000	1.17615	2.69512	-1.49230	1.75950
3279.000	1.17813	2.71298	-1.54762	1.80317
3280.000	1.16232	2.64750	-1.48637	1.82110
3281.000	1.16429	2.69910	-1.52589	1.75153
3282.000	1.19987	2.68120	-1.45871	1.78933
3283.000	1.17418	2.69909	-1.49823	1.76347
3284.000	1.18406	2.74274	-1.51403	1.69988
3285.000	1.16232	2.70109	-1.49823	1.77340
3286.000	1.19394	2.68518	-1.45476	1.84496
3287.000	1.17418	2.69115	-1.47452	1.77342
3288.000	1.17022	2.70306	-1.42908	1.76551
3289.000	1.15046	2.63362	-1.41129	1.75758
3290.000	1.10896	2.71701	-1.38956	1.81124
3291.000	1.14453	2.66339	-1.45081	1.83106
3292.000	1.17615	2.68718	-1.47847	1.78534
3293.000	1.14453	2.74675	-1.36387	1.85894
3294.000	1.16627	2.72688	-1.40142	1.87282
3295.000	1.11884	2.68723	-1.44093	1.87478
3296.000	1.16627	2.71696	-1.39944	1.88673
3297.000	1.14453	2.67530	-1.39351	1.84899
3298.000	1.12477	2.66738	-1.42513	1.84499
3299.000	1.13465	2.62966	-1.41327	1.90063
3300.000	1.18801	2.67129	-1.43896	1.85292
3301.000	1.12279	2.66143	-1.41129	1.86487
3302.000	1.17022	2.70703	-1.40537	1.75361
3303.000	1.09513	2.68130	-1.39549	1.75759
3304.000	1.14058	2.66141	-1.44488	1.73371
3305.000	1.12279	2.69914	-1.41920	1.70392
3306.000	1.13268	2.72890	-1.46859	1.66017
3307.000	1.10106	2.70908	-1.44686	1.66217
3308.000	1.14651	2.70705	-1.45081	1.65820
3309.000	1.14058	2.68523	-1.43896	1.72576
3310.000	1.12082	2.63960	-1.50613	1.65219
3311.000	1.11884	2.65548	-1.50218	1.63829
3312.000	1.08524	2.65948	-1.48637	1.64028
3313.000	1.11094	2.65747	-1.51996	1.70782
3314.000	1.14651	2.66141	-1.43896	1.64231
3315.000	1.09117	2.70314	-1.52589	1.69589
3316.000	1.08327	2.57413	-1.52193	1.68795
3317.000	1.12675	2.64158	-1.44686	1.62839
3318.000	1.11094	2.62571	-1.47847	1.63035
3319.000	1.08920	2.66344	-1.47847	1.67010
3320.000	1.04967	2.59401	-1.47057	1.67408
3321.000	1.02793	2.65754	-1.45081	1.72576
3322.000	1.10501	2.65748	-1.51008	1.69789
3323.000	1.13268	2.67531	-1.45279	1.69992
3324.000	1.10501	2.62175	-1.43105	1.69199
3325.000	1.06746	2.63567	-1.49230	1.79129
3326.000	1.12279	2.58402	-1.40142	1.77348
3327.000	1.06351	2.58010	-1.45279	1.78338
3328.000	1.03979	2.60989	-1.44883	1.70390
3329.000	1.05758	2.65355	-1.44291	1.77345
3330.000	1.06153	2.65950	-1.41129	1.74168
3331.000	1.09117	2.66146	-1.35597	1.74371
3332.000	1.05560	2.70714	-1.40339	1.68208
3333.000	1.09315	2.63367	-1.41722	1.67809
3334.000	1.07339	2.64956	-1.43896	1.73967
3335.000	1.05758	2.73690	-1.42710	1.68405
3336.000	1.12082	2.67135	-1.44291	1.76550
3337.000	1.09908	2.73687	-1.40734	1.74963
3338.000	1.10303	2.71900	-1.44686	1.71980
3339.000	1.12477	2.62967	-1.41525	1.74565
3340.000	1.08920	2.68726	-1.40537	1.70393
3341.000	1.08920	2.72100	-1.40339	1.68208
3342.000	1.08920	2.71306	-1.40537	1.71983
3343.000	1.06153	2.72698	-1.34609	1.68410
3344.000	1.15244	2.76261	-1.43698	1.69993
3345.000	1.13268	2.74676	-1.44093	1.77345
3346.000	1.11094	2.71304	-1.40734	1.76553
3347.000	1.09908	2.67534	-1.38561	1.76753
3348.000	1.08327	2.73688	-1.43105	1.81319
3349.000	1.13070	2.67531	-1.43105	1.80127
3350.000	1.14651	2.71499	-1.37771	1.78343
3351.000	1.15046	2.69117	-1.40932	1.77745
3352.000	1.13465	2.68523	-1.41920	1.80923
3353.000	1.15837	2.68323	-1.39746	1.74169
3354.000	1.13860	2.75469	-1.37573	1.76158
3355.000	1.15441	2.67529	-1.42117	1.73571
3356.000	1.13070	2.63760	-1.38363	1.68606
3357.000	1.09908	2.66343	-1.41129	1.77546
3358.000	1.12872	2.67333	-1.38956	1.74965
3359.000	1.12675	2.69715	-1.40142	1.73970
3360.000	1.15046	2.70904	-1.35202	1.77550
3361.000	1.13465	2.68127	-1.41129	1.75360
3362.000	1.12675	2.75073	-1.40734	1.81520
3363.000	1.11884	2.77455	-1.43698	1.80922
3364.000	1.14058	2.73286	-1.40142	1.73771
3365.000	1.08129	2.66345	-1.43105	1.78538
3366.000	1.10896	2.75075	-1.36980	1.84304
3367.000	1.09908	2.77060	-1.40142	1.84103
3368.000	1.09908	2.74877	-1.35992	1.90862
3369.000	1.12279	2.77653	-1.40142	1.88673
3370.000	1.14453	2.75667	-1.41129	1.83904
3371.000	1.14256	2.72095	-1.42117	1.88274
3372.000	1.06351	2.73293	-1.38758	1.86489
3373.000	1.09513	2.71901	-1.39154	1.82316
3374.000	1.12279	2.71303	-1.38956	1.88276
3375.000	1.08524	2.77062	-1.34807	1.86690
3376.000	1.09710	2.75671	-1.37573	1.76356
3377.000	1.10698	2.73289	-1.36190	1.87087
3378.000	1.11884	2.73883	-1.38758	1.74567
3379.000	1.12477	2.73486	-1.43698	1.78537
3380.000	1.10303	2.79044	-1.42117	1.78141
3381.000	1.08920	2.77855	-1.40734	1.80725
3382.000	1.05758	2.75080	-1.35992	1.85299
3383.000	1.08524	2.84007	-1.39549	1.78739
3384.000	1.09513	2.76664	-1.44686	1.72775
3385.000	1.08129	2.77260	-1.47847	1.76945
3386.000	1.11094	2.81226	-1.36190	1.79735
3387.000	1.10303	2.76862	-1.33819	1.73577
3388.000	1.08327	2.82419	-1.35399	1.87683
3389.000	1.12082	2.81225	-1.32831	1.92453
3390.000	1.12872	2.80629	-1.36585	1.90265
3391.000	1.15441	2.85190	-1.37375	1.91456
3392.000	1.15639	2.88960	-1.41525	1.92446
3393.000	1.18406	2.84592	-1.40339	1.97811
3394.000	1.20975	2.88161	-1.41920	1.98008
3395.000	1.19394	2.94114	-1.46859	2.00388
3396.000	1.16429	2.90745	-1.48045	2.03962
3397.000	1.21370	3.00261	-1.54564	2.08722
3398.000	1.21567	2.95897	-1.48045	2.05948
3399.000	1.22160	3.00260	-1.48835	2.08927
3400.000	1.26903	3.06007	-1.52984	2.14285
3401.000	1.23346	3.08193	-1.44686	2.25811
3402.000	1.28286	3.09575	-1.43303	2.36932
3403.000	1.27100	3.08386	-1.42710	2.39116
3404.000	1.30064	3.16712	-1.43500	2.45468
3405.000	1.28681	3.20481	-1.49230	2.34543
3406.000	1.33819	2.95685	-1.47452	2.26801
3407.000	1.33226	2.67114	-1.55552	2.16665
3408.000	1.48440	2.92691	-1.66022	1.86068
3409.000	1.62269	3.85610	-1.71553	1.92220
3410.000	1.68590	5.09518	-1.80836	2.67649
3411.000	1.67997	6.72025	-1.78268	3.64789
3412.000	1.89328	8.42503	-1.75898	4.77721
3413.000	1.83206	10.22390	-1.64441	5.77519
3414.000	NaN	NaN	-1.72343	6.95730
3415.000	NaN	NaN	-1.84588	8.19552
3416.000	NaN	NaN	-2.01769	9.56873
3417.000	NaN	NaN	-2.36118	10.77590
3418.000	NaN	NaN	-3.05158	11.82250
3419.000	NaN	NaN	-8.12785	12.30163
3420.000	NaN	NaN	NaN	NaN
3421.000	NaN	NaN	NaN	NaN
3422.000	NaN	NaN	NaN	NaN
3423.000	NaN	NaN	NaN	NaN
3424.000	NaN	NaN	NaN	NaN
3425.000	NaN	NaN	NaN	NaN
3426.000	NaN	NaN	NaN	NaN
3427.000	NaN	NaN	NaN	NaN
3428.000	NaN	NaN	NaN	NaN
3429.000	NaN	NaN	NaN	NaN
3430.000	NaN	NaN	NaN	NaN
3431.000	NaN	NaN	NaN	NaN
3432.000	NaN	NaN	NaN	NaN
3433.000	NaN	NaN	NaN	NaN
3434.000	NaN	NaN	NaN	NaN
3435.000	NaN	NaN	NaN	NaN
3436.000	NaN	NaN	NaN	NaN
3437.000	NaN	NaN	NaN	NaN
3438.000	NaN	NaN	NaN	NaN
3439.000	NaN	NaN	NaN	NaN
3440.000	NaN	NaN	NaN	NaN
3441.000	NaN	NaN	NaN	NaN
3442.000	NaN	NaN	NaN	NaN
3443.000	NaN	NaN	NaN	NaN
3444.000	NaN	NaN	NaN	NaN
3445.000	NaN	NaN	NaN	NaN
3446.000	NaN	NaN	NaN	NaN
3447.000	NaN	NaN	NaN	NaN
3448.000	NaN	NaN	NaN	NaN
3449.000	NaN	NaN	NaN	NaN
3450.000	NaN	NaN	NaN	NaN
3451.000	NaN	NaN	NaN	NaN
3452.000	NaN	NaN	NaN	NaN
3453.000	NaN	NaN	NaN	NaN
3454.000	NaN	NaN	NaN	NaN
3455.000	NaN	NaN	NaN	NaN
3456.000	NaN	NaN	NaN	NaN
3457.000	NaN	NaN	NaN	NaN
3458.000	NaN	NaN	NaN	NaN
3459.000	NaN	NaN	NaN	NaN
3460.000	NaN	NaN	NaN	NaN
3461.000	NaN	NaN	NaN	NaN
3462.000	NaN	NaN	NaN	NaN
3463.000	NaN	NaN	NaN	NaN
3464.000	NaN	NaN	NaN	NaN
3465.000	NaN	NaN	NaN	NaN
3466.000	NaN	NaN	NaN	NaN
3467.000	NaN	NaN	NaN	NaN
3468.000	NaN	NaN	NaN	NaN
3469.000	NaN	NaN	NaN	NaN
3470.000	NaN	NaN	NaN	NaN
3471.000	NaN	NaN	NaN	NaN
3472.000	NaN	NaN	NaN	NaN
3473.000	NaN	NaN	NaN	NaN
3474.000	NaN	NaN	NaN	NaN
3475.000	NaN	NaN	NaN	NaN
3476.000	NaN	NaN	NaN	NaN
3477.000	NaN	NaN	NaN	NaN
3478.000	NaN	NaN	NaN	NaN
3479.000	NaN	NaN	NaN	NaN
3480.000	NaN	NaN	NaN	NaN
3481.000	NaN	NaN	NaN	NaN
3482.000	NaN	NaN	NaN	NaN
3483.000	NaN	NaN	NaN	NaN
3484.000	NaN	NaN	-2.42433	12.18793
3485.000	NaN	NaN	-0.85400	11.67929
3486.000	NaN	NaN	0.71564	10.80706
3487.000	NaN	NaN	0.68203	10.23602
3488.000	4.68099	10.85111	0.72947	9.72266
3489.000	5.55373	12.22809	0.77691	9.17090
3490.000	6.37900	13.08176	0.78680	8.49884
3491.000	6.28526	12.46151	0.87179	8.04477
3492.000	6.12308	11.90959	0.83621	7.50196
3493.000	5.95299	11.35135	0.90342	7.01051
3494.000	5.80236	10.76526	0.94492	6.50041
3495.000	5.58703	10.29266	0.96271	5.97948
3496.000	5.43816	9.71322	1.02793	5.50282
3497.000	5.21865	9.10345	1.00421	5.06304
3498.000	5.08922	8.50926	0.98050	4.58314
3499.000	4.94208	7.98118	1.04177	4.35569
3500.000	4.75168	7.44022	1.09315	3.84903
3501.000	4.61617	6.86770	1.00817	3.63324
3502.000	4.43149	6.43110	1.01607	3.37561
3503.000	4.29783	5.87530	1.06746	3.17730
3504.000	4.26048	5.48662	1.08524	2.87380
3505.000	4.16216	5.07612	1.10896	2.54234
3506.000	4.03431	4.63165	1.02398	2.35776
3507.000	4.00480	4.18003	1.09710	2.16904
3508.000	3.87494	3.82317	1.08524	1.99623
3509.000	3.80212	3.46565	1.12082	1.92270
3510.000	3.81589	3.29547	1.16825	1.73986
3511.000	3.78046	2.98092	1.15639	1.87300
3512.000	3.78440	2.79082	1.18603	1.97629
3513.000	3.77653	2.62249	1.20777	2.00210
3514.000	3.73322	2.48790	1.22160	2.33576
3515.000	3.76865	2.42042	1.25520	2.56603
3516.000	3.77456	2.19645	1.23741	2.52238
3517.000	3.74306	2.32933	1.25520	2.59779
3518.000	3.73716	2.37097	1.27496	2.70693
3519.000	3.75684	2.40262	1.26903	2.71090
3520.000	3.81393	2.77291	1.26705	2.60572
3521.000	3.77259	2.89978	1.22555	2.59385
3522.000	3.76275	3.07601	1.27298	2.64342
3523.000	3.74306	3.21858	1.21963	2.61569
3524.000	3.72928	3.33933	1.24532	2.66330
3525.000	3.73716	3.33732	1.24729	2.64345
3526.000	3.77062	3.36885	1.22753	2.67125
3527.000	3.72731	3.34132	1.20579	2.69310
3528.000	3.74503	3.41247	1.20579	2.75264
3529.000	3.71944	3.42642	1.18406	2.66931
3530.000	3.71944	3.37498	1.17022	2.76458
3531.000	3.73125	3.44615	1.19591	2.79432
3532.000	3.70369	3.49571	1.16627	2.73680
3533.000	3.72338	3.39673	1.16034	2.78444
3534.000	3.75684	3.41836	1.09908	2.66939
3535.000	3.77259	3.49939	1.13663	2.76660
3536.000	3.80605	3.51903	1.11687	2.75273
3537.000	3.76669	3.43019	1.09908	2.78846
3538.000	3.78834	3.48944	1.17022	2.74672
3539.000	3.80802	3.43794	1.10106	2.73091
3540.000	3.76078	3.45790	1.13663	2.74675
3541.000	3.76669	3.45590	1.21963	2.77445
3542.000	3.73716	3.42832	1.10106	2.76068
3543.000	3.76078	3.48559	1.11687	2.80630
3544.000	3.75881	3.52515	1.15046	2.83604
3545.000	3.75094	3.51530	1.14453	2.78445
3546.000	3.77259	3.47961	1.17615	2.82609
3547.000	3.74503	3.45005	1.20184	2.80225
3548.000	3.73125	3.45802	1.18406	2.82807
3549.000	3.73322	3.43427	1.23741	2.77047
3550.000	3.76078	3.48955	1.16825	2.86181
3551.000	3.73322	3.49559	1.18998	2.79631
3552.000	3.74897	3.46982	1.22753	2.76254
3553.000	3.71944	3.45213	1.23939	2.77840
3554.000	3.75881	3.51724	1.22160	2.77842
3555.000	3.71156	3.56490	1.21172	2.76851
3556.000	3.72535	3.55298	1.19196	2.82409
3557.000	3.71747	3.53719	1.23741	2.82999
3558.000	3.74109	3.51138	1.22160	2.70301
3559.000	3.76078	3.56272	1.19394	2.72288
3560.000	3.74109	3.48369	1.23148	2.73872
3561.000	3.72141	3.49959	1.21765	2.75461
3562.000	3.69188	3.42454	1.23939	2.66132
3563.000	3.70566	3.39679	1.23346	2.69308
3564.000	3.72338	3.45805	1.22160	2.69507
3565.000	3.68794	3.45225	1.21370	2.65936
3566.000	3.70960	3.45613	1.23346	2.69705
3567.000	3.70763	3.49174	1.21963	2.66134
3568.000	3.71353	3.44424	1.20579	2.70104
3569.000	3.70960	3.51546	1.15837	2.72094
3570.000	3.72141	3.49762	1.21172	2.70898
3571.000	3.71747	3.44818	1.21567	2.68913
3572.000	3.70960	3.50162	1.21963	2.76850
3573.000	3.74306	3.48368	1.23346	2.68911
3574.000	3.74306	3.50149	1.18010	2.71496
3575.000	3.71156	3.43634	1.21765	2.67325
3576.000	3.73519	3.50547	1.27496	2.68113
3577.000	3.72535	3.44617	1.19789	2.65540
3578.000	3.77456	3.46971	1.21567	2.73279
3579.000	3.71156	3.49963	1.19789	2.69708
3580.000	3.70763	3.49371	1.21567	2.67126
3581.000	3.72535	3.40068	1.21370	2.70302
3582.000	3.71747	3.43434	1.21765	2.67722
3583.000	3.71156	3.44227	1.20382	2.65143
3584.000	3.69975	3.47990	1.20579	2.70501
3585.000	3.71156	3.43436	1.20975	2.63951
3586.000	3.75881	3.50340	1.18998	2.72686
3587.000	3.72338	3.45805	1.17418	2.68718
3588.000	3.70172	3.38494	1.21172	2.67524
3589.000	3.67219	3.41473	1.22753	2.66927
3590.000	3.69975	3.43638	1.19987	2.71891
3591.000	3.67416	3.44242	1.24136	2.72879
3592.000	3.68597	3.39094	1.23148	2.75460
3593.000	3.70369	3.46802	1.23346	2.70498
3594.000	3.64265	3.43067	1.19789	2.67525
3595.000	3.65841	3.46226	1.16627	2.67727
3596.000	3.68597	3.42259	1.22753	2.72880
3597.000	3.65447	3.39699	1.19196	2.66930
3598.000	3.63675	3.46828	1.20579	2.66135
3599.000	3.68794	3.44236	1.23741	2.71292
3600.000	3.66431	3.45234	1.18801	2.73877
3601.000	3.67416	3.45428	1.21567	2.74469
3602.000	3.69975	3.42253	1.20382	2.72684
3603.000	3.66038	3.46423	1.23544	2.70498
3604.000	3.68400	3.47403	1.23741	2.66330
3605.000	3.64069	3.47024	1.20975	2.73081
3606.000	3.65053	3.49196	1.21370	2.75859
3607.000	3.68400	3.44436	1.21765	2.66928
3608.000	3.67219	3.49979	1.20382	2.73478
3609.000	3.68597	3.49973	1.24136	2.64345
3610.000	3.64462	3.51770	1.23544	2.74070
3611.000	3.65841	3.48600	1.20777	2.67127
3612.000	3.67022	3.53737	1.24136	2.75062
3613.000	3.64069	3.52365	1.22753	2.70499
3614.000	3.65644	3.47611	1.25520	2.78831
3615.000	3.61706	3.51583	1.27891	2.72875
3616.000	3.59343	3.58712	1.23346	2.74071
3617.000	3.67219	3.54132	1.24136	2.73474
3618.000	3.66431	3.53146	1.25717	2.72679
3619.000	3.65841	3.51962	1.23346	2.67323
3620.000	3.59736	3.51195	1.20382	2.73478
3621.000	3.57767	3.51993	1.22160	2.70500
3622.000	3.65644	3.52952	1.26112	2.74861
3623.000	3.65250	3.49393	1.19987	2.69708
3624.000	3.62887	3.49798	1.18603	2.75068
3625.000	3.58949	3.49219	1.24136	2.72879
3626.000	3.61115	3.53958	1.21963	2.75461
3627.000	3.55995	3.50022	1.21172	2.70898
3628.000	3.60524	3.50400	1.24729	2.79625
3629.000	3.56783	3.45469	1.26310	2.82798
3630.000	3.62296	3.48415	1.26112	2.82005
3631.000	3.65447	3.45436	1.24334	2.73871
3632.000	3.62296	3.47031	1.30064	2.77635
3633.000	3.56586	3.43096	1.24334	2.82800
3634.000	3.62887	3.50193	1.21963	2.75461
3635.000	3.55601	3.48045	1.23346	2.77047
3636.000	3.58161	3.50014	1.26310	2.79227
3637.000	3.59343	3.45855	1.19196	2.80623
3638.000	3.61115	3.46244	1.26310	2.74861
3639.000	3.63084	3.42478	1.18998	2.75067
3640.000	3.62099	3.47823	1.28286	2.73867
3641.000	3.59933	3.40511	1.21963	2.71492
3642.000	3.61312	3.44463	1.27298	2.78035
3643.000	3.60918	3.43475	1.27693	2.74860
3644.000	3.58752	3.44472	1.26508	2.79425
3645.000	3.58555	3.49814	1.19789	2.79829
3646.000	3.60918	3.45453	1.29076	2.75652
3647.000	3.55010	3.45871	1.26903	2.76250
3648.000	3.55798	3.46660	1.26705	2.80814
3649.000	3.55995	3.50022	1.26310	2.80020
3650.000	3.68006	3.51756	1.25322	2.77839
3651.000	3.65250	3.50975	1.26112	2.80417
3652.000	3.59933	3.50798	1.24136	2.77046
3653.000	3.58949	3.49615	1.23939	2.78039
3654.000	3.63281	3.47818	1.22951	2.70697
3655.000	3.61706	3.49802	1.25915	2.71687
3656.000	3.60721	3.42882	1.23939	2.70299
3657.000	3.62887	3.50589	1.27100	2.62754
3658.000	3.57373	3.41312	1.29669	2.71087
3659.000	3.60524	3.48620	1.27298	2.72677
3660.000	3.61312	3.42286	1.22951	2.61766
3661.000	3.58555	3.49814	1.29472	2.62157
3662.000	3.65447	3.47612	1.21765	2.68317
3663.000	3.62296	3.45052	1.32633	2.62153
3664.000	3.58752	3.44868	1.31250	2.64139
3665.000	3.61706	3.45846	1.31052	2.58979
3666.000	3.62296	3.47624	1.30657	2.60568
3667.000	3.60327	3.49412	1.30064	2.59774
3668.000	3.59736	3.53568	1.31843	2.63543
3669.000	3.60130	3.49215	1.32633	2.61359
3670.000	3.63872	3.49596	1.33621	2.58580
3671.000	3.62493	3.49799	1.31052	2.60567
3672.000	3.60918	3.48223	1.34016	2.61159
3673.000	3.61706	3.51385	1.29669	2.57790
3674.000	3.61115	3.51387	1.32436	2.64535
3675.000	3.62690	3.52370	1.33424	2.60962
3676.000	3.60918	3.53761	1.36585	2.62149
3677.000	3.64265	3.53155	1.35004	2.60960
3678.000	3.62099	3.49801	1.31843	2.58185
3679.000	3.65644	3.48600	1.30460	2.60568
3680.000	3.64659	3.53945	1.32831	2.65130
3681.000	3.65053	3.50581	1.32436	2.62550
3682.000	3.64265	3.52166	1.30262	2.60965
3683.000	3.65644	3.50578	1.30064	2.61561
3684.000	3.62493	3.57118	1.35202	2.64929
3685.000	3.60721	3.51982	1.30460	2.62751
3686.000	3.62296	3.52965	1.34807	2.58777
3687.000	3.63872	3.55134	1.33621	2.67511
3688.000	3.59736	3.54557	1.31843	2.64337
3689.000	3.60721	3.55740	1.30657	2.64537
3690.000	3.60524	3.52378	1.32831	2.64932
3691.000	3.59933	3.53765	1.37968	2.66514
3692.000	3.62493	3.59293	1.31843	2.65131
3693.000	3.63675	3.54344	1.36980	2.66912
3694.000	3.63281	3.53357	1.32436	2.61161
3695.000	3.69385	3.55706	1.37178	2.57583
3696.000	3.65053	3.55921	1.36783	2.66714
3697.000	3.60327	3.56533	1.34412	2.63144
3698.000	3.63281	3.52565	1.33226	2.64336
3699.000	3.61115	3.52178	1.35399	2.61555
3700.000	3.63478	3.57311	1.36783	2.64729
3701.000	3.65447	3.54139	1.32831	2.62352
3702.000	3.62887	3.52567	1.31250	2.67712
3703.000	3.64659	3.55329	1.33621	2.66915
3704.000	3.66234	3.57498	1.33226	2.60168
3705.000	3.66234	3.56905	1.34214	2.60762
3706.000	3.62099	3.55141	1.35202	2.61952
3707.000	3.61706	3.59098	1.33028	2.64336
3708.000	3.62099	3.59295	1.34214	2.56197
3709.000	3.65841	3.52753	1.30855	2.60369
3710.000	3.63872	3.62254	1.40142	2.62145
3711.000	3.68203	3.56897	1.33621	2.60168
3712.000	3.65250	3.57700	1.34807	2.60762
3713.000	3.64265	3.55726	1.34214	2.61159
3714.000	3.62099	3.58108	1.34214	2.61159
3715.000	3.58949	3.56934	1.34412	2.59174
3716.000	3.66825	3.60858	1.35597	2.66119
3717.000	3.64462	3.51770	1.35597	2.60959
3718.000	3.63281	3.53950	1.38956	2.61154
3719.000	3.63084	3.53951	1.34412	2.58380
3720.000	3.61903	3.53560	1.36783	2.51034
3721.000	3.63675	3.59486	1.34412	2.59968
3722.000	3.64856	3.57108	1.30064	2.60767
3723.000	3.61903	3.63646	1.36585	2.61554
3724.000	3.64856	3.52955	1.32238	2.58978
3725.000	3.67022	3.54924	1.35004	2.60960
3726.000	3.66038	3.54335	1.35992	2.58379
3727.000	3.64069	3.54738	1.35795	2.58776
3728.000	3.61903	3.55142	1.32238	2.56199
3729.000	3.59540	3.58909	1.34807	2.61754
3730.000	3.59933	3.54556	1.35399	2.58975
3731.000	3.59540	3.53371	1.34412	2.59174
3732.000	3.57964	3.56344	1.32238	2.59772
3733.000	3.56783	3.53382	1.30460	2.66919
3734.000	3.60327	3.53566	1.36585	2.64729
3735.000	3.61706	3.54945	1.35004	2.65922
3736.000	3.62099	3.56328	1.36190	2.66714
3737.000	3.55404	3.51607	1.36387	2.64134
3738.000	3.60327	3.56137	1.31448	2.63941
3739.000	3.57570	3.53577	1.34807	2.61953
3740.000	3.60524	3.55345	1.34609	2.63937
3741.000	3.60918	3.56135	1.31843	2.62948
3742.000	3.59343	3.53965	1.33819	2.62946
3743.000	3.60524	3.51389	1.33424	2.67511
3744.000	3.61115	3.51387	1.35597	2.67906
3745.000	3.55010	3.56949	1.37178	2.69888
3746.000	3.54813	3.54972	1.35004	2.66120
3747.000	3.60327	3.54555	1.31250	2.66720
3748.000	3.61509	3.59692	1.30460	2.63743
3749.000	3.62296	3.58503	1.33028	2.62947
3750.000	3.59736	3.60491	1.32436	2.62352
3751.000	3.57373	3.55357	1.30855	2.59178
3752.000	3.64069	3.55727	1.34807	2.62945
3753.000	3.61115	3.57123	1.33621	2.66122
3754.000	3.59146	3.51395	1.33226	2.62748
3755.000	3.62887	3.56523	1.34609	2.61953
3756.000	3.58555	3.54364	1.34807	2.61556
3757.000	3.56783	3.55360	1.36585	2.62943
3758.000	3.59343	3.53570	1.30460	2.67713
3759.000	3.61706	3.56725	1.35795	2.60761
3760.000	3.56783	3.57535	1.35399	2.62150
3761.000	3.54222	3.57150	1.35004	2.68700
3762.000	3.54419	3.58138	1.32633	2.65726
3763.000	3.57176	3.56149	1.32436	2.68901
3764.000	3.54813	3.54181	1.30262	2.60369
3765.000	3.58555	3.59506	1.36980	2.61950
3766.000	3.56586	3.51800	1.35202	2.66120
3767.000	3.59736	3.51590	1.35992	2.66714
3768.000	3.58949	3.54956	1.40142	2.62145
3769.000	3.57570	3.54763	1.38363	2.63139
3770.000	3.55404	3.55365	1.42710	2.62539
3771.000	3.57964	3.50410	1.38561	2.58574
3772.000	3.56192	3.52593	1.36190	2.61951
3773.000	3.57373	3.51995	1.37375	2.66316
3774.000	3.56389	3.52988	1.38363	2.63735
3775.000	3.57570	3.52390	1.35399	2.63341
3776.000	3.55995	3.48439	1.36387	2.57981
3777.000	3.59933	3.52776	1.38758	2.59567
3778.000	3.56389	3.57537	1.41920	2.57380
3779.000	3.56979	3.53579	1.42710	2.70080
3780.000	3.53041	3.56165	1.39746	2.56985
3781.000	3.53828	3.54382	1.43500	2.63531
3782.000	3.56783	3.50810	1.43500	2.58172
3783.000	3.56389	3.51405	1.44291	2.58568
3784.000	3.52253	3.50234	1.44883	2.55193
3785.000	3.53631	3.52207	1.45279	2.56185
3786.000	3.54813	3.47059	1.47057	2.61145
3787.000	3.55404	3.51211	1.49230	2.56379
3788.000	3.55995	3.53583	1.41525	2.58968
3789.000	3.51859	3.42915	1.43896	2.54797
3790.000	3.55207	3.49629	1.42908	2.58966
3791.000	3.57767	3.51004	1.45674	2.55788
3792.000	3.54222	3.53392	1.45081	2.55987
3793.000	3.52056	3.46871	1.47057	2.51419
3794.000	3.56192	3.48241	1.45279	2.50627
3795.000	3.52450	3.54783	1.48835	2.58563
3796.000	3.50283	3.48065	1.43105	2.55791
3797.000	3.50283	3.52417	1.49625	2.60150
3798.000	3.55404	3.55563	1.48835	2.59555
3799.000	3.54419	3.53193	1.49625	2.57966
3800.000	3.53631	3.51811	1.47649	2.56778
3801.000	3.58949	3.47241	1.44093	2.53408
3802.000	3.53631	3.53789	1.47452	2.54595
3803.000	3.51859	3.49840	1.46069	2.58764
3804.000	3.50086	3.50835	1.50415	2.51813
3805.000	3.48314	3.54205	1.47057	2.58366
3806.000	3.53828	3.51415	1.50613	2.49430
3807.000	3.50283	3.53802	1.45871	2.55391
3808.000	3.48708	3.48269	1.46859	2.53405
3809.000	3.51071	3.52217	1.45279	2.52017
3810.000	3.54222	3.52007	1.51008	2.51812
3811.000	3.50874	3.53009	1.47847	2.56778
3812.000	3.53041	3.54187	1.48045	2.56380
3813.000	3.46738	3.52431	1.49230	2.56776
3814.000	3.50480	3.52417	1.44686	2.53804
3815.000	3.54222	3.57941	1.50218	2.53202
3816.000	3.54025	3.49238	1.50810	2.57568
3817.000	3.50086	3.53012	1.47057	2.57771
3818.000	3.52056	3.56169	1.49230	2.54593
3819.000	3.48314	3.55985	1.46069	2.55192
3820.000	3.50874	3.53998	1.47057	2.56183
3821.000	3.50086	3.50638	1.49823	2.56775
3822.000	3.50874	3.49646	1.51798	2.58162
3823.000	3.48117	3.50447	1.49428	2.64317
3824.000	3.48314	3.53216	1.47649	2.63129
3825.000	3.46738	3.53815	1.44686	2.61743
3826.000	3.50480	3.52219	1.51206	2.62132
3827.000	3.48708	3.50841	1.53181	2.62725
3828.000	3.45950	3.55203	1.49625	2.60943
3829.000	3.48314	3.52623	1.48637	2.59952
3830.000	3.48511	3.52622	1.44883	2.60949
3831.000	3.51268	3.57952	1.48242	2.60548
3832.000	3.49692	3.51035	1.48242	2.64319
3833.000	3.46738	3.51441	1.50810	2.64911
3834.000	3.46344	3.53421	1.47057	2.65709
3835.000	3.47329	3.48076	1.53576	2.62328
3836.000	3.46738	3.53222	1.48045	2.62533
3837.000	3.46738	3.50057	1.48045	2.66304
3838.000	3.54222	3.56952	1.53971	2.64312
3839.000	3.46147	3.57180	1.52193	2.63123
3840.000	3.47920	3.52624	1.50020	2.67690
3841.000	3.46738	3.54409	1.53181	2.60344
3842.000	3.50874	3.54591	1.48835	2.62929
3843.000	3.50086	3.52814	1.53379	2.60344
3844.000	3.49495	3.49255	1.48637	2.62731
3845.000	3.49298	3.55982	1.47254	2.55190
3846.000	3.46935	3.53023	1.52589	2.61337
3847.000	3.43586	3.54025	1.53181	2.59748
3848.000	3.46147	3.50059	1.54367	2.61335
3849.000	3.48511	3.51039	1.49428	2.64119
3850.000	3.46738	3.55398	1.51798	2.62528
3851.000	3.50677	3.57757	1.56342	2.61332
3852.000	3.49298	3.56180	1.53379	2.59550
3853.000	3.47920	3.54602	1.49428	2.64119
3854.000	3.48511	3.54007	1.54959	2.57563
3855.000	3.48117	3.54997	1.50810	2.58759
3856.000	3.49495	3.56179	1.52391	2.54589
3857.000	3.50086	3.59144	1.51798	2.57567
3858.000	3.52844	3.57155	1.57132	2.60537
3859.000	3.47132	3.61528	1.53181	2.56176
3860.000	3.45556	3.53028	1.52589	2.54390
3861.000	3.48511	3.57963	1.56145	2.55180
3862.000	3.49692	3.57167	1.53379	2.52008
3863.000	3.48117	3.59349	1.54564	2.51411
3864.000	3.51071	3.56766	1.60096	2.50412
3865.000	3.51268	3.56963	1.53181	2.51611
3866.000	3.49298	3.55586	1.54762	2.49227
3867.000	3.49101	3.58950	1.57330	2.49224
3868.000	3.50283	3.56769	1.52391	2.53597
3869.000	3.49692	3.56771	1.60491	2.55572
3870.000	3.47329	3.61132	1.52589	2.60543
3871.000	3.44374	3.53033	1.57725	2.53987
3872.000	3.48904	3.56972	1.52391	2.53398
3873.000	3.45950	3.56192	1.53379	2.53794
3874.000	3.48708	3.55391	1.54762	2.54983
3875.000	3.43783	3.56200	1.55157	2.53395
3876.000	3.49101	3.56576	1.53181	2.54390
3877.000	3.49101	3.52422	1.54169	2.47243
3878.000	3.46541	3.55992	1.53971	2.49029
3879.000	3.52647	3.51617	1.61873	2.48226
3880.000	3.53631	3.53196	1.52589	2.50421
3881.000	3.50283	3.51626	1.56342	2.46645
3882.000	3.52253	3.55179	1.57132	2.52202
3883.000	3.44965	3.52833	1.55947	2.51012
3884.000	3.45556	3.51644	1.61083	2.47036
3885.000	3.50086	3.53803	1.60096	2.46839
3886.000	3.54025	3.58337	1.57725	2.50216
3887.000	3.48511	3.52226	1.58515	2.47436
3888.000	3.50480	3.56373	1.56145	2.49027
3889.000	3.47526	3.53021	1.59305	2.49619
3890.000	3.51268	3.52414	1.56342	2.51210
3891.000	3.49692	3.58947	1.57527	2.42078
3892.000	3.47329	3.55000	1.54169	2.46250
3893.000	3.47132	3.55792	1.57330	2.47239
3894.000	3.51859	3.56961	1.59700	2.50809
3895.000	3.50480	3.55186	1.58713	2.49421
3896.000	3.47526	3.59747	1.59503	2.49023
3897.000	3.47920	3.54009	1.55749	2.49821
3898.000	3.48708	3.58753	1.53379	2.49626
3899.000	3.48314	3.53018	1.54762	2.52800
3900.000	3.50283	3.54396	1.57527	2.52201
3901.000	3.46344	3.55597	1.51996	2.54589
3902.000	3.51859	3.53401	1.59305	2.54581
3903.000	3.47132	3.54803	1.52589	2.50619
3904.000	3.48314	3.54403	1.52984	2.55184
3905.000	3.50480	3.57560	1.60886	2.59540
3906.000	3.46344	3.60938	1.56342	2.58355
3907.000	3.50283	3.55582	1.54564	2.56968
3908.000	3.44571	3.59164	1.53774	2.60740
3909.000	3.53631	3.54976	1.57725	2.59147
3910.000	3.50677	3.58152	1.57527	2.58552
3911.000	3.47132	3.54407	1.58910	2.57558
3912.000	3.49889	3.57166	1.51798	2.60147
3913.000	3.43980	3.53034	1.63256	2.53385
3914.000	3.44965	3.55009	1.56540	2.57164
3915.000	3.50677	3.51822	1.59305	2.62519
3916.000	3.45359	3.50655	1.62071	2.55967
3917.000	3.48708	3.50841	1.53774	2.54786
3918.000	3.46541	3.54607	1.62466	2.52989
3919.000	3.49101	3.50443	1.56540	2.56767
3920.000	3.46541	3.53420	1.61478	2.59738
3921.000	3.47526	3.50449	1.58515	2.59543
3922.000	3.41813	3.51064	1.62071	2.58547
3923.000	3.47329	3.48670	1.61281	2.59341
3924.000	3.48511	3.51237	1.60293	2.59938
3925.000	3.45556	3.53820	1.57725	2.70062
3926.000	3.47132	3.49659	1.61676	2.53784
3927.000	3.47723	3.51042	1.59305	2.56367
3928.000	3.47329	3.53615	1.62664	2.60133
3929.000	3.48708	3.56775	1.57923	2.55178
3930.000	3.48117	3.54404	1.61873	2.53387
3931.000	3.44768	3.51251	1.60096	2.62518
3932.000	3.48904	3.53016	1.63059	2.60530
3933.000	3.49692	3.54002	1.58713	2.61925
3934.000	3.48904	3.59544	1.58318	2.58948
3935.000	3.46541	3.52036	1.58318	2.62322
3936.000	3.49495	3.52618	1.58713	2.60535
3937.000	3.48117	3.52030	1.62466	2.59141
3938.000	3.46344	3.55993	1.60886	2.63112
3939.000	3.45359	3.51842	1.64244	2.61521
3940.000	3.47723	3.52823	1.61083	2.61723
3941.000	3.49101	3.50246	1.64046	2.63902
3942.000	3.49692	3.56376	1.66614	2.57151
3943.000	3.47132	3.53814	1.59898	2.60335
3944.000	3.45162	3.59558	1.62269	2.60332
3945.000	3.47132	3.53023	1.61281	2.59937
3946.000	3.50283	3.55385	1.61873	2.58150
3947.000	3.50480	3.56571	1.63651	2.58148
3948.000	3.49101	3.55982	1.61281	2.61921
3949.000	3.52647	3.61112	1.63454	2.55965
3950.000	3.54419	3.58138	1.65627	2.63503
3951.000	3.48511	3.54996	1.63849	2.57750
3952.000	3.51465	3.52809	1.62269	2.61325
3953.000	3.48511	3.61919	1.63849	2.59537
3954.000	3.52056	3.59729	1.62861	2.64102
3955.000	3.50283	3.55187	1.65232	2.59733
3956.000	3.49298	3.56773	1.62861	2.62118
3957.000	3.48511	3.54402	1.63256	2.57354
3958.000	3.49101	3.61521	1.62269	2.60729
3959.000	3.49889	3.56969	1.65627	2.58939
3960.000	3.53041	3.53989	1.66812	2.52190
3961.000	3.48708	3.57369	1.63256	2.57950
3962.000	3.49495	3.51233	1.63059	2.61324
3963.000	3.47920	3.53217	1.61676	2.56562
3964.000	3.51268	3.51227	1.64441	2.61520
3965.000	3.49101	3.58356	1.63651	2.60728
3966.000	3.50086	3.55781	1.65232	2.56161
3967.000	3.46738	3.55596	1.63454	2.58346
3968.000	3.48314	3.57172	1.63454	2.53782
3969.000	3.50874	3.55580	1.65232	2.56161
3970.000	3.52056	3.62301	1.69577	2.54568
3971.000	3.47723	3.58361	1.64837	2.56161
3972.000	3.47132	3.54407	1.66417	2.53976
3973.000	3.47329	3.54209	1.62466	2.55569
3974.000	3.45950	3.53620	1.59305	2.55375
3975.000	3.51662	3.56171	1.65824	2.58343
3976.000	3.50283	3.58747	1.62664	2.54378
3977.000	3.46935	3.56386	1.60293	2.62716
3978.000	3.45753	3.56193	1.56935	2.60538
3979.000	3.50283	3.54198	1.60688	2.55174
3980.000	3.49298	3.54004	1.64046	2.58147
3981.000	3.46541	3.54212	1.58910	2.57757
3982.000	3.49692	3.54002	1.63454	2.53186
3983.000	3.49101	3.48267	1.59503	2.51206
3984.000	3.51662	3.57357	1.61676	2.60929
3985.000	3.46935	3.51441	1.64244	2.57155
3986.000	3.48904	3.56577	1.60096	2.54381
3987.000	3.47920	3.49261	1.61083	2.48426
3988.000	3.47526	3.52230	1.59305	2.56168
3989.000	3.45950	3.50059	1.61676	2.51799
3990.000	3.45359	3.54612	1.58910	2.51802
3991.000	3.44177	3.55012	1.64046	2.56956
3992.000	3.43783	3.50067	1.60491	2.53984
3993.000	3.45359	3.50853	1.63651	2.57751
3994.000	3.47920	3.59943	1.61676	2.53585
3995.000	3.42798	3.56006	1.58318	2.57757
3996.000	3.48117	3.49656	1.59503	2.51206
3997.000	3.41419	3.52055	1.62664	2.54180
3998.000	3.41222	3.50472	1.59898	2.57160
3999.000	3.48511	3.53413	1.56540	2.57164
4000.000	3.42207	3.49480	1.58120	2.64108
4001.000	3.44768	3.45118	1.60293	2.56167
4002.000	3.43980	3.53034	1.56737	2.57561
4003.000	3.41616	3.49482	1.59503	2.60733
4004.000	3.41025	3.45725	1.54959	2.54189
4005.000	3.42798	3.50665	1.59898	2.63709
4006.000	3.39646	3.52457	1.58713	2.67679
4007.000	3.45359	3.46698	1.57725	2.63117
4008.000	3.44768	3.49075	1.57923	2.59941
4009.000	3.46738	3.55002	1.63059	2.59141
4010.000	3.45753	3.49467	1.61478	2.55372
4011.000	3.50086	3.51825	1.57725	2.56964
4012.000	3.46935	3.55199	1.59898	2.62320
4013.000	3.43586	3.52047	1.59898	2.51007
4014.000	3.47329	3.50648	1.62861	2.54973
4015.000	3.50086	3.50440	1.61873	2.57158
4016.000	3.49298	3.53806	1.55947	2.57165
4017.000	3.51662	3.50038	1.61281	2.56563
4018.000	3.46344	3.52630	1.59503	2.55573
4019.000	3.45162	3.51249	1.61281	2.52990
4020.000	3.47526	3.56582	1.60096	2.49816
4021.000	3.45950	3.57181	1.57923	2.50811
4022.000	3.44571	3.55208	1.64639	2.57749
4023.000	3.51465	3.58545	1.61281	2.56166
4024.000	3.47329	3.53813	1.65034	2.58344
4025.000	3.50677	3.57163	1.59898	2.65297
4026.000	3.47920	3.61130	1.66219	2.67074
4027.000	3.50874	3.60525	1.64639	2.77195
4028.000	3.49495	3.57959	1.65034	2.71838
4029.000	3.52844	3.61111	1.66022	2.74416
4030.000	3.52056	3.63289	1.59700	2.75813
4031.000	3.54419	3.64071	1.58910	2.71449
4032.000	3.55601	3.70197	1.55354	2.80779
4033.000	3.54025	3.69017	1.48440	2.81582
4034.000	3.59736	3.79274	1.48242	2.75828
4035.000	3.63281	3.96652	1.46662	2.77417
4036.000	3.68400	3.82796	1.36783	2.77429
4037.000	4.05792	2.78793	1.37573	2.91713
4038.000	4.10906	3.27058	1.44093	3.22839
4039.000	4.24082	3.97350	1.41525	3.74163
4040.000	4.14250	4.99946	1.26112	4.76052
4041.000	4.00874	6.65787	1.08129	5.97336
4042.000	3.98906	8.28898	0.68203	7.36726
4043.000	3.95955	10.11090	0.29457	9.02225
4044.000	3.87297	11.99688	-0.17200	10.61576
4045.000	3.68794	13.89613	-0.77296	12.27724
4046.000	NaN	NaN	-6.74972	13.41306
4047.000	NaN	NaN	-7.29500	14.64608
4048.000	NaN	NaN	NaN	NaN
4049.000	NaN	NaN	NaN	NaN
4050.000	NaN	NaN	NaN	NaN
4051.000	NaN	NaN	NaN	NaN
4052.000	NaN	NaN	NaN	NaN
4053.000	NaN	NaN	NaN	NaN
4054.000	NaN	NaN	NaN	NaN
4055.000	NaN	NaN	NaN	NaN
4056.000	NaN	NaN	NaN	NaN
4057.000	NaN	NaN	NaN	NaN
4058.000	NaN	NaN	NaN	NaN
4059.000	NaN	NaN	NaN	NaN
4060.000	NaN	NaN	NaN	NaN
4061.000	NaN	NaN	NaN	NaN
4062.000	NaN	NaN	NaN	NaN
4063.000	NaN	NaN	NaN	NaN
4064.000	NaN	NaN	NaN	NaN
4065.000	NaN	NaN	NaN	NaN
4066.000	NaN	NaN	NaN	NaN
4067.000	NaN	NaN	NaN	NaN
4068.000	NaN	NaN	NaN	NaN
4069.000	NaN	NaN	NaN	NaN
4070.000	NaN	NaN	NaN	NaN
4071.000	NaN	NaN	NaN	NaN
4072.000	NaN	NaN	NaN	NaN
4073.000	NaN	NaN	NaN	NaN
4074.000	NaN	NaN	NaN	NaN
4075.000	NaN	NaN	NaN	NaN
4076.000	NaN	NaN	NaN	NaN
4077.000	NaN	NaN	NaN	NaN
4078.000	NaN	NaN	NaN	NaN
4079.000	NaN	NaN	NaN	NaN
4080.000	NaN	NaN	NaN	NaN
4081.000	NaN	NaN	NaN	NaN
4082.000	NaN	NaN	NaN	NaN
4083.000	NaN	NaN	NaN	NaN
4084.000	NaN	NaN	NaN	NaN
4085.000	NaN	NaN	NaN	NaN
4086.000	NaN	NaN	NaN	NaN
4087.000	NaN	NaN	NaN	NaN
4088.000	NaN	NaN	NaN	NaN
4089.000	NaN	NaN	NaN	NaN
4090.000	NaN	NaN	NaN	NaN
4091.000	NaN	NaN	NaN	NaN
4092.000	NaN	NaN	NaN	NaN
4093.000	NaN	NaN	NaN	NaN
4094.000	NaN	NaN	NaN	NaN
4095.000	NaN	NaN	NaN	NaN
4096.000	NaN	NaN	NaN	NaN
4097.000	NaN	NaN	NaN	NaN
4098.000	NaN	NaN	NaN	NaN
4099.000	NaN	NaN	NaN	NaN
4100.000	NaN	NaN	NaN	NaN
4101.000	NaN	NaN	NaN	NaN
4102.000	NaN	NaN	NaN	NaN
4103.000	NaN	NaN	NaN	NaN
4104.000	NaN	NaN	NaN	NaN
4105.000	NaN	NaN	NaN	NaN
4106.000	NaN	NaN	NaN	NaN
4107.000	NaN	NaN	NaN	NaN
4108.000	NaN	NaN	NaN	NaN
4109.000	NaN	NaN	NaN	NaN
4110.000	NaN	NaN	NaN	NaN
4111.000	NaN	NaN	NaN	NaN
4112.000	NaN	NaN	NaN	NaN
4113.000	NaN	NaN	NaN	NaN
4114.000	NaN	NaN	NaN	NaN
4115.000	NaN	NaN	NaN	NaN
4116.000	NaN	NaN	NaN	NaN
4117.000	NaN	NaN	NaN	NaN
4118.000	NaN	NaN	NaN	NaN
4119.000	NaN	NaN	NaN	NaN
4120.000	NaN	NaN	NaN	NaN
4121.000	NaN	NaN	NaN	NaN
4122.000	NaN	NaN	NaN	NaN
4123.000	NaN	NaN	NaN	NaN
4124.000	NaN	NaN	NaN	NaN
4125.000	NaN	NaN	NaN	NaN
4126.000	NaN	NaN	NaN	NaN
4127.000	NaN	NaN	NaN	NaN
4128.000	NaN	NaN	NaN	NaN
4129.000	NaN	NaN	NaN	NaN
4130.000	NaN	NaN	NaN	NaN
4131.000	NaN	NaN	NaN	NaN
4132.000	NaN	NaN	NaN	NaN
4133.000	NaN	NaN	NaN	NaN
4134.000	NaN	NaN	NaN	NaN
4135.000	NaN	NaN	NaN	NaN
4136.000	NaN	NaN	NaN	NaN
4137.000	NaN	NaN	NaN	NaN
4138.000	NaN	NaN	NaN	NaN
4139.000	NaN	NaN	NaN	NaN
4140.000	NaN	NaN	NaN	NaN
4141.000	NaN	NaN	NaN	NaN
4142.000	NaN	NaN	NaN	NaN
4143.000	NaN	NaN	NaN	NaN
4144.000	NaN	NaN	-6.59565	12.87178
4145.000	NaN	NaN	-5.76909	13.57957
4146.000	NaN	NaN	-4.88713	13.74807
4147.000	NaN	NaN	-4.10119	13.15613
4148.000	NaN	NaN	1.11489	12.69510
4149.000	NaN	NaN	0.89749	12.08870
4150.000	NaN	NaN	0.97457	11.55295
4151.000	NaN	NaN	0.93306	10.99445
4152.000	NaN	NaN	0.98445	10.35464
4153.000	4.84983	12.82882	0.97457	9.70080
4154.000	5.91974	13.64335	1.03979	9.10044
4155.000	6.89980	14.02969	0.97654	8.46923
4156.000	6.83939	13.48539	0.99236	7.97818
4157.000	6.80236	12.81956	1.04769	7.45458
4158.000	6.66002	12.22060	0.96271	6.89476
4159.000	6.37705	11.74487	0.96073	6.35699
4160.000	6.23642	11.18192	1.02003	5.87508
4161.000	6.10354	10.51875	1.05955	5.37069
4162.000	5.96277	9.94272	1.10303	4.89509
4163.000	5.77300	9.38629	1.21567	4.53930
4164.000	5.58703	8.72311	1.20382	4.05673
4165.000	5.45579	8.16114	1.29472	3.70220
4166.000	5.31078	7.56047	1.29274	3.28608
4167.000	5.14413	7.16099	1.32040	2.95488
4168.000	4.95385	6.59067	1.33424	2.61160
4169.000	4.80468	6.13002	1.33621	2.33764
4170.000	4.64956	5.62712	1.36980	2.01787
4171.000	4.50420	5.14467	1.35992	1.85696
4172.000	4.44918	4.66464	1.30460	1.63246
4173.000	4.26441	4.27338	1.26310	1.41386
4174.000	4.17986	3.87112	1.31448	1.28065
4175.000	4.05202	3.41518	1.30855	1.09974
4176.000	3.95168	3.06741	1.35597	0.92276
4177.000	3.86903	2.74896	1.36585	0.71397
4178.000	3.83951	2.48759	1.38166	0.63840
4179.000	3.79424	2.12702	1.40339	0.48129
4180.000	3.71944	1.92100	1.43698	0.42759
4181.000	3.79818	1.52219	1.47057	0.49321
4182.000	3.69778	1.44300	1.46069	0.44548
4183.000	3.68991	1.14736	1.42908	0.50912
4184.000	3.68400	0.85561	1.45279	0.50116
4185.000	3.69385	0.72658	1.47847	0.64632
4186.000	3.61115	0.71474	1.46069	0.78950
4187.000	3.70960	0.48042	1.38561	0.99035
4188.000	3.68794	0.42684	1.40339	1.06987
4189.000	3.67219	0.40302	1.39944	1.15934
4190.000	3.47329	0.90743	1.39549	1.13349
4191.000	3.47526	1.02654	1.37573	1.20706
4192.000	3.44768	1.25088	1.39549	1.23289
4193.000	3.43192	1.37197	1.40339	1.11361
4194.000	3.43389	1.56249	1.38363	1.14344
4195.000	3.38070	1.82449	1.38758	1.10368
4196.000	3.37676	1.85624	1.37573	1.08778
4197.000	3.36494	1.90586	1.38758	1.06988
4198.000	3.37085	1.99710	1.39549	1.13946
4199.000	3.36888	2.00306	1.36190	1.06989
4200.000	3.35903	2.02093	1.35202	1.08580
4201.000	3.32356	1.96149	1.35795	1.10170
4202.000	3.36691	2.06852	1.34807	1.12358
4203.000	3.32553	2.02893	1.34412	1.10569
4204.000	3.31962	1.98927	1.36980	1.09971
4205.000	3.36691	2.01496	1.33226	1.10370
4206.000	3.33341	2.02098	1.37375	1.14543
4207.000	3.32159	1.98133	1.39944	1.09970
4208.000	3.32553	1.93570	1.35992	1.07784
4209.000	3.31765	1.97341	1.33226	1.07984
4210.000	3.30780	1.94367	1.32040	1.05798
4211.000	3.26248	1.94772	1.38561	1.09771
4212.000	3.30977	1.92184	1.36190	1.14345
4213.000	3.23883	1.91206	1.30657	1.20312
4214.000	3.25854	1.89218	1.33621	1.08780
4215.000	3.26839	1.91795	1.37968	1.10169
4216.000	3.25065	1.83069	1.38758	1.08976
4217.000	3.23489	1.82476	1.30855	1.06395
4218.000	3.24474	1.84855	1.36585	1.15140
4219.000	3.24474	1.80689	1.33819	1.09376
4220.000	3.24277	1.82673	1.34807	1.02019
4221.000	3.23883	1.83269	1.33424	1.12955
4222.000	3.25854	1.85448	1.34214	1.09575
4223.000	3.23686	1.80690	1.37968	1.11760
4224.000	3.19941	1.80697	1.38363	1.11561
4225.000	3.22701	1.78707	1.39944	1.08975
4226.000	3.26248	1.81479	1.34609	1.12557
4227.000	3.25263	1.84060	1.35992	1.10568
4228.000	3.23292	1.76524	1.37968	1.15338
4229.000	3.26051	1.79297	1.33424	1.12756
4230.000	3.28810	1.78300	1.35202	1.10568
4231.000	3.23686	1.72951	1.38956	1.08777
4232.000	3.19547	1.79110	1.35597	1.12158
4233.000	3.25657	1.78107	1.38758	1.11561
4234.000	3.24474	1.79101	1.34016	1.13352
4235.000	3.27036	1.76715	1.34214	1.12756
4236.000	3.25263	1.78703	1.33819	1.08978
4237.000	3.25263	1.76520	1.35795	1.17327
4238.000	3.23489	1.77912	1.35004	1.13352
4239.000	3.24080	1.75530	1.35992	1.07188
4240.000	3.26642	1.76319	1.33621	1.13153
4241.000	3.29007	1.79292	1.35399	1.13351
4242.000	3.25854	1.75924	1.37178	1.09971
4243.000	3.25263	1.84060	1.35202	1.14346
4244.000	3.26051	1.78106	1.33424	1.09177
4245.000	3.24277	1.81483	1.31052	1.17330
4246.000	3.28415	1.85642	1.37573	1.11362
4247.000	3.24868	1.78505	1.36387	1.17128
4248.000	3.24671	1.78704	1.32040	1.13949
4249.000	3.29795	1.84647	1.28879	1.17331
4250.000	3.24277	1.84261	1.32633	1.17130
4251.000	3.25263	1.80687	1.35992	1.12158
4252.000	3.28810	1.77109	1.36585	1.14941
4253.000	3.26248	1.75725	1.35597	1.14942
4254.000	3.28415	1.79094	1.34016	1.16931
4255.000	3.25460	1.81679	1.30657	1.19119
4256.000	3.24868	1.80688	1.36387	1.14941
4257.000	3.28415	1.84650	1.36585	1.17327
4258.000	3.31765	1.83850	1.33424	1.15937
4259.000	3.30583	1.83852	1.37771	1.17128
4260.000	3.31568	1.84247	1.35795	1.20309
4261.000	3.28021	1.81476	1.36190	1.19713
4262.000	3.32356	1.82063	1.33028	1.21901
4263.000	3.30189	1.82067	1.33424	1.19714
4264.000	3.30386	1.83257	1.35399	1.18520
4265.000	3.31765	1.85040	1.29472	1.19716
4266.000	3.28810	1.82863	1.34214	1.16533
4267.000	3.27036	1.80089	1.32831	1.17528
4268.000	3.29598	1.87425	1.31448	1.21306
4269.000	3.33736	1.84838	1.32436	1.14347
4270.000	3.29007	1.84053	1.32040	1.14745
4271.000	3.27233	1.83065	1.34016	1.14744
4272.000	3.27430	1.86834	1.29867	1.17131
4273.000	3.31765	1.87223	1.31448	1.19516
4274.000	3.32947	1.83848	1.33028	1.20907
4275.000	3.29204	1.86434	1.32040	1.14347
4276.000	3.28810	1.82665	1.36190	1.17924
4277.000	3.32750	1.93768	1.34214	1.18521
4278.000	3.31174	1.89208	1.34016	1.15539
4279.000	3.30583	1.88019	1.38363	1.20308
4280.000	3.27627	1.82270	1.35992	1.20508
4281.000	3.29992	1.89607	1.33621	1.15937
4282.000	3.29007	1.87426	1.32040	1.15341
4283.000	3.29992	1.84845	1.32238	1.18522
4284.000	3.27824	1.82468	1.36190	1.22297
4285.000	3.29795	1.89409	1.32238	1.20112
4286.000	3.24474	1.86046	1.38758	1.16332
4287.000	3.27824	1.80683	1.38166	1.17326
4288.000	3.24474	1.81681	1.37573	1.15537
4289.000	3.30583	1.81074	1.37968	1.23887
4290.000	3.25460	1.84457	1.37178	1.20309
4291.000	3.23489	1.83468	1.40142	1.20904
4292.000	3.23489	1.79103	1.34214	1.19714
4293.000	3.24080	1.84261	1.38561	1.19314
4294.000	3.30189	1.84647	1.35399	1.18520
4295.000	3.25854	1.84853	1.37178	1.23688
4296.000	3.24474	1.81681	1.35795	1.22099
4297.000	3.29204	1.80680	1.36387	1.21104
4298.000	3.30583	1.81273	1.36387	1.17924
4299.000	3.27430	1.84850	1.35399	1.16334
4300.000	3.23883	1.79499	1.35992	1.20111
4301.000	3.24474	1.85054	1.33424	1.18323
4302.000	3.29401	1.85045	1.38166	1.12356
4303.000	3.24277	1.80887	1.32436	1.16335
4304.000	3.20927	1.84267	1.39746	1.12952
4305.000	3.18956	1.83080	1.36585	1.19315
4306.000	3.22109	1.84661	1.35004	1.16930
4307.000	3.23095	1.82080	1.36585	1.13749
4308.000	3.23883	1.84063	1.37178	1.18718
4309.000	3.20336	1.79704	1.33226	1.13551
4310.000	3.26248	1.78701	1.33621	1.18720
4311.000	3.18759	1.76928	1.38166	1.15935
4312.000	3.22306	1.80097	1.38166	1.18320
4313.000	3.20730	1.76330	1.33424	1.10768
4314.000	3.19350	1.74149	1.36585	1.12158
4315.000	3.24277	1.76919	1.37771	1.10169
4316.000	3.23095	1.76127	1.38956	1.13350
4317.000	3.24671	1.78506	1.30460	1.13155
4318.000	3.23095	1.76921	1.36585	1.14941
4319.000	3.23883	1.79102	1.36190	1.16333
4320.000	3.25263	1.80092	1.32238	1.13949
4321.000	3.24080	1.77514	1.36980	1.07983
4322.000	3.22701	1.77914	1.33424	1.08581
4323.000	3.19744	1.76728	1.35004	1.11165
4324.000	3.22504	1.75334	1.37771	1.14543
4325.000	3.21124	1.78313	1.34016	1.07388
4326.000	3.21321	1.79900	1.33424	1.10370
4327.000	3.16394	1.78718	1.36585	1.08579
4328.000	3.21518	1.78313	1.36387	1.12158
4329.000	3.20730	1.74147	1.34609	1.11563
4330.000	3.17774	1.74350	1.39746	1.16729
4331.000	3.21715	1.76328	1.35399	1.07785
4332.000	3.20927	1.72757	1.34807	1.13948
4333.000	3.19547	1.75339	1.39351	1.14542
4334.000	3.22898	1.81287	1.36585	1.15935
4335.000	3.18759	1.76730	1.35399	1.19713
4336.000	3.16591	1.79710	1.38561	1.22495
4337.000	3.20139	1.74545	1.39549	1.17326
4338.000	3.22701	1.81485	1.37771	1.16730
4339.000	3.18168	1.80898	1.41722	1.12553
4340.000	3.20139	1.78910	1.36387	1.16930
4341.000	3.15211	1.81300	1.38956	1.17127
4342.000	3.16197	1.79314	1.39351	1.14542
4343.000	3.21321	1.81091	1.41327	1.10565
4344.000	3.18168	1.76334	1.35202	1.12954
4345.000	3.19350	1.82087	1.41129	1.12156
4346.000	3.20533	1.82680	1.36585	1.14743
4347.000	3.16197	1.81497	1.36980	1.13748
4348.000	3.20533	1.80299	1.33621	1.09575
4349.000	3.16985	1.74550	1.36585	1.10170
4350.000	3.22306	1.77914	1.39154	1.13548
4351.000	3.17774	1.72564	1.36980	1.08380
4352.000	3.18168	1.74746	1.34412	1.08978
4353.000	3.17576	1.77526	1.39154	1.06391
4354.000	3.20336	1.71766	1.38956	1.12356
4355.000	3.17774	1.75541	1.36783	1.07585
4356.000	3.20139	1.76132	1.41722	1.03209
4357.000	3.15408	1.71576	1.38956	1.06789
4358.000	3.17182	1.68596	1.41525	1.00823
4359.000	3.19547	1.71767	1.37968	1.08380
4360.000	3.15211	1.69393	1.42315	1.02811
4361.000	3.15014	1.71973	1.38758	1.04602
4362.000	3.16394	1.71971	1.40932	1.04999
4363.000	3.17379	1.71969	1.44488	1.03804
4364.000	3.17576	1.74350	1.38363	1.03210
4365.000	3.12255	1.73566	1.35399	1.06194
4366.000	3.19941	1.70179	1.35399	1.03411
4367.000	3.18562	1.70380	1.35004	1.05399
4368.000	3.19941	1.72362	1.40734	1.01619
4369.000	3.15211	1.73958	1.37178	1.06591
4370.000	3.18562	1.68197	1.40932	1.01818
4371.000	3.17182	1.69985	1.37771	1.05994
4372.000	3.21518	1.71565	1.41327	1.03209
4373.000	3.17971	1.72564	1.38561	1.04403
4374.000	3.12452	1.74756	1.37968	1.05994
4375.000	3.16985	1.68795	1.32633	1.06394
4376.000	3.16197	1.73361	1.37375	1.06392
4377.000	3.18759	1.71967	1.33819	1.07388
4378.000	3.17576	1.73358	1.40339	1.08975
4379.000	3.16394	1.71177	1.38166	1.04006
4380.000	3.17576	1.72763	1.34412	1.06791
4381.000	3.18562	1.71372	1.37375	1.07585
4382.000	3.19941	1.73751	1.39154	1.05795
4383.000	3.22701	1.70968	1.41722	1.06987
4384.000	3.16591	1.66414	1.38363	1.08579
4385.000	3.19153	1.67997	1.38363	1.07982
4386.000	3.17379	1.70977	1.33424	1.07587
4387.000	3.24474	1.69774	1.39746	1.05596
4388.000	3.20139	1.71568	1.36585	1.00428
4389.000	3.22306	1.70572	1.35795	1.03212
4390.000	3.21912	1.76923	1.38956	1.09175
4391.000	3.19350	1.71371	1.39351	1.11759
4392.000	3.22109	1.75930	1.39746	1.08777
4393.000	3.20139	1.73751	1.35992	1.09773
4394.000	3.19153	1.77325	1.38561	1.13151
4395.000	3.20336	1.74743	1.36190	1.06790
4396.000	3.21124	1.70772	1.36980	1.08182
4397.000	3.15605	1.74354	1.37771	1.08976
4398.000	3.20730	1.76528	1.37375	1.09175
4399.000	3.22109	1.70969	1.36387	1.10766
4400.000	3.23883	1.73546	1.38561	1.10567
4401.000	3.22109	1.74541	1.33424	1.08382
4402.000	3.23292	1.73745	1.36980	1.05995
4403.000	3.21715	1.76725	1.37573	1.02018
4404.000	3.22898	1.71762	1.33424	1.11165
4405.000	3.17182	1.65222	1.40339	1.14144
4406.000	3.19547	1.70378	1.39944	1.05397
4407.000	3.21518	1.74939	1.37375	1.00229
4408.000	3.15211	1.73362	1.38758	1.12356
4409.000	3.15408	1.73560	1.37573	1.07386
4410.000	3.19547	1.75141	1.40537	1.04999
4411.000	3.19744	1.76331	1.45476	1.02412
4412.000	3.22109	1.73747	1.36980	1.13351
4413.000	3.21321	1.71169	1.37968	1.07187
4414.000	3.19350	1.72561	1.43303	1.10366
4415.000	3.18365	1.74349	1.39154	1.12356
4416.000	3.17576	1.77327	1.41722	1.09571
4417.000	3.20730	1.76925	1.40142	1.05397
4418.000	3.15408	1.74156	1.38758	1.00824
4419.000	3.15605	1.70186	1.39944	1.07385
4420.000	3.23292	1.72952	1.44093	1.01021
4421.000	3.17774	1.74350	1.39351	1.08777
4422.000	3.18956	1.72562	1.41722	1.05197
4423.000	3.19941	1.70377	1.37771	1.02415
4424.000	3.22109	1.74740	1.44686	1.01418
4425.000	3.23489	1.76920	1.45476	1.05792
4426.000	3.23489	1.74539	1.41920	0.98835
4427.000	3.19350	1.73157	1.40537	0.98637
4428.000	3.20927	1.70971	1.38561	1.03608
4429.000	3.22109	1.79701	1.42908	0.94858
4430.000	3.19941	1.74148	1.43303	1.02612
4431.000	3.18759	1.74944	1.41722	1.03408
4432.000	3.18365	1.68991	1.41920	1.05595
4433.000	3.20927	1.79504	1.41129	1.00227
4434.000	3.19153	1.70379	1.41920	1.05396
4435.000	3.18562	1.70380	1.42315	1.07781
4436.000	3.18956	1.75737	1.45871	1.05394
4437.000	3.14817	1.69592	1.46859	1.08972
4438.000	3.15803	1.70186	1.39351	1.06988
4439.000	3.18562	1.64029	1.43105	1.04202
4440.000	3.11663	1.72773	1.40339	0.99432
4441.000	3.13634	1.69792	1.44291	1.03208
4442.000	3.17576	1.67801	1.42117	1.08378
4443.000	3.14817	1.74554	1.43303	1.05992
4444.000	3.16985	1.70382	1.40537	1.05993
4445.000	3.16591	1.67803	1.45476	1.05394
4446.000	3.19153	1.71371	1.45081	1.07780
4447.000	3.17576	1.67603	1.42908	1.07781
4448.000	3.17182	1.75343	1.47452	1.04598
4449.000	3.17182	1.68993	1.42117	1.04203
4450.000	3.15605	1.69194	1.44883	1.05593
4451.000	3.16591	1.75543	1.46266	1.04400
4452.000	3.14029	1.72570	1.40142	1.07584
4453.000	3.16394	1.70383	1.43896	1.04202
4454.000	3.14620	1.65226	1.45871	1.04599
4455.000	3.17379	1.72565	1.45476	1.05195
4456.000	3.14817	1.67806	1.44686	1.07383
4457.000	3.15803	1.70384	1.43896	1.07980
4458.000	3.17774	1.68595	1.43500	1.11161
4459.000	3.16985	1.71375	1.40537	1.07584
4460.000	3.17774	1.68793	1.42908	1.05992
4461.000	3.16394	1.68002	1.39944	1.07186
4462.000	3.16591	1.71772	1.46464	1.04201
4463.000	3.16394	1.70780	1.41525	1.09571
4464.000	3.11663	1.66818	1.47254	1.00025
4465.000	3.15211	1.67210	1.43303	1.03805
4466.000	3.11860	1.67413	1.42908	1.05197
4467.000	3.17576	1.69984	1.43698	1.01021
4468.000	3.16000	1.63040	1.44883	1.04599
4469.000	3.14029	1.65624	1.38956	1.02813
4470.000	3.19350	1.69783	1.37178	1.02615
4471.000	3.16788	1.68596	1.38561	1.04403
4472.000	3.14226	1.65425	1.40932	0.98239
4473.000	3.17379	1.64229	1.40537	1.02215
4474.000	3.14423	1.64432	1.41722	1.11162
4475.000	3.13634	1.70388	1.41722	1.02811
4476.000	3.16985	1.63833	1.39154	1.06391
4477.000	3.14620	1.64829	1.38758	0.96251
4478.000	3.15408	1.65225	1.43500	1.06190
4479.000	3.12058	1.70787	1.44291	1.04798
4480.000	3.16000	1.67010	1.44883	1.08576
4481.000	3.13634	1.62846	1.43698	1.03407
4482.000	3.16985	1.61253	1.42908	1.03805
4483.000	3.18168	1.66014	1.40339	1.06590
4484.000	3.16000	1.63437	1.41525	1.00227
4485.000	3.16000	1.65224	1.40142	1.09771
4486.000	3.14620	1.67012	1.41129	0.98438
4487.000	3.16985	1.68199	1.39351	1.04999
4488.000	3.18759	1.64028	1.44488	1.05792
4489.000	3.16985	1.63833	1.41525	1.09372
4490.000	3.17774	1.67007	1.42908	1.09968
4491.000	3.14620	1.67012	1.41722	1.11559
4492.000	3.17379	1.66015	1.44488	1.08973
4493.000	3.14620	1.69592	1.35202	1.07785
4494.000	3.16000	1.68598	1.40932	1.12752
4495.000	3.17576	1.64626	1.43500	1.10763
4496.000	3.12058	1.63642	1.42513	1.11161
4497.000	3.14423	1.66615	1.42315	1.09173
4498.000	3.18759	1.67601	1.37771	1.15338
4499.000	3.13043	1.69793	1.44686	1.15931
4500.000	3.16000	1.68399	1.38363	1.17525
4501.000	3.16000	1.64033	1.39746	1.16729
4502.000	3.12058	1.71184	1.35202	1.22099
4503.000	3.15014	1.72767	1.35992	1.17924
4504.000	3.16591	1.70383	1.41327	1.13547
4505.000	3.11466	1.69002	1.34807	1.16135
4506.000	3.18365	1.71372	1.44093	1.11956
4507.000	3.19547	1.69981	1.42908	1.09769
4508.000	3.11466	1.66223	1.38956	1.07584
4509.000	3.16000	1.68995	1.38363	1.14344
4510.000	3.13832	1.68800	1.38363	1.06193
4511.000	3.14029	1.66616	1.37771	1.10567
4512.000	3.13634	1.68800	1.42315	1.06589
4513.000	3.16394	1.66017	1.40339	1.11361
4514.000	3.15605	1.65820	1.35399	1.08978
4515.000	3.16000	1.66216	1.34609	1.14346
4516.000	3.14423	1.68203	1.35795	0.96451
4517.000	3.16000	1.65819	1.37968	1.05199
4518.000	3.12452	1.69993	1.36585	0.99831
4519.000	3.17576	1.62839	1.40932	1.00227
4520.000	3.18168	1.66609	1.41722	1.01420
4521.000	3.14620	1.68600	1.39351	1.01222
4522.000	3.15803	1.68995	1.39746	0.99631
4523.000	3.10875	1.67018	1.39746	1.04800
4524.000	3.15014	1.67805	1.35004	1.01820
4525.000	3.11663	1.69796	1.39154	1.02415
4526.000	3.12452	1.61855	1.37375	1.03012
4527.000	3.08706	1.63052	1.39549	0.99432
4528.000	3.14226	1.66616	1.42315	1.04203
4529.000	3.11269	1.68208	1.34609	1.02417
4530.000	3.11860	1.64635	1.37771	1.05795
4531.000	3.18759	1.62242	1.38956	0.97643
4532.000	3.14029	1.64631	1.42513	0.99630
4533.000	3.15408	1.67011	1.42513	0.99232
4534.000	3.14423	1.67608	1.38561	0.98439
4535.000	3.15803	1.65621	1.40734	0.99233
4536.000	3.16394	1.67208	1.41920	1.00028
4537.000	3.19350	1.67401	1.39549	1.03409
4538.000	3.19153	1.66409	1.40734	0.96052
4539.000	3.09889	1.64439	1.39154	0.99433
4540.000	3.12255	1.63245	1.39549	0.96251
4541.000	3.15408	1.63637	1.35202	1.05797
4542.000	3.11663	1.65032	1.39944	1.07584
4543.000	3.16197	1.67010	1.34016	1.02616
4544.000	3.13634	1.62449	1.39549	1.06988
4545.000	3.14423	1.63837	1.38363	1.03210
4546.000	3.18956	1.66608	1.38166	1.00427
4547.000	3.13634	1.66021	1.40142	1.08180
4548.000	3.14226	1.68601	1.41722	1.04601
4549.000	3.16788	1.67604	1.38561	1.10567
4550.000	3.15803	1.69392	1.43105	1.04401
4551.000	3.16000	1.66018	1.42117	1.09571
4552.000	3.18956	1.70379	1.39351	1.05795
4553.000	3.18956	1.68593	1.43105	1.07384
4554.000	3.14817	1.67409	1.44093	1.05991
4555.000	3.16985	1.72565	1.37968	1.07783
4556.000	3.10283	1.70790	1.43105	1.10962
4557.000	3.11860	1.70192	1.41525	1.04203
4558.000	3.17379	1.72168	1.39944	1.11162
4559.000	3.14817	1.68600	1.45871	1.05394
4560.000	3.17182	1.71176	1.40932	1.06788
4561.000	3.15803	1.68598	1.48835	1.10959
4562.000	3.14226	1.68799	1.41327	1.09174
4563.000	3.12058	1.63444	1.42315	1.07185
4564.000	3.18168	1.73159	1.43698	1.09371
4565.000	3.16591	1.67604	1.39154	1.09572
4566.000	3.14029	1.67609	1.42513	1.07384
4567.000	3.13832	1.73761	1.45081	1.03208
4568.000	3.14620	1.68401	1.46464	1.01020
4569.000	3.15408	1.66614	1.47057	1.02809
4570.000	3.14620	1.68401	1.45081	1.01418
4571.000	3.17774	1.69984	1.45279	1.09768
4572.000	3.17576	1.69786	1.40734	1.10764
4573.000	3.16197	1.70384	1.42315	1.11161
4574.000	3.11860	1.69795	1.44093	1.10763
4575.000	3.12846	1.67015	1.48835	1.01416
4576.000	3.18168	1.73754	1.39549	1.10964
4577.000	3.12452	1.68405	1.43303	1.09968
4578.000	3.15605	1.67209	1.49032	1.03404
4579.000	3.11072	1.68606	1.45081	1.08774
4580.000	3.17182	1.70382	1.45674	0.99629
4581.000	3.16985	1.60657	1.44291	1.06588
4582.000	3.12649	1.69397	1.42315	1.04402
4583.000	3.16591	1.73757	1.44291	1.05991
4584.000	3.14817	1.67210	1.45476	1.04997
4585.000	3.11269	1.69796	1.44883	1.08377
4586.000	3.14029	1.69593	1.45871	0.98237
4587.000	3.14423	1.68203	1.50810	0.99427
4588.000	3.14226	1.69196	1.45279	0.97243
4589.000	3.14226	1.67013	1.43500	1.06986
4590.000	3.16788	1.67406	1.43500	1.03805
4591.000	3.15408	1.68996	1.46662	1.04002
4592.000	3.16000	1.69987	1.38758	1.06789
4593.000	3.19350	1.70378	1.48637	1.01218
4594.000	3.18365	1.66411	1.45871	1.04002
4595.000	3.12452	1.71779	1.45081	1.04400
4596.000	3.11269	1.65628	1.46266	1.06984
4597.000	3.13832	1.71578	1.43105	1.07781
4598.000	3.15605	1.64033	1.50810	1.00024
4599.000	3.16591	1.68001	1.48242	1.00621
4600.000	3.11466	1.67811	1.49032	1.01019
4601.000	3.13043	1.72572	1.45476	1.01219
4602.000	3.13240	1.69793	1.47847	0.99826
4603.000	3.11663	1.67414	1.47254	1.03405
4604.000	3.13634	1.72769	1.46662	1.04598
4605.000	3.14029	1.66219	1.43698	1.01618
4606.000	3.12846	1.70984	1.43896	1.02612
4607.000	3.10481	1.65431	1.46266	1.03605
4608.000	3.16788	1.69390	1.42513	0.99829
4609.000	3.12255	1.63443	1.43698	1.06787
4610.000	3.04961	1.63653	1.44093	0.99033
4611.000	3.14423	1.72570	1.43896	1.01816
4612.000	3.12058	1.68406	1.41722	1.05595
4613.000	3.08509	1.69801	1.47452	0.99827
4614.000	3.17182	1.70382	1.47057	1.02809
4615.000	3.10283	1.69996	1.44093	1.02413
4616.000	3.08904	1.68411	1.45476	1.02014
4617.000	3.09298	1.70196	1.45871	1.01418
4618.000	3.08115	1.67618	1.44883	0.92670
4619.000	3.09298	1.69601	1.40537	1.00824
4620.000	3.09495	1.64043	1.42908	0.95653
4621.000	3.16000	1.73162	1.43698	1.01618
4622.000	3.07129	1.68016	1.43303	1.00027
4623.000	3.11860	1.69994	1.40537	0.99233
4624.000	3.10678	1.68209	1.43698	1.00822
4625.000	3.10678	1.70393	1.46859	0.99230
4626.000	3.09101	1.68013	1.43105	0.95852
4627.000	3.09692	1.71982	1.46069	1.05394
4628.000	3.07327	1.65634	1.43698	1.05196
4629.000	3.07721	1.69008	1.46859	1.00423
4630.000	3.08706	1.67418	1.44686	1.06588
4631.000	3.10481	1.72775	1.46662	1.05394
4632.000	3.10283	1.74958	1.43698	1.03208
4633.000	3.10875	1.71782	1.43105	0.97244
4634.000	3.07327	1.67024	1.39746	1.01222
4635.000	3.06341	1.67422	1.45871	0.99827
4636.000	3.09101	1.70197	1.40734	1.01619
4637.000	3.08115	1.68412	1.38956	0.99631
4638.000	3.04961	1.67424	1.44686	0.99231
4639.000	3.12452	1.69397	1.41722	0.98636
4640.000	3.07524	1.72184	1.40142	1.00426
4641.000	3.04172	1.67426	1.39944	0.94660
4642.000	3.05749	1.66629	1.43105	0.99828
4643.000	3.08312	1.69007	1.41327	0.97245
4644.000	3.04369	1.71594	1.43105	1.01618
4645.000	3.09298	1.69204	1.39351	0.93865
4646.000	3.08706	1.66228	1.35597	0.97843
4647.000	3.02201	1.68620	1.44488	0.99629
4648.000	3.05552	1.67225	1.41920	0.96051
4649.000	3.01609	1.69613	1.40537	0.97444
4650.000	3.06932	1.73574	1.42117	0.99232
4651.000	3.04369	1.73975	1.43698	0.93466
4652.000	3.05355	1.74966	1.42908	0.96647
4653.000	3.04567	1.70204	1.38363	0.97842
4654.000	3.00821	1.65644	1.43303	1.04202
4655.000	3.05355	1.71790	1.39351	0.97047
4656.000	3.04172	1.69807	1.42710	0.98039
4657.000	3.10086	1.73569	1.42513	0.97841
4658.000	3.02398	1.69810	1.44883	0.99430
4659.000	3.05947	1.63850	1.41327	0.96648
4660.000	3.04172	1.68418	1.36387	0.99633
4661.000	3.01807	1.70010	1.39944	0.97245
4662.000	3.10283	1.69401	1.43896	0.97641
4663.000	3.07918	1.67817	1.43105	0.95057
4664.000	3.06538	1.69804	1.43698	0.98238
4665.000	3.06341	1.65834	1.45081	0.96646
4666.000	3.02792	1.64450	1.47649	0.95055
4667.000	3.00426	1.69416	1.44488	0.89290
4668.000	3.02004	1.65047	1.44291	0.90682
4669.000	3.02989	1.68618	1.45476	0.88494
4670.000	3.04172	1.69609	1.41327	0.95455
4671.000	3.01215	1.73385	1.36783	0.92077
4672.000	3.05552	1.66034	1.43105	0.88694
4673.000	3.07129	1.67619	1.40339	0.92871
4674.000	3.02792	1.67031	1.43896	0.88296
4675.000	3.02004	1.66238	1.42908	0.89490
4676.000	2.98455	1.65251	1.43105	0.91478
4677.000	3.05749	1.68217	1.43303	0.86905
4678.000	3.07129	1.70597	1.46266	0.88892
4679.000	3.03975	1.67823	1.44686	0.90881
4680.000	3.04369	1.64646	1.39746	0.87304
4681.000	3.02398	1.68818	1.43896	0.88694
4682.000	3.08115	1.72977	1.48835	0.96048
4683.000	3.00426	1.68027	1.41920	0.89291
4684.000	2.99441	1.68624	1.42117	0.89092
4685.000	2.99244	1.63662	1.45279	0.93664
4686.000	3.06144	1.69209	1.43500	0.87302
4687.000	3.03384	1.63060	1.37771	0.88696
4688.000	2.99638	1.62271	1.42117	0.94659
4689.000	3.03581	1.67030	1.44686	0.88097
4690.000	3.02989	1.63457	1.39549	0.87900
4691.000	3.08706	1.66228	1.42315	0.82332
4692.000	3.00229	1.65447	1.43105	0.84916
4693.000	3.02595	1.64848	1.44686	0.89091
4694.000	3.01215	1.71599	1.46662	0.86704
4695.000	3.02398	1.68619	1.42315	0.85513
4696.000	3.02792	1.62068	1.38758	0.80742
4697.000	3.03187	1.68023	1.37771	0.83526
4698.000	3.04567	1.70601	1.44291	0.80144
4699.000	3.04369	1.68815	1.45279	0.87699
4700.000	3.02004	1.61871	1.40932	0.82332
4701.000	3.02792	1.66038	1.48637	0.84914
4702.000	3.03187	1.63060	1.41525	0.84917
4703.000	3.01609	1.65445	1.42117	0.80343
4704.000	3.03975	1.67624	1.42908	0.80542
4705.000	3.02201	1.69017	1.44488	0.83524
4706.000	2.97075	1.68429	1.44686	0.80541
4707.000	2.98258	1.60884	1.43500	0.85711
4708.000	3.01609	1.65445	1.45871	0.84716
4709.000	3.02201	1.65841	1.43698	0.79348
4710.000	2.99244	1.65051	1.46069	0.79745
4711.000	3.03384	1.65839	1.39746	0.83526
4712.000	3.01807	1.63856	1.39549	0.80941
4713.000	3.02201	1.63260	1.44686	0.74974
4714.000	3.00426	1.63064	1.44291	0.82331
4715.000	2.98061	1.66839	1.44883	0.80143
4716.000	3.01018	1.60284	1.45674	0.76564
4717.000	3.02989	1.64053	1.44883	0.80143
4718.000	3.03187	1.62266	1.45279	0.84518
4719.000	2.99638	1.63859	1.49230	0.76762
4720.000	3.00624	1.64454	1.50810	0.82328
4721.000	3.00821	1.59887	1.46464	0.74774
4722.000	2.98652	1.62273	1.40734	0.82929
4723.000	2.95497	1.61285	1.46464	0.75371
4724.000	2.98652	1.64258	1.47847	0.80938
4725.000	2.96286	1.64460	1.44883	0.79945
4726.000	2.98455	1.60685	1.44093	0.80939
4727.000	2.99244	1.66838	1.47452	0.75967
4728.000	2.93526	1.60692	1.42710	0.80144
4729.000	2.96680	1.60886	1.48045	0.78750
4730.000	2.94117	1.62081	1.50415	0.74176
4731.000	2.97075	1.63466	1.42513	0.79150
4732.000	2.98258	1.65251	1.46859	0.77558
4733.000	2.94906	1.57315	1.45871	0.78552
4734.000	2.94117	1.61287	1.47057	0.77558
4735.000	3.00426	1.65645	1.45476	0.78751
4736.000	2.99835	1.61477	1.41525	0.78156
4737.000	2.98455	1.60884	1.42908	0.80144
4738.000	2.96089	1.60887	1.46662	0.76365
4739.000	2.99638	1.65448	1.39154	0.73186
4740.000	2.96878	1.67437	1.44093	0.71593
4741.000	2.92934	1.57516	1.43896	0.75372
4742.000	2.97863	1.56318	1.47057	0.70797
4743.000	2.96286	1.62673	1.47452	0.75768
4744.000	2.92342	1.58510	1.42315	0.75372
4745.000	2.91357	1.58511	1.48440	0.71791
4746.000	2.96878	1.60687	1.45081	0.72190
4747.000	2.92737	1.58311	1.45476	0.76763
4748.000	2.96483	1.57909	1.49823	0.74773
4749.000	2.99244	1.57110	1.46662	0.76564
4750.000	2.93920	1.57912	1.44093	0.75968
4751.000	2.87807	1.54545	1.45081	0.77956
