time (ms)	lx (deg)	ly (deg)	rx (deg)	ry (deg)
0.000	0.70378	0.12135	0.12060	0.40385
1.000	0.65436	0.12334	0.11862	0.46353
2.000	0.64645	0.10145	0.11269	0.41379
3.000	0.70378	0.11538	0.12653	0.45557
4.000	0.66622	0.12533	0.08303	0.40584
5.000	0.69389	0.07957	0.08501	0.44562
6.000	0.68203	0.08554	0.07513	0.40385
7.000	0.68796	0.11737	0.08106	0.47546
8.000	0.67413	0.09946	0.09490	0.43170
9.000	0.68006	0.10941	0.09490	0.41777
10.000	0.67808	0.12731	0.11071	0.47148
11.000	0.65436	0.10742	0.09292	0.41181
12.000	0.66029	0.11339	0.10676	0.46154
13.000	0.67610	0.13129	0.09292	0.42573
14.000	0.65238	0.11737	0.08897	0.44364
15.000	0.64052	0.10543	0.10478	0.43369
16.000	0.67610	0.10145	0.11071	0.39390
17.000	0.68401	0.13925	0.10676	0.45358
18.000	0.67413	0.09350	0.12850	0.45955
19.000	0.67808	0.10145	0.10676	0.42374
20.000	0.67017	0.11140	0.11467	0.43966
21.000	0.64645	0.09151	0.10676	0.43369
22.000	0.65436	0.07957	0.11071	0.44761
23.000	0.63459	0.10941	0.09292	0.40982
24.000	0.66820	0.10742	0.10280	0.39191
25.000	0.66820	0.10742	0.08897	0.44761
26.000	0.68599	0.09350	0.11269	0.44761
27.000	0.68203	0.14323	0.08303	0.40783
28.000	0.67017	0.11936	0.09094	0.47944
29.000	0.67017	0.10742	0.10676	0.42772
30.000	0.68796	0.12135	0.12455	0.41181
31.000	0.68599	0.12334	0.09292	0.45358
32.000	0.65436	0.06366	0.10676	0.44960
33.000	0.66424	0.09748	0.08501	0.44562
34.000	0.68599	0.09946	0.10478	0.45358
35.000	0.63657	0.06963	0.11269	0.45955
36.000	0.66424	0.10344	0.09292	0.40783
37.000	0.65436	0.07559	0.09094	0.43767
38.000	0.68599	0.15119	0.12653	0.43170
39.000	0.66820	0.06963	0.15223	0.42971
40.000	0.66029	0.10941	0.12257	0.42175
41.000	0.68203	0.10145	0.11071	0.45557
42.000	0.65436	0.09748	0.11862	0.47148
43.000	0.64250	0.11538	0.12653	0.45557
44.000	0.64052	0.06963	0.07908	0.42971
45.000	0.65238	0.08355	0.06326	0.42374
46.000	0.66227	0.09350	0.06129	0.43767
47.000	0.66622	0.06764	0.11071	0.42573
48.000	0.65436	0.11339	0.09292	0.43170
49.000	0.64843	0.06366	0.11467	0.44363
50.000	0.65436	0.05371	0.09885	0.44960
51.000	0.65436	0.09748	0.07710	0.39589
52.000	0.64448	0.04774	0.10478	0.45557
53.000	0.67610	0.08952	0.11664	0.43170
54.000	0.65041	0.11339	0.09885	0.43170
55.000	0.66424	0.08952	0.09490	0.37401
56.000	0.63064	0.08355	0.12060	0.41578
57.000	0.64250	0.05570	0.11862	0.46552
58.000	0.65634	0.09549	0.10083	0.47149
59.000	0.65634	0.09350	0.10083	0.46950
60.000	0.65634	0.12135	0.09292	0.43767
61.000	0.66227	0.12334	0.10874	0.41976
62.000	0.68401	0.09748	0.08106	0.44562
63.000	0.64843	0.13328	0.08303	0.45557
64.000	0.63459	0.09350	0.11269	0.47546
65.000	0.63459	0.11936	0.10874	0.45358
66.000	0.65831	0.10941	0.07908	0.51326
67.000	0.65041	0.12533	0.12257	0.44363
68.000	0.65041	0.08156	0.08501	0.45358
69.000	0.62866	0.09350	0.07908	0.41777
70.000	0.65238	0.10941	0.10280	0.47546
71.000	0.64448	0.09549	0.12060	0.43568
72.000	0.62866	0.09549	0.08897	0.42971
73.000	0.68006	0.10145	0.08501	0.44562
74.000	0.65634	0.07758	0.09292	0.44960
75.000	0.64843	0.09350	0.10676	0.48143
76.000	0.66820	0.15715	0.07315	0.42772
77.000	0.67017	0.10145	0.10676	0.41379
78.000	0.64448	0.12533	0.09687	0.46154
79.000	0.66424	0.11737	0.14432	0.47745
80.000	0.65831	0.11339	0.07908	0.48342
81.000	0.66820	0.13726	0.13048	0.47347
82.000	0.65634	0.11737	0.09490	0.45159
83.000	0.64448	0.08952	0.14037	0.46552
84.000	0.64052	0.11737	0.12257	0.51923
85.000	0.66622	0.10344	0.14827	0.50132
86.000	0.66029	0.10742	0.10478	0.49934
87.000	0.67017	0.09946	0.09885	0.42971
88.000	0.66424	0.12930	0.13048	0.50530
89.000	0.62668	0.13328	0.10083	0.48342
90.000	0.65634	0.14323	0.11269	0.51923
91.000	0.65238	0.11140	0.11467	0.49138
92.000	0.66622	0.12135	0.11467	0.49933
93.000	0.64645	0.11737	0.09687	0.47149
94.000	0.62866	0.13527	0.12455	0.47347
95.000	0.66424	0.13527	0.09292	0.53315
96.000	0.64250	0.08554	0.11269	0.46950
97.000	0.64448	0.13527	0.13246	0.44165
98.000	0.67017	0.10344	0.10676	0.51525
99.000	0.63657	0.09350	0.10676	0.49536
100.000	0.63262	0.11339	0.10676	0.44761
101.000	0.67808	0.09549	0.07513	0.48143
102.000	0.63459	0.08355	0.12653	0.52321
103.000	0.63459	0.14920	0.09292	0.52917
104.000	0.62075	0.13527	0.09885	0.43568
105.000	0.65831	0.13726	0.11664	0.51127
106.000	0.65238	0.11140	0.11269	0.46950
107.000	0.70773	0.14920	0.10676	0.43369
108.000	0.68599	0.11538	0.12257	0.47546
109.000	0.67215	0.12533	0.10874	0.48342
110.000	0.65238	0.15119	0.10083	0.51326
111.000	0.62866	0.11737	0.09687	0.50729
112.000	0.69785	0.14721	0.10478	0.51127
113.000	0.68599	0.13328	0.11071	0.50331
114.000	0.62866	0.15318	0.10280	0.46950
115.000	0.63459	0.14721	0.13048	0.52122
116.000	0.64250	0.15914	0.09885	0.53713
117.000	0.62075	0.16511	0.11664	0.51326
118.000	0.63064	0.11339	0.10676	0.47745
119.000	0.65436	0.14124	0.06920	0.52122
120.000	0.61482	0.13328	0.09687	0.51525
121.000	0.60889	0.14721	0.13246	0.50530
122.000	0.66227	0.12732	0.11269	0.49735
123.000	0.63855	0.11936	0.07117	0.46154
124.000	0.64843	0.09947	0.10478	0.46751
125.000	0.68401	0.13328	0.11071	0.48740
126.000	0.64448	0.12135	0.15618	0.46949
127.000	0.66227	0.11339	0.08106	0.48939
128.000	0.65831	0.14124	0.09687	0.44960
129.000	0.67610	0.11936	0.11269	0.51127
130.000	0.63855	0.13328	0.13048	0.53514
131.000	0.65436	0.13328	0.09490	0.48740
132.000	0.62866	0.11339	0.08501	0.50729
133.000	0.64250	0.11737	0.11269	0.46950
134.000	0.65238	0.15715	0.12653	0.49735
135.000	0.63459	0.13726	0.08501	0.48740
136.000	0.63657	0.13129	0.09490	0.48541
137.000	0.62668	0.11936	0.11467	0.45358
138.000	0.64448	0.13925	0.13444	0.49138
139.000	0.64052	0.15318	0.10874	0.44960
140.000	0.62471	0.11538	0.08106	0.45557
141.000	0.66424	0.11737	0.07908	0.47546
142.000	0.67610	0.13328	0.10083	0.46552
143.000	0.61482	0.10941	0.09292	0.50530
144.000	0.60692	0.14124	0.11467	0.48541
145.000	0.63855	0.14323	0.10676	0.53315
146.000	0.60889	0.09748	0.09885	0.51326
147.000	0.63262	0.10543	0.11071	0.53315
148.000	0.64448	0.12533	0.07315	0.50729
149.000	0.64052	0.16113	0.12060	0.48740
150.000	0.58913	0.13527	0.10083	0.48342
151.000	0.65436	0.15517	0.10083	0.48541
152.000	0.62866	0.09748	0.09292	0.52122
153.000	0.63459	0.14721	0.09094	0.49138
154.000	0.64843	0.17307	0.07315	0.45159
155.000	0.58320	0.08355	0.05931	0.49138
156.000	0.61482	0.15716	0.09885	0.49536
157.000	0.64843	0.14721	0.08897	0.48342
158.000	0.63855	0.09549	0.10874	0.48939
159.000	0.63064	0.10146	0.06524	0.51326
160.000	0.62668	0.12732	0.07315	0.49138
161.000	0.64843	0.14920	0.13246	0.54310
162.000	0.65831	0.14522	0.10083	0.50928
163.000	0.66622	0.15715	0.12257	0.50729
164.000	0.65436	0.12533	0.10676	0.50132
165.000	0.62075	0.17108	0.11071	0.54509
166.000	0.63855	0.12931	0.08303	0.48143
167.000	0.64448	0.14920	0.09687	0.52917
168.000	0.64645	0.14124	0.12850	0.51724
169.000	0.66227	0.13925	0.10083	0.50729
170.000	0.62273	0.10146	0.10280	0.48342
171.000	0.64645	0.14522	0.10676	0.46751
172.000	0.64052	0.08554	0.12060	0.52718
173.000	0.63262	0.11339	0.07315	0.51127
174.000	0.67017	0.13925	0.10083	0.52321
175.000	0.65238	0.12135	0.09885	0.51525
176.000	0.62273	0.12732	0.09687	0.47546
177.000	0.65041	0.13129	0.11071	0.48342
178.000	0.68203	0.14522	0.10478	0.46950
179.000	0.62075	0.13527	0.12257	0.50729
180.000	0.65041	0.16113	0.12257	0.52718
181.000	0.66029	0.16710	0.12257	0.46950
182.000	0.64052	0.08554	0.10478	0.45955
183.000	0.64250	0.11140	0.13246	0.49933
184.000	0.66227	0.13726	0.09490	0.49337
185.000	0.67017	0.12930	0.11071	0.47347
186.000	0.64250	0.14920	0.09490	0.44165
187.000	0.65238	0.16312	0.13444	0.47347
188.000	0.66029	0.14920	0.13444	0.42374
189.000	0.63064	0.14323	0.11862	0.44363
190.000	0.66029	0.13328	0.11664	0.47944
191.000	0.68994	0.14323	0.09490	0.46154
192.000	0.63657	0.09748	0.13246	0.42772
193.000	0.65831	0.14323	0.13641	0.45159
194.000	0.67610	0.12930	0.13048	0.47148
195.000	0.64843	0.16113	0.14432	0.43170
196.000	0.65831	0.19694	0.14234	0.45159
197.000	0.66820	0.15119	0.14827	0.45955
198.000	0.66820	0.19097	0.12257	0.47944
199.000	0.64645	0.17506	0.15618	0.47546
200.000	0.64250	0.14124	0.13641	0.47347
201.000	0.60692	0.16312	0.17002	0.46154
202.000	0.62866	0.15318	0.13048	0.45557
203.000	0.60099	0.13726	0.13641	0.43369
204.000	0.62075	0.15119	0.13048	0.50729
205.000	0.62668	0.18302	0.15618	0.47745
206.000	0.62471	0.15318	0.13444	0.44960
207.000	0.61878	0.14522	0.18386	0.48740
208.000	0.64448	0.16113	0.17002	0.49138
209.000	0.63064	0.16113	0.17595	0.45756
210.000	0.56738	0.11737	0.17200	0.49933
211.000	0.57331	0.16909	0.18386	0.48342
212.000	0.60296	0.11339	0.19770	0.48740
213.000	0.60099	0.14721	0.19968	0.49535
214.000	0.57727	0.12334	0.17595	0.43170
215.000	0.65436	0.15318	0.22933	0.53713
216.000	0.62075	0.16710	0.17398	0.52122
217.000	0.56738	0.15915	0.18386	0.53315
218.000	0.61087	0.14522	0.15618	0.47745
219.000	0.60494	0.12533	0.16014	0.51127
220.000	0.58517	0.12135	0.16804	0.48143
221.000	0.59506	0.13925	0.16014	0.48541
222.000	0.57133	0.14721	0.21352	0.47347
223.000	0.60494	0.19296	0.18386	0.48143
224.000	0.57924	0.15716	0.16804	0.51724
225.000	0.57924	0.15119	0.20561	0.45557
226.000	0.57133	0.15716	0.17200	0.45358
227.000	0.56738	0.09549	0.19770	0.48740
228.000	0.52587	0.15119	0.21747	0.50530
229.000	0.57331	0.11538	0.21352	0.44164
230.000	0.56738	0.10941	0.20758	0.43766
231.000	0.55157	0.18103	0.21352	0.47148
232.000	0.52587	0.12533	0.19375	0.46353
233.000	0.59308	0.15716	0.20165	0.47944
234.000	0.59308	0.11936	0.18188	0.43965
235.000	0.58517	0.15915	0.20956	0.50132
236.000	0.60494	0.16710	0.19375	0.44164
237.000	0.56343	0.14522	0.15421	0.47148
238.000	0.59901	0.13527	0.19572	0.50331
239.000	0.58517	0.18302	0.19572	0.44960
240.000	0.58122	0.13329	0.17002	0.45358
241.000	0.58715	0.14522	0.17595	0.44363
242.000	0.56145	0.15119	0.18979	0.43965
243.000	0.53378	0.08753	0.20956	0.46750
244.000	0.56540	0.13527	0.19375	0.43568
245.000	0.58913	0.11936	0.15223	0.45358
246.000	0.57924	0.10345	0.17398	0.45955
247.000	0.56145	0.10146	0.17595	0.46552
248.000	0.57727	0.07957	0.18188	0.44363
249.000	0.55750	0.12135	0.18584	0.53912
250.000	0.51598	0.08952	0.19968	0.46353
251.000	0.56738	0.12732	0.19770	0.48541
252.000	0.56738	0.09748	0.18386	0.46552
253.000	0.56343	0.15119	0.15816	0.47347
254.000	0.57529	0.13329	0.17793	0.44164
255.000	0.55947	0.11140	0.16804	0.49536
256.000	0.54959	0.14920	0.18386	0.48939
257.000	0.57331	0.12931	0.18584	0.47944
258.000	0.57133	0.14323	0.15618	0.48740
259.000	0.57331	0.18501	0.13641	0.45756
260.000	0.62471	0.12135	0.15223	0.43568
261.000	0.60099	0.14721	0.15421	0.50928
262.000	0.58715	0.17307	0.12060	0.51724
263.000	0.54959	0.18103	0.15025	0.51326
264.000	0.56343	0.12533	0.11664	0.41379
265.000	0.54761	0.16512	0.14234	0.46950
266.000	0.56343	0.18302	0.13641	0.50729
267.000	0.56343	0.18302	0.14234	0.48143
268.000	0.53971	0.23673	0.12653	0.49536
269.000	0.53971	0.20490	0.14827	0.48740
270.000	0.54366	0.20689	0.12060	0.46751
271.000	0.55552	0.20888	0.12257	0.50331
272.000	0.54168	0.14721	0.16804	0.45557
273.000	0.54168	0.20490	0.15618	0.48740
274.000	0.55947	0.15119	0.13444	0.50729
275.000	0.54564	0.16909	0.14037	0.43966
276.000	0.55354	0.12732	0.14234	0.48143
277.000	0.52389	0.14920	0.14432	0.45955
278.000	0.52191	0.16711	0.15223	0.43767
279.000	0.53971	0.15318	0.10478	0.40584
280.000	0.51598	0.18302	0.11664	0.41181
281.000	0.53378	0.14522	0.15025	0.48342
282.000	0.50215	0.20888	0.13641	0.41181
283.000	0.49819	0.13130	0.14037	0.45159
284.000	0.50610	0.19098	0.12850	0.45159
285.000	0.46854	0.17705	0.12455	0.49337
286.000	0.51203	0.19297	0.12455	0.41578
287.000	0.50412	0.19894	0.12257	0.46552
288.000	0.51005	0.16313	0.13641	0.44960
289.000	0.51796	0.17904	0.14630	0.46353
290.000	0.52982	0.19098	0.12850	0.45955
291.000	0.49622	0.17307	0.13444	0.42374
292.000	0.51598	0.15517	0.12653	0.45756
293.000	0.49622	0.17108	0.15223	0.47745
294.000	0.53773	0.21087	0.14234	0.44761
295.000	0.51994	0.15915	0.12850	0.40186
296.000	0.52191	0.17506	0.14432	0.44562
297.000	0.51598	0.12931	0.15816	0.44761
298.000	0.48040	0.16711	0.12257	0.45756
299.000	0.49028	0.19894	0.14630	0.44363
300.000	0.54168	0.16909	0.15816	0.44562
301.000	0.51598	0.10544	0.18386	0.48939
302.000	0.50412	0.13925	0.13246	0.41578
303.000	0.49028	0.19297	0.18188	0.43965
304.000	0.49226	0.17506	0.12653	0.45756
305.000	0.49819	0.21485	0.17200	0.45756
306.000	0.53575	0.20291	0.15618	0.46552
307.000	0.48633	0.15915	0.14037	0.44960
308.000	0.50017	0.21087	0.16804	0.49138
309.000	0.47447	0.14323	0.11269	0.42971
310.000	0.47447	0.20689	0.14630	0.42971
311.000	0.47052	0.16114	0.16211	0.48342
312.000	0.50412	0.16114	0.16014	0.43966
313.000	0.48633	0.16512	0.18584	0.46154
314.000	0.47249	0.20093	0.13444	0.46751
315.000	0.47052	0.15915	0.14234	0.41181
316.000	0.49226	0.15915	0.14630	0.41180
317.000	0.50215	0.16910	0.15025	0.43966
318.000	0.47842	0.20490	0.13641	0.40385
319.000	0.47249	0.19695	0.13444	0.42175
320.000	0.47249	0.18899	0.14037	0.43369
321.000	0.48435	0.19098	0.15421	0.47546
322.000	0.50215	0.21883	0.12850	0.45557
323.000	0.47249	0.23872	0.13444	0.46154
324.000	0.44482	0.20292	0.13839	0.40385
325.000	0.44877	0.16512	0.15421	0.42175
326.000	0.47842	0.18302	0.15618	0.42971
327.000	0.45075	0.17506	0.16409	0.42175
328.000	0.48040	0.21286	0.13641	0.41976
329.000	0.50610	0.20490	0.14827	0.41379
330.000	0.45668	0.18700	0.11467	0.37401
331.000	0.44679	0.18501	0.14432	0.39191
332.000	0.43296	0.15517	0.16804	0.41578
333.000	0.49819	0.18302	0.14630	0.47347
334.000	0.48238	0.20093	0.16607	0.47148
335.000	0.47645	0.20689	0.16014	0.44363
336.000	0.46656	0.18899	0.16607	0.47745
337.000	0.44482	0.16910	0.18781	0.46949
338.000	0.44679	0.20888	0.15025	0.45557
339.000	0.46656	0.23276	0.20363	0.41379
340.000	0.48633	0.17307	0.18979	0.45159
341.000	0.47249	0.19098	0.17595	0.38992
342.000	0.51401	0.21883	0.17398	0.41976
343.000	0.48633	0.24469	0.19968	0.41578
344.000	0.50017	0.23275	0.20165	0.42573
345.000	0.49819	0.21087	0.22735	0.40584
346.000	0.50017	0.19894	0.19177	0.40981
347.000	0.49226	0.18103	0.21549	0.41180
348.000	0.52982	0.25861	0.22340	0.42971
349.000	0.51401	0.21883	0.21549	0.41180
350.000	0.52191	0.20689	0.18979	0.41976
351.000	0.50215	0.21286	0.20956	0.40186
352.000	0.51598	0.20291	0.21352	0.38793
353.000	0.51598	0.20490	0.22735	0.43766
354.000	0.50610	0.21684	0.21154	0.40981
355.000	0.50808	0.20689	0.20363	0.42772
356.000	0.50808	0.22878	0.22933	0.39788
357.000	0.47645	0.21485	0.16607	0.37003
358.000	0.44482	0.24071	0.15223	0.41379
359.000	0.43493	0.23276	0.13246	0.42374
360.000	0.38551	0.24071	0.09885	0.37600
361.000	0.30446	0.26857	0.05338	0.40982
362.000	0.26689	0.32228	0.00000	0.41777
363.000	0.18781	0.29045	-0.05140	0.40186
364.000	0.10083	0.26459	-0.09292	0.39788
365.000	0.06524	0.31831	-0.14037	0.45557
366.000	0.00593	0.27852	-0.17793	0.40783
367.000	-0.03361	0.29642	-0.24515	0.41578
368.000	-0.03756	0.28449	-0.25503	0.50928
369.000	-0.07117	0.31632	-0.24515	0.45358
370.000	-0.04349	0.30438	-0.24317	0.51127
371.000	-0.01779	0.26857	-0.22735	0.47546
372.000	0.02966	0.32825	-0.23329	0.43766
373.000	0.04745	0.28051	-0.17002	0.48342
374.000	0.06326	0.27653	-0.11071	0.48939
375.000	0.14432	0.28051	-0.10280	0.46353
376.000	0.14234	0.27056	-0.08106	0.45358
377.000	0.22340	0.29045	-0.06920	0.48143
378.000	0.20758	0.28846	-0.05733	0.41181
379.000	0.28271	0.23276	-0.02768	0.41976
380.000	0.25899	0.24072	-0.03163	0.47546
381.000	0.28666	0.23276	-0.03163	0.41578
382.000	0.27876	0.29841	-0.01977	0.45358
383.000	0.28864	0.26658	-0.00395	0.38793
384.000	0.26887	0.25464	-0.01186	0.43966
385.000	0.23922	0.27852	-0.04745	0.39589
386.000	0.27678	0.30836	-0.01977	0.36207
387.000	0.21154	0.23674	-0.01582	0.39987
388.000	0.25899	0.29045	-0.02372	0.39987
389.000	0.19770	0.31433	-0.00395	0.42374
390.000	0.21945	0.26260	-0.04349	0.42772
391.000	0.25503	0.27454	-0.02175	0.43568
392.000	0.17991	0.27454	0.00000	0.42374
393.000	0.18781	0.25663	-0.03361	0.43369
394.000	0.21747	0.32029	-0.00395	0.45557
395.000	0.21352	0.28449	-0.05140	0.45557
396.000	0.19572	0.25862	-0.05536	0.44364
397.000	0.18386	0.26061	-0.04943	0.45358
398.000	0.16409	0.28846	-0.02175	0.45955
399.000	0.16607	0.27255	-0.03954	0.48143
400.000	0.18584	0.27056	-0.05140	0.43568
401.000	0.18188	0.30040	-0.05140	0.45159
402.000	0.17398	0.29045	-0.06524	0.43369
403.000	0.15025	0.30040	-0.06524	0.45358
404.000	0.18188	0.29244	-0.05733	0.43369
405.000	0.18386	0.31632	-0.03559	0.42175
406.000	0.15618	0.29045	-0.06524	0.44761
407.000	0.19177	0.29443	-0.02966	0.44960
408.000	0.21154	0.30637	-0.04349	0.42175
409.000	0.15816	0.29841	-0.05733	0.44562
410.000	0.18386	0.33422	-0.03559	0.45358
411.000	0.15618	0.32029	-0.05140	0.43966
412.000	0.18781	0.33223	-0.04745	0.42175
413.000	0.19375	0.34616	-0.05536	0.42573
414.000	0.17595	0.30239	-0.05338	0.44165
415.000	0.15816	0.28051	-0.06129	0.41181
416.000	0.17002	0.25266	-0.07315	0.43369
417.000	0.18584	0.30239	-0.01977	0.46154
418.000	0.18584	0.33223	-0.04349	0.46751
419.000	0.18584	0.33621	-0.05931	0.43369
420.000	0.22538	0.33820	-0.06722	0.40385
421.000	0.19177	0.29841	-0.03954	0.44165
422.000	0.17793	0.29045	-0.05338	0.41181
423.000	0.17991	0.27255	-0.02570	0.41777
424.000	0.20363	0.27255	-0.06722	0.44960
425.000	0.18386	0.23873	-0.05536	0.42772
426.000	0.19572	0.28250	-0.06524	0.43966
427.000	0.22735	0.32825	-0.07710	0.42573
428.000	0.21154	0.31830	-0.04152	0.40783
429.000	0.18188	0.30836	-0.06722	0.41181
430.000	0.19770	0.32029	-0.06524	0.43170
431.000	0.19968	0.32825	-0.06326	0.43170
432.000	0.19770	0.28846	-0.05931	0.41578
433.000	0.19968	0.29244	-0.07513	0.47944
434.000	0.20363	0.29443	-0.04152	0.39589
435.000	0.25305	0.32626	-0.04943	0.41181
436.000	0.23329	0.31234	-0.03361	0.36406
437.000	0.21945	0.29443	-0.04547	0.40783
438.000	0.19177	0.30040	-0.07710	0.38992
439.000	0.18584	0.32228	-0.05338	0.38992
440.000	0.17595	0.27056	-0.05338	0.45955
441.000	0.15421	0.28051	-0.03954	0.41578
442.000	0.19770	0.32029	-0.05140	0.34019
443.000	0.19968	0.31632	-0.04152	0.40783
444.000	0.21945	0.33024	-0.05140	0.39987
445.000	0.23131	0.30637	-0.04745	0.37998
446.000	0.22933	0.35610	-0.04152	0.41777
447.000	0.19177	0.34417	-0.01779	0.41380
448.000	0.24515	0.34417	-0.04547	0.38197
449.000	0.23131	0.34417	-0.02372	0.41578
450.000	0.22735	0.32029	-0.04152	0.37600
451.000	0.22735	0.33223	-0.03756	0.37202
452.000	0.24317	0.31433	-0.07710	0.39987
453.000	0.19770	0.38395	-0.04349	0.39589
454.000	0.18979	0.30040	-0.07908	0.35411
455.000	0.23329	0.34417	-0.04943	0.36605
456.000	0.21154	0.32029	-0.08699	0.35809
457.000	0.25108	0.35809	-0.07315	0.36008
458.000	0.19572	0.26857	-0.08501	0.39390
459.000	0.24515	0.31234	-0.08699	0.37003
460.000	0.19770	0.29642	-0.07513	0.35809
461.000	0.19572	0.35212	-0.03954	0.40385
462.000	0.20956	0.34616	-0.04349	0.34616
463.000	0.22142	0.32228	-0.03954	0.32626
464.000	0.19177	0.31433	-0.07117	0.38793
465.000	0.21549	0.33621	-0.09094	0.35809
466.000	0.21549	0.35013	-0.07908	0.36804
467.000	0.21154	0.33024	-0.06129	0.37998
468.000	0.23329	0.33223	-0.09687	0.36406
469.000	0.23131	0.32228	-0.06920	0.38793
470.000	0.21747	0.28846	-0.07513	0.36008
471.000	0.22538	0.32029	-0.06920	0.34218
472.000	0.22538	0.32228	-0.03954	0.33223
473.000	0.20956	0.32825	-0.06129	0.34815
474.000	0.21549	0.34019	-0.05536	0.34815
475.000	0.22538	0.35212	-0.07513	0.35213
476.000	0.22933	0.33422	-0.08303	0.32825
477.000	0.17398	0.35013	-0.05140	0.33621
478.000	0.21549	0.35212	-0.07117	0.35014
479.000	0.20758	0.30239	-0.03361	0.36207
480.000	0.19177	0.30836	-0.02570	0.37003
481.000	0.19968	0.34019	-0.03756	0.37799
482.000	0.19968	0.31433	-0.09885	0.35014
483.000	0.17002	0.32626	-0.02966	0.36406
484.000	0.21747	0.29841	-0.07117	0.34019
485.000	0.21747	0.32626	-0.07315	0.35809
486.000	0.23131	0.29045	-0.05140	0.38594
487.000	0.16211	0.32427	-0.06722	0.38197
488.000	0.21154	0.29244	-0.02768	0.40783
489.000	0.21945	0.33024	-0.05338	0.40186
490.000	0.16409	0.31831	-0.04943	0.35610
491.000	0.20758	0.32825	-0.08106	0.35014
492.000	0.17991	0.30040	-0.04349	0.40584
493.000	0.17793	0.29244	-0.06920	0.36207
494.000	0.21747	0.32427	-0.05931	0.38992
495.000	0.19968	0.31830	-0.04349	0.38594
496.000	0.17002	0.32427	-0.06524	0.36605
497.000	0.17991	0.32029	-0.06524	0.35610
498.000	0.23922	0.35013	-0.03954	0.33820
499.000	0.22538	0.27653	-0.09292	0.36406
500.000	0.21549	0.32228	-0.05733	0.34616
501.000	0.20758	0.32029	-0.04152	0.34019
502.000	0.22735	0.30836	-0.06129	0.38793
503.000	0.21549	0.28647	-0.05140	0.33422
504.000	0.20165	0.29244	-0.02570	0.34417
505.000	0.15816	0.30040	-0.07117	0.35213
506.000	0.21549	0.31433	-0.04547	0.34019
507.000	0.22933	0.34814	-0.08699	0.37401
508.000	0.19770	0.32626	-0.03163	0.32626
509.000	0.19375	0.34218	-0.05536	0.35610
510.000	0.20758	0.32228	-0.02570	0.32626
511.000	0.22933	0.34218	-0.04943	0.34616
512.000	0.18188	0.27454	-0.08699	0.34616
513.000	0.17200	0.33621	-0.07117	0.35014
514.000	0.15816	0.27653	-0.08897	0.36207
515.000	0.19770	0.35610	-0.05338	0.36008
516.000	0.17991	0.35411	-0.05931	0.35213
517.000	0.19375	0.32626	-0.05338	0.38594
518.000	0.17398	0.34616	-0.07710	0.37600
519.000	0.17200	0.31234	-0.01779	0.37799
520.000	0.17398	0.36008	-0.04547	0.32626
521.000	0.18584	0.33621	-0.06524	0.31035
522.000	0.18781	0.33621	-0.07117	0.32427
523.000	0.19177	0.33820	-0.06326	0.34417
524.000	0.19770	0.37401	-0.06129	0.33422
525.000	0.19770	0.32029	-0.04943	0.29443
526.000	0.20956	0.34814	-0.09885	0.32228
527.000	0.19770	0.31433	-0.07710	0.29841
528.000	0.18188	0.33422	-0.06920	0.33024
529.000	0.17200	0.29642	-0.04547	0.34019
530.000	0.21154	0.35013	-0.05536	0.35610
531.000	0.18584	0.35610	-0.08106	0.32825
532.000	0.17002	0.32427	-0.07315	0.30836
533.000	0.23724	0.32228	-0.08303	0.29244
534.000	0.20363	0.33422	-0.05536	0.32427
535.000	0.20561	0.33422	-0.06524	0.29642
536.000	0.17595	0.30040	-0.04349	0.32030
537.000	0.20758	0.36804	-0.06326	0.29046
538.000	0.24119	0.34814	-0.09687	0.31831
539.000	0.23526	0.32228	-0.05338	0.32030
540.000	0.21352	0.38594	-0.05733	0.30040
541.000	0.19177	0.32427	-0.06722	0.29046
542.000	0.20561	0.34019	-0.07117	0.30637
543.000	0.19968	0.37997	-0.06129	0.33621
544.000	0.21154	0.33422	-0.03361	0.32825
545.000	0.18386	0.29841	-0.05733	0.30040
546.000	0.21945	0.31234	-0.06326	0.33621
547.000	0.20956	0.29045	-0.03559	0.29642
548.000	0.20363	0.31234	-0.06524	0.28648
549.000	0.24317	0.29045	-0.03559	0.25862
550.000	0.20758	0.32626	-0.05536	0.32626
551.000	0.21154	0.28647	-0.08303	0.31234
552.000	0.20561	0.35610	-0.04547	0.27653
553.000	0.22142	0.33422	-0.06129	0.33223
554.000	0.23329	0.32825	-0.05733	0.30438
555.000	0.19572	0.33223	-0.01977	0.28250
556.000	0.20758	0.33621	-0.05931	0.29244
557.000	0.19177	0.30836	-0.06326	0.31234
558.000	0.18979	0.33422	-0.06326	0.31234
559.000	0.21747	0.31631	-0.05733	0.30239
560.000	0.19572	0.30040	-0.06129	0.29443
561.000	0.17793	0.32029	-0.05338	0.29642
562.000	0.18386	0.32427	-0.06524	0.31035
563.000	0.20561	0.30040	-0.04745	0.31831
564.000	0.21549	0.34814	-0.08501	0.32825
565.000	0.21154	0.34417	-0.05733	0.28648
566.000	0.21154	0.30637	-0.03559	0.29642
567.000	0.20561	0.31632	-0.04943	0.32229
568.000	0.19770	0.34019	-0.08303	0.32030
569.000	0.22933	0.35212	-0.06722	0.31433
570.000	0.18781	0.29841	-0.08303	0.30836
571.000	0.24515	0.32228	-0.06722	0.30637
572.000	0.20363	0.32427	-0.07513	0.33223
573.000	0.18188	0.33621	-0.04547	0.31831
574.000	0.19375	0.29642	-0.05931	0.31632
575.000	0.21549	0.30040	-0.05536	0.28250
576.000	0.19375	0.30637	-0.03559	0.31632
577.000	0.18584	0.31035	-0.02768	0.32427
578.000	0.17595	0.33223	-0.02372	0.33422
579.000	0.20561	0.31830	-0.02570	0.33422
580.000	0.23131	0.35411	-0.03163	0.34616
581.000	0.19968	0.39589	-0.01582	0.32825
582.000	0.21945	0.38395	-0.02372	0.33223
583.000	0.22735	0.34218	-0.02966	0.34815
584.000	0.20561	0.36406	-0.02570	0.32626
585.000	0.18979	0.34019	-0.04547	0.30836
586.000	0.22538	0.35013	-0.01779	0.35610
587.000	0.19177	0.35411	-0.05536	0.36207
588.000	0.16409	0.37799	-0.04943	0.35610
589.000	0.21945	0.38594	-0.03559	0.34019
590.000	0.24515	0.35212	-0.04152	0.31035
591.000	0.21154	0.33820	-0.05536	0.33621
592.000	0.19770	0.29244	-0.04547	0.35809
593.000	0.17398	0.31234	-0.04745	0.34218
594.000	0.21747	0.36406	-0.04943	0.34218
595.000	0.25899	0.35013	-0.03954	0.37799
596.000	0.19375	0.35411	-0.00395	0.33024
597.000	0.20363	0.39589	-0.04547	0.39191
598.000	0.19968	0.36207	-0.02966	0.39390
599.000	0.18386	0.39987	-0.02966	0.33820
600.000	0.20561	0.34019	-0.04943	0.38197
601.000	0.20758	0.40981	-0.08106	0.35411
602.000	0.21352	0.34417	-0.07315	0.38992
603.000	0.18781	0.36008	-0.08106	0.34417
604.000	0.20363	0.40981	-0.08303	0.39788
605.000	0.22538	0.38594	-0.07315	0.34218
606.000	0.20758	0.35610	-0.04349	0.36605
607.000	0.20956	0.36605	-0.05536	0.33024
608.000	0.22142	0.38992	-0.04349	0.34019
609.000	0.22735	0.39987	-0.03756	0.34417
610.000	0.18584	0.35411	-0.05733	0.32427
611.000	0.21154	0.39191	-0.06524	0.36207
612.000	0.20758	0.44363	-0.08897	0.34815
613.000	0.23131	0.45159	-0.04943	0.35213
614.000	0.20561	0.42772	-0.05931	0.40584
615.000	0.19770	0.43170	-0.05536	0.34616
616.000	0.21154	0.44562	-0.06722	0.33422
617.000	0.23922	0.40385	-0.07513	0.36605
618.000	0.23131	0.41777	-0.06920	0.32825
619.000	0.19375	0.41180	-0.09885	0.33024
620.000	0.19572	0.36605	-0.05338	0.36605
621.000	0.19375	0.40981	-0.04745	0.33024
622.000	0.21154	0.37798	-0.05338	0.30438
623.000	0.23526	0.40385	-0.05338	0.35014
624.000	0.21352	0.38196	-0.08106	0.34218
625.000	0.22735	0.40186	-0.08106	0.30637
626.000	0.21154	0.38992	-0.08501	0.37202
627.000	0.21352	0.39987	-0.08699	0.31632
628.000	0.21549	0.40584	-0.05140	0.29046
629.000	0.21549	0.40385	-0.06920	0.32030
630.000	0.20758	0.38594	-0.05338	0.30040
631.000	0.20165	0.41180	-0.06524	0.29841
632.000	0.21747	0.40782	-0.04943	0.29443
633.000	0.21154	0.41578	-0.06524	0.32626
634.000	0.20758	0.37600	-0.06129	0.33024
635.000	0.21945	0.40186	-0.04943	0.31831
636.000	0.16607	0.40186	-0.05931	0.31632
637.000	0.22538	0.42573	-0.04152	0.31831
638.000	0.18781	0.43568	-0.04547	0.25862
639.000	0.21352	0.39191	-0.07710	0.31234
640.000	0.21945	0.41180	-0.08501	0.34616
641.000	0.21352	0.44562	-0.07315	0.32229
642.000	0.21945	0.39191	-0.07315	0.32030
643.000	0.16804	0.39191	-0.06722	0.30040
644.000	0.19968	0.39390	-0.06722	0.31035
645.000	0.22538	0.39788	-0.09094	0.31035
646.000	0.21747	0.39390	-0.09490	0.29244
647.000	0.21945	0.43568	-0.10676	0.29841
648.000	0.21549	0.40981	-0.07908	0.29642
649.000	0.21945	0.40782	-0.05338	0.30637
650.000	0.21154	0.40385	-0.09687	0.31632
651.000	0.20758	0.44761	-0.05931	0.30836
652.000	0.23329	0.42772	-0.05931	0.32427
653.000	0.24119	0.38793	-0.08897	0.27852
654.000	0.22538	0.42374	-0.08106	0.30040
655.000	0.23526	0.39390	-0.06722	0.26459
656.000	0.25503	0.47347	-0.09687	0.29443
657.000	0.23724	0.37599	-0.08699	0.26857
658.000	0.26887	0.41379	-0.07117	0.28250
659.000	0.24910	0.41777	-0.07908	0.26658
660.000	0.24515	0.42573	-0.06920	0.28847
661.000	0.22735	0.41379	-0.04152	0.30438
662.000	0.22933	0.40782	-0.11269	0.25465
663.000	0.22340	0.40385	-0.08106	0.31433
664.000	0.25503	0.38992	-0.14234	0.31433
665.000	0.25305	0.36804	-0.08897	0.26459
666.000	0.23131	0.39191	-0.08897	0.28449
667.000	0.22933	0.36605	-0.10083	0.28449
668.000	0.23922	0.40583	-0.10083	0.26459
669.000	0.26096	0.38793	-0.08699	0.28449
670.000	0.24712	0.38793	-0.10280	0.26857
671.000	0.24515	0.35411	-0.07908	0.24669
672.000	0.24910	0.32427	-0.10083	0.28449
673.000	0.23724	0.34218	-0.11071	0.30836
674.000	0.24317	0.38793	-0.08699	0.24868
675.000	0.24910	0.30836	-0.10874	0.25862
676.000	0.23526	0.37401	-0.13048	0.24868
677.000	0.26492	0.34218	-0.10083	0.23475
678.000	0.25701	0.34019	-0.11862	0.27255
679.000	0.26096	0.37599	-0.09687	0.28051
680.000	0.23922	0.35212	-0.11269	0.27852
681.000	0.28271	0.37599	-0.14630	0.25663
682.000	0.23329	0.34218	-0.08699	0.26658
683.000	0.24712	0.33621	-0.11664	0.25862
684.000	0.28469	0.37400	-0.14037	0.23674
685.000	0.22142	0.39788	-0.12257	0.23077
686.000	0.25305	0.36207	-0.11071	0.23276
687.000	0.27876	0.33223	-0.10676	0.26061
688.000	0.27678	0.36207	-0.10280	0.27454
689.000	0.27085	0.34019	-0.09687	0.22679
690.000	0.26294	0.36605	-0.13839	0.21884
691.000	0.22933	0.33223	-0.14630	0.21884
692.000	0.28864	0.37003	-0.11269	0.23475
693.000	0.27678	0.37599	-0.11269	0.25664
694.000	0.28666	0.38992	-0.14630	0.22878
695.000	0.24910	0.35212	-0.16211	0.17905
696.000	0.23131	0.37202	-0.17002	0.23873
697.000	0.24515	0.38395	-0.13048	0.26459
698.000	0.22933	0.35013	-0.13641	0.22679
699.000	0.25899	0.37003	-0.15618	0.21685
700.000	0.29259	0.36207	-0.13641	0.23276
701.000	0.28666	0.39390	-0.14234	0.21884
702.000	0.24515	0.37599	-0.13839	0.24868
703.000	0.23724	0.40186	-0.16804	0.20889
704.000	0.26096	0.37798	-0.13444	0.23077
705.000	0.28666	0.40583	-0.12455	0.21884
706.000	0.30446	0.38992	-0.14827	0.25663
707.000	0.28271	0.40185	-0.14827	0.20491
708.000	0.25503	0.40186	-0.16014	0.26459
709.000	0.22538	0.41976	-0.15025	0.22679
710.000	0.29852	0.40981	-0.14234	0.26459
711.000	0.26887	0.42971	-0.13641	0.22282
712.000	0.28469	0.40185	-0.16409	0.25862
713.000	0.26096	0.41777	-0.14827	0.24669
714.000	0.25305	0.40782	-0.14037	0.24271
715.000	0.21747	0.39589	-0.17200	0.21884
716.000	0.25899	0.43567	-0.14432	0.21088
717.000	0.24712	0.39788	-0.16211	0.22480
718.000	0.30248	0.44363	-0.17991	0.19496
719.000	0.24712	0.34019	-0.14234	0.19297
720.000	0.26492	0.39390	-0.16014	0.22083
721.000	0.31039	0.40782	-0.15421	0.22480
722.000	0.25305	0.40782	-0.13246	0.20491
723.000	0.29062	0.38594	-0.14432	0.24470
724.000	0.26294	0.35212	-0.13641	0.24669
725.000	0.25305	0.33621	-0.15421	0.24271
726.000	0.24515	0.37202	-0.13246	0.25862
727.000	0.28864	0.36008	-0.12653	0.25266
728.000	0.27678	0.33024	-0.13641	0.28449
729.000	0.26492	0.33422	-0.14234	0.24271
730.000	0.27876	0.36008	-0.13839	0.27255
731.000	0.25899	0.34615	-0.11862	0.21088
732.000	0.28864	0.34019	-0.13444	0.23873
733.000	0.26689	0.33621	-0.13246	0.26260
734.000	0.26294	0.35610	-0.12060	0.23674
735.000	0.30050	0.33024	-0.13048	0.23276
736.000	0.34597	0.40583	-0.16211	0.23674
737.000	0.28073	0.35610	-0.14234	0.23674
738.000	0.26689	0.34019	-0.14037	0.25663
739.000	0.26887	0.37202	-0.14630	0.19695
740.000	0.29655	0.35809	-0.14432	0.25862
741.000	0.27678	0.36406	-0.12257	0.25067
742.000	0.30841	0.38793	-0.14432	0.21884
743.000	0.30643	0.35212	-0.14234	0.23276
744.000	0.27876	0.32626	-0.13839	0.25067
745.000	0.30643	0.37997	-0.15816	0.25862
746.000	0.27480	0.36804	-0.14037	0.24868
747.000	0.30248	0.39986	-0.10874	0.21486
748.000	0.28666	0.38793	-0.14432	0.24271
749.000	0.28666	0.34615	-0.15025	0.22282
750.000	0.28864	0.34814	-0.16211	0.19297
751.000	0.31434	0.37997	-0.14037	0.24470
752.000	0.31039	0.35610	-0.14234	0.26260
753.000	0.26492	0.36406	-0.13839	0.23276
754.000	0.27876	0.37003	-0.13641	0.22878
755.000	0.28864	0.32228	-0.17002	0.28051
756.000	0.25108	0.35610	-0.11269	0.23276
757.000	0.25899	0.29642	-0.14234	0.22282
758.000	0.27876	0.34416	-0.15618	0.22480
759.000	0.27085	0.35212	-0.16014	0.19894
760.000	0.32818	0.32427	-0.17398	0.18899
761.000	0.29259	0.35411	-0.19177	0.22679
762.000	0.26887	0.38594	-0.18386	0.21486
763.000	0.24515	0.37202	-0.15421	0.24669
764.000	0.28864	0.38992	-0.17200	0.23475
765.000	0.31236	0.36605	-0.17595	0.25663
766.000	0.28469	0.33024	-0.14037	0.23276
767.000	0.27876	0.37997	-0.17002	0.19098
768.000	0.25305	0.35809	-0.15816	0.23674
769.000	0.29655	0.39788	-0.20363	0.21486
770.000	0.28666	0.39589	-0.17595	0.22480
771.000	0.28666	0.41379	-0.15816	0.25067
772.000	0.28271	0.37798	-0.16014	0.27454
773.000	0.24515	0.37997	-0.16409	0.24669
774.000	0.28271	0.32825	-0.18188	0.25862
775.000	0.25305	0.32825	-0.17398	0.20491
776.000	0.25503	0.33621	-0.15223	0.23475
777.000	0.27282	0.35610	-0.18386	0.24271
778.000	0.29062	0.40185	-0.17793	0.21884
779.000	0.28666	0.34019	-0.15618	0.22281
780.000	0.30050	0.40981	-0.20363	0.24470
781.000	0.29062	0.37400	-0.17398	0.29443
782.000	0.29259	0.38196	-0.19375	0.23276
783.000	0.32422	0.36406	-0.17200	0.21287
784.000	0.31632	0.34217	-0.17595	0.21088
785.000	0.30841	0.36804	-0.19177	0.25266
786.000	0.35190	0.35610	-0.20956	0.22281
787.000	0.28666	0.32626	-0.20165	0.22480
788.000	0.30841	0.36008	-0.18188	0.24470
789.000	0.29655	0.31432	-0.26096	0.20690
790.000	0.29852	0.37201	-0.21747	0.25067
791.000	0.31829	0.37400	-0.16409	0.27653
792.000	0.30248	0.34416	-0.20561	0.26658
793.000	0.29655	0.35610	-0.18781	0.20292
794.000	0.29852	0.32825	-0.19770	0.22679
795.000	0.29259	0.38793	-0.19375	0.24271
796.000	0.32027	0.34217	-0.20561	0.26658
797.000	0.27876	0.30836	-0.19572	0.32029
798.000	0.28666	0.35809	-0.20363	0.27255
799.000	0.32422	0.35610	-0.20165	0.28647
800.000	0.29062	0.36008	-0.20956	0.26658
801.000	0.32422	0.35212	-0.23131	0.23873
802.000	0.29062	0.32029	-0.20165	0.31632
803.000	0.32027	0.37400	-0.20363	0.29045
804.000	0.30643	0.34416	-0.23526	0.28448
805.000	0.31829	0.34217	-0.23329	0.30040
806.000	0.29852	0.32228	-0.25108	0.25464
807.000	0.30050	0.32626	-0.22142	0.29642
808.000	0.26689	0.33422	-0.23922	0.26260
809.000	0.31829	0.35212	-0.22340	0.25862
810.000	0.33213	0.37798	-0.23922	0.28647
811.000	0.30050	0.32626	-0.22142	0.28250
812.000	0.31434	0.33621	-0.21747	0.28647
813.000	0.32225	0.35809	-0.23724	0.27454
814.000	0.31632	0.35013	-0.22735	0.28846
815.000	0.29062	0.37400	-0.22538	0.31830
816.000	0.31039	0.30637	-0.21945	0.27852
817.000	0.30446	0.30040	-0.22538	0.27653
818.000	0.30643	0.32228	-0.24119	0.27653
819.000	0.33016	0.32427	-0.24317	0.28051
820.000	0.29655	0.32427	-0.23329	0.26061
821.000	0.33806	0.34217	-0.23131	0.22878
822.000	0.33609	0.34416	-0.25701	0.27852
823.000	0.31039	0.32228	-0.23922	0.26459
824.000	0.29852	0.35809	-0.26689	0.23077
825.000	0.30446	0.35212	-0.25108	0.26459
826.000	0.28469	0.36207	-0.25503	0.18104
827.000	0.29259	0.34814	-0.26294	0.24470
828.000	0.27282	0.31035	-0.22142	0.25862
829.000	0.29655	0.39788	-0.24119	0.21685
830.000	0.26689	0.32626	-0.27282	0.22082
831.000	0.28666	0.32825	-0.24317	0.25663
832.000	0.29852	0.30438	-0.25701	0.24470
833.000	0.29259	0.31830	-0.24317	0.21088
834.000	0.30050	0.28249	-0.26294	0.22082
835.000	0.27876	0.29841	-0.25899	0.23475
836.000	0.27876	0.31432	-0.24515	0.22480
837.000	0.27480	0.37003	-0.25701	0.23475
838.000	0.27678	0.32825	-0.28864	0.28249
839.000	0.28073	0.34416	-0.26294	0.22281
840.000	0.33411	0.36406	-0.28073	0.26857
841.000	0.28864	0.34019	-0.27678	0.29045
842.000	0.31829	0.35013	-0.24712	0.26658
843.000	0.30248	0.35013	-0.24910	0.27056
844.000	0.29259	0.36406	-0.25503	0.26658
845.000	0.31829	0.35610	-0.28864	0.28846
846.000	0.29852	0.38594	-0.25899	0.29045
847.000	0.29852	0.36406	-0.26887	0.28051
848.000	0.30050	0.34019	-0.24317	0.27454
849.000	0.31434	0.31631	-0.26492	0.28846
850.000	0.30050	0.30239	-0.28469	0.25663
851.000	0.30643	0.31233	-0.27085	0.27255
852.000	0.30643	0.32228	-0.29062	0.29244
853.000	0.30248	0.32626	-0.28073	0.28050
854.000	0.30643	0.37798	-0.28666	0.23674
855.000	0.28073	0.36804	-0.27480	0.27454
856.000	0.29655	0.35610	-0.30050	0.23276
857.000	0.29259	0.35610	-0.30050	0.26857
858.000	0.33016	0.39986	-0.28073	0.22679
859.000	0.30643	0.34814	-0.30446	0.25265
860.000	0.31632	0.30438	-0.27678	0.22679
861.000	0.31039	0.30040	-0.27480	0.22679
862.000	0.32422	0.32029	-0.27876	0.22480
863.000	0.36376	0.39787	-0.29852	0.22679
864.000	0.33016	0.36008	-0.26887	0.23873
865.000	0.29259	0.28050	-0.26887	0.23475
866.000	0.31829	0.35809	-0.27282	0.25464
867.000	0.33609	0.35212	-0.30050	0.24669
868.000	0.31829	0.33820	-0.29852	0.21287
869.000	0.31236	0.36008	-0.29655	0.24271
870.000	0.31236	0.36207	-0.24910	0.25464
871.000	0.33806	0.37002	-0.25899	0.27653
872.000	0.31829	0.37002	-0.26096	0.26061
873.000	0.32620	0.37798	-0.24119	0.28647
874.000	0.31632	0.35809	-0.27282	0.24669
875.000	0.30643	0.34217	-0.31434	0.25265
876.000	0.31434	0.31432	-0.29062	0.22480
877.000	0.32225	0.32825	-0.27678	0.26061
878.000	0.33411	0.35610	-0.27480	0.24470
879.000	0.35981	0.37002	-0.28666	0.23873
880.000	0.34993	0.35212	-0.29852	0.25066
881.000	0.33609	0.31830	-0.28271	0.23475
882.000	0.34202	0.32029	-0.27678	0.29841
883.000	0.34795	0.31631	-0.28469	0.29642
884.000	0.30446	0.30836	-0.28469	0.27255
885.000	0.28271	0.31830	-0.28469	0.32626
886.000	0.31632	0.27056	-0.27876	0.31432
887.000	0.26887	0.28647	-0.28469	0.31233
888.000	0.31236	0.26658	-0.31039	0.32228
889.000	0.29259	0.27454	-0.30446	0.33422
890.000	0.31434	0.30239	-0.29457	0.29841
891.000	0.30050	0.26658	-0.30050	0.31034
892.000	0.32027	0.29642	-0.30643	0.30836
893.000	0.32422	0.28647	-0.29259	0.33223
894.000	0.33609	0.29045	-0.29852	0.33422
895.000	0.31632	0.23873	-0.30248	0.34018
896.000	0.31632	0.27653	-0.31632	0.34018
897.000	0.33609	0.29045	-0.31632	0.32228
898.000	0.36376	0.28647	-0.30248	0.32427
899.000	0.31434	0.31432	-0.25701	0.30438
900.000	0.31829	0.32029	-0.26492	0.34218
901.000	0.31829	0.31631	-0.28469	0.30637
902.000	0.33806	0.28647	-0.26096	0.32228
903.000	0.31829	0.28050	-0.26294	0.31631
904.000	0.31434	0.33621	-0.30841	0.30438
905.000	0.33213	0.33621	-0.28469	0.30836
906.000	0.34202	0.28846	-0.28666	0.31631
907.000	0.37167	0.29841	-0.28469	0.34814
908.000	0.36376	0.32825	-0.27876	0.33820
909.000	0.36772	0.31432	-0.27678	0.35013
910.000	0.35783	0.28846	-0.27282	0.31631
911.000	0.37365	0.29642	-0.27480	0.29841
912.000	0.38946	0.28249	-0.25503	0.31234
913.000	0.36376	0.24668	-0.28864	0.28448
914.000	0.39342	0.32825	-0.25701	0.25464
915.000	0.37958	0.30835	-0.29852	0.24271
916.000	0.40133	0.30039	-0.28073	0.28448
917.000	0.38749	0.30835	-0.26492	0.27056
918.000	0.40330	0.34018	-0.27480	0.26658
919.000	0.40726	0.35212	-0.28469	0.27653
920.000	0.35981	0.36207	-0.30050	0.26658
921.000	0.38353	0.39986	-0.26492	0.26260
922.000	0.38946	0.32825	-0.27085	0.29443
923.000	0.38156	0.32626	-0.27678	0.27056
924.000	0.37365	0.33819	-0.29259	0.28050
925.000	0.35586	0.32626	-0.26294	0.26857
926.000	0.35586	0.33422	-0.26294	0.27056
927.000	0.39935	0.29244	-0.24712	0.29443
928.000	0.39539	0.30040	-0.25108	0.24271
929.000	0.36772	0.30835	-0.31039	0.29443
930.000	0.39935	0.35809	-0.23329	0.30836
931.000	0.38749	0.36803	-0.24317	0.31433
932.000	0.44679	0.37997	-0.26689	0.26658
933.000	0.36179	0.34018	-0.27678	0.26061
934.000	0.42702	0.37201	-0.24910	0.21685
935.000	0.42307	0.37997	-0.27085	0.25066
936.000	0.37958	0.32825	-0.26887	0.31234
937.000	0.42900	0.33620	-0.28469	0.28846
938.000	0.39342	0.30238	-0.28666	0.29045
939.000	0.43889	0.32029	-0.25305	0.31432
940.000	0.45470	0.32029	-0.25108	0.29244
941.000	0.42307	0.30238	-0.26492	0.29642
942.000	0.40330	0.33819	-0.24317	0.31234
943.000	0.40133	0.35610	-0.26492	0.28249
944.000	0.37760	0.31432	-0.20758	0.30637
945.000	0.41714	0.34416	-0.27085	0.32427
946.000	0.42900	0.31830	-0.30248	0.28050
947.000	0.41714	0.30636	-0.24910	0.34814
948.000	0.44284	0.33421	-0.25899	0.29045
949.000	0.39737	0.31830	-0.26294	0.31830
950.000	0.38156	0.31631	-0.26096	0.29045
951.000	0.35981	0.29045	-0.27085	0.30438
952.000	0.38353	0.27652	-0.28864	0.30637
953.000	0.38156	0.31233	-0.25701	0.37202
954.000	0.35981	0.30239	-0.25701	0.35411
955.000	0.40923	0.29244	-0.27678	0.35809
956.000	0.39539	0.29841	-0.27085	0.33223
957.000	0.41121	0.28846	-0.27678	0.33024
958.000	0.40133	0.30835	-0.25503	0.35013
959.000	0.41912	0.31830	-0.24712	0.32825
960.000	0.39935	0.29045	-0.25899	0.30438
961.000	0.39935	0.28846	-0.26689	0.35809
962.000	0.38749	0.27652	-0.21945	0.32825
963.000	0.40133	0.27851	-0.26294	0.34019
964.000	0.41319	0.30835	-0.26689	0.31631
965.000	0.42900	0.35013	-0.20758	0.29443
966.000	0.42505	0.28050	-0.24712	0.28250
967.000	0.42505	0.28249	-0.23922	0.31631
968.000	0.39935	0.27851	-0.23922	0.32626
969.000	0.47249	0.32824	-0.23922	0.30836
970.000	0.44877	0.27652	-0.23526	0.30438
971.000	0.40528	0.28050	-0.21549	0.36008
972.000	0.40528	0.29642	-0.23526	0.31035
973.000	0.42307	0.29642	-0.25899	0.27454
974.000	0.39737	0.28846	-0.26492	0.26061
975.000	0.39539	0.30238	-0.26887	0.33223
976.000	0.42702	0.35411	-0.23922	0.32626
977.000	0.44877	0.31233	-0.27678	0.31035
978.000	0.46063	0.34814	-0.27678	0.28647
979.000	0.44086	0.30437	-0.26294	0.28846
980.000	0.44679	0.35212	-0.27282	0.32228
981.000	0.43098	0.29244	-0.24515	0.29642
982.000	0.45668	0.39190	-0.26492	0.27852
983.000	0.39935	0.31830	-0.26492	0.29244
984.000	0.42109	0.34217	-0.22735	0.30040
985.000	0.44679	0.37599	-0.27678	0.27653
986.000	0.40923	0.29642	-0.25899	0.25265
987.000	0.40923	0.33222	-0.24119	0.28051
988.000	0.41516	0.33421	-0.26294	0.25464
989.000	0.43098	0.31830	-0.25899	0.22878
990.000	0.39737	0.29642	-0.24910	0.27255
991.000	0.41121	0.32626	-0.26294	0.25066
992.000	0.42702	0.34615	-0.23131	0.30239
993.000	0.40133	0.29045	-0.21549	0.26459
994.000	0.41714	0.34615	-0.24515	0.26857
995.000	0.39539	0.34217	-0.25899	0.26459
996.000	0.43691	0.33819	-0.26887	0.27852
997.000	0.43296	0.32824	-0.29062	0.27056
998.000	0.43098	0.29642	-0.25701	0.29244
999.000	0.40133	0.35411	-0.30248	0.27454
1000.000	0.42702	0.32427	-0.25305	0.26459
1001.000	0.41121	0.34814	-0.24119	0.28250
1002.000	0.42900	0.27851	-0.26294	0.26260
1003.000	0.42307	0.31233	-0.27678	0.27653
1004.000	0.40923	0.31034	-0.25108	0.26061
1005.000	0.40726	0.34416	-0.27085	0.30836
1006.000	0.40133	0.31830	-0.23526	0.25663
1007.000	0.40528	0.25663	-0.27085	0.29244
1008.000	0.41714	0.31631	-0.24119	0.28250
1009.000	0.41121	0.32626	-0.28271	0.32626
1010.000	0.42307	0.33421	-0.25701	0.28448
1011.000	0.40133	0.30636	-0.28073	0.29642
1012.000	0.41516	0.34217	-0.24515	0.26857
1013.000	0.42307	0.34217	-0.29062	0.23873
1014.000	0.44679	0.31233	-0.28271	0.29443
1015.000	0.40923	0.31830	-0.27480	0.26658
1016.000	0.43098	0.29244	-0.25899	0.27653
1017.000	0.40923	0.30437	-0.27480	0.26658
1018.000	0.43691	0.32625	-0.27282	0.22679
1019.000	0.44284	0.33819	-0.27480	0.25265
1020.000	0.40528	0.33620	-0.24515	0.23873
1021.000	0.41714	0.34814	-0.27085	0.32228
1022.000	0.44679	0.31830	-0.29259	0.30239
1023.000	0.39539	0.29045	-0.27678	0.26857
1024.000	0.43493	0.35013	-0.29259	0.26260
1025.000	0.44482	0.35013	-0.28469	0.30239
1026.000	0.43493	0.33819	-0.29062	0.31631
1027.000	0.43889	0.34615	-0.26689	0.32825
1028.000	0.44284	0.30437	-0.27480	0.32626
1029.000	0.44482	0.35609	-0.31039	0.28050
1030.000	0.41516	0.36604	-0.31039	0.28050
1031.000	0.42505	0.33819	-0.26689	0.28647
1032.000	0.42702	0.34814	-0.26294	0.29841
1033.000	0.43296	0.32625	-0.27876	0.32228
1034.000	0.46261	0.34018	-0.30248	0.31631
1035.000	0.44877	0.37798	-0.29457	0.32626
1036.000	0.42505	0.30437	-0.32027	0.30040
1037.000	0.44284	0.36803	-0.25899	0.32626
1038.000	0.44679	0.38394	-0.27678	0.31432
1039.000	0.46261	0.36206	-0.28271	0.29841
1040.000	0.46656	0.34814	-0.28666	0.26857
1041.000	0.48435	0.37002	-0.29852	0.30438
1042.000	0.48435	0.36604	-0.29062	0.32029
1043.000	0.46459	0.36007	-0.26887	0.29443
1044.000	0.45865	0.37002	-0.27678	0.30637
1045.000	0.46854	0.36405	-0.27876	0.24271
1046.000	0.46261	0.34217	-0.26096	0.21883
1047.000	0.46656	0.35012	-0.27876	0.30438
1048.000	0.49028	0.36604	-0.28666	0.26260
1049.000	0.48238	0.36604	-0.28864	0.29244
1050.000	0.49622	0.35012	-0.31039	0.23674
1051.000	0.47842	0.35410	-0.28271	0.27454
1052.000	0.47842	0.37599	-0.30841	0.25066
1053.000	0.47447	0.39588	-0.30248	0.27454
1054.000	0.49424	0.38792	-0.30248	0.26658
1055.000	0.46854	0.37002	-0.29852	0.28846
1056.000	0.51203	0.35808	-0.27282	0.29045
1057.000	0.48238	0.39588	-0.30446	0.27653
1058.000	0.50412	0.36604	-0.27282	0.31035
1059.000	0.48435	0.37400	-0.30248	0.28050
1060.000	0.46656	0.41378	-0.25503	0.32427
1061.000	0.49424	0.36206	-0.26689	0.32228
1062.000	0.49028	0.38593	-0.28073	0.27056
1063.000	0.48633	0.37201	-0.27282	0.28448
1064.000	0.46063	0.40781	-0.28073	0.25464
1065.000	0.49819	0.38792	-0.27085	0.32427
1066.000	0.48435	0.39986	-0.25503	0.32626
1067.000	0.49424	0.39787	-0.28666	0.35212
1068.000	0.48040	0.40781	-0.29062	0.30239
1069.000	0.45075	0.41776	-0.26294	0.26260
1070.000	0.47447	0.40582	-0.29655	0.29045
1071.000	0.47052	0.44163	-0.33213	0.32029
1072.000	0.48238	0.37797	-0.30050	0.27454
1073.000	0.47249	0.40185	-0.27876	0.26061
1074.000	0.46261	0.42970	-0.29259	0.24867
1075.000	0.46063	0.42572	-0.29062	0.31631
1076.000	0.49226	0.45158	-0.29852	0.28647
1077.000	0.45668	0.44959	-0.27876	0.29244
1078.000	0.48435	0.48142	-0.28864	0.30438
1079.000	0.49424	0.44163	-0.29457	0.28448
1080.000	0.46261	0.44163	-0.32422	0.31631
1081.000	0.48040	0.45357	-0.27876	0.28647
1082.000	0.50412	0.47147	-0.32027	0.31034
1083.000	0.46063	0.45556	-0.30446	0.27852
1084.000	0.51401	0.43367	-0.32422	0.26459
1085.000	0.50215	0.43168	-0.28271	0.33422
1086.000	0.47645	0.37400	-0.27876	0.28846
1087.000	0.44482	0.40980	-0.32422	0.27056
1088.000	0.50610	0.40582	-0.29852	0.26857
1089.000	0.52784	0.44163	-0.30841	0.31830
1090.000	0.47842	0.41776	-0.31434	0.32228
1091.000	0.53575	0.44561	-0.30841	0.28647
1092.000	0.48831	0.43168	-0.27876	0.31631
1093.000	0.49424	0.44760	-0.30841	0.28448
1094.000	0.51796	0.45555	-0.29457	0.31233
1095.000	0.52784	0.45754	-0.29259	0.30438
1096.000	0.56145	0.47146	-0.30841	0.26061
1097.000	0.50610	0.46948	-0.34004	0.26857
1098.000	0.51401	0.40582	-0.34597	0.25862
1099.000	0.45668	0.45357	-0.30446	0.32626
1100.000	0.48633	0.48937	-0.31632	0.28249
1101.000	0.49622	0.45158	-0.33016	0.28249
1102.000	0.49226	0.42969	-0.30643	0.28050
1103.000	0.52784	0.45555	-0.30248	0.32825
1104.000	0.49424	0.43765	-0.29259	0.32029
1105.000	0.45272	0.41975	-0.24910	0.33223
1106.000	0.49028	0.43964	-0.28864	0.34019
1107.000	0.52587	0.41975	-0.28271	0.34814
1108.000	0.51401	0.41776	-0.26096	0.34218
1109.000	0.51994	0.41179	-0.27876	0.35013
1110.000	0.49028	0.45158	-0.29062	0.33820
1111.000	0.51796	0.45356	-0.27876	0.34615
1112.000	0.52191	0.39588	-0.33016	0.30835
1113.000	0.53575	0.46152	-0.26096	0.34218
1114.000	0.52191	0.42770	-0.30446	0.30438
1115.000	0.49028	0.47744	-0.31039	0.34416
1116.000	0.49226	0.43367	-0.32422	0.35809
1117.000	0.54959	0.44958	-0.28666	0.34814
1118.000	0.53575	0.45356	-0.29655	0.36804
1119.000	0.52587	0.45356	-0.29062	0.35411
1120.000	0.51994	0.42770	-0.28073	0.32228
1121.000	0.55552	0.42372	-0.30643	0.32626
1122.000	0.53378	0.47544	-0.27678	0.31233
1123.000	0.56936	0.47942	-0.27282	0.34019
1124.000	0.57727	0.46947	-0.25503	0.30637
1125.000	0.58715	0.46549	-0.24515	0.31234
1126.000	0.59110	0.47345	-0.23329	0.32029
1127.000	0.58122	0.47146	-0.24119	0.34615
1128.000	0.61285	0.47345	-0.25899	0.36406
1129.000	0.59110	0.48539	-0.25899	0.34814
1130.000	0.59703	0.46151	-0.24317	0.28051
1131.000	0.64052	0.49135	-0.20363	0.32228
1132.000	0.59110	0.49334	-0.25305	0.32228
1133.000	0.60494	0.47942	-0.26887	0.35013
1134.000	0.59308	0.50329	-0.28469	0.33223
1135.000	0.56738	0.49135	-0.27085	0.35212
1136.000	0.61087	0.52318	-0.26887	0.32228
1137.000	0.60889	0.48737	-0.24515	0.38992
1138.000	0.60692	0.50130	-0.23922	0.31433
1139.000	0.63459	0.49931	-0.24712	0.35013
1140.000	0.62866	0.49732	-0.26689	0.37798
1141.000	0.60296	0.49135	-0.23526	0.35212
1142.000	0.59703	0.50925	-0.22340	0.34814
1143.000	0.58517	0.49931	-0.19177	0.32427
1144.000	0.60099	0.50130	-0.23131	0.33223
1145.000	0.63262	0.53312	-0.23526	0.37202
1146.000	0.65041	0.54108	-0.28073	0.36804
1147.000	0.57133	0.54307	-0.24119	0.36605
1148.000	0.65041	0.55301	-0.27085	0.38594
1149.000	0.62668	0.52318	-0.24317	0.35013
1150.000	0.59308	0.47345	-0.26492	0.38196
1151.000	0.60099	0.50528	-0.24515	0.37798
1152.000	0.59506	0.50130	-0.24910	0.39987
1153.000	0.62075	0.50726	-0.26689	0.38992
1154.000	0.63657	0.52516	-0.27282	0.37599
1155.000	0.61087	0.47743	-0.23526	0.42175
1156.000	0.62075	0.51721	-0.27480	0.39788
1157.000	0.60692	0.47544	-0.24910	0.44761
1158.000	0.62075	0.50527	-0.26492	0.41976
1159.000	0.65831	0.50527	-0.25108	0.36804
1160.000	0.61680	0.50925	-0.26887	0.36008
1161.000	0.61482	0.49135	-0.27282	0.39390
1162.000	0.60296	0.46549	-0.23526	0.41180
1163.000	0.61482	0.51323	-0.26689	0.38793
1164.000	0.62471	0.46549	-0.24317	0.38594
1165.000	0.61680	0.51323	-0.24515	0.37599
1166.000	0.57924	0.51721	-0.22933	0.30040
1167.000	0.60494	0.55898	-0.26294	0.37798
1168.000	0.58913	0.51124	-0.25503	0.32029
1169.000	0.57133	0.47345	-0.24910	0.32825
1170.000	0.62075	0.53113	-0.30643	0.33223
1171.000	0.60099	0.52517	-0.24317	0.34417
1172.000	0.58913	0.53511	-0.26689	0.33820
1173.000	0.61680	0.45952	-0.26096	0.31631
1174.000	0.59308	0.49135	-0.22142	0.31035
1175.000	0.60889	0.47942	-0.23922	0.33621
1176.000	0.62668	0.44958	-0.21945	0.32825
1177.000	0.58122	0.43168	-0.23922	0.33820
1178.000	0.58320	0.42969	-0.22340	0.34417
1179.000	0.67017	0.44361	-0.23922	0.37003
1180.000	0.67017	0.46946	-0.22933	0.38594
1181.000	0.65436	0.42570	-0.22340	0.40385
1182.000	0.64052	0.43366	-0.23526	0.37202
1183.000	0.67215	0.49731	-0.21747	0.38992
1184.000	0.62668	0.40979	-0.21352	0.38594
1185.000	0.68203	0.42769	-0.23131	0.36406
1186.000	0.63855	0.39786	-0.20363	0.34417
1187.000	0.59110	0.37200	-0.21945	0.33223
1188.000	0.64250	0.39189	-0.23329	0.30836
1189.000	0.64843	0.45554	-0.25305	0.30637
1190.000	0.64843	0.41974	-0.21549	0.30637
1191.000	0.64448	0.39189	-0.25503	0.29841
1192.000	0.67017	0.46350	-0.26492	0.35411
1193.000	0.68006	0.42570	-0.25701	0.29841
1194.000	0.62668	0.46151	-0.26689	0.36605
1195.000	0.65831	0.43565	-0.24712	0.27255
1196.000	0.67610	0.42769	-0.19572	0.37202
1197.000	0.67017	0.44162	-0.24119	0.31830
1198.000	0.67808	0.42172	-0.20363	0.32228
1199.000	0.64250	0.49533	-0.23724	0.30438
1200.000	0.68994	0.50328	-0.20165	0.37799
1201.000	0.71366	0.48935	-0.19572	0.37003
1202.000	0.69785	0.52317	-0.19968	0.39589
1203.000	0.70180	0.54704	-0.19968	0.37202
1204.000	0.64843	0.51920	-0.22735	0.28051
1205.000	0.69587	0.53709	-0.22142	0.34616
1206.000	0.66424	0.53312	-0.17991	0.29045
1207.000	0.68599	0.53312	-0.21549	0.34417
1208.000	0.67808	0.51919	-0.24317	0.38594
1209.000	0.69785	0.50527	-0.24515	0.31830
1210.000	0.68796	0.48339	-0.21747	0.33422
1211.000	0.68994	0.47941	-0.19968	0.31035
1212.000	0.71564	0.51720	-0.22538	0.34814
1213.000	0.68796	0.56096	-0.19968	0.38395
1214.000	0.74529	0.56692	-0.23329	0.31631
1215.000	0.71959	0.50526	-0.21352	0.36008
1216.000	0.67215	0.54505	-0.21549	0.33820
1217.000	0.68796	0.51919	-0.24119	0.33223
1218.000	0.71959	0.50924	-0.20165	0.33422
1219.000	0.69192	0.49333	-0.23724	0.35013
1220.000	0.71168	0.51521	-0.22735	0.33621
1221.000	0.69982	0.50924	-0.20561	0.35212
1222.000	0.69982	0.55698	-0.20758	0.40981
1223.000	0.68401	0.53312	-0.18386	0.43568
1224.000	0.67413	0.58881	-0.17398	0.43369
1225.000	0.63064	0.64053	-0.22735	0.51326
1226.000	0.62471	0.72208	-0.25503	0.59084
1227.000	0.61680	0.87921	-0.24910	0.75395
1228.000	0.56145	1.08406	-0.35586	0.81162
1229.000	0.52191	1.17554	-0.39935	0.94090
1230.000	0.42505	1.30481	-0.46063	1.02442
1231.000	0.38551	1.49767	-0.54761	1.11986
1232.000	0.33411	1.59310	-0.59703	1.32863
1233.000	0.28666	1.68455	-0.62273	1.46183
1234.000	0.21549	1.76605	-0.66820	1.56718
1235.000	0.17793	1.80580	-0.73343	1.69238
1236.000	0.18979	1.95485	-0.78482	1.73211
1237.000	0.16409	1.99459	-0.75122	1.76790
1238.000	0.18386	2.02042	-0.78680	1.83346
1239.000	0.20165	1.98465	-0.76901	1.81360
1240.000	0.25305	2.01246	-0.75319	1.85136
1241.000	0.25701	1.99657	-0.75517	1.78181
1242.000	0.24712	1.95881	-0.73540	1.81759
1243.000	0.35388	1.93296	-0.71168	1.83548
1244.000	0.37365	1.91507	-0.64843	1.78781
1245.000	0.41319	1.96673	-0.64645	1.81563
1246.000	0.42505	1.90711	-0.60296	1.77391
1247.000	0.36969	1.84155	-0.62273	1.68844
1248.000	0.41912	1.84948	-0.60494	1.65466
1249.000	0.46063	1.86537	-0.59506	1.69640
1250.000	0.44284	1.86538	-0.54366	1.62089
1251.000	0.42109	1.83756	-0.59110	1.61292
1252.000	0.39539	1.77397	-0.56738	1.58709
1253.000	0.40923	1.81173	-0.59703	1.51154
1254.000	0.41319	1.78191	-0.56145	1.52149
1255.000	0.40133	1.77993	-0.56936	1.51751
1256.000	0.33016	1.74814	-0.55354	1.46185
1257.000	0.38156	1.75211	-0.56343	1.48769
1258.000	0.35981	1.72429	-0.57529	1.53938
1259.000	0.33016	1.74814	-0.59110	1.50558
1260.000	0.35586	1.75410	-0.60099	1.54136
1261.000	0.39935	1.81769	-0.60494	1.53738
1262.000	0.38353	1.78192	-0.58517	1.63280
1263.000	0.38156	1.79782	-0.57133	1.64473
1264.000	0.36376	1.73422	-0.59506	1.61292
1265.000	0.36179	1.84353	-0.59703	1.68050
1266.000	0.36179	1.80180	-0.59110	1.63876
1267.000	0.35388	1.86341	-0.60099	1.66460
1268.000	0.34993	1.84751	-0.60692	1.64472
1269.000	0.36376	1.89520	-0.59506	1.70833
1270.000	0.40133	1.92699	-0.59110	1.72025
1271.000	0.35190	1.89719	-0.58913	1.75205
1272.000	0.39342	1.90513	-0.60692	1.68845
1273.000	0.39539	1.93494	-0.61878	1.70832
1274.000	0.38551	1.93097	-0.58913	1.69839
1275.000	0.40133	1.88526	-0.57529	1.71032
1276.000	0.43098	1.93096	-0.59308	1.74609
1277.000	0.38749	1.93892	-0.60099	1.70038
1278.000	0.39935	1.93494	-0.57727	1.66858
1279.000	0.40726	1.90314	-0.61285	1.70236
1280.000	0.41912	1.92500	-0.59901	1.70833
1281.000	0.41121	1.95878	-0.60494	1.70037
1282.000	0.46459	1.96075	-0.59308	1.71827
1283.000	0.47249	1.91306	-0.59506	1.72224
1284.000	0.46656	1.95877	-0.57331	1.73815
1285.000	0.42900	1.95679	-0.59901	1.74211
1286.000	0.43296	1.93692	-0.59110	1.69044
1287.000	0.46063	1.91108	-0.58517	1.71032
1288.000	0.46261	1.94685	-0.59703	1.70634
1289.000	0.43889	1.91903	-0.59506	1.70236
1290.000	0.46459	1.93095	-0.59110	1.70237
1291.000	0.47249	1.92896	-0.56343	1.70635
1292.000	0.44679	1.91506	-0.55947	1.71430
1293.000	0.46261	1.89121	-0.59901	1.68448
1294.000	0.45470	1.93890	-0.55947	1.71430
1295.000	0.42307	1.87731	-0.60099	1.72423
1296.000	0.45668	1.93095	-0.59308	1.66858
1297.000	0.44086	1.93294	-0.59901	1.70038
1298.000	0.46854	1.91505	-0.58715	1.71429
1299.000	0.45272	1.95480	-0.58715	1.69243
1300.000	0.43691	1.90910	-0.61285	1.74012
1301.000	0.46261	1.88922	-0.60296	1.69242
1302.000	0.45075	1.85743	-0.58715	1.68249
1303.000	0.45470	1.90909	-0.60692	1.71230
1304.000	0.43889	1.90512	-0.61482	1.68845
1305.000	0.40133	1.90513	-0.59110	1.71032
1306.000	0.40133	1.90911	-0.62273	1.72422
1307.000	0.42505	1.94487	-0.59110	1.68050
1308.000	0.44877	1.92698	-0.59703	1.68249
1309.000	0.40726	1.83756	-0.63262	1.68844
1310.000	0.38353	1.91706	-0.58517	1.71827
1311.000	0.42900	1.86141	-0.59506	1.69441
1312.000	0.39737	1.90314	-0.57924	1.73417
1313.000	0.46063	1.92499	-0.59901	1.75006
1314.000	0.41912	1.87333	-0.57133	1.70237
1315.000	0.45075	1.90711	-0.60494	1.63478
1316.000	0.43493	1.90115	-0.55947	1.70635
1317.000	0.46459	1.87928	-0.59110	1.71032
1318.000	0.43889	1.92102	-0.60296	1.69441
1319.000	0.43296	1.92102	-0.59901	1.71230
1320.000	0.46656	1.86935	-0.55552	1.69045
1321.000	0.42702	1.92500	-0.60889	1.71429
1322.000	0.46063	1.90909	-0.62075	1.67851
1323.000	0.47052	1.91505	-0.63064	1.68844
1324.000	0.44086	1.91506	-0.62866	1.72422
1325.000	0.47249	1.90114	-0.61482	1.67453
1326.000	0.46656	1.94883	-0.61482	1.64671
1327.000	0.48633	1.91306	-0.59308	1.68845
1328.000	0.43296	1.87929	-0.60494	1.66857
1329.000	0.41516	1.90910	-0.62273	1.63478
1330.000	0.45075	1.89320	-0.62075	1.61092
1331.000	0.46459	1.92697	-0.61680	1.67453
1332.000	0.45075	1.85743	-0.60099	1.71429
1333.000	0.46261	1.87133	-0.62075	1.65465
1334.000	0.49424	1.95280	-0.64843	1.63278
1335.000	0.46063	1.87928	-0.62471	1.67453
1336.000	0.41714	1.89122	-0.58715	1.67255
1337.000	0.47645	1.91107	-0.61482	1.70435
1338.000	0.42505	1.91904	-0.60692	1.66261
1339.000	0.44679	1.90115	-0.61285	1.68447
1340.000	0.41319	1.88327	-0.59901	1.64870
1341.000	0.42505	1.87730	-0.60494	1.64472
1342.000	0.46656	1.88922	-0.60296	1.65267
1343.000	0.42505	1.90314	-0.62668	1.67055
1344.000	0.49424	1.94684	-0.61482	1.70832
1345.000	0.46854	1.90710	-0.63855	1.67055
1346.000	0.45668	1.91704	-0.61087	1.67056
1347.000	0.51005	1.92696	-0.62273	1.61689
1348.000	0.46854	1.91505	-0.64250	1.66459
1349.000	0.47842	1.90312	-0.63855	1.62086
1350.000	0.45075	1.88127	-0.62273	1.61092
1351.000	0.45075	1.90711	-0.65238	1.65266
1352.000	0.40923	1.87333	-0.61482	1.66062
1353.000	0.45075	1.87134	-0.63657	1.62285
1354.000	0.46854	1.90114	-0.61680	1.61888
1355.000	0.43691	1.92499	-0.62075	1.61092
1356.000	0.45470	1.91505	-0.58715	1.60497
1357.000	0.45272	1.87531	-0.60494	1.67255
1358.000	0.47842	1.92896	-0.60889	1.67453
1359.000	0.47249	1.92101	-0.58122	1.66262
1360.000	0.47645	1.90909	-0.63855	1.61291
1361.000	0.38353	1.91110	-0.61482	1.64869
1362.000	0.45075	1.93691	-0.60889	1.62683
1363.000	0.46261	1.95082	-0.64645	1.56719
1364.000	0.43296	1.90512	-0.64843	1.58706
1365.000	0.49226	1.92895	-0.64448	1.60297
1366.000	0.48040	1.92697	-0.62668	1.58309
1367.000	0.47447	1.91704	-0.63064	1.55526
1368.000	0.44284	1.90910	-0.63262	1.57315
1369.000	0.47645	1.87133	-0.60296	1.59105
1370.000	0.46459	1.91306	-0.60099	1.62087
1371.000	0.47447	1.90313	-0.59308	1.59702
1372.000	0.47645	1.91107	-0.61285	1.60695
1373.000	0.43296	1.92897	-0.61285	1.55129
1374.000	0.48435	1.92299	-0.62273	1.58906
1375.000	0.48831	1.95081	-0.59506	1.60894
1376.000	0.47249	1.95082	-0.58122	1.61094
1377.000	0.46063	1.93294	-0.64645	1.59303
1378.000	0.43296	1.89717	-0.62668	1.60098
1379.000	0.44877	1.89121	-0.58517	1.57515
1380.000	0.44877	1.90313	-0.63657	1.59104
1381.000	0.47249	1.92498	-0.63855	1.59502
1382.000	0.46656	1.89120	-0.62866	1.58309
1383.000	0.45668	1.89717	-0.64645	1.59700
1384.000	0.46854	1.93492	-0.62668	1.55924
1385.000	0.49226	1.91902	-0.68006	1.60295
1386.000	0.40726	1.90116	-0.61087	1.63677
1387.000	0.43889	1.91506	-0.60296	1.64075
1388.000	0.45075	1.88326	-0.62273	1.61490
1389.000	0.41516	1.85346	-0.62273	1.64869
1390.000	0.41516	1.84750	-0.57529	1.72225
1391.000	0.46063	1.82364	-0.51203	1.74611
1392.000	0.46656	1.85345	-0.42109	1.75011
1393.000	0.59703	1.93687	-0.31236	1.73821
1394.000	0.74924	1.94674	-0.18979	1.76406
1395.000	0.88760	1.82944	-0.00395	1.76805
1396.000	1.13663	1.84718	0.26887	1.78393
1397.000	1.38956	1.85892	0.64843	1.89313
1398.000	1.65627	1.93219	0.94097	1.90890
1399.000	1.99004	1.95765	1.32238	1.92851
1400.000	2.31579	1.92745	1.69182	1.93414
1401.000	2.69464	2.02415	2.06310	1.99926
1402.000	3.07129	2.06316	2.39473	1.99484
1403.000	3.38858	2.07839	2.78538	2.00614
1404.000	3.75684	2.21037	3.15014	2.04119
1405.000	4.11496	2.10440	3.54813	2.07209
1406.000	4.49241	2.18258	3.99497	1.88668
1407.000	4.81450	2.04697	4.33911	1.97105
1408.000	5.14021	2.13698	4.68295	1.87704
1409.000	5.52240	2.02886	5.11275	1.67193
1410.000	5.82584	2.00407	5.34410	1.71683
1411.000	6.11918	1.93780	5.61640	1.70418
1412.000	6.41805	1.87547	5.93343	1.40070
1413.000	6.74582	1.91568	6.20516	1.50079
1414.000	6.97773	1.81809	6.48247	1.47431
1415.000	7.26388	1.80118	6.80626	1.41214
1416.000	7.47388	1.80230	6.92318	1.49271
1417.000	7.68757	1.77974	7.19383	1.46817
1418.000	7.88358	1.84585	7.36113	1.45579
1419.000	7.97085	1.78838	7.57687	1.37624
1420.000	8.17628	1.70287	7.71281	1.44082
1421.000	8.33893	1.83393	7.90492	1.42046
1422.000	8.46082	1.83532	8.03871	1.46528
1423.000	8.58263	1.76791	8.15885	1.51994
1424.000	8.68892	1.74187	8.20534	1.44696
1425.000	8.76811	1.74347	8.27117	1.53525
1426.000	8.80286	1.84151	8.32731	1.57044
1427.000	8.87622	1.86863	8.42600	1.53071
1428.000	8.93411	1.85460	8.43761	1.56803
1429.000	8.98812	1.80917	8.44148	1.56801
1430.000	8.99390	1.78559	8.42213	1.58382
1431.000	8.97269	1.78962	8.42793	1.62313
1432.000	9.01319	1.76586	8.40472	1.52293
1433.000	8.97462	1.75623	8.32538	1.56848
1434.000	8.98619	1.77777	8.32925	1.55273
1435.000	8.92060	1.78202	8.25181	1.56287
1436.000	8.93025	1.72699	8.16660	1.57698
1437.000	8.93411	1.74857	8.10266	1.58904
1438.000	8.93218	1.75055	8.05228	1.62467
1439.000	8.89166	1.72914	8.05809	1.63252
1440.000	8.86657	1.75675	7.99218	1.65050
1441.000	8.96304	1.77985	8.02514	1.63462
1442.000	8.90902	1.73102	7.97473	1.60726
1443.000	8.94182	1.73479	8.03095	1.63853
1444.000	8.97655	1.73659	8.08328	1.63438
1445.000	9.02283	1.76189	8.06003	1.60889
1446.000	9.07104	1.74988	8.12010	1.65391
1447.000	9.08067	1.75179	8.15885	1.60259
1448.000	9.08839	1.74194	8.17241	1.62812
1449.000	9.13657	1.75937	8.18597	1.61232
1450.000	9.13079	1.77509	8.19372	1.60048
1451.000	9.15584	1.74161	8.18790	1.62412
1452.000	9.15199	1.77106	8.15110	1.63411
1453.000	9.18667	1.78659	8.14335	1.62037
1454.000	9.18474	1.75128	8.15497	1.62622
1455.000	9.18282	1.78661	8.10654	1.60871
1456.000	9.20979	1.76489	8.11623	1.65590
1457.000	9.17511	1.79253	8.06197	1.62266
1458.000	9.12693	1.82221	8.03871	1.62472
1459.000	9.12693	1.78100	8.00769	1.66421
1460.000	9.15584	1.79067	8.01351	1.72324
1461.000	9.10766	1.78895	8.00963	1.62090
1462.000	9.08646	1.82634	7.99800	1.69968
1463.000	9.10381	1.79093	7.97667	1.71158
1464.000	9.09417	1.79883	7.97279	1.71554
1465.000	9.05561	1.82257	7.98830	1.59736
1466.000	9.07489	1.76752	7.99606	1.69379
1467.000	9.10381	1.81644	7.98055	1.69188
1468.000	9.05368	1.80688	7.94952	1.67823
1469.000	9.05947	1.79900	7.97861	1.70567
1470.000	9.02283	1.77563	7.96698	1.69981
1471.000	9.01512	1.80315	7.90880	1.68234
1472.000	9.08839	1.79100	7.93595	1.70979
1473.000	9.04790	1.79906	7.93595	1.75113
1474.000	9.05561	1.78528	7.91656	1.71774
1475.000	9.08453	1.80476	7.91462	1.70987
1476.000	9.07875	1.81853	7.92431	1.69015
1477.000	9.07104	1.80483	7.92043	1.66260
1478.000	9.05176	1.83044	7.96116	1.76283
1479.000	9.04019	1.80891	7.94565	1.72156
1480.000	9.03440	1.86193	7.94371	1.70778
1481.000	9.02669	1.77757	7.89910	1.75719
1482.000	9.02476	1.78151	7.95146	1.72153
1483.000	9.04790	1.74410	7.95728	1.75497
1484.000	9.05368	1.77744	7.98637	1.73123
1485.000	9.06718	1.73615	7.99218	1.73711
1486.000	9.03440	1.79913	7.96892	1.70965
1487.000	9.05947	1.73619	7.97473	1.71553
1488.000	9.02090	1.79919	8.00381	1.71541
1489.000	9.02862	1.77560	7.96698	1.74706
1490.000	9.03633	1.75201	7.95340	1.68412
1491.000	9.05176	1.75193	7.95534	1.70380
1492.000	9.04597	1.76177	7.99800	1.71346
1493.000	9.03826	1.77948	7.97085	1.68602
1494.000	9.03826	1.77359	7.98055	1.69582
1495.000	9.03055	1.78344	7.98055	1.67810
1496.000	9.08260	1.79496	8.01351	1.68781
1497.000	9.07104	1.80287	8.00381	1.65636
1498.000	9.01898	1.75994	7.99800	1.67803
1499.000	9.05176	1.77352	7.98055	1.75094
1500.000	9.06332	1.75188	8.02708	1.61886
1501.000	9.04790	1.74606	8.01932	1.66023
1502.000	9.08453	1.71056	7.99606	1.70757
1503.000	9.05947	1.70086	8.01157	1.68388
1504.000	9.06525	1.75383	8.02320	1.69958
1505.000	9.09224	1.77529	7.97473	1.75293
1506.000	9.06332	1.74599	7.98830	1.73122
1507.000	9.08067	1.73020	7.99606	1.70363
1508.000	9.04983	1.70287	7.96698	1.74509
1509.000	9.03633	1.71078	7.97279	1.67026
1510.000	9.04597	1.74018	7.96504	1.75888
1511.000	9.01319	1.71089	7.93789	1.73340
1512.000	9.03247	1.73632	7.96892	1.67815
1513.000	8.99776	1.73649	8.00381	1.67604
1514.000	9.07682	1.72629	7.95728	1.70970
1515.000	9.03826	1.69115	7.95728	1.70773
1516.000	9.05176	1.64397	7.98249	1.66432
1517.000	9.07875	1.71843	7.98055	1.71157
1518.000	9.07489	1.66938	7.95922	1.72741
1519.000	9.08067	1.72039	7.97667	1.69190
1520.000	9.07875	1.69881	7.97861	1.71748
1521.000	9.09224	1.68697	7.99024	1.69381
1522.000	9.08453	1.69485	7.99800	1.67016
1523.000	9.07104	1.68707	7.99412	1.73907
1524.000	9.05368	1.72641	8.00769	1.69964
1525.000	9.05561	1.71854	7.99606	1.63867
1526.000	9.03247	1.74025	7.96116	1.66440
1527.000	9.10188	1.67122	8.00188	1.64652
1528.000	9.05754	1.71068	7.97861	1.69583
1529.000	9.04212	1.67346	7.94759	1.68415
1530.000	9.03826	1.68526	7.99218	1.66034
1531.000	9.08839	1.69484	7.99218	1.68593
1532.000	9.04212	1.71272	8.01545	1.65040
1533.000	9.06332	1.69888	7.98637	1.66036
1534.000	9.06718	1.71260	7.99218	1.69184
1535.000	9.06718	1.71456	7.99800	1.73118
1536.000	9.06332	1.74206	7.99994	1.69574
1537.000	9.07875	1.74787	7.97279	1.68404
1538.000	9.06140	1.72441	7.94952	1.72351
1539.000	9.05947	1.73030	8.03483	1.66017
1540.000	9.09417	1.69873	7.97667	1.70174
1541.000	9.05947	1.71068	7.97473	1.69584
1542.000	9.04212	1.71861	7.93983	1.67630
1543.000	9.08646	1.73017	7.96698	1.71359
1544.000	9.06911	1.69493	7.95146	1.68019
1545.000	9.11537	1.68293	7.96116	1.65062
1546.000	9.04404	1.71075	7.98637	1.66233
1547.000	9.03440	1.72846	7.99218	1.66625
1548.000	9.09802	1.71245	8.00769	1.66618
1549.000	9.03826	1.72844	7.98055	1.64661
1550.000	9.04790	1.75195	7.97473	1.70569
1551.000	9.04212	1.69898	7.97861	1.66630
1552.000	9.04212	1.67935	7.94565	1.69990
1553.000	9.04019	1.71469	7.97085	1.68799
1554.000	9.04404	1.72056	7.95340	1.69003
1555.000	9.05368	1.73818	7.99800	1.62882
1556.000	9.06525	1.71654	7.97473	1.68797
1557.000	9.10188	1.69477	8.02320	1.67793
1558.000	9.06911	1.71259	7.98830	1.71744
1559.000	9.04983	1.70287	8.00381	1.66226
1560.000	9.08839	1.72428	7.99024	1.66822
1561.000	9.03055	1.71670	7.96892	1.66044
1562.000	9.06332	1.71851	7.96892	1.67815
1563.000	9.09610	1.70265	7.99994	1.66425
1564.000	9.06718	1.71849	7.98830	1.71154
1565.000	9.06911	1.71848	7.97279	1.64664
1566.000	9.05947	1.72834	7.98055	1.68204
1567.000	9.04597	1.73233	7.96504	1.67817
1568.000	9.05368	1.72444	7.96116	1.67228
1569.000	9.06718	1.75382	7.99412	1.67411
1570.000	9.03826	1.76966	8.00188	1.65243
1571.000	9.05561	1.78724	7.98830	1.63083
1572.000	9.07682	1.75770	8.00188	1.69967
1573.000	9.06140	1.74796	7.96698	1.64666
1574.000	9.03247	1.76969	8.01351	1.66419
1575.000	9.04983	1.74802	7.97861	1.64858
1576.000	9.02862	1.75990	7.97473	1.66041
1577.000	9.05368	1.74603	7.95922	1.62307
1578.000	9.05561	1.75780	7.96698	1.63288
1579.000	9.04983	1.77746	7.98637	1.64265
1580.000	9.04597	1.73429	7.98637	1.66233
1581.000	9.03440	1.78931	7.96310	1.70180
1582.000	9.06140	1.77544	7.97861	1.68795
1583.000	9.04983	1.77157	7.99606	1.65442
1584.000	9.04597	1.77159	8.00575	1.62879
1585.000	9.01898	1.79920	8.01932	1.63858
1586.000	9.03055	1.76185	8.03289	1.67789
1587.000	9.05368	1.82062	8.01932	1.63070
1588.000	9.03055	1.76774	8.01738	1.65236
1589.000	9.07489	1.76360	8.07747	1.62850
1590.000	9.05754	1.78920	8.01351	1.64648
1591.000	9.07104	1.79502	8.01157	1.63861
1592.000	9.05947	1.79900	8.02126	1.65038
1593.000	9.06140	1.75777	8.02708	1.63461
1594.000	9.02669	1.77561	8.03095	1.56964
1595.000	9.06718	1.75382	8.00769	1.62485
1596.000	9.05176	1.75782	8.00963	1.65436
1597.000	9.08067	1.75572	8.04646	1.61091
1598.000	9.07296	1.79893	8.01545	1.66812
1599.000	9.09224	1.80080	8.03289	1.64049
1600.000	9.08260	1.81066	8.01932	1.66417
1601.000	9.03440	1.77557	7.99218	1.63278
1602.000	9.10766	1.78306	7.96698	1.63485
1603.000	9.00933	1.77962	7.97667	1.66040
1604.000	9.06140	1.75385	8.02320	1.61888
1605.000	9.04019	1.80695	8.00188	1.65440
1606.000	9.05947	1.78134	7.99606	1.59143
1607.000	9.00933	1.79336	7.99800	1.61898
1608.000	9.01126	1.80906	8.02902	1.62082
1609.000	9.06140	1.78133	8.03483	1.64639
1610.000	9.06525	1.81467	8.03483	1.63064
1611.000	9.07104	1.81857	8.04452	1.61879
1612.000	9.06332	1.81468	8.04452	1.60895
1613.000	9.05561	1.83238	8.06390	1.58526
1614.000	9.04983	1.81671	8.01157	1.61499
1615.000	9.03633	1.79912	8.02320	1.63659
1616.000	9.01705	1.86202	8.01932	1.61496
1617.000	9.05368	1.76174	8.03677	1.63260
1618.000	9.09031	1.82828	8.03483	1.62474
1619.000	9.04983	1.80297	8.01932	1.62874
1620.000	9.06911	1.78718	8.09104	1.56744
1621.000	9.04212	1.82460	8.03483	1.57356
1622.000	9.02862	1.81486	8.03483	1.65229
1623.000	9.05754	1.83630	8.05034	1.62861
1624.000	9.07682	1.76947	8.02902	1.61689
1625.000	9.09224	1.83024	8.06972	1.65412
1626.000	9.07104	1.85193	8.03871	1.59913
1627.000	9.09417	1.82434	8.06778	1.61083
1628.000	9.08646	1.81653	8.06972	1.62460
1629.000	9.10766	1.83801	8.03871	1.68377
1630.000	9.10766	1.83801	8.04258	1.65226
1631.000	9.09802	1.77526	8.07359	1.58916
1632.000	9.05754	1.86966	8.01738	1.63268
1633.000	9.07875	1.81657	8.05809	1.59512
1634.000	9.06911	1.78325	8.04065	1.62668
1635.000	9.04790	1.80691	8.04258	1.64045
1636.000	9.07489	1.78715	8.06197	1.64628
1637.000	9.04212	1.82264	8.03289	1.61294
1638.000	9.04983	1.79120	8.03677	1.63851
1639.000	9.04212	1.79712	8.01351	1.62285
1640.000	9.08260	1.81655	8.02514	1.63855
1641.000	9.03826	1.81677	8.04840	1.58335
1642.000	9.05947	1.76956	8.02514	1.61100
1643.000	9.08260	1.77533	8.07941	1.66195
1644.000	9.06525	1.76561	8.03677	1.61882
1645.000	9.07296	1.78912	8.04646	1.64437
1646.000	9.04019	1.78732	8.04065	1.66014
1647.000	9.03826	1.74415	8.04258	1.63848
1648.000	9.04790	1.74606	8.04258	1.62077
1649.000	9.03633	1.77949	8.05615	1.67582
1650.000	9.04019	1.76965	8.06778	1.61870
1651.000	9.02090	1.78742	8.03095	1.63263
1652.000	9.01705	1.77369	8.03095	1.58145
1653.000	9.04597	1.76374	7.99606	1.67410
1654.000	9.06332	1.80879	8.02708	1.60902
1655.000	9.05368	1.78725	7.99412	1.67608
1656.000	9.02862	1.81682	8.04646	1.63650
1657.000	9.06140	1.78918	8.04258	1.65226
1658.000	9.03055	1.78344	8.01545	1.63466
1659.000	9.04597	1.78729	8.00188	1.64652
1660.000	9.02862	1.82271	8.02902	1.71333
1661.000	9.03826	1.81481	8.06390	1.68170
1662.000	9.07875	1.73806	8.06390	1.68170
1663.000	9.04212	1.75983	8.04646	1.66799
1664.000	9.05754	1.76761	8.06197	1.65022
1665.000	9.05754	1.78920	8.03095	1.71923
1666.000	9.02862	1.78149	8.03677	1.70740
1667.000	9.07296	1.70276	8.03289	1.67789
1668.000	9.03633	1.74219	8.03483	1.62671
1669.000	9.06332	1.79506	8.03871	1.62669
1670.000	9.03247	1.75595	8.05228	1.65813
1671.000	9.06525	1.78720	8.06584	1.66004
1672.000	9.05561	1.76762	8.05034	1.67191
1673.000	9.04790	1.75784	8.02708	1.66020
1674.000	9.03440	1.74220	8.04258	1.65817
1675.000	9.07296	1.81267	8.05809	1.62071
1676.000	9.04983	1.77550	8.06584	1.63839
1677.000	9.04404	1.79908	8.01932	1.64645
1678.000	9.05368	1.83632	8.03483	1.67788
1679.000	9.03055	1.80307	8.05615	1.66795
1680.000	9.04404	1.84226	8.08522	1.61863
1681.000	9.06718	1.76363	8.10848	1.66577
1682.000	9.04790	1.80887	8.09297	1.63631
1683.000	9.04983	1.81082	8.06972	1.64231
1684.000	9.06718	1.78522	8.03483	1.66410
1685.000	9.04983	1.75390	8.08328	1.61273
1686.000	9.08839	1.78512	8.09104	1.64813
1687.000	9.03055	1.75989	8.06972	1.64428
1688.000	9.04212	1.74216	8.05421	1.63647
1689.000	9.04983	1.76372	8.05034	1.63845
1690.000	9.07489	1.74201	8.02126	1.61692
1691.000	9.08839	1.74390	8.08522	1.65602
1692.000	9.05754	1.79116	8.05615	1.64827
1693.000	9.09224	1.82239	8.08522	1.61076
1694.000	9.07104	1.77735	8.11429	1.61261
1695.000	9.06332	1.82842	8.09491	1.63040
1696.000	9.04212	1.73824	8.06778	1.62067
1697.000	9.04212	1.74020	8.05034	1.66207
1698.000	9.04597	1.80103	8.11235	1.64804
1699.000	9.05947	1.76367	8.04840	1.65224
1700.000	9.05368	1.79510	8.07359	1.64230
1701.000	9.05368	1.70089	8.08135	1.55960
1702.000	9.04597	1.75785	8.03871	1.61094
1703.000	9.06718	1.72830	8.09104	1.63829
1704.000	9.04597	1.70878	8.07359	1.65410
1705.000	9.07296	1.73613	8.07166	1.61475
1706.000	9.05947	1.70086	8.07747	1.60095
1707.000	9.04019	1.71077	8.11429	1.58703
1708.000	9.03055	1.70296	8.10848	1.65593
1709.000	9.05947	1.70871	8.07359	1.63442
1710.000	9.07104	1.72436	8.10848	1.60673
1711.000	9.04790	1.72840	8.05615	1.60300
1712.000	9.06718	1.71064	8.07553	1.62261
1713.000	9.07104	1.72632	8.09685	1.63236
1714.000	9.07875	1.75376	8.11816	1.60866
1715.000	9.06140	1.74992	8.11429	1.66181
1716.000	9.05947	1.72049	8.12204	1.63029
1717.000	9.06525	1.72046	8.13366	1.62040
1718.000	9.08453	1.73803	8.08522	1.67964
1719.000	9.07296	1.70669	8.10266	1.61463
1720.000	9.06911	1.72044	8.05421	1.67977
1721.000	9.12693	1.69269	8.07166	1.56751
1722.000	9.07682	1.73807	8.07166	1.67379
1723.000	9.01705	1.73443	8.08328	1.62454
1724.000	9.07489	1.71649	8.13173	1.58302
1725.000	9.07489	1.77930	8.10266	1.65792
1726.000	9.08067	1.76160	8.07747	1.69542
1727.000	9.06140	1.76562	8.12785	1.61256
1728.000	9.06911	1.73222	8.10266	1.67170
1729.000	9.08260	1.71842	8.12204	1.64407
1730.000	9.06718	1.77148	8.13173	1.65977
1731.000	9.05947	1.73619	8.10072	1.65399
1732.000	9.06525	1.74402	8.09297	1.66386
1733.000	9.08453	1.72429	8.04646	1.69161
1734.000	9.09031	1.72230	8.09879	1.64219
1735.000	9.09610	1.71639	8.04452	1.64438
1736.000	9.08839	1.79297	8.09879	1.63629
1737.000	9.09802	1.75563	8.06584	1.64626
1738.000	9.08260	1.71645	8.11235	1.63033
1739.000	9.05947	1.71264	8.08716	1.65798
1740.000	9.09802	1.73601	8.12591	1.64405
1741.000	9.09417	1.72425	8.09879	1.65006
1742.000	9.04983	1.74998	8.12591	1.59879
1743.000	9.09610	1.73405	8.06778	1.65806
1744.000	9.09610	1.79489	8.12591	1.65389
1745.000	9.05368	1.72641	8.09297	1.67174
1746.000	9.08067	1.73020	8.10848	1.62444
1747.000	9.11152	1.70258	8.07747	1.63244
1748.000	9.07104	1.70866	8.11429	1.63819
1749.000	9.06911	1.68315	8.10654	1.63035
1750.000	9.06911	1.74400	8.09879	1.59299
1751.000	9.09224	1.76155	8.14916	1.66363
1752.000	9.06525	1.73028	8.14335	1.54362
1753.000	9.03826	1.70881	8.11623	1.61457
1754.000	9.07875	1.74395	8.13173	1.68338
1755.000	9.07104	1.70277	8.12398	1.62438
1756.000	9.07104	1.73810	8.16272	1.59274
1757.000	9.08453	1.69289	8.13173	1.60073
1758.000	9.10573	1.72812	8.11429	1.62245
1759.000	9.06332	1.75973	8.11623	1.64015
1760.000	9.08067	1.75768	8.09491	1.65992
1761.000	9.05176	1.72249	8.18209	1.61234
1762.000	9.09224	1.71248	8.12591	1.60666
1763.000	9.08646	1.72036	8.10848	1.63035
1764.000	9.07489	1.71060	8.08716	1.59304
1765.000	9.10573	1.69083	8.12979	1.64010
1766.000	9.12501	1.71821	8.10266	1.60675
1767.000	9.07682	1.71452	8.08716	1.65602
1768.000	9.10573	1.75167	8.15304	1.60458
1769.000	9.07296	1.74987	8.09491	1.61662
1770.000	9.07875	1.70273	8.10654	1.63429
1771.000	9.06718	1.72830	8.12398	1.62241
1772.000	9.12308	1.70645	8.13948	1.60464
1773.000	9.09802	1.71049	8.13173	1.59286
1774.000	9.10188	1.74580	8.08910	1.63830
1775.000	9.11923	1.73983	8.13560	1.58891
1776.000	9.08839	1.71054	8.11816	1.63424
1777.000	9.08260	1.69486	8.16466	1.60060
1778.000	9.13272	1.71229	8.13366	1.65582
1779.000	9.08453	1.74785	8.14529	1.67349
1780.000	9.08839	1.76942	8.12979	1.64600
1781.000	9.08260	1.73215	8.15110	1.64198
1782.000	9.08646	1.77139	8.10654	1.62642
1783.000	9.12115	1.73001	8.10266	1.67957
1784.000	9.12115	1.68487	8.13948	1.61251
1785.000	9.09610	1.65947	8.11623	1.64212
1786.000	9.08260	1.74393	8.10848	1.59295
1787.000	9.09417	1.72032	8.14141	1.64202
1788.000	9.13657	1.74955	8.15691	1.62031
1789.000	9.08260	1.72038	8.12398	1.64996
1790.000	9.10766	1.72222	8.10072	1.61070
1791.000	9.12308	1.72803	8.07747	1.63441
1792.000	9.09417	1.76154	8.12979	1.62829
1793.000	9.09610	1.75172	8.13560	1.64204
1794.000	9.09031	1.73997	8.13948	1.62235
1795.000	9.10381	1.73009	8.11235	1.65788
1796.000	9.12886	1.71819	8.11623	1.67951
1797.000	9.09224	1.68893	8.14141	1.56330
1798.000	9.10188	1.79879	8.13366	1.64795
1799.000	9.09417	1.71247	8.12979	1.63419
1800.000	9.10959	1.70847	8.15885	1.65375
1801.000	9.13272	1.73387	8.12979	1.65191
1802.000	9.14813	1.72791	8.17047	1.63206
1803.000	9.10188	1.73206	8.10460	1.57722
1804.000	9.12693	1.73390	8.16272	1.59471
1805.000	9.10959	1.69277	8.13366	1.66566
1806.000	9.10959	1.71436	8.12979	1.65781
1807.000	9.09610	1.76349	8.12591	1.62437
1808.000	9.08839	1.76745	8.15691	1.63015
1809.000	9.11730	1.75161	8.13560	1.68140
1810.000	9.10188	1.66926	8.12204	1.62439
1811.000	9.08067	1.67917	8.12204	1.64603
1812.000	9.06140	1.74403	8.13173	1.68141
1813.000	9.08839	1.72428	8.16079	1.59471
1814.000	9.06718	1.70671	8.17047	1.67338
1815.000	9.06911	1.77344	8.15497	1.64196
1816.000	9.09610	1.73601	8.17047	1.60255
1817.000	9.10381	1.74187	8.16272	1.57503
1818.000	9.07489	1.69294	8.15304	1.61049
1819.000	9.05754	1.79312	8.14916	1.61050
1820.000	9.08453	1.79887	8.10460	1.62249
1821.000	9.08453	1.74196	8.12785	1.61846
1822.000	9.11344	1.78499	8.11041	1.59295
1823.000	9.11344	1.79284	8.15497	1.63212
1824.000	9.08067	1.80086	8.14723	1.60461
1825.000	9.10959	1.74184	8.18016	1.60054
1826.000	9.09031	1.82043	8.17047	1.63009
1827.000	9.14621	1.77109	8.13754	1.60071
1828.000	9.07104	1.79502	8.14723	1.58690
1829.000	9.09417	1.77920	8.16853	1.61042
1830.000	9.13464	1.75741	8.17241	1.61631
1831.000	9.11730	1.83403	8.13560	1.61646
1832.000	9.08260	1.76945	8.18403	1.62414
1833.000	9.10188	1.78309	8.17822	1.58087
1834.000	9.10381	1.75953	8.13754	1.58890
1835.000	9.12308	1.82027	8.17047	1.60058
1836.000	9.09610	1.80274	8.17435	1.54547
1837.000	9.10573	1.78896	8.13560	1.57317
1838.000	9.10573	1.80662	8.18403	1.56314
1839.000	9.13272	1.77705	8.20146	1.57488
1840.000	9.07296	1.80678	8.16660	1.58879
1841.000	9.09224	1.78706	8.16466	1.54944
1842.000	9.07875	1.80479	8.16660	1.56911
1843.000	9.12693	1.81240	8.16853	1.62813
1844.000	9.09802	1.81058	8.16272	1.54551
1845.000	9.09995	1.80076	8.18597	1.55920
1846.000	9.10381	1.79878	8.15110	1.57311
1847.000	9.10766	1.83604	8.20146	1.57488
1848.000	9.14621	1.80053	8.22083	1.54135
1849.000	9.10959	1.81445	8.26537	1.59036
1850.000	9.11537	1.81442	8.22664	1.53543
1851.000	9.09995	1.79880	8.18209	1.58479
1852.000	9.10959	1.78501	8.21502	1.55711
1853.000	9.09224	1.82827	8.19565	1.56112
1854.000	9.08260	1.80281	8.17241	1.54154
1855.000	9.07682	1.82050	8.19953	1.53356
1856.000	9.09610	1.78704	8.17628	1.58088
1857.000	9.08067	1.80282	8.19372	1.54933
1858.000	9.11730	1.80852	8.20340	1.52961
1859.000	9.07875	1.83815	8.19759	1.51389
1860.000	9.11152	1.80659	8.19178	1.57885
1861.000	9.14235	1.78877	8.21308	1.55515
1862.000	9.11537	1.82619	8.18403	1.52575
1863.000	9.12693	1.82025	8.19372	1.52965
1864.000	9.08646	1.77335	8.19372	1.55720
1865.000	9.13464	1.79470	8.20727	1.53156
1866.000	9.11730	1.84384	8.22664	1.56887
1867.000	9.08646	1.80671	8.23438	1.53736
1868.000	9.12693	1.82221	8.19759	1.53160
1869.000	9.12693	1.80259	8.24213	1.54717
1870.000	9.12308	1.77513	8.19372	1.55326
1871.000	9.09995	1.80861	8.18597	1.54936
1872.000	9.08646	1.79690	8.19372	1.56310
1873.000	9.11730	1.78694	8.22858	1.54722
1874.000	9.12115	1.77122	8.20146	1.51781
1875.000	9.08839	1.79297	8.20921	1.49024
1876.000	9.09802	1.82432	8.21696	1.54333
1877.000	9.08260	1.81262	8.21502	1.51186
1878.000	9.09224	1.82827	8.24988	1.52943
1879.000	9.08453	1.81457	8.21696	1.50988
1880.000	9.12115	1.81831	8.26924	1.61198
1881.000	9.10188	1.83215	8.26343	1.52151
1882.000	9.10766	1.81446	8.19372	1.53752
1883.000	9.11152	1.84584	8.22277	1.55118
1884.000	9.10573	1.77914	8.24407	1.56290
1885.000	9.11537	1.79676	8.23051	1.51967
1886.000	9.11344	1.81639	8.22664	1.57084
1887.000	9.09224	1.82827	8.20146	1.58865
1888.000	9.12115	1.76141	8.20921	1.55123
1889.000	9.10573	1.74774	8.24213	1.54127
1890.000	9.11152	1.78304	8.21502	1.57876
1891.000	9.11537	1.83993	8.24988	1.54124
1892.000	9.13657	1.76525	8.24407	1.62979
1893.000	9.10381	1.77327	8.22277	1.59053
1894.000	9.10959	1.80267	8.22858	1.54329
1895.000	9.09802	1.79881	8.25568	1.59827
1896.000	9.14235	1.81036	8.25181	1.58451
1897.000	9.10766	1.80072	8.21889	1.51971
1898.000	9.11923	1.77319	8.24213	1.57275
1899.000	9.12501	1.80848	8.21889	1.55513
1900.000	9.13272	1.78490	8.22664	1.58068
1901.000	9.13464	1.80058	8.22277	1.54331
1902.000	9.12115	1.80065	8.24019	1.55701
1903.000	9.12308	1.80849	8.23245	1.57082
1904.000	9.08453	1.80869	8.21889	1.58661
1905.000	9.10188	1.82822	8.25956	1.56087
1906.000	9.10959	1.78109	8.20534	1.60437
1907.000	9.11152	1.79285	8.19565	1.61425
1908.000	9.09031	1.81651	8.22470	1.55117
1909.000	9.11537	1.82619	8.18597	1.58871
1910.000	9.10766	1.80072	8.24213	1.52159
1911.000	9.09031	1.79688	8.25375	1.57073
1912.000	9.12115	1.80065	8.23245	1.57475
1913.000	9.09417	1.76743	8.25375	1.51761
1914.000	9.07489	1.76360	8.21115	1.55516
1915.000	9.10959	1.74380	8.23438	1.55310
1916.000	9.07489	1.82051	8.21308	1.50793
1917.000	9.11730	1.77909	8.24988	1.53534
1918.000	9.10381	1.78700	8.24600	1.52158
1919.000	9.08260	1.76356	8.24988	1.54911
1920.000	9.11730	1.79478	8.22664	1.51772
1921.000	9.10959	1.74969	8.21889	1.58464
1922.000	9.09802	1.73404	8.25956	1.57071
1923.000	9.12115	1.79084	8.20340	1.57487
1924.000	9.09224	1.80865	8.26730	1.57265
1925.000	9.08646	1.80868	8.22083	1.58267
1926.000	9.10381	1.79878	8.20921	1.58075
1927.000	9.09031	1.74978	8.23051	1.56099
1928.000	9.11152	1.75164	8.24213	1.58258
1929.000	9.11344	1.78107	8.25375	1.60614
1930.000	9.05176	1.79315	8.21889	1.57481
1931.000	9.08646	1.76746	8.25181	1.54910
1932.000	9.10766	1.80268	8.24019	1.55898
1933.000	9.10188	1.76935	8.24794	1.55108
1934.000	9.09224	1.79884	8.22664	1.52165
1935.000	9.13079	1.75351	8.26730	1.53920
1936.000	9.14428	1.79661	8.22083	1.59841
1937.000	9.12693	1.79277	8.24213	1.53537
1938.000	9.11923	1.80262	8.20921	1.58075
1939.000	9.12115	1.73197	8.17241	1.54744
1940.000	9.11923	1.79085	8.22083	1.58660
1941.000	9.11344	1.76537	8.23632	1.57670
1942.000	9.09802	1.74778	8.21502	1.54531
1943.000	9.11537	1.77517	8.21115	1.57484
1944.000	9.09031	1.80866	8.25956	1.57071
1945.000	9.08453	1.81457	8.22277	1.56692
1946.000	9.10573	1.76933	8.20340	1.56700
1947.000	9.06332	1.77739	8.21502	1.59056
1948.000	9.11152	1.80463	8.23826	1.61014
1949.000	9.14235	1.76130	8.19759	1.56112
1950.000	9.12693	1.79866	8.21308	1.56106
1951.000	9.10959	1.78894	8.26730	1.60019
1952.000	9.11344	1.75359	8.26537	1.60216
1953.000	9.09417	1.77331	8.23632	1.59048
1954.000	9.14043	1.75150	8.21696	1.56301
1955.000	9.08646	1.76158	8.21308	1.59057
1956.000	9.10573	1.79877	8.18403	1.56904
1957.000	9.12501	1.76531	8.20340	1.57684
1958.000	9.12501	1.77512	8.23051	1.54131
1959.000	9.08260	1.81458	8.23632	1.58457
1960.000	9.08260	1.75571	8.23245	1.58656
1961.000	9.12501	1.73195	8.20921	1.57878
1962.000	9.10959	1.78501	8.25956	1.57268
1963.000	9.12115	1.76729	8.18597	1.58674
1964.000	9.13657	1.74563	8.21115	1.56500
1965.000	9.12115	1.76337	8.21889	1.56497
1966.000	9.12308	1.74177	8.23051	1.59837
1967.000	9.13657	1.72404	8.18016	1.60054
1968.000	9.10381	1.75168	8.25568	1.56482
1969.000	9.12115	1.75944	8.21115	1.59254
1970.000	9.11730	1.71236	8.19565	1.61032
1971.000	9.10381	1.75953	8.24600	1.59240
1972.000	9.10766	1.71633	8.26730	1.55494
1973.000	9.06911	1.75774	8.25762	1.61203
1974.000	9.08260	1.72234	8.18403	1.58281
1975.000	9.09610	1.75368	8.17047	1.59074
1976.000	9.09610	1.70461	8.23245	1.62197
1977.000	9.07875	1.71058	8.23245	1.64164
1978.000	9.06332	1.79309	8.20340	1.63980
1979.000	9.09224	1.76351	8.18209	1.64185
1980.000	9.09802	1.70853	8.19565	1.66147
1981.000	9.12115	1.72019	8.21502	1.56498
1982.000	9.16162	1.65132	8.22083	1.60038
1983.000	9.20208	1.52946	8.24794	1.56879
1984.000	9.22520	1.41358	8.29828	1.37776
1985.000	9.27142	1.33294	8.35054	1.23790
1986.000	9.30993	1.11890	8.34667	1.11199
1987.000	9.35036	0.96963	8.34086	0.94868
1988.000	9.33111	0.77538	8.41052	0.73797
1989.000	9.34843	0.74002	8.44728	0.61591
1990.000	9.32918	0.61051	8.47242	0.51553
1991.000	9.30608	0.41228	8.47436	0.39354
1992.000	9.29645	0.38873	8.46082	0.31091
1993.000	9.25409	0.36129	8.42987	0.25780
1994.000	9.21942	0.34561	8.43761	0.25189
1995.000	9.23483	0.35542	8.43567	0.23221
1996.000	9.23868	0.35345	8.40085	0.28734
1997.000	9.22520	0.48895	8.36408	0.29918
1998.000	9.19438	0.53220	8.34473	0.38776
1999.000	9.21749	0.54983	8.32344	0.37401
2000.000	9.20016	0.59895	8.33893	0.41926
2001.000	9.22712	0.60676	8.33505	0.48816
2002.000	9.20594	0.68730	8.30989	0.52756
2003.000	9.23483	0.69117	8.31183	0.55905
2004.000	9.20786	0.72853	8.31570	0.56692
2005.000	9.22520	0.70101	8.30215	0.61221
2006.000	9.25794	0.71076	8.35054	0.58655
2007.000	9.25601	0.69506	8.31763	0.57675
2008.000	9.27335	0.68324	8.36602	0.54323
2009.000	9.26949	0.70485	8.35634	0.57473
2010.000	9.30993	0.75580	8.35054	0.51176
2011.000	9.30415	0.73226	8.37956	0.55895
2012.000	9.29068	0.74406	8.39311	0.57074
2013.000	9.29453	0.73424	8.36021	0.58456
2014.000	9.28683	0.70874	8.35247	0.55702
2015.000	9.27335	0.75392	8.37376	0.50385
2016.000	9.26564	0.72841	8.34280	0.54326
2017.000	9.27335	0.66361	8.37376	0.53731
2018.000	9.25024	0.65973	8.36408	0.52552
2019.000	9.31378	0.65372	8.36408	0.49796
2020.000	9.32148	0.66745	8.36602	0.48025
2021.000	9.28490	0.64592	8.40278	0.49398
2022.000	9.28683	0.58506	8.39311	0.44085
2023.000	9.26179	0.63418	8.40859	0.45461
2024.000	9.26372	0.56154	8.40665	0.48413
2025.000	9.25601	0.60278	8.36795	0.43301
2026.000	9.29068	0.60469	8.38150	0.46055
2027.000	9.25794	0.53406	8.41052	0.39557
2028.000	9.24446	0.61262	8.37956	0.41331
2029.000	9.26949	0.57920	8.38924	0.41330
2030.000	9.29260	0.58701	8.39698	0.37787
2031.000	9.22712	0.60480	8.34860	0.45271
2032.000	9.24061	0.59103	8.37182	0.48221
2033.000	9.27720	0.54974	8.39117	0.37001
2034.000	9.25216	0.54585	8.36989	0.42907
2035.000	9.28297	0.57133	8.40859	0.40738
2036.000	9.28683	0.57132	8.37763	0.38773
2037.000	9.25409	0.54192	8.38343	0.41921
2038.000	9.29068	0.56150	8.35634	0.47632
2039.000	9.29260	0.53008	8.34860	0.48027
2040.000	9.29645	0.54382	8.36989	0.41332
2041.000	9.26564	0.54387	8.33893	0.43304
2042.000	9.27335	0.54582	8.38924	0.44282
2043.000	9.28297	0.53599	8.31957	0.47046
2044.000	9.28683	0.54580	8.37569	0.43103
2045.000	9.30415	0.57914	8.34473	0.43697
2046.000	9.28490	0.57329	8.31376	0.50984
2047.000	9.30223	0.53792	8.33505	0.47241
2048.000	9.29260	0.55757	8.37376	0.48417
2049.000	9.28683	0.52224	8.39891	0.39755
2050.000	9.30800	0.58306	8.37182	0.45072
2051.000	9.25601	0.52229	8.33893	0.45863
2052.000	9.28683	0.54972	8.35828	0.46648
2053.000	9.27335	0.56152	8.38537	0.44480
2054.000	9.27335	0.57330	8.37376	0.48417
2055.000	9.26372	0.55172	8.37376	0.44284
2056.000	9.24638	0.54193	8.35441	0.42712
2057.000	9.24638	0.53212	8.37763	0.44874
2058.000	9.29838	0.59093	8.34860	0.43893
2059.000	9.27335	0.56545	8.35634	0.47829
2060.000	9.29645	0.57523	8.31957	0.49211
2061.000	9.25987	0.61652	8.35247	0.47042
2062.000	9.25024	0.55371	8.35441	0.42318
2063.000	9.30030	0.57130	8.35441	0.44483
2064.000	9.28105	0.59685	8.32925	0.43502
2065.000	9.26757	0.60080	8.36795	0.42317
2066.000	9.25409	0.56352	8.39891	0.41133
2067.000	9.28105	0.61452	8.35634	0.45861
2068.000	9.27527	0.59882	8.37376	0.43300
2069.000	9.27912	0.62434	8.34860	0.49601
2070.000	9.30800	0.54184	8.36215	0.44482
2071.000	9.29453	0.56345	8.31376	0.50393
2072.000	9.31763	0.59482	8.31376	0.51377
2073.000	9.25794	0.57529	8.36408	0.47828
2074.000	9.28683	0.57328	8.33893	0.53145
2075.000	9.29453	0.57523	8.31570	0.57282
2076.000	9.30800	0.58699	8.33118	0.56492
2077.000	9.26179	0.56743	8.32538	0.59249
2078.000	9.26757	0.58313	8.34473	0.55113
2079.000	9.27527	0.58508	8.33118	0.57280
2080.000	9.26564	0.60669	8.33505	0.55901
2081.000	9.25024	0.55764	8.36795	0.49992
2082.000	9.29068	0.57524	8.36795	0.56881
2083.000	9.32148	0.55948	8.36795	0.52945
2084.000	9.27720	0.54581	8.36795	0.45466
2085.000	9.30030	0.58308	8.34086	0.52555
2086.000	9.31763	0.53397	8.34473	0.56097
2087.000	9.25794	0.57922	8.38924	0.49203
2088.000	9.29068	0.55561	8.34280	0.51570
2089.000	9.25987	0.52621	8.36795	0.54519
2090.000	9.24446	0.59888	8.39311	0.50973
2091.000	9.25409	0.53407	8.41633	0.45067
2092.000	9.25601	0.51443	8.37569	0.49007
2093.000	9.23868	0.53998	8.37956	0.52943
2094.000	9.27142	0.55171	8.36602	0.52551
2095.000	9.23290	0.53606	8.30989	0.58464
2096.000	9.21557	0.61856	8.35054	0.52750
2097.000	9.21942	0.60677	8.33312	0.52162
2098.000	9.22135	0.57143	8.35828	0.50978
2099.000	9.25024	0.59298	8.36215	0.51961
2100.000	9.21942	0.57732	8.37569	0.47433
2101.000	9.25409	0.61260	8.35441	0.56883
2102.000	9.23868	0.58514	8.33312	0.49997
2103.000	9.25794	0.59296	8.33893	0.46650
2104.000	9.25601	0.64205	8.35441	0.43499
2105.000	9.21171	0.61464	8.32731	0.52753
2106.000	9.25409	0.60082	8.34667	0.44287
2107.000	9.24061	0.56943	8.39504	0.43101
2108.000	9.22135	0.58713	8.37376	0.44284
2109.000	9.23483	0.61853	8.35828	0.47435
2110.000	9.24638	0.58317	8.38150	0.42315
2111.000	9.20401	0.62054	8.37569	0.45662
2112.000	9.26949	0.58705	8.38730	0.42905
2113.000	9.21171	0.57930	8.33893	0.45272
2114.000	9.27142	0.59687	8.38150	0.40150
2115.000	9.25216	0.58512	8.39311	0.40346
2116.000	9.25601	0.58119	8.34667	0.45665
2117.000	9.25601	0.58708	8.34086	0.42123
2118.000	9.25024	0.60476	8.36989	0.42907
2119.000	9.31186	0.54772	8.35441	0.39563
2120.000	9.28875	0.61843	8.32731	0.47636
2121.000	9.26949	0.56546	8.35247	0.45468
2122.000	9.30608	0.59288	8.35441	0.46648
2123.000	9.30030	0.60074	8.34280	0.39958
2124.000	9.25409	0.58708	8.35054	0.46452
2125.000	9.30800	0.61251	8.33893	0.44485
2126.000	9.27912	0.57133	8.36408	0.44482
2127.000	9.25794	0.60671	8.33505	0.43108
2128.000	9.30608	0.57718	8.33118	0.47438
2129.000	9.31763	0.58108	8.32344	0.49801
2130.000	9.26179	0.59688	8.32538	0.46258
2131.000	9.26372	0.58706	8.36021	0.45270
2132.000	9.26757	0.58313	8.34473	0.47043
2133.000	9.28297	0.59292	8.34473	0.44681
2134.000	9.25409	0.58315	8.31957	0.48030
2135.000	9.27142	0.58901	8.33893	0.50193
2136.000	9.28683	0.59291	8.33312	0.48816
2137.000	9.30608	0.57718	8.32925	0.45470
2138.000	9.23675	0.61852	8.30602	0.48426
2139.000	9.27142	0.61061	8.35247	0.45074
2140.000	9.30993	0.56343	8.34667	0.46846
2141.000	9.26757	0.55761	8.36795	0.43694
2142.000	9.30415	0.54970	8.37569	0.45858
2143.000	9.28875	0.59291	8.35441	0.40547
2144.000	9.27912	0.57329	8.36602	0.46844
2145.000	9.25601	0.59886	8.33893	0.48422
2146.000	9.26949	0.58902	8.36989	0.43891
2147.000	9.28875	0.60469	8.36602	0.45860
2148.000	9.25987	0.58903	8.37182	0.46646
2149.000	9.22712	0.59105	8.36795	0.46056
2150.000	9.21749	0.56554	8.37376	0.43103
2151.000	9.22712	0.56945	8.36408	0.41727
2152.000	9.21749	0.58910	8.37569	0.41135
2153.000	9.21171	0.58126	8.37569	0.48023
2154.000	9.22905	0.62835	8.37569	0.40938
2155.000	9.22327	0.56946	8.37956	0.42709
2156.000	9.24446	0.60477	8.38924	0.46644
2157.000	9.25024	0.54389	8.38924	0.44282
2158.000	9.25794	0.54977	8.39891	0.40739
2159.000	9.24253	0.55961	8.34667	0.46649
2160.000	9.23098	0.58123	8.35054	0.48814
2161.000	9.28875	0.50849	8.35828	0.49010
2162.000	9.21557	0.54787	8.34280	0.47831
2163.000	9.25216	0.48499	8.40665	0.50381
2164.000	9.22520	0.51840	8.36408	0.52552
2165.000	9.27720	0.54581	8.36021	0.53536
2166.000	9.25409	0.50854	8.36408	0.51567
2167.000	9.24253	0.50267	8.33505	0.50784
2168.000	9.25601	0.47124	8.38343	0.52943
2169.000	9.28297	0.55758	8.34086	0.53539
2170.000	9.28105	0.54777	8.34860	0.53341
2171.000	9.26564	0.49675	8.32538	0.57674
2172.000	9.25987	0.50854	8.36021	0.52355
2173.000	9.28297	0.51047	8.35247	0.55309
2174.000	9.30223	0.53792	8.38150	0.55304
2175.000	9.30800	0.56932	8.35054	0.57867
2176.000	9.29645	0.55364	8.38343	0.56682
2177.000	9.29068	0.56739	8.36602	0.54716
2178.000	9.29260	0.58898	8.38924	0.51367
2179.000	9.27335	0.57723	8.36989	0.50386
2180.000	9.25216	0.59101	8.38924	0.52548
2181.000	9.30223	0.57522	8.34473	0.47240
2182.000	9.30608	0.61055	8.35054	0.53144
2183.000	9.29260	0.58309	8.34860	0.52357
2184.000	9.31956	0.58893	8.43567	0.48016
2185.000	9.30608	0.56147	8.39698	0.53728
2186.000	9.31763	0.65175	8.38924	0.53729
2187.000	9.31956	0.53986	8.39891	0.52350
2188.000	9.34266	0.55749	8.34860	0.54522
2189.000	9.35613	0.58691	8.36989	0.50189
2190.000	9.34458	0.55945	8.39891	0.53728
2191.000	9.33688	0.62227	8.40278	0.55105
2192.000	9.33496	0.55946	8.39311	0.49989
2193.000	9.33688	0.55553	8.36021	0.52552
2194.000	9.30608	0.55755	8.41052	0.55103
2195.000	9.31571	0.56735	8.41052	0.49397
2196.000	9.29260	0.50456	8.33893	0.55310
2197.000	9.31571	0.53005	8.32925	0.52753
2198.000	9.32726	0.53396	8.38150	0.50581
2199.000	9.31956	0.49667	8.36602	0.54716
2200.000	9.29838	0.52615	8.32538	0.53147
2201.000	9.31571	0.49275	8.32925	0.57280
2202.000	9.35228	0.53981	8.35634	0.53733
2203.000	9.36575	0.53586	8.38924	0.51958
2204.000	9.35805	0.52998	8.38537	0.50974
2205.000	9.34651	0.50448	8.33893	0.58656
2206.000	9.33881	0.55357	8.32925	0.52753
2207.000	9.30608	0.58699	8.29441	0.55710
2208.000	9.36190	0.50839	8.35441	0.54324
2209.000	9.32341	0.51826	8.34473	0.49602
2210.000	9.32918	0.50451	8.33118	0.52556
2211.000	9.31571	0.50649	8.37182	0.47827
2212.000	9.31378	0.48490	8.35828	0.49206
2213.000	9.34266	0.49468	8.33699	0.52555
2214.000	9.28105	0.49476	8.32151	0.49605
2215.000	9.36575	0.49268	8.36408	0.47434
2216.000	9.35036	0.50840	8.36602	0.47828
2217.000	9.33111	0.53984	8.36795	0.47434
2218.000	9.36575	0.50446	8.34667	0.48421
2219.000	9.34843	0.49859	8.40085	0.47036
2220.000	9.37153	0.51622	8.35054	0.48814
2221.000	9.35228	0.51822	8.39504	0.51170
2222.000	9.34073	0.51823	8.37569	0.52353
2223.000	9.30993	0.52221	8.37569	0.45662
2224.000	9.34266	0.52216	8.35441	0.54718
2225.000	9.35805	0.48288	8.36989	0.48221
2226.000	9.31956	0.49667	8.36215	0.55504
2227.000	9.32533	0.54181	8.36215	0.50977
2228.000	9.32341	0.51041	8.35247	0.52947
2229.000	9.35805	0.55157	8.36215	0.54717
2230.000	9.32341	0.55948	8.36021	0.51765
2231.000	9.31571	0.54575	8.40472	0.49988
2232.000	9.33881	0.48879	8.39117	0.55697
2233.000	9.30223	0.52614	8.33893	0.58460
2234.000	9.32726	0.53788	8.34280	0.57475
2235.000	9.33111	0.52414	8.33893	0.54720
2236.000	9.32533	0.52218	8.30602	0.55118
2237.000	9.31378	0.50453	8.38150	0.54517
2238.000	9.37538	0.49855	8.40278	0.48807
2239.000	9.29645	0.49081	8.36795	0.53535
2240.000	9.31571	0.52809	8.36021	0.48025
2241.000	9.31571	0.49864	8.36021	0.50781
2242.000	9.33688	0.53198	8.38150	0.54517
2243.000	9.31571	0.53790	8.35828	0.55898
2244.000	9.35228	0.52214	8.34086	0.50193
2245.000	9.34073	0.51823	8.36602	0.50583
2246.000	9.32918	0.53592	8.33893	0.50390
2247.000	9.33303	0.53002	8.39117	0.53138
2248.000	9.35421	0.55354	8.39891	0.50185
2249.000	9.35421	0.51821	8.37763	0.49007
2250.000	9.30993	0.55165	8.42600	0.51756
2251.000	9.38692	0.55349	8.37182	0.50976
2252.000	9.30608	0.57129	8.39698	0.52153
2253.000	9.36768	0.49660	8.38730	0.49596
2254.000	9.35998	0.51820	8.40085	0.47036
2255.000	9.35421	0.55354	8.36795	0.51370
2256.000	9.33303	0.54573	8.39891	0.52350
2257.000	9.31571	0.52612	8.40085	0.48611
2258.000	9.33496	0.50843	8.35054	0.52750
2259.000	9.32726	0.55162	8.33312	0.50784
2260.000	9.32918	0.55358	8.34667	0.54325
2261.000	9.36190	0.57512	8.37376	0.50779
2262.000	9.30993	0.55558	8.34473	0.48027
2263.000	9.30030	0.58896	8.38924	0.54516
2264.000	9.33496	0.51432	8.34473	0.48421
2265.000	9.30223	0.53792	8.34860	0.55899
2266.000	9.30415	0.55166	8.36795	0.53338
2267.000	9.32726	0.50255	8.36602	0.53338
2268.000	9.32533	0.51237	8.35634	0.54914
2269.000	9.34458	0.49664	8.34860	0.49798
2270.000	9.32533	0.50059	8.35247	0.48617
2271.000	9.33881	0.55357	8.38150	0.54320
2272.000	9.32533	0.59481	8.38537	0.56878
2273.000	9.32148	0.56930	8.40472	0.47233
2274.000	9.36383	0.53586	8.34280	0.57475
2275.000	9.29838	0.60860	8.34086	0.49405
2276.000	9.15777	0.59313	8.25568	0.49022
2277.000	9.02669	0.62675	8.25181	0.40361
2278.000	8.82410	0.60547	8.09685	0.38998
2279.000	8.61356	0.63531	7.95728	0.51423
2280.000	8.37182	0.60619	7.68951	0.40416
2281.000	7.98249	0.64028	7.47971	0.37083
2282.000	7.64485	0.65854	7.16270	0.32767
2283.000	7.20940	0.66116	6.83549	0.39703
2284.000	6.70877	0.68360	6.41219	0.40132
2285.000	6.39267	0.72950	6.10940	0.41738
2286.000	5.99797	0.66674	5.77496	0.43743
2287.000	5.63402	0.69488	5.42641	0.57433
2288.000	5.35586	0.66946	5.08726	0.48350
2289.000	4.97151	0.64411	4.77524	0.44011
2290.000	4.66724	0.72172	4.50223	0.54737
2291.000	4.29783	0.59910	4.25065	0.49796
2292.000	3.99103	0.60132	4.02841	0.49810
2293.000	3.72338	0.59356	3.74503	0.52805
2294.000	3.50874	0.49443	3.49298	0.46664
2295.000	3.37873	0.61762	3.22109	0.57601
2296.000	3.23489	0.62764	3.01018	0.57811
2297.000	3.04961	0.55226	2.80510	0.63186
2298.000	3.02398	0.57611	2.61968	0.62401
2299.000	2.95103	0.63376	2.43025	0.68372
2300.000	2.90173	0.66558	2.34342	0.74736
2301.000	2.91357	0.61988	2.32960	0.79507
2302.000	2.94511	0.67548	2.27631	0.79311
2303.000	3.02792	0.71516	2.28223	0.72155
2304.000	3.07129	0.71116	2.34144	0.80301
2305.000	3.18168	0.79847	2.41841	0.81091
2306.000	3.24868	0.81232	2.47564	0.88838
2307.000	3.35706	0.85393	2.57035	0.88235
2308.000	3.41222	0.83998	2.70845	0.84848
2309.000	3.44374	0.80819	2.75382	0.86037
2310.000	3.48904	0.78432	2.81693	0.86231
2311.000	3.53238	0.76046	2.87807	0.74108
2312.000	3.57767	0.76440	2.85638	0.73116
2313.000	3.55404	0.67905	2.88596	0.70135
2314.000	3.54813	0.64729	2.87215	0.64771
2315.000	3.51859	0.65326	2.84257	0.61793
2316.000	3.52253	0.61752	2.74396	0.57228
2317.000	3.47526	0.60365	2.74987	0.59215
2318.000	3.38464	0.66328	2.69267	0.54449
2319.000	3.32750	0.60970	2.60784	0.53856
2320.000	3.28218	0.65144	2.59206	0.46703
2321.000	3.22306	0.65148	2.47959	0.48694
2322.000	3.15803	0.66741	2.44604	0.47503
2323.000	3.10283	0.69723	2.35131	0.48301
2324.000	3.08115	0.64362	2.30394	0.53074
2325.000	3.01609	0.71120	2.29210	0.43334
2326.000	2.94906	0.67945	2.27631	0.47906
2327.000	2.91159	0.62385	2.21709	0.49300
2328.000	2.92342	0.68146	2.20722	0.53276
2329.000	2.86624	0.64772	2.17366	0.51090
2330.000	2.84257	0.67157	2.17958	0.50494
2331.000	2.84454	0.64376	2.18945	0.54668
2332.000	2.87215	0.62387	2.16971	0.55265
2333.000	2.84454	0.69541	2.15984	0.56060
2334.000	2.87215	0.67553	2.17958	0.59837
2335.000	2.94906	0.70528	2.18945	0.60631
2336.000	2.98455	0.72115	2.18748	0.57451
2337.000	3.01018	0.72113	2.22696	0.65996
2338.000	3.05355	0.69727	2.22499	0.61425
2339.000	3.06341	0.67342	2.20130	0.58842
2340.000	3.07721	0.71711	2.23288	0.61027
2341.000	3.10875	0.71709	2.22893	0.65201
2342.000	3.17576	0.72698	2.19538	0.58842
2343.000	3.16985	0.73691	2.21314	0.64407
2344.000	3.15211	0.69522	2.23091	0.67785
2345.000	3.13437	0.73694	2.24078	0.67984
2346.000	3.15014	0.73891	2.23683	0.63611
2347.000	3.19350	0.77661	2.26644	0.65200
2348.000	3.16000	0.74883	2.23091	0.66990
2349.000	3.21321	0.72695	2.25460	0.65796
2350.000	3.18956	0.74683	2.24867	0.67387
2351.000	3.17971	0.76669	2.26644	0.66989
2352.000	3.15803	0.75281	2.24867	0.66194
2353.000	3.18365	0.77662	2.27039	0.72355
2354.000	3.16788	0.72897	2.27039	0.64206
2355.000	3.17774	0.79450	2.27828	0.65199
2356.000	3.15605	0.77664	2.26447	0.62616
2357.000	3.14817	0.77268	2.25854	0.65399
2358.000	3.21321	0.76071	2.30197	0.65198
2359.000	3.19547	0.73689	2.26052	0.65597
2360.000	3.18956	0.77662	2.26052	0.61026
2361.000	3.17971	0.77662	2.28420	0.64603
2362.000	3.18759	0.79052	2.29013	0.62018
2363.000	3.17182	0.74287	2.28420	0.66193
2364.000	3.17379	0.75280	2.28026	0.64205
2365.000	3.20533	0.80044	2.26841	0.62218
2366.000	3.15605	0.73493	2.25854	0.61622
2367.000	3.18956	0.77066	2.22104	0.64407
2368.000	3.20533	0.77065	2.22893	0.63214
2369.000	3.16985	0.77067	2.26249	0.59237
2370.000	3.17182	0.73492	2.23683	0.58244
2371.000	3.16985	0.74088	2.19932	0.61028
2372.000	3.14423	0.76473	2.23486	0.62816
2373.000	3.15803	0.79452	2.24867	0.65797
2374.000	3.14817	0.72501	2.16971	0.59638
2375.000	3.16197	0.78260	2.15984	0.63614
2376.000	3.16000	0.76870	2.21512	0.65003
2377.000	3.16394	0.74287	2.22301	0.61425
2378.000	3.12846	0.79454	2.17761	0.61824
2379.000	3.12058	0.74290	2.21512	0.62419
2380.000	3.16985	0.74684	2.13615	0.67591
2381.000	3.12846	0.70516	2.17366	0.68782
2382.000	3.15211	0.76672	2.19735	0.66992
2383.000	3.10283	0.79853	2.20525	0.64805
2384.000	3.13240	0.72502	2.23683	0.67189
2385.000	3.15408	0.74288	2.21314	0.66991
2386.000	3.13832	0.74885	2.16774	0.67788
2387.000	3.14620	0.73693	2.17366	0.70173
2388.000	3.17379	0.76273	2.19932	0.70172
2389.000	3.12846	0.74488	2.17563	0.65402
2390.000	3.10678	0.73497	2.18550	0.62619
2391.000	3.15605	0.75678	2.20327	0.67786
2392.000	3.17774	0.82032	2.21906	0.65798
2393.000	3.15211	0.78658	2.12825	0.68784
2394.000	3.14620	0.78261	2.20525	0.67389
2395.000	3.11466	0.77469	2.18156	0.70769
2396.000	3.15605	0.75678	2.19538	0.69576
2397.000	3.16394	0.78657	2.17958	0.69576
2398.000	3.16394	0.80444	2.20722	0.70569
2399.000	3.13437	0.76276	2.20525	0.67985
2400.000	3.15605	0.73096	2.21314	0.65600
2401.000	3.13240	0.77070	2.18748	0.65799
2402.000	3.16788	0.76869	2.20130	0.72159
2403.000	3.15408	0.78260	2.19340	0.64607
2404.000	3.14620	0.75679	2.20525	0.65202
2405.000	3.11466	0.77866	2.17169	0.64608
2406.000	3.12255	0.78064	2.23288	0.67785
2407.000	3.20139	0.78058	2.17366	0.65204
2408.000	3.13043	0.78659	2.18353	0.64607
2409.000	3.17379	0.81238	2.21709	0.71165
2410.000	3.19350	0.77860	2.21906	0.64407
2411.000	3.15803	0.75678	2.20919	0.66991
2412.000	3.13634	0.78857	2.18748	0.66595
2413.000	3.17182	0.78060	2.18945	0.71166
2414.000	3.22306	0.82227	2.19340	0.66793
2415.000	3.16591	0.78259	2.22499	0.67189
2416.000	3.18168	0.79053	2.22104	0.67786
2417.000	3.13240	0.77467	2.20327	0.67389
2418.000	3.13832	0.75282	2.22499	0.63413
2419.000	3.15605	0.76671	2.17169	0.67589
2420.000	3.13043	0.79851	2.18748	0.68384
2421.000	3.13634	0.76673	2.21314	0.64009
2422.000	3.12255	0.80050	2.15194	0.62621
2423.000	3.15211	0.78658	2.18156	0.62023
2424.000	3.16394	0.77862	2.22893	0.65400
2425.000	3.13240	0.74687	2.18748	0.66197
2426.000	3.13240	0.81241	2.17761	0.65005
2427.000	3.15211	0.80644	2.19735	0.61625
2428.000	3.16788	0.85607	2.17366	0.68980
2429.000	3.15803	0.80445	2.20130	0.60631
2430.000	3.17576	0.81436	2.16379	0.63415
2431.000	3.17576	0.84018	2.16181	0.64608
2432.000	3.14620	0.82233	2.18156	0.69974
2433.000	3.14620	0.84418	2.18550	0.66396
2434.000	3.15605	0.85211	2.18945	0.72955
2435.000	3.15014	0.82828	2.19932	0.69576
2436.000	3.16000	0.85807	2.18156	0.65203
2437.000	3.12649	0.79255	2.21709	0.65798
2438.000	3.15605	0.82828	2.18550	0.68185
2439.000	3.15803	0.80246	2.17958	0.64408
2440.000	3.18562	0.84414	2.20525	0.65004
2441.000	3.16394	0.82033	2.19340	0.68582
2442.000	3.08509	0.81443	2.16576	0.65005
2443.000	3.14620	0.84418	2.16971	0.65999
2444.000	3.20533	0.82030	2.17366	0.64210
2445.000	3.14620	0.84616	2.18748	0.65203
2446.000	3.13634	0.80645	2.17366	0.72558
2447.000	3.17379	0.84812	2.13615	0.66199
2448.000	3.14226	0.80843	2.18550	0.67589
2449.000	3.13634	0.87596	2.17169	0.64210
2450.000	3.16788	0.83621	2.16971	0.63614
2451.000	3.13043	0.81042	2.18353	0.63414
2452.000	3.15605	0.82828	2.17563	0.63812
2453.000	3.16394	0.84019	2.14800	0.65404
2454.000	3.15803	0.80047	2.17761	0.63812
2455.000	3.17971	0.84613	2.16181	0.67987
2456.000	3.14423	0.82630	2.17958	0.67191
2457.000	3.15014	0.80842	2.16576	0.64011
2458.000	3.14423	0.79651	2.17366	0.61029
2459.000	3.17379	0.81436	2.20327	0.64209
2460.000	3.13832	0.83624	2.18550	0.70173
2461.000	3.15014	0.80247	2.19340	0.64010
2462.000	3.13832	0.81240	2.18748	0.64408
2463.000	3.18168	0.80244	2.13615	0.70374
2464.000	3.16591	0.83423	2.17761	0.63216
2465.000	3.16197	0.82430	2.17563	0.60831
2466.000	3.14817	0.81836	2.16181	0.62620
2467.000	3.13043	0.83426	2.16774	0.60632
2468.000	3.15408	0.84814	2.15589	0.62024
2469.000	3.14620	0.86801	2.18550	0.65004
2470.000	3.13832	0.80843	2.18156	0.62421
2471.000	3.18365	0.74882	2.20919	0.65799
2472.000	3.11072	0.87399	2.16971	0.67987
2473.000	3.16394	0.84416	2.18550	0.66595
2474.000	3.09692	0.78066	2.14997	0.70770
2475.000	3.10283	0.78860	2.12233	0.66796
2476.000	3.16394	0.81040	2.19735	0.66594
2477.000	3.14226	0.79453	2.15984	0.61825
2478.000	3.15211	0.84417	2.16181	0.62620
2479.000	3.13437	0.80844	2.13615	0.66398
2480.000	3.12255	0.80447	2.18156	0.59836
2481.000	3.14029	0.83624	2.18748	0.66595
2482.000	3.12452	0.76276	2.18550	0.62619
2483.000	3.11466	0.78263	2.22301	0.70966
2484.000	3.10283	0.74490	2.16576	0.64210
2485.000	3.13240	0.81241	2.15194	0.62422
2486.000	3.15408	0.80445	2.15787	0.63018
2487.000	3.10875	0.81441	2.17366	0.71564
2488.000	3.09889	0.80449	2.12825	0.64609
2489.000	3.13240	0.79056	2.18353	0.61228
2490.000	3.14817	0.76275	2.15194	0.66199
2491.000	3.10678	0.76476	2.13615	0.63019
2492.000	3.15605	0.74288	2.16774	0.64210
2493.000	3.10086	0.76675	2.10061	0.66996
2494.000	3.09692	0.81442	2.12430	0.65007
2495.000	3.11466	0.71312	2.14800	0.62422
2496.000	3.14423	0.74289	2.13615	0.63416
2497.000	3.04764	0.71515	2.13418	0.64808
2498.000	3.09889	0.75086	2.17366	0.66595
2499.000	3.08509	0.70718	2.17366	0.69378
2500.000	3.07918	0.65752	2.13615	0.68585
2501.000	3.10283	0.73299	2.11838	0.65405
2502.000	3.12452	0.73694	2.17563	0.69775
2503.000	3.07721	0.72109	2.14800	0.70572
2504.000	3.09692	0.73299	2.19340	0.67389
2505.000	3.10086	0.68929	2.18945	0.70570
2506.000	3.05749	0.72904	2.15392	0.66596
2507.000	3.05552	0.71117	2.14602	0.68584
2508.000	3.03581	0.66947	2.15984	0.67590
2509.000	3.05749	0.71315	2.15194	0.64410
2510.000	3.02595	0.69530	2.16576	0.65204
2511.000	3.07721	0.65554	2.15984	0.67788
2512.000	3.08115	0.73896	2.15984	0.67192
2513.000	3.06735	0.68534	2.13023	0.65802
2514.000	3.06932	0.70917	2.12036	0.68188
2515.000	3.10283	0.72901	2.13023	0.70573
2516.000	3.06144	0.71911	2.18748	0.72359
2517.000	3.04764	0.73700	2.15787	0.67789
2518.000	3.08115	0.71314	2.14997	0.66994
2519.000	3.06341	0.70918	2.15787	0.66397
2520.000	3.12452	0.73098	2.13812	0.69976
2521.000	3.06341	0.72507	2.14800	0.70373
2522.000	3.04369	0.71714	2.14602	0.69777
2523.000	3.02595	0.63372	2.15194	0.70373
2524.000	3.06144	0.71315	2.15194	0.73156
2525.000	3.05158	0.68535	2.16379	0.65999
2526.000	3.05749	0.66548	2.15392	0.68981
2527.000	3.03778	0.68933	2.12430	0.72163
2528.000	3.05749	0.70521	2.15589	0.70770
2529.000	3.07721	0.65554	2.13812	0.70175
2530.000	3.03975	0.67543	2.09271	0.68785
2531.000	3.08115	0.73300	2.19735	0.72160
2532.000	3.08312	0.70916	2.16379	0.69180
2533.000	3.05355	0.71713	2.14800	0.71168
2534.000	3.03384	0.66947	2.17761	0.72161
2535.000	3.05552	0.68535	2.15392	0.70572
2536.000	3.08312	0.69725	2.14997	0.67590
2537.000	3.05158	0.72309	2.16181	0.69776
2538.000	3.01215	0.69133	2.15984	0.73752
2539.000	3.03975	0.72111	2.14800	0.71963
2540.000	3.02398	0.70722	2.14405	0.70970
2541.000	3.03975	0.67145	2.15589	0.70571
2542.000	3.05158	0.66747	2.18353	0.68582
2543.000	3.08904	0.70717	2.11246	0.70971
2544.000	3.03778	0.62577	2.15392	0.71963
2545.000	3.03778	0.67145	2.14800	0.73355
2546.000	3.07721	0.68533	2.15787	0.69180
2547.000	3.01412	0.69531	2.17761	0.72757
2548.000	3.03384	0.70920	2.18945	0.71762
2549.000	3.07918	0.70519	2.21709	0.70569
2550.000	3.09101	0.68532	2.16379	0.71962
2551.000	3.05158	0.75090	2.13220	0.70573
2552.000	3.04961	0.68138	2.17366	0.71366
2553.000	3.02398	0.69729	2.15589	0.67590
2554.000	3.03187	0.70523	2.15984	0.72360
2555.000	3.04961	0.70521	2.13220	0.71964
2556.000	3.04567	0.69727	2.15194	0.70770
2557.000	3.05749	0.72110	2.12233	0.71964
2558.000	3.03581	0.69926	2.13418	0.68783
2559.000	3.08115	0.69129	2.14405	0.70970
2560.000	3.01018	0.64565	2.15589	0.68981
2561.000	3.05552	0.67542	2.13418	0.71169
2562.000	3.04961	0.70521	2.15194	0.68186
2563.000	3.07327	0.69328	2.12628	0.66796
2564.000	3.01609	0.67743	2.13023	0.69778
2565.000	3.06341	0.68534	2.11048	0.67791
2566.000	3.07327	0.62575	2.15392	0.71168
2567.000	3.05947	0.66151	2.16379	0.63415
2568.000	3.05552	0.68137	2.13220	0.68982
2569.000	3.04567	0.65159	2.13418	0.66199
2570.000	3.01807	0.67941	2.11246	0.63815
2571.000	3.06341	0.68733	2.11048	0.64610
2572.000	3.04764	0.67939	2.12430	0.60236
2573.000	3.04369	0.68933	2.13220	0.64212
2574.000	3.05749	0.67740	2.09271	0.66797
2575.000	3.04961	0.69131	2.14010	0.68783
2576.000	3.06932	0.71315	2.12233	0.68983
2577.000	3.02989	0.65358	2.14405	0.62025
2578.000	3.07129	0.71116	2.10456	0.66002
2579.000	3.05355	0.69528	2.12825	0.65802
2580.000	3.04172	0.69330	2.13023	0.68982
2581.000	3.06538	0.68137	2.15787	0.68584
2582.000	3.08904	0.70519	2.11246	0.67592
2583.000	3.05355	0.70124	2.14207	0.64808
2584.000	3.04961	0.69727	2.12628	0.66597
2585.000	3.03975	0.63768	2.11641	0.63417
2586.000	3.07524	0.72506	2.11838	0.67194
2587.000	3.08509	0.66348	2.14010	0.62820
2588.000	3.01018	0.62976	2.14405	0.65006
2589.000	3.01412	0.69332	2.15589	0.66397
2590.000	3.02792	0.70324	2.14997	0.63217
2591.000	2.98258	0.64765	2.13812	0.66000
2592.000	3.06144	0.64959	2.12430	0.67591
2593.000	3.02398	0.63372	2.13812	0.63019
2594.000	3.03384	0.68536	2.10061	0.61629
2595.000	3.03778	0.65954	2.11443	0.62423
2596.000	3.01807	0.64962	2.14800	0.63217
2597.000	3.02792	0.71715	2.11246	0.59442
2598.000	3.07129	0.67143	2.13220	0.61627
2599.000	3.03384	0.64563	2.13615	0.60037
2600.000	3.04567	0.72707	2.15589	0.62819
2601.000	3.08115	0.68732	2.13220	0.64410
2602.000	3.01807	0.68934	2.14800	0.64012
2603.000	3.04567	0.67741	2.13615	0.61429
2604.000	2.99835	0.66353	2.13418	0.60037
2605.000	3.02004	0.65160	2.14405	0.60236
2606.000	3.01412	0.62777	2.14997	0.64012
2607.000	3.02792	0.73502	2.12825	0.60832
2608.000	3.02004	0.72311	2.14997	0.62223
2609.000	3.02792	0.68735	2.15589	0.61229
2610.000	3.02201	0.63968	2.13812	0.61627
2611.000	3.04567	0.66152	2.12628	0.61628
2612.000	3.06538	0.67144	2.11838	0.61429
2613.000	3.03778	0.65954	2.12036	0.64610
2614.000	3.00821	0.68736	2.12825	0.55068
2615.000	3.03384	0.69331	2.14207	0.61031
2616.000	3.00624	0.70723	2.12430	0.62820
2617.000	3.04567	0.68535	2.14207	0.60832
2618.000	3.01609	0.70722	2.14800	0.64410
2619.000	3.06932	0.68732	2.14602	0.57850
2620.000	2.99441	0.70922	2.14405	0.66000
2621.000	3.04961	0.75686	2.15787	0.66000
2622.000	3.06144	0.71911	2.15392	0.60633
2623.000	3.05552	0.67542	2.16181	0.62819
2624.000	3.02398	0.70126	2.17563	0.62818
2625.000	3.00426	0.66949	2.16181	0.62421
2626.000	3.03975	0.67741	2.15392	0.62223
2627.000	3.04961	0.74891	2.13418	0.61826
2628.000	3.04961	0.75686	2.14207	0.62223
2629.000	3.03778	0.72310	2.12036	0.62821
2630.000	3.03187	0.69331	2.17563	0.60632
2631.000	3.02595	0.67742	2.13023	0.57851
2632.000	3.03187	0.75687	2.16576	0.59440
2633.000	3.03384	0.72906	2.14405	0.58248
2634.000	3.02989	0.74297	2.14010	0.63814
2635.000	3.02201	0.68735	2.13023	0.58049
2636.000	3.00032	0.70922	2.15984	0.60235
2637.000	3.02792	0.73105	2.17761	0.64607
2638.000	3.04172	0.68337	2.13418	0.61826
2639.000	3.05947	0.72110	2.16379	0.60235
2640.000	3.06735	0.75089	2.14602	0.59440
2641.000	3.03975	0.70721	2.14207	0.62025
2642.000	3.03581	0.72310	2.14602	0.58248
2643.000	3.01018	0.72312	2.14997	0.59838
2644.000	3.01215	0.73305	2.13418	0.61627
2645.000	3.04764	0.69330	2.13023	0.61230
2646.000	3.01609	0.67345	2.14405	0.65006
2647.000	3.03384	0.74098	2.12825	0.57453
2648.000	3.04764	0.68138	2.12430	0.65007
2649.000	3.04567	0.67344	2.11641	0.61231
2650.000	3.04172	0.70721	2.14800	0.61826
2651.000	3.02595	0.69331	2.12036	0.60236
2652.000	3.02989	0.68338	2.16971	0.63017
2653.000	3.01807	0.67941	2.14010	0.66597
2654.000	3.06144	0.71315	2.14602	0.61826
2655.000	3.03975	0.69529	2.15194	0.61428
2656.000	3.06932	0.74691	2.14997	0.61229
2657.000	3.00821	0.67545	2.15392	0.60831
2658.000	3.01609	0.71517	2.12233	0.58646
2659.000	3.02595	0.66352	2.15589	0.57651
2660.000	3.00229	0.66552	2.14010	0.56061
2661.000	3.05158	0.74097	2.13220	0.63615
2662.000	3.04172	0.67542	2.13418	0.55067
2663.000	3.03384	0.71317	2.14010	0.57651
2664.000	3.07129	0.71910	2.16379	0.61427
2665.000	3.04172	0.69727	2.12430	0.58050
2666.000	3.05552	0.65555	2.14010	0.57651
2667.000	3.04961	0.72110	2.15984	0.61428
2668.000	3.05749	0.68733	2.15392	0.60235
2669.000	3.06144	0.70719	2.14010	0.57651
2670.000	3.05158	0.66946	2.16181	0.59241
2671.000	3.04369	0.65953	2.15194	0.59838
2672.000	3.02004	0.69530	2.16181	0.63216
2673.000	3.00821	0.65558	2.14010	0.59639
2674.000	2.98849	0.67148	2.14800	0.60434
2675.000	3.02398	0.69530	2.12430	0.60236
2676.000	3.03581	0.75290	2.17169	0.57253
2677.000	3.04369	0.66946	2.15194	0.57850
2678.000	3.01807	0.73503	2.15589	0.56657
2679.000	3.04567	0.71515	2.14997	0.59838
2680.000	3.00821	0.66551	2.14997	0.57254
2681.000	3.02989	0.71119	2.14207	0.60037
2682.000	3.03581	0.66947	2.14800	0.57850
2683.000	3.03778	0.66748	2.13418	0.60037
2684.000	3.04961	0.70521	2.12628	0.58248
2685.000	3.01807	0.69133	2.15392	0.60633
2686.000	3.02398	0.73105	2.14010	0.58248
2687.000	3.00624	0.67545	2.13023	0.61230
2688.000	3.05947	0.68336	2.14800	0.55067
2689.000	3.04961	0.69528	2.16774	0.62421
2690.000	3.06538	0.72308	2.15194	0.63416
2691.000	3.03384	0.68337	2.17366	0.61626
2692.000	3.02792	0.66550	2.15392	0.60831
2693.000	3.05158	0.67939	2.16576	0.62620
2694.000	3.02201	0.69927	2.10061	0.57255
2695.000	3.06144	0.68932	2.14997	0.60633
2696.000	3.03581	0.69728	2.13615	0.55863
2697.000	3.07721	0.70321	2.15984	0.62620
2698.000	3.06341	0.65753	2.12430	0.60038
2699.000	3.06735	0.69924	2.14800	0.65006
2700.000	3.08706	0.72704	2.13220	0.64808
2701.000	3.05947	0.70918	2.15984	0.61030
2702.000	3.05355	0.71514	2.15392	0.63813
2703.000	3.03581	0.65755	2.12825	0.59043
2704.000	3.04369	0.69330	2.12430	0.63814
2705.000	3.03581	0.66748	2.13023	0.66200
2706.000	3.03581	0.66947	2.12628	0.57254
2707.000	3.02989	0.69331	2.10061	0.58647
2708.000	3.06341	0.72110	2.12825	0.58447
2709.000	3.04961	0.71117	2.16971	0.60831
2710.000	3.05355	0.70720	2.13812	0.63019
2711.000	3.07918	0.72506	2.14405	0.61428
2712.000	3.02595	0.68537	2.12233	0.60038
2713.000	3.03187	0.69927	2.13023	0.66796
2714.000	3.01412	0.69531	2.12430	0.57254
2715.000	3.04172	0.69926	2.13023	0.60435
2716.000	3.05947	0.73699	2.14997	0.60832
2717.000	3.03975	0.69132	2.13615	0.60435
2718.000	2.97863	0.63971	2.12628	0.62025
2719.000	3.07721	0.69328	2.11641	0.58845
2720.000	3.09692	0.68929	2.15194	0.65801
2721.000	3.05552	0.73103	2.15787	0.57850
2722.000	3.03187	0.64762	2.16379	0.63415
2723.000	3.03778	0.67145	2.10654	0.61827
2724.000	3.04961	0.67542	2.13023	0.65802
2725.000	3.09889	0.65751	2.11838	0.63020
2726.000	3.06538	0.69329	2.12825	0.60832
2727.000	3.05947	0.67541	2.13812	0.61428
2728.000	3.06144	0.68137	2.16379	0.60235
2729.000	3.06932	0.67342	2.10654	0.63616
2730.000	3.03187	0.66550	2.13615	0.60037
2731.000	3.02792	0.67742	2.13615	0.55465
2732.000	3.04764	0.64563	2.12825	0.62423
2733.000	3.07327	0.68335	2.12825	0.62224
2734.000	3.05355	0.64562	2.10654	0.64014
2735.000	3.02792	0.62975	2.11641	0.60833
2736.000	3.05355	0.66549	2.13615	0.63615
2737.000	3.02398	0.68934	2.10654	0.65207
2738.000	3.05552	0.68535	2.09864	0.60237
2739.000	3.05552	0.61582	2.13615	0.62422
2740.000	3.04764	0.65953	2.13615	0.66398
2741.000	3.04961	0.65556	2.11641	0.63417
2742.000	3.07721	0.65157	2.09864	0.66996
2743.000	3.05749	0.59795	2.12825	0.64411
2744.000	3.04961	0.64364	2.12036	0.64610
2745.000	3.07721	0.64561	2.12233	0.67591
2746.000	3.02398	0.58605	2.11246	0.62026
2747.000	3.03778	0.62179	2.10456	0.63418
2748.000	3.03581	0.58207	2.09666	0.64809
2749.000	3.03384	0.66152	2.11246	0.62622
2750.000	3.03975	0.62378	2.11838	0.65604
2751.000	3.04172	0.62378	2.08679	0.66201
2752.000	3.06735	0.61780	2.11838	0.64411
2753.000	3.06144	0.65753	2.09666	0.67791
2754.000	3.04172	0.62775	2.09666	0.61430
2755.000	3.06341	0.69130	2.10851	0.65604
2756.000	3.06144	0.64164	2.10259	0.62225
2757.000	3.07918	0.62376	2.09271	0.65605
2758.000	3.03778	0.61186	2.12233	0.68386
2759.000	3.04567	0.65159	2.08482	0.62226
2760.000	3.04567	0.65159	2.11246	0.68586
2761.000	3.07327	0.70520	2.13023	0.66200
2762.000	3.02004	0.67147	2.11838	0.63218
2763.000	3.07129	0.64561	2.12036	0.64808
2764.000	3.04369	0.63768	2.08284	0.60834
2765.000	3.04172	0.68138	2.09469	0.63418
2766.000	3.06538	0.65555	2.11838	0.63616
2767.000	3.04961	0.65357	2.12430	0.63417
2768.000	3.04764	0.69131	2.09074	0.63021
2769.000	3.07721	0.65951	2.08482	0.68786
2770.000	3.03975	0.64364	2.10456	0.62026
2771.000	3.05355	0.63172	2.10259	0.66598
2772.000	3.02201	0.61982	2.07495	0.62822
2773.000	3.05947	0.60788	2.07692	0.64413
2774.000	3.05158	0.65953	2.10061	0.67393
2775.000	3.06735	0.65952	2.09666	0.63219
2776.000	3.02792	0.63173	2.11838	0.65206
2777.000	3.08509	0.65951	2.09271	0.63816
2778.000	3.04567	0.64761	2.09271	0.61629
2779.000	3.07129	0.65356	2.12233	0.66200
2780.000	3.05355	0.65555	2.11048	0.63417
2781.000	3.04764	0.65556	2.08877	0.62424
2782.000	3.04369	0.69330	2.11048	0.66598
2783.000	3.02004	0.64564	2.08877	0.62226
2784.000	2.99638	0.61387	2.09666	0.66400
2785.000	3.03384	0.62378	2.09074	0.62424
2786.000	3.03778	0.67344	2.08087	0.63617
2787.000	3.05552	0.67939	2.08679	0.65605
2788.000	3.04764	0.61384	2.09074	0.65207
2789.000	3.01609	0.61982	2.09271	0.68984
2790.000	3.05749	0.59993	2.10259	0.58050
2791.000	3.06932	0.61383	2.09469	0.59442
2792.000	3.05749	0.64959	2.10654	0.65008
2793.000	3.05749	0.63171	2.09271	0.66400
2794.000	3.06735	0.65753	2.11048	0.64213
2795.000	3.07918	0.65355	2.10259	0.62623
2796.000	3.02989	0.61981	2.06310	0.60040
2797.000	3.02004	0.62180	2.08877	0.65605
2798.000	3.04764	0.63371	2.12233	0.63218
2799.000	3.02595	0.60988	2.08482	0.67593
2800.000	3.02004	0.61982	2.05718	0.64016
2801.000	3.07524	0.64759	2.06705	0.60437
2802.000	2.99835	0.62579	2.09271	0.67593
2803.000	3.07129	0.64760	2.11048	0.61827
2804.000	3.04961	0.64761	2.08679	0.63418
2805.000	3.05947	0.64363	2.09666	0.63418
2806.000	3.02792	0.61783	2.12233	0.66399
2807.000	3.06144	0.61781	2.08284	0.59642
2808.000	3.08312	0.63567	2.07889	0.62226
2809.000	3.06341	0.63370	2.09271	0.56460
2810.000	3.08904	0.64759	2.10851	0.64411
2811.000	3.06144	0.65952	2.10851	0.61628
2812.000	3.06538	0.64959	2.06902	0.61630
2813.000	3.06538	0.61582	2.10061	0.66797
2814.000	3.06735	0.64959	2.11838	0.60237
2815.000	3.07129	0.65753	2.09074	0.65008
2816.000	3.00821	0.62976	2.09864	0.61629
2817.000	3.02792	0.64564	2.08877	0.63418
2818.000	3.05552	0.66350	2.12825	0.59839
2819.000	3.09101	0.65950	2.10259	0.58448
2820.000	3.05947	0.64165	2.10456	0.61629
2821.000	3.03581	0.65556	2.12233	0.66995
2822.000	3.04764	0.65754	2.12628	0.65206
2823.000	3.01412	0.64565	2.12430	0.66597
2824.000	3.05749	0.65555	2.09469	0.66201
2825.000	3.04961	0.68734	2.10259	0.62026
2826.000	3.04567	0.63967	2.10456	0.62622
2827.000	3.08115	0.59793	2.09469	0.63020
2828.000	3.08115	0.69328	2.09074	0.61629
2829.000	3.02595	0.65358	2.07889	0.60238
2830.000	3.04961	0.62576	2.09666	0.64213
2831.000	3.03778	0.60392	2.08679	0.62226
2832.000	3.02595	0.59002	2.10259	0.62225
2833.000	3.06735	0.66349	2.11246	0.64610
2834.000	3.02595	0.64762	2.09271	0.62027
2835.000	3.03581	0.62577	2.10456	0.64213
2836.000	3.03778	0.62179	2.13812	0.62621
2837.000	3.06144	0.65952	2.09469	0.66002
2838.000	3.03778	0.65556	2.10259	0.62026
2839.000	3.01807	0.58406	2.10259	0.63617
2840.000	3.09101	0.64759	2.10259	0.67195
2841.000	3.03778	0.62577	2.13812	0.66994
2842.000	3.06735	0.65356	2.08877	0.62822
2843.000	3.06538	0.65157	2.13023	0.65206
2844.000	3.06538	0.61582	2.12036	0.66001
2845.000	3.05947	0.62178	2.09864	0.67394
2846.000	3.05355	0.65357	2.10456	0.66996
2847.000	3.05947	0.63767	2.12825	0.65404
2848.000	3.07129	0.65157	2.12036	0.65007
2849.000	3.06144	0.64164	2.07692	0.66003
2850.000	3.03581	0.61782	2.07889	0.60834
2851.000	3.02004	0.64564	2.11641	0.66200
2852.000	3.08706	0.61779	2.11443	0.65007
2853.000	3.08312	0.61581	2.14602	0.60832
2854.000	3.08312	0.67143	2.11838	0.69778
2855.000	3.06932	0.62972	2.14800	0.66000
2856.000	3.05947	0.67541	2.09666	0.62822
2857.000	3.07327	0.63369	2.11641	0.66995
2858.000	3.05355	0.61185	2.12628	0.67591
2859.000	3.04764	0.64761	2.10061	0.66797
2860.000	3.06932	0.61383	2.13812	0.62820
2861.000	3.05947	0.66945	2.10061	0.59442
2862.000	3.04961	0.57610	2.12036	0.66200
2863.000	3.05947	0.64165	2.12233	0.66399
2864.000	3.05947	0.65754	2.09469	0.58250
2865.000	3.06144	0.64164	2.10061	0.65803
2866.000	3.07129	0.64362	2.12036	0.64411
2867.000	3.04369	0.68734	2.11246	0.66200
2868.000	3.05947	0.67939	2.10061	0.64213
2869.000	3.07129	0.70321	2.13023	0.63019
2870.000	3.06735	0.65356	2.14602	0.66199
2871.000	3.05947	0.64165	2.08482	0.67991
2872.000	3.07918	0.66150	2.13023	0.64808
2873.000	3.02201	0.70921	2.13220	0.69976
2874.000	3.07129	0.70123	2.11048	0.64213
2875.000	3.07327	0.68136	2.10654	0.64213
2876.000	3.04369	0.68933	2.12233	0.65604
2877.000	3.05947	0.69329	2.11641	0.63616
2878.000	3.01609	0.59201	2.10061	0.68586
2879.000	3.06735	0.67342	2.11246	0.60436
2880.000	3.05749	0.68733	2.11838	0.60237
2881.000	3.06341	0.67342	2.13418	0.63218
2882.000	3.08706	0.68533	2.11838	0.63417
2883.000	3.05947	0.66747	2.09469	0.65008
2884.000	3.05158	0.64761	2.12430	0.60236
2885.000	2.99244	0.59798	2.10456	0.60833
2886.000	3.01215	0.61585	2.13615	0.62025
2887.000	3.07327	0.65356	2.12233	0.62622
2888.000	3.02201	0.69331	2.12036	0.65405
2889.000	3.03187	0.64961	2.13418	0.69181
2890.000	3.09495	0.65553	2.14207	0.66000
2891.000	3.04369	0.68138	2.14207	0.67193
2892.000	3.04567	0.63569	2.14010	0.57850
2893.000	3.06341	0.61185	2.10061	0.61032
2894.000	3.05158	0.63172	2.11246	0.62026
2895.000	3.08312	0.66944	2.12628	0.66398
2896.000	3.04172	0.68933	2.13220	0.65802
2897.000	3.05552	0.64959	2.12036	0.62423
2898.000	3.06341	0.70719	2.11048	0.61430
2899.000	3.05355	0.65158	2.10851	0.58448
2900.000	3.06932	0.67143	2.11048	0.70772
2901.000	3.01609	0.64763	2.12233	0.68188
2902.000	3.03581	0.69529	2.12036	0.66399
2903.000	3.02398	0.64763	2.11246	0.66598
2904.000	3.03384	0.67543	2.11641	0.67989
2905.000	3.01215	0.67346	2.15392	0.69975
2906.000	3.04764	0.67542	2.12825	0.69380
2907.000	3.02792	0.70721	2.11246	0.69977
2908.000	3.05749	0.73302	2.11048	0.67791
2909.000	3.06538	0.63370	2.07495	0.70178
2910.000	3.01807	0.68338	2.10851	0.67592
2911.000	3.00624	0.64168	2.09864	0.65207
2912.000	3.02792	0.67345	2.10654	0.70772
2913.000	3.03975	0.67741	2.12036	0.67989
2914.000	3.06932	0.64561	2.10259	0.66399
2915.000	3.02792	0.63968	2.11443	0.68188
2916.000	3.07327	0.65951	2.11838	0.68387
2917.000	3.02004	0.69530	2.15589	0.68186
2918.000	3.03975	0.62577	2.12233	0.68983
2919.000	2.99046	0.64367	2.16576	0.66794
2920.000	3.03975	0.64364	2.13023	0.69976
2921.000	3.07918	0.69129	2.15984	0.71366
2922.000	3.03581	0.68139	2.15589	0.73155
2923.000	3.05552	0.68137	2.12036	0.70971
2924.000	3.02792	0.69927	2.13418	0.69976
2925.000	3.04172	0.63768	2.15984	0.73354
2926.000	3.02398	0.67941	2.12628	0.71765
2927.000	3.06538	0.68335	2.14207	0.73156
2928.000	3.01807	0.66352	2.13812	0.73554
2929.000	3.05552	0.63966	2.09469	0.71369
2930.000	3.03975	0.63371	2.13812	0.74945
2931.000	3.02004	0.59797	2.11641	0.70573
2932.000	3.03975	0.65953	2.13615	0.71169
2933.000	3.03975	0.67543	2.10456	0.65405
2934.000	3.02595	0.65954	2.11838	0.67194
2935.000	3.03384	0.65954	2.13220	0.69777
2936.000	3.02004	0.68338	2.13418	0.66199
2937.000	2.99638	0.63374	2.15194	0.68186
2938.000	3.03384	0.67940	2.18353	0.67191
2939.000	3.02004	0.69332	2.13812	0.67392
2940.000	3.02792	0.66947	2.15392	0.68186
2941.000	3.04369	0.68933	2.16181	0.68981
2942.000	3.00624	0.64168	2.14800	0.69180
2943.000	3.01412	0.66948	2.16971	0.67192
2944.000	3.04764	0.68138	2.13220	0.69777
2945.000	3.03384	0.68536	2.13615	0.69578
2946.000	3.02004	0.71715	2.14602	0.70771
2947.000	3.02595	0.69530	2.16181	0.67590
2948.000	3.02792	0.62975	2.15589	0.67789
2949.000	3.03187	0.73303	2.14800	0.68584
2950.000	3.01807	0.73900	2.13023	0.71765
2951.000	3.02201	0.71318	2.11641	0.66995
2952.000	3.03581	0.69926	2.14800	0.68187
2953.000	3.04369	0.74296	2.17366	0.70372
2954.000	3.07524	0.73698	2.13220	0.67392
2955.000	3.05947	0.75089	2.14207	0.66795
2956.000	3.03778	0.71317	2.12825	0.62622
2957.000	3.02792	0.69927	2.16181	0.69776
2958.000	3.06144	0.71315	2.14997	0.67789
2959.000	3.05158	0.69925	2.16181	0.67192
2960.000	3.02398	0.68735	2.16971	0.68583
2961.000	3.05947	0.70918	2.14800	0.70969
2962.000	3.06144	0.73301	2.13023	0.68982
2963.000	2.99835	0.67346	2.09074	0.65207
2964.000	3.03778	0.69132	2.12628	0.68187
2965.000	3.05749	0.71315	2.11246	0.63815
2966.000	3.03384	0.70125	2.14997	0.68385
2967.000	3.04961	0.71713	2.11048	0.66598
2968.000	3.04764	0.68138	2.16971	0.65999
2969.000	3.08312	0.68334	2.14010	0.72162
2970.000	3.06144	0.67144	2.13023	0.67392
2971.000	3.06735	0.68137	2.13812	0.66199
2972.000	3.02201	0.64961	2.14800	0.67193
2973.000	3.02792	0.64564	2.14207	0.70373
2974.000	3.03581	0.68735	2.12628	0.67790
2975.000	3.03384	0.65557	2.16971	0.68186
2976.000	3.03975	0.67344	2.15194	0.66596
2977.000	3.04369	0.68734	2.14602	0.67391
2978.000	3.03187	0.64365	2.14207	0.68386
2979.000	3.01609	0.65359	2.12036	0.67790
2980.000	3.05552	0.69727	2.15392	0.69180
2981.000	3.04764	0.66350	2.12430	0.66796
2982.000	3.07327	0.72903	2.12825	0.67193
2983.000	3.06341	0.70719	2.12825	0.71368
2984.000	3.08115	0.73101	2.14405	0.72162
2985.000	3.02989	0.68934	2.13418	0.68783
2986.000	3.03384	0.64961	2.11246	0.68784
2987.000	3.03187	0.67742	2.16774	0.69975
2988.000	3.04567	0.66946	2.15984	0.68186
2989.000	3.02989	0.63173	2.16971	0.65403
2990.000	3.03384	0.71913	2.11246	0.66995
2991.000	3.01018	0.65757	2.14800	0.71566
2992.000	3.02792	0.65358	2.14405	0.68385
2993.000	3.03778	0.65358	2.15787	0.68385
2994.000	3.04567	0.66549	2.13023	0.73157
2995.000	3.04961	0.64960	2.13418	0.63416
2996.000	2.99835	0.62182	2.13615	0.70175
2997.000	3.02792	0.64166	2.12036	0.68387
2998.000	3.02989	0.64762	2.12430	0.74548
2999.000	3.00032	0.66353	2.13220	0.66995
3000.000	3.06538	0.61582	2.14405	0.69379
3001.000	3.04961	0.66151	2.11641	0.67194
3002.000	3.04172	0.61981	2.12233	0.61827
3003.000	3.02595	0.65358	2.11838	0.69977
3004.000	3.04567	0.60391	2.10851	0.71369
3005.000	3.06538	0.63370	2.12628	0.68187
3006.000	3.03581	0.60988	2.10061	0.66797
3007.000	3.01609	0.66948	2.10851	0.70176
3008.000	3.02201	0.62578	2.10851	0.69580
3009.000	3.06144	0.67938	2.12036	0.64212
3010.000	3.08904	0.64957	2.12825	0.63615
3011.000	3.02989	0.62577	2.11246	0.68586
3012.000	3.05749	0.63569	2.12430	0.64808
3013.000	3.07129	0.62575	2.08087	0.65208
3014.000	3.03975	0.57213	2.10654	0.62821
3015.000	3.00032	0.58010	2.08679	0.63617
3016.000	2.99244	0.55825	2.08679	0.64015
3017.000	2.99835	0.59798	2.09469	0.66797
3018.000	3.04764	0.60192	2.10456	0.67990
3019.000	3.02989	0.55625	2.07889	0.64611
3020.000	3.02989	0.60988	2.08679	0.64015
3021.000	3.02595	0.60194	2.09864	0.67394
3022.000	3.03187	0.54830	2.10259	0.65406
3023.000	3.04764	0.58802	2.10061	0.65604
3024.000	3.09101	0.57608	2.08482	0.67792
3025.000	3.07524	0.57609	2.05323	0.62426
3026.000	3.05749	0.57610	2.09864	0.63815
3027.000	3.05947	0.53835	2.06705	0.59642
3028.000	3.07524	0.55225	2.09469	0.64611
3029.000	3.08312	0.59197	2.08679	0.59045
3030.000	3.07524	0.56615	2.05915	0.59245
3031.000	3.07524	0.57013	2.06310	0.64214
3032.000	3.01807	0.56618	2.06705	0.63618
3033.000	3.04567	0.57014	2.07692	0.56262
3034.000	3.02398	0.54632	2.10654	0.60833
3035.000	3.04369	0.58206	2.07889	0.63021
3036.000	3.02398	0.63173	2.08284	0.60039
3037.000	3.07327	0.60986	2.08679	0.61430
3038.000	3.00426	0.57811	2.11838	0.60833
3039.000	3.05749	0.62178	2.09469	0.62822
3040.000	3.02989	0.59598	2.10061	0.64611
3041.000	3.03778	0.64364	2.07889	0.62226
3042.000	3.04369	0.60987	2.12430	0.61031
3043.000	3.04369	0.61980	2.09469	0.60635
3044.000	3.04172	0.62378	2.06902	0.61034
3045.000	3.06144	0.60986	2.11048	0.55665
3046.000	3.05552	0.56418	2.06112	0.56660
3047.000	3.03384	0.63769	2.11641	0.57851
3048.000	3.06144	0.62973	2.08679	0.58051
3049.000	3.04172	0.63172	2.09469	0.63418
3050.000	3.04172	0.66549	2.10851	0.63219
3051.000	3.05552	0.65158	2.12825	0.63019
3052.000	3.05158	0.68734	2.09469	0.61430
3053.000	3.06735	0.69726	2.03941	0.61631
3054.000	3.08904	0.71909	2.07495	0.63021
3055.000	3.06538	0.66945	2.08679	0.63816
3056.000	3.10678	0.75880	2.05915	0.63221
3057.000	3.08312	0.73101	2.09666	0.59840
3058.000	3.04961	0.69131	2.10259	0.63815
3059.000	3.07129	0.65952	2.07495	0.63419
3060.000	3.06538	0.65753	2.08284	0.60437
3061.000	3.10086	0.68333	2.04928	0.58848
3062.000	3.06144	0.64760	2.09666	0.60635
3063.000	3.05947	0.61185	2.10061	0.63020
3064.000	3.03778	0.64960	2.06112	0.57654
3065.000	3.07918	0.62972	2.07692	0.57853
3066.000	3.03778	0.62378	2.06507	0.60239
3067.000	3.07129	0.60588	2.08482	0.63220
3068.000	3.01215	0.58407	2.09864	0.58249
3069.000	3.05355	0.63966	2.12430	0.64013
3070.000	3.04369	0.63172	2.06902	0.62028
3071.000	3.06932	0.59595	2.10259	0.60833
3072.000	3.01018	0.59400	2.07889	0.63816
3073.000	3.04172	0.57412	2.08284	0.61828
3074.000	3.04764	0.57411	2.07495	0.59045
3075.000	3.02792	0.57810	2.02163	0.61234
3076.000	3.03581	0.56022	2.09864	0.64412
3077.000	3.01412	0.54434	2.04533	0.62824
3078.000	3.04567	0.57412	2.05915	0.63022
3079.000	3.04764	0.53240	2.08679	0.61828
3080.000	3.05749	0.57610	2.06112	0.61630
3081.000	3.04369	0.51254	2.06705	0.61431
3082.000	3.04172	0.57412	2.06112	0.59046
3083.000	3.06538	0.57013	2.08284	0.63021
3084.000	3.07721	0.57211	2.09074	0.63617
3085.000	3.04961	0.55226	2.10654	0.65604
3086.000	3.03778	0.55426	2.03941	0.61432
3087.000	3.03778	0.56419	2.07495	0.64015
3088.000	3.04961	0.59199	2.08482	0.61629
3089.000	3.12255	0.59791	2.06507	0.67196
3090.000	3.03384	0.56419	2.06112	0.63817
3091.000	3.05947	0.60589	2.10456	0.61231
3092.000	3.01609	0.58605	2.08679	0.66201
3093.000	3.06735	0.54828	2.10654	0.69580
3094.000	3.10283	0.60587	2.08679	0.67593
3095.000	3.05947	0.64760	2.09864	0.65207
3096.000	3.08509	0.61581	2.13418	0.63416
3097.000	3.06735	0.58404	2.09864	0.66797
3098.000	3.12058	0.61976	2.08679	0.63220
3099.000	3.06735	0.59993	2.10851	0.62424
3100.000	3.05355	0.65357	2.07692	0.62624
3101.000	3.02792	0.59995	2.12233	0.63019
3102.000	3.04567	0.58802	2.07297	0.73955
3103.000	3.03975	0.60590	2.10259	0.65207
3104.000	3.02398	0.64961	2.11641	0.71567
3105.000	2.99638	0.59599	2.09666	0.69580
3106.000	2.98455	0.64765	2.06705	0.72166
3107.000	3.04961	0.65953	2.10061	0.65008
3108.000	3.01807	0.66749	2.09864	0.71767
3109.000	3.02989	0.64365	2.06507	0.69582
3110.000	3.05947	0.63767	2.09864	0.63815
3111.000	3.01412	0.64167	2.10456	0.69977
3112.000	3.03384	0.69927	2.10061	0.68984
3113.000	3.05749	0.69329	2.09469	0.67195
3114.000	3.03187	0.62776	2.09074	0.69382
3115.000	3.01018	0.65955	2.09469	0.69183
3116.000	3.03581	0.69529	2.09271	0.70177
3117.000	3.03581	0.66351	2.10851	0.72164
3118.000	3.03975	0.64762	2.10654	0.72760
3119.000	3.00624	0.60195	2.08482	0.68786
3120.000	3.00821	0.63969	2.11048	0.70176
3121.000	3.01807	0.65359	2.07889	0.70774
3122.000	3.01412	0.64962	2.13812	0.69181
3123.000	3.03581	0.65358	2.08482	0.69978
3124.000	3.03975	0.64762	2.08482	0.72761
3125.000	3.04764	0.63768	2.09074	0.68785
3126.000	3.04369	0.65755	2.09666	0.66201
3127.000	3.04172	0.68734	2.12628	0.66796
3128.000	3.01609	0.65955	2.10654	0.69381
3129.000	3.01807	0.64763	2.11443	0.65007
3130.000	2.99441	0.62381	2.12233	0.66001
3131.000	3.03384	0.61981	2.11246	0.65604
3132.000	3.05355	0.63569	2.11246	0.68188
3133.000	3.02201	0.63372	2.11443	0.66200
3134.000	3.05158	0.65158	2.11443	0.71766
3135.000	3.04369	0.64960	2.11246	0.62821
3136.000	3.04567	0.70522	2.10259	0.67195
3137.000	3.03581	0.66550	2.12628	0.65603
3138.000	3.04567	0.67542	2.07495	0.62226
3139.000	3.01215	0.64962	2.12036	0.63616
3140.000	3.04369	0.67741	2.13023	0.62423
3141.000	3.03187	0.65159	2.11641	0.58050
3142.000	3.02595	0.65557	2.11246	0.62026
3143.000	3.00229	0.65360	2.10259	0.63219
3144.000	2.99046	0.63374	2.10456	0.62026
3145.000	3.02595	0.66153	2.10259	0.62623
3146.000	3.02989	0.66153	2.10456	0.63020
3147.000	3.05552	0.67542	2.10259	0.58846
3148.000	2.98258	0.65758	2.10851	0.67592
3149.000	3.08115	0.65355	2.08877	0.63617
3150.000	3.05355	0.64562	2.14207	0.66597
3151.000	3.04369	0.67741	2.14405	0.62621
3152.000	3.03975	0.68337	2.12825	0.61628
3153.000	3.05355	0.68336	2.12825	0.69181
3154.000	3.04961	0.69528	2.11838	0.60833
3155.000	3.02595	0.66153	2.12036	0.66598
3156.000	3.02595	0.67941	2.12233	0.64212
3157.000	3.02004	0.69729	2.13615	0.66994
3158.000	3.07129	0.71315	2.10654	0.72959
3159.000	3.04567	0.69131	2.13418	0.69777
3160.000	3.03187	0.70721	2.11838	0.69381
3161.000	3.01807	0.69133	2.12628	0.72561
3162.000	3.02398	0.69133	2.14405	0.73355
3163.000	3.04172	0.69529	2.12628	0.74151
3164.000	3.02201	0.71119	2.11443	0.70176
3165.000	3.01412	0.69531	2.15194	0.71367
3166.000	3.03975	0.68337	2.12036	0.67194
3167.000	3.00624	0.68339	2.10456	0.70176
3168.000	3.00821	0.76086	2.16576	0.72559
3169.000	3.04369	0.70323	2.13615	0.70572
3170.000	3.03581	0.71714	2.07889	0.68388
3171.000	3.01412	0.69332	2.11048	0.72561
3172.000	3.01807	0.63372	2.10851	0.70176
3173.000	3.03975	0.66549	2.10456	0.69580
3174.000	3.03384	0.66550	2.09469	0.70773
3175.000	3.01215	0.68736	2.13220	0.76337
3176.000	3.02989	0.69728	2.13812	0.70175
3177.000	3.01412	0.68935	2.11246	0.72164
3178.000	3.04961	0.74693	2.10061	0.70375
3179.000	3.04567	0.72707	2.12036	0.69977
3180.000	3.06144	0.65555	2.10456	0.64809
3181.000	3.02989	0.67146	2.07692	0.62624
3182.000	2.99046	0.65162	2.08284	0.62027
3183.000	3.00426	0.65558	2.10456	0.65803
3184.000	3.01609	0.64564	2.10259	0.62821
3185.000	3.03187	0.70324	2.08679	0.63418
3186.000	3.02398	0.68338	2.10259	0.60237
3187.000	3.01807	0.69530	2.11443	0.61032
3188.000	3.03384	0.67344	2.12628	0.62224
3189.000	3.02989	0.63769	2.09864	0.61231
3190.000	2.99835	0.65956	2.09271	0.59244
3191.000	2.99835	0.67942	2.11838	0.56460
3192.000	3.01807	0.64366	2.07889	0.54274
3193.000	3.04567	0.70720	2.10851	0.59442
3194.000	3.00032	0.63373	2.08679	0.63816
3195.000	3.01215	0.65756	2.10654	0.62225
3196.000	2.99835	0.66155	2.11838	0.59243
3197.000	3.04961	0.68734	2.12233	0.59441
3198.000	2.99244	0.66751	2.07889	0.61033
3199.000	3.00229	0.68737	2.10456	0.59442
3200.000	2.99244	0.72909	2.08679	0.54870
3201.000	3.01412	0.65756	2.09469	0.60834
3202.000	3.05947	0.71514	2.09864	0.61032
3203.000	3.05355	0.70720	2.10654	0.65604
3204.000	3.03975	0.73104	2.08877	0.67990
3205.000	3.01609	0.63174	2.08877	0.66400
3206.000	3.02004	0.71119	2.10851	0.65207
3207.000	3.01018	0.69332	2.09074	0.70972
3208.000	3.04172	0.66351	2.10456	0.65803
3209.000	3.03778	0.67741	2.10061	0.68984
3210.000	3.03581	0.72509	2.08284	0.69978
3211.000	2.98652	0.69334	2.11246	0.72561
3212.000	2.99441	0.65758	2.13812	0.73156
3213.000	2.98652	0.62778	2.09271	0.70574
3214.000	3.01215	0.67942	2.10456	0.72164
3215.000	2.97666	0.61587	2.07692	0.73358
3216.000	2.98258	0.61388	2.10456	0.74152
3217.000	3.02595	0.63968	2.07692	0.72364
3218.000	3.01215	0.57215	2.12825	0.74747
3219.000	2.96286	0.57217	2.14405	0.74349
3220.000	2.95892	0.61985	2.14997	0.74150
3221.000	2.97075	0.58409	2.12233	0.72958
3222.000	2.99046	0.61785	2.09864	0.71369
3223.000	2.97272	0.62978	2.10654	0.75344
3224.000	3.02201	0.57214	2.13220	0.66398
3225.000	2.98849	0.60196	2.11048	0.70176
3226.000	2.99638	0.62976	2.08482	0.70177
3227.000	3.00426	0.62976	2.10851	0.71568
3228.000	2.98455	0.59997	2.10061	0.72959
3229.000	2.93920	0.58013	2.10061	0.72363
3230.000	2.96483	0.60594	2.09074	0.71767
3231.000	2.97075	0.55429	2.05125	0.70576
3232.000	2.95103	0.61588	2.10259	0.68387
3233.000	2.97666	0.62580	2.07297	0.69979
3234.000	2.96878	0.61786	2.09074	0.69183
3235.000	3.02595	0.66352	2.09666	0.69183
3236.000	2.98849	0.64169	2.08087	0.67792
3237.000	2.99441	0.67347	2.08087	0.70575
3238.000	3.01412	0.66352	2.08679	0.69382
3239.000	2.98061	0.67546	2.05915	0.66401
3240.000	2.97666	0.62580	2.11048	0.66200
3241.000	3.01215	0.66551	2.12430	0.70175
3242.000	2.96878	0.70328	2.11246	0.65008
3243.000	2.96286	0.66753	2.11048	0.68586
3244.000	2.99244	0.66155	2.07889	0.62822
3245.000	2.97272	0.68341	2.08679	0.68189
3246.000	3.02004	0.64167	2.09271	0.64213
3247.000	2.98061	0.69731	2.08877	0.62226
3248.000	2.96680	0.64766	2.09074	0.64611
3249.000	3.01018	0.69134	2.11641	0.65604
3250.000	2.98455	0.68142	2.11641	0.60833
3251.000	3.05749	0.69726	2.08679	0.62226
3252.000	3.00821	0.69928	2.09864	0.64611
3253.000	3.00624	0.70922	2.07889	0.58051
3254.000	3.00032	0.65956	2.08482	0.56660
3255.000	2.96878	0.66355	2.05520	0.57853
3256.000	3.00624	0.63572	2.07495	0.58449
3257.000	3.01412	0.66352	2.08087	0.63220
3258.000	2.93328	0.67748	2.10061	0.61032
3259.000	2.99835	0.70922	2.13023	0.61429
3260.000	2.97863	0.69533	2.08877	0.62623
3261.000	3.02989	0.70125	2.10061	0.61828
3262.000	2.99638	0.69929	2.06507	0.61829
3263.000	2.97272	0.68937	2.10654	0.59044
3264.000	2.98061	0.67745	2.08679	0.58846
3265.000	2.99441	0.67545	2.04730	0.60836
3266.000	2.99441	0.67347	2.11246	0.63616
3267.000	3.02989	0.66153	2.08284	0.59443
3268.000	3.01215	0.67346	2.07889	0.60834
3269.000	3.02201	0.69729	2.07692	0.65009
3270.000	3.01412	0.67346	2.09469	0.59442
3271.000	3.03187	0.67742	2.06507	0.64214
3272.000	2.99441	0.68539	2.11443	0.64014
3273.000	2.99046	0.67744	2.10654	0.63815
3274.000	3.01412	0.65558	2.11048	0.65604
3275.000	2.99441	0.66949	2.07692	0.68985
3276.000	2.99638	0.65956	2.09074	0.71966
3277.000	2.95892	0.67746	2.07100	0.72563
3278.000	3.00229	0.66750	2.12825	0.65404
3279.000	2.96680	0.64170	2.09666	0.71369
3280.000	3.00821	0.63174	2.09666	0.71767
3281.000	2.96878	0.59998	2.13615	0.66994
3282.000	3.00032	0.62579	2.09666	0.71767
3283.000	2.99244	0.61983	2.14602	0.69777
3284.000	2.97863	0.66553	2.13220	0.68585
3285.000	2.99638	0.64367	2.11246	0.64014
3286.000	2.97272	0.68540	2.11443	0.69778
3287.000	2.98652	0.59004	2.11246	0.70573
3288.000	2.98455	0.64169	2.14207	0.65006
3289.000	3.02201	0.66948	2.10061	0.67592
3290.000	2.97075	0.64964	2.12233	0.66001
3291.000	3.02989	0.65159	2.09469	0.65406
3292.000	2.97666	0.64964	2.11641	0.65007
3293.000	2.99046	0.67943	2.12233	0.70374
3294.000	2.99046	0.67347	2.12036	0.69579
3295.000	2.99441	0.69135	2.10061	0.69779
3296.000	2.95892	0.61787	2.08284	0.66798
3297.000	2.99638	0.70525	2.13812	0.66398
3298.000	2.98061	0.66950	2.13023	0.66995
3299.000	2.98455	0.70128	2.06705	0.66997
3300.000	3.00032	0.65360	2.09271	0.64611
3301.000	2.95892	0.64369	2.08087	0.62027
3302.000	2.95300	0.66157	2.10456	0.63616
3303.000	2.97863	0.65560	2.04335	0.61432
3304.000	2.95103	0.61588	2.12628	0.59640
3305.000	2.97075	0.65759	2.09074	0.65008
3306.000	2.92540	0.63179	2.09271	0.60238
3307.000	2.95892	0.63376	2.10654	0.61827
3308.000	2.93920	0.63576	2.07100	0.54871
3309.000	2.95695	0.61787	2.11641	0.60038
3310.000	2.96286	0.62382	2.09469	0.65207
3311.000	2.95300	0.62184	2.09469	0.65207
3312.000	2.96089	0.62780	2.08284	0.63617
3313.000	2.99638	0.60990	2.11838	0.59640
3314.000	2.97666	0.63375	2.12036	0.63218
3315.000	2.95497	0.65164	2.10456	0.65207
3316.000	2.97272	0.67348	2.13812	0.60037
3317.000	2.93920	0.62582	2.11048	0.66002
3318.000	2.95497	0.67150	2.13023	0.67591
3319.000	2.94117	0.63774	2.14010	0.65603
3320.000	2.93328	0.62781	2.12233	0.61429
3321.000	3.02398	0.63968	2.15392	0.65801
3322.000	2.92934	0.64768	2.10456	0.68188
3323.000	2.94709	0.64966	2.14997	0.63217
3324.000	2.95695	0.62383	2.11246	0.66200
3325.000	2.95695	0.63773	2.12825	0.65206
3326.000	2.96089	0.61588	2.09271	0.64014
3327.000	2.95103	0.67945	2.09666	0.64213
3328.000	2.99638	0.66552	2.08284	0.61828
3329.000	2.96286	0.62780	2.10259	0.61827
3330.000	2.95497	0.63972	2.08877	0.61828
3331.000	2.96483	0.65958	2.08284	0.65804
3332.000	2.92342	0.64570	2.10259	0.62821
3333.000	2.96680	0.59800	2.09074	0.63219
3334.000	2.95497	0.63972	2.10456	0.62821
3335.000	2.97075	0.63574	2.12036	0.62622
3336.000	2.94314	0.61589	2.07297	0.65407
3337.000	2.96483	0.62780	2.09074	0.63021
3338.000	2.96286	0.64170	2.05915	0.61432
3339.000	2.97272	0.64766	2.10851	0.66797
3340.000	2.93526	0.63973	2.08284	0.63220
3341.000	2.95695	0.64369	2.10061	0.56261
3342.000	2.91948	0.64967	2.13023	0.55266
3343.000	2.94314	0.62383	2.07100	0.67792
3344.000	2.91159	0.61988	2.07692	0.62822
3345.000	2.92540	0.61788	2.09074	0.58647
3346.000	2.91357	0.62782	2.11641	0.61628
3347.000	2.96089	0.61191	2.08482	0.58449
3348.000	2.93723	0.59404	2.09271	0.59442
3349.000	2.97272	0.62978	2.12036	0.54273
3350.000	2.91751	0.60001	2.08877	0.63021
3351.000	2.97075	0.64170	2.10061	0.61032
3352.000	2.92540	0.61192	2.09864	0.56659
3353.000	2.93920	0.61986	2.13418	0.60236
3354.000	2.92737	0.67351	2.09864	0.60038
3355.000	2.92934	0.61590	2.10851	0.63815
3356.000	2.93723	0.67748	2.08284	0.61033
3357.000	2.95300	0.62582	2.09469	0.56659
3358.000	2.97272	0.63176	2.10259	0.57255
3359.000	2.92145	0.61789	2.09666	0.57653
3360.000	2.94511	0.66754	2.09864	0.57653
3361.000	2.92540	0.70927	2.06902	0.58449
3362.000	2.94314	0.66754	2.09271	0.55069
3363.000	2.95892	0.63574	2.09666	0.61828
3364.000	2.96878	0.67746	2.04533	0.55269
3365.000	2.94117	0.65165	2.08482	0.57057
3366.000	2.98652	0.67347	2.08877	0.56659
3367.000	2.98258	0.65162	2.05718	0.58450
3368.000	2.94511	0.64171	2.08482	0.59443
3369.000	2.95497	0.62780	2.08087	0.54871
3370.000	2.98258	0.68142	2.08679	0.52684
3371.000	2.95103	0.67747	2.05915	0.56462
3372.000	2.94906	0.72316	2.10456	0.57653
3373.000	2.96680	0.69335	2.11443	0.55863
3374.000	2.95103	0.69535	2.07692	0.60834
3375.000	3.00032	0.68141	2.07100	0.53082
3376.000	2.94906	0.69535	2.08284	0.59045
3377.000	2.91751	0.67550	2.07889	0.57455
3378.000	2.98258	0.73505	2.07889	0.61232
3379.000	2.93526	0.68145	2.09864	0.61828
3380.000	2.96286	0.69335	2.09864	0.66996
3381.000	2.97272	0.69335	2.09074	0.68388
3382.000	2.98652	0.74697	2.12233	0.70971
3383.000	2.96680	0.67944	2.08679	0.71171
3384.000	2.97666	0.68540	2.06705	0.68190
3385.000	3.00032	0.70127	2.13023	0.71567
3386.000	2.98455	0.62381	2.13220	0.68386
3387.000	3.01609	0.69928	2.14405	0.67392
3388.000	3.02201	0.71119	2.13418	0.67790
3389.000	2.99638	0.71319	2.12825	0.66200
3390.000	2.99244	0.77080	2.14207	0.66000
3391.000	2.90568	0.75696	2.11641	0.71567
3392.000	2.81496	0.72126	2.04533	0.68787
3393.000	2.61968	0.74522	1.93278	0.61834
3394.000	2.50524	0.68368	1.91303	0.63425
3395.000	2.35526	0.69568	1.77873	0.53290
3396.000	2.16971	0.67788	1.58910	0.50113
3397.000	1.92685	0.64021	1.42908	0.49123
3398.000	1.65034	0.55282	1.20382	0.41172
3399.000	1.33621	0.47931	0.94887	0.37197
3400.000	1.14256	0.40974	0.69982	0.25861
3401.000	0.95085	0.38788	0.59308	0.32227
3402.000	0.75122	0.28048	0.38946	0.17109
3403.000	0.61680	0.21882	0.29457	0.20889
3404.000	0.52191	0.20888	0.20363	0.21486
3405.000	0.39342	0.11141	0.06524	0.17507
3406.000	0.30248	0.08157	-0.03163	0.16114
3407.000	0.27480	-0.01790	-0.05140	0.10743
3408.000	0.27085	-0.01989	-0.08699	0.12136
3409.000	0.32225	-0.00597	-0.04943	0.11141
3410.000	0.37563	-0.08753	-0.06129	0.15915
3411.000	0.40133	-0.08554	-0.06326	0.06366
3412.000	0.44482	-0.08753	-0.07908	0.11340
3413.000	0.50610	-0.05769	-0.08303	-0.01194
3414.000	0.58320	-0.06963	-0.12060	0.01194
3415.000	0.63855	-0.13925	-0.08699	-0.05968
3416.000	0.69389	-0.09350	-0.06326	-0.03979
3417.000	0.70180	-0.12930	-0.04943	-0.10743
3418.000	0.80063	-0.12134	-0.04152	-0.14324
3419.000	0.78284	-0.15715	0.01384	-0.13528
3420.000	0.83424	-0.13726	0.04745	-0.11738
3421.000	0.81249	-0.14521	0.00395	-0.15717
3422.000	0.81447	-0.13527	0.01582	-0.16711
3423.000	0.78680	-0.17306	-0.00395	-0.14324
3424.000	0.76505	-0.15317	0.02570	-0.12533
3425.000	0.78482	-0.15914	0.01779	-0.08157
3426.000	0.76505	-0.14323	-0.00989	-0.13130
3427.000	0.75122	-0.15317	-0.04152	-0.10146
3428.000	0.71168	-0.11339	-0.00395	-0.11539
3429.000	0.74331	-0.09151	0.00593	-0.06167
3430.000	0.78087	-0.07957	0.00791	-0.07560
3431.000	0.73145	-0.03780	-0.03756	-0.14324
3432.000	0.69785	-0.01790	-0.02966	-0.11340
3433.000	0.69192	-0.02586	-0.04349	-0.06764
3434.000	0.70378	0.01989	-0.02570	-0.09151
3435.000	0.69192	-0.03979	-0.03954	-0.07958
3436.000	0.68401	0.00199	-0.04745	-0.07162
3437.000	0.66424	-0.01790	-0.04547	-0.01393
3438.000	0.63657	-0.01393	-0.09885	-0.05173
3439.000	0.64448	-0.01194	-0.07513	-0.07361
3440.000	0.61878	-0.02586	-0.13444	-0.07361
3441.000	0.58913	-0.05570	-0.11664	-0.08555
3442.000	0.59901	-0.02984	-0.13444	-0.09947
3443.000	0.62471	-0.04178	-0.20165	-0.11937
3444.000	0.58122	-0.02984	-0.17200	-0.08952
3445.000	0.56343	-0.00995	-0.18386	-0.08157
3446.000	0.57529	-0.03382	-0.21352	-0.12533
3447.000	0.57727	-0.02785	-0.17991	-0.12732
3448.000	0.55947	-0.05570	-0.19770	-0.13727
3449.000	0.51401	-0.06167	-0.19177	-0.13329
3450.000	0.55750	-0.00398	-0.19375	-0.13528
3451.000	0.53971	-0.05968	-0.21945	-0.16910
3452.000	0.48040	-0.07759	-0.17991	-0.18104
3453.000	0.50808	-0.10941	-0.18781	-0.12533
3454.000	0.51994	-0.11538	-0.20165	-0.14125
3455.000	0.46459	-0.07560	-0.18781	-0.15915
3456.000	0.46656	-0.12334	-0.17002	-0.20491
3457.000	0.48238	-0.06167	-0.16804	-0.12931
3458.000	0.53180	-0.03183	-0.16804	-0.08356
3459.000	0.52191	-0.10345	-0.17398	-0.16512
3460.000	0.52982	-0.04973	-0.17793	-0.16711
3461.000	0.53180	-0.10941	-0.19572	-0.12533
3462.000	0.51401	-0.07957	-0.16211	-0.14722
3463.000	0.55354	-0.07957	-0.16014	-0.13528
3464.000	0.50808	-0.10146	-0.14630	-0.14921
3465.000	0.57924	-0.09947	-0.15421	-0.11937
3466.000	0.61878	-0.06565	-0.15618	-0.11738
3467.000	0.61285	-0.05769	-0.17793	-0.10942
3468.000	0.59703	-0.09748	-0.15816	-0.09947
3469.000	0.54168	-0.04774	-0.15025	-0.13130
3470.000	0.57133	-0.07957	-0.13444	-0.13926
3471.000	0.57924	-0.09151	-0.12653	-0.14324
3472.000	0.57529	-0.01989	-0.15618	-0.12136
3473.000	0.58715	-0.03183	-0.16211	-0.15120
3474.000	0.59110	-0.02586	-0.14827	-0.15120
3475.000	0.61878	-0.01989	-0.16409	-0.15716
3476.000	0.59506	-0.03183	-0.14827	-0.10544
3477.000	0.60494	-0.05371	-0.16607	-0.16910
3478.000	0.58320	-0.04575	-0.12653	-0.08555
3479.000	0.57924	-0.03183	-0.16409	-0.14523
3480.000	0.56936	-0.02188	-0.15421	-0.14324
3481.000	0.56343	-0.04973	-0.18188	-0.15120
3482.000	0.61087	-0.02984	-0.15025	-0.18701
3483.000	0.59308	-0.03979	-0.16409	-0.13727
3484.000	0.56540	-0.01989	-0.14037	-0.13528
3485.000	0.55947	-0.02984	-0.18781	-0.16313
3486.000	0.58913	0.02785	-0.16804	-0.15518
3487.000	0.52982	-0.10146	-0.18386	-0.16114
3488.000	0.53180	-0.02785	-0.17002	-0.16313
3489.000	0.54761	-0.04178	-0.18584	-0.17308
3490.000	0.53575	-0.04576	-0.13839	-0.17109
3491.000	0.55947	-0.05371	-0.17595	-0.14324
3492.000	0.54168	-0.05968	-0.17200	-0.11141
3493.000	0.55157	-0.06167	-0.17200	-0.19098
3494.000	0.51994	-0.06565	-0.16211	-0.16512
3495.000	0.54168	-0.06366	-0.16804	-0.14722
3496.000	0.55354	-0.02188	-0.15025	-0.20093
3497.000	0.55947	-0.03183	-0.14827	-0.15319
3498.000	0.55552	-0.06366	-0.14827	-0.10743
3499.000	0.55947	-0.04575	-0.15816	-0.13727
3500.000	0.54564	-0.01989	-0.15421	-0.10146
3501.000	0.54168	-0.04178	-0.18188	-0.14125
3502.000	0.49819	-0.06366	-0.18188	-0.13528
3503.000	0.54366	-0.03183	-0.16607	-0.15915
3504.000	0.52982	-0.01790	-0.17002	-0.15518
3505.000	0.56145	-0.01194	-0.18386	-0.15915
3506.000	0.53575	-0.06167	-0.17200	-0.16910
3507.000	0.52982	-0.05371	-0.18584	-0.17109
3508.000	0.54168	-0.06963	-0.17595	-0.11539
3509.000	0.52191	-0.03183	-0.14827	-0.14722
3510.000	0.56738	-0.05968	-0.14432	-0.13329
3511.000	0.50412	-0.05968	-0.18188	-0.16512
3512.000	0.56343	-0.04774	-0.15618	-0.13528
3513.000	0.53575	-0.02984	-0.15618	-0.18502
3514.000	0.55157	-0.04575	-0.18386	-0.16910
3515.000	0.50215	-0.04774	-0.17002	-0.21685
3516.000	0.54959	-0.06366	-0.15421	-0.08157
3517.000	0.52389	-0.02586	-0.13641	-0.12732
3518.000	0.51598	-0.05769	-0.16211	-0.12135
3519.000	0.50610	-0.00398	-0.16804	-0.10942
3520.000	0.52982	-0.03382	-0.16409	-0.14523
3521.000	0.50610	-0.04576	-0.16211	-0.09748
3522.000	0.51203	-0.08156	-0.18584	-0.15716
3523.000	0.53180	-0.03382	-0.17793	-0.14125
3524.000	0.53773	-0.05172	-0.19177	-0.11937
3525.000	0.52982	-0.05769	-0.17398	-0.16910
3526.000	0.52982	-0.05769	-0.15618	-0.15716
3527.000	0.50808	-0.08156	-0.19968	-0.10942
3528.000	0.52191	-0.12533	-0.18386	-0.15319
3529.000	0.52784	-0.08952	-0.17398	-0.15716
3530.000	0.48040	-0.08753	-0.14827	-0.12931
3531.000	0.54564	-0.07957	-0.16607	-0.13727
3532.000	0.54168	-0.07361	-0.18781	-0.19894
3533.000	0.49819	-0.08554	-0.17002	-0.17109
3534.000	0.49028	-0.10941	-0.17200	-0.18899
3535.000	0.49622	-0.13528	-0.16014	-0.10743
3536.000	0.50412	-0.11538	-0.14432	-0.15319
3537.000	0.49028	-0.09549	-0.18386	-0.16711
3538.000	0.53773	-0.06963	-0.18584	-0.13329
3539.000	0.50215	-0.07560	-0.18386	-0.13727
3540.000	0.52191	-0.07361	-0.19968	-0.16711
3541.000	0.48633	-0.11339	-0.16211	-0.13926
3542.000	0.51401	-0.08753	-0.20956	-0.16910
3543.000	0.47842	-0.06963	-0.18188	-0.15915
3544.000	0.52784	-0.07957	-0.21549	-0.16910
3545.000	0.51994	-0.12135	-0.20165	-0.18104
3546.000	0.51005	-0.09549	-0.22735	-0.13727
3547.000	0.51401	-0.09151	-0.19770	-0.20491
3548.000	0.49424	-0.10544	-0.16607	-0.14125
3549.000	0.49622	-0.10743	-0.21352	-0.17706
3550.000	0.49819	-0.10743	-0.19177	-0.17905
3551.000	0.51401	-0.11339	-0.19968	-0.17507
3552.000	0.48633	-0.10544	-0.19968	-0.15120
3553.000	0.48040	-0.11936	-0.22538	-0.18700
3554.000	0.47645	-0.10345	-0.21945	-0.16910
3555.000	0.50215	-0.07759	-0.20363	-0.14125
3556.000	0.48040	-0.05172	-0.21549	-0.18303
3557.000	0.49622	-0.08156	-0.21549	-0.20093
3558.000	0.48633	-0.13528	-0.20165	-0.14921
3559.000	0.46656	-0.10743	-0.21549	-0.15915
3560.000	0.45865	-0.09151	-0.18584	-0.16910
3561.000	0.47447	-0.06167	-0.19968	-0.20491
3562.000	0.48435	-0.09947	-0.20561	-0.17109
3563.000	0.49028	-0.10743	-0.19968	-0.15716
3564.000	0.51005	-0.02984	-0.14432	-0.12732
3565.000	0.51598	-0.10544	-0.17002	-0.11539
3566.000	0.48831	-0.11339	-0.17793	-0.17109
3567.000	0.44284	-0.10743	-0.17200	-0.12135
3568.000	0.49028	-0.13130	-0.18781	-0.18502
3569.000	0.48435	-0.12732	-0.19177	-0.13727
3570.000	0.46261	-0.09350	-0.18188	-0.16313
3571.000	0.45865	-0.07957	-0.16607	-0.11141
3572.000	0.46459	-0.08156	-0.18781	-0.11340
3573.000	0.44086	-0.09151	-0.18386	-0.11539
3574.000	0.48435	-0.05769	-0.17991	-0.10345
3575.000	0.46459	-0.09151	-0.17002	-0.12533
3576.000	0.46854	-0.09151	-0.18584	-0.16512
3577.000	0.42505	-0.06963	-0.17595	-0.15517
3578.000	0.49819	-0.03581	-0.16409	-0.17308
3579.000	0.47842	-0.06963	-0.17398	-0.14921
3580.000	0.47645	-0.06167	-0.21154	-0.15319
3581.000	0.46459	-0.07957	-0.18781	-0.18701
3582.000	0.48633	-0.02188	-0.17991	-0.16910
3583.000	0.50412	-0.09947	-0.19572	-0.18104
3584.000	0.49819	-0.03780	-0.14827	-0.19894
3585.000	0.44482	-0.01592	-0.19375	-0.18104
3586.000	0.50017	-0.09151	-0.17002	-0.19098
3587.000	0.47052	-0.05570	-0.16804	-0.20292
3588.000	0.49028	-0.07560	-0.18979	-0.17507
3589.000	0.48831	-0.02387	-0.17200	-0.21685
3590.000	0.43493	-0.04775	-0.17200	-0.18303
3591.000	0.45668	-0.04973	-0.20561	-0.18104
3592.000	0.48435	-0.08554	-0.17595	-0.12732
3593.000	0.47842	-0.11737	-0.15025	-0.20292
3594.000	0.48831	-0.07759	-0.16014	-0.17905
3595.000	0.47052	-0.05172	-0.14827	-0.17905
3596.000	0.47645	-0.04973	-0.15421	-0.13926
3597.000	0.44086	-0.10345	-0.14037	-0.16910
3598.000	0.46459	-0.09748	-0.15223	-0.18502
3599.000	0.46656	-0.09947	-0.15816	-0.13926
3600.000	0.48435	-0.07560	-0.14827	-0.15120
3601.000	0.44086	-0.10345	-0.13641	-0.16910
3602.000	0.45075	-0.06764	-0.17398	-0.18899
3603.000	0.50017	-0.03581	-0.18188	-0.18899
3604.000	0.49622	-0.06366	-0.16409	-0.16114
3605.000	0.47447	-0.03183	-0.13839	-0.15319
3606.000	0.49226	-0.05371	-0.14630	-0.18303
3607.000	0.46656	-0.03581	-0.17002	-0.13528
3608.000	0.43889	-0.08554	-0.15618	-0.15518
3609.000	0.47249	-0.09350	-0.16014	-0.16910
3610.000	0.46854	-0.05172	-0.12455	-0.14722
3611.000	0.45470	-0.05968	-0.14037	-0.17507
3612.000	0.45668	-0.06963	-0.15816	-0.15319
3613.000	0.47249	-0.05371	-0.14432	-0.16711
3614.000	0.45272	-0.07560	-0.14234	-0.14722
3615.000	0.50412	-0.05172	-0.13641	-0.14523
3616.000	0.45272	-0.01989	-0.13839	-0.19297
3617.000	0.48238	-0.04377	-0.14827	-0.11738
3618.000	0.48633	0.01194	-0.11862	-0.14324
3619.000	0.50412	-0.01194	-0.15223	-0.12533
3620.000	0.51994	-0.04576	-0.13246	-0.16711
3621.000	0.46854	-0.02387	-0.13246	-0.09947
3622.000	0.51203	-0.03183	-0.13048	-0.12533
3623.000	0.48238	0.00199	-0.14827	-0.16313
3624.000	0.50610	0.00000	-0.12653	-0.12732
3625.000	0.49424	-0.01790	-0.12257	-0.18900
3626.000	0.49622	-0.00995	-0.11071	-0.13130
3627.000	0.45865	-0.04774	-0.06920	-0.14324
3628.000	0.50808	-0.00995	-0.14630	-0.18900
3629.000	0.51203	-0.03382	-0.13641	-0.18104
3630.000	0.49819	0.00398	-0.10874	-0.09947
3631.000	0.50017	-0.03183	-0.13839	-0.16910
3632.000	0.49424	-0.03581	-0.13246	-0.19894
3633.000	0.52389	-0.03382	-0.15421	-0.14722
3634.000	0.50215	0.01393	-0.12850	-0.16711
3635.000	0.49622	-0.01790	-0.13444	-0.14523
3636.000	0.51994	-0.05371	-0.13839	-0.17308
3637.000	0.52982	0.00000	-0.13246	-0.17706
3638.000	0.55552	0.01194	-0.12257	-0.12136
3639.000	0.51994	-0.01591	-0.14630	-0.18701
3640.000	0.51796	0.00199	-0.13839	-0.19297
3641.000	0.50215	-0.00597	-0.14432	-0.18701
3642.000	0.60296	0.02387	-0.14827	-0.17905
3643.000	0.49622	0.03382	-0.14037	-0.16512
3644.000	0.52389	-0.02188	-0.12060	-0.17905
3645.000	0.57331	-0.00597	-0.14234	-0.14523
3646.000	0.55552	0.01591	-0.13048	-0.22282
3647.000	0.55947	0.03183	-0.14037	-0.18303
3648.000	0.56540	0.04973	-0.13444	-0.21287
3649.000	0.54761	0.00796	-0.13641	-0.22480
3650.000	0.55354	0.00199	-0.13839	-0.19297
3651.000	0.53378	0.00000	-0.13048	-0.21287
3652.000	0.55157	-0.00597	-0.11664	-0.19297
3653.000	0.54761	-0.03780	-0.14037	-0.18104
3654.000	0.53575	0.02188	-0.13444	-0.19894
3655.000	0.56936	0.03382	-0.12455	-0.22282
3656.000	0.55552	-0.00796	-0.14630	-0.22878
3657.000	0.61285	0.00398	-0.13246	-0.21884
3658.000	0.54366	0.00000	-0.11269	-0.23276
3659.000	0.56936	-0.02188	-0.13839	-0.17905
3660.000	0.51796	-0.01194	-0.16014	-0.23276
3661.000	0.51005	-0.07162	-0.14234	-0.24868
3662.000	0.53575	-0.01790	-0.12850	-0.20690
3663.000	0.53180	-0.02984	-0.15816	-0.21685
3664.000	0.49819	-0.01591	-0.12850	-0.20093
3665.000	0.51994	-0.04178	-0.11664	-0.17109
3666.000	0.53378	-0.04178	-0.11467	-0.20889
3667.000	0.54564	-0.01393	-0.10478	-0.16910
3668.000	0.52389	-0.03183	-0.13048	-0.17706
3669.000	0.57133	-0.01790	-0.12850	-0.19098
3670.000	0.49226	-0.03382	-0.12850	-0.16512
3671.000	0.53378	-0.03581	-0.13048	-0.16910
3672.000	0.52784	-0.04377	-0.14234	-0.15716
3673.000	0.52982	-0.00796	-0.14037	-0.19695
3674.000	0.55157	0.02387	-0.13246	-0.14722
3675.000	0.51598	-0.02188	-0.12653	-0.15120
3676.000	0.51796	-0.04973	-0.14037	-0.17109
3677.000	0.52784	-0.00597	-0.11269	-0.17507
3678.000	0.49028	-0.01989	-0.13246	-0.19297
3679.000	0.54366	-0.01591	-0.13048	-0.18303
3680.000	0.54761	-0.00995	-0.11862	-0.18303
3681.000	0.52389	-0.05570	-0.12060	-0.16313
3682.000	0.50610	-0.02785	-0.12455	-0.15518
3683.000	0.49226	-0.04178	-0.08106	-0.17706
3684.000	0.52784	-0.00796	-0.12850	-0.19894
3685.000	0.48040	-0.06167	-0.14827	-0.13130
3686.000	0.52982	0.00597	-0.08501	-0.11141
3687.000	0.50610	-0.01989	-0.14432	-0.11539
3688.000	0.46063	0.00597	-0.11664	-0.15120
3689.000	0.53575	-0.07560	-0.16409	-0.13528
3690.000	0.47645	-0.01790	-0.12653	-0.19297
3691.000	0.52191	-0.04774	-0.10676	-0.14921
3692.000	0.48633	-0.01790	-0.12060	-0.15518
3693.000	0.48831	-0.01591	-0.12653	-0.16512
3694.000	0.49622	-0.04178	-0.13246	-0.16512
3695.000	0.51005	-0.02188	-0.15816	-0.17905
3696.000	0.47447	-0.06366	-0.13246	-0.16910
3697.000	0.48633	-0.02586	-0.10280	-0.14921
3698.000	0.53575	-0.02188	-0.15421	-0.16910
3699.000	0.50610	-0.00597	-0.11269	-0.14921
3700.000	0.48435	-0.03581	-0.11269	-0.15716
3701.000	0.49226	0.00199	-0.11269	-0.14921
3702.000	0.49424	-0.00199	-0.14037	-0.11738
3703.000	0.51598	-0.00995	-0.12850	-0.15716
3704.000	0.50412	-0.02387	-0.14827	-0.17109
3705.000	0.51598	-0.01790	-0.12257	-0.12334
3706.000	0.48435	-0.03780	-0.11467	-0.14722
3707.000	0.46459	-0.04178	-0.10478	-0.14523
3708.000	0.46854	-0.02188	-0.15223	-0.17308
3709.000	0.48040	-0.03382	-0.13246	-0.15120
3710.000	0.49028	-0.00597	-0.14827	-0.13329
3711.000	0.43889	-0.06167	-0.12060	-0.15319
3712.000	0.51203	-0.02984	-0.11071	-0.20690
3713.000	0.47249	-0.06764	-0.10676	-0.15319
3714.000	0.49028	-0.03979	-0.13048	-0.19695
3715.000	0.46063	-0.02785	-0.12060	-0.14125
3716.000	0.47842	-0.04973	-0.13048	-0.16711
3717.000	0.48831	0.00995	-0.13246	-0.14125
3718.000	0.46656	-0.01989	-0.10676	-0.17109
3719.000	0.49424	-0.04973	-0.14630	-0.15518
3720.000	0.49819	0.00398	-0.14827	-0.16512
3721.000	0.50412	-0.04576	-0.11269	-0.16313
3722.000	0.48633	-0.01989	-0.13839	-0.16512
3723.000	0.50412	-0.01393	-0.15223	-0.18701
3724.000	0.47645	-0.05570	-0.12257	-0.16313
3725.000	0.50808	-0.02785	-0.13048	-0.14523
3726.000	0.47447	-0.06366	-0.12060	-0.17109
3727.000	0.52587	-0.03780	-0.16014	-0.18104
3728.000	0.48633	-0.04377	-0.13048	-0.14324
3729.000	0.49226	-0.04377	-0.13246	-0.13727
3730.000	0.48831	-0.03979	-0.15025	-0.17109
3731.000	0.51203	-0.01790	-0.16211	-0.16910
3732.000	0.50610	-0.04377	-0.13641	-0.12931
3733.000	0.50412	-0.04973	-0.13048	-0.14722
3734.000	0.49622	-0.03780	-0.13839	-0.10544
3735.000	0.48435	-0.02586	-0.13641	-0.12136
3736.000	0.50412	-0.02984	-0.16211	-0.15716
3737.000	0.49028	0.00199	-0.15618	-0.12533
3738.000	0.50412	-0.01591	-0.15025	-0.15319
3739.000	0.49819	0.00000	-0.13839	-0.17507
3740.000	0.50610	-0.04576	-0.12653	-0.14722
3741.000	0.47249	-0.01790	-0.11862	-0.16711
3742.000	0.48831	-0.02387	-0.11664	-0.13329
3743.000	0.50017	-0.01194	-0.13641	-0.11937
3744.000	0.47842	-0.01591	-0.14827	-0.14523
3745.000	0.49028	-0.02586	-0.13839	-0.16313
3746.000	0.49622	-0.04576	-0.08106	-0.15120
3747.000	0.51203	-0.03581	-0.13048	-0.15518
3748.000	0.51598	-0.04377	-0.15618	-0.12136
3749.000	0.48633	-0.09151	-0.14827	-0.12533
3750.000	0.51401	-0.04973	-0.14432	-0.14324
3751.000	0.51796	-0.03979	-0.15618	-0.17109
3752.000	0.48435	-0.04973	-0.13048	-0.12533
3753.000	0.46261	-0.05769	-0.11071	-0.14324
3754.000	0.48040	-0.06366	-0.14827	-0.18502
3755.000	0.48238	-0.02387	-0.13246	-0.12931
3756.000	0.48633	-0.04377	-0.11664	-0.12732
3757.000	0.47447	-0.02785	-0.11467	-0.11937
3758.000	0.50017	-0.06565	-0.12060	-0.14125
3759.000	0.51796	-0.01591	-0.12653	-0.12533
3760.000	0.46459	-0.01194	-0.12257	-0.11738
3761.000	0.52191	-0.01393	-0.12850	-0.16711
3762.000	0.51401	-0.02387	-0.09490	-0.14921
3763.000	0.49622	-0.05371	-0.10083	-0.13727
3764.000	0.47842	-0.02586	-0.09490	-0.13329
3765.000	0.49819	-0.04774	-0.10676	-0.14125
3766.000	0.50017	-0.08952	-0.10280	-0.08952
3767.000	0.48435	-0.06764	-0.08897	-0.12533
3768.000	0.49226	-0.05968	-0.12257	-0.11738
3769.000	0.48435	-0.04178	-0.09094	-0.15915
3770.000	0.46854	-0.08753	-0.12850	-0.14523
3771.000	0.48831	-0.07361	-0.10083	-0.11141
3772.000	0.45668	-0.07957	-0.12257	-0.11340
3773.000	0.44284	-0.09549	-0.10874	-0.13926
3774.000	0.48435	-0.07560	-0.12455	-0.13528
3775.000	0.45668	-0.08156	-0.09885	-0.11340
3776.000	0.48831	-0.11936	-0.11269	-0.11738
3777.000	0.45272	-0.07759	-0.09687	-0.10345
3778.000	0.46656	-0.07560	-0.10083	-0.10146
3779.000	0.47249	-0.08952	-0.07710	-0.09748
3780.000	0.48633	-0.09549	-0.10083	-0.10942
3781.000	0.47447	-0.08554	-0.09687	-0.08754
3782.000	0.46459	-0.07759	-0.07513	-0.09151
3783.000	0.51796	-0.03581	-0.10676	-0.13528
3784.000	0.45668	-0.07560	-0.10280	-0.11937
3785.000	0.47052	-0.07759	-0.10083	-0.12533
3786.000	0.50215	-0.05769	-0.10083	-0.14523
3787.000	0.47249	-0.04973	-0.11269	-0.10345
3788.000	0.51203	-0.08355	-0.09885	-0.12533
3789.000	0.47052	-0.08156	-0.07908	-0.11539
3790.000	0.47052	-0.07560	-0.06129	-0.12136
3791.000	0.44679	-0.08554	-0.06524	-0.11738
3792.000	0.52191	-0.06764	-0.09885	-0.09350
3793.000	0.49819	-0.09151	-0.07315	-0.11738
3794.000	0.49819	-0.01591	-0.10083	-0.13727
3795.000	0.47447	-0.08156	-0.11664	-0.11738
3796.000	0.48831	-0.09748	-0.11269	-0.13130
3797.000	0.48435	-0.08554	-0.06326	-0.14722
3798.000	0.47842	-0.06764	-0.11467	-0.14523
3799.000	0.48435	-0.03581	-0.09094	-0.13130
3800.000	0.46854	-0.04774	-0.08699	-0.13528
3801.000	0.46261	-0.05371	-0.10280	-0.07560
3802.000	0.49819	-0.03581	-0.07710	-0.15319
3803.000	0.44482	-0.10743	-0.07117	-0.10345
3804.000	0.47842	-0.07361	-0.13246	-0.12334
3805.000	0.47842	-0.08952	-0.13048	-0.13528
3806.000	0.44877	-0.11538	-0.13246	-0.11141
3807.000	0.44482	-0.05769	-0.08897	-0.10544
3808.000	0.47249	-0.04973	-0.10874	-0.08753
3809.000	0.46063	-0.06366	-0.11071	-0.05173
3810.000	0.46656	-0.05769	-0.12060	-0.08952
3811.000	0.45470	-0.04377	-0.10874	-0.08356
3812.000	0.45272	-0.05570	-0.16804	-0.10743
3813.000	0.44679	-0.02188	-0.12257	-0.06963
3814.000	0.45865	-0.07957	-0.15816	-0.14125
3815.000	0.49226	-0.04973	-0.12257	-0.10942
3816.000	0.46063	-0.05371	-0.14432	-0.13926
3817.000	0.48040	-0.01989	-0.12455	-0.12533
3818.000	0.41714	-0.09549	-0.16014	-0.10345
3819.000	0.48435	-0.05769	-0.13641	-0.14921
3820.000	0.44877	-0.05172	-0.15618	-0.12136
3821.000	0.40923	-0.01592	-0.11071	-0.13329
3822.000	0.48435	-0.05371	-0.11467	-0.12136
3823.000	0.47447	0.00199	-0.12257	-0.13329
3824.000	0.44086	-0.04576	-0.13246	-0.13130
3825.000	0.44877	-0.00995	-0.13641	-0.10743
3826.000	0.46459	-0.04178	-0.15421	-0.11141
3827.000	0.48040	-0.03382	-0.13246	-0.11539
3828.000	0.44482	-0.00597	-0.13641	-0.08555
3829.000	0.44877	-0.03183	-0.15618	-0.13528
3830.000	0.45272	-0.00597	-0.16211	-0.13130
3831.000	0.42702	-0.05769	-0.15421	-0.14523
3832.000	0.47052	-0.04973	-0.11071	-0.16114
3833.000	0.40330	-0.06565	-0.13246	-0.16512
3834.000	0.42702	-0.07759	-0.15421	-0.16313
3835.000	0.40923	-0.05172	-0.18188	-0.18303
3836.000	0.43691	-0.05570	-0.15816	-0.16512
3837.000	0.44877	-0.02984	-0.13839	-0.17507
3838.000	0.39935	-0.01989	-0.14827	-0.19297
3839.000	0.40528	-0.03979	-0.15223	-0.20889
3840.000	0.42505	-0.06764	-0.19968	-0.21287
3841.000	0.43296	-0.06366	-0.18781	-0.16512
3842.000	0.43296	-0.03780	-0.16804	-0.23077
3843.000	0.43296	-0.08156	-0.16804	-0.20889
3844.000	0.44284	-0.08753	-0.17002	-0.18899
3845.000	0.42702	-0.07361	-0.17002	-0.22083
3846.000	0.44086	-0.09151	-0.16409	-0.24072
3847.000	0.44877	-0.06764	-0.14827	-0.25862
3848.000	0.45075	-0.06764	-0.14234	-0.24868
3849.000	0.43691	-0.06366	-0.13048	-0.22282
3850.000	0.41516	-0.05172	-0.13048	-0.19496
3851.000	0.45470	-0.04973	-0.14630	-0.21287
3852.000	0.44482	-0.04775	-0.12850	-0.17507
3853.000	0.44284	-0.02586	-0.14234	-0.22282
3854.000	0.44679	-0.08952	-0.12653	-0.21287
3855.000	0.43691	-0.02387	-0.12653	-0.14523
3856.000	0.44482	-0.03979	-0.14234	-0.19894
3857.000	0.45470	0.00000	-0.12257	-0.12931
3858.000	0.49226	0.00597	-0.09687	-0.19894
3859.000	0.47052	0.02586	-0.09292	-0.16114
3860.000	0.46656	-0.01194	-0.10083	-0.13528
3861.000	0.40726	-0.01393	-0.09885	-0.18104
3862.000	0.42900	-0.05371	-0.11862	-0.20093
3863.000	0.48633	-0.05769	-0.10280	-0.13926
3864.000	0.42900	-0.03183	-0.10478	-0.19098
3865.000	0.47249	-0.05172	-0.11664	-0.17507
3866.000	0.46459	-0.02586	-0.08699	-0.14722
3867.000	0.49028	-0.00199	-0.09490	-0.19098
3868.000	0.49622	-0.00398	-0.09885	-0.14125
3869.000	0.43889	-0.04178	-0.05733	-0.19099
3870.000	0.46261	-0.04178	-0.10280	-0.13329
3871.000	0.48633	0.00398	-0.07908	-0.17706
3872.000	0.46063	-0.03581	-0.10280	-0.18701
3873.000	0.51598	-0.01194	-0.09687	-0.20093
3874.000	0.42109	-0.04178	-0.09490	-0.19297
3875.000	0.50017	-0.02586	-0.08897	-0.19098
3876.000	0.47249	0.00199	-0.09885	-0.16910
3877.000	0.51401	-0.02387	-0.04547	-0.10345
3878.000	0.48435	0.00796	-0.08897	-0.13329
3879.000	0.47052	-0.01790	-0.10083	-0.12334
3880.000	0.43493	-0.00995	-0.08303	-0.15120
3881.000	0.48040	-0.01989	-0.08303	-0.13329
3882.000	0.47052	-0.03183	-0.07908	-0.12931
3883.000	0.46459	-0.00995	-0.07908	-0.14324
3884.000	0.48633	-0.03581	-0.08106	-0.14722
3885.000	0.47447	0.00000	-0.09292	-0.10743
3886.000	0.48435	0.00796	-0.09885	-0.14324
3887.000	0.50215	-0.02785	-0.07908	-0.15120
3888.000	0.48040	-0.03382	-0.09094	-0.13926
3889.000	0.48238	-0.00796	-0.12257	-0.12334
3890.000	0.42702	0.01592	-0.10478	-0.16512
3891.000	0.45865	-0.00995	-0.10676	-0.15915
3892.000	0.50215	0.03979	-0.11269	-0.16910
3893.000	0.43691	-0.04973	-0.13444	-0.16114
3894.000	0.43098	-0.02387	-0.09094	-0.16910
3895.000	0.46854	-0.00796	-0.11071	-0.18701
3896.000	0.43691	-0.00995	-0.09292	-0.17507
3897.000	0.47645	-0.01194	-0.08501	-0.16512
3898.000	0.50610	-0.01591	-0.11269	-0.17507
3899.000	0.47052	-0.04576	-0.11467	-0.18502
3900.000	0.44284	-0.00597	-0.11071	-0.18701
3901.000	0.47052	-0.00796	-0.12653	-0.11340
3902.000	0.45668	-0.01989	-0.10676	-0.12136
3903.000	0.42702	-0.01790	-0.11269	-0.15120
3904.000	0.44877	-0.00796	-0.11269	-0.14722
3905.000	0.43889	-0.02586	-0.14037	-0.12732
3906.000	0.46261	-0.03183	-0.13641	-0.11141
3907.000	0.45272	0.00796	-0.14234	-0.17308
3908.000	0.44284	-0.03581	-0.13641	-0.12732
3909.000	0.45865	-0.02387	-0.13048	-0.13727
3910.000	0.41516	-0.01592	-0.15025	-0.13727
3911.000	0.42109	-0.06366	-0.13246	-0.15518
3912.000	0.44086	-0.04576	-0.13444	-0.15518
3913.000	0.40726	-0.06764	-0.14827	-0.20491
3914.000	0.42900	-0.04576	-0.16607	-0.19496
3915.000	0.42307	-0.07162	-0.12060	-0.13528
3916.000	0.45075	-0.06764	-0.15025	-0.18701
3917.000	0.42109	-0.05968	-0.16211	-0.18701
3918.000	0.36772	-0.07560	-0.16409	-0.19496
3919.000	0.44086	-0.03780	-0.14234	-0.17507
3920.000	0.38749	-0.06963	-0.13246	-0.15319
3921.000	0.41516	-0.07361	-0.16014	-0.14324
3922.000	0.41714	-0.02785	-0.12850	-0.10544
3923.000	0.37365	-0.08355	-0.10280	-0.12334
3924.000	0.43889	-0.05769	-0.10478	-0.13727
3925.000	0.39737	-0.10544	-0.07908	-0.10743
3926.000	0.42307	-0.07759	-0.12060	-0.15120
3927.000	0.43493	-0.07162	-0.11467	-0.13528
3928.000	0.43691	-0.11538	-0.11467	-0.14324
3929.000	0.40528	-0.09151	-0.10083	-0.12136
3930.000	0.39935	-0.12135	-0.09687	-0.09350
3931.000	0.39144	-0.06565	-0.07710	-0.09549
3932.000	0.39935	-0.07759	-0.10874	-0.08356
3933.000	0.39737	-0.05769	-0.08501	-0.15120
3934.000	0.40923	-0.06963	-0.09490	-0.11738
3935.000	0.37958	-0.07958	-0.12850	-0.12334
3936.000	0.40726	-0.05570	-0.09885	-0.12334
3937.000	0.38156	-0.09350	-0.08699	-0.08555
3938.000	0.42109	-0.03183	-0.07513	-0.08754
3939.000	0.38946	-0.12732	-0.10478	-0.13528
3940.000	0.37958	-0.16711	-0.09292	-0.16512
3941.000	0.38749	-0.10146	-0.09094	-0.14523
3942.000	0.35981	-0.09549	-0.11269	-0.10345
3943.000	0.37760	-0.09151	-0.09687	-0.19496
3944.000	0.36376	-0.10544	-0.09490	-0.17308
3945.000	0.37167	-0.16114	-0.13048	-0.17109
3946.000	0.35190	-0.11539	-0.11862	-0.15915
3947.000	0.37365	-0.14523	-0.14037	-0.16711
3948.000	0.39935	-0.10345	-0.08897	-0.20491
3949.000	0.37563	-0.11538	-0.11664	-0.11340
3950.000	0.37167	-0.10743	-0.09687	-0.18900
3951.000	0.36574	-0.12334	-0.11071	-0.14523
3952.000	0.41516	-0.10942	-0.11269	-0.21486
3953.000	0.37167	-0.09947	-0.09885	-0.21486
3954.000	0.39342	-0.08952	-0.14630	-0.20093
3955.000	0.35586	-0.09947	-0.12060	-0.16711
3956.000	0.33609	-0.14523	-0.12653	-0.16512
3957.000	0.40528	-0.09947	-0.14630	-0.22878
3958.000	0.37958	-0.13329	-0.12850	-0.12931
3959.000	0.38551	-0.10743	-0.14234	-0.18900
3960.000	0.39737	-0.09748	-0.10280	-0.15518
3961.000	0.35388	-0.13926	-0.09885	-0.20093
3962.000	0.38156	-0.08355	-0.12653	-0.18303
3963.000	0.38749	-0.09549	-0.15025	-0.20889
3964.000	0.35981	-0.10743	-0.09094	-0.19297
3965.000	0.36772	-0.10942	-0.11862	-0.17905
3966.000	0.35190	-0.16313	-0.16014	-0.19098
3967.000	0.38946	-0.06565	-0.12257	-0.15915
3968.000	0.39539	-0.08952	-0.15223	-0.18104
3969.000	0.42109	-0.07958	-0.16804	-0.15518
3970.000	0.37365	-0.05371	-0.14432	-0.18502
3971.000	0.40528	-0.07759	-0.18781	-0.18899
3972.000	0.39539	-0.11737	-0.15618	-0.23475
3973.000	0.40726	-0.10544	-0.20561	-0.17109
3974.000	0.42702	-0.07560	-0.17991	-0.21287
3975.000	0.38946	-0.10743	-0.16409	-0.20889
3976.000	0.39342	-0.09748	-0.15816	-0.19894
3977.000	0.40330	-0.04576	-0.18386	-0.18899
3978.000	0.39935	-0.07560	-0.15816	-0.12533
3979.000	0.40133	-0.06366	-0.15421	-0.19297
3980.000	0.39342	-0.11141	-0.16211	-0.12732
3981.000	0.37958	-0.07560	-0.17991	-0.14125
3982.000	0.39539	-0.07759	-0.16409	-0.11539
3983.000	0.36772	-0.07759	-0.17200	-0.19098
3984.000	0.33016	-0.10743	-0.13839	-0.19496
3985.000	0.34004	-0.09151	-0.17595	-0.18502
3986.000	0.36772	-0.06167	-0.15816	-0.12533
3987.000	0.37365	-0.11737	-0.15618	-0.13130
3988.000	0.37365	-0.06366	-0.14827	-0.19297
3989.000	0.37167	-0.09350	-0.18584	-0.12533
3990.000	0.36376	-0.09151	-0.17595	-0.17905
3991.000	0.36574	-0.06963	-0.17200	-0.19297
3992.000	0.33806	-0.11539	-0.13444	-0.16313
3993.000	0.34597	-0.10345	-0.16211	-0.19496
3994.000	0.35388	-0.10544	-0.16804	-0.14523
3995.000	0.37365	-0.09947	-0.17793	-0.17905
3996.000	0.38946	-0.11340	-0.15025	-0.15915
3997.000	0.34795	-0.10345	-0.15223	-0.16910
3998.000	0.36376	-0.10146	-0.16804	-0.18303
3999.000	0.34993	-0.10942	-0.16607	-0.14921
4000.000	0.34993	-0.11340	-0.19572	-0.15517
4001.000	0.40528	-0.10743	-0.17002	-0.13528
4002.000	0.38156	-0.12334	-0.15816	-0.18701
4003.000	0.35190	-0.11539	-0.21352	-0.13329
4004.000	0.35981	-0.17109	-0.18584	-0.15915
4005.000	0.38749	-0.14920	-0.16409	-0.18303
4006.000	0.36376	-0.12533	-0.16607	-0.18303
4007.000	0.38749	-0.10544	-0.16409	-0.20491
4008.000	0.35190	-0.15517	-0.16804	-0.21884
4009.000	0.35981	-0.11737	-0.18386	-0.16910
4010.000	0.37365	-0.10743	-0.13246	-0.16114
4011.000	0.35388	-0.11538	-0.18781	-0.20093
4012.000	0.37167	-0.14920	-0.14037	-0.16711
4013.000	0.35190	-0.10146	-0.13444	-0.18502
4014.000	0.37365	-0.13528	-0.15816	-0.18701
4015.000	0.38353	-0.10942	-0.15223	-0.17308
4016.000	0.34597	-0.15318	-0.15025	-0.16711
4017.000	0.36376	-0.15318	-0.16607	-0.18900
4018.000	0.35586	-0.13329	-0.17991	-0.12334
4019.000	0.39737	-0.13329	-0.15618	-0.16512
4020.000	0.38353	-0.10345	-0.15816	-0.14125
4021.000	0.37563	-0.12334	-0.15618	-0.10146
4022.000	0.42702	-0.08753	-0.17595	-0.13926
4023.000	0.35783	-0.05371	-0.13641	-0.07958
4024.000	0.36969	-0.09350	-0.17200	-0.12533
4025.000	0.36574	-0.09748	-0.16014	-0.16114
4026.000	0.37167	-0.12135	-0.13641	-0.16910
4027.000	0.36179	-0.09350	-0.16211	-0.13130
4028.000	0.36179	-0.10544	-0.14234	-0.15716
4029.000	0.36376	-0.11737	-0.18781	-0.14722
4030.000	0.37760	-0.10544	-0.15223	-0.13727
4031.000	0.34795	-0.12931	-0.13246	-0.18104
4032.000	0.37958	-0.10345	-0.14432	-0.13727
4033.000	0.37563	-0.12732	-0.18188	-0.13727
4034.000	0.35190	-0.09748	-0.14827	-0.12732
4035.000	0.35388	-0.13528	-0.17002	-0.10345
4036.000	0.36969	-0.13528	-0.13641	-0.14324
4037.000	0.38156	-0.09151	-0.16211	-0.11937
4038.000	0.34597	-0.15119	-0.17793	-0.09549
4039.000	0.36574	-0.12334	-0.14432	-0.10544
4040.000	0.36179	-0.07958	-0.16804	-0.13528
4041.000	0.35586	-0.11538	-0.13048	-0.16711
4042.000	0.35586	-0.12931	-0.15618	-0.15915
4043.000	0.39144	-0.12931	-0.14432	-0.14921
4044.000	0.37167	-0.14324	-0.15618	-0.16711
4045.000	0.34993	-0.11340	-0.14827	-0.12334
4046.000	0.33609	-0.10146	-0.17002	-0.15120
4047.000	0.32422	-0.13329	-0.17200	-0.14523
4048.000	0.35783	-0.15716	-0.15816	-0.11937
4049.000	0.31829	-0.13727	-0.15025	-0.11141
4050.000	0.31434	-0.15318	-0.15025	-0.13926
4051.000	0.32818	-0.16313	-0.16211	-0.11738
4052.000	0.34597	-0.13130	-0.15025	-0.11539
4053.000	0.36574	-0.11936	-0.15025	-0.15915
4054.000	0.33609	-0.16114	-0.17002	-0.09947
4055.000	0.35388	-0.12732	-0.12850	-0.13130
4056.000	0.35981	-0.10345	-0.13641	-0.17706
4057.000	0.34399	-0.08952	-0.13048	-0.12334
4058.000	0.33016	-0.12533	-0.14432	-0.13130
4059.000	0.34202	-0.13329	-0.13444	-0.11539
4060.000	0.33411	-0.14125	-0.15025	-0.14125
4061.000	0.31829	-0.13130	-0.15618	-0.13130
4062.000	0.31632	-0.13528	-0.16607	-0.18502
4063.000	0.32818	-0.10942	-0.16607	-0.18502
4064.000	0.33016	-0.11340	-0.13246	-0.15716
4065.000	0.31434	-0.11737	-0.17595	-0.12732
4066.000	0.36179	-0.10345	-0.15421	-0.13528
4067.000	0.31829	-0.11340	-0.15223	-0.15319
4068.000	0.33213	-0.11539	-0.11269	-0.12931
4069.000	0.32027	-0.12732	-0.13048	-0.10544
4070.000	0.33213	-0.09748	-0.14827	-0.10743
4071.000	0.36376	-0.12135	-0.13246	-0.11738
4072.000	0.30050	-0.15716	-0.16014	-0.07759
4073.000	0.33806	-0.13727	-0.13048	-0.17109
4074.000	0.34004	-0.15517	-0.17002	-0.13528
4075.000	0.31039	-0.16512	-0.18979	-0.14722
4076.000	0.35388	-0.15318	-0.20561	-0.16711
4077.000	0.36179	-0.11936	-0.17002	-0.16711
4078.000	0.32818	-0.16910	-0.20758	-0.07361
4079.000	0.31632	-0.13329	-0.16014	-0.15915
4080.000	0.33609	-0.14722	-0.17595	-0.13130
4081.000	0.32422	-0.15119	-0.19375	-0.14921
4082.000	0.36376	-0.17109	-0.16607	-0.12135
4083.000	0.34202	-0.16711	-0.19572	-0.17109
4084.000	0.34993	-0.11141	-0.16409	-0.17507
4085.000	0.34004	-0.15915	-0.16211	-0.12931
4086.000	0.36772	-0.15318	-0.15618	-0.11340
4087.000	0.33806	-0.12931	-0.15816	-0.16512
4088.000	0.33609	-0.14920	-0.16014	-0.13329
4089.000	0.32225	-0.11340	-0.18781	-0.15319
4090.000	0.32422	-0.16313	-0.13839	-0.13926
4091.000	0.31434	-0.17308	-0.15816	-0.16910
4092.000	0.34004	-0.12931	-0.16804	-0.18899
4093.000	0.36574	-0.15517	-0.15816	-0.13727
4094.000	0.35981	-0.17308	-0.16014	-0.16114
4095.000	0.32027	-0.17109	-0.15618	-0.15716
4096.000	0.35388	-0.17706	-0.18188	-0.13329
4097.000	0.32027	-0.17308	-0.16211	-0.16711
4098.000	0.32422	-0.18501	-0.17595	-0.13329
4099.000	0.37760	-0.19894	-0.14827	-0.22083
4100.000	0.33411	-0.19496	-0.15816	-0.16313
4101.000	0.34795	-0.18501	-0.13444	-0.20292
4102.000	0.33411	-0.19894	-0.16211	-0.18502
4103.000	0.34004	-0.17308	-0.16804	-0.19496
4104.000	0.32620	-0.20889	-0.16804	-0.21287
4105.000	0.33806	-0.19496	-0.15816	-0.19297
4106.000	0.39144	-0.15517	-0.16211	-0.19695
4107.000	0.34795	-0.16512	-0.14827	-0.26260
4108.000	0.32027	-0.14125	-0.14827	-0.17905
4109.000	0.32027	-0.15119	-0.13641	-0.22878
4110.000	0.34993	-0.13727	-0.17991	-0.23077
4111.000	0.34202	-0.12732	-0.13444	-0.21088
4112.000	0.33213	-0.14125	-0.12455	-0.23674
4113.000	0.32620	-0.11141	-0.12653	-0.23873
4114.000	0.31434	-0.18899	-0.12060	-0.20491
4115.000	0.35783	-0.16114	-0.16804	-0.19695
4116.000	0.29852	-0.19496	-0.13641	-0.20690
4117.000	0.34993	-0.08355	-0.16607	-0.22878
4118.000	0.33806	-0.16711	-0.16804	-0.20491
4119.000	0.30841	-0.20491	-0.17595	-0.26061
4120.000	0.33016	-0.16910	-0.15025	-0.24868
4121.000	0.34202	-0.13130	-0.17793	-0.26459
4122.000	0.32620	-0.14324	-0.14037	-0.22878
4123.000	0.34202	-0.09549	-0.19177	-0.25862
4124.000	0.34795	-0.11141	-0.11664	-0.21685
4125.000	0.34795	-0.15119	-0.14827	-0.24072
4126.000	0.33016	-0.14920	-0.15025	-0.23475
4127.000	0.33213	-0.13130	-0.13246	-0.23276
4128.000	0.31039	-0.15119	-0.15618	-0.19894
4129.000	0.30248	-0.18303	-0.15223	-0.17905
4130.000	0.34399	-0.16910	-0.19177	-0.20491
4131.000	0.31829	-0.16114	-0.12653	-0.24271
4132.000	0.31236	-0.15119	-0.19968	-0.19695
4133.000	0.35981	-0.15318	-0.15223	-0.21088
4134.000	0.34993	-0.15318	-0.13839	-0.20690
4135.000	0.30446	-0.15915	-0.13246	-0.19297
4136.000	0.30643	-0.21486	-0.16607	-0.20292
4137.000	0.31829	-0.18899	-0.13444	-0.21088
4138.000	0.31236	-0.15716	-0.13839	-0.21884
4139.000	0.36772	-0.18700	-0.13641	-0.18900
4140.000	0.33806	-0.16711	-0.12060	-0.21685
4141.000	0.29062	-0.14921	-0.17398	-0.18701
4142.000	0.30841	-0.16313	-0.16211	-0.21486
4143.000	0.32620	-0.19496	-0.16804	-0.18502
4144.000	0.30841	-0.18104	-0.17595	-0.20690
4145.000	0.33411	-0.18501	-0.16607	-0.20889
4146.000	0.29457	-0.21486	-0.15618	-0.17905
4147.000	0.30841	-0.20690	-0.10874	-0.18502
4148.000	0.33016	-0.17308	-0.15421	-0.17507
4149.000	0.35388	-0.16711	-0.16409	-0.16114
4150.000	0.31039	-0.18302	-0.15223	-0.16711
4151.000	0.34399	-0.16512	-0.13641	-0.19098
4152.000	0.33806	-0.21883	-0.15816	-0.18303
4153.000	0.31236	-0.20093	-0.13246	-0.14523
4154.000	0.32225	-0.16313	-0.19572	-0.16512
4155.000	0.30643	-0.17308	-0.16409	-0.22480
4156.000	0.33411	-0.18501	-0.13048	-0.19098
4157.000	0.33213	-0.14722	-0.13444	-0.18502
4158.000	0.30643	-0.18302	-0.14037	-0.16313
4159.000	0.31039	-0.15915	-0.15223	-0.20491
4160.000	0.33213	-0.16313	-0.15223	-0.21287
4161.000	0.32422	-0.14324	-0.14234	-0.21088
4162.000	0.31632	-0.21883	-0.18781	-0.22083
4163.000	0.29062	-0.17905	-0.15025	-0.18502
4164.000	0.31039	-0.14921	-0.15223	-0.20889
4165.000	0.30446	-0.17706	-0.15223	-0.21287
4166.000	0.30643	-0.17507	-0.15816	-0.24669
4167.000	0.31039	-0.17706	-0.14432	-0.22679
4168.000	0.24712	-0.23276	-0.15618	-0.22083
4169.000	0.28073	-0.19098	-0.13444	-0.18701
4170.000	0.29852	-0.19496	-0.14234	-0.26061
4171.000	0.28271	-0.17308	-0.11862	-0.20690
4172.000	0.29655	-0.13926	-0.16014	-0.23873
4173.000	0.25503	-0.15318	-0.15223	-0.23077
4174.000	0.32818	-0.19894	-0.14827	-0.16910
4175.000	0.28864	-0.17706	-0.13839	-0.19496
4176.000	0.32225	-0.17109	-0.16014	-0.21486
4177.000	0.30446	-0.19496	-0.11862	-0.23077
4178.000	0.32620	-0.20093	-0.15025	-0.23276
4179.000	0.30446	-0.17905	-0.12850	-0.22083
4180.000	0.30050	-0.20093	-0.11664	-0.18303
4181.000	0.30643	-0.21287	-0.12850	-0.19297
4182.000	0.31434	-0.21287	-0.14827	-0.24271
4183.000	0.33016	-0.17706	-0.16014	-0.20292
4184.000	0.27480	-0.20292	-0.12060	-0.18104
4185.000	0.30643	-0.16711	-0.15025	-0.21486
4186.000	0.28864	-0.17905	-0.13444	-0.21884
4187.000	0.30446	-0.20093	-0.13839	-0.19297
4188.000	0.30446	-0.17905	-0.14630	-0.18701
4189.000	0.27480	-0.16512	-0.16211	-0.17308
4190.000	0.29062	-0.17109	-0.18584	-0.18899
4191.000	0.28864	-0.22480	-0.14234	-0.16910
4192.000	0.28864	-0.21486	-0.15421	-0.16114
4193.000	0.29259	-0.25663	-0.12653	-0.19695
4194.000	0.30050	-0.21486	-0.18386	-0.21486
4195.000	0.31236	-0.19894	-0.14432	-0.19695
4196.000	0.27085	-0.21685	-0.12257	-0.22878
4197.000	0.31632	-0.18302	-0.10676	-0.17308
4198.000	0.24515	-0.21486	-0.13641	-0.20093
4199.000	0.30643	-0.21486	-0.14037	-0.21088
4200.000	0.26887	-0.22679	-0.16014	-0.17706
4201.000	0.25701	-0.27056	-0.16211	-0.15915
4202.000	0.28073	-0.26459	-0.15816	-0.20093
4203.000	0.25899	-0.23873	-0.14432	-0.22282
4204.000	0.25701	-0.26459	-0.16211	-0.16114
4205.000	0.27480	-0.22878	-0.16804	-0.21287
4206.000	0.25899	-0.24072	-0.16409	-0.22480
4207.000	0.28073	-0.23475	-0.17398	-0.13329
4208.000	0.28073	-0.22281	-0.16014	-0.21287
4209.000	0.29062	-0.20292	-0.15421	-0.24868
4210.000	0.29259	-0.18303	-0.17793	-0.20889
4211.000	0.27678	-0.23873	-0.14630	-0.19695
4212.000	0.25305	-0.25862	-0.14827	-0.17109
4213.000	0.27282	-0.23674	-0.16409	-0.25067
4214.000	0.26689	-0.27653	-0.14827	-0.19695
4215.000	0.28073	-0.23475	-0.14827	-0.21486
4216.000	0.27282	-0.24470	-0.14234	-0.19098
4217.000	0.27480	-0.26260	-0.16607	-0.18900
4218.000	0.23922	-0.24271	-0.14234	-0.18303
4219.000	0.27876	-0.25265	-0.16804	-0.20292
4220.000	0.29655	-0.22480	-0.14827	-0.16910
4221.000	0.25899	-0.21486	-0.16211	-0.20292
4222.000	0.24910	-0.20889	-0.16014	-0.20093
4223.000	0.23724	-0.25464	-0.14630	-0.17308
4224.000	0.27085	-0.27056	-0.13839	-0.21884
4225.000	0.24712	-0.25265	-0.19968	-0.19297
4226.000	0.28073	-0.22480	-0.15816	-0.15915
4227.000	0.27282	-0.24271	-0.14827	-0.20889
4228.000	0.27876	-0.24271	-0.15816	-0.13727
4229.000	0.29062	-0.24072	-0.15421	-0.18303
4230.000	0.24119	-0.20690	-0.14037	-0.20292
4231.000	0.26492	-0.22082	-0.14630	-0.16910
4232.000	0.26689	-0.22281	-0.16211	-0.09350
4233.000	0.29457	-0.26061	-0.14234	-0.14921
4234.000	0.25108	-0.24072	-0.14432	-0.12136
4235.000	0.25899	-0.27454	-0.12257	-0.14523
4236.000	0.24712	-0.22878	-0.15223	-0.15319
4237.000	0.26887	-0.26459	-0.14037	-0.18104
4238.000	0.26689	-0.19297	-0.13246	-0.19894
4239.000	0.27480	-0.21486	-0.14234	-0.19695
4240.000	0.27480	-0.22480	-0.15025	-0.16313
4241.000	0.27480	-0.20292	-0.16409	-0.13926
4242.000	0.29062	-0.20889	-0.17200	-0.15319
4243.000	0.23329	-0.20292	-0.17200	-0.13727
4244.000	0.27678	-0.20690	-0.14827	-0.14921
4245.000	0.27282	-0.23475	-0.17002	-0.17109
4246.000	0.29655	-0.20093	-0.17398	-0.17507
4247.000	0.26689	-0.23873	-0.16014	-0.16910
4248.000	0.24317	-0.27653	-0.15618	-0.14921
4249.000	0.27282	-0.26658	-0.16211	-0.15915
4250.000	0.25503	-0.27852	-0.16409	-0.12533
4251.000	0.25108	-0.26857	-0.16211	-0.15120
4252.000	0.27480	-0.24868	-0.15025	-0.13528
4253.000	0.24317	-0.24072	-0.16804	-0.17308
4254.000	0.26294	-0.25862	-0.15421	-0.15120
4255.000	0.29852	-0.23475	-0.16211	-0.15915
4256.000	0.27678	-0.22281	-0.15816	-0.19496
4257.000	0.29062	-0.26061	-0.14630	-0.17507
4258.000	0.24910	-0.22878	-0.16409	-0.17905
4259.000	0.25701	-0.21287	-0.17793	-0.19297
4260.000	0.24317	-0.22281	-0.16607	-0.18701
4261.000	0.30643	-0.23475	-0.14037	-0.18104
4262.000	0.27085	-0.22679	-0.14630	-0.16313
4263.000	0.29457	-0.22679	-0.15816	-0.17905
4264.000	0.26294	-0.26260	-0.15223	-0.13528
4265.000	0.21945	-0.25067	-0.13839	-0.20491
4266.000	0.24910	-0.21883	-0.15618	-0.18303
4267.000	0.23526	-0.21685	-0.17002	-0.16711
4268.000	0.24910	-0.20889	-0.15025	-0.13130
4269.000	0.26887	-0.25265	-0.16014	-0.16711
4270.000	0.27480	-0.22480	-0.14827	-0.18502
4271.000	0.25108	-0.25265	-0.20758	-0.15319
4272.000	0.22538	-0.24271	-0.16211	-0.15319
4273.000	0.25503	-0.19695	-0.16409	-0.17507
4274.000	0.24910	-0.20491	-0.14432	-0.19695
4275.000	0.24910	-0.21287	-0.15816	-0.16512
4276.000	0.24119	-0.24271	-0.17002	-0.13926
4277.000	0.25305	-0.24868	-0.15816	-0.14921
4278.000	0.23329	-0.23475	-0.17002	-0.17308
4279.000	0.27282	-0.21287	-0.14234	-0.14523
4280.000	0.24515	-0.21883	-0.16211	-0.13528
4281.000	0.25503	-0.19695	-0.15223	-0.11340
4282.000	0.21352	-0.19894	-0.12850	-0.17507
4283.000	0.25899	-0.20491	-0.15816	-0.17706
4284.000	0.27085	-0.21287	-0.15223	-0.14125
4285.000	0.27085	-0.20491	-0.16014	-0.14324
4286.000	0.21945	-0.22679	-0.13444	-0.14324
4287.000	0.23329	-0.21884	-0.12455	-0.14722
4288.000	0.23526	-0.21884	-0.14827	-0.15716
4289.000	0.27085	-0.22082	-0.15025	-0.15319
4290.000	0.24317	-0.21685	-0.14432	-0.11539
4291.000	0.24317	-0.23873	-0.12850	-0.15716
4292.000	0.24317	-0.20093	-0.12455	-0.16512
4293.000	0.21747	-0.25266	-0.16014	-0.13926
4294.000	0.21549	-0.21884	-0.14630	-0.11539
4295.000	0.25305	-0.21685	-0.13839	-0.13727
4296.000	0.20956	-0.22281	-0.17002	-0.17706
4297.000	0.21747	-0.20093	-0.14827	-0.16512
4298.000	0.24515	-0.23077	-0.13444	-0.14523
4299.000	0.23526	-0.18303	-0.13048	-0.15915
4300.000	0.26492	-0.21883	-0.13444	-0.15518
4301.000	0.25503	-0.22679	-0.13444	-0.19098
4302.000	0.25899	-0.22281	-0.16607	-0.15915
4303.000	0.23329	-0.23077	-0.12850	-0.14523
4304.000	0.22735	-0.22281	-0.14432	-0.09549
4305.000	0.25503	-0.21883	-0.13048	-0.11340
4306.000	0.26096	-0.23475	-0.13048	-0.12732
4307.000	0.23131	-0.25663	-0.15025	-0.13727
4308.000	0.22538	-0.24470	-0.12850	-0.15120
4309.000	0.21945	-0.25663	-0.11862	-0.10743
4310.000	0.22340	-0.20093	-0.14432	-0.14722
4311.000	0.26689	-0.21486	-0.13839	-0.12732
4312.000	0.23329	-0.29045	-0.13641	-0.14324
4313.000	0.23329	-0.23873	-0.13839	-0.14523
4314.000	0.24910	-0.24072	-0.15025	-0.13727
4315.000	0.23526	-0.28250	-0.13048	-0.12334
4316.000	0.21945	-0.27056	-0.15223	-0.14722
4317.000	0.25305	-0.22082	-0.12653	-0.11539
4318.000	0.22142	-0.25862	-0.13839	-0.10942
4319.000	0.23526	-0.22878	-0.14827	-0.13329
4320.000	0.22538	-0.25464	-0.14234	-0.15915
4321.000	0.20363	-0.27653	-0.13641	-0.13329
4322.000	0.22340	-0.25265	-0.15223	-0.14125
4323.000	0.22735	-0.25464	-0.09687	-0.16512
4324.000	0.21945	-0.29443	-0.14037	-0.13528
4325.000	0.22538	-0.24470	-0.14037	-0.14523
4326.000	0.23329	-0.28051	-0.13048	-0.17507
4327.000	0.25701	-0.25066	-0.14037	-0.17905
4328.000	0.23526	-0.25663	-0.13444	-0.12931
4329.000	0.21747	-0.26260	-0.10083	-0.10146
4330.000	0.24515	-0.27653	-0.13048	-0.13926
4331.000	0.25305	-0.23674	-0.13839	-0.13130
4332.000	0.26294	-0.29443	-0.12060	-0.14921
4333.000	0.20956	-0.32825	-0.13048	-0.10345
4334.000	0.23922	-0.27056	-0.09292	-0.13926
4335.000	0.24317	-0.28647	-0.14827	-0.16313
4336.000	0.22735	-0.30438	-0.13444	-0.12533
4337.000	0.21549	-0.26857	-0.14827	-0.13329
4338.000	0.26294	-0.25265	-0.12850	-0.06366
4339.000	0.22340	-0.32626	-0.10874	-0.09151
4340.000	0.22933	-0.25265	-0.12455	-0.12136
4341.000	0.21747	-0.26658	-0.11071	-0.08356
4342.000	0.20758	-0.23276	-0.12850	-0.07361
4343.000	0.26294	-0.25464	-0.11269	-0.05173
4344.000	0.24910	-0.24271	-0.15421	-0.11539
4345.000	0.24712	-0.27852	-0.11269	-0.08157
4346.000	0.24119	-0.29244	-0.13444	-0.13528
4347.000	0.21945	-0.27454	-0.12455	-0.13926
4348.000	0.22142	-0.25663	-0.14234	-0.14722
4349.000	0.25108	-0.23276	-0.13641	-0.14125
4350.000	0.22735	-0.30637	-0.14630	-0.14921
4351.000	0.26689	-0.25663	-0.09490	-0.09947
4352.000	0.24317	-0.31035	-0.11862	-0.12931
4353.000	0.22340	-0.26459	-0.14037	-0.11738
4354.000	0.24317	-0.26658	-0.11862	-0.18900
4355.000	0.22142	-0.25464	-0.13246	-0.16711
4356.000	0.22142	-0.25663	-0.10676	-0.12334
4357.000	0.23724	-0.27852	-0.14630	-0.12533
4358.000	0.21747	-0.29244	-0.14037	-0.10743
4359.000	0.24712	-0.26857	-0.11467	-0.12533
4360.000	0.20363	-0.30239	-0.14630	-0.11340
4361.000	0.21945	-0.30637	-0.10874	-0.08356
4362.000	0.24119	-0.33820	-0.12850	-0.11539
4363.000	0.18386	-0.30836	-0.12455	-0.12931
4364.000	0.23329	-0.29443	-0.09687	-0.11937
4365.000	0.25108	-0.27255	-0.15421	-0.11937
4366.000	0.26294	-0.29045	-0.12455	-0.09947
4367.000	0.27282	-0.27653	-0.10083	-0.08952
4368.000	0.24910	-0.28647	-0.11269	-0.09748
4369.000	0.22933	-0.32228	-0.10280	-0.09151
4370.000	0.23526	-0.30836	-0.11071	-0.09350
4371.000	0.23922	-0.29244	-0.06920	-0.08555
4372.000	0.23329	-0.28846	-0.08303	-0.09151
4373.000	0.22538	-0.31234	-0.06920	-0.08555
4374.000	0.23922	-0.26260	-0.12060	-0.10345
4375.000	0.24515	-0.30239	-0.10676	-0.06366
4376.000	0.23131	-0.27056	-0.07710	-0.05570
4377.000	0.23922	-0.29045	-0.08501	-0.11738
4378.000	0.21549	-0.30239	-0.09094	-0.11340
4379.000	0.22340	-0.28846	-0.09292	-0.05371
4380.000	0.21154	-0.34814	-0.11467	-0.05173
4381.000	0.27678	-0.31035	-0.08303	-0.06565
4382.000	0.23922	-0.32825	-0.07117	-0.05769
4383.000	0.27876	-0.27852	-0.10676	-0.08157
4384.000	0.20165	-0.27056	-0.09490	-0.08356
4385.000	0.22538	-0.30637	-0.10280	-0.07759
4386.000	0.23131	-0.29642	-0.07117	-0.04178
4387.000	0.23922	-0.31631	-0.09687	-0.08555
4388.000	0.23526	-0.28846	-0.08501	-0.07361
4389.000	0.24317	-0.29841	-0.09292	-0.07560
4390.000	0.19968	-0.31830	-0.12257	-0.05371
4391.000	0.21747	-0.29045	-0.10676	-0.04377
4392.000	0.21945	-0.31433	-0.09094	-0.06963
4393.000	0.20561	-0.32228	-0.06920	-0.07560
4394.000	0.24317	-0.27653	-0.07315	-0.03581
4395.000	0.23131	-0.25265	-0.08303	-0.00796
4396.000	0.21945	-0.30637	-0.10083	-0.03581
4397.000	0.21352	-0.33024	-0.05338	-0.03979
4398.000	0.21352	-0.30438	-0.09094	-0.02387
4399.000	0.21945	-0.29841	-0.10874	-0.06366
4400.000	0.20561	-0.27454	-0.08897	0.00398
4401.000	0.19375	-0.29443	-0.11071	-0.05371
4402.000	0.23922	-0.29045	-0.10478	-0.10146
4403.000	0.22538	-0.24470	-0.10083	-0.04377
4404.000	0.21945	-0.27056	-0.09885	-0.03780
4405.000	0.25701	-0.32029	-0.07710	-0.02984
4406.000	0.21352	-0.32825	-0.08303	-0.06963
4407.000	0.19375	-0.28051	-0.10083	-0.03780
4408.000	0.20956	-0.29642	-0.10083	-0.05173
4409.000	0.21945	-0.30040	-0.09687	0.00398
4410.000	0.22933	-0.31830	-0.10874	-0.05968
4411.000	0.24515	-0.29642	-0.11862	-0.07958
4412.000	0.22340	-0.30637	-0.11269	-0.00995
4413.000	0.20956	-0.29244	-0.08501	-0.06565
4414.000	0.21945	-0.29045	-0.11269	-0.08356
4415.000	0.18979	-0.29642	-0.09687	-0.01790
4416.000	0.22340	-0.29244	-0.13444	-0.03581
4417.000	0.20956	-0.28449	-0.08699	-0.01194
4418.000	0.18979	-0.26857	-0.10676	-0.05570
4419.000	0.20561	-0.28647	-0.10280	0.03979
4420.000	0.19572	-0.23873	-0.12850	-0.01393
4421.000	0.21945	-0.27852	-0.13048	-0.03979
4422.000	0.23329	-0.27056	-0.12850	0.00199
4423.000	0.20363	-0.26658	-0.10478	0.01194
4424.000	0.22340	-0.27056	-0.12653	-0.02387
4425.000	0.20561	-0.29244	-0.09885	-0.01989
4426.000	0.17200	-0.24868	-0.10083	0.00796
4427.000	0.24712	-0.25862	-0.10874	-0.02586
4428.000	0.20363	-0.25464	-0.12455	-0.00199
4429.000	0.20758	-0.26459	-0.13048	0.01194
4430.000	0.19968	-0.24271	-0.09094	0.02586
4431.000	0.22340	-0.26260	-0.10083	-0.00199
4432.000	0.20758	-0.26061	-0.11467	0.01393
4433.000	0.20165	-0.29642	-0.12060	0.01592
4434.000	0.22142	-0.25265	-0.15025	-0.01393
4435.000	0.23526	-0.28647	-0.16409	-0.00199
4436.000	0.21747	-0.25663	-0.12455	-0.04775
4437.000	0.19177	-0.28449	-0.13246	-0.04178
4438.000	0.17398	-0.30836	-0.12653	-0.05769
4439.000	0.21549	-0.25862	-0.11862	-0.02785
4440.000	0.20561	-0.26857	-0.13246	-0.00796
4441.000	0.19375	-0.31632	-0.12060	0.00796
4442.000	0.19375	-0.29642	-0.13048	-0.00199
4443.000	0.21747	-0.24072	-0.13048	-0.00995
4444.000	0.21549	-0.25067	-0.14432	-0.01790
4445.000	0.22933	-0.26857	-0.11071	-0.00398
4446.000	0.19177	-0.25663	-0.15025	0.01592
4447.000	0.19375	-0.31632	-0.12850	0.00597
4448.000	0.19770	-0.26260	-0.14827	-0.00199
4449.000	0.24119	-0.28647	-0.11862	0.00995
4450.000	0.21154	-0.26260	-0.12653	0.04178
4451.000	0.19572	-0.27454	-0.16607	0.01393
4452.000	0.23526	-0.27852	-0.13839	-0.00199
4453.000	0.18188	-0.29045	-0.11269	-0.01592
4454.000	0.22340	-0.27255	-0.14630	0.01790
4455.000	0.17793	-0.24669	-0.13641	-0.00796
4456.000	0.21549	-0.26459	-0.16211	-0.00597
4457.000	0.20758	-0.23873	-0.13246	0.01592
4458.000	0.20561	-0.26260	-0.13641	0.02188
4459.000	0.23526	-0.26061	-0.12850	0.03979
4460.000	0.22142	-0.20690	-0.12455	0.05769
4461.000	0.20758	-0.23475	-0.13839	0.01790
4462.000	0.20165	-0.27255	-0.13048	0.06167
4463.000	0.18584	-0.26061	-0.13048	0.04377
4464.000	0.20956	-0.25266	-0.10676	0.06366
4465.000	0.22340	-0.26459	-0.13641	0.03382
4466.000	0.21154	-0.26260	-0.15025	0.00995
4467.000	0.19770	-0.27653	-0.13444	0.03979
4468.000	0.19572	-0.25464	-0.13444	0.00796
4469.000	0.19770	-0.25862	-0.15421	0.00000
4470.000	0.23131	-0.23077	-0.13246	0.00199
4471.000	0.18781	-0.27255	-0.14432	0.01393
4472.000	0.18188	-0.28250	-0.16014	0.03382
4473.000	0.17002	-0.24271	-0.13839	0.05968
4474.000	0.20165	-0.29045	-0.12060	0.04775
4475.000	0.18781	-0.28449	-0.14037	0.07958
4476.000	0.18584	-0.25464	-0.16409	0.04775
4477.000	0.19968	-0.23873	-0.14432	0.03183
4478.000	0.22933	-0.21486	-0.12653	0.05371
4479.000	0.21945	-0.23475	-0.12455	0.04775
4480.000	0.22538	-0.22281	-0.13839	0.04178
4481.000	0.22538	-0.29642	-0.15025	0.04377
4482.000	0.22735	-0.24271	-0.13839	0.06167
4483.000	0.18979	-0.27255	-0.15025	0.02984
4484.000	0.21352	-0.23873	-0.13048	0.08356
4485.000	0.23526	-0.24072	-0.13246	0.05769
4486.000	0.22538	-0.28250	-0.12257	0.04178
4487.000	0.20956	-0.23276	-0.14432	0.04576
4488.000	0.20561	-0.25464	-0.15816	0.02586
4489.000	0.22735	-0.21685	-0.13444	0.04377
4490.000	0.23526	-0.22281	-0.13641	0.07162
4491.000	0.21747	-0.23276	-0.14037	0.05769
4492.000	0.23329	-0.20093	-0.10874	0.08555
4493.000	0.20956	-0.22878	-0.13444	0.03183
4494.000	0.21549	-0.23077	-0.11862	0.08157
4495.000	0.21154	-0.23873	-0.14827	0.12732
4496.000	0.20956	-0.24470	-0.15816	0.04775
4497.000	0.21352	-0.17507	-0.12257	0.11937
4498.000	0.24119	-0.21685	-0.12850	0.10146
4499.000	0.21549	-0.25266	-0.12060	0.06366
4500.000	0.20956	-0.24072	-0.11269	0.06764
4501.000	0.19177	-0.26857	-0.13048	0.09350
4502.000	0.22142	-0.22878	-0.13246	0.08753
4503.000	0.21352	-0.26658	-0.12850	0.09151
4504.000	0.22340	-0.23276	-0.12850	0.09947
4505.000	0.24515	-0.21486	-0.11269	0.07162
4506.000	0.20561	-0.25067	-0.11269	0.08555
4507.000	0.20561	-0.23674	-0.11664	0.08157
4508.000	0.24317	-0.23674	-0.12060	0.07361
4509.000	0.16014	-0.23873	-0.14037	0.10942
4510.000	0.21154	-0.22082	-0.14037	0.09549
4511.000	0.22933	-0.22480	-0.12850	0.13130
4512.000	0.19375	-0.20690	-0.12653	0.13727
4513.000	0.20165	-0.21685	-0.14234	0.10345
