time (ms)	lx (deg)	ly (deg)	rx (deg)	ry (deg)
0.000	0.54168	0.65248	0.28271	0.75394
1.000	0.53773	0.61866	0.23724	0.76190
2.000	0.55354	0.60076	0.25108	0.75991
3.000	0.53180	0.58485	0.24317	0.69825
4.000	0.54366	0.54904	0.28073	0.69626
5.000	0.53971	0.51324	0.24317	0.64057
6.000	0.55750	0.51920	0.25899	0.62664
7.000	0.52982	0.52517	0.25503	0.64057
8.000	0.55157	0.52517	0.25305	0.61868
9.000	0.48238	0.48937	0.25899	0.64255
10.000	0.51598	0.49136	0.26096	0.62465
11.000	0.52389	0.51523	0.27480	0.63062
12.000	0.54366	0.44958	0.27678	0.67836
13.000	0.52784	0.49136	0.25899	0.65051
14.000	0.52784	0.45555	0.27876	0.63261
15.000	0.51401	0.45953	0.30050	0.60476
16.000	0.53773	0.45953	0.27085	0.66046
17.000	0.53773	0.45953	0.28073	0.63858
18.000	0.53575	0.48937	0.29259	0.63460
19.000	0.52784	0.47743	0.25899	0.64255
20.000	0.54366	0.46351	0.26689	0.65051
21.000	0.54761	0.48738	0.24515	0.68234
22.000	0.50610	0.50727	0.26887	0.62067
23.000	0.53180	0.48937	0.24910	0.65847
24.000	0.53180	0.53512	0.25503	0.61868
25.000	0.54761	0.48141	0.24317	0.62465
26.000	0.54168	0.50329	0.25305	0.65847
27.000	0.51598	0.46550	0.25503	0.64852
28.000	0.57331	0.51125	0.27876	0.65847
29.000	0.57727	0.53710	0.27085	0.62266
30.000	0.56540	0.52119	0.26887	0.63460
31.000	0.55157	0.50727	0.26294	0.64454
32.000	0.54761	0.51324	0.25899	0.63858
33.000	0.55947	0.48738	0.24712	0.62266
34.000	0.53773	0.52716	0.25108	0.60277
35.000	0.56936	0.50727	0.25899	0.67040
36.000	0.53180	0.52915	0.25701	0.62863
37.000	0.53575	0.50926	0.28666	0.58885
38.000	0.54366	0.52915	0.27282	0.61272
39.000	0.53378	0.51523	0.25899	0.62266
40.000	0.51994	0.52915	0.25899	0.57691
41.000	0.53378	0.53114	0.26294	0.62067
42.000	0.53971	0.51324	0.25503	0.63062
43.000	0.54959	0.48738	0.27876	0.60078
44.000	0.56145	0.49533	0.26887	0.61272
45.000	0.54168	0.47942	0.26294	0.61670
46.000	0.54959	0.51324	0.24910	0.60078
47.000	0.57924	0.48141	0.25108	0.58885
48.000	0.56936	0.47146	0.27678	0.61868
49.000	0.56343	0.53910	0.25701	0.60675
50.000	0.55354	0.45157	0.27282	0.60675
51.000	0.58715	0.48936	0.27085	0.59879
52.000	0.55750	0.51324	0.26096	0.61073
53.000	0.55354	0.50926	0.27085	0.60874
54.000	0.57924	0.50727	0.24712	0.55901
55.000	0.56936	0.50727	0.25503	0.55901
56.000	0.56145	0.47942	0.25108	0.58686
57.000	0.58320	0.53313	0.22340	0.56896
58.000	0.60889	0.47544	0.25108	0.57890
59.000	0.54761	0.46152	0.25899	0.61670
60.000	0.55750	0.47942	0.24910	0.59481
61.000	0.57727	0.51125	0.27282	0.59084
62.000	0.54564	0.45157	0.21747	0.61670
63.000	0.56145	0.42969	0.27678	0.59680
64.000	0.54564	0.48539	0.25108	0.56697
65.000	0.54959	0.47345	0.26294	0.57094
66.000	0.53180	0.48937	0.23922	0.56299
67.000	0.54761	0.49335	0.23922	0.55105
68.000	0.59901	0.48141	0.25701	0.56895
69.000	0.53378	0.50130	0.21945	0.55304
70.000	0.55750	0.44958	0.23922	0.61670
71.000	0.57331	0.46748	0.26887	0.55503
72.000	0.55947	0.50727	0.26887	0.52121
73.000	0.57331	0.50130	0.22538	0.53912
74.000	0.59308	0.45356	0.25899	0.55901
75.000	0.60692	0.47544	0.29062	0.53116
76.000	0.56145	0.51523	0.24712	0.52718
77.000	0.57331	0.47942	0.22142	0.57293
78.000	0.59110	0.51124	0.25503	0.56100
79.000	0.57331	0.50926	0.26096	0.57890
80.000	0.62075	0.50925	0.23131	0.54707
81.000	0.60099	0.50727	0.24910	0.54707
82.000	0.59901	0.49931	0.26689	0.56100
83.000	0.57529	0.48738	0.26492	0.54707
84.000	0.57529	0.47942	0.25701	0.57293
85.000	0.61087	0.50528	0.27678	0.55901
86.000	0.58715	0.44958	0.30050	0.56100
87.000	0.61087	0.46549	0.27085	0.54110
88.000	0.62075	0.52119	0.25305	0.55304
89.000	0.60296	0.48339	0.27085	0.55105
90.000	0.59901	0.46748	0.27480	0.57492
91.000	0.61285	0.49931	0.27480	0.54707
92.000	0.60099	0.46151	0.32027	0.54707
93.000	0.60296	0.48538	0.28271	0.59083
94.000	0.55947	0.47942	0.27876	0.56299
95.000	0.58122	0.46549	0.28271	0.54110
96.000	0.58517	0.49732	0.26294	0.59282
97.000	0.60296	0.45754	0.26689	0.55901
98.000	0.60692	0.46947	0.25899	0.56498
99.000	0.61285	0.51323	0.27876	0.56696
100.000	0.60296	0.49931	0.28666	0.53713
101.000	0.59110	0.48340	0.24910	0.57890
102.000	0.63459	0.49732	0.28271	0.53116
103.000	0.64645	0.49732	0.27282	0.58288
104.000	0.61878	0.50726	0.29655	0.58487
105.000	0.61087	0.44560	0.28666	0.56299
106.000	0.67413	0.51919	0.28666	0.58487
107.000	0.64052	0.49135	0.28271	0.56299
108.000	0.63262	0.50527	0.29655	0.58686
109.000	0.63855	0.52317	0.29852	0.54309
110.000	0.63855	0.48339	0.26492	0.57094
111.000	0.65041	0.51124	0.24515	0.54906
112.000	0.65238	0.51721	0.28271	0.54110
113.000	0.61285	0.45952	0.30841	0.51325
114.000	0.62273	0.48737	0.34993	0.52718
115.000	0.62668	0.51920	0.24910	0.54508
116.000	0.61482	0.43565	0.27876	0.55503
117.000	0.65436	0.48737	0.26294	0.50928
118.000	0.61878	0.50130	0.28271	0.53116
119.000	0.62668	0.51323	0.23724	0.56697
120.000	0.59703	0.44958	0.24712	0.55702
121.000	0.60692	0.49334	0.28469	0.53514
122.000	0.63262	0.47146	0.27282	0.52718
123.000	0.60692	0.44560	0.30050	0.53712
124.000	0.65238	0.47146	0.27876	0.54906
125.000	0.63459	0.51920	0.27678	0.54906
126.000	0.64448	0.49135	0.32027	0.47148
127.000	0.62668	0.45157	0.28073	0.50132
128.000	0.66227	0.49731	0.26096	0.51723
129.000	0.66029	0.49334	0.28271	0.53315
130.000	0.63657	0.49931	0.26689	0.49336
131.000	0.65634	0.45753	0.27876	0.49933
132.000	0.65634	0.54108	0.25701	0.52718
133.000	0.64052	0.50129	0.25899	0.49535
134.000	0.64645	0.47345	0.26887	0.52917
135.000	0.63262	0.51323	0.25701	0.53315
136.000	0.64448	0.51323	0.25305	0.55105
137.000	0.67215	0.50129	0.26689	0.50530
138.000	0.63262	0.48936	0.26096	0.51723
139.000	0.65238	0.52715	0.27282	0.53315
140.000	0.68599	0.51124	0.29062	0.53116
141.000	0.68796	0.50527	0.28073	0.54309
142.000	0.66227	0.50527	0.27876	0.49137
143.000	0.64250	0.47742	0.29655	0.46352
144.000	0.65238	0.44361	0.31632	0.52917
145.000	0.63064	0.47941	0.27876	0.48938
146.000	0.63855	0.45554	0.27678	0.50132
147.000	0.66622	0.47941	0.29259	0.48938
148.000	0.64052	0.45156	0.29655	0.50530
149.000	0.67215	0.44559	0.26689	0.47546
150.000	0.66227	0.43366	0.28271	0.52320
151.000	0.68006	0.43167	0.25899	0.50331
152.000	0.63657	0.46350	0.27480	0.52320
153.000	0.64250	0.47345	0.26294	0.48938
154.000	0.65831	0.47742	0.28073	0.52320
155.000	0.64448	0.47941	0.31236	0.51524
156.000	0.63262	0.49334	0.29259	0.48342
157.000	0.62075	0.45356	0.25108	0.50530
158.000	0.62273	0.46350	0.28864	0.50729
159.000	0.64843	0.48140	0.27085	0.46949
160.000	0.63657	0.48936	0.26096	0.47148
161.000	0.60494	0.47942	0.27085	0.50132
162.000	0.67017	0.49135	0.27678	0.49336
163.000	0.60494	0.44958	0.26689	0.50530
164.000	0.62075	0.42770	0.27876	0.50132
165.000	0.62273	0.47146	0.26096	0.49535
166.000	0.61482	0.42571	0.27085	0.49933
167.000	0.63459	0.45554	0.25305	0.47148
168.000	0.62075	0.43167	0.26096	0.49535
169.000	0.61878	0.42372	0.26887	0.51524
170.000	0.61482	0.40780	0.27480	0.52121
171.000	0.61087	0.43366	0.26689	0.49137
172.000	0.61482	0.45555	0.28666	0.49933
173.000	0.61878	0.42969	0.24119	0.50530
174.000	0.61482	0.40979	0.24910	0.49933
175.000	0.58715	0.43963	0.27876	0.54110
176.000	0.57727	0.38791	0.24515	0.49734
177.000	0.63262	0.41178	0.28469	0.53911
178.000	0.59308	0.41377	0.25108	0.51922
179.000	0.60494	0.39985	0.24119	0.50928
180.000	0.56936	0.42571	0.23922	0.53514
181.000	0.59110	0.39388	0.24515	0.53315
182.000	0.60296	0.44560	0.22142	0.47347
183.000	0.58715	0.37200	0.24712	0.47944
184.000	0.60099	0.37797	0.22538	0.45955
185.000	0.59901	0.36404	0.20956	0.47745
186.000	0.59901	0.37001	0.22735	0.45358
187.000	0.59703	0.33420	0.23329	0.47944
188.000	0.55750	0.37200	0.24910	0.49734
189.000	0.57727	0.36802	0.22735	0.45955
190.000	0.55552	0.41179	0.23724	0.48740
191.000	0.55354	0.38593	0.24317	0.47148
192.000	0.55354	0.37797	0.22340	0.48939
193.000	0.53971	0.31829	0.21747	0.52917
194.000	0.54366	0.34415	0.22735	0.44960
195.000	0.55157	0.35609	0.24119	0.50331
196.000	0.55750	0.33222	0.19572	0.47944
197.000	0.58517	0.34017	0.23526	0.44363
198.000	0.59110	0.34614	0.21945	0.50928
199.000	0.56540	0.33619	0.20165	0.43766
200.000	0.55750	0.34415	0.20956	0.45557
201.000	0.57133	0.31033	0.20956	0.47944
202.000	0.56540	0.33619	0.18188	0.43170
203.000	0.57529	0.39985	0.21945	0.43170
204.000	0.54959	0.36206	0.23131	0.45557
205.000	0.58715	0.32625	0.20758	0.41777
206.000	0.56343	0.36603	0.18188	0.46154
207.000	0.57924	0.35211	0.17991	0.41777
208.000	0.61482	0.37598	0.19572	0.46154
209.000	0.58715	0.38592	0.20165	0.46949
210.000	0.57529	0.37399	0.18386	0.44562
211.000	0.58517	0.39786	0.21154	0.45756
212.000	0.58913	0.41974	0.19968	0.44960
213.000	0.58122	0.37598	0.23724	0.46949
214.000	0.58517	0.33420	0.22340	0.49734
215.000	0.59110	0.35211	0.21549	0.43568
216.000	0.58715	0.36404	0.19968	0.45358
217.000	0.56145	0.36603	0.17002	0.44164
218.000	0.58320	0.38990	0.19572	0.45756
219.000	0.57331	0.35609	0.21154	0.46750
220.000	0.55750	0.35211	0.22538	0.51525
221.000	0.55947	0.40781	0.21549	0.49933
222.000	0.58517	0.38990	0.22142	0.49535
223.000	0.56738	0.35808	0.22933	0.42374
224.000	0.58320	0.38791	0.21154	0.48740
225.000	0.56540	0.39786	0.21352	0.43170
226.000	0.60494	0.41377	0.20165	0.47148
227.000	0.58913	0.37598	0.21352	0.42573
228.000	0.57727	0.38990	0.24712	0.47745
229.000	0.58320	0.41576	0.20758	0.48541
230.000	0.58715	0.36603	0.23329	0.52121
231.000	0.60494	0.36404	0.22933	0.44960
232.000	0.58715	0.37996	0.21352	0.47944
233.000	0.57529	0.37399	0.22538	0.48342
234.000	0.57727	0.33222	0.18584	0.42772
235.000	0.56936	0.38195	0.21747	0.49933
236.000	0.56145	0.39786	0.21154	0.43568
237.000	0.52389	0.36405	0.17595	0.46751
238.000	0.58122	0.36802	0.20758	0.44363
239.000	0.56738	0.38792	0.16014	0.48342
240.000	0.55157	0.42372	0.17991	0.47546
241.000	0.57133	0.37797	0.17991	0.45159
242.000	0.57133	0.38990	0.16409	0.47347
243.000	0.56343	0.41179	0.20363	0.40981
244.000	0.57331	0.33619	0.17595	0.43568
245.000	0.52784	0.36405	0.17991	0.42971
246.000	0.53773	0.38593	0.20758	0.44761
247.000	0.57529	0.40383	0.19968	0.42374
248.000	0.55354	0.37598	0.19375	0.41379
249.000	0.55552	0.37200	0.18386	0.42772
250.000	0.55354	0.39985	0.20363	0.42573
251.000	0.57331	0.39786	0.18188	0.47148
252.000	0.58122	0.35211	0.17595	0.46154
253.000	0.58517	0.37598	0.18386	0.44164
254.000	0.57133	0.33818	0.20956	0.43369
255.000	0.58122	0.35211	0.16607	0.41180
256.000	0.58122	0.37200	0.18584	0.43568
257.000	0.56343	0.33222	0.18386	0.49138
258.000	0.58320	0.34614	0.18781	0.47347
259.000	0.59901	0.34415	0.18188	0.42374
260.000	0.56738	0.35211	0.18188	0.41777
261.000	0.55552	0.33222	0.18781	0.39191
262.000	0.55947	0.30039	0.19177	0.43568
263.000	0.55354	0.32028	0.20758	0.45358
264.000	0.55354	0.30835	0.19375	0.44761
265.000	0.55354	0.29442	0.21945	0.46949
266.000	0.52982	0.28447	0.17002	0.45756
267.000	0.59110	0.33221	0.18188	0.44363
268.000	0.58122	0.34813	0.21945	0.45756
269.000	0.58517	0.33420	0.19572	0.41777
270.000	0.59110	0.38195	0.20165	0.40584
271.000	0.57727	0.30635	0.20758	0.45557
272.000	0.59506	0.32028	0.20758	0.44164
273.000	0.59110	0.33221	0.17002	0.46552
274.000	0.56145	0.33222	0.19177	0.44562
275.000	0.60494	0.32625	0.17200	0.45358
276.000	0.56738	0.39189	0.17002	0.42573
277.000	0.56738	0.36205	0.18188	0.47944
278.000	0.60889	0.37996	0.20165	0.48740
279.000	0.56936	0.36007	0.22142	0.51127
280.000	0.60889	0.34415	0.21945	0.45557
281.000	0.57331	0.36205	0.22933	0.47347
282.000	0.58122	0.38990	0.23131	0.48939
283.000	0.61087	0.38393	0.23131	0.51127
284.000	0.55947	0.36206	0.19968	0.46154
285.000	0.58913	0.38592	0.22538	0.43965
286.000	0.59901	0.41377	0.22142	0.43369
287.000	0.56540	0.36603	0.23922	0.44363
288.000	0.58320	0.38394	0.24317	0.45557
289.000	0.58715	0.39985	0.24317	0.46352
290.000	0.55354	0.36802	0.22933	0.43567
291.000	0.58715	0.38592	0.22538	0.42971
292.000	0.57924	0.37001	0.23131	0.47745
293.000	0.58320	0.37797	0.23329	0.50729
294.000	0.61087	0.37598	0.24712	0.48938
295.000	0.60692	0.40383	0.27085	0.47347
296.000	0.60296	0.38791	0.27282	0.48342
297.000	0.59506	0.34415	0.25701	0.50331
298.000	0.62075	0.40780	0.22735	0.47347
299.000	0.59901	0.38592	0.25305	0.46153
300.000	0.63855	0.37995	0.24712	0.46154
301.000	0.56738	0.36205	0.26689	0.48739
302.000	0.60296	0.34813	0.23526	0.46750
303.000	0.58320	0.36006	0.25899	0.48740
304.000	0.62075	0.40780	0.26689	0.49734
305.000	0.60099	0.37797	0.25305	0.47546
306.000	0.56936	0.35211	0.26096	0.50928
307.000	0.60296	0.35807	0.24317	0.44164
308.000	0.59308	0.36802	0.23724	0.46551
309.000	0.58122	0.35012	0.27480	0.45756
310.000	0.60889	0.38592	0.25899	0.46750
311.000	0.63064	0.37399	0.24317	0.44562
312.000	0.59506	0.30635	0.23724	0.47745
313.000	0.57727	0.34813	0.26096	0.51326
314.000	0.60494	0.35410	0.25108	0.46153
315.000	0.62471	0.33818	0.23922	0.43766
316.000	0.61680	0.35211	0.24119	0.43567
317.000	0.59308	0.32028	0.27678	0.43965
318.000	0.59506	0.30834	0.26689	0.46551
319.000	0.59506	0.30635	0.27480	0.42971
320.000	0.63064	0.36006	0.27480	0.41578
321.000	0.62075	0.36006	0.24910	0.41976
322.000	0.62273	0.32028	0.24119	0.47148
323.000	0.62471	0.36205	0.25503	0.46352
324.000	0.61878	0.33022	0.24515	0.45955
325.000	0.62471	0.33022	0.26492	0.41976
326.000	0.64843	0.37995	0.25503	0.46750
327.000	0.64843	0.35210	0.28073	0.48143
328.000	0.61285	0.36205	0.26096	0.42971
329.000	0.61087	0.35211	0.30050	0.47745
330.000	0.65238	0.35210	0.26689	0.45955
331.000	0.63459	0.34017	0.27876	0.47745
332.000	0.65634	0.28646	0.26294	0.47944
333.000	0.62075	0.36006	0.29062	0.46352
334.000	0.63262	0.35807	0.27678	0.46949
335.000	0.63459	0.38990	0.27085	0.47546
336.000	0.57331	0.33222	0.23922	0.46154
337.000	0.56540	0.35012	0.24712	0.44363
338.000	0.49622	0.32426	0.15618	0.39191
339.000	0.47447	0.35808	0.11071	0.43767
340.000	0.44284	0.35212	0.05733	0.39987
341.000	0.30446	0.37997	-0.00989	0.39987
342.000	0.24317	0.31035	-0.04745	0.38197
343.000	0.18781	0.38594	-0.12850	0.35411
344.000	0.11467	0.33024	-0.19770	0.39788
345.000	0.04943	0.32626	-0.23526	0.38196
346.000	0.00395	0.38197	-0.30248	0.37201
347.000	-0.03361	0.35014	-0.30248	0.37400
348.000	-0.03559	0.37998	-0.35586	0.38992
349.000	-0.07710	0.34019	-0.38551	0.39389
350.000	-0.04745	0.36406	-0.32422	0.41379
351.000	-0.01779	0.38793	-0.29852	0.42772
352.000	0.00198	0.36804	-0.27678	0.44761
353.000	0.02372	0.36605	-0.26096	0.44761
354.000	0.11071	0.37998	-0.24910	0.41180
355.000	0.11467	0.36207	-0.18781	0.46750
356.000	0.21747	0.35610	-0.16607	0.46552
357.000	0.23329	0.36008	-0.16607	0.42971
358.000	0.31236	0.37002	-0.13839	0.42971
359.000	0.32620	0.35411	-0.08303	0.41578
360.000	0.33609	0.30637	-0.08897	0.41181
361.000	0.36376	0.31034	-0.06524	0.38197
362.000	0.33609	0.31034	-0.06524	0.41578
363.000	0.34004	0.28050	-0.06326	0.37998
364.000	0.33806	0.31233	-0.04547	0.40783
365.000	0.34993	0.26658	-0.04349	0.39788
366.000	0.33213	0.28249	-0.02570	0.40186
367.000	0.30643	0.30637	-0.03361	0.39788
368.000	0.30446	0.29244	-0.05338	0.44562
369.000	0.32818	0.29841	-0.03756	0.41777
370.000	0.28469	0.29642	-0.04745	0.39788
371.000	0.28864	0.25464	-0.05140	0.38396
372.000	0.29062	0.31233	-0.05140	0.42573
373.000	0.25503	0.26658	-0.07513	0.40783
374.000	0.22142	0.27056	-0.07513	0.40982
375.000	0.27678	0.30040	-0.09292	0.38396
376.000	0.24119	0.32029	-0.08699	0.41976
377.000	0.25108	0.31631	-0.10280	0.44761
378.000	0.25899	0.31035	-0.08501	0.42772
379.000	0.24712	0.26061	-0.11664	0.42374
380.000	0.25503	0.26658	-0.10280	0.41777
381.000	0.24515	0.28051	-0.10874	0.44363
382.000	0.22735	0.31631	-0.13246	0.42374
383.000	0.23922	0.30438	-0.08699	0.43369
384.000	0.24119	0.33024	-0.10280	0.40385
385.000	0.20363	0.32228	-0.12455	0.44761
386.000	0.23131	0.32427	-0.10083	0.40982
387.000	0.23922	0.30239	-0.07908	0.43767
388.000	0.23329	0.26857	-0.09885	0.44165
389.000	0.22340	0.30438	-0.13246	0.45358
390.000	0.25503	0.34615	-0.13246	0.44761
391.000	0.23329	0.32427	-0.12060	0.43767
392.000	0.22538	0.34417	-0.10676	0.45955
393.000	0.24910	0.37202	-0.10874	0.46154
394.000	0.23724	0.33422	-0.11269	0.41976
395.000	0.24910	0.34417	-0.13641	0.43369
396.000	0.26887	0.33223	-0.12257	0.43767
397.000	0.25305	0.34019	-0.10280	0.46552
398.000	0.27678	0.34019	-0.16607	0.42971
399.000	0.26294	0.32825	-0.11664	0.42772
400.000	0.28073	0.35212	-0.13444	0.43966
401.000	0.28469	0.35411	-0.14234	0.44761
402.000	0.25701	0.33820	-0.11664	0.44761
403.000	0.26492	0.36605	-0.12257	0.42573
404.000	0.27085	0.33223	-0.11467	0.45159
405.000	0.27876	0.34416	-0.09885	0.42971
406.000	0.26294	0.33422	-0.12455	0.42573
407.000	0.23724	0.32228	-0.12257	0.45955
408.000	0.27480	0.29443	-0.12060	0.42374
409.000	0.27282	0.34615	-0.12257	0.41777
410.000	0.27480	0.31233	-0.14432	0.43767
411.000	0.27282	0.29841	-0.12257	0.44562
412.000	0.26887	0.31234	-0.11467	0.45557
413.000	0.31434	0.32228	-0.11664	0.42374
414.000	0.27678	0.35411	-0.12653	0.43767
415.000	0.25503	0.29841	-0.12257	0.42971
416.000	0.33213	0.37201	-0.12257	0.42971
417.000	0.30050	0.33422	-0.12455	0.39390
418.000	0.26887	0.34615	-0.13641	0.43767
419.000	0.28864	0.33223	-0.14630	0.40584
420.000	0.24910	0.33223	-0.13048	0.41181
421.000	0.31434	0.36008	-0.09687	0.45557
422.000	0.26887	0.35610	-0.11862	0.37600
423.000	0.27480	0.37400	-0.11664	0.44363
424.000	0.27678	0.32029	-0.14037	0.41976
425.000	0.24910	0.31234	-0.12060	0.38197
426.000	0.28666	0.32427	-0.14630	0.39788
427.000	0.27480	0.30836	-0.12060	0.40982
428.000	0.27480	0.32228	-0.12257	0.40783
429.000	0.28271	0.30637	-0.11862	0.40783
430.000	0.30248	0.30239	-0.12653	0.36605
431.000	0.27085	0.36207	-0.13048	0.35411
432.000	0.28666	0.32825	-0.13246	0.41181
433.000	0.28666	0.35411	-0.13246	0.37600
434.000	0.30841	0.38793	-0.12850	0.38793
435.000	0.27282	0.31631	-0.13246	0.37401
436.000	0.31434	0.36008	-0.13839	0.39191
437.000	0.30050	0.34615	-0.12060	0.39390
438.000	0.28864	0.35411	-0.12850	0.41379
439.000	0.26689	0.35411	-0.14630	0.39191
440.000	0.29062	0.33820	-0.14037	0.35610
441.000	0.30050	0.35013	-0.13048	0.39589
442.000	0.26492	0.30637	-0.14827	0.40385
443.000	0.27876	0.34218	-0.11467	0.36406
444.000	0.26887	0.34814	-0.12653	0.34417
445.000	0.27480	0.36804	-0.13246	0.35411
446.000	0.30248	0.35411	-0.14630	0.38395
447.000	0.27480	0.33820	-0.14630	0.37799
448.000	0.29062	0.29443	-0.13444	0.39589
449.000	0.31039	0.37997	-0.08106	0.37799
450.000	0.26689	0.35013	-0.12060	0.37003
451.000	0.31829	0.33422	-0.10874	0.36605
452.000	0.29457	0.36605	-0.11664	0.38197
453.000	0.29852	0.32825	-0.12653	0.37003
454.000	0.28469	0.32825	-0.11862	0.39987
455.000	0.31434	0.36804	-0.14827	0.37998
456.000	0.29062	0.32626	-0.11269	0.35014
457.000	0.31434	0.32228	-0.15816	0.36406
458.000	0.31829	0.35809	-0.14234	0.34815
459.000	0.26294	0.30438	-0.16409	0.35610
460.000	0.26492	0.32427	-0.13641	0.40982
461.000	0.27085	0.28249	-0.15223	0.35014
462.000	0.25701	0.30637	-0.15025	0.37003
463.000	0.28469	0.30239	-0.12060	0.36804
464.000	0.29852	0.34615	-0.12850	0.32030
465.000	0.31236	0.26658	-0.13048	0.33621
466.000	0.28864	0.29642	-0.14234	0.39191
467.000	0.28469	0.34416	-0.13444	0.38594
468.000	0.26294	0.30836	-0.13246	0.32825
469.000	0.31039	0.32427	-0.12653	0.40783
470.000	0.30841	0.35013	-0.14037	0.35610
471.000	0.32422	0.32825	-0.13641	0.37998
472.000	0.29655	0.32029	-0.12455	0.35809
473.000	0.30841	0.30836	-0.13246	0.34218
474.000	0.30643	0.33621	-0.15421	0.36804
475.000	0.34399	0.30835	-0.13444	0.38793
476.000	0.32027	0.32228	-0.11269	0.36804
477.000	0.31039	0.31830	-0.11467	0.36605
478.000	0.31434	0.29244	-0.12060	0.37600
479.000	0.28469	0.33223	-0.10478	0.35809
480.000	0.30446	0.30836	-0.12060	0.40186
481.000	0.30050	0.33820	-0.14432	0.39589
482.000	0.31039	0.37400	-0.13048	0.41777
483.000	0.30050	0.29642	-0.13048	0.35809
484.000	0.30248	0.32427	-0.11071	0.38992
485.000	0.30446	0.32228	-0.13048	0.36008
486.000	0.30841	0.32228	-0.14234	0.37998
487.000	0.29655	0.27255	-0.12850	0.35014
488.000	0.32027	0.37002	-0.14234	0.38992
489.000	0.28469	0.30637	-0.16804	0.39191
490.000	0.30248	0.30438	-0.12257	0.33820
491.000	0.29655	0.28249	-0.13246	0.39191
492.000	0.33213	0.31233	-0.11071	0.38992
493.000	0.29062	0.30040	-0.13246	0.40584
494.000	0.31434	0.33820	-0.13839	0.33422
495.000	0.28469	0.30040	-0.11269	0.33820
496.000	0.27678	0.28249	-0.11071	0.35411
497.000	0.30248	0.33820	-0.13444	0.34417
498.000	0.27876	0.30438	-0.12257	0.37600
499.000	0.31039	0.35013	-0.12455	0.37799
500.000	0.30248	0.28846	-0.11862	0.39191
501.000	0.30050	0.28050	-0.08897	0.40783
502.000	0.27876	0.30637	-0.12455	0.37600
503.000	0.28073	0.30239	-0.12653	0.39589
504.000	0.29655	0.31830	-0.12455	0.36207
505.000	0.29457	0.34615	-0.14827	0.37799
506.000	0.29457	0.29841	-0.12850	0.37003
507.000	0.26887	0.26857	-0.12060	0.36406
508.000	0.27678	0.29841	-0.11664	0.35610
509.000	0.28271	0.30637	-0.12257	0.37401
510.000	0.28469	0.28050	-0.14432	0.38594
511.000	0.31632	0.30040	-0.09687	0.32030
512.000	0.33016	0.32427	-0.12850	0.31234
513.000	0.30643	0.27454	-0.12257	0.36008
514.000	0.25503	0.25663	-0.12060	0.35809
515.000	0.28469	0.29244	-0.11269	0.34417
516.000	0.27480	0.28249	-0.09885	0.37401
517.000	0.28864	0.29841	-0.12060	0.35411
518.000	0.27678	0.27852	-0.10083	0.35014
519.000	0.29655	0.31631	-0.09094	0.36207
520.000	0.27678	0.27852	-0.11269	0.33024
521.000	0.29062	0.30836	-0.10478	0.37202
522.000	0.27678	0.25265	-0.13839	0.35809
523.000	0.27085	0.28846	-0.14234	0.35014
524.000	0.26096	0.27653	-0.10874	0.36207
525.000	0.30248	0.27653	-0.12850	0.37003
526.000	0.28666	0.25265	-0.13048	0.35212
527.000	0.28271	0.26658	-0.12060	0.37600
528.000	0.25503	0.23276	-0.13839	0.35411
529.000	0.26294	0.26061	-0.10478	0.37202
530.000	0.28073	0.30836	-0.10280	0.40783
531.000	0.23526	0.30239	-0.10478	0.37998
532.000	0.26887	0.26857	-0.11071	0.38197
533.000	0.27876	0.29045	-0.10280	0.38395
534.000	0.25899	0.28051	-0.12653	0.36406
535.000	0.29259	0.30239	-0.13444	0.35411
536.000	0.27678	0.27454	-0.12455	0.34616
537.000	0.31039	0.28249	-0.09094	0.36605
538.000	0.28864	0.30438	-0.09490	0.41181
539.000	0.29259	0.28647	-0.08501	0.32825
540.000	0.30050	0.27653	-0.07513	0.37600
541.000	0.25899	0.28249	-0.09292	0.34616
542.000	0.27678	0.29244	-0.05931	0.39390
543.000	0.29655	0.32228	-0.07315	0.36406
544.000	0.27678	0.26459	-0.07908	0.35411
545.000	0.28666	0.28448	-0.09094	0.37600
546.000	0.30841	0.27255	-0.09094	0.35610
547.000	0.30841	0.27653	-0.08501	0.38793
548.000	0.29259	0.26459	-0.07315	0.34616
549.000	0.30841	0.30836	-0.08106	0.34218
550.000	0.28073	0.29443	-0.05140	0.36207
551.000	0.29852	0.30239	-0.06129	0.35610
552.000	0.30841	0.26658	-0.07117	0.32825
553.000	0.32818	0.31432	-0.04943	0.38396
554.000	0.28864	0.28249	-0.05140	0.40385
555.000	0.32027	0.30239	-0.05140	0.36406
556.000	0.29852	0.27852	-0.02372	0.38396
557.000	0.29457	0.29244	-0.05338	0.37401
558.000	0.27876	0.29045	-0.06524	0.36804
559.000	0.29655	0.28846	-0.01384	0.37202
560.000	0.30841	0.28647	-0.04943	0.34616
561.000	0.32620	0.28647	-0.02570	0.38197
562.000	0.26492	0.28846	-0.06326	0.35809
563.000	0.31829	0.27056	-0.04349	0.36207
564.000	0.29457	0.30040	-0.08106	0.37799
565.000	0.29259	0.26459	-0.07513	0.36605
566.000	0.28271	0.28249	-0.07513	0.36008
567.000	0.30248	0.28249	-0.02768	0.37998
568.000	0.30841	0.27653	-0.03361	0.37003
569.000	0.29655	0.26857	-0.03559	0.37003
570.000	0.28666	0.28050	-0.04547	0.35213
571.000	0.29852	0.26061	-0.03163	0.36207
572.000	0.28864	0.23674	-0.03559	0.34218
573.000	0.30841	0.26658	-0.04547	0.37401
574.000	0.29259	0.27056	-0.04745	0.31433
575.000	0.31039	0.21486	-0.05140	0.35610
576.000	0.31039	0.26658	-0.04349	0.39589
577.000	0.28073	0.24669	-0.06129	0.35412
578.000	0.31632	0.21684	-0.03559	0.38992
579.000	0.33411	0.26260	-0.02175	0.36804
580.000	0.30446	0.26658	-0.09292	0.34616
581.000	0.27876	0.25066	-0.04152	0.38594
582.000	0.28271	0.23873	-0.02768	0.39987
583.000	0.27876	0.24669	-0.04152	0.37003
584.000	0.28864	0.21088	-0.03756	0.37202
585.000	0.30643	0.24470	0.00000	0.38396
586.000	0.32027	0.27653	-0.03361	0.38594
587.000	0.29259	0.26459	-0.02768	0.36008
588.000	0.28073	0.27653	-0.03954	0.36207
589.000	0.27876	0.28846	-0.05733	0.35213
590.000	0.25503	0.27852	-0.06524	0.34218
591.000	0.24119	0.30239	-0.10280	0.32030
592.000	0.15421	0.29244	-0.11664	0.37600
593.000	0.16804	0.30239	-0.15618	0.35212
594.000	0.10280	0.30239	-0.17595	0.33024
595.000	0.08303	0.31234	-0.17398	0.38793
596.000	0.08303	0.31234	-0.19177	0.41379
597.000	0.08303	0.34019	-0.22933	0.42772
598.000	0.08106	0.34417	-0.24317	0.40782
599.000	0.06129	0.36605	-0.19572	0.40385
600.000	0.08699	0.35014	-0.22142	0.40782
601.000	0.08303	0.33621	-0.18584	0.44164
602.000	0.09687	0.40783	-0.18979	0.44960
603.000	0.10280	0.36406	-0.18188	0.44960
604.000	0.12257	0.36605	-0.18386	0.44761
605.000	0.17398	0.38196	-0.15421	0.44363
606.000	0.18386	0.34616	-0.13246	0.42374
607.000	0.19572	0.34019	-0.11862	0.42971
608.000	0.22735	0.30438	-0.14432	0.41777
609.000	0.25108	0.31631	-0.11269	0.41181
610.000	0.23724	0.30836	-0.09094	0.41578
611.000	0.22142	0.31631	-0.09094	0.39191
612.000	0.26492	0.28846	-0.12455	0.34417
613.000	0.22933	0.26658	-0.08501	0.38793
614.000	0.22933	0.28250	-0.08106	0.35610
615.000	0.20758	0.24271	-0.08501	0.32427
616.000	0.19968	0.29244	-0.08303	0.35213
617.000	0.21154	0.27852	-0.11862	0.32825
618.000	0.19968	0.29642	-0.08897	0.35809
619.000	0.15816	0.24868	-0.11269	0.34218
620.000	0.15816	0.26260	-0.14234	0.37202
621.000	0.13444	0.27454	-0.08106	0.32427
622.000	0.17991	0.30239	-0.09490	0.38793
623.000	0.14827	0.24072	-0.10676	0.41379
624.000	0.16607	0.26061	-0.10874	0.38197
625.000	0.17793	0.30040	-0.13641	0.35411
626.000	0.16014	0.27852	-0.07908	0.39788
627.000	0.17200	0.24669	-0.12455	0.37600
628.000	0.18584	0.26061	-0.09687	0.35411
629.000	0.17398	0.27454	-0.09885	0.37998
630.000	0.14827	0.25663	-0.09490	0.35213
631.000	0.16014	0.25266	-0.12850	0.35411
632.000	0.16409	0.27454	-0.14630	0.36406
633.000	0.17595	0.26061	-0.14630	0.36804
634.000	0.16409	0.26658	-0.09292	0.37401
635.000	0.16409	0.29443	-0.13839	0.40584
636.000	0.15421	0.25862	-0.11071	0.37003
637.000	0.16409	0.26857	-0.10478	0.40783
638.000	0.16211	0.25663	-0.10874	0.41181
639.000	0.17398	0.29244	-0.08897	0.42971
640.000	0.14234	0.26260	-0.09687	0.39987
641.000	0.15025	0.22282	-0.11269	0.37799
642.000	0.18188	0.28648	-0.09094	0.36406
643.000	0.18188	0.26459	-0.07710	0.39191
644.000	0.13444	0.26061	-0.10676	0.42573
645.000	0.18781	0.24868	-0.13641	0.37003
646.000	0.14037	0.23475	-0.10874	0.40584
647.000	0.18386	0.25464	-0.12060	0.34616
648.000	0.16409	0.27852	-0.08106	0.38992
649.000	0.16607	0.29244	-0.09687	0.35809
650.000	0.16607	0.27454	-0.06326	0.40186
651.000	0.17002	0.24271	-0.09490	0.39987
652.000	0.21154	0.26857	-0.09687	0.36207
653.000	0.21549	0.29045	-0.07908	0.39191
654.000	0.20561	0.27852	-0.07513	0.37998
655.000	0.17200	0.27454	-0.07315	0.38197
656.000	0.20956	0.25266	-0.08501	0.38793
657.000	0.20561	0.24669	-0.05536	0.37003
658.000	0.22142	0.28448	-0.06722	0.35411
659.000	0.19770	0.24669	-0.11467	0.38395
660.000	0.19572	0.27255	-0.09094	0.34815
661.000	0.18781	0.23674	-0.05733	0.36406
662.000	0.17595	0.26061	-0.07117	0.36804
663.000	0.14432	0.27056	-0.07908	0.33621
664.000	0.13839	0.22679	-0.10083	0.35809
665.000	0.18188	0.22281	-0.10874	0.36406
666.000	0.19177	0.24470	-0.08106	0.36207
667.000	0.16409	0.21088	-0.07908	0.35213
668.000	0.17398	0.24072	-0.05931	0.31831
669.000	0.20561	0.23077	-0.07908	0.31831
670.000	0.18979	0.24470	-0.05536	0.38594
671.000	0.20363	0.20292	-0.08699	0.35411
672.000	0.18781	0.21486	-0.02570	0.33422
673.000	0.18188	0.25663	-0.06129	0.37799
674.000	0.20758	0.31830	-0.08303	0.37401
675.000	0.19572	0.23475	-0.04943	0.32427
676.000	0.21747	0.28449	-0.07315	0.33422
677.000	0.20956	0.28647	-0.06129	0.35610
678.000	0.20363	0.27454	-0.03163	0.34417
679.000	0.18781	0.27454	-0.06920	0.35610
680.000	0.19177	0.31433	-0.04943	0.33223
681.000	0.22340	0.25464	-0.03163	0.35412
682.000	0.19375	0.24470	-0.04745	0.37202
683.000	0.21549	0.24669	-0.05338	0.34616
684.000	0.20165	0.22480	-0.02768	0.34417
685.000	0.24119	0.25464	-0.02175	0.37401
686.000	0.21747	0.25067	-0.02768	0.37202
687.000	0.20956	0.25266	-0.05140	0.34417
688.000	0.19968	0.24868	-0.04745	0.37401
689.000	0.17793	0.23674	-0.04943	0.37600
690.000	0.21747	0.17706	-0.03361	0.35014
691.000	0.21747	0.23674	-0.03756	0.32229
692.000	0.20165	0.23276	-0.00791	0.36605
693.000	0.20561	0.27056	-0.03559	0.35610
694.000	0.27876	0.30239	-0.02372	0.34218
695.000	0.23329	0.26459	-0.03559	0.34019
696.000	0.27876	0.26658	-0.00395	0.38396
697.000	0.26096	0.24868	-0.03163	0.31632
698.000	0.26096	0.24669	-0.01977	0.32626
699.000	0.25701	0.30637	-0.02966	0.32626
700.000	0.25108	0.25067	-0.02570	0.32229
701.000	0.24515	0.25067	0.00593	0.35809
702.000	0.24910	0.25862	-0.02966	0.35412
703.000	0.25503	0.28051	-0.00593	0.34616
704.000	0.24712	0.25464	-0.00593	0.31831
705.000	0.21945	0.24271	-0.01977	0.31035
706.000	0.25108	0.24072	-0.02966	0.32626
707.000	0.25503	0.29642	-0.03361	0.30438
708.000	0.22538	0.20491	0.01977	0.32427
709.000	0.26492	0.26658	0.00791	0.26459
710.000	0.23922	0.26459	0.01779	0.29642
711.000	0.27876	0.23674	0.01977	0.35213
712.000	0.23724	0.25663	0.01384	0.31632
713.000	0.26887	0.28448	0.01977	0.30438
714.000	0.25503	0.20889	0.00395	0.30438
715.000	0.23724	0.28846	0.02372	0.33024
716.000	0.24119	0.26061	0.02570	0.30438
717.000	0.25899	0.25862	0.01384	0.32626
718.000	0.26096	0.24470	0.02372	0.32626
719.000	0.30446	0.27454	0.00395	0.34218
720.000	0.28271	0.26658	-0.00198	0.31035
721.000	0.27282	0.27852	-0.00198	0.28847
722.000	0.26689	0.24669	0.00198	0.28449
723.000	0.27678	0.25862	-0.00791	0.28847
724.000	0.28271	0.24470	0.00593	0.29046
725.000	0.25108	0.25663	0.04349	0.31035
726.000	0.30841	0.32228	0.02966	0.26857
727.000	0.27085	0.26658	0.03163	0.27852
728.000	0.26492	0.24072	0.04349	0.29046
729.000	0.24712	0.25067	0.01582	0.31433
730.000	0.28666	0.25265	0.02372	0.35412
731.000	0.27480	0.27852	0.02372	0.24868
732.000	0.26096	0.25663	0.03361	0.28250
733.000	0.26096	0.28448	0.05140	0.27255
734.000	0.23526	0.29642	0.01582	0.28250
735.000	0.24515	0.25067	0.05140	0.30040
736.000	0.28864	0.25265	-0.00395	0.27852
737.000	0.26492	0.24470	0.01977	0.28449
738.000	0.27876	0.28249	0.04943	0.36008
739.000	0.28469	0.27255	0.01186	0.30637
740.000	0.30643	0.27056	0.02570	0.30637
741.000	0.25503	0.24072	0.03361	0.30836
742.000	0.29259	0.28050	0.01582	0.29841
743.000	0.31434	0.24271	0.02175	0.28250
744.000	0.27876	0.22878	0.02372	0.30438
745.000	0.28271	0.23873	0.04943	0.31234
746.000	0.27678	0.24470	0.02966	0.29046
747.000	0.30841	0.28647	0.05338	0.32427
748.000	0.30050	0.28050	0.03361	0.29244
749.000	0.30248	0.27056	0.04745	0.30836
750.000	0.26689	0.25066	0.01186	0.28051
751.000	0.26096	0.27852	0.01977	0.27056
752.000	0.27876	0.22480	0.03756	0.26857
753.000	0.27480	0.24470	0.03361	0.25664
754.000	0.29852	0.24470	0.02372	0.26857
755.000	0.28073	0.23475	0.04943	0.29046
756.000	0.29062	0.26260	0.04745	0.29046
757.000	0.30446	0.21883	0.01977	0.30637
758.000	0.25305	0.27454	0.05338	0.31831
759.000	0.27876	0.26260	0.05338	0.26857
760.000	0.29655	0.24271	0.03361	0.25862
761.000	0.27480	0.26459	0.06524	0.28648
762.000	0.30446	0.27056	0.02372	0.28847
763.000	0.26887	0.27653	0.02768	0.24072
764.000	0.30050	0.20292	0.02570	0.28250
765.000	0.27678	0.29642	0.02966	0.25664
766.000	0.28271	0.24072	0.07513	0.25664
767.000	0.26492	0.23475	0.04547	0.28847
768.000	0.31039	0.25464	0.01582	0.26260
769.000	0.29655	0.27056	0.05536	0.23674
770.000	0.27480	0.26260	0.05733	0.26061
771.000	0.27282	0.25663	0.03361	0.27454
772.000	0.28864	0.24470	0.04349	0.27653
773.000	0.28864	0.25862	0.02966	0.25862
774.000	0.31829	0.23276	0.01977	0.27056
775.000	0.25503	0.20093	0.05931	0.27454
776.000	0.30841	0.25066	0.03954	0.26658
777.000	0.28271	0.23475	0.05140	0.27056
778.000	0.28469	0.26857	0.01384	0.20889
779.000	0.28073	0.22480	0.02372	0.21685
780.000	0.32620	0.25265	0.04547	0.26857
781.000	0.30050	0.28448	0.05931	0.22481
782.000	0.26689	0.20292	0.02570	0.23077
783.000	0.26096	0.22878	0.03163	0.23077
784.000	0.26096	0.22480	0.04745	0.24470
785.000	0.29259	0.24072	0.02570	0.26260
786.000	0.29655	0.23475	0.06129	0.23077
787.000	0.28271	0.25862	0.05140	0.23276
788.000	0.27282	0.22878	0.05338	0.21486
789.000	0.27282	0.25464	0.04152	0.24271
790.000	0.26096	0.24271	0.04547	0.19099
791.000	0.28469	0.25066	0.01384	0.24470
792.000	0.28271	0.23077	0.04152	0.19894
793.000	0.25701	0.24072	0.02372	0.25266
794.000	0.30050	0.21684	0.06129	0.16512
795.000	0.29457	0.27852	0.01582	0.20690
796.000	0.30248	0.25265	0.04943	0.23674
797.000	0.28469	0.23873	0.03954	0.17706
798.000	0.30050	0.26857	0.09687	0.21287
799.000	0.31829	0.27653	0.07117	0.23276
800.000	0.31039	0.29443	0.06326	0.19695
801.000	0.32422	0.26260	0.05536	0.26061
802.000	0.32027	0.28249	0.07117	0.22481
803.000	0.31236	0.33422	0.06129	0.22878
804.000	0.31434	0.25663	0.05733	0.23674
805.000	0.29852	0.28846	0.06920	0.24271
806.000	0.28271	0.25862	0.03954	0.18900
807.000	0.31434	0.26857	0.08106	0.22083
808.000	0.32620	0.27255	0.07117	0.25266
809.000	0.29655	0.29045	0.02372	0.21287
810.000	0.28666	0.28846	0.02966	0.21486
811.000	0.29852	0.24470	0.01779	0.17507
812.000	0.31039	0.30040	0.04745	0.21287
813.000	0.27678	0.26061	0.03756	0.24072
814.000	0.25899	0.27255	0.06920	0.24271
815.000	0.27480	0.21883	0.07315	0.24072
816.000	0.28469	0.24072	0.08501	0.22282
817.000	0.30248	0.25862	0.03756	0.22282
818.000	0.29457	0.30637	0.08106	0.21884
819.000	0.29655	0.26260	0.06722	0.25067
820.000	0.27876	0.25862	0.06326	0.19894
821.000	0.31236	0.25464	0.05536	0.20690
822.000	0.32422	0.27255	0.05338	0.23077
823.000	0.31236	0.28050	0.02175	0.15915
824.000	0.29655	0.24271	0.05536	0.17507
825.000	0.30248	0.25663	0.03756	0.23077
826.000	0.29259	0.27056	0.03559	0.25266
827.000	0.30841	0.28249	0.03559	0.23077
828.000	0.29062	0.24072	0.05338	0.21486
829.000	0.26887	0.21287	0.06129	0.19695
830.000	0.31632	0.29045	0.06920	0.19695
831.000	0.30841	0.28846	0.03954	0.18900
832.000	0.31236	0.25066	0.06326	0.25664
833.000	0.32225	0.31034	0.05338	0.26061
834.000	0.32620	0.27255	0.04943	0.25067
835.000	0.29457	0.26260	0.05140	0.22282
836.000	0.28666	0.27852	0.05338	0.21088
837.000	0.28666	0.26857	0.08106	0.19894
838.000	0.32422	0.27056	0.02372	0.22083
839.000	0.31039	0.27454	0.06326	0.22878
840.000	0.28271	0.29443	0.01186	0.20292
841.000	0.31829	0.28846	0.06524	0.21088
842.000	0.29457	0.27056	0.04745	0.20093
843.000	0.27282	0.24669	0.03163	0.19297
844.000	0.29852	0.31034	0.06524	0.22878
845.000	0.29062	0.30040	0.04547	0.21884
846.000	0.28073	0.27852	0.03559	0.20292
847.000	0.27678	0.31035	0.03163	0.20093
848.000	0.30248	0.28647	0.07117	0.19695
849.000	0.30841	0.27454	0.04943	0.21287
850.000	0.29062	0.27056	0.04349	0.16114
851.000	0.33016	0.30438	0.05931	0.21088
852.000	0.30841	0.34217	0.03361	0.18303
853.000	0.34597	0.31233	-0.00791	0.19894
854.000	0.27678	0.27255	0.01582	0.17905
855.000	0.29655	0.27454	0.04943	0.19496
856.000	0.29852	0.29045	0.03361	0.15120
857.000	0.32225	0.32427	0.07117	0.21088
858.000	0.33411	0.34416	0.02372	0.17905
859.000	0.30446	0.28647	0.05536	0.15915
860.000	0.31632	0.26857	0.04349	0.18900
861.000	0.32225	0.29244	0.06129	0.15717
862.000	0.31632	0.31631	0.07513	0.14125
863.000	0.31039	0.27851	0.06722	0.17507
864.000	0.31829	0.27851	0.05338	0.19496
865.000	0.32620	0.26857	0.04349	0.18701
866.000	0.30248	0.28249	0.06326	0.19496
867.000	0.28073	0.26459	0.05733	0.16313
868.000	0.31434	0.30239	0.07908	0.19496
869.000	0.26689	0.26260	0.01582	0.15319
870.000	0.30248	0.31233	0.04745	0.21088
871.000	0.28864	0.27255	0.03954	0.19099
872.000	0.30643	0.29244	0.04943	0.17507
873.000	0.28864	0.30239	0.03163	0.17308
874.000	0.28469	0.26260	0.06129	0.20093
875.000	0.25701	0.24868	0.05931	0.21287
876.000	0.28666	0.29045	0.03559	0.21486
877.000	0.31434	0.25265	0.07315	0.22679
878.000	0.28864	0.27454	0.05140	0.22481
879.000	0.28469	0.25265	0.05931	0.16313
880.000	0.28073	0.28249	0.07117	0.21685
881.000	0.31236	0.30040	0.05931	0.17308
882.000	0.27480	0.27852	0.03559	0.22282
883.000	0.30248	0.28647	0.06129	0.22282
884.000	0.27085	0.25862	0.06129	0.22679
885.000	0.29062	0.27056	0.07908	0.19894
886.000	0.27678	0.28846	0.07315	0.19496
887.000	0.31039	0.25663	0.05536	0.17706
888.000	0.28666	0.24669	0.08501	0.20690
889.000	0.28271	0.27454	0.04547	0.18900
890.000	0.27480	0.26459	0.04349	0.21685
891.000	0.29655	0.28448	0.06326	0.18701
892.000	0.25305	0.27852	0.06326	0.18701
893.000	0.29259	0.26459	0.05536	0.20093
894.000	0.27282	0.27056	0.04547	0.18303
895.000	0.25305	0.26061	0.02372	0.19894
896.000	0.24910	0.26260	0.01977	0.15915
897.000	0.30050	0.28647	0.04547	0.23276
898.000	0.26887	0.25663	0.05140	0.19695
899.000	0.32620	0.29443	0.04349	0.17109
900.000	0.26689	0.25066	0.04943	0.18701
901.000	0.30643	0.29841	0.04547	0.23276
902.000	0.28864	0.29443	0.03954	0.19894
903.000	0.25701	0.24470	0.04152	0.20889
904.000	0.26096	0.29642	0.02966	0.17308
905.000	0.27282	0.34218	0.03559	0.16910
906.000	0.24317	0.27255	0.06722	0.20292
907.000	0.25503	0.28647	0.04349	0.20093
908.000	0.27282	0.27653	0.04547	0.18303
909.000	0.25701	0.28249	0.05140	0.15717
910.000	0.25108	0.26459	0.04547	0.17109
911.000	0.28469	0.32029	0.07315	0.16313
912.000	0.28469	0.29841	0.05733	0.13727
913.000	0.31632	0.30040	0.04745	0.18900
914.000	0.26689	0.26061	0.05536	0.20093
915.000	0.27876	0.28846	0.03361	0.09350
916.000	0.28073	0.30239	0.06326	0.17706
917.000	0.29457	0.29642	0.05140	0.20292
918.000	0.29062	0.29443	0.04349	0.15915
919.000	0.26887	0.28647	0.06129	0.18900
920.000	0.27282	0.30239	0.04745	0.20093
921.000	0.26887	0.26459	0.04152	0.18701
922.000	0.30050	0.29443	0.04547	0.19496
923.000	0.25701	0.25663	0.02768	0.16313
924.000	0.28271	0.28050	0.04349	0.13329
925.000	0.25503	0.25663	0.07908	0.19894
926.000	0.26096	0.31432	0.06524	0.12931
927.000	0.26492	0.27255	0.02966	0.14324
928.000	0.31632	0.31631	0.02570	0.17507
929.000	0.26096	0.26061	0.02966	0.16313
930.000	0.29852	0.33621	0.03756	0.17706
931.000	0.28864	0.32427	0.07513	0.19695
932.000	0.25899	0.29642	0.04349	0.21685
933.000	0.26096	0.29443	0.05140	0.21884
934.000	0.29259	0.30637	0.06129	0.17905
935.000	0.26492	0.32427	0.06326	0.17706
936.000	0.27282	0.28051	0.03954	0.18701
937.000	0.23329	0.30836	0.02768	0.14523
938.000	0.27480	0.26061	0.02966	0.17507
939.000	0.26492	0.29841	0.03361	0.13926
940.000	0.25899	0.29443	0.05931	0.14523
941.000	0.27480	0.29045	0.06129	0.18701
942.000	0.28469	0.25862	0.06326	0.12931
943.000	0.24910	0.29841	0.01779	0.13727
944.000	0.27678	0.29841	0.06129	0.13926
945.000	0.29457	0.33223	0.03756	0.15120
946.000	0.28666	0.32825	0.03756	0.16512
947.000	0.28864	0.30239	0.03954	0.16910
948.000	0.24712	0.31234	0.03954	0.15717
949.000	0.28666	0.32029	0.04349	0.15120
950.000	0.29655	0.29443	0.06722	0.16711
951.000	0.26887	0.30239	0.04547	0.14523
952.000	0.25305	0.31035	0.05140	0.19894
953.000	0.29259	0.31035	0.03559	0.18900
954.000	0.28271	0.31830	0.02966	0.16512
955.000	0.27282	0.31233	-0.00593	0.14722
956.000	0.28864	0.30040	0.04152	0.14125
957.000	0.27085	0.27653	0.01582	0.18502
958.000	0.25899	0.31234	0.05536	0.19695
959.000	0.27085	0.31631	0.02966	0.15915
960.000	0.29852	0.29244	0.03559	0.18502
961.000	0.28469	0.29642	0.05338	0.18900
962.000	0.28864	0.31631	-0.00395	0.16313
963.000	0.23131	0.30438	0.02768	0.16512
964.000	0.27282	0.32029	0.01582	0.20491
965.000	0.27085	0.30637	0.05931	0.18502
966.000	0.29062	0.31631	0.02372	0.21685
967.000	0.25701	0.31035	0.04547	0.16711
968.000	0.23922	0.29045	0.04547	0.19695
969.000	0.25701	0.26260	0.05338	0.18303
970.000	0.23526	0.29443	0.04349	0.16711
971.000	0.24317	0.28051	0.04745	0.21486
972.000	0.25899	0.27852	0.04349	0.16313
973.000	0.24515	0.29045	0.03163	0.14921
974.000	0.23724	0.28846	0.01977	0.18900
975.000	0.24515	0.25265	0.03559	0.18303
976.000	0.22933	0.25067	0.00000	0.20292
977.000	0.24119	0.28647	0.01582	0.18104
978.000	0.23329	0.29045	0.02175	0.17507
979.000	0.23329	0.24470	0.01384	0.16910
980.000	0.28469	0.26857	0.06524	0.18104
981.000	0.24712	0.21685	0.03954	0.17905
982.000	0.26294	0.28051	0.02570	0.19894
983.000	0.25503	0.26260	0.06920	0.19496
984.000	0.23724	0.26459	0.05733	0.19099
985.000	0.25108	0.25663	0.01186	0.20889
986.000	0.22340	0.23674	0.04943	0.17308
987.000	0.24712	0.26857	0.01384	0.17308
988.000	0.20561	0.27255	0.04943	0.18104
989.000	0.22142	0.28846	0.04943	0.16114
990.000	0.25899	0.32427	0.04745	0.17109
991.000	0.26294	0.27852	0.02768	0.15717
992.000	0.27282	0.31035	0.05140	0.13130
993.000	0.25503	0.28647	0.02175	0.13528
994.000	0.24712	0.28051	0.02768	0.16910
995.000	0.25701	0.24271	0.04152	0.16512
996.000	0.26689	0.27852	0.03954	0.12334
997.000	0.23724	0.28448	0.02372	0.11340
998.000	0.25503	0.31432	0.03559	0.11937
999.000	0.28666	0.30239	0.00000	0.11340
1000.000	0.23922	0.28250	0.00593	0.12136
1001.000	0.25701	0.30438	0.02966	0.07958
1002.000	0.27480	0.25862	0.02372	0.11340
1003.000	0.28666	0.35809	0.03163	0.04974
1004.000	0.28073	0.31432	0.01779	0.06366
1005.000	0.28864	0.31631	0.02372	0.04178
1006.000	0.27678	0.30239	0.02372	0.06366
1007.000	0.24712	0.31035	-0.00989	0.06963
1008.000	0.23131	0.30637	-0.01186	0.12334
1009.000	0.24515	0.31432	0.00198	0.05769
1010.000	0.24317	0.32228	0.02768	0.05968
1011.000	0.23526	0.31433	0.02372	0.04178
1012.000	0.24317	0.28846	-0.00593	0.08356
1013.000	0.23526	0.27852	-0.00395	0.10345
1014.000	0.24712	0.33820	0.00395	0.08952
1015.000	0.26492	0.30637	0.02372	0.06565
1016.000	0.23131	0.33820	-0.00395	0.11937
1017.000	0.25899	0.32228	0.00395	0.08157
1018.000	0.29259	0.33422	-0.02372	0.07162
1019.000	0.26492	0.30637	0.03361	0.06565
1020.000	0.29457	0.30239	0.01582	0.08555
1021.000	0.28666	0.29841	0.01977	0.06565
1022.000	0.27678	0.33024	-0.02570	0.09947
1023.000	0.27085	0.29841	0.01977	0.09549
1024.000	0.28073	0.35610	0.00791	0.08952
1025.000	0.26294	0.31234	-0.00198	0.08356
1026.000	0.31434	0.35013	0.00791	0.06167
1027.000	0.24515	0.28448	0.03361	0.06167
1028.000	0.28666	0.35212	0.00593	0.08754
1029.000	0.28073	0.36207	0.01384	0.07361
1030.000	0.28073	0.35013	0.02966	0.08157
1031.000	0.29655	0.35411	0.01582	0.08555
1032.000	0.26492	0.33422	0.03163	0.08555
1033.000	0.28666	0.32228	0.03954	0.07958
1034.000	0.25899	0.35212	0.02175	0.13130
1035.000	0.25503	0.32029	0.03163	0.12732
1036.000	0.29259	0.33422	0.03163	0.13528
1037.000	0.25305	0.31035	0.02966	0.12136
1038.000	0.29259	0.32427	0.04745	0.08555
1039.000	0.25503	0.27056	0.04349	0.12334
1040.000	0.23131	0.25067	0.04547	0.13727
1041.000	0.29062	0.28249	0.06524	0.13130
1042.000	0.25305	0.29244	0.07710	0.14125
1043.000	0.27678	0.29244	0.06326	0.15717
1044.000	0.28271	0.25464	0.04745	0.18502
1045.000	0.26492	0.33422	0.06524	0.10146
1046.000	0.28271	0.28647	0.04547	0.14921
1047.000	0.27876	0.27852	0.05536	0.14125
1048.000	0.27282	0.26857	0.05536	0.16512
1049.000	0.24119	0.27852	0.04943	0.15319
1050.000	0.27480	0.25862	0.03361	0.13329
1051.000	0.26689	0.28448	0.04547	0.14722
1052.000	0.25503	0.29443	0.03163	0.15717
1053.000	0.26689	0.23873	0.04745	0.13926
1054.000	0.26096	0.29045	0.04152	0.11539
1055.000	0.25503	0.29244	0.04943	0.11937
1056.000	0.25701	0.27653	0.04547	0.13329
1057.000	0.24119	0.25862	0.05931	0.16114
1058.000	0.19375	0.25266	0.03559	0.17905
1059.000	0.24712	0.28647	0.04745	0.12334
1060.000	0.24712	0.24271	0.03756	0.12732
1061.000	0.25108	0.22281	0.02372	0.10345
1062.000	0.28073	0.31233	0.05140	0.09549
1063.000	0.26096	0.28846	0.02966	0.12732
1064.000	0.25701	0.29244	0.04943	0.11937
1065.000	0.31632	0.30637	0.03756	0.10544
1066.000	0.27876	0.27255	0.00395	0.12136
1067.000	0.28073	0.29841	0.05536	0.09549
1068.000	0.26887	0.26061	0.02175	0.10942
1069.000	0.27678	0.27852	0.04943	0.11539
1070.000	0.25899	0.26857	0.04943	0.12334
1071.000	0.26689	0.28647	0.05536	0.12334
1072.000	0.25503	0.28647	0.05733	0.15518
1073.000	0.24712	0.28448	0.02966	0.16313
1074.000	0.24910	0.27255	0.02768	0.11738
1075.000	0.25305	0.28846	0.02570	0.10942
1076.000	0.24712	0.31234	0.03756	0.13727
1077.000	0.28073	0.30836	0.05931	0.13329
1078.000	0.29852	0.30040	0.01977	0.12732
1079.000	0.27480	0.28846	0.05931	0.13130
1080.000	0.27678	0.30637	0.04152	0.13528
1081.000	0.26294	0.30040	0.03361	0.15319
1082.000	0.27282	0.27852	0.03954	0.13727
1083.000	0.26689	0.35411	0.07315	0.16711
1084.000	0.29259	0.28846	0.04152	0.13528
1085.000	0.27085	0.28846	0.03361	0.15518
1086.000	0.28864	0.34416	0.06524	0.14921
1087.000	0.26492	0.33223	0.05733	0.18701
1088.000	0.27282	0.29642	0.05338	0.14125
1089.000	0.31829	0.31233	0.06326	0.15717
1090.000	0.27480	0.29642	0.04943	0.17507
1091.000	0.27678	0.30040	0.05536	0.17308
1092.000	0.27678	0.36804	0.05931	0.16711
1093.000	0.25899	0.30239	0.03756	0.17109
1094.000	0.27876	0.27056	0.04547	0.17308
1095.000	0.26096	0.31432	0.01977	0.13926
1096.000	0.28864	0.31631	0.06326	0.18104
1097.000	0.27480	0.34814	0.03361	0.14921
1098.000	0.31236	0.31830	0.05733	0.12732
1099.000	0.27678	0.33024	0.01977	0.12136
1100.000	0.28073	0.31432	0.02570	0.15120
1101.000	0.26096	0.31432	0.02570	0.15319
1102.000	0.27876	0.29045	0.03559	0.15518
1103.000	0.30050	0.33820	0.06129	0.15120
1104.000	0.27282	0.31233	0.03163	0.12533
1105.000	0.31632	0.29642	0.04152	0.12334
1106.000	0.25701	0.30239	0.04745	0.13329
1107.000	0.25108	0.31035	0.01779	0.08754
1108.000	0.27876	0.32626	0.01384	0.10743
1109.000	0.28271	0.37003	0.05338	0.14722
1110.000	0.29259	0.33024	0.02175	0.12334
1111.000	0.27480	0.31830	0.03559	0.13926
1112.000	0.26689	0.33024	0.02966	0.14523
1113.000	0.26492	0.33621	0.05140	0.13329
1114.000	0.29852	0.34217	0.02175	0.10345
1115.000	0.30446	0.31631	0.00198	0.11141
1116.000	0.33609	0.30239	0.02570	0.14722
1117.000	0.28073	0.33422	0.00395	0.11738
1118.000	0.31236	0.34416	0.01186	0.12136
1119.000	0.28469	0.32825	0.02570	0.14722
1120.000	0.28469	0.35212	0.00791	0.11937
1121.000	0.31632	0.31631	0.02768	0.11738
1122.000	0.27480	0.33820	0.02966	0.10942
1123.000	0.29062	0.36605	0.05140	0.13926
1124.000	0.30841	0.32228	0.04349	0.16313
1125.000	0.27678	0.34615	0.00989	0.13130
1126.000	0.26689	0.34218	0.03756	0.12334
1127.000	0.33213	0.37002	0.03954	0.13329
1128.000	0.28469	0.31233	0.05536	0.13727
1129.000	0.29062	0.35610	0.01582	0.13528
1130.000	0.26887	0.32228	0.03756	0.11539
1131.000	0.32027	0.33820	0.00593	0.09151
1132.000	0.29259	0.28846	0.00989	0.10942
1133.000	0.28666	0.29642	0.03954	0.10743
1134.000	0.30050	0.30637	0.03361	0.13926
1135.000	0.26294	0.26260	0.01186	0.14125
1136.000	0.29259	0.24669	0.03559	0.15319
1137.000	0.26096	0.24271	-0.00198	0.18701
1138.000	0.24119	0.23077	0.03756	0.17507
1139.000	0.23922	0.19695	0.00593	0.14125
1140.000	0.23724	0.15120	0.02175	0.14722
1141.000	0.25899	0.21287	0.03163	0.15120
1142.000	0.22735	0.25265	0.02570	0.17507
1143.000	0.25899	0.23276	0.03559	0.15120
1144.000	0.26689	0.22679	0.00593	0.14125
1145.000	0.26689	0.27454	0.01779	0.17706
1146.000	0.24910	0.23475	0.02175	0.15120
1147.000	0.26096	0.24669	0.03361	0.20491
1148.000	0.26096	0.25464	0.01779	0.15915
1149.000	0.22933	0.18104	0.04943	0.12732
1150.000	0.23724	0.24868	0.02768	0.16313
1151.000	0.25108	0.24669	0.00989	0.16711
1152.000	0.27876	0.27653	0.03954	0.13926
1153.000	0.24119	0.28250	0.02175	0.17308
1154.000	0.27480	0.25265	-0.03361	0.18104
1155.000	0.24119	0.31433	-0.00198	0.17109
1156.000	0.24712	0.27056	0.04547	0.17109
1157.000	0.24119	0.28250	-0.00593	0.17308
1158.000	0.26294	0.32626	0.02768	0.19297
1159.000	0.22735	0.31830	0.03163	0.19297
1160.000	0.23724	0.31433	0.01977	0.23475
1161.000	0.24712	0.29443	0.04152	0.12931
1162.000	0.24119	0.28448	0.04745	0.19297
1163.000	0.23724	0.28846	0.05536	0.15518
1164.000	0.22933	0.29244	0.04745	0.19695
1165.000	0.25503	0.24868	0.06326	0.17308
1166.000	0.24910	0.23873	0.04547	0.14324
1167.000	0.20758	0.24868	0.06524	0.16910
1168.000	0.19572	0.19894	0.05338	0.15518
1169.000	0.18188	0.20491	0.03163	0.18502
1170.000	0.23724	0.25265	0.04547	0.14324
1171.000	0.23724	0.27454	0.03756	0.18900
1172.000	0.20758	0.22679	0.00791	0.17507
1173.000	0.23329	0.24669	-0.00395	0.11937
1174.000	0.19572	0.18899	-0.00593	0.12334
1175.000	0.20561	0.22679	-0.00593	0.10942
1176.000	0.23724	0.19695	0.00593	0.13130
1177.000	0.21945	0.22480	0.01582	0.09748
1178.000	0.24119	0.21287	0.01582	0.09748
1179.000	0.24712	0.19695	0.03163	0.08356
1180.000	0.21747	0.21088	0.01779	0.07759
1181.000	0.22933	0.21685	0.02372	0.08157
1182.000	0.24515	0.17308	-0.01384	0.08356
1183.000	0.21549	0.20093	0.00791	0.05371
1184.000	0.23526	0.22679	0.00989	0.06366
1185.000	0.23329	0.23077	-0.01977	0.01790
1186.000	0.21352	0.16711	-0.01384	0.07162
1187.000	0.23922	0.23276	-0.03163	0.08356
1188.000	0.25305	0.18700	0.00198	0.05371
1189.000	0.23329	0.19098	0.00198	0.06963
1190.000	0.26096	0.24470	-0.00198	0.09549
1191.000	0.20956	0.14523	0.03163	0.09350
1192.000	0.24712	0.20889	0.00593	0.08356
1193.000	0.22538	0.23276	0.03756	0.07560
1194.000	0.22340	0.23873	0.01779	0.08754
1195.000	0.23526	0.21685	0.03756	0.12931
1196.000	0.18979	0.16910	0.02175	0.14921
1197.000	0.23526	0.19496	0.01977	0.12334
1198.000	0.22142	0.24072	0.02768	0.16512
1199.000	0.21945	0.21287	0.01582	0.19695
1200.000	0.25108	0.17507	0.01582	0.11738
1201.000	0.23526	0.18104	0.03163	0.14324
1202.000	0.23922	0.25663	0.03163	0.12931
1203.000	0.20758	0.23475	0.02768	0.10942
1204.000	0.21945	0.26061	0.04547	0.13926
1205.000	0.22538	0.27852	0.01977	0.16313
1206.000	0.24317	0.22679	0.03361	0.13130
1207.000	0.26294	0.26658	0.03163	0.11539
1208.000	0.23922	0.20491	0.03559	0.17905
1209.000	0.23922	0.24072	0.02570	0.19099
1210.000	0.23922	0.29045	0.03559	0.17706
1211.000	0.21549	0.26260	0.05536	0.12732
1212.000	0.23724	0.23077	0.04349	0.15120
1213.000	0.25108	0.27653	0.05733	0.18900
1214.000	0.24712	0.28846	0.03163	0.17905
1215.000	0.24910	0.28647	0.02175	0.16512
1216.000	0.26096	0.32626	-0.00593	0.17109
1217.000	0.29852	0.29244	0.03756	0.18701
1218.000	0.23329	0.29045	0.00198	0.17706
1219.000	0.27678	0.26658	-0.02372	0.12931
1220.000	0.29259	0.29841	0.01186	0.17507
1221.000	0.25503	0.26658	0.00593	0.14722
1222.000	0.27085	0.29045	-0.01779	0.17507
1223.000	0.27876	0.24271	0.02768	0.20690
1224.000	0.25108	0.24868	-0.00395	0.14125
1225.000	0.23526	0.26459	0.03361	0.20889
1226.000	0.24712	0.22082	0.03361	0.17706
1227.000	0.26689	0.25862	0.01186	0.13926
1228.000	0.27876	0.21088	0.01582	0.16910
1229.000	0.27480	0.21486	0.03559	0.16512
1230.000	0.21945	0.27852	0.02570	0.17109
1231.000	0.22933	0.24470	0.01384	0.20690
1232.000	0.26294	0.20093	0.04943	0.18303
1233.000	0.25305	0.17507	0.00593	0.14523
1234.000	0.24910	0.21883	0.00593	0.17109
1235.000	0.28271	0.20093	-0.00198	0.16910
1236.000	0.24910	0.17706	0.00593	0.12533
1237.000	0.25503	0.19496	0.01186	0.14722
1238.000	0.27876	0.23077	-0.00198	0.15717
1239.000	0.26096	0.18502	0.00791	0.15319
1240.000	0.27480	0.19297	-0.00198	0.12334
1241.000	0.27876	0.16313	-0.00395	0.14921
1242.000	0.24910	0.18700	-0.00395	0.17308
1243.000	0.25899	0.20491	-0.00989	0.15518
1244.000	0.26689	0.17507	-0.01186	0.15120
1245.000	0.25108	0.17905	0.00198	0.13528
1246.000	0.25503	0.23276	-0.00198	0.18701
1247.000	0.22142	0.15716	-0.02175	0.15120
1248.000	0.22735	0.15915	0.00989	0.17308
1249.000	0.27678	0.23475	-0.01186	0.15915
1250.000	0.20956	0.21287	0.00791	0.12931
1251.000	0.22142	0.18104	-0.02768	0.14125
1252.000	0.20956	0.20491	-0.04745	0.15518
1253.000	0.25305	0.21883	-0.04349	0.14523
1254.000	0.25108	0.24072	-0.00593	0.14921
1255.000	0.24712	0.22878	-0.02768	0.17706
1256.000	0.25701	0.20292	0.00198	0.12931
1257.000	0.25701	0.21883	-0.01977	0.11141
1258.000	0.24910	0.17507	-0.03163	0.14921
1259.000	0.23526	0.18104	-0.02372	0.15717
1260.000	0.23329	0.20292	-0.00593	0.16114
1261.000	0.27678	0.21287	-0.00198	0.12334
1262.000	0.27480	0.23873	-0.03756	0.12334
1263.000	0.23329	0.17905	-0.00198	0.15518
1264.000	0.23131	0.21088	0.00593	0.13130
1265.000	0.24712	0.21486	-0.03954	0.14722
1266.000	0.26096	0.16910	-0.01779	0.13926
1267.000	0.24119	0.20690	-0.00989	0.14324
1268.000	0.23526	0.17706	-0.03163	0.14324
1269.000	0.26096	0.22082	-0.01779	0.16910
1270.000	0.23131	0.24271	-0.01384	0.13727
1271.000	0.26294	0.22281	-0.01977	0.16910
1272.000	0.21945	0.21884	-0.02570	0.14324
1273.000	0.26096	0.20690	-0.01384	0.13727
1274.000	0.25503	0.20491	-0.01186	0.16711
1275.000	0.22735	0.20292	-0.00593	0.18502
1276.000	0.26689	0.24470	-0.03954	0.18502
1277.000	0.26096	0.22082	-0.01977	0.16114
1278.000	0.25503	0.21883	-0.03756	0.15717
1279.000	0.24515	0.20491	0.03361	0.17905
1280.000	0.22735	0.22082	-0.00791	0.16114
1281.000	0.28271	0.26459	-0.00198	0.20093
1282.000	0.26294	0.30438	-0.00791	0.17905
1283.000	0.23329	0.20889	-0.05536	0.18303
1284.000	0.22735	0.26857	0.00000	0.16910
1285.000	0.24515	0.23674	-0.01779	0.15915
1286.000	0.22340	0.23276	-0.03163	0.17109
1287.000	0.19770	0.19894	-0.03163	0.17308
1288.000	0.17002	0.14722	-0.02570	0.10544
1289.000	0.11071	0.15518	-0.08699	0.02387
1290.000	-0.00395	0.03780	-0.17002	-0.03780
1291.000	-0.12455	-0.06764	-0.25503	-0.16114
1292.000	-0.22142	-0.20292	-0.30050	-0.21883
1293.000	-0.30841	-0.22878	-0.42109	-0.36405
1294.000	-0.42505	-0.33819	-0.52191	-0.46550
1295.000	-0.48633	-0.33421	-0.56738	-0.51324
1296.000	-0.57331	-0.40980	-0.66227	-0.59279
1297.000	-0.69587	-0.46349	-0.71366	-0.66240
1298.000	-0.69587	-0.46747	-0.78087	-0.70416
1299.000	-0.71366	-0.49731	-0.80063	-0.74592
1300.000	-0.74133	-0.56692	-0.78680	-0.79366
1301.000	-0.70180	-0.54704	-0.79866	-0.72007
1302.000	-0.69785	-0.50527	-0.77098	-0.74991
1303.000	-0.61482	-0.48936	-0.74331	-0.68627
1304.000	-0.59308	-0.49334	-0.71564	-0.63853
1305.000	-0.47645	-0.45953	-0.69982	-0.60074
1306.000	-0.44679	-0.42771	-0.69587	-0.60671
1307.000	-0.41714	-0.34416	-0.67413	-0.56096
1308.000	-0.35586	-0.35212	-0.67215	-0.49930
1309.000	-0.27282	-0.28448	-0.61680	-0.45356
1310.000	-0.29457	-0.27255	-0.64052	-0.43963
1311.000	-0.25701	-0.21287	-0.61878	-0.43366
1312.000	-0.26492	-0.20491	-0.61878	-0.45952
1313.000	-0.28271	-0.22082	-0.58913	-0.37200
1314.000	-0.30248	-0.22480	-0.56145	-0.37797
1315.000	-0.26096	-0.22281	-0.58517	-0.37598
1316.000	-0.34004	-0.28249	-0.56540	-0.38990
1317.000	-0.29457	-0.20093	-0.59308	-0.37797
1318.000	-0.32422	-0.22878	-0.58715	-0.38195
1319.000	-0.29062	-0.26061	-0.52389	-0.40582
1320.000	-0.32620	-0.27454	-0.55354	-0.42969
1321.000	-0.34004	-0.23475	-0.56145	-0.40582
1322.000	-0.34399	-0.25066	-0.53575	-0.40781
1323.000	-0.37167	-0.24072	-0.55157	-0.47345
1324.000	-0.40133	-0.23077	-0.58715	-0.44560
1325.000	-0.39144	-0.24270	-0.56343	-0.42173
1326.000	-0.41319	-0.22878	-0.57331	-0.41974
1327.000	-0.41912	-0.24469	-0.60296	-0.50130
1328.000	-0.41714	-0.22878	-0.57529	-0.51522
1329.000	-0.42505	-0.29244	-0.60494	-0.49334
1330.000	-0.44679	-0.25464	-0.61878	-0.49533
1331.000	-0.42702	-0.29443	-0.61878	-0.52119
1332.000	-0.43691	-0.28050	-0.62273	-0.52517
1333.000	-0.45075	-0.29442	-0.64250	-0.53511
1334.000	-0.44679	-0.29045	-0.62866	-0.50130
1335.000	-0.46854	-0.30636	-0.62273	-0.53909
1336.000	-0.43098	-0.27055	-0.61878	-0.50925
1337.000	-0.49028	-0.31432	-0.62075	-0.51721
1338.000	-0.43691	-0.29641	-0.64052	-0.51721
1339.000	-0.44877	-0.28846	-0.63855	-0.47543
1340.000	-0.42109	-0.33222	-0.61878	-0.43764
1341.000	-0.39737	-0.30437	-0.66820	-0.46748
1342.000	-0.47645	-0.30636	-0.65831	-0.47941
1343.000	-0.44877	-0.32426	-0.62075	-0.47146
1344.000	-0.41714	-0.30437	-0.66424	-0.43366
1345.000	-0.41121	-0.28050	-0.67017	-0.45156
1346.000	-0.42702	-0.29840	-0.63657	-0.43366
1347.000	-0.40528	-0.32029	-0.63855	-0.46350
1348.000	-0.44877	-0.26459	-0.68203	-0.43167
1349.000	-0.39342	-0.28448	-0.66820	-0.46151
1350.000	-0.39935	-0.24071	-0.65831	-0.46151
1351.000	-0.40528	-0.32626	-0.62471	-0.42173
1352.000	-0.36376	-0.30239	-0.63064	-0.45753
1353.000	-0.38156	-0.28647	-0.64052	-0.43565
1354.000	-0.37958	-0.27453	-0.63657	-0.44560
1355.000	-0.37365	-0.28050	-0.62075	-0.40979
1356.000	-0.39737	-0.26260	-0.62866	-0.40581
1357.000	-0.38156	-0.26459	-0.68401	-0.41178
1358.000	-0.37760	-0.24867	-0.60692	-0.38194
1359.000	-0.39935	-0.25862	-0.64250	-0.39587
1360.000	-0.36574	-0.22082	-0.68401	-0.40382
1361.000	-0.35783	-0.22878	-0.65238	-0.41178
1362.000	-0.38749	-0.25464	-0.69785	-0.48537
1363.000	-0.35783	-0.24668	-0.67610	-0.40183
1364.000	-0.38353	-0.24867	-0.66424	-0.43764
1365.000	-0.37760	-0.25265	-0.70378	-0.43167
1366.000	-0.41714	-0.26459	-0.68006	-0.42172
1367.000	-0.36574	-0.27255	-0.67808	-0.43764
1368.000	-0.36772	-0.23873	-0.64052	-0.42769
1369.000	-0.38551	-0.24071	-0.69389	-0.45554
1370.000	-0.36969	-0.26459	-0.67215	-0.43167
1371.000	-0.39935	-0.24270	-0.64250	-0.50925
1372.000	-0.37760	-0.23873	-0.63855	-0.45355
1373.000	-0.43493	-0.24469	-0.68599	-0.51720
1374.000	-0.40528	-0.20491	-0.67808	-0.48737
1375.000	-0.39144	-0.20093	-0.70575	-0.48935
1376.000	-0.37563	-0.21286	-0.70378	-0.50129
1377.000	-0.35586	-0.25862	-0.69785	-0.47941
1378.000	-0.39935	-0.24668	-0.65041	-0.49731
1379.000	-0.39935	-0.22878	-0.70180	-0.48935
1380.000	-0.38551	-0.24270	-0.68994	-0.48140
1381.000	-0.37760	-0.23077	-0.69587	-0.52118
1382.000	-0.36969	-0.20292	-0.69785	-0.53908
1383.000	-0.36179	-0.16910	-0.69785	-0.50924
1384.000	-0.33411	-0.21883	-0.69982	-0.51521
1385.000	-0.36376	-0.24469	-0.68994	-0.50129
1386.000	-0.34597	-0.19297	-0.69389	-0.50925
1387.000	-0.38946	-0.25265	-0.70773	-0.52516
1388.000	-0.34202	-0.24469	-0.66820	-0.51720
1389.000	-0.33806	-0.23077	-0.68006	-0.47543
1390.000	-0.33806	-0.19297	-0.67017	-0.54107
1391.000	-0.34597	-0.23077	-0.69587	-0.47344
1392.000	-0.36179	-0.18899	-0.67808	-0.49532
1393.000	-0.36574	-0.25862	-0.70773	-0.52118
1394.000	-0.33609	-0.24867	-0.69587	-0.48339
1395.000	-0.34399	-0.21883	-0.69785	-0.55499
1396.000	-0.36772	-0.22679	-0.67017	-0.53710
1397.000	-0.32620	-0.19894	-0.69192	-0.51919
1398.000	-0.33806	-0.19496	-0.69982	-0.52516
1399.000	-0.29457	-0.24867	-0.67413	-0.55301
1400.000	-0.33411	-0.28249	-0.66227	-0.51720
1401.000	-0.33016	-0.22281	-0.66029	-0.57489
1402.000	-0.32225	-0.26459	-0.67215	-0.49731
1403.000	-0.30841	-0.26260	-0.69982	-0.54306
1404.000	-0.32620	-0.24867	-0.66029	-0.50129
1405.000	-0.33411	-0.24668	-0.68994	-0.52715
1406.000	-0.30841	-0.24470	-0.68796	-0.48935
1407.000	-0.28864	-0.30040	-0.69389	-0.53510
1408.000	-0.35586	-0.27652	-0.71168	-0.51123
1409.000	-0.30841	-0.25464	-0.70575	-0.51322
1410.000	-0.29457	-0.25066	-0.67610	-0.48538
1411.000	-0.34597	-0.25862	-0.71564	-0.48338
1412.000	-0.30841	-0.26260	-0.67808	-0.50925
1413.000	-0.31039	-0.22878	-0.71366	-0.48736
1414.000	-0.31829	-0.24867	-0.73540	-0.47741
1415.000	-0.30446	-0.29045	-0.70575	-0.47742
1416.000	-0.35586	-0.23873	-0.75517	-0.48736
1417.000	-0.30841	-0.20889	-0.71761	-0.44957
1418.000	-0.32225	-0.21883	-0.71168	-0.46747
1419.000	-0.33213	-0.26260	-0.71564	-0.51521
1420.000	-0.32620	-0.26061	-0.74133	-0.45951
1421.000	-0.33213	-0.25464	-0.70180	-0.46747
1422.000	-0.34795	-0.26459	-0.70773	-0.45156
1423.000	-0.33609	-0.25066	-0.72750	-0.45752
1424.000	-0.34993	-0.25265	-0.69192	-0.48538
1425.000	-0.35586	-0.23276	-0.71761	-0.47742
1426.000	-0.31236	-0.20889	-0.73343	-0.45553
1427.000	-0.28666	-0.23674	-0.72750	-0.46747
1428.000	-0.31039	-0.26459	-0.72947	-0.47344
1429.000	-0.27480	-0.23873	-0.72750	-0.38392
1430.000	-0.27678	-0.21883	-0.75517	-0.50327
1431.000	-0.29062	-0.23674	-0.76110	-0.47343
1432.000	-0.29457	-0.23873	-0.71959	-0.46946
1433.000	-0.25503	-0.25265	-0.72157	-0.47344
1434.000	-0.28271	-0.24669	-0.70180	-0.45753
1435.000	-0.25701	-0.23674	-0.69192	-0.41377
1436.000	-0.28469	-0.26658	-0.66622	-0.41377
1437.000	-0.28271	-0.23674	-0.71366	-0.43763
1438.000	-0.30643	-0.25265	-0.70575	-0.41973
1439.000	-0.28073	-0.23873	-0.75517	-0.42768
1440.000	-0.26887	-0.20889	-0.72354	-0.40780
1441.000	-0.30446	-0.25265	-0.72750	-0.45156
1442.000	-0.32818	-0.26658	-0.72947	-0.41575
1443.000	-0.27678	-0.24072	-0.72157	-0.37995
1444.000	-0.28469	-0.19695	-0.73145	-0.44559
1445.000	-0.31829	-0.24867	-0.74924	-0.42172
1446.000	-0.28271	-0.27653	-0.71564	-0.43167
1447.000	-0.28073	-0.23276	-0.74726	-0.41575
1448.000	-0.27085	-0.23674	-0.70378	-0.47543
1449.000	-0.30841	-0.26260	-0.71959	-0.43564
1450.000	-0.28271	-0.29642	-0.71564	-0.45753
1451.000	-0.29457	-0.24867	-0.72354	-0.44758
1452.000	-0.29457	-0.29045	-0.70773	-0.44161
1453.000	-0.26689	-0.28846	-0.70773	-0.47742
1454.000	-0.25108	-0.23873	-0.74133	-0.42967
1455.000	-0.25899	-0.24669	-0.73738	-0.45553
1456.000	-0.31434	-0.26061	-0.71959	-0.44758
1457.000	-0.28864	-0.29244	-0.73936	-0.36602
1458.000	-0.29062	-0.23873	-0.73343	-0.38392
1459.000	-0.22933	-0.27454	-0.75715	-0.41376
1460.000	-0.30446	-0.26857	-0.75122	-0.42570
1461.000	-0.26492	-0.24271	-0.76901	-0.41575
1462.000	-0.26887	-0.27852	-0.75122	-0.43365
1463.000	-0.26294	-0.27056	-0.72947	-0.40581
1464.000	-0.23526	-0.21088	-0.73936	-0.43365
1465.000	-0.27085	-0.23674	-0.70773	-0.41575
1466.000	-0.27085	-0.24868	-0.74331	-0.41774
1467.000	-0.28864	-0.21883	-0.73145	-0.42968
1468.000	-0.22735	-0.24669	-0.71168	-0.41774
1469.000	-0.22142	-0.24271	-0.74726	-0.41774
1470.000	-0.28666	-0.23276	-0.73738	-0.39785
1471.000	-0.22933	-0.23276	-0.74331	-0.38989
1472.000	-0.25701	-0.25066	-0.71564	-0.43962
1473.000	-0.24515	-0.22480	-0.74133	-0.41575
1474.000	-0.20956	-0.22679	-0.75517	-0.38591
1475.000	-0.23526	-0.24470	-0.73936	-0.38790
1476.000	-0.25701	-0.24470	-0.73936	-0.40183
1477.000	-0.24515	-0.23873	-0.71366	-0.39984
1478.000	-0.23329	-0.23475	-0.70180	-0.39984
1479.000	-0.20165	-0.20889	-0.69982	-0.41575
1480.000	-0.23131	-0.20093	-0.75319	-0.46150
1481.000	-0.24910	-0.24072	-0.72750	-0.47742
1482.000	-0.27085	-0.24669	-0.79273	-0.51918
1483.000	-0.25899	-0.22878	-0.83621	-0.50326
1484.000	-0.33411	-0.26061	-0.82831	-0.49531
1485.000	-0.40330	-0.25862	-0.92713	-0.50524
1486.000	-0.49622	-0.26856	-0.94097	-0.54502
1487.000	-0.54366	-0.24867	-1.03188	-0.54500
1488.000	-0.58913	-0.29442	-1.10896	-0.58079
1489.000	-0.61087	-0.27254	-1.16232	-0.57879
1490.000	-0.67215	-0.35807	-1.18406	-0.55889
1491.000	-0.67215	-0.28447	-1.19394	-0.55889
1492.000	-0.69389	-0.31828	-1.24136	-0.56286
1493.000	-0.70575	-0.32624	-1.18998	-0.53105
1494.000	-0.70180	-0.33420	-1.20382	-0.48729
1495.000	-0.62668	-0.30038	-1.16034	-0.46144
1496.000	-0.57727	-0.28646	-1.09315	-0.47936
1497.000	-0.50610	-0.26458	-1.04769	-0.43362
1498.000	-0.47645	-0.31034	-1.05758	-0.43362
1499.000	-0.40528	-0.25265	-1.00817	-0.37395
1500.000	-0.41319	-0.25663	-1.00421	-0.43561
1501.000	-0.37167	-0.32427	-1.00817	-0.41174
1502.000	-0.36772	-0.27652	-0.96073	-0.43960
1503.000	-0.36179	-0.25066	-1.00224	-0.45749
1504.000	-0.35190	-0.25066	-0.98050	-0.44556
1505.000	-0.33016	-0.24072	-0.98445	-0.45749
1506.000	-0.35586	-0.29244	-0.98643	-0.45749
1507.000	-0.36969	-0.27056	-1.03188	-0.48334
1508.000	-0.36179	-0.25862	-1.04374	-0.56091
1509.000	-0.35981	-0.26857	-0.98643	-0.50324
1510.000	-0.42702	-0.30835	-1.03584	-0.53108
1511.000	-0.39935	-0.29443	-1.04572	-0.51715
1512.000	-0.38946	-0.26857	-1.01410	-0.48136
1513.000	-0.40330	-0.25663	-1.02793	-0.53307
1514.000	-0.42505	-0.25464	-1.04374	-0.49925
1515.000	-0.41319	-0.29045	-1.03386	-0.49925
1516.000	-0.39342	-0.29841	-1.03584	-0.47738
1517.000	-0.45075	-0.29045	-1.04374	-0.49329
1518.000	-0.43098	-0.27851	-1.02793	-0.47738
1519.000	-0.42702	-0.27851	-1.04572	-0.48135
1520.000	-0.43098	-0.27652	-1.02398	-0.51517
1521.000	-0.47249	-0.30636	-1.03584	-0.49528
1522.000	-0.42505	-0.25862	-1.07141	-0.52312
1523.000	-0.41714	-0.30437	-1.06746	-0.52709
1524.000	-0.43493	-0.32029	-1.09908	-0.54698
1525.000	-0.43296	-0.29840	-1.10896	-0.53106
1526.000	-0.41319	-0.25464	-1.09117	-0.48731
1527.000	-0.43296	-0.30835	-1.08920	-0.54300
1528.000	-0.42702	-0.30238	-1.07536	-0.48533
1529.000	-0.41912	-0.25265	-1.10501	-0.47538
1530.000	-0.39737	-0.22082	-1.05955	-0.50522
1531.000	-0.39539	-0.26857	-1.08524	-0.51118
1532.000	-0.41319	-0.23674	-1.06548	-0.45947
1533.000	-0.41714	-0.27652	-1.05560	-0.48732
1534.000	-0.36772	-0.22082	-1.09315	-0.48532
1535.000	-0.39144	-0.19894	-1.09710	-0.50123
1536.000	-0.39539	-0.27055	-1.09117	-0.48731
1537.000	-0.35190	-0.21485	-1.09315	-0.50521
1538.000	-0.39342	-0.27652	-1.08129	-0.53505
1539.000	-0.43098	-0.22679	-1.12082	-0.50521
1540.000	-0.39935	-0.28249	-1.05955	-0.47141
1541.000	-0.38946	-0.27652	-1.12675	-0.48731
1542.000	-0.36179	-0.22082	-1.07339	-0.46544
1543.000	-0.37958	-0.31034	-1.12082	-0.50918
1544.000	-0.42702	-0.23872	-1.13070	-0.48929
1545.000	-0.38156	-0.22878	-1.08129	-0.46544
1546.000	-0.36376	-0.21286	-1.10501	-0.48731
1547.000	-0.37167	-0.23077	-1.06351	-0.47737
1548.000	-0.34399	-0.21286	-1.10303	-0.49129
1549.000	-0.34993	-0.18302	-1.06943	-0.47140
1550.000	-0.36574	-0.22878	-1.07932	-0.44952
1551.000	-0.37563	-0.22679	-1.05560	-0.45748
1552.000	-0.39144	-0.21883	-1.09513	-0.48333
1553.000	-0.36376	-0.23276	-1.08524	-0.43361
1554.000	-0.38749	-0.25663	-1.08327	-0.50919
1555.000	-0.39144	-0.21684	-1.11094	-0.44554
1556.000	-0.36772	-0.23873	-1.10106	-0.49924
1557.000	-0.38551	-0.21087	-1.08722	-0.50322
1558.000	-0.32620	-0.22878	-1.13268	-0.43162
1559.000	-0.39935	-0.23674	-1.10303	-0.47538
1560.000	-0.36772	-0.28448	-1.11094	-0.49526
1561.000	-0.40528	-0.21883	-1.06351	-0.46544
1562.000	-0.37760	-0.25265	-1.08327	-0.50521
1563.000	-0.38946	-0.28846	-1.05955	-0.44754
1564.000	-0.38156	-0.26260	-1.07734	-0.47538
1565.000	-0.36376	-0.26459	-1.09710	-0.52510
1566.000	-0.30248	-0.22281	-1.08327	-0.58875
1567.000	-0.35981	-0.30437	-1.07734	-0.56289
1568.000	-0.37365	-0.28050	-1.10698	-0.51913
1569.000	-0.33016	-0.25265	-1.10501	-0.55493
1570.000	-0.33016	-0.28647	-1.07141	-0.49925
1571.000	-0.35586	-0.24469	-1.09315	-0.50521
1572.000	-0.33609	-0.24668	-1.06153	-0.50920
1573.000	-0.34993	-0.27851	-1.06548	-0.52908
1574.000	-0.37167	-0.24072	-1.09710	-0.55096
1575.000	-0.36376	-0.31631	-1.07536	-0.51715
1576.000	-0.37760	-0.31631	-1.08524	-0.53902
1577.000	-0.32620	-0.25464	-1.06351	-0.51715
1578.000	-0.36179	-0.28448	-1.07339	-0.53704
1579.000	-0.32818	-0.29841	-1.05758	-0.51715
1580.000	-0.35388	-0.30835	-1.06548	-0.50522
1581.000	-0.33609	-0.26061	-1.05560	-0.53704
1582.000	-0.32620	-0.26459	-1.04967	-0.48732
1583.000	-0.33213	-0.29244	-1.06943	-0.52113
1584.000	-0.31829	-0.28846	-1.05560	-0.49130
1585.000	-0.31039	-0.27255	-1.09710	-0.52908
1586.000	-0.30841	-0.23674	-1.04769	-0.60069
1587.000	-0.34795	-0.23873	-1.04374	-0.52710
1588.000	-0.35981	-0.21883	-1.08524	-0.62057
1589.000	-0.43493	-0.16313	-1.10303	-0.47140
1590.000	-0.45470	-0.14125	-1.13663	-0.37791
1591.000	-0.54366	-0.09350	-1.19394	-0.31426
1592.000	-0.64250	-0.07957	-1.23741	-0.20685
1593.000	-0.79668	0.00995	-1.32831	-0.16508
1594.000	-0.91527	0.15715	-1.49625	-0.13325
1595.000	-1.09513	0.28841	-1.66812	-0.03977
1596.000	-1.24927	0.36994	-1.81428	0.16703
1597.000	-1.37178	0.53101	-1.96042	0.31812
1598.000	-1.51601	0.78153	-2.11048	0.46719
1599.000	-1.64837	0.89282	-2.23288	0.59039
1600.000	-1.70565	0.99020	-2.31184	0.79508
1601.000	-1.79848	1.03587	-2.40855	0.91823
1602.000	-1.83798	1.12331	-2.41249	1.01162
1603.000	-1.85576	1.11932	-2.48156	1.06919
1604.000	-1.89920	1.07358	-2.39473	1.11695
1605.000	-1.89130	1.06365	-2.41249	1.07521
1606.000	-1.80441	1.05575	-2.36513	1.05338
1607.000	-1.71355	1.06773	-2.36118	1.06134
1608.000	-1.61478	1.01212	-2.29210	1.08325
1609.000	-1.59700	0.97038	-2.25065	1.05546
1610.000	-1.48440	1.00621	-2.19735	0.99190
1611.000	-1.46069	0.95055	-2.15589	0.96410
1612.000	-1.44686	0.93068	-2.13220	0.96213
1613.000	-1.37375	0.97445	-2.08877	0.94029
1614.000	-1.36387	0.97644	-2.10654	0.88066
1615.000	-1.35992	0.87901	-2.06902	0.87471
1616.000	-1.40537	0.88695	-2.05125	0.87075
1617.000	-1.39549	0.84520	-2.12430	0.81903
1618.000	-1.41920	0.79946	-2.07100	0.79918
1619.000	-1.44291	0.82530	-2.08877	0.78526
1620.000	-1.44291	0.75570	-2.05915	0.72166
1621.000	-1.44291	0.74576	-2.09271	0.74152
1622.000	-1.44686	0.76763	-2.11246	0.71766
1623.000	-1.46464	0.78552	-2.08679	0.74153
1624.000	-1.45476	0.79348	-2.13220	0.72958
1625.000	-1.49823	0.79147	-2.15392	0.72758
1626.000	-1.42710	0.79747	-2.12036	0.75741
1627.000	-1.49032	0.87101	-2.13615	0.76337
1628.000	-1.45674	0.87102	-2.16181	0.77131
1629.000	-1.46662	0.86704	-2.17366	0.83292
1630.000	-1.54367	0.93859	-2.21906	0.82693
1631.000	-1.57527	0.89682	-2.22104	0.85674
1632.000	-1.60096	0.90874	-2.18550	0.87862
1633.000	-1.56935	0.95051	-2.22499	0.85276
1634.000	-1.62861	0.91668	-2.24275	0.92231
1635.000	-1.60293	0.95646	-2.25854	0.88454
1636.000	-1.59305	0.98429	-2.23683	0.89250
1637.000	-1.60293	0.96242	-2.22104	0.88655
1638.000	-1.63256	0.94253	-2.22696	0.89251
1639.000	-1.62861	0.98428	-2.25262	0.92827
1640.000	-1.61083	1.00019	-2.25657	0.90839
1641.000	-1.63849	0.98427	-2.25854	0.89050
1642.000	-1.61083	1.02007	-2.24275	0.91237
1643.000	-1.63849	0.95843	-2.27433	0.95011
1644.000	-1.61083	0.99423	-2.23091	0.91437
1645.000	-1.56935	1.03202	-2.22301	0.91040
1646.000	-1.56540	1.03401	-2.25657	0.93820
1647.000	-1.59305	1.06183	-2.24275	0.94815
1648.000	-1.59305	0.99423	-2.22696	0.93425
1649.000	-1.56145	0.98033	-2.21117	0.93426
1650.000	-1.52589	0.97637	-2.24473	0.90840
1651.000	-1.55354	0.98829	-2.23288	0.89449
1652.000	-1.56342	0.93262	-2.21709	0.86469
1653.000	-1.56935	0.96442	-2.22499	0.87264
1654.000	-1.55947	0.98431	-2.24670	0.89250
1655.000	-1.55552	0.97039	-2.23486	0.84878
1656.000	-1.50810	1.02211	-2.23486	0.84878
1657.000	-1.54169	0.94257	-2.23486	0.83487
1658.000	-1.56935	0.98033	-2.20130	0.88060
1659.000	-1.55552	1.03600	-2.22893	0.81698
1660.000	-1.54959	0.98431	-2.23091	0.80903
1661.000	-1.57330	0.98828	-2.24275	0.84083
1662.000	-1.54564	1.01811	-2.27236	0.81100
1663.000	-1.60491	0.99622	-2.21314	0.84283
1664.000	-1.53576	0.95450	-2.24473	0.81499
1665.000	-1.59898	0.89880	-2.24078	0.83884
1666.000	-1.60096	0.97435	-2.28815	0.83285
1667.000	-1.58910	0.96441	-2.23288	0.84679
1668.000	-1.55157	0.93859	-2.25065	0.82492
1669.000	-1.60293	0.99622	-2.25854	0.88454
1670.000	-1.56145	0.96244	-2.24670	0.83287
1671.000	-1.55157	0.99227	-2.24275	0.85673
1672.000	-1.56342	0.95846	-2.23091	0.81897
1673.000	-1.55354	0.98630	-2.25854	0.85870
1674.000	-1.56737	0.99425	-2.26447	0.87460
1675.000	-1.54564	1.00022	-2.27828	0.86863
1676.000	-1.53774	0.97438	-2.21314	0.89451
1677.000	-1.59898	0.93260	-2.21906	0.87860
1678.000	-1.58713	1.00219	-2.26447	0.85473
1679.000	-1.60886	0.97037	-2.24867	0.88455
1680.000	-1.54564	1.05390	-2.23683	0.88058
1681.000	-1.55947	0.97636	-2.25262	0.87262
1682.000	-1.60688	0.95645	-2.26644	0.87460
1683.000	-1.55749	0.98033	-2.24473	0.86666
1684.000	-1.60491	0.98031	-2.25657	0.93820
1685.000	-1.55947	0.95051	-2.21314	0.93624
1686.000	-1.54762	0.98432	-2.22104	0.88258
1687.000	-1.54169	0.99823	-2.23091	0.85276
1688.000	-1.52984	1.03800	-2.26052	0.84877
1689.000	-1.53576	1.01414	-2.23091	0.91437
1690.000	-1.53379	1.04396	-2.24670	0.85871
1691.000	-1.51996	0.96445	-2.25460	0.90243
1692.000	-1.55157	0.99823	-2.23880	0.87859
1693.000	-1.50218	1.02609	-2.21906	0.89848
1694.000	-1.50810	1.00223	-2.22893	0.89052
1695.000	-1.56540	0.99027	-2.27039	0.86069
1696.000	-1.51403	1.02211	-2.26644	0.89249
1697.000	-1.53379	0.96643	-2.21314	0.91438
1698.000	-1.52391	1.01415	-2.25657	0.94416
1699.000	-1.51601	0.99825	-2.23486	0.90244
1700.000	-1.51601	1.00023	-2.24670	0.87859
1701.000	-1.53379	1.03402	-2.24275	0.90641
1702.000	-1.51798	1.01216	-2.23091	0.87263
1703.000	-1.49625	1.02211	-2.28026	0.87658
1704.000	-1.51206	1.01217	-2.22499	0.93425
1705.000	-1.57132	0.97436	-2.24670	0.95411
1706.000	-1.54169	1.03800	-2.23486	0.92430
1707.000	-1.49823	1.06187	-2.22104	0.97002
1708.000	-1.50613	1.06982	-2.25854	0.92031
1709.000	-1.49823	1.04398	-2.28223	0.89446
1710.000	-1.52589	1.03800	-2.23880	0.92629
1711.000	-1.50613	1.03603	-2.23880	0.95213
1712.000	-1.49230	1.00223	-2.22104	0.90245
1713.000	-1.49428	1.05790	-2.29013	0.89843
1714.000	-1.48637	1.04598	-2.24078	0.92828
1715.000	-1.44686	1.04798	-2.20130	0.93824
1716.000	-1.45476	1.03804	-2.21709	0.91637
1717.000	-1.48440	1.02808	-2.21906	0.91835
1718.000	-1.48045	0.98236	-2.21709	0.90643
1719.000	-1.51601	1.02409	-2.23091	0.92232
1720.000	-1.50218	1.05790	-2.25262	0.92628
1721.000	-1.50810	1.05193	-2.23288	0.93623
1722.000	-1.51798	1.03204	-2.23091	0.97002
1723.000	-1.50415	0.97638	-2.30789	0.91631
1724.000	-1.47649	1.00423	-2.26052	0.96602
1725.000	-1.48637	1.05790	-2.25460	0.92628
1726.000	-1.50613	1.06187	-2.27236	0.96403
1727.000	-1.53576	1.01414	-2.27433	0.94217
1728.000	-1.48440	1.09369	-2.26052	0.91634
1729.000	-1.50218	1.04796	-2.25460	0.93622
1730.000	-1.52193	1.03801	-2.22696	0.93226
1731.000	-1.50415	1.04000	-2.22696	0.97201
1732.000	-1.52193	1.01813	-2.24867	0.96404
1733.000	-1.50613	1.00819	-2.25460	0.97000
1734.000	-1.49428	1.00024	-2.25854	0.94416
1735.000	-1.48637	1.07381	-2.26052	0.97000
1736.000	-1.50218	1.03205	-2.25065	0.95410
1737.000	-1.45871	1.03605	-2.24275	0.93821
1738.000	-1.48440	1.04399	-2.23880	0.98790
1739.000	-1.47057	1.04996	-2.25854	0.96801
1740.000	-1.50415	1.04994	-2.28223	0.92427
1741.000	-1.50020	1.06386	-2.26052	0.91634
1742.000	-1.47847	1.06785	-2.27433	0.93024
1743.000	-1.49428	1.04995	-2.20919	0.93823
1744.000	-1.48242	1.07182	-2.26841	0.94813
1745.000	-1.56737	1.04991	-2.31381	0.92227
1746.000	-1.47847	1.07182	-2.28223	0.95806
1747.000	-1.51798	1.04994	-2.27039	0.93223
1748.000	-1.45476	1.09967	-2.26644	0.99782
1749.000	-1.49625	1.04995	-2.30000	0.96003
1750.000	-1.47057	1.04201	-2.27433	0.98191
1751.000	-1.50415	1.08970	-2.30197	0.96003
1752.000	-1.46859	1.06785	-2.28223	0.93620
1753.000	-1.45279	1.06587	-2.26841	0.90640
1754.000	-1.48242	1.07779	-2.27236	0.92627
1755.000	-1.49032	1.05393	-2.24867	0.97199
1756.000	-1.47847	1.04598	-2.27236	0.98390
1757.000	-1.46662	1.10960	-2.25854	0.94615
1758.000	-1.49428	1.06983	-2.26447	0.96403
1759.000	-1.50218	1.03404	-2.29407	0.91830
1760.000	-1.50810	1.03205	-2.24867	0.94218
1761.000	-1.46662	1.03207	-2.26841	0.95409
1762.000	-1.49823	1.05392	-2.21117	0.92034
1763.000	-1.49625	1.03802	-2.23091	0.95412
1764.000	-1.46464	1.07978	-2.25460	0.91435
1765.000	-1.50218	1.06784	-2.21709	0.93028
1766.000	-1.45871	1.04400	-2.26249	0.93820
1767.000	-1.50613	1.08772	-2.22893	0.95014
1768.000	-1.47057	1.04996	-2.26052	0.92429
1769.000	-1.45081	1.02611	-2.25460	0.96404
1770.000	-1.47649	1.03008	-2.25262	0.97596
1771.000	-1.47649	1.04598	-2.28815	0.99581
1772.000	-1.46662	1.04996	-2.25460	0.96603
1773.000	-1.48440	1.03007	-2.26841	0.95012
1774.000	-1.46464	1.04002	-2.23880	0.94815
1775.000	-1.47057	1.08376	-2.22696	0.97797
1776.000	-1.45476	1.11756	-2.24078	0.99783
1777.000	-1.51996	1.07777	-2.24473	0.98193
1778.000	-1.51206	1.01217	-2.19340	0.93228
1779.000	-1.51601	1.08175	-2.20525	1.02369
1780.000	-1.44883	1.07184	-2.24473	0.95610
1781.000	-1.50415	1.03801	-2.20919	0.96009
1782.000	-1.47847	1.02809	-2.21314	0.94419
1783.000	-1.52193	1.01614	-2.21512	0.95413
1784.000	-1.53774	1.06782	-2.22104	0.93822
1785.000	-1.51206	1.01415	-2.21709	0.97201
1786.000	-1.51601	1.04397	-2.21512	0.97400
1787.000	-1.52786	1.03602	-2.24670	0.99783
1788.000	-1.51008	1.04994	-2.25460	0.98987
1789.000	-1.54169	1.03800	-2.23683	1.01970
1790.000	-1.51403	1.01614	-2.25460	0.95211
1791.000	-1.56342	1.02009	-2.21906	0.97599
1792.000	-1.52786	1.03005	-2.18748	0.95812
1793.000	-1.52193	1.01216	-2.20919	1.04555
1794.000	-1.51601	1.03006	-2.19143	1.01178
1795.000	-1.51996	1.02011	-2.20525	0.97798
1796.000	-1.55354	1.00817	-2.18353	0.96607
1797.000	-1.52589	1.03005	-2.20919	0.98990
1798.000	-1.51996	1.01216	-2.20525	1.01773
1799.000	-1.57923	1.02207	-2.22104	0.99785
1800.000	-1.51601	1.01415	-2.19932	1.02767
1801.000	-1.52786	1.04596	-2.22893	1.04752
1802.000	-1.55354	0.96443	-2.23486	0.99187
1803.000	-1.56935	0.98033	-2.27631	0.99185
1804.000	-1.56935	1.01413	-2.21512	1.01772
1805.000	-1.52391	1.01812	-2.21314	1.04753
1806.000	-1.57527	0.98828	-2.26249	0.98987
1807.000	-1.55552	1.02209	-2.23091	0.96008
1808.000	-1.57923	0.96840	-2.24275	1.00976
1809.000	-1.59305	0.97634	-2.22499	0.98194
1810.000	-1.53774	1.02209	-2.23288	0.97399
1811.000	-1.55552	1.02010	-2.23880	0.99585
1812.000	-1.52786	1.05192	-2.22893	0.97399
1813.000	-1.52786	1.04596	-2.26249	0.98391
1814.000	-1.55749	1.06980	-2.20919	0.99984
1815.000	-1.52391	1.06584	-2.23091	1.03957
1816.000	-1.59305	0.96441	-2.25460	0.96801
1817.000	-1.52786	1.07578	-2.25657	0.94218
1818.000	-1.56935	1.08371	-2.23091	1.00181
1819.000	-1.55947	1.04196	-2.22499	0.96008
1820.000	-1.53774	1.08372	-2.24078	0.93821
1821.000	-1.54169	1.03004	-2.22893	1.00182
1822.000	-1.53971	1.05191	-2.26841	0.99384
1823.000	-1.54762	1.05986	-2.24078	0.97200
1824.000	-1.52984	1.06782	-2.22696	0.97002
1825.000	-1.49823	1.07778	-2.24670	0.98590
1826.000	-1.53774	1.06782	-2.21314	0.98593
1827.000	-1.52786	1.07975	-2.24473	0.95610
1828.000	-1.53181	1.10559	-2.22893	0.96604
1829.000	-1.52193	1.09168	-2.22104	0.95810
1830.000	-1.52786	1.11951	-2.23486	0.94815
1831.000	-1.50613	1.11356	-2.22893	0.97399
1832.000	-1.49230	1.09567	-2.24670	0.97994
1833.000	-1.47057	1.10563	-2.22104	0.97599
1834.000	-1.51403	1.10163	-2.21512	0.92432
1835.000	-1.52786	1.11554	-2.25262	0.97596
1836.000	-1.52786	1.12548	-2.23288	0.96008
1837.000	-1.49428	1.11953	-2.24473	0.95212
1838.000	-1.51996	1.09765	-2.22893	0.96604
1839.000	-1.52193	1.08970	-2.23486	0.99585
1840.000	-1.54367	1.09565	-2.23288	0.98393
1841.000	-1.51008	1.11555	-2.21117	0.95016
1842.000	-1.50415	1.10760	-2.24867	0.94218
1843.000	-1.52786	1.10758	-2.22301	0.99586
1844.000	-1.52391	1.13343	-2.24473	0.94815
1845.000	-1.50613	1.11157	-2.25262	0.96603
1846.000	-1.51008	1.14934	-2.23486	0.95412
1847.000	-1.51403	1.10958	-2.27039	0.96800
1848.000	-1.50020	1.07181	-2.24670	0.95808
1849.000	-1.49032	1.09170	-2.25262	0.99584
1850.000	-1.54169	1.07179	-2.23486	0.94815
1851.000	-1.46859	1.10364	-2.24275	0.93026
1852.000	-1.49230	1.09567	-2.27828	0.95409
1853.000	-1.52984	1.08969	-2.28618	0.94812
1854.000	-1.52391	1.13939	-2.24078	0.97796
1855.000	-1.49230	1.11754	-2.25262	0.97199
1856.000	-1.50415	1.16922	-2.23486	0.99982
1857.000	-1.51996	1.09765	-2.24275	0.95808
1858.000	-1.50218	1.10163	-2.24670	0.96404
1859.000	-1.50415	1.07380	-2.25854	0.93025
1860.000	-1.53971	1.12149	-2.25657	0.97397
1861.000	-1.47649	1.14538	-2.25065	0.93821
1862.000	-1.48440	1.05393	-2.25065	0.98193
1863.000	-1.51601	1.07578	-2.25657	0.97397
1864.000	-1.52984	1.05589	-2.26052	1.02167
1865.000	-1.51996	1.05590	-2.27236	1.02762
1866.000	-1.53576	1.09366	-2.24670	0.93423
1867.000	-1.55552	1.03600	-2.27433	0.99384
1868.000	-1.51403	1.08771	-2.25854	0.99583
1869.000	-1.56342	1.05985	-2.25262	1.03161
1870.000	-1.53379	1.07180	-2.23091	1.02964
1871.000	-1.51996	1.07777	-2.24670	1.00777
1872.000	-1.55354	1.04594	-2.25854	1.02564
1873.000	-1.54762	1.05191	-2.26644	0.98987
1874.000	-1.56145	1.06781	-2.26841	0.96602
1875.000	-1.53971	1.07776	-2.25262	1.04949
1876.000	-1.53379	1.05390	-2.28420	1.03556
1877.000	-1.54367	1.07577	-2.24473	0.97398
1878.000	-1.52984	1.07578	-2.27236	1.01768
1879.000	-1.54959	1.04197	-2.22893	1.03759
1880.000	-1.57725	1.03599	-2.21314	0.98394
1881.000	-1.57527	1.00418	-2.24473	1.00379
1882.000	-1.51403	1.06982	-2.25460	0.96404
1883.000	-1.56935	1.03003	-2.24670	1.02366
1884.000	-1.56342	1.03600	-2.21709	1.00779
1885.000	-1.61281	1.03399	-2.23486	1.02367
1886.000	-1.56737	1.03600	-2.23288	0.97995
1887.000	-1.53181	1.07577	-2.24473	1.00379
1888.000	-1.55354	1.04395	-2.25854	0.97000
1889.000	-1.50415	1.09567	-2.28223	1.00774
1890.000	-1.56935	1.05985	-2.25854	0.99782
1891.000	-1.55354	1.06980	-2.25262	0.99584
1892.000	-1.53576	1.04993	-2.23880	1.03162
1893.000	-1.57132	1.05389	-2.26841	0.98390
1894.000	-1.54169	1.07776	-2.21512	0.99984
1895.000	-1.52391	1.03999	-2.24275	0.98988
1896.000	-1.55749	1.03799	-2.22499	1.02169
1897.000	-1.54564	1.05788	-2.23486	0.95412
1898.000	-1.51403	1.06584	-2.23683	0.97995
1899.000	-1.53971	1.07179	-2.24078	1.00777
1900.000	-1.53181	1.02408	-2.26447	0.97794
1901.000	-1.55354	1.03203	-2.24473	0.99386
1902.000	-1.55157	1.07378	-2.26447	1.03359
1903.000	-1.51601	1.04994	-2.22696	0.97996
1904.000	-1.53971	1.02408	-2.23683	0.97001
1905.000	-1.53971	1.05589	-2.27433	0.97992
1906.000	-1.55354	1.03799	-2.22301	0.96207
1907.000	-1.51403	1.04994	-2.23683	1.00380
1908.000	-1.52984	1.03800	-2.27433	1.01371
1909.000	-1.55354	1.02407	-2.22499	0.97797
1910.000	-1.53971	1.02607	-2.26447	0.96205
1911.000	-1.53379	1.02210	-2.23288	1.00976
1912.000	-1.55354	0.99226	-2.23880	1.01175
1913.000	-1.56737	1.06979	-2.22104	1.00381
1914.000	-1.56935	0.99425	-2.24670	0.98789
1915.000	-1.52589	1.00222	-2.20919	0.99984
1916.000	-1.59108	1.02803	-2.25854	0.99981
1917.000	-1.54564	1.00221	-2.26052	0.99186
1918.000	-1.55157	1.02606	-2.22301	0.96008
1919.000	-1.57132	1.01214	-2.22301	1.00977
1920.000	-1.58318	1.03002	-2.23288	1.02367
1921.000	-1.56540	1.03202	-2.24078	1.00578
1922.000	-1.57725	1.05388	-2.25262	1.00379
1923.000	-1.56737	1.04196	-2.23288	0.98591
1924.000	-1.54169	1.05191	-2.24867	1.01770
1925.000	-1.55749	1.00817	-2.22104	1.02964
1926.000	-1.56737	1.02009	-2.23091	1.02367
1927.000	-1.54564	1.01811	-2.21512	1.00381
1928.000	-1.56342	1.01413	-2.22893	0.96604
1929.000	-1.52589	1.03005	-2.25065	0.95609
1930.000	-1.56342	1.03401	-2.23288	0.98194
1931.000	-1.54564	1.02607	-2.23683	0.97597
1932.000	-1.55552	1.03401	-2.25262	0.99186
1933.000	-1.55354	1.03600	-2.22499	0.94816
1934.000	-1.51798	1.06385	-2.22104	0.99387
1935.000	-1.56540	1.02208	-2.24867	0.98193
1936.000	-1.57527	1.00816	-2.26644	1.03359
1937.000	-1.52786	1.06584	-2.23486	0.96604
1938.000	-1.57527	0.98629	-2.24078	0.98193
1939.000	-1.57923	1.04792	-2.21314	1.00580
1940.000	-1.54367	1.03402	-2.22696	1.00977
1941.000	-1.52786	1.05987	-2.22499	0.97598
1942.000	-1.55947	1.03799	-2.22301	0.97797
1943.000	-1.52786	1.04198	-2.24473	0.97597
1944.000	-1.56145	1.00618	-2.22893	0.99585
1945.000	-1.52589	1.03403	-2.23486	0.95610
1946.000	-1.52786	0.98830	-2.24867	0.98193
1947.000	-1.54367	1.02209	-2.25065	1.01372
1948.000	-1.56935	1.03599	-2.21709	1.00381
1949.000	-1.49625	1.04398	-2.22104	0.99785
1950.000	-1.56540	1.05985	-2.22104	0.99983
1951.000	-1.57725	1.02207	-2.24078	0.97995
1952.000	-1.56540	1.02606	-2.21314	0.92034
1953.000	-1.60293	1.03598	-2.22499	0.96803
1954.000	-1.52391	1.03999	-2.23880	0.97796
1955.000	-1.52589	1.02608	-2.22696	0.97002
1956.000	-1.51403	1.04000	-2.24473	0.95212
1957.000	-1.54169	1.03601	-2.21906	0.93425
1958.000	-1.55947	1.01612	-2.24078	0.97398
1959.000	-1.57725	1.02207	-2.25854	0.96205
1960.000	-1.54959	0.99624	-2.23683	0.99386
1961.000	-1.56145	0.99425	-2.22301	0.94021
1962.000	-1.55354	1.00022	-2.22893	0.93226
1963.000	-1.50613	1.03603	-2.23486	0.92232
1964.000	-1.49823	1.05392	-2.18353	0.98595
1965.000	-1.48637	1.05393	-2.20130	0.96606
1966.000	-1.49230	1.10164	-2.21512	0.98593
1967.000	-1.59898	1.08767	-2.24473	0.92629
1968.000	-1.67207	1.10154	-2.36710	0.91428
1969.000	-1.86761	1.06764	-2.43815	0.94404
1970.000	-2.08482	1.01185	-2.57430	0.97971
1971.000	-2.20722	1.05748	-2.74593	0.91401
1972.000	-2.47564	1.09900	-2.93328	0.94366
1973.000	-2.77157	1.06298	-3.26248	0.94734
1974.000	-3.09101	1.05672	-3.45950	0.99281
1975.000	-3.35706	1.11799	-3.64069	0.98269
1976.000	-3.70960	1.12749	-3.98906	0.93467
1977.000	-4.05989	0.98617	-4.29980	0.90455
1978.000	-4.18379	1.12684	-4.62207	0.97751
1979.000	-4.50027	1.10853	-4.86946	0.91572
1980.000	-4.88516	1.05244	-5.07156	0.89365
1981.000	-5.02645	1.03636	-5.29706	0.96067
1982.000	-5.30098	1.02997	-5.44796	0.89113
1983.000	-5.48518	1.04352	-5.70646	0.87886
1984.000	-5.67122	0.97986	-5.86888	0.86476
1985.000	-5.70450	0.98178	-5.96277	0.93781
1986.000	-5.78866	0.97570	-6.11136	0.95930
1987.000	-5.92756	0.91413	-6.23642	0.92349
1988.000	-5.92952	0.98732	-6.29112	0.94514
1989.000	-5.91778	0.95173	-6.39072	0.94693
1990.000	-5.93734	0.85674	-6.44538	0.90730
1991.000	-5.87279	0.84497	-6.38681	1.02798
1992.000	-5.72995	0.90455	-6.33604	0.97471
1993.000	-5.61640	0.95026	-6.26377	0.98275
1994.000	-5.51456	0.96032	-6.21298	1.01448
1995.000	-5.37350	0.99421	-6.09377	0.95142
1996.000	-5.30686	1.01016	-5.95886	1.00903
1997.000	-5.22649	1.03010	-5.84736	0.97757
1998.000	-5.18335	1.02026	-5.79061	0.99944
1999.000	-5.14413	1.01438	-5.73777	1.00745
2000.000	-5.09118	1.03824	-5.71233	0.99166
2001.000	-5.06764	1.07592	-5.71429	0.90656
2002.000	-5.09510	1.05804	-5.68101	0.92838
2003.000	-5.12452	1.07384	-5.77105	0.90251
2004.000	-5.17943	1.09553	-5.82584	0.89649
2005.000	-5.20296	1.07767	-5.87866	0.90036
2006.000	-5.26570	1.07558	-5.99797	0.82895
2007.000	-5.30686	1.09333	-5.99015	0.84479
2008.000	-5.36370	1.06749	-6.10549	0.83868
2009.000	-5.46951	1.02771	-6.13090	0.80304
2010.000	-5.56353	0.96420	-6.23056	0.82859
2011.000	-5.54394	1.00184	-6.19539	0.79503
2012.000	-5.58899	1.02354	-6.22470	0.81674
2013.000	-5.64381	1.00761	-6.22275	0.82663
2014.000	-5.67514	0.99370	-6.23056	0.85034
2015.000	-5.70841	0.93625	-6.21688	0.86223
2016.000	-5.72212	0.94019	-6.23251	0.87604
2017.000	-5.75147	0.93420	-6.23838	0.84835
2018.000	-5.72603	0.94216	-6.25596	0.86216
2019.000	-5.77496	0.91042	-6.25010	0.90963
2020.000	-5.71624	0.98769	-6.21298	0.87805
2021.000	-5.75147	0.91244	-6.26377	0.91158
2022.000	-5.70450	0.98178	-6.26963	0.87203
2023.000	-5.72799	0.94414	-6.25205	0.89776
2024.000	-5.65360	0.98978	-6.22470	0.90571
2025.000	-5.69667	0.99169	-6.27549	0.91551
2026.000	-5.62619	0.99972	-6.28526	0.87398
2027.000	-5.57528	1.02356	-6.24033	0.89580
2028.000	-5.51456	1.02169	-6.25010	0.87206
2029.000	-5.56353	0.98598	-6.23251	0.88197
2030.000	-5.48714	0.99996	-6.18562	0.88996
2031.000	-5.50869	0.99992	-6.22861	0.92153
2032.000	-5.49106	1.01183	-6.21884	0.90572
2033.000	-5.44012	1.02776	-6.17390	0.91767
2034.000	-5.49106	1.00985	-6.18562	0.89194
2035.000	-5.40877	1.06345	-6.16217	0.92955
2036.000	-5.44992	1.01982	-6.15240	0.93352
2037.000	-5.39701	1.08723	-6.14654	0.89794
2038.000	-5.47930	1.03759	-6.14263	0.93156
2039.000	-5.44012	1.05547	-6.17781	0.93743
2040.000	-5.45188	1.08515	-6.15631	0.93549
2041.000	-5.44404	1.03171	-6.14458	0.93551
2042.000	-5.42837	1.09311	-6.16608	0.94536
2043.000	-5.46167	1.04158	-6.13481	0.92762
2044.000	-5.45775	1.10098	-6.16022	0.91967
2045.000	-5.39897	1.06743	-6.17390	0.94930
2046.000	-5.45775	1.06138	-6.17976	0.91370
2047.000	-5.41465	1.06938	-6.19344	0.87809
2048.000	-5.45384	1.07129	-6.18562	0.91369
2049.000	-5.43228	1.07331	-6.18953	0.92950
2050.000	-5.44796	1.11485	-6.19539	0.96113
2051.000	-5.41661	1.10501	-6.23642	0.90372
2052.000	-5.41661	1.12679	-6.21688	0.93539
2053.000	-5.37742	1.12092	-6.26768	0.92541
2054.000	-5.36958	1.18429	-6.22275	0.96108
2055.000	-5.41269	1.11492	-6.22665	0.95712
2056.000	-5.44012	1.13466	-6.22861	0.91559
2057.000	-5.43424	1.11290	-6.26377	0.89774
2058.000	-5.45188	1.10891	-6.21884	0.93341
2059.000	-5.42837	1.14459	-6.22079	0.93143
2060.000	-5.44208	1.15050	-6.25010	0.89974
2061.000	-5.40093	1.13474	-6.24033	0.92348
2062.000	-5.40681	1.12681	-6.25400	0.94125
2063.000	-5.42837	1.19804	-6.25400	0.90962
2064.000	-5.41857	1.18420	-6.27354	0.93133
2065.000	-5.43228	1.18219	-6.25205	0.89974
2066.000	-5.48518	1.17219	-6.25205	0.96893
2067.000	-5.42249	1.15054	-6.25596	0.93927
2068.000	-5.47538	1.17815	-6.28135	0.92736
2069.000	-5.43424	1.18219	-6.26963	0.90168
2070.000	-5.41465	1.17629	-6.26768	0.88982
2071.000	-5.42053	1.19211	-6.28135	0.88387
2072.000	-5.35978	1.22787	-6.25400	0.92148
2073.000	-5.41465	1.16441	-6.24619	0.90765
2074.000	-5.41661	1.18618	-6.28721	0.90758
2075.000	-5.37154	1.22191	-6.28331	0.95108
2076.000	-5.33430	1.21010	-6.26377	0.91553
2077.000	-5.34018	1.23385	-6.26768	0.91355
2078.000	-5.34214	1.22989	-6.28331	0.88782
2079.000	-5.35194	1.22393	-6.29503	0.92339
2080.000	-5.38134	1.21199	-6.27745	0.89178
2081.000	-5.36370	1.20806	-6.28135	0.88980
2082.000	-5.35978	1.20807	-6.29112	0.89571
2083.000	-5.39701	1.20404	-6.27159	0.88982
2084.000	-5.35194	1.18235	-6.27745	0.87004
2085.000	-5.40485	1.17433	-6.32042	0.90159
2086.000	-5.34802	1.21007	-6.30870	0.90557
2087.000	-5.38134	1.19813	-6.31456	0.86997
2088.000	-5.40093	1.19413	-6.28526	0.88189
2089.000	-5.38918	1.22385	-6.34385	0.91737
2090.000	-5.40681	1.16442	-6.29503	0.90955
2091.000	-5.37350	1.20606	-6.31065	0.84230
2092.000	-5.37350	1.19419	-6.28917	0.90363
2093.000	-5.33430	1.20812	-6.25791	0.91752
2094.000	-5.38918	1.21395	-6.29112	0.88583
2095.000	-5.37742	1.20210	-6.28331	0.89177
2096.000	-5.38722	1.18030	-6.27940	0.91946
2097.000	-5.38330	1.21396	-6.29112	0.90165
2098.000	-5.40093	1.17829	-6.30674	0.88580
2099.000	-5.35586	1.17640	-6.30089	0.93721
2100.000	-5.40289	1.20997	-6.30479	0.95302
2101.000	-5.38918	1.21791	-6.29503	0.89571
2102.000	-5.40681	1.16640	-6.27354	0.89574
2103.000	-5.43424	1.16041	-6.30674	0.85615
2104.000	-5.41465	1.15649	-6.30284	0.91349
2105.000	-5.46363	1.11284	-6.31456	0.90160
2106.000	-5.38134	1.18031	-6.30284	0.92535
2107.000	-5.41465	1.18619	-6.25400	0.91160
2108.000	-5.43816	1.15249	-6.28721	0.91945
2109.000	-5.41857	1.19410	-6.30284	0.89372
2110.000	-5.43032	1.12280	-6.27354	0.91354
2111.000	-5.42837	1.16042	-6.28331	0.90957
2112.000	-5.44208	1.15842	-6.28721	0.88188
2113.000	-5.44012	1.17030	-6.30284	0.89569
2114.000	-5.46363	1.16431	-6.29698	0.88582
2115.000	-5.46363	1.11680	-6.30479	0.91151
2116.000	-5.42837	1.16240	-6.29698	0.88780
2117.000	-5.43424	1.15447	-6.33018	0.86006
2118.000	-5.47343	1.12272	-6.29893	0.88582
2119.000	-5.46167	1.15442	-6.31260	0.86009
2120.000	-5.43032	1.14260	-6.34385	0.83632
2121.000	-5.50673	1.09693	-6.30089	0.85220
2122.000	-5.44208	1.14456	-6.31651	0.89765
2123.000	-5.44208	1.13466	-6.29698	0.87594
2124.000	-5.43620	1.13467	-6.31065	0.86800
2125.000	-5.46363	1.14056	-6.27940	0.88980
2126.000	-5.50869	1.09494	-6.33799	0.84621
2127.000	-5.51064	1.08108	-6.31065	0.87987
2128.000	-5.49693	1.09695	-6.29893	0.82058
2129.000	-5.49106	1.13061	-6.25596	0.90368
2130.000	-5.48910	1.11082	-6.27745	0.89376
2131.000	-5.48518	1.13062	-6.29307	0.86408
2132.000	-5.52436	1.05928	-6.25596	0.85426
2133.000	-5.53023	1.08699	-6.29112	0.88583
2134.000	-5.52436	1.11669	-6.31456	0.84625
2135.000	-5.47930	1.07124	-6.30479	0.90558
2136.000	-5.53807	1.07114	-6.28135	0.87794
2137.000	-5.47147	1.11283	-6.27745	0.92539
2138.000	-5.53415	1.04145	-6.25596	0.92939
2139.000	-5.56157	1.05922	-6.25596	0.88391
2140.000	-5.49302	1.10289	-6.26377	0.92542
2141.000	-5.51260	1.07316	-6.28917	0.90758
2142.000	-5.47930	1.08906	-6.26573	0.93728
2143.000	-5.52044	1.04741	-6.24228	0.86021
2144.000	-5.48322	1.04550	-6.27549	0.88190
2145.000	-5.51848	1.07315	-6.25205	0.90567
2146.000	-5.53415	1.07708	-6.26573	0.84831
2147.000	-5.50869	1.03952	-6.22079	0.90374
2148.000	-5.45384	1.10494	-6.23838	0.93930
2149.000	-5.49889	1.08506	-6.25791	0.84832
2150.000	-5.46951	1.05542	-6.23251	0.90372
2151.000	-5.49693	1.10882	-6.24619	0.87009
2152.000	-5.50869	1.06921	-6.25400	0.88194
2153.000	-5.53807	1.02759	-6.21688	0.89980
2154.000	-5.51848	1.05534	-6.26182	0.90170
2155.000	-5.50477	1.04546	-6.24033	0.89778
2156.000	-5.51652	1.05732	-6.23447	0.87011
2157.000	-5.48518	1.07321	-6.22470	0.90967
2158.000	-5.52436	1.11669	-6.25400	0.87403
2159.000	-5.51848	1.02564	-6.23447	0.84440
2160.000	-5.52631	1.08699	-6.22665	0.83849
2161.000	-5.56353	1.02754	-6.22861	0.87012
2162.000	-5.48518	1.06925	-6.22665	0.86221
2163.000	-5.51064	1.07317	-6.25791	0.88193
2164.000	-5.55178	1.02361	-6.24424	0.86416
2165.000	-5.53415	1.10282	-6.24814	0.84636
2166.000	-5.52240	1.08304	-6.26377	0.85622
2167.000	-5.53807	1.07114	-6.23251	0.86220
2168.000	-5.52827	1.05136	-6.24033	0.87603
2169.000	-5.54590	1.05331	-6.22665	0.87803
2170.000	-5.50085	1.04745	-6.24228	0.86021
2171.000	-5.54198	1.05925	-6.24228	0.86219
2172.000	-5.46559	1.06929	-6.26963	0.89971
2173.000	-5.47734	1.07125	-6.19930	0.85039
2174.000	-5.48322	1.06728	-6.26377	0.85622
2175.000	-5.48518	1.06133	-6.23642	0.85429
2176.000	-5.50673	1.04744	-6.23056	0.86418
2177.000	-5.53611	1.06124	-6.23447	0.88197
2178.000	-5.44600	1.08318	-6.22079	0.83652
2179.000	-5.48714	1.07321	-6.21884	0.85036
2180.000	-5.52631	1.01573	-6.22079	0.84245
2181.000	-5.55178	1.07903	-6.25596	0.85426
2182.000	-5.54590	1.03153	-6.23838	0.85231
2183.000	-5.50869	1.08505	-6.21298	0.88398
2184.000	-5.54590	1.07508	-6.26573	0.87006
2185.000	-5.53611	1.03155	-6.27159	0.86609
2186.000	-5.51064	1.04347	-6.23447	0.87406
2187.000	-5.48910	1.06925	-6.25400	0.83053
2188.000	-5.48126	1.05540	-6.23838	0.85231
2189.000	-5.53415	1.02364	-6.26573	0.85622
2190.000	-5.46951	1.11283	-6.22861	0.81871
2191.000	-5.46559	1.07127	-6.24619	0.82461
2192.000	-5.52436	1.07512	-6.25791	0.81669
2193.000	-5.48518	1.07717	-6.22079	0.85234
2194.000	-5.43620	1.07924	-6.23251	0.85232
2195.000	-5.48518	1.05935	-6.21298	0.92155
2196.000	-5.46559	1.06137	-6.22861	0.87210
2197.000	-5.54198	1.08103	-6.21298	0.88398
2198.000	-5.55569	1.05923	-6.23447	0.87802
2199.000	-5.50869	1.04546	-6.20516	0.88993
2200.000	-5.56940	1.02357	-6.21688	0.88200
2201.000	-5.52827	1.02563	-6.20907	0.93145
2202.000	-5.48910	1.10290	-6.21688	0.91166
2203.000	-5.53611	1.04343	-6.21688	0.90177
2204.000	-5.53219	1.06917	-6.19539	0.83853
2205.000	-5.48910	1.08310	-6.19930	0.86423
2206.000	-5.45384	1.11880	-6.15826	0.83266
2207.000	-5.56744	1.06515	-6.16217	0.89396
2208.000	-5.57919	1.03543	-6.19539	0.89588
2209.000	-5.64577	1.12437	-6.28331	0.83049
2210.000	-5.79844	1.16167	-6.38876	0.85997
2211.000	-6.00970	1.12167	-6.46685	0.89541
2212.000	-6.19148	1.08570	-6.68342	0.88119
2213.000	-6.42000	1.11487	-6.92318	0.82941
2214.000	-6.67757	1.14984	-7.09846	0.78963
2215.000	-6.97773	1.06819	-7.44278	0.83241
2216.000	-7.30084	1.06152	-7.66427	0.81227
2217.000	-7.64291	1.04689	-8.02902	0.76232
2218.000	-7.92625	1.06391	-8.20921	0.75017
2219.000	-8.19953	1.04548	-8.44148	0.81858
2220.000	-8.46662	1.02116	-8.82024	0.70769
2221.000	-8.75845	0.94764	-8.99005	0.74076
2222.000	-9.05368	0.89188	-9.16740	0.77378
2223.000	-9.25216	0.82660	-9.32726	0.76165
2224.000	-9.42156	0.82031	-9.51004	0.69062
2225.000	-9.55427	0.65915	-9.67150	0.63539
2226.000	-9.65997	0.63541	-9.69839	0.69808
2227.000	-9.74065	0.56664	-9.75985	0.74108
2228.000	-9.77521	0.57442	-9.93450	0.67995
2229.000	-9.73297	0.59018	-9.99011	0.67788
2230.000	-9.61962	0.66687	-10.01121	0.75031
2231.000	-9.51389	0.67688	-9.99587	0.78952
2232.000	-9.43887	0.70843	-9.98820	0.76408
2233.000	-9.34843	0.76946	-9.91148	0.82891
2234.000	-9.19052	0.71679	-9.85008	0.82515
2235.000	-9.11344	0.79943	-9.74065	0.85875
2236.000	-9.04790	0.77600	-9.62923	0.86491
2237.000	-8.87622	0.83926	-9.57733	0.82974
2238.000	-8.76618	0.80019	-9.45619	0.83789
2239.000	-8.72176	0.82388	-9.36575	0.81456
2240.000	-8.66187	0.88497	-9.36190	0.80671
2241.000	-8.63868	0.86142	-9.33496	0.75575
2242.000	-8.68505	0.81609	-9.29260	0.72443
2243.000	-8.73914	0.75503	-9.28683	0.75781
2244.000	-8.72369	0.81601	-9.30608	0.74992
2245.000	-8.75266	0.80415	-9.36383	0.70073
2246.000	-8.89744	0.72130	-9.44272	0.72804
2247.000	-8.89166	0.77634	-9.49273	0.69066
2248.000	-8.99583	0.76433	-9.59271	0.63554
2249.000	-9.02090	0.76624	-9.64076	0.68055
2250.000	-9.09802	0.79553	-9.72144	0.66470
2251.000	-9.11537	0.80335	-9.75217	0.73718
2252.000	-9.20208	0.81297	-9.81361	0.69980
2253.000	-9.22905	0.76775	-9.81937	0.70175
2254.000	-9.29260	0.76369	-9.83088	0.66253
2255.000	-9.31763	0.76167	-9.83472	0.68016
2256.000	-9.30800	0.76562	-9.84816	0.68209
2257.000	-9.34073	0.75573	-9.82896	0.66645
2258.000	-9.32148	0.76559	-9.80977	0.69785
2259.000	-9.37538	0.75173	-9.85391	0.71148
2260.000	-9.39270	0.71245	-9.85200	0.68012
2261.000	-9.41964	0.74379	-9.83856	0.68407
2262.000	-9.38692	0.77526	-9.82513	0.69782
2263.000	-9.38692	0.78899	-9.80209	0.66454
2264.000	-9.43310	0.77712	-9.78097	0.69791
2265.000	-9.33688	0.79500	-9.84432	0.73893
2266.000	-9.39462	0.75365	-9.85967	0.71342
2267.000	-9.32341	0.81073	-9.84432	0.73697
2268.000	-9.31378	0.75383	-9.85200	0.69188
2269.000	-9.24638	0.81287	-9.85775	0.68599
2270.000	-9.19245	0.85226	-9.83088	0.71152
2271.000	-9.15584	0.82879	-9.82896	0.66841
2272.000	-9.15199	0.85040	-9.80977	0.73117
2273.000	-9.12115	0.85244	-9.81169	0.71549
2274.000	-9.12501	0.81119	-9.78289	0.74887
2275.000	-9.02283	0.89981	-9.78865	0.74102
2276.000	-9.09224	0.85840	-9.74833	0.76267
2277.000	-9.06525	0.83685	-9.78289	0.73319
2278.000	-9.05754	0.84277	-9.72913	0.74703
2279.000	-9.05754	0.85062	-9.79633	0.70376
2280.000	-8.99583	0.89399	-9.75409	0.72933
2281.000	-9.06718	0.83881	-9.73297	0.73722
2282.000	-9.02283	0.92339	-9.78481	0.73123
2283.000	-9.03055	0.87819	-9.72336	0.73136
2284.000	-9.03826	0.84674	-9.75409	0.73717
2285.000	-9.03633	0.85853	-9.74449	0.74504
2286.000	-9.03633	0.86442	-9.71184	0.73923
2287.000	-9.01319	0.91359	-9.74257	0.75484
2288.000	-9.00355	0.89790	-9.78481	0.69594
2289.000	-9.03440	0.88996	-9.76177	0.71363
2290.000	-9.01705	0.83697	-9.77521	0.73321
2291.000	-9.04404	0.92529	-9.78865	0.72926
2292.000	-9.04983	0.86243	-9.79057	0.73121
2293.000	-9.07682	0.87022	-9.81361	0.67628
2294.000	-9.06140	0.89775	-9.79633	0.72924
2295.000	-9.10573	0.87015	-9.78097	0.69399
2296.000	-9.06332	0.87418	-9.76753	0.70774
2297.000	-9.07296	0.86041	-9.75793	0.71364
2298.000	-9.10188	0.85248	-9.76369	0.70579
2299.000	-9.08646	0.81520	-9.75601	0.70580
2300.000	-9.09802	0.86231	-9.77521	0.71556
2301.000	-9.13657	0.86811	-9.77521	0.75869
2302.000	-9.04019	0.83495	-9.74449	0.76660
2303.000	-9.04212	0.89780	-9.73105	0.77055
2304.000	-9.11152	0.88584	-9.79825	0.73512
2305.000	-9.10573	0.84265	-9.75985	0.75284
2306.000	-9.09802	0.84660	-9.77905	0.75672
2307.000	-9.10188	0.86623	-9.76945	0.71754
2308.000	-9.13657	0.86614	-9.79249	0.73905
2309.000	-9.06140	0.90168	-9.76561	0.76851
2310.000	-9.11730	0.88387	-9.78481	0.72731
2311.000	-9.09802	0.85249	-9.79633	0.72140
2312.000	-9.08646	0.83877	-9.78673	0.71554
2313.000	-9.10959	0.83872	-9.73681	0.73133
2314.000	-9.07296	0.87415	-9.77713	0.73516
2315.000	-9.12886	0.81510	-9.79057	0.73317
2316.000	-9.07489	0.89183	-9.80017	0.69199
2317.000	-9.11923	0.86619	-9.78097	0.72339
2318.000	-9.13850	0.84650	-9.75025	0.71758
2319.000	-9.09031	0.87411	-9.77905	0.71556
2320.000	-9.07104	0.84077	-9.72721	0.75096
2321.000	-9.14235	0.78365	-9.76945	0.72146
2322.000	-9.11344	0.84656	-9.75025	0.69994
2323.000	-9.17126	0.80519	-9.77329	0.69597
2324.000	-9.05947	0.85455	-9.78289	0.71359
2325.000	-9.14621	0.83274	-9.75793	0.69404
2326.000	-9.07682	0.83683	-9.75601	0.72345
2327.000	-9.15777	0.85235	-9.77137	0.68813
2328.000	-9.10959	0.83675	-9.79825	0.67435
2329.000	-9.08839	0.88394	-9.76561	0.73127
2330.000	-9.10188	0.86426	-9.74641	0.73523
2331.000	-9.12501	0.82886	-9.71568	0.70589
2332.000	-9.12308	0.80726	-9.72529	0.71371
2333.000	-9.12693	0.84653	-9.70608	0.76277
2334.000	-9.03826	0.89977	-9.74833	0.70974
2335.000	-9.07296	0.89772	-9.70608	0.70591
2336.000	-9.11537	0.84459	-9.71760	0.76274
2337.000	-9.13464	0.84258	-9.74449	0.72347
2338.000	-9.04019	0.87423	-9.74641	0.68622
2339.000	-9.12693	0.81707	-9.70224	0.71180
2340.000	-9.07104	0.83095	-9.72336	0.71764
2341.000	-9.08453	0.86823	-9.73489	0.72545
2342.000	-9.05754	0.86437	-9.71760	0.70785
2343.000	-9.06911	0.86434	-9.72913	0.74703
2344.000	-9.13079	0.86616	-9.74641	0.72739
2345.000	-9.07296	0.89969	-9.73489	0.71565
2346.000	-9.09224	0.87214	-9.72913	0.72743
2347.000	-9.10381	0.89961	-9.72336	0.74116
2348.000	-9.11730	0.86619	-9.74833	0.71954
2349.000	-9.08067	0.88199	-9.74449	0.73720
2350.000	-9.08453	0.91341	-9.68111	0.76871
2351.000	-9.10381	0.89175	-9.72529	0.81566
2352.000	-9.14428	0.92700	-9.64652	0.80604
2353.000	-9.08646	0.92126	-9.66766	0.74129
2354.000	-9.01126	0.95092	-9.66766	0.68442
2355.000	-8.85306	0.93561	-9.41964	0.76734
2356.000	-8.64448	0.98332	-9.15970	0.81700
2357.000	-8.39311	0.92691	-8.95533	0.78995
2358.000	-8.11429	0.92953	-8.60776	0.74349
2359.000	-7.76328	0.92047	-8.12010	0.78972
2360.000	-7.47000	0.87377	-7.74193	0.74708
2361.000	-7.10430	0.83896	-7.24637	0.83081
2362.000	-6.70682	0.84559	-6.68927	0.79031
2363.000	-6.21493	0.86421	-6.25400	0.75935
2364.000	-5.87279	0.77770	-5.68688	0.75618
2365.000	-5.29706	0.82005	-5.09118	0.72720
2366.000	-4.84983	0.75720	-4.57492	0.66431
2367.000	-4.35287	0.70219	-4.02644	0.56160
2368.000	-3.91430	0.69464	-3.41222	0.52228
2369.000	-3.52056	0.62547	-2.91357	0.44306
2370.000	-3.08312	0.62971	-2.44999	0.30808
2371.000	-2.65913	0.51470	-1.96437	0.27836
2372.000	-2.08284	0.64015	-1.51206	0.18296
2373.000	-1.71750	0.51303	-1.03979	0.09548
2374.000	-1.43698	0.36196	-0.56343	0.06565
2375.000	-0.94492	0.41175	-0.20165	-0.02387
2376.000	-0.53773	0.42372	0.18188	0.01790
2377.000	-0.10280	0.30438	0.52389	-0.11936
2378.000	0.31236	0.31432	0.90934	-0.03978
2379.000	0.62273	0.21882	1.31448	-0.20685
2380.000	0.99236	0.27649	1.68590	-0.09943
2381.000	1.39944	0.22076	2.10654	-0.14911
2382.000	1.75305	0.08948	2.48551	-0.08745
2383.000	2.20327	0.18488	2.98258	-0.18477
2384.000	2.54865	0.05962	3.45950	-0.16879
2385.000	2.87018	0.03775	3.87100	-0.33743
2386.000	3.27233	0.09534	4.30766	-0.30352
2387.000	3.72731	0.00794	4.78505	-0.46786
2388.000	4.20739	0.10317	5.22257	-0.40613
2389.000	4.58082	0.00198	5.60857	-0.45141
2390.000	4.93030	0.07532	6.06249	-0.54204
2391.000	5.22453	0.02179	6.45319	-0.52385
2392.000	5.59682	0.07524	6.81600	-0.56099
2393.000	5.94321	0.07321	7.14323	-0.59810
2394.000	6.39267	0.13246	7.41168	-0.50305
2395.000	6.72242	0.02766	7.67980	-0.49091
2396.000	6.97773	0.14810	7.95534	-0.52999
2397.000	7.31056	0.16970	8.21889	-0.44302
2398.000	7.51081	0.01775	8.37763	-0.40938
2399.000	7.75940	0.03942	8.73914	-0.45422
2400.000	7.99800	0.02561	8.89166	-0.38131
2401.000	8.21308	0.08467	9.18474	-0.37511
2402.000	8.44148	0.16727	9.35613	-0.32585
2403.000	8.70051	0.01573	9.67150	-0.42556
2404.000	8.99583	0.08646	9.78097	-0.38230
2405.000	9.20594	0.12961	10.04763	-0.30363
2406.000	9.49658	0.08241	10.18175	-0.29176
2407.000	9.68111	0.04707	10.32341	-0.32098
2408.000	9.93833	0.11953	10.55478	-0.34421
2409.000	10.03996	0.14888	10.64455	-0.32847
2410.000	10.24494	0.09789	10.76862	-0.30879
2411.000	10.42289	0.08609	10.83348	-0.27746
2412.000	10.48789	0.14280	10.90212	-0.21684
2413.000	10.59299	0.12515	10.92690	-0.13088
2414.000	10.74191	0.18764	10.95358	-0.16797
2415.000	10.74954	0.21500	11.00884	-0.08202
2416.000	10.79724	0.18174	11.00312	-0.10741
2417.000	10.79915	0.21496	11.05645	-0.18158
2418.000	10.80869	0.18369	11.00312	-0.09960
2419.000	10.83730	0.14459	11.04693	-0.10349
2420.000	10.91737	0.06251	11.02217	-0.10350
2421.000	11.01455	0.07225	11.01836	-0.07420
2422.000	11.06407	0.08981	11.03360	-0.11325
2423.000	11.11928	0.04295	11.06788	-0.08786
2424.000	11.11357	0.03123	11.07168	-0.05272
2425.000	11.17257	0.00781	11.02217	-0.05468
2426.000	11.17066	0.07807	11.05264	-0.16011
2427.000	11.14973	0.02928	11.02407	-0.13083
2428.000	11.15544	0.02928	10.98026	-0.11132
2429.000	11.15164	0.04880	10.99169	-0.12108
2430.000	11.14593	0.07808	10.91737	-0.08986
2431.000	11.12309	0.03904	10.88115	-0.07815
2432.000	11.12880	0.07418	10.87734	-0.07619
2433.000	11.10786	0.06637	10.82585	-0.00977
2434.000	11.13641	0.04880	10.82013	0.00782
2435.000	11.12689	0.07418	10.87162	0.05080
2436.000	11.18398	0.06636	10.85255	0.05471
2437.000	11.17257	0.08588	10.91547	0.04102
2438.000	11.15925	0.13468	10.87734	0.03517
2439.000	11.17257	0.09759	10.91737	0.07618
2440.000	11.21823	0.16002	10.89259	0.06251
2441.000	11.22584	0.17757	10.91547	0.05079
2442.000	11.24105	0.18537	10.90022	0.07814
2443.000	11.25627	0.18536	10.89450	0.05470
2444.000	11.26197	0.18341	10.88497	0.07424
2445.000	11.20301	0.20296	10.85064	0.08792
2446.000	11.18018	0.16784	10.79533	0.08012
2447.000	11.15354	0.26155	10.75908	0.05668
2448.000	11.10405	0.23621	10.73046	0.06450
2449.000	11.10405	0.25574	10.66365	0.13686
2450.000	11.01455	0.24019	10.59108	0.10560
2451.000	10.95930	0.26367	10.56051	0.14472
2452.000	10.97073	0.28124	10.51465	0.15453
2453.000	10.93262	0.31253	10.54331	0.18972
2454.000	10.99741	0.26755	10.53185	0.17016
2455.000	10.98598	0.28709	10.58344	0.17209
2456.000	11.06216	0.27920	10.58917	0.13493
2457.000	11.06407	0.27920	10.58726	0.12516
2458.000	11.11547	0.22449	10.59108	0.09973
2459.000	11.15734	0.26935	10.62737	0.11341
2460.000	11.17828	0.26153	10.63501	0.09581
2461.000	11.18779	0.21273	10.64455	0.07039
2462.000	11.24485	0.15805	10.68274	0.04105
2463.000	11.22393	0.18343	10.71137	0.00586
2464.000	11.24485	0.16586	10.67892	0.01173
2465.000	11.22584	0.17757	10.65601	0.00978
2466.000	11.22774	0.14245	10.63310	0.04497
2467.000	11.19540	0.16588	10.68274	0.02346
2468.000	11.18018	0.23225	10.63501	0.02737
2469.000	11.19159	0.19711	10.64455	0.04106
2470.000	11.15734	0.22446	10.59108	0.06062
2471.000	11.18018	0.18151	10.59681	0.09778
2472.000	11.18208	0.16394	10.64646	0.00196
2473.000	11.14022	0.18934	10.60445	0.14666
2474.000	11.16686	0.19713	10.56624	0.13885
2475.000	11.19540	0.23419	10.57388	0.09387
2476.000	11.16686	0.22640	10.52420	0.13105
2477.000	11.14022	0.20886	10.58726	0.09973
2478.000	11.10976	0.23035	10.55478	0.07823
2479.000	11.18589	0.15223	10.54714	0.06259
2480.000	11.16686	0.18737	10.55287	0.12713
2481.000	11.19159	0.17564	10.51083	0.16431
2482.000	11.16876	0.20884	10.54714	0.09192
2483.000	11.14402	0.18153	10.54714	0.08801
2484.000	11.14783	0.17177	10.53376	0.11931
2485.000	11.16115	0.14443	10.58153	0.10756
2486.000	11.11547	0.15031	10.54905	0.14277
2487.000	11.10976	0.17960	10.55478	0.11539
2488.000	11.14022	0.20886	10.52420	0.11540
2489.000	11.15354	0.16200	10.56624	0.14081
2490.000	11.12689	0.19130	10.51847	0.14670
2491.000	11.13070	0.19130	10.54522	0.08019
2492.000	11.12689	0.20692	10.54140	0.15647
2493.000	11.14022	0.18739	10.50509	0.12128
2494.000	11.13831	0.20496	10.56433	0.11930
2495.000	11.14402	0.17567	10.56242	0.12517
2496.000	11.14022	0.14835	10.54905	0.08801
2497.000	11.20111	0.15222	10.56815	0.09778
2498.000	11.16496	0.18542	10.55669	0.06845
2499.000	11.17447	0.17956	10.55287	0.08997
2500.000	11.19159	0.13856	10.55669	0.08997
2501.000	11.17828	0.19517	10.57388	0.07236
2502.000	11.18779	0.19126	10.53758	0.09388
2503.000	11.18398	0.17955	10.56242	0.08996
2504.000	11.12880	0.14640	10.50127	0.12910
2505.000	11.15354	0.15615	10.53949	0.09388
2506.000	11.15734	0.13858	10.53567	0.09584
2507.000	11.14973	0.13663	10.47069	0.10955
2508.000	11.13451	0.12298	10.49362	0.04499
2509.000	11.12309	0.17569	10.49362	0.03130
2510.000	11.16686	0.14248	10.49936	0.05086
2511.000	11.16115	0.16786	10.53758	0.05476
2512.000	11.14973	0.13468	10.52994	0.08606
2513.000	11.17447	0.13272	10.48789	0.12324
2514.000	11.15354	0.20494	10.48789	0.07825
2515.000	11.20111	0.14441	10.52803	0.05085
2516.000	11.15544	0.16200	10.52612	0.07041
2517.000	11.18398	0.19907	10.51274	0.12519
2518.000	11.22203	0.17563	10.54331	0.05476
2519.000	11.19159	0.16198	10.53185	0.01760
2520.000	11.17637	0.19517	10.48789	0.03717
2521.000	11.17828	0.18541	10.50700	0.05673
2522.000	11.16496	0.19518	10.46113	0.12912
2523.000	11.15544	0.17176	10.47260	0.07238
2524.000	11.19540	0.18930	10.51656	0.11345
2525.000	11.17066	0.21079	10.48789	0.05673
2526.000	11.16876	0.17566	10.49171	0.06847
2527.000	11.19350	0.22053	10.47069	0.05478
2528.000	11.19159	0.16003	10.52612	0.03912
2529.000	11.17828	0.18346	10.51656	0.02152
2530.000	11.19540	0.19125	10.50700	-0.00196
2531.000	11.16686	0.20103	10.49554	-0.01956
2532.000	11.18398	0.19907	10.48598	0.05673
2533.000	11.19159	0.19126	10.49936	0.02934
2534.000	11.19540	0.19125	10.50892	0.01565
2535.000	11.19350	0.19321	10.46495	0.06847
2536.000	11.17637	0.20883	10.45922	0.00978
2537.000	11.19730	0.18540	10.49936	0.07238
2538.000	11.18589	0.18736	10.51465	0.00000
2539.000	11.18018	0.20297	10.56242	0.04107
2540.000	11.19730	0.18345	10.44392	0.08608
2541.000	11.17257	0.20883	10.49936	0.11541
2542.000	11.19540	0.22443	10.45539	0.13499
2543.000	11.19350	0.19321	10.49362	0.08411
2544.000	11.20301	0.20881	10.43436	0.09587
2545.000	11.19159	0.23419	10.45157	0.07630
2546.000	11.20491	0.17759	10.48216	0.12716
2547.000	11.19159	0.13856	10.49362	0.08020
2548.000	11.19540	0.21858	10.49936	0.11932
2549.000	11.16496	0.15809	10.45539	0.06456
2550.000	11.20491	0.21271	10.45157	0.10369
2551.000	11.18208	0.21468	10.50127	0.05477
2552.000	11.18779	0.18345	10.43627	0.02543
2553.000	11.19730	0.20687	10.45730	0.04695
2554.000	11.16115	0.18737	10.43053	0.07631
2555.000	11.19350	0.20101	10.42862	0.04304
2556.000	11.15925	0.21665	10.47642	0.08803
2557.000	11.17447	0.18932	10.49745	0.10172
2558.000	11.18398	0.17955	10.46495	0.05673
2559.000	11.18208	0.19907	10.43245	0.03913
2560.000	11.20491	0.13856	10.42862	0.05478
2561.000	11.17828	0.18151	10.47642	0.00000
2562.000	11.16686	0.20494	10.48216	-0.00978
2563.000	11.18589	0.15613	10.44583	0.05478
2564.000	11.20301	0.18149	10.44392	0.05674
2565.000	11.19540	0.17954	10.50509	0.07433
2566.000	11.19159	0.17369	10.45922	0.02739
2567.000	11.19540	0.20687	10.49554	-0.01565
2568.000	11.18589	0.19321	10.49362	0.02347
2569.000	11.20301	0.17564	10.49362	0.01174
2570.000	11.17637	0.22249	10.46304	0.04500
2571.000	11.22393	0.12879	10.43627	0.04500
2572.000	11.23915	0.13464	10.46495	0.05869
2573.000	11.19920	0.18345	10.46877	0.06260
2574.000	11.23344	0.16391	10.47260	0.06651
2575.000	11.22393	0.16977	10.49554	0.00000
2576.000	11.20301	0.14441	10.47642	0.03913
2577.000	11.20301	0.16588	10.44392	0.04696
2578.000	11.20491	0.15027	10.44583	0.03522
2579.000	11.19540	0.14442	10.50509	0.04108
2580.000	11.19159	0.12295	10.49936	0.01761
2581.000	11.22013	0.12684	10.50700	0.02152
2582.000	11.18398	0.14833	10.45348	0.02152
2583.000	11.21632	0.12099	10.49745	0.01761
2584.000	11.18589	0.13271	10.47451	0.01956
2585.000	11.23154	0.14830	10.47833	0.00783
2586.000	11.21823	0.12294	10.48598	0.02152
2587.000	11.23915	0.17171	10.44583	0.04304
2588.000	11.23915	0.14635	10.47451	0.02348
2589.000	11.19730	0.10148	10.49171	-0.00587
2590.000	11.28289	0.09950	10.49362	0.01565
2591.000	11.20301	0.12685	10.50127	0.00978
2592.000	11.20111	0.15027	10.48024	-0.00196
2593.000	11.23915	0.12098	10.45539	0.03717
2594.000	11.22013	0.11708	10.50509	0.00000
2595.000	11.23535	0.15220	10.49171	-0.02543
2596.000	11.26577	0.12487	10.47069	-0.01565
2597.000	11.23154	0.08781	10.49171	0.04304
2598.000	11.23344	0.12488	10.50892	0.01760
2599.000	11.25056	0.14049	10.46304	0.00587
2600.000	11.24295	0.11903	10.47833	-0.01174
2601.000	11.22774	0.09952	10.50127	0.00000
2602.000	11.21823	0.10538	10.47451	0.03717
2603.000	11.18018	0.14833	10.53185	-0.00782
2604.000	11.22964	0.15416	10.48407	0.01761
2605.000	11.24676	0.13463	10.47069	0.01956
2606.000	11.25627	0.14243	10.49362	-0.02152
2607.000	11.21062	0.10343	10.45730	0.02543
2608.000	11.22964	0.14050	10.48598	-0.02347
2609.000	11.22774	0.12879	10.45348	0.01956
2610.000	11.21823	0.12099	10.43245	-0.03130
2611.000	11.20301	0.13270	10.46686	-0.03326
2612.000	11.21252	0.14051	10.45922	-0.03130
2613.000	11.19730	0.15808	10.48598	-0.01174
2614.000	11.22584	0.13269	10.45539	-0.03130
2615.000	11.22964	0.12879	10.46495	0.00783
2616.000	11.20681	0.15027	10.50700	-0.05673
2617.000	11.25246	0.12293	10.46686	-0.00391
2618.000	11.21632	0.19709	10.49554	-0.02934
2619.000	11.19350	0.13466	10.50509	-0.02739
2620.000	11.20681	0.13270	10.47833	-0.00391
2621.000	11.23915	0.11317	10.48216	0.03521
2622.000	11.22774	0.16196	10.46113	-0.01369
2623.000	11.19159	0.11514	10.44966	-0.03326
2624.000	11.24485	0.13854	10.46877	-0.02739
2625.000	11.24295	0.09951	10.42097	-0.04500
2626.000	11.23915	0.09366	10.45730	-0.02935
2627.000	11.23344	0.13854	10.45922	-0.02348
2628.000	11.20111	0.13856	10.49745	-0.03325
2629.000	11.28479	0.13852	10.48216	-0.00782
2630.000	11.22774	0.17952	10.46495	-0.04304
2631.000	11.25817	0.15024	10.47833	-0.01174
2632.000	11.19159	0.15027	10.50127	-0.03521
2633.000	11.21632	0.14831	10.43818	0.02152
2634.000	11.22964	0.13074	10.47260	-0.02543
2635.000	11.21062	0.13465	10.47260	-0.04891
2636.000	11.20491	0.10733	10.46877	-0.02934
2637.000	11.19350	0.14051	10.51847	-0.03130
2638.000	11.19730	0.11124	10.48789	-0.06455
2639.000	11.19159	0.12490	10.48789	-0.07629
2640.000	11.20301	0.16783	10.49936	-0.02152
2641.000	11.18969	0.13466	10.51465	-0.07042
2642.000	11.22774	0.11903	10.51656	-0.03130
2643.000	11.18018	0.13271	10.52420	-0.00196
2644.000	11.23154	0.15025	10.50127	-0.02934
2645.000	11.20111	0.19906	10.47833	-0.04695
2646.000	11.18018	0.17565	10.51656	-0.03716
2647.000	11.21062	0.20490	10.49362	-0.01956
2648.000	11.24676	0.17756	10.47260	-0.03326
2649.000	11.21823	0.16197	10.54714	-0.04498
2650.000	11.19540	0.18540	10.53949	-0.09388
2651.000	11.20491	0.15417	10.46877	-0.04695
2652.000	11.23725	0.16781	10.47642	-0.01565
2653.000	11.19730	0.16003	10.51083	-0.08411
2654.000	11.24105	0.18537	10.46877	-0.08803
2655.000	11.22584	0.14440	10.54331	-0.07041
2656.000	11.19920	0.14246	10.49362	-0.07433
2657.000	11.22013	0.12879	10.52420	-0.09780
2658.000	11.20872	0.19710	10.50127	-0.06064
2659.000	11.20111	0.15612	10.51465	-0.05086
2660.000	11.18779	0.19321	10.52229	-0.05281
2661.000	11.19159	0.20492	10.48789	-0.03130
2662.000	11.20872	0.17368	10.52229	-0.05672
2663.000	11.20301	0.16002	10.52612	-0.06063
2664.000	11.18018	0.16004	10.47069	-0.02543
2665.000	11.21442	0.19710	10.48024	-0.04499
2666.000	11.18398	0.18931	10.52612	-0.04890
2667.000	11.20111	0.18735	10.50127	-0.13106
2668.000	11.20301	0.14832	10.51465	-0.06846
2669.000	11.21252	0.16587	10.49362	-0.05868
2670.000	11.17066	0.17956	10.51465	-0.02738
2671.000	11.22964	0.13855	10.52038	-0.10954
2672.000	11.20872	0.19905	10.48598	-0.04304
2673.000	11.18018	0.19517	10.49745	-0.05673
2674.000	11.25246	0.12488	10.49171	-0.06064
2675.000	11.20301	0.15612	10.51274	-0.02347
2676.000	11.23154	0.18733	10.50892	-0.03717
2677.000	11.22584	0.14830	10.47833	-0.07434
2678.000	11.17447	0.10539	10.49745	-0.02934
2679.000	11.18969	0.11710	10.50892	-0.03912
2680.000	11.22013	0.14831	10.49554	-0.03130
2681.000	11.21823	0.09172	10.54140	-0.04890
2682.000	11.21442	0.18344	10.52038	-0.05672
2683.000	11.20491	0.14051	10.53567	-0.03325
2684.000	11.21252	0.12684	10.52803	-0.05868
2685.000	11.22203	0.12294	10.51465	-0.05086
2686.000	11.19350	0.18540	10.52420	-0.03325
2687.000	11.16686	0.17566	10.54905	-0.02543
2688.000	11.18208	0.14052	10.52612	-0.04694
2689.000	11.23915	0.10927	10.51656	-0.04890
2690.000	11.17447	0.15419	10.48980	-0.08216
2691.000	11.17447	0.17175	10.48980	-0.03521
2692.000	11.20301	0.15807	10.51083	-0.03912
2693.000	11.20681	0.13270	10.51274	-0.07433
2694.000	11.21252	0.11709	10.47833	-0.03913
2695.000	11.19920	0.10148	10.50700	0.00782
2696.000	11.21252	0.11123	10.53376	-0.02543
2697.000	11.26577	0.16975	10.50127	-0.06064
2698.000	11.19350	0.10734	10.57388	-0.04498
2699.000	11.21062	0.13855	10.51465	-0.00391
2700.000	11.22013	0.14050	10.53949	-0.03912
2701.000	11.21632	0.16392	10.50892	-0.01174
2702.000	11.24866	0.14634	10.51083	-0.05086
2703.000	11.19540	0.15222	10.52612	-0.04694
2704.000	11.23535	0.20294	10.48216	-0.08412
2705.000	11.20491	0.14831	10.52612	-0.07237
2706.000	11.17257	0.18737	10.53949	-0.04890
2707.000	11.17828	0.15223	10.50127	-0.01369
2708.000	11.20491	0.16198	10.49554	-0.06847
2709.000	11.19730	0.16003	10.50509	-0.04303
2710.000	11.17828	0.18931	10.54714	-0.08606
2711.000	11.15164	0.14444	10.55096	-0.05085
2712.000	11.19540	0.13076	10.54714	-0.04890
2713.000	11.20301	0.16393	10.55478	-0.08997
2714.000	11.20872	0.16197	10.55478	-0.07041
2715.000	11.20872	0.16002	10.52229	-0.08020
2716.000	11.21062	0.13270	10.51465	-0.07042
2717.000	11.20681	0.10928	10.57197	-0.08214
2718.000	11.21823	0.15026	10.51656	-0.03130
2719.000	11.18969	0.14247	10.50892	-0.01956
2720.000	11.14402	0.16591	10.54905	-0.09975
2721.000	11.24485	0.14439	10.52420	-0.06259
2722.000	11.22203	0.09757	10.46113	-0.05087
2723.000	11.21632	0.13465	10.52038	-0.04108
2724.000	11.21062	0.14831	10.52612	-0.11345
2725.000	11.21823	0.14831	10.51656	-0.08411
2726.000	11.18589	0.16394	10.50318	-0.05281
2727.000	11.21632	0.15026	10.53758	-0.09193
2728.000	11.19730	0.13661	10.50509	-0.10367
2729.000	11.21632	0.16587	10.52229	-0.07237
2730.000	11.22393	0.11318	10.48216	-0.07042
2731.000	11.17637	0.14247	10.55669	-0.09974
2732.000	11.20111	0.12880	10.49554	-0.04304
2733.000	11.18018	0.16394	10.52038	-0.08998
2734.000	11.18779	0.18345	10.50318	-0.05281
2735.000	11.17257	0.14248	10.54522	-0.06454
2736.000	11.19920	0.13466	10.48789	-0.04695
2737.000	11.18969	0.18735	10.51083	-0.08020
2738.000	11.17447	0.13077	10.48407	-0.08412
2739.000	11.22203	0.14050	10.50127	-0.04303
2740.000	11.21632	0.13075	10.51083	-0.06259
2741.000	11.18208	0.16784	10.50892	-0.05673
2742.000	11.12499	0.17959	10.50892	-0.07824
2743.000	11.09072	0.19718	10.47451	-0.09586
2744.000	11.02598	0.25385	10.47260	-0.07043
2745.000	10.87162	0.25203	10.38846	-0.03522
2746.000	10.74191	0.18177	10.39229	-0.17024
2747.000	10.57197	0.10561	10.23345	-0.09789
2748.000	10.23728	0.14683	9.94601	-0.05487
2749.000	9.92682	0.21556	9.70224	-0.03726
2750.000	9.55427	0.09221	9.42926	-0.20999
2751.000	9.15584	0.19052	9.07296	-0.06483
2752.000	8.82603	0.07667	8.72562	-0.07866
2753.000	8.37956	0.14171	8.39117	-0.16336
2754.000	7.90298	0.18326	7.98443	-0.07684
2755.000	7.42140	0.11837	7.62154	-0.14395
2756.000	6.97578	0.24289	7.30473	-0.14602
2757.000	6.58979	0.08103	6.90759	-0.10467
2758.000	6.21102	0.11075	6.64832	-0.21934
2759.000	5.80040	0.03761	6.36143	-0.13247
2760.000	5.48126	0.00396	6.11527	-0.30661
2761.000	5.11864	-0.13078	5.75930	-0.22565
2762.000	4.84002	-0.08921	5.42445	-0.25549
2763.000	4.56510	-0.20029	5.10295	-0.34082
2764.000	4.22509	-0.22618	4.76738	-0.17446
2765.000	3.95758	-0.15282	4.47276	-0.25982
2766.000	3.75684	-0.28586	4.12676	-0.34328
2767.000	3.56783	-0.23231	3.83361	-0.26202
2768.000	3.44177	-0.37333	3.67810	-0.30574
2769.000	3.32356	-0.34955	3.40631	-0.22441
2770.000	3.12649	-0.34366	3.16788	-0.16884
2771.000	2.94314	-0.43113	2.98455	-0.24834
2772.000	2.82088	-0.36561	2.70253	-0.24045
2773.000	2.62362	-0.27823	2.51708	-0.19478
2774.000	2.56049	-0.30408	2.44210	-0.23255
2775.000	2.46183	-0.30410	2.25065	-0.21469
2776.000	2.37105	-0.27431	2.14800	-0.26838
2777.000	2.32171	-0.32003	2.08877	-0.31810
2778.000	2.30000	-0.32998	2.13220	-0.26640
2779.000	2.35723	-0.24250	2.13023	-0.28429
2780.000	2.44012	-0.28622	2.17169	-0.21470
2781.000	2.51116	-0.25440	2.25854	-0.20475
2782.000	2.64335	-0.27027	2.32171	-0.22860
2783.000	2.75382	-0.26627	2.43025	-0.17491
2784.000	2.85046	-0.27221	2.53089	-0.13714
2785.000	2.90765	-0.29406	2.55260	-0.19278
2786.000	2.97666	-0.29205	2.64138	-0.22059
2787.000	3.02398	-0.29800	2.68675	-0.29808
2788.000	3.09101	-0.29997	2.68281	-0.30603
2789.000	3.03975	-0.31786	2.65124	-0.30008
2790.000	3.05552	-0.26024	2.64335	-0.38355
2791.000	3.00821	-0.25628	2.55654	-0.43127
2792.000	2.92145	-0.25233	2.50327	-0.38359
2793.000	2.88004	-0.21856	2.41841	-0.44523
2794.000	2.74001	-0.17288	2.32763	-0.50290
2795.000	2.69464	-0.08148	2.18353	-0.48506
2796.000	2.58614	-0.08745	2.07100	-0.46919
2797.000	2.43815	-0.12522	2.04138	-0.44932
2798.000	2.43223	-0.11926	1.92488	-0.44736
2799.000	2.32960	-0.11529	1.87551	-0.43743
2800.000	2.25262	-0.11927	1.83798	-0.45335
2801.000	2.25262	-0.13716	1.80046	-0.41956
2802.000	2.27433	-0.15307	1.83601	-0.46329
2803.000	2.28815	-0.10933	1.80836	-0.41558
2804.000	2.27236	-0.16499	1.80441	-0.40166
2805.000	2.27433	-0.18686	1.83008	-0.41358
2806.000	2.34342	-0.18486	1.87748	-0.36188
2807.000	2.33158	-0.16896	1.84588	-0.37381
2808.000	2.34342	-0.13119	1.91895	-0.40561
2809.000	2.40065	-0.17293	1.92685	-0.35789
2810.000	2.42236	-0.16895	1.91895	-0.37181
2811.000	2.44012	-0.15305	1.94857	-0.34198
2812.000	2.44999	-0.13913	1.91500	-0.27638
2813.000	2.51511	-0.17888	1.92290	-0.34000
2814.000	2.49340	-0.16497	1.95252	-0.28432
2815.000	2.52497	-0.12521	1.97029	-0.33204
2816.000	2.55457	-0.16695	1.96240	-0.34397
2817.000	2.55852	-0.10732	1.96240	-0.31216
2818.000	2.58417	-0.09341	1.96832	-0.33601
2819.000	2.60587	-0.11527	1.97819	-0.30619
2820.000	2.61376	-0.13514	1.98214	-0.29227
2821.000	2.65913	-0.06161	1.93475	-0.31415
2822.000	2.61968	-0.11527	1.93278	-0.34000
2823.000	2.59798	-0.11328	1.92883	-0.35391
2824.000	2.64927	-0.09340	1.98609	-0.32806
2825.000	2.62757	-0.06757	1.97227	-0.27438
2826.000	2.60784	-0.10533	1.96240	-0.33800
2827.000	2.62757	-0.09539	1.95647	-0.31613
2828.000	2.62362	-0.10135	2.01176	-0.32805
2829.000	2.60390	-0.06360	1.98412	-0.32408
2830.000	2.66111	-0.06161	1.96437	-0.32210
2831.000	2.60784	-0.08148	1.98412	-0.32010
2832.000	2.59008	-0.07155	1.99991	-0.29028
2833.000	2.61376	-0.03379	1.94462	-0.31017
2834.000	2.64335	-0.08148	1.94660	-0.31812
2835.000	2.67689	-0.05366	1.99202	-0.30420
2836.000	2.62362	-0.06360	2.00189	-0.30221
2837.000	2.60390	-0.07950	1.97622	-0.29227
2838.000	2.60981	-0.11527	1.93475	-0.31813
2839.000	2.60981	-0.11527	1.93672	-0.27041
2840.000	2.62362	-0.05167	1.95647	-0.31414
2841.000	2.58811	-0.07950	1.94660	-0.25848
2842.000	2.59798	-0.09341	1.92883	-0.28830
2843.000	2.59798	-0.12322	1.93870	-0.26842
2844.000	2.58614	-0.05763	1.92488	-0.27439
2845.000	2.61179	-0.07751	1.91303	-0.30421
2846.000	2.62362	-0.08546	1.91105	-0.28234
2847.000	2.59403	-0.08148	1.93475	-0.30620
2848.000	2.55654	-0.08546	1.93278	-0.27041
2849.000	2.58219	-0.04969	1.91105	-0.28433
2850.000	2.58022	-0.06360	1.92290	-0.28433
2851.000	2.60390	-0.10533	1.95055	-0.30818
2852.000	2.57035	-0.11130	1.90315	-0.31813
2853.000	2.57035	-0.15104	1.92093	-0.30819
2854.000	2.58614	-0.11527	1.93080	-0.30620
2855.000	2.58811	-0.07353	1.94660	-0.28432
2856.000	2.56838	-0.11328	1.92685	-0.31017
2857.000	2.59403	-0.12322	1.90513	-0.32012
2858.000	2.58417	-0.11130	1.92093	-0.30421
2859.000	2.58614	-0.11527	1.91303	-0.35193
2860.000	2.55654	-0.12123	1.94462	-0.26842
2861.000	2.59403	-0.11328	1.90315	-0.30421
2862.000	2.57035	-0.11130	1.88735	-0.34597
2863.000	2.55654	-0.13117	1.93672	-0.32011
2864.000	2.57825	-0.08943	1.91698	-0.33006
2865.000	2.56444	-0.09738	1.88933	-0.32012
2866.000	2.56444	-0.11130	1.91303	-0.29029
2867.000	2.55852	-0.12123	1.95252	-0.32806
2868.000	2.56246	-0.09341	1.94462	-0.33999
2869.000	2.58614	-0.10335	1.95450	-0.33403
2870.000	2.58417	-0.12521	1.94660	-0.30619
2871.000	2.59008	-0.10732	1.90315	-0.36187
2872.000	2.57627	-0.11527	1.94660	-0.36186
2873.000	2.57233	-0.14707	1.93278	-0.32011
2874.000	2.58811	-0.13912	1.94067	-0.33403
2875.000	2.57627	-0.13713	1.92488	-0.33006
2876.000	2.55260	-0.16496	1.94265	-0.32806
2877.000	2.59008	-0.10533	1.89723	-0.31416
2878.000	2.59206	-0.11129	1.91105	-0.33205
2879.000	2.55457	-0.17887	1.89525	-0.27638
2880.000	2.53484	-0.17490	1.88933	-0.31217
2881.000	2.56641	-0.17688	1.92883	-0.32011
2882.000	2.54273	-0.15701	1.92685	-0.32807
2883.000	2.58811	-0.18085	1.94265	-0.29228
2884.000	2.60390	-0.14309	1.91698	-0.33801
2885.000	2.57233	-0.17887	1.91698	-0.23263
2886.000	2.57627	-0.14707	1.93870	-0.31017
2887.000	2.55852	-0.13713	1.90710	-0.26842
2888.000	2.57233	-0.20669	1.94857	-0.23660
2889.000	2.56444	-0.18483	1.90908	-0.33404
2890.000	2.55260	-0.16893	1.92685	-0.27240
2891.000	2.56641	-0.18086	1.92883	-0.29824
2892.000	2.58614	-0.13912	1.90710	-0.28234
2893.000	2.56246	-0.18284	1.96635	-0.34397
2894.000	2.57233	-0.16893	1.91698	-0.32807
2895.000	2.59798	-0.15104	1.93870	-0.30818
2896.000	2.59798	-0.14508	1.92093	-0.31017
2897.000	2.59995	-0.16893	1.92685	-0.29427
2898.000	2.61179	-0.17290	1.96042	-0.32011
2899.000	2.57825	-0.13316	1.95055	-0.30818
2900.000	2.59600	-0.14905	1.94067	-0.27239
2901.000	2.58022	-0.18284	1.93870	-0.31812
2902.000	2.59798	-0.14707	1.95647	-0.27438
2903.000	2.54471	-0.11925	1.95450	-0.28631
2904.000	2.58219	-0.11726	1.91698	-0.27637
2905.000	2.58614	-0.09540	1.95647	-0.27438
2906.000	2.58219	-0.11328	1.96832	-0.30818
2907.000	2.56246	-0.13515	1.92488	-0.35193
2908.000	2.55654	-0.15105	1.96042	-0.34198
2909.000	2.57627	-0.15303	1.96635	-0.36186
2910.000	2.59206	-0.15303	1.94067	-0.32608
2911.000	2.62165	-0.18284	1.91105	-0.28035
2912.000	2.56444	-0.16496	1.93080	-0.34994
2913.000	2.60981	-0.15501	1.93278	-0.33204
2914.000	2.58417	-0.15899	1.92883	-0.29427
2915.000	2.62362	-0.11924	1.92488	-0.35392
2916.000	2.63152	-0.13514	1.97029	-0.31613
2917.000	2.59995	-0.17290	1.91895	-0.29228
2918.000	2.59995	-0.14110	1.92488	-0.36386
2919.000	2.62954	-0.13514	1.90908	-0.33602
2920.000	2.57233	-0.14707	1.96635	-0.35788
2921.000	2.57825	-0.16893	1.92290	-0.31415
2922.000	2.59995	-0.11924	1.94067	-0.34596
2923.000	2.59995	-0.13315	1.92290	-0.37777
2924.000	2.59403	-0.19278	1.95252	-0.38970
2925.000	2.59403	-0.15899	1.92290	-0.35789
2926.000	2.58811	-0.12719	1.90710	-0.31018
2927.000	2.59206	-0.13117	1.95845	-0.42151
2928.000	2.60390	-0.13713	1.94462	-0.40958
2929.000	2.61771	-0.16098	1.98214	-0.35192
2930.000	2.60981	-0.12520	1.92290	-0.35789
2931.000	2.58811	-0.13912	1.96240	-0.36981
2932.000	2.65124	-0.11526	1.91105	-0.33602
2933.000	2.62560	-0.09738	1.92883	-0.35789
2934.000	2.63546	-0.09937	1.95252	-0.38771
2935.000	2.62362	-0.10533	1.93278	-0.39169
2936.000	2.61771	-0.09937	1.96042	-0.35987
2937.000	2.59798	-0.07751	1.91303	-0.33205
2938.000	2.56444	-0.13316	1.95845	-0.34397
2939.000	2.54865	-0.13515	1.92883	-0.33204
2940.000	2.55654	-0.14310	1.93080	-0.32608
2941.000	2.58219	-0.12719	1.93475	-0.35391
2942.000	2.57627	-0.14309	1.95647	-0.34397
2943.000	2.58417	-0.12719	1.96240	-0.36385
2944.000	2.58022	-0.12918	1.95845	-0.35391
2945.000	2.54668	-0.15900	1.94857	-0.31812
2946.000	2.58614	-0.11328	1.95845	-0.33403
2947.000	2.57233	-0.11328	1.95055	-0.30222
2948.000	2.56444	-0.13713	1.97227	-0.26841
2949.000	2.57627	-0.10931	1.98412	-0.29227
2950.000	2.55852	-0.12322	1.96832	-0.25847
2951.000	2.61179	-0.12322	2.00189	-0.26244
2952.000	2.58811	-0.09738	1.95845	-0.26842
2953.000	2.53287	-0.09739	2.01374	-0.30022
2954.000	2.57430	-0.07950	1.99004	-0.30221
2955.000	2.56444	-0.09540	2.00386	-0.29227
2956.000	2.53484	-0.09540	1.96635	-0.30818
2957.000	2.56049	-0.05565	2.01571	-0.32209
2958.000	2.57035	-0.07950	2.03743	-0.28431
2959.000	2.57825	-0.07552	1.99794	-0.32805
2960.000	2.56641	-0.09341	2.00386	-0.29624
2961.000	2.58022	-0.06558	1.97029	-0.27835
2962.000	2.61376	-0.04770	1.98214	-0.24455
2963.000	2.64335	-0.04571	1.96635	-0.25648
2964.000	2.59798	-0.05565	1.98017	-0.22865
2965.000	2.59008	-0.04571	1.97622	-0.22865
2966.000	2.63152	-0.01987	1.95450	-0.20082
2967.000	2.64138	-0.02981	1.96635	-0.18491
2968.000	2.64533	0.00000	1.95055	-0.23462
2969.000	2.62560	0.00994	1.92488	-0.20281
2970.000	2.63349	0.01391	1.94660	-0.25251
2971.000	2.63152	-0.03378	1.95647	-0.26245
2972.000	2.62954	-0.00994	1.96042	-0.27239
2973.000	2.60981	-0.04173	1.94265	-0.28035
2974.000	2.64927	0.02186	1.92488	-0.27439
2975.000	2.65519	-0.03975	1.94067	-0.31614
2976.000	2.63349	-0.04372	1.91895	-0.26246
2977.000	2.60784	0.01391	1.94265	-0.22269
2978.000	2.68083	-0.00795	1.93278	-0.25251
2979.000	2.64730	-0.02981	1.93080	-0.26444
2980.000	2.59995	-0.05565	1.90315	-0.22070
2981.000	2.63743	0.01789	1.94067	-0.24058
2982.000	2.59206	-0.04770	1.92488	-0.25649
2983.000	2.65716	0.00397	1.92488	-0.24257
2984.000	2.65519	0.01192	1.92488	-0.35193
2985.000	2.61573	0.04770	1.89328	-0.26246
2986.000	2.67886	0.01192	1.90513	-0.29427
2987.000	2.64730	-0.01987	1.91698	-0.29825
2988.000	2.66505	0.00000	1.89130	-0.30620
2989.000	2.66308	0.03180	1.89328	-0.29229
2990.000	2.71831	0.03974	1.91105	-0.28831
2991.000	2.67294	0.02583	1.91895	-0.27041
2992.000	2.67097	0.02782	1.87551	-0.32609
2993.000	2.65124	-0.02385	1.91303	-0.29825
2994.000	2.64927	0.02186	1.93475	-0.27637
2995.000	2.68281	0.00000	1.91895	-0.31415
2996.000	2.66505	0.00199	1.93475	-0.27041
2997.000	2.60587	-0.01789	1.93080	-0.28035
2998.000	2.62757	0.00994	1.89723	-0.33404
2999.000	2.66308	0.01590	1.89920	-0.30620
3000.000	2.59403	-0.01987	1.88143	-0.29229
3001.000	2.63152	-0.06757	1.90118	-0.30024
3002.000	2.64533	-0.04173	1.86168	-0.29428
3003.000	2.62757	-0.05763	1.89525	-0.27240
3004.000	2.66900	-0.02385	1.86958	-0.26843
3005.000	2.63941	0.00199	1.91895	-0.29029
3006.000	2.64730	-0.01987	1.86958	-0.26644
3007.000	2.65124	-0.04770	1.90908	-0.26445
3008.000	2.61968	0.00199	1.91500	-0.21474
3009.000	2.61968	-0.00397	1.90513	-0.31217
3010.000	2.63152	-0.01391	1.96042	-0.22666
3011.000	2.60981	-0.02385	1.93475	-0.27240
3012.000	2.60784	-0.00795	1.92488	-0.28035
3013.000	2.57035	0.00397	1.94067	-0.25450
3014.000	2.58417	-0.01192	1.95450	-0.20280
3015.000	2.60587	-0.01789	1.93475	-0.22468
3016.000	2.57825	-0.01391	1.92093	-0.26444
3017.000	2.60784	-0.04770	1.87946	-0.23661
3018.000	2.58417	-0.07353	1.92290	-0.25649
3019.000	2.60784	-0.06161	1.92290	-0.26842
3020.000	2.61179	-0.09539	1.95252	-0.20877
3021.000	2.58022	-0.08347	1.95252	-0.21871
3022.000	2.57825	-0.13713	1.93278	-0.24854
3023.000	2.56049	-0.11726	1.97424	-0.23064
3024.000	2.57825	-0.08745	1.94067	-0.21672
3025.000	2.62560	-0.06956	1.96240	-0.26643
3026.000	2.59008	-0.10334	1.95647	-0.21473
3027.000	2.56049	-0.06559	1.97227	-0.24654
3028.000	2.57035	-0.13316	1.96832	-0.25648
3029.000	2.54273	-0.13912	1.97227	-0.25847
3030.000	2.55852	-0.11527	1.95845	-0.27438
3031.000	2.52695	-0.12720	2.01374	-0.27238
3032.000	2.56444	-0.13117	1.98807	-0.24058
3033.000	2.58219	-0.11130	1.95845	-0.27637
3034.000	2.57035	-0.10732	2.01769	-0.28630
3035.000	2.53879	-0.10534	1.98017	-0.28233
3036.000	2.54273	-0.13714	1.98412	-0.31414
3037.000	2.57233	-0.12720	1.99597	-0.28431
3038.000	2.55260	-0.15701	1.99991	-0.32805
3039.000	2.50722	-0.15900	1.98017	-0.26444
3040.000	2.56444	-0.11328	2.00781	-0.30022
3041.000	2.54865	-0.08944	2.02558	-0.28033
3042.000	2.56838	-0.15701	2.01176	-0.26244
3043.000	2.54668	-0.11130	1.95450	-0.27637
3044.000	2.54865	-0.14508	1.96437	-0.26046
3045.000	2.54471	-0.16099	1.98214	-0.21473
3046.000	2.54668	-0.13117	1.97424	-0.28829
3047.000	2.54865	-0.17092	1.94660	-0.33999
3048.000	2.57233	-0.20272	1.99597	-0.27437
3049.000	2.56444	-0.12322	1.99202	-0.26046
3050.000	2.55062	-0.20272	1.94067	-0.30222
3051.000	2.58614	-0.12719	1.97227	-0.23859
3052.000	2.59600	-0.13912	1.99202	-0.26642
3053.000	2.55852	-0.12322	1.96240	-0.24257
3054.000	2.57233	-0.17489	1.98214	-0.25251
3055.000	2.59600	-0.11328	1.94265	-0.25450
3056.000	2.60981	-0.10334	1.95450	-0.26046
3057.000	2.60784	-0.09341	1.94660	-0.26245
3058.000	2.59600	-0.09937	1.97424	-0.26245
3059.000	2.60981	-0.04372	1.95252	-0.27836
3060.000	2.58022	-0.08546	1.96437	-0.21274
3061.000	2.60390	-0.08546	1.96832	-0.30420
3062.000	2.58417	-0.12322	1.96042	-0.23859
3063.000	2.59206	-0.10931	1.94265	-0.27836
3064.000	2.58219	-0.10136	1.95450	-0.26842
3065.000	2.61376	-0.14309	1.93672	-0.26047
3066.000	2.60784	-0.10732	1.90908	-0.30222
3067.000	2.57233	-0.11726	1.93870	-0.27637
3068.000	2.60192	-0.07353	1.90513	-0.28632
3069.000	2.57627	-0.11925	1.94462	-0.31812
3070.000	2.58417	-0.10732	1.97622	-0.31414
3071.000	2.60192	-0.11129	1.96042	-0.29625
3072.000	2.61771	-0.07154	1.95055	-0.27836
3073.000	2.61573	-0.11527	1.95647	-0.29029
3074.000	2.57627	-0.10335	1.95252	-0.30222
3075.000	2.59206	-0.12322	1.95450	-0.29227
3076.000	2.59403	-0.06956	1.93278	-0.25052
3077.000	2.59206	-0.10136	1.96240	-0.27836
3078.000	2.57233	-0.11527	1.96832	-0.32011
3079.000	2.57233	-0.15899	1.88538	-0.30819
3080.000	2.58614	-0.11328	1.92488	-0.25053
3081.000	2.53879	-0.14111	1.94067	-0.30619
3082.000	2.56444	-0.11726	1.98017	-0.27040
3083.000	2.57430	-0.12521	1.92685	-0.24456
3084.000	2.58022	-0.15502	1.92685	-0.27836
3085.000	2.59403	-0.07353	1.91698	-0.22866
3086.000	2.58022	-0.07751	1.96042	-0.27836
3087.000	2.59600	-0.13117	1.93672	-0.27836
3088.000	2.58417	-0.12918	1.94660	-0.24257
3089.000	2.55260	-0.17291	1.95252	-0.27239
3090.000	2.54668	-0.17688	2.01966	-0.29624
3091.000	2.57233	-0.18284	2.00584	-0.27636
3092.000	2.53681	-0.14509	1.95055	-0.30420
3093.000	2.54668	-0.19080	1.94265	-0.26245
3094.000	2.53287	-0.18484	1.96635	-0.27438
3095.000	2.56641	-0.23650	2.00386	-0.28431
3096.000	2.53681	-0.19676	1.93475	-0.25848
3097.000	2.52892	-0.22260	1.96437	-0.25450
3098.000	2.57825	-0.19874	1.95845	-0.19684
3099.000	2.53879	-0.19080	1.94462	-0.24655
3100.000	2.54273	-0.23055	1.96832	-0.25052
3101.000	2.53681	-0.21266	1.96832	-0.25648
3102.000	2.57430	-0.20868	1.97819	-0.25449
3103.000	2.55852	-0.18483	1.95055	-0.25251
3104.000	2.54668	-0.23055	1.94265	-0.21672
3105.000	2.58022	-0.21862	1.92883	-0.23860
3106.000	2.51708	-0.24844	1.93672	-0.20877
3107.000	2.54865	-0.25439	1.93080	-0.23661
3108.000	2.57430	-0.16893	1.95055	-0.24655
3109.000	2.55062	-0.17092	1.91105	-0.21673
3110.000	2.57233	-0.18284	1.90315	-0.26842
3111.000	2.56049	-0.14310	1.91303	-0.26445
3112.000	2.57430	-0.13514	1.88538	-0.27638
3113.000	2.55062	-0.14906	1.92488	-0.28631
3114.000	2.56838	-0.15701	1.92685	-0.26444
3115.000	2.55457	-0.12521	1.93278	-0.15509
3116.000	2.59600	-0.12322	1.91895	-0.20082
3117.000	2.54471	-0.11130	1.90315	-0.26644
3118.000	2.55457	-0.13515	1.91105	-0.29626
3119.000	2.57430	-0.11726	1.93080	-0.25649
3120.000	2.58811	-0.07155	1.91105	-0.29029
3121.000	2.55852	-0.05366	1.91698	-0.30222
3122.000	2.54865	-0.06360	1.88143	-0.33006
3123.000	2.55260	-0.07950	1.91895	-0.33205
3124.000	2.55260	-0.10732	1.91303	-0.33404
3125.000	2.54076	-0.12919	1.89723	-0.34994
3126.000	2.55457	-0.12521	1.88143	-0.35392
3127.000	2.54668	-0.08745	1.90908	-0.35193
3128.000	2.60587	-0.09539	1.88933	-0.36983
3129.000	2.57035	-0.10136	1.88143	-0.38375
3130.000	2.56049	-0.15105	1.89130	-0.37381
3131.000	2.54865	-0.11527	1.85773	-0.37381
3132.000	2.57233	-0.09142	1.88735	-0.37182
3133.000	2.58614	-0.10931	1.88735	-0.34001
3134.000	2.54471	-0.12919	1.87156	-0.34597
3135.000	2.58417	-0.13316	1.88143	-0.31018
3136.000	2.57035	-0.11925	1.92290	-0.30819
3137.000	2.54471	-0.10136	1.88933	-0.29626
3138.000	2.58417	-0.14111	1.85971	-0.31814
3139.000	2.56838	-0.09142	1.86761	-0.34399
3140.000	2.58614	-0.09937	1.86563	-0.33802
3141.000	2.58219	-0.09540	1.87551	-0.35393
3142.000	2.57430	-0.10732	1.87946	-0.35591
3143.000	2.63941	-0.01987	1.86761	-0.39369
3144.000	2.56641	-0.13117	1.87551	-0.36387
3145.000	2.61771	-0.07154	1.91698	-0.31614
3146.000	2.58614	-0.06956	1.86168	-0.35592
3147.000	2.58219	-0.12719	1.88933	-0.35392
3148.000	2.61771	-0.07552	1.85576	-0.40960
3149.000	2.56641	-0.03577	1.88143	-0.34398
3150.000	2.61573	-0.02186	1.86563	-0.36188
3151.000	2.60784	-0.03379	1.87748	-0.34398
3152.000	2.64533	-0.06558	1.85773	-0.41358
3153.000	2.60981	-0.08943	1.83601	-0.41358
3154.000	2.54076	-0.10732	1.86761	-0.34796
3155.000	2.55260	-0.07950	1.86958	-0.36983
3156.000	2.53089	-0.08149	1.87353	-0.37182
3157.000	2.58811	-0.08347	1.85773	-0.36387
3158.000	2.52103	-0.10136	1.86761	-0.33404
3159.000	2.54668	-0.11925	1.83403	-0.35592
3160.000	2.57430	-0.13514	1.83996	-0.26446
3161.000	2.54865	-0.09540	1.91105	-0.34994
3162.000	2.54668	-0.12322	1.89920	-0.31614
3163.000	2.53287	-0.12521	1.89920	-0.27240
3164.000	2.56246	-0.14310	1.87946	-0.35194
3165.000	2.55654	-0.11925	1.85773	-0.34598
3166.000	2.57825	-0.10136	1.89328	-0.34000
3167.000	2.56444	-0.09738	1.88933	-0.34796
3168.000	2.54273	-0.12919	1.86366	-0.32609
3169.000	2.53089	-0.16496	1.85773	-0.38773
3170.000	2.55260	-0.16297	1.88341	-0.33603
3171.000	2.54076	-0.11726	1.88933	-0.29626
3172.000	2.50524	-0.13913	1.89920	-0.35193
3173.000	2.54471	-0.18483	1.84786	-0.35393
3174.000	2.55260	-0.16098	1.87551	-0.34597
3175.000	2.49735	-0.15304	1.87156	-0.38972
3176.000	2.54471	-0.11130	1.88538	-0.35989
3177.000	2.53484	-0.13316	1.88933	-0.36983
3178.000	2.52497	-0.15105	1.87946	-0.37182
3179.000	2.52103	-0.11726	1.87748	-0.32410
3180.000	2.54076	-0.13117	1.91698	-0.34398
3181.000	2.55654	-0.15105	1.87353	-0.36586
3182.000	2.58219	-0.14111	1.85971	-0.34598
3183.000	2.53089	-0.12521	1.87946	-0.33802
3184.000	2.57233	-0.12720	1.88735	-0.40164
3185.000	2.55457	-0.12123	1.89130	-0.32211
3186.000	2.52892	-0.14906	1.86168	-0.35194
3187.000	2.54076	-0.14707	1.85971	-0.36387
3188.000	2.53681	-0.15502	1.87353	-0.37779
3189.000	2.55260	-0.16496	1.88143	-0.33802
3190.000	2.52497	-0.13118	1.87748	-0.38574
3191.000	2.54668	-0.14707	1.90710	-0.35591
3192.000	2.56641	-0.08943	1.87353	-0.41954
3193.000	2.53484	-0.18086	1.86761	-0.37779
3194.000	2.51511	-0.16496	1.90118	-0.38971
3195.000	2.52300	-0.12919	1.89525	-0.37182
3196.000	2.54471	-0.12919	1.89130	-0.36784
3197.000	2.52300	-0.11726	1.90908	-0.34994
3198.000	2.55852	-0.15303	1.91698	-0.36585
3199.000	2.53879	-0.14111	1.92883	-0.40561
3200.000	2.53681	-0.12919	1.86366	-0.42551
3201.000	2.55852	-0.07552	1.85773	-0.39568
3202.000	2.49143	-0.15900	1.88143	-0.38176
3203.000	2.53287	-0.14509	1.85181	-0.35990
3204.000	2.56049	-0.12521	1.87748	-0.39369
3205.000	2.57627	-0.12521	1.88538	-0.35194
3206.000	2.54273	-0.14509	1.86366	-0.35592
3207.000	2.52103	-0.15503	1.87748	-0.39170
3208.000	2.53089	-0.15900	1.89328	-0.34796
3209.000	2.53681	-0.15701	1.88341	-0.35392
3210.000	2.54076	-0.14310	1.85971	-0.39369
3211.000	2.55457	-0.16893	1.87156	-0.36387
3212.000	2.54076	-0.14707	1.88341	-0.34597
3213.000	2.51905	-0.20074	1.85971	-0.41954
3214.000	2.50524	-0.18285	1.88341	-0.28831
3215.000	2.54865	-0.20073	1.87748	-0.34796
3216.000	2.54273	-0.17092	1.87156	-0.37779
3217.000	2.53287	-0.15502	1.90710	-0.38772
3218.000	2.54273	-0.20073	1.87156	-0.37977
3219.000	2.49735	-0.17490	1.86761	-0.37182
3220.000	2.53287	-0.20074	1.87748	-0.37182
3221.000	2.51708	-0.21266	1.88341	-0.36585
3222.000	2.54076	-0.23253	1.90118	-0.35989
3223.000	2.57233	-0.17489	1.87353	-0.36387
3224.000	2.53287	-0.22657	1.89723	-0.43544
3225.000	2.51116	-0.18285	1.87353	-0.38972
3226.000	2.52695	-0.21862	1.87156	-0.46129
3227.000	2.49538	-0.18683	1.84786	-0.38177
3228.000	2.53681	-0.21067	1.83798	-0.41358
3229.000	2.52497	-0.22459	1.87353	-0.39170
3230.000	2.51905	-0.19478	1.85971	-0.40960
3231.000	2.51313	-0.22260	1.86761	-0.36188
3232.000	2.53681	-0.17887	1.88933	-0.42351
3233.000	2.51511	-0.19676	1.86563	-0.40761
3234.000	2.55062	-0.17887	1.84983	-0.39569
3235.000	2.58022	-0.15701	1.88341	-0.34398
3236.000	2.52695	-0.13912	1.86563	-0.36188
3237.000	2.52892	-0.18682	1.86761	-0.38574
3238.000	2.53287	-0.16894	1.88735	-0.31813
3239.000	2.52892	-0.18285	1.91303	-0.37579
3240.000	2.54273	-0.14707	1.88735	-0.38772
3241.000	2.52103	-0.10931	1.87946	-0.34796
3242.000	2.52892	-0.16297	1.85576	-0.38177
3243.000	2.53879	-0.14310	1.88538	-0.35989
3244.000	2.56838	-0.15899	1.82613	-0.37978
3245.000	2.54865	-0.13316	1.89723	-0.43544
3246.000	2.51708	-0.15304	1.92093	-0.37380
3247.000	2.51116	-0.15503	1.88143	-0.37182
3248.000	2.51905	-0.15105	1.86761	-0.41556
3249.000	2.54865	-0.17291	1.86366	-0.38972
3250.000	2.53484	-0.15304	1.86958	-0.40562
3251.000	2.54668	-0.19477	1.86958	-0.34399
3252.000	2.49932	-0.15702	1.88933	-0.33603
3253.000	2.49538	-0.23055	1.83206	-0.37978
3254.000	2.49340	-0.19677	1.90513	-0.29825
3255.000	2.51313	-0.25043	1.84983	-0.31019
3256.000	2.49932	-0.22857	1.87946	-0.32410
3257.000	2.46578	-0.20075	1.87353	-0.36784
3258.000	2.50919	-0.22658	1.83996	-0.37183
3259.000	2.51708	-0.24645	1.88933	-0.29825
3260.000	2.50919	-0.20869	1.90118	-0.35591
3261.000	2.51313	-0.24446	1.85971	-0.34001
3262.000	2.50327	-0.23652	1.86761	-0.33404
3263.000	2.49143	-0.21267	1.88538	-0.29427
3264.000	2.49538	-0.27428	1.91698	-0.29029
3265.000	2.50130	-0.21267	1.91698	-0.30819
3266.000	2.50919	-0.19080	1.89525	-0.22468
3267.000	2.51905	-0.16298	1.89525	-0.29030
3268.000	2.53681	-0.19080	1.87946	-0.33007
3269.000	2.52695	-0.22061	1.90118	-0.27240
3270.000	2.43815	-0.18882	1.87551	-0.27042
3271.000	2.52892	-0.14906	1.87551	-0.34597
3272.000	2.51905	-0.22459	1.87551	-0.27638
3273.000	2.49932	-0.22062	1.89130	-0.37182
3274.000	2.50722	-0.16496	1.89723	-0.32609
3275.000	2.51116	-0.21863	1.89723	-0.34994
3276.000	2.48748	-0.17689	1.89920	-0.37579
3277.000	2.48551	-0.12522	1.86761	-0.35393
3278.000	2.50919	-0.15900	1.89130	-0.35591
3279.000	2.54076	-0.11527	1.87551	-0.37779
3280.000	2.53681	-0.14707	1.87748	-0.35989
3281.000	2.50919	-0.16695	1.91500	-0.31018
3282.000	2.48156	-0.18882	1.88143	-0.34995
3283.000	2.48946	-0.18882	1.86958	-0.36983
3284.000	2.53879	-0.15304	1.88933	-0.37182
3285.000	2.46972	-0.15304	1.85576	-0.39370
3286.000	2.51313	-0.21465	1.89130	-0.43743
3287.000	2.51313	-0.21863	1.87946	-0.36784
3288.000	2.52695	-0.20670	1.86168	-0.39369
3289.000	2.51708	-0.19080	1.89920	-0.36386
3290.000	2.52892	-0.20869	1.88933	-0.35790
3291.000	2.50130	-0.18285	1.88341	-0.34001
3292.000	2.49340	-0.22062	1.86168	-0.29826
3293.000	2.52103	-0.13316	1.88538	-0.37182
3294.000	2.53879	-0.15304	1.89920	-0.36386
3295.000	2.47367	-0.20671	1.87946	-0.35392
3296.000	2.48748	-0.18484	1.86366	-0.35393
3297.000	2.50919	-0.16099	1.88538	-0.40960
3298.000	2.51313	-0.17689	1.85971	-0.33603
3299.000	2.49538	-0.17292	1.87156	-0.41159
3300.000	2.50327	-0.13913	1.87156	-0.36387
3301.000	2.44407	-0.17690	1.88933	-0.39766
3302.000	2.48354	-0.14112	1.87748	-0.41556
3303.000	2.52497	-0.16099	1.89130	-0.41556
3304.000	2.50524	-0.16894	1.88143	-0.43743
3305.000	2.48551	-0.11329	1.92685	-0.35193
3306.000	2.54668	-0.10534	1.86366	-0.38574
3307.000	2.52300	-0.15900	1.89525	-0.37778
3308.000	2.46380	-0.13317	1.88735	-0.30422
3309.000	2.50130	-0.13714	1.89130	-0.35392
3310.000	2.52497	-0.15503	1.88341	-0.30620
3311.000	2.49340	-0.16497	1.88341	-0.34796
3312.000	2.48946	-0.19080	1.86761	-0.35790
3313.000	2.49538	-0.18683	1.86761	-0.27837
3314.000	2.49538	-0.12522	1.86958	-0.32609
3315.000	2.53681	-0.17887	1.87748	-0.32012
3316.000	2.52892	-0.13912	1.88735	-0.33802
3317.000	2.48551	-0.16894	1.86168	-0.32013
3318.000	2.49340	-0.20074	1.88538	-0.30819
3319.000	2.47170	-0.21665	1.89723	-0.28831
3320.000	2.49143	-0.22261	1.87353	-0.27837
3321.000	2.49735	-0.19677	1.88341	-0.34995
3322.000	2.47762	-0.23255	1.84983	-0.28832
3323.000	2.44999	-0.20472	1.90908	-0.32807
3324.000	2.49735	-0.18683	1.84786	-0.25253
3325.000	2.48156	-0.23254	1.86168	-0.30621
3326.000	2.42236	-0.16498	1.89723	-0.34000
3327.000	2.50919	-0.18484	1.91105	-0.33404
3328.000	2.50919	-0.16496	1.87551	-0.29626
3329.000	2.49340	-0.17490	1.91500	-0.29427
3330.000	2.48156	-0.26633	1.86563	-0.27638
3331.000	2.50327	-0.19478	1.86168	-0.34399
3332.000	2.46578	-0.18485	1.87946	-0.31018
3333.000	2.46972	-0.23255	1.88341	-0.35392
3334.000	2.50919	-0.13118	1.90513	-0.32211
3335.000	2.51905	-0.16695	1.87946	-0.37381
3336.000	2.47170	-0.20075	1.87946	-0.32410
3337.000	2.42631	-0.20672	1.88143	-0.31814
3338.000	2.44407	-0.18684	1.85181	-0.32609
3339.000	2.44802	-0.21864	1.87156	-0.36784
3340.000	2.44999	-0.21267	1.85181	-0.40364
3341.000	2.45788	-0.24845	1.90315	-0.39369
3342.000	2.50919	-0.21266	1.88933	-0.39170
3343.000	2.51116	-0.21465	1.86563	-0.41954
3344.000	2.47367	-0.19876	1.88143	-0.36784
3345.000	2.50130	-0.19080	1.91303	-0.39368
3346.000	2.47564	-0.22062	1.93278	-0.39368
3347.000	2.49340	-0.24049	1.89328	-0.36585
3348.000	2.45788	-0.22857	1.86563	-0.37580
3349.000	2.45591	-0.20671	1.89525	-0.40760
3350.000	2.49538	-0.22857	1.90710	-0.37181
3351.000	2.46380	-0.22062	1.90315	-0.43345
3352.000	2.45196	-0.21665	1.85576	-0.41756
3353.000	2.43025	-0.27231	1.85773	-0.43943
3354.000	2.46380	-0.22261	1.87551	-0.40363
3355.000	2.45196	-0.21466	1.90908	-0.44737
3356.000	2.44802	-0.20274	1.88341	-0.43345
3357.000	2.45788	-0.24646	1.88143	-0.44936
3358.000	2.45394	-0.20870	1.88735	-0.43942
3359.000	2.48946	-0.19478	1.90118	-0.44538
3360.000	2.49932	-0.16298	1.91303	-0.45333
3361.000	2.48551	-0.22261	1.88143	-0.49111
3362.000	2.49538	-0.25043	1.90315	-0.46725
3363.000	2.49735	-0.20472	1.89525	-0.47123
3364.000	2.46972	-0.20671	1.88538	-0.45731
3365.000	2.49735	-0.21267	1.92685	-0.48712
3366.000	2.50919	-0.19080	1.85378	-0.45732
3367.000	2.45591	-0.16895	1.89920	-0.41953
3368.000	2.50130	-0.22459	1.89328	-0.44936
3369.000	2.45196	-0.18485	1.88143	-0.46924
3370.000	2.48748	-0.25242	1.89920	-0.42749
3371.000	2.45591	-0.24249	1.89328	-0.44141
3372.000	2.49735	-0.21267	1.89525	-0.43743
3373.000	2.45591	-0.23454	1.85773	-0.44738
3374.000	2.46972	-0.20870	1.88341	-0.44538
3375.000	2.45196	-0.23851	1.86168	-0.42750
3376.000	2.43815	-0.26038	1.88735	-0.45334
3377.000	2.48551	-0.19876	1.89328	-0.43743
3378.000	2.45986	-0.25839	1.86761	-0.43147
3379.000	2.47170	-0.26236	1.90710	-0.41555
3380.000	2.44999	-0.23851	1.87551	-0.42352
3381.000	2.43618	-0.27032	1.90315	-0.44538
3382.000	2.48551	-0.23453	1.91105	-0.45532
3383.000	2.47564	-0.26236	1.86958	-0.44340
3384.000	2.44604	-0.29417	1.88735	-0.42749
3385.000	2.45591	-0.25441	1.92488	-0.42350
3386.000	2.44407	-0.30808	1.89723	-0.45333
3387.000	2.46972	-0.30410	1.88735	-0.45532
3388.000	2.44210	-0.32001	1.87353	-0.45135
3389.000	2.44210	-0.25640	1.86366	-0.44738
3390.000	2.47170	-0.33789	1.89723	-0.43743
3391.000	2.43420	-0.28026	1.89723	-0.45333
3392.000	2.43025	-0.30013	1.87748	-0.43346
3393.000	2.44210	-0.31404	1.91303	-0.45929
3394.000	2.46183	-0.29615	1.86168	-0.43744
3395.000	2.46380	-0.24050	1.85181	-0.48118
3396.000	2.46380	-0.26634	1.88538	-0.45135
3397.000	2.42828	-0.32001	1.86563	-0.40960
3398.000	2.45394	-0.27628	1.85971	-0.42948
3399.000	2.45591	-0.29814	1.89130	-0.38573
3400.000	2.42039	-0.30013	1.88933	-0.51099
3401.000	2.44012	-0.31404	1.92685	-0.46128
3402.000	2.44210	-0.28025	1.87946	-0.43942
3403.000	2.46183	-0.30012	1.88538	-0.43345
3404.000	2.43420	-0.25243	1.89328	-0.44141
3405.000	2.42828	-0.29019	1.86958	-0.42948
3406.000	2.43223	-0.29616	1.86563	-0.43147
3407.000	2.42433	-0.30610	1.88538	-0.44538
3408.000	2.41447	-0.28026	1.86761	-0.39767
3409.000	2.44012	-0.26435	1.85576	-0.43545
3410.000	2.44407	-0.21864	1.88538	-0.45731
3411.000	2.43223	-0.24050	1.88341	-0.46725
3412.000	2.46183	-0.25044	1.88341	-0.46129
3413.000	2.46183	-0.27826	1.86366	-0.44937
3414.000	2.42039	-0.20473	1.87551	-0.46129
3415.000	2.41644	-0.24051	1.85378	-0.44539
3416.000	2.40263	-0.27032	1.89130	-0.46924
3417.000	2.44012	-0.24050	1.86168	-0.40165
3418.000	2.43618	-0.26634	1.88143	-0.42948
3419.000	2.45591	-0.27628	1.89723	-0.44140
3420.000	2.45591	-0.25242	1.87748	-0.44539
3421.000	2.43025	-0.25044	1.87353	-0.49112
3422.000	2.42433	-0.29815	1.85773	-0.42153
3423.000	2.40460	-0.24250	1.89723	-0.44339
3424.000	2.41841	-0.23653	1.88143	-0.43942
3425.000	2.43025	-0.23852	1.83798	-0.43943
3426.000	2.39671	-0.24449	1.87353	-0.47123
3427.000	2.43618	-0.25044	1.85181	-0.46925
3428.000	2.40657	-0.25641	1.87748	-0.46328
3429.000	2.42039	-0.26038	1.88933	-0.41755
3430.000	2.46775	-0.24050	1.84786	-0.47124
3431.000	2.42828	-0.25044	1.85773	-0.45732
3432.000	2.41644	-0.28026	1.86761	-0.44936
3433.000	2.40657	-0.27032	1.89328	-0.45333
3434.000	2.43223	-0.27827	1.84983	-0.45533
3435.000	2.43025	-0.27032	1.89920	-0.43743
3436.000	2.41447	-0.26038	1.87946	-0.48913
3437.000	2.44407	-0.29417	1.90710	-0.40760
3438.000	2.39868	-0.30014	1.86366	-0.40364
3439.000	2.39473	-0.28225	1.89525	-0.40959
3440.000	2.42433	-0.30013	1.87748	-0.44340
3441.000	2.42828	-0.26237	1.89920	-0.42152
3442.000	2.44210	-0.20274	1.90118	-0.42550
3443.000	2.43025	-0.26436	1.86366	-0.44539
3444.000	2.43223	-0.25243	1.89920	-0.39965
3445.000	2.43618	-0.27628	1.91303	-0.47122
3446.000	2.39473	-0.22461	1.89130	-0.44141
3447.000	2.41249	-0.28622	1.92883	-0.43146
3448.000	2.44802	-0.25640	1.87748	-0.43743
3449.000	2.43815	-0.26435	1.90710	-0.46327
3450.000	2.43223	-0.29019	1.89723	-0.42947
3451.000	2.38289	-0.29219	1.88538	-0.42550
3452.000	2.42433	-0.30013	1.88538	-0.46328
3453.000	2.41644	-0.26436	1.87748	-0.47521
3454.000	2.39276	-0.31207	1.93080	-0.41953
3455.000	2.43618	-0.30411	1.89328	-0.48117
3456.000	2.48156	-0.26832	1.93672	-0.44338
3457.000	2.46972	-0.25043	1.91303	-0.42748
3458.000	2.43223	-0.27231	1.92290	-0.42947
3459.000	2.43223	-0.22262	1.91105	-0.41953
3460.000	2.41249	-0.24846	1.90118	-0.52888
3461.000	2.37105	-0.20672	1.92093	-0.48116
3462.000	2.29407	-0.19083	1.85576	-0.42153
3463.000	2.17563	-0.18488	1.78268	-0.40564
3464.000	2.07692	-0.17297	1.68590	-0.39174
3465.000	1.93870	-0.12924	1.59305	-0.38778
3466.000	1.71553	-0.08352	1.47057	-0.36991
3467.000	1.52786	-0.03381	1.19987	-0.31824
3468.000	1.36783	0.06762	1.09710	-0.21482
3469.000	1.12477	0.08951	0.93504	-0.11537
3470.000	0.90342	0.13328	0.77691	-0.07161
3471.000	0.76901	0.14323	0.60692	0.03183
3472.000	0.57133	0.17705	0.45272	0.00995
3473.000	0.49622	0.15318	0.34597	0.04576
3474.000	0.32027	0.14722	0.25503	0.17109
3475.000	0.31632	0.26658	0.15223	0.15716
3476.000	0.30248	0.34416	0.12257	0.30637
3477.000	0.29259	0.30040	0.05931	0.29841
3478.000	0.27480	0.37003	0.06326	0.28847
3479.000	0.31236	0.46352	0.02768	0.37202
3480.000	0.33806	0.45954	0.05338	0.38197
3481.000	0.38946	0.44561	0.02570	0.33422
3482.000	0.49424	0.46948	0.02768	0.35213
3483.000	0.52982	0.40582	0.10478	0.34815
3484.000	0.59110	0.33818	0.11269	0.29841
3485.000	0.70378	0.28248	0.17002	0.24072
3486.000	0.75319	0.22876	0.20956	0.20690
3487.000	0.82238	0.18699	0.29259	0.12334
3488.000	0.90144	0.10742	0.39342	0.10743
3489.000	1.01014	0.06166	0.46261	0.04377
3490.000	1.04967	0.00398	0.53773	0.02188
3491.000	1.04572	-0.03183	0.57331	0.00995
3492.000	1.11489	-0.03182	0.58715	-0.05172
3493.000	1.14058	-0.01392	0.58517	-0.10941
3494.000	1.12872	-0.02586	0.64052	-0.07162
3495.000	1.08327	0.00199	0.63459	-0.07559
3496.000	1.08129	0.00000	0.62273	-0.08952
3497.000	1.03386	0.03779	0.59901	-0.09350
3498.000	1.00619	0.07360	0.55750	-0.09549
3499.000	0.98050	0.05967	0.53180	-0.04774
3500.000	0.88167	0.06167	0.51401	-0.03780
3501.000	0.85400	0.03183	0.48435	0.02785
3502.000	0.80459	0.05172	0.42109	-0.04973
3503.000	0.77691	0.09747	0.39144	-0.04377
3504.000	0.77691	0.12333	0.39539	0.01194
3505.000	0.72354	0.09350	0.36376	0.04973
3506.000	0.71564	0.10941	0.31039	0.00398
3507.000	0.68006	0.14920	0.29852	0.02188
3508.000	0.66227	0.14920	0.29259	0.02984
3509.000	0.65634	0.17904	0.27282	0.03581
3510.000	0.65436	0.13527	0.29852	0.08753
3511.000	0.63855	0.14522	0.26294	0.10743
3512.000	0.67413	0.19694	0.22538	0.07560
3513.000	0.64052	0.19495	0.25305	0.11340
3514.000	0.63459	0.25662	0.26492	0.06963
3515.000	0.64843	0.19893	0.24910	0.09748
3516.000	0.61087	0.26060	0.24515	0.09151
3517.000	0.63657	0.22479	0.25899	0.12931
3518.000	0.67215	0.21285	0.22340	0.04974
3519.000	0.68599	0.20887	0.25899	0.04974
3520.000	0.63855	0.20888	0.26887	0.04377
3521.000	0.61878	0.17705	0.25503	0.09151
3522.000	0.68401	0.22081	0.25899	0.02984
3523.000	0.66227	0.17108	0.25701	0.07759
3524.000	0.65041	0.20689	0.24515	0.09151
3525.000	0.68006	0.24866	0.24119	0.06764
3526.000	0.69389	0.20887	0.28469	0.05769
3527.000	0.72552	0.24866	0.26887	0.10942
3528.000	0.68006	0.20888	0.23526	0.08554
3529.000	0.70180	0.19296	0.28469	0.08356
3530.000	0.74726	0.18699	0.25305	0.05769
3531.000	0.76505	0.19694	0.25899	0.10345
3532.000	0.72947	0.20887	0.27678	0.11936
3533.000	0.69982	0.17705	0.24515	0.11539
3534.000	0.73145	0.20092	0.26096	0.12931
3535.000	0.72157	0.23274	0.30643	0.12931
3536.000	0.74726	0.21086	0.26689	0.12533
3537.000	0.72552	0.19296	0.26887	0.12533
3538.000	0.70773	0.19694	0.29062	0.13727
3539.000	0.74924	0.18301	0.27678	0.14324
3540.000	0.70575	0.17506	0.28073	0.09350
3541.000	0.73343	0.18699	0.26689	0.10146
3542.000	0.71366	0.21683	0.29062	0.07759
3543.000	0.71959	0.19097	0.26492	0.07958
3544.000	0.73738	0.17506	0.25701	0.08356
3545.000	0.74529	0.19296	0.26887	0.09549
3546.000	0.71959	0.21683	0.27876	0.10544
3547.000	0.72157	0.19097	0.28271	0.12334
3548.000	0.74331	0.19893	0.28864	0.06366
3549.000	0.71761	0.22280	0.25701	0.10544
3550.000	0.73738	0.20290	0.27480	0.16114
3551.000	0.71366	0.20092	0.28073	0.12732
3552.000	0.74529	0.19296	0.28271	0.09947
3553.000	0.72157	0.22479	0.29852	0.15517
3554.000	0.73343	0.21683	0.26887	0.15517
3555.000	0.72750	0.16909	0.25899	0.11738
3556.000	0.71564	0.22479	0.26294	0.07560
3557.000	0.74726	0.22479	0.26689	0.13130
3558.000	0.70575	0.24468	0.24317	0.12732
3559.000	0.72552	0.19296	0.27085	0.13727
3560.000	0.74133	0.19893	0.25701	0.11738
3561.000	0.76308	0.21285	0.22735	0.04974
3562.000	0.74529	0.20290	0.25899	0.10345
3563.000	0.74529	0.18699	0.24712	0.11141
3564.000	0.70773	0.20291	0.25701	0.10743
3565.000	0.73936	0.17307	0.27085	0.08753
3566.000	0.73540	0.21086	0.26887	0.14523
3567.000	0.73145	0.19694	0.25899	0.09947
3568.000	0.70575	0.14522	0.24119	0.11539
3569.000	0.67610	0.18500	0.25108	0.11738
3570.000	0.75319	0.18898	0.26096	0.14125
3571.000	0.68994	0.18699	0.25701	0.12334
3572.000	0.75319	0.18500	0.27678	0.10544
3573.000	0.70773	0.17307	0.26096	0.08554
3574.000	0.73540	0.17108	0.24910	0.10743
3575.000	0.68203	0.19097	0.21945	0.11738
3576.000	0.70773	0.19495	0.27085	0.09748
3577.000	0.70575	0.13527	0.25701	0.08356
3578.000	0.72750	0.14323	0.26294	0.06963
3579.000	0.72157	0.16710	0.20165	0.10345
3580.000	0.68401	0.15715	0.22340	0.06565
3581.000	0.70378	0.12930	0.23724	0.09151
3582.000	0.70575	0.17307	0.22340	0.06366
3583.000	0.70575	0.18301	0.23724	0.09947
3584.000	0.74924	0.14522	0.20561	0.07958
3585.000	0.70773	0.15914	0.20363	0.04775
3586.000	0.69982	0.16312	0.20165	0.07560
3587.000	0.69192	0.19694	0.22538	0.08753
3588.000	0.74924	0.18898	0.22142	0.11141
3589.000	0.69785	0.15119	0.20758	0.10942
3590.000	0.70378	0.10145	0.20165	0.08952
3591.000	0.70773	0.13527	0.22933	0.08753
3592.000	0.71366	0.13129	0.19770	0.03183
3593.000	0.66820	0.13925	0.20363	0.05371
3594.000	0.74331	0.13129	0.19968	0.06366
3595.000	0.73343	0.14721	0.20561	0.06764
3596.000	0.72552	0.14721	0.24515	0.07361
3597.000	0.69389	0.13328	0.21549	0.08356
3598.000	0.74924	0.16511	0.20956	0.11340
3599.000	0.71366	0.20092	0.21747	0.09947
3600.000	0.72947	0.18102	0.20956	0.06764
3601.000	0.73540	0.16909	0.21549	0.12732
3602.000	0.71564	0.17307	0.22538	0.14722
3603.000	0.69587	0.16710	0.20758	0.08555
3604.000	0.65634	0.11936	0.21747	0.09947
3605.000	0.71366	0.16511	0.23526	0.11937
3606.000	0.68599	0.12533	0.24712	0.11738
3607.000	0.64448	0.09151	0.20165	0.04974
3608.000	0.71168	0.16909	0.21352	0.06764
3609.000	0.71564	0.17506	0.19572	0.05371
3610.000	0.67610	0.13925	0.20956	0.04576
3611.000	0.69192	0.14522	0.22340	0.05769
3612.000	0.70378	0.15715	0.20561	0.02984
3613.000	0.71366	0.12731	0.22142	0.08356
3614.000	0.71959	0.10742	0.22735	0.06167
3615.000	0.67610	0.13328	0.20956	0.01790
3616.000	0.69785	0.10742	0.24119	0.04178
3617.000	0.70773	0.12135	0.21747	0.00000
3618.000	0.71168	0.11538	0.19375	0.01592
3619.000	0.66029	0.09748	0.18979	0.06167
3620.000	0.69587	0.12533	0.19375	0.10345
3621.000	0.67808	0.11936	0.18386	0.03183
3622.000	0.67017	0.10742	0.20363	0.04377
3623.000	0.68401	0.13527	0.21352	0.08356
3624.000	0.69587	0.17307	0.23922	0.04178
3625.000	0.67017	0.11737	0.20363	0.01592
3626.000	0.68203	0.13129	0.23329	0.05769
3627.000	0.69785	0.13129	0.19770	0.01592
3628.000	0.65041	0.09748	0.20561	-0.02785
3629.000	0.73540	0.13328	0.22142	0.00995
3630.000	0.65634	0.10941	0.20758	-0.01592
3631.000	0.70378	0.12731	0.16804	0.01790
3632.000	0.68203	0.13925	0.21352	0.00199
3633.000	0.68796	0.12135	0.18386	0.05968
3634.000	0.69389	0.12334	0.20956	0.01790
3635.000	0.67808	0.09946	0.22340	0.05769
3636.000	0.72157	0.08554	0.20363	-0.00199
3637.000	0.65238	0.10742	0.20363	0.05371
3638.000	0.67610	0.09151	0.19572	0.05173
3639.000	0.69389	0.11339	0.21747	0.02984
3640.000	0.69982	0.09549	0.19572	0.03382
3641.000	0.70575	0.09151	0.20758	0.04377
3642.000	0.70575	0.14124	0.18781	0.02984
3643.000	0.68203	0.12135	0.18979	0.01393
3644.000	0.68796	0.11140	0.19968	0.02785
3645.000	0.65831	0.10145	0.21945	0.06764
3646.000	0.64843	0.04774	0.20363	0.03382
3647.000	0.67017	0.07360	0.22538	0.02586
3648.000	0.65831	0.08753	0.22538	0.04775
3649.000	0.69587	0.11538	0.18979	0.03183
3650.000	0.69192	0.08355	0.18781	0.00199
3651.000	0.69587	0.15119	0.22340	0.05769
3652.000	0.65238	0.09947	0.22142	0.04576
3653.000	0.67017	0.10941	0.20758	0.03780
3654.000	0.66622	0.09151	0.22538	0.03780
3655.000	0.66424	0.11339	0.19572	0.06565
3656.000	0.65831	0.06963	0.21945	0.04974
3657.000	0.69389	0.12930	0.24317	0.05172
3658.000	0.63855	0.04575	0.22933	0.02387
3659.000	0.63459	0.09947	0.22538	0.00199
3660.000	0.65238	0.09549	0.24119	0.06764
3661.000	0.69982	0.08554	0.23131	0.02188
3662.000	0.67610	0.15119	0.26096	0.06764
3663.000	0.64645	0.06366	0.22340	0.07361
3664.000	0.65436	0.07360	0.22142	0.00398
3665.000	0.67413	0.06963	0.22933	0.05968
3666.000	0.70378	0.13726	0.26096	0.06963
3667.000	0.72552	0.14323	0.20363	0.04377
3668.000	0.68599	0.11737	0.24317	0.02387
3669.000	0.65831	0.07559	0.22142	0.06565
3670.000	0.69389	0.11936	0.22340	0.01790
3671.000	0.65831	0.08355	0.23131	0.03780
3672.000	0.67610	0.11140	0.22735	-0.01790
3673.000	0.66029	0.10145	0.23526	0.05172
3674.000	0.64843	0.05570	0.24119	0.00597
3675.000	0.65634	0.11140	0.25108	0.00995
3676.000	0.65041	0.03979	0.24119	-0.00796
3677.000	0.63657	0.06167	0.21945	0.01989
3678.000	0.66227	0.07161	0.24119	0.02387
3679.000	0.64250	0.05968	0.18979	0.02586
3680.000	0.64448	0.12533	0.22142	0.02188
3681.000	0.63262	0.07360	0.23526	0.03581
3682.000	0.64645	0.09947	0.22142	0.02188
3683.000	0.64250	0.10145	0.21154	-0.04377
3684.000	0.66622	0.07161	0.23329	0.06565
3685.000	0.64843	0.11140	0.22538	-0.02387
3686.000	0.63064	0.10941	0.21945	0.05570
3687.000	0.68994	0.09946	0.21747	0.00597
3688.000	0.65041	0.07360	0.19770	-0.01393
3689.000	0.66029	0.11538	0.22142	0.00995
3690.000	0.63855	0.11339	0.24317	0.01790
3691.000	0.64843	0.07758	0.23329	0.03581
3692.000	0.68796	0.07957	0.22538	0.00398
3693.000	0.67808	0.08156	0.24910	0.05172
3694.000	0.69587	0.11140	0.25503	-0.00199
3695.000	0.68994	0.09946	0.21747	0.03382
3696.000	0.66820	0.10941	0.26096	0.04775
3697.000	0.68203	0.08952	0.21945	0.03382
3698.000	0.65634	0.10941	0.26294	-0.01989
3699.000	0.68203	0.13328	0.23724	0.01790
3700.000	0.68203	0.15119	0.25108	0.03382
3701.000	0.66622	0.11737	0.23329	0.02387
3702.000	0.67808	0.12334	0.24515	-0.00597
3703.000	0.63855	0.11339	0.25305	0.01592
3704.000	0.67017	0.18103	0.24910	0.00995
3705.000	0.66622	0.16312	0.24910	0.01790
3706.000	0.63855	0.14920	0.21154	-0.00199
3707.000	0.66029	0.12732	0.24515	0.04178
3708.000	0.67215	0.12731	0.24712	0.04775
3709.000	0.68006	0.17307	0.22735	0.05371
3710.000	0.67017	0.15119	0.21154	0.00796
3711.000	0.68994	0.20092	0.24119	0.01989
3712.000	0.67610	0.16511	0.24712	-0.00796
3713.000	0.65041	0.15119	0.26887	0.04178
3714.000	0.69389	0.18301	0.26492	0.02785
3715.000	0.67610	0.15318	0.23131	0.02785
3716.000	0.63262	0.12533	0.27085	0.00995
3717.000	0.69785	0.15914	0.26492	0.01592
3718.000	0.67610	0.12533	0.27480	0.04377
3719.000	0.66227	0.15715	0.27480	0.00995
3720.000	0.64645	0.17705	0.27480	0.04576
3721.000	0.66227	0.11936	0.25701	0.07162
3722.000	0.65041	0.12334	0.25503	0.04576
3723.000	0.66227	0.13129	0.26294	0.04377
3724.000	0.69785	0.15317	0.24910	0.05371
3725.000	0.71168	0.11538	0.27678	0.05172
3726.000	0.64250	0.15716	0.25899	0.06764
3727.000	0.63657	0.14124	0.25108	0.08753
3728.000	0.64448	0.13925	0.23526	0.09748
3729.000	0.66820	0.13527	0.25503	0.08356
3730.000	0.68401	0.18898	0.30050	0.08356
3731.000	0.70180	0.11140	0.28469	0.09549
3732.000	0.66424	0.13129	0.25305	0.09350
3733.000	0.66622	0.08952	0.26887	0.11141
3734.000	0.68006	0.12533	0.31039	0.15318
3735.000	0.65831	0.14920	0.25503	0.07958
3736.000	0.62668	0.12533	0.31039	0.11141
3737.000	0.65634	0.08952	0.26294	0.08356
3738.000	0.66029	0.11538	0.29259	0.10146
3739.000	0.68994	0.12930	0.27480	0.12334
3740.000	0.65831	0.14124	0.30643	0.09748
3741.000	0.66820	0.14522	0.29259	0.07759
3742.000	0.66424	0.10344	0.27085	0.07560
3743.000	0.67017	0.17904	0.26294	0.10146
3744.000	0.59703	0.06167	0.27678	0.09151
3745.000	0.65041	0.11140	0.26096	0.10146
3746.000	0.63855	0.08355	0.29259	0.10345
3747.000	0.63459	0.08554	0.30050	0.09350
3748.000	0.65436	0.14920	0.27678	0.06963
3749.000	0.65634	0.10742	0.27480	0.08157
3750.000	0.66424	0.14920	0.26294	0.06764
3751.000	0.66820	0.08156	0.25503	0.08157
3752.000	0.63855	0.10941	0.30050	0.11340
3753.000	0.66820	0.11737	0.30643	0.07759
3754.000	0.62273	0.11737	0.27480	0.08356
3755.000	0.58715	0.09748	0.32620	0.09748
3756.000	0.62075	0.12135	0.30841	0.08952
3757.000	0.59308	0.10742	0.30050	0.11539
3758.000	0.62866	0.09151	0.29655	0.06764
3759.000	0.62471	0.10941	0.31434	0.09151
3760.000	0.63657	0.08952	0.30841	0.08356
3761.000	0.63262	0.12732	0.29457	0.12732
3762.000	0.66820	0.08753	0.34399	0.11737
3763.000	0.65238	0.04575	0.29259	0.14523
3764.000	0.68006	0.09151	0.33609	0.12732
3765.000	0.63262	0.06764	0.31039	0.10544
3766.000	0.62866	0.09549	0.30446	0.11141
3767.000	0.64250	0.07162	0.33213	0.09947
3768.000	0.63064	0.07360	0.27678	0.08157
3769.000	0.62866	0.12732	0.32818	0.10345
3770.000	0.63262	0.05371	0.29852	0.08356
3771.000	0.60494	0.07559	0.30446	0.17109
3772.000	0.62471	0.03979	0.28666	0.13130
3773.000	0.60889	0.06565	0.32422	0.14523
3774.000	0.61878	0.10543	0.30050	0.16711
3775.000	0.63064	0.07957	0.33411	0.18302
3776.000	0.63657	0.05371	0.29259	0.17507
3777.000	0.62866	0.10146	0.33016	0.13926
3778.000	0.61482	0.07957	0.31039	0.16114
3779.000	0.59703	0.04178	0.32225	0.14722
3780.000	0.66227	0.09151	0.31236	0.19894
3781.000	0.64052	0.06366	0.30248	0.17507
3782.000	0.64250	0.03183	0.34202	0.13130
3783.000	0.61878	0.04774	0.30050	0.18501
3784.000	0.61680	0.06963	0.29655	0.16114
3785.000	0.62866	0.04973	0.30643	0.14921
3786.000	0.63064	0.04178	0.28666	0.14523
3787.000	0.65238	0.07758	0.29852	0.16910
3788.000	0.64843	0.04575	0.32422	0.14523
3789.000	0.66622	0.03183	0.30248	0.13329
3790.000	0.67215	0.04376	0.28469	0.17109
3791.000	0.63262	0.04376	0.32620	0.12931
3792.000	0.64645	0.04973	0.29259	0.14722
3793.000	0.65041	0.03183	0.30643	0.14324
3794.000	0.62866	0.02785	0.27876	0.14921
3795.000	0.67413	0.08753	0.31039	0.11340
3796.000	0.65634	0.05968	0.27480	0.10146
3797.000	0.61285	0.05371	0.32620	0.10544
3798.000	0.66622	0.01393	0.29655	0.12135
3799.000	0.64843	0.01591	0.29457	0.15517
3800.000	0.64448	0.04973	0.30446	0.15716
3801.000	0.66029	0.02586	0.29457	0.07958
3802.000	0.67215	0.02984	0.30446	0.12931
3803.000	0.63855	0.01591	0.28073	0.10146
3804.000	0.64250	0.08355	0.29062	0.15119
3805.000	0.62273	0.04178	0.29852	0.12533
3806.000	0.61285	0.05172	0.28666	0.11936
3807.000	0.60099	0.05570	0.27085	0.12931
3808.000	0.59901	0.05769	0.30050	0.17905
3809.000	0.62668	0.04575	0.28864	0.17706
3810.000	0.63262	0.04575	0.31039	0.15915
3811.000	0.63262	0.01393	0.27282	0.15716
3812.000	0.58320	0.04377	0.30446	0.15119
3813.000	0.62075	0.03979	0.28073	0.13329
3814.000	0.63855	0.03581	0.29062	0.15318
3815.000	0.62471	-0.01591	0.29457	0.07759
3816.000	0.59110	0.00995	0.30248	0.15716
3817.000	0.63459	0.01194	0.31236	0.14125
3818.000	0.62866	0.04973	0.33213	0.18899
3819.000	0.60296	0.02984	0.31632	0.13130
3820.000	0.58715	0.00199	0.33806	0.15517
3821.000	0.67413	0.03979	0.33806	0.17507
3822.000	0.62471	0.04178	0.31039	0.08157
3823.000	0.65238	0.05968	0.34597	0.12732
3824.000	0.57529	0.01393	0.32027	0.13329
3825.000	0.61285	0.06366	0.30446	0.12931
3826.000	0.58517	0.01989	0.33411	0.11539
3827.000	0.60099	0.01393	0.33411	0.17507
3828.000	0.59901	0.01790	0.36376	0.10743
3829.000	0.60692	0.04973	0.35388	0.09549
3830.000	0.61482	0.03780	0.34202	0.11539
3831.000	0.55750	0.01790	0.30841	0.11141
3832.000	0.58320	0.00597	0.31434	0.11936
3833.000	0.60889	0.03183	0.30643	0.10942
3834.000	0.59901	0.03382	0.33806	0.10942
3835.000	0.61680	0.03581	0.31039	0.11936
3836.000	0.57924	0.06565	0.30446	0.11141
3837.000	0.62075	0.05968	0.34202	0.09947
3838.000	0.63459	0.00796	0.30841	0.13130
3839.000	0.63459	0.06963	0.31632	0.21684
3840.000	0.59703	0.05769	0.32422	0.14324
3841.000	0.60692	0.05570	0.29457	0.12931
3842.000	0.60296	0.03979	0.31434	0.14921
3843.000	0.61680	0.06764	0.29655	0.17905
3844.000	0.65238	0.09549	0.28666	0.16910
3845.000	0.65436	0.13726	0.25899	0.20093
3846.000	0.63855	0.10742	0.24910	0.17905
3847.000	0.69587	0.13328	0.29852	0.15915
3848.000	0.68203	0.12731	0.27678	0.17507
3849.000	0.67413	0.10344	0.27085	0.20889
3850.000	0.68401	0.14124	0.27480	0.19894
3851.000	0.67413	0.11936	0.29852	0.19098
3852.000	0.67017	0.10742	0.26887	0.13329
3853.000	0.68599	0.13328	0.25503	0.09947
3854.000	0.69192	0.12930	0.29852	0.11340
3855.000	0.69587	0.10344	0.30841	0.07958
3856.000	0.67017	0.08355	0.29259	0.11539
3857.000	0.70575	0.14323	0.29062	0.12931
3858.000	0.67413	0.14721	0.25503	0.10146
3859.000	0.67215	0.11339	0.27480	0.05769
3860.000	0.70971	0.12334	0.26689	0.06963
3861.000	0.68203	0.18301	0.27085	0.03581
3862.000	0.68006	0.09946	0.28469	0.09350
3863.000	0.70180	0.14721	0.28469	0.09947
3864.000	0.70773	0.14124	0.31236	0.08157
3865.000	0.66820	0.09748	0.28073	0.08554
3866.000	0.68796	0.14522	0.25503	0.07759
3867.000	0.68401	0.10742	0.30248	0.11340
3868.000	0.67413	0.10941	0.24317	0.08157
3869.000	0.68599	0.12533	0.26492	0.10743
3870.000	0.65634	0.10543	0.28864	0.10146
3871.000	0.67808	0.15914	0.24712	0.08753
3872.000	0.63262	0.10543	0.30050	0.08157
3873.000	0.66424	0.07957	0.30248	0.08753
3874.000	0.66820	0.11140	0.26689	0.08157
3875.000	0.68401	0.10543	0.31039	0.11340
3876.000	0.66820	0.10344	0.29655	0.06764
3877.000	0.65238	0.08753	0.27085	0.11340
3878.000	0.65041	0.11538	0.30446	0.09350
3879.000	0.64843	0.08156	0.31829	0.12732
3880.000	0.63262	0.08952	0.29457	0.09549
3881.000	0.63064	0.14522	0.32225	0.11141
3882.000	0.67215	0.14920	0.28864	0.13528
3883.000	0.60494	0.10742	0.29457	0.09947
3884.000	0.62866	0.12931	0.31829	0.09748
3885.000	0.63262	0.10941	0.28666	0.13727
3886.000	0.62668	0.12334	0.32818	0.10942
3887.000	0.61680	0.10344	0.33609	0.11340
3888.000	0.62273	0.13328	0.35783	0.14324
3889.000	0.66227	0.15517	0.33806	0.12931
3890.000	0.66227	0.08355	0.30050	0.12931
3891.000	0.66622	0.11140	0.32225	0.12931
3892.000	0.61087	0.09350	0.32620	0.11737
3893.000	0.64843	0.06764	0.30248	0.11141
3894.000	0.63459	0.12732	0.26096	0.11936
3895.000	0.63262	0.11339	0.28073	0.11539
3896.000	0.65634	0.09549	0.31434	0.11141
3897.000	0.62668	0.09350	0.29852	0.08356
3898.000	0.61878	0.09748	0.30446	0.16512
3899.000	0.65634	0.11339	0.28666	0.11141
3900.000	0.65041	0.11140	0.29457	0.11340
3901.000	0.63262	0.08554	0.28073	0.10743
3902.000	0.62471	0.06565	0.29062	0.10743
3903.000	0.65436	0.06963	0.26492	0.10146
3904.000	0.64250	0.11538	0.29062	0.11936
3905.000	0.63262	0.07758	0.27282	0.11936
3906.000	0.67808	0.11538	0.28666	0.12931
3907.000	0.64052	0.10742	0.30446	0.07759
3908.000	0.63855	0.08355	0.26887	0.06963
3909.000	0.65238	0.11936	0.30446	0.11340
3910.000	0.65436	0.10941	0.29655	0.08157
3911.000	0.64843	0.12135	0.31236	0.09151
3912.000	0.71366	0.11339	0.29457	0.10743
3913.000	0.65634	0.11936	0.29457	0.07361
3914.000	0.70773	0.14124	0.32027	0.10146
3915.000	0.65041	0.08156	0.29655	0.10345
3916.000	0.65238	0.12533	0.30248	0.11539
3917.000	0.65831	0.09947	0.28073	0.09748
3918.000	0.68203	0.06764	0.28073	0.13528
3919.000	0.65634	0.08355	0.28271	0.08554
3920.000	0.64448	0.07957	0.27480	0.11340
3921.000	0.71168	0.10344	0.29852	0.09947
3922.000	0.67017	0.13328	0.29457	0.09947
3923.000	0.63855	0.05769	0.27876	0.10146
3924.000	0.67413	0.10543	0.28666	0.09151
3925.000	0.63855	0.12135	0.29457	0.05968
3926.000	0.69389	0.12930	0.28666	0.08157
3927.000	0.66424	0.09748	0.30841	0.13528
3928.000	0.68796	0.07957	0.31236	0.07162
3929.000	0.66820	0.10145	0.28073	0.06963
3930.000	0.71168	0.12135	0.31632	0.13329
3931.000	0.64645	0.11140	0.28864	0.04974
3932.000	0.64052	0.09748	0.28864	0.07759
3933.000	0.69192	0.08952	0.27876	0.07361
3934.000	0.62471	0.04973	0.29062	0.10345
3935.000	0.66622	0.11936	0.32620	0.14523
3936.000	0.65831	0.05968	0.32225	0.09748
3937.000	0.61878	0.08156	0.33016	0.07162
3938.000	0.62273	0.04774	0.31236	0.12931
3939.000	0.63855	0.06366	0.32027	0.13926
3940.000	0.66424	0.06366	0.32620	0.07361
3941.000	0.63064	0.02387	0.31632	0.10146
3942.000	0.63657	0.04774	0.32422	0.16114
3943.000	0.62273	0.05371	0.31039	0.15318
3944.000	0.61285	0.00995	0.33213	0.08753
3945.000	0.62668	0.03183	0.35981	0.10942
3946.000	0.66227	0.03780	0.31236	0.12533
3947.000	0.58913	0.02586	0.35586	0.09748
3948.000	0.63657	0.00796	0.35586	0.11936
3949.000	0.62668	0.00398	0.32225	0.11141
3950.000	0.62668	0.01194	0.33016	0.08554
3951.000	0.60296	0.01393	0.30643	0.06366
3952.000	0.63064	-0.00398	0.33213	0.10345
3953.000	0.58715	-0.00199	0.31236	0.07759
3954.000	0.61285	0.00796	0.34202	0.05172
3955.000	0.59506	0.01790	0.33609	0.05172
3956.000	0.62075	-0.00398	0.32620	-0.01393
3957.000	0.63262	-0.00597	0.29457	0.02785
3958.000	0.60692	0.05172	0.36969	0.05371
3959.000	0.58320	0.00995	0.30446	0.06366
3960.000	0.61878	-0.05172	0.33411	0.05769
3961.000	0.62075	0.01393	0.30050	0.07361
3962.000	0.61680	-0.06565	0.32027	0.06167
3963.000	0.58913	-0.05570	0.31829	0.02188
3964.000	0.61878	-0.01393	0.33609	0.04576
3965.000	0.60296	-0.01194	0.32225	0.06167
3966.000	0.57924	-0.02984	0.35190	0.05371
3967.000	0.59901	-0.02188	0.32818	0.05769
3968.000	0.61285	-0.07758	0.34795	0.04775
3969.000	0.62668	-0.02387	0.32027	0.06565
3970.000	0.56936	-0.02785	0.33016	0.04775
3971.000	0.60296	-0.03382	0.33806	0.06764
3972.000	0.60494	-0.05371	0.36772	0.07560
3973.000	0.57133	-0.01989	0.32620	0.05570
3974.000	0.61482	-0.02984	0.33213	0.03183
3975.000	0.57727	-0.04575	0.33609	0.05371
3976.000	0.61482	0.00796	0.33213	0.04377
3977.000	0.63459	-0.01393	0.32422	0.05570
3978.000	0.63262	-0.02387	0.32818	0.04377
3979.000	0.61285	-0.02984	0.33806	0.05371
3980.000	0.66227	-0.05769	0.36376	0.05172
3981.000	0.67017	-0.01989	0.30643	0.03979
3982.000	0.61680	-0.01194	0.33213	-0.00597
3983.000	0.66227	-0.03979	0.34795	0.04973
3984.000	0.63064	0.00398	0.36376	0.02586
3985.000	0.59506	-0.00995	0.33411	0.03581
3986.000	0.65238	-0.05570	0.34004	-0.02984
3987.000	0.62471	-0.02984	0.34993	0.00597
3988.000	0.61087	0.00597	0.34004	0.00398
3989.000	0.60692	0.01790	0.32027	0.05968
3990.000	0.59703	0.00398	0.32027	0.04178
3991.000	0.61285	-0.00597	0.30643	0.00796
3992.000	0.61285	-0.03382	0.35190	0.05769
3993.000	0.62273	-0.01393	0.31434	0.00597
3994.000	0.64645	0.01989	0.32620	0.02387
3995.000	0.64448	0.04973	0.35190	0.02586
3996.000	0.64448	0.02785	0.34399	0.05371
3997.000	0.66820	0.03183	0.34993	0.02387
3998.000	0.67610	0.04178	0.34004	0.01790
3999.000	0.64843	0.04973	0.32225	0.00597
4000.000	0.65634	0.00796	0.34004	0.01393
4001.000	0.68203	-0.00199	0.32225	0.04576
4002.000	0.66820	0.02984	0.35783	0.02387
4003.000	0.63657	0.00995	0.35981	0.05570
4004.000	0.65634	0.02984	0.32620	0.05968
4005.000	0.69389	0.04376	0.33016	0.05570
4006.000	0.66029	0.04575	0.28469	0.07162
4007.000	0.63657	0.04376	0.28864	0.04178
4008.000	0.64645	0.08554	0.28073	0.01592
4009.000	0.63855	0.03581	0.27480	0.04178
4010.000	0.68006	0.05968	0.28666	0.03183
4011.000	0.65041	0.10145	0.30050	0.01194
4012.000	0.64250	0.06565	0.28073	0.01790
4013.000	0.68401	0.05968	0.32620	-0.00398
4014.000	0.66227	0.04973	0.32027	0.00995
4015.000	0.64052	0.05570	0.29457	0.00000
4016.000	0.68401	0.05769	0.30643	0.01194
4017.000	0.68796	0.06565	0.29655	0.00995
4018.000	0.67017	0.01591	0.28864	0.02984
4019.000	0.69982	0.01790	0.28073	0.00995
4020.000	0.67610	0.05570	0.27085	0.05371
4021.000	0.68796	0.00995	0.28864	0.00796
4022.000	0.66424	0.02387	0.28666	0.07560
4023.000	0.66820	0.03382	0.26689	0.05172
4024.000	0.68203	0.03979	0.25701	0.05968
4025.000	0.69192	0.03581	0.27876	0.04377
4026.000	0.68006	0.01393	0.30643	0.02387
4027.000	0.68599	0.04575	0.27876	0.02188
4028.000	0.66622	0.03183	0.28666	0.04178
4029.000	0.68401	0.05968	0.27876	0.03382
4030.000	0.64250	0.11936	0.26689	0.03581
4031.000	0.65436	0.00597	0.28666	0.00796
4032.000	0.65634	0.02188	0.31236	0.08952
4033.000	0.65634	0.01393	0.29655	0.04775
4034.000	0.66029	0.06167	0.27085	0.06963
4035.000	0.64250	0.02984	0.31236	0.07759
4036.000	0.63657	0.05371	0.24910	0.09748
4037.000	0.67017	0.04575	0.28073	0.07162
4038.000	0.64052	0.05371	0.24712	0.00199
4039.000	0.65041	0.01989	0.27282	0.06167
4040.000	0.67215	0.02188	0.26492	0.08554
4041.000	0.67215	0.02387	0.24317	0.08554
4042.000	0.67610	0.07559	0.26689	0.06764
4043.000	0.67413	0.05570	0.26492	0.08554
4044.000	0.67215	0.07559	0.23724	0.02387
4045.000	0.69587	0.04575	0.27282	0.06366
4046.000	0.68796	0.06764	0.26096	0.09549
4047.000	0.67610	0.02785	0.28271	0.07361
4048.000	0.64645	-0.01790	0.28469	0.05769
4049.000	0.67413	0.01591	0.28666	0.10345
4050.000	0.65041	0.04774	0.26096	0.10345
4051.000	0.63855	-0.00597	0.27876	0.06963
4052.000	0.68203	0.01790	0.27876	0.08554
4053.000	0.64843	-0.01194	0.27876	0.06963
4054.000	0.67215	0.02785	0.26096	0.05769
4055.000	0.66622	-0.01790	0.25899	0.10544
4056.000	0.67610	0.00796	0.29062	0.04377
4057.000	0.68203	0.03979	0.25701	0.03581
4058.000	0.65238	0.07559	0.25305	0.04377
4059.000	0.69982	0.03183	0.27085	0.05968
4060.000	0.69389	0.04973	0.25899	0.06167
4061.000	0.64052	0.04376	0.26294	0.05371
4062.000	0.68203	0.03780	0.26887	0.04178
4063.000	0.63262	0.03382	0.25108	0.09947
4064.000	0.66820	0.04575	0.26689	0.05769
4065.000	0.64843	0.01393	0.29259	0.07759
4066.000	0.67017	0.02984	0.26887	0.08554
4067.000	0.64448	0.01790	0.29655	0.04576
4068.000	0.66622	0.01790	0.26096	0.03780
4069.000	0.64645	0.02387	0.26689	0.06366
4070.000	0.66227	0.05769	0.26689	0.06366
4071.000	0.68006	0.05968	0.27085	0.03979
4072.000	0.68994	0.05570	0.26294	0.03581
4073.000	0.65436	0.02785	0.28469	0.06366
4074.000	0.66622	0.02188	0.25108	0.03183
4075.000	0.64843	0.05172	0.26887	0.08554
4076.000	0.67017	0.00597	0.27480	0.05769
4077.000	0.65041	0.02387	0.25899	0.06366
4078.000	0.67610	-0.01989	0.26689	0.08157
4079.000	0.66424	0.04575	0.27282	0.04974
4080.000	0.68796	0.06167	0.26689	0.06764
4081.000	0.67610	0.05968	0.28666	0.08157
4082.000	0.68203	0.07758	0.26294	0.04576
4083.000	0.65041	0.00597	0.29062	0.09549
4084.000	0.64052	0.00000	0.26492	0.05570
4085.000	0.66227	0.01591	0.27678	0.07361
4086.000	0.66622	0.00398	0.30643	0.04775
4087.000	0.63855	0.00000	0.26887	0.01790
4088.000	0.64645	0.00398	0.25503	0.07162
4089.000	0.66424	0.02984	0.28271	0.02984
4090.000	0.64645	0.00796	0.30643	0.06963
4091.000	0.68401	0.01989	0.25305	0.08952
4092.000	0.65831	0.00000	0.26689	0.09748
4093.000	0.67610	-0.00597	0.30446	0.06366
4094.000	0.66622	0.04973	0.32225	0.06167
4095.000	0.66227	-0.02984	0.27876	0.05769
4096.000	0.65831	0.00995	0.31236	0.06167
4097.000	0.70180	0.00995	0.29852	0.04377
4098.000	0.65238	0.02387	0.26689	0.05769
4099.000	0.67610	0.03382	0.26689	0.06963
4100.000	0.66424	0.00995	0.28666	0.03780
4101.000	0.64843	-0.01790	0.27876	0.01989
4102.000	0.64843	0.02586	0.28271	0.07759
4103.000	0.65436	0.00995	0.28469	0.07958
4104.000	0.66424	0.04575	0.31039	0.08554
4105.000	0.68401	-0.03183	0.30643	0.05172
4106.000	0.67215	0.01591	0.29062	0.06366
4107.000	0.68203	0.01393	0.29259	0.09748
4108.000	0.68006	-0.01790	0.32027	0.04178
4109.000	0.67017	-0.00597	0.28073	0.07361
4110.000	0.65436	0.00000	0.28271	0.04974
4111.000	0.69587	0.01393	0.28469	0.05371
4112.000	0.67808	0.00398	0.25503	0.03780
4113.000	0.68006	0.03382	0.27085	0.04576
4114.000	0.70971	0.02387	0.24712	0.04377
4115.000	0.67017	0.05172	0.26887	0.03382
4116.000	0.65238	0.01989	0.27678	0.05371
4117.000	0.69192	0.03183	0.25899	0.04775
4118.000	0.66424	-0.01790	0.29062	0.07162
4119.000	0.69587	0.01989	0.29259	0.00995
4120.000	0.66029	-0.00796	0.32422	0.03183
4121.000	0.64843	0.02188	0.27480	0.09151
4122.000	0.65238	0.02188	0.30841	0.04178
4123.000	0.67017	0.03581	0.31236	0.04178
4124.000	0.64645	-0.00398	0.27282	0.04775
4125.000	0.65041	-0.01194	0.31632	0.05172
4126.000	0.68203	0.00199	0.27678	0.03382
4127.000	0.71168	-0.01989	0.26887	0.08356
4128.000	0.68599	0.00398	0.27876	0.08356
4129.000	0.69192	0.00398	0.30248	0.03581
4130.000	0.64448	-0.03780	0.30643	0.03382
4131.000	0.70378	0.01591	0.33213	0.04377
4132.000	0.70971	-0.03780	0.27480	0.08157
4133.000	0.69587	-0.01194	0.27876	0.07361
4134.000	0.65831	-0.04774	0.30643	0.01592
4135.000	0.68994	-0.02785	0.29457	0.05769
4136.000	0.68006	0.00796	0.25503	0.05968
4137.000	0.70575	-0.01194	0.30050	0.02785
4138.000	0.70575	-0.01790	0.31632	0.07162
4139.000	0.68006	-0.01790	0.32422	0.05769
4140.000	0.71564	-0.00995	0.29259	0.09748
4141.000	0.71761	-0.03581	0.30248	0.05769
4142.000	0.67808	-0.02785	0.33609	0.05371
4143.000	0.68796	-0.02387	0.30841	0.08356
4144.000	0.67413	-0.02387	0.32422	0.08355
4145.000	0.71366	-0.02586	0.31632	0.06963
4146.000	0.66820	-0.02785	0.32225	0.04775
4147.000	0.66820	-0.08753	0.31829	0.05968
4148.000	0.69785	-0.03979	0.30446	0.06963
4149.000	0.67017	-0.03979	0.28666	0.02984
4150.000	0.67413	-0.00199	0.31039	0.01592
4151.000	0.69389	0.00199	0.26492	0.07759
4152.000	0.72157	-0.02984	0.31434	0.03183
4153.000	0.72552	0.01194	0.30050	0.05570
4154.000	0.69587	-0.02785	0.33016	0.04377
4155.000	0.69389	-0.00995	0.32422	0.06764
4156.000	0.74924	-0.00796	0.31632	0.02387
4157.000	0.68796	-0.04774	0.31434	0.05570
4158.000	0.70575	-0.02387	0.30050	0.03382
4159.000	0.71366	0.00796	0.29259	0.06366
4160.000	0.69192	-0.01194	0.32422	0.10942
4161.000	0.72750	-0.04575	0.34202	0.08952
4162.000	0.70180	-0.04774	0.31829	0.07958
4163.000	0.67017	-0.02785	0.33411	0.06764
4164.000	0.67413	-0.06167	0.29062	0.05968
4165.000	0.68994	-0.02387	0.32620	0.07958
4166.000	0.68401	-0.03780	0.33411	0.07759
4167.000	0.68401	-0.05769	0.30841	0.07361
4168.000	0.67610	-0.05371	0.32422	0.08355
4169.000	0.71168	-0.06565	0.34399	0.02984
4170.000	0.70773	-0.08952	0.33016	0.03979
4171.000	0.70971	-0.08753	0.34399	0.01790
4172.000	0.67610	-0.08952	0.32225	0.00199
4173.000	0.72354	-0.05570	0.31434	0.05371
4174.000	0.67413	-0.07360	0.32422	0.06167
4175.000	0.70180	-0.07559	0.32027	-0.01592
4176.000	0.72552	-0.05172	0.34993	0.05570
4177.000	0.69587	-0.05371	0.30841	0.06366
4178.000	0.68006	-0.03382	0.29852	0.02785
4179.000	0.71168	-0.06764	0.29655	0.04576
4180.000	0.70378	-0.08156	0.32225	0.04178
4181.000	0.65041	-0.07758	0.30446	0.06565
4182.000	0.73145	-0.03780	0.31829	0.04775
4183.000	0.66820	-0.04774	0.31236	0.04576
4184.000	0.72750	-0.07161	0.30446	0.03581
4185.000	0.68203	-0.02785	0.29062	0.02785
4186.000	0.72354	-0.09747	0.30050	0.00796
4187.000	0.72552	-0.04774	0.32027	0.01592
4188.000	0.70773	-0.04177	0.32225	0.06366
4189.000	0.71761	-0.01989	0.29655	0.02785
4190.000	0.74331	-0.04376	0.27282	0.05570
4191.000	0.73343	-0.06167	0.30841	0.00597
4192.000	0.70378	-0.06366	0.29655	0.00597
4193.000	0.74726	-0.07559	0.30643	0.04576
4194.000	0.70575	-0.06366	0.26294	0.00597
4195.000	0.68796	-0.05570	0.33806	0.03581
4196.000	0.71564	-0.05371	0.29062	0.03382
4197.000	0.74726	-0.03183	0.30446	-0.01989
4198.000	0.71168	-0.08355	0.30643	-0.01393
4199.000	0.72157	-0.05570	0.33016	0.03183
4200.000	0.72552	-0.07559	0.29457	0.01194
4201.000	0.70773	-0.07360	0.31039	-0.02586
4202.000	0.72947	-0.08156	0.32620	0.02785
4203.000	0.70773	-0.07758	0.31236	0.04178
4204.000	0.71168	-0.07758	0.33411	0.02387
4205.000	0.71564	-0.05769	0.30248	0.02984
4206.000	0.76308	-0.05769	0.30841	0.02984
4207.000	0.70575	-0.06764	0.33411	0.03979
4208.000	0.75715	-0.06763	0.33016	0.07162
4209.000	0.71168	-0.07957	0.31039	0.00199
4210.000	0.71366	-0.04177	0.34202	0.07958
4211.000	0.69389	-0.07360	0.32620	0.07162
4212.000	0.73145	-0.02387	0.32620	0.06167
4213.000	0.73738	-0.05371	0.32422	0.00199
4214.000	0.73145	-0.07957	0.33213	0.04178
4215.000	0.69192	-0.08952	0.28864	0.04178
4216.000	0.71761	-0.08355	0.34202	0.01393
4217.000	0.70773	-0.03581	0.31434	0.04377
4218.000	0.73343	-0.07161	0.29259	0.09748
4219.000	0.71564	-0.09151	0.30841	0.05968
4220.000	0.69982	-0.09549	0.33213	0.02785
4221.000	0.69587	-0.07161	0.30643	0.00000
4222.000	0.73738	-0.06366	0.27085	0.10743
4223.000	0.73738	-0.05371	0.29852	0.04775
4224.000	0.73738	-0.04774	0.29457	0.06963
4225.000	0.71168	-0.06565	0.28073	0.06764
4226.000	0.76703	-0.02188	0.32225	0.10146
4227.000	0.71959	-0.06764	0.32027	0.08753
4228.000	0.73343	-0.08355	0.31236	0.07162
4229.000	0.70971	-0.06565	0.31829	0.06366
4230.000	0.72552	-0.02387	0.33213	0.07162
4231.000	0.74726	-0.02984	0.33016	0.03780
4232.000	0.75319	-0.04177	0.31829	0.06963
4233.000	0.73145	-0.04973	0.32818	0.04775
4234.000	0.73540	-0.04774	0.31829	0.04377
4235.000	0.73738	-0.06764	0.32422	0.06167
4236.000	0.73936	-0.07758	0.33016	0.04178
4237.000	0.76703	-0.01591	0.35783	0.05371
4238.000	0.73540	-0.06962	0.33411	0.05371
4239.000	0.78877	-0.06962	0.33016	0.06764
4240.000	0.79668	-0.09548	0.30643	0.08554
4241.000	0.75517	-0.05172	0.30050	0.07958
4242.000	0.78087	-0.03780	0.31236	0.07759
4243.000	0.79470	-0.05769	0.31632	0.08554
4244.000	0.75912	-0.07957	0.33411	0.10942
4245.000	0.78482	-0.08554	0.32225	0.12334
4246.000	0.75715	-0.05172	0.34202	0.09350
4247.000	0.75122	-0.08753	0.30446	0.06565
4248.000	0.73145	-0.10941	0.33213	0.05570
4249.000	0.76505	-0.04774	0.30643	0.10743
4250.000	0.76110	-0.08156	0.32422	0.08157
4251.000	0.75715	-0.05968	0.31632	0.09947
4252.000	0.74529	-0.08554	0.32818	0.10345
4253.000	0.72750	-0.11140	0.32225	0.03183
4254.000	0.73936	-0.13129	0.31039	0.09947
4255.000	0.76308	-0.11140	0.32422	0.08952
4256.000	0.75715	-0.13129	0.33411	0.12334
4257.000	0.76110	-0.14124	0.33016	0.05570
4258.000	0.74133	-0.07161	0.30446	0.09350
4259.000	0.72750	-0.13328	0.32027	0.08157
4260.000	0.73145	-0.12333	0.29852	0.09549
4261.000	0.76703	-0.15914	0.30248	0.08554
4262.000	0.74924	-0.11140	0.30841	0.11936
4263.000	0.74924	-0.09747	0.32620	0.15119
4264.000	0.71564	-0.08554	0.29259	0.13926
4265.000	0.75912	-0.12134	0.32027	0.15915
4266.000	0.75715	-0.11140	0.28073	0.11340
4267.000	0.74726	-0.11737	0.32225	0.14722
4268.000	0.71761	-0.12532	0.33411	0.10942
4269.000	0.71959	-0.11140	0.30248	0.10743
4270.000	0.75319	-0.14323	0.33016	0.12931
4271.000	0.76901	-0.11737	0.30446	0.10146
4272.000	0.73145	-0.13328	0.31632	0.08753
4273.000	0.71564	-0.11936	0.34202	0.11539
4274.000	0.75715	-0.12134	0.30446	0.08554
4275.000	0.75912	-0.12532	0.32818	0.11539
4276.000	0.72157	-0.10742	0.34597	0.09350
4277.000	0.72552	-0.15118	0.30643	0.18700
4278.000	0.70773	-0.11140	0.34399	0.13926
4279.000	0.76110	-0.13726	0.30050	0.16711
4280.000	0.73738	-0.14721	0.32422	0.19098
4281.000	0.73936	-0.12135	0.34795	0.14920
4282.000	0.75319	-0.12532	0.29655	0.12334
4283.000	0.75912	-0.12134	0.31632	0.17308
4284.000	0.74924	-0.09548	0.29852	0.12732
4285.000	0.75517	-0.16710	0.31829	0.17905
4286.000	0.70378	-0.09350	0.32027	0.18700
4287.000	0.75517	-0.09548	0.30050	0.15119
4288.000	0.72552	-0.15715	0.33411	0.16910
4289.000	0.73145	-0.13129	0.31829	0.16313
4290.000	0.70180	-0.10543	0.33213	0.17905
4291.000	0.73540	-0.11339	0.31434	0.16910
4292.000	0.73145	-0.10344	0.31434	0.16114
4293.000	0.70773	-0.11538	0.34202	0.19098
4294.000	0.72354	-0.14323	0.30841	0.14523
4295.000	0.72552	-0.11538	0.30841	0.17905
4296.000	0.73540	-0.09946	0.34795	0.20690
4297.000	0.74133	-0.14919	0.29259	0.15517
4298.000	0.71168	-0.13328	0.30050	0.20093
4299.000	0.77098	-0.09349	0.32620	0.18501
4300.000	0.73145	-0.16511	0.30841	0.18104
4301.000	0.72354	-0.12930	0.33806	0.14523
4302.000	0.76110	-0.13925	0.31434	0.16512
4303.000	0.72157	-0.15516	0.30841	0.18302
4304.000	0.75912	-0.12333	0.31632	0.19695
4305.000	0.72750	-0.13726	0.32422	0.19098
4306.000	0.68599	-0.14124	0.32422	0.14523
4307.000	0.72157	-0.16710	0.34004	0.16512
4308.000	0.75319	-0.09946	0.33806	0.17706
4309.000	0.71959	-0.12135	0.29655	0.20292
4310.000	0.78482	-0.09151	0.30643	0.15716
4311.000	0.70773	-0.12334	0.31632	0.18501
4312.000	0.75122	-0.10145	0.31632	0.19894
4313.000	0.73540	-0.10742	0.32818	0.22480
4314.000	0.74924	-0.14522	0.31236	0.15915
4315.000	0.76110	-0.14919	0.34399	0.21684
4316.000	0.77296	-0.11538	0.29259	0.21287
4317.000	0.73343	-0.12135	0.33213	0.22679
4318.000	0.72750	-0.09549	0.32818	0.20690
4319.000	0.72354	-0.08952	0.32818	0.19297
4320.000	0.74529	-0.13726	0.31039	0.15517
4321.000	0.78087	-0.15317	0.31434	0.18501
4322.000	0.73540	-0.15715	0.33411	0.16313
4323.000	0.74726	-0.12930	0.31039	0.20491
4324.000	0.75912	-0.09151	0.30841	0.20690
4325.000	0.78877	-0.10543	0.32225	0.15915
4326.000	0.74924	-0.10543	0.27480	0.18899
4327.000	0.78680	-0.12731	0.33609	0.19894
4328.000	0.74726	-0.14323	0.31434	0.19695
4329.000	0.74529	-0.18102	0.34202	0.20093
4330.000	0.74133	-0.14522	0.30643	0.20690
4331.000	0.77098	-0.14124	0.32620	0.19098
4332.000	0.75122	-0.12135	0.33016	0.20292
4333.000	0.76505	-0.12333	0.31632	0.22480
4334.000	0.73540	-0.13527	0.32818	0.18700
4335.000	0.71564	-0.11140	0.32422	0.16512
4336.000	0.74133	-0.11538	0.34597	0.23674
4337.000	0.76308	-0.12134	0.27876	0.20093
4338.000	0.72552	-0.10145	0.34004	0.21684
4339.000	0.74133	-0.11339	0.30446	0.19496
4340.000	0.75319	-0.05371	0.34993	0.20491
4341.000	0.78087	-0.05570	0.31434	0.20889
4342.000	0.71564	-0.06962	0.33806	0.18700
4343.000	0.74133	-0.06764	0.32027	0.19894
4344.000	0.79668	-0.08156	0.30643	0.19496
4345.000	0.74331	-0.09350	0.31236	0.15517
4346.000	0.80063	-0.07957	0.33609	0.18501
4347.000	0.76703	-0.10344	0.33609	0.20690
4348.000	0.75319	-0.05371	0.33213	0.20292
4349.000	0.76703	-0.13925	0.32225	0.23077
4350.000	0.79273	-0.10742	0.32225	0.22878
4351.000	0.78087	-0.06366	0.32027	0.22480
4352.000	0.77494	-0.11737	0.33016	0.22082
4353.000	0.75912	-0.10941	0.32225	0.21088
4354.000	0.79866	-0.06962	0.31039	0.24669
4355.000	0.80656	-0.07360	0.33016	0.20491
4356.000	0.77889	-0.08753	0.34202	0.19695
4357.000	0.74924	-0.05769	0.32818	0.21684
4358.000	0.73738	-0.07758	0.31039	0.23475
4359.000	0.77098	-0.07360	0.32225	0.22878
4360.000	0.75715	-0.05769	0.34399	0.21684
4361.000	0.78284	-0.02387	0.31829	0.20491
4362.000	0.76308	-0.05769	0.31632	0.24271
4363.000	0.78482	-0.04973	0.32422	0.22082
4364.000	0.76505	-0.04177	0.28864	0.23475
4365.000	0.77494	-0.08156	0.32422	0.23674
4366.000	0.75319	-0.08355	0.33016	0.22878
4367.000	0.79470	-0.02984	0.32620	0.21287
4368.000	0.74924	-0.11339	0.32225	0.21485
4369.000	0.74133	-0.09946	0.32620	0.22878
4370.000	0.78680	-0.06366	0.32422	0.21684
4371.000	0.77494	-0.07758	0.32620	0.22480
4372.000	0.78284	-0.10543	0.33411	0.25862
4373.000	0.71761	-0.03979	0.32422	0.29443
4374.000	0.74331	-0.06764	0.32818	0.20889
4375.000	0.73738	-0.08355	0.32620	0.22281
4376.000	0.76703	-0.07559	0.31236	0.27056
4377.000	0.77494	-0.04575	0.30841	0.22480
4378.000	0.79273	-0.10941	0.31434	0.23276
4379.000	0.76308	-0.06366	0.31632	0.22679
4380.000	0.79273	-0.05769	0.32818	0.23077
4381.000	0.76308	-0.06763	0.32422	0.21684
4382.000	0.76703	-0.05968	0.30446	0.24470
4383.000	0.79273	-0.06962	0.30050	0.22878
4384.000	0.74726	-0.06565	0.32225	0.23475
4385.000	0.74924	-0.04376	0.30643	0.22082
4386.000	0.76505	-0.02984	0.29655	0.24470
4387.000	0.74726	-0.07360	0.33411	0.27255
4388.000	0.76308	-0.07559	0.30841	0.22878
4389.000	0.74924	-0.06962	0.30050	0.27454
4390.000	0.74529	-0.05570	0.31632	0.22679
4391.000	0.72750	-0.07758	0.32027	0.26658
4392.000	0.74331	-0.06764	0.29852	0.25066
4393.000	0.74331	-0.10543	0.33213	0.24072
4394.000	0.74924	-0.09747	0.32422	0.23077
4395.000	0.76110	-0.06962	0.34004	0.23276
4396.000	0.75912	-0.07161	0.29259	0.22281
4397.000	0.76110	-0.08355	0.32225	0.23475
4398.000	0.71564	-0.12135	0.31632	0.21684
4399.000	0.78284	-0.07758	0.31236	0.27255
4400.000	0.77494	-0.08156	0.29259	0.26061
4401.000	0.73738	-0.08554	0.26294	0.25265
4402.000	0.76308	-0.06763	0.32818	0.23873
4403.000	0.76901	-0.01989	0.32225	0.24072
4404.000	0.75715	-0.06366	0.32818	0.24072
4405.000	0.73540	-0.05968	0.27678	0.26857
4406.000	0.76110	-0.02984	0.31632	0.27851
4407.000	0.74529	-0.06962	0.27876	0.27255
4408.000	0.76703	-0.04177	0.33016	0.25862
4409.000	0.76110	-0.09350	0.29062	0.27454
4410.000	0.73738	-0.09548	0.31039	0.25265
4411.000	0.76110	-0.10344	0.28666	0.22281
4412.000	0.73540	-0.10145	0.34004	0.22281
4413.000	0.76703	-0.06763	0.31236	0.24668
4414.000	0.75319	-0.03780	0.30643	0.24470
4415.000	0.74924	-0.08753	0.29457	0.28249
4416.000	0.77889	-0.06962	0.28469	0.24470
4417.000	0.77691	-0.06962	0.29457	0.27454
4418.000	0.75319	-0.06962	0.30248	0.26459
4419.000	0.76703	-0.08952	0.32620	0.26260
4420.000	0.74529	-0.08156	0.28073	0.26658
4421.000	0.74529	-0.09747	0.29062	0.29642
4422.000	0.73738	-0.06167	0.30248	0.24867
4423.000	0.74133	-0.08753	0.27085	0.30637
4424.000	0.71761	-0.11538	0.29259	0.25066
4425.000	0.76110	-0.08355	0.29655	0.27454
4426.000	0.73540	-0.08554	0.30050	0.28050
4427.000	0.75912	-0.05968	0.27282	0.25663
4428.000	0.73343	-0.05371	0.29852	0.25265
4429.000	0.76901	-0.08753	0.29655	0.29642
4430.000	0.71366	-0.11936	0.25305	0.28448
4431.000	0.74726	-0.11339	0.27876	0.28249
4432.000	0.73936	-0.12731	0.28469	0.31631
4433.000	0.76703	-0.06366	0.30050	0.31631
4434.000	0.74726	-0.06962	0.29655	0.28448
4435.000	0.72947	-0.10742	0.30446	0.30239
4436.000	0.74529	-0.09946	0.26492	0.29045
4437.000	0.72750	-0.09946	0.29457	0.31432
4438.000	0.74133	-0.14721	0.26689	0.29045
4439.000	0.75122	-0.08952	0.29062	0.27454
4440.000	0.76901	-0.10941	0.28073	0.31035
4441.000	0.76110	-0.08952	0.25305	0.30239
4442.000	0.74331	-0.05570	0.28666	0.31631
4443.000	0.75517	-0.08952	0.25503	0.28249
4444.000	0.75517	-0.08753	0.27876	0.30438
4445.000	0.75517	-0.08952	0.26294	0.28846
4446.000	0.75715	-0.06763	0.27876	0.34416
4447.000	0.75319	-0.02984	0.27480	0.28448
4448.000	0.76308	-0.05968	0.29457	0.33621
4449.000	0.71168	-0.09747	0.25108	0.35411
4450.000	0.71761	-0.09747	0.27876	0.34019
4451.000	0.76110	-0.06366	0.29062	0.30040
4452.000	0.72552	-0.11538	0.30446	0.29244
4453.000	0.74133	-0.07559	0.28073	0.33223
4454.000	0.75122	-0.08355	0.27678	0.31631
4455.000	0.73540	-0.09946	0.30446	0.33223
4456.000	0.76703	-0.09747	0.27282	0.34218
4457.000	0.70773	-0.13129	0.29062	0.30239
4458.000	0.77296	-0.09946	0.30643	0.33024
4459.000	0.76110	-0.05968	0.31236	0.32228
4460.000	0.73145	-0.08554	0.29457	0.31830
4461.000	0.71761	-0.10941	0.27282	0.30239
4462.000	0.72157	-0.11936	0.29457	0.30836
4463.000	0.74726	-0.13129	0.29062	0.33223
4464.000	0.69192	-0.08355	0.28271	0.33223
4465.000	0.70180	-0.13726	0.29655	0.31233
4466.000	0.72947	-0.10543	0.28864	0.33223
4467.000	0.74924	-0.11339	0.27678	0.32029
4468.000	0.74924	-0.12135	0.27480	0.34416
4469.000	0.70773	-0.08753	0.27085	0.33024
4470.000	0.72552	-0.13925	0.25899	0.36406
4471.000	0.73738	-0.10742	0.30050	0.35610
4472.000	0.70773	-0.09946	0.24712	0.33621
4473.000	0.68401	-0.12533	0.27480	0.34416
4474.000	0.72750	-0.12532	0.25108	0.33024
4475.000	0.73145	-0.11339	0.26294	0.35411
4476.000	0.73145	-0.11538	0.30248	0.36406
4477.000	0.75319	-0.10145	0.25899	0.34814
4478.000	0.73343	-0.13925	0.25899	0.38594
4479.000	0.68203	-0.12731	0.27678	0.35411
4480.000	0.76308	-0.09151	0.29655	0.33422
4481.000	0.73738	-0.08554	0.26096	0.36008
4482.000	0.72552	-0.11339	0.25503	0.34814
4483.000	0.71168	-0.10742	0.28864	0.36804
4484.000	0.74331	-0.09548	0.28469	0.37003
4485.000	0.72552	-0.10742	0.29062	0.42374
4486.000	0.72552	-0.06167	0.27876	0.38793
4487.000	0.73738	-0.13527	0.28864	0.35212
4488.000	0.68994	-0.09350	0.26492	0.38793
4489.000	0.69785	-0.10543	0.26096	0.39987
4490.000	0.71168	-0.10543	0.28864	0.35809
4491.000	0.71761	-0.07957	0.26887	0.38793
4492.000	0.71564	-0.14721	0.27678	0.35411
4493.000	0.69587	-0.12135	0.29655	0.36008
4494.000	0.75517	-0.11936	0.31039	0.33422
4495.000	0.68203	-0.09946	0.27480	0.36804
4496.000	0.73343	-0.11737	0.29655	0.42374
4497.000	0.76110	-0.09151	0.29852	0.39191
4498.000	0.73738	-0.11936	0.29259	0.36406
4499.000	0.72552	-0.12135	0.27085	0.35212
4500.000	0.70971	-0.11737	0.31236	0.36605
4501.000	0.70575	-0.15317	0.30446	0.37997
4502.000	0.71366	-0.16113	0.30643	0.40384
4503.000	0.72354	-0.15914	0.27085	0.38992
4504.000	0.68796	-0.15516	0.29457	0.40583
4505.000	0.72157	-0.15118	0.27282	0.38793
4506.000	0.75912	-0.14522	0.32225	0.33422
4507.000	0.71959	-0.11538	0.30446	0.35809
4508.000	0.72354	-0.17506	0.30446	0.37798
4509.000	0.73540	-0.11140	0.31829	0.34217
4510.000	0.71959	-0.16113	0.30446	0.40782
4511.000	0.72750	-0.17903	0.27480	0.42175
4512.000	0.70378	-0.15119	0.27678	0.37798
4513.000	0.68599	-0.17506	0.28073	0.37201
4514.000	0.72552	-0.14920	0.30643	0.37599
4515.000	0.69982	-0.18301	0.27480	0.40186
4516.000	0.71564	-0.19296	0.26887	0.37202
4517.000	0.68401	-0.20689	0.27282	0.37400
4518.000	0.66622	-0.16312	0.28666	0.37798
4519.000	0.69982	-0.21484	0.30841	0.36008
4520.000	0.70180	-0.16909	0.26492	0.33820
4521.000	0.69785	-0.17108	0.26887	0.33820
4522.000	0.68599	-0.16909	0.25503	0.34417
4523.000	0.69192	-0.15715	0.26096	0.35013
4524.000	0.69389	-0.16113	0.26492	0.30836
4525.000	0.71564	-0.21882	0.25701	0.30438
4526.000	0.71366	-0.20490	0.26294	0.36207
4527.000	0.69389	-0.19296	0.25701	0.31035
4528.000	0.70180	-0.16710	0.25305	0.35610
4529.000	0.69785	-0.21683	0.25701	0.33223
4530.000	0.69389	-0.19893	0.27876	0.33223
4531.000	0.69785	-0.17506	0.23724	0.33223
4532.000	0.69982	-0.21484	0.29259	0.26658
4533.000	0.72157	-0.20092	0.25108	0.35610
4534.000	0.70971	-0.16710	0.22933	0.34019
4535.000	0.71564	-0.15715	0.26096	0.32228
4536.000	0.74133	-0.22678	0.21747	0.35610
4537.000	0.72157	-0.15118	0.23329	0.34417
4538.000	0.78482	-0.17306	0.21549	0.35610
4539.000	0.75912	-0.15914	0.23131	0.34615
4540.000	0.75122	-0.18301	0.24515	0.33820
4541.000	0.74529	-0.20092	0.23526	0.32029
4542.000	0.72354	-0.20489	0.24119	0.34417
4543.000	0.73145	-0.21882	0.25701	0.30438
4544.000	0.71761	-0.19694	0.22735	0.34417
4545.000	0.73540	-0.20688	0.23329	0.32029
4546.000	0.70180	-0.18699	0.26887	0.30836
4547.000	0.68994	-0.19495	0.23526	0.31631
4548.000	0.69982	-0.20689	0.25305	0.34417
4549.000	0.70575	-0.19893	0.21549	0.30438
4550.000	0.68994	-0.19694	0.22340	0.36605
4551.000	0.69982	-0.17705	0.24910	0.30438
4552.000	0.73738	-0.19694	0.23329	0.36406
4553.000	0.68203	-0.18898	0.23724	0.34218
4554.000	0.71761	-0.20688	0.23329	0.37798
4555.000	0.68796	-0.17108	0.22142	0.32825
