time (ms)	lx (deg)	ly (deg)	rx (deg)	ry (deg)
0.000	0.90342	-0.17107	0.02372	0.10544
1.000	0.90737	-0.17704	0.07710	0.12533
2.000	0.89551	-0.13526	0.07117	0.14722
3.000	0.90934	-0.12532	0.06326	0.13130
4.000	0.92713	-0.13526	0.05140	0.16114
5.000	0.88958	-0.12731	0.05536	0.12533
6.000	0.86586	-0.13527	0.06326	0.08754
7.000	0.94097	-0.16908	0.06129	0.09350
8.000	0.95480	-0.09946	0.06722	0.13926
9.000	0.96073	-0.12532	0.05140	0.10146
10.000	0.90539	-0.13725	0.02768	0.04974
11.000	0.95085	-0.08951	0.07117	0.05371
12.000	0.98247	-0.12532	0.05536	0.09748
13.000	0.93504	-0.14919	0.06129	0.06366
14.000	0.93504	-0.16112	0.06722	0.13528
15.000	0.93899	-0.13526	0.07315	0.10345
16.000	0.93109	-0.11338	0.02768	0.16114
17.000	0.96864	-0.13327	0.05536	0.14722
18.000	0.96666	-0.11736	0.04152	0.12334
19.000	0.94492	-0.12333	0.05338	0.13727
20.000	0.92911	-0.04575	0.03756	0.10743
21.000	0.96469	-0.09946	0.04943	0.10345
22.000	0.97654	-0.11338	0.04152	0.18104
23.000	0.92516	-0.07161	0.03954	0.10942
24.000	0.92516	-0.09548	0.04349	0.15319
25.000	0.94295	-0.04774	0.08106	0.13528
26.000	0.93504	-0.09548	0.05931	0.12533
27.000	0.92713	-0.07957	0.02175	0.12533
28.000	0.94690	-0.09946	0.03756	0.10743
29.000	0.94295	-0.09150	0.02966	0.09947
30.000	0.96864	-0.06763	0.03954	0.18502
31.000	0.92318	-0.09349	0.05140	0.12334
32.000	0.93306	-0.08951	0.02768	0.08754
33.000	0.93504	-0.14322	0.04349	0.14921
34.000	0.93306	-0.09150	0.06129	0.16114
35.000	0.94492	-0.12930	0.05338	0.14722
36.000	0.95480	-0.05371	0.04152	0.14324
37.000	0.93306	-0.10940	0.03559	0.12732
38.000	0.93306	-0.08752	0.05536	0.15518
39.000	0.91725	-0.08951	0.03361	0.16512
40.000	0.93306	-0.07559	0.02570	0.12334
41.000	0.95678	-0.13725	0.02966	0.15518
42.000	0.94690	-0.12333	0.01582	0.12732
43.000	0.93899	-0.15515	0.03361	0.14722
44.000	0.92516	-0.06365	0.01779	0.16114
45.000	0.95085	-0.14322	0.04943	0.18502
46.000	0.95283	-0.10543	0.05536	0.16910
47.000	0.93306	-0.12134	0.03954	0.14921
48.000	0.96271	-0.06962	0.02966	0.18303
49.000	0.95283	-0.10344	0.02768	0.14921
50.000	0.93702	-0.12134	0.06129	0.11937
51.000	0.96666	-0.09946	0.04152	0.14324
52.000	0.96271	-0.11736	0.03756	0.15717
53.000	0.95480	-0.06564	0.06326	0.11141
54.000	0.95085	-0.12731	0.02570	0.11340
55.000	0.93109	-0.14720	0.03954	0.15518
56.000	0.93702	-0.06564	0.04152	0.16313
57.000	0.96271	-0.15515	0.07513	0.14921
58.000	0.91923	-0.13327	0.03756	0.15717
59.000	0.95085	-0.13128	0.04745	0.17706
60.000	0.90737	-0.11139	0.03163	0.17109
61.000	0.93899	-0.13725	0.04547	0.14125
62.000	0.95876	-0.13725	0.01977	0.13926
63.000	0.95876	-0.10543	0.04745	0.16313
64.000	0.93702	-0.11139	0.06524	0.17109
65.000	0.92516	-0.11736	0.06524	0.17109
66.000	0.95283	-0.12134	0.04943	0.18303
67.000	0.92911	-0.13526	0.04943	0.18900
68.000	0.91132	-0.11736	0.04547	0.11539
69.000	0.93702	-0.08951	0.03559	0.11738
70.000	0.95480	-0.12333	0.03559	0.12931
71.000	0.95876	-0.09150	0.02768	0.11141
72.000	0.93899	-0.12333	0.04349	0.09151
73.000	0.94295	-0.13128	0.05536	0.11340
74.000	0.91527	-0.10940	0.05536	0.10942
75.000	0.91923	-0.13129	0.02966	0.11340
76.000	0.94887	-0.12532	0.00989	0.09151
77.000	0.92120	-0.17107	0.06129	0.10146
78.000	0.95085	-0.11537	0.05536	0.09947
79.000	0.92516	-0.12930	0.03163	0.09748
80.000	0.93504	-0.14919	0.06326	0.08754
81.000	0.91330	-0.13924	0.03559	0.12334
82.000	0.93306	-0.13924	0.04745	0.09350
83.000	0.94492	-0.12134	0.01186	0.09748
84.000	0.91330	-0.13129	0.02570	0.10743
85.000	0.94097	-0.10741	0.01582	0.13727
86.000	0.90539	-0.15317	0.05338	0.13528
87.000	0.93702	-0.10940	0.03559	0.10544
88.000	0.92911	-0.11338	0.04745	0.10544
89.000	0.92516	-0.12532	0.03559	0.08952
90.000	0.88958	-0.12333	0.01186	0.06764
91.000	0.91923	-0.13526	0.02372	0.09549
92.000	0.95085	-0.12532	0.03559	0.12334
93.000	0.93306	-0.10344	0.03163	0.06963
94.000	0.94887	-0.11338	0.04745	0.12732
95.000	0.95876	-0.10543	0.02175	0.08754
96.000	0.96666	-0.11338	0.00791	0.09947
97.000	0.94492	-0.09150	0.03559	0.15518
98.000	0.94097	-0.11537	0.01384	0.13130
99.000	0.94295	-0.12532	0.01384	0.09151
100.000	0.92516	-0.11338	0.07908	0.11937
101.000	0.96073	-0.13526	0.03361	0.11340
102.000	0.91923	-0.13526	0.01582	0.09549
103.000	0.90342	-0.14322	0.03163	0.12931
104.000	0.94295	-0.15714	0.01582	0.09947
105.000	0.91132	-0.16311	0.02966	0.10942
106.000	0.89156	-0.18102	0.04152	0.11738
107.000	0.90144	-0.13526	0.03954	0.12136
108.000	0.89353	-0.16311	0.02966	0.08157
109.000	0.91330	-0.16510	0.04547	0.14324
110.000	0.91527	-0.16311	0.05140	0.16313
111.000	0.88167	-0.15317	0.00000	0.14324
112.000	0.93109	-0.10940	0.00593	0.10146
113.000	0.88760	-0.16709	0.07315	0.13926
114.000	0.93306	-0.14123	0.04152	0.15120
115.000	0.92516	-0.19693	0.00989	0.11539
116.000	0.90342	-0.17903	0.04349	0.11539
117.000	0.89749	-0.15516	0.00791	0.14125
118.000	0.89749	-0.16311	0.02372	0.12732
119.000	0.90934	-0.12134	-0.01186	0.13727
120.000	0.93306	-0.14720	0.00593	0.11937
121.000	0.92911	-0.13725	0.00791	0.12931
122.000	0.90934	-0.16510	0.00000	0.13130
123.000	0.91725	-0.13725	-0.00791	0.15120
124.000	0.85598	-0.17505	-0.00989	0.08356
125.000	0.90737	-0.15317	-0.02175	0.13130
126.000	0.88365	-0.18102	0.01779	0.13329
127.000	0.90144	-0.19096	0.00000	0.13727
128.000	0.92713	-0.14123	0.00791	0.09151
129.000	0.88760	-0.15715	-0.00395	0.10942
130.000	0.89749	-0.12930	0.05140	0.09350
131.000	0.90144	-0.15118	0.01384	0.11937
132.000	0.86784	-0.15715	0.02372	0.16711
133.000	0.90934	-0.17903	0.04547	0.08555
134.000	0.92120	-0.15118	0.04152	0.16313
135.000	0.91725	-0.18897	0.01582	0.15120
136.000	0.90539	-0.18698	-0.00989	0.14324
137.000	0.90144	-0.14322	-0.00791	0.15319
138.000	0.91132	-0.17306	0.00989	0.12136
139.000	0.90934	-0.14720	0.01384	0.11738
140.000	0.90539	-0.13526	-0.00593	0.14722
141.000	0.90934	-0.14123	-0.01779	0.09947
142.000	0.90342	-0.16311	-0.02175	0.13130
143.000	0.90737	-0.17306	0.00198	0.11937
144.000	0.90539	-0.10543	-0.03756	0.12732
145.000	0.92911	-0.13129	-0.00593	0.11340
146.000	0.95678	-0.13924	-0.02372	0.13130
147.000	0.94097	-0.15317	0.02768	0.14324
148.000	0.91132	-0.14919	-0.01582	0.15915
149.000	0.93306	-0.11338	0.00791	0.09549
150.000	0.94492	-0.16709	0.01384	0.15120
151.000	0.90934	-0.14720	0.02966	0.14324
152.000	0.89353	-0.15516	0.00198	0.16910
153.000	0.87772	-0.13328	0.00395	0.13727
154.000	0.92120	-0.14123	-0.00593	0.14125
155.000	0.91330	-0.09946	-0.01186	0.13926
156.000	0.95085	-0.12532	-0.00989	0.16512
157.000	0.91132	-0.11338	0.00989	0.14921
158.000	0.89749	-0.13129	-0.03163	0.12136
159.000	0.94492	-0.17704	-0.02768	0.12334
160.000	0.89946	-0.12731	-0.03954	0.13329
161.000	0.87377	-0.13527	-0.02570	0.11141
162.000	0.89551	-0.19096	-0.01582	0.12334
163.000	0.92713	-0.14521	-0.00395	0.13130
164.000	0.89946	-0.13129	0.01384	0.12334
165.000	0.86586	-0.16311	-0.01582	0.09947
166.000	0.88167	-0.15914	-0.00395	0.08952
167.000	0.90144	-0.13328	0.02372	0.14324
168.000	0.89156	-0.07758	0.03361	0.10146
169.000	0.86586	-0.15914	-0.02570	0.18104
170.000	0.92911	-0.11935	-0.01779	0.13727
171.000	0.90539	-0.11935	-0.04349	0.12136
172.000	0.91725	-0.15317	-0.02768	0.14523
173.000	0.91923	-0.12930	-0.00989	0.12931
174.000	0.87970	-0.14521	0.00395	0.14523
175.000	0.85796	-0.14123	-0.03559	0.07759
176.000	0.92713	-0.12731	-0.01186	0.12732
177.000	0.91923	-0.10940	-0.01582	0.15717
178.000	0.87574	-0.12731	-0.01186	0.10146
179.000	0.90144	-0.12532	-0.06129	0.11340
180.000	0.84610	-0.15516	-0.04943	0.09350
181.000	0.88563	-0.12731	-0.06524	0.09748
182.000	0.91725	-0.10543	-0.03559	0.10345
183.000	0.87970	-0.11736	-0.02372	0.15120
184.000	0.87179	-0.13328	-0.03361	0.13727
185.000	0.88365	-0.12930	-0.04152	0.14324
186.000	0.87574	-0.16510	-0.03559	0.15717
187.000	0.89749	-0.12731	-0.06129	0.10942
188.000	0.89156	-0.11935	-0.05140	0.13130
189.000	0.86981	-0.16510	-0.07117	0.10942
190.000	0.89551	-0.12532	-0.00989	0.13130
191.000	0.88563	-0.14919	-0.05733	0.15319
192.000	0.89749	-0.12731	-0.06920	0.10345
193.000	0.86784	-0.16311	-0.04547	0.08754
194.000	0.86191	-0.12333	-0.04745	0.09350
195.000	0.88760	-0.12930	-0.00593	0.11141
196.000	0.86981	-0.13328	-0.06524	0.10942
197.000	0.90342	-0.13526	-0.06524	0.11738
198.000	0.86981	-0.16311	-0.02570	0.16114
199.000	0.84214	-0.15317	-0.02175	0.17706
200.000	0.88563	-0.14123	-0.03163	0.15518
201.000	0.87179	-0.14919	-0.05140	0.12334
202.000	0.91132	-0.12532	-0.08897	0.10743
203.000	0.88760	-0.12731	-0.05733	0.10345
204.000	0.86784	-0.17306	-0.07117	0.10743
205.000	0.89156	-0.13527	-0.04152	0.13926
206.000	0.90539	-0.12731	-0.04152	0.14921
207.000	0.89749	-0.15118	-0.08501	0.17308
208.000	0.90144	-0.14123	-0.05733	0.15717
209.000	0.86784	-0.18698	-0.01582	0.09748
210.000	0.89156	-0.11935	-0.02372	0.14324
211.000	0.90737	-0.16311	-0.04349	0.12334
212.000	0.87772	-0.18698	-0.05536	0.13926
213.000	0.87377	-0.15914	-0.06326	0.15717
214.000	0.85598	-0.16908	-0.02768	0.15319
215.000	0.87377	-0.14123	-0.03756	0.17507
216.000	0.87970	-0.15516	-0.08699	0.17308
217.000	0.87970	-0.16311	-0.04547	0.14921
218.000	0.86981	-0.11338	-0.07710	0.13926
219.000	0.83819	-0.20290	-0.03756	0.09947
220.000	0.86586	-0.14521	-0.01582	0.16512
221.000	0.88958	-0.11935	-0.06129	0.14523
222.000	0.87377	-0.13129	-0.08699	0.15518
223.000	0.85400	-0.14123	-0.06129	0.14523
224.000	0.88167	-0.09747	-0.04943	0.11937
225.000	0.91923	-0.12731	-0.03559	0.10942
226.000	0.84807	-0.13925	-0.04943	0.09549
227.000	0.84017	-0.12930	-0.05733	0.15518
228.000	0.87772	-0.09349	-0.05140	0.11539
229.000	0.87970	-0.15516	-0.03559	0.10146
230.000	0.90539	-0.15118	-0.06326	0.10942
231.000	0.87970	-0.11537	-0.06524	0.12136
232.000	0.86784	-0.13129	-0.04943	0.13329
233.000	0.88563	-0.09150	-0.05536	0.10146
234.000	0.85400	-0.10941	-0.06722	0.11539
235.000	0.89551	-0.07559	-0.04745	0.15518
236.000	0.86586	-0.11935	-0.06326	0.12732
237.000	0.92120	-0.10940	-0.04152	0.13329
238.000	0.87574	-0.12134	-0.07908	0.12334
239.000	0.87574	-0.08355	-0.08897	0.12334
240.000	0.91527	-0.08752	-0.07513	0.11340
241.000	0.89156	-0.13725	-0.06524	0.11738
242.000	0.87574	-0.08355	-0.05733	0.13130
243.000	0.87377	-0.13129	-0.03163	0.12732
244.000	0.87179	-0.12532	-0.04943	0.10345
245.000	0.91527	-0.09349	-0.05140	0.11738
246.000	0.87179	-0.11140	-0.06920	0.09947
247.000	0.87574	-0.10344	-0.00395	0.12533
248.000	0.87970	-0.09548	-0.06524	0.06167
249.000	0.87772	-0.12731	-0.05338	0.12931
250.000	0.86981	-0.14720	-0.00593	0.11937
251.000	0.86191	-0.10145	-0.03163	0.17507
252.000	0.85796	-0.09747	-0.06326	0.10743
253.000	0.85796	-0.14123	-0.08303	0.09549
254.000	0.87377	-0.08554	-0.02570	0.07759
255.000	0.86784	-0.09747	-0.04547	0.11937
256.000	0.86784	-0.07758	-0.03163	0.10146
257.000	0.82831	-0.10543	-0.05733	0.11340
258.000	0.87377	-0.09548	-0.05140	0.10942
259.000	0.87574	-0.06962	-0.07117	0.10743
260.000	0.86784	-0.09150	-0.06129	0.12931
261.000	0.87377	-0.03382	-0.02966	0.14523
262.000	0.85993	-0.08355	-0.05733	0.09947
263.000	0.87179	-0.05371	-0.05338	0.10942
264.000	0.89353	-0.09548	-0.02966	0.10146
265.000	0.87574	-0.10543	0.01977	0.10146
266.000	0.85203	-0.08554	-0.04547	0.12533
267.000	0.87574	-0.07758	-0.03361	0.11141
268.000	0.88167	-0.09548	-0.01384	0.04775
269.000	0.87179	-0.11338	-0.01779	0.09549
270.000	0.88365	-0.10344	-0.04547	0.08555
271.000	0.86388	-0.10344	-0.03163	0.09947
272.000	0.87377	-0.09150	-0.04349	0.09350
273.000	0.88563	-0.08355	-0.04745	0.11539
274.000	0.89946	-0.08156	-0.03361	0.04377
275.000	0.88563	-0.09548	-0.02768	0.09350
276.000	0.87772	-0.05769	-0.07513	0.06565
277.000	0.87970	-0.06962	-0.06722	0.08356
278.000	0.87179	-0.02984	-0.03361	0.06565
279.000	0.85400	-0.07360	-0.05733	0.08754
280.000	0.86981	-0.06167	-0.04152	0.07361
281.000	0.88958	-0.04376	-0.04943	0.08555
282.000	0.86388	-0.09747	-0.04349	0.07560
283.000	0.84807	-0.05172	-0.01582	0.08356
284.000	0.88167	-0.07559	-0.05931	0.05371
285.000	0.87377	-0.04376	-0.03559	0.06764
286.000	0.83819	-0.07360	0.00989	0.08157
287.000	0.85005	-0.03978	-0.03756	0.07560
288.000	0.83819	-0.10145	-0.01384	0.06963
289.000	0.85005	-0.05769	-0.07117	0.09748
290.000	0.88365	-0.01989	-0.03163	0.07958
291.000	0.89946	-0.07161	-0.01384	0.04974
292.000	0.89946	-0.02785	-0.00791	0.08356
293.000	0.86784	-0.04774	0.01384	0.12931
294.000	0.87377	-0.05371	-0.05140	0.05968
295.000	0.88563	-0.04575	-0.01384	0.01989
296.000	0.90342	-0.10543	-0.00395	0.06565
297.000	0.91527	-0.05371	-0.04349	0.07162
298.000	0.88760	-0.04973	-0.00395	0.05968
299.000	0.90539	-0.03581	-0.02175	0.03183
300.000	0.90737	-0.03581	-0.00198	0.00796
301.000	0.88167	-0.07360	-0.02175	0.06963
302.000	0.88563	-0.03382	-0.00989	0.05570
303.000	0.90342	0.02984	0.00198	0.06764
304.000	0.89551	-0.04973	-0.01582	0.07560
305.000	0.88760	-0.05570	0.00593	0.06565
306.000	0.86784	-0.02586	-0.01186	0.03979
307.000	0.91527	-0.03978	-0.03756	0.07560
308.000	0.85993	-0.04376	-0.01977	0.05173
309.000	0.86981	-0.03978	-0.01977	0.04576
310.000	0.87377	-0.03382	-0.00989	0.06366
311.000	0.86981	-0.04575	0.00000	0.05769
312.000	0.90342	-0.01790	-0.00593	0.05570
313.000	0.85005	-0.06962	-0.01779	0.06764
314.000	0.90342	-0.00995	-0.02372	0.00995
315.000	0.89551	-0.02188	-0.01582	0.03183
316.000	0.86784	-0.09747	-0.00791	0.05968
317.000	0.84610	-0.00597	0.00593	0.02188
318.000	0.88563	-0.06564	0.00593	0.06565
319.000	0.88167	0.01790	-0.01779	0.06167
320.000	0.87772	-0.07161	-0.00395	0.06963
321.000	0.91132	-0.03978	0.01977	0.05968
322.000	0.90144	-0.00199	0.02175	0.09350
323.000	0.89156	-0.04376	0.01186	0.07361
324.000	0.88563	-0.02188	-0.01977	0.05769
325.000	0.86784	-0.01989	0.00000	0.04775
326.000	0.85005	-0.01790	-0.02570	0.07958
327.000	0.86191	-0.05769	-0.01186	0.09947
328.000	0.77691	-0.03979	-0.02966	0.04974
329.000	0.74529	-0.01194	-0.09094	0.03581
330.000	0.71959	-0.01591	-0.12850	0.06366
331.000	0.63262	-0.00199	-0.17991	0.11141
332.000	0.62471	0.02188	-0.19968	0.09151
333.000	0.56738	0.01393	-0.28469	0.07560
334.000	0.54959	0.01194	-0.34597	0.03183
335.000	0.49226	0.07957	-0.40330	0.04973
336.000	0.47249	0.07361	-0.42307	0.04973
337.000	0.40726	0.08355	-0.47645	0.01393
338.000	0.36969	0.08355	-0.47842	0.06167
339.000	0.37167	0.09549	-0.51203	0.02984
340.000	0.37167	0.09350	-0.48435	0.05172
341.000	0.39539	0.10345	-0.45865	0.08355
342.000	0.40923	0.08554	-0.45470	0.06366
343.000	0.46656	0.10743	-0.43098	0.08156
344.000	0.54168	0.04377	-0.38353	0.07560
345.000	0.57133	0.09151	-0.38946	0.10743
346.000	0.58517	0.08156	-0.34004	0.08753
347.000	0.59506	0.06565	-0.32818	0.07162
348.000	0.64052	0.04774	-0.30841	0.10544
349.000	0.65831	0.05968	-0.28073	0.07958
350.000	0.67215	0.01989	-0.27876	0.03183
351.000	0.73936	0.05968	-0.27282	0.03979
352.000	0.69192	0.00199	-0.27480	0.07361
353.000	0.70971	0.00398	-0.26887	0.01790
354.000	0.68796	0.01989	-0.25899	0.02387
355.000	0.66227	-0.01393	-0.28073	0.02785
356.000	0.69192	0.01393	-0.25899	0.03979
357.000	0.66029	-0.02387	-0.24910	0.01393
358.000	0.66820	0.04376	-0.25701	0.02785
359.000	0.66424	0.00995	-0.27480	0.05769
360.000	0.60889	0.06366	-0.26689	0.02387
361.000	0.62273	0.01591	-0.26492	0.07560
362.000	0.64052	-0.01393	-0.28073	0.05371
363.000	0.61482	-0.00796	-0.29852	0.06764
364.000	0.64052	-0.00597	-0.28469	0.08157
365.000	0.61285	0.02586	-0.29457	0.05570
366.000	0.61482	0.04575	-0.29655	0.07958
367.000	0.59506	0.00796	-0.29655	0.06366
368.000	0.65634	0.07559	-0.26887	0.09748
369.000	0.58913	0.03979	-0.28666	0.06963
370.000	0.58517	0.01194	-0.31236	0.03780
371.000	0.62471	0.05570	-0.32818	0.03382
372.000	0.60889	0.04377	-0.30050	0.08952
373.000	0.58715	0.04973	-0.31236	0.02984
374.000	0.60296	0.04575	-0.32422	0.08554
375.000	0.60494	0.07559	-0.31434	0.07162
376.000	0.57529	0.03183	-0.30050	0.06963
377.000	0.59703	0.01989	-0.31039	0.03581
378.000	0.58913	0.02785	-0.32422	0.03780
379.000	0.57924	0.03780	-0.31632	0.00398
380.000	0.61482	0.05968	-0.30446	0.02586
381.000	0.59110	0.05570	-0.32027	0.03581
382.000	0.59308	0.06764	-0.27876	0.06565
383.000	0.58122	0.02387	-0.31236	0.07759
384.000	0.61680	0.03581	-0.33806	0.04178
385.000	0.60099	0.05371	-0.31236	0.04974
386.000	0.58715	0.06366	-0.28469	0.06764
387.000	0.55750	0.04575	-0.30050	0.01989
388.000	0.57133	0.00199	-0.29457	0.01790
389.000	0.62866	0.05769	-0.31236	0.04576
390.000	0.63459	0.00796	-0.31632	0.03581
391.000	0.61482	0.03979	-0.34795	0.06963
392.000	0.62866	0.03979	-0.33411	0.01393
393.000	0.59901	0.01591	-0.31039	-0.00398
394.000	0.58913	0.03183	-0.33609	0.04974
395.000	0.61878	0.05570	-0.32422	0.00199
396.000	0.62075	0.02188	-0.32422	0.09151
397.000	0.57924	0.01989	-0.31434	0.05968
398.000	0.60692	0.00000	-0.31039	0.10743
399.000	0.60889	0.03183	-0.30446	0.07958
400.000	0.61482	0.03581	-0.30050	0.03780
401.000	0.60692	0.02586	-0.33016	0.05968
402.000	0.62273	0.00597	-0.28073	0.07361
403.000	0.62075	0.09151	-0.28073	0.05371
404.000	0.62866	0.01790	-0.30248	0.07759
405.000	0.62668	0.00398	-0.28666	0.12135
406.000	0.60494	0.04377	-0.28666	0.04576
407.000	0.60494	0.04377	-0.28469	0.06565
408.000	0.61680	0.01393	-0.28073	0.10146
409.000	0.58715	0.01790	-0.27282	0.06565
410.000	0.58913	0.00796	-0.28469	0.07162
411.000	0.60889	0.00398	-0.28073	0.07361
412.000	0.61482	0.07162	-0.28469	0.04576
413.000	0.60099	0.00995	-0.28271	0.06167
414.000	0.62075	0.02188	-0.27085	0.03780
415.000	0.63459	0.00398	-0.29852	0.04576
416.000	0.63459	0.07162	-0.30050	0.05968
417.000	0.61878	0.06565	-0.28271	0.05968
418.000	0.60692	0.00597	-0.27876	0.05570
419.000	0.61680	0.04774	-0.27282	0.07958
420.000	0.62471	0.06963	-0.28469	0.05371
421.000	0.61680	0.05769	-0.27085	0.04576
422.000	0.58913	0.07361	-0.27678	0.05371
423.000	0.64843	0.05172	-0.26492	0.03780
424.000	0.62866	0.06167	-0.28864	0.08356
425.000	0.60099	0.07957	-0.29062	0.05371
426.000	0.62273	0.09947	-0.29062	0.05570
427.000	0.63262	0.05172	-0.28864	0.07560
428.000	0.62866	0.09748	-0.28864	0.05172
429.000	0.65041	0.04575	-0.30050	0.03183
430.000	0.63459	0.10344	-0.30841	0.04178
431.000	0.57924	0.08355	-0.27085	0.01393
432.000	0.62273	0.10344	-0.26294	0.05172
433.000	0.66227	0.09350	-0.28271	0.05968
434.000	0.66424	0.07758	-0.25899	0.06565
435.000	0.60889	0.06565	-0.29062	0.11141
436.000	0.59308	0.03979	-0.32027	0.05968
437.000	0.61087	0.08952	-0.30643	0.05968
438.000	0.63657	0.09748	-0.29062	0.05968
439.000	0.65436	0.12533	-0.30643	0.07759
440.000	0.62668	0.07758	-0.27876	0.07361
441.000	0.64052	0.08753	-0.31632	0.03183
442.000	0.62471	0.06764	-0.31236	0.00597
443.000	0.64052	0.08753	-0.29852	0.05371
444.000	0.61482	0.06764	-0.28073	0.05371
445.000	0.63855	0.05968	-0.28864	0.05769
446.000	0.66029	0.07957	-0.32027	0.07162
447.000	0.61680	0.06565	-0.30248	0.08554
448.000	0.59901	0.12931	-0.28271	0.07759
449.000	0.61680	0.07559	-0.26887	0.04775
450.000	0.63855	0.10742	-0.26689	0.03780
451.000	0.63262	0.07559	-0.29062	0.05968
452.000	0.62273	0.07162	-0.28469	0.06764
453.000	0.60099	0.03382	-0.30248	0.05570
454.000	0.63262	0.01194	-0.29457	0.04775
455.000	0.60099	0.01989	-0.26689	0.01592
456.000	0.62273	0.02387	-0.29457	0.00995
457.000	0.60692	0.06565	-0.27085	0.00199
458.000	0.61482	-0.00597	-0.31236	0.03581
459.000	0.59308	0.02586	-0.25305	0.02984
460.000	0.61087	0.08952	-0.25701	0.01989
461.000	0.59110	0.02188	-0.30643	0.02586
462.000	0.58913	0.01591	-0.29259	0.02586
463.000	0.59506	0.03382	-0.28469	0.02984
464.000	0.62075	0.05769	-0.29655	0.04178
465.000	0.63459	0.03581	-0.32027	0.04178
466.000	0.60296	0.03979	-0.26492	0.00995
467.000	0.57727	0.05570	-0.28864	0.02984
468.000	0.63262	0.06167	-0.26887	0.01393
469.000	0.60692	0.01591	-0.27480	0.04377
470.000	0.61482	0.02387	-0.25899	0.05172
471.000	0.59308	0.03979	-0.27282	0.03581
472.000	0.61482	0.05769	-0.26887	0.03382
473.000	0.59110	0.05172	-0.27282	0.03780
474.000	0.59901	0.01790	-0.25108	-0.00995
475.000	0.59110	0.08753	-0.25503	-0.00597
476.000	0.59506	-0.00199	-0.26887	-0.01393
477.000	0.64843	0.05172	-0.24119	0.06565
478.000	0.60099	0.00199	-0.27876	-0.01194
479.000	0.58913	0.03183	-0.27085	0.00597
480.000	0.60494	0.03780	-0.26689	0.01790
481.000	0.59506	0.07361	-0.26689	0.02586
482.000	0.54761	0.02785	-0.26689	-0.02387
483.000	0.62273	0.04973	-0.26887	-0.03780
484.000	0.62273	0.06764	-0.24910	-0.00796
485.000	0.62075	0.01790	-0.22340	0.02785
486.000	0.59901	0.01393	-0.27480	-0.00796
487.000	0.55947	0.05769	-0.25305	0.01790
488.000	0.60889	0.06366	-0.25899	0.02785
489.000	0.59308	0.00796	-0.22735	0.00199
490.000	0.58715	0.07957	-0.24712	-0.00199
491.000	0.61087	0.02586	-0.22538	-0.01592
492.000	0.57529	0.02188	-0.24910	-0.01393
493.000	0.60494	0.00995	-0.29259	-0.00199
494.000	0.61285	0.00995	-0.26492	0.00597
495.000	0.55947	0.03183	-0.28073	-0.01393
496.000	0.59308	0.02387	-0.28864	-0.00398
497.000	0.58122	0.01591	-0.24317	-0.00199
498.000	0.62668	0.04774	-0.28864	0.04178
499.000	0.57924	0.03979	-0.29062	-0.01790
500.000	0.61087	0.05371	-0.28271	-0.01790
501.000	0.61087	0.08753	-0.25503	-0.01592
502.000	0.60692	0.02387	-0.25701	0.00597
503.000	0.58517	0.06167	-0.20363	-0.01194
504.000	0.56936	0.06565	-0.27480	-0.02188
505.000	0.56540	0.00398	-0.26689	0.00796
506.000	0.61482	0.07559	-0.29259	-0.02188
507.000	0.57727	0.02387	-0.25108	0.01989
508.000	0.60099	0.04178	-0.25108	-0.00398
509.000	0.60692	0.07162	-0.24910	-0.01790
510.000	0.61878	0.03780	-0.24712	-0.02387
511.000	0.55552	0.06963	-0.24910	-0.01790
512.000	0.60692	0.00995	-0.20956	-0.01790
513.000	0.61285	0.06565	-0.24712	-0.00796
514.000	0.58913	0.04774	-0.24910	0.02387
515.000	0.56936	0.05172	-0.27678	-0.02586
516.000	0.58913	0.04178	-0.22142	-0.01790
517.000	0.61680	0.05570	-0.22538	-0.02984
518.000	0.61087	0.09549	-0.24910	0.02387
519.000	0.59506	0.04178	-0.22142	0.00796
520.000	0.60494	0.08355	-0.23329	-0.02984
521.000	0.59506	0.04575	-0.23131	-0.02984
522.000	0.58122	0.05968	-0.22538	-0.01592
523.000	0.61680	0.06764	-0.23922	-0.03979
524.000	0.62866	0.05570	-0.21945	-0.00995
525.000	0.59506	0.03780	-0.22735	-0.03183
526.000	0.59901	0.03183	-0.21747	-0.06764
527.000	0.60099	0.05172	-0.21945	-0.01592
528.000	0.61482	0.04575	-0.20165	0.02188
529.000	0.57727	0.02785	-0.22538	-0.02586
530.000	0.59308	0.04575	-0.19375	-0.01393
531.000	0.58913	0.03979	-0.21945	-0.03581
532.000	0.56936	0.03382	-0.22142	-0.00398
533.000	0.58122	0.02586	-0.24910	-0.00995
534.000	0.59703	0.05570	-0.21549	-0.06167
535.000	0.59901	0.02188	-0.23329	-0.02387
536.000	0.59901	0.04575	-0.24515	-0.03382
537.000	0.58715	0.04377	-0.23724	0.00000
538.000	0.60889	0.06366	-0.22735	-0.00199
539.000	0.60494	0.07559	-0.22933	-0.03382
540.000	0.59901	0.04973	-0.22340	-0.02785
541.000	0.58913	0.10742	-0.21549	-0.03581
542.000	0.57924	0.09549	-0.22933	-0.02188
543.000	0.57727	0.07361	-0.24317	-0.01194
544.000	0.57727	0.06764	-0.24712	-0.02785
545.000	0.60494	0.07162	-0.19770	-0.02586
546.000	0.57133	0.08952	-0.19968	-0.01989
547.000	0.60494	0.09748	-0.22340	-0.02785
548.000	0.63855	0.06565	-0.22340	-0.03581
549.000	0.59308	0.07162	-0.21549	-0.03780
550.000	0.60494	0.08554	-0.21945	-0.00199
551.000	0.64052	0.09947	-0.20561	-0.05371
552.000	0.65634	0.07161	-0.20561	-0.01194
553.000	0.60296	0.13527	-0.22142	-0.06167
554.000	0.61878	0.10344	-0.20165	-0.04178
555.000	0.62668	0.11936	-0.25503	-0.04377
556.000	0.62075	0.06565	-0.23131	-0.05570
557.000	0.59506	0.06565	-0.23131	-0.04377
558.000	0.60099	0.06167	-0.21352	-0.03382
559.000	0.57727	0.09350	-0.22538	-0.06764
560.000	0.54761	0.03780	-0.19572	0.02188
561.000	0.59308	0.07361	-0.24910	-0.05570
562.000	0.59901	0.04178	-0.25305	0.00995
563.000	0.58913	0.05371	-0.24317	-0.02586
564.000	0.57331	0.07162	-0.18781	-0.00199
565.000	0.59703	0.06366	-0.22142	-0.05172
566.000	0.60889	0.08753	-0.24119	-0.03183
567.000	0.61482	0.05769	-0.24712	-0.04974
568.000	0.61482	0.09748	-0.25899	-0.05570
569.000	0.58320	0.05570	-0.20956	-0.02586
570.000	0.59308	0.04973	-0.23131	-0.02984
571.000	0.60099	0.06764	-0.21747	-0.00796
572.000	0.58320	0.06167	-0.20363	-0.01194
573.000	0.60692	0.07957	-0.20561	-0.03780
574.000	0.58517	0.02188	-0.20363	0.01194
575.000	0.56936	0.07758	-0.19572	-0.03780
576.000	0.58320	0.03382	-0.19375	0.00000
577.000	0.58913	0.04973	-0.20561	-0.03979
578.000	0.60692	0.06565	-0.17002	-0.01194
579.000	0.58913	0.07758	-0.24910	0.03382
580.000	0.58320	0.05769	-0.19375	0.01989
581.000	0.60296	0.06963	-0.19572	0.00199
582.000	0.60296	0.08355	-0.16804	0.00597
583.000	0.60692	0.07162	-0.22340	0.02984
584.000	0.63657	0.09549	-0.22933	0.01989
585.000	0.59110	0.06764	-0.18188	0.01989
586.000	0.62668	0.10146	-0.21549	0.04377
587.000	0.64250	0.10543	-0.21352	0.00199
588.000	0.63262	0.13328	-0.19770	0.03382
589.000	0.63064	0.10941	-0.19177	0.05968
590.000	0.62075	0.12533	-0.20165	0.02586
591.000	0.62866	0.14124	-0.21154	0.04178
592.000	0.63855	0.14124	-0.19177	0.05371
593.000	0.66820	0.16312	-0.20561	0.06167
594.000	0.61285	0.16312	-0.17793	0.01592
595.000	0.63657	0.16312	-0.20165	0.02984
596.000	0.61482	0.18700	-0.18584	0.04178
597.000	0.66227	0.14721	-0.21747	0.03382
598.000	0.65041	0.14124	-0.19770	0.03780
599.000	0.64250	0.09151	-0.21154	-0.02188
600.000	0.65041	0.13527	-0.18781	0.01194
601.000	0.62668	0.13129	-0.19968	0.00796
602.000	0.68796	0.19097	-0.19177	0.00796
603.000	0.64448	0.17506	-0.21154	0.00398
604.000	0.64448	0.11339	-0.22735	0.02188
605.000	0.64645	0.23872	-0.20758	-0.02984
606.000	0.67017	0.16710	-0.19770	0.01989
607.000	0.63657	0.20888	-0.22142	-0.03979
608.000	0.67610	0.22081	-0.19968	0.00796
609.000	0.63855	0.19694	-0.18584	-0.02586
610.000	0.63459	0.20689	-0.20363	-0.04178
611.000	0.70378	0.21882	-0.22340	-0.04377
612.000	0.69192	0.22877	-0.21154	-0.00398
613.000	0.65831	0.18500	-0.21154	-0.02785
614.000	0.68599	0.21285	-0.18188	-0.08157
615.000	0.64645	0.22678	-0.19770	-0.11141
616.000	0.66029	0.20092	-0.18781	-0.06167
617.000	0.66424	0.18500	-0.20758	-0.11141
618.000	0.66820	0.19097	-0.21352	-0.06167
619.000	0.66820	0.15914	-0.20758	-0.10544
620.000	0.67215	0.18301	-0.21945	-0.06963
621.000	0.67808	0.19296	-0.23922	-0.12533
622.000	0.64250	0.15119	-0.25701	-0.10345
623.000	0.65634	0.18500	-0.21154	-0.09748
624.000	0.65436	0.18302	-0.22142	-0.12135
625.000	0.64250	0.19097	-0.21154	-0.07361
626.000	0.62866	0.19694	-0.22538	-0.13329
627.000	0.64250	0.20888	-0.25305	-0.10743
628.000	0.63855	0.16511	-0.24317	-0.11738
629.000	0.62668	0.14522	-0.24910	-0.09947
630.000	0.65634	0.18898	-0.21352	-0.08753
631.000	0.66424	0.17904	-0.23526	-0.07759
632.000	0.66227	0.19495	-0.21352	-0.08753
633.000	0.61878	0.17705	-0.22340	-0.12334
634.000	0.62273	0.19097	-0.21549	-0.12931
635.000	0.62075	0.16710	-0.23526	-0.09947
636.000	0.65436	0.19296	-0.26096	-0.11340
637.000	0.63262	0.20490	-0.23131	-0.12931
638.000	0.65041	0.19097	-0.21352	-0.12732
639.000	0.65436	0.15318	-0.25305	-0.13727
640.000	0.67215	0.20490	-0.22538	-0.10743
641.000	0.64052	0.22280	-0.21549	-0.16910
642.000	0.63262	0.13726	-0.22142	-0.17109
643.000	0.66820	0.19694	-0.23922	-0.11539
644.000	0.67610	0.20689	-0.24119	-0.12931
645.000	0.65238	0.17108	-0.22538	-0.10544
646.000	0.67017	0.17108	-0.21352	-0.11937
647.000	0.65436	0.21087	-0.24317	-0.17706
648.000	0.64645	0.21484	-0.22735	-0.15319
649.000	0.67413	0.18301	-0.21945	-0.11937
650.000	0.68006	0.20092	-0.25305	-0.13528
651.000	0.65831	0.20888	-0.22933	-0.14523
652.000	0.62471	0.17904	-0.25503	-0.15120
653.000	0.64052	0.21087	-0.22340	-0.12732
654.000	0.64843	0.15716	-0.22340	-0.10743
655.000	0.66029	0.19495	-0.22735	-0.11141
656.000	0.65634	0.19694	-0.24910	-0.13329
657.000	0.63064	0.18302	-0.22142	-0.10942
658.000	0.69389	0.25065	-0.23526	-0.13329
659.000	0.67808	0.19694	-0.22735	-0.14523
660.000	0.65238	0.19097	-0.21747	-0.12334
661.000	0.67215	0.22081	-0.26096	-0.11738
662.000	0.69587	0.20291	-0.20956	-0.12732
663.000	0.65041	0.20888	-0.20956	-0.12135
664.000	0.71366	0.25065	-0.22340	-0.14921
665.000	0.65436	0.19495	-0.22933	-0.10743
666.000	0.63262	0.17904	-0.22933	-0.08753
667.000	0.64250	0.17108	-0.22538	-0.14523
668.000	0.64250	0.18699	-0.17991	-0.14324
669.000	0.64645	0.21882	-0.21945	-0.14125
670.000	0.66820	0.19694	-0.21747	-0.12135
671.000	0.68796	0.21882	-0.18979	-0.13528
672.000	0.68006	0.18301	-0.21747	-0.14125
673.000	0.68599	0.22280	-0.21352	-0.13130
674.000	0.72354	0.24667	-0.15618	-0.12931
675.000	0.69389	0.25065	-0.21549	-0.13727
676.000	0.67017	0.20888	-0.22142	-0.13926
677.000	0.68006	0.20689	-0.17595	-0.13727
678.000	0.68994	0.24269	-0.20956	-0.12931
679.000	0.67610	0.23673	-0.21747	-0.13926
680.000	0.66622	0.21683	-0.20561	-0.15716
681.000	0.65436	0.22280	-0.18584	-0.15120
682.000	0.66622	0.18500	-0.18188	-0.17706
683.000	0.69587	0.20887	-0.18979	-0.15319
684.000	0.68006	0.17705	-0.19770	-0.12732
685.000	0.68796	0.18898	-0.19968	-0.15915
686.000	0.65436	0.17506	-0.19572	-0.17308
687.000	0.67413	0.18699	-0.19375	-0.13727
688.000	0.66424	0.17705	-0.15421	-0.17308
689.000	0.69389	0.22081	-0.17793	-0.17308
690.000	0.68599	0.19694	-0.18386	-0.08952
691.000	0.68994	0.17904	-0.19770	-0.14921
692.000	0.69587	0.19893	-0.18781	-0.14523
693.000	0.66622	0.20689	-0.19770	-0.15319
694.000	0.62668	0.16710	-0.17002	-0.15915
695.000	0.66424	0.18103	-0.18584	-0.15517
696.000	0.62668	0.13925	-0.17991	-0.13528
697.000	0.63262	0.18501	-0.20363	-0.15517
698.000	0.64052	0.16909	-0.21549	-0.20889
699.000	0.60889	0.12931	-0.20165	-0.13130
700.000	0.61680	0.15716	-0.18188	-0.16910
701.000	0.63855	0.14920	-0.19968	-0.14523
702.000	0.63657	0.13726	-0.17793	-0.16114
703.000	0.67215	0.14124	-0.17595	-0.18502
704.000	0.61482	0.16511	-0.17002	-0.15319
705.000	0.63657	0.15119	-0.19572	-0.13130
706.000	0.66227	0.13726	-0.20165	-0.20093
707.000	0.65238	0.18699	-0.18386	-0.13926
708.000	0.63459	0.17904	-0.21352	-0.20093
709.000	0.63855	0.15517	-0.14432	-0.18701
710.000	0.65634	0.14323	-0.16409	-0.17706
711.000	0.64250	0.16511	-0.17991	-0.17905
712.000	0.64645	0.16710	-0.17398	-0.17109
713.000	0.67215	0.14721	-0.18584	-0.18502
714.000	0.63657	0.13129	-0.15223	-0.17308
715.000	0.67808	0.16312	-0.17002	-0.20093
716.000	0.64250	0.15716	-0.20165	-0.17507
717.000	0.62075	0.16710	-0.17398	-0.16313
718.000	0.66424	0.15318	-0.18386	-0.19297
719.000	0.64052	0.14721	-0.18386	-0.17507
720.000	0.65436	0.13726	-0.18781	-0.19496
721.000	0.64052	0.12135	-0.17595	-0.20491
722.000	0.65634	0.15715	-0.15223	-0.18900
723.000	0.61285	0.11140	-0.15816	-0.20093
724.000	0.66029	0.16113	-0.19968	-0.16711
725.000	0.61680	0.15915	-0.14432	-0.20889
726.000	0.63459	0.11936	-0.18386	-0.19297
727.000	0.63459	0.11339	-0.17398	-0.15517
728.000	0.64448	0.15716	-0.16014	-0.16114
729.000	0.60494	0.12931	-0.15223	-0.21088
730.000	0.65831	0.15318	-0.20956	-0.19695
731.000	0.68203	0.17705	-0.17002	-0.18104
732.000	0.66424	0.17904	-0.16014	-0.20690
733.000	0.64645	0.11737	-0.20758	-0.15120
734.000	0.62866	0.17506	-0.15816	-0.18104
735.000	0.65041	0.16312	-0.18979	-0.19695
736.000	0.64052	0.16511	-0.18386	-0.23674
737.000	0.63064	0.11936	-0.17002	-0.19695
738.000	0.61680	0.13527	-0.20956	-0.19695
739.000	0.64843	0.10543	-0.17793	-0.20690
740.000	0.67610	0.13328	-0.16804	-0.23674
741.000	0.64250	0.14323	-0.19177	-0.20889
742.000	0.62668	0.10742	-0.15816	-0.16910
743.000	0.63064	0.16113	-0.15223	-0.16114
744.000	0.65634	0.15715	-0.17002	-0.14523
745.000	0.64250	0.14323	-0.19375	-0.22878
746.000	0.65436	0.17904	-0.16607	-0.17308
747.000	0.66820	0.17506	-0.17398	-0.15915
748.000	0.64843	0.17307	-0.16014	-0.23077
749.000	0.65634	0.11936	-0.17793	-0.18502
750.000	0.67808	0.13328	-0.17595	-0.20292
751.000	0.62471	0.12533	-0.17398	-0.21486
752.000	0.59901	0.13527	-0.13641	-0.22083
753.000	0.64843	0.14323	-0.13641	-0.19098
754.000	0.65238	0.16511	-0.15618	-0.21486
755.000	0.60494	0.14323	-0.16607	-0.21088
756.000	0.68203	0.16113	-0.18979	-0.20093
757.000	0.59110	0.13527	-0.17398	-0.15716
758.000	0.64645	0.15716	-0.14234	-0.18303
759.000	0.64448	0.12732	-0.17200	-0.16910
760.000	0.64645	0.16710	-0.17200	-0.18104
761.000	0.66820	0.17307	-0.15618	-0.16313
762.000	0.65041	0.13129	-0.15816	-0.17706
763.000	0.62075	0.15318	-0.15618	-0.19894
764.000	0.67413	0.15516	-0.13641	-0.21486
765.000	0.66424	0.14721	-0.16211	-0.21287
766.000	0.63855	0.14124	-0.14037	-0.23674
767.000	0.64843	0.14522	-0.15816	-0.19496
768.000	0.62471	0.12931	-0.12850	-0.20491
769.000	0.65436	0.15517	-0.15421	-0.20690
770.000	0.63657	0.15517	-0.11862	-0.17507
771.000	0.59901	0.07957	-0.15421	-0.19894
772.000	0.64250	0.14323	-0.16607	-0.17706
773.000	0.62075	0.10146	-0.15618	-0.16910
774.000	0.61087	0.15915	-0.17200	-0.15120
775.000	0.62273	0.11936	-0.15816	-0.18104
776.000	0.65436	0.13726	-0.18386	-0.15716
777.000	0.66227	0.09350	-0.13839	-0.13926
778.000	0.65436	0.13925	-0.20363	-0.17109
779.000	0.63657	0.13129	-0.13246	-0.20690
780.000	0.63855	0.12334	-0.11269	-0.16512
781.000	0.67017	0.11936	-0.11467	-0.17507
782.000	0.63855	0.13527	-0.13641	-0.11738
783.000	0.67610	0.11936	-0.13444	-0.13528
784.000	0.68401	0.16909	-0.12455	-0.14324
785.000	0.64448	0.15318	-0.12257	-0.14921
786.000	0.66227	0.12334	-0.12850	-0.15915
787.000	0.65634	0.12533	-0.13048	-0.17706
788.000	0.64250	0.14124	-0.15223	-0.16114
789.000	0.65041	0.09350	-0.14827	-0.17507
790.000	0.65831	0.11936	-0.14432	-0.17706
791.000	0.63064	0.12732	-0.14630	-0.13130
792.000	0.68599	0.13726	-0.14037	-0.16711
793.000	0.65634	0.07360	-0.14827	-0.17308
794.000	0.64645	0.09549	-0.15421	-0.15120
795.000	0.62866	0.10941	-0.13246	-0.13130
796.000	0.66227	0.18103	-0.11071	-0.13130
797.000	0.66029	0.12533	-0.15421	-0.13528
798.000	0.66820	0.08952	-0.17200	-0.11539
799.000	0.62075	0.09947	-0.16014	-0.16512
800.000	0.64250	0.12334	-0.13641	-0.16910
801.000	0.64645	0.12930	-0.17793	-0.12334
802.000	0.64843	0.09748	-0.13641	-0.11340
803.000	0.65436	0.11737	-0.16211	-0.20491
804.000	0.65831	0.08952	-0.13048	-0.17706
805.000	0.65634	0.10145	-0.15025	-0.12931
806.000	0.66424	0.12533	-0.14432	-0.11937
807.000	0.65238	0.14522	-0.11467	-0.12931
808.000	0.65238	0.13925	-0.16409	-0.13727
809.000	0.66622	0.08554	-0.14432	-0.14921
810.000	0.66227	0.15119	-0.11862	-0.13528
811.000	0.65238	0.15119	-0.12455	-0.16910
812.000	0.66424	0.14124	-0.12060	-0.13727
813.000	0.62273	0.11737	-0.14432	-0.14722
814.000	0.68006	0.15318	-0.16014	-0.19894
815.000	0.64052	0.14323	-0.11071	-0.15120
816.000	0.65041	0.16113	-0.14827	-0.16910
817.000	0.63064	0.13925	-0.12653	-0.16512
818.000	0.68401	0.11936	-0.14234	-0.14523
819.000	0.64250	0.13129	-0.15618	-0.21685
820.000	0.64645	0.15914	-0.18781	-0.23873
821.000	0.67413	0.14920	-0.16607	-0.19496
822.000	0.65831	0.17307	-0.14630	-0.19894
823.000	0.66424	0.14920	-0.15816	-0.25266
824.000	0.68994	0.11339	-0.12257	-0.22083
825.000	0.64645	0.12732	-0.10676	-0.25067
826.000	0.62668	0.10941	-0.13444	-0.26260
827.000	0.62668	0.12334	-0.13444	-0.26260
828.000	0.63657	0.10941	-0.14432	-0.22480
829.000	0.64645	0.15517	-0.14432	-0.25465
830.000	0.65238	0.14323	-0.12455	-0.26459
831.000	0.66622	0.19296	-0.08699	-0.24271
832.000	0.63262	0.18103	-0.12850	-0.20690
833.000	0.64052	0.17705	-0.14827	-0.22679
834.000	0.63064	0.17307	-0.11071	-0.27056
835.000	0.62866	0.13527	-0.08897	-0.22878
836.000	0.66820	0.12930	-0.10083	-0.24470
837.000	0.61878	0.09748	-0.13444	-0.24072
838.000	0.66029	0.14522	-0.12257	-0.26658
839.000	0.67808	0.16113	-0.13641	-0.25266
840.000	0.69192	0.16909	-0.11664	-0.21486
841.000	0.64645	0.15914	-0.09885	-0.24868
842.000	0.64250	0.12334	-0.09885	-0.24669
843.000	0.63657	0.12931	-0.11269	-0.26857
844.000	0.66424	0.14721	-0.09687	-0.28250
845.000	0.65831	0.16511	-0.10478	-0.26857
846.000	0.63262	0.14323	-0.11467	-0.24669
847.000	0.66029	0.15715	-0.07117	-0.24868
848.000	0.65831	0.16511	-0.10676	-0.26857
849.000	0.66029	0.14920	-0.10280	-0.25067
850.000	0.64843	0.15517	-0.08699	-0.28051
851.000	0.65831	0.16312	-0.11664	-0.26061
852.000	0.66622	0.12533	-0.09490	-0.26061
853.000	0.69785	0.12731	-0.13048	-0.27852
854.000	0.68994	0.14721	-0.09094	-0.25266
855.000	0.68006	0.17904	-0.09687	-0.23276
856.000	0.71564	0.16113	-0.08897	-0.25862
857.000	0.70180	0.13328	-0.12653	-0.28250
858.000	0.65831	0.17307	-0.10478	-0.25465
859.000	0.67610	0.16909	-0.10280	-0.21486
860.000	0.66820	0.16511	-0.11071	-0.25266
861.000	0.66820	0.14323	-0.10280	-0.24868
862.000	0.67017	0.14124	-0.13246	-0.25465
863.000	0.69982	0.11140	-0.14037	-0.28648
864.000	0.67413	0.15914	-0.10874	-0.27255
865.000	0.67610	0.18301	-0.09885	-0.27653
866.000	0.66820	0.18302	-0.10478	-0.27653
867.000	0.68796	0.15715	-0.10478	-0.28648
868.000	0.65831	0.15517	-0.13048	-0.23077
869.000	0.67808	0.14522	-0.13641	-0.28648
870.000	0.67808	0.18103	-0.09687	-0.26857
871.000	0.69389	0.14323	-0.10478	-0.28847
872.000	0.66820	0.16113	-0.11269	-0.28250
873.000	0.65831	0.13328	-0.13048	-0.31632
874.000	0.66622	0.12334	-0.13246	-0.25663
875.000	0.66227	0.17904	-0.08699	-0.27056
876.000	0.69389	0.20092	-0.10478	-0.30040
877.000	0.66622	0.17307	-0.08897	-0.27255
878.000	0.67808	0.18898	-0.09094	-0.23873
879.000	0.66227	0.14323	-0.11269	-0.24072
880.000	0.68401	0.16710	-0.11467	-0.24072
881.000	0.69785	0.13527	-0.09292	-0.28250
882.000	0.68796	0.16113	-0.09292	-0.16910
883.000	0.65831	0.16113	-0.08699	-0.23674
884.000	0.67215	0.19694	-0.15223	-0.26061
885.000	0.65831	0.19296	-0.07117	-0.25266
886.000	0.68599	0.19893	-0.08501	-0.19894
887.000	0.63855	0.18699	-0.09292	-0.24271
888.000	0.65436	0.19694	-0.03559	-0.22481
889.000	0.67215	0.16710	-0.10280	-0.24669
890.000	0.66029	0.19694	-0.10083	-0.24470
891.000	0.71959	0.21086	-0.03954	-0.21088
892.000	0.68599	0.18103	-0.09885	-0.25266
893.000	0.69982	0.23076	-0.05733	-0.21884
894.000	0.66227	0.20689	-0.06524	-0.21088
895.000	0.69785	0.20887	-0.08106	-0.18701
896.000	0.70575	0.22479	-0.08501	-0.20093
897.000	0.71564	0.18500	-0.06524	-0.20292
898.000	0.68401	0.19694	-0.09687	-0.21685
899.000	0.72750	0.23075	-0.08303	-0.21088
900.000	0.69192	0.19694	-0.09687	-0.21884
901.000	0.66424	0.17705	-0.02966	-0.21287
902.000	0.66029	0.22479	-0.06920	-0.23077
903.000	0.70180	0.23871	-0.07710	-0.27454
904.000	0.68006	0.19495	-0.07908	-0.19496
905.000	0.68599	0.22678	-0.10478	-0.19695
906.000	0.66227	0.17506	-0.06129	-0.23674
907.000	0.65238	0.12135	-0.08699	-0.25067
908.000	0.66227	0.20291	-0.05536	-0.23674
909.000	0.66622	0.16710	-0.06129	-0.25266
910.000	0.63064	0.14920	-0.06722	-0.28250
911.000	0.62668	0.20092	-0.07315	-0.27454
912.000	0.64645	0.12533	-0.07513	-0.22679
913.000	0.61087	0.15716	-0.03756	-0.26658
914.000	0.66424	0.17506	-0.08501	-0.26061
915.000	0.65634	0.20490	-0.05140	-0.24470
916.000	0.68994	0.17307	-0.09292	-0.28449
917.000	0.71761	0.19296	-0.07710	-0.25465
918.000	0.66820	0.15914	-0.04745	-0.32030
919.000	0.67610	0.20092	-0.07315	-0.31632
920.000	0.68994	0.22280	-0.07513	-0.29244
921.000	0.63657	0.14124	-0.07315	-0.25465
922.000	0.66227	0.17307	-0.07513	-0.28449
923.000	0.64843	0.20291	-0.08897	-0.26459
924.000	0.68994	0.21285	-0.10083	-0.26459
925.000	0.67215	0.17506	-0.02372	-0.28051
926.000	0.66227	0.17108	-0.03163	-0.29642
927.000	0.64448	0.14522	-0.09490	-0.21486
928.000	0.67017	0.17307	-0.05140	-0.26260
929.000	0.66820	0.16113	-0.01582	-0.26658
930.000	0.64645	0.15716	-0.02372	-0.23475
931.000	0.67215	0.19694	-0.04152	-0.25664
932.000	0.66227	0.19694	-0.06326	-0.26061
933.000	0.71366	0.19097	-0.07315	-0.27454
934.000	0.66820	0.18500	-0.04349	-0.28648
935.000	0.68599	0.20092	-0.05140	-0.26260
936.000	0.68203	0.21086	-0.09292	-0.29443
937.000	0.64250	0.16511	-0.05733	-0.25465
938.000	0.67610	0.21484	-0.06129	-0.24271
939.000	0.67610	0.21285	-0.04349	-0.24072
940.000	0.66622	0.20092	-0.06722	-0.23276
941.000	0.65436	0.23673	-0.06129	-0.23276
942.000	0.68203	0.19495	-0.02570	-0.23077
943.000	0.65831	0.22877	-0.05733	-0.23077
944.000	0.67017	0.21484	-0.06129	-0.23077
945.000	0.67808	0.25861	-0.04943	-0.17308
946.000	0.67610	0.24468	-0.06920	-0.21685
947.000	0.65238	0.21087	0.00000	-0.17507
948.000	0.65634	0.21285	-0.04152	-0.21486
949.000	0.68006	0.22877	-0.03756	-0.17507
950.000	0.68599	0.18898	-0.03559	-0.21287
951.000	0.66820	0.22280	-0.04547	-0.19496
952.000	0.68599	0.21086	-0.01582	-0.19297
953.000	0.69192	0.23076	-0.05733	-0.20491
954.000	0.69982	0.19893	-0.03163	-0.19695
955.000	0.67017	0.24269	-0.04152	-0.21088
956.000	0.66820	0.24468	-0.07908	-0.20093
957.000	0.67610	0.24667	-0.02768	-0.24072
958.000	0.68599	0.24269	-0.04349	-0.21486
959.000	0.67610	0.26259	-0.05931	-0.17507
960.000	0.66227	0.24866	-0.03163	-0.22083
961.000	0.72354	0.29441	-0.04547	-0.17706
962.000	0.67413	0.25264	-0.02570	-0.19297
963.000	0.69192	0.25065	-0.02966	-0.21884
964.000	0.68006	0.26259	-0.03756	-0.22878
965.000	0.66029	0.23673	-0.04547	-0.16512
966.000	0.69192	0.28248	-0.06524	-0.18701
967.000	0.69389	0.24269	-0.06722	-0.21287
968.000	0.66227	0.17307	-0.03954	-0.20889
969.000	0.68401	0.26259	-0.06920	-0.22679
970.000	0.66029	0.21087	-0.06326	-0.20491
971.000	0.65436	0.23673	-0.07513	-0.22083
972.000	0.64052	0.19495	-0.02570	-0.22481
973.000	0.65831	0.20490	-0.05536	-0.26857
974.000	0.67808	0.24468	-0.05931	-0.21685
975.000	0.67808	0.23871	-0.06524	-0.24669
976.000	0.70378	0.22479	-0.02966	-0.26260
977.000	0.67413	0.23076	-0.04547	-0.20690
978.000	0.66029	0.22280	-0.07710	-0.23873
979.000	0.66622	0.20689	-0.04745	-0.22083
980.000	0.68796	0.25065	-0.02768	-0.19496
981.000	0.64052	0.22678	-0.06129	-0.20093
982.000	0.62866	0.25861	-0.05536	-0.23475
983.000	0.65238	0.22877	-0.05338	-0.24470
984.000	0.65041	0.16909	-0.02768	-0.26061
985.000	0.64052	0.23474	-0.04152	-0.22481
986.000	0.66227	0.23474	-0.04152	-0.23674
987.000	0.68599	0.24667	-0.05733	-0.19894
988.000	0.64448	0.22678	-0.05536	-0.23674
989.000	0.71168	0.24468	-0.02570	-0.25664
990.000	0.65831	0.21683	-0.05931	-0.28250
991.000	0.66820	0.24269	-0.07513	-0.21884
992.000	0.65436	0.22877	-0.04152	-0.27653
993.000	0.65831	0.26855	-0.06326	-0.25465
994.000	0.65831	0.22081	-0.02372	-0.25465
995.000	0.68203	0.18898	-0.03559	-0.24868
996.000	0.68401	0.21086	-0.01186	-0.23276
997.000	0.67413	0.21683	-0.04943	-0.21884
998.000	0.65634	0.21882	-0.03361	-0.26459
999.000	0.64448	0.21087	-0.02768	-0.25862
1000.000	0.69389	0.25861	-0.04547	-0.22083
1001.000	0.66424	0.22280	-0.00198	-0.17905
1002.000	0.70378	0.24667	-0.00989	-0.25664
1003.000	0.64448	0.19694	-0.02768	-0.24271
1004.000	0.65041	0.24866	-0.02768	-0.22679
1005.000	0.68994	0.26855	-0.05140	-0.23873
1006.000	0.70180	0.26457	-0.00989	-0.14324
1007.000	0.71564	0.26457	-0.04547	-0.19099
1008.000	0.74331	0.27850	0.01186	-0.19099
1009.000	0.67808	0.26259	-0.00198	-0.19894
1010.000	0.69587	0.27452	-0.02570	-0.25863
1011.000	0.69587	0.25861	-0.01977	-0.16114
1012.000	0.67215	0.31630	-0.02768	-0.22083
1013.000	0.70773	0.28447	-0.00198	-0.21486
1014.000	0.68599	0.29640	-0.01582	-0.22481
1015.000	0.67017	0.26259	-0.02768	-0.21287
1016.000	0.68006	0.28447	-0.00395	-0.19894
1017.000	0.68401	0.28845	-0.00593	-0.22282
1018.000	0.66820	0.28646	-0.03559	-0.24470
1019.000	0.70378	0.29839	-0.00395	-0.18900
1020.000	0.68006	0.30834	-0.00791	-0.22083
1021.000	0.66622	0.26458	0.02372	-0.19894
1022.000	0.73738	0.27253	-0.03361	-0.20889
1023.000	0.70378	0.28049	-0.01779	-0.20690
1024.000	0.68796	0.27054	-0.01977	-0.18104
1025.000	0.68006	0.28248	-0.02372	-0.19297
1026.000	0.71168	0.29640	-0.01977	-0.22481
1027.000	0.70378	0.29043	0.01186	-0.21884
1028.000	0.71564	0.31828	-0.02768	-0.19496
1029.000	0.70180	0.30834	0.00198	-0.17109
1030.000	0.70773	0.30237	-0.01977	-0.19297
1031.000	0.66820	0.30237	-0.00989	-0.19297
1032.000	0.69785	0.33619	-0.01582	-0.19894
1033.000	0.69785	0.28447	0.00791	-0.17905
1034.000	0.72750	0.31430	-0.00989	-0.20491
1035.000	0.68203	0.27253	-0.01582	-0.19297
1036.000	0.68994	0.29242	-0.01384	-0.18303
1037.000	0.66820	0.29441	0.00000	-0.16114
1038.000	0.71366	0.27054	0.00395	-0.15319
1039.000	0.67017	0.31033	0.02372	-0.16313
1040.000	0.71761	0.35210	0.02966	-0.16711
1041.000	0.70575	0.27253	0.00791	-0.17507
1042.000	0.69192	0.29043	0.01384	-0.19695
1043.000	0.69587	0.29441	0.02175	-0.14921
1044.000	0.70773	0.31033	-0.00989	-0.14722
1045.000	0.76110	0.33220	0.00989	-0.13528
1046.000	0.72750	0.31231	0.03756	-0.13727
1047.000	0.72552	0.29441	0.04745	-0.15518
1048.000	0.72552	0.31629	0.04745	-0.12136
1049.000	0.65041	0.29243	0.03361	-0.14125
1050.000	0.73738	0.29043	-0.00791	-0.14921
1051.000	0.71959	0.35608	0.00989	-0.14722
1052.000	0.72750	0.32027	0.02570	-0.13329
1053.000	0.72354	0.32226	0.03361	-0.13130
1054.000	0.66029	0.33420	0.00989	-0.15319
1055.000	0.69389	0.29441	0.02372	-0.14523
1056.000	0.68401	0.32027	0.04943	-0.15518
1057.000	0.70971	0.34215	0.03163	-0.14722
1058.000	0.72552	0.36005	0.04943	-0.13926
1059.000	0.73540	0.34812	0.06326	-0.16313
1060.000	0.69192	0.34414	0.04349	-0.12931
1061.000	0.70180	0.34613	0.06722	-0.14921
1062.000	0.68203	0.32624	0.03559	-0.15717
1063.000	0.68796	0.35011	0.01977	-0.15915
1064.000	0.67808	0.32027	0.05931	-0.15319
1065.000	0.70773	0.34613	0.05140	-0.15717
1066.000	0.70378	0.33619	0.02175	-0.11738
1067.000	0.68006	0.28447	0.02768	-0.12732
1068.000	0.66424	0.29044	0.05931	-0.15915
1069.000	0.66622	0.27651	0.01779	-0.12732
1070.000	0.72552	0.29640	0.01977	-0.15717
1071.000	0.68203	0.34017	0.04152	-0.09947
1072.000	0.72354	0.31231	0.04547	-0.13727
1073.000	0.67808	0.28447	0.03559	-0.11340
1074.000	0.72750	0.31828	0.02372	-0.12931
1075.000	0.71564	0.31828	0.02175	-0.08754
1076.000	0.73145	0.34215	0.05733	-0.13130
1077.000	0.71761	0.31231	0.05931	-0.12136
1078.000	0.71168	0.35011	0.03163	-0.14722
1079.000	0.64645	0.29044	0.00989	-0.14921
1080.000	0.70773	0.29640	0.04349	-0.11141
1081.000	0.72552	0.32624	0.06129	-0.12533
1082.000	0.71564	0.33221	0.04547	-0.12732
1083.000	0.72552	0.31032	0.03559	-0.07958
1084.000	0.71761	0.28844	0.00791	-0.12136
1085.000	0.68006	0.31629	0.05338	-0.13926
1086.000	0.68796	0.28248	0.03559	-0.14722
1087.000	0.69192	0.32425	0.04547	-0.14921
1088.000	0.69785	0.30038	0.00989	-0.13727
1089.000	0.68401	0.30237	0.04152	-0.07162
1090.000	0.70575	0.31828	0.02966	-0.08555
1091.000	0.65831	0.33221	0.03559	-0.11738
1092.000	0.67413	0.34613	-0.00593	-0.16711
1093.000	0.68006	0.29839	0.03163	-0.13926
1094.000	0.69587	0.32226	0.01977	-0.13130
1095.000	0.69587	0.34613	0.02175	-0.12334
1096.000	0.68006	0.29043	0.00791	-0.08754
1097.000	0.66820	0.27651	0.03163	-0.11738
1098.000	0.67808	0.29043	-0.00593	-0.15915
1099.000	0.68994	0.33221	-0.00198	-0.17109
1100.000	0.68203	0.28845	0.02768	-0.14722
1101.000	0.68994	0.29839	0.02768	-0.16114
1102.000	0.70971	0.32226	0.01582	-0.16313
1103.000	0.72354	0.29242	0.04349	-0.17507
1104.000	0.67808	0.27253	0.03163	-0.14921
1105.000	0.66029	0.23673	0.01384	-0.18701
1106.000	0.65436	0.23872	0.03163	-0.17308
1107.000	0.63855	0.22479	0.01384	-0.17308
1108.000	0.66029	0.29243	0.01977	-0.18502
1109.000	0.64645	0.22678	0.02570	-0.21088
1110.000	0.64250	0.26657	0.03361	-0.21884
1111.000	0.68599	0.25065	0.05140	-0.17706
1112.000	0.63657	0.21087	0.04547	-0.17905
1113.000	0.67017	0.23275	0.01977	-0.17308
1114.000	0.66424	0.20689	0.06129	-0.14324
1115.000	0.62075	0.21882	0.07315	-0.17109
1116.000	0.67808	0.26060	0.02570	-0.10544
1117.000	0.69192	0.24269	0.02570	-0.12533
1118.000	0.67413	0.29044	0.08303	-0.14125
1119.000	0.64052	0.22479	0.06326	-0.08356
1120.000	0.63855	0.28646	0.05338	-0.11340
1121.000	0.64448	0.22877	0.06524	-0.08157
1122.000	0.63262	0.24866	0.03954	-0.06167
1123.000	0.66227	0.26060	0.04943	-0.06366
1124.000	0.66029	0.22877	0.04745	-0.09748
1125.000	0.63262	0.20888	0.06722	-0.07759
1126.000	0.67413	0.30038	0.05733	-0.09748
1127.000	0.67017	0.25065	0.07908	-0.10345
1128.000	0.65831	0.24667	0.07117	-0.09947
1129.000	0.70773	0.27850	0.06524	-0.09350
1130.000	0.69587	0.28248	0.05733	-0.07759
1131.000	0.65436	0.30237	0.05931	-0.09350
1132.000	0.69785	0.28844	0.04547	-0.08356
1133.000	0.65041	0.25861	0.08699	-0.08157
1134.000	0.69982	0.30038	0.04349	-0.07958
1135.000	0.65634	0.28447	0.07513	-0.10743
1136.000	0.68006	0.29242	0.05536	-0.06366
1137.000	0.70378	0.23473	0.04349	-0.04178
1138.000	0.68006	0.29839	0.05338	-0.05769
1139.000	0.71761	0.28049	0.04547	-0.08157
1140.000	0.70575	0.25065	0.04943	-0.09748
1141.000	0.71564	0.35011	0.06920	-0.08157
1142.000	0.69587	0.24866	0.09094	-0.07162
1143.000	0.69389	0.25861	0.08303	-0.05570
1144.000	0.70971	0.31231	0.09885	-0.03780
1145.000	0.69982	0.28447	0.05931	-0.07162
1146.000	0.69982	0.30237	0.10083	-0.06764
1147.000	0.70773	0.28447	0.09292	-0.06963
1148.000	0.70773	0.29441	0.03559	-0.11141
1149.000	0.67413	0.25463	0.05338	-0.06764
1150.000	0.68006	0.28646	0.07513	-0.07759
1151.000	0.66424	0.27850	0.05931	-0.07361
1152.000	0.66029	0.27452	0.09094	-0.05371
1153.000	0.70378	0.24070	0.08303	-0.06565
1154.000	0.67017	0.27253	0.07908	-0.06366
1155.000	0.67808	0.27651	0.05536	-0.05769
1156.000	0.69982	0.25463	0.10874	-0.05570
1157.000	0.67610	0.21683	0.08897	-0.08952
1158.000	0.70180	0.28248	0.09094	-0.04775
1159.000	0.66424	0.28248	0.06129	-0.08754
1160.000	0.68006	0.26060	0.10083	-0.09748
1161.000	0.67808	0.26259	0.05733	-0.05769
1162.000	0.70575	0.26258	0.09687	-0.07361
1163.000	0.65831	0.26657	0.10478	-0.07361
1164.000	0.69192	0.28447	0.09292	-0.02188
1165.000	0.71168	0.26059	0.07710	-0.07162
1166.000	0.69389	0.26457	0.10874	-0.03581
1167.000	0.69587	0.29640	0.08699	-0.02785
1168.000	0.68796	0.23871	0.07908	-0.04974
1169.000	0.70575	0.26656	0.08501	-0.06366
1170.000	0.67808	0.27054	0.09885	-0.00597
1171.000	0.66820	0.26656	0.09687	-0.01194
1172.000	0.69982	0.27054	0.09885	-0.02785
1173.000	0.68796	0.23275	0.07710	-0.03183
1174.000	0.69587	0.23672	0.12455	-0.02586
1175.000	0.65436	0.28646	0.11862	-0.03183
1176.000	0.67610	0.24070	0.09490	-0.02984
1177.000	0.70378	0.22678	0.11269	-0.00995
1178.000	0.67808	0.25861	0.08501	-0.00398
1179.000	0.70971	0.27651	0.08106	-0.01989
1180.000	0.68401	0.25264	0.11664	-0.01592
1181.000	0.69192	0.26656	0.12060	-0.00597
1182.000	0.70378	0.28049	0.10280	0.01194
1183.000	0.69389	0.29242	0.11467	0.03581
1184.000	0.69389	0.30635	0.10280	0.03581
1185.000	0.64645	0.25861	0.09094	0.00597
1186.000	0.67610	0.32624	0.13048	-0.03780
1187.000	0.67017	0.33619	0.10280	0.00995
1188.000	0.67215	0.33420	0.09292	-0.00796
1189.000	0.69982	0.32027	0.15421	0.00796
1190.000	0.64250	0.28845	0.10676	0.00000
1191.000	0.69785	0.30237	0.12455	0.03780
1192.000	0.70180	0.30834	0.12653	-0.01194
1193.000	0.70378	0.34414	0.11862	-0.00398
1194.000	0.68401	0.37398	0.10874	-0.01393
1195.000	0.69587	0.35807	0.10874	0.02586
1196.000	0.71168	0.34215	0.14037	0.03382
1197.000	0.68203	0.33818	0.15223	0.04775
1198.000	0.71761	0.34016	0.12060	0.06167
1199.000	0.67610	0.33221	0.14827	-0.01989
1200.000	0.69982	0.34812	0.11071	-0.01790
1201.000	0.69785	0.33022	0.13246	0.02984
1202.000	0.68599	0.33221	0.13246	0.05173
1203.000	0.68006	0.30237	0.14432	0.02984
1204.000	0.67017	0.30436	0.14432	0.00199
1205.000	0.69587	0.31232	0.13839	-0.00796
1206.000	0.68599	0.33221	0.12850	0.04178
1207.000	0.68006	0.33022	0.14234	0.04775
1208.000	0.68006	0.26855	0.16014	0.02984
1209.000	0.67017	0.33420	0.16607	0.01393
1210.000	0.68203	0.31033	0.14432	0.01989
1211.000	0.69389	0.30635	0.14432	-0.00995
1212.000	0.66424	0.29441	0.16409	-0.01989
1213.000	0.66622	0.33420	0.13246	-0.00398
1214.000	0.65436	0.28845	0.14630	0.02984
1215.000	0.68006	0.27850	0.15816	0.06764
1216.000	0.63855	0.32823	0.12257	0.01790
1217.000	0.66424	0.31033	0.17398	0.09151
1218.000	0.68006	0.28049	0.13444	0.02984
1219.000	0.68994	0.32624	0.13444	0.07560
1220.000	0.65041	0.30237	0.15025	0.10743
1221.000	0.69192	0.32823	0.15421	0.07759
1222.000	0.68796	0.30436	0.16607	0.05968
1223.000	0.70971	0.33022	0.15025	0.08356
1224.000	0.70971	0.30237	0.13246	0.05968
1225.000	0.66820	0.34216	0.13048	0.08157
1226.000	0.66227	0.29839	0.12257	0.08356
1227.000	0.65436	0.29441	0.16607	0.10743
1228.000	0.67808	0.34216	0.15223	0.08753
1229.000	0.68006	0.35011	0.11467	0.07759
1230.000	0.66424	0.34812	0.09292	0.09549
1231.000	0.69389	0.37995	0.09094	0.09151
1232.000	0.69587	0.40382	0.11467	0.10146
1233.000	0.74133	0.38989	0.17595	0.11340
1234.000	0.81645	0.36403	0.22340	0.08356
1235.000	0.88760	0.38590	0.39342	0.16910
1236.000	1.04769	0.36002	0.52982	0.05371
1237.000	1.24729	0.43558	0.76901	0.15715
1238.000	1.48242	0.52303	1.04572	0.28444
1239.000	1.83798	0.64422	1.36783	0.43158
1240.000	2.11246	0.71965	1.71355	0.59058
1241.000	2.43420	0.84469	2.10654	0.68785
1242.000	2.83666	0.99737	2.46972	0.77710
1243.000	3.16000	1.09041	2.81693	0.86827
1244.000	3.45162	1.19926	3.19941	0.91562
1245.000	3.70763	1.37751	3.50283	1.00467
1246.000	4.02841	1.41071	3.73716	1.09372
1247.000	4.19559	1.45404	4.02841	1.16674
1248.000	4.44918	1.59428	4.24672	1.20410
1249.000	4.63778	1.65132	4.48848	1.17595
1250.000	4.84002	1.66866	4.64956	1.24902
1251.000	4.92245	1.66846	4.74579	1.24092
1252.000	5.04999	1.76119	4.86161	1.25656
1253.000	5.25198	1.83782	4.90675	1.33374
1254.000	5.34018	1.84547	4.97347	1.28211
1255.000	5.41661	1.79775	5.02448	1.22258
1256.000	5.49497	1.86478	5.09118	1.15709
1257.000	5.63011	1.93159	5.13041	1.17683
1258.000	5.70450	1.92146	5.20296	1.16679
1259.000	5.74756	1.88374	5.23825	1.28752
1260.000	5.75930	1.84416	5.31274	1.22400
1261.000	5.77105	1.83819	5.30882	1.29133
1262.000	5.72016	1.86010	5.30882	1.32697
1263.000	5.68492	1.84835	5.28726	1.29138
1264.000	5.64381	1.92957	5.30294	1.31708
1265.000	5.59486	1.88424	5.25002	1.33303
1266.000	5.54982	1.91010	5.20100	1.36086
1267.000	5.52240	1.91217	5.17159	1.38271
1268.000	5.46167	1.86884	5.15198	1.39265
1269.000	5.38918	1.83345	5.09706	1.40465
1270.000	5.38918	1.80377	5.01075	1.40286
1271.000	5.35194	1.77815	5.04214	1.36714
1272.000	5.38526	1.75827	4.98328	1.39697
1273.000	5.34018	1.74059	4.99702	1.35535
1274.000	5.38526	1.72463	4.95974	1.36335
1275.000	5.42053	1.69683	5.00879	1.35929
1276.000	5.54982	1.72416	5.03822	1.36517
1277.000	5.57528	1.69836	5.02841	1.35330
1278.000	5.61053	1.68837	5.08137	1.32745
1279.000	5.68297	1.72970	5.12256	1.35905
1280.000	5.73973	1.67810	5.12844	1.40656
1281.000	5.77300	1.75118	5.12060	1.40856
1282.000	5.81997	1.73917	5.14413	1.43227
1283.000	5.80823	1.74909	5.16963	1.41835
1284.000	5.82584	1.76485	5.21473	1.46379
1285.000	5.82779	1.77671	5.22061	1.43210
1286.000	5.84736	1.75885	5.24413	1.44986
1287.000	5.85518	1.79837	5.21080	1.44004
1288.000	5.84540	1.80434	5.22061	1.48556
1289.000	5.89235	1.82988	5.22649	1.45188
1290.000	5.86692	1.85962	5.22453	1.46377
1291.000	5.89235	1.80814	5.21669	1.47764
1292.000	5.85127	1.80827	5.24413	1.46768
1293.000	5.84540	1.80631	5.22061	1.47962
1294.000	5.85518	1.83001	5.19512	1.47572
1295.000	5.87866	1.83191	5.17159	1.50745
1296.000	5.84149	1.82214	5.11472	1.47590
1297.000	5.83953	1.81424	5.10883	1.49374
1298.000	5.86301	1.77858	5.09510	1.50565
1299.000	5.89235	1.79430	5.07353	1.50966
1300.000	5.82975	1.79055	5.06960	1.49185
1301.000	5.84932	1.79048	5.03037	1.46421
1302.000	5.86497	1.81218	5.05783	1.49782
1303.000	5.88062	1.77457	5.04018	1.47607
1304.000	5.84540	1.77468	5.06960	1.46808
1305.000	5.87279	1.76471	5.04214	1.48201
1306.000	5.82975	1.76880	5.01860	1.46424
1307.000	5.86497	1.75880	5.02252	1.42858
1308.000	5.84736	1.77665	4.98917	1.44054
1309.000	5.87279	1.74691	5.04410	1.43645
1310.000	5.84540	1.75491	5.04999	1.48793
1311.000	5.87475	1.76075	5.01467	1.48405
1312.000	5.84932	1.72326	5.01271	1.42266
1313.000	5.81997	1.74510	5.00486	1.46427
1314.000	5.87475	1.78447	5.01664	1.44642
1315.000	5.80823	1.74909	5.02056	1.48998
1316.000	5.83171	1.78658	5.03037	1.53749
1317.000	5.82192	1.78266	5.02252	1.44244
1318.000	5.86497	1.77066	5.02252	1.45235
1319.000	5.85714	1.73905	5.04018	1.48003
1320.000	5.83366	1.72726	5.05195	1.46416
1321.000	5.83366	1.76878	5.00290	1.50586
1322.000	5.86301	1.72519	5.05391	1.52753
1323.000	5.87279	1.71725	5.01860	1.50781
1324.000	5.85714	1.69555	5.02056	1.49394
1325.000	5.85518	1.77860	5.03822	1.48796
1326.000	5.89235	1.70731	5.04999	1.48793
1327.000	5.86692	1.80427	5.03233	1.48005
1328.000	5.91974	1.78037	5.03625	1.49985
1329.000	5.85127	1.73116	5.02252	1.47017
1330.000	5.87475	1.78447	5.06176	1.52553
1331.000	5.89431	1.79627	5.06176	1.51365
1332.000	5.86497	1.73507	5.04410	1.51963
1333.000	5.83758	1.81029	5.04802	1.50576
1334.000	5.86105	1.83394	5.06176	1.52355
1335.000	5.89431	1.79627	5.03822	1.50578
1336.000	5.90605	1.74285	5.04999	1.47803
1337.000	5.88453	1.74885	5.02841	1.50581
1338.000	5.87670	1.78842	5.04606	1.48398
1339.000	5.85910	1.77661	5.03233	1.56521
1340.000	5.91387	1.78039	5.05979	1.50771
1341.000	5.88649	1.76269	5.03233	1.51372
1342.000	5.89431	1.76464	5.03233	1.53154
1343.000	5.89627	1.74684	5.02056	1.52167
1344.000	5.92170	1.75664	5.02056	1.51969
1345.000	5.88453	1.74292	5.02056	1.52167
1346.000	5.86692	1.82008	5.02056	1.54543
1347.000	5.87084	1.73505	4.99309	1.51381
1348.000	5.88844	1.73895	4.99505	1.52965
1349.000	5.86888	1.73901	5.01271	1.51376
1350.000	5.86497	1.71728	4.99309	1.49598
1351.000	5.89235	1.71522	5.00486	1.56329
1352.000	5.91778	1.74479	4.99113	1.48609
1353.000	5.87866	1.74887	5.00094	1.56132
1354.000	5.89627	1.72311	4.99309	1.51777
1355.000	5.90018	1.78241	4.99702	1.55143
1356.000	5.88062	1.77457	4.98132	1.49799
1357.000	5.88844	1.77454	4.97151	1.50990
1358.000	5.93343	1.70125	4.95581	1.46834
1359.000	5.89822	1.70729	4.98721	1.50788
1360.000	5.93147	1.74870	5.03037	1.49392
1361.000	5.92170	1.75269	4.99309	1.53361
1362.000	5.89235	1.74092	4.98328	1.53166
1363.000	5.90213	1.74484	4.96955	1.52773
1364.000	5.90800	1.75669	4.98524	1.53957
1365.000	5.87670	1.75085	4.99505	1.50786
1366.000	5.92952	1.75859	5.00486	1.48606
1367.000	5.93734	1.74275	4.99702	1.50192
1368.000	5.89431	1.77057	5.00290	1.49200
1369.000	5.92561	1.78431	5.00683	1.52170
1370.000	5.90409	1.72902	4.98132	1.49601
1371.000	5.90800	1.74680	5.04802	1.47804
1372.000	5.91387	1.74678	4.99505	1.48410
1373.000	5.95103	1.76446	4.99309	1.44845
1374.000	5.92170	1.76653	5.00683	1.49397
1375.000	5.95103	1.72887	4.97936	1.51186
1376.000	5.89040	1.76267	5.01075	1.49991
1377.000	5.91778	1.74282	5.02252	1.51176
1378.000	5.92561	1.76849	4.97936	1.49205
1379.000	5.92365	1.71907	4.98917	1.50194
1380.000	5.92756	1.79023	5.02645	1.47412
1381.000	5.91974	1.74676	4.96562	1.47624
1382.000	5.93343	1.76056	5.02056	1.50186
1383.000	5.94125	1.74472	5.02841	1.48006
1384.000	5.94908	1.77830	5.01467	1.44444
1385.000	5.92756	1.72499	5.03037	1.43847
1386.000	5.95299	1.74468	5.03233	1.48599
1387.000	5.95690	1.76444	5.02645	1.46620
1388.000	5.93734	1.76252	4.97543	1.45245
1389.000	5.93930	1.72298	5.00486	1.49002
1390.000	5.91974	1.71909	5.01075	1.48406
1391.000	5.96472	1.76837	4.99113	1.45638
1392.000	5.94712	1.74668	5.01467	1.42662
1393.000	5.97255	1.72683	5.00486	1.49596
1394.000	5.95886	1.74269	4.98328	1.39697
1395.000	5.95886	1.77234	5.00290	1.45041
1396.000	5.96863	1.75847	5.00879	1.45832
1397.000	5.97059	1.75451	5.00879	1.46030
1398.000	5.99210	1.74060	4.98328	1.49403
1399.000	5.99797	1.75047	5.03233	1.48797
1400.000	5.97255	1.74264	5.01664	1.48603
1401.000	5.96668	1.74859	5.00094	1.47220
1402.000	5.98819	1.78608	5.03037	1.50976
1403.000	5.99797	1.75244	5.03233	1.45629
1404.000	5.99601	1.80384	5.02252	1.43848
1405.000	5.98428	1.79400	5.00486	1.49002
1406.000	5.96277	1.76640	5.01467	1.50188
1407.000	5.92952	1.73882	5.03429	1.48203
1408.000	5.96472	1.76244	5.03233	1.48797
1409.000	5.97646	1.74263	4.99309	1.49004
1410.000	5.96472	1.75255	5.00290	1.54745
1411.000	5.99601	1.78408	5.00486	1.49794
1412.000	5.99797	1.74058	5.04410	1.48201
1413.000	6.01165	1.73461	5.00094	1.51181
1414.000	5.98037	1.70901	4.99505	1.49796
1415.000	6.03121	1.76222	5.02448	1.52958
1416.000	5.97646	1.76042	5.03429	1.50183
1417.000	6.02730	1.79979	5.01467	1.49990
1418.000	5.97450	1.75252	5.03037	1.50184
1419.000	5.98623	1.76632	5.03429	1.48203
1420.000	5.99210	1.76037	5.00486	1.53953
1421.000	6.01165	1.76624	5.02252	1.48998
1422.000	5.95494	1.71502	5.04410	1.46220
1423.000	5.99601	1.75245	5.04606	1.52359
1424.000	6.05662	1.73447	5.08333	1.58093
1425.000	6.11527	1.79159	5.16767	1.58864
1426.000	6.20516	1.82487	5.22061	1.62809
1427.000	6.31846	1.88769	5.30294	1.62590
1428.000	6.42781	1.94653	5.43816	1.67303
1429.000	6.55858	2.04078	5.56744	1.74389
1430.000	6.66587	1.98705	5.72016	1.75134
1431.000	6.76727	1.99453	5.79844	1.82030
1432.000	6.89590	1.99202	5.94908	1.79609
1433.000	7.00694	2.03099	6.08986	1.77586
1434.000	7.15686	2.03033	6.13872	1.76977
1435.000	7.18216	1.99473	6.23838	1.81488
1436.000	7.27555	2.06330	6.27159	1.89774
1437.000	7.28139	2.09087	6.31065	1.83241
1438.000	7.32418	2.18919	6.32237	1.86792
1439.000	7.30278	2.14792	6.32628	1.83038
1440.000	7.30862	2.18533	6.31846	1.80473
1441.000	7.25999	2.18359	6.25010	1.83657
1442.000	7.23081	2.19950	6.21298	1.79521
1443.000	7.15686	2.15255	6.21884	1.75172
1444.000	7.09846	2.12720	6.11722	1.74415
1445.000	7.04394	2.12350	6.03512	1.77011
1446.000	7.02642	2.15513	5.99406	1.85129
1447.000	6.94461	2.15551	5.94321	1.79611
1448.000	6.93487	2.12794	5.94908	1.79016
1449.000	6.96214	2.10218	5.90018	1.74089
1450.000	6.94071	2.09242	5.95886	1.74269
1451.000	6.92513	2.09249	5.95103	1.74469
1452.000	6.93487	2.08653	5.95103	1.80597
1453.000	6.98747	2.09418	5.98623	1.78016
1454.000	6.96020	2.07655	5.97841	1.72286
1455.000	7.01278	2.09801	5.98037	1.76041
1456.000	7.00305	2.09608	6.03316	1.71082
1457.000	7.01084	2.02308	6.06053	1.76015
1458.000	7.04200	2.00717	6.02339	1.76422
1459.000	7.02447	2.02500	6.03512	1.78790
1460.000	7.02252	2.00134	6.02534	1.82944
1461.000	7.01863	1.98953	5.98623	1.80388
1462.000	7.04978	2.02292	6.01557	1.77611
1463.000	7.05173	2.01896	6.03121	1.81361
1464.000	7.03226	2.05257	6.02339	1.85514
1465.000	7.05563	2.01895	6.04685	1.83530
1466.000	7.05952	1.99724	6.05271	1.88468
1467.000	7.04784	2.03278	6.06835	1.81546
1468.000	7.02642	2.03288	6.05271	1.80761
1469.000	7.09457	2.02863	6.06053	1.83920
1470.000	7.11014	2.03251	6.07617	1.83915
1471.000	7.08094	2.06221	6.05271	1.85899
1472.000	7.11403	2.02263	6.06249	1.84315
1473.000	7.08678	2.04050	6.05662	1.86688
1474.000	7.08289	2.04446	6.04098	1.86299
1475.000	7.12182	1.98119	6.05076	1.87481
1476.000	7.08094	2.01489	6.06640	1.86487
1477.000	7.13350	2.05015	6.06053	1.87675
1478.000	7.14323	2.04025	6.03121	1.84128
1479.000	7.10430	2.02662	5.99992	1.89673
1480.000	7.09262	2.06808	6.04489	1.83926
1481.000	7.11793	2.06796	6.02143	1.87689
1482.000	7.11209	2.02659	5.99992	1.90068
1483.000	7.09846	2.07397	6.03316	1.87487
1484.000	7.11014	2.04631	6.04880	1.88272
1485.000	7.08873	2.06809	6.06640	1.82733
1486.000	7.09457	2.00892	5.97646	1.90076
1487.000	7.08483	2.02473	5.98623	1.84143
1488.000	7.09651	2.02665	6.01948	1.83539
1489.000	7.13155	2.05016	5.99797	1.84337
1490.000	7.11014	2.03645	6.01948	1.87492
1491.000	7.10041	2.02861	6.03512	1.87091
1492.000	7.05173	2.04460	5.97841	1.86518
1493.000	7.09846	1.99510	5.99992	1.90463
1494.000	7.09651	2.01088	6.01361	1.84727
1495.000	7.08483	2.09177	5.98428	1.88294
1496.000	7.09651	1.97342	6.04098	1.90053
1497.000	7.09262	2.03456	6.01557	1.86703
1498.000	7.10430	1.96352	6.03316	1.84523
1499.000	7.09067	2.02865	5.99210	1.87699
1500.000	7.13739	2.04816	6.05271	1.85306
1501.000	7.12766	1.98314	6.02143	1.86898
1502.000	7.12377	2.00485	5.99015	1.89083
1503.000	7.11793	2.00290	6.01948	1.91840
1504.000	7.08678	2.02867	6.01361	1.83343
1505.000	7.10235	2.03057	6.02925	1.83931
1506.000	7.12571	1.99104	5.99992	1.86510
1507.000	7.10041	2.04044	6.01165	1.85320
1508.000	7.09457	1.98920	6.02730	1.85710
1509.000	7.12182	2.02851	6.00774	1.82555
1510.000	7.08094	2.04053	6.01948	1.81958
1511.000	7.11014	2.06603	6.01361	1.82948
1512.000	7.12571	2.05413	6.02925	1.81164
1513.000	7.11014	2.02068	6.06249	1.80758
1514.000	7.10235	2.05423	6.06835	1.78779
1515.000	7.10235	2.05620	6.01165	1.80972
1516.000	7.08483	2.01093	6.02730	1.77014
1517.000	7.08289	2.07995	6.04880	1.80762
1518.000	7.09457	2.01483	6.02730	1.79979
1519.000	7.09067	2.03654	6.01948	1.81563
1520.000	7.09067	2.05823	6.07226	1.80161
1521.000	7.08483	2.03459	6.05076	1.81157
1522.000	7.04978	2.11362	6.04685	1.84123
1523.000	7.07120	2.07803	6.01165	1.78403
1524.000	7.08678	2.07599	6.02730	1.79386
1525.000	7.10625	2.07985	6.05271	1.80958
1526.000	7.09651	2.03060	6.08399	1.82331
1527.000	7.11598	2.07389	6.06249	1.78584
1528.000	7.11987	2.04232	6.04098	1.76417
1529.000	7.10430	2.01676	6.05076	1.79971
1530.000	7.10041	2.06016	6.01948	1.80179
1531.000	7.10430	2.00690	6.02925	1.78397
1532.000	7.15102	2.05204	6.02339	1.78596
1533.000	7.10625	2.06210	6.07031	1.76605
1534.000	7.11014	2.05025	6.04880	1.73449
1535.000	7.08483	2.03065	6.02925	1.70886
1536.000	7.11209	2.03053	6.03707	1.72860
1537.000	7.07120	2.02874	6.03707	1.70093
1538.000	7.10430	2.02268	6.09181	1.72447
1539.000	7.13350	2.05212	6.09377	1.67703
1540.000	7.09457	2.02469	6.07813	1.75614
1541.000	7.10041	2.02861	6.08204	1.72253
1542.000	7.10041	2.00889	6.07031	1.70675
1543.000	7.11209	2.04630	6.07617	1.73243
1544.000	7.09846	2.03059	6.08595	1.71066
1545.000	7.12377	2.04822	6.07813	1.72452
1546.000	7.08873	2.00500	6.07422	1.73243
1547.000	7.15102	1.93966	6.06053	1.79375
1548.000	7.08483	2.03656	6.08399	1.71066
1549.000	7.10625	2.01281	6.05467	1.77796
1550.000	7.12377	2.02653	6.08595	1.71461
1551.000	7.09457	2.00695	6.07031	1.70082
1552.000	7.12182	2.02851	6.08986	1.74029
1553.000	7.15880	2.01652	6.03316	1.71478
1554.000	7.15102	2.07964	6.05076	1.73053
1555.000	7.12766	2.04032	6.07031	1.75221
1556.000	7.12961	2.01665	6.08204	1.77391
1557.000	7.10430	2.03254	6.07617	1.79172
1558.000	7.11793	2.04825	6.06053	1.78387
1559.000	7.13934	2.07970	6.08595	1.69484
1560.000	7.11793	2.07191	6.04685	1.76019
1561.000	7.13739	2.08956	6.09572	1.74422
1562.000	7.14518	2.03433	6.09377	1.74225
1563.000	7.13350	2.05606	6.08008	1.78973
1564.000	7.16075	2.07171	6.05662	1.85700
1565.000	7.11403	2.06404	6.10940	1.84299
1566.000	7.14713	2.04417	6.08595	1.79366
1567.000	7.17437	2.04011	6.03121	1.75827
1568.000	7.11014	2.04828	6.08399	1.81343
1569.000	7.17827	2.05389	6.07031	1.84115
1570.000	7.15296	2.04809	6.08790	1.75215
1571.000	7.11793	2.04628	6.10158	1.82918
1572.000	7.15686	2.10327	6.09572	1.83118
1573.000	7.16659	2.02634	6.04294	1.86298
1574.000	7.16075	2.05988	6.09377	1.78968
1575.000	7.16659	2.07366	6.09767	1.84303
1576.000	7.18216	2.04205	6.08790	1.86678
1577.000	7.15491	2.05991	6.08008	1.83518
1578.000	7.17243	2.05392	6.05858	1.81549
1579.000	7.17437	2.02434	6.05271	1.86295
1580.000	7.15491	2.00865	6.06835	1.85301
1581.000	7.14907	2.10331	6.06640	1.84709
1582.000	7.18216	2.04993	6.05467	1.83329
1583.000	7.18410	2.04007	6.04880	1.89260
1584.000	7.10430	2.02465	6.03316	1.83534
1585.000	7.14518	2.04221	6.04880	1.84320
1586.000	7.18605	2.05386	6.09963	1.79955
1587.000	7.13739	2.06196	6.04294	1.85903
1588.000	7.18216	2.09921	6.07422	1.81939
1589.000	7.17243	2.07166	6.05467	1.84318
1590.000	7.14907	2.10528	6.04098	1.82148
1591.000	7.16853	2.09533	6.03903	1.80568
1592.000	7.17048	2.09532	6.06640	1.81942
1593.000	7.14713	2.05995	6.04685	1.78193
1594.000	7.18216	2.07753	6.03707	1.79185
1595.000	7.15296	2.08752	6.06053	1.80165
1596.000	7.16464	2.06972	6.06053	1.78980
1597.000	7.18216	2.03022	6.03707	1.80371
1598.000	7.13350	2.08958	6.03316	1.87685
1599.000	7.13739	2.08168	6.05467	1.80365
1600.000	7.16270	2.05002	6.07617	1.77591
1601.000	7.15296	2.04218	6.04098	1.84915
1602.000	7.14907	2.04811	6.04880	1.82739
1603.000	7.14323	2.02053	6.06835	1.83325
1604.000	7.13350	2.01663	6.03316	1.86697
1605.000	7.13350	2.04226	6.04489	1.87088
1606.000	7.15296	2.02443	6.06640	1.86092
1607.000	7.12571	1.99498	6.06640	1.81349
1608.000	7.14713	2.00080	6.09377	1.84304
1609.000	7.16270	2.03819	6.01361	1.85517
1610.000	7.13545	1.99297	6.03121	1.86697
1611.000	7.13545	1.97128	6.02730	1.84722
1612.000	7.16853	1.95930	6.04880	1.86098
1613.000	7.13545	1.99494	6.07422	1.89647
1614.000	7.13350	1.95157	6.06053	1.89256
1615.000	7.17632	1.98490	6.04489	1.88273
1616.000	7.15102	2.00867	6.04685	1.87087
1617.000	7.15296	2.02443	6.06053	1.91232
1618.000	7.14129	1.98900	6.05076	1.90445
1619.000	7.14907	2.02051	6.08399	1.89050
1620.000	7.15686	1.98893	6.10158	1.85290
1621.000	7.12377	1.98316	6.14458	1.86855
1622.000	7.15296	2.01458	6.06640	1.87871
1623.000	7.13350	1.99692	6.09767	1.92800
1624.000	7.16270	2.00073	6.10549	1.90228
1625.000	7.12571	2.00089	6.10158	1.86080
1626.000	7.16659	1.98494	6.08986	1.92210
1627.000	7.15880	1.97709	6.09572	1.91417
1628.000	7.14713	2.00672	6.10158	1.92008
1629.000	7.14323	2.02053	6.08399	1.89446
1630.000	7.17437	2.04208	6.08008	1.92609
1631.000	7.16659	2.02832	6.08008	1.95177
1632.000	7.14907	2.07965	6.06640	1.93206
1633.000	7.14518	2.03038	6.12699	1.86269
1634.000	7.15880	2.05004	6.11136	1.91214
1635.000	7.17632	2.04010	6.11918	1.89631
1636.000	7.13350	2.10338	6.13286	1.85081
1637.000	7.18605	2.11102	6.11136	1.88250
1638.000	7.18994	2.07355	6.15435	1.91001
1639.000	7.15296	2.11512	6.12504	1.85281
1640.000	7.16659	2.09337	6.11527	1.84890
1641.000	7.18800	2.09327	6.12699	1.83107
1642.000	7.17243	2.11700	6.10745	1.84892
1643.000	7.18994	2.14451	6.13286	1.80931
1644.000	7.15491	2.08160	6.10549	1.81534
1645.000	7.13934	2.10335	6.15631	1.83887
1646.000	7.19189	2.13859	6.11331	1.79950
1647.000	7.14713	2.11317	6.13286	1.80931
1648.000	7.15296	2.13680	6.13286	1.83698
1649.000	7.17632	2.07756	6.13872	1.81127
1650.000	7.17243	2.15248	6.10549	1.77976
1651.000	7.15880	2.11509	6.11722	1.79158
1652.000	7.17632	2.09727	6.11918	1.83505
1653.000	7.22497	2.16011	6.17194	1.78349
1654.000	7.15491	2.11905	6.11331	1.81136
1655.000	7.21135	2.14244	6.13090	1.81920
1656.000	7.14323	2.13290	6.12308	1.82713
1657.000	7.21524	2.16213	6.10354	1.82918
1658.000	7.19773	2.11491	6.11331	1.80938
1659.000	7.19578	2.11689	6.12504	1.84689
1660.000	7.19773	2.10308	6.12308	1.81330
1661.000	7.18800	2.09524	6.11722	1.78961
1662.000	7.14518	2.08164	6.12699	1.81526
1663.000	7.13739	2.12110	6.12699	1.81922
1664.000	7.16853	2.10519	6.11722	1.83703
1665.000	7.19578	2.15631	6.07617	1.80951
1666.000	7.15491	2.07765	6.07617	1.80951
1667.000	7.18410	2.06964	6.12113	1.82714
1668.000	7.16270	2.13084	6.12895	1.86466
1669.000	7.14323	2.09742	6.13481	1.83697
1670.000	7.16464	2.09929	6.12699	1.84293
1671.000	7.21329	2.06162	6.09767	1.84105
1672.000	7.20746	2.09712	6.07422	1.84509
1673.000	7.19773	2.06760	6.13286	1.87255
1674.000	7.18021	2.04994	6.10549	1.93192
1675.000	7.17048	2.07364	6.12113	1.88247
1676.000	7.16659	2.04014	6.10745	1.84300
1677.000	7.16075	1.99483	6.08986	1.88851
1678.000	7.15686	2.01062	6.05076	1.91631
1679.000	7.18800	2.05385	6.10549	1.92007
1680.000	7.18410	2.01444	6.11136	1.90819
1681.000	7.18605	2.00852	6.09963	1.92009
1682.000	7.21524	2.00642	6.07226	1.92414
1683.000	7.15880	2.05595	6.11722	1.89039
1684.000	7.16853	2.03816	6.08595	1.91421
1685.000	7.14129	2.02449	6.07226	1.86881
1686.000	7.15880	2.03426	6.10940	1.88053
1687.000	7.16464	2.04607	6.12113	1.86073
1688.000	7.17632	1.99673	6.11331	1.87657
1689.000	7.18216	2.00459	6.12504	1.91209
1690.000	7.19578	1.98679	6.09767	1.91812
1691.000	7.17437	2.04405	6.11918	1.92792
1692.000	7.18800	1.99668	6.04880	1.89655
1693.000	7.21524	2.03401	6.07813	1.93992
1694.000	7.16270	2.00665	6.04098	1.83927
1695.000	7.18605	2.02626	6.05467	1.87084
1696.000	7.17827	2.03812	6.08204	1.86482
1697.000	7.20162	2.00845	6.03512	1.89265
1698.000	7.18994	2.00456	6.12699	1.87850
1699.000	7.17048	2.05196	6.04880	1.91632
1700.000	7.18605	2.05188	6.10158	1.87463
1701.000	7.20746	2.06953	6.10158	1.87463
1702.000	7.18605	2.04400	6.04294	1.89065
1703.000	7.20551	2.07742	6.04685	1.82146
1704.000	7.18800	2.05976	6.06053	1.86885
1705.000	7.19967	2.07745	6.08399	1.83715
1706.000	7.21135	2.08331	6.09963	1.84500
1707.000	7.20356	2.09320	6.05467	1.83922
1708.000	7.21135	2.08725	6.06444	1.83524
1709.000	7.21524	2.08920	6.03903	1.76417
1710.000	7.20746	2.06559	6.05858	1.82538
1711.000	7.17437	2.14458	6.05271	1.77401
1712.000	7.23470	2.08714	6.03512	1.80569
1713.000	7.23275	2.12854	6.07422	1.80556
1714.000	7.20940	2.15230	6.04294	1.81159
1715.000	7.23081	2.12855	6.04489	1.84123
1716.000	7.23275	2.15810	6.04489	1.87285
1717.000	7.21524	2.12074	6.07226	1.83916
1718.000	7.22302	2.12662	6.06640	1.83918
1719.000	7.20940	2.07740	6.08790	1.88061
1720.000	7.24248	2.10090	6.18171	1.89016
1721.000	7.33001	2.04926	6.22275	1.85840
1722.000	7.41557	2.00355	6.36143	1.89346
1723.000	7.54190	1.97539	6.49418	1.91863
1724.000	7.73804	1.95479	6.62491	1.83917
1725.000	7.90104	1.90285	6.75557	1.80907
1726.000	8.04840	1.92381	6.98941	1.73913
1727.000	8.26730	1.84016	7.18800	1.71472
1728.000	8.41633	1.73722	7.42918	1.58370
1729.000	8.54590	1.61870	7.61377	1.61850
1730.000	8.69278	1.67309	7.78269	1.51149
1731.000	8.79514	1.70209	7.94371	1.50303
1732.000	8.93025	1.61310	8.09104	1.44737
1733.000	9.00741	1.60883	8.21308	1.44496
1734.000	9.08839	1.43572	8.32538	1.31077
1735.000	9.15199	1.47276	8.45115	1.27888
1736.000	9.27527	1.57427	8.57104	1.24505
1737.000	9.41194	1.57169	8.64061	1.24286
1738.000	9.51966	1.58296	8.70051	1.23480
1739.000	9.64268	1.40403	8.78935	1.26988
1740.000	9.78481	1.31330	8.92832	1.29297
1741.000	9.91915	1.34019	9.04597	1.27684
1742.000	10.00354	1.29481	9.08839	1.20600
1743.000	10.01696	1.25167	9.10573	1.16864
1744.000	10.06488	1.16730	9.17704	1.14288
1745.000	10.06680	1.14771	9.16355	1.11544
1746.000	10.07063	1.07329	9.20979	0.98769
1747.000	10.08596	0.98121	9.26179	0.90117
1748.000	10.09363	1.02035	9.28683	0.85792
1749.000	10.07255	1.10265	9.27527	0.95414
1750.000	10.07255	1.10657	9.30030	0.88341
1751.000	10.09746	1.06928	9.27335	0.85992
1752.000	10.08979	0.98316	9.32148	0.82644
1753.000	10.09938	0.98900	9.28683	0.86185
1754.000	10.10896	0.91457	9.26949	0.82263
1755.000	10.15302	0.88703	9.27912	0.82261
1756.000	10.13003	0.86947	9.30415	0.78133
1757.000	10.17792	0.91437	9.22520	0.83844
1758.000	10.18750	0.94762	9.28490	0.84223
1759.000	10.18558	0.92609	9.26179	0.81087
1760.000	10.20665	0.94169	9.22135	0.84827
1761.000	10.16068	0.93595	9.25601	0.81089
1762.000	10.19516	0.98479	9.19630	0.85815
1763.000	10.18175	1.01028	9.20594	0.87972
1764.000	10.14536	1.02606	9.20401	0.86205
1765.000	10.19516	1.03372	9.20594	0.93862
1766.000	10.19324	1.07484	9.18282	0.96028
1767.000	10.21239	1.04933	9.24061	0.98760
1768.000	10.20665	1.05718	9.22905	0.97389
1769.000	10.20282	1.04153	9.28490	0.97178
1770.000	10.22197	1.02777	9.25987	0.96399
1771.000	10.24686	0.96506	9.22327	0.96998
1772.000	10.23345	1.01599	9.23675	0.92283
1773.000	10.28323	1.03735	9.25794	0.96204
1774.000	10.26791	1.00805	9.20208	0.91703
1775.000	10.23154	0.97881	9.22520	0.95624
1776.000	10.30619	1.00010	9.23675	0.96406
1777.000	10.27940	0.95322	9.21942	0.86987
1778.000	10.29471	0.94730	9.22905	0.84432
1779.000	10.31002	0.95704	9.17126	0.91122
1780.000	10.25643	1.00808	9.17126	0.93282
1781.000	10.28323	1.01191	9.15584	0.94857
1782.000	10.28131	1.01583	9.20208	0.93863
1783.000	10.26217	0.96501	9.15777	0.88180
1784.000	10.25260	0.94938	9.19245	0.89939
1785.000	10.22771	0.99447	9.16933	0.94068
1786.000	10.26408	0.95718	9.11152	0.94083
1787.000	10.26408	1.00415	9.12115	0.93688
1788.000	10.22962	1.00034	9.14235	0.95450
1789.000	10.22771	0.97099	9.13272	0.96630
1790.000	10.25643	0.96307	9.13657	0.87989
1791.000	10.20856	0.96517	9.11923	0.95848
1792.000	10.25643	1.01396	9.14235	0.93290
1793.000	10.24303	0.99051	9.15006	0.91913
1794.000	10.25068	0.99636	9.13464	0.95844
1795.000	10.24877	1.00028	9.13079	0.96042
1796.000	10.23154	0.98076	9.12308	0.94866
1797.000	10.23920	1.01792	9.11923	0.94670
1798.000	10.22962	1.00034	9.09417	0.95070
1799.000	10.24494	1.01399	9.08839	0.94482
1800.000	10.24494	0.97485	9.14043	0.90148
1801.000	10.26026	1.02960	9.09802	0.91926
1802.000	10.22962	0.99838	9.09610	0.95069
1803.000	10.28131	0.98844	9.15391	0.93679
1804.000	10.23920	1.01792	9.08453	0.94679
1805.000	10.29280	1.04319	9.09802	0.94283
1806.000	10.23728	1.06686	9.08453	0.86627
1807.000	10.23728	1.02967	9.13657	0.89167
1808.000	10.23345	1.04534	9.16162	0.88965
1809.000	10.24494	1.07466	9.16355	0.81306
1810.000	10.27174	1.07261	9.14428	0.86809
1811.000	10.24303	1.06488	9.14621	0.88183
1812.000	10.27748	1.06477	9.16740	0.82680
1813.000	10.26600	1.09416	9.17318	0.81108
1814.000	10.21622	1.03953	9.14235	0.79544
1815.000	10.26600	1.05698	9.18089	0.81106
1816.000	10.24303	1.03748	9.21942	0.84435
1817.000	10.22771	1.02579	9.24253	0.75987
1818.000	10.25451	1.01788	9.18474	0.77963
1819.000	10.23728	1.10209	9.21364	0.81098
1820.000	10.23728	1.01402	9.18667	0.78748
1821.000	10.26600	1.09024	9.20979	0.76976
1822.000	10.27174	1.10392	9.19052	0.79336
1823.000	10.26983	1.03152	9.17704	0.74430
1824.000	10.30236	1.07447	9.18282	0.75411
1825.000	10.23728	1.06099	9.22520	0.81096
1826.000	10.22771	1.05711	9.17896	0.80124
1827.000	10.24686	1.08444	9.25024	0.69114
1828.000	10.24303	1.01791	9.20979	0.75798
1829.000	10.26791	1.04327	9.20786	0.81689
1830.000	10.26791	1.07654	9.23098	0.74615
1831.000	10.23920	1.06881	9.20401	0.79137
1832.000	10.25834	1.03156	9.18860	0.78159
1833.000	10.27366	1.09218	9.19823	0.75408
1834.000	10.22580	1.03754	9.21749	0.80116
1835.000	10.29471	1.07841	9.21749	0.82472
1836.000	10.30045	1.08034	9.16548	0.81502
1837.000	10.25451	1.06289	9.18860	0.77962
1838.000	10.29471	1.07058	9.17704	0.81107
1839.000	10.25834	1.02178	9.19823	0.78353
1840.000	10.30811	1.10967	9.15777	0.84057
1841.000	10.25834	1.03352	9.19052	0.76980
1842.000	10.25260	0.98265	9.18282	0.79731
1843.000	10.27366	1.00999	9.18667	0.80123
1844.000	10.27174	1.04522	9.19438	0.79925
1845.000	10.23537	1.01598	9.21171	0.81491
1846.000	10.27174	1.04522	9.15584	0.84253
1847.000	10.23920	1.04141	9.15970	0.87002
1848.000	10.25068	1.05116	9.15006	0.86611
1849.000	10.25451	1.01200	9.18860	0.87780
1850.000	10.26408	1.01197	9.17704	0.81107
1851.000	10.28705	1.02755	9.19438	0.86600
1852.000	10.26983	1.03544	9.19052	0.83852
1853.000	10.29662	1.00404	9.15777	0.85824
1854.000	10.27366	1.05500	9.18860	0.91707
1855.000	10.30236	1.00794	9.19438	0.82084
1856.000	10.29280	1.04515	9.17511	0.92496
1857.000	10.24494	1.05509	9.16548	0.90142
1858.000	10.27557	1.05303	9.22905	0.86592
1859.000	10.30045	1.03142	9.16548	0.84251
1860.000	10.26408	1.03937	9.20786	0.85615
1861.000	10.28323	1.00017	9.16548	0.89945
1862.000	10.25643	1.03353	9.14621	0.88772
1863.000	10.26026	1.01786	9.20594	0.83849
1864.000	10.27940	0.96300	9.20594	0.88954
1865.000	10.26983	1.01783	9.17896	0.91513
1866.000	10.25260	1.04724	9.14043	0.86221
1867.000	10.29662	0.98643	9.18282	0.85621
1868.000	10.28514	1.04322	9.18282	0.88959
1869.000	10.27174	1.05892	9.16548	0.91909
1870.000	10.26217	1.05699	9.18667	0.89940
1871.000	10.29088	1.05298	9.15391	0.90341
1872.000	10.29854	0.99621	9.16162	0.87001
1873.000	10.28131	1.04323	9.20016	0.84832
1874.000	10.28705	1.04517	9.15970	0.85823
1875.000	10.25260	1.02180	9.16355	0.83859
1876.000	10.29088	1.02754	9.19052	0.89743
1877.000	10.30811	1.04510	9.18860	0.82871
1878.000	10.29088	1.05885	9.22520	0.84237
1879.000	10.29471	1.02362	9.20016	0.87384
1880.000	10.28897	1.05299	9.15777	0.92893
1881.000	10.28897	1.00015	9.20979	0.85615
1882.000	10.31576	1.03333	9.22327	0.87379
1883.000	10.28897	1.00602	9.18089	0.87782
1884.000	10.30619	1.04119	9.18089	0.84247
1885.000	10.28897	1.01776	9.16355	0.91124
1886.000	10.28131	1.02953	9.19630	0.78746
1887.000	10.26026	1.02764	9.19630	0.81299
1888.000	10.29854	1.03339	9.18089	0.85426
1889.000	10.29280	1.04123	9.23098	0.83843
1890.000	10.31385	0.98051	9.14813	0.89754
1891.000	10.29662	1.06666	9.18860	0.84638
1892.000	10.29088	1.03341	9.18474	0.83461
1893.000	10.31193	1.01965	9.20594	0.83063
1894.000	10.28323	1.01191	9.21942	0.81686
1895.000	10.27557	1.01781	9.19438	0.80710
1896.000	10.28131	1.03736	9.19438	0.82281
1897.000	10.29088	1.02950	9.20401	0.84635
1898.000	10.30045	1.00990	9.21749	0.85809
1899.000	10.25451	1.01200	9.19245	0.79532
1900.000	10.27557	1.02564	9.16548	0.82680
1901.000	10.27174	1.06087	9.14813	0.87593
1902.000	10.30045	1.04121	9.20979	0.83455
1903.000	10.29088	1.03341	9.17126	0.83072
1904.000	10.30811	1.05488	9.15584	0.93482
1905.000	10.29854	1.06470	9.19245	0.82478
1906.000	10.29280	1.03536	9.19245	0.85423
1907.000	10.30236	1.01968	9.20208	0.89936
1908.000	10.30428	1.00010	9.17896	0.82481
1909.000	10.30045	0.98251	9.14621	0.87987
1910.000	10.27748	1.04715	9.16740	0.85822
1911.000	10.30045	1.01773	9.21557	0.88362
1912.000	10.29088	1.01189	9.18474	0.86210
1913.000	10.26983	1.04131	9.17511	0.86212
1914.000	10.25834	0.98655	9.18667	0.87780
1915.000	10.26600	1.05502	9.20401	0.88954
1916.000	10.26791	1.02957	9.27335	0.82262
1917.000	10.28514	1.01191	9.28490	0.81474
1918.000	10.38081	0.92161	9.31186	0.76365
1919.000	10.48980	0.76678	9.38115	0.67714
1920.000	10.59490	0.69027	9.40617	0.64570
1921.000	10.67701	0.54152	9.54081	0.45516
1922.000	10.75718	0.48079	9.68495	0.32946
1923.000	10.91928	0.33208	9.80401	0.25289
1924.000	11.07359	0.18938	9.87694	0.16464
1925.000	11.16115	0.03513	10.02463	0.01959
1926.000	11.21823	-0.12684	10.08788	-0.09402
1927.000	11.21823	-0.24198	10.17218	-0.23694
1928.000	11.32091	-0.41550	10.22771	-0.32891
1929.000	11.39502	-0.59870	10.33298	-0.54016
1930.000	11.45010	-0.61223	10.38272	-0.56747
1931.000	11.52795	-0.67248	10.41906	-0.57132
1932.000	11.47099	-0.56539	10.50509	-0.63962
1933.000	11.53744	-0.60034	10.52420	-0.65131
1934.000	11.58298	-0.48137	10.57770	-0.70008
1935.000	11.57918	-0.48528	10.52994	-0.58872
1936.000	11.63989	-0.40918	10.53949	-0.51047
1937.000	11.65506	-0.30980	10.49745	-0.52814
1938.000	11.69298	-0.37209	10.50318	-0.50075
1939.000	11.66643	-0.41304	10.53758	-0.55154
1940.000	11.66833	-0.48707	10.50892	-0.61418
1941.000	11.69677	-0.54935	10.52038	-0.65719
1942.000	11.66833	-0.65266	10.46495	-0.63774
1943.000	11.68160	-0.76951	10.46495	-0.73359
1944.000	11.69298	-0.87855	10.44583	-0.75906
1945.000	11.66264	-0.88838	10.44774	-0.84904
1946.000	11.62851	-1.00538	10.50127	-0.88214
1947.000	11.63420	-1.04431	10.45348	-0.88619
1948.000	11.67592	-1.09674	10.50892	-0.95643
1949.000	11.66454	-1.08510	10.45157	-0.91553
1950.000	11.67023	-1.16298	10.48980	-0.97800
1951.000	11.65126	-1.11437	10.51847	-0.99551
1952.000	11.67592	-1.13569	10.50700	-0.96621
1953.000	11.68919	-1.07722	10.45157	-0.92140
1954.000	11.65126	-1.08321	10.48598	-0.97606
1955.000	11.67023	-1.02470	10.50700	-0.89386
1956.000	11.66833	-1.02471	10.46304	-0.93506
1957.000	11.67023	-0.97796	10.50892	-0.87821
1958.000	11.68160	-0.96623	10.52229	-0.90750
1959.000	11.71573	-0.92327	10.50892	-0.88407
1960.000	11.69487	-0.97592	10.50127	-0.93494
1961.000	11.70814	-0.93108	10.50127	-0.90756
1962.000	11.69298	-0.92140	10.48216	-0.85090
1963.000	11.69487	-0.93892	10.50892	-0.90167
1964.000	11.71193	-0.92718	10.52038	-0.88795
1965.000	11.72141	-0.93104	10.51465	-0.88601
1966.000	11.74605	-0.96406	10.56433	-0.94257
1967.000	11.76689	-0.98346	10.52420	-0.95638
1968.000	11.76500	-0.98930	10.52612	-0.97202
1969.000	11.72141	-0.94857	10.51083	-0.94664
1970.000	11.73468	-0.96799	10.50318	-0.99360
1971.000	11.71952	-0.99141	10.50509	-0.95840
1972.000	11.72710	-0.99918	10.48980	-0.95844
1973.000	11.71573	-1.00506	10.47260	-0.98196
1974.000	11.71952	-0.96610	10.50700	-0.98772
1975.000	11.71193	-0.98949	10.50892	-0.97403
1976.000	11.69677	-0.98371	10.45922	-0.94680
1977.000	11.70435	-0.97394	10.48789	-0.92520
1978.000	11.68729	-0.97984	10.43627	-0.92340
1979.000	11.69677	-0.98371	10.49362	-1.00537
1980.000	11.74037	-0.98160	10.48407	-0.89001
1981.000	11.72141	-0.98557	10.45730	-0.89987
1982.000	11.70435	-0.99926	10.48980	-0.89195
1983.000	11.73847	-0.98551	10.44010	-0.85493
1984.000	11.69867	-0.94475	10.45539	-0.91356
1985.000	11.70056	-0.96227	10.45922	-0.90182
1986.000	11.69487	-0.99735	10.46495	-0.92918
1987.000	11.71762	-0.93105	10.45157	-0.92335
1988.000	11.66454	-0.92733	10.45922	-0.91942
1989.000	11.64747	-0.97025	10.46113	-0.90572
1990.000	11.68919	-0.98373	10.42862	-0.89995
1991.000	11.69487	-0.94281	10.37507	-0.85706
1992.000	11.73657	-0.93683	10.42097	-0.85302
1993.000	11.67781	-0.96235	10.39994	-0.85113
1994.000	11.71952	-0.90768	10.40950	-0.82762
1995.000	11.71193	-0.94276	10.41332	-0.86478
1996.000	11.65885	-0.95852	10.45730	-0.89204
1997.000	11.68729	-0.93310	10.40950	-0.86479
1998.000	11.73468	-0.96215	10.43627	-0.88624
1999.000	11.70625	-0.95251	10.39420	-0.88440
2000.000	11.69677	-0.95839	10.42289	-0.88236
2001.000	11.72331	-0.93493	10.42862	-0.86670
2002.000	11.67592	-0.90003	10.42289	-0.85693
2003.000	11.67592	-0.96820	10.38655	-0.78073
2004.000	11.69487	-0.94671	10.42480	-0.85888
2005.000	11.70056	-0.92916	10.45539	-0.86858
2006.000	11.68729	-0.94868	10.40185	-0.86286
2007.000	11.70246	-0.96421	10.37890	-0.85705
2008.000	11.70056	-0.91942	10.44201	-0.87448
2009.000	11.71573	-0.91743	10.41141	-0.82762
2010.000	11.72899	-0.94854	10.41906	-0.87650
2011.000	11.70625	-0.92719	10.41715	-0.86477
2012.000	11.69487	-0.93502	10.39802	-0.83744
2013.000	11.68919	-0.95452	10.43627	-0.83538
2014.000	11.70056	-0.93111	10.40950	-0.87457
2015.000	11.74226	-0.95434	10.44583	-0.85687
2016.000	11.68350	-0.95649	10.38846	-0.81985
2017.000	11.64178	-0.98390	10.36933	-0.82382
2018.000	11.68350	-0.96038	10.40185	-0.87068
2019.000	11.70625	-0.98173	10.43627	-0.88819
2020.000	11.74037	-0.97966	10.40185	-0.86286
2021.000	11.70814	-1.00704	10.39229	-0.87854
2022.000	11.72710	-0.95244	10.43436	-0.89602
2023.000	11.68919	-0.96036	10.42671	-0.84518
2024.000	11.71193	-0.93886	10.38464	-0.85508
2025.000	11.68729	-0.96037	10.38655	-0.86877
2026.000	11.70056	-0.92527	10.38655	-0.85899
2027.000	11.72141	-0.94467	10.45922	-0.82162
2028.000	11.66264	-0.97019	10.38081	-0.86292
2029.000	11.66643	-1.01887	10.38272	-0.81009
2030.000	11.66643	-0.91564	10.40759	-0.82567
2031.000	11.65506	-0.96048	10.35977	-0.81210
2032.000	11.70056	-0.94085	10.40950	-0.83545
2033.000	11.70056	-0.95448	10.41906	-0.86085
2034.000	11.68539	-1.02854	10.39229	-0.79832
2035.000	11.71383	-0.94859	10.44392	-0.83144
2036.000	11.72899	-1.00501	10.43245	-0.88038
2037.000	11.73089	-0.96411	10.44583	-0.87056
2038.000	11.73278	-0.96411	10.41906	-0.82760
2039.000	11.73847	-0.96409	10.39420	-0.84527
2040.000	11.72141	-0.97778	10.43436	-0.88428
2041.000	11.68350	-0.98765	10.44392	-0.80406
2042.000	11.71004	-0.94276	10.42862	-0.84713
2043.000	11.67971	-0.94871	10.39229	-0.86288
2044.000	11.70625	-0.96615	10.40185	-0.85308
2045.000	11.68919	-0.95841	10.36551	-0.90600
2046.000	11.68160	-1.00518	10.43053	-0.88430
2047.000	11.68729	-0.98374	10.41715	-0.82956
2048.000	11.68729	-0.96621	10.43818	-0.81972
2049.000	11.70814	-0.92914	10.40185	-0.85112
2050.000	11.71762	-0.96416	10.44583	-0.90186
2051.000	11.71762	-0.98753	10.45730	-0.85684
2052.000	11.65885	-0.96631	10.39802	-0.90591
2053.000	11.67971	-0.98182	10.48598	-0.87240
2054.000	11.67971	-0.98182	10.42862	-0.84518
2055.000	11.68539	-1.01296	10.38272	-0.85313
2056.000	11.66264	-0.97798	10.41906	-0.85499
2057.000	11.68160	-1.00713	10.43818	-0.85493
2058.000	11.68919	-0.96620	10.41715	-0.88629
2059.000	11.68729	-0.94089	10.42097	-0.83737
2060.000	11.70246	-0.96226	10.45539	-0.88227
2061.000	11.71193	-0.95055	10.44201	-0.83145
2062.000	11.71762	-0.97195	10.46304	-0.85878
2063.000	11.69108	-0.95256	10.43436	-0.86668
2064.000	11.68350	-0.96038	10.44010	-0.91361
2065.000	11.66643	-0.95265	10.43436	-0.84516
2066.000	11.68160	-1.00908	10.44966	-0.84903
2067.000	11.68729	-0.97984	10.47069	-0.87831
2068.000	11.71952	-0.96610	10.46113	-0.85683
2069.000	11.65126	-0.98387	10.41524	-0.86086
2070.000	11.67212	-0.97016	10.41332	-0.85304
2071.000	11.65316	-0.93906	10.43436	-0.85103
2072.000	11.66454	-0.98382	10.41715	-0.84912
2073.000	11.67402	-0.96431	10.42671	-0.86866
2074.000	11.66264	-0.95071	10.43627	-0.87450
2075.000	11.67971	-0.97403	10.41524	-0.81978
2076.000	11.68919	-0.91362	10.40185	-0.84329
2077.000	11.66833	-0.97212	10.44392	-0.92925
2078.000	11.66643	-0.94681	10.45157	-0.82164
2079.000	11.69108	-0.93504	10.43627	-0.85885
2080.000	11.67212	-0.97795	10.43245	-0.86864
2081.000	11.70246	-0.96616	10.45922	-0.81380
2082.000	11.66643	-0.98381	10.40185	-0.83547
2083.000	11.64937	-0.98193	10.40376	-0.84720
2084.000	11.67971	-0.96039	10.41141	-0.87066
2085.000	11.63799	-0.96249	10.42671	-0.83932
2086.000	11.66454	-0.97213	10.40185	-0.89025
2087.000	11.70625	-0.97004	10.41141	-0.85305
2088.000	11.65126	-0.94101	10.43818	-0.90383
2089.000	11.67971	-0.98571	10.42289	-0.86867
2090.000	11.64368	-1.01506	10.43245	-0.92928
2091.000	11.65506	-0.93126	10.42097	-0.89802
2092.000	11.66454	-0.94486	10.37316	-0.81598
2093.000	11.69867	-0.98759	10.48024	-0.88024
2094.000	11.67402	-0.99353	10.43245	-0.87842
2095.000	11.65885	-1.02669	10.46495	-0.91745
2096.000	11.70246	-0.97784	10.41906	-0.87063
2097.000	11.64178	-0.92157	10.42671	-0.83932
2098.000	11.69298	-0.97203	10.37125	-0.87272
2099.000	11.65316	-0.95464	10.42671	-0.87257
2100.000	11.67781	-0.98962	10.38846	-0.85703
2101.000	11.63989	-0.99170	10.39994	-0.87656
2102.000	11.68160	-0.95260	10.42671	-0.85692
2103.000	11.68539	-0.94090	10.37698	-0.87467
2104.000	11.66075	-0.93319	10.40950	-0.89022
2105.000	11.69108	-1.00125	10.41332	-0.85109
2106.000	11.67592	-0.94288	10.39229	-0.87071
2107.000	11.64747	-0.99167	10.36742	-0.84534
2108.000	11.65885	-0.97605	10.46304	-0.89007
2109.000	11.65506	-0.97801	10.40950	-0.86479
2110.000	11.67592	-1.00131	10.36551	-0.81796
2111.000	11.62661	-0.96058	10.38846	-0.80029
2112.000	11.63609	-0.91964	10.42480	-0.86866
2113.000	11.58488	-0.90032	10.42480	-0.81389
2114.000	11.64747	-0.92544	10.39611	-0.84918
2115.000	11.60764	-0.93337	10.39611	-0.89613
2116.000	11.63230	-0.97614	10.36359	-0.81601
2117.000	11.66264	-0.96824	10.41332	-0.81783
2118.000	11.65885	-0.96436	10.37316	-0.84337
2119.000	11.64558	-0.95662	10.35020	-0.82778
2120.000	11.64368	-0.92546	10.38081	-0.87465
2121.000	11.67781	-0.94677	10.36168	-0.83949
2122.000	11.67592	-0.92145	10.41906	-0.80804
2123.000	11.66643	-0.95460	10.40950	-0.85110
2124.000	11.67023	-0.95458	10.37890	-0.82575
2125.000	11.66075	-0.97604	10.38464	-0.89225
2126.000	11.66075	-0.97215	10.37316	-0.79446
2127.000	11.63989	-0.94300	10.41906	-0.94497
2128.000	11.66075	-0.99747	10.39420	-0.84136
2129.000	11.64368	-0.94299	10.40759	-0.90979
2130.000	11.60574	-0.99377	10.43436	-0.90971
2131.000	11.62661	-0.93720	10.41141	-0.91174
2132.000	11.60385	-0.98404	10.44010	-0.95468
2133.000	11.61333	-0.97621	10.45157	-0.91749
2134.000	11.61523	-0.93139	10.42671	-0.94495
2135.000	11.67971	-0.98571	10.43436	-0.88428
2136.000	11.68350	-1.00712	10.40950	-0.90196
2137.000	11.67402	-1.00716	10.42671	-0.94103
2138.000	11.63799	-0.96638	10.44392	-0.89991
2139.000	11.61902	-0.94307	10.38464	-0.87073
2140.000	11.64368	-0.94688	10.42671	-0.93516
2141.000	11.64368	-0.98584	10.42289	-0.93322
2142.000	11.63420	-0.98782	10.39802	-0.95286
2143.000	11.67212	-0.98769	10.40759	-0.89219
2144.000	11.67023	-0.99354	10.42480	-0.89605
2145.000	11.62092	-0.91579	10.40759	-0.91175
2146.000	11.62282	-0.93527	10.38464	-0.87660
2147.000	11.65126	-0.94296	10.38081	-0.88835
2148.000	11.61902	-1.00736	10.38846	-0.92354
2149.000	11.66643	-0.98381	10.44392	-0.90969
2150.000	11.67023	-0.96432	10.38272	-0.88052
2151.000	11.60195	-0.94313	10.41332	-0.90782
2152.000	11.67402	-0.96431	10.41524	-0.84913
2153.000	11.66075	-0.99552	10.39229	-0.87658
2154.000	11.64368	-0.97610	10.41141	-0.84914
2155.000	11.66454	-0.96239	10.42671	-0.92343
2156.000	11.63420	-0.96055	10.41906	-0.88042
2157.000	11.62282	-0.97033	10.41141	-0.86283
2158.000	11.66833	-0.94875	10.42289	-0.88236
2159.000	11.62851	-0.96642	10.39994	-0.88829
2160.000	11.58677	-0.91980	10.40376	-0.86285
2161.000	11.61523	-0.90996	10.37125	-0.88446
2162.000	11.63989	-0.92936	10.37125	-0.84338
2163.000	11.63420	-0.94692	10.38081	-0.92943
2164.000	11.62471	-0.92747	10.39229	-0.87462
2165.000	11.64558	-0.90013	10.35785	-0.82580
2166.000	11.63989	-0.91962	10.40759	-0.91566
2167.000	11.64368	-0.94688	10.40567	-0.88241
2168.000	11.62851	-0.96057	10.38272	-0.91182
2169.000	11.65126	-0.99750	10.35020	-0.82778
2170.000	11.63989	-0.97417	10.35977	-0.81210
2171.000	11.60574	-0.96065	10.39802	-0.85504
2172.000	11.64937	-0.93712	10.37890	-0.89227
2173.000	11.63420	-0.96834	10.41524	-0.86478
2174.000	11.63040	-0.94888	10.39037	-0.87854
2175.000	11.61523	-0.96451	10.34446	-0.84736
2176.000	11.60195	-0.91001	10.40759	-0.86675
2177.000	11.63799	-1.00729	10.38655	-0.83355
2178.000	11.64368	-0.94688	10.38272	-0.88443
2179.000	11.61902	-0.98788	10.37125	-0.84925
2180.000	11.67592	-0.95456	10.37698	-0.82771
2181.000	11.61143	-0.98206	10.37316	-0.85315
2182.000	11.62092	-0.99566	10.37507	-0.85706
2183.000	11.63420	-1.01899	10.43436	-0.89798
2184.000	11.64368	-0.99169	10.37890	-0.90205
2185.000	11.59626	-1.02303	10.38081	-0.90791
2186.000	11.63230	-0.97809	10.34064	-0.81607
2187.000	11.64558	-0.97999	10.37125	-0.86490
2188.000	11.67023	-1.03249	10.39611	-0.90983
2189.000	11.66075	-1.01500	10.39420	-0.87266
2190.000	11.64747	-0.98583	10.38464	-0.90595
2191.000	11.66833	-1.01692	10.41332	-0.92934
2192.000	11.66264	-1.00915	10.41141	-0.84131
2193.000	11.66454	-0.98187	10.38272	-0.87856
2194.000	11.64937	-0.96245	10.39037	-0.89223
2195.000	11.61143	-1.04245	10.40759	-0.84719
2196.000	11.67023	-0.99549	10.37890	-0.86292
2197.000	11.61902	-0.98983	10.39802	-0.87656
2198.000	11.64178	-0.95858	10.32724	-0.82001
2199.000	11.66454	-0.98187	10.37890	-0.85901
2200.000	11.61902	-0.94697	10.38081	-0.90009
2201.000	11.61143	-0.97037	10.38464	-0.87856
2202.000	11.63040	-1.01706	10.39802	-0.88830
2203.000	11.63040	-0.95277	10.36742	-0.84926
2204.000	11.63040	-0.94108	10.40185	-0.86873
2205.000	11.65316	-0.97217	10.41524	-0.86478
2206.000	11.66075	-0.99552	10.35785	-0.85515
2207.000	11.65695	-0.94099	10.40185	-0.85503
2208.000	11.63230	-0.99757	10.42097	-0.89802
2209.000	11.63230	-0.95277	10.39994	-0.89808
2210.000	11.63799	-0.99560	10.38846	-0.85898
2211.000	11.63609	-0.95275	10.36933	-0.84338
2212.000	11.66264	-0.98967	10.36551	-0.88057
2213.000	11.61523	-0.98594	10.40185	-0.89611
2214.000	11.63609	-1.03067	10.36933	-0.91186
2215.000	11.61902	-0.96645	10.38846	-0.86289
2216.000	11.61902	-0.95866	10.38272	-0.88443
2217.000	11.63040	-0.96446	10.34829	-0.87083
2218.000	11.65885	-0.94294	10.34446	-0.85323
2219.000	11.63609	-0.99756	10.38081	-0.91183
2220.000	11.62282	-0.91578	10.42480	-0.94495
2221.000	11.65316	-0.97412	10.34638	-0.91780
2222.000	11.63609	-0.95860	10.44966	-0.92923
2223.000	11.64558	-0.98973	10.38846	-0.91180
2224.000	11.60385	-0.98404	10.38846	-0.88246
2225.000	11.63420	-0.96445	10.41332	-0.88043
2226.000	11.65126	-0.96439	10.39037	-0.89615
2227.000	11.65126	-0.95465	10.40950	-0.83936
2228.000	11.68539	-0.93895	10.44392	-0.85492
2229.000	11.66075	-0.94683	10.40759	-0.87458
2230.000	11.66643	-0.96434	10.38655	-0.90203
2231.000	11.63609	-1.00340	10.39420	-0.94309
2232.000	11.58677	-0.99579	10.36742	-0.91382
2233.000	11.51276	-1.04477	10.41141	-1.03302
2234.000	11.38362	-1.01405	10.34446	-1.00389
2235.000	11.21442	-0.91320	10.14536	-0.88901
2236.000	11.03741	-0.90985	9.99203	-0.91686
2237.000	10.74573	-0.87166	9.82321	-0.94280
2238.000	10.40567	-0.77286	9.60809	-1.02577
2239.000	10.04763	-0.69930	9.34843	-0.92842
2240.000	9.61193	-0.63550	9.07104	-0.95076
2241.000	9.18089	-0.61077	8.78742	-1.00850
2242.000	8.86078	-0.57003	8.41633	-0.92685
2243.000	8.41052	-0.49003	8.03289	-0.85685
2244.000	7.93983	-0.53198	7.76910	-0.80616
2245.000	7.54190	-0.44769	7.35724	-0.81087
2246.000	7.01278	-0.52917	7.05757	-0.93182
2247.000	6.67757	-0.63820	6.61516	-0.80426
2248.000	6.29112	-0.61694	6.32042	-0.84031
2249.000	5.86692	-0.63920	5.93734	-0.79146
2250.000	5.32254	-0.59028	5.56549	-0.91273
2251.000	4.82039	-0.60263	5.06764	-0.69949
2252.000	4.51795	-0.66833	4.75364	-0.85047
2253.000	4.18773	-0.75789	4.36270	-0.74384
2254.000	3.92217	-0.58350	4.00874	-0.79179
2255.000	3.51071	-0.73070	3.65841	-0.73852
2256.000	3.04764	-0.62378	3.27036	-0.76067
2257.000	2.63349	-0.67368	2.92934	-0.70529
2258.000	2.38684	-0.61020	2.55260	-0.74128
2259.000	2.10654	-0.67592	2.15787	-0.56259
2260.000	1.85773	-0.61240	1.90315	-0.74559
2261.000	1.67207	-0.57269	1.67009	-0.55281
2262.000	1.46662	-0.58071	1.32436	-0.66824
2263.000	1.24532	-0.60860	1.18998	-0.52111
2264.000	0.97654	-0.52313	0.92120	-0.46944
2265.000	0.71168	-0.50328	0.66227	-0.50129
2266.000	0.46854	-0.59679	0.51796	-0.39588
2267.000	0.30050	-0.59083	0.30248	-0.46949
2268.000	0.15421	-0.48740	0.11862	-0.51127
2269.000	-0.08106	-0.50530	-0.10676	-0.47347
2270.000	-0.12653	-0.47745	-0.27876	-0.50132
2271.000	-0.23724	-0.53713	-0.40133	-0.42174
2272.000	-0.33411	-0.39191	-0.63064	-0.39985
2273.000	-0.36376	-0.32029	-0.76110	-0.34215
2274.000	-0.42505	-0.33620	-0.78284	-0.32623
2275.000	-0.39935	-0.28846	-0.85993	-0.27252
2276.000	-0.40133	-0.31233	-0.93109	-0.25859
2277.000	-0.36574	-0.23475	-0.97457	-0.28644
2278.000	-0.40133	-0.26061	-1.01212	-0.23074
2279.000	-0.37760	-0.31034	-1.01607	-0.25858
2280.000	-0.23329	-0.30040	-0.96271	-0.29439
2281.000	-0.11862	-0.32030	-0.94887	-0.29837
2282.000	-0.05140	-0.30239	-0.89749	-0.33418
2283.000	-0.06326	-0.40186	-0.84807	-0.36601
2284.000	0.10676	-0.37401	-0.78284	-0.41972
2285.000	0.08106	-0.42772	-0.81447	-0.48735
2286.000	0.04943	-0.37401	-0.82831	-0.44956
2287.000	0.00989	-0.44165	-0.83424	-0.41773
2288.000	-0.03954	-0.41181	-0.87574	-0.45950
2289.000	-0.03361	-0.42772	-0.90342	-0.44159
2290.000	-0.11269	-0.40982	-0.96073	-0.44954
2291.000	-0.19375	-0.40981	-0.95678	-0.48733
2292.000	-0.21154	-0.36804	-1.02595	-0.52312
2293.000	-0.27480	-0.36804	-1.06153	-0.46345
2294.000	-0.27678	-0.30836	-1.08129	-0.45350
2295.000	-0.34993	-0.38992	-1.09908	-0.48134
2296.000	-0.35190	-0.37798	-1.14058	-0.40576
2297.000	-0.39539	-0.41578	-1.14848	-0.48531
2298.000	-0.32818	-0.35610	-1.17220	-0.46940
2299.000	-0.31434	-0.36406	-1.16232	-0.46144
2300.000	-0.30643	-0.37798	-1.18603	-0.48133
2301.000	-0.32818	-0.41180	-1.15244	-0.42565
2302.000	-0.27876	-0.37798	-1.13860	-0.46741
2303.000	-0.26096	-0.36804	-1.11094	-0.41173
2304.000	-0.27876	-0.33820	-1.11291	-0.42764
2305.000	-0.23922	-0.34019	-1.08920	-0.43958
2306.000	-0.24910	-0.35809	-1.11687	-0.44156
2307.000	-0.21945	-0.30438	-1.07141	-0.43162
2308.000	-0.18979	-0.32228	-1.12675	-0.38587
2309.000	-0.15816	-0.32626	-1.08920	-0.39582
2310.000	-0.14234	-0.25862	-1.10698	-0.38189
2311.000	-0.15223	-0.28449	-1.10896	-0.36996
2312.000	-0.13444	-0.32825	-1.08524	-0.41173
2313.000	-0.09885	-0.28847	-1.09315	-0.42367
2314.000	-0.11664	-0.27056	-1.09315	-0.35206
2315.000	-0.08303	-0.25664	-1.07932	-0.37394
2316.000	-0.13641	-0.23475	-1.07536	-0.38985
2317.000	-0.12850	-0.32427	-1.06746	-0.35008
2318.000	-0.11664	-0.25664	-1.10106	-0.35405
2319.000	-0.15025	-0.31433	-1.07734	-0.36599
2320.000	-0.13246	-0.27454	-1.10896	-0.33416
2321.000	-0.13444	-0.23276	-1.11489	-0.36797
2322.000	-0.08897	-0.27454	-1.11489	-0.34410
2323.000	-0.09885	-0.21486	-1.09117	-0.32422
2324.000	-0.10676	-0.24072	-1.13268	-0.35405
2325.000	-0.10083	-0.28847	-1.12279	-0.26454
2326.000	-0.05338	-0.25862	-1.11291	-0.30233
2327.000	-0.03163	-0.24271	-1.10698	-0.35803
2328.000	-0.07710	-0.25266	-1.10303	-0.35604
2329.000	-0.06524	-0.27454	-1.14848	-0.34410
2330.000	-0.10478	-0.23873	-1.11094	-0.36598
2331.000	-0.08699	-0.27255	-1.11884	-0.35803
2332.000	-0.07315	-0.24271	-1.13465	-0.38189
2333.000	-0.06722	-0.26260	-1.10896	-0.37394
2334.000	-0.11664	-0.28250	-1.13465	-0.40377
2335.000	-0.08699	-0.32626	-1.12872	-0.39383
2336.000	-0.14037	-0.32626	-1.11884	-0.37394
2337.000	-0.07908	-0.24271	-1.15441	-0.36598
2338.000	-0.17595	-0.33820	-1.11291	-0.36200
2339.000	-0.15618	-0.32029	-1.10896	-0.38189
2340.000	-0.13246	-0.32228	-1.13465	-0.37791
2341.000	-0.16409	-0.32228	-1.14651	-0.37393
2342.000	-0.10280	-0.28449	-1.09513	-0.33217
2343.000	-0.14234	-0.31433	-1.15046	-0.34609
2344.000	-0.14234	-0.32029	-1.12082	-0.35007
2345.000	-0.11071	-0.32825	-1.12279	-0.38189
2346.000	-0.13641	-0.25465	-1.12675	-0.34211
2347.000	-0.12257	-0.30438	-1.13663	-0.35603
2348.000	-0.07908	-0.29046	-1.12872	-0.37195
2349.000	-0.10676	-0.32825	-1.13465	-0.36001
2350.000	-0.12455	-0.27852	-1.10106	-0.33018
2351.000	-0.08106	-0.26459	-1.12477	-0.35206
2352.000	-0.07710	-0.24072	-1.11291	-0.36996
2353.000	-0.11664	-0.30637	-1.10303	-0.33018
2354.000	-0.13048	-0.33223	-1.12675	-0.37593
2355.000	-0.09490	-0.27653	-1.13268	-0.35802
2356.000	-0.12060	-0.24072	-1.10698	-0.36996
2357.000	-0.09490	-0.31433	-1.11094	-0.37394
2358.000	-0.10676	-0.26459	-1.16825	-0.34807
2359.000	-0.13839	-0.26857	-1.14256	-0.32620
2360.000	-0.11269	-0.34616	-1.13465	-0.34211
2361.000	-0.07315	-0.28847	-1.15441	-0.34808
2362.000	-0.14630	-0.30040	-1.14058	-0.32421
2363.000	-0.09885	-0.27454	-1.12477	-0.30830
2364.000	-0.12653	-0.33621	-1.12872	-0.35007
2365.000	-0.07315	-0.26061	-1.12279	-0.35604
2366.000	-0.11467	-0.26857	-1.15441	-0.31625
2367.000	-0.10874	-0.29244	-1.09908	-0.35007
2368.000	-0.13641	-0.29642	-1.08524	-0.34411
2369.000	-0.11467	-0.30438	-1.14058	-0.35206
2370.000	-0.11071	-0.27056	-1.10698	-0.38189
2371.000	-0.11862	-0.25266	-1.10896	-0.33217
2372.000	-0.07710	-0.31433	-1.11687	-0.32024
2373.000	-0.13641	-0.25663	-1.13070	-0.33813
2374.000	-0.12850	-0.26857	-1.10698	-0.34808
2375.000	-0.12653	-0.30040	-1.14058	-0.38388
2376.000	-0.07315	-0.27056	-1.16034	-0.40774
2377.000	-0.11467	-0.27454	-1.12477	-0.36200
2378.000	-0.12257	-0.32030	-1.17022	-0.40575
2379.000	-0.10478	-0.30239	-1.13465	-0.37195
2380.000	-0.10874	-0.29642	-1.09513	-0.38190
2381.000	-0.13048	-0.30239	-1.12675	-0.31825
2382.000	-0.11664	-0.26061	-1.12872	-0.35604
2383.000	-0.05733	-0.23276	-1.13860	-0.35802
2384.000	-0.12455	-0.27653	-1.13268	-0.38587
2385.000	-0.07513	-0.28648	-1.13268	-0.33416
2386.000	-0.07513	-0.26857	-1.12082	-0.35604
2387.000	-0.11269	-0.33024	-1.12477	-0.37394
2388.000	-0.08106	-0.30836	-1.14453	-0.40974
2389.000	-0.09094	-0.24868	-1.13663	-0.40775
2390.000	-0.11467	-0.34218	-1.09117	-0.34411
2391.000	-0.12257	-0.32427	-1.11884	-0.36797
2392.000	-0.11269	-0.27454	-1.14848	-0.38587
2393.000	-0.10874	-0.22679	-1.15441	-0.39581
2394.000	-0.08106	-0.26061	-1.11687	-0.37394
2395.000	-0.09885	-0.26658	-1.13663	-0.36996
2396.000	-0.14037	-0.28648	-1.11094	-0.38189
2397.000	-0.07710	-0.24669	-1.13663	-0.32222
2398.000	-0.10083	-0.31632	-1.10896	-0.32819
2399.000	-0.10280	-0.28051	-1.10501	-0.36797
2400.000	-0.10083	-0.32427	-1.10698	-0.33615
2401.000	-0.10083	-0.32030	-1.10698	-0.32024
2402.000	-0.08501	-0.28051	-1.11291	-0.35007
2403.000	-0.10478	-0.29244	-1.12477	-0.36399
2404.000	-0.10280	-0.27056	-1.11489	-0.36598
2405.000	-0.06722	-0.26857	-1.13860	-0.35802
2406.000	-0.13839	-0.29244	-1.14058	-0.36001
2407.000	-0.11467	-0.33621	-1.14058	-0.38786
2408.000	-0.13444	-0.29244	-1.10896	-0.36797
2409.000	-0.15025	-0.28051	-1.14256	-0.39382
2410.000	-0.10676	-0.30239	-1.12872	-0.40576
2411.000	-0.12455	-0.37003	-1.15441	-0.33813
2412.000	-0.10874	-0.31632	-1.17220	-0.42962
2413.000	-0.12060	-0.32427	-1.08129	-0.37991
2414.000	-0.11862	-0.31632	-1.11489	-0.37990
2415.000	-0.05338	-0.33820	-1.11489	-0.34013
2416.000	-0.11071	-0.32030	-1.11687	-0.38388
2417.000	-0.09687	-0.37799	-1.13268	-0.34410
2418.000	-0.12060	-0.33621	-1.10501	-0.33615
2419.000	-0.06326	-0.28051	-1.15046	-0.38984
2420.000	-0.08501	-0.30836	-1.11489	-0.38388
2421.000	-0.07513	-0.32626	-1.15441	-0.40178
2422.000	-0.08303	-0.28648	-1.13663	-0.39979
2423.000	-0.08699	-0.27653	-1.10501	-0.37991
2424.000	-0.12257	-0.33820	-1.11687	-0.34609
2425.000	-0.07710	-0.29046	-1.13465	-0.36996
2426.000	-0.08897	-0.31831	-1.14651	-0.38189
2427.000	-0.11664	-0.30040	-1.14453	-0.42167
2428.000	-0.09292	-0.29443	-1.11291	-0.35803
2429.000	-0.08897	-0.29841	-1.13860	-0.40377
2430.000	-0.10280	-0.37003	-1.14058	-0.34012
2431.000	-0.10874	-0.30040	-1.09513	-0.41770
2432.000	-0.11269	-0.34019	-1.12675	-0.34808
2433.000	-0.14432	-0.36605	-1.11687	-0.37792
2434.000	-0.09687	-0.36406	-1.12477	-0.35405
2435.000	-0.09094	-0.31035	-1.07141	-0.35008
2436.000	-0.14234	-0.33422	-1.11291	-0.34609
2437.000	-0.10478	-0.37003	-1.10303	-0.39980
2438.000	-0.09490	-0.34019	-1.14453	-0.39183
2439.000	-0.14432	-0.37003	-1.12872	-0.41173
2440.000	-0.11269	-0.30438	-1.13070	-0.39581
2441.000	-0.16014	-0.34815	-1.14256	-0.38189
2442.000	-0.06326	-0.30239	-1.13465	-0.39184
2443.000	-0.13839	-0.36207	-1.12082	-0.40576
2444.000	-0.10083	-0.27255	-1.12279	-0.33615
2445.000	-0.07117	-0.31632	-1.09513	-0.38786
2446.000	-0.11467	-0.33621	-1.12477	-0.33217
2447.000	-0.08501	-0.33621	-1.09908	-0.37593
2448.000	-0.10676	-0.37202	-1.12082	-0.38587
2449.000	-0.13641	-0.35212	-1.11094	-0.41968
2450.000	-0.10083	-0.34218	-1.06943	-0.35604
2451.000	-0.11269	-0.34616	-1.12477	-0.35405
2452.000	-0.08699	-0.33820	-1.09513	-0.36400
2453.000	-0.08303	-0.31035	-1.10303	-0.34808
2454.000	-0.09490	-0.34218	-1.06548	-0.38986
2455.000	-0.08303	-0.32229	-1.09710	-0.30830
2456.000	-0.08897	-0.33223	-1.10896	-0.37394
2457.000	-0.01186	-0.32030	-1.12675	-0.36797
2458.000	-0.07117	-0.32825	-1.15441	-0.38786
2459.000	-0.11862	-0.38197	-1.11884	-0.39781
2460.000	-0.11269	-0.31632	-1.12675	-0.37195
2461.000	-0.08897	-0.28648	-1.09315	-0.36400
2462.000	-0.11071	-0.34417	-1.14651	-0.42167
2463.000	-0.10478	-0.35014	-1.12279	-0.35604
2464.000	-0.04349	-0.35014	-1.10896	-0.36598
2465.000	-0.10676	-0.35411	-1.11489	-0.38388
2466.000	-0.08106	-0.32030	-1.03781	-0.34809
2467.000	-0.09687	-0.28847	-1.10106	-0.38587
2468.000	-0.09885	-0.34616	-1.07932	-0.39781
2469.000	-0.09885	-0.31831	-1.10303	-0.39383
2470.000	-0.09292	-0.39390	-1.08722	-0.34808
2471.000	-0.09687	-0.34218	-1.09513	-0.37195
2472.000	-0.08501	-0.36008	-1.12082	-0.41173
2473.000	-0.09292	-0.36804	-1.11884	-0.35007
2474.000	-0.08303	-0.31632	-1.08722	-0.41770
2475.000	-0.08106	-0.36008	-1.13465	-0.37195
2476.000	-0.06722	-0.35411	-1.07536	-0.36400
2477.000	-0.04943	-0.29244	-1.11291	-0.32620
2478.000	-0.05931	-0.26857	-1.07734	-0.38190
2479.000	-0.03559	-0.27255	-1.10896	-0.39184
2480.000	-0.04745	-0.30239	-1.13070	-0.37990
2481.000	-0.11664	-0.35213	-1.08524	-0.34212
2482.000	-0.09292	-0.33621	-1.12477	-0.36996
2483.000	-0.10280	-0.38594	-1.12477	-0.36200
2484.000	-0.09885	-0.36406	-1.08722	-0.39184
2485.000	-0.10478	-0.32825	-1.11094	-0.38388
2486.000	-0.08699	-0.36605	-1.10501	-0.39781
2487.000	-0.07513	-0.29443	-1.07932	-0.31427
2488.000	-0.10676	-0.34417	-1.08524	-0.37593
2489.000	-0.07117	-0.34019	-1.07734	-0.40776
2490.000	-0.06524	-0.37401	-1.07734	-0.42168
2491.000	-0.08699	-0.32228	-1.10501	-0.37195
2492.000	-0.03954	-0.29841	-1.07734	-0.36798
2493.000	-0.06129	-0.30836	-1.11884	-0.38587
2494.000	-0.07710	-0.34019	-1.09513	-0.36797
2495.000	-0.10874	-0.34019	-1.09117	-0.36201
2496.000	-0.11071	-0.42374	-1.11884	-0.34211
2497.000	-0.03559	-0.33422	-1.06153	-0.37792
2498.000	-0.07315	-0.37003	-1.10303	-0.39582
2499.000	-0.06722	-0.31035	-1.07734	-0.35604
2500.000	-0.07117	-0.28051	-1.11291	-0.32620
2501.000	-0.08303	-0.34815	-1.10698	-0.41571
2502.000	-0.09490	-0.36804	-1.07339	-0.40975
2503.000	-0.07513	-0.35809	-1.05560	-0.35604
2504.000	-0.07908	-0.32626	-1.08722	-0.41571
2505.000	-0.07315	-0.32825	-1.02003	-0.39782
2506.000	-0.09687	-0.33024	-1.05362	-0.39980
2507.000	-0.06920	-0.36605	-1.06943	-0.38190
2508.000	-0.10280	-0.37600	-1.09908	-0.37792
2509.000	-0.11467	-0.40385	-1.08524	-0.38389
2510.000	-0.04349	-0.38992	-1.09315	-0.45748
2511.000	-0.07315	-0.35411	-1.10896	-0.40377
2512.000	-0.08699	-0.37202	-1.05758	-0.40378
2513.000	-0.03954	-0.36008	-1.10106	-0.43560
2514.000	-0.09292	-0.36804	-1.11291	-0.39184
2515.000	-0.08897	-0.37998	-1.09908	-0.33814
2516.000	-0.06129	-0.36207	-1.13070	-0.38388
2517.000	-0.09094	-0.31035	-1.08524	-0.38389
2518.000	-0.08303	-0.37600	-1.08920	-0.37195
2519.000	-0.11269	-0.39191	-1.02595	-0.37196
2520.000	-0.04943	-0.35213	-1.07339	-0.38588
2521.000	-0.08106	-0.31433	-1.05758	-0.33814
2522.000	-0.11071	-0.38395	-1.03781	-0.42168
2523.000	-0.11071	-0.37003	-1.04572	-0.39185
2524.000	-0.09292	-0.37998	-1.09315	-0.40179
2525.000	-0.09490	-0.39191	-1.06351	-0.35008
2526.000	-0.02966	-0.35412	-1.06548	-0.39185
2527.000	-0.08106	-0.36406	-1.10106	-0.38786
2528.000	-0.09885	-0.37003	-1.08327	-0.37394
2529.000	-0.10676	-0.34218	-1.05560	-0.35008
2530.000	-0.09885	-0.36406	-1.07339	-0.39582
2531.000	-0.07908	-0.37003	-1.07734	-0.41372
2532.000	-0.11862	-0.43369	-1.09117	-0.39582
2533.000	-0.08699	-0.39390	-1.04769	-0.35207
2534.000	-0.08501	-0.35610	-1.04967	-0.38787
2535.000	-0.11664	-0.38793	-1.05560	-0.38787
2536.000	-0.10874	-0.40186	-1.06548	-0.38986
2537.000	-0.09292	-0.40783	-1.03584	-0.39384
2538.000	-0.08303	-0.38396	-1.00026	-0.41572
2539.000	-0.12060	-0.36605	-1.07734	-0.41571
2540.000	-0.08699	-0.37998	-1.02991	-0.36003
2541.000	-0.10478	-0.40385	-1.06548	-0.36002
2542.000	-0.12060	-0.35411	-1.04967	-0.41373
2543.000	-0.09490	-0.35809	-1.04769	-0.41174
2544.000	-0.07710	-0.37799	-1.04572	-0.39185
2545.000	-0.11862	-0.36605	-1.03979	-0.35008
2546.000	-0.03361	-0.37799	-1.09315	-0.31825
2547.000	-0.10083	-0.38594	-1.04967	-0.35604
2548.000	-0.10676	-0.38395	-1.05362	-0.37593
2549.000	-0.10676	-0.35411	-1.06351	-0.38588
2550.000	-0.11467	-0.38594	-1.04967	-0.41969
2551.000	-0.12850	-0.35212	-1.06351	-0.40975
2552.000	-0.11467	-0.39191	-1.05362	-0.40776
2553.000	-0.07117	-0.37998	-1.05362	-0.41174
2554.000	-0.08501	-0.36406	-1.07932	-0.38190
2555.000	-0.05733	-0.39390	-1.03781	-0.40378
2556.000	-0.09687	-0.36207	-1.05955	-0.38986
2557.000	-0.08303	-0.35610	-1.07141	-0.38787
2558.000	-0.11862	-0.40982	-1.08524	-0.41969
2559.000	-0.08501	-0.38992	-1.08722	-0.43759
2560.000	-0.10478	-0.36804	-1.08722	-0.41173
2561.000	-0.07513	-0.36605	-1.06548	-0.39185
2562.000	-0.09490	-0.37799	-1.07932	-0.36002
2563.000	-0.02175	-0.30637	-1.02991	-0.36599
2564.000	-0.07908	-0.35610	-1.05362	-0.39384
2565.000	-0.06722	-0.33422	-1.05362	-0.40378
2566.000	-0.08106	-0.33024	-1.04374	-0.39384
2567.000	-0.08303	-0.34815	-1.09117	-0.44157
2568.000	0.00198	-0.30637	-1.07141	-0.44157
2569.000	-0.05536	-0.36008	-1.06746	-0.40776
2570.000	-0.05733	-0.35610	-1.07339	-0.41372
2571.000	-0.05140	-0.38594	-1.06943	-0.36798
2572.000	-0.06326	-0.32626	-1.08524	-0.38588
2573.000	-0.00395	-0.35610	-1.07536	-0.37593
2574.000	-0.03361	-0.36406	-1.04769	-0.40179
2575.000	-0.05733	-0.35014	-1.08920	-0.42963
2576.000	-0.06524	-0.31831	-1.05165	-0.43163
2577.000	-0.06326	-0.32825	-1.10106	-0.43759
2578.000	-0.04547	-0.30836	-1.04967	-0.38389
2579.000	-0.01779	-0.36008	-1.09513	-0.41173
2580.000	-0.06524	-0.34019	-1.06746	-0.41173
2581.000	-0.04943	-0.35213	-1.07339	-0.42566
2582.000	-0.02966	-0.30438	-1.06943	-0.40179
2583.000	-0.03361	-0.35610	-1.06943	-0.41571
2584.000	-0.07315	-0.34815	-1.04769	-0.41174
2585.000	-0.04349	-0.26658	-1.07932	-0.40378
2586.000	-0.06524	-0.29841	-1.03386	-0.40179
2587.000	-0.06129	-0.33621	-1.04374	-0.41771
2588.000	-0.11467	-0.36207	-1.05362	-0.41969
2589.000	-0.08106	-0.34218	-1.05955	-0.43163
2590.000	-0.07117	-0.32229	-1.05758	-0.43362
2591.000	-0.08303	-0.32229	-1.03584	-0.37196
2592.000	0.01186	-0.27454	-1.05165	-0.43362
2593.000	-0.02372	-0.32030	-1.03386	-0.39981
2594.000	-0.02768	-0.27255	-1.04374	-0.44953
2595.000	-0.08303	-0.24868	-1.09117	-0.45350
2596.000	-0.04152	-0.31035	-1.07932	-0.36400
2597.000	-0.02570	-0.29642	-1.06548	-0.40577
2598.000	-0.03756	-0.29642	-1.10698	-0.42764
2599.000	-0.01384	-0.25067	-1.05560	-0.41969
2600.000	-0.03954	-0.30040	-1.04374	-0.42367
2601.000	-0.00198	-0.27454	-1.05560	-0.43362
2602.000	-0.02372	-0.35014	-1.04769	-0.37395
2603.000	-0.03954	-0.29244	-1.04769	-0.38588
2604.000	-0.00791	-0.31035	-1.05758	-0.41373
2605.000	0.06129	-0.24271	-1.04572	-0.43163
2606.000	-0.00395	-0.24470	-1.04572	-0.43163
2607.000	0.01779	-0.24072	-1.05165	-0.44754
2608.000	-0.02570	-0.21685	-1.00421	-0.44357
2609.000	0.02175	-0.22679	-1.03386	-0.39384
2610.000	-0.02768	-0.27454	-1.03979	-0.44157
2611.000	0.06524	-0.21486	-1.02991	-0.38787
2612.000	0.02372	-0.24868	-1.06153	-0.47936
2613.000	0.00791	-0.23077	-1.04374	-0.40378
2614.000	0.00198	-0.22878	-1.01607	-0.43362
2615.000	-0.03163	-0.29244	-1.06153	-0.45748
2616.000	0.01384	-0.21287	-1.04374	-0.43759
2617.000	-0.01779	-0.26061	-1.04177	-0.43561
2618.000	-0.00198	-0.23276	-1.02991	-0.40975
2619.000	0.01582	-0.21287	-1.04572	-0.42964
2620.000	0.05338	-0.22878	-1.03188	-0.41373
2621.000	0.02175	-0.26260	-1.05758	-0.40776
2622.000	-0.03559	-0.22679	-1.00421	-0.38787
2623.000	-0.01384	-0.26857	-1.01805	-0.41373
2624.000	-0.00593	-0.24072	-1.02793	-0.39583
2625.000	-0.01977	-0.23674	-1.04177	-0.41572
2626.000	-0.02570	-0.25863	-1.03584	-0.46146
2627.000	0.00593	-0.27454	-1.04374	-0.41771
2628.000	0.01384	-0.29046	-1.02793	-0.44555
2629.000	0.01384	-0.26061	-1.06548	-0.41372
2630.000	-0.04943	-0.25862	-1.04177	-0.44356
2631.000	-0.08106	-0.32626	-1.00817	-0.38986
2632.000	-0.02175	-0.29443	-1.04374	-0.49726
2633.000	-0.06129	-0.29642	-1.03386	-0.44157
2634.000	-0.02175	-0.29841	-1.06153	-0.44157
2635.000	-0.06524	-0.31234	-1.07141	-0.45947
2636.000	-0.02966	-0.31035	-1.06153	-0.40577
2637.000	0.00000	-0.30040	-1.05362	-0.41373
2638.000	-0.05931	-0.28449	-1.05560	-0.47737
2639.000	-0.03756	-0.34019	-1.06351	-0.43759
2640.000	-0.05931	-0.31433	-1.06746	-0.43759
2641.000	-0.08106	-0.38594	-1.06746	-0.45549
2642.000	-0.13839	-0.38197	-1.08327	-0.47339
2643.000	-0.09687	-0.37600	-1.00421	-0.45948
2644.000	-0.04943	-0.41777	-1.07141	-0.48732
2645.000	-0.10083	-0.39390	-1.02991	-0.46544
2646.000	-0.09292	-0.35809	-1.01410	-0.40379
2647.000	-0.08303	-0.40783	-1.02200	-0.43959
2648.000	-0.11862	-0.37003	-1.03979	-0.42964
2649.000	-0.14037	-0.43966	-1.04967	-0.44953
2650.000	-0.08501	-0.42573	-1.03781	-0.44555
2651.000	-0.12653	-0.35610	-1.06548	-0.49129
2652.000	-0.08699	-0.38793	-1.07141	-0.47936
2653.000	-0.07315	-0.34417	-1.05560	-0.44356
2654.000	-0.12850	-0.35809	-1.04967	-0.52312
2655.000	-0.11467	-0.36008	-1.05758	-0.51317
2656.000	-0.07710	-0.38396	-1.05758	-0.49527
2657.000	-0.10676	-0.35610	-1.03584	-0.47936
2658.000	-0.08699	-0.33621	-1.02991	-0.48931
2659.000	-0.07710	-0.32427	-1.01607	-0.48732
2660.000	-0.06129	-0.31234	-1.01212	-0.44357
2661.000	-0.08897	-0.33024	-1.03584	-0.48931
2662.000	-0.02372	-0.34417	-1.03386	-0.44157
2663.000	-0.06129	-0.29244	-1.06943	-0.48930
2664.000	-0.04547	-0.32030	-1.02595	-0.50522
2665.000	-0.00395	-0.31831	-1.04572	-0.52113
2666.000	-0.03954	-0.29244	-1.02003	-0.55296
2667.000	-0.04547	-0.30637	-1.03188	-0.50721
2668.000	-0.04745	-0.33820	-1.02793	-0.49926
2669.000	-0.03559	-0.34019	-1.02991	-0.50124
2670.000	-0.04349	-0.32030	-0.98840	-0.48932
2671.000	-0.02570	-0.35014	-1.05165	-0.46146
2672.000	-0.05733	-0.31632	-1.01410	-0.42964
2673.000	-0.03756	-0.30438	-0.98050	-0.42766
2674.000	-0.06722	-0.31831	-1.00026	-0.45749
2675.000	-0.01186	-0.32825	-1.01805	-0.44555
2676.000	-0.05140	-0.32229	-1.02200	-0.42964
2677.000	-0.04547	-0.32825	-0.99631	-0.46147
2678.000	-0.08303	-0.37600	-1.04572	-0.46942
2679.000	-0.07315	-0.30438	-1.03386	-0.48732
2680.000	-0.06129	-0.31632	-1.02595	-0.47539
2681.000	-0.04349	-0.36406	-1.05758	-0.48135
2682.000	-0.06524	-0.30040	-0.99433	-0.47340
2683.000	-0.08699	-0.32626	-1.00817	-0.48732
2684.000	-0.03756	-0.32229	-0.99829	-0.49329
2685.000	-0.03163	-0.32825	-1.01212	-0.49528
2686.000	-0.00198	-0.35014	-1.02003	-0.49130
2687.000	-0.05140	-0.35809	-1.03188	-0.48931
2688.000	-0.04152	-0.32626	-0.98247	-0.47738
2689.000	-0.04547	-0.31234	-1.02793	-0.47340
2690.000	-0.05931	-0.37799	-1.02200	-0.47738
2691.000	-0.08501	-0.36804	-1.00421	-0.47738
2692.000	-0.07710	-0.32030	-1.00026	-0.46346
2693.000	-0.05140	-0.31035	-1.01212	-0.45152
2694.000	-0.02570	-0.34218	-1.01805	-0.44754
2695.000	-0.06524	-0.32626	-0.99433	-0.46744
2696.000	-0.02966	-0.31035	-1.03386	-0.49727
2697.000	-0.05338	-0.33223	-0.99038	-0.46545
2698.000	-0.02768	-0.32229	-1.03386	-0.48334
2699.000	-0.05140	-0.31433	-0.98840	-0.43760
2700.000	-0.06920	-0.33422	-1.00224	-0.45550
2701.000	-0.04745	-0.28449	-0.98643	-0.46545
2702.000	-0.01186	-0.27056	-0.98247	-0.51915
2703.000	-0.06524	-0.32825	-1.00619	-0.52512
2704.000	-0.03361	-0.27852	-0.99829	-0.48733
2705.000	-0.04349	-0.30438	-1.01014	-0.45351
2706.000	-0.05140	-0.31632	-1.01410	-0.45749
2707.000	-0.04943	-0.32626	-0.99433	-0.45948
2708.000	-0.06722	-0.33223	-1.00026	-0.50125
2709.000	-0.02175	-0.30836	-1.02991	-0.46544
2710.000	-0.00791	-0.30040	-0.99038	-0.47142
2711.000	-0.04349	-0.28648	-1.03781	-0.45152
2712.000	-0.04152	-0.31433	-1.02200	-0.48931
2713.000	-0.05338	-0.29244	-1.00421	-0.44953
2714.000	-0.03559	-0.30438	-1.06943	-0.49527
2715.000	-0.01384	-0.31035	-1.04769	-0.50323
2716.000	-0.02570	-0.31234	-0.99236	-0.43561
2717.000	-0.05140	-0.35014	-0.99631	-0.45749
2718.000	-0.00593	-0.30836	-1.00619	-0.50125
2719.000	-0.02570	-0.35412	-1.02398	-0.45351
2720.000	0.00198	-0.31035	-1.00817	-0.45749
2721.000	-0.03756	-0.28250	-0.99631	-0.48733
2722.000	-0.05733	-0.37003	-1.00619	-0.46744
2723.000	-0.06920	-0.32626	-1.02003	-0.45351
2724.000	-0.03361	-0.29046	-1.01212	-0.50125
2725.000	-0.04943	-0.36207	-1.02991	-0.47738
2726.000	-0.03756	-0.30637	-1.01014	-0.42765
2727.000	-0.07908	-0.32030	-1.00817	-0.47340
2728.000	-0.01384	-0.30836	-1.00224	-0.46346
2729.000	-0.01186	-0.32626	-1.02398	-0.47937
2730.000	-0.05536	-0.35412	-1.01607	-0.49926
2731.000	-0.06524	-0.35213	-1.00026	-0.46943
2732.000	-0.04943	-0.33223	-1.00817	-0.50324
2733.000	-0.03954	-0.32030	-0.99631	-0.52711
2734.000	-0.07315	-0.34815	-0.99829	-0.51915
2735.000	-0.05536	-0.34616	-1.03584	-0.52909
2736.000	-0.01779	-0.35809	-1.01607	-0.50920
2737.000	-0.03954	-0.35213	-1.03781	-0.54500
2738.000	-0.05733	-0.35412	-1.05362	-0.54897
2739.000	-0.07117	-0.36406	-1.01410	-0.52511
2740.000	-0.08699	-0.37003	-1.00026	-0.52512
2741.000	-0.05338	-0.35014	-0.99829	-0.49329
2742.000	-0.06920	-0.41181	-1.05362	-0.51317
2743.000	-0.14432	-0.42374	-1.04177	-0.51517
2744.000	-0.08303	-0.36406	-1.06351	-0.52511
2745.000	-0.13246	-0.38793	-1.03584	-0.49925
2746.000	-0.12060	-0.42772	-1.03584	-0.47738
2747.000	-0.08897	-0.39390	-1.01212	-0.50523
2748.000	-0.07315	-0.36605	-1.04572	-0.51715
2749.000	-0.04745	-0.35412	-1.01805	-0.51119
2750.000	-0.13839	-0.44363	-1.02595	-0.48931
2751.000	-0.11071	-0.39987	-1.06153	-0.50124
2752.000	-0.06920	-0.37401	-1.02398	-0.45152
2753.000	-0.09490	-0.41181	-1.03584	-0.45152
2754.000	-0.07513	-0.45358	-0.99829	-0.44158
2755.000	-0.11071	-0.44761	-1.01014	-0.46743
2756.000	-0.04943	-0.37799	-1.02200	-0.40975
2757.000	-0.03163	-0.38992	-1.00224	-0.45152
2758.000	-0.06722	-0.34417	-1.02003	-0.49130
2759.000	-0.08897	-0.40186	-1.00817	-0.50125
2760.000	-0.06524	-0.39788	-1.00224	-0.50324
2761.000	-0.04349	-0.35412	-1.02991	-0.46544
2762.000	-0.07908	-0.37600	-1.03979	-0.51119
2763.000	-0.09094	-0.33621	-1.00224	-0.46346
2764.000	-0.02175	-0.37003	-1.02991	-0.47937
2765.000	-0.03559	-0.35610	-1.03781	-0.48533
2766.000	-0.05338	-0.42175	-1.04374	-0.48334
2767.000	0.00791	-0.37401	-0.98247	-0.50125
2768.000	-0.06129	-0.32030	-1.02793	-0.46544
2769.000	-0.00593	-0.31831	-0.98840	-0.47539
2770.000	0.02175	-0.34616	-1.01014	-0.46147
2771.000	0.02966	-0.32427	-1.01014	-0.47738
2772.000	-0.02768	-0.37003	-1.01607	-0.52511
2773.000	-0.00791	-0.36406	-1.00421	-0.48534
2774.000	-0.00791	-0.33621	-1.00817	-0.46942
2775.000	-0.05140	-0.33422	-0.98840	-0.44556
2776.000	0.01582	-0.28648	-1.00421	-0.43163
2777.000	-0.02175	-0.33024	-0.98840	-0.44954
2778.000	0.02372	-0.31632	-0.99038	-0.43362
2779.000	0.02372	-0.29841	-1.00421	-0.46147
2780.000	0.02570	-0.30040	-1.01805	-0.47738
2781.000	0.00791	-0.29841	-1.02595	-0.40975
2782.000	0.01186	-0.26658	-1.00421	-0.48335
2783.000	0.01384	-0.27653	-0.97259	-0.42567
2784.000	0.02175	-0.26658	-1.01014	-0.47141
2785.000	0.00791	-0.30438	-0.99038	-0.45351
2786.000	0.00198	-0.26459	-0.97852	-0.43760
2787.000	0.01582	-0.27653	-0.99433	-0.48335
2788.000	0.01779	-0.27653	-0.99433	-0.44357
2789.000	0.07315	-0.29244	-0.97062	-0.42169
2790.000	0.03954	-0.25862	-0.98050	-0.43959
2791.000	0.00791	-0.27852	-1.01805	-0.45749
2792.000	0.04547	-0.29443	-1.02398	-0.44953
2793.000	0.01582	-0.26260	-1.00421	-0.43163
2794.000	-0.01186	-0.29244	-1.01805	-0.43959
2795.000	0.01582	-0.30239	-0.97062	-0.43363
2796.000	0.04745	-0.28051	-0.98050	-0.41175
2797.000	0.00395	-0.30040	-1.00421	-0.45152
2798.000	0.04745	-0.30637	-0.99829	-0.45351
2799.000	0.00791	-0.29046	-0.96666	-0.46346
2800.000	0.00395	-0.28648	-0.96666	-0.45153
2801.000	0.00000	-0.28648	-0.96073	-0.42169
2802.000	-0.00395	-0.25266	-0.95480	-0.43562
2803.000	-0.01582	-0.30438	-0.95480	-0.46148
2804.000	-0.00395	-0.29642	-0.97852	-0.41572
2805.000	-0.01384	-0.28449	-0.95876	-0.41772
2806.000	-0.00593	-0.33820	-0.95283	-0.39584
2807.000	0.01582	-0.29642	-0.99433	-0.42169
2808.000	0.00791	-0.32030	-0.96666	-0.42766
2809.000	-0.04745	-0.34616	-0.95480	-0.47341
2810.000	-0.01186	-0.38793	-0.97259	-0.42169
2811.000	-0.04943	-0.37600	-0.99236	-0.46943
2812.000	-0.03361	-0.33621	-1.01014	-0.50324
2813.000	0.00000	-0.37202	-0.97259	-0.48733
2814.000	-0.05140	-0.38992	-1.00026	-0.50722
2815.000	-0.06722	-0.41380	-0.99433	-0.52512
2816.000	-0.02966	-0.33621	-0.98840	-0.54700
2817.000	-0.05931	-0.37600	-0.98247	-0.47539
2818.000	-0.07710	-0.37202	-0.99433	-0.47738
2819.000	-0.09292	-0.40982	-0.98840	-0.53109
2820.000	-0.09490	-0.44562	-0.99433	-0.57086
2821.000	-0.15816	-0.45955	-0.94097	-0.48733
2822.000	-0.08897	-0.43966	-0.99433	-0.50722
2823.000	-0.07315	-0.40982	-0.97062	-0.50125
2824.000	-0.08303	-0.44562	-0.93504	-0.48734
2825.000	-0.06129	-0.36804	-0.96864	-0.49131
2826.000	-0.05733	-0.39788	-0.97062	-0.50324
2827.000	-0.05733	-0.34417	-0.99433	-0.52711
2828.000	-0.00395	-0.35610	-0.97852	-0.49926
2829.000	-0.01384	-0.33024	-0.98643	-0.54103
2830.000	-0.04152	-0.36804	-0.98643	-0.52313
2831.000	-0.05140	-0.35610	-0.98643	-0.52313
2832.000	-0.05536	-0.31433	-0.99631	-0.51716
2833.000	-0.06326	-0.40584	-1.01607	-0.51119
2834.000	-0.06722	-0.34019	-0.97457	-0.49131
2835.000	-0.04943	-0.35014	-0.94097	-0.50722
2836.000	-0.06920	-0.32626	-0.97457	-0.49131
2837.000	-0.06524	-0.37998	-0.98840	-0.50523
2838.000	-0.01779	-0.30836	-0.99433	-0.47937
2839.000	-0.03163	-0.36605	-0.96864	-0.46346
2840.000	0.00198	-0.34019	-1.02991	-0.47937
2841.000	-0.02175	-0.27454	-0.96666	-0.47341
2842.000	-0.00198	-0.27653	-1.00026	-0.47738
2843.000	-0.02768	-0.35809	-1.01014	-0.49130
2844.000	-0.02175	-0.32427	-0.98445	-0.49926
2845.000	-0.02966	-0.35014	-1.00817	-0.47738
2846.000	-0.02768	-0.32626	-0.95085	-0.48534
2847.000	-0.07908	-0.35213	-0.97852	-0.49926
2848.000	-0.08699	-0.42374	-0.97062	-0.48136
2849.000	-0.04349	-0.34417	-0.97259	-0.49926
2850.000	0.01779	-0.36804	-0.96864	-0.49529
2851.000	-0.00593	-0.33621	-0.97259	-0.45948
2852.000	-0.05140	-0.35412	-0.98840	-0.47340
2853.000	-0.02768	-0.32229	-0.95283	-0.41772
2854.000	-0.02570	-0.38992	-0.91527	-0.45352
2855.000	-0.01977	-0.35213	-0.97852	-0.42766
2856.000	-0.01384	-0.36406	-0.97259	-0.41771
2857.000	-0.01186	-0.33422	-0.99038	-0.40976
2858.000	0.01384	-0.33820	-0.97457	-0.44357
2859.000	-0.00989	-0.28847	-0.97852	-0.43760
2860.000	0.01977	-0.29244	-0.93306	-0.39385
2861.000	-0.01186	-0.34616	-0.96469	-0.41970
2862.000	0.05140	-0.29046	-0.96469	-0.43562
2863.000	0.00593	-0.32825	-0.98247	-0.41373
2864.000	0.00198	-0.31433	-0.96271	-0.39385
2865.000	-0.02768	-0.32626	-0.96271	-0.40578
2866.000	-0.02768	-0.32825	-0.94887	-0.40180
2867.000	0.02175	-0.33621	-0.95678	-0.38191
2868.000	-0.02175	-0.32825	-0.93702	-0.40777
2869.000	-0.04152	-0.36008	-0.96073	-0.42567
2870.000	-0.01384	-0.35809	-0.93702	-0.44159
2871.000	-0.00791	-0.34417	-0.97654	-0.39385
2872.000	-0.02966	-0.39987	-0.97852	-0.40379
2873.000	0.00989	-0.29443	-0.96469	-0.45948
2874.000	0.05536	-0.24470	-0.95678	-0.44158
2875.000	0.08303	-0.27255	-0.90144	-0.41176
2876.000	0.01977	-0.32427	-0.88365	-0.42568
2877.000	0.08699	-0.30637	-0.84610	-0.42171
2878.000	0.16014	-0.31035	-0.77098	-0.39387
2879.000	0.21549	-0.34417	-0.67215	-0.41377
2880.000	0.36179	-0.31233	-0.52389	-0.45356
2881.000	0.48238	-0.34018	-0.40726	-0.41577
2882.000	0.62866	-0.34614	-0.26887	-0.38395
2883.000	0.70180	-0.31232	-0.17200	-0.41379
2884.000	0.84412	-0.29838	0.03559	-0.35014
2885.000	0.94492	-0.27450	0.19177	-0.32626
2886.000	1.13860	-0.19890	0.32422	-0.37201
2887.000	1.21172	-0.21083	0.39144	-0.26459
2888.000	1.22358	-0.23271	0.44284	-0.30636
2889.000	1.22753	-0.21680	0.51203	-0.29243
2890.000	1.32238	-0.15315	0.57924	-0.29243
2891.000	1.31843	-0.16906	0.49622	-0.33620
2892.000	1.29669	-0.18298	0.46063	-0.37798
2893.000	1.27298	-0.18298	0.43889	-0.39389
2894.000	1.23148	-0.23271	0.37563	-0.39389
2895.000	1.24729	-0.17503	0.39144	-0.42771
2896.000	1.19789	-0.23669	0.31039	-0.48540
2897.000	1.16627	-0.30233	0.27876	-0.57293
2898.000	1.17220	-0.26056	0.25701	-0.55304
2899.000	1.15639	-0.30233	0.25108	-0.52718
2900.000	1.17022	-0.32620	0.27876	-0.57890
2901.000	1.14848	-0.26454	0.28073	-0.51127
2902.000	1.15639	-0.27846	0.31434	-0.48938
2903.000	1.11489	-0.31427	0.30248	-0.51723
2904.000	1.10896	-0.33814	0.31434	-0.47546
2905.000	1.09908	-0.31029	0.31039	-0.46352
2906.000	1.06548	-0.31825	0.32620	-0.47347
2907.000	1.07141	-0.33019	0.30446	-0.49137
2908.000	1.09315	-0.30631	0.29062	-0.45954
2909.000	1.04374	-0.31825	0.24910	-0.46750
2910.000	1.06548	-0.27449	0.23526	-0.41379
2911.000	1.13070	-0.27449	0.26492	-0.44562
2912.000	1.10106	-0.26653	0.25108	-0.38992
2913.000	1.12675	-0.28642	0.30050	-0.41777
2914.000	1.16232	-0.21084	0.32818	-0.35610
2915.000	1.11489	-0.23471	0.29852	-0.34217
2916.000	1.15837	-0.25658	0.31236	-0.34615
2917.000	1.19591	-0.19691	0.34399	-0.31830
2918.000	1.15441	-0.25062	0.35981	-0.31233
2919.000	1.20184	-0.24067	0.34004	-0.34018
2920.000	1.23346	-0.21879	0.38156	-0.31034
2921.000	1.17615	-0.25459	0.37365	-0.38594
2922.000	1.21370	-0.26652	0.35190	-0.38196
2923.000	1.26112	-0.25856	0.38749	-0.36206
2924.000	1.25322	-0.22475	0.37563	-0.37997
2925.000	1.25520	-0.25657	0.39539	-0.38793
2926.000	1.24136	-0.21282	0.37563	-0.42373
2927.000	1.25124	-0.20884	0.36772	-0.40185
2928.000	1.26310	-0.19492	0.40726	-0.37798
2929.000	1.26903	-0.20088	0.38749	-0.37599
2930.000	1.27891	-0.21878	0.36969	-0.33223
2931.000	1.34016	-0.19093	0.40133	-0.38196
2932.000	1.30855	-0.08751	0.40133	-0.33023
2933.000	1.28879	-0.16906	0.38353	-0.38991
2934.000	1.29669	-0.11735	0.40923	-0.38792
2935.000	1.28879	-0.14320	0.38946	-0.35809
2936.000	1.29274	-0.13724	0.37167	-0.37599
2937.000	1.30657	-0.11735	0.40133	-0.29443
2938.000	1.30460	-0.15514	0.41121	-0.31034
2939.000	1.26903	-0.13525	0.43493	-0.32228
2940.000	1.29076	-0.10939	0.42109	-0.28249
2941.000	1.31448	-0.11536	0.39144	-0.26857
2942.000	1.32238	-0.16707	0.41121	-0.28846
2943.000	1.34412	-0.06961	0.43098	-0.26658
2944.000	1.41920	-0.09745	0.46854	-0.30835
2945.000	1.43896	-0.09149	0.54564	-0.26657
2946.000	1.57330	-0.04574	0.51401	-0.29243
2947.000	1.58515	-0.07358	0.56936	-0.21485
2948.000	1.59700	-0.10142	0.62668	-0.21882
2949.000	1.63454	-0.05170	0.67610	-0.28845
2950.000	1.63454	-0.01989	0.73343	-0.29242
2951.000	1.67009	-0.00994	0.74924	-0.27253
2952.000	1.72738	-0.01392	0.83028	-0.26258
2953.000	1.79848	0.00199	0.90144	-0.25064
2954.000	1.83601	0.02784	0.95876	-0.21284
2955.000	1.90118	0.02585	1.02398	-0.21681
2956.000	1.90118	0.04772	1.06548	-0.23073
2957.000	1.95647	0.08947	1.07339	-0.28643
2958.000	1.89723	0.05567	1.08524	-0.24664
2959.000	1.95055	0.06760	1.09315	-0.26057
2960.000	1.93475	0.10737	1.11291	-0.35803
2961.000	1.92093	0.11731	1.02003	-0.33019
2962.000	1.89920	0.09942	1.05758	-0.34013
2963.000	1.95252	0.22865	1.02595	-0.31627
2964.000	1.92883	0.21871	1.00421	-0.24864
2965.000	1.94265	0.26643	1.00817	-0.25660
2966.000	1.97227	0.28034	0.98247	-0.28643
2967.000	1.96042	0.25450	1.00224	-0.20687
2968.000	1.98017	0.27438	1.01212	-0.22079
2969.000	1.98807	0.28233	1.03584	-0.23272
2970.000	1.97227	0.25648	1.02003	-0.17305
2971.000	2.05520	0.23659	1.09710	-0.15316
2972.000	2.05915	0.23460	1.09710	-0.14918
2973.000	2.02361	0.23461	1.14058	-0.13724
2974.000	2.01966	0.19285	1.15046	-0.07359
2975.000	2.03151	0.18291	1.13663	-0.14918
2976.000	2.03151	0.24057	1.17418	-0.07956
2977.000	2.08087	0.22068	1.15837	-0.10940
2978.000	2.05520	0.23062	1.18998	-0.10940
2979.000	2.07495	0.27436	1.17813	-0.09348
2980.000	2.10851	0.26640	1.20382	-0.04774
2981.000	2.10259	0.26839	1.23346	0.00000
2982.000	2.13220	0.23857	1.26903	-0.03580
2983.000	2.12036	0.21670	1.28286	0.01591
2984.000	2.18353	0.29024	1.31645	0.06365
2985.000	2.16181	0.22862	1.32040	0.03381
2986.000	2.20919	0.28428	1.32040	0.06365
2987.000	2.16971	0.26639	1.34214	0.12331
2988.000	2.21117	0.31608	1.36585	0.14320
2989.000	2.23683	0.26439	1.33621	0.10740
2990.000	2.28618	0.30414	1.34016	0.13524
2991.000	2.22893	0.32005	1.34609	0.15911
2992.000	2.26249	0.27631	1.35597	0.08154
2993.000	2.26644	0.27830	1.37968	0.07160
2994.000	2.33355	0.26437	1.37771	0.05768
2995.000	2.33158	0.31606	1.38166	0.07955
2996.000	2.35526	0.33195	1.38561	0.10939
2997.000	2.38881	0.40549	1.43896	0.12728
2998.000	2.39868	0.36374	1.44686	0.14120
2999.000	2.40460	0.33989	1.47254	0.14717
3000.000	2.40855	0.33591	1.51996	0.17302
3001.000	2.41052	0.34983	1.47847	0.14916
3002.000	2.41644	0.31206	1.50810	0.17501
3003.000	2.43420	0.34386	1.52391	0.13126
3004.000	2.42236	0.34187	1.51403	0.20882
3005.000	2.45591	0.31603	1.53379	0.17501
3006.000	2.42631	0.33591	1.54367	0.18495
3007.000	2.42039	0.34784	1.53181	0.17103
3008.000	2.42631	0.30013	1.49230	0.18297
3009.000	2.42828	0.30610	1.50415	0.21081
3010.000	2.42828	0.28821	1.56145	0.25455
3011.000	2.42039	0.22460	1.52984	0.22075
3012.000	2.44802	0.25640	1.54367	0.27046
3013.000	2.42236	0.26038	1.56737	0.28040
3014.000	2.46380	0.28224	1.53971	0.24262
3015.000	2.42631	0.27032	1.58120	0.25853
3016.000	2.43223	0.24050	1.57527	0.25455
3017.000	2.42828	0.25442	1.54959	0.29830
3018.000	2.41052	0.24647	1.56342	0.19489
3019.000	2.44210	0.24249	1.56342	0.20682
3020.000	2.43223	0.25839	1.57725	0.22671
3021.000	2.43025	0.21665	1.53576	0.25257
3022.000	2.40855	0.19280	1.54564	0.17103
3023.000	2.43420	0.23057	1.52984	0.23467
3024.000	2.42828	0.22659	1.52589	0.21279
3025.000	2.38486	0.27430	1.53576	0.20484
3026.000	2.43815	0.25243	1.52984	0.23069
3027.000	2.42828	0.21864	1.52589	0.21279
3028.000	2.40263	0.26237	1.55157	0.21478
3029.000	2.38092	0.25641	1.57725	0.23069
3030.000	2.42039	0.24647	1.54762	0.23069
3031.000	2.41447	0.25641	1.56145	0.25853
3032.000	2.39868	0.24448	1.57132	0.20483
3033.000	2.41644	0.22461	1.56145	0.22472
3034.000	2.43223	0.26833	1.56342	0.19489
3035.000	2.44999	0.23653	1.58713	0.17103
3036.000	2.46380	0.23056	1.56145	0.20682
3037.000	2.46775	0.28621	1.58910	0.19489
3038.000	2.41644	0.27628	1.57132	0.21677
3039.000	2.44407	0.24448	1.57923	0.20483
3040.000	2.44012	0.21069	1.59305	0.16705
3041.000	2.41644	0.26635	1.61281	0.19688
3042.000	2.39276	0.27430	1.60293	0.19091
3043.000	2.39276	0.24449	1.57923	0.18694
3044.000	2.43223	0.28423	1.56540	0.17302
3045.000	2.42039	0.25442	1.56935	0.17699
3046.000	2.40263	0.23455	1.59305	0.17699
3047.000	2.42433	0.21268	1.55749	0.13722
3048.000	2.43815	0.25044	1.57725	0.17699
3049.000	2.44210	0.23255	1.54367	0.17103
3050.000	2.44802	0.22062	1.56737	0.13324
3051.000	2.42433	0.25044	1.59700	0.14119
3052.000	2.46972	0.24447	1.55552	0.08949
3053.000	2.39473	0.18088	1.51798	0.12330
3054.000	2.39473	0.24846	1.54169	0.10938
3055.000	2.39276	0.26039	1.51798	0.02983
3056.000	2.43618	0.23056	1.54169	0.07756
3057.000	2.38881	0.27231	1.57330	0.10142
3058.000	2.42828	0.31206	1.56935	0.08949
3059.000	2.40263	0.27827	1.55354	0.10739
3060.000	2.42828	0.28224	1.56737	0.10142
3061.000	2.39671	0.26635	1.54762	0.15114
3062.000	2.43815	0.33988	1.56540	0.13324
3063.000	2.44802	0.32398	1.54959	0.10938
3064.000	2.42039	0.25442	1.51403	0.12330
3065.000	2.43223	0.32001	1.54564	0.08750
3066.000	2.42236	0.40548	1.53379	0.14319
3067.000	2.46578	0.35577	1.54564	0.14120
3068.000	2.43815	0.35777	1.55157	0.14319
3069.000	2.46380	0.34981	1.50218	0.14518
3070.000	2.43618	0.33988	1.57923	0.13324
3071.000	2.48551	0.35378	1.54959	0.14716
3072.000	2.40855	0.30411	1.54762	0.16506
3073.000	2.47959	0.31602	1.55749	0.18097
3074.000	2.44012	0.34584	1.52589	0.18495
3075.000	2.41249	0.34188	1.55354	0.21279
3076.000	2.43223	0.26237	1.53971	0.18694
3077.000	2.41644	0.30610	1.54367	0.21279
3078.000	2.37697	0.25244	1.52786	0.16308
3079.000	2.37894	0.31803	1.56737	0.18694
3080.000	2.43223	0.30013	1.58910	0.19290
3081.000	2.41447	0.32995	1.57527	0.18892
3082.000	2.41447	0.35579	1.59305	0.21478
3083.000	2.45196	0.33789	1.58318	0.18296
3084.000	2.42039	0.36771	1.60886	0.24460
3085.000	2.45788	0.29019	1.56342	0.23268
3086.000	2.40460	0.30213	1.61083	0.19688
3087.000	2.44210	0.34982	1.58515	0.18892
3088.000	2.40263	0.28225	1.57923	0.25057
3089.000	2.38092	0.28225	1.61676	0.23068
3090.000	2.43815	0.32796	1.58120	0.22074
3091.000	2.43223	0.34386	1.59898	0.21676
3092.000	2.46972	0.37764	1.62466	0.21079
3093.000	2.42236	0.29815	1.59898	0.20284
3094.000	2.44407	0.32398	1.58515	0.24461
3095.000	2.39078	0.32598	1.57725	0.16108
3096.000	2.39671	0.29616	1.61083	0.21278
3097.000	2.48748	0.32993	1.60491	0.21477
3098.000	2.40855	0.25840	1.60096	0.19688
3099.000	2.40657	0.31405	1.58120	0.19290
3100.000	2.40855	0.29219	1.58910	0.24858
3101.000	2.42631	0.31802	1.62269	0.26051
3102.000	2.43025	0.33591	1.58120	0.20086
3103.000	2.39276	0.33791	1.55947	0.19887
3104.000	2.40855	0.34784	1.60491	0.28040
3105.000	2.39473	0.38958	1.58713	0.21676
3106.000	2.41447	0.44324	1.62664	0.24460
3107.000	2.39078	0.44524	1.55749	0.23467
3108.000	2.43618	0.44920	1.56540	0.20682
3109.000	2.45788	0.43329	1.60688	0.22074
3110.000	2.42631	0.40150	1.59108	0.25853
3111.000	2.39868	0.42138	1.58713	0.27245
3112.000	2.45986	0.44720	1.61478	0.29034
3113.000	2.43025	0.46709	1.60886	0.23864
3114.000	2.42039	0.47902	1.59503	0.26648
3115.000	2.43025	0.46907	1.60886	0.23466
3116.000	2.44999	0.43329	1.62269	0.28437
3117.000	2.47762	0.49688	1.54959	0.29234
3118.000	2.43815	0.50286	1.61676	0.30426
3119.000	2.44210	0.47702	1.58713	0.32017
3120.000	2.47170	0.46508	1.60688	0.28438
3121.000	2.45788	0.49888	1.60293	0.28835
3122.000	2.44210	0.52273	1.59503	0.35199
3123.000	2.44210	0.50882	1.60886	0.30625
3124.000	2.42236	0.49690	1.60293	0.31023
3125.000	2.46972	0.48893	1.61676	0.29432
3126.000	2.48946	0.49290	1.62466	0.25256
3127.000	2.44210	0.52273	1.61873	0.31420
3128.000	2.46578	0.47900	1.60293	0.32216
3129.000	2.44604	0.48894	1.60096	0.35597
3130.000	2.48946	0.49886	1.60491	0.30227
3131.000	2.46775	0.51477	1.60886	0.33409
3132.000	2.45394	0.50285	1.60886	0.29432
3133.000	2.43025	0.51280	1.58713	0.31620
3134.000	2.46380	0.53465	1.58515	0.32415
3135.000	2.46183	0.46906	1.58120	0.30625
3136.000	2.41447	0.49293	1.59700	0.30824
3137.000	2.42828	0.46510	1.57132	0.31222
3138.000	2.42236	0.48299	1.60491	0.35000
3139.000	2.44802	0.49093	1.61281	0.29631
3140.000	2.39671	0.50287	1.58120	0.30228
3141.000	2.43618	0.48298	1.56737	0.34205
3142.000	2.44802	0.51279	1.61676	0.30824
3143.000	2.43223	0.47702	1.59503	0.34006
3144.000	2.44210	0.50286	1.61281	0.31221
3145.000	2.44012	0.47901	1.57725	0.32017
3146.000	2.46775	0.49490	1.61873	0.33011
3147.000	2.39868	0.49294	1.58120	0.34801
3148.000	2.42631	0.50684	1.55749	0.37785
3149.000	2.42039	0.45119	1.63059	0.35795
3150.000	2.38486	0.46114	1.60096	0.35795
3151.000	2.40065	0.45120	1.61676	0.40568
3152.000	2.34934	0.44128	1.57923	0.37387
3153.000	2.41644	0.48697	1.61083	0.40767
3154.000	2.40657	0.46908	1.57725	0.38978
3155.000	2.41249	0.50883	1.56737	0.41563
3156.000	2.40855	0.48299	1.58120	0.36591
3157.000	2.40855	0.53268	1.60886	0.40369
3158.000	2.37500	0.48698	1.61083	0.36591
3159.000	2.40263	0.51480	1.65034	0.39970
3160.000	2.40263	0.45716	1.62071	0.37982
3161.000	2.36710	0.46910	1.58515	0.41960
3162.000	2.36908	0.46711	1.59503	0.39972
3163.000	2.39671	0.46710	1.62861	0.39175
3164.000	2.37105	0.44127	1.60491	0.41562
3165.000	2.37105	0.42735	1.60688	0.38778
3166.000	2.37105	0.42537	1.63059	0.41761
3167.000	2.36118	0.42139	1.58318	0.37784
3168.000	2.35526	0.45320	1.59305	0.37784
3169.000	2.37894	0.44524	1.60688	0.34801
3170.000	2.39473	0.45319	1.59503	0.38580
3171.000	2.37302	0.49692	1.60688	0.40170
3172.000	2.34539	0.45121	1.63651	0.38181
3173.000	2.35723	0.52078	1.63651	0.43152
3174.000	2.34539	0.47507	1.58910	0.42756
3175.000	2.32763	0.45520	1.60886	0.41761
3176.000	2.34737	0.45320	1.59108	0.43551
3177.000	2.34934	0.44128	1.64046	0.44544
3178.000	2.38684	0.48300	1.65824	0.47129
3179.000	2.31973	0.44526	1.65034	0.43749
3180.000	2.34539	0.47308	1.67800	0.47725
3181.000	2.34539	0.48699	1.63256	0.47925
3182.000	2.35329	0.50488	1.63454	0.45539
3183.000	2.32960	0.48302	1.60491	0.41761
3184.000	2.38684	0.50487	1.64046	0.41760
3185.000	2.36118	0.53866	1.60688	0.42159
3186.000	2.35526	0.50289	1.62071	0.40568
3187.000	2.37500	0.42934	1.62466	0.39772
3188.000	2.33158	0.48103	1.65232	0.42357
3189.000	2.35131	0.53072	1.61281	0.39971
3190.000	2.36118	0.50289	1.65627	0.42555
3191.000	2.35131	0.49892	1.63454	0.45340
3192.000	2.31184	0.45918	1.61478	0.39573
3193.000	2.33158	0.50489	1.61873	0.38579
3194.000	2.32960	0.46315	1.64244	0.43351
3195.000	2.30789	0.47110	1.62071	0.42755
3196.000	2.31381	0.42340	1.62664	0.41959
3197.000	2.31579	0.48501	1.62071	0.42357
3198.000	2.34737	0.48699	1.60688	0.41960
3199.000	2.35921	0.51481	1.60886	0.40568
3200.000	2.32368	0.47706	1.62269	0.44942
3201.000	2.32763	0.44327	1.62664	0.44942
3202.000	2.33552	0.45917	1.60096	0.39971
3203.000	2.34934	0.47109	1.60688	0.38778
3204.000	2.34737	0.47705	1.61873	0.42954
3205.000	2.35329	0.49096	1.63454	0.38579
3206.000	2.31579	0.49694	1.63256	0.43550
3207.000	2.37894	0.45120	1.63849	0.44147
3208.000	2.30789	0.45321	1.62861	0.40369
3209.000	2.31184	0.47309	1.62269	0.38181
3210.000	2.36118	0.48102	1.63651	0.40170
3211.000	2.32565	0.46712	1.63256	0.37585
3212.000	2.35921	0.50289	1.59108	0.38381
3213.000	2.34737	0.45916	1.63454	0.38181
3214.000	2.29013	0.42142	1.60491	0.41761
3215.000	2.31184	0.43930	1.60886	0.42954
3216.000	2.33158	0.47110	1.62861	0.36590
3217.000	2.33947	0.44327	1.61281	0.40568
3218.000	2.35723	0.45320	1.57330	0.36790
3219.000	2.37500	0.44723	1.58318	0.37188
3220.000	2.31973	0.46911	1.58318	0.38977
3221.000	2.31579	0.41346	1.60886	0.39176
3222.000	2.35526	0.42338	1.58120	0.40370
3223.000	2.32368	0.40749	1.57527	0.38381
3224.000	2.31973	0.42936	1.58120	0.35796
3225.000	2.33552	0.42737	1.58120	0.37983
3226.000	2.33750	0.41743	1.58515	0.40966
3227.000	2.33947	0.41146	1.61873	0.39772
3228.000	2.36710	0.43729	1.57132	0.40370
3229.000	2.35921	0.46314	1.57725	0.39574
3230.000	2.34342	0.40947	1.58120	0.39176
3231.000	2.35921	0.46115	1.59305	0.45937
3232.000	2.34934	0.45121	1.60886	0.41960
3233.000	2.39276	0.45716	1.57923	0.38580
3234.000	2.34539	0.43531	1.57330	0.38580
3235.000	2.31579	0.47309	1.56935	0.40767
3236.000	2.35921	0.48301	1.61873	0.37386
3237.000	2.34342	0.46115	1.59700	0.42755
3238.000	2.33552	0.42538	1.58713	0.38580
3239.000	2.32960	0.48899	1.55552	0.38381
3240.000	2.32565	0.48302	1.58318	0.36790
3241.000	2.34539	0.46712	1.59108	0.37386
3242.000	2.31973	0.51284	1.60293	0.39971
3243.000	2.38486	0.49890	1.59700	0.42557
3244.000	2.33552	0.48103	1.55552	0.41563
3245.000	2.33552	0.46116	1.59898	0.41761
3246.000	2.35131	0.48301	1.57132	0.36591
3247.000	2.28815	0.44328	1.56737	0.39773
3248.000	2.31381	0.41743	1.60096	0.39971
3249.000	2.34342	0.44724	1.59503	0.37784
3250.000	2.33750	0.46314	1.57527	0.39375
3251.000	2.29407	0.44129	1.54169	0.36592
3252.000	2.33355	0.42737	1.54564	0.37984
3253.000	2.33947	0.45519	1.57923	0.36989
3254.000	2.35723	0.42736	1.55157	0.38183
3255.000	2.34539	0.44525	1.53774	0.33609
3256.000	2.35921	0.42736	1.57132	0.35796
3257.000	2.35131	0.46314	1.54367	0.34603
3258.000	2.34342	0.45519	1.57132	0.38182
3259.000	2.31579	0.40153	1.55354	0.36791
3260.000	2.35723	0.41742	1.57527	0.37784
3261.000	2.34737	0.43134	1.56935	0.36393
3262.000	2.34144	0.49296	1.55157	0.41563
3263.000	2.34737	0.45519	1.57527	0.38978
3264.000	2.35131	0.45718	1.56540	0.39773
3265.000	2.33552	0.41743	1.57330	0.41961
3266.000	2.27433	0.45919	1.57725	0.39176
3267.000	2.35329	0.44922	1.56540	0.35597
3268.000	2.34342	0.45519	1.54169	0.38382
3269.000	2.32171	0.44923	1.54564	0.35001
3270.000	2.34737	0.47109	1.59898	0.35199
3271.000	2.36513	0.49692	1.56342	0.31819
3272.000	2.36710	0.46512	1.55749	0.36592
3273.000	2.33947	0.47308	1.55354	0.37387
3274.000	2.31579	0.47706	1.56342	0.35398
3275.000	2.31579	0.41147	1.57132	0.30824
3276.000	2.33355	0.39159	1.53576	0.30626
3277.000	2.28815	0.40949	1.52984	0.36393
3278.000	2.33158	0.40351	1.53379	0.30427
3279.000	2.34144	0.42339	1.53774	0.35399
3280.000	2.30592	0.37371	1.56145	0.32415
3281.000	2.29013	0.41744	1.51601	0.34803
3282.000	2.31973	0.44128	1.52589	0.31621
3283.000	2.32368	0.40352	1.53379	0.30029
3284.000	2.31579	0.37967	1.55749	0.31620
3285.000	2.34144	0.47904	1.54762	0.38382
3286.000	2.28815	0.41148	1.54169	0.36393
3287.000	2.37302	0.45121	1.58515	0.35995
3288.000	2.30789	0.41744	1.51206	0.36592
3289.000	2.31184	0.42737	1.54367	0.37984
3290.000	2.30789	0.42936	1.55354	0.35597
3291.000	2.33355	0.38364	1.54169	0.34603
3292.000	2.31381	0.43532	1.56737	0.32415
3293.000	2.29210	0.37967	1.56145	0.36393
3294.000	2.32763	0.42538	1.51008	0.33411
3295.000	2.29605	0.41545	1.53181	0.36194
3296.000	2.28026	0.43335	1.54564	0.35001
3297.000	2.32171	0.41147	1.51601	0.34206
3298.000	2.31381	0.43334	1.50810	0.35598
3299.000	2.29210	0.40551	1.54959	0.36194
3300.000	2.32565	0.44923	1.55354	0.32018
3301.000	2.32171	0.41743	1.55354	0.33808
3302.000	2.30986	0.47309	1.53774	0.34206
3303.000	2.27236	0.40154	1.56935	0.34006
3304.000	2.30197	0.40949	1.54367	0.30427
3305.000	2.32368	0.42936	1.54564	0.40171
3306.000	2.27433	0.41943	1.54959	0.35995
3307.000	2.30789	0.46315	1.56935	0.29035
3308.000	2.31776	0.33594	1.55354	0.30626
3309.000	2.30197	0.41545	1.53379	0.29632
3310.000	2.28420	0.43136	1.58120	0.37585
3311.000	2.28420	0.40154	1.54367	0.36791
3312.000	2.30986	0.42936	1.57132	0.31222
3313.000	2.30789	0.39557	1.52786	0.37785
3314.000	2.32763	0.47110	1.55749	0.33609
3315.000	2.32565	0.44923	1.51798	0.30626
3316.000	2.30986	0.46713	1.52589	0.36791
3317.000	2.29802	0.42141	1.54959	0.32018
3318.000	2.29013	0.43533	1.53181	0.35399
3319.000	2.30789	0.45719	1.56145	0.31222
3320.000	2.31973	0.44924	1.54959	0.30228
3321.000	2.31579	0.42936	1.55552	0.29234
3322.000	2.29605	0.39756	1.51008	0.30626
3323.000	2.33750	0.37569	1.54959	0.25455
3324.000	2.28618	0.40353	1.51601	0.29433
3325.000	2.30197	0.36774	1.51403	0.28240
3326.000	2.25262	0.39161	1.56737	0.27046
3327.000	2.27631	0.37769	1.54367	0.26847
3328.000	2.28420	0.39955	1.53971	0.32018
3329.000	2.30394	0.44725	1.51601	0.29035
3330.000	2.27433	0.38365	1.53774	0.28836
3331.000	2.28420	0.39955	1.52786	0.31024
3332.000	2.28618	0.39160	1.54959	0.26251
3333.000	2.25460	0.39956	1.51206	0.25853
3334.000	2.27631	0.40949	1.51403	0.27047
3335.000	2.29605	0.40750	1.51008	0.28240
3336.000	2.27236	0.40751	1.52589	0.26251
3337.000	2.26447	0.38564	1.55552	0.25654
3338.000	2.25460	0.39757	1.54762	0.29433
3339.000	2.31381	0.42936	1.52589	0.25654
3340.000	2.31776	0.41346	1.52984	0.26052
3341.000	2.28420	0.40949	1.51996	0.26052
3342.000	2.27433	0.42738	1.53774	0.31620
3343.000	2.25065	0.41944	1.53576	0.32615
3344.000	2.28815	0.42142	1.53181	0.30029
3345.000	2.29605	0.42937	1.52589	0.27444
3346.000	2.27631	0.39160	1.53379	0.28836
3347.000	2.29605	0.41943	1.52589	0.28637
3348.000	2.28026	0.46714	1.53774	0.27046
3349.000	2.29605	0.45521	1.52984	0.28041
3350.000	2.29407	0.41148	1.51996	0.25456
3351.000	2.28618	0.40949	1.52589	0.28041
3352.000	2.30986	0.42539	1.54762	0.25654
3353.000	2.27828	0.45919	1.51798	0.30030
3354.000	2.27236	0.45124	1.53379	0.28041
3355.000	2.30592	0.47707	1.51601	0.29831
3356.000	2.30000	0.46117	1.53576	0.20881
3357.000	2.30394	0.46117	1.48637	0.25257
3358.000	2.27433	0.45521	1.51798	0.28240
3359.000	2.29407	0.46117	1.49823	0.22871
3360.000	2.30592	0.45520	1.53774	0.23268
3361.000	2.25065	0.41348	1.49428	0.20882
3362.000	2.29407	0.42738	1.52391	0.20882
3363.000	2.25854	0.47708	1.50810	0.19092
3364.000	2.26447	0.47311	1.48440	0.19689
3365.000	2.29802	0.43533	1.51798	0.23268
3366.000	2.30000	0.43732	1.50218	0.20484
3367.000	2.28815	0.46713	1.50810	0.16109
3368.000	2.31776	0.43930	1.46464	0.15711
3369.000	2.30000	0.45123	1.50810	0.17501
3370.000	2.31381	0.48303	1.51403	0.23467
3371.000	2.33552	0.42538	1.51798	0.19887
3372.000	2.30197	0.45322	1.50218	0.20484
3373.000	2.31381	0.43731	1.48440	0.18694
3374.000	2.30789	0.42936	1.48242	0.22871
3375.000	2.30592	0.45123	1.50020	0.18694
3376.000	2.34934	0.46314	1.52984	0.20484
3377.000	2.35131	0.48103	1.47254	0.17899
3378.000	2.31776	0.48303	1.46464	0.13921
3379.000	2.29013	0.46912	1.51798	0.22274
3380.000	2.29605	0.43135	1.45871	0.21280
3381.000	2.26052	0.47907	1.47847	0.21280
3382.000	2.31776	0.46712	1.47452	0.22075
3383.000	2.31381	0.45719	1.46266	0.27445
3384.000	2.30789	0.47110	1.50810	0.21876
3385.000	2.23880	0.48106	1.50218	0.21677
3386.000	2.30197	0.47906	1.49823	0.25854
3387.000	2.27631	0.46118	1.51996	0.17899
3388.000	2.27828	0.46714	1.51206	0.21081
3389.000	2.31381	0.47706	1.51206	0.29234
3390.000	2.29802	0.46713	1.49032	0.21280
3391.000	2.27828	0.41744	1.45871	0.22075
3392.000	2.30789	0.44526	1.45081	0.22274
3393.000	2.29407	0.41148	1.47847	0.25257
3394.000	2.28223	0.45521	1.47452	0.27445
3395.000	2.28618	0.44129	1.46662	0.18496
3396.000	2.28815	0.44328	1.49428	0.26251
3397.000	2.25854	0.40950	1.44686	0.23667
3398.000	2.24867	0.42143	1.46069	0.22672
3399.000	2.32565	0.44327	1.46859	0.22274
3400.000	2.28223	0.41148	1.44686	0.23269
3401.000	2.31184	0.45123	1.49823	0.20484
3402.000	2.29407	0.40949	1.47847	0.19888
3403.000	2.29802	0.43533	1.46464	0.19689
3404.000	2.31381	0.44129	1.47452	0.17103
3405.000	2.27828	0.40353	1.46069	0.23666
3406.000	2.25065	0.42938	1.43105	0.20485
3407.000	2.26841	0.41546	1.46464	0.21280
3408.000	2.28618	0.40353	1.43500	0.24263
3409.000	2.25657	0.41149	1.45674	0.26252
3410.000	2.25854	0.43534	1.46859	0.20286
3411.000	2.30394	0.42340	1.47847	0.21678
3412.000	2.29013	0.40750	1.49032	0.25058
3413.000	2.29013	0.42539	1.45476	0.19888
3414.000	2.27631	0.38166	1.47057	0.19291
3415.000	2.25854	0.39161	1.49428	0.25456
3416.000	2.26052	0.39161	1.45871	0.19888
3417.000	2.28223	0.41546	1.48440	0.22871
3418.000	2.28815	0.42539	1.45476	0.23667
3419.000	2.27236	0.35185	1.46069	0.22274
3420.000	2.31776	0.41544	1.46662	0.24263
3421.000	2.28223	0.42341	1.45476	0.21280
3422.000	2.28815	0.42539	1.48637	0.19490
3423.000	2.25854	0.38565	1.43303	0.18496
3424.000	2.26447	0.39558	1.42908	0.20684
3425.000	2.31184	0.41942	1.45081	0.22871
3426.000	2.28420	0.41545	1.45476	0.18297
3427.000	2.29605	0.37967	1.45081	0.23070
3428.000	2.27236	0.41745	1.43303	0.22672
3429.000	2.24670	0.37968	1.47057	0.21479
3430.000	2.27236	0.40154	1.48440	0.21677
3431.000	2.26249	0.42739	1.45871	0.16905
3432.000	2.28223	0.43931	1.45871	0.22274
3433.000	2.25460	0.39956	1.44883	0.24263
3434.000	2.25657	0.40751	1.47057	0.23269
3435.000	2.24275	0.38962	1.46662	0.24263
3436.000	2.22893	0.41348	1.43303	0.24860
3437.000	2.23288	0.42342	1.44686	0.21479
3438.000	2.23880	0.40553	1.47452	0.23070
3439.000	2.25262	0.37372	1.45279	0.23070
3440.000	2.27631	0.41943	1.47452	0.24263
3441.000	2.23880	0.37969	1.49428	0.21280
3442.000	2.27039	0.40154	1.48637	0.25257
3443.000	2.24275	0.41547	1.47452	0.23666
3444.000	2.26052	0.42142	1.49428	0.22473
3445.000	2.27039	0.43335	1.50415	0.22871
3446.000	2.24867	0.38764	1.44488	0.26252
3447.000	2.21709	0.44728	1.45476	0.27047
3448.000	2.18748	0.43735	1.39351	0.22076
3449.000	2.11246	0.49104	1.39746	0.25855
3450.000	1.99202	0.40957	1.34214	0.21878
3451.000	1.94660	0.40362	1.29472	0.19889
3452.000	1.84588	0.36387	1.23544	0.20486
3453.000	1.70762	0.38379	1.11884	0.21283
3454.000	1.57725	0.30427	1.00619	0.13526
3455.000	1.39549	0.22275	0.90737	0.09548
3456.000	1.28286	0.24066	0.79075	0.08355
3457.000	1.21963	0.26453	0.72354	0.01591
3458.000	1.09513	0.20885	0.67413	0.01790
3459.000	1.09117	0.14321	0.57133	-0.03382
3460.000	1.03584	0.16907	0.49424	-0.03382
3461.000	0.97457	0.18698	0.43691	-0.08156
3462.000	0.91725	0.10145	0.36772	-0.14125
3463.000	0.90934	0.08752	0.34004	-0.09151
3464.000	0.93306	0.06564	0.31434	-0.09947
3465.000	1.01212	0.03580	0.35586	-0.12732
3466.000	0.99829	-0.00796	0.34399	-0.13727
3467.000	1.12279	-0.01392	0.42109	-0.14920
3468.000	1.15837	-0.06564	0.41121	-0.21684
3469.000	1.26112	-0.10144	0.44086	-0.25862
3470.000	1.32436	-0.12729	0.53575	-0.23673
3471.000	1.35399	-0.08751	0.56343	-0.32227
3472.000	1.46662	-0.09148	0.58320	-0.32426
3473.000	1.46662	-0.09745	0.64052	-0.36404
3474.000	1.49625	-0.14717	0.65831	-0.36802
3475.000	1.53379	-0.14120	0.72947	-0.39984
3476.000	1.48637	-0.15711	0.70773	-0.42371
3477.000	1.55157	-0.10739	0.73343	-0.41575
3478.000	1.54762	-0.10938	0.76505	-0.40580
3479.000	1.55749	-0.08154	0.78087	-0.39188
3480.000	1.51403	-0.05568	0.75912	-0.31430
3481.000	1.53379	-0.03580	0.77296	-0.29242
3482.000	1.52391	0.06364	0.77889	-0.23871
3483.000	1.50810	0.04176	0.74529	-0.20092
3484.000	1.44686	0.03779	0.74133	-0.20688
3485.000	1.44686	0.05569	0.72354	-0.19694
3486.000	1.40734	0.01591	0.70773	-0.15715
3487.000	1.45279	0.03182	0.70773	-0.15914
3488.000	1.42315	0.07160	0.66820	-0.15318
3489.000	1.37573	0.07558	0.68006	-0.12135
3490.000	1.40339	0.05967	0.64843	-0.16312
3491.000	1.38166	-0.00994	0.67215	-0.15914
3492.000	1.34412	0.02983	0.61878	-0.13129
3493.000	1.32040	0.02983	0.65831	-0.16710
3494.000	1.36190	0.00597	0.62668	-0.17108
3495.000	1.33424	0.02983	0.60494	-0.17108
3496.000	1.32040	-0.01193	0.61878	-0.15318
3497.000	1.33424	0.06961	0.61482	-0.18501
3498.000	1.29472	0.04575	0.60889	-0.18700
3499.000	1.29867	0.01193	0.64843	-0.17904
3500.000	1.31448	0.01392	0.60494	-0.17307
3501.000	1.33819	0.07160	0.60296	-0.11339
3502.000	1.31645	0.05370	0.63064	-0.16312
3503.000	1.31448	0.06365	0.60494	-0.20092
3504.000	1.33819	0.01989	0.61680	-0.20689
3505.000	1.34016	0.05768	0.63657	-0.15716
3506.000	1.32040	0.06166	0.64250	-0.18699
3507.000	1.38561	0.08751	0.62471	-0.17904
3508.000	1.31448	0.04177	0.60889	-0.21485
3509.000	1.36190	0.06166	0.65238	-0.17307
3510.000	1.36585	0.09348	0.67215	-0.18500
3511.000	1.35004	0.05171	0.59901	-0.15716
3512.000	1.40932	0.03182	0.64448	-0.16909
3513.000	1.39351	0.04773	0.60296	-0.16511
3514.000	1.38758	0.02387	0.63855	-0.19495
3515.000	1.37968	0.04177	0.60692	-0.19893
3516.000	1.37771	0.07558	0.62273	-0.17904
3517.000	1.42117	0.05966	0.64645	-0.16909
3518.000	1.38166	0.04177	0.64052	-0.13129
3519.000	1.37375	0.03381	0.62075	-0.12533
3520.000	1.36783	0.01790	0.60692	-0.11538
3521.000	1.38561	0.04574	0.63459	-0.12533
3522.000	1.40932	-0.00199	0.61482	-0.13130
3523.000	1.39351	0.05171	0.66227	-0.15914
3524.000	1.43500	0.02585	0.61482	-0.18700
3525.000	1.42513	0.05569	0.64843	-0.09947
3526.000	1.41722	0.05966	0.63064	-0.14124
3527.000	1.37375	0.07757	0.64250	-0.14124
3528.000	1.40537	0.09546	0.64250	-0.12135
3529.000	1.37375	0.04773	0.63064	-0.16511
3530.000	1.39351	0.07757	0.65238	-0.13726
3531.000	1.41920	0.08552	0.60494	-0.12732
3532.000	1.37178	0.05569	0.60296	-0.12931
3533.000	1.37375	0.07757	0.62471	-0.10344
3534.000	1.32831	0.09149	0.58517	-0.09748
3535.000	1.36980	0.09348	0.63064	-0.13129
3536.000	1.39154	0.07160	0.63657	-0.15517
3537.000	1.38561	0.10740	0.60692	-0.14522
3538.000	1.38956	0.04972	0.58517	-0.12334
3539.000	1.35795	0.09348	0.60889	-0.13527
3540.000	1.37375	0.10740	0.65831	-0.14124
3541.000	1.39351	0.08751	0.60296	-0.14323
3542.000	1.42117	0.06165	0.60692	-0.11538
3543.000	1.36387	0.02188	0.64052	-0.13925
3544.000	1.37771	0.03182	0.59703	-0.12732
3545.000	1.38956	0.05768	0.65041	-0.13726
3546.000	1.39351	0.06961	0.58913	-0.16312
3547.000	1.39944	0.06165	0.60494	-0.17108
3548.000	1.36783	0.07558	0.59703	-0.17506
3549.000	1.37771	0.09944	0.64448	-0.13925
3550.000	1.39549	0.05768	0.62075	-0.16113
3551.000	1.37573	0.09745	0.63657	-0.15914
3552.000	1.35992	0.08154	0.62075	-0.16710
3553.000	1.37771	0.05967	0.61482	-0.13130
3554.000	1.35004	0.07558	0.61285	-0.13925
3555.000	1.39154	0.06563	0.62471	-0.16113
3556.000	1.39154	0.11535	0.59110	-0.11538
3557.000	1.38166	0.06165	0.62866	-0.11737
3558.000	1.32831	0.03779	0.61680	-0.14522
3559.000	1.30657	0.03580	0.59901	-0.15915
3560.000	1.39154	0.09546	0.61482	-0.15119
3561.000	1.32831	0.06364	0.59703	-0.10344
3562.000	1.37573	0.07558	0.64448	-0.13328
3563.000	1.36387	0.07558	0.56738	-0.12334
3564.000	1.41525	0.04773	0.63855	-0.12931
3565.000	1.34214	0.06563	0.59506	-0.11339
3566.000	1.40932	0.08154	0.59703	-0.11936
3567.000	1.39944	0.06961	0.61285	-0.13925
3568.000	1.35795	0.09149	0.59703	-0.09549
3569.000	1.36387	0.07955	0.59703	-0.12533
3570.000	1.34214	0.06961	0.61680	-0.12533
3571.000	1.39944	0.06563	0.62668	-0.13527
3572.000	1.35795	0.07160	0.62075	-0.12732
3573.000	1.39351	0.07160	0.61087	-0.12732
3574.000	1.36585	0.07359	0.62273	-0.14920
3575.000	1.39154	0.07359	0.60099	-0.17108
3576.000	1.40537	0.03779	0.61087	-0.10543
3577.000	1.37968	0.04574	0.61878	-0.15716
3578.000	1.40339	0.06762	0.62471	-0.15716
3579.000	1.40339	0.05569	0.59901	-0.15915
3580.000	1.41525	0.04972	0.63657	-0.16710
3581.000	1.36980	0.06165	0.61285	-0.19296
3582.000	1.39351	0.06762	0.63459	-0.15119
3583.000	1.39746	0.08154	0.62075	-0.16909
3584.000	1.38561	0.06961	0.58122	-0.17108
3585.000	1.35795	0.09547	0.62273	-0.13925
3586.000	1.32831	0.04376	0.63064	-0.14522
3587.000	1.35992	0.05171	0.59703	-0.12334
3588.000	1.33621	0.06563	0.65831	-0.11339
3589.000	1.36980	0.06364	0.65041	-0.11140
3590.000	1.38758	0.13126	0.61285	-0.09947
3591.000	1.34609	0.06563	0.61087	-0.09350
3592.000	1.35597	0.10740	0.59308	-0.13726
3593.000	1.38166	0.08353	0.59506	-0.12135
3594.000	1.39154	0.05370	0.59901	-0.11936
3595.000	1.39746	0.10342	0.59901	-0.09947
3596.000	1.38561	0.06364	0.62273	-0.13328
3597.000	1.40142	0.08154	0.60889	-0.16511
3598.000	1.41129	0.09944	0.57924	-0.19296
3599.000	1.40142	0.06563	0.63657	-0.18103
3600.000	1.39549	0.12729	0.56738	-0.20689
3601.000	1.39746	0.08154	0.61285	-0.15716
3602.000	1.39944	0.12530	0.60692	-0.17705
3603.000	1.41525	0.10740	0.58913	-0.17904
3604.000	1.38166	0.09944	0.61878	-0.19694
3605.000	1.35795	0.07757	0.63459	-0.14323
3606.000	1.40734	0.07756	0.57924	-0.19694
3607.000	1.41722	0.11535	0.65436	-0.19296
3608.000	1.41525	0.08552	0.60889	-0.21684
3609.000	1.42513	0.05966	0.64843	-0.18302
3610.000	1.37573	0.07160	0.59901	-0.20291
3611.000	1.39154	0.08552	0.59308	-0.23872
3612.000	1.38561	0.08552	0.60889	-0.20291
3613.000	1.37573	0.05569	0.60889	-0.22280
3614.000	1.40339	0.09348	0.62075	-0.19097
3615.000	1.41129	0.08552	0.62273	-0.23275
3616.000	1.41129	0.05171	0.61878	-0.22479
3617.000	1.41129	0.13126	0.57924	-0.22082
3618.000	1.34807	0.06762	0.60692	-0.27452
3619.000	1.40932	0.07359	0.61482	-0.20689
3620.000	1.37178	0.03381	0.61680	-0.22479
3621.000	1.39154	0.05768	0.62471	-0.21882
3622.000	1.37968	0.02188	0.63262	-0.22479
3623.000	1.38363	0.02983	0.58913	-0.25662
3624.000	1.37968	0.01591	0.63064	-0.25264
3625.000	1.41129	0.07160	0.62668	-0.26458
3626.000	1.40537	0.07160	0.65436	-0.18302
3627.000	1.39154	0.07359	0.63064	-0.24468
3628.000	1.35399	0.09348	0.61482	-0.22081
3629.000	1.36190	0.06762	0.62273	-0.28049
3630.000	1.35202	0.06961	0.63855	-0.25065
3631.000	1.38758	0.04177	0.60099	-0.23275
3632.000	1.39746	0.04177	0.60494	-0.25065
3633.000	1.37573	0.06762	0.61680	-0.25861
3634.000	1.37573	0.07757	0.64448	-0.26259
3635.000	1.36585	0.03978	0.59506	-0.25662
3636.000	1.40339	0.06563	0.61680	-0.30038
3637.000	1.37178	0.02784	0.60296	-0.29641
3638.000	1.38758	0.00199	0.64052	-0.21882
3639.000	1.38363	0.04375	0.63262	-0.24071
3640.000	1.36585	-0.00994	0.63064	-0.24270
3641.000	1.37968	0.06364	0.61285	-0.25861
3642.000	1.38758	0.02188	0.62075	-0.24468
3643.000	1.34214	0.00597	0.65436	-0.21285
3644.000	1.40339	0.00597	0.61285	-0.22678
3645.000	1.35795	0.00796	0.65436	-0.19495
3646.000	1.36783	0.00994	0.62668	-0.19296
3647.000	1.38956	0.01193	0.63262	-0.23275
3648.000	1.39154	-0.00199	0.62866	-0.26060
3649.000	1.31645	0.02387	0.64250	-0.25463
3650.000	1.33028	-0.00398	0.63064	-0.19495
3651.000	1.34214	0.00597	0.62273	-0.22877
3652.000	1.37771	-0.00199	0.64645	-0.24071
3653.000	1.38166	0.00994	0.62471	-0.22081
3654.000	1.38758	0.03580	0.64250	-0.26060
3655.000	1.36980	-0.00796	0.67413	-0.20291
3656.000	1.34609	0.03580	0.61680	-0.26060
3657.000	1.35795	-0.00994	0.64052	-0.20689
3658.000	1.37375	0.04177	0.67808	-0.22678
3659.000	1.38758	0.05171	0.66227	-0.23076
3660.000	1.40734	-0.01193	0.63855	-0.20888
3661.000	1.40932	0.07955	0.65831	-0.21285
3662.000	1.39154	0.04574	0.65634	-0.21285
3663.000	1.35992	0.05370	0.64052	-0.20689
3664.000	1.36190	0.06762	0.65831	-0.17705
3665.000	1.39351	0.07359	0.63064	-0.20888
3666.000	1.41525	0.10342	0.61680	-0.18302
3667.000	1.36190	0.06166	0.60296	-0.22280
3668.000	1.43500	0.10143	0.60494	-0.20689
3669.000	1.39351	0.13126	0.61285	-0.20092
3670.000	1.39351	0.07558	0.61680	-0.17506
3671.000	1.41327	0.02784	0.62273	-0.19296
3672.000	1.39746	0.05967	0.58517	-0.22877
3673.000	1.45081	0.03978	0.63657	-0.20092
3674.000	1.42908	0.05569	0.66622	-0.19893
3675.000	1.43896	0.04773	0.63459	-0.23275
3676.000	1.40932	0.03381	0.63064	-0.19296
3677.000	1.38956	0.03580	0.63262	-0.22877
3678.000	1.41920	0.03779	0.61878	-0.15318
3679.000	1.42117	0.02784	0.60099	-0.21286
3680.000	1.42710	0.04773	0.62668	-0.19097
3681.000	1.41129	0.00994	0.64052	-0.18898
3682.000	1.38758	0.04972	0.63657	-0.21087
3683.000	1.41129	0.07756	0.64052	-0.21882
3684.000	1.35399	0.03182	0.61878	-0.23474
3685.000	1.38166	0.09149	0.61482	-0.23673
3686.000	1.38758	0.02983	0.59901	-0.19694
3687.000	1.37178	0.02784	0.61285	-0.22877
3688.000	1.37968	0.03182	0.58913	-0.22479
3689.000	1.39549	0.01591	0.62273	-0.25264
3690.000	1.40339	0.06762	0.64448	-0.21484
3691.000	1.35795	0.05171	0.62075	-0.20490
3692.000	1.41129	0.02188	0.58320	-0.20092
3693.000	1.38758	-0.02188	0.63064	-0.23474
3694.000	1.38561	0.00398	0.62075	-0.19495
3695.000	1.41129	0.00000	0.63262	-0.18302
3696.000	1.37968	0.03381	0.66622	-0.20689
3697.000	1.37771	0.04375	0.64448	-0.25264
3698.000	1.37968	0.02784	0.63064	-0.22081
3699.000	1.37771	0.05569	0.61878	-0.21683
3700.000	1.35795	0.06166	0.64645	-0.25662
3701.000	1.40142	0.08154	0.61482	-0.23872
3702.000	1.36783	0.04177	0.64250	-0.17506
3703.000	1.37573	0.05569	0.67610	-0.21683
3704.000	1.34609	0.01392	0.63855	-0.21484
3705.000	1.40932	0.07558	0.61482	-0.25463
3706.000	1.41525	0.02784	0.61680	-0.29442
3707.000	1.39549	0.11734	0.60692	-0.22081
3708.000	1.40339	0.11137	0.60889	-0.22877
3709.000	1.39549	0.09546	0.62273	-0.25264
3710.000	1.41327	0.08950	0.62668	-0.21286
3711.000	1.38363	0.13126	0.59110	-0.27254
3712.000	1.42315	0.10939	0.60692	-0.23872
3713.000	1.41920	0.13524	0.61482	-0.28447
3714.000	1.40339	0.07359	0.57133	-0.22280
3715.000	1.36980	0.09547	0.63459	-0.24071
3716.000	1.37771	0.06364	0.60692	-0.25861
3717.000	1.35992	0.04177	0.56936	-0.27254
3718.000	1.38363	0.05171	0.61680	-0.22081
3719.000	1.35004	0.04177	0.59703	-0.25264
3720.000	1.39154	0.04972	0.59110	-0.27055
3721.000	1.42710	0.07558	0.56936	-0.26856
3722.000	1.39351	0.07558	0.58715	-0.25065
3723.000	1.41525	0.04972	0.57133	-0.21684
3724.000	1.43303	0.11336	0.58913	-0.23673
3725.000	1.39746	0.07756	0.58320	-0.25065
3726.000	1.41722	0.08552	0.55552	-0.17108
3727.000	1.39351	0.06165	0.58913	-0.26458
3728.000	1.37968	0.02586	0.64052	-0.22280
3729.000	1.40734	0.06961	0.60494	-0.24270
3730.000	1.39944	0.07558	0.54959	-0.22281
3731.000	1.41327	0.07955	0.57727	-0.21684
3732.000	1.42513	0.06563	0.60494	-0.23275
3733.000	1.39746	0.05967	0.56936	-0.20689
3734.000	1.39944	0.07558	0.58517	-0.25264
3735.000	1.36783	0.04972	0.59308	-0.20689
3736.000	1.36190	0.02784	0.57727	-0.24867
3737.000	1.43500	0.03381	0.56343	-0.19893
3738.000	1.38561	0.02983	0.57727	-0.22280
3739.000	1.34609	0.00994	0.55552	-0.29243
3740.000	1.34807	0.00398	0.60692	-0.23474
3741.000	1.35399	0.03381	0.59703	-0.24071
3742.000	1.36387	0.01591	0.57924	-0.23474
3743.000	1.33226	-0.01392	0.55552	-0.23275
3744.000	1.38561	0.02387	0.59110	-0.21286
3745.000	1.35795	-0.00398	0.58517	-0.20092
3746.000	1.34609	-0.00994	0.58715	-0.23673
3747.000	1.39154	-0.00796	0.56145	-0.20689
3748.000	1.37771	0.00796	0.59703	-0.21684
3749.000	1.35399	-0.01790	0.56738	-0.26060
3750.000	1.34609	0.00796	0.55947	-0.29840
3751.000	1.35597	0.03779	0.55157	-0.28050
3752.000	1.32238	-0.02188	0.59506	-0.30238
3753.000	1.37375	-0.00597	0.56343	-0.29840
3754.000	1.40142	0.03182	0.56540	-0.30437
3755.000	1.36980	0.01392	0.56936	-0.36802
3756.000	1.35202	-0.00199	0.55354	-0.30636
3757.000	1.37375	0.08353	0.54564	-0.33222
3758.000	1.37375	0.03381	0.54168	-0.33819
3759.000	1.34214	0.04376	0.54959	-0.29044
3760.000	1.37375	0.06563	0.52389	-0.28646
3761.000	1.37968	0.03978	0.55750	-0.29243
3762.000	1.34807	0.04574	0.52389	-0.30636
3763.000	1.39549	0.04773	0.52784	-0.23076
3764.000	1.35795	-0.01591	0.56145	-0.25066
3765.000	1.34609	0.02983	0.55552	-0.20092
3766.000	1.38363	0.07359	0.52587	-0.24270
3767.000	1.37968	0.00597	0.51401	-0.24668
3768.000	1.35597	0.01989	0.55552	-0.19694
3769.000	1.36980	0.04177	0.53180	-0.25861
3770.000	1.37573	-0.01193	0.56738	-0.23076
3771.000	1.38166	0.01193	0.53773	-0.26259
3772.000	1.35202	-0.00796	0.53773	-0.21485
3773.000	1.37573	0.03182	0.54366	-0.26259
3774.000	1.33819	-0.01392	0.54959	-0.22479
3775.000	1.32436	0.02387	0.53575	-0.28646
3776.000	1.37968	0.02784	0.51598	-0.20888
3777.000	1.33621	-0.01591	0.55552	-0.25264
3778.000	1.33424	0.04773	0.54959	-0.26856
3779.000	1.36585	0.02188	0.53971	-0.26259
3780.000	1.35202	0.02188	0.52784	-0.23872
3781.000	1.35795	0.01989	0.52191	-0.19893
3782.000	1.35004	0.03779	0.53971	-0.26060
3783.000	1.39746	0.05768	0.53971	-0.26060
3784.000	1.38956	0.03580	0.52389	-0.24270
3785.000	1.34016	0.00199	0.54761	-0.29243
3786.000	1.34412	0.05370	0.53575	-0.24867
3787.000	1.39351	0.04972	0.52784	-0.28448
3788.000	1.37771	-0.00994	0.53378	-0.23673
3789.000	1.35004	-0.03580	0.54168	-0.26458
3790.000	1.36387	-0.03381	0.53575	-0.28050
3791.000	1.37178	0.04574	0.52389	-0.28448
3792.000	1.35202	0.01193	0.52982	-0.24867
3793.000	1.35597	-0.00796	0.49819	-0.29243
3794.000	1.35795	0.00398	0.53971	-0.26060
3795.000	1.36585	-0.01193	0.52389	-0.26060
3796.000	1.40537	0.01591	0.52389	-0.29044
3797.000	1.34016	0.01392	0.51994	-0.27652
3798.000	1.35597	-0.02983	0.56540	-0.25264
3799.000	1.39154	0.04574	0.49622	-0.29243
3800.000	1.33819	0.00796	0.53971	-0.27851
3801.000	1.35597	0.01392	0.51005	-0.24867
3802.000	1.37968	0.04773	0.55354	-0.27453
3803.000	1.36190	-0.01193	0.52784	-0.27453
3804.000	1.37178	0.00199	0.55157	-0.32227
3805.000	1.35004	0.02983	0.55157	-0.30039
3806.000	1.31052	-0.04177	0.53773	-0.27453
3807.000	1.36980	0.00398	0.52784	-0.32426
3808.000	1.39351	0.00796	0.55947	-0.29442
3809.000	1.33424	-0.03580	0.54761	-0.34415
3810.000	1.37968	-0.03978	0.54168	-0.31232
3811.000	1.35795	-0.03580	0.52982	-0.31630
3812.000	1.36980	-0.00796	0.52784	-0.31630
3813.000	1.33226	0.01392	0.50808	-0.30636
3814.000	1.37573	-0.00994	0.53378	-0.33023
3815.000	1.35597	-0.01193	0.51598	-0.30039
3816.000	1.32831	-0.08552	0.57529	-0.31829
3817.000	1.34807	-0.08950	0.54366	-0.32426
3818.000	1.36980	-0.01790	0.57529	-0.33023
3819.000	1.35399	-0.08552	0.54366	-0.29442
3820.000	1.34609	-0.00796	0.59506	-0.29243
3821.000	1.37968	0.00994	0.55947	-0.27652
3822.000	1.36585	-0.10740	0.56145	-0.31829
3823.000	1.35597	-0.09746	0.54366	-0.34216
3824.000	1.31250	-0.07359	0.53773	-0.25662
3825.000	1.35399	-0.06563	0.57727	-0.27453
3826.000	1.35004	-0.02784	0.54761	-0.24867
3827.000	1.38956	-0.05569	0.57529	-0.24668
3828.000	1.34412	-0.05967	0.55947	-0.25066
3829.000	1.35992	-0.01989	0.55750	-0.25662
3830.000	1.35004	-0.01989	0.54366	-0.23872
3831.000	1.36585	-0.00796	0.56343	-0.27254
3832.000	1.38166	-0.02586	0.54761	-0.33620
3833.000	1.36783	-0.08353	0.55354	-0.25265
3834.000	1.36387	-0.05967	0.53971	-0.29442
3835.000	1.35597	-0.06364	0.53575	-0.30238
3836.000	1.37771	0.00597	0.53378	-0.25662
3837.000	1.35004	-0.04177	0.56343	-0.23275
3838.000	1.37178	-0.04574	0.57924	-0.23474
3839.000	1.40142	-0.01193	0.54761	-0.28248
3840.000	1.36585	-0.03580	0.58517	-0.27055
3841.000	1.37968	0.01989	0.56343	-0.25861
3842.000	1.40142	0.00994	0.55157	-0.27254
3843.000	1.36585	-0.00398	0.52587	-0.26856
3844.000	1.38561	-0.04972	0.55947	-0.25463
3845.000	1.38758	-0.04972	0.54564	-0.21485
3846.000	1.36190	0.01591	0.56343	-0.26060
3847.000	1.40142	-0.04177	0.56738	-0.24071
3848.000	1.36980	-0.01591	0.57924	-0.25662
3849.000	1.41327	-0.01790	0.51994	-0.27055
3850.000	1.40537	-0.00597	0.56540	-0.30039
3851.000	1.39944	-0.04177	0.55157	-0.27055
3852.000	1.40339	-0.03381	0.55947	-0.28248
3853.000	1.41525	-0.02387	0.54564	-0.26856
3854.000	1.41920	-0.02188	0.52982	-0.22678
3855.000	1.37771	-0.05569	0.53575	-0.25662
3856.000	1.38166	-0.05967	0.56145	-0.25861
3857.000	1.40734	-0.03381	0.54564	-0.24867
3858.000	1.39944	-0.03182	0.53971	-0.29044
3859.000	1.40339	-0.01989	0.49819	-0.27453
3860.000	1.41920	-0.02387	0.54761	-0.32028
3861.000	1.40142	-0.04773	0.54366	-0.29840
3862.000	1.40142	-0.06563	0.53575	-0.29243
3863.000	1.42908	-0.01193	0.53575	-0.28646
3864.000	1.37375	-0.02188	0.51796	-0.27851
3865.000	1.39746	-0.02585	0.53378	-0.27652
3866.000	1.40142	-0.05967	0.52587	-0.24668
3867.000	1.40537	-0.03978	0.53773	-0.30437
3868.000	1.39944	-0.09745	0.50808	-0.26657
3869.000	1.37968	-0.05370	0.53378	-0.27652
3870.000	1.39154	-0.04574	0.52982	-0.27055
3871.000	1.37968	-0.03580	0.60099	-0.26060
3872.000	1.42315	-0.01591	0.53971	-0.24270
3873.000	1.43105	-0.04177	0.52784	-0.25265
3874.000	1.42908	-0.00597	0.53773	-0.23872
3875.000	1.42117	-0.02188	0.51203	-0.26856
3876.000	1.42710	0.02585	0.54366	-0.23872
3877.000	1.37771	-0.06165	0.54761	-0.25861
3878.000	1.41327	-0.01989	0.55750	-0.29641
3879.000	1.38758	-0.01790	0.51796	-0.23474
3880.000	1.44291	0.00796	0.53180	-0.27851
3881.000	1.40339	-0.00796	0.53971	-0.30835
3882.000	1.40734	-0.02983	0.52587	-0.33620
3883.000	1.41722	-0.04574	0.52587	-0.30835
3884.000	1.41525	-0.04972	0.54366	-0.23275
3885.000	1.37573	-0.04375	0.55157	-0.27453
3886.000	1.44686	-0.04972	0.53575	-0.32227
3887.000	1.40932	-0.03779	0.52191	-0.30636
3888.000	1.38956	-0.09546	0.52389	-0.34216
3889.000	1.41525	-0.05370	0.52982	-0.38792
3890.000	1.43500	-0.04177	0.53971	-0.31034
3891.000	1.42117	-0.02585	0.53971	-0.32028
3892.000	1.44093	-0.02188	0.53971	-0.32227
3893.000	1.41129	-0.01591	0.56936	-0.31829
3894.000	1.42513	-0.03381	0.51203	-0.33819
3895.000	1.42908	-0.01193	0.53180	-0.32625
3896.000	1.41525	-0.01790	0.53575	-0.30238
3897.000	1.45081	-0.04375	0.49622	-0.34217
3898.000	1.44291	-0.00994	0.50610	-0.29641
3899.000	1.42117	-0.04574	0.56936	-0.31630
3900.000	1.40537	-0.09546	0.53378	-0.30437
3901.000	1.44291	-0.06961	0.51598	-0.30835
3902.000	1.41327	-0.01989	0.51401	-0.31432
3903.000	1.44291	-0.02784	0.52587	-0.26856
3904.000	1.41525	-0.00994	0.55354	-0.29641
3905.000	1.40734	-0.01392	0.55354	-0.31232
3906.000	1.40142	-0.06762	0.54564	-0.28050
3907.000	1.40142	-0.09745	0.54366	-0.24469
3908.000	1.42908	-0.07955	0.54564	-0.30437
3909.000	1.40734	-0.07558	0.52784	-0.28646
3910.000	1.41722	-0.03580	0.51005	-0.25265
3911.000	1.45081	-0.10938	0.58122	-0.31829
3912.000	1.42513	-0.06364	0.53180	-0.28249
3913.000	1.44488	-0.08751	0.54366	-0.27851
3914.000	1.41327	-0.03580	0.50412	-0.30437
3915.000	1.44291	-0.05171	0.55947	-0.26856
3916.000	1.42513	-0.07359	0.52784	-0.27453
3917.000	1.44291	-0.09148	0.52587	-0.26856
3918.000	1.40932	-0.07756	0.51203	-0.27055
3919.000	1.43500	-0.06364	0.55947	-0.26657
3920.000	1.46266	-0.11137	0.54564	-0.28845
3921.000	1.45081	-0.09347	0.52784	-0.26856
3922.000	1.41129	-0.07955	0.55157	-0.29044
3923.000	1.42513	-0.07558	0.55354	-0.26657
3924.000	1.41722	-0.10541	0.55552	-0.21485
3925.000	1.40339	-0.10541	0.57331	-0.29641
3926.000	1.40734	-0.11734	0.51994	-0.27453
3927.000	1.43105	-0.03978	0.54564	-0.26060
3928.000	1.44488	-0.09944	0.52784	-0.26657
3929.000	1.38956	-0.12729	0.52587	-0.27254
3930.000	1.39351	-0.13524	0.52784	-0.28050
3931.000	1.46662	-0.11336	0.53971	-0.24270
3932.000	1.44488	-0.09347	0.51994	-0.21485
3933.000	1.45871	-0.08353	0.53575	-0.22678
3934.000	1.43500	-0.11137	0.53575	-0.24071
3935.000	1.44488	-0.07359	0.53575	-0.24469
3936.000	1.43698	-0.08353	0.56540	-0.22280
3937.000	1.42315	-0.09944	0.54959	-0.21684
3938.000	1.43303	-0.13126	0.52784	-0.22281
3939.000	1.40537	-0.09944	0.52191	-0.23474
3940.000	1.47847	-0.09148	0.52982	-0.21684
3941.000	1.44686	-0.07756	0.53575	-0.24270
3942.000	1.41525	-0.10939	0.56540	-0.20689
3943.000	1.45871	-0.09347	0.55354	-0.23673
3944.000	1.37573	-0.11734	0.53773	-0.21883
3945.000	1.41920	-0.10541	0.53180	-0.25464
3946.000	1.44686	-0.13524	0.51203	-0.19297
3947.000	1.44291	-0.11734	0.53180	-0.24469
3948.000	1.44093	-0.11336	0.51005	-0.24270
3949.000	1.40932	-0.14717	0.50412	-0.25862
3950.000	1.41327	-0.09745	0.56738	-0.24469
3951.000	1.39746	-0.13325	0.55354	-0.21883
3952.000	1.42117	-0.14717	0.54564	-0.23474
3953.000	1.47452	-0.09944	0.54761	-0.26657
3954.000	1.45081	-0.10740	0.56145	-0.24270
3955.000	1.47452	-0.05767	0.56540	-0.26060
3956.000	1.46859	-0.09944	0.54168	-0.24668
3957.000	1.47847	-0.12728	0.52784	-0.24270
3958.000	1.46069	-0.06165	0.50610	-0.25066
3959.000	1.43500	-0.08353	0.53773	-0.26657
3960.000	1.48440	-0.06563	0.56343	-0.28049
3961.000	1.45081	-0.11734	0.51401	-0.32824
3962.000	1.44883	-0.10541	0.55354	-0.25662
3963.000	1.44686	-0.11336	0.55354	-0.26856
3964.000	1.46069	-0.10342	0.51598	-0.26060
3965.000	1.45081	-0.14717	0.50808	-0.31630
3966.000	1.43698	-0.10342	0.52587	-0.27055
3967.000	1.43303	-0.07756	0.51203	-0.29044
3968.000	1.42315	-0.15911	0.50412	-0.27652
3969.000	1.43896	-0.12132	0.51598	-0.29044
3970.000	1.46266	-0.08751	0.52587	-0.31431
3971.000	1.43698	-0.11734	0.49424	-0.29641
3972.000	1.42513	-0.13922	0.53773	-0.25861
3973.000	1.41722	-0.16706	0.53378	-0.30039
3974.000	1.45871	-0.13325	0.52191	-0.32227
3975.000	1.43303	-0.13922	0.54366	-0.28249
3976.000	1.43698	-0.15513	0.51598	-0.26458
3977.000	1.45081	-0.12927	0.56738	-0.28248
3978.000	1.43303	-0.17700	0.53575	-0.28050
3979.000	1.45081	-0.14717	0.54564	-0.27851
3980.000	1.41327	-0.14916	0.54366	-0.26060
3981.000	1.46266	-0.13325	0.51203	-0.26856
3982.000	1.39944	-0.16308	0.49819	-0.28647
3983.000	1.39944	-0.16507	0.52389	-0.29243
3984.000	1.42710	-0.14319	0.52587	-0.26259
3985.000	1.38956	-0.12928	0.53180	-0.26458
3986.000	1.38363	-0.12530	0.49226	-0.27254
3987.000	1.42117	-0.13723	0.53575	-0.27652
3988.000	1.42315	-0.15513	0.55157	-0.27851
3989.000	1.38363	-0.18297	0.52389	-0.21286
3990.000	1.43303	-0.16308	0.51796	-0.30238
3991.000	1.43896	-0.14121	0.54959	-0.26856
3992.000	1.43105	-0.17104	0.53378	-0.28845
3993.000	1.38166	-0.19292	0.53378	-0.26458
3994.000	1.43303	-0.16706	0.54366	-0.26657
3995.000	1.41920	-0.16905	0.54168	-0.27254
3996.000	1.42117	-0.16109	0.53575	-0.26856
3997.000	1.39351	-0.14916	0.53378	-0.26657
3998.000	1.39944	-0.14916	0.54959	-0.22877
3999.000	1.38758	-0.17502	0.56145	-0.26458
4000.000	1.39746	-0.14320	0.50412	-0.26856
4001.000	1.41722	-0.14320	0.56936	-0.23474
4002.000	1.44093	-0.12927	0.54761	-0.27851
4003.000	1.40142	-0.20684	0.53971	-0.25066
4004.000	1.42710	-0.15712	0.53773	-0.32625
4005.000	1.40142	-0.19888	0.55750	-0.30437
4006.000	1.44291	-0.21081	0.56145	-0.23275
4007.000	1.41129	-0.12132	0.60494	-0.24071
4008.000	1.42315	-0.19689	0.57529	-0.28447
4009.000	1.42117	-0.14518	0.55354	-0.29044
4010.000	1.39549	-0.17104	0.56936	-0.24867
4011.000	1.39549	-0.20286	0.58517	-0.26259
4012.000	1.38363	-0.16706	0.51005	-0.28845
4013.000	1.36783	-0.14519	0.52982	-0.24469
4014.000	1.41920	-0.15911	0.53575	-0.19496
4015.000	1.42117	-0.11137	0.54564	-0.24469
4016.000	1.40932	-0.15115	0.54564	-0.22281
4017.000	1.44291	-0.11734	0.51005	-0.26657
4018.000	1.39944	-0.19292	0.55354	-0.23673
4019.000	1.46069	-0.10739	0.55354	-0.22678
4020.000	1.39944	-0.16110	0.55354	-0.27453
4021.000	1.40537	-0.15513	0.55947	-0.23474
4022.000	1.41920	-0.14518	0.55552	-0.23872
4023.000	1.40339	-0.13325	0.56936	-0.23275
4024.000	1.43105	-0.17303	0.56343	-0.23872
4025.000	1.44686	-0.15115	0.53378	-0.25464
4026.000	1.40734	-0.15314	0.56738	-0.25264
4027.000	1.44093	-0.14717	0.53378	-0.26060
4028.000	1.38166	-0.18695	0.52982	-0.23076
4029.000	1.39154	-0.17502	0.59703	-0.26856
4030.000	1.39154	-0.20286	0.58715	-0.22877
4031.000	1.41525	-0.17701	0.58122	-0.19893
4032.000	1.40142	-0.21479	0.53773	-0.25066
4033.000	1.44488	-0.22672	0.56936	-0.24469
4034.000	1.42117	-0.14320	0.56145	-0.22281
4035.000	1.38166	-0.19292	0.58122	-0.26060
4036.000	1.43896	-0.17104	0.54959	-0.18899
4037.000	1.42117	-0.16905	0.54564	-0.22082
4038.000	1.40932	-0.18894	0.56738	-0.21286
4039.000	1.40537	-0.15911	0.58122	-0.22479
4040.000	1.44291	-0.17700	0.59506	-0.18899
4041.000	1.40339	-0.18496	0.58122	-0.21485
4042.000	1.42710	-0.16308	0.56936	-0.28646
4043.000	1.39351	-0.20883	0.55552	-0.21286
4044.000	1.41327	-0.16905	0.56540	-0.23076
4045.000	1.40537	-0.18695	0.51994	-0.24270
4046.000	1.40734	-0.19689	0.54168	-0.24469
4047.000	1.44686	-0.15115	0.55947	-0.27851
4048.000	1.44883	-0.13524	0.54959	-0.26060
4049.000	1.40932	-0.18496	0.53378	-0.30437
4050.000	1.42513	-0.15513	0.51796	-0.22082
4051.000	1.43500	-0.17700	0.57133	-0.29243
4052.000	1.45871	-0.11336	0.51796	-0.25861
4053.000	1.43698	-0.17899	0.55354	-0.23076
4054.000	1.43105	-0.14121	0.56540	-0.27652
4055.000	1.41722	-0.16905	0.59110	-0.22081
4056.000	1.40734	-0.12132	0.57529	-0.24867
4057.000	1.48045	-0.12330	0.58715	-0.22280
4058.000	1.43105	-0.18695	0.53971	-0.27652
4059.000	1.45081	-0.13524	0.56738	-0.24668
4060.000	1.44291	-0.15910	0.55354	-0.25066
4061.000	1.43105	-0.12331	0.55354	-0.29840
4062.000	1.48637	-0.15313	0.54168	-0.28845
4063.000	1.44883	-0.13524	0.51005	-0.24270
4064.000	1.41920	-0.11137	0.53971	-0.31034
4065.000	1.46069	-0.12927	0.51796	-0.30437
4066.000	1.46662	-0.15711	0.53378	-0.28646
4067.000	1.47057	-0.15910	0.53378	-0.32426
4068.000	1.44291	-0.12529	0.53378	-0.28249
4069.000	1.45871	-0.15513	0.55354	-0.30437
4070.000	1.48835	-0.15313	0.54168	-0.35211
4071.000	1.44488	-0.16905	0.53971	-0.36405
4072.000	1.41920	-0.14320	0.55552	-0.35410
4073.000	1.45674	-0.12331	0.53971	-0.28447
4074.000	1.45674	-0.19092	0.53180	-0.35808
4075.000	1.44291	-0.13723	0.51796	-0.30238
4076.000	1.42513	-0.12728	0.54366	-0.32028
4077.000	1.44291	-0.11933	0.54168	-0.29442
4078.000	1.46069	-0.12529	0.51598	-0.37996
4079.000	1.46662	-0.12927	0.54959	-0.31829
4080.000	1.44686	-0.16308	0.53971	-0.29243
4081.000	1.45674	-0.12529	0.52982	-0.31233
4082.000	1.43896	-0.13723	0.53971	-0.33620
4083.000	1.45279	-0.15115	0.51598	-0.34415
4084.000	1.44883	-0.12728	0.52982	-0.33819
4085.000	1.44686	-0.11336	0.52389	-0.30238
4086.000	1.44686	-0.14120	0.51796	-0.25861
4087.000	1.45081	-0.14717	0.53575	-0.28845
4088.000	1.47057	-0.05767	0.53575	-0.29840
4089.000	1.43500	-0.12530	0.49819	-0.32625
4090.000	1.42908	-0.15911	0.48435	-0.27055
4091.000	1.46069	-0.09148	0.49819	-0.31233
4092.000	1.47649	-0.11933	0.49424	-0.29243
4093.000	1.45279	-0.12132	0.51005	-0.25265
4094.000	1.45871	-0.17302	0.52191	-0.28050
4095.000	1.46662	-0.12529	0.52982	-0.29243
4096.000	1.44291	-0.15910	0.51598	-0.30039
4097.000	1.46464	-0.15910	0.50610	-0.29840
4098.000	1.48835	-0.10143	0.52587	-0.27453
4099.000	1.47649	-0.12529	0.53773	-0.29243
4100.000	1.45871	-0.12330	0.53378	-0.28447
4101.000	1.46266	-0.12330	0.51796	-0.26657
4102.000	1.48242	-0.13126	0.54168	-0.30238
4103.000	1.48440	-0.06762	0.51598	-0.29442
4104.000	1.48637	-0.09347	0.51994	-0.26856
4105.000	1.43698	-0.15314	0.50610	-0.27453
4106.000	1.45279	-0.10143	0.53773	-0.29840
4107.000	1.45871	-0.07955	0.52191	-0.26060
4108.000	1.45871	-0.09745	0.52191	-0.25861
4109.000	1.46266	-0.11933	0.50412	-0.21485
4110.000	1.47057	-0.10938	0.51994	-0.27453
4111.000	1.46266	-0.11933	0.52191	-0.25464
4112.000	1.48637	-0.11933	0.50215	-0.26458
4113.000	1.44093	-0.14121	0.51401	-0.29840
4114.000	1.44488	-0.15910	0.52982	-0.25066
4115.000	1.42513	-0.17700	0.52191	-0.21684
4116.000	1.46069	-0.11535	0.50412	-0.25663
4117.000	1.46266	-0.11734	0.53180	-0.23673
4118.000	1.45674	-0.10541	0.53971	-0.24469
4119.000	1.48242	-0.09347	0.47447	-0.26458
4120.000	1.45279	-0.08154	0.53773	-0.30636
4121.000	1.44093	-0.07756	0.51203	-0.24867
4122.000	1.44093	-0.08751	0.53773	-0.22678
4123.000	1.48835	-0.10342	0.56343	-0.27055
4124.000	1.48440	-0.10342	0.55354	-0.26060
4125.000	1.46266	-0.13524	0.54564	-0.21087
4126.000	1.45871	-0.13524	0.52191	-0.28050
4127.000	1.46464	-0.12330	0.53971	-0.26458
4128.000	1.48835	-0.11933	0.52587	-0.25662
4129.000	1.45871	-0.12132	0.56343	-0.23275
4130.000	1.45674	-0.13922	0.52587	-0.21883
4131.000	1.42117	-0.19093	0.55947	-0.23474
4132.000	1.45279	-0.11137	0.51401	-0.24867
4133.000	1.45476	-0.12728	0.53180	-0.24867
4134.000	1.46464	-0.14518	0.52784	-0.23872
4135.000	1.44093	-0.17104	0.52784	-0.21684
4136.000	1.43105	-0.20087	0.53773	-0.28249
4137.000	1.43303	-0.14916	0.54761	-0.20689
4138.000	1.45279	-0.14518	0.56936	-0.22280
4139.000	1.43698	-0.17501	0.53378	-0.22281
4140.000	1.41129	-0.20087	0.53773	-0.24469
4141.000	1.46464	-0.14717	0.55552	-0.20689
4142.000	1.41327	-0.18894	0.53575	-0.24867
4143.000	1.44093	-0.17700	0.52982	-0.21485
4144.000	1.46266	-0.19092	0.53971	-0.21087
4145.000	1.43896	-0.16109	0.55750	-0.22678
4146.000	1.38363	-0.24662	0.57727	-0.22877
4147.000	1.40142	-0.15115	0.54366	-0.22082
4148.000	1.42710	-0.16507	0.53971	-0.21684
4149.000	1.42710	-0.18098	0.53575	-0.18899
4150.000	1.47057	-0.17103	0.52587	-0.25861
4151.000	1.45081	-0.15314	0.55354	-0.19495
4152.000	1.44093	-0.19689	0.50610	-0.21087
4153.000	1.45674	-0.15910	0.53180	-0.24867
4154.000	1.42315	-0.13325	0.55750	-0.21485
4155.000	1.46069	-0.18098	0.54564	-0.22082
4156.000	1.42908	-0.20684	0.53971	-0.19694
4157.000	1.42315	-0.17104	0.56540	-0.21286
4158.000	1.42117	-0.17899	0.58122	-0.23076
4159.000	1.43303	-0.18695	0.55552	-0.24270
4160.000	1.42908	-0.18098	0.55947	-0.22281
4161.000	1.44883	-0.18297	0.58122	-0.19694
4162.000	1.42513	-0.21280	0.52587	-0.23872
4163.000	1.39549	-0.21281	0.54959	-0.21286
4164.000	1.46069	-0.19291	0.51796	-0.23673
4165.000	1.39746	-0.16308	0.55947	-0.22877
4166.000	1.40142	-0.23070	0.57529	-0.25861
4167.000	1.40734	-0.19491	0.57529	-0.19893
4168.000	1.44686	-0.18695	0.54168	-0.25265
4169.000	1.45476	-0.16905	0.51005	-0.24867
4170.000	1.41327	-0.16706	0.58122	-0.27652
4171.000	1.42710	-0.20087	0.55157	-0.25265
4172.000	1.41129	-0.14717	0.53773	-0.23872
4173.000	1.41722	-0.19093	0.53575	-0.23275
4174.000	1.43896	-0.21678	0.54959	-0.27254
4175.000	1.46859	-0.16507	0.50215	-0.22082
4176.000	1.41525	-0.22076	0.50017	-0.24469
4177.000	1.42315	-0.19689	0.56145	-0.28248
4178.000	1.43698	-0.22076	0.55354	-0.23275
4179.000	1.42315	-0.17303	0.55552	-0.23474
4180.000	1.43105	-0.22076	0.51401	-0.25663
4181.000	1.41920	-0.18496	0.53378	-0.27453
4182.000	1.39746	-0.23866	0.50610	-0.25663
4183.000	1.42710	-0.21280	0.51994	-0.30437
4184.000	1.42315	-0.17303	0.52191	-0.25662
4185.000	1.45279	-0.21678	0.52982	-0.26259
4186.000	1.42117	-0.20485	0.53971	-0.25463
4187.000	1.42710	-0.22076	0.51598	-0.24469
4188.000	1.42117	-0.23667	0.52587	-0.26657
4189.000	1.40932	-0.19491	0.49226	-0.25066
4190.000	1.42513	-0.22474	0.51994	-0.23474
4191.000	1.40142	-0.20883	0.54564	-0.22082
4192.000	1.42513	-0.24263	0.51005	-0.26856
4193.000	1.42908	-0.22871	0.51598	-0.24668
4194.000	1.41525	-0.20087	0.53180	-0.24071
4195.000	1.41722	-0.20286	0.51401	-0.28646
4196.000	1.41920	-0.23866	0.53971	-0.25463
4197.000	1.44291	-0.20683	0.54366	-0.23872
4198.000	1.44686	-0.22672	0.52389	-0.20689
4199.000	1.43303	-0.20087	0.51598	-0.23872
4200.000	1.43500	-0.21081	0.51994	-0.22877
4201.000	1.44488	-0.24064	0.52389	-0.22877
4202.000	1.44291	-0.21280	0.55157	-0.28050
4203.000	1.45279	-0.20485	0.52389	-0.24071
4204.000	1.41327	-0.21082	0.51796	-0.22281
4205.000	1.43698	-0.20485	0.51598	-0.20888
4206.000	1.44291	-0.23070	0.56738	-0.22479
4207.000	1.45081	-0.19888	0.53378	-0.20490
4208.000	1.42117	-0.25258	0.52587	-0.17506
4209.000	1.47452	-0.20087	0.54564	-0.17506
4210.000	1.42513	-0.20883	0.57727	-0.17108
4211.000	1.45871	-0.15910	0.54366	-0.14522
4212.000	1.47649	-0.20285	0.57331	-0.22082
4213.000	1.44093	-0.20882	0.56540	-0.15517
4214.000	1.41920	-0.24462	0.56343	-0.16511
4215.000	1.45081	-0.21081	0.54564	-0.16512
4216.000	1.44488	-0.21479	0.53773	-0.14920
4217.000	1.45674	-0.19490	0.54761	-0.21485
4218.000	1.43500	-0.19888	0.52784	-0.18302
4219.000	1.45081	-0.18297	0.58320	-0.16710
4220.000	1.47254	-0.23070	0.54761	-0.20291
4221.000	1.40339	-0.21877	0.55354	-0.15318
4222.000	1.43500	-0.16109	0.55157	-0.16114
4223.000	1.43500	-0.21877	0.52982	-0.14920
4224.000	1.44883	-0.22871	0.56738	-0.15318
4225.000	1.42117	-0.20883	0.56145	-0.11936
4226.000	1.43896	-0.21877	0.55354	-0.17705
4227.000	1.45279	-0.22672	0.56145	-0.22678
4228.000	1.45081	-0.23468	0.55947	-0.19495
4229.000	1.40932	-0.24860	0.52784	-0.20689
4230.000	1.43896	-0.22275	0.55354	-0.16114
4231.000	1.42908	-0.18496	0.55157	-0.15716
4232.000	1.46859	-0.24661	0.55947	-0.19495
4233.000	1.40142	-0.24860	0.60099	-0.16511
4234.000	1.41722	-0.20485	0.56936	-0.18700
4235.000	1.44093	-0.25655	0.56738	-0.14522
4236.000	1.43896	-0.22672	0.56540	-0.15119
4237.000	1.38758	-0.23269	0.56343	-0.17307
4238.000	1.42117	-0.22275	0.55354	-0.18103
4239.000	1.43698	-0.21280	0.53773	-0.17108
4240.000	1.44291	-0.25655	0.54366	-0.14323
4241.000	1.44093	-0.23667	0.55157	-0.17307
4242.000	1.41722	-0.23269	0.58517	-0.13329
