time (ms)	lx (deg)	ly (deg)	rx (deg)	ry (deg)
0.000	0.78680	-0.36602	0.22933	-0.63858
1.000	0.82633	-0.35408	0.20363	-0.63460
2.000	0.77494	-0.35010	0.17200	-0.64256
3.000	0.77296	-0.33618	0.22735	-0.65250
4.000	0.80656	-0.32424	0.20758	-0.67041
5.000	0.79273	-0.34215	0.19375	-0.62465
6.000	0.85400	-0.32822	0.19572	-0.60874
7.000	0.80854	-0.36403	0.18979	-0.64853
8.000	0.85796	-0.33617	0.19770	-0.66245
9.000	0.78087	-0.38989	0.21352	-0.64654
10.000	0.81842	-0.31430	0.17595	-0.62863
11.000	0.83819	-0.35806	0.18386	-0.65847
12.000	0.78680	-0.41376	0.20561	-0.67239
13.000	0.82831	-0.34811	0.20758	-0.67041
14.000	0.84412	-0.34015	0.21352	-0.64256
15.000	0.79273	-0.34215	0.23724	-0.65051
16.000	0.79866	-0.32424	0.19375	-0.63659
17.000	0.84610	-0.37397	0.21549	-0.64057
18.000	0.78087	-0.33419	0.19968	-0.60874
19.000	0.81842	-0.35607	0.19968	-0.59482
20.000	0.81447	-0.29043	0.19572	-0.60078
21.000	0.83819	-0.34811	0.17595	-0.64455
22.000	0.82435	-0.30833	0.16607	-0.66046
23.000	0.89749	-0.30633	0.20165	-0.61471
24.000	0.85203	-0.30833	0.21945	-0.57691
25.000	0.84610	-0.31032	0.21945	-0.57095
26.000	0.87179	-0.31031	0.19770	-0.61869
27.000	0.86586	-0.30832	0.21945	-0.59482
28.000	0.86191	-0.28644	0.21549	-0.58686
29.000	0.82435	-0.31231	0.21549	-0.59482
30.000	0.85993	-0.32822	0.20956	-0.61272
31.000	0.82633	-0.30037	0.17200	-0.60079
32.000	0.83226	-0.34214	0.23922	-0.61272
33.000	0.84807	-0.35408	0.21352	-0.62068
34.000	0.86388	-0.30634	0.18584	-0.61073
35.000	0.84214	-0.30037	0.23526	-0.57691
36.000	0.84214	-0.28048	0.19375	-0.61272
37.000	0.84017	-0.29639	0.20561	-0.62664
38.000	0.80854	-0.30236	0.19177	-0.60078
39.000	0.86981	-0.30037	0.20758	-0.65250
40.000	0.84807	-0.28645	0.19572	-0.62863
41.000	0.85400	-0.32822	0.20561	-0.60675
42.000	0.79470	-0.33618	0.24317	-0.61670
43.000	0.84017	-0.37198	0.19968	-0.60476
44.000	0.86784	-0.33219	0.20561	-0.61869
45.000	0.83819	-0.37994	0.24317	-0.58089
46.000	0.84412	-0.33816	0.20165	-0.59482
47.000	0.85400	-0.34015	0.19770	-0.56896
48.000	0.87574	-0.36203	0.19177	-0.61073
49.000	0.87179	-0.39386	0.20165	-0.59482
50.000	0.85598	-0.28843	0.19375	-0.64852
51.000	0.86784	-0.36601	0.20956	-0.56896
52.000	0.80261	-0.33220	0.19375	-0.58288
53.000	0.86981	-0.36402	0.21945	-0.60675
54.000	0.90342	-0.35208	0.19572	-0.59482
55.000	0.84412	-0.34413	0.19770	-0.62267
56.000	0.84017	-0.35806	0.22340	-0.61670
57.000	0.81447	-0.37198	0.21549	-0.65648
58.000	0.84214	-0.36999	0.22735	-0.64852
59.000	0.83424	-0.37397	0.17398	-0.64654
60.000	0.83226	-0.43563	0.19968	-0.63460
61.000	0.82633	-0.37198	0.21352	-0.66444
62.000	0.81645	-0.38591	0.18584	-0.67041
63.000	0.83226	-0.41176	0.19968	-0.60476
64.000	0.80656	-0.40580	0.18584	-0.65847
65.000	0.83621	-0.41574	0.18386	-0.64853
66.000	0.83424	-0.41972	0.18386	-0.67637
67.000	0.86388	-0.38192	0.17398	-0.68831
68.000	0.85796	-0.38391	0.20165	-0.64256
69.000	0.87377	-0.36999	0.16211	-0.70223
70.000	0.89353	-0.39584	0.19375	-0.67637
71.000	0.86586	-0.41574	0.21154	-0.62465
72.000	0.84017	-0.42370	0.23131	-0.61670
73.000	0.85005	-0.44160	0.17200	-0.66046
74.000	0.82633	-0.43364	0.16409	-0.64256
75.000	0.84807	-0.41375	0.19375	-0.62863
76.000	0.83819	-0.43165	0.17595	-0.61670
77.000	0.88563	-0.39386	0.17793	-0.64654
78.000	0.82831	-0.40182	0.18979	-0.62465
79.000	0.86191	-0.46149	0.21549	-0.62465
80.000	0.88365	-0.39187	0.15618	-0.61869
81.000	0.85993	-0.39784	0.15223	-0.57493
82.000	0.86981	-0.41375	0.17595	-0.63460
83.000	0.87970	-0.33219	0.19968	-0.64057
84.000	0.87574	-0.34413	0.17595	-0.58686
85.000	0.87970	-0.40579	0.19968	-0.55702
86.000	0.89551	-0.37396	0.16607	-0.57890
87.000	0.89749	-0.38590	0.15816	-0.61272
88.000	0.88958	-0.36800	0.15421	-0.59283
89.000	0.83226	-0.40778	0.17793	-0.60675
90.000	0.87377	-0.40181	0.17200	-0.58686
91.000	0.90144	-0.40380	0.15223	-0.60874
92.000	0.84610	-0.41375	0.19968	-0.57492
93.000	0.88167	-0.42767	0.13641	-0.58089
94.000	0.85203	-0.40579	0.16409	-0.59283
95.000	0.86784	-0.44160	0.18781	-0.57294
96.000	0.85598	-0.39386	0.15421	-0.59880
97.000	0.86981	-0.41773	0.18188	-0.58686
98.000	0.87772	-0.40380	0.16804	-0.61670
99.000	0.89156	-0.38988	0.17398	-0.61073
100.000	0.88760	-0.38988	0.17991	-0.64256
101.000	0.89551	-0.41971	0.16014	-0.57691
102.000	0.87970	-0.38391	0.18584	-0.60675
103.000	0.92713	-0.40380	0.17793	-0.62664
104.000	0.96469	-0.32821	0.16211	-0.56299
105.000	0.92318	-0.33219	0.15816	-0.54111
106.000	0.91330	-0.26655	0.15618	-0.51525
107.000	0.92120	-0.24268	0.13246	-0.52520
108.000	0.89156	-0.19892	0.16014	-0.46552
109.000	0.85796	-0.18699	0.08699	-0.43568
110.000	0.86388	-0.09349	0.05338	-0.33820
111.000	0.76901	-0.01194	-0.02372	-0.26061
112.000	0.73540	0.06167	-0.06326	-0.21486
113.000	0.68401	0.13328	-0.15025	-0.20889
114.000	0.55750	0.20092	-0.18979	-0.10146
115.000	0.49028	0.25862	-0.21945	0.01790
116.000	0.43296	0.31631	-0.30050	0.10146
117.000	0.34993	0.44164	-0.34993	0.11340
118.000	0.30643	0.46352	-0.41912	0.14721
119.000	0.30841	0.50132	-0.43098	0.15517
120.000	0.26096	0.54111	-0.42109	0.23276
121.000	0.29062	0.60277	-0.42109	0.26459
122.000	0.31434	0.62863	-0.41714	0.24071
123.000	0.34202	0.65250	-0.39342	0.25265
124.000	0.39342	0.62663	-0.32818	0.33024
125.000	0.45668	0.61469	-0.31236	0.23873
126.000	0.53575	0.61071	-0.25305	0.26658
127.000	0.54168	0.53512	-0.22538	0.18899
128.000	0.63459	0.50129	-0.15618	0.17308
129.000	0.67215	0.43764	-0.20165	0.13329
130.000	0.69587	0.37995	-0.13048	0.08753
131.000	0.72947	0.30237	-0.15618	0.06764
132.000	0.73145	0.24468	-0.12653	0.01989
133.000	0.73936	0.20290	-0.13048	-0.04775
134.000	0.76308	0.15317	-0.10280	-0.06167
135.000	0.72947	0.10344	-0.10083	-0.08754
136.000	0.70575	0.02586	-0.12455	-0.09151
137.000	0.74529	0.08554	-0.09490	-0.12732
138.000	0.69389	0.03581	-0.11269	-0.11539
139.000	0.66424	0.02984	-0.13641	-0.19098
140.000	0.64843	0.02188	-0.07710	-0.11539
141.000	0.63262	0.06167	-0.12060	-0.11141
142.000	0.61285	0.07957	-0.13246	-0.11738
143.000	0.57529	0.04575	-0.13246	-0.08555
144.000	0.59703	0.10941	-0.13444	-0.10146
145.000	0.56540	0.09947	-0.14630	-0.03581
146.000	0.57727	0.18103	-0.13839	-0.04178
147.000	0.57727	0.12732	-0.13839	-0.06167
148.000	0.57331	0.17904	-0.13048	-0.00796
149.000	0.59308	0.23474	-0.15025	0.01194
150.000	0.54761	0.19694	-0.18188	0.00796
151.000	0.58517	0.20092	-0.19375	0.01989
152.000	0.55552	0.21883	-0.16014	0.01790
153.000	0.57924	0.22877	-0.18979	0.01989
154.000	0.57727	0.28248	-0.20363	0.01393
155.000	0.62075	0.22280	-0.18386	-0.00398
156.000	0.62075	0.25463	-0.18188	0.05371
157.000	0.63064	0.29839	-0.19572	0.04576
158.000	0.57133	0.25861	-0.23329	0.03581
159.000	0.58517	0.27254	-0.20165	0.02785
160.000	0.62471	0.29044	-0.17595	0.06764
161.000	0.59308	0.30039	-0.20956	0.05769
162.000	0.62668	0.28049	-0.16409	0.04377
163.000	0.60296	0.32824	-0.22142	0.04775
164.000	0.61482	0.29044	-0.22735	0.03979
165.000	0.61878	0.30834	-0.20165	0.04377
166.000	0.61087	0.32823	-0.22142	0.04974
167.000	0.59506	0.28248	-0.21945	0.00398
168.000	0.60692	0.29044	-0.17595	0.04576
169.000	0.62273	0.23474	-0.20956	0.02188
170.000	0.64250	0.27452	-0.21549	0.02387
171.000	0.61285	0.25065	-0.21549	-0.03183
172.000	0.58320	0.25463	-0.24712	-0.04178
173.000	0.59506	0.25861	-0.22142	0.00995
174.000	0.57133	0.25662	-0.20561	-0.01790
175.000	0.62866	0.24468	-0.19375	0.01393
176.000	0.63657	0.26856	-0.20758	-0.01393
177.000	0.60692	0.26856	-0.22142	-0.02984
178.000	0.60296	0.23673	-0.20165	0.01194
179.000	0.63855	0.24468	-0.21549	-0.04377
180.000	0.61878	0.24270	-0.24317	-0.00995
181.000	0.60889	0.20888	-0.18979	-0.00398
182.000	0.65238	0.26060	-0.21945	-0.03780
183.000	0.65634	0.26458	-0.19572	0.04775
184.000	0.59703	0.25264	-0.20758	-0.00597
185.000	0.65041	0.26060	-0.21945	-0.01393
186.000	0.64843	0.28248	-0.24515	-0.02785
187.000	0.63459	0.28049	-0.25108	-0.01592
188.000	0.67610	0.26060	-0.23329	-0.01194
189.000	0.66820	0.25264	-0.21352	-0.01790
190.000	0.62866	0.29839	-0.21747	-0.01790
191.000	0.65634	0.26259	-0.21549	-0.00597
192.000	0.62866	0.24468	-0.22142	-0.03183
193.000	0.65436	0.29044	-0.22142	0.00000
194.000	0.65634	0.29640	-0.20956	-0.01393
195.000	0.67610	0.29640	-0.20165	0.00995
196.000	0.66622	0.27452	-0.23922	0.01393
197.000	0.68401	0.27452	-0.20165	0.03183
198.000	0.68401	0.28248	-0.21154	-0.00597
199.000	0.60692	0.29641	-0.22340	0.00796
200.000	0.68203	0.27651	-0.20561	0.00398
201.000	0.65041	0.28646	-0.21747	0.02188
202.000	0.63657	0.28646	-0.21154	-0.04178
203.000	0.61680	0.31630	-0.22735	-0.01194
204.000	0.66029	0.29243	-0.18979	-0.00398
205.000	0.59506	0.26060	-0.21747	-0.01194
206.000	0.62471	0.27055	-0.17991	-0.00796
207.000	0.60494	0.24469	-0.23724	-0.03780
208.000	0.66424	0.31829	-0.22340	-0.01989
209.000	0.56738	0.28248	-0.23329	-0.01194
210.000	0.64448	0.28646	-0.23724	-0.00995
211.000	0.63064	0.29839	-0.23724	0.00199
212.000	0.64448	0.31033	-0.21747	-0.02785
213.000	0.60296	0.26060	-0.21549	0.03183
214.000	0.64645	0.28845	-0.21945	-0.01194
215.000	0.62668	0.31033	-0.22735	-0.02188
216.000	0.67808	0.30038	-0.20758	-0.02785
217.000	0.64843	0.29442	-0.20758	0.00796
218.000	0.62471	0.30436	-0.20165	0.01194
219.000	0.64250	0.33818	-0.21154	0.00398
220.000	0.61878	0.31033	-0.22735	-0.04576
221.000	0.62866	0.30038	-0.25503	-0.00796
222.000	0.63459	0.30834	-0.22735	-0.01989
223.000	0.64448	0.29044	-0.23922	-0.00199
224.000	0.60494	0.31033	-0.23329	-0.02785
225.000	0.62866	0.29243	-0.24317	-0.06764
226.000	0.66227	0.28845	-0.24712	-0.02586
227.000	0.63657	0.31431	-0.23526	0.00398
228.000	0.62668	0.32426	-0.22142	-0.01194
229.000	0.64645	0.32624	-0.25899	-0.01194
230.000	0.66820	0.36205	-0.25305	-0.02586
231.000	0.62273	0.28447	-0.22933	-0.03183
232.000	0.66029	0.32823	-0.25108	-0.03382
233.000	0.64448	0.27651	-0.24119	-0.01592
234.000	0.64250	0.32028	-0.22142	0.00000
235.000	0.66622	0.34812	-0.23922	0.00796
236.000	0.63855	0.30038	-0.27282	0.02387
237.000	0.66227	0.30038	-0.24712	-0.00398
238.000	0.64843	0.29442	-0.24712	0.00796
239.000	0.64052	0.33221	-0.24317	-0.01989
240.000	0.63855	0.32425	-0.25305	-0.02387
241.000	0.60889	0.32028	-0.26887	-0.04775
242.000	0.66424	0.34216	-0.25899	-0.00597
243.000	0.64645	0.33420	-0.26492	0.01194
244.000	0.62471	0.28845	-0.23131	0.01194
245.000	0.62075	0.37598	-0.26492	-0.03183
246.000	0.63262	0.34813	-0.26887	-0.02785
247.000	0.65238	0.35608	-0.27876	0.01194
248.000	0.64843	0.35409	-0.26294	0.01592
249.000	0.64052	0.31829	-0.26887	0.00995
250.000	0.61285	0.32227	-0.28469	0.00000
251.000	0.59308	0.27651	-0.27085	-0.01393
252.000	0.64052	0.31033	-0.25701	0.00597
253.000	0.64250	0.33221	-0.25701	0.02387
254.000	0.61878	0.35807	-0.24317	0.03382
255.000	0.60494	0.32227	-0.27480	-0.00995
256.000	0.65436	0.34614	-0.29655	-0.02785
257.000	0.62075	0.33619	-0.27085	-0.00398
258.000	0.65634	0.34812	-0.25305	-0.00199
259.000	0.59703	0.31232	-0.31632	-0.03979
260.000	0.61680	0.31630	-0.28864	0.02387
261.000	0.64843	0.35210	-0.28073	-0.03382
262.000	0.63064	0.34813	-0.26887	-0.02188
263.000	0.61680	0.36006	-0.29655	-0.06565
264.000	0.62668	0.35608	-0.30248	-0.05769
265.000	0.64250	0.34614	-0.31039	-0.05769
266.000	0.62471	0.34614	-0.28271	-0.09549
267.000	0.61878	0.31033	-0.29457	0.00995
268.000	0.62075	0.32426	-0.28271	-0.07361
269.000	0.59506	0.30238	-0.27480	-0.04576
270.000	0.59703	0.29044	-0.28073	-0.03780
271.000	0.60099	0.31630	-0.30643	-0.05570
272.000	0.57133	0.33420	-0.32027	-0.03183
273.000	0.58122	0.30039	-0.29062	-0.03581
274.000	0.64052	0.35409	-0.30248	-0.06565
275.000	0.62075	0.33022	-0.31236	-0.07162
276.000	0.54959	0.26657	-0.29852	-0.02984
277.000	0.59901	0.34216	-0.29655	-0.01194
278.000	0.62273	0.28646	-0.30248	-0.04775
279.000	0.61680	0.35211	-0.31632	-0.02188
280.000	0.57924	0.35808	-0.29457	-0.02586
281.000	0.59901	0.34216	-0.31236	-0.05172
282.000	0.59110	0.35609	-0.30248	-0.04576
283.000	0.60692	0.32028	-0.31632	-0.02586
284.000	0.58913	0.37996	-0.29259	-0.04576
285.000	0.58517	0.34614	-0.32225	-0.05371
286.000	0.61087	0.36205	-0.32422	-0.06963
287.000	0.60099	0.30635	-0.30248	-0.07361
288.000	0.53575	0.35211	-0.30050	-0.09549
289.000	0.58715	0.34813	-0.32620	-0.04576
290.000	0.57133	0.30039	-0.30841	-0.07958
291.000	0.56936	0.30238	-0.30643	-0.08952
292.000	0.57924	0.31232	-0.36179	-0.09947
293.000	0.58122	0.32824	-0.31632	-0.07560
294.000	0.56936	0.34415	-0.32225	-0.10544
295.000	0.57924	0.31431	-0.31829	-0.05968
296.000	0.57727	0.33023	-0.33213	-0.08157
297.000	0.56936	0.30039	-0.29259	-0.06963
298.000	0.52982	0.32625	-0.30643	-0.09151
299.000	0.58715	0.30834	-0.30841	-0.12533
300.000	0.60494	0.36006	-0.32422	-0.08952
301.000	0.58715	0.34614	-0.33806	-0.11340
302.000	0.59110	0.33221	-0.33016	-0.07361
303.000	0.55750	0.36007	-0.30050	-0.07958
304.000	0.53773	0.25662	-0.37958	-0.10146
305.000	0.59308	0.33818	-0.32620	-0.07958
306.000	0.56738	0.34216	-0.37167	-0.11340
307.000	0.58320	0.37399	-0.32027	-0.11539
308.000	0.54761	0.30039	-0.32027	-0.08753
309.000	0.52784	0.31431	-0.36574	-0.07560
310.000	0.55552	0.32028	-0.33806	-0.09549
311.000	0.57331	0.34614	-0.31039	-0.06167
312.000	0.58320	0.33023	-0.32818	-0.06963
313.000	0.57331	0.37001	-0.34597	-0.07361
314.000	0.57133	0.31829	-0.31829	-0.08554
315.000	0.53180	0.27652	-0.33609	-0.06565
316.000	0.54761	0.33818	-0.29852	-0.07361
317.000	0.57331	0.35012	-0.30446	-0.05769
318.000	0.58122	0.36603	-0.31829	-0.08355
319.000	0.56540	0.30636	-0.33806	-0.07162
320.000	0.56936	0.34813	-0.32620	-0.08554
321.000	0.58320	0.33818	-0.33016	-0.08753
322.000	0.59506	0.35807	-0.35586	-0.07958
323.000	0.56540	0.33818	-0.32818	-0.04576
324.000	0.57924	0.34017	-0.33609	-0.06764
325.000	0.53575	0.35410	-0.34004	-0.08753
326.000	0.56540	0.36802	-0.33411	-0.07162
327.000	0.50808	0.38195	-0.34993	-0.05968
328.000	0.54168	0.34415	-0.36179	-0.06167
329.000	0.53180	0.33620	-0.33806	-0.09748
330.000	0.51796	0.32426	-0.34597	-0.05769
331.000	0.55947	0.34017	-0.35190	-0.08355
332.000	0.54761	0.34216	-0.36179	-0.07560
333.000	0.51796	0.35211	-0.35190	-0.06366
334.000	0.55947	0.30238	-0.32818	-0.05968
335.000	0.51203	0.36405	-0.33016	-0.10146
336.000	0.52389	0.31034	-0.32818	-0.06565
337.000	0.53971	0.38792	-0.33411	-0.09350
338.000	0.52191	0.30437	-0.31434	-0.05172
339.000	0.53971	0.36206	-0.32225	-0.04576
340.000	0.47645	0.34615	-0.35190	-0.06366
341.000	0.56145	0.39587	-0.33609	-0.01194
342.000	0.51203	0.32227	-0.34004	-0.07958
343.000	0.53180	0.33620	-0.32027	-0.05570
344.000	0.50808	0.34217	-0.33411	-0.06764
345.000	0.50412	0.29641	-0.35388	-0.03581
346.000	0.51796	0.36604	-0.30643	-0.06565
347.000	0.54564	0.34017	-0.35190	-0.02387
348.000	0.49819	0.36604	-0.34004	-0.01393
349.000	0.53773	0.34415	-0.30841	-0.01194
350.000	0.52587	0.31034	-0.32027	0.00398
351.000	0.51598	0.38991	-0.32620	-0.03581
352.000	0.54168	0.36007	-0.33806	-0.04775
353.000	0.52784	0.37200	-0.34597	0.00796
354.000	0.52587	0.37001	-0.35388	-0.00398
355.000	0.54761	0.41378	-0.34399	-0.01393
356.000	0.53971	0.40383	-0.33609	0.00000
357.000	0.53773	0.35211	-0.36772	-0.05968
358.000	0.53773	0.38394	-0.31632	-0.01194
359.000	0.52389	0.39588	-0.33806	-0.04775
360.000	0.51796	0.39588	-0.33213	-0.03382
361.000	0.52982	0.37399	-0.33609	-0.00597
362.000	0.52389	0.37200	-0.33016	0.00398
363.000	0.51796	0.39389	-0.33213	-0.03183
364.000	0.51796	0.30835	-0.35190	-0.05769
365.000	0.53971	0.37399	-0.36179	-0.00597
366.000	0.56540	0.36603	-0.35586	-0.00199
367.000	0.51994	0.36604	-0.33411	-0.00398
368.000	0.54168	0.41577	-0.34202	0.00199
369.000	0.48040	0.36007	-0.35388	0.03979
370.000	0.56540	0.41378	-0.35586	0.05172
371.000	0.51994	0.38394	-0.35190	-0.00597
372.000	0.54366	0.38394	-0.35783	0.03581
373.000	0.53971	0.39388	-0.34993	0.00796
374.000	0.54168	0.36206	-0.32620	0.01393
375.000	0.55750	0.36206	-0.33016	-0.00199
376.000	0.51401	0.39190	-0.33016	0.01790
377.000	0.51005	0.36803	-0.28666	0.04576
378.000	0.54564	0.38394	-0.29457	-0.01393
379.000	0.53180	0.37996	-0.32620	0.01592
380.000	0.49226	0.36604	-0.33411	0.01393
381.000	0.57331	0.45356	-0.32422	-0.00199
382.000	0.54366	0.42770	-0.32225	-0.00597
383.000	0.55552	0.43367	-0.32818	0.04178
384.000	0.54761	0.43964	-0.33609	0.02387
385.000	0.55947	0.41974	-0.32620	0.01592
386.000	0.54959	0.45754	-0.34795	0.02188
387.000	0.56145	0.45555	-0.31829	0.00398
388.000	0.55750	0.42173	-0.32225	0.00796
389.000	0.53575	0.44958	-0.32620	0.03979
390.000	0.55552	0.42173	-0.33806	0.03780
391.000	0.58715	0.45356	-0.33016	0.05371
392.000	0.56738	0.38394	-0.31434	0.01989
393.000	0.56343	0.38990	-0.35190	0.00199
394.000	0.55947	0.40582	-0.35190	0.08157
395.000	0.51005	0.41577	-0.32818	0.03581
396.000	0.53378	0.38394	-0.31829	0.03382
397.000	0.53180	0.37996	-0.33411	0.05570
398.000	0.52982	0.39587	-0.33806	0.08157
399.000	0.54959	0.38593	-0.31829	0.05172
400.000	0.56936	0.43765	-0.33213	0.05769
401.000	0.54959	0.40582	-0.31829	0.08157
402.000	0.55552	0.36206	-0.30841	0.03979
403.000	0.57924	0.40980	-0.31632	0.07361
404.000	0.55750	0.39587	-0.34597	0.02984
405.000	0.55157	0.42969	-0.33016	0.06565
406.000	0.59703	0.39388	-0.28864	0.05570
407.000	0.57727	0.42770	-0.29259	0.04377
408.000	0.58715	0.40980	-0.31236	0.06167
409.000	0.57529	0.45754	-0.29259	0.02785
410.000	0.55552	0.42571	-0.32818	0.04576
411.000	0.57331	0.44560	-0.32225	0.03382
412.000	0.56145	0.38195	-0.34202	0.06167
413.000	0.56540	0.43765	-0.34597	0.04775
414.000	0.57331	0.41576	-0.31039	0.04775
415.000	0.55354	0.41775	-0.31039	0.03979
416.000	0.60889	0.43565	-0.32225	0.04576
417.000	0.59703	0.41974	-0.31039	0.04974
418.000	0.58320	0.42173	-0.30446	0.04178
419.000	0.57529	0.42372	-0.31434	0.06366
420.000	0.51005	0.35609	-0.32818	0.07560
421.000	0.57331	0.46549	-0.31039	0.06167
422.000	0.55157	0.42372	-0.31039	0.06167
423.000	0.56540	0.38195	-0.35388	0.05769
424.000	0.58320	0.38394	-0.32422	0.02387
425.000	0.56343	0.38990	-0.33016	0.04178
426.000	0.55947	0.37996	-0.34993	0.06366
427.000	0.54168	0.40582	-0.27876	0.06963
428.000	0.58715	0.38791	-0.29062	0.02785
429.000	0.56540	0.38195	-0.33411	0.07560
430.000	0.54564	0.35808	-0.28271	0.02188
431.000	0.56540	0.38792	-0.33411	0.06963
432.000	0.55947	0.35609	-0.32620	0.08157
433.000	0.54959	0.38593	-0.31829	0.02785
434.000	0.56343	0.41974	-0.32620	0.07759
435.000	0.60099	0.39587	-0.32818	0.06963
436.000	0.57529	0.39786	-0.34399	0.07560
437.000	0.57529	0.43765	-0.33016	0.06764
438.000	0.54564	0.39388	-0.32225	0.07759
439.000	0.60296	0.35211	-0.31632	0.06764
440.000	0.54761	0.40582	-0.31632	0.06764
441.000	0.56540	0.40383	-0.28469	0.07958
442.000	0.55750	0.40980	-0.31829	0.05968
443.000	0.53971	0.35410	-0.31236	0.06764
444.000	0.57529	0.36603	-0.28666	0.05172
445.000	0.59110	0.38592	-0.30446	0.03780
446.000	0.54761	0.40781	-0.30643	0.02586
447.000	0.55947	0.36802	-0.30050	0.05570
448.000	0.54761	0.33818	-0.28073	0.07361
449.000	0.52587	0.36405	-0.31236	0.09350
450.000	0.53180	0.36206	-0.32620	0.02984
451.000	0.49028	0.41776	-0.34795	0.01989
452.000	0.51401	0.41776	-0.34795	0.10146
453.000	0.48040	0.46550	-0.35586	0.02586
454.000	0.46854	0.43765	-0.39737	0.06167
455.000	0.42307	0.39787	-0.42307	0.06963
456.000	0.39144	0.45158	-0.40726	0.11737
457.000	0.35783	0.43567	-0.44482	0.11538
458.000	0.34004	0.48341	-0.47052	0.13329
459.000	0.29457	0.45358	-0.50808	0.08355
460.000	0.32027	0.46352	-0.50412	0.07758
461.000	0.33806	0.49535	-0.50412	0.09947
462.000	0.33016	0.49734	-0.47842	0.16114
463.000	0.33016	0.46551	-0.48435	0.13329
464.000	0.35586	0.47744	-0.46063	0.16711
465.000	0.39935	0.48938	-0.45865	0.19297
466.000	0.40726	0.48540	-0.40528	0.11737
467.000	0.41714	0.48540	-0.41714	0.17109
468.000	0.45470	0.46948	-0.36969	0.16711
469.000	0.47447	0.46550	-0.37167	0.20292
470.000	0.48435	0.47346	-0.36376	0.15915
471.000	0.51796	0.45754	-0.36179	0.11936
472.000	0.50215	0.40781	-0.34597	0.11141
473.000	0.50215	0.45158	-0.36969	0.12931
474.000	0.52389	0.39786	-0.35783	0.14920
475.000	0.54366	0.37001	-0.32422	0.09947
476.000	0.50808	0.39588	-0.33213	0.11340
477.000	0.51796	0.43964	-0.32422	0.09947
478.000	0.48831	0.36405	-0.36574	0.12533
479.000	0.46854	0.40980	-0.38353	0.11538
480.000	0.48435	0.41975	-0.36969	0.12732
481.000	0.43889	0.39787	-0.35783	0.10146
482.000	0.51598	0.47147	-0.36376	0.14722
483.000	0.44482	0.44561	-0.34795	0.16512
484.000	0.47447	0.42771	-0.34795	0.13528
485.000	0.45668	0.44163	-0.35388	0.17706
486.000	0.45075	0.41179	-0.35190	0.18103
487.000	0.48238	0.39986	-0.36574	0.16910
488.000	0.45272	0.37599	-0.36772	0.17308
489.000	0.43098	0.41776	-0.37167	0.17904
490.000	0.46261	0.41577	-0.34399	0.25265
491.000	0.45470	0.43566	-0.37563	0.17904
492.000	0.49424	0.41577	-0.34597	0.19098
493.000	0.48435	0.42174	-0.37760	0.15318
494.000	0.47052	0.42373	-0.36179	0.15318
495.000	0.45865	0.47346	-0.37958	0.18302
496.000	0.47447	0.42970	-0.33609	0.18899
497.000	0.48435	0.46152	-0.36772	0.15119
498.000	0.47249	0.44163	-0.34993	0.19496
499.000	0.48435	0.45754	-0.38156	0.17308
500.000	0.46854	0.42771	-0.37958	0.14721
501.000	0.48435	0.42174	-0.36574	0.17308
502.000	0.47052	0.45953	-0.37760	0.15915
503.000	0.45272	0.46152	-0.37365	0.22082
504.000	0.43889	0.44362	-0.36179	0.19098
505.000	0.46261	0.43964	-0.37563	0.19894
506.000	0.45272	0.40781	-0.35190	0.20093
507.000	0.49226	0.45357	-0.35586	0.18700
508.000	0.43296	0.43567	-0.35388	0.18103
509.000	0.48435	0.45556	-0.37365	0.18501
510.000	0.45668	0.44163	-0.37760	0.18103
511.000	0.47052	0.37996	-0.38749	0.19496
512.000	0.44284	0.42373	-0.36574	0.18103
513.000	0.49028	0.42969	-0.37365	0.21087
514.000	0.48633	0.42373	-0.38156	0.16313
515.000	0.48040	0.41378	-0.36574	0.22281
516.000	0.45075	0.42373	-0.37563	0.22082
517.000	0.50412	0.42572	-0.34993	0.17109
518.000	0.48831	0.43367	-0.36969	0.18103
519.000	0.47645	0.41179	-0.38946	0.18103
520.000	0.47447	0.44561	-0.35586	0.17308
521.000	0.52389	0.44760	-0.34597	0.18700
522.000	0.52982	0.42372	-0.34993	0.16711
523.000	0.47447	0.40582	-0.38353	0.16910
524.000	0.49226	0.41378	-0.35190	0.18103
525.000	0.48633	0.46550	-0.35190	0.18302
526.000	0.48040	0.37400	-0.37760	0.15517
527.000	0.46261	0.36604	-0.34399	0.14523
528.000	0.46459	0.39588	-0.34004	0.18899
529.000	0.46656	0.42771	-0.36179	0.16313
530.000	0.48040	0.38195	-0.36772	0.19297
531.000	0.44482	0.39389	-0.34597	0.21286
532.000	0.47842	0.41378	-0.37563	0.21087
533.000	0.46261	0.39190	-0.34597	0.15517
534.000	0.49819	0.39787	-0.37167	0.18302
535.000	0.45668	0.38792	-0.35190	0.16711
536.000	0.44679	0.38195	-0.34993	0.22480
537.000	0.44679	0.39588	-0.32818	0.20690
538.000	0.44482	0.39389	-0.34597	0.23475
539.000	0.40726	0.37599	-0.37167	0.20889
540.000	0.43493	0.33222	-0.34202	0.17905
541.000	0.46261	0.33023	-0.35981	0.22480
542.000	0.40528	0.36206	-0.37563	0.17904
543.000	0.44679	0.36206	-0.37167	0.14920
544.000	0.41912	0.35610	-0.37167	0.09748
545.000	0.39539	0.33023	-0.37365	0.11538
546.000	0.45865	0.35410	-0.36376	0.16114
547.000	0.44482	0.37997	-0.36179	0.15119
548.000	0.39737	0.34416	-0.39935	0.16910
549.000	0.41121	0.34217	-0.38749	0.14920
550.000	0.41516	0.39588	-0.38551	0.13528
551.000	0.36179	0.34615	-0.39935	0.11936
552.000	0.44877	0.35808	-0.39539	0.06167
553.000	0.42505	0.35212	-0.38749	0.13329
554.000	0.45668	0.38593	-0.40528	0.10544
555.000	0.40923	0.37599	-0.43296	0.13130
556.000	0.43098	0.39787	-0.40923	0.13130
557.000	0.41319	0.42970	-0.38156	0.11340
558.000	0.41121	0.37599	-0.40330	0.11339
559.000	0.40726	0.38395	-0.42900	0.11737
560.000	0.41319	0.39588	-0.40923	0.12135
561.000	0.39539	0.37798	-0.41714	0.11936
562.000	0.39935	0.34814	-0.41319	0.11936
563.000	0.37563	0.37002	-0.42109	0.09549
564.000	0.37365	0.35809	-0.42702	0.12533
565.000	0.39144	0.40384	-0.40330	0.10942
566.000	0.40726	0.33023	-0.39737	0.10942
567.000	0.38551	0.37201	-0.42702	0.13528
568.000	0.41516	0.37997	-0.40726	0.15517
569.000	0.43296	0.38196	-0.40923	0.15119
570.000	0.43098	0.40782	-0.40528	0.13329
571.000	0.41912	0.36206	-0.41121	0.11737
572.000	0.41912	0.35013	-0.39539	0.09947
573.000	0.43691	0.33819	-0.40528	0.14920
574.000	0.41714	0.38395	-0.39539	0.14920
575.000	0.45272	0.35609	-0.41516	0.09549
576.000	0.41516	0.42174	-0.39539	0.12334
577.000	0.45668	0.38195	-0.39144	0.11936
578.000	0.43098	0.35609	-0.36574	0.16313
579.000	0.45668	0.41776	-0.37563	0.14721
580.000	0.42109	0.37599	-0.41319	0.11339
581.000	0.41516	0.35610	-0.37563	0.16711
582.000	0.42109	0.41975	-0.37958	0.11141
583.000	0.47052	0.39787	-0.37958	0.15716
584.000	0.41714	0.35411	-0.37958	0.19098
585.000	0.44877	0.36405	-0.37760	0.10743
586.000	0.38946	0.37201	-0.37563	0.18103
587.000	0.40133	0.38991	-0.35586	0.15517
588.000	0.44086	0.39190	-0.40133	0.18103
589.000	0.44482	0.38394	-0.39342	0.14324
590.000	0.46063	0.40384	-0.35586	0.16114
591.000	0.46854	0.39986	-0.34202	0.15119
592.000	0.45470	0.34018	-0.38749	0.16711
593.000	0.44482	0.40980	-0.40133	0.18501
594.000	0.45865	0.35609	-0.39737	0.14920
595.000	0.44482	0.36206	-0.34004	0.23077
596.000	0.40330	0.36803	-0.37563	0.20491
597.000	0.47249	0.39389	-0.35586	0.17308
598.000	0.42109	0.36604	-0.38353	0.17109
599.000	0.43889	0.37002	-0.34202	0.18501
600.000	0.48238	0.36604	-0.36376	0.17507
601.000	0.47447	0.39190	-0.36969	0.21087
602.000	0.44284	0.39389	-0.41912	0.16512
603.000	0.45470	0.40980	-0.36574	0.14324
604.000	0.40726	0.32228	-0.37563	0.19496
605.000	0.44679	0.38792	-0.38946	0.21286
606.000	0.44086	0.36405	-0.37760	0.19098
607.000	0.44679	0.38792	-0.38749	0.16114
608.000	0.44086	0.36803	-0.37365	0.18302
609.000	0.41319	0.36803	-0.38551	0.20491
610.000	0.44877	0.34615	-0.37958	0.20093
611.000	0.46063	0.39389	-0.38946	0.18899
612.000	0.43493	0.37798	-0.40528	0.13528
613.000	0.42505	0.36007	-0.37167	0.20292
614.000	0.43691	0.37798	-0.37365	0.18501
615.000	0.45075	0.38195	-0.35783	0.16711
616.000	0.41714	0.37400	-0.38156	0.17308
617.000	0.41319	0.36206	-0.38946	0.15119
618.000	0.39539	0.35610	-0.39539	0.20491
619.000	0.39144	0.34416	-0.40330	0.13329
620.000	0.42900	0.38394	-0.39144	0.19496
621.000	0.40528	0.36007	-0.42702	0.16910
622.000	0.41516	0.35808	-0.42505	0.12732
623.000	0.40528	0.33222	-0.37563	0.17308
624.000	0.42702	0.36803	-0.38551	0.14125
625.000	0.39935	0.36405	-0.41714	0.13727
626.000	0.44482	0.35212	-0.39935	0.11737
627.000	0.41319	0.32626	-0.37760	0.12533
628.000	0.39342	0.31034	-0.41319	0.15517
629.000	0.40133	0.33819	-0.35783	0.15716
630.000	0.38946	0.30238	-0.37958	0.14125
631.000	0.42307	0.34217	-0.40923	0.11737
632.000	0.38353	0.29642	-0.40133	0.09748
633.000	0.44482	0.34615	-0.43493	0.09151
634.000	0.40923	0.31233	-0.38353	0.09748
635.000	0.37958	0.30835	-0.39935	0.07958
636.000	0.38749	0.27851	-0.37760	0.11141
637.000	0.40923	0.27453	-0.39342	0.11936
638.000	0.41912	0.35212	-0.38353	0.14125
639.000	0.41319	0.29443	-0.37167	0.13727
640.000	0.42505	0.30437	-0.38551	0.09947
641.000	0.42307	0.31432	-0.39144	0.10345
642.000	0.46459	0.35808	-0.39737	0.10146
643.000	0.42307	0.29443	-0.39342	0.05968
644.000	0.45865	0.33421	-0.35586	0.10146
645.000	0.43098	0.33421	-0.38551	0.12533
646.000	0.40133	0.30835	-0.38749	0.10544
647.000	0.46261	0.32625	-0.34004	0.08355
648.000	0.43493	0.32228	-0.38156	0.10345
649.000	0.46854	0.31631	-0.37760	0.09748
650.000	0.45272	0.32824	-0.35981	0.10942
651.000	0.46656	0.32625	-0.37760	0.06764
652.000	0.44086	0.35013	-0.36772	0.08554
653.000	0.46063	0.34217	-0.35586	0.12135
654.000	0.46063	0.32227	-0.35783	0.11141
655.000	0.43691	0.29641	-0.38353	0.09350
656.000	0.47249	0.33819	-0.35981	0.10544
657.000	0.45075	0.33222	-0.35388	0.07958
658.000	0.43296	0.27055	-0.36969	0.12135
659.000	0.45865	0.32228	-0.36772	0.08952
660.000	0.43493	0.32427	-0.33806	0.10146
661.000	0.43098	0.34416	-0.37563	0.10345
662.000	0.43889	0.31631	-0.34597	0.11936
663.000	0.40528	0.29443	-0.36179	0.10544
664.000	0.42307	0.28050	-0.38551	0.08157
665.000	0.42307	0.30636	-0.36574	0.07560
666.000	0.46656	0.30835	-0.36969	0.11141
667.000	0.45470	0.30437	-0.38749	0.11936
668.000	0.44482	0.28050	-0.36969	0.09350
669.000	0.45075	0.31432	-0.36179	0.14125
670.000	0.44877	0.33222	-0.37167	0.11141
671.000	0.43889	0.30835	-0.35981	0.09947
672.000	0.46656	0.32029	-0.34399	0.09151
673.000	0.43889	0.28050	-0.34202	0.14125
674.000	0.41912	0.34217	-0.36376	0.11538
675.000	0.43889	0.28448	-0.36574	0.10942
676.000	0.43493	0.28846	-0.35586	0.08157
677.000	0.45865	0.30039	-0.34597	0.11340
678.000	0.44877	0.28249	-0.38946	0.13130
679.000	0.47447	0.34217	-0.35981	0.10345
680.000	0.48831	0.31233	-0.35586	0.10544
681.000	0.47645	0.30238	-0.37167	0.10146
682.000	0.43493	0.27851	-0.38551	0.07560
683.000	0.45470	0.31432	-0.37167	0.13727
684.000	0.44877	0.34018	-0.34993	0.11539
685.000	0.44086	0.30636	-0.35190	0.16114
686.000	0.43493	0.33620	-0.36969	0.10544
687.000	0.41714	0.34018	-0.36376	0.09350
688.000	0.49424	0.33023	-0.34993	0.10544
689.000	0.45865	0.33023	-0.32818	0.11141
690.000	0.48435	0.32824	-0.38353	0.10743
691.000	0.44679	0.32824	-0.35783	0.14523
692.000	0.47842	0.36405	-0.38946	0.10544
693.000	0.44877	0.32228	-0.37760	0.10544
694.000	0.44679	0.34615	-0.36179	0.11340
695.000	0.42702	0.32626	-0.38156	0.11936
696.000	0.47447	0.34416	-0.38156	0.11737
697.000	0.48633	0.33222	-0.38551	0.07560
698.000	0.44482	0.29244	-0.38551	0.10146
699.000	0.46063	0.31432	-0.36179	0.13130
700.000	0.47842	0.31631	-0.37365	0.11538
701.000	0.45075	0.33421	-0.39737	0.07560
702.000	0.50017	0.29243	-0.35388	0.13130
703.000	0.47052	0.34018	-0.36969	0.10345
704.000	0.48435	0.34217	-0.37563	0.11340
705.000	0.45865	0.31631	-0.35586	0.14920
706.000	0.50017	0.34018	-0.35190	0.17507
707.000	0.47645	0.31432	-0.34795	0.14722
708.000	0.46063	0.30636	-0.35388	0.15915
709.000	0.44086	0.30636	-0.36772	0.17109
710.000	0.41714	0.31830	-0.36376	0.17308
711.000	0.41714	0.29244	-0.36179	0.14125
712.000	0.43691	0.33222	-0.38946	0.13130
713.000	0.45668	0.31631	-0.34993	0.15318
714.000	0.46261	0.32824	-0.36574	0.14125
715.000	0.44877	0.30039	-0.36179	0.11141
716.000	0.44284	0.31233	-0.34795	0.08355
717.000	0.45668	0.33421	-0.37760	0.13727
718.000	0.43296	0.35609	-0.35190	0.18700
719.000	0.47249	0.32426	-0.38749	0.14125
720.000	0.43493	0.34416	-0.37365	0.16114
721.000	0.43493	0.30039	-0.37563	0.16711
722.000	0.49028	0.31829	-0.38156	0.19894
723.000	0.40528	0.30437	-0.41912	0.18899
724.000	0.43889	0.30835	-0.36574	0.12533
725.000	0.44679	0.31034	-0.34795	0.16910
726.000	0.42505	0.34814	-0.38353	0.18899
727.000	0.44679	0.35013	-0.36969	0.20292
728.000	0.41121	0.32427	-0.39539	0.16910
729.000	0.46656	0.34217	-0.37760	0.16114
730.000	0.49424	0.32227	-0.37167	0.15915
731.000	0.47645	0.32028	-0.36574	0.18700
732.000	0.44877	0.30636	-0.34597	0.15716
733.000	0.48040	0.34416	-0.34399	0.15318
734.000	0.45865	0.36007	-0.36772	0.18501
735.000	0.49424	0.31631	-0.36772	0.13130
736.000	0.47052	0.34217	-0.37563	0.15517
737.000	0.46854	0.34814	-0.36772	0.18700
738.000	0.48238	0.34615	-0.37958	0.16313
739.000	0.45865	0.32426	-0.37563	0.14721
740.000	0.46063	0.36007	-0.34004	0.19297
741.000	0.44679	0.37798	-0.33411	0.18104
742.000	0.48831	0.34813	-0.35190	0.14324
743.000	0.44679	0.40185	-0.34597	0.15716
744.000	0.48238	0.34813	-0.33411	0.18899
745.000	0.48831	0.34217	-0.36772	0.15119
746.000	0.45668	0.34018	-0.35190	0.20292
747.000	0.47842	0.29840	-0.36772	0.20889
748.000	0.47447	0.37201	-0.35981	0.16114
749.000	0.47645	0.32227	-0.34993	0.20093
750.000	0.49028	0.36604	-0.36376	0.18501
751.000	0.48238	0.36405	-0.34004	0.17706
752.000	0.48238	0.32625	-0.36969	0.14920
753.000	0.48831	0.31233	-0.35388	0.19894
754.000	0.51005	0.33421	-0.32225	0.23873
755.000	0.49028	0.33421	-0.36179	0.17905
756.000	0.46459	0.33620	-0.36179	0.18103
757.000	0.50412	0.35609	-0.33609	0.18302
758.000	0.51796	0.34018	-0.34993	0.17706
759.000	0.47052	0.38593	-0.36179	0.19496
760.000	0.51005	0.38394	-0.32818	0.19297
761.000	0.51203	0.38593	-0.35981	0.19297
762.000	0.46656	0.35012	-0.36574	0.16711
763.000	0.47249	0.39787	-0.37365	0.18501
764.000	0.47645	0.37002	-0.37563	0.19695
765.000	0.49028	0.37797	-0.31829	0.19496
766.000	0.44679	0.33421	-0.35783	0.19098
767.000	0.45470	0.34615	-0.35586	0.19297
768.000	0.48435	0.36206	-0.34993	0.19496
769.000	0.50017	0.37002	-0.34993	0.17109
770.000	0.50808	0.33819	-0.39144	0.21485
771.000	0.48831	0.32824	-0.38353	0.19695
772.000	0.49622	0.33023	-0.37365	0.18302
773.000	0.49028	0.32028	-0.36179	0.17308
774.000	0.49819	0.35808	-0.34399	0.17308
775.000	0.49226	0.34217	-0.35388	0.17109
776.000	0.45470	0.33819	-0.32027	0.16910
777.000	0.47447	0.31432	-0.33609	0.15716
778.000	0.46854	0.28050	-0.33806	0.18899
779.000	0.47645	0.35012	-0.32027	0.17507
780.000	0.45865	0.35410	-0.33213	0.17308
781.000	0.51994	0.34018	-0.33806	0.21088
782.000	0.49028	0.34416	-0.36574	0.19894
783.000	0.51005	0.32824	-0.36574	0.22082
784.000	0.50412	0.33819	-0.35388	0.19695
785.000	0.48040	0.32227	-0.35981	0.19894
786.000	0.46854	0.32029	-0.35586	0.14722
787.000	0.48238	0.30636	-0.35388	0.22679
788.000	0.49819	0.27453	-0.32818	0.19894
789.000	0.51005	0.28448	-0.31829	0.16313
790.000	0.51598	0.34217	-0.33806	0.20889
791.000	0.47447	0.30636	-0.34004	0.19894
792.000	0.51598	0.30238	-0.34004	0.14523
793.000	0.54564	0.34813	-0.34993	0.22679
794.000	0.49622	0.30039	-0.36376	0.15318
795.000	0.50017	0.32227	-0.33016	0.21485
796.000	0.51005	0.32625	-0.36772	0.20690
797.000	0.49028	0.34813	-0.35783	0.19297
798.000	0.49622	0.33023	-0.34597	0.19496
799.000	0.45470	0.31034	-0.33213	0.16910
800.000	0.45668	0.30039	-0.35586	0.16711
801.000	0.54564	0.31034	-0.32027	0.20292
802.000	0.51005	0.29044	-0.32225	0.19098
803.000	0.51598	0.34813	-0.32027	0.18302
804.000	0.53773	0.32227	-0.31039	0.18700
805.000	0.46854	0.32426	-0.33016	0.18104
806.000	0.52191	0.29641	-0.31434	0.17905
807.000	0.46656	0.30039	-0.30841	0.20292
808.000	0.50808	0.29044	-0.33806	0.20093
809.000	0.54959	0.35609	-0.32225	0.19695
810.000	0.53575	0.31630	-0.32027	0.20491
811.000	0.51401	0.30835	-0.33213	0.18104
812.000	0.47842	0.30835	-0.34004	0.20690
813.000	0.50610	0.32824	-0.33213	0.16512
814.000	0.50610	0.29641	-0.30446	0.19297
815.000	0.50610	0.30238	-0.33016	0.18700
816.000	0.49028	0.35410	-0.30050	0.18303
817.000	0.47645	0.31631	-0.33411	0.18899
818.000	0.51598	0.33222	-0.32225	0.16711
819.000	0.51401	0.29442	-0.32027	0.16512
820.000	0.49622	0.32824	-0.31039	0.19098
821.000	0.48633	0.31830	-0.30446	0.22281
822.000	0.50808	0.32227	-0.32422	0.21287
823.000	0.53971	0.37996	-0.30050	0.19894
824.000	0.46656	0.30039	-0.29852	0.19894
825.000	0.49226	0.31631	-0.31434	0.22281
826.000	0.52784	0.32028	-0.31039	0.24072
827.000	0.51005	0.34813	-0.34202	0.21088
828.000	0.52587	0.31630	-0.33016	0.21485
829.000	0.56738	0.33222	-0.28271	0.23276
830.000	0.51203	0.35012	-0.27678	0.22281
831.000	0.48435	0.32625	-0.28864	0.20690
832.000	0.50017	0.35410	-0.33411	0.22480
833.000	0.46656	0.35808	-0.29655	0.24271
834.000	0.51203	0.34813	-0.29062	0.25066
835.000	0.47052	0.33421	-0.30446	0.24072
836.000	0.50017	0.33023	-0.27085	0.21883
837.000	0.48435	0.32028	-0.30841	0.20093
838.000	0.53180	0.31233	-0.27282	0.26459
839.000	0.50808	0.32824	-0.25503	0.27255
840.000	0.49819	0.30636	-0.26689	0.25265
841.000	0.51203	0.33023	-0.27678	0.24470
842.000	0.51796	0.33421	-0.25701	0.20491
843.000	0.49424	0.32625	-0.29062	0.26658
844.000	0.51796	0.31829	-0.26294	0.22878
845.000	0.53575	0.34415	-0.25305	0.21486
846.000	0.48238	0.35211	-0.26294	0.22878
847.000	0.55947	0.35808	-0.26294	0.25663
848.000	0.49819	0.34217	-0.27480	0.25464
849.000	0.53575	0.31232	-0.30248	0.24669
850.000	0.52389	0.33222	-0.26096	0.23475
851.000	0.51994	0.33222	-0.27678	0.23475
852.000	0.50808	0.35211	-0.28271	0.22480
853.000	0.49819	0.31631	-0.27282	0.25663
854.000	0.52389	0.34216	-0.29259	0.23873
855.000	0.52784	0.32824	-0.25108	0.25862
856.000	0.51796	0.34217	-0.28469	0.23077
857.000	0.54168	0.35012	-0.26492	0.23475
858.000	0.47052	0.36007	-0.22142	0.23276
859.000	0.50808	0.32824	-0.27876	0.29443
860.000	0.52587	0.31829	-0.26492	0.24072
861.000	0.50215	0.30437	-0.21747	0.27454
862.000	0.52389	0.30039	-0.22340	0.26061
863.000	0.54564	0.29641	-0.27678	0.28846
864.000	0.50610	0.32227	-0.27876	0.25663
865.000	0.48238	0.29044	-0.27678	0.28846
866.000	0.50017	0.33222	-0.24712	0.26857
867.000	0.54564	0.31431	-0.26096	0.28647
868.000	0.52982	0.30437	-0.25503	0.27852
869.000	0.51598	0.31630	-0.22735	0.27653
870.000	0.51796	0.35609	-0.26887	0.27653
871.000	0.49028	0.33421	-0.25503	0.29045
872.000	0.48633	0.31830	-0.18781	0.29443
873.000	0.48040	0.33421	-0.24515	0.30239
874.000	0.52587	0.33023	-0.24910	0.25464
875.000	0.50412	0.32824	-0.24515	0.28448
876.000	0.47645	0.30835	-0.22933	0.28448
877.000	0.53180	0.30835	-0.18781	0.26459
878.000	0.50808	0.31432	-0.23526	0.28846
879.000	0.51203	0.30835	-0.24712	0.28250
880.000	0.50215	0.30039	-0.24910	0.34615
881.000	0.53971	0.31034	-0.25503	0.31631
882.000	0.50412	0.27851	-0.21945	0.30438
883.000	0.49226	0.34217	-0.25108	0.28250
884.000	0.50808	0.28647	-0.23526	0.31234
885.000	0.54564	0.31431	-0.22538	0.31631
886.000	0.57529	0.32028	-0.24515	0.28448
887.000	0.52587	0.29044	-0.24712	0.34218
888.000	0.50808	0.31233	-0.21549	0.33621
889.000	0.48633	0.32227	-0.21154	0.32029
890.000	0.51598	0.29840	-0.25108	0.32825
891.000	0.53773	0.32028	-0.26492	0.31234
892.000	0.52982	0.29044	-0.22340	0.33621
893.000	0.52982	0.29442	-0.22142	0.32029
894.000	0.56343	0.28845	-0.22340	0.29841
895.000	0.53180	0.32426	-0.20561	0.27653
896.000	0.51203	0.28845	-0.26096	0.29443
897.000	0.51203	0.29044	-0.27876	0.28448
898.000	0.51796	0.32824	-0.26096	0.28448
899.000	0.52389	0.29840	-0.22933	0.28051
900.000	0.51598	0.32227	-0.21747	0.30040
901.000	0.51796	0.31630	-0.24712	0.31830
902.000	0.51203	0.30039	-0.24910	0.29244
903.000	0.51005	0.29840	-0.26294	0.28647
904.000	0.51994	0.27055	-0.24712	0.23475
905.000	0.49622	0.26856	-0.25503	0.28448
906.000	0.50808	0.27453	-0.24317	0.27852
907.000	0.52587	0.28448	-0.22933	0.27056
908.000	0.52389	0.25265	-0.24515	0.26260
909.000	0.48633	0.27652	-0.24515	0.30040
910.000	0.49226	0.25066	-0.24119	0.28250
911.000	0.53378	0.18899	-0.24317	0.26260
912.000	0.57727	0.27254	-0.22933	0.29045
913.000	0.52784	0.24867	-0.22735	0.21486
914.000	0.51598	0.28448	-0.27085	0.31830
915.000	0.51796	0.26657	-0.22735	0.31631
916.000	0.48435	0.24668	-0.23922	0.28250
917.000	0.52587	0.27652	-0.23526	0.29443
918.000	0.49819	0.24867	-0.23922	0.28448
919.000	0.49622	0.23673	-0.22933	0.27056
920.000	0.54366	0.30238	-0.27678	0.28647
921.000	0.53971	0.25861	-0.23329	0.27056
922.000	0.51203	0.24270	-0.23922	0.30438
923.000	0.51203	0.24867	-0.26492	0.29244
924.000	0.53773	0.28249	-0.24910	0.28647
925.000	0.48435	0.25663	-0.22340	0.24072
926.000	0.49622	0.26458	-0.21945	0.29045
927.000	0.50017	0.24071	-0.21945	0.26061
928.000	0.51005	0.27055	-0.23329	0.29244
929.000	0.50215	0.24867	-0.24119	0.25265
930.000	0.51994	0.26458	-0.22538	0.31830
931.000	0.53575	0.29442	-0.22933	0.26658
932.000	0.49622	0.27453	-0.22735	0.30836
933.000	0.51203	0.30039	-0.24317	0.23674
934.000	0.52587	0.28249	-0.24119	0.30637
935.000	0.51796	0.25861	-0.22933	0.31035
936.000	0.53773	0.28646	-0.23526	0.26857
937.000	0.52982	0.27851	-0.23329	0.27255
938.000	0.50808	0.25663	-0.21945	0.25067
939.000	0.53773	0.26060	-0.20758	0.32626
940.000	0.52784	0.31034	-0.19770	0.33621
941.000	0.52982	0.27453	-0.19375	0.28846
942.000	0.49622	0.26657	-0.22538	0.28448
943.000	0.52389	0.27055	-0.21352	0.30637
944.000	0.53773	0.28050	-0.17991	0.27653
945.000	0.51598	0.26060	-0.18386	0.27852
946.000	0.55750	0.32625	-0.17002	0.28449
947.000	0.52982	0.25861	-0.18188	0.29642
948.000	0.53773	0.29641	-0.19572	0.33621
949.000	0.54959	0.29044	-0.19375	0.28449
950.000	0.55354	0.31431	-0.21352	0.28449
951.000	0.52389	0.27851	-0.19375	0.24868
952.000	0.51598	0.24270	-0.21352	0.24669
953.000	0.55552	0.27254	-0.17200	0.26857
954.000	0.54366	0.28845	-0.15025	0.35212
955.000	0.54564	0.29243	-0.15025	0.26857
956.000	0.51005	0.28448	-0.15025	0.27852
957.000	0.53378	0.29641	-0.18386	0.28250
958.000	0.55552	0.26657	-0.15816	0.28051
959.000	0.56145	0.27055	-0.19572	0.31035
960.000	0.56145	0.29243	-0.16211	0.32626
961.000	0.56343	0.27453	-0.16211	0.28051
962.000	0.52784	0.30238	-0.17595	0.27653
963.000	0.58320	0.29840	-0.17398	0.30637
964.000	0.52982	0.29641	-0.18188	0.25663
965.000	0.52784	0.29243	-0.16804	0.29642
966.000	0.56145	0.25463	-0.18781	0.30239
967.000	0.52784	0.30039	-0.13048	0.34019
968.000	0.55354	0.24668	-0.21747	0.32626
969.000	0.54761	0.26259	-0.20165	0.32626
970.000	0.52587	0.25662	-0.17793	0.29841
971.000	0.52982	0.25861	-0.17200	0.33223
972.000	0.51796	0.25066	-0.17595	0.26857
973.000	0.52982	0.27851	-0.14037	0.32825
974.000	0.54366	0.27453	-0.18979	0.29045
975.000	0.55354	0.26856	-0.21747	0.30239
976.000	0.54168	0.25861	-0.15618	0.28250
977.000	0.55947	0.26856	-0.16804	0.28846
978.000	0.51203	0.24867	-0.19968	0.27056
979.000	0.56145	0.25066	-0.17200	0.28648
980.000	0.54761	0.24469	-0.16211	0.30040
981.000	0.55552	0.24469	-0.17793	0.32626
982.000	0.55157	0.27453	-0.16607	0.32029
983.000	0.53971	0.21883	-0.21154	0.26857
984.000	0.56145	0.24867	-0.17595	0.29045
985.000	0.55157	0.25265	-0.17793	0.29642
986.000	0.54959	0.25662	-0.15025	0.25663
987.000	0.55750	0.20888	-0.16607	0.30040
988.000	0.53971	0.25066	-0.19177	0.25067
989.000	0.51994	0.25861	-0.15618	0.27454
990.000	0.57727	0.25264	-0.17200	0.27454
991.000	0.54564	0.22877	-0.16607	0.30040
992.000	0.56145	0.23673	-0.14037	0.30040
993.000	0.52784	0.27453	-0.19572	0.26459
994.000	0.57924	0.30437	-0.17595	0.32825
995.000	0.55750	0.28050	-0.17200	0.31035
996.000	0.55552	0.24867	-0.17595	0.32626
997.000	0.56343	0.27652	-0.16409	0.27852
998.000	0.56738	0.28845	-0.15421	0.31035
999.000	0.55947	0.24469	-0.13839	0.28449
1000.000	0.54564	0.25662	-0.15025	0.29443
1001.000	0.57529	0.28447	-0.16804	0.29841
1002.000	0.51598	0.27851	-0.11467	0.28847
1003.000	0.55750	0.25662	-0.17595	0.26260
1004.000	0.55947	0.27254	-0.18584	0.30438
1005.000	0.51598	0.24469	-0.15025	0.29841
1006.000	0.52191	0.30039	-0.10478	0.28648
1007.000	0.51203	0.26060	-0.16804	0.25862
1008.000	0.52587	0.26060	-0.15025	0.26061
1009.000	0.53575	0.27055	-0.17200	0.31234
1010.000	0.52784	0.25662	-0.18781	0.24271
1011.000	0.51401	0.24270	-0.15618	0.27454
1012.000	0.49819	0.20888	-0.19572	0.23475
1013.000	0.52982	0.24469	-0.17793	0.27454
1014.000	0.52191	0.23474	-0.14827	0.27255
1015.000	0.52587	0.21485	-0.16409	0.26658
1016.000	0.50412	0.23673	-0.14037	0.27454
1017.000	0.50412	0.20888	-0.17002	0.28846
1018.000	0.51401	0.25066	-0.17200	0.23276
1019.000	0.51598	0.21485	-0.15025	0.26658
1020.000	0.51598	0.21286	-0.15421	0.23873
1021.000	0.57133	0.22877	-0.16211	0.25862
1022.000	0.52784	0.19098	-0.17200	0.33422
1023.000	0.52982	0.21087	-0.14432	0.27255
1024.000	0.54959	0.21087	-0.18584	0.24868
1025.000	0.51796	0.22281	-0.15618	0.25862
1026.000	0.52784	0.23474	-0.19177	0.28449
1027.000	0.53971	0.23474	-0.15421	0.23674
1028.000	0.50412	0.23673	-0.14432	0.22083
1029.000	0.52587	0.23076	-0.15223	0.30040
1030.000	0.52389	0.25464	-0.15816	0.26061
1031.000	0.51994	0.28448	-0.12850	0.23674
1032.000	0.53575	0.21485	-0.15421	0.27056
1033.000	0.52587	0.22281	-0.17002	0.26061
1034.000	0.53773	0.23275	-0.15816	0.27454
1035.000	0.52982	0.23474	-0.15618	0.25862
1036.000	0.53971	0.23275	-0.14037	0.28449
1037.000	0.57529	0.24071	-0.21154	0.26061
1038.000	0.53575	0.23474	-0.19968	0.28051
1039.000	0.54959	0.23673	-0.18188	0.27255
1040.000	0.55354	0.21485	-0.17398	0.25067
1041.000	0.55947	0.25066	-0.15816	0.26857
1042.000	0.55552	0.21087	-0.20956	0.28051
1043.000	0.56145	0.23275	-0.18781	0.27454
1044.000	0.50412	0.19695	-0.13641	0.26260
1045.000	0.54168	0.18700	-0.18781	0.28449
1046.000	0.56540	0.23076	-0.16014	0.31433
1047.000	0.55947	0.18501	-0.16409	0.29045
1048.000	0.52982	0.20888	-0.13444	0.26658
1049.000	0.54761	0.21485	-0.16804	0.29443
1050.000	0.54761	0.24469	-0.14037	0.30040
1051.000	0.61087	0.24866	-0.14234	0.32427
1052.000	0.51598	0.22877	-0.17595	0.27255
1053.000	0.53971	0.25662	-0.18188	0.30836
1054.000	0.57727	0.24469	-0.13048	0.29045
1055.000	0.54366	0.20888	-0.14827	0.30239
1056.000	0.58320	0.23275	-0.12653	0.28847
1057.000	0.55157	0.23275	-0.17002	0.27852
1058.000	0.57727	0.22280	-0.15223	0.21685
1059.000	0.59703	0.25861	-0.12850	0.26658
1060.000	0.55947	0.26060	-0.13641	0.26061
1061.000	0.55354	0.24668	-0.12850	0.25266
1062.000	0.56540	0.24071	-0.18584	0.26857
1063.000	0.57331	0.28248	-0.12653	0.29642
1064.000	0.58320	0.25463	-0.15025	0.27056
1065.000	0.54761	0.25265	-0.16409	0.25266
1066.000	0.56343	0.27652	-0.17200	0.22083
1067.000	0.55354	0.26458	-0.17200	0.21486
1068.000	0.53971	0.25463	-0.14630	0.24669
1069.000	0.52389	0.20888	-0.13641	0.23475
1070.000	0.56145	0.19098	-0.15816	0.23674
1071.000	0.56145	0.20888	-0.15421	0.24072
1072.000	0.56738	0.23076	-0.15025	0.24868
1073.000	0.55157	0.22281	-0.12850	0.22878
1074.000	0.54761	0.20689	-0.15421	0.29045
1075.000	0.58517	0.22678	-0.16804	0.21287
1076.000	0.61878	0.19495	-0.15421	0.26658
1077.000	0.56540	0.22082	-0.14234	0.24669
1078.000	0.57529	0.26856	-0.14827	0.23077
1079.000	0.53971	0.18501	-0.15816	0.26658
1080.000	0.57529	0.23673	-0.16607	0.25663
1081.000	0.55157	0.24270	-0.14827	0.23674
1082.000	0.58715	0.26060	-0.13839	0.26459
1083.000	0.58913	0.24071	-0.14234	0.28051
1084.000	0.55750	0.21883	-0.14827	0.25067
1085.000	0.60692	0.25861	-0.14432	0.29045
1086.000	0.60889	0.24469	-0.11862	0.29443
1087.000	0.57924	0.24668	-0.12653	0.30836
1088.000	0.58517	0.24071	-0.13048	0.30836
1089.000	0.61680	0.22877	-0.13839	0.31234
1090.000	0.58715	0.25861	-0.14037	0.27056
1091.000	0.59506	0.25463	-0.10676	0.25266
1092.000	0.58913	0.27850	-0.13444	0.27056
1093.000	0.61482	0.27850	-0.15618	0.27852
1094.000	0.60889	0.28646	-0.13444	0.32825
1095.000	0.61087	0.26458	-0.11467	0.28051
1096.000	0.61680	0.29243	-0.14037	0.28648
1097.000	0.59308	0.27254	-0.12850	0.32626
1098.000	0.55354	0.27055	-0.11862	0.30239
1099.000	0.63855	0.32624	-0.11467	0.30438
1100.000	0.62273	0.33221	-0.10874	0.33820
1101.000	0.60494	0.27254	-0.10280	0.31035
1102.000	0.62273	0.27850	-0.10478	0.28051
1103.000	0.63262	0.26259	-0.13048	0.27653
1104.000	0.59110	0.29840	-0.10478	0.24470
1105.000	0.60494	0.22877	-0.11664	0.28847
1106.000	0.60494	0.28646	-0.11467	0.31831
1107.000	0.62273	0.25463	-0.13048	0.24868
1108.000	0.64448	0.28646	-0.14630	0.29045
1109.000	0.61680	0.26856	-0.13048	0.27255
1110.000	0.61087	0.29442	-0.12653	0.28250
1111.000	0.60889	0.29641	-0.11269	0.25465
1112.000	0.60889	0.29840	-0.11664	0.32825
1113.000	0.60889	0.29243	-0.16014	0.32825
1114.000	0.59703	0.31630	-0.13839	0.28449
1115.000	0.63064	0.31033	-0.10280	0.28051
1116.000	0.61285	0.30039	-0.12060	0.28847
1117.000	0.63064	0.31232	-0.11467	0.25862
1118.000	0.60296	0.28447	-0.10478	0.24072
1119.000	0.65041	0.26259	-0.12060	0.23873
1120.000	0.64250	0.31431	-0.14432	0.24470
1121.000	0.57924	0.29044	-0.10280	0.25067
1122.000	0.58715	0.28845	-0.12257	0.16512
1123.000	0.59308	0.25662	-0.12850	0.17308
1124.000	0.61680	0.27055	-0.10676	0.17109
1125.000	0.59901	0.26060	-0.10280	0.22282
1126.000	0.59506	0.25065	-0.11467	0.17905
1127.000	0.58517	0.26060	-0.14234	0.17905
1128.000	0.57133	0.24270	-0.10874	0.19496
1129.000	0.57727	0.24071	-0.12455	0.19297
1130.000	0.58517	0.26458	-0.11862	0.18502
1131.000	0.56936	0.23673	-0.14037	0.17308
1132.000	0.60494	0.20490	-0.08303	0.22083
1133.000	0.60494	0.26259	-0.11467	0.21884
1134.000	0.61087	0.22081	-0.14630	0.19695
1135.000	0.57924	0.21883	-0.11862	0.15716
1136.000	0.56343	0.23076	-0.15816	0.17905
1137.000	0.60296	0.26657	-0.13444	0.18502
1138.000	0.59308	0.23275	-0.13048	0.21287
1139.000	0.56936	0.26259	-0.12850	0.17507
1140.000	0.57727	0.23872	-0.15816	0.23475
1141.000	0.57924	0.28447	-0.11862	0.13528
1142.000	0.58122	0.25065	-0.11664	0.18104
1143.000	0.56738	0.23872	-0.10676	0.17507
1144.000	0.59901	0.24071	-0.14630	0.16114
1145.000	0.57924	0.25662	-0.11862	0.16711
1146.000	0.62075	0.25264	-0.12257	0.13926
1147.000	0.60296	0.24866	-0.13048	0.18502
1148.000	0.59308	0.30238	-0.15618	0.13528
1149.000	0.58320	0.26856	-0.14630	0.14324
1150.000	0.61285	0.25463	-0.11269	0.18502
1151.000	0.57529	0.26458	-0.15025	0.18502
1152.000	0.56540	0.27453	-0.15025	0.19297
1153.000	0.59901	0.23474	-0.11467	0.17109
1154.000	0.57529	0.26657	-0.09094	0.19297
1155.000	0.57529	0.24469	-0.14234	0.22878
1156.000	0.58715	0.23076	-0.08897	0.17507
1157.000	0.59308	0.26856	-0.11071	0.20093
1158.000	0.57529	0.23076	-0.11071	0.20690
1159.000	0.58320	0.26458	-0.11071	0.20292
1160.000	0.61087	0.27254	-0.12257	0.20491
1161.000	0.54959	0.25265	-0.12455	0.19098
1162.000	0.57924	0.22877	-0.13641	0.20292
1163.000	0.54366	0.22678	-0.11467	0.19098
1164.000	0.54959	0.27254	-0.07315	0.18303
1165.000	0.57924	0.26657	-0.12060	0.20690
1166.000	0.59506	0.25065	-0.11071	0.17308
1167.000	0.58122	0.24270	-0.10478	0.13528
1168.000	0.56936	0.29044	-0.09490	0.16313
1169.000	0.59506	0.26657	-0.06920	0.22481
1170.000	0.56936	0.23872	-0.10083	0.19695
1171.000	0.52587	0.25265	-0.07117	0.16512
1172.000	0.54761	0.24270	-0.12455	0.17706
1173.000	0.56936	0.29044	-0.12455	0.19098
1174.000	0.56343	0.27453	-0.10874	0.19098
1175.000	0.58320	0.25264	-0.10280	0.20889
1176.000	0.54366	0.21684	-0.11467	0.16313
1177.000	0.58715	0.25662	-0.10280	0.18900
1178.000	0.53575	0.24270	-0.06524	0.20292
1179.000	0.56540	0.23673	-0.09885	0.17905
1180.000	0.53180	0.22082	-0.07908	0.20093
1181.000	0.54564	0.26060	-0.11269	0.15120
1182.000	0.55157	0.22082	-0.07908	0.22282
1183.000	0.57727	0.23872	-0.06326	0.17706
1184.000	0.55947	0.24668	-0.10478	0.16711
1185.000	0.59308	0.24866	-0.09292	0.18900
1186.000	0.57133	0.22877	-0.07315	0.18502
1187.000	0.58913	0.23275	-0.09292	0.18502
1188.000	0.56145	0.25861	-0.10676	0.17905
1189.000	0.55947	0.23474	-0.10676	0.19496
1190.000	0.59506	0.22081	-0.09094	0.14921
1191.000	0.56343	0.25463	-0.10478	0.20491
1192.000	0.59110	0.22280	-0.08699	0.16711
1193.000	0.59308	0.24866	-0.06524	0.16114
1194.000	0.54761	0.25066	-0.09490	0.17308
1195.000	0.56738	0.25066	-0.09292	0.17109
1196.000	0.54564	0.20490	-0.06722	0.21088
1197.000	0.53773	0.23872	-0.05931	0.17706
1198.000	0.57727	0.26856	-0.03163	0.21486
1199.000	0.55354	0.25861	-0.05931	0.19297
1200.000	0.54761	0.25662	-0.06524	0.23475
1201.000	0.58517	0.26856	-0.07117	0.19695
1202.000	0.56145	0.26259	-0.06524	0.20889
1203.000	0.58122	0.29641	-0.04547	0.19297
1204.000	0.56145	0.23275	-0.07117	0.23077
1205.000	0.60494	0.26259	-0.07117	0.17308
1206.000	0.58320	0.23872	-0.04943	0.20292
1207.000	0.59506	0.25861	-0.09885	0.21685
1208.000	0.60099	0.27453	-0.06326	0.22679
1209.000	0.57331	0.23673	-0.06524	0.21088
1210.000	0.56540	0.25066	-0.04943	0.23276
1211.000	0.55552	0.29044	-0.06524	0.26857
1212.000	0.55354	0.29840	-0.07315	0.25465
1213.000	0.56936	0.26657	-0.09292	0.21088
1214.000	0.57529	0.30635	-0.06326	0.23674
1215.000	0.57727	0.32426	-0.07513	0.22878
1216.000	0.56343	0.27055	-0.08106	0.24271
1217.000	0.53773	0.30039	-0.07513	0.24868
1218.000	0.55157	0.32028	-0.06722	0.23475
1219.000	0.57727	0.29442	-0.04745	0.27056
1220.000	0.58320	0.34017	-0.06129	0.24669
1221.000	0.54168	0.30636	-0.07710	0.23276
1222.000	0.56540	0.30238	-0.07710	0.26857
1223.000	0.57133	0.27453	-0.04745	0.26260
1224.000	0.59506	0.32625	-0.06722	0.20690
1225.000	0.63459	0.36603	-0.07315	0.23873
1226.000	0.58913	0.32824	-0.05931	0.22878
1227.000	0.58517	0.35808	-0.05931	0.27255
1228.000	0.58913	0.37001	-0.06326	0.26061
1229.000	0.60099	0.35211	-0.06326	0.24470
1230.000	0.57727	0.31630	-0.04745	0.27056
1231.000	0.63262	0.33619	-0.05733	0.24868
1232.000	0.57727	0.33818	-0.06722	0.26658
1233.000	0.57924	0.36205	-0.08303	0.28847
1234.000	0.59703	0.30635	-0.07315	0.27454
1235.000	0.57727	0.32426	-0.04547	0.28847
1236.000	0.59703	0.30238	-0.05733	0.23475
1237.000	0.62075	0.30635	-0.05733	0.23674
1238.000	0.60692	0.32227	-0.06326	0.27653
1239.000	0.57924	0.33420	-0.00395	0.26260
1240.000	0.56540	0.31431	-0.01186	0.29244
1241.000	0.61482	0.29044	-0.03361	0.33223
1242.000	0.59308	0.28646	-0.04943	0.31035
1243.000	0.61482	0.31630	-0.04547	0.30637
1244.000	0.57727	0.32625	-0.03361	0.30637
1245.000	0.60692	0.30436	-0.03756	0.34616
1246.000	0.61087	0.30635	-0.01779	0.35213
1247.000	0.60889	0.31829	-0.02768	0.28648
1248.000	0.58320	0.30834	-0.04745	0.32626
1249.000	0.58320	0.33619	-0.01582	0.27454
1250.000	0.59901	0.31829	-0.05338	0.23077
1251.000	0.62866	0.44560	-0.08699	0.20690
1252.000	0.54959	0.43765	-0.17200	0.20093
1253.000	0.40133	0.53911	-0.28666	0.33422
1254.000	0.21747	0.57492	-0.35190	0.37002
1255.000	0.07315	0.55106	-0.49622	0.38991
1256.000	-0.14234	0.54111	-0.63657	0.47146
1257.000	-0.24910	0.63062	-0.83621	0.46945
1258.000	-0.42900	0.71813	-0.97457	0.49926
1259.000	-0.62668	0.77778	-1.16825	0.52907
1260.000	-0.79075	0.83145	-1.31645	0.58472
1261.000	-0.98050	0.81748	-1.48045	0.68808
1262.000	-1.17615	0.76374	-1.55354	0.73777
1263.000	-1.27693	0.81342	-1.67997	0.76755
1264.000	-1.36783	0.82731	-1.76688	0.83710
1265.000	-1.46069	0.85909	-1.83403	0.84700
1266.000	-1.52193	0.87299	-1.91698	0.89666
1267.000	-1.59700	0.84711	-2.02558	0.84890
1268.000	-1.59700	0.82524	-2.05915	0.92441
1269.000	-1.62269	0.84511	-2.09271	0.94029
1270.000	-1.63256	0.79540	-2.12825	0.94027
1271.000	-1.59305	0.81331	-2.14997	0.98597
1272.000	-1.60096	0.87494	-2.14207	0.98399
1273.000	-1.55552	0.88490	-2.12233	1.03567
1274.000	-1.52589	0.84515	-2.12430	0.97009
1275.000	-1.44686	0.86506	-2.10259	0.98202
1276.000	-1.37771	0.88100	-2.02361	0.99400
1277.000	-1.27298	0.91086	-1.94857	1.00001
1278.000	-1.24334	0.84724	-1.87353	0.97222
1279.000	-1.21172	0.78958	-1.78071	0.95836
1280.000	-1.10698	0.85126	-1.75503	0.92656
1281.000	-1.09710	0.83137	-1.73528	0.91266
1282.000	-1.04769	0.80553	-1.70960	0.87887
1283.000	-1.01410	0.86123	-1.68985	0.84707
1284.000	-1.03979	0.82940	-1.69972	0.83116
1285.000	-0.99829	0.82742	-1.70170	0.84110
1286.000	-1.08129	0.79160	-1.76491	0.80926
1287.000	-1.08327	0.82342	-1.76095	0.81324
1288.000	-1.06351	0.75979	-1.76491	0.83710
1289.000	-1.07339	0.86718	-1.80243	0.78738
1290.000	-1.08524	0.89104	-1.83601	0.82514
1291.000	-1.09710	0.83734	-1.84391	0.83308
1292.000	-1.10303	0.87114	-1.81823	0.85496
1293.000	-1.14058	0.83335	-1.85378	0.80525
1294.000	-1.14848	0.84926	-1.87551	0.81717
1295.000	-1.17022	0.87510	-1.85971	0.81121
1296.000	-1.17615	0.90890	-1.87353	0.83506
1297.000	-1.18208	0.89299	-1.88933	0.81716
1298.000	-1.21370	0.90889	-1.87946	0.81915
1299.000	-1.18603	0.88106	-1.94660	0.80918
1300.000	-1.25124	0.89098	-1.92290	0.83702
1301.000	-1.23544	0.89298	-1.91105	0.83902
1302.000	-1.24729	0.87905	-1.93672	0.83105
1303.000	-1.23939	0.90491	-1.92883	0.84895
1304.000	-1.25520	0.89098	-1.96635	0.84694
1305.000	-1.22753	0.88304	-1.99991	0.84692
1306.000	-1.25915	0.87308	-1.99597	0.84096
1307.000	-1.20975	0.85719	-1.98609	0.82904
1308.000	-1.23346	0.89894	-1.93475	0.88075
1309.000	-1.12872	0.89500	-1.95055	0.85490
1310.000	-1.18406	0.87907	-1.88933	0.90065
1311.000	-1.17813	0.87112	-1.94857	0.90261
1312.000	-1.14058	0.89500	-1.93080	0.95430
1313.000	-1.13860	0.92284	-1.91303	0.92648
1314.000	-1.10106	0.92086	-1.93870	0.92050
1315.000	-1.12675	0.91091	-1.92685	0.92448
1316.000	-1.10698	0.91688	-1.96240	0.88272
1317.000	-1.13860	0.87113	-1.90908	0.93245
1318.000	-1.11094	0.88307	-1.90118	0.93643
1319.000	-1.12872	0.91489	-1.92290	0.91455
1320.000	-1.15441	0.90493	-1.92093	0.89666
1321.000	-1.12477	0.92085	-1.90710	0.91257
1322.000	-1.07734	0.91092	-1.89723	0.88276
1323.000	-1.07141	0.97655	-1.88143	0.91258
1324.000	-1.08920	0.92285	-1.91303	0.89666
1325.000	-1.11489	0.94671	-1.92685	0.91057
1326.000	-1.02595	1.01434	-1.92093	0.89467
1327.000	-1.08524	0.91888	-1.91895	0.86883
1328.000	-1.11291	0.95267	-1.92290	0.87877
1329.000	-1.09513	0.97853	-1.95252	0.88273
1330.000	-1.11094	0.98847	-1.93870	0.87876
1331.000	-1.05362	0.97655	-1.96240	0.91850
1332.000	-1.09710	0.98648	-1.95055	0.88273
1333.000	-1.07932	1.00438	-1.92685	0.90262
1334.000	-1.08327	1.01234	-1.94462	0.90062
1335.000	-1.05560	1.01433	-1.93080	0.88274
1336.000	-1.09315	1.01233	-1.94067	0.91653
1337.000	-1.06746	0.96462	-1.94462	0.91454
1338.000	-1.08524	1.00836	-1.94265	0.85888
1339.000	-1.03386	1.02627	-1.95252	0.89068
1340.000	-1.05758	1.00439	-1.91303	0.94238
1341.000	-1.03979	0.99247	-1.91895	0.94635
1342.000	-1.09513	0.98052	-1.91500	0.94238
1343.000	-1.02793	0.99247	-1.93080	0.92249
1344.000	-1.10303	0.99443	-1.92883	0.88473
1345.000	-1.11291	0.99443	-1.91895	0.96424
1346.000	-1.08129	1.01035	-1.93870	0.91851
1347.000	-1.09710	1.03222	-1.91500	0.90263
1348.000	-1.03979	1.04814	-1.90315	0.90859
1349.000	-1.09117	0.97654	-1.92093	0.93443
1350.000	-1.07536	0.99245	-1.90315	0.98016
1351.000	-1.08920	1.00836	-1.88341	0.94637
1352.000	-1.07734	1.00836	-1.87156	0.98216
1353.000	-1.01607	1.02429	-1.87946	0.95035
1354.000	-1.07141	1.00638	-1.88538	1.02191
1355.000	-1.04374	1.04019	-1.95845	0.94633
1356.000	-1.03979	1.02826	-1.94265	0.92050
1357.000	-1.01805	1.07002	-1.95647	0.89863
1358.000	-1.03781	1.05013	-1.90908	0.97816
1359.000	-1.05165	1.04814	-1.91500	0.91853
1360.000	-1.02003	1.04616	-1.91895	0.95033
1361.000	-1.03386	1.00838	-1.95647	0.94037
1362.000	-1.02200	1.03821	-1.90118	0.96624
1363.000	-1.00817	1.10184	-1.94265	0.96821
1364.000	-1.07536	1.04614	-1.89920	0.99208
1365.000	-1.01410	1.02429	-1.90513	0.97022
1366.000	-1.03386	1.01434	-1.93672	0.97219
1367.000	-1.02991	1.03025	-1.90118	0.99606
1368.000	-1.03188	1.03224	-1.93672	0.93442
1369.000	-1.06153	1.03422	-1.89525	1.00401
1370.000	-1.03188	1.04616	-1.91105	0.96822
1371.000	-1.03188	1.07598	-1.91698	0.99804
1372.000	-1.02595	1.05213	-1.91895	0.99605
1373.000	-1.03584	1.05809	-1.90908	1.01593
1374.000	-1.04177	1.02428	-1.92883	0.96821
1375.000	-1.06153	1.06007	-1.93080	0.96623
1376.000	-1.00817	1.08792	-1.92093	0.98611
1377.000	-1.01212	1.07400	-1.94660	0.99802
1378.000	-1.00817	1.08991	-1.95450	0.95627
1379.000	-1.03188	1.04417	-1.89130	0.99209
1380.000	-1.01805	1.05809	-1.92685	0.93442
1381.000	-1.02003	1.07201	-1.94067	0.96224
1382.000	-1.06548	1.04615	-1.94660	0.98411
1383.000	-0.96864	1.06209	-1.95450	0.92447
1384.000	-1.00421	1.00839	-1.94265	0.98013
1385.000	-1.05955	1.03621	-1.97227	0.93837
1386.000	-1.00619	1.03225	-1.96042	0.96422
1387.000	-1.01014	1.02230	-1.90908	0.99407
1388.000	-0.96666	1.03624	-1.91500	1.01394
1389.000	-1.01607	1.03423	-1.93080	1.01989
1390.000	-0.98247	1.07202	-1.92685	0.96424
1391.000	-0.99038	1.04219	-1.92883	0.96623
1392.000	-0.92911	1.07999	-1.90908	0.97419
1393.000	-0.99631	1.04816	-1.95055	0.97019
1394.000	-0.95876	1.08197	-1.93475	1.00797
1395.000	-0.98445	1.10583	-1.93278	0.99207
1396.000	-1.00421	1.02429	-1.94067	0.94833
1397.000	-1.01805	1.04417	-1.93475	1.00995
1398.000	-0.95480	1.09391	-1.96437	0.99801
1399.000	-0.92911	1.08994	-1.92093	0.99207
1400.000	-0.98840	1.05015	-1.92685	0.97815
1401.000	-0.97457	1.06407	-1.91895	0.96822
1402.000	-0.91923	1.11181	-1.95845	0.96223
1403.000	-0.94097	1.09391	-1.93672	0.99206
1404.000	-0.98247	1.12173	-1.91105	1.01991
1405.000	-0.97062	1.06805	-1.92093	0.99605
1406.000	-0.95283	1.05811	-1.91895	0.95033
1407.000	-0.96666	1.05612	-1.92290	1.02189
1408.000	-0.95480	1.11180	-1.91105	1.02189
1409.000	-0.96271	1.08396	-1.90710	1.00202
1410.000	-0.96073	1.09788	-1.92093	1.01592
1411.000	-0.96073	1.09390	-1.93672	1.00200
1412.000	-0.99038	1.05810	-1.90710	1.03183
1413.000	-0.94690	1.12771	-1.89920	1.01196
1414.000	-0.97457	1.08595	-1.88341	0.99607
1415.000	-0.97852	1.06208	-1.92290	1.00598
1416.000	-0.98643	1.06407	-1.91303	0.96226
1417.000	-0.98445	1.05612	-1.88933	0.96625
1418.000	-1.01212	1.01634	-1.88538	0.99010
1419.000	-0.94887	1.10186	-1.92488	0.96225
1420.000	-0.96469	1.06408	-1.91303	0.91853
1421.000	-1.01607	1.05213	-1.90908	0.92052
1422.000	-0.93504	1.09192	-1.90118	0.88872
1423.000	-0.94097	1.06408	-1.94265	0.90062
1424.000	-0.99829	1.08793	-1.90710	0.93443
1425.000	-0.97457	1.09390	-1.91500	0.91654
1426.000	-1.00421	1.09588	-1.91500	0.90461
1427.000	-0.98840	1.03026	-1.91303	0.88672
1428.000	-0.93899	1.11578	-1.94067	0.89267
1429.000	-0.93504	1.10783	-1.89723	0.86288
1430.000	-0.95678	1.07601	-1.94067	0.84298
1431.000	-0.93306	1.11181	-1.92685	0.89467
1432.000	-0.97654	1.08396	-1.95055	0.89267
1433.000	-0.98643	1.12571	-1.95252	0.87279
1434.000	-0.98840	1.11179	-1.92883	0.85292
1435.000	-1.02991	1.10382	-1.93870	0.84695
1436.000	-0.94887	1.11976	-1.91698	0.86883
1437.000	-0.95876	1.11777	-1.88933	0.88674
1438.000	-0.92318	1.11778	-1.93475	0.86882
1439.000	-0.96864	1.12770	-1.89723	0.88673
1440.000	-0.93504	1.16351	-1.91500	0.84895
1441.000	-1.01212	1.08593	-1.91303	0.85094
1442.000	-0.95283	1.10385	-1.96042	0.88272
1443.000	-0.97062	1.12174	-1.90908	0.85691
1444.000	-0.99038	1.05810	-1.91895	0.87479
1445.000	-0.95085	1.11578	-1.93080	0.85292
1446.000	-0.98445	1.06805	-1.94660	0.90261
1447.000	-0.97062	1.10583	-1.92488	0.91653
1448.000	-0.97062	1.08794	-1.89920	0.91456
1449.000	-0.91725	1.16152	-1.91500	0.92052
1450.000	-0.97062	1.09788	-1.90513	0.92450
1451.000	-0.95678	1.09987	-1.98214	0.89861
1452.000	-0.98445	1.10583	-1.94660	0.93441
1453.000	-0.99038	1.08196	-1.95450	0.88869
1454.000	-0.93109	1.10187	-1.93870	0.93640
1455.000	-0.99829	1.07202	-1.91303	0.91455
1456.000	-1.00619	1.06605	-1.92685	0.92250
1457.000	-0.97457	1.11577	-1.94462	0.90261
1458.000	-0.98445	1.06208	-1.95055	0.89664
1459.000	-0.95876	1.09788	-1.92488	0.90063
1460.000	-0.97852	1.06208	-1.93475	0.94237
1461.000	-0.98247	1.06208	-1.97227	0.83700
1462.000	-0.97457	1.10185	-1.90710	0.94835
1463.000	-0.96073	1.09192	-1.93870	0.88870
1464.000	-0.99236	1.06804	-1.95450	0.92248
1465.000	-0.96469	1.06408	-1.93080	0.86485
1466.000	-0.98445	1.06805	-1.92488	0.88473
1467.000	-0.96469	1.12572	-1.94067	0.86286
1468.000	-0.96469	1.10782	-1.92488	0.91653
1469.000	-0.92713	1.11181	-1.94857	0.92050
1470.000	-0.95480	1.12174	-1.92488	0.88274
1471.000	-0.96271	1.13765	-1.94462	0.87478
1472.000	-0.88167	1.13370	-1.98412	0.86681
1473.000	-0.92318	1.09590	-1.97424	0.92247
1474.000	-0.95283	1.12373	-1.98609	0.88271
1475.000	-0.93702	1.11380	-1.96240	0.93440
1476.000	-0.91330	1.13170	-1.98412	0.86283
1477.000	-0.92318	1.11976	-2.01374	0.85288
1478.000	-0.91132	1.16351	-1.99399	0.84693
1479.000	-0.89353	1.13966	-1.98412	0.89662
1480.000	-0.93306	1.10187	-1.95647	0.92646
1481.000	-0.94887	1.12373	-1.98807	0.89066
1482.000	-0.97852	1.10384	-1.98412	0.92843
1483.000	-0.94295	1.09391	-1.98214	0.91650
1484.000	-0.94690	1.10186	-1.99794	0.91252
1485.000	-0.94690	1.04420	-1.94462	0.89267
1486.000	-0.93306	1.11777	-1.99004	0.91650
1487.000	-0.96271	1.11578	-1.93672	0.92845
1488.000	-0.94295	1.07800	-1.97424	0.92048
1489.000	-0.92120	1.13766	-1.93278	0.91454
1490.000	-0.92318	1.16152	-1.98214	0.93439
1491.000	-0.93702	1.13368	-1.95647	0.92844
1492.000	-0.91527	1.14164	-1.98609	0.92445
1493.000	-0.89551	1.14761	-1.96240	0.92645
1494.000	-0.87179	1.10984	-1.98412	0.91451
1495.000	-0.94295	1.17941	-1.93278	0.92051
1496.000	-0.90144	1.13369	-1.93278	0.97815
1497.000	-0.92911	1.18140	-1.96240	0.92248
1498.000	-0.98840	1.13764	-1.92488	0.95629
1499.000	-0.91725	1.17942	-1.92883	0.94436
1500.000	-0.93702	1.18538	-1.93672	0.93641
1501.000	-0.97062	1.14958	-1.92290	0.93045
1502.000	-0.93899	1.16947	-1.97819	0.97812
1503.000	-1.02398	1.21915	-1.98609	0.98607
1504.000	-1.06153	1.22510	-2.04730	0.92641
1505.000	-1.25124	1.24688	-2.09074	0.90054
1506.000	-1.42315	1.31239	-2.17563	0.90645
1507.000	-1.64639	1.21486	-2.39868	0.95798
1508.000	-1.83798	1.23461	-2.54668	0.98768
1509.000	-2.03151	1.21261	-2.83468	0.92984
1510.000	-2.29605	1.25611	-3.04961	0.80453
1511.000	-2.58219	1.15255	-3.28218	0.84803
1512.000	-2.85046	1.18407	-3.48314	0.88558
1513.000	-3.14423	1.14602	-3.81393	0.83564
1514.000	-3.40434	1.12786	-4.04612	0.74811
1515.000	-3.78243	1.03611	-4.24475	0.83916
1516.000	-3.97529	1.00413	-4.53760	0.83487
1517.000	-4.29390	0.94225	-4.83609	0.74334
1518.000	-4.59457	0.82291	-4.96759	0.77688
1519.000	-4.86554	0.66403	-5.17159	0.75485
1520.000	-4.92049	0.69767	-5.33430	0.70118
1521.000	-5.11472	0.60038	-5.43424	0.73274
1522.000	-5.29314	0.59228	-5.50477	0.83363
1523.000	-5.38330	0.57833	-5.68884	0.80170
1524.000	-5.46755	0.60003	-5.82779	0.72433
1525.000	-5.47734	0.63171	-5.90605	0.60749
1526.000	-5.64968	0.61371	-5.99797	0.66872
1527.000	-5.78279	0.49877	-6.15240	0.63886
1528.000	-5.76713	0.47504	-6.25791	0.58732
1529.000	-5.78083	0.47107	-6.29307	0.61101
1530.000	-5.79649	0.40772	-6.33018	0.54374
1531.000	-5.77887	0.41169	-6.38876	0.52194
1532.000	-5.77300	0.41170	-6.39462	0.46064
1533.000	-5.75735	0.39785	-6.39072	0.44681
1534.000	-5.70254	0.40185	-6.36924	0.46858
1535.000	-5.68492	0.42958	-6.29503	0.49633
1536.000	-5.65947	0.43355	-6.30089	0.43305
1537.000	-5.61053	0.42171	-6.25791	0.46670
1538.000	-5.56940	0.42768	-6.27940	0.45482
1539.000	-5.56549	0.40591	-6.25987	0.42319
1540.000	-5.61640	0.44349	-6.27745	0.43109
1541.000	-5.52044	0.45148	-6.24033	0.45485
1542.000	-5.61444	0.44151	-6.28917	0.41328
1543.000	-5.57919	0.47321	-6.35557	0.41323
1544.000	-5.57332	0.45936	-6.36143	0.43695
1545.000	-5.68884	0.46125	-6.39657	0.42901
1546.000	-5.62227	0.47318	-6.41805	0.44283
1547.000	-5.65947	0.45137	-6.38876	0.44088
1548.000	-5.69667	0.48697	-6.41024	0.46854
1549.000	-5.68297	0.53647	-6.44733	0.42897
1550.000	-5.72212	0.47310	-6.45709	0.43884
1551.000	-5.77105	0.45128	-6.44148	0.42107
1552.000	-5.76322	0.43150	-6.52345	0.43088
1553.000	-5.79844	0.45918	-6.49613	0.43486
1554.000	-5.78866	0.40377	-6.47466	0.45860
1555.000	-5.77496	0.44534	-6.46100	0.41907
1556.000	-5.74560	0.45526	-6.50589	0.43485
1557.000	-5.78279	0.45127	-6.48052	0.49417
1558.000	-5.79453	0.41168	-6.47661	0.44673
1559.000	-5.72603	0.41569	-6.47661	0.47836
1560.000	-5.77496	0.39982	-6.50589	0.45461
1561.000	-5.68101	0.47511	-6.49223	0.41905
1562.000	-5.72016	0.40580	-6.47466	0.45267
1563.000	-5.72016	0.39986	-6.48832	0.43289
1564.000	-5.70841	0.44539	-6.47856	0.44871
1565.000	-5.72603	0.39392	-6.48052	0.46057
1566.000	-5.74365	0.44141	-6.47271	0.43092
1567.000	-5.71820	0.40976	-6.47271	0.42697
1568.000	-5.72603	0.38600	-6.47076	0.48034
1569.000	-5.68688	0.41176	-6.45905	0.49024
1570.000	-5.72016	0.40580	-6.48832	0.39138
1571.000	-5.69667	0.38998	-6.47271	0.44476
1572.000	-5.69275	0.44145	-6.47466	0.43092
1573.000	-5.67318	0.44146	-6.41024	0.48238
1574.000	-5.66730	0.42761	-6.41805	0.47446
1575.000	-5.69275	0.40582	-6.46100	0.44279
1576.000	-5.60661	0.47517	-6.44538	0.46653
1577.000	-5.67905	0.48303	-6.45514	0.44478
1578.000	-5.57919	0.49499	-6.46100	0.43093
1579.000	-5.60073	0.48705	-6.46100	0.45268
1580.000	-5.63598	0.45733	-6.46685	0.45663
1581.000	-5.55569	0.47521	-6.57419	0.36957
1582.000	-5.60465	0.43954	-6.49808	0.46648
1583.000	-5.56353	0.48312	-6.50589	0.40915
1584.000	-5.65164	0.41376	-6.50003	0.41311
1585.000	-5.54786	0.43562	-6.50394	0.43287
1586.000	-5.56744	0.49500	-6.50394	0.42694
1587.000	-5.53023	0.48909	-6.46880	0.38546
1588.000	-5.56157	0.44947	-6.49418	0.41114
1589.000	-5.58507	0.46727	-6.47661	0.43487
1590.000	-5.55373	0.46729	-6.50199	0.39532
1591.000	-5.57528	0.46332	-6.44343	0.41316
1592.000	-5.60857	0.49695	-6.46490	0.43291
1593.000	-5.56940	0.49896	-6.43952	0.46456
1594.000	-5.58703	0.47519	-6.42781	0.48038
1595.000	-5.58507	0.43955	-6.44928	0.44280
1596.000	-5.56940	0.46332	-6.44928	0.46257
1597.000	-5.55765	0.43165	-6.48052	0.45266
1598.000	-5.58507	0.51874	-6.42586	0.44480
1599.000	-5.57136	0.48114	-6.41219	0.44679
1600.000	-5.54003	0.47126	-6.42976	0.44678
1601.000	-5.56353	0.46926	-6.44148	0.39735
1602.000	-5.61444	0.44349	-6.41805	0.43888
1603.000	-5.57332	0.44946	-6.43562	0.40130
1604.000	-5.51260	0.48911	-6.40829	0.47842
1605.000	-5.63206	0.46327	-6.47271	0.41116
1606.000	-5.57332	0.47124	-6.45124	0.39338
1607.000	-5.54198	0.51284	-6.40829	0.42703
1608.000	-5.60661	0.47319	-6.45709	0.40129
1609.000	-5.57136	0.48312	-6.45319	0.40920
1610.000	-5.56940	0.50292	-6.39853	0.43296
1611.000	-5.56157	0.53064	-6.40829	0.43889
1612.000	-5.57724	0.56231	-6.42976	0.39736
1613.000	-5.54786	0.51878	-6.42195	0.46853
1614.000	-5.58507	0.52468	-6.39853	0.45866
1615.000	-5.57724	0.51479	-6.42391	0.46260
1616.000	-5.60465	0.48309	-6.44343	0.42107
1617.000	-5.61640	0.50684	-6.39462	0.43297
1618.000	-5.53807	0.59006	-6.40243	0.45866
1619.000	-5.60661	0.57614	-6.39657	0.42110
1620.000	-5.60465	0.52665	-6.42195	0.45271
1621.000	-5.58311	0.54052	-6.40243	0.42308
1622.000	-5.56353	0.55044	-6.40634	0.42900
1623.000	-5.56549	0.55242	-6.40438	0.41517
1624.000	-5.58115	0.48707	-6.39072	0.45669
1625.000	-5.53611	0.54849	-6.37900	0.44287
1626.000	-5.61053	0.52268	-6.37119	0.42903
1627.000	-5.58703	0.52666	-6.37510	0.43892
1628.000	-5.67122	0.46522	-6.33409	0.47058
1629.000	-5.56157	0.49699	-6.39462	0.40924
1630.000	-5.63011	0.47515	-6.40634	0.45470
1631.000	-5.59878	0.46924	-6.36338	0.44090
1632.000	-5.63990	0.42763	-6.42586	0.42108
1633.000	-5.63402	0.53850	-6.41805	0.42702
1634.000	-5.61053	0.53654	-6.42976	0.41712
1635.000	-5.62032	0.50287	-6.41415	0.45272
1636.000	-5.69471	0.51865	-6.44148	0.39735
1637.000	-5.65556	0.46325	-6.41415	0.38155
1638.000	-5.66143	0.49294	-6.41805	0.38946
1639.000	-5.64381	0.47316	-6.42586	0.38550
1640.000	-5.61053	0.49100	-6.43952	0.33607
1641.000	-5.62815	0.48703	-6.47076	0.39930
1642.000	-5.63011	0.46129	-6.40634	0.36179
1643.000	-5.65947	0.40980	-6.43757	0.39142
1644.000	-5.61836	0.47516	-6.46100	0.32815
1645.000	-5.55178	0.51085	-6.39657	0.41320
1646.000	-5.58899	0.46726	-6.38681	0.41716
1647.000	-5.61053	0.48902	-6.42391	0.35387
1648.000	-5.63206	0.42566	-6.48442	0.33011
1649.000	-5.58507	0.52468	-6.39267	0.43692
1650.000	-5.56940	0.48114	-6.45709	0.38745
1651.000	-5.67122	0.48106	-6.44733	0.37362
1652.000	-5.59486	0.49300	-6.41024	0.41319
1653.000	-5.62815	0.50881	-6.39267	0.35191
1654.000	-5.63598	0.48108	-6.37705	0.37169
1655.000	-5.65752	0.47909	-6.40048	0.40331
1656.000	-5.58703	0.48508	-6.41415	0.31829
1657.000	-5.61836	0.47516	-6.42195	0.33410
1658.000	-5.56353	0.55044	-6.40048	0.36179
1659.000	-5.64381	0.45534	-6.43172	0.33409
1660.000	-5.56940	0.47124	-6.38291	0.41123
1661.000	-5.65164	0.48305	-6.33604	0.40336
1662.000	-5.64185	0.45930	-6.39267	0.39541
1663.000	-5.61444	0.51080	-6.39267	0.30644
1664.000	-5.57136	0.51678	-6.38486	0.39344
1665.000	-5.56157	0.45937	-6.37314	0.35786
1666.000	-5.54198	0.46730	-6.37314	0.42903
1667.000	-5.62619	0.48109	-6.32628	0.38755
1668.000	-5.58115	0.49301	-6.36533	0.38950
1669.000	-5.59682	0.46528	-6.37119	0.37368
1670.000	-5.56353	0.47916	-6.37705	0.34006
1671.000	-5.54982	0.54847	-6.39657	0.35784
1672.000	-5.63402	0.42763	-6.35362	0.34996
1673.000	-5.55373	0.52669	-6.33018	0.35393
1674.000	-5.55569	0.48511	-6.33799	0.35591
1675.000	-5.58115	0.49895	-6.33799	0.39545
1676.000	-5.58703	0.51082	-6.36338	0.40136
1677.000	-5.54198	0.49106	-6.33604	0.40534
1678.000	-5.55569	0.52273	-6.36924	0.40333
1679.000	-5.53219	0.59007	-6.36729	0.43694
1680.000	-5.52631	0.53662	-6.34385	0.41126
1681.000	-5.54590	0.54848	-6.38486	0.35192
1682.000	-5.58703	0.50686	-6.34971	0.45080
1683.000	-5.55178	0.52867	-6.34971	0.44685
1684.000	-5.53219	0.49701	-6.32628	0.47257
1685.000	-5.54982	0.50096	-6.39657	0.34598
1686.000	-5.56157	0.52866	-6.34971	0.36974
1687.000	-5.52436	0.50098	-6.38876	0.37169
1688.000	-5.53807	0.51879	-6.40829	0.38946
1689.000	-5.49106	0.54457	-6.42586	0.35782
1690.000	-5.58311	0.50291	-6.40634	0.35388
1691.000	-5.55569	0.47521	-6.43367	0.35979
1692.000	-5.55961	0.48511	-6.41024	0.39935
1693.000	-5.52044	0.53266	-6.40048	0.35982
1694.000	-5.50281	0.51486	-6.40243	0.37958
1695.000	-5.50281	0.55446	-6.39853	0.40924
1696.000	-5.53023	0.56829	-6.42586	0.37364
1697.000	-5.51456	0.53267	-6.41610	0.34399
1698.000	-5.57136	0.50490	-6.42000	0.37759
1699.000	-5.52827	0.46929	-6.43562	0.35188
1700.000	-5.48518	0.51289	-6.44538	0.37560
1701.000	-5.48910	0.47922	-6.42195	0.34992
1702.000	-5.48126	0.50695	-6.42781	0.35584
1703.000	-5.48518	0.53071	-6.38681	0.42111
1704.000	-5.50281	0.49109	-6.40438	0.38749
1705.000	-5.53415	0.46731	-6.40048	0.31830
1706.000	-5.47734	0.47923	-6.42195	0.37562
1707.000	-5.45971	0.52281	-6.41610	0.41713
1708.000	-5.59486	0.46924	-6.42000	0.41318
1709.000	-5.50673	0.46931	-6.42781	0.40329
1710.000	-5.48322	0.53863	-6.40243	0.41517
1711.000	-5.48126	0.53468	-6.43172	0.40724
1712.000	-5.49302	0.52278	-6.39462	0.43494
1713.000	-5.46951	0.53469	-6.45905	0.33605
1714.000	-5.51064	0.51485	-6.41805	0.40725
1715.000	-5.43816	0.56046	-6.42976	0.38549
1716.000	-5.43816	0.52481	-6.38681	0.39343
1717.000	-5.45971	0.54856	-6.42976	0.41515
1718.000	-5.48518	0.47131	-6.42586	0.36771
1719.000	-5.47538	0.49706	-6.43952	0.39142
1720.000	-5.51064	0.50495	-6.38876	0.39739
1721.000	-5.43032	0.56443	-6.40438	0.35784
1722.000	-5.48126	0.45547	-6.44928	0.35780
1723.000	-5.48910	0.48715	-6.41805	0.37166
1724.000	-5.51456	0.49901	-6.40829	0.35783
1725.000	-5.44404	0.55451	-6.42586	0.31631
1726.000	-5.48714	0.46933	-6.41415	0.37562
1727.000	-5.55373	0.46531	-6.40438	0.37167
1728.000	-5.48518	0.51685	-6.43952	0.34595
1729.000	-5.46559	0.54657	-6.43952	0.35781
1730.000	-5.49889	0.45149	-6.43562	0.33212
1731.000	-5.47930	0.51290	-6.42391	0.33608
1732.000	-5.47538	0.49310	-6.40829	0.40923
1733.000	-5.52240	0.48118	-6.42976	0.33212
1734.000	-5.43032	0.52878	-6.41610	0.38946
1735.000	-5.49693	0.50694	-6.44343	0.35188
1736.000	-5.44208	0.50105	-6.42976	0.33410
1737.000	-5.49693	0.44160	-6.43367	0.28665
1738.000	-5.49106	0.51685	-6.44538	0.33013
1739.000	-5.47147	0.46538	-6.44733	0.33211
1740.000	-5.52044	0.44950	-6.43172	0.36375
1741.000	-5.48126	0.43369	-6.41024	0.33806
1742.000	-5.44404	0.49906	-6.43172	0.38747
1743.000	-5.49497	0.43566	-6.42000	0.31433
1744.000	-5.46167	0.52083	-6.43367	0.32619
1745.000	-5.52240	0.47128	-6.43952	0.34002
1746.000	-5.47538	0.45745	-6.43757	0.34991
1747.000	-5.51064	0.46931	-6.43172	0.40921
1748.000	-5.43424	0.52878	-6.45124	0.29652
1749.000	-5.47343	0.51686	-6.42391	0.29852
1750.000	-5.51456	0.47524	-6.42391	0.30049
1751.000	-5.51848	0.47722	-6.43757	0.34002
1752.000	-5.48518	0.41982	-6.44538	0.31234
1753.000	-5.48322	0.45547	-6.41610	0.33608
1754.000	-5.48910	0.44160	-6.39853	0.36377
1755.000	-5.48518	0.47329	-6.45319	0.31234
1756.000	-5.40877	0.48721	-6.40243	0.40331
1757.000	-5.51652	0.43564	-6.41805	0.37760
1758.000	-5.51652	0.40198	-6.40048	0.33214
1759.000	-5.46755	0.49112	-6.42195	0.35585
1760.000	-5.47147	0.48518	-6.36143	0.38159
1761.000	-5.44992	0.46341	-6.41219	0.34004
1762.000	-5.49106	0.45744	-6.44928	0.34594
1763.000	-5.49302	0.47526	-6.42000	0.33806
1764.000	-5.45384	0.46935	-6.44928	0.33804
1765.000	-5.45775	0.42974	-6.38095	0.38949
1766.000	-5.46167	0.49311	-6.41415	0.31236
1767.000	-5.52827	0.43563	-6.36729	0.39740
1768.000	-5.48518	0.46933	-6.42781	0.33805
1769.000	-5.50869	0.40396	-6.41024	0.37760
1770.000	-5.44404	0.50302	-6.41610	0.36969
1771.000	-5.43620	0.45946	-6.39462	0.38354
1772.000	-5.50085	0.45347	-6.40048	0.34598
1773.000	-5.45971	0.46341	-6.39853	0.35784
1774.000	-5.50085	0.39011	-6.34971	0.42114
1775.000	-5.48126	0.42577	-6.36924	0.36181
1776.000	-5.51260	0.38020	-6.40243	0.33609
1777.000	-5.48910	0.43170	-6.38095	0.38355
1778.000	-5.50869	0.39010	-6.39267	0.37761
1779.000	-5.41465	0.49909	-6.40048	0.37168
1780.000	-5.54003	0.43364	-6.38681	0.36378
1781.000	-5.48518	0.42378	-6.37900	0.39146
1782.000	-5.44404	0.48520	-6.39072	0.34598
1783.000	-5.47734	0.43963	-6.36533	0.33809
1784.000	-5.47147	0.44161	-6.38486	0.35587
1785.000	-5.48714	0.40002	-6.41415	0.34597
1786.000	-5.48126	0.44953	-6.39462	0.35191
1787.000	-5.42445	0.44957	-6.39657	0.38354
1788.000	-5.48126	0.46141	-6.44343	0.28071
1789.000	-5.44796	0.45153	-6.34580	0.39544
1790.000	-5.51848	0.38218	-6.40438	0.38156
1791.000	-5.46167	0.45944	-6.38486	0.34203
1792.000	-5.50673	0.41981	-6.43172	0.36770
1793.000	-5.43228	0.45947	-6.38291	0.38751
1794.000	-5.48518	0.44556	-6.39072	0.34598
1795.000	-5.47930	0.38814	-6.34776	0.38951
1796.000	-5.46951	0.44558	-6.37314	0.38356
1797.000	-5.50869	0.40198	-6.41024	0.38551
1798.000	-5.45775	0.41588	-6.38876	0.37959
1799.000	-5.47343	0.45547	-6.39462	0.34005
1800.000	-5.39310	0.49118	-6.38681	0.38157
1801.000	-5.43228	0.43372	-6.38291	0.41123
1802.000	-5.45579	0.42380	-6.35362	0.38357
1803.000	-5.49106	0.39804	-6.37900	0.38751
1804.000	-5.45775	0.42380	-6.38095	0.35192
1805.000	-5.45188	0.45945	-6.37900	0.37762
1806.000	-5.52631	0.44355	-6.36143	0.39148
1807.000	-5.43816	0.43966	-6.33995	0.39545
1808.000	-5.45188	0.42381	-6.36533	0.37566
1809.000	-5.46559	0.44558	-6.38291	0.35192
1810.000	-5.38918	0.52089	-6.37119	0.36379
1811.000	-5.46559	0.41389	-6.39267	0.38552
1812.000	-5.44012	0.44758	-6.37314	0.37170
1813.000	-5.41269	0.41987	-6.41219	0.39144
1814.000	-5.44404	0.40005	-6.37510	0.38554
1815.000	-5.51064	0.44753	-6.37119	0.33216
1816.000	-5.54982	0.43760	-6.34776	0.41126
1817.000	-5.63011	0.41576	-6.28721	0.43701
1818.000	-5.74365	0.38005	-6.38681	0.41914
1819.000	-5.85323	0.39383	-6.60735	0.37152
1820.000	-5.99797	0.36207	-6.70292	0.36157
1821.000	-6.18562	0.30459	-6.88811	0.29231
1822.000	-6.31260	0.30847	-7.04200	0.28432
1823.000	-6.52736	0.26288	-7.24832	0.12433
1824.000	-6.84719	0.17185	-7.27944	0.13616
1825.000	-6.93682	0.08492	-7.45445	0.12822
1826.000	-7.17048	-0.02171	-7.67203	0.10647
1827.000	-7.33974	-0.08484	-7.80209	-0.00986
1828.000	-7.53801	-0.20314	-7.97667	-0.11624
1829.000	-7.68757	-0.23659	-7.96892	0.00591
1830.000	-7.79627	-0.24638	-8.05809	-0.02364
1831.000	-7.85836	-0.29561	-8.19953	-0.05317
1832.000	-8.01157	-0.33490	-8.33118	-0.06693
1833.000	-8.09685	-0.41558	-8.45695	-0.15742
1834.000	-8.12398	-0.35647	-8.43954	-0.04723
1835.000	-8.18016	-0.40959	-8.44341	-0.10627
1836.000	-8.28666	-0.42719	-8.53624	-0.06689
1837.000	-8.33118	-0.45076	-8.57104	-0.05508
1838.000	-8.28473	-0.47444	-8.64834	-0.10621
1839.000	-8.24407	-0.40361	-8.60196	-0.03147
1840.000	-8.16272	-0.39188	-8.59423	-0.12786
1841.000	-8.11235	-0.43132	-8.59423	-0.15540
1842.000	-7.96504	-0.32509	-8.55364	-0.11214
1843.000	-7.94759	-0.39209	-8.57877	-0.11606
1844.000	-7.95340	-0.34283	-8.47823	-0.11216
1845.000	-7.80791	-0.30747	-8.48403	-0.16725
1846.000	-7.82732	-0.35476	-8.44728	-0.17711
1847.000	-7.77492	-0.35677	-8.45888	-0.14955
1848.000	-7.81568	-0.38236	-8.44534	-0.15546
1849.000	-7.87000	-0.39610	-8.43567	-0.19285
1850.000	-7.89716	-0.35076	-8.42600	-0.18302
1851.000	-7.88746	-0.37638	-8.45695	-0.19481
1852.000	-7.89134	-0.33894	-8.45502	-0.20072
1853.000	-7.91849	-0.38424	-8.51884	-0.20068
1854.000	-7.92431	-0.35073	-8.54784	-0.30493
1855.000	-7.94565	-0.36648	-8.50337	-0.20266
1856.000	-7.87776	-0.35471	-8.53817	-0.21248
1857.000	-7.94371	-0.34481	-8.57877	-0.29114
1858.000	-8.01157	-0.42946	-8.60776	-0.23998
1859.000	-8.04065	-0.36245	-8.58457	-0.23606
1860.000	-8.03677	-0.35458	-8.57297	-0.22819
1861.000	-8.02902	-0.35064	-8.58263	-0.21442
1862.000	-8.02126	-0.36444	-8.60390	-0.20851
1863.000	-8.05615	-0.45108	-8.62129	-0.20653
1864.000	-8.04065	-0.44321	-8.64255	-0.26946
1865.000	-8.00188	-0.39992	-8.60003	-0.18490
1866.000	-8.12204	-0.48251	-8.60390	-0.22228
1867.000	-8.04065	-0.43140	-8.57877	-0.16328
1868.000	-8.03095	-0.42353	-8.57684	-0.21246
1869.000	-8.00381	-0.43340	-8.57297	-0.19869
1870.000	-8.04258	-0.45700	-8.60583	-0.15343
1871.000	-7.93013	-0.45121	-8.60776	-0.23998
1872.000	-8.02126	-0.42748	-8.61356	-0.18883
1873.000	-7.97667	-0.39797	-8.59230	-0.15934
1874.000	-8.05615	-0.41956	-8.57877	-0.20065
1875.000	-7.87970	-0.37836	-8.58843	-0.20655
1876.000	-8.04452	-0.44912	-8.60003	-0.16130
1877.000	-7.99800	-0.42553	-8.60390	-0.16130
1878.000	-7.99606	-0.44917	-8.59423	-0.17114
1879.000	-7.93207	-0.36649	-8.56137	-0.16328
1880.000	-7.95146	-0.41376	-8.53817	-0.16329
1881.000	-7.92043	-0.37044	-8.58070	-0.16918
1882.000	-7.91462	-0.35468	-8.57490	-0.19869
1883.000	-7.92043	-0.40197	-8.57877	-0.21639
1884.000	-7.89328	-0.42367	-8.63289	-0.21046
1885.000	-7.90880	-0.34287	-8.61549	-0.20653
1886.000	-7.93207	-0.44136	-8.63289	-0.23013
1887.000	-7.92431	-0.39999	-8.57877	-0.22622
1888.000	-7.85060	-0.34488	-8.63095	-0.27536
1889.000	-7.86612	-0.31137	-8.60003	-0.21834
1890.000	-7.91074	-0.35666	-8.61936	-0.26357
1891.000	-7.85060	-0.33897	-8.62902	-0.21833
1892.000	-7.93401	-0.31526	-8.64255	-0.19668
1893.000	-7.88940	-0.37835	-8.63868	-0.21439
1894.000	-7.88746	-0.36259	-8.59230	-0.22228
1895.000	-7.89134	-0.32317	-8.60390	-0.21637
1896.000	-7.88940	-0.33697	-8.59230	-0.26359
1897.000	-7.92043	-0.39212	-8.58650	-0.19868
1898.000	-7.92431	-0.36256	-8.60390	-0.23604
1899.000	-7.90880	-0.38621	-8.62902	-0.23603
1900.000	-7.94952	-0.34677	-8.60196	-0.17703
1901.000	-7.96698	-0.38419	-8.57877	-0.18885
1902.000	-7.93401	-0.35861	-8.58070	-0.18688
1903.000	-7.94177	-0.38421	-8.60003	-0.23211
1904.000	-8.02126	-0.39005	-8.63095	-0.22619
1905.000	-7.89910	-0.29361	-8.63482	-0.26749
1906.000	-7.90880	-0.33104	-8.60583	-0.20457
1907.000	-8.02126	-0.43733	-8.62709	-0.26553
1908.000	-7.97861	-0.40979	-8.66960	-0.27927
1909.000	-7.96892	-0.35070	-8.58843	-0.20851
1910.000	-7.96116	-0.36449	-8.59617	-0.25179
1911.000	-7.97667	-0.35069	-8.63095	-0.27143
1912.000	-7.99606	-0.34279	-8.59423	-0.23802
1913.000	-7.96310	-0.41178	-8.61163	-0.24194
1914.000	-7.98637	-0.37235	-8.61743	-0.26554
1915.000	-7.98249	-0.40782	-8.57490	-0.20262
1916.000	-7.98830	-0.39993	-8.59423	-0.23408
1917.000	-7.93789	-0.35269	-8.57490	-0.25180
1918.000	-8.00575	-0.42355	-8.62516	-0.23996
1919.000	-7.88552	-0.34880	-8.55750	-0.17115
1920.000	-7.90880	-0.38819	-8.56330	-0.22033
1921.000	-7.91074	-0.37242	-8.54590	-0.20264
1922.000	-7.94565	-0.34283	-8.60196	-0.20064
1923.000	-7.93983	-0.38619	-8.61936	-0.26947
1924.000	-7.88940	-0.37441	-8.54010	-0.18690
1925.000	-7.91074	-0.33695	-8.54784	-0.23411
1926.000	-7.93013	-0.36058	-8.53430	-0.20658
1927.000	-7.88164	-0.35471	-8.59037	-0.25376
1928.000	-7.87582	-0.28377	-8.62129	-0.27734
1929.000	-7.95340	-0.41376	-8.55944	-0.22820
1930.000	-7.91074	-0.40592	-8.56524	-0.23804
1931.000	-7.86030	-0.32123	-8.58843	-0.25572
1932.000	-7.88746	-0.31135	-8.60776	-0.28128
1933.000	-7.86612	-0.31334	-8.51497	-0.20855
1934.000	-7.88552	-0.32121	-8.58070	-0.26753
1935.000	-7.86806	-0.30546	-8.54590	-0.19280
1936.000	-7.93013	-0.37634	-8.58070	-0.24196
1937.000	-7.86418	-0.29167	-8.57297	-0.24787
1938.000	-7.91268	-0.38424	-8.58070	-0.24786
1939.000	-7.95534	-0.39405	-8.55170	-0.21640
1940.000	-7.85642	-0.28970	-8.59037	-0.21638
1941.000	-7.93401	-0.34876	-8.58457	-0.25966
1942.000	-7.89910	-0.36849	-8.57877	-0.19278
1943.000	-7.95340	-0.37829	-8.60196	-0.27539
1944.000	-7.89910	-0.36849	-8.57104	-0.24000
1945.000	-7.92237	-0.36256	-8.55364	-0.22230
1946.000	-7.83702	-0.31533	-8.59617	-0.24785
1947.000	-7.86806	-0.36655	-8.53624	-0.21248
1948.000	-7.88746	-0.34879	-8.57297	-0.21049
1949.000	-7.90298	-0.33893	-8.60196	-0.29899
1950.000	-7.89134	-0.38032	-8.61356	-0.29505
1951.000	-7.93013	-0.35270	-8.56137	-0.24197
1952.000	-7.91268	-0.37242	-8.55170	-0.22231
1953.000	-7.88358	-0.35668	-8.57490	-0.24196
1954.000	-7.90880	-0.37045	-8.55557	-0.20460
1955.000	-7.87194	-0.34684	-8.61549	-0.28128
1956.000	-7.87776	-0.33895	-8.56330	-0.22033
1957.000	-7.89522	-0.38426	-8.53430	-0.22822
1958.000	-7.86806	-0.33305	-8.58843	-0.23015
1959.000	-7.89910	-0.35667	-8.53624	-0.21641
1960.000	-7.85836	-0.35670	-8.55750	-0.24001
1961.000	-7.87388	-0.35275	-8.57684	-0.24000
1962.000	-7.90686	-0.37833	-8.60583	-0.24981
1963.000	-7.90104	-0.36652	-8.59810	-0.27736
1964.000	-7.86418	-0.36261	-8.59423	-0.25966
1965.000	-7.92237	-0.35665	-8.60390	-0.29702
1966.000	-7.89910	-0.35667	-8.58457	-0.23999
1967.000	-7.90880	-0.40986	-8.59617	-0.23802
1968.000	-7.89522	-0.33499	-8.59037	-0.22425
1969.000	-7.91656	-0.37636	-8.53044	-0.23806
1970.000	-7.92431	-0.31330	-8.54397	-0.23018
1971.000	-7.85448	-0.33503	-8.59810	-0.23015
1972.000	-7.92237	-0.39802	-8.58650	-0.26950
1973.000	-7.93983	-0.36451	-8.54977	-0.28526
1974.000	-7.90104	-0.42169	-8.58263	-0.26950
1975.000	-7.89328	-0.34682	-8.59617	-0.30883
1976.000	-7.93789	-0.39210	-8.60196	-0.31079
1977.000	-7.89910	-0.39411	-8.57877	-0.23409
1978.000	-7.90492	-0.36060	-8.59230	-0.31277
1979.000	-7.91462	-0.39212	-8.64061	-0.33436
1980.000	-7.92625	-0.36058	-8.62709	-0.33437
1981.000	-7.87000	-0.34881	-8.61356	-0.29898
1982.000	-7.95922	-0.38617	-8.53044	-0.28134
1983.000	-7.87194	-0.33304	-8.60583	-0.29112
1984.000	-7.88164	-0.40398	-8.58263	-0.29901
1985.000	-7.90686	-0.38425	-8.58070	-0.28720
1986.000	-7.85642	-0.31926	-8.60003	-0.27342
1987.000	-7.91074	-0.39409	-8.53430	-0.21248
1988.000	-7.82926	-0.34687	-8.55750	-0.26952
1989.000	-7.87000	-0.32516	-8.60196	-0.27932
1990.000	-7.88746	-0.34485	-8.58843	-0.29900
1991.000	-7.89522	-0.35470	-8.54784	-0.22034
1992.000	-7.93595	-0.42560	-8.55750	-0.25771
1993.000	-7.84090	-0.34095	-8.55364	-0.25968
1994.000	-7.92237	-0.37241	-8.55557	-0.23607
1995.000	-7.91656	-0.39409	-8.51110	-0.25184
1996.000	-7.95146	-0.39406	-8.59230	-0.25376
1997.000	-7.85448	-0.36262	-8.52850	-0.24593
1998.000	-7.84672	-0.31927	-8.54590	-0.23018
1999.000	-7.95146	-0.37238	-8.57877	-0.25770
2000.000	-7.87776	-0.39807	-8.57490	-0.32065
2001.000	-7.86612	-0.37837	-8.55170	-0.23608
2002.000	-7.89522	-0.38229	-8.49370	-0.24595
2003.000	-7.89716	-0.36061	-8.55750	-0.23214
2004.000	-7.88164	-0.40792	-8.54590	-0.28330
2005.000	-7.93595	-0.37043	-8.52464	-0.23806
2006.000	-7.91849	-0.41379	-8.55557	-0.24788
2007.000	-7.92625	-0.33103	-8.52077	-0.21445
2008.000	-7.86806	-0.34881	-8.53430	-0.24002
2009.000	-7.89522	-0.36258	-8.48596	-0.25973
2010.000	-7.92043	-0.41970	-8.50530	-0.24004
2011.000	-7.87582	-0.34486	-8.52657	-0.27151
2012.000	-7.90686	-0.41577	-8.52077	-0.22823
2013.000	-7.86224	-0.29561	-8.52657	-0.26167
2014.000	-7.89134	-0.39017	-8.52464	-0.28134
2015.000	-7.85836	-0.37050	-8.55557	-0.24788
2016.000	-7.93789	-0.41574	-8.57297	-0.30098
2017.000	-7.91656	-0.38621	-8.54590	-0.26756
2018.000	-7.86806	-0.33502	-8.56330	-0.25574
2019.000	-7.87776	-0.36260	-8.50337	-0.23807
2020.000	-7.91849	-0.35665	-8.53237	-0.28331
2021.000	-7.92625	-0.41181	-8.50143	-0.27152
2022.000	-7.86806	-0.41581	-8.51884	-0.29315
2023.000	-7.89328	-0.36849	-8.55557	-0.27542
2024.000	-7.90880	-0.39804	-8.52850	-0.27544
2025.000	-7.83896	-0.30942	-8.50530	-0.25578
2026.000	-7.85254	-0.35079	-8.55944	-0.29509
2027.000	-7.85254	-0.35474	-8.47436	-0.21842
2028.000	-7.84866	-0.34094	-8.50337	-0.32858
2029.000	-7.82344	-0.36264	-8.57104	-0.26951
2030.000	-7.93983	-0.41377	-8.54590	-0.29117
2031.000	-7.82926	-0.38235	-8.56137	-0.32656
2032.000	-7.89522	-0.39017	-8.52270	-0.24200
2033.000	-7.85254	-0.36459	-8.51497	-0.24987
2034.000	-7.85448	-0.39021	-8.54010	-0.31084
2035.000	-7.80403	-0.36069	-8.55170	-0.24395
2036.000	-7.81762	-0.34294	-8.55364	-0.27739
2037.000	-7.84478	-0.36263	-8.49950	-0.19479
2038.000	-7.88552	-0.37638	-8.53237	-0.28921
2039.000	-7.89522	-0.36652	-8.51303	-0.27152
2040.000	-7.93207	-0.39604	-8.48790	-0.23612
2041.000	-7.97473	-0.44920	-8.49756	-0.26169
2042.000	-7.93983	-0.38619	-8.52464	-0.29708
2043.000	-7.90298	-0.39016	-8.52850	-0.31872
2044.000	-7.93013	-0.38619	-8.53624	-0.27937
2045.000	-7.91074	-0.40395	-8.43761	-0.22828
2046.000	-7.86418	-0.38034	-8.47823	-0.21251
2047.000	-7.89910	-0.36849	-8.51497	-0.23020
2048.000	-7.85448	-0.39218	-8.50143	-0.29907
2049.000	-7.92043	-0.43940	-8.46275	-0.25974
2050.000	-7.93013	-0.39999	-8.45502	-0.23023
2051.000	-7.83702	-0.33307	-8.50530	-0.27546
2052.000	-7.91656	-0.39409	-8.48790	-0.26957
2053.000	-7.87000	-0.38034	-8.46662	-0.26958
2054.000	-7.89328	-0.39805	-8.48790	-0.23612
2055.000	-7.90880	-0.42168	-8.49950	-0.26169
2056.000	-7.86224	-0.33305	-8.49563	-0.25185
2057.000	-7.91462	-0.38424	-8.50337	-0.24004
2058.000	-7.85642	-0.33503	-8.47823	-0.23809
2059.000	-7.88940	-0.33894	-8.45308	-0.24204
2060.000	-7.86418	-0.37246	-8.48403	-0.24989
2061.000	-7.92431	-0.38620	-8.53237	-0.25380
2062.000	-7.88552	-0.41579	-8.47823	-0.25580
2063.000	-7.82344	-0.36264	-8.50337	-0.24594
2064.000	-7.87194	-0.39216	-8.50337	-0.24201
2065.000	-7.88358	-0.40200	-8.47436	-0.23612
2066.000	-7.89716	-0.41184	-8.46469	-0.28926
2067.000	-7.83896	-0.37248	-8.50337	-0.26168
2068.000	-7.87194	-0.41384	-8.44534	-0.21843
2069.000	-7.85060	-0.33503	-8.48209	-0.21251
2070.000	-7.85254	-0.38233	-8.47823	-0.26367
2071.000	-7.85836	-0.39020	-8.48983	-0.26956
2072.000	-7.90298	-0.37440	-8.46275	-0.21055
2073.000	-7.86806	-0.40596	-8.51690	-0.27151
2074.000	-7.84478	-0.32321	-8.47049	-0.26761
2075.000	-7.80986	-0.31338	-8.48596	-0.25973
2076.000	-7.83896	-0.39219	-8.48983	-0.23021
2077.000	-7.85836	-0.34291	-8.52270	-0.29118
2078.000	-7.89716	-0.38623	-8.50337	-0.26365
2079.000	-7.82150	-0.36265	-8.48209	-0.22038
2080.000	-7.83702	-0.34095	-8.47436	-0.25974
2081.000	-7.84284	-0.35474	-8.49370	-0.25579
2082.000	-7.86030	-0.37838	-8.46662	-0.26368
2083.000	-7.85642	-0.40400	-8.49176	-0.24989
2084.000	-7.81956	-0.37053	-8.55170	-0.33444
2085.000	-7.78463	-0.32326	-8.47629	-0.27548
2086.000	-7.86612	-0.36064	-8.49950	-0.30497
2087.000	-7.83314	-0.39417	-8.51690	-0.27742
2088.000	-7.87776	-0.41186	-8.54397	-0.28330
2089.000	-7.76522	-0.30553	-8.53237	-0.31675
2090.000	-7.85060	-0.36262	-8.48596	-0.31679
2091.000	-7.82150	-0.39221	-8.50143	-0.26956
2092.000	-7.83896	-0.37248	-8.51690	-0.25971
2093.000	-7.84672	-0.37051	-8.51690	-0.32660
2094.000	-7.87970	-0.39018	-8.48209	-0.30105
2095.000	-7.84866	-0.38430	-8.48790	-0.29711
2096.000	-7.81374	-0.34689	-8.48209	-0.28925
2097.000	-7.80986	-0.36069	-8.46275	-0.28139
2098.000	-7.80986	-0.37448	-8.50917	-0.29710
2099.000	-7.82150	-0.39024	-8.47823	-0.29318
2100.000	-7.81956	-0.30549	-8.50143	-0.31087
2101.000	-7.86224	-0.42961	-8.48016	-0.32860
2102.000	-7.80791	-0.32915	-8.48016	-0.28334
2103.000	-7.95922	-0.44133	-8.46662	-0.24203
2104.000	-7.81568	-0.38039	-8.42600	-0.26174
2105.000	-7.84866	-0.40204	-8.46469	-0.24990
2106.000	-7.82150	-0.31732	-8.48016	-0.32860
2107.000	-7.81180	-0.37448	-8.47049	-0.26761
2108.000	-7.92237	-0.41576	-8.52464	-0.35807
2109.000	-7.84284	-0.36460	-8.44148	-0.24205
2110.000	-7.79239	-0.37844	-8.49370	-0.28924
2111.000	-7.75746	-0.34299	-8.48209	-0.32073
2112.000	-7.88164	-0.43550	-8.47436	-0.30106
2113.000	-7.78851	-0.34888	-8.47049	-0.34828
2114.000	-7.87000	-0.35866	-8.49176	-0.31088
2115.000	-7.84478	-0.40401	-8.50723	-0.30890
2116.000	-7.87194	-0.35866	-8.46469	-0.29910
2117.000	-7.82926	-0.38038	-8.53237	-0.32069
2118.000	-7.80597	-0.35675	-8.54590	-0.34822
2119.000	-7.86612	-0.40596	-8.53044	-0.27544
2120.000	-7.80986	-0.38039	-8.46662	-0.30303
2121.000	-7.82150	-0.35279	-8.49950	-0.28333
2122.000	-7.84866	-0.39021	-8.46662	-0.31287
2123.000	-7.79433	-0.40800	-8.48596	-0.34630
2124.000	-7.78269	-0.37056	-8.45502	-0.31681
2125.000	-7.75357	-0.35679	-8.44534	-0.28927
2126.000	-7.77881	-0.38634	-8.45115	-0.29124
2127.000	-7.81374	-0.38630	-8.44148	-0.25976
2128.000	-7.79627	-0.36858	-8.45695	-0.31288
2129.000	-7.77881	-0.34297	-8.47049	-0.30893
2130.000	-7.77492	-0.36663	-8.48983	-0.37188
2131.000	-7.79821	-0.35084	-8.51303	-0.35021
2132.000	-7.78851	-0.34691	-8.44534	-0.31289
2133.000	-7.80209	-0.37449	-8.48790	-0.33646
2134.000	-7.79821	-0.32325	-8.47823	-0.38370
2135.000	-7.77104	-0.40014	-8.49950	-0.36006
2136.000	-7.77686	-0.36071	-8.43180	-0.27551
2137.000	-7.78075	-0.31143	-8.48596	-0.31482
2138.000	-7.75357	-0.38045	-8.44148	-0.31486
2139.000	-7.77298	-0.31932	-8.49756	-0.33055
2140.000	-7.77298	-0.33904	-8.50337	-0.32661
2141.000	-7.79045	-0.38238	-8.43761	-0.26173
2142.000	-7.77881	-0.35677	-8.47629	-0.25777
2143.000	-7.78269	-0.37845	-8.46275	-0.27745
2144.000	-7.75940	-0.37256	-8.46275	-0.24007
2145.000	-7.83314	-0.39023	-8.41826	-0.25977
2146.000	-7.74969	-0.30554	-8.45502	-0.28730
2147.000	-7.78657	-0.34297	-8.42987	-0.30896
2148.000	-7.79239	-0.35479	-8.51110	-0.33448
2149.000	-7.77298	-0.35086	-8.49563	-0.32465
2150.000	-7.76716	-0.32130	-8.48016	-0.32073
2151.000	-7.81374	-0.33309	-8.43567	-0.30699
2152.000	-7.71669	-0.34894	-8.47823	-0.35418
2153.000	-7.70504	-0.31740	-8.45888	-0.28336
2154.000	-7.70504	-0.25235	-8.49756	-0.30497
2155.000	-7.74193	-0.34300	-8.43954	-0.28337
2156.000	-7.81374	-0.38433	-8.45308	-0.29124
2157.000	-7.73610	-0.35089	-8.47436	-0.33254
2158.000	-7.79627	-0.35676	-8.51110	-0.39153
2159.000	-7.73416	-0.29767	-8.49176	-0.32859
2160.000	-7.72640	-0.30556	-8.48403	-0.37779
2161.000	-7.69728	-0.27995	-8.46856	-0.37583
2162.000	-7.68369	-0.31742	-8.48403	-0.31089
2163.000	-7.77686	-0.32326	-8.48596	-0.43288
2164.000	-7.74387	-0.31935	-8.44728	-0.28534
2165.000	-7.78657	-0.37844	-8.47629	-0.31680
2166.000	-7.70504	-0.35092	-8.49370	-0.31875
2167.000	-7.71863	-0.34696	-8.48016	-0.33844
2168.000	-7.68369	-0.32136	-8.51303	-0.33644
2169.000	-7.75551	-0.38833	-8.52077	-0.35611
2170.000	-7.74193	-0.42579	-8.54204	-0.38757
2171.000	-7.77686	-0.40802	-8.47823	-0.37386
2172.000	-7.66427	-0.30955	-8.53237	-0.39938
2173.000	-7.69728	-0.32727	-8.53237	-0.37971
2174.000	-7.71863	-0.30754	-8.52270	-0.43480
2175.000	-7.67009	-0.30954	-8.51884	-0.39939
2176.000	-7.65067	-0.33125	-8.51303	-0.37382
2177.000	-7.72446	-0.32330	-8.49756	-0.39155
2178.000	-7.67980	-0.33714	-8.49370	-0.40335
2179.000	-7.65262	-0.29378	-8.50530	-0.43482
2180.000	-7.67203	-0.29377	-8.49370	-0.40729
2181.000	-7.64679	-0.25435	-8.49370	-0.40926
2182.000	-7.71087	-0.32331	-8.44921	-0.36601
2183.000	-7.72057	-0.30951	-8.46082	-0.31484
2184.000	-7.63125	-0.30366	-8.48209	-0.33844
2185.000	-7.66815	-0.25828	-8.47629	-0.31483
2186.000	-7.66815	-0.34898	-8.45695	-0.31288
2187.000	-7.70504	-0.33909	-8.47049	-0.38567
2188.000	-7.71087	-0.33120	-8.47436	-0.31877
2189.000	-7.70698	-0.28980	-8.47049	-0.30893
2190.000	-7.75357	-0.38242	-8.45888	-0.32862
2191.000	-7.68563	-0.28193	-8.46082	-0.36207
2192.000	-7.68757	-0.32727	-8.54590	-0.36986
2193.000	-7.62543	-0.30760	-8.46275	-0.37584
2194.000	-7.68757	-0.31939	-8.43374	-0.32667
2195.000	-7.65650	-0.30758	-8.49950	-0.38761
2196.000	-7.65456	-0.25632	-8.48403	-0.35024
2197.000	-7.66038	-0.33715	-8.45888	-0.32665
2198.000	-7.65262	-0.35293	-8.45115	-0.32272
2199.000	-7.68757	-0.31742	-8.48596	-0.39943
2200.000	-7.63708	-0.29971	-8.45308	-0.34240
2201.000	-7.68951	-0.32136	-8.41439	-0.33653
2202.000	-7.64679	-0.28787	-8.47242	-0.33057
2203.000	-7.68369	-0.33911	-8.42020	-0.33849
2204.000	-7.72834	-0.31542	-8.48790	-0.36794
2205.000	-7.68369	-0.30756	-8.44921	-0.33256
2206.000	-7.68757	-0.33122	-8.44341	-0.36405
2207.000	-7.70698	-0.33317	-8.47242	-0.36599
2208.000	-7.70698	-0.32529	-8.45115	-0.36601
2209.000	-7.73999	-0.31738	-8.46662	-0.35026
2210.000	-7.65262	-0.25829	-8.44921	-0.36011
2211.000	-7.70893	-0.33514	-8.48209	-0.41320
2212.000	-7.60212	-0.26621	-8.47823	-0.28138
2213.000	-7.73222	-0.34892	-8.43180	-0.33061
2214.000	-7.66621	-0.29180	-8.47242	-0.32664
2215.000	-7.67980	-0.31151	-8.47436	-0.37583
2216.000	-7.70116	-0.31938	-8.42020	-0.30897
2217.000	-7.69145	-0.31544	-8.45115	-0.35617
2218.000	-7.65844	-0.24646	-8.50143	-0.36203
2219.000	-7.69533	-0.33121	-8.45115	-0.36601
2220.000	-7.63708	-0.29971	-8.46469	-0.35813
2221.000	-7.69339	-0.26221	-8.47242	-0.34041
2222.000	-7.67398	-0.31546	-8.46856	-0.36206
2223.000	-7.68369	-0.30165	-8.45502	-0.32272
2224.000	-7.63902	-0.24450	-8.47823	-0.37386
2225.000	-7.69533	-0.30361	-8.47823	-0.34631
2226.000	-7.65262	-0.26224	-8.49370	-0.34433
2227.000	-7.60989	-0.28001	-8.49370	-0.38565
2228.000	-7.67398	-0.32137	-8.50530	-0.37186
2229.000	-7.63514	-0.30168	-8.48983	-0.36007
2230.000	-7.61183	-0.30367	-8.48790	-0.36401
2231.000	-7.65844	-0.34899	-8.48016	-0.38566
2232.000	-7.62154	-0.27606	-8.50917	-0.39547
2233.000	-7.63320	-0.26028	-8.49563	-0.41909
2234.000	-7.62543	-0.31944	-8.49950	-0.41909
2235.000	-7.64679	-0.30562	-8.50723	-0.37776
2236.000	-7.63902	-0.26816	-8.49370	-0.36400
2237.000	-7.58075	-0.28989	-8.52077	-0.41316
2238.000	-7.65456	-0.31350	-8.48016	-0.38960
2239.000	-7.60989	-0.25438	-8.48016	-0.34828
2240.000	-7.64096	-0.26422	-8.43180	-0.32864
2241.000	-7.61183	-0.28198	-8.48596	-0.37582
2242.000	-7.58075	-0.24650	-8.46856	-0.41912
2243.000	-7.63125	-0.28591	-8.42600	-0.36604
2244.000	-7.67786	-0.34108	-8.45308	-0.39749
2245.000	-7.64679	-0.32731	-8.46662	-0.36993
2246.000	-7.58658	-0.26031	-8.46275	-0.35026
2247.000	-7.61960	-0.28000	-8.44341	-0.34241
2248.000	-7.63902	-0.25041	-8.44148	-0.36602
2249.000	-7.56715	-0.25243	-8.44534	-0.39357
2250.000	-7.64291	-0.33520	-8.47049	-0.35419
2251.000	-7.59629	-0.28002	-8.49176	-0.36204
2252.000	-7.64873	-0.30364	-8.44148	-0.31879
2253.000	-7.60212	-0.28199	-8.42020	-0.31488
2254.000	-7.59824	-0.24649	-8.44921	-0.38766
2255.000	-7.63320	-0.31746	-8.42987	-0.34832
2256.000	-7.58075	-0.29186	-8.39891	-0.33064
2257.000	-7.61572	-0.30367	-8.45115	-0.33453
2258.000	-7.62543	-0.27803	-8.48403	-0.34827
2259.000	-7.61766	-0.32141	-8.48790	-0.41517
2260.000	-7.67592	-0.33714	-8.46082	-0.34239
2261.000	-7.68757	-0.32727	-8.48596	-0.38762
2262.000	-7.55161	-0.26427	-8.47629	-0.38960
2263.000	-7.57492	-0.26426	-8.49176	-0.36204
2264.000	-7.55938	-0.25243	-8.43954	-0.30896
2265.000	-7.55744	-0.28596	-8.46856	-0.36796
2266.000	-7.61766	-0.25634	-8.46082	-0.34633
2267.000	-7.56910	-0.24454	-8.44921	-0.30895
2268.000	-7.56133	-0.24849	-8.46662	-0.37190
2269.000	-7.50498	-0.19527	-8.50143	-0.35416
2270.000	-7.59241	-0.22086	-8.47049	-0.36993
2271.000	-7.56521	-0.22088	-8.45695	-0.34043
2272.000	-7.61766	-0.28198	-8.46275	-0.34632
2273.000	-7.59824	-0.26030	-8.45115	-0.30108
2274.000	-7.55161	-0.19919	-8.44728	-0.30895
2275.000	-7.56715	-0.20510	-8.42020	-0.31684
2276.000	-7.55938	-0.22680	-8.48596	-0.36598
2277.000	-7.58464	-0.22875	-8.45115	-0.35027
2278.000	-7.58658	-0.26622	-8.47242	-0.32467
2279.000	-7.48749	-0.17160	-8.47436	-0.32860
2280.000	-7.58270	-0.23664	-8.45115	-0.35617
2281.000	-7.53801	-0.19328	-8.45502	-0.33059
2282.000	-7.55938	-0.21891	-8.44921	-0.27156
2283.000	-7.61377	-0.26226	-8.44921	-0.34830
2284.000	-7.55938	-0.27018	-8.42600	-0.34045
2285.000	-7.52635	-0.22879	-8.47629	-0.33057
2286.000	-7.58464	-0.23073	-8.43954	-0.33257
2287.000	-7.57492	-0.27017	-8.43374	-0.32667
2288.000	-7.53995	-0.24653	-8.41439	-0.25978
2289.000	-7.56327	-0.24257	-8.44534	-0.27353
2290.000	-7.59047	-0.29777	-8.36989	-0.29720
2291.000	-7.55744	-0.28004	-8.27505	-0.26184
2292.000	-7.45056	-0.26236	-8.15885	-0.24616
2293.000	-7.32612	-0.23876	-8.10266	-0.27180
2294.000	-7.22886	-0.26249	-7.95728	-0.25416
2295.000	-6.98747	-0.21524	-7.65067	-0.13999
2296.000	-6.70877	-0.13633	-7.34557	-0.11839
2297.000	-6.47076	-0.18582	-7.02252	-0.10465
2298.000	-6.12895	-0.11671	-6.65222	-0.04743
2299.000	-5.83366	-0.06135	-6.16803	0.09098
2300.000	-5.46951	0.02376	-5.82388	0.07719
2301.000	-5.07745	0.08917	-5.42249	0.20003
2302.000	-4.76346	0.14869	-5.02056	0.18233
2303.000	-4.36270	0.25192	-4.67902	0.29544
2304.000	-3.93791	0.30366	-4.19756	0.29364
2305.000	-3.62690	0.35341	-3.84345	0.36920
2306.000	-3.28612	0.48064	-3.36297	0.44287
2307.000	-2.97469	0.49072	-3.10481	0.32181
2308.000	-2.56838	0.65980	-2.69070	0.38949
2309.000	-2.35723	0.66984	-2.44604	0.23255
2310.000	-2.02953	0.58053	-2.15589	0.34392
2311.000	-1.65824	0.63832	-1.83996	0.27241
2312.000	-1.39351	0.58271	-1.43896	0.41367
2313.000	-1.02991	0.64445	-1.05955	0.37991
2314.000	-0.77889	0.54305	-0.80854	0.36005
2315.000	-0.39342	0.66045	-0.45668	0.38593
2316.000	-0.09094	0.68234	-0.19375	0.34815
2317.000	0.12060	0.67836	0.08699	0.39788
2318.000	0.51203	0.71016	0.42307	0.39986
2319.000	0.81842	0.78570	0.73738	0.44758
2320.000	1.15639	0.85522	1.00421	0.33616
2321.000	1.31843	0.82335	1.40734	0.42163
2322.000	1.64441	0.91469	1.74318	0.44144
2323.000	1.88143	0.88078	2.04138	0.39365
2324.000	2.21117	0.92233	2.32763	0.41942
2325.000	2.54273	0.88436	2.69464	0.47096
2326.000	2.88793	0.98342	2.99638	0.46687
2327.000	3.24277	0.93544	3.24671	0.54223
2328.000	3.56389	0.96491	3.67022	0.52015
2329.000	3.94184	1.05774	3.90642	0.55573
2330.000	4.22509	0.99985	4.21919	0.57139
2331.000	4.55921	1.11439	4.52974	0.67426
2332.000	4.85376	1.09013	4.75757	0.58881
2333.000	5.15394	1.17678	5.04802	0.72329
2334.000	5.45971	1.17818	5.26766	0.74483
2335.000	5.68884	1.15595	5.47538	0.70893
2336.000	5.91192	1.20297	5.69275	0.76409
2337.000	6.12504	1.17481	5.91974	0.74795
2338.000	6.25205	1.27139	6.11918	0.84657
2339.000	6.60735	1.30606	6.34190	0.73155
2340.000	6.82575	1.30942	6.52345	0.81824
2341.000	6.99331	1.30896	6.71267	0.84361
2342.000	7.20356	1.32019	6.82770	0.85130
2343.000	7.35529	1.34341	6.96799	0.86092
2344.000	7.53218	1.33893	7.06926	0.88640
2345.000	7.65844	1.29912	7.19383	0.81117
2346.000	7.73416	1.32056	7.22886	0.80519
2347.000	7.80015	1.29869	7.24442	0.83475
2348.000	7.86806	1.30438	7.29889	0.86227
2349.000	7.94177	1.40064	7.24442	0.92749
2350.000	7.93207	1.41052	7.18800	0.96312
2351.000	7.91074	1.40863	7.18800	0.94142
2352.000	7.89910	1.38897	7.14323	0.89217
2353.000	7.84478	1.46597	7.04784	0.97526
2354.000	7.83702	1.40888	7.04589	0.96145
2355.000	7.76716	1.37759	6.93487	1.00116
2356.000	7.78075	1.30860	6.95046	1.00705
2357.000	7.72057	1.31469	6.89006	0.94597
2358.000	7.71281	1.30881	6.84719	0.97370
2359.000	7.68951	1.25962	6.81600	0.98957
2360.000	7.72446	1.25951	6.81795	0.94414
2361.000	7.72057	1.22997	6.81015	0.94416
2362.000	7.75940	1.20424	6.85108	0.89076
2363.000	7.80403	1.22972	6.84913	0.90063
2364.000	7.83896	1.22371	6.89396	0.94004
2365.000	7.87582	1.18814	6.89590	0.91634
2366.000	7.96698	1.19182	6.91734	0.95974
2367.000	7.96310	1.20168	6.96409	0.94385
2368.000	8.01932	1.25665	6.96799	0.89449
2369.000	8.02320	1.24679	6.93292	0.93601
2370.000	7.99606	1.25081	7.04394	0.89237
2371.000	8.04258	1.26642	7.00305	0.94969
2372.000	8.02514	1.28813	6.96994	0.88461
2373.000	8.04065	1.26643	6.99915	0.92601
2374.000	8.02320	1.28617	6.97773	0.91224
2375.000	8.02320	1.23498	6.95630	0.92412
2376.000	7.99412	1.26657	6.98941	0.89839
2377.000	8.02902	1.31765	6.93097	0.94786
2378.000	8.01351	1.30392	6.93097	0.95774
2379.000	7.98249	1.33553	6.91734	0.97356
2380.000	7.97861	1.35129	6.91734	0.93407
2381.000	8.01157	1.31771	6.89980	0.98742
2382.000	8.01545	1.29998	6.89396	0.97558
2383.000	8.00381	1.31380	6.87057	1.05264
2384.000	7.94952	1.30216	6.87642	1.02103
2385.000	7.97085	1.31587	6.81990	1.06855
2386.000	7.93401	1.30614	6.76337	1.05090
2387.000	7.98249	1.29024	6.77702	1.05482
2388.000	7.95922	1.30016	6.81405	0.96982
2389.000	7.92043	1.28846	6.83354	0.95793
2390.000	7.92043	1.27665	6.83549	1.00532
2391.000	7.89910	1.27474	6.82965	0.95597
2392.000	7.93013	1.29434	6.77702	1.04099
2393.000	7.95534	1.28441	6.82380	0.99350
2394.000	7.92819	1.29632	6.85693	0.99738
2395.000	7.89716	1.29838	6.80236	1.09821
2396.000	7.96504	1.27848	6.78286	1.06863
2397.000	7.93595	1.32386	6.78481	1.01925
2398.000	7.94371	1.26279	6.79261	1.02911
2399.000	7.96116	1.29424	6.80041	0.98170
2400.000	7.92431	1.31011	6.76142	1.07263
2401.000	7.91074	1.33379	6.74972	1.03710
2402.000	7.91849	1.32589	6.74387	1.06081
2403.000	7.92431	1.33375	6.79261	1.05281
2404.000	7.92431	1.29436	6.77507	1.04297
2405.000	7.91656	1.31014	6.78676	1.06467
2406.000	7.88746	1.32402	6.76922	1.06668
2407.000	7.87000	1.26695	6.80236	1.09623
2408.000	7.92625	1.31405	6.74192	1.06082
2409.000	7.94177	1.31006	6.77117	1.05286
2410.000	7.91268	1.28849	6.77117	1.08248
2411.000	7.93013	1.31600	6.77312	1.06470
2412.000	7.95146	1.35532	6.79651	1.01528
2413.000	7.93013	1.32585	6.80626	1.05870
2414.000	7.92043	1.34951	6.78286	1.03308
2415.000	7.93983	1.32582	6.77507	1.06272
2416.000	7.91268	1.32985	6.79456	1.01331
2417.000	7.89522	1.35157	6.82770	1.06260
2418.000	7.93595	1.34749	6.77117	0.99756
2419.000	7.90104	1.34958	6.79456	1.01331
2420.000	7.92237	1.33966	6.81015	0.95995
2421.000	7.95922	1.38877	6.79066	0.98764
2422.000	7.96892	1.35132	6.77702	0.98372
2423.000	7.97085	1.33163	6.75947	1.02523
2424.000	7.92043	1.34951	6.78091	1.00346
2425.000	7.96698	1.36905	6.80236	0.98169
2426.000	7.93983	1.33764	6.81015	1.04685
2427.000	7.91268	1.30818	6.75362	0.98377
2428.000	7.92431	1.31996	6.77702	1.04692
2429.000	7.96892	1.36117	6.78871	0.99160
2430.000	7.97085	1.32178	6.79846	1.10216
2431.000	7.94759	1.35927	6.74972	1.04698
2432.000	7.94177	1.37504	6.75947	1.04498
2433.000	7.93595	1.40263	6.76142	1.11805
2434.000	7.95922	1.38680	6.71072	1.16952
2435.000	7.94565	1.42032	6.70097	1.15769
2436.000	7.92819	1.37115	6.66587	1.17357
2437.000	7.89328	1.30430	6.71267	1.12804
2438.000	7.93983	1.38096	6.66392	1.15383
2439.000	7.91849	1.38103	6.69902	1.17349
2440.000	7.93013	1.41250	6.70292	1.05103
2441.000	7.95146	1.44196	6.70682	1.10237
2442.000	7.92819	1.37312	6.68147	1.13008
2443.000	7.91849	1.43814	6.71267	1.11026
2444.000	7.92237	1.41449	6.72242	1.16751
2445.000	7.95146	1.43409	6.72242	1.10036
2446.000	7.92625	1.42630	6.70877	1.12607
2447.000	7.93207	1.38098	6.73802	1.16747
2448.000	7.95146	1.35138	6.73217	1.14774
2449.000	7.91074	1.39287	6.68537	1.18340
2450.000	7.94177	1.44987	6.68342	1.16563
2451.000	7.94565	1.37700	6.66977	1.20122
2452.000	7.91656	1.42239	6.72632	1.14380
2453.000	7.93789	1.42035	6.66782	1.15579
2454.000	7.89910	1.48153	6.66782	1.16172
2455.000	7.93401	1.42824	6.66002	1.18741
2456.000	7.91268	1.42044	6.62686	1.19934
2457.000	7.93401	1.36522	6.62686	1.19144
2458.000	7.90492	1.43622	6.65612	1.17360
2459.000	7.89910	1.43427	6.69707	1.18535
2460.000	7.90686	1.41849	6.69317	1.25646
2461.000	7.91074	1.41453	6.67757	1.19330
2462.000	7.88940	1.42839	6.67757	1.24662
2463.000	7.87194	1.42255	6.69902	1.18337
2464.000	7.90492	1.42637	6.67952	1.25057
2465.000	7.92237	1.44403	6.66197	1.20321
2466.000	7.87388	1.42057	6.69122	1.19721
2467.000	7.90880	1.44802	6.68537	1.20315
2468.000	7.88940	1.41658	6.69512	1.22090
2469.000	7.89910	1.40670	6.66392	1.17950
2470.000	7.92819	1.44401	6.68927	1.20314
2471.000	7.93983	1.40262	6.60735	1.21717
2472.000	7.92237	1.44009	6.68342	1.17156
2473.000	7.91268	1.48739	6.64051	1.21906
2474.000	7.90880	1.43423	6.68342	1.16563
2475.000	7.90298	1.46773	6.66002	1.09458
2476.000	7.90880	1.43817	6.71072	1.15174
2477.000	7.91074	1.42635	6.69707	1.12807
2478.000	7.87970	1.44615	6.67952	1.17156
2479.000	7.89716	1.43427	6.69512	1.09450
2480.000	7.89716	1.41655	6.65612	1.10051
2481.000	7.87388	1.44617	6.66002	1.11631
2482.000	7.85642	1.42457	6.65222	1.08669
2483.000	7.83120	1.43253	6.65807	1.06298
2484.000	7.89716	1.40867	6.65222	1.08077
2485.000	7.86612	1.41075	6.65612	1.10644
2486.000	7.90298	1.39290	6.67562	0.97405
2487.000	7.89134	1.42445	6.66587	1.04518
2488.000	7.91074	1.41257	6.68927	0.99970
2489.000	7.87000	1.41270	6.68147	1.08663
2490.000	7.89522	1.36338	6.65417	1.05706
2491.000	7.85836	1.39502	6.63661	1.03537
2492.000	7.85836	1.39502	6.68147	1.00169
2493.000	7.86030	1.38122	6.62296	1.08676
2494.000	7.87194	1.38512	6.64832	1.05115
2495.000	7.82732	1.41285	6.64246	1.08474
2496.000	7.87388	1.39891	6.63856	1.08672
2497.000	7.82344	1.43256	6.63076	1.11045
2498.000	7.83896	1.39705	6.64441	1.06301
2499.000	7.84672	1.37930	6.65027	1.07089
2500.000	7.83508	1.37934	6.63271	1.08674
2501.000	7.82344	1.40498	6.60345	1.05519
2502.000	7.86418	1.36349	6.60150	1.06507
2503.000	7.86030	1.35956	6.59760	1.07891
2504.000	7.84866	1.36748	6.60150	1.09668
2505.000	7.82926	1.38330	6.59565	1.11250
2506.000	7.83314	1.38131	6.60540	1.09470
2507.000	7.85060	1.39307	6.61906	1.07294
2508.000	7.78463	1.36769	6.61906	1.07886
2509.000	7.87582	1.39102	6.62881	1.06897
2510.000	7.83508	1.37737	6.56833	1.07502
2511.000	7.86806	1.38120	6.60930	1.08876
2512.000	7.85448	1.36943	6.63271	1.05908
2513.000	7.86418	1.37727	6.60150	1.07693
2514.000	7.81762	1.39909	6.58589	1.13820
2515.000	7.83314	1.34192	6.58589	1.02559
2516.000	7.83702	1.37539	6.59955	1.07298
2517.000	7.84478	1.35961	6.58199	1.07104
2518.000	7.81956	1.33802	6.59565	1.08879
2519.000	7.84478	1.33597	6.59955	1.05322
2520.000	7.82344	1.36165	6.61125	1.06900
2521.000	7.83314	1.37738	6.62881	1.05119
2522.000	7.82538	1.34194	6.57614	1.06908
2523.000	7.84478	1.31824	6.57028	1.08687
2524.000	7.81374	1.32425	6.59174	1.05522
2525.000	7.81568	1.34395	6.61516	1.02553
2526.000	7.87194	1.37134	6.57614	1.05130
2527.000	7.87388	1.34573	6.60930	1.05913
2528.000	7.81180	1.34593	6.64051	1.04524
2529.000	7.82538	1.37346	6.59565	1.02755
2530.000	7.82538	1.39119	6.63661	1.00969
2531.000	7.81956	1.37348	6.59370	1.06312
2532.000	7.85642	1.35563	6.60345	0.99988
2533.000	7.81180	1.36169	6.58784	1.04140
2534.000	7.85448	1.35958	6.59955	1.04927
2535.000	7.84866	1.34975	6.59760	1.02162
2536.000	7.81956	1.38333	6.58979	1.03546
2537.000	7.82150	1.34393	6.57809	1.04537
2538.000	7.81180	1.40108	6.60345	1.07297
2539.000	7.78463	1.35587	6.58589	1.09672
2540.000	7.84090	1.38129	6.56833	1.14022
2541.000	7.84672	1.33597	6.58979	1.09473
2542.000	7.84478	1.35961	6.59955	1.13225
2543.000	7.84672	1.36157	6.54882	1.15805
2544.000	7.83702	1.35767	6.55077	1.18175
2545.000	7.80597	1.36762	6.56443	1.21135
2546.000	7.79433	1.36962	6.58589	1.18166
2547.000	7.78075	1.35785	6.55077	1.19163
2548.000	7.77686	1.36574	6.55663	1.16593
2549.000	7.79433	1.40114	6.53126	1.19365
2550.000	7.82926	1.41481	6.56833	1.14615
2551.000	7.79045	1.38934	6.57614	1.18169
2552.000	7.78075	1.47013	6.52540	1.20552
2553.000	7.75940	1.39732	6.55272	1.20348
2554.000	7.74969	1.42099	6.53321	1.17586
2555.000	7.78269	1.37163	6.55467	1.23113
2556.000	7.83314	1.35571	6.52931	1.16402
2557.000	7.79045	1.41494	6.53906	1.19956
2558.000	7.78269	1.37360	6.60735	1.24285
2559.000	7.79239	1.37160	6.51174	1.22728
2560.000	7.82926	1.36360	6.56833	1.22714
2561.000	7.78851	1.41692	6.51955	1.21541
2562.000	7.76716	1.35986	6.52736	1.20749
2563.000	7.77298	1.40712	6.52736	1.24898
2564.000	7.79627	1.45038	6.55272	1.18965
2565.000	7.73416	1.42695	6.48442	1.22142
2566.000	7.76134	1.44853	6.50589	1.24310
2567.000	7.80015	1.44249	6.46880	1.19182
2568.000	7.73610	1.50772	6.55077	1.19558
2569.000	7.80209	1.46021	6.50589	1.21149
2570.000	7.74775	1.48404	6.50784	1.17197
2571.000	7.75357	1.47614	6.49027	1.23919
2572.000	7.75940	1.50567	6.49027	1.19967
2573.000	7.75551	1.48795	6.51955	1.18182
2574.000	7.75163	1.46827	6.48442	1.25106
2575.000	7.75551	1.45249	6.52736	1.23910
2576.000	7.77492	1.45046	6.48052	1.24119
2577.000	7.81568	1.47198	6.47856	1.21156
2578.000	7.76134	1.47217	6.49223	1.25301
2579.000	7.75551	1.47810	6.50003	1.21150
2580.000	7.76522	1.48792	6.44928	1.25115
2581.000	7.76134	1.47808	6.46100	1.23136
2582.000	7.76522	1.40124	6.47076	1.21948
2583.000	7.80015	1.43658	6.48247	1.21155
2584.000	7.76134	1.40913	6.48247	1.14634
2585.000	7.76522	1.41897	6.46100	1.18789
2586.000	7.77686	1.42287	6.45514	1.17605
2587.000	7.76716	1.43275	6.43952	1.18596
2588.000	7.77104	1.41304	6.47661	1.16414
2589.000	7.75357	1.42886	6.43172	1.17412
2590.000	7.78657	1.43663	6.46295	1.21159
2591.000	7.74581	1.39933	6.47856	1.15821
2592.000	7.76134	1.42292	6.43367	1.23735
2593.000	7.76522	1.39927	6.44148	1.19584
2594.000	7.78657	1.43860	6.43952	1.18794
2595.000	7.77298	1.38545	6.48052	1.17203
2596.000	7.77298	1.38151	6.41805	1.19589
2597.000	7.80015	1.37748	6.47466	1.14636
2598.000	7.76910	1.31651	6.44538	1.15236
2599.000	7.77686	1.34407	6.47076	1.15230
2600.000	7.79239	1.33614	6.40829	1.15046
2601.000	7.80015	1.35582	6.44733	1.15037
2602.000	7.78463	1.34405	6.43172	1.18796
2603.000	7.77104	1.27710	6.47076	1.14439
2604.000	7.76134	1.35791	6.45514	1.16419
2605.000	7.76522	1.32441	6.44733	1.13852
2606.000	7.74581	1.27915	6.42586	1.17414
2607.000	7.78269	1.33223	6.46685	1.14835
2608.000	7.77492	1.31058	6.44148	1.11482
2609.000	7.78269	1.38936	6.46100	1.12466
2610.000	7.76910	1.32833	6.45709	1.15628
2611.000	7.75357	1.34217	6.45905	1.13454
2612.000	7.75746	1.36383	6.46295	1.15232
2613.000	7.81568	1.30652	6.43952	1.16225
2614.000	7.74775	1.29294	6.46490	1.15231
2615.000	7.76716	1.33228	6.46490	1.14045
2616.000	7.77492	1.31453	6.47466	1.13846
2617.000	7.73999	1.28902	6.42781	1.15437
2618.000	7.74969	1.32840	6.38876	1.18410
2619.000	7.74775	1.33037	6.45124	1.16815
2620.000	7.76716	1.35789	6.42000	1.15834
2621.000	7.72251	1.30484	6.39267	1.18014
2622.000	7.75357	1.37173	6.39462	1.17816
2623.000	7.75357	1.35597	6.46295	1.15232
2624.000	7.70698	1.37582	6.40438	1.19395
2625.000	7.73804	1.34222	6.41610	1.20578
2626.000	7.73610	1.35208	6.46490	1.14441
2627.000	7.71281	1.35216	6.39267	1.23152
2628.000	7.72834	1.38363	6.43172	1.18598
2629.000	7.73028	1.33043	6.42976	1.17610
2630.000	7.75551	1.32641	6.42976	1.18598
2631.000	7.77104	1.35000	6.43172	1.20969
2632.000	7.72834	1.37181	6.43952	1.21758
2633.000	7.73028	1.35604	6.40243	1.20976
2634.000	7.73999	1.34616	6.43367	1.19981
2635.000	7.73028	1.39742	6.41805	1.21565
2636.000	7.70893	1.35020	6.43367	1.19783
2637.000	7.75746	1.39338	6.40438	1.18011
2638.000	7.72057	1.37774	6.39267	1.22757
2639.000	7.74775	1.34613	6.40634	1.18011
2640.000	7.69533	1.38965	6.41610	1.22356
2641.000	7.74969	1.41705	6.45319	1.16419
2642.000	7.74775	1.36978	6.40048	1.22953
2643.000	7.71281	1.37186	6.38681	1.17027
2644.000	7.70893	1.32064	6.42000	1.21762
2645.000	7.74387	1.33827	6.40438	1.22161
2646.000	7.73610	1.33041	6.38876	1.19596
2647.000	7.70504	1.36597	6.44928	1.20175
2648.000	7.70310	1.37189	6.42976	1.19586
2649.000	7.74775	1.36387	6.40048	1.14653
2650.000	7.75551	1.32247	6.36729	1.22566
2651.000	7.68563	1.37786	6.40243	1.16036
2652.000	7.73222	1.32254	6.44148	1.13063
2653.000	7.74193	1.34615	6.41219	1.18603
2654.000	7.69145	1.37784	6.44733	1.21163
2655.000	7.69533	1.43103	6.43952	1.15039
2656.000	7.70893	1.37778	6.41610	1.19787
2657.000	7.72446	1.34227	6.42781	1.19587
2658.000	7.72251	1.41320	6.42781	1.22353
2659.000	7.70116	1.37190	6.39853	1.26313
2660.000	7.68951	1.34238	6.42195	1.20181
2661.000	7.71475	1.41126	6.42976	1.24131
2662.000	7.73028	1.39347	6.42391	1.23540
2663.000	7.73028	1.37968	6.38681	1.23351
2664.000	7.74193	1.36191	6.45514	1.23730
2665.000	7.70698	1.39946	6.41024	1.22555
2666.000	7.72057	1.42700	6.47076	1.18589
2667.000	7.69533	1.37389	6.42976	1.20179
2668.000	7.72251	1.36592	6.44733	1.25313
2669.000	7.67786	1.35030	6.43952	1.16620
2670.000	7.72251	1.36395	6.45514	1.18197
2671.000	7.71669	1.31077	6.43367	1.16424
2672.000	7.72446	1.36788	6.44538	1.17409
2673.000	7.70116	1.38372	6.41024	1.13070
2674.000	7.72834	1.38954	6.41415	1.11093
2675.000	7.70698	1.34429	6.42976	1.15239
2676.000	7.71475	1.36003	6.41415	1.12278
2677.000	7.72446	1.30286	6.42000	1.11882
2678.000	7.70116	1.37781	6.43757	1.14249
2679.000	7.69728	1.35221	6.44148	1.14248
2680.000	7.72446	1.34818	6.44148	1.14051
2681.000	7.71669	1.35214	6.45124	1.16420
2682.000	7.68369	1.37195	6.46295	1.10687
2683.000	7.68174	1.37196	6.43367	1.12274
2684.000	7.72251	1.38956	6.46295	1.10291
2685.000	7.68563	1.40544	6.40829	1.13663
2686.000	7.67398	1.35622	6.45905	1.11083
2687.000	7.68757	1.37982	6.45905	1.11083
2688.000	7.71087	1.39748	6.43562	1.09112
2689.000	7.68369	1.35225	6.43172	1.12274
2690.000	7.72446	1.36000	6.42976	1.15239
2691.000	7.66815	1.34442	6.45514	1.11084
2692.000	7.69533	1.43103	6.41415	1.17614
2693.000	7.67203	1.38973	6.46490	1.13453
2694.000	7.71475	1.36988	6.38486	1.16237
2695.000	7.71669	1.36397	6.43367	1.14250
2696.000	7.71475	1.38564	6.39072	1.15446
2697.000	7.67203	1.38578	6.42976	1.17413
2698.000	7.67203	1.38775	6.42195	1.14846
2699.000	7.69922	1.36993	6.42195	1.17217
2700.000	7.69922	1.38767	6.41024	1.19196
2701.000	7.70698	1.37779	6.42000	1.13660
2702.000	7.71087	1.40930	6.42586	1.15042
2703.000	7.70310	1.40145	6.45124	1.16815
2704.000	7.68563	1.36604	6.41219	1.14848
2705.000	7.68174	1.32270	6.46685	1.16219
2706.000	7.69533	1.36206	6.42195	1.17810
2707.000	7.68174	1.36999	6.41219	1.20579
2708.000	7.71281	1.32851	6.41219	1.17022
2709.000	7.67398	1.35622	6.39853	1.19199
2710.000	7.71281	1.32654	6.42000	1.15637
2711.000	7.74969	1.34613	6.42000	1.21565
2712.000	7.74193	1.28507	6.46295	1.17800
2713.000	7.70116	1.35022	6.39462	1.21176
2714.000	7.76134	1.35988	6.44343	1.18990
2715.000	7.70116	1.35022	6.48247	1.19179
2716.000	7.70116	1.32658	6.46490	1.15824
2717.000	7.71863	1.36987	6.44343	1.16817
2718.000	7.72446	1.34424	6.45124	1.17013
2719.000	7.68757	1.33844	6.47076	1.18194
2720.000	7.71281	1.35610	6.42781	1.20180
2721.000	7.70504	1.39356	6.40243	1.18802
2722.000	7.72057	1.36395	6.42976	1.20970
2723.000	7.71087	1.34231	6.39657	1.17223
2724.000	7.72446	1.32650	6.42391	1.19983
2725.000	7.68757	1.37194	6.44928	1.12666
2726.000	7.69339	1.37586	6.42586	1.18007
2727.000	7.72640	1.31665	6.42000	1.14846
2728.000	7.73999	1.31660	6.42781	1.16228
2729.000	7.70698	1.35217	6.43367	1.17017
2730.000	7.69728	1.32068	6.46685	1.16614
2731.000	7.72834	1.36590	6.47076	1.10685
2732.000	7.67009	1.39958	6.46100	1.14837
2733.000	7.70116	1.32855	6.48247	1.17796
2734.000	7.71087	1.32261	6.43757	1.17213
2735.000	7.70504	1.33445	6.46490	1.15626
2736.000	7.73999	1.33434	6.44733	1.15630
2737.000	7.67786	1.37985	6.45124	1.13653
2738.000	7.71475	1.34230	6.44733	1.13654
2739.000	7.69728	1.37979	6.42586	1.19587
2740.000	7.70116	1.38766	6.44148	1.14446
2741.000	7.70504	1.35612	6.44928	1.16815
2742.000	7.71863	1.37184	6.46880	1.14045
2743.000	7.70893	1.39946	6.45709	1.17802
2744.000	7.71087	1.36990	6.46100	1.13454
2745.000	7.69922	1.35417	6.47076	1.12068
2746.000	7.67980	1.37591	6.45709	1.13454
2747.000	7.71087	1.35216	6.45514	1.14048
2748.000	7.70116	1.37190	6.49027	1.13842
2749.000	7.69922	1.38176	6.45124	1.14641
2750.000	7.74581	1.38357	6.47856	1.16611
2751.000	7.69922	1.38767	6.44928	1.12863
2752.000	7.69145	1.37390	6.48247	1.15425
2753.000	7.70116	1.37978	6.50199	1.12456
2754.000	7.69922	1.35023	6.43367	1.13262
2755.000	7.70116	1.36402	6.47271	1.11277
2756.000	7.69339	1.36995	6.45709	1.15035
2757.000	7.68369	1.40545	6.44733	1.14247
2758.000	7.71863	1.37972	6.45124	1.17013
2759.000	7.70116	1.39948	6.49418	1.11273
2760.000	7.67398	1.34834	6.47271	1.19181
2761.000	7.73610	1.39543	6.47271	1.13451
2762.000	7.71475	1.37382	6.50589	1.13048
2763.000	7.66427	1.34837	6.48442	1.14239
2764.000	7.70698	1.34035	6.50394	1.12654
2765.000	7.69145	1.40148	6.48247	1.13844
2766.000	7.70698	1.31474	6.48637	1.13053
2767.000	7.69533	1.34827	6.50003	1.15618
2768.000	7.69728	1.36403	6.46490	1.12860
2769.000	7.73804	1.28312	6.46685	1.07722
2770.000	7.69922	1.36205	6.45709	1.15826
2771.000	7.71087	1.33443	6.46685	1.10883
2772.000	7.72057	1.33243	6.47661	1.14833
2773.000	7.73999	1.35601	6.49027	1.20165
2774.000	7.69339	1.31084	6.48442	1.16017
2775.000	7.69922	1.34432	6.47661	1.12067
2776.000	7.67980	1.37591	6.46100	1.13849
2777.000	7.70698	1.35809	6.47856	1.12857
2778.000	7.68757	1.33647	6.48052	1.11868
2779.000	7.71669	1.33441	6.42391	1.16426
2780.000	7.67786	1.30892	6.51760	1.14626
2781.000	7.67980	1.33059	6.44733	1.16421
2782.000	7.70893	1.36005	6.48247	1.14634
2783.000	7.74581	1.32250	6.44733	1.12666
2784.000	7.70698	1.33050	6.50199	1.09295
2785.000	7.73999	1.32646	6.50394	1.11468
2786.000	7.71087	1.27335	6.49027	1.09495
2787.000	7.74193	1.25946	6.46100	1.14837
2788.000	7.68757	1.30494	6.49613	1.12063
2789.000	7.68951	1.31282	6.48832	1.08903
2790.000	7.71669	1.29106	6.47856	1.09498
2791.000	7.70504	1.29504	6.48637	1.15226
2792.000	7.71475	1.29501	6.45124	1.16222
2793.000	7.69145	1.34237	6.46295	1.11675
2794.000	7.68757	1.37194	6.47856	1.12066
2795.000	7.71087	1.33443	6.51174	1.15418
2796.000	7.68174	1.32073	6.47661	1.09498
2797.000	7.70310	1.27534	6.46880	1.08907
2798.000	7.71281	1.30881	6.52150	1.11267
2799.000	7.71669	1.30288	6.48637	1.12460
2800.000	7.70310	1.29701	6.51955	1.09884
2801.000	7.70698	1.32459	6.50589	1.10875
2802.000	7.71087	1.33640	6.47661	1.11672
2803.000	7.69339	1.34434	6.48637	1.10879
2804.000	7.70310	1.34431	6.50979	1.03761
2805.000	7.65844	1.30503	6.48247	1.16215
2806.000	7.68951	1.35223	6.49418	1.10087
2807.000	7.68174	1.36605	6.51174	1.08502
2808.000	7.70698	1.33050	6.47271	1.10487
2809.000	7.69728	1.36797	6.44928	1.10887
2810.000	7.67009	1.27544	6.50199	1.08702
2811.000	7.66815	1.34442	6.48442	1.16610
2812.000	7.67592	1.33454	6.51565	1.14034
2813.000	7.69533	1.36403	6.47661	1.11079
2814.000	7.72834	1.35211	6.49223	1.12261
2815.000	7.71281	1.29304	6.48637	1.15621
2816.000	7.69728	1.30491	6.44148	1.09703
2817.000	7.70310	1.36204	6.48247	1.10485
2818.000	7.69533	1.36403	6.50394	1.09492
2819.000	7.72057	1.31272	6.48637	1.11274
2820.000	7.71669	1.29106	6.44343	1.14050
2821.000	7.73222	1.32057	6.46880	1.13649
2822.000	7.72446	1.28316	6.49027	1.11669
2823.000	7.68174	1.37393	6.47856	1.13054
2824.000	7.69922	1.32461	6.46100	1.14837
2825.000	7.71475	1.33836	6.47271	1.13451
2826.000	7.69533	1.34827	6.49418	1.12261
2827.000	7.67398	1.34834	6.49223	1.13842
2828.000	7.71475	1.33048	6.47856	1.10683
2829.000	7.74387	1.33038	6.47661	1.14636
2830.000	7.66815	1.31486	6.47466	1.13253
2831.000	7.63902	1.33662	6.49223	1.12854
2832.000	7.68757	1.37391	6.52931	1.09882
2833.000	7.66621	1.33851	6.47271	1.15032
2834.000	7.72446	1.35212	6.46490	1.16417
2835.000	7.68757	1.36997	6.49418	1.12656
2836.000	7.72640	1.30680	6.49613	1.13050
2837.000	7.66038	1.35823	6.48832	1.12262
2838.000	7.68174	1.29511	6.47076	1.12463
2839.000	7.69339	1.31281	6.45709	1.16418
2840.000	7.68563	1.35027	6.45319	1.13060
2841.000	7.69339	1.31281	6.48247	1.06533
2842.000	7.68174	1.31284	6.47466	1.12067
2843.000	7.69533	1.27733	6.50589	1.13839
2844.000	7.72834	1.34620	6.48052	1.06533
2845.000	7.68174	1.30693	6.47466	1.14438
2846.000	7.68563	1.30495	6.47856	1.17599
2847.000	7.67009	1.30500	6.45709	1.13850
2848.000	7.68563	1.30692	6.47661	1.09498
2849.000	7.65844	1.28139	6.50394	1.11666
2850.000	7.64291	1.35238	6.48442	1.17795
2851.000	7.66233	1.31093	6.46880	1.11673
2852.000	7.66815	1.29712	6.47661	1.13845
2853.000	7.62931	1.30709	6.45319	1.13060
2854.000	7.71087	1.31670	6.46100	1.13651
2855.000	7.66815	1.31880	6.46685	1.16219
2856.000	7.69339	1.30099	6.46295	1.07920
2857.000	7.71669	1.33244	6.44343	1.13655
2858.000	7.66815	1.32077	6.50003	1.13247
2859.000	7.66427	1.34246	6.50199	1.13247
2860.000	7.69922	1.36796	6.59955	1.15200
2861.000	7.74387	1.28704	6.67367	1.12615
2862.000	7.85448	1.28867	6.80820	1.07055
2863.000	7.99800	1.26656	6.98552	1.15502
2864.000	8.11816	1.23862	7.18800	1.15254
2865.000	8.38343	1.34009	7.45639	1.18537
2866.000	8.60390	1.23511	7.76134	1.17074
2867.000	8.88394	1.18507	8.03677	1.06362
2868.000	9.17896	1.13502	8.30408	1.06881
2869.000	9.45619	1.16943	8.60583	1.06405
2870.000	9.75793	1.15075	8.89744	0.96497
2871.000	10.00545	1.04021	9.11152	0.94280
2872.000	10.30619	0.97662	9.43310	0.86934
2873.000	10.49171	1.00146	9.59271	0.91011
2874.000	10.70565	0.93236	9.83472	0.85850
2875.000	10.83348	0.83624	10.06488	0.73060
2876.000	11.05836	0.76729	10.34255	0.66343
2877.000	11.17637	0.78844	10.35403	0.66732
2878.000	11.33041	0.66125	10.50700	0.67090
2879.000	11.52415	0.70367	10.70374	0.57274
2880.000	11.60764	0.71321	10.82394	0.47482
2881.000	11.77068	0.66021	11.06026	0.38463
2882.000	11.80857	0.66401	11.22774	0.30246
2883.000	11.87296	0.70473	11.27718	0.24583
2884.000	11.91461	0.66959	11.25436	0.27316
2885.000	11.95813	0.71619	11.30570	0.24580
2886.000	11.96949	0.67529	11.23154	0.37075
2887.000	11.97895	0.61300	11.19159	0.29079
2888.000	11.93543	0.50022	11.24676	0.16781
2889.000	11.87864	0.49448	11.14973	0.26741
2890.000	11.86539	0.45752	11.15544	0.31034
2891.000	11.75363	0.48887	11.12499	0.28695
2892.000	11.73468	0.47137	11.16496	0.28886
2893.000	11.71952	0.52788	11.12118	0.33185
2894.000	11.65885	0.55917	11.12880	0.26352
2895.000	11.70814	0.52011	11.10215	0.31625
2896.000	11.71952	0.52983	11.14973	0.29864
2897.000	11.71952	0.55515	11.21062	0.26345
2898.000	11.68539	0.47340	11.19350	0.27322
2899.000	11.72520	0.53372	11.19730	0.29468
2900.000	11.80100	0.45178	11.18398	0.28104
2901.000	11.82373	0.42449	11.23535	0.26342
2902.000	11.87107	0.40105	11.26958	0.30241
2903.000	11.84456	0.44782	11.26197	0.27706
2904.000	11.91082	0.39126	11.27528	0.24778
2905.000	11.93543	0.39901	11.26007	0.31608
2906.000	11.96192	0.37756	11.24295	0.37269
2907.000	12.01489	0.39111	11.23535	0.28489
2908.000	12.04136	0.37162	11.20111	0.38250
2909.000	12.06216	0.35602	11.19920	0.35518
2910.000	12.08296	0.33460	11.24105	0.35122
2911.000	12.14155	0.36953	11.21823	0.33564
2912.000	12.14155	0.40065	11.26958	0.34924
2913.000	12.17555	0.41616	11.27528	0.32582
2914.000	12.11509	0.38707	11.20491	0.31809
2915.000	12.18500	0.35780	11.25056	0.34731
2916.000	12.17555	0.38115	11.23535	0.31416
2917.000	12.12454	0.38901	11.26767	0.24584
2918.000	12.13399	0.42789	11.22584	0.29270
2919.000	12.12454	0.44346	11.21632	0.32394
2920.000	12.14155	0.34619	11.21062	0.28296
2921.000	12.10942	0.41042	11.19350	0.29469
2922.000	12.13588	0.45123	11.17447	0.29276
2923.000	12.11131	0.46488	11.15164	0.23032
2924.000	12.10753	0.42015	11.13260	0.30646
2925.000	12.12832	0.45902	11.10976	0.35334
2926.000	12.13210	0.47263	11.11928	0.32600
2927.000	12.10942	0.44349	11.09644	0.31626
2928.000	12.11320	0.44543	11.04122	0.32022
2929.000	12.14344	0.41815	11.08311	0.32018
2930.000	12.13777	0.46873	11.03931	0.35342
2931.000	12.12643	0.45708	11.03360	0.35538
2932.000	12.11698	0.43181	10.99931	0.34956
2933.000	12.07540	0.49218	11.00122	0.35347
2934.000	12.07161	0.50191	11.02217	0.31439
2935.000	12.09052	0.53105	11.03741	0.32609
2936.000	12.08296	0.44159	10.99741	0.33394
2937.000	12.03947	0.49808	11.01265	0.33197
2938.000	12.07729	0.46689	11.06216	0.30458
2939.000	12.10753	0.53102	11.03931	0.37295
2940.000	12.06405	0.47858	11.02027	0.34173
2941.000	12.09619	0.51743	11.02027	0.30463
2942.000	12.08296	0.50773	11.00122	0.37885
2943.000	12.13777	0.47262	11.01265	0.36322
2944.000	12.08674	0.53690	11.03741	0.35733
2945.000	12.06216	0.47664	11.06407	0.29287
2946.000	12.13966	0.51540	11.00693	0.36713
2947.000	12.10564	0.54853	11.06026	0.33973
2948.000	12.09997	0.50380	11.03169	0.30852
2949.000	12.11887	0.51544	11.07740	0.33580
2950.000	12.09997	0.50964	11.06216	0.35925
2951.000	12.11320	0.50183	11.07549	0.32800
2952.000	12.10375	0.53686	11.08692	0.32018
2953.000	12.07350	0.53498	11.06216	0.32020
2954.000	12.10564	0.51741	11.09453	0.37092
2955.000	12.11509	0.51156	11.09263	0.28698
2956.000	12.07729	0.53692	11.11738	0.31038
2957.000	12.10186	0.51742	11.10405	0.31235
2958.000	12.10186	0.51936	11.07930	0.28114
2959.000	12.07161	0.54860	11.09834	0.34554
2960.000	12.10375	0.53297	11.10595	0.31039
2961.000	12.08485	0.51356	11.12880	0.33965
2962.000	12.14155	0.51539	11.12118	0.28500
2963.000	12.13588	0.53096	11.07930	0.31042
2964.000	12.11131	0.54463	11.07549	0.30066
2965.000	12.13021	0.54070	11.12689	0.29476
2966.000	12.13210	0.56792	11.11547	0.30843
2967.000	12.17177	0.49200	11.10595	0.29868
2968.000	12.18122	0.54254	11.10024	0.32016
2969.000	12.12454	0.51543	11.13260	0.24790
2970.000	12.17933	0.54060	11.07740	0.29871
2971.000	12.19255	0.54835	11.08501	0.28504
2972.000	12.16422	0.53480	11.12689	0.29866
2973.000	12.14155	0.48233	11.09644	0.31040
2974.000	12.12643	0.57960	11.10215	0.25769
2975.000	12.13399	0.53097	11.10405	0.30844
2976.000	12.13399	0.59320	11.07740	0.34166
2977.000	12.11887	0.53878	11.09644	0.30650
2978.000	12.15099	0.52121	11.12499	0.26743
2979.000	12.13588	0.57569	11.05836	0.31240
2980.000	12.11887	0.57768	11.10215	0.30649
2981.000	12.15855	0.56398	11.08882	0.29479
2982.000	12.14721	0.54650	11.11738	0.29672
2983.000	12.13966	0.53290	11.05645	0.28116
2984.000	12.11131	0.56991	11.10786	0.27916
2985.000	12.14155	0.53873	11.12499	0.36308
2986.000	12.16611	0.56979	11.11357	0.31624
2987.000	12.13966	0.60097	11.07359	0.34752
2988.000	12.13966	0.56013	11.08692	0.33579
2989.000	12.13777	0.56402	11.08692	0.29480
2990.000	12.13021	0.54070	11.11547	0.29867
2991.000	12.16422	0.56980	11.09263	0.31822
2992.000	12.13777	0.55430	11.09644	0.33773
2993.000	12.15855	0.57953	11.11928	0.27915
2994.000	12.13210	0.54653	11.09644	0.26941
2995.000	12.14155	0.57763	11.13641	0.28303
2996.000	12.17177	0.59312	11.10786	0.30454
2997.000	12.14532	0.55817	11.09072	0.32212
2998.000	12.14532	0.58540	11.06026	0.29482
2999.000	12.10753	0.58159	11.09644	0.29283
3000.000	12.13588	0.58931	11.09644	0.29674
3001.000	12.08863	0.60692	11.12118	0.25962
3002.000	12.11131	0.54268	11.10405	0.30649
3003.000	12.11698	0.60296	11.10595	0.25378
3004.000	12.12643	0.60100	11.11928	0.26548
3005.000	12.13966	0.57180	11.06216	0.37682
3006.000	12.14155	0.60485	11.08692	0.31627
3007.000	12.16044	0.55814	11.10024	0.28893
3008.000	12.17177	0.54450	11.06978	0.27919
3009.000	12.13966	0.61847	11.07549	0.30652
3010.000	12.12076	0.59906	11.04883	0.33193
3011.000	12.13399	0.57375	11.10405	0.30063
3012.000	12.13210	0.58543	11.06788	0.31434
3013.000	12.13777	0.64376	11.07740	0.30847
3014.000	12.12076	0.57573	11.06597	0.35339
3015.000	12.15666	0.57954	11.13070	0.31037
3016.000	12.14721	0.55428	11.07549	0.32604
3017.000	12.13588	0.56597	11.04693	0.35536
3018.000	12.12454	0.60684	11.08121	0.34947
3019.000	12.12832	0.61266	11.05836	0.33583
3020.000	12.11509	0.57963	11.12499	0.37088
3021.000	12.15288	0.58344	11.13260	0.31622
3022.000	12.15855	0.61065	11.10405	0.28502
3023.000	12.10942	0.57964	11.07549	0.32409
3024.000	12.13777	0.56986	11.11357	0.29867
3025.000	12.13777	0.54068	11.11357	0.27915
3026.000	12.13210	0.52125	11.12309	0.27329
3027.000	12.10942	0.56603	11.07168	0.32800
3028.000	12.13777	0.61847	11.06026	0.26944
3029.000	12.10375	0.62050	11.06597	0.27139
3030.000	12.13399	0.56208	11.06216	0.26163
3031.000	12.12076	0.57767	11.06597	0.26944
3032.000	12.12076	0.55433	11.07168	0.29481
3033.000	12.09241	0.55439	11.06216	0.31825
3034.000	12.12454	0.56405	11.04312	0.33584
3035.000	12.07161	0.57000	11.09834	0.36506
3036.000	12.09241	0.54078	11.09453	0.26746
3037.000	12.13966	0.58930	11.09644	0.29479
3038.000	12.14344	0.63791	11.06407	0.34168
3039.000	12.13210	0.59126	11.10024	0.33187
3040.000	12.14532	0.59901	11.07930	0.28895
3041.000	12.13021	0.56404	11.10024	0.28502
3042.000	12.08107	0.56609	11.08692	0.31627
3043.000	12.13399	0.57959	11.03741	0.29289
3044.000	12.12454	0.54071	11.06407	0.31044
3045.000	12.13210	0.58348	11.05264	0.29678
3046.000	12.16611	0.50368	11.04122	0.36904
3047.000	12.15288	0.54454	11.08501	0.33970
3048.000	12.12643	0.56793	11.13070	0.30256
3049.000	12.12454	0.56016	11.07930	0.29871
3050.000	12.14910	0.52510	11.11547	0.33966
3051.000	12.09997	0.56021	11.09072	0.30065
3052.000	12.13399	0.55819	11.06026	0.26358
3053.000	12.12643	0.53098	11.06597	0.30263
3054.000	12.14155	0.55623	11.05645	0.32802
3055.000	12.16422	0.51729	11.11738	0.27915
3056.000	12.09997	0.51742	11.05645	0.36121
3057.000	12.14344	0.53873	11.11928	0.26158
3058.000	12.17177	0.51534	11.09834	0.29283
3059.000	12.12076	0.58351	11.12118	0.27719
3060.000	12.13021	0.52903	11.09263	0.25770
3061.000	12.13588	0.52902	11.03741	0.28508
3062.000	12.11131	0.56991	11.04503	0.30460
3063.000	12.10186	0.50575	11.10405	0.29478
3064.000	12.11698	0.52128	11.08501	0.29480
3065.000	12.11887	0.55239	11.09453	0.24013
3066.000	12.12454	0.53877	11.06597	0.34167
3067.000	12.14721	0.54650	11.11357	0.27525
3068.000	12.14155	0.51150	11.07168	0.29091
3069.000	12.16233	0.54452	11.01836	0.32806
3070.000	12.12076	0.53099	11.06026	0.29287
3071.000	12.10942	0.53102	11.07930	0.31237
3072.000	12.10186	0.55826	11.05264	0.27921
3073.000	12.08485	0.49994	11.03550	0.30266
3074.000	12.13399	0.54458	11.04312	0.30656
3075.000	12.11131	0.55046	11.00503	0.33393
3076.000	12.10564	0.52713	11.06216	0.30068
3077.000	12.09052	0.57579	11.01646	0.33197
3078.000	12.10564	0.56020	11.05836	0.31630
3079.000	12.08674	0.51939	11.07930	0.29676
3080.000	12.07729	0.55637	11.00884	0.31245
3081.000	12.13399	0.51735	11.04122	0.33389
3082.000	12.12076	0.57962	11.03360	0.24994
3083.000	12.07729	0.57777	11.04312	0.25774
3084.000	12.10186	0.56799	11.07359	0.29676
3085.000	12.09052	0.56801	11.07359	0.29871
3086.000	12.08107	0.55831	11.06216	0.24406
3087.000	12.11131	0.58742	11.04883	0.29679
3088.000	12.06594	0.58946	11.05264	0.24407
3089.000	12.10753	0.58159	11.04693	0.24407
3090.000	12.07918	0.56998	11.04693	0.24798
3091.000	12.13588	0.57375	11.05455	0.25578
3092.000	12.09052	0.57190	11.00884	0.28511
3093.000	12.05649	0.54085	11.05455	0.25773
3094.000	12.09619	0.52132	11.05264	0.21868
3095.000	12.07161	0.59334	11.09072	0.26941
3096.000	12.07161	0.52136	11.04693	0.27336
3097.000	12.05460	0.53696	11.08692	0.24208
3098.000	12.07540	0.54276	11.10786	0.20107
3099.000	12.06783	0.54277	11.10595	0.22645
3100.000	12.10753	0.48823	11.07930	0.24795
3101.000	12.07350	0.51358	11.05074	0.21868
3102.000	12.08863	0.54273	11.06597	0.18743
3103.000	12.04703	0.50974	11.10405	0.21864
3104.000	12.08863	0.50383	11.04312	0.20697
3105.000	12.07729	0.51746	11.09263	0.21670
3106.000	12.08674	0.50772	11.07168	0.22648
3107.000	12.07350	0.51358	11.06597	0.20305
3108.000	12.08863	0.50772	11.04693	0.22845
3109.000	12.07729	0.52719	11.06788	0.25381
3110.000	12.09430	0.52327	11.02598	0.18160
3111.000	12.08107	0.56803	11.04883	0.27531
3112.000	12.03758	0.54867	11.06978	0.24991
3113.000	12.04893	0.52919	11.04883	0.24407
3114.000	12.05649	0.55836	11.04312	0.22650
3115.000	12.10375	0.59910	11.04312	0.26360
3116.000	12.04703	0.55449	11.04503	0.24993
3117.000	12.02812	0.50199	11.03550	0.23236
3118.000	12.06783	0.54666	11.02598	0.24604
3119.000	12.06405	0.50582	11.02788	0.26752
3120.000	12.00921	0.50397	11.00884	0.22457
3121.000	12.05271	0.53696	10.99931	0.24216
3122.000	12.02812	0.53118	11.00503	0.26168
3123.000	12.03569	0.51171	10.97073	0.24413
3124.000	12.03758	0.51754	10.99741	0.23044
3125.000	12.05838	0.56030	11.00503	0.27144
3126.000	12.05082	0.52335	11.03550	0.22260
3127.000	12.08107	0.52718	11.03360	0.24408
3128.000	12.03191	0.48448	11.00503	0.26168
3129.000	12.05082	0.53502	10.99169	0.26950
3130.000	12.04703	0.52141	11.00693	0.24215
3131.000	12.05460	0.49416	11.05074	0.24016
3132.000	12.06594	0.45718	10.99550	0.25388
3133.000	12.04325	0.56422	11.06978	0.20891
3134.000	12.03002	0.51561	11.03169	0.19136
3135.000	12.05271	0.54086	11.01646	0.25972
3136.000	12.02245	0.52341	11.02979	0.20698
3137.000	12.04703	0.49418	10.99360	0.25778
3138.000	12.04325	0.52920	11.04122	0.17573
3139.000	12.05082	0.51557	10.99931	0.20701
3140.000	12.06027	0.51944	11.05645	0.21478
3141.000	12.03002	0.49615	10.96311	0.23242
3142.000	12.05838	0.50194	10.95549	0.25001
3143.000	12.01867	0.49034	10.98788	0.25584
3144.000	12.08107	0.47661	10.95549	0.22461
3145.000	12.05838	0.49999	10.95358	0.24219
3146.000	12.05271	0.53891	10.94787	0.25587
3147.000	12.05649	0.56030	10.98788	0.28122
3148.000	12.05838	0.52528	10.98979	0.21482
3149.000	12.05460	0.45331	10.91356	0.24418
3150.000	12.02812	0.53896	10.96121	0.27734
3151.000	11.96381	0.52936	10.98026	0.24217
3152.000	12.01110	0.49230	10.87734	0.27742
3153.000	12.03002	0.44946	10.94787	0.20704
3154.000	12.02056	0.50590	10.95168	0.24220
3155.000	12.04325	0.49613	10.93643	0.22658
3156.000	12.04514	0.50002	10.90212	0.23833
3157.000	12.03947	0.50586	10.93262	0.27737
3158.000	12.02623	0.51756	10.90975	0.29302
3159.000	11.99408	0.47676	10.93643	0.23635
3160.000	12.05838	0.46108	10.90403	0.22465
3161.000	12.05082	0.50195	10.94406	0.22462
3162.000	12.03191	0.47086	10.90212	0.22465
3163.000	12.03947	0.47279	10.92690	0.18948
3164.000	12.05082	0.52919	10.92881	0.21487
3165.000	12.02056	0.50395	10.89640	0.23443
3166.000	12.00543	0.54290	10.87734	0.20514
3167.000	12.01489	0.44365	10.94406	0.20118
3168.000	12.06594	0.44162	10.92881	0.22268
3169.000	12.03758	0.50587	10.95358	0.24415
3170.000	12.02056	0.53703	10.86971	0.24226
3171.000	11.98651	0.51569	10.91165	0.23051
3172.000	12.02056	0.50395	10.89259	0.19927
3173.000	12.00921	0.46895	10.88687	0.22467
3174.000	11.97327	0.52934	10.86781	0.26571
3175.000	12.03380	0.50587	10.86209	0.22273
3176.000	12.04136	0.53893	10.89068	0.27155
3177.000	12.03569	0.56035	10.87353	0.23054
3178.000	12.04514	0.51947	10.87353	0.20514
3179.000	11.97895	0.51571	10.87353	0.24421
3180.000	12.01489	0.54871	10.87162	0.23445
3181.000	12.00354	0.53317	10.85064	0.30480
3182.000	12.00165	0.52928	10.80106	0.22864
3183.000	12.02434	0.47476	10.86018	0.19538
3184.000	12.03569	0.50392	10.84111	0.19735
3185.000	11.99219	0.53125	10.86209	0.21687
3186.000	11.99030	0.51763	10.85255	0.18366
3187.000	11.99030	0.55071	10.87543	0.22272
3188.000	12.02056	0.51952	10.86209	0.19929
3189.000	11.98084	0.50403	10.84874	0.22274
3190.000	11.99408	0.49427	10.82394	0.25207
3191.000	11.99597	0.50984	10.83730	0.22666
3192.000	12.02434	0.50784	10.87543	0.17779
3193.000	12.03380	0.47864	10.86209	0.22078
3194.000	11.99786	0.49621	10.90022	0.15238
3195.000	12.03947	0.50003	10.82585	0.24816
3196.000	12.01110	0.51954	10.88306	0.18755
3197.000	12.02056	0.51368	10.82204	0.22276
3198.000	11.99786	0.55069	10.87734	0.16802
3199.000	12.00165	0.54874	10.84111	0.17195
3200.000	12.03002	0.52145	10.86018	0.18561
3201.000	12.01299	0.53704	10.80106	0.21496
3202.000	12.00165	0.51372	10.79152	0.21301
3203.000	11.99219	0.50984	10.81632	0.19736
3204.000	11.99408	0.51957	10.83157	0.16804
3205.000	11.97705	0.53322	10.84874	0.15826
3206.000	12.01299	0.49424	10.85255	0.13286
3207.000	12.02812	0.51172	10.78770	0.19738
3208.000	12.01867	0.46699	10.80487	0.18565
3209.000	11.96759	0.51767	10.84111	0.15241
3210.000	11.99597	0.45341	10.86209	0.15044
3211.000	11.98273	0.48456	10.79915	0.16611
3212.000	11.98462	0.49234	10.81250	0.16415
3213.000	11.99975	0.50399	10.79343	0.22278
3214.000	11.98651	0.49818	10.79915	0.20714
3215.000	11.98840	0.55655	10.77244	0.22475
3216.000	11.99786	0.50205	10.79915	0.19347
3217.000	11.96003	0.54104	10.79343	0.19933
3218.000	11.99408	0.48260	10.77244	0.20130
3219.000	11.98084	0.50792	10.80869	0.17392
3220.000	11.96759	0.52935	10.76481	0.19740
3221.000	11.98273	0.54489	10.79152	0.16416
3222.000	11.94867	0.55663	10.79533	0.17783
3223.000	11.95435	0.56246	10.78579	0.15048
3224.000	11.96381	0.52741	10.76862	0.15831
3225.000	11.93543	0.57612	10.74763	0.19350
3226.000	11.99219	0.50790	10.76672	0.22476
3227.000	11.95813	0.55856	10.78007	0.18566
3228.000	11.92975	0.56640	10.70756	0.24435
3229.000	11.96570	0.53714	10.73428	0.22869
3230.000	11.96381	0.59747	10.76672	0.17590
3231.000	11.93543	0.59364	10.74382	0.19936
3232.000	11.91839	0.54112	10.76481	0.20912
3233.000	11.95246	0.55663	10.75908	0.17981
3234.000	11.96192	0.53715	10.76099	0.14658
3235.000	11.94867	0.52550	10.75908	0.19154
3236.000	11.96949	0.57994	10.75527	0.20522
3237.000	12.00165	0.52539	10.73428	0.20719
3238.000	11.96192	0.54298	10.75336	0.20522
3239.000	11.95813	0.56051	10.70374	0.19548
3240.000	11.96759	0.52740	10.73809	0.17982
3241.000	11.98651	0.53515	10.75145	0.17395
3242.000	11.97138	0.50599	10.74000	0.17982
3243.000	12.00732	0.50592	10.71710	0.21111
3244.000	11.98651	0.52153	10.70565	0.18571
3245.000	11.95813	0.53131	10.75718	0.19349
3246.000	11.94489	0.45933	10.69228	0.16030
3247.000	11.96949	0.51378	10.72282	0.12706
3248.000	11.96759	0.53519	10.74573	0.14464
3249.000	11.93732	0.50022	10.72664	0.11142
3250.000	11.95246	0.52938	10.73046	0.17201
3251.000	11.96003	0.48460	10.75336	0.15441
3252.000	11.94678	0.52355	10.72282	0.19547
3253.000	11.93353	0.50801	10.76481	0.11727
3254.000	11.92218	0.51387	10.67319	0.19355
3255.000	11.94867	0.52160	10.71710	0.08405
3256.000	11.97516	0.51377	10.69801	0.12707
3257.000	11.96570	0.48070	10.66556	0.17400
3258.000	11.97327	0.53129	10.71137	0.18766
3259.000	11.95435	0.46710	10.66938	0.15054
3260.000	11.98273	0.48262	10.70565	0.14661
3261.000	11.96192	0.45736	10.69610	0.13880
3262.000	11.95813	0.46709	10.66938	0.15249
3263.000	11.96759	0.46708	10.68656	0.12512
3264.000	11.96003	0.48460	10.67892	0.11339
3265.000	11.95624	0.53910	10.72473	0.17592
3266.000	11.96381	0.53325	10.66938	0.08798
3267.000	11.95813	0.51769	10.63119	0.17402
3268.000	11.95246	0.51770	10.64646	0.20725
3269.000	11.94300	0.52356	10.64646	0.14859
3270.000	11.95813	0.49434	10.66365	0.15250
3271.000	11.91082	0.49443	10.67319	0.19550
3272.000	11.93732	0.53719	10.62737	0.21508
3273.000	11.92975	0.55473	10.63692	0.25027
3274.000	11.92029	0.51776	10.68274	0.18768
3275.000	11.94678	0.53134	10.69801	0.17203
3276.000	11.93921	0.51773	10.64455	0.16815
3277.000	11.95435	0.54300	10.61209	0.23074
3278.000	11.96759	0.45929	10.63882	0.18575
3279.000	11.93353	0.49633	10.62546	0.19944
3280.000	11.93921	0.52941	10.63501	0.23463
3281.000	11.96381	0.50211	10.65028	0.18378
3282.000	11.91082	0.54114	10.65219	0.20334
3283.000	11.95624	0.55856	10.61018	0.19359
3284.000	11.94678	0.51771	10.64646	0.18574
3285.000	11.94867	0.53912	10.60254	0.16621
3286.000	11.93353	0.53526	10.59490	0.19946
3287.000	11.94300	0.51967	10.59108	0.18382
3288.000	11.94110	0.52162	10.58153	0.20729
3289.000	11.91272	0.52946	10.58917	0.23271
3290.000	11.93732	0.53914	10.62355	0.17598
3291.000	11.96570	0.49043	10.61591	0.22487
3292.000	11.93732	0.50411	10.61400	0.21509
3293.000	11.91461	0.50610	10.58917	0.19555
3294.000	11.96192	0.49822	10.64264	0.20725
3295.000	11.93921	0.49048	10.55478	0.21513
3296.000	11.96003	0.50212	10.59872	0.25421
3297.000	11.90893	0.49054	10.59681	0.23075
3298.000	11.93164	0.49633	10.57197	0.19752
3299.000	11.94300	0.47880	10.58344	0.18187
3300.000	11.94110	0.49242	10.58917	0.21315
3301.000	11.92029	0.50219	10.57388	0.21903
3302.000	11.89379	0.49446	10.56242	0.19753
3303.000	11.96003	0.46709	10.60636	0.17012
3304.000	11.94678	0.50604	10.58917	0.18578
3305.000	11.92786	0.51775	10.58344	0.19165
3306.000	11.91650	0.47495	10.59299	0.20924
3307.000	11.91839	0.53334	10.56433	0.22295
3308.000	11.94867	0.50993	10.58535	0.20338
3309.000	11.95057	0.48073	10.56051	0.19753
3310.000	11.92407	0.48467	10.56815	0.20144
3311.000	11.94678	0.49241	10.57770	0.17209
3312.000	11.91082	0.46523	10.57388	0.17014
3313.000	11.88053	0.49448	10.53949	0.17798
3314.000	11.92407	0.48856	10.52420	0.21124
3315.000	11.90136	0.48860	10.52038	0.20342
3316.000	11.93732	0.51773	10.50127	0.19757
3317.000	11.90325	0.49639	10.52994	0.20146
3318.000	11.86160	0.50036	10.48216	0.23083
3319.000	11.89757	0.49640	10.52420	0.22102
3320.000	11.88053	0.46139	10.52612	0.18777
3321.000	11.90325	0.47887	10.50318	0.23864
3322.000	11.90136	0.47887	10.55478	0.21905
3323.000	11.89000	0.47305	10.49362	0.24843
3324.000	11.84267	0.47703	10.50318	0.19365
3325.000	11.88621	0.48279	10.52994	0.23471
3326.000	11.92029	0.43991	10.56051	0.20535
3327.000	11.85971	0.46337	10.49362	0.25430
3328.000	11.86349	0.42248	10.52420	0.19951
3329.000	11.88621	0.42439	10.50700	0.18583
3330.000	11.88432	0.43607	10.50127	0.25821
3331.000	11.82941	0.41864	10.52420	0.17995
3332.000	11.87864	0.39715	10.55096	0.17798
3333.000	11.85781	0.44001	10.53949	0.18581
3334.000	11.79342	0.50048	10.56624	0.17210
3335.000	11.83509	0.43810	10.51083	0.16626
3336.000	11.82941	0.42448	10.53949	0.18190
3337.000	11.81236	0.43619	10.49171	0.23278
3338.000	11.83888	0.43031	10.51083	0.23864
3339.000	11.83888	0.42641	10.48407	0.20932
3340.000	11.81047	0.41088	10.49171	0.22496
3341.000	11.78774	0.40896	10.48980	0.18584
3342.000	11.78395	0.40702	10.49745	0.23474
3343.000	11.81804	0.38555	10.51274	0.23472
3344.000	11.83509	0.38748	10.49554	0.23278
3345.000	11.82562	0.33686	10.50509	0.24647
3346.000	11.78395	0.39144	10.53185	0.21319
3347.000	11.78774	0.37002	10.45730	0.26411
3348.000	11.81994	0.35440	10.52994	0.20146
3349.000	11.81426	0.37193	10.52994	0.19364
3350.000	11.78963	0.37975	10.50127	0.24451
3351.000	11.79910	0.36221	10.55669	0.18971
3352.000	11.76689	0.35836	10.53376	0.19755
3353.000	11.73847	0.37593	10.52229	0.24645
3354.000	11.80857	0.34467	10.49171	0.24061
3355.000	11.78205	0.38950	10.53567	0.17994
3356.000	11.78584	0.39144	10.48789	0.18779
3357.000	11.76879	0.38952	10.53758	0.23275
3358.000	11.78016	0.36224	10.50509	0.16822
3359.000	11.78774	0.39728	10.50127	0.19365
3360.000	11.78963	0.39338	10.48598	0.21127
3361.000	11.78963	0.37780	10.50318	0.18779
3362.000	11.82562	0.32713	10.49936	0.20344
3363.000	11.78774	0.29212	10.53567	0.19363
3364.000	11.77068	0.32914	10.49745	0.22104
3365.000	11.80289	0.30573	10.48407	0.20345
3366.000	11.74037	0.31944	10.49171	0.15845
3367.000	11.68919	0.40327	10.44010	0.12522
3368.000	11.66264	0.42668	10.39420	0.10762
3369.000	11.53364	0.41519	10.29280	0.13115
3370.000	11.39882	0.41343	10.19899	0.21930
3371.000	11.28669	0.34922	10.08979	0.30555
3372.000	11.06026	0.34559	9.93066	0.32334
3373.000	10.82204	0.34391	9.79249	0.37052
3374.000	10.61973	0.43408	9.57733	0.31583
3375.000	10.45922	0.47930	9.44465	0.35128
3376.000	10.22962	0.46203	9.28875	0.24542
3377.000	10.06680	0.40743	9.08067	0.21413
3378.000	9.96327	0.36249	8.88973	0.26731
3379.000	9.86927	0.33908	8.80480	0.31456
3380.000	9.73681	0.32156	8.71403	0.26744
3381.000	9.67150	0.30005	8.66187	0.28124
3382.000	9.67150	0.24907	8.57684	0.33639
3383.000	9.66574	0.21769	8.60003	0.30096
3384.000	9.71760	0.14118	8.65221	0.25175
3385.000	9.74449	0.01961	8.70630	0.21238
3386.000	9.79825	-0.00588	8.72369	0.14748
3387.000	9.84816	-0.11369	8.73335	0.14354
3388.000	9.90572	-0.08623	8.79128	0.10027
3389.000	9.89997	-0.11955	8.80673	0.09633
3390.000	9.94792	-0.03135	8.81252	0.16317
3391.000	9.91531	-0.06467	8.80093	0.16711
3392.000	9.88846	-0.05292	8.81831	0.09633
3393.000	9.85775	-0.01960	8.81252	0.04325
3394.000	9.85967	-0.07840	8.81831	0.08060
3395.000	9.78865	0.01372	8.82989	0.11402
3396.000	9.78673	-0.06470	8.79707	0.04915
3397.000	9.74449	-0.03137	8.75845	0.13567
3398.000	9.69071	0.01569	8.71983	0.11405
3399.000	9.68879	-0.00981	8.69471	0.11013
3400.000	9.67726	-0.01373	8.69278	0.17306
3401.000	9.65997	-0.00588	8.66960	0.12587
3402.000	9.67534	0.04903	8.64061	0.19275
3403.000	9.69263	0.05491	8.63289	0.13965
3404.000	9.68687	0.04314	8.64641	0.19275
3405.000	9.68879	0.04314	8.63289	0.17899
3406.000	9.67150	0.12748	8.64641	0.19668
3407.000	9.70032	0.08236	8.65028	0.16324
3408.000	9.68687	0.03922	8.65607	0.15931
3409.000	9.72529	0.03333	8.67926	0.15733
3410.000	9.70992	0.10981	8.62902	0.16325
3411.000	9.71952	0.09412	8.64448	0.20455
3412.000	9.69071	0.05295	8.62902	0.13375
3413.000	9.65421	0.10591	8.63675	0.12785
3414.000	9.65037	0.15886	8.63482	0.11211
3415.000	9.65037	0.12748	8.58070	0.18491
3416.000	9.62731	0.13926	8.63095	0.17505
3417.000	9.61193	0.17457	8.60003	0.11802
3418.000	9.57541	0.11182	8.61743	0.08655
3419.000	9.55427	0.12360	8.61163	0.12195
3420.000	9.56196	0.18833	8.59230	0.10229
3421.000	9.52543	0.21386	8.54010	0.12591
3422.000	9.52158	0.16089	8.53044	0.19477
3423.000	9.48504	0.13343	8.53430	0.20264
3424.000	9.51196	0.14912	8.52657	0.16133
3425.000	9.50427	0.15501	8.51690	0.18691
3426.000	9.48312	0.15698	8.53624	0.18690
3427.000	9.44849	0.18839	8.54397	0.23608
3428.000	9.49466	0.10988	8.50723	0.22233
3429.000	9.48504	0.12558	8.48596	0.18299
3430.000	9.50812	0.10595	8.51884	0.20068
3431.000	9.52158	0.15108	8.51690	0.16724
3432.000	9.51966	0.10399	8.51690	0.16724
3433.000	9.48696	0.05298	8.49950	0.22234
3434.000	9.50043	0.08241	8.48016	0.21054
3435.000	9.49273	0.05298	8.49563	0.23021
3436.000	9.48312	0.14324	8.50143	0.16724
3437.000	9.46773	0.10008	8.50723	0.15740
3438.000	9.49273	0.10400	8.50917	0.11805
3439.000	9.53119	0.10398	8.51690	0.03738
3440.000	9.44849	0.09223	8.53430	0.07870
3441.000	9.51581	0.00000	8.52464	0.09837
3442.000	9.51196	0.06279	8.47823	0.13184
3443.000	9.54081	0.05101	8.50337	0.02164
3444.000	9.50043	0.10988	8.52270	0.05312
3445.000	9.48312	0.03532	8.45888	0.07871
3446.000	9.48312	0.05887	8.50143	-0.01181
3447.000	9.45426	0.04710	8.52270	-0.00393
3448.000	9.51196	0.06475	8.45308	0.02755
3449.000	9.47735	0.08242	8.46469	0.07478
3450.000	9.43310	0.03140	8.47629	0.05116
3451.000	9.47158	0.05887	8.47436	0.03345
3452.000	9.48889	0.04121	8.48209	0.05116
3453.000	9.47350	0.06672	8.47823	0.07084
3454.000	9.48504	0.01766	8.45308	0.07871
3455.000	9.47542	0.06868	8.44728	0.09446
3456.000	9.44465	0.04514	8.42213	0.07282
3457.000	9.45619	0.03336	8.42213	0.08659
3458.000	9.44080	0.06869	8.40278	0.08660
3459.000	9.49850	0.06868	8.42987	0.07872
3460.000	9.44849	0.08831	8.36021	0.11613
3461.000	9.49273	0.06475	8.43761	0.02558
3462.000	9.48504	0.06279	8.35054	0.14369
3463.000	9.50812	0.05494	8.38537	0.13974
3464.000	9.48889	0.08045	8.35634	0.15156
3465.000	9.47927	0.02943	8.37763	0.16730
3466.000	9.44465	0.04121	8.33699	0.16141
3467.000	9.44080	0.05691	8.30215	0.19883
3468.000	9.42156	0.06869	8.29053	0.22836
3469.000	9.41771	0.07262	8.30215	0.26379
3470.000	9.43310	0.09616	8.30989	0.20867
3471.000	9.43118	0.05495	8.33312	0.24802
3472.000	9.44465	0.06672	8.37182	0.21454
3473.000	9.41194	0.08047	8.37956	0.23225
3474.000	9.43118	0.07261	8.38343	0.18698
3475.000	9.44080	0.07065	8.37956	0.13777
3476.000	9.43503	0.08439	8.39891	0.18894
3477.000	9.41386	0.10206	8.40278	0.22042
3478.000	9.43887	0.09224	8.41439	0.15351
3479.000	9.43887	0.12756	8.36989	0.18698
3480.000	9.41001	0.13935	8.39504	0.13186
3481.000	9.35421	0.14722	8.37763	0.16336
3482.000	9.41001	0.13935	8.38730	0.14368
3483.000	9.40039	0.09814	8.37569	0.12400
3484.000	9.37923	0.21591	8.38924	0.14171
3485.000	9.36190	0.19237	8.38730	0.13580
3486.000	9.35421	0.18256	8.39698	0.13777
3487.000	9.33496	0.19435	8.33893	0.22833
3488.000	9.34266	0.16686	8.41246	0.13383
3489.000	9.34651	0.17471	8.36215	0.16927
3490.000	9.35421	0.17274	8.39504	0.13974
3491.000	9.34651	0.14919	8.39117	0.17713
3492.000	9.31186	0.12565	8.40859	0.21452
3493.000	9.32918	0.15312	8.34667	0.24408
3494.000	9.37538	0.18451	8.38924	0.19681
3495.000	9.32533	0.14135	8.36021	0.25391
3496.000	9.33688	0.21790	8.37376	0.25193
3497.000	9.30030	0.16492	8.35441	0.25194
3498.000	9.31571	0.15706	8.37182	0.24012
3499.000	9.28105	0.14529	8.35247	0.22833
3500.000	9.26757	0.13548	8.30796	0.29528
3501.000	9.23675	0.15513	8.26343	0.31106
3502.000	9.20208	0.14140	8.29053	0.22442
3503.000	9.15391	0.18070	8.24213	0.29927
3504.000	9.09610	0.19055	8.25181	0.22248
3505.000	8.98233	0.30458	8.18597	0.23827
3506.000	8.84920	0.25358	8.08716	0.30923
3507.000	8.69858	0.25762	7.98830	0.32901
3508.000	8.44534	0.28927	7.78269	0.31735
3509.000	8.17628	0.35839	7.57298	0.35300
3510.000	7.99412	0.45311	7.38252	0.32356
3511.000	7.69728	0.38247	7.18216	0.27633
3512.000	7.46805	0.45171	6.96214	0.39890
3513.000	7.20356	0.41645	6.78871	0.38521
3514.000	6.97967	0.51143	6.57028	0.45060
3515.000	6.73997	0.46625	6.42000	0.35585
3516.000	6.52150	0.46646	6.32432	0.42512
3517.000	6.37705	0.35192	6.11527	0.40749
3518.000	6.28526	0.42515	6.01361	0.40756
3519.000	6.15240	0.34812	5.97059	0.40759
3520.000	6.06249	0.30070	5.82584	0.41957
3521.000	6.04685	0.28093	5.73386	0.38995
3522.000	5.99210	0.31459	5.71233	0.42362
3523.000	5.97059	0.34626	5.70450	0.45727
3524.000	5.99797	0.23742	5.68688	0.45927
3525.000	5.97646	0.20775	5.63990	0.45733
3526.000	5.99210	0.13454	5.55373	0.46729
3527.000	5.99210	0.13256	5.53611	0.43959
3528.000	5.96472	0.15434	5.54394	0.44354
3529.000	5.92365	0.18799	5.54003	0.34454
3530.000	5.85518	0.21572	5.54003	0.24950
3531.000	5.80236	0.18407	5.45579	0.33271
3532.000	5.73973	0.22170	5.45775	0.33469
3533.000	5.62227	0.17027	5.35390	0.32484
3534.000	5.52044	0.11485	5.28922	0.35063
3535.000	5.45775	0.10100	5.25982	0.30112
3536.000	5.38918	0.14657	5.18531	0.27738
3537.000	5.26374	0.27140	5.05783	0.25365
3538.000	5.05979	0.23978	5.00486	0.28538
3539.000	4.91068	0.22794	4.90283	0.28345
3540.000	4.77720	0.22204	4.81843	0.37665
3541.000	4.62010	0.14872	4.68884	0.48775
3542.000	4.47472	0.18842	4.57099	0.46205
3543.000	4.44132	0.30347	4.43346	0.51966
3544.000	4.28997	0.28567	4.36270	0.42251
3545.000	4.14643	0.37501	4.26638	0.52374
3546.000	4.05399	0.36712	4.10709	0.57742
3547.000	3.96152	0.33938	3.99300	0.57949
3548.000	3.90839	0.27192	3.92020	0.64701
3549.000	3.78637	0.24019	3.83558	0.64311
3550.000	3.76078	0.34740	3.83164	0.67090
3551.000	3.68991	0.33551	3.69975	0.65313
3552.000	3.56979	0.34350	3.56389	0.64727
3553.000	3.43586	0.26412	3.49298	0.57783
3554.000	3.29992	0.30388	3.41813	0.58979
3555.000	3.23095	0.20856	3.30386	0.60376
3556.000	3.14226	0.19070	3.21124	0.65744
3557.000	3.07721	0.24236	3.05552	0.62973
3558.000	2.97272	0.27814	2.96680	0.59998
3559.000	2.86821	0.27420	2.85638	0.53448
3560.000	2.79327	0.25832	2.77552	0.59214
3561.000	2.74198	0.32788	2.72423	0.51069
3562.000	2.66111	0.27623	2.66308	0.52860
3563.000	2.64533	0.18283	2.59008	0.49286
3564.000	2.54076	0.14906	2.57035	0.45313
3565.000	2.53287	0.17887	2.48354	0.41142
3566.000	2.47367	0.18683	2.44407	0.48497
3567.000	2.50524	0.20670	2.39078	0.47306
3568.000	2.48156	0.25242	2.34934	0.42339
3569.000	2.46578	0.23056	2.31579	0.40551
3570.000	2.38092	0.24449	2.26052	0.41745
3571.000	2.32960	0.24648	2.20722	0.36976
3572.000	2.29802	0.22065	2.14602	0.34194
3573.000	2.22499	0.18488	2.09864	0.32406
3574.000	2.20919	0.18289	2.05520	0.27834
3575.000	2.16971	0.12922	2.04138	0.30021
3576.000	2.11641	0.09940	1.96437	0.24058
3577.000	2.09666	0.13519	1.91895	0.27240
3578.000	2.01374	0.14116	1.91105	0.25053
3579.000	2.02558	0.21472	1.81428	0.26844
3580.000	1.98017	0.24455	1.78268	0.27441
3581.000	1.85181	0.23662	1.71750	0.22868
3582.000	1.78861	0.19885	1.65824	0.28835
3583.000	1.75700	0.20481	1.58713	0.24858
3584.000	1.65824	0.22670	1.52193	0.15910
3585.000	1.56540	0.21080	1.43500	0.14319
3586.000	1.55354	0.15711	1.41722	0.15513
3587.000	1.46266	0.18893	1.29274	0.14121
3588.000	1.43303	0.11734	1.23939	0.16111
3589.000	1.37375	0.09348	1.19196	0.21481
3590.000	1.29669	0.07359	1.17418	0.13923
3591.000	1.32831	0.06762	1.14453	0.17305
3592.000	1.33621	0.12331	1.12082	0.17703
3593.000	1.25124	0.14320	1.09513	0.19095
3594.000	1.29867	0.15514	1.04177	0.28643
3595.000	1.27693	0.18497	1.01607	0.29041
3596.000	1.26310	0.23867	0.99631	0.21880
3597.000	1.24729	0.18298	0.99038	0.23273
3598.000	1.28484	0.16508	0.91923	0.15913
3599.000	1.23741	0.12133	0.89156	0.14123
3600.000	1.26112	0.07160	0.93109	0.06564
3601.000	1.24532	0.05768	0.88958	0.06763
3602.000	1.24927	0.00199	0.87179	0.07758
3603.000	1.27298	-0.01989	0.88563	0.07957
3604.000	1.24927	-0.05569	0.86586	0.01591
3605.000	1.24136	-0.06365	0.86191	-0.01790
3606.000	1.25915	-0.01193	0.84412	-0.02188
3607.000	1.23544	-0.03182	0.82633	-0.02984
3608.000	1.24334	-0.04376	0.81052	-0.04575
3609.000	1.20777	-0.04575	0.78284	-0.07559
3610.000	1.15837	-0.06962	0.76505	-0.04376
3611.000	1.09908	-0.05967	0.74924	-0.01392
3612.000	1.12675	-0.02387	0.73738	-0.09151
3613.000	1.10501	-0.07161	0.70773	-0.07559
3614.000	1.12477	-0.02586	0.69389	-0.02984
3615.000	1.08327	-0.08155	0.68796	-0.05968
3616.000	1.09710	-0.02785	0.66820	-0.06366
3617.000	1.13465	-0.02785	0.64645	-0.02188
3618.000	1.16034	-0.03182	0.69587	-0.04774
3619.000	1.14651	-0.04376	0.69785	-0.00398
3620.000	1.16627	-0.04973	0.72354	-0.00398
3621.000	1.18998	-0.06166	0.72157	0.00995
3622.000	1.18208	-0.09149	0.69587	-0.02586
3623.000	1.20777	-0.12332	0.72354	-0.02785
3624.000	1.21765	-0.11337	0.74529	-0.03183
3625.000	1.21963	-0.14917	0.74133	-0.01392
3626.000	1.25520	-0.11934	0.71959	-0.05968
3627.000	1.22753	-0.11536	0.73540	-0.05172
3628.000	1.24136	-0.13326	0.71168	-0.05968
3629.000	1.23148	-0.14321	0.70378	-0.11339
3630.000	1.22160	-0.16707	0.67215	-0.07957
3631.000	1.25124	-0.10541	0.66622	-0.08952
3632.000	1.19591	-0.13923	0.69192	-0.06366
3633.000	1.22358	-0.08950	0.68401	-0.08554
3634.000	1.22951	-0.09945	0.68796	-0.06565
3635.000	1.22951	-0.09945	0.65634	-0.12533
3636.000	1.22753	-0.10542	0.66029	-0.06366
3637.000	1.26903	-0.01591	0.69389	-0.08952
3638.000	1.23741	-0.07956	0.67215	-0.11936
3639.000	1.25915	-0.02387	0.68599	-0.05371
3640.000	1.25717	-0.03779	0.67215	-0.05570
3641.000	1.21963	-0.05768	0.65634	-0.10742
3642.000	1.25717	-0.07160	0.64448	-0.13925
3643.000	1.28286	-0.03580	0.64645	-0.09151
3644.000	1.30064	-0.03182	0.65634	-0.10145
3645.000	1.32436	-0.04177	0.66820	-0.12135
3646.000	1.30460	-0.03381	0.72354	-0.10941
3647.000	1.29867	-0.00796	0.71564	-0.07957
3648.000	1.33424	-0.02983	0.72354	-0.03979
3649.000	1.35202	-0.09746	0.72552	-0.12532
3650.000	1.35795	-0.01591	0.68796	-0.07360
3651.000	1.35004	-0.00597	0.73145	-0.02984
3652.000	1.36980	-0.01193	0.72552	-0.08554
3653.000	1.37375	0.01989	0.71366	-0.09151
3654.000	1.38561	-0.03381	0.72157	-0.06565
3655.000	1.38561	-0.01989	0.74331	-0.09548
3656.000	1.38166	-0.02188	0.71564	-0.03183
3657.000	1.36387	0.00000	0.73343	-0.01591
3658.000	1.39944	-0.02188	0.74924	-0.04973
3659.000	1.38758	-0.02784	0.71168	-0.05172
3660.000	1.37178	-0.04972	0.71168	-0.09151
3661.000	1.36387	-0.04773	0.70773	-0.05371
3662.000	1.40537	-0.00398	0.71761	-0.04376
3663.000	1.37375	-0.05171	0.70773	-0.05172
3664.000	1.40932	-0.05171	0.72750	-0.08753
3665.000	1.39549	-0.02784	0.72947	-0.05570
3666.000	1.35004	-0.02983	0.72354	-0.03183
3667.000	1.39944	-0.04773	0.69785	-0.06366
3668.000	1.39944	-0.06961	0.72552	-0.02984
3669.000	1.43500	0.01193	0.69785	-0.07360
3670.000	1.43105	-0.00199	0.73936	-0.02586
3671.000	1.41327	-0.01193	0.72157	-0.00199
3672.000	1.41722	0.00398	0.67808	-0.01194
3673.000	1.43500	-0.00199	0.70971	-0.02586
3674.000	1.47254	0.01591	0.72552	-0.04376
3675.000	1.42117	0.02983	0.70180	-0.05570
3676.000	1.46662	0.00994	0.71761	-0.02387
3677.000	1.44093	0.04574	0.73343	-0.00398
3678.000	1.43303	0.03779	0.72947	-0.01790
3679.000	1.46662	0.02387	0.70575	-0.04575
3680.000	1.50613	0.02983	0.71959	-0.03979
3681.000	1.47057	0.05171	0.71366	-0.00597
3682.000	1.46859	0.03580	0.70971	-0.03979
3683.000	1.45476	0.02585	0.69785	-0.07758
3684.000	1.42513	0.02387	0.72750	-0.05172
3685.000	1.48242	0.01193	0.70575	-0.02387
3686.000	1.47057	0.02784	0.70575	-0.02984
3687.000	1.49625	0.02983	0.72157	-0.01591
3688.000	1.47057	-0.00398	0.71564	-0.01392
3689.000	1.44093	-0.01392	0.71168	0.00597
3690.000	1.50218	0.03381	0.72354	0.02586
3691.000	1.44686	0.01193	0.72947	-0.00199
3692.000	1.45674	0.05768	0.71168	-0.00597
3693.000	1.44093	0.01591	0.69587	0.00000
3694.000	1.48242	0.06165	0.73145	-0.00597
3695.000	1.46069	0.03381	0.69192	0.03979
3696.000	1.45871	-0.00994	0.76110	0.02586
3697.000	1.43896	0.01193	0.72157	-0.00199
3698.000	1.45081	0.00994	0.75912	0.01194
3699.000	1.46464	0.01193	0.73540	-0.03979
3700.000	1.45674	0.03182	0.68006	-0.01591
3701.000	1.48835	0.03779	0.74331	0.00199
3702.000	1.50415	-0.00199	0.70971	-0.01194
3703.000	1.51206	0.00994	0.70378	-0.03780
3704.000	1.53379	-0.00795	0.70773	0.01591
3705.000	1.51996	-0.01591	0.71168	0.04973
3706.000	1.50613	0.03779	0.70378	-0.01989
3707.000	1.52391	0.05767	0.76110	0.00000
3708.000	1.51206	0.03381	0.72552	-0.01591
3709.000	1.48637	0.00796	0.71168	0.02785
3710.000	1.50415	0.04375	0.71761	0.05769
3711.000	1.48835	0.03580	0.74331	0.04973
3712.000	1.50810	0.02188	0.71564	0.00597
3713.000	1.49625	0.03182	0.70971	0.08156
3714.000	1.49625	0.02585	0.76901	0.06366
3715.000	1.51601	0.02585	0.73145	0.05172
3716.000	1.51008	0.01989	0.74133	0.09151
3717.000	1.50020	0.02585	0.72750	0.03581
3718.000	1.50810	0.01989	0.74133	0.05172
3719.000	1.51008	0.05568	0.69587	0.04178
3720.000	1.51996	-0.00597	0.77098	0.06366
3721.000	1.52589	0.02585	0.76505	0.01989
3722.000	1.49428	-0.01392	0.73936	0.06565
3723.000	1.51206	-0.01591	0.77296	-0.01790
3724.000	1.55157	0.01989	0.78087	0.05968
3725.000	1.54169	0.03779	0.70773	0.02586
3726.000	1.50415	0.01591	0.73540	0.00796
3727.000	1.50613	0.00795	0.73936	-0.00398
3728.000	1.48242	-0.00199	0.75912	-0.00796
3729.000	1.49032	-0.01989	0.73936	0.03183
3730.000	1.50415	0.00398	0.74529	0.00796
3731.000	1.46662	-0.02784	0.73936	0.01989
3732.000	1.49428	-0.01591	0.75912	0.00995
3733.000	1.49230	-0.06762	0.74726	0.08355
3734.000	1.46464	-0.05370	0.75912	0.05769
3735.000	1.47452	-0.08154	0.77494	0.12333
3736.000	1.46662	-0.05370	0.78877	0.09151
3737.000	1.50613	-0.04375	0.77889	0.03979
3738.000	1.45476	-0.10541	0.77494	0.06962
3739.000	1.50218	-0.09944	0.76703	0.06167
3740.000	1.45279	-0.07557	0.77889	0.08554
3741.000	1.52984	-0.04773	0.74924	0.09747
3742.000	1.53774	-0.06961	0.74529	0.10145
3743.000	1.51798	-0.07955	0.77296	0.06366
3744.000	1.48440	-0.09745	0.74726	0.09946
3745.000	1.46662	-0.06165	0.76703	0.09548
3746.000	1.50218	-0.08353	0.74924	0.04973
3747.000	1.45476	-0.09944	0.77889	0.07360
3748.000	1.49032	-0.07358	0.76703	0.12532
3749.000	1.46266	-0.05966	0.76110	0.05769
3750.000	1.47649	-0.15910	0.76901	0.08554
3751.000	1.45476	-0.12728	0.77098	0.08753
3752.000	1.50415	-0.07955	0.75715	0.09946
3753.000	1.49625	-0.06165	0.75122	0.07957
3754.000	1.48835	-0.08751	0.75122	0.12532
3755.000	1.49823	-0.12131	0.76110	0.09548
3756.000	1.45871	-0.08353	0.77098	0.10742
3757.000	1.51798	-0.12927	0.77494	0.09747
3758.000	1.47649	-0.09745	0.76901	0.08753
3759.000	1.47254	-0.09745	0.73540	0.07161
3760.000	1.50810	-0.13126	0.73540	0.04973
3761.000	1.50020	-0.04972	0.76703	0.05769
3762.000	1.48045	-0.06961	0.77296	0.08554
3763.000	1.46069	-0.09347	0.75912	0.10145
3764.000	1.46266	-0.06762	0.78877	0.04973
3765.000	1.48045	-0.03381	0.77494	0.09747
3766.000	1.47254	-0.08353	0.75122	0.06962
3767.000	1.45081	-0.09546	0.75715	0.01790
3768.000	1.47057	-0.07955	0.77098	0.01591
3769.000	1.45674	-0.05966	0.79273	0.03183
3770.000	1.47649	-0.06961	0.82238	0.03183
3771.000	1.49823	-0.06364	0.78680	0.04177
3772.000	1.51206	-0.07756	0.79273	0.08952
3773.000	1.50218	-0.10540	0.81249	0.07957
3774.000	1.45871	-0.08353	0.78877	0.04774
3775.000	1.50613	-0.10938	0.81249	0.00398
3776.000	1.48045	-0.11137	0.76703	0.07957
3777.000	1.48637	-0.10540	0.77296	0.02785
3778.000	1.48045	-0.09347	0.75122	0.04575
3779.000	1.46266	-0.06364	0.79273	0.03183
3780.000	1.50810	-0.08750	0.77691	0.00398
3781.000	1.48242	-0.09546	0.80459	-0.03978
3782.000	1.46464	-0.10342	0.76703	0.05371
3783.000	1.50415	-0.06961	0.80261	0.03780
3784.000	1.51601	-0.07955	0.75517	0.02188
3785.000	1.45476	-0.06762	0.84017	0.04177
3786.000	1.50613	-0.11932	0.78087	0.03382
3787.000	1.49032	-0.11137	0.81249	0.04376
3788.000	1.48242	-0.09745	0.81842	0.04177
3789.000	1.52589	-0.10341	0.77889	0.01194
3790.000	1.51403	-0.07955	0.81052	0.06366
3791.000	1.47254	-0.15314	0.81447	0.01591
3792.000	1.49230	-0.11137	0.79470	0.00796
3793.000	1.51206	-0.07159	0.79668	0.00995
3794.000	1.48637	-0.11535	0.80656	-0.00995
3795.000	1.51008	-0.11734	0.80261	0.00796
3796.000	1.51206	-0.08949	0.81447	0.00000
3797.000	1.49625	-0.09148	0.82633	-0.01790
3798.000	1.45279	-0.12728	0.83226	0.02586
3799.000	1.48440	-0.09745	0.75319	-0.03581
3800.000	1.50020	-0.12728	0.80261	-0.00398
3801.000	1.48835	-0.14916	0.78680	-0.05172
3802.000	1.49428	-0.12728	0.81052	-0.02586
3803.000	1.48835	-0.10540	0.80261	0.00000
3804.000	1.50810	-0.09745	0.79470	-0.02387
3805.000	1.49032	-0.08949	0.78680	0.01790
3806.000	1.49428	-0.11137	0.81052	0.00199
3807.000	1.49625	-0.14518	0.81249	-0.06763
3808.000	1.45279	-0.14319	0.83621	-0.01989
3809.000	1.50810	-0.16507	0.81052	-0.00597
3810.000	1.50810	-0.15512	0.81447	-0.06962
3811.000	1.51996	-0.09745	0.78087	0.00796
3812.000	1.50218	-0.14518	0.78680	-0.00995
3813.000	1.47057	-0.13126	0.79273	-0.02387
3814.000	1.44883	-0.16308	0.77296	-0.06565
3815.000	1.47057	-0.14319	0.80459	-0.03183
3816.000	1.48440	-0.15313	0.83226	-0.03780
3817.000	1.42710	-0.15115	0.79668	-0.02188
3818.000	1.46859	-0.12927	0.81645	-0.05968
3819.000	1.49625	-0.11933	0.78680	-0.01392
3820.000	1.49823	-0.14518	0.79075	-0.00398
3821.000	1.45871	-0.14319	0.80063	0.01790
3822.000	1.45674	-0.11137	0.80656	0.02188
3823.000	1.49230	-0.18495	0.82040	0.00000
3824.000	1.44093	-0.13325	0.78087	0.05769
3825.000	1.48242	-0.12728	0.82633	0.01194
3826.000	1.48835	-0.15910	0.79075	-0.01194
3827.000	1.51206	-0.13325	0.84610	-0.04376
3828.000	1.50218	-0.14120	0.78877	-0.02188
3829.000	1.47452	-0.18694	0.78482	-0.02984
3830.000	1.47254	-0.19490	0.83621	-0.05968
3831.000	1.50218	-0.15512	0.79075	-0.03780
3832.000	1.48242	-0.18098	0.81842	-0.03581
3833.000	1.48440	-0.16706	0.82633	-0.03978
3834.000	1.45081	-0.15513	0.83819	0.00796
3835.000	1.39154	-0.22673	0.76703	-0.06167
3836.000	1.45871	-0.22274	0.83424	-0.01989
3837.000	1.42710	-0.18297	0.84610	-0.03978
3838.000	1.45674	-0.17104	0.83028	-0.00398
3839.000	1.46464	-0.15711	0.81052	-0.04177
3840.000	1.46464	-0.15910	0.80854	-0.04774
3841.000	1.46464	-0.15512	0.83028	-0.05570
3842.000	1.45081	-0.18496	0.80459	-0.04376
3843.000	1.47057	-0.17700	0.83028	-0.01790
3844.000	1.48835	-0.11336	0.84214	-0.09150
3845.000	1.49032	-0.18495	0.83819	-0.03780
3846.000	1.50218	-0.15910	0.83226	-0.08355
3847.000	1.48440	-0.18297	0.79470	-0.08554
3848.000	1.49032	-0.16904	0.83226	-0.07758
3849.000	1.51798	-0.15114	0.84412	-0.06962
3850.000	1.50613	-0.12927	0.81842	-0.10941
3851.000	1.51008	-0.16705	0.82633	-0.08355
3852.000	1.47847	-0.19490	0.81249	-0.07161
3853.000	1.52193	-0.13921	0.83028	-0.07758
3854.000	1.49428	-0.13325	0.78482	-0.07957
3855.000	1.54367	-0.13324	0.81645	-0.06366
3856.000	1.50218	-0.12927	0.80063	-0.09349
3857.000	1.51798	-0.16705	0.79075	-0.10145
3858.000	1.50020	-0.13524	0.78680	-0.11140
3859.000	1.50020	-0.14120	0.79470	-0.09946
3860.000	1.48242	-0.15313	0.81052	-0.08156
3861.000	1.48637	-0.16706	0.83226	-0.09747
3862.000	1.51008	-0.16507	0.82435	-0.10742
3863.000	1.51798	-0.15114	0.80063	-0.15317
3864.000	1.46859	-0.17302	0.81645	-0.15715
3865.000	1.47649	-0.15115	0.83621	-0.16709
3866.000	1.45279	-0.21877	0.85598	-0.15516
3867.000	1.47452	-0.23666	0.87377	-0.18102
3868.000	1.51996	-0.14319	0.81249	-0.15516
3869.000	1.52391	-0.19092	0.80261	-0.09946
3870.000	1.50613	-0.18098	0.78680	-0.12134
3871.000	1.50810	-0.19092	0.79668	-0.14521
3872.000	1.47452	-0.19490	0.83226	-0.15914
3873.000	1.47847	-0.20882	0.83819	-0.16511
3874.000	1.49428	-0.17700	0.80656	-0.10344
3875.000	1.51403	-0.14916	0.80656	-0.16113
3876.000	1.55947	-0.14915	0.79075	-0.12930
3877.000	1.52589	-0.13722	0.79668	-0.12333
3878.000	1.50613	-0.14319	0.79470	-0.11140
3879.000	1.52193	-0.17302	0.79866	-0.17505
3880.000	1.50613	-0.19490	0.79273	-0.13527
3881.000	1.51403	-0.18296	0.79668	-0.13527
3882.000	1.54959	-0.18495	0.82238	-0.12930
3883.000	1.49823	-0.17103	0.83028	-0.16511
3884.000	1.50810	-0.14120	0.79273	-0.13129
3885.000	1.52391	-0.17103	0.82040	-0.15118
3886.000	1.51601	-0.12131	0.83226	-0.14521
3887.000	1.52984	-0.14915	0.81842	-0.17903
3888.000	1.52984	-0.11336	0.80854	-0.15317
3889.000	1.50020	-0.17700	0.76505	-0.17108
3890.000	1.54367	-0.14716	0.81842	-0.15914
3891.000	1.57923	-0.13125	0.81447	-0.20887
3892.000	1.53379	-0.17700	0.80854	-0.18301
3893.000	1.54169	-0.12330	0.80854	-0.18898
3894.000	1.52193	-0.13126	0.78877	-0.18500
3895.000	1.53181	-0.13523	0.78284	-0.15715
3896.000	1.53576	-0.15711	0.77691	-0.17108
3897.000	1.53576	-0.19092	0.80261	-0.17505
3898.000	1.55552	-0.18694	0.83819	-0.16511
3899.000	1.51403	-0.19291	0.81842	-0.20290
3900.000	1.52391	-0.17302	0.79075	-0.16511
3901.000	1.50415	-0.19689	0.81645	-0.12930
3902.000	1.52391	-0.21876	0.79866	-0.17903
3903.000	1.51996	-0.21081	0.84214	-0.19892
3904.000	1.51008	-0.19490	0.83226	-0.18102
3905.000	1.53181	-0.17302	0.81842	-0.13726
3906.000	1.52984	-0.17700	0.78680	-0.20887
3907.000	1.54169	-0.23467	0.85005	-0.19693
3908.000	1.51206	-0.16904	0.83819	-0.18301
3909.000	1.51008	-0.18893	0.80459	-0.18301
3910.000	1.48440	-0.21677	0.80063	-0.20290
3911.000	1.54367	-0.14915	0.80261	-0.18301
3912.000	1.52391	-0.25853	0.84412	-0.21086
3913.000	1.52391	-0.20086	0.81249	-0.19097
3914.000	1.53379	-0.19489	0.81447	-0.19494
3915.000	1.57725	-0.18495	0.80656	-0.17107
3916.000	1.55157	-0.19887	0.80261	-0.19097
3917.000	1.55157	-0.20285	0.77691	-0.18102
3918.000	1.57725	-0.24063	0.77098	-0.23274
3919.000	1.55354	-0.20682	0.79668	-0.24269
3920.000	1.58120	-0.19290	0.80854	-0.21484
3921.000	1.58120	-0.18694	0.82040	-0.19693
3922.000	1.54762	-0.19887	0.80459	-0.26258
3923.000	1.55947	-0.21478	0.80063	-0.21285
3924.000	1.53379	-0.26848	0.77889	-0.21285
3925.000	1.48835	-0.21677	0.79075	-0.19495
3926.000	1.56935	-0.21279	0.78284	-0.17108
3927.000	1.51008	-0.22274	0.81447	-0.16908
3928.000	1.54564	-0.19688	0.77494	-0.16710
3929.000	1.49823	-0.16904	0.77296	-0.20091
3930.000	1.49625	-0.23666	0.79866	-0.19892
3931.000	1.53181	-0.23268	0.76308	-0.16909
3932.000	1.52786	-0.27643	0.78284	-0.20290
3933.000	1.49823	-0.27246	0.78877	-0.14720
3934.000	1.51601	-0.21478	0.78284	-0.16909
3935.000	1.51601	-0.28041	0.75517	-0.20688
3936.000	1.51206	-0.24859	0.77098	-0.22876
3937.000	1.52391	-0.21279	0.75122	-0.21683
3938.000	1.52589	-0.22274	0.78877	-0.21285
3939.000	1.51601	-0.26251	0.80459	-0.19097
3940.000	1.51601	-0.20882	0.78284	-0.16710
3941.000	1.49230	-0.26848	0.79075	-0.21285
3942.000	1.53181	-0.21478	0.77098	-0.20091
3943.000	1.52589	-0.23069	0.79273	-0.16511
3944.000	1.52984	-0.23268	0.77889	-0.18102
3945.000	1.53181	-0.25654	0.78087	-0.19495
3946.000	1.54762	-0.21478	0.80459	-0.18301
3947.000	1.52786	-0.23268	0.78482	-0.22279
3948.000	1.50613	-0.24064	0.79075	-0.18500
3949.000	1.52786	-0.23865	0.77296	-0.20091
3950.000	1.54564	-0.24461	0.80261	-0.22080
3951.000	1.51601	-0.21876	0.75912	-0.21484
3952.000	1.52984	-0.26848	0.74924	-0.23473
3953.000	1.52786	-0.28041	0.76308	-0.23075
3954.000	1.54564	-0.27444	0.75122	-0.24468
3955.000	1.51008	-0.25257	0.76110	-0.29839
3956.000	1.51798	-0.27842	0.77494	-0.22876
3957.000	1.54564	-0.29234	0.78087	-0.24070
3958.000	1.54762	-0.33211	0.78482	-0.25860
3959.000	1.53181	-0.29433	0.77691	-0.23672
3960.000	1.56737	-0.25455	0.79470	-0.25661
3961.000	1.52391	-0.24660	0.79668	-0.22081
3962.000	1.56342	-0.23665	0.79075	-0.23672
3963.000	1.55354	-0.22472	0.75912	-0.20887
3964.000	1.51996	-0.27444	0.75319	-0.23274
3965.000	1.51008	-0.28439	0.76308	-0.20887
3966.000	1.56145	-0.27444	0.77889	-0.27451
3967.000	1.50020	-0.28439	0.81249	-0.18500
3968.000	1.53379	-0.32416	0.79273	-0.24667
3969.000	1.50020	-0.26649	0.76308	-0.23672
3970.000	1.52786	-0.24660	0.77098	-0.26059
3971.000	1.54564	-0.30228	0.78877	-0.27451
3972.000	1.51996	-0.24461	0.79668	-0.26258
3973.000	1.50613	-0.30626	0.77691	-0.22677
3974.000	1.52984	-0.25654	0.78482	-0.21086
3975.000	1.50613	-0.32217	0.79273	-0.22677
3976.000	1.51403	-0.26649	0.80854	-0.21285
3977.000	1.52391	-0.27245	0.78284	-0.22876
3978.000	1.53774	-0.26052	0.76901	-0.24866
3979.000	1.52193	-0.31024	0.77889	-0.20887
3980.000	1.53576	-0.25853	0.80459	-0.20887
3981.000	1.50020	-0.30428	0.79273	-0.21086
3982.000	1.51206	-0.27444	0.76703	-0.26059
3983.000	1.51996	-0.32814	0.77098	-0.23274
3984.000	1.52589	-0.35001	0.76110	-0.22280
3985.000	1.52984	-0.30626	0.80459	-0.29639
3986.000	1.48242	-0.30826	0.79273	-0.25263
3987.000	1.57330	-0.28040	0.81052	-0.25860
3988.000	1.51798	-0.35399	0.81447	-0.23274
3989.000	1.53576	-0.29632	0.78087	-0.22876
3990.000	1.55552	-0.27842	0.83028	-0.24070
3991.000	1.53379	-0.26649	0.78877	-0.25064
3992.000	1.57527	-0.31620	0.81249	-0.26854
3993.000	1.50613	-0.32019	0.77296	-0.24866
3994.000	1.53971	-0.34404	0.79075	-0.20290
3995.000	1.51403	-0.30427	0.81249	-0.24467
3996.000	1.53971	-0.31024	0.82633	-0.23075
3997.000	1.51403	-0.31621	0.76901	-0.27650
3998.000	1.54762	-0.30626	0.77691	-0.26258
3999.000	1.53181	-0.29433	0.81842	-0.25462
4000.000	1.54762	-0.31024	0.80063	-0.22478
4001.000	1.49230	-0.30229	0.78680	-0.24667
4002.000	1.53971	-0.29234	0.79470	-0.23672
4003.000	1.52984	-0.28240	0.81249	-0.24666
4004.000	1.51996	-0.31024	0.85993	-0.26257
4005.000	1.50613	-0.31820	0.77098	-0.27650
4006.000	1.51601	-0.30030	0.79866	-0.27054
4007.000	1.51996	-0.32615	0.81645	-0.23672
4008.000	1.51996	-0.31422	0.81842	-0.28048
4009.000	1.50810	-0.36394	0.80854	-0.25064
4010.000	1.53774	-0.34206	0.82435	-0.25860
4011.000	1.51601	-0.31621	0.79866	-0.24269
4012.000	1.52786	-0.30825	0.80063	-0.28446
4013.000	1.51996	-0.34007	0.80459	-0.26457
4014.000	1.50415	-0.30229	0.78087	-0.27253
4015.000	1.49032	-0.29433	0.79273	-0.23672
4016.000	1.48637	-0.32615	0.80656	-0.22876
4017.000	1.51601	-0.32416	0.78482	-0.30634
4018.000	1.49823	-0.37786	0.79668	-0.26059
4019.000	1.47847	-0.32417	0.79470	-0.27451
4020.000	1.47847	-0.37190	0.77691	-0.26855
4021.000	1.51996	-0.34206	0.79273	-0.25064
4022.000	1.47452	-0.33212	0.84412	-0.22876
4023.000	1.44883	-0.39577	0.77889	-0.24667
4024.000	1.52391	-0.29632	0.78087	-0.24865
4025.000	1.48440	-0.37189	0.78284	-0.24468
4026.000	1.51403	-0.34604	0.80063	-0.19097
4027.000	1.51008	-0.27842	0.74133	-0.20290
4028.000	1.47452	-0.38383	0.76505	-0.26258
4029.000	1.49625	-0.34803	0.79075	-0.22279
4030.000	1.46859	-0.35997	0.77098	-0.26457
4031.000	1.46662	-0.32616	0.78680	-0.22677
4032.000	1.50810	-0.34206	0.75912	-0.30634
4033.000	1.50415	-0.32615	0.78087	-0.25064
4034.000	1.48045	-0.37190	0.77889	-0.26457
4035.000	1.48637	-0.40570	0.81842	-0.22279
4036.000	1.50020	-0.33610	0.75319	-0.24269
4037.000	1.50218	-0.37388	0.79273	-0.25462
4038.000	1.48242	-0.33212	0.81842	-0.25462
4039.000	1.49823	-0.35598	0.78482	-0.25661
4040.000	1.44686	-0.35798	0.78680	-0.30236
4041.000	1.44883	-0.38781	0.77296	-0.25661
4042.000	1.48242	-0.36593	0.79866	-0.27054
4043.000	1.44488	-0.36395	0.78877	-0.25064
4044.000	1.44488	-0.34605	0.80459	-0.26855
4045.000	1.45279	-0.30031	0.79075	-0.25263
4046.000	1.47649	-0.37190	0.77889	-0.20688
4047.000	1.46464	-0.32815	0.76505	-0.24070
4048.000	1.48242	-0.34405	0.78482	-0.21484
4049.000	1.49823	-0.30825	0.80854	-0.25462
4050.000	1.45871	-0.35400	0.77889	-0.27253
4051.000	1.52984	-0.32416	0.76505	-0.25263
4052.000	1.46464	-0.31224	0.80459	-0.25661
4053.000	1.48045	-0.30826	0.78877	-0.20290
4054.000	1.47847	-0.32417	0.76308	-0.21882
4055.000	1.51008	-0.29831	0.78284	-0.21086
4056.000	1.51798	-0.36195	0.77098	-0.20290
4057.000	1.48440	-0.33013	0.78680	-0.26258
4058.000	1.49032	-0.35400	0.75912	-0.31032
4059.000	1.47847	-0.32417	0.81447	-0.21683
4060.000	1.46464	-0.33013	0.76308	-0.24468
4061.000	1.49428	-0.33013	0.79075	-0.19296
4062.000	1.49823	-0.32814	0.78680	-0.27054
4063.000	1.49823	-0.30627	0.79075	-0.21086
4064.000	1.50218	-0.32416	0.76703	-0.21484
4065.000	1.49428	-0.30627	0.78284	-0.28645
4066.000	1.50415	-0.33013	0.81447	-0.26059
4067.000	1.43303	-0.31025	0.75122	-0.22678
4068.000	1.44093	-0.32417	0.77296	-0.25860
4069.000	1.47649	-0.34803	0.78284	-0.21882
4070.000	1.47649	-0.37587	0.78087	-0.24667
4071.000	1.43303	-0.33809	0.76308	-0.24070
4072.000	1.50020	-0.33808	0.79273	-0.21484
4073.000	1.44093	-0.35201	0.79470	-0.20887
4074.000	1.50020	-0.30030	0.78482	-0.27451
4075.000	1.49823	-0.37587	0.75319	-0.23473
4076.000	1.47254	-0.40570	0.81645	-0.19494
4077.000	1.49823	-0.33411	0.79075	-0.24070
4078.000	1.47452	-0.35400	0.79273	-0.20489
4079.000	1.46859	-0.34604	0.79668	-0.20091
4080.000	1.48242	-0.34803	0.80459	-0.25860
4081.000	1.47452	-0.29036	0.80854	-0.22876
4082.000	1.48440	-0.34803	0.80063	-0.24468
4083.000	1.45871	-0.32218	0.78877	-0.21086
4084.000	1.45476	-0.38582	0.73540	-0.21285
4085.000	1.46662	-0.33610	0.79075	-0.23274
4086.000	1.47057	-0.35798	0.76901	-0.22876
4087.000	1.46662	-0.36394	0.79470	-0.20091
4088.000	1.47057	-0.34207	0.76901	-0.22280
4089.000	1.45871	-0.40372	0.78877	-0.21285
4090.000	1.48242	-0.33809	0.80261	-0.22279
4091.000	1.46464	-0.35400	0.80656	-0.21882
4092.000	1.51206	-0.33411	0.77889	-0.24667
4093.000	1.47649	-0.35201	0.78482	-0.25462
4094.000	1.47847	-0.39775	0.82040	-0.23274
4095.000	1.45081	-0.35798	0.80261	-0.23672
4096.000	1.47254	-0.38979	0.80261	-0.25064
4097.000	1.45081	-0.36991	0.83028	-0.23274
4098.000	1.46266	-0.35997	0.78284	-0.25860
4099.000	1.48440	-0.35400	0.78482	-0.24070
4100.000	1.45871	-0.33411	0.78680	-0.24468
4101.000	1.47649	-0.37587	0.77889	-0.17903
4102.000	1.49428	-0.37587	0.79866	-0.22279
4103.000	1.47847	-0.32417	0.81447	-0.23672
4104.000	1.45871	-0.35599	0.79668	-0.23075
4105.000	1.46662	-0.32815	0.76110	-0.28446
4106.000	1.47057	-0.34803	0.78087	-0.24070
4107.000	1.41722	-0.33412	0.78680	-0.22279
4108.000	1.49032	-0.38581	0.76505	-0.25462
4109.000	1.44686	-0.34804	0.77494	-0.21882
4110.000	1.46069	-0.35798	0.80063	-0.27849
4111.000	1.45476	-0.36792	0.79668	-0.24070
4112.000	1.45674	-0.41764	0.81249	-0.26457
4113.000	1.45674	-0.37588	0.77098	-0.26457
4114.000	1.45081	-0.35997	0.79668	-0.25263
4115.000	1.47254	-0.34207	0.77691	-0.29640
4116.000	1.52786	-0.42757	0.75517	-0.28048
4117.000	1.45081	-0.38184	0.74924	-0.34215
4118.000	1.51206	-0.37984	0.80656	-0.26258
4119.000	1.48835	-0.38383	0.81052	-0.25263
4120.000	1.51798	-0.32615	0.78877	-0.26457
4121.000	1.50810	-0.33013	0.73540	-0.24667
4122.000	1.47649	-0.35201	0.77296	-0.24667
4123.000	1.49428	-0.37786	0.75912	-0.26457
4124.000	1.46266	-0.37985	0.78482	-0.24865
4125.000	1.47847	-0.35996	0.79470	-0.24070
4126.000	1.47254	-0.38383	0.79866	-0.26059
4127.000	1.50415	-0.33610	0.76703	-0.25462
4128.000	1.50415	-0.38581	0.77098	-0.31430
4129.000	1.52391	-0.32615	0.74331	-0.24269
4130.000	1.47847	-0.33411	0.75319	-0.25661
4131.000	1.47254	-0.37985	0.74331	-0.26855
4132.000	1.44686	-0.36196	0.76703	-0.24667
4133.000	1.49230	-0.36195	0.73936	-0.21683
4134.000	1.48637	-0.41763	0.76505	-0.26059
4135.000	1.48835	-0.36792	0.74726	-0.27452
4136.000	1.50810	-0.35200	0.76901	-0.26457
4137.000	1.53379	-0.37387	0.74331	-0.24667
4138.000	1.46266	-0.35400	0.78087	-0.27253
4139.000	1.45476	-0.36593	0.75122	-0.26059
4140.000	1.48045	-0.37388	0.78877	-0.23672
4141.000	1.50810	-0.33013	0.75912	-0.25661
4142.000	1.51601	-0.37388	0.75319	-0.26059
4143.000	1.46662	-0.37786	0.73936	-0.29640
4144.000	1.46069	-0.34803	0.74924	-0.29441
4145.000	1.51403	-0.31621	0.75715	-0.25263
4146.000	1.52193	-0.34802	0.77889	-0.26258
4147.000	1.47452	-0.37587	0.77098	-0.27650
4148.000	1.46464	-0.36593	0.75122	-0.27054
4149.000	1.46069	-0.35997	0.72750	-0.28247
4150.000	1.50020	-0.38184	0.73343	-0.31231
4151.000	1.48835	-0.40968	0.75319	-0.26855
4152.000	1.49032	-0.40371	0.73145	-0.29242
4153.000	1.47057	-0.40968	0.74529	-0.26656
4154.000	1.44093	-0.40571	0.72552	-0.30834
4155.000	1.50613	-0.39575	0.73145	-0.26258
4156.000	1.46069	-0.41167	0.73343	-0.28247
4157.000	1.46069	-0.41764	0.73145	-0.33221
4158.000	1.47057	-0.39775	0.73738	-0.32425
4159.000	1.45674	-0.34803	0.73540	-0.30038
4160.000	1.48440	-0.36394	0.71761	-0.28248
4161.000	1.45674	-0.36792	0.74133	-0.28645
4162.000	1.46859	-0.42758	0.72354	-0.28248
4163.000	1.47057	-0.36593	0.74133	-0.26059
4164.000	1.45871	-0.38980	0.77494	-0.23075
4165.000	1.47057	-0.39178	0.76110	-0.22280
4166.000	1.45279	-0.41167	0.72947	-0.29242
4167.000	1.47649	-0.42758	0.76505	-0.29640
4168.000	1.46859	-0.41366	0.74726	-0.27452
4169.000	1.47254	-0.40570	0.70180	-0.29043
4170.000	1.43698	-0.37190	0.73738	-0.25065
4171.000	1.48242	-0.39377	0.72354	-0.31032
4172.000	1.44291	-0.39577	0.75122	-0.29043
4173.000	1.46464	-0.35599	0.73738	-0.25661
4174.000	1.46464	-0.38582	0.71959	-0.30635
4175.000	1.44686	-0.38781	0.71564	-0.31430
4176.000	1.46464	-0.43355	0.75122	-0.30038
4177.000	1.42908	-0.38384	0.73540	-0.28446
4178.000	1.46266	-0.38582	0.73343	-0.27651
4179.000	1.50218	-0.39576	0.73738	-0.32226
4180.000	1.47649	-0.36593	0.74529	-0.27850
4181.000	1.48440	-0.39178	0.71761	-0.29242
4182.000	1.45081	-0.40372	0.71564	-0.32823
4183.000	1.47254	-0.37786	0.76110	-0.26855
4184.000	1.45871	-0.39377	0.73145	-0.27253
4185.000	1.51206	-0.32814	0.75715	-0.25661
4186.000	1.50810	-0.36990	0.76308	-0.30833
4187.000	1.42315	-0.39776	0.69587	-0.28844
4188.000	1.49428	-0.34604	0.71564	-0.24468
4189.000	1.47254	-0.35201	0.72354	-0.22877
4190.000	1.44883	-0.39179	0.73343	-0.28645
4191.000	1.47649	-0.38781	0.73738	-0.28645
4192.000	1.45081	-0.35997	0.69587	-0.28646
4193.000	1.46662	-0.38980	0.73738	-0.27850
4194.000	1.48045	-0.35996	0.70575	-0.31033
4195.000	1.47847	-0.36593	0.72354	-0.23274
4196.000	1.47057	-0.39974	0.72157	-0.28844
4197.000	1.46464	-0.40571	0.73936	-0.32027
4198.000	1.46266	-0.39576	0.72552	-0.28645
4199.000	1.46266	-0.38383	0.72354	-0.26258
4200.000	1.45871	-0.42360	0.72157	-0.32226
4201.000	1.47452	-0.39178	0.73343	-0.25065
4202.000	1.46662	-0.39974	0.72947	-0.28446
4203.000	1.46266	-0.40571	0.74133	-0.23075
4204.000	1.48242	-0.40371	0.72947	-0.26855
4205.000	1.47649	-0.37985	0.75319	-0.25462
4206.000	1.49230	-0.39973	0.73145	-0.30038
4207.000	1.46266	-0.42162	0.72750	-0.27253
4208.000	1.46464	-0.39775	0.75319	-0.29441
4209.000	1.50020	-0.40172	0.76703	-0.25661
4210.000	1.49823	-0.38979	0.70575	-0.28645
4211.000	1.46859	-0.37190	0.72947	-0.26059
4212.000	1.43303	-0.40969	0.72750	-0.24866
4213.000	1.47254	-0.35400	0.75715	-0.28048
4214.000	1.45871	-0.35997	0.76110	-0.27253
4215.000	1.43698	-0.38582	0.72750	-0.27054
4216.000	1.44093	-0.35798	0.70971	-0.26258
4217.000	1.44883	-0.34406	0.74726	-0.25462
4218.000	1.43500	-0.37588	0.72750	-0.27253
4219.000	1.45476	-0.36792	0.71366	-0.26855
4220.000	1.42117	-0.36395	0.72947	-0.26855
4221.000	1.49230	-0.38979	0.72157	-0.25264
4222.000	1.45279	-0.36395	0.71959	-0.26656
4223.000	1.45871	-0.39576	0.73936	-0.30833
4224.000	1.45871	-0.40571	0.71564	-0.28645
4225.000	1.43698	-0.42560	0.73936	-0.20489
4226.000	1.47847	-0.39974	0.71564	-0.30436
4227.000	1.45674	-0.40770	0.70773	-0.30436
4228.000	1.46464	-0.39377	0.75715	-0.29043
4229.000	1.44686	-0.40571	0.76505	-0.27650
4230.000	1.42513	-0.42759	0.72354	-0.27452
4231.000	1.48045	-0.35002	0.75715	-0.24667
4232.000	1.48637	-0.35797	0.72354	-0.22479
4233.000	1.43896	-0.35798	0.74529	-0.23075
4234.000	1.47057	-0.35996	0.79075	-0.27849
4235.000	1.46662	-0.38980	0.73936	-0.25860
4236.000	1.45674	-0.39775	0.71761	-0.30834
4237.000	1.47254	-0.36394	0.74529	-0.25264
4238.000	1.43303	-0.39975	0.76110	-0.30236
4239.000	1.42710	-0.34804	0.72947	-0.24468
4240.000	1.44488	-0.40372	0.73343	-0.28446
4241.000	1.43698	-0.37190	0.74331	-0.28247
4242.000	1.43303	-0.34804	0.73936	-0.25860
4243.000	1.45279	-0.37985	0.72947	-0.30237
4244.000	1.49230	-0.32615	0.69587	-0.30635
4245.000	1.42908	-0.42361	0.73145	-0.32027
4246.000	1.45871	-0.38582	0.72947	-0.31430
4247.000	1.44291	-0.36792	0.74331	-0.30833
4248.000	1.42710	-0.39577	0.71761	-0.30834
4249.000	1.44488	-0.42560	0.70971	-0.32425
4250.000	1.44488	-0.37787	0.73738	-0.33220
4251.000	1.46266	-0.34605	0.70180	-0.31232
4252.000	1.42513	-0.38185	0.71761	-0.25662
4253.000	1.40932	-0.36196	0.72354	-0.31629
4254.000	1.43896	-0.38185	0.71366	-0.29640
4255.000	1.47452	-0.32814	0.73145	-0.25463
4256.000	1.47452	-0.33013	0.69785	-0.28447
4257.000	1.43500	-0.37389	0.72947	-0.33618
4258.000	1.45081	-0.37190	0.68994	-0.27054
4259.000	1.45279	-0.36593	0.71366	-0.29640
4260.000	1.47847	-0.35996	0.74133	-0.26258
4261.000	1.45871	-0.34008	0.73540	-0.32624
4262.000	1.47057	-0.34207	0.71366	-0.31828
4263.000	1.44686	-0.36395	0.72750	-0.29242
4264.000	1.45674	-0.34605	0.68994	-0.31828
4265.000	1.44686	-0.36792	0.67808	-0.29441
4266.000	1.45081	-0.33809	0.71168	-0.29242
4267.000	1.45081	-0.38980	0.67413	-0.30038
4268.000	1.48242	-0.34206	0.70971	-0.32624
4269.000	1.43105	-0.39378	0.70575	-0.30237
4270.000	1.44686	-0.42758	0.71761	-0.32823
4271.000	1.41525	-0.34207	0.75912	-0.33419
4272.000	1.41129	-0.37787	0.72354	-0.31430
4273.000	1.47649	-0.39178	0.72354	-0.30237
4274.000	1.43698	-0.38383	0.69389	-0.33221
4275.000	1.42710	-0.36196	0.72552	-0.33419
4276.000	1.43303	-0.40372	0.69389	-0.36801
4277.000	1.41920	-0.38384	0.69389	-0.38393
4278.000	1.43896	-0.35599	0.70378	-0.38790
4279.000	1.41129	-0.39179	0.67610	-0.34414
4280.000	1.42315	-0.36793	0.68006	-0.34017
4281.000	1.42908	-0.37389	0.67610	-0.35807
4282.000	1.41129	-0.40572	0.68401	-0.33221
4283.000	1.43303	-0.42162	0.68599	-0.31629
4284.000	1.43105	-0.36594	0.66622	-0.31630
4285.000	1.46662	-0.40968	0.73936	-0.28446
4286.000	1.44488	-0.36792	0.69192	-0.32624
4287.000	1.47057	-0.34406	0.66227	-0.34812
4288.000	1.42315	-0.34406	0.70575	-0.32226
4289.000	1.46069	-0.34207	0.70378	-0.27054
4290.000	1.40339	-0.36395	0.70575	-0.30834
4291.000	1.43500	-0.38185	0.68994	-0.34017
4292.000	1.42908	-0.33014	0.70180	-0.30436
4293.000	1.45476	-0.34406	0.68401	-0.35210
4294.000	1.43896	-0.33412	0.72354	-0.28248
4295.000	1.42710	-0.32417	0.69982	-0.32624
4296.000	1.45476	-0.38383	0.70773	-0.31430
4297.000	1.41722	-0.32418	0.72552	-0.32226
4298.000	1.40537	-0.37787	0.70575	-0.31629
4299.000	1.41920	-0.35401	0.69587	-0.33420
4300.000	1.41920	-0.35003	0.71761	-0.30436
4301.000	1.41129	-0.32418	0.67215	-0.31232
4302.000	1.41327	-0.34009	0.69785	-0.33818
4303.000	1.45081	-0.34008	0.70180	-0.33817
4304.000	1.43303	-0.35202	0.70180	-0.31629
4305.000	1.43698	-0.33809	0.69192	-0.32226
4306.000	1.42315	-0.37389	0.69192	-0.33221
4307.000	1.44093	-0.37190	0.69982	-0.36403
4308.000	1.42710	-0.38980	0.68203	-0.31033
4309.000	1.43500	-0.31025	0.70180	-0.35210
4310.000	1.43303	-0.34605	0.66622	-0.36802
4311.000	1.41920	-0.39179	0.69587	-0.34812
4312.000	1.44291	-0.33213	0.69192	-0.32624
4313.000	1.42513	-0.35798	0.72354	-0.33022
4314.000	1.41525	-0.35003	0.70773	-0.35409
4315.000	1.42908	-0.36196	0.71761	-0.34016
4316.000	1.40142	-0.36594	0.68401	-0.34613
4317.000	1.41327	-0.33611	0.69982	-0.36403
4318.000	1.39154	-0.37390	0.70378	-0.30635
4319.000	1.40537	-0.35202	0.72750	-0.28247
4320.000	1.36980	-0.33413	0.72552	-0.36602
4321.000	1.42117	-0.34804	0.68796	-0.32425
4322.000	1.41129	-0.33412	0.70575	-0.32823
4323.000	1.45279	-0.33809	0.71168	-0.33221
4324.000	1.38758	-0.36793	0.69192	-0.37796
4325.000	1.40932	-0.38583	0.68006	-0.37000
4326.000	1.42513	-0.35997	0.68203	-0.36205
4327.000	1.43500	-0.39776	0.69389	-0.40382
4328.000	1.43698	-0.34406	0.70378	-0.35807
4329.000	1.40932	-0.35401	0.68599	-0.37398
4330.000	1.44488	-0.39577	0.67808	-0.40979
4331.000	1.39351	-0.37986	0.69192	-0.38194
4332.000	1.40142	-0.37787	0.68796	-0.35807
4333.000	1.42315	-0.38185	0.69785	-0.36404
4334.000	1.39351	-0.36992	0.70575	-0.34215
4335.000	1.42315	-0.32616	0.70773	-0.36006
4336.000	1.39944	-0.32219	0.69982	-0.35210
4337.000	1.38956	-0.35003	0.68203	-0.37597
4338.000	1.41327	-0.36594	0.70575	-0.38393
4339.000	1.40339	-0.34407	0.70378	-0.30635
4340.000	1.39351	-0.31225	0.72947	-0.31231
4341.000	1.42908	-0.37787	0.69192	-0.39586
4342.000	1.38956	-0.33810	0.71959	-0.33022
4343.000	1.42710	-0.36395	0.73145	-0.39586
4344.000	1.41722	-0.36395	0.70180	-0.36006
4345.000	1.39944	-0.36196	0.71168	-0.36602
4346.000	1.38363	-0.37788	0.70773	-0.38790
4347.000	1.39944	-0.34208	0.70575	-0.40183
4348.000	1.43105	-0.36594	0.70180	-0.35807
4349.000	1.45081	-0.34605	0.71959	-0.35210
4350.000	1.42315	-0.38980	0.72157	-0.36204
4351.000	1.39154	-0.40174	0.71168	-0.36801
4352.000	1.40734	-0.38981	0.71366	-0.36204
4353.000	1.38363	-0.35003	0.71366	-0.35608
4354.000	1.41722	-0.34804	0.68006	-0.37398
4355.000	1.40537	-0.36196	0.73145	-0.37597
4356.000	1.41722	-0.35401	0.70378	-0.35608
4357.000	1.34016	-0.41567	0.72750	-0.37199
4358.000	1.35992	-0.38584	0.74331	-0.37199
4359.000	1.37968	-0.36793	0.70773	-0.39387
4360.000	1.40932	-0.38384	0.70180	-0.35807
4361.000	1.38956	-0.36395	0.71564	-0.39984
4362.000	1.34412	-0.41169	0.72552	-0.34812
4363.000	1.38166	-0.35202	0.70773	-0.39586
4364.000	1.37375	-0.39976	0.69389	-0.32823
4365.000	1.42710	-0.34008	0.71564	-0.35807
4366.000	1.44291	-0.37588	0.70378	-0.35409
4367.000	1.42315	-0.35997	0.72750	-0.39586
4368.000	1.44291	-0.35201	0.69785	-0.36205
4369.000	1.42513	-0.33412	0.73145	-0.38392
4370.000	1.38363	-0.35003	0.71761	-0.35210
4371.000	1.41327	-0.33611	0.71168	-0.35807
4372.000	1.39746	-0.36594	0.68994	-0.36006
4373.000	1.40537	-0.33611	0.72157	-0.39984
4374.000	1.41525	-0.36793	0.70180	-0.37995
4375.000	1.43500	-0.36991	0.65041	-0.43764
4376.000	1.39549	-0.36793	0.72750	-0.47145
4377.000	1.38561	-0.34208	0.71366	-0.36403
4378.000	1.39351	-0.34208	0.69389	-0.42371
4379.000	1.42908	-0.34008	0.69785	-0.42769
4380.000	1.40932	-0.35799	0.69785	-0.40979
4381.000	1.38758	-0.35799	0.73738	-0.40183
4382.000	1.36190	-0.39379	0.69587	-0.35210
4383.000	1.38956	-0.33611	0.69982	-0.37995
4384.000	1.37771	-0.37987	0.68203	-0.36801
4385.000	1.36190	-0.35600	0.68994	-0.37398
4386.000	1.35992	-0.33612	0.67413	-0.35807
4387.000	1.36387	-0.39777	0.69389	-0.31232
4388.000	1.35992	-0.32816	0.71564	-0.36204
4389.000	1.34807	-0.33811	0.69785	-0.35011
4390.000	1.34412	-0.29236	0.71366	-0.37398
4391.000	1.35202	-0.38186	0.70773	-0.38393
4392.000	1.35992	-0.31026	0.71564	-0.31430
4393.000	1.37968	-0.36595	0.70971	-0.36204
4394.000	1.37375	-0.36396	0.72750	-0.37199
4395.000	1.39351	-0.34606	0.70180	-0.39188
4396.000	1.36980	-0.33015	0.70971	-0.40183
4397.000	1.40734	-0.31224	0.67413	-0.40979
4398.000	1.40142	-0.32617	0.70378	-0.34414
4399.000	1.39351	-0.35600	0.67808	-0.39984
4400.000	1.42315	-0.34207	0.68401	-0.36801
4401.000	1.37375	-0.33214	0.71168	-0.34613
4402.000	1.37178	-0.31822	0.69982	-0.35011
4403.000	1.36585	-0.26253	0.70773	-0.35210
4404.000	1.37375	-0.33214	0.69389	-0.36602
4405.000	1.38758	-0.31026	0.70773	-0.34812
4406.000	1.35202	-0.30827	0.71564	-0.35011
4407.000	1.34609	-0.28640	0.68006	-0.36801
4408.000	1.37178	-0.33611	0.70575	-0.35807
4409.000	1.40339	-0.32219	0.67808	-0.39189
4410.000	1.38363	-0.34009	0.70180	-0.40581
4411.000	1.41920	-0.35997	0.72354	-0.35011
4412.000	1.39944	-0.32418	0.66424	-0.39587
4413.000	1.38166	-0.34407	0.71366	-0.34215
4414.000	1.37573	-0.37589	0.71168	-0.39387
4415.000	1.33621	-0.34407	0.70575	-0.36801
4416.000	1.40537	-0.33014	0.74331	-0.35607
4417.000	1.40932	-0.30031	0.74331	-0.34812
4418.000	1.40537	-0.28042	0.70180	-0.36403
4419.000	1.37968	-0.31225	0.71959	-0.31032
4420.000	1.38758	-0.27844	0.69587	-0.34613
4421.000	1.41722	-0.26252	0.71168	-0.33619
4422.000	1.43500	-0.28241	0.69982	-0.37597
4423.000	1.40339	-0.30628	0.68796	-0.35210
4424.000	1.39549	-0.32020	0.69192	-0.38791
4425.000	1.40537	-0.30230	0.71761	-0.37398
4426.000	1.42117	-0.28440	0.71564	-0.37199
4427.000	1.39351	-0.31622	0.72354	-0.31032
4428.000	1.41327	-0.30827	0.69587	-0.32027
4429.000	1.41327	-0.32020	0.69982	-0.32027
4430.000	1.36387	-0.32418	0.68599	-0.32425
4431.000	1.41920	-0.33412	0.67808	-0.33619
4432.000	1.40932	-0.33014	0.69785	-0.38194
4433.000	1.41920	-0.31821	0.70378	-0.33420
4434.000	1.39746	-0.33810	0.73145	-0.36602
4435.000	1.41129	-0.31224	0.75319	-0.35011
4436.000	1.41920	-0.30827	0.72552	-0.33419
4437.000	1.46662	-0.33212	0.69587	-0.35011
4438.000	1.40932	-0.35600	0.71761	-0.29043
4439.000	1.39154	-0.31225	0.70773	-0.29242
4440.000	1.45081	-0.28638	0.73145	-0.27850
4441.000	1.37771	-0.33015	0.69982	-0.31430
4442.000	1.42513	-0.33014	0.72157	-0.32425
4443.000	1.40734	-0.32815	0.74529	-0.27253
4444.000	1.40142	-0.30429	0.72750	-0.35608
4445.000	1.39944	-0.34208	0.76110	-0.32027
4446.000	1.39944	-0.35202	0.73738	-0.34016
4447.000	1.40142	-0.35401	0.71959	-0.32425
4448.000	1.44686	-0.37588	0.73343	-0.32226
4449.000	1.46266	-0.30627	0.70773	-0.29441
4450.000	1.47057	-0.33212	0.71366	-0.32425
4451.000	1.43698	-0.36594	0.74529	-0.25661
4452.000	1.43698	-0.37986	0.74924	-0.32027
4453.000	1.41327	-0.41168	0.72947	-0.31430
4454.000	1.43896	-0.39974	0.71761	-0.33221
4455.000	1.45081	-0.41764	0.71761	-0.34613
4456.000	1.40932	-0.39378	0.73738	-0.32624
4457.000	1.41722	-0.35600	0.76505	-0.28048
4458.000	1.42908	-0.37986	0.72947	-0.27054
4459.000	1.42513	-0.39975	0.73540	-0.29441
4460.000	1.38561	-0.39180	0.71366	-0.29640
4461.000	1.39351	-0.38981	0.70378	-0.29640
4462.000	1.37771	-0.42760	0.70180	-0.29242
4463.000	1.37771	-0.39777	0.69982	-0.32027
4464.000	1.40537	-0.44947	0.66820	-0.33221
4465.000	1.38561	-0.38384	0.68994	-0.34613
4466.000	1.37573	-0.40572	0.69389	-0.30635
4467.000	1.38166	-0.40373	0.68203	-0.30834
4468.000	1.36980	-0.42362	0.70180	-0.30436
4469.000	1.37178	-0.41567	0.69982	-0.28844
4470.000	1.36387	-0.40373	0.67017	-0.36205
4471.000	1.38956	-0.36594	0.68401	-0.31431
4472.000	1.38166	-0.42561	0.71959	-0.34016
4473.000	1.34214	-0.40374	0.68203	-0.31629
4474.000	1.35795	-0.37788	0.66622	-0.32823
4475.000	1.44488	-0.36594	0.71168	-0.33619
4476.000	1.40734	-0.41566	0.66029	-0.30038
4477.000	1.39549	-0.33810	0.65436	-0.36603
4478.000	1.41920	-0.38185	0.68006	-0.33818
4479.000	1.38758	-0.36594	0.67017	-0.36205
4480.000	1.35399	-0.40573	0.67215	-0.35608
4481.000	1.38758	-0.34805	0.67413	-0.35409
4482.000	1.33028	-0.42959	0.68006	-0.32425
4483.000	1.37771	-0.45146	0.65436	-0.34216
4484.000	1.41129	-0.35401	0.65634	-0.36603
4485.000	1.39549	-0.37390	0.68006	-0.32624
4486.000	1.35795	-0.37987	0.66029	-0.37597
4487.000	1.36585	-0.39578	0.70971	-0.38790
4488.000	1.35795	-0.40175	0.69192	-0.40183
4489.000	1.36387	-0.37390	0.67610	-0.38194
4490.000	1.33226	-0.42363	0.68006	-0.39984
4491.000	1.36980	-0.39180	0.67610	-0.38990
4492.000	1.31052	-0.38982	0.63855	-0.39189
4493.000	1.36387	-0.39379	0.69389	-0.37597
4494.000	1.31448	-0.39181	0.66820	-0.38393
4495.000	1.35004	-0.37589	0.68599	-0.39586
4496.000	1.35992	-0.39976	0.68796	-0.39984
4497.000	1.34016	-0.37192	0.68796	-0.37995
4498.000	1.33819	-0.39777	0.64645	-0.38194
4499.000	1.36387	-0.36396	0.68006	-0.33818
4500.000	1.35597	-0.39379	0.67017	-0.42769
4501.000	1.37178	-0.38583	0.65436	-0.36603
4502.000	1.36980	-0.44152	0.67808	-0.34812
4503.000	1.35202	-0.43556	0.66029	-0.39189
4504.000	1.37968	-0.40771	0.64052	-0.40581
4505.000	1.36783	-0.39976	0.67610	-0.38393
4506.000	1.37178	-0.39578	0.66029	-0.40780
4507.000	1.33621	-0.41766	0.65831	-0.35409
4508.000	1.38166	-0.38186	0.68994	-0.37199
4509.000	1.35597	-0.38981	0.68599	-0.36006
4510.000	1.31645	-0.41766	0.68401	-0.31431
4511.000	1.34016	-0.42562	0.69587	-0.36404
4512.000	1.36980	-0.39976	0.69587	-0.37796
4513.000	1.37375	-0.41567	0.68796	-0.29640
4514.000	1.35992	-0.38385	0.70971	-0.32226
4515.000	1.36387	-0.40771	0.68401	-0.36404
4516.000	1.40339	-0.39577	0.69587	-0.36006
4517.000	1.38363	-0.35003	0.65238	-0.32226
4518.000	1.40142	-0.34009	0.67610	-0.29242
4519.000	1.39746	-0.35799	0.69192	-0.30237
4520.000	1.38166	-0.38981	0.69192	-0.33619
4521.000	1.40734	-0.37191	0.70378	-0.29242
4522.000	1.38166	-0.37589	0.70378	-0.29242
4523.000	1.38363	-0.41566	0.68203	-0.31431
4524.000	1.39746	-0.41367	0.68599	-0.31232
4525.000	1.35597	-0.40771	0.67413	-0.33022
4526.000	1.37968	-0.38384	0.70180	-0.29839
4527.000	1.39944	-0.33412	0.65436	-0.37200
4528.000	1.42908	-0.35997	0.71168	-0.28049
4529.000	1.38363	-0.37390	0.69389	-0.29441
4530.000	1.36783	-0.36197	0.68994	-0.28646
4531.000	1.38561	-0.41367	0.69785	-0.27850
4532.000	1.38166	-0.36197	0.69192	-0.31033
4533.000	1.40339	-0.38185	0.67413	-0.29839
4534.000	1.36190	-0.36993	0.72947	-0.31231
4535.000	1.41129	-0.37191	0.70773	-0.27452
4536.000	1.36783	-0.39379	0.71564	-0.26059
4537.000	1.40932	-0.35799	0.72552	-0.29640
4538.000	1.40537	-0.36992	0.73936	-0.25264
4539.000	1.36190	-0.34009	0.73738	-0.25463
4540.000	1.40142	-0.36594	0.70773	-0.28248
4541.000	1.41327	-0.37588	0.69389	-0.28844
4542.000	1.37178	-0.38186	0.71959	-0.26656
4543.000	1.40142	-0.32418	0.69785	-0.23275
4544.000	1.41920	-0.35003	0.69389	-0.28447
4545.000	1.39746	-0.32020	0.70773	-0.30635
4546.000	1.43105	-0.32020	0.69587	-0.24866
4547.000	1.43698	-0.31821	0.69389	-0.23672
4548.000	1.42315	-0.31224	0.71761	-0.26855
4549.000	1.43896	-0.30230	0.69587	-0.30038
4550.000	1.39549	-0.32617	0.71168	-0.27452
4551.000	1.39549	-0.27844	0.71959	-0.25065
4552.000	1.38956	-0.32219	0.69389	-0.25065
4553.000	1.44488	-0.25655	0.68599	-0.30834
4554.000	1.40142	-0.29633	0.69389	-0.27452
4555.000	1.41129	-0.27446	0.71959	-0.26656
4556.000	1.39549	-0.29832	0.70575	-0.22280
4557.000	1.39351	-0.30429	0.71366	-0.26059
4558.000	1.39944	-0.30827	0.69587	-0.26457
4559.000	1.44883	-0.26650	0.70575	-0.24468
4560.000	1.41525	-0.29434	0.70971	-0.24269
4561.000	1.45081	-0.29633	0.70378	-0.26258
4562.000	1.42908	-0.30826	0.71959	-0.21683
4563.000	1.41327	-0.33213	0.68796	-0.25463
4564.000	1.42908	-0.30031	0.71959	-0.24269
4565.000	1.43500	-0.32616	0.70575	-0.28248
4566.000	1.44291	-0.31423	0.69982	-0.25861
4567.000	1.41920	-0.29037	0.70180	-0.28646
4568.000	1.42117	-0.29037	0.71761	-0.26855
4569.000	1.45081	-0.28241	0.70180	-0.24667
4570.000	1.45476	-0.27445	0.71366	-0.23473
4571.000	1.45476	-0.33213	0.69785	-0.28646
4572.000	1.43698	-0.31622	0.71366	-0.29839
4573.000	1.39549	-0.29634	0.74331	-0.24866
4574.000	1.36980	-0.28441	0.69785	-0.31430
4575.000	1.42710	-0.26053	0.73540	-0.25463
4576.000	1.42908	-0.30628	0.70575	-0.25463
4577.000	1.44488	-0.27246	0.72157	-0.26656
4578.000	1.43896	-0.28639	0.69192	-0.29839
4579.000	1.42513	-0.31622	0.70180	-0.31033
4580.000	1.42315	-0.29633	0.67610	-0.27452
4581.000	1.40734	-0.27247	0.65634	-0.31232
4582.000	1.41722	-0.27843	0.70378	-0.27054
4583.000	1.43500	-0.29633	0.66820	-0.27054
4584.000	1.46266	-0.29633	0.67610	-0.25264
4585.000	1.42315	-0.26451	0.68994	-0.30436
4586.000	1.46266	-0.34008	0.70180	-0.29043
4587.000	1.46464	-0.30030	0.66029	-0.31033
4588.000	1.39746	-0.33412	0.65238	-0.28646
4589.000	1.45871	-0.28042	0.66029	-0.27850
4590.000	1.43105	-0.31423	0.65041	-0.28447
4591.000	1.44488	-0.33809	0.67610	-0.29242
4592.000	1.39154	-0.29832	0.68599	-0.29839
4593.000	1.43500	-0.33213	0.68599	-0.31828
4594.000	1.39944	-0.34009	0.68599	-0.25065
4595.000	1.42908	-0.34605	0.65238	-0.29839
4596.000	1.42908	-0.33412	0.68994	-0.28447
4597.000	1.45476	-0.30428	0.67017	-0.29441
4598.000	1.38363	-0.28440	0.69389	-0.30834
4599.000	1.42908	-0.30826	0.67215	-0.31630
4600.000	1.40734	-0.31026	0.71366	-0.27651
4601.000	1.40734	-0.27843	0.67808	-0.31232
4602.000	1.42117	-0.29832	0.68401	-0.27253
4603.000	1.42315	-0.30429	0.68401	-0.30436
4604.000	1.42315	-0.29832	0.69389	-0.30834
4605.000	1.42117	-0.29434	0.67017	-0.26259
4606.000	1.41525	-0.31224	0.68203	-0.29839
4607.000	1.42117	-0.26650	0.66227	-0.28049
4608.000	1.41722	-0.31821	0.67413	-0.26457
4609.000	1.39351	-0.31225	0.68599	-0.30436
4610.000	1.40142	-0.26054	0.69389	-0.28248
4611.000	1.40932	-0.34208	0.69192	-0.30237
4612.000	1.43105	-0.29235	0.69389	-0.31033
4613.000	1.41129	-0.35003	0.68006	-0.31629
4614.000	1.43303	-0.30230	0.68599	-0.34017
4615.000	1.42117	-0.30031	0.68401	-0.32226
4616.000	1.44291	-0.30627	0.67413	-0.30834
4617.000	1.38758	-0.32617	0.64448	-0.32425
4618.000	1.37771	-0.30628	0.65634	-0.32027
4619.000	1.40734	-0.31224	0.65041	-0.29640
4620.000	1.40537	-0.32219	0.63262	-0.27054
4621.000	1.39351	-0.36395	0.66622	-0.26656
4622.000	1.42315	-0.35798	0.66622	-0.28845
4623.000	1.39154	-0.33611	0.69587	-0.27054
4624.000	1.42710	-0.34008	0.67215	-0.27253
4625.000	1.38561	-0.36594	0.64645	-0.31232
4626.000	1.38956	-0.30628	0.67413	-0.26060
4627.000	1.40734	-0.33412	0.65634	-0.30834
4628.000	1.38363	-0.33611	0.70180	-0.28646
4629.000	1.39351	-0.32418	0.67610	-0.29441
4630.000	1.38363	-0.31821	0.70378	-0.33420
4631.000	1.40932	-0.30827	0.67808	-0.32226
4632.000	1.37573	-0.32617	0.68796	-0.29043
4633.000	1.37968	-0.28242	0.66424	-0.21484
4634.000	1.40932	-0.33611	0.67413	-0.25662
4635.000	1.40339	-0.32219	0.65831	-0.29441
4636.000	1.39549	-0.33014	0.66029	-0.27054
4637.000	1.38956	-0.35998	0.65238	-0.30237
4638.000	1.42315	-0.33810	0.66029	-0.28248
4639.000	1.39154	-0.31821	0.65041	-0.28646
4640.000	1.43105	-0.29633	0.66227	-0.23076
4641.000	1.39549	-0.29037	0.65436	-0.27054
4642.000	1.41327	-0.33810	0.68006	-0.30834
4643.000	1.40734	-0.32020	0.67808	-0.28845
4644.000	1.37968	-0.29037	0.64843	-0.26855
4645.000	1.41525	-0.32616	0.65436	-0.29640
4646.000	1.41129	-0.28042	0.67215	-0.28248
4647.000	1.41525	-0.32616	0.64250	-0.29044
4648.000	1.43500	-0.29832	0.63459	-0.28049
4649.000	1.44686	-0.35201	0.66622	-0.28845
4650.000	1.40537	-0.29037	0.65436	-0.26060
4651.000	1.42315	-0.27247	0.66227	-0.24070
4652.000	1.44488	-0.28440	0.64448	-0.30038
4653.000	1.43303	-0.29832	0.66424	-0.32823
4654.000	1.37968	-0.30827	0.64250	-0.26458
4655.000	1.41920	-0.27843	0.67215	-0.31431
4656.000	1.39154	-0.31424	0.65041	-0.34614
4657.000	1.38758	-0.28440	0.66424	-0.30834
4658.000	1.41129	-0.29037	0.67413	-0.32027
4659.000	1.44488	-0.32616	0.66424	-0.29839
4660.000	1.39944	-0.31026	0.67808	-0.29640
4661.000	1.41920	-0.26650	0.66227	-0.32425
4662.000	1.41722	-0.26053	0.64843	-0.30038
4663.000	1.40734	-0.26650	0.62866	-0.26657
4664.000	1.41525	-0.26451	0.68401	-0.30038
4665.000	1.39549	-0.27446	0.67808	-0.28845
4666.000	1.39944	-0.24065	0.65436	-0.32425
4667.000	1.41525	-0.28639	0.63657	-0.27253
4668.000	1.41327	-0.25656	0.64448	-0.26060
4669.000	1.44093	-0.24263	0.67017	-0.26060
4670.000	1.40734	-0.28639	0.61087	-0.28049
4671.000	1.44093	-0.24462	0.65831	-0.32226
4672.000	1.41129	-0.26451	0.65634	-0.28845
4673.000	1.41722	-0.23667	0.65238	-0.28049
4674.000	1.43500	-0.24064	0.64052	-0.24667
4675.000	1.41920	-0.29832	0.67215	-0.24269
4676.000	1.41327	-0.24065	0.67413	-0.25662
4677.000	1.41129	-0.27446	0.68994	-0.28049
4678.000	1.40142	-0.28241	0.65436	-0.31829
4679.000	1.44488	-0.26650	0.65041	-0.29243
4680.000	1.43698	-0.24263	0.66227	-0.23673
4681.000	1.38956	-0.25656	0.63657	-0.23275
4682.000	1.43303	-0.25656	0.66029	-0.25662
4683.000	1.44686	-0.24860	0.65831	-0.25065
4684.000	1.42117	-0.25059	0.63262	-0.25065
4685.000	1.42117	-0.31821	0.65238	-0.22081
4686.000	1.40537	-0.29832	0.62866	-0.28845
4687.000	1.41920	-0.30230	0.64843	-0.22081
4688.000	1.44686	-0.27843	0.64052	-0.28845
4689.000	1.40142	-0.28241	0.61680	-0.25662
4690.000	1.42315	-0.28042	0.63064	-0.23076
4691.000	1.41327	-0.28042	0.64250	-0.20092
4692.000	1.41722	-0.29434	0.66029	-0.19495
4693.000	1.44883	-0.23865	0.60099	-0.25463
4694.000	1.39746	-0.28838	0.62273	-0.23076
4695.000	1.41920	-0.28440	0.61087	-0.23872
4696.000	1.42710	-0.29832	0.65041	-0.25662
4697.000	1.42513	-0.27644	0.61285	-0.26458
4698.000	1.40734	-0.26650	0.64645	-0.29640
4699.000	1.41920	-0.33213	0.64448	-0.29839
4700.000	1.39351	-0.32816	0.63657	-0.24866
4701.000	1.43698	-0.25655	0.62471	-0.30038
4702.000	1.44488	-0.28042	0.64448	-0.27651
4703.000	1.44291	-0.25258	0.61285	-0.26657
4704.000	1.42117	-0.31025	0.60889	-0.27055
4705.000	1.41129	-0.33014	0.62668	-0.23076
4706.000	1.43698	-0.26849	0.62075	-0.24866
4707.000	1.42513	-0.28241	0.65634	-0.27850
4708.000	1.40932	-0.31821	0.63855	-0.21484
4709.000	1.39549	-0.31026	0.62075	-0.23275
4710.000	1.44291	-0.24064	0.62866	-0.24468
4711.000	1.45279	-0.28837	0.62471	-0.23076
4712.000	1.43105	-0.28241	0.63262	-0.20490
4713.000	1.43105	-0.27445	0.66227	-0.23076
