time (ms)	lx (deg)	ly (deg)	rx (deg)	ry (deg)
0.000	0.21945	0.14125	0.20165	0.48143
1.000	0.21549	0.14921	0.18188	0.51326
2.000	0.24910	0.14722	0.22735	0.49535
3.000	0.20363	0.11738	0.22735	0.49137
4.000	0.19177	0.13727	0.20758	0.48541
5.000	0.22538	0.16512	0.22538	0.47944
6.000	0.23131	0.10146	0.20165	0.51326
7.000	0.20956	0.11738	0.21154	0.49336
8.000	0.18781	0.14921	0.24119	0.47546
9.000	0.22340	0.14921	0.22933	0.48939
10.000	0.25899	0.13130	0.20956	0.49138
11.000	0.21747	0.14523	0.20956	0.46154
12.000	0.22933	0.15120	0.19572	0.45756
13.000	0.23724	0.17507	0.21747	0.46551
14.000	0.22735	0.13130	0.20758	0.49336
15.000	0.21352	0.14921	0.19375	0.52122
16.000	0.23922	0.14324	0.20561	0.51127
17.000	0.21549	0.12533	0.21945	0.53912
18.000	0.19572	0.18303	0.20956	0.48740
19.000	0.18979	0.10942	0.21549	0.50928
20.000	0.23724	0.15318	0.23131	0.51127
21.000	0.16804	0.10942	0.23922	0.46551
22.000	0.20165	0.16910	0.21154	0.47148
23.000	0.18188	0.14324	0.23526	0.49535
24.000	0.19770	0.08753	0.20956	0.50928
25.000	0.22142	0.12732	0.21945	0.45955
26.000	0.22933	0.13329	0.23526	0.50928
27.000	0.22933	0.14921	0.20561	0.49138
28.000	0.23329	0.16910	0.21352	0.47148
29.000	0.20956	0.12135	0.22538	0.49138
30.000	0.22735	0.12334	0.21352	0.46551
31.000	0.22340	0.12135	0.20956	0.49933
32.000	0.23526	0.10146	0.18781	0.46949
33.000	0.21352	0.10544	0.19968	0.47148
34.000	0.23329	0.14324	0.18979	0.46750
35.000	0.22735	0.13926	0.18584	0.46750
36.000	0.19572	0.13926	0.20165	0.46353
37.000	0.21352	0.11738	0.25899	0.49734
38.000	0.20561	0.11937	0.23526	0.45358
39.000	0.16607	0.13528	0.21154	0.44960
40.000	0.22538	0.13329	0.20561	0.49734
41.000	0.22735	0.13528	0.21154	0.44960
42.000	0.23922	0.09549	0.21352	0.46949
43.000	0.21747	0.12732	0.22538	0.47745
44.000	0.21945	0.14722	0.20165	0.48740
45.000	0.22933	0.12135	0.22538	0.45159
46.000	0.23526	0.19496	0.18781	0.46154
47.000	0.21945	0.12334	0.21747	0.47148
48.000	0.21154	0.14722	0.23131	0.51326
49.000	0.23724	0.14324	0.22142	0.46154
50.000	0.22142	0.16313	0.20758	0.46353
51.000	0.22735	0.10146	0.21154	0.46949
52.000	0.19375	0.15517	0.19572	0.47148
53.000	0.22340	0.14722	0.19770	0.47546
54.000	0.21352	0.12533	0.16409	0.49337
55.000	0.22933	0.13329	0.19968	0.47745
56.000	0.22735	0.10942	0.22142	0.46750
57.000	0.20758	0.10544	0.20758	0.44761
58.000	0.20165	0.14324	0.19968	0.43568
59.000	0.20956	0.10942	0.19572	0.47148
60.000	0.21154	0.13329	0.22735	0.47148
61.000	0.20561	0.15915	0.18386	0.46154
62.000	0.23526	0.18303	0.19770	0.46154
63.000	0.19968	0.14523	0.16607	0.45358
64.000	0.22142	0.15319	0.21154	0.45358
65.000	0.21352	0.11141	0.22735	0.45358
66.000	0.21352	0.15517	0.17398	0.46154
67.000	0.21945	0.11738	0.19177	0.42971
68.000	0.21549	0.16512	0.18584	0.44363
69.000	0.23329	0.12334	0.17200	0.45557
70.000	0.19375	0.15517	0.20363	0.44363
71.000	0.22538	0.13727	0.20758	0.48939
72.000	0.21352	0.12135	0.17991	0.46353
73.000	0.18979	0.11738	0.21549	0.46353
74.000	0.19572	0.11937	0.19968	0.49933
75.000	0.22142	0.15120	0.17595	0.48143
76.000	0.20758	0.10544	0.20165	0.46750
77.000	0.22735	0.13329	0.17991	0.50331
78.000	0.20165	0.11539	0.20956	0.47148
79.000	0.22340	0.12334	0.19375	0.47745
80.000	0.21747	0.13130	0.18781	0.47148
81.000	0.23724	0.11539	0.18188	0.46353
82.000	0.21945	0.10146	0.21549	0.43170
83.000	0.20165	0.15915	0.19968	0.46552
84.000	0.20561	0.14921	0.20363	0.42772
85.000	0.19177	0.15319	0.20165	0.48740
86.000	0.16607	0.12732	0.19375	0.45955
87.000	0.21352	0.12334	0.15025	0.44761
88.000	0.21352	0.15517	0.18386	0.45756
89.000	0.14432	0.07759	0.20956	0.45756
90.000	0.18584	0.14921	0.21945	0.44960
91.000	0.16409	0.12931	0.19177	0.46949
92.000	0.16804	0.12533	0.20561	0.45557
93.000	0.17595	0.11937	0.17595	0.43568
94.000	0.20363	0.12732	0.16014	0.42971
95.000	0.18979	0.15517	0.17200	0.40982
96.000	0.15816	0.11937	0.19572	0.41976
97.000	0.17595	0.09151	0.17595	0.40982
98.000	0.20956	0.10345	0.15025	0.42175
99.000	0.18781	0.09350	0.18584	0.44164
100.000	0.18584	0.14125	0.15223	0.42971
101.000	0.18386	0.11340	0.14037	0.40982
102.000	0.19177	0.09151	0.18979	0.41379
103.000	0.21549	0.16910	0.14037	0.43568
104.000	0.15421	0.08753	0.17398	0.45557
105.000	0.18979	0.13329	0.18781	0.40186
106.000	0.17398	0.10345	0.19177	0.40981
107.000	0.18781	0.12931	0.17793	0.38594
108.000	0.21747	0.09549	0.15816	0.40584
109.000	0.22142	0.10146	0.15025	0.43767
110.000	0.17002	0.06963	0.14234	0.39191
111.000	0.18584	0.09549	0.17991	0.39589
112.000	0.17398	0.08952	0.11269	0.37998
113.000	0.17991	0.11340	0.18188	0.41976
114.000	0.18584	0.11141	0.15223	0.37003
115.000	0.21945	0.12334	0.17002	0.39788
116.000	0.21549	0.15517	0.16607	0.41578
117.000	0.20363	0.19894	0.18584	0.43965
118.000	0.17398	0.12533	0.17200	0.39788
119.000	0.18781	0.10942	0.16211	0.41379
120.000	0.18386	0.16114	0.17200	0.40584
121.000	0.16607	0.14722	0.17200	0.41180
122.000	0.20363	0.14722	0.16409	0.41578
123.000	0.17398	0.12732	0.15816	0.41578
124.000	0.24515	0.16313	0.17595	0.38196
125.000	0.20758	0.15120	0.19770	0.39788
126.000	0.21352	0.15915	0.15421	0.36406
127.000	0.20956	0.17109	0.18386	0.40981
128.000	0.22538	0.15915	0.19177	0.39191
129.000	0.20165	0.14324	0.20561	0.36605
130.000	0.21352	0.15915	0.17398	0.41180
131.000	0.18781	0.11340	0.17793	0.39390
132.000	0.18188	0.13727	0.19572	0.37401
133.000	0.22933	0.13329	0.18781	0.36804
134.000	0.21352	0.11937	0.19375	0.37799
135.000	0.20363	0.15120	0.18188	0.37799
136.000	0.19968	0.12931	0.20165	0.35411
137.000	0.19572	0.15120	0.19572	0.38594
138.000	0.19177	0.13727	0.20165	0.35610
139.000	0.21549	0.18303	0.19572	0.36804
140.000	0.21352	0.11937	0.19572	0.35809
141.000	0.23526	0.14324	0.18781	0.38992
142.000	0.19375	0.15915	0.17595	0.37799
143.000	0.22340	0.18104	0.17398	0.37003
144.000	0.20561	0.12334	0.19572	0.36406
145.000	0.21154	0.12931	0.19770	0.38594
146.000	0.22142	0.13130	0.17991	0.32825
147.000	0.21747	0.14722	0.18781	0.36605
148.000	0.20165	0.10544	0.20165	0.39987
149.000	0.20561	0.14523	0.19572	0.36804
150.000	0.19770	0.13926	0.21747	0.29841
151.000	0.21352	0.12135	0.20956	0.35013
152.000	0.23329	0.14921	0.18188	0.34218
153.000	0.17200	0.14523	0.21945	0.35610
154.000	0.22735	0.11539	0.20363	0.36207
155.000	0.22933	0.12931	0.18781	0.34019
156.000	0.19968	0.13727	0.20758	0.33223
157.000	0.23526	0.12533	0.21945	0.36008
158.000	0.17793	0.11937	0.19770	0.33621
159.000	0.21154	0.13528	0.20758	0.35610
160.000	0.17200	0.15120	0.19968	0.34019
161.000	0.17398	0.12931	0.18386	0.34417
162.000	0.18781	0.16114	0.22340	0.34417
163.000	0.20165	0.10544	0.22142	0.31830
164.000	0.18781	0.12732	0.20758	0.33621
165.000	0.21154	0.12533	0.20165	0.33422
166.000	0.19177	0.13727	0.22933	0.37798
167.000	0.19968	0.13329	0.21747	0.39390
168.000	0.21352	0.15120	0.18386	0.35212
169.000	0.23526	0.15120	0.20758	0.38594
170.000	0.19572	0.09549	0.19572	0.38196
171.000	0.22735	0.16114	0.20165	0.39589
172.000	0.21549	0.14324	0.21154	0.38395
173.000	0.23131	0.17109	0.23922	0.37997
174.000	0.23724	0.19297	0.20758	0.38793
175.000	0.21747	0.14921	0.24712	0.36804
176.000	0.22538	0.17905	0.24317	0.35411
177.000	0.20165	0.11539	0.22340	0.34218
178.000	0.20956	0.17308	0.24119	0.34814
179.000	0.23526	0.18700	0.25899	0.37599
180.000	0.18979	0.18303	0.24712	0.37202
181.000	0.20956	0.15517	0.18979	0.35411
182.000	0.20956	0.17706	0.23329	0.33223
183.000	0.20956	0.16711	0.20561	0.38196
184.000	0.24515	0.14722	0.23526	0.38594
185.000	0.20561	0.16114	0.22933	0.35212
186.000	0.19177	0.15120	0.22538	0.39788
187.000	0.22538	0.14523	0.22340	0.41180
188.000	0.19968	0.15716	0.23724	0.42175
189.000	0.23724	0.17905	0.21747	0.42971
190.000	0.19177	0.19098	0.21154	0.41578
191.000	0.16804	0.12931	0.23329	0.41180
192.000	0.24515	0.18303	0.21549	0.40981
193.000	0.20956	0.18502	0.22933	0.37600
194.000	0.20165	0.17507	0.22933	0.37997
195.000	0.20363	0.17507	0.23922	0.42374
196.000	0.21945	0.13329	0.24712	0.40186
197.000	0.18979	0.11141	0.25899	0.41379
198.000	0.22340	0.18303	0.22735	0.43766
199.000	0.22340	0.14125	0.26492	0.42175
200.000	0.19968	0.16114	0.24317	0.41777
201.000	0.20561	0.16910	0.25503	0.42772
202.000	0.19177	0.16512	0.26096	0.39788
203.000	0.17398	0.14324	0.25899	0.43368
204.000	0.23526	0.11937	0.25701	0.37599
205.000	0.17398	0.12931	0.30248	0.37997
206.000	0.20956	0.14921	0.28271	0.36008
207.000	0.18188	0.13727	0.29852	0.41976
208.000	0.19968	0.15716	0.26294	0.37003
209.000	0.19770	0.14921	0.25701	0.36008
210.000	0.17398	0.16313	0.26689	0.36406
211.000	0.22142	0.16313	0.29062	0.38395
212.000	0.15816	0.14722	0.28073	0.35013
213.000	0.16409	0.15319	0.26096	0.37202
214.000	0.13444	0.10942	0.27480	0.40384
215.000	0.17200	0.11539	0.27876	0.37400
216.000	0.16804	0.08157	0.28073	0.36804
217.000	0.17200	0.07361	0.27876	0.34615
218.000	0.17002	0.10345	0.31434	0.36406
219.000	0.19770	0.11937	0.27678	0.36605
220.000	0.19375	0.10146	0.29062	0.36804
221.000	0.19572	0.11340	0.27876	0.39390
222.000	0.14630	0.11937	0.29852	0.35610
223.000	0.19770	0.12533	0.25701	0.36804
224.000	0.16211	0.05769	0.26887	0.35411
225.000	0.15618	0.11539	0.29062	0.37997
226.000	0.17002	0.08157	0.30446	0.41976
227.000	0.20363	0.09350	0.28469	0.41379
228.000	0.17991	0.07759	0.30446	0.36207
229.000	0.14432	0.11937	0.31236	0.37400
230.000	0.17200	0.05968	0.30643	0.35013
231.000	0.15025	0.10942	0.30446	0.38793
232.000	0.15223	0.08753	0.31039	0.38793
233.000	0.18188	0.10743	0.28666	0.36406
234.000	0.19177	0.05968	0.29259	0.38594
235.000	0.17200	0.06366	0.31236	0.41379
236.000	0.14827	0.14125	0.28271	0.39390
237.000	0.14037	0.08753	0.29259	0.36605
238.000	0.13444	0.10146	0.28666	0.40583
239.000	0.15421	0.08157	0.31236	0.40384
240.000	0.15421	0.06167	0.29655	0.39589
241.000	0.14037	0.07560	0.29655	0.37400
242.000	0.14827	0.05371	0.29655	0.39788
243.000	0.15618	0.03979	0.28073	0.40583
244.000	0.14630	0.04377	0.27282	0.38395
245.000	0.13246	0.07361	0.32422	0.39986
246.000	0.15025	0.05769	0.30248	0.40185
247.000	0.15421	0.07162	0.30643	0.38992
248.000	0.15421	0.06366	0.28469	0.39589
249.000	0.15421	0.15518	0.31434	0.40782
250.000	0.13839	0.10942	0.31632	0.38395
251.000	0.17398	0.11141	0.29062	0.41180
252.000	0.15025	0.10146	0.30841	0.36406
253.000	0.13246	0.05570	0.31632	0.39390
254.000	0.19770	0.12135	0.33016	0.37201
255.000	0.16607	0.11738	0.31236	0.41976
256.000	0.18188	0.16910	0.30841	0.40981
257.000	0.17793	0.08555	0.32818	0.36605
258.000	0.14630	0.15518	0.30841	0.36406
259.000	0.13839	0.11141	0.28666	0.37201
260.000	0.10083	0.13727	0.25305	0.38395
261.000	0.07513	0.10942	0.21549	0.38992
262.000	0.00791	0.11141	0.13444	0.37003
263.000	-0.11269	0.10942	0.11269	0.38197
264.000	-0.17595	0.10544	0.01582	0.36406
265.000	-0.24317	0.09350	-0.09094	0.34019
266.000	-0.34202	0.05570	-0.14827	0.31831
267.000	-0.37958	0.09947	-0.20561	0.29841
268.000	-0.46459	0.10743	-0.27876	0.26459
269.000	-0.50215	0.07957	-0.32620	0.27454
270.000	-0.51598	0.09350	-0.33213	0.32825
271.000	-0.58517	0.06366	-0.43296	0.25663
272.000	-0.59901	0.07758	-0.42109	0.29244
273.000	-0.59703	0.11339	-0.44284	0.30636
274.000	-0.57727	0.09151	-0.39737	0.29841
275.000	-0.54168	0.07361	-0.40726	0.30238
276.000	-0.49028	0.08355	-0.35981	0.29443
277.000	-0.46261	0.03780	-0.33213	0.31432
278.000	-0.48238	0.02188	-0.29457	0.33820
279.000	-0.38749	0.00796	-0.24712	0.33223
280.000	-0.36376	0.02586	-0.22933	0.28250
281.000	-0.32818	0.01790	-0.20363	0.32825
282.000	-0.25899	0.06565	-0.15618	0.29443
283.000	-0.23724	0.05371	-0.17991	0.31632
284.000	-0.22735	0.02785	-0.14234	0.31632
285.000	-0.23329	0.03183	-0.14432	0.31831
286.000	-0.21549	0.04576	-0.13048	0.29443
287.000	-0.19770	0.05570	-0.11664	0.30637
288.000	-0.18386	0.06366	-0.12455	0.31035
289.000	-0.20363	0.06366	-0.10083	0.34417
290.000	-0.25701	0.06565	-0.11269	0.30438
291.000	-0.18979	0.08356	-0.08303	0.33024
292.000	-0.23329	0.05769	-0.11071	0.35213
293.000	-0.28271	0.05172	-0.10478	0.33820
294.000	-0.30446	0.01790	-0.09490	0.38992
295.000	-0.28469	0.04974	-0.08501	0.35809
296.000	-0.26096	0.07958	-0.10478	0.38395
297.000	-0.28271	0.07958	-0.10874	0.36008
298.000	-0.29655	0.08952	-0.11862	0.33223
299.000	-0.33411	0.04178	-0.12455	0.35411
300.000	-0.33016	0.07361	-0.10676	0.32427
301.000	-0.33609	0.07759	-0.13246	0.36207
302.000	-0.32225	0.04377	-0.12455	0.37799
303.000	-0.31434	0.08554	-0.09687	0.33024
304.000	-0.34202	0.04178	-0.11071	0.34019
305.000	-0.37365	0.07560	-0.11664	0.36406
306.000	-0.36969	0.06167	-0.11071	0.34019
307.000	-0.31039	0.05769	-0.12257	0.36008
308.000	-0.34795	0.05172	-0.10083	0.33422
309.000	-0.34004	0.05172	-0.12653	0.34815
310.000	-0.34795	0.06167	-0.12257	0.36207
311.000	-0.33411	0.08355	-0.11862	0.38992
312.000	-0.34597	0.07759	-0.08897	0.35411
313.000	-0.35388	0.06565	-0.12257	0.37202
314.000	-0.37563	0.05769	-0.13246	0.35411
315.000	-0.33609	0.09947	-0.13246	0.37202
316.000	-0.32225	0.05769	-0.10280	0.36605
317.000	-0.33213	0.08753	-0.13048	0.37003
318.000	-0.30643	0.12533	-0.13839	0.37600
319.000	-0.35388	0.06565	-0.10478	0.37003
320.000	-0.35586	0.07361	-0.08501	0.38992
321.000	-0.37167	0.06167	-0.12455	0.37003
322.000	-0.32027	0.09947	-0.10280	0.36406
323.000	-0.34993	0.10345	-0.09490	0.40385
324.000	-0.34993	0.08554	-0.11862	0.34616
325.000	-0.34795	0.07958	-0.10280	0.34417
326.000	-0.32422	0.08952	-0.10280	0.35411
327.000	-0.35388	0.08952	-0.09687	0.34019
328.000	-0.36179	0.10146	-0.11071	0.31632
329.000	-0.32818	0.09350	-0.12257	0.37998
330.000	-0.29062	0.07958	-0.15421	0.37202
331.000	-0.31039	0.08157	-0.10083	0.38197
332.000	-0.35190	0.09549	-0.11467	0.35809
333.000	-0.33411	0.09947	-0.10280	0.37202
334.000	-0.34795	0.12334	-0.11269	0.38395
335.000	-0.27480	0.10345	-0.10478	0.38197
336.000	-0.34004	0.09748	-0.10676	0.38594
337.000	-0.36772	0.08554	-0.10676	0.39788
338.000	-0.36772	0.07560	-0.09885	0.35809
339.000	-0.34993	0.06565	-0.07513	0.32427
340.000	-0.37563	0.04973	-0.11467	0.34417
341.000	-0.35190	0.05968	-0.13048	0.31632
342.000	-0.38749	0.04576	-0.09292	0.35213
343.000	-0.36376	0.07361	-0.13048	0.33422
344.000	-0.34399	0.08753	-0.12060	0.38197
345.000	-0.36969	0.10743	-0.11862	0.36406
346.000	-0.34993	0.08952	-0.10280	0.34218
347.000	-0.35190	0.07560	-0.09490	0.30836
348.000	-0.35783	0.09350	-0.09490	0.31831
349.000	-0.35981	0.11538	-0.12257	0.32427
350.000	-0.34993	0.09151	-0.09490	0.34417
351.000	-0.38156	0.06764	-0.09094	0.30836
352.000	-0.37167	0.12135	-0.10083	0.30637
353.000	-0.36969	0.08952	-0.10478	0.33820
354.000	-0.37167	0.04576	-0.11664	0.35610
355.000	-0.39342	0.00398	-0.11664	0.32825
356.000	-0.39935	0.04576	-0.14037	0.35014
357.000	-0.36574	0.06764	-0.12455	0.32228
358.000	-0.36772	0.07560	-0.12653	0.32825
359.000	-0.38353	0.05769	-0.11862	0.30637
360.000	-0.37563	0.08554	-0.09687	0.35014
361.000	-0.36772	0.11141	-0.12060	0.28250
362.000	-0.34004	0.06963	-0.12060	0.31234
363.000	-0.36376	0.07958	-0.11467	0.29642
364.000	-0.36969	0.12732	-0.12653	0.29841
365.000	-0.36772	0.06167	-0.08106	0.31831
366.000	-0.34597	0.10544	-0.11862	0.28847
367.000	-0.34993	0.11936	-0.13641	0.30438
368.000	-0.36179	0.11538	-0.09292	0.35014
369.000	-0.30643	0.14921	-0.10280	0.29045
370.000	-0.31632	0.14125	-0.12850	0.29045
371.000	-0.33016	0.14920	-0.10676	0.32030
372.000	-0.35586	0.11936	-0.10083	0.31234
373.000	-0.33213	0.15119	-0.11071	0.31234
374.000	-0.37760	0.12533	-0.09687	0.28648
375.000	-0.33411	0.14324	-0.10478	0.29443
376.000	-0.33609	0.11737	-0.08699	0.31831
377.000	-0.29655	0.10743	-0.08303	0.30637
378.000	-0.33609	0.11539	-0.07908	0.29443
379.000	-0.33213	0.14324	-0.08897	0.28449
380.000	-0.31434	0.14523	-0.11467	0.31632
381.000	-0.32620	0.11340	-0.08501	0.29443
382.000	-0.34795	0.12135	-0.09885	0.29244
383.000	-0.31829	0.13727	-0.08897	0.27653
384.000	-0.34202	0.10942	-0.11269	0.29443
385.000	-0.29259	0.19098	-0.07710	0.31234
386.000	-0.34993	0.12533	-0.09885	0.28847
387.000	-0.32818	0.13130	-0.11664	0.30438
388.000	-0.30248	0.15915	-0.11071	0.29443
389.000	-0.32225	0.15318	-0.11269	0.26061
390.000	-0.32818	0.13329	-0.12455	0.30637
391.000	-0.30841	0.13130	-0.09687	0.30438
392.000	-0.37563	0.13926	-0.10676	0.28051
393.000	-0.32225	0.14921	-0.10280	0.32228
394.000	-0.33411	0.15915	-0.09094	0.30438
395.000	-0.37760	0.12732	-0.06326	0.24072
396.000	-0.29852	0.14324	-0.06129	0.29046
397.000	-0.34202	0.12334	-0.11467	0.29443
398.000	-0.30643	0.13727	-0.11862	0.31035
399.000	-0.35586	0.11340	-0.09885	0.28449
400.000	-0.33411	0.13130	-0.06920	0.30438
401.000	-0.32225	0.16313	-0.08501	0.30239
402.000	-0.35190	0.14523	-0.09292	0.27056
403.000	-0.35388	0.13727	-0.08699	0.32228
404.000	-0.31632	0.12533	-0.06920	0.28250
405.000	-0.33609	0.11340	-0.10083	0.28847
406.000	-0.33213	0.12732	-0.11071	0.28648
407.000	-0.31632	0.10345	-0.07513	0.31433
408.000	-0.35388	0.15318	-0.07117	0.29443
409.000	-0.34597	0.08753	-0.11269	0.26459
410.000	-0.33213	0.10146	-0.05733	0.23276
411.000	-0.38353	0.08157	-0.07908	0.24669
412.000	-0.38353	0.07958	-0.03954	0.25664
413.000	-0.38353	0.16313	-0.05536	0.25465
414.000	-0.34202	0.11539	-0.05931	0.26260
415.000	-0.35388	0.11737	-0.05733	0.27454
416.000	-0.34399	0.11141	-0.05536	0.27255
417.000	-0.31632	0.10345	-0.06524	0.29443
418.000	-0.33411	0.13528	-0.08303	0.30438
419.000	-0.35783	0.09350	-0.08106	0.24271
420.000	-0.33609	0.12931	-0.07908	0.26658
421.000	-0.33411	0.14523	-0.06129	0.25862
422.000	-0.31829	0.14722	-0.07315	0.28648
423.000	-0.35586	0.10544	-0.07710	0.27255
424.000	-0.38749	0.09350	-0.09094	0.26857
425.000	-0.34597	0.10345	-0.04745	0.25862
426.000	-0.36179	0.09748	-0.06129	0.26459
427.000	-0.36376	0.08355	-0.04349	0.28250
428.000	-0.37563	0.10544	-0.05338	0.27056
429.000	-0.34399	0.09549	-0.06524	0.30040
430.000	-0.36772	0.11538	-0.05338	0.24271
431.000	-0.34597	0.11737	-0.07117	0.26658
432.000	-0.39342	0.11936	-0.06722	0.28250
433.000	-0.39342	0.12533	-0.07710	0.23475
434.000	-0.35388	0.13926	-0.02768	0.26658
435.000	-0.39737	0.10146	-0.10083	0.27653
436.000	-0.35388	0.13329	-0.08699	0.21685
437.000	-0.37167	0.11737	-0.07315	0.24470
438.000	-0.38551	0.10146	-0.06722	0.25862
439.000	-0.40330	0.09947	-0.07513	0.25664
440.000	-0.37365	0.02984	-0.05931	0.24868
441.000	-0.39539	0.12931	-0.05140	0.28847
442.000	-0.39144	0.06366	-0.05733	0.26459
443.000	-0.39342	0.06167	-0.03361	0.27852
444.000	-0.38551	0.11538	-0.06920	0.26658
445.000	-0.43493	0.04775	-0.03163	0.23873
446.000	-0.39539	0.07759	-0.03954	0.29443
447.000	-0.38156	0.04775	-0.05140	0.28051
448.000	-0.42307	0.05968	-0.04349	0.28051
449.000	-0.40330	0.04973	-0.05338	0.29244
450.000	-0.45272	0.01790	-0.05536	0.24470
451.000	-0.39737	0.03979	-0.02372	0.25863
452.000	-0.44679	0.04377	-0.07513	0.26459
453.000	-0.41319	0.05968	-0.05140	0.26260
454.000	-0.44284	0.00796	-0.06129	0.26857
455.000	-0.39935	0.04775	-0.07513	0.23475
456.000	-0.41516	0.05769	-0.07117	0.26658
457.000	-0.41912	0.06963	-0.04349	0.27255
458.000	-0.44284	0.03183	-0.04152	0.26061
459.000	-0.38749	0.04775	-0.06326	0.27255
460.000	-0.42900	0.04377	-0.03163	0.24669
461.000	-0.39539	0.04973	-0.01977	0.27255
462.000	-0.43889	0.02188	-0.01384	0.27852
463.000	-0.39539	0.06167	-0.04547	0.25862
464.000	-0.42109	0.01592	-0.02372	0.25664
465.000	-0.37958	0.06366	-0.06524	0.26260
466.000	-0.36376	0.05371	-0.03361	0.26260
467.000	-0.43691	0.04576	-0.04943	0.29244
468.000	-0.42702	0.02785	-0.03559	0.30239
469.000	-0.41912	0.07162	-0.04547	0.28449
470.000	-0.43296	0.04775	-0.03756	0.31035
471.000	-0.43098	-0.00796	-0.06524	0.27454
472.000	-0.40528	0.06963	-0.02175	0.27653
473.000	-0.42505	0.03780	-0.01977	0.28449
474.000	-0.43691	0.04377	-0.06920	0.27852
475.000	-0.44284	0.01393	-0.03756	0.28449
476.000	-0.43296	0.04377	-0.03954	0.27056
477.000	-0.38749	0.04377	-0.07117	0.23873
478.000	-0.41516	0.02586	-0.02768	0.26061
479.000	-0.37365	0.06565	-0.00395	0.26857
480.000	-0.43493	0.05968	-0.05931	0.27255
481.000	-0.44086	0.02188	-0.04152	0.26061
482.000	-0.43691	0.01790	-0.02768	0.30040
483.000	-0.41516	0.04973	-0.04152	0.25664
484.000	-0.41121	0.02785	-0.02966	0.26260
485.000	-0.41319	0.05968	-0.03361	0.26260
486.000	-0.41516	0.06565	-0.03954	0.31035
487.000	-0.41121	0.03382	-0.06524	0.26260
488.000	-0.42505	0.06764	-0.05931	0.27454
489.000	-0.38946	0.07162	-0.00593	0.25266
490.000	-0.41319	0.04178	-0.03756	0.29443
491.000	-0.41714	0.06366	-0.04152	0.25067
492.000	-0.37958	0.04377	-0.04943	0.27454
493.000	-0.42109	0.01592	-0.05931	0.27056
494.000	-0.42109	0.03581	-0.03756	0.25862
495.000	-0.39539	0.04576	-0.05338	0.28250
496.000	-0.37563	0.05769	-0.04745	0.28449
497.000	-0.37958	0.12334	-0.02768	0.24868
498.000	-0.38353	0.06963	-0.06524	0.24271
499.000	-0.36969	0.09947	-0.05931	0.24868
500.000	-0.41121	0.03581	-0.02768	0.24271
501.000	-0.38946	0.06963	-0.04349	0.25465
502.000	-0.43296	0.03581	-0.06920	0.24669
503.000	-0.42702	0.02586	-0.05140	0.24271
504.000	-0.43493	0.03780	-0.05140	0.21884
505.000	-0.40726	0.07162	-0.02372	0.25266
506.000	-0.39539	0.04178	-0.04349	0.24669
507.000	-0.38156	0.08157	-0.03163	0.29642
508.000	-0.41121	0.10146	-0.05931	0.27454
509.000	-0.36179	0.09151	-0.03559	0.28648
510.000	-0.38156	0.07361	-0.03361	0.29642
511.000	-0.38156	0.08355	-0.00791	0.32427
512.000	-0.36179	0.12135	0.01582	0.34417
513.000	-0.33806	0.13528	0.04745	0.32427
514.000	-0.30248	0.14921	0.09885	0.37998
515.000	-0.22538	0.14921	0.13839	0.37600
516.000	-0.18584	0.18104	0.15025	0.42772
517.000	-0.12257	0.21486	0.21352	0.46750
518.000	-0.09687	0.23475	0.24712	0.45358
519.000	-0.04943	0.25862	0.26492	0.47347
520.000	-0.03163	0.28449	0.26492	0.50331
521.000	-0.06722	0.24271	0.28864	0.50132
522.000	-0.07710	0.29443	0.27085	0.49933
523.000	-0.09094	0.31831	0.25108	0.47148
524.000	-0.06722	0.31035	0.23526	0.45955
525.000	-0.12850	0.29045	0.22538	0.46353
526.000	-0.17200	0.29443	0.19572	0.45358
527.000	-0.14234	0.26658	0.15025	0.49536
528.000	-0.17595	0.29642	0.15223	0.48342
529.000	-0.22735	0.24868	0.13839	0.45756
530.000	-0.19375	0.22679	0.10874	0.48143
531.000	-0.25108	0.23475	0.11664	0.46751
532.000	-0.23922	0.20491	0.10083	0.43170
533.000	-0.24712	0.19695	0.11467	0.38197
534.000	-0.22538	0.19098	0.10874	0.44363
535.000	-0.21945	0.19894	0.09687	0.39788
536.000	-0.23724	0.19297	0.12455	0.37401
537.000	-0.23526	0.16313	0.11664	0.39589
538.000	-0.24910	0.14523	0.15421	0.40584
539.000	-0.22340	0.20491	0.14234	0.40584
540.000	-0.21747	0.20889	0.15223	0.41379
541.000	-0.22933	0.19894	0.16211	0.44363
542.000	-0.19375	0.21486	0.14037	0.39589
543.000	-0.18781	0.21884	0.12850	0.40783
544.000	-0.22340	0.22679	0.13641	0.40783
545.000	-0.17793	0.25266	0.14827	0.43767
546.000	-0.21945	0.25067	0.13839	0.43767
547.000	-0.20758	0.25464	0.13641	0.41777
548.000	-0.21352	0.23276	0.15421	0.44363
549.000	-0.23131	0.25067	0.14432	0.44960
550.000	-0.18584	0.21287	0.11467	0.47745
551.000	-0.18584	0.26260	0.14234	0.44761
552.000	-0.23329	0.19098	0.14630	0.40982
553.000	-0.20165	0.22679	0.14234	0.43767
554.000	-0.17595	0.22083	0.15816	0.45756
555.000	-0.15421	0.20889	0.16804	0.42772
556.000	-0.19770	0.19098	0.15223	0.45756
557.000	-0.14432	0.27852	0.16804	0.45358
558.000	-0.13246	0.21287	0.18979	0.44562
559.000	-0.16607	0.25067	0.16409	0.42772
560.000	-0.18781	0.21685	0.16804	0.41379
561.000	-0.20956	0.20292	0.17398	0.41976
562.000	-0.15421	0.23674	0.16607	0.41777
563.000	-0.17002	0.26061	0.17793	0.40783
564.000	-0.18386	0.22679	0.17200	0.42772
565.000	-0.17200	0.24271	0.17002	0.38793
566.000	-0.17200	0.19496	0.15816	0.39589
567.000	-0.17002	0.22878	0.16409	0.40783
568.000	-0.16607	0.22878	0.13641	0.46950
569.000	-0.18188	0.22083	0.18979	0.42374
570.000	-0.16409	0.26260	0.19572	0.42971
571.000	-0.16607	0.19098	0.13641	0.42573
572.000	-0.15618	0.25067	0.13839	0.42175
573.000	-0.16804	0.22083	0.12653	0.44761
574.000	-0.16211	0.21088	0.15816	0.43568
575.000	-0.20363	0.25266	0.15618	0.41379
576.000	-0.18979	0.23674	0.13641	0.42175
577.000	-0.20363	0.24072	0.16014	0.40982
578.000	-0.19572	0.21088	0.14630	0.42971
579.000	-0.19177	0.26658	0.14432	0.41181
580.000	-0.18386	0.28250	0.12850	0.41578
581.000	-0.16014	0.23077	0.13839	0.40783
582.000	-0.17200	0.24470	0.16607	0.38196
583.000	-0.18979	0.23475	0.14234	0.40584
584.000	-0.17398	0.22083	0.18584	0.39589
585.000	-0.19375	0.18899	0.14432	0.41777
586.000	-0.22538	0.21884	0.16211	0.40982
587.000	-0.18781	0.27653	0.14827	0.38594
588.000	-0.18584	0.20889	0.13048	0.40385
589.000	-0.14234	0.22480	0.11862	0.39390
590.000	-0.18188	0.17905	0.11862	0.38197
591.000	-0.20758	0.22679	0.11862	0.39390
592.000	-0.20758	0.19695	0.14037	0.40186
593.000	-0.21154	0.26260	0.11664	0.40584
594.000	-0.19572	0.21287	0.17200	0.39589
595.000	-0.17200	0.23475	0.11269	0.35014
596.000	-0.18386	0.23475	0.11071	0.37202
597.000	-0.18386	0.22281	0.11269	0.35411
598.000	-0.17002	0.22083	0.12850	0.34616
599.000	-0.18584	0.25464	0.14037	0.34815
600.000	-0.19572	0.20491	0.11862	0.37401
601.000	-0.18584	0.22480	0.11269	0.36804
602.000	-0.18584	0.20690	0.16409	0.33223
603.000	-0.17991	0.23475	0.11269	0.32228
604.000	-0.16804	0.22083	0.15025	0.34019
605.000	-0.16211	0.24868	0.10478	0.33223
606.000	-0.19177	0.22480	0.12455	0.33621
607.000	-0.17991	0.16910	0.14432	0.30836
608.000	-0.21549	0.21088	0.11269	0.36008
609.000	-0.20561	0.17905	0.09292	0.29841
610.000	-0.20758	0.15716	0.12257	0.33223
611.000	-0.20561	0.17109	0.12060	0.34616
612.000	-0.20363	0.19098	0.10478	0.33820
613.000	-0.19968	0.16711	0.10874	0.35610
614.000	-0.20363	0.17706	0.13444	0.33024
615.000	-0.18386	0.18701	0.11467	0.29642
616.000	-0.22735	0.21486	0.11862	0.31632
617.000	-0.20956	0.16711	0.10676	0.28449
618.000	-0.19572	0.21287	0.10676	0.32825
619.000	-0.18781	0.18899	0.12455	0.32030
620.000	-0.16607	0.18502	0.14234	0.35610
621.000	-0.23131	0.18104	0.12060	0.32427
622.000	-0.21945	0.16512	0.15025	0.30239
623.000	-0.20363	0.20690	0.14432	0.29841
624.000	-0.19968	0.17905	0.13246	0.31035
625.000	-0.18979	0.19297	0.12653	0.27653
626.000	-0.20758	0.14921	0.14827	0.30836
627.000	-0.18979	0.13329	0.12060	0.31632
628.000	-0.21352	0.17308	0.13246	0.29244
629.000	-0.20758	0.24072	0.11664	0.27852
630.000	-0.25899	0.13329	0.11664	0.31632
631.000	-0.25108	0.13528	0.11269	0.30637
632.000	-0.21154	0.14722	0.09687	0.32427
633.000	-0.24317	0.16114	0.12850	0.30836
634.000	-0.21352	0.18104	0.14432	0.34218
635.000	-0.21747	0.17308	0.13444	0.30836
636.000	-0.17595	0.18303	0.13444	0.32228
637.000	-0.21549	0.11937	0.15816	0.31035
638.000	-0.20758	0.13926	0.12653	0.27454
639.000	-0.20956	0.16313	0.13839	0.27454
640.000	-0.19572	0.15319	0.12653	0.29045
641.000	-0.20363	0.15120	0.12060	0.24868
642.000	-0.18781	0.15120	0.11071	0.27852
643.000	-0.20758	0.16313	0.08897	0.29642
644.000	-0.21352	0.17905	0.14234	0.29642
645.000	-0.20758	0.14324	0.15421	0.28449
646.000	-0.22933	0.11738	0.07710	0.28051
647.000	-0.20956	0.13130	0.14432	0.28648
648.000	-0.18386	0.15120	0.13641	0.24868
649.000	-0.19177	0.15319	0.12060	0.31035
650.000	-0.20363	0.15319	0.13444	0.28051
651.000	-0.18781	0.22679	0.13246	0.27852
652.000	-0.18979	0.17507	0.13839	0.27653
653.000	-0.17002	0.14324	0.13246	0.29045
654.000	-0.19968	0.13528	0.13246	0.29244
655.000	-0.17991	0.14523	0.15421	0.28648
656.000	-0.18584	0.12931	0.12455	0.28051
657.000	-0.16409	0.17109	0.14234	0.27653
658.000	-0.21945	0.13130	0.11071	0.32825
659.000	-0.19968	0.15120	0.13641	0.29841
660.000	-0.16804	0.15120	0.11664	0.28051
661.000	-0.18584	0.11937	0.11071	0.27454
662.000	-0.18781	0.14324	0.13839	0.27852
663.000	-0.17595	0.14523	0.14630	0.27653
664.000	-0.20165	0.10942	0.15421	0.30637
665.000	-0.22142	0.17706	0.16804	0.26459
666.000	-0.22340	0.11340	0.16014	0.29045
667.000	-0.18781	0.11340	0.14630	0.31433
668.000	-0.18188	0.11539	0.18386	0.28449
669.000	-0.20956	0.15716	0.16409	0.27852
670.000	-0.20561	0.13727	0.13444	0.29244
671.000	-0.17991	0.13727	0.14234	0.25266
672.000	-0.18979	0.17308	0.12653	0.31234
673.000	-0.16409	0.14921	0.13246	0.25266
674.000	-0.15618	0.15120	0.14827	0.28051
675.000	-0.17398	0.18502	0.15025	0.29642
676.000	-0.18386	0.12931	0.15025	0.28250
677.000	-0.18584	0.15319	0.16409	0.33422
678.000	-0.18979	0.17109	0.16014	0.30438
679.000	-0.20165	0.12533	0.14432	0.29443
680.000	-0.16409	0.18502	0.15025	0.29244
681.000	-0.19177	0.14921	0.15421	0.29841
682.000	-0.17398	0.14523	0.15025	0.27653
683.000	-0.17793	0.18502	0.13839	0.27255
684.000	-0.18386	0.13926	0.15421	0.27056
685.000	-0.19177	0.16114	0.12653	0.29244
686.000	-0.17595	0.20491	0.14234	0.28648
687.000	-0.19968	0.17308	0.15816	0.31632
688.000	-0.12455	0.19894	0.14827	0.30239
689.000	-0.18188	0.20292	0.15618	0.30239
690.000	-0.16211	0.22281	0.17200	0.29642
691.000	-0.17002	0.18899	0.14827	0.30836
692.000	-0.18188	0.19297	0.16409	0.32427
693.000	-0.15816	0.22679	0.14432	0.31433
694.000	-0.17793	0.20491	0.16409	0.29443
695.000	-0.16804	0.21486	0.15025	0.34815
696.000	-0.15618	0.23276	0.13839	0.30438
697.000	-0.15223	0.19496	0.17793	0.31234
698.000	-0.18386	0.18502	0.15816	0.31632
699.000	-0.15025	0.26061	0.15618	0.31831
700.000	-0.16804	0.16512	0.17793	0.30040
701.000	-0.18386	0.21486	0.15223	0.33024
702.000	-0.18188	0.20491	0.17595	0.31831
703.000	-0.15618	0.20690	0.14432	0.34616
704.000	-0.14630	0.20690	0.17002	0.35411
705.000	-0.16804	0.21088	0.13641	0.28847
706.000	-0.12257	0.24271	0.17793	0.36207
707.000	-0.15223	0.20889	0.19375	0.35610
708.000	-0.13246	0.28648	0.17793	0.31433
709.000	-0.11862	0.22679	0.17991	0.33621
710.000	-0.15025	0.22878	0.17398	0.31035
711.000	-0.16804	0.22878	0.20956	0.32029
712.000	-0.14630	0.23674	0.17002	0.33223
713.000	-0.17991	0.19297	0.17991	0.29244
714.000	-0.14630	0.23873	0.17200	0.29841
715.000	-0.17002	0.22480	0.17398	0.32029
716.000	-0.15816	0.22480	0.16804	0.34616
717.000	-0.17002	0.20889	0.14630	0.32228
718.000	-0.17200	0.19297	0.17595	0.34019
719.000	-0.16804	0.20889	0.16409	0.34417
720.000	-0.15421	0.24868	0.18188	0.33024
721.000	-0.13839	0.24868	0.18979	0.33024
722.000	-0.15421	0.23475	0.16607	0.32825
723.000	-0.13246	0.21486	0.16804	0.37799
724.000	-0.13048	0.24271	0.18979	0.31234
725.000	-0.12060	0.24072	0.16804	0.32228
726.000	-0.13839	0.24072	0.18979	0.31035
727.000	-0.16804	0.25862	0.20956	0.32228
728.000	-0.15025	0.25266	0.18584	0.30637
729.000	-0.13444	0.24072	0.16409	0.35610
730.000	-0.14630	0.22878	0.17398	0.34019
731.000	-0.17200	0.21685	0.16409	0.34815
732.000	-0.15025	0.22878	0.18386	0.30239
733.000	-0.08501	0.23276	0.20561	0.31035
734.000	-0.14234	0.27056	0.17793	0.31234
735.000	-0.14037	0.25266	0.18188	0.30836
736.000	-0.11862	0.23276	0.18979	0.32029
737.000	-0.10874	0.26857	0.16409	0.32825
738.000	-0.13048	0.25266	0.16014	0.32427
739.000	-0.14234	0.22679	0.16804	0.35411
740.000	-0.14432	0.23674	0.16409	0.38395
741.000	-0.13839	0.21088	0.15816	0.33422
742.000	-0.13839	0.25663	0.17793	0.34019
743.000	-0.13839	0.27454	0.18386	0.29443
744.000	-0.14630	0.26658	0.15816	0.30637
745.000	-0.14630	0.25663	0.16804	0.28051
746.000	-0.17991	0.20292	0.16409	0.33820
747.000	-0.13246	0.23475	0.18584	0.33422
748.000	-0.12850	0.25067	0.16804	0.34019
749.000	-0.16014	0.22281	0.17398	0.35809
750.000	-0.15025	0.24072	0.15421	0.35014
751.000	-0.14432	0.24669	0.18781	0.33621
752.000	-0.12653	0.26459	0.20561	0.38793
753.000	-0.14827	0.25067	0.17398	0.29642
754.000	-0.13839	0.26459	0.17793	0.34616
755.000	-0.12257	0.23674	0.17991	0.31035
756.000	-0.16211	0.22281	0.17793	0.32626
757.000	-0.18188	0.23077	0.14037	0.30637
758.000	-0.14037	0.23873	0.13641	0.34616
759.000	-0.18188	0.22083	0.17398	0.31433
760.000	-0.17002	0.22281	0.15223	0.32029
761.000	-0.15618	0.25266	0.15421	0.28250
762.000	-0.15421	0.22480	0.15816	0.25663
763.000	-0.15421	0.22083	0.13246	0.37998
764.000	-0.19572	0.19894	0.13444	0.29642
765.000	-0.17002	0.19894	0.15421	0.30239
766.000	-0.17595	0.23674	0.13246	0.32427
767.000	-0.17002	0.20292	0.14827	0.34616
768.000	-0.19968	0.16512	0.15223	0.33621
769.000	-0.17991	0.19496	0.17200	0.32825
770.000	-0.18386	0.24669	0.14827	0.31234
771.000	-0.17793	0.21884	0.15025	0.33621
772.000	-0.21549	0.19894	0.13048	0.28449
773.000	-0.19375	0.21486	0.14432	0.35212
774.000	-0.16014	0.22281	0.16409	0.37600
775.000	-0.14630	0.23077	0.15421	0.34019
776.000	-0.16804	0.20889	0.16607	0.37600
777.000	-0.15816	0.20889	0.19375	0.32626
778.000	-0.20363	0.15915	0.14630	0.30637
779.000	-0.20363	0.18303	0.15618	0.33820
780.000	-0.21747	0.21287	0.13048	0.31831
781.000	-0.19375	0.22480	0.15223	0.37600
782.000	-0.18781	0.22679	0.14630	0.30637
783.000	-0.21945	0.19098	0.13444	0.36605
784.000	-0.21549	0.18303	0.18979	0.36605
785.000	-0.17793	0.20093	0.18188	0.36008
786.000	-0.19375	0.21884	0.17991	0.33621
787.000	-0.19770	0.20093	0.16804	0.36008
788.000	-0.15421	0.18900	0.17398	0.36605
789.000	-0.17398	0.18701	0.14630	0.36008
790.000	-0.16607	0.21088	0.14630	0.36406
791.000	-0.18386	0.18899	0.16607	0.34616
792.000	-0.15223	0.20491	0.16804	0.34616
793.000	-0.16014	0.20690	0.17398	0.35212
794.000	-0.17793	0.19695	0.15618	0.41379
795.000	-0.18979	0.19496	0.14827	0.36804
796.000	-0.21352	0.17507	0.16014	0.32626
797.000	-0.21154	0.18899	0.13246	0.35212
798.000	-0.24515	0.18899	0.13246	0.34019
799.000	-0.23724	0.18104	0.13048	0.29642
800.000	-0.30050	0.13926	0.09490	0.29443
801.000	-0.33411	0.13926	0.03756	0.32030
802.000	-0.34399	0.15517	0.02175	0.25067
803.000	-0.37365	0.13926	0.01384	0.26857
804.000	-0.41912	0.11538	-0.03756	0.26857
805.000	-0.45668	0.08355	-0.05338	0.30239
806.000	-0.46459	0.11936	-0.05733	0.28449
807.000	-0.51005	0.11936	-0.08303	0.26061
808.000	-0.46261	0.12334	-0.10280	0.26061
809.000	-0.46063	0.16114	-0.06722	0.31234
810.000	-0.40923	0.14920	-0.06326	0.30040
811.000	-0.41912	0.12334	-0.05931	0.28648
812.000	-0.41121	0.11936	-0.01977	0.30239
813.000	-0.35190	0.11936	0.02175	0.34815
814.000	-0.36574	0.09947	0.02372	0.30239
815.000	-0.31632	0.18700	0.05140	0.30637
816.000	-0.32620	0.15915	0.07908	0.32825
817.000	-0.29852	0.17109	0.05931	0.33223
818.000	-0.25503	0.13528	0.10478	0.33024
819.000	-0.27678	0.14125	0.06524	0.31234
820.000	-0.26096	0.14324	0.04943	0.28648
821.000	-0.22735	0.18303	0.05338	0.24669
822.000	-0.28073	0.18104	0.05140	0.32030
823.000	-0.24712	0.17905	0.05536	0.26658
824.000	-0.22142	0.21884	0.06326	0.28449
825.000	-0.28469	0.12533	0.06129	0.26857
826.000	-0.24119	0.17109	0.03361	0.25664
827.000	-0.26689	0.15318	0.06920	0.28847
828.000	-0.28469	0.16512	0.02570	0.29841
829.000	-0.29655	0.16910	0.06129	0.29841
830.000	-0.26887	0.18899	0.06722	0.32626
831.000	-0.29457	0.17706	0.03756	0.30040
832.000	-0.27876	0.18501	0.09490	0.33621
833.000	-0.29062	0.15318	0.05536	0.25465
834.000	-0.31829	0.16512	0.04943	0.29046
835.000	-0.29852	0.19297	0.03361	0.31831
836.000	-0.27480	0.19695	0.00395	0.26459
837.000	-0.32422	0.15517	0.02175	0.33621
838.000	-0.31632	0.16313	0.01186	0.31632
839.000	-0.31236	0.17308	0.03756	0.27852
840.000	-0.29062	0.13926	0.01977	0.30438
841.000	-0.32620	0.15517	0.02372	0.34218
842.000	-0.28271	0.20889	0.06524	0.31234
843.000	-0.30050	0.21287	-0.02175	0.31831
844.000	-0.28666	0.22679	0.02175	0.31632
845.000	-0.29655	0.18104	0.00791	0.31234
846.000	-0.28666	0.18700	0.04547	0.28250
847.000	-0.27480	0.19098	0.01779	0.29046
848.000	-0.29062	0.19496	0.02768	0.29244
849.000	-0.30050	0.19297	0.03163	0.30438
850.000	-0.31632	0.20889	0.00000	0.32626
851.000	-0.28271	0.17109	0.01977	0.31234
852.000	-0.27480	0.17706	0.04152	0.30438
853.000	-0.28073	0.19695	0.02175	0.30836
854.000	-0.29457	0.17706	0.04349	0.32825
855.000	-0.29852	0.17308	0.01582	0.34019
856.000	-0.27480	0.19894	0.02966	0.29642
857.000	-0.25503	0.23077	0.04943	0.29244
858.000	-0.27282	0.14921	0.00000	0.34616
859.000	-0.27678	0.22679	0.02768	0.30637
860.000	-0.29259	0.14921	-0.00198	0.29443
861.000	-0.29852	0.20491	0.03756	0.34815
862.000	-0.25701	0.18700	0.04152	0.30239
863.000	-0.25701	0.19894	0.00593	0.33422
864.000	-0.30446	0.19695	-0.00198	0.32030
865.000	-0.30248	0.18899	0.03954	0.31831
866.000	-0.28666	0.20690	0.03559	0.32229
867.000	-0.27480	0.10146	0.00791	0.30040
868.000	-0.27876	0.15915	0.02175	0.29244
869.000	-0.27678	0.14324	0.02570	0.35809
870.000	-0.27480	0.14324	0.02768	0.28847
871.000	-0.29062	0.14324	0.02175	0.32825
872.000	-0.30248	0.16313	0.00000	0.30239
873.000	-0.27480	0.12334	0.00000	0.32626
874.000	-0.25503	0.18104	-0.00791	0.32229
875.000	-0.25899	0.17905	0.01186	0.33223
876.000	-0.26689	0.17706	-0.00395	0.30438
877.000	-0.29062	0.18303	0.02372	0.35412
878.000	-0.27085	0.17706	0.00593	0.31035
879.000	-0.24910	0.18700	0.01779	0.32626
880.000	-0.26096	0.20690	0.03163	0.31035
881.000	-0.28271	0.19098	-0.00989	0.31234
882.000	-0.27085	0.14324	0.02570	0.33422
883.000	-0.30050	0.15915	0.01977	0.33223
884.000	-0.30446	0.15716	0.00395	0.31035
885.000	-0.29457	0.15119	-0.00198	0.32229
886.000	-0.30248	0.11737	0.00395	0.33621
887.000	-0.28864	0.15915	-0.00198	0.29841
888.000	-0.28073	0.16114	0.00198	0.32626
889.000	-0.27876	0.14722	0.03163	0.39390
890.000	-0.27678	0.14722	0.02372	0.34019
891.000	-0.29259	0.15318	0.01582	0.32825
892.000	-0.27282	0.14125	-0.00395	0.35213
893.000	-0.26492	0.16910	0.02966	0.37998
894.000	-0.28073	0.16114	-0.00395	0.36406
895.000	-0.27282	0.18899	0.02175	0.35809
896.000	-0.27876	0.16512	0.01186	0.32229
897.000	-0.27282	0.14523	-0.00198	0.34019
898.000	-0.25701	0.20093	-0.00989	0.35809
899.000	-0.25503	0.15915	0.02175	0.35213
900.000	-0.24712	0.20690	0.04547	0.34417
901.000	-0.27085	0.18899	-0.00989	0.33820
902.000	-0.24515	0.16711	-0.01186	0.32626
903.000	-0.29655	0.16711	0.00395	0.31433
904.000	-0.29852	0.18104	-0.02372	0.33223
905.000	-0.26096	0.18303	0.01186	0.34019
906.000	-0.27480	0.12135	0.02966	0.32427
907.000	-0.25305	0.18104	0.00593	0.31035
908.000	-0.23329	0.20889	0.01779	0.34218
909.000	-0.26294	0.13926	0.02372	0.35213
910.000	-0.24910	0.23276	0.01779	0.36008
911.000	-0.23329	0.17308	-0.00395	0.39987
912.000	-0.29457	0.15318	0.01582	0.33223
913.000	-0.24119	0.16711	-0.01977	0.34616
914.000	-0.21747	0.23674	0.02570	0.36207
915.000	-0.26096	0.20292	0.03559	0.39390
916.000	-0.26294	0.22679	0.01779	0.32825
917.000	-0.27678	0.20491	0.03559	0.34815
918.000	-0.23724	0.17109	0.00000	0.36804
919.000	-0.26492	0.19894	0.02768	0.36406
920.000	-0.24515	0.22480	0.00989	0.38594
921.000	-0.25305	0.19496	0.01977	0.37202
922.000	-0.21747	0.19894	0.03163	0.37401
923.000	-0.22735	0.19695	0.06524	0.36605
924.000	-0.25899	0.24271	0.04152	0.37998
925.000	-0.22538	0.19894	0.04547	0.33621
926.000	-0.23131	0.21685	0.03361	0.35809
927.000	-0.27876	0.22281	0.02966	0.37799
928.000	-0.24317	0.22281	0.00593	0.37998
929.000	-0.21154	0.20093	0.01779	0.33820
930.000	-0.21154	0.25067	0.00593	0.32427
931.000	-0.22933	0.24669	-0.00791	0.35213
932.000	-0.25701	0.22281	0.05140	0.36406
933.000	-0.20561	0.18899	0.02966	0.36406
934.000	-0.23329	0.19297	0.01186	0.35610
935.000	-0.19968	0.26061	0.04943	0.36605
936.000	-0.21549	0.23276	0.07315	0.40584
937.000	-0.20165	0.24271	0.04349	0.37600
938.000	-0.20956	0.25663	0.03756	0.35014
939.000	-0.22933	0.24470	0.05733	0.38992
940.000	-0.19375	0.24669	0.02372	0.37998
941.000	-0.23329	0.22281	0.07117	0.38992
942.000	-0.24910	0.27454	0.03163	0.35412
943.000	-0.22538	0.25862	0.03361	0.34815
944.000	-0.22538	0.24470	0.05733	0.37202
945.000	-0.19572	0.22878	0.02966	0.40783
946.000	-0.23724	0.23077	0.07117	0.33024
947.000	-0.21352	0.23873	0.06326	0.35809
948.000	-0.21747	0.24868	0.04152	0.38793
949.000	-0.24515	0.20093	0.05338	0.37998
950.000	-0.23526	0.21287	0.06920	0.37003
951.000	-0.21549	0.21088	0.06326	0.36008
952.000	-0.20165	0.22083	0.03559	0.38594
953.000	-0.18781	0.25266	0.02768	0.38793
954.000	-0.19572	0.23475	0.04547	0.38396
955.000	-0.19968	0.23674	0.05338	0.41578
956.000	-0.19572	0.25266	0.03559	0.37799
957.000	-0.16211	0.23276	0.05536	0.38594
958.000	-0.19770	0.23077	0.04745	0.34815
959.000	-0.21747	0.24072	0.05733	0.39390
960.000	-0.18979	0.20889	0.04547	0.36207
961.000	-0.20363	0.22480	0.08106	0.38793
962.000	-0.18584	0.19496	0.05931	0.37202
963.000	-0.22933	0.20491	0.05140	0.35412
964.000	-0.18979	0.25464	0.06920	0.37003
965.000	-0.20956	0.19496	0.11862	0.36804
966.000	-0.18781	0.20889	0.07908	0.38396
967.000	-0.19770	0.20491	0.07315	0.34815
968.000	-0.16804	0.19695	0.03954	0.32229
969.000	-0.19177	0.22083	0.05338	0.35809
970.000	-0.23329	0.19894	0.03954	0.36008
971.000	-0.19770	0.23475	0.06920	0.39191
972.000	-0.18386	0.17905	0.07513	0.39390
973.000	-0.20363	0.19098	0.05931	0.35809
974.000	-0.18188	0.22679	0.05733	0.32626
975.000	-0.25503	0.19894	0.07117	0.34218
976.000	-0.20561	0.25266	0.02570	0.35014
977.000	-0.20758	0.23276	0.06129	0.35213
978.000	-0.17595	0.25067	0.07117	0.32030
979.000	-0.21154	0.24072	0.05338	0.35809
980.000	-0.18781	0.25067	0.05733	0.39589
981.000	-0.18584	0.22480	0.05931	0.36207
982.000	-0.17002	0.20292	0.06326	0.39987
983.000	-0.19968	0.19098	0.01977	0.36406
984.000	-0.16014	0.24868	0.06920	0.32030
985.000	-0.21747	0.23674	0.04943	0.34815
986.000	-0.18188	0.23077	0.03361	0.37799
987.000	-0.20956	0.21088	0.06524	0.35412
988.000	-0.18188	0.24072	0.06722	0.38396
989.000	-0.17398	0.23873	0.05140	0.37998
990.000	-0.20363	0.22082	0.03954	0.35809
991.000	-0.20758	0.22679	0.04152	0.37202
992.000	-0.18979	0.22480	0.04745	0.38197
993.000	-0.19770	0.17706	0.05140	0.40982
994.000	-0.18188	0.18303	0.04547	0.31234
995.000	-0.17398	0.14722	0.03163	0.36804
996.000	-0.20561	0.18104	0.00989	0.32626
997.000	-0.19375	0.19695	0.05338	0.34019
998.000	-0.19770	0.22083	0.03756	0.32229
999.000	-0.19968	0.23475	0.06920	0.36207
1000.000	-0.18781	0.20889	0.04547	0.36605
1001.000	-0.19770	0.16910	0.05140	0.37003
1002.000	-0.17200	0.16313	0.04745	0.39390
1003.000	-0.20956	0.19894	0.03954	0.34019
1004.000	-0.18781	0.20491	0.02966	0.33422
1005.000	-0.19572	0.19496	0.02372	0.37799
1006.000	-0.18386	0.22480	0.04349	0.32626
1007.000	-0.17002	0.18701	0.03954	0.34417
1008.000	-0.14827	0.21486	0.03361	0.34417
1009.000	-0.16014	0.19894	0.02175	0.36008
1010.000	-0.21549	0.19098	0.03361	0.33820
1011.000	-0.17200	0.24669	0.07513	0.35014
1012.000	-0.19177	0.19297	0.03163	0.33820
1013.000	-0.17398	0.18701	0.04745	0.36406
1014.000	-0.19770	0.20491	0.01779	0.34417
1015.000	-0.19375	0.23873	0.04349	0.34815
1016.000	-0.16014	0.21088	0.06920	0.34417
1017.000	-0.18386	0.17308	0.01384	0.29841
1018.000	-0.19177	0.19695	0.05733	0.31035
1019.000	-0.18188	0.20292	0.04349	0.30040
1020.000	-0.23724	0.17706	0.03756	0.35412
1021.000	-0.15816	0.20889	0.01582	0.31433
1022.000	-0.15816	0.17507	0.06524	0.34019
1023.000	-0.14432	0.20292	0.05140	0.34417
1024.000	-0.16211	0.20491	0.04349	0.33621
1025.000	-0.13048	0.20292	0.05536	0.36008
1026.000	-0.14432	0.21884	0.03559	0.36804
1027.000	-0.17200	0.18303	0.01582	0.35412
1028.000	-0.16014	0.24470	0.02175	0.31433
1029.000	-0.17398	0.21486	0.04943	0.35213
1030.000	-0.17002	0.22878	0.03163	0.37202
1031.000	-0.17793	0.24271	0.01977	0.36008
1032.000	-0.17002	0.21088	0.02175	0.30040
1033.000	-0.17398	0.19695	0.06722	0.33820
1034.000	-0.17200	0.21884	0.09094	0.31831
1035.000	-0.14827	0.22282	0.06920	0.34019
1036.000	-0.14827	0.22282	0.08303	0.29642
1037.000	-0.13641	0.20889	0.06326	0.31433
1038.000	-0.13641	0.19894	0.06920	0.29841
1039.000	-0.15421	0.20292	0.04745	0.36605
1040.000	-0.15421	0.25067	0.06920	0.30239
1041.000	-0.15223	0.19695	0.02768	0.34815
1042.000	-0.17398	0.20690	0.05536	0.40584
1043.000	-0.16607	0.20292	0.05140	0.35610
1044.000	-0.14037	0.21685	0.00593	0.31035
1045.000	-0.15816	0.20491	0.03361	0.33820
1046.000	-0.20165	0.19098	0.05733	0.32030
1047.000	-0.14827	0.20889	0.03756	0.32427
1048.000	-0.17200	0.17905	0.02966	0.32427
1049.000	-0.14037	0.22480	0.02372	0.32229
1050.000	-0.14630	0.23077	0.05931	0.33223
1051.000	-0.16211	0.20690	0.06722	0.32427
1052.000	-0.12850	0.22679	0.08303	0.33024
1053.000	-0.14432	0.22083	0.03756	0.30239
1054.000	-0.14234	0.21287	0.06722	0.32427
1055.000	-0.13246	0.23077	0.07513	0.30637
1056.000	-0.16014	0.23873	0.04745	0.34417
1057.000	-0.09687	0.25664	0.05931	0.34019
1058.000	-0.16607	0.21685	0.05338	0.35014
1059.000	-0.10874	0.23077	0.06326	0.33024
1060.000	-0.16211	0.22480	0.05931	0.30836
1061.000	-0.11071	0.24072	0.08303	0.29443
1062.000	-0.16211	0.22679	0.05733	0.30836
1063.000	-0.17200	0.21884	0.07315	0.31433
1064.000	-0.13641	0.21088	0.06524	0.28648
1065.000	-0.12455	0.24072	0.05733	0.32229
1066.000	-0.11071	0.27852	0.04943	0.35610
1067.000	-0.15421	0.22083	0.05733	0.30040
1068.000	-0.13444	0.22083	0.05338	0.35213
1069.000	-0.14432	0.22282	0.06722	0.32427
1070.000	-0.14630	0.23873	0.06326	0.31234
1071.000	-0.12257	0.22083	0.06326	0.37202
1072.000	-0.13641	0.20889	0.05140	0.29841
1073.000	-0.10083	0.23873	0.09292	0.39191
1074.000	-0.13444	0.20292	0.05733	0.32030
1075.000	-0.09490	0.24868	0.06129	0.33024
1076.000	-0.11269	0.29244	0.05536	0.32229
1077.000	-0.12653	0.26658	0.04547	0.29642
1078.000	-0.11862	0.23475	0.02372	0.30836
1079.000	-0.10676	0.23077	0.05536	0.29244
1080.000	-0.10280	0.24669	0.04349	0.30438
1081.000	-0.15025	0.21287	0.06920	0.29642
1082.000	-0.13048	0.22480	0.08501	0.33422
1083.000	-0.15223	0.22480	0.07315	0.28847
1084.000	-0.12653	0.23674	0.08501	0.37600
1085.000	-0.14234	0.18701	0.07908	0.31035
1086.000	-0.09292	0.22083	0.06524	0.33422
1087.000	-0.12257	0.24072	0.07513	0.30040
1088.000	-0.14630	0.21287	0.07908	0.30438
1089.000	-0.12060	0.19297	0.08501	0.33024
1090.000	-0.08897	0.20690	0.06129	0.28847
1091.000	-0.11269	0.25266	0.10280	0.30836
1092.000	-0.12455	0.21884	0.11071	0.31234
1093.000	-0.11862	0.21685	0.05536	0.33422
1094.000	-0.13048	0.22480	0.08303	0.30239
1095.000	-0.10083	0.21287	0.10478	0.30040
1096.000	-0.13246	0.19496	0.05931	0.28250
1097.000	-0.10280	0.23674	0.03361	0.27056
1098.000	-0.11071	0.19496	0.10478	0.30836
1099.000	-0.11071	0.15915	0.05338	0.26857
1100.000	-0.10874	0.20491	0.09094	0.29244
1101.000	-0.10280	0.21287	0.06129	0.29443
1102.000	-0.11071	0.18701	0.06722	0.25862
1103.000	-0.14037	0.17905	0.09292	0.28051
1104.000	-0.11071	0.21685	0.05338	0.30438
1105.000	-0.09094	0.17507	0.04943	0.27056
1106.000	-0.10478	0.14722	0.06524	0.23077
1107.000	-0.12060	0.14722	0.06920	0.23873
1108.000	-0.10280	0.15915	0.08897	0.26857
1109.000	-0.11664	0.15915	0.05536	0.28051
1110.000	-0.16211	0.15319	0.08501	0.23674
1111.000	-0.11269	0.14523	0.09885	0.28648
1112.000	-0.12653	0.14722	0.06524	0.25465
1113.000	-0.12060	0.18900	0.07710	0.32825
1114.000	-0.12257	0.15518	0.07908	0.27056
1115.000	-0.08897	0.16711	0.06524	0.29443
1116.000	-0.09687	0.18900	0.08106	0.27056
1117.000	-0.08106	0.18502	0.03756	0.25862
1118.000	-0.11862	0.16114	0.04547	0.27056
1119.000	-0.10280	0.17706	0.05338	0.21884
1120.000	-0.10083	0.15915	0.04745	0.24868
1121.000	-0.12653	0.17905	0.05931	0.28250
1122.000	-0.13839	0.16512	0.05338	0.26658
1123.000	-0.12455	0.15915	0.08303	0.21884
1124.000	-0.08897	0.20889	0.11269	0.24271
1125.000	-0.12257	0.14523	0.05338	0.27653
1126.000	-0.14234	0.18502	0.05338	0.23077
1127.000	-0.14037	0.14921	0.07908	0.28250
1128.000	-0.10083	0.17507	0.05931	0.27255
1129.000	-0.11862	0.17109	0.05338	0.26658
1130.000	-0.11071	0.22679	0.03756	0.27056
1131.000	-0.07315	0.20093	0.04349	0.24868
1132.000	-0.10478	0.17308	0.03361	0.23674
1133.000	-0.07513	0.22282	0.02175	0.24470
1134.000	-0.09687	0.22083	0.03756	0.27255
1135.000	-0.08106	0.21287	0.05140	0.27255
1136.000	-0.09094	0.20690	0.02372	0.28250
1137.000	-0.07315	0.22282	0.01977	0.26260
1138.000	-0.11269	0.20292	0.04152	0.24072
1139.000	-0.11269	0.21486	0.03163	0.24470
1140.000	-0.09292	0.20889	0.02372	0.29841
1141.000	-0.12060	0.20889	0.04547	0.27255
1142.000	-0.09687	0.21088	0.00989	0.27653
1143.000	-0.11269	0.20889	0.03559	0.26260
1144.000	-0.09292	0.19695	0.03756	0.26061
1145.000	-0.07710	0.20491	0.00000	0.26459
1146.000	-0.10676	0.21884	0.04745	0.26658
1147.000	-0.08699	0.21685	0.00000	0.28051
1148.000	-0.05140	0.24470	0.02570	0.22679
1149.000	-0.11467	0.18303	0.03361	0.21884
1150.000	-0.06722	0.21287	0.00989	0.27056
1151.000	-0.09885	0.20093	0.02175	0.27852
1152.000	-0.09490	0.17507	0.05140	0.22282
1153.000	-0.07117	0.19496	0.05733	0.23873
1154.000	-0.10083	0.16313	0.02570	0.24669
1155.000	-0.04152	0.21088	0.01186	0.24470
1156.000	-0.10478	0.15716	0.01384	0.24669
1157.000	-0.07315	0.16512	0.06722	0.24271
1158.000	-0.13246	0.12931	0.05338	0.27653
1159.000	-0.12060	0.11937	0.04349	0.23276
1160.000	-0.12653	0.14125	0.06920	0.25664
1161.000	-0.08897	0.14921	0.06524	0.24271
1162.000	-0.11467	0.17308	0.03559	0.24072
1163.000	-0.06722	0.16114	0.05536	0.22282
1164.000	-0.09292	0.15120	-0.00198	0.25465
1165.000	-0.08897	0.15716	0.05140	0.25266
1166.000	-0.09490	0.18502	0.06524	0.22083
1167.000	-0.10478	0.19098	0.05536	0.22083
1168.000	-0.06920	0.14722	0.03559	0.23873
1169.000	-0.05338	0.17308	0.04745	0.22282
1170.000	-0.05733	0.16711	0.02372	0.18900
1171.000	-0.04547	0.18502	0.05338	0.23475
1172.000	-0.05536	0.18303	0.02372	0.19297
1173.000	-0.05140	0.16512	0.03163	0.27255
1174.000	-0.07315	0.15915	0.01779	0.26658
1175.000	-0.08897	0.15716	0.02570	0.27852
1176.000	-0.08501	0.16711	0.03163	0.18900
1177.000	-0.07117	0.17706	0.02966	0.24669
1178.000	-0.08303	0.15716	0.02966	0.22282
1179.000	-0.07513	0.17308	0.03361	0.19496
1180.000	-0.06722	0.14523	-0.00791	0.18900
1181.000	-0.09094	0.17308	0.05931	0.23475
1182.000	-0.09885	0.18104	0.03361	0.17706
1183.000	-0.05733	0.19297	0.01582	0.26061
1184.000	-0.08501	0.14921	0.05536	0.28250
1185.000	-0.08303	0.17109	0.04943	0.23475
1186.000	-0.10280	0.16512	0.01186	0.23276
1187.000	-0.12257	0.11340	0.04943	0.24072
1188.000	-0.08501	0.15716	0.05733	0.27056
1189.000	-0.06129	0.21088	0.02768	0.23475
1190.000	-0.07513	0.16512	0.03163	0.19297
1191.000	-0.06326	0.15915	0.04547	0.23276
1192.000	-0.08106	0.18303	0.06129	0.26459
1193.000	-0.04152	0.21088	0.07315	0.20491
1194.000	-0.05140	0.19099	0.06722	0.18900
1195.000	-0.10874	0.13528	0.05536	0.17308
1196.000	-0.07908	0.18900	0.05931	0.19894
1197.000	-0.07117	0.13329	0.02175	0.22282
1198.000	-0.06920	0.18303	0.04745	0.18104
1199.000	-0.06326	0.22083	0.05140	0.20093
1200.000	-0.05140	0.20292	0.01779	0.19695
1201.000	-0.08699	0.17905	0.06326	0.21486
1202.000	-0.04943	0.21088	0.03954	0.24868
1203.000	-0.07315	0.23674	0.09292	0.24072
1204.000	-0.06524	0.22282	0.05733	0.30836
1205.000	-0.06129	0.22481	0.03559	0.22083
1206.000	-0.08699	0.23873	0.07908	0.24470
1207.000	-0.05931	0.21884	0.06129	0.27653
1208.000	-0.06129	0.17308	0.03954	0.22878
1209.000	-0.06129	0.20491	0.07710	0.17905
1210.000	-0.04152	0.24072	0.09490	0.23077
1211.000	-0.03756	0.18502	0.07513	0.25067
1212.000	-0.04745	0.22878	0.05338	0.25664
1213.000	-0.05536	0.23475	0.04943	0.24868
1214.000	-0.08501	0.21884	0.04943	0.29244
1215.000	-0.04152	0.24072	0.05931	0.24868
1216.000	-0.05140	0.19894	0.06129	0.28250
1217.000	-0.07513	0.22282	0.08303	0.27056
1218.000	-0.04745	0.20292	0.10083	0.31234
1219.000	-0.02768	0.24669	0.09885	0.27653
1220.000	-0.05140	0.22679	0.09292	0.26061
1221.000	-0.04745	0.21287	0.08501	0.24470
1222.000	-0.01977	0.21088	0.12060	0.23674
1223.000	-0.03756	0.19099	0.10083	0.24669
1224.000	-0.01977	0.20491	0.12653	0.27454
1225.000	-0.01779	0.19297	0.13048	0.26260
1226.000	-0.01582	0.26260	0.10280	0.25465
1227.000	-0.03559	0.23276	0.12257	0.23674
1228.000	-0.04547	0.22878	0.11862	0.26459
1229.000	-0.06920	0.25664	0.11071	0.23873
1230.000	0.01977	0.23077	0.11071	0.28449
1231.000	-0.03756	0.23276	0.12060	0.26061
1232.000	-0.01582	0.24868	0.08501	0.26260
1233.000	-0.00791	0.25863	0.10280	0.20491
1234.000	-0.01779	0.28648	0.11862	0.23475
1235.000	-0.00593	0.30836	0.09885	0.21287
1236.000	-0.01186	0.29046	0.10874	0.25664
1237.000	0.00593	0.30836	0.08699	0.21486
1238.000	0.00000	0.26459	0.09292	0.20292
1239.000	0.01384	0.30239	0.08501	0.21685
1240.000	-0.00198	0.24669	0.05536	0.18701
1241.000	-0.00791	0.25664	0.11071	0.19297
1242.000	-0.00395	0.25067	0.07710	0.21287
1243.000	0.02966	0.28051	0.08303	0.23475
1244.000	0.03756	0.28051	0.07117	0.26260
1245.000	-0.01779	0.22481	0.07710	0.24271
1246.000	0.00395	0.22083	0.05536	0.25664
1247.000	-0.00791	0.21287	0.06722	0.22679
1248.000	-0.00791	0.19695	0.03756	0.24271
1249.000	0.00989	0.21884	0.08501	0.25465
1250.000	-0.00593	0.23674	0.08501	0.25067
1251.000	0.00198	0.24271	0.08106	0.25465
1252.000	-0.01977	0.15915	0.05338	0.19496
1253.000	-0.00395	0.20292	0.05338	0.26260
1254.000	0.01977	0.19695	0.07315	0.23077
1255.000	0.01582	0.19695	0.07908	0.21486
1256.000	-0.00989	0.22481	0.05931	0.19099
1257.000	0.00395	0.18701	0.05536	0.25465
1258.000	-0.00395	0.18900	0.06326	0.23276
1259.000	-0.00791	0.16910	0.04547	0.22083
1260.000	0.00000	0.21486	0.05931	0.22878
1261.000	-0.00989	0.18502	0.04547	0.23276
1262.000	-0.00198	0.19496	0.06129	0.22282
1263.000	0.00000	0.17109	0.05338	0.28051
1264.000	-0.01779	0.19297	0.06326	0.24271
1265.000	-0.02966	0.19297	0.06524	0.23276
1266.000	0.02570	0.20889	0.05733	0.23276
1267.000	0.00791	0.19297	0.10874	0.25862
1268.000	0.01186	0.17905	0.06524	0.26260
1269.000	-0.00989	0.17905	0.08501	0.26857
1270.000	-0.01384	0.18900	0.07710	0.28847
1271.000	0.00395	0.15319	0.04349	0.25465
1272.000	0.01977	0.19695	0.01186	0.22282
1273.000	0.01582	0.14921	0.06920	0.20690
1274.000	0.02570	0.17905	0.05140	0.24271
1275.000	0.02570	0.23077	0.05733	0.21486
1276.000	-0.00395	0.17507	0.08699	0.22282
1277.000	-0.00198	0.18502	0.03361	0.21685
1278.000	-0.01779	0.19496	0.03163	0.28847
1279.000	0.02966	0.22878	0.06722	0.24271
1280.000	0.03756	0.22481	0.05536	0.20093
1281.000	0.04745	0.23475	0.06722	0.19099
1282.000	0.05536	0.25862	0.07315	0.21486
1283.000	0.02570	0.22083	0.07513	0.20690
1284.000	0.01779	0.19496	0.05931	0.18303
1285.000	0.00395	0.20690	0.06722	0.17905
1286.000	0.04349	0.20292	0.07315	0.23873
1287.000	0.01779	0.18303	0.08106	0.20491
1288.000	0.05733	0.22679	0.09292	0.19894
1289.000	0.00000	0.26857	0.06722	0.19894
1290.000	-0.01582	0.20093	0.09885	0.20093
1291.000	-0.00989	0.15915	0.11664	0.21287
1292.000	-0.00198	0.17507	0.08699	0.19099
1293.000	0.00198	0.14722	0.09292	0.20491
1294.000	0.00989	0.20093	0.08106	0.21685
1295.000	0.00198	0.14324	0.12257	0.21685
1296.000	0.02570	0.13926	0.09490	0.27454
1297.000	-0.01977	0.15120	0.12060	0.20690
1298.000	-0.01186	0.12533	0.10083	0.25067
1299.000	-0.01384	0.11141	0.09885	0.24072
1300.000	-0.00593	0.11340	0.12060	0.21486
1301.000	-0.01186	0.09947	0.08106	0.23077
1302.000	-0.00395	0.13926	0.14630	0.21287
1303.000	-0.01977	0.11141	0.08106	0.25266
1304.000	0.03756	0.12732	0.12850	0.18303
1305.000	0.02175	0.09947	0.11071	0.20491
1306.000	0.02570	0.12732	0.09687	0.18701
1307.000	0.00000	0.15717	0.11071	0.21287
1308.000	0.00989	0.11141	0.09490	0.16512
1309.000	-0.00198	0.14125	0.05931	0.16512
1310.000	0.01384	0.12931	0.08106	0.18900
1311.000	0.02570	0.13926	0.06920	0.19496
1312.000	0.04943	0.15915	0.09292	0.22083
1313.000	0.01582	0.14523	0.09094	0.22480
1314.000	0.00395	0.11937	0.09885	0.20093
1315.000	0.04547	0.13130	0.06722	0.21287
1316.000	0.01779	0.12931	0.06326	0.20690
1317.000	0.03954	0.14125	0.09885	0.20093
1318.000	0.04745	0.18502	0.05338	0.17905
1319.000	0.05140	0.15518	0.04349	0.20889
1320.000	0.07513	0.18104	0.10280	0.18502
1321.000	0.07117	0.18303	0.06920	0.19099
1322.000	0.05931	0.15120	0.04547	0.18701
1323.000	0.02768	0.18104	0.05140	0.16910
1324.000	0.06920	0.20491	0.05140	0.17507
1325.000	0.07315	0.20292	0.05140	0.17706
1326.000	0.07908	0.19496	0.03559	0.21486
1327.000	0.06524	0.19894	0.07513	0.19695
1328.000	-0.00593	0.15120	0.04943	0.17507
1329.000	0.06920	0.19894	0.10083	0.20889
1330.000	0.03163	0.21088	0.02768	0.21088
1331.000	0.00791	0.16512	0.05338	0.20292
1332.000	0.01977	0.18104	0.04547	0.14324
1333.000	0.04152	0.20292	0.06920	0.18104
1334.000	0.01779	0.15518	0.04547	0.20491
1335.000	0.01779	0.19297	0.03361	0.14523
1336.000	0.02570	0.14523	-0.00395	0.17706
1337.000	0.02570	0.16711	0.05140	0.16114
1338.000	0.03559	0.19297	0.03756	0.09947
1339.000	0.01186	0.13130	0.02372	0.12931
1340.000	0.03559	0.18104	0.02372	0.12732
1341.000	0.01384	0.14722	0.02570	0.14523
1342.000	0.04349	0.14921	0.04547	0.21884
1343.000	0.05338	0.16711	0.00989	0.17308
1344.000	0.03756	0.18502	0.02768	0.16711
1345.000	0.08106	0.20093	0.05536	0.13528
1346.000	0.07710	0.19894	0.03163	0.19099
1347.000	0.08106	0.19297	0.07513	0.18502
1348.000	0.04943	0.22679	0.03756	0.20690
1349.000	0.07117	0.19695	0.06722	0.16910
1350.000	0.07908	0.21486	0.04745	0.16313
1351.000	0.10676	0.23873	0.04349	0.17308
1352.000	0.07710	0.20292	0.03361	0.12732
1353.000	0.07908	0.24470	0.04943	0.13926
1354.000	0.11071	0.27653	0.03756	0.16114
1355.000	0.09687	0.24669	0.04349	0.14324
1356.000	0.10478	0.25266	0.02570	0.13130
1357.000	0.10280	0.25465	0.05140	0.19297
1358.000	0.07513	0.23475	0.11071	0.21088
1359.000	0.09094	0.21884	0.04547	0.15915
1360.000	0.06722	0.20093	0.05140	0.18701
1361.000	0.11664	0.19894	0.07710	0.16910
1362.000	0.12060	0.22282	0.03163	0.13130
1363.000	0.10478	0.21884	0.04745	0.15518
1364.000	0.09687	0.21287	0.05536	0.13130
1365.000	0.07513	0.20292	0.09490	0.17507
1366.000	0.08699	0.19099	0.03559	0.15518
1367.000	0.06920	0.16313	0.03954	0.14722
1368.000	0.08897	0.18701	0.08303	0.15716
1369.000	0.07315	0.18303	0.03361	0.13130
1370.000	0.09490	0.18701	0.04745	0.15915
1371.000	0.07117	0.17507	0.02372	0.15717
1372.000	0.09292	0.18701	0.04745	0.12931
1373.000	0.09885	0.17507	0.05733	0.08952
1374.000	0.09885	0.20889	0.01779	0.17308
1375.000	0.12257	0.23475	0.01186	0.14324
1376.000	0.08897	0.25465	0.03954	0.09947
1377.000	0.15025	0.20292	0.03954	0.14921
1378.000	0.10676	0.20491	0.01977	0.15915
1379.000	0.07315	0.17706	0.05536	0.16313
1380.000	0.09885	0.20690	0.03163	0.16114
1381.000	0.06920	0.19695	0.06920	0.15319
1382.000	0.05931	0.16512	0.05931	0.14324
1383.000	0.07513	0.24072	0.06326	0.14324
1384.000	0.09094	0.19894	0.04349	0.18701
1385.000	0.07117	0.20292	0.05733	0.17109
1386.000	0.07315	0.20690	0.06129	0.18701
1387.000	0.08699	0.14921	0.10676	0.21088
1388.000	0.06920	0.21486	0.03163	0.18104
1389.000	0.06129	0.19894	0.05536	0.19695
1390.000	0.06129	0.17905	0.06920	0.17109
1391.000	0.05931	0.18104	0.06524	0.18701
1392.000	0.03163	0.16512	0.02372	0.20093
1393.000	0.07315	0.18701	0.05140	0.18900
1394.000	0.06920	0.21088	0.08897	0.21088
1395.000	0.04943	0.17308	0.06722	0.25862
1396.000	0.06326	0.16512	0.09687	0.25067
1397.000	0.04349	0.15319	0.07710	0.18303
1398.000	0.05140	0.14125	0.07117	0.24271
1399.000	0.06326	0.17109	0.10874	0.23873
1400.000	0.03163	0.19496	0.07908	0.21088
1401.000	0.04745	0.14324	0.08501	0.23276
1402.000	0.07710	0.18104	0.06722	0.20690
1403.000	0.04745	0.14523	0.06524	0.24271
1404.000	0.00989	0.17507	0.08699	0.25862
1405.000	0.08501	0.20491	0.11467	0.30040
1406.000	0.05931	0.18900	0.09292	0.30438
1407.000	0.06326	0.21685	0.10083	0.30637
1408.000	0.04547	0.16910	0.12257	0.27653
1409.000	0.04745	0.21486	0.11664	0.29443
1410.000	0.02372	0.18303	0.07117	0.25266
1411.000	0.08106	0.18104	0.13839	0.25862
1412.000	0.05931	0.19099	0.10874	0.26260
1413.000	0.05536	0.16711	0.14827	0.27653
1414.000	0.07908	0.12931	0.12060	0.21685
1415.000	0.06524	0.18900	0.11467	0.22679
1416.000	0.08897	0.14523	0.15421	0.26658
1417.000	0.09885	0.16313	0.17991	0.22083
1418.000	0.09094	0.18104	0.14827	0.21287
1419.000	0.10478	0.19297	0.11269	0.25266
1420.000	0.10280	0.16313	0.10083	0.23475
1421.000	0.07117	0.15518	0.11862	0.21685
1422.000	0.08106	0.15518	0.11664	0.21884
1423.000	0.06326	0.14921	0.10676	0.24072
1424.000	0.07117	0.12931	0.11467	0.24470
1425.000	0.06920	0.14324	0.13048	0.20491
1426.000	0.07117	0.17109	0.11071	0.23674
1427.000	0.06129	0.16512	0.10676	0.23475
1428.000	0.06722	0.11340	0.10083	0.24072
1429.000	0.06524	0.11340	0.10280	0.24470
1430.000	0.06722	0.16512	0.06920	0.24868
1431.000	0.09885	0.14921	0.06524	0.23674
1432.000	0.07710	0.12136	0.10280	0.27852
1433.000	0.10874	0.18502	0.10083	0.26459
1434.000	0.08106	0.16512	0.07908	0.25664
1435.000	0.07710	0.16313	0.06722	0.24868
1436.000	0.08501	0.19894	0.09885	0.24470
1437.000	0.06920	0.19695	0.07908	0.21088
1438.000	0.08501	0.21088	0.10280	0.24868
1439.000	0.09094	0.22083	0.07710	0.23077
1440.000	0.10083	0.21287	0.09292	0.24072
1441.000	0.09490	0.21486	0.07513	0.24868
1442.000	0.11071	0.21884	0.09885	0.21685
1443.000	0.10083	0.22083	0.06920	0.26260
1444.000	0.11467	0.24470	0.08106	0.25067
1445.000	0.13444	0.24669	0.11269	0.28847
1446.000	0.11269	0.23674	0.08106	0.23276
1447.000	0.07908	0.17905	0.11664	0.27653
1448.000	0.07710	0.12533	0.08106	0.19099
1449.000	0.04745	0.09151	0.02372	0.09947
1450.000	0.00989	-0.03979	-0.00395	0.02984
1451.000	-0.01779	-0.10146	0.01186	-0.15518
1452.000	-0.02768	-0.22679	-0.03361	-0.24868
1453.000	-0.04152	-0.31035	-0.02175	-0.33820
1454.000	-0.04152	-0.48342	-0.04745	-0.49536
1455.000	-0.11664	-0.66046	-0.08303	-0.63063
1456.000	-0.15025	-0.83749	-0.11467	-0.88921
1457.000	-0.15618	-0.98268	-0.15816	-1.04235
1458.000	-0.19572	-1.10797	-0.15618	-1.13184
1459.000	-0.23922	-1.27302	-0.20363	-1.28296
1460.000	-0.22538	-1.34261	-0.17793	-1.27104
1461.000	-0.26096	-1.46787	-0.22735	-1.36846
1462.000	-0.24119	-1.46588	-0.20956	-1.40823
1463.000	-0.23131	-1.50962	-0.20561	-1.37443
1464.000	-0.19770	-1.44998	-0.23131	-1.37443
1465.000	-0.15618	-1.37841	-0.20758	-1.34460
1466.000	-0.21945	-1.35653	-0.24515	-1.31477
1467.000	-0.17991	-1.31478	-0.23922	-1.27898
1468.000	-0.12455	-1.21337	-0.23131	-1.18950
1469.000	-0.15223	-1.16564	-0.20758	-1.11195
1470.000	-0.12653	-1.09008	-0.25503	-1.07814
1471.000	-0.13839	-1.00456	-0.25701	-1.02643
1472.000	-0.13641	-0.97672	-0.22933	-1.00058
1473.000	-0.13641	-0.98069	-0.22340	-1.03041
1474.000	-0.17002	-0.93495	-0.26096	-0.97074
1475.000	-0.14037	-0.96876	-0.26096	-0.97870
1476.000	-0.16211	-0.92103	-0.24515	-0.96080
1477.000	-0.12850	-0.94291	-0.27085	-0.95085
1478.000	-0.22538	-0.92102	-0.22735	-0.90312
1479.000	-0.14037	-0.95484	-0.21747	-0.90511
1480.000	-0.14827	-0.89517	-0.19770	-0.88522
1481.000	-0.13839	-0.96876	-0.18781	-0.89318
1482.000	-0.14037	-0.97274	-0.18979	-0.93296
1483.000	-0.13641	-0.98666	-0.18979	-0.93097
1484.000	-0.15618	-1.03638	-0.22538	-0.97273
1485.000	-0.11862	-1.00058	-0.17398	-0.97274
1486.000	-0.13839	-1.03240	-0.22142	-1.03041
1487.000	-0.17398	-1.02047	-0.19770	-0.97870
1488.000	-0.14037	-1.02445	-0.23131	-1.00853
1489.000	-0.15223	-1.05627	-0.20561	-1.00456
1490.000	-0.16607	-1.08411	-0.19572	-1.06223
1491.000	-0.17200	-1.08013	-0.21549	-1.00853
1492.000	-0.18781	-1.10598	-0.21154	-1.07217
1493.000	-0.17595	-1.09206	-0.23329	-1.06819
1494.000	-0.18188	-1.17161	-0.22538	-1.04831
1495.000	-0.15421	-1.17161	-0.25701	-1.05825
1496.000	-0.12257	-1.15769	-0.24119	-1.10200
1497.000	-0.14630	-1.16962	-0.26492	-1.09802
1498.000	-0.15223	-1.14377	-0.28073	-1.10001
1499.000	-0.10676	-1.12786	-0.24712	-1.15967
1500.000	-0.12653	-1.17758	-0.25305	-1.11592
1501.000	-0.12060	-1.17360	-0.23329	-1.12587
1502.000	-0.10478	-1.18553	-0.24119	-1.11791
1503.000	-0.12060	-1.16366	-0.22538	-1.05229
1504.000	-0.12850	-1.16366	-0.23724	-1.10598
1505.000	-0.10478	-1.15372	-0.24119	-1.10797
1506.000	-0.12257	-1.17360	-0.25503	-1.13581
1507.000	-0.08699	-1.15372	-0.29062	-1.08211
1508.000	-0.11862	-1.16366	-0.28469	-1.09802
1509.000	-0.09885	-1.16565	-0.28271	-1.09007
1510.000	-0.11071	-1.12587	-0.28271	-1.11194
1511.000	-0.08501	-1.14178	-0.27678	-1.06421
1512.000	-0.08303	-1.12985	-0.27876	-1.08012
1513.000	-0.10478	-1.10996	-0.28864	-1.10001
1514.000	-0.08699	-1.13980	-0.25503	-1.10200
1515.000	-0.12455	-1.10798	-0.26096	-1.01648
1516.000	-0.07117	-1.06621	-0.26689	-1.05228
1517.000	-0.11269	-1.10599	-0.27282	-1.02444
1518.000	-0.07315	-1.05428	-0.25108	-1.00654
1519.000	-0.07710	-1.08212	-0.25503	-0.98069
1520.000	-0.08303	-1.07815	-0.24515	-1.02842
1521.000	-0.15816	-1.09206	-0.28073	-1.04234
1522.000	-0.10280	-1.06224	-0.24712	-1.06024
1523.000	-0.07710	-1.09207	-0.25305	-1.02444
1524.000	-0.04152	-1.10400	-0.27085	-1.03239
1525.000	-0.08699	-1.11195	-0.27085	-1.04035
1526.000	-0.07513	-1.07616	-0.26887	-1.07814
1527.000	-0.12060	-1.10400	-0.26689	-1.06223
1528.000	-0.13048	-1.07218	-0.25899	-1.01251
1529.000	-0.08106	-1.08809	-0.27876	-1.08012
1530.000	-0.11071	-1.12587	-0.25701	-1.03438
1531.000	-0.09094	-1.03042	-0.27282	-1.00455
1532.000	-0.08699	-1.08411	-0.30841	-1.00654
1533.000	-0.12257	-1.15371	-0.28073	-0.98665
1534.000	-0.12257	-1.07815	-0.26689	-0.98069
1535.000	-0.08699	-1.09604	-0.24317	-0.98268
1536.000	-0.07908	-1.05030	-0.25503	-0.99262
1537.000	-0.10478	-1.11792	-0.23724	-0.97074
1538.000	-0.07908	-1.10002	-0.25108	-0.95284
1539.000	-0.08897	-1.13184	-0.24712	-1.00256
1540.000	-0.05733	-1.08014	-0.26492	-1.03836
1541.000	-0.07710	-1.09604	-0.23329	-0.96279
1542.000	-0.04547	-1.12786	-0.23724	-1.00455
1543.000	-0.04745	-1.08411	-0.26096	-0.97870
1544.000	-0.03163	-1.09803	-0.25701	-1.00256
1545.000	-0.04547	-1.10997	-0.23526	-0.95483
1546.000	-0.04547	-1.10002	-0.19770	-0.94688
1547.000	-0.03559	-1.08610	-0.21747	-1.02444
1548.000	0.00000	-1.03638	-0.21945	-0.97472
1549.000	-0.02570	-1.06820	-0.26689	-0.99063
1550.000	-0.00395	-1.00058	-0.21747	-0.99063
1551.000	-0.00989	-1.03638	-0.24712	-0.97472
1552.000	-0.00395	-1.04434	-0.23526	-0.98864
1553.000	-0.01186	-1.00257	-0.28469	-1.00057
1554.000	0.00000	-1.05229	-0.24910	-0.99262
1555.000	-0.03559	-1.02047	-0.24317	-1.00455
1556.000	0.03954	-1.06621	-0.26887	-1.02444
1557.000	0.00989	-1.02246	-0.28864	-1.00853
1558.000	0.04547	-1.02047	-0.27876	-1.05427
1559.000	-0.01384	-1.04036	-0.26887	-0.96676
1560.000	0.02966	-1.05627	-0.28469	-1.01648
1561.000	0.02966	-1.02644	-0.28073	-1.01648
1562.000	0.02175	-1.01252	-0.27282	-1.03637
1563.000	0.04547	-1.01053	-0.25108	-1.04831
1564.000	0.02175	-1.06224	-0.27085	-1.00853
1565.000	0.05733	-1.00854	-0.28469	-0.95284
1566.000	0.01582	-1.06224	-0.25108	-1.01847
1567.000	0.03559	-0.99462	-0.24712	-1.00256
1568.000	0.03756	-1.02047	-0.25503	-0.92301
1569.000	0.05536	-1.04235	-0.28666	-0.99461
1570.000	-0.00989	-1.01650	-0.27282	-0.98864
1571.000	0.00395	-1.10201	-0.27678	-1.00057
1572.000	-0.01384	-1.01848	-0.25899	-0.97671
1573.000	0.03756	-1.04434	-0.27282	-1.00057
1574.000	0.04547	-1.02445	-0.27480	-0.97671
1575.000	0.04349	-1.08014	-0.27678	-0.97870
1576.000	0.01186	-1.08014	-0.28271	-0.96676
1577.000	0.04152	-1.02644	-0.26689	-0.94688
1578.000	0.04943	-1.07815	-0.27085	-0.96875
1579.000	0.02768	-1.08411	-0.24515	-0.89517
1580.000	0.05140	-1.05627	-0.25305	-0.95682
1581.000	0.08303	-1.05627	-0.24910	-0.96279
1582.000	0.07117	-1.07019	-0.20956	-0.95483
1583.000	0.06326	-1.07417	-0.22933	-0.98467
1584.000	0.04745	-1.05627	-0.23724	-0.92102
1585.000	0.06524	-1.03241	-0.22933	-0.91704
1586.000	0.06326	-1.03638	-0.22538	-0.98069
1587.000	0.06524	-1.04036	-0.22340	-0.91307
1588.000	0.07117	-1.01649	-0.24317	-0.97671
1589.000	0.10280	-1.06820	-0.22933	-0.90113
1590.000	0.08699	-1.00854	-0.21945	-0.90710
1591.000	0.09490	-1.02644	-0.24317	-0.94688
1592.000	0.06722	-1.05030	-0.25701	-0.93494
1593.000	0.04745	-1.02047	-0.25305	-0.92699
1594.000	0.09687	-1.04831	-0.23526	-0.92301
1595.000	0.05338	-1.05826	-0.23724	-0.97273
1596.000	0.10478	-1.00655	-0.23922	-0.98268
1597.000	0.09292	-1.03240	-0.24119	-0.99063
1598.000	0.13641	-0.99462	-0.26887	-0.92301
1599.000	0.09094	-1.04434	-0.26689	-0.96279
1600.000	0.12257	-1.03439	-0.27480	-0.98864
1601.000	0.16409	-1.02842	-0.23922	-0.96478
1602.000	0.08699	-1.02047	-0.22142	-0.96279
1603.000	0.13246	-1.01450	-0.25701	-0.98466
1604.000	0.12653	-1.02047	-0.26689	-0.98069
1605.000	0.16607	-0.98268	-0.25899	-1.01649
1606.000	0.12850	-0.98268	-0.27876	-0.99063
1607.000	0.11269	-1.03042	-0.24119	-0.95682
1608.000	0.07908	-1.03837	-0.26294	-0.94290
1609.000	0.10676	-1.02445	-0.26689	-0.98267
1610.000	0.08303	-1.04036	-0.24712	-0.95085
1611.000	0.09292	-1.05229	-0.30248	-1.00057
1612.000	0.13839	-0.99660	-0.24317	-0.99262
1613.000	0.11467	-1.02047	-0.27480	-0.99262
1614.000	0.12257	-1.02047	-0.30050	-0.98665
1615.000	0.10874	-1.03042	-0.27678	-0.96477
1616.000	0.14037	-1.05627	-0.28864	-1.00455
1617.000	0.14037	-1.02843	-0.30446	-0.99858
1618.000	0.14827	-1.05428	-0.30643	-0.96875
1619.000	0.15618	-1.04036	-0.27085	-0.98665
1620.000	0.13839	-1.02843	-0.29852	-0.97472
1621.000	0.11269	-1.05229	-0.28469	-0.96477
1622.000	0.10280	-1.02843	-0.29457	-0.99659
1623.000	0.13444	-1.03439	-0.28864	-0.95483
1624.000	0.12257	-1.04434	-0.30446	-0.96875
1625.000	0.09490	-1.03638	-0.28469	-0.91505
1626.000	0.13444	-0.98666	-0.30841	-0.93693
1627.000	0.09094	-1.01053	-0.25503	-0.95881
1628.000	0.13048	-1.03041	-0.29655	-0.95085
1629.000	0.17793	-1.00456	-0.29457	-0.99063
1630.000	0.12653	-0.99660	-0.28666	-0.98267
1631.000	0.18979	-0.97671	-0.30841	-0.98665
1632.000	0.15421	-1.01848	-0.30643	-0.94091
1633.000	0.13641	-1.02246	-0.27876	-0.90511
1634.000	0.14234	-1.02047	-0.30841	-0.95682
1635.000	0.16804	-0.97274	-0.30248	-0.97472
1636.000	0.11071	-0.95285	-0.33609	-0.97272
1637.000	0.11467	-0.98069	-0.31039	-0.94488
1638.000	0.13246	-0.95285	-0.34202	-0.95085
1639.000	0.10083	-1.00854	-0.30841	-0.88522
1640.000	0.09292	-0.96876	-0.31829	-0.95085
1641.000	0.10676	-0.98069	-0.30050	-0.96079
1642.000	0.11664	-0.96876	-0.32818	-0.90709
1643.000	0.18188	-0.88721	-0.31039	-0.99262
1644.000	0.25899	-0.90312	-0.23724	-1.06621
1645.000	0.39144	-0.95880	-0.13839	-1.10201
1646.000	0.46063	-1.06220	-0.01384	-1.29689
1647.000	0.52191	-1.19145	0.02966	-1.46391
1648.000	0.63262	-1.39821	0.17793	-1.53547
1649.000	0.78877	-1.67447	0.30050	-1.72628
1650.000	0.89551	-1.87514	0.54959	-1.82759
1651.000	1.07339	-2.01412	0.71168	-2.03816
1652.000	1.24927	-2.17091	0.87574	-2.25459
1653.000	1.38561	-2.28796	1.01212	-2.37167
1654.000	1.46859	-2.50626	1.08920	-2.52052
1655.000	1.51798	-2.66894	1.19591	-2.71494
1656.000	1.57923	-2.77601	1.27100	-2.85575
1657.000	1.66022	-2.80368	1.31448	-2.95092
1658.000	1.67009	-2.92665	1.33226	-2.91123
1659.000	1.70960	-2.90477	1.29472	-2.95690
1660.000	1.70762	-2.87105	1.29472	-2.94500
1661.000	1.72935	-2.79763	1.25915	-2.88751
1662.000	1.76095	-2.73013	1.22753	-2.85580
1663.000	1.73528	-2.71628	1.21765	-2.80224
1664.000	1.71750	-2.69249	1.23346	-2.76253
1665.000	1.70762	-2.61710	1.16034	-2.69116
1666.000	1.73330	-2.56746	1.15837	-2.71300
1667.000	1.74318	-2.62301	1.16627	-2.79038
1668.000	1.69380	-2.62308	1.17615	-2.72290
1669.000	1.75898	-2.60711	1.15046	-2.79635
1670.000	1.71948	-2.61113	1.22358	-2.78437
1671.000	1.74515	-2.62499	1.27693	-2.80019
1672.000	1.74910	-2.61506	1.28484	-2.77835
1673.000	1.71948	-2.61312	1.27891	-2.79622
1674.000	1.72540	-2.61509	1.26112	-2.79624
1675.000	1.69775	-2.63299	1.27693	-2.77439
1676.000	1.67009	-2.57349	1.24334	-2.78435
1677.000	1.69775	-2.61116	1.23741	-2.73276
1678.000	1.66417	-2.61121	1.21370	-2.73080
1679.000	1.71750	-2.60518	1.18998	-2.73678
1680.000	1.72145	-2.56747	1.18603	-2.69511
1681.000	1.72935	-2.59524	1.21765	-2.68119
1682.000	1.73133	-2.54960	1.20975	-2.72882
1683.000	1.83008	-2.56931	1.22951	-2.78238
1684.000	1.78861	-2.59318	1.24729	-2.75061
1685.000	1.80243	-2.64078	1.26310	-2.74067
1686.000	1.83996	-2.60501	1.26705	-2.80218
1687.000	1.83996	-2.65858	1.27100	-2.84385
1688.000	1.80638	-2.66062	1.27496	-2.86368
1689.000	1.81626	-2.70822	1.26705	-2.82996
1690.000	1.90710	-2.64261	1.27496	-2.86170
1691.000	1.83601	-2.69629	1.27496	-2.87162
1692.000	1.81626	-2.67846	1.27298	-2.86765
1693.000	1.86761	-2.72798	1.28879	-2.86763
1694.000	1.88143	-2.73986	1.26508	-2.88353
1695.000	1.85971	-2.72403	1.26705	-2.84782
1696.000	1.86563	-2.72402	1.27496	-2.85773
1697.000	1.89525	-2.73191	1.26903	-2.87758
1698.000	1.91895	-2.75369	1.28286	-2.82598
1699.000	1.89525	-2.72596	1.25915	-2.90933
1700.000	1.87353	-2.69425	1.24729	-2.85181
1701.000	1.92883	-2.69019	1.22160	-2.84985
1702.000	1.91500	-2.69815	1.24729	-2.85379
1703.000	1.92685	-2.70012	1.23148	-2.83198
1704.000	1.90315	-2.67039	1.22555	-2.81612
1705.000	1.95252	-2.63659	1.22555	-2.84390
1706.000	1.90710	-2.61880	1.24334	-2.83396
1707.000	1.92093	-2.61481	1.21963	-2.82604
1708.000	1.93475	-2.64257	1.22951	-2.76452
1709.000	1.95252	-2.68420	1.21567	-2.81613
1710.000	1.93870	-2.61875	1.22555	-2.79429
1711.000	1.91698	-2.68029	1.22160	-2.82803
1712.000	1.91303	-2.60490	1.22358	-2.81017
1713.000	1.90908	-2.58705	1.20777	-2.80423
1714.000	1.89723	-2.63469	1.21370	-2.80224
1715.000	1.92685	-2.62472	1.25520	-2.85378
1716.000	1.92488	-2.60290	1.23741	-2.79626
1717.000	1.92883	-2.62075	1.24532	-2.82800
1718.000	1.87156	-2.66052	1.22358	-2.77445
1719.000	1.93278	-2.66241	1.21567	-2.80819
1720.000	1.95450	-2.64452	1.20382	-2.81614
1721.000	1.96832	-2.60482	1.18998	-2.75662
1722.000	1.94660	-2.62271	1.24334	-2.85181
1723.000	1.90513	-2.61087	1.21963	-2.76850
1724.000	1.92093	-2.63862	1.20777	-2.79629
1725.000	1.89723	-2.61485	1.22160	-2.79231
1726.000	1.91500	-2.65847	1.21370	-2.78835
1727.000	1.94462	-2.60089	1.21370	-2.79232
1728.000	1.87946	-2.69821	1.20382	-2.81019
1729.000	1.89130	-2.65652	1.24927	-2.82800
1730.000	1.90908	-2.61880	1.22160	-2.78040
1731.000	1.89328	-2.66247	1.23741	-2.81015
1732.000	1.90118	-2.65254	1.21172	-2.82605
1733.000	1.92685	-2.65250	1.23148	-2.77047
1734.000	1.90908	-2.63070	1.20579	-2.81812
1735.000	1.90710	-2.66047	1.20777	-2.77248
1736.000	1.89920	-2.64461	1.22555	-2.79628
1737.000	1.92093	-2.66838	1.23939	-2.79229
1738.000	1.92290	-2.67631	1.20975	-2.80224
1739.000	1.90710	-2.66245	1.19987	-2.79233
1740.000	1.94265	-2.64851	1.23544	-2.73673
1741.000	1.91303	-2.65252	1.22555	-2.78635
1742.000	1.93672	-2.66240	1.21567	-2.76454
1743.000	1.92093	-2.66045	1.19789	-2.79630
1744.000	1.91895	-2.68227	1.23148	-2.74865
1745.000	1.90315	-2.64063	1.20777	-2.76454
1746.000	1.87748	-2.67440	1.22753	-2.74270
1747.000	1.87946	-2.64464	1.21370	-2.81216
1748.000	1.92488	-2.63663	1.21963	-2.78438
1749.000	1.87551	-2.68631	1.21963	-2.81017
1750.000	1.91303	-2.64657	1.22555	-2.73476
1751.000	1.92093	-2.67632	1.19591	-2.77845
1752.000	1.94265	-2.69414	1.20382	-2.75860
1753.000	1.90315	-2.70809	1.23544	-2.76452
1754.000	1.94462	-2.63263	1.19196	-2.76853
1755.000	1.89920	-2.67238	1.22951	-2.80222
1756.000	1.89328	-2.70810	1.21765	-2.78041
1757.000	1.92093	-2.66838	1.20777	-2.77248
1758.000	1.93080	-2.64257	1.19394	-2.75464
1759.000	1.91698	-2.67831	1.21370	-2.74271
1760.000	1.89920	-2.66841	1.20975	-2.77248
1761.000	1.93080	-2.64059	1.18998	-2.75861
1762.000	1.92290	-2.64457	1.19789	-2.73280
1763.000	1.90315	-2.69222	1.24136	-2.71887
1764.000	1.90513	-2.65849	1.24136	-2.78634
1765.000	1.93870	-2.68819	1.21765	-2.79628
1766.000	1.95647	-2.66237	1.21370	-2.77446
1767.000	1.94067	-2.69811	1.21370	-2.78041
1768.000	1.98017	-2.70995	1.21963	-2.74469
1769.000	1.97029	-2.67029	1.22555	-2.75262
1770.000	1.92685	-2.66044	1.19591	-2.83004
1771.000	1.89525	-2.64858	1.20184	-2.78638
1772.000	1.89525	-2.73587	1.21370	-2.72088
1773.000	1.94067	-2.65645	1.18603	-2.78639
1774.000	1.92290	-2.68028	1.21963	-2.75263
1775.000	1.98412	-2.67820	1.19196	-2.77647
1776.000	1.92685	-2.73582	1.18603	-2.77647
1777.000	1.95055	-2.64056	1.19591	-2.78638
1778.000	1.97029	-2.64053	1.18801	-2.78441
1779.000	1.95450	-2.65841	1.20975	-2.79431
1780.000	1.88933	-2.67438	1.19591	-2.79035
1781.000	1.93870	-2.65050	1.22951	-2.82405
1782.000	1.96042	-2.65840	1.25124	-2.80617
1783.000	1.92883	-2.66043	1.21172	-2.75660
1784.000	1.94462	-2.62073	1.18801	-2.80227
1785.000	1.95055	-2.71793	1.24334	-2.78435
1786.000	1.93278	-2.64455	1.22951	-2.80421
1787.000	1.97029	-2.68814	1.18998	-2.76059
1788.000	1.97819	-2.63258	1.22358	-2.75461
1789.000	1.94462	-2.66636	1.20975	-2.70501
1790.000	1.93870	-2.63264	1.19987	-2.75265
1791.000	1.94857	-2.64056	1.23148	-2.74071
1792.000	1.93080	-2.60487	1.20184	-2.79432
1793.000	1.95450	-2.66833	1.21172	-2.76454
1794.000	1.93278	-2.66638	1.19591	-2.70899
1795.000	1.95450	-2.60881	1.20975	-2.73279
1796.000	1.99794	-2.64445	1.19394	-2.81813
1797.000	1.96042	-2.67427	1.22358	-2.80025
1798.000	1.97819	-2.65639	1.22160	-2.78437
1799.000	1.94462	-2.67430	1.19591	-2.80424
1800.000	1.97819	-2.61671	1.21963	-2.76652
1801.000	1.96240	-2.61475	1.23939	-2.81015
1802.000	1.91105	-2.71601	1.27496	-2.80813
1803.000	1.98214	-2.60083	1.20579	-2.81812
1804.000	1.98807	-2.64248	1.26310	-2.78433
1805.000	1.95845	-2.66634	1.23544	-2.74666
1806.000	1.95647	-2.63658	1.19987	-2.76058
1807.000	1.95055	-2.64651	1.23939	-2.79229
1808.000	1.94265	-2.60882	1.24136	-2.76054
1809.000	1.96240	-2.61673	1.23148	-2.77246
1810.000	1.95647	-2.62666	1.19987	-2.79233
1811.000	1.94660	-2.60287	1.20975	-2.82010
1812.000	1.99004	-2.60875	1.22753	-2.79627
1813.000	1.97622	-2.61076	1.23346	-2.78436
1814.000	1.99202	-2.60280	1.25717	-2.77243
1815.000	1.95055	-2.61278	1.22951	-2.79032
1816.000	1.98609	-2.62463	1.24729	-2.80022
1817.000	1.98017	-2.59488	1.25124	-2.84387
1818.000	1.99794	-2.64644	1.23544	-2.80222
1819.000	1.96042	-2.60880	1.19591	-2.83004
1820.000	1.99991	-2.63254	1.20777	-2.85383
1821.000	1.97424	-2.60679	1.24334	-2.85776
1822.000	1.97819	-2.67424	1.17022	-2.82808
1823.000	1.95252	-2.63857	1.22555	-2.84191
1824.000	1.98412	-2.64646	1.23544	-2.85182
1825.000	1.99597	-2.61073	1.21567	-2.80819
1826.000	1.99794	-2.59683	1.24532	-2.80816
1827.000	1.99597	-2.64247	1.18208	-2.82211
1828.000	2.03151	-2.62257	1.25124	-2.83593
1829.000	1.97029	-2.61870	1.21963	-2.78041
1830.000	2.01176	-2.63451	1.22951	-2.83794
1831.000	1.98017	-2.63456	1.25717	-2.82005
1832.000	1.98807	-2.58296	1.21765	-2.83994
1833.000	2.01374	-2.63054	1.21963	-2.82208
1834.000	2.01176	-2.60078	1.20184	-2.83400
1835.000	2.00386	-2.63849	1.23939	-2.79031
1836.000	1.99991	-2.58691	1.21370	-2.85184
1837.000	2.00386	-2.62659	1.24729	-2.86173
1838.000	2.03546	-2.56701	1.27298	-2.84980
1839.000	1.99004	-2.55915	1.24532	-2.85975
1840.000	2.07692	-2.59075	1.22753	-2.85580
1841.000	2.00979	-2.62856	1.22555	-2.85580
1842.000	2.00781	-2.65237	1.28286	-2.82796
1843.000	1.99794	-2.65040	1.26310	-2.80219
1844.000	1.99202	-2.61272	1.25124	-2.80815
1845.000	1.98807	-2.59685	1.24334	-2.83396
1846.000	1.93278	-2.65844	1.17220	-2.78442
1847.000	1.85773	-2.56927	1.11884	-2.76463
1848.000	1.73725	-2.64484	1.11291	-2.74082
1849.000	1.68392	-2.55561	1.00421	-2.71909
1850.000	1.53774	-2.54984	0.90144	-2.80252
1851.000	1.41525	-2.48448	0.72157	-2.77883
1852.000	1.19394	-2.47874	0.53773	-2.78488
1853.000	1.08129	-2.48876	0.38946	-2.84448
1854.000	0.89749	-2.52067	0.26294	-2.86238
1855.000	0.69982	-2.47512	0.08897	-2.82271
1856.000	0.55157	-2.47718	-0.00198	-2.76516
1857.000	0.52587	-2.43748	-0.03559	-2.64407
1858.000	0.42900	-2.39382	-0.11467	-2.60635
1859.000	0.38156	-2.42759	-0.16014	-2.63612
1860.000	0.31434	-2.45938	-0.18979	-2.56862
1861.000	0.37167	-2.46731	-0.17595	-2.62818
1862.000	0.38156	-2.38986	-0.23922	-2.55272
1863.000	0.44877	-2.34615	-0.16014	-2.54877
1864.000	0.51796	-2.44741	-0.15421	-2.52295
1865.000	0.51401	-2.44344	-0.09094	-2.61032
1866.000	0.63459	-2.43346	-0.07710	-2.53686
1867.000	0.76901	-2.36389	-0.03361	-2.53488
1868.000	0.74924	-2.38971	0.01582	-2.57856
1869.000	0.78482	-2.40756	0.00000	-2.54878
1870.000	0.82633	-2.40357	0.00395	-2.61826
1871.000	0.86191	-2.45914	0.01977	-2.69172
1872.000	0.80459	-2.44131	0.06326	-2.60238
1873.000	0.86191	-2.46510	0.03756	-2.58054
1874.000	0.84214	-2.47306	0.08303	-2.65003
1875.000	0.85400	-2.40355	0.06326	-2.57458
1876.000	0.82040	-2.44924	0.03954	-2.65201
1877.000	0.84807	-2.43930	0.08106	-2.63216
1878.000	0.81447	-2.44329	0.03163	-2.58451
1879.000	0.87377	-2.40155	0.06326	-2.57856
1880.000	0.85796	-2.49290	0.01779	-2.62025
1881.000	0.82238	-2.45321	-0.00989	-2.61429
1882.000	0.81447	-2.45520	0.02372	-2.59047
1883.000	0.76110	-2.43339	0.03954	-2.61628
1884.000	0.76901	-2.45126	0.04152	-2.60834
1885.000	0.71761	-2.41952	-0.01582	-2.59047
1886.000	0.74529	-2.47113	0.00989	-2.59245
1887.000	0.64448	-2.49501	0.01977	-2.61231
1888.000	0.64448	-2.45927	-0.03559	-2.62223
1889.000	0.68796	-2.41755	-0.05536	-2.56863
1890.000	0.69389	-2.43740	-0.03163	-2.59841
1891.000	0.65831	-2.46323	-0.05536	-2.56466
1892.000	0.65436	-2.41955	-0.05140	-2.56267
1893.000	0.67610	-2.41954	-0.01582	-2.56069
1894.000	0.68994	-2.42549	-0.05338	-2.53090
1895.000	0.67808	-2.41556	-0.07117	-2.57458
1896.000	0.72354	-2.38774	-0.04745	-2.54877
1897.000	0.71366	-2.44533	-0.02175	-2.58253
1898.000	0.69785	-2.40960	-0.04745	-2.56267
1899.000	0.71366	-2.45129	-0.02768	-2.55473
1900.000	0.67017	-2.46918	-0.04349	-2.56267
1901.000	0.73936	-2.41752	-0.04152	-2.55473
1902.000	0.72354	-2.41157	-0.03756	-2.51701
1903.000	0.66622	-2.41557	-0.02768	-2.58650
1904.000	0.69587	-2.39570	-0.03559	-2.54083
1905.000	0.67610	-2.35996	-0.04745	-2.58451
1906.000	0.69982	-2.39768	-0.03163	-2.50509
1907.000	0.72750	-2.39171	0.00198	-2.56664
1908.000	0.70971	-2.38576	-0.04745	-2.56069
1909.000	0.72947	-2.36788	-0.02768	-2.58451
1910.000	0.67808	-2.40762	-0.05140	-2.53488
1911.000	0.75912	-2.37183	0.00395	-2.55672
1912.000	0.72947	-2.39767	-0.06920	-2.50708
1913.000	0.76901	-2.36389	-0.05140	-2.58451
1914.000	0.69785	-2.40761	-0.03954	-2.54480
1915.000	0.71564	-2.40760	-0.05931	-2.57657
1916.000	0.77691	-2.37778	-0.05733	-2.53885
1917.000	0.72750	-2.40561	-0.07315	-2.60635
1918.000	0.77691	-2.37977	-0.01582	-2.52892
1919.000	0.72750	-2.38377	-0.04152	-2.54480
1920.000	0.72947	-2.37185	-0.05140	-2.59245
1921.000	0.71761	-2.41952	-0.03954	-2.56863
1922.000	0.75122	-2.41155	-0.03361	-2.55672
1923.000	0.78482	-2.36586	-0.04547	-2.50708
1924.000	0.71761	-2.40164	-0.02372	-2.52892
1925.000	0.68796	-2.47910	-0.02372	-2.52495
1926.000	0.71366	-2.39172	-0.04943	-2.52098
1927.000	0.75912	-2.41751	-0.01384	-2.59444
1928.000	0.70971	-2.41753	-0.06920	-2.55274
1929.000	0.68796	-2.42747	-0.06524	-2.55473
1930.000	0.68401	-2.40762	-0.06326	-2.55473
1931.000	0.72157	-2.43540	-0.03954	-2.58650
1932.000	0.70575	-2.40562	-0.03756	-2.52693
1933.000	0.69192	-2.42549	-0.03163	-2.61628
1934.000	0.71168	-2.42746	-0.06524	-2.49913
1935.000	0.74331	-2.36191	-0.04943	-2.58054
1936.000	0.75122	-2.41354	-0.07315	-2.54679
1937.000	0.71366	-2.38179	-0.07710	-2.59245
1938.000	0.70378	-2.41357	-0.05733	-2.51899
1939.000	0.70773	-2.37186	-0.06129	-2.55473
1940.000	0.70378	-2.34207	-0.03559	-2.54282
1941.000	0.69785	-2.43144	-0.06129	-2.53885
1942.000	0.68401	-2.41556	-0.06524	-2.58253
1943.000	0.71168	-2.39966	-0.06722	-2.55870
1944.000	0.71168	-2.38377	-0.03361	-2.58451
1945.000	0.72947	-2.36589	-0.03559	-2.49914
1946.000	0.72947	-2.40561	-0.05338	-2.56069
1947.000	0.69785	-2.37981	-0.03559	-2.56664
1948.000	0.73738	-2.39170	0.00000	-2.59643
1949.000	0.74726	-2.38773	-0.04349	-2.56863
1950.000	0.74924	-2.43141	-0.03361	-2.59444
1951.000	0.71564	-2.37583	-0.04547	-2.58848
1952.000	0.72947	-2.36788	-0.05931	-2.55672
1953.000	0.72947	-2.36192	-0.02372	-2.63415
1954.000	0.75517	-2.38574	-0.02372	-2.60040
1955.000	0.76901	-2.39566	-0.01977	-2.53885
1956.000	0.76901	-2.36984	-0.03559	-2.57657
1957.000	0.74133	-2.41156	-0.07315	-2.55076
1958.000	0.76110	-2.39368	-0.04547	-2.55672
1959.000	0.74726	-2.32219	-0.06326	-2.59444
1960.000	0.78877	-2.36586	-0.05733	-2.58054
1961.000	0.77691	-2.34601	-0.03163	-2.53686
1962.000	0.73540	-2.40759	-0.08106	-2.60039
1963.000	0.76505	-2.33807	-0.02372	-2.55672
1964.000	0.77098	-2.35395	-0.04745	-2.53289
1965.000	0.72947	-2.38972	-0.05931	-2.58054
1966.000	0.74924	-2.36787	-0.04349	-2.53885
1967.000	0.74133	-2.38376	-0.04547	-2.53090
1968.000	0.76308	-2.34602	-0.05733	-2.55870
1969.000	0.74133	-2.34801	-0.06326	-2.51701
1970.000	0.75122	-2.34404	-0.07513	-2.55473
1971.000	0.72552	-2.44533	-0.06920	-2.56267
1972.000	0.77098	-2.34998	-0.03361	-2.55473
1973.000	0.75517	-2.38375	-0.06920	-2.57657
1974.000	0.73540	-2.36788	-0.08699	-2.57061
1975.000	0.79866	-2.26655	-0.05536	-2.60834
1976.000	0.73738	-2.41752	-0.02768	-2.49119
1977.000	0.73738	-2.40958	-0.09094	-2.51303
1978.000	0.77889	-2.34402	-0.09094	-2.52693
1979.000	0.77691	-2.34998	-0.05931	-2.57856
1980.000	0.76308	-2.32417	-0.06920	-2.57458
1981.000	0.76308	-2.32814	-0.07315	-2.54480
1982.000	0.76505	-2.36190	-0.05338	-2.50311
1983.000	0.78482	-2.36189	-0.04943	-2.55076
1984.000	0.77494	-2.34601	-0.04547	-2.53289
1985.000	0.78877	-2.39168	-0.05536	-2.54679
1986.000	0.77494	-2.34402	-0.05140	-2.55076
1987.000	0.74924	-2.42347	-0.04943	-2.54480
1988.000	0.75715	-2.35992	-0.01779	-2.61628
1989.000	0.78087	-2.36984	-0.02768	-2.54282
1990.000	0.74726	-2.38773	-0.03361	-2.50509
1991.000	0.75319	-2.35595	-0.02372	-2.52892
1992.000	0.79075	-2.34997	-0.04943	-2.58054
1993.000	0.77296	-2.38374	-0.04745	-2.57856
1994.000	0.76901	-2.38176	-0.00593	-2.55275
1995.000	0.77889	-2.39565	-0.06524	-2.50906
1996.000	0.78087	-2.38771	-0.06326	-2.58054
1997.000	0.75715	-2.37779	-0.04152	-2.56863
1998.000	0.74924	-2.35992	-0.06326	-2.56267
1999.000	0.74924	-2.36390	-0.06524	-2.59245
2000.000	0.79668	-2.38373	-0.05536	-2.54877
2001.000	0.81447	-2.31620	-0.04943	-2.54679
2002.000	0.78087	-2.40161	-0.05733	-2.55473
2003.000	0.72552	-2.37781	-0.04547	-2.56267
2004.000	0.80261	-2.36387	-0.03361	-2.51899
2005.000	0.74924	-2.33808	-0.05140	-2.55672
2006.000	0.73738	-2.41553	-0.01977	-2.54878
2007.000	0.76703	-2.41155	-0.05931	-2.55275
2008.000	0.78284	-2.34998	-0.05931	-2.55672
2009.000	0.79273	-2.28642	-0.04349	-2.57260
2010.000	0.77889	-2.38771	-0.06920	-2.59047
2011.000	0.76703	-2.34204	-0.07315	-2.56267
2012.000	0.82633	-2.34995	-0.03954	-2.57856
2013.000	0.77296	-2.34005	-0.06722	-2.57260
2014.000	0.81249	-2.30825	-0.00989	-2.60635
2015.000	0.78284	-2.37976	-0.03361	-2.58253
2016.000	0.74331	-2.35596	-0.01384	-2.57657
2017.000	0.81249	-2.36982	-0.06326	-2.52693
2018.000	0.78680	-2.30430	-0.08303	-2.58253
2019.000	0.79273	-2.27252	-0.07710	-2.54877
2020.000	0.81447	-2.31223	-0.07315	-2.57260
2021.000	0.78482	-2.36983	-0.04943	-2.51502
2022.000	0.76110	-2.36190	-0.06326	-2.59047
2023.000	0.80063	-2.36188	-0.03163	-2.57459
2024.000	0.79668	-2.27053	-0.05931	-2.61231
2025.000	0.79470	-2.31621	-0.07908	-2.58848
2026.000	0.73738	-2.34007	-0.04152	-2.54877
2027.000	0.82633	-2.31023	-0.07117	-2.59047
2028.000	0.73145	-2.33412	-0.06129	-2.53488
2029.000	0.76505	-2.27054	-0.07908	-2.55076
2030.000	0.77098	-2.29835	-0.05536	-2.59642
2031.000	0.77889	-2.30827	-0.07117	-2.60039
2032.000	0.75715	-2.30431	-0.02966	-2.58451
2033.000	0.78284	-2.34600	-0.07315	-2.55870
2034.000	0.77494	-2.30828	-0.03954	-2.57459
2035.000	0.81052	-2.22682	-0.05338	-2.61628
2036.000	0.78087	-2.33608	-0.06326	-2.65201
2037.000	0.79470	-2.31819	-0.01977	-2.57657
2038.000	0.80459	-2.28840	-0.07117	-2.61429
2039.000	0.80854	-2.28641	-0.06326	-2.58848
2040.000	0.81645	-2.33010	-0.10478	-2.55671
2041.000	0.83226	-2.27448	-0.05733	-2.58451
2042.000	0.83819	-2.26256	-0.07315	-2.60039
2043.000	0.79866	-2.26457	-0.03559	-2.60040
2044.000	0.79866	-2.28443	-0.03163	-2.60238
2045.000	0.77889	-2.31225	-0.05536	-2.65995
2046.000	0.79075	-2.29039	-0.06524	-2.59841
2047.000	0.81249	-2.31024	-0.05140	-2.59444
2048.000	0.76308	-2.31623	-0.06722	-2.60039
2049.000	0.78284	-2.31224	-0.05140	-2.59841
2050.000	0.80656	-2.26456	-0.06524	-2.59841
2051.000	0.75912	-2.32814	-0.06129	-2.65400
2052.000	0.81645	-2.25860	-0.01186	-2.57657
2053.000	0.79075	-2.28046	-0.06920	-2.59444
2054.000	0.77296	-2.32416	-0.00989	-2.62223
2055.000	0.81842	-2.24867	-0.06326	-2.61032
2056.000	0.78877	-2.31820	-0.07908	-2.61429
2057.000	0.81842	-2.29633	-0.03163	-2.56863
2058.000	0.82238	-2.30626	-0.06326	-2.56664
2059.000	0.82238	-2.33407	-0.07908	-2.59841
2060.000	0.86981	-2.25658	-0.05931	-2.57657
2061.000	0.83621	-2.29434	-0.02372	-2.58451
2062.000	0.80063	-2.28641	-0.03954	-2.61826
2063.000	0.77889	-2.34203	-0.06129	-2.65598
2064.000	0.81447	-2.32613	-0.09094	-2.63414
2065.000	0.84807	-2.28440	-0.05338	-2.63415
2066.000	0.81645	-2.28045	-0.06524	-2.58451
2067.000	0.77691	-2.26657	-0.07117	-2.69965
2068.000	0.81249	-2.31421	-0.03954	-2.66194
2069.000	0.81842	-2.23476	-0.06129	-2.62422
2070.000	0.82831	-2.24866	-0.09094	-2.68179
2071.000	0.84807	-2.30426	-0.07908	-2.63414
2072.000	0.82633	-2.32016	-0.04745	-2.59047
2073.000	0.78877	-2.30430	-0.07908	-2.59245
2074.000	0.81447	-2.31421	-0.04745	-2.66988
2075.000	0.84412	-2.28838	-0.06722	-2.59444
2076.000	0.80261	-2.28840	-0.10083	-2.66988
2077.000	0.82435	-2.29236	-0.09292	-2.59444
2078.000	0.78680	-2.33607	-0.05733	-2.56863
2079.000	0.80656	-2.31223	-0.07710	-2.52495
2080.000	0.77494	-2.33012	-0.03756	-2.54679
2081.000	0.83424	-2.28441	-0.05140	-2.60238
2082.000	0.80063	-2.31223	-0.06722	-2.57061
2083.000	0.80063	-2.31621	-0.01977	-2.58650
2084.000	0.83028	-2.32413	-0.05733	-2.56664
2085.000	0.79470	-2.30032	-0.02372	-2.53686
2086.000	0.80656	-2.29436	-0.01384	-2.60238
2087.000	0.81645	-2.34797	-0.05536	-2.54679
2088.000	0.85203	-2.34398	-0.07315	-2.57856
2089.000	0.79075	-2.29834	-0.03361	-2.57260
2090.000	0.81842	-2.32811	-0.02966	-2.56466
2091.000	0.82040	-2.30031	-0.06524	-2.60635
2092.000	0.84214	-2.32214	-0.05338	-2.58253
2093.000	0.86191	-2.25262	-0.05338	-2.58650
2094.000	0.81447	-2.33606	-0.04152	-2.62025
2095.000	0.84214	-2.32412	-0.03361	-2.56267
2096.000	0.82238	-2.34995	-0.05338	-2.56466
2097.000	0.81842	-2.35989	-0.03361	-2.59841
2098.000	0.79075	-2.35394	-0.00791	-2.62422
2099.000	0.78284	-2.37976	-0.02768	-2.68377
2100.000	0.74331	-2.40362	-0.05931	-2.68576
2101.000	0.70575	-2.40959	-0.03559	-2.59841
2102.000	0.62273	-2.27657	-0.10083	-2.56068
2103.000	0.52982	-2.29250	-0.25701	-2.60633
2104.000	0.33016	-2.24091	-0.37365	-2.61225
2105.000	0.11071	-2.22307	-0.54761	-2.51292
2106.000	-0.12455	-2.27273	-0.74529	-2.62003
2107.000	-0.40726	-2.18726	-0.94097	-2.49284
2108.000	-0.71564	-2.17920	-1.24532	-2.49458
2109.000	-1.01410	-2.12739	-1.52391	-2.43275
2110.000	-1.36980	-2.08143	-1.70762	-2.27173
2111.000	-1.68985	-2.02750	-2.03941	-2.24747
2112.000	-2.08877	-1.93966	-2.30789	-2.23318
2113.000	-2.43025	-1.91538	-2.50919	-2.14950
2114.000	-2.81891	-1.84134	-2.88004	-2.17662
2115.000	-3.10283	-1.91032	-3.18168	-2.09469
2116.000	-3.43389	-1.89779	-3.42798	-2.19531
2117.000	-3.68400	-1.86753	-3.81589	-2.22410
2118.000	-4.15626	-2.02107	-4.03628	-2.21360
2119.000	-4.31356	-1.98103	-4.34501	-2.27809
2120.000	-4.70848	-2.00768	-4.64956	-2.25140
2121.000	-4.83806	-1.95780	-4.94404	-2.22273
2122.000	-5.20100	-2.02993	-5.23629	-2.29886
2123.000	-5.49693	-2.08828	-5.43620	-2.16365
2124.000	-5.58899	-1.97524	-5.70450	-2.17057
2125.000	-5.91583	-2.06699	-5.84736	-2.01981
2126.000	-6.07813	-1.93795	-6.05662	-1.98743
2127.000	-6.26963	-1.88984	-6.21688	-1.99671
2128.000	-6.45905	-1.90099	-6.42976	-1.91690
2129.000	-6.73607	-1.87822	-6.57419	-1.90253
2130.000	-6.95630	-1.95429	-6.83549	-1.93505
2131.000	-7.15102	-1.96135	-7.02447	-1.89483
2132.000	-7.34168	-2.08270	-7.20356	-1.91184
2133.000	-7.56715	-2.17616	-7.34168	-1.91519
2134.000	-7.70893	-2.15772	-7.57104	-1.99692
2135.000	-7.79045	-2.15928	-7.63320	-1.94149
2136.000	-7.87970	-2.16668	-7.73028	-1.97058
2137.000	-7.99412	-2.26051	-7.80597	-1.96235
2138.000	-7.96310	-2.16231	-7.96698	-2.01078
2139.000	-8.02126	-2.17381	-8.01157	-1.98892
2140.000	-7.90880	-2.11340	-8.12010	-2.00806
2141.000	-7.83508	-2.05079	-8.02902	-1.91406
2142.000	-7.72640	-1.98241	-8.01351	-1.89052
2143.000	-7.70116	-2.00813	-7.96504	-1.87697
2144.000	-7.52830	-1.96363	-7.91849	-1.85750
2145.000	-7.49332	-1.95985	-7.93013	-1.92043
2146.000	-7.47777	-1.93036	-7.85060	-1.88340
2147.000	-7.46611	-1.97376	-7.85448	-1.89716
2148.000	-7.38252	-1.95640	-7.85642	-2.01526
2149.000	-7.43890	-1.97388	-7.80403	-2.02929
2150.000	-7.39029	-1.98790	-7.78851	-1.96834
2151.000	-7.41946	-2.01141	-7.83508	-1.98584
2152.000	-7.39418	-1.98591	-7.86224	-1.99948
2153.000	-7.50303	-2.01496	-7.83314	-1.94647
2154.000	-7.46222	-1.95605	-7.88746	-2.01904
2155.000	-7.54773	-1.99703	-7.91849	-1.99921
2156.000	-7.67980	-1.98854	-7.93789	-2.01093
2157.000	-7.68369	-2.06531	-7.96116	-1.99507
2158.000	-7.63708	-1.99661	-7.97473	-2.00091
2159.000	-7.71087	-2.02580	-7.97473	-2.01075
2160.000	-7.73610	-2.03159	-7.98637	-1.95953
2161.000	-7.72057	-2.01197	-8.02708	-1.98294
2162.000	-7.73416	-1.99813	-8.01545	-1.97710
2163.000	-7.75746	-2.03739	-8.00963	-1.98499
2164.000	-7.76328	-1.98224	-7.96504	-1.92224
2165.000	-7.71669	-2.00018	-7.99800	-1.96341
2166.000	-7.73804	-1.98630	-7.99412	-1.93588
2167.000	-7.68174	-1.97277	-7.98055	-1.92020
2168.000	-7.62737	-1.96318	-8.01738	-1.96135
2169.000	-7.66233	-1.98468	-8.04452	-1.99466
2170.000	-7.66427	-1.99649	-7.99024	-1.91228
2171.000	-7.60018	-1.95542	-8.05421	-1.96313
2172.000	-7.54773	-1.88474	-7.98443	-1.93986
2173.000	-7.66038	-1.97878	-7.96698	-1.91042
2174.000	-7.57298	-1.90827	-7.98830	-1.89654
2175.000	-7.52247	-1.87697	-8.01545	-1.90035
2176.000	-7.56521	-1.86891	-7.96698	-1.88287
2177.000	-7.57104	-1.90040	-7.97667	-1.94580
2178.000	-7.52052	-1.86910	-7.99606	-1.91028
2179.000	-7.44862	-1.83591	-7.97861	-1.90643
2180.000	-7.45445	-1.82209	-7.97279	-1.88678
2181.000	-7.50886	-1.92432	-8.00963	-1.90825
2182.000	-7.50303	-1.91449	-8.00188	-1.92010
2183.000	-7.54190	-1.87295	-7.96310	-1.89469
2184.000	-7.56910	-1.91026	-8.00963	-1.93974
2185.000	-7.48943	-1.90864	-8.00188	-1.90435
2186.000	-7.49526	-1.91847	-8.00963	-1.95548
2187.000	-7.54190	-1.88674	-7.98249	-1.91625
2188.000	-7.51275	-1.95188	-7.99800	-1.89847
2189.000	-7.48554	-1.89289	-8.01545	-1.93774
2190.000	-7.47777	-1.93233	-8.02126	-1.93575
2191.000	-7.54190	-2.00100	-8.00575	-1.89646
2192.000	-7.60018	-1.99285	-8.02708	-1.94359
2193.000	-7.54967	-1.91625	-8.03677	-1.91600
2194.000	-7.51469	-1.89868	-7.99218	-1.89456
2195.000	-7.54773	-1.91626	-8.04646	-1.88840
2196.000	-7.54773	-1.87292	-8.01738	-1.93576
2197.000	-7.60018	-1.98300	-8.00575	-1.93779
2198.000	-7.48166	-1.88109	-7.99412	-1.90439
2199.000	-7.56910	-1.90435	-8.02708	-1.90424
2200.000	-7.58075	-1.91809	-8.00963	-1.89841
2201.000	-7.54384	-1.92810	-8.06003	-1.90605
2202.000	-7.60989	-1.98295	-8.01932	-1.85901
2203.000	-7.56133	-1.90438	-8.01351	-1.89446
2204.000	-7.55744	-1.94971	-8.05228	-1.87854
2205.000	-7.58075	-1.94369	-8.02320	-1.88851
2206.000	-7.49526	-1.90664	-8.02902	-1.90619
2207.000	-7.60212	-1.93375	-8.02514	-1.80782
2208.000	-7.53995	-1.93600	-8.00381	-1.90041
2209.000	-7.56521	-1.94573	-8.08910	-1.88230
2210.000	-7.58270	-1.91414	-8.01738	-1.87083
2211.000	-7.51275	-1.89869	-8.00575	-1.83939
2212.000	-7.57492	-1.89841	-8.03871	-1.86679
2213.000	-7.59824	-1.96528	-8.00769	-1.87678
2214.000	-7.60795	-1.94554	-7.99412	-1.88077
2215.000	-7.54773	-1.90247	-8.05615	-1.88049
2216.000	-7.56910	-1.86495	-8.02708	-1.85307
2217.000	-7.56133	-1.91817	-7.97667	-1.81394
2218.000	-7.55744	-1.91622	-8.03483	-1.83139
2219.000	-7.45250	-1.83983	-8.03483	-1.83533
2220.000	-7.55550	-1.87486	-8.04065	-1.87072
2221.000	-7.53607	-1.88479	-8.02708	-1.87078
2222.000	-7.53607	-1.86509	-8.05615	-1.89426
2223.000	-7.53801	-1.90843	-8.03871	-1.88254
2224.000	-7.54773	-1.83549	-8.02514	-1.90424
2225.000	-7.53024	-1.88285	-8.03677	-1.83925
2226.000	-7.56521	-1.89452	-8.00769	-1.89645
2227.000	-7.50109	-1.87115	-7.99024	-1.89654
2228.000	-7.53995	-1.85128	-8.07166	-1.83909
2229.000	-7.58075	-1.87081	-8.04258	-1.83726
2230.000	-7.56910	-1.89056	-8.01738	-1.84721
2231.000	-7.56133	-1.84331	-8.00188	-1.90435
2232.000	-7.53801	-1.85129	-8.06197	-1.88046
2233.000	-7.57687	-1.88856	-8.09104	-1.92558
2234.000	-7.56715	-1.84329	-8.07166	-1.88041
2235.000	-7.56715	-1.90633	-8.04646	-1.90611
2236.000	-7.51081	-1.83368	-8.05615	-1.88245
2237.000	-7.57298	-1.87281	-8.07359	-1.91582
2238.000	-7.57492	-1.85507	-8.08135	-1.96694
2239.000	-7.56327	-1.82163	-8.04840	-1.87659
2240.000	-7.53218	-1.86314	-8.02708	-1.86488
2241.000	-7.52052	-1.86122	-8.07747	-1.94728
2242.000	-7.56133	-1.89453	-8.06584	-1.91783
2243.000	-7.52052	-1.84349	-8.08328	-1.92955
2244.000	-7.56133	-1.85119	-8.10654	-1.95304
2245.000	-7.56133	-1.86104	-8.11235	-1.97072
2246.000	-7.59435	-1.88848	-8.07941	-1.98465
2247.000	-7.55938	-1.87484	-8.09297	-1.94327
2248.000	-7.61572	-1.87460	-8.06584	-1.92176
2249.000	-7.63125	-1.84892	-8.08328	-1.97283
2250.000	-7.67009	-1.90193	-8.10654	-1.93534
2251.000	-7.60989	-1.91205	-8.00188	-1.89255
2252.000	-7.67398	-1.96296	-8.06003	-1.93753
2253.000	-7.62349	-1.90214	-8.03871	-1.94747
2254.000	-7.58658	-1.89442	-8.07166	-1.91977
2255.000	-7.62543	-1.90607	-8.10072	-1.96881
2256.000	-7.65456	-1.93154	-8.06972	-1.93158
2257.000	-7.62349	-1.91396	-8.06972	-1.95322
2258.000	-7.65844	-1.95713	-8.06197	-1.94932
2259.000	-7.65650	-1.93941	-8.06778	-1.93552
2260.000	-7.65650	-1.90593	-7.99412	-1.95555
2261.000	-7.54190	-1.85128	-8.07941	-1.94137
2262.000	-7.59047	-1.88259	-8.05615	-1.96313
2263.000	-7.57687	-1.87674	-8.04258	-1.93368
2264.000	-7.62154	-1.90412	-8.08135	-1.95513
2265.000	-7.55550	-1.84334	-8.06390	-1.97686
2266.000	-7.58464	-1.85306	-8.06972	-1.94142
2267.000	-7.61183	-1.84901	-8.00188	-1.89451
2268.000	-7.58270	-1.85701	-8.05615	-1.95722
2269.000	-7.55355	-1.84926	-8.00769	-1.95155
2270.000	-7.55744	-1.86500	-8.03095	-1.93570
2271.000	-7.55161	-1.90640	-8.06390	-2.00440
2272.000	-7.55355	-1.84532	-8.02320	-1.98690
2273.000	-7.57104	-1.87479	-8.05809	-1.98279
2274.000	-7.57298	-1.87478	-8.02708	-1.93769
2275.000	-7.57687	-1.90038	-8.04452	-1.99860
2276.000	-7.65844	-1.87835	-8.02902	-1.99867
2277.000	-7.53218	-1.84541	-8.07747	-1.96302
2278.000	-7.63320	-1.86073	-8.09685	-2.02391
2279.000	-7.60600	-1.89828	-8.10654	-2.01009
2280.000	-7.63514	-1.87254	-8.04646	-1.96317
2281.000	-7.57298	-1.90433	-8.07166	-1.99059
2282.000	-7.56133	-1.83937	-8.06390	-1.94735
2283.000	-7.60600	-1.89631	-8.06584	-1.99849
2284.000	-7.58464	-1.93974	-8.07553	-1.95516
2285.000	-7.65067	-1.89020	-8.05421	-1.97100
2286.000	-7.58075	-1.88460	-8.04840	-1.98087
2287.000	-7.59435	-1.89833	-7.99800	-1.98308
2288.000	-7.60212	-1.87269	-8.11041	-2.00811
2289.000	-7.69533	-1.91363	-8.06003	-1.97294
2290.000	-7.69145	-1.90971	-8.05034	-1.99857
2291.000	-7.62931	-1.92772	-8.06972	-1.97683
2292.000	-7.69922	-1.92346	-8.07359	-1.98271
2293.000	-7.66038	-1.95121	-8.05421	-1.95920
2294.000	-7.69728	-1.95695	-8.03289	-1.93766
2295.000	-7.61960	-1.96518	-8.03483	-1.98094
2296.000	-7.61183	-1.89037	-8.03483	-1.94355
2297.000	-7.64485	-1.86265	-8.00381	-1.92205
2298.000	-7.58658	-1.83926	-8.00575	-1.89450
2299.000	-7.62154	-1.90609	-8.01157	-1.92202
2300.000	-7.66233	-1.91575	-8.03483	-1.91601
2301.000	-7.56133	-1.82755	-8.03677	-1.94945
2302.000	-7.55355	-1.85911	-7.97861	-1.89659
2303.000	-7.56910	-1.84722	-8.06778	-1.95913
2304.000	-7.63708	-1.89617	-8.04065	-1.95730
2305.000	-7.62543	-1.91789	-8.03483	-1.93765
2306.000	-7.55938	-1.87681	-8.07941	-1.97875
2307.000	-7.58270	-1.88262	-8.10848	-1.97664
2308.000	-7.58852	-1.87866	-8.05034	-1.95528
2309.000	-7.60600	-1.88646	-8.07553	-1.96303
2310.000	-7.61183	-1.85295	-8.04840	-1.97497
2311.000	-7.52830	-1.84739	-8.05809	-1.99066
2312.000	-7.52830	-1.85527	-8.05615	-1.93558
2313.000	-7.57104	-1.89055	-8.04258	-1.96909
2314.000	-7.57298	-1.88463	-8.06003	-2.00442
2315.000	-7.56910	-1.86298	-8.06197	-1.94342
2316.000	-7.54967	-1.87685	-8.04452	-1.95531
2317.000	-7.60989	-1.90023	-8.06972	-1.96306
2318.000	-7.55161	-1.87094	-8.07359	-1.96698
2319.000	-7.58075	-1.86884	-8.04258	-1.95335
2320.000	-7.59241	-1.88652	-8.04452	-1.97695
2321.000	-7.59435	-1.89242	-8.06584	-1.91783
2322.000	-7.58270	-1.85504	-8.06584	-1.96701
2323.000	-7.48749	-1.86530	-8.05034	-1.91396
2324.000	-7.52635	-1.84149	-8.12785	-1.99818
2325.000	-7.52052	-1.82772	-8.07166	-1.97289
2326.000	-7.55355	-1.84138	-8.04452	-1.91399
2327.000	-7.62737	-1.91591	-8.03677	-1.87861
2328.000	-7.58270	-1.91217	-8.03677	-1.92190
2329.000	-7.57687	-1.94174	-8.01932	-1.89640
2330.000	-7.59047	-1.87274	-8.04065	-1.92975
2331.000	-7.52052	-1.90456	-8.02126	-1.91410
2332.000	-7.60212	-1.86284	-8.01351	-1.86691
2333.000	-7.58075	-1.89839	-8.06003	-1.93556
2334.000	-7.54578	-1.87293	-8.03483	-1.89633
2335.000	-7.48360	-1.80620	-8.01351	-1.90036
2336.000	-7.58075	-1.91021	-8.03871	-1.87270
2337.000	-7.54190	-1.88871	-8.02708	-1.85307
2338.000	-7.56521	-1.93982	-8.02126	-1.86884
2339.000	-7.53995	-1.90645	-8.03483	-1.85107
2340.000	-7.52830	-1.89665	-7.99024	-1.81781
2341.000	-7.50303	-1.87706	-8.00575	-1.87875
2342.000	-7.52635	-1.88681	-7.98249	-1.89067
2343.000	-7.54384	-1.91628	-8.00963	-1.89251
2344.000	-7.53607	-1.91237	-7.97861	-1.86116
2345.000	-7.60212	-1.90420	-7.97279	-1.84545
2346.000	-7.55744	-1.91819	-7.98443	-1.88082
2347.000	-7.58464	-1.94959	-8.02320	-1.88654
2348.000	-7.53995	-1.85917	-8.00575	-1.90827
2349.000	-7.61183	-1.95931	-7.97085	-1.87694
2350.000	-7.50498	-1.91645	-7.93789	-1.86135
2351.000	-7.59047	-1.92592	-7.96310	-1.84155
2352.000	-7.56327	-1.89059	-7.96698	-1.87499
2353.000	-7.47000	-1.82399	-8.01351	-1.88462
2354.000	-7.52441	-1.90652	-7.99412	-1.88668
2355.000	-7.49332	-1.89089	-8.03289	-1.91405
2356.000	-7.51081	-1.91840	-8.00575	-1.86891
2357.000	-7.57104	-1.96147	-8.05034	-1.91593
2358.000	-7.49332	-1.90271	-8.01738	-1.89838
2359.000	-7.66621	-2.01420	-8.03095	-1.92193
2360.000	-7.51469	-1.91641	-7.98055	-1.90445
2361.000	-7.55161	-1.92610	-8.03289	-1.91798
2362.000	-7.58658	-1.97321	-7.97861	-1.89069
2363.000	-7.57687	-1.92007	-7.97279	-1.88678
2364.000	-7.51858	-1.88093	-8.00188	-1.86893
2365.000	-7.52052	-1.92032	-7.98830	-1.89458
2366.000	-7.51858	-1.90063	-7.94177	-1.88298
2367.000	-7.51081	-1.89081	-7.94759	-1.88099
2368.000	-7.47583	-1.86929	-8.00381	-1.94567
2369.000	-7.52830	-1.89271	-7.99412	-1.88865
2370.000	-7.43695	-1.89113	-7.98443	-1.87688
2371.000	-7.53801	-1.93010	-7.97085	-1.91827
2372.000	-7.58075	-1.98703	-7.97861	-1.87100
2373.000	-7.52635	-1.90060	-7.98249	-1.89460
2374.000	-7.48749	-1.88894	-7.96892	-1.89663
2375.000	-7.55161	-1.91231	-7.97085	-1.88285
2376.000	-7.50692	-1.91447	-8.00381	-1.90434
2377.000	-7.50692	-1.90068	-7.94759	-1.88099
2378.000	-7.47971	-1.86927	-7.93983	-1.83772
2379.000	-7.50498	-1.90266	-7.94952	-1.89869
2380.000	-7.55355	-1.94382	-7.95728	-1.89078
2381.000	-7.51275	-1.85534	-7.95728	-1.90456
2382.000	-7.58270	-1.92596	-7.94565	-1.85738
2383.000	-7.51664	-1.89079	-7.96892	-1.89467
2384.000	-7.53413	-1.94390	-7.98637	-1.93001
2385.000	-7.47583	-1.84762	-8.00575	-1.95550
2386.000	-7.55550	-1.91623	-7.98249	-1.96151
2387.000	-7.47971	-1.91853	-8.02126	-1.94755
2388.000	-7.54773	-1.94581	-7.94371	-1.90856
2389.000	-7.55744	-1.95956	-7.98443	-1.92608
2390.000	-7.50109	-1.89874	-7.99994	-1.96733
2391.000	-7.59629	-1.95347	-8.00963	-1.94171
2392.000	-7.50498	-1.89084	-7.98443	-1.92018
2393.000	-7.49332	-1.83769	-8.02320	-1.97509
2394.000	-7.52441	-1.95971	-7.98055	-1.95562
2395.000	-7.49915	-1.84161	-7.99800	-1.94176
2396.000	-7.58075	-1.95354	-7.99800	-1.93389
2397.000	-7.49526	-1.86133	-8.00963	-1.97122
2398.000	-7.51858	-1.88487	-7.99024	-1.97722
2399.000	-7.51081	-1.89475	-8.01351	-1.98498
2400.000	-7.53218	-1.90057	-8.01932	-1.98101
2401.000	-7.54190	-1.89462	-7.99412	-1.98113
2402.000	-7.47194	-1.84566	-7.96698	-1.96159
2403.000	-7.50886	-1.88491	-7.97667	-1.94580
2404.000	-7.49526	-1.81995	-7.99800	-1.95750
2405.000	-7.54578	-1.93991	-7.97667	-1.95761
2406.000	-7.50303	-1.88100	-7.97861	-1.95169
2407.000	-7.48943	-1.87908	-7.95534	-1.94787
2408.000	-7.48749	-1.90865	-7.96892	-1.98913
2409.000	-7.50886	-1.88688	-7.94952	-1.95970
2410.000	-7.53801	-1.90646	-8.03289	-2.01046
2411.000	-7.48360	-1.88108	-8.01157	-2.06566
2412.000	-7.44278	-1.85761	-7.93401	-1.98733
2413.000	-7.49332	-1.93424	-7.89910	-1.94223
2414.000	-7.32807	-1.87189	-7.83702	-1.95827
2415.000	-7.23470	-1.80524	-7.83702	-2.07834
2416.000	-7.15686	-1.91006	-7.60406	-2.02434
2417.000	-6.88421	-1.80267	-7.35918	-1.85599
2418.000	-6.72437	-1.87432	-7.11403	-1.92996
2419.000	-6.26768	-1.75551	-6.85693	-1.87380
2420.000	-6.05858	-1.75027	-6.42976	-1.80828
2421.000	-5.64773	-1.66650	-6.00970	-1.73659
2422.000	-5.31666	-1.61795	-5.63011	-1.63293
2423.000	-4.80468	-1.50433	-5.08922	-1.52547
2424.000	-4.48651	-1.42375	-4.69277	-1.53231
2425.000	-4.01267	-1.30165	-4.18379	-1.42233
2426.000	-3.70566	-1.36561	-3.71156	-1.40330
2427.000	-3.34524	-1.34034	-3.28612	-1.31660
2428.000	-2.89385	-1.20190	-2.83468	-1.41049
2429.000	-2.52497	-1.36516	-2.35921	-1.41698
2430.000	-1.94462	-1.18883	-1.89328	-1.44324
2431.000	-1.62466	-1.34606	-1.40734	-1.43564
2432.000	-1.21567	-1.34431	-1.01212	-1.50145
2433.000	-0.73343	-1.36637	-0.57727	-1.59106
2434.000	-0.30050	-1.44997	-0.18386	-1.56728
2435.000	0.19770	-1.38437	0.21352	-1.68853
2436.000	0.56936	-1.41413	0.65436	-1.66856
2437.000	0.95876	-1.40009	1.04374	-1.81743
2438.000	1.35992	-1.32833	1.47452	-1.89859
2439.000	1.68985	-1.44936	1.87353	-1.91806
2440.000	2.13812	-1.38143	2.27039	-1.86000
2441.000	2.38684	-1.48647	2.59995	-2.00644
2442.000	2.72818	-1.34309	3.06341	-1.89650
2443.000	3.05947	-1.38439	3.35903	-1.88604
2444.000	3.31765	-1.44161	3.72731	-1.86942
2445.000	3.68006	-1.33390	4.02841	-1.95003
2446.000	4.09923	-1.36696	4.43149	-1.79645
2447.000	4.50616	-1.35830	4.88124	-1.86857
2448.000	4.88124	-1.30408	5.15198	-1.94103
2449.000	5.21473	-1.31727	5.47734	-1.83912
2450.000	5.48126	-1.26127	5.86105	-1.85371
2451.000	5.67514	-1.28262	6.11331	-1.86471
2452.000	5.93343	-1.23654	6.37705	-1.76897
2453.000	6.26182	-1.30892	6.67172	-1.76793
2454.000	6.53321	-1.26477	6.88616	-1.82831
2455.000	6.85693	-1.24813	7.15686	-1.69709
2456.000	7.19967	-1.14462	7.36307	-1.67463
2457.000	7.50109	-1.21088	7.60795	-1.70521
2458.000	7.73999	-1.16883	7.79821	-1.63355
2459.000	7.97667	-1.23906	7.97861	-1.57968
2460.000	8.15304	-1.26410	8.18209	-1.62414
2461.000	8.30796	-1.13374	8.35634	-1.61556
2462.000	8.52850	-1.24913	8.54590	-1.68553
2463.000	8.62902	-1.30188	8.60776	-1.52605
2464.000	8.87236	-1.15760	8.82989	-1.53104
2465.000	9.00548	-1.10611	8.98040	-1.55005
2466.000	9.26372	-1.20737	9.10573	-1.48669
2467.000	9.39270	-1.23243	9.26179	-1.48604
2468.000	9.60809	-1.11989	9.41964	-1.57754
2469.000	9.80209	-1.17607	9.54081	-1.58679
2470.000	9.95560	-1.21665	9.59463	-1.46500
2471.000	10.14153	-1.32165	9.73489	-1.44284
2472.000	10.24494	-1.27426	9.72721	-1.35664
2473.000	10.30811	-1.27401	9.81937	-1.34451
2474.000	10.39037	-1.27954	9.81937	-1.40329
2475.000	10.36359	-1.26596	9.82705	-1.35232
2476.000	10.43245	-1.27937	9.82129	-1.32295
2477.000	10.44774	-1.27344	9.84816	-1.31893
2478.000	10.46877	-1.27727	9.78865	-1.32113
2479.000	10.52803	-1.32198	9.81169	-1.29948
2480.000	10.53185	-1.30046	9.78865	-1.26822
2481.000	10.54714	-1.32581	9.75985	-1.26637
2482.000	10.52803	-1.35326	9.80017	-1.31128
2483.000	10.54714	-1.36491	9.74257	-1.30171
2484.000	10.50700	-1.39832	9.75025	-1.33304
2485.000	10.46877	-1.41218	9.62154	-1.40020
2486.000	10.42480	-1.45931	9.60232	-1.40420
2487.000	10.39037	-1.53964	9.54081	-1.41622
2488.000	10.35211	-1.50854	9.46004	-1.47538
2489.000	10.30811	-1.43246	9.43503	-1.48138
2490.000	10.25451	-1.43466	9.30223	-1.43485
2491.000	10.23920	-1.42495	9.22905	-1.43515
2492.000	10.16260	-1.36267	9.14813	-1.40800
2493.000	10.11662	-1.32567	9.13272	-1.38843
2494.000	10.03805	-1.33970	9.04597	-1.36128
2495.000	9.94409	-1.27546	9.07489	-1.32582
2496.000	9.93258	-1.28529	9.04597	-1.30237
2497.000	9.89613	-1.26585	9.03826	-1.29061
2498.000	9.88270	-1.31095	9.01512	-1.29659
2499.000	9.91340	-1.31475	9.04790	-1.24934
2500.000	9.92874	-1.33232	9.06140	-1.29838
2501.000	9.94792	-1.34791	9.10766	-1.27269
2502.000	9.98820	-1.33991	9.09417	-1.33950
2503.000	10.03613	-1.35537	9.13464	-1.33346
2504.000	10.06680	-1.40614	9.14621	-1.32360
2505.000	10.09938	-1.38055	9.11344	-1.31783
2506.000	10.16068	-1.42726	9.11152	-1.33943
2507.000	10.21622	-1.44658	9.16548	-1.37260
2508.000	10.19133	-1.42321	9.15199	-1.34713
2509.000	10.22771	-1.40544	9.17126	-1.32154
2510.000	10.26791	-1.39743	9.13657	-1.23725
2511.000	10.28705	-1.36800	9.18282	-1.29205
2512.000	10.34064	-1.39320	9.21557	-1.28801
2513.000	10.32341	-1.38545	9.21171	-1.26251
2514.000	10.33107	-1.38933	9.21171	-1.28017
2515.000	10.33298	-1.34237	9.20786	-1.21541
2516.000	10.31385	-1.33463	9.17896	-1.29010
2517.000	10.29854	-1.33861	9.18282	-1.29402
2518.000	10.25260	-1.38772	9.15777	-1.31570
2519.000	10.23345	-1.37215	9.14813	-1.37659
2520.000	10.21814	-1.32525	9.14428	-1.34520
2521.000	10.13770	-1.34712	9.09802	-1.38464
2522.000	10.14536	-1.36666	9.04983	-1.36323
2523.000	10.10896	-1.33353	9.08453	-1.37291
2524.000	10.13386	-1.31777	9.11537	-1.38653
2525.000	10.10129	-1.40795	9.08260	-1.37488
2526.000	10.12428	-1.35892	9.11537	-1.45524
2527.000	10.08788	-1.35907	9.14235	-1.43158
2528.000	10.10512	-1.36095	9.12115	-1.49055
2529.000	10.13003	-1.37259	9.09417	-1.44355
2530.000	10.09554	-1.31401	9.12115	-1.52981
2531.000	10.08979	-1.39821	9.08646	-1.48284
2532.000	10.12620	-1.36869	9.11344	-1.49255
2533.000	10.11662	-1.33742	9.11923	-1.44737
2534.000	10.11470	-1.35113	9.11923	-1.43560
2535.000	10.09363	-1.35709	9.09995	-1.46119
2536.000	10.11279	-1.37854	9.15970	-1.51591
2537.000	10.14727	-1.33925	9.11537	-1.41206
2538.000	10.11470	-1.36483	9.14813	-1.48455
2539.000	10.10704	-1.32375	9.14621	-1.49830
2540.000	10.12812	-1.35107	9.15777	-1.46292
2541.000	10.12045	-1.35893	9.19245	-1.52950
2542.000	10.12045	-1.35697	9.19438	-1.50398
2543.000	10.14344	-1.34709	9.17896	-1.50209
2544.000	10.12428	-1.31781	9.20401	-1.49021
2545.000	10.12812	-1.32954	9.23098	-1.53130
2546.000	10.12045	-1.37459	9.16933	-1.54923
2547.000	10.17792	-1.37434	9.15970	-1.52965
2548.000	10.12045	-1.32566	9.18089	-1.52367
2549.000	10.11662	-1.34525	9.19052	-1.47652
2550.000	10.11087	-1.36093	9.15584	-1.54536
2551.000	10.13003	-1.33540	9.14235	-1.50420
2552.000	10.09363	-1.33164	9.12115	-1.51215
2553.000	10.09363	-1.38058	9.14621	-1.55718
2554.000	10.14536	-1.35687	9.15391	-1.52575
2555.000	10.13386	-1.34322	9.12501	-1.50820
2556.000	10.13195	-1.33540	9.17126	-1.51586
2557.000	10.09938	-1.29051	9.12501	-1.51213
2558.000	10.13003	-1.36085	9.14235	-1.53365
2559.000	10.09938	-1.34532	9.14621	-1.55129
2560.000	10.10129	-1.32965	9.09995	-1.45923
2561.000	10.14344	-1.37841	9.10959	-1.46312
2562.000	10.11662	-1.35112	9.08067	-1.44164
2563.000	10.12812	-1.36086	9.10381	-1.45922
2564.000	10.06680	-1.33958	9.08839	-1.44357
2565.000	10.14919	-1.34120	9.11537	-1.48469
2566.000	10.13386	-1.32560	9.09031	-1.45927
2567.000	10.08979	-1.38255	9.07489	-1.39651
2568.000	10.09171	-1.35122	9.07682	-1.46522
2569.000	10.11662	-1.35699	9.04212	-1.42020
2570.000	10.10896	-1.36681	9.04983	-1.38286
2571.000	10.11662	-1.29435	9.04790	-1.43392
2572.000	10.13770	-1.33929	9.01126	-1.42817
2573.000	10.09363	-1.33947	9.03633	-1.38095
2574.000	10.12812	-1.28452	9.07296	-1.39259
2575.000	10.11087	-1.31591	9.04983	-1.43784
2576.000	10.11470	-1.30219	9.05176	-1.50851
2577.000	10.12428	-1.29041	9.05561	-1.50064
2578.000	10.12237	-1.28063	9.03055	-1.39864
2579.000	10.12620	-1.31193	9.06332	-1.43189
2580.000	10.10512	-1.36095	9.05176	-1.44568
2581.000	10.13961	-1.30796	9.03826	-1.44770
2582.000	10.08596	-1.35125	9.00548	-1.43605
2583.000	10.13961	-1.24728	9.04983	-1.41231
2584.000	10.10704	-1.30222	9.03440	-1.42808
2585.000	10.08596	-1.30622	9.02283	-1.38886
2586.000	10.10896	-1.31200	9.04597	-1.39073
2587.000	10.09746	-1.25723	9.03440	-1.39274
2588.000	10.10129	-1.28071	9.00548	-1.40463
2589.000	10.09746	-1.25136	9.03055	-1.37508
2590.000	10.09363	-1.28661	8.97076	-1.35960
2591.000	10.11854	-1.26694	9.04212	-1.41431
2592.000	10.13961	-1.27273	8.95147	-1.36163
2593.000	10.09938	-1.29246	9.00162	-1.32609
2594.000	10.11279	-1.27088	8.98426	-1.37133
2595.000	10.13770	-1.34320	8.98619	-1.34383
2596.000	10.10321	-1.30419	9.02090	-1.37708
2597.000	10.09938	-1.31204	9.00741	-1.40855
2598.000	10.08596	-1.29643	8.99969	-1.37127
2599.000	10.12812	-1.27473	8.98812	-1.36935
2600.000	10.06871	-1.29063	9.02476	-1.35743
2601.000	10.10512	-1.27482	9.01705	-1.43208
2602.000	10.09171	-1.28271	8.99390	-1.41450
2603.000	10.07638	-1.26515	8.99583	-1.42431
2604.000	10.06680	-1.25344	9.03633	-1.44575
2605.000	10.10512	-1.24742	9.05176	-1.42998
2606.000	10.09938	-1.29246	9.01898	-1.39083
2607.000	10.12812	-1.30605	9.01512	-1.45761
2608.000	10.07446	-1.28277	9.04597	-1.46730
2609.000	10.08979	-1.32970	9.01512	-1.42423
2610.000	10.10129	-1.25918	9.00548	-1.39481
2611.000	10.09746	-1.32771	9.00933	-1.38891
2612.000	10.12428	-1.28062	9.03826	-1.39272
2613.000	10.11470	-1.25325	9.01126	-1.40461
2614.000	10.13961	-1.28839	9.01705	-1.33586
2615.000	10.07830	-1.23186	9.03826	-1.43788
2616.000	10.10321	-1.25917	8.99198	-1.36934
2617.000	10.10129	-1.26505	9.02283	-1.38886
2618.000	10.08979	-1.21224	9.01512	-1.41441
2619.000	10.11854	-1.22583	9.04790	-1.39465
2620.000	10.07255	-1.25146	9.00162	-1.42232
2621.000	10.10704	-1.24741	9.04983	-1.35930
2622.000	10.11470	-1.27087	9.00355	-1.38107
2623.000	10.10512	-1.23567	9.03055	-1.39864
2624.000	10.06680	-1.24169	9.01126	-1.43014
2625.000	10.13770	-1.30601	9.05561	-1.39462
2626.000	10.08213	-1.24750	8.99005	-1.35363
2627.000	10.10129	-1.22394	9.03440	-1.37703
2628.000	10.10512	-1.30223	9.00741	-1.36731
2629.000	10.08405	-1.22988	9.00933	-1.39873
2630.000	10.08596	-1.27490	9.02669	-1.40062
2631.000	10.10704	-1.23175	9.02090	-1.38690
2632.000	10.10512	-1.25916	8.98233	-1.33206
2633.000	10.09363	-1.22788	9.02476	-1.36921
2634.000	10.08021	-1.25730	9.03055	-1.42810
2635.000	10.07255	-1.26516	9.00548	-1.40856
2636.000	10.08021	-1.28471	9.04404	-1.34754
2637.000	10.09938	-1.23961	9.04404	-1.40645
2638.000	10.09171	-1.24747	9.03055	-1.38883
2639.000	10.10704	-1.27286	8.99969	-1.41251
2640.000	10.11470	-1.29632	8.99198	-1.39094
2641.000	10.11662	-1.26695	9.02669	-1.41044
2642.000	10.10129	-1.23568	9.03826	-1.36131
2643.000	10.09554	-1.28661	8.99390	-1.37129
2644.000	10.09171	-1.26704	9.01705	-1.40066
2645.000	10.08596	-1.27098	9.02669	-1.35546
2646.000	10.08213	-1.28470	9.00741	-1.31036
2647.000	10.08788	-1.29838	9.04790	-1.40839
2648.000	10.08788	-1.31209	9.00741	-1.36339
2649.000	10.10321	-1.30419	8.98426	-1.38900
2650.000	10.11087	-1.35897	9.04212	-1.40645
2651.000	10.08596	-1.32384	9.01126	-1.41443
2652.000	10.07063	-1.35131	9.02283	-1.45758
2653.000	10.07255	-1.33564	9.05561	-1.39855
2654.000	10.06488	-1.33567	9.00741	-1.37517
2655.000	10.08979	-1.35123	9.06140	-1.39852
2656.000	10.08596	-1.33754	9.03247	-1.42613
2657.000	10.06488	-1.29456	9.03440	-1.44575
2658.000	10.08788	-1.32187	9.00162	-1.43018
2659.000	10.10321	-1.27483	8.99583	-1.40271
2660.000	10.09746	-1.31009	8.99969	-1.42233
2661.000	10.12428	-1.36087	9.02476	-1.42027
2662.000	10.09554	-1.31401	9.02669	-1.44775
2663.000	10.07446	-1.34542	9.03826	-1.39272
2664.000	10.11279	-1.34330	9.04983	-1.40839
2665.000	10.08213	-1.35909	9.01126	-1.45370
2666.000	10.08788	-1.32971	9.01512	-1.39281
2667.000	10.09554	-1.33750	9.01126	-1.42228
2668.000	10.08596	-1.33559	9.02862	-1.41436
2669.000	10.04763	-1.31617	9.05176	-1.43194
2670.000	10.11854	-1.33545	9.02283	-1.42420
2671.000	10.07830	-1.36694	9.00548	-1.44587
2672.000	10.06488	-1.31218	9.03055	-1.40846
2673.000	10.07446	-1.35717	9.03440	-1.41630
2674.000	10.05530	-1.39836	9.01126	-1.41246
2675.000	10.09363	-1.31598	9.03055	-1.42417
2676.000	10.08405	-1.31014	9.03440	-1.35936
2677.000	10.11662	-1.30414	9.01126	-1.39479
2678.000	10.09363	-1.29836	9.02862	-1.44185
2679.000	10.07830	-1.30625	9.02862	-1.41240
2680.000	10.13770	-1.30993	9.01512	-1.43012
2681.000	10.11087	-1.32178	9.02283	-1.42027
2682.000	10.09938	-1.32574	9.01319	-1.39871
2683.000	10.09746	-1.35511	9.02090	-1.43992
2684.000	10.08596	-1.31405	8.99390	-1.38504
2685.000	10.09938	-1.31400	9.03633	-1.41826
2686.000	10.12620	-1.32955	8.98812	-1.39881
2687.000	10.10129	-1.33748	9.03826	-1.46930
2688.000	10.11279	-1.31394	9.04983	-1.41428
2689.000	10.10321	-1.27091	9.04212	-1.41823
2690.000	10.09938	-1.32966	8.99776	-1.35557
2691.000	10.10129	-1.32769	9.03440	-1.42023
2692.000	10.10512	-1.31593	9.03055	-1.38686
2693.000	10.08788	-1.31992	9.01898	-1.35549
2694.000	10.10704	-1.27090	9.03440	-1.41630
2695.000	10.11662	-1.30610	9.00741	-1.38891
2696.000	10.12237	-1.34718	9.00548	-1.37518
2697.000	10.08405	-1.31210	8.99969	-1.35752
2698.000	10.11279	-1.29045	8.99776	-1.38502
2699.000	10.11087	-1.30221	8.99390	-1.38700
2700.000	10.10129	-1.27680	9.03440	-1.38292
2701.000	10.13386	-1.30015	9.01126	-1.37123
2702.000	10.11279	-1.31394	9.05561	-1.39266
2703.000	10.11662	-1.36091	9.02862	-1.41436
2704.000	10.08405	-1.33364	9.01705	-1.34175
2705.000	10.07830	-1.31408	9.04404	-1.36717
2706.000	10.08213	-1.24750	9.05176	-1.40445
2707.000	10.10704	-1.34529	8.99969	-1.39484
2708.000	10.12428	-1.31781	9.03826	-1.39665
2709.000	10.08213	-1.28274	9.01705	-1.39477
2710.000	10.09746	-1.29834	9.02090	-1.43992
2711.000	10.09938	-1.29051	9.04404	-1.38681
2712.000	10.12045	-1.28846	9.04212	-1.43198
2713.000	10.11087	-1.29438	8.99776	-1.39092
2714.000	10.09938	-1.27485	9.01512	-1.36336
2715.000	10.13195	-1.29429	9.01898	-1.39869
2716.000	10.11470	-1.28457	8.98812	-1.38702
2717.000	10.12620	-1.27082	9.01705	-1.43797
2718.000	10.09363	-1.29836	9.00741	-1.43604
2719.000	10.10512	-1.31397	8.98619	-1.32811
2720.000	10.12428	-1.31585	9.02283	-1.37904
2721.000	10.11662	-1.31980	9.06140	-1.47510
2722.000	10.10704	-1.31005	9.02669	-1.43008
2723.000	10.08979	-1.31599	8.98426	-1.43221
2724.000	10.09938	-1.29246	9.04404	-1.40252
2725.000	10.09171	-1.30424	9.00933	-1.41640
2726.000	10.08979	-1.31795	9.00162	-1.38697
2727.000	10.08021	-1.32974	9.02669	-1.39277
2728.000	10.10129	-1.29637	9.03055	-1.46737
2729.000	10.12045	-1.29825	9.02283	-1.39278
2730.000	10.12237	-1.29237	9.00162	-1.40857
2731.000	10.09554	-1.36687	9.07875	-1.51036
2732.000	10.09363	-1.31794	9.08453	-1.40629
2733.000	10.11279	-1.28262	9.07296	-1.45542
2734.000	10.09171	-1.30816	9.01319	-1.45369
2735.000	10.12045	-1.30021	9.06718	-1.46329
2736.000	10.12045	-1.33153	9.03826	-1.44967
2737.000	10.11662	-1.31588	9.06525	-1.47704
2738.000	10.14919	-1.33532	9.06140	-1.45350
2739.000	10.11470	-1.33742	9.00933	-1.44193
2740.000	10.10321	-1.30811	9.03055	-1.43595
2741.000	10.12428	-1.37457	9.02669	-1.40848
2742.000	10.10896	-1.30809	8.98426	-1.46756
2743.000	10.11279	-1.32373	9.04983	-1.44962
2744.000	10.14727	-1.33337	9.06332	-1.45938
2745.000	10.12237	-1.33348	9.05368	-1.42604
2746.000	10.11087	-1.36680	9.04404	-1.45357
2747.000	10.14536	-1.35295	9.04019	-1.48107
2748.000	10.13770	-1.36082	9.01705	-1.47920
2749.000	10.12620	-1.36282	9.05368	-1.48494
2750.000	10.10512	-1.41380	9.06911	-1.44169
2751.000	10.10704	-1.35899	9.09610	-1.50047
2752.000	10.15302	-1.34705	9.02283	-1.46347
2753.000	10.14536	-1.36666	9.05561	-1.51046
2754.000	10.14153	-1.35493	9.05947	-1.46725
2755.000	10.14919	-1.33924	9.07296	-1.47112
2756.000	10.11662	-1.34916	9.06911	-1.46525
2757.000	10.10704	-1.35899	9.00933	-1.50083
2758.000	10.13386	-1.33734	9.06525	-1.45741
2759.000	10.18367	-1.37823	9.09031	-1.47890
2760.000	10.13195	-1.30212	9.05754	-1.51634
2761.000	10.12428	-1.33151	9.08067	-1.50054
2762.000	10.16643	-1.33917	9.07104	-1.54966
2763.000	10.11279	-1.36092	9.09610	-1.47495
2764.000	10.14727	-1.38818	9.07875	-1.52410
2765.000	10.10321	-1.40403	9.04790	-1.44374
2766.000	10.11470	-1.33155	9.09031	-1.51424
2767.000	10.12620	-1.36478	9.09031	-1.50442
2768.000	10.09938	-1.36294	9.01705	-1.44975
2769.000	10.13770	-1.41366	9.02090	-1.49882
2770.000	10.09363	-1.38058	9.04212	-1.44572
2771.000	10.13770	-1.36865	9.03633	-1.47912
2772.000	10.12812	-1.36869	9.07296	-1.46523
2773.000	10.12812	-1.40392	9.00162	-1.46945
2774.000	10.12045	-1.31978	9.04790	-1.48693
2775.000	10.10512	-1.36291	9.05947	-1.48492
2776.000	10.13578	-1.39605	9.07104	-1.49861
2777.000	10.15494	-1.36466	9.10381	-1.50240
2778.000	10.12620	-1.41371	9.03826	-1.49679
2779.000	10.10704	-1.37073	9.09802	-1.48869
2780.000	10.13195	-1.36867	9.06525	-1.43189
2781.000	10.09171	-1.40603	9.04404	-1.46339
2782.000	10.12045	-1.42352	9.04597	-1.52032
2783.000	10.12237	-1.41177	9.01705	-1.43993
2784.000	10.16068	-1.44291	9.02283	-1.49489
2785.000	10.14727	-1.41362	9.05947	-1.47707
2786.000	10.14919	-1.39991	9.03440	-1.50269
2787.000	10.15685	-1.38422	9.02862	-1.49290
2788.000	10.14727	-1.37252	9.03247	-1.51841
2789.000	10.13578	-1.44303	9.05947	-1.50848
2790.000	10.14536	-1.48995	9.02669	-1.48898
2791.000	10.15685	-1.40575	9.04790	-1.51442
2792.000	10.14344	-1.42929	8.99198	-1.40272
2793.000	10.11279	-1.35113	9.08839	-1.49069
2794.000	10.15877	-1.40378	9.05176	-1.45354
2795.000	10.18941	-1.39386	9.03055	-1.47129
2796.000	10.13961	-1.44692	9.04790	-1.52031
2797.000	10.17409	-1.43698	9.02283	-1.48900
2798.000	10.14919	-1.39208	9.06911	-1.45739
2799.000	10.11662	-1.40397	8.99583	-1.47929
2800.000	10.10512	-1.38640	8.99005	-1.48128
2801.000	10.15685	-1.36465	9.03440	-1.54981
2802.000	10.11662	-1.39810	9.04983	-1.49478
2803.000	10.14919	-1.37447	9.03055	-1.49486
2804.000	10.13386	-1.41759	9.07104	-1.50843
2805.000	10.11470	-1.34721	9.00548	-1.51067
2806.000	10.13003	-1.32757	9.05368	-1.48691
2807.000	10.14153	-1.30208	9.05754	-1.48493
2808.000	10.13578	-1.34321	9.02862	-1.42614
2809.000	10.13578	-1.32755	9.08260	-1.49660
2810.000	10.16643	-1.36852	9.02090	-1.47526
2811.000	10.12620	-1.33542	9.09224	-1.53190
2812.000	10.13578	-1.33538	9.03055	-1.52823
2813.000	10.13195	-1.34518	9.07682	-1.49663
2814.000	10.14344	-1.34318	9.07682	-1.49466
2815.000	10.11087	-1.31004	9.01705	-1.46939
2816.000	10.08213	-1.32190	9.01126	-1.45763
2817.000	10.13003	-1.36868	9.05561	-1.47316
2818.000	10.09746	-1.28268	9.09031	-1.51424
2819.000	10.14727	-1.39600	9.06525	-1.44759
2820.000	10.17792	-1.35282	9.15777	-1.49433
2821.000	10.21814	-1.33112	9.21171	-1.50391
2822.000	10.24686	-1.30752	9.24446	-1.49985
2823.000	10.36933	-1.29528	9.31571	-1.50347
2824.000	10.53185	-1.32001	9.43118	-1.51277
2825.000	10.60445	-1.38810	9.51966	-1.58885
2826.000	10.69801	-1.41698	9.64844	-1.54317
2827.000	10.83730	-1.53349	9.79633	-1.59929
2828.000	10.91165	-1.54091	9.86735	-1.56174
2829.000	10.97645	-1.63815	9.91531	-1.55172
2830.000	10.99931	-1.53265	9.95751	-1.54173
2831.000	11.06978	-1.56545	9.98820	-1.54746
2832.000	11.03931	-1.49732	10.02079	-1.48466
2833.000	11.04122	-1.53243	9.95368	-1.45167
2834.000	10.99169	-1.51123	9.93066	-1.50661
2835.000	10.89450	-1.49415	9.87119	-1.44224
2836.000	10.82585	-1.44763	9.82896	-1.45614
2837.000	10.77626	-1.42638	9.74065	-1.48004
2838.000	10.72092	-1.39539	9.67726	-1.46464
2839.000	10.65792	-1.43085	9.57349	-1.50038
2840.000	10.61400	-1.47209	9.51196	-1.44183
2841.000	10.59299	-1.44288	9.53696	-1.49270
2842.000	10.58344	-1.44488	9.55619	-1.48869
2843.000	10.58344	-1.42924	9.48119	-1.44784
2844.000	10.60827	-1.51902	9.52158	-1.47512
2845.000	10.60636	-1.48385	9.49850	-1.43208
2846.000	10.55096	-1.50171	9.54081	-1.46719
2847.000	10.59872	-1.58550	9.58118	-1.48074
2848.000	10.63310	-1.55211	9.57733	-1.41410
2849.000	10.65028	-1.53248	9.61385	-1.45120
2850.000	10.65028	-1.52858	9.62731	-1.48446
2851.000	10.61018	-1.52878	9.62154	-1.44332
2852.000	10.65983	-1.54416	9.64076	-1.47460
2853.000	10.63310	-1.49545	9.65613	-1.45298
2854.000	10.67892	-1.46201	9.62538	-1.43155
2855.000	10.69610	-1.52249	9.66574	-1.40785
2856.000	10.71710	-1.47745	9.64460	-1.47655
2857.000	10.66938	-1.53239	9.65421	-1.46082
2858.000	10.66556	-1.52655	9.64268	-1.43343
2859.000	10.70183	-1.50878	9.66574	-1.49605
2860.000	10.66747	-1.50895	9.68111	-1.47247
2861.000	10.67510	-1.53236	9.66574	-1.46861
2862.000	10.68083	-1.58117	9.64844	-1.48241
2863.000	10.72282	-1.52040	9.70416	-1.46845
2864.000	10.73046	-1.46371	9.68303	-1.57632
2865.000	10.71519	-1.48723	9.68111	-1.51754
2866.000	10.73046	-1.44613	9.68879	-1.54102
2867.000	10.75718	-1.46358	9.67726	-1.51756
2868.000	10.75336	-1.44993	9.71760	-1.58400
2869.000	10.76481	-1.39323	9.69647	-1.53315
2870.000	10.75527	-1.45383	9.70800	-1.56249
2871.000	10.70374	-1.42282	9.68303	-1.50185
2872.000	10.68847	-1.41117	9.67342	-1.49994
2873.000	10.74954	-1.41479	9.68495	-1.51752
2874.000	10.69228	-1.37989	9.63499	-1.50599
2875.000	10.69610	-1.45997	9.66574	-1.51957
2876.000	10.71519	-1.43449	9.69455	-1.49592
2877.000	10.66747	-1.39759	9.64076	-1.44716
2878.000	10.69610	-1.40722	9.64844	-1.55885
2879.000	10.71137	-1.37785	9.64076	-1.48832
2880.000	10.73046	-1.40511	9.64076	-1.50204
2881.000	10.70565	-1.39155	9.67534	-1.49405
2882.000	10.73237	-1.40120	9.66382	-1.47058
2883.000	10.74763	-1.39331	9.61193	-1.40612
2884.000	10.70374	-1.36225	9.63307	-1.42759
2885.000	10.73428	-1.38361	9.60424	-1.43752
2886.000	10.70374	-1.38179	9.65805	-1.48629
2887.000	10.73618	-1.34843	9.64844	-1.47065
2888.000	10.72664	-1.40122	9.65805	-1.49021
2889.000	10.73237	-1.41096	9.63691	-1.47266
2890.000	10.73046	-1.42465	9.61001	-1.47082
2891.000	10.72473	-1.37193	9.65229	-1.45299
2892.000	10.68465	-1.41900	9.66189	-1.50979
2893.000	10.72664	-1.37778	9.64076	-1.48440
2894.000	10.69610	-1.42285	9.68111	-1.45287
2895.000	10.76672	-1.39908	9.65997	-1.52548
2896.000	10.71901	-1.40126	9.66382	-1.49802
2897.000	10.78770	-1.38531	9.68879	-1.50967
2898.000	10.71328	-1.34854	9.65421	-1.45298
2899.000	10.73618	-1.33671	9.65421	-1.48826
2900.000	10.74954	-1.41479	9.68495	-1.51360
2901.000	10.69610	-1.37987	9.66958	-1.45880
2902.000	10.70183	-1.40720	9.65229	-1.48043
2903.000	10.74763	-1.44019	9.66766	-1.47448
2904.000	10.73618	-1.38360	9.73873	-1.54667
2905.000	10.73046	-1.43246	9.68111	-1.50186
2906.000	10.75718	-1.44601	9.66766	-1.51760
2907.000	10.76099	-1.47138	9.66382	-1.49410
2908.000	10.73809	-1.40508	9.63307	-1.51776
2909.000	10.77435	-1.41272	9.68687	-1.53711
2910.000	10.75336	-1.40500	9.65805	-1.49413
2911.000	10.75336	-1.44016	9.68495	-1.53712
2912.000	10.74954	-1.38744	9.68495	-1.52144
2913.000	10.75908	-1.42451	9.67342	-1.53521
2914.000	10.76481	-1.38542	9.65805	-1.52156
2915.000	10.76672	-1.42057	9.67534	-1.55872
2916.000	10.76672	-1.39908	9.71952	-1.59574
2917.000	10.71901	-1.43251	9.73489	-1.57020
2918.000	10.76481	-1.39519	9.68303	-1.56848
2919.000	10.72664	-1.41685	9.66574	-1.54701
2920.000	10.72855	-1.39731	9.68687	-1.56651
2921.000	10.73046	-1.43637	9.71760	-1.60163
2922.000	10.75336	-1.37961	9.65997	-1.57055
2923.000	10.76290	-1.36980	9.71760	-1.58596
2924.000	10.77053	-1.39321	9.69839	-1.55469
2925.000	10.78007	-1.39511	9.71376	-1.57814
2926.000	10.74954	-1.36205	9.74641	-1.56819
2927.000	10.72092	-1.32701	9.69839	-1.56841
2928.000	10.75336	-1.34836	9.73873	-1.58782
2929.000	10.75145	-1.37767	9.69647	-1.55862
2930.000	10.76862	-1.40689	9.74065	-1.58193
2931.000	10.77626	-1.40099	9.68303	-1.56652
2932.000	10.74191	-1.35818	9.65421	-1.48630
2933.000	10.71710	-1.35047	9.66766	-1.53524
2934.000	10.76481	-1.37370	9.71184	-1.55071
2935.000	10.76672	-1.39908	9.71952	-1.56635
2936.000	10.76290	-1.38933	9.70032	-1.60759
2937.000	10.79533	-1.49074	9.71376	-1.56638
2938.000	10.76099	-1.40106	9.70224	-1.58995
2939.000	10.80106	-1.42236	9.65997	-1.58035
2940.000	10.79915	-1.40089	9.70032	-1.59779
2941.000	10.75908	-1.42060	9.69263	-1.56844
2942.000	10.74191	-1.38162	9.69071	-1.55669
2943.000	10.77626	-1.39513	9.77905	-1.57783
2944.000	10.74954	-1.36205	9.71184	-1.54288
2945.000	10.76290	-1.37761	9.72721	-1.52517
2946.000	10.75336	-1.38742	9.69263	-1.56844
2947.000	10.76481	-1.37565	9.70992	-1.59579
2948.000	10.77816	-1.39512	9.71184	-1.59578
2949.000	10.74573	-1.38355	9.72336	-1.55066
2950.000	10.78198	-1.38729	9.72144	-1.53499
2951.000	10.74573	-1.40895	9.69455	-1.61742
2952.000	10.74763	-1.39136	9.64652	-1.47066
2953.000	10.76481	-1.41081	9.63307	-1.54716
2954.000	10.75145	-1.38939	9.70032	-1.53509
2955.000	10.76481	-1.40886	9.69455	-1.58998
2956.000	10.76290	-1.40496	9.69839	-1.52922
2957.000	10.75527	-1.33467	9.68879	-1.54102
2958.000	10.73046	-1.40706	9.67534	-1.56264
2959.000	10.77053	-1.42250	9.72529	-1.56045
2960.000	10.76099	-1.43817	9.73105	-1.51731
2961.000	10.72282	-1.38952	9.71184	-1.56247
2962.000	10.74763	-1.43824	9.66766	-1.58619
2963.000	10.79533	-1.38723	9.69839	-1.52922
2964.000	10.71901	-1.38368	9.68879	-1.49399
2965.000	10.71901	-1.38563	9.66574	-1.52937
2966.000	10.74191	-1.38162	9.69071	-1.60176
2967.000	10.75527	-1.37374	9.68879	-1.57434
2968.000	10.73618	-1.39532	9.69071	-1.56845
2969.000	10.75908	-1.37372	9.68111	-1.53910
2970.000	10.76290	-1.38347	9.71376	-1.50759
2971.000	10.76672	-1.37760	9.64844	-1.55297
2972.000	10.76672	-1.36978	9.67726	-1.55871
2973.000	10.75718	-1.40108	9.65997	-1.51568
2974.000	10.74191	-1.41482	9.73489	-1.59567
2975.000	10.77244	-1.36585	9.63307	-1.52952
2976.000	10.76481	-1.36589	9.70800	-1.59972
2977.000	10.76290	-1.36394	9.65037	-1.55100
2978.000	10.76290	-1.34831	9.68111	-1.56065
2979.000	10.74763	-1.34448	9.69647	-1.55862
2980.000	10.76672	-1.36392	9.71376	-1.58793
2981.000	10.74573	-1.39332	9.73297	-1.55062
2982.000	10.72855	-1.34261	9.71184	-1.58794
2983.000	10.77244	-1.34827	9.68879	-1.57238
2984.000	10.74191	-1.40896	9.67342	-1.53521
2985.000	10.73618	-1.33476	9.69455	-1.57235
2986.000	10.75145	-1.37571	9.68879	-1.58021
2987.000	10.75527	-1.38351	9.67726	-1.60182
2988.000	10.80678	-1.33835	9.71952	-1.59183
2989.000	10.77053	-1.39125	9.68495	-1.60375
2990.000	10.75145	-1.37571	9.66189	-1.62149
2991.000	10.74954	-1.36009	9.66574	-1.62343
2992.000	10.74191	-1.42655	9.71184	-1.59578
2993.000	10.72282	-1.40124	9.66382	-1.53134
2994.000	10.78389	-1.37557	9.67342	-1.59400
2995.000	10.77626	-1.37365	9.70800	-1.58012
2996.000	10.75527	-1.36593	9.65421	-1.59213
2997.000	10.74191	-1.35622	9.65997	-1.55683
2998.000	10.75908	-1.38154	9.67150	-1.62537
2999.000	10.77816	-1.36583	9.72336	-1.61336
3000.000	10.77244	-1.36976	9.68303	-1.63511
3001.000	10.77053	-1.37758	9.69455	-1.57039
3002.000	10.78961	-1.37945	9.66958	-1.62929
3003.000	10.77244	-1.36585	9.69071	-1.60960
3004.000	10.73428	-1.36798	9.68879	-1.60177
3005.000	10.74191	-1.36013	9.70032	-1.62915
3006.000	10.73809	-1.35038	9.69839	-1.65071
3007.000	10.74954	-1.36205	9.69263	-1.64486
3008.000	10.76290	-1.38347	9.68111	-1.61944
3009.000	10.74573	-1.30151	9.67918	-1.61553
3010.000	10.74954	-1.33275	9.69647	-1.58018
3011.000	10.74382	-1.30933	9.67342	-1.61164
3012.000	10.80106	-1.36963	9.70800	-1.67025
3013.000	10.75718	-1.33857	9.70416	-1.57034
3014.000	10.75908	-1.34638	9.75793	-1.61123
3015.000	10.74000	-1.36600	9.69839	-1.60956
3016.000	10.77626	-1.31896	9.71952	-1.63885
3017.000	10.75145	-1.37962	9.69647	-1.60761
3018.000	10.77244	-1.36585	9.71184	-1.66436
3019.000	10.75527	-1.35616	9.68879	-1.59589
3020.000	10.75908	-1.37177	9.72529	-1.64470
3021.000	10.78198	-1.31112	9.67150	-1.61361
3022.000	10.72092	-1.29380	9.67342	-1.58029
3023.000	10.74763	-1.29759	9.68879	-1.57825
3024.000	10.74000	-1.26441	9.71760	-1.62514
3025.000	10.71710	-1.31335	9.68687	-1.61354
3026.000	10.77053	-1.29749	9.75985	-1.64453
3027.000	10.74954	-1.33665	9.72529	-1.61531
3028.000	10.74573	-1.33862	9.68303	-1.61943
3029.000	10.78007	-1.34824	9.65613	-1.62740
3030.000	10.76290	-1.39715	9.71184	-1.65260
3031.000	10.79915	-1.36768	9.74833	-1.67397
3032.000	10.77626	-1.39709	9.68495	-1.59199
3033.000	10.79915	-1.39698	9.70992	-1.57815
3034.000	10.81632	-1.44767	9.70608	-1.64871
3035.000	10.77053	-1.41274	9.67342	-1.58225
3036.000	10.81250	-1.40278	9.64268	-1.60591
3037.000	10.80678	-1.42624	9.70800	-1.59776
3038.000	10.76099	-1.41474	9.66382	-1.60581
3039.000	10.77244	-1.42054	9.68111	-1.59201
3040.000	10.79915	-1.43995	9.65997	-1.60779
3041.000	10.79724	-1.40089	9.66189	-1.60386
3042.000	10.80678	-1.41843	9.68879	-1.59197
3043.000	10.78007	-1.43808	9.67726	-1.59203
3044.000	10.78961	-1.44780	9.69647	-1.61545
3045.000	10.80106	-1.41064	9.65613	-1.65092
3046.000	10.74763	-1.44214	9.64076	-1.60788
3047.000	10.77244	-1.42249	9.65229	-1.62154
3048.000	10.78961	-1.43804	9.70992	-1.65065
3049.000	10.76099	-1.42060	9.66382	-1.61757
3050.000	10.80296	-1.42626	9.66958	-1.64497
3051.000	10.77816	-1.35997	9.68879	-1.66643
3052.000	10.76672	-1.43619	9.67342	-1.63516
3053.000	10.71137	-1.44036	9.66766	-1.68809
3054.000	10.77053	-1.43227	9.64652	-1.60001
3055.000	10.74573	-1.41090	9.65805	-1.65287
3056.000	10.76672	-1.44791	9.70032	-1.65266
3057.000	10.73809	-1.33084	9.69263	-1.59783
3058.000	10.73428	-1.32891	9.67534	-1.62927
3059.000	10.75718	-1.35225	9.71376	-1.68198
3060.000	10.72855	-1.34456	9.67918	-1.67628
3061.000	10.74000	-1.34842	9.69455	-1.67032
3062.000	10.75718	-1.38155	9.68687	-1.64097
3063.000	10.76099	-1.33660	9.72144	-1.67411
3064.000	10.76290	-1.31901	9.73873	-1.74454
3065.000	10.74954	-1.29563	9.73489	-1.67600
3066.000	10.73046	-1.28594	9.68495	-1.68017
3067.000	10.74763	-1.37964	9.66189	-1.66460
3068.000	10.74382	-1.32105	9.62731	-1.69025
3069.000	10.73618	-1.29764	9.66189	-1.67636
3070.000	10.77053	-1.32093	9.67726	-1.70960
3071.000	10.74191	-1.30543	9.70800	-1.71140
3072.000	10.73428	-1.33281	9.65805	-1.63915
3073.000	10.75145	-1.25655	9.67726	-1.66061
3074.000	10.74000	-1.22729	9.69263	-1.69580
3075.000	10.73237	-1.27812	9.66574	-1.67830
3076.000	10.74000	-1.32888	9.69263	-1.70756
3077.000	10.75908	-1.28973	9.65229	-1.61370
3078.000	10.78389	-1.27204	9.63499	-1.63534
3079.000	10.76481	-1.31119	9.66766	-1.67437
3080.000	10.75527	-1.30733	9.69455	-1.71930
3081.000	10.73618	-1.26834	9.67342	-1.59008
3082.000	10.76481	-1.37565	9.62538	-1.65499
3083.000	10.74763	-1.35815	9.65229	-1.66857
3084.000	10.75908	-1.46358	9.61962	-1.65305
3085.000	10.76862	-1.43618	9.65421	-1.59997
3086.000	10.74382	-1.38552	9.64268	-1.63334
3087.000	10.75718	-1.42061	9.63884	-1.59809
3088.000	10.71710	-1.38368	9.61770	-1.55703
3089.000	10.76099	-1.39520	9.59463	-1.53557
3090.000	10.76481	-1.40690	9.64460	-1.55886
3091.000	10.77816	-1.43614	9.64460	-1.50399
3092.000	10.73428	-1.37970	9.63115	-1.58636
3093.000	10.76481	-1.41276	9.64652	-1.55101
3094.000	10.76099	-1.38934	9.57733	-1.46704
3095.000	10.76672	-1.39322	9.60809	-1.51003
3096.000	10.78389	-1.39510	9.62346	-1.54328
3097.000	10.74191	-1.38943	9.62346	-1.52956
3098.000	10.73618	-1.38946	9.62923	-1.54325
3099.000	10.73809	-1.34452	9.65613	-1.54117
3100.000	10.76290	-1.42840	9.60424	-1.51789
3101.000	10.75336	-1.43430	9.60617	-1.50416
3102.000	10.79152	-1.39701	9.61385	-1.53548
3103.000	10.75527	-1.36593	9.63307	-1.50208
3104.000	10.81441	-1.42230	9.59079	-1.46502
3105.000	10.79533	-1.41067	9.57541	-1.46312
3106.000	10.78770	-1.41266	9.56965	-1.48471
3107.000	10.72473	-1.40709	9.58887	-1.44934
3108.000	10.73046	-1.39144	9.59463	-1.47480
3109.000	10.76481	-1.39909	9.63499	-1.48639
3110.000	10.72855	-1.37582	9.61962	-1.53742
3111.000	10.70374	-1.40914	9.60809	-1.55119
3112.000	10.69419	-1.39942	9.58118	-1.54151
3113.000	10.74763	-1.41675	9.58887	-1.54148
3114.000	10.69038	-1.39357	9.62538	-1.55307
3115.000	10.70756	-1.42671	9.64460	-1.63921
3116.000	10.74000	-1.44804	9.65037	-1.59803
3117.000	10.71710	-1.40908	9.65805	-1.59408
3118.000	10.74954	-1.45190	9.64460	-1.63921
3119.000	10.75145	-1.45775	9.61001	-1.58646
3120.000	10.75908	-1.46553	9.64652	-1.64704
3121.000	10.71710	-1.42276	9.59463	-1.58065
3122.000	10.70565	-1.41695	9.65229	-1.58430
3123.000	10.74191	-1.44999	9.62538	-1.57071
3124.000	10.72855	-1.43442	9.62923	-1.64125
3125.000	10.69992	-1.43065	9.60809	-1.59039
3126.000	10.72664	-1.42466	9.60232	-1.55710
3127.000	10.69419	-1.40333	9.60040	-1.62963
3128.000	10.70565	-1.43453	9.64460	-1.61374
3129.000	10.69038	-1.41507	9.60040	-1.59435
3130.000	10.72473	-1.46960	9.60424	-1.60609
3131.000	10.69419	-1.44435	9.64652	-1.63137
3132.000	10.70374	-1.45408	9.59656	-1.60613
3133.000	10.72092	-1.47548	9.61193	-1.60017
3134.000	10.70756	-1.44820	9.60809	-1.64135
3135.000	10.69419	-1.53031	9.58118	-1.56504
3136.000	10.68465	-1.51082	9.61578	-1.57076
3137.000	10.70374	-1.52245	9.57733	-1.61014
3138.000	10.71901	-1.58683	9.63691	-1.60006
3139.000	10.68847	-1.57332	9.65037	-1.59215
3140.000	10.68847	-1.57136	9.66958	-1.57247
3141.000	10.68465	-1.58310	9.61962	-1.56290
3142.000	10.70756	-1.56736	9.61578	-1.59036
3143.000	10.70374	-1.59472	9.67534	-1.61359
3144.000	10.72664	-1.62390	9.62538	-1.58835
3145.000	10.70565	-1.58885	9.62538	-1.60207
3146.000	10.68274	-1.58116	9.62731	-1.51386
3147.000	10.70374	-1.59668	9.60809	-1.50023
3148.000	10.66174	-1.58908	9.61962	-1.56290
3149.000	10.69610	-1.55570	9.61578	-1.63543
3150.000	10.71328	-1.56342	9.64844	-1.60196
3151.000	10.69610	-1.61430	9.60232	-1.64726
3152.000	10.69038	-1.57526	9.63115	-1.65104
3153.000	10.67128	-1.57731	9.65613	-1.64504
3154.000	10.68847	-1.56355	9.62731	-1.57070
3155.000	10.66747	-1.56952	9.65997	-1.62542
3156.000	10.68465	-1.54013	9.61578	-1.58056
3157.000	10.69610	-1.49123	9.67342	-1.60772
3158.000	10.65219	-1.49926	9.63884	-1.57261
3159.000	10.67128	-1.45228	9.62731	-1.56678
3160.000	10.66747	-1.41713	9.61962	-1.55506
3161.000	10.66747	-1.46793	9.58887	-1.54148
3162.000	10.68083	-1.47763	9.55427	-1.52595
3163.000	10.61973	-1.45252	9.55234	-1.47107
3164.000	10.58917	-1.39404	9.48696	-1.53410
3165.000	10.47069	-1.41217	9.41001	-1.47364
3166.000	10.37890	-1.47517	9.36575	-1.49736
3167.000	10.31193	-1.45983	9.28875	-1.49181
3168.000	10.16260	-1.43704	9.13464	-1.55527
3169.000	9.97669	-1.32233	9.06911	-1.50255
3170.000	9.80785	-1.36807	8.92253	-1.49137
3171.000	9.67534	-1.28433	8.84147	-1.41509
3172.000	9.51581	-1.42612	8.70824	-1.47848
3173.000	9.34073	-1.41704	8.53817	-1.35528
3174.000	9.20786	-1.38029	8.48983	-1.37511
3175.000	9.07489	-1.28852	8.37763	-1.42272
3176.000	8.88201	-1.29510	8.30408	-1.37774
3177.000	8.76425	-1.21690	8.22858	-1.34061
3178.000	8.70437	-1.28392	8.09685	-1.33318
3179.000	8.69471	-1.32917	8.02320	-1.30783
3180.000	8.64834	-1.35292	7.97279	-1.27451
3181.000	8.65028	-1.29590	7.86224	-1.22561
3182.000	8.62516	-1.25864	7.92819	-1.27859
3183.000	8.61163	-1.22723	7.88940	-1.24917
3184.000	8.66187	-1.17005	7.92237	-1.29436
3185.000	8.68119	-1.21324	7.94371	-1.30611
3186.000	8.71596	-1.16005	7.94759	-1.31004
3187.000	8.73335	-1.09514	7.90686	-1.31017
3188.000	8.74687	-1.11082	7.84866	-1.23747
3189.000	8.70051	-1.07164	7.79627	-1.24551
3190.000	8.69858	-1.02250	7.82344	-1.18829
3191.000	8.62709	-0.96764	7.75163	-1.09194
3192.000	8.60003	-0.95591	7.76716	-1.11555
3193.000	8.58457	-0.88711	7.69533	-1.00931
3194.000	8.53237	-0.90100	7.67009	-1.03894
3195.000	8.54784	-0.88130	7.61766	-0.90699
3196.000	8.55750	-0.82620	7.60600	-0.91687
3197.000	8.53430	-0.87936	7.55744	-0.88148
3198.000	8.48016	-0.85391	7.52441	-0.84211
3199.000	8.42020	-0.85798	7.50498	-0.77313
3200.000	8.42793	-0.82648	7.44473	-0.73379
3201.000	8.30989	-0.81099	7.39224	-0.71810
3202.000	8.29053	-0.79331	7.32612	-0.68861
3203.000	8.26343	-0.69298	7.29889	-0.70247
3204.000	8.18790	-0.67145	7.24053	-0.66901
3205.000	8.06197	-0.65591	7.18605	-0.71054
3206.000	7.95922	-0.66198	7.15686	-0.64940
3207.000	7.80986	-0.60113	7.04394	-0.64363
3208.000	7.73804	-0.61700	7.02252	-0.69302
3209.000	7.61766	-0.66844	6.92318	-0.66157
3210.000	7.46222	-0.66473	6.83549	-0.62219
3211.000	7.27555	-0.65515	6.73997	-0.64800
3212.000	7.16659	-0.63557	6.69122	-0.73894
3213.000	7.09457	-0.72252	6.58784	-0.70353
3214.000	6.99136	-0.66543	6.50003	-0.77875
3215.000	6.87252	-0.65769	6.37314	-0.76115
3216.000	6.76922	-0.62623	6.24228	-0.75344
3217.000	6.67562	-0.64808	6.16413	-0.75355
3218.000	6.65612	-0.60464	6.10549	-0.67254
3219.000	6.66977	-0.67575	6.05662	-0.66667
3220.000	6.69707	-0.70140	6.06053	-0.59347
3221.000	6.71852	-0.72112	6.07617	-0.64093
3222.000	6.77312	-0.78622	6.08595	-0.65674
3223.000	6.80236	-0.69334	6.10158	-0.63299
3224.000	6.79456	-0.70521	5.99210	-0.60740
3225.000	6.82380	-0.60048	6.03121	-0.58164
3226.000	6.80820	-0.59063	6.03316	-0.57966
3227.000	6.78871	-0.58670	5.94517	-0.53424
3228.000	6.78091	-0.56696	5.94908	-0.50852
3229.000	6.72437	-0.46824	5.93343	-0.47490
3230.000	6.68927	-0.51372	5.87475	-0.49078
3231.000	6.69707	-0.44061	5.83953	-0.44133
3232.000	6.64246	-0.43868	5.75930	-0.39785
3233.000	6.59174	-0.40711	5.77105	-0.34836
3234.000	6.56638	-0.36958	5.73386	-0.44142
3235.000	6.54882	-0.34785	5.72603	-0.41965
3236.000	6.48832	-0.30243	5.72799	-0.40975
3237.000	6.50003	-0.33207	5.71624	-0.39788
3238.000	6.42391	-0.27282	5.66730	-0.45137
3239.000	6.39462	-0.30644	5.66730	-0.42761
3240.000	6.38291	-0.27679	5.61053	-0.45141
3241.000	6.36533	-0.23133	5.58899	-0.42569
3242.000	6.32432	-0.23135	5.53807	-0.42176
3243.000	6.28135	-0.27882	5.48910	-0.44952
3244.000	6.19930	-0.24327	5.44404	-0.46738
3245.000	6.14849	-0.25120	5.36958	-0.48526
3246.000	6.12113	-0.26111	5.34214	-0.47142
3247.000	6.05662	-0.22355	5.25198	-0.48932
3248.000	6.06640	-0.17805	5.24021	-0.46952
3249.000	5.95690	-0.24140	5.20884	-0.51708
3250.000	5.93147	-0.27703	5.16571	-0.50721
3251.000	5.92365	-0.26120	5.09902	-0.51717
3252.000	5.86301	-0.28498	5.08137	-0.48152
3253.000	5.83366	-0.28301	4.98328	-0.41620
3254.000	5.80627	-0.27115	4.96366	-0.45188
3255.000	5.76517	-0.21971	5.00094	-0.48158
3256.000	5.75147	-0.21180	4.96366	-0.48557
3257.000	5.75539	-0.24347	4.97740	-0.47367
3258.000	5.74365	-0.17815	4.96759	-0.47170
3259.000	5.73190	-0.24941	4.98721	-0.49546
3260.000	5.79453	-0.26720	4.97740	-0.46773
3261.000	5.76322	-0.29097	4.96955	-0.54106
3262.000	5.83758	-0.25135	5.00290	-0.48753
3263.000	5.86105	-0.23946	5.05783	-0.51324
3264.000	5.83758	-0.24937	5.02056	-0.53903
3265.000	5.89235	-0.22758	5.03037	-0.53705
3266.000	5.92561	-0.30275	5.00486	-0.57868
3267.000	5.89627	-0.28496	4.99702	-0.57671
3268.000	5.90605	-0.29881	5.03233	-0.59253
3269.000	5.88062	-0.36017	5.04214	-0.56874
3270.000	5.84736	-0.38196	4.97151	-0.55295
3271.000	5.82388	-0.36812	4.99898	-0.56680
3272.000	5.82388	-0.34239	4.97151	-0.54502
3273.000	5.85910	-0.37997	4.97347	-0.54106
3274.000	5.79061	-0.38200	4.95974	-0.55692
3275.000	5.79257	-0.37012	4.92638	-0.54109
3276.000	5.78083	-0.32658	4.93815	-0.47172
3277.000	5.79061	-0.32460	4.94404	-0.53315
3278.000	5.78670	-0.37012	4.94011	-0.53910
3279.000	5.77496	-0.30679	4.93226	-0.53713
3280.000	5.80431	-0.33251	4.92049	-0.49750
3281.000	5.79453	-0.29491	4.96562	-0.57673
3282.000	5.76713	-0.35628	4.91853	-0.53317
3283.000	5.81605	-0.29292	4.91264	-0.63822
3284.000	5.72799	-0.33849	4.94011	-0.63621
3285.000	5.73777	-0.25139	4.94600	-0.62035
3286.000	5.77300	-0.31669	4.87142	-0.61844
3287.000	5.75539	-0.30087	4.89890	-0.60652
3288.000	5.74756	-0.27514	4.87535	-0.65807
3289.000	5.72212	-0.23952	4.89694	-0.59661
3290.000	5.75539	-0.25138	4.85965	-0.62043
3291.000	5.70254	-0.24151	4.86357	-0.56295
3292.000	5.73190	-0.24348	4.87535	-0.59267
3293.000	5.70646	-0.22567	4.90871	-0.66597
3294.000	5.76322	-0.27315	4.86554	-0.59268
3295.000	5.73190	-0.28900	4.85376	-0.65017
3296.000	5.72016	-0.29297	4.82628	-0.59866
3297.000	5.71624	-0.29099	4.83609	-0.60856
3298.000	5.73190	-0.27119	4.85572	-0.63431
3299.000	5.71037	-0.22963	4.82628	-0.61055
3300.000	5.72799	-0.29692	4.82235	-0.59866
3301.000	5.72407	-0.25338	4.82432	-0.59470
3302.000	5.72995	-0.23952	4.84591	-0.61846
3303.000	5.73386	-0.25337	4.84591	-0.65612
3304.000	5.71037	-0.26130	4.82235	-0.59866
3305.000	5.72212	-0.23556	4.87731	-0.68186
3306.000	5.70841	-0.27318	4.82039	-0.64425
3307.000	5.72995	-0.31276	4.81843	-0.60461
3308.000	5.72799	-0.29098	4.80272	-0.62841
3309.000	5.69667	-0.29496	4.83413	-0.58676
3310.000	5.69080	-0.28902	4.84198	-0.56495
3311.000	5.69667	-0.29892	4.84198	-0.55702
3312.000	5.71037	-0.28703	4.84591	-0.54909
3313.000	5.70646	-0.33454	4.82235	-0.56893
3314.000	5.70254	-0.31871	4.80272	-0.54318
3315.000	5.71820	-0.31276	4.81646	-0.63633
3316.000	5.70254	-0.28308	4.81254	-0.51343
3317.000	5.72016	-0.27119	4.78702	-0.57490
3318.000	5.71037	-0.24744	4.80861	-0.55705
3319.000	5.72016	-0.27317	4.82039	-0.58479
3320.000	5.67122	-0.29695	4.77327	-0.56897
3321.000	5.70841	-0.24547	4.79683	-0.64031
3322.000	5.71037	-0.27516	4.77327	-0.60069
3323.000	5.69275	-0.30684	4.81843	-0.62840
3324.000	5.70841	-0.22369	4.74382	-0.57891
3325.000	5.67709	-0.34248	4.77327	-0.64628
3326.000	5.67905	-0.22172	4.75953	-0.58286
3327.000	5.69863	-0.19202	4.75953	-0.60466
3328.000	5.63990	-0.26331	4.77524	-0.62051
3329.000	5.70254	-0.21379	4.72811	-0.59676
3330.000	5.71624	-0.28505	4.77131	-0.62646
3331.000	5.69080	-0.25933	4.75757	-0.58484
3332.000	5.70254	-0.28506	4.75953	-0.55510
3333.000	5.67709	-0.29893	4.75560	-0.57097
3334.000	5.65947	-0.27518	4.74971	-0.52736
3335.000	5.65556	-0.29102	4.75953	-0.54916
3336.000	5.66535	-0.34843	4.72419	-0.56108
3337.000	5.63990	-0.33656	4.77916	-0.51742
3338.000	5.62619	-0.34845	4.73793	-0.58882
3339.000	5.64381	-0.35240	4.75560	-0.62251
3340.000	5.63990	-0.34844	4.79094	-0.61455
3341.000	5.62815	-0.35043	4.75757	-0.64828
3342.000	5.63990	-0.36032	4.75560	-0.61260
3343.000	5.63402	-0.34449	4.74579	-0.65622
3344.000	5.63011	-0.38606	4.72811	-0.68002
3345.000	5.64773	-0.34844	4.79683	-0.62445
3346.000	5.64381	-0.39595	4.72222	-0.61461
3347.000	5.64968	-0.32072	4.73793	-0.66217
3348.000	5.64185	-0.41179	4.69473	-0.58291
3349.000	5.64381	-0.35834	4.71241	-0.61263
3350.000	5.63990	-0.33854	4.74382	-0.62450
3351.000	5.62227	-0.33459	4.76149	-0.61259
3352.000	5.58899	-0.33263	4.72419	-0.61064
3353.000	5.63598	-0.29697	4.75364	-0.59872
3354.000	5.60073	-0.36232	4.75560	-0.59872
3355.000	5.63794	-0.30885	4.72419	-0.58090
3356.000	5.60661	-0.31876	4.72419	-0.55711
3357.000	5.63206	-0.30093	4.73793	-0.56305
3358.000	5.59290	-0.36431	4.71437	-0.61065
3359.000	5.63011	-0.35637	4.68491	-0.55913
3360.000	5.61444	-0.32668	4.71241	-0.60272
3361.000	5.58115	-0.39797	4.72419	-0.54324
3362.000	5.60465	-0.30689	4.72811	-0.57892
3363.000	5.62619	-0.33657	4.72222	-0.52143
3364.000	5.58899	-0.40391	4.71633	-0.53730
3365.000	5.60661	-0.33856	4.76542	-0.57096
3366.000	5.60269	-0.33658	4.73400	-0.57891
3367.000	5.60269	-0.38806	4.65938	-0.56311
3368.000	5.61444	-0.35044	4.72026	-0.54721
3369.000	5.64185	-0.33854	4.69473	-0.57498
3370.000	5.60073	-0.37618	4.67509	-0.56905
3371.000	5.58115	-0.38610	4.69277	-0.55119
3372.000	5.58115	-0.33660	4.70651	-0.59281
3373.000	5.57724	-0.34650	4.66331	-0.60276
3374.000	5.58507	-0.35243	4.69866	-0.56110
3375.000	5.58899	-0.37025	4.65545	-0.57700
3376.000	5.58703	-0.35045	4.69866	-0.59282
3377.000	5.57724	-0.31086	4.69670	-0.53136
3378.000	5.56940	-0.30690	4.69866	-0.52938
3379.000	5.55569	-0.34255	4.66527	-0.55320
3380.000	5.62619	-0.32073	4.69277	-0.60076
3381.000	5.54394	-0.35642	4.72026	-0.59280
3382.000	5.55961	-0.35047	4.67706	-0.53733
3383.000	5.55961	-0.37225	4.70455	-0.62652
3384.000	5.52631	-0.38217	4.67313	-0.57698
3385.000	5.51064	-0.35644	4.70848	-0.60669
3386.000	5.53807	-0.31088	4.68884	-0.60869
3387.000	5.59486	-0.37817	4.72026	-0.65029
3388.000	5.51652	-0.42574	4.69670	-0.62653
3389.000	5.57528	-0.41184	4.67902	-0.60275
3390.000	5.54590	-0.38018	4.71437	-0.67012
3391.000	5.62227	-0.32865	4.72026	-0.65426
3392.000	5.57528	-0.31284	4.72026	-0.64633
3393.000	5.54982	-0.36038	4.69080	-0.63843
3394.000	5.58115	-0.36036	4.67313	-0.61663
3395.000	5.53611	-0.38216	4.70062	-0.65031
3396.000	5.53611	-0.35840	4.69080	-0.64834
3397.000	5.54590	-0.42968	4.68099	-0.64240
3398.000	5.52827	-0.35445	4.65742	-0.64044
3399.000	5.53415	-0.34652	4.68688	-0.66619
3400.000	5.56157	-0.41581	4.65938	-0.63449
3401.000	5.54982	-0.37820	4.67509	-0.66223
3402.000	5.50673	-0.39208	4.67117	-0.62060
3403.000	5.49497	-0.44556	4.66135	-0.63449
3404.000	5.51652	-0.42772	4.65349	-0.62656
3405.000	5.54786	-0.42572	4.64367	-0.61864
3406.000	5.54982	-0.44552	4.63974	-0.58891
3407.000	5.54003	-0.44552	4.61814	-0.57504
3408.000	5.51848	-0.44554	4.64171	-0.61666
3409.000	5.53219	-0.45147	4.64760	-0.61467
3410.000	5.56744	-0.44154	4.63581	-0.52744
3411.000	5.54394	-0.39800	4.62599	-0.51555
3412.000	5.57332	-0.46530	4.64760	-0.55123
3413.000	5.52827	-0.42771	4.64367	-0.58692
3414.000	5.50281	-0.42575	4.66135	-0.61664
3415.000	5.55569	-0.36433	4.65938	-0.56510
3416.000	5.52240	-0.39009	4.62010	-0.51358
3417.000	5.55178	-0.34849	4.64956	-0.54330
3418.000	5.56157	-0.33859	4.64367	-0.58295
3419.000	5.55373	-0.30691	4.64563	-0.59683
3420.000	5.51456	-0.36634	4.68099	-0.55517
3421.000	5.55178	-0.35047	4.64171	-0.62459
3422.000	5.56549	-0.39601	4.67509	-0.59482
3423.000	5.59094	-0.34847	4.65742	-0.60079
3424.000	5.52827	-0.32475	4.68491	-0.60869
3425.000	5.56157	-0.33265	4.65153	-0.63450
3426.000	5.51848	-0.33267	4.64367	-0.60278
3427.000	5.52436	-0.34059	4.66331	-0.61268
3428.000	5.51456	-0.30891	4.72026	-0.63443
3429.000	5.55373	-0.29107	4.65545	-0.56907
3430.000	5.54198	-0.36038	4.62010	-0.58694
3431.000	5.56157	-0.33265	4.64563	-0.57106
3432.000	5.58115	-0.34848	4.67509	-0.59482
3433.000	5.55765	-0.35641	4.65938	-0.57303
3434.000	5.56744	-0.34650	4.63189	-0.57900
3435.000	5.52827	-0.35049	4.66724	-0.59880
3436.000	5.53415	-0.34454	4.64367	-0.57701
3437.000	5.55569	-0.40987	4.62992	-0.59486
3438.000	5.57724	-0.38412	4.66331	-0.58889
3439.000	5.54198	-0.38216	4.70062	-0.68600
3440.000	5.54003	-0.35840	4.66135	-0.51751
3441.000	5.51848	-0.39010	4.65938	-0.63449
3442.000	5.53023	-0.39009	4.67313	-0.57896
3443.000	5.55961	-0.34057	4.62796	-0.55917
3444.000	5.54198	-0.41384	4.62796	-0.66029
3445.000	5.54590	-0.47720	4.66527	-0.57897
3446.000	5.55569	-0.36631	4.70455	-0.65626
3447.000	5.56353	-0.39601	4.67117	-0.59483
3448.000	5.47930	-0.42775	4.69866	-0.66419
3449.000	5.45384	-0.47529	4.66135	-0.63052
3450.000	5.33038	-0.43974	4.60046	-0.58299
3451.000	5.16963	-0.41013	4.44525	-0.64459
3452.000	5.00290	-0.33097	4.42166	-0.53157
3453.000	4.80076	-0.28151	4.22312	-0.48409
3454.000	4.50616	-0.26378	4.06972	-0.48419
3455.000	4.19363	-0.23412	3.86313	-0.52003
3456.000	3.85919	-0.14887	3.57964	-0.44277
3457.000	3.68794	-0.03375	3.27233	-0.38333
3458.000	3.33341	-0.03774	2.99046	-0.27417
3459.000	3.04961	-0.08940	2.77946	-0.29607
3460.000	2.74593	-0.04173	2.57627	-0.22458
3461.000	2.53287	0.01391	2.38881	-0.18287
3462.000	2.30986	0.00795	2.16774	-0.11530
3463.000	2.09864	-0.00398	2.00781	-0.11929
3464.000	1.98017	-0.09345	1.91500	-0.07357
3465.000	1.82021	-0.10340	1.83008	-0.08749
3466.000	1.75700	-0.03977	1.69577	-0.17102
3467.000	1.74318	-0.04772	1.61676	-0.21278
3468.000	1.65232	-0.15312	1.45871	-0.16905
3469.000	1.55947	-0.25455	1.47254	-0.18098
3470.000	1.59898	-0.24460	1.37375	-0.15911
3471.000	1.56935	-0.29830	1.34807	-0.17900
3472.000	1.62071	-0.19886	1.30657	-0.12729
3473.000	1.67404	-0.18693	1.36980	-0.07757
3474.000	1.70960	-0.08948	1.30460	-0.10541
3475.000	1.78663	-0.09346	1.27693	-0.07359
3476.000	1.80836	-0.04176	1.33621	0.02784
3477.000	1.84588	-0.04176	1.37178	0.01193
3478.000	1.96240	-0.02982	1.41525	-0.00398
3479.000	2.07297	0.00000	1.43105	0.03580
3480.000	2.13812	0.01590	1.53576	-0.00994
3481.000	2.16971	-0.01590	1.60688	-0.01193
3482.000	2.25854	-0.05964	1.67009	-0.00398
3483.000	2.31776	-0.07156	1.71355	-0.00199
3484.000	2.28815	-0.09740	1.80638	-0.07755
3485.000	2.32763	-0.09541	1.80836	-0.13720
3486.000	2.31381	-0.15902	1.81231	-0.12527
3487.000	2.31381	-0.13915	1.83996	-0.17100
3488.000	2.26841	-0.23258	1.82811	-0.19486
3489.000	2.22499	-0.23656	1.82613	-0.20680
3490.000	2.20525	-0.20277	1.78861	-0.23663
3491.000	2.19143	-0.23458	1.75700	-0.25254
3492.000	2.12628	-0.15904	1.71355	-0.26646
3493.000	2.09074	-0.18887	1.66614	-0.24460
3494.000	2.03348	-0.12327	1.65824	-0.24261
3495.000	1.93672	-0.17497	1.52984	-0.25257
3496.000	1.92488	-0.12526	1.47649	-0.27843
3497.000	1.90908	-0.10737	1.42315	-0.31622
3498.000	1.83206	-0.10539	1.38363	-0.17900
3499.000	1.81626	-0.10936	1.33424	-0.22077
3500.000	1.83601	-0.06761	1.29274	-0.20884
3501.000	1.77083	-0.10937	1.32238	-0.16110
3502.000	1.76688	-0.08948	1.27891	-0.16707
3503.000	1.80046	-0.07755	1.27693	-0.12928
3504.000	1.74713	-0.10937	1.25520	-0.15514
3505.000	1.73725	-0.05767	1.30064	-0.12729
3506.000	1.72738	-0.03977	1.25124	-0.10740
3507.000	1.75108	-0.06562	1.31250	-0.14519
3508.000	1.73923	-0.04574	1.26508	-0.10541
3509.000	1.73133	-0.02983	1.29076	-0.11138
3510.000	1.73330	-0.00994	1.29867	-0.07757
3511.000	1.70960	-0.02187	1.29867	-0.11138
3512.000	1.76491	0.03182	1.31052	-0.08751
3513.000	1.75503	-0.07357	1.30460	-0.06762
3514.000	1.72540	-0.01989	1.28681	-0.08751
3515.000	1.75700	-0.00398	1.30657	-0.08950
3516.000	1.76293	-0.03579	1.30460	-0.07956
3517.000	1.80836	0.00795	1.31052	-0.09348
3518.000	1.79848	-0.00994	1.28681	-0.08751
3519.000	1.87946	0.01392	1.27100	-0.07757
3520.000	1.83601	-0.01988	1.27693	-0.09149
3521.000	1.79651	-0.04772	1.34016	-0.04972
3522.000	1.86958	-0.06363	1.32436	-0.04177
3523.000	1.86958	-0.05369	1.31052	-0.08155
3524.000	1.84391	-0.06761	1.30262	-0.07160
3525.000	1.82613	-0.06959	1.31250	-0.06365
3526.000	1.82811	-0.08351	1.32436	-0.06762
3527.000	1.83601	-0.07755	1.32831	-0.03779
3528.000	1.84193	-0.06164	1.32633	-0.04773
3529.000	1.87156	-0.05766	1.32040	-0.07359
3530.000	1.81428	-0.03778	1.31448	-0.09149
3531.000	1.82613	-0.06562	1.32436	-0.10541
3532.000	1.86761	-0.04374	1.33621	-0.11337
3533.000	1.85773	-0.04573	1.32436	-0.09149
3534.000	1.83403	-0.02187	1.30460	-0.09746
3535.000	1.85971	-0.05369	1.30064	-0.09945
3536.000	1.85971	-0.07158	1.32040	-0.03779
3537.000	1.83798	-0.02784	1.29867	-0.06166
3538.000	1.86366	-0.02187	1.33028	-0.07956
3539.000	1.81823	0.00199	1.28879	-0.05569
3540.000	1.89525	-0.00199	1.32436	-0.03580
3541.000	1.84588	-0.05170	1.30855	-0.03580
3542.000	1.86168	-0.10141	1.30262	-0.08751
3543.000	1.88735	-0.08948	1.33028	-0.02983
3544.000	1.84391	-0.05965	1.31250	-0.05370
3545.000	1.84786	-0.04573	1.29076	-0.10541
3546.000	1.83996	-0.07357	1.30262	-0.08155
3547.000	1.83206	-0.08351	1.27891	-0.07757
3548.000	1.86958	-0.04573	1.30657	-0.07359
3549.000	1.85576	-0.03181	1.25717	-0.15116
3550.000	1.86168	-0.06363	1.28879	-0.08552
3551.000	1.84786	-0.07755	1.30262	-0.07757
3552.000	1.84391	-0.06363	1.30064	-0.10541
3553.000	1.85576	-0.09345	1.27100	-0.09547
3554.000	1.81626	-0.06363	1.29669	-0.08552
3555.000	1.83798	-0.07954	1.28484	-0.09149
3556.000	1.84588	-0.05369	1.27891	-0.07160
3557.000	1.81033	-0.03579	1.26903	-0.05768
3558.000	1.86168	-0.07755	1.31448	-0.08751
3559.000	1.82613	-0.08351	1.30657	-0.08552
3560.000	1.80836	-0.10936	1.30460	-0.08552
3561.000	1.81626	-0.08948	1.31843	-0.06762
3562.000	1.83206	-0.07357	1.29669	-0.08552
3563.000	1.85971	-0.09942	1.31448	-0.11933
3564.000	1.84983	-0.05965	1.28286	-0.07160
3565.000	1.84193	-0.12129	1.32238	-0.08353
3566.000	1.81823	-0.08351	1.30657	-0.11337
3567.000	1.84786	-0.10539	1.28286	-0.09945
3568.000	1.87353	-0.11731	1.26903	-0.09547
3569.000	1.82416	-0.13322	1.26508	-0.13724
3570.000	1.82613	-0.10737	1.26310	-0.07160
3571.000	1.84786	-0.12328	1.23939	-0.11536
3572.000	1.82811	-0.11732	1.26903	-0.15912
3573.000	1.84588	-0.11135	1.26310	-0.14917
3574.000	1.80836	-0.15112	1.24136	-0.13525
3575.000	1.78071	-0.14914	1.24729	-0.12332
3576.000	1.83996	-0.10737	1.26705	-0.12729
3577.000	1.80836	-0.12925	1.27298	-0.11536
3578.000	1.79651	-0.12328	1.25322	-0.14320
3579.000	1.83206	-0.07158	1.27100	-0.11536
3580.000	1.77083	-0.12726	1.26310	-0.13923
3581.000	1.80836	-0.08749	1.26903	-0.10939
3582.000	1.82416	-0.10539	1.25322	-0.14718
3583.000	1.82811	-0.10141	1.22358	-0.13326
3584.000	1.83403	-0.16902	1.22160	-0.15912
3585.000	1.81428	-0.12527	1.22160	-0.12531
3586.000	1.85378	-0.12726	1.23148	-0.13923
3587.000	1.82218	-0.12726	1.23148	-0.14917
3588.000	1.85181	-0.12129	1.20579	-0.12133
3589.000	1.83403	-0.10141	1.25717	-0.14320
3590.000	1.81033	-0.11931	1.20777	-0.14719
3591.000	1.75898	-0.20680	1.25322	-0.12332
3592.000	1.79848	-0.15112	1.26310	-0.16508
3593.000	1.77478	-0.18891	1.28681	-0.13326
3594.000	1.79848	-0.12726	1.21567	-0.12332
3595.000	1.79651	-0.14715	1.25322	-0.13923
3596.000	1.77676	-0.16305	1.20382	-0.10741
3597.000	1.82811	-0.07556	1.23544	-0.16508
3598.000	1.78861	-0.07954	1.17022	-0.18697
3599.000	1.83996	-0.14913	1.20382	-0.18299
3600.000	1.81033	-0.16504	1.18603	-0.17304
3601.000	1.75700	-0.18891	1.24136	-0.18298
3602.000	1.78861	-0.17896	1.17813	-0.18100
3603.000	1.81231	-0.16703	1.20777	-0.17304
3604.000	1.81033	-0.11533	1.21765	-0.18895
3605.000	1.82218	-0.14118	1.22555	-0.17105
3606.000	1.80243	-0.11334	1.24532	-0.17901
3607.000	1.78663	-0.13124	1.25915	-0.16508
3608.000	1.81033	-0.10738	1.24334	-0.12729
3609.000	1.80638	-0.12328	1.20975	-0.17304
3610.000	1.81033	-0.11533	1.20579	-0.22078
3611.000	1.79256	-0.10738	1.23544	-0.20089
3612.000	1.83798	-0.06363	1.20975	-0.21680
3613.000	1.78861	-0.12527	1.17022	-0.17304
3614.000	1.80638	-0.05170	1.19987	-0.17304
3615.000	1.80638	-0.11334	1.18603	-0.16111
3616.000	1.83008	-0.09346	1.19789	-0.20288
3617.000	1.86366	-0.03181	1.19394	-0.22078
3618.000	1.82416	-0.07755	1.18208	-0.19492
3619.000	1.86761	-0.09743	1.25915	-0.23072
3620.000	1.84588	-0.05965	1.21765	-0.21481
3621.000	1.88933	-0.05567	1.20184	-0.22873
3622.000	1.83996	-0.06164	1.22358	-0.14122
3623.000	1.84786	-0.05170	1.22951	-0.21879
3624.000	1.84588	-0.07357	1.24334	-0.21481
3625.000	1.88143	-0.02187	1.24136	-0.21083
3626.000	1.84391	-0.08550	1.20382	-0.22674
3627.000	1.85773	-0.03181	1.19789	-0.14719
3628.000	1.79651	-0.05965	1.21370	-0.19890
3629.000	1.87156	-0.08948	1.20579	-0.17105
3630.000	1.84193	-0.02187	1.19394	-0.17503
3631.000	1.84193	-0.05568	1.17813	-0.19293
3632.000	1.89130	-0.02983	1.19591	-0.11337
3633.000	1.86958	-0.07357	1.20975	-0.14122
3634.000	1.83798	-0.07954	1.23346	-0.16310
3635.000	1.89723	-0.02784	1.21567	-0.15912
3636.000	1.89130	-0.02585	1.24729	-0.13525
3637.000	1.84391	-0.02983	1.24334	-0.11337
3638.000	1.88538	-0.02784	1.24729	-0.15713
3639.000	1.88538	-0.05170	1.24532	-0.09348
3640.000	1.86958	-0.00795	1.23346	-0.12729
3641.000	1.87946	-0.05965	1.23741	-0.20685
3642.000	1.87551	-0.02784	1.23544	-0.10144
3643.000	1.87946	-0.05766	1.20777	-0.10741
3644.000	1.85181	-0.03181	1.22753	-0.10144
3645.000	1.84588	-0.07158	1.22753	-0.12928
3646.000	1.81428	-0.08351	1.23148	-0.12332
3647.000	1.83403	-0.07954	1.23346	-0.10939
3648.000	1.82416	-0.11732	1.21567	-0.10144
3649.000	1.87748	-0.07158	1.24136	-0.16310
3650.000	1.82021	-0.10738	1.24729	-0.10542
3651.000	1.85773	-0.06562	1.18603	-0.11138
3652.000	1.86958	-0.08550	1.19987	-0.11934
3653.000	1.82811	-0.10539	1.24136	-0.10542
3654.000	1.84588	-0.11732	1.21370	-0.10542
3655.000	1.83206	-0.05568	1.20975	-0.14122
3656.000	1.79256	-0.08153	1.19789	-0.12332
3657.000	1.82021	-0.09147	1.22555	-0.13923
3658.000	1.82416	-0.08948	1.21172	-0.12332
3659.000	1.78268	-0.10141	1.22358	-0.13525
3660.000	1.83206	-0.04176	1.22555	-0.14520
3661.000	1.83798	-0.08152	1.24927	-0.08155
3662.000	1.83403	-0.06164	1.24334	-0.08950
3663.000	1.83403	-0.07755	1.25520	-0.08950
3664.000	1.79453	-0.06960	1.23346	-0.12729
3665.000	1.79058	-0.11931	1.22160	-0.09348
3666.000	1.80243	-0.11334	1.22555	-0.11536
3667.000	1.82021	-0.10141	1.21765	-0.10542
3668.000	1.84193	-0.05965	1.21172	-0.11735
3669.000	1.81626	-0.08948	1.20777	-0.12531
3670.000	1.85181	-0.04772	1.22753	-0.12531
3671.000	1.81231	-0.09743	1.25915	-0.11934
3672.000	1.80441	-0.07954	1.21370	-0.17105
3673.000	1.82021	-0.08550	1.21370	-0.15713
3674.000	1.84588	-0.06761	1.21567	-0.18696
3675.000	1.85576	-0.07556	1.24136	-0.08751
3676.000	1.83798	-0.07954	1.23346	-0.15514
3677.000	1.83403	-0.05170	1.21765	-0.10741
3678.000	1.81626	-0.02983	1.21370	-0.14718
3679.000	1.84391	-0.09942	1.20777	-0.11735
3680.000	1.82811	-0.05369	1.20777	-0.09547
3681.000	1.84786	-0.03977	1.22160	-0.09547
3682.000	1.82811	-0.06959	1.20777	-0.10741
3683.000	1.80243	-0.11334	1.20184	-0.12928
3684.000	1.80836	-0.04772	1.21172	-0.09746
3685.000	1.80046	-0.07357	1.22555	-0.10740
3686.000	1.81231	-0.05568	1.20579	-0.12332
3687.000	1.82811	-0.07158	1.20975	-0.13326
3688.000	1.81428	-0.05965	1.20382	-0.10144
3689.000	1.77083	-0.06562	1.24729	-0.09348
3690.000	1.80836	-0.05170	1.20975	-0.10741
3691.000	1.80046	-0.06960	1.23148	-0.10542
3692.000	1.82021	-0.03778	1.21765	-0.12729
3693.000	1.83403	-0.03977	1.22753	-0.13923
3694.000	1.75898	-0.07954	1.18801	-0.08752
3695.000	1.80441	-0.05369	1.20382	-0.08752
3696.000	1.83798	-0.05766	1.19789	-0.08354
3697.000	1.83206	-0.03181	1.20975	-0.05967
3698.000	1.80243	-0.05568	1.20777	-0.04376
3699.000	1.80046	-0.04573	1.19394	-0.11337
3700.000	1.81231	-0.03977	1.18801	-0.08951
3701.000	1.83798	-0.00597	1.21370	-0.09348
3702.000	1.79453	-0.03380	1.21172	-0.08553
3703.000	1.76293	-0.07357	1.20777	-0.11934
3704.000	1.78466	-0.06363	1.17418	-0.14520
3705.000	1.77281	-0.03182	1.20382	-0.12531
3706.000	1.78071	-0.05767	1.15837	-0.09746
3707.000	1.78663	-0.03977	1.21172	-0.09746
3708.000	1.76293	-0.02784	1.18998	-0.07956
3709.000	1.79453	-0.06363	1.18998	-0.09348
3710.000	1.81428	-0.01392	1.19591	-0.10144
3711.000	1.78268	-0.03182	1.18603	-0.08553
3712.000	1.78268	-0.05170	1.21567	-0.10542
3713.000	1.82218	-0.03778	1.18208	-0.09547
3714.000	1.75700	-0.03579	1.19196	-0.10144
3715.000	1.77478	-0.06562	1.18010	-0.10940
3716.000	1.76886	-0.06562	1.21370	-0.07359
3717.000	1.76095	-0.08153	1.16429	-0.12531
3718.000	1.79453	-0.11931	1.20184	-0.15713
3719.000	1.75108	-0.05369	1.18208	-0.07160
3720.000	1.74120	-0.06164	1.21765	-0.09149
3721.000	1.75700	-0.06164	1.21765	-0.05370
3722.000	1.74120	-0.06562	1.22358	-0.13127
3723.000	1.76886	-0.07755	1.24136	-0.06762
3724.000	1.74713	-0.03977	1.18208	-0.10144
3725.000	1.73923	-0.04971	1.22753	-0.11536
3726.000	1.74515	-0.04574	1.23939	-0.11337
3727.000	1.78466	-0.06164	1.21765	-0.08553
3728.000	1.74120	-0.05369	1.23939	-0.10740
3729.000	1.75305	-0.04574	1.19394	-0.14122
3730.000	1.74515	-0.03579	1.20184	-0.11138
3731.000	1.72738	-0.08352	1.20382	-0.12531
3732.000	1.73725	-0.05767	1.22160	-0.09945
3733.000	1.72935	-0.11533	1.19987	-0.07757
3734.000	1.75108	-0.08551	1.19789	-0.11735
3735.000	1.77281	-0.07954	1.19987	-0.14122
3736.000	1.72343	-0.06960	1.20579	-0.05967
3737.000	1.74515	-0.09744	1.19789	-0.13525
3738.000	1.71948	-0.10937	1.18208	-0.09945
3739.000	1.72343	-0.08352	1.22160	-0.15116
3740.000	1.73923	-0.08948	1.20579	-0.13525
3741.000	1.73133	-0.08551	1.20777	-0.11934
3742.000	1.73725	-0.06761	1.23346	-0.10343
3743.000	1.72935	-0.06562	1.19789	-0.08951
3744.000	1.74713	-0.05568	1.21963	-0.10939
3745.000	1.71948	-0.08948	1.19196	-0.12929
3746.000	1.69380	-0.05767	1.18998	-0.08752
3747.000	1.76688	-0.07556	1.21370	-0.11735
3748.000	1.72935	-0.01193	1.19987	-0.13127
3749.000	1.71750	-0.06960	1.20975	-0.05768
3750.000	1.72540	-0.07954	1.22358	-0.11934
3751.000	1.71158	-0.08153	1.21765	-0.09746
3752.000	1.72935	-0.07954	1.19394	-0.09746
3753.000	1.73330	-0.07954	1.20975	-0.13724
3754.000	1.73923	-0.05966	1.21765	-0.07359
3755.000	1.73528	-0.08352	1.19789	-0.07956
3756.000	1.70565	-0.09545	1.24136	-0.11934
3757.000	1.71750	-0.06761	1.21172	-0.05370
3758.000	1.68985	-0.09147	1.18801	-0.08155
3759.000	1.76293	-0.05170	1.22753	-0.11138
3760.000	1.71553	-0.07358	1.21963	-0.12332
3761.000	1.70367	-0.10937	1.20184	-0.08553
3762.000	1.72935	-0.04574	1.22951	-0.05768
3763.000	1.73923	-0.06761	1.21567	-0.01989
3764.000	1.73330	-0.11533	1.22951	-0.09746
3765.000	1.71158	-0.05767	1.18998	-0.09746
3766.000	1.71750	-0.09744	1.23346	-0.10144
3767.000	1.68985	-0.07557	1.22555	-0.10740
3768.000	1.75108	-0.06562	1.23148	-0.07956
3769.000	1.68787	-0.09545	1.21567	-0.07359
3770.000	1.72343	-0.09744	1.22951	-0.07160
3771.000	1.68195	-0.09147	1.17220	-0.04177
3772.000	1.65232	-0.07159	1.22555	-0.12729
3773.000	1.72540	-0.07358	1.25717	-0.08155
3774.000	1.72145	-0.03579	1.21963	-0.08553
3775.000	1.72145	-0.03778	1.21765	-0.08155
3776.000	1.68392	-0.09545	1.19987	-0.05967
3777.000	1.70960	-0.05568	1.21963	-0.05171
3778.000	1.69380	-0.08949	1.21765	-0.08155
3779.000	1.70367	-0.06165	1.22358	-0.04376
3780.000	1.70960	-0.12528	1.21765	-0.12133
3781.000	1.68787	-0.04176	1.22951	-0.08751
3782.000	1.70762	-0.05568	1.21567	-0.08752
3783.000	1.72145	-0.11136	1.23741	-0.05768
3784.000	1.68590	-0.13721	1.19591	-0.12332
3785.000	1.68392	-0.04773	1.24532	-0.10144
3786.000	1.67997	-0.07954	1.25915	-0.10541
3787.000	1.70565	-0.07755	1.23544	-0.11735
3788.000	1.70170	-0.06363	1.22951	-0.09746
3789.000	1.67009	-0.11136	1.24729	-0.09945
3790.000	1.65627	-0.06165	1.22358	-0.07359
3791.000	1.67602	-0.04574	1.23939	-0.08950
3792.000	1.68195	-0.06562	1.21370	-0.06365
3793.000	1.67404	-0.07755	1.23148	-0.09149
3794.000	1.65034	-0.05170	1.24136	-0.05768
3795.000	1.68985	-0.04773	1.21370	-0.07956
3796.000	1.65627	-0.11136	1.23148	-0.07160
3797.000	1.73725	-0.05369	1.22951	-0.07359
3798.000	1.70170	-0.09545	1.21765	-0.06961
3799.000	1.69380	-0.03778	1.24927	-0.09149
3800.000	1.65034	-0.09148	1.22555	-0.04575
3801.000	1.72145	-0.02983	1.23346	-0.03779
3802.000	1.65429	-0.06165	1.23148	-0.05370
3803.000	1.69577	-0.08750	1.23741	-0.10740
3804.000	1.67800	-0.08352	1.20579	-0.10542
3805.000	1.67800	-0.08352	1.24334	-0.09149
3806.000	1.66812	-0.08949	1.24729	-0.06166
3807.000	1.67207	-0.10540	1.23939	-0.08950
3808.000	1.67404	-0.05767	1.24532	-0.08751
3809.000	1.68590	-0.08153	1.23544	-0.09348
3810.000	1.67207	-0.08949	1.22753	-0.08950
3811.000	1.66812	-0.09744	1.20975	-0.09746
3812.000	1.67009	-0.10341	1.21567	-0.09547
3813.000	1.66417	-0.09545	1.24927	-0.09547
3814.000	1.65627	-0.09545	1.24136	-0.08354
3815.000	1.64837	-0.06960	1.22753	-0.11735
3816.000	1.64244	-0.08750	1.20975	-0.09547
3817.000	1.63849	-0.06960	1.24532	-0.07160
3818.000	1.62466	-0.08551	1.24927	-0.10939
3819.000	1.60886	-0.07756	1.24729	-0.11138
3820.000	1.61873	-0.06960	1.22358	-0.10939
3821.000	1.62466	-0.05369	1.20382	-0.08553
3822.000	1.63849	-0.07557	1.24136	-0.10542
3823.000	1.66219	-0.03381	1.21765	-0.09149
3824.000	1.64639	-0.08750	1.23544	-0.08155
3825.000	1.61083	-0.09347	1.24334	-0.12729
3826.000	1.63849	-0.05170	1.24136	-0.11735
3827.000	1.63651	-0.09347	1.23148	-0.12332
3828.000	1.60886	-0.08352	1.21567	-0.09547
3829.000	1.65429	-0.06562	1.28088	-0.12729
3830.000	1.62466	-0.08750	1.26903	-0.07757
3831.000	1.64046	-0.06165	1.27693	-0.11138
3832.000	1.61676	-0.10142	1.23148	-0.07359
3833.000	1.64837	-0.03977	1.24532	-0.13525
3834.000	1.61478	-0.02386	1.25520	-0.09547
3835.000	1.60688	-0.06960	1.21963	-0.13724
3836.000	1.61676	-0.07358	1.25124	-0.11536
3837.000	1.61873	-0.05966	1.24334	-0.10542
3838.000	1.62071	-0.02386	1.24729	-0.05967
3839.000	1.60688	-0.02386	1.26310	-0.09945
3840.000	1.60886	-0.01989	1.22951	-0.09547
3841.000	1.60096	-0.01193	1.23148	-0.09149
3842.000	1.64046	-0.06562	1.24334	-0.09348
3843.000	1.63651	-0.05767	1.22951	-0.07757
3844.000	1.62466	-0.05966	1.24532	-0.07956
3845.000	1.64441	-0.05568	1.24334	-0.10740
3846.000	1.62664	-0.04176	1.22951	-0.10740
3847.000	1.63849	-0.02585	1.24927	-0.11337
3848.000	1.63256	-0.05767	1.25717	-0.05569
3849.000	1.60293	0.00000	1.24729	-0.12133
3850.000	1.61676	0.00398	1.23148	-0.07757
3851.000	1.60491	-0.01591	1.24334	-0.10343
3852.000	1.60096	0.00994	1.23741	-0.09746
3853.000	1.64244	-0.04375	1.22555	-0.08354
3854.000	1.66614	-0.02187	1.23544	-0.09746
3855.000	1.62071	0.00199	1.25124	-0.11735
3856.000	1.59898	0.00994	1.24729	-0.10144
3857.000	1.63454	0.00000	1.23939	-0.11138
3858.000	1.63454	-0.01790	1.27496	-0.11536
3859.000	1.64441	-0.01591	1.24532	-0.09348
3860.000	1.59700	0.00597	1.23939	-0.10343
3861.000	1.65627	-0.00398	1.23939	-0.10343
3862.000	1.62861	-0.01591	1.24927	-0.10343
3863.000	1.60886	0.01989	1.24729	-0.11934
3864.000	1.59108	0.01392	1.24729	-0.09547
3865.000	1.63849	-0.01989	1.24532	-0.09945
3866.000	1.60886	0.00597	1.24532	-0.06564
3867.000	1.62861	-0.01591	1.25915	-0.07160
3868.000	1.58910	-0.00994	1.22160	-0.03978
3869.000	1.62664	-0.01989	1.26508	-0.07359
3870.000	1.62466	0.00199	1.24334	-0.08751
3871.000	1.60096	-0.02983	1.22358	-0.06763
3872.000	1.63651	0.01591	1.26112	-0.10939
3873.000	1.62269	-0.00199	1.26310	-0.10939
3874.000	1.56737	0.01392	1.24334	-0.06961
3875.000	1.63256	-0.03778	1.23544	-0.11934
3876.000	1.63651	0.01193	1.24334	-0.09348
3877.000	1.60096	0.04574	1.24729	-0.06762
3878.000	1.61083	0.02784	1.23544	-0.08155
3879.000	1.60096	0.02585	1.24334	-0.08751
3880.000	1.61873	0.02386	1.21370	-0.09348
3881.000	1.58910	0.00795	1.23741	-0.08553
3882.000	1.57923	0.06960	1.24532	-0.09547
3883.000	1.59305	0.00597	1.24136	-0.11536
3884.000	1.63059	0.03182	1.21765	-0.11735
3885.000	1.59700	0.02188	1.22358	-0.09149
3886.000	1.60688	0.03778	1.25717	-0.10343
3887.000	1.63256	0.06761	1.25717	-0.10541
3888.000	1.63059	0.02187	1.25124	-0.10740
3889.000	1.61873	0.02585	1.25124	-0.09547
3890.000	1.59700	0.00994	1.25915	-0.07956
3891.000	1.61478	-0.00994	1.21567	-0.13923
3892.000	1.57725	0.01392	1.22555	-0.14917
3893.000	1.61083	0.00597	1.20579	-0.13326
3894.000	1.61083	0.01193	1.24532	-0.06365
3895.000	1.62466	0.04574	1.22753	-0.09348
3896.000	1.58515	0.05171	1.21963	-0.11138
3897.000	1.57725	0.00994	1.25520	-0.09746
3898.000	1.59503	0.06761	1.23346	-0.12133
3899.000	1.56540	0.07159	1.26903	-0.10740
3900.000	1.61083	0.01591	1.23741	-0.13127
3901.000	1.60096	0.04773	1.22358	-0.10740
3902.000	1.57725	0.04176	1.25520	-0.10939
3903.000	1.57923	0.01790	1.21567	-0.12133
3904.000	1.59700	0.04972	1.22160	-0.10144
3905.000	1.56342	0.02585	1.22753	-0.10740
3906.000	1.57330	0.02188	1.21567	-0.09348
3907.000	1.58515	0.04773	1.21963	-0.13326
3908.000	1.56935	0.03779	1.21370	-0.10939
3909.000	1.61873	0.02386	1.22951	-0.11337
3910.000	1.54564	0.04176	1.22555	-0.07956
3911.000	1.58515	0.03778	1.21765	-0.15514
3912.000	1.53774	0.02983	1.22358	-0.12928
3913.000	1.55947	0.02983	1.23741	-0.09746
3914.000	1.54959	0.03779	1.22753	-0.13525
3915.000	1.55947	0.01790	1.26508	-0.13525
3916.000	1.54169	0.02585	1.22160	-0.13127
3917.000	1.53971	0.06165	1.23148	-0.11934
3918.000	1.56342	0.03779	1.21567	-0.10542
3919.000	1.56342	0.03977	1.22753	-0.14917
3920.000	1.61281	0.05170	1.23148	-0.05967
3921.000	1.59108	0.01193	1.21963	-0.13724
3922.000	1.54169	0.02386	1.23741	-0.13923
3923.000	1.58713	0.04375	1.22951	-0.08155
3924.000	1.59898	0.05568	1.21963	-0.11934
3925.000	1.56342	0.02983	1.22358	-0.11337
3926.000	1.55947	0.01790	1.21370	-0.12332
3927.000	1.58120	0.04574	1.23939	-0.11138
3928.000	1.56540	0.06165	1.18801	-0.07359
3929.000	1.54959	0.08154	1.23148	-0.07956
3930.000	1.54564	0.06364	1.21370	-0.07160
3931.000	1.54564	0.09745	1.19987	-0.16509
3932.000	1.54959	0.05568	1.20975	-0.15315
3933.000	1.55157	0.04375	1.19987	-0.10939
3934.000	1.55947	0.04574	1.21963	-0.13127
3935.000	1.56342	0.05171	1.21567	-0.14718
3936.000	1.56540	0.04972	1.18603	-0.13326
3937.000	1.56737	0.02983	1.19591	-0.09746
3938.000	1.54762	0.00597	1.22160	-0.08553
3939.000	1.53576	0.01591	1.19591	-0.09945
3940.000	1.53379	0.03381	1.19196	-0.09945
3941.000	1.53379	0.01790	1.20777	-0.10343
3942.000	1.55157	0.05370	1.22951	-0.14122
3943.000	1.53971	0.09347	1.23741	-0.11536
3944.000	1.51798	0.01591	1.20975	-0.11536
3945.000	1.54762	0.02585	1.25322	-0.10740
3946.000	1.53576	0.06165	1.18010	-0.13127
3947.000	1.54762	0.03182	1.20579	-0.06564
3948.000	1.52589	0.05370	1.19789	-0.09547
3949.000	1.51403	0.03182	1.22358	-0.08354
3950.000	1.53576	0.05966	1.20184	-0.12730
3951.000	1.52786	0.01989	1.18603	-0.07757
3952.000	1.53576	0.00597	1.20184	-0.12531
3953.000	1.48835	0.05966	1.16429	-0.11536
3954.000	1.54169	0.09745	1.18406	-0.10144
3955.000	1.53181	0.06165	1.18801	-0.12332
3956.000	1.51403	0.04773	1.21963	-0.08950
3957.000	1.50020	0.06961	1.16429	-0.12332
3958.000	1.51798	0.03977	1.22555	-0.12729
3959.000	1.57725	0.05568	1.18998	-0.12332
3960.000	1.53181	0.10540	1.20975	-0.15912
3961.000	1.51601	0.05966	1.22358	-0.09348
3962.000	1.52589	0.04574	1.21567	-0.12133
3963.000	1.51601	0.03977	1.25322	-0.08155
3964.000	1.52984	0.06762	1.19987	-0.10343
3965.000	1.53774	0.07955	1.19394	-0.10741
3966.000	1.53181	0.06364	1.19196	-0.05768
3967.000	1.50415	0.06762	1.20579	-0.10144
3968.000	1.53181	0.06762	1.18998	-0.09149
3969.000	1.51403	0.04574	1.23346	-0.09348
3970.000	1.50810	0.04773	1.19789	-0.05569
3971.000	1.53576	0.03977	1.19987	-0.10343
3972.000	1.50415	0.05171	1.20579	-0.10741
3973.000	1.48637	0.02983	1.19196	-0.13724
3974.000	1.51008	0.04972	1.20184	-0.13923
3975.000	1.52786	0.08552	1.18406	-0.08951
3976.000	1.48242	0.05569	1.18603	-0.06763
3977.000	1.53181	0.05767	1.17022	-0.12730
3978.000	1.50020	0.06165	1.22358	-0.13923
3979.000	1.49230	0.05767	1.18801	-0.13923
3980.000	1.50810	0.02784	1.18406	-0.09547
3981.000	1.52984	0.05568	1.20184	-0.11934
3982.000	1.50613	0.05568	1.18801	-0.11735
3983.000	1.48835	0.07955	1.18998	-0.17304
3984.000	1.53181	0.04773	1.18801	-0.12730
3985.000	1.51008	0.05370	1.21172	-0.15116
3986.000	1.48440	0.05569	1.20975	-0.12531
3987.000	1.51601	0.08154	1.18208	-0.08553
3988.000	1.49625	0.04574	1.15441	-0.10741
3989.000	1.48637	0.05171	1.20777	-0.10939
3990.000	1.50020	0.05767	1.20184	-0.07558
3991.000	1.51601	0.11137	1.17615	-0.08354
3992.000	1.48835	0.06563	1.17220	-0.06564
3993.000	1.45871	0.06762	1.16627	-0.11735
3994.000	1.49230	0.02784	1.21765	-0.17901
3995.000	1.49625	0.05370	1.21370	-0.10144
3996.000	1.47452	0.05569	1.18010	-0.14122
3997.000	1.51403	0.07955	1.20975	-0.10144
3998.000	1.49823	0.05767	1.19196	-0.11337
3999.000	1.50020	0.04773	1.21765	-0.11735
4000.000	1.50020	0.09148	1.19394	-0.06564
4001.000	1.45674	0.08353	1.17813	-0.11536
4002.000	1.48637	0.01591	1.18208	-0.08354
4003.000	1.49625	0.09546	1.12477	-0.13923
4004.000	1.42117	0.02585	1.18801	-0.10741
4005.000	1.48242	0.03779	1.16034	-0.12730
4006.000	1.47254	0.06364	1.18603	-0.08752
4007.000	1.46662	0.02983	1.17813	-0.08553
4008.000	1.45871	0.03182	1.14453	-0.09746
4009.000	1.44093	0.04574	1.16429	-0.08553
4010.000	1.49230	0.05370	1.17813	-0.08155
4011.000	1.46662	0.03978	1.17220	-0.05569
4012.000	1.48637	0.05767	1.16825	-0.06763
4013.000	1.45674	0.05171	1.18208	-0.07956
4014.000	1.45871	0.06762	1.17813	-0.15912
4015.000	1.45081	0.06364	1.16825	-0.14321
4016.000	1.47254	0.03779	1.16429	-0.12730
4017.000	1.42315	0.03580	1.15639	-0.10940
4018.000	1.43896	0.02387	1.17813	-0.10940
4019.000	1.44291	0.01392	1.15046	-0.05171
4020.000	1.47847	0.07756	1.13070	-0.07956
4021.000	1.44686	0.05569	1.12872	-0.15117
4022.000	1.45674	0.03182	1.15639	-0.11735
4023.000	1.43303	0.02387	1.15046	-0.11337
4024.000	1.44488	0.02585	1.12872	-0.11735
4025.000	1.40734	0.04574	1.16627	-0.14918
4026.000	1.45674	0.07557	1.15441	-0.06962
4027.000	1.43303	0.01989	1.16034	-0.13923
4028.000	1.45279	0.07756	1.14256	-0.11338
4029.000	1.46266	0.10342	1.15837	-0.12133
4030.000	1.43303	0.04177	1.15639	-0.12730
4031.000	1.44291	0.05966	1.15441	-0.12531
4032.000	1.44488	0.02585	1.14453	-0.13327
4033.000	1.46266	0.00796	1.13268	-0.14321
4034.000	1.43896	-0.03779	1.16825	-0.15912
4035.000	1.44686	0.03381	1.15046	-0.11735
4036.000	1.46069	0.02585	1.17220	-0.14321
4037.000	1.42908	-0.05171	1.16232	-0.14321
4038.000	1.47452	-0.02188	1.16627	-0.07558
4039.000	1.44093	-0.00597	1.16627	-0.12332
4040.000	1.43303	-0.04972	1.17022	-0.15117
4041.000	1.42710	-0.02585	1.17615	-0.11735
4042.000	1.44488	0.01193	1.17220	-0.17106
4043.000	1.40142	0.01392	1.18406	-0.18100
4044.000	1.35004	0.00994	1.11489	-0.22277
4045.000	1.28681	0.02188	1.07339	-0.21880
4046.000	1.23544	0.09945	0.92713	-0.24268
4047.000	1.04967	0.06763	0.85598	-0.15516
4048.000	0.88958	0.10543	0.77296	-0.10543
4049.000	0.71168	0.05968	0.67017	-0.01194
4050.000	0.58122	0.06565	0.46261	-0.09151
4051.000	0.44679	0.12334	0.31236	-0.07759
4052.000	0.32225	0.09151	0.22142	-0.06366
4053.000	0.17991	0.11539	0.12455	-0.08555
4054.000	0.10083	0.15518	0.08699	-0.07759
4055.000	0.04547	0.15915	-0.06722	-0.07759
4056.000	-0.02372	0.15518	-0.12653	-0.12136
4057.000	-0.09687	0.11738	-0.20561	-0.15915
4058.000	-0.12455	0.09549	-0.23329	-0.11340
4059.000	-0.16607	0.06565	-0.23922	-0.11539
4060.000	-0.18781	0.05371	-0.25701	-0.16910
4061.000	-0.19770	-0.01194	-0.25503	-0.12533
4062.000	-0.16804	0.06167	-0.27282	-0.06366
4063.000	-0.11467	-0.00796	-0.26294	-0.06565
4064.000	-0.13444	-0.01989	-0.29259	-0.10345
4065.000	-0.08501	-0.02984	-0.25503	-0.09549
4066.000	0.00000	-0.02586	-0.26294	-0.06366
4067.000	0.01582	-0.02387	-0.22933	-0.11340
4068.000	0.06722	-0.03581	-0.21747	-0.15319
4069.000	0.14234	-0.06167	-0.17398	-0.13528
4070.000	0.22340	-0.05570	-0.14827	-0.18502
4071.000	0.28073	-0.10942	-0.11071	-0.20093
4072.000	0.27876	-0.13926	-0.06326	-0.19894
4073.000	0.33016	-0.07560	-0.01582	-0.24669
4074.000	0.41319	-0.06167	0.04152	-0.21685
4075.000	0.40330	-0.11538	0.02768	-0.20491
4076.000	0.43691	-0.04576	0.04152	-0.18502
4077.000	0.42900	-0.07361	0.07315	-0.21884
4078.000	0.46261	-0.05968	0.08699	-0.15915
4079.000	0.46063	-0.00995	0.09687	-0.20889
4080.000	0.42900	-0.04178	0.08501	-0.15120
4081.000	0.45272	0.03780	0.08303	-0.13528
4082.000	0.37563	-0.03581	0.05536	-0.13528
4083.000	0.38551	0.05172	0.04349	-0.16114
4084.000	0.32422	-0.01989	0.04745	-0.10544
4085.000	0.29852	0.03183	0.01582	-0.15518
4086.000	0.29655	0.01790	0.00989	-0.10146
4087.000	0.23526	0.03979	-0.00989	-0.14921
4088.000	0.21549	0.02387	-0.01977	-0.13926
4089.000	0.21549	0.09549	-0.09490	-0.11141
4090.000	0.19770	0.03780	-0.04745	-0.10146
4091.000	0.18979	-0.00796	-0.06524	-0.11141
4092.000	0.15816	0.03382	-0.07710	-0.14722
4093.000	0.17595	0.02785	-0.08501	-0.13329
4094.000	0.14827	0.00796	-0.11071	-0.11738
4095.000	0.14037	0.01194	-0.09687	-0.15716
4096.000	0.14827	0.00597	-0.09292	-0.15518
4097.000	0.14432	-0.00199	-0.10083	-0.14722
4098.000	0.13444	0.02387	-0.10083	-0.16313
4099.000	0.15816	0.03581	-0.09687	-0.15915
4100.000	0.17200	0.03382	-0.14432	-0.14324
4101.000	0.18188	0.05769	-0.12850	-0.11937
4102.000	0.18386	0.04178	-0.09687	-0.17109
4103.000	0.16014	0.07560	-0.09490	-0.14722
4104.000	0.15223	0.06366	-0.12257	-0.18104
4105.000	0.16211	0.07162	-0.12653	-0.17109
4106.000	0.15421	0.00995	-0.17200	-0.17109
4107.000	0.19572	0.05371	-0.13048	-0.16711
4108.000	0.18386	0.03581	-0.12257	-0.17507
4109.000	0.19177	0.03979	-0.14037	-0.19098
4110.000	0.16014	0.02586	-0.11269	-0.14324
4111.000	0.20165	0.01790	-0.13246	-0.14324
4112.000	0.18386	0.05371	-0.12850	-0.16512
4113.000	0.22538	0.06565	-0.10676	-0.14324
4114.000	0.19968	0.04178	-0.12455	-0.16512
4115.000	0.19375	0.01393	-0.12455	-0.16114
4116.000	0.22735	0.01592	-0.13246	-0.17905
4117.000	0.23329	0.05968	-0.13444	-0.12533
4118.000	0.21154	0.02785	-0.13246	-0.17905
4119.000	0.19770	0.03581	-0.10280	-0.15716
4120.000	0.21747	0.02785	-0.13839	-0.17507
4121.000	0.20956	0.01194	-0.12257	-0.16512
4122.000	0.20758	0.03183	-0.15421	-0.19496
4123.000	0.23526	0.03979	-0.14037	-0.20690
4124.000	0.24910	0.09151	-0.15816	-0.09350
4125.000	0.20758	0.01393	-0.16014	-0.15120
4126.000	0.20561	0.04974	-0.11862	-0.14921
4127.000	0.22142	0.03382	-0.14432	-0.20093
4128.000	0.20956	0.05769	-0.15025	-0.15716
4129.000	0.22735	0.04576	-0.12257	-0.14324
4130.000	0.22142	0.03581	-0.10874	-0.14921
4131.000	0.23724	0.03382	-0.13641	-0.14523
4132.000	0.22142	0.05570	-0.12653	-0.12533
4133.000	0.20956	0.04178	-0.10676	-0.12732
4134.000	0.19177	0.02188	-0.13641	-0.14324
4135.000	0.24119	0.02984	-0.11664	-0.13926
4136.000	0.19968	0.00995	-0.13246	-0.13727
4137.000	0.19572	0.01790	-0.13246	-0.13926
4138.000	0.19770	0.03780	-0.13641	-0.15915
4139.000	0.16211	0.03979	-0.11269	-0.13727
4140.000	0.20363	0.03780	-0.11862	-0.10146
4141.000	0.19177	-0.00796	-0.11862	-0.14722
4142.000	0.22735	0.00796	-0.13444	-0.11937
4143.000	0.15223	-0.00995	-0.11862	-0.12732
4144.000	0.21945	0.03581	-0.09885	-0.13329
4145.000	0.20758	0.04178	-0.08303	-0.09549
4146.000	0.18188	-0.03979	-0.10874	-0.12533
4147.000	0.18386	-0.01393	-0.12060	-0.10345
4148.000	0.20758	0.01790	-0.14234	-0.07958
4149.000	0.23131	0.00796	-0.11269	-0.10146
4150.000	0.24317	-0.00597	-0.07908	-0.12136
4151.000	0.18781	0.00398	-0.10083	-0.09549
4152.000	0.18188	-0.00796	-0.09292	-0.08356
4153.000	0.17991	-0.03183	-0.08699	-0.10942
4154.000	0.18386	0.00995	-0.10083	-0.13926
4155.000	0.13641	-0.01790	-0.09490	-0.13528
4156.000	0.18188	0.02387	-0.11269	-0.11937
4157.000	0.17398	0.00597	-0.06920	-0.06764
4158.000	0.19968	0.04178	-0.08699	-0.09748
4159.000	0.20956	0.03183	-0.07710	-0.12136
4160.000	0.17002	0.03979	-0.09885	-0.10743
4161.000	0.19968	0.02984	-0.07315	-0.13926
4162.000	0.18386	0.07958	-0.07117	-0.13926
4163.000	0.16804	0.01989	-0.07710	-0.12136
4164.000	0.21747	0.03979	-0.05338	-0.14523
4165.000	0.20956	0.02188	-0.07315	-0.10942
4166.000	0.17991	0.03780	-0.09490	-0.11539
4167.000	0.19375	0.06565	-0.04547	-0.12931
4168.000	0.21747	0.07958	-0.07908	-0.12732
4169.000	0.22933	0.06764	-0.09885	-0.14523
4170.000	0.22735	0.10544	-0.10874	-0.17706
4171.000	0.21945	0.05371	-0.07908	-0.17109
4172.000	0.22142	0.10146	-0.07710	-0.14921
4173.000	0.20363	0.07759	-0.09490	-0.16711
4174.000	0.22142	0.08952	-0.06722	-0.15915
4175.000	0.25503	0.09151	-0.09094	-0.13926
4176.000	0.23329	0.10146	-0.07315	-0.14722
4177.000	0.23526	0.13727	-0.08501	-0.18502
4178.000	0.27085	0.10544	-0.07513	-0.20292
4179.000	0.22735	0.09549	-0.10083	-0.20889
4180.000	0.24317	0.12135	-0.07908	-0.17308
4181.000	0.25701	0.09350	-0.09885	-0.15716
4182.000	0.24515	0.10743	-0.09490	-0.20292
4183.000	0.25503	0.11738	-0.09885	-0.20491
4184.000	0.26887	0.09947	-0.11467	-0.20093
4185.000	0.27085	0.11141	-0.10874	-0.18303
4186.000	0.27876	0.12334	-0.12455	-0.25465
4187.000	0.26294	0.12732	-0.07908	-0.19099
4188.000	0.26492	0.10743	-0.11664	-0.19098
4189.000	0.27085	0.10544	-0.09292	-0.16114
4190.000	0.24515	0.11340	-0.13246	-0.18303
4191.000	0.25899	0.08952	-0.12653	-0.19894
4192.000	0.24712	0.10146	-0.09490	-0.22878
4193.000	0.23526	0.07162	-0.13839	-0.22282
4194.000	0.22933	0.08356	-0.13246	-0.23077
4195.000	0.24119	0.09947	-0.13246	-0.21685
4196.000	0.26096	0.06963	-0.14827	-0.27852
4197.000	0.25108	0.09748	-0.12653	-0.20889
4198.000	0.22538	0.05769	-0.14234	-0.25862
4199.000	0.24712	0.05570	-0.17991	-0.28250
4200.000	0.20165	0.06366	-0.14432	-0.24868
4201.000	0.25701	0.10544	-0.15223	-0.26061
4202.000	0.24712	0.08356	-0.16607	-0.25465
4203.000	0.23131	0.06565	-0.11071	-0.20690
4204.000	0.20956	0.10345	-0.13641	-0.26658
4205.000	0.20956	0.07759	-0.13839	-0.22878
4206.000	0.28666	0.11936	-0.14630	-0.25067
4207.000	0.24119	0.07560	-0.09687	-0.25862
4208.000	0.27085	0.08952	-0.15025	-0.24868
4209.000	0.22142	0.05570	-0.13444	-0.21685
4210.000	0.25305	0.07958	-0.16211	-0.23873
4211.000	0.26689	0.08157	-0.12653	-0.22679
4212.000	0.25503	0.07361	-0.14037	-0.24868
4213.000	0.27480	0.12533	-0.12850	-0.21884
4214.000	0.26294	0.07162	-0.11664	-0.21486
4215.000	0.27085	0.05570	-0.12653	-0.23674
4216.000	0.28666	0.09151	-0.11269	-0.23475
4217.000	0.28864	0.09549	-0.10874	-0.18104
4218.000	0.26887	0.05570	-0.12850	-0.25465
4219.000	0.24515	0.02984	-0.14037	-0.25465
4220.000	0.25305	0.07162	-0.10478	-0.26260
4221.000	0.25503	0.11738	-0.10676	-0.24868
4222.000	0.24910	0.08157	-0.13246	-0.26658
4223.000	0.26887	0.07560	-0.12653	-0.23276
4224.000	0.25503	0.08554	-0.08897	-0.20690
4225.000	0.23526	0.10345	-0.11071	-0.21884
4226.000	0.25899	0.09549	-0.10280	-0.20292
4227.000	0.25701	0.07162	-0.11269	-0.22083
4228.000	0.27678	0.05769	-0.09490	-0.22480
4229.000	0.26096	0.09151	-0.10280	-0.22083
4230.000	0.28271	0.09947	-0.12060	-0.26260
4231.000	0.25899	0.05570	-0.09094	-0.20491
4232.000	0.29655	0.09947	-0.07513	-0.22481
4233.000	0.23329	0.07759	-0.05536	-0.21088
4234.000	0.27678	0.07560	-0.05733	-0.22083
4235.000	0.25899	0.09151	-0.07908	-0.19297
4236.000	0.26689	0.05769	-0.08897	-0.19496
4237.000	0.24317	0.02387	-0.07513	-0.21685
4238.000	0.24515	0.04178	-0.07908	-0.22083
4239.000	0.25899	0.09748	-0.04943	-0.20690
4240.000	0.25108	0.01790	-0.03756	-0.21088
4241.000	0.25305	0.02188	-0.06722	-0.22679
4242.000	0.24712	0.08554	-0.04943	-0.21088
4243.000	0.25503	0.04974	-0.01779	-0.19297
4244.000	0.27678	0.10942	-0.06326	-0.23873
4245.000	0.23526	0.02984	-0.06722	-0.17905
4246.000	0.21747	0.02984	-0.04745	-0.19099
4247.000	0.21945	0.03382	-0.07117	-0.22481
4248.000	0.22933	0.01592	-0.03163	-0.17507
4249.000	0.22340	0.02586	-0.06326	-0.15518
4250.000	0.22538	0.05769	-0.03559	-0.19099
4251.000	0.24910	0.05769	-0.03361	-0.23077
4252.000	0.21945	0.05570	-0.05536	-0.18104
4253.000	0.23526	0.06565	-0.02175	-0.20491
4254.000	0.18781	0.06565	-0.05931	-0.24072
4255.000	0.20561	-0.01194	-0.04152	-0.17507
4256.000	0.22340	0.05371	-0.03559	-0.14125
4257.000	0.22142	0.00796	-0.00791	-0.17308
4258.000	0.18584	0.02387	-0.01977	-0.21884
4259.000	0.19770	0.02785	-0.02372	-0.19099
4260.000	0.18584	0.01989	-0.07710	-0.17706
4261.000	0.18979	-0.01393	-0.04152	-0.21486
4262.000	0.23526	0.00000	-0.02966	-0.15915
4263.000	0.19770	-0.02586	-0.02966	-0.18900
4264.000	0.17200	-0.03183	-0.01977	-0.22282
4265.000	0.17595	-0.01393	-0.02175	-0.20292
4266.000	0.20561	-0.00199	-0.03361	-0.21884
4267.000	0.20956	-0.00597	-0.02966	-0.17507
4268.000	0.20363	-0.00796	-0.02966	-0.17905
4269.000	0.18386	-0.02387	-0.00791	-0.13926
4270.000	0.20561	-0.05371	-0.02966	-0.13130
4271.000	0.23922	-0.04178	-0.00989	-0.17507
4272.000	0.21549	-0.05371	0.02966	-0.12533
4273.000	0.20363	-0.03581	-0.02768	-0.18701
4274.000	0.20165	-0.07560	-0.02175	-0.13926
4275.000	0.20165	-0.04974	0.00395	-0.14125
4276.000	0.17793	-0.09947	0.00198	-0.11539
4277.000	0.19375	-0.08356	-0.01384	-0.16910
4278.000	0.19770	-0.07162	-0.01384	-0.19099
4279.000	0.17200	-0.08952	-0.01186	-0.09151
4280.000	0.22538	-0.06167	-0.02372	-0.16114
4281.000	0.21945	-0.02387	-0.01582	-0.16512
4282.000	0.18386	-0.08157	0.00989	-0.19695
4283.000	0.17595	-0.08555	-0.01186	-0.18502
4284.000	0.17595	-0.06963	-0.01186	-0.14523
4285.000	0.19177	-0.09350	0.01384	-0.16910
4286.000	0.17002	-0.06565	-0.02966	-0.20889
4287.000	0.15025	-0.09549	-0.02570	-0.21884
4288.000	0.20561	-0.10345	-0.03163	-0.16711
4289.000	0.20561	-0.09748	-0.02768	-0.14921
4290.000	0.15421	-0.06366	-0.04745	-0.18701
4291.000	0.20956	-0.05172	-0.03361	-0.14921
4292.000	0.23329	-0.08555	-0.03954	-0.21287
4293.000	0.19968	-0.06764	-0.03163	-0.20292
4294.000	0.17793	-0.08952	-0.02372	-0.14324
4295.000	0.20561	-0.08952	-0.01977	-0.17507
4296.000	0.13839	-0.03979	-0.02768	-0.14722
4297.000	0.18979	-0.07759	-0.01977	-0.11340
4298.000	0.17595	-0.08356	-0.03361	-0.11340
4299.000	0.17793	-0.12135	-0.00989	-0.12136
4300.000	0.17200	-0.08753	-0.07315	-0.22282
4301.000	0.18979	-0.08157	-0.03361	-0.11340
4302.000	0.20956	-0.09947	-0.01977	-0.13926
4303.000	0.20758	-0.07361	-0.01582	-0.13727
4304.000	0.17398	-0.12931	-0.00395	-0.13130
4305.000	0.21945	-0.10743	-0.01582	-0.10345
4306.000	0.19572	-0.09350	-0.03361	-0.17507
4307.000	0.19375	-0.09151	-0.00593	-0.17308
4308.000	0.19375	-0.06366	-0.05140	-0.16313
4309.000	0.19770	-0.08753	-0.03163	-0.16512
4310.000	0.18188	-0.10146	-0.04745	-0.15717
4311.000	0.18584	-0.04377	-0.02570	-0.13926
4312.000	0.16607	-0.11340	-0.01977	-0.15915
4313.000	0.18979	-0.10544	-0.01384	-0.14921
4314.000	0.19968	-0.05173	-0.00791	-0.17706
4315.000	0.17398	-0.10942	0.00198	-0.19099
4316.000	0.20758	-0.09748	-0.02372	-0.18303
4317.000	0.21945	-0.09151	-0.01582	-0.13130
4318.000	0.19770	-0.05968	-0.02570	-0.17905
4319.000	0.17002	-0.07560	-0.01186	-0.18701
4320.000	0.20165	-0.10743	-0.00593	-0.18701
4321.000	0.18979	-0.07560	-0.01384	-0.16711
4322.000	0.21352	-0.07759	-0.04152	-0.23276
4323.000	0.19770	-0.04576	0.00000	-0.15717
4324.000	0.19770	-0.09549	-0.00395	-0.15120
4325.000	0.21154	-0.03183	-0.00198	-0.19297
4326.000	0.22142	-0.04775	-0.03559	-0.19099
4327.000	0.17595	-0.05769	-0.01186	-0.12334
4328.000	0.20956	-0.06366	0.00198	-0.19894
4329.000	0.21549	-0.05570	-0.01779	-0.16114
4330.000	0.24119	-0.00995	-0.00593	-0.17109
4331.000	0.22933	-0.02785	-0.00395	-0.17507
4332.000	0.16804	-0.07361	0.00791	-0.18502
4333.000	0.20165	-0.01393	-0.01384	-0.16910
4334.000	0.18781	-0.09748	-0.02175	-0.18701
4335.000	0.23131	-0.02586	-0.03361	-0.17706
4336.000	0.23131	-0.03183	0.01384	-0.17706
4337.000	0.25108	-0.01194	0.00395	-0.19297
4338.000	0.18386	-0.00597	-0.04349	-0.17905
4339.000	0.23526	0.00000	-0.05536	-0.22282
4340.000	0.19572	-0.03979	0.00198	-0.23873
4341.000	0.27282	0.02188	0.00000	-0.22481
4342.000	0.21945	-0.03979	-0.00791	-0.15717
4343.000	0.20561	-0.02785	-0.02175	-0.18701
4344.000	0.24119	-0.00597	-0.04152	-0.19894
4345.000	0.25701	-0.04775	-0.02768	-0.23276
4346.000	0.25899	-0.02785	-0.03163	-0.21287
4347.000	0.24515	0.03780	-0.00989	-0.16512
4348.000	0.25305	0.02785	-0.02372	-0.16512
4349.000	0.23131	-0.03581	-0.03559	-0.18303
4350.000	0.24317	-0.01592	-0.04745	-0.15915
4351.000	0.28666	0.03581	-0.05733	-0.17109
4352.000	0.26689	0.00796	-0.02966	-0.18104
4353.000	0.32620	0.00597	-0.00593	-0.16512
4354.000	0.26887	0.00398	-0.00593	-0.17706
4355.000	0.27480	0.00597	-0.03361	-0.21685
4356.000	0.27282	0.01989	-0.04349	-0.17905
4357.000	0.26887	0.00398	-0.00791	-0.23873
4358.000	0.25503	-0.00199	-0.03361	-0.22282
4359.000	0.30643	0.02984	-0.03361	-0.26658
4360.000	0.27876	0.01393	-0.06326	-0.24271
4361.000	0.26887	0.00199	-0.04745	-0.25266
4362.000	0.25701	-0.00199	-0.01186	-0.23475
4363.000	0.27678	-0.00199	-0.01186	-0.22878
4364.000	0.25305	-0.00597	-0.03163	-0.24669
4365.000	0.28864	0.04576	-0.04745	-0.21287
4366.000	0.30050	-0.02387	-0.01186	-0.22679
4367.000	0.30643	0.00995	-0.02175	-0.24470
4368.000	0.28864	0.00000	-0.00593	-0.24470
4369.000	0.35388	0.02785	0.03163	-0.21486
4370.000	0.27678	-0.02188	0.01582	-0.21486
4371.000	0.31632	-0.02984	-0.02175	-0.20690
4372.000	0.30050	-0.02586	-0.01384	-0.24470
4373.000	0.31632	-0.00398	-0.01977	-0.23873
4374.000	0.29457	0.00000	-0.03163	-0.23276
4375.000	0.32818	0.01592	-0.03361	-0.21287
4376.000	0.28666	-0.03382	-0.03559	-0.19297
4377.000	0.30841	-0.01393	-0.05140	-0.21287
4378.000	0.33411	0.06167	-0.02768	-0.22679
4379.000	0.30446	0.02984	-0.00593	-0.22481
4380.000	0.30841	-0.01194	-0.03756	-0.25465
4381.000	0.29655	0.02586	-0.01977	-0.23674
4382.000	0.29655	-0.00796	-0.05733	-0.21287
4383.000	0.30050	-0.01393	-0.01186	-0.23674
4384.000	0.31236	-0.03581	-0.03559	-0.22878
4385.000	0.33016	-0.00199	-0.01384	-0.20889
4386.000	0.31434	0.03183	-0.03361	-0.18502
4387.000	0.31632	0.02387	-0.05733	-0.20093
4388.000	0.31829	-0.00796	-0.00395	-0.18104
4389.000	0.31039	-0.03581	-0.00593	-0.23077
4390.000	0.32620	-0.01194	0.00000	-0.25266
4391.000	0.31039	-0.03979	-0.03361	-0.14921
4392.000	0.31434	-0.03183	0.01779	-0.20093
4393.000	0.31632	-0.01989	-0.01186	-0.24271
4394.000	0.29062	-0.03183	-0.00989	-0.19894
4395.000	0.33411	-0.00796	-0.01977	-0.23077
4396.000	0.30050	-0.04576	-0.00791	-0.16910
4397.000	0.30841	-0.02387	-0.02570	-0.23873
4398.000	0.35783	0.01393	-0.05338	-0.19099
4399.000	0.30841	-0.01194	-0.03559	-0.18303
4400.000	0.32027	-0.02387	-0.04547	-0.20491
4401.000	0.28666	-0.04178	-0.06524	-0.22282
4402.000	0.30446	-0.05172	-0.03559	-0.19297
4403.000	0.28271	-0.02984	-0.02570	-0.19297
4404.000	0.35190	-0.03979	-0.01779	-0.17507
4405.000	0.32225	-0.07162	-0.00593	-0.18303
4406.000	0.30248	-0.01592	-0.03361	-0.16114
4407.000	0.30446	-0.04974	-0.02175	-0.13926
4408.000	0.33609	-0.06565	-0.01779	-0.15915
4409.000	0.32027	-0.00199	0.01186	-0.17706
4410.000	0.32422	-0.01592	0.00395	-0.14125
4411.000	0.34202	-0.00597	0.04152	-0.14722
4412.000	0.33016	-0.05570	-0.00989	-0.13926
4413.000	0.35981	-0.00995	0.00791	-0.17905
4414.000	0.32422	-0.03183	-0.00395	-0.16910
4415.000	0.30446	-0.03382	0.00198	-0.17308
4416.000	0.31829	-0.00995	-0.00593	-0.17905
4417.000	0.31039	-0.03979	-0.01582	-0.13727
4418.000	0.32225	-0.04974	-0.00395	-0.15915
4419.000	0.27876	-0.04178	0.00395	-0.15915
4420.000	0.30643	-0.02188	-0.03163	-0.17706
4421.000	0.32620	-0.02785	-0.01384	-0.16512
4422.000	0.32620	0.02586	-0.01977	-0.16114
4423.000	0.30643	-0.04775	0.00791	-0.18701
4424.000	0.34597	0.02586	0.00000	-0.20093
4425.000	0.37365	-0.04178	-0.03163	-0.14921
4426.000	0.35388	-0.04973	0.01384	-0.15717
4427.000	0.34004	-0.04178	-0.02175	-0.18303
4428.000	0.32027	-0.04974	-0.00395	-0.16512
4429.000	0.37167	-0.01393	0.00989	-0.13727
4430.000	0.34597	-0.00597	-0.03361	-0.15319
4431.000	0.30446	-0.02984	-0.00593	-0.14722
4432.000	0.34399	-0.00398	-0.01186	-0.16512
4433.000	0.33806	-0.02387	-0.01779	-0.14523
4434.000	0.31236	-0.01393	-0.02570	-0.17706
4435.000	0.30841	-0.02586	-0.03163	-0.18502
4436.000	0.32422	-0.02785	-0.02966	-0.18303
4437.000	0.33213	0.01194	0.01582	-0.13926
4438.000	0.31236	-0.00995	-0.01977	-0.17706
4439.000	0.32620	-0.00398	-0.02175	-0.24470
4440.000	0.30446	0.01393	-0.03954	-0.21685
4441.000	0.36179	-0.01592	0.01582	-0.21486
4442.000	0.35190	0.03581	-0.03163	-0.22083
4443.000	0.33806	-0.00398	0.00593	-0.18502
4444.000	0.34004	-0.04377	-0.03954	-0.19695
4445.000	0.34202	0.00000	-0.01186	-0.22282
4446.000	0.30841	-0.05371	-0.00791	-0.20690
4447.000	0.34004	0.02188	-0.01384	-0.22481
4448.000	0.31434	-0.04178	-0.01582	-0.16711
4449.000	0.33016	-0.01194	-0.04152	-0.22878
4450.000	0.35388	-0.02188	0.00000	-0.23674
4451.000	0.32225	-0.03382	0.02372	-0.24271
4452.000	0.34993	-0.00597	-0.00593	-0.21486
4453.000	0.33016	-0.02586	-0.01582	-0.23475
4454.000	0.32225	-0.04775	-0.01582	-0.24669
4455.000	0.34993	-0.02984	-0.05140	-0.22282
4456.000	0.35190	-0.01194	-0.02966	-0.22878
4457.000	0.33016	0.00000	-0.02966	-0.23276
4458.000	0.36574	-0.02984	-0.01582	-0.18104
4459.000	0.33213	-0.00995	-0.02175	-0.27852
4460.000	0.33806	-0.00597	-0.03559	-0.24470
4461.000	0.37563	-0.03780	0.00593	-0.16512
4462.000	0.34202	0.01194	-0.00593	-0.18104
4463.000	0.31039	0.00597	0.00395	-0.19894
4464.000	0.32027	-0.00199	-0.03361	-0.17706
4465.000	0.32818	-0.02188	-0.03954	-0.19695
4466.000	0.31039	0.00796	-0.01582	-0.16711
4467.000	0.32027	-0.02785	-0.01186	-0.19695
4468.000	0.34597	-0.00398	-0.01779	-0.19099
4469.000	0.34004	-0.02188	0.00198	-0.17905
4470.000	0.33609	-0.03382	0.01779	-0.20889
4471.000	0.31632	-0.04974	0.00791	-0.19894
4472.000	0.32818	-0.02984	-0.00791	-0.22679
4473.000	0.30841	-0.01592	-0.02175	-0.22481
4474.000	0.33411	-0.01989	-0.01384	-0.18104
4475.000	0.32225	-0.05769	-0.00198	-0.18104
4476.000	0.34399	-0.04576	0.00000	-0.18303
4477.000	0.31236	-0.04775	-0.03361	-0.18900
4478.000	0.33016	-0.03382	-0.02175	-0.17308
4479.000	0.35981	-0.03979	0.00989	-0.17706
4480.000	0.32620	-0.06764	-0.02768	-0.19297
4481.000	0.33016	-0.04377	-0.00791	-0.19297
4482.000	0.32620	-0.03382	-0.03163	-0.16313
4483.000	0.29259	-0.06167	0.01977	-0.15518
4484.000	0.30446	-0.04178	0.02768	-0.13329
4485.000	0.35783	-0.03382	-0.02372	-0.17308
4486.000	0.31039	-0.03979	0.04547	-0.17308
4487.000	0.34004	-0.07361	0.02570	-0.20491
4488.000	0.33806	-0.04377	0.02175	-0.15915
4489.000	0.35190	0.00398	0.00395	-0.11937
4490.000	0.36179	-0.02188	-0.01779	-0.15915
4491.000	0.34202	-0.06764	-0.01186	-0.18104
4492.000	0.34399	-0.04576	0.00395	-0.19496
4493.000	0.31236	-0.05769	-0.02175	-0.18900
4494.000	0.29852	-0.06764	-0.03756	-0.16313
4495.000	0.30841	-0.04576	-0.00198	-0.22083
4496.000	0.29852	-0.10942	-0.01186	-0.15518
4497.000	0.32620	-0.07361	0.00791	-0.17308
4498.000	0.30248	-0.02387	0.00791	-0.20093
4499.000	0.35388	-0.00199	-0.00593	-0.15120
4500.000	0.32422	0.00398	0.00791	-0.17905
4501.000	0.36179	-0.02387	0.00000	-0.16313
4502.000	0.32620	-0.06764	-0.00198	-0.19496
4503.000	0.32620	-0.04974	-0.01186	-0.16910
4504.000	0.34399	-0.00995	0.01186	-0.12136
4505.000	0.34597	0.00597	-0.00198	-0.17905
4506.000	0.32818	-0.02984	0.02175	-0.19496
4507.000	0.32422	-0.03183	-0.01582	-0.16313
4508.000	0.29655	-0.05172	-0.00593	-0.16910
4509.000	0.34202	-0.04178	0.01779	-0.15518
4510.000	0.33411	-0.02188	-0.00198	-0.14921
4511.000	0.33411	-0.04178	0.00000	-0.19099
4512.000	0.30643	-0.03382	-0.00198	-0.19297
4513.000	0.30248	-0.07560	0.01977	-0.13926
4514.000	0.35783	-0.01194	-0.00989	-0.16114
4515.000	0.34202	-0.04178	0.00791	-0.16313
4516.000	0.32422	-0.01989	0.01779	-0.16910
4517.000	0.32422	-0.02387	0.02175	-0.15915
