time (ms)	lx (deg)	ly (deg)	rx (deg)	ry (deg)
0.000	-0.88198	1.89436	-0.14173	1.41621
3.996	-0.90833	1.85806	-0.11895	1.22979
7.997	-0.93224	0.77209	-0.21686	0.87876
11.999	-0.86771	-0.11407	-0.13486	-0.59623
16.002	-0.94147	-0.35723	0.04844	-0.74710
19.997	-0.97933	-0.11804	0.10788	-0.91348
24.001	-0.94336	0.07580	0.07626	-0.69520
27.994	-0.86763	-0.10746	-0.03221	-0.67226
32.008	-0.88294	-0.14344	-0.01534	-0.51998
35.997	-0.89972	-0.11568	-0.03914	-0.52356
40.000	-0.81985	-0.16640	-0.10744	-0.49503
43.995	-0.67270	-0.12583	-0.16236	-0.38583
48.000	-0.68692	-0.16255	-0.06482	-0.37127
51.996	-0.65804	-0.14744	-0.02554	-0.38921
55.998	-0.61744	-0.13311	-0.05060	-0.30022
59.995	-0.65816	-0.10722	-0.09423	-0.30336
64.000	-0.65203	-0.08672	-0.13486	-0.31799
67.998	-0.65332	-0.09392	-0.13583	-0.33976
71.997	-0.67891	-0.10066	-0.12079	-0.32835
76.006	-0.66836	-0.09358	-0.10930	-0.35243
79.995	-0.62670	-0.06766	-0.09664	-0.45224
83.999	-0.52287	-0.03511	-0.04420	-0.46390
87.995	-0.52868	-0.00887	-0.04785	-0.50783
92.000	-0.55553	-0.00522	-0.04035	-0.53538
95.997	-0.59347	0.02259	-0.04785	-0.54696
99.998	-0.53682	0.05785	-0.00566	-0.62347
103.993	-0.46664	0.11723	0.05023	-0.67589
108.008	-0.40948	0.15953	0.12734	-0.69368
112.000	-0.32096	0.09813	0.23559	-0.69345
116.003	-0.26252	0.07060	0.27466	-0.73062
119.997	-0.20187	0.00750	0.35119	-0.71702
123.993	-0.28391	-0.07872	0.39919	-0.68122
128.000	-0.30684	-0.13128	0.39325	-0.62005
131.997	-0.31761	-0.15851	0.46242	-0.60752
136.000	-0.35395	-0.11192	0.45160	-0.56628
139.995	-0.34930	-0.19673	0.46549	-0.50943
143.996	-0.35340	-0.19777	0.41646	-0.51778
147.995	-0.37370	-0.27877	0.36072	-0.45666
151.994	-0.45403	-0.31291	0.28200	-0.36319
156.005	-0.49671	-0.38862	0.18412	-0.30894
159.998	-0.53317	-0.34911	-0.01186	-0.36230
163.999	-0.57592	-0.32702	-0.03787	-0.36630
167.993	-0.53004	-0.26632	-0.13776	-0.32480
171.996	-0.53669	-0.22714	-0.12322	-0.39263
175.995	-0.53577	-0.21290	-0.12476	-0.50306
179.996	-0.56416	-0.18517	-0.10299	-0.53223
183.994	-0.54582	-0.12923	-0.05425	-0.53655
187.996	-0.54354	-0.08083	-0.02152	-0.56498
191.997	-0.51977	0.04975	0.00161	-0.60294
196.044	-0.49701	0.10088	0.00963	-0.63534
199.993	-0.41418	0.11455	0.00995	-0.64727
203.998	-0.52342	0.13073	0.02040	-0.64106
207.993	-0.54357	0.09701	0.03946	-0.66734
211.993	-0.61327	0.12834	0.09185	-0.70580
215.991	-0.57692	0.14476	0.11044	-0.66903
219.997	-0.59032	0.16243	0.13245	-0.60863
223.993	-0.47560	0.16022	0.13027	-0.61775
227.997	-0.24138	0.19385	0.15022	-0.55459
231.988	-0.08746	0.29029	0.32776	-0.51530
236.002	-0.03735	0.39055	0.41080	-0.43181
239.998	-0.23820	0.24523	0.39668	-0.36107
244.010	-0.19549	0.29423	0.51681	-0.40383
247.993	-0.23192	0.38809	0.55381	-0.37393
251.998	-0.04571	0.45411	0.67955	-0.30092
255.998	-0.00122	0.44109	0.61935	-0.27407
259.992	0.04509	0.46981	0.67422	-0.23319
263.997	0.08567	0.44409	0.70623	-0.25511
267.991	0.14327	0.53697	0.74670	-0.24556
271.994	0.17799	0.53354	0.79709	-0.25634
275.992	0.25569	0.44218	0.79109	-0.26643
279.996	0.24758	0.35250	0.79866	-0.29538
284.002	0.30808	0.35185	0.84282	-0.30429
287.994	0.32215	0.28042	0.88093	-0.25517
291.995	0.32337	0.24031	0.87880	-0.23942
295.997	0.32086	0.17605	0.84079	-0.25761
299.991	0.28741	0.15772	0.88962	-0.28081
303.996	0.19271	0.09008	0.88289	-0.31100
307.990	0.15077	0.10275	0.77493	-0.27488
311.993	0.12396	0.06272	0.77652	-0.26069
315.995	0.10386	0.06307	0.79344	-0.27423
320.001	0.03221	0.02684	0.76588	-0.32179
323.995	0.00372	0.07788	0.77754	-0.41479
327.990	-0.03544	0.06493	0.81868	-0.49446
331.992	-0.05852	0.03698	0.73819	-0.60108
335.994	-0.07505	0.04373	0.73757	-0.62058
339.995	-0.11424	0.04540	0.79578	-0.62698
343.989	-0.11776	-0.01421	0.84528	-0.61970
347.992	-0.09808	0.04127	0.90133	-0.65459
351.994	-0.06815	0.07842	0.95802	-0.69167
355.996	-0.06669	-0.00184	0.93626	-0.73495
359.987	-0.08478	-0.03203	0.91961	-0.78170
363.996	-0.08088	-0.05584	0.96244	-0.78420
368.027	-0.06654	-0.06364	0.98819	-0.78435
372.014	-0.10572	-0.06518	0.97884	-0.77171
375.997	-0.16293	-0.07328	0.97184	-0.72354
379.990	-0.16020	-0.10041	0.95544	-0.66772
383.995	-0.15794	-0.13848	0.96695	-0.65433
387.991	-0.19611	-0.13555	0.91654	-0.56950
391.995	-0.20005	-0.20461	0.90041	-0.52886
395.987	-0.24966	-0.24570	0.85888	-0.52882
399.995	-0.22003	-0.24165	0.85376	-0.42613
403.998	-0.26096	-0.25480	0.87649	-0.41170
407.992	-0.28808	-0.25741	0.87962	-0.34951
411.989	-0.29702	-0.24804	0.89647	-0.28774
415.996	-0.29533	-0.24774	0.87255	-0.30369
420.022	-0.26746	-0.22501	0.76761	-0.31749
423.994	-0.23874	-0.22394	0.72466	-0.29304
427.986	-0.24562	-0.12395	0.67575	-0.28157
432.005	-0.19665	-0.12069	0.68302	-0.32865
435.998	-0.16893	-0.04339	0.56645	-0.40392
439.988	-0.15784	0.01076	0.59121	-0.44315
443.993	-0.15047	0.08672	0.62148	-0.46767
447.997	-0.10327	0.10203	0.62258	-0.44635
451.992	-0.06418	0.13684	0.72826	-0.49817
455.989	-0.05723	0.08046	0.63680	-0.48998
459.993	-0.22050	0.03417	0.66364	-0.44528
463.991	-0.21897	-0.03042	0.68377	-0.46978
467.991	-0.32436	-0.00174	0.80126	-0.51185
471.994	-0.34121	-0.13210	0.78268	-0.52515
475.990	-0.42055	-0.03173	0.77662	-0.53039
479.991	-0.48230	-0.04398	0.86647	-0.44221
483.987	-0.38340	0.00663	0.92041	-0.37594
487.999	-0.40556	0.00490	0.94738	-0.28008
491.989	-0.34973	0.07395	0.93614	-0.42260
495.990	-0.37814	0.03789	0.84952	-0.30233
499.988	-0.38511	0.05213	0.78119	-0.35367
503.994	-0.22465	0.08483	0.78595	-0.35550
507.994	-0.07435	0.05348	0.78119	-0.36184
511.987	-0.04710	-0.00862	0.71317	-0.39347
515.994	-0.12729	0.04465	0.71682	-0.39400
520.032	-0.13275	-0.00947	0.76503	-0.46294
523.998	-0.11840	-0.09532	0.72722	-0.46756
527.995	-0.01648	-0.11828	0.65938	-0.54623
531.998	-0.00087	0.02246	0.65625	-0.57890
535.987	0.03832	0.07532	0.66360	-0.60457
539.999	-0.03919	0.13013	0.67541	-0.62206
543.988	-0.07497	0.13292	0.66255	-0.63140
547.994	0.04167	-0.09808	0.72456	-0.66153
551.984	-0.05946	-0.04135	0.75074	-0.66473
555.988	-0.11895	-0.05554	0.68707	-0.64104
559.987	-0.14910	-0.01556	0.68322	-0.65318
563.987	-0.06631	0.07176	0.70037	-0.58158
567.993	-0.06961	0.17024	0.72786	-0.53395
571.995	-0.01827	0.22710	0.71394	-0.56777
575.995	-0.04207	0.21420	0.69789	-0.54464
579.992	0.02606	0.05917	0.74275	-0.52590
583.988	0.15268	0.03953	0.79079	-0.48495
588.016	-0.09185	0.02617	0.80826	-0.51431
591.990	0.00303	0.04545	0.79474	-0.43056
595.989	0.00777	0.05362	0.79563	-0.32810
599.986	0.04368	0.14494	0.81295	-0.45307
603.988	0.09349	0.18157	0.71429	-0.43852
607.987	0.08507	0.19320	0.77851	-0.37744
611.994	0.05068	0.11011	0.73503	-0.42053
615.987	0.22653	0.03086	0.80590	-0.35749
620.008	-0.03951	-0.11426	0.82828	-0.42733
623.995	-0.00715	-0.10056	0.82389	-0.49098
627.985	-0.10329	-0.10752	0.74484	-0.44443
631.987	0.07108	-0.08764	0.63789	-0.36615
636.021	0.07976	0.08282	0.60193	-0.44812
639.986	0.02067	-0.00606	0.69933	-0.52638
643.991	0.04780	-0.06309	0.62603	-0.61585
647.987	0.08411	-0.13175	0.70027	-0.59385
651.994	-0.00476	-0.17827	0.65364	-0.56146
656.023	0.07435	-0.21378	0.67270	-0.59284
659.987	0.01511	-0.24347	0.60506	-0.64726
663.991	-0.03621	-0.22998	0.63513	-0.65550
667.987	-0.01663	-0.15451	0.63466	-0.63796
671.991	0.05455	-0.10511	0.60764	-0.62547
675.992	0.04986	-0.04841	0.60957	-0.59560
679.985	0.02794	-0.05897	0.64335	-0.66186
683.986	-0.01335	-0.02453	0.65404	-0.72504
687.986	0.00479	-0.07306	0.67092	-0.67075
691.987	0.01080	-0.02366	0.68181	-0.63443
695.997	-0.02430	-0.03104	0.67861	-0.69813
699.984	-0.00452	-0.01315	0.67034	-0.63202
703.990	-0.11912	-0.08049	0.67585	-0.62842
707.987	-0.05874	0.01270	0.62585	-0.59821
711.986	0.01626	-0.01886	0.60540	-0.72606
715.983	-0.02762	-0.02574	0.67151	-0.70983
719.989	-0.07170	-0.03238	0.68553	-0.71018
724.011	-0.02971	-0.03419	0.66201	-0.70576
727.993	-0.11396	-0.09768	0.69690	-0.62339
731.984	-0.19206	-0.12372	0.61005	-0.58132
735.991	-0.16990	-0.11284	0.64216	-0.46881
739.985	-0.13233	-0.12072	0.66836	-0.53689
743.994	-0.04097	-0.11667	0.69953	-0.45350
747.988	-0.08341	0.00363	0.74675	-0.48935
751.982	-0.11992	-0.00403	0.70422	-0.46672
755.989	-0.13208	-0.06742	0.61930	-0.44800
759.986	-0.23177	0.01546	0.61305	-0.42998
763.986	-0.17206	0.09892	0.57471	-0.39845
767.985	-0.21087	0.11408	0.68928	-0.40888
771.987	-0.09339	0.05728	0.63776	-0.45863
775.985	-0.04571	0.10263	0.64682	-0.49525
779.988	-0.03916	0.09480	0.62513	-0.49880
783.994	-0.12426	0.00363	0.53029	-0.51658
787.985	-0.17109	0.12487	0.52351	-0.55280
792.019	-0.11600	0.08697	0.53523	-0.56006
795.863	-0.08793	0.02711	0.61000	-0.65247
799.858	-0.10448	0.07383	0.60069	-0.67965
803.860	-0.08480	0.04063	0.61722	-0.65853
807.868	-0.05537	0.00830	0.61913	-0.67431
811.867	-0.03134	-0.07939	0.58848	-0.66634
815.856	0.02891	-0.04065	0.64980	-0.65682
819.858	0.05194	0.09236	0.63975	-0.60151
823.866	0.04331	0.01928	0.60583	-0.59829
827.868	0.03447	0.08973	0.56622	-0.54505
831.855	-0.00238	0.02701	0.61377	-0.52159
835.890	0.03770	0.01774	0.70223	-0.55408
839.861	-0.07408	0.09159	0.67556	-0.54593
843.858	-0.03343	0.07552	0.49254	-0.49089
847.856	0.04194	0.03625	0.59873	-0.44894
851.862	-0.02306	0.23984	0.69027	-0.37444
855.858	-0.02866	0.23957	0.55136	-0.33651
859.855	-0.16308	0.16818	0.64645	-0.29789
863.857	-0.16357	0.18418	0.60913	-0.29993
867.866	-0.16509	0.17484	0.63997	-0.27812
871.858	-0.04589	0.19452	0.63086	-0.24798
875.859	-0.10840	0.18672	0.69491	-0.29817
879.856	-0.28004	0.13717	0.66317	-0.32600
883.860	-0.18621	0.21353	0.58558	-0.23849
887.856	0.00007	0.23373	0.65660	-0.24186
891.861	-0.15754	0.24931	0.61389	-0.24182
895.857	-0.10394	0.19492	0.62188	-0.22696
899.858	-0.16387	0.14939	0.60121	-0.29293
903.852	-0.06485	0.11972	0.63000	-0.34322
907.866	-0.02926	0.02405	0.53198	-0.30568
911.859	-0.08398	0.07134	0.53682	-0.34777
915.858	-0.10039	0.06095	0.53863	-0.34571
919.855	-0.11600	0.03926	0.59960	-0.34645
923.862	-0.10890	0.00832	0.56739	-0.35768
927.859	-0.05502	0.01344	0.44775	-0.31597
931.857	-0.11086	-0.07219	0.52433	-0.31477
935.857	-0.10031	-0.11145	0.61245	-0.31313
939.856	-0.08503	-0.12253	0.56992	-0.31147
943.859	-0.09875	-0.10086	0.63749	-0.27205
947.860	-0.10188	-0.12285	0.62431	-0.28632
951.858	-0.08567	-0.03094	0.62134	-0.21237
955.861	-0.07723	-0.12144	0.58992	-0.19918
959.859	-0.12719	-0.07224	0.60429	-0.22107
963.857	-0.07532	0.00321	0.47205	-0.31281
967.855	-0.09091	0.06048	0.56158	-0.20099
971.857	-0.00588	0.12395	0.55751	-0.26669
975.858	-0.02847	-0.00162	0.52686	-0.18957
979.856	-0.05889	0.13207	0.43981	-0.16877
983.861	-0.05477	0.23030	0.45244	-0.22987
987.859	-0.08302	0.14243	0.43921	-0.17217
991.859	-0.01670	0.21579	0.39886	-0.15858
995.908	0.26148	0.13582	0.40752	-0.09519
999.862	0.02353	0.08983	0.36486	-0.18030
1003.853	0.07880	0.13026	0.45507	-0.15692
1007.859	0.02727	0.16731	0.41790	-0.16584
1011.855	0.00529	0.12134	0.45180	-0.01573
1015.859	0.01315	0.06868	0.53850	0.00189
1019.851	-0.03226	0.07099	0.34883	0.00201
1023.861	0.03901	0.06404	0.49026	-0.01148
1027.856	-0.01519	0.04518	0.58793	-0.07581
1031.861	0.00367	0.02654	0.42497	0.01401
1035.859	0.08984	0.09167	0.45812	0.01702
1039.861	0.09262	0.16490	0.57151	0.07770
1043.858	-0.01152	0.13617	0.51024	-0.05017
1047.859	0.02077	0.13719	0.54441	0.01059
1051.851	0.04795	0.19551	0.33704	0.07395
1055.869	0.11545	0.11930	0.64895	0.05603
1059.857	0.15288	0.19797	0.28818	-0.00574
1063.857	0.19410	0.21855	0.66531	0.00224
1067.856	0.13967	0.09279	0.58235	-0.00360
1071.860	0.15216	0.27503	0.46373	0.02465
1075.861	0.15536	0.38411	0.51252	-0.03896
1079.854	0.11369	0.20322	0.61553	-0.05042
1083.852	0.04561	0.14283	0.55342	-0.08210
1087.858	0.07860	0.25254	0.48033	-0.08699
1091.855	0.06755	0.22160	0.53284	-0.14342
1095.859	0.04559	0.21407	0.44410	-0.17518
1099.853	0.08450	0.16472	0.57384	-0.21441
1103.859	0.02137	0.07507	0.65588	-0.11517
1107.854	-0.01588	0.08886	0.61096	-0.11303
1111.857	0.05514	0.14286	0.52974	-0.10628
1115.856	0.05991	0.15461	0.54500	-0.16084
1119.861	0.05981	0.06983	0.52374	-0.13237
1123.855	0.11314	0.03958	0.57560	-0.07979
1127.853	0.14064	0.13660	0.57848	-0.02199
1131.874	0.12367	0.12395	0.61158	-0.08550
1135.857	0.20968	0.16164	0.59761	-0.02177
1139.854	0.12096	0.10866	0.72116	0.03446
1143.853	0.10245	0.11535	0.58771	0.02497
1147.857	0.18854	0.11505	0.50602	0.04348
1151.855	0.18891	0.09003	0.46425	0.05121
1155.856	0.18268	0.04398	0.53597	0.03849
1159.856	0.15782	0.06466	0.60779	0.00348
1163.863	0.12049	0.10389	0.57287	0.04997
1167.855	0.05405	0.10158	0.63327	-0.00959
1171.850	0.14446	0.00067	0.63610	-0.05022
1175.858	0.12019	-0.11776	0.69851	-0.02567
1179.851	0.12436	-0.08071	0.72804	0.00253
1183.856	0.12657	-0.10944	0.62972	-0.10083
1187.858	0.16365	-0.07914	0.66570	-0.10776
1191.855	0.06520	0.02070	0.65337	-0.09099
1195.856	0.17233	0.04040	0.67079	-0.14506
1199.883	0.19219	0.11806	0.71821	-0.16479
1203.860	0.20594	0.17454	0.66873	-0.11534
1207.853	0.21095	0.14231	0.69109	-0.08798
1211.853	0.30344	0.10846	0.65297	-0.07084
1215.879	0.23472	0.17586	0.65955	0.01861
1219.856	0.26014	0.21223	0.64114	0.00067
1223.853	0.25239	0.19074	0.64590	-0.05643
1227.851	0.22065	0.20644	0.63761	-0.11855
1231.853	0.26689	0.16619	0.61593	-0.14086
1235.857	0.29937	0.16669	0.63806	-0.22460
1239.855	0.24036	0.23845	0.67079	-0.20556
1243.859	0.20934	0.26519	0.69352	-0.17060
1247.855	0.23363	0.26243	0.67067	-0.04485
1251.851	0.25835	0.33051	0.68898	-0.03941
1255.854	0.19675	0.29496	0.70977	-0.03792
1259.850	0.16677	0.18592	0.66600	-0.19736
1263.855	0.14891	0.17069	0.70099	-0.26065
1267.892	0.16668	0.31901	0.66886	-0.23630
1271.859	0.22529	0.18055	0.70516	-0.20690
1275.850	0.17025	0.20272	0.71712	-0.17815
1279.855	0.24068	0.18433	0.71305	-0.15882
1283.857	0.30525	0.11493	0.68484	-0.14459
1287.854	0.28146	0.04411	0.58153	-0.18442
1291.852	0.28356	0.12345	0.61089	-0.20537
1295.853	0.29602	0.09867	0.58746	-0.24545
1299.845	0.35283	0.14879	0.54329	-0.21516
1303.850	0.39028	0.12156	0.60330	-0.21096
1307.854	0.30987	0.12573	0.59235	-0.12240
1311.847	0.29699	0.12290	0.62975	-0.11057
1315.854	0.30267	0.11729	0.68283	-0.12816
1319.853	0.18482	0.12469	0.70935	-0.02269
1323.855	0.21189	0.06933	0.69178	-0.19299
1327.847	0.15610	0.05690	0.66377	-0.05702
1331.854	0.11031	0.14219	0.71156	-0.04897
1335.878	-0.02343	0.05561	0.67905	-0.02373
1339.858	-0.14064	0.00972	0.75283	-0.05630
1343.849	-0.06217	0.02224	0.79751	0.06639
1347.854	-0.04132	0.15160	0.79034	0.03059
1351.847	-0.06798	0.02259	0.79568	0.06999
1355.854	-0.01916	0.02800	0.73099	0.02062
1359.849	-0.01042	-0.05380	0.54835	0.04254
1363.853	-0.00608	-0.03158	0.72863	0.07310
1367.860	0.26776	-0.04224	0.98561	0.03416
1371.864	2.37548	-0.06331	3.85575	-0.04170
1375.853	2.82585	-0.57987	4.72970	-0.30752
1379.854	4.93755	-0.74923	5.80742	-1.44531
1383.851	5.81110	-1.33793	7.43710	-1.86428
1387.850	6.36739	-1.87545	8.32638	-2.19071
1391.848	7.06508	-1.78149	8.91844	-2.19934
1395.854	7.96334	-2.23612	9.55159	-2.28343
1399.854	8.27479	-1.88081	9.40045	-2.23091
1403.852	8.11853	-2.11826	9.23072	-2.25386
1407.859	8.12872	-2.22943	9.16859	-2.15203
1411.844	8.12833	-2.29921	8.91381	-1.90727
1415.853	8.26237	-2.17020	9.20492	-2.36876
1419.851	8.18368	-2.19889	9.23742	-2.29936
1423.853	8.30016	-2.21507	9.33190	-2.31926
1427.847	8.20308	-2.27688	9.35300	-2.22475
1431.853	8.16360	-2.27109	9.05725	-2.32199
1435.851	8.28860	-2.22419	9.18855	-2.17097
1439.844	8.19628	-2.33566	9.24085	-2.09220
1443.851	8.25936	-2.29561	9.13623	-2.20453
1447.854	8.23999	-2.26572	9.24281	-2.14338
1451.857	8.30979	-2.11400	9.22204	-2.07205
1455.844	8.23583	-2.17258	9.22052	-2.02545
1459.852	8.19455	-2.11609	9.18226	-2.14255
1463.850	8.22134	-2.19240	9.27866	-2.16723
1467.850	8.20260	-2.10222	9.17345	-2.44992
1471.899	8.19958	-2.06298	9.16687	-2.32711
1475.852	8.19980	-2.02061	9.28197	-2.45509
1479.850	8.22854	-2.07199	9.35114	-2.47759
1483.843	8.35831	-2.00163	9.24552	-2.56176
1487.852	8.29883	-2.09589	9.28584	-2.80851
1491.853	8.25513	-2.00729	9.29841	-2.62498
1495.847	8.32094	-2.11441	9.32093	-2.70132
1499.853	8.31375	-2.17333	9.36339	-2.75735
1503.847	8.42141	-2.10517	9.46249	-2.73646
1507.847	8.48915	-2.30682	9.31658	-2.77463
1511.848	8.45048	-2.24182	9.49528	-2.74977
1515.853	8.55537	-2.21147	9.49195	-2.77105
1519.849	8.55578	-2.30757	9.66528	-2.79327
1523.848	8.60344	-2.24529	9.36827	-2.91619
1527.842	8.58830	-2.34302	9.60278	-2.79293
1531.856	8.56702	-2.37133	9.48367	-2.75953
1535.848	8.60817	-2.31670	9.52031	-2.95199
1539.884	8.60890	-2.36800	9.53419	-2.87055
1543.856	8.61761	-2.29240	9.47307	-2.82913
1547.845	8.58221	-2.48835	9.53704	-2.89616
1551.846	8.65948	-2.46080	9.54747	-2.88813
1555.845	8.64306	-2.37414	9.46268	-2.90420
1559.844	8.64478	-2.47262	9.41385	-2.82751
1563.846	8.50760	-2.48688	9.40810	-2.87419
1567.845	8.63124	-2.46248	9.39685	-2.87773
1571.843	8.64665	-2.53204	9.39105	-2.90321
1575.850	8.74023	-2.48530	9.32584	-2.92905
1579.844	8.73574	-2.52744	9.33343	-2.90054
1583.849	8.67350	-2.54522	9.38100	-2.96538
1587.842	8.67517	-2.55570	9.37346	-3.04420
1591.846	8.74496	-2.54611	9.28427	-2.97758
1595.845	8.70255	-2.59025	9.28760	-2.91662
1599.848	8.67956	-2.66446	9.28507	-2.98992
1603.852	8.69780	-2.63102	9.29401	-3.09937
1607.845	8.67980	-2.63944	9.29771	-3.08374
1611.846	8.76270	-2.65346	9.26570	-2.97497
1615.849	8.75771	-2.66947	9.30602	-2.95680
1619.844	8.76983	-2.73096	9.33016	-3.08771
1623.848	8.64257	-2.73184	9.38738	-2.98423
1627.845	8.89644	-2.76682	9.34215	-2.99586
1631.845	8.76799	-2.74105	9.30041	-2.90057
1635.844	8.86059	-2.72757	9.31873	-2.87696
1639.845	8.88244	-2.72217	9.25966	-3.01829
1643.844	8.94586	-2.64273	9.34285	-3.03185
1647.751	9.07571	-2.68809	9.27059	-2.87713
1651.724	9.07339	-2.71511	9.15502	-2.96276
1655.720	8.89892	-2.70429	9.30157	-3.04422
1659.719	8.87673	-2.70389	9.22958	-3.11094
1663.723	8.97332	-2.67658	9.14269	-3.01826
1667.719	9.12894	-2.68609	9.21805	-2.98545
1671.714	9.07837	-2.71054	9.21275	-3.01629
1675.801	9.08483	-2.74102	9.18891	-3.13190
1679.724	8.94445	-2.78406	9.14668	-3.07615
1683.723	8.96499	-2.80411	9.19423	-2.97582
1687.715	8.92532	-2.81416	9.13976	-2.86890
1691.719	8.90955	-2.80382	9.16071	-2.90614
1695.721	8.96971	-2.79787	9.18429	-2.99789
1699.722	8.89303	-2.77747	9.20680	-2.99276
1703.719	8.98828	-2.72089	9.26735	-2.92019
1707.725	8.98782	-2.66190	9.32100	-2.84319
1711.732	8.92059	-2.67483	9.31680	-2.87898
1715.721	8.85555	-2.67161	9.26021	-2.93952
1719.719	8.86442	-2.67463	9.26967	-3.11115
1723.716	8.89252	-2.62776	9.26411	-3.13128
1727.717	8.92621	-2.60047	9.21599	-3.24529
1731.713	8.99169	-2.59341	9.15889	-3.31860
1735.716	8.95891	-2.65381	9.21546	-3.32947
1739.718	8.96545	-2.60046	9.14912	-3.29187
1743.756	9.02234	-2.62131	9.23778	-3.19748
1747.726	9.36969	-2.64605	10.39453	-3.26944
1751.713	10.18300	-2.64664	11.85642	-3.09477
1755.718	11.72127	-2.61428	12.71453	-3.10458
1759.718	12.45359	-2.65286	13.99104	-3.33672
1763.717	13.94630	-2.62942	14.31218	-3.51963
1767.713	14.54637	-2.62423	15.90564	-3.49623
1771.718	15.82256	-2.60170	16.48089	-3.79571
1775.721	16.28960	-2.54801	17.16525	-3.94315
1779.714	16.21540	-2.53597	17.04226	-3.67372
1783.722	16.06316	-2.63164	16.59608	-3.97438
1787.725	15.99406	-2.65172	16.44944	-3.62462
1791.723	16.14755	-2.56126	16.43750	-3.85089
1795.717	15.99755	-2.59084	16.63835	-3.86138
1799.717	16.12767	-2.65187	16.66988	-3.95033
1803.719	16.22318	-2.55068	16.58656	-3.83185
1807.718	16.10878	-2.56852	16.77047	-3.85800
1811.722	16.19116	-2.54776	16.48518	-3.78820
1815.720	16.33934	-2.47863	16.47785	-3.72900
1819.719	16.16818	-2.66607	16.61012	-3.63176
1823.716	16.20199	-2.72254	16.56747	-3.51823
1827.721	16.21405	-2.70126	16.65382	-3.46436
1831.719	16.28855	-2.71892	16.64555	-3.53713
1835.716	16.25059	-2.70935	16.60880	-3.57128
1839.743	16.26447	-2.74724	16.49510	-3.62099
1843.719	16.33765	-2.62625	16.56544	-3.41635
1847.718	16.27783	-2.61298	16.59111	-3.46753
1851.716	16.26426	-2.64392	16.54602	-3.38322
1855.711	16.26861	-2.63158	16.55509	-3.49691
1859.714	16.27275	-2.79015	16.61190	-3.45828
1863.717	16.29941	-2.78416	16.66995	-3.56431
1867.720	16.30663	-2.69468	16.64004	-3.75489
1871.737	16.29152	-2.72444	16.60830	-3.75809
1875.723	16.22988	-2.70602	16.69919	-3.68064
1879.717	16.43795	-2.67931	16.61976	-3.62005
1883.716	16.50866	-2.73979	16.61149	-3.52464
1887.715	16.38234	-2.72213	16.53338	-3.64412
1891.714	16.67277	-2.73315	16.65428	-3.61456
1895.721	16.57395	-2.66591	16.56752	-3.74629
1899.715	16.70429	-2.66205	16.61320	-3.72243
1903.714	16.43971	-2.64716	16.61714	-3.71301
1907.713	16.54814	-2.63570	16.40772	-3.57304
1911.723	16.61324	-2.71431	16.51386	-3.62237
1915.717	16.60465	-2.72709	16.54620	-3.60618
1919.716	16.55899	-2.66124	16.57064	-3.72026
1923.711	16.59699	-2.61663	16.33331	-3.64518
1927.714	16.57621	-2.57449	16.41277	-3.68529
1931.713	16.57149	-2.60222	16.47961	-3.59560
1935.719	16.57226	-2.51897	16.54732	-3.45184
1939.722	16.56905	-2.56135	16.60700	-3.59987
1943.715	16.54212	-2.65862	16.45085	-3.48932
1947.718	16.59152	-2.67557	16.32437	-3.42940
1951.716	16.60461	-2.60719	16.34252	-3.44417
1955.721	16.62947	-2.63800	16.36606	-3.49920
1959.712	16.60003	-2.52823	16.38029	-3.55780
1963.714	16.60244	-2.58312	16.33416	-3.46356
1967.715	16.57263	-2.48210	16.36626	-3.42439
1971.710	16.62774	-2.52464	16.30064	-3.43164
1975.713	16.68682	-2.60831	16.27547	-3.37917
1979.713	16.65369	-2.59603	16.23649	-3.33754
1983.714	16.63471	-2.64009	16.19313	-3.26635
1987.710	16.61762	-2.71035	16.18798	-3.28016
1991.720	16.60919	-2.66855	16.24256	-3.20092
1995.719	16.59410	-2.74981	16.23906	-3.19230
1999.723	16.59592	-2.72781	16.18679	-3.08850
2003.717	16.62537	-2.77250	16.13038	-3.03999
2007.714	16.57666	-2.73514	16.11609	-3.05825
2011.713	16.38463	-2.86197	16.06181	-3.01461
2015.713	13.99125	-2.78377	14.27296	-2.95550
2019.716	12.95829	-2.68916	13.55658	-2.87669
2023.714	11.39644	-2.68862	11.94565	-2.78123
2027.719	9.94696	-2.34155	10.30209	-2.41748
2031.714	9.33089	-2.12891	8.57981	-2.37123
2035.721	7.37350	-2.19940	8.24407	-2.36746
2039.726	7.16630	-1.96503	7.05332	-1.90703
2043.719	7.25519	-2.03988	6.75617	-1.81502
2047.714	7.13551	-1.91026	7.04037	-1.03502
2051.717	7.45858	-1.80039	7.06371	-1.39026
2055.709	7.40962	-1.79781	7.14228	-1.45453
2059.767	7.28036	-1.80579	7.26815	-1.34428
2063.718	7.34807	-1.75534	7.14641	-1.41216
2067.711	7.36345	-1.66930	6.87085	-1.27327
2071.713	7.42568	-1.66182	7.00873	-1.25712
2075.717	7.39049	-1.66009	6.83660	-1.21464
2079.720	7.36244	-1.58927	6.87523	-1.15893
2083.712	7.30273	-1.67977	6.89867	-1.09575
2087.714	7.29645	-1.63906	6.94682	-1.12530
2091.712	7.40296	-1.67789	6.83976	-1.17540
2095.706	7.38185	-1.65426	6.78221	-1.24388
2099.716	7.24779	-1.66744	6.82640	-1.30394
2103.714	7.29645	-1.65815	6.75196	-1.29798
2107.712	7.21867	-1.65417	6.73468	-1.18271
2111.711	7.33466	-1.66554	6.74293	-1.29923
2115.717	7.27807	-1.66678	6.78081	-1.42915
2119.716	7.28574	-1.60619	6.77112	-1.35430
2123.715	7.26119	-1.57104	6.84610	-1.33232
2127.717	7.27238	-1.60462	6.77621	-1.33818
2131.711	7.32319	-1.59734	6.76097	-1.34459
2135.712	7.36401	-1.51167	6.62921	-1.35776
2139.709	7.36403	-1.52083	6.75492	-1.23742
2143.710	7.33608	-1.53597	6.79883	-1.30024
2147.709	7.31137	-1.49572	6.76503	-1.28921
2151.711	7.32053	-1.48000	6.73348	-1.31287
2155.708	7.32146	-1.41595	6.82816	-1.31042
2159.710	7.25704	-1.52142	6.76111	-1.25139
2163.715	7.23035	-1.47381	6.72408	-1.19798
2167.711	7.23125	-1.52946	6.68913	-1.21607
2171.712	7.23325	-1.52354	6.67652	-1.23404
2175.710	7.26432	-1.42978	6.81517	-1.21894
2179.709	7.18694	-1.55636	6.78490	-1.24442
2183.708	7.13248	-1.53366	6.75370	-1.31635
2187.713	7.13839	-1.51531	6.71862	-1.30480
2191.706	7.19749	-1.36174	6.67395	-1.33408
2195.715	7.13651	-1.41269	6.71380	-1.36110
2199.710	7.09575	-1.40705	6.72359	-1.37720
2203.714	7.11259	-1.44125	6.70896	-1.36706
2207.710	7.06970	-1.34253	6.67336	-1.44458
2211.716	7.04369	-1.29691	6.68776	-1.45724
2215.712	7.05579	-1.35322	6.71796	-1.40163
2219.718	7.04890	-1.31338	6.65101	-1.43271
2223.717	7.04420	-1.24199	6.68942	-1.45075
2227.709	7.06286	-1.25463	6.70898	-1.40807
2231.711	7.03545	-1.24842	6.69657	-1.42688
2235.705	7.00829	-1.32156	6.70604	-1.38463
2239.713	6.98942	-1.35846	6.72927	-1.39901
2243.717	6.99834	-1.35296	6.63561	-1.39847
2247.712	6.98040	-1.29679	6.67645	-1.39544
2251.710	6.99878	-1.34490	6.76400	-1.40150
2255.708	6.95631	-1.34761	6.84186	-1.38155
2259.709	6.91109	-1.28512	6.81130	-1.42341
2263.710	6.94687	-1.31308	6.91153	-1.41968
2267.710	7.02986	-1.19980	6.99409	-1.28982
2271.711	7.15648	-0.86737	7.20089	-0.91902
2275.709	7.41558	-0.52926	7.09275	-0.71162
2279.709	7.55501	-0.14674	7.26166	-0.82271
2283.708	7.61438	-0.40038	7.40164	-0.53063
2287.785	7.66933	-0.31633	7.56917	-0.37232
2291.713	7.70102	0.08148	7.44293	-0.70028
2295.713	7.83405	-0.02888	7.54730	-0.25373
2299.707	7.72578	0.18876	7.64047	-0.21535
2303.712	7.88375	0.04999	7.67204	-0.33361
2307.705	7.92218	0.02656	7.76240	-0.32419
2311.710	7.89116	0.09260	7.78423	-0.24593
2315.711	7.93768	0.12712	7.88505	-0.19758
2319.704	7.89642	0.17995	7.91122	-0.22661
2323.708	7.79542	0.16062	7.89975	-0.19585
2327.714	7.85994	0.17440	7.93486	-0.15141
2331.709	7.91952	0.16387	7.95210	-0.05104
2335.706	7.83717	0.18810	7.98303	-0.14388
2339.708	7.88122	0.11603	7.98493	-0.29931
2343.707	7.93535	0.07932	7.86025	-0.23473
2347.707	7.87095	0.10493	7.69563	-0.17560
2351.706	7.80419	0.23447	7.82998	-0.17262
2355.706	7.82462	0.06834	7.74954	-0.12003
2359.710	7.86897	0.13804	7.79488	-0.10719
2363.710	7.92656	0.13084	7.75102	-0.21397
2367.707	7.95290	0.17894	7.78284	-0.24234
2371.716	7.87915	0.27337	7.80881	-0.18331
2375.707	7.79800	0.22490	7.72763	-0.30304
2379.706	7.85667	0.10979	7.67964	-0.36594
2383.712	7.91139	0.16542	7.69271	-0.40351
2387.709	7.83673	0.22874	7.74596	-0.31701
2391.708	7.91507	0.09067	7.79461	-0.32840
2395.707	7.98666	0.11438	7.81162	-0.28158
2399.707	8.05239	0.09522	7.85195	-0.24845
2403.706	7.98727	0.06108	7.84995	-0.34364
2407.707	7.97237	0.10545	7.79783	-0.34240
2411.705	7.94306	0.16329	7.81049	-0.34847
2415.705	7.90832	0.12570	7.79088	-0.40595
2419.705	7.97756	0.13823	7.81987	-0.30484
2423.710	7.90389	0.15669	7.84786	-0.31706
2427.710	7.89306	0.23346	7.84949	-0.23779
2431.702	7.92824	0.17538	7.86513	-0.07089
2435.711	7.83592	0.13987	7.84564	-0.08202
2439.706	7.91663	0.10970	7.76949	-0.16612
2443.705	7.86013	0.10489	7.86634	-0.29782
2447.712	7.85463	0.10243	7.91156	-0.20047
2451.712	7.88772	0.08118	7.92909	-0.00896
2455.709	7.98973	0.05601	7.92227	-0.04620
2459.705	7.96565	0.03731	7.93576	-0.04233
2463.712	7.95524	0.04110	7.96609	-0.03972
2467.707	7.96475	-0.01541	7.91916	0.03827
2471.703	7.91901	-0.01765	7.93296	0.06640
2475.712	7.83726	0.01952	7.97189	-0.15198
2479.707	7.69168	0.04157	7.86880	-0.15028
2483.707	5.80356	0.07248	7.29084	-0.21091
2487.706	5.12715	0.05957	5.77106	-0.44696
2491.954	4.28683	0.00263	4.64985	-0.98978
2495.740	3.23319	-0.75496	4.01104	-1.38631
2499.619	2.90604	-2.18538	3.61075	-1.58111
2503.585	2.70485	-2.05327	3.36933	-2.04475
2507.580	2.38380	-2.27498	3.25830	-2.60788
2511.578	2.32325	-2.12097	3.02187	-2.50480
2515.578	2.43736	-2.17739	3.18175	-2.54362
2519.583	2.42611	-2.27716	3.18935	-2.63428
2523.580	2.49488	-2.20184	3.10814	-2.62109
2527.584	2.43610	-2.08284	3.02470	-2.60859
2531.575	2.38494	-2.18464	2.87116	-2.64124
2535.578	2.35843	-2.23731	2.59814	-2.61766
2539.578	2.42540	-2.26787	4.49901	-4.75672
2543.589	2.41536	-2.25252	4.68543	-4.61455
2547.576	2.41204	-2.25213	4.68844	-4.53608
2551.584	2.42007	-2.20630	3.03880	-4.55611
2555.580	2.44578	-2.26313	2.98725	-4.30968
2559.583	2.42463	-2.30795	2.97567	-4.31920
2563.581	2.43191	-2.32864	3.12200	-4.37578
2567.581	2.38432	-2.39353	3.00853	-4.18423
2571.585	2.33970	-2.51643	4.61018	-4.20826
2575.580	2.31232	-2.53286	3.03313	-4.28571
2579.578	2.28544	-2.56805	7.11154	-4.34365
2583.582	2.27927	-2.59385	7.14846	-4.27262
2587.584	2.21962	-2.59530	6.97939	-4.27957
2591.580	2.17621	-2.61886	6.85287	-4.28991
2595.579	2.18225	-2.62871	6.84925	-4.30665
2599.574	2.19400	-2.65642	6.73635	-4.34891
2603.577	2.23253	-2.66165	6.66462	-4.39251
2607.580	2.20560	-2.64768	6.43469	-4.52279
2611.583	2.16002	-2.69840	6.50604	-4.57306
2615.576	2.19767	-2.65451	4.78903	-4.65529
2619.595	2.21432	-2.66067	4.57741	-4.70285
2623.590	2.22587	-2.69179	6.11451	-4.82889
2627.584	2.23429	-2.73598	5.71247	-4.94863
2631.580	2.33574	-2.73266	5.57677	-5.06119
2635.579	2.35454	-2.70567	3.89058	-5.17050
2639.582	2.34369	-2.77929	3.28019	-5.29003
2643.578	2.31869	-2.80250	2.99121	-5.34354
2647.578	2.31086	-2.82340	6.51623	-5.45439
2651.581	2.30836	-2.82469	5.00337	-5.53196
2655.578	2.32796	-2.73570	6.27040	-5.68777
2659.578	2.28147	-2.72001	6.03560	-5.75484
2663.576	2.26398	-2.72111	6.04428	-5.80352
2667.583	2.20919	-2.67736	5.73718	-5.94640
2671.582	2.23779	-2.47525	5.80727	-6.08062
2675.577	2.17028	-2.51744	3.58687	-6.21964
2679.580	2.16748	-2.55983	3.24588	-6.39909
2683.580	2.20932	-2.49004	6.85065	-5.31312
2687.578	2.23107	-2.45947	6.97370	-5.05701
2691.582	2.16560	-2.42059	6.82726	-4.87750
2695.580	2.11113	-2.41827	6.49609	-4.87722
2699.576	2.11807	-2.36551	6.33071	-5.01733
2703.579	2.11048	-2.34073	6.10330	-5.17620
2707.582	2.12892	-2.37985	5.99559	-5.57516
2711.591	2.18912	-2.24011	7.68245	-5.84221
2715.584	2.13851	-2.37177	7.63954	-5.96676
2719.578	2.13955	-2.28952	7.26156	-5.99949
2723.576	2.18094	-2.24406	7.39388	-6.23039
2727.571	2.11343	-2.21101	7.02741	-6.34784
2731.574	2.14010	-2.25845	5.79678	-6.50233
2735.575	2.14753	-2.32429	5.43957	-6.46977
2739.579	2.14060	-2.26884	6.11812	-6.60642
2743.572	2.17130	-2.37752	5.80192	-6.77487
2747.582	2.18017	-2.40924	5.61057	-6.95806
2751.582	2.21559	-2.36330	7.97994	-7.17214
2755.574	2.18719	-2.44314	8.08316	-7.45545
2759.580	2.17095	-2.47922	7.96142	-7.61620
2763.589	2.21588	-2.58839	7.56308	-7.75854
2767.582	2.17765	-2.63779	7.33784	-7.91136
2771.580	2.20037	-2.57546	5.47695	-7.92600
2775.572	2.13361	-2.59728	6.29413	-7.97788
2779.576	2.09103	-2.55081	5.96129	-8.12524
2783.575	2.13539	-2.58565	5.90453	-8.15232
2787.579	2.16297	-2.53966	5.85507	-8.23673
2791.576	2.18297	-2.54840	8.08710	-8.30021
2795.584	2.13918	-2.49407	7.94078	-8.43232
2799.575	2.15631	-2.43910	7.64764	-8.44268
2803.575	2.19251	-2.38775	5.96414	-8.47735
2807.570	2.14565	-2.41041	5.74261	-8.46525
2811.578	2.18074	-2.32689	5.53313	-8.39653
2815.577	2.23989	-2.33299	6.07422	-8.38099
2819.574	2.29902	-2.25449	5.79320	-8.29830
2823.574	2.28876	-2.25711	5.76883	-8.26342
2827.577	2.31133	-2.22584	5.75829	-8.22360
2831.582	2.39369	-2.18463	8.19681	-8.21193
2835.579	2.35955	-2.19435	7.84045	-8.11705
2839.573	2.18800	-2.17145	2.23090	-3.41838
2843.579	1.84342	-2.11695	1.54353	-3.50001
2847.570	0.74250	-2.01054	0.61143	-3.04550
2851.580	-0.03628	-1.89858	0.01164	-2.87021
2855.575	-0.15533	-1.90080	0.19008	-2.99278
2859.579	-0.23569	-1.81034	0.15573	-2.83322
2863.570	0.06559	-1.86608	0.08880	-2.79993
2867.574	0.00392	-1.84282	0.17484	-2.83648
2871.576	-0.06113	-1.77346	0.20403	-2.69852
2875.588	-0.09838	-1.69377	0.30391	-2.96200
2879.577	0.11411	-1.68528	0.21410	-2.91232
2883.575	0.00702	-1.60968	0.26207	-2.87524
2887.572	0.00486	-1.66162	0.19497	-2.81415
2891.578	-0.03936	-1.64342	0.23043	-2.83375
2895.576	-0.01295	-1.69884	0.24031	-2.75310
2899.577	0.00725	-1.65350	0.27870	-2.71422
2903.576	0.05065	-1.59525	0.22859	-2.61580
2907.573	0.05232	-1.56051	0.28113	-2.92656
2911.573	0.05611	-1.56056	0.30652	-2.84726
2915.591	0.14503	-1.52445	0.28138	-2.90054
2919.590	0.18998	-1.48852	0.23058	-2.75373
2923.626	0.24008	-1.52273	0.21763	-2.69740
2927.572	0.18162	-1.59713	0.22867	-2.53565
2931.576	0.15412	-1.52587	0.24232	-2.34609
2935.577	0.10198	-1.59187	0.21477	-2.35840
2939.572	0.10915	-1.52595	0.24865	-2.60305
2943.572	0.19819	-1.62101	0.22780	-2.60082
2947.574	0.15069	-1.69233	0.27676	-2.47068
2951.576	0.20075	-1.73445	0.34561	-2.46275
2955.568	0.22073	-1.73398	0.27235	-2.47120
2959.576	0.20492	-1.75898	0.13148	-2.38652
2963.571	0.19184	-1.78142	0.20676	-2.43587
2967.575	0.17797	-1.75911	0.21311	-2.41064
2971.571	0.16809	-1.76728	0.21358	-2.46945
2975.573	0.28193	-1.74864	0.16236	-2.51334
2979.573	0.29845	-1.71582	0.16365	-2.53618
2983.573	0.22795	-1.70327	0.15764	-2.51768
2987.569	0.09140	-1.59443	0.17794	-2.45019
2991.578	0.15131	-1.55577	0.14774	-2.48415
2995.574	0.11503	-1.47993	0.09118	-2.51215
2999.576	0.13513	-1.47074	0.06956	-2.46929
3003.571	0.09805	-1.39808	0.08498	-2.45610
3007.570	0.10922	-1.36667	0.08135	-2.43831
3011.567	0.05438	-1.35594	0.11719	-2.47884
3015.570	0.03926	-1.32447	0.11572	-2.48149
3019.573	0.05157	-1.30219	0.15878	-2.50872
3023.575	0.03462	-1.29536	0.19261	-2.46953
3027.567	0.13627	-1.28771	0.18459	-2.43347
3031.576	0.19164	-1.32638	0.17762	-2.43912
3035.571	0.14685	-1.34560	0.19023	-2.41538
3039.581	0.16275	-1.41884	0.23646	-2.27837
3043.577	0.17571	-1.42050	0.24897	-2.32347
3047.572	0.21966	-1.46629	0.27580	-2.38032
3051.575	0.19628	-1.47598	0.29453	-2.41351
3055.568	0.17918	-1.45398	0.36174	-2.40210
3059.574	0.19070	-1.51611	0.33099	-2.32144
3063.575	0.26043	-1.47950	0.21306	-2.27085
3067.567	0.26339	-1.49117	0.13320	-2.21127
3071.572	0.30498	-1.51701	0.16501	-2.23766
3075.588	0.22510	-1.57687	0.21370	-2.31261
3079.574	0.17025	-1.59634	0.19827	-2.28688
3083.575	0.14476	-1.49786	0.14667	-2.24799
3087.572	0.25495	-1.43450	0.32044	-2.16027
3091.571	0.22718	-1.47563	0.31228	-2.14916
3095.565	0.23949	-1.55357	0.41889	-2.07558
3099.569	0.28667	-1.50949	0.62114	-2.05005
3103.569	0.48247	-1.37755	1.54894	-1.98356
3107.576	0.65168	-1.37843	1.61228	-1.89080
3111.566	0.95358	-1.21837	1.51945	-1.89051
3115.570	1.02161	-1.11576	1.35383	-1.85181
3119.575	1.02357	-1.04691	1.51524	-1.71497
3123.576	0.78456	-1.04777	1.35199	-1.70350
3127.572	1.14990	-1.07289	1.41095	-1.62840
3131.573	1.11244	-1.07556	1.31330	-1.61881
3135.609	1.02022	-0.95151	1.52546	-1.56989
3139.567	1.17656	-0.94771	1.55459	-1.55882
3143.574	1.17381	-0.89597	1.66160	-1.50858
3147.569	1.26981	-0.91474	1.52600	-1.48549
3151.569	1.25875	-0.86122	1.41216	-1.47914
3155.567	1.28561	-0.88866	1.48577	-1.43895
3159.573	1.24570	-0.92538	1.50527	-1.43494
3163.568	0.93534	-0.87396	1.24491	-1.37114
3167.577	-0.28391	-0.64485	0.68556	-1.26237
3171.570	-2.45988	0.16614	-1.14134	-0.84422
3175.572	-4.31010	1.38648	-3.90990	0.31477
3179.566	-6.08831	2.10002	-4.83242	1.21882
3183.571	-8.28043	2.64551	-6.87717	1.50188
3187.572	-9.23805	2.97158	-9.23744	3.40877
3191.567	-11.87577	3.92159	-9.65949	3.95602
3195.572	-13.21324	4.34687	-11.49133	4.50542
3199.582	-14.70379	4.94171	-12.77214	4.78467
3203.576	-16.14114	5.80330	-13.67112	5.19007
3207.571	-16.76686	5.93691	-14.94453	5.55503
3211.574	-17.82816	6.18010	-15.58783	5.90867
3215.569	-19.78021	6.60421	-16.72364	6.55658
3219.564	-19.59095	6.75195	-16.90193	6.75475
3223.572	-19.37623	6.52191	-17.00795	6.94341
3227.570	-19.22124	6.71867	-16.86403	7.05126
3231.568	-19.26077	6.69811	-17.04537	7.10646
3235.563	-19.22170	6.52410	-17.03470	7.13487
3239.567	-19.32683	6.82149	-17.08007	7.07355
3243.569	-19.33112	6.77417	-17.07698	7.22691
3247.573	-19.30473	6.76586	-17.02399	7.22356
3251.569	-19.49380	6.80771	-17.04630	7.21060
3255.567	-19.24699	6.89048	-17.11025	7.24062
3259.571	-19.24980	6.89483	-17.15036	7.32295
3263.565	-19.17400	6.82383	-17.16767	7.29123
3267.569	-19.32367	6.93968	-17.18992	7.35398
3271.570	-19.24487	6.89071	-17.23206	7.39149
3275.568	-19.40445	6.89682	-17.27147	7.38454
3279.567	-19.35191	6.95369	-17.30556	7.38172
3283.569	-19.37214	6.90601	-17.34996	7.39668
3287.570	-19.42019	6.94429	-17.31292	7.41707
3291.576	-19.40266	6.93676	-17.34535	7.40383
3295.570	-19.35668	6.98031	-17.39931	7.43828
3299.567	-19.36664	7.00178	-17.42400	7.47976
3303.566	-19.45784	7.03325	-17.45940	7.43547
3307.566	-19.46664	7.08731	-17.41022	7.45216
3311.566	-19.73774	7.09751	-17.38740	7.40474
3315.567	-19.23929	6.92449	-17.48668	7.41083
3319.567	-19.55270	6.95336	-17.43171	7.39292
3323.567	-18.97394	7.05965	-17.44646	7.39277
3327.565	-19.47893	7.12756	-17.42796	7.42937
3331.571	-19.46905	6.92063	-17.37069	7.40217
3335.569	-19.01036	7.05176	-17.41890	7.33644
3339.583	-19.29135	7.05217	-17.41894	7.30140
3343.570	-19.32204	6.95696	-17.48333	7.35740
3347.566	-19.01129	6.95394	-17.45228	7.37953
3351.565	-19.18142	7.04127	-17.46421	7.40236
3355.441	-18.98162	6.89681	-17.38803	7.41565
3359.457	-19.01947	6.92783	-17.45432	7.39225
3363.440	-19.25053	7.04462	-17.46531	7.61196
3367.442	-19.83755	7.00982	-17.57606	7.50685
3371.451	-22.36948	7.09267	-18.68426	7.46104
3375.766	-22.68864	6.90953	-20.02306	7.25821
3379.446	-19.64563	-12.10312	-20.18077	7.13374
3383.449	-19.75252	-12.09527	-20.34995	7.03636
3387.445	-22.86957	6.74078	-20.39041	6.99272
3391.435	-23.02211	6.76292	-20.33385	6.68119
3395.438	-23.18355	6.56871	-20.44096	6.69336
3399.441	-22.74380	6.63225	-20.44686	6.64565
3403.444	-22.95975	6.62163	-20.41984	6.67123
3407.436	-20.08298	-12.07076	-20.42326	6.56292
3411.444	-22.90475	6.62150	-20.40704	6.52961
3415.441	-22.99166	6.51596	-20.57420	6.52658
3419.447	-23.20305	6.34187	-20.58203	6.54737
3423.439	-23.24262	6.80732	-20.52123	6.51010
3427.440	-23.13822	6.99112	-20.43804	6.47383
3431.442	-23.08021	6.71054	-20.41018	6.26664
3435.440	-23.12592	6.64905	-20.43716	6.51690
3439.439	-19.99495	-12.07733	-20.58625	6.72720
3443.438	-23.17487	7.03122	-20.60278	6.59731
3447.444	-22.97591	6.97714	-20.43052	6.50506
3451.437	-22.98720	6.73747	-20.43274	6.63936
3455.440	-22.92835	6.65468	-20.31604	6.41644
3459.438	-19.99497	-12.07733	-20.42612	6.61281
3463.444	-23.04149	6.92734	-20.52707	6.57768
3467.437	-22.84544	6.96728	-20.43448	6.55997
3471.439	-22.69589	6.65660	-20.45961	6.63872
3475.438	-22.93711	6.67290	-20.51486	6.71328
3479.439	-22.84924	6.73142	-20.35357	6.53188
3483.458	-23.05725	6.79217	-20.36720	6.57377
3487.444	-22.71755	6.85050	-20.35771	6.46712
3491.440	-22.65796	6.80952	-20.31761	6.51303
3495.437	-22.66569	6.72953	-20.36105	6.56063
3499.442	-22.90262	6.81892	-20.51155	6.63917
3503.446	-22.87336	6.76690	-20.45887	6.65255
3507.438	-22.92742	6.74662	-20.44540	6.64596
3511.438	-22.93669	6.76842	-20.32830	6.73760
3515.443	-22.71663	6.76498	-20.35885	6.61369
3519.441	-22.62409	6.74388	-20.33618	6.66445
3523.444	-22.68213	6.74487	-20.54507	6.72482
3527.439	-22.76539	6.70949	-20.56944	6.83637
3531.437	-22.75452	6.64231	-20.61961	6.95765
3535.436	-22.46960	6.64155	-20.58912	6.83394
3539.443	-22.64948	6.68485	-20.49452	6.83742
3543.445	-22.58061	6.65838	-20.48827	6.76021
3547.448	-22.60119	6.66977	-20.54966	6.78455
3551.434	-22.60553	6.71424	-20.54766	6.76551
3555.442	-22.26892	6.72502	-20.62026	6.96738
3559.442	-22.33702	6.78834	-20.66040	6.92613
3563.437	-22.30383	6.88407	-20.65638	6.88231
3567.442	-22.54566	6.98955	-20.50915	6.89575
3571.441	-22.33995	6.96525	-20.52866	6.71603
3575.446	-22.37867	7.02780	-20.47357	6.81879
3579.488	-22.29650	6.97294	-20.56434	6.84231
3583.435	-22.35802	6.91494	-20.55451	6.75750
3587.443	-22.27523	7.09429	-20.53268	6.80210
3591.436	-21.87578	7.08738	-20.31493	6.79222
3595.440	-20.11804	7.14085	-17.56988	6.67068
3599.435	-18.05487	6.92905	-16.44161	6.82396
3603.436	-16.45898	6.34190	-14.70857	6.36133
3607.436	-14.00664	5.16226	-12.60413	4.92570
3611.441	-12.71132	4.88791	-11.76219	4.11615
3615.433	-11.22661	4.60882	-9.66337	3.73523
3619.456	-9.83546	4.37265	-7.49959	3.34895
3623.445	-7.91716	3.73839	-6.09687	3.03681
3627.441	-6.88061	3.61105	-3.79836	2.04679
3631.440	-4.72704	3.29936	-3.50860	1.86370
3635.437	-3.28951	2.85722	-1.73797	1.50661
3639.436	-2.62184	2.72898	-1.08453	1.36071
3643.436	-1.41392	2.75083	-0.36201	1.30321
3647.434	-0.79300	2.31128	-0.17916	1.13801
3651.436	-0.74049	2.31131	-0.19603	1.05952
3655.434	-0.63523	2.46753	-0.31880	1.02547
3659.436	-0.80486	2.37664	-0.55577	0.98282
3663.435	-0.62744	2.24788	-0.44969	0.90826
3667.439	-0.67667	2.18459	-0.29773	0.84477
3671.440	-0.60674	2.10986	-0.26269	0.77810
3675.437	-0.58429	2.03731	-0.18008	0.71902
3679.437	-0.57111	2.01039	-0.24058	0.73276
3683.472	-0.54471	1.94140	-0.16859	0.72988
3687.446	-0.49872	1.91580	-0.11133	0.66819
3691.436	-0.49391	2.00466	-0.12662	0.63472
3695.434	-0.45832	2.01246	-0.16303	0.62846
3699.441	-0.45624	1.95193	-0.10617	0.59025
3703.437	-0.42579	1.99420	-0.12079	0.62262
3707.439	-0.40197	2.00019	-0.07718	0.59912
3711.434	-0.39219	1.97545	-0.04341	0.60650
3715.442	-0.35496	1.93465	-0.04792	0.66314
3719.442	-0.39020	1.95396	-0.05693	0.65321
3723.436	-0.37757	2.01722	-0.04978	0.62043
3727.436	-0.34876	1.98117	-0.08096	0.60786
3731.430	-0.32928	1.95687	-0.10753	0.62523
3735.439	-0.36697	1.87205	-0.10473	0.58284
3739.436	-0.35069	1.75662	-0.02750	0.55109
3743.435	-0.35052	1.62797	-0.05107	0.64145
3747.439	-0.32032	1.70067	-0.02172	0.63097
3751.440	-0.34925	1.73495	-0.03857	0.61412
3755.441	-0.32876	1.67696	-0.06204	0.69236
3759.433	-0.35290	1.76137	-0.11855	0.47948
3763.442	-0.35139	1.74868	-0.11054	0.54070
3767.436	-0.33235	1.74362	-0.08361	0.64903
3771.432	-0.33193	1.69471	-0.10322	0.72623
3775.466	-0.35194	1.65128	-0.08493	0.57521
3779.432	-0.35417	1.60178	-0.08607	0.61196
3783.438	-0.33618	1.68585	-0.25493	0.62080
3787.431	-0.31952	1.71140	-0.21410	0.63104
3791.438	-0.36149	1.65667	-0.20063	0.67415
3795.438	-0.40829	1.52849	-0.15816	0.70486
3799.432	-0.34399	1.58037	-0.16169	0.61010
3803.431	-0.34918	1.67373	-0.25890	0.70518
3807.458	-0.35251	1.61955	-0.17601	0.69082
3811.440	-0.36960	1.51512	-0.12955	0.61519
3815.429	-0.39643	1.47662	-0.04874	0.66210
3819.437	-0.35015	1.64639	-0.11848	0.69611
3823.432	-0.27714	1.53025	-0.08900	0.69659
3827.433	-0.36035	1.45187	-0.03144	0.65177
3831.431	-0.26262	1.32463	0.01417	0.64391
3835.442	-0.36531	1.32276	0.08880	0.62672
3839.433	-0.33737	1.55584	0.02891	0.59492
3843.432	-0.36278	1.45125	0.13560	0.67872
3847.431	-0.30980	1.23271	0.06331	0.62970
3851.434	-0.20269	1.31321	0.06197	0.56426
3855.435	-0.29510	1.41868	0.08493	0.65490
3859.430	-0.24120	1.49750	0.06420	0.54092
3863.433	-0.28798	1.44858	0.04901	0.45200
3867.434	-0.18896	1.38335	0.31213	0.55948
3871.452	0.43998	1.47661	1.64801	0.73998
3875.437	2.09251	1.89384	3.48331	1.10091
3879.439	4.01840	2.27888	4.51788	2.28739
3883.428	4.78205	3.25632	6.06443	2.62958
3887.430	5.93429	3.67248	6.28830	3.74343
3891.433	6.94897	4.23498	7.57217	4.09317
3895.431	7.97060	5.14200	8.50134	4.42689
3899.430	9.28369	5.77426	9.86045	5.28346
3903.443	9.45725	6.31983	11.46544	5.91308
3907.439	11.11251	6.76106	10.45317	6.44425
3911.433	10.19995	7.12015	10.91708	6.60865
3915.431	10.19620	7.05003	10.33697	7.86839
3919.436	9.90245	6.90720	10.90370	7.01659
3923.434	9.72004	6.99179	10.70093	6.67733
3927.437	9.75926	6.92931	11.00525	7.13122
3931.429	9.95820	6.90370	11.09520	6.87930
3935.434	9.98485	6.78348	10.92849	6.98299
3939.431	9.85442	6.99785	11.19332	6.76241
3943.432	10.01484	6.89805	11.18761	6.89624
3947.431	10.07516	6.90953	10.88810	6.92283
3951.430	10.15538	6.87050	11.03425	6.97035
3955.429	10.14913	6.79750	11.05873	7.32841
3959.436	10.18437	6.76863	11.05400	7.15913
3963.435	10.13309	6.79248	11.02065	7.23213
3967.432	10.20178	6.73045	11.04061	7.19098
3971.435	10.28294	6.75994	11.04537	7.34814
3975.429	10.20808	6.79953	11.03360	7.11198
3979.432	10.34523	6.83107	11.10479	7.18637
3983.428	10.29255	6.81054	11.00692	7.27744
3987.431	10.30223	6.87540	10.97853	7.38269
3991.435	10.36975	6.85666	11.07444	7.41688
3995.446	10.33968	6.86481	11.03019	7.34099
3999.431	10.32818	6.90913	11.01649	7.40152
4003.434	10.37162	6.95518	11.10424	7.33359
4007.433	10.55267	6.88339	11.10388	7.31532
4011.426	10.55171	6.94928	11.04262	7.29032
4015.428	10.46784	6.99482	10.99338	7.18796
4019.427	10.58090	7.01671	10.97435	7.33092
4023.433	10.59102	7.07727	10.95715	7.30187
4027.425	10.66694	7.02541	10.96227	7.29692
4031.428	10.72009	6.99297	11.07236	7.25230
4035.430	10.75217	7.01599	10.90432	7.17961
4039.432	10.78233	7.02778	10.86744	7.31545
4043.438	10.78673	7.01082	11.00955	7.16277
4047.437	10.78475	6.92919	10.79327	7.24144
4051.431	10.78848	6.97423	10.74089	7.23255
4055.432	10.75847	6.94540	10.81542	7.04151
4059.435	10.77986	6.88593	10.76233	7.18069
4063.432	10.74721	6.88447	10.81250	7.12008
4067.428	10.70823	6.99172	10.71818	7.22343
4071.430	10.72584	7.10550	10.78139	7.71991
4075.445	10.61795	9.29958	10.65860	9.13478
4079.431	10.50513	9.83147	10.57848	12.00990
4083.433	8.69076	11.71270	10.42036	14.03534
4087.433	8.53224	12.35536	NaN	NaN
4091.433	8.31229	13.50702	NaN	NaN
4095.424	8.35221	13.28481	NaN	NaN
4099.427	8.47774	13.19092	NaN	NaN
4103.430	9.14031	13.23342	NaN	NaN
4107.432	9.15524	13.12383	NaN	NaN
4111.424	8.55998	13.04825	NaN	NaN
4115.427	8.80447	13.07621	NaN	NaN
4119.430	8.62996	13.07602	NaN	NaN
4123.434	8.55316	13.05937	NaN	NaN
4127.434	8.83449	13.11485	NaN	NaN
4131.428	8.89027	13.08656	NaN	NaN
4135.423	8.77167	13.02393	NaN	NaN
4139.427	8.90957	13.01006	NaN	NaN
4143.429	8.87316	12.96697	NaN	NaN
4147.429	8.77145	12.95939	NaN	NaN
4151.422	8.69118	12.97923	NaN	NaN
4155.431	8.91851	12.98619	NaN	NaN
4159.430	8.91745	12.99154	NaN	NaN
4163.428	8.75432	12.91623	NaN	NaN
4167.427	8.81915	12.89277	NaN	NaN
4171.433	8.81181	12.88459	NaN	NaN
4175.431	8.89780	12.79958	NaN	NaN
4179.426	8.71104	12.84625	NaN	NaN
4183.447	8.66651	12.80242	NaN	NaN
4187.428	8.58949	12.91896	NaN	NaN
4191.430	8.68924	13.03144	NaN	NaN
4195.439	8.83963	13.12916	NaN	NaN
4199.428	8.57175	13.24861	NaN	NaN
4203.433	8.64982	13.24835	NaN	NaN
4207.301	8.86301	13.24998	NaN	NaN
4211.307	8.89155	13.23410	NaN	NaN
4215.333	8.57597	13.33761	NaN	NaN
4219.306	8.82148	13.35289	NaN	NaN
4223.303	8.84947	13.45061	NaN	NaN
4227.306	9.02801	13.48841	NaN	NaN
4231.302	9.14585	13.47984	NaN	NaN
4235.302	8.88990	13.51451	NaN	NaN
4239.300	8.98232	13.48427	NaN	NaN
4243.299	8.81249	13.45953	NaN	NaN
4247.301	8.99910	13.41873	NaN	NaN
4251.307	9.06429	13.43049	NaN	NaN
4255.299	9.01728	13.42194	NaN	NaN
4259.305	8.98368	13.40551	NaN	NaN
4263.303	8.99888	13.40794	NaN	NaN
4267.299	8.86170	13.35530	NaN	NaN
4271.296	8.86483	13.35451	NaN	NaN
4275.305	8.82037	13.33047	NaN	NaN
4279.298	8.93358	13.27608	NaN	NaN
4283.304	9.01832	13.27534	NaN	NaN
4287.296	9.08757	13.26186	NaN	NaN
4291.303	9.10722	13.26271	NaN	NaN
4295.296	8.98421	13.24465	NaN	NaN
4299.305	8.84959	13.26727	NaN	NaN
4303.299	8.92822	13.41185	NaN	NaN
4307.299	8.64029	13.37461	NaN	NaN
4311.306	6.22576	13.40922	NaN	NaN
4315.302	4.22594	13.56264	NaN	NaN
4319.303	1.80610	13.69053	NaN	NaN
4323.298	0.11123	13.67622	NaN	NaN
4327.301	-2.51613	13.68594	NaN	NaN
4331.297	-2.30130	13.62333	NaN	NaN
4335.305	-6.04335	13.84166	NaN	NaN
4339.306	-6.68095	13.81424	NaN	NaN
4343.302	-6.92772	13.84910	NaN	NaN
4347.294	-7.27123	13.93621	NaN	NaN
4351.304	-7.10883	14.08232	NaN	NaN
4355.299	-7.15887	14.21210	NaN	NaN
4359.299	-7.23330	14.24850	NaN	NaN
4363.293	-7.12886	14.11033	NaN	NaN
4367.299	-7.22050	14.08005	NaN	NaN
4371.297	-7.19581	14.16300	NaN	NaN
4375.304	-7.15535	14.24656	NaN	NaN
4379.298	-7.18130	14.26700	NaN	NaN
4383.309	-7.21713	14.22462	NaN	NaN
4387.294	-7.34358	14.26597	NaN	NaN
4391.297	-7.20614	14.19687	NaN	NaN
4395.297	-7.18797	14.14815	NaN	NaN
4399.302	-7.23667	14.12963	NaN	NaN
4403.303	-7.16749	14.14693	NaN	NaN
4407.293	-7.18816	14.12222	NaN	NaN
4411.297	-7.14895	14.15856	NaN	NaN
4415.301	-7.18733	14.12171	NaN	NaN
4419.298	-7.19021	14.12290	NaN	NaN
4423.303	-7.17402	14.12995	NaN	NaN
4427.300	-7.12515	14.18110	NaN	NaN
4431.350	-7.05142	14.21742	NaN	NaN
4435.305	-7.03699	14.21520	NaN	NaN
4439.297	-7.04816	14.21144	NaN	NaN
4443.299	-7.05450	14.25350	NaN	NaN
4447.298	-7.09908	14.31820	NaN	NaN
4451.293	-7.09673	14.36257	NaN	NaN
4455.296	-7.21274	14.36798	NaN	NaN
4459.296	-7.30078	14.38367	NaN	NaN
4463.299	-7.32924	14.38945	NaN	NaN
4467.308	-7.43884	14.41396	NaN	NaN
4471.300	-7.40426	14.39098	NaN	NaN
4475.295	-7.39720	14.35591	NaN	NaN
4479.302	-7.36825	14.28016	NaN	NaN
4483.297	-7.34980	14.20157	NaN	NaN
4487.300	-7.32153	14.21668	NaN	NaN
4491.292	-7.29777	14.09774	NaN	NaN
4495.296	-7.36118	14.13814	NaN	NaN
4499.295	-7.38104	14.15896	NaN	NaN
4503.292	-7.33925	14.17141	NaN	NaN
4507.300	-7.36845	14.27094	NaN	NaN
4511.296	-7.31623	14.20973	NaN	NaN
4515.300	-7.17067	14.01295	NaN	NaN
4519.292	-7.03851	13.68134	NaN	NaN
4523.294	-4.64961	11.59986	-2.40979	11.78180
4527.298	-3.78990	8.81254	-1.48662	9.17500
4531.299	-2.49409	7.23706	-0.03554	6.69587
4535.303	-1.66604	5.31872	0.44894	4.28438
4539.295	0.00670	4.42386	1.66648	2.59208
4543.300	0.67337	2.18202	2.29508	1.10263
4547.299	0.79848	1.41503	2.43174	0.32776
4551.306	1.29305	-0.70071	2.40340	-0.59958
4555.319	1.38582	-1.07118	3.28605	-1.92276
4559.300	2.03563	-1.32341	4.03349	-2.37901
4563.296	2.75797	-1.70882	3.97583	-2.77429
4567.294	3.14291	-1.91339	4.05969	-3.23893
4571.294	3.43979	-2.15577	4.08834	-3.30999
4575.301	3.23539	-2.18756	4.05256	-3.01061
4579.296	3.38540	-2.09805	4.11908	-2.83030
4583.298	3.44960	-2.16992	4.03018	-3.14241
4587.293	3.37386	-2.11881	4.03041	-3.14742
4591.300	3.42848	-2.40521	4.10500	-3.24058
4595.305	3.52660	-2.43883	4.10140	-3.32849
4599.300	3.51310	-2.45062	4.12325	-3.51943
4603.313	3.60670	-2.48867	4.10609	-3.51321
4607.300	3.70977	-2.55691	4.09824	-3.58030
4611.296	3.70406	-2.58163	4.13937	-3.49338
4615.294	3.67321	-2.56043	4.09947	-3.56136
4619.301	3.71639	-2.50901	4.04949	-3.61995
4623.298	3.68112	-2.51173	4.04594	-3.60860
4627.295	3.70067	-2.49675	4.10532	-3.62651
4631.300	3.74048	-2.47874	4.07890	-3.54984
4635.298	3.72961	-2.43729	3.99094	-3.59858
4639.296	3.67319	-2.38423	3.93492	-3.58151
4643.295	3.62143	-2.44029	3.87981	-3.53371
4647.295	3.54967	-2.37799	3.79383	-3.50778
4651.325	3.50791	-2.36980	3.86857	-3.47102
4655.292	3.49332	-2.35565	3.81202	-3.46132
4659.293	3.45640	-2.36156	3.84303	-3.42828
4663.293	3.42942	-2.37064	3.86245	-3.37430
4667.293	3.45225	-2.35434	3.89913	-3.35473
4671.297	3.42087	-2.34808	3.86867	-3.34005
4675.297	3.39203	-2.35013	3.84760	-3.32388
4679.293	3.37850	-2.38139	3.88717	-3.27047
4683.294	3.40103	-2.36041	3.86267	-3.26906
4687.294	3.45588	-2.26989	3.90664	-3.23301
4691.292	3.44965	-2.30296	3.94305	-3.17227
4695.292	3.47537	-2.27752	3.93522	-3.14682
4699.288	3.54670	-2.27041	3.93411	-3.13659
4703.299	3.60840	-2.18891	3.93554	-3.12398
4707.293	3.66829	-2.24203	3.90684	-3.12409
4711.297	3.69869	-2.26317	3.90190	-3.12700
4715.306	3.71038	-2.36368	3.93100	-3.15136
4719.294	3.80167	-2.38219	3.98590	-3.19047
4723.293	3.80792	-2.46645	4.01633	-3.26759
4727.291	3.80656	-2.42715	4.03070	-3.19190
4731.293	3.82109	-2.50623	4.00709	-3.11860
4735.296	3.82632	-2.54907	3.94332	-3.16985
4739.293	3.84278	-2.59963	3.94461	-3.17024
4743.310	3.80826	-2.57506	4.00964	-3.15751
4747.293	3.75432	-2.56047	4.00559	-3.20735
4751.298	3.71651	-2.53170	4.00452	-3.21832
4755.301	3.58596	-2.56652	4.00640	-3.22721
4759.296	3.65683	-2.58152	3.97375	-3.14962
4763.296	3.61295	-2.64109	3.96797	-3.16704
4767.291	3.52833	-2.57275	3.97338	-3.20401
4771.292	3.57088	-2.53751	4.11794	-3.16660
4775.292	3.49913	-2.49015	4.00625	-3.20507
4779.291	3.50568	-2.49402	4.16314	-3.17126
4783.297	3.48840	-2.49387	4.14105	-3.20033
4787.292	3.43150	-2.55437	4.13167	-3.29813
4791.291	3.50583	-2.60296	4.08310	-3.24314
4795.290	3.45766	-2.76035	4.15697	-3.23948
4799.297	3.49871	-2.67470	4.16235	-3.22283
4803.291	3.50890	-2.64572	4.21999	-3.18161
4807.294	3.52657	-2.57481	4.18294	-3.19942
4811.297	3.59945	-2.53364	4.20832	-3.17684
4815.291	3.64340	-2.57621	4.13786	-3.19289
4819.296	3.59523	-2.64589	4.13512	-3.03422
4823.290	3.65005	-2.61826	4.14932	-3.04907
4827.294	3.64948	-2.58112	4.13799	-3.14596
4831.290	3.75064	-2.56734	4.15690	-3.12736
4835.291	3.69815	-2.59249	4.19573	-2.92084
4839.292	3.74577	-2.54273	4.11713	-2.99391
4843.292	3.73181	-2.45219	4.11327	-3.08947
4847.320	3.76697	-2.54769	4.06969	-3.04144
4851.290	3.76428	-2.74935	4.48024	-3.12464
4855.288	3.81157	-2.98040	4.84285	-3.55290
4859.294	4.11293	-5.19678	5.92962	-5.21665
4863.291	5.08402	-5.36620	6.36910	-6.24973
4867.294	5.55381	-6.93920	6.34167	-6.63558
4871.311	5.66526	-7.08271	6.73390	-6.76707
4875.301	6.00067	-7.18139	7.36681	-6.99927
4879.290	5.94045	-7.30899	6.72357	-7.02090
4883.302	6.09108	-7.39441	7.03831	-7.20357
4887.295	6.20384	-7.33348	7.12371	-7.14987
4891.291	6.34108	-7.23996	6.90160	-7.10049
4895.290	6.36361	-7.31633	6.91559	-7.15717
4899.284	6.35493	-7.21232	6.98450	-7.14707
4903.294	6.41479	-7.30446	7.01159	-7.12605
4907.291	6.47289	-7.32875	7.03958	-7.21132
4911.290	6.48975	-7.28731	7.06022	-7.24202
4915.284	6.51072	-7.33741	7.19214	-7.22953
4919.288	6.50856	-7.30351	7.09253	-7.27455
4923.293	6.50964	-7.28399	7.15367	-7.30694
4927.293	6.54379	-7.27366	7.18613	-7.28091
4931.295	6.48928	-7.25544	7.17045	-7.30988
4935.292	6.49969	-7.33162	7.24495	-7.32431
4939.292	6.46426	-7.32523	7.19801	-7.27039
4943.290	6.43319	-7.38773	7.26886	-7.34727
4947.292	6.48093	-7.30687	7.27128	-7.34925
4951.286	6.46113	-7.30688	7.25538	-7.32382
4955.289	6.49063	-7.26616	7.25172	-7.34275
4959.292	6.47585	-7.30918	7.23472	-7.38157
4963.294	6.51011	-7.31459	7.19913	-7.35036
4967.296	6.47693	-7.32313	7.21112	-7.36826
4971.305	6.42442	-7.28858	7.22138	-7.37650
4975.292	6.41337	-7.27413	7.18631	-7.35459
4979.288	6.52485	-7.30038	7.19832	-7.37845
4983.288	6.46564	-7.22324	7.19605	-7.37587
4987.290	6.57698	-7.16579	7.22514	-7.38743
4991.292	6.58521	-7.09038	7.25289	-7.33347
4995.286	6.54523	-7.11824	7.30380	-7.33592
4999.290	6.54619	-7.15342	7.26906	-7.33602
5003.288	6.55844	-7.10658	7.14304	-7.26356
5007.293	6.64381	-7.17122	7.25895	-7.26296
5011.296	6.61839	-7.07812	7.78294	-7.19236
5015.291	7.32866	-7.09323	8.41031	-7.12284
5019.283	8.97215	-7.11948	10.48598	-7.20218
5023.288	9.84725	-7.11145	12.59063	-7.17657
5027.290	12.78831	-7.00478	13.93211	-7.37010
5031.291	13.66857	-7.00047	15.27718	-7.42275
5035.288	14.06656	-7.02910	17.07512	-8.25089
5039.288	14.97087	-6.94996	18.14492	-8.39195
5043.290	16.22355	-6.82501	18.36975	-7.90890
5047.294	16.42313	-6.85661	18.74566	-7.82457
5051.286	16.09781	-6.73253	17.89664	-7.84763
5055.288	15.92315	-6.54986	17.56629	-8.04845
5059.292	15.95950	-6.57058	17.83740	-7.91808
5063.168	15.93350	-6.54907	18.05822	-8.08195
5067.161	16.09348	-6.61943	17.63639	-8.12698
5071.159	16.19972	-6.56276	17.75352	-8.00200
5075.160	16.10406	-6.52152	17.77882	-8.03935
5079.159	16.18878	-6.46711	17.77448	-8.00311
5083.162	16.17768	-6.51376	18.02649	-7.86137
5087.162	16.19734	-6.58783	17.95339	-7.84487
5091.165	16.13216	-6.63134	17.72394	-7.83995
5095.162	16.03996	-6.52683	17.90550	-7.74177
5099.164	16.12387	-6.60524	17.98660	-7.79558
5103.160	16.17576	-6.57997	17.63887	-7.76798
5107.161	16.21272	-6.58767	17.67914	-7.65817
5111.157	16.22309	-6.57711	17.63576	-7.55998
5115.160	16.20766	-6.61155	17.39140	-7.59698
5119.180	16.25985	-6.57596	17.45538	-7.49736
5123.165	16.31265	-6.56493	17.32346	-7.45649
5127.161	16.20187	-6.54293	17.28724	-7.45589
5131.161	16.27700	-6.53631	17.42843	-7.41795
5135.165	16.23439	-6.54401	17.33956	-7.35158
5139.157	16.25747	-6.60366	17.43532	-7.40231
5143.159	16.24162	-6.67084	17.30882	-7.40828
5147.161	16.21265	-6.64687	17.36131	-7.34441
5151.161	16.35646	-6.71817	17.41027	-7.25644
5155.160	16.37741	-6.69472	17.33296	-7.26979
5159.160	16.29580	-6.63657	17.28509	-7.24166
5163.157	16.34693	-6.67228	17.30719	-7.18244
5167.161	16.40525	-6.67566	17.36090	-7.12229
5171.165	16.29991	-6.64079	17.46046	-7.15029
5175.160	16.37115	-6.51197	17.44903	-7.08927
5179.165	16.50352	-6.42411	17.36334	-7.06685
5183.167	16.30910	-6.39517	17.31828	-7.03284
5187.159	16.33582	-6.23098	17.31122	-7.00506
5191.165	16.26554	-6.31159	16.94402	-6.97538
5195.160	16.24034	-6.20747	16.80962	-6.98846
5199.163	16.18318	-6.16720	16.84327	-6.96928
5203.158	16.22611	-6.14367	16.76362	-6.97110
5207.165	16.14348	-6.08185	16.78258	-6.98269
5211.371	16.14412	-6.07633	16.66059	-6.98322
5215.164	16.17134	-6.03391	16.71563	-6.96566
5219.165	16.11393	-6.10352	16.67530	-6.94992
5223.156	16.13592	-6.14112	16.64592	-6.93507
5227.159	16.14609	-6.20130	16.68225	-6.94470
5231.163	16.19148	-6.16958	16.72309	-6.99943
5235.161	16.30631	-6.20752	16.70135	-7.04388
5239.159	16.30977	-6.25436	16.81167	-7.09480
5243.159	16.42674	-6.31620	16.83102	-7.11930
5247.159	16.43706	-6.35893	16.82863	-7.13363
5251.157	16.46105	-6.31968	16.79077	-7.16001
5255.158	16.53730	-6.34929	16.76508	-7.16387
5259.163	16.54510	-6.42961	16.71963	-7.15586
5263.160	16.58423	-6.42020	16.60554	-7.09301
5267.165	16.52887	-6.33283	16.64145	-7.03396
5271.161	16.38534	-6.29805	15.99223	-6.82216
5275.155	15.03450	-5.34614	15.19311	-5.92961
5279.267	13.57351	-4.27610	13.33567	-5.36796
5283.192	12.56391	-3.79646	13.03583	-4.32526
5287.163	12.60810	-3.42616	12.82755	-3.76419
5291.157	12.18580	-3.35236	12.63426	-3.16737
5295.156	11.83367	-3.12631	12.02613	-3.39423
5299.157	11.69002	-3.00026	11.64159	-3.01146
5303.161	11.70271	-2.73621	11.66637	-2.86126
5307.165	11.66779	-2.59501	11.62711	-2.80162
5311.162	11.56467	-2.47624	11.53039	-2.71832
5315.159	11.51230	-1.88687	11.41063	-2.72465
5319.157	11.60863	-2.35696	11.34564	-2.63075
5323.152	11.75950	-2.09253	11.45174	-2.66329
5327.157	11.64787	-2.34968	11.27386	-2.65058
5331.156	11.57322	-2.28600	11.30746	-2.60341
5335.156	11.53453	-2.13024	11.21090	-2.62452
5339.155	11.45128	-2.16696	11.17159	-2.55590
5343.166	11.44795	-2.13101	11.19511	-2.55966
5347.179	11.43362	-2.09639	11.15236	-2.60084
5351.159	11.47145	-1.94127	11.10175	-2.58073
5355.156	11.43247	-1.95382	11.09293	-2.61943
5359.156	11.25588	-2.03190	11.06781	-2.61267
5363.156	11.33013	-2.11946	11.03480	-2.65684
5367.153	11.34681	-2.21738	11.02765	-2.69434
5371.162	11.30142	-2.14559	11.05558	-2.72589
5375.155	11.29643	-2.24556	11.05388	-2.73240
5379.162	11.40441	-2.16223	11.07085	-2.68557
5383.159	11.45477	-2.11359	11.05837	-2.64794
5387.163	11.42103	-2.06617	11.04623	-2.62551
5391.156	11.39694	-1.96489	10.99315	-2.58969
5395.156	11.37281	-1.93038	11.05232	-2.60874
5399.156	11.37200	-1.94584	11.08216	-2.55654
5403.156	11.42596	-1.94078	11.11958	-2.52397
5407.150	11.44795	-2.00317	11.18883	-2.48624
5411.156	11.48621	-1.92032	11.17935	-2.47389
5415.156	11.53151	-1.92913	11.20906	-2.46154
5419.160	11.49395	-1.92229	11.16122	-2.44056
5423.154	11.48432	-1.89693	11.15319	-2.42155
5427.162	11.48482	-1.92203	11.15088	-2.44916
5431.171	11.50487	-1.86488	11.17608	-2.44370
5435.161	11.50277	-1.86047	11.23743	-2.48921
5439.159	11.50429	-1.87919	11.25657	-2.49014
5443.153	11.45469	-1.85376	11.23303	-2.53705
5447.155	11.44535	-1.87953	11.21680	-2.56545
5451.172	11.37934	-1.85439	11.17187	-2.57155
5455.164	11.33261	-1.91279	11.17742	-2.56176
5459.151	11.21033	-1.88441	11.18754	-2.58530
5463.160	11.30018	-1.88034	11.19748	-2.56521
5467.164	11.41199	-1.98216	11.21921	-2.60528
5471.156	11.27982	-2.04582	11.23907	-2.61543
5475.154	11.31343	-2.21866	11.25170	-2.63186
5479.154	11.25748	-2.24737	11.25844	-2.61961
5483.160	11.04749	-2.20708	11.06865	-2.62137
5487.161	10.14020	-2.21140	10.62811	-2.52328
5491.155	8.74525	-2.07083	9.70015	-2.57737
5495.207	7.92568	-1.53497	8.07893	-2.43986
5499.160	7.56610	-1.40455	7.61251	-2.19323
5503.154	6.67507	-1.17291	6.98695	-1.74673
5507.156	6.26559	-0.75308	6.89284	-1.38135
5511.157	6.14960	-0.57166	6.51062	-1.25493
5515.163	6.32588	-0.51642	6.58729	-1.09263
5519.153	6.74623	-0.52864	6.68944	-0.92584
5523.157	6.69013	-0.43554	6.74802	-0.93870
5527.154	6.32010	-0.60093	6.83523	-0.91330
5531.161	6.11395	-0.53913	6.76464	-0.79756
5535.154	6.29472	-0.51633	6.79405	-0.75762
5539.154	6.25551	-0.57483	6.87871	-0.78619
5543.149	6.27680	-0.54033	6.81108	-0.74987
5547.158	6.26110	-0.45856	6.83198	-0.71007
5551.159	6.37275	-0.56620	6.81466	-0.71940
5555.164	6.34170	-0.58246	6.83660	-0.73658
5559.156	6.42699	-0.63542	6.87809	-0.75975
5563.157	6.35133	-0.64046	6.86934	-0.89402
5567.149	6.29550	-0.63638	6.85689	-0.92497
5571.155	6.37550	-0.61163	6.78598	-0.95272
5575.151	6.43138	-0.55026	6.74604	-0.95543
5579.152	6.47779	-0.54651	6.62963	-1.00758
5583.153	6.49337	-0.54795	6.64905	-0.97430
5587.153	6.50327	-0.49042	6.66726	-0.96598
5591.158	6.49004	-0.45747	6.62806	-0.94639
5595.153	6.51079	-0.45237	6.60255	-0.93452
5599.161	6.51265	-0.43407	6.57774	-0.88585
5603.154	6.48039	-0.38721	6.59035	-0.95808
5607.154	6.48465	-0.39022	6.62366	-0.95328
5611.151	6.47884	-0.38892	6.63994	-0.95868
5615.158	6.50258	-0.41828	6.64361	-0.97239
5619.155	6.53362	-0.44590	6.65627	-0.91983
5623.154	6.47223	-0.44223	6.67338	-0.95782
5627.154	6.52828	-0.42203	6.71417	-1.10527
5631.156	6.50053	-0.38379	6.66685	-1.14278
5635.161	6.43385	-0.42836	6.70597	-1.10847
5639.156	6.45282	-0.35311	6.73963	-1.13635
5643.150	6.44023	-0.38043	6.72592	-1.11057
5647.156	6.46686	-0.37927	6.73429	-1.16130
5651.148	6.44003	-0.33821	6.76376	-1.21601
5655.152	6.38680	-0.36837	6.80480	-1.19724
5659.155	6.39854	-0.34120	6.80573	-1.15392
5663.152	6.32301	-0.32201	6.86924	-1.15251
5667.153	6.26488	-0.24545	6.80685	-1.20100
5671.155	6.27172	-0.24762	6.78559	-1.13685
5675.152	6.17661	-0.31148	6.81627	-1.11752
5679.158	6.21583	-0.31573	6.76628	-1.10920
5683.189	6.19425	-0.36848	6.73094	-1.15196
5687.719	6.17707	-0.31096	6.72731	-1.17673
5691.154	6.20864	-0.43094	6.71018	-1.17470
5695.153	6.27059	-0.36351	6.74792	-1.10083
5699.147	6.29685	-0.32948	6.76390	-1.04157
5703.155	6.32775	-0.24984	6.76043	-1.01718
5707.152	6.41317	-0.30514	6.68668	-0.99172
5711.146	6.51554	-0.35773	6.72984	-1.00858
5715.205	6.50339	-0.35214	6.72516	-1.08334
5719.175	6.50913	-0.39514	6.71586	-1.10658
5723.148	6.50085	-0.35342	6.72413	-1.09190
5727.149	6.50788	-0.33253	6.69767	-1.04082
5731.155	6.51089	-0.32359	6.84096	-1.05704
5735.160	6.36126	-0.31749	6.83660	-1.09920
5739.150	6.04578	-0.39287	6.81911	-1.17680
5743.152	6.35898	-0.39913	6.75676	-1.19139
5747.154	6.30110	-0.42635	6.73106	-1.21797
5751.149	6.27753	-0.49162	6.70859	-1.25983
5755.148	6.28756	-0.47173	6.67975	-1.30424
5759.153	6.26125	-0.48561	6.69368	-1.23935
5763.152	6.28746	-0.41959	6.66065	-1.23371
5767.149	6.25492	-0.46771	6.64009	-1.28961
5771.146	5.24895	-0.37946	6.41596	-1.27444
5775.154	3.83848	-0.44161	4.83856	-1.31978
5779.151	3.06320	-0.44083	3.56156	-1.25412
5783.154	2.26668	-0.35384	3.01603	-1.23722
5787.149	1.68429	-0.34585	2.41479	-1.25523
5791.151	0.86069	-0.33097	1.49183	-1.28542
5795.152	0.74459	-0.22260	0.98236	-1.27151
5799.150	0.77350	-0.23935	0.81776	-1.03845
5803.152	0.91304	-0.21797	0.95276	-1.12032
5807.157	1.05168	-0.24606	1.05282	-1.11227
5811.152	1.11737	-0.20107	1.12479	-1.00440
5815.148	0.84883	-0.13290	1.15719	-0.95817
5819.154	0.89220	-0.04557	1.09728	-0.85241
5823.152	0.95001	-0.05240	1.18465	-0.82973
5827.153	0.95477	-0.09747	1.15826	-0.95440
5831.179	0.82759	-0.07779	1.12950	-0.95075
5835.154	0.85925	-0.07362	1.16456	-0.87742
5839.148	0.95370	-0.10731	1.23694	-0.88490
5843.156	0.97509	-0.06375	1.27257	-0.83958
5847.148	0.94822	-0.08169	1.29318	-0.96095
5851.153	0.90689	-0.01396	1.27924	-0.94579
5855.150	0.84786	0.01088	1.27425	-0.99422
5859.152	0.87783	-0.03297	1.23722	-0.98343
5863.144	0.81327	-0.05113	1.19539	-0.99065
5867.148	0.87252	-0.10753	1.19269	-0.97778
5871.168	0.97095	-0.12631	1.19817	-0.98227
5875.158	0.95740	-0.07600	1.20226	-0.97144
5879.148	0.96901	-0.06375	1.21983	-0.90083
5883.160	0.93128	-0.04825	1.18969	-0.85613
5887.153	0.92691	-0.05700	1.16342	-0.85681
5891.151	0.96499	-0.07958	1.13958	-0.82120
5895.152	0.88029	-0.12197	1.16175	-0.81423
5899.142	0.85617	-0.15795	1.19056	-0.82672
5903.152	0.93440	-0.15196	1.21700	-0.81516
5907.150	0.93869	-0.19961	1.29194	-0.77684
5911.151	0.88334	-0.23989	1.24674	-0.80127
5915.021	0.79724	-0.23845	1.27653	-0.79758
5919.028	0.70908	-0.18201	1.29948	-0.81757
5923.023	0.74077	-0.30989	1.27333	-0.81271
5927.022	0.71709	-0.31908	1.23131	-0.87387
5931.027	0.67245	-0.42066	1.18227	-0.85119
5935.026	0.69074	-0.47370	1.15178	-0.85115
5939.025	0.73791	-0.51599	1.23188	-0.88051
5943.018	0.80794	-0.48631	1.17604	-0.82995
5947.026	0.86538	-0.54663	1.12831	-0.81472
5951.024	0.85366	-0.49562	1.13357	-0.85354
5955.023	0.87036	-0.57463	1.15337	-0.84854
5959.024	0.84262	-0.48621	1.21189	-0.79157
5963.019	0.89957	-0.56540	1.16749	-0.78800
5967.028	0.95189	-0.60753	1.13194	-0.78935
5971.026	0.91823	-0.64920	1.16302	-0.68797
5975.024	0.99936	-0.55607	1.11249	-0.70031
5979.026	0.97050	-0.41767	1.14213	-0.68363
5983.024	0.97360	-0.42485	1.12906	-0.63765
5987.022	0.93753	-0.38848	1.15456	-0.72586
5991.021	0.90887	-0.27266	1.17002	-0.70861
5995.026	0.91110	-0.25251	1.14097	-0.75013
5999.025	0.88143	-0.21211	1.21253	-0.69872
6003.021	0.88399	-0.44027	1.13841	-0.71225
6007.022	0.92324	-0.36930	1.20911	-0.73739
6011.024	0.91264	-0.36777	1.16674	-0.79175
6015.031	0.94572	-0.20908	1.14275	-0.78006
6019.020	0.86158	-0.18759	1.20286	-0.78742
6023.026	0.87992	-0.20627	1.19725	-0.74552
6027.022	0.91354	-0.32950	1.11048	-0.84711
6031.025	0.89530	-0.32334	1.05731	-0.78537
6035.021	0.85481	-0.32474	1.12343	-0.74790
6039.026	0.88131	-0.46668	1.12087	-0.72509
6043.021	0.86319	-0.56529	1.12008	-0.73444
6047.020	0.85696	-0.47637	1.08676	-0.75628
6051.017	0.79570	-0.43722	1.03903	-0.74039
6055.030	0.82012	-0.36122	1.07133	-0.74252
6059.102	0.83049	-0.46718	1.17483	-0.74292
6063.028	0.87379	-0.45373	1.11961	-0.74551
6067.023	0.86379	-0.52129	1.02387	-0.78575
6071.024	0.81774	-0.59163	1.06691	-0.67326
6075.018	0.80394	-0.58139	1.08949	-0.58872
6079.025	0.85677	-0.61992	1.02444	-0.60066
6083.019	0.82387	-0.62146	1.07594	-0.62427
6087.019	0.78436	-0.62149	0.99854	-0.72075
6091.018	0.81808	-0.58462	1.04558	-0.63211
6095.024	0.88639	-0.63069	1.06989	-0.81483
6099.030	0.92810	-0.62915	1.08150	-0.72893
6103.020	0.86505	-0.63100	1.04783	-0.68534
6107.019	0.78714	-0.60385	1.07329	-0.64969
6111.018	0.86165	-0.59920	1.11201	-0.77517
6115.024	0.84349	-0.51903	1.14392	-0.75279
6119.019	0.77280	-0.50301	1.15337	-0.87834
6123.016	0.72618	-0.47633	1.16079	-0.85137
6127.022	0.85041	-0.46626	1.08917	-0.88865
6131.021	0.89996	-0.41172	1.12643	-0.79703
6135.022	0.79796	-0.34611	1.11363	-0.74142
6139.019	0.74796	-0.28539	1.06143	-0.81843
6143.025	0.68389	-0.31032	0.93936	-0.81928
6147.020	0.70821	-0.18166	0.89805	-0.78549
6151.022	0.72039	-0.17649	0.89034	-0.80859
6155.015	0.73533	-0.25451	0.91684	-0.80595
6159.024	0.68022	-0.21893	0.86935	-0.84258
6163.022	0.69278	-0.13348	0.89488	-0.80665
6167.024	0.73642	0.01138	0.89805	-0.80916
6171.019	0.80379	-0.07129	0.81885	-0.87632
6175.019	0.73087	-0.06254	0.80665	-0.94866
6179.023	0.73037	-0.07531	0.84979	-0.97461
6183.043	0.81563	0.01690	0.91711	-0.94277
6187.023	0.81161	-0.01143	0.90627	-0.92367
6191.019	0.80327	-0.06629	0.85553	-0.80437
6195.018	0.84061	-0.10391	0.92604	-0.75838
6199.022	0.83439	-0.06167	0.82449	-0.61212
6203.017	0.87004	-0.04189	0.75627	-0.76514
6207.018	0.90048	-0.11250	0.72672	-0.70808
6211.017	0.86361	-0.11680	0.72166	-0.76709
6215.018	0.86567	-0.07931	0.82853	-0.67771
6219.016	0.89823	-0.02865	0.89252	-0.49634
6223.022	1.41787	0.05507	1.99141	-0.37099
6227.020	3.35241	0.04426	3.31462	0.22701
6231.180	3.42470	0.42978	3.70601	0.33431
6235.023	4.11453	0.97966	4.11080	0.62697
6239.017	4.72184	1.78081	5.61347	1.55274
6243.012	5.33372	1.59201	6.02622	1.09813
6247.037	5.57999	2.04812	5.99524	1.28944
6251.026	5.60632	2.10237	5.84888	1.42458
6255.015	5.32053	2.32969	5.67696	1.52292
6259.021	4.98179	2.46428	5.49773	1.59946
6263.025	5.11563	2.36915	5.59993	1.44574
6267.024	5.39756	2.38072	5.75566	1.62069
6271.020	5.50641	2.34903	5.76475	1.79585
6275.054	5.42011	2.33588	5.72345	1.80084
6279.016	5.50183	2.36618	5.83979	1.83922
6283.018	5.60027	2.39435	5.86327	1.89166
6287.017	5.53653	2.38338	5.90212	1.86499
6291.016	5.54771	2.36603	5.93964	1.90357
6295.016	5.57331	2.29842	5.94244	1.89682
6299.032	5.64361	2.27012	5.98071	1.95599
6303.019	5.69219	2.26015	5.98636	1.99761
6307.016	5.72146	2.29126	6.02460	2.02119
6311.018	5.74613	2.35283	6.00504	1.99125
6315.019	5.69386	2.31394	6.02708	2.00714
6319.014	5.73178	2.28434	5.99384	1.99711
6323.021	5.71568	2.27248	6.00479	2.00154
6327.016	5.70195	2.26510	5.94418	1.98774
6331.019	5.70669	2.30678	5.93829	2.01235
6335.012	5.68875	2.30053	5.92238	2.01364
6339.015	5.67642	2.33966	5.87309	2.03327
6343.014	5.65607	2.35487	5.87236	2.02328
6347.020	5.66204	2.38659	5.86330	2.04699
6351.011	5.66071	2.39714	5.86806	2.04223
6355.019	5.61972	2.37734	5.90025	2.08237
6359.015	5.64238	2.34626	5.89095	2.03526
6363.015	5.61146	2.35197	5.91901	2.00854
6367.060	5.59890	2.38762	5.92611	1.97756
6371.019	5.61404	2.37995	5.94376	1.98372
6375.022	5.58661	2.39113	5.97254	1.93215
6379.015	5.59000	2.38521	5.94988	1.89707
6383.014	5.56652	2.40782	5.97170	1.89068
6387.015	5.55096	2.42541	6.01343	1.87500
6391.018	5.53975	2.41847	6.05628	1.81141
6395.016	5.54395	2.41594	6.11012	1.80447
6399.010	5.54307	2.48877	6.12320	1.82479
6403.013	5.58680	2.52109	6.15191	1.84463
6407.018	5.57545	2.51828	6.14285	1.77662
6411.015	5.59477	2.51573	6.20769	1.84180
6415.013	5.58884	2.53748	6.28146	1.86898
6419.014	5.62721	2.57425	6.13949	1.86018
6423.014	5.58643	2.64359	6.06745	2.00477
6427.014	5.48637	3.25076	5.93561	3.12783
6431.030	3.33695	4.61132	4.92891	4.73540
6435.020	2.67667	5.84816	4.06453	5.57800
6439.017	2.59616	7.04606	3.52756	7.27237
6443.017	2.51918	7.81211	3.00123	7.78233
6447.014	2.62063	8.56066	3.10703	9.65173
6451.018	2.40094	9.30695	2.94238	10.59557
6455.015	2.27721	10.29167	2.79280	10.91921
6459.018	2.29894	10.51739	2.73912	11.21759
6463.012	2.26832	10.39503	2.95745	11.31462
6467.019	2.28043	10.42149	3.11279	11.30366
6471.023	2.20421	9.84332	2.83952	11.13890
6475.017	2.18885	10.11359	2.88876	11.05714
6479.018	2.14880	10.05062	2.87715	11.07462
6483.015	2.10674	10.25413	2.78481	11.14546
6487.018	2.09440	10.29611	2.77688	11.29216
6491.012	2.03846	10.26654	2.79332	11.69544
6495.049	2.03754	10.25500	2.82868	11.50872
6499.016	2.02242	10.35404	2.76789	11.43221
6503.044	2.03789	10.38162	2.75720	11.25629
6507.019	2.08094	10.36912	2.75576	11.52443
6511.011	2.10131	10.49919	2.72917	11.56292
6515.021	2.12069	10.46487	2.72692	11.60720
6519.015	2.15613	10.52007	2.73417	11.67094
6523.013	2.09903	10.54474	2.72112	11.84495
6527.012	2.03511	10.56402	2.74551	11.74340
6531.016	1.99191	10.56048	2.78867	11.84095
6535.012	2.03526	10.45190	2.80771	11.74794
6539.016	2.11452	10.30005	2.77153	11.67932
6543.010	2.14429	10.24482	2.72221	11.65358
6547.012	2.15693	10.26077	2.68034	11.71501
6551.013	2.18850	10.25388	2.67135	11.72375
6555.037	2.16352	10.16915	2.63333	11.76422
6559.012	2.13125	10.17669	2.60797	11.72983
6563.013	2.15556	10.06138	2.57627	11.65990
6567.015	2.19063	10.13223	2.50910	11.62979
6571.027	2.23293	10.17958	2.43275	11.65654
6575.014	2.25818	10.10973	2.31879	11.62492
6579.023	2.29399	10.17084	2.30568	11.63267
6583.011	2.25399	10.12595	2.24886	11.68077
6587.011	2.22059	10.12235	2.31854	11.67367
6591.009	2.20419	10.05868	2.31366	11.65688
6595.016	2.16612	10.05438	2.36894	11.64083
6599.016	2.21003	10.12197	2.38209	11.60042
6603.012	2.21301	10.10684	2.45426	11.62469
6607.006	2.21841	10.16813	2.47284	11.65542
6611.016	2.25295	10.33269	2.50546	11.72139
6615.012	2.27379	10.23550	2.59733	12.18923
6619.015	2.35137	10.55411	2.90359	13.20255
6623.018	2.75272	12.23475	3.75395	14.44932
6627.011	3.54297	12.70270	5.21233	14.87404
6631.015	4.00778	13.68026	NaN	NaN
6635.009	6.27224	13.30381	NaN	NaN
6639.014	6.66942	13.56732	NaN	NaN
6643.015	7.33567	13.53730	NaN	NaN
6647.011	8.55940	13.79409	NaN	NaN
6651.005	8.43933	13.86861	NaN	NaN
6655.016	8.26651	13.94264	NaN	NaN
6659.010	8.46454	13.85875	NaN	NaN
6663.006	8.26335	13.87810	NaN	NaN
6667.010	8.13257	13.86419	NaN	NaN
6671.012	8.78433	13.88766	NaN	NaN
6675.010	9.00247	13.95245	NaN	NaN
6679.015	9.20910	13.97584	NaN	NaN
6683.027	8.84382	14.00778	NaN	NaN
6687.030	8.89058	14.04376	NaN	NaN
6691.020	9.03662	14.02720	NaN	NaN
6695.012	8.36834	13.98518	NaN	NaN
6699.012	8.45786	13.91406	NaN	NaN
6703.008	8.32711	13.85969	NaN	NaN
6707.033	8.26150	13.82278	NaN	NaN
6711.011	8.22465	13.82495	NaN	NaN
6715.059	8.18208	13.80229	NaN	NaN
6719.026	8.24417	13.73737	NaN	NaN
6723.018	8.19572	13.66505	NaN	NaN
6727.014	8.14181	13.67992	NaN	NaN
6731.007	8.04939	13.68591	NaN	NaN
6735.013	8.05638	13.64373	NaN	NaN
6739.010	8.07195	13.66987	NaN	NaN
6743.012	8.04665	13.68844	NaN	NaN
6747.021	8.01482	13.74029	NaN	NaN
6751.012	7.99888	13.81313	NaN	NaN
6755.011	7.96729	13.83799	NaN	NaN
6759.007	7.91124	13.89963	NaN	NaN
6763.017	7.85404	13.94744	NaN	NaN
6767.009	7.78862	14.00248	NaN	NaN
6770.888	7.71774	14.06282	NaN	NaN
6774.884	7.63033	14.08898	NaN	NaN
6778.886	10.43059	14.09878	NaN	NaN
6782.883	10.32630	14.19016	NaN	NaN
6786.885	6.11505	11.92132	NaN	NaN
6790.884	5.65096	12.05672	NaN	NaN
6794.887	5.54629	12.04535	NaN	NaN
6798.881	5.50252	12.06313	NaN	NaN
6802.888	10.01164	14.47528	NaN	NaN
6806.883	NaN	NaN	NaN	NaN
6810.887	9.76751	14.67844	NaN	NaN
6814.893	9.39424	14.80484	NaN	NaN
6818.884	NaN	NaN	NaN	NaN
6822.887	NaN	NaN	NaN	NaN
6826.881	9.14392	12.23333	NaN	NaN
6830.887	9.79886	13.40195	NaN	NaN
6834.882	8.78639	13.85187	NaN	NaN
6838.884	6.35233	13.78070	NaN	NaN
6842.880	2.83237	13.90225	NaN	NaN
6846.885	0.92522	13.80134	NaN	NaN
6850.889	-2.26733	13.43315	NaN	NaN
6854.886	-3.84093	12.90932	NaN	NaN
6858.888	-6.98883	12.94644	NaN	NaN
6862.883	-9.04437	12.61825	NaN	NaN
6866.883	-11.50100	12.17831	NaN	NaN
6870.888	-14.00298	11.88795	NaN	NaN
6874.886	-15.72989	11.91026	-12.42792	14.50410
6878.878	-17.07041	11.65382	-13.75849	14.06752
6882.880	-19.10160	11.49599	-14.80676	13.84922
6886.882	-21.10193	11.38302	-16.59184	13.57910
6890.886	-21.85972	11.08708	-17.05210	13.43297
6894.886	-23.01816	11.22672	-19.37362	13.28715
6898.887	-19.93689	-12.08165	-19.97237	13.17181
6902.880	-19.95939	-12.07998	-20.21623	13.04455
6906.914	-19.96963	-12.07922	-20.39115	13.02608
6910.881	-19.97551	-12.07878	-20.57994	12.98761
6914.886	-19.97934	-12.07849	-20.78200	13.01534
6918.882	-19.98202	-12.07829	-20.56672	12.92192
6922.884	-19.98408	-12.07814	-20.60737	12.93777
6926.877	-20.02083	-12.07540	-20.67165	12.93348
6930.880	-19.99477	-12.07735	-20.65210	12.94936
6934.888	NaN	NaN	-20.83854	12.98064
6938.882	-23.43168	10.33568	-20.69292	12.85619
6942.880	NaN	NaN	-20.71583	12.81702
6946.879	NaN	NaN	-20.69240	12.95785
6950.880	-23.48060	10.62612	-20.79461	12.89208
6954.879	NaN	NaN	-20.85453	12.99190
6958.885	NaN	NaN	-20.50428	12.78486
6962.879	-23.41350	10.58823	-20.54631	12.47065
6966.884	NaN	NaN	-20.46455	12.86934
6970.884	NaN	NaN	-20.55310	12.81667
6974.880	NaN	NaN	-20.48263	12.58362
6978.887	NaN	NaN	-20.39486	12.99971
6982.882	-23.24813	10.88220	-20.65373	12.95665
6986.880	NaN	NaN	-20.28358	12.71813
6990.875	-23.29687	10.92156	-20.52269	12.85973
6994.901	-23.25507	10.93248	-20.61617	13.27528
6998.888	NaN	NaN	-20.25835	12.75890
7002.877	-23.05966	10.81816	-20.58521	13.08578
7006.878	-19.99381	-12.07742	-20.51862	13.29552
7010.878	-22.90428	10.94532	-20.43379	12.91391
7014.878	-19.99396	-12.07741	-20.42768	12.99615
7018.878	-22.96754	10.80101	-20.51512	13.33912
7022.888	-23.20454	10.86534	-20.35948	12.85215
7026.880	-22.94921	10.73358	-20.24542	12.87225
7030.882	-23.12942	10.82564	-20.53079	13.06312
7034.884	-22.96730	10.70627	-20.30523	13.20139
7038.880	-23.02333	10.85463	-20.43579	13.15946
7042.883	-22.96869	10.77747	-20.25147	12.93888
7046.882	-23.08269	10.79699	-20.39832	13.30758
7050.881	-23.05740	10.84426	-20.33428	13.05591
7054.878	-23.20003	10.79515	-20.39455	13.13539
7058.883	-23.20114	10.87876	-20.46131	13.52270
7062.887	-23.21123	11.00536	-20.35215	13.00644
7066.879	-23.18070	10.91545	-20.43111	13.36003
7070.876	-23.21951	11.04372	-20.46255	13.18469
7074.883	-23.14506	10.85536	-20.47154	13.28017
7078.879	-23.27216	11.05950	-20.55086	13.27102
7082.879	-23.03436	10.96568	-20.49692	13.20648
7086.873	-19.99548	-12.07729	-20.49034	13.14323
7090.878	-22.92220	11.08515	-20.39653	13.12964
7094.878	-23.17684	11.16113	-20.43560	13.10158
7098.878	-23.00928	11.09845	-20.36941	13.11119
7102.881	-23.15175	11.29059	-20.31396	13.03761
7106.887	-22.87949	11.01884	-20.29205	12.81954
7110.880	-23.07511	11.08015	-20.52903	13.13513
7114.882	-19.99569	-12.07728	-20.58447	13.18990
7118.881	-19.99495	-12.07733	-20.24219	-12.05882
7122.881	-19.99462	-12.07736	-20.18840	-12.06286
7126.876	-19.99416	-12.07739	-20.14661	-12.06600
7130.882	-19.99414	-12.07739	-20.12111	-12.06791
7134.915	-23.26202	12.25227	-20.11922	-12.06805
7138.881	-19.99385	-12.07741	-20.08666	-12.07049
7142.878	-19.99381	-12.07742	-20.07103	-12.07166
7146.882	-19.99379	-12.07742	-20.05936	-12.07253
7150.877	NaN	NaN	-20.04784	-12.07339
7154.880	NaN	NaN	-20.01982	-12.07548
7158.874	NaN	NaN	NaN	NaN
7162.876	NaN	NaN	NaN	NaN
7166.877	NaN	NaN	NaN	NaN
7170.877	NaN	NaN	NaN	NaN
7174.877	NaN	NaN	NaN	NaN
7178.878	NaN	NaN	NaN	NaN
7182.879	NaN	NaN	NaN	NaN
7186.888	NaN	NaN	NaN	NaN
7190.874	NaN	NaN	NaN	NaN
7194.878	NaN	NaN	NaN	NaN
7198.873	NaN	NaN	NaN	NaN
7202.880	NaN	NaN	NaN	NaN
7206.875	NaN	NaN	NaN	NaN
7210.878	NaN	NaN	NaN	NaN
7214.873	-23.57646	12.81713	NaN	NaN
7218.880	NaN	NaN	NaN	NaN
7222.875	-23.57434	12.46689	NaN	NaN
7226.886	NaN	NaN	NaN	NaN
7230.870	NaN	NaN	NaN	NaN
7234.875	NaN	NaN	NaN	NaN
7238.874	NaN	NaN	NaN	NaN
7242.877	NaN	NaN	NaN	NaN
7246.894	NaN	NaN	NaN	NaN
7250.877	NaN	NaN	NaN	NaN
7254.885	-23.27576	12.28394	NaN	NaN
7258.874	-20.71359	11.48198	-19.82013	14.23437
7262.876	-19.78441	9.75814	-16.70042	11.82930
7266.878	-17.30136	8.31925	-15.74918	10.35734
7270.882	-15.74109	7.25034	-13.91626	8.42548
7274.879	-14.02064	6.21052	-11.61023	6.45920
7278.879	-13.40537	5.21083	-10.48029	4.02126
7282.881	-12.06012	3.88032	-9.85734	3.53601
7286.877	-10.27304	2.26885	-8.44941	2.60002
7290.878	-9.34800	1.56146	-7.54993	1.10153
7294.876	-7.86247	0.71790	-5.48108	-0.16568
7298.877	-6.47255	0.11580	-4.57840	-1.31527
7302.872	-4.74279	-1.58786	-3.13610	-2.16510
7306.884	-3.46177	-2.08882	-2.01375	-3.28331
7310.880	-2.62172	-3.04202	-0.62697	-3.68863
7314.886	-1.39855	-3.34868	0.27374	-4.31224
7318.874	-0.55836	-3.66850	0.60196	-4.45691
7322.878	0.35280	-4.10070	1.87634	-4.71877
7326.873	1.00638	-4.18230	1.97726	-5.14928
7330.878	1.68530	-4.01886	2.01793	-5.25390
7334.876	1.63804	-4.06646	1.87592	-5.40212
7338.878	1.50115	-4.10283	1.90703	-5.04453
7342.874	1.50132	-4.21860	1.43848	-5.21793
7346.880	1.39423	-4.27475	1.58163	-5.24567
7350.905	1.06845	-4.30401	1.78146	-5.40974
7354.878	0.61828	-4.39193	1.58391	-5.47896
7358.870	1.00305	-4.36491	1.83598	-5.60147
7362.878	0.89656	-4.33869	1.79542	-5.57980
7366.875	1.35028	-4.22898	1.90195	-5.57019
7370.879	1.35603	-4.23309	1.81044	-5.55402
7374.874	1.42846	-4.18948	1.86761	-5.52473
7378.874	1.33200	-4.24065	1.88660	-5.49581
7382.871	1.33282	-4.11499	1.91605	-5.48587
7386.872	1.19068	-4.08852	1.90014	-5.49766
7390.872	1.28135	-4.02659	1.91023	-5.50656
