time (ms)	lx (deg)	ly (deg)	rx (deg)	ry (deg)
0.000	0.97206	-1.70686	1.47248	-1.63732
3.984	0.99248	-1.80068	1.39039	-1.70166
7.982	0.92887	-1.88530	1.48706	-1.85905
11.990	0.94867	-1.92164	1.47915	-1.82097
16.012	0.89870	-1.79618	1.44882	-1.77034
19.988	0.91073	-1.64053	1.35851	-1.79126
23.988	0.97770	-1.50418	1.42335	-1.72408
28.015	0.88354	-1.48728	1.37528	-1.71351
32.000	0.78759	-1.38708	1.48161	-1.67352
35.986	0.79220	-1.44357	1.44366	-1.66611
39.987	0.86148	-1.58638	1.45130	-1.74830
43.984	0.87753	-1.57560	1.43773	-1.80227
47.979	0.84027	-1.69776	1.44627	-1.78082
51.989	0.83860	-1.74180	1.43932	-1.72118
55.990	0.77295	-1.66353	1.41013	-1.67013
59.986	0.80719	-1.83073	1.43907	-1.50057
63.984	0.83540	-1.80205	1.47766	-1.59308
67.994	0.87076	-1.84291	1.50705	-1.71922
71.988	0.89393	-1.80532	1.48352	-1.73195
75.984	0.85992	-1.87471	1.44031	-1.82810
79.984	0.92023	-1.95449	1.50750	-1.83417
83.989	0.88592	-1.93463	1.40827	-1.85636
87.987	0.86696	-1.89724	1.34619	-1.82465
91.984	0.80099	-1.80767	1.42377	-1.62373
95.995	0.59538	-1.41465	1.36901	-1.17852
99.988	0.45003	-0.97545	1.18798	-0.50727
103.983	-0.09143	0.03558	1.03598	-0.13459
107.990	-0.19092	0.11090	0.69166	0.14069
111.994	-0.26686	0.06893	0.38834	0.42282
115.992	-0.18345	-0.40014	0.59717	0.44432
119.986	-0.00464	-0.37306	0.68191	0.23640
123.989	-0.24790	-0.41907	0.64181	0.32605
127.986	-0.35025	-0.22838	0.68940	0.22087
131.986	-0.39971	-0.25403	0.54359	0.09012
135.984	-0.48167	-0.24187	0.48212	0.16743
139.988	-0.51384	-0.13520	0.49460	0.27678
143.986	-0.49785	-0.09231	0.49455	0.26751
147.985	-0.46795	-0.06958	0.56791	0.16606
151.993	-0.50860	0.06301	0.59176	0.18415
155.990	-0.47056	-0.00932	0.59662	0.13197
159.985	-0.46703	-0.02085	0.63771	0.10679
163.989	-0.47582	-0.03451	0.62181	0.09502
167.987	-0.50398	0.04567	0.61652	0.04793
171.985	-0.50716	0.06095	0.53314	0.00914
175.982	-0.53354	0.10496	0.47661	0.01680
179.987	-0.50624	0.16718	0.35221	0.00149
183.986	-0.48763	0.17677	0.28624	-0.00872
187.984	-0.48763	0.26578	0.07076	-0.03394
191.987	-0.49071	0.30799	0.11510	-0.06076
195.993	-0.44879	0.17704	0.04264	-0.08486
199.985	-0.45443	0.17540	-0.04758	-0.08898
203.984	-0.43693	0.07989	-0.00206	-0.11003
207.984	-0.46080	0.14941	-0.05373	-0.08397
211.989	-0.44207	0.11974	-0.00516	-0.10066
215.986	-0.39462	0.10759	0.07381	-0.16741
219.984	-0.35672	0.10143	0.13841	-0.16129
223.989	-0.34342	0.13147	0.17660	-0.18403
227.984	-0.33228	0.09214	0.26607	-0.21236
232.026	-0.30257	0.02212	0.38767	-0.23477
235.993	-0.26187	0.04396	0.42745	-0.23082
239.987	-0.23065	0.11495	0.46018	-0.17779
243.984	-0.25252	0.14474	0.50274	-0.14081
247.981	-0.26312	0.20314	0.57843	-0.14218
251.986	-0.26746	0.27309	0.59436	-0.19041
255.984	-0.24373	0.31016	0.58347	-0.13512
259.982	-0.25793	0.49267	0.55726	-0.05862
263.980	-0.23443	0.50872	0.59990	-0.04304
267.986	-0.26532	0.48273	0.58674	-0.00166
271.987	-0.26761	0.62299	0.51972	-0.03285
275.987	-0.24666	0.67941	0.42083	-0.07845
279.998	-0.29816	0.67464	0.38015	-0.07718
283.988	-0.29406	0.64500	0.30694	-0.19265
287.983	-0.23932	0.64525	0.19075	-0.24228
291.981	-0.15600	0.54622	0.25674	-0.28047
295.981	0.01690	0.43759	0.27617	-0.32475
299.986	0.08967	0.44424	0.30885	-0.41161
303.986	0.08314	0.23067	0.32881	-0.50993
307.987	0.15042	0.13607	0.23530	-0.51682
311.984	0.25761	0.11932	0.17395	-0.58768
315.981	0.26580	0.04980	0.26776	-0.64580
319.986	0.27252	0.04237	0.35149	-0.64194
323.987	0.23237	0.00393	0.32431	-0.68485
327.980	0.19544	0.01725	0.37956	-0.67796
331.981	0.17903	-0.06163	0.40008	-0.66333
335.984	0.22490	-0.07229	0.41676	-0.70198
339.982	0.15873	-0.06175	0.41440	-0.68444
343.983	0.16928	-0.11942	0.47289	-0.66717
347.987	0.19492	-0.13334	0.55396	-0.54806
351.979	0.28801	-0.15153	0.54096	-0.45598
355.980	0.26217	-0.13886	0.57044	-0.45747
359.990	0.26527	-0.15898	0.52148	-0.38733
363.982	0.20720	-0.13572	0.47162	-0.38810
368.016	0.23592	-0.17002	0.48244	-0.35784
371.995	0.32171	-0.20100	0.41648	-0.33453
375.989	0.34310	-0.16795	0.42070	-0.28173
379.981	0.43651	-0.14174	0.57255	-0.23270
383.980	0.42723	-0.13632	0.53821	-0.21250
387.986	0.40112	-0.01421	0.49011	-0.17617
391.982	0.37226	0.02130	0.53548	-0.15304
395.982	0.33305	0.01245	0.62699	-0.14571
399.984	0.23686	0.05840	0.76672	-0.13942
403.989	0.27818	0.05797	0.79674	-0.12704
407.985	0.28813	0.10687	0.71764	-0.10977
411.981	0.30347	0.13446	0.62215	-0.11157
415.984	0.27565	0.11527	0.70876	-0.14103
419.982	0.18648	0.14835	0.71675	-0.13552
424.006	0.12592	0.15049	0.62580	-0.16163
427.983	0.07143	0.14273	0.62933	-0.11991
431.980	0.07130	0.10824	0.68270	-0.18556
436.023	0.02256	0.11120	0.61377	-0.19217
439.982	0.01420	0.09336	0.57855	-0.26227
443.983	0.04246	0.07721	0.52828	-0.31915
447.980	-0.01693	0.08237	0.48959	-0.40273
451.979	-0.06162	0.05191	0.47872	-0.39903
455.978	-0.10086	0.03086	0.51868	-0.51243
459.983	-0.14538	0.05969	0.53466	-0.47141
463.981	-0.10577	0.04264	0.55376	-0.55104
467.980	-0.09748	0.06543	0.53553	-0.64252
471.985	-0.00104	0.06819	0.53374	-0.68682
475.981	0.05018	0.11264	0.54744	-0.61479
479.980	0.09009	0.09443	0.58327	-0.63504
483.984	0.08009	0.10655	0.56558	-0.64316
487.982	0.13890	0.12663	0.58168	-0.73826
491.980	0.13980	0.15652	0.61136	-0.64201
495.978	0.16670	0.14313	0.63871	-0.66087
499.978	0.19216	0.10837	0.60615	-0.44400
503.982	0.22033	0.10012	0.60414	-0.42837
507.980	0.20522	0.13090	0.59049	-0.31348
511.982	0.13297	0.08528	0.63471	-0.35725
515.980	0.13548	0.12884	0.71861	-0.21982
519.978	0.13662	0.13640	0.76335	-0.27789
523.978	0.09125	0.18398	0.80059	-0.24519
527.986	0.08602	0.23042	0.83426	-0.02753
531.982	0.06460	0.31928	0.79677	-0.02336
535.980	0.09689	0.37872	0.78771	-0.02557
539.983	0.10850	0.47250	0.76933	0.01446
543.980	0.10495	0.47647	0.77712	-0.00124
547.979	0.10773	0.51911	0.78201	0.00109
551.981	0.18653	0.59901	0.78345	0.01759
555.977	0.19400	0.66023	0.76593	-0.01866
559.977	0.20395	0.77621	0.74106	-0.05374
563.976	0.19755	0.77104	0.70436	-0.07887
567.986	0.25292	0.82552	0.65297	-0.01429
572.017	0.22038	0.87566	0.60615	-0.11231
575.993	0.23810	0.90701	0.58322	-0.13023
579.979	0.25306	0.93737	0.56635	-0.18166
583.979	0.20738	0.95824	0.51148	-0.21195
587.981	0.19174	0.97294	0.48148	-0.24495
591.978	0.17191	0.98924	0.43510	-0.28903
595.981	0.12975	0.98803	0.34729	-0.29453
599.980	0.13709	0.98860	0.32491	-0.31732
603.979	0.07736	0.98450	0.24540	-0.33508
607.983	0.08036	0.98130	0.22376	-0.34622
611.984	0.05892	0.94282	0.18742	-0.41172
615.982	0.07480	0.90585	0.16913	-0.45281
619.978	0.04968	0.90150	0.13223	-0.55071
623.978	0.01936	0.86054	0.09763	-0.54535
627.976	0.00660	0.84466	0.09044	-0.61189
631.983	0.02963	0.81820	0.11513	-0.59879
635.978	0.03795	0.78630	0.17496	-0.66707
640.026	0.03966	0.72931	0.25011	-0.73879
643.983	0.01243	0.66595	0.33990	-0.59396
647.977	0.02519	0.63497	0.47830	-0.52138
651.983	0.02797	0.58736	0.49483	-0.42731
656.007	0.01350	0.57427	0.64466	-0.44300
659.980	0.03544	0.51598	0.67933	-0.46156
663.976	0.03976	0.42531	0.73508	-0.33824
667.976	0.05408	0.43595	0.79456	-0.34529
671.979	0.14082	0.35892	0.82071	-0.33779
675.994	0.12578	0.36948	0.84595	-0.40695
679.984	0.13426	0.34262	0.86637	-0.38968
683.975	0.21413	0.30161	0.85364	-0.38166
687.979	0.19236	0.31744	0.90922	-0.40337
691.852	0.25368	0.34092	0.88843	-0.48089
695.849	0.24386	0.28705	0.92212	-0.54319
699.854	0.32156	0.31230	0.93142	-0.55330
703.852	0.34873	0.36072	0.97269	-0.57267
707.875	0.40472	0.43211	0.94919	-0.64835
711.861	0.41070	0.36693	0.94046	-0.67438
715.850	0.39261	0.39618	0.99263	-0.71755
719.900	0.40301	0.38584	1.01915	-0.72812
723.855	0.41470	0.38418	0.97852	-0.73392
727.850	0.34613	0.41474	0.98353	-0.72726
731.859	0.39249	0.45373	0.94026	-0.75596
735.851	0.36127	0.49902	0.92425	-0.74342
739.855	0.35938	0.56000	0.89185	-0.68301
743.850	0.32801	0.57056	0.85146	-0.61080
747.850	0.28361	0.59275	0.79781	-0.55908
751.847	0.23676	0.51026	0.82761	-0.66295
755.849	0.21733	0.54872	0.82478	-0.60370
759.857	0.19608	0.51518	0.78268	-0.61275
763.852	0.20656	0.55034	0.76039	-0.58957
767.848	0.20358	0.56962	0.71106	-0.61177
771.847	0.20609	0.50606	0.67712	-0.64444
775.871	0.22423	0.55657	0.62687	-0.71500
779.861	0.26039	0.59543	0.62952	-0.80191
783.854	0.28632	0.59466	0.55744	-0.79854
787.851	0.32714	0.72008	0.60037	-0.89206
791.848	0.33228	0.61086	0.59109	-0.91845
795.852	0.34628	0.57250	0.53111	-0.91274
799.851	0.37869	0.62032	0.53185	-0.94253
803.850	0.38263	0.64857	0.48314	-0.99006
807.847	0.37936	0.71466	0.45939	-0.98872
811.853	0.33394	0.63732	0.51277	-1.02185
815.852	0.33161	0.66465	0.54200	-1.04196
819.852	0.28329	0.66244	0.55848	-1.05105
823.852	0.19881	0.58445	0.54476	-1.03411
827.853	0.13841	0.54873	0.56578	-0.96230
831.850	0.09560	0.51098	0.57558	-0.88772
835.847	0.07651	0.49439	0.59503	-0.85835
839.847	0.03514	0.50887	0.63846	-0.84970
843.852	0.01856	0.53315	0.73776	-0.82367
847.888	0.05266	0.51106	0.79424	-0.71197
851.854	0.06825	0.51074	0.82379	-0.67393
855.848	0.11133	0.50947	0.84801	-0.56790
859.847	0.10314	0.51098	0.90984	-0.52180
863.851	0.10575	0.50847	0.91160	-0.45656
867.850	0.13536	0.42879	0.96529	-0.41491
871.848	0.13491	0.43890	0.94616	-0.41206
875.846	0.17221	0.41716	0.90634	-0.36521
879.849	0.15739	0.30080	0.82089	-0.28156
883.848	0.29205	0.23072	0.76238	-0.28797
887.845	0.33387	0.17665	0.68965	-0.30400
891.848	0.42807	0.07161	0.62441	-0.33055
895.850	0.42095	0.03099	0.66585	-0.31516
899.848	0.23443	-0.01787	0.63546	-0.28170
903.847	0.31826	0.00335	0.70037	-0.31243
907.872	0.33896	-0.02413	0.77168	-0.32410
911.856	0.21874	0.02820	0.70811	-0.28462
915.853	0.17017	0.02358	0.78846	-0.25957
919.847	0.10322	0.04381	0.72409	-0.25496
923.846	0.10741	0.08548	0.75042	-0.25557
927.845	0.02909	0.17437	0.79491	-0.22205
931.849	-0.03705	0.25239	0.84161	-0.14468
935.847	-0.01933	0.26429	0.91274	-0.16013
939.848	-0.01983	0.26961	0.91545	-0.06902
943.845	-0.03782	0.36871	0.89659	-0.01687
947.852	0.00541	0.44188	0.87081	0.01824
951.854	0.00154	0.44949	0.86389	-0.00952
955.849	0.03844	0.51175	0.88895	-0.05349
959.848	0.08957	0.59676	0.88694	-0.14537
963.846	0.12647	0.52706	0.89582	-0.10080
967.849	0.12476	0.53332	0.90160	-0.09282
971.848	0.14985	0.47167	0.90316	-0.14247
975.845	0.15367	0.39326	0.89922	-0.16021
979.850	0.10878	0.34634	0.86267	-0.16558
983.853	0.09294	0.24958	0.83252	-0.21331
987.853	0.10356	0.28370	0.82558	-0.23666
991.852	0.08843	0.06938	0.82913	-0.27917
995.844	0.04132	0.04036	0.73717	-0.25548
999.849	0.03025	0.00467	0.70883	-0.24852
1003.847	-0.00844	-0.07298	0.61084	-0.19090
1007.847	0.01623	-0.08016	0.50071	-0.22624
1011.843	0.03010	-0.16828	0.57488	-0.27419
1015.848	0.05929	-0.17993	0.50503	-0.32814
1019.847	0.21006	-0.19988	0.44805	-0.37421
1023.844	0.24780	-0.20928	0.40782	-0.40577
1027.843	0.30399	-0.20118	0.34831	-0.38222
1031.849	0.25495	-0.18905	0.32990	-0.36492
1035.848	0.27453	-0.13972	0.32563	-0.30777
1039.845	0.32796	0.00144	0.31478	-0.33498
1043.850	0.40889	0.10802	0.52813	-0.34064
1047.851	0.44453	0.23588	0.56141	-0.37212
1051.850	0.42428	0.22080	0.57749	-0.36573
1055.843	0.48036	0.28906	0.67384	-0.34041
1059.843	0.46832	0.31254	0.66655	-0.32031
1063.902	0.41643	0.30312	0.71615	-0.32545
1067.850	0.39134	0.30424	0.76235	-0.32403
1071.848	0.34938	0.32355	0.78109	-0.33431
1075.841	0.34097	0.37205	0.80067	-0.41464
1079.847	0.31022	0.36945	0.78295	-0.45362
1083.844	0.22934	0.39512	0.72814	-0.50563
1087.843	0.22859	0.34555	0.70508	-0.48844
1091.842	0.29565	0.36234	0.59267	-0.45669
1095.853	0.33660	0.37765	0.46520	-0.39473
1099.847	0.31384	0.40746	0.36856	-0.43074
1103.844	0.34566	0.47341	0.43490	-0.41894
1107.846	0.39608	0.55910	0.35248	-0.39586
1111.845	0.39397	0.62874	0.35270	-0.37842
1115.870	0.37139	0.65031	0.31414	-0.38378
1119.849	0.41375	0.61190	0.23597	-0.35402
1123.841	0.44271	0.67008	0.21204	-0.33861
1127.841	0.46621	0.71622	0.20229	-0.32701
1131.846	0.45552	0.71234	0.13977	-0.35541
1135.844	0.37812	0.70785	0.11056	-0.39639
1139.841	0.33598	0.67551	0.06279	-0.45861
1143.842	0.29505	0.66343	0.06835	-0.49722
1147.842	0.27205	0.59792	0.13387	-0.43378
1151.843	0.24609	0.59760	0.37139	-0.49562
1155.847	0.18236	0.51575	0.48406	-0.59018
1159.848	0.16960	0.50380	0.59079	-0.61670
1163.843	0.15566	0.52438	0.72367	-0.72895
1167.841	0.11513	0.50432	0.61037	-0.79257
1171.847	0.16645	0.49145	0.82774	-0.78930
1175.845	0.12880	0.49019	0.80645	-0.81216
1179.843	0.11357	0.49690	0.64987	-0.87767
1183.842	0.14784	0.48417	0.37787	-0.85726
1187.842	0.13655	0.49560	0.65893	-0.92949
1191.847	0.16228	0.52114	0.55456	-0.98883
1195.850	0.25488	0.51888	0.82823	-0.80848
1199.848	0.28709	0.53866	0.78890	-0.67309
1203.841	0.28039	0.56741	0.81359	-0.53148
1207.846	0.32642	0.63374	0.79751	-0.34549
1211.843	0.30863	0.80207	0.73682	-0.43457
1215.843	0.31838	0.73330	0.81099	-0.65018
1219.846	0.35387	0.77265	0.77868	-0.54001
1223.842	0.43931	0.69458	0.80062	-0.64584
1227.843	0.41807	0.74020	0.79158	-0.56477
1231.841	0.42420	0.66757	0.68131	-0.40093
1235.844	0.37037	0.65267	0.70796	-0.39323
1239.850	0.19651	0.57832	0.55754	-0.36705
1243.846	0.37072	0.47830	0.60632	-0.54400
1247.846	0.35293	0.56064	0.52575	-0.68401
1251.844	0.27036	0.57242	0.49738	-0.78260
1255.845	0.31642	0.63928	0.55362	-0.80100
1259.841	0.26721	0.68070	0.50202	-0.84026
1263.845	0.26138	0.64706	0.41390	-0.83609
1267.842	0.20427	0.56135	0.39832	-0.73312
1271.843	0.15806	0.58170	0.32764	-0.69759
1275.841	0.15819	0.51585	0.49828	-0.66555
1279.854	0.09711	0.29024	0.51726	-0.61544
1283.875	0.12446	0.30303	0.64019	-0.53940
1287.850	0.13732	0.25401	0.61692	-0.52611
1291.845	0.14168	0.14810	0.57803	-0.47896
1295.841	0.15543	0.22324	0.59863	-0.46984
1299.839	0.13322	0.28241	0.64238	-0.46695
1303.838	0.07996	0.39052	0.60868	-0.48320
1307.840	0.03814	0.28030	0.69967	-0.43037
1311.839	0.07197	0.32987	0.65948	-0.40526
1315.843	0.05671	0.27058	0.62960	-0.40325
1319.866	-0.03675	0.42854	0.50795	-0.35915
1323.849	0.02360	0.25957	0.52473	-0.45014
1327.843	0.02472	0.38287	0.41723	-0.45705
1331.838	0.02497	0.46869	0.30672	-0.43606
1335.838	-0.05289	0.37922	0.15285	-0.44444
1339.842	-0.05591	0.33178	0.18638	-0.44837
1343.840	-0.08066	0.33297	0.13940	-0.51675
1347.846	-0.08507	0.28879	0.24388	-0.67936
1351.841	-0.06309	0.35631	0.23403	-0.95841
1355.840	-0.09061	0.32912	0.24738	-0.99189
1359.838	-0.08413	0.40675	0.43227	-0.81890
1363.852	-0.06740	0.44062	0.45666	-0.75065
1367.841	-0.01859	0.44581	0.67382	-0.70347
1371.841	-0.04365	0.44231	0.59769	-0.54435
1375.838	0.08686	0.48837	0.48530	-0.50105
1379.871	0.06768	0.59812	0.57816	-0.82268
1383.848	0.03844	0.65813	0.61627	-0.65175
1387.849	0.13183	0.65740	0.69933	-0.54531
1391.845	0.10719	0.71013	0.74987	-0.67149
1395.843	0.13047	0.70831	0.65546	-0.62904
1399.841	0.17315	0.69000	0.71397	-0.62727
1403.842	0.17866	0.65897	0.55434	-0.63201
1407.845	0.16241	0.64200	0.44388	-0.62114
1411.840	0.15183	0.57971	0.41730	-0.67115
1415.836	0.22122	0.61161	0.45267	-0.72442
1419.837	0.14538	0.59765	0.53386	-0.63681
1423.843	0.18303	0.58259	0.47681	-0.68715
1427.839	0.23696	0.56445	0.57153	-0.64607
1431.837	0.28741	0.57399	0.56136	-0.63335
1435.836	0.26081	0.56378	0.56235	-0.64329
1439.842	0.25336	0.56798	0.64910	-0.61615
1443.840	0.26632	0.55513	0.59372	-0.58646
1447.845	0.18990	0.42352	0.62789	-0.57794
1451.840	0.24698	0.46208	0.65459	-0.62482
1455.860	0.15191	0.52723	0.69858	-0.68526
1459.842	0.16084	0.59198	0.68327	-0.60586
1463.845	0.19725	0.58343	0.71369	-0.56086
1467.839	0.19157	0.66754	0.73489	-0.53976
1471.837	0.16784	0.69380	0.67769	-0.57207
1475.841	0.11927	0.71144	0.50207	-0.57415
1479.894	0.08691	0.68918	0.33054	-0.60606
1483.845	0.05445	0.67604	0.49557	-0.40169
1487.840	0.07458	0.73023	0.47172	-0.53243
1491.840	0.09106	0.77857	0.56592	-0.47339
1495.837	0.04705	0.80258	0.54739	-0.54078
1499.837	0.08319	0.78640	0.18755	-0.47103
1503.835	0.11019	0.78128	0.63737	-0.47513
1507.840	0.13709	0.75507	0.66293	-0.47656
1511.838	0.14280	0.64421	0.66196	-0.48335
1515.837	0.11563	0.68575	0.40752	-0.49147
1519.834	0.10451	0.61271	0.46157	-0.51268
1523.839	0.05621	0.61735	0.60047	-0.48710
1527.839	0.10056	0.55514	0.56352	-0.54564
1531.888	0.12928	0.52142	0.71335	-0.62175
1535.841	0.14402	0.59313	0.66575	-0.53975
1539.836	0.16501	0.73673	0.50984	-0.48798
1543.711	0.25282	0.70587	0.71310	-0.53947
1547.715	0.17417	0.70088	0.52148	-0.57872
1551.711	0.10175	0.63474	0.65027	-0.53378
1555.836	0.08733	0.55675	0.59684	-0.48783
1559.710	0.26865	0.22560	0.67243	-0.52332
1563.714	0.17576	0.50171	0.66690	-0.45172
1567.711	0.20661	0.52263	0.63546	-0.58641
1571.711	0.24008	0.50390	0.59630	-0.57911
1575.714	0.24676	0.40682	0.57962	-0.49347
1579.714	0.36037	0.24553	0.59528	-0.38730
1583.712	0.32814	0.29933	0.67699	-0.25809
1587.711	0.18946	0.37193	0.64972	-0.26043
1591.716	0.20641	0.25003	0.62531	-0.35144
1595.713	0.26763	0.21636	0.60898	-0.31561
1599.706	0.26187	0.23164	0.56533	-0.38332
1603.714	0.21524	0.32261	0.46716	-0.36422
1607.711	0.31062	0.39713	0.49972	-0.39717
1611.710	0.32089	0.36425	0.54843	-0.15095
1615.709	0.28175	0.46330	0.61054	-0.05029
1619.719	0.31982	0.53043	0.57054	-0.08846
1623.720	0.20174	0.51416	0.62206	-0.28254
1627.712	0.21728	0.59839	0.62424	-0.26669
1631.709	0.17596	0.48097	0.59598	-0.23963
1635.713	0.13930	0.44129	0.56101	-0.37507
1639.711	0.28044	0.55272	0.49396	-0.30357
1643.708	0.27632	0.51652	0.61947	-0.21632
1647.714	0.27753	0.60403	0.71002	-0.14548
1651.711	0.26840	0.61655	0.74784	-0.17261
1655.710	0.22567	0.54783	0.68896	-0.19888
1659.747	0.20450	0.47287	0.65511	-0.24085
1663.717	0.15116	0.45786	0.69518	-0.26216
1667.713	0.17854	0.36297	0.67908	-0.26261
1671.710	0.13332	0.44434	0.70054	-0.45698
1675.707	0.17608	0.35526	0.60277	-0.33360
1679.713	0.28319	0.47338	0.66092	-0.46514
1683.710	0.27014	0.56890	0.74657	-0.33583
1687.711	0.30262	0.60547	0.73379	-0.28621
1691.708	0.33268	0.61190	0.73511	-0.27140
1695.712	0.29639	0.53707	0.71362	-0.37201
1699.710	0.23959	0.43348	0.57332	-0.31171
1703.765	0.14590	0.37681	0.61694	-0.33899
1707.711	0.18099	0.08459	0.66543	-0.45152
1711.712	0.07572	-0.07572	0.68702	-0.30020
1715.709	0.20641	-0.24856	0.60079	-0.34374
1719.711	0.28967	-0.52159	0.55744	-0.32444
1723.715	0.10240	-0.44814	0.44807	-0.22778
1727.730	0.04720	-0.19188	0.44296	-0.28901
1731.711	-0.03688	-0.12144	0.19762	-0.31275
1735.735	-0.03045	-0.23358	0.26073	-0.36418
1739.713	0.03551	-0.19422	0.19067	-0.37800
1743.710	-0.01052	-0.08680	0.27905	-0.43415
1747.708	0.01633	-0.15807	0.26719	-0.51948
1751.708	0.04008	-0.08305	0.22557	-0.58396
1755.707	0.03554	-0.06118	0.19330	-0.63111
1759.710	0.03529	-0.06838	0.25292	-0.60694
1763.707	0.08391	-0.06980	0.28955	-0.38689
1767.707	0.08026	-0.00395	0.30528	-0.46991
1771.708	0.07512	0.01337	0.36859	-0.46235
1775.712	0.19494	0.00452	0.42001	-0.37096
1779.709	0.20015	-0.03683	0.37760	-0.43243
1783.715	0.29739	-0.01203	0.32856	-0.51806
1787.711	0.41102	0.09246	0.34623	-0.48233
1791.709	0.39189	0.30549	0.50078	-0.36340
1795.718	0.42842	0.35068	0.51515	-0.31038
1799.708	0.48609	0.28635	0.51247	-0.21812
1803.705	0.52592	0.25852	0.50867	-0.25472
1807.711	0.51657	0.42186	0.54287	-0.32995
1811.710	0.51220	0.33520	0.51972	-0.37478
1815.706	0.56185	0.34089	0.55677	-0.40954
1819.706	0.53349	0.35309	0.56205	-0.54500
1823.709	0.52520	0.36983	0.60384	-0.69250
1827.712	0.44234	0.32442	0.61317	-0.66668
1831.740	0.37536	0.18366	0.66496	-0.75005
1835.716	0.31997	0.14353	0.62888	-0.81840
1839.705	0.25738	0.09008	0.61387	-0.85500
1843.710	0.20177	-0.01374	0.57138	-0.91080
1847.704	0.11548	-0.12464	0.56625	-0.94026
1851.710	0.07939	-0.23008	0.51269	-0.89717
1855.708	0.07636	-0.16885	0.46430	-0.87415
1859.708	0.03792	-0.28007	0.46281	-0.85835
1863.741	0.00630	-0.27692	0.41549	-0.78154
1867.713	-0.01531	-0.27846	0.36089	-0.64360
1871.705	0.00213	-0.28788	0.32948	-0.54497
1875.706	0.03817	-0.28427	0.34119	-0.58947
1879.709	0.05559	-0.28551	0.36819	-0.45216
1883.707	0.10193	-0.21616	0.36209	-0.43166
1887.704	0.16203	-0.18217	0.33995	-0.36743
1891.704	0.20998	-0.14952	0.36003	-0.30720
1895.710	0.25607	-0.10802	0.35504	-0.24170
1899.705	0.18147	-0.18778	0.33494	-0.19061
1903.705	0.28987	-0.16721	0.37035	-0.14686
1907.729	0.26627	-0.14109	0.43060	-0.11115
1911.718	0.24656	-0.09897	0.52054	-0.06232
1915.703	0.26170	-0.05395	0.57146	-0.06147
1919.707	0.19142	-0.01536	0.50485	-0.11641
1923.706	0.17330	-0.01903	0.51394	-0.24952
1927.702	0.13727	0.00256	0.45053	-0.40544
1931.707	0.15233	-0.01705	0.42720	-0.55704
1935.706	0.08507	0.07435	0.43929	-0.64668
1939.700	0.06361	0.13650	0.36308	-0.65352
1943.709	0.12496	0.15570	0.35253	-0.47129
1947.704	0.09021	0.20799	0.33935	-0.59692
1951.714	0.08575	0.30425	0.30506	-0.62244
1955.711	0.09917	0.33901	0.35057	-0.69066
1959.704	0.11451	0.35188	0.37072	-0.68077
1963.701	0.17879	0.40285	0.42730	-0.59125
1967.707	0.25468	0.42864	0.40936	-0.54196
1971.707	0.22800	0.34599	0.49567	-0.47934
1975.702	0.23609	0.37695	0.54657	-0.46375
1979.707	0.22177	0.39303	0.63977	-0.37900
1983.705	0.17802	0.33064	0.69089	-0.43626
1987.703	0.16712	0.32549	0.63578	-0.43984
1991.712	0.15136	0.26191	0.65213	-0.44802
1995.707	0.05921	0.24499	0.65861	-0.49035
1999.749	0.06383	0.25853	0.67739	-0.50963
2003.712	0.06812	0.25033	0.57994	-0.49921
2007.702	0.06726	0.23954	0.56659	-0.53553
2011.706	0.07157	0.24238	0.53265	-0.54821
2015.705	0.17655	0.24988	0.53982	-0.56639
2019.702	0.18372	0.25522	0.60536	-0.57565
2023.702	0.28637	0.22563	0.54726	-0.56301
2027.707	0.32608	0.21432	0.58181	-0.47458
2031.707	0.29086	0.16939	0.61032	-0.52994
2035.708	0.28116	0.18058	0.48473	-0.48207
2039.710	0.31019	0.16688	0.52840	-0.45357
2043.705	0.32409	0.15548	0.56632	-0.40278
2047.701	0.29972	0.10874	0.63121	-0.35221
2051.707	0.30161	0.01456	0.68072	-0.38538
2055.704	0.37196	-0.04274	0.66335	-0.36493
2059.702	0.33441	-0.00030	0.74159	-0.33600
2063.702	0.34040	0.01411	0.64613	-0.35035
2067.706	0.35161	-0.02415	0.62297	-0.35972
2071.706	0.39608	-0.10608	0.71176	-0.32728
2075.707	0.58957	-0.07787	1.18664	-0.24240
2079.702	1.76911	0.00668	2.34810	-0.14003
2083.708	2.80293	0.04822	4.50350	-0.04855
2087.705	4.16073	0.28412	5.11918	-0.03086
2091.702	4.49677	0.05341	5.87459	-0.11511
2095.704	4.92115	0.19400	6.42346	0.03240
2099.705	5.66941	0.23966	6.76990	-0.02929
2103.701	5.31662	0.42323	6.20737	0.02199
2107.701	5.28694	0.38228	6.09962	0.03593
2111.706	4.94066	0.36798	6.30759	0.10250
2115.703	4.86980	0.52560	5.96841	0.13625
2119.706	4.79139	0.50425	5.69409	0.01001
2123.730	5.01492	0.48143	5.72645	-0.07596
2127.704	4.93437	0.53293	5.77814	-0.08094
2131.702	5.04546	0.49844	6.14052	-0.07355
2135.745	5.18003	0.56623	6.00094	-0.04340
2139.711	5.00682	0.64982	5.84367	0.00005
2143.702	5.03218	0.59646	5.90642	0.07551
2147.705	4.99167	0.65489	5.98196	0.07486
2151.701	5.00411	0.64178	6.04281	0.17505
2155.698	5.06355	0.73067	5.99397	0.24822
2159.707	5.06151	0.69830	5.95933	0.28830
2163.702	5.13146	0.69860	5.99635	0.25509
2167.703	5.10443	0.75371	6.04534	0.33920
2171.700	5.08382	0.70488	6.07876	0.29700
2175.704	5.05412	0.62859	6.06576	0.30709
2179.701	5.03420	0.61173	6.14138	0.35224
2183.701	5.11612	0.54003	6.22130	0.36105
2187.699	5.12019	0.50897	6.16947	0.13007
2191.703	5.20218	0.56537	6.20761	0.12339
2195.701	5.11401	0.57872	6.18568	0.17970
2199.706	5.07074	0.46107	6.08588	0.05681
2203.736	5.12637	0.46177	6.16309	0.14045
2207.713	5.10662	0.46441	6.23368	0.11951
2211.701	5.15793	0.49560	6.24578	0.09221
2215.698	5.22018	0.51431	6.32490	0.20786
2219.703	5.26029	0.63239	6.27638	0.18883
2223.703	5.27727	0.74648	6.19069	0.12515
2227.699	5.19711	0.62259	6.02880	0.08592
2231.703	5.12560	0.59981	6.14734	0.18900
2235.707	5.09291	0.55027	6.16922	0.28067
2239.701	5.14778	0.53840	6.13051	0.40583
2243.703	5.07360	0.66339	6.10320	0.29435
2247.703	4.04441	0.59921	5.82746	0.49411
2251.699	2.43677	0.79840	3.53770	0.37477
2255.698	0.31645	1.13725	2.33636	0.82772
2259.703	-1.75798	1.74725	0.41954	1.01796
2263.701	-2.86764	2.27846	-1.86513	1.78622
2267.700	-4.25129	2.40201	-3.30329	2.37469
2271.741	-5.78661	2.80569	-4.06145	2.55164
2275.707	-6.71865	3.24159	-5.31022	2.55184
2279.698	-7.12153	2.87004	-6.41121	2.44475
2283.708	-7.06298	3.09574	-6.40146	2.61523
2287.701	-6.89676	3.00365	-6.04296	2.80920
2291.696	-6.80034	3.05492	-6.36109	2.89415
2295.703	-6.85733	3.15209	-6.20928	2.83782
2299.701	-6.92105	3.25239	-6.19196	2.91559
2303.699	-6.90598	3.29044	-6.16895	3.06389
2307.702	-6.82829	3.29471	-6.20975	3.09816
2311.698	-6.88098	3.34677	-6.28374	3.28452
2315.700	-6.88512	3.34637	-6.27525	3.31089
2319.697	-6.89913	3.29422	-6.36344	3.34267
2323.702	-6.85449	3.25885	-6.41812	3.48033
2327.702	-6.83081	3.25999	-6.36643	3.58622
2331.696	-6.83837	3.34365	-6.39807	3.58681
2335.701	-6.79936	3.29872	-6.40003	3.67067
2339.704	-6.79148	3.28628	-6.42837	3.62209
2343.705	-6.74773	3.24791	-6.52943	3.70285
2347.695	-6.71412	3.22260	-6.55616	3.69768
2351.703	-6.67865	3.25376	-6.61748	3.72321
2355.696	-6.57602	3.26209	-6.62410	3.57018
2359.698	-6.57840	3.23547	-6.66313	3.55531
2363.694	-6.53708	3.14520	-6.59091	3.53033
2367.705	-6.50859	3.14043	-6.59148	3.41902
2371.698	-6.48007	3.12872	-6.56623	3.41297
2375.696	-6.45294	3.11670	-6.61513	3.35697
2379.700	-6.48218	3.16292	-6.65245	3.33140
2383.701	-6.46030	3.16525	-6.66680	3.28671
2387.696	-6.46654	3.15886	-6.60230	3.13548
2391.698	-6.48254	3.21874	-6.53945	3.10198
2395.695	-6.50832	3.27761	-6.51474	3.00696
2399.576	-6.57357	3.31343	-6.52801	3.01533
2403.570	-6.68127	3.32542	-6.47024	2.98014
2407.575	-6.71336	3.37282	-6.50940	2.98887
2411.700	-6.71488	3.39694	-6.47877	3.03689
2415.581	-6.68709	3.40549	-6.50800	3.03736
2419.572	-6.76251	3.40895	-6.46622	2.95076
2423.571	-6.80509	3.39527	-6.42886	2.94699
2427.568	-6.87834	3.37740	-6.41444	2.89924
2431.574	-6.90979	3.41618	-6.44665	2.88707
2435.572	-6.94655	3.41292	-6.47862	2.90210
2439.570	-7.00727	3.35939	-6.53563	2.90606
2443.568	-7.04354	3.33649	-6.60994	2.89336
2447.571	-7.08097	3.30206	-6.64285	2.88985
2451.570	-7.02719	3.27356	-6.59767	2.83552
2455.573	-6.79486	3.29501	-6.62219	2.79404
2459.575	-6.92828	3.31098	-6.58031	2.76866
2463.571	-6.81931	3.30719	-6.64491	2.79696
2467.572	-6.75571	3.27511	-6.63639	2.76786
2471.576	-6.53965	3.28332	-6.63257	2.77157
2475.575	-6.72122	3.23690	-6.60407	2.80411
2479.573	-6.55346	3.23418	-6.58320	2.78633
2483.568	-6.44870	3.27997	-6.56228	2.75389
2487.574	-6.41315	3.25111	-6.49102	2.77608
2491.571	-6.41136	3.26741	-6.50971	2.78322
2495.577	-6.44650	3.25360	-6.58058	2.87807
2499.573	-6.38616	3.20729	-6.64628	3.02721
2503.574	-6.40146	3.16079	-6.77355	3.14071
2507.578	-6.39937	3.16233	-6.64942	2.81991
2511.571	-6.46848	3.20108	-6.71534	2.94288
2515.566	-6.52184	3.18024	-6.79631	2.96624
2519.574	-6.57539	3.27102	-6.87717	3.10869
2523.572	-6.67473	3.26402	-6.74968	3.01850
2527.572	-6.63335	3.34752	-6.84333	3.07949
2531.575	-6.60169	3.40955	-6.79934	2.99988
2535.572	-6.62028	3.52845	-6.80695	3.08693
2539.579	-6.67632	3.45463	-6.83587	3.06070
2543.595	-6.83956	3.50042	-6.77411	3.13802
2547.568	-8.28969	3.47123	-7.37895	3.18849
2551.573	-8.96445	3.68434	-9.16504	3.47918
2555.568	-9.66074	4.16114	-9.47036	4.04070
2559.568	-9.72402	4.52840	-9.60758	4.39893
2563.566	-9.45909	4.60984	-9.63257	4.44056
2567.572	-9.37554	4.92944	-9.64610	4.52327
2571.572	-9.38421	5.15384	-9.60019	4.62489
2575.567	-9.18951	5.04776	-9.63438	4.78094
2579.572	-9.30534	5.08615	-9.52857	4.45673
2583.571	-9.24501	5.00197	-9.54935	4.21939
2587.569	-9.39511	5.11700	-9.58601	4.29691
2591.568	-9.61009	5.14722	-9.57129	4.40446
2595.576	-9.59491	5.15919	-9.53904	4.39452
2599.569	-9.47630	5.16163	-9.60297	4.41051
2603.566	-9.52886	5.13206	-9.51032	4.49116
2607.572	-9.47372	5.15788	-9.43624	4.44196
2611.595	-9.64275	5.11800	-9.42641	4.46453
2615.579	-9.71114	5.09038	-9.41501	4.40120
2619.568	-9.44660	5.07106	-9.39878	4.34939
2623.578	-9.35425	5.06591	-9.41298	4.43714
2627.570	-9.39334	5.09818	-9.40646	4.58874
2631.570	-9.40347	5.07444	-9.36629	4.70769
2635.565	-9.42305	5.04525	-9.32635	4.81015
2639.570	-9.28927	5.03324	-9.36733	4.86401
2643.571	-9.30143	5.01981	-9.35051	4.94579
2647.569	-9.35672	5.03965	-9.36597	4.98455
2651.572	-9.38631	5.02577	-9.41175	4.98100
2655.568	-9.36329	5.02530	-9.48145	5.04815
2659.572	-9.32311	4.98577	-9.41745	4.78664
2663.577	-9.39477	4.95674	-9.44805	4.80924
2667.568	-9.49463	4.95157	-9.46486	4.79000
2671.569	-9.55765	4.91021	-9.56750	4.84548
2675.565	-9.61354	4.72157	-9.57872	4.81632
2679.571	-9.63843	4.69740	-9.60089	4.64221
2683.569	-9.67572	4.70725	-9.65517	4.69447
2687.566	-9.71691	4.77164	-9.68136	4.39463
2691.571	-9.64113	4.66614	-9.74839	4.37552
2695.569	-9.45549	4.62043	-9.80038	4.38847
2699.569	-9.61530	4.59238	-9.72906	4.41913
2703.571	-9.61554	4.72098	-9.72462	4.48268
2707.578	-9.60543	4.80679	-9.78710	4.45349
2711.567	-9.62029	4.79391	-9.70524	4.50076
2715.566	-9.41455	4.93991	-9.66631	4.42091
2719.564	-9.35307	4.93073	-9.62608	4.38076
2723.574	-9.24095	5.03887	-9.68739	4.44298
2727.566	-9.28671	5.10596	-9.69156	4.44668
2731.564	-9.24905	5.16404	-9.65751	4.47301
2735.572	-9.16758	5.07616	-9.55982	4.54348
2739.570	-9.22530	5.20392	-9.51261	4.57969
2743.569	-9.26092	5.22298	-9.44931	4.63464
2747.573	-9.20845	5.19497	-9.42093	4.57055
2751.570	-8.94922	5.17295	-9.33205	4.62322
2755.566	-8.39103	5.00609	-7.59051	4.54957
2759.565	-6.79474	4.83060	-5.13082	4.53050
2763.570	-5.40132	3.60140	-3.61243	4.11328
2767.601	-3.85654	3.09787	-2.83739	3.22011
2771.568	-2.33378	2.88784	-0.01360	2.53125
2775.564	-1.12144	2.88433	1.09864	2.46034
2779.568	0.39551	2.59535	2.21900	2.20076
2783.569	1.35407	2.40900	3.70925	1.62573
2787.571	2.69079	2.22420	4.75842	1.26350
2791.568	3.33799	2.03347	5.35962	1.19944
2795.566	4.39528	1.89366	5.39790	0.96923
2799.565	4.67012	1.79913	5.52121	0.90004
2803.563	4.54836	1.74400	5.49901	1.04856
2807.569	4.53672	1.78251	5.51093	0.95965
2811.566	4.48826	1.75924	5.50651	0.87561
2815.566	4.32888	1.69308	5.54762	0.86390
2819.568	4.51018	1.57932	5.53242	0.79310
2823.562	4.54380	1.43899	5.46374	0.79445
2827.568	4.54908	1.29245	5.50134	0.78157
2831.574	4.56577	1.24233	5.55391	0.75729
2835.566	4.61336	1.23383	5.51415	0.79775
2839.561	4.55500	1.20449	5.47213	0.84064
2843.572	4.58794	1.23400	5.42028	0.83816
2847.562	4.61553	1.30055	5.33790	0.89581
2851.568	4.62081	1.25994	5.28116	0.92434
2855.563	4.67508	1.24501	5.16287	1.00015
2859.565	4.74353	1.18665	5.13331	1.05436
2863.563	4.76221	1.21355	5.08741	1.09368
2867.569	4.80374	1.22538	5.01051	1.13035
2871.577	4.80063	1.33819	5.03908	1.16235
2875.566	4.88362	1.33926	5.00684	1.20506
2879.563	4.90102	1.34913	4.98184	1.20832
2883.565	4.97551	1.39321	4.95923	1.19807
2887.567	4.98100	1.54772	4.96108	1.21940
2891.565	4.97179	1.54987	4.95238	1.18937
2895.562	4.90787	1.58087	4.92413	1.10449
2899.567	4.85494	1.57098	5.01817	1.09825
2903.566	4.73406	1.58565	5.18013	1.16444
2907.562	4.63748	1.57882	5.35475	1.10909
2911.574	4.77836	1.53790	5.51142	1.04429
2915.568	4.86024	1.47538	5.53653	0.97754
2919.562	4.75999	1.53650	5.60787	0.99982
2923.563	4.86280	1.53080	5.47461	1.07368
2927.571	4.92499	1.44125	5.50011	1.12437
2931.565	4.92358	1.50899	5.36132	1.06290
2935.563	4.70362	1.48817	5.50442	1.01268
2939.561	4.75302	1.47594	5.58513	1.12587
2943.566	4.70638	1.47992	5.66251	1.05425
2947.561	4.64160	1.42845	5.72802	1.12134
2951.564	4.68711	1.36329	5.58965	1.18225
2955.570	4.82417	1.41959	5.54629	1.19380
2959.567	4.90819	1.45776	5.47808	1.21318
2963.561	4.96152	1.40715	5.52893	1.24645
2967.567	4.96783	1.37492	5.48174	1.24934
2971.562	4.83710	1.38823	5.39207	1.26080
2975.562	4.88542	1.40731	5.36021	1.26473
2979.591	4.94164	1.43943	5.25704	1.33713
2983.563	4.92307	1.44264	5.36757	1.31956
2987.560	5.02797	1.41596	5.34577	1.29507
2991.559	5.07166	1.33720	5.32454	1.30818
2995.569	5.10283	1.43680	5.33020	1.26338
2999.564	5.11726	1.46674	5.35916	1.25778
3003.560	5.09099	1.41469	5.34250	1.32233
3007.559	5.09453	1.43635	5.33431	1.37967
3011.564	5.08966	1.44459	5.33869	1.38366
3015.561	5.09862	1.47893	5.40877	1.33064
3019.586	5.07148	1.54832	5.38260	1.28642
3023.570	5.09057	1.48521	5.42323	1.30470
3027.559	5.22165	1.47901	5.46733	1.28366
3031.561	5.22845	1.37686	5.46827	1.38473
3035.566	5.23689	1.45571	5.51253	1.50545
3039.565	5.29216	1.46092	5.50405	1.47235
3043.562	5.24949	1.38035	5.38499	1.50958
3047.560	5.29747	1.33316	5.43462	1.53813
3051.557	5.20100	1.48381	5.51366	1.41174
3055.559	5.19094	1.36752	5.43819	1.35266
3059.564	4.37187	1.39362	5.28374	1.48295
3063.561	3.09624	1.31795	4.49114	1.54020
3067.565	2.42356	1.53503	2.62779	1.65481
3071.558	1.61845	1.82291	2.25910	1.86840
3075.564	0.46542	2.01355	1.22370	2.14121
3079.567	-0.17834	1.99139	1.25133	2.07534
3083.561	0.17432	1.99770	0.75436	2.08829
3087.580	0.07763	2.17484	0.55347	2.13055
3091.564	-0.09438	2.30808	0.56734	2.35498
3095.568	0.03752	2.33773	0.73052	2.47988
3099.560	-0.00005	2.31920	0.65000	2.46745
3103.559	0.32220	2.06086	0.77665	2.43400
3107.563	0.25927	2.15085	0.63890	2.50131
3111.562	0.34536	2.28921	0.74466	2.52781
3115.561	0.27900	2.32860	0.69027	2.50213
3119.563	0.20797	2.21627	0.66585	2.35144
3123.589	0.22864	2.24051	0.62404	2.31623
3127.561	0.16826	2.24989	0.61362	2.31790
3131.560	0.03058	2.23574	0.61719	2.59052
3135.558	0.26798	2.08048	0.56682	2.65281
3139.562	0.14940	1.80566	0.50840	2.66503
3143.560	0.06338	1.67289	0.42100	2.63794
3147.559	0.14637	1.70171	0.30419	2.50842
3151.563	0.06897	1.55547	0.30391	2.71223
3155.583	-0.01700	1.66760	0.25234	2.72206
3159.568	0.06624	1.68876	0.20819	2.66876
3163.562	0.03152	1.87120	0.12076	2.78835
3167.563	0.00620	1.80961	0.05852	2.73200
3171.563	0.02593	1.96472	-0.02219	2.70761
3175.559	0.08108	1.96023	-0.18482	2.75874
3179.559	0.04018	1.95800	-0.30982	2.69805
3183.564	0.04698	2.08946	-0.47078	2.65223
3187.561	0.02765	2.06581	-0.17946	2.67187
3191.558	-0.01420	2.02260	-0.18070	2.67296
3195.558	-0.04537	2.09249	-0.20169	2.67970
3199.562	-0.20122	2.16729	-0.27545	2.68016
3203.564	-0.26771	2.16217	-0.25190	2.79158
3207.628	-0.41790	2.13268	-0.13573	2.78329
3211.564	-0.43405	2.16397	-0.12032	2.74611
3215.561	-0.33717	2.10545	0.05259	2.76354
3219.560	-0.32027	2.09821	0.10143	2.68824
3223.560	-0.32878	2.11449	0.21906	2.70028
3227.561	-0.30952	2.11241	0.27667	2.60336
3231.557	-0.30349	2.06134	0.27106	2.48080
3235.558	-0.35797	2.03482	0.26344	2.61356
3239.561	-0.31168	1.95303	0.28473	2.64775
3243.560	-0.26783	1.92372	0.20882	2.55923
3247.559	-0.27761	1.93184	0.32560	2.52355
3251.440	-0.12084	1.79955	0.31481	2.45068
3255.433	-0.05812	1.63788	0.39450	2.54629
3259.432	-0.05018	1.69370	0.36074	2.53626
3263.430	0.00216	1.74948	0.36097	2.46307
3267.436	0.08071	1.84545	0.30193	2.31475
3271.434	0.07671	1.69774	0.24440	2.14450
3275.430	0.13250	1.83803	0.35531	2.38965
3279.429	0.09428	1.77150	0.26977	2.42227
3283.434	0.09875	1.75683	0.41527	2.31715
3287.433	0.08259	1.74514	0.45641	2.36065
3291.459	0.03335	1.67912	0.44383	2.30332
3295.439	0.07304	1.77438	0.42231	2.28006
3299.437	0.12813	1.81420	0.37854	2.27109
3303.432	0.10391	1.82281	0.32940	2.24036
3307.433	0.00851	1.78200	0.24860	2.19644
3311.436	0.02368	1.72540	0.26890	2.27380
3315.432	-0.02134	1.69854	0.46336	2.31721
3319.430	-0.08445	1.68406	0.49245	2.30021
3323.429	-0.10550	1.66887	0.52681	2.28811
3327.434	-0.14062	1.65662	0.39948	2.43989
3331.429	-0.14506	1.67380	0.33176	2.46561
3335.435	-0.08800	1.76065	0.21380	2.44909
3339.435	-0.11677	1.77324	0.15427	2.42541
3343.439	-0.12980	1.79200	0.10024	2.37131
3347.438	-0.08860	1.82001	-0.03030	2.37464
3351.433	-0.08542	1.85538	0.01551	2.39521
3355.432	-0.11299	1.85243	0.19348	2.41779
3359.468	-0.06815	1.95326	0.24145	2.39652
3363.439	-0.04725	1.97651	0.07684	2.41909
3367.430	-0.03316	1.98498	0.09902	2.42517
3371.430	-0.01750	1.97818	0.05683	2.35988
3375.444	-0.02005	1.99138	0.03301	2.35671
3379.436	-0.05336	1.94022	0.16174	2.36533
3383.432	-0.05497	1.90260	0.21197	2.40687
3387.429	-0.15347	1.86508	0.19303	2.45323
3391.433	-0.17226	1.79411	0.31114	2.57699
3395.432	-0.23472	1.70677	0.38526	2.58784
3399.432	-0.14548	1.56446	0.40688	2.57461
3403.429	-0.17601	1.58653	0.34097	2.53711
3407.454	-0.15171	1.46493	0.29602	2.60933
3411.431	-0.17683	1.45192	0.34265	2.58968
3415.429	-0.21882	1.38702	0.36109	2.55918
3419.438	-0.18849	1.32789	0.34449	2.51677
3423.430	-0.16561	1.31575	0.25470	2.42604
3427.471	-0.16722	1.24651	0.11141	2.39912
3431.436	-0.13506	1.21852	0.04212	2.37057
3435.433	-0.14086	1.25478	-0.04445	2.29712
3439.431	-0.13483	1.31508	-0.13223	2.26808
3443.428	-0.13764	1.31083	-0.26165	2.26722
3447.434	-0.17099	1.32506	-0.22026	2.26413
3451.429	-0.17948	1.36542	-0.34362	2.20560
3455.426	-0.17750	1.39495	-0.37060	2.16731
3459.432	-0.17238	1.55380	-0.37623	2.13929
3463.433	-0.14424	1.54109	-0.38229	2.11663
3467.430	-0.12662	1.52222	-0.33010	1.95084
3471.434	-0.11890	1.56262	-0.32446	1.96047
3475.435	-0.12764	1.63964	-0.22204	1.90988
3479.430	-0.10838	1.67013	-0.19695	1.91390
3483.429	-0.16362	1.68865	-0.14426	1.75134
3487.428	-0.24100	1.72923	-0.12431	1.72766
3491.434	-0.22447	1.76290	-0.12002	1.72195
3495.466	-0.20951	1.79838	-0.03777	1.79834
3499.444	-0.26369	1.84861	0.01350	1.84622
3503.432	-0.26934	1.92084	0.08287	1.79754
3507.439	-0.22790	1.84606	0.21574	1.68164
3511.431	-0.22112	1.58945	0.99412	1.53647
3515.429	-0.17397	1.03478	1.70891	0.70050
3519.426	0.12583	0.40071	1.54373	0.28012
3523.431	0.82821	-0.24894	1.82033	0.12781
3527.430	1.05456	-0.32482	1.83613	-0.13757
3531.431	0.35179	-0.15968	1.78310	-0.34064
3535.433	1.06438	-0.41090	1.58267	-0.29951
3539.428	1.05525	-0.20770	1.49235	-0.20243
3543.431	1.09438	-0.33222	1.64831	-0.30718
3547.433	0.92527	-0.25325	1.60025	-0.26208
3551.429	0.96787	-0.18522	1.70167	-0.34343
3555.426	0.96177	-0.22135	1.66482	-0.39359
3559.426	0.96110	-0.25685	1.63945	-0.32504
3563.453	0.87021	-0.25226	1.62854	-0.34836
3567.434	0.77799	-0.27590	1.59695	-0.36310
3571.430	0.76595	-0.17574	1.54604	-0.34674
3575.426	0.83052	-0.16650	1.48714	-0.28482
3579.426	0.78910	-0.17127	1.46928	-0.27330
3583.435	0.78960	-0.23202	1.44460	-0.28063
3587.429	0.73233	-0.23147	1.37979	-0.24293
3591.427	0.84783	-0.23542	1.39510	-0.19329
3595.434	0.90493	-0.23643	1.38307	-0.21349
3599.428	1.04657	-0.21416	1.39351	-0.15961
3603.427	1.11551	-0.16551	1.41489	-0.16000
3607.425	1.35946	-0.21203	1.44255	-0.11298
3611.429	1.28065	-0.20195	1.55140	-0.02539
3615.424	1.44984	-0.20953	1.68015	0.02121
3619.424	1.45834	-0.21363	1.59685	0.09317
3623.430	1.43885	-0.13864	1.60251	0.13162
3627.438	1.48644	-0.11981	1.65354	0.21411
3631.496	1.50584	-0.04496	1.70822	0.26333
3635.434	1.43577	-0.01871	1.74010	0.29716
3639.425	1.39914	-0.00154	1.74992	0.30510
3643.425	1.33133	0.05965	1.72508	0.38054
3647.426	1.45998	0.04613	1.73346	0.40132
3651.424	1.40752	0.03470	1.68935	0.44147
3655.428	1.41427	0.08245	1.64196	0.48720
3659.429	1.36139	0.11711	1.63809	0.46699
3663.424	1.30020	0.11415	1.66291	0.46460
3667.433	1.30878	0.13117	1.65126	0.46912
3671.426	1.25689	0.10037	1.65451	0.39587
3675.425	1.24602	0.07455	1.67415	0.37647
3679.423	1.21435	0.05155	1.69723	0.33241
3683.428	1.17785	0.07483	1.68317	0.29118
3687.426	1.12057	-0.01255	1.73172	0.32286
3691.426	1.14476	-0.06996	1.79135	0.31801
3695.423	1.10961	-0.14743	1.76445	0.23163
3699.451	1.01377	-0.13054	1.80251	0.16802
3703.430	1.03010	-0.21300	1.76973	0.19348
3707.436	0.99990	-0.25615	1.71414	0.20601
3711.430	0.96899	-0.30354	1.68858	0.18038
3715.423	0.95956	-0.30254	1.71280	0.21448
3719.423	0.96050	-0.30585	1.69542	0.19669
3723.430	0.97561	-0.31673	1.64392	0.22501
3727.424	1.00519	-0.41563	1.64888	0.25204
3731.423	1.02719	-0.41754	1.67353	0.23631
3735.431	1.04970	-0.40097	1.60176	0.24189
3739.424	1.03957	-0.34967	1.59259	0.29007
3743.425	1.09294	-0.47718	1.56801	0.33456
3747.428	0.78558	-0.31992	1.52020	0.29985
3751.428	-1.08033	-0.25409	0.75054	0.41760
3755.429	-2.61744	0.20765	-1.44155	0.73658
3759.423	-3.67919	1.90311	-3.02762	1.48975
3763.428	-4.86258	1.57927	-3.59589	2.48820
3767.433	-5.75706	2.24229	-4.52737	2.73227
3771.431	-6.71503	2.71979	-5.23982	2.82170
3775.424	-7.11450	2.79044	-6.05241	3.11408
3779.423	-6.96673	3.00542	-6.36106	3.28573
3783.431	-6.84967	3.28965	-5.61087	3.40047
3787.424	-6.28582	3.19491	-5.64230	3.53203
3791.429	-6.62280	3.14114	-5.49716	3.49010
3795.423	-6.68141	3.15936	-5.81427	3.59869
3799.427	-6.75155	3.13204	-5.98510	3.49926
3803.425	-6.81177	3.24099	-6.03118	3.61257
3807.424	-6.68484	3.23352	-6.06448	3.67840
3811.420	-6.68780	3.16648	-6.12408	3.76398
3815.427	-6.67889	3.21912	-6.05400	3.79286
3819.423	-6.58347	3.19031	-5.96603	3.83464
3823.424	-6.51008	3.12818	-5.92235	3.87357
3827.419	-6.52610	3.06571	-5.92530	3.89222
3831.426	-6.60147	3.03861	-6.08264	3.84503
3835.432	-6.60742	3.04596	-6.13169	3.82724
3839.430	-6.58940	3.14797	-6.06956	3.64022
3843.429	-6.49982	3.10481	-6.04470	3.62828
3847.428	-6.52544	3.08678	-6.03707	3.58575
3851.489	-6.53397	3.13227	-6.00779	3.62956
3855.428	-6.60536	3.20405	-6.02352	3.50201
3859.418	-6.60544	3.18626	-6.07619	3.54455
3863.426	-6.57394	3.24793	-6.09030	3.60442
3867.421	-6.59586	3.29252	-6.08978	3.53514
3871.422	-6.60167	3.31715	-6.14163	3.37589
3875.422	-6.53767	3.29177	-6.14631	3.39731
3879.426	-6.48073	3.15535	-6.15367	3.49004
3883.422	-6.44694	3.03076	-6.15853	3.51093
3887.422	-6.45512	3.02862	-6.16653	3.50891
3891.418	-6.44373	2.99840	-6.16952	3.51042
3895.425	-6.41672	2.97772	-6.17393	3.49518
3899.421	-6.32880	3.00929	-6.14823	3.49052
3903.422	-6.31039	3.08845	-6.12440	3.34200
3907.426	-6.35013	3.15258	-6.09140	3.33972
3911.422	-6.36819	3.16833	-6.13689	3.25056
3915.428	-6.37969	3.16385	-6.19940	3.46579
3919.427	-6.38177	3.17438	-6.27380	3.51509
3923.422	-6.39006	3.22738	-6.18193	3.51826
3927.418	-6.36177	3.24062	-6.20572	3.62101
3931.424	-6.42300	3.27174	-6.32279	3.39826
3935.421	-6.42187	3.26343	-6.22647	3.35526
3939.421	-6.36971	3.29645	-6.26902	3.33988
3943.417	-6.39822	3.18895	-6.20119	3.21123
3947.443	-6.38530	3.20990	-6.16591	3.44484
3951.418	-6.33704	3.23541	-6.17877	3.31603
3955.425	-6.29254	3.20386	-6.27555	3.36923
3959.423	-6.28589	3.22490	-6.18434	3.62504
3963.425	-6.22665	3.25114	-6.10472	3.43288
3967.421	-6.27930	3.27716	-6.14587	3.61783
3971.427	-6.23030	3.30224	-6.12470	3.39801
3975.426	-6.22233	3.41398	-6.14136	3.64453
3979.423	-6.14391	3.30548	-6.21936	3.80686
3983.420	-6.11267	3.40141	-6.24506	3.64037
3987.417	-6.01044	3.43062	-6.26358	3.79673
3991.424	-5.92537	3.51887	-5.78774	4.05790
3995.420	-4.88308	3.56420	-10.43572	3.43639
3999.426	-8.36695	6.02873	-10.71779	2.89406
4003.420	-9.85187	6.44474	NaN	NaN
4007.423	-4.22928	5.57203	NaN	NaN
4011.422	NaN	NaN	NaN	NaN
4015.420	NaN	NaN	NaN	NaN
4019.419	NaN	NaN	NaN	NaN
4023.423	NaN	NaN	NaN	NaN
4027.420	NaN	NaN	NaN	NaN
4031.421	NaN	NaN	NaN	NaN
4035.426	NaN	NaN	NaN	NaN
4040.170	NaN	NaN	NaN	NaN
4044.011	NaN	NaN	NaN	NaN
4047.749	NaN	NaN	NaN	NaN
4051.695	NaN	NaN	NaN	NaN
4055.651	NaN	NaN	NaN	NaN
4059.637	NaN	NaN	NaN	NaN
4063.625	NaN	NaN	NaN	NaN
4067.571	NaN	NaN	NaN	NaN
4071.590	NaN	NaN	NaN	NaN
4075.571	NaN	NaN	NaN	NaN
4079.590	NaN	NaN	NaN	NaN
4083.615	NaN	NaN	NaN	NaN
4087.656	NaN	NaN	NaN	NaN
4091.750	NaN	NaN	NaN	NaN
4095.921	NaN	NaN	NaN	NaN
4099.878	NaN	NaN	NaN	NaN
4103.893	NaN	NaN	NaN	NaN
4108.796	6.65301	4.19725	NaN	NaN
4112.943	NaN	NaN	NaN	NaN
4117.068	NaN	NaN	NaN	NaN
4119.432	NaN	NaN	NaN	NaN
4123.302	NaN	NaN	NaN	NaN
4127.296	NaN	NaN	NaN	NaN
4131.297	NaN	NaN	NaN	NaN
4135.298	NaN	NaN	NaN	NaN
4139.290	NaN	NaN	NaN	NaN
4143.296	-3.86551	13.02618	NaN	NaN
4147.292	-4.72608	11.40506	NaN	NaN
4151.291	-2.02007	8.16875	NaN	NaN
4155.295	-2.19432	10.51503	NaN	NaN
4159.292	-4.96940	8.93762	NaN	NaN
4163.291	-4.84164	8.19628	NaN	NaN
4167.297	-2.16216	8.89993	NaN	NaN
4171.300	-6.20261	5.92695	-20.60917	14.03547
4175.293	-4.50513	6.07701	-20.01180	-12.07608
4179.318	-6.15654	4.11678	-20.01167	-12.07609
4183.292	-6.40636	3.51600	-20.01145	-12.07610
4187.288	-3.38056	4.12066	-2.68024	10.71419
4191.316	-3.27155	3.82847	-5.74959	11.34425
4195.301	-3.24842	3.57970	-5.33541	9.20545
4199.293	-1.26562	3.51270	-10.58215	9.39074
4203.291	-1.83166	3.59455	-9.57343	9.45994
4207.294	-1.69656	2.92675	-9.29304	8.85550
4211.293	-2.24505	3.01353	-9.01247	7.03161
4215.297	-2.20312	2.36315	-9.11065	6.12784
4219.315	-1.36824	2.32466	-8.57847	7.10654
4223.299	-1.47938	2.27440	-8.39292	7.11013
4227.293	-1.40343	2.28802	-5.90278	7.14628
4231.290	-0.23634	2.48113	-6.26799	8.39586
4235.294	-0.86466	2.63483	-5.27385	6.45500
4239.295	-1.12055	2.19182	-3.71340	4.56346
4243.291	-0.95177	1.95544	-3.63438	7.12571
4247.300	-0.82057	2.04240	-2.65592	6.18285
4251.291	-0.43557	2.06890	-2.56914	7.71479
4255.301	-0.43832	1.50587	-3.30265	7.48525
4259.312	-0.44534	1.50480	-3.91296	7.75323
4263.294	-0.33762	1.39679	-4.44541	7.27158
4267.290	-0.31679	1.51614	-4.51282	8.23866
4271.294	-0.32213	1.68151	-3.26109	8.69451
4275.291	-0.33119	1.67785	-2.78334	8.91906
4279.292	-0.42199	1.53956	-3.45912	10.00133
4283.298	-0.33173	1.40146	-4.11550	8.82975
4287.291	-0.29555	1.38436	-4.24332	9.20385
4291.289	-0.32913	1.45647	-2.92218	8.43619
4295.293	-0.40673	1.37915	-2.96799	9.54394
4299.295	-0.43708	1.49323	-3.02979	9.54909
4303.292	-0.44333	1.44525	-3.28714	8.08172
4307.289	-0.56180	1.37294	-3.80505	8.11082
4311.292	-0.62116	1.47036	-2.44358	9.32866
4315.499	-0.63863	1.58162	-2.31522	9.43532
4319.292	-0.62486	1.61346	-1.87386	9.29185
4323.292	-0.58248	1.67484	-1.87753	9.27178
4327.291	-0.53500	1.60752	-1.50837	9.48908
4331.291	-0.58632	1.74666	-2.07752	8.20165
4335.296	-0.62632	1.70760	-1.87185	9.61404
4339.295	-0.63702	1.73202	-1.82187	9.75411
4343.314	-0.60727	1.67034	-1.77087	9.31054
4347.291	-0.63632	1.68483	-1.71109	9.16494
4351.289	-0.57905	1.71302	-1.75786	9.59851
4355.288	-0.55823	1.60550	-1.13982	9.52101
4359.291	-0.55443	1.57420	-0.85773	9.06854
4363.291	-0.53994	1.57495	-0.74561	9.17839
4367.289	-0.59367	1.45391	-1.03545	9.71998
4371.288	-0.63789	1.46693	-0.48287	8.79659
4375.304	-0.67613	1.42615	-0.47862	8.94784
4379.296	-0.69702	1.43150	-0.04390	8.21765
4383.311	-0.71667	1.48858	0.03107	7.77835
4387.293	-0.69903	1.60966	0.12089	7.24975
4391.293	-0.68104	1.54317	-0.14238	7.64968
4395.286	-0.65359	1.50993	-0.11436	7.05962
4399.289	-0.68732	1.55824	0.35037	5.91301
4403.285	-0.68186	1.49585	0.51892	5.19308
4407.292	-0.60858	1.59161	0.88292	4.77124
4411.289	-0.62672	1.64072	1.09827	4.52214
4415.287	-0.60962	1.61790	1.09897	4.37869
4419.292	-0.55056	1.80526	1.37397	4.14631
4423.293	-0.44981	1.90805	1.41489	4.01462
4427.290	-0.44676	1.91190	1.17562	4.14447
4431.286	-0.39159	1.89178	1.75238	3.63572
4435.292	-0.37219	2.01405	1.40775	4.03182
4439.289	-0.40192	1.99572	1.80863	3.75040
4443.290	-0.36742	2.03023	1.63613	3.93227
4447.292	-0.31533	2.09563	1.73388	3.77110
4451.314	-0.31456	2.09791	1.84706	3.46069
4455.296	-0.34074	2.07088	1.96717	3.34320
4459.287	-0.40797	2.10710	1.77811	3.61776
4463.295	-0.53354	1.91917	1.48086	3.66857
4467.289	-0.51664	1.86335	0.95341	3.79635
4471.290	-0.51848	1.85576	-0.33533	3.52570
4475.294	-0.63077	1.80332	1.31213	3.43532
4479.320	-0.49168	1.71849	1.51876	3.49577
4483.286	-0.28451	1.73486	-0.73072	3.64118
4487.284	-0.21465	1.69225	1.71667	3.35268
4491.289	0.07731	1.74201	1.46884	3.34419
4495.287	-0.12243	1.82596	1.23441	3.35095
4499.288	0.16246	1.84540	1.12457	3.46212
4503.289	0.26098	1.81617	1.15454	3.34979
4507.327	0.27875	1.86998	-1.03945	3.41614
4511.294	0.35526	1.85530	-1.20026	3.44499
4515.286	0.40589	1.90329	-1.56208	3.56135
4519.307	0.39814	1.86105	-0.22591	3.58460
4523.295	0.05460	1.96698	-1.54587	3.55650
4527.288	-0.01072	1.96904	-1.94424	3.61839
4531.284	-0.15449	1.99207	-1.63375	3.67041
4535.290	-0.29890	1.91079	-1.22382	3.77810
4539.288	-0.35754	1.82581	-1.73936	3.96007
4543.287	-0.59831	1.80241	-0.88706	4.05457
4547.294	-0.68002	1.80846	-1.62277	3.93029
4551.294	-0.62558	1.77227	-1.64449	3.87944
4555.284	-0.69302	1.73858	-1.57587	3.84733
4559.283	-0.71300	1.73748	-1.03647	3.65640
4563.289	-0.74397	1.74397	-0.50840	3.76748
4567.287	-0.74082	1.71453	-1.07039	3.71312
4571.285	-0.74935	1.72635	-0.21127	3.54183
4575.284	-0.75871	1.70055	-0.14980	3.50874
4579.288	-0.74945	1.74156	-0.42969	3.51240
4583.288	-0.76910	1.86711	-0.33362	3.37064
4587.311	-0.72260	1.94402	-0.46041	3.35105
4591.288	-0.68119	1.87938	1.06240	3.28276
4595.285	-0.64590	1.93362	1.25039	3.23188
4599.287	-0.62225	2.06464	1.73552	3.05456
4603.286	-0.60697	2.16686	1.29023	3.16650
4607.283	-0.61136	2.22529	0.46128	3.25791
4611.289	-0.61980	2.19814	1.00216	3.20253
4615.289	-0.55813	2.15345	0.59248	3.17592
4619.285	-0.52753	2.12344	0.33161	2.98055
4623.287	-0.48912	2.19859	1.65850	2.54474
4627.286	-0.47813	2.14718	0.71059	2.90764
4631.288	-0.46316	2.07539	0.65392	3.06507
4635.283	-0.47140	2.13197	0.65347	3.05013
4639.287	-0.54905	2.13480	0.63660	2.92369
4643.285	-0.61541	2.05254	0.69970	3.07600
4647.282	-0.63962	1.99178	0.51729	3.08985
4651.288	-0.62632	1.99223	0.43522	3.20204
4655.304	-0.64970	1.96199	0.54399	2.96007
4659.287	-0.69193	1.94373	0.17444	3.09992
4663.284	-0.75608	1.90131	0.17864	3.33812
4667.287	-0.80062	1.89325	0.31166	3.09424
4671.290	-0.73017	1.92878	1.45509	3.13772
4675.290	-0.64858	1.93817	2.25588	2.98307
4679.282	-0.73258	2.01472	2.44078	3.00697
4683.288	-0.71424	2.04681	3.89992	2.82039
4687.285	-0.66052	2.02098	4.41339	2.75121
4691.286	-0.58724	1.98170	3.96807	2.90782
4695.281	-0.64429	2.04203	4.29927	2.88721
4699.287	-0.70881	2.08890	4.39701	3.11751
4703.286	-0.40767	2.20159	4.50922	2.80991
4707.284	-0.47237	2.11959	4.50868	2.74368
4711.284	-0.46631	2.22661	4.42370	2.79198
4715.286	-0.41961	2.15960	4.64936	2.75061
4719.283	-0.17474	2.20615	4.67552	3.00530
4723.305	0.26716	2.20547	5.36287	3.33741
4727.286	0.98660	2.15795	5.84807	3.61256
4731.287	2.62764	2.09002	6.92273	4.96061
4735.286	2.80642	2.08356	5.28335	6.32580
4739.282	2.80092	2.10560	6.71716	6.28440
4743.279	3.03593	1.90335	5.04395	7.77785
4747.284	3.11373	1.92705	4.36335	9.04598
4751.281	3.00138	1.82059	4.54557	8.38640
4755.287	2.88364	1.81015	4.26435	9.44085
4759.290	2.92272	1.72941	2.26742	12.93341
4763.284	3.07446	1.74060	3.79776	9.97483
4767.283	3.22809	1.70730	3.73552	9.15237
4771.280	3.36918	1.68923	3.28580	10.02030
4775.286	3.36312	1.74565	3.00561	9.78924
4779.282	3.26834	1.65773	2.06146	13.50553
4783.284	3.36493	1.68275	3.04657	9.75022
4787.286	3.25322	1.80129	6.64239	6.37686
4792.129	NaN	NaN	NaN	NaN
4799.298	3.37880	1.81821	6.33106	6.02263
4803.283	3.22750	1.70621	7.03712	5.79986
4807.280	3.19835	1.72948	6.67407	5.71483
4811.280	3.21226	1.75026	6.27530	5.37237
4815.286	3.22287	1.51179	7.14873	5.39036
4819.283	3.15077	1.88807	6.55307	5.13819
4823.280	3.12207	1.81796	6.40511	4.84833
4827.280	3.03704	1.81632	6.63610	4.63492
4831.284	3.01744	1.91729	6.21303	4.33910
4835.283	3.07219	1.98418	6.26919	4.26518
4839.289	3.03294	1.83182	5.97492	4.19909
4843.316	3.02905	1.68189	5.19719	4.31028
4847.286	3.05756	1.93811	6.06617	3.95674
4851.281	3.05523	1.97209	4.97972	4.18834
4855.286	3.09176	1.87244	5.19231	3.82116
4859.284	3.11636	2.07259	5.22397	3.41167
4863.285	3.15666	1.83686	4.83306	3.26161
4867.279	3.02846	1.71875	4.91765	3.41077
4871.283	3.05160	1.83364	4.68780	3.26471
4875.282	3.12831	1.75585	4.74461	3.07267
4879.287	3.05660	1.90594	4.62914	2.92300
4883.285	3.12153	2.00682	4.76857	2.70519
4887.283	3.15639	1.97629	4.82611	2.59042
4891.286	3.16770	1.92269	4.67229	2.48953
4895.281	3.17091	1.89029	4.71878	2.44136
4899.278	3.20882	1.81713	4.55181	2.40420
4903.284	3.21532	1.74738	4.58984	2.46922
4907.281	3.20676	1.76707	4.64224	2.64635
4911.278	3.25468	1.75727	4.64433	2.36134
4915.283	3.32830	1.70809	4.67355	2.26399
4919.287	3.36537	1.73413	4.67335	2.36206
4923.280	3.39938	1.62945	4.71886	2.42972
4927.301	3.42945	1.59262	4.66243	2.45622
4931.285	3.40920	1.61717	4.63570	2.45710
4935.279	3.42077	1.96219	4.65582	2.39755
4939.282	3.42913	1.86438	4.62157	2.50212
4943.280	3.40504	1.82151	4.59280	2.60159
4947.278	3.38011	1.68763	4.40443	2.43689
4951.282	3.38753	1.72893	4.52905	2.27410
4955.281	3.37297	1.79010	4.35114	2.39175
4959.278	3.29733	1.80448	4.53354	2.48492
4963.157	3.26186	1.84299	4.46078	2.42941
4967.160	3.27445	1.92995	4.39444	2.33044
4971.279	3.25872	1.91692	4.39545	2.27233
4975.154	3.28009	1.90739	4.33258	2.17438
4979.152	3.27853	1.84640	4.36234	2.35021
4983.152	3.27064	1.85767	4.47462	2.07243
4987.156	3.32125	1.85116	4.33068	2.16033
4991.154	3.32810	1.86542	4.22054	2.10865
4995.172	3.30977	1.88191	4.56742	2.22679
4999.156	3.35432	1.93765	4.40197	2.25035
5003.151	3.40247	1.95950	3.89920	2.19338
5007.161	3.52524	1.97102	4.10974	2.14805
5011.159	3.40942	2.00099	4.63543	2.19499
5015.152	3.48246	1.97626	4.35736	2.17732
5019.151	3.43546	2.01895	4.42984	2.12152
5023.156	3.46481	2.12500	4.45779	2.09250
5027.155	3.37942	2.12916	3.44221	2.34434
5031.153	2.30244	2.16112	3.02502	2.12191
5035.164	0.82069	2.23332	2.49000	2.34754
5039.154	0.17271	2.49754	2.08669	2.47889
5043.152	-0.26892	2.36970	0.84270	2.46848
5047.152	-0.32302	2.40313	0.77337	2.76210
5051.159	-0.19105	2.43515	1.64967	2.59637
5055.176	-0.10607	2.72352	1.04821	2.90514
5059.151	-0.00491	2.56500	1.56161	2.70599
5063.177	-0.15715	2.50830	1.68768	2.70401
5067.155	0.19253	2.40556	1.22841	3.07809
5071.157	0.03631	2.48386	1.43461	2.78508
5075.151	0.07396	2.51344	1.56990	2.94406
5079.150	-0.13511	2.43809	1.10360	2.97487
5083.149	0.11297	2.48192	0.98767	2.92158
5087.153	0.27322	2.43918	0.92537	3.02640
5091.156	0.11443	2.51530	0.64310	2.91137
5095.153	0.11855	2.32150	0.77848	3.10567
5099.159	0.12161	2.38999	-0.53791	3.02039
5103.152	0.00911	2.45159	-0.00836	2.94714
5107.153	0.20216	2.38986	0.64560	3.02781
5111.151	0.16938	2.42806	1.05359	2.56824
5115.154	0.08560	2.51022	0.62302	2.41751
5119.152	-0.04482	2.47875	-0.59461	2.87831
5123.152	-0.03824	2.46218	0.54061	2.81491
5127.148	0.01258	2.54484	1.26304	2.62931
5131.180	-0.02164	2.50965	0.21512	2.57942
5135.164	-0.02343	2.52002	0.53262	2.43667
5139.153	0.02072	2.67094	0.74211	2.38047
5143.149	0.01720	2.63975	0.85347	2.42991
5147.149	0.07076	2.61919	0.47267	2.39331
5151.150	-0.00372	2.63231	1.37320	2.23728
5155.152	0.00787	2.62276	0.87396	2.22424
5159.155	-0.09595	2.59679	1.08535	2.23112
5163.154	0.03077	2.64413	1.42838	2.22636
5167.148	0.03991	2.62467	0.56707	2.21248
5171.149	0.00127	2.57882	1.30566	2.12052
5175.176	0.01966	2.60019	0.98531	2.04062
5179.160	-0.03266	2.55040	1.11303	2.02076
5183.150	-0.03541	2.59042	1.11643	2.21507
5187.150	-0.04475	2.61574	0.71501	2.14530
5191.154	-0.09513	2.62434	0.68796	2.10740
5195.152	0.16126	2.58716	0.96316	2.13355
5199.165	0.09999	2.53202	1.07014	1.86310
5203.157	0.19385	2.64243	0.70116	2.09749
5207.150	0.02598	2.59070	0.61230	2.17259
5211.147	-0.02857	2.58132	1.03883	2.23242
5215.156	-0.02643	2.63365	1.03421	2.15866
5219.156	0.08175	2.65142	1.27839	2.13030
5223.151	0.29625	2.62166	1.07321	2.17434
5227.155	0.21874	2.55717	0.72211	2.30115
5231.152	0.20621	2.67707	0.87126	2.18055
5235.156	0.19105	2.63738	1.00310	2.13122
5239.151	0.07872	2.48204	0.90565	2.09845
5243.153	0.21946	2.61543	0.27165	2.27521
5247.151	-0.00856	2.58856	-0.08043	2.45803
5251.149	0.12756	2.66848	-1.05550	2.41901
5255.152	0.14883	2.60314	-0.55987	2.19070
5259.194	0.16412	2.67899	0.04730	2.13887
5263.154	0.15424	2.56914	0.03373	2.16368
5267.168	0.11704	2.62151	0.54652	2.10458
5271.153	0.06095	2.65465	0.14578	1.92855
5275.150	0.04197	2.56627	-0.30704	1.99470
5279.146	0.11520	2.46202	-0.10150	2.04315
5283.150	0.17531	2.41821	0.52198	1.97847
5287.146	0.30138	2.41650	-1.87547	2.10749
5291.147	0.28240	2.43082	-0.38129	2.19854
5295.151	0.27595	2.43670	-0.45530	2.17882
5299.154	0.32853	2.41702	-2.29300	2.11682
5303.150	0.33186	2.44924	-0.68367	1.95488
5307.151	0.31655	2.38562	-1.39624	1.85243
5311.148	0.32007	2.40117	0.06470	1.83314
5315.172	0.37387	2.40448	-1.51596	2.38594
5319.155	0.43373	2.48607	-1.03977	2.27878
5323.150	0.45286	2.51463	-1.03952	2.12068
5327.148	0.47068	2.66676	-0.85034	2.03556
5331.147	0.42909	2.62566	-0.68618	1.87605
5335.151	0.45006	2.64224	-0.80387	1.73787
5339.146	0.41187	2.74545	-0.86505	1.63169
5343.159	0.36951	2.82655	-0.91058	1.68259
5347.154	0.34434	2.84354	-1.25773	1.86670
5351.153	0.35816	2.86178	-0.74392	2.04881
5355.149	0.29756	2.88571	-0.70171	2.35003
5359.145	0.26845	2.84209	-0.81240	2.14081
5363.146	0.35856	2.93616	-0.79893	1.87938
5367.150	0.23388	2.94459	-0.84362	1.74217
5371.147	0.18869	2.89250	-0.82717	1.61480
5375.148	0.21492	2.89842	-0.48249	1.43809
5379.144	0.14918	2.98416	-0.76047	1.90861
5383.159	0.20045	2.96586	-0.66345	1.28842
5387.150	0.22574	2.91326	-0.31861	1.49814
5391.145	0.24763	2.96734	-0.01839	1.73615
5395.145	0.21713	2.89103	-0.44579	1.47495
5399.149	0.32176	2.90975	-0.21341	1.71320
5403.152	0.33131	2.94878	-0.18018	1.64093
5407.154	0.24765	2.91326	-0.32799	1.50444
5411.153	0.27676	2.86913	-0.57523	1.48341
5415.146	0.29620	2.90770	-0.62007	1.29030
5419.146	0.29476	2.91330	-0.54858	1.50440
5423.150	0.28220	2.83530	-0.68084	1.43878
5427.154	0.28736	2.81666	-0.65518	1.62318
5431.149	0.29371	2.83487	-0.82563	1.85504
5435.148	0.30235	2.81264	-0.67508	1.84185
5439.145	0.23874	2.78975	-0.40725	1.53927
5443.150	0.28262	2.78158	-0.66305	1.51172
5447.148	0.25448	2.84192	-0.35772	1.29522
5451.144	0.26823	2.80672	-0.89937	1.54513
5455.149	0.22073	2.79265	-1.10209	1.57234
5459.172	0.21442	2.87140	-1.04146	1.50931
5463.148	0.26592	2.77385	-0.60424	1.56246
5467.159	0.36573	2.74001	-0.33250	1.77386
5471.151	0.16831	2.71375	-0.76201	1.78880
5475.152	0.19010	2.85165	-0.23656	1.58662
5479.145	0.19891	2.81811	-0.53483	1.53485
5483.146	0.37643	2.72699	-0.78196	1.60225
5487.146	0.22376	2.75774	-0.92666	1.56825
5491.148	0.12446	2.77001	-0.93986	1.64017
5495.145	0.23601	2.83908	-0.61268	1.65509
5499.144	0.35144	2.79299	-0.95107	1.83850
5503.142	0.24316	2.81310	-0.85260	1.56700
5507.155	0.31074	2.77386	-0.88609	1.61323
5511.148	0.23274	2.82217	-0.88659	1.58257
5515.146	0.28595	2.86475	-1.00454	1.52681
5519.142	0.38765	2.73752	-0.84039	1.50312
5523.147	0.18065	2.87590	-1.31263	1.66885
5527.145	0.29759	2.76462	-0.84853	1.58966
5531.143	0.33422	2.82780	-0.99410	1.71392
5535.149	0.32776	2.81665	-1.11328	1.61665
5539.163	0.27456	2.78195	-1.07574	1.60336
5543.149	0.24455	2.80251	-0.78704	1.74870
5547.143	0.35916	2.94830	-0.80173	1.73648
5551.154	0.34600	2.83868	-1.00730	1.82174
5555.144	0.26473	2.86775	-0.69037	1.86699
5559.143	0.36673	2.75238	-0.66144	2.05163
5563.143	0.34841	2.76607	-0.62660	1.92011
5567.147	0.35161	2.69799	-0.72853	2.09572
5571.144	0.32632	2.72108	-1.29114	2.24112
5575.142	0.24135	2.75759	-0.60277	1.86171
5579.142	0.29669	2.72044	-0.65394	2.33061
5583.146	0.33059	2.76570	-2.03947	1.99550
5587.145	0.35893	2.76864	-0.41690	1.94834
5591.146	0.38904	2.73546	-0.23564	2.16252
5595.153	0.26520	2.74591	-0.59903	1.84503
5599.147	0.38283	2.71794	-0.44261	1.51855
5603.142	0.43420	2.77737	-0.23845	1.98662
5607.167	0.39919	2.79890	-0.16189	2.00879
5611.151	0.43403	2.80801	-0.26907	1.83541
5615.145	0.33963	2.82864	-0.21629	1.87089
5619.143	0.40308	2.81305	-0.66275	2.09389
5623.147	0.39457	2.73459	-0.75116	2.08330
5627.143	0.44763	2.76938	-0.41120	2.07764
5631.142	0.42872	2.80633	-0.60096	2.03805
5635.151	0.30682	2.77292	-0.74183	2.20416
5639.144	0.30357	2.63547	-0.59950	2.10555
5643.141	0.37861	2.72208	-0.68752	2.06804
5647.141	0.30920	2.76472	-0.76022	2.20376
5651.145	0.25860	2.68408	-0.71161	2.07347
5655.144	0.22321	2.72584	-0.68871	2.05457
5659.148	0.33484	2.63008	-0.71037	1.97703
5663.144	0.24103	2.64572	-0.67565	2.00045
5667.145	0.24147	2.74532	-0.54756	1.75491
5671.170	0.15305	2.75842	-0.55166	1.63125
5675.459	0.19268	2.82533	-0.53083	1.42045
5679.147	0.20879	2.85024	-0.25512	1.44059
5683.142	0.23410	2.79245	-0.40934	1.66709
5687.141	0.19827	2.82307	-0.40869	1.61979
5691.140	0.17280	2.82835	-0.31468	1.52138
5695.145	0.12662	2.83198	-0.27478	1.65604
5699.141	0.05356	2.74435	-0.15489	1.65032
5703.141	0.03688	2.78114	-0.13352	1.69737
5707.140	0.09361	2.80677	0.03963	1.66102
5711.144	0.03417	2.65512	-0.09034	1.66301
5715.146	0.18978	2.56665	-0.00568	1.76624
5719.167	0.11533	2.58757	-0.04125	1.78858
5723.151	0.25182	2.60840	-0.03340	1.77582
5727.142	0.27855	2.58824	0.07475	1.70589
5731.139	0.14935	2.60418	0.13163	1.64885
5735.144	0.25095	2.64612	0.19668	1.45681
5739.141	0.18909	2.59202	0.20931	1.48968
5743.169	0.14600	2.65913	0.23932	1.44632
5747.146	0.25143	2.67629	0.25942	1.35980
5751.140	0.19286	2.68359	0.23867	1.35297
5755.140	0.26488	2.77950	0.28786	1.32542
5759.150	0.17946	2.77466	0.28198	1.27660
5763.141	0.32019	2.82205	0.27624	1.25203
5767.140	0.38194	2.55602	0.36045	1.23019
5771.139	0.31178	2.70385	0.28989	1.20492
5775.145	0.26401	2.69699	0.30920	1.17190
5779.140	0.33459	2.64476	0.18407	1.28210
5783.140	0.37211	2.72662	0.18526	1.26781
5787.146	0.35355	2.68219	0.20440	1.23451
5791.139	0.38708	2.67879	0.21499	1.40374
5795.142	0.39219	2.67385	0.19782	1.18712
5799.144	0.34997	2.64351	0.05706	1.19100
5803.144	0.40626	2.65287	0.05658	1.18953
5807.138	0.36712	2.67197	0.18119	1.20778
5811.157	0.32752	2.72316	0.12590	1.27428
5815.013	0.27505	2.67175	0.14049	1.24874
5819.019	0.34131	2.64922	0.27679	1.16232
5823.017	0.36015	2.70017	0.32518	1.14629
5827.013	0.31419	2.70013	0.21971	1.20907
5831.011	0.25346	2.58566	0.25470	1.15211
5835.017	0.17295	2.63440	0.21157	1.20711
5839.016	0.24063	2.69018	0.19142	1.27529
5843.016	0.23177	2.54614	0.48932	1.25531
5847.024	0.31483	2.64437	0.33700	1.25568
5851.018	0.23311	2.65448	0.12555	1.30482
5855.011	0.52438	2.64906	0.33002	1.06226
5859.018	-0.03256	2.69548	-0.01042	1.25938
5863.016	-2.76406	2.79621	-1.35268	1.48881
5867.017	-4.32503	2.97734	-4.11019	1.57171
5871.012	-5.35251	3.36074	-4.61408	3.80949
5875.018	-6.10549	3.48135	-7.59051	3.21675
5879.054	-7.28009	3.45230	-9.11002	3.43202
5883.020	-8.06054	3.52183	-10.78285	3.52692
5887.021	-8.45101	3.62520	-9.53989	4.17383
5891.017	-8.74263	3.86040	-9.15744	3.74938
5895.015	-8.23991	4.11363	-9.34875	4.02243
5899.081	-8.02898	4.03970	-9.00104	4.39126
5903.022	-8.50685	4.21892	-7.74174	4.55701
5907.013	-8.42364	4.24707	-7.65717	3.84423
5911.011	-8.20374	4.16771	-8.55493	3.92406
5915.017	-8.25802	4.33978	-7.66602	3.86780
5919.013	-8.13524	4.41627	-7.98328	3.99899
5923.014	-8.17668	4.41422	-9.15771	4.13045
5927.012	-8.19331	4.44531	-8.64776	4.24158
5931.020	-8.18623	4.48230	-8.44042	4.12906
5935.013	-8.08805	4.52181	-8.53173	3.99118
5939.013	-8.08265	4.46812	-8.04489	4.03773
5943.012	-8.09131	4.42039	-7.75902	3.97246
5947.040	-8.04029	4.47681	-7.80336	3.98128
5951.019	-8.01674	4.55627	-7.84367	3.91751
5955.017	-8.04302	4.58791	-7.63177	3.81202
5959.010	-8.07861	4.56866	-7.78521	3.94335
5963.012	-8.05110	4.57862	-7.76002	3.91131
5967.010	-7.98140	4.59769	-7.74856	3.88759
5971.024	-8.04511	4.57515	-8.11321	3.78477
5975.013	-8.04818	4.59755	-7.78772	3.84990
5979.009	-8.02333	4.51323	-7.73114	3.78992
5983.015	-7.98437	4.59138	-7.65139	3.83857
5987.014	-8.02859	4.64012	-7.60090	3.64428
5991.014	-8.04869	4.65027	-7.74440	3.63214
5995.016	-8.04506	4.63235	-7.93620	3.54906
5999.010	-7.96064	4.63008	-7.88994	3.60671
6003.009	-7.98642	4.70053	-7.86527	3.52559
6007.014	-7.97524	4.68661	-7.89067	3.37248
6011.017	-8.05925	4.54504	-7.78231	3.45918
6015.033	-7.90550	4.49674	-7.78862	3.51142
6019.021	-8.01000	4.46386	-7.86644	3.56851
6023.014	-8.00163	4.53673	-8.48828	3.55477
6027.013	-8.05008	4.57382	-7.81269	3.44767
6031.007	-7.97855	4.53082	-7.79527	3.48345
6035.013	-7.90526	4.55768	-7.81702	3.68602
6039.009	-7.91499	4.42748	-7.68276	3.42390
6043.007	-7.97999	4.33480	-7.71554	3.88228
6047.014	-7.97203	4.55466	-7.69388	3.69678
6051.009	-8.06891	4.40092	-7.69985	3.82820
6055.012	-8.35415	4.53914	-9.54966	4.28285
6059.015	-9.64019	4.77207	-9.97782	4.44691
6063.012	-10.27590	4.92038	-9.05756	4.23980
6067.008	-9.95001	4.95416	-9.89080	4.87188
6071.010	-9.12950	5.24031	-9.55408	4.31656
6075.014	-9.65471	5.29163	-9.70258	5.07093
6079.012	-9.34993	5.25664	-8.42362	4.35093
6083.030	-9.46527	5.00324	-9.55191	5.27117
6087.013	-9.64104	5.24093	-8.70204	4.27177
6091.008	-9.47285	5.25877	-9.61863	5.19434
6095.023	-9.45621	5.22665	-8.91527	4.30681
6099.093	NaN	NaN	NaN	NaN
6107.015	-9.52743	5.30634	-9.16300	4.49382
6111.012	-9.53605	5.31909	-9.68204	5.29308
6115.009	-9.44764	5.37945	-9.05703	4.51173
6119.010	-9.55420	5.34004	-9.28794	5.12711
6123.006	-9.45027	5.20248	-9.26358	5.04614
6127.013	-9.47749	5.25605	-8.94159	4.71639
6131.012	-9.56687	5.48079	-9.37486	4.93500
6135.008	-9.52792	5.40343	-9.70782	5.08679
6139.015	-9.50074	5.37918	-9.48355	5.19984
6143.016	-9.58543	5.46284	-9.09335	5.18090
6147.010	-9.67538	5.65484	-9.53936	5.01272
6151.036	-9.66062	5.57435	-9.79238	5.11043
6155.012	-9.72243	5.70336	-9.90363	5.13917
6159.009	-9.63660	5.42459	-9.58868	5.14645
6163.015	-9.56067	5.29472	-9.83192	5.13725
6167.010	-9.57744	5.41596	-9.79366	5.07482
6171.009	-9.56050	5.35973	-9.99724	5.20982
6175.006	-9.64304	5.45689	-9.74603	5.00492
6179.017	-9.72313	5.45987	-9.40144	4.98679
6183.008	-9.83014	5.57061	-9.45264	5.01033
6187.008	-9.74842	5.50926	-9.63920	5.03410
6191.007	-9.67746	5.38482	-9.77961	5.12270
6195.013	-9.60808	5.29795	-9.60043	5.01435
6199.010	-9.69479	5.37282	-9.42192	4.98105
6203.010	-9.80221	5.40388	-9.65286	5.00463
6207.006	-9.66033	5.41879	-9.54076	4.90279
6211.012	-9.65211	5.44713	-9.38513	4.99715
6215.008	-9.71625	5.46666	-9.29495	4.93734
6219.040	-9.62379	5.30234	-9.40216	4.97357
6223.015	-9.71797	5.36145	-9.29601	4.91033
6227.005	-9.59146	5.37965	-9.35338	4.99838
6231.012	-9.57076	5.34126	-9.25093	4.80986
6235.011	-9.68539	5.45291	-9.42880	4.85792
6239.008	-9.77773	5.50744	-9.35952	4.74626
6243.006	-9.63674	5.34297	-9.33676	4.81918
6247.014	-9.66221	5.35536	-9.37742	4.70224
6251.009	-9.56431	5.43858	-9.22443	4.81792
6255.008	-9.58031	5.28997	-9.39533	4.77626
6259.011	-9.65377	5.33248	-9.30836	4.66675
6263.012	-9.72655	5.35568	-9.20204	4.88826
6267.010	-9.71037	5.46224	-9.30525	4.82319
6271.005	-9.66245	5.41618	-9.26239	4.70368
6275.011	-9.62099	5.45526	-9.24075	4.70263
6279.007	-9.62714	5.45450	-9.28236	4.61123
6283.006	-9.57980	5.45405	-9.39892	4.69744
6287.041	-9.58142	5.47966	-9.43163	4.70084
6291.008	-9.45554	5.45772	-9.42117	4.78143
6295.007	-9.56593	5.43562	-9.28842	4.71731
6299.008	-9.59954	5.49784	-9.28777	4.69087
6303.015	-9.57669	5.50100	-9.26379	4.85622
6307.007	-9.50281	5.51812	-9.37689	4.79840
6311.011	-9.55707	5.51339	-9.38148	4.78436
6315.008	-9.58393	5.49768	-9.57821	4.82560
6319.005	-9.66947	5.48455	-9.62970	4.77446
6323.005	-9.55524	5.48161	-9.41897	4.77880
6327.044	-9.61151	5.47949	-9.38095	4.75349
6331.003	-9.63534	5.46418	-9.34587	4.77934
6335.004	-9.76693	5.46052	-9.30786	4.84005
6339.009	-9.75150	5.50008	-9.34725	4.87099
6343.007	-9.87215	5.51138	-9.43515	4.69486
6347.008	-9.81351	5.48742	-9.43701	4.66111
6351.008	-9.82937	5.34549	-9.34505	4.74755
6355.018	-9.75753	5.46045	-9.33253	4.58029
6359.008	-9.80428	5.37317	-9.31806	4.68974
6363.003	-9.84900	5.39873	-9.34372	4.53039
6367.009	-9.92056	5.47378	-9.27141	4.51962
6371.005	-9.93720	5.43453	-9.32656	4.70745
6375.007	-10.05818	5.49994	-9.42897	4.56794
6379.003	-10.09600	5.51705	-9.50672	4.72884
6383.012	-11.58448	5.56366	-9.89487	5.12012
6387.011	-12.08639	5.81676	-11.50303	5.90845
6391.005	-12.78170	6.01764	-12.11716	6.18322
6395.003	-12.65623	6.58961	-12.55093	6.30567
6399.008	-12.66741	6.49068	-12.29476	7.13775
6403.005	-12.78222	6.22656	-12.66807	7.76844
6407.004	-12.54599	6.49975	-12.86522	6.90250
6411.009	-12.62658	6.57156	-13.07460	7.69024
6415.005	-12.75054	6.66455	-12.95298	7.55292
6419.002	-12.74291	6.69358	-13.15089	7.32667
6423.029	-12.68423	6.70724	-12.90678	7.25237
6427.012	-12.66134	6.74968	-12.76449	6.92364
6431.009	-12.69058	6.77385	-12.64206	7.18014
6435.009	-12.64208	6.79016	-13.07641	7.19563
6439.006	-12.61658	6.69651	-12.58834	7.15014
6443.007	-12.58975	6.65769	-12.56176	7.27708
6447.006	-12.56287	6.80506	-12.70751	7.15204
6451.008	-12.60084	6.82106	-12.43795	7.20167
6455.004	-12.58174	6.74521	-12.36859	7.17705
6459.003	-12.58791	6.71139	-12.17487	7.20186
6463.008	-12.58153	6.74041	-12.33248	7.14223
6467.006	-12.55323	6.68581	-12.22540	6.92984
6471.009	-12.58098	6.69612	-12.21992	7.21530
6475.016	-12.48364	6.62637	-12.03529	7.16843
6479.005	-12.56484	6.80152	-12.36923	7.06777
6483.003	-12.57016	6.71257	-12.14452	7.24674
6487.002	-12.65642	6.70870	-12.11510	7.12101
6491.029	-12.74175	6.67063	-12.06491	7.06711
6495.007	-12.78021	6.63107	-12.05148	7.16997
6499.008	-12.69436	6.70286	-11.80906	7.15874
6503.003	-12.65153	6.67193	-11.90098	7.03404
6507.005	-12.79671	6.80480	-11.89145	6.83821
6511.008	-12.77657	6.84144	-11.79185	6.91983
6515.009	-12.72967	6.77977	-11.75293	7.08492
6519.004	-12.75620	6.76793	-11.67284	7.10030
6523.003	-12.78991	6.77917	-11.72924	6.94853
6527.001	-13.02354	6.75767	-11.85956	7.01544
6531.029	-12.94436	6.75988	-11.91412	6.91664
6535.004	-12.79916	6.71629	-12.07574	6.98164
6539.001	-12.73106	6.71868	-12.18505	6.87205
6543.005	-12.70945	6.68805	-12.15168	6.81203
6547.004	-12.71727	6.76490	-12.10262	6.84589
6551.003	-12.57829	6.72810	-12.30464	6.81796
6555.010	-12.47002	6.69687	-12.05998	6.86022
6559.027	-12.72589	6.69250	-12.03142	6.86973
6563.009	-12.61471	6.76958	-11.94831	6.86172
6567.002	-12.81495	6.98497	-11.87643	6.87373
6571.000	-12.64163	6.91243	-12.22284	6.83227
6575.004	-12.62093	6.81279	-11.84639	6.87083
6579.002	-12.64631	6.94729	-11.72569	6.91342
6582.999	-12.94096	7.14772	-11.76673	6.91348
6587.001	-12.74315	6.89436	-11.68386	6.98023
6591.005	-12.68893	7.11847	-11.63709	6.99781
6595.006	-12.94853	7.02132	-11.58184	6.97619
6599.001	-12.85341	6.97802	-11.59049	7.05618
6603.005	-12.95725	7.04400	-11.82804	7.10032
6607.005	-12.84642	6.88402	-11.62594	7.03017
6611.000	-12.66566	6.92830	-11.80331	7.38056
6615.000	-12.94266	6.83860	-12.05917	6.89483
6619.005	-12.82031	6.99490	-11.80932	7.05706
6623.000	-12.81353	6.86017	-12.38119	7.08882
6627.034	-12.81997	6.84256	-12.07759	7.01481
6631.008	-12.82955	6.86808	-12.05053	6.92053
6635.009	-12.62143	6.79197	-12.02584	6.94202
6639.007	-12.56004	6.81728	-12.23734	7.02818
6643.002	-12.71047	6.84134	-12.11266	7.07253
6646.997	-12.83555	6.87138	-12.32350	7.01873
6651.005	-12.89103	6.92559	-12.47820	7.32636
6654.999	-13.00217	7.11773	-13.01279	7.30325
6659.005	-13.36107	7.10864	-12.90029	7.80195
6663.001	-13.43364	7.12969	-12.82415	7.71309
6666.999	-13.51541	7.19029	-13.09061	8.17670
6670.873	-13.47014	7.27488	-12.95376	7.89619
6674.878	-13.51138	7.24784	-12.83736	7.77913
6678.877	-13.55116	7.28750	-13.02346	8.12953
6682.883	-13.58650	7.34251	-13.09169	8.40322
6686.874	-13.69828	7.38851	-13.13934	8.13162
6690.878	-13.67241	7.40864	-13.11189	7.90734
6694.899	-13.71006	7.47331	-13.07453	8.05712
6698.885	-13.79939	7.56992	-13.06982	8.10762
6702.874	-13.71221	7.52011	-13.10874	8.22035
6706.879	-13.72999	7.40753	-13.11387	8.11245
6710.877	-13.73381	7.39448	-13.13969	8.05580
6714.874	-13.76207	7.40487	-13.06793	8.16478
6718.876	-13.78822	7.41461	-13.17308	8.28270
6722.880	-13.83571	7.50293	-13.11387	8.23182
6726.877	-13.83992	7.54465	-13.09028	8.20668
6730.873	-13.82833	7.56226	-13.06902	8.20613
6734.877	-13.84621	7.61457	-13.05776	8.26447
6738.876	-13.85969	7.62208	-13.09840	8.33159
6742.874	-13.85346	7.62228	-13.05385	8.31409
6746.872	-13.86680	7.62433	-13.01515	8.34908
6750.909	-13.86036	7.71146	-12.98942	8.36541
6754.872	-13.86235	7.79361	-12.92936	8.42694
6758.872	-13.87585	7.84644	-12.94287	8.45381
6762.891	-13.87948	7.89716	-12.94716	8.39736
6766.874	-13.86675	7.94873	-12.94754	8.37737
6770.872	-13.84965	7.88725	-12.93243	8.39996
6774.876	-13.90001	7.89548	-12.90242	8.44961
6778.875	-13.98176	7.91192	-12.83656	8.43061
6782.875	-14.02094	7.89046	-12.70839	8.45814
6786.876	-13.98788	7.86085	-12.76496	8.43121
6790.874	-14.00534	7.83849	-12.68524	8.45183
6794.871	-14.05647	7.85011	-12.58959	8.47613
6798.871	-14.00029	7.82174	-12.72837	8.42909
6802.874	-13.93483	7.73826	-12.56008	8.36504
6806.878	-13.14054	7.62890	-11.05966	8.28491
6810.877	-11.67163	6.66626	-9.91346	6.58980
6814.870	-11.10897	6.05190	-9.39501	5.68813
6818.875	-10.34631	5.30398	-7.58783	5.25848
6822.873	-9.52649	4.87942	-7.37262	5.39690
6826.872	-9.44556	4.70377	-7.35332	4.83834
6830.879	-8.90153	4.65521	-7.25755	4.11342
6834.872	-8.82873	5.36482	-7.22236	4.01541
6838.877	-8.90546	5.22129	-7.29858	3.94956
6842.921	-8.90773	5.49109	-7.73611	3.90364
6846.871	-8.89514	5.58229	-7.40318	3.95754
6850.881	-8.76607	5.52300	-7.41975	4.05716
6854.876	-8.69518	5.37582	-7.29660	3.86685
6858.870	-8.59839	5.19943	-7.32400	3.72905
6862.875	-8.67687	5.40734	-7.54830	3.79093
6866.874	-8.65038	5.27612	-7.48358	3.87657
6870.872	-8.53362	5.22083	-7.46084	3.94542
6874.869	-8.53294	5.17497	-7.37594	4.02561
6878.875	-8.54887	5.06394	-7.32580	4.05343
6882.872	-8.55256	5.03131	-7.28862	4.14933
6886.872	-8.52156	4.99136	-7.37685	4.35372
6890.872	-8.53797	4.96254	-7.30322	4.19485
6894.877	-8.52768	4.93340	-7.36113	4.23455
6898.875	-8.52341	5.01928	-7.28705	4.15391
6902.875	-8.56697	5.08067	-7.36281	4.16164
6906.873	-8.60970	5.16738	-7.32751	4.17776
6910.876	-8.57891	5.09799	-7.30627	4.06639
6914.871	-8.58430	5.13294	-7.28447	3.96850
6918.873	-8.55957	5.16842	-7.32949	3.94001
6922.867	-8.58522	5.24211	-7.33122	3.88534
6926.874	-8.57486	5.23518	-7.34650	3.69102
6930.871	-8.54071	5.24976	-7.38151	3.73218
6934.877	-8.50047	5.18543	-7.41375	3.72050
6938.867	-8.50265	5.21067	-7.41956	3.79658
6942.875	-8.49802	5.05717	-7.44674	3.85031
6946.872	-8.46568	5.02179	-7.43537	3.98236
6950.872	-8.45919	4.86523	-7.42939	3.91706
6954.871	-8.51775	4.89928	-7.41941	3.91984
6958.868	-8.57881	4.88698	-7.44577	3.95279
6962.874	-8.54496	4.87188	-7.46321	3.93613
6966.877	-8.58020	4.81246	-7.45313	3.78891
6970.875	-8.60031	4.76195	-7.42332	3.64675
6974.874	-8.60383	4.69663	-7.45257	3.94564
6978.898	-8.67255	4.72279	-7.43642	4.26616
6982.872	-8.68662	4.68479	-7.43786	4.07477
6986.870	-8.68962	4.69056	-7.44635	3.87286
6990.867	-8.66455	4.71364	-7.45443	3.61616
6994.871	-8.56576	4.68841	-7.52449	3.59718
6998.870	-8.65514	4.69797	-7.60943	4.01841
7002.868	-8.76808	4.70995	-7.90961	4.37905
7006.867	-9.63187	4.71472	-8.47418	4.66584
7010.871	-10.29942	4.85652	-9.10506	4.59988
7014.874	-10.42161	5.34797	-9.65686	4.74043
7018.874	-10.15891	5.60758	-9.49907	4.77137
7022.872	-10.04485	5.48982	-9.05214	4.72495
7026.869	-10.06143	5.39667	-9.27680	4.87399
7030.869	-10.22654	5.22405	-8.96460	4.80037
7034.896	-10.26768	5.33548	-8.97157	4.97221
7038.877	-10.17312	5.30612	-9.17459	4.98022
7042.870	-10.22216	5.37144	-9.38506	4.96226
7046.866	-10.35777	5.50216	-9.33739	4.91268
7050.872	-10.43865	5.58650	-9.34582	4.80540
7054.868	-10.36211	5.65274	-9.25374	4.91533
7058.870	-10.31261	5.68241	-9.23094	4.88528
7062.875	-10.25932	5.53406	-9.10615	4.82643
7066.868	-10.22570	5.49869	-9.04059	4.85558
7070.868	-10.11928	5.51340	-8.97007	4.81514
7074.864	-10.09544	5.50508	-9.07661	4.90004
7078.871	-10.12291	5.44387	-9.16262	4.86727
7082.868	-10.06044	5.43449	-9.18579	4.92599
7086.868	-10.10254	5.51223	-9.09173	4.95580
7090.863	-10.09499	5.48732	-9.17578	4.96518
7094.874	-10.01392	5.47669	-9.17544	4.93648
7098.878	-9.95687	5.44965	-9.16247	4.89192
7102.882	-9.96831	5.45980	-9.16404	4.86143
7106.874	-9.91861	5.52972	-9.32238	4.89147
7110.870	-9.95827	5.53213	-9.38064	4.80158
7114.868	-9.99888	5.54112	-9.33215	4.87015
7118.866	-10.04944	5.65274	-9.35998	4.84727
7122.870	-10.07117	5.66864	-9.35778	4.88785
7126.868	-10.06037	5.69204	-9.30609	4.80735
7130.867	-10.13381	5.69600	-9.39342	4.72252
7134.865	-10.15846	5.65275	-9.43175	4.71740
7138.871	-10.24442	5.68077	-9.43288	4.74322
7142.874	-10.30528	5.65608	-9.49830	4.77810
7146.871	-10.18911	5.64257	-9.61614	4.80406
7150.866	-10.24274	5.57400	-9.38267	4.77726
7154.868	-10.14415	5.54303	-9.31731	4.80837
7158.868	-10.09405	5.53741	-9.42670	4.79958
7162.872	-10.12902	5.49360	-9.43670	4.80714
7166.866	-10.10259	5.45115	-9.66868	4.79067
7170.896	-10.01508	5.45021	-9.43122	4.78134
7174.872	-10.12654	5.41144	-9.56740	4.80227
7178.870	-10.12986	5.49798	-9.41617	4.77570
7182.904	-10.19856	5.52966	-9.34734	4.74789
7186.871	-10.02240	5.56809	-9.25772	4.68681
7190.863	-10.00463	5.52221	-9.03074	4.53740
7194.867	-8.58041	5.20523	-7.14054	4.46652
7198.866	-7.65924	4.51196	-5.07060	3.70733
7202.864	-5.46955	3.65145	-3.06833	2.94057
7206.864	-4.58491	3.46979	-2.33296	2.65478
7210.868	-2.97839	3.13586	-0.84190	2.52696
7214.866	-1.71984	2.90742	0.25269	2.20443
7218.865	-0.63977	2.81027	0.45951	1.68543
7222.877	-0.14059	2.74965	0.78273	0.99392
7226.870	0.41355	2.62993	0.98869	0.99881
7230.865	0.11399	2.65278	0.78697	1.17956
7234.869	-0.01975	2.68103	0.63114	1.19545
7238.889	0.02700	2.65552	0.84778	1.07878
7242.876	0.16015	2.70271	1.02484	1.19125
7246.866	0.22765	2.59454	1.08051	1.01696
7250.866	0.18861	2.50974	1.23077	1.01147
7254.869	0.49341	2.50792	1.13300	0.84768
7258.867	0.46810	2.44930	1.18334	0.77834
7262.862	0.38765	2.55763	1.34487	0.78981
7266.869	0.34925	2.58740	1.33909	0.81391
7270.871	0.24631	2.59744	1.32505	0.73279
7274.866	0.34161	2.41999	1.34991	0.65342
7278.865	0.44150	2.34929	1.35911	0.62235
7282.862	0.47418	2.56199	1.34844	0.55958
7286.872	0.47086	2.46934	1.39009	0.53925
7290.864	0.46808	2.33686	1.43964	0.48511
7294.864	0.51734	2.47646	1.40308	0.42856
7298.868	0.51041	2.56084	1.41990	0.61150
7302.866	0.46512	2.52100	1.36533	0.54045
7306.994	0.49192	2.54616	1.34353	0.58683
7310.867	0.51078	2.39419	1.32981	0.69019
7314.864	0.49830	2.31169	1.32344	0.70477
7318.863	0.55146	2.29741	1.31994	0.73306
7322.867	0.56126	2.42076	1.35529	0.64604
7326.864	0.62861	2.27646	1.39800	0.69005
7330.863	0.62362	2.23503	1.37883	0.69152
7334.867	0.49599	2.29413	1.30794	0.65828
7338.866	0.53483	2.29233	1.34244	0.69602
7342.862	0.51466	2.22054	1.36910	0.62244
7346.867	0.57513	2.18037	1.41149	0.74106
7350.872	0.45994	2.15793	1.42707	0.72066
7354.861	0.62372	2.21521	1.46616	0.78915
7358.867	0.63201	2.16481	1.43947	0.76971
7362.864	0.52034	2.08833	1.49140	0.79073
7366.863	0.55210	2.16194	1.50487	0.69143
7370.860	0.48488	2.18323	1.52694	0.73943
7374.886	0.60573	2.27593	1.49793	0.65932
7378.881	0.58307	2.25832	1.53557	0.78011
7382.867	0.53294	2.19999	1.56434	0.84996
7386.865	0.58545	2.14759	1.52456	0.91469
7390.891	0.61213	2.27848	1.53699	0.85737
7394.865	0.61945	2.24250	1.60127	0.86484
7398.865	0.62846	2.34766	1.45629	0.82179
7402.861	0.58880	2.32190	1.62358	0.78892
7406.859	0.63493	2.22426	1.60355	0.74305
7410.868	0.58071	2.17503	1.61696	0.83283
7414.862	0.60843	2.20931	1.59050	0.79405
7418.860	0.64642	2.25978	1.66676	0.80899
7422.866	0.60193	2.22559	1.61099	0.74144
7426.864	0.62739	2.16057	1.70370	0.74165
7430.869	0.55151	2.29808	1.60680	0.68941
7434.863	0.28054	2.20522	1.06518	0.64907
7438.865	-1.33430	2.04952	0.24669	0.47945
7442.927	-2.62026	1.90542	-0.97353	0.38192
7446.862	-3.69464	1.46992	-1.99089	0.20431
7450.866	-3.96834	1.80473	-2.68484	0.41134
7454.860	-4.22014	1.38107	-2.46910	0.26179
7458.859	-4.48648	1.37179	-3.02341	0.18035
7462.865	-4.05725	0.98268	-3.13444	0.14880
7466.862	-4.30462	0.97997	-3.28036	0.20080
7470.863	-4.38544	1.15180	-3.30045	0.10340
7474.870	-4.13846	1.04093	-3.38367	0.15977
7478.865	-4.37571	1.14604	-3.31234	0.13915
7482.861	-4.23512	0.95999	-3.20392	0.17814
7486.860	-4.40715	0.87808	-3.45230	0.17035
7490.865	-4.36844	0.94332	-3.43489	0.25601
7494.862	-4.39624	0.93685	-3.45593	0.17536
7498.864	-4.52217	1.09547	-3.46496	0.17437
7502.860	-4.47735	1.06362	-3.56173	0.26470
7506.864	-4.38664	1.02737	-3.49181	0.19666
7510.887	-4.52478	1.05939	-3.46647	0.09815
7514.875	-4.57887	1.06179	-3.52118	0.15819
7518.862	-4.43110	1.04833	-3.66164	0.17947
7522.741	-4.40707	1.07180	-3.42668	0.14161
7526.734	-4.42116	1.04758	-3.50571	0.00347
7530.739	-4.49398	1.06741	-3.53491	0.06094
7534.864	-4.45937	1.07548	-3.62657	0.08935
7538.734	-4.50653	1.17583	-3.61488	0.11668
7542.739	-4.47780	1.13496	-3.40840	0.15084
7546.737	-4.47099	1.15709	-3.54302	-0.06704
7550.736	-4.47817	1.13006	-3.61785	0.14247
7554.740	-4.45446	1.23227	-3.77950	0.18968
7558.735	-4.36923	1.18949	-3.64578	0.25748
7562.740	-4.45562	1.23683	-3.41572	0.16520
7566.736	-4.48451	1.32200	-3.62400	0.26218
7570.741	-4.53371	1.35417	-3.58198	0.22469
7574.735	-4.50091	1.33269	-3.72702	0.16963
7578.739	-4.46364	1.33828	-3.67719	0.14876
7582.736	-4.38731	1.28781	-3.75034	0.14258
7586.740	-4.35862	1.26906	-3.71589	0.03556
7590.737	-4.38869	1.19382	-3.72185	0.08657
7594.743	-4.35072	1.28086	-3.80216	-0.01406
7598.763	-4.45764	1.24502	-3.63376	-0.14894
7602.739	-4.46110	1.23538	-3.66167	-0.15368
7606.733	-4.38420	1.24071	-3.77597	-0.19541
7610.736	-4.35926	1.18218	-3.72000	-0.27829
7614.736	-4.15186	1.16568	-3.33099	-0.21565
7618.735	-2.21886	1.15419	-1.42144	-0.04886
7622.733	-0.71365	1.21750	1.20484	0.08345
7626.740	1.25845	1.25075	2.34706	-0.14601
7630.735	2.50095	1.40521	5.14889	-0.13869
7634.733	4.89759	1.54297	6.50506	-0.24366
7638.731	5.95871	1.35763	7.89795	-0.04438
7642.734	7.72500	1.38818	8.96828	-0.19089
7646.740	8.26121	1.31985	9.57848	-0.11266
7650.737	8.74838	1.33867	9.58743	-0.27810
7654.733	8.46412	1.42686	9.53649	-0.18563
7658.735	8.50722	1.54156	9.43259	-0.22858
7662.730	8.38063	1.50529	9.39313	-0.09424
7666.731	8.42559	1.50172	9.53108	-0.11003
7670.737	8.56898	1.59616	9.76464	-0.07085
7674.734	8.57265	1.49688	9.75873	-0.02304
7678.734	8.69142	1.43106	9.88827	0.09202
7682.731	8.73167	1.45160	9.86218	0.10229
7686.741	8.79048	1.48705	9.99883	0.10070
7690.734	8.83304	1.53029	10.05211	0.06998
7694.733	8.89015	1.60070	10.10519	0.14654
7698.730	8.91517	1.60373	10.14347	0.14121
7702.737	8.94673	1.59381	10.14004	0.19258
7706.738	8.99905	1.56466	10.20137	0.15014
7710.736	9.03728	1.55677	10.23353	0.08305
7714.757	9.02450	1.53284	10.20029	0.03632
7718.740	9.03372	1.49533	10.20077	-0.03972
7722.736	8.99300	1.48216	10.18433	-0.08000
7726.740	8.93663	1.46082	10.13859	-0.09493
7730.743	8.87711	1.43685	10.09066	-0.19958
7734.734	8.87416	1.44525	10.07504	-0.24542
7738.730	8.85783	1.40787	10.09145	-0.37585
7742.734	8.82727	1.39972	10.07495	-0.36630
7746.733	8.87450	1.38530	10.11709	-0.41840
7750.734	8.83696	1.35244	10.04658	-0.50457
7754.737	8.88976	1.31902	10.02947	-0.55830
7758.733	8.91178	1.32294	9.96222	-0.51960
7762.733	9.02474	1.41549	9.99587	-0.54742
7766.731	8.98988	1.39002	9.98446	-0.58449
7770.739	8.86749	1.40903	9.77645	-0.56407
7774.733	8.26881	1.47077	9.36015	-0.54606
7778.731	5.13107	1.66157	8.23736	-0.44957
7783.728	3.03373	3.01330	5.44503	0.40627
7786.756	1.25168	3.15092	2.86569	1.86308
7790.739	-0.61134	3.97417	1.49049	2.97206
7794.736	-2.77755	4.00131	-0.90195	3.17052
7798.735	-4.13833	3.93158	-2.98126	3.24018
7802.730	-7.00294	4.29454	-5.02346	3.43464
7806.730	-7.76659	4.23201	-6.21531	3.24075
7810.739	-9.13978	4.35244	-7.38539	3.49912
7814.731	-9.38996	4.38097	-7.82143	3.42402
7818.731	-9.35737	4.55796	-8.34706	3.51366
7822.728	-9.28557	4.54669	-8.52319	3.66719
7826.794	-9.09306	4.65739	-8.35546	3.64113
7830.737	-9.22168	4.80271	-8.53821	3.64296
7834.729	-9.26611	4.89045	-8.50418	3.69265
7838.726	-9.36143	4.90545	-8.83481	3.73474
7842.733	-9.36496	4.88863	-8.63389	3.71251
7846.735	-9.32794	4.85826	-8.66011	3.69346
7850.733	-9.38264	4.83527	-8.76370	3.83378
7854.736	-9.39264	4.78316	-8.75771	3.90249
7858.751	-9.46732	4.83954	-8.81743	3.96763
7862.737	-9.55584	4.78776	-8.74842	3.87699
7866.730	-9.53407	4.72155	-8.79085	3.82208
7870.730	-9.63305	4.82530	-8.81358	3.70094
7874.729	-9.71830	4.83729	-8.76401	3.89832
7878.734	-9.62186	4.75007	-8.83013	3.86619
7882.731	-9.60666	4.63724	-8.76927	3.88428
7886.729	-9.69971	4.70287	-8.78287	3.82239
7890.726	-9.72045	4.72599	-8.73155	3.81555
7894.737	-9.60275	4.71381	-8.74282	3.83055
7898.731	-9.51107	4.67079	-8.86951	3.83713
7902.729	-9.48818	4.74691	-8.74013	3.83952
7906.730	-9.47794	4.78135	-8.77436	3.83321
7910.730	-9.49699	4.80542	-8.78454	3.77503
7914.728	-9.48091	4.76147	-8.80728	3.89530
7918.732	-9.47843	4.82359	-8.87474	3.82442
7922.728	-9.45624	4.76731	-8.92113	3.85008
7926.733	-9.49950	4.78738	-8.87498	3.84539
7930.730	-9.40588	4.83716	-8.88184	3.82870
7934.735	-9.41888	4.84752	-8.88007	3.78413
7938.732	-9.41796	4.92449	-8.85901	3.75327
7942.732	-9.43779	4.94642	-8.90003	3.78669
7946.730	-9.50197	4.93407	-8.89957	3.75125
7950.729	-9.53441	4.96872	-8.87946	3.77067
7954.730	-9.51015	5.04551	-8.84406	3.92803
7958.726	-9.50952	5.01654	-8.83985	3.78100
7962.726	-9.45870	5.04812	-8.91294	3.75140
7966.732	-9.46379	5.02605	-8.81419	3.89681
7970.727	-9.51063	5.04232	-8.89657	4.03548
7974.727	-9.53105	5.06374	-8.87629	3.99571
7978.737	-9.48091	5.07445	-8.91560	3.83739
7982.730	-9.49489	4.96655	-9.00641	3.89572
7986.755	-9.52801	4.95476	-8.94196	4.02506
7990.743	-9.53735	4.96564	-8.90546	3.97301
7994.729	-9.64410	4.98672	-9.00561	3.94730
7998.729	-9.56093	4.97252	-8.98533	4.12434
8002.726	-9.62376	4.93338	-9.06039	4.14409
8006.731	-9.57657	4.90244	-9.03050	4.20033
8010.730	-9.64077	4.81846	-9.06835	3.97331
8014.729	-9.55188	4.71631	-9.18069	3.94211
8018.734	-9.52176	4.73033	-9.09981	3.64299
8022.732	-9.57493	4.76291	-9.10528	3.84434
8026.729	-9.74540	4.78328	-9.05725	3.79267
8030.727	-9.63754	4.70685	-9.16637	3.84762
8034.733	-9.96482	4.88094	-9.30525	4.18263
8038.729	-10.09549	5.02897	-9.26024	4.03038
8042.753	-10.64017	5.69531	-9.62608	4.34532
8046.730	-10.82105	6.13241	-10.15155	4.63399
8050.726	-10.41342	5.64269	-9.59435	4.93898
8054.729	-10.35476	5.86175	-9.87844	4.88547
8058.729	-10.45346	5.80013	-9.98877	4.94063
8062.730	-10.51580	5.82419	-10.08524	5.04119
8066.725	-10.43872	5.81968	-10.02668	5.04244
8070.730	-10.48027	5.84771	-10.05399	5.02407
8074.726	-10.56639	5.84330	-9.99592	5.10027
8078.726	-10.52358	5.91702	-10.07579	5.21368
8082.722	-10.55255	6.02637	-10.15045	5.27006
8086.729	-10.46357	6.01524	-10.13977	5.46521
8090.726	-10.38192	5.94432	-10.06465	5.33739
8094.728	-10.34434	6.00669	-10.11935	5.16810
8098.731	-10.29438	6.00650	-10.11045	5.24343
8102.734	-10.19875	6.03302	-10.10288	5.22720
8106.726	-10.19322	6.05087	-10.09970	5.21621
8110.723	-10.18995	6.12196	-10.17541	5.22034
8114.728	-10.16870	6.12374	-10.17009	5.28851
8118.726	-10.07177	6.12190	-10.19676	5.31002
8122.959	-10.10151	6.07686	-10.19190	5.52478
8126.730	-10.10721	6.07738	-10.16040	5.26102
8130.734	-10.09604	6.01464	-10.09532	5.31511
8134.726	-10.11572	6.00496	-10.11144	5.23759
8138.726	-10.12452	5.99429	-10.06609	5.27338
8142.724	-10.14908	5.99268	-9.95615	5.29059
8146.733	-10.11392	5.98220	-9.81773	5.26200
8150.727	-10.19310	5.93316	-10.04263	5.29676
8154.724	-10.22216	5.86829	-9.96718	5.33751
8158.728	-10.30379	5.85268	-9.95926	5.30476
8162.724	-10.34549	5.87230	-9.87729	5.29402
8166.724	-10.34828	5.93001	-9.82983	5.29142
8170.728	-10.26713	5.97632	-9.90308	5.32304
8174.725	-10.24091	6.03781	-9.94883	5.30566
8178.725	-10.30108	6.11956	-9.94898	5.39293
8182.721	-10.28167	6.05822	-9.95923	5.31371
8186.732	-10.48048	6.07080	-10.03623	5.34405
8190.727	-10.37774	5.99728	-10.08440	5.41991
8194.731	-10.35046	6.01375	-10.03036	5.38220
8198.726	-10.29183	6.10243	-9.93400	5.41588
8202.723	-10.29553	6.13248	-9.99700	5.36053
8206.721	-10.20171	6.11898	-10.05541	5.35469
8210.728	-10.09987	6.05916	-10.09184	5.31010
8214.726	-10.04158	6.06298	-10.03922	5.29245
8218.725	-10.09920	6.05467	-10.00357	5.25651
8222.729	-10.23755	6.03352	-10.06155	5.24635
8226.729	-10.30612	6.02799	-10.01438	5.28586
8230.725	-10.21454	6.05141	-9.94927	5.28505
8234.730	-10.25447	6.10980	-9.92451	5.23911
8238.727	-10.26350	6.13754	-10.00208	5.26740
8242.725	-10.38795	6.15579	-10.02083	5.25856
8246.723	-10.30182	6.11247	-10.04528	5.27592
8250.722	-10.33392	6.09657	-10.00959	5.25942
8254.724	-10.41897	6.17275	-10.03260	5.28057
8258.753	-10.34158	6.19835	-10.02218	5.28350
8262.768	-10.34912	6.17762	-10.03859	5.28338
8266.726	-10.22284	6.15798	-10.01111	5.29497
8270.735	-10.14499	6.14511	-10.01953	5.25839
8274.728	-10.05411	6.14439	-10.02343	5.24168
8278.722	-10.04651	6.09772	-10.05048	5.20632
8282.729	-9.91905	6.08076	-10.06306	5.15931
8286.725	-9.90474	6.06962	-10.08955	5.19570
8290.722	-10.01380	6.10973	-10.07752	5.36900
8294.725	-10.06872	6.16254	-10.05435	5.32126
8298.722	-10.03156	6.13257	-9.94072	5.41334
8302.722	-9.93128	6.14989	-9.84028	5.30106
8306.726	-9.95524	6.13756	-9.86076	5.20254
8310.727	-9.96335	6.11408	-9.99113	5.25938
8314.722	-10.01688	6.13986	-9.94871	5.28692
8318.719	-10.06229	6.16143	-9.97185	5.19362
8322.725	-9.86302	6.16495	-10.02425	5.60337
8326.736	-10.16105	6.21462	-9.75714	5.56855
8330.725	-10.25581	6.23284	-9.96826	5.55298
8334.720	-10.09167	6.23469	-9.93841	5.31949
8338.724	-10.04352	6.14227	-9.89973	5.33372
8342.719	-10.14230	6.15137	-9.90474	5.42774
8346.730	-10.19858	6.17080	-9.99563	5.45051
8350.728	-10.18500	6.24070	-9.98054	5.41611
8354.729	-10.10071	6.16907	-10.01197	5.33144
8358.725	-10.18959	6.11727	-9.93465	5.49373
8362.722	-10.30958	6.14577	-9.81539	5.40886
8366.723	-10.34768	6.14566	-9.90720	5.41004
8370.720	-10.39590	6.25076	-10.00309	5.38233
8374.636	-10.31033	6.18529	-9.97618	5.41678
8378.607	-10.23954	6.22444	-9.84467	5.45476
8382.598	-10.39105	6.26649	-9.92442	5.58185
8386.594	-10.33987	6.26308	-9.92367	5.61804
8390.724	-10.23346	6.19376	-9.88863	5.50291
8394.613	-10.29231	6.24489	-9.92312	5.44793
8398.603	-10.30245	6.17031	-9.87574	5.55716
8402.594	-10.38296	6.33243	-9.83371	5.65128
8406.601	-10.25821	6.34407	-9.86018	5.58575
8410.622	-10.07411	6.33803	-9.79795	5.48978
8414.606	-10.11303	6.40437	-9.84443	5.58483
8418.600	-10.14145	6.52470	-9.84872	5.57440
8422.597	-10.10280	6.53905	-9.91763	5.68926
8426.595	-10.14213	6.58659	-9.86596	5.64377
8430.592	-10.03474	6.52803	-9.80084	5.54716
8434.598	-10.11988	6.56372	-9.79168	5.44313
8438.598	-10.04355	6.39849	-9.77710	5.58610
8442.600	-10.00774	6.46752	-9.76700	5.59238
8446.594	-10.00966	6.37617	-9.71640	5.51730
8450.599	-10.07528	6.38675	-9.71449	5.51241
8454.596	-10.08820	6.40488	-9.78722	5.54819
8458.595	-10.09494	6.29605	-9.77941	5.55695
8462.621	-10.06629	6.25779	-9.73455	5.53520
8466.642	-10.04800	6.29936	-9.67789	5.51291
8470.610	-10.05789	6.25601	-9.63850	5.53370
8474.595	-10.12666	6.14217	-9.52348	5.42966
8478.593	-10.08286	6.00426	-9.32458	5.33631
8482.597	-9.99159	5.87973	-8.75332	4.75041
8486.597	-9.78464	5.16290	-8.68606	4.47472
8490.595	-9.79038	5.34014	-8.94707	4.01355
8494.593	-9.88466	5.17625	-9.04025	4.16885
8498.591	-9.64094	5.03680	-8.76714	4.10846
8502.598	-9.71826	5.19273	-8.73148	4.37699
8506.595	-9.71613	5.00355	-8.78959	4.55432
8510.595	-9.62647	5.00098	-8.72013	4.30796
8514.590	-9.48108	5.01700	-8.80910	4.20737
8518.597	-9.45380	5.04006	-8.71126	4.31617
8522.599	-9.36177	5.10297	-8.67995	4.43968
8526.599	-9.43815	5.00539	-8.77812	4.18954
8530.627	-9.53581	5.04100	-8.78122	4.13508
8534.603	-9.64424	5.10022	-8.76930	4.20740
8538.594	-9.55128	5.06419	-8.77497	4.22766
8542.593	-9.52594	5.12246	-8.80439	4.48905
8546.593	-9.60297	5.09867	-8.86158	4.37663
8550.619	-9.60217	5.17651	-8.83425	4.44215
8554.601	-9.56055	5.21624	-8.89102	4.61995
8558.593	-9.60297	5.20964	-8.85395	4.40991
8562.596	-9.57495	5.19792	-8.88973	4.48662
8566.599	-9.63867	5.15240	-8.90143	4.24394
8570.598	-9.63293	5.11050	-8.86393	4.43957
8574.590	-9.62191	5.18887	-8.83934	4.64199
8578.595	-9.58622	5.20521	-8.80730	4.58267
8582.593	-9.52823	5.21010	-8.82155	4.68861
8586.592	-9.53318	5.23600	-8.86607	4.63615
8590.590	-9.52541	5.27391	-8.86643	4.57733
8594.597	-9.46392	5.22573	-8.95939	4.58022
8598.597	-9.45805	5.22135	-9.08217	4.63559
8602.593	-9.39733	5.24813	-9.11508	4.56840
8606.599	-9.44448	5.22126	-9.10163	4.51025
8610.594	-9.43049	5.20953	-9.14314	4.58245
8614.594	-9.39682	5.26727	-9.18758	4.58863
8618.596	-9.49743	5.25747	-9.12604	4.50438
8622.592	-9.47978	5.24644	-9.16441	4.52252
8626.594	-9.45131	5.21763	-9.08280	4.42668
8630.592	-9.59177	5.21686	-9.01726	4.52162
8634.596	-9.59648	5.17258	-8.97765	4.54118
8638.593	-9.64540	5.15067	-8.92009	4.63893
8642.592	-9.70022	5.14391	-8.97273	4.59958
8646.589	-9.73752	5.07844	-8.99336	4.57464
8650.598	-9.77522	5.05926	-8.89199	4.53234
8654.591	-9.74897	5.00799	-8.90025	4.65479
8658.592	-9.66682	5.06327	-8.72699	4.64981
8662.593	-8.96358	4.96640	-6.86405	4.67000
8666.675	-6.82716	4.92262	-4.70626	4.34799
8670.600	-5.62775	4.67262	-2.82113	4.57808
8674.589	-3.58114	4.68358	-2.00301	4.06690
8678.643	-1.69964	4.07048	0.13652	2.99754
8682.598	-1.06736	3.82222	1.60980	3.21119
8686.590	1.93973	3.48861	3.05251	2.42235
8690.592	2.96077	3.56458	5.06264	2.24482
8694.596	4.41322	3.18070	6.13140	1.97328
8698.590	5.73443	2.93444	7.10660	1.84673
8702.586	6.09727	2.85484	7.34192	1.68051
8706.589	6.09655	2.81062	6.93824	1.47877
8710.593	6.17492	2.90329	7.07146	1.46183
8714.592	6.13095	2.99411	7.08991	1.63352
8718.589	6.07437	2.88215	7.27665	1.63273
8722.597	6.06745	2.88652	7.26798	1.37705
8726.592	6.14138	2.89110	7.29387	1.25333
8730.597	6.23528	2.97936	7.37035	1.31201
8734.625	6.34064	2.85613	7.40059	1.17369
8738.595	6.33231	2.76874	7.44174	1.12085
8742.592	6.45679	2.68174	7.49968	1.12540
8746.591	6.45064	2.73410	7.63518	1.11232
8750.589	6.54256	2.71833	7.59610	1.19850
8754.589	6.63619	2.69792	7.64752	1.27267
8758.589	6.74890	2.78295	7.68591	1.08632
8762.589	6.71941	2.64045	7.66989	0.99253
8766.593	6.72452	2.51504	7.72483	1.02583
8770.591	6.75304	2.48921	7.75875	0.98322
8774.593	6.73392	2.43898	7.71191	1.10355
8778.613	6.66793	2.41770	7.67691	1.36319
8782.595	6.66097	2.42897	7.69266	1.18528
8786.591	6.62941	2.43430	7.72098	1.26955
8790.590	6.58680	2.38459	7.69376	1.39769
8794.592	6.59713	2.39151	7.66175	1.38128
8798.590	6.63989	2.36309	7.58515	1.36259
8802.604	6.55782	2.33773	7.64978	1.46987
8806.592	6.59645	2.33708	7.63162	1.40471
8810.593	6.63656	2.41926	7.62782	1.57460
8814.594	6.67679	2.41840	7.59471	1.57679
8818.590	6.78091	2.39924	7.56413	1.62300
8822.587	6.75585	2.45141	7.65580	1.60986
8826.593	6.76234	2.41522	7.61368	1.53310
8830.591	6.70085	2.49125	7.63221	1.51662
8834.594	6.81272	2.52022	7.60595	1.56077
8838.587	6.87895	2.51446	7.54854	1.56492
8842.590	6.86723	2.48837	7.59588	1.67013
8846.586	6.90488	2.53207	7.56622	1.51754
8850.589	6.92936	2.47376	7.53696	1.59868
8854.589	6.80017	2.43697	7.58627	1.56417
8858.596	6.84781	2.48093	7.66858	1.67332
8862.586	6.87357	2.46967	7.56518	1.56877
8866.592	6.91657	2.45797	7.53415	1.50537
8870.612	7.07212	2.48534	7.48656	1.54653
8874.596	6.66398	2.38343	7.48249	1.58800
8878.587	6.96700	2.34912	7.57727	1.63882
8882.583	6.80122	2.38105	7.55447	1.53856
8886.581	6.88093	2.33911	7.52354	1.42473
8890.624	7.03360	2.33380	7.63450	1.39431
8894.587	6.99991	2.30023	7.62789	1.34503
8898.593	7.04391	2.39763	7.56786	1.30939
8902.586	7.12452	2.36772	7.61594	1.24640
8906.593	6.88976	2.27885	7.62874	1.33968
8910.591	6.87626	2.10430	7.66090	1.40820
8914.585	6.96925	2.07105	7.66183	1.38733
8918.590	7.01423	1.99183	7.60027	1.32490
8922.588	6.91946	2.04363	7.56647	1.21032
8926.587	6.96245	2.05138	7.62121	1.21603
8930.586	6.93376	2.11405	7.63818	1.22187
8934.590	6.96484	2.03974	7.73197	1.20159
8938.621	6.89253	2.17296	7.81736	1.14332
8942.592	6.90111	2.15667	7.78747	1.12863
8946.590	6.79369	1.99510	7.69963	1.40475
8950.587	5.61859	2.02739	7.13910	1.44851
8954.592	4.08587	2.12752	5.75541	1.14822
8958.587	1.62619	2.11967	3.88460	1.29702
8962.585	1.21325	2.21442	3.09510	1.21429
8966.585	-0.44812	2.22882	1.95078	1.19833
8970.597	-1.33026	2.26130	0.02854	1.18643
8974.588	-3.10431	2.18662	-0.67216	1.28688
8978.585	-4.25852	2.28148	-2.12726	1.30787
8982.594	-4.93373	2.27734	-3.03049	1.29336
8986.587	-5.73713	1.91671	-4.42844	1.39124
8990.588	-5.97614	2.09635	-4.40739	1.40133
8994.584	-5.95867	2.03548	-4.27094	1.50203
8998.589	-5.61126	1.72890	-4.15332	1.52811
9002.586	-5.37569	1.86189	-4.25183	1.67012
9006.607	-5.35733	1.87551	-4.43838	1.51152
9010.585	-5.53589	1.81931	-4.42849	1.52320
9014.588	-5.63446	1.86211	-4.47698	1.46284
9018.586	-5.54523	1.96109	-4.45599	1.47883
9022.592	-5.61873	1.95393	-4.47434	1.51291
9026.604	-5.68684	2.00339	-4.51383	1.55038
9030.600	-5.62362	2.09613	-4.54195	1.50658
9034.588	-5.60856	2.05217	-4.53877	1.40653
9038.584	-5.55772	2.17876	-4.52175	1.45466
9042.590	-5.55890	2.09263	-4.56898	1.42672
9046.586	-5.61876	2.20898	-4.55529	1.32457
9050.587	-5.63970	2.24658	-4.48604	1.32869
9054.589	-5.63078	2.27256	-4.48177	1.32429
9058.586	-5.55162	2.29384	-4.48135	1.41649
9062.585	-5.59838	2.27886	-4.50747	1.36836
9066.587	-5.50670	2.22019	-4.48984	1.38941
9070.587	-5.45169	2.21128	-4.46692	1.37173
9074.610	-5.39072	2.14928	-4.41016	1.41799
9078.591	-5.51732	2.13210	-4.44536	1.51500
9082.585	-5.50710	2.10838	-4.53453	1.64246
9086.586	-5.50346	2.08517	-4.53065	1.66363
9090.582	-5.48364	1.91216	-4.52991	1.73038
9094.593	-5.48701	1.99363	-4.52200	1.92912
9098.618	-5.58216	1.99010	-4.57221	1.88705
9102.581	-5.64810	1.99844	-4.56326	1.90043
9106.591	-5.61040	1.96893	-4.59914	1.84268
9110.584	-5.50717	2.05774	-4.69386	1.80928
9114.585	-5.54614	2.14474	-4.65350	1.93606
9118.584	-5.59415	2.24463	-4.65912	1.88751
9122.587	-5.52495	2.29989	-4.57255	1.79252
9126.585	-5.52217	2.29588	-4.57919	1.76739
9130.583	-5.53429	2.32292	-4.61319	1.81192
9134.581	-5.54248	2.33506	-4.64031	1.81029
9138.585	-5.47510	2.38382	-4.66667	1.72426
9142.606	-5.42557	2.35426	-4.70949	1.66495
9146.596	-5.43440	2.35205	-4.82084	1.65926
9150.590	-5.44790	2.38023	-4.89119	1.52475
9154.587	-5.53542	2.39474	-4.78213	1.45044
9158.586	-5.47186	2.31780	-4.73475	1.36975
9162.583	-5.02401	2.22038	-4.08071	1.41513
9166.586	-4.52481	1.98439	-2.63886	1.10259
9170.584	-3.02672	1.29904	-1.69907	0.88497
9174.587	-2.38779	0.70499	-0.77367	0.23393
9178.582	-1.15682	0.15388	0.78263	-1.78794
9182.587	-0.48329	-0.12138	1.79316	-1.75766
9186.584	0.24723	-0.28588	2.34181	-1.95703
9190.586	0.94688	-0.29921	2.52173	-2.18023
9194.582	2.11903	-0.80188	3.10307	-2.29155
9198.586	2.36435	-0.86469	3.46493	-2.66104
9202.585	2.11400	-0.75548	3.64150	-2.47145
9206.584	1.99129	-0.88234	3.55478	-2.51465
9210.604	2.06039	-0.86403	3.41241	-2.48032
9214.585	2.15569	-1.09764	3.20132	-2.29884
9218.589	2.24173	-1.07904	3.43009	-2.37166
9222.585	2.27070	-1.16969	3.71157	-2.47464
9226.582	2.24098	-1.35607	3.54091	-2.39069
9230.461	2.25902	-1.24160	3.62892	-2.48678
9234.460	2.29931	-1.29316	3.61658	-2.41913
9238.476	2.27892	-1.18852	3.68307	-2.39029
9242.578	2.35296	-1.07717	3.65154	-2.41758
9246.462	2.34716	-1.10425	3.59805	-2.35677
9250.458	2.37563	-1.25164	3.57409	-2.36322
9254.461	2.41685	-1.19550	3.51362	-2.38313
9258.463	2.51445	-1.10335	3.51426	-2.46119
9262.457	2.50843	-1.10077	3.55001	-2.48021
9266.465	2.55507	-1.09314	3.63391	-2.47347
9270.459	2.56062	-1.12800	3.66021	-2.46823
9274.460	2.54061	-1.12784	3.77271	-2.45383
9278.486	2.52208	-1.24838	3.75427	-2.41133
9282.491	2.53867	-1.21407	3.68495	-2.41444
9286.463	2.51901	-1.20091	3.68952	-2.36071
9290.461	2.52897	-1.21894	3.66911	-2.36921
9294.458	2.41806	-1.22939	3.73616	-2.41029
9298.457	2.46887	-1.29104	3.65754	-2.44828
9302.454	2.39644	-1.35237	3.70450	-2.43380
9306.457	2.35070	-1.46063	3.64820	-2.35602
9310.457	2.35613	-1.45385	3.70168	-2.40561
9314.454	2.38306	-1.42958	3.65838	-2.44276
9318.467	2.40094	-1.38725	3.59318	-2.43648
9322.497	2.45976	-1.33405	3.57792	-2.47741
9326.454	2.44063	-1.30493	3.57807	-2.49870
9330.458	2.47487	-1.37944	3.50820	-2.48686
9334.455	2.41224	-1.35906	3.53293	-2.52013
9338.455	2.45631	-1.40161	3.58136	-2.45567
9342.452	2.49899	-1.37931	3.60845	-2.37531
9346.478	2.55235	-1.37397	3.69298	-2.40353
9350.457	2.56015	-1.38379	3.62106	-2.32581
9354.459	2.66068	-1.35063	3.65245	-2.38839
9358.454	2.64673	-1.36308	3.63530	-2.43985
9362.459	2.72848	-1.35061	3.58017	-2.34642
9366.456	2.70847	-1.33815	3.62598	-2.39294
9370.457	2.70574	-1.35420	3.58737	-2.29428
9374.459	2.73373	-1.35388	3.65811	-2.28264
9378.457	2.74786	-1.38916	3.71028	-2.19248
9382.452	2.77547	-1.36038	3.75047	-2.19844
9386.457	2.78914	-1.32395	3.76057	-2.16999
9390.455	2.84316	-1.34626	3.74266	-2.23347
9394.457	2.74420	-1.36136	3.73262	-2.24211
9398.452	2.67417	-1.39443	3.71938	-2.23554
9402.463	2.60218	-1.44130	3.68495	-2.23741
9406.460	2.70740	-1.47987	3.72328	-2.31020
9410.455	2.76928	-1.62040	3.68804	-2.24213
9414.456	2.66533	-1.54263	3.66775	-2.23916
9418.461	2.70520	-1.58445	3.67425	-2.25487
9422.456	2.72377	-1.49729	3.60198	-2.28253
9426.455	2.78612	-1.42459	3.55211	-2.29754
9430.451	2.70968	-1.31347	3.58067	-2.32832
9434.456	2.71305	-1.52295	3.55777	-2.29326
9438.454	2.67214	-1.68913	3.51802	-2.31139
9442.454	2.63083	-1.71195	3.51357	-2.38454
9446.457	2.76230	-1.61706	3.47008	-2.29583
9450.456	2.66734	-1.17852	3.49023	-2.24702
9454.451	2.65647	-1.05449	3.44223	-2.21132
9458.452	2.63066	-1.25703	3.41891	-2.25465
9462.457	2.75232	-1.16757	3.48355	-2.27433
9466.455	2.73283	-1.34371	3.51757	-2.30988
9470.454	2.62635	-1.46652	3.52754	-2.36859
9474.456	2.58687	-1.49691	3.48326	-2.34087
9478.454	2.51296	-1.70740	3.49228	-2.33389
9482.476	2.49907	-1.80062	3.45846	-2.38510
9486.463	2.48807	-1.85674	3.43306	-2.31118
9490.458	2.52681	-1.34308	3.49129	-2.32958
9494.454	2.47073	-1.57631	3.49151	-2.31695
9498.454	2.55879	-1.57305	3.48476	-2.33861
9502.452	2.57622	-1.63358	3.57543	-2.11304
9506.457	2.55123	-1.63574	3.59399	-2.13751
9510.458	2.48195	-1.63942	3.58410	-2.06784
9514.454	2.54866	-1.64346	3.60052	-2.00526
9518.451	2.57905	-1.45777	3.62650	-2.01140
9522.456	2.61865	-1.53021	3.60509	-1.93250
9526.478	2.66503	-1.38789	3.61055	-1.88175
9530.469	2.68061	-1.35917	3.62405	-1.91287
9534.459	2.68279	-1.37894	3.59498	-1.90460
9538.452	2.68844	-1.29756	3.68260	-1.99022
9542.449	2.71456	-1.30520	3.69887	-2.00044
9546.450	2.70290	-1.27765	3.70668	-2.12598
9550.491	2.71087	-1.30307	3.61384	-2.24776
9554.458	2.73229	-1.33909	3.63826	-2.18121
9558.451	2.76227	-1.24067	3.65290	-2.20696
9562.454	2.73845	-1.24367	3.66372	-2.33934
9566.453	2.73365	-1.19076	3.69528	-2.35959
9570.456	2.73335	-1.19081	3.68824	-2.44043
9574.450	2.75591	-1.20369	3.73129	-2.51508
9578.454	2.73514	-1.23924	3.75702	-2.49956
9582.451	2.68918	-1.29277	3.75212	-2.55771
9586.450	2.68851	-1.46583	3.76181	-2.52870
9590.449	2.69468	-1.54698	3.76969	-2.45894
9594.454	2.66387	-1.27610	3.76712	-2.34684
9598.453	2.63646	-1.26824	3.70065	-2.38019
9602.452	2.61360	-1.30057	3.69004	-2.42376
9606.455	2.64577	-1.37791	3.75027	-2.39451
9610.464	3.08857	-1.45383	3.76376	-2.29660
9614.450	3.93643	-1.38664	5.50454	-2.31666
9618.640	5.16758	-1.49954	6.59765	-2.31231
9622.452	5.84954	-1.89692	7.09314	-2.40890
9626.449	6.66594	-2.07870	7.69356	-2.32993
9630.454	7.04416	-1.92266	9.01864	-2.70957
9634.452	8.13111	-2.41351	9.28944	-2.55645
9638.451	8.63219	-2.04819	9.57372	-2.75965
9642.454	8.83772	-2.08409	9.65773	-2.88991
9646.451	8.84913	-2.33297	9.58289	-2.74653
9650.448	8.72980	-2.16581	9.57891	-2.71470
9654.459	8.73080	-2.26609	9.50972	-2.77384
9658.450	8.85301	-2.32763	9.21667	-2.80109
9662.455	8.91926	-2.26241	9.40216	-2.75563
9666.450	9.00387	-2.12709	9.45063	-2.71293
9670.449	9.05454	-2.13231	9.37663	-2.76723
9674.449	9.15282	-2.15117	9.36249	-2.75230
9678.454	9.04449	-2.04162	9.28552	-2.83058
9682.451	9.02476	-2.06815	9.32151	-2.68446
9686.476	8.94605	-2.01395	9.30909	-2.68411
9690.456	8.84486	-2.06032	9.33521	-2.66008
9694.455	8.74629	-2.04497	9.27825	-2.74129
9698.449	9.19355	-1.87305	9.30776	-2.80114
9702.453	8.99896	-1.85809	9.36532	-2.85246
9706.450	9.01029	-1.86737	9.60051	-2.81610
9710.450	9.03568	-1.78386	9.43757	-2.83947
9714.449	8.99799	-1.79444	9.42264	-2.88852
9718.452	8.86284	-1.86675	9.47205	-2.93314
9722.454	8.85310	-1.93282	9.51558	-2.92301
9726.450	8.81688	-1.92323	9.46423	-2.98479
9730.453	8.81217	-2.04061	9.48813	-3.00523
9734.457	8.91653	-2.13609	9.48345	-2.98447
9738.456	9.08251	-1.76747	9.43252	-2.97738
9742.480	8.99661	-1.81664	9.48837	-2.89853
9746.452	9.03570	-1.89371	9.46672	-2.89999
9750.448	9.03650	-1.95381	9.39851	-2.94210
9754.469	9.01440	-1.93969	9.40023	-2.91507
9758.449	8.87888	-1.99831	9.38042	-2.95174
9762.451	8.87391	-2.01119	9.42962	-2.95291
9766.449	8.95445	-2.14501	9.40885	-3.00759
9770.449	8.94920	-2.13462	9.47041	-3.06503
9774.447	9.08399	-2.13292	9.33403	-2.97642
9778.457	9.11864	-1.90506	9.39525	-2.96651
9782.451	9.08237	-1.95893	9.51027	-2.90407
9786.447	9.13158	-2.11027	9.51355	-2.94462
9790.450	9.07104	-2.08788	9.59337	-2.97975
9794.448	9.09120	-2.07014	9.58736	-2.89581
9798.446	9.10325	-1.98487	9.59040	-2.99221
9802.445	9.19000	-2.03838	9.60550	-3.01974
9806.450	9.21628	-2.04524	9.60458	-3.06881
9810.448	9.25659	-2.04052	9.64316	-3.02976
9814.448	9.29473	-2.02284	9.55628	-2.97812
9818.459	9.32260	-2.03154	9.57843	-2.99119
9822.475	9.33372	-1.98659	9.55787	-3.05806
9826.453	9.34029	-2.03514	9.55550	-3.04564
9830.447	9.38117	-1.97184	9.49398	-3.08329
9834.449	9.32775	-1.98542	9.38431	-3.10742
9838.448	9.10598	-1.96640	9.29676	-3.16566
9842.445	6.65020	-1.89343	7.63835	-3.17726
9846.453	5.04639	-1.74614	6.80130	-3.11074
9850.448	4.69164	-1.23971	4.74314	-3.06393
9854.444	3.32444	-1.14939	4.51613	-2.51497
9858.450	1.99550	-1.28619	2.63180	-2.82413
9862.453	1.80057	-0.77593	2.37763	-1.66838
9866.447	1.36357	-0.87544	2.20974	-1.59831
9870.445	1.56536	-0.52557	2.01149	-1.74664
9874.449	1.70350	-0.51580	2.16701	-2.11775
9878.447	1.95433	-0.58864	2.40033	-2.30083
9882.446	1.87473	-0.60910	2.44004	-2.17798
9886.443	1.70978	-0.54438	2.39842	-1.99365
9890.477	1.75964	-0.46823	2.33950	-1.98796
9894.449	1.67291	-0.41942	2.39604	-1.98364
9898.446	1.60303	-0.46752	2.29681	-2.07280
9902.454	1.62723	-0.48974	2.19430	-2.02499
9906.451	1.51762	-0.52511	2.08084	-2.04032
9910.444	1.56987	-0.55625	2.06642	-2.06908
9914.450	1.54475	-0.66109	1.95262	-2.10784
9918.448	1.45844	-0.73166	2.02193	-2.07655
9922.444	1.42620	-0.79525	1.99915	-2.04672
9926.443	1.42365	-0.85106	1.89793	-2.05009
9930.450	1.36452	-0.77421	1.95130	-2.08547
9934.446	1.33450	-0.84567	1.79767	-2.12246
9938.447	1.32180	-0.86125	1.73720	-2.14342
9942.450	1.34552	-0.87659	1.78081	-2.14389
9946.448	1.34584	-0.89266	1.73775	-2.14974
9950.447	1.34748	-0.83715	1.79824	-2.16286
9954.450	1.29735	-0.81916	1.80685	-2.15834
9958.467	1.24389	-0.80191	1.86662	-2.17816
9962.456	1.26726	-0.78032	1.82886	-2.24181
9966.468	1.24136	-0.68768	1.79953	-2.23327
9970.445	1.20631	-0.65100	1.84069	-2.21479
9974.450	1.21581	-0.69032	1.77020	-2.18802
9978.445	1.23670	-0.67583	1.78431	-2.13101
9982.446	1.20378	-0.61381	1.83057	-2.09556
9986.447	1.17049	-0.52521	1.82747	-2.12511
9990.450	1.15627	-0.46274	1.84679	-2.12925
9994.444	1.13543	-0.41651	1.84247	-2.11008
9998.442	1.15620	-0.42500	1.84944	-2.11918
10002.442	1.20043	-0.37148	1.78500	-2.13513
10006.446	1.24091	-0.32373	1.79242	-2.12678
10010.445	1.26163	-0.30671	1.75600	-2.12588
10014.445	1.28718	-0.30089	1.71288	-1.98719
10018.442	1.30570	-0.26890	1.59765	-1.82015
10022.447	1.30962	-0.23424	1.58252	-1.86698
10026.457	1.34309	-0.26825	1.49098	-1.82840
10030.446	1.36283	-0.31976	1.43396	-1.79587
10034.447	1.40924	-0.38330	1.35050	-1.69352
10038.442	1.47233	-0.42601	1.39014	-1.57458
10042.442	1.46033	-0.46882	1.37491	-1.59003
10046.447	1.44026	-0.59093	1.43310	-1.50633
10050.444	1.38421	-0.67266	1.45311	-1.49460
10054.442	1.37387	-0.76027	1.55271	-1.46415
10058.447	1.45162	-0.78098	1.57706	-1.52969
10062.444	1.40837	-0.77290	1.66946	-1.58601
10066.443	1.33659	-0.81649	1.79200	-1.67972
10070.447	1.33701	-0.86604	1.77531	-1.71527
10074.446	1.28169	-0.79147	1.85182	-1.61186
10078.445	2.03186	-0.72873	3.23064	-1.70779
10082.319	3.72351	-0.41511	4.59556	-1.66913
10086.316	5.14072	-0.70693	6.15556	-1.74283
10090.321	6.69434	-0.52176	7.98011	-1.75906
10094.472	6.77771	-0.68158	8.26126	-1.77674
10098.454	7.32956	-0.51580	8.73642	-1.84788
10102.315	9.24808	-0.57257	9.46788	-1.83385
10106.315	9.03309	-0.37898	9.69226	-1.81128
10110.321	8.79562	-0.33832	9.27605	-1.68749
10114.325	8.66440	-0.16641	8.63976	-1.70247
10118.333	8.16960	-0.15100	8.67405	-1.68840
10122.322	8.25173	-0.10656	8.99072	-1.64872
10126.321	8.19083	-0.16993	8.89688	-1.70730
10130.318	8.30366	-0.16450	9.02389	-1.62368
10134.318	8.29086	-0.27257	9.10368	-1.63663
10138.316	8.28806	-0.21309	9.06845	-1.56539
10142.322	8.52108	-0.30330	9.16760	-1.54616
10146.316	8.42615	-0.24866	9.12132	-1.53699
10150.318	8.38984	-0.26412	9.07743	-1.55768
10154.320	8.38517	-0.31454	9.16404	-1.56098
10158.325	8.49454	-0.34208	9.19488	-1.53327
10162.345	8.52901	-0.32534	9.32195	-1.49527
10166.326	8.56379	-0.38624	9.46421	-1.47697
10170.318	8.58917	-0.36455	9.43643	-1.39662
10174.317	8.53139	-0.47233	9.33111	-1.39376
10178.351	8.57076	-0.39656	9.26783	-1.30871
10182.320	8.52710	-0.37768	9.32424	-1.30862
10186.316	8.51656	-0.28475	9.34041	-1.29077
10190.314	8.46422	-0.29789	9.50093	-1.19000
10194.313	8.52790	-0.11135	9.43192	-1.16463
10198.324	8.47386	-0.14528	9.55579	-1.18271
10202.318	8.48131	-0.06771	9.45665	-1.03238
10206.315	8.38170	-0.13425	9.42361	-0.87079
10210.313	8.37023	-0.07626	9.28185	-0.96558
10214.319	8.35855	-0.03039	9.20240	-0.98937
10218.324	8.41891	-0.00929	9.22999	-0.99785
10222.313	8.49243	-0.00558	9.14324	-0.91056
10226.317	8.51151	-0.00816	9.12534	-0.85747
10230.335	8.45708	-0.06051	9.10746	-0.90204
10234.339	8.33812	-0.07895	9.09967	-1.03547
10238.326	8.35644	-0.22117	9.18361	-1.02073
10242.318	8.30830	-0.26100	9.17778	-0.89274
10246.318	8.39234	-0.25947	9.05955	-0.91371
10250.316	8.49777	-0.31639	9.08343	-0.98405
10254.312	8.62292	-0.40048	9.15006	-1.10686
10258.318	8.66001	-0.42287	9.08133	-1.05677
10262.315	8.38743	-0.38465	9.05204	-1.12392
10266.316	8.39125	-0.33588	9.07603	-1.12453
10270.314	8.34672	-0.30850	9.18876	-1.14835
10274.313	8.42282	-0.33678	9.28347	-1.19004
10278.317	8.42959	-0.37340	9.25151	-1.15678
10282.318	8.51610	-0.36540	9.15379	-1.14403
10286.313	8.61232	-0.34462	9.16313	-1.17396
10290.319	8.64832	-0.34206	9.22042	-1.20947
10294.316	8.63646	-0.32989	9.21795	-1.27621
10298.328	8.67141	-0.27530	9.26771	-1.32192
10302.315	8.54071	-0.35467	9.25171	-1.32014
10306.316	8.53416	-0.36701	9.29365	-1.28454
10310.312	8.64592	-0.35739	9.50107	-1.07954
10314.313	8.79664	-0.33169	9.75700	-0.96921
10318.317	9.29768	-0.29589	11.58467	-0.96732
10322.322	10.81683	-0.20195	12.85706	-1.01696
10326.319	11.46828	-0.17899	12.97681	-1.06912
10330.317	11.71054	0.01421	13.17885	-1.17328
10334.314	11.61994	-0.09359	13.36702	-1.12600
10338.315	11.60451	-0.02714	13.20804	-1.30623
10342.349	11.64989	-0.09572	12.95440	-1.26848
10346.320	11.64266	-0.01952	12.82927	-1.05902
10350.312	11.58749	-0.09508	12.85895	-0.95194
10354.318	11.48752	-0.13060	12.80966	-0.96342
10358.314	11.52674	-0.17002	12.64293	-0.97700
10362.311	11.66318	-0.18454	12.76395	-0.92992
10366.370	11.76345	-0.21812	12.70083	-0.71622
10370.323	11.81593	-0.29564	12.77610	-0.59388
10374.315	11.81192	-0.26227	12.72102	-0.76928
10378.338	11.84380	-0.28272	12.63903	-0.66444
10382.351	11.81417	-0.29732	12.40915	-0.62380
10386.315	11.82407	-0.29811	12.48554	-0.58458
10390.311	11.85188	-0.29042	12.50271	-0.52793
10394.310	11.75284	-0.22146	12.46088	-0.59359
10398.315	11.77506	-0.13793	12.52958	-0.55897
10402.312	11.74527	-0.11629	12.59682	-0.60201
10406.316	11.78963	-0.08392	12.57358	-0.70042
10410.319	11.77915	-0.10917	12.52882	-0.64493
10414.313	11.79513	0.05872	12.49930	-0.74741
10418.311	11.70583	0.17215	12.46942	-0.70776
10422.310	11.77287	0.14939	12.40815	-0.75712
10426.314	11.64497	0.13398	12.50922	-0.71229
10430.312	11.51733	0.21115	12.54684	-0.77999
10434.349	11.51649	0.25050	12.56072	-0.84950
10438.314	11.47853	0.21715	12.65389	-0.76592
10442.309	11.49931	0.19870	12.70874	-0.82310
10446.321	11.44585	0.12007	12.76576	-0.80869
10450.316	11.45169	0.05679	12.73750	-0.77425
10454.310	11.37961	0.00935	12.70808	-0.76692
10458.315	11.36308	-0.01890	12.73304	-0.79290
10462.311	11.37879	-0.05642	12.70848	-0.79213
10466.310	11.35151	-0.02390	12.79572	-0.80685
10470.317	11.29424	-0.08855	12.65446	-0.87883
10474.312	10.86981	-0.08856	11.76492	-0.75638
10478.309	8.76341	0.03424	10.18053	-0.55687
10482.310	6.64011	-0.02641	8.68422	-0.61308
10486.314	5.89380	0.10708	7.78457	-0.33254
10490.318	4.50032	0.27423	6.53397	-0.55094
10494.316	3.66501	0.64756	5.50591	-0.22278
10498.309	3.35177	0.58963	4.61435	-0.19235
10502.354	1.66507	0.69739	3.56220	0.15518
10506.313	1.24570	0.82814	2.23018	0.18638
10510.314	1.47806	0.95375	2.07296	0.00472
10514.310	2.05680	0.88707	2.63106	0.17828
10518.310	2.25954	1.04261	2.70755	0.30418
10522.308	2.46573	1.13592	3.02195	0.55285
10526.314	2.33301	1.18008	2.94416	0.66202
10530.316	2.04810	1.21062	2.92299	0.61973
10534.312	2.18880	1.31236	2.92020	0.65859
10538.314	2.09182	1.26561	2.96074	0.69002
10542.310	2.12501	1.26417	2.95005	0.71053
10546.310	2.11190	1.29250	2.87747	0.66256
10550.309	2.07626	1.31087	2.93304	0.69359
10554.310	2.12865	1.26489	2.93579	0.72783
10558.309	2.11653	1.26763	2.93210	0.73734
10562.308	2.06793	1.13621	2.92205	0.65821
10566.314	1.99131	1.04001	2.84930	0.55964
10570.335	1.90130	0.96660	2.77369	0.45827
10574.321	1.78798	0.94487	2.80607	0.37209
10578.316	1.74157	0.66311	2.74559	0.27650
10582.310	1.53473	0.69274	2.69465	0.29808
10586.310	1.55459	0.66032	2.59133	0.21425
10590.309	1.68654	0.69308	2.59477	0.27430
10594.314	1.77593	0.58616	2.61508	0.31600
10598.313	1.80385	0.52340	2.59512	0.38915
10602.308	1.69877	0.45160	2.58407	0.42076
10606.312	1.77511	0.45148	2.60277	0.21827
10610.310	1.83114	0.39306	2.61644	0.26496
10614.314	1.86124	0.43331	2.58871	0.27596
10618.308	1.90825	0.40824	2.63940	0.17877
10622.311	1.88740	0.44790	2.63930	0.28218
10626.311	1.96365	0.48409	2.65770	0.27451
10630.308	2.12258	0.50808	2.66290	0.32892
10634.305	2.16349	0.51663	2.64166	0.28057
10638.320	2.29731	0.56495	2.60166	0.24377
10642.308	2.36361	0.66817	2.59212	0.23198
10646.311	2.35769	0.71988	2.58338	0.19750
10650.311	2.33598	0.78567	2.56624	0.25301
10654.307	2.37605	0.84863	2.55453	0.17816
10658.316	2.28502	0.89138	2.52609	0.17405
10662.309	2.40466	0.89249	2.48629	0.22499
10666.311	2.35355	0.91442	2.41254	0.22478
10670.307	2.38779	0.91417	2.44328	0.19191
10674.305	2.42309	0.93547	2.43043	0.19290
10678.312	2.42175	0.93249	2.40595	0.15877
10682.308	2.36544	0.92690	2.39153	0.17546
10686.305	2.30078	0.91358	2.36946	0.16091
10690.310	2.26956	0.89690	2.37733	0.15051
10694.307	2.25216	0.88028	2.34396	0.10063
10698.314	2.26737	0.90941	2.30719	0.12794
10702.309	2.26348	0.90879	2.37005	0.13782
10706.340	2.27800	0.91675	2.35595	0.12404
10710.319	2.29904	0.98066	2.34641	0.12091
10714.307	2.29352	0.94874	2.29282	0.12867
10718.308	2.27325	0.91810	2.28799	0.12074
10722.312	2.15100	0.93659	2.30395	0.15747
10726.307	2.05725	0.96224	2.35965	0.14368
10730.307	2.03154	0.95454	2.42069	0.14784
10734.312	2.02458	0.70782	2.39445	0.17613
10738.313	2.01243	0.23599	2.48148	0.21822
10742.307	1.93537	0.41620	2.59368	0.27001
10746.310	1.93938	0.20211	2.51782	0.19838
10750.308	1.83799	0.13059	2.49733	0.17360
10754.304	1.79239	0.20885	2.37394	0.24579
10758.310	1.81639	0.38106	2.31676	0.26683
10762.307	1.82160	0.32426	2.19422	0.27113
