time (ms)	lx (deg)	ly (deg)	rx (deg)	ry (deg)
0.000	-1.42394	1.13866	-1.11968	0.14636
4.010	-1.40770	1.07783	-1.13146	0.21689
8.002	-1.40246	1.04048	-1.09723	0.23841
12.007	-1.41735	1.09893	-1.13514	0.29075
16.011	-1.45428	1.09397	-1.12633	0.29726
20.029	-1.44051	1.03969	-1.14640	0.30332
24.006	-1.40678	0.92413	-1.17622	0.31860
27.997	-1.47900	0.89775	-1.18252	0.32575
32.013	-1.51452	0.86192	-1.20626	0.25253
36.005	-1.58812	0.75597	-1.18956	0.20153
40.006	-1.62604	0.72323	-1.18785	0.21597
44.000	-1.68116	0.67068	-1.26750	0.20545
48.006	-1.63536	0.66029	-1.30620	0.15735
52.003	-1.66383	0.62991	-1.40385	0.17089
56.000	-1.64717	0.55349	-1.39311	0.16333
60.002	-1.69262	0.52211	-1.40780	0.18214
64.001	-1.70457	0.58169	-1.37749	0.19705
68.001	-1.72647	0.66061	-1.35462	0.17675
71.997	-1.69988	0.68304	-1.31339	0.15909
76.010	-1.67992	0.66271	-1.27120	0.19733
80.006	-1.62738	0.72236	-1.18641	0.23738
84.006	-1.55765	0.77034	-1.22486	0.28607
88.033	-1.52466	0.85134	-1.15900	0.25438
92.005	-1.49887	0.81591	-1.12216	0.24780
96.002	-1.30377	0.86950	-0.94887	0.24192
99.998	-0.86481	0.89611	-0.44740	0.21953
104.005	-0.52495	0.85364	0.20311	0.21030
108.004	-0.39311	0.63654	-0.17246	0.14099
112.000	-0.60372	0.69347	-0.38405	0.11875
116.012	-0.44276	0.70698	-0.15218	0.08101
120.002	-0.44912	0.61323	-0.11630	0.03474
124.006	-0.44100	0.61321	-0.00367	0.01205
127.996	-0.52930	0.53519	-0.14503	-0.02363
132.006	-0.49083	0.70198	-0.09853	-0.03745
136.001	-0.45222	0.70126	-0.01611	0.07800
140.005	-0.42723	0.73048	-0.04261	0.22635
144.004	-0.52307	0.61713	-0.07172	-0.00231
148.008	-0.67022	0.73562	-0.11471	-0.01816
152.002	-0.63178	0.80665	-0.16119	0.09423
156.010	-0.62295	0.69612	-0.20010	0.09763
160.005	-0.57257	0.72907	-0.21956	0.11855
164.007	-0.67603	0.79825	-0.21772	0.17573
168.005	-0.68010	0.80769	-0.23140	0.24138
172.005	-0.65965	0.76598	-0.23229	0.22274
176.003	-0.63047	0.71185	-0.21554	0.28830
180.000	-0.57220	0.76306	-0.24721	0.23581
184.006	-0.53262	0.70359	-0.25259	0.20090
188.034	-0.49170	0.72630	-0.24535	0.21527
192.003	-0.40343	0.67657	-0.31114	0.26640
195.999	-0.41720	0.73289	-0.27875	0.20890
200.003	-0.38804	0.77419	-0.25167	0.17658
204.001	-0.36913	0.80370	-0.20194	0.11759
208.003	-0.30595	0.77650	-0.19025	0.11157
211.994	-0.30401	0.78209	-0.21115	0.13289
216.002	-0.32449	0.82234	-0.17968	0.15603
220.001	-0.45234	0.90105	-0.16474	0.11319
224.026	-0.43403	0.91328	-0.07527	0.10437
228.007	-0.48540	0.94954	-0.03331	0.15643
231.999	-0.57930	0.93338	-0.02397	0.21343
235.999	-0.69843	0.95718	-0.04254	0.13505
240.007	-0.65675	0.99758	-0.02167	0.18160
244.001	-0.73779	1.02754	-0.04964	0.24710
248.007	-0.77012	1.10014	-0.04274	0.26583
252.000	-0.71402	1.07983	-0.02750	0.36324
255.999	-0.81342	1.05790	0.02437	0.34557
259.999	-0.84610	1.09761	0.01779	0.32525
263.998	-0.80727	1.09955	-0.05512	0.30010
267.997	-0.78364	1.18366	-0.05976	0.33794
272.003	-0.73474	1.23446	-0.09825	0.35529
275.999	-0.69431	1.34486	-0.11510	0.33971
279.997	-0.72263	1.29335	-0.14178	0.33916
284.010	-0.81421	1.23970	-0.11572	0.33270
287.997	-0.76461	1.19164	-0.05827	0.29637
292.029	-0.70265	1.09307	0.04120	0.29650
296.003	-0.52337	1.08553	0.20117	0.25241
300.004	-0.47639	0.96604	0.20929	0.19854
303.998	-0.45780	1.03624	0.18449	0.16949
308.001	-0.43678	1.06297	0.23311	0.15071
311.997	-0.37988	0.98329	0.26525	0.13597
316.002	-0.26674	0.98089	0.28791	0.10983
319.994	-0.30347	0.90996	0.37365	0.04734
324.007	-0.31349	0.84368	0.44755	0.08737
327.999	-0.28203	0.83720	0.50590	0.09569
332.001	-0.26475	0.86078	0.42204	0.09579
335.992	-0.24393	0.80421	0.41306	0.03765
340.003	-0.28443	0.81625	0.29823	0.06987
343.999	-0.29577	0.86788	0.23187	0.09443
348.001	-0.29508	0.89071	0.21286	0.10270
351.996	-0.29858	0.87473	0.21405	0.07432
356.002	-0.29662	0.87501	0.19986	0.00686
360.017	-0.33680	0.85098	0.20072	-0.00492
364.006	-0.31888	0.85672	0.20288	0.01841
368.007	-0.32804	0.87863	0.12789	0.00954
371.996	-0.29818	0.87431	0.13469	0.00432
375.997	-0.26441	0.85049	0.14491	0.00487
379.998	-0.24190	0.85678	0.16198	0.04088
383.997	-0.24078	0.88666	0.19658	0.03447
387.997	-0.26895	0.86177	0.22696	0.04602
391.999	-0.29384	0.83705	0.25934	0.01411
395.997	-0.28555	0.79894	0.30391	0.01889
399.995	-0.31640	0.79094	0.32598	0.04023
404.002	-0.32531	0.80905	0.35241	0.07706
408.005	-0.35933	0.79394	0.37288	0.03643
412.043	-0.34030	0.76139	0.38717	-0.00211
415.994	-0.37613	0.76465	0.40514	0.02351
419.995	-0.38301	0.76633	0.43567	0.01322
424.009	-0.39616	0.74862	0.45264	-0.00939
428.029	-0.34062	0.73715	0.49391	-0.06634
432.006	-0.34464	0.71484	0.51319	-0.09840
436.000	-0.30012	0.69660	0.50627	-0.15967
439.994	-0.28103	0.71526	0.47775	-0.24724
444.000	-0.24882	0.71278	0.48565	-0.27981
447.999	-0.19509	0.69335	0.44135	-0.31060
452.001	-0.14446	0.69572	0.37737	-0.27895
455.990	-0.14352	0.74759	0.41462	-0.25151
459.993	-0.16975	0.73942	0.36854	-0.28128
463.993	-0.20554	0.73308	0.37236	-0.30621
467.993	-0.19047	0.74841	0.37841	-0.31808
471.996	-0.23482	0.69502	0.42001	-0.30268
475.997	-0.24108	0.66523	0.42862	-0.31751
480.000	-0.22058	0.64803	0.42318	-0.29751
483.996	-0.21604	0.61235	0.40271	-0.28655
487.993	-0.17484	0.54361	0.43224	-0.25676
491.999	-0.18720	0.52895	0.41383	-0.20068
495.996	-0.17089	0.51314	0.46773	0.03817
499.998	-0.16774	0.46315	0.47870	-0.02487
503.997	-0.18209	0.40245	0.53267	-0.17853
507.991	-0.13794	0.39678	0.54411	-0.15023
511.997	-0.18832	0.36306	0.53694	-0.11472
515.995	-0.24115	0.39161	0.47547	0.09333
519.994	-0.27202	0.40630	0.45678	0.15078
523.992	-0.34983	0.41589	0.48892	0.11303
527.993	-0.35124	0.44642	0.52453	0.09137
532.002	-0.15171	0.50052	0.52138	0.00552
535.995	-0.08217	0.56617	0.52399	-0.10444
539.989	-0.13784	0.63544	0.44060	-0.15987
543.995	-0.07500	0.69619	0.43718	-0.15018
547.998	-0.02822	0.67129	0.56632	-0.13077
551.993	-0.00045	0.73010	0.60151	-0.14859
555.993	0.00620	0.71331	0.48048	-0.15664
559.995	0.04452	0.74772	0.57275	-0.22057
564.012	0.04380	0.71403	0.60620	-0.26515
568.001	0.10232	0.69375	0.61017	-0.16996
571.998	0.13471	0.75522	0.55354	-0.16705
575.995	0.09135	0.71890	0.39787	-0.17988
579.999	-0.17405	0.67720	0.54299	-0.15701
583.992	-0.15196	0.65790	0.53289	-0.12041
587.992	-0.16186	0.73097	0.64573	-0.05044
591.992	-0.05380	0.71455	0.51796	-0.04279
595.993	0.04217	0.67674	0.40725	-0.03484
599.992	-0.17908	0.68903	0.42805	0.02343
603.998	-0.07607	0.72836	0.31751	0.00644
607.993	-0.10466	0.74143	0.35615	0.04103
611.998	-0.08865	0.71823	0.37787	-0.01946
616.031	-0.04167	0.65703	0.41087	-0.04614
619.991	-0.15576	0.61062	0.48058	-0.06582
623.996	-0.04780	0.65544	0.41502	-0.01178
627.994	-0.00782	0.74769	0.38189	0.00994
631.996	0.03661	0.67418	0.39129	-0.02820
635.993	-0.04725	0.69167	0.28577	0.00244
639.988	-0.02745	0.71351	0.24602	0.03442
643.991	-0.04202	0.79095	0.30324	0.02373
647.990	-0.08284	0.78374	0.40494	0.03474
651.991	-0.09416	0.70697	0.36057	0.04428
655.995	-0.08582	0.73448	0.35402	0.07728
659.992	-0.07341	0.74377	0.39459	0.12452
663.986	-0.06884	0.79050	0.43882	0.21849
667.990	-0.07785	0.80784	0.46415	0.17970
671.991	-0.10773	0.80523	0.50262	0.13845
675.990	-0.11009	0.75626	0.41219	0.11900
679.992	-0.11870	0.78205	0.37603	0.04890
683.994	-0.11749	0.79129	0.44105	-0.04083
687.989	-0.02641	0.78479	0.38472	-0.08545
691.992	0.01742	0.74610	0.34613	-0.03183
695.993	-0.01658	0.79624	0.37492	-0.13391
700.011	0.01412	0.81187	0.39464	-0.08324
703.874	-0.02253	0.77743	0.40375	-0.13381
707.877	0.02010	0.76655	0.42959	-0.08401
711.869	0.00544	0.68804	0.44055	-0.13967
715.871	0.01258	0.63447	0.34449	-0.00748
719.865	0.04628	0.57541	0.34305	0.04555
723.866	0.04614	0.61383	0.33384	-0.04527
727.864	0.02452	0.57171	0.37769	-0.02947
731.868	-0.00985	0.55484	0.42152	0.02828
735.871	-0.03576	0.56614	0.43658	0.07072
739.865	-0.03152	0.60235	0.39760	0.08078
743.866	-0.01231	0.61124	0.44021	0.11843
747.869	-0.01727	0.60195	0.57982	0.08066
751.864	-0.04708	0.66031	0.44726	0.08858
755.869	-0.08210	0.67134	0.45448	0.12168
759.864	-0.10495	0.77619	0.43755	0.08737
763.866	-0.11059	0.78615	0.47185	0.03596
767.867	-0.14307	0.80136	0.47962	0.06453
771.867	-0.15799	0.81609	0.53344	0.10357
775.865	-0.15489	0.87636	0.56151	0.19955
779.866	-0.16998	0.89193	0.42847	0.19953
783.864	-0.18216	0.82359	0.35702	0.26421
787.869	-0.21772	0.82749	0.37194	0.25239
791.863	-0.21901	0.87464	0.23770	0.26469
795.891	-0.17070	0.89183	0.24123	0.25368
799.872	-0.21529	0.88078	0.28902	0.23706
803.862	-0.19584	0.77949	0.23279	0.24195
807.869	-0.19132	0.66794	0.17094	0.28020
811.865	-0.18454	0.66011	0.23415	0.26799
815.862	-0.13650	0.61293	0.22733	0.31774
819.869	-0.07512	0.62697	0.21440	0.34741
823.864	-0.00993	0.54778	0.27277	0.30656
827.874	0.10915	0.50410	0.36067	0.28278
831.860	0.10034	0.55027	0.40368	0.27380
835.896	0.18231	0.52828	0.43219	0.33634
839.859	-0.00531	0.58282	0.47237	0.36544
843.868	0.05199	0.52825	0.47959	0.34549
847.866	0.03405	0.60615	0.53128	0.37289
851.868	0.01705	0.59763	0.55233	0.39408
855.862	0.00171	0.60814	0.58004	0.40226
859.867	0.00581	0.66352	0.58605	0.27012
863.864	-0.09354	0.63964	0.59888	0.15758
867.859	-0.15283	0.64684	0.60039	0.11457
871.872	-0.23055	0.66478	0.58230	0.06893
875.862	-0.21755	0.67509	0.58774	0.01317
879.858	-0.23770	0.67280	0.63521	-0.01292
883.862	-0.25686	0.64386	0.60481	-0.03918
887.867	-0.26262	0.65332	0.60141	-0.02845
891.869	-0.28485	0.60964	0.58166	-0.08001
895.858	-0.29379	0.62495	0.57627	-0.13400
899.862	-0.26510	0.59633	0.57213	-0.15932
903.860	-0.27361	0.52005	0.53153	-0.13010
907.868	-0.31488	0.50683	0.54927	-0.12108
911.866	-0.26820	0.38550	0.52503	-0.12476
915.867	-0.26845	0.39780	0.52547	-0.10779
919.859	-0.25483	0.33556	0.46952	-0.08555
923.864	-0.28840	0.27450	0.45363	-0.07805
927.864	-0.26418	0.21119	0.43524	-0.05166
931.858	-0.18685	0.17747	0.42050	-0.06302
935.861	-0.16452	0.15705	0.48033	-0.07671
939.865	-0.10736	0.15319	0.52999	0.01493
943.865	-0.06058	0.10340	0.56915	0.06177
947.857	-0.03643	0.13332	0.58466	0.07946
951.872	0.02271	0.11995	0.59771	0.09825
955.864	0.02375	0.10919	0.62689	0.09494
959.861	0.11203	0.14614	0.64677	0.10543
963.856	0.14752	0.21532	0.69451	0.12963
967.866	0.17556	0.22762	0.67394	0.15331
971.861	0.20760	0.25900	0.69893	0.16832
975.868	0.21507	0.25719	0.71533	0.17997
979.865	0.20693	0.29404	0.69231	0.23212
983.881	0.22850	0.27321	0.70342	0.24919
987.869	0.25584	0.27801	0.66836	0.24753
991.861	0.22140	0.27122	0.66585	0.24345
995.865	0.20827	0.29269	0.66427	0.25006
999.871	0.17697	0.32776	0.66198	0.27330
1003.864	0.10788	0.29088	0.63372	0.29350
1007.863	0.11012	0.29260	0.58791	0.23275
1011.860	0.08870	0.27500	0.59210	0.26289
1015.866	0.00606	0.26444	0.59387	0.23143
1019.862	0.03281	0.30902	0.56334	0.25014
1023.860	-0.03445	0.29091	0.54138	0.20706
1027.866	-0.05308	0.26385	0.50138	0.20067
1031.862	-0.07567	0.29334	0.45696	0.13995
1035.898	-0.07247	0.33138	0.44768	0.12782
1039.864	-0.03040	0.37020	0.39226	0.18279
1043.868	-0.02529	0.43209	0.38231	0.14489
1047.860	-0.02628	0.49926	0.37923	0.17309
1051.865	-0.01588	0.50316	0.34707	0.27465
1055.858	-0.02340	0.51046	0.34955	0.27296
1059.864	0.03854	0.54199	0.27274	0.32080
1063.860	0.00345	0.57395	0.24192	0.42257
1067.859	0.03579	0.54664	0.19258	0.47679
1071.858	0.00496	0.56985	0.17692	0.44424
1075.868	0.01772	0.59579	0.13146	0.47811
1079.865	0.00293	0.61437	0.11404	0.49921
1083.861	-0.07468	0.60473	0.05658	0.55926
1087.863	-0.09068	0.58870	0.02762	0.60366
1091.856	-0.10773	0.60041	0.05343	0.52115
1095.858	-0.13255	0.68849	0.07071	0.44501
1099.861	-0.09666	0.62868	0.02703	0.41684
1103.863	-0.12287	0.60048	0.19859	0.38881
1107.864	-0.08562	0.54890	0.19876	0.44126
1111.881	-0.05147	0.53002	0.37519	0.40339
1115.864	-0.05286	0.57022	0.38767	0.38741
1119.863	0.01494	0.60776	0.36839	0.45388
1123.858	-0.00787	0.54411	0.39092	0.49736
1127.866	-0.00005	0.53278	0.37613	0.48670
1131.864	-0.02581	0.58075	0.48783	0.35818
1135.860	-0.07820	0.57931	0.46061	0.41926
1139.858	-0.06974	0.56368	0.45460	0.38417
1143.862	-0.21331	0.65266	0.43852	0.33888
1147.858	-0.36486	0.73230	0.49225	0.33828
1151.863	-0.33357	0.88825	0.43683	0.32295
1155.854	-0.11327	0.81373	0.36149	0.31068
1159.862	-0.17727	0.71584	0.28495	0.26310
1163.866	-0.23299	0.74076	0.30146	0.21457
1167.861	-0.19566	0.62699	0.26823	0.20284
1171.863	-0.11771	0.62220	0.25086	0.17136
1175.859	-0.12315	0.63735	0.28356	0.21979
1179.872	-0.13863	0.70250	0.31506	0.22163
1183.864	-0.01524	0.64759	0.33841	0.24774
1187.855	0.07321	0.72876	0.33010	0.22230
1191.856	0.04800	0.73502	0.32774	0.25741
1195.861	0.07862	0.65663	0.40611	0.26379
1199.862	0.04140	0.61735	0.39857	0.27182
1203.862	0.06525	0.71644	0.41380	0.26379
1207.868	0.06961	0.77862	0.35722	0.25964
1211.858	0.04070	0.72817	0.36283	0.21993
1215.862	0.01837	0.77927	0.39363	0.17379
1219.854	0.00117	0.73569	0.37990	0.15404
1223.857	0.00030	0.70670	0.38963	0.18117
1227.857	0.00072	0.72359	0.38176	0.18072
1231.857	-0.03244	0.67549	0.37626	0.25502
1235.857	-0.04589	0.68946	0.37978	0.22128
1239.856	-0.06048	0.65157	0.40033	0.21171
1243.866	-0.11007	0.71241	0.44899	0.17309
1247.860	-0.13007	0.67912	0.42916	0.16159
1251.859	-0.17268	0.67057	0.45532	0.17483
1255.892	-0.19484	0.65355	0.44103	0.19074
1259.856	-0.23676	0.68801	0.43840	0.23748
1263.856	-0.20497	0.72120	0.43775	0.19474
1267.869	-0.20810	0.72714	0.43013	0.13023
1271.865	-0.23425	0.72346	0.39660	0.11766
1275.852	-0.24738	0.75874	0.39663	0.07668
1279.857	-0.25679	0.80488	0.37931	0.02356
1283.864	-0.27116	0.87469	0.29940	-0.01257
1287.867	-0.19866	0.85723	0.21633	-0.00733
1291.852	-0.18971	0.87929	0.16836	0.01113
1295.874	-0.11664	0.88704	0.18779	0.05842
1299.863	-0.04217	0.96090	0.27369	-0.03628
1303.853	-0.07664	0.98140	0.30746	-0.02060
1307.854	-0.06063	0.97638	0.36052	-0.00134
1311.872	-0.05862	0.99747	0.41517	0.06652
1315.860	-0.07249	0.97302	0.51031	0.08369
1319.854	-0.07329	0.97474	0.45271	0.10064
1323.855	-0.03058	0.95308	0.43797	0.20197
1327.859	-0.04202	0.86128	0.58384	0.27755
1331.860	-0.06455	0.81092	0.66900	0.33410
1335.855	-0.09592	0.76747	0.71397	0.31590
1339.860	-0.10031	0.68478	0.74226	0.27637
1343.856	-0.10835	0.61502	0.76585	0.30765
1347.856	-0.07736	0.55153	0.77429	0.33973
1351.854	-0.07659	0.51220	0.76687	0.35213
1355.859	-0.05373	0.51784	0.76694	0.33662
1359.871	-0.04385	0.46355	0.74330	0.24593
1363.858	-0.02740	0.41801	0.77302	0.19699
1367.864	-0.02090	0.39360	0.80059	0.12963
1371.859	-0.01670	0.37927	0.73419	0.17209
1375.854	-0.01971	0.37286	0.66975	0.10260
1379.863	-0.01010	0.39291	0.63357	0.08001
1383.851	-0.04437	0.40285	0.57870	0.03595
1387.855	-0.05093	0.46879	0.55989	0.12469
1391.856	-0.08927	0.51956	0.54821	0.13274
1395.859	-0.08438	0.50057	0.54654	0.11110
1399.850	-0.10724	0.48745	0.53543	0.13214
1403.860	-0.13590	0.51508	0.56406	0.20808
1407.855	-0.14357	0.53590	0.51423	0.24386
1411.862	-0.12091	0.55874	0.54466	0.26232
1415.857	-0.14563	0.60098	0.51006	0.17742
1419.859	-0.10969	0.57457	0.45463	0.19819
1423.858	-0.09535	0.56823	0.36571	0.32124
1427.853	-0.05299	0.59596	0.32486	0.29783
1431.858	-0.00727	0.58833	0.32067	0.29552
1435.855	-0.00042	0.64786	0.28371	0.25597
1439.858	0.00509	0.67924	0.18055	0.28584
1443.851	-0.01243	0.74364	0.09056	0.30318
1447.855	0.02261	0.73738	0.02871	0.27684
1451.861	0.03378	0.72494	-0.09106	0.23517
1455.856	0.01727	0.75572	-0.19082	0.24295
1459.854	0.02000	0.64396	-0.22718	0.33131
1463.849	-0.00241	0.61189	-0.25108	0.30174
1467.855	-0.04988	0.74258	-0.28560	0.27987
1471.852	-0.05768	0.67100	-0.32342	0.25388
1475.858	-0.15767	0.61308	-0.32687	0.20286
1479.880	-0.19283	0.61879	-0.29061	0.21385
1483.853	-0.19288	0.59640	-0.22862	0.15767
1487.853	-0.11637	0.51916	-0.10751	0.14338
1491.860	-0.05194	0.56242	1.44899	0.15205
1495.852	1.89830	0.47837	2.63683	0.17793
1499.857	3.53533	0.58964	5.00585	0.33740
1503.853	4.70582	0.68773	5.83132	0.31889
1507.857	6.09523	0.76691	8.35741	0.40840
1511.848	7.30429	0.83285	9.15033	0.42301
1515.852	8.31807	0.88541	9.16475	0.54251
1519.849	8.55076	1.03687	9.91202	0.55973
1523.852	8.68232	1.11432	9.43851	0.71966
1527.850	8.56615	1.12385	9.14914	0.81844
1531.852	8.27734	1.31805	9.09814	0.98686
1535.854	8.36151	1.44829	9.13482	1.01518
1539.856	8.38031	1.41545	9.17628	1.02215
1543.853	8.43695	1.48287	9.34573	1.03392
1547.869	8.42447	1.49748	9.22088	1.07352
1551.862	8.52336	1.48909	9.37581	1.18377
1555.848	8.57209	1.55021	9.41206	1.25174
1559.726	8.46235	1.55220	9.51491	1.22660
1563.723	8.43545	1.57687	9.55659	1.28038
1567.725	8.43440	1.62023	9.47152	1.28729
1571.728	8.46543	1.64470	9.58029	1.31046
1575.730	8.50933	1.65291	9.45554	1.23394
1579.731	8.50416	1.60260	9.55377	1.18778
1583.746	8.53848	1.56763	9.59633	1.11078
1587.731	8.54498	1.47240	9.61445	1.04087
1591.727	8.59999	1.38782	9.63238	1.05967
1595.726	8.62872	1.45926	9.68865	1.02235
1599.732	8.68766	1.30042	9.67642	0.95069
1603.726	8.74971	1.31211	9.72718	0.94613
1607.730	8.69455	1.18377	9.63780	0.92812
1611.733	8.75446	1.06631	9.65146	0.98480
1615.726	8.79404	1.10326	9.68493	0.94809
1619.725	8.82468	1.00685	9.73161	0.92795
1623.730	8.85477	0.95375	9.79055	0.94226
1627.725	8.84600	0.89110	9.81209	0.99935
1631.727	8.86141	0.88137	9.86254	1.05224
1635.730	8.89153	0.85145	9.93460	1.04873
1639.722	8.91028	0.77721	9.97423	1.05724
1643.725	8.92333	0.82462	10.01477	1.09734
1647.724	8.93847	0.80918	9.94905	1.07540
1651.748	9.05238	0.79283	9.99958	1.02457
1655.726	9.04314	0.80872	9.99253	0.96292
1659.720	9.09246	0.80419	9.97755	0.91346
1663.731	9.08658	0.84910	9.94404	0.88182
1667.730	9.11873	0.88055	9.91568	0.79328
1671.745	9.14281	0.91622	9.92350	0.69451
1675.731	9.16545	0.94292	9.93347	0.66414
1679.730	9.13223	0.99140	9.85346	0.67449
1683.723	9.15988	1.01251	9.80397	0.65312
1687.724	9.13869	1.00389	9.78698	0.62539
1691.727	9.16279	1.01699	9.79481	0.62300
1695.729	9.14721	1.04333	9.76849	0.60880
1699.758	9.16131	1.02244	9.74928	0.61032
1703.729	9.18937	1.02266	9.76228	0.56461
1707.729	9.21923	1.03304	9.77440	0.56562
1711.729	9.24298	1.04128	9.80894	0.50633
1715.718	9.30114	1.02665	9.77172	0.54664
1719.724	9.31315	1.03909	9.77845	0.54382
1723.723	9.37704	1.06534	9.73665	0.51878
1727.725	9.41277	1.11022	9.76254	0.46987
1731.723	9.44897	1.08614	9.72079	0.42386
1735.722	9.46906	1.06354	9.71418	0.43861
1739.729	9.50747	1.02819	9.71905	0.48999
1743.722	9.53400	1.03766	9.73692	0.51031
1747.725	9.51628	1.04181	9.72489	0.51371
1751.728	9.50783	0.98426	9.76816	0.58069
1755.723	9.49591	0.94521	9.79209	0.57678
1759.721	9.51155	0.90673	9.79211	0.57893
1763.718	9.50047	0.87809	9.73899	0.62753
1767.727	9.50798	0.86491	9.72440	0.67216
1771.723	9.45952	0.82215	9.75459	0.71788
1775.722	9.43457	0.80586	9.66615	0.77720
1779.727	9.42146	0.80874	9.67917	0.82456
1783.721	9.38235	0.87052	9.55857	0.74508
1787.723	9.41670	0.83755	9.60579	0.70348
1791.733	9.41267	0.79765	9.65995	0.57622
1795.723	9.42873	0.87864	9.78059	0.65791
1799.721	9.47990	0.94418	10.12599	0.37194
1803.724	9.81845	0.92544	10.78822	0.04950
1807.725	10.12140	0.82922	11.12780	-0.45055
1811.723	9.99159	0.70401	10.89767	-0.60368
1815.723	9.99079	0.32837	10.87838	-0.61202
1819.724	10.23791	0.43957	10.76575	-0.49286
1823.721	10.26011	0.42218	10.81621	-0.68460
1827.721	10.33063	0.20836	10.77754	-0.69502
1831.742	10.51074	0.24210	10.84104	-0.68223
1835.731	10.42730	0.30846	10.99659	-0.67290
1839.722	10.55308	0.35881	10.97734	-0.78923
1843.722	10.52334	0.26945	11.03851	-0.77507
1847.724	10.55869	0.23871	11.11843	-0.82133
1851.722	10.55533	0.31171	10.97600	-0.76929
1855.722	10.55898	0.33496	11.07635	-0.75727
1859.725	10.56299	0.24916	11.18363	-0.74902
1863.723	10.62188	0.30417	11.18955	-0.81413
1867.722	10.59680	0.27051	11.16571	-0.75931
1871.733	10.59704	0.43906	11.18205	-0.76253
1875.726	10.55781	0.40255	11.12498	-0.72821
1879.766	10.62914	0.41987	11.10668	-0.83838
1883.720	10.60586	0.36487	11.12070	-0.80418
1887.744	10.60217	0.37269	11.07879	-0.79530
1891.727	10.64230	0.33811	11.13019	-0.82449
1895.724	10.66989	0.30058	11.13509	-0.79151
1899.717	10.63303	0.24730	11.03530	-0.77330
1903.720	10.65518	0.27239	11.03549	-0.79352
1907.720	10.68226	0.29803	11.01354	-0.70307
1911.724	10.64638	0.31371	10.99092	-0.68849
1915.720	10.63554	0.24200	10.97157	-0.68961
1919.725	10.69793	0.17954	11.06475	-0.75984
1923.724	10.60011	0.14530	11.04118	-0.69216
1927.725	10.51016	0.12898	10.97088	-0.66483
1931.719	10.73612	0.08447	11.04960	-0.76822
1935.714	10.67653	0.14659	11.03133	-0.66582
1939.719	10.59402	0.06221	10.98372	-0.74644
1943.719	10.66414	-0.01292	11.04322	-0.67433
1947.724	10.68698	0.12292	10.95882	-0.76633
1951.715	10.62859	0.12976	10.96784	-0.81292
1955.724	10.69000	0.11984	11.03406	-0.86553
1959.719	10.74796	-0.00427	10.96853	-0.89965
1963.723	10.67226	0.21819	10.91078	-0.85301
1967.721	10.77440	0.06757	11.03217	-0.86887
1971.726	10.81262	0.04389	11.03114	-0.84776
1975.720	10.87625	0.08014	11.07577	-0.81537
1979.714	10.72227	0.05921	11.02892	-0.81560
1983.721	10.84042	0.10978	11.09865	-0.76818
1987.723	10.83237	0.21492	11.05488	-0.72265
1991.736	10.88853	0.08775	11.09755	-0.68807
1995.721	10.86057	0.05122	11.20593	-0.69559
1999.723	10.90061	0.04351	11.12395	-0.62567
2003.719	10.98975	0.09289	11.09501	-0.57782
2007.720	10.98808	0.08784	11.18458	-0.57494
2011.720	10.96294	0.04752	11.15549	-0.56742
2015.715	10.86486	0.09537	11.10675	-0.54469
2019.718	10.88412	0.08514	11.10837	-0.54054
2023.717	10.97966	0.07399	11.10061	-0.61656
2027.718	11.07599	0.05970	11.09695	-0.56573
2031.718	11.03052	0.02919	11.09518	-0.57483
2035.725	11.10930	0.03521	11.14720	-0.51853
2039.724	11.11363	0.04872	11.05534	-0.52301
2043.722	11.10472	0.00905	11.06750	-0.52560
2047.721	11.00427	-0.01729	11.06222	-0.52909
2051.720	10.96134	-0.02662	10.91100	-0.49650
2055.716	10.97693	-0.03713	10.93284	-0.48624
2059.738	11.08944	-0.04126	10.85116	-0.51573
2063.723	11.09719	-0.04616	10.88300	-0.51748
2067.718	11.08820	-0.04263	10.93653	-0.51127
2071.758	11.11406	-0.04118	10.89398	-0.56785
2075.720	11.11984	-0.04681	10.93105	-0.58712
2079.717	11.19657	0.00222	10.96392	-0.60762
2083.724	11.15988	0.00907	11.02062	-0.61692
2087.715	11.17727	0.04595	11.00436	-0.62303
2091.721	11.24029	0.06417	11.08851	-0.63411
2095.713	11.27660	0.04333	11.05593	-0.66959
2099.718	11.33700	0.08591	11.11263	-0.69596
2103.716	11.32175	0.09970	11.11815	-0.70628
2107.716	11.34793	0.11658	11.08887	-0.71708
2111.736	11.34895	0.15178	11.06714	-0.71411
2115.724	11.29999	0.18838	11.04152	-0.70106
2119.720	11.30510	0.21080	10.96952	-0.70474
2123.718	11.25209	0.17226	10.94722	-0.69865
2127.717	11.22659	0.13327	10.98246	-0.70171
2131.718	10.84010	0.12186	10.84451	-0.72995
2135.720	9.25838	0.13300	10.33298	-0.76563
2139.712	6.66296	0.13910	8.06866	-0.80275
2143.716	5.23162	-0.02836	6.28751	-1.24045
2147.717	4.11369	-0.74971	5.84571	-1.15696
2151.715	2.02825	-0.83085	4.05910	-1.20644
2155.713	0.71027	-1.62954	2.61503	-1.53364
2159.715	0.19487	-1.56043	1.49093	-1.81034
2163.724	-2.73182	-1.75945	-0.20822	-1.92329
2167.722	-3.27150	-1.87915	-2.19633	-1.74510
2171.718	-4.71018	-1.89526	-2.64735	-1.88428
2175.717	-5.13616	-1.88203	-3.64659	-1.91547
2179.712	-5.35492	-1.93097	-3.73435	-2.07621
2183.720	-5.37510	-1.96593	-3.64484	-1.97618
2187.717	-5.13651	-2.14860	-3.69639	-2.00965
2191.719	-4.88700	-2.23187	-3.78311	-2.09885
2195.716	-4.91196	-2.20622	-3.80866	-2.16170
2199.718	-4.96053	-2.36487	-3.67432	-2.26331
2203.714	-5.04413	-2.44018	-3.82030	-2.29420
2207.721	-4.99721	-2.49350	-3.89997	-2.29381
2211.715	-5.08520	-2.50302	-3.86563	-2.33301
2215.722	-5.15719	-2.58714	-3.95036	-2.32988
2219.715	-5.13951	-2.60813	-4.06829	-2.38326
2223.716	-5.11979	-2.68015	-4.15125	-2.34669
2227.714	-5.10275	-2.72102	-4.36802	-2.37527
2231.717	-5.12004	-2.68033	-4.34640	-2.40581
2235.721	-5.15239	-2.69718	-4.44916	-2.34860
2239.718	-5.21493	-2.74543	-4.47545	-2.23607
2243.716	-5.26120	-2.73481	-4.41581	-2.14554
2247.719	-5.30210	-2.69103	-4.45656	-2.08386
2251.722	-5.32397	-2.68089	-4.38544	-2.07033
2255.718	-5.36929	-2.68094	-4.36145	-2.06656
2259.720	-5.33738	-2.66542	-4.42269	-2.10944
2263.716	-5.35979	-2.64716	-4.37453	-2.07860
2267.721	-5.37837	-2.59424	-4.23858	-2.11283
2271.716	-5.41295	-2.57052	-4.09843	-2.13365
2275.719	-5.41758	-2.55245	-4.03330	-2.12461
2279.720	-5.42146	-2.48767	-4.05969	-2.11724
2283.716	-5.44444	-2.40550	-4.06041	-2.17613
2287.723	-5.44104	-2.28920	-4.05083	-2.21209
2291.718	-5.42326	-2.16300	-4.05241	-2.25196
2295.730	-5.43398	-2.02160	-4.03900	-2.25281
2299.720	-5.37652	-1.71431	-4.11661	-2.22386
2303.711	-5.37473	-1.68947	-4.09735	-2.23178
2307.718	-5.34678	-1.59746	-4.06537	-2.26343
2311.714	-5.31723	-1.59071	-4.07747	-2.25491
2315.715	-5.25677	-1.59260	-4.09811	-2.22708
2319.712	-5.25222	-1.55696	-4.13900	-2.18537
2323.718	-5.22446	-1.57236	-4.14749	-2.19539
2327.713	-5.09547	-1.56459	-4.15026	-2.18632
2331.721	-5.00418	-1.59395	-4.17149	-2.17050
2335.714	-4.94194	-1.63608	-4.28629	-2.06315
2339.714	-4.80485	-1.50421	-4.33152	-2.03890
2343.711	-4.67296	-1.38596	-4.31822	-1.97398
2347.717	-4.99637	-1.01301	-4.51872	-1.87043
2351.709	-10.51904	1.55019	-5.29009	-1.76868
2355.712	-11.16050	1.57219	-11.25963	-1.31243
2359.715	NaN	NaN	NaN	NaN
2363.712	NaN	NaN	1.70065	10.05530
2367.717	NaN	NaN	2.52825	11.93653
2371.728	NaN	NaN	NaN	NaN
2375.714	NaN	NaN	NaN	NaN
2379.713	NaN	NaN	NaN	NaN
2383.730	NaN	NaN	-3.18336	10.11652
2387.715	8.03852	4.87546	NaN	NaN
2391.713	NaN	NaN	NaN	NaN
2395.718	NaN	NaN	NaN	NaN
2399.712	NaN	NaN	NaN	NaN
2403.711	NaN	NaN	NaN	NaN
2407.714	NaN	NaN	NaN	NaN
2411.598	NaN	NaN	NaN	NaN
2415.744	NaN	NaN	NaN	NaN
2419.915	NaN	NaN	NaN	NaN
2423.725	NaN	NaN	NaN	NaN
2427.587	NaN	NaN	NaN	NaN
2431.584	NaN	NaN	NaN	NaN
2435.582	NaN	NaN	NaN	NaN
2439.587	NaN	NaN	NaN	NaN
2443.587	NaN	NaN	NaN	NaN
2447.599	NaN	NaN	NaN	NaN
2451.591	NaN	NaN	NaN	NaN
2455.589	NaN	NaN	NaN	NaN
2459.633	NaN	NaN	NaN	NaN
2463.667	NaN	NaN	NaN	NaN
2468.357	NaN	NaN	NaN	NaN
2472.169	NaN	NaN	NaN	NaN
2475.597	NaN	NaN	NaN	NaN
2479.593	NaN	NaN	NaN	NaN
2483.623	NaN	NaN	NaN	NaN
2487.588	NaN	NaN	NaN	NaN
2491.592	6.49960	14.51936	6.77944	8.05846
2495.591	8.27977	10.77639	6.05032	11.50820
2499.586	2.42730	13.60120	NaN	NaN
2503.596	6.53485	10.42198	-0.71240	4.11012
2507.617	4.31267	10.32529	-0.71101	2.67225
2511.588	2.95869	7.25644	0.72307	2.51964
2515.584	0.41621	2.60365	0.77692	0.28720
2519.590	4.42244	1.14959	1.04449	-1.00336
2523.585	4.81675	0.21277	2.65486	-3.63051
2527.588	4.43172	0.91736	-2.07635	7.98958
2531.584	4.14478	0.80390	3.87786	7.09589
2535.584	3.53861	0.88530	2.98029	4.61536
2539.585	4.12071	0.72594	3.40615	2.34631
2543.614	4.16737	0.96126	3.44399	2.21771
2547.586	3.56719	3.50687	5.66823	1.92534
2551.580	-1.89974	4.27093	5.62213	1.19686
2555.583	-1.96023	3.06321	4.43137	-0.25169
2559.587	4.27674	0.77839	4.59978	-0.71889
2563.585	4.23678	0.72080	4.49494	0.31659
2567.583	4.17050	0.76041	3.39945	-0.01379
2571.584	3.91506	0.81617	2.59339	0.13313
2575.583	4.03048	0.83023	3.71898	0.37043
2579.578	4.23868	0.99786	2.38494	0.05479
2583.584	3.94352	0.76848	2.88861	0.10629
2587.587	3.99934	0.98748	2.21184	0.02689
2591.589	4.14196	0.87705	2.75618	0.02251
2595.580	4.27982	0.82521	4.55246	0.10441
2599.583	4.08031	0.93641	2.51903	0.11142
2603.583	4.24502	0.77324	3.32676	0.15150
2607.590	4.19724	0.88026	3.37104	0.18843
2611.582	4.20874	0.87179	4.30825	0.42451
2615.590	4.11189	0.73382	4.68304	0.25323
2619.584	4.18425	0.68789	3.61762	0.17134
2623.584	4.15596	0.75827	3.75944	0.36489
2627.587	4.13431	0.75167	4.09110	0.86243
2631.593	4.22281	0.70617	4.54999	0.24181
2635.585	4.19136	0.67649	4.60434	0.02990
2639.587	4.13303	0.70796	4.50579	0.15079
2643.582	4.16087	0.67213	4.32752	0.12069
2647.584	4.14828	0.71439	4.34887	0.23335
2651.583	4.12999	0.73386	4.46857	0.30704
2655.583	4.07792	0.81227	4.41489	0.38520
2659.579	3.96133	0.87694	4.28676	0.67073
2663.583	2.88024	0.87468	2.77235	0.51403
2667.587	0.20172	0.96189	1.22181	0.26212
2672.484	-1.86268	1.03260	-0.00278	0.49742
2675.604	-4.18176	1.03559	-2.13703	0.76875
2679.591	-5.14599	0.89648	-3.64227	0.71365
2683.580	-6.98886	0.82189	-5.52861	0.49387
2687.586	-9.49919	0.89657	-6.86166	0.61567
2691.586	-14.14322	1.23692	-9.03687	0.80412
2695.586	-18.04848	4.01697	-9.68271	1.94967
2699.582	-18.23002	4.07681	-15.60275	4.68513
2703.587	-22.87471	7.46086	-16.77491	6.25314
2707.585	-19.88962	-12.08515	-18.10462	5.30986
2711.591	-19.94056	-12.08138	-21.38418	8.41788
2715.588	-19.95839	-12.08005	-20.06796	-12.07189
2719.588	-19.96753	-12.07937	-20.03316	-12.07448
2723.582	-19.97312	-12.07896	-23.47302	10.27369
2727.582	-19.97689	-12.07868	-20.93048	6.46873
2731.581	-19.97965	-12.07847	-20.84216	6.56152
2735.583	-19.98175	-12.07831	-19.52941	4.12175
2739.584	-19.98577	-12.07802	-20.06825	-12.07187
2743.584	1.54118	13.13420	-20.05316	-12.07299
2747.580	1.53818	13.13669	-20.04271	-12.07377
2751.592	1.53597	13.13920	-20.04170	-12.07385
2755.581	NaN	NaN	-20.02076	-12.07541
2759.582	NaN	NaN	-20.01938	-12.07551
2763.584	NaN	NaN	-20.01794	-12.07562
2767.580	NaN	NaN	-20.01445	-12.07588
2771.585	NaN	NaN	-19.98837	-12.07782
2775.585	NaN	NaN	-19.96150	-12.07982
2779.600	NaN	NaN	NaN	NaN
2783.583	NaN	NaN	NaN	NaN
2787.586	NaN	NaN	NaN	NaN
2791.582	NaN	NaN	NaN	NaN
2795.587	NaN	NaN	NaN	NaN
2799.585	NaN	NaN	NaN	NaN
2803.582	NaN	NaN	NaN	NaN
2807.584	NaN	NaN	NaN	NaN
2811.586	NaN	NaN	NaN	NaN
2815.583	NaN	NaN	NaN	NaN
2819.580	NaN	NaN	NaN	NaN
2823.584	NaN	NaN	NaN	NaN
2827.582	NaN	NaN	NaN	NaN
2831.584	NaN	NaN	NaN	NaN
2835.591	NaN	NaN	NaN	NaN
2839.580	NaN	NaN	NaN	NaN
2843.581	NaN	NaN	NaN	NaN
2847.580	NaN	NaN	NaN	NaN
2851.584	NaN	NaN	NaN	NaN
2855.581	NaN	NaN	NaN	NaN
2859.581	NaN	NaN	NaN	NaN
2863.586	NaN	NaN	NaN	NaN
2867.583	NaN	NaN	NaN	NaN
2871.583	NaN	NaN	NaN	NaN
2875.586	NaN	NaN	NaN	NaN
2879.584	NaN	NaN	NaN	NaN
2883.582	NaN	NaN	NaN	NaN
2887.578	NaN	NaN	NaN	NaN
2891.582	NaN	NaN	NaN	NaN
2895.585	NaN	NaN	NaN	NaN
2899.582	NaN	NaN	NaN	NaN
2903.585	NaN	NaN	NaN	NaN
2907.577	NaN	NaN	NaN	NaN
2911.585	NaN	NaN	NaN	NaN
2915.581	NaN	NaN	NaN	NaN
2919.590	NaN	NaN	NaN	NaN
2923.591	NaN	NaN	NaN	NaN
2927.596	NaN	NaN	NaN	NaN
2931.583	NaN	NaN	NaN	NaN
2935.574	NaN	NaN	NaN	NaN
2939.584	NaN	NaN	NaN	NaN
2943.576	NaN	NaN	NaN	NaN
2947.578	NaN	NaN	NaN	NaN
2951.578	NaN	NaN	NaN	NaN
2955.580	NaN	NaN	NaN	NaN
2959.586	NaN	NaN	NaN	NaN
2963.577	NaN	NaN	NaN	NaN
2967.581	NaN	NaN	NaN	NaN
2971.578	NaN	NaN	NaN	NaN
2975.581	NaN	NaN	NaN	NaN
2979.616	NaN	NaN	NaN	NaN
2983.587	NaN	NaN	NaN	NaN
2987.576	NaN	NaN	NaN	NaN
2991.582	NaN	NaN	-22.10690	3.74442
2995.577	NaN	NaN	-20.10259	3.89809
2999.582	NaN	NaN	-18.76157	3.81468
3003.580	-21.87118	2.61047	-17.15566	3.48592
3007.581	-19.56588	2.78883	-15.12083	3.17505
3011.577	-15.95443	2.92079	-13.51607	2.74567
3015.576	-14.29412	3.05932	-11.33123	2.70300
3019.581	-12.30860	3.00097	-9.35773	2.44952
3023.578	-9.64355	3.04454	-7.65239	2.27518
3027.582	-7.93880	3.03168	-5.40070	2.06912
3031.574	-6.33794	3.10705	-3.21317	2.10756
3035.582	-4.29808	3.08595	-0.91170	2.22898
3039.577	-1.91920	3.05511	1.11747	2.38071
3043.582	0.32776	3.11351	2.24790	2.57929
3047.578	1.99801	3.17424	4.87949	2.60121
3051.579	3.99129	3.19537	6.30580	2.39858
3055.576	4.70774	3.22873	6.93518	2.51645
3059.575	5.52591	3.32598	7.24415	2.27922
3063.575	6.46669	3.37034	7.27211	2.49313
3067.571	6.45667	3.47433	7.05320	2.61854
3071.579	5.96215	3.54530	6.78664	2.71634
3075.580	5.64656	3.63817	7.10181	2.79108
3079.599	6.06946	3.66845	7.03345	2.90358
3083.583	6.04556	3.78989	6.94308	2.81544
3087.579	6.13706	3.80293	7.20257	2.75353
3091.576	6.18147	3.84326	7.31140	2.61349
3095.581	6.17443	3.79506	7.33293	2.54504
3099.580	6.27067	3.74183	7.17785	2.63210
3103.577	6.25897	3.74910	7.22715	2.64047
3107.582	6.26434	3.76576	7.20160	2.66436
3111.583	6.22427	3.76858	7.25904	2.59053
3115.582	6.28288	3.70485	7.29787	2.57254
3119.576	6.35275	3.54698	7.17646	2.62677
3123.580	6.32954	3.66792	7.11990	2.54090
3127.577	6.34434	3.58952	7.15755	2.56687
3131.580	6.41954	3.51043	7.24561	2.54489
3135.578	6.39935	3.43929	7.21169	2.52976
3139.580	6.37797	3.44851	7.12105	2.55329
3143.573	6.36905	3.39522	7.08119	2.56666
3147.575	6.43954	3.35733	7.19964	2.54400
3151.578	6.53811	3.24755	7.17111	2.52838
3155.576	6.38888	3.19376	7.33471	2.51458
3159.572	6.47024	3.11071	7.13016	2.49280
3163.580	6.52980	3.13601	7.26727	2.47212
3167.580	6.60558	3.08614	7.20673	2.44971
3171.571	6.45008	3.03744	7.38092	2.36852
3175.578	6.55035	2.96031	7.29860	2.31394
3179.577	6.73855	2.98261	7.28022	2.36305
3183.573	6.55557	2.98168	7.49156	2.34798
3187.579	6.62625	2.94219	7.61553	2.31605
3191.573	6.62285	2.86342	7.59644	2.26308
3195.577	6.75228	2.87401	7.43112	2.31231
3199.572	6.78329	2.88478	7.46358	2.37125
3203.577	6.79998	2.86876	7.53086	2.40285
3207.572	6.73639	2.75488	7.53432	2.26936
3211.591	6.82863	2.78525	7.60561	2.18362
3215.586	6.88839	2.82681	7.65239	2.24737
3219.580	6.87115	2.76981	7.64466	2.45035
3223.574	6.83369	2.70002	7.49861	2.33702
3227.573	6.92058	2.66293	7.52242	2.24492
3231.571	6.94068	2.69410	7.66802	2.23839
3235.577	6.97264	2.70607	7.68545	2.30237
3239.580	6.97917	2.64500	7.25150	2.26449
3243.576	6.93626	2.56777	7.50003	2.18610
3247.575	6.98888	2.60359	7.65081	2.19891
3251.577	7.01025	2.63695	7.84598	2.10893
3255.581	7.04856	2.65981	7.54498	2.03933
3259.575	7.07527	2.57442	7.36847	2.09784
3263.449	7.04934	2.60365	7.41160	2.10322
3267.443	7.10780	2.65052	7.59905	2.00015
3271.452	7.16862	2.65823	7.72178	1.80846
3275.448	7.18455	2.67059	7.58773	1.85546
3279.571	7.23347	2.59330	7.37619	2.00844
3283.448	7.18616	2.75788	7.68486	1.85364
3287.447	7.33042	2.65802	7.95626	1.54019
3291.449	8.07621	2.54981	8.92575	1.55973
3295.448	9.36281	2.21418	10.75902	1.04671
3299.453	10.86031	1.96861	10.96255	0.87571
3303.452	10.04343	1.93774	11.61747	0.86296
3307.448	10.59387	1.57383	11.58653	0.69746
3311.452	9.76799	1.70395	10.74398	0.68792
3315.444	10.14283	1.50937	10.93095	0.62574
3319.446	10.21825	1.61444	11.00561	0.56966
3323.446	10.31804	1.60875	11.21575	0.56849
3327.446	10.21945	1.72382	10.91741	0.59249
3331.443	10.31035	1.58328	10.86557	0.56617
3335.446	10.45238	1.47646	11.15695	0.51176
3339.451	10.52245	1.49544	11.10252	0.50010
3343.452	10.51393	1.49070	10.94524	0.52745
3347.445	10.38769	1.46077	11.11846	0.50795
3351.446	10.39098	1.45751	11.09604	0.53432
3355.451	10.56661	1.38823	10.93067	0.51372
3359.447	10.32726	1.47380	11.16927	0.56305
3363.447	10.49850	1.31274	11.00020	0.52947
3367.480	10.51182	1.21969	10.94148	0.50157
3371.449	10.47523	1.07514	11.13736	0.40343
3375.447	10.66253	1.09311	10.86395	0.42518
3379.455	10.31367	1.13197	11.04262	0.35637
3383.450	10.49416	1.08105	11.04166	0.36852
3387.441	10.35762	1.14416	10.77014	0.33526
3391.444	10.51175	1.24040	11.02801	0.27571
3395.445	10.45457	1.30437	10.86122	0.17068
3399.445	10.48029	1.37855	10.93983	0.28977
3403.439	10.64667	1.23453	11.11697	0.05325
3407.444	10.60402	1.41418	10.93012	0.09354
3411.444	10.82988	1.30367	10.95777	-0.01086
3415.448	10.57596	1.42634	11.03236	-0.02617
3419.446	10.51878	1.42812	10.97691	-0.02903
3423.451	10.67751	1.45274	11.00391	-0.04498
3427.444	10.68679	1.38217	11.01036	-0.06610
3431.443	10.71669	1.43766	11.06275	-0.11882
3435.444	10.87893	1.17004	11.09501	-0.07554
3439.447	10.74417	1.10194	11.03863	-0.11222
3443.445	10.97841	1.05267	11.07821	-0.11235
3447.440	10.68271	0.97342	11.02923	-0.11032
3451.450	10.93461	1.09687	10.98030	-0.10497
3455.444	10.74582	1.23288	11.07424	-0.03409
3459.444	11.04659	1.19524	10.97384	-0.03213
3463.445	10.89595	1.25834	11.00807	-0.03125
3467.446	10.92035	1.12924	10.93007	-0.05470
3471.438	10.93148	1.20888	10.95507	-0.04616
3475.444	10.95081	0.95394	10.94882	-0.03269
3479.448	10.85638	1.02622	10.90887	-0.03194
3483.449	10.96437	0.99412	10.90523	-0.01989
3487.449	10.79914	0.86040	10.93270	-0.05138
3491.448	10.97196	1.05908	10.89372	-0.03084
3495.440	10.80414	1.25584	11.01919	-0.07012
3499.445	11.02784	1.07607	10.96696	-0.10832
3503.442	10.79559	1.18210	10.97509	-0.14093
3507.449	10.94909	1.02736	11.05672	-0.18457
3511.446	10.98210	1.11126	11.02987	-0.14173
3515.464	10.96700	0.80394	11.01622	-0.20159
3519.451	10.87355	0.87358	11.09984	-0.29841
3523.444	11.11105	0.98063	11.03882	-0.25748
3527.449	10.66603	0.87655	11.09874	-0.35462
3531.444	11.01230	0.99359	11.13442	-0.40414
3535.446	10.98597	0.61277	11.09401	-0.32253
3539.442	10.82318	0.70992	11.10405	-0.43195
3543.449	11.14335	0.79088	11.12627	-0.42804
3547.450	10.77675	0.75521	11.06753	-0.30608
3551.444	11.03645	0.70646	11.07737	-0.32021
3555.444	10.75366	0.78211	11.12156	-0.35715
3559.446	10.92796	0.88974	11.07847	-0.34104
3563.448	11.07824	0.81876	11.03547	-0.28404
3567.439	10.72711	0.92932	11.09391	-0.26913
3571.443	11.01101	0.89488	11.03851	-0.20648
3575.441	11.01235	1.05038	11.06765	-0.14115
3579.440	10.86768	1.09858	11.15109	-0.07660
3583.442	11.15362	1.05633	11.15444	-0.03503
3587.468	10.89549	1.19807	11.21933	0.00283
3591.446	10.95406	1.12604	11.21202	0.06406
3595.442	11.07766	1.08605	11.20899	0.11678
3599.442	11.02230	1.17308	11.19454	0.16288
3603.445	11.09869	1.15415	11.33311	0.14341
3607.445	11.02846	1.21582	11.22924	0.24035
3611.446	11.01493	1.14624	11.26013	0.19146
3615.445	11.02220	1.14458	11.36890	0.20724
3619.442	11.07176	0.95253	11.38199	0.19768
3623.441	10.98965	-1.07338	11.40706	-0.24836
3627.442	10.98559	-0.03066	11.52412	-1.42717
3631.445	11.07902	-1.19250	11.51347	-2.12378
3635.446	11.01591	-1.58074	11.67172	-2.73742
3639.441	11.03513	-1.79700	11.55430	-2.93116
3643.441	10.97992	-1.76868	11.43755	-2.28814
3647.436	11.10763	-1.68106	11.41736	-2.29487
3651.447	11.21193	-1.53873	11.54308	-2.38884
3655.440	11.02299	-1.31431	11.65539	-2.14830
3659.442	11.07625	-1.31921	11.54873	-1.93259
3663.439	11.11263	-1.27579	11.45250	-1.95230
3667.440	11.06533	-1.11284	11.41147	-2.24132
3671.449	11.06021	-1.19060	11.44656	-2.16755
3675.441	11.01842	-1.37286	11.45338	-2.10733
3679.442	11.05366	-1.32199	11.39730	-2.09145
3683.444	11.11313	-1.34117	11.40589	-2.09627
3687.440	11.02521	-1.17543	11.45522	-2.09734
3691.441	11.11009	-1.20741	11.51802	-2.13938
3695.443	11.09059	-1.30852	11.54632	-2.11877
3699.440	11.13578	-1.30164	11.51085	-2.15283
3703.443	11.23289	-1.38515	11.50105	-2.18043
3707.443	10.92354	-1.26137	11.44652	-2.17995
3711.445	10.96937	-1.38396	11.50892	-2.16425
3715.451	10.99128	-1.43649	11.48556	-2.19655
3719.491	11.07962	-1.40581	11.52028	-2.21294
3723.448	11.21138	-1.39102	11.53458	-2.25775
3727.442	11.14627	-1.33919	11.56326	-2.28479
3731.440	11.14321	-1.31498	11.59361	-2.37859
3735.449	11.04408	-1.23082	11.59018	-2.38985
3739.447	11.04558	-1.13942	11.46740	-2.29836
3743.440	10.98195	-1.09343	11.43321	-2.39573
3747.443	10.98958	-1.10267	11.39461	-2.41198
3751.437	10.97858	-1.11402	11.35363	-2.44020
3755.445	11.03301	-1.12506	11.26665	-2.44775
3759.437	11.04503	-1.04899	11.21458	-2.37281
3763.440	11.00187	-1.09694	11.15573	-2.34968
3767.435	10.96356	-1.15671	11.11313	-2.25241
3771.441	10.97401	-1.28056	11.13435	-2.22186
3775.437	11.02856	-1.38217	11.10694	-2.19760
3779.438	11.03733	-1.31417	11.08753	-2.17349
3783.438	11.06107	-1.31119	11.11184	-2.21492
3787.438	11.02588	-1.42016	11.14452	-2.17327
3791.445	11.03219	-1.45677	11.19614	-2.18315
3795.436	11.07322	-1.47338	11.29288	-2.18641
3799.491	11.08182	-1.51028	11.38507	-2.20568
3803.446	11.12837	-1.56622	11.35465	-2.22649
3807.435	11.14885	-1.61357	11.41681	-2.28058
3811.437	11.16583	-1.59055	11.34974	-2.25691
3815.439	11.21620	-1.54909	11.32109	-2.28954
3819.438	11.21978	-1.45132	11.24001	-2.28646
3823.438	11.19812	-1.43915	11.20479	-2.21889
3827.439	11.13645	-1.24422	11.10216	-2.25286
3831.444	11.08696	-1.35899	11.09062	-2.24983
3835.442	11.11901	-1.21286	11.12426	-2.21924
3839.438	11.08870	-1.30151	11.07166	-2.23347
3843.442	11.08208	-1.37000	11.13501	-2.25837
3847.436	11.05108	-1.28678	11.24094	-2.26088
3851.437	11.05526	-1.26251	11.37894	-2.21385
3855.431	11.04946	-1.29973	11.47519	-2.20998
3859.443	11.04054	-1.35903	11.43297	-2.11996
3863.441	11.02012	-1.48551	11.42642	-2.03928
3867.436	11.00398	-1.44764	11.49405	-2.05540
3871.438	11.03066	-1.50240	11.49090	-1.95427
3875.436	11.03920	-1.47689	11.41686	-1.82510
3879.437	11.05335	-1.54727	11.24545	-1.88394
3883.438	11.04857	-1.54589	11.23960	-1.95473
3887.435	11.03831	-1.44806	11.12149	-1.78449
3891.456	11.14099	-1.42811	11.02091	-1.74353
3895.439	11.13955	-1.34429	11.00204	-1.67316
3899.450	11.23721	-1.37171	10.95906	-1.70222
3903.439	11.25187	-1.30243	10.85021	-1.71323
3907.436	11.32583	-1.23335	10.81283	-1.74039
3911.442	11.36739	-1.22825	10.78379	-1.73748
3915.437	11.35852	-1.18791	10.78048	-1.73189
3919.436	11.38907	-1.18560	10.77473	-1.78887
3923.448	11.43786	-1.15294	10.83606	-1.79368
3927.439	11.48184	-1.17863	10.82292	-1.77747
3931.437	11.49133	-1.19612	10.86040	-1.79765
3935.435	11.43371	-1.38987	10.87687	-1.84553
3939.454	11.40861	-1.37329	10.87467	-1.89317
3943.441	11.39852	-1.46322	10.92710	-1.93469
3947.438	11.38993	-1.44084	10.96619	-1.92137
3951.432	11.33058	-1.50686	10.97707	-1.94369
3955.435	11.28708	-1.60844	11.06700	-1.98331
3959.435	11.27388	-1.63072	11.10032	-2.03991
3963.443	11.30744	-1.67440	11.12854	-2.11721
3967.438	11.24151	-1.69071	11.17328	-2.17483
3971.440	11.17842	-1.72226	11.22351	-2.21539
3975.432	11.19253	-1.76659	11.21809	-2.28447
3979.437	11.17094	-1.74624	11.32137	-2.27964
3983.436	11.17013	-1.76286	11.34750	-2.32484
3987.442	11.18931	-1.76732	11.41974	-2.32936
3991.439	11.16120	-1.81191	11.43936	-2.38289
3995.437	11.16036	-1.84300	11.47574	-2.39510
3999.456	11.16366	-1.81528	11.45422	-2.38074
4003.434	11.15346	-1.85687	11.49745	-2.40639
4007.439	11.10154	-1.93917	11.47982	-2.41658
4011.435	11.09700	-1.94609	11.48192	-2.42137
4015.432	11.09535	-1.94544	11.46726	-2.44056
4019.434	11.13064	-1.91114	11.52026	-2.41254
4023.433	11.13669	-1.83265	11.52417	-2.39204
4027.435	11.14968	-1.83001	11.47925	-2.41785
4031.432	11.18549	-1.72268	11.39210	-2.45652
4035.437	11.14536	-1.71091	11.40086	-2.43921
4039.438	11.18183	-1.52693	11.38857	-2.45410
4043.433	11.19086	-1.38143	11.36720	-2.41985
4047.440	11.25371	-1.18345	11.37080	-2.37505
4051.437	11.25020	-1.28191	11.34289	-2.39595
4055.433	11.27316	-1.37058	11.34848	-2.38056
4059.439	11.33263	-1.25952	11.33018	-2.37743
4063.436	11.30445	-1.47812	11.29207	-2.39993
4067.438	11.29474	-1.52453	11.21391	-2.45861
4071.430	11.29312	-1.44771	11.19619	-2.41773
4075.438	11.30767	-1.43096	11.20567	-2.34714
4079.454	11.30126	-1.53144	11.15499	-2.30135
4083.438	11.30944	-1.64250	11.17125	-2.25429
4087.439	11.33106	-1.65009	11.22265	-2.22671
4091.434	11.34478	-1.67002	11.18871	-2.21176
4095.430	11.39265	-1.68860	11.20257	-2.13583
4099.437	11.40200	-1.68998	11.16781	-2.07367
4103.440	11.46468	-1.73187	11.21274	-2.04077
4107.436	11.48759	-1.73769	11.23867	-1.96206
4111.432	11.46945	-1.69342	11.28567	-1.92384
4115.439	11.51437	-1.69722	11.31798	-1.89595
4119.309	11.48130	-1.71688	11.30756	-1.90021
4123.309	11.43643	-1.73462	11.25698	-1.94178
4127.308	11.11160	-1.70328	10.94299	-2.00990
4131.308	9.27008	-1.81145	9.97517	-2.10145
4135.316	8.11150	-2.68105	9.24363	-2.20943
4139.309	7.60695	-3.87810	8.38631	-3.50746
4143.307	7.13832	-4.24525	8.10905	-3.37122
4147.313	6.97220	-3.69930	7.94767	-4.21013
4151.308	6.48686	-4.05468	7.01670	-4.07242
4155.313	5.93043	-3.84864	6.92278	-4.04616
4159.304	6.16228	-4.02062	7.01260	-4.04556
4163.313	6.35535	-4.11772	7.21239	-4.10618
4167.312	6.35729	-4.12129	7.19119	-4.01446
4171.358	6.23454	-4.23534	6.98883	-4.08530
4175.310	6.30644	-4.29774	7.17209	-4.05940
4179.314	6.25299	-4.35287	7.03179	-4.09975
4183.308	6.17197	-4.38206	6.80426	-4.11237
4187.308	6.15814	-4.19990	6.64770	-4.13979
4191.309	6.09626	-4.14266	6.71809	-4.10414
4195.307	6.12411	-4.08283	6.71121	-4.08490
4199.308	6.13436	-4.13081	6.57940	-4.09029
4203.303	6.14234	-4.15240	6.62473	-4.08483
4207.312	6.17538	-4.09463	6.70506	-4.04650
4211.310	6.15316	-4.23420	6.69035	-4.05936
4215.309	6.14099	-4.39012	6.64312	-4.08684
4219.312	6.18794	-4.40327	6.76758	-4.10915
4223.317	6.21436	-4.57439	6.93662	-4.14612
4227.308	6.26760	-4.51674	6.94902	-4.19739
4231.392	6.25166	-4.34984	6.80450	-4.18554
4235.313	6.18394	-4.37331	6.76941	-4.22354
4239.315	6.19905	-4.26501	6.72345	-4.27749
4243.304	6.25036	-4.19897	6.81906	-4.21996
4247.311	6.26910	-4.22759	6.82618	-4.24297
4251.309	6.20678	-4.27838	6.75989	-4.24954
4255.310	6.23530	-4.36520	6.86711	-4.05155
4259.309	6.26358	-4.22309	6.83208	-4.03012
4263.311	6.21688	-4.32939	6.77220	-4.01827
4267.307	6.19815	-4.26452	6.64031	-4.08875
4271.311	6.18632	-4.32751	6.62929	-4.05346
4275.304	6.13608	-4.30441	6.58205	-4.05753
4279.306	6.16869	-4.35113	6.65507	-3.97794
4283.306	6.15512	-4.39556	6.59633	-3.97443
4287.304	6.21335	-4.46358	6.55403	-4.09042
4291.311	6.21556	-4.48490	6.54690	-4.10551
4295.320	6.22826	-4.54531	6.50991	-4.15567
4299.310	6.24889	-4.57422	6.46360	-4.21175
4303.315	6.20393	-4.60301	6.42672	-4.30317
4307.311	6.23008	-4.55624	6.40883	-4.37646
4311.305	6.24085	-4.55006	6.41158	-4.43250
4315.305	6.23655	-4.52435	6.36756	-4.50144
4319.310	6.31228	-4.51650	6.31659	-4.62332
4323.310	6.31269	-4.50606	6.29791	-4.65143
4327.304	6.35476	-4.47013	6.28374	-4.70028
4331.305	6.35358	-4.39139	6.26569	-4.72177
4335.307	6.36915	-4.39015	6.26365	-4.76597
4339.304	6.36484	-4.34621	6.26517	-4.79117
4343.308	6.38158	-4.32604	6.24345	-4.82637
4347.311	6.41099	-4.29016	6.24202	-4.82682
4351.304	6.39261	-4.31057	6.20955	-4.84623
4355.309	6.38410	-4.29220	6.25186	-4.81221
4359.330	6.41636	-4.35818	6.27130	-4.78378
4363.310	6.40702	-4.39368	6.28879	-4.74852
4367.305	6.36734	-4.46725	6.34187	-4.65010
4371.507	6.36109	-4.46352	6.34616	-4.57496
4375.310	6.31049	-4.47481	6.40991	-4.44651
4379.309	6.32056	-4.32198	6.60103	-4.28111
4383.307	6.71549	-3.87033	6.98631	-4.16468
4387.314	8.06076	-3.21458	7.83122	-3.69082
4391.305	8.33710	-2.07427	8.92445	-2.48274
4395.305	8.86464	-1.87287	10.20067	-2.02427
4399.302	9.57821	-0.18725	10.03140	-1.45130
4403.303	10.31816	-0.01684	10.34139	-1.61163
4407.303	10.21344	0.23863	10.71921	-1.18213
4411.305	10.13633	0.38071	10.93512	-0.96170
4415.299	10.12130	0.38415	10.60318	-1.05950
4419.302	9.99238	0.41428	10.66680	-1.10352
4423.303	10.02988	0.41661	10.67399	-1.01627
4427.303	9.97375	0.34143	10.64345	-1.05331
4431.308	10.01426	0.22297	10.80438	-0.86473
4435.303	10.12953	0.04819	10.87706	-0.86067
4439.306	10.18192	0.19133	10.86055	-0.80267
4443.341	10.23565	0.06470	10.87323	-0.84858
4447.304	10.20373	0.23307	10.87120	-0.82809
4451.307	10.17408	0.12860	10.85157	-0.86938
4455.298	10.18065	0.08827	10.87558	-0.91408
4459.301	10.15730	0.14353	10.88901	-0.90811
4463.305	10.19558	0.08570	10.86287	-0.89589
4467.305	10.19632	0.02654	10.81018	-0.84739
4471.301	10.18120	0.06741	10.77414	-0.79841
4475.303	10.19839	0.10149	10.72687	-0.81675
4479.301	10.14210	0.15763	10.65077	-0.82078
4483.306	10.11914	0.18914	10.59378	-0.81952
4487.305	10.07921	0.24894	10.50532	-0.81800
4491.299	10.07783	0.24057	10.48718	-0.79843
4495.303	10.08873	0.26464	10.51861	-0.77512
4499.302	10.11736	0.28947	10.44794	-0.78043
4503.305	10.13306	0.29603	10.40874	-0.76699
4507.328	10.18284	0.28302	10.45687	-0.77901
4511.309	10.16728	0.25239	10.47847	-0.80771
4515.297	10.26477	0.21693	10.54564	-0.81581
4519.301	10.29428	0.22779	10.64990	-0.83514
4523.300	10.31499	0.19008	10.63324	-0.78606
4527.301	10.34782	0.16107	10.70965	-0.78701
4531.300	10.35087	0.08221	10.68743	-0.80740
4535.306	10.39414	0.02926	10.71720	-0.77784
4539.303	10.36526	0.04657	10.75382	-0.73264
4543.301	10.35786	0.04297	10.78982	-0.68688
4547.315	10.37126	0.04515	10.84267	-0.65045
4551.310	10.31568	0.07090	10.90016	-0.59538
4555.298	10.30545	0.14102	10.91373	-0.59523
4559.299	10.32625	0.17958	10.88826	-0.63020
4563.300	10.32188	0.20975	10.87816	-0.62642
4567.301	10.36538	0.26942	10.92155	-0.66802
4571.296	10.34338	0.36218	10.94287	-0.70907
4575.300	10.28313	0.40843	10.93985	-0.66363
4579.311	10.26295	0.46232	10.93536	-0.62473
4583.302	10.23281	0.47131	10.90092	-0.61022
4587.301	10.23353	0.49114	10.82507	-0.59836
4591.304	10.25468	0.48077	10.80517	-0.54886
4595.311	10.27340	0.49402	10.72362	-0.60179
4599.296	10.26537	0.46273	10.67754	-0.59763
4603.300	10.26030	0.41457	10.71478	-0.52844
4607.311	10.25269	0.42786	10.66989	-0.52432
4611.306	10.24026	0.34613	10.75002	-0.46440
4615.300	10.20998	0.24580	10.77936	-0.41178
4619.299	10.25418	0.19476	10.81197	-0.38347
4623.300	10.27955	0.11140	10.78774	-0.38667
4627.296	10.33757	0.09761	10.87357	-0.38771
4631.300	10.32481	0.05461	10.90906	-0.34077
4635.306	10.39640	0.08484	10.83845	-0.34329
4639.300	10.29116	0.20718	10.79370	-0.31217
4643.319	10.37856	0.16318	10.83850	-0.28023
4647.304	10.37760	0.30001	10.82380	-0.26567
4651.328	10.34259	0.31620	10.88898	-0.21273
4655.304	10.35577	0.38101	10.81492	-0.19768
4659.299	10.36555	0.30474	10.76719	-0.22634
4663.298	10.37534	0.46528	10.77380	-0.23178
4667.294	10.48898	0.45566	11.23738	-0.17546
4671.298	10.42939	0.52527	11.50782	-0.11259
4675.308	10.53967	0.57753	11.73838	0.04080
4679.301	10.74137	0.67286	11.87166	0.29626
4683.301	10.76856	0.85881	11.81582	0.36649
4687.298	10.68365	0.95919	11.96674	0.53515
4691.293	10.91351	1.13144	12.00716	0.35658
4695.298	10.90978	1.01159	12.10922	0.46628
4699.298	10.96521	1.17355	12.10480	0.55504
4703.298	11.01142	1.40660	12.10148	0.52988
4707.293	11.03757	1.39278	12.09816	0.58003
4711.297	11.09943	1.30295	12.09557	0.62049
4715.299	11.09953	1.48692	12.08385	0.64661
4719.302	11.02244	1.53523	12.03916	0.60067
4723.301	10.90657	1.59961	12.01696	0.55026
4727.298	10.91155	1.59746	12.01642	0.57097
4731.297	10.87627	1.60136	12.02679	0.63615
4735.294	10.90092	1.63334	12.01708	0.56404
4739.301	10.90918	1.65255	11.96591	0.62730
4743.297	10.88597	1.71122	11.99507	0.59124
4747.294	10.80429	1.74541	12.02682	0.71505
4751.294	10.84676	1.73836	12.07730	0.70036
4755.297	10.85729	1.76624	12.09408	0.64777
4759.301	10.84686	1.78115	12.10352	0.70066
4763.293	10.87489	1.77374	12.20743	0.69507
4767.296	10.97590	1.76378	12.25005	0.66109
4771.295	11.03303	1.73951	12.28792	0.74028
4775.323	11.02175	1.75586	12.28237	0.66363
4779.381	11.06153	1.71849	12.31999	0.62074
4783.350	11.06846	1.67144	12.35902	0.56448
4787.304	11.08813	1.54127	12.33411	0.59825
4791.297	11.10852	1.41033	12.34825	0.54140
4795.301	11.15644	1.44014	12.27235	0.52160
4799.303	11.19402	1.38877	12.29419	0.52850
4803.304	11.19332	1.34229	12.22969	0.50527
4807.297	11.21028	1.25022	12.16733	0.46693
4811.293	11.20641	1.21832	12.11579	0.45658
4815.299	11.21388	1.22559	12.09372	0.41232
4819.295	11.25094	1.22885	12.05601	0.44011
4823.292	11.28460	1.16603	11.98591	0.49430
4827.311	11.29493	1.12044	11.90053	0.49876
4831.295	11.29760	1.17721	11.88485	0.52021
4835.296	11.32977	1.17627	11.81774	0.51127
4839.295	11.31615	1.16317	11.85221	0.56991
4843.299	11.31686	1.15735	11.81165	0.58794
4847.307	11.31366	1.11859	11.80274	0.63164
4851.296	11.30830	1.16779	11.80036	0.65443
4855.296	11.28536	1.19713	11.80804	0.78207
4859.295	11.27519	1.19596	11.84979	0.76126
4863.291	11.25791	1.16850	11.92246	0.69773
4867.294	11.25252	1.23897	11.98268	0.63873
4871.295	11.23096	1.25398	12.05796	0.61826
4875.295	11.24297	1.39387	12.15640	0.60089
4879.295	11.20854	1.45177	12.24498	0.61756
4883.299	11.21119	1.36001	12.05943	0.60796
4887.300	10.82473	1.36234	11.50703	0.72916
4891.295	9.37895	1.57869	10.90604	0.77686
4895.305	8.34791	1.90392	9.25296	1.00185
4899.298	8.51887	1.92573	8.84416	1.43653
4903.297	8.39979	2.10458	8.99792	1.77850
4907.293	8.88276	1.89341	9.34319	1.86207
4911.299	8.95021	1.90787	9.37556	2.05349
4915.330	8.99574	2.03415	9.49757	2.10556
4919.300	8.94876	2.05745	9.23582	2.08113
4923.334	8.89128	2.11400	9.16581	2.02987
4927.309	8.98971	2.11181	9.44544	1.95094
4931.296	8.90558	2.18660	9.27037	2.00145
4935.294	8.83246	2.20807	9.20540	2.07703
4939.299	8.83832	2.16006	9.34998	2.10874
4943.294	8.75499	2.19598	9.34974	2.09282
4947.295	8.76954	2.21107	9.42062	2.05594
4951.292	8.69668	2.26821	9.42680	2.04932
4955.293	8.59631	2.28974	9.44665	2.02470
4959.294	8.54877	2.30948	9.44477	2.02422
4963.295	8.48551	2.34060	9.52932	1.89881
4967.293	8.39707	2.34251	9.58625	1.89203
4971.294	8.40210	2.35070	9.56209	1.84913
4975.172	8.35741	2.31480	9.59016	1.87015
4979.167	8.34827	2.25739	9.64622	1.88861
4984.116	8.33243	2.20359	9.72081	1.86170
4987.176	8.37857	1.97316	9.70034	1.86903
4991.173	8.45866	1.69058	9.75348	1.85391
4995.171	8.47896	1.64607	9.79592	1.87593
4999.164	8.53850	1.65156	9.79166	1.82431
5003.169	8.74440	1.52093	9.87293	1.88792
5007.168	8.74648	1.50458	9.87343	1.89126
5011.169	8.70594	1.37796	9.82479	1.91837
5015.169	8.65785	1.33706	9.79187	1.95261
5019.179	8.69787	1.34278	9.84537	1.89262
5023.171	8.60885	1.33070	9.76264	1.84260
5027.169	8.63280	1.30328	9.65281	1.85625
5031.195	8.74668	1.29228	9.55780	1.84597
5035.172	8.68077	1.35087	9.50477	1.72306
5039.168	8.68460	1.41535	9.42933	1.75478
5043.167	8.73002	1.46083	9.36684	1.76225
5047.169	8.70847	1.47405	9.32209	1.88780
5051.184	8.75121	1.44254	9.36911	1.89210
5055.169	8.79484	1.48257	9.43996	1.87377
5059.174	8.83600	1.55670	9.41581	1.87762
5063.180	8.89145	1.59113	9.39784	1.80145
5067.176	8.86042	1.56150	9.48828	1.80781
5071.164	8.82659	1.54452	9.56352	1.70709
5075.172	8.86444	1.62623	9.53419	1.73782
5079.167	8.83723	1.65817	9.55751	1.64187
5083.163	8.78561	1.73034	9.51278	1.64919
5087.165	8.75422	1.74727	9.56019	1.83514
5091.167	8.84280	1.66769	9.71647	1.73113
5095.167	8.76224	1.71865	9.68076	1.71844
5099.168	8.70934	1.67347	9.63836	1.69871
5103.165	8.72013	1.66444	9.59542	1.67614
5107.165	8.70844	1.59437	9.51821	1.59923
5111.170	8.61331	1.70966	9.53711	1.71618
5115.172	7.87798	1.67922	9.26241	1.77292
5119.345	5.63948	1.54506	7.27555	1.80428
5123.169	3.68164	1.48214	5.91145	1.82631
5127.167	2.78547	1.43111	4.40135	1.73935
5131.164	1.13037	1.37926	3.47628	1.32843
5135.166	0.20810	1.23860	2.19650	1.03804
5139.173	-0.90756	1.25318	0.50433	0.56582
5143.172	-1.51787	0.83500	-0.08388	0.53181
5147.164	-2.74420	0.66678	-0.32099	0.22615
5151.171	-2.26319	0.73755	-0.94562	-0.06259
5155.167	-1.61654	0.48897	-0.79942	0.51481
5159.170	-1.63576	0.37330	-0.58784	0.40809
5163.165	-1.62532	0.26121	-0.74062	0.28725
5167.170	-1.84240	0.08303	-0.73888	0.20501
5171.187	-2.05856	0.06951	-0.77074	0.14235
5175.167	-1.81401	0.06482	-0.62575	0.16362
5179.173	-1.70608	0.06264	-0.81307	0.11996
5183.174	-1.79366	0.04011	-0.87376	0.05205
5187.170	-1.73182	0.13030	-0.96581	0.03280
5191.168	-1.77781	0.16343	-1.06716	0.02288
5195.162	-1.71989	0.14992	-1.06292	0.26390
5199.171	-1.76472	0.11641	-1.02327	0.15267
5203.168	-1.79244	0.21847	-1.09899	0.09486
5207.180	-1.93232	0.26000	-1.21058	0.05995
5211.170	-1.86461	0.34564	-1.26835	0.10514
5215.170	-1.77266	0.21464	-1.29229	0.16304
5219.167	-1.82740	0.21131	-1.28338	0.13952
5223.181	-1.88804	0.19809	-1.33110	0.09639
5227.161	-2.08158	0.26782	-1.35680	0.12687
5231.172	-1.94632	0.04411	-1.38662	0.12299
5235.174	-1.92788	-0.10659	-1.38721	0.17802
5239.168	-1.91990	-0.06556	-1.39798	0.16756
5243.166	-1.98011	-0.10212	-1.42618	0.21957
5247.200	-2.03286	-0.17979	-1.46407	0.14696
5251.170	-1.91496	-0.24885	-1.45824	-0.00286
5255.166	-1.87852	-0.31144	-1.40425	0.09760
5259.168	-1.80734	-0.29970	-1.41308	0.07765
5263.169	-1.91419	-0.21934	-1.36134	0.02757
5267.165	-1.93527	-0.21738	-1.39822	-0.04337
5271.164	-1.93467	-0.24760	-1.45720	-0.12562
5275.166	-1.95832	-0.25398	-1.39674	-0.05502
5279.163	-1.96412	-0.25761	-1.44061	-0.06374
5283.166	-1.94126	-0.17121	-1.28946	-0.01563
5287.164	-1.93541	-0.23362	-1.28663	-0.04951
5291.168	-1.90455	-0.24274	-1.29318	-0.07043
5295.162	-1.91947	-0.23077	-1.25374	-0.09229
5299.164	-1.93856	-0.12236	-1.27284	-0.05545
5303.166	-2.07194	-0.08379	-1.28611	-0.04598
5307.163	-2.07184	0.03909	-1.37687	-0.00283
5311.169	-2.06200	0.06772	-1.36161	0.03585
5315.165	-2.06723	0.16665	-1.33825	0.07589
5319.164	-1.96085	0.42178	-1.34919	0.06186
5323.163	-1.96164	0.42710	-1.36655	0.10367
5327.163	-1.97696	0.44279	-1.40041	0.05033
5331.162	-1.98212	0.41254	-1.50653	0.03547
5335.168	-1.92421	0.45666	-1.48967	-0.04779
5339.165	-1.94615	0.47170	-1.53622	-0.07425
5343.180	-1.93569	0.45196	-1.57141	-0.07194
5347.169	-1.89461	0.35199	-1.56536	-0.11208
5351.171	-1.85160	0.25971	-1.55370	-0.18496
5355.163	-1.84773	0.36064	-1.52161	-0.17557
5359.167	-1.82435	0.35814	-1.49537	-0.16698
5363.168	-1.85611	0.27975	-1.50410	-0.15366
5367.163	-1.87381	0.19613	-1.45604	-0.19796
5371.166	-1.84364	0.10632	-1.43940	-0.19200
5375.161	-1.83871	0.14174	-1.42218	-0.16162
5379.165	-1.78334	0.20183	-1.25178	-0.17870
5383.164	-0.90287	0.15221	0.18752	-0.00686
5387.162	0.76603	0.24884	2.25992	0.09336
5391.303	2.14664	0.48922	3.83804	0.21171
5395.161	2.95463	1.01584	4.97691	0.48435
5399.168	4.74225	0.84841	6.38807	0.63352
5403.162	5.82120	1.01741	8.13417	0.69251
5407.166	7.12344	1.16101	8.74379	0.94208
5411.158	8.18422	1.34295	9.15657	0.95793
5415.162	8.37662	1.84037	9.22044	1.13418
5419.161	8.10965	1.75726	8.90129	1.18586
5423.164	7.78672	1.67629	8.62540	1.25469
5427.169	7.76165	1.70026	8.64963	1.29615
5431.166	7.62155	1.79939	8.69947	1.37663
5435.167	7.89398	1.64837	8.97891	1.52774
5439.158	7.88439	1.64813	8.97738	1.60375
5443.161	7.86817	1.61836	9.04587	1.55068
5447.160	7.99179	1.71008	9.09899	1.56813
5451.162	8.05871	1.70872	9.07414	1.68166
5455.155	8.03823	1.65499	9.13136	1.71318
5459.168	7.97249	1.53137	9.11165	1.71622
5463.165	7.98333	1.47300	9.23529	1.62375
5467.183	8.14091	1.48848	9.32738	1.59955
5471.164	8.32903	1.40765	9.42272	1.62961
5475.165	8.32646	1.29081	9.46140	1.54885
5479.162	8.47983	1.18614	9.44001	1.42521
5483.174	8.51634	1.03934	9.38788	1.30841
5487.163	8.54282	1.18196	9.39322	1.31125
5491.169	8.55149	1.11864	9.34234	1.26498
5495.160	8.65317	1.08951	9.39900	1.18045
5499.160	8.60366	1.05288	9.44648	1.13266
5503.157	8.62974	1.09183	9.42747	1.09021
5507.165	8.61848	1.16169	9.35520	1.07595
5511.161	8.48238	1.13714	9.37491	1.07498
5515.167	8.57998	1.00485	9.32316	1.04710
5519.157	8.47381	1.06280	9.25478	1.03553
5523.164	8.46434	1.10280	9.25335	1.10181
5527.173	8.45257	1.16062	9.25642	1.21342
5531.165	8.38240	1.10524	9.29263	1.21854
5535.157	8.32974	1.10510	9.38854	1.32580
5539.159	8.30527	1.09947	9.34867	1.39111
5543.161	8.29360	1.11695	9.37102	1.45194
5547.161	8.29421	1.14684	9.34679	1.51178
5551.165	8.31389	1.13692	9.36433	1.55146
5555.165	8.32607	1.13396	9.31987	1.56646
5559.162	8.32842	1.24986	9.30056	1.59630
5563.158	8.34941	1.33172	9.30890	1.60777
5567.163	8.34514	1.45334	9.26109	1.59341
5571.161	8.33491	1.46490	9.22968	1.57407
5575.159	8.37951	1.35759	9.17128	1.57315
5579.164	8.42636	1.48887	9.13211	1.56016
5583.161	8.45157	1.38163	9.04105	1.52456
5587.162	8.48068	1.40245	9.02457	1.49434
5591.157	8.52193	1.25958	8.96656	1.48185
5595.166	8.52659	1.30090	8.91684	1.46358
5599.166	8.55765	1.32550	8.89770	1.47673
5603.160	8.57340	1.33696	8.85536	1.46925
5607.187	8.58820	1.13823	8.85519	1.50524
5611.166	8.64063	1.08814	8.87583	1.53129
5615.161	8.64662	1.04815	8.89996	1.56131
5619.156	8.64917	1.27516	8.91529	1.57162
5623.157	8.65072	1.09278	8.91546	1.59318
5627.161	8.68800	0.93200	8.93367	1.60159
5631.163	8.67304	1.15430	8.95288	1.60143
5635.153	8.64255	1.17092	8.97855	1.61760
5639.163	8.66993	1.23664	9.01326	1.62373
5643.159	8.63459	1.04091	9.02234	1.62572
5647.163	8.73162	0.76685	9.05594	1.64889
5651.154	8.74673	0.76852	9.06804	1.63196
5655.157	8.80355	0.84046	9.06356	1.62809
5659.161	8.81668	0.66943	9.03544	1.62657
5663.161	8.83738	0.55540	9.03031	1.62279
5667.160	8.92011	0.53694	9.02120	1.60689
5671.161	8.89860	0.75784	9.04067	1.61017
5675.160	8.81559	0.69305	9.06063	1.62116
5679.164	8.95196	0.51217	9.45274	1.21871
5683.161	9.08776	-0.02316	10.47597	-0.61938
5687.194	9.30537	-0.81663	10.97294	-0.94187
5691.158	9.55336	-1.95123	11.09948	-1.56467
5695.157	10.10126	-2.45912	11.02253	-1.48543
5699.151	9.95035	-2.34211	11.04446	-1.84616
5703.155	10.03440	-2.01143	11.05837	-1.75410
5707.156	10.07237	-1.49704	10.99857	-1.68576
5711.161	10.31179	-1.81440	11.01220	-1.46130
5715.151	10.29699	-1.93667	11.02132	-1.57913
5719.162	10.39719	-1.79178	11.01787	-1.61105
5723.164	10.48077	-1.75566	11.04957	-1.74073
5727.160	10.46549	-1.80530	11.07259	-1.71910
5731.178	10.49032	-2.05766	11.04348	-1.77646
5735.165	10.51962	-1.91564	11.03772	-1.78980
5739.156	10.58035	-1.83335	11.02406	-1.88839
5743.160	10.50549	-1.97211	11.03083	-1.90034
5747.152	10.61605	-1.98713	11.05285	-1.81417
5751.185	10.61754	-2.00769	11.00977	-1.85257
5755.155	10.62291	-2.06917	10.98312	-1.89572
5759.154	10.63854	-2.09692	10.98499	-1.97668
5763.159	10.64751	-2.04922	10.94256	-2.03705
5767.166	10.60097	-2.15459	10.88319	-2.07518
5771.157	10.56076	-2.29308	10.84444	-2.11011
5775.158	10.58124	-2.33914	10.78269	-2.17410
5779.160	10.52729	-2.34884	10.77950	-2.16646
5783.154	10.48104	-2.37136	10.80010	-2.12483
5787.150	10.51345	-2.37214	10.76796	-2.08159
5791.153	10.43959	-2.43579	10.79394	-2.10030
5795.155	10.44343	-2.46269	10.76971	-2.12736
5799.164	10.43503	-2.39901	10.78788	-2.12548
5803.163	10.40019	-2.40167	10.78417	-2.07226
5807.158	10.37995	-2.42296	10.81995	-2.04820
5811.154	10.39254	-2.43264	10.88226	-2.00715
5815.159	10.39386	-2.39677	10.93303	-1.95848
5819.155	10.39799	-2.33103	11.01773	-1.89051
5823.153	10.42094	-2.29240	11.06602	-1.81143
5827.162	10.45879	-2.22137	11.03858	-1.79901
5831.031	10.47002	-2.14504	11.03898	-1.80210
5835.033	10.50961	-2.07754	11.03196	-1.78528
5839.033	10.53144	-2.02777	11.07644	-1.71109
5843.031	10.58402	-1.95870	11.10116	-1.69007
5847.030	10.59483	-1.95916	11.08230	-1.65777
5851.033	10.60596	-1.90042	11.07441	-1.63528
5855.034	10.60910	-1.85109	11.05658	-1.60336
5859.034	10.64496	-1.78364	11.00618	-1.54918
5863.029	10.67866	-1.75321	11.00917	-1.53554
5867.050	10.69606	-1.69127	10.96808	-1.54148
5871.028	10.67097	-1.65571	10.99173	-1.54543
5875.030	10.69338	-1.59762	11.01833	-1.51438
5879.030	10.70124	-1.54725	10.99922	-1.48035
5883.026	10.69563	-1.47100	10.98415	-1.46456
5887.028	10.68401	-1.48333	10.93062	-1.43549
5891.066	10.68950	-1.43667	10.95102	-1.42798
5895.036	10.69335	-1.34455	10.91088	-1.41072
5899.035	10.71245	-1.30823	10.89595	-1.39215
5903.033	10.69443	-1.30543	10.85818	-1.37787
5907.031	10.67356	-1.27347	10.83618	-1.36650
5911.032	10.67641	-1.18689	10.79303	-1.36629
5915.026	10.69465	-1.20041	10.76211	-1.31517
5919.032	10.68005	-1.18150	10.72965	-1.31267
5923.028	10.68997	-1.12066	10.71202	-1.28949
5927.028	10.70052	-1.13300	10.69089	-1.28724
5931.027	10.73205	-1.09605	10.68118	-1.32987
5935.040	10.77335	-1.05371	10.68983	-1.31211
5939.028	10.79811	-1.08913	10.68104	-1.31891
5943.027	10.83273	-1.07070	10.70502	-1.28520
5947.027	10.86857	-0.98046	10.71703	-1.35631
5951.027	10.87857	-0.99465	10.70728	-1.36172
5955.022	10.85267	-1.01764	10.72074	-1.37079
5959.026	10.73993	-0.96863	10.72872	-1.36048
5963.025	10.57622	-0.94028	10.78434	-1.34586
5967.026	10.73521	-0.92966	10.80843	-1.35519
5971.022	10.68628	-0.93718	10.78072	-1.39618
5975.031	10.52442	-0.91477	10.81111	-1.36711
5979.030	10.49877	-0.93385	10.81121	-1.41650
5983.032	10.42307	-0.93088	10.81391	-1.48518
5987.029	10.37006	-0.90931	10.83860	-1.51698
5991.027	10.31117	-0.99967	10.86182	-1.49111
5995.022	10.22921	-1.04330	10.84113	-1.50075
5999.026	10.21356	-1.00316	10.83517	-1.43603
6003.046	9.99498	-0.85614	10.72778	-1.37959
6007.026	9.63990	-0.58772	10.65623	-1.28016
6011.025	9.32813	-0.41365	10.37301	-0.26557
6015.026	9.49197	-0.21127	10.01975	0.45673
6019.032	9.74509	0.09742	10.12847	0.44669
6023.028	9.81356	0.27042	10.10764	0.56612
6027.031	9.86103	0.33493	10.12207	0.17151
6031.026	9.55381	0.04362	10.23815	0.08896
6035.026	9.41371	0.21651	10.05060	0.27372
6039.022	9.44532	0.25272	9.83399	0.40995
6043.031	9.52335	0.31356	9.78305	0.43203
6047.040	9.59327	0.32776	9.81038	0.48990
6051.031	9.59457	0.33915	9.65828	0.54492
6055.030	9.61484	0.35022	9.66865	0.58931
6059.036	9.64808	0.39563	9.69605	0.58564
6063.031	9.63764	0.36054	9.61491	0.61363
6067.022	9.59170	0.32739	9.65044	0.66858
6071.025	9.53815	0.30955	9.67360	0.77221
6075.030	9.50028	0.35970	9.64921	0.80139
6079.022	9.53810	0.38993	9.63899	0.89412
6083.031	9.57136	0.41069	9.71293	0.91924
6087.025	9.52101	0.39573	9.74458	0.97762
6091.026	9.50151	0.42707	9.78568	1.01784
6095.020	9.49161	0.48372	9.83869	1.02262
6099.036	9.48309	0.51481	9.87769	1.02329
6103.037	9.47106	0.62529	9.91459	1.04160
6107.028	9.46464	0.58682	9.96735	1.06367
6111.025	9.47961	0.65166	9.96677	1.04505
6115.025	9.52420	0.71742	9.90465	0.92492
6119.025	9.64441	0.74626	9.88976	0.89396
6123.020	9.62437	0.74912	9.81062	0.86323
6127.025	9.64043	0.77371	9.83652	0.84160
6131.023	9.66832	0.81364	9.83501	0.74642
6135.023	9.71891	0.87831	9.75709	0.73952
6139.025	9.78433	0.84060	9.71124	0.75711
6143.031	9.76734	0.89874	9.65807	0.82522
6147.026	9.75307	0.82846	9.61578	0.77038
6151.023	9.81171	0.84949	9.57146	0.79714
6155.023	9.72414	0.84484	9.52659	0.73721
6159.028	9.73790	0.82598	9.47512	0.77621
6163.023	9.68638	0.81136	9.44160	0.76274
6167.025	9.67174	0.81231	9.43849	0.77706
6171.029	9.52495	0.89846	9.42842	0.70772
6175.024	9.45875	0.91809	9.39813	0.72729
6179.020	9.45097	0.87077	9.40368	0.75863
6183.034	9.37460	0.88255	9.43752	0.76159
6187.024	9.45020	0.86315	9.51870	0.73706
6191.029	9.38028	1.01002	9.49586	0.81594
6195.019	9.32233	1.02663	9.49137	0.81401
6199.023	9.33352	1.06050	9.53400	0.84961
6203.022	9.32241	1.06195	9.63358	0.92220
6207.025	9.31424	1.13740	9.68819	0.98175
6211.026	9.31185	1.20653	9.74261	0.99060
6215.025	9.39943	1.17682	9.73885	1.02009
6219.019	9.36957	1.15575	9.77929	1.05373
6223.023	9.38037	1.23041	9.80419	1.04016
6227.026	9.36923	1.28458	9.81903	1.02357
6231.026	9.38385	1.30252	9.86163	0.98268
6235.020	9.36486	1.29234	9.88357	0.92320
6239.026	9.41134	1.27316	9.96128	0.89325
6243.022	9.42049	1.23943	10.03772	0.75404
6247.019	9.51225	1.18548	10.03323	0.65959
6251.043	9.65105	0.98365	10.11510	0.68782
6255.028	9.59264	0.16864	10.31179	0.36336
6259.024	9.79599	-0.46357	11.12973	0.01987
6263.019	10.12003	-0.71953	11.62766	-0.44214
6267.026	10.30178	-0.87118	11.73390	-0.55701
6271.022	10.45905	-0.92400	11.17395	-0.98819
6275.026	10.52521	-1.02113	11.25049	-0.71710
6279.028	10.68276	-0.96402	11.14161	-0.71288
6283.022	10.69781	-0.96188	11.38848	-0.58737
6287.022	10.76774	-1.03050	11.29269	-0.68900
6291.021	10.78685	-1.08507	11.48678	-0.77428
6295.026	10.78645	-1.10798	11.41867	-0.73652
6299.024	10.85373	-1.11679	11.48911	-0.74552
6303.021	10.87438	-1.08021	11.40918	-0.77963
6307.032	10.82090	-1.12196	11.33034	-0.72508
6311.026	10.66354	-1.15938	11.27930	-0.72982
6315.022	10.60718	-1.18462	11.24812	-0.68372
6319.020	10.59100	-1.17428	11.17352	-0.69211
6323.027	10.53010	-1.14848	11.12928	-0.66143
6327.022	10.51151	-1.22074	11.14488	-0.65376
6331.100	10.48356	-1.26256	11.15539	-0.68911
6335.027	10.44530	-1.24972	11.08084	-0.72181
6339.026	10.41093	-1.22983	11.09377	-0.73967
6343.350	10.43232	-1.18991	11.03121	-0.77585
6347.043	10.51815	-1.31241	10.94459	-0.82610
6351.034	10.46373	-1.33376	10.97353	-0.89870
6355.021	10.50057	-1.28887	11.00333	-0.87954
6359.026	10.52988	-1.22882	11.01732	-0.92498
6363.020	10.61217	-1.19217	10.95143	-1.00977
6367.025	10.62902	-1.08666	11.00171	-1.02135
6371.016	10.64470	-1.09007	10.94842	-1.05068
6375.019	10.63746	-0.93108	10.91078	-1.06774
6379.021	10.65194	-0.90431	10.91152	-1.04920
6383.016	10.74506	-0.84916	10.94189	-1.03224
6387.019	10.73212	-0.90907	11.06325	-1.00687
6391.024	10.75275	-0.73903	11.11504	-0.94568
6395.020	10.78120	-0.73123	11.16194	-0.91268
6399.014	10.77493	-0.81442	11.08003	-0.87405
6403.019	10.80922	-0.77938	10.98090	-0.96438
6407.018	10.83663	-0.90636	10.91688	-0.93020
6411.033	10.83204	-0.96404	10.99874	-0.93179
6415.022	10.86976	-0.89538	10.95806	-1.02138
6419.019	10.87510	-0.96409	10.96160	-0.99781
6423.023	10.86342	-1.05120	11.08500	-0.97933
6427.020	10.79655	-1.03462	11.00262	-1.11688
6431.017	10.68310	-1.05115	10.94134	-1.15162
6435.023	10.53058	-1.07055	10.94292	-1.18556
6439.021	10.61615	-1.14906	10.84638	-1.18993
6443.024	10.61701	-1.19041	10.88281	-1.19385
6447.015	10.51688	-1.11441	10.87489	-1.18428
6451.018	10.56606	-1.02471	10.90516	-1.17537
6455.019	10.50361	-0.91791	10.87098	-1.17019
6459.019	10.56124	-0.88027	10.83043	-1.13929
6463.014	10.56836	-0.81561	10.86692	-1.13369
6467.024	10.56478	-0.58063	10.80833	-1.13133
6471.019	10.60155	-0.64584	10.78300	-1.09697
6475.025	10.64885	-0.57796	10.81628	-1.04173
6479.040	10.68633	-0.65555	10.78750	-1.00696
6483.023	10.73512	-0.57250	10.81252	-0.99826
6487.021	10.63482	-0.49923	10.82167	-0.92920
6491.018	10.34806	-0.35046	10.74223	-0.90723
6495.014	7.51639	-0.26234	8.92801	-0.92293
6499.026	5.58063	-0.37141	7.36264	-0.79054
6503.019	3.56771	-0.19518	6.00541	-0.93124
6507.024	2.33187	-0.18964	3.44275	-0.82796
6511.016	0.49572	-0.24013	2.63750	-0.78033
6515.028	-1.15206	-0.27544	1.20117	-0.67271
6519.024	-3.00816	-0.28075	-1.29802	-0.57146
6523.024	-4.02191	-0.31674	-2.68457	-0.54123
6527.017	-5.90188	-0.08406	-4.57063	-0.24535
6531.025	-7.12767	-0.09646	-5.46780	-0.10154
6535.019	-7.67801	-0.10291	-6.16910	-0.14969
6539.023	-7.98702	-0.04110	-6.66464	0.21998
6543.017	-7.98987	0.19283	-6.48271	0.39995
6547.015	-8.03798	0.32550	-6.26255	0.58574
6551.024	-8.03781	0.43400	-6.33777	0.73814
6555.019	-8.11515	0.27422	-6.40153	0.53857
6559.025	-8.17629	-0.07349	-6.43341	0.63502
6563.017	-8.22124	0.04174	-6.64831	0.57589
6567.021	-8.19389	0.14706	-6.82992	0.67312
6571.018	-8.25695	0.09723	-6.84005	0.62458
6575.017	-8.23496	0.03337	-6.91831	0.56084
6579.017	-8.25474	0.24535	-6.94054	0.68080
6583.018	-8.25039	0.44921	-7.02115	0.60155
6587.016	-8.21427	0.64319	-7.08874	0.60198
6591.036	-8.18745	0.27525	-7.01220	0.56048
6595.019	-8.20284	0.29669	-6.96626	0.51094
6599.024	-8.12989	0.08489	-6.99922	0.53359
6603.018	-8.11311	0.26613	-7.05237	0.54573
6607.028	-8.13191	0.32343	-7.03839	0.59039
6611.036	-8.07917	0.36950	-6.92415	0.55846
6615.020	-8.00961	0.48095	-6.95206	0.59373
6619.028	-7.99686	0.51886	-6.99773	0.55093
6623.013	-8.06713	0.60010	-6.95501	0.43459
6627.021	-8.09143	0.32823	-6.94447	0.48802
6631.017	-8.02234	0.31409	-7.01883	0.37009
6635.017	-7.96247	0.33161	-7.15618	0.47621
6639.014	-7.99106	0.48211	-7.14062	0.54006
6643.027	-8.06258	0.46131	-7.17539	0.47609
6647.018	-8.11393	0.46142	-7.25655	0.53763
6651.019	-8.06891	0.44843	-7.16745	0.39193
6655.014	-8.06285	0.30631	-7.27763	0.48432
6659.016	-8.09309	0.29652	-7.26407	0.16887
6663.017	-8.04540	0.28238	-7.31196	0.34316
6667.020	-8.13706	0.36957	-7.42146	0.36936
6671.019	-8.12072	0.41935	-7.39566	0.33358
6675.018	-8.13507	0.40637	-7.31572	0.41044
6679.010	-8.20797	0.43448	-7.29340	0.37933
6682.890	-8.25168	0.43933	-7.32190	0.36905
6686.898	-8.17661	0.38955	-7.22331	0.41240
6690.894	-8.14643	0.38907	-7.28442	0.43119
6694.896	-8.23474	0.41183	-7.33176	0.38092
6698.891	-8.18417	0.42142	-7.34301	0.46428
6702.894	-8.30896	0.44553	-7.20587	0.39713
6706.889	-8.28235	0.50300	-7.33803	0.42249
6710.895	-8.25097	0.51356	-7.39474	0.44920
6714.891	-8.21135	0.52857	-7.32465	0.42576
6718.895	-8.13692	0.65347	-7.43493	0.36982
6722.887	-8.12167	0.69420	-7.36533	0.31628
6726.895	-8.10800	0.97941	-7.36335	0.29371
6730.898	-8.14696	0.77810	-7.42107	0.16721
6734.891	-8.10746	0.74362	-7.48063	0.16921
6738.890	-8.16185	0.87646	-7.45033	0.12041
6742.890	-8.23663	0.82014	-7.40777	0.03450
6746.893	-8.10785	0.76258	-7.50027	0.08867
6750.911	-8.16537	0.61697	-7.48232	-0.00271
6754.895	-8.17901	0.50871	-7.45794	-0.08170
6758.893	-8.23539	0.60329	-7.46316	-0.04866
6762.921	-8.26084	0.62196	-7.45958	-0.10129
6766.892	-8.23554	0.61126	-7.49020	0.01343
6770.895	-8.29032	0.55942	-7.50917	-0.00165
6774.892	-8.45701	0.83334	-7.51035	0.64056
6778.893	-8.98017	2.63337	-7.77926	1.55807
6782.890	-9.37469	2.50471	-8.00338	1.98468
6786.893	-10.00408	4.59528	-9.24764	3.23441
6790.889	-10.43040	5.34542	-9.56764	4.86861
6794.891	-9.45283	5.79908	-9.12379	6.49659
6798.888	-10.27232	6.30007	-9.35387	7.32714
6802.892	-9.98783	7.16111	-8.99324	7.63974
6806.889	-10.35522	7.61691	-9.24762	8.86623
6810.893	-10.38356	8.16991	-9.34217	9.36899
6814.897	-10.35008	7.97598	-9.19880	8.63736
6818.887	-10.01503	7.66269	-9.18816	8.16024
6822.889	-10.37169	7.62437	-9.32581	8.24720
6826.891	-10.57438	7.59693	-9.41274	7.94642
6830.886	-10.54502	7.64570	-9.33548	7.78306
6834.892	-10.47669	7.45529	-9.24936	7.98892
6838.890	-10.27705	7.52056	-9.26314	8.46421
6842.886	-10.56078	7.61431	-9.26210	8.67500
6846.887	-10.63192	7.62499	-9.29647	8.69703
6850.889	-10.73418	7.57181	-9.28294	8.84412
6854.896	-10.47352	7.50523	-9.26307	8.84351
6858.889	-10.33029	7.46409	-9.27419	8.60179
6862.889	-10.43491	7.48341	-9.38233	8.71921
6866.890	-10.41892	7.45539	-9.42644	8.84362
6870.884	-10.55953	7.49347	-9.41564	8.75538
6874.892	-10.54857	7.39494	-9.41668	8.78959
6878.891	-10.68415	7.45722	-9.41796	8.73949
6882.887	-10.54483	7.48256	-9.45913	8.82745
6886.885	-10.44950	7.42254	-9.41008	8.77350
6890.904	-10.32878	7.42232	-9.40450	8.70270
6894.912	-10.23574	7.39325	-9.39504	8.64503
6898.902	-10.32664	7.43256	-9.38622	8.56217
6902.892	-10.36242	7.46028	-9.46708	8.64677
6906.889	-10.45627	7.47735	-9.39286	8.62390
6910.889	-10.44561	7.44224	-9.34367	8.59715
6914.886	-10.45154	7.46324	-9.33555	8.60665
6918.888	-10.46505	7.47222	-9.31066	8.67571
6922.896	-10.35042	7.48243	-9.34669	8.83851
6926.891	-10.34163	7.39945	-9.31803	8.67021
6930.887	-10.35532	7.44487	-9.29715	8.62784
6934.885	-10.38531	7.44907	-9.32156	8.67535
6938.896	-10.39513	7.56031	-9.35425	8.69151
6942.882	-10.41073	7.59999	-9.35858	8.69543
6946.890	-10.38327	7.58079	-9.34225	8.72623
6950.887	-10.29351	7.56482	-9.35360	8.63555
6954.891	-10.28967	7.68702	-9.35107	8.56281
6958.891	-10.29957	7.72537	-9.36909	8.52862
6962.887	-10.31045	7.78732	-9.40177	8.49572
6966.911	-10.28522	7.75877	-9.38511	8.55036
6970.880	-10.31504	7.82716	-9.37453	8.56910
6974.890	-10.30214	7.88395	-9.38180	8.53028
6978.893	-10.24608	7.91549	-9.40900	8.62209
6982.885	-9.97231	7.91577	-8.87210	8.75831
6986.888	-9.17965	7.91454	-7.06388	8.64236
6990.889	-7.15892	7.94987	-5.23644	8.58153
6994.883	-6.20499	7.97125	-4.15233	8.69632
6998.888	-5.66165	7.89908	-3.65957	8.61083
7002.886	-3.87492	7.61579	-3.32093	7.95701
7006.888	-4.72112	7.62754	-2.98933	7.30098
7010.883	-4.13594	7.39869	-2.97661	8.24736
7014.888	-4.51050	7.60259	-3.17104	7.51375
7018.884	-4.56834	7.46534	-3.28919	7.23949
7022.897	-4.49287	7.28774	-3.25738	7.09992
7026.886	-4.60833	7.28047	-3.06605	7.16288
7030.903	-4.56940	7.25398	-2.97218	7.20219
7034.889	-4.59852	7.25841	-2.94173	7.06929
7038.888	-4.50584	7.19990	-2.90673	7.22535
7042.885	-4.48549	7.19229	-2.81860	7.07682
7046.886	-4.54321	7.25275	-2.88757	7.03641
7050.890	-4.56025	7.27705	-2.93168	7.13993
7054.885	-4.54705	7.28086	-2.90314	7.11304
7058.888	-4.52340	7.20753	-2.88193	7.04952
7062.888	-4.51329	7.20726	-2.85581	7.13119
7066.889	-4.50500	7.21961	-2.81764	7.17284
7070.885	-4.52691	7.22576	-2.83709	7.20451
7074.888	-4.54022	7.14579	-2.87029	7.13115
7078.888	-4.54782	7.12001	-2.88116	7.18349
7082.884	-4.54994	7.13436	-2.91846	7.20602
7086.887	-4.60244	7.21045	-2.93478	7.24512
7091.181	-4.60740	7.18404	-2.89856	7.24498
7094.887	-4.62172	7.17373	-2.86584	7.26724
7098.882	-4.61605	7.11600	-2.90594	7.24504
7102.892	-4.62582	7.14889	-2.92574	7.25592
7106.890	-4.57031	7.26681	-2.96218	7.33455
7110.882	-4.48991	7.25662	-3.05823	7.37814
7114.886	-4.42947	7.30918	-3.10302	7.40824
7118.885	-4.38097	7.29013	-3.21812	7.40213
7122.882	-4.38117	7.38737	-3.30985	7.39817
7126.885	-4.35610	7.40313	-3.31294	7.36757
7130.885	-4.31255	7.43762	-3.36997	7.36068
7134.887	-4.22812	7.43324	-3.36876	7.32746
7138.881	-4.13628	7.41770	-3.34057	7.21917
7142.888	-3.56734	6.77376	-2.97710	7.02187
7146.890	-0.56947	5.94196	1.48188	5.76928
7150.888	0.21929	4.43921	2.58910	3.33718
7154.880	1.77072	3.01111	4.65010	2.61967
7158.882	3.20874	2.42023	6.52360	0.64207
7162.888	4.69884	1.73769	7.46655	0.37359
7166.887	6.31902	1.38799	8.77477	0.18372
7170.883	6.77335	1.31077	9.81645	0.09895
7174.882	8.43122	0.82710	10.38411	-0.12551
7178.886	9.02183	1.12819	10.75586	-0.13554
7182.885	9.08203	1.16408	10.73976	-0.35402
7186.915	9.18992	1.13148	10.73840	-0.32929
7190.886	9.08442	1.04027	10.41542	-0.36630
7194.881	9.05357	1.16096	10.56953	-0.31155
7198.881	8.96201	1.03896	10.69398	-0.33034
7202.875	9.10008	0.99762	10.70687	-0.42877
7206.880	9.14757	1.04382	10.83941	-0.43380
7210.880	9.17701	1.03279	10.80771	-0.52159
7214.880	9.25062	0.97092	10.81243	-0.61005
7218.876	9.36191	1.02495	10.92382	-0.66440
7222.879	9.36544	0.98690	10.86129	-0.64617
7226.881	9.46358	0.96032	10.94703	-0.63078
7230.889	9.47705	0.92515	10.93839	-0.66815
7234.883	9.56779	0.97992	10.91406	-0.67530
7238.886	9.59612	0.94065	10.82382	-0.72014
7242.880	9.63923	0.97305	10.90059	-0.68870
7246.880	9.68356	0.95358	10.87017	-0.70117
7250.878	9.68785	0.86644	10.74824	-0.68610
7254.887	9.65409	0.89711	10.80216	-0.64463
7258.881	9.61173	0.87839	10.84765	-0.54983
7262.880	9.61313	0.86158	10.72699	-0.54226
7266.875	9.59522	0.84404	10.78180	-0.56203
7270.884	9.53045	0.75556	10.64592	-0.56023
7274.880	9.46773	0.75283	10.66994	-0.58341
7278.880	9.46184	0.62712	10.66448	-0.55300
7282.879	9.46124	0.62459	10.72285	-0.60289
7286.882	9.54949	0.50246	10.79234	-0.61259
7290.881	9.52026	0.48126	10.79097	-0.62133
7294.880	9.49818	0.47886	10.78652	-0.61863
7298.880	9.44921	0.34821	10.68739	-0.68560
7302.885	9.45179	0.32463	10.70090	-0.66712
7306.880	9.44025	0.31807	10.75430	-0.64747
7310.888	9.46198	0.35359	10.74285	-0.64173
7314.881	9.51030	0.52217	10.73409	-0.66821
7318.885	9.58948	0.50225	10.78470	-0.63784
7322.880	9.63163	0.54535	10.73677	-0.66181
7326.883	9.59083	0.51078	10.64688	-0.64294
7330.875	9.66055	0.48992	10.59032	-0.67381
7334.879	9.69675	0.57743	10.53391	-0.66338
7338.879	9.62393	0.63135	10.53636	-0.67898
7342.879	9.64475	0.70849	10.63816	-0.67036
7346.874	9.66014	0.72078	10.48260	-0.68780
7350.884	9.66084	0.73810	10.50256	-0.73517
7354.885	9.55695	0.75996	10.43304	-0.73169
7358.919	9.54293	0.68060	10.46695	-0.65793
7362.885	9.58779	0.63318	10.49721	-0.68774
7366.878	9.56967	0.63094	10.44597	-0.67649
7370.879	9.57915	0.61708	10.48655	-0.67481
7374.879	9.66376	0.64325	10.54380	-0.62987
7378.876	9.74885	0.58380	10.46841	-0.64529
7382.884	9.65708	0.44777	10.47794	-0.70471
7386.879	9.67140	0.50076	10.38747	-0.67728
7390.878	9.68127	0.47177	10.39426	-0.68340
7394.878	9.67796	0.49203	10.41959	-0.71137
7398.879	9.71744	0.55224	10.42994	-0.72381
7402.878	9.74183	0.50675	10.47369	-0.75935
7406.878	9.78438	0.55833	10.42149	-0.74553
7410.910	9.74598	0.60842	10.38896	-0.74272
7414.881	9.75061	0.59869	10.36000	-0.76097
7418.878	9.60381	0.63482	10.33048	-0.80020
7422.878	8.76833	0.59592	9.88680	-0.82769
7426.879	6.53093	0.12739	7.76913	-0.92063
7430.998	5.12585	-0.43207	7.34792	-1.06652
7434.877	4.56624	-1.18459	6.25791	-1.55315
7438.885	2.82167	-1.24884	5.49170	-2.31671
7442.879	2.27580	-1.33038	4.09157	-1.92283
7446.876	1.05267	-1.42700	2.54137	-2.48370
7450.876	0.11379	-1.52088	1.82921	-2.58041
7454.879	-0.27183	-1.67538	1.08485	-2.70955
7458.880	-0.02725	-1.76917	0.93522	-2.78652
7462.876	0.02035	-1.82440	1.09825	-2.64789
7466.881	0.16744	-1.87414	1.06929	-2.71867
7470.877	0.22209	-1.87945	1.01370	-2.79454
7474.880	0.19790	-1.92728	0.95683	-2.83583
7478.886	0.24641	-1.97009	0.95668	-2.90084
7482.878	0.22971	-1.99397	0.91502	-2.96592
7486.876	0.23120	-2.04308	0.83106	-3.05246
7490.877	0.25423	-2.04142	0.80436	-3.09326
7494.875	0.32387	-1.96425	0.81714	-3.16215
7498.876	0.35764	-1.92259	0.78635	-3.18746
7502.880	0.38680	-1.81461	0.79196	-3.08242
7506.874	0.42750	-1.78367	0.76225	-3.22196
7510.871	0.42894	-1.68973	0.72960	-3.24796
7514.881	0.41877	-1.62225	0.67771	-3.26140
7518.882	0.39105	-1.56822	0.64685	-3.28737
7522.882	0.36343	-1.54623	0.65958	-3.34420
7526.871	0.39455	-1.63174	0.64769	-3.36154
7530.880	0.41963	-1.58925	0.64861	-3.30803
7534.878	0.39174	-1.71330	0.62868	-3.29709
7538.756	0.33883	-1.68235	0.60409	-3.24993
7542.747	0.29932	-1.75053	0.61024	-3.20812
7546.772	0.27096	-1.84087	0.60096	-3.17810
7550.758	0.22815	-1.83355	0.57064	-3.18552
7554.748	0.16504	-1.87494	0.53560	-3.15163
7558.749	0.13545	-1.99006	0.54860	-3.10059
7562.750	0.10324	-2.04508	0.53002	-3.09567
7566.756	0.08788	-2.12827	0.51798	-3.07486
7570.754	0.01685	-2.17470	0.58404	-3.04304
7574.753	0.03703	-2.15388	0.63310	-3.03753
7578.752	0.01429	-2.17413	0.61990	-3.05778
7582.750	-0.00906	-2.19388	0.66923	-3.07153
7586.749	-0.02445	-2.17624	0.60650	-3.07776
7590.749	-0.04323	-2.16760	0.59535	-3.10799
7594.769	-0.02866	-2.20671	0.60419	-3.10046
7598.757	-0.02052	-2.21346	0.57895	-3.06185
7602.752	-0.00787	-2.26481	0.51339	-3.07959
7606.749	-0.01467	-2.29970	0.47962	-3.09049
7610.758	0.01085	-2.22623	0.43673	-3.07973
7614.753	0.02410	-2.24963	0.36993	-3.10929
7618.782	-0.01837	-2.33215	0.29692	-3.11523
7622.751	0.00047	-2.29895	0.32493	-3.05635
7626.750	0.04415	-2.27536	0.32824	-3.05410
7630.746	0.05356	-2.25159	0.34581	-3.03353
7634.751	0.12228	-2.22040	0.32893	-3.00714
7638.755	0.13027	-2.17410	0.28411	-3.00153
7642.749	0.14285	-2.17432	0.25870	-2.99774
7646.753	0.15335	-1.99460	0.26652	-2.96609
7650.749	0.16447	-1.89596	0.22117	-2.96514
7654.747	0.12255	-1.87256	0.24279	-2.97913
7658.747	0.16561	-1.78252	0.20028	-3.00204
7662.748	0.13521	-1.69213	0.21313	-3.01319
7666.747	0.13178	-1.67490	0.32675	-2.95371
7670.748	0.09555	-1.64123	0.25510	-2.95881
7674.752	0.02450	-1.60732	0.33456	-2.99061
7678.751	-0.06614	-1.61730	0.41561	-3.01982
7682.748	-0.07924	-1.57698	0.37380	-2.97342
7686.748	-0.10912	-1.55304	0.43653	-2.99756
7690.751	-0.13679	-1.60446	0.45698	-2.93359
7694.755	-0.15707	-1.63495	0.53376	-2.92766
7698.748	-0.17695	-1.66827	0.62211	-2.85844
7702.747	-0.22316	-1.69604	0.67712	-2.85311
7706.754	-0.22177	-1.70880	0.70891	-2.81043
7710.748	-0.26622	-1.69482	0.68486	-2.85263
7714.748	-0.25225	-1.65924	0.67451	-2.86074
7718.744	-0.27257	-1.65008	0.60957	-2.82831
7722.753	-0.26247	-1.62610	0.53821	-2.80554
7726.747	-0.26500	-1.67173	0.46822	-2.84230
7730.751	-0.19244	-1.65918	0.45170	-2.82850
7734.759	-0.18127	-1.70422	0.40427	-2.85685
7738.753	-0.17509	-1.65272	0.33588	-2.87214
7742.748	-0.22879	-1.63638	0.28642	-2.89199
7746.745	-0.33273	-1.76591	0.12506	-2.96399
7750.752	-1.75721	-1.74266	-0.25006	-3.13058
7754.749	-2.65394	-1.92778	-1.78572	-3.35931
7758.750	-3.30124	-2.60707	-2.10999	-3.42196
7762.745	-3.53021	-2.31440	-2.48772	-3.54048
7766.747	-4.65254	-2.56870	-3.05410	-3.32442
7770.745	-5.02531	-2.70287	-3.56420	-3.61242
7774.750	-5.28520	-2.51438	-4.08518	-3.53535
7778.752	-5.29681	-2.60138	-4.43147	-3.50261
7782.748	-5.07981	-2.75310	-4.30467	-3.58987
7786.751	-4.04196	-2.68033	-4.38215	-3.59908
7790.742	-4.46009	-2.74658	-4.46139	-3.57226
7794.754	-4.48712	-2.80375	-4.40695	-3.60456
7798.746	-4.48542	-2.80852	-4.45431	-3.55571
7802.748	-4.60330	-2.74975	-4.41512	-3.57651
7806.749	-4.70360	-2.71827	-4.38672	-3.56196
7810.750	-4.64238	-2.69367	-4.50281	-3.59133
7814.749	-4.59551	-2.68663	-4.49497	-3.55535
7818.753	-4.60819	-2.74943	-4.47138	-3.60328
7822.749	-4.57016	-2.79045	-4.42925	-3.65390
7826.746	-4.56560	-2.83515	-4.39942	-3.60065
7830.751	-4.63652	-2.81540	-4.36661	-3.58434
7834.749	-4.65676	-2.85163	-4.32229	-3.57557
7838.775	-4.69751	-2.82849	-4.30366	-3.62233
7842.745	-4.75706	-2.83225	-4.27765	-3.58578
7846.751	-4.84255	-2.81147	-4.25870	-3.59939
7850.746	-4.89168	-2.82920	-4.28278	-3.55097
7854.749	-4.97642	-2.82004	-4.26758	-3.57035
7858.784	-5.04048	-2.90290	-4.22402	-3.62004
7862.756	-5.02832	-2.87372	-4.21227	-3.67864
7866.746	-5.08392	-2.88044	-4.19413	-3.71513
7870.745	-5.07082	-2.87685	-4.21474	-3.80206
7874.754	-5.02514	-2.98899	-4.23219	-3.84771
7878.753	-4.99381	-3.00256	-4.23545	-3.89129
7882.746	-5.00787	-3.01121	-4.23063	-3.87153
7886.745	-4.99940	-3.01465	-4.21101	-3.80193
7890.757	-4.93208	-3.06068	-4.21987	-3.69487
7894.749	-4.92176	-3.04096	-4.21469	-3.62411
7898.748	-4.89454	-3.04012	-4.29103	-3.65874
7902.754	-4.90191	-2.99564	-4.27076	-3.50978
7906.749	-4.93780	-2.96215	-4.30492	-3.42309
7910.745	-4.90646	-2.83136	-4.35723	-3.29485
7914.749	-4.88350	-2.80107	-4.29621	-3.44606
7918.745	-4.87779	-2.74742	-4.27728	-3.33819
7922.748	-4.90851	-2.65231	-4.25914	-3.30824
7926.749	-4.90469	-2.65225	-4.24872	-3.28561
7930.745	-4.92733	-2.62067	-4.23922	-3.32109
7934.748	-4.95884	-2.61965	-4.25544	-3.33359
7938.743	-4.97805	-2.65759	-4.20289	-3.36499
7942.754	-5.01048	-2.66507	-4.17949	-3.41213
7946.745	-4.97044	-2.74894	-4.13814	-3.52504
7950.744	-4.92824	-2.80138	-4.10014	-3.63228
7954.742	-4.90378	-2.79694	-4.11024	-3.66415
7958.749	-4.91511	-2.84342	-4.10945	-3.64426
7962.746	-4.92413	-2.85995	-4.10858	-3.71918
7966.748	-4.85322	-2.90745	-4.03730	-3.65261
7970.743	-4.46107	-2.88851	-3.13378	-3.69370
7974.744	-2.61857	-2.69376	-0.43224	-3.48581
7978.748	-0.11275	-1.98971	1.87934	-3.05758
7982.747	1.80923	-1.64255	3.54222	-2.67557
7986.751	2.98418	-1.27741	5.11418	-2.22163
7990.743	4.58986	-1.09710	6.88489	-1.95291
7994.749	5.70153	-0.93081	7.99895	-1.76222
7998.739	7.23140	-0.54895	8.68511	-1.79312
8002.743	7.56600	-0.31515	10.04172	-1.43947
8006.743	8.50263	-0.12335	10.30653	-1.33908
8010.748	8.35082	0.14943	9.98119	-1.20869
8014.745	8.10700	0.36052	9.70688	-1.31847
8018.750	8.05767	0.40721	9.40400	-1.22494
8022.743	8.06562	0.17461	9.51539	-1.16313
8026.752	8.19100	0.39333	9.69414	-1.12931
8030.740	8.37305	0.35716	9.71454	-1.06424
8034.743	8.39909	0.42805	9.67676	-1.06154
8038.777	8.62877	0.55507	9.78867	-1.03260
8042.746	8.69409	0.60429	9.85404	-0.94396
8046.743	8.71084	0.61225	9.81968	-0.97794
8050.745	8.65031	0.60431	9.70567	-0.94345
8054.738	8.68043	0.66319	9.70437	-0.86363
8058.747	8.76263	0.57268	9.71213	-0.81715
8062.743	8.80209	0.61389	9.71090	-0.78510
8066.746	8.82201	0.67344	9.72308	-0.60910
8070.736	8.87047	0.67745	9.72845	-0.48018
8074.740	8.86536	0.71220	9.72018	-0.41778
8078.741	8.86621	0.72411	9.69776	-0.24175
8082.737	8.84096	0.67329	9.69537	-0.18525
8086.740	8.80750	0.65120	9.64767	-0.20568
8090.740	8.76350	0.65162	9.62130	-0.11275
8094.741	8.77703	0.70144	9.64207	-0.05755
8098.736	8.80270	0.69236	9.63349	-0.02011
8102.739	8.76888	0.68744	9.62615	-0.03180
8106.747	8.76421	0.61916	9.64463	0.04072
8110.749	8.76787	0.59329	9.63969	0.08775
8114.738	8.82267	0.58859	9.63640	0.04138
8118.741	8.79889	0.57328	9.62188	0.01022
8122.744	8.75138	0.55508	9.63363	-0.20030
8126.741	8.78697	0.60252	9.62034	-0.22388
8130.736	8.77131	0.58629	9.61962	-0.16547
8134.740	8.80095	0.60780	9.60683	-0.38419
8138.741	8.79317	0.58441	9.61824	-0.27121
8142.740	8.77390	0.58314	9.63103	-0.27711
8146.736	8.76358	0.61781	9.64960	-0.23020
8150.746	8.73717	0.65125	9.64137	-0.26115
8154.743	8.72803	0.65321	9.65360	-0.28120
8158.744	8.69348	0.67225	9.68623	-0.29369
8162.739	8.66135	0.67776	9.69778	-0.20678
8166.745	8.68240	0.66635	9.72696	-0.22410
8170.742	8.66518	0.63772	9.73754	-0.21011
8174.741	8.66962	0.63024	9.75895	-0.18306
8178.743	8.71157	0.61792	9.79185	-0.16193
8182.743	8.68684	0.57498	9.78510	-0.19409
8186.737	8.68623	0.53794	9.80836	-0.19567
8190.746	8.65499	0.51531	9.78457	-0.22764
8194.741	8.68434	0.50665	9.83228	-0.24215
8198.740	8.68342	0.51151	9.85505	-0.26622
8202.739	8.73073	0.44904	9.86531	-0.27140
8206.738	8.73010	0.43129	9.87965	-0.29357
8210.739	8.70907	0.41127	9.87890	-0.30811
8214.739	8.76251	0.37128	9.86274	-0.33890
8218.740	8.76782	0.36229	9.87996	-0.33396
8222.739	8.75439	0.35424	9.86042	-0.35029
8226.761	8.74588	0.34811	9.85628	-0.34721
8230.751	8.73305	0.37234	9.80939	-0.38320
8234.744	8.78248	0.32846	9.83920	-0.35072
8238.742	8.81474	0.35738	9.85787	-0.35188
8242.746	8.84312	0.34289	9.86141	-0.33535
8246.746	8.88496	0.36107	9.86341	-0.32761
8250.748	8.86883	0.33597	9.91086	-0.31183
8254.742	8.90393	0.30881	9.92333	-0.28758
8258.782	8.88831	0.33327	9.92827	-0.25659
8262.739	8.91173	0.33998	9.88885	-0.27104
8266.739	8.94338	0.33585	9.91943	-0.25767
8270.737	8.97138	0.38111	9.94180	-0.28926
8274.748	8.97842	0.39303	9.90852	-0.31792
8278.744	8.99743	0.47135	9.80228	-0.33994
8282.734	8.98707	0.46343	9.74825	-0.37759
8286.737	8.99867	0.54143	9.69482	-0.53550
8290.737	8.94360	0.56044	9.61749	-0.55400
8294.750	8.90509	0.64077	9.58116	-0.60945
8298.736	8.92769	0.64873	9.63397	-0.50564
8302.744	8.91316	0.60528	9.62760	-0.51366
8306.742	8.88942	0.64858	9.64176	-0.59876
8310.736	8.80032	0.66587	9.57853	-0.59410
8314.754	8.82179	0.61995	9.57032	-0.57662
8318.746	8.80190	0.53986	9.66660	-0.51605
8322.738	8.77269	0.49410	9.78223	-0.54337
8326.737	8.72522	0.51914	9.77732	-0.55447
8330.733	8.64730	0.48167	9.78864	-0.51270
8334.736	8.71897	0.46485	9.81674	-0.43590
8338.736	8.73119	0.46508	9.89330	-0.33843
8342.739	8.72636	0.44161	9.90667	-0.30679
8346.736	8.69513	0.45898	9.92625	-0.25889
8350.737	8.71528	0.45144	9.92370	-0.18184
8354.736	8.71140	0.44985	9.95793	-0.19068
8358.740	8.67211	0.47314	9.94368	-0.14054
8362.741	8.65766	0.50875	9.93340	-0.17048
8366.738	8.60033	0.53138	9.84272	-0.14308
8370.738	8.59536	0.61081	9.77266	-0.21861
8374.731	8.68543	0.68155	9.66776	-0.18196
8378.739	8.70953	0.76827	9.59616	-0.20094
8382.738	8.63859	0.72639	9.44196	-0.24515
8386.739	8.65038	0.72514	9.48289	-0.23585
8390.610	8.70391	0.77607	9.47768	-0.28377
8394.608	8.64808	0.82047	9.45158	-0.25151
8398.618	8.70922	0.75936	9.42970	-0.33811
8402.611	8.70088	0.72151	9.38900	-0.34023
8406.615	8.67672	0.74894	9.35370	-0.35581
8410.607	8.74038	0.66465	9.39402	-0.38759
8414.610	8.74925	0.64809	9.32702	-0.33684
8418.610	8.73313	0.56933	9.39016	-0.34317
8422.607	8.67915	0.50683	9.34174	-0.35867
8426.616	8.61390	0.50016	9.39605	-0.33101
8430.610	8.63360	0.44339	9.39716	-0.30159
8434.616	8.57631	0.39883	9.38153	-0.29479
8438.611	8.57267	0.40950	9.39743	-0.28632
8442.618	8.56503	0.40479	9.39318	-0.24361
8446.616	8.54996	0.40628	9.42260	-0.25394
8450.611	8.59407	0.39036	9.37991	-0.31043
8454.608	8.57510	0.44016	9.37786	-0.34782
8458.616	8.48199	0.39837	9.37728	-0.45738
8462.612	7.06772	0.41143	8.95268	-0.44045
8466.610	5.44950	0.32598	7.19444	-0.45426
8470.615	4.56474	-0.00010	6.54523	-0.69629
8474.609	3.51520	-1.22399	5.59818	-0.98183
8478.606	2.31894	-0.60578	3.71093	-1.16406
8482.632	1.61525	-1.30570	3.58052	-1.34640
8486.614	0.92016	-1.24754	1.83385	-1.81831
8490.611	-0.00921	-1.26223	1.25041	-1.81092
8494.615	-0.29354	-1.44570	0.36243	-2.28549
8498.611	-0.60404	-1.59976	0.31521	-1.90781
8502.613	-0.68928	-1.66269	0.14560	-2.01187
8506.606	-0.51657	-1.74030	0.06954	-2.01535
8510.614	-0.55503	-1.77194	0.28565	-2.01384
8514.609	-0.47249	-1.83963	0.23113	-2.09187
8518.609	-0.51850	-1.85384	0.24567	-2.17545
8522.609	-0.60848	-1.85109	0.24587	-2.17820
8526.609	-0.60354	-1.84285	0.26068	-2.15750
8530.616	-0.67320	-1.83602	0.18020	-2.15025
8534.615	-0.74191	-1.82246	0.15474	-2.16990
8538.606	-0.72965	-1.71230	0.11612	-2.12137
8542.616	-0.64479	-1.70571	0.14124	-2.20387
8546.610	-0.71342	-1.62003	0.15861	-2.26714
8550.608	-0.67402	-1.57967	0.13173	-2.39699
8554.609	-0.65722	-1.44867	0.06582	-2.48363
8558.607	-0.65565	-1.40825	0.05644	-2.53775
8562.613	-0.70139	-1.39299	0.01072	-2.65093
8566.607	-0.66183	-1.36243	-0.01846	-2.55216
8570.614	-0.74149	-1.34905	0.00211	-2.50462
8574.611	-0.68585	-1.40206	0.08021	-2.61118
8578.617	-0.67213	-1.44696	0.08661	-2.67994
8582.613	-0.67360	-1.57553	0.09336	-2.70877
8586.608	-0.69258	-1.64072	0.24857	-2.66524
8590.608	-0.65769	-1.72191	0.15630	-2.63579
8594.610	-0.61739	-1.73193	0.23785	-2.63697
8598.607	-0.59761	-1.83888	0.27654	-2.53512
8602.607	-0.61158	-1.94133	0.32558	-2.50924
8606.602	-0.62722	-1.99588	0.30880	-2.46338
8610.618	-0.64263	-2.03205	0.32049	-2.44959
8614.612	-0.62148	-2.05427	0.29515	-2.47561
8618.607	-0.66960	-2.11257	0.20130	-2.50410
8622.613	-0.66446	-2.13753	0.14660	-2.48362
8626.608	-0.67278	-2.16435	0.19512	-2.55093
8630.608	-0.70762	-2.14649	0.07723	-2.50923
8634.607	-0.72762	-2.11048	0.05246	-2.45302
8638.613	-0.73561	-2.14139	-0.01650	-2.40843
8642.607	-0.79052	-2.13380	-0.10391	-2.42177
8646.606	-0.81980	-2.16309	-0.16792	-2.46266
8650.612	-0.82915	-2.12743	-0.16948	-2.43888
8654.613	-0.84716	-2.14665	-0.24751	-2.42530
8658.611	-0.84290	-2.11715	-0.22078	-2.36904
8662.608	-0.81736	-2.13046	-0.13588	-2.27796
8666.606	-0.82513	-2.16244	-0.15997	-2.33368
8670.629	-0.82096	-2.16053	-0.13374	-2.24707
8674.615	-0.82617	-2.18335	-0.13459	-2.27309
8678.609	-0.82396	-2.27751	-0.09148	-2.25494
8682.608	-0.83220	-2.27800	-0.05212	-2.27434
8686.607	-0.82476	-2.26490	-0.00680	-2.24124
8690.607	-0.83324	-2.26537	0.01372	-2.23690
8694.617	-0.88448	-2.27117	0.05507	-2.20812
8698.611	-0.95487	-2.27641	0.04557	-2.15140
8702.650	-1.01047	-2.29934	-0.00350	-2.19636
8706.605	-1.03151	-2.30153	-0.00901	-2.18614
8710.610	-1.18919	-2.31319	-0.03199	-2.21400
8714.607	-1.22638	-2.28893	-0.07329	-2.18482
8718.617	-1.25972	-2.26208	-0.05584	-2.18192
8722.607	-1.29206	-2.20200	-0.08778	-2.20211
8726.614	-1.31734	-2.19196	-0.08823	-2.19224
8730.607	-1.32996	-2.13129	-0.09607	-2.23385
8734.607	-1.36739	-2.07706	-0.09937	-2.18971
8738.616	-1.36070	-2.05580	-0.11282	-2.20874
8742.610	-1.37764	-1.99068	-0.09947	-2.20477
8746.614	-1.36504	-1.97660	-0.09580	-2.15956
8750.606	-1.37340	-1.94351	-0.09937	-2.13770
8754.608	-1.31074	-1.88145	-0.10044	-2.11884
8758.605	-1.26567	-1.89853	-0.07120	-2.08459
8762.604	-1.24352	-1.86795	-0.09418	-2.02180
8766.604	-1.24778	-1.84033	-0.08217	-1.96911
8770.609	-1.21464	-1.86363	-0.11416	-1.91503
8774.607	-1.21779	-1.90083	-0.15759	-1.84840
8778.608	-1.18686	-1.87948	-0.16208	-1.86858
8782.609	-1.13876	-1.86611	-0.20403	-1.84294
8786.606	-1.14352	-1.89028	-0.22356	-1.81905
8790.610	-1.13553	-1.89245	-0.23304	-1.80505
8794.607	-1.11792	-1.87136	-0.27783	-1.78903
8798.611	-1.05597	-1.93285	-0.29620	-1.79933
8802.606	-1.02786	-1.90802	-0.38777	-1.80093
8806.603	-0.99067	-1.91398	-0.41695	-1.83113
8810.609	-0.93706	-1.93865	-0.44934	-1.84244
8814.607	-0.84024	-1.93289	-0.43130	-1.88537
8818.603	-0.77260	-1.90461	-0.34384	-1.89889
8822.609	-0.41653	-1.92422	0.83054	-1.90006
8826.605	1.24245	-1.95511	1.94719	-1.90780
8830.609	1.77491	-2.00623	3.80399	-1.95190
8834.601	2.25669	-2.04464	3.98724	-2.16308
8838.605	2.65718	-2.28870	4.69132	-3.11002
8842.603	3.60398	-2.61389	4.88082	-3.24030
8846.599	4.76342	-3.33973	6.74491	-3.83404
8850.611	4.82547	-4.03226	6.39751	-4.11503
8854.604	5.11861	-4.46919	6.15473	-4.08933
8858.615	4.95943	-4.17669	6.19368	-4.20643
8862.617	4.94950	-4.00176	6.06838	-4.17264
8866.606	5.01817	-3.80945	5.99404	-4.14277
8870.605	5.01585	-3.97549	6.04922	-4.19980
8874.602	5.00475	-3.94060	6.11793	-4.23851
8878.606	5.02174	-4.02689	6.10971	-4.24523
8882.602	5.00778	-3.96610	6.09187	-4.28788
8886.604	5.03866	-3.94704	6.19326	-4.32472
8890.610	5.07739	-3.91017	6.16456	-4.34424
8894.606	5.12159	-3.92082	6.16618	-4.35059
8898.608	5.15098	-3.90677	6.17327	-4.38990
8902.625	5.14544	-3.90710	6.12565	-4.38072
8906.603	5.20196	-3.86278	6.15129	-4.37294
8910.603	5.21530	-3.92842	6.14290	-4.40192
8914.606	5.23524	-3.93524	6.19258	-4.44026
8918.604	5.29191	-3.95714	6.24070	-4.42318
8922.603	5.32075	-3.95125	6.35751	-4.35585
8926.615	5.34703	-4.02674	6.38753	-4.39400
8930.606	5.35411	-4.16766	6.30617	-4.32763
8934.598	5.31315	-4.21251	6.38334	-4.31620
8938.601	5.32097	-4.11273	6.43657	-4.31484
8942.601	5.23935	-4.07511	6.53669	-4.29391
8946.606	5.19990	-4.02646	6.44581	-4.30880
8950.604	5.14993	-4.23986	6.30931	-4.43021
8954.600	4.77126	-4.45198	6.04831	-4.71557
8958.600	2.95983	-6.00640	5.18338	-6.18468
8962.602	1.57099	-8.54181	3.85387	-7.79688
8966.600	0.66129	-9.91072	2.85091	-8.08924
8970.600	-0.82913	-11.99441	1.65099	-9.14178
8974.602	-0.70548	-12.06693	0.26024	-9.88414
8978.603	-1.17036	-13.43979	1.39103	-10.52533
8982.605	-2.58024	-13.33237	-0.57920	-10.07802
8986.625	-1.89213	-13.42709	-1.29449	-10.34822
8990.605	-2.54435	-13.41342	-0.71300	-10.39116
8994.602	-2.51799	-13.22755	-0.62101	-10.26293
8998.601	-2.35457	-13.31011	-0.48098	-10.29610
9002.604	-2.36046	-13.31008	-0.72067	-10.38806
9006.603	-2.52944	-13.36947	-0.66900	-10.44278
9010.602	-2.57719	-13.19363	-0.61501	-10.48093
9014.597	-2.58965	-13.27438	-0.62528	-10.55477
9018.605	-2.60181	-13.29659	-0.68762	-10.62506
9022.602	-2.64569	-13.35286	-0.62776	-10.58468
9026.607	-2.59453	-13.25177	-0.65690	-10.60762
9030.605	-2.61191	-13.21932	-0.56309	-10.63450
9034.608	-2.58962	-13.26941	-0.52624	-10.65570
9038.599	-2.58009	-13.25594	-0.49723	-10.64752
9042.605	-2.62779	-13.35384	-0.52006	-10.66903
9046.604	-2.65525	-13.42269	-0.46641	-10.67574
9050.604	-2.67675	-13.55771	-0.39556	-10.60345
9054.601	-2.68346	-13.61650	-0.36846	-10.56749
9058.597	-2.66335	-13.48954	-0.37777	-10.46570
9062.597	-2.67534	-13.57238	-0.32300	-10.39325
9066.600	-2.65468	-13.40464	-0.42604	-10.37952
9070.641	-2.64086	-13.39397	-0.40658	-10.33547
9074.603	-2.64698	-13.35315	-0.49282	-10.33076
9078.600	-2.62610	-13.40719	-0.54843	-10.33952
9082.600	-2.63314	-13.39229	-0.68695	-10.27910
9086.597	-2.58598	-13.35018	-0.84669	-10.24644
9090.603	-2.55631	-13.34918	-0.96720	-10.23059
9094.596	-2.54608	-13.36771	-0.98090	-10.27099
9098.605	-2.47504	-13.53518	-1.02543	-10.33065
9102.599	-2.41747	-13.44508	-0.98251	-10.33559
9106.600	-2.41137	-13.36460	-0.89585	-10.36447
9110.609	-2.37885	-13.40709	-0.98792	-10.35192
9114.601	-2.41596	-13.48288	-0.93614	-10.35684
9118.600	-2.41162	-13.65111	-0.83441	-10.39305
9122.598	-2.36643	-13.46745	-0.97710	-10.33089
9126.599	-2.29847	-13.42556	-0.90406	-10.32115
9130.597	-2.30826	-13.38457	-0.95658	-10.33196
9134.602	-2.26168	-13.46653	-0.88006	-10.30406
9138.597	-2.26358	-13.49772	-0.83667	-10.32513
9142.616	-2.20991	-13.45837	-0.90798	-10.30339
9146.604	-2.24718	-13.43122	-0.84215	-10.32355
9150.599	-2.21011	-13.46374	-0.87629	-10.33697
9154.603	-2.23677	-13.42327	-0.84503	-10.37956
9158.602	-2.23097	-13.30473	-0.86783	-10.42296
9162.593	-2.18612	-13.33695	-0.87982	-10.47916
9166.598	-2.16634	-13.41999	-0.80791	-10.56713
9170.605	-2.11331	-13.47641	-0.84267	-10.66560
9174.601	-1.96816	-13.50686	-0.67377	-10.59434
9178.598	-1.73103	-13.41933	-0.50872	-10.67320
9182.602	-1.61381	-13.60283	-0.37772	-10.74502
9186.593	-1.95728	-13.88182	-0.08661	-10.85534
9190.604	-1.70048	-13.96205	0.06805	-10.91099
9194.605	-1.77038	-14.11548	0.17439	-10.99118
9198.603	-1.78887	-14.19855	-0.05750	-11.02848
9202.602	-1.78515	-14.23526	-0.14489	-11.10181
9206.593	-1.82083	-14.24890	-0.25264	-11.14449
9210.597	-1.84138	-14.24882	-0.33861	-11.23372
9214.600	-1.83397	-14.29835	-0.31084	-11.28273
9218.594	-1.84466	-14.22063	-0.48056	-11.33514
9222.596	-1.95490	-14.28956	-0.41772	-11.41316
9226.602	-1.98021	-14.31262	-0.59178	-11.47452
9230.598	-1.98326	-14.24934	-0.68846	-11.51082
9234.611	-2.01781	-14.21245	-0.80610	-11.47563
9238.604	-2.00361	-14.15192	-0.80665	-11.46816
9242.479	-2.07742	-14.14915	-0.69613	-11.43902
9246.483	-2.03833	-14.11613	-0.73494	-11.32244
9250.478	-2.03063	-14.02802	-0.68228	-11.15883
9254.472	-2.01612	-14.04272	-0.48120	-11.22574
9258.472	-2.06820	-14.04051	-0.07765	-11.18833
9262.469	-2.08659	-13.99706	-0.02566	-11.16725
9266.473	-2.00210	-13.94718	-0.18789	-11.13122
9270.479	-1.99401	-13.94077	-0.03028	-11.13010
9274.473	-1.99164	-14.02672	0.08614	-11.13818
9278.473	-1.98816	-14.18912	0.38879	-11.18518
9282.484	-1.99905	-14.36834	0.31332	-11.21697
9286.474	-1.90326	-14.12127	0.21619	-11.32518
9290.519	-1.93653	-14.19404	0.20517	-11.36367
9294.469	-1.87555	-14.14043	0.21509	-11.41596
9298.474	-1.49237	-13.80394	0.16313	-11.46741
9302.470	-1.35916	-13.90233	0.10902	-11.40914
9306.469	-1.21335	-13.83559	0.15149	-11.41378
9310.476	-1.38642	-13.83615	-0.01286	-11.38621
9314.470	-1.60774	-14.07944	0.14146	-11.29935
9318.475	-1.57850	-14.24917	-0.06798	-11.21825
9322.468	-1.39743	-13.67104	-0.17171	-11.08112
9326.474	-1.22712	-13.46476	-0.15821	-10.61969
9330.470	-1.32339	-13.34420	-0.10624	-10.59098
9334.473	-1.19088	-12.93664	-0.13863	-10.50071
9338.472	-1.49907	-12.84954	-0.21159	-10.30913
9342.472	-1.88668	-12.83841	-0.69997	-10.53382
9346.466	-1.76363	-12.50272	-0.98206	-10.95726
9350.470	-1.21521	-12.77132	-1.83541	-10.91166
9354.472	-1.47499	-12.96046	-1.33850	-10.85284
9358.479	-2.06592	-13.51113	-1.78595	-11.03307
9362.475	-3.32545	-13.21793	-0.81518	-12.56076
9366.475	-1.71389	-14.04808	-19.99372	-11.86083
9370.474	-1.84190	-13.91540	-19.99372	-11.92604
9374.467	-3.53500	-12.45410	-0.42395	-14.23879
9378.471	1.86201	-11.33922	-1.43592	-13.77151
9382.474	1.88992	-12.66243	-1.57714	-14.13294
9386.466	-1.12194	-13.93476	-1.92716	-12.52061
9390.473	1.51846	-13.20558	-2.30761	-11.45010
9394.472	-1.49800	-13.28812	-1.86821	-11.85075
9398.473	-0.71486	-13.49748	-1.21291	-12.29213
9402.474	-0.57218	-13.17128	-1.09743	-11.70512
9406.482	-1.33879	-12.74034	-0.74578	-11.11217
9410.475	-0.71166	-12.68329	-1.17483	-11.20080
9414.471	-0.55501	-12.14226	-1.34606	-11.10838
9418.468	-1.17406	-12.74300	-1.22094	-10.90331
9422.490	-0.88168	-12.66805	-0.97246	-10.89358
9426.477	-1.19108	-12.60677	-0.88892	-10.71676
9430.469	-1.33994	-12.54345	-1.03000	-10.67932
9434.475	-1.47191	-12.42718	-0.97214	-10.57988
9438.470	-1.50676	-12.40249	-0.91614	-10.53963
9442.469	-1.66490	-12.37788	-0.85386	-10.48266
9446.465	-1.59504	-12.28769	-0.79039	-10.44359
9450.473	-1.78498	-12.30525	-0.79744	-10.41920
9454.471	-1.79006	-12.27603	-0.74548	-10.46460
9458.464	-1.84852	-12.39622	-0.65647	-10.49079
9462.467	-1.76205	-12.39336	-0.66995	-10.50138
9466.468	-1.87267	-12.38457	-0.67235	-10.57525
9470.474	-1.93596	-12.49169	-0.77893	-10.64728
9474.468	-1.96216	-12.53449	-0.67367	-10.64290
9478.482	-1.96179	-12.57576	-0.72650	-10.71934
9482.474	-1.99520	-12.55822	-0.70325	-10.77297
9486.475	-1.92669	-12.53683	-0.76528	-10.86572
9490.477	-2.02391	-12.51259	-0.71903	-10.92549
9494.496	-1.97413	-12.55745	-0.75804	-10.99856
9498.465	-1.95666	-12.50461	-0.76476	-10.97220
9502.467	-1.92195	-12.45109	-0.76719	-10.94357
9506.467	-1.91952	-12.47337	-0.73119	-10.97317
9510.468	-1.93237	-12.47451	-0.76908	-10.96759
9514.462	-1.91806	-12.37646	-0.76935	-10.97647
9518.466	-1.89895	-12.39360	-0.78662	-11.00129
9522.467	-1.93782	-12.35215	-0.77526	-10.98295
9526.471	-1.91343	-12.36175	-0.79201	-10.99473
9530.463	-2.01702	-12.40882	-0.78538	-10.97895
9534.477	-1.97334	-12.46046	-0.78846	-10.96809
9538.474	-1.96164	-12.43980	-0.80002	-10.96761
9542.474	-2.02319	-12.48258	-0.81069	-11.00225
9546.468	-2.06329	-12.46803	-0.85647	-11.06391
9550.467	-2.07561	-12.50323	-0.91507	-11.09279
9554.468	-2.04800	-12.49951	-0.93656	-11.12636
9558.467	-2.04282	-12.50310	-0.92460	-11.09491
9562.471	-2.00083	-12.53099	-0.86029	-11.12613
9566.465	-1.86670	-12.65543	-0.81677	-11.13333
9570.471	-1.89498	-12.57160	-0.73637	-11.18759
9574.472	-1.97475	-12.55179	-0.69645	-11.23072
9578.468	-1.97634	-12.52276	-0.69692	-11.22065
9582.466	-1.88913	-12.52332	-0.71099	-11.22155
9586.468	-1.89166	-12.42480	-0.65655	-11.19243
9590.467	-1.71055	-12.36380	-0.72995	-11.14649
9594.465	-1.60561	-12.30129	-0.71660	-11.03729
9598.472	-1.17800	-11.28740	-0.78461	-10.89476
9602.467	-1.04414	-11.62168	-0.90622	-10.88017
9606.469	-0.92465	-11.81665	-1.34700	-10.99660
9610.487	-0.95626	-12.22846	-2.22842	-10.95429
9614.478	-0.90081	-12.69012	-4.59716	-10.57523
9618.473	-4.35454	-13.76458	-1.17193	-10.87146
9622.465	-8.45584	-9.45692	-19.99372	-11.73370
9626.470	-5.38083	3.43706	-19.99372	-11.92282
9630.467	-4.04564	4.80794	-19.99372	-11.98848
9634.466	-19.99372	-11.97717	-19.99372	-12.02043
9638.463	-3.54465	7.70740	-19.99372	-12.03454
9642.470	-19.99372	-12.07948	-19.99372	-12.04317
9646.468	-19.99372	-12.09663	-19.99372	-12.05011
9650.465	-0.33585	7.75902	-19.99372	-12.06284
9654.462	-19.99372	-12.17796	-19.99372	-12.07005
9658.475	-19.99372	-12.10810	-19.99372	-12.07108
9662.467	NaN	NaN	NaN	NaN
9666.463	NaN	NaN	NaN	NaN
9670.469	-5.02024	1.54884	3.98269	14.72554
9674.465	-4.20916	-11.63809	7.79439	6.31478
9678.470	-5.63547	-12.22656	NaN	NaN
9682.466	-2.25870	-13.60256	NaN	NaN
9686.465	-0.29577	-13.46717	-1.47598	-12.87864
9690.465	-0.39549	-13.17779	-2.57020	-12.83742
9694.465	-0.56932	-12.88050	-1.16362	-12.88103
9698.471	-0.86064	-12.59946	-0.76196	-12.42379
9702.469	-2.10434	-12.94213	-1.00764	-11.77111
9706.465	-2.11358	-12.99868	-0.79362	-11.55840
9710.472	-1.77340	-13.13130	-0.76858	-11.44877
9714.467	-1.96355	-13.23502	-0.67503	-11.34061
9718.466	-1.54093	-13.28937	-0.63511	-11.21522
9722.497	-1.53423	-13.48749	-0.62096	-11.18024
9726.468	-1.70236	-13.47641	-0.54143	-11.07875
