time (ms)	lx (deg)	ly (deg)	rx (deg)	ry (deg)
0.000	-0.63369	0.64410	0.46095	-0.07228
3.561	-0.65481	0.65565	0.47465	-0.05022
7.566	-0.63858	0.60877	0.44517	-0.04878
11.576	-0.62967	0.56176	0.52145	-0.03879
15.565	-0.65444	0.54854	0.50788	-0.04157
19.559	-0.64878	0.56216	0.49110	-0.05715
23.582	-0.67374	0.56807	0.46272	-0.07102
27.559	-0.67851	0.57333	0.48267	-0.07064
31.559	-0.68223	0.59776	0.42462	-0.08108
35.555	-0.66374	0.64345	0.42892	-0.05720
39.561	-0.66531	0.55192	0.41559	-0.01677
43.557	-0.71012	0.64968	0.39896	-0.02994
47.562	-0.73149	0.51984	0.37730	0.01638
51.561	-0.78079	0.57302	0.35176	0.00211
55.561	-0.80856	0.61714	0.30007	0.03884
59.558	-0.89508	0.62369	0.28567	0.02085
63.559	-0.88890	0.61139	0.27433	0.06103
67.565	-0.88371	0.66992	0.28709	0.11025
71.558	-0.90825	0.64711	0.26882	-0.05318
75.555	-0.86917	0.55080	0.33295	-0.16348
79.554	-0.91651	0.52282	0.34104	-0.46121
83.559	-0.96152	0.46634	0.35873	-0.41616
87.556	-0.95455	0.47864	0.37546	-0.36959
91.557	-0.95055	0.52453	0.39119	-0.34303
95.560	-0.93527	0.50222	0.38626	-0.27684
99.555	-0.94678	0.45333	0.39688	-0.30156
103.556	-0.92331	0.45924	0.36474	-0.35874
107.559	-0.93492	0.45840	0.36323	-0.31356
111.556	-0.99623	0.40020	0.35303	-0.38873
115.556	-1.03615	0.41317	0.33357	-0.27043
119.555	-1.08691	0.42876	0.25480	-0.21039
123.559	-1.08448	0.42317	0.29813	-0.10710
127.560	-1.08212	0.47400	0.26627	-0.06992
131.560	-1.07319	0.50568	0.26585	0.02331
135.563	-1.10160	0.53315	0.26766	0.04013
139.562	-1.13672	0.55920	0.25118	0.07870
143.556	-1.16166	0.54573	0.27778	0.13316
147.554	-1.18827	0.53112	0.30468	0.16385
151.561	-1.20093	0.51828	0.29473	0.19146
155.557	-1.19224	0.55099	0.28381	0.23658
159.555	-1.21650	0.52356	0.32965	0.24536
163.558	-1.20693	0.56078	0.34250	0.28089
167.555	-1.20284	0.58321	0.34695	0.29542
171.553	-1.20222	0.59076	0.33315	0.32971
175.563	-1.22863	0.58889	0.29240	0.31734
179.561	-1.18872	0.61096	0.26009	0.29085
183.557	-1.10864	0.62111	0.26428	0.27421
187.553	-1.02280	0.62829	0.25696	0.24729
191.559	-0.97452	0.67207	0.27801	0.23487
195.554	-0.85054	0.67778	0.31332	0.21161
199.556	-0.74082	0.67424	0.43797	0.18785
203.579	-0.63970	0.63968	0.82042	0.20737
207.558	-0.43462	0.61761	0.92651	0.10967
211.553	-0.32692	0.59242	0.79347	0.00981
215.564	-0.23733	0.59561	0.72548	-0.06781
219.555	-0.17370	0.62741	0.75819	-0.05158
223.553	-0.13374	0.59216	0.80116	-0.09524
227.558	-0.16873	0.60232	0.86912	-0.12411
231.557	-0.14915	0.61914	0.95276	-0.15429
235.585	-0.16079	0.57648	1.00965	-0.18920
239.552	-0.13131	0.58314	1.14218	-0.25386
243.556	-0.06745	0.59412	1.11574	-0.30404
247.555	-0.15603	0.57322	1.13320	-0.30613
251.551	-0.11255	0.58947	1.24511	-0.32323
255.555	-0.16139	0.59484	1.37590	-0.29567
259.560	-0.19335	0.58907	1.47712	-0.30050
263.557	-0.22028	0.56547	1.47821	-0.25760
267.554	-0.20234	0.55971	1.40953	-0.25902
271.563	-0.19656	0.53983	1.48801	-0.26977
275.606	-0.19062	0.53426	1.53042	-0.25928
279.567	-0.16921	0.53354	1.56833	-0.26921
283.558	-0.16310	0.50278	1.50318	-0.19935
287.553	-0.14414	0.48127	1.50036	-0.17488
291.552	-0.14203	0.45605	1.48518	-0.09765
295.552	-0.14484	0.37365	1.34058	-0.02499
299.560	-0.13297	0.24521	1.34108	0.03510
303.553	-0.13960	0.20570	1.30908	0.08869
307.553	-0.21130	0.18420	1.30342	0.06909
311.552	-0.27225	0.11520	1.30074	0.11375
315.556	-0.25937	0.19996	1.28554	0.11895
319.553	-0.35278	0.17262	1.28048	0.07408
323.554	-0.34221	0.14092	1.27527	0.04164
327.551	-0.37330	0.18738	1.26011	0.01871
331.556	-0.36246	0.25378	1.23880	0.00489
335.552	-0.35739	0.35481	1.24441	-0.11289
339.581	-0.40122	0.44826	1.27619	-0.14406
343.557	-0.41772	0.44140	1.28435	-0.23548
347.556	-0.42398	0.52841	1.28725	-0.29230
351.553	-0.38715	0.55689	1.28474	-0.30442
355.553	-0.34342	0.58783	1.26106	-0.36482
359.551	-0.37593	0.55776	1.25500	-0.37051
363.555	-0.35074	0.58770	1.27894	-0.41010
367.552	-0.37772	0.48655	1.27274	-0.41115
371.550	-0.35764	0.32464	1.30156	-0.39718
375.554	-0.40164	-0.07745	1.30561	-0.37813
379.556	-0.40611	-0.18845	1.27869	-0.32094
383.557	-0.41983	-0.20550	1.28132	-0.28865
387.550	-0.42115	-0.18249	1.26336	-0.14451
391.549	-0.45279	-0.27654	1.26582	-0.14419
395.555	-0.45733	-0.36310	1.24853	-0.08889
399.553	-0.48217	-0.32591	1.23032	-0.03237
403.552	-0.46937	-0.33264	1.21968	-0.01230
407.562	-0.46485	-0.37903	1.19274	0.04427
411.574	-0.46497	-0.37421	1.15726	0.09811
415.555	-0.45738	-0.29850	1.20068	0.10482
419.557	-0.43197	-0.16460	1.24595	0.13587
423.557	-0.43892	-0.12297	1.28894	0.16605
427.547	-0.42552	-0.08349	1.28727	0.17189
431.555	-0.40586	-0.01720	1.31845	0.15594
435.551	-0.39447	0.03312	1.32537	0.15633
439.550	-0.39400	0.09758	1.34557	0.12754
443.548	-0.39388	0.12054	1.37937	0.11797
447.553	-0.37859	0.14772	1.41588	0.09306
451.551	-0.37926	0.15709	1.42166	-0.00164
455.548	-0.37362	0.18711	1.40871	-0.05105
459.547	-0.34255	0.20085	1.40601	-0.08575
463.558	-0.31972	0.15767	1.37037	-0.16979
467.554	-0.25540	0.15262	1.40698	-0.32299
471.554	-0.18879	0.11249	1.41092	-0.41492
475.576	-0.20586	0.08319	1.42072	-0.46331
479.553	-0.14414	0.06550	1.40398	-0.44794
483.551	-0.09158	0.01352	1.40542	-0.51744
487.547	-0.01643	0.05574	1.41209	-0.51764
491.545	0.02631	0.08245	1.43009	-0.57359
495.546	0.10508	0.10804	1.51070	-0.55147
499.554	0.10711	0.16057	1.55239	-0.55705
503.551	0.11491	0.15185	1.54547	-0.53273
507.552	0.11481	0.18242	1.55588	-0.47871
511.569	0.11682	0.25908	1.51330	-0.40859
515.554	0.11726	0.22138	1.49428	-0.35080
519.425	0.14149	0.27031	1.51053	-0.36624
523.425	0.08421	0.26245	1.52709	-0.34428
527.424	0.09068	0.32840	1.50911	-0.32104
531.426	0.07641	0.30418	1.59417	-0.35528
535.425	0.05921	0.29051	1.57458	-0.33106
539.423	-0.04730	0.33171	1.53272	-0.36584
543.461	-0.01360	0.27108	1.49664	-0.36923
547.430	-0.04375	0.27252	1.49636	-0.40318
551.425	-0.10155	0.29682	1.49034	-0.42738
555.432	-0.18229	0.31913	1.48525	-0.43910
559.425	-0.17055	0.33474	1.44498	-0.38918
563.423	-0.19864	0.34781	1.46355	-0.38724
567.427	-0.21586	0.44536	1.36457	-0.34724
571.424	-0.23219	0.45691	1.41273	-0.29539
575.421	-0.27401	0.45005	1.33946	-0.33430
579.421	-0.33963	0.45517	1.29754	-0.34106
583.423	-0.39206	0.37906	1.27222	-0.35602
587.423	-0.42160	0.43849	1.24525	-0.31576
591.444	-0.42832	0.40604	1.21437	-0.25842
595.438	-0.42787	0.41206	1.12142	-0.22395
599.426	-0.36216	0.32959	1.07922	-0.25786
603.422	-0.37318	0.34070	1.10229	-0.28196
607.426	-0.34337	0.30750	1.10948	-0.27093
611.435	-0.31553	0.33178	1.17823	-0.27152
615.425	-0.31672	0.32835	1.31074	-0.29682
619.420	-0.27128	0.32567	1.28832	-0.29573
623.420	-0.29411	0.31752	1.32979	-0.25945
627.424	-0.21735	0.31349	1.42826	-0.22404
631.423	-0.19834	0.27833	1.30920	-0.16702
635.424	-0.20633	0.26645	1.13380	-0.02780
639.424	-0.27493	0.19546	1.23283	-0.00914
643.424	-0.33002	0.26670	1.29665	-0.00869
647.422	-0.37923	0.23156	1.27673	0.01123
651.422	-0.35988	0.15023	1.18639	0.00032
655.427	-0.39720	0.12593	1.24297	-0.06663
659.425	-0.30436	0.14455	1.38652	-0.05331
663.421	-0.27925	0.23042	1.42499	0.03942
667.427	-0.27540	0.33287	1.36139	-0.03292
671.420	-0.27910	0.51312	1.47104	-0.01543
675.422	-0.18390	0.60180	1.16885	0.23353
679.449	-0.24862	0.46956	1.19247	0.06758
683.435	-0.15521	0.58878	1.29640	0.06129
687.432	-0.03782	0.59713	1.27882	0.04497
691.424	-0.17836	0.51101	1.26517	-0.02402
695.421	-0.08862	0.64960	1.26048	-0.07773
699.420	-0.06405	0.63542	1.33919	-0.06260
703.424	-0.05959	0.64262	1.26269	-0.02283
707.422	-0.12863	0.62789	1.28385	-0.07075
711.422	-0.08227	0.62187	1.28182	-0.09738
715.422	-0.14414	0.60918	1.24620	-0.12071
719.425	-0.09322	0.60612	1.23116	-0.13388
723.423	-0.11064	0.67331	1.15543	-0.16710
727.424	-0.18576	0.59879	1.16210	-0.18427
731.422	-0.19705	0.65161	1.16679	-0.18546
735.420	-0.25421	0.66120	1.13963	-0.17403
739.419	-0.30451	0.64383	1.16937	-0.14723
743.422	-0.28275	0.70972	1.22695	-0.11599
747.444	-0.28208	0.61394	1.19249	-0.18568
751.429	-0.38593	0.57696	1.21149	-0.16538
755.418	-0.45768	0.48562	1.16711	-0.15145
759.424	-0.46304	0.36094	1.15975	-0.19314
763.427	-0.47061	0.34906	1.20921	-0.24287
767.419	-0.41514	0.30454	1.29283	-0.28455
771.424	-0.36628	0.28196	1.36253	-0.32426
775.428	-0.33191	0.28630	1.37089	-0.33184
779.424	-0.27520	0.23723	1.39329	-0.37866
783.425	-0.22229	0.25294	1.38245	-0.34503
787.421	-0.18990	0.26270	1.38022	-0.35136
791.421	-0.12741	0.28561	1.39562	-0.33235
795.417	-0.14273	0.35561	1.39530	-0.33881
799.446	-0.09242	0.43018	1.39289	-0.33511
803.425	-0.09570	0.43003	1.38404	-0.32836
807.425	-0.09977	0.48395	1.39788	-0.21433
811.417	-0.15618	0.48589	1.39455	-0.13949
815.444	-0.15129	0.51359	1.42035	-0.14172
819.422	-0.19147	0.55576	1.40276	0.00084
823.420	-0.17549	0.66225	1.41571	0.04300
827.421	-0.20311	0.69877	1.39242	0.23381
831.420	-0.22472	0.72801	1.37709	0.32182
835.417	-0.25155	0.73750	1.35571	0.41451
839.421	-0.27838	0.75621	1.33500	0.45289
843.420	-0.26371	0.74972	1.31213	0.45218
847.421	-0.23594	0.77745	1.30551	0.47794
851.421	-0.24835	0.77574	1.23332	0.48478
855.421	-0.23902	0.80970	1.20368	0.51415
859.418	-0.25696	0.79303	1.16317	0.53766
863.417	-0.23686	0.80105	1.17929	0.52417
867.419	-0.21795	0.79738	1.15401	0.57060
871.416	-0.21586	0.79904	1.14898	0.56958
875.417	-0.16764	0.80222	1.13543	0.51508
879.421	-0.14583	0.84595	1.11732	0.50388
883.438	-0.09872	0.90664	1.10150	0.49668
887.435	-0.09086	0.96132	1.11631	0.49678
891.423	-0.09391	1.03975	1.09485	0.47996
895.418	-0.04973	1.08747	1.06669	0.50277
899.418	-0.10121	1.04417	1.10497	0.47695
903.422	-0.10791	1.05453	1.07572	0.46946
907.418	-0.13374	1.04442	1.06547	0.43632
911.416	-0.19102	0.97525	1.03521	0.39257
915.416	-0.22792	0.91558	1.04684	0.35436
919.421	-0.32047	0.87096	1.05409	0.33896
923.417	-0.37338	0.85769	1.08210	0.31175
927.423	-0.43306	0.76007	1.10581	0.28313
931.418	-0.51850	0.73710	1.11569	0.22911
935.421	-0.49009	0.70722	1.15240	0.15865
939.420	-0.47932	0.69646	1.21368	0.10372
943.419	-0.44807	0.68176	1.23124	0.09677
947.415	-0.44765	0.64126	1.23449	0.08360
951.439	-0.44959	0.60774	1.25143	0.09088
955.426	-0.44001	0.60822	1.27755	0.06014
959.418	-0.33791	0.62885	1.28770	0.12113
963.416	-0.28391	0.62410	1.30881	0.10824
967.416	-0.21983	0.61770	1.32381	0.06581
971.427	-0.18938	0.61283	1.34180	0.02685
975.416	-0.16608	0.58858	1.35132	0.03933
979.420	-0.12932	0.56967	1.33289	0.08064
983.418	-0.19658	0.56127	1.30915	0.11052
987.418	-0.18655	0.53133	1.31868	0.08660
991.414	-0.13925	0.53894	1.31858	0.08024
995.417	-0.14181	0.53946	1.31225	0.06638
999.415	-0.11411	0.55126	1.36092	0.06817
1003.414	-0.14015	0.55988	1.36352	0.04072
1007.446	-0.16620	0.56607	1.35457	0.01568
1011.424	-0.18541	0.60547	1.34447	0.03431
1015.421	-0.21167	0.61424	1.32952	0.05426
1019.416	-0.13967	0.60779	1.29846	0.05682
1023.418	-0.11332	0.66222	1.28859	0.04820
1027.421	-0.06582	0.66481	1.27480	0.05863
1031.423	-0.06410	0.76285	1.24409	0.08293
1035.415	-0.00223	0.78946	1.21792	0.10762
1039.413	0.03879	0.82419	1.17170	0.14233
1043.417	0.02519	0.85897	1.13841	0.16256
1047.415	0.04231	0.88600	1.11683	0.17356
1051.422	0.00186	0.79977	1.09328	0.21436
1055.417	0.02772	0.71102	1.07636	0.26266
1059.417	0.05974	0.64754	1.10070	0.26728
1063.416	-0.00365	0.41142	1.10415	0.30161
1067.414	0.01869	0.46196	1.13759	0.32389
1071.417	-0.02303	0.42434	1.13779	0.35477
1075.414	-0.04621	0.47729	1.17691	0.34473
1079.439	-0.08691	0.38304	1.17237	0.29676
1083.423	-0.12305	0.34363	1.21797	0.24170
1087.419	-0.19124	0.36247	1.26182	0.22672
1091.417	-0.17740	0.26071	1.28536	0.18406
1095.426	-0.17501	0.26954	1.32600	0.12362
1099.416	-0.21164	0.30857	1.33939	0.07468
1103.419	-0.24688	0.30243	1.32059	-0.00224
1107.419	-0.18685	0.36446	1.29998	0.02507
1111.415	-0.15178	0.35613	1.30327	0.03394
1115.414	-0.15806	0.37385	1.30553	-0.02042
1119.411	-0.09418	0.39003	1.29447	-0.04400
1123.416	-0.10555	0.40461	1.29864	-0.02638
1127.419	-0.08465	0.43073	1.26088	-0.03960
1131.416	-0.07291	0.40725	1.30499	0.01771
1135.417	-0.06894	0.43952	1.30645	0.00060
1139.417	-0.10185	0.44370	1.29692	0.05205
1143.412	-0.08277	0.45396	1.29075	0.05013
1147.413	-0.08445	0.48599	1.38748	0.03652
1151.418	-0.07979	0.51690	1.44567	0.01560
1155.417	-0.12662	0.55051	1.44483	-0.04991
1159.416	-0.14814	0.55228	1.49158	-0.04176
1163.416	-0.15250	0.58165	1.46432	-0.11072
1167.411	-0.17070	0.60672	1.52528	-0.11687
1171.414	-0.17189	0.63035	1.53748	-0.09767
1175.418	-0.14518	0.64980	1.52528	-0.11667
1179.419	-0.14838	0.68632	1.52193	-0.10321
1183.412	-0.15094	0.68309	1.54128	-0.13245
1187.412	-0.13253	0.70275	1.54976	-0.09156
1191.417	-0.11793	0.67795	1.50614	-0.07484
1195.415	-0.13272	0.61812	1.47704	-0.08550
1199.411	-0.12610	0.65035	1.45170	-0.04345
1203.411	-0.10565	0.63778	1.42258	-0.00979
1207.416	-0.11069	0.67191	1.41358	0.01635
1211.444	-0.10763	0.67127	1.38118	0.02593
1215.413	-0.08567	0.65626	1.34815	0.05739
1219.421	-0.08438	0.67070	1.33907	0.10136
1223.441	-0.05073	0.73721	1.32761	0.10903
1227.419	0.01437	0.76046	1.30786	0.14831
1231.414	0.03867	0.77604	1.29814	0.21775
1235.411	0.04807	0.77825	1.30843	0.25794
1239.412	0.08929	0.86113	1.30702	0.28795
1243.408	0.11585	0.80168	1.29124	0.35619
1247.419	0.12180	0.72290	1.31783	0.35187
1251.417	0.11098	0.72620	1.31674	0.37542
1255.413	0.13233	0.72451	1.33120	0.40935
1259.419	0.10927	0.73082	1.27500	0.46296
1263.415	0.12771	0.72476	1.34852	0.41642
1267.410	0.14476	0.63243	1.40408	0.39093
1271.410	0.25361	0.58718	2.96156	0.33573
1275.413	0.72451	0.72547	4.04564	0.29849
1279.443	2.77884	0.87166	4.37779	0.31221
1283.429	2.83271	1.05185	5.03666	0.32988
1287.416	3.26022	0.97653	5.92262	0.26607
1291.425	3.41511	1.12320	5.88510	0.23435
1295.416	3.77629	1.21144	6.13466	0.15911
1299.416	3.96414	1.31950	6.03920	0.09623
1303.415	4.07871	1.37547	5.94813	0.05959
1307.415	4.04994	1.38129	5.90715	0.05984
1311.407	4.08041	1.45303	5.99684	0.03151
1315.414	4.16537	1.49190	6.04482	0.01628
1319.410	4.13073	1.49742	6.07027	0.02083
1323.411	4.21676	1.51739	6.13402	-0.00581
1327.410	4.31807	1.48985	6.19994	-0.04392
1331.414	4.36570	1.50865	6.23280	-0.08863
1335.411	4.39178	1.51969	6.25100	-0.10194
1339.411	4.38055	1.46566	6.16935	-0.11540
1343.422	4.32873	1.43919	5.89210	-0.02919
1347.413	4.28782	1.42788	5.93296	0.01340
1351.410	4.27918	1.47423	5.94312	0.06372
1355.408	4.19247	1.45819	5.90256	0.07371
1359.424	4.13078	1.45903	5.82088	0.14625
1363.412	4.08727	1.51531	5.89881	0.15977
1367.416	4.11488	1.51451	6.02207	0.18168
1371.288	4.09579	1.51269	5.95977	0.15662
1375.283	4.09123	1.49863	6.03677	0.17735
1379.283	4.06140	1.48890	5.87995	0.20084
1383.288	3.91660	1.50569	5.91550	0.27542
1387.307	3.97649	1.52624	6.06549	0.20188
1391.300	3.95004	1.52854	5.85399	0.24423
1395.285	4.00376	1.54393	5.99807	0.25832
1399.316	4.03426	1.61931	6.01527	0.32247
1403.286	4.12308	1.65824	6.02941	0.34757
1407.282	4.17823	1.68546	6.11488	0.36683
1411.287	4.22185	1.78259	6.11812	0.40715
1415.285	4.24159	1.74066	6.10828	0.36987
1419.284	4.29887	1.77870	6.08897	0.52172
1423.282	4.28414	1.73323	6.06816	0.58815
1427.305	4.42350	1.84083	6.02443	0.53544
1431.291	4.43567	1.79922	6.00293	0.52560
1435.310	4.43295	1.80212	6.05808	0.42548
1439.292	4.47718	1.73224	6.05516	0.17905
1443.285	4.52989	1.64153	6.03267	0.50045
1447.285	4.31437	1.62307	6.10576	0.37195
1451.281	4.28207	1.58117	6.10804	0.31028
1455.287	4.36962	1.51656	6.07643	0.22182
1459.283	4.51970	1.53930	6.12737	-0.00776
1463.288	4.63067	1.68347	6.03412	0.14123
1467.286	4.47341	1.75158	6.06657	0.15209
1471.282	4.41869	1.82290	6.08507	0.09147
1475.284	4.40031	1.64764	6.11947	-0.04640
1479.288	4.14806	1.63882	6.04833	0.02617
1483.285	4.32886	1.69266	6.08718	0.04947
1487.283	4.36587	1.78377	6.05579	0.04396
1491.279	4.43280	1.83157	6.06195	0.09956
1495.306	4.60242	1.92034	6.06357	0.10423
1499.286	4.53078	1.88770	6.06198	0.27329
1503.279	4.60853	1.97070	6.06401	0.18026
1507.285	4.50012	1.90488	6.07273	0.09172
1511.285	4.41166	1.93240	6.05646	0.12390
1515.286	4.34912	1.95491	5.92140	0.18577
1519.280	2.76928	1.96945	5.41704	0.22517
1523.286	2.32588	2.01422	3.60378	0.35320
1527.287	0.14034	2.03689	2.32654	0.42762
1531.281	-1.65624	2.00248	0.34372	0.48702
1535.285	-2.72580	2.07359	-0.17256	0.54932
1539.287	-3.57599	2.12383	-2.71414	0.72410
1543.282	-3.94673	2.21012	-2.66989	0.68650
1547.280	-4.39543	2.37189	-3.07976	0.61130
1551.284	-4.00423	2.23083	-3.00554	0.69578
1555.287	-4.05559	2.08943	-2.96643	0.77701
1559.284	-3.95925	2.10243	-2.91005	0.86501
1563.304	-4.19625	2.07473	-2.93636	0.91272
1567.287	-4.18544	2.09332	-2.92359	0.98734
1571.288	-4.21313	2.07667	-2.98866	0.98160
1575.281	-4.16996	2.15266	-3.15018	1.04316
1579.283	-4.24322	2.18520	-3.14691	1.00618
1583.281	-4.32920	2.08590	-3.12195	0.95375
1587.281	-4.32042	2.01671	-3.13969	0.93575
1591.283	-4.38178	2.03929	-3.07288	0.91445
1595.288	-4.41684	2.01675	-3.08075	1.00558
1599.286	-4.42382	2.08124	-3.15392	1.15001
1603.286	-4.45478	2.11356	-3.20830	1.10578
1607.346	-4.41627	2.21213	-3.34700	1.21428
1611.286	-4.37537	2.25392	-3.41842	1.28166
1615.278	-4.28969	2.33702	-3.41788	1.42991
1619.277	-4.37246	2.28603	-3.38899	1.40595
1623.284	-4.28525	2.32185	-3.57347	1.49907
1627.280	-4.26714	2.31720	-3.59889	1.60663
1631.302	-4.29613	2.32867	-3.63498	1.60401
1635.285	-4.39688	2.21187	-3.64684	1.67015
1639.290	-4.42595	2.12700	-3.67736	1.67099
1643.281	-4.45145	2.09882	-3.68851	1.58618
1647.280	-4.50350	2.05981	-3.70542	1.62983
1651.278	-4.44571	1.99133	-3.71335	1.52218
1655.283	-4.44800	1.99370	-3.71266	1.50389
1659.277	-4.47647	1.99573	-3.76287	1.44488
1663.278	-4.55033	2.08971	-3.77540	1.38358
1667.279	-4.54927	2.14903	-3.73979	1.32540
1671.283	-4.60338	2.15827	-3.69491	1.16408
1675.285	-4.47338	2.13965	-3.64738	1.11362
1679.283	-4.38556	2.24590	-3.64953	0.91341
1683.285	-4.45089	2.05815	-3.66891	0.95675
1687.284	-4.32656	2.08737	-3.71589	0.97507
1691.278	-4.30374	2.19920	-3.70631	0.97342
1695.282	-4.28120	2.17710	-3.69827	1.03719
1699.279	-4.29998	2.27552	-3.75062	1.08482
1703.280	-4.37174	2.32413	-3.78721	1.08403
1707.283	-4.30788	2.28841	-3.76828	0.96894
1711.280	-4.30766	2.26446	-3.74355	0.97132
1715.283	-4.28925	2.25444	-3.70327	0.85631
1719.283	-4.36967	2.10964	-3.69961	0.82939
1723.281	-4.39173	2.05581	-3.69054	0.89587
1727.283	-4.44630	2.10275	-3.71599	0.90409
1731.279	-4.40971	2.06440	-3.71861	0.89869
1735.278	-4.43665	2.13227	-3.65099	0.92838
1739.275	-4.44627	2.11254	-3.70529	0.93033
1743.283	-4.44830	2.25216	-3.66555	0.94699
1747.280	-4.42222	2.46106	-3.56749	0.93660
1751.278	-4.38879	2.73108	-3.56277	1.05658
1755.276	-4.39720	2.73557	-3.78439	1.45919
1759.281	-4.42227	3.64194	-3.84441	2.01449
1763.287	-4.43372	4.62108	-4.50340	4.60012
1767.291	-4.49531	5.40070	-4.32094	4.65454
1771.284	-4.43421	5.39317	-4.68780	4.52985
1775.278	-4.47607	5.34547	-4.55317	4.57563
1779.279	-4.64162	5.43446	-4.47674	4.57513
1783.282	-4.81303	5.37869	-4.68651	4.52612
1787.278	-4.64786	5.42352	-4.61267	4.44243
1791.279	-4.77173	5.47078	-4.59509	4.47986
1795.277	-4.85115	5.47287	-4.70466	4.49160
1799.282	-4.87303	5.49192	-4.79568	4.54241
1803.279	-4.89156	5.36789	-4.76510	4.63717
1807.284	-4.82715	5.35271	-4.63447	4.56411
1811.305	-4.85196	5.39426	-4.58866	4.54068
1815.287	-4.93117	5.41328	-4.61682	4.54136
1819.306	-4.95613	5.36013	-4.62520	4.56853
1823.277	-4.97925	5.27218	-4.65365	4.63329
1827.273	-5.02462	5.28443	-4.70776	4.54341
1831.279	-5.12942	5.15344	-4.76192	4.59613
1835.293	-5.23019	5.13603	-4.75750	4.56649
1839.282	-5.10076	5.12032	-4.78964	4.67649
1843.281	-5.12085	5.04898	-4.72716	4.65595
1847.280	-5.14503	5.09881	-4.75450	4.68376
1851.300	-5.05149	5.22597	-4.81628	4.54833
1855.283	-5.02674	5.29369	-4.88909	4.58659
1859.275	-4.85090	5.40244	-4.88234	4.59259
1863.274	-4.75773	5.77773	-4.93391	4.63619
1867.277	-4.57216	5.37050	-4.90577	4.66878
1871.274	-4.68326	5.27464	-4.84211	4.67141
1875.276	-4.70550	5.45456	-4.87106	4.73134
1879.280	-4.72270	5.59847	-4.84465	4.77660
1883.276	-4.70044	5.61977	-4.87490	4.81604
1887.277	-4.71920	5.55079	-4.84558	4.73783
1891.282	-4.69914	5.55465	-4.84556	4.63203
1895.284	-4.74193	5.44618	-4.88560	4.66444
1899.277	-4.79366	5.37732	-4.84149	4.60310
1903.295	-4.85132	5.42710	-4.84083	4.73706
1907.277	-4.98669	5.32270	-4.84011	4.71785
1911.273	-5.01566	5.35439	-4.76586	4.58557
1915.278	-4.94654	5.35620	-4.71356	4.55398
1919.278	-4.97174	5.35789	-4.59460	4.52715
1923.275	-4.89752	5.32943	-4.53438	4.50882
1927.273	-3.88349	5.38433	-3.61579	4.61275
1931.285	-1.74466	5.28496	-0.54575	4.47261
1935.277	-0.06053	5.29036	1.64226	4.45323
1939.277	1.52240	5.18810	3.71804	4.26110
1943.273	3.18905	4.63595	5.86420	2.88998
1947.278	5.23406	4.43741	7.41556	2.56220
1951.299	7.48976	4.38474	9.58174	2.45389
1955.284	8.64417	4.32185	11.48392	1.82868
1959.272	10.84822	4.18958	12.64870	1.92475
1963.278	12.40749	4.07925	15.66503	1.62439
1967.273	14.39382	3.90288	15.60113	1.18053
1971.291	14.69968	3.79759	17.48458	0.59168
1975.285	15.27328	3.83882	17.69356	-0.03452
1979.274	15.04941	3.81010	17.55282	-0.11247
1983.273	15.00225	3.74359	17.01723	0.39671
1987.278	15.05751	3.73340	17.15881	0.24959
1991.277	15.08576	3.73912	17.10449	0.10564
1995.274	15.45963	3.72454	17.22794	0.30391
1999.272	15.74516	3.66359	17.35021	0.13176
2003.276	15.67777	3.65827	17.62614	0.10292
2007.272	15.42751	3.64408	17.88727	0.16826
2011.273	15.41128	3.69983	17.57373	0.20444
2015.281	15.41344	3.74986	17.13439	0.28502
2019.274	15.38094	3.70528	17.13405	0.31209
2023.274	15.39730	3.75387	17.01335	0.33012
2027.279	15.53561	3.71388	17.39926	0.27205
2031.279	15.72784	3.75194	17.68966	0.22538
2035.275	15.60079	3.77745	16.94845	0.31702
2039.315	15.48937	3.79883	16.83527	0.38342
2043.278	15.47978	3.77697	16.99170	0.51698
2047.273	15.38812	3.78808	17.10737	0.52673
2051.274	15.48241	3.72752	17.10562	0.34788
2055.277	15.57991	3.76420	17.06934	0.30284
2059.274	15.55934	3.74842	16.89207	0.30610
2063.272	15.56026	3.69822	16.88262	0.37657
2067.275	15.59096	3.76138	16.93905	0.48673
2071.272	15.63389	3.69695	17.00511	0.07652
2075.273	15.55780	3.53058	16.87923	0.19097
2079.271	15.54377	3.55416	16.83122	0.21087
2083.276	15.50020	3.53461	16.89848	0.58775
2087.277	15.55754	3.49719	17.01256	0.39418
2091.272	15.62618	3.62931	17.16527	0.14286
2095.278	15.76575	3.61313	16.73627	0.43100
2099.276	15.60832	3.61556	16.61368	0.55818
2103.280	15.61281	3.50701	16.84959	0.41390
2107.297	15.68081	3.60987	16.90863	0.56611
2111.278	15.70471	3.49149	16.89416	0.73164
2115.274	15.53181	3.32497	16.49116	0.63544
2119.273	15.67423	3.42431	16.61673	0.61176
2123.271	15.57615	3.50529	16.83584	0.69843
2127.275	15.68548	3.54561	17.01049	0.67514
2131.272	15.72265	3.58926	16.79759	0.76405
2135.270	15.66710	3.55980	16.74374	0.83088
2139.275	15.61265	3.55979	16.72505	0.72354
2143.272	15.63527	3.59964	16.83206	0.62075
2147.269	15.67223	3.61939	16.81703	0.71201
2151.269	15.66638	3.45377	16.84364	0.69472
2155.277	15.64841	3.31522	16.75348	0.58311
2159.271	15.62123	3.49177	16.79663	0.65179
2163.270	15.60224	3.50425	16.82681	0.63257
2167.272	15.73180	3.46234	16.80357	0.53674
2171.270	15.56874	3.35022	16.69860	0.46219
2175.294	15.45249	3.26518	16.52360	0.66380
2179.279	15.45329	3.18598	16.61040	0.64352
2183.279	15.60926	3.35039	16.78892	0.68093
2187.270	15.78609	3.39770	16.76458	0.42658
2191.272	15.53034	3.25393	16.48949	0.45833
2195.269	15.53002	3.27200	16.49878	0.59318
2199.275	15.48992	3.39106	16.77086	0.72158
2203.273	15.81447	3.38112	17.06385	0.51089
2207.273	15.72290	3.46661	16.36820	0.56680
2211.270	15.77924	3.40749	16.17722	0.63830
2215.273	15.65693	3.38350	16.61110	0.73671
2219.274	15.84679	3.44754	17.13203	0.62313
2223.275	15.84413	3.52839	16.66555	0.44575
2227.153	15.92372	3.41884	16.27668	0.60640
2231.151	15.73630	3.36145	16.31731	0.65875
2235.146	15.80544	3.41641	16.62423	0.68350
2239.144	15.83629	3.36053	16.99297	0.62616
2243.168	15.94103	3.34364	16.21995	0.47361
2247.151	15.83485	3.33285	16.01993	0.71049
2251.150	15.80726	3.30938	16.09526	0.74329
2255.147	15.82191	3.29768	16.66214	0.74398
2259.182	15.81842	3.28303	16.91304	0.68688
2263.143	15.79816	3.26524	16.57894	0.52342
2267.143	15.84082	3.30366	16.36482	0.70527
2271.150	15.77173	3.32495	16.51007	0.62227
2275.143	15.89935	3.33624	16.56225	0.65950
2279.183	15.89264	3.34421	16.48283	0.62184
2283.155	15.92262	3.36233	16.54198	0.77889
2287.151	15.81373	3.36715	16.46119	0.97127
2291.146	15.85524	3.39576	16.52316	0.74774
2295.147	15.94809	3.43574	16.53559	0.56719
2299.141	15.83845	3.42820	16.59647	0.66297
2303.146	15.74072	3.36786	16.63571	0.61554
2307.144	15.67128	3.42944	16.62844	0.66372
2311.148	15.67922	3.37078	16.53156	0.60327
2315.149	15.80119	3.38210	16.43834	0.79432
2319.145	15.67066	3.31322	16.47819	0.92935
2323.143	15.67989	3.32833	16.32634	0.70896
2327.141	15.61373	3.41173	16.29907	0.74276
2331.147	15.62908	3.49521	16.43594	0.66450
2335.145	15.62107	3.45420	16.66259	0.68569
2339.143	15.48342	3.27761	16.74929	0.75478
2343.147	15.53621	3.35752	16.61302	0.66116
2347.145	15.53055	3.31419	16.45167	0.72709
2351.149	15.63564	3.32895	16.35559	0.88941
2355.147	15.63380	3.30830	16.48869	0.91594
2359.148	15.62666	3.29568	16.36921	0.93164
2363.143	15.68256	3.38715	16.27243	0.80155
2367.141	15.70765	3.46282	16.35104	0.86707
2371.145	15.70756	3.47860	16.44170	0.93937
2375.147	15.69634	3.47014	16.51776	0.90568
2379.147	15.68384	3.50691	16.47778	0.91063
2383.147	15.66760	3.48896	16.48406	0.93318
2387.140	15.61149	3.44122	16.59152	1.02351
2391.148	15.59071	3.46625	16.47021	0.93430
2395.148	15.54206	3.47663	16.56741	0.94728
2399.149	15.48840	3.51351	16.60310	0.93030
2403.147	15.51184	3.54560	16.60465	0.97050
2407.144	15.47602	3.53557	16.64216	1.00984
2411.143	15.55812	3.52203	16.66357	1.12053
2415.142	15.51942	3.47987	16.63204	1.09073
2419.146	15.66144	3.46143	16.59321	1.11785
2423.144	15.56874	3.40790	16.56971	1.08932
2427.143	15.77157	3.35538	16.46875	1.11230
2431.142	15.78651	3.25182	16.40114	1.08378
2435.152	15.76566	3.37233	16.15490	1.02459
2439.143	15.52154	2.99647	15.88622	0.97907
2443.143	14.22706	1.23894	16.17196	-1.48200
2447.486	13.52531	0.44478	16.27305	-2.91338
2451.148	13.27485	-1.25167	15.84433	-3.92794
2455.144	13.12653	-3.23971	15.78995	-4.13830
2459.200	13.28982	-2.94289	15.80863	-4.50995
2463.144	13.23429	-3.49738	15.60544	-5.30425
2467.143	13.11806	-3.65804	15.52509	-5.79690
2471.141	13.15077	-3.70987	15.47245	-5.64721
2475.146	13.18113	-3.62522	15.32392	-5.49779
2479.147	13.20376	-3.47422	15.28127	-5.33225
2483.139	13.17868	-3.44000	15.17626	-5.63486
2487.139	13.14769	-3.50676	15.00885	-5.91733
2491.143	13.14404	-3.49650	15.00994	-5.88133
2495.145	13.19637	-3.53248	14.94111	-6.11336
2499.142	13.23412	-3.55324	14.80145	-6.10306
2503.138	13.28491	-3.49118	14.50290	-5.99434
2507.143	13.39046	-3.53771	14.65860	-5.99154
2511.142	13.40946	-3.54195	14.51584	-5.80534
2515.140	13.34282	-3.59009	14.50649	-5.77184
2519.148	13.28674	-3.59685	14.54486	-5.84072
2523.138	13.35875	-3.64757	14.55090	-5.99507
2527.148	13.31765	-3.62816	14.60560	-6.13721
2531.141	13.31960	-3.63005	14.44059	-6.00068
2535.143	13.32167	-3.63674	14.27431	-5.93983
2539.143	13.32912	-3.62748	14.13444	-5.85724
2543.142	13.31436	-3.56958	14.15493	-5.77700
2547.138	13.35992	-3.59039	14.32067	-5.78020
2551.137	13.31763	-3.51182	14.43436	-5.76251
2555.142	13.30188	-3.52951	14.61722	-5.73638
2559.145	13.31499	-3.55413	14.61181	-5.77101
2563.144	13.31098	-3.55486	14.39338	-5.68976
2567.144	13.25724	-3.50225	14.24688	-5.62085
2571.140	13.29079	-3.48498	14.19511	-5.59149
2575.139	13.33617	-3.49155	14.23554	-5.59076
2579.141	13.40946	-3.49329	14.39131	-5.62086
2583.167	13.41131	-3.50005	14.50546	-5.68544
2587.144	13.43322	-3.49509	14.55056	-5.66382
2591.140	13.36246	-3.46188	14.39350	-5.66066
2595.142	13.36925	-3.48638	14.28571	-5.68535
2599.137	13.36413	-3.41799	14.34804	-5.72118
2603.142	13.38665	-3.42184	14.18041	-5.74792
2607.143	13.34162	-3.39236	14.26485	-5.78377
2611.141	13.39699	-3.36579	14.29235	-5.79420
2615.138	13.36060	-3.44404	14.30431	-5.78059
2619.137	13.36683	-3.50482	14.39331	-5.76116
2623.142	13.29121	-3.65081	14.34976	-5.71994
2627.140	13.23158	-3.58571	14.34198	-5.70443
2631.141	13.23473	-3.73464	14.42102	-5.71913
2635.141	13.22373	-3.73977	14.55583	-5.77211
2639.138	13.17555	-3.80976	14.32081	-5.61479
2643.144	13.14953	-3.69500	14.44576	-5.55368
2647.138	13.10109	-3.82475	14.25201	-5.44764
2651.166	13.07335	-3.88638	14.21292	-5.48779
2655.145	13.03757	-3.89641	14.32856	-5.45052
2659.147	13.06412	-3.86433	14.31361	-5.52310
2663.139	13.05670	-3.79625	14.22573	-5.63934
2667.137	13.06341	-3.80704	14.18757	-5.87006
2671.141	13.08701	-3.81911	14.17325	-5.61778
2675.171	13.08486	-3.82471	14.08419	-5.62440
2679.141	13.06459	-3.78374	14.08479	-5.64455
2683.135	13.06760	-3.70548	14.13659	-5.72009
2687.145	13.09657	-3.72172	14.00966	-5.80558
2691.138	13.18454	-3.64430	14.00230	-5.81355
2695.138	13.22119	-3.57010	14.02952	-5.81952
2699.135	13.27553	-3.48488	13.95348	-5.74335
2703.139	13.39694	-3.47545	13.96304	-5.73120
2707.138	13.36095	-3.46985	14.06203	-5.73316
2711.135	13.15059	-3.67223	14.14532	-5.81521
2715.141	13.26135	-4.42919	14.41343	-6.09032
2719.159	12.98864	-5.20089	14.42451	-6.98059
2723.147	13.39668	-5.45640	14.39178	-7.28889
2727.139	13.15797	-5.92505	14.51907	-7.52374
2731.140	13.04346	-6.05570	14.53116	-7.70879
2735.138	13.25056	-6.09958	14.65811	-7.64943
2739.135	13.19063	-5.74239	14.64394	-7.65488
2743.134	13.28333	-5.69345	14.58020	-7.72880
2747.139	13.26250	-5.61856	14.64924	-7.66578
2751.138	13.23422	-5.78117	14.66977	-7.67604
2755.136	13.19014	-5.81068	14.61525	-7.71852
2759.134	13.25174	-5.87490	14.61827	-7.77099
2763.139	13.28512	-5.87338	14.34834	-7.65680
2767.140	13.26246	-5.88984	14.32810	-7.60833
2771.141	13.28355	-5.88706	14.22333	-7.54177
2775.139	13.28846	-5.85602	14.15381	-7.46261
2779.142	13.28724	-5.84660	14.10646	-7.43154
2783.135	13.31387	-5.83313	14.01440	-7.39100
2787.164	13.32524	-5.77552	14.00735	-7.32060
2791.149	13.31126	-5.79325	13.88523	-7.30423
2795.137	13.39107	-5.72712	13.87166	-7.28695
2799.136	13.44625	-5.78972	13.85412	-7.25946
2803.134	13.42338	-5.68359	14.03986	-7.21804
2807.139	13.35898	-5.67356	14.01291	-7.23307
2811.142	13.33290	-5.65169	14.02461	-7.23432
2815.139	13.30971	-5.66672	14.09346	-7.25608
2819.134	13.32860	-5.69822	14.24315	-7.27988
2823.139	13.29217	-5.78542	14.39236	-7.31488
2827.136	13.23720	-5.93683	14.37159	-7.36859
2831.136	13.23906	-5.97789	14.48132	-7.42053
2835.133	13.31196	-6.09018	14.51053	-7.49251
2839.137	13.23753	-6.21054	14.53749	-7.52801
2843.139	13.23607	-6.33777	14.57025	-7.56047
2847.135	13.17073	-6.51597	14.57959	-7.67299
2851.144	13.29866	-6.42230	14.65084	-7.62333
2855.144	13.36786	-6.42819	14.63026	-7.63927
2859.137	13.41716	-6.42949	14.68463	-7.59857
2863.137	13.39929	-6.43531	14.69383	-7.57882
2867.140	13.35877	-6.41179	14.59972	-7.55352
2871.136	13.40720	-6.26532	14.64392	-7.52314
2875.132	13.43148	-6.07058	14.63060	-7.47053
2879.133	13.34810	-6.04629	14.57155	-7.42776
2883.138	13.41814	-6.11472	14.43801	-7.38150
2887.137	13.42740	-6.12156	14.31894	-7.33660
2891.137	13.41610	-6.10189	14.11489	-7.28552
2895.141	13.34378	-6.10378	14.00693	-7.25165
2899.169	13.34575	-6.19395	14.11944	-7.17739
2903.137	13.37261	-6.17081	14.07506	-7.14033
2907.131	13.38224	-6.10606	14.05033	-7.10699
2911.138	12.55252	-5.87714	13.66126	-7.08980
2915.135	10.33139	-6.03479	10.99958	-7.06670
2919.132	8.62840	-6.17646	10.42151	-7.04670
2923.156	6.45339	-6.11154	7.85378	-7.01124
2927.138	5.25067	-6.17074	6.22265	-6.80339
2931.136	3.63747	-6.12696	5.27990	-6.71626
2935.140	1.96362	-6.59259	4.11866	-6.59620
2939.134	1.33242	-6.52483	1.78689	-6.36876
2943.131	-1.05523	-6.33118	1.12214	-6.26997
2947.135	-2.09571	-6.56748	-0.54421	-6.15544
2951.133	-3.34806	-6.45921	-1.74967	-6.08630
2955.131	-3.79499	-6.58858	-2.74645	-6.09077
2959.131	-4.01579	-6.99662	-3.02393	-5.94341
2963.135	-3.96985	-6.85588	-2.88579	-5.97800
2967.134	-3.86274	-7.10907	-2.87193	-5.97682
2971.139	-3.83322	-7.06688	-2.89641	-6.04876
2975.137	-3.81894	-7.13172	-2.83583	-6.07018
2979.138	-3.88648	-6.98353	-2.96676	-6.15690
2983.132	-3.96575	-6.92279	-3.03264	-6.23813
2987.135	-3.98220	-7.00806	-3.08872	-6.15617
2991.156	-3.99114	-6.80490	-3.11178	-6.28489
2995.139	-3.98062	-6.75243	-3.21990	-6.33351
2999.138	-3.91627	-7.02642	-3.18519	-6.35551
3003.132	-3.92588	-6.75981	-3.30356	-6.41269
3007.131	-4.29989	-6.70523	-3.31709	-6.39709
3011.134	-4.01566	-6.54914	-3.32956	-6.44745
3015.132	-4.00485	-6.57193	-3.39564	-6.47185
3019.137	-4.05725	-6.67061	-3.39141	-6.50237
3023.131	-4.07564	-6.77125	-3.47119	-6.51608
3027.133	-3.95807	-6.84586	-3.46209	-6.47447
3031.134	-3.96362	-6.72308	-3.43630	-6.56955
3035.130	-3.99553	-6.76482	-3.46778	-6.59836
3039.138	-3.96973	-6.82724	-3.50395	-6.61367
3043.134	-4.01129	-6.72548	-3.55276	-6.61754
3047.135	-4.19729	-6.75492	-3.57491	-6.68349
3051.129	-4.00734	-6.76578	-3.55896	-6.72649
3055.135	-3.94646	-6.82484	-3.72262	-6.71931
3059.157	-4.07434	-6.88899	-3.72242	-6.73856
3063.141	-3.93275	-6.75286	-3.72679	-6.78959
3067.136	-3.94031	-6.69517	-3.70126	-6.72936
3071.132	-4.00583	-6.74489	-3.78585	-6.83216
3075.129	-3.99786	-6.75933	-3.77970	-6.80180
3079.008	-3.88038	-6.72157	-3.74367	-6.72211
3083.008	-4.03391	-6.76747	-3.93132	-6.70865
3087.005	-3.93584	-6.89655	-3.72113	-6.66380
3091.007	-3.91561	-6.78955	-3.80935	-6.63745
3095.013	-4.01947	-6.77470	-3.89851	-6.62629
3099.005	-3.97580	-6.76853	-3.63698	-6.59107
3103.004	-4.02670	-6.78400	-3.78308	-6.57868
3107.040	-4.01974	-6.65331	-3.97481	-6.50708
3111.003	-4.00052	-6.79013	-3.80614	-6.42455
3115.003	-4.07537	-6.80547	-4.02085	-6.48210
3119.007	-4.02789	-6.67620	-3.82623	-6.35332
3123.005	-4.05122	-6.68264	-3.79932	-6.21378
3127.007	-3.99608	-6.69617	-3.97504	-6.30225
3131.006	-4.02221	-6.58304	-3.83203	-6.28634
3135.005	-4.07873	-6.65251	-3.72973	-6.34420
3139.008	-4.02487	-6.48946	-3.90723	-6.35683
3143.004	-4.02112	-6.54393	-3.81916	-6.20131
3147.008	-4.00860	-6.59868	-3.92131	-6.39487
3151.021	-3.92223	-6.53274	-3.88092	-6.25492
3155.005	-3.97975	-6.31448	-3.87764	-6.40615
3159.004	-4.01322	-6.02042	-3.81056	-5.89935
3163.007	-4.64283	-5.94994	-3.93833	-5.86359
3167.003	-5.56197	-3.06902	-4.14954	-5.27738
3171.001	-6.07528	-2.25650	-4.55177	-3.84531
3175.007	-5.87793	-1.28206	-4.93435	-3.19616
3179.003	-6.01557	-1.77301	-5.15687	-2.38809
3183.005	-5.92324	-1.58955	-4.64561	-2.37573
3187.000	-5.99090	-1.34056	-5.31115	-1.71926
3191.014	-5.99134	-1.18761	-4.89417	-1.94426
3195.003	-6.04593	-1.05944	-5.24845	-1.83609
3199.008	-5.85669	-0.96033	-5.08471	-1.78776
3203.002	-6.09425	-1.48701	-5.02442	-1.84438
3207.007	-6.07830	-1.20974	-5.32604	-1.54055
3211.005	-6.10323	-1.34515	-5.08980	-1.66907
3215.004	-6.07067	-0.91512	-5.34774	-1.46863
3219.007	-6.00045	-0.71904	-5.15268	-1.52144
3223.005	-5.97340	-0.55707	-5.27577	-1.02797
3227.003	-6.02808	-0.78193	-5.32730	-1.28792
3231.007	-6.01247	-0.50222	-5.37729	-1.26922
3235.008	-6.03510	-0.35666	-5.40216	-1.02123
3239.005	-6.11562	-0.02542	-5.53967	-1.00104
3243.003	-6.10664	0.74444	-5.66017	-0.01071
3247.002	-6.20136	0.87778	-5.78514	0.13417
3251.006	-6.11650	1.41169	-5.64970	0.74107
3255.003	-6.16290	1.51086	-6.04909	1.05088
3259.002	-6.24227	1.89863	-5.86926	0.77022
3263.004	-6.34515	1.88456	-6.08392	1.14250
3267.005	-6.32221	1.64441	-5.97116	1.22004
3271.004	-6.32140	1.86565	-6.17244	1.00915
3275.007	-6.37538	1.97569	-6.13257	1.02145
3279.013	-6.42910	2.00826	-6.23690	0.99947
3283.011	-6.38589	2.13621	-6.08136	0.83119
3287.004	-6.60069	1.95127	-6.14867	1.08581
3290.999	-6.44322	2.01714	-6.01147	1.05540
3295.006	-6.45147	2.04724	-6.06576	1.13192
3299.003	-6.49024	2.18910	-6.10858	0.98820
3303.003	-6.46877	2.10926	-6.11716	1.08056
3307.000	-6.46243	2.16360	-5.97966	0.99063
3311.006	-6.60987	2.04627	-6.03722	1.08806
3315.006	-6.57683	1.99791	-5.96704	0.92728
3319.006	-6.65199	2.07370	-6.03179	1.07263
3322.998	-6.67711	1.94754	-5.98898	1.19692
3327.004	-6.72871	2.12457	-6.01284	1.03974
3331.305	-6.65353	2.17744	-6.02887	1.37655
3335.005	-6.53455	2.27321	-5.99581	1.29698
3339.000	-6.68448	2.25444	-6.01714	1.31960
3343.005	-6.84571	2.03924	-5.95702	1.50334
3347.004	-6.58817	2.11169	-5.97340	1.43547
3350.996	-6.79623	2.20028	-6.01810	1.40821
3355.000	-6.77477	2.18639	-6.03758	1.41510
3359.012	-6.75480	2.34379	-5.96151	1.28841
3363.004	-6.64109	2.29493	-6.01191	1.37269
3367.000	-6.83303	2.34656	-6.01540	1.18758
3371.003	-6.68022	2.40136	-5.97838	1.26686
3375.002	-6.79961	2.27423	-5.97681	1.27158
3379.003	-7.01863	2.13660	-6.01046	1.21088
3383.005	-6.82562	2.12892	-6.02190	1.19406
3387.004	-6.85052	2.22184	-6.11179	1.12352
3391.002	-6.84869	2.18915	-6.05565	1.10040
3395.000	-6.86151	2.24405	-6.11721	1.07147
3399.012	-6.85676	2.30814	-6.06377	1.13316
3403.008	-6.78363	2.27622	-6.13601	1.12560
3407.000	-6.95761	2.34026	-6.11231	1.06726
3411.034	-6.77264	2.50147	-6.13495	1.21028
3415.000	-6.86819	2.30104	-6.17001	1.45789
3419.001	-6.98766	2.27914	-6.12085	1.21335
3422.995	-6.85194	1.96864	-6.12568	1.24196
3427.001	-6.82058	2.24937	-6.16518	1.45879
3430.999	-6.81877	2.46953	-6.05425	1.28782
3434.995	-6.74440	2.35404	-6.05052	1.32940
3439.003	-6.82239	2.40644	-6.06001	1.39902
3443.005	-6.78297	2.47802	-6.11486	1.42404
3447.025	-6.70783	2.33138	-6.10814	1.59200
3451.005	-6.71427	2.50271	-6.12273	1.49567
3454.998	-6.85459	2.53827	-6.06308	1.36681
3459.001	-6.70046	2.64888	-6.12779	1.35681
3463.003	-6.63813	2.59298	-6.16714	1.33953
3467.386	-6.73537	2.42523	-6.13498	1.21201
3470.999	-6.80719	2.59952	-6.11655	1.12653
3474.998	-6.81089	2.35761	-6.12987	1.20301
3479.003	-6.79024	2.46739	-6.14374	1.21063
3483.012	-6.81135	2.56246	-6.16211	1.14041
3487.001	-6.67840	2.38112	-6.15311	1.05895
3490.998	-6.80470	2.43619	-6.15021	1.05044
3494.999	-6.88064	2.57098	-6.17820	1.11750
3499.002	-6.76804	2.56951	-6.18475	1.08724
3503.003	-6.73478	2.49851	-6.12585	0.93494
3506.997	-6.95988	2.33310	-6.10887	0.96461
3511.002	-6.86312	2.50474	-6.23219	1.13613
3515.000	-6.83954	2.24233	-6.14114	1.32843
3519.000	-6.80979	2.33276	-6.15703	1.24690
3523.002	-6.78343	2.47265	-6.10073	1.16521
3527.021	-6.77744	2.55397	-6.12089	1.14665
3531.000	-6.78287	2.47063	-6.33843	1.18668
3535.001	-6.76978	2.59054	-6.11996	1.16979
3538.998	-6.73828	2.68546	-6.06652	1.15150
3543.003	-6.69419	2.46862	-6.04882	1.10377
3547.001	-6.80291	2.50725	-6.14533	1.15679
3550.997	-6.94949	2.48899	-6.08171	1.16130
3554.996	-6.74109	2.51257	-6.01002	1.05691
3559.001	-6.77059	2.41882	-6.03562	1.05150
3563.003	-6.89916	2.52112	-6.13328	1.01723
3567.000	-6.88521	2.25562	-6.15311	1.02934
3571.003	-6.81353	2.38530	-6.13542	1.04696
3574.997	-6.89375	2.39946	-6.06924	1.07811
3578.999	-6.93164	2.55184	-6.19032	1.15511
3582.996	-6.87269	2.53278	-6.09577	1.17113
3587.000	-6.93093	2.79671	-6.03933	2.02141
3590.999	-6.79241	3.57713	-5.86683	2.84450
3595.002	-6.39574	4.49165	-5.55725	3.86226
3599.003	-5.41935	5.64285	-5.06646	4.04666
3603.002	-5.02506	5.50813	-4.67037	4.33582
3607.005	-5.12070	5.35485	-5.08382	4.47996
3611.002	-5.55433	5.42211	-4.81675	4.39997
3614.999	-5.02866	5.37298	-5.04011	4.52186
3618.999	-5.41595	5.44837	-4.87867	4.29369
3622.995	-5.03698	5.54999	-4.83858	4.02006
3627.000	-5.01731	5.24335	-4.96430	4.34390
3631.028	-5.30599	5.31651	-4.75253	4.35265
3634.995	-5.54090	5.24905	-4.72618	4.35902
3638.993	-5.24521	5.11307	-4.69877	4.21145
3643.002	-5.07867	5.07731	-4.79563	4.46708
3647.002	-5.14419	5.07018	-4.84105	4.47375
3651.031	-5.48280	5.08030	-4.80039	4.27085
3655.004	-5.04600	5.19577	-4.80788	4.21968
3658.994	-5.24233	5.04359	-4.82932	4.22169
3662.994	-5.03625	5.15870	-4.80472	4.21524
3666.996	-5.07404	5.06943	-4.85462	4.36768
3671.023	-5.23868	5.19455	-4.76542	4.24828
3675.004	-5.11999	5.21432	-4.78346	4.18899
3678.995	-5.07518	5.27786	-4.77870	4.16035
3682.997	-5.15416	5.18679	-4.83713	4.23614
3686.992	-5.10706	5.33357	-4.82885	4.31669
3691.007	-5.14119	5.41096	-4.83664	4.39015
3694.996	-5.28404	5.39855	-4.86993	4.25832
3698.999	-5.35426	5.36186	-4.86909	4.33017
3702.993	-5.40208	5.37047	-4.87722	4.54927
3707.000	-5.42791	5.38137	-4.87623	4.50598
3710.997	-5.57328	5.37732	-4.85810	4.51673
3714.994	-5.56977	5.23111	-4.88018	4.57528
3719.001	-5.65476	5.05897	-4.88397	4.67326
3722.994	-5.66789	4.95341	-4.90501	4.65909
3726.992	-5.60784	4.94491	-4.90232	4.77756
3731.004	-5.63648	5.00529	-4.86446	4.64887
3734.997	-5.61151	4.95332	-4.82015	4.61441
3739.017	-5.39942	4.98717	-4.79780	4.63722
3742.999	-5.18011	4.93195	-4.78326	4.75624
3746.999	-5.13496	5.00206	-4.76177	4.72850
3750.996	-4.95132	5.05879	-4.76367	4.79073
3754.995	-4.93531	5.15170	-4.75506	4.83626
3758.991	-5.02462	5.23067	-4.76012	4.85737
3762.998	-4.85167	5.24539	-4.76443	4.90756
3766.992	-4.86098	5.31614	-4.75893	4.68587
3771.005	-4.82471	5.45632	-4.75677	4.67752
3775.051	-4.82212	5.43651	-4.79055	4.74707
3779.002	-4.83198	5.50187	-4.84363	4.88512
3782.994	-4.86616	5.50373	-4.89624	4.95353
3786.998	-4.88146	5.54602	-4.89129	4.89839
3790.995	-4.87406	5.56742	-4.89168	4.84736
3794.994	-4.86988	5.55048	-4.84497	4.70685
3798.992	-4.86571	5.50077	-4.85435	4.54037
3802.999	-4.85352	5.48224	-4.86142	4.59952
3807.004	-4.89215	5.46849	-4.86768	4.54009
3810.999	-4.90942	5.42313	-4.93344	4.67958
3814.996	-4.92856	5.44213	-5.00078	4.63784
3818.999	-5.00566	5.43223	-4.92206	4.69205
3822.994	-4.98797	5.41243	-4.92142	4.67784
3826.992	-5.03164	5.42882	-4.92001	4.63715
3830.990	-5.01137	5.38557	-4.78947	4.54738
3834.998	-4.99743	5.37484	-4.78853	4.51441
3838.995	-4.98421	5.34172	-4.83767	4.55658
3842.995	-5.07020	5.32377	-4.79413	4.57303
3847.033	-5.10359	5.28774	-4.79494	4.58393
3850.994	-4.98928	5.31996	-4.74967	4.64704
3854.999	-4.92043	5.28325	-4.76404	4.67199
3858.990	-4.84543	5.31403	-4.75302	4.75813
3862.996	-4.82501	5.31819	-4.74203	4.69897
3866.992	-4.82974	5.29716	-4.68015	4.66057
3870.994	-4.80574	5.29934	-4.69790	4.64972
3875.017	-4.83129	5.30606	-4.75373	4.74068
3878.995	-4.89673	5.36838	-4.76051	4.81800
3882.992	-5.01411	5.37063	-4.73029	4.75681
3886.990	-4.91245	5.42700	-4.73801	4.80171
3890.996	-4.77826	5.47436	-4.67700	4.78560
3894.993	-4.82225	5.49761	-4.67907	4.75555
3898.997	-4.86909	5.51300	-4.67564	4.71949
3902.989	-4.94511	5.53875	-4.71156	4.70867
3906.998	-4.93437	5.57496	-4.74932	4.75776
3910.990	-4.88564	5.64864	-4.85832	4.84121
3914.990	-4.85044	5.78932	-4.74979	4.87770
3918.994	-4.82924	5.72830	-4.82759	4.94818
3922.997	-4.91780	5.72071	-4.80105	4.87525
3926.993	-5.32004	5.68022	-4.93915	4.85319
3930.998	-7.12513	5.79027	-5.63410	4.89059
3934.868	-8.85230	5.75362	-7.28188	5.01637
3938.867	-11.09418	5.60392	-8.98160	5.05055
3943.015	-11.02873	5.53375	-10.06427	5.00874
3946.876	-11.75194	5.49349	-11.35990	5.10901
3950.878	-13.06318	5.11691	-11.61909	5.06505
3954.867	-13.26135	4.93108	-12.21328	4.98135
3958.866	-13.49483	4.93263	-12.51913	4.98643
3962.865	-13.52651	4.86783	-12.60065	4.99350
3966.870	-13.35762	4.98617	-12.28258	4.96005
3970.866	-13.06732	4.92814	-12.14933	4.99672
3974.870	-13.04954	4.95464	-12.21596	4.98438
3978.868	-12.98355	4.91579	-12.29493	4.93316
3982.865	-12.98966	4.95485	-12.40612	4.91065
3986.872	-12.94615	4.93626	-12.50747	4.93886
3990.872	-13.10351	4.84802	-12.49822	4.88175
3994.864	-13.04681	4.88477	-12.57512	4.87861
3998.866	-13.11483	4.96220	-12.57373	4.92691
4002.864	-13.05418	4.98357	-12.59207	5.03114
4006.869	-13.02566	4.92580	-12.50690	5.02163
4010.867	-13.09713	4.86419	-12.59108	5.11451
4014.869	-13.22780	4.89831	-12.64629	5.01326
4018.870	-13.11643	4.85826	-12.67759	5.03355
4022.865	-13.16689	4.88067	-12.69375	5.09724
4026.879	-13.15496	4.86534	-12.69533	5.08333
4030.868	-13.21717	4.82308	-12.71139	5.04092
4034.867	-13.22147	4.84334	-12.75198	5.12265
4038.866	-13.27790	4.82359	-12.72409	5.12475
4042.864	-13.25305	4.82586	-12.73680	5.17431
4046.868	-13.30280	4.79853	-12.72992	5.10522
4050.866	-13.33053	4.77671	-12.77809	5.13053
4054.867	-13.32973	4.73722	-12.76605	5.10161
4058.861	-13.31366	4.74078	-12.75823	5.09138
4062.895	-13.32813	4.69213	-12.82347	5.08469
4066.863	-13.35936	4.72728	-12.85079	5.11197
4070.867	-13.38773	4.76377	-12.88298	5.13953
4074.867	-13.42256	4.83830	-12.86334	5.14618
4078.864	-13.45944	4.77882	-12.77584	5.09305
4082.866	-13.47012	4.79572	-12.77901	5.14794
4086.868	-13.48991	4.76120	-12.79451	5.19495
4090.861	-13.46465	4.64370	-12.78137	5.24766
4094.863	-13.37251	4.70239	-12.72244	5.29111
4098.862	-13.41418	4.67005	-12.76829	5.24363
4102.859	-13.38602	4.66034	-12.74726	5.33610
4106.862	-13.42277	4.70283	-12.65526	5.37251
4110.866	-13.45186	4.74215	-12.63334	5.41236
4114.865	-13.46660	4.74129	-12.64629	5.32679
4118.869	-13.40692	4.75442	-12.58472	5.20619
4122.863	-13.32555	4.83626	-12.64813	5.28113
4126.861	-13.15847	4.83860	-12.65113	5.20396
4130.866	-13.13279	4.85780	-12.68056	5.21365
4134.863	-13.11429	4.89182	-12.73500	5.09069
4138.863	-13.15814	4.84413	-12.75594	5.05952
4142.867	-13.22368	4.80117	-12.76638	5.12904
4146.862	-13.28202	4.81599	-12.77074	5.07534
4150.872	-13.28110	4.89064	-12.72754	5.10022
4154.867	-13.21768	4.82295	-12.76579	5.03783
4158.865	-13.19023	4.89012	-12.83250	5.08857
4162.861	-13.17548	4.84961	-12.82734	5.10759
4166.863	-13.20484	4.89836	-12.84267	5.03103
4170.863	-13.30740	4.83352	-12.88294	4.98456
4174.862	-13.37665	4.83750	-12.87633	5.01505
4178.866	-13.40349	4.81368	-12.83265	5.06763
4182.864	-13.43200	4.77173	-12.82266	5.04158
4186.863	-13.43219	4.76239	-12.84664	4.98385
4190.861	-13.39003	4.76541	-12.84447	4.93164
4194.870	-13.31281	4.78770	-12.88532	4.92988
4198.869	-13.31737	4.79858	-12.88211	4.97414
4202.865	-13.32536	4.87652	-12.86902	4.96629
4206.862	-13.31542	5.01636	-12.76876	4.91313
4210.865	-13.26340	5.14296	-12.76548	5.00577
4214.869	-13.35708	5.09512	-12.76836	4.99141
4218.861	-13.29010	5.09657	-12.79876	4.97174
4222.864	-13.23210	4.97148	-12.84345	4.94612
4226.863	-13.09675	4.98348	-12.86253	4.87591
4230.864	-13.07420	4.97320	-12.85470	4.84874
4234.864	-13.11763	4.96500	-12.89409	4.96693
4238.865	-13.16379	5.13307	-12.93347	4.90848
4242.864	-13.13712	5.07015	-12.90996	4.94183
4246.862	-13.30783	4.99902	-12.99625	4.81528
4250.859	-13.39295	5.03774	-13.05548	4.84494
4254.865	-13.40795	4.96179	-13.03091	4.77905
4258.861	-13.33504	4.87088	-13.05915	4.68924
4262.864	-12.82009	4.85553	-12.78842	4.83499
4266.864	-11.75653	4.88477	-11.85091	4.85104
4270.862	-11.20581	4.87927	-9.91628	4.88178
4274.860	-10.63401	4.92063	-9.55999	4.91219
4278.897	-10.20575	5.01096	-9.22610	4.83229
4282.867	-9.28983	5.03946	-8.29304	4.80445
4286.862	-8.60754	5.06053	-7.32590	4.77640
4290.863	-7.15024	5.11429	-6.49737	4.55864
4294.860	-8.20527	5.04491	-6.35354	4.53273
4298.861	-7.74172	5.02167	-6.61124	4.64145
4302.859	-7.82065	5.08827	-6.82926	4.45795
4306.864	-7.81057	5.07731	-6.81554	4.42306
4310.861	-7.61504	5.15373	-6.94746	4.30279
4314.862	-7.66846	5.21454	-6.81794	4.36954
4318.863	-7.69303	5.20560	-7.01695	4.33843
4322.864	-7.67014	5.23406	-6.91415	4.36650
4326.865	-7.53686	5.24046	-6.92134	4.40042
4330.858	-7.52274	5.42031	-6.86058	4.32939
4334.857	-7.47185	5.30896	-6.94548	4.35807
4338.864	-7.37074	5.51109	-6.92912	4.47019
4342.861	-7.38810	5.39383	-6.95007	4.51355
4346.859	-7.18782	5.32284	-6.95942	4.47492
4350.882	-7.21555	5.32464	-6.95247	4.48391
4354.867	-7.25453	5.22759	-6.98199	4.51261
4358.862	-7.22104	5.29667	-7.02555	4.55829
4362.864	-7.21142	5.35199	-7.02651	4.59805
4366.859	-7.18088	5.32871	-6.99756	4.58172
4370.857	-7.19979	5.32509	-7.00069	4.56730
4374.863	-7.24341	5.22615	-6.99216	4.51526
4378.859	-7.30241	5.19765	-6.97172	4.60883
4382.862	-7.34738	5.14086	-7.02426	4.65502
4386.857	-7.31965	5.17523	-7.05679	4.60520
4390.865	-7.30910	5.16981	-7.05318	4.65853
4394.859	-7.23770	5.20828	-7.04489	4.77572
4398.860	-7.28771	5.23975	-7.02643	4.71844
4402.886	-7.25323	5.30511	-6.97150	4.65417
4406.869	-7.20722	5.35350	-6.89338	4.45964
4410.861	-7.13996	5.36563	-6.82699	4.36698
4414.857	-7.10020	5.37558	-6.81818	4.42752
4418.862	-7.14367	5.38118	-6.85857	4.53119
4422.862	-7.25997	5.27700	-6.92161	4.51877
4426.858	-7.11156	5.25419	-6.87736	4.49522
4430.862	-7.17458	4.97442	-6.86596	4.53789
4434.859	-7.22588	4.84997	-6.83443	4.45501
4438.858	-7.27270	5.00464	-6.83178	4.40939
4442.859	-7.37665	5.17900	-6.85018	4.38391
4446.871	-7.33828	5.05891	-6.86244	4.41738
4450.861	-7.13803	5.20249	-6.89081	4.45993
4454.858	-7.10225	5.01940	-5.77846	4.43282
4458.855	-4.57401	4.93935	-3.05754	4.52134
4462.862	-3.35921	4.92982	-2.15527	4.42412
4466.861	-2.31074	4.79405	-0.76260	4.21329
4470.866	-0.03757	4.86724	1.60652	3.98757
4474.858	0.56029	4.84547	1.96578	3.12444
4478.856	1.85415	4.78138	3.72966	2.37246
4482.855	3.20051	4.82133	5.36794	2.44319
4486.871	3.90279	4.45326	7.02352	2.47373
4490.857	5.41103	4.19653	8.37818	2.28276
4494.862	6.91955	4.40613	10.21178	2.08040
4498.859	8.32228	4.08716	10.54612	1.70977
4502.858	9.46983	3.90897	12.01547	1.14732
4506.857	10.95141	3.70815	13.27478	1.50115
4510.860	12.01316	3.78554	13.94848	1.45306
4514.857	12.05108	3.73969	14.96300	1.45482
4518.855	12.29161	3.47835	15.16500	1.44347
4522.854	12.40588	3.41476	15.56268	1.16017
4526.866	12.22234	3.39706	15.20307	1.05951
4530.859	12.24235	3.37435	14.88952	1.07478
4534.855	12.38422	3.24439	14.91198	0.62900
4538.861	12.40609	3.14328	14.91856	0.60543
4542.858	12.42060	3.01764	14.84489	0.33603
4546.854	12.40602	2.82937	13.91544	0.08753
4550.854	12.44512	2.85850	14.83673	0.36946
4554.882	12.42837	2.86256	14.86527	0.24017
4558.866	12.54996	2.68248	14.67279	0.03817
4562.858	12.52073	2.62281	14.60181	-0.19389
4566.861	12.51314	2.76018	14.69994	0.12799
4570.883	12.52986	2.71379	14.54751	-0.16664
4574.862	12.62329	2.72362	14.43084	-0.27711
4578.855	12.57150	2.66631	14.42332	-0.17267
4582.854	12.59817	2.64619	14.32414	-0.26624
4586.859	12.58978	2.64514	14.18780	-0.24142
4590.858	12.69750	2.64930	14.25779	-0.25150
4594.854	12.62400	2.64338	14.33124	-0.30299
4598.859	12.74034	2.70861	14.28322	-0.30185
4602.857	12.63591	2.67164	14.28669	-0.31189
4606.857	12.73373	2.77308	14.27653	-0.16922
4610.859	12.80999	2.78269	14.24049	-0.24873
4614.861	12.79187	2.73217	14.29315	-0.22857
4618.856	12.79730	2.73813	14.23883	-0.15359
4623.117	12.78462	2.73819	14.32311	-0.15818
4626.862	12.80055	2.75497	14.35696	-0.17012
4630.854	12.99507	2.74339	14.30303	-0.13898
4634.850	12.75531	2.76114	14.35736	-0.12138
4638.852	12.91465	2.71979	14.19623	-0.09566
4642.858	12.88018	2.73863	14.20154	-0.08682
4646.858	12.93453	2.75693	14.25762	-0.07933
4650.865	12.91088	2.70644	14.16979	-0.09909
4654.861	12.90984	2.62750	14.18050	-0.08615
4658.858	12.94778	2.63082	14.15962	-0.09551
4662.853	13.14362	2.62852	14.15269	-0.09814
4666.859	13.03411	2.59340	14.16184	-0.08363
4670.856	13.02283	2.55370	14.11589	-0.09938
4674.852	13.13030	2.58283	14.06371	-0.06012
4678.856	13.07771	2.57108	14.06221	-0.07873
4682.854	13.11010	2.64074	14.06362	-0.05886
4686.908	12.99826	2.58273	14.05042	-0.07441
4690.868	13.05590	2.56290	14.00319	-0.07916
4694.858	13.06664	2.55615	14.07805	-0.05647
4698.858	13.10179	2.58847	14.08440	-0.06107
4702.853	13.15146	2.62875	14.02449	-0.03387
4706.853	13.01543	2.56526	13.94357	-0.04356
4710.852	13.01074	2.51021	13.97367	-0.03677
4714.852	13.09164	2.55355	13.98218	-0.02843
4718.860	13.01282	2.51415	14.03617	-0.05615
4722.855	13.14030	2.52310	13.99260	-0.03429
4726.851	13.07431	2.45182	14.02685	-0.03944
4730.850	13.10370	2.46124	14.10658	-0.04728
4734.861	13.01687	2.47069	14.12347	-0.03010
4738.858	13.14327	2.43020	14.11423	-0.03405
4742.852	13.21519	2.40268	14.08963	0.00713
4746.851	13.18080	2.37029	14.10081	0.04131
4750.855	13.11055	2.39090	14.17159	0.00771
4754.853	13.06386	2.39493	14.14000	-0.03089
4758.855	13.13837	2.41696	14.11808	0.06244
4762.856	13.14503	2.45158	14.05659	0.07919
4766.857	13.35454	2.42392	14.07193	0.09774
4770.858	13.08402	2.50009	14.07529	0.09969
4774.860	13.21183	2.53593	14.04808	0.10529
4778.881	13.09023	2.53105	13.99059	0.10438
4782.863	13.11321	2.55675	13.91949	0.12839
4786.730	13.13849	2.56900	13.94425	0.12596
4790.729	13.16668	2.58351	13.89049	0.09668
4794.725	13.20957	2.59588	13.88747	0.14811
4798.730	13.20030	2.60896	13.91154	0.19754
4802.728	13.17409	2.59000	13.86888	0.15281
4806.727	13.20621	2.53917	13.86535	0.16615
4810.724	13.17480	2.54068	13.90195	0.17457
4814.733	13.19475	2.49327	13.87115	0.19953
4818.727	13.21239	2.50342	13.86787	0.24762
4822.734	13.21430	2.42857	13.82386	0.23514
4826.785	13.20806	2.37401	13.84303	0.23920
4830.744	13.22076	2.33588	13.81907	0.25619
4834.728	13.21841	2.38239	13.92669	0.28441
4838.726	13.30374	2.33353	13.94121	0.33631
4842.733	13.49868	2.29756	14.26289	0.32254
4846.731	14.12471	2.32513	15.73035	0.33579
4850.726	14.51770	2.45968	16.20776	0.55293
4854.725	14.52470	2.38552	15.91353	0.75450
4858.729	14.39231	2.30830	15.01144	0.71959
4862.732	14.16354	2.29924	14.64636	0.55503
4866.731	14.31046	2.28637	14.73657	0.55629
4870.729	14.21938	2.38630	14.93819	0.54915
4874.726	14.26620	2.50379	14.94229	0.52223
4878.728	14.44038	2.46327	15.11239	0.56369
4882.723	14.68419	2.52176	15.41365	0.51419
4886.730	14.66285	2.55550	15.27988	0.62147
4890.729	14.75502	2.66039	15.30956	0.63020
4894.748	14.59226	2.64578	15.25836	0.66412
4898.732	14.48257	2.75318	15.26242	0.67506
4902.730	14.69585	2.77965	15.19627	0.57539
4906.737	14.66053	2.74882	15.15270	0.52838
4910.742	14.60105	2.83456	15.19932	0.45602
4914.730	14.71990	2.85664	15.19644	0.42569
4918.725	14.69912	2.86881	15.26751	0.37005
4922.723	14.69885	2.81517	15.23318	0.37304
4926.722	14.60704	2.75664	15.21631	0.32766
4930.727	14.57506	2.51552	15.18143	0.37236
4934.725	14.49162	2.48086	15.09488	0.44252
4938.725	14.43626	2.66258	15.11454	0.46591
4942.723	14.37529	2.68019	15.06815	0.49656
4946.731	14.37040	2.61612	15.12134	0.54064
4950.756	14.39995	2.52291	15.22569	0.49151
4954.731	14.43815	2.68254	15.46994	0.45926
4958.722	14.42956	2.73808	15.53306	0.47803
4962.745	14.48997	2.73376	15.37642	0.44063
4966.734	14.49267	2.74036	15.28658	0.54008
4970.724	14.46736	2.79890	14.83251	0.67710
4974.725	14.46726	2.86287	15.04010	0.74651
4978.723	14.56151	2.83721	15.13771	0.69278
4982.727	14.62078	2.88048	15.29178	0.66450
4986.725	14.65895	2.86480	15.36186	0.63842
4990.727	14.65637	2.85627	15.50262	0.68645
4994.723	14.58812	2.88371	15.75612	0.63342
4998.726	14.59858	2.77827	15.64155	0.64103
5002.724	14.56558	2.73981	15.42200	0.76690
5006.722	14.56330	2.64243	15.13644	0.81140
5010.722	14.49213	2.64120	14.87802	0.94113
5014.726	14.58536	2.57188	14.95681	1.04675
5018.724	14.60846	2.60374	14.88414	0.84737
5022.724	14.54844	2.56446	14.94574	0.83244
5026.723	14.54014	2.54074	15.11614	0.85178
5030.751	14.58443	2.55391	15.22729	0.84649
5034.726	14.63546	2.51457	15.11449	0.79743
5038.723	14.67755	2.51449	15.32378	0.85506
5042.722	14.72984	2.52670	15.35754	0.80471
5046.727	14.69255	2.50770	15.39308	0.89144
5050.725	14.66798	2.50637	15.37455	0.84158
5054.722	14.72204	2.51141	15.15427	0.88431
5058.722	14.66406	2.53279	15.27910	0.95043
5062.725	14.68754	2.58121	15.30986	0.98383
5066.722	14.72536	2.60880	15.30268	0.96235
5070.721	14.70853	2.60099	15.20231	1.08430
5074.730	14.70902	2.60343	15.22682	1.03305
5078.725	14.68656	2.63313	15.26755	1.06005
5082.722	14.67606	2.62513	15.16567	1.04598
5086.721	14.59512	2.60020	15.10411	1.07231
5090.722	14.66698	2.58844	15.02253	1.05624
5094.722	14.74627	2.57016	14.96094	0.96695
5098.722	14.70493	2.56647	15.01767	0.86306
5102.722	14.66910	2.59846	14.88572	0.89214
5106.725	13.75170	2.53848	13.90815	0.90633
5110.751	11.25953	2.35383	12.27877	0.85224
5114.728	11.17216	2.52225	12.53157	0.78101
5118.730	10.85792	2.23886	12.05461	0.62884
5122.722	10.44220	2.13059	11.49276	0.43758
5126.718	9.88714	1.18770	10.82924	0.00605
5130.725	9.24046	1.21850	10.26706	0.12138
5134.722	9.07107	1.56923	9.40074	0.09005
5138.720	9.40511	1.21437	9.65447	0.20340
5142.724	9.37984	0.93144	9.66588	0.33388
5146.720	9.32888	0.90807	10.18550	0.32944
5150.718	9.18736	0.84881	10.23262	0.23647
5154.730	9.31395	0.90997	10.12060	0.22038
5158.722	9.27073	1.04345	10.09126	0.15048
5162.719	9.36629	1.06224	9.97320	0.19904
5166.731	9.26662	0.96866	9.72848	0.24749
5170.723	9.26558	1.10393	9.69805	0.26826
5174.719	9.26781	1.08232	9.59351	0.26101
5178.718	9.29703	1.00048	9.80578	0.27432
5182.724	9.34505	1.06135	9.76011	0.20417
5186.724	9.38856	1.08361	9.80337	0.14214
5190.719	9.47799	1.15407	9.77785	0.12952
5194.720	9.49284	1.16168	9.73446	0.26683
5198.728	9.44460	1.12340	9.63814	0.22090
5202.722	9.40115	1.10886	9.59262	0.18844
5206.721	9.28978	1.05144	9.55169	0.17788
5210.718	9.20013	0.98915	9.59460	0.17193
5214.724	9.32651	0.98164	9.68660	0.11478
5218.722	9.32490	0.97380	9.73971	-0.00757
5222.719	9.42088	1.01588	9.70765	-0.12648
5226.723	9.35993	1.06711	9.68527	0.01592
5230.722	9.18185	1.09448	9.63288	0.12771
5234.721	9.13734	1.05908	9.64338	0.02928
5238.731	9.14813	0.98763	9.64738	0.19593
5242.721	9.13606	0.84550	9.68532	0.31530
5246.720	9.11131	0.86952	9.80373	0.22799
5250.718	9.22905	1.09754	9.90200	0.03728
5254.723	9.27660	1.09411	9.97888	-0.11534
5258.720	9.29234	1.26791	9.85580	-0.23373
5262.719	9.29563	1.32640	9.88574	-0.43146
5266.722	9.29205	1.24085	9.86616	-0.13551
5270.719	9.22748	1.30962	10.04047	0.07272
5274.719	9.23268	1.14439	9.95480	0.32422
5278.734	9.24677	1.10565	9.88523	0.13699
5282.726	9.21783	1.10555	9.97332	0.03644
5286.719	9.23681	1.12667	9.97707	-0.04696
5290.722	9.18729	1.26534	10.02487	-0.11261
5294.721	9.17435	1.13754	9.96104	-0.14119
5298.717	9.10673	1.07757	9.78332	0.07780
5302.722	9.08946	0.99493	9.76635	0.02601
5306.721	9.06794	0.88982	9.75046	0.03928
5310.720	9.03958	0.81503	9.69057	-0.01798
5314.717	9.06366	1.16222	9.75854	-0.00475
5318.748	8.97131	0.91443	9.53366	-0.01956
5322.722	7.36205	0.76543	8.32067	-0.08274
5326.724	5.95110	0.70946	7.72549	-0.15833
5330.717	5.14498	0.26219	7.30056	-0.35855
5334.721	4.81138	-0.49740	6.02892	-0.56768
5338.720	5.21141	0.13331	5.79285	-0.60827
5342.719	4.99145	0.36857	5.96176	-0.45007
5346.723	5.27904	0.27812	6.09079	-0.55566
5350.720	5.25739	0.25539	6.13785	-0.64949
5354.718	5.33295	0.15978	6.26856	-0.77254
5358.714	5.34528	0.18989	6.30041	-0.80203
5362.725	5.33406	0.07878	6.19334	-0.84776
5366.716	5.33696	-0.02781	6.25169	-0.94771
5370.743	5.19770	-0.14079	6.18961	-0.98551
5374.721	5.19588	-0.03425	6.19810	-1.03488
5378.718	5.17883	-0.04118	6.17884	-1.00200
5382.716	5.12595	-0.15679	6.13566	-0.99894
5386.722	5.15522	-0.23068	6.06723	-0.98749
5390.718	5.05939	-0.38217	5.92046	-0.98266
5394.718	4.98980	-0.38768	5.89579	-0.96813
5398.715	4.92824	-0.47780	5.86870	-0.93232
5402.741	4.91910	-0.59179	5.79155	-0.92374
5406.724	4.86544	-0.61104	5.77431	-0.89634
5410.727	4.80177	-0.63348	5.72394	-0.81793
5414.721	4.76882	-0.68452	5.69605	-0.81001
5418.719	4.79484	-0.74458	5.64012	-0.74212
5422.721	4.77791	-0.78667	5.64218	-0.71767
5426.715	4.78713	-0.78819	5.64951	-0.69884
5430.721	4.78195	-0.78852	5.61065	-0.71855
5434.720	4.81626	-0.77843	5.67639	-0.77570
5438.732	4.85127	-0.77101	5.66654	-0.77779
5442.724	4.86749	-0.74440	5.68661	-0.82809
5446.729	4.88631	-0.73037	5.70431	-0.76523
5450.718	4.91075	-0.70557	5.68566	-0.73094
5454.718	4.93782	-0.69467	5.70509	-0.75618
5458.716	4.98731	-0.66786	5.71495	-0.71142
5462.713	5.00150	-0.63936	5.74293	-0.71663
5466.717	5.02516	-0.59298	5.74104	-0.66902
5470.714	5.07862	-0.52851	5.76133	-0.59038
5474.719	5.12220	-0.50664	5.76271	-0.62598
5478.717	5.15539	-0.44368	5.78059	-0.60010
5482.717	5.16014	-0.39976	5.81405	-0.66774
5486.720	5.18050	-0.36349	5.85330	-0.67761
5490.724	5.18830	-0.28249	5.88697	-0.73626
5494.725	5.21159	-0.24271	5.93114	-0.73447
5498.715	5.22111	-0.17978	5.92857	-0.76811
5502.713	5.22697	-0.14348	5.94072	-0.76829
5506.741	5.17375	-0.12243	5.94634	-0.96688
5510.720	5.16391	-0.08598	5.96782	-1.04202
5514.718	5.15057	-0.06425	5.94448	-1.08659
5518.715	5.13065	-0.03539	5.99490	-1.13792
5522.744	5.07850	-0.00158	5.98717	-1.15355
5526.713	5.02637	0.03161	5.96797	-1.16901
5530.724	5.03553	0.06453	5.95334	-1.17467
5534.717	5.04174	0.12307	5.95309	-1.21775
5538.712	5.03230	0.12637	5.96925	-1.19526
5542.717	5.00706	0.13053	5.93873	-1.20114
5546.714	4.98593	0.14333	5.96660	-1.22716
5550.712	5.00246	0.11909	5.99738	-1.22141
5554.712	5.01531	0.06238	5.96927	-1.15630
5558.716	4.98228	-0.00473	5.99753	-1.11432
5562.714	4.96662	-0.06672	6.00725	-1.08113
5566.713	4.97374	-0.11217	6.01208	-1.05340
5570.722	4.96401	-0.26578	6.05577	-1.07280
5574.736	4.92361	-0.19506	6.04126	-1.11097
5578.720	4.86909	-0.31117	6.00658	-1.11171
5582.716	4.79782	-0.35209	6.00062	-0.98385
5586.714	4.77032	-0.36438	6.01972	-1.01539
5590.715	4.65222	-0.35838	6.03876	-1.01590
5594.716	4.64884	-0.35821	6.02001	-1.03095
5598.714	4.61341	-0.31198	6.02644	-1.08235
5602.711	4.57985	-0.30315	6.02612	-1.07091
5606.713	4.58755	-0.18941	6.02421	-1.02507
5610.717	4.62969	-0.07599	6.00644	-0.95906
5614.721	4.63398	-0.11527	5.99566	-0.96659
5618.714	4.78883	-0.04499	5.96088	-0.94558
5622.713	4.77619	-0.03719	5.93898	-0.90932
5626.717	4.88939	0.03016	5.93426	-0.94056
5630.715	4.94913	0.03555	5.94023	-0.96731
5634.711	4.97509	0.02857	5.94020	-1.01919
5638.711	5.33286	0.03070	6.60747	-1.09540
5642.590	6.54790	0.13709	8.40575	-0.83669
5646.590	8.43227	0.39987	9.92928	-0.73182
5650.586	9.64082	0.94221	11.87315	-0.74315
5654.591	10.38358	1.41958	12.74898	-0.76660
5658.593	11.53818	2.17810	13.52785	-0.68275
5662.591	12.54479	1.94121	13.71479	-0.52316
5666.588	13.38271	2.17096	14.01550	-0.50720
5670.588	13.54262	2.54839	14.21869	-0.45031
5674.584	13.30947	2.59628	14.11584	-0.40991
5678.591	12.95515	2.77434	13.96222	-0.34805
5682.589	12.76307	2.70801	13.94581	-0.32263
5686.588	12.78307	2.65796	13.93389	-0.36434
5690.587	12.92948	2.68070	14.05021	-0.35698
5694.590	12.90791	2.73601	14.05915	-0.36935
5698.588	12.92689	2.71804	14.07200	-0.29852
5702.595	12.93283	2.72841	14.06992	-0.24046
5706.590	13.13788	2.72159	14.09392	-0.21626
5710.587	13.20159	2.70459	14.01975	0.00277
5714.595	13.00049	2.67271	14.01742	0.13434
5718.586	12.98223	2.63145	14.03860	0.20245
5722.590	13.07403	2.58765	14.05549	0.19477
5726.588	13.10273	2.54867	14.06688	0.25097
5730.586	13.15776	2.57375	14.07088	0.33267
5734.586	13.19484	2.55974	14.02253	0.26078
5738.611	13.20376	2.55982	14.01875	0.30633
5742.591	13.19082	2.51217	14.04218	0.28773
5746.586	13.22540	2.55035	14.05953	0.19597
5750.584	13.18957	2.58612	14.07980	0.17742
5754.589	13.16233	2.59447	14.11299	0.12503
5758.587	13.15033	2.60107	14.16184	0.06021
5762.584	13.16052	2.58727	14.14910	0.01354
5766.587	13.13063	2.60755	14.15685	-0.05115
5770.585	13.15925	2.59105	14.16819	-0.04754
5774.583	13.15186	2.55792	14.21192	-0.11734
5778.609	13.13126	2.51693	14.25539	-0.14667
5782.589	13.16386	2.49827	14.28564	-0.17418
5786.588	13.18459	2.46229	14.28051	-0.19390
5790.588	13.20609	2.39176	14.28291	-0.19506
5794.586	13.24409	2.27142	14.26457	-0.19091
5798.584	13.24348	2.12455	14.24839	-0.21158
5802.583	13.32014	2.15160	14.22953	-0.22167
5806.588	13.42049	2.12980	14.27450	-0.23119
5810.584	13.49788	2.21337	14.28410	-0.19739
5814.585	13.47707	2.12964	14.27394	-0.17503
5818.582	13.52693	2.13561	14.25159	-0.04352
5822.588	13.54143	2.23123	14.20455	0.02120
5826.590	13.55553	2.50194	14.14992	0.34569
5830.583	13.62193	2.75238	14.08584	0.29790
5834.583	13.64541	2.64488	14.07795	0.45806
5838.589	13.63923	2.72302	13.98791	0.39917
5842.586	13.63909	2.87085	13.91187	0.51864
5846.608	13.64996	2.88387	13.93286	0.62147
5850.587	13.61605	2.90516	13.85197	0.62975
5854.580	13.60184	2.96814	13.85211	0.70385
5858.586	13.59745	3.02352	13.81240	0.75937
5862.585	13.59401	3.06998	13.76266	0.77852
5866.588	13.59680	3.08494	13.78429	0.79088
5870.593	13.55834	3.03414	13.80727	0.81201
5874.584	13.53943	3.01402	13.89101	0.83065
5878.584	13.51215	3.04185	13.88006	0.86857
5882.583	13.48566	3.01366	13.91210	0.87123
5886.605	13.44400	2.98302	13.98690	0.89165
5890.592	13.42430	2.95993	14.04477	0.88786
5894.584	13.41662	2.92536	14.08727	0.89741
5898.581	13.72502	2.91495	14.08893	0.90557
5902.598	13.72933	2.86019	14.46212	0.87263
5906.587	14.58229	2.81631	15.58435	0.85111
5910.584	14.70063	2.80913	16.09698	0.83444
5914.586	14.83031	2.81218	16.14359	0.81126
5918.590	14.52514	2.82260	16.01234	0.80320
5922.589	14.35246	2.82686	15.85818	0.76044
5926.584	14.44020	2.81180	15.93696	0.71268
5930.581	14.59247	2.73374	15.96663	0.63864
5934.587	14.49276	2.73656	15.98512	0.61128
5938.585	14.53407	2.81522	16.02603	0.52848
5942.582	14.53205	2.79022	16.02263	0.51246
5946.581	14.57790	2.75893	16.05713	0.50702
5950.594	14.50432	2.77938	16.06547	0.48100
5954.586	14.50162	2.85312	16.03914	0.52701
5958.582	14.49914	2.83541	16.04606	0.52663
5962.603	14.53000	2.81282	16.03582	0.49750
5966.585	14.54646	2.82811	16.11162	0.54606
5970.581	14.58975	2.79078	16.14231	0.55464
5974.587	14.56655	2.81992	16.16106	0.59212
5978.583	14.67534	2.79521	16.11824	0.60147
5982.601	14.72756	2.82341	16.16715	0.64847
5986.590	14.80720	2.80414	16.14888	0.64906
5990.582	14.84169	2.87853	16.19354	0.62379
5994.582	14.80962	2.96111	16.29077	0.64771
5998.583	14.88359	2.93682	16.22906	0.61873
6002.584	14.86979	2.86133	16.19883	0.58087
6006.581	14.89879	2.89942	16.11760	0.58571
6010.582	15.00121	2.89196	15.91679	0.64147
6014.581	15.03223	2.90616	15.93173	0.58647
6018.584	15.08819	2.89016	15.90688	0.62562
6022.582	15.03277	2.87370	15.94463	0.70367
6026.583	15.01631	2.79975	15.97016	0.67396
6030.584	14.99487	2.79928	16.07787	0.75440
6034.589	14.95540	2.81889	16.13072	0.74840
6038.580	15.00843	2.82793	16.20686	0.65500
6042.585	14.99924	2.82734	16.14959	0.67786
6046.582	15.07963	2.79547	16.01997	0.69638
6050.583	15.10677	2.83505	16.05743	0.66987
6054.582	15.08433	2.88190	16.12023	0.60783
6058.580	15.07359	2.83679	16.09698	0.41274
6062.579	15.00163	2.85702	16.13393	0.43326
6066.580	14.95091	2.92388	16.18546	0.38187
6070.581	14.85878	2.90614	16.21414	0.35717
6074.584	14.85702	2.90606	16.12582	0.29815
6078.588	14.83849	2.86055	16.09897	0.24490
6082.582	14.85361	2.82697	16.02857	0.23620
6086.578	14.87012	2.81691	15.98287	0.27837
6090.579	14.88574	2.81371	15.97197	0.25892
6094.585	14.82676	2.74728	15.94080	0.25540
6098.583	14.92570	2.75762	15.95936	0.24503
6102.580	15.04452	2.75559	15.98282	0.30140
6106.581	15.07921	2.79090	15.98762	0.36187
6110.577	14.99278	2.77898	15.96787	0.40713
6114.579	15.11877	2.81496	15.98108	0.41926
6118.614	15.09499	2.81733	16.02857	0.44097
6122.591	15.18957	2.84435	15.94479	0.50609
6126.578	15.14003	2.86538	15.89271	0.56821
6130.584	15.23558	2.86641	15.78400	0.63157
6134.581	15.29739	2.86336	15.82867	0.72317
6138.578	15.24180	2.93137	15.81716	0.82648
6142.583	15.22927	2.93333	15.87382	0.91619
6146.579	15.24940	2.94535	15.90763	0.88132
6150.619	15.21245	2.93821	15.74690	1.02383
6154.584	15.27797	2.89753	15.64846	1.05183
6158.583	15.27660	2.90678	15.53013	1.05455
6162.578	15.24762	2.89714	15.49130	1.03777
6166.581	14.97449	2.75438	15.61486	0.75965
6170.613	14.71737	1.80430	15.54674	-0.42371
6174.578	14.53753	0.87175	15.81399	-2.18388
6178.583	14.26180	0.11818	15.76651	-2.04008
6182.580	14.35468	-1.58639	15.74040	-2.35692
6186.618	14.00370	-1.98496	15.77451	-2.92528
6190.588	14.05747	-1.97099	15.85003	-3.51110
6194.578	14.18001	-2.00484	15.87905	-3.42124
6198.580	14.05892	-1.90825	15.90878	-3.25012
6202.580	14.06189	-1.71262	15.76003	-2.93386
6206.581	14.09117	-1.61083	15.76074	-2.92739
6210.580	14.11540	-1.61559	15.79361	-2.95801
6214.579	14.15594	-1.52211	15.69243	-2.91422
6218.584	14.17850	-1.40740	15.81890	-2.96687
6222.578	14.16256	-1.47557	15.83158	-3.03559
6226.577	14.25012	-1.46684	15.75194	-2.95373
6230.577	14.33502	-1.50680	15.83629	-2.90296
6234.581	14.45281	-1.44370	15.71600	-2.84989
6238.579	14.56360	-1.48487	15.62169	-2.79534
6242.583	14.37662	-1.61382	15.51707	-2.77899
6246.576	14.48108	-1.64627	15.52571	-2.80419
6250.580	14.41897	-1.76844	15.45034	-2.70002
6254.632	14.42879	-1.86260	15.40634	-2.67710
6258.584	14.29536	-1.86816	15.33317	-2.73760
6262.581	14.28049	-1.91392	15.34464	-2.74316
6266.577	14.34659	-1.83787	15.43289	-2.75065
6270.574	14.29016	-1.67383	15.53723	-2.79513
6274.578	14.30142	-1.75323	15.53179	-2.81211
6278.614	14.28837	-1.87912	15.57028	-2.81359
6282.589	14.27623	-1.83144	15.33606	-2.82614
6286.595	14.33954	-1.72017	15.33467	-2.77574
6290.577	14.34981	-1.45171	15.33361	-2.82900
6294.581	14.43887	-1.37583	15.23267	-2.82691
6298.580	14.47869	-1.25845	15.24501	-2.85425
6302.577	14.48627	-1.19131	15.39211	-2.83946
6306.576	14.49044	-1.16260	15.32569	-2.86236
6310.582	14.51072	-1.18259	15.46076	-2.85408
6314.582	14.48122	-1.26707	15.51435	-2.84295
6318.576	14.43650	-1.32764	15.44501	-2.80622
6322.591	14.41932	-1.25561	15.37183	-2.77582
6326.583	14.42279	-1.21715	15.40563	-2.73880
6330.582	14.39238	-1.50365	15.49755	-2.82201
6334.577	14.33823	-2.01181	15.74451	-3.30906
6338.579	14.34003	-3.39564	16.13725	-4.94846
6342.583	14.28420	-5.21339	16.61657	-5.89068
6346.578	14.28751	-6.28077	16.69639	-6.99581
6350.575	14.33669	-6.71643	17.45466	-3.92345
6354.575	14.40758	-7.35236	17.20804	-8.95197
6358.579	14.58540	-8.28009	17.37008	-9.25808
6362.576	14.57936	-8.13917	17.20693	-9.24797
6366.578	14.68689	-8.15629	17.35882	-9.25113
6370.602	15.03670	-7.67708	16.99767	-9.07147
6374.576	15.46450	-7.30384	17.15628	-9.00625
6378.576	15.29603	-6.77411	17.19880	-9.03485
6382.573	15.11891	-7.26306	17.13083	-8.90356
6386.578	15.02135	-7.45785	17.09732	-8.82238
6390.599	15.03739	-7.47740	17.24999	-8.88440
6394.579	15.21049	-7.43451	17.22251	-8.96564
6398.573	15.48504	-7.66864	16.98403	-8.78780
6402.580	15.23322	-7.60231	16.97429	-8.72714
6406.577	15.37873	-7.37739	16.92415	-8.73434
6410.578	15.27547	-7.32973	16.86116	-8.67347
6414.573	15.04753	-7.36739	16.83911	-8.61245
6418.579	15.09943	-7.40726	16.84782	-8.63447
6422.577	15.23177	-7.44926	16.78123	-8.60345
6426.573	15.27945	-7.40073	16.62519	-8.54708
6430.573	15.29649	-7.34596	16.76142	-8.49021
6434.576	15.28337	-7.50850	16.71469	-8.45848
6438.577	15.09710	-7.56304	16.59189	-8.37790
6442.575	15.13159	-7.37505	16.62361	-8.40786
6446.573	15.12784	-7.37304	16.63728	-8.40105
6450.586	15.18666	-7.40077	16.43487	-8.24596
6454.578	15.16435	-7.49379	16.48707	-8.28162
6458.598	15.31313	-7.55597	16.49376	-8.30693
6462.583	15.37067	-7.41919	16.45265	-8.36860
6466.575	15.23165	-7.29219	16.26856	-8.16266
6470.578	15.23080	-7.27221	16.30730	-8.04950
6474.575	15.15129	-7.50720	16.22052	-8.12712
6478.573	15.12136	-7.54387	16.19100	-8.11899
6482.572	15.13894	-7.44564	16.28976	-8.14828
6486.577	14.98507	-7.51505	16.31288	-8.08315
6490.580	15.10267	-7.24827	16.29333	-8.01821
6494.574	14.99987	-7.23633	16.33141	-8.01525
6498.451	15.05598	-7.11815	16.39294	-8.02122
6502.455	15.00415	-7.20554	16.34627	-7.98614
6506.449	14.99579	-7.06391	16.19350	-7.91183
6510.448	14.99264	-7.15250	16.25486	-7.89014
6514.446	14.98486	-7.15909	16.32184	-7.90912
6518.452	14.95758	-7.13232	16.27250	-7.86266
6522.449	14.95204	-7.10664	16.24651	-7.80267
6526.484	14.94229	-7.12216	16.22508	-7.72492
6530.449	14.97032	-7.09162	16.24640	-7.60729
6534.445	14.95211	-7.10354	16.18098	-7.59332
6538.457	14.97896	-7.12705	16.17390	-7.54577
6542.451	14.95385	-7.17279	16.07134	-7.44904
6546.449	14.93691	-7.16763	16.04691	-7.44438
6550.445	14.94713	-7.18246	16.01206	-7.40177
6554.450	14.90190	-7.20301	16.00686	-7.37544
6558.454	14.90306	-7.21826	15.88360	-7.34931
6562.449	14.91291	-7.18246	15.90548	-7.33543
6566.455	14.97365	-7.16289	15.78674	-7.32874
6570.447	14.99848	-7.14239	15.77382	-7.30264
6574.446	15.05172	-7.06345	15.66914	-7.29268
6578.445	15.05850	-7.05824	15.56438	-7.24078
6582.455	15.03638	-7.06364	15.47671	-7.12001
6586.448	15.09034	-7.03933	15.47455	-7.14652
6590.507	15.13845	-7.02676	15.44760	-7.10850
6594.466	15.09198	-7.02271	15.45479	-7.00647
6598.454	15.13115	-7.00635	15.55635	-6.93096
6602.449	15.16326	-6.99112	15.65879	-6.90065
6606.446	15.10277	-7.02403	15.61219	-6.92468
6610.445	15.07114	-7.02625	15.78230	-6.87635
6614.449	15.05725	-7.06237	15.89887	-6.87956
6618.447	14.99862	-7.11059	15.77014	-6.89519
6622.449	15.02110	-7.11505	15.91349	-6.89857
6626.445	14.95707	-7.12170	15.92698	-6.92950
6630.450	14.92155	-7.12554	15.89437	-6.98998
6634.446	14.86945	-7.13029	15.90931	-7.03650
6638.445	14.81504	-7.16331	15.89035	-7.06950
6642.443	14.76038	-7.15679	15.81169	-7.11392
6646.448	14.75929	-7.10405	15.71020	-7.14347
6650.445	14.83089	-7.05571	15.76219	-7.10163
6654.449	14.83678	-6.93406	16.09918	-6.68720
6658.449	14.66708	-6.80096	15.65166	-6.84466
6662.452	14.60467	-5.34087	15.37077	-6.28280
6666.452	14.24508	-4.60747	14.64573	-5.38673
6670.447	13.62226	-4.09720	13.77616	-4.67262
6674.445	13.27240	-2.93743	13.77563	-3.91561
6678.448	13.48059	-2.32869	13.98232	-3.54340
6682.445	13.36922	-2.00905	13.69434	-3.21110
6686.445	13.36145	-1.81597	13.83369	-3.16327
6690.443	13.33523	-1.74505	13.83245	-3.13853
6694.448	13.29955	-1.97205	13.84289	-3.35467
6698.445	13.35177	-2.25100	13.87541	-3.38233
6702.446	13.26765	-2.14801	13.85445	-3.37918
6706.447	13.41561	-2.05946	13.88079	-3.37851
6710.450	13.35012	-2.19993	13.90700	-3.43475
6714.446	13.35600	-2.19631	13.87283	-3.42672
6718.449	13.41610	-2.22617	13.87707	-3.48605
6722.446	13.39384	-2.38112	13.84712	-3.55368
6726.472	13.34066	-2.25035	13.96355	-3.54726
6730.446	13.34538	-2.26400	13.91703	-3.52025
6734.450	13.38205	-2.30150	13.86125	-3.56510
6738.446	13.36610	-2.30537	13.83603	-3.56267
6742.448	13.37935	-2.29952	13.81142	-3.58918
6746.450	13.33657	-2.34560	13.90478	-3.58759
6750.444	13.32646	-2.40469	13.91783	-3.59936
6754.443	13.31394	-2.42089	13.95472	-3.60440
6758.448	13.33896	-2.52821	13.95537	-3.57939
6762.445	13.33758	-2.50761	13.98639	-3.60521
6766.444	13.38224	-2.52836	13.95776	-3.60688
6770.447	13.39269	-2.44843	13.92872	-3.69638
6774.444	13.42697	-2.55618	13.84085	-3.69458
6778.445	13.47017	-2.52063	13.88719	-3.73802
6782.448	13.44350	-2.58322	14.04736	-3.76058
6786.446	13.45242	-2.61488	14.06602	-3.76642
6790.453	13.48204	-2.62167	14.12329	-3.79516
6794.443	13.51410	-2.67277	14.11820	-3.73754
6798.473	13.63257	-2.70949	14.14936	-3.73789
6802.492	13.64553	-2.61746	14.17621	-3.75127
6806.449	13.67445	-2.57167	14.13316	-3.75471
6810.446	13.62167	-2.58336	14.11409	-3.77240
6814.445	13.73041	-2.52290	14.12000	-3.81054
6818.442	13.70519	-2.58124	14.19529	-3.83272
6822.441	13.52374	-2.61270	14.27583	-3.88553
6826.445	13.57546	-2.66480	14.34065	-3.89290
6830.448	13.66592	-2.65706	14.35635	-3.89344
6834.448	13.72238	-2.74104	14.43156	-3.87467
6838.441	13.77003	-2.69538	14.33690	-3.91566
6842.454	13.69118	-2.64760	14.27275	-3.95416
6846.445	13.70289	-2.75370	14.18951	-3.99882
6850.442	13.63796	-2.74742	14.12740	-4.02847
6854.445	13.70303	-2.72200	14.11890	-4.03353
6858.442	13.69385	-2.77408	14.17714	-4.02546
6862.440	13.64117	-2.81253	14.17686	-4.03045
6866.478	13.69551	-2.83517	14.20532	-4.03035
6870.457	13.69282	-2.89249	14.14282	-4.06044
6874.446	13.64007	-2.83759	14.17397	-4.04599
6878.446	13.62809	-2.76361	14.11061	-4.10317
6882.442	13.59888	-2.70724	14.10777	-4.08502
6886.442	13.54218	-2.65187	14.13083	-4.09878
6890.441	13.52419	-2.54948	14.23897	-4.12146
6894.445	13.49056	-2.50462	14.23375	-4.14902
6898.443	13.45026	-2.50637	14.24093	-4.15437
6902.444	13.41103	-2.48661	14.22843	-4.15860
6906.445	13.42305	-2.43524	14.25224	-4.13799
6910.442	13.39513	-2.37993	14.20959	-4.13527
6914.447	13.39854	-2.37285	14.17581	-4.10705
6918.441	13.39555	-2.35321	14.25079	-4.18536
6922.443	13.50671	-2.33835	14.25657	-4.21695
6926.443	13.52078	-2.37887	14.47664	-4.26144
6930.441	13.60906	-2.41292	14.40419	-4.29726
6934.465	13.61187	-2.44865	14.38051	-4.35927
6938.446	13.65678	-2.51964	14.48162	-4.34558
6942.440	13.60191	-2.58900	14.54914	-4.39029
6946.444	13.58439	-2.60722	14.47268	-4.43227
6950.442	13.46752	-2.60519	14.48711	-4.44982
6954.448	13.43876	-2.63845	14.37268	-4.48940
6958.440	13.24539	-2.67375	14.41790	-4.54463
6962.444	13.41406	-2.72403	14.41019	-4.51974
6966.443	13.39067	-2.78840	14.36066	-4.52105
6970.447	12.76600	-2.75938	14.10667	-4.25297
6974.441	11.80179	-2.66881	11.79320	-3.51933
6978.442	11.03607	-2.39868	12.05525	-3.37575
6982.440	10.90432	-1.75945	11.72558	-3.12096
6986.444	10.98604	-1.42016	11.48842	-2.58564
6990.441	10.75023	-0.99136	11.46952	-2.49353
6994.441	10.92332	-0.99101	11.40772	-2.53193
6998.443	10.87177	-0.88337	11.68234	-2.63065
7002.486	10.96368	-1.00751	11.61016	-2.69263
7006.450	10.93533	-0.81379	11.59284	-2.64575
7010.439	10.82505	-1.13836	11.49011	-2.69631
7014.440	10.74213	-1.15896	11.77294	-2.63571
7018.469	10.67969	-1.13686	11.80550	-2.58238
7022.441	10.67399	-1.11794	11.71344	-2.53079
7026.467	10.59371	-1.14675	11.68874	-2.46039
7030.442	10.61128	-1.23968	11.69398	-2.45386
7034.440	10.70332	-1.14749	11.58289	-2.43720
7038.441	10.76784	-1.18748	11.49888	-2.39374
7042.442	10.74506	-1.26736	11.53522	-2.30857
7046.439	10.78757	-1.34701	11.80930	-2.39318
7050.437	10.74693	-1.33697	11.90291	-2.37025
7054.437	10.68552	-1.36648	12.12397	-2.42724
7058.441	10.66225	-1.34389	11.98852	-2.45750
7062.439	10.62754	-1.31782	11.88575	-2.58922
7066.437	10.55214	-1.40526	11.87874	-2.63481
7070.464	10.65999	-1.39996	11.82739	-2.70714
7074.446	10.63612	-1.42177	11.84637	-2.70734
7078.445	10.68784	-1.47968	11.85861	-2.73794
7082.441	10.85471	-1.46044	11.87451	-2.77667
7086.441	10.82411	-1.44518	11.86367	-2.76873
7090.443	10.72920	-1.52378	11.84427	-2.68116
7094.438	10.87194	-1.57775	11.86562	-2.73045
7098.442	10.80110	-1.59688	11.82335	-2.68170
7102.438	10.84080	-1.59131	11.79194	-2.66045
7106.462	10.76848	-1.62340	11.77432	-2.59326
7110.442	10.85966	-1.57901	11.79551	-2.61622
7114.438	10.79198	-1.56727	11.74708	-2.56300
7118.438	10.90092	-1.64255	11.79104	-2.67459
7122.441	10.81765	-1.57833	11.79139	-2.72279
7126.441	10.78805	-1.53234	11.82751	-2.72981
7130.438	10.79296	-1.46938	11.87042	-2.71006
7134.436	10.76290	-1.38755	11.86191	-2.68045
7138.455	10.76683	-1.54520	11.81436	-2.69215
7142.441	10.80867	-1.81059	11.78778	-2.73763
7146.442	10.82335	-1.64581	11.81986	-2.74427
7150.440	10.81300	-1.70976	11.85243	-2.77879
7154.438	10.75064	-1.53045	11.86462	-2.79210
7158.443	10.75416	-1.59525	11.90870	-2.79415
7162.443	10.73040	-1.49569	11.83003	-2.77948
7166.439	10.76628	-1.55052	11.83296	-2.70910
7170.441	10.76254	-1.56269	11.81855	-2.63641
7174.438	10.71686	-1.59218	11.83491	-2.62565
7178.437	10.69175	-1.64050	11.82980	-2.62417
7182.440	10.63849	-1.64562	11.88646	-2.60795
7186.438	10.55200	-1.60661	11.93296	-2.58268
7190.439	10.53399	-1.57656	11.92766	-2.54253
7194.436	10.45325	-1.54547	11.92695	-2.47321
7198.441	10.44950	-1.55760	11.90058	-2.45383
7202.437	10.38368	-1.57639	11.87703	-2.42402
7206.449	10.34585	-1.58801	11.89780	-2.38257
7210.439	10.37546	-1.55746	11.91348	-2.36608
7214.434	10.30761	-1.58230	11.93094	-2.35998
7218.440	10.29796	-1.61186	11.90001	-2.33553
7222.437	10.32402	-1.61246	11.89670	-2.32177
7226.435	10.37587	-1.60386	11.91222	-2.32858
7230.440	10.39388	-1.60765	11.91574	-2.33224
7234.438	10.35474	-1.62637	11.96536	-2.34946
7238.493	10.40238	-1.63081	11.96895	-2.37566
7242.441	10.38130	-1.63402	11.99806	-2.38924
7246.443	10.43800	-1.60664	12.01763	-2.41114
7250.436	10.47984	-1.61436	12.00260	-2.43799
7254.436	10.44614	-1.68278	11.96619	-2.48646
7258.433	10.43560	-1.69671	11.99973	-2.53610
7262.438	10.45994	-1.71066	11.98629	-2.57106
7266.437	10.45689	-1.75680	12.02143	-2.60944
7270.433	10.45056	-1.77583	12.01763	-2.66084
7274.449	10.47415	-1.79051	11.97700	-2.70357
7278.444	10.50829	-1.84045	11.95988	-2.74170
7282.437	10.51664	-1.85511	11.97577	-2.76210
7286.447	10.54895	-1.89040	11.96926	-2.78560
7290.459	10.53188	-1.89487	11.94814	-2.81870
7294.457	10.51158	-1.88092	11.93023	-2.82650
7298.445	10.54209	-1.80244	11.95320	-2.79432
7302.438	10.60301	-1.75431	11.92320	-2.80118
7306.435	10.64218	-1.71155	11.89946	-2.79859
7310.436	10.72570	-1.78572	11.82311	-2.77324
7314.433	10.66059	-1.69457	11.90067	-2.72253
7318.437	10.59560	-1.56951	11.93650	-2.76774
7322.436	9.48299	-1.57234	10.43808	-2.64828
7326.436	6.97524	-1.35025	9.89944	-2.57343
7330.438	7.14194	-1.30353	8.77344	-2.57900
7334.440	6.44547	-1.27916	7.73757	-2.40493
7338.436	6.22375	-1.36447	7.69532	-2.25309
7342.444	5.91943	-1.31801	7.56942	-2.13724
7346.440	5.88903	-1.26370	7.54818	-2.21009
7350.313	5.92518	-1.27155	7.60195	-2.11704
7354.308	5.95076	-1.23441	7.69680	-2.13402
7358.308	5.90605	-1.20652	7.70546	-2.09168
7362.313	5.93350	-1.26802	7.67760	-2.06860
7366.307	5.92208	-1.26397	7.61980	-2.03511
7370.307	5.84439	-1.29918	7.55991	-2.01269
7374.317	5.88675	-1.33412	7.52081	-1.98334
7378.315	5.88085	-1.32427	7.42127	-1.97885
7382.310	5.86077	-1.26085	7.33696	-1.95783
7386.307	5.88815	-1.21511	7.21061	-1.97146
7390.312	5.90492	-1.14448	7.03584	-1.91777
7394.310	5.91150	-0.98539	6.98164	-1.89160
7398.310	5.92623	-0.95243	7.07984	-1.82309
7402.307	5.92358	-0.91265	6.99846	-1.78786
7406.317	5.91707	-0.86700	7.05325	-1.82524
7410.316	5.90453	-0.84829	7.10729	-1.81611
7414.312	5.90482	-0.83373	7.07495	-1.82025
7418.316	5.90291	-0.96320	6.99485	-1.75160
7422.312	5.85792	-1.28875	6.99949	-1.74559
7426.309	5.88437	-1.46851	6.99878	-1.74345
7430.309	5.88316	-1.13617	7.01807	-1.77026
7434.334	5.88466	-1.19315	7.07512	-1.81752
7438.331	5.87172	-1.10672	7.07591	-1.79241
7442.316	5.87982	-1.11338	7.07019	-1.82628
7446.309	5.92137	-1.12804	7.06672	-1.80676
7450.305	5.95113	-1.16294	7.10665	-1.71452
7454.311	6.05049	-1.07435	7.06395	-1.78179
7458.312	6.15897	-1.22544	7.02783	-1.80731
7462.308	6.15168	-1.35028	7.01629	-1.79311
7466.309	6.20244	-1.22462	7.06505	-1.82216
7470.309	6.18929	-1.13336	7.04435	-1.84789
7474.305	6.21576	-1.06036	7.10203	-1.93685
7478.355	6.21509	-1.04129	7.11164	-1.95280
7482.317	6.16542	-1.05779	7.12100	-1.95061
7486.309	6.18102	-1.04153	7.15020	-1.96780
7490.306	6.16353	-1.09042	7.14932	-1.98798
7494.305	6.14587	-1.14346	7.13622	-1.99692
7498.310	6.11609	-1.17239	7.13517	-1.97728
7502.314	6.02286	-1.17338	7.15220	-1.95297
7506.317	5.97192	-1.12011	7.14577	-1.95073
7510.305	5.89225	-1.09917	7.07696	-1.95506
7514.309	5.84139	-1.09806	7.04904	-2.00100
7518.308	5.92149	-1.09372	7.06073	-1.95016
7522.306	5.96537	-1.09843	7.03606	-1.94718
7526.303	5.97634	-1.04882	7.05347	-1.95659
7530.309	5.99372	-1.01882	7.03362	-1.99027
7534.304	5.95830	-1.05187	7.09683	-1.99857
7538.303	5.94494	-1.00527	7.16635	-1.93776
7542.314	5.96429	-1.01065	7.14118	-1.94962
7546.308	5.95619	-0.99018	7.15313	-1.97464
7550.311	5.98096	-0.99575	7.12745	-1.98879
7554.307	5.93713	-1.02711	7.15283	-1.99685
7558.305	5.98174	-1.02097	7.21012	-1.88655
7562.309	5.93610	-1.02800	7.23277	-1.91936
7566.306	5.95017	-1.03242	7.28241	-1.91018
7570.304	5.92385	-1.11680	7.29289	-1.89007
7574.329	5.93421	-1.13291	7.26798	-1.85876
7578.314	5.88363	-1.13237	7.21628	-1.85011
7582.306	5.87418	-1.21150	7.12940	-1.89053
7586.310	5.90286	-1.22379	7.20470	-1.87163
7590.310	5.92164	-1.28579	7.24788	-1.92217
7594.306	5.86845	-1.37932	7.22580	-1.93032
7598.305	5.79904	-1.28394	7.10147	-1.90198
7602.307	5.48310	-1.26855	6.82185	-1.91600
7606.307	4.97711	-1.23444	6.26789	-1.90712
7610.303	4.78784	-1.27201	6.02823	-1.85009
7614.352	4.74779	-1.24758	5.82270	-1.83658
7618.311	4.79785	-1.24615	5.94008	-1.82805
7622.311	4.57480	-1.19201	5.92741	-1.79236
7626.311	4.44867	-1.18115	5.78809	-1.72486
7630.313	4.67399	-1.23326	5.76470	-1.70359
7634.301	4.57993	-1.30269	5.83741	-1.65577
7638.308	4.67621	-1.23892	5.82437	-1.59080
7642.305	4.65678	-1.18999	5.83955	-1.62927
7646.303	4.55958	-1.20055	5.91646	-1.68794
7650.365	4.64805	-1.15522	5.90521	-1.68222
7654.311	4.76741	-1.07591	5.95700	-1.73256
7658.301	4.83646	-0.98879	5.91437	-1.76136
7662.302	4.99726	-1.00053	5.89969	-1.74716
7666.308	4.96039	-0.99274	5.89915	-1.74430
7670.301	4.99278	-0.94486	5.98825	-1.75841
7674.302	5.07540	-0.87614	6.01520	-1.72936
7678.305	5.07826	-0.83655	5.99387	-1.61419
7682.309	5.03942	-0.82793	6.13338	-1.76786
7686.308	4.97009	-0.87938	6.03221	-1.72689
7690.306	4.91228	-0.82799	6.06210	-1.72247
7694.303	4.62907	-0.85439	6.04796	-1.75572
7698.301	4.68760	-0.88841	6.06679	-1.78719
7702.305	4.62522	-0.93452	6.05177	-1.78726
7706.308	4.66933	-0.99121	6.12075	-1.83576
7710.307	4.72825	-1.10694	6.14077	-1.86397
7714.308	4.66844	-1.12714	6.13321	-1.82710
7718.308	4.65954	-1.21927	6.13309	-1.79553
7722.309	4.64359	-1.28609	6.11898	-1.81654
7726.305	4.64707	-1.30896	6.06382	-1.72526
7730.302	4.69125	-1.23585	6.05670	-1.69706
7734.300	4.67212	-1.13894	6.03626	-1.64434
7738.305	4.70599	-1.14309	6.11758	-1.68816
7742.304	4.74570	-1.16711	6.12649	-1.66055
7746.303	4.72830	-1.08463	6.04895	-1.65005
7750.352	4.74033	-1.10006	6.12938	-1.65590
7754.305	4.78397	-0.90007	6.10929	-1.63804
7758.304	4.79026	-0.85664	6.13920	-1.64432
7762.300	4.72674	-0.75342	6.08036	-1.61826
7766.302	4.83338	-0.70745	6.06225	-1.59103
7770.302	5.02563	-0.60815	6.03525	-1.61691
7774.301	4.95196	-0.57396	6.13952	-1.71176
7778.306	5.11662	-0.61564	6.23123	-1.71934
7782.300	5.08062	-0.80207	6.15617	-1.66846
7786.300	5.04395	-0.74705	6.00668	-1.62657
7790.311	4.96923	-0.80594	5.99777	-1.64361
7794.309	4.87734	-0.64361	6.10450	-1.69353
7798.302	4.83646	-0.80509	6.02980	-1.69320
7802.299	4.86298	-1.00772	5.97732	-1.74440
7806.305	4.91097	-1.07355	5.94718	-1.76365
7810.301	4.87098	-1.10631	6.00992	-1.67331
7814.301	4.86682	-1.15223	5.99549	-1.60028
7818.302	4.89427	-1.11414	6.19039	-1.76486
7822.301	4.82713	-1.13596	6.05626	-1.73805
7826.306	4.78397	-0.98511	6.03680	-1.76193
7830.304	4.70705	-0.98494	6.04183	-1.83314
7834.304	4.71375	-1.07077	6.06559	-1.69536
7838.299	4.72835	-1.05069	6.06870	-1.71063
7842.332	4.83528	-1.13746	6.00275	-1.74348
7846.314	4.80201	-1.05825	6.01009	-1.83845
7850.300	4.79644	-1.06784	6.04949	-1.77187
7854.327	4.79117	-1.12793	6.09596	-1.72543
7858.304	4.80485	-1.06065	6.05147	-1.73456
7862.304	4.78587	-1.08454	6.00703	-1.68342
7866.300	4.83770	-1.07179	5.96971	-1.68630
7870.303	4.86593	-1.05239	5.90276	-1.65425
7874.303	4.88816	-1.07804	5.91639	-1.62625
7878.303	4.87064	-0.93387	5.90774	-1.64845
7882.298	4.88013	-0.96153	5.92670	-1.62743
7886.326	4.80157	-0.90871	5.94430	-1.62609
7890.306	4.77207	-0.90655	5.99159	-1.60323
7894.299	4.73527	-0.87327	5.99181	-1.56679
7898.303	4.74126	-0.83538	5.93829	-1.59554
7902.298	4.72490	-0.81339	5.90124	-1.62019
7906.300	4.78947	-0.84186	5.84095	-1.60896
7910.304	4.83743	-0.91686	5.81540	-1.65253
7914.300	4.74203	-0.94449	5.95876	-1.68991
7918.305	4.75718	-0.94714	5.93132	-1.71294
7922.322	4.78259	-0.98362	5.97101	-1.74098
7926.305	4.76123	-1.04337	5.98147	-1.78369
7930.299	4.78932	-1.13365	5.95751	-1.80937
7934.301	4.82035	-1.12298	5.98648	-1.85614
7938.298	4.79864	-1.11061	5.93532	-1.89660
7942.303	4.81434	-1.13866	5.89915	-1.91648
7946.300	4.83531	-1.13313	5.95817	-1.90677
7950.299	4.83676	-1.07144	5.98140	-1.94014
7954.318	4.77150	-0.97520	6.02315	-1.92330
7958.312	4.77690	-0.91875	6.04095	-1.92262
7962.303	4.74121	-0.89069	6.04369	-1.92824
7966.298	4.72176	-0.94071	6.03564	-1.90855
7970.306	4.69995	-0.89770	6.03724	-1.89240
7974.300	4.70165	-0.85049	5.98218	-1.85906
7978.298	4.68681	-0.80351	6.02136	-1.93916
7982.296	4.72995	-0.85711	5.98356	-1.90209
7986.302	4.71679	-0.80424	5.97676	-1.94884
7990.299	4.69519	-0.80533	5.98299	-1.92120
7994.300	4.70298	-0.75924	6.03020	-1.99762
7998.296	4.75994	-0.74531	6.04500	-1.98550
8002.307	4.77614	-0.77129	6.04151	-1.99148
8006.299	4.83609	-0.75152	6.02121	-1.99218
8010.297	4.86150	-0.71936	5.96409	-2.03400
8014.297	4.87308	-0.66481	5.95979	-2.02234
8018.301	4.88924	-0.65415	5.88837	-2.04946
8022.302	4.87424	-0.65213	5.87118	-1.99716
8026.345	4.82966	-0.64430	5.94848	-1.96032
8030.305	4.85958	-0.62533	5.94347	-1.94210
8034.296	4.85938	-0.59956	5.88307	-1.97053
8038.302	4.87919	-0.60276	5.87759	-1.94119
8042.303	4.82128	-0.64755	5.84610	-1.95881
8046.306	4.74831	-0.66845	5.80823	-1.97099
8050.301	4.73589	-0.69357	5.75755	-1.94921
8054.298	4.76786	-0.76447	5.66514	-1.94372
8058.297	4.74806	-0.89838	5.64007	-1.94509
8062.296	4.77774	-0.91667	5.64946	-1.96717
8066.298	4.79046	-0.92992	5.68396	-1.98281
8070.325	4.86091	-0.95346	5.64995	-1.97771
8074.294	4.86480	-0.94697	5.65167	-1.98319
8078.300	4.85531	-1.01973	5.73119	-1.97573
8082.300	4.86337	-1.03710	5.74794	-2.02197
8086.300	4.88969	-0.96325	5.81987	-2.11938
8090.324	4.89979	-0.95237	5.83267	-2.18910
8094.306	4.86455	-0.97635	5.79614	-2.20489
8098.298	4.78427	-0.94649	5.84394	-2.20191
8102.298	4.89577	-0.92527	5.82368	-2.13816
8106.294	4.90021	-0.94093	5.76522	-2.07549
8110.300	4.81042	-1.01141	5.71851	-2.00230
8114.294	4.80058	-1.06306	5.69561	-1.96449
8118.294	4.80091	-1.07370	5.73087	-2.03315
8122.299	4.82469	-1.01975	5.78310	-1.91705
8126.301	4.85159	-0.96902	5.78094	-1.94365
8130.301	4.82560	-0.98614	5.69126	-2.03329
8134.294	4.77399	-1.04557	5.71084	-1.99262
8138.299	4.77108	-1.10133	5.73949	-1.94325
8142.298	4.79176	-1.03978	5.69637	-1.88763
8146.294	4.84866	-0.94449	5.73330	-1.93591
8150.299	4.86155	-0.81194	5.80150	-1.99642
8154.299	4.84785	-0.78129	5.90070	-2.02858
8158.300	4.86478	-0.70301	6.01601	-2.08704
8162.300	4.89326	-0.52539	6.06738	-2.03742
8166.300	4.77222	-0.59112	5.91646	-2.08597
8170.294	4.78718	-0.76633	5.87071	-2.06829
8174.299	4.80312	-0.66693	5.74028	-2.04919
8178.297	4.96100	-0.45954	5.65887	-2.03770
8182.295	5.09901	-0.38982	5.72551	-1.94806
8186.293	4.73882	-0.42138	5.74021	-1.96883
8190.299	4.48991	-0.39487	5.51627	-2.00833
8194.295	3.65423	-0.42177	4.73786	-1.89053
8198.296	2.74036	-0.31100	3.96982	-1.77456
8202.299	2.05598	-0.42675	3.38904	-1.87045
8206.171	2.00143	-0.42699	3.02930	-1.91221
8210.169	1.75907	-0.36285	2.86272	-1.83205
8214.173	0.82483	-0.35287	1.67663	-1.69213
8218.171	0.28428	-0.33881	1.55214	-1.62664
8222.170	0.00536	-0.34580	1.12449	-1.67259
8226.195	0.02685	-0.25674	1.00022	-1.58565
8230.173	-0.10448	-0.29240	0.89815	-1.35483
8234.174	-0.23458	-0.23422	0.78863	-1.21748
8238.170	-0.15417	-0.13667	0.73062	-1.02344
8242.169	-0.04552	-0.03469	0.62722	-1.07707
8246.168	-0.23683	-0.05854	0.75990	-0.93198
8250.172	-0.09892	0.04836	0.95127	-0.90505
8254.177	-0.10729	0.04965	1.18346	-0.84597
8258.171	0.25403	0.07370	1.97260	-0.83361
8262.168	1.53277	0.09427	2.90232	-0.77688
8266.169	2.91785	0.12068	3.82536	-0.76574
8270.169	2.94032	0.10445	4.58826	-0.76140
8274.165	4.28022	0.12278	5.23142	-0.77105
8278.218	5.08458	0.00347	7.05938	-0.82477
8282.184	6.41643	0.11191	7.94582	-0.82629
8286.173	8.08144	-0.01575	9.80672	-0.87930
8290.166	9.95452	0.07754	11.58336	-0.98426
8294.202	10.30497	0.21436	12.65170	-1.07447
8298.178	11.51128	0.08466	14.14457	-1.38437
8302.169	11.98940	0.28755	14.49509	-1.36872
8306.167	12.38460	0.45461	14.00242	-1.57021
8310.165	12.30853	0.45404	12.97559	-1.41213
8314.171	12.22407	0.60644	12.62785	-1.42023
8318.168	12.17241	0.75925	12.91105	-1.31666
8322.168	12.16062	0.76373	13.17649	-1.29728
8326.166	12.05046	0.73073	13.39828	-1.43537
8330.171	11.99070	0.70421	13.82143	-1.48789
8334.168	11.98004	0.72747	13.66032	-1.53044
8338.173	11.92168	0.74309	13.65423	-1.54015
8342.172	11.92790	0.86410	13.46458	-1.53331
8346.172	12.00552	0.96863	13.47195	-1.45703
8350.166	12.00260	0.84795	13.28016	-1.34768
8354.166	12.05528	0.84994	13.47108	-1.31246
8358.170	11.99082	0.87751	13.54286	-1.24956
8362.192	11.92500	0.78200	13.48075	-1.29077
8366.175	11.92752	0.81617	13.49859	-1.36196
8370.166	11.97140	0.92144	13.54474	-1.35487
8374.167	12.02010	0.83973	13.50460	-1.31535
8378.176	12.22042	0.78497	13.49948	-1.23696
8382.172	11.97531	0.69536	13.48847	-1.06673
8386.164	11.99870	0.74434	13.43115	-1.07757
8390.164	11.98811	0.77061	13.42200	-1.02699
8394.171	12.03850	0.90513	13.47266	-1.01897
8398.168	12.04699	0.79627	13.43395	-1.06651
8402.167	12.02660	0.83759	13.43223	-1.04985
8406.174	12.00970	0.82071	13.50589	-1.02933
8410.166	12.01737	0.87570	13.47371	-0.92760
8414.168	12.30298	0.86944	13.41871	-0.91940
8418.162	12.15230	0.92344	13.37956	-0.87880
8422.177	12.13405	0.96249	13.33065	-0.95631
8426.167	12.05934	0.97388	13.30385	-1.05947
8430.189	12.15348	1.01596	13.31897	-1.08827
8434.172	12.24007	1.02396	13.24626	-1.00467
8438.160	12.33046	0.98577	13.24151	-0.99792
8442.160	12.26654	0.94856	13.38144	-1.13076
8446.169	12.23256	0.89905	13.29744	-1.17619
8450.169	12.19714	0.94065	13.26265	-1.29675
8454.166	12.13790	0.94217	13.24598	-1.26643
8458.164	12.28652	0.93210	13.22124	-1.21788
8462.173	12.17117	1.00562	13.24416	-1.28304
8466.198	12.28022	0.99948	13.37202	-1.22387
8470.177	12.34207	1.00594	13.41051	-1.22447
8474.167	12.39433	1.07639	13.31669	-1.12410
8478.166	12.33049	1.10119	13.33739	-1.28794
8482.163	12.29668	0.92959	13.22180	-1.12077
8486.169	12.24450	1.06048	13.13606	-1.14954
8490.167	12.29422	1.10984	13.11354	-1.14872
8494.193	12.40079	1.10043	13.12528	-1.16921
8498.170	12.45856	1.01340	13.20771	-1.21287
8502.168	12.32478	0.79311	13.13070	-1.14777
8506.172	12.29026	0.58925	13.03922	-0.98044
8510.164	12.22421	0.74160	13.07001	-0.90042
8514.163	12.18827	0.83629	13.10958	-0.99649
8518.161	12.14385	0.89348	12.97764	-1.07253
8522.168	12.21881	0.71629	12.99682	-1.05775
8526.165	12.33979	0.66882	13.19395	-1.08264
8530.166	12.43109	0.61613	14.18955	-1.09076
8534.166	13.11384	0.40161	15.57892	-1.03494
8538.165	14.14322	0.43557	15.67669	-1.22264
8542.165	13.75130	0.39557	15.83404	-1.53184
8546.166	13.51607	0.50101	15.67460	-1.60072
8550.167	13.23582	0.44616	15.39748	-1.43888
8554.164	13.38949	0.45175	15.47121	-1.48056
8558.163	13.56934	0.43585	15.67301	-1.77356
8562.182	13.78628	0.40719	15.25882	-1.59447
8566.175	13.93887	0.37177	15.25739	-1.82284
8570.176	13.99791	0.26643	15.18906	-1.79102
8574.163	13.88565	0.22294	15.45055	-1.80594
8578.167	13.89147	0.30753	15.34612	-1.79806
8582.164	13.80975	0.30762	15.01587	-1.84429
8586.169	13.73868	0.27667	15.03830	-1.81993
8590.168	13.65298	0.23191	15.08053	-1.78920
8594.164	13.70950	0.24962	15.20439	-1.81051
8598.163	13.81376	0.24058	15.24704	-1.78864
8602.161	13.85295	0.22167	15.22514	-1.75164
8606.166	13.87176	0.21319	15.24330	-1.68584
8610.165	13.92180	0.24946	15.17600	-1.64533
8614.166	13.81333	0.24263	15.11618	-1.60615
8618.166	13.85955	0.26046	15.03883	-1.54445
8622.162	13.91706	0.21908	14.94361	-1.57000
8626.163	13.90494	0.18498	14.99753	-1.51225
8630.166	13.99807	0.14252	15.00487	-1.45015
8634.194	14.03218	0.14988	15.01119	-1.43706
8638.170	14.04360	0.13377	14.98387	-1.41498
8642.159	14.02599	0.13527	14.91710	-1.39793
8646.156	14.00856	0.14840	14.88600	-1.37218
8650.162	14.00655	0.10806	14.85387	-1.35808
8654.164	13.99286	0.12941	14.85929	-1.36340
8658.161	14.00073	0.21753	14.93939	-1.43480
8662.167	13.96341	0.23695	15.00612	-1.58318
8666.161	13.94745	0.37149	15.26700	-1.83555
8670.166	13.99038	0.39194	15.39612	-1.76967
8674.167	13.96105	0.44752	15.25760	-1.71923
8678.164	13.96858	0.52710	15.12289	-1.80871
8682.163	13.98347	0.58787	15.10920	-1.88641
8686.160	14.05733	0.53914	15.16608	-1.89352
8690.166	14.08528	0.36116	15.21224	-1.82043
8694.163	14.07837	0.41090	15.09178	-1.81852
8698.163	14.12436	0.47407	15.09118	-1.74175
8702.185	14.10601	0.52722	15.03758	-1.65465
8706.201	14.10679	0.54676	15.13126	-1.85307
8710.164	13.99391	0.55043	15.03603	-1.75860
8714.171	13.97870	0.58142	15.10822	-1.74413
8718.161	14.00328	0.50853	15.16171	-1.72428
8722.158	14.01669	0.44963	15.15926	-1.66082
8726.163	13.92159	0.34068	15.20184	-1.63252
8730.161	13.89199	0.12705	15.20034	-1.59111
8734.158	13.88291	0.10677	15.18842	-1.60759
8738.158	13.91399	0.11233	15.15173	-1.68252
8742.164	13.89554	0.29607	15.19537	-1.71370
8746.164	13.89334	0.25224	15.24466	-1.70262
8750.158	13.80381	0.23967	15.20254	-1.66383
8754.162	13.86137	0.24632	15.24722	-1.63933
8758.163	13.89858	0.26599	15.20482	-1.59721
8762.161	13.92568	0.16736	15.14995	-1.62331
8766.160	13.95612	0.12878	15.13089	-1.60826
8770.188	13.93144	0.14575	15.01397	-1.58207
8774.166	13.84389	0.40994	15.01992	-1.54920
8778.166	13.72882	0.41888	14.82780	-1.54969
8782.161	13.12703	0.49654	14.32393	-1.50382
8786.160	11.06887	0.48697	12.33740	-1.50640
8790.159	9.09585	0.32165	10.60399	-1.44408
8794.169	7.89900	0.12253	9.52193	-1.33518
8798.166	6.88316	0.41583	8.95365	-1.36761
8802.158	5.94030	0.21542	7.69315	-1.31989
8806.159	4.39025	0.11494	6.84619	-1.32186
8810.163	3.35048	0.17878	5.92095	-1.29994
8814.164	1.99783	-0.12434	3.99277	-1.24076
8818.158	0.80332	-0.45493	3.39883	-1.18543
8822.158	0.04172	-0.47632	1.96861	-1.13700
8826.163	-1.09420	-0.59111	1.28737	-1.13760
8830.160	-1.51906	-0.95133	-0.60220	-0.93670
8834.160	-2.90619	-0.72877	-0.78183	-1.02661
8838.188	-6.16000	2.50240	-1.22906	-1.02294
8842.169	-3.76445	2.51679	-1.74883	-1.08855
8846.168	-2.50739	2.41750	-1.72704	-0.95076
8850.160	-4.69778	4.27340	-2.32033	-0.98901
8854.158	-4.92910	3.88816	-2.03734	-1.00987
8858.156	-2.66857	3.92810	-2.22629	-1.03425
8862.164	-4.95541	2.99399	-2.06733	-0.95856
8866.158	-3.46968	5.12018	-1.89151	-1.06778
8870.157	-3.11336	4.80707	-2.03407	-1.14197
8874.161	-2.16020	4.76821	-2.15413	-1.16320
8878.169	-3.09775	6.55979	-2.31673	-1.16347
8882.159	-3.72993	6.27149	-2.35724	-1.26010
8886.156	-2.61805	5.99291	-2.45260	-1.23403
8890.161	-4.97541	7.46717	-2.22604	-1.14517
8894.161	-3.73633	7.09245	-2.34324	-1.32039
8898.158	-4.85968	6.82326	-2.30417	-1.41142
8902.165	-2.36809	9.21940	-2.27419	-1.16904
8906.184	-3.23249	8.31322	-2.32340	-1.35388
8910.165	-2.17784	8.46075	-2.36579	-1.36044
8914.161	-4.47913	9.84288	-2.34924	-1.16510
8918.212	-2.19497	9.93253	-2.38405	-1.28355
8922.166	-3.09619	9.58672	-2.27994	-1.43226
8926.159	-1.98789	11.51752	-2.31019	-1.26751
8930.162	-3.36817	10.80385	-2.30372	-1.30710
8934.157	-1.79071	10.74933	-2.36029	-1.17128
8938.154	-3.96802	12.49914	-2.30035	-1.08255
8942.159	-3.13860	12.52053	-2.29654	-1.31157
8946.162	-2.87571	12.60727	-2.33502	-1.35772
8950.157	-1.78334	12.58360	-2.51118	-1.18668
8954.153	-3.43741	14.33221	-2.37815	-1.15111
8958.161	-2.23885	14.26778	-2.37198	-1.43187
8962.167	-1.82842	14.25412	-2.36782	-1.52038
8966.156	-0.00144	14.31835	-2.48255	-1.27078
8970.157	NaN	NaN	-2.47452	-1.22808
8974.155	NaN	NaN	-2.45448	-1.47468
8978.163	NaN	NaN	-2.42384	-1.62781
8982.162	NaN	NaN	-2.42314	-1.52833
8986.158	NaN	NaN	-2.52297	-1.23314
8990.154	NaN	NaN	-2.44323	-1.57728
8994.152	NaN	NaN	-2.43957	-1.64409
8998.157	NaN	NaN	-2.44549	-1.60156
9002.161	NaN	NaN	-2.60495	-1.61265
9006.157	NaN	NaN	-2.46221	-1.52112
9010.159	NaN	NaN	-2.45227	-1.51321
9014.157	NaN	NaN	-2.43719	-1.53700
9018.155	NaN	NaN	-2.28849	-1.58299
9022.152	NaN	NaN	-2.40060	-1.57033
9026.157	NaN	NaN	-2.54836	-1.54116
9030.164	NaN	NaN	-2.58373	-1.62699
9034.156	-3.08909	-1.78861	-2.50125	-1.63047
9038.160	-3.14474	-1.79196	-2.01236	-1.59675
9042.161	-1.99555	-1.90410	-0.65216	-1.59639
9046.162	-0.38226	-1.93117	0.89905	-1.51009
9050.161	0.03961	-1.88204	1.43959	-1.56474
9054.156	0.66288	-1.81237	2.18607	-1.59295
9058.031	1.49800	-1.83537	2.94557	-1.67495
9062.034	1.93189	-1.72040	2.99406	-1.70418
9066.027	1.85628	-1.74335	2.75497	-1.70000
9070.028	1.98085	-1.67465	2.84771	-1.66264
9074.033	1.75312	-1.60078	2.59562	-1.69104
9078.032	1.79705	-1.67626	2.32047	-1.72471
9082.031	1.72768	-1.65138	2.42512	-1.66348
9086.027	1.75369	-1.64191	2.73603	-1.66002
9090.031	2.01848	-1.53029	2.64705	-1.74876
9094.037	1.80206	-1.39449	2.64275	-1.70675
9098.030	1.85095	-1.32028	2.63215	-1.66644
9102.033	1.90631	-1.23547	2.71976	-1.53405
9106.030	1.98427	-1.37672	2.75289	-1.51305
9110.032	1.97317	-1.41699	2.73011	-1.51370
9114.031	1.95988	-1.31858	2.78369	-1.56038
9118.034	1.94047	-1.22745	2.75180	-1.47203
9122.061	1.98231	-1.15739	2.83984	-1.55508
9126.031	2.12662	-1.23473	2.74824	-1.58518
9130.027	2.04361	-1.21526	2.77324	-1.55482
9134.037	2.04183	-1.19866	2.76163	-1.55610
9138.029	2.13358	-1.14157	2.85435	-1.57641
9142.026	2.11546	-1.09460	2.92359	-1.52121
9146.030	2.15584	-1.22049	2.88114	-1.58820
9150.028	2.13148	-1.19844	2.88680	-1.66378
9154.036	2.13504	-1.09046	2.85269	-1.62479
9158.033	2.15794	-1.02253	2.88784	-1.63910
9162.028	2.13673	-1.10501	2.86905	-1.65659
9166.027	2.13430	-1.21206	2.92988	-1.62645
9170.031	2.12932	-1.12363	2.97341	-1.66112
9174.032	2.22024	-1.00047	2.98524	-1.73789
9178.053	2.21264	-0.98968	3.01757	-1.65637
9182.034	2.22176	-0.98443	2.99562	-1.71697
9186.031	2.22872	-1.02464	2.95153	-1.68711
9190.028	2.19901	-1.11727	2.93574	-1.85905
9194.029	2.21764	-1.18782	2.94782	-1.82447
9198.026	2.21982	-1.23967	2.98408	-1.89199
9202.032	2.20352	-1.17498	2.96596	-1.94251
9206.029	2.23244	-1.40638	2.96091	-1.96307
9210.026	2.21105	-1.08420	2.80756	-1.95835
9214.028	2.19162	-1.11832	2.72516	-2.02042
9218.034	2.14406	-1.21742	2.70094	-1.96001
9222.032	2.08961	-1.27631	2.73974	-2.04771
9226.032	2.02346	-1.40980	2.66139	-2.07055
9230.029	1.96159	-1.35604	2.73259	-2.05251
9234.028	1.91724	-1.36975	2.73917	-1.96652
9238.025	2.00715	-1.42567	2.68390	-1.91586
9242.030	1.99461	-1.38696	2.70208	-1.92151
9246.050	2.06919	-1.33359	2.71510	-1.92578
9250.032	1.99111	-1.26018	2.67457	-1.83363
9254.032	2.01459	-1.30017	2.76886	-1.83395
9258.033	1.97761	-1.24582	2.85561	-1.78289
9262.060	1.98549	-1.22417	2.84405	-1.81522
9266.041	2.03791	-1.16974	2.75995	-1.84555
9270.030	2.13524	-1.10957	2.84375	-1.84021
9274.025	2.12813	-1.09657	2.79095	-1.85358
9278.061	2.18064	-0.96532	2.79018	-1.92387
9282.034	2.14553	-0.95812	2.81305	-1.96005
9286.039	2.21397	-0.87571	2.83249	-1.95657
9290.023	2.21757	-0.88551	2.83489	-1.94413
9294.026	2.29022	-0.83999	2.76520	-1.98889
9298.027	2.29696	-0.82529	2.69433	-1.99025
9302.031	2.25060	-0.86754	2.70532	-2.07099
9306.023	2.33388	-0.97085	2.69185	-2.07265
9310.030	2.35117	-0.85939	2.72753	-2.01642
9314.031	2.30249	-0.74659	2.76557	-1.94404
9318.032	2.33197	-0.71222	2.81538	-1.90129
9322.026	2.42237	-0.80012	2.79397	-1.86387
9326.051	2.32974	-0.84396	2.85324	-1.77085
9330.028	2.31584	-0.78881	2.78691	-1.69866
9334.027	2.30395	-0.77628	2.81538	-1.71095
9338.066	2.26579	-0.78693	2.84789	-1.76195
9342.033	2.23801	-0.76142	2.95134	-1.80567
9346.064	2.30514	-0.71365	2.95671	-1.74597
