time (ms)	lx (deg)	ly (deg)	rx (deg)	ry (deg)
0.000	-0.22656	0.35158	0.11967	-0.38844
4.000	-0.19512	0.34927	0.15759	-0.43445
7.997	-0.19023	0.29304	0.18055	-0.45716
11.996	-0.16067	0.26086	0.23959	-0.41393
15.998	-0.06105	0.28710	0.18918	-0.38401
19.998	-0.05606	0.24054	0.06974	-0.34679
24.005	-0.09609	0.26499	0.08922	-0.30912
27.995	-0.06311	0.30845	0.09168	-0.31146
31.994	-0.05500	0.32922	0.10198	-0.32532
35.994	-0.01822	0.35772	0.02804	-0.26673
39.999	-0.02685	0.36838	-0.02670	-0.27123
43.997	-0.04083	0.40973	-0.02956	-0.30077
47.991	-0.04393	0.39226	-0.02474	-0.31086
51.999	-0.08103	0.41756	-0.02514	-0.32465
55.993	-0.09537	0.36622	-0.02447	-0.36262
60.002	-0.14851	0.40215	0.01045	-0.41433
63.999	-0.17370	0.42295	0.05135	-0.43925
67.992	-0.15948	0.39815	0.08026	-0.49923
72.062	-0.18569	0.37512	0.08577	-0.47125
76.001	-0.23778	0.30484	0.10342	-0.44424
79.992	-0.29014	0.29582	0.17849	-0.46226
83.999	-0.34107	0.38465	0.25468	-0.42548
87.996	-0.32600	0.38011	0.27135	-0.40759
91.992	-0.34216	0.31809	0.26669	-0.34671
95.990	-0.32349	0.30134	0.22740	-0.28902
99.998	-0.33047	0.31200	0.22993	-0.22856
104.001	-0.30585	0.31642	0.23167	-0.19444
107.992	-0.30736	0.24195	0.20487	-0.13215
111.988	-0.28610	0.28074	0.17529	-0.11602
116.012	-0.26287	0.30668	0.15759	-0.09366
120.001	-0.20132	0.35650	0.13868	-0.11150
123.996	-0.15397	0.36388	0.09927	-0.16666
127.993	-0.07914	0.29384	0.05395	-0.20662
131.995	-0.06701	0.24687	0.03790	-0.18267
135.991	-0.06599	0.21557	0.05393	-0.20205
139.992	-0.06656	0.19494	0.08773	-0.23316
144.010	-0.08433	0.18249	0.08495	-0.30462
148.004	-0.06130	0.21365	0.11396	-0.35842
151.992	-0.04095	0.33024	0.16077	-0.41920
155.991	-0.03147	0.46832	0.18283	-0.52731
159.991	-0.03395	0.51461	0.22658	-0.50651
163.992	-0.04894	0.48194	0.23882	-0.50246
167.992	-0.07986	0.47607	0.22636	-0.49992
171.991	-0.18966	0.60224	0.22450	-0.38167
175.997	-0.23487	0.62105	0.17030	-0.39055
179.992	-0.24051	0.56065	0.11461	-0.38637
183.996	-0.12811	0.65793	0.10945	-0.50055
187.998	-0.09719	0.62930	0.15608	-0.65884
192.011	-0.01191	0.71753	0.14327	-0.78068
195.993	-0.06636	0.77023	0.13610	-0.88058
199.991	-0.15414	0.66078	0.15049	-0.84434
203.992	-0.23296	0.61849	0.14709	-0.81477
207.994	-0.14603	0.55322	0.13414	-0.67089
211.996	-0.01286	0.50363	0.12029	-0.53700
215.992	-0.01956	0.47794	0.08738	-0.60404
219.994	0.01303	0.44780	0.14900	-0.52897
223.989	0.04033	0.45311	0.17345	-0.61636
228.002	-0.09039	0.40844	0.21887	-0.66677
231.993	-0.07147	0.41629	0.27520	-0.66060
235.995	-0.07842	0.40076	0.32238	-0.59958
239.991	-0.01397	0.37045	0.41435	-0.55878
243.991	0.09498	0.35067	0.40373	-0.53299
247.992	0.06125	0.27451	0.51364	-0.56657
251.992	0.02050	0.26024	0.62034	-0.64338
255.998	-0.07329	0.22506	0.58605	-0.72621
260.027	0.00826	0.07818	0.70893	-0.74495
263.995	0.02747	0.16199	0.72427	-0.79918
267.997	0.20112	0.16793	0.76310	-0.79903
271.992	0.26053	0.25696	0.76886	-0.78519
275.993	0.30262	0.23407	0.68379	-0.71291
279.990	0.27796	0.21442	0.68672	-0.66685
284.027	0.25048	0.20354	0.55416	-0.65246
287.988	0.22413	0.19464	0.53446	-0.61954
291.993	0.22433	0.20229	0.38330	-0.58069
295.989	0.25607	0.14450	0.36099	-0.48402
299.989	0.17851	0.16197	0.34049	-0.41782
303.988	0.11697	0.19372	0.28332	-0.31993
307.989	0.05447	0.14360	0.28610	-0.18798
311.993	-0.06932	0.13645	0.25929	-0.05179
315.989	-0.14672	0.06642	0.25808	0.03193
319.988	-0.21559	0.01985	0.32756	0.10429
323.990	-0.33727	-0.00122	0.37593	0.14179
327.992	-0.38531	-0.05094	0.46130	0.19344
332.000	-0.41589	-0.10404	0.44398	0.25050
335.994	-0.45778	-0.14601	0.53280	0.28612
339.993	-0.48565	-0.17170	0.60377	0.35847
343.986	-0.49716	-0.26354	0.57458	0.31447
347.992	-0.49604	-0.26443	0.63012	0.14943
351.996	-0.50237	-0.29027	0.66704	0.01118
355.988	-0.48532	-0.33768	0.69260	-0.40220
359.992	-0.47914	-0.35319	0.71310	-0.76510
363.991	-0.46051	-0.36802	0.71384	-1.04262
367.989	-0.45825	-0.39359	0.69833	-0.53495
371.987	-0.42346	-0.38684	0.66637	-0.83541
375.994	-0.40303	-0.38820	0.68960	-1.17820
379.989	-0.40273	-0.38579	0.65640	-1.04850
383.988	-0.36774	-0.38090	0.59707	-1.06230
387.988	-0.37941	-0.30708	0.54607	-0.95890
392.005	-0.36916	-0.26401	0.49225	-1.03695
396.020	-0.28044	-0.21897	0.46329	-1.02208
399.993	-0.21643	-0.13930	0.47562	-0.94795
403.986	-0.24604	-0.02485	0.46043	-0.88587
407.989	-0.19703	0.06846	0.42795	-0.77863
411.993	-0.14015	0.11923	0.40986	-0.80926
415.991	-0.11106	0.17432	0.39958	-0.75664
419.988	-0.08284	0.23052	0.40432	-0.70626
423.986	-0.07557	0.26631	0.34484	-0.63911
427.988	-0.03817	0.30915	0.36511	-0.59314
431.991	0.02412	0.34324	0.40956	-0.59739
435.992	0.05408	0.38709	0.40100	-0.58260
439.986	0.05266	0.42531	0.41854	-0.58052
443.989	0.04862	0.43189	0.43117	-0.61172
447.992	0.11347	0.42188	0.43944	-0.63895
451.989	0.16288	0.39002	0.45919	-0.70653
455.989	0.18861	0.36818	0.47758	-0.69425
459.989	0.23502	0.34584	0.54555	-0.72977
464.010	0.25073	0.33590	0.54637	-0.75906
467.989	0.27101	0.29013	0.59220	-0.81240
472.002	0.29188	0.24158	0.65248	-0.80483
475.993	0.30903	0.16534	0.69389	-0.77146
479.986	0.33764	0.11994	0.81034	-0.77234
483.986	0.32925	0.06992	0.89086	-0.76055
487.987	0.35677	0.05360	0.91698	-0.73488
491.985	0.34767	0.01429	0.99943	-0.71188
495.987	0.37109	-0.02115	1.06726	-0.69001
499.986	0.36591	-0.01588	1.07979	-0.67614
503.988	0.34553	-0.02905	1.12586	-0.66163
508.051	0.32898	-0.04642	1.13283	-0.62568
511.990	0.34729	-0.03148	1.15493	-0.58476
515.987	0.33863	-0.01859	1.17483	-0.57981
519.989	0.33432	0.05797	1.17741	-0.60443
523.987	0.35707	0.09052	1.10626	-0.65775
527.986	0.35881	0.17635	1.10703	-0.65135
531.993	0.32903	0.23422	1.09889	-0.65736
535.987	0.33409	0.33819	1.02491	-0.70795
539.990	0.30592	0.43728	0.96852	-0.77509
543.989	0.27396	0.49726	0.92579	-0.79460
547.986	0.27212	0.58507	0.89364	-0.81425
551.987	0.27570	0.64930	0.85575	-0.84809
555.988	0.26689	0.71464	0.85287	-0.87199
559.990	0.23964	0.77308	0.83414	-0.89738
563.992	0.20864	0.76940	0.79821	-0.91928
567.987	0.19775	0.79991	0.85161	-0.89586
571.988	0.12493	0.75157	0.79310	-0.94163
575.985	0.08855	0.73336	0.76265	-1.00525
579.988	0.07227	0.66449	0.77052	-1.03489
583.988	0.03631	0.57588	0.80372	-0.99690
587.983	0.00933	0.38727	0.82816	-1.01642
591.989	-0.01956	0.48567	0.89674	-1.05599
595.987	-0.02214	0.38163	0.86570	-1.05799
599.992	-0.02864	0.33437	0.83451	-1.06636
603.994	-0.03695	0.26807	0.82456	-1.07297
607.984	-0.02122	0.21074	0.85131	-1.04949
611.991	-0.07897	0.22063	0.85138	-1.07259
615.860	-0.06125	0.20796	0.78776	-0.99608
619.861	-0.04164	0.20304	0.78724	-0.91789
623.861	-0.05482	0.20163	0.82191	-0.84306
627.862	-0.03991	0.23863	0.76878	-0.83090
631.861	-0.05028	0.28221	0.74928	-0.73513
635.859	-0.07138	0.31814	0.66481	-0.69897
639.860	-0.06095	0.36314	0.62198	-0.64191
643.856	-0.06505	0.37589	0.58999	-0.63948
647.868	-0.06649	0.42765	0.58421	-0.59792
651.858	-0.06512	0.42782	0.55642	-0.58905
655.857	-0.02023	0.42901	0.52572	-0.60053
659.859	0.05110	0.43527	0.56935	-0.63273
663.860	0.12081	0.42437	0.58444	-0.76100
667.862	0.17536	0.41843	0.57012	-0.85279
671.861	0.22641	0.40955	0.59699	-0.89042
675.880	0.33449	0.37469	0.62121	-0.98690
679.865	0.43629	0.37354	0.71618	-0.99257
683.858	0.49294	0.35756	0.72990	-1.05658
687.865	0.53322	0.33535	0.82530	-1.10099
691.864	0.59481	0.30873	0.88178	-1.15326
695.858	0.61967	0.31551	0.93686	-1.18667
699.863	0.62655	0.28669	0.96400	-1.18241
703.865	0.62357	0.26656	0.93435	-1.13963
707.858	0.55664	0.21170	0.90044	-1.10944
711.855	0.51624	0.17543	0.97670	-1.07223
715.858	0.47172	0.12961	0.94013	-1.00980
719.856	0.30391	0.15886	0.92341	-0.91612
723.853	0.23924	0.07390	0.84684	-0.81536
727.862	0.24537	0.06779	0.85036	-0.74272
731.863	0.16722	0.04006	0.81444	-0.61550
735.859	0.12751	0.05238	0.77816	-0.52025
739.860	0.07177	0.01153	0.74533	-0.54098
743.856	0.03393	-0.02584	0.72154	-0.46324
747.857	0.00722	-0.00760	0.72263	-0.46272
751.857	-0.00529	0.05648	0.71243	-0.37564
755.855	-0.01963	0.10524	0.67211	-0.29350
759.857	-0.04145	0.06463	0.64774	-0.24251
763.855	0.00161	0.02321	0.63325	-0.24278
767.860	0.01276	0.09892	0.66590	-0.26192
771.862	0.08110	0.14082	0.66819	-0.23983
775.857	0.12679	0.16763	0.72181	-0.23008
779.860	0.16794	0.23338	0.74017	-0.28358
783.857	0.19529	0.26501	0.76856	-0.35667
787.856	0.18933	0.31690	0.76146	-0.35148
791.856	0.19395	0.35760	0.76816	-0.36134
795.857	0.20527	0.38461	0.79300	-0.41936
799.855	0.17447	0.38476	0.76548	-0.48649
803.855	0.15620	0.39641	0.74163	-0.52535
807.860	0.18737	0.39922	0.73632	-0.51442
811.857	0.13992	0.38652	0.72094	-0.50916
815.862	0.07341	0.34644	0.68337	-0.49400
819.862	0.03618	0.31958	0.63216	-0.51744
823.857	-0.05289	0.25746	0.63980	-0.50029
827.858	-0.05524	0.19283	0.64086	-0.47793
831.908	-0.05103	0.16999	0.62421	-0.47227
835.861	-0.01085	0.19042	0.66863	-0.46441
839.856	0.09053	0.22642	0.71295	-0.54511
843.857	0.05897	0.27490	0.70352	-0.56563
847.858	0.06497	0.31163	0.75876	-0.55000
851.856	0.04341	0.27324	0.73253	-0.56346
855.860	-0.00712	0.25915	0.73630	-0.54262
859.856	0.03832	0.28017	0.72084	-0.56585
863.857	0.05872	0.23547	0.71695	-0.59678
867.859	0.18596	0.29712	0.76024	-0.78377
871.857	0.22229	0.32795	0.78947	-0.85695
875.856	0.16372	0.30447	0.91728	-0.70666
879.861	0.14466	0.29925	0.85295	-0.76401
883.856	0.01663	0.28104	0.75394	-0.73603
887.855	-0.01926	0.15245	0.63600	-0.62122
891.852	0.13473	0.16813	0.61975	-0.47431
895.882	0.29878	0.12385	0.71848	-0.39554
899.866	0.25014	0.03737	0.80503	-0.43811
903.857	0.22058	0.00589	0.82848	-0.51920
907.854	0.17380	-0.00927	0.79243	-0.53836
911.856	0.14588	0.03847	0.74625	-0.42113
915.854	0.02248	0.06702	0.66062	-0.36995
919.852	0.13285	0.00549	0.66977	-0.41008
923.891	0.18462	-0.03847	0.67635	-0.42230
927.855	0.21686	-0.08697	0.71188	-0.45171
931.857	0.21621	-0.07840	0.73866	-0.55959
935.852	0.07282	-0.09679	0.70898	-0.53221
939.856	-0.04306	-0.09184	0.63039	-0.60457
943.865	-0.05326	-0.09649	0.66240	-0.55095
947.856	0.18310	-0.04542	0.70935	-0.59154
951.855	0.31662	-0.03822	0.68439	-0.62360
955.860	0.21954	-0.01518	0.73630	-0.66282
959.857	0.19236	0.00924	0.74819	-0.73471
963.851	0.13208	0.01729	0.72739	-0.72744
967.858	0.19258	0.07934	0.70402	-0.69942
971.856	0.04678	0.06327	0.65962	-0.69652
975.857	-0.03738	0.10389	0.58210	-0.70813
979.856	0.12875	0.04781	0.62719	-0.65274
983.854	0.21834	0.03322	0.64000	-0.58477
987.854	0.34707	0.10372	0.66278	-0.68009
991.856	0.32501	0.12964	0.61349	-0.73272
995.853	0.23239	0.16773	0.68997	-0.79062
999.858	0.14682	0.15677	0.68789	-0.82562
1003.854	0.14414	0.13282	0.72074	-0.84440
1007.856	0.18881	0.14703	0.73521	-0.78748
1011.854	0.07291	0.12790	0.73876	-0.80681
1015.857	0.05991	0.11177	0.72843	-0.74430
1019.856	0.02948	0.02492	0.66203	-0.60971
1023.859	-0.05745	0.08245	0.66637	-0.60439
1027.856	-0.00985	0.08486	0.55932	-0.54555
1031.855	0.09902	0.09055	0.41524	-0.46930
1035.857	0.14898	0.08359	0.32680	-0.39745
1039.854	0.16571	0.07114	0.27193	-0.33138
1043.853	0.30282	0.02192	0.20008	-0.34642
1047.854	0.38037	-0.00576	0.10078	-0.30249
1051.854	0.35836	-0.01337	0.14208	-0.36145
1055.851	0.35141	-0.05574	0.28245	-0.46191
1059.851	0.36328	-0.07894	0.26411	-0.41855
1063.862	0.41777	-0.05151	0.44505	-0.56814
1067.855	0.41192	-0.03909	0.45413	-0.90046
1071.852	0.39025	-0.03702	0.64928	-0.78893
1075.858	0.31605	-0.02664	1.07473	-0.66852
1079.855	0.26076	-0.05608	0.99286	-0.82277
1083.859	0.22410	-0.06563	1.07187	-0.86421
1087.854	0.11766	-0.05188	1.07507	-0.89402
1091.856	0.08617	-0.01498	1.14263	-0.89944
1095.852	0.07793	-0.02346	1.17096	-0.89463
1099.857	0.04234	0.01389	1.19862	-0.84169
1103.861	0.04358	0.00656	1.20279	-0.83094
1107.856	0.01293	0.01511	1.19413	-0.81566
1111.850	-0.03120	-0.02085	1.24444	-0.72521
1115.852	-0.07277	-0.06259	1.24267	-0.69786
1119.852	-0.10066	-0.07390	1.17694	-0.68283
1123.854	-0.14580	-0.07624	1.08383	-0.67353
1127.851	-0.27535	-0.12231	1.04290	-0.65342
1131.851	-0.26001	-0.12263	0.94343	-0.65396
1135.854	-0.30265	-0.15361	0.88952	-0.64155
1139.854	-0.30808	-0.13125	0.80086	-0.61970
1143.915	-0.31992	-0.15896	0.68682	-0.60474
1147.868	-0.24952	-0.14035	0.62275	-0.59863
1151.854	-0.15499	-0.12703	0.53128	-0.56011
1155.852	-0.05867	-0.09848	0.47684	-0.55549
1159.847	-0.08890	-0.07852	0.39879	-0.53716
1163.849	0.02698	-0.09127	0.41805	-0.51497
1167.851	0.10041	-0.06051	0.34548	-0.45393
1171.848	0.06716	-0.01804	0.33161	-0.39534
1175.849	0.06170	-0.02246	0.32697	-0.31702
1179.853	0.15531	-0.00335	0.31245	-0.28901
1183.852	0.19015	-0.03929	0.38306	-0.23531
1187.855	0.18971	-0.03404	0.44927	-0.23089
1191.852	0.14918	-0.07716	0.44693	-0.20701
1195.848	0.14717	-0.08019	0.48177	-0.19836
1199.849	0.04259	-0.04212	0.54349	-0.22214
1203.853	0.02013	0.09664	0.57153	-0.27042
1207.850	0.04656	0.20446	0.54860	-0.33162
1211.882	0.04959	0.30149	0.57223	-0.44119
1215.851	0.03795	0.37296	0.61076	-0.56974
1219.850	0.01998	0.51846	0.64171	-0.64519
1223.848	0.08383	0.61487	0.65263	-0.76819
1227.850	0.01710	0.59211	0.65327	-0.90234
1231.861	0.06892	0.65755	0.66886	-0.94941
1235.858	0.09312	0.62503	0.59580	-0.89897
1239.849	0.10632	0.66851	0.53002	-0.91172
1243.849	0.14173	0.68466	0.38459	-0.88951
1247.856	0.20090	0.64396	0.33429	-0.74286
1251.848	0.23358	0.55533	0.28925	-0.76458
1255.847	0.21926	0.46777	0.28026	-0.48638
1259.848	0.28890	0.31953	0.21236	-0.43788
1263.850	0.35819	0.31799	0.23425	-0.42280
1267.850	0.34389	0.21822	0.18616	-0.34676
1271.860	0.38534	0.17941	0.15729	-0.32795
1275.851	0.35782	0.15988	0.11945	-0.26703
1279.851	0.35464	0.14231	0.17735	-0.22071
1283.851	0.29962	0.11903	0.23547	-0.19834
1287.847	0.23631	0.16251	0.28863	-0.20518
1291.849	0.16926	0.23045	0.30756	-0.21820
1295.852	0.04713	0.27433	0.39941	-0.20550
1299.852	0.01119	0.30199	0.39859	-0.26327
1303.848	-0.03415	0.29225	0.44512	-0.32280
1307.849	-0.04130	0.28248	0.38909	-0.30278
1311.848	0.01829	0.29933	0.34057	-0.31396
1315.855	0.00978	0.28226	0.36923	-0.31406
1319.851	-0.01444	0.28415	0.35747	-0.35108
1323.845	-0.07296	0.28293	0.42356	-0.36390
1327.847	-0.09716	0.42141	0.43743	-0.40808
1331.852	-0.04653	0.47374	0.56131	-0.53161
1335.847	-0.07234	0.35767	0.68136	-0.41825
1339.847	-0.07172	0.28112	0.74863	-0.40080
1343.848	-0.13014	0.14047	0.66660	-0.38732
1347.849	0.02648	0.49357	0.66759	-0.43768
1351.848	-0.01176	0.24648	0.52761	-0.32846
1355.851	-0.01983	0.21547	0.46068	-0.41474
1359.852	0.04142	0.24658	0.53535	-0.35120
1363.885	-0.03231	0.21571	0.71387	-0.33640
1367.850	-0.05256	0.05912	0.71967	-0.46414
1371.847	0.11625	0.39574	0.81883	-0.48296
1375.851	0.06123	0.15123	0.62392	-0.35999
1379.865	0.01047	-0.08138	0.51029	-0.40671
1383.856	0.12461	0.08948	0.61057	-0.31258
1387.843	0.15799	0.09306	0.67618	-0.34304
1391.851	0.06721	0.04841	0.54443	-0.38633
1395.852	0.06676	0.02075	0.50458	-0.47998
1399.844	0.07763	0.20048	0.62957	-0.55488
1403.844	0.04336	0.23162	0.73211	-0.82959
1407.847	-0.06229	0.45108	0.72481	-0.58853
1411.844	-0.26813	0.30467	0.23544	-0.59591
1415.853	-0.62905	0.25481	0.06780	-0.36481
1419.849	-2.64133	0.31150	-1.27008	-0.48448
1423.848	-3.45739	0.27468	-1.62589	-0.27487
1427.844	-3.18717	0.17688	-2.22327	-0.36677
1431.846	-3.60235	0.14434	-2.44754	-0.21753
1435.846	-3.70055	0.39821	-2.48076	-0.42052
1439.853	-4.19541	0.29565	-3.34217	-0.34305
1443.850	-4.77875	-0.00436	-3.38469	-0.32403
1447.847	-5.13134	0.39519	-3.92030	-0.25735
1451.848	-5.35539	0.20307	-4.45190	-0.27462
1455.847	-5.54132	0.11815	-4.73325	-0.21196
1459.846	-5.77654	0.05209	-4.42673	-0.20860
1463.719	-5.79074	-0.04420	-4.47378	-0.21248
1467.718	-5.89306	-0.02052	-4.61546	-0.25254
1471.725	-5.81882	0.00576	-4.98068	-0.25570
1475.724	-5.91418	0.12250	-5.30390	-0.29050
1479.718	-5.97855	0.14317	-5.28126	-0.36912
1483.746	-5.88938	0.40764	-4.93575	-0.58826
1487.729	-5.78863	0.25313	-5.05851	-0.50981
1491.720	-5.86256	0.27564	-5.06181	-0.47840
1495.720	-5.91715	0.46481	-5.07739	-0.49802
1499.725	-5.92316	0.50779	-4.94277	-0.55785
1503.721	-5.90701	0.50874	-5.07931	-0.49428
1507.720	-5.78251	0.40001	-5.21656	-0.50949
1511.719	-5.82095	0.37593	-5.21397	-0.69786
1515.718	-5.77524	0.50916	-5.22909	-0.59722
1519.724	-5.74347	0.41207	-5.21304	-0.66406
1523.722	-5.69116	0.29073	-5.14576	-0.46599
1527.724	-5.71045	0.21002	-5.19657	-0.29248
1531.722	-5.77205	0.21324	-5.14670	-0.24519
1535.720	-5.85996	0.21644	-5.07434	-0.17903
1539.725	-5.87752	0.15904	-4.94952	-0.20899
1543.719	-5.88594	0.14282	-4.97999	-0.19492
1547.724	-5.82938	0.09092	-4.94191	-0.36191
1551.725	-5.87535	0.09316	-4.95861	-0.52058
1555.722	-5.87533	0.10241	-4.94386	-0.47802
1559.717	-5.89448	0.12302	-4.95354	-0.65495
1563.722	-5.94325	0.11315	-4.97640	-0.54829
1567.724	-5.97526	0.14707	-5.00787	-0.67606
1571.722	-5.89591	0.15629	-5.05720	-0.67908
1575.718	-5.87069	0.17948	-5.01669	-0.82083
1579.782	-5.80258	0.19592	-5.09869	-0.83731
1583.727	-5.78398	0.21469	-5.19143	-0.87977
1587.718	-5.75448	0.24875	-5.29905	-0.90841
1591.716	-5.78403	0.27726	-5.25436	-0.92552
1595.720	-5.74728	0.32732	-5.30488	-0.89232
1599.721	-5.76841	0.38862	-5.36112	-0.87357
1603.715	-5.80651	0.40835	-5.41952	-0.81291
1607.716	-5.78116	0.45232	-5.43979	-0.80485
1611.736	-5.77298	0.46464	-5.41758	-0.73683
1615.720	-5.83210	0.51974	-5.36656	-0.70128
1619.815	-5.85092	0.52785	-5.43674	-0.67757
1623.718	-5.87472	0.53457	-5.42009	-0.65254
1627.718	-5.89812	0.54043	-5.47955	-0.65336
1631.718	-5.90858	0.56267	-5.47710	-0.63623
1635.716	-5.89240	0.58379	-5.54373	-0.63155
1639.714	-5.90647	0.57434	-5.59238	-0.61659
1643.718	-5.86713	0.55554	-5.58321	-0.61512
1647.716	-5.82557	0.56700	-5.58090	-0.64423
1651.722	-5.80229	0.57573	-5.61605	-0.61226
1655.716	-5.73500	0.60598	-5.63815	-0.61919
1659.717	-5.64299	0.60981	-5.67244	-0.61846
1663.723	-5.60005	0.58293	-5.65818	-0.62834
1667.718	-5.49436	0.58778	-5.64430	-0.62146
1671.716	-5.38922	0.58034	-5.57242	-0.60353
1675.714	-5.58697	0.46382	-5.49244	-0.59285
1679.722	-5.60821	0.46309	-5.42574	-0.58594
1683.718	-5.69418	0.54150	-5.42958	-0.58223
1687.716	-5.51123	0.59625	-5.42636	-0.58053
1691.725	-5.15140	0.64386	-5.03915	-0.52797
1695.721	-4.91408	0.48064	-4.28602	-0.43007
1699.716	-2.39567	0.57945	-1.24334	-0.40757
1703.718	-1.75508	0.49902	-0.46413	-0.52471
1707.718	-0.66253	0.43743	0.57431	-0.44678
1711.716	1.14672	0.50494	2.59636	-0.45734
1715.718	1.60461	0.51682	3.25033	-0.47424
1719.716	2.94544	0.36100	3.70495	-0.63446
1723.717	4.21624	0.45387	5.07491	-0.52512
1727.717	3.93865	0.36370	4.41181	-0.45016
1731.720	4.16035	0.25111	4.58619	-0.61746
1735.721	4.20546	0.28385	4.81015	-0.70240
1739.713	4.06278	0.41113	5.09985	-0.61377
1743.721	4.21540	0.49612	4.96999	-0.47104
1747.720	4.36570	0.53452	4.63141	-0.66715
1751.718	4.54839	0.55876	4.82306	-0.70563
1755.716	4.77335	0.51778	5.04385	-0.84072
1759.720	4.44566	0.59667	5.01196	-0.58361
1763.719	4.51149	0.67395	4.94442	-0.54015
1767.713	4.60259	0.61559	4.92272	-0.72498
1771.775	4.86320	0.68757	5.15618	-0.79604
1775.728	4.63033	0.72549	5.10354	-0.64639
1779.712	4.62165	0.69724	4.79253	-0.72436
1783.719	4.71686	0.70636	4.91206	-0.66997
1787.715	4.70249	0.63744	4.92538	-0.80219
1791.716	4.70490	0.48898	5.02149	-0.84288
1795.714	4.75467	0.46822	5.07279	-0.71702
1799.713	4.71671	0.28970	4.87128	-0.82300
1803.720	4.68686	0.33743	5.03299	-0.85700
1807.718	4.82242	0.41056	5.05107	-0.98979
1811.714	4.81949	0.26012	5.03610	-0.94187
1815.719	4.76579	0.27353	5.04696	-0.91293
1819.721	4.76497	0.09004	5.03898	-0.94981
1824.089	4.78885	0.11671	5.13124	-1.02319
1827.714	4.86820	0.28783	5.07720	-1.08427
1831.721	4.82858	0.17843	5.00118	-1.03240
1835.718	4.85514	0.27672	4.98546	-0.93472
1839.714	4.74471	0.21302	5.08229	-0.78009
1843.719	4.73690	0.28996	4.76460	-0.95001
1847.715	4.79046	0.30445	4.85928	-0.88433
1851.715	4.71780	0.26176	4.88422	-0.86655
1855.719	4.74516	0.30209	4.90772	-0.87674
1859.720	5.03248	0.33441	4.89501	-0.79886
1863.715	4.87884	0.39975	4.87485	-0.76516
1867.711	4.87507	0.42050	4.87488	-0.74246
1871.717	4.86041	0.38167	4.94718	-0.56277
1875.715	4.91242	0.37582	4.58434	-0.59940
1879.713	5.00499	0.33772	4.76968	-0.64102
1883.711	4.88244	0.36700	4.92223	-0.67424
1887.719	4.88089	0.32682	4.94115	-0.80647
1891.734	4.92472	0.27835	4.93334	-0.95665
1895.718	5.01738	0.24083	4.90713	-0.72198
1899.718	4.93130	0.10007	4.87074	-0.75381
1903.717	4.61763	0.23059	4.96918	-0.83815
1907.715	4.91846	0.16932	5.01169	-0.74961
1911.717	5.04216	0.10295	5.53945	-0.73246
1915.711	7.45245	0.21002	7.12422	-0.66296
1919.711	7.99362	0.31571	9.36373	-0.61251
1923.714	9.54044	0.31923	11.01440	-0.71856
1927.712	10.45274	0.38524	11.96142	-0.69697
1931.713	11.57417	0.46021	13.86883	-0.60524
1935.713	12.90076	0.67966	14.24839	-0.75713
1939.713	13.48613	0.65723	14.54958	-1.03233
1943.723	14.40281	0.92604	14.92894	-1.12810
1947.720	13.89302	0.72305	15.23038	-1.44209
1951.718	13.78637	0.73880	15.16326	-1.36578
1955.715	13.95332	0.80310	15.00100	-1.37809
1959.713	14.16203	0.84932	14.87341	-1.26055
1963.716	14.08972	1.05442	15.06443	-1.35394
1967.716	13.94761	0.92768	15.09728	-1.46141
1971.712	14.18897	0.89260	15.01029	-1.41488
1975.711	14.28263	0.96705	15.07496	-1.45504
1979.714	14.31202	1.06451	15.16761	-1.41704
1983.720	14.28466	0.96858	15.30194	-1.38064
1987.713	14.26930	0.78711	15.17149	-1.34937
1991.710	14.32661	0.90048	15.16884	-1.25905
1995.771	14.45351	1.00009	15.14088	-1.21373
1999.718	14.39245	0.79072	15.08909	-1.17285
2003.709	14.36395	0.80396	15.10686	-1.14760
2007.707	14.48818	0.66147	15.17734	-1.03729
2011.710	14.45400	0.77114	15.03890	-1.03917
2015.711	14.44990	0.73100	15.10811	-1.01046
2019.709	14.34343	0.81930	15.03969	-0.98596
2023.715	14.37569	0.79288	15.03707	-0.92853
2027.715	14.44501	0.86312	14.98766	-0.85853
2031.715	14.41436	0.67228	14.98046	-0.84377
2035.711	14.41084	0.67929	14.96918	-0.87118
2039.714	14.46729	0.59559	14.90065	-0.88565
2043.710	14.24578	0.56617	14.89089	-0.96587
2047.711	14.50897	0.53662	14.83620	-0.96333
2051.708	14.34869	0.76820	14.85368	-1.06499
2055.709	14.60669	0.79253	14.81129	-1.04202
2059.708	14.43044	0.63375	14.86868	-1.09548
2063.711	14.51244	0.71987	14.80270	-1.07357
2067.718	14.69998	0.58616	14.82801	-1.22631
2071.710	14.47040	0.51713	14.76015	-1.18243
2075.709	14.72290	0.44797	14.75463	-1.32383
2079.715	14.35596	0.42127	14.75484	-1.18697
2083.715	14.28182	0.49926	14.74042	-1.10437
2087.711	14.54374	0.57898	14.78739	-1.14697
2091.710	14.60646	0.64133	14.74799	-1.05225
2095.712	14.42477	0.51764	14.72868	-1.01047
2099.711	14.58194	0.48024	14.69285	-1.01515
2103.716	14.32896	0.37602	14.69810	-0.93336
2107.714	14.57566	0.31026	14.71867	-0.95321
2111.713	14.44790	0.48520	14.73146	-0.90741
2115.706	14.24827	0.46285	14.61136	-0.90478
2119.708	14.38782	0.46463	14.73683	-0.81140
2123.710	14.55379	0.56152	14.56878	-0.88887
2127.713	14.37124	0.33346	14.88901	-0.84598
2131.709	14.54388	0.37738	14.60888	-0.85145
2135.710	14.46977	0.37162	14.67771	-0.75747
2139.709	14.33781	0.36926	14.52460	-0.86757
2143.716	14.42807	0.35758	14.76551	-0.70136
2147.713	14.65077	0.37850	14.54379	-0.84624
2151.716	14.35123	0.45710	14.68717	-0.74886
2155.708	14.36656	0.41124	14.54667	-0.78700
2159.714	14.49795	0.38297	14.63973	-0.82984
2163.909	14.65644	0.37253	14.56385	-0.81827
2167.712	14.70117	0.33291	14.61924	-0.85295
2171.707	14.56418	0.31809	14.56551	-0.91108
2175.708	14.42975	0.34733	14.69815	-0.92319
2179.714	14.64749	0.35451	14.55983	-0.89131
2183.709	14.73437	0.35053	14.59805	-0.91448
2187.713	14.90262	0.30607	14.63012	-0.84389
2191.713	14.52642	0.20540	14.58643	-0.78919
2195.712	14.61134	0.15269	14.47045	-0.81626
2199.711	14.69415	0.08670	14.58745	-0.81357
2203.705	14.62414	0.10065	14.61827	-0.66868
2207.710	14.57032	0.17227	14.57769	-0.67693
2211.737	14.31876	0.14237	14.49632	-0.50918
2215.706	13.19708	0.23225	14.12396	-0.45272
2219.706	12.63983	0.24851	12.97073	-0.48306
2223.707	10.77232	0.13807	11.00551	-0.48203
2227.705	9.46128	0.03682	10.70785	-0.50411
2231.707	8.57609	-0.07339	9.37003	-0.73470
2235.719	7.76881	-0.21063	7.94212	-0.77261
2239.707	7.16620	-0.18960	7.76830	-1.06509
2243.704	7.26185	-0.10013	7.40333	-1.10419
2247.708	7.30051	-0.07439	7.20580	-0.78317
2251.705	7.39593	-0.22171	7.13299	-0.99813
2255.707	7.34333	-0.31841	7.03039	-0.87357
2259.706	7.25145	-0.38516	6.79611	-0.98101
2263.708	7.14709	-0.41488	6.76332	-0.96909
2267.706	7.06249	-0.47848	7.27416	-0.87540
2271.705	6.98414	-0.53832	7.49324	-0.88755
2275.712	7.01976	-0.45625	7.09030	-0.87701
2279.706	6.96939	-0.43938	6.87063	-0.92174
2283.706	6.96815	-0.51865	6.81434	-0.88591
2287.705	6.91002	-0.57141	6.79249	-0.95246
2291.708	6.96592	-0.66614	6.93362	-1.09850
2295.709	7.01343	-0.67466	7.08720	-0.95950
2299.708	6.91855	-0.68976	6.83156	-1.04453
2303.709	6.81082	-0.75756	6.84610	-1.13272
2307.709	6.83912	-0.75616	7.00348	-1.03865
2311.704	6.86912	-0.68103	6.97604	-1.10676
2315.585	6.86254	-0.69170	6.94394	-1.18633
2319.583	6.87555	-0.63063	6.87902	-1.18312
2323.586	6.96915	-0.61694	6.86029	-1.16681
2327.578	6.93765	-0.59120	6.66305	-1.17703
2331.585	6.88646	-0.63801	6.90909	-0.72293
2335.584	6.93367	-0.61015	6.97944	-0.84970
2339.581	6.92153	-0.53457	6.79638	-0.87918
2343.581	6.88443	-0.59800	6.81752	-1.01501
2347.581	6.78735	-0.61651	6.92471	-0.96871
2351.577	6.71084	-0.67733	6.87587	-0.99207
2355.585	6.67444	-0.54232	6.81025	-1.07240
2359.581	6.71329	-0.48140	6.79156	-1.08339
2363.591	6.75651	-0.61299	6.76219	-0.99149
2367.586	6.53962	-0.66878	6.83452	-1.00331
2371.586	6.66717	-0.75399	6.80000	-1.12609
2375.582	6.75664	-0.75104	6.71765	-1.16980
2379.579	6.62204	-0.76803	6.67265	-1.29616
2383.580	6.60940	-0.70941	6.76395	-1.36949
2387.580	6.59824	-0.57994	6.73378	-1.52541
2391.583	6.64621	-0.45592	6.70810	-1.48959
2395.580	6.65671	-0.48864	6.68795	-1.39370
2399.579	6.66359	-0.43700	6.65970	-1.32662
2403.580	6.73461	-0.61460	6.64258	-1.38693
2407.583	6.72932	-0.65194	6.63164	-1.29228
2411.579	6.74085	-0.63966	6.70073	-1.25739
2415.579	6.73485	-0.61734	6.65421	-1.16714
2419.580	6.72193	-0.61027	6.74893	-0.99692
2423.583	6.72722	-0.59990	6.80164	-0.85510
2427.579	6.72766	-0.57288	6.90329	-0.87696
2431.580	6.69686	-0.52934	6.93362	-0.95464
2435.578	6.66090	-0.55551	6.90476	-0.84391
2439.650	6.70903	-0.70956	6.93643	-0.89944
2443.583	6.71461	-0.71177	6.91483	-0.92930
2447.585	6.67921	-0.74886	6.98668	-0.97808
2451.577	6.66543	-0.68097	7.00338	-0.91650
2455.584	6.65982	-0.62187	7.00384	-0.89909
2459.579	6.68736	-0.61027	7.02582	-0.86939
2463.577	6.66202	-0.51069	6.99653	-0.87297
2467.574	6.57610	-0.45951	6.90554	-1.02594
2471.579	6.57715	-0.51787	6.85226	-0.99787
2475.579	6.63539	-0.56662	6.65071	-0.95552
2479.576	6.50062	-0.63889	6.77546	-1.16690
2483.577	6.04607	-0.51711	5.90632	-0.99277
2487.588	4.14510	-0.48829	5.05462	-1.14802
2491.585	3.77661	-0.49832	4.44948	-1.05269
2495.578	3.60025	-0.46626	4.19943	-1.07940
2499.577	4.04078	-0.34821	4.07332	-1.16971
2503.582	4.31094	-0.34207	4.02695	-1.25307
2507.579	4.25297	-0.27212	4.16440	-1.29925
2511.578	4.10468	-0.34092	4.18872	-1.26171
2515.580	4.09409	-0.29624	4.12730	-1.20240
2519.580	3.96244	-0.23565	4.11369	-1.18630
2523.577	3.93594	-0.20869	4.11767	-1.16526
2527.578	3.81350	-0.22781	4.04866	-1.21560
2531.580	3.83307	-0.25031	4.00502	-1.11390
2535.581	3.77357	-0.23131	3.98981	-1.15295
2539.580	3.97259	-0.29623	4.00324	-1.15685
2543.577	3.92618	-0.31749	3.98701	-1.17161
2547.578	3.81741	-0.36990	4.03860	-1.20618
2551.576	3.82682	-0.35494	4.00443	-1.16757
2555.578	3.78909	-0.34251	3.94554	-1.14902
2559.575	3.74861	-0.24553	3.93273	-1.14505
2563.580	3.79401	-0.30822	3.95142	-1.10852
2567.581	3.79895	-0.21018	3.93628	-1.11013
2571.581	3.82828	-0.30940	3.95100	-1.10662
2575.581	3.84695	-0.24218	3.90802	-1.14040
2579.575	3.86086	-0.19849	3.87690	-1.08622
2583.582	3.85820	-0.24054	3.87154	-1.06189
2587.576	3.84456	-0.28128	3.94876	-1.01163
2591.576	3.86951	-0.27658	3.94821	-0.92913
2595.577	3.86511	-0.22460	3.89073	-0.89888
2599.576	3.86044	-0.19648	3.89204	-0.82519
2603.579	3.88199	-0.21187	3.94159	-0.73723
2607.576	3.88418	-0.19645	4.01907	-0.72997
2611.596	3.86711	-0.21411	4.02685	-0.65747
2615.585	3.86054	-0.12810	4.07656	-0.61165
2619.575	3.85916	-0.10609	4.14297	-0.59428
2623.576	3.89703	-0.15859	4.21804	-0.56010
2627.582	3.89132	-0.10214	4.18566	-0.56667
2631.577	3.91319	-0.08164	4.14162	-0.54459
2635.576	3.91178	-0.05085	4.10890	-0.58437
2639.575	3.91383	-0.05744	4.17524	-0.61125
2643.582	3.92366	-0.09750	4.14710	-0.70537
2647.580	3.91267	-0.10536	4.15055	-0.76100
2651.577	3.91363	-0.12867	4.11505	-0.80955
2655.587	3.91237	-0.12586	4.09814	-0.85048
2659.575	3.92736	-0.14535	4.10742	-0.86152
2663.574	3.95379	-0.14819	4.07987	-0.91153
2667.577	3.95108	-0.15938	4.07080	-0.95176
2671.573	3.96377	-0.15513	4.11821	-0.95037
2675.580	3.99156	-0.10872	4.16670	-0.97127
2679.575	3.99946	-0.15091	4.21530	-1.01157
2683.578	4.08073	-0.16188	4.21370	-1.10623
2687.575	4.07614	-0.17226	4.21219	-1.16090
2691.575	4.04130	-0.10966	4.19877	-1.18111
2695.579	3.94498	-0.16733	4.14265	-1.18256
2699.581	3.98123	-0.20726	4.12248	-1.15588
2703.575	3.94209	-0.22837	4.01954	-1.17578
2707.613	4.01593	-0.12535	4.07377	-1.18794
2711.585	4.17746	-0.11326	4.40549	-1.11264
2715.573	5.07392	-0.10156	6.29622	-1.11459
2719.579	6.30526	-0.16938	7.50486	-1.07867
2723.577	8.26629	-0.04380	9.37192	-1.05725
2727.574	8.77979	-0.02564	10.12532	-1.15138
2731.571	9.34766	-0.10641	11.06107	-1.08829
2735.572	11.04047	-0.05205	11.93501	-1.11845
2739.580	11.16225	-0.09001	12.25026	-1.13602
2743.575	11.20362	-0.03549	11.27402	-1.21616
2747.579	11.00496	0.08362	11.35632	-1.27666
2751.574	10.69853	-0.00955	11.33953	-1.57109
2755.572	10.84927	-0.02104	11.34046	-1.63268
2759.572	10.83261	-0.01113	11.31927	-1.66165
2763.573	10.70960	0.01504	11.36639	-1.66663
2767.577	10.61900	-0.04575	11.61216	-1.62615
2771.575	10.92507	-0.03911	11.46161	-1.59005
2775.611	10.81128	-0.01191	11.36331	-1.55767
2779.580	10.73260	-0.04233	11.51354	-1.53723
2783.577	10.79198	-0.02907	11.56705	-1.40099
2787.581	10.82813	-0.07698	11.43324	-1.51177
2791.576	10.77454	-0.11166	11.63642	-1.39760
2795.577	10.87845	-0.13068	11.65316	-1.75660
2799.573	10.95634	-0.23476	11.39888	-1.59968
2803.573	10.91471	-0.20884	11.59427	-1.51521
2807.577	10.96246	-0.18575	11.53243	-1.57318
2811.576	11.06559	-0.28067	11.51878	-1.67656
2815.570	10.98769	-0.30984	11.47105	-1.57000
2819.571	11.01287	-0.27987	11.53177	-1.54492
2823.578	11.07444	-0.36426	11.45665	-1.66021
2827.573	11.07279	-0.41961	11.44144	-1.73102
2831.573	11.01926	-0.30437	11.40238	-1.71853
2835.573	11.04415	-0.33637	11.42837	-1.75110
2839.576	11.16242	-0.31712	11.35885	-1.70845
2843.575	11.03612	-0.36001	11.39332	-1.67721
2847.576	10.99166	-0.27003	11.41342	-1.67855
2851.577	11.05256	-0.24137	11.36859	-1.63726
2855.607	11.18088	-0.25096	11.41571	-1.60204
2859.576	11.09905	-0.12699	11.40987	-1.59261
2863.576	10.96366	-0.12159	11.44001	-1.57353
2867.572	10.98167	-0.13397	11.45488	-1.54721
2871.571	11.11740	-0.09487	11.51025	-1.50299
2875.572	11.15396	-0.04783	11.46192	-1.47020
2879.572	11.16638	0.04530	11.46132	-1.45423
2883.571	11.11329	-0.00922	11.44141	-1.42924
2887.570	11.10397	-0.06462	11.43262	-1.42605
2891.571	10.97999	-0.07850	11.40872	-1.42907
2895.570	10.98028	-0.17422	11.40822	-1.47427
2899.569	10.94504	-0.18147	11.37333	-1.46213
2903.576	11.01383	-0.22569	11.36319	-1.47874
2907.573	11.12997	-0.34183	11.32233	-1.44301
2911.569	11.09258	-0.22071	11.37989	-1.45044
2915.573	11.09463	-0.22697	11.50901	-1.37626
2919.569	11.11356	-0.27672	11.50961	-1.36022
2923.569	11.09468	-0.24936	11.57034	-1.30280
2927.592	11.05134	-0.24627	11.56121	-1.22811
2931.577	11.10290	-0.34345	11.57379	-1.27923
2935.568	11.20333	-0.35449	11.45498	-1.24584
2939.570	11.18716	-0.23419	11.55442	-1.31443
2943.574	11.17288	-0.23964	11.51175	-1.24602
2947.573	11.16378	-0.31790	11.55557	-1.30506
2951.574	11.10510	-0.37097	11.55157	-1.20854
2955.575	11.10926	-0.47813	11.56264	-1.27137
2959.572	11.28185	-0.18357	11.44077	-1.36781
2963.571	11.16282	-0.12606	11.67898	-1.43939
2967.573	11.26073	-0.31828	11.56329	-1.27748
2971.572	11.29589	-0.35257	11.60401	-1.33257
2975.570	11.22749	-0.23567	11.62866	-1.45889
2979.570	11.21171	-0.27385	11.46776	-1.50852
2983.572	11.15293	-0.35894	11.31128	-1.41061
2987.575	11.06437	-0.39480	11.33741	-1.54320
2991.574	11.21484	-0.56221	11.38023	-1.42819
2995.569	11.14070	-0.16372	11.47221	-1.48886
2999.566	11.21384	-0.16914	11.57198	-1.45969
3003.569	11.34800	-0.30132	11.49016	-1.36107
3007.570	11.17551	-0.23639	11.52562	-1.40604
3011.573	11.16824	-0.26687	11.40450	-1.61410
3015.593	11.06609	-0.37846	11.65754	-1.39538
3019.573	10.92181	-0.48355	11.38392	-1.39647
3023.568	11.25834	-0.20001	11.42446	-1.57517
3027.566	11.08455	-0.26553	11.31199	-1.39151
3031.574	11.17541	-0.38258	11.50506	-1.30685
3035.570	11.27572	-0.09641	11.47987	-1.54554
3039.568	11.28097	-0.18545	11.18382	-1.36163
3043.569	11.33268	-0.25522	11.50027	-1.30643
3047.571	11.19760	-0.22514	11.42613	-1.53985
3051.569	11.25667	-0.09293	11.20610	-1.30525
3055.571	11.27770	-0.28785	11.48122	-1.22046
3059.569	11.35182	-0.36191	11.35861	-1.37069
3063.572	11.30290	0.03426	11.46034	-1.71144
3067.570	11.30844	-0.05134	11.63390	-1.15024
3071.574	11.28102	-0.20219	11.68524	-1.33274
3075.573	11.28476	-0.23596	11.41047	-1.42270
3079.576	11.47255	-0.05453	11.52240	-1.40618
3083.570	11.41101	0.04496	11.54718	-1.44389
3087.569	11.37119	-0.04926	11.40744	-1.38034
3091.565	11.08220	-0.20916	11.38879	-1.36178
3095.566	11.12734	-0.41941	11.41023	-1.39843
3099.567	11.25920	0.02442	11.19027	-1.37205
3103.565	11.19323	0.08056	11.55369	-1.24377
3107.567	11.12453	-0.02875	11.75184	-1.26095
3111.577	11.24805	-0.03902	11.32452	-1.34496
3115.571	10.93198	-0.23776	11.14479	-1.33752
3119.571	10.76942	-0.20479	10.91595	-1.78695
3123.568	8.80917	-0.25153	9.61942	-1.33987
3127.567	8.62302	-0.20161	9.14786	-1.17068
3131.568	7.68532	-0.28888	8.80391	-1.36162
3135.567	8.05409	-0.36084	8.63379	-1.49371
3139.566	7.76075	-0.42462	8.15866	-1.30148
3143.571	8.03329	-0.48636	8.63985	-1.14090
3147.570	7.98853	-0.46530	8.53542	-1.30401
3151.565	7.92515	-0.54851	8.40045	-1.45996
3155.585	7.80672	-0.65102	8.47223	-1.30376
3159.573	7.97230	-0.39128	8.32456	-1.28342
3163.567	7.95229	-0.46301	8.44572	-1.46667
3167.567	7.84934	-0.39317	8.30646	-1.53096
3171.441	7.80935	-0.58859	8.32512	-1.62461
3175.444	7.86829	-0.74068	8.24567	-1.55287
3179.446	7.86469	-0.72385	8.10673	-1.44416
3183.441	7.78060	-0.72636	8.15241	-1.32894
3187.446	7.70465	-0.76135	8.03562	-1.53942
3191.442	7.63089	-0.69214	7.94431	-1.53915
3195.443	7.69848	-0.79130	7.91979	-1.47670
3199.449	7.67516	-0.72327	7.98469	-1.49715
3203.447	7.61365	-0.77112	7.99160	-1.53356
3207.464	7.49588	-0.69903	7.92882	-1.40369
3211.450	7.53684	-0.74532	8.06959	-1.34655
3215.441	7.62833	-0.80924	8.07049	-1.25178
3219.440	7.59905	-0.72583	8.16406	-1.28236
3223.443	7.53920	-0.70305	7.96324	-1.40635
3227.444	7.63747	-0.64771	7.93316	-1.49844
3231.440	7.75902	-0.60934	7.97984	-1.49279
3235.446	7.78652	-0.55216	8.10708	-1.36661
3239.441	7.82046	-0.42244	8.15543	-1.32883
3243.449	7.80136	-0.38139	8.06526	-1.44431
3247.442	7.79286	-0.61128	7.93785	-1.40764
3251.446	7.82806	-0.59211	7.93245	-1.49766
3255.444	7.80477	-0.40840	7.93627	-1.48384
3259.444	7.77407	-0.36202	7.97152	-1.48615
3263.437	7.91236	-0.40770	7.76491	-1.58759
3267.442	7.85648	-0.36261	7.80621	-1.55595
3271.438	7.69042	-0.26967	7.84732	-1.46293
3275.437	7.67348	-0.31990	7.90540	-1.38436
3279.445	7.88673	-0.42486	7.74160	-1.46379
3283.445	7.75412	-0.39057	7.74230	-1.52216
3287.467	7.56710	-0.36690	7.80638	-1.44795
3291.437	7.96505	-0.39995	7.71194	-1.56270
3295.444	8.10087	-0.37627	7.76243	-1.50058
3299.439	8.12113	-0.38835	7.83013	-1.58021
3303.442	9.26655	-0.35220	10.16860	-1.58954
3307.439	10.67979	-0.47296	10.53547	-1.62850
3311.444	10.78314	-0.60218	12.61814	-1.63980
3315.439	11.88228	-0.45603	13.11766	-2.02580
3319.438	12.55363	-0.60243	14.09348	-2.16201
3323.445	13.72264	-0.54076	14.21167	-2.25397
3327.460	13.70968	-0.77013	14.55623	-2.51146
3331.444	13.67609	-0.87114	14.34538	-2.82582
3335.440	13.67803	-0.60574	14.13449	-2.45255
3339.440	13.86334	-0.55050	14.21994	-2.53443
3343.438	13.68858	-0.94013	14.29154	-2.26337
3347.446	13.71879	-0.94766	14.44169	-2.36266
3351.442	13.69837	-0.86710	14.35207	-2.64192
3355.437	13.79566	-0.65948	14.30401	-2.67643
3359.435	13.88790	-0.47887	14.34552	-2.52802
3363.437	13.81223	-1.02993	14.47371	-2.35175
3367.443	13.81244	-1.02954	14.49858	-2.18133
3371.437	13.78291	-1.01351	14.49332	-2.56673
3375.439	13.76408	-0.84268	14.47189	-2.51127
3379.442	13.84392	-0.67435	14.45660	-2.42651
3383.438	13.84995	-0.93832	14.51765	-2.35930
3387.439	13.82913	-1.13019	14.62245	-2.26869
3391.437	13.80044	-1.10988	14.56653	-2.25316
3395.441	13.80638	-1.01410	14.50623	-2.28608
3399.437	13.74004	-0.96982	14.47845	-2.54822
3403.438	13.82433	-0.89334	14.47971	-2.40534
3407.447	13.99048	-0.79410	14.40931	-2.38662
3411.443	13.84696	-1.02529	14.43463	-2.36761
3415.442	13.80002	-1.02624	14.41126	-2.19427
3419.436	13.79475	-1.07398	14.35673	-2.15257
3423.438	13.78134	-0.98514	14.24084	-2.30379
3427.439	13.75561	-0.89071	14.21983	-2.37100
3431.440	13.76811	-0.80787	14.20567	-2.33594
3435.435	13.75221	-0.92795	14.20455	-2.28066
3439.442	13.75999	-0.91533	14.13143	-2.14574
3443.438	13.81364	-0.97666	14.15157	-2.11603
3447.432	13.79597	-1.01859	14.03713	-2.07440
3451.440	13.84958	-0.98292	13.88528	-2.13364
3455.442	13.86476	-0.90293	13.83645	-2.11994
3459.443	13.75582	-0.90050	13.81563	-2.15039
3463.439	13.68298	-0.89460	13.80011	-2.27020
3467.441	13.67318	-0.85752	13.87838	-2.24747
3471.438	13.67119	-0.82228	13.94009	-2.16205
3475.441	13.67916	-0.85011	13.85194	-2.11871
3479.437	13.70699	-0.83367	13.79641	-2.09770
3483.435	13.94558	-0.87409	13.80554	-2.10902
3487.437	14.01155	-0.84123	13.76900	-2.05752
3491.447	14.08774	-0.83808	13.74814	-2.03724
3495.438	13.97311	-0.83211	13.66665	-2.03599
3499.439	13.82560	-0.83324	13.64488	-2.02292
3503.436	13.90749	-0.77560	13.54556	-2.04671
3507.437	13.84492	-0.75678	13.54023	-2.04140
3511.472	13.89248	-0.75510	13.59511	-2.03977
3515.435	13.92360	-0.70610	13.45862	-2.05542
3519.458	13.97823	-0.70429	13.44770	-2.02783
3523.441	13.97641	-0.63529	13.55022	-2.00505
3527.440	13.98468	-0.55091	13.66290	-1.95671
3531.435	14.00293	-0.51227	13.98377	-1.96143
3535.439	13.97043	-0.48135	14.27515	-1.92174
3539.437	13.97176	-0.45476	14.36036	-1.89357
3543.438	13.99045	-0.43054	14.35463	-1.79233
3547.436	13.99777	-0.41815	14.22675	-1.75723
3551.436	14.03321	-0.42091	14.22778	-1.69113
3555.435	14.07606	-0.41003	14.26853	-1.64511
3559.434	14.12653	-0.43447	14.29753	-1.59909
3563.437	14.16744	-0.42201	14.28275	-1.58370
3567.437	14.18699	-0.42728	14.30051	-1.61562
3571.431	14.19135	-0.44822	14.18953	-1.64533
3575.445	14.19693	-0.48492	14.18314	-1.61620
3579.445	14.20831	-0.51804	14.16121	-1.62353
3583.436	14.19294	-0.55573	14.09427	-1.64784
3587.439	14.20266	-0.57184	14.07935	-1.70002
3591.433	14.20877	-0.60109	14.04603	-1.73256
3595.439	14.14770	-0.68344	14.03134	-1.74142
3599.437	13.90038	-0.88656	14.04832	-1.80453
3603.432	13.82267	-0.89395	14.03262	-1.84747
3607.433	13.73606	-1.01489	14.00693	-1.88800
3611.457	13.69633	-1.09483	13.93443	-1.97329
3615.447	13.73912	-1.11207	13.92639	-2.05396
3619.440	13.71172	-1.06177	13.88326	-2.05741
3623.435	13.69338	-1.05796	13.82826	-2.08281
3627.438	13.74849	-1.11275	13.79608	-2.10141
3631.435	13.70891	-1.08531	13.80149	-2.07871
3635.441	13.66062	-1.06499	13.74165	-2.02642
3639.436	13.69464	-0.94819	13.77286	-2.04064
3643.434	13.72245	-0.82360	13.74790	-2.00679
3647.437	13.72582	-0.69724	13.73861	-1.97223
3651.435	13.73254	-0.59288	13.68963	-1.99381
3655.433	13.70512	-0.60188	13.75177	-1.91103
3659.437	13.71746	-0.53530	13.77539	-1.86194
3663.439	13.68867	-0.49775	13.84450	-1.77452
3667.437	13.70708	-0.49822	13.85917	-1.76014
3671.430	13.68267	-0.48260	13.92585	-1.71682
3675.438	13.66601	-0.43824	14.01414	-1.72823
3679.436	13.70430	-0.43319	14.07816	-1.72933
3683.433	13.71207	-0.49917	14.25732	-1.79546
3687.430	13.85119	-0.66729	14.52328	-2.04209
3691.433	14.01720	-0.91234	14.71398	-2.22369
3695.432	14.16555	-1.06713	14.67743	-2.74804
3699.438	14.12177	-1.21950	14.66162	-3.00189
3703.439	14.16816	-1.20049	14.68069	-3.09303
3707.457	14.24023	-1.26123	14.76004	-3.28900
3711.431	14.28422	-1.23983	14.73495	-3.14900
3715.431	14.20957	-1.24065	14.75094	-3.09551
3719.432	14.36628	-1.35202	14.75015	-2.96626
3723.430	14.45283	-1.46065	14.76786	-3.01917
3727.461	14.44504	-1.56055	14.72062	-3.05570
3731.430	14.39806	-1.61249	14.59287	-3.04405
3735.431	14.39809	-1.56129	14.57197	-3.08705
3739.436	14.32181	-1.55999	14.43675	-3.07965
3743.437	14.39718	-1.60136	14.33141	-3.02160
3747.432	14.35964	-1.64851	14.30114	-2.95165
3751.430	14.38656	-1.61947	14.36171	-3.02408
3755.434	14.39552	-1.58040	14.43589	-2.95852
3759.435	14.32679	-1.61882	14.52291	-2.94867
3763.430	14.30568	-1.60796	14.76403	-3.01922
3767.439	14.30461	-1.61788	14.76472	-3.02623
3771.434	14.31887	-1.66115	14.78628	-3.00082
3775.430	14.32551	-1.70835	14.77166	-3.03016
3779.429	14.25723	-1.69763	14.65263	-2.97729
3783.439	14.21474	-1.77130	14.58285	-2.93624
3787.431	14.21922	-1.65024	14.70595	-2.95138
3791.427	14.35295	-1.73601	14.72770	-3.03866
3795.435	14.41501	-1.67922	14.70600	-3.04299
3799.432	14.28779	-1.69239	14.76493	-3.09476
3803.433	14.13603	-1.72832	14.65792	-2.99283
3807.430	13.97914	-1.54632	14.33905	-2.93137
3811.431	11.31459	-1.14910	12.38325	-2.73567
3815.431	10.08969	-0.61140	11.30806	-1.91008
3819.434	8.31722	-0.78479	8.71421	-0.91502
3823.438	7.71174	-0.35387	7.15814	-0.68928
3827.445	5.34275	-0.03808	6.38204	-0.32321
3831.432	4.66290	0.75686	4.77626	-0.05601
3835.432	2.65929	0.77605	3.30144	0.28055
3839.432	1.68974	1.33524	2.08062	1.26748
3843.436	0.45433	1.99990	0.08287	1.51058
3847.433	-0.92155	1.55053	0.64516	1.58693
3851.431	-2.20441	1.85215	-1.47020	1.73002
3855.429	-2.75551	2.20121	-1.58202	1.72730
3859.431	-2.30137	2.99702	-1.68612	1.91336
3863.448	-1.41983	2.93819	-1.67615	2.11560
3867.437	-1.94027	2.62309	-0.81478	1.91342
3871.429	-2.24235	2.17038	-1.13742	2.09046
3875.435	-1.80690	2.67578	-1.28661	2.04812
3879.431	-1.98259	2.83713	-1.61401	2.11381
3883.430	-1.76678	2.66630	-1.96826	2.18941
3887.434	-2.03028	2.94101	-1.62547	2.08053
3891.430	-2.15254	2.82169	-1.55802	2.10779
3895.429	-1.97493	2.74037	-1.68825	2.18789
3899.429	-2.13390	2.78100	-1.64325	2.22115
3903.431	-2.21058	2.63112	-1.77821	2.05221
3907.438	-2.33873	2.65972	-1.98214	2.13774
3911.432	-1.88829	2.80627	-1.89347	2.34585
3915.437	-1.95128	2.94011	-1.70874	2.14474
3919.431	-2.19561	2.81354	-1.72049	2.15921
3923.432	-2.05316	2.67436	-1.99751	2.14791
3927.427	-2.20718	2.70865	-1.79319	1.95456
3931.474	-2.28172	2.68577	-1.71109	1.93631
3935.435	-2.38427	2.60000	-1.84833	1.92500
3939.431	-2.07167	2.96971	-1.83176	2.02760
3943.427	-2.16558	2.92362	-1.73775	1.99895
3947.431	-2.23643	2.83560	-1.77843	2.08238
3951.434	-2.11700	2.76267	-1.78381	2.11233
3955.439	-2.25935	2.67251	-1.76906	1.94523
3959.433	-2.32451	2.57771	-1.78391	2.05890
3963.430	-2.22342	2.69611	-1.84171	2.25254
3967.427	-2.29738	2.72320	-1.81733	2.19826
3971.428	-2.30682	2.66605	-1.80586	1.94269
3975.433	-2.11685	2.75182	-1.84996	2.19231
3979.428	-2.17395	2.83557	-1.85036	2.31608
3983.430	-2.22463	2.69209	-1.85232	2.25676
3987.427	-2.27751	2.69494	-1.86407	2.11256
3991.436	-2.18327	2.85161	-1.86409	2.28100
3995.433	-2.15633	2.75373	-1.86997	2.21902
3999.436	-2.13700	2.81231	-1.84825	2.21744
4003.433	-2.22230	2.81042	-1.87270	2.15275
4007.429	-2.06404	3.01951	-1.83856	2.17038
4011.426	-2.05224	2.88668	-1.82271	2.02642
4015.427	-2.16644	2.93922	-1.84245	2.03217
4019.430	-2.22114	2.93691	-1.83484	1.94243
4023.430	-2.44276	2.96888	-1.83025	1.80879
4027.301	-1.94372	3.03305	-1.88199	2.12993
4031.301	-2.09194	3.14464	-1.90133	1.99738
4035.302	-2.13517	3.05530	-1.92163	1.77604
4039.307	-2.14198	3.03302	-1.85237	1.71993
4043.302	-2.10711	3.04691	-1.88477	1.63486
4047.303	-2.27563	2.99893	-1.92919	1.70973
4051.303	-2.47982	3.02475	-1.99238	1.78802
4055.304	-2.64344	3.13921	-2.11646	3.31507
4059.303	-3.69793	3.89739	-2.06344	3.76858
4063.305	-3.83747	5.11873	-2.53580	4.26619
4067.301	-3.53535	5.42808	-2.47425	4.40521
4071.305	-3.15028	5.70236	-2.55054	4.87395
4075.303	-3.43482	5.97859	-2.53189	5.19544
4079.306	-3.66819	5.90843	-2.39483	5.17349
4083.325	-3.65865	5.71886	-2.56694	5.20929
4087.312	-3.69958	5.65410	-2.60743	5.11676
4091.301	-3.72610	5.77771	-2.68821	5.12288
4095.307	-3.79144	5.91182	-2.73845	5.17181
4099.302	-3.81451	5.88974	-2.56847	5.16198
4103.304	-3.82005	5.92353	-2.71481	5.15638
4107.301	-3.81780	5.93689	-2.71280	5.31724
4111.305	-3.81288	5.88742	-2.64713	5.29122
4115.302	-3.88732	5.83641	-2.62615	5.22150
4119.303	-3.93759	5.79431	-2.65401	5.17387
4123.304	-3.91546	5.79007	-2.67504	5.05280
4127.307	-3.76374	5.85975	-2.69443	4.93127
4131.302	-3.66834	5.84789	-2.69757	4.85906
4135.303	-3.73692	5.80086	-2.68123	4.82357
4139.302	-3.74975	5.72289	-2.62960	5.02227
4143.308	-3.85192	5.67450	-2.50675	5.26091
4147.334	-3.78588	5.61180	-2.52869	5.42073
4151.305	-3.83801	5.55070	-2.56426	5.47370
4155.300	-3.74300	5.55028	-2.48309	5.41531
4159.302	-3.65361	5.73375	-2.39210	5.35258
4163.303	-3.58564	5.74815	-2.36061	5.31526
4167.303	-3.53523	5.81983	-2.50355	5.26533
4171.300	-3.62558	5.75867	-2.50598	5.35909
4175.303	-3.71664	5.78430	-2.48470	5.41722
4179.299	-3.86946	5.80960	-2.43065	5.45440
4183.302	-3.82551	5.76829	-2.45602	5.50827
4187.300	-3.83463	5.72967	-2.55143	5.41771
4191.306	-3.82867	5.74299	-2.60604	5.44516
4195.301	-3.77454	5.78380	-2.70436	5.38630
4199.301	-3.70784	5.77513	-2.79414	5.36700
4203.617	-3.68102	5.76149	-2.87623	5.39577
4207.311	-3.70690	5.70810	-2.93584	5.39908
4211.300	-3.61649	5.68072	-3.06352	5.39769
4215.303	-3.50294	5.67624	-3.16993	5.37546
4219.301	-3.56111	5.65508	-3.06531	5.38285
4223.301	-3.50069	5.61344	-3.16230	5.35745
4227.299	-3.45944	5.63253	-3.18749	5.30758
4231.302	-3.41061	5.64220	-3.20439	5.30159
4235.298	-3.39413	5.63149	-3.23873	5.26311
4239.303	-3.44332	5.62081	-3.24652	5.26895
4243.300	-3.38882	5.58535	-3.26458	5.29803
4247.306	-3.37408	5.56870	-3.26112	5.32265
4251.308	-3.39122	5.62612	-3.28857	5.33674
4255.298	-3.42458	5.63394	-3.35724	5.32639
4259.303	-3.45136	5.69239	-3.38674	5.29984
4263.297	-3.43867	5.70963	-3.41797	5.30978
4267.301	-3.34272	5.63080	-3.19969	5.28602
4271.331	-3.29609	5.39899	-1.60833	4.97772
4275.303	-2.78057	3.94745	-0.64414	3.73281
4279.300	-1.18488	3.36500	-0.29585	2.19087
4283.303	-1.82775	2.47642	0.07686	0.86059
4287.306	-1.20973	1.66991	0.63662	0.06773
4291.302	-0.73168	1.43060	0.99005	0.26552
4295.295	-0.45408	1.09335	1.16600	0.35295
4299.296	-0.34454	1.00053	0.98970	0.93883
4303.298	-0.13637	0.96376	0.93269	0.92235
4307.297	-0.16491	1.06312	0.65347	0.81671
4311.297	-0.17566	1.77281	0.79687	0.76422
4315.297	-0.19976	1.53965	0.86483	0.65447
4319.300	-0.20986	1.45924	0.79481	0.64539
4323.297	-0.13069	1.56093	0.90912	0.68927
4327.294	-0.14518	1.38897	0.86917	0.77903
4331.347	-0.04852	1.50616	0.86575	0.80062
4335.313	-0.02559	1.64384	0.84751	0.82353
4339.304	-0.05130	1.76964	0.83275	0.85893
4343.299	-0.03333	1.73866	0.84096	0.82882
4347.296	-0.02722	1.66822	0.83612	0.81836
4351.297	0.04720	1.70052	0.89699	0.78832
4355.297	0.12411	1.55018	0.93458	0.77621
4359.296	0.15203	1.44526	0.93649	0.76570
4363.297	0.19790	1.56728	0.95636	0.71453
4367.297	0.30282	1.56824	0.93892	0.66306
4371.347	0.39943	1.71079	0.94795	0.60110
4375.304	0.44378	1.75688	0.91674	0.54078
4379.293	0.42035	1.73479	0.84587	0.41294
4383.295	0.45557	1.72569	0.73399	0.38957
4387.297	0.43830	1.75735	0.76017	0.44247
4391.295	0.45602	1.74995	0.69866	0.40125
4395.301	0.38618	1.67832	0.61084	0.42598
4399.297	0.31947	1.62313	0.53987	0.39545
4403.295	0.43616	1.72898	0.43956	0.45253
4407.295	0.47450	1.68085	0.50877	0.57258
4411.303	0.43309	1.65546	0.50701	0.74043
4415.303	0.39916	1.57490	0.62950	0.64976
4419.292	0.39038	1.45576	0.62655	0.65896
4423.295	0.28567	1.35113	0.62263	0.63493
4427.297	0.28691	1.39769	0.52317	0.60744
4431.294	0.24170	1.53088	0.49793	0.58983
4435.294	0.24552	1.53103	0.48128	0.70282
4439.300	0.15069	1.59991	0.60004	0.58999
4443.296	0.22693	1.61153	0.70665	0.26475
4447.289	0.48666	1.85212	0.75235	0.48816
4451.295	0.33506	1.82368	0.98787	0.53230
4455.301	0.39631	1.65768	0.83357	0.46271
4459.300	0.21083	1.59383	0.70186	0.32214
4463.295	0.31928	1.60608	0.86461	0.38350
4467.300	0.45108	1.62249	0.84416	0.32479
4471.299	0.39392	1.44697	0.94691	0.16053
4475.299	0.51905	1.59933	1.19760	0.27273
4479.298	0.47627	1.73304	1.07753	0.17672
4483.297	0.48912	1.55115	0.99117	0.11220
4487.293	0.55602	1.58279	1.03029	0.16333
4491.300	0.43912	1.28708	0.98045	0.02703
4495.300	0.46061	1.60444	1.00333	0.16467
4499.298	0.35903	1.51487	0.97065	0.13839
4503.293	0.40847	1.54299	1.05557	-0.03145
4507.294	0.19807	1.38385	1.00184	0.13471
4511.295	0.14151	1.65191	1.05734	0.18003
4515.293	0.37814	1.65428	1.05967	-0.03019
4519.298	0.43085	1.63009	0.92616	0.32784
4523.298	0.24272	1.34408	0.95115	0.23270
4527.294	0.19122	1.56649	0.78446	0.40905
4531.297	0.26379	1.64584	0.88915	0.20518
4535.296	0.18241	1.66715	0.92014	0.35691
4539.297	-0.26200	1.47818	0.72315	0.28783
4543.294	-1.72885	1.51337	-0.76034	0.26882
4547.298	-4.47923	1.49431	-1.72453	0.19483
4551.293	-4.90902	1.46600	-3.24914	0.05815
4555.293	-6.58572	0.93864	-5.22082	0.07308
4559.293	-6.88580	0.46709	-5.64572	-0.08247
4563.296	-8.02715	-0.06683	-6.77595	-0.25899
4567.294	-8.50069	-0.40385	-7.38290	-0.19515
4571.296	-8.79002	-0.31062	-7.41050	-0.28269
4575.294	-8.51741	-0.45601	-7.28754	-0.54360
4579.330	-8.31333	-0.40506	-6.95983	-0.66188
4583.298	-8.33909	-0.49095	-6.58327	-0.47597
4587.296	-8.18110	-0.24129	-6.80854	-0.41493
4591.293	-8.33958	-0.34349	-7.01573	-0.52316
4595.291	-8.20790	-0.30017	-7.14590	-0.61608
4599.291	-8.31421	-0.32343	-7.14299	-0.81370
4603.293	-8.31601	-0.28401	-7.02377	-0.84274
4607.294	-8.39222	-0.17373	-7.14743	-0.84369
4611.294	-8.47956	-0.02254	-7.32871	-0.70001
4615.301	-8.53913	-0.03804	-7.44032	-0.99363
4619.305	-8.36052	0.02505	-7.52452	-0.90421
4623.296	-8.40791	0.01598	-7.62614	-0.87570
4627.293	-8.44076	0.06902	-7.56588	-0.76141
4631.291	-8.37405	0.00320	-7.63169	-0.90553
4635.295	-8.27231	0.00423	-7.69283	-0.92835
4639.293	-8.41230	-0.06050	-7.73185	-0.90709
4643.292	-8.45478	-0.02989	-7.75629	-0.88331
4647.294	-8.38121	-0.02776	-7.71508	-0.89157
4651.294	-8.30252	-0.00910	-7.70443	-0.95164
4655.292	-8.13004	-0.04758	-7.67136	-0.97761
4659.297	-8.13086	-0.16691	-7.64427	-0.95374
4663.299	-8.22278	-0.11215	-7.62360	-1.00397
4667.295	-8.13677	-0.04278	-7.64091	-1.02493
4671.291	-8.03611	-0.11279	-7.61558	-1.07662
4675.297	-8.23194	-0.19694	-7.53876	-1.10043
4679.290	-8.19812	-0.08203	-7.57225	-1.01369
4683.295	-8.04618	-0.07337	-7.55791	-1.02089
4687.293	-8.21065	-0.13943	-7.58503	-1.10132
4691.291	-8.16070	-0.12776	-7.54749	-1.19437
4695.291	-8.14215	-0.19799	-7.69900	-1.11826
4699.296	-8.22608	-0.20467	-7.63991	-1.08358
4703.296	-8.01362	-0.15977	-7.59483	-0.94580
4707.292	-8.18164	-0.16952	-7.70597	-0.93573
4711.296	-7.86232	-0.22767	-7.59402	-0.95742
4715.291	-8.27803	-0.22940	-7.62767	-0.92022
4719.289	-8.18983	-0.20355	-7.66329	-0.94924
4723.290	-8.19389	-0.20963	-7.68956	-1.08697
4727.294	-8.31251	-0.27578	-7.63618	-1.09996
4731.294	-8.10202	-0.27091	-7.76662	-0.99908
4735.290	-8.21062	-0.29306	-7.58142	-1.04709
4739.294	-8.39006	-0.29627	-7.54047	-1.04352
4743.292	-8.20658	-0.29536	-7.71513	-0.90117
4747.302	-8.12585	-0.34798	-7.56610	-0.81418
4751.296	-8.29924	-0.37441	-7.46475	-0.99212
4755.290	-8.34951	-0.38164	-7.51513	-0.97696
4759.290	-8.47466	-0.38299	-7.66882	-0.85779
4763.293	-8.44506	-0.41900	-7.68003	-0.74640
4767.294	-8.30741	-0.38601	-7.57334	-0.67224
4771.349	-8.12274	-0.38547	-7.62518	-0.67462
4775.298	-8.26609	-0.40761	-7.54398	-0.68718
4779.289	-8.22645	-0.41186	-7.58076	-0.70323
4783.288	-8.23126	-0.42695	-7.67053	-0.80547
4787.299	-8.23235	-0.47141	-7.59936	-0.82025
4791.290	-8.19642	-0.50562	-7.65546	-0.80599
4795.291	-8.21971	-0.40641	-7.66629	-0.79417
4799.287	-8.08895	-0.33394	-7.50964	-0.85232
4803.292	-7.56754	-0.20967	-6.11461	-0.83936
4807.289	-7.30561	-0.32980	-5.61239	-0.80981
4811.292	-6.55057	0.11477	-5.29238	-0.90817
4815.510	-5.52556	0.04905	-4.94157	-0.89808
4819.292	-5.21272	0.42818	-3.86986	-0.88324
4823.288	-4.74129	0.14593	-3.07516	-0.94369
4827.306	-4.57761	0.17507	-3.91793	-0.80231
4831.298	-4.53176	0.35314	-3.80258	-0.69922
4835.291	-4.60229	0.28749	-3.90145	-0.74732
4839.288	-4.53835	0.22988	-3.80816	-0.69359
4843.294	-4.46157	0.15082	-3.55926	-0.67967
4847.289	-4.67135	0.30621	-3.39552	-0.56639
4851.289	-4.64071	0.56998	-3.61794	-0.62242
4855.288	-4.58298	0.48686	-3.52133	-0.61894
4859.290	-4.52483	0.37432	-3.42102	-0.68342
4863.289	-4.44672	0.28535	-3.54808	-0.81120
4867.287	-4.49378	0.26311	-3.59068	-0.67201
4871.296	-4.55046	0.32893	-3.59164	-0.62244
4875.170	-4.55209	0.25999	-3.64111	-0.66138
4879.163	-4.52673	0.22223	-3.58774	-0.69356
4883.166	-4.47536	0.16742	-3.50274	-0.61248
4887.291	-4.54434	0.21848	-3.41258	-0.50053
4891.162	-4.52434	0.25465	-3.38877	-0.52859
4895.169	-4.50658	0.35563	-3.45314	-0.46296
4899.166	-4.47205	0.43217	-3.37724	-0.39071
4903.164	-4.39780	0.51845	-3.46466	-0.39785
4907.167	-4.36446	0.58118	-3.40685	-0.36225
4911.164	-4.23090	0.61860	-3.36396	-0.40094
4915.166	-4.17586	0.70703	-3.34831	-0.39006
4919.165	-4.25398	0.83587	-3.26680	-0.44799
4923.162	-4.16077	0.83968	-3.24462	-0.36516
4927.164	-4.05196	0.83298	-3.23601	-0.40444
4931.166	-4.06135	0.83954	-3.26015	-0.47032
4935.162	-4.09162	0.66765	-3.29683	-0.50143
4939.164	-4.19200	0.62596	-3.30250	-0.54792
4943.161	-4.21296	0.58974	-3.35696	-0.62383
4947.165	-4.21523	0.55351	-3.29216	-0.63099
4951.162	-4.20706	0.57478	-3.27628	-0.65043
4955.168	-4.11503	0.62186	-3.28155	-0.62599
4959.167	-4.01527	0.57023	-3.24491	-0.61123
4963.162	-4.12029	0.44357	-3.30025	-0.53182
4967.166	-4.12747	0.40495	-3.31121	-0.51060
4971.166	-4.09266	0.51548	-3.19328	-0.50972
4975.162	-3.96973	0.58115	-3.23244	-0.49330
4979.162	-4.35731	0.52043	-3.38142	-0.46664
4983.161	-4.17124	0.57562	-3.57234	-0.47721
4987.162	-4.28019	0.52346	-3.37737	-0.42529
4991.194	-4.18581	0.47138	-3.40042	-0.38135
4995.160	-3.99761	0.48166	-3.47213	-0.37026
4999.172	-3.90669	0.51312	-3.51955	-0.40298
5003.163	-4.00336	0.42162	-3.45618	-0.47370
5007.160	-3.85659	0.58886	-3.46357	-0.57543
5011.159	-3.99679	0.40219	-3.56319	-0.63441
5015.161	-4.03384	0.31361	-3.56962	-0.56453
5019.165	-4.20047	0.31654	-3.44584	-0.53412
5023.165	-4.06900	0.32187	-3.53627	-0.63121
5027.157	-3.92322	0.41584	-3.53538	-0.62550
5031.164	-4.07325	0.36004	-3.38822	-0.55417
5035.162	-3.96958	0.37920	-3.37136	-0.61346
5039.162	-4.12900	0.29536	-3.44992	-0.63263
5043.165	-3.99003	0.41042	-3.47732	-0.62844
5047.161	-3.91328	0.42100	-3.29617	-0.63414
5051.158	-3.90644	0.28688	-3.41370	-0.62062
5055.160	-3.95323	0.36181	-3.42458	-0.52818
5059.164	-3.93208	0.51281	-3.39898	-0.52251
5063.161	-3.99536	0.42073	-3.44785	-0.55054
5067.162	-3.83981	0.67606	-3.55612	-0.39776
5071.159	-3.96970	0.40550	-3.48234	-0.58216
5075.163	-3.84162	0.42681	-3.15144	-0.31888
5079.163	-3.57337	0.55696	-3.01418	-0.28105
5083.180	-2.50377	1.15524	-1.90373	-0.32912
5087.169	-0.98819	1.41608	-0.06142	0.16905
5091.163	-0.84009	3.10699	0.31610	0.82023
5095.163	0.80965	3.73205	1.17776	1.73559
5099.157	1.34626	3.65624	1.91913	2.16815
5103.158	2.40714	4.36742	2.47603	3.38364
5107.161	2.88237	6.01413	4.48211	4.30060
5111.162	4.86059	5.83457	5.10689	5.75300
5115.157	5.43430	6.90172	5.99107	5.57110
5119.165	5.65535	6.01160	7.76786	5.64753
5123.161	8.67308	5.73159	8.59480	6.12547
5127.167	7.32802	6.69822	8.74673	6.37769
5131.159	8.51646	7.25123	8.92386	6.38656
5135.163	8.58352	7.18712	9.25045	6.46930
5139.161	9.21541	7.36610	9.50339	6.21242
5143.163	9.16673	7.78236	9.86888	6.20919
5147.163	9.22366	7.85920	9.84527	6.44963
5151.160	9.24187	7.80062	10.09008	6.51659
5155.162	9.18886	8.00261	9.79713	6.49376
5159.161	9.23546	7.93577	10.06816	6.51642
5163.161	9.39818	7.69239	9.64034	6.73549
5167.161	9.36655	7.90506	10.11045	6.62405
5171.161	9.35049	7.81474	10.04333	6.63258
5175.158	9.35930	7.96268	10.11430	6.65202
5179.178	9.46396	8.02210	10.18983	6.74727
5183.167	9.46565	7.95372	10.19524	6.74858
5187.159	9.41955	7.91067	10.34621	6.98745
5191.160	9.49695	8.00194	10.20866	6.84215
5195.182	9.51172	7.87681	10.17428	6.78525
5199.155	9.56031	7.85368	10.12722	6.82321
5203.163	9.59469	7.87958	10.20265	6.73135
5207.165	9.55613	7.86135	10.19084	6.87572
5211.161	9.58270	7.79533	10.19878	6.88245
5215.161	9.61173	7.81264	10.05546	6.90486
5219.157	9.67198	7.79659	10.15826	6.75944
5223.160	9.64562	7.78298	10.03804	6.90848
5227.162	9.58009	7.74146	9.94854	6.91266
5231.158	9.69479	7.78450	9.81202	7.01014
5235.155	9.48270	7.77139	9.93292	6.86556
5239.159	9.63293	7.85932	9.89745	6.87763
5243.158	9.57404	7.73192	9.98405	6.87407
5247.156	9.69031	7.79160	9.97722	6.98361
5251.160	9.65995	7.85236	9.98981	6.92749
5255.159	9.72006	7.85899	10.01147	6.92867
5259.160	9.78341	7.87040	9.93720	6.98021
5263.155	9.68479	7.85061	10.00485	7.10281
5267.158	9.87654	7.95535	9.94710	7.15146
5271.162	9.78288	7.96662	10.03939	7.23031
5275.157	9.80262	7.93895	10.09744	7.06926
5279.160	9.87283	7.92825	10.07639	7.31471
5283.157	9.84385	7.74472	10.12361	7.14495
5287.158	9.90828	7.73471	10.12688	7.34770
5291.163	9.93496	7.76975	10.07769	7.09771
5295.159	9.96297	7.79187	10.08274	7.36104
5299.157	9.86406	7.72828	10.02377	7.28546
5303.162	9.95206	7.75981	10.11642	7.43122
5307.156	9.99643	7.82826	10.05214	7.44113
5311.158	9.97532	7.75796	10.08880	7.23646
5315.159	9.97105	7.71467	10.06335	7.32732
5319.159	9.99592	7.71615	10.00649	7.24580
5323.159	10.03137	7.66764	9.98242	7.19160
5327.155	10.04497	7.63569	9.95526	7.30345
5331.160	9.98769	7.64491	10.00728	7.28772
5335.163	9.90486	7.72866	9.91864	7.19222
5339.155	9.92420	7.74813	9.94724	7.16408
5343.154	9.92540	7.79686	9.93475	7.13284
5347.157	9.91339	7.82136	9.94301	7.04620
5351.157	9.87548	7.72026	10.01084	7.03795
5355.154	9.83816	7.68592	9.92841	6.95840
5359.152	9.83633	7.72544	9.96304	6.91158
5363.157	9.84298	7.61250	10.02576	6.98672
5367.154	9.94024	7.59364	10.04781	6.99302
5371.162	9.98261	7.62012	9.99072	6.83678
5375.161	9.98711	7.69304	10.01635	6.75602
5379.155	9.94103	7.42158	9.89778	6.77769
5383.154	9.92993	7.39092	9.96723	6.93846
5387.154	9.97917	7.45340	10.05339	6.72818
5391.156	10.28623	7.32308	11.22764	6.85351
5395.161	10.88178	7.15321	10.33817	6.33347
5399.194	11.58694	6.02329	11.21646	4.89005
5403.157	11.36768	6.25684	11.49355	4.21434
5407.157	11.97375	5.44357	11.82894	3.23656
5411.151	11.98436	5.41772	12.15839	3.50038
5415.157	12.31409	4.94613	11.88934	3.46405
5419.155	11.43359	4.96619	11.85483	3.51941
5423.149	11.60878	4.89863	11.80405	3.49288
5427.152	11.83441	4.91155	12.00870	3.58233
5431.159	11.97403	4.89016	11.92702	3.47428
5435.154	12.02674	4.89394	11.89076	3.20117
5439.152	12.11498	4.91694	11.91334	3.25982
5443.151	12.14724	4.83469	11.88404	3.46026
5447.155	12.05065	4.81915	11.98042	3.57663
5451.155	11.97422	4.74008	11.96615	3.38490
5455.171	11.77701	4.75422	11.94446	3.28797
5459.168	11.89181	4.78362	11.91716	3.18321
5463.157	11.98339	4.77835	11.93638	3.31322
5467.150	12.06304	4.81688	11.90935	3.39802
5471.161	12.16878	4.84061	11.84770	3.45113
5475.155	12.11631	4.82902	11.87919	3.42466
5479.155	11.95954	4.80044	11.89430	3.45601
5483.150	12.06942	4.75228	11.88824	3.47085
5487.151	11.87603	4.78390	11.91529	3.45575
5491.155	12.03380	4.81689	11.91835	3.45636
5495.441	12.02701	4.86419	11.90683	3.46065
5499.162	12.15891	4.83655	11.85982	3.51484
5503.152	12.24028	4.78983	11.89328	3.54854
5507.150	12.11270	4.78793	11.83158	3.58498
5511.151	11.94503	4.76932	11.89920	3.61190
5515.153	11.86243	4.70026	11.87952	3.57755
5519.152	11.97997	4.59157	11.88230	3.61229
5523.153	12.05957	4.58104	11.83203	3.62928
5527.155	12.05779	4.62390	11.89647	3.61365
5531.149	12.02596	4.71653	11.87237	3.62330
5535.151	12.08276	4.78865	11.93524	3.61866
5539.153	12.22089	4.63510	11.85547	3.61236
5543.159	12.34167	4.77722	11.80378	3.62588
5547.153	12.22528	4.85897	11.85856	3.59349
5551.149	11.98731	4.70996	11.81931	3.54177
5555.150	11.99935	4.64461	11.82476	3.48781
5559.150	11.86495	4.67514	11.83690	3.53089
5563.152	11.87078	4.73502	11.83997	3.52695
5567.155	11.84087	4.65975	11.87040	3.52127
5571.151	11.84870	4.72332	11.90630	3.50010
5575.156	11.78074	4.75957	12.11370	3.50578
5579.154	11.77208	4.78441	12.01222	3.53692
5583.157	11.74342	4.68467	11.95508	3.61719
5587.160	11.69745	4.61141	12.03672	3.71267
5591.152	11.63190	4.62340	12.03052	3.68652
5595.153	11.63178	4.57694	12.15524	3.73197
5599.154	11.62954	4.49184	12.13451	3.77912
5603.151	11.66839	4.49119	12.15256	3.82769
5607.154	11.68434	4.44709	12.17575	3.78724
5611.165	11.70987	4.76008	12.15260	3.78476
5615.156	11.75964	4.65663	12.22310	3.76502
5619.150	11.78745	4.69603	12.21506	3.76593
5623.158	11.82026	4.30168	12.11913	3.71533
5627.154	11.40009	4.12794	12.15718	3.09721
5631.148	11.45727	3.80885	12.03069	1.61526
5635.152	10.70049	2.00314	11.96280	0.79623
5639.147	9.96833	1.55458	11.95828	-0.36931
5643.158	10.13713	0.33788	11.88221	-0.50738
5647.149	9.88868	-0.07273	11.70556	-0.55788
5651.151	9.92991	0.01669	11.48404	-0.73080
5655.151	10.11748	0.33169	11.24151	-0.83250
5659.149	10.14427	0.60915	11.21400	-0.83867
5663.146	10.09508	0.71819	11.32619	-0.80320
5667.158	10.19899	0.70483	11.10070	-0.73697
5671.158	10.13222	0.82430	11.15955	-0.73010
5675.149	10.16062	0.88446	11.04616	-0.73579
5679.145	10.16314	0.66927	10.88771	-0.77478
5683.148	10.26196	0.60408	10.88432	-0.84562
5687.152	10.32378	0.64136	10.90954	-0.85118
5691.152	10.43863	0.60833	10.85119	-0.86177
5695.146	10.43529	0.66589	10.88793	-0.87188
5699.150	10.45166	0.67973	10.95047	-0.84511
5703.151	10.46897	0.64531	11.01194	-0.83926
5707.190	10.48432	0.56739	10.97406	-0.79090
5711.160	10.48387	0.50971	10.99712	-0.70787
5715.150	10.51659	0.37050	10.96815	-0.72111
5719.150	10.51933	0.25843	10.96679	-0.64203
5723.153	10.48754	0.34395	10.98272	-0.67598
5727.151	10.43263	0.40618	10.94086	-0.66890
5731.027	10.44417	0.39566	10.88470	-0.68815
5735.022	10.44091	0.39921	10.83723	-0.72499
5739.031	10.49673	0.38345	10.71959	-0.75737
5743.026	10.55442	0.36762	10.75591	-0.79011
5747.028	10.63713	0.43903	10.68779	-0.84166
5751.023	10.58220	0.45672	10.71377	-0.95384
5755.027	10.54231	0.38552	10.67145	-1.10301
5759.024	10.56850	0.36927	10.64676	-1.12959
5763.024	10.44444	0.18174	10.54365	-1.13060
5767.023	10.35654	0.36023	10.56558	-1.17101
5771.026	10.21709	0.30525	10.59157	-1.17943
5775.024	10.34100	0.21417	10.66040	-1.17377
5779.024	10.30389	0.05027	10.75706	-1.20175
5783.023	10.43700	-0.06874	10.77390	-1.28086
5787.024	10.36586	0.03637	10.76745	-1.37341
5791.022	10.25156	0.11432	10.71966	-1.32943
5795.031	10.23262	0.07175	10.61099	-1.30969
5799.024	10.23461	0.15152	10.51623	-1.28927
5803.022	10.14270	0.16988	10.39818	-1.22316
5807.020	10.06193	0.15358	10.43388	-1.17063
5811.021	10.06614	0.17467	10.45394	-1.14077
5815.023	10.01094	0.09509	10.47249	-1.10539
5819.022	10.00752	0.10850	10.44244	-1.04867
5823.088	9.95733	0.10683	10.45881	-0.98376
5827.031	9.95863	0.17612	10.44292	-0.97120
5831.023	9.97763	0.16634	10.41556	-0.91683
5835.021	9.94809	0.15723	10.40538	-0.92734
5839.029	9.94127	0.14000	10.37861	-0.85790
5843.025	9.94180	0.08087	10.42394	-0.85494
5847.021	10.00312	0.10459	10.46145	-0.82684
5851.026	9.99503	0.14649	10.48596	-0.80652
5855.021	10.04093	0.16149	10.49306	-0.84050
5859.022	10.08036	0.20509	10.42675	-0.80408
5863.020	10.10807	0.24184	10.40757	-0.82559
5867.021	10.13761	0.30779	10.32527	-0.86085
5871.021	10.19510	0.37022	10.33418	-0.82263
5875.022	10.38908	0.70526	10.46073	-0.79061
5879.026	10.80489	1.67476	10.86124	-0.48795
5883.029	11.10890	1.91537	11.78026	0.99125
5887.023	12.20069	4.03886	12.66542	2.30175
5891.020	12.24929	4.83216	12.96852	2.98267
5895.022	12.93193	5.59500	12.99182	3.39399
5899.018	13.26363	5.94389	14.24186	3.83277
5903.023	13.45228	6.07056	14.28415	5.40343
5907.023	13.53894	6.20230	14.41739	5.62337
5911.022	13.42136	6.22566	14.14324	5.34196
5915.020	13.42756	6.25309	13.65430	3.93404
5919.031	13.36173	6.15070	13.64549	4.08632
5923.026	13.24788	6.04567	13.71694	4.51455
5927.020	13.35647	6.13217	13.89407	4.74180
5931.018	13.41810	6.19316	14.18613	5.13609
5935.023	13.52740	6.26802	14.28077	5.04300
5939.021	13.55557	6.25255	14.42639	5.00155
5943.018	13.63824	6.28604	14.26658	4.64510
5947.023	13.75664	6.33340	14.10142	4.54380
5951.022	13.81268	6.34677	14.08542	4.67178
5955.021	14.03269	6.34988	14.02676	4.57300
5959.026	13.76860	6.28709	14.03804	4.91311
5963.028	13.86586	6.27848	14.12354	4.87312
5967.020	13.86210	6.32315	14.10573	4.90071
5971.048	13.84651	6.39168	14.03697	4.95554
5975.033	13.96554	6.46938	14.03512	4.91368
5979.019	14.00029	6.48391	13.96255	4.95778
5983.024	13.91635	6.42386	13.90195	4.94401
5987.021	13.84712	6.40691	13.89608	4.87194
5991.021	13.83447	6.39587	13.93674	5.12102
5995.019	13.98793	6.45090	13.97608	5.23902
5999.024	13.76830	6.48668	13.88387	5.21727
6003.027	13.74568	6.47391	13.83758	5.17240
6007.023	13.73795	6.52518	13.89938	5.27201
6011.017	14.00854	6.60278	14.14534	5.35273
6015.026	13.95437	6.61094	13.88464	5.06824
6019.025	13.68813	6.58215	13.77101	5.16597
6023.021	13.72460	6.61563	13.94570	5.20519
6027.024	13.85494	6.59585	13.71903	5.03041
6031.021	14.11180	6.57714	13.80510	5.10887
6035.020	13.98300	6.55159	13.81376	5.16752
6039.082	13.84111	6.50837	13.66831	5.06659
6043.024	13.79882	6.47414	13.83950	5.14979
6047.027	13.84750	6.54172	14.03811	5.37521
6051.021	13.93480	6.57599	13.71418	4.97460
6055.020	13.78951	6.48026	13.54513	4.94946
6059.016	13.73807	6.48906	13.70261	4.99672
6063.022	13.90020	6.53699	13.61047	4.99262
6067.018	13.89398	6.43945	13.75832	5.01522
6071.017	14.01094	6.48771	13.82957	5.21587
6075.017	13.95327	6.42379	13.70158	5.43567
6079.022	14.13017	6.45794	13.50417	5.09460
6083.031	13.90546	6.42747	13.67635	4.93216
6087.027	14.07181	6.51255	13.57107	4.96022
6091.023	14.06737	6.40782	13.65584	5.11271
6095.020	14.15078	6.35709	13.92898	5.42603
6099.016	14.22995	6.45674	13.61154	4.92864
6103.015	14.12623	6.44521	13.73353	5.14807
6107.017	14.08573	6.51244	13.65109	5.19276
6111.021	14.05689	6.44903	13.78878	5.21252
6115.020	14.15176	6.50950	13.64645	4.95431
6119.014	14.20040	6.50900	13.68954	5.17365
6123.022	14.21402	6.41110	13.51307	5.29784
6127.023	14.27114	6.48106	13.57408	5.07969
6131.026	14.18517	6.58412	13.72481	5.17735
6135.017	14.21941	6.55168	13.72929	5.24580
6139.021	14.10142	6.55544	13.68602	5.07423
6143.019	14.20602	6.63058	13.70828	5.23879
6147.022	14.14924	6.56772	13.85971	5.23652
6151.018	14.19406	6.59525	13.78408	5.18144
6155.019	14.20353	6.63567	13.91944	5.26117
6159.015	14.14719	6.52752	13.89073	5.19408
6163.022	14.11727	6.81859	13.82136	5.13538
6167.017	14.07861	6.81308	13.87821	5.34630
6171.025	14.06917	7.72875	14.03386	6.76755
6175.165	14.20493	8.25268	14.00454	6.52268
6179.020	14.10973	9.10148	14.04883	9.48607
6183.017	14.27713	9.12189	14.08239	9.39014
6187.021	14.14086	9.39237	14.02706	9.23075
6191.018	14.08587	9.43729	14.01877	8.95092
6195.017	14.20877	9.04505	14.15036	9.32998
6199.016	14.23438	9.23197	14.25716	9.07962
6203.018	14.25037	9.37330	14.05936	8.48236
6207.016	14.32046	9.39758	14.14642	8.73984
6211.026	14.46338	9.34470	14.17707	8.86759
6215.018	14.33860	9.46887	14.13573	9.00599
6219.016	14.54509	9.42069	14.20075	9.12768
6223.016	14.57766	9.42232	14.19590	9.04500
6227.015	14.50523	9.46239	14.12371	8.93150
6231.017	14.45605	9.49774	14.14994	8.96608
6235.014	14.47678	9.45913	14.11913	9.05395
6239.014	14.51930	9.53642	14.14873	8.97464
6243.017	14.59233	9.55313	14.12184	8.88364
6247.020	14.64559	9.52605	14.02566	8.85592
6251.015	14.69622	9.43374	14.01501	9.02654
6255.023	14.48376	9.42461	13.90127	9.01862
6259.045	14.56890	9.42933	13.93286	9.01684
6263.017	14.57557	9.45311	13.95474	8.92621
6267.019	14.47871	9.43697	13.98482	8.95582
6271.015	14.49406	9.36482	13.95540	8.94118
6275.013	14.46736	9.28235	13.93153	8.86963
6279.012	14.33746	9.33329	14.01316	8.89664
6283.018	14.33490	9.35651	13.97692	8.91028
6287.015	14.22272	9.35583	14.06595	8.91072
6291.017	14.19116	9.38906	13.94824	8.98986
6295.017	14.16858	9.43889	13.95210	8.95976
6299.018	14.18815	9.41947	14.06693	8.92136
6303.019	14.18379	9.46952	14.05892	8.87016
6307.017	14.15622	9.48675	14.11974	8.90757
6311.016	14.14289	9.44615	14.11855	8.89174
6315.016	14.16891	9.50791	14.06910	8.89490
6319.013	14.26422	9.50292	14.01118	8.89794
6323.014	14.27340	9.48811	13.92847	8.83047
6327.016	14.23445	9.46371	13.98683	8.81989
6331.034	14.27527	9.45589	14.07975	8.90071
6335.032	14.28585	9.42982	14.27198	9.03578
6339.018	14.28725	9.40632	14.26972	9.28565
6343.016	14.27413	9.41302	14.25893	9.14527
6347.017	14.22130	9.37913	14.14371	9.08555
6351.013	14.16868	9.33614	14.08626	9.05960
6355.015	14.25497	9.32380	14.25415	9.15971
6359.011	14.18969	9.27317	14.26033	9.12362
6363.018	14.17642	9.31666	14.29186	9.07524
6367.014	14.19727	9.32717	14.27933	8.98775
6371.015	14.19737	9.36106	14.19641	8.98388
6375.013	14.19389	9.35215	14.05934	9.13901
6379.017	14.18715	9.33622	14.12562	9.11042
6383.024	14.14915	9.34549	14.04881	9.07023
6387.015	14.13528	9.28786	14.03879	8.93938
6391.015	14.12777	9.33247	13.95156	9.03424
6395.019	14.21362	9.39203	13.96673	8.88772
6399.015	14.19860	9.40805	14.12698	9.00177
6403.012	14.14593	9.42973	14.15832	9.04607
6407.011	14.16322	9.42298	14.32267	9.02055
6411.016	14.15640	9.39978	14.29247	9.20235
6415.014	14.20292	9.43453	14.34664	9.54251
6419.020	14.33094	9.41322	14.37799	9.45604
6423.011	14.26560	9.42992	14.40984	9.27871
6427.016	14.24373	9.39714	14.40721	9.29028
6431.014	14.26947	9.44971	14.36546	9.41641
6435.017	14.24711	9.45344	14.33162	9.31196
6439.011	14.25331	9.42260	14.36427	9.26774
6443.016	14.33520	9.38368	14.28205	8.93840
6447.024	14.40577	9.35048	14.26651	8.98953
6451.015	14.45032	9.33997	14.26765	8.85572
6455.016	14.60669	9.36408	14.20597	8.82200
6459.015	14.62203	9.34804	14.17966	8.67045
6463.019	14.64868	9.31221	14.15533	8.56177
6467.011	14.64473	9.30481	14.17243	8.57454
6471.045	14.63576	9.31176	14.13960	8.47049
6475.011	14.63214	9.32346	14.12329	8.46991
6479.014	14.56978	9.22846	14.09091	8.48814
6483.010	14.63249	9.33318	14.15675	8.63828
6487.014	14.76971	9.52270	14.31286	9.21182
6491.012	14.72944	9.64054	14.78315	11.09696
6495.010	14.66294	10.10657	14.66048	11.14151
6499.009	14.56362	10.22424	14.71607	11.09603
6503.021	14.60216	10.32996	14.79020	10.67595
6507.012	14.61037	10.13958	14.78127	10.51660
6511.009	14.54467	10.16436	14.68795	10.61366
6515.017	14.57376	10.45176	14.73260	10.78800
6519.010	14.46649	10.44145	15.14021	10.77277
6523.016	14.65528	10.45181	15.11854	10.71768
6527.010	14.72074	10.51328	15.09668	10.59799
6531.009	14.61281	10.55484	15.06885	10.53347
6535.015	14.54718	10.58634	14.95218	10.55758
6539.010	14.47659	10.56536	14.99322	10.58922
6543.018	14.58347	10.54764	14.96089	10.46477
6547.016	14.57625	10.56025	14.98891	10.37058
6551.011	14.54184	10.54500	14.81073	10.21426
6555.008	14.50939	10.48812	14.97634	10.50303
6559.013	14.58178	10.51422	14.86636	10.37979
6563.011	14.54821	10.51683	14.74279	10.29655
6567.013	14.51039	10.51729	14.75261	10.38651
6571.007	14.45872	10.39393	14.87334	10.63026
6575.014	14.48899	10.33956	14.87573	10.37481
6579.016	14.57576	10.33527	14.83116	10.13163
6582.890	14.57478	10.34339	14.88011	10.37605
6586.889	14.53902	10.31737	14.89107	10.18481
6590.890	14.43263	10.28031	14.83576	10.18549
6594.889	14.47929	10.20228	14.88027	9.94938
6598.884	14.66122	10.22178	14.83330	9.99901
6602.888	14.55032	10.20844	14.93874	10.37098
6606.884	14.56262	10.19188	14.88790	10.45996
6610.896	14.48159	10.20386	14.91963	10.19535
6614.890	14.48497	10.21927	14.88978	9.97408
6618.885	14.52328	10.20070	14.86796	9.77073
6622.886	14.34706	10.20982	14.82200	9.57717
6626.883	14.42348	10.27585	14.77245	10.34420
6630.887	14.01543	10.20960	14.69678	10.27461
6634.891	11.34874	10.29953	12.83267	10.18103
6638.887	9.72915	10.29647	11.11975	9.81314
6642.889	6.69877	9.73659	9.79819	9.45632
6646.886	5.01499	8.27163	7.27607	9.20184
6650.882	2.72788	8.15509	5.33030	8.31188
6654.885	0.86897	7.74566	2.66994	7.28140
6658.884	-1.39150	6.39125	0.95874	6.94606
6662.886	-2.75930	5.49207	-0.85893	5.19880
6666.906	-5.06085	5.06308	-2.20624	4.77265
6670.881	-6.78025	4.50414	-4.61479	2.97604
6674.890	-7.63377	3.22851	-5.99701	3.02071
6678.885	-9.13465	2.34304	-7.44906	2.48520
6682.885	-10.41210	1.68497	-8.48823	2.02450
6686.881	-10.64717	1.17443	-8.68994	0.81559
6690.885	-11.16060	0.94692	-10.24973	0.85492
6694.883	-11.14225	0.55772	-10.45267	0.18943
6698.881	-11.05359	0.00383	-10.57510	0.00845
6702.880	-11.24282	-0.18606	-10.60248	-0.26713
6706.884	-11.17240	0.31421	-10.55313	-0.69807
6710.883	-11.13088	-0.07080	-10.40404	-0.06469
6714.887	-11.23747	0.10419	-10.49491	-0.25408
6718.884	-11.37235	0.02784	-10.56385	-0.34582
6722.883	-11.40839	-0.32754	-10.63264	-0.53193
6726.889	-11.45984	-0.08422	-10.61792	-0.58493
6730.882	-11.33993	0.00027	-10.68988	-0.53298
6734.881	-11.50625	-0.14176	-10.75663	-0.38974
6738.880	-11.41998	-0.14573	-10.71993	-0.53651
6742.880	-11.47414	-0.17704	-10.73380	-0.60853
6746.886	-11.42658	-0.11650	-10.72474	-0.81265
6750.881	-11.50610	-0.21842	-10.77749	-0.70339
6754.884	-11.47229	-0.22667	-10.83929	-0.36001
6758.888	-11.45896	-0.12026	-10.88542	-0.69508
6762.883	-11.53253	-0.13739	-10.89255	-0.65798
6766.891	-11.39112	-0.05902	-10.84982	-0.56813
6770.883	-11.40484	-0.03408	-10.85949	-0.50652
6774.879	-11.38187	-0.06692	-10.78896	-0.60378
6778.884	-11.45040	-0.04562	-10.80074	-0.72696
6782.883	-11.43252	0.01620	-10.92007	-0.49505
6786.884	-11.43495	0.04179	-10.85320	-0.60060
6790.884	-11.46795	0.11758	-10.86703	-0.53010
6794.880	-11.53525	0.09086	-10.91732	-0.58898
6798.892	-11.43531	0.13201	-10.91377	-0.64305
6802.883	-11.53425	0.06620	-10.84978	-0.90581
6806.884	-11.42067	0.10130	-10.84362	-0.73513
6810.881	-11.56100	0.06551	-11.03953	-0.53940
6814.880	-11.55202	0.05548	-10.92686	-0.66513
6818.880	-11.60835	0.03430	-11.07644	-0.72094
6822.884	-11.49519	0.01096	-11.03700	-0.65066
6826.880	-11.56209	-0.00872	-11.06038	-0.71335
6830.902	-11.59904	-0.04825	-11.02830	-0.91070
6834.884	-11.58915	-0.07257	-11.04644	-0.85471
6838.881	-11.60773	-0.10876	-11.16394	-0.87355
6842.884	-11.50658	-0.11990	-10.92873	-0.73672
6846.886	-11.68343	-0.12501	-11.10225	-0.72363
6850.880	-11.70166	-0.16118	-11.06167	-0.63871
6854.880	-11.59611	-0.19344	-11.07298	-0.75540
6858.887	-11.70261	-0.26924	-11.14995	-0.81812
6862.882	-11.66848	-0.21909	-11.11286	-0.89991
6866.888	-11.66211	-0.23759	-11.03518	-0.90559
6870.882	-11.70680	-0.25383	-11.05699	-0.92622
6874.881	-11.56095	-0.21523	-11.17926	-0.85194
6878.882	-11.69652	-0.17593	-11.08079	-0.81126
6882.885	-11.68538	-0.17058	-11.08569	-0.83602
6886.912	-11.71825	-0.15416	-11.11903	-0.91381
6890.891	-11.70799	-0.14733	-11.01161	-0.97689
6894.881	-11.59434	-0.09362	-11.03224	-0.98023
6898.877	-11.70004	-0.10945	-11.16841	-0.96106
6902.883	-11.75155	-0.10556	-11.10706	-0.90783
6906.880	-11.68541	-0.22421	-11.05765	-0.89130
6910.878	-11.79415	-0.30393	-11.14106	-0.91803
6914.877	-11.74068	-0.12656	-11.00778	-0.95495
6918.881	-11.78295	-0.21054	-11.04420	-0.92258
6922.885	-11.76623	-0.08313	-11.36195	-0.84648
6926.885	-11.75327	-0.13013	-11.03241	-0.79660
6930.879	-11.83636	-0.19843	-11.18659	-0.79905
6934.876	-11.75132	-0.18358	-11.36300	-0.71628
6938.881	-11.84741	-0.05180	-11.20307	-0.70486
6942.881	-11.86391	-0.13465	-11.16201	-0.69053
6946.876	-11.84358	-0.22669	-11.19275	-0.75229
6950.880	-11.77460	-0.09244	-11.25287	-0.79746
6954.880	-11.70542	-0.05285	-11.19757	-0.76378
6958.876	-11.83101	-0.15699	-11.19265	-0.84181
6962.876	-11.67503	-0.14202	-11.35675	-0.84444
6966.883	-11.61730	-0.53488	-10.79981	-1.01475
6970.882	-11.61368	-1.97734	-10.34801	-2.67642
6974.878	-11.49407	-2.62574	-10.58354	-3.85927
6978.883	-11.39623	-3.58812	-9.89029	-4.18528
6982.878	-11.49264	-4.58378	-10.50078	-5.44186
6986.881	-11.52834	-5.25564	-10.34266	-5.39550
6990.879	-11.51464	-6.79992	-10.16091	-6.49734
6994.880	-11.70133	-7.20639	-10.38440	-6.95128
6998.877	-11.91759	-7.89436	-10.38490	-7.25119
7002.918	-13.46986	-9.19242	-11.33197	-8.29830
7006.895	-14.07802	-13.06822	-11.00735	-8.82659
7010.881	-12.14677	-9.45530	-11.46838	-8.80859
7014.875	-15.90656	-11.14250	-11.81762	-9.14466
7018.880	-12.67778	-9.36719	-11.67239	-9.02136
7022.879	-12.60162	-9.19671	-11.67579	-9.00494
7026.877	-12.25019	-8.21543	-11.87722	-9.01121
7030.882	-13.55208	-9.52583	-11.80764	-9.01416
7034.879	-13.36485	-9.58881	-11.94596	-9.15886
7038.876	-13.25465	-9.53917	-11.88264	-9.19875
7042.875	-12.25908	-9.80779	-11.90426	-9.18841
7046.880	-12.56938	-9.06235	-11.99483	-9.21081
7050.880	-12.96444	-9.64220	-12.05286	-9.25289
7054.875	-12.94881	-9.85299	-12.03852	-9.32555
7058.875	-13.35576	-10.14208	-11.93550	-9.27407
7062.884	-13.40309	-10.01650	-12.01753	-9.30868
7066.879	-13.32679	-9.91422	-12.04388	-9.31079
7070.875	-13.45672	-9.99368	-12.05544	-9.39682
7074.876	-13.43857	-9.95912	-11.81349	-9.33488
7078.880	-13.47151	-10.00341	-12.00846	-9.32297
7082.876	-13.08517	-10.01486	-12.04911	-9.28143
7086.874	-13.34127	-10.06670	-12.12025	-9.30867
7090.878	-13.45515	-10.08323	-11.91198	-9.30453
7094.878	-13.29969	-9.96514	-11.88998	-9.22287
7098.935	-13.42758	-10.05742	-11.99590	-9.19381
7102.880	-13.20976	-9.97060	-12.02164	-9.17140
7106.874	-13.20764	-9.97165	-11.99951	-9.20805
7110.874	-13.28557	-10.01609	-11.76097	-9.21963
7114.877	-13.00667	-9.80413	-11.80383	-9.11858
7118.874	-13.10961	-9.83848	-11.93600	-9.17407
7122.874	-13.14190	-9.63915	-11.93280	-9.12875
7126.872	-13.09701	-9.55786	-11.90407	-9.10537
7130.883	-13.05552	-9.43951	-11.89528	-9.13205
7134.881	-13.01762	-9.46934	-11.87520	-9.12501
7138.872	-13.04968	-9.58416	-11.89012	-9.14506
7142.881	-12.96204	-9.41555	-11.90072	-9.17258
7146.878	-12.89742	-9.39708	-11.91728	-9.13895
7150.879	-12.82609	-9.55693	-11.88625	-9.09394
7154.876	-12.94952	-9.54619	-12.02477	-9.10403
7158.873	-12.96326	-9.51484	-11.96320	-9.09091
7162.874	-12.73935	-9.32390	-11.99690	-9.08804
7166.874	-12.78092	-9.27227	-12.00345	-9.10732
7170.877	-12.77823	-9.32950	-12.10445	-9.12767
7174.882	-12.78295	-9.28487	-12.08452	-9.12118
7178.871	-12.74142	-9.11245	-12.05801	-9.06236
7182.879	-12.69509	-9.11588	-12.09410	-9.07234
7186.877	-12.76961	-9.10831	-12.08276	-9.09963
7190.873	-12.80549	-9.11252	-12.00167	-9.07205
7194.923	-12.92463	-9.16929	-12.03883	-9.13062
7198.874	-12.76354	-9.11835	-12.06306	-9.12429
7202.871	-12.65120	-8.98106	-12.15407	-9.18765
7206.878	-12.68678	-9.01837	-12.17807	-9.22953
7210.877	-12.64513	-9.01143	-12.13792	-9.24775
7214.877	-12.67310	-8.98564	-12.09723	-9.14776
7218.881	-12.62941	-9.02439	-12.08425	-9.10598
7222.874	-12.53845	-9.02051	-12.12343	-9.19186
7226.877	-12.54259	-8.95273	-12.14871	-9.19316
7230.871	-12.35992	-8.86915	-12.13351	-9.15418
7234.874	-12.36596	-8.85589	-12.23696	-9.10773
7238.874	-12.29566	-8.80145	-12.25822	-9.05632
7242.876	-12.26420	-8.76134	-12.19809	-9.03766
7246.874	-12.25311	-8.79590	-12.18545	-9.00051
7250.874	-12.28920	-8.78070	-12.14188	-8.97298
7254.872	-12.25455	-8.87613	-12.10976	-8.96617
7258.878	-12.25495	-8.87242	-12.10523	-8.98028
7262.871	-12.26334	-8.87565	-12.12672	-9.00199
7266.880	-12.25135	-8.87408	-12.13277	-8.98297
7270.876	-12.26905	-8.84605	-12.08046	-8.96327
7274.873	-12.31973	-8.80658	-12.09035	-8.95505
7278.869	-12.35059	-8.79357	-12.06999	-8.96805
7282.879	-12.36265	-8.85955	-12.03242	-9.01061
7286.878	-12.34432	-8.84808	-12.03370	-9.02742
7290.873	-12.34685	-8.75504	-12.00402	-9.04535
7294.872	-12.30933	-8.70270	-12.02736	-9.04581
7298.878	-12.29026	-8.67207	-12.01297	-9.04136
7302.873	-12.21999	-8.65669	-12.03681	-9.02986
7306.872	-12.14748	-8.64921	-12.06748	-9.03605
7310.869	-12.16667	-8.65199	-12.07358	-9.03419
7314.871	-12.13878	-8.69662	-12.11745	-9.04801
7318.903	-12.18822	-8.74137	-12.16852	-9.07203
7322.870	-12.20895	-8.81153	-12.15417	-9.06387
7326.867	-12.27161	-8.81338	-12.16695	-9.03536
7330.880	-12.35069	-8.84803	-12.17843	-9.01216
7334.873	-12.26050	-8.87281	-12.17136	-9.01465
7338.875	-12.37780	-8.92865	-12.14205	-9.02724
7342.875	-12.33077	-8.95196	-12.17001	-9.01072
7346.871	-12.34652	-8.98515	-12.15611	-9.01585
7350.876	-12.37108	-9.02254	-12.15787	-9.03354
7354.870	-12.36513	-9.01931	-12.15460	-9.04852
7358.873	-12.34851	-8.96401	-12.14938	-9.09053
7362.870	-12.31632	-8.92032	-12.10739	-9.11778
7366.871	-12.31696	-8.81793	-12.11315	-9.14975
7370.872	-12.28223	-8.75204	-12.14625	-9.14499
7374.873	-12.24410	-8.65323	-12.17836	-9.17882
7378.867	-12.21992	-8.54180	-12.18056	-9.14513
7382.886	-12.20828	-8.48207	-12.21459	-9.14616
7386.874	-12.23583	-8.42448	-12.21900	-9.13055
7390.875	-12.20027	-8.33198	-12.24415	-9.11556
7394.876	-12.12661	-8.28864	-12.23893	-9.10913
7398.868	-12.08454	-8.18780	-12.22262	-9.03921
7402.874	-11.94828	-8.10274	-12.22485	-8.99827
7406.870	-11.91220	-8.10838	-12.19972	-8.98932
7410.875	-11.64349	-7.95965	-11.75481	-8.90087
7414.873	-10.49471	-6.85141	-10.82174	-8.08643
7418.869	-9.16105	-5.01737	-8.97017	-6.72725
7422.871	-7.36650	-3.04535	-8.78946	-5.76828
7426.876	-6.80989	-2.22306	-7.14370	-4.00936
7430.872	-5.22343	-0.85080	-6.56809	-3.09558
7434.872	-4.80712	0.92512	-4.85780	-1.46440
7438.744	-3.29149	2.04501	-3.62294	0.38471
7442.745	-2.53808	3.19301	-2.95537	0.97148
7446.748	-1.29283	4.24721	-1.91447	3.45929
7450.746	-0.26572	5.53062	0.21368	3.85491
7454.746	1.25027	6.90228	1.14565	4.71395
7458.749	2.18196	7.37746	1.94588	5.68472
7462.746	3.41565	8.15664	3.52554	6.80666
7466.762	4.15875	8.38020	5.34193	6.88540
7470.755	4.68287	8.92245	5.85475	7.69946
7474.749	6.64111	9.01866	6.40937	9.30934
7478.758	7.05767	9.51118	7.72873	9.35861
7482.745	7.00423	9.80887	7.79325	9.16374
7486.748	7.13901	9.96426	7.86695	9.49291
7490.747	7.10172	10.05550	7.70950	9.56297
7494.744	6.83895	9.94418	7.85414	9.74866
7498.741	6.95394	10.08422	8.01336	9.76750
7502.744	7.11384	10.09325	7.99357	9.93682
7506.744	7.07004	9.92434	7.91534	9.87832
7510.747	7.09086	9.95945	8.04942	9.72410
7514.749	7.16024	9.95192	7.96310	9.70255
7518.747	7.11261	9.95686	7.97992	9.77050
7522.746	7.14411	9.93268	8.01893	9.80861
7526.742	7.27255	9.92805	8.12011	10.06590
7530.770	7.41736	9.91733	8.02287	10.15468
7534.745	7.34626	9.83632	8.10807	10.09517
7538.747	7.37782	9.80364	8.18475	9.92812
7542.741	7.45660	9.82159	8.09392	9.72281
7546.745	7.47461	9.81566	8.02144	9.75268
7550.741	7.55515	9.81130	8.09664	9.73355
7554.753	7.59927	9.77424	8.05621	9.87496
7558.747	7.57342	9.80967	8.10294	9.92173
7562.742	7.64783	9.80855	8.08611	9.86878
7566.743	7.66673	9.81219	8.11943	9.87929
7570.749	7.66748	9.85301	8.11513	9.86240
7574.743	7.61477	9.82885	8.18244	9.90195
7578.748	7.62872	9.84989	7.90988	9.99083
7582.748	7.65108	9.84845	7.84735	9.86565
7586.743	7.70407	9.86960	8.01039	9.99098
7590.745	7.74362	9.85889	8.13485	10.05870
7594.744	7.75522	9.90183	8.13356	9.87138
7598.742	7.67031	9.91857	8.18789	9.57394
7602.741	7.71123	9.90906	8.00026	9.70216
7606.744	7.74442	9.87706	7.96568	9.93725
7610.755	7.79403	9.83259	7.90952	9.86241
7614.748	7.87944	9.84868	8.07655	9.82207
7618.742	7.94416	9.84544	7.98031	9.88479
7622.746	7.89247	9.85091	8.12079	9.71040
7626.739	7.82545	9.82929	8.08893	9.79314
7630.746	7.72000	9.75261	8.10851	9.73038
7634.743	7.71947	9.74343	8.02859	9.63725
7638.745	7.69934	9.72052	8.08022	9.65133
7642.745	7.80755	9.69929	8.03453	9.74568
7646.744	7.87501	9.65536	8.07129	9.81255
7650.741	7.91911	9.65067	8.05356	9.80215
7654.741	7.82906	9.72635	8.09542	9.78034
7658.743	7.77481	9.71317	8.07596	9.77909
7662.745	7.82691	9.70578	8.06256	9.83390
7666.741	7.80136	9.70474	8.05798	9.80708
7670.740	7.88210	9.70918	8.07871	9.77998
7674.741	7.91911	9.72614	8.06810	9.80011
7678.753	8.02771	9.71983	8.08170	9.81244
7682.744	8.00499	9.72479	8.04823	9.83890
7686.742	8.07375	9.71136	8.06509	9.78319
7690.740	8.12379	9.68320	8.10362	9.76340
7694.746	8.21410	9.71608	8.08674	9.71428
7698.741	8.44302	9.66794	8.06988	9.68918
7702.749	8.51015	9.66314	8.09404	9.70137
7706.749	8.22261	9.60299	8.12303	9.65742
7710.742	8.44293	9.59328	8.64252	9.66606
7714.743	9.42919	9.45968	10.00637	9.47521
7718.743	10.37133	9.42218	10.38761	9.56902
7722.745	10.51350	9.25069	11.34743	9.18833
7726.770	11.79758	9.16848	12.43279	8.35592
7730.739	12.03088	9.12485	12.62740	8.19462
7734.737	12.03026	9.13010	12.54356	8.37331
7738.737	11.81598	9.17759	12.36634	8.27580
7742.743	11.81700	9.20574	12.02850	8.54591
7746.739	11.80837	9.18151	11.98374	8.47085
7750.738	11.86952	9.15060	12.09500	8.56716
7754.739	11.89088	9.20727	12.24436	8.52197
7758.741	11.83082	9.16295	12.32703	8.55136
7762.742	11.88832	9.20262	12.37352	8.44868
7766.743	11.95370	9.19364	12.27261	8.21441
7770.738	11.92914	9.17008	12.33184	8.30233
7774.739	11.94627	9.01757	12.33252	8.24409
7778.741	11.95574	9.06449	12.29292	8.28812
7782.738	11.98816	8.94965	12.31926	8.21822
7786.739	12.05241	8.85623	12.40957	8.28172
7790.737	12.09472	8.86605	12.48206	8.32721
7794.738	12.17874	8.80730	12.50016	8.30048
7798.741	12.10552	8.90279	12.43464	8.25790
7802.743	12.15654	8.94156	12.44046	8.15938
7806.957	12.19379	9.00165	12.49760	8.12035
7810.742	12.27209	9.00905	12.47752	8.10285
7814.740	12.35471	9.02743	12.41743	8.09968
7818.739	12.49448	8.96323	12.35417	8.27948
7822.741	12.49048	9.17170	12.44401	8.35609
7826.742	12.43918	9.00583	12.63010	8.33981
7830.763	12.40266	9.02087	12.71441	8.41318
7834.740	12.30246	8.91253	12.51974	8.49266
7838.737	12.29036	8.83015	12.02672	8.43851
7842.738	12.35265	8.65920	12.22824	8.34545
7846.749	12.47513	8.84108	12.09379	8.45117
7850.741	12.21587	8.85349	12.26093	8.44481
7854.739	12.35590	8.70181	12.19643	8.41072
7858.742	12.20641	8.62945	12.23512	8.42013
7862.738	12.20555	8.63462	12.27365	8.44624
7866.738	12.19925	8.57998	12.58446	8.50830
7870.737	12.02014	8.65265	12.40550	8.67761
7874.735	12.09785	8.58536	12.22907	8.61967
7878.741	12.07892	8.52038	12.15187	8.44304
7882.741	12.12654	8.48421	12.18459	8.63715
7886.744	12.13102	8.61946	12.18834	8.53026
7890.752	11.54871	8.30584	11.93638	7.84043
7894.740	9.77809	7.88023	9.74851	5.59426
7898.739	7.69415	5.90879	9.13577	4.23705
7902.738	7.04391	4.84006	8.05178	2.80173
7906.740	6.00003	3.15395	6.73625	1.46874
7910.741	2.95911	1.36534	5.21789	0.82765
7914.735	2.72441	1.12901	3.95219	0.45965
7918.739	2.32580	0.34005	3.35820	-0.79698
7922.739	0.78459	0.02912	1.62954	-1.34191
7926.741	0.54749	-0.43292	0.97760	-1.53494
7930.738	0.03906	-1.45384	0.46837	-2.46693
7934.738	-0.45696	-1.49273	0.29158	-2.15591
7938.736	-0.37844	-1.33564	-0.26674	-1.83017
7942.745	-0.48279	-0.92457	-0.87277	-2.17308
7946.803	-0.32158	-1.24334	-0.76955	-2.27758
7950.743	-0.30937	-1.45593	-0.52677	-2.29283
7954.742	-0.46855	-1.24714	-0.42472	-2.46806
7958.737	-0.37943	-1.16628	-0.78975	-2.27621
7962.734	-0.40700	-1.29277	-0.70017	-2.41509
7966.733	-0.54399	-1.35158	-0.63818	-2.53171
7970.743	-0.55530	-1.66095	-0.51555	-2.58181
7974.739	-0.64888	-1.41299	-0.67618	-2.47349
7978.739	-0.72568	-1.47023	-0.83059	-2.46363
7982.733	-0.63881	-1.54932	-0.90701	-2.52020
7986.744	-0.72692	-1.61563	-0.88520	-2.56529
7990.754	-0.61774	-1.45065	-0.79662	-2.54613
7994.741	-0.60635	-1.37320	-0.65166	-2.46899
7998.735	-0.75573	-1.45118	-0.73337	-2.42681
8002.735	-0.72501	-1.67936	-0.81595	-2.44449
8006.738	-0.85369	-1.48469	-0.78801	-2.36623
8010.749	-0.84349	-1.74075	-0.80238	-2.35025
8014.738	-0.88327	-1.69124	-0.79168	-2.31652
8018.737	-0.92743	-1.71894	-0.87267	-2.34797
8022.733	-0.66039	-1.50819	-0.91696	-2.32456
8026.732	-0.74119	-1.38982	-0.92674	-2.27337
8030.733	-0.66940	-1.51996	-0.89376	-2.22616
8034.735	-0.72846	-1.69527	-0.81255	-2.22358
8038.733	-0.73399	-1.46161	-0.80280	-2.26998
8042.734	-0.70414	-1.48464	-0.76327	-2.38264
8046.736	-0.71655	-1.43207	-0.90540	-2.34525
8050.733	-0.71285	-1.52911	-0.96110	-2.34779
8054.740	-0.64940	-1.57181	-0.93373	-2.36324
8058.733	-0.57575	-1.64729	-0.98157	-2.31447
8062.737	-0.56443	-1.57218	-0.84672	-2.31302
8066.734	-0.56302	-1.46387	-0.77848	-2.32853
8070.732	-0.56267	-1.50537	-0.77178	-2.34625
8074.738	-0.57352	-1.46159	-0.94993	-2.38064
8078.738	-0.53652	-1.44190	-0.94609	-2.39347
8082.738	-0.73573	-1.54189	-0.87788	-2.40393
8086.733	-0.68474	-1.54364	-0.90607	-2.38580
8090.734	-0.69223	-1.56467	-0.78560	-2.39017
8094.745	-0.54989	-1.58058	-0.84719	-2.34114
8098.735	-0.54113	-1.46279	-0.88977	-2.34977
8102.737	-0.56647	-1.42526	-0.93497	-2.34506
8106.731	-0.69265	-1.39781	-0.92415	-2.35171
8110.737	-0.66121	-1.41845	-0.98953	-2.31858
8114.739	-0.64940	-1.43681	-0.98561	-2.32674
8118.734	-0.78729	-1.46723	-0.84974	-2.30624
8122.733	-0.78188	-1.47818	-0.77818	-2.26848
8126.733	-0.69704	-1.49626	-0.65188	-2.21254
8130.738	-0.61866	-1.52949	-0.79513	-2.14233
8134.740	-0.57890	-1.51127	-0.98799	-2.11108
8138.735	-0.58550	-1.41547	-0.98120	-2.13597
8142.745	-0.57637	-1.41572	-1.09902	-2.13569
8146.739	-0.58128	-1.35927	-1.11301	-2.18017
8150.737	-0.62029	-1.33190	-1.17346	-2.20897
8154.734	-0.58749	-1.26912	-1.10011	-2.19114
8158.738	-0.74456	-1.38716	-0.96048	-2.20481
8162.790	-0.73191	-1.43874	-1.02087	-2.29519
8166.740	-0.83436	-1.54843	-0.97308	-2.39265
8170.730	-0.80295	-1.49193	-1.01844	-2.42246
8174.732	-0.84096	-1.42748	-0.89175	-2.43944
8178.736	-0.72253	-1.40339	-0.81424	-2.53045
8182.737	-0.80173	-1.42288	-0.82957	-2.65663
8186.731	-0.75938	-1.46255	-0.80106	-2.73608
8190.733	-0.78206	-1.45859	-0.81265	-2.76292
8194.731	-0.74116	-1.43479	-0.78233	-2.84050
8198.729	-0.80947	-1.38754	-0.78548	-2.82699
8202.730	-0.81002	-1.40880	-0.86012	-2.83083
8206.731	-0.77379	-1.38867	-0.95103	-2.73934
8210.729	-0.71893	-1.40150	-0.98447	-2.46787
8214.734	-0.68846	-1.47481	-0.93912	-2.28227
8218.742	-0.76551	-1.54056	-0.97430	-2.23405
8222.734	-0.84771	-1.66603	-0.93668	-2.05141
8226.731	-0.86642	-1.82045	-0.81297	-2.26387
8230.727	-0.82610	-1.74642	-0.85200	-2.38748
8234.730	-0.84429	-1.56250	-0.85649	-2.34982
8238.733	-0.84193	-1.66556	-0.79114	-2.29831
8242.730	-0.81114	-1.71177	-0.84424	-2.27469
8246.737	-0.81957	-1.80580	-0.84635	-2.36047
8250.731	-0.84049	-1.78462	-0.84635	-2.38988
8254.729	-0.79121	-1.85134	-0.84587	-2.31495
8258.728	-0.82878	-1.81736	-0.88925	-2.32343
8262.735	-0.84126	-1.87695	-0.83669	-2.38503
8266.731	-0.83042	-1.85370	-0.79340	-2.44949
8270.735	-0.88078	-1.83908	-0.84478	-2.45536
8274.736	-0.92450	-1.82305	-0.84823	-2.45930
8278.731	-0.93214	-1.90428	-0.86096	-2.46458
8282.730	-0.97641	-1.89433	-0.89723	-2.41217
8286.729	-1.03853	-1.92474	-0.90790	-2.39376
8290.605	-1.06158	-1.87152	-0.94517	-2.38412
8294.608	-1.03394	-1.91293	-0.99539	-2.32872
8298.605	-1.07311	-1.93825	-1.01863	-2.28177
8302.604	-1.10735	-1.96649	-1.06634	-2.34375
8306.614	-1.09539	-1.99739	-0.83890	-2.38545
8310.605	-1.11571	-1.97582	-0.82645	-2.37973
8314.605	-1.08299	-1.97981	-0.83922	-2.38986
8318.605	-0.99931	-1.91660	-0.88751	-2.40623
8322.610	-0.92046	-1.88163	-0.94234	-2.41500
8326.607	-0.87930	-1.91059	-1.07624	-2.48019
8330.610	-0.90282	-1.88618	-1.01752	-2.40968
8334.610	-0.82322	-1.75730	-1.07870	-2.40049
8338.607	-0.87917	-1.77405	-1.18105	-2.40802
8342.605	-0.87505	-1.72267	-1.25637	-2.42320
8346.609	-0.89833	-1.70198	-1.20368	-2.38297
8350.608	-0.89093	-1.65005	-1.25927	-2.33362
8354.614	-0.89527	-1.61509	-1.25262	-2.28365
8358.606	-0.90480	-1.59714	-1.32297	-2.25201
8362.604	-0.88160	-1.64514	-1.34390	-2.21280
8366.603	-0.96648	-1.67650	-1.37173	-2.19635
8370.607	-0.99377	-1.70188	-1.35001	-2.16182
8374.608	-1.00866	-1.72831	-1.35482	-2.17580
8378.602	-1.04744	-1.76870	-1.35303	-2.18870
8382.603	-1.03900	-1.83937	-1.30268	-2.15206
8386.666	-1.03416	-1.85665	-1.21060	-2.14181
8390.615	-0.38747	-1.74311	0.38933	-2.09264
8394.605	0.51793	-1.67724	0.94180	-1.92316
8398.605	0.91455	-1.84381	1.60057	-1.87000
8402.602	1.55650	-1.48703	2.02088	-1.83744
8406.601	2.15490	-1.04604	2.84682	-1.70215
8410.603	2.55138	-1.07537	2.48222	-1.59450
8414.608	2.78322	-0.90756	2.24388	-1.54577
8418.604	2.79347	-0.93319	2.20652	-1.55777
8422.603	2.84702	-0.70876	2.05613	-1.55765
8426.607	2.91091	-0.63760	1.93326	-1.56203
8430.608	2.97153	-0.60791	1.99632	-1.60232
8434.606	2.77668	-0.52436	2.08305	-1.64933
8438.603	2.70030	-0.48748	2.18456	-1.72621
8442.603	2.82274	-0.41780	2.20884	-1.74674
8446.606	2.78802	-0.38708	2.32127	-1.86401
8450.603	2.80513	-0.38529	2.48708	-1.88575
8454.601	2.72969	-0.34535	2.59101	-1.86348
8458.603	2.59138	-0.31278	2.70874	-1.88604
8462.602	2.53917	-0.33697	2.89146	-1.90908
8466.602	2.42096	-0.35120	2.90086	-1.95294
8470.604	2.38338	-0.40535	3.04185	-1.95259
8474.607	2.37659	-0.42569	3.09550	-1.93760
8478.607	2.32114	-0.50279	3.09735	-1.96550
8482.608	2.32528	-0.50890	2.85351	-2.01462
8486.822	2.32630	-0.53122	2.67417	-1.98096
8490.607	2.38930	-0.61046	2.63289	-1.96230
8494.602	2.40459	-0.64968	2.53877	-1.95169
8498.602	2.42151	-0.66355	2.33113	-1.97632
8502.606	2.51581	-0.70736	2.39076	-1.99714
8506.602	2.53038	-0.69663	2.50794	-2.01082
8510.599	2.57712	-0.71733	2.39331	-1.95242
8514.615	2.63945	-0.72652	2.32766	-1.85098
8518.605	2.63839	-0.73357	2.25657	-1.82200
8522.604	2.69641	-0.72431	2.21764	-1.76145
8526.607	2.70678	-0.71390	2.24785	-1.71239
8530.601	2.70074	-0.74061	2.24807	-1.71224
8534.600	2.66365	-0.73162	2.23908	-1.78119
8538.606	2.63698	-0.71829	2.24222	-1.78617
8542.604	2.62142	-0.75647	2.29305	-1.74334
8546.608	2.55876	-0.78798	2.29825	-1.76752
8550.601	2.51031	-0.88674	2.29017	-1.80005
8554.607	2.47232	-0.92447	2.30187	-1.73736
8558.610	2.33123	-0.91642	2.32431	-1.78242
8562.600	2.28546	-0.98625	2.34183	-1.78171
8566.602	2.23169	-1.04581	2.34317	-1.80864
8570.602	2.20099	-1.12422	2.35566	-1.87247
8574.601	2.17192	-1.23857	2.37820	-1.90096
8578.607	2.11467	-1.28242	2.40456	-1.90358
8582.605	2.12525	-1.28008	2.44316	-1.90060
8586.604	2.07098	-1.28722	2.43872	-1.95256
8590.603	2.07774	-1.26393	2.39971	-1.94579
8594.601	2.07725	-1.24373	2.36074	-1.91651
8598.636	2.08900	-1.22399	2.32050	-1.93571
8602.599	2.11413	-1.21057	2.29567	-1.94755
8606.595	2.14550	-1.19704	2.25603	-1.98262
8610.613	2.16307	-1.17677	2.26524	-2.00431
8614.604	2.17571	-1.14442	2.22101	-2.00586
8618.600	2.15945	-1.16670	2.27753	-2.02844
8622.598	2.16803	-1.17952	2.26554	-2.04503
8626.606	2.09633	-1.20715	2.22969	-2.06521
8630.602	2.06852	-1.23594	2.25536	-2.07269
8634.599	2.00797	-1.26707	2.41601	-2.07483
8638.596	1.93435	-1.31813	2.36993	-2.07282
8642.608	2.01967	-1.28898	2.44088	-2.08461
8646.598	2.10875	-1.31278	2.39706	-2.10082
8650.599	2.20364	-1.33523	2.41457	-2.09529
8654.600	2.20431	-1.24385	2.37907	-2.08969
8658.602	2.28940	-1.29793	2.40253	-2.08475
8662.596	2.47819	-1.25438	2.40912	-2.09699
8666.604	2.50803	-1.21460	2.39044	-2.09017
8670.600	2.64500	-1.18382	2.40783	-2.11000
8674.598	2.61971	-1.10224	2.37003	-2.10243
8678.596	2.67880	-1.09615	2.35154	-2.15122
8682.610	2.71349	-1.06553	2.42624	-2.22407
8686.600	2.74195	-1.07511	2.47702	-2.23967
8690.623	2.78557	-1.08531	2.51244	-2.24075
8694.605	2.80979	-1.07229	2.56961	-2.23602
8698.603	2.82444	-1.03414	2.62464	-2.19225
8702.600	2.80587	-1.01401	2.65050	-2.14989
8706.597	2.66531	-0.94614	2.69819	-2.00484
8710.598	2.57206	-0.82453	2.75896	-1.77540
8714.599	2.55983	-0.91785	2.82853	-1.76540
8718.598	2.17304	-0.97995	2.72134	-1.73040
8722.603	1.22010	-0.98204	2.56364	-1.71832
8726.599	1.01385	-0.98797	2.34463	-1.60049
8730.599	1.19390	-1.02996	2.39445	-1.53070
8734.597	1.29318	-0.99908	2.41680	-1.57195
8738.594	1.45772	-0.96767	2.49471	-1.55276
8742.603	1.44999	-0.98026	2.30514	-1.60096
8746.600	1.40953	-0.95845	2.00267	-1.76099
8750.596	1.37275	-0.93502	1.75000	-1.61196
8754.596	1.28745	-0.92775	1.25982	-1.59628
8758.750	1.27929	-0.73767	1.19644	-1.62951
8762.602	1.35678	-0.57838	0.99328	-1.61088
8766.605	1.37531	-0.39304	1.07912	-1.47880
8770.601	1.39336	-0.52847	1.24917	-1.46752
8774.600	1.44706	-0.43143	1.08604	-1.37427
8778.597	1.45328	-0.41111	0.97958	-1.34645
8782.595	1.46179	-0.27168	0.98186	-1.32435
8786.596	1.47947	-0.22016	1.08120	-1.24105
8790.655	1.47923	-0.04414	1.06361	-1.21769
8794.605	1.48250	-0.18178	1.07388	-1.14065
8798.594	1.53329	-0.16106	1.17637	-1.02860
8802.600	1.67469	-0.18308	1.44904	-1.04081
8806.601	1.81143	-0.20532	1.71808	-1.07188
8810.596	1.77199	-0.20590	1.75466	-1.06943
8814.595	1.89580	-0.21219	1.89935	-1.02329
8818.597	1.78000	-0.15791	2.07752	-1.01930
8822.595	1.90101	-0.04013	2.14174	-0.97252
8826.596	1.99768	-0.03330	2.08163	-0.85930
8830.602	2.02378	-0.11317	1.88179	-0.83365
8834.604	2.07745	-0.18952	1.84047	-0.80914
8838.598	2.01109	-0.24670	1.86171	-0.86244
8842.596	1.89516	-0.27334	1.92647	-0.92421
8846.606	1.88680	-0.32445	2.02968	-0.96827
8850.601	1.82167	-0.26463	2.07938	-0.82201
8854.595	1.86511	-0.34022	2.11648	-0.80709
8858.595	1.85824	-0.45380	2.08131	-0.70777
8862.601	1.96120	-0.43716	1.94726	-0.64498
8866.597	1.86627	-0.43174	1.71541	-0.66143
8870.595	1.80697	-0.40006	1.76534	-0.73870
8874.596	1.77759	-0.25287	1.81235	-0.75065
8878.597	1.84731	-0.14385	1.86146	-0.81948
8882.597	1.87912	0.01222	1.74890	-0.80662
8886.598	1.91243	-0.06179	1.81548	-0.83987
8890.597	1.98896	-0.03762	1.90582	-0.89430
8894.597	2.05001	0.03516	1.89151	-0.93965
8898.600	2.08451	0.03035	1.84012	-0.93776
8902.597	2.10471	0.07601	1.84498	-0.96167
8906.594	2.12962	0.14931	1.93611	-0.98607
8910.592	2.19036	0.18516	1.98831	-0.96067
8914.600	2.11836	0.19734	2.03558	-0.85185
8918.598	2.06837	0.15930	2.08478	-0.78305
8922.598	2.01491	0.10122	2.01427	-0.67006
8926.599	2.02183	-0.01214	2.04961	-0.59916
8930.600	1.99734	-0.09256	1.92371	-0.74171
8934.595	2.02802	-0.16912	1.80794	-0.71047
8938.594	2.02074	-0.22196	1.70447	-0.69057
8942.600	1.92614	-0.25299	1.66366	-0.67727
8946.597	1.90723	-0.28146	1.63083	-0.75690
8950.595	1.87525	-0.30250	1.64816	-0.76648
8954.598	1.82460	-0.33293	1.58220	-0.78685
8958.596	1.82805	-0.35151	1.55249	-0.91011
8962.597	1.85353	-0.35540	1.51524	-1.00815
8966.601	1.88070	-0.38542	1.51809	-1.06474
8970.597	1.88774	-0.38227	1.51124	-1.09049
8974.607	1.90763	-0.37436	1.55551	-1.12459
8978.595	1.86672	-0.36297	1.59832	-1.12620
8982.597	1.85462	-0.35885	1.61463	-1.16217
8986.597	1.85658	-0.35689	1.66534	-1.16120
8990.594	1.85341	-0.32483	1.70988	-1.12996
8994.592	1.86794	-0.31005	1.72475	-1.10140
8998.597	1.89560	-0.36590	1.75478	-1.13388
9002.594	1.93668	-0.37878	1.87530	-1.11894
9006.593	1.96164	-0.42355	1.89042	-1.09480
9010.661	1.99434	-0.43081	1.93385	-1.06704
9014.609	1.99959	-0.42071	1.91320	-1.05632
9018.595	2.01511	-0.42693	1.95867	-1.02487
9022.593	2.00854	-0.43275	2.00529	-1.02226
9026.592	1.97580	-0.41165	2.01528	-0.99325
9030.617	1.91665	-0.41362	2.02163	-0.95924
9034.593	1.93246	-0.38042	1.99867	-0.94900
9038.598	1.92126	-0.30125	2.08577	-0.89534
9042.592	1.93212	-0.13565	2.19137	-0.83833
9046.591	2.08756	-0.12242	2.20508	-0.77164
9050.596	2.07707	-0.00767	2.21531	-0.71697
9054.596	2.08067	0.03261	2.24262	-0.68605
9058.596	2.03759	0.04584	2.21975	-0.78124
9062.589	1.99213	0.12464	2.18255	-0.82089
9066.591	1.98705	0.14160	2.13871	-0.77168
9070.594	2.02398	0.16293	2.03992	-0.81642
9074.592	2.02371	0.23065	1.98110	-0.80987
9078.601	2.09933	0.08763	1.92448	-0.88103
9082.594	2.10815	0.03295	1.83957	-0.94759
9086.595	2.15190	0.02376	1.83432	-1.07139
9090.590	2.17918	0.03459	1.83603	-1.14714
9094.591	2.08059	-0.09292	1.80234	-1.17350
9098.600	2.00408	-0.18439	1.77479	-1.18650
9102.597	1.87770	-0.08859	1.80620	-1.11528
9106.590	1.98851	0.02223	1.80665	-1.06836
9110.596	1.97237	-0.05990	1.90163	-1.04295
9114.595	1.99917	-0.00765	1.90658	-1.05603
9118.595	2.04926	-0.07236	1.97912	-1.11805
9122.591	1.93150	0.01073	2.00212	-1.14715
9126.591	1.96707	-0.01771	2.00961	-1.12448
9130.595	1.94692	-0.10381	2.04004	-1.13511
9134.591	1.89803	-0.12358	2.05814	-1.08803
9138.593	1.89166	-0.15135	2.01028	-1.08054
9142.594	1.92862	-0.13508	2.08059	-1.17991
9146.467	1.98727	-0.16274	2.03318	-1.32828
9150.466	1.96816	-0.20796	2.10743	-1.46385
9154.466	1.93395	-0.31001	2.21905	-1.37639
9158.464	1.94174	-0.38941	2.16860	-1.33678
9162.463	1.81818	-0.42885	2.05928	-1.32064
9166.470	1.69639	-0.53791	2.04728	-1.33768
9170.472	1.80705	-0.36117	2.02279	-1.21612
9174.469	1.83231	-0.44710	2.04565	-1.10716
9178.466	1.87369	-0.51650	2.16040	-1.00609
9182.466	1.86092	-0.51121	2.14679	-0.99674
9186.484	1.80992	-0.52007	2.06520	-1.00975
9190.468	1.67501	-0.58761	2.08637	-1.13476
9194.467	1.60890	-0.65792	2.05593	-1.01674
9198.470	1.72096	-0.53142	2.01437	-0.87038
9202.466	1.84252	-0.48305	2.07150	-0.81372
9206.465	1.82381	-0.39209	2.09779	-0.75496
9210.470	1.79943	-0.32737	2.06168	-0.74028
9214.466	1.84952	-0.35051	2.03878	-0.91767
9218.469	1.80660	-0.42691	1.97711	-0.89188
9222.488	1.75362	-0.32678	1.84686	-0.84378
9226.468	1.63928	-0.25043	1.96682	-0.60668
9230.469	1.60962	-0.22889	2.36534	-0.78519
9234.467	1.78704	-0.25599	2.31359	-0.86877
9238.465	1.83057	-0.21203	2.17708	-0.86366
9242.469	1.84981	-0.17718	2.01451	-0.86326
9246.465	1.81416	-0.11415	1.88256	-0.85965
9250.465	1.80053	-0.08333	1.72284	-0.87244
9254.471	1.78332	-0.05767	1.53156	-0.87121
9258.468	1.73519	-0.01381	1.81324	-0.69532
9262.463	1.72562	-0.00822	2.34418	-0.64901
9266.462	1.74454	-0.10747	2.54551	-0.67897
9270.472	1.73614	-0.21221	2.63321	-0.80754
9274.463	1.79249	-0.42282	2.40216	-0.82491
9278.461	1.78766	-0.22428	2.15799	-0.78142
9282.463	1.79646	-0.23145	2.04562	-0.80668
9286.466	1.87113	-0.05665	2.01888	-0.84357
9290.467	1.86372	-0.06929	1.92746	-0.93573
9294.467	1.89139	-0.13307	2.07640	-0.88939
9298.462	1.86536	-0.04875	2.04902	-0.88861
9302.487	1.92054	-0.03723	2.01850	-0.91135
9306.470	1.89250	-0.09755	1.97525	-0.96413
9310.469	1.94860	0.00350	1.99015	-0.96164
9314.465	1.96826	0.03705	1.95884	-0.87374
9318.463	1.92887	0.08417	1.96774	-0.86559
9322.463	1.88668	0.09462	1.99131	-0.83117
9326.464	1.76341	0.09890	2.05070	-0.79211
9330.466	1.74352	0.06927	2.09011	-0.76261
9334.462	1.61456	0.06438	2.08662	-0.66397
9338.466	1.64486	0.10219	2.13462	-0.62812
9342.465	1.64367	0.05042	2.18473	-0.58974
9346.463	1.58897	-0.09993	2.24012	-0.60010
9350.462	1.56141	-0.11488	2.29547	-0.54409
9354.470	1.57996	-0.20518	2.33519	-0.55093
9358.462	1.56848	-0.28941	2.35021	-0.60782
9362.463	1.61369	-0.40825	2.37587	-0.63092
9366.463	1.64293	-0.43475	2.36849	-0.72970
9370.462	1.70541	-0.46123	2.35766	-0.76213
9374.468	1.76304	-0.49736	2.31933	-0.79291
9378.464	1.78000	-0.55189	2.30013	-0.85463
9382.462	1.78012	-0.55494	2.22235	-0.83397
9386.462	1.75260	-0.52262	2.17765	-0.89656
9390.465	1.74796	-0.45663	2.13130	-0.85954
9394.475	1.74997	-0.37489	2.08696	-0.87136
9398.467	1.75592	-0.40201	1.99969	-0.89559
9402.462	1.78523	-0.33115	1.93527	-0.92738
9406.461	1.79210	-0.19224	1.89310	-1.03787
9410.459	1.80871	-0.08849	1.85465	-1.04126
9414.460	1.83055	-0.02126	1.82941	-1.01044
9418.461	1.82341	0.00705	1.81463	-1.05052
9422.465	1.79715	0.06107	1.78734	-1.07053
9426.459	1.83263	0.11807	1.79373	-1.10429
9430.461	1.85318	0.18816	1.78694	-1.13317
9434.466	1.86789	0.22424	1.78116	-1.16401
9438.468	1.88197	0.18542	1.78054	-1.20785
9442.464	1.88090	0.20333	1.79651	-1.23572
9446.500	1.90021	0.17290	1.80546	-1.25684
9450.467	1.85113	0.20996	1.79857	-1.22998
9454.463	1.81322	0.16745	1.81044	-1.23569
9458.459	1.80293	0.09249	1.79210	-1.23451
9462.459	1.77846	0.07464	1.77533	-1.22320
9466.465	1.74965	0.03524	1.71347	-1.19131
9470.462	1.71094	-0.03939	1.60717	-1.15495
9474.461	1.66671	-0.16624	1.58063	-1.14608
9478.465	1.66177	-0.23641	1.47796	-1.15030
9482.470	1.61632	-0.34561	1.38245	-1.12778
9486.461	1.59358	-0.38136	1.40214	-1.09710
9490.458	1.54388	-0.49391	1.34842	-1.04922
9494.460	1.54358	-0.61698	1.34356	-0.97097
9498.459	1.50085	-0.65246	1.37367	-0.88863
9502.462	1.46859	-0.65336	1.38061	-0.80237
9506.462	1.39683	-0.70485	1.36223	-0.72535
9510.459	1.38932	-0.78021	1.43860	-0.52404
9514.460	1.35040	-0.78668	1.43669	-0.57603
9518.466	1.33277	-0.75479	1.42303	-0.58517
9522.458	1.35420	-0.79418	1.53639	-0.77127
9526.458	1.39644	-0.71647	1.60394	-1.32021
9530.457	1.40182	-0.74658	1.65721	-1.79039
9534.479	1.41931	-0.66751	1.74065	-1.84019
9538.466	1.40145	-0.54027	1.79936	-1.57533
9542.461	1.39969	-0.34937	1.88261	-1.64844
9546.463	1.35065	-0.38781	1.90113	-1.29011
9550.459	1.36342	-0.32657	1.95344	-1.26671
9554.456	1.40800	-0.41788	1.99149	-1.36262
9558.456	1.48414	-0.34491	2.04044	-1.26136
9562.462	1.51573	-0.27635	2.07244	-1.22624
9566.459	1.50125	-0.22903	2.09063	-1.10693
9570.458	1.67062	-0.25132	2.11864	-1.08303
9574.462	1.77221	-0.15069	2.15757	-0.96308
9578.463	1.77571	-0.10598	2.18171	-0.84837
9582.466	1.85294	-0.12532	2.23045	-0.79385
9586.463	1.80295	-0.15712	2.21380	-0.77628
9590.458	1.92818	-0.17484	2.24440	-0.71311
9594.456	1.94925	-0.13624	2.28680	-0.68844
9598.457	1.98531	-0.09417	2.32047	-0.65096
9602.463	2.01238	-0.05170	2.31631	-0.62335
9606.458	2.00348	-0.06380	2.35169	-0.61673
9610.466	1.96707	-0.06099	2.34480	-0.64097
9614.461	1.92894	-0.03201	2.35781	-0.62900
