time (ms)	lx (deg)	ly (deg)	rx (deg)	ry (deg)
0.000	3.55852	-0.88915	3.77031	-1.08033
3.994	3.57590	-0.81792	3.63446	-1.05362
7.991	3.61147	-0.89252	3.57607	-0.96528
11.995	3.57614	-0.84693	3.53209	-1.00128
15.996	3.59664	-0.86571	3.64316	-0.97991
19.992	3.56897	-0.88096	3.64424	-0.92356
23.988	3.51584	-0.83385	3.66869	-0.90112
28.000	3.51421	-0.82735	3.59051	-0.85265
31.991	3.45771	-0.72379	3.47732	-0.82307
35.997	3.38780	-0.70197	3.41041	-0.91640
39.988	2.23994	-0.58443	2.54596	-0.76887
43.993	0.62814	-0.50981	3.46758	-1.05468
47.994	-0.88542	0.20210	-0.36129	-0.46506
51.992	-0.97149	0.09980	-0.63687	-0.08806
55.992	-0.58848	0.13704	-0.34685	0.06371
59.991	-0.04770	0.01414	0.32821	0.00999
63.997	0.03710	-0.07900	0.19616	0.23582
68.002	0.20961	-0.03235	0.46331	0.13199
71.993	0.03199	-0.03707	0.56498	0.11897
76.009	-0.02278	0.10799	0.54535	0.35746
79.995	0.19745	0.10576	0.49175	0.31222
83.989	0.12367	0.06784	0.57285	0.28910
87.988	-0.01730	0.04359	0.54205	0.16330
91.988	0.08339	0.08282	0.56064	0.20865
95.992	0.07468	0.07646	0.56515	0.31139
99.989	0.19323	0.15762	0.63166	0.21570
103.986	0.20899	0.15180	0.67397	0.09440
107.998	0.15933	0.10270	0.67938	0.07350
111.865	0.09629	0.04058	0.69789	0.05735
115.869	0.40772	0.15294	0.61009	0.07780
119.867	0.26187	0.17856	0.57570	0.00273
123.866	0.24855	0.08846	0.59138	0.10424
127.870	0.20025	0.18560	0.56818	0.08985
132.044	0.29783	0.28509	0.58642	0.04381
135.870	0.31337	0.28715	0.62317	0.14002
139.877	0.25160	0.29237	0.60111	0.07822
143.865	0.19660	0.13433	0.63176	0.03034
147.865	0.27334	0.21869	0.57962	-0.00298
151.866	0.29612	0.23465	0.52935	-0.10993
155.873	0.34774	0.36614	0.49572	-0.08354
159.861	0.25237	0.36513	0.50044	-0.02254
163.863	0.20005	0.23611	0.52577	0.14198
167.866	0.20055	0.22841	0.47783	0.24928
171.865	0.25381	0.32206	0.41274	0.06868
175.864	0.24281	0.18500	0.38941	0.03039
179.863	0.30079	0.34107	0.36271	0.07884
183.863	0.26336	0.32840	0.30828	0.17538
187.862	0.30548	0.26841	0.26470	0.26598
191.864	0.35829	0.31746	0.22760	0.22670
195.869	0.33516	0.18430	0.24249	0.24936
199.870	0.30836	0.21710	0.26150	0.28236
203.868	0.21892	0.17096	0.25525	0.39387
207.866	0.23981	0.14621	0.26408	0.34139
211.864	0.24408	0.16877	0.28523	0.25060
215.862	0.14533	0.11105	0.28237	0.27192
219.868	0.10359	0.19797	0.31483	0.25375
223.864	0.05768	0.09172	0.31014	0.29682
227.868	-0.00534	0.02691	0.30292	0.26084
231.882	0.02122	0.02743	0.30257	0.13051
235.868	0.02715	0.01590	0.36414	0.22503
239.872	0.05246	-0.00239	0.39792	0.19108
243.863	0.04408	-0.03469	0.43713	0.23012
247.868	0.09217	-0.07932	0.46602	0.13388
251.865	0.16198	-0.10735	0.50654	0.11445
255.863	0.13962	-0.12899	0.56506	0.10767
259.862	0.24453	-0.12944	0.59181	0.10712
263.874	0.21343	-0.17764	0.59012	0.08349
267.866	0.28528	-0.15670	0.59133	0.04689
271.869	0.28170	-0.08747	0.60789	0.07964
275.893	0.28036	0.00281	0.64533	0.12121
279.870	0.33419	-0.07564	0.59883	0.11661
283.863	0.35618	-0.03688	0.60315	0.08615
287.861	0.32034	-0.06771	0.59347	0.05655
291.884	0.26354	-0.02609	0.54955	0.05049
295.865	0.30806	-0.12484	0.51763	0.06789
299.863	0.35968	-0.16785	0.59975	0.06080
303.859	0.37936	-0.23221	0.57724	0.06595
307.857	0.37266	-0.18877	0.53843	0.08505
311.865	0.35295	-0.15632	0.59007	0.05581
315.860	0.31131	-0.09224	0.63151	0.03362
319.859	0.40690	-0.16887	0.70620	-0.00549
323.866	0.44443	-0.21906	0.74034	-0.02800
327.865	0.39283	-0.24607	0.81181	0.00164
331.860	0.46914	-0.31535	0.82183	-0.01493
335.862	0.48952	-0.36698	0.82300	-0.10100
339.864	0.49130	-0.36810	0.90155	-0.20543
343.857	0.47329	-0.37160	0.80918	-0.27142
347.866	0.44646	-0.34072	0.71317	-0.31203
351.862	0.41812	-0.33538	0.69052	-0.30368
355.859	0.39576	-0.34609	0.60049	-0.37674
359.867	0.40819	-0.41867	0.63883	-0.29017
363.869	0.31478	-0.41059	0.66149	-0.34831
367.862	0.37928	-0.41765	0.78015	-0.37762
371.859	0.36737	-0.50364	0.78501	-0.42972
375.865	0.28101	-0.48491	0.72072	-0.40947
379.862	0.24542	-0.50084	0.78885	-0.39459
383.861	0.26026	-0.45239	0.65228	-0.33656
387.859	0.24708	-0.42724	0.60702	-0.28920
391.866	0.21897	-0.39959	0.67414	-0.26552
395.877	0.23964	-0.54082	0.62099	-0.23603
399.864	0.18072	-0.61447	0.58545	-0.14037
403.871	0.31811	-0.52395	0.59928	-0.21247
407.869	0.25778	-0.53066	0.75828	-0.18429
411.859	0.18792	-0.53692	0.74444	-0.17117
415.860	0.19378	-0.44119	0.62104	-0.11495
419.866	0.26321	-0.36515	0.64881	-0.09377
423.863	0.22646	-0.26012	0.63106	-0.04550
427.860	0.29295	-0.20001	0.64759	-0.03349
431.859	0.26875	-0.28655	0.68605	0.00112
435.859	0.26592	-0.18644	0.67355	0.01029
439.858	0.21862	-0.16500	0.69501	0.03566
443.865	0.20363	-0.07768	0.67124	0.01170
447.866	0.19693	-0.08657	0.70481	0.05981
451.863	0.20949	-0.08145	0.63005	0.07111
455.858	0.25748	-0.11803	0.68833	0.10965
459.860	0.25383	-0.22063	0.74258	0.16093
463.866	0.23187	-0.18204	0.67786	0.15776
467.860	0.20961	-0.20920	0.64608	0.17617
471.863	0.26081	-0.19593	0.59928	0.22457
475.861	0.36060	-0.20557	0.64811	0.10901
479.867	0.48423	-0.17190	0.63794	0.05524
483.866	0.42998	-0.22363	0.63895	-0.03173
487.892	0.29813	-0.25363	0.63116	-0.05355
491.865	0.18755	-0.20456	0.69384	-0.17115
495.860	0.20326	-0.24334	0.70002	-0.25898
499.859	0.25346	-0.17782	0.72871	-0.34072
503.860	0.24267	-0.11806	0.70709	-0.29215
507.857	0.31697	-0.07440	0.70005	-0.26529
511.862	0.34826	-0.03881	0.77980	-0.25465
515.852	0.22510	0.02020	0.83404	-0.27525
519.862	0.11664	0.02475	0.81833	-0.13000
523.858	0.09674	0.00221	0.81359	-0.03245
527.861	0.06065	0.02008	0.87138	0.09620
531.861	0.06611	0.02157	0.95073	0.18746
535.865	0.10657	0.03337	0.99300	0.26656
540.032	0.12188	0.08456	1.06066	0.22306
543.866	0.16749	0.06053	1.09490	0.30015
547.861	0.18571	0.06727	1.16376	0.35708
551.857	0.17432	0.08503	1.21983	0.44568
555.857	0.18849	0.12514	1.26507	0.46466
559.860	0.22281	0.12931	1.30754	0.53549
563.861	0.22681	0.13831	1.33892	0.40030
567.854	0.23398	0.19464	1.35640	0.27642
571.867	0.24249	0.27423	1.41194	0.09181
575.865	0.20663	0.30606	1.40685	0.12513
579.861	0.18911	0.31347	1.37838	-0.07530
583.855	0.26339	0.21395	1.29439	-0.14555
587.861	0.25937	0.22836	1.21417	-0.26627
591.858	0.25426	0.28034	1.10710	-0.30812
595.856	0.23554	0.28603	1.00025	-0.26741
599.857	0.20425	0.30124	0.85563	-0.29597
603.857	0.20038	0.27990	0.82776	-0.31980
607.861	0.21601	0.29896	0.76682	-0.31297
611.868	0.23649	0.26946	0.77632	-0.29602
615.857	0.24649	0.20965	0.74551	-0.21346
619.856	0.25694	0.23154	0.70838	-0.19977
623.859	0.27426	0.23497	0.69967	-0.09318
627.860	0.22160	0.30812	0.67699	-0.00549
631.855	0.17975	0.29185	0.64957	0.00211
635.862	0.15625	0.27873	0.67476	0.04311
639.857	0.18099	0.31965	0.74789	0.06013
643.856	0.22016	0.28069	0.79722	0.08122
647.855	0.22497	0.28502	0.76057	0.06694
651.860	0.21157	0.27878	0.90163	0.08932
655.863	0.21837	0.25331	0.92306	0.08549
659.858	0.23624	0.26874	0.92170	0.08612
663.854	0.22361	0.35032	0.83823	0.09822
667.876	0.18772	0.32649	0.80540	0.10831
671.861	0.25661	0.40031	0.95194	0.09051
675.862	0.29518	0.41345	0.92919	0.05819
679.862	0.26178	0.33014	0.91158	0.05946
683.858	0.29759	0.36617	0.89634	0.02768
687.857	0.22740	0.44449	0.92234	0.00639
691.854	0.21023	0.46956	0.95447	0.03138
695.862	0.20117	0.56910	0.93071	0.06356
699.860	0.13980	0.56309	0.88850	0.13089
703.855	0.21217	0.56286	0.84709	0.14312
707.856	0.20251	0.41355	0.89597	0.04808
711.886	0.21271	0.40103	0.89776	0.13104
715.853	0.11337	0.28517	0.84625	-0.09693
719.854	0.10880	0.27610	0.82895	-0.09742
723.859	0.10580	0.34291	0.80774	-0.03807
727.849	0.10860	0.32510	0.72032	-0.12364
731.869	0.16936	0.30405	0.68379	-0.09233
735.861	0.16727	0.33670	0.60039	-0.19674
739.856	0.18559	0.26717	0.55458	-0.31726
743.887	0.25081	0.29053	0.53443	-0.26977
747.858	0.25393	0.34142	0.52069	-0.25556
751.855	0.24398	0.28099	0.45083	-0.28270
755.855	0.25713	0.30149	0.40715	-0.31870
759.857	0.27374	0.24720	0.47435	-0.19966
763.850	0.26048	0.16196	0.63982	-0.12051
767.859	0.24904	0.17874	0.63280	-0.05924
771.853	0.23534	0.15195	0.57265	0.01548
775.853	0.15816	0.04279	0.67891	-0.00015
779.857	0.23537	0.05310	0.68054	0.08595
783.858	0.23673	0.04542	0.74389	0.13077
787.855	0.24971	-0.04050	0.77417	0.17696
791.854	0.23626	-0.04754	0.78404	0.16150
795.855	0.20013	-0.05022	0.91904	0.09747
799.856	0.17864	-0.06789	0.99794	0.01804
803.852	0.18663	-0.03156	0.94773	-0.03168
807.859	0.13528	0.05914	0.87758	-0.07439
811.867	0.21718	0.05922	0.78774	-0.14995
815.850	0.21688	0.07199	0.78992	-0.14662
819.863	0.23343	0.12116	0.75436	-0.12501
823.859	0.16223	0.09015	0.65685	-0.09725
827.859	0.13756	0.11441	0.71082	-0.21411
831.853	0.12627	0.13210	0.59602	-0.13259
835.857	0.09622	0.20043	0.90785	-0.17452
839.853	0.20961	0.24093	0.86131	-0.09546
843.857	0.24820	0.23775	0.79841	-0.03307
847.848	0.21552	0.24014	0.70747	0.02127
851.852	0.28900	0.17342	0.78868	0.04276
855.856	0.31794	0.19755	0.85714	0.14386
859.853	0.33613	0.22503	0.75459	0.15022
863.857	0.40862	0.31990	0.81588	0.18136
867.854	0.42616	0.36785	0.70739	0.17629
871.857	0.46818	0.36054	0.65950	0.12886
875.848	0.48393	0.36387	0.74665	0.10200
879.853	0.46103	0.26839	0.55324	0.06316
883.858	0.39857	0.23539	0.65789	0.11353
887.852	0.30622	0.22513	0.63131	0.06498
891.856	0.32744	0.14166	0.59674	0.02321
895.854	0.30856	0.10948	0.62228	0.04560
899.854	0.33585	0.20672	0.57044	-0.00728
903.858	0.33764	0.11279	0.69196	-0.04920
907.853	0.29136	0.13329	0.74828	-0.08065
911.857	0.26954	0.12268	0.79464	-0.10515
915.852	0.18807	0.14564	0.75806	-0.04679
919.852	0.24011	0.09204	0.75198	0.12580
923.852	0.25428	0.11291	0.83779	0.01195
927.888	0.20854	0.12087	0.89227	0.01270
931.854	0.18881	0.11065	0.81263	0.04239
935.845	0.21395	0.16296	0.74953	0.11795
939.856	0.24448	0.14402	0.71362	0.15346
943.853	0.26190	0.17166	0.62407	0.21110
947.859	0.22338	0.17914	0.62220	0.35450
951.854	0.23458	0.24635	0.64017	0.39082
955.848	0.22112	0.28524	0.55141	0.46418
959.851	0.23661	0.24884	0.55198	0.39515
963.851	0.22008	0.21728	0.63588	0.35204
967.732	0.18122	0.24991	0.63952	0.40670
971.725	0.15858	0.16226	0.62099	0.27494
975.724	0.18998	0.14430	0.64508	0.25665
979.727	0.21008	0.04008	0.69188	0.17758
983.725	0.20487	0.14947	0.55302	0.26567
987.730	0.26019	0.05762	0.53674	0.21712
991.730	0.26443	-0.04851	0.53746	0.12881
995.732	0.21504	-0.06001	0.44301	0.10884
999.727	0.15139	0.06225	0.25905	0.07214
1003.725	0.26800	0.12864	0.33434	0.04778
1007.725	0.30709	0.04813	0.46629	0.05315
1011.721	0.36715	0.06610	0.41569	0.01334
1015.746	0.35000	0.07375	0.35571	0.05377
1019.731	0.36705	0.10297	0.57563	0.06587
1023.724	0.34059	0.13846	0.53245	0.08051
1027.729	0.32084	0.23758	0.52446	0.09087
1031.723	0.25306	0.26454	0.57426	0.07780
1035.734	0.31702	0.21971	0.54826	0.10903
1039.727	0.27165	0.28447	0.55855	0.11298
1043.729	0.29505	0.23226	0.62935	0.11129
1047.724	0.25512	0.18965	0.66665	0.15050
1051.726	0.16958	0.17402	0.58471	0.15950
1055.728	0.13575	0.18808	0.50336	0.17394
1059.721	0.18770	0.13339	0.42839	0.19988
1063.726	0.17204	0.06804	0.31617	0.25880
1067.727	0.14908	0.05929	0.26612	0.26148
1071.720	0.11592	0.03881	0.24363	0.18281
1075.728	0.20824	0.02930	0.32099	0.20378
1079.731	0.17529	0.07755	0.34384	0.18241
1083.728	0.15223	0.08993	0.32627	0.15714
1087.730	0.16501	0.10553	0.30679	0.17749
1091.724	0.17802	0.09547	0.24212	0.12519
1095.719	0.16328	0.11669	0.21904	0.14790
1099.728	0.13928	0.13269	0.29898	0.15043
1103.724	0.08847	0.20356	0.36089	0.11813
1107.725	0.04512	0.21686	0.37335	0.09010
1111.728	0.00251	0.23028	0.40365	0.08868
1115.722	-0.01353	0.22662	0.47450	0.12889
1119.733	-0.06199	0.18368	0.48001	0.11902
1123.720	-0.13220	0.15128	0.44413	0.08926
1127.723	-0.16310	0.12869	0.53312	0.09350
1131.725	-0.19507	0.06523	0.55051	0.05367
1135.762	-0.26987	0.03061	0.57893	0.09499
1139.729	-0.30942	0.02584	0.68168	0.02959
1143.722	-0.32081	-0.00584	0.72047	-0.00179
1147.721	-0.38958	-0.05544	0.76044	-0.00343
1151.722	-0.40174	-0.06709	0.84704	-0.00261
1155.720	-0.41842	-0.06254	0.84808	-0.01886
1159.730	-0.42946	-0.06046	0.80868	0.00157
1163.723	-0.41651	-0.04314	0.74330	0.04304
1167.728	-0.40559	-0.04473	0.78843	0.10473
1171.728	-0.35283	-0.04259	0.73702	0.05665
1175.719	-0.30195	-0.03916	0.70945	0.05819
1179.725	-0.25969	-0.01203	0.62585	0.05712
1183.720	-0.20787	0.00763	0.51443	0.09360
1187.726	-0.09587	0.04361	0.39144	0.09077
1191.722	-0.01161	0.07609	0.35519	0.10382
1195.719	0.00263	0.07743	0.37015	0.09326
1199.727	0.05524	0.08906	0.40494	0.13590
1203.724	0.05703	0.07609	0.43760	0.02661
1207.727	0.12180	0.06488	0.45894	0.00668
1211.723	0.09969	0.04418	0.50954	-0.01811
1215.723	0.10344	0.01928	0.52585	0.00721
1219.724	0.12295	0.01016	0.50165	-0.06540
1223.720	0.14724	0.00964	0.52538	-0.11425
1227.723	0.21127	-0.04711	0.55255	-0.12995
1231.725	0.23601	-0.09028	0.61838	-0.19237
1235.719	0.30414	-0.07151	0.65707	-0.24159
1239.720	0.31084	-0.16741	0.66526	-0.22156
1243.728	0.25517	-0.19626	0.66965	-0.19344
1247.740	0.30883	-0.23313	0.71201	-0.17512
1251.724	0.33285	-0.23318	0.72853	-0.19507
1255.721	0.33404	-0.23713	0.72444	-0.22069
1259.719	0.31950	-0.24675	0.70541	-0.27906
1263.720	0.31193	-0.26640	0.64354	-0.28428
1267.719	0.30203	-0.24001	0.64734	-0.27983
1271.720	0.26862	-0.24401	0.61774	-0.26915
1275.722	0.28999	-0.19745	0.66233	-0.26080
1279.724	0.26560	-0.22302	0.63141	-0.24119
1283.724	0.28337	-0.15779	0.65022	-0.21769
1287.719	0.32655	-0.12064	0.63563	-0.23749
1291.729	0.30575	-0.11883	0.61208	-0.18335
1295.723	0.26614	-0.09378	0.59667	-0.16874
1299.720	0.26666	-0.10514	0.55486	-0.02380
1303.720	0.28128	-0.09485	0.53967	0.02159
1307.724	0.29446	-0.02671	0.56314	0.02808
1311.722	0.25917	-0.02030	0.55704	0.06664
1315.724	0.23051	0.04368	0.57922	0.11616
1319.718	0.18181	0.05397	0.55332	0.07668
1323.726	0.10825	0.02455	0.50590	0.13055
1327.724	0.07284	-0.00075	0.44423	0.06018
1331.719	-0.00052	0.00808	0.42931	0.09818
1335.725	-0.01705	0.02579	0.41537	0.08729
1339.720	-0.00489	0.04033	0.35469	0.10285
1343.724	-0.00536	0.07840	0.35303	0.07678
1347.745	0.00772	0.09684	0.28510	0.01163
1351.720	-0.02727	0.05526	0.25272	-0.00375
1355.722	-0.04388	0.00897	0.29915	0.01769
1359.718	-0.01186	0.01928	0.31801	-0.05934
1363.724	0.20472	-0.00487	0.29091	-0.05996
1367.723	0.24681	0.00147	0.36598	-0.15712
1371.719	0.17735	-0.00554	0.41355	-0.10874
1375.714	0.11984	-0.05929	0.41976	-0.10166
1379.717	0.17462	-0.10961	0.43735	-0.08424
1383.720	0.18087	-0.10034	0.39090	-0.11525
1387.735	0.24224	-0.11990	0.40497	-0.11159
1391.723	0.20790	-0.33600	0.77546	-0.22290
1395.719	0.45368	-0.63137	1.62165	-1.52755
1399.719	0.97933	-2.17622	2.11891	-2.05678
1403.717	1.52027	-2.96642	2.31842	-2.76210
1407.728	1.91700	-3.60205	3.07558	-3.26839
1411.723	1.92495	-3.97570	3.19316	-3.68032
1415.729	2.12320	-4.25422	2.92072	-3.91812
1419.716	2.03618	-4.26606	3.01814	-4.16292
1423.716	2.00274	-4.15478	2.86465	-4.11483
1427.729	2.25531	-4.01173	3.08842	-3.98304
1431.719	2.28103	-3.80868	2.91237	-4.02905
1435.719	2.30350	-3.82659	2.99604	-4.13533
1439.712	2.39445	-3.66504	3.06511	-4.08910
1443.721	2.52111	-3.75900	3.07637	-4.14751
1447.720	2.59150	-3.82377	3.18722	-4.13631
1451.722	2.63467	-3.89901	3.20187	-4.18853
1455.717	2.64218	-3.85560	3.03870	-4.20122
1459.722	2.68056	-3.86699	3.07872	-4.20662
1463.718	2.74526	-3.82797	3.10054	-4.21643
1467.721	2.74457	-3.81084	3.08956	-4.15311
1471.713	2.73937	-3.77046	3.13368	-4.19122
1475.722	2.75180	-3.82152	3.12304	-4.27590
1479.717	2.78077	-3.91979	3.13687	-4.22507
1483.716	2.77317	-3.95850	3.13546	-4.27240
1487.722	2.76277	-4.05409	3.13684	-4.18242
1491.897	2.73167	-4.09109	3.15142	-4.20122
1495.732	2.73808	-4.13492	3.14842	-4.17635
1499.725	2.73974	-4.05338	3.09406	-4.17857
1503.714	2.73031	-4.04887	3.15887	-4.15968
1507.721	2.72818	-4.02677	3.09354	-4.04949
1511.719	2.75108	-4.11066	3.11814	-4.08337
1515.717	2.75896	-4.11740	3.11787	-4.03779
1519.713	2.78005	-4.19137	3.06798	-4.08519
1523.721	2.76690	-4.03469	3.10651	-4.00013
1527.716	2.75388	-4.05531	3.09003	-4.00753
1531.720	2.75948	-3.99295	3.23606	-4.12893
1535.720	2.76893	-3.87785	3.25075	-4.08477
1539.722	2.76683	-3.88364	3.18554	-4.09846
1543.728	2.80360	-3.87608	3.16055	-4.07930
1547.719	2.78872	-3.87724	3.11457	-4.03450
1551.720	2.77275	-3.89446	3.15533	-4.13471
1555.749	2.81702	-3.86371	3.11678	-4.20654
1559.719	2.71840	-3.86435	3.11247	-4.16043
1563.718	2.71822	-3.85733	3.17020	-4.02826
1567.714	2.80550	-3.87803	3.13113	-4.13636
1571.710	2.77054	-3.90038	3.22141	-4.24414
1575.724	2.77443	-3.92057	3.19900	-4.18254
1579.717	2.72677	-3.92646	3.13991	-4.25950
1583.715	2.74821	-3.87033	3.19608	-4.24967
1587.713	2.65991	-3.86836	3.17920	-4.28885
1591.718	2.77163	-3.91302	3.23034	-4.32929
1595.718	2.81434	-3.93976	3.23836	-4.27775
1599.714	2.82048	-3.91454	3.22876	-4.26227
1603.715	2.81167	-3.92813	3.23890	-4.31616
1607.715	2.84395	-3.93015	3.18131	-4.27924
1611.710	2.87913	-3.93047	3.18398	-4.19948
1615.723	2.83006	-3.97577	3.18445	-4.26147
1619.733	2.89594	-3.96156	3.16359	-4.28062
1623.714	2.94668	-4.07011	3.18225	-4.24176
1627.719	3.00759	-4.02957	3.21879	-4.31175
1631.717	3.04086	-4.09623	3.17302	-4.29221
1635.714	3.12207	-4.11401	3.22238	-4.27685
1639.714	3.13482	-4.12877	3.15797	-4.35957
1643.719	3.15251	-4.14013	3.17821	-4.38126
1647.717	3.17609	-4.00241	3.20469	-4.33853
1651.716	3.22250	-4.02798	3.22839	-4.36233
1655.711	3.22077	-3.91829	3.22359	-4.36590
1659.723	3.27687	-2.98239	3.13976	-4.08138
1663.716	3.27724	-2.04920	3.19984	-2.32968
1667.731	3.27957	-0.88172	3.17339	-1.72727
1671.722	3.27992	-0.06274	3.17341	0.05302
1675.715	3.31306	0.07489	3.20436	-0.11380
1679.715	3.26980	0.34064	3.23207	-0.22051
1683.709	3.20521	0.29254	3.21189	-0.16528
1687.713	3.23598	0.27003	3.24281	-0.48275
1691.712	3.15738	0.21554	3.28115	-0.40792
1695.715	3.15476	0.12562	3.32293	-0.58789
1699.723	3.17062	0.22714	3.31796	-0.47193
1703.711	3.12108	0.24028	3.25387	-0.52023
1707.717	3.10079	0.22120	3.41256	-0.53153
1711.715	3.07568	0.25342	3.36780	-0.38271
1715.713	3.04722	0.26270	3.37848	-0.41227
1719.717	3.03608	0.28286	3.26527	-0.48887
1723.713	3.09718	0.23443	3.19400	-0.56112
1727.714	3.10443	0.19011	3.28961	-0.58054
1731.730	3.07241	0.19513	3.22789	-0.48135
1735.717	3.15176	0.20355	3.23917	-0.37492
1739.715	3.19731	0.29073	3.18366	-0.39692
1743.723	3.31531	0.38101	3.22559	-0.41345
1747.717	3.29978	0.40910	3.17950	-0.36871
1751.713	3.10537	0.29703	3.19177	-0.31986
1755.713	3.33777	0.28503	3.20523	-0.25584
1759.712	3.26755	0.16198	3.20907	-0.31027
1763.710	3.26453	0.09226	3.24865	-0.37040
1767.716	3.06632	0.19451	3.30584	-0.26862
1771.714	3.36864	0.44194	3.29730	-0.26825
1775.707	3.14605	0.32525	3.32756	-0.33613
1779.736	3.26003	0.22348	3.30977	-0.34314
1783.718	3.36574	0.11567	3.32887	-0.27675
1787.715	3.12987	0.04595	3.30000	-0.33230
1791.707	3.24518	0.21222	3.27415	-0.28971
1795.709	3.28894	0.03426	3.26161	-0.31683
1799.712	3.28298	-0.00769	3.27705	-0.29830
1803.713	3.20177	0.23706	3.25528	-0.34333
1807.711	3.13467	0.09436	3.28484	-0.24704
1811.712	3.28276	0.10777	3.23492	-0.05143
1815.717	3.33018	0.00459	3.22354	-0.27335
1819.711	3.31210	0.14361	3.21913	-0.26221
1823.590	3.27257	0.16076	3.15557	-0.13185
1827.584	3.29065	0.33558	3.05714	-0.21960
1831.590	3.34415	0.12902	3.05333	-0.17315
1835.591	3.25290	0.02660	3.09785	-0.20083
1839.590	3.25248	0.03019	3.10045	-0.23458
1843.581	3.26250	0.22462	3.08637	-0.20488
1847.591	3.21352	0.01955	3.02178	-0.22169
1851.587	3.24565	0.10278	3.02603	-0.10802
1855.592	3.22834	-0.04518	3.02046	-0.25177
1859.590	3.28271	0.08504	2.98297	-0.28443
1863.585	3.24892	0.18140	2.94906	-0.34837
1867.589	3.23972	-0.02464	2.96037	-0.36784
1871.596	3.26975	-0.11065	2.97148	-0.39925
1875.585	3.32600	-0.08509	2.99485	-0.33907
1879.588	3.48758	-0.04851	3.64091	-0.56803
1883.586	3.82133	-1.38494	4.44331	-0.81084
1887.585	4.32720	-2.52865	5.14446	-2.30381
1891.589	5.38440	-3.37548	5.95425	-3.44417
1895.587	6.02040	-4.34184	6.60715	-4.38153
1899.585	6.15973	-4.96109	6.74036	-5.42754
1903.587	6.46622	-5.40224	7.06359	-6.02054
1907.588	6.57411	-6.28746	7.41092	-6.57114
1911.581	6.71451	-5.78023	7.12867	-6.63866
1915.589	6.68756	-6.21874	6.83085	-6.59039
1919.585	6.76758	-5.92595	6.84822	-6.61471
1923.580	7.01516	-5.67820	6.61555	-6.48528
1927.583	7.00851	-5.83974	6.76425	-6.39743
1931.588	6.97793	-5.94914	6.95318	-6.45676
1935.588	6.94927	-5.92231	7.00184	-6.43749
1939.581	7.11711	-5.92790	7.16385	-6.50688
1943.590	7.14040	-5.98145	7.32082	-6.52816
1947.583	7.15882	-6.06685	7.32334	-6.55459
1951.587	7.22991	-6.00381	7.17925	-6.56743
1955.589	7.31464	-6.12021	7.19241	-6.55293
1959.590	7.31526	-6.16966	7.31320	-6.55715
1963.585	7.34934	-6.18293	7.31289	-6.50115
1967.585	7.25631	-6.28157	7.28390	-6.49315
1971.583	7.19498	-6.28958	7.29934	-6.51322
1975.589	7.13766	-6.34215	7.36037	-6.55111
1979.586	7.24971	-6.27689	7.36042	-6.53119
1983.582	7.18907	-6.37147	7.49676	-6.54392
1987.589	7.20008	-6.34090	7.34389	-6.59837
1991.585	7.12398	-6.25259	7.27211	-6.56281
1995.618	7.14658	-6.39738	7.26512	-6.55882
1999.601	7.15315	-6.34608	7.30549	-6.61997
2003.582	7.14389	-6.25669	7.27191	-6.54868
2007.581	7.20519	-6.30157	7.34536	-6.61213
2011.582	7.19989	-6.24496	7.40797	-6.62553
2015.587	7.29623	-6.24585	7.36830	-6.57687
2019.582	7.29953	-6.31487	7.42651	-6.60541
2023.586	7.18855	-6.24468	7.41458	-6.66720
2027.579	7.30886	-6.31367	7.39132	-6.54735
2031.587	7.26415	-6.42947	7.35895	-6.69239
2035.582	7.27494	-6.31336	7.39444	-6.69854
2039.591	7.30913	-6.36138	7.36032	-6.65245
2043.586	7.32373	-6.27956	7.39022	-6.59282
2047.583	7.30078	-6.28008	7.33523	-6.53674
2051.582	7.26930	-6.20622	7.28849	-6.47800
2055.580	7.37133	-6.25433	7.24698	-6.47886
2059.585	7.31963	-6.28510	7.27868	-6.50439
2063.587	7.27101	-6.16851	7.17338	-6.42060
2067.582	7.28114	-6.25334	7.13197	-6.36490
2071.586	7.31833	-6.18718	7.16600	-6.40904
2075.580	7.26867	-6.19308	7.22583	-6.37427
2079.591	7.27965	-6.12427	7.13876	-6.38100
2083.581	7.25729	-6.00601	7.20008	-6.28654
2087.581	7.26962	-6.06747	6.99722	-6.32287
2091.607	7.32795	-6.13121	7.19820	-6.27706
2095.584	7.26723	-6.06697	6.96653	-6.26362
2099.586	7.24532	-6.02638	6.99414	-6.24844
2103.583	7.26405	-6.01394	7.00287	-6.24157
2107.582	7.30466	-6.03149	7.15660	-6.21697
2111.588	7.32920	-5.99618	7.10318	-6.23465
2115.582	7.31652	-6.04391	6.78769	-6.25423
2119.580	7.11987	-6.03196	6.43665	-6.26484
2123.584	6.05432	-6.68982	6.21620	-6.34686
2127.581	4.96637	-7.23407	5.49382	-6.86165
2131.581	4.47837	-8.70639	4.98086	-7.66153
2135.590	4.13253	-8.69680	4.75004	-7.99706
2139.587	3.77496	-9.27870	4.29907	-8.53897
2143.580	3.42292	-9.62596	4.03280	-8.54776
2147.580	2.96569	-9.58180	3.98906	-8.66805
2151.576	3.65072	-9.73225	3.97160	-8.49032
2155.580	3.55552	-9.63700	3.67079	-8.50165
2159.583	3.04912	-9.74241	3.61703	-8.48381
2163.586	3.25154	-9.88626	3.61725	-8.59171
2167.580	3.33789	-9.66098	3.54920	-8.60339
2171.583	3.47411	-9.72042	3.40400	-8.64946
2175.577	3.29434	-9.78754	3.48373	-8.67059
2179.586	2.92238	-9.94817	3.34123	-8.58931
2183.581	3.10280	-10.04053	3.34999	-8.61356
2187.606	3.31004	-9.83132	3.26742	-8.61073
2191.577	3.42332	-9.98435	3.23232	-8.59931
2195.581	3.21555	-9.83912	3.21374	-8.60451
2199.579	2.97388	-9.86269	3.23900	-8.56597
2203.579	3.11866	-9.95329	3.27806	-8.47873
2207.585	3.22445	-9.81507	3.27507	-8.49254
2211.578	3.10611	-9.77911	3.21038	-8.44485
2215.579	3.05457	-9.77285	3.26898	-8.49555
2219.578	3.17282	-9.82666	3.18989	-8.45317
2223.585	3.16636	-9.74128	3.14726	-8.46864
2227.579	3.30789	-9.61864	3.08357	-8.47198
2231.583	3.09673	-9.60631	3.11715	-8.42651
2235.584	3.31544	-9.57335	3.09552	-8.45509
2239.583	3.40034	-9.53277	3.05264	-8.45530
2243.583	3.29238	-9.51344	3.06127	-8.45645
2247.579	3.39589	-9.46974	2.99027	-8.42648
2251.590	3.25909	-9.49044	2.93386	-8.45210
2255.578	3.41508	-9.56937	2.98302	-8.47638
2259.580	3.36364	-9.50659	2.92562	-8.47084
2263.577	3.30547	-9.49932	2.91141	-8.45543
2267.583	3.15117	-9.52277	2.88903	-8.47684
2271.581	3.44782	-9.61754	2.92733	-8.48367
2275.579	3.44906	-9.50011	2.87767	-8.47267
2279.577	3.46563	-9.51276	2.81672	-8.46180
2283.578	3.28803	-9.43762	2.80857	-8.50532
2287.583	3.38679	-9.52203	2.79369	-8.51224
2291.578	3.31323	-9.50581	2.92745	-8.56425
2295.581	3.51530	-9.40534	2.99136	-8.48032
2299.577	3.44671	-9.29026	2.83707	-8.33953
2303.578	3.52242	-9.44413	2.87606	-8.46720
2307.577	3.40737	-9.28950	2.99566	-8.52063
2311.584	3.67608	-9.19739	3.14009	-8.43803
2315.579	3.51290	-9.25420	3.05890	-8.41947
2319.578	3.47314	-9.29525	3.03088	-8.39591
2323.575	3.41340	-9.20194	2.96740	-8.42704
2327.587	2.40526	-9.22622	2.82343	-8.29511
2331.583	2.09945	-7.68690	2.40751	-8.14877
2335.579	0.87312	-7.31257	0.96055	-7.49195
2339.578	0.22443	-7.03537	-0.26237	-7.12162
2343.575	-1.23233	-6.60335	-0.59052	-6.45778
2347.582	-1.51390	-6.53514	-0.75020	-6.32579
2351.576	-1.50584	-5.95936	-2.71005	-6.01793
2355.580	-1.94062	-5.81533	-2.70941	-5.80573
2359.579	-2.32028	-5.69042	-2.76718	-5.80557
2363.577	-1.93700	-5.83884	-2.69336	-6.13393
2367.578	-1.68689	-5.65284	-2.43605	-5.89170
2371.585	-1.86679	-5.66510	-1.96412	-5.81692
2375.588	-1.82011	-5.61839	-2.40600	-5.72178
2379.581	-2.03933	-5.65545	-2.49629	-5.83098
2383.575	-1.86104	-5.62341	-2.20820	-5.66430
2387.578	-1.79586	-5.56604	-2.41943	-5.69235
2391.577	-1.92349	-5.51850	-2.41848	-5.63638
2395.576	-1.90539	-5.49191	-2.48123	-5.52504
2399.581	-1.93177	-5.58422	-2.38088	-5.64489
2403.577	-1.92114	-5.59062	-2.29661	-5.58918
2407.580	-1.94446	-5.65285	-2.31606	-5.54164
2411.612	-2.09351	-5.66141	-2.38207	-5.51936
2415.589	-2.08790	-5.64854	-2.42180	-5.52671
2419.579	-2.25925	-5.71092	-2.45250	-5.44680
2423.573	-2.16416	-5.74140	-2.48901	-5.52717
2427.580	-2.22874	-5.79651	-2.51542	-5.61054
2431.575	-2.22926	-5.66892	-2.57900	-5.59645
2435.575	-2.19648	-5.66740	-2.68088	-5.72482
2439.574	-2.20362	-5.67617	-2.62920	-5.76037
2443.574	-2.22790	-5.63421	-2.69500	-5.77786
2447.574	-2.22364	-5.65475	-2.68210	-5.84690
2451.576	-2.28209	-5.63891	-2.71384	-5.91984
2455.582	-2.29872	-5.57953	-2.64894	-5.93327
2459.578	-2.27198	-5.58775	-2.63366	-5.94201
2463.577	-2.18017	-5.71511	-2.68041	-5.98935
2467.579	-2.18619	-5.55937	-2.69131	-6.04254
2471.577	-2.21155	-5.42748	-2.66979	-5.91711
2475.577	-2.20830	-5.59109	-2.48671	-5.98358
2479.595	-2.16226	-5.65407	-2.62395	-5.96406
2483.580	-2.29017	-5.62526	-2.62172	-5.97662
2487.576	-2.22597	-5.54656	-2.60243	-5.96512
2491.574	-2.19227	-5.79645	-2.65022	-6.00405
2495.582	-2.15078	-5.59153	-2.52560	-5.97606
2499.581	-2.02059	-5.70052	-2.52983	-6.00209
2503.573	-2.04874	-5.63058	-2.55547	-6.05336
2507.579	-2.07405	-5.67626	-2.61127	-6.07158
2511.577	-2.09484	-5.59780	-2.62231	-6.03397
2515.587	-2.12102	-5.64567	-2.66025	-6.09031
2519.580	-2.12397	-5.60405	-2.66607	-6.06547
2523.576	-2.13363	-5.51750	-2.71949	-6.06229
2527.576	-2.21169	-5.62851	-2.71010	-6.02885
2531.572	-2.36482	-5.52497	-2.62160	-6.02648
2535.586	-2.39582	-5.51695	-2.63886	-6.00865
2539.580	-2.38430	-5.46892	-2.67692	-6.02656
2543.595	-2.49352	-5.52122	-2.78149	-6.04739
2547.581	-2.48094	-5.46819	-2.87883	-5.90419
2551.573	-2.38707	-5.49044	-2.76827	-5.84182
2555.579	-2.48961	-5.52667	-2.73553	-5.87855
2559.572	-2.36178	-5.49726	-2.74601	-5.84689
2563.574	-2.39584	-5.47665	-2.60404	-5.90431
2567.577	-2.28846	-5.44575	-2.58308	-5.94129
2571.574	-2.29488	-5.42788	-2.51021	-5.85113
2575.574	-1.60080	-5.35465	-0.85056	-5.35161
2579.853	0.53875	-4.13265	1.09849	-5.37143
2583.574	1.19222	-3.27788	1.36645	-4.10730
2587.578	1.55896	-2.77593	2.02795	-3.22563
2591.574	1.94005	-2.90914	2.15799	-2.86189
2595.569	2.48691	-2.04537	2.42916	-3.20599
2599.579	3.09807	-1.36241	2.86356	-2.83044
2603.572	4.33197	-0.94141	3.45504	-1.72693
2607.574	5.03464	-0.36439	4.34921	-0.00151
2611.574	5.09283	0.35968	4.84541	-0.03523
2615.608	5.27663	0.63975	4.98554	-0.06709
2619.581	5.46118	1.13785	5.03718	0.87758
2623.572	5.44444	1.43002	5.29826	0.30394
2627.571	5.60045	1.51234	5.34427	0.62484
2631.572	5.72406	1.46700	5.56028	1.26057
2635.574	5.45194	1.46395	5.55917	0.47707
2639.570	5.61106	1.72154	5.63228	0.95278
2643.572	5.66641	1.56213	5.39876	0.84490
2647.574	5.68777	1.35703	5.77128	0.66999
2651.571	5.77377	1.71016	5.55209	1.12830
2655.578	5.77873	1.76105	5.68347	0.94975
2659.572	5.82442	1.74374	5.58329	1.16127
2663.582	5.74089	1.83826	5.66769	1.05820
2667.578	5.75330	1.61726	5.57589	1.27302
2671.571	5.68278	1.82468	5.55740	1.29101
2675.448	5.78236	1.80955	5.72183	1.38198
2679.445	5.72809	1.84961	5.69001	1.14371
2683.451	5.72350	1.75038	5.55017	1.24925
2687.446	5.80283	1.90957	5.68428	1.20469
2691.451	5.85190	2.04268	5.54083	1.26402
2695.450	5.69126	1.82201	5.65909	1.33858
2699.447	5.72097	1.69535	5.50301	1.33931
2703.446	5.77448	1.88250	5.60042	1.31833
2707.442	5.83601	1.75749	5.60546	1.30660
2711.449	5.79172	1.78726	5.67497	1.35780
2715.446	5.91830	1.94870	5.66386	1.17863
2719.448	5.84827	1.79005	5.67216	1.17891
2723.450	5.79934	1.86412	5.63019	1.22876
2727.445	5.88169	1.89975	5.76669	1.18339
2731.452	5.86288	1.91250	5.69197	1.26488
2735.445	5.69293	1.79422	5.76441	1.19242
2739.445	5.74745	1.73425	5.70777	1.17513
2743.451	5.74849	1.80965	5.73659	1.27012
2747.448	5.67868	1.81855	5.79246	1.17938
2751.454	5.74111	1.73066	5.80084	1.11744
2755.442	5.74632	1.73610	5.81179	1.16288
2759.450	5.84073	1.66794	5.75814	1.21714
2763.447	5.80845	1.70874	5.79288	1.20698
2767.446	5.73087	1.54968	5.89345	1.20452
2771.444	5.72981	1.51452	5.77281	1.12001
2775.444	5.84846	1.50213	5.60893	1.06389
2779.447	5.87960	1.58412	5.78804	1.11420
2783.446	6.04551	1.61955	5.71647	0.95378
2787.443	5.91324	1.45868	5.67701	1.02254
2791.456	5.88483	1.45048	5.67015	0.90918
2795.497	5.88530	1.40512	5.71210	1.09685
2799.453	5.79718	1.48047	5.65961	0.78929
2803.444	5.96151	1.49246	5.64874	0.89411
2807.448	5.90384	1.54547	5.64226	0.87558
2811.441	6.10701	1.64629	5.59423	0.83129
2815.450	6.01486	1.53153	5.57060	0.87717
2819.442	6.17631	1.50157	5.63498	0.88555
2823.445	5.97286	1.45894	5.57817	0.94416
2827.445	5.86727	1.41670	5.64889	1.00353
2831.447	5.85993	1.45943	5.67752	1.04713
2835.453	6.03096	1.54966	5.69890	1.04420
2839.472	6.18993	1.54831	5.72382	1.14838
2843.447	6.15129	1.49110	5.75743	1.09842
2847.446	6.13888	1.45298	5.74040	1.12771
2851.593	6.02786	1.39949	5.75743	1.14913
2855.490	6.04622	1.35447	5.78499	1.25338
2859.442	6.12664	1.35526	5.86199	1.17620
2863.443	6.15102	1.54882	5.83466	1.24206
2867.445	6.15772	1.52369	5.74694	1.23817
2871.446	6.25838	1.42461	5.72269	1.13400
2875.444	6.27015	1.33806	5.71595	1.10987
2879.448	6.27439	1.31267	5.64417	1.17398
2883.442	6.10139	1.33404	5.75025	1.04047
2887.447	6.12082	1.31285	5.70534	1.14177
2891.442	6.08105	1.42655	5.79126	1.19268
2895.443	6.21367	1.37306	5.65936	1.07399
2899.443	6.18846	1.51306	5.69308	1.11718
2903.441	6.11120	1.54493	5.66838	1.15366
2907.447	5.99195	1.35300	5.67089	1.24840
2911.442	5.95810	1.36391	5.69539	1.09031
2915.451	5.97953	1.44506	5.72912	1.06024
2919.450	6.10838	1.49783	5.71726	1.22029
2923.447	5.89230	1.39263	5.71087	1.01991
2927.438	5.91693	1.40099	5.67651	1.19739
2931.441	5.95641	1.53705	5.72288	1.03022
2935.469	6.03353	1.46870	5.65378	1.00658
2939.450	5.89090	1.49193	5.70212	1.03404
2943.440	5.93988	1.47110	5.69566	0.97922
2947.443	6.01979	1.42093	5.68497	1.22721
2951.443	5.95761	1.40175	5.71340	1.03965
2955.443	6.04561	1.45887	5.70775	1.01959
2959.446	5.97273	1.43165	5.65946	1.00250
2963.450	5.93107	1.36350	5.70273	1.12655
2967.442	5.91462	1.43797	5.69863	1.07997
2971.447	5.95307	1.45605	5.76359	1.04955
2975.440	5.98464	1.42544	5.68949	0.93133
2979.447	5.78615	1.41661	5.61185	0.94436
2983.442	5.95952	1.47342	5.68681	1.00744
2987.466	6.01297	1.38775	5.66246	0.82568
2991.440	5.92513	1.31330	5.66474	0.93028
2995.445	5.87653	1.41777	5.63323	0.93594
2999.450	5.92255	1.38331	5.62448	0.96975
3003.442	5.95798	1.41257	5.66983	0.94159
3007.441	5.80965	1.42910	5.72632	0.93651
3011.440	5.93429	1.42965	5.69187	0.91456
3015.441	6.02688	1.48798	5.76291	0.89040
3019.441	6.05403	1.44581	5.73006	0.95271
3023.446	6.00221	1.42107	5.68317	1.02952
3027.441	5.96738	1.43690	5.80197	1.01574
3031.446	6.05827	1.44767	5.72984	1.06859
3035.438	5.97614	1.51405	5.88410	0.91002
3039.447	6.02705	1.58602	5.80673	1.07675
3043.466	5.98827	1.34052	5.86718	0.92547
3047.445	6.05430	1.44585	5.85640	1.01554
3051.447	6.08789	1.61991	5.64712	1.06237
3055.445	6.14930	1.45026	5.79546	1.01901
3059.448	6.01424	1.35003	5.71871	1.11631
3063.443	6.04340	1.50876	5.72052	1.16720
3067.440	6.09832	1.52707	5.74455	1.04135
3071.444	6.08092	1.30512	5.74851	1.08699
3075.439	6.37869	1.62819	5.83982	1.24780
3079.444	7.40182	1.53971	7.89220	1.18331
3083.443	8.98608	1.85420	9.58400	1.48485
3087.443	10.18572	2.37645	11.00238	2.14845
3091.443	12.39459	2.77819	12.91956	2.85577
3095.443	13.39652	3.42300	14.02575	2.88819
3099.436	13.92896	3.89489	14.77472	3.17916
3103.445	15.08523	3.99700	15.21056	3.28342
3107.440	15.34439	4.18681	15.34005	3.38617
3111.438	15.22271	4.38134	14.81275	3.62549
3115.439	14.67999	4.52849	14.88463	3.52838
3119.442	14.56076	4.47221	14.44367	3.69892
3123.446	14.77178	4.42053	14.32470	3.70678
3127.442	14.96281	4.59207	14.76869	3.64740
3131.445	14.75999	4.50486	14.90790	3.71271
3135.439	14.71816	4.56216	15.18224	3.72479
3139.443	14.68361	4.64886	14.75495	3.90189
3143.446	14.92426	4.67237	15.03790	3.79745
3147.439	14.90830	4.62908	14.91235	3.90518
3151.442	14.87821	4.68451	14.97648	3.79450
3155.434	14.87362	4.62727	14.89733	3.87072
3159.443	14.87999	4.64933	14.93958	3.93477
3163.440	14.84902	4.71792	14.93177	3.93587
3167.447	14.97356	4.72040	14.87225	3.81144
3171.449	14.81866	4.71726	14.96893	3.91799
3175.438	14.84195	4.70717	14.93103	3.86801
3179.438	14.82847	4.75861	14.77445	3.95779
3183.438	14.84981	4.70883	14.83497	3.98382
3187.443	14.98810	4.71541	14.81384	4.09906
3191.438	14.92132	4.78426	14.88159	3.98937
3195.467	14.97430	4.79078	14.73699	4.13286
3199.440	14.94111	4.74827	14.81873	4.15033
3203.435	14.96761	4.75193	14.81586	4.11968
3207.442	15.04783	4.72074	14.79574	4.19226
3211.439	14.90222	4.70829	14.82667	4.13804
3215.441	15.05348	4.68246	14.75707	4.12038
3219.436	15.09203	4.71900	14.75946	4.08106
3223.441	15.14315	4.66419	14.79496	4.14698
3227.436	15.09041	4.66327	14.76041	4.14888
3231.438	15.16067	4.73418	14.81303	4.12083
3235.442	15.10619	4.64558	14.80679	4.09229
3239.437	15.11884	4.60734	14.75857	4.10955
3243.440	15.08676	4.68831	14.73397	4.16373
3247.433	15.08652	4.67875	14.84362	4.02688
3251.441	15.10425	4.69657	14.69550	4.08141
3255.441	15.10471	4.74045	14.80584	4.15629
3259.451	15.06558	4.64808	14.75136	4.12596
3263.440	15.00753	4.63990	14.87874	4.12775
3267.431	15.01154	4.71265	14.88500	4.12400
3271.442	14.98681	4.76807	14.68654	4.22524
3275.439	14.94697	4.65490	14.80324	4.20984
3279.438	14.95065	4.65098	14.62352	4.04713
3283.432	14.94314	4.69202	14.72743	3.98547
3287.436	14.97370	4.75575	14.94474	3.99016
3291.463	14.95867	4.68100	14.65191	4.30502
3295.446	15.00318	4.65490	14.61025	4.13677
3299.438	15.03332	4.71458	14.57243	4.01320
3303.436	14.98143	4.79427	14.56397	3.95811
3307.434	14.90141	4.32345	14.50237	3.57023
3311.440	13.39734	2.46154	14.12469	2.10456
3315.438	12.71177	1.33372	13.73275	-0.29295
3319.436	11.17777	-0.93127	12.54921	-1.83888
3323.431	10.54356	-1.82984	11.94246	-2.51611
3327.435	9.89872	-3.71382	10.86289	-3.40701
3331.432	9.36452	-4.30884	10.82244	-4.33087
3335.441	9.27015	-5.53592	10.70955	-5.50289
3339.435	8.87331	-5.61477	9.83573	-6.66582
3343.433	8.72782	-6.81547	10.27585	-6.87402
3347.441	8.46432	-7.08008	9.92540	-6.96312
3351.435	8.32665	-7.18927	9.07494	-6.92175
3355.438	8.29997	-7.30102	8.87798	-6.55790
3359.442	8.51479	-7.22444	9.17217	-6.64333
3363.436	8.45033	-7.09200	8.85577	-6.85908
3367.436	8.32407	-6.71110	8.81697	-6.80864
3371.435	8.27589	-6.96449	8.63934	-6.80800
3375.443	8.10868	-7.02397	8.62071	-6.86825
3379.438	7.94881	-6.92298	8.39763	-6.93022
3383.436	7.89330	-6.93780	8.16369	-6.83963
3387.433	7.89330	-6.95619	8.32254	-6.79545
3391.435	7.90698	-6.93534	8.31005	-6.78187
3395.441	7.98483	-6.92049	8.40108	-6.81424
3399.435	8.08448	-6.86003	8.50913	-6.86521
3403.436	8.04356	-6.86297	8.53343	-6.83772
3407.435	7.88617	-6.86638	8.47180	-6.80925
3411.435	7.92283	-6.85234	8.28481	-6.83419
3415.444	7.85889	-6.85936	8.13843	-6.78025
3419.437	7.91653	-6.84793	7.98960	-6.76137
3423.433	8.01131	-6.84168	8.06730	-6.72563
3427.433	8.13860	-6.82458	8.15416	-6.70784
3431.433	8.05309	-6.77890	8.19871	-6.65860
3435.436	8.03635	-6.79912	8.18186	-6.68549
3439.434	8.02338	-6.75559	8.18961	-6.67107
3443.428	8.02146	-6.81667	8.09250	-6.67678
3447.433	8.01117	-6.82761	8.04747	-6.75401
3451.436	8.07594	-6.78056	8.05049	-6.78744
3455.434	7.98729	-6.76728	8.01920	-6.71620
3459.437	8.02119	-6.77392	8.04633	-6.72374
3463.437	8.13507	-6.73033	8.10958	-6.74279
3467.435	8.05185	-6.68800	8.18385	-6.74890
3471.434	8.09919	-6.69191	8.27482	-6.78029
3475.429	8.14042	-6.73048	8.26702	-6.85001
3479.437	8.19251	-6.67973	8.16671	-6.89360
3483.436	8.22455	-6.64237	8.08774	-6.87605
3487.433	8.20328	-6.67007	7.99109	-6.88223
3491.433	8.20284	-6.61436	8.01856	-6.81795
3495.435	8.13030	-6.63715	7.96356	-6.79329
3499.440	8.19876	-6.67536	8.04329	-6.84202
3503.438	8.22577	-6.74453	8.03565	-6.88149
3507.435	8.20155	-6.74111	8.12116	-6.98077
3511.433	8.28162	-6.71337	8.04309	-6.88750
3515.432	8.19489	-6.80527	7.89245	-6.91628
3519.438	8.28208	-6.81404	7.90762	-6.92997
3523.434	8.16301	-6.86190	7.90905	-6.91081
3527.436	8.10805	-6.90742	7.98250	-6.91412
3531.311	8.17128	-6.85230	8.04246	-6.96161
3535.307	8.22171	-6.88123	8.07063	-7.02914
3539.313	8.22953	-6.73265	8.07085	-7.04736
3543.310	8.14879	-6.78834	8.09681	-7.03273
3547.312	8.11800	-6.74156	8.08856	-6.99984
3551.312	8.09139	-6.74246	8.05845	-7.00407
3555.306	8.07725	-6.72641	8.00805	-7.03370
3559.307	8.08316	-6.68989	7.98836	-7.03062
3563.306	8.07630	-6.70337	8.00696	-7.03564
3567.312	8.12220	-6.73309	7.96164	-7.04690
3571.307	8.12512	-6.66202	7.92106	-7.09379
3575.312	8.24898	-6.73742	7.93834	-7.10455
3579.303	8.27666	-6.77873	7.92736	-7.07786
3583.312	8.16683	-6.85994	7.91441	-6.99803
3587.316	8.38874	-6.85292	8.02173	-6.95493
3591.310	8.24876	-6.87784	8.70915	-7.01928
3595.312	8.82642	-7.16950	10.47144	-7.13456
3599.304	8.98332	-7.31044	10.67428	-7.19180
3603.310	9.45133	-7.78672	11.01928	-7.44891
3607.328	9.92904	-8.55950	11.14765	-8.06557
3611.312	10.05671	-8.75651	11.51573	-8.27180
3615.310	10.80817	-8.11219	11.70556	-7.90593
3619.305	10.32950	-8.28956	11.30505	-8.22919
3623.307	10.69997	-8.31474	11.25230	-8.24749
3627.341	10.62732	-8.25241	11.34332	-8.10681
3631.314	10.59984	-8.58838	11.09038	-8.07579
3635.301	10.61023	-8.57885	11.07193	-8.13395
3639.320	10.57217	-8.56512	11.12147	-8.10463
3643.307	10.64717	-8.45795	11.09795	-8.19246
3647.310	10.73809	-8.62778	11.12044	-8.25473
3651.305	10.67524	-8.64912	11.12355	-8.20924
3655.306	10.65836	-8.53790	11.22463	-8.15856
3659.302	10.64374	-8.46277	10.98181	-8.10360
3663.305	10.65716	-8.59627	11.00190	-8.07917
3667.312	10.63008	-8.79953	11.08837	-8.16812
3671.306	10.64343	-8.61451	11.00783	-8.07143
3675.311	10.63629	-8.60817	11.12197	-8.02511
3679.305	10.58212	-8.65140	11.05493	-8.05299
3683.305	10.58570	-8.78853	11.10658	-8.14860
3687.304	10.78997	-8.55016	11.34509	-8.05112
3691.305	10.63446	-8.54382	11.16609	-8.10187
3695.309	10.69374	-8.76402	11.24523	-8.12068
3699.300	10.70375	-8.73070	11.07281	-8.00942
3703.309	10.80625	-8.47675	11.14541	-8.02746
3707.306	10.88039	-8.58074	11.15248	-8.05818
3711.310	10.76640	-8.59835	11.04530	-8.04613
3715.309	10.73739	-8.55875	11.16043	-8.08468
3719.303	10.81592	-8.67587	11.09544	-8.15402
3723.303	10.84659	-8.58389	11.22432	-8.16958
3727.298	10.79250	-8.54033	11.12562	-8.11039
3731.307	10.74566	-8.52610	11.10450	-8.11346
3735.303	10.71693	-8.48919	11.06076	-8.12362
3739.311	10.63166	-8.49662	11.05648	-8.12060
3743.304	10.60754	-8.47344	11.00510	-8.11091
3747.303	10.54356	-8.59306	10.95638	-8.10819
3751.302	10.50580	-8.63912	11.00054	-8.10286
3755.309	10.59495	-8.52214	10.94265	-8.11162
3759.304	10.43100	-8.51529	11.18172	-8.03814
3763.307	8.91488	-8.36228	10.46594	-8.01314
3767.300	6.95770	-8.37063	9.06097	-7.88247
3771.307	5.87882	-7.38364	6.61717	-7.27638
3775.304	3.34423	-6.51216	4.22162	-6.76718
3779.323	1.73170	-6.22405	3.39465	-6.08580
3783.307	0.17169	-5.78726	1.84428	-5.66163
3787.307	-0.34600	-5.82208	0.07284	-5.42221
3791.305	-2.35910	-5.40092	-1.04496	-5.20803
3795.314	-3.15134	-4.25255	-2.53545	-5.01678
3799.306	-4.86507	-4.12721	-3.91897	-4.35825
3803.306	-5.79440	-3.86884	-4.67813	-4.09568
3807.309	-6.94359	-3.71539	-5.70957	-3.73210
3811.305	-7.66490	-3.62978	-6.87675	-3.42281
3815.304	-8.06545	-3.57093	-7.16432	-3.37820
3819.301	-7.54123	-3.28563	-7.06938	-3.23740
3823.303	-7.34533	-3.26843	-6.73172	-3.18268
3827.305	-7.33586	-3.34042	-6.73466	-3.16342
3831.308	-7.55430	-3.16624	-6.92491	-3.18420
3835.300	-7.62133	-3.24304	-6.93142	-3.07715
3839.313	-7.63111	-2.82272	-6.96785	-3.02438
3843.306	-7.66375	-3.31228	-7.06058	-3.04207
3847.300	-7.58966	-3.10319	-7.12161	-3.03503
3851.336	-7.70173	-2.88017	-7.18811	-2.96971
3855.307	-7.72317	-2.89027	-7.27753	-3.03229
3859.302	-7.69558	-3.04636	-7.23382	-3.00953
3863.304	-7.72178	-3.00544	-7.22512	-3.08186
3867.303	-7.73565	-2.86174	-7.30166	-3.07349
3871.304	-7.77381	-2.92700	-7.39613	-3.08896
3875.307	-7.82708	-2.79464	-7.41170	-3.06394
3879.308	-7.83522	-2.78744	-7.43335	-3.18643
3883.302	-7.81376	-2.97623	-7.45470	-3.12415
3887.300	-7.81408	-2.75226	-7.46529	-3.10324
3891.305	-7.80626	-2.84997	-7.51135	-3.07091
3895.304	-7.82801	-2.80696	-7.42968	-3.22988
3899.300	-7.78738	-2.74669	-7.42915	-3.15148
3903.304	-7.83098	-2.70853	-7.45374	-3.21927
3907.302	-7.81700	-2.71236	-7.38458	-3.14044
3911.302	-7.81359	-2.75612	-7.45833	-3.20951
3915.299	-7.78060	-2.71043	-7.44030	-3.39554
3919.333	-7.63345	-2.67901	-7.37763	-3.31798
3923.311	-7.74167	-2.73883	-7.55593	-3.31118
3927.300	-7.68610	-2.63911	-7.46319	-3.37737
3931.301	-7.66758	-2.67638	-7.46363	-3.42833
3935.302	-7.66624	-2.49005	-7.46485	-3.45263
3939.305	-7.63106	-2.64292	-7.54005	-3.46865
3943.305	-7.64274	-2.61434	-7.50747	-3.48327
3947.301	-7.68003	-2.66884	-7.52093	-3.43490
3951.301	-7.63652	-2.58486	-7.63823	-3.38312
3955.300	-7.61982	-2.65680	-7.61780	-3.44142
3959.305	-7.67024	-2.57522	-7.64103	-3.37122
3963.306	-7.70665	-2.58141	-7.69885	-3.30492
3967.305	-7.68878	-2.59936	-7.63808	-3.37829
3971.299	-7.77066	-2.63954	-7.70331	-3.26846
3975.304	-7.79159	-2.61772	-7.68666	-3.31792
3979.329	-7.77378	-2.67849	-7.73694	-3.31893
3983.299	-7.85721	-2.61736	-7.75619	-3.23597
3987.303	-7.83911	-2.64299	-7.74800	-3.29185
3991.302	-7.85918	-2.58730	-7.78104	-3.34820
3995.304	-7.83865	-2.63437	-7.76072	-3.35312
3999.302	-7.86566	-2.60770	-7.73731	-3.35058
4003.306	-7.94667	-2.57997	-7.82569	-3.35125
4007.301	-7.88816	-2.56459	-7.84153	-3.35466
4011.304	-7.91702	-2.53012	-7.80604	-3.34751
4015.300	-7.88772	-2.50773	-7.84162	-3.39472
4019.301	-7.88446	-2.55442	-7.91171	-3.29784
4023.298	-7.94530	-2.47134	-7.92296	-3.29940
4027.304	-7.89598	-2.46471	-7.76776	-3.38042
4031.300	-7.82136	-2.50329	-7.88960	-3.32900
4035.304	-7.81054	-2.42228	-7.95202	-3.31692
4039.298	-7.84464	-2.50025	-7.95872	-3.31706
4043.306	-7.83683	-2.44720	-7.89890	-3.24922
4047.308	-7.74025	-2.21241	-7.75012	-3.14547
4051.301	-7.43722	-1.82329	-6.41052	-2.74932
4055.299	-6.17808	-0.59603	-5.84588	-0.87395
4059.298	-5.47901	0.17686	-5.72151	-0.01511
4063.299	-4.64759	0.30102	-4.99337	0.15677
4067.336	-4.59531	0.54033	-4.95615	0.19186
4071.301	-3.74839	0.68704	-4.19993	-0.01688
4075.300	-4.19933	1.12763	-4.98635	0.21361
4079.347	-4.26484	0.65189	-4.95177	0.20674
4083.297	-4.58086	1.10970	-4.82264	0.25905
4087.328	-4.04843	1.13191	-4.78972	0.27798
4091.293	-4.47452	1.21382	-4.70187	0.31053
4095.299	-4.32261	1.24988	-4.55902	0.27468
4099.301	-4.28920	1.17825	-4.49196	0.42086
4103.296	-4.22989	0.75715	-4.54994	0.32932
4107.304	-4.06088	0.95338	-4.52732	0.46168
4111.303	-4.14359	1.17228	-4.38346	0.42144
4115.294	-4.00517	1.26294	-4.40132	0.68165
4119.303	-4.13485	1.17497	-4.46539	0.61672
4123.298	-4.35874	1.13138	-4.48655	0.46513
4127.306	-4.24347	1.25543	-4.36407	0.56589
4131.300	-4.15944	1.36062	-4.25892	0.52898
4135.335	-4.08895	1.31008	-4.25623	0.76221
4139.305	-4.03567	1.36670	-4.30080	0.73189
4143.466	-4.21414	1.41855	-4.36160	0.51974
4147.299	-4.11903	1.30993	-4.45863	0.57885
4151.297	-4.08355	1.47336	-4.38884	0.44163
4155.301	-3.99190	1.44214	-4.29618	0.49503
4159.299	-4.13865	1.44128	-4.36382	0.51431
4163.298	-4.13448	1.48896	-4.28858	0.30243
4167.339	-4.13461	1.72064	-4.28449	0.37774
4171.304	-4.02277	1.77026	-4.38129	0.43725
4175.297	-4.00378	1.54373	-4.47018	0.58761
4179.295	-3.97563	1.49959	-4.45261	0.42745
4183.301	-4.05554	1.55936	-4.44205	0.27631
4187.300	-4.03028	1.46238	-4.41546	0.28033
4191.301	-3.92504	1.39052	-4.31015	0.29816
4195.300	-3.92811	1.23481	-4.35215	0.29463
4199.296	-3.97234	1.17753	-4.30156	0.42639
4203.299	-4.08769	1.06391	-4.31943	0.36689
4207.295	-4.18196	0.93218	-4.35573	0.42510
4211.304	-4.22708	0.99002	-4.36402	0.45995
4215.304	-4.13369	1.08375	-4.37547	0.44939
4219.299	-4.19148	1.29730	-4.40660	0.38754
4223.300	-4.11964	1.34293	-4.44847	0.36891
4227.295	-4.09567	1.39796	-4.34418	0.37959
4231.298	-3.93376	1.39383	-4.39984	0.44043
4235.300	-3.97321	1.44744	-4.45172	0.52842
4239.295	-4.08789	1.58277	-4.45624	0.56867
4243.300	-4.10300	1.67935	-4.48081	0.56820
4247.298	-4.02310	1.53829	-4.50599	0.60596
4251.299	-3.94196	1.59762	-4.49659	0.44015
4255.299	-3.91437	1.60753	-4.49159	0.42767
4259.302	-3.89609	1.62181	-4.46051	0.46889
4263.328	-3.88547	1.42086	-4.45271	0.49644
4267.299	-3.85175	1.48043	-4.44299	0.47177
4271.292	-3.80458	1.35151	-4.46897	0.43145
4275.299	-3.86284	1.27525	-4.44413	0.41130
4279.327	-3.90647	1.30259	-4.36454	0.34071
4283.298	-4.04500	1.21246	-4.33498	0.49332
4287.298	-4.30151	1.23896	-4.47666	0.51265
4291.291	-6.04043	1.28622	-5.10975	0.50069
4295.307	-8.19968	1.28399	-6.93787	0.46201
4299.297	-8.62205	1.23778	-7.93980	0.44200
4303.298	-9.82149	1.18515	-8.67796	0.38119
4307.296	-10.26607	1.01822	-9.07900	0.27902
4311.297	-10.65635	1.03610	-9.19609	-0.18868
4315.293	-10.18736	0.57678	-9.37837	-0.48474
4319.297	-10.05885	0.66271	-9.67579	-0.22960
4323.294	-9.80537	0.19785	-9.47616	-0.25914
4327.297	-9.76678	0.38819	-9.49154	-0.24296
4331.293	-9.88991	0.49857	-9.54829	-0.40300
4335.304	-9.95678	0.54010	-9.49579	-0.32662
4339.300	-9.97411	0.42358	-9.45264	-0.37250
4343.304	-10.06905	0.23938	-9.47823	-0.34475
4347.293	-10.08034	0.29750	-9.68107	-0.40343
4351.299	-9.91006	0.27864	-9.70384	-0.40117
4355.296	-9.95490	0.32799	-9.63315	-0.42103
4359.297	-10.00702	0.42205	-9.77204	-0.34502
4363.293	-9.94070	0.40728	-9.67844	-0.37269
4367.299	-10.05387	0.51084	-9.64338	-0.36798
4371.295	-10.06405	0.51041	-9.81072	-0.38986
4375.293	-10.05936	0.45921	-9.74277	-0.35230
4379.298	-9.98290	0.48485	-9.76883	-0.36804
4383.176	-9.92748	0.46662	-9.85204	-0.35923
4387.172	-10.01084	0.50152	-9.77303	-0.41588
4391.172	-9.96265	0.50986	-9.75907	-0.40309
4395.173	-10.05842	0.57861	-9.83291	-0.36780
4399.167	-9.86225	0.48794	-9.91977	-0.35923
4403.170	-9.95016	0.48587	-9.77148	-0.32810
4407.167	-10.05377	0.48804	-9.87184	-0.33732
4411.171	-10.08630	0.42718	-9.85797	-0.33188
4415.173	-9.98275	0.42839	-9.87302	-0.27171
4419.172	-9.99361	0.46990	-9.99984	-0.26867
4423.170	-10.05055	0.47988	-9.92230	-0.34873
4427.171	-10.14256	0.55458	-9.81159	-0.26454
4431.172	-10.04807	0.76619	-9.82812	-0.29112
4435.168	-9.98328	0.64055	-9.84669	-0.26973
4439.172	-10.00839	0.61082	-9.85587	-0.19148
4443.165	-10.13236	0.64840	-9.84809	-0.21285
4447.171	-10.01862	0.57153	-10.00451	-0.29950
4451.168	-10.11226	0.59607	-9.87449	-0.22175
4455.172	-9.93769	0.58430	-9.81655	-0.22553
4459.167	-10.00935	0.56010	-9.85866	-0.23121
4463.168	-9.97086	0.57891	-9.80513	-0.24391
4467.172	-10.01821	0.54535	-9.80404	-0.20123
4471.172	-10.09056	0.46653	-9.89024	-0.19897
4475.165	-10.02733	0.42745	-9.89639	-0.19334
4479.187	-9.99443	0.44604	-9.88246	-0.15778
4483.179	-9.94342	0.50527	-9.79578	-0.28789
4487.175	-10.00971	0.49491	-9.83212	-0.24247
4491.170	-10.03527	0.54995	-9.79681	-0.19271
4495.170	-9.93207	0.56114	-9.82216	-0.16704
4499.169	-9.94551	0.50333	-9.92384	-0.20431
4503.170	-9.89219	0.50931	-9.87035	-0.22131
4507.169	-9.99041	0.53267	-9.84792	-0.19131
4511.170	-9.90130	0.49346	-9.81855	-0.21229
4515.167	-9.89386	0.50096	-9.82277	-0.26272
4519.166	-9.90070	0.45469	-9.82809	-0.36623
4523.162	-9.94118	0.47642	-9.90575	-0.26466
4527.170	-9.96797	0.44547	-10.00309	-0.10099
4531.165	-9.98157	0.50452	-9.98661	0.08920
4535.169	-9.91486	0.53782	-9.81320	-0.12502
4539.163	-9.75871	0.94587	-9.81337	0.04089
4543.168	-9.25526	2.38541	-9.14581	1.26718
4547.168	-8.43484	3.36259	-8.88632	2.13114
4551.195	-8.23719	3.61450	-8.29683	2.41658
4555.177	-7.69666	3.93037	-7.93934	2.60050
4559.166	-7.53132	4.11814	-7.52564	3.12082
4563.169	-7.54701	4.47535	-7.33908	3.51681
4567.163	-7.26854	4.69182	-7.48410	3.26386
4571.170	-7.42305	4.48647	-7.80431	3.21072
4575.165	-7.55905	4.52412	-7.95694	3.22482
4579.168	-7.54398	4.58878	-7.91989	3.51281
4583.163	-7.32143	4.67239	-7.90414	3.41667
4587.169	-7.29829	4.57208	-7.63915	3.48378
4591.169	-7.24461	4.61921	-7.52754	3.60581
4595.166	-7.23787	4.62393	-7.55537	3.52230
4599.169	-7.24039	4.64294	-7.58125	3.47696
4603.167	-7.35461	4.70599	-7.62094	3.40444
4607.169	-7.41021	4.70773	-7.59600	3.44773
4611.167	-7.46253	4.64572	-7.63689	3.49027
4615.165	-7.49407	4.65627	-7.60809	3.45186
4619.182	-7.35117	4.54421	-7.53786	3.50538
4623.171	-7.38729	4.53762	-7.40262	3.72577
4627.164	-7.42212	4.40124	-7.35424	4.06293
4631.173	-7.40692	4.40855	-7.31511	3.88556
4635.171	-7.47085	4.27060	-7.28117	3.81133
4639.166	-7.49571	4.35255	-7.21889	3.81993
4643.162	-7.53732	4.36002	-7.14010	3.88141
4647.169	-7.50986	4.34812	-7.08026	4.05072
4651.163	-7.47295	4.26646	-7.05833	4.25923
4655.167	-7.51639	4.33159	-6.99656	4.23117
4659.162	-7.55105	4.36228	-6.94418	4.12164
4663.168	-7.61570	4.30231	-6.91266	4.18297
4667.174	-7.61824	4.34610	-6.90471	4.16005
4671.167	-7.63379	4.34609	-6.88512	4.09989
4675.174	-7.63889	4.33908	-6.96259	4.18859
4679.166	-7.59293	4.43686	-7.07197	4.20122
4683.168	-7.57654	4.47943	-7.16798	4.17759
4687.195	-7.68052	4.57683	-7.22043	4.19653
4691.169	-10.32260	4.63879	-8.75082	4.41499
4695.170	-12.54628	5.42558	-10.87560	4.59375
4699.166	-14.40651	5.62696	-11.97676	5.43469
4703.213	-16.58733	6.37040	-14.62705	6.55170
4707.161	-17.24775	6.26346	-15.13256	6.61035
4711.162	-19.84042	6.62588	-17.36025	7.02648
4715.169	-20.98145	7.00215	-17.97643	7.07531
4719.165	-22.76486	7.59851	-19.31912	7.30281
4723.167	-20.04046	-12.07394	-20.45919	7.39892
4727.162	-20.02576	-12.07504	-20.86012	7.87630
4731.163	-20.01800	-12.07561	-21.08510	8.22878
4735.165	-20.01316	-12.07598	-21.10180	8.35295
4739.163	-20.00985	-12.07622	-21.02181	8.47423
4743.162	-20.00740	-12.07641	-20.90648	8.47381
4747.161	-20.00553	-12.07654	-20.95277	8.47679
4751.162	-20.00424	-12.07664	-20.94457	8.49012
4755.188	-20.01638	-12.07574	-20.94522	8.62774
4759.177	-19.99374	-12.07742	-20.88192	8.64173
4763.161	NaN	NaN	-20.94085	8.68313
4767.160	NaN	NaN	-20.96171	8.67716
4771.161	NaN	NaN	-20.95293	8.65589
4775.164	-23.44305	7.90002	-20.93204	8.58025
4779.165	-23.44086	7.90173	-20.91965	8.60399
4783.160	-23.24348	7.93357	-20.90176	8.59158
4787.164	-23.14636	8.02952	-20.90525	8.56940
4791.181	-23.20817	7.96765	-20.87876	8.65598
4795.170	-23.23950	7.96650	-20.89407	8.69846
4799.166	-23.24862	8.02046	-20.87356	8.62196
4803.164	-23.27463	7.98124	-20.88931	8.59006
4807.159	-23.32481	8.03128	-20.84892	8.52508
4811.165	-19.99383	-12.07742	-20.87182	8.60959
4815.163	-19.99381	-12.07742	-20.85778	8.48320
4819.166	-23.35187	8.03264	-20.84959	8.46523
4823.164	-19.99379	-12.07742	-20.83552	8.32900
4827.158	-19.99374	-12.07742	-20.85111	8.28161
4831.167	NaN	NaN	-20.84159	8.22977
4835.161	NaN	NaN	-20.82264	8.37195
4839.170	-23.48087	8.00176	-20.79981	8.27841
4843.163	-23.53187	7.95379	-20.81699	8.44540
4847.165	NaN	NaN	-20.81668	8.41446
4851.160	-23.53248	7.94557	-20.84389	8.65770
4855.163	-23.49790	8.03350	-20.88900	8.71810
4859.166	-23.46030	8.05685	-20.89100	8.71406
4863.160	-23.41357	7.98906	-20.87308	8.62779
4867.159	-23.42445	8.13261	-20.90960	8.72291
4871.162	-23.39306	8.14352	-20.87919	8.72982
4875.161	-23.38294	8.06177	-20.89024	8.82336
4879.164	-19.99374	-12.07742	-20.89838	8.76040
4883.164	-23.39068	8.13626	-20.91103	8.81544
4887.169	-23.37498	8.21394	-20.90820	8.82576
4891.160	-23.37163	8.20525	-20.89708	8.83962
4895.165	-23.38547	8.22978	-20.88365	8.82022
4899.161	-23.36448	8.23299	-20.85104	8.78179
4903.164	-23.38129	8.26578	-20.83806	8.78995
4907.160	-23.41294	8.33807	-20.82947	8.79627
4911.196	-23.38428	8.33501	-20.81510	8.80297
4915.159	-23.38963	8.37680	-20.83910	8.83069
4919.161	-23.38098	8.39670	-20.83940	8.81711
4923.169	-23.39912	8.48388	-20.82954	8.83063
4927.160	-19.99377	-12.07742	-21.13730	9.66930
4931.163	-19.99374	-12.07742	-21.21529	11.43784
4935.156	-19.99374	-12.07742	-21.32460	12.71453
4939.158	-23.40427	11.42838	-21.28278	13.31386
4943.160	NaN	NaN	-21.31831	13.86562
4947.162	NaN	NaN	-21.45896	13.73278
4951.155	NaN	NaN	-21.35549	13.54104
4955.157	NaN	NaN	-21.27774	13.50818
4959.156	NaN	NaN	-21.24181	13.45270
4963.162	NaN	NaN	-21.23062	13.41795
4967.163	NaN	NaN	-21.21794	13.29418
4971.164	NaN	NaN	-21.15470	13.41280
4975.157	NaN	NaN	-21.11558	13.26882
4979.158	NaN	NaN	-21.08088	13.28909
4983.164	NaN	NaN	-21.02224	13.24396
4987.158	NaN	NaN	-21.01787	13.20424
4991.158	NaN	NaN	-21.02468	13.17045
4995.178	NaN	NaN	-20.98867	13.12182
4999.163	NaN	NaN	-21.01171	13.12570
5003.158	NaN	NaN	-21.04749	13.11546
5007.162	NaN	NaN	-21.05566	13.05825
5011.159	NaN	NaN	-21.07179	13.00520
5015.159	NaN	NaN	-21.05670	12.99972
5019.158	NaN	NaN	-21.06373	12.96088
5023.156	NaN	NaN	-21.06921	12.97501
5027.158	NaN	NaN	-21.07719	12.99660
5031.164	NaN	NaN	-21.01359	12.96417
5035.159	NaN	NaN	-20.89251	12.87217
5039.159	NaN	NaN	-20.89323	12.92294
5043.158	NaN	NaN	-20.91822	12.97505
5047.159	NaN	NaN	-20.91723	13.16366
5051.165	-23.35843	11.35318	-20.98945	13.30199
5055.156	-23.39507	11.25804	-21.05610	13.47083
5059.162	-23.41334	11.28514	-21.02334	13.49799
5063.157	-23.43173	11.27344	-21.10618	13.50596
5067.155	-23.40590	11.17102	-21.20325	13.65215
5071.162	NaN	NaN	-20.58127	-12.03306
5075.160	-23.41956	11.09681	-21.23592	13.65594
5079.158	NaN	NaN	-21.32180	13.65474
5083.162	NaN	NaN	-21.34895	13.68936
5087.156	NaN	NaN	-21.68591	13.68643
5091.164	NaN	NaN	-21.64222	13.65533
5095.164	NaN	NaN	-21.70890	13.60985
5099.157	NaN	NaN	-21.71016	13.59495
5103.158	NaN	NaN	-20.25187	-12.05809
5107.180	NaN	NaN	-21.33892	13.66192
5111.171	NaN	NaN	-20.19470	-12.06239
5115.160	NaN	NaN	-20.18056	-12.06345
5119.158	NaN	NaN	-20.11579	-12.06831
5123.158	NaN	NaN	-20.07981	-12.07100
5127.153	NaN	NaN	-20.05082	-12.07317
5131.163	NaN	NaN	-20.04184	-12.07384
5135.162	NaN	NaN	-20.03364	-12.07445
5139.157	NaN	NaN	-20.02705	-12.07494
5143.160	NaN	NaN	-20.02061	-12.07542
5147.156	NaN	NaN	-20.01943	-12.07551
5151.154	NaN	NaN	NaN	NaN
5155.153	NaN	NaN	NaN	NaN
5159.159	NaN	NaN	NaN	NaN
5163.155	NaN	NaN	NaN	NaN
5167.159	NaN	NaN	NaN	NaN
5171.150	NaN	NaN	NaN	NaN
5175.160	NaN	NaN	NaN	NaN
5179.156	NaN	NaN	NaN	NaN
5183.158	NaN	NaN	NaN	NaN
5187.155	NaN	NaN	NaN	NaN
5191.162	NaN	NaN	NaN	NaN
5195.159	NaN	NaN	NaN	NaN
5199.151	NaN	NaN	NaN	NaN
5203.153	NaN	NaN	NaN	NaN
5207.155	NaN	NaN	NaN	NaN
5211.158	NaN	NaN	NaN	NaN
5215.156	NaN	NaN	NaN	NaN
5219.154	NaN	NaN	NaN	NaN
5223.153	NaN	NaN	NaN	NaN
5227.155	NaN	NaN	NaN	NaN
5231.154	NaN	NaN	NaN	NaN
5235.029	NaN	NaN	NaN	NaN
5239.027	NaN	NaN	NaN	NaN
5243.035	NaN	NaN	NaN	NaN
5247.029	NaN	NaN	NaN	NaN
5251.029	NaN	NaN	NaN	NaN
5255.024	NaN	NaN	NaN	NaN
5259.028	NaN	NaN	NaN	NaN
5263.032	NaN	NaN	NaN	NaN
5267.028	NaN	NaN	NaN	NaN
5271.024	NaN	NaN	NaN	NaN
5275.029	NaN	NaN	NaN	NaN
5279.031	NaN	NaN	NaN	NaN
5283.029	NaN	NaN	NaN	NaN
5287.027	NaN	NaN	NaN	NaN
5291.029	NaN	NaN	NaN	NaN
5295.027	NaN	NaN	NaN	NaN
5299.032	NaN	NaN	NaN	NaN
5303.038	NaN	NaN	NaN	NaN
5307.032	NaN	NaN	NaN	NaN
5311.065	NaN	NaN	NaN	NaN
5315.026	NaN	NaN	NaN	NaN
5319.031	NaN	NaN	NaN	NaN
5323.028	NaN	NaN	NaN	NaN
5327.031	NaN	NaN	NaN	NaN
5331.026	NaN	NaN	NaN	NaN
5335.031	NaN	NaN	NaN	NaN
5339.027	NaN	NaN	NaN	NaN
5343.026	NaN	NaN	NaN	NaN
5347.031	NaN	NaN	NaN	NaN
5351.036	NaN	NaN	NaN	NaN
5355.048	NaN	NaN	NaN	NaN
5359.040	NaN	NaN	NaN	NaN
5363.026	NaN	NaN	NaN	NaN
5367.026	NaN	NaN	NaN	NaN
5371.029	NaN	NaN	NaN	NaN
5375.027	-22.81770	12.80685	NaN	NaN
5379.030	-21.28912	12.95658	NaN	NaN
5383.022	-20.25772	13.28803	NaN	NaN
5387.042	-20.01075	13.44582	NaN	NaN
5391.031	-19.12493	13.56292	NaN	NaN
5395.025	-18.96393	13.74934	NaN	NaN
5399.030	-18.69005	13.64763	NaN	NaN
5403.025	-18.45081	13.73300	NaN	NaN
5407.030	-18.50247	13.78500	NaN	NaN
5411.025	-18.90391	13.78780	NaN	NaN
5415.030	-18.61102	13.84435	NaN	NaN
5419.038	-18.67944	13.88097	NaN	NaN
5423.029	-18.63063	13.88603	NaN	NaN
5427.035	-18.55644	13.88298	NaN	NaN
5431.033	-18.55008	13.90637	NaN	NaN
5435.029	-18.60618	13.93113	NaN	NaN
5439.027	-18.58411	13.93685	NaN	NaN
5443.021	-18.62210	14.01684	NaN	NaN
5447.024	-18.69314	14.04748	NaN	NaN
5451.023	-18.76168	14.08958	NaN	NaN
5455.025	-18.74944	14.06280	NaN	NaN
5459.023	-18.74563	14.02632	NaN	NaN
5463.025	-18.66804	14.03853	NaN	NaN
5467.034	-18.71460	14.09222	NaN	NaN
5471.038	-18.72168	14.05900	NaN	NaN
5475.032	-18.76464	14.12062	NaN	NaN
5479.027	-18.71343	14.09655	NaN	NaN
5483.031	-18.70810	14.06183	NaN	NaN
5487.024	-18.67980	14.00688	NaN	NaN
5491.028	-18.62680	13.99876	NaN	NaN
5495.036	-18.54212	14.03518	NaN	NaN
5499.029	-18.56284	13.98625	NaN	NaN
5503.028	-17.76622	13.74773	NaN	NaN
5507.026	-16.27936	12.99230	NaN	NaN
5511.031	-14.35391	11.41563	-11.24149	13.39187
5515.025	-12.95478	9.77439	-9.45044	11.03232
5519.025	-11.44075	9.25696	-8.00280	8.71074
5523.024	-9.40622	7.09607	-6.94878	7.68783
5527.026	-8.64944	6.37053	-4.61526	5.30621
5531.068	-6.47304	5.45236	-4.17983	4.86415
5535.022	-5.57370	4.35631	-2.14853	4.45485
5539.027	-3.15226	3.60915	-0.80625	3.36427
5543.027	-1.56568	2.88581	-0.21740	2.43498
5547.020	-0.82431	2.11837	1.71714	1.88656
5551.023	0.39611	1.76411	2.25734	0.48241
5555.026	1.78359	2.03331	2.60728	0.28569
5559.028	2.42666	1.58018	2.62417	0.14032
5563.022	2.44016	1.47889	2.55960	-0.10200
5567.023	2.24222	1.36592	2.53536	-0.22494
5571.048	2.27449	1.47301	2.45426	-0.22604
5575.031	2.57518	1.58392	2.42659	-0.16137
5579.022	2.35789	1.36400	2.50197	0.12254
5583.027	2.34998	1.27723	2.47660	-0.05040
5587.021	2.09750	1.29815	2.59027	-0.18196
5591.023	2.07611	1.29660	2.60755	-0.14983
5595.032	2.05767	1.23493	2.58692	-0.12283
5599.022	2.11388	1.22898	2.49629	-0.08108
5603.033	2.20954	1.17085	2.61771	-0.09281
5607.027	2.16441	1.11010	2.65897	0.01651
5611.023	2.19038	1.07444	2.59624	-0.11128
5615.026	2.25469	1.07489	2.69188	-0.14759
5619.024	2.19157	1.07270	2.69351	-0.13515
5623.023	2.15891	1.04658	2.74403	-0.25600
5627.020	2.32310	1.00467	2.65798	-0.18321
5631.026	2.41269	0.99480	2.56463	-0.06819
5635.027	2.48549	0.96002	2.63517	-0.02688
5639.032	2.44519	0.91699	2.63281	0.10503
5643.024	2.55316	0.83777	2.58826	0.05069
5647.021	2.62459	0.84909	2.54608	0.02895
5651.021	2.66568	0.85089	2.51698	0.04049
5655.027	2.74762	0.88652	2.45916	0.21748
5659.024	2.74534	0.93620	2.47016	0.20948
5663.023	2.65379	0.92481	2.42438	0.24546
5667.037	2.69889	0.71778	2.40897	0.34475
5671.027	2.63393	0.79066	2.47422	0.36643
5675.026	2.67283	0.67300	2.43327	0.37443
5679.023	2.65619	0.73421	2.39379	0.40086
5683.030	2.65914	0.61763	2.34998	0.34089
5687.023	2.63014	0.58580	2.37476	0.31749
5691.026	2.61387	0.54694	2.36056	0.30911
5695.024	2.55475	0.67115	2.40362	0.24524
5699.022	2.40612	0.54844	2.61181	0.19377
5703.023	2.29674	0.62954	2.58316	0.16207
5707.031	2.38972	0.50828	2.53845	0.23504
5711.024	2.44006	0.69193	2.73063	0.11611
5715.027	2.41128	0.63053	2.59500	0.15865
5719.025	2.50979	0.59159	2.58752	0.25067
5723.019	2.46085	0.65412	2.70777	0.15839
5727.025	2.34396	0.87233	2.71959	0.29244
5731.024	2.35784	0.54799	2.82095	0.17468
5735.022	2.49602	0.68702	3.00019	0.14606
5739.037	2.55146	0.77277	2.80285	0.06557
5743.021	2.76356	0.74079	2.74776	0.09216
5747.038	2.66805	0.81702	2.70238	0.18229
5751.022	2.57390	0.88933	2.75049	0.16937
5755.023	2.45723	0.80258	2.71560	0.20746
5759.023	2.52562	0.74791	2.65013	0.21429
5763.023	2.75935	0.89515	2.75155	0.09948
5767.023	2.70030	0.84988	2.65136	0.12674
5771.020	2.63368	0.73849	2.66588	0.03736
5775.040	2.52547	0.69616	2.58653	0.06745
5779.017	2.60168	0.88243	2.52126	0.01288
5783.023	2.39936	0.72815	2.53659	0.08525
5787.019	2.40679	0.55294	2.58608	0.09719
5791.023	2.41279	0.68862	2.59522	0.13152
5795.022	2.44678	0.73329	2.56010	0.10300
5799.018	2.62070	0.59124	2.57959	0.18069
5803.023	2.52366	0.61306	2.62023	-0.01206
5807.024	2.52220	0.56661	2.54157	0.14525
5811.019	2.38167	0.51883	2.57843	0.08249
5815.023	2.34466	0.63484	2.59475	0.09540
5819.014	2.07174	0.61074	2.54742	0.19299
5823.024	-1.16017	0.76632	1.41727	0.30592
5827.021	-2.91866	1.81542	-0.94046	1.04989
5831.023	-4.66719	3.32534	-3.01079	2.25116
5835.016	-6.75443	3.49496	-4.61477	3.36293
5839.023	-8.47702	4.41984	-6.04112	4.57135
5843.032	-10.20716	4.81114	-8.22489	4.82484
5847.025	-12.74482	5.61301	-10.44825	5.94425
5851.021	-14.19753	6.65446	-11.77912	6.45069
5855.039	-15.95546	7.39637	-13.33344	8.10515
5859.024	-16.78303	7.97788	-14.39394	8.57678
5863.021	-18.76448	8.65877	-15.45403	10.29808
5867.018	-20.35484	9.53572	-16.75182	10.48071
5871.019	-20.55109	10.21114	-17.28070	10.79641
5875.020	-20.40837	10.01541	-17.34376	12.17442
5879.023	-20.46362	9.99554	-17.61079	11.70796
5883.014	-20.36668	10.08418	-17.66684	11.51266
5887.024	-20.39876	10.12854	-17.71122	11.56422
5891.021	-20.48187	10.13071	-17.57732	11.26949
5895.017	-20.46462	10.14425	-17.57579	11.33458
5899.022	-20.45410	10.08814	-17.72739	11.49542
5903.019	-20.57513	10.18151	-17.94897	11.51737
5907.022	-20.79641	10.20068	-18.03381	11.59649
5911.037	-20.49459	10.10004	-17.96763	11.69154
5915.024	-20.79808	10.12947	-17.92983	11.77769
5919.023	-20.42239	10.04324	-18.22364	12.13811
5923.019	-20.72538	10.15811	-18.14028	11.86251
5927.025	-20.39424	10.12427	-18.09895	11.63969
5931.015	-20.58416	10.17103	-18.18725	11.77910
5935.022	-20.79001	10.21901	-18.15648	11.91405
5939.017	-20.46466	10.18796	-18.24880	11.97456
5943.017	-20.61326	10.23271	-18.23492	12.05623
5947.011	-20.45205	10.11149	-18.11625	12.06674
5951.022	-20.52100	10.19426	-18.16666	12.27326
5955.018	-20.32614	10.28133	-18.19199	12.11453
5959.021	-20.42679	10.24543	-18.16504	11.78524
5963.049	-20.39562	10.00746	-18.15924	12.02678
5967.021	-20.51279	10.20988	-18.17432	12.14716
5971.022	-20.40580	10.08777	-18.16211	12.07178
5975.019	-20.43071	10.13424	-18.21990	12.26119
5979.034	-20.45791	10.12319	-18.18928	12.06359
5983.022	-20.31239	10.07812	-18.17347	12.21155
5987.017	-20.50874	10.29335	-18.18319	12.29212
5991.014	-20.54167	10.25901	-18.17672	12.33644
5995.027	-20.26086	10.14940	-18.18660	12.31445
5999.022	-20.32001	10.09060	-18.14613	12.32105
6003.012	-20.58157	10.20881	-18.13649	12.24329
6007.015	-20.49973	10.22766	-18.16836	12.31283
6011.020	-20.38195	10.18056	-18.16135	12.30565
6015.020	-20.27685	10.21887	-18.26474	12.34954
6019.013	-20.41578	10.39303	-18.23875	12.39823
6023.020	-20.42829	10.30021	-18.20207	12.42222
6027.020	-20.55621	10.36760	-18.27892	12.43740
6031.023	-20.58505	10.36022	-18.11717	12.32710
6035.014	-20.17509	10.35221	-18.19961	12.34746
6039.019	-20.43830	10.35851	-18.13286	12.39341
6043.017	-20.54768	10.48034	-18.24647	12.42678
6047.019	-21.12696	10.31150	-18.36671	12.39226
6051.019	-23.22072	10.55332	-19.66544	12.60442
6055.023	-20.29362	-12.05494	-19.74887	-12.09554
6059.013	-20.28120	-12.05587	-19.86288	-12.08713
6063.016	-20.21664	-12.06074	-19.91413	-12.08334
6067.015	-20.15434	-12.06542	-19.93573	-12.08173
6071.013	-20.09793	-12.06965	-19.96020	-12.07992
6075.019	-20.05255	-12.07304	-19.96615	-12.07947
6079.015	-20.07462	-12.07139	-19.97327	-12.07895
6083.015	-20.03675	-12.07422	-19.97731	-12.07865
6087.014	-19.99747	-12.07714	-20.05966	14.06827
6090.892	NaN	NaN	-20.03752	-12.07416
6094.887	NaN	NaN	-20.02968	-12.07474
6098.900	NaN	NaN	-20.02926	-12.07478
6102.897	NaN	NaN	-20.02871	-12.07482
6106.903	NaN	NaN	-20.02799	-12.07487
6110.895	NaN	NaN	-20.02716	-12.07493
6114.889	NaN	NaN	-20.02620	-12.07500
6118.891	NaN	NaN	-20.02510	-12.07509
6122.886	NaN	NaN	-20.02392	-12.07517
6126.889	NaN	NaN	-20.02265	-12.07527
6130.887	NaN	NaN	NaN	NaN
6134.913	NaN	NaN	NaN	NaN
6138.898	NaN	NaN	NaN	NaN
6142.894	NaN	NaN	NaN	NaN
6146.892	NaN	NaN	NaN	NaN
6150.892	NaN	NaN	NaN	NaN
6154.890	NaN	NaN	NaN	NaN
6158.902	NaN	NaN	NaN	NaN
6162.892	NaN	NaN	NaN	NaN
6166.896	NaN	NaN	NaN	NaN
6170.891	-23.36567	12.69387	NaN	NaN
6174.889	NaN	NaN	NaN	NaN
6178.887	-23.37107	12.73889	NaN	NaN
6182.891	-23.43795	12.68777	NaN	NaN
6186.890	NaN	NaN	NaN	NaN
6190.889	NaN	NaN	NaN	NaN
6194.886	NaN	NaN	NaN	NaN
6198.887	-23.42491	12.65269	NaN	NaN
6202.887	-23.23718	12.54152	NaN	NaN
6206.891	-23.36789	12.61612	NaN	NaN
6210.885	-19.99377	-12.07742	NaN	NaN
6214.887	-19.99377	-12.07742	NaN	NaN
6218.890	-23.20989	12.70464	NaN	NaN
6222.893	-20.91404	13.41408	NaN	NaN
6226.886	-20.00790	13.56803	NaN	NaN
6230.903	-19.65239	13.55154	NaN	NaN
6234.890	-18.75316	13.61984	NaN	NaN
6238.887	-18.45576	13.74176	NaN	NaN
6242.891	-18.34185	13.78978	NaN	NaN
6246.888	-18.38463	13.85566	NaN	NaN
6250.888	-18.38582	13.95354	NaN	NaN
6254.889	-18.56493	14.04555	NaN	NaN
6258.885	-18.37209	14.02814	NaN	NaN
6262.886	-18.42563	14.07421	NaN	NaN
6266.890	-18.56754	14.05180	NaN	NaN
6270.887	-18.35023	13.95897	NaN	NaN
6274.882	-18.31474	13.92443	NaN	NaN
6278.884	-18.38707	13.95408	NaN	NaN
6282.885	-18.48106	13.95996	NaN	NaN
6286.885	-18.34171	13.98089	NaN	NaN
6290.904	-18.38481	13.96880	NaN	NaN
6294.889	-18.41216	13.97389	NaN	NaN
6298.892	-18.61160	13.96912	NaN	NaN
6302.886	-18.38369	13.94793	NaN	NaN
6306.891	-18.47820	13.96207	NaN	NaN
6310.890	-18.34337	14.01968	NaN	NaN
6314.885	-18.43651	14.09371	NaN	NaN
6318.885	-18.44245	14.09264	NaN	NaN
6322.887	-18.46782	14.15158	NaN	NaN
6326.885	-18.43515	14.16146	NaN	NaN
6330.884	-18.56563	14.20768	NaN	NaN
6334.892	-18.59272	14.20069	NaN	NaN
6338.886	-18.59809	14.18717	NaN	NaN
6342.885	-18.45402	14.07339	NaN	NaN
6346.884	-18.49039	14.03094	NaN	NaN
6350.894	-18.46483	13.89524	NaN	NaN
6354.888	-18.42579	13.95717	NaN	NaN
6358.881	-18.44335	13.85241	NaN	NaN
6362.889	-18.43240	13.86328	NaN	NaN
6366.886	-18.39422	13.91341	NaN	NaN
6370.884	-18.31315	13.80128	NaN	NaN
6374.884	-18.33145	13.85728	NaN	NaN
6378.884	-18.34115	13.88234	NaN	NaN
6382.887	-18.29336	13.79356	NaN	NaN
6386.886	-18.27217	13.81236	NaN	NaN
6390.890	-18.29528	13.80082	NaN	NaN
6394.924	-18.31009	13.85770	NaN	NaN
6398.895	-18.20501	13.76704	NaN	NaN
6402.884	-18.27152	13.83361	NaN	NaN
6406.880	-18.23217	13.91426	NaN	NaN
6410.883	-18.29421	13.96073	NaN	NaN
6414.883	-18.26082	14.04531	NaN	NaN
6418.885	-18.29392	14.02793	NaN	NaN
6422.889	-18.20075	14.05393	NaN	NaN
6426.883	-18.23615	14.13848	NaN	NaN
6430.892	-18.21040	14.08627	NaN	NaN
6434.887	-18.17759	14.15083	NaN	NaN
6438.884	-18.10713	14.03649	NaN	NaN
6442.885	-18.16888	14.11628	NaN	NaN
6446.887	-18.31403	14.12948	NaN	NaN
6450.884	-18.21318	14.08741	NaN	NaN
6454.884	-18.23819	14.14045	NaN	NaN
6458.889	-18.26254	14.12956	NaN	NaN
6462.886	-18.14539	14.13695	NaN	NaN
6466.880	-18.13029	14.07104	NaN	NaN
6470.888	-18.12966	14.06409	NaN	NaN
6474.887	-18.04274	14.03957	NaN	NaN
6478.887	-17.95023	13.84783	NaN	NaN
6482.889	-17.73990	14.06497	NaN	NaN
6486.882	-16.54659	13.64495	NaN	NaN
6490.883	-14.12445	12.65147	-11.96693	14.92689
6494.887	-12.82215	11.14699	-10.42276	13.92273
6498.886	-11.61475	10.50857	-9.02699	11.73307
6502.884	-10.46474	9.37667	-7.23616	9.35546
6506.882	-8.96804	7.99529	-6.82951	7.64801
6510.888	-7.08713	7.52950	-3.34873	7.04983
6514.888	-5.53992	7.10664	-3.49038	6.73339
6518.888	-4.42163	6.21700	-1.91343	5.35610
6522.885	-1.82966	5.74404	-1.08887	4.85295
6526.886	-1.14826	4.73288	0.56764	3.96318
6530.885	-0.00050	3.95167	2.25241	3.67327
6534.882	1.21147	3.88779	2.63135	2.76885
6538.877	1.68994	3.56360	3.22327	2.55429
6542.886	1.96333	3.57434	3.24395	2.39496
6546.885	2.12245	3.29392	2.99438	2.05561
6550.878	2.10620	3.41730	2.86415	2.13996
6554.887	1.86647	3.50984	2.39168	2.33555
6558.889	1.80015	3.38203	2.71181	2.20538
6562.882	1.84815	3.35182	2.92542	2.19917
6566.880	1.89516	3.46938	3.18660	2.14998
6570.887	2.10523	3.32042	3.01809	2.15350
6574.919	2.18553	3.24503	3.09329	2.21690
6578.885	2.33135	3.21485	3.12588	2.15288
6582.876	2.19217	3.24145	3.19140	2.03565
6586.880	2.21494	3.31453	2.86108	2.11796
6590.885	2.14508	3.30897	2.94327	2.09374
6594.886	2.29086	3.26432	3.26549	2.08847
6598.892	2.24825	3.14637	3.32731	2.06330
6602.884	2.27065	3.12627	3.16005	2.16530
6606.898	2.34788	2.95946	3.27653	2.20001
6610.885	2.33432	3.08118	3.10349	2.32970
6614.881	2.28338	3.09505	3.19670	2.16497
6618.880	2.33571	3.05122	3.31150	2.12014
6622.885	2.32880	3.13503	3.21379	2.41990
6626.880	2.37815	3.17512	3.30683	2.43652
6630.883	2.37179	3.12263	3.16468	2.43854
6634.879	2.35355	2.91420	3.13039	2.49184
6638.889	2.24936	2.97377	3.15164	2.40509
6642.886	2.32278	2.93353	3.26982	2.41734
6646.881	2.31867	2.79103	3.33777	2.35593
6650.879	2.22146	2.90124	3.20721	2.36312
6654.880	2.22624	2.87585	3.17304	2.42636
6658.883	2.29022	2.87060	3.32854	2.46915
6662.886	2.34243	2.81298	3.11809	2.48781
6666.898	2.35580	2.74877	3.04957	2.52180
6670.883	2.31299	2.70665	3.01923	2.41346
6674.879	2.39227	2.68645	3.21218	2.37290
6678.879	2.34557	2.68567	3.29711	2.32215
6682.884	2.40640	2.65033	3.42126	2.30608
6686.875	2.45971	2.63927	3.44335	2.33542
6690.880	2.46989	2.64094	3.25100	2.29290
6694.883	2.51200	2.61286	3.08718	2.38933
6698.879	2.57008	2.59065	3.21693	2.35424
6702.883	2.59547	2.59225	3.19588	2.27341
6706.880	2.62197	2.71001	2.86418	2.23493
6710.878	2.60693	2.66394	2.87212	2.22552
6714.879	2.63678	2.73177	3.09683	2.28705
6718.877	2.56433	2.76690	3.16636	2.41365
6722.887	2.55827	2.67965	3.01163	2.31813
6726.880	2.59651	2.68992	2.81709	2.29239
6730.881	2.63915	2.73023	2.80729	2.38185
6734.878	2.60027	2.86731	2.88425	2.57741
6738.880	2.62598	2.91375	2.97725	2.62044
6742.880	2.57506	2.85617	2.84284	2.52096
6746.879	2.55376	2.74156	2.88663	2.50905
6750.877	2.52111	2.41272	3.03029	2.28880
6754.884	2.41759	0.90192	3.22440	0.96628
6758.879	2.38682	-0.88407	3.43197	-0.50409
6762.882	2.36951	-1.25011	3.44570	-2.45939
6766.879	2.43362	-1.69698	3.50079	-2.72709
6770.879	2.44660	-2.13506	3.55330	-2.81242
6774.877	2.52201	-2.21863	3.72810	-2.87839
6778.879	2.56929	-2.15055	3.59285	-2.82247
6782.896	2.55812	-2.10062	3.52816	-2.65903
6786.881	2.82400	-1.91806	3.70482	-2.54733
6790.893	2.84576	-1.97006	3.75116	-2.39322
6794.877	2.71451	-1.85447	3.68540	-2.24696
6798.888	2.80129	-1.68317	3.62880	-2.38105
6802.877	2.85346	-1.86350	3.63379	-2.42087
6806.885	2.85418	-1.94491	3.63851	-2.51522
6810.874	2.86348	-1.89844	3.67348	-2.26239
6814.882	2.88804	-1.78178	3.62573	-2.35301
6818.876	2.91780	-1.91166	3.51891	-2.31317
6822.876	2.86891	-1.92406	3.48422	-2.32616
6826.876	2.87628	-1.93607	3.53162	-2.30623
6830.880	2.85980	-1.87874	3.59990	-2.29034
6834.878	2.94351	-1.85086	3.37502	-2.35968
6838.877	2.95238	-1.93850	3.39285	-2.40416
6842.875	2.93812	-2.03182	3.52227	-2.40312
6846.886	2.98081	-2.05489	3.49404	-2.47008
6850.882	2.92584	-2.08989	3.49851	-2.46839
6854.903	2.97723	-2.00490	3.53110	-2.48353
6858.885	2.95280	-2.08280	3.44762	-2.43567
6862.878	3.06734	-2.09593	3.40774	-2.42923
6866.881	3.00448	-2.00433	3.47129	-2.42612
6870.879	2.93559	-1.99606	3.41172	-2.43118
6874.883	3.06805	-2.00917	3.34578	-2.47740
6878.874	2.99495	-1.93944	3.53238	-2.47867
6882.880	2.97302	-1.89649	3.50242	-2.40567
6886.876	2.95131	-1.95840	3.50744	-2.36946
6890.884	2.85886	-1.95452	3.57335	-2.46002
6894.883	2.97564	-1.94096	3.42710	-2.42272
6898.876	2.81392	-1.89064	3.52788	-2.45009
6902.879	2.76859	-1.91072	3.47188	-2.36957
6906.873	2.82910	-1.96196	3.50786	-2.37525
6910.880	2.84650	-1.81923	3.46305	-2.40463
6914.877	3.02682	-1.87761	3.51597	-2.42992
6918.881	2.89275	-1.94095	3.45492	-2.44305
6922.877	2.87799	-2.03944	3.47722	-2.40878
6926.876	2.99638	-2.03689	3.43177	-2.57823
6930.906	2.74536	-1.97972	3.41350	-2.56623
6934.880	2.85074	-1.97362	3.37237	-2.60981
6938.877	2.98029	-2.09692	3.37346	-2.55876
6942.869	3.02969	-1.95816	3.34927	-2.57506
6946.755	3.06434	-1.89425	3.41014	-2.60421
6950.750	3.18321	-1.95300	3.37633	-2.61497
6954.880	3.10411	-2.07985	3.41286	-2.57925
6958.745	3.09176	-2.05911	3.38662	-2.60960
6962.755	3.13004	-1.97661	3.41155	-2.56252
6966.751	3.15755	-1.92345	3.45386	-2.60840
6970.752	3.15703	-1.89379	3.46399	-2.64297
6974.749	3.20582	-2.05975	3.49737	-2.60714
6978.764	3.23165	-2.17511	3.46545	-2.52700
6982.751	3.15931	-2.19714	3.47329	-2.49282
6986.745	3.17334	-2.31480	3.50620	-2.44827
6990.749	3.22168	-2.17208	3.47079	-2.49646
6994.751	3.24607	-2.08428	3.44342	-2.54327
6998.755	3.35963	-2.11352	3.40329	-2.57861
7002.748	3.38919	-2.19767	3.39532	-2.60499
7006.749	3.29414	-2.30826	3.39601	-2.62054
7010.748	3.28447	-2.32109	3.35437	-2.57552
7014.750	3.26426	-2.28173	3.33893	-2.57417
7018.752	3.27885	-2.21073	3.34012	-2.58011
7022.754	3.20587	-2.21859	3.32652	-2.60312
7026.748	3.22604	-2.25444	3.32830	-2.57640
7030.751	3.24254	-2.21727	3.35904	-2.58395
7034.747	3.16342	-2.18734	3.36691	-2.57274
7038.752	3.15765	-2.23958	3.47290	-2.61820
7042.752	3.10371	-2.18539	3.44664	-2.61790
7046.747	3.08543	-2.20522	3.47047	-2.55605
7050.747	3.08770	-2.15338	3.49980	-2.54434
7054.749	3.09651	-2.15165	3.52492	-2.59756
7058.751	3.12999	-2.14244	3.52840	-2.55344
7062.758	3.18220	-2.12202	3.55936	-2.55630
7066.748	3.17460	-2.02503	3.55367	-2.51369
7070.749	3.03286	-2.06951	3.37991	-2.66771
7074.747	1.93879	-2.23240	3.08802	-3.54043
7078.743	1.06212	-2.90577	2.35169	-4.05934
7082.750	0.80749	-4.66415	1.90953	-4.51499
7086.751	0.66598	-5.15935	1.41115	-5.10159
7090.746	0.64369	-5.35772	1.19018	-5.61998
7094.748	0.67881	-5.10206	1.18470	-5.68359
7098.747	0.73221	-5.21858	1.19934	-5.55187
7102.778	0.75109	-5.16550	1.17225	-5.20569
7106.756	0.71796	-5.13399	1.29630	-4.95626
7110.750	0.70871	-5.15214	1.27075	-5.11529
7114.743	0.70280	-5.13647	1.13117	-5.40780
7118.752	0.62531	-5.07879	1.14097	-5.26379
7122.747	0.55845	-5.13967	1.07093	-5.41798
7126.751	0.62493	-5.12220	1.09854	-5.45784
7130.743	0.68159	-5.03643	1.05565	-5.39146
7134.757	0.71233	-4.98259	1.04094	-5.35567
7138.752	0.72915	-5.01455	0.99271	-5.29361
7142.756	0.73578	-4.92828	0.88776	-5.34160
7146.747	0.78660	-4.91567	0.95244	-5.42595
7150.751	0.80406	-4.93346	0.88411	-5.44750
7154.762	0.79712	-4.96688	0.77327	-5.48200
7158.754	0.78295	-4.94831	0.81339	-5.44915
7162.743	0.77307	-4.95453	0.91512	-5.46725
7166.745	0.73548	-5.00414	0.85493	-5.50102
7170.750	0.85515	-4.99189	0.84029	-5.47408
7174.746	0.84617	-4.98564	0.85297	-5.50570
7178.746	0.87012	-5.02755	0.83275	-5.52899
7182.749	0.85570	-5.04670	0.87902	-5.53424
7186.752	0.79225	-5.08142	0.98134	-5.49933
7190.772	0.76553	-5.07679	0.94316	-5.49451
7194.747	0.79801	-5.08836	0.95130	-5.48463
7198.748	0.80404	-5.06696	1.01104	-5.47948
7202.745	0.79744	-5.09933	1.01352	-5.49213
7206.743	0.80456	-5.09432	0.97244	-5.49808
7210.746	0.85401	-5.14420	0.95624	-5.48043
7214.748	0.81042	-5.19687	0.97256	-5.44008
7218.745	0.89503	-5.14532	1.02598	-5.37188
7222.744	0.90277	-5.17545	1.17701	-5.37826
7226.753	0.88647	-5.25780	1.09686	-5.33940
7230.759	0.91031	-5.42031	1.05337	-5.35004
7234.747	0.99338	-5.28112	1.07498	-5.38219
7238.745	0.97539	-5.28521	1.09455	-5.34265
7242.743	0.99335	-5.23305	1.11415	-5.32180
7246.748	1.05357	-5.16485	1.11710	-5.29029
7250.741	1.07895	-5.11132	1.11576	-5.29471
7254.743	1.10142	-5.01680	1.13965	-5.28998
7258.744	1.13548	-5.17547	1.09966	-5.31119
7262.744	1.06634	-5.13343	1.10130	-5.35934
7266.743	1.02345	-5.15139	1.07612	-5.35958
7270.785	1.01784	-5.06745	1.16203	-5.41579
7274.754	1.05729	-5.01527	1.13593	-5.42677
7278.745	0.96906	-5.11002	1.25657	-5.44323
7282.743	0.92840	-5.10803	1.23265	-5.40775
7286.744	1.05148	-4.99442	1.22407	-5.39501
7290.746	1.03736	-5.13542	1.28698	-5.45272
7294.757	0.88860	-5.08780	1.33212	-5.41763
7298.751	0.82024	-5.20560	1.37392	-5.49176
7302.747	0.85687	-5.19720	1.33252	-5.52927
7306.740	0.83173	-5.05166	1.33465	-5.46214
7310.753	0.84416	-5.32546	1.30379	-5.48151
7314.744	0.91572	-5.25399	1.26373	-5.50978
7318.744	0.93574	-5.38493	1.35864	-5.42902
7322.743	0.99154	-5.31482	1.26190	-5.44526
7326.748	1.01853	-5.21502	1.30342	-5.50216
7330.744	1.02985	-5.31091	1.26381	-5.52129
7334.748	1.00395	-5.15618	1.25381	-5.49855
7338.761	1.04461	-5.32227	1.24974	-5.48620
7342.745	0.89706	-5.27951	1.25426	-5.38306
7346.745	1.01320	-5.18231	1.22008	-5.37091
7350.742	0.82669	-5.25574	1.16101	-5.33494
7354.752	-1.49183	-5.03738	0.20983	-5.25792
7358.749	-2.55636	-4.48123	-1.92649	-4.99777
7362.744	-4.35146	-3.99232	-3.23925	-4.56703
7366.747	-5.31037	-3.13225	-4.19400	-3.80130
7370.741	-6.94883	-2.80667	-5.39389	-3.39099
7374.743	-7.64605	-2.62270	-6.93428	-2.93480
7378.746	-9.49108	-2.27285	-7.29658	-2.30413
7382.742	-9.67475	-2.02251	-7.90180	-2.34509
7386.748	-9.71425	-2.02393	-8.54100	-2.08874
7390.746	-9.12500	-2.17927	-8.32084	-1.97913
7394.743	-9.23454	-2.15406	-7.91227	-1.82104
7398.753	-9.25850	-1.89375	-7.84613	-1.92126
7402.744	-9.12553	-1.87694	-7.92227	-1.85999
7406.767	-9.28419	-1.91637	-8.12184	-1.91530
7410.751	-9.07114	-1.90017	-8.05168	-2.00165
7414.775	-9.34947	-1.79774	-8.05477	-1.99087
7418.748	-9.47633	-1.78030	-8.26779	-1.80985
7422.747	-9.28797	-1.73146	-8.18407	-1.82196
7426.743	-9.25627	-1.76193	-8.27380	-1.96006
7430.742	-9.16228	-1.76205	-8.36968	-1.88414
7434.743	-9.18501	-1.66376	-8.21964	-1.82197
7438.747	-9.23043	-1.77269	-8.25744	-1.89175
7442.741	-9.24351	-1.67463	-8.29941	-1.80578
7446.740	-9.14486	-1.71074	-8.37806	-1.80067
7450.740	-9.14651	-1.58074	-8.36010	-1.81901
7454.740	-9.31443	-1.53360	-8.36095	-1.88377
7458.742	-9.21570	-1.75718	-8.42986	-1.70697
7462.746	-9.23103	-1.56247	-8.42537	-1.74395
7466.740	-9.16383	-1.60336	-8.52586	-1.86305
7470.745	-9.22878	-1.59522	-8.53950	-1.75308
7474.745	-9.20240	-1.56797	-8.43727	-1.77135
7478.752	-9.22129	-1.63857	-8.46645	-1.80203
7482.745	-9.21389	-1.56238	-8.51421	-1.80674
7486.741	-9.24598	-1.56468	-8.56425	-1.76315
7490.739	-9.20054	-1.52608	-8.49746	-1.86231
7494.737	-9.23292	-1.50423	-8.52899	-1.95727
7498.758	-9.29657	-1.49327	-8.59466	-1.83017
7502.745	-9.28992	-1.49129	-8.61392	-1.97551
7506.742	-9.26152	-1.72730	-8.61513	-1.99914
7510.738	-9.26686	-1.64808	-8.48796	-1.89761
7514.745	-9.22419	-1.56417	-8.47435	-1.91569
7518.748	-9.29111	-1.60548	-8.44866	-1.95746
7522.741	-9.30911	-1.54852	-8.53642	-1.98671
7526.738	-9.27902	-1.58196	-8.54265	-1.94383
7530.744	-9.24542	-1.59919	-8.54243	-1.99179
7534.741	-9.25630	-1.63228	-8.55200	-1.98062
7538.744	-9.27697	-1.62194	-8.56527	-1.97967
7542.759	-9.27349	-1.64913	-8.62333	-2.01281
7546.744	-9.22211	-1.65270	-8.69583	-1.99194
7550.746	-9.13490	-1.64247	-8.68490	-2.00551
7554.741	-9.18915	-1.65239	-8.71203	-2.03086
7558.743	-9.14397	-1.64527	-8.74045	-2.04716
7562.743	-9.21636	-1.49989	-8.75722	-2.06451
7566.740	-9.41363	-1.55788	-8.81065	-2.01085
7570.741	-11.34153	-1.05133	-9.40479	-1.89382
7574.744	-13.27748	0.63630	-11.59022	-1.24565
7578.741	-14.67428	1.78657	-13.34698	0.43916
7582.746	-16.63503	2.49667	-14.62633	1.22579
7586.741	-17.83940	3.27695	-15.73304	2.93125
7590.740	-19.45511	3.32730	-17.34257	2.92307
7594.740	-20.43934	3.60043	-17.83079	3.39560
7598.739	-21.75049	4.31722	-18.71643	3.50885
7602.747	-22.35252	4.27944	-19.33874	3.73265
7606.741	-20.01677	-12.07571	-20.06750	4.08524
7610.749	-20.01038	-12.07618	-20.40582	4.35936
7614.744	-22.98472	3.75380	-20.05447	4.68295
7618.738	-20.00707	-12.07643	-20.22956	4.66763
7622.746	-20.00466	-12.07661	-20.29622	4.43047
7626.777	-20.00299	-12.07673	-20.21632	4.53809
7630.742	-20.00424	-12.07664	-20.50556	4.78318
7634.734	-20.04067	-12.07392	-20.52848	4.62511
7638.742	-19.99635	-12.07723	-20.51353	4.65383
7642.744	-19.99379	-12.07742	-20.66220	5.00143
7646.743	NaN	NaN	-20.48903	4.90822
7650.737	NaN	NaN	-20.60832	4.86991
7654.739	NaN	NaN	-20.59032	4.83919
7658.739	NaN	NaN	-20.64349	4.92383
7662.741	NaN	NaN	-20.66811	4.94228
7666.755	NaN	NaN	-20.70237	4.99008
7670.743	NaN	NaN	-20.72714	5.11137
7674.738	NaN	NaN	-20.74490	5.01417
7678.736	NaN	NaN	-20.72397	5.03515
7682.742	NaN	NaN	-20.74323	5.09914
7686.743	-23.02858	5.14719	-20.77693	5.20262
7690.742	NaN	NaN	-20.81731	5.11555
7694.739	-23.33249	5.23701	-20.78129	5.11458
7698.738	-23.41973	5.40575	-20.81898	5.16660
7702.739	-23.31257	5.52022	-20.84307	5.24920
7706.738	NaN	NaN	-20.80718	5.08137
7710.741	-23.28590	5.74414	-20.81146	4.90813
7714.749	-23.33452	5.71729	-20.78131	4.87620
7718.739	-23.27126	5.59910	-20.79137	5.00530
7722.738	-23.20819	5.48623	-20.79738	5.09523
7726.742	-23.26500	5.54405	-20.77254	5.01023
7730.738	-23.26498	5.61829	-20.70734	4.79389
7734.742	-23.26066	5.60036	-20.72126	4.80416
7738.738	-23.22116	5.69285	-20.73965	4.90347
7742.738	-23.15074	5.72899	-20.71427	5.06995
7746.748	-23.19685	5.93940	-20.68352	4.98264
7750.740	-23.15372	5.91076	-20.72864	5.12813
7754.736	-23.17485	5.94771	-20.73142	5.10945
7758.736	-23.19058	6.06612	-20.72197	5.16178
7762.741	-23.09447	5.78374	-20.72352	5.11357
7766.739	-23.06063	5.92343	-20.73231	5.19725
7770.744	-23.05010	5.88939	-20.75269	5.30161
7774.734	-23.00115	5.75238	-20.82529	5.42181
7778.739	-22.98142	5.58893	-20.77517	5.34277
7782.738	-22.97349	5.44180	-20.77237	5.38101
7786.737	-23.00113	5.38250	-20.82572	5.45448
7790.731	-22.73584	5.35287	-20.81000	5.28450
7794.737	-22.49734	5.49241	-20.78944	5.37128
7798.614	-22.45585	5.43888	-20.70193	5.26157
7802.611	-22.50566	5.54246	-20.68512	5.14984
7806.616	-22.32180	5.60524	-20.74255	5.24380
7810.612	-22.32908	5.59336	-20.73213	5.31797
7814.616	-22.31717	5.42430	-20.76224	5.29026
7818.617	-22.28611	5.55465	-20.69931	5.26272
7822.611	-22.28998	5.66337	-20.71435	5.25851
7826.615	-22.23016	5.69313	-20.69952	5.21465
7830.610	-22.15556	5.69805	-20.62324	5.18669
7834.616	-21.78820	5.85249	-20.44292	5.26519
7838.610	-19.97796	5.74033	-18.25684	5.13273
7842.614	-18.07482	5.50481	-16.62263	4.99272
7846.609	-16.11597	4.59186	-14.29408	4.53670
7850.616	-14.65021	4.36323	-13.64642	3.10467
7854.625	-12.99552	3.33494	-11.77299	2.20714
7858.620	-11.45071	3.36628	-9.41052	1.73906
7862.618	-9.25959	2.97169	-8.35078	1.32651
7866.609	-7.43073	2.65223	-5.77868	0.97851
7870.613	-6.06176	2.33466	-4.31267	0.55069
7874.607	-4.21148	2.09036	-2.36170	-0.06209
7878.609	-2.58772	2.02547	-0.91331	-0.43927
7882.626	-1.45862	1.75326	0.96420	-0.37795
7886.617	-0.22209	1.42976	1.45289	-0.61557
7890.608	0.86597	1.40381	1.67702	-0.63902
7894.609	1.16885	1.63374	1.77439	-0.59649
7898.618	1.32642	1.76311	1.44274	-0.75689
7902.608	1.30290	1.83525	1.42657	-0.75357
7906.608	1.20946	1.54952	1.52498	-0.63849
7910.608	1.26981	1.41937	1.42379	-0.68651
7914.608	1.23863	1.34626	1.35955	-0.83739
7918.609	1.29090	1.31257	1.52057	-0.86301
7922.608	1.42677	1.26656	1.57044	-0.87509
7926.608	1.46881	1.12168	1.60816	-0.86939
7930.611	1.51697	1.21611	1.61488	-0.86394
7934.612	1.52484	1.18380	1.75724	-0.82256
7938.612	1.61778	1.29825	1.65163	-0.84046
7942.614	1.47952	1.03093	1.60092	-0.81975
7946.628	1.50120	0.97579	1.62681	-0.76619
7950.624	1.58510	0.74065	1.65091	-0.82273
7954.613	1.58706	0.92559	1.60258	-0.80057
7958.609	1.62862	0.96645	1.68900	-0.75750
7962.608	1.77018	0.86251	1.65602	-0.77872
7966.612	1.47831	0.89000	1.62192	-0.75949
7970.610	1.47409	0.84289	1.65161	-0.68028
7974.611	1.55983	0.73684	1.60513	-0.85111
7978.620	1.54477	0.72475	1.59829	-0.86696
7982.617	1.47724	0.77504	1.57094	-0.71416
7986.609	1.47759	0.82146	1.57957	-0.75953
7990.607	1.44145	0.58447	1.59531	-0.94113
7994.610	1.43786	0.67620	1.61295	-0.99956
7998.626	1.39448	0.73150	1.61642	-0.81897
8002.611	1.38505	0.64631	1.59264	-0.95512
8006.608	1.43091	0.57923	1.60823	-1.06144
8010.610	1.50251	0.46714	1.61565	-1.09101
8014.607	1.56149	0.62152	1.65032	-1.12404
8018.626	1.61818	0.63323	1.63278	-1.02676
8022.617	1.50227	0.61930	1.58807	-1.14719
8026.608	1.59978	0.46359	1.62522	-1.19871
8030.606	1.57662	0.38476	1.61917	-1.20964
8034.611	1.58552	0.43419	1.63760	-1.20486
8038.607	1.57798	0.41638	1.66348	-1.22123
8042.611	1.61858	0.38674	1.69926	-1.21495
8046.612	1.64528	0.41115	1.59896	-1.21663
8050.607	1.67499	0.41080	1.60261	-1.19540
8054.606	1.64208	0.39998	1.62349	-1.21969
8058.607	1.67863	0.37088	1.64424	-1.19274
8062.608	1.70650	0.34738	1.64303	-1.24347
8066.611	1.70378	0.32257	1.77603	-1.20959
8070.644	1.61880	0.32075	1.70502	-1.18960
8074.606	1.56506	0.28506	1.72198	-1.17887
8078.607	1.54658	0.22358	1.74226	-1.15323
8082.602	1.59792	0.17263	1.72024	-1.15871
8086.647	1.60727	0.13937	1.59973	-1.14199
8090.619	1.59159	0.08947	1.68367	-1.15709
8094.610	1.59271	0.07256	1.73980	-1.14069
8098.609	1.58713	0.07427	1.74771	-1.15390
8102.605	1.57922	0.07109	1.78907	-1.16266
8106.616	1.51958	0.04630	1.72999	-1.15510
8110.607	1.57503	0.01570	1.74434	-1.14032
8114.608	1.63529	0.02874	1.75870	-1.07558
8118.604	1.77682	0.04776	1.75882	-0.97522
8122.609	1.74283	0.02981	1.73281	-1.02323
8126.604	1.74457	-0.03795	1.77754	-1.05824
8130.609	1.65917	-0.15107	1.80695	-1.07104
8134.601	1.65136	-0.03666	1.61756	-1.10466
8138.619	1.67707	-0.11756	1.68000	-1.07595
8142.609	1.67033	-0.16495	1.71248	-1.01046
8146.608	1.67486	-0.10365	1.75602	-0.99961
8150.613	1.71863	-0.08817	1.76006	-0.95943
8154.647	1.80100	-0.04396	1.74236	-0.91956
8158.609	1.71355	-0.16261	1.71164	-1.14352
8162.606	1.65642	-0.16322	1.70802	-1.19675
8166.609	1.59643	-0.18585	1.73512	-1.24020
8170.605	1.69723	-0.40878	1.75562	-1.08403
8174.605	1.83556	-0.42606	1.87624	-1.39041
8178.608	2.17249	-1.34313	2.82618	-1.96972
8182.603	2.62402	-1.86381	4.30309	-2.75873
8186.609	2.60835	-2.92669	4.27842	-3.59199
8190.610	2.87760	-3.30954	4.42121	-4.12263
8194.603	3.05726	-3.76414	4.46381	-4.50992
8198.604	3.07325	-3.60924	4.30842	-4.54393
8202.606	3.06523	-3.50105	3.64872	-4.26173
8206.608	3.08444	-3.30128	3.26364	-4.33635
8210.603	3.24340	-3.19424	3.51532	-4.25690
8214.608	3.28447	-3.33081	3.98299	-4.09514
8218.604	3.32320	-3.32979	3.69301	-4.29974
8222.608	3.36124	-3.37032	3.94080	-4.34120
8226.602	3.37705	-3.37482	3.99899	-4.38449
8230.611	3.43415	-3.35890	3.96960	-4.40370
8234.608	3.40848	-3.35150	3.76015	-4.46007
8238.600	3.34116	-3.39165	3.66256	-4.40586
8242.609	3.29290	-3.39083	3.74182	-4.39435
8246.604	3.35135	-3.41204	3.83742	-4.46171
8250.607	3.45561	-3.40519	3.84127	-4.51196
8254.603	3.51204	-3.46890	3.82917	-4.51883
8258.603	3.47517	-3.42487	3.84038	-4.51815
8262.605	3.43219	-3.45809	3.95375	-4.52272
8266.640	3.42463	-3.46054	3.90881	-4.48179
8270.597	3.52175	-3.45243	3.83250	-4.43170
8274.613	3.63307	-3.47262	3.84686	-4.44902
8278.618	3.63436	-3.39211	3.89619	-4.45633
8282.610	3.68631	-3.41697	3.88648	-4.46983
8286.599	3.77211	-3.37759	3.90049	-4.51369
8290.604	3.73893	-3.37841	3.92144	-4.33676
8294.614	3.77696	-3.38852	4.00712	-4.41133
8298.608	3.75249	-3.36153	3.76277	-4.38562
8302.603	3.76003	-3.43079	3.73542	-4.45149
8306.601	3.71293	-3.52898	3.73544	-4.45132
8310.602	3.73890	-3.57371	3.77355	-4.48274
8314.609	3.71288	-3.72303	3.86143	-4.46474
8318.602	3.67042	-3.87334	3.88796	-4.51332
8322.599	3.62422	-3.82091	3.84169	-4.56843
8326.605	3.61789	-3.95483	3.73389	-4.48977
8330.604	3.60348	-3.90851	3.81703	-4.40011
8334.602	3.61485	-3.94949	3.87522	-4.43342
8338.600	3.63651	-3.94571	3.80765	-4.40659
8342.605	3.71046	-3.91585	3.71199	-4.38814
8346.601	3.73448	-3.82794	3.78207	-4.31713
8350.606	3.77241	-3.81938	3.80728	-4.33382
8354.596	3.86069	-3.85804	3.83611	-4.34344
8358.610	3.90424	-3.69334	3.79677	-4.37070
8362.606	3.87403	-3.66854	3.83183	-4.37957
8366.604	3.84691	-3.65972	3.77340	-4.28273
8370.597	3.85390	-3.71267	3.79932	-4.26912
8374.602	3.81928	-3.67115	3.85899	-4.28297
8378.603	3.84399	-3.69696	3.84589	-4.28272
8382.605	3.81442	-3.65870	3.67153	-4.26330
8386.602	3.76853	-3.74704	3.59641	-4.29793
8390.601	3.34168	-3.83721	3.56482	-4.34222
8394.599	1.74201	-4.20807	2.90282	-4.57867
8398.610	0.81821	-4.84319	2.47103	-5.30772
8402.600	0.69791	-5.21260	1.69495	-5.70188
8406.600	0.61511	-5.11496	1.44847	-5.84404
8410.601	0.75392	-5.77388	1.55244	-6.11706
8414.605	0.64211	-5.94928	1.53260	-6.29415
8418.602	0.71300	-6.41714	1.36536	-6.32541
8422.600	0.83354	-6.31838	1.18344	-5.89331
8426.650	0.94572	-6.04368	1.35390	-6.01447
8430.614	0.98308	-6.30125	1.22370	-6.33324
8434.600	0.74903	-6.40551	1.27852	-6.34705
8438.609	0.72642	-6.31208	1.22164	-6.26177
8442.597	0.76233	-6.42112	1.26262	-6.20845
8446.604	0.83076	-6.48288	1.19852	-6.25861
8450.600	0.84022	-6.40485	1.21387	-6.29255
8454.604	1.08341	-6.45842	1.15590	-6.38822
8458.599	1.06597	-6.39516	1.15808	-6.35541
8462.606	0.90885	-6.36687	1.05188	-6.35578
8466.600	0.89274	-6.37775	1.17999	-6.40335
8470.600	0.91671	-6.42403	1.18180	-6.42688
8474.598	0.79101	-6.46595	1.03667	-6.32548
8478.603	0.81032	-6.41540	1.08411	-6.32209
8482.607	0.86036	-6.40381	1.00551	-6.30767
8486.637	0.82788	-6.42148	1.04699	-6.39485
8490.603	0.78466	-6.43070	0.90974	-6.44166
8494.624	0.80970	-6.49989	0.95839	-6.50628
8498.606	0.79754	-6.51374	1.08798	-6.41729
8502.598	0.77431	-6.50703	0.81898	-6.44821
8506.599	0.74288	-6.53845	1.00094	-6.43401
8510.602	0.78828	-6.51682	0.92182	-6.47524
8514.597	0.83935	-6.45716	0.88175	-6.41850
8518.602	0.78235	-6.40190	0.88862	-6.38622
8522.603	0.84568	-6.41448	0.87880	-6.48089
8526.602	0.77702	-6.43275	0.89145	-6.56300
8530.602	0.78699	-6.34429	0.81332	-6.43166
8534.595	0.81526	-6.32854	0.86468	-6.34206
8538.598	0.80692	-6.27480	0.88408	-6.32502
8542.602	0.79285	-6.21358	1.03213	-6.42187
8546.598	0.83456	-6.19763	0.82821	-6.37523
8550.602	0.87086	-6.17088	0.83791	-6.35813
8554.600	0.83324	-6.13778	0.95614	-6.28798
8558.599	0.85746	-6.06555	0.94321	-6.30749
8562.640	0.89242	-6.07259	0.91493	-6.33910
8566.606	0.87962	-6.19584	0.97656	-6.29015
8570.597	0.90249	-6.15788	1.03327	-6.26569
8574.603	0.91418	-6.35609	0.84240	-6.28238
8578.597	1.03985	-6.37332	0.92078	-6.30895
8582.603	0.96492	-6.33737	0.89575	-6.34444
8586.592	0.88902	-6.29033	1.01027	-6.29890
8590.597	0.82860	-6.41152	0.90039	-6.30052
8594.598	0.86354	-6.37298	0.93224	-6.27511
8598.597	0.87071	-6.29757	0.94177	-6.32160
8602.601	0.87624	-6.44120	0.91061	-6.27674
8606.614	0.88123	-6.47649	0.93232	-6.29666
8610.607	0.88443	-6.50963	1.02106	-6.28081
8614.601	0.88662	-6.43944	0.94311	-6.27005
8618.598	0.87875	-6.42422	0.94768	-6.30839
8622.601	0.83181	-6.28418	1.06905	-6.41993
8626.595	0.88150	-6.24097	0.99717	-6.33198
8630.620	0.96738	-6.28214	0.98953	-6.26776
8634.605	0.96375	-6.30303	1.09599	-6.27513
8638.597	0.94425	-6.25954	0.95820	-6.27616
8642.598	0.94083	-6.32146	0.97373	-6.25208
8646.599	0.92840	-6.24379	1.06783	-6.32038
8650.602	0.96142	-6.21674	1.09542	-6.33353
8654.480	0.92004	-6.14383	1.05540	-6.23591
8658.476	0.93485	-6.15039	1.06778	-6.27060
8662.469	0.98536	-6.27088	1.06289	-6.25303
8666.477	1.00303	-6.21023	1.05009	-6.36768
8670.473	0.99355	-6.18574	0.86299	-6.35765
8674.471	0.98519	-6.11650	0.82937	-6.42361
8678.473	1.00335	-6.09743	0.85185	-6.49533
8682.470	1.07629	-6.26990	0.92088	-6.51248
8686.472	1.04617	-6.21378	0.97636	-6.58435
8690.470	1.06528	-6.27829	0.87061	-6.58114
8694.479	1.06917	-6.34742	0.85002	-6.62263
8698.473	1.01749	-6.35408	0.86778	-6.63375
8702.473	1.03689	-6.35230	0.89212	-6.60802
8706.477	0.98422	-6.20067	0.92678	-6.62958
8710.516	0.91354	-6.23043	0.88922	-6.64058
8714.475	0.90788	-6.32402	0.91230	-6.64630
8718.469	0.87572	-6.22053	1.03064	-6.59665
8722.467	0.82156	-6.32635	1.09693	-6.55934
8726.467	0.76015	-6.31429	1.01898	-6.56406
8730.476	0.74717	-6.26190	1.14265	-6.61964
8734.477	0.77325	-6.28697	1.16354	-6.62587
8738.475	0.75372	-6.30517	1.22325	-6.62982
8742.474	0.78359	-6.27697	1.17369	-6.61656
8746.470	0.76503	-6.21326	1.21693	-6.64594
8750.471	0.75347	-6.28585	1.19080	-6.65341
8754.468	0.72987	-6.31760	1.16476	-6.60721
8758.474	0.72618	-6.30722	1.19142	-6.54586
8762.468	0.72293	-6.33737	1.08542	-6.47188
8766.503	0.75523	-6.27377	1.00896	-6.51928
8770.470	0.75605	-6.22950	1.01848	-6.49086
8774.468	0.80307	-6.27581	0.97683	-6.46342
8778.479	0.77082	-6.23741	0.94668	-6.43060
8782.470	0.78992	-6.19608	0.90031	-6.41481
8786.464	0.80786	-6.16002	0.91371	-6.40728
8790.467	0.89632	-6.17290	0.92798	-6.35508
8794.469	0.91100	-6.23454	0.89825	-6.33498
8798.475	0.89374	-6.22214	0.92336	-6.34868
8802.467	0.96909	-6.21391	0.92842	-6.42516
8806.468	0.98571	-6.17368	1.03426	-6.43961
8810.466	0.98442	-6.20838	1.09579	-6.44205
8814.473	1.03714	-6.27302	1.10782	-6.43889
8818.473	0.98375	-6.22061	1.14369	-6.37953
8822.470	0.99181	-6.19169	1.15776	-6.36007
8826.462	0.97497	-6.13831	1.19512	-6.30653
8830.468	0.95820	-6.03781	1.16329	-6.36020
8834.467	0.99375	-6.04357	1.14526	-6.37592
8838.469	0.95326	-6.07878	1.15952	-6.36016
8842.509	0.88776	-6.03235	1.10857	-6.40913
8846.476	-0.22073	-5.92379	0.54615	-6.42257
8850.469	-2.24024	-5.91067	-0.91560	-6.35390
8854.467	-3.93406	-5.81914	-2.20604	-6.33917
8858.471	-5.21592	-5.78874	-3.20924	-6.18628
8862.476	-5.86450	-5.75091	-4.61578	-6.27994
8866.464	-8.15275	-5.72439	-5.22822	-6.30096
8870.474	-9.23887	-5.76094	-7.65417	-6.26280
8874.468	-9.65568	-5.94909	-7.82414	-6.23200
8878.471	-9.51218	-6.49918	-8.17364	-6.22775
8882.468	-9.14801	-6.43652	-8.05455	-6.25642
8886.472	-8.65383	-6.52191	-7.95813	-6.21669
8890.468	-8.79773	-6.34776	-7.99002	-6.17351
8894.466	-9.00293	-6.48413	-8.14662	-6.17140
8898.468	-9.19408	-6.71162	-8.15822	-6.14754
8902.471	-9.13734	-6.67128	-8.12666	-6.19614
8906.468	-9.06400	-6.71555	-8.22295	-6.17596
8910.473	-9.15488	-6.71819	-8.35085	-6.13251
8914.470	-9.19628	-6.71927	-8.33175	-6.12979
8918.472	-9.18845	-6.68175	-8.37988	-6.08451
8922.470	-9.17986	-6.62491	-8.37798	-6.04533
8926.466	-9.03839	-6.61025	-8.48993	-6.01078
8930.470	-9.19258	-6.62034	-8.56588	-6.00870
8934.463	-9.15362	-6.59030	-8.60019	-6.02403
8938.471	-9.12106	-6.56508	-8.59002	-6.02679
8942.473	-9.01111	-6.49893	-8.63503	-5.96195
8946.477	-8.95683	-6.44542	-8.54404	-5.95058
8950.462	-8.71586	-6.38816	-8.59934	-5.96467
8954.470	-8.63670	-6.34317	-8.65894	-5.94937
8958.468	-8.71123	-6.32280	-8.63522	-5.94172
8962.472	-8.69484	-6.29571	-8.64150	-6.02425
8966.469	-8.58202	-6.28847	-8.66142	-6.03017
8970.469	-8.64376	-6.34582	-8.59407	-6.12640
8974.470	-8.51960	-6.27835	-8.38257	-6.24208
8978.464	-8.52622	-6.28535	-8.44237	-6.10789
8982.468	-8.45235	-6.24794	-8.40800	-6.09681
8986.470	-8.48469	-6.28117	-8.38962	-6.15212
8990.465	-8.58517	-6.25737	-8.47575	-6.18995
8994.470	-8.62780	-6.22414	-8.48228	-6.21360
8998.472	-8.73465	-6.21209	-8.40526	-6.27536
9002.465	-8.77291	-6.20306	-8.44562	-6.27442
9006.470	-8.80796	-6.19767	-8.45334	-6.24554
9010.465	-8.81988	-6.21390	-8.43562	-6.27050
9014.469	-8.89533	-6.23753	-8.45016	-6.25067
9018.463	-8.92418	-6.25628	-8.46451	-6.24301
9022.470	-9.05739	-6.26874	-8.54950	-6.25654
9026.469	-9.06792	-6.28819	-8.53083	-6.31043
9030.470	-9.11736	-6.34402	-8.53440	-6.34807
9034.463	-9.12815	-6.27623	-8.53345	-6.37054
9038.463	-9.11692	-6.29163	-8.55442	-6.35684
9042.474	-9.05333	-6.36117	-8.54714	-6.36519
9046.467	-9.04420	-6.41368	-8.50981	-6.38676
9050.468	-9.05979	-6.39559	-8.44174	-6.40815
9054.462	-9.16658	-6.34298	-8.47534	-6.40145
9058.464	-9.10637	-6.26488	-8.43173	-6.37527
9062.464	-9.14031	-6.18942	-8.39159	-6.36974
9066.459	-9.22388	-6.10272	-8.28250	-6.36528
9070.468	-9.13664	-6.14321	-8.23987	-6.24458
9074.464	-9.03006	-6.10184	-8.20252	-6.17732
9078.468	-8.99450	-6.21302	-8.22193	-6.09691
9082.468	-8.77979	-6.16585	-8.23238	-6.13972
9086.464	-8.93164	-6.23107	-8.42192	-6.06381
9090.468	-9.14104	-6.39614	-8.35848	-6.05896
9094.468	-9.25963	-6.17431	-8.37954	-6.03802
9098.464	-9.13865	-6.24875	-8.34494	-6.06347
9102.467	-9.09359	-6.41964	-8.28118	-6.05163
9106.465	-9.07397	-6.49749	-8.50615	-6.05075
9110.474	-9.16903	-6.45468	-8.66877	-6.03499
9114.468	-9.37158	-6.44060	-8.64112	-6.13891
9118.464	-9.37407	-6.36109	-8.57918	-6.22112
9122.464	-9.31197	-6.34438	-8.59143	-6.23765
9126.470	-9.20620	-6.42157	-8.53394	-6.23086
9130.464	-9.20881	-6.39246	-8.67194	-6.23582
9134.463	-9.12669	-6.37745	-8.53457	-6.22932
9138.471	-9.20775	-6.41445	-8.49367	-6.27607
9142.466	-9.06429	-6.20101	-8.35075	-6.22745
9146.462	-7.71869	-5.87266	-7.55630	-6.08253
9150.468	-6.79743	-5.53355	-5.70878	-5.08845
9154.473	-5.51309	-4.09179	-4.85361	-4.74634
9158.462	-4.98063	-3.70979	-4.07024	-4.70128
9162.461	-3.63095	-3.26624	-2.99715	-4.47397
9166.464	-3.03724	-3.22297	-1.99411	-4.21860
9170.465	-2.03018	-3.00028	-1.22469	-3.82223
9174.464	-1.36980	-2.67617	-0.91004	-3.39164
9178.463	-0.65717	-2.63699	-0.24996	-3.21877
9182.464	-0.99546	-2.34670	-0.34295	-2.99336
9186.459	-1.17332	-2.29480	-0.81369	-2.84124
9190.466	-1.42538	-2.27004	-0.65084	-2.59621
9194.468	-1.16828	-2.35272	-0.65002	-2.68200
9198.461	-1.19281	-2.10940	-0.57491	-2.54501
9202.461	-1.17480	-2.27518	-0.52242	-2.58365
9206.460	-1.24151	-2.22579	-0.58719	-2.50473
9210.466	-1.14295	-2.17881	-0.59885	-2.57067
9214.464	-1.08803	-2.23776	-0.49776	-2.57155
9218.466	-1.14707	-2.22700	-0.40549	-2.51757
9222.461	-1.19214	-2.27975	-0.47038	-2.46755
9226.465	-1.25597	-2.31485	-0.47855	-2.43441
9230.479	-1.23382	-2.28222	-0.44229	-2.47823
9234.470	-1.19763	-2.40659	-0.41954	-2.48411
9238.467	-1.20102	-2.42404	-0.40852	-2.48099
9242.461	-1.19289	-2.44657	-0.39467	-2.47953
9246.467	-1.20651	-2.43130	-0.39455	-2.49749
9250.461	-1.18091	-2.44879	-0.37447	-2.49345
9254.465	-1.18991	-2.45622	-0.38827	-2.50369
9258.457	-1.22315	-2.44443	-0.39335	-2.46038
9262.472	-1.22863	-2.45286	-0.42189	-2.44502
9266.468	-1.22930	-2.42680	-0.40829	-2.44622
9270.465	-1.19383	-2.40647	-0.42162	-2.43389
9274.460	-1.20599	-2.44400	-0.38956	-2.38744
9278.471	-1.21576	-2.43092	-0.38516	-2.34785
9282.462	-1.28281	-2.34746	-0.46237	-2.34949
9286.464	-2.35642	-2.08953	-0.88071	-2.29156
9290.457	-5.05361	-1.62237	-3.14706	-1.67253
9294.471	-7.19632	0.65282	-5.05725	-0.79730
9298.463	-9.72510	1.28256	-7.23318	0.74796
9302.462	-11.08890	1.86364	-8.83016	2.77077
9306.461	-13.52217	2.67499	-10.91117	2.87074
9310.466	-13.78223	3.46723	-13.14844	3.51319
9314.466	-16.34679	4.41030	-14.16473	5.16748
9318.465	-18.11881	5.04448	-14.89212	5.40849
9322.461	-19.17139	5.83179	-15.61624	5.73844
9326.459	-20.72810	6.41198	-16.33754	6.13858
9330.465	-22.41022	6.72305	-17.15936	6.45685
9334.460	-22.62029	7.17483	-18.90400	7.43976
9338.498	-22.56981	7.57057	-18.98311	7.74152
9342.457	-22.15143	7.51910	-19.01189	7.87773
9346.464	-22.19087	7.36841	-18.57176	7.86148
9350.459	-22.44311	7.68521	-18.41250	7.79641
9354.463	-22.48312	7.38009	-18.60745	7.68433
9358.470	-22.27228	7.57053	-18.62459	7.73601
9362.467	-22.42400	7.64262	-18.58128	7.84787
9366.463	-22.39303	7.63205	-18.63507	7.94762
9370.458	-22.51210	7.75218	-18.76862	7.99852
9374.462	-22.55678	7.76703	-18.74668	8.29682
9378.457	-22.46365	7.77430	-18.74890	8.19088
9382.464	-22.35989	7.79608	-18.73537	8.20983
9386.459	-22.40122	7.84770	-18.71460	8.52325
9390.459	-22.45593	7.89587	-18.79311	8.44824
9394.460	-22.51477	7.93271	-18.80419	8.47738
9398.460	-22.58611	7.97974	-18.82169	8.56845
9402.463	-21.72743	7.93369	-18.81299	8.22746
9406.469	-21.72910	7.88591	-18.83200	8.52787
9410.464	-22.58473	7.93848	-18.91204	8.65512
9414.459	-22.66483	7.91723	-18.91269	8.69159
9418.457	-22.25570	7.82941	-18.93427	8.61247
9422.460	-21.94317	7.90495	-18.88412	8.25499
9426.458	-22.01787	7.95503	-18.86439	8.62114
9430.456	-21.64096	7.94571	-18.85657	8.37730
9434.463	-21.72469	7.88413	-18.86934	8.58845
9438.457	-21.87627	7.93456	-18.89028	8.55210
9442.467	-21.95797	7.95523	-18.88685	8.42309
9446.472	-21.98196	7.98244	-19.05771	8.52244
9450.460	-22.22706	7.99663	-18.98957	8.47461
9454.456	-22.25059	7.96611	-18.93172	8.38015
9458.463	-21.82314	7.94591	-18.95930	8.40714
9462.455	-21.78153	7.94928	-18.90536	7.97259
9466.461	-21.83719	7.98742	-18.96405	8.36369
9470.456	-21.88046	7.89207	-18.92986	8.36724
9474.460	-21.99357	7.91099	-19.01246	8.30375
9478.459	-21.75145	7.87933	-19.06283	8.36516
9482.458	-21.84628	7.88832	-18.98715	8.30083
9486.462	-22.13843	7.86851	-19.08905	8.51624
9490.456	-21.71586	7.77443	-19.00552	8.55056
9494.454	-21.29250	7.68342	-19.01741	8.35767
9498.459	-21.59280	7.77063	-18.96755	8.44084
9502.459	-21.96533	7.84711	-19.07416	8.68037
9506.332	-21.66744	7.80138	-18.96249	8.57919
9510.331	-21.77136	7.85368	-19.10470	8.57967
9514.332	-22.11410	8.17638	-19.19833	8.84392
9518.335	-20.45161	-12.04296	-19.61426	9.33016
9522.329	-20.25187	-12.05809	-20.91926	11.04402
9526.337	-20.17080	-12.06418	-21.08525	11.35525
9530.339	-20.12957	-12.06728	-21.13656	11.51831
9534.334	-20.08858	-12.07035	-21.08056	12.02253
9538.335	-20.02703	-12.07494	-21.03260	11.65069
9542.333	-22.48041	10.69907	-20.78610	11.69116
9546.335	-22.63849	10.41133	-20.87848	11.91749
9550.339	-22.91639	10.39413	-20.93784	11.93755
9554.332	-23.14267	10.28474	-20.95899	12.10746
9558.372	-23.26506	10.39928	-20.97478	12.20177
9562.326	-23.17793	10.42304	-21.04764	12.04167
9566.336	-23.26594	10.44801	-20.99367	12.45897
9570.331	-23.22194	10.42441	-21.02501	12.53760
9574.339	-19.99385	-12.07741	-21.02008	12.41800
9578.329	-19.99385	-12.07741	-21.02146	12.14432
9582.330	-23.29670	10.47090	-21.05441	12.21898
9586.333	-19.99379	-12.07742	-21.09102	12.23718
9590.335	-23.33693	10.29561	-21.09074	12.32739
9594.348	-23.09968	10.39406	-21.04347	12.15326
9598.334	-22.59747	10.38602	-21.07291	12.25070
9602.330	-22.55853	10.33434	-21.05780	12.22482
9606.328	-22.36360	10.34181	-20.97937	12.26248
9610.329	-22.54223	10.33835	-20.98724	12.27009
9614.334	-22.49486	10.39331	-20.97749	12.33565
9618.331	-22.39444	10.42386	-21.01978	12.51727
9622.328	-22.44457	10.43484	-21.01993	12.52639
9626.333	-22.34634	10.45710	-21.03655	12.79120
9630.332	-22.39045	10.50031	-21.07496	12.78245
9634.334	-22.43073	10.56454	-21.07116	13.00017
9638.325	-22.48766	10.57934	-21.11603	13.14045
9642.333	-22.58719	10.62628	-21.05326	12.92301
9646.331	-22.59089	10.67387	-20.75892	12.69490
9650.334	-22.78659	10.71341	-20.96145	12.71500
9654.331	-22.63845	10.77997	-20.90672	12.48805
9658.334	-22.59508	10.78557	-21.03366	12.44068
9662.324	-22.54846	10.80034	-20.99235	12.74469
9666.353	-22.55373	10.79644	-20.94788	12.73877
9670.333	-22.47200	10.80848	-20.82596	12.76504
9674.334	-22.61667	10.84646	-20.86077	12.88520
9678.328	-22.71679	10.84026	-20.89041	12.85893
9682.329	-22.80547	10.85882	-20.93256	12.79653
9686.337	-22.84704	10.82903	-21.00081	12.52513
9690.331	-22.84127	10.79609	-21.04237	12.68553
9694.328	-22.90001	10.83970	-21.01651	12.73091
9698.337	-22.75431	10.84869	-20.96275	12.77653
9702.325	-22.51352	10.96828	-20.78634	13.09911
9706.327	-22.45773	11.22444	-20.35767	13.58713
9710.328	-22.34350	11.44316	-20.37961	-12.04843
9714.325	-22.15156	12.32189	-20.28578	-12.05553
9718.329	-21.87796	12.82835	-20.20622	-12.06152
9722.332	-21.36419	13.14793	-20.14955	-12.06578
9726.331	-21.23985	13.19073	-20.11126	-12.06865
9730.332	-21.34077	13.25999	-20.08206	-12.07083
9734.330	-20.90863	13.34941	-20.05657	-12.07274
9738.336	-20.82668	13.39325	-20.02475	-12.07511
9742.329	-21.14868	13.38887	-19.99234	-12.07753
9746.329	-21.22307	13.40853	-19.97500	-12.07882
9750.328	-21.30211	13.42501	NaN	NaN
9754.327	-21.19471	13.42142	NaN	NaN
9758.326	-20.94329	13.44609	NaN	NaN
9762.333	-20.75297	13.41928	NaN	NaN
9766.331	-20.96143	13.37070	NaN	NaN
9770.329	-20.56461	13.33386	NaN	NaN
9774.326	-20.69516	13.28752	NaN	NaN
9778.333	-20.71852	13.39566	NaN	NaN
9782.334	-20.94591	13.38862	NaN	NaN
9786.389	-21.14509	13.45990	NaN	NaN
9790.342	-20.81323	13.59086	NaN	NaN
9794.336	-20.61060	13.33709	NaN	NaN
9798.327	-20.65619	13.35607	NaN	NaN
9802.326	-20.79556	13.33540	NaN	NaN
9806.328	-20.71857	13.45208	NaN	NaN
9810.330	-20.61728	13.22689	NaN	NaN
9814.322	-20.75317	13.30990	NaN	NaN
9818.326	-20.77155	13.43233	NaN	NaN
9822.329	-20.61717	13.40073	NaN	NaN
9826.331	-20.65953	13.40275	NaN	NaN
9830.325	-20.65712	13.34602	NaN	NaN
9834.331	-20.81293	13.31732	NaN	NaN
9838.325	-20.92454	13.31624	NaN	NaN
9842.329	-20.83019	13.37866	NaN	NaN
9846.324	-20.88777	13.31511	NaN	NaN
9850.331	-20.89938	13.32376	NaN	NaN
9854.352	-21.00829	13.33965	NaN	NaN
9858.332	-20.92768	13.42645	NaN	NaN
9862.321	-20.89052	13.45610	NaN	NaN
9866.329	-20.99038	13.48182	NaN	NaN
9870.325	-21.02592	13.51688	NaN	NaN
9874.330	-20.90651	13.51820	NaN	NaN
9878.322	-20.76245	13.53150	NaN	NaN
9882.325	-20.55299	13.52617	NaN	NaN
9886.326	-18.65646	13.66626	NaN	NaN
9890.330	-18.33561	13.48833	NaN	NaN
9894.362	-15.82956	11.86724	NaN	NaN
9898.334	-15.13286	11.68479	NaN	NaN
9902.325	-13.77932	11.20859	-12.04327	13.68222
9906.325	-12.51255	10.58543	-10.46390	12.30631
9910.334	-10.82462	9.99818	-9.39409	10.44070
9914.325	-9.84681	9.53129	-8.74462	9.81898
9918.329	-8.13877	8.32185	-6.12283	7.79741
9922.325	-6.77592	7.70539	-5.39952	7.23654
9926.323	-4.55559	7.19241	-3.42154	6.84323
9930.331	-3.23069	6.59852	-2.22587	6.22017
9934.327	-2.20543	6.11975	-0.65183	5.17122
9938.328	-0.98415	5.25238	-0.58625	5.03156
9942.323	-0.13208	4.67099	-0.32014	3.93257
9946.340	-0.12774	4.12739	0.06232	3.29504
9950.329	-0.07326	4.55479	-0.45517	3.69895
9954.326	-0.13818	4.54770	-0.56796	4.58801
9958.324	-0.16035	4.64186	-0.36340	4.45121
9962.332	-0.11086	4.80471	-0.30265	3.60896
9966.337	-0.21832	4.57096	-0.22854	3.60277
9970.330	-0.19690	4.62324	-0.25339	4.19543
9974.324	-0.14766	4.55461	-0.30032	4.38610
9978.329	-0.10533	4.54980	-0.30131	3.79289
9982.331	-0.10706	4.40189	-0.15169	3.64649
9986.327	-0.19117	4.49373	-0.26048	3.97352
9990.329	-0.17065	4.55031	-0.10940	3.81151
9994.333	-0.21279	4.43788	-0.11041	3.59536
9998.329	-0.10736	4.43980	-0.10227	3.75619
10002.323	-0.12056	4.50772	-0.05949	3.63895
10006.326	-0.09768	4.48142	-0.02028	3.56564
10010.369	-0.07872	4.39317	-0.01494	3.58443
10014.326	-0.06547	4.34339	0.03360	3.63482
10018.320	-0.02534	4.30213	0.09818	3.56046
10022.327	-0.00271	4.30725	0.10972	3.62853
10026.324	-0.07418	4.22075	0.10247	3.68179
10030.335	-0.05083	4.19092	0.04174	3.69934
