time (ms)	lx (deg)	ly (deg)	rx (deg)	ry (deg)
0.000	-0.66449	0.22899	0.69377	0.71726
3.973	-0.74302	0.21766	0.67771	0.74598
7.975	-0.69749	0.20730	0.67891	0.73574
11.987	-0.74866	0.19930	0.65044	0.76379
15.973	-0.75563	0.22238	0.62761	0.78004
19.965	-0.72732	0.23893	0.64603	0.76444
23.968	-0.74427	0.24427	0.63620	0.73960
27.962	-0.72709	0.34393	0.63657	0.76812
31.967	-0.69144	0.36508	0.65660	0.80921
35.961	-0.60325	0.42653	0.62081	0.77530
39.964	-0.58888	0.56072	0.58910	0.66313
43.962	-0.54669	0.63280	0.58399	0.63988
47.965	-0.50264	0.64317	0.54218	0.57988
51.965	-0.49361	0.61912	0.48867	0.45238
55.971	-0.49421	0.60749	0.42629	0.41106
59.959	-0.48979	0.58660	0.41936	0.56963
63.967	-0.43698	0.61907	0.35457	0.68775
67.964	-0.37730	0.66790	0.29662	0.67066
71.965	-0.42490	0.68775	0.27178	0.87638
75.967	-0.43398	0.71662	0.23584	0.98231
79.963	-0.45981	0.73796	0.25361	0.89889
83.966	-0.53098	0.74965	0.19179	0.97622
87.958	-0.59401	0.71570	0.15650	0.90642
91.961	-0.53754	0.72831	0.16124	0.96492
95.971	-0.58081	0.69417	0.17362	1.01918
99.962	-0.65484	0.81318	0.20949	1.01192
103.961	-0.68059	0.83881	0.24353	1.01718
107.960	-0.69340	0.84944	0.26656	0.97893
111.959	-0.72843	0.84574	0.27197	0.96325
115.960	-0.73188	0.84027	0.31823	0.94109
119.964	-0.80315	0.84125	0.30977	0.92745
123.963	-0.85386	0.82770	0.32347	0.95843
127.957	-0.81483	0.82406	0.36616	0.94724
131.961	-0.79687	0.77448	0.41261	0.96383
135.965	-0.81208	0.72429	0.41601	0.87390
139.971	-0.77007	0.78101	0.41266	0.74820
143.962	-0.74340	0.66053	0.40197	0.59475
147.966	-0.71057	0.62543	0.41293	0.42450
151.962	-0.68263	0.59351	0.42812	0.79517
155.965	-0.67471	0.55654	0.45847	0.68953
159.961	-0.67918	0.51326	0.47966	0.80371
163.964	-0.72873	0.56737	0.51277	0.70364
167.961	-0.71235	0.62344	0.54009	0.66314
171.962	-0.73829	0.58925	0.59178	0.58400
175.967	-0.74724	0.64219	0.57657	0.51143
179.967	-0.78947	0.73523	0.58957	0.42906
183.961	-0.88329	0.75175	0.58856	0.65675
187.957	-0.90195	0.68974	0.59694	0.83262
191.965	-0.89706	0.79977	0.57295	0.87001
195.963	-0.79007	0.90827	0.57205	0.91055
199.962	-0.78878	0.99261	0.57109	0.89361
203.956	-0.75002	0.97729	0.54826	0.89761
207.961	-0.61627	0.98134	0.52751	0.86363
211.963	-0.56329	1.04201	0.45257	0.86945
215.962	-0.57999	1.08207	0.44467	0.93067
219.965	-0.44252	1.08781	0.41636	0.96229
223.966	-0.47793	1.00618	0.40353	0.97767
227.967	-0.40010	1.06374	0.45505	0.77753
231.960	-0.37946	1.08566	0.45160	0.64099
235.966	-0.35851	1.09746	0.44505	0.56998
239.960	-0.38060	1.04226	0.45269	0.58933
243.958	-0.38760	1.06576	0.43021	0.52618
247.959	-0.41713	1.06511	0.44189	0.50227
251.959	-0.45554	1.09739	0.44745	0.48433
255.963	-0.48197	1.10914	0.48721	0.51236
259.955	-0.51843	1.08844	0.47413	0.41757
263.963	-0.54200	1.09281	0.45562	0.35031
267.958	-0.54771	1.14867	0.46289	0.28416
271.958	-0.62101	1.16651	0.41753	0.27693
275.959	-0.64178	1.16104	0.40986	0.26563
279.961	-0.54791	1.11673	0.46847	0.22771
283.961	-0.52317	1.03332	0.54756	0.07025
287.954	-0.48304	0.83136	0.58543	0.06279
291.963	-0.43926	0.84049	0.58521	-0.10272
295.960	-0.39742	0.77056	0.49364	-0.17679
299.958	-0.35541	0.70395	0.42728	-0.19464
303.969	-0.26800	0.57871	0.36851	-0.20952
307.960	-0.27763	0.57374	0.42852	-0.27838
311.960	-0.32531	0.52993	0.53937	-0.32695
315.958	-0.32729	0.47415	0.54448	-0.35597
319.964	-0.25021	0.45798	0.49932	-0.32168
323.960	-0.30051	0.44208	0.46698	-0.37103
327.958	-0.29175	0.47796	0.47264	-0.33095
331.958	-0.29347	0.50583	0.41663	-0.35441
335.965	-0.31543	0.47271	0.39596	-0.32343
339.962	-0.36898	0.48156	0.41112	-0.28653
343.962	-0.38477	0.45502	0.43415	-0.29579
347.968	-0.41465	0.44918	0.47562	-0.27122
351.960	-0.44110	0.44905	0.49168	-0.24053
355.959	-0.41475	0.37543	0.46165	-0.20786
359.962	-0.43167	0.40935	0.43259	-0.18813
363.959	-0.47917	0.42184	0.42584	-0.21717
367.962	-0.49490	0.35734	0.41472	-0.22055
371.954	-0.51503	0.34327	0.38112	-0.19834
375.957	-0.56682	0.29231	0.36648	-0.17394
379.956	-0.60583	0.23687	0.39529	-0.14976
383.957	-0.62518	0.26130	0.39172	-0.13008
387.967	-0.68315	0.17346	0.41594	-0.08041
391.958	-0.69131	0.15087	0.41288	-0.03673
395.962	-0.74377	0.04003	0.38484	-0.04110
399.954	-0.80434	-0.06642	0.36553	-0.06806
403.962	-0.84180	-0.04052	0.35171	-0.06898
407.959	-0.88446	-0.09653	0.34466	-0.04403
411.960	-0.88069	-0.18120	0.42214	-0.00107
415.960	-0.84094	-0.15566	0.52902	0.01123
419.956	-0.75144	-0.12776	0.60662	0.02604
423.962	-0.67131	-0.03707	0.62114	0.04937
427.963	-0.66516	0.00400	0.59260	0.06058
431.963	-0.63357	0.08309	0.54463	0.10193
435.957	-0.65819	0.09609	0.64255	0.05238
439.959	-0.51766	0.10354	0.63694	0.07149
443.957	-0.44068	0.12715	0.61943	0.09922
447.952	-0.37583	0.17049	0.68124	0.14682
451.962	-0.37238	0.20783	0.71722	0.14792
455.990	-0.35293	0.22980	0.67518	0.16842
459.960	-0.31620	0.27572	0.62173	0.12039
463.953	-0.29086	0.33923	0.65575	0.14628
467.975	-0.31411	0.38776	0.61699	0.12884
471.970	-0.30860	0.37613	0.58302	0.12536
475.958	-0.25649	0.48879	0.61461	0.06286
479.960	-0.22807	0.42990	0.56292	0.04142
483.959	-0.22939	0.44382	0.54165	0.00040
487.951	-0.24108	0.38336	0.48922	-0.06828
491.829	-0.26287	0.39638	0.52193	-0.09219
495.830	-0.26798	0.37626	0.50329	-0.10059
499.830	-0.27547	0.20948	0.49289	-0.14899
503.826	-0.32297	0.20393	0.45865	-0.09008
507.827	-0.39395	0.19864	0.41058	-0.08168
511.832	-0.40524	0.17081	0.37727	-0.06195
515.830	-0.49748	0.10091	0.36449	-0.11217
519.829	-0.52150	0.03263	0.39067	-0.05770
523.831	-0.58347	0.02373	0.37000	-0.03675
527.832	-0.60404	-0.01600	0.33382	-0.07087
531.826	-0.58950	0.00820	0.37030	-0.01662
535.828	-0.58143	-0.01416	0.38839	0.01715
539.832	-0.59235	-0.03528	0.44842	-0.02212
543.825	-0.64677	0.01240	0.47349	0.02440
547.845	-0.63672	0.04403	0.51433	-0.00442
551.830	-0.42475	0.08943	0.52453	-0.01672
555.831	-0.38097	0.12250	0.53940	-0.05226
559.833	-0.35710	0.11751	0.59923	-0.11621
563.835	-0.45237	0.17071	0.58049	-0.15987
567.831	-0.28600	0.23651	0.54419	-0.23471
571.833	-0.23299	0.28708	0.53404	-0.29480
575.828	-0.33953	0.24826	0.56017	-0.39759
579.828	-0.47036	0.26886	0.43693	-0.48202
583.829	-0.34479	0.21193	0.56694	-0.42581
587.829	-0.39780	0.22530	0.50473	-0.33567
591.828	-0.50116	0.23693	0.46048	-0.31087
595.834	-0.51019	0.12069	0.39777	-0.48004
599.837	-0.60776	0.01874	0.35608	-0.44670
603.841	-0.73111	-0.06232	0.34985	-0.34959
607.834	-0.59359	-0.07042	0.39211	-0.30253
611.832	-0.57352	-0.07382	0.38772	-0.02694
615.829	-0.51059	-0.12464	0.46820	-0.01638
619.831	-0.43018	-0.10906	0.50490	-0.18554
623.828	-0.47738	-0.05193	0.47100	-0.14969
627.830	-0.47254	-0.04411	0.44696	-0.18614
631.835	-0.47579	-0.08011	0.41891	-0.30044
635.830	-0.35648	0.05171	0.38608	-0.36798
639.828	-0.32377	0.06416	0.40747	-0.39178
643.834	-0.36931	0.06550	0.48311	-0.36666
647.829	-0.34442	0.07629	0.55344	-0.43707
651.828	-0.36700	0.08396	0.54002	-0.45921
655.832	-0.43743	0.07139	0.55141	-0.45781
659.828	-0.48641	0.06577	0.51912	-0.53628
663.833	-0.48254	0.05770	0.52632	-0.53449
667.824	-0.48721	-0.02507	0.52783	-0.53156
671.830	-0.48865	-0.07243	0.51701	-0.49635
675.831	-0.52878	-0.12315	0.54419	-0.36171
679.827	-0.59863	-0.21901	0.56496	-0.31904
683.832	-0.65506	-0.21058	0.54716	-0.26105
687.831	-0.69039	-0.27240	0.50701	-0.16733
691.824	-0.71891	-0.26969	0.47118	-0.14390
695.832	-0.73459	-0.31305	0.42566	-0.09350
699.827	-0.75044	-0.33434	0.39782	-0.15018
703.830	-0.74389	-0.36289	0.40445	-0.13619
707.823	-0.82573	-0.38720	0.39504	-0.18520
711.832	-0.84275	-0.37726	0.39675	-0.12464
715.829	-0.89185	-0.35182	0.38199	-0.12822
719.827	-0.93467	-0.31708	0.39807	-0.13123
723.826	-0.97653	-0.28758	0.42544	-0.21660
727.832	-0.98311	-0.28413	0.40698	-0.25885
731.828	-0.95455	-0.23106	0.47468	-0.31189
735.827	-0.98412	-0.21524	0.51542	-0.31743
739.827	-1.01915	-0.20785	0.57712	-0.30928
743.829	-1.03900	-0.18291	0.60853	-0.30314
747.823	-0.96549	-0.17101	0.65913	-0.30222
751.827	-0.95666	-0.14569	0.65908	-0.24726
755.827	-0.90637	-0.14937	0.68146	-0.23304
759.827	-0.87865	-0.16011	0.72461	-0.18851
763.820	-0.82650	-0.12466	0.71191	-0.19493
767.836	-0.78908	-0.10955	0.72784	-0.17902
771.829	-0.78183	-0.10426	0.80451	-0.15027
775.826	-0.77265	-0.09275	0.86394	-0.15119
779.830	-0.75439	-0.09350	0.85585	-0.15487
783.830	-0.69915	-0.10905	0.84379	-0.12341
787.826	-0.67161	-0.09589	0.84573	-0.16734
791.825	-0.67441	-0.08751	0.81593	-0.16632
795.825	-0.67417	-0.10674	0.85538	-0.21939
799.828	-0.68848	-0.13119	0.80253	-0.22658
803.825	-0.68578	-0.10836	0.83826	-0.28799
807.829	-0.67260	-0.06771	0.83932	-0.35975
811.831	-0.68394	-0.02395	0.83585	-0.39582
815.827	-0.68221	-0.03531	0.78126	-0.45906
819.874	-0.68459	-0.01200	0.73176	-0.58155
823.833	-0.68302	0.03173	0.69965	-0.56441
827.821	-0.64608	0.16014	0.62260	-0.66209
831.825	-0.67881	0.10580	0.63863	-0.74427
835.824	-0.67399	0.09668	0.71357	-0.83513
839.820	-0.68042	0.22822	0.67759	-0.83767
843.825	-0.61806	0.21881	0.68699	-0.76622
847.825	-0.57692	0.23916	0.66563	-0.79832
851.828	-0.63131	0.22340	0.58123	-0.77764
855.825	-0.61759	0.15356	0.60933	-0.76897
859.835	-0.50478	0.14765	0.58421	-0.75170
863.827	-0.51349	0.10327	0.55687	-0.68930
867.825	-0.48227	0.05636	0.49441	-0.61281
871.823	-0.59024	0.01849	0.50123	-0.53012
875.825	-0.55736	-0.00432	0.43224	-0.61314
879.821	-0.51858	0.01767	0.37765	-0.46955
883.823	-0.45128	0.00199	0.38566	-0.41852
887.859	-0.47560	0.01618	0.33702	-0.40041
891.830	-0.48751	0.01705	0.37025	-0.33662
895.833	-0.44837	0.03767	0.41594	-0.29055
899.838	-0.41388	0.06468	0.49393	-0.26354
903.823	-0.44882	0.09885	0.53021	-0.22634
907.823	-0.45867	0.12961	0.63191	-0.28028
911.829	-0.46688	0.19575	0.65650	-0.29775
915.824	-0.41745	0.23062	0.73762	-0.36383
919.828	-0.37953	0.26700	0.80714	-0.34956
923.830	-0.37375	0.29162	0.87815	-0.38772
927.825	-0.40120	0.27602	0.93817	-0.39323
931.822	-0.38333	0.29100	0.96172	-0.44972
935.831	-0.37807	0.33868	0.96427	-0.44947
939.826	-0.40058	0.41442	0.98653	-0.45511
943.823	-0.39306	0.44399	0.95715	-0.47434
947.819	-0.42222	0.44875	0.96271	-0.48030
951.824	-0.39251	0.46988	0.95130	-0.45352
955.829	-0.40010	0.47686	0.91547	-0.41410
959.823	-0.41750	0.48689	0.90547	-0.40667
963.829	-0.44730	0.52148	0.94522	-0.39077
967.825	-0.47001	0.52297	0.94877	-0.37502
971.826	-0.48917	0.54923	0.89257	-0.36889
975.826	-0.49321	0.59303	0.88106	-0.29887
979.833	-0.49778	0.60399	0.88389	-0.35997
983.847	-0.52292	0.59479	0.91448	-0.32108
987.826	-0.54682	0.59926	0.93338	-0.30426
991.828	-0.54930	0.62058	0.89733	-0.29539
995.822	-0.59952	0.66060	0.87711	-0.24888
999.827	-0.60831	0.71222	0.90825	-0.23942
1003.821	-0.62002	0.75960	0.88413	-0.19951
1007.828	-0.62528	0.76653	0.86525	-0.17164
1011.822	-0.63106	0.80484	0.83960	-0.17984
1015.830	-0.60692	0.78926	0.83942	-0.15700
1019.826	-0.64553	0.75234	0.81655	-0.15350
1023.825	-0.67213	0.70499	0.81431	-0.12746
1027.828	-0.66042	0.67990	0.79161	-0.14709
1031.824	-0.64548	0.62733	0.77020	-0.13084
1035.837	-0.62943	0.60927	0.75747	-0.15559
1039.829	-0.58816	0.57079	0.66498	-0.23570
1043.822	-0.59719	0.48852	0.68886	-0.21376
1047.826	-0.62382	0.43321	0.61007	-0.26811
1051.827	-0.61173	0.38854	0.66315	-0.34428
1055.823	-0.65355	0.34120	0.63918	-0.40372
1059.826	-0.66297	0.34103	0.60714	-0.48271
1063.819	-0.67369	0.32793	0.60997	-0.46946
1067.825	-0.66352	0.35917	0.57042	-0.46246
1071.821	-0.61992	0.31693	0.52371	-0.46962
1075.824	-0.63900	0.28674	0.51478	-0.55601
1079.821	-0.70580	0.30527	0.52381	-0.55188
1083.819	-0.67084	0.34523	0.51853	-0.51129
1087.823	-0.62379	0.39574	0.64719	-0.56984
1091.823	-0.56322	0.44852	0.71116	-0.55731
1095.824	-0.55471	0.48038	0.66665	-0.50973
1099.823	-0.51892	0.51722	0.70662	-0.47119
1103.826	-0.57161	0.60644	0.66032	-0.45656
1107.838	-0.43438	0.56349	0.72409	-0.45750
1111.827	-0.42088	0.57423	0.68905	-0.47201
1115.821	-0.42750	0.65848	0.71469	-0.47027
1119.821	-0.39976	0.67582	0.78106	-0.44072
1123.818	-0.35010	0.70075	0.77022	-0.40738
1127.823	-0.48751	0.71033	0.81305	-0.41622
1131.823	-0.46150	0.71145	0.75962	-0.40907
1135.820	-0.56429	0.69839	0.70819	-0.42307
1139.824	-0.48254	0.61944	0.64675	-0.47269
1143.826	-0.53240	0.56503	0.62211	-0.49138
1147.819	-0.53481	0.48992	0.61809	-0.51958
1151.819	-0.56719	0.48892	0.61327	-0.52010
1155.819	-0.59491	0.40717	0.64188	-0.54902
1159.851	-0.68347	0.33968	0.62970	-0.54812
1163.830	-0.73039	0.27327	0.60533	-0.58338
1167.817	-0.76278	0.18205	0.59436	-0.61876
1171.826	-0.77821	0.18493	0.55094	-0.64108
1175.824	-0.84635	0.12207	0.55205	-0.60609
1179.820	-0.88354	0.07936	0.55089	-0.58793
1183.829	-0.94209	0.01786	0.57352	-0.56813
1187.821	-0.96601	-0.01935	0.55833	-0.65012
1191.824	-1.03699	-0.07791	0.56908	-0.72741
1195.815	-1.09152	-0.08624	0.55337	-0.58346
1199.824	-1.13159	-0.15085	0.55019	-0.59082
1203.818	-1.15429	-0.15846	0.53937	-0.46838
1207.823	-1.18073	-0.19671	0.54076	-0.47362
1211.819	-1.23253	-0.15927	0.54153	-0.43235
1215.819	-1.23369	-0.24093	0.57096	-0.37480
1219.819	-1.22992	-0.29789	0.57009	-0.37855
1223.823	-1.21591	-0.35027	0.56585	-0.29325
1227.828	-1.23724	-0.29775	0.54280	-0.41657
1231.819	-1.23020	-0.24940	0.51540	-0.29718
1235.824	-1.23322	-0.25271	0.49446	-0.28714
1239.813	-1.24047	-0.27722	0.44242	-0.31055
1243.824	-1.25337	-0.34648	0.43130	-0.33110
1247.818	-1.24228	-0.43348	0.42988	-0.39759
1251.823	-1.20393	-0.42656	0.40340	-0.40791
1255.817	-1.18961	-0.52409	0.39646	-0.43673
1259.819	-1.16183	-0.61114	0.34648	-0.47115
1263.818	-1.15317	-0.55023	0.33332	-0.51460
1267.823	-1.15057	-0.56429	0.33826	-0.55056
1271.818	-1.10011	-0.54351	0.33585	-0.56345
1275.817	-1.10874	-0.57257	0.36323	-0.56981
1279.861	-1.08544	-0.61391	0.37514	-0.60464
1283.816	-1.07262	-0.63496	0.39998	-0.61468
1287.812	-1.04518	-0.58523	0.40723	-0.60521
1291.817	-0.99893	-0.56966	0.42428	-0.57087
1296.123	-0.96122	-0.55963	0.43586	-0.58168
1299.817	-0.94991	-0.52999	0.43167	-0.56389
1303.819	-0.95028	-0.47852	0.49222	-0.54632
1307.818	-0.88957	-0.47068	0.50165	-0.49176
1311.818	-0.88269	-0.46029	0.50840	-0.44694
1315.833	-0.83759	-0.47078	0.51756	-0.39322
1319.824	-0.84917	-0.47016	0.55838	-0.40231
1323.813	-0.77898	-0.43464	0.59650	-0.33420
1327.821	-0.82483	-0.39140	0.59456	-0.35820
1331.818	-0.76230	-0.35103	0.65769	-0.34729
1335.821	-0.75665	-0.29150	0.72943	-0.33499
1339.817	-0.72206	-0.18874	0.66526	-0.30997
1343.817	-0.68300	-0.16673	0.65685	-0.22971
1347.690	-0.56940	-0.16084	0.65702	-0.21163
1351.689	-0.55443	-0.15013	0.65570	-0.18986
1355.702	-0.47773	0.00209	0.62315	-0.11378
1359.702	-0.50371	0.04711	0.60049	-0.12419
1363.741	-0.49160	0.04967	0.52165	-0.11368
1367.692	-0.47907	0.09413	0.57925	-0.07785
1371.697	-0.41274	0.11617	0.54977	-0.05899
1375.691	-0.38876	0.14574	0.47592	-0.03345
1379.689	-0.40105	0.12037	0.40695	-0.12894
1383.695	-0.43016	0.05974	0.44495	-0.17501
1387.689	-0.57257	-0.02445	0.50485	-0.25884
1391.695	-0.57240	-0.08277	0.53066	-0.32213
1395.695	-0.52614	0.02269	0.55803	-0.34285
1399.690	-0.57712	-0.00007	0.62570	-0.36533
1403.689	-0.55883	-0.00798	0.67945	-0.37067
1407.692	-0.54647	0.00072	0.67161	-0.38078
1411.691	-0.50704	0.00480	0.68330	-0.34719
1415.688	-0.45609	0.10779	0.71960	-0.35437
1419.695	-0.50443	0.09857	0.70072	-0.37216
1423.703	-0.54389	0.04430	0.60642	-0.36170
1427.693	-0.51470	0.05400	0.55362	-0.33947
1431.695	-0.46999	0.08436	0.52925	-0.29780
1435.689	-0.44103	0.09413	0.53977	-0.24587
1439.695	-0.40517	0.09405	0.44909	-0.21926
1443.695	-0.44120	0.02726	0.47212	-0.18788
1447.692	-0.53039	0.03367	0.43485	-0.15244
1451.693	-0.62255	-0.01073	0.53523	-0.12014
1455.689	-0.66774	-0.05379	0.57158	-0.12896
1459.696	-0.64933	-0.10004	0.58731	-0.07536
1463.691	-0.73362	-0.12160	0.57806	-0.07427
1467.694	-0.76640	-0.12103	0.67985	-0.02877
1471.689	-0.75580	-0.05041	0.60275	-0.01083
1475.694	-0.75417	-0.08821	0.65109	0.03036
1479.695	-0.63498	-0.02915	0.66513	0.04599
1483.693	-0.72873	0.00485	0.65444	0.06970
1487.694	-0.59181	0.10993	0.54389	0.02696
1491.726	-0.63359	0.15048	0.52272	0.02487
1495.689	-0.59233	0.13430	0.38933	0.06190
1499.686	-0.56841	0.18457	0.37928	0.05482
1503.689	-0.60789	0.24982	0.37184	-0.00509
1507.689	-0.61139	0.29526	0.32064	-0.06140
1511.687	-0.52662	0.29214	0.39991	-0.12762
1515.688	-0.65687	0.26564	0.41827	-0.13585
1519.695	-0.73766	0.25016	0.47086	-0.19054
1523.695	-0.84622	0.35532	0.46125	-0.22001
1527.687	-0.84749	0.40668	0.49845	-0.25348
1531.688	-0.78652	0.45407	0.61027	-0.20246
1535.687	-0.70533	0.44274	0.44740	-0.18751
1539.689	-0.60575	0.43888	0.57275	-0.18934
1543.686	-0.62866	0.52402	0.47669	-0.18696
1547.706	-0.62208	0.62301	0.38971	-0.16860
1551.690	-0.60732	0.62773	0.38348	-0.12504
1555.690	-0.72615	0.67594	0.46006	-0.08585
1559.687	-0.62501	0.72686	0.44765	-0.04734
1563.696	-0.66027	0.72014	0.49825	-0.02284
1567.715	-0.36936	0.75637	0.75990	0.05285
1571.691	0.16216	0.86530	2.38023	0.41539
1575.692	2.10072	1.11235	2.35479	0.81128
1579.687	2.25831	1.55506	3.50764	1.99479
1583.688	2.50226	2.88481	3.55518	2.03888
1587.685	2.62303	2.93366	4.14288	2.68672
1591.687	2.84598	3.17951	4.15344	2.76525
1595.693	3.66214	3.31658	4.21375	2.80729
1599.695	3.62173	3.38378	4.41862	2.81857
1603.688	3.28892	3.46577	4.20089	2.85129
1607.688	3.18076	3.46320	4.39484	2.81653
1611.686	3.06199	3.42788	4.46889	2.92083
1615.686	3.02249	3.41755	4.70478	2.99772
1619.687	3.17628	3.42746	4.53588	2.99576
1623.686	3.17928	3.41808	4.57287	2.98276
1627.687	3.15100	3.27187	4.54580	3.02640
1631.683	3.17230	3.24042	4.48991	3.02508
1635.685	3.15434	3.21366	4.60777	3.01018
1639.697	3.21369	3.14595	4.71213	2.99586
1643.690	3.13279	3.35291	4.69968	3.03582
1647.691	3.18719	3.17327	4.76056	3.12055
1651.688	3.23192	3.19497	4.81852	3.15104
1655.685	3.33817	3.06993	4.91181	3.20219
1659.686	3.38949	3.02267	4.88616	3.29000
1663.691	3.40944	3.04353	4.77106	3.26906
1667.686	3.47272	2.95735	4.72625	3.24148
1671.686	3.42626	3.05958	4.72825	3.20893
1675.693	3.42722	3.17609	4.73875	3.18617
1679.688	3.48130	3.20236	4.75948	3.17050
1683.686	3.37393	3.19837	4.74858	3.14662
1687.686	3.38434	3.12568	4.73039	3.07078
1691.691	3.40039	2.98852	4.69894	3.09327
1695.689	3.41530	2.94714	4.66260	3.11360
1699.686	3.38810	2.96493	4.63166	3.18122
1703.691	3.31462	2.84584	4.61196	3.12780
1707.691	3.25209	2.87973	4.65824	3.06559
1711.687	3.19194	3.00545	4.70416	3.10702
1715.734	3.20016	2.94604	4.85561	3.11110
1719.683	3.12056	2.86886	4.91915	3.17673
1723.684	3.05625	2.87049	4.79139	3.20888
1727.693	3.05006	2.93100	4.79026	3.25327
1731.694	3.12274	2.99412	4.79255	3.25516
1735.690	3.10760	3.01074	4.87103	3.22712
1739.687	3.11287	3.10579	4.87042	3.22954
1743.684	3.02910	3.12736	4.90964	3.16592
1747.685	3.06498	3.25262	4.91075	3.14224
1751.683	3.11418	3.30047	4.85716	3.09438
1755.684	3.16260	3.34246	4.83548	3.06021
1759.682	3.22242	3.35240	4.82658	2.98427
1763.683	3.27210	3.35275	4.76736	2.99537
1767.686	3.34430	3.40487	4.69729	2.92437
1771.694	3.41933	3.40888	4.71193	2.88829
1775.686	3.54526	3.40857	4.69396	2.82878
1779.694	3.61587	3.40559	4.62919	2.82921
1783.683	3.69177	3.39760	4.59790	2.77218
1787.689	3.75714	3.41266	4.58345	2.77809
1791.684	3.86237	3.37917	4.53798	2.78433
1795.683	3.95293	3.36717	4.53509	2.75458
1799.685	3.94122	3.32633	4.54698	2.75580
1803.682	4.03110	3.31472	4.47708	2.73139
1807.683	4.08760	3.32452	4.45698	2.69464
1811.689	4.13026	3.30389	4.48512	2.67750
1815.681	4.15887	3.29947	4.48631	2.66415
1819.683	4.16786	3.26920	4.48601	2.64850
1823.681	4.20679	3.27788	4.51174	2.60416
1827.683	4.22434	3.22475	4.51938	2.60329
1831.682	4.21296	3.19947	4.50091	2.56529
1835.683	4.20859	3.19033	4.52215	2.53342
1839.686	4.22389	3.17035	4.50690	2.48726
1843.682	4.24406	3.17980	4.49055	2.43022
1847.681	4.25104	3.27236	4.51270	2.46056
1851.684	4.21101	3.23896	4.53206	2.45983
1855.687	4.21333	3.22842	4.51734	2.46463
1859.712	4.22737	3.22511	4.52942	2.42811
1863.691	4.22799	3.27554	4.50772	2.45361
1867.681	4.21318	3.28415	4.50777	2.44028
1871.683	4.17904	3.39850	4.51751	2.50846
1875.681	4.21609	3.28179	4.77197	2.56206
1879.687	4.27385	3.41802	5.33145	2.82286
1883.686	4.47772	3.58669	5.70571	3.96137
1887.682	5.02255	4.48218	5.84132	4.06561
1891.684	5.11797	4.83663	6.29695	4.01431
1895.686	5.28628	4.78482	6.29156	4.21380
1899.682	5.18658	5.11888	6.22383	4.39926
1903.682	5.19372	5.18900	6.27773	4.34621
1907.681	5.28935	4.97812	6.25237	4.35329
1911.687	5.34390	4.73607	6.20398	4.42671
1915.682	5.41681	5.00510	6.29261	4.34756
1919.683	5.36171	5.09982	6.31331	4.40921
1923.730	5.41182	5.27562	6.31328	4.45078
1927.685	5.49859	5.20461	6.29131	4.46624
1931.687	5.55305	5.14190	6.29376	4.43864
1935.680	5.65811	5.16040	6.23113	4.44553
1939.685	5.72760	5.14502	6.14697	4.46061
1943.680	5.81007	4.94087	6.19118	4.42593
1947.679	5.80862	4.96147	6.23903	4.44814
1951.680	5.69092	4.91578	6.26934	4.47398
1955.692	5.73627	4.94943	6.25316	4.47889
1959.687	5.73858	4.94060	6.20717	4.53734
1963.680	5.71045	4.94826	6.20764	4.52045
1967.680	5.82425	4.99794	6.18755	4.51738
1971.676	5.77610	4.92016	6.20465	4.58356
1975.995	5.69229	4.96613	6.21691	4.63006
1979.693	5.58870	4.97465	6.18615	4.75550
1983.689	5.54412	5.05217	6.19940	4.75067
1987.681	5.47314	5.12323	6.23484	4.81340
1991.680	5.42424	5.08774	6.32346	4.84030
1995.682	5.39982	5.26167	6.30877	4.97111
1999.680	5.40117	5.38504	6.36241	4.89056
2003.679	5.32068	5.43310	6.42743	4.85719
2007.683	5.35207	5.39104	6.58881	4.91367
2011.682	5.30909	5.31909	6.53259	4.99459
2015.680	5.28618	5.36638	6.56995	4.95188
2019.684	5.30363	5.33611	6.53463	4.94035
2023.686	5.29504	5.40768	6.65759	4.78301
2027.679	5.22121	5.47141	6.55337	4.81946
2031.679	4.79129	5.62357	5.31475	4.76618
2035.675	1.86903	5.66128	4.04586	4.90183
2039.681	0.03020	5.98234	1.98145	5.20346
2043.679	-0.76109	6.60593	1.18185	6.76627
2047.684	-1.23918	7.45734	-0.49917	7.36341
2051.685	-2.80560	7.40417	-1.78429	7.46933
2055.681	-2.89297	7.59211	-1.06545	7.64820
2059.683	-2.70374	7.71969	-1.11608	7.83271
2063.681	-2.53776	7.65124	-0.98164	8.08970
2067.689	-2.60745	7.56235	-0.94500	8.19024
2071.680	-2.66555	7.64460	-0.99559	7.87390
2075.683	-2.76314	7.67251	-1.02429	7.83129
2079.678	-2.81756	7.71365	-1.09046	7.81598
2083.684	-2.82080	7.66098	-1.11526	7.81455
2087.681	-2.81551	7.71654	-1.12194	7.79568
2091.683	-2.90557	7.67078	-1.15491	7.84507
2095.677	-2.96799	7.70011	-1.16806	7.78061
2099.685	-2.92799	7.66253	-1.20643	7.72416
2103.685	-2.94255	7.56218	-1.24974	7.74464
2107.689	-2.96772	7.55633	-1.26922	7.79068
2111.681	-2.91933	7.50709	-1.33039	7.74435
2115.678	-2.87188	7.56782	-1.40051	7.77340
2119.714	-2.86351	7.59760	-1.39418	7.80943
2123.679	-2.76188	7.60194	-1.44914	7.82895
2127.678	-2.60857	7.62612	-1.46591	7.96367
2131.677	-2.51195	7.69806	-1.48838	7.99027
2135.682	-2.48966	7.64845	-1.51496	7.97368
2139.681	-2.47806	7.64637	-1.48711	8.02703
2143.674	-2.40176	7.68923	-1.53094	8.08154
2147.686	-2.36970	7.75199	-1.54844	8.08625
2151.680	-2.36728	7.76095	-1.54160	8.04960
2155.677	-2.33420	7.81753	-1.52918	8.07227
2159.678	-2.36760	7.81600	-1.50656	8.09724
2163.682	-2.31705	7.80897	-1.51308	8.11158
2167.679	-2.31936	7.81580	-1.49909	8.12203
2171.681	-2.37300	7.82126	-1.51060	8.06922
2175.681	-2.38576	7.79243	-1.42868	8.07010
2179.680	-2.45441	7.80908	-1.48533	8.10375
2183.682	-2.45748	7.85277	-1.49512	8.13636
2187.682	-2.50447	7.85325	-1.43223	8.10070
2191.678	-2.56713	7.86856	-1.39145	8.12353
2195.675	-2.52525	7.90430	-1.37198	8.13740
2199.556	-2.59398	7.90985	-1.36134	8.19456
2203.552	-2.57333	7.90041	-1.33860	8.18519
2207.555	-2.63650	7.91424	-1.35616	8.17740
2211.550	-2.56473	7.89033	-1.34234	8.31182
2215.557	-2.52381	7.86609	-1.35901	8.39734
2219.553	-2.48252	7.86198	-1.39329	8.38169
2223.554	-2.51717	7.87680	-1.39535	8.44566
2227.549	-2.44507	7.86666	-1.40889	8.52938
2231.557	-2.33237	7.85721	-1.37570	8.56169
2235.560	-2.38177	7.86383	-1.39391	8.61799
2239.556	-2.37488	7.83258	-1.37032	8.66305
2243.553	-2.32134	7.82669	-1.37672	8.61451
2247.578	-2.33670	7.83425	-1.38056	8.58708
2251.557	-2.28422	7.83271	-1.40460	8.73312
2255.551	-2.29458	7.84596	-1.38964	8.69721
2259.556	-2.30645	7.85698	-1.36992	8.74308
2263.550	-2.27587	7.88042	-1.35839	8.73237
2267.554	-2.24594	7.89142	-1.33852	8.74646
2271.552	-2.21643	7.89550	-1.38582	8.68904
2275.560	-2.28774	7.89514	-1.45715	8.67749
2279.553	-2.22748	7.88971	-1.50343	8.64298
2283.556	-2.24991	7.92813	-1.50998	8.53690
2287.553	-2.18213	7.91999	-1.56930	8.52248
2291.554	-2.21950	7.92973	-1.56642	8.56284
2295.552	-2.24081	7.91900	-1.56449	8.51496
2299.557	-2.26133	7.91141	-1.53815	8.43468
2303.553	-2.27850	7.90386	-1.44560	8.43729
2307.548	-2.26767	7.88414	-1.48486	8.44427
2311.555	-2.29926	7.86601	-1.44183	8.42206
2315.583	-2.32540	7.84969	-1.45770	8.43025
2319.600	-2.26695	7.85427	-1.36057	8.41603
2323.549	-1.63670	7.85421	-1.04009	8.47231
2327.550	-0.28282	7.89117	1.90458	8.49711
2331.549	0.38023	7.87744	2.29988	8.50555
2335.554	1.15645	7.92029	2.90745	8.44868
2339.551	1.75101	7.85485	3.88085	8.48747
2343.551	2.26574	7.90461	4.47713	8.35905
2347.549	2.54133	7.91154	4.45880	8.37745
2351.544	2.14245	7.91310	4.11493	8.05362
2355.553	1.71052	7.89174	3.40601	8.09500
2359.567	1.74516	7.88555	3.48471	8.10484
2363.553	1.75865	7.84194	3.51040	8.17671
2367.552	1.72138	7.86452	3.72131	8.16821
2371.550	1.72736	7.83298	3.67882	8.16952
2375.552	1.77278	7.81215	3.87853	8.13904
2379.546	1.86052	7.77313	4.02547	8.07951
2383.589	2.57793	7.89517	3.97079	8.08745
2387.556	1.82445	7.83287	4.01416	8.02309
2391.548	2.58138	8.03195	3.97956	8.08212
2395.553	2.78503	8.17375	3.97220	8.01849
2399.557	3.26515	8.34764	4.05162	7.98906
2403.552	3.38281	8.16684	4.11406	8.09340
2407.546	3.36943	8.22522	4.09078	8.02115
2411.553	3.38479	8.28233	4.05824	8.05131
2415.549	3.31529	8.27543	4.06846	8.10882
2419.550	3.25577	8.25658	4.10518	8.07726
2423.565	3.38278	8.30598	4.03510	8.04860
2427.556	3.46068	8.32552	4.06767	8.09583
2431.547	3.42656	8.27705	3.97360	8.06519
2435.553	3.41493	8.14399	3.97061	8.13658
2439.553	3.62237	8.12421	3.96338	8.14328
2443.557	3.43378	8.13622	3.98585	8.23460
2447.548	3.17544	8.20076	3.91590	8.24698
2451.552	2.76614	8.21983	3.99981	8.28927
2455.551	2.75906	8.18197	3.97578	8.38178
2459.551	2.58487	8.11686	4.02433	8.24946
2463.543	2.50675	8.13172	4.03977	8.23790
2467.553	2.50878	8.14867	4.03036	8.09989
2471.547	2.47157	8.10953	4.08194	8.11138
2475.552	3.36362	8.06702	4.13520	7.97541
2479.546	3.39742	7.53196	5.30473	7.30041
2483.556	4.80532	4.27532	6.22373	4.92676
2487.548	5.77863	3.86053	8.40256	3.95746
2491.544	6.19277	2.60173	8.83020	1.83513
2495.553	6.93587	1.91113	9.81881	1.31824
2499.548	7.84854	0.60271	9.93598	0.34529
2503.547	8.02419	0.11390	10.05936	-0.74809
2507.542	8.47325	-0.46156	11.30025	-1.04951
2511.547	8.47740	-0.45537	10.51513	-1.18859
2515.546	8.41361	-0.32693	10.03813	-0.91244
2519.548	8.52603	-0.45656	9.80901	-0.93415
2523.555	8.51217	-0.41721	9.67466	-0.79432
2527.551	8.49615	-0.17990	9.60770	-0.84303
2531.547	8.67185	-0.36110	9.72628	-0.88887
2535.567	8.65732	-0.20896	10.06337	-0.92151
2539.541	8.75655	-0.42865	9.98138	-1.00246
2543.545	8.85446	-0.39073	10.10781	-1.07260
2547.547	8.84334	-0.40552	10.27073	-1.03996
2551.546	8.92149	-0.28420	10.15999	-1.00298
2555.550	8.91478	-0.34255	10.21793	-0.95212
2559.545	8.97942	-0.34168	10.36435	-0.98362
2563.548	8.98387	-0.27168	10.40046	-1.07009
2567.547	8.98847	-0.27600	10.20721	-1.06774
2571.550	9.03411	-0.28936	10.34372	-1.09208
2575.547	9.06862	-0.29498	10.19101	-1.06357
2579.546	9.03524	-0.26887	10.14396	-1.07052
2583.545	9.03662	-0.26197	10.22755	-1.03543
2587.987	9.00184	-0.21995	10.20517	-1.03800
2591.544	8.92762	-0.21337	10.16716	-1.01763
2595.550	8.92803	-0.25611	10.15300	-1.01939
2599.545	8.97276	-0.21764	10.33308	-1.02394
2603.548	8.93462	-0.20554	10.12623	-1.02148
2607.549	9.01256	-0.18898	10.16004	-0.98557
2611.549	8.96741	-0.20522	10.14097	-0.95484
2615.545	8.99220	-0.24995	10.23940	-0.93570
2619.543	8.98324	-0.33719	10.26629	-0.96173
2623.548	9.01445	-0.37613	10.39719	-0.99705
2627.547	8.99223	-0.38172	10.35474	-1.01497
2631.549	8.96910	-0.39782	10.42737	-1.01672
2635.542	8.97114	-0.34208	10.43421	-1.00751
2639.545	8.97959	-0.31741	10.35368	-0.92727
2643.544	8.94903	-0.29927	10.39069	-0.88584
2647.540	8.97053	-0.27692	10.35841	-0.92107
2651.548	8.93762	-0.37859	10.27323	-0.92172
2655.546	8.90897	-0.27488	10.16168	-1.00139
2659.550	8.93430	-0.19388	10.22603	-1.07362
2663.544	8.87062	-0.18114	10.15608	-1.14562
2667.547	8.86183	-0.14518	10.20000	-1.07916
2671.565	8.85509	-0.16831	10.14513	-1.08712
2675.550	8.82780	-0.13790	10.16064	-1.11086
2679.545	8.85889	-0.12421	10.25127	-1.11440
2683.539	8.86233	-0.11800	10.19255	-1.09872
2687.544	8.91590	-0.12139	10.24132	-1.08168
2691.548	8.86132	-0.23106	10.19546	-1.12311
2695.549	8.89184	-0.30970	10.28916	-1.16445
2699.539	8.94895	-0.37534	10.29546	-1.18862
2703.547	8.91757	-0.44135	10.28532	-1.15698
2707.545	8.95213	-0.53767	10.36341	-1.08498
2711.548	8.97770	-0.56505	10.21688	-1.10704
2715.542	8.94266	-0.57757	10.18781	-1.09891
2719.561	8.92646	-0.66714	10.23868	-1.04197
2723.808	8.96944	-0.69278	10.22507	-1.10183
2727.553	9.09587	-0.78267	10.28993	-1.08587
2731.550	9.28572	-0.82987	10.75385	-1.11545
2735.548	9.68259	-0.91741	11.61780	-1.16675
2739.544	10.00829	-0.88270	12.24114	-1.56679
2743.543	10.59505	-0.94408	12.62566	-1.25913
2747.540	10.94076	-1.05651	12.68184	-1.55463
2751.544	11.00730	-1.26988	12.73465	-1.83031
2755.576	11.06954	-1.39312	12.59285	-2.13735
2759.542	11.20008	-1.40341	12.59685	-2.15020
2763.541	11.11936	-1.36222	12.66393	-2.20784
2767.542	11.09716	-1.38402	12.61658	-2.35198
2771.541	11.12992	-1.39171	12.65465	-2.36514
2775.545	11.00116	-1.42596	12.63712	-2.09388
2779.550	11.12381	-1.41121	12.61965	-1.94261
2783.547	11.15802	-1.43341	12.60313	-1.86575
2787.541	11.11927	-1.40182	12.57198	-1.97587
2791.545	11.11922	-1.43991	12.51624	-2.16875
2795.542	11.08746	-1.38611	12.53580	-2.08155
2799.540	11.05942	-1.38125	12.50706	-1.94048
2803.542	11.03820	-1.44043	12.38902	-1.88060
2807.541	11.06014	-1.46291	12.36201	-1.99764
2811.543	11.06970	-1.54290	12.30137	-2.05154
2815.550	11.12094	-1.60261	12.28718	-2.08170
2819.541	11.13468	-1.80399	12.31002	-2.13478
2823.540	11.12947	-1.62145	12.37984	-2.16841
2827.541	11.11069	-1.59239	12.43779	-2.25206
2831.540	11.08201	-1.52312	12.60637	-2.32174
2835.541	11.08017	-1.39862	12.46410	-2.24575
2839.544	11.12030	-1.23932	12.21852	-2.21558
2843.539	11.15766	-1.24411	12.36236	-2.31038
2847.543	11.14930	-1.23408	12.38048	-2.32181
2851.541	11.20710	-1.18459	12.21004	-2.28430
2855.540	11.19987	-1.17644	12.25192	-2.20475
2859.550	11.15083	-1.47503	12.13908	-2.17774
2863.547	11.18647	-1.32544	12.11349	-2.21364
2867.543	11.11915	-1.43733	11.90307	-2.14828
2871.541	11.15374	-1.49646	11.86626	-2.12742
2875.535	11.17622	-1.65244	11.80925	-2.07090
2879.543	11.21706	-1.81283	11.84594	-2.07376
2883.539	11.18451	-1.64516	11.85618	-2.12279
2887.536	11.17534	-1.58816	11.85114	-2.09460
2891.540	11.18726	-1.62005	11.89675	-2.09986
2895.540	11.19648	-1.59080	11.96147	-2.14165
2899.548	11.16055	-1.47074	12.10552	-2.24022
2903.540	11.19571	-1.30269	12.17011	-2.34231
2907.538	11.14197	-1.35503	12.14096	-2.39575
2911.541	11.22952	-1.32202	12.20537	-2.43175
2915.535	11.22809	-1.27392	12.06771	-2.48382
2919.540	11.30777	-1.22763	12.10457	-2.51045
2923.541	11.28099	-1.26353	12.21900	-2.44668
2927.555	11.29140	-1.23221	12.19481	-2.47144
2931.543	11.27164	-1.26880	12.23149	-2.40155
2935.537	11.06762	-1.22743	12.01476	-1.96078
2939.549	9.85016	-0.39679	10.67893	-0.66939
2943.551	8.59888	0.54836	9.33734	0.21541
2947.537	7.44045	1.32056	8.35427	0.74709
2951.539	7.23907	2.50916	7.40399	1.99313
2955.538	6.95511	2.88096	7.48439	3.49180
2959.560	6.69312	3.74085	7.44803	3.98313
2963.542	6.80969	3.75243	7.23919	4.02586
2967.543	6.71388	3.64619	7.33007	4.08236
2971.540	6.86447	3.71518	7.66097	3.97288
2975.539	6.85948	3.41003	7.51805	3.69854
2979.538	6.92122	3.52486	7.62550	3.85498
2983.548	6.94902	3.56470	7.59690	3.90062
2987.540	6.92171	3.57749	7.67328	3.90404
2991.543	6.91623	3.60621	7.69008	3.92320
2995.537	6.88937	3.68501	7.80864	4.01121
2999.543	6.74692	3.73387	7.83724	4.02407
3003.555	6.85985	3.72683	7.88724	4.01278
3007.543	6.85295	3.67252	7.96811	3.99226
3011.544	6.92479	3.73959	8.03952	4.04805
3015.539	6.93381	3.78694	7.97364	4.01434
3019.538	6.79777	3.76628	7.95448	4.12100
3023.541	6.73745	3.82036	7.93028	4.10339
3027.539	6.68866	3.78393	7.95877	4.12291
3031.540	6.62728	3.76099	7.89741	4.19485
3035.541	6.60928	3.82372	7.90170	4.23840
3039.539	6.61810	3.87690	7.83286	4.18059
3043.539	6.59623	3.86176	7.83310	4.24720
3047.538	6.51851	3.88377	7.81200	4.25827
3051.542	6.53340	3.96162	7.79125	4.18933
3055.413	6.51101	3.91830	7.71430	4.17439
3059.413	6.50891	3.91306	7.73962	4.13422
3063.538	6.51900	3.95220	7.73721	4.00662
3067.415	6.52860	3.95443	7.73553	4.07120
3071.420	6.56672	3.99545	7.60658	4.12867
3075.408	6.58227	4.05119	7.58717	4.05671
3079.412	6.57624	4.06705	7.53052	4.02635
3083.410	6.59106	4.03827	7.46777	4.14156
3087.416	6.59278	4.08502	7.46775	4.09962
3091.409	6.59429	4.11286	7.43295	4.15823
3095.417	6.57690	4.12658	7.34690	4.27368
3099.415	6.57644	4.17820	7.27326	4.24561
3103.416	6.52284	4.25268	7.24417	4.33177
3107.407	6.58433	4.27084	7.28400	4.34717
3111.420	6.53470	4.27308	7.20123	4.41142
3115.415	6.53174	4.30357	7.22458	4.38782
3119.410	6.52309	4.27068	7.29130	4.39979
3123.414	6.52213	4.26889	7.28864	4.46335
3127.411	6.53414	4.30964	7.32431	4.47147
3131.414	6.55141	4.31421	7.37380	4.45934
3135.409	6.55964	4.33745	7.32124	4.41824
3139.414	6.47894	4.30923	7.30715	4.36940
3143.415	6.55680	4.31642	7.40992	4.36444
3147.413	7.38839	4.50727	7.86817	4.36289
3151.412	8.01886	4.35843	9.25806	4.43621
3155.419	8.49394	4.45319	10.17620	4.69856
3159.413	9.13649	4.86607	11.07372	4.96833
3163.407	9.48615	5.20432	11.16270	5.21217
3167.416	9.55760	5.12133	10.94847	4.90766
3171.432	9.23202	5.14388	11.06232	5.18118
3175.411	9.35007	5.20643	10.94119	5.47795
3179.416	9.31264	5.26024	10.72515	5.35407
3183.410	9.26843	5.36127	10.67550	5.33676
3187.410	9.32835	5.39993	10.71890	5.39936
3191.409	9.36952	5.45708	10.77600	5.45012
3195.415	9.31871	5.48438	10.90128	5.43303
3199.411	9.38873	5.52800	10.91779	5.44600
3203.413	9.33048	5.54811	10.89702	5.41119
3207.408	9.32562	5.50606	10.94459	5.46041
3211.415	9.31112	5.52245	10.83584	5.71011
3215.410	9.36286	5.54874	10.80654	5.78284
3219.410	9.39965	5.55544	10.73964	5.61190
3223.406	9.41849	5.61521	10.74786	5.69129
3227.414	9.53856	5.65435	10.80778	5.66455
3231.410	9.57146	5.67271	10.80445	5.65702
3235.412	9.59008	5.64020	10.78922	5.74680
3239.416	9.51949	5.67959	10.75629	5.73220
3243.412	9.57044	5.72210	10.85447	5.80781
3247.405	9.61211	5.70022	10.92287	5.79990
3251.409	9.60941	5.77308	10.84070	5.82385
3255.411	9.56407	5.73877	10.72453	5.72478
3259.413	9.52396	5.72586	10.86814	5.69265
3263.405	9.49745	5.73072	10.85368	5.70250
3267.435	9.45522	5.72581	10.89463	5.69208
3271.413	9.42395	5.69708	10.90236	5.69398
3275.414	9.38796	5.66351	10.87778	5.67408
3279.417	9.33449	5.66637	10.90157	5.66356
3283.417	9.35000	5.62685	10.89769	5.66278
3287.412	9.35544	5.65455	10.77023	5.58975
3291.412	9.35198	5.66528	10.81267	5.59636
3295.409	9.33961	5.65288	10.83419	5.56980
3299.413	9.33041	5.64842	10.76743	5.55749
3303.415	9.32357	5.66215	10.80184	5.55338
3307.409	9.31105	5.63416	10.78276	5.52935
3311.412	9.29297	5.63634	10.73665	5.47119
3315.408	9.29616	5.69246	10.65256	5.39552
3319.419	9.28997	5.61817	10.82215	5.40853
3323.411	9.28175	5.63164	10.76927	5.37686
3327.411	9.28364	5.67061	10.69783	5.32596
3331.408	9.26582	5.68180	11.23354	5.36931
3335.407	9.30290	5.61617	10.88333	5.30460
3339.445	9.32084	5.62256	11.09523	5.27064
3343.418	9.33275	5.62764	10.87292	5.22408
3347.412	9.37549	5.62489	11.05416	5.23713
3351.407	9.39651	5.63574	11.31130	5.25720
3355.413	9.45259	5.66838	11.19003	5.30451
3359.409	9.44129	5.71342	11.10636	5.23025
3363.410	7.70209	5.69805	10.88542	5.26894
3367.418	6.69395	5.25039	8.77696	5.28364
3371.408	4.96334	5.10428	8.07209	5.08237
3375.408	4.27005	4.57173	6.33098	4.53001
3379.407	3.38264	4.25515	5.62399	3.86037
3383.412	3.09545	4.06328	5.42068	4.13233
3387.410	3.37272	4.01145	4.84260	4.17604
3391.408	3.88001	4.12197	4.99339	4.10797
3395.443	3.90568	3.94571	4.97849	4.12070
3399.412	3.78395	3.88331	5.03134	4.18847
3403.411	3.82931	3.84130	4.94332	3.96676
3407.407	3.70537	3.80294	5.05678	3.96277
3411.411	3.77567	3.66165	5.01034	3.94946
3415.406	3.74567	3.59458	5.03647	3.88250
3419.406	3.76292	3.56220	5.01221	3.84785
3423.424	3.74034	3.57266	4.97472	3.88179
3427.411	3.76860	3.54760	4.94351	3.86918
3431.406	3.81049	3.49230	4.94504	3.80418
3435.401	3.67628	3.47139	4.92230	3.78151
3439.408	3.57152	3.45857	4.91777	3.73669
3443.409	3.49866	3.44935	4.89422	3.75144
3447.409	3.43776	3.44305	4.88096	3.76224
3451.404	3.41152	3.36842	4.86990	3.73454
3455.403	3.37165	3.39975	4.90117	3.70920
3459.400	3.35612	3.40446	4.84874	3.74943
3463.404	3.29627	3.40479	4.82037	3.74468
3467.404	3.29530	3.37008	4.78597	3.73508
3471.433	3.24113	3.38065	4.79595	3.77327
3475.407	3.22849	3.36558	4.78617	3.81982
3479.407	3.25740	3.33278	4.80928	3.88173
3483.401	3.28795	3.30441	4.81944	3.87527
3487.411	3.30428	3.28866	4.81264	3.89729
3491.409	3.41328	3.33094	4.79901	3.90341
3495.401	3.44320	3.33699	4.79827	3.93013
3499.410	3.54220	3.35369	4.76980	3.99962
3503.404	3.52015	3.37172	4.79918	3.99149
3507.410	3.62202	3.34685	4.80975	4.03533
3511.401	3.64842	3.34814	4.84055	4.05676
3515.409	3.71439	3.37856	4.91361	4.04200
3519.404	3.76196	3.37976	4.96270	4.00453
3523.408	3.77622	3.41098	5.00832	3.95853
3527.408	3.79497	3.40540	5.05407	3.94929
3531.411	3.83159	3.40800	5.09884	3.94796
3535.407	3.84468	3.39900	5.15736	3.97149
3539.412	3.83495	3.47017	5.12156	3.98664
3543.408	3.81078	3.50989	5.15871	3.92473
3547.404	3.81795	3.46967	5.15303	3.93427
3551.407	3.79826	3.50598	5.18306	3.91096
3555.408	3.78837	3.50432	5.20568	3.88200
3559.404	3.77187	3.51750	5.14983	3.87768
3563.405	3.74162	3.52647	5.14352	3.89817
3567.403	3.74019	3.51916	5.12422	3.89836
3571.414	3.72615	3.47831	5.08739	3.91334
3575.401	3.65346	3.48828	5.01036	3.95983
3579.404	3.58761	3.43167	4.90883	3.91468
3583.407	3.61925	3.37721	4.82520	3.90286
3587.404	3.65922	3.39174	4.83225	3.90662
3591.399	3.72815	3.40640	4.78203	3.89998
3595.403	3.70954	3.36985	4.67490	3.89634
3599.407	3.79391	3.40605	4.68205	3.85725
3603.405	3.84214	3.40931	4.66758	3.84508
3607.405	3.83230	3.40565	4.67535	3.89057
3611.438	3.90743	3.39374	4.59107	3.92353
3615.412	4.02119	3.41473	4.58442	3.94287
3619.405	4.09485	3.40161	4.58530	3.91732
3623.402	4.08076	3.46699	4.58096	3.95883
3627.401	4.14241	3.49717	4.60002	3.97621
3631.407	4.17450	3.48587	4.57924	4.07018
3635.404	4.22394	3.48821	4.58232	4.05831
3639.398	4.21918	3.45391	4.59351	4.08942
3643.407	4.24843	3.44043	4.56387	4.16083
3647.402	4.26731	3.41923	4.56358	4.17899
3651.405	4.27296	3.43029	4.56974	4.17950
3655.402	4.30075	3.39395	4.66960	4.18886
3659.407	4.26571	3.39277	4.68752	4.17666
3663.403	4.24063	3.45550	4.73890	4.20086
3667.406	4.24149	3.48576	4.76729	4.20566
3671.401	4.19247	3.47655	4.72033	4.23006
3675.402	4.18329	3.49375	4.76261	4.22404
3679.405	4.12866	3.52792	4.75334	4.28301
3683.398	4.10187	3.66126	4.67557	4.34946
3687.402	3.96891	3.66092	4.71319	4.33401
3691.404	3.42668	3.81248	4.58589	4.36400
3695.406	2.99250	3.69512	4.36831	4.40113
3699.396	2.77545	3.76918	4.17228	4.39138
3703.426	2.85225	3.63434	4.22745	4.42482
3707.406	2.88161	3.67050	4.17354	4.39825
3711.406	2.70045	3.56951	4.09471	4.37698
3715.398	2.69136	3.69055	4.04631	4.34173
3719.401	2.66063	3.54786	4.02460	4.29021
3723.404	2.67737	3.49801	4.06989	4.22682
3727.401	2.62786	3.26981	4.01714	4.13125
3731.399	2.60310	3.24602	4.00297	4.07213
3735.410	2.57082	3.24702	3.97797	4.02502
3739.405	2.59089	3.22249	3.97914	3.98269
3743.432	2.57006	3.16251	4.07898	3.83336
3747.410	2.56126	3.21935	4.05377	3.81793
3751.403	2.55056	3.08628	4.09056	3.76403
3755.402	2.53897	3.15370	4.08634	3.64968
3759.400	2.50372	3.14173	4.14152	3.67808
3763.407	2.47890	3.23396	4.14117	3.55954
3767.402	2.38013	3.19234	4.12332	3.49859
3771.405	2.41219	3.20643	4.13243	3.44427
3775.397	2.36628	3.22923	4.16803	3.37981
3779.409	2.36465	3.24121	4.12846	3.38388
3783.405	2.30266	3.28902	4.16949	3.28372
3787.401	2.27781	3.25153	4.06927	3.31499
3791.400	2.23375	3.27200	4.12705	3.29286
3795.402	2.22223	3.30719	4.12154	3.26581
3799.405	2.17670	3.28319	4.12248	3.27588
3803.396	2.16253	3.37174	4.12320	3.21350
3807.405	2.17437	3.31326	4.13095	3.22427
3811.400	2.20166	3.30796	4.13754	3.17384
3815.405	2.18565	3.33974	4.13026	3.20265
3819.404	2.22465	3.33436	4.11187	3.19581
3823.406	2.21593	3.35150	4.10357	3.18635
3827.400	2.28489	3.32096	4.11266	3.20480
3831.404	2.28095	3.32849	4.12036	3.17793
3835.430	2.37949	3.33526	4.18388	3.18432
3839.402	2.55960	3.11390	4.29675	2.73621
3843.417	3.11242	0.74255	6.02754	1.78095
3847.403	3.99758	0.57039	6.67466	0.79210
3851.400	4.61635	-0.10653	7.68025	-0.07907
3855.398	5.26664	-1.18439	8.04416	-1.00052
3859.403	5.48814	-1.81587	8.30451	-1.75906
3863.409	5.87479	-2.15749	8.22752	-2.08195
3867.398	6.14256	-2.55905	8.20340	-2.38880
3871.402	6.30823	-2.64663	8.16009	-2.38218
3875.394	6.44613	-2.21802	7.97405	-2.15126
3879.463	6.37317	-2.08460	7.99905	-2.21236
3883.412	6.05383	-2.24864	8.11420	-2.19424
3887.398	5.90192	-2.19179	8.11099	-2.21828
3891.402	6.01841	-2.20280	8.09219	-2.21165
3895.397	5.96876	-2.15927	8.07200	-2.30730
3899.402	6.02261	-2.18997	8.07915	-2.32278
3903.407	6.03243	-2.24849	8.08290	-2.31249
3907.276	5.94030	-2.28208	8.05925	-2.33643
3911.273	5.95599	-2.17879	8.07229	-2.32911
3915.271	6.14258	-2.10681	8.09591	-2.34007
3919.272	6.05101	-2.06376	8.10022	-2.37610
3923.275	6.08875	-2.06917	8.11899	-2.40715
3927.272	6.31085	-1.91831	8.08720	-2.40565
3931.272	6.32071	-1.94129	8.05626	-2.42187
3935.271	6.39177	-1.84985	8.10294	-2.45997
3939.274	6.43836	-1.84110	8.15990	-2.53288
3943.275	6.50072	-1.88749	8.18918	-2.51861
3947.478	6.60678	-1.74954	8.15477	-2.51033
3951.280	6.61411	-1.75217	8.16683	-2.38985
3955.295	6.66961	-1.74719	8.15740	-2.33183
3959.287	6.68734	-1.76195	8.21376	-2.28900
3963.279	6.71899	-1.73484	8.26587	-2.21356
3967.272	6.71033	-1.73637	8.27693	-1.95545
3971.277	6.68531	-1.90779	8.28386	-2.04391
3975.271	6.67975	-1.90143	8.29688	-2.06366
3979.279	6.65304	-1.98313	8.30536	-2.08903
3983.272	6.65461	-2.00307	8.30310	-2.10191
3987.276	6.51368	-2.04871	8.31732	-1.97595
3991.283	6.53544	-2.20685	8.32796	-2.06310
3995.276	6.43528	-2.19240	8.33537	-2.07246
3999.276	6.48183	-2.22294	8.32828	-2.01914
4003.268	6.44883	-2.28050	8.26714	-1.97819
4007.276	6.40324	-2.28201	8.21558	-2.00471
4011.274	6.40922	-2.28006	8.19854	-1.99318
4015.274	6.41187	-2.24585	8.18789	-1.97088
4019.272	6.46424	-2.25423	8.16958	-1.88615
4023.276	6.43976	-2.25113	8.11291	-1.74363
4027.271	6.45010	-2.21487	8.09652	-1.77612
4031.271	6.50927	-2.20221	8.04859	-1.90095
4035.290	6.52934	-2.15217	7.96346	-1.84009
4039.272	6.57306	-2.05996	7.89293	-1.76376
4043.265	6.54384	-2.08328	7.84270	-1.79166
4047.312	6.57247	-2.05303	7.73957	-1.75429
4051.282	6.58993	-2.02668	7.66607	-1.76916
4055.267	6.61597	-2.04913	7.62696	-1.73101
4059.270	6.61543	-2.03456	7.60926	-1.70813
4063.269	6.55555	-1.99252	7.52879	-1.72998
4067.269	6.55160	-2.01843	7.46114	-1.73330
4071.264	6.52647	-2.04432	7.46431	-1.75970
4075.273	6.47992	-2.07563	7.43493	-1.70701
4079.269	6.47365	-2.05413	7.41914	-1.67280
4083.270	6.38660	-2.07673	7.43332	-1.69008
4087.273	6.37589	-2.07006	7.47400	-1.66644
4091.266	6.36469	-2.05491	7.58366	-1.70773
4095.274	6.17016	-2.07823	7.65658	-1.71387
4099.270	6.09295	-2.07971	7.69273	-1.74096
4103.273	5.98535	-2.06179	7.80333	-1.77700
4107.267	5.97205	-2.08590	7.76406	-1.76885
4111.283	5.90625	-2.00427	7.79327	-1.79141
4115.280	5.77377	-1.99432	7.85495	-1.80484
4119.270	5.72571	-1.96355	7.96619	-1.85072
4123.272	5.80464	-1.96846	8.03718	-1.86704
4127.273	5.81879	-1.91209	8.10097	-1.89962
4131.276	6.26907	-1.87916	8.15387	-1.86028
4135.275	6.16792	-1.81780	8.20289	-1.85462
4139.271	6.48249	-1.69992	8.27547	-1.84357
4143.267	6.44863	-1.62116	8.28303	-1.81325
4147.274	6.64234	-1.62157	8.27518	-1.77973
4151.270	6.62799	-1.52463	8.26631	-1.73080
4155.273	6.66352	-1.44806	8.28434	-1.71151
4159.273	6.62280	-1.43967	8.24755	-1.74457
4163.269	6.67875	-1.45448	8.22543	-1.59654
4167.269	6.70602	-1.38406	8.10287	-1.53528
4171.271	6.49234	-1.28227	7.88093	-1.41084
4175.268	4.55174	-0.06049	7.04227	-1.03213
4179.274	3.86324	1.09811	5.88682	0.79325
4183.268	3.60111	1.85338	5.22719	1.68789
4187.269	2.93874	3.29079	4.39533	3.50202
4191.269	2.09393	4.30826	3.16748	3.96247
4195.274	1.89637	4.77475	2.99376	4.38602
4199.273	1.92188	5.05833	3.31561	5.91608
4203.278	1.92391	5.39629	3.16901	6.05083
4207.268	1.89240	5.49353	3.23682	6.16988
4211.273	1.95611	5.41346	3.22920	5.89633
4215.270	1.91305	5.26834	3.46657	5.90913
4219.271	1.92183	5.37901	3.60516	5.59063
4223.275	1.81421	5.45695	3.35456	5.36580
4227.267	1.79661	5.33845	3.14283	5.70390
4231.268	1.74732	5.31436	3.21495	5.65761
4235.288	1.77020	5.36189	3.32427	5.61813
4239.281	1.79651	5.36410	3.37301	5.67963
4243.270	1.79103	5.41808	3.43986	5.74752
4247.274	1.83295	5.37411	3.42119	5.73083
4251.272	1.86997	5.37597	3.45974	5.60978
4255.311	1.80595	5.34844	3.52262	5.61179
4259.266	1.76904	5.40997	3.36344	5.63277
4263.268	1.68245	5.40965	3.38741	5.74618
4267.266	1.72550	5.36827	3.37863	5.74655
4271.271	1.69877	5.33703	3.45074	5.66574
4275.266	1.86635	5.37345	3.43261	5.72057
4279.266	1.83970	5.44516	3.42376	5.81685
4283.274	1.92468	5.52167	3.45475	5.77171
4287.270	1.77893	5.51277	3.42965	5.81431
4291.269	1.72389	5.50410	3.44626	5.87020
4295.268	1.73921	5.56407	3.52989	5.92264
4299.270	1.70182	5.58731	3.51483	5.86809
4303.271	1.65413	5.55826	3.49065	5.73901
4307.264	1.68568	5.48637	3.46226	5.68694
4311.266	1.73966	5.52313	3.42445	5.75630
4315.266	1.85237	5.59677	3.55434	5.76577
4319.272	1.74504	5.52365	3.51280	5.81687
4323.273	1.76024	5.54391	3.58344	5.87433
4327.266	1.73666	5.54499	3.56591	5.83866
4331.265	1.80712	5.52900	3.50766	5.74988
4335.271	1.88202	5.47343	3.56873	5.77852
4339.269	1.84441	5.44945	3.51893	5.74591
4343.265	1.91707	5.46540	3.56675	5.88256
4347.266	1.91538	5.42568	3.60744	5.76161
4351.269	1.94788	5.42841	3.54208	5.77969
4355.269	1.79666	5.31964	3.59127	5.81672
4359.271	1.80419	5.35608	3.61040	5.84785
4363.265	1.91018	5.40101	3.54430	5.86027
4367.273	1.92800	5.36563	3.56667	5.82802
4371.270	1.99253	5.41534	3.59434	5.77915
4375.268	1.91018	5.37418	3.58717	5.87629
4379.266	1.93430	5.38626	3.55078	5.87942
4383.260	1.97024	5.47354	3.55231	5.90824
4387.263	1.96846	5.46011	3.50531	5.94341
4391.264	2.02190	5.48755	3.43447	5.86765
4395.269	2.05705	5.50059	3.55629	5.79505
4399.264	2.34696	5.54144	4.39274	5.85643
4403.270	3.70544	5.24899	6.76268	5.75115
4407.272	4.69297	4.97645	7.81203	5.17854
4411.271	6.37604	4.67960	8.68247	5.29830
4415.266	8.07913	4.49941	9.10458	4.68995
4419.270	8.45038	4.07756	10.64110	4.70241
4423.288	9.66636	4.17020	12.29021	4.84120
4427.269	11.17405	3.77753	13.44148	4.38186
4431.266	11.74311	3.95782	14.01963	3.85717
4435.265	13.02657	3.88800	14.55179	4.22476
4439.304	12.59841	4.00166	14.74096	4.04102
4443.274	12.19370	3.99860	14.61459	3.84900
4447.269	12.16015	3.89350	14.54653	3.88366
4451.266	12.36738	3.95508	14.44178	3.71733
4455.269	12.41073	3.85529	14.44059	3.40208
4459.267	12.42008	3.86211	14.28539	3.72320
4463.264	12.45606	3.86710	14.35810	3.71366
4467.263	12.55398	3.84688	14.35265	3.45448
4471.269	12.68786	3.87456	14.37657	3.49361
4475.264	12.64000	3.93381	14.48162	3.58607
4479.296	12.64992	4.00429	14.32134	3.84480
4483.267	12.61500	3.91812	14.32912	3.84231
4487.267	12.65231	3.88676	14.34366	3.77531
4491.271	12.69292	3.90566	14.32707	3.68466
4495.271	12.75467	3.90884	14.26546	3.69183
4499.267	12.68567	3.96500	14.35889	3.64498
4503.266	12.72785	3.98473	14.42509	3.55840
4507.261	12.72749	3.97970	14.32733	3.60418
4511.267	12.76015	3.94930	14.36048	3.66642
4515.262	12.75051	3.99222	14.37399	3.60142
4519.262	12.67549	3.95440	14.35575	3.57989
4523.263	12.64028	3.91086	14.39026	3.54927
4527.262	12.68279	3.87669	14.30720	3.77324
4531.269	12.67095	3.76763	14.25914	3.58886
4535.261	12.66046	3.77910	14.20220	3.58585
4539.266	12.63995	3.79358	14.32852	3.63059
4543.261	12.72695	3.69661	14.33201	3.57585
4547.280	12.67823	3.68766	14.29615	3.67636
4551.271	12.76114	3.66607	14.37603	3.60009
4555.261	12.66894	3.69381	14.32973	3.68656
4559.263	12.75448	3.66365	14.38258	3.68698
4563.265	12.71495	3.69401	14.31298	3.61817
4567.261	12.80015	3.71063	14.22519	3.74528
4571.263	12.86912	3.76820	14.37389	3.70434
4575.269	12.83248	3.87691	14.31712	3.63300
4579.269	12.91263	3.89450	14.33651	3.61470
4583.257	12.86499	3.86322	14.38882	3.56452
4587.261	12.85300	3.95995	14.19224	3.59719
4591.261	12.88223	3.95156	14.19466	3.59339
4595.261	12.83887	3.95586	14.24648	3.67597
4599.260	12.88645	3.99339	14.19448	3.67516
4603.266	12.91942	4.01750	14.17679	3.56405
4607.262	12.96244	4.06421	14.27555	3.63691
4611.259	13.02028	4.06061	14.15787	3.65187
4615.268	12.97844	4.14995	14.28124	3.62674
4619.264	12.98890	4.08873	14.24650	3.59112
4623.266	12.96451	4.14857	14.21610	3.63472
4627.262	12.99062	4.11359	14.26888	3.60358
4631.267	13.21446	4.02767	14.42765	3.66989
4635.263	14.40905	3.99249	14.83733	3.60969
4639.259	14.71517	3.95121	16.23919	3.23624
4643.262	14.88280	2.23239	17.19137	3.02878
4647.261	15.14428	2.96451	17.46906	2.37871
4651.265	15.19202	2.83956	17.55221	1.88297
4655.258	15.45889	2.41691	17.21345	1.63154
4659.267	15.13635	2.81614	17.38952	1.57681
4663.260	15.32366	2.53861	17.37551	1.53780
4667.260	15.71106	2.58258	17.30898	1.58926
4671.265	15.36232	2.24080	17.14685	1.55217
4675.264	15.26242	2.66291	17.03368	1.64420
4679.263	15.33624	2.46634	17.32585	1.52331
4683.257	15.69130	2.40081	17.19463	1.51338
4687.289	15.39326	2.45742	17.21026	1.49708
4691.262	15.47927	2.49417	16.90609	1.48830
4695.261	15.59671	2.52378	17.22069	1.42529
4699.275	15.57408	2.53443	17.09016	1.46676
4703.262	15.58131	2.54958	17.05866	1.56482
4707.253	15.69461	2.53017	16.85139	1.66404
4711.258	15.64365	2.57842	17.05362	1.76541
4715.257	15.45615	2.66977	16.97240	1.73372
4719.259	15.59328	2.65538	16.82561	1.54810
4723.254	15.77336	2.61009	16.81260	1.67708
4727.258	15.90093	2.56242	16.85100	1.76817
4731.258	15.68587	2.51905	16.98893	1.71089
4735.257	15.55674	2.57647	17.19529	1.72481
4739.263	15.59927	2.54847	17.06084	1.85229
4743.259	15.41981	2.53488	17.07338	1.96618
4747.258	15.67368	2.53343	16.98244	1.89844
4751.259	15.73145	2.46224	17.07812	1.87509
4755.258	15.67973	2.29483	17.04430	1.85303
4759.258	15.75056	2.26117	16.99102	1.80054
4763.131	15.80882	2.32197	16.92588	1.79974
4767.135	15.73860	2.35417	16.93353	1.83132
4771.132	15.75044	2.42217	16.87866	1.73213
4775.133	15.77352	2.47644	16.80801	1.67360
4779.132	15.82331	2.46399	16.81972	1.69130
4783.132	15.87811	2.50629	16.78581	1.64655
4787.138	15.89483	2.42211	16.76231	1.57812
4791.133	15.89641	2.56359	16.71205	1.54027
4795.128	15.90095	2.41259	16.64268	1.50914
4799.134	15.93733	2.51488	16.55943	1.46266
4803.131	15.40133	2.59777	16.61103	1.99836
4807.133	14.00524	2.75755	16.23755	1.50325
4811.135	11.36937	2.75135	12.87147	1.79890
4815.137	9.15147	2.85652	11.43131	2.23876
4819.137	7.09646	2.88114	9.34780	2.30650
4823.130	5.68047	2.93383	7.87796	2.86070
4827.136	4.25529	3.10097	6.08669	2.56506
4831.142	2.03060	3.22723	4.69189	3.19826
4835.140	0.23098	3.41274	2.79387	3.89729
4839.137	-0.51758	3.86950	1.39381	3.95112
4843.129	-1.47270	3.54578	0.97564	4.20495
4847.137	-1.44304	3.79882	0.44671	3.92969
4851.135	-0.96447	3.99100	0.58334	4.45885
4855.134	-0.99124	4.00701	0.78506	4.75480
4859.131	-0.81784	4.24118	1.19857	4.57077
4863.135	-0.89009	4.15879	0.97519	4.59177
4867.136	-0.90689	4.21442	0.74928	4.22420
4871.136	-0.91386	4.21397	0.50624	4.36462
4875.137	-0.88148	4.38377	0.07976	4.48404
4879.131	-0.95946	4.35171	0.16916	4.56182
4883.133	-1.06443	4.28600	0.26103	4.55302
4887.132	-1.01873	4.38658	0.32737	4.46516
4891.134	-0.98005	4.36220	0.21472	4.49217
4895.136	-0.97906	4.28901	-0.00620	4.43618
4899.166	-1.02632	4.39314	0.01784	4.43702
4903.137	-0.95219	4.38904	0.13975	4.33703
4907.134	-1.02615	4.33909	0.19983	4.37541
4911.178	-1.04548	4.35880	0.02998	4.38836
4915.130	-0.93103	4.30839	-0.16819	4.46484
4919.131	-0.87483	4.28849	0.10131	4.50254
4923.152	-0.94524	4.23657	0.12354	4.49392
4927.133	-1.00596	4.24296	0.19799	4.42158
4931.130	-1.01357	4.12878	-0.02780	4.41879
4935.131	-0.95182	4.32911	0.04802	4.28679
4939.126	-1.03841	4.33411	0.25984	4.28726
4943.129	-1.06949	4.23502	0.27612	4.32521
4947.128	-1.08487	4.22148	0.13426	4.43404
4951.129	-1.10120	4.29798	0.14645	4.35398
4955.146	-1.10001	4.25351	0.13779	4.23211
4959.140	-1.16816	4.29865	0.12657	4.24751
4963.133	-1.17540	4.21327	0.18516	4.26013
4967.182	-1.20653	4.32262	0.17884	4.23495
4971.138	-1.17927	4.31390	0.15526	4.30429
4975.134	-1.16922	4.37332	0.21440	4.12643
4979.129	-1.21886	4.32903	0.19534	4.09684
4983.132	-1.18512	4.35381	0.21321	4.11763
4987.133	-1.06500	4.34050	0.15367	4.21491
4991.126	-0.99494	4.34529	0.12637	4.15169
4995.134	-0.93919	4.34163	0.17124	4.27624
4999.132	-1.04439	4.33339	0.21867	4.07496
5003.132	-1.01923	4.27764	0.23788	4.02708
5007.125	-1.09465	4.27832	0.16233	3.91542
5011.129	-0.98817	4.22134	0.23974	4.02320
5015.128	-1.02702	4.29564	0.21217	4.05973
5019.134	-0.94326	4.20506	0.18693	3.97942
5023.124	-0.86084	4.29270	0.16650	4.15230
5027.130	-0.95519	4.22884	0.14712	4.21864
5031.131	-0.95708	4.22207	0.11173	4.23276
5035.172	-1.06408	4.26962	0.13578	3.86069
5039.142	-1.09579	4.17158	0.12446	3.77218
5043.129	-0.99861	4.25824	0.17139	4.09136
5047.174	-1.09284	4.32245	0.12280	4.12108
5051.129	-1.07862	4.33667	0.16754	4.17798
5055.128	-1.01923	4.36699	0.07430	4.04123
5059.127	-1.16781	4.31404	-0.02725	4.01829
5063.133	-1.12938	4.32620	-0.11930	4.01682
5067.130	-1.20943	4.29384	-0.20067	4.04505
5071.130	-1.22645	4.37829	-0.11091	3.89841
5075.127	-1.11494	4.39161	0.04996	3.95011
5079.133	-1.15972	4.43925	0.07398	4.05414
5083.130	-1.18093	4.42287	-0.11572	4.14924
5087.133	-1.29067	4.47047	-0.48225	4.30297
5091.125	-1.85182	4.84262	-0.59890	4.50408
5095.133	-2.85925	5.47286	-1.26093	5.55098
5099.130	-3.26163	7.01315	-1.71422	6.93585
5103.132	-3.61238	7.67142	-1.71732	6.99092
5107.130	-3.24709	7.57222	-1.78456	6.85231
5111.131	-3.12794	7.47818	-1.92208	7.04802
5115.134	-3.29463	7.53881	-1.80013	7.17636
5119.133	-3.33243	7.50507	-1.90386	7.24300
5123.133	-3.30567	6.63652	-1.76914	7.12633
5127.126	-3.22581	6.78139	-1.78374	7.25355
5131.131	-3.29097	7.07907	-1.86873	7.22701
5135.128	-3.22866	7.15122	-1.88918	7.15904
5139.134	-3.25018	7.15789	-1.86880	7.10183
5143.126	-3.27851	7.07344	-1.94977	7.28215
5147.128	-3.14214	7.15243	-1.94528	7.28485
5151.123	-3.09513	7.14354	-1.89451	7.11994
5155.131	-3.21139	7.11754	-1.83672	7.16458
5159.128	-3.10577	7.05115	-1.75183	6.95664
5163.136	-3.11861	6.99424	-1.73366	7.00254
5167.126	-3.09918	6.98647	-1.79522	7.23952
5171.157	-3.09758	7.02440	-1.83159	7.21968
5175.132	-3.16604	7.02656	-1.85832	7.12662
5179.127	-3.11059	7.04741	-1.92666	7.02440
5183.131	-3.15164	7.01763	-1.88296	7.05131
5187.127	-3.11443	7.08509	-1.90763	7.10216
5191.130	-3.13368	7.04417	-1.88757	7.05053
5195.124	-3.12249	6.96789	-1.94712	7.15002
5199.131	-3.12801	6.95135	-1.96100	7.22763
5203.133	-3.19561	6.97569	-1.93489	7.28170
5207.130	-3.22809	6.97058	-2.00257	7.26997
5211.125	-3.21619	6.99283	-1.98881	7.05692
5215.130	-3.19598	7.03471	-1.95909	6.96244
5219.126	-3.21189	7.05296	-1.95059	6.88459
5223.129	-3.22579	7.01031	-1.91888	6.84318
5227.125	-3.18967	7.04441	-2.01142	6.79019
5231.130	-3.25073	7.04394	-1.99580	6.96544
5235.143	-3.22411	7.05793	-2.04835	6.86045
5239.153	-3.24170	7.03961	-2.03781	6.89057
5243.142	-3.14397	7.05823	-2.03848	6.89033
5247.134	-3.13326	7.05341	-2.01600	6.85358
5251.132	-3.07634	7.06586	-2.05254	7.12499
5255.128	-2.99302	7.10631	-2.05335	7.02107
5259.130	-2.98378	7.12096	-1.94184	7.00628
5263.126	-2.69908	7.05147	0.05098	7.03964
5267.129	-1.13228	7.09436	1.29142	7.11249
5271.125	0.28143	7.04190	2.43263	7.20922
5275.126	0.70136	7.08772	2.68536	7.06453
5279.125	0.94408	7.09717	2.50457	6.83125
5283.125	0.71781	7.06836	1.92193	6.92331
5287.124	0.64967	6.97151	2.01109	6.80520
5291.128	0.62019	6.91501	1.77670	6.82129
5295.128	0.58297	6.91873	1.82544	6.82202
5299.126	0.55123	6.97379	1.82448	6.69549
5303.126	0.46425	7.01160	1.72947	6.60186
5307.125	0.50083	7.04921	1.76522	6.62688
5311.127	0.50026	6.89960	1.78823	6.68695
5315.139	0.47046	6.89819	1.75647	6.61252
5319.128	0.46180	6.83873	1.76510	6.61874
5323.130	0.45510	6.79388	1.74967	6.68736
5327.130	0.44167	6.77309	1.74010	6.66627
5331.169	0.45008	6.84351	1.69897	6.67438
5335.128	0.45095	6.81294	1.68637	6.74327
5339.127	0.45507	6.84961	1.70606	6.68011
5343.122	0.43589	6.80575	1.73083	6.63612
5347.128	0.46080	6.80980	1.77286	6.69198
5351.124	0.41184	6.74317	1.79740	6.73398
5355.126	0.38211	6.75741	1.77043	6.71254
5359.121	0.44249	6.73153	1.82805	6.75204
5363.126	0.43882	6.72459	1.82606	6.71259
5367.126	0.41983	6.76904	1.82951	6.70015
5371.125	0.42162	6.76879	1.81109	6.75215
5375.156	0.42261	6.73029	1.83176	6.82143
5379.126	0.43038	6.79936	1.81002	6.76773
5383.123	0.43276	6.74886	1.82239	6.76389
5387.127	0.41812	6.79810	1.80943	6.78395
5391.124	0.38256	6.76142	1.83169	6.73253
5395.127	0.41894	6.87894	1.82366	6.69785
5399.123	0.45892	6.90750	1.83727	6.73724
5403.127	0.42604	6.90604	1.84327	6.69351
5407.123	0.42179	6.97928	1.89050	6.70198
5411.132	0.39571	7.02552	1.85489	6.66838
5415.119	0.43107	6.98108	1.82849	6.63697
5419.122	0.46862	7.14242	1.84213	6.63140
5423.142	0.54369	7.17686	1.87059	6.65301
5427.127	0.52746	7.16726	1.85380	6.63222
5431.128	0.52753	7.15310	1.91105	6.81603
5435.123	0.63948	7.13892	1.90195	6.90797
5439.121	0.61478	7.09454	1.89007	7.07303
5443.139	0.53409	7.12302	1.87517	6.95333
5447.131	0.56578	7.06030	1.85190	7.11004
5451.128	0.55711	7.10125	1.80648	7.11586
5455.130	0.52557	7.02314	1.77405	7.20614
5459.119	0.46296	7.03175	1.75352	7.18277
5463.121	0.36988	6.95927	1.80043	7.06815
5467.123	-0.31598	6.99342	1.67439	7.24313
5471.127	-1.74360	7.07993	0.01313	7.38930
5475.121	-3.60746	7.98338	-1.70655	7.48224
5479.126	-4.46759	8.40070	-2.23620	8.23447
5483.123	-4.77577	8.67405	-2.50115	7.75378
5487.122	-4.94231	8.84637	-2.77758	8.38020
5491.127	-4.52922	8.90992	-3.04232	8.38798
5495.127	-4.51371	8.94707	-2.79305	8.52368
5499.122	-4.30149	8.76522	-2.84462	8.04765
5503.127	-4.28236	8.80609	-2.88450	8.57165
5507.123	-4.22567	8.76868	-2.77567	8.43411
5511.127	-4.23806	8.70688	-2.89844	8.65930
5515.124	-4.15559	8.76730	-2.82771	8.68755
5519.125	-4.22083	8.73758	-2.94012	8.86326
5523.121	-4.17327	8.75019	-2.95441	8.85055
5527.127	-4.13320	8.69994	-2.98968	8.89579
5531.123	-4.07992	8.61338	-2.98158	9.07363
5535.129	-4.12150	8.57281	-2.87500	9.10918
5539.139	-4.14722	8.52334	-2.87992	9.09467
5543.125	-4.23234	8.52189	-2.84091	9.20903
5547.142	-4.20365	8.51502	-2.84539	9.21458
5551.123	-4.24524	8.52456	-2.88116	9.47599
5555.123	-4.23969	8.53109	-2.76334	9.22059
5559.118	-4.27711	8.53538	-2.73051	9.31953
5563.125	-4.32863	8.58427	-2.73085	9.12289
5567.120	-4.30100	8.56393	-2.69950	9.35790
5571.124	-4.33150	8.54479	-2.61414	9.43730
5575.122	-4.34305	8.58885	-2.60183	9.49842
5579.124	-4.33638	8.57393	-2.57783	9.71418
5583.123	-4.31415	8.59989	-2.61843	9.58943
5587.119	-4.26065	8.59413	-2.64968	9.83540
5591.117	-4.23944	8.55930	-2.65057	9.60483
5595.123	-4.21819	8.51400	-2.63660	9.50877
5599.120	-4.17228	8.54483	-2.59520	9.41273
5603.122	-4.12019	8.54604	-2.60391	9.60545
5607.117	-4.10310	8.51815	-2.56225	9.55973
5611.122	-4.06555	8.50713	-2.55980	9.38046
5614.996	-4.04962	8.47138	-2.61748	9.43902
5618.993	-4.09962	8.46393	-2.55168	9.54414
5623.008	-4.07298	8.50482	-2.56112	9.33533
5627.005	-4.13752	8.46184	-2.50469	9.29616
5631.011	-4.09046	8.42003	-2.39170	9.10692
5634.997	-4.13979	8.44055	-2.39715	9.15444
5638.994	-4.17253	8.48360	-2.48705	9.17968
5642.998	-4.27785	8.51087	-2.60461	9.16731
5646.995	-4.21143	8.51363	-2.57939	9.05261
5651.000	-4.23253	8.43864	-2.71966	8.80401
5654.995	-4.19600	8.47462	-2.66848	8.92268
5658.998	-4.19543	8.50988	-2.73204	8.85201
5662.991	-4.22165	8.48562	-2.77277	8.92679
5667.004	-4.19761	8.46753	-2.78627	8.98726
5671.013	-4.06878	8.44065	-2.43251	8.88181
5674.996	-3.50029	8.29400	-1.75337	8.43250
5678.999	-2.41896	6.56015	-0.41219	7.27709
5682.995	-2.23271	5.61973	0.77094	4.90617
5686.998	-0.64404	3.58737	1.54723	3.94962
5690.990	0.02715	3.07858	2.44048	2.70288
5694.993	0.54024	2.14046	3.85345	2.22437
5698.997	2.06785	1.33396	4.70525	1.73599
5702.996	2.25568	1.05840	4.86620	0.97231
5706.997	3.69724	0.83832	5.11627	0.33202
5710.999	3.85696	0.79845	6.47951	0.01059
5714.992	4.57036	0.12640	6.08912	-0.13083
5719.000	4.48446	0.44871	5.99438	0.02276
5722.995	4.58816	0.50670	5.72667	-0.02270
5726.993	4.60934	0.70994	5.22776	0.03017
5730.990	4.79218	0.85057	5.32648	-0.00144
5735.010	4.74232	0.65018	5.20332	-0.05417
5738.995	5.05538	0.57345	5.59713	-0.05898
5742.993	5.07690	0.63008	5.62630	-0.00423
5746.994	5.38690	0.54346	5.62065	0.02515
5750.998	5.07683	0.51066	5.66256	-0.02404
5754.988	5.15364	0.31151	5.65324	-0.04070
5758.991	5.35682	0.36061	5.74195	-0.08416
5762.994	5.51120	0.43870	5.75003	-0.25270
5766.997	5.70792	-0.07719	5.93593	-0.34632
5771.028	5.82709	-0.60477	6.68151	-0.86501
5774.997	5.87383	-1.06473	7.02015	-1.76424
5778.991	5.87324	-1.55410	6.51307	-1.13734
5782.991	5.89318	-2.41533	6.68761	-2.36540
5786.993	5.94843	-2.97335	6.82339	-3.12176
5790.995	5.96664	-2.84514	6.69495	-3.31195
5794.996	5.99502	-3.00775	6.67855	-3.18962
5798.994	6.12173	-2.96570	6.71723	-3.18287
5802.994	6.11056	-2.93605	6.74391	-3.19087
5806.991	6.09030	-2.86698	6.73918	-3.07083
5810.992	6.08038	-2.99774	6.83448	-3.16115
5814.992	6.04502	-3.03175	6.78595	-3.17389
5818.991	5.99841	-2.99364	6.75292	-3.25565
5822.996	5.96561	-3.07552	6.64848	-3.31701
5826.991	5.89976	-3.11132	6.66526	-3.35429
5830.995	5.81503	-3.09316	6.64332	-3.36644
5834.993	5.83812	-3.12000	6.60446	-3.44640
5838.991	5.85834	-3.15104	6.61504	-3.51118
5842.993	5.85725	-3.20442	6.57176	-3.40985
5846.992	5.78273	-3.23119	6.60463	-3.35081
5850.988	5.77384	-3.24521	6.62459	-3.39557
5854.993	5.84070	-3.30204	6.58881	-3.38342
5858.989	5.81081	-3.31695	6.59273	-3.34964
5862.992	5.80482	-3.34648	6.56471	-3.33639
5866.993	5.81142	-3.36189	6.58962	-3.31893
5870.989	5.80806	-3.33717	6.58981	-3.29735
5874.999	5.82100	-3.32726	6.64371	-3.34531
5878.992	5.82267	-3.36840	6.70235	-3.32186
5882.990	5.79079	-3.33382	6.69911	-3.31684
5886.994	5.80506	-3.30619	6.72014	-3.34934
5890.991	5.82616	-3.28402	6.67593	-3.37549
5894.990	5.86651	-3.32658	6.66518	-3.34069
5898.985	5.82235	-3.31102	6.59424	-3.40426
5902.991	5.78558	-3.32538	6.67334	-3.45229
5906.992	5.71200	-3.32504	6.67400	-3.48157
5910.990	5.61168	-3.30728	6.66251	-3.49584
5914.995	5.53766	-3.31869	6.64364	-3.48093
5918.994	5.55538	-3.31295	6.59094	-3.46152
5922.996	5.50326	-3.24347	6.59300	-3.53401
5926.993	5.50505	-3.24970	6.76973	-3.52246
5930.989	5.46217	-3.18256	6.87010	-3.54040
5934.996	5.50011	-3.06505	6.79831	-3.64251
5938.993	5.29081	-3.46483	6.68477	-3.68714
5942.990	4.78531	-3.83000	6.27662	-4.16304
5946.994	2.77582	-6.18734	6.13743	-5.86609
5950.991	2.02143	-6.85767	4.34275	-7.09038
5954.995	1.91893	-7.45869	3.90034	-6.82983
5959.000	1.64320	-8.38895	3.79660	-7.41550
5962.997	1.14819	-8.61110	3.04204	-8.03510
5966.989	0.83558	-8.83843	2.43954	-8.39144
5971.015	0.57806	-8.87999	2.08768	-8.34153
5974.983	0.47349	-8.97233	2.45527	-8.35759
5978.993	0.81774	-8.97889	2.26415	-8.38832
5982.991	0.89289	-8.82734	2.28004	-8.32854
5986.993	0.79585	-8.90843	2.68341	-8.31711
5990.990	0.77459	-8.92069	2.42951	-8.36389
5994.986	0.56984	-9.07777	2.46417	-8.54508
5998.993	0.61709	-9.11568	2.32659	-8.55527
6002.989	0.54682	-9.17840	2.14568	-8.63191
6006.994	0.52267	-9.20282	2.09772	-8.63516
6010.984	0.51679	-9.13267	2.12682	-8.60101
6014.986	0.52327	-9.20837	2.10563	-8.60448
6018.986	0.60923	-9.00205	1.87907	-8.67794
6022.986	0.59694	-8.97984	1.86201	-8.70498
6026.982	0.53835	-9.03609	1.83117	-8.71583
6030.992	0.57208	-9.10032	1.79338	-8.63305
6034.986	0.59285	-9.19465	1.76609	-8.64342
6038.991	0.61501	-9.08620	1.72046	-8.60257
6042.995	0.62881	-9.09478	1.71164	-8.50844
6047.005	0.65352	-9.11923	1.72855	-8.49107
6050.987	0.62655	-9.14977	1.72232	-8.46780
6054.987	0.67072	-9.18231	1.75681	-8.48929
6058.992	0.74915	-9.23259	1.70851	-8.54349
6062.989	0.75218	-9.23394	1.75255	-8.49135
6066.988	0.79146	-9.28188	1.81753	-8.46219
6070.990	0.86553	-9.30450	1.89372	-8.46577
6074.988	0.88550	-9.33561	1.92780	-8.53984
6078.987	0.86438	-9.32669	1.92860	-8.62434
6082.990	0.85937	-9.38836	1.99867	-8.63610
6086.991	0.79349	-9.42061	2.01179	-8.71240
6090.986	0.80950	-9.36153	1.96734	-8.72700
6095.001	0.81198	-9.25654	1.91655	-8.77607
6098.989	0.83220	-9.21692	1.85685	-8.79177
6102.986	0.76044	-9.18741	1.78101	-8.82138
6106.985	0.84568	-9.26222	1.84183	-8.88564
6110.985	0.96978	-9.20946	1.88653	-8.95476
6114.991	1.04468	-9.24515	1.89513	-9.00289
6118.987	0.97916	-9.16919	1.75297	-9.05861
6122.998	0.93405	-9.19873	1.82671	-9.07203
6126.992	0.86500	-9.29035	1.80831	-9.06820
6130.981	-0.00601	-9.58538	1.73385	-9.16861
6134.986	-1.16880	-10.49495	1.46174	-9.40741
6138.999	-2.35318	-11.67556	0.81076	-9.92211
6142.988	-2.31349	-12.77111	-0.08182	-10.30998
6146.987	-1.72654	-13.24948	0.11411	-10.64477
6150.988	-1.78493	-13.75629	-0.24401	-10.55988
6154.986	-2.16139	-13.95897	-0.57297	-10.79547
6158.986	-2.21900	-14.04002	-0.13121	-10.63838
6162.988	-2.17281	-13.92772	-0.16270	-10.54540
6166.991	-2.30313	-13.84102	-0.09689	-10.44262
6170.984	-2.28410	-13.69345	-0.17911	-10.49769
6174.989	-2.29250	-13.41221	-0.20579	-10.59751
6178.986	-2.28487	-13.40269	-0.15523	-10.72240
6183.016	-2.26304	-13.35290	-0.19464	-10.75749
6186.989	-2.17551	-13.50805	-0.29434	-10.78785
6190.983	-2.25551	-13.43521	-0.27294	-10.79878
6194.990	-2.16255	-13.34914	-0.23229	-10.93259
6198.986	-2.13192	-13.34865	-0.15432	-11.00202
6202.984	-2.07199	-13.38905	-0.39291	-11.06247
6206.989	-2.11527	-13.31848	-0.36295	-11.14823
6210.997	-2.07982	-13.40964	-0.45018	-11.10189
6214.985	-1.97071	-13.60736	-0.41777	-11.14316
6218.985	-2.14404	-13.49580	-0.53786	-11.13962
6222.982	-2.06436	-13.59439	-0.42643	-11.03801
6226.988	-2.05194	-13.55537	-0.50460	-10.89853
6230.983	-1.94263	-13.43615	-0.47535	-10.98555
6234.986	-1.99275	-13.43555	-0.50475	-10.97853
6238.986	-1.87579	-13.57060	-0.55381	-10.87796
6242.987	-1.82160	-13.49444	-0.54419	-11.00753
6246.985	-1.68687	-13.60915	-0.52490	-11.01829
6250.991	-1.86739	-13.74516	-0.53987	-10.97165
6254.983	-1.99042	-13.73586	-0.54436	-10.96163
6258.986	-2.22845	-13.64549	-0.55525	-10.94913
6262.985	-2.41529	-13.71808	-0.47813	-10.95252
6266.985	-2.02939	-13.66813	-0.49785	-10.99555
6270.980	-2.23258	-13.65781	-0.50982	-11.03668
6274.987	-2.19033	-13.56915	-0.53118	-11.10643
6278.985	-2.25330	-13.53187	-0.54823	-11.09678
6282.987	-2.12496	-13.74117	-0.60148	-11.10615
6286.979	-2.03774	-13.76833	-0.60300	-11.10156
6290.996	-2.26098	-13.95552	-0.66868	-11.08603
6294.991	-2.05945	-13.76154	-0.61143	-11.06797
6298.984	-1.89206	-13.79089	-0.65345	-10.99506
6303.003	-2.03608	-13.71955	-0.65431	-10.95900
6306.982	-1.94389	-13.79419	-0.72461	-10.80906
6310.988	-1.88950	-13.67249	-0.69893	-10.92740
6314.984	-1.80895	-13.79939	-0.70630	-10.94236
6318.987	-1.82098	-13.69274	-0.68491	-10.83331
6322.978	-2.08525	-13.73250	-0.67330	-10.82499
6326.980	-2.33824	-13.62639	-0.63047	-10.82257
6330.989	-2.17975	-13.57164	-0.59372	-10.88272
6334.989	-2.24874	-13.52468	-0.58588	-10.81369
6338.997	-2.45723	-13.51626	-0.57915	-10.76464
6342.985	-2.18491	-13.60592	-0.55838	-10.82460
6346.982	-1.95252	-13.66405	-0.53811	-10.82825
6350.981	-2.00361	-13.51243	-0.54235	-10.84174
6354.983	-2.15784	-13.53693	-0.58858	-10.80321
6358.985	-2.24079	-13.45861	-0.58126	-10.79327
6362.982	-2.43649	-13.52742	-0.68660	-10.76208
6366.982	-2.34220	-13.57470	-0.66260	-10.76105
6370.984	-2.34711	-13.55279	-0.65166	-10.77282
6374.991	-2.41016	-13.68342	-0.64248	-10.79020
6378.981	-2.36019	-13.79441	-0.70561	-10.82833
6382.988	-2.20424	-13.93670	-0.74456	-10.85204
6386.982	-2.39936	-13.79511	-0.77548	-10.87329
6390.986	-2.31601	-13.72488	-0.84094	-10.83518
6394.985	-2.38249	-13.66423	-0.89748	-10.79583
6398.984	-2.59470	-13.56035	-1.02392	-10.76446
6402.978	-2.77941	-10.81822	-1.74883	-10.34049
6407.022	-3.48689	-8.74397	-2.56317	-8.86175
6410.982	-3.36196	-7.58262	-2.62343	-7.97819
6414.985	-3.30965	-7.69275	-2.67722	-7.17390
6418.979	-3.66812	-5.79807	-3.03912	-5.51186
6423.004	-3.71533	-5.68550	-3.04390	-5.26830
6426.987	-3.40279	-5.03063	-2.94626	-4.53470
6430.980	-3.76052	-4.76643	-3.00433	-4.36254
6434.984	-3.87109	-5.12426	-2.81276	-4.82617
6438.984	-3.92524	-5.34817	-2.80639	-4.89972
6442.978	-3.96632	-5.12867	-2.89784	-5.12852
6446.985	-4.09587	-5.13319	-2.86650	-4.97579
6450.980	-4.15078	-5.00322	-2.76809	-4.97899
6454.988	-4.23132	-5.05976	-2.82318	-4.83921
6458.979	-4.26171	-5.17484	-2.80746	-4.77074
6462.981	-4.32409	-5.14082	-2.81667	-4.86809
6466.979	-4.20891	-5.04604	-2.80600	-4.90061
6470.855	-4.26084	-5.07602	-2.79382	-4.80436
6474.858	-4.30112	-5.10383	-2.68219	-4.92019
6478.858	-4.29113	-5.02173	-2.78055	-4.83857
6482.980	-4.28054	-4.93348	-2.84648	-4.80259
6486.856	-4.21136	-4.84395	-2.85890	-4.72416
6490.854	-4.22498	-4.51445	-2.94371	-4.65003
6494.852	-4.28913	-4.77880	-2.97596	-4.55169
6498.854	-4.21891	-4.92814	-3.02628	-4.60218
6502.858	-4.23964	-4.77025	-3.13642	-4.59233
6506.859	-4.17156	-4.75277	-3.00321	-4.70204
6510.854	-4.11658	-4.47649	-3.03274	-4.69025
6514.855	-4.16939	-4.54156	-3.11507	-4.75052
6518.856	-4.17981	-4.34948	-3.14847	-4.71500
6522.854	-4.12041	-4.31767	-3.15295	-4.82360
6526.858	-4.11752	-4.25780	-3.12920	-4.86211
6530.851	-4.18724	-4.35989	-3.14004	-4.89290
6534.857	-4.23875	-4.55276	-3.14026	-4.83580
6538.858	-4.18213	-4.52913	-3.10272	-4.98647
6542.854	-4.28824	-4.70210	-3.07847	-4.99387
6546.861	-4.11945	-4.66847	-3.01596	-4.98421
6550.860	-4.10105	-4.86426	-3.01175	-4.96189
6554.852	-4.19385	-4.85026	-2.93329	-4.93677
6558.857	-4.19489	-4.66904	-2.89490	-4.89954
6562.853	-4.12275	-4.70998	-2.96973	-4.88619
6566.855	-4.07836	-4.71729	-2.89032	-4.87429
6570.856	-4.08671	-4.61479	-2.90081	-4.82511
6574.855	-4.11562	-4.69193	-2.96950	-4.85753
6578.853	-4.02663	-4.50995	-2.90950	-4.87428
6582.855	-4.04352	-4.34529	-2.91616	-4.86287
6586.859	-4.00319	-4.28115	-2.89997	-4.82053
6590.853	-4.03589	-4.55133	-2.86512	-4.80981
6594.858	-4.05461	-4.46560	-2.93785	-4.81118
6598.853	-4.01865	-4.49534	-3.00277	-4.80754
6602.859	-3.93087	-4.23320	-2.87710	-4.79581
6606.849	-3.94713	-2.49138	-2.92176	-4.65101
6610.862	-3.87070	-1.78250	-2.76767	-2.42123
6614.855	-3.60099	0.00766	-2.20203	-1.32285
6618.851	-2.92166	1.31219	-1.83588	0.27769
6622.858	-2.12687	2.58948	-1.45678	0.78411
6626.884	-1.51524	3.60498	-1.26292	2.37937
6630.855	-1.41998	4.33609	-0.89818	3.61992
6634.848	-1.14111	5.20282	-0.61781	4.82487
6638.854	-2.06746	5.75242	-0.87897	5.79291
6642.855	-1.71375	6.86425	-0.78082	5.91461
6646.848	-1.45931	6.47105	-0.76608	6.03543
6650.850	-1.41675	6.56732	-0.78883	5.87913
6654.852	-1.56499	6.44028	-0.70687	5.85691
6658.873	-1.44086	6.30574	-0.59568	5.44983
6662.852	-1.38662	6.20053	-0.49145	5.76381
6666.854	-1.36479	6.40871	-0.22614	5.87005
6670.877	-1.46712	6.28672	-0.35253	5.53631
6674.866	-1.46807	6.41772	-0.29580	5.59180
6678.855	-1.56084	6.39567	-0.22363	5.76442
6682.850	-1.55645	6.44999	-0.23763	5.80755
6686.850	-1.64273	6.38266	-0.10642	5.93673
6690.855	-1.65079	6.30437	-0.11443	6.10026
6694.852	-1.61421	6.30480	-0.11935	6.14917
6698.851	-1.62874	6.25459	-0.14198	5.93936
6702.849	-1.62448	6.26565	-0.14724	5.88281
6706.855	-1.66976	6.38772	-0.25974	6.05942
6710.865	-1.69297	6.33115	-0.32704	5.76545
6714.854	-1.68431	6.35726	-0.39509	5.97409
6718.849	-1.70085	6.36586	-0.48190	6.00354
6722.855	-1.70160	6.43965	-0.54543	6.00886
6726.851	-1.63784	6.46082	-0.58195	6.01573
6730.850	-1.59504	6.47704	-0.65531	6.16721
6734.853	-1.48925	6.51280	-0.67446	6.16912
6738.855	-1.53840	6.56569	-0.52744	6.27007
6742.846	-1.50033	6.56627	-0.48096	6.34494
6746.855	-1.55499	6.55029	-0.29158	6.26929
6750.850	-1.56722	6.49798	-0.47636	6.27311
6754.855	-1.58249	6.51225	-0.26597	6.37535
6758.845	-1.64367	6.51277	-0.28280	6.44648
6762.849	-1.76720	6.49578	-0.23807	6.46074
6766.850	-1.83652	6.43970	-0.19899	6.48084
6770.855	-2.01251	6.44845	-0.27813	6.49467
6774.848	-1.88836	6.41425	-0.22780	6.49658
6778.855	-1.93653	6.44772	-0.17707	6.52251
6782.850	-1.85204	6.42493	-0.21408	6.56473
6786.854	-1.82314	6.43234	-0.28401	6.62168
6790.848	-1.77774	6.48049	-0.31141	6.56693
6794.861	-1.70653	6.47502	-0.34836	6.57985
6798.870	-1.66304	6.49331	-0.40316	6.52350
6802.852	-1.57478	6.45616	-0.57635	6.42101
6806.859	-1.51375	6.45956	-0.67037	6.40377
6810.850	-1.43079	6.45239	-0.74476	6.32906
6814.853	-1.39468	6.48357	-0.92837	6.22112
6818.846	-1.31667	6.47185	-0.93259	6.15732
6822.854	-1.25614	6.35417	-0.67908	5.81792
6826.851	-1.19892	5.34729	-0.36243	4.63603
6830.853	-1.06783	2.77365	-0.29570	1.44540
6834.850	-0.94631	-0.04065	0.96338	-0.45765
6838.850	-0.65382	-1.79442	0.64054	-1.89871
6842.886	-0.79657	-3.63648	0.92224	-3.34793
6846.845	-0.77394	-4.74783	0.79955	-4.38512
6850.853	-0.69479	-5.45356	1.09837	-6.19455
6854.848	-0.79498	-7.62691	0.68198	-6.72363
6858.849	-0.81141	-7.72742	0.24872	-6.95952
6862.853	-0.84883	-7.76575	0.12875	-6.93401
6866.850	-0.89654	-7.52711	0.41293	-6.82331
6870.851	-0.70074	-6.42766	0.10818	-6.93144
6874.851	-0.70548	-6.54711	0.48014	-6.90481
6878.850	-0.73819	-7.13209	0.26793	-6.92604
6882.852	-0.86945	-7.13578	0.18119	-6.94317
6886.850	-0.83555	-7.09398	0.25262	-7.03551
6890.843	-0.90314	-7.09706	0.09498	-7.04007
6894.847	-0.87528	-7.16529	0.05048	-7.12367
6898.850	-0.88168	-7.10522	-0.01948	-7.19821
6902.845	-0.80268	-7.09805	-0.09617	-7.34464
6906.846	-0.76320	-7.11008	-0.10739	-7.32386
6910.846	-0.75233	-7.13040	-0.00412	-7.37092
6914.850	-0.76144	-7.17308	0.18283	-7.47368
6918.848	-0.78300	-7.19131	0.18526	-7.56151
6922.850	-0.79536	-7.18615	0.17206	-7.52068
6926.851	-0.81344	-7.17651	0.10270	-7.53482
6930.844	-0.84587	-7.18176	0.15528	-7.51573
6934.852	-0.80694	-7.23411	0.09944	-7.52469
6938.851	-0.82726	-7.27053	0.09267	-7.56442
6942.852	-0.82441	-7.35340	0.08033	-7.52901
6946.843	-0.93294	-7.37883	0.08587	-7.48104
6950.853	-1.00720	-7.30877	0.08503	-7.42416
6954.863	-0.99330	-7.31313	0.13124	-7.42276
6958.860	-0.97777	-7.23764	0.11106	-7.39909
6962.851	-1.00960	-7.17598	0.05150	-7.39651
6966.846	-1.02270	-7.13818	0.01598	-7.34663
6970.849	-0.97556	-7.09775	0.04981	-7.32815
6974.851	-0.79995	-7.06238	0.05797	-7.30434
6978.843	-0.95117	-7.00309	-0.01770	-7.29370
6982.852	-0.98308	-6.87393	-0.02953	-7.26478
6986.857	-1.04974	-6.74342	-0.10158	-7.32254
6990.846	-1.03089	-6.70631	-0.07113	-7.30054
6994.845	-0.96661	-6.75053	-0.05452	-7.33621
6998.845	-0.95234	-6.72911	-0.04110	-7.39915
7002.849	-0.91701	-6.75680	-0.06969	-7.42128
7006.846	-0.91324	-6.71814	-0.11141	-7.40625
7010.842	-0.95760	-6.75329	-0.14896	-7.41692
7014.852	-0.97737	-6.77067	-0.15484	-7.37097
7018.848	-1.02161	-6.78060	-0.15839	-7.39111
7022.847	-1.00948	-6.83395	-0.09746	-7.40153
7026.845	-1.04039	-6.89602	-0.14186	-7.42716
7030.846	-0.97584	-6.90712	-0.07321	-7.37786
7034.844	-1.01615	-6.95544	-0.05651	-7.35694
7038.842	-1.04662	-6.95562	0.01072	-7.34643
7042.875	-1.04883	-6.93674	0.03020	-7.27923
7046.849	-1.02910	-6.92748	0.02095	-7.16962
7050.846	-0.99725	-6.99485	-0.06463	-7.19850
7054.850	-0.93726	-7.01032	-0.05045	-7.19694
7058.846	-0.87334	-7.03114	-0.00903	-7.23245
7062.849	-0.94557	-7.00132	-0.10587	-7.19685
7066.840	-0.97529	-7.00696	-0.12406	-7.16994
7070.844	-0.87443	-7.03222	-0.14431	-7.16150
7074.844	-0.91314	-7.12833	-0.13439	-7.22346
7078.850	-0.91383	-7.11355	-0.12615	-7.19793
7082.844	-0.93718	-7.15167	-0.12858	-7.18831
7086.853	-0.88034	-7.20750	-0.11759	-7.30806
7090.846	-0.83637	-7.25316	-0.14300	-7.34164
7094.846	-0.95103	-7.22139	-0.18363	-7.36654
7098.842	-0.89644	-7.10789	-0.06711	-7.40266
7102.839	-0.96078	-7.08459	-0.21239	-7.38673
7106.844	-0.99303	-7.03842	-0.22093	-7.38820
7110.843	-1.04781	-7.11772	-0.23879	-7.42360
7114.841	-0.96708	-7.10121	-0.16429	-7.42536
7118.844	-1.12623	-7.00819	-0.06155	-7.43140
7122.846	-1.04367	-6.97335	-0.13595	-7.37750
7126.850	-1.08929	-6.97401	-0.14369	-7.41596
7130.839	-1.12514	-6.99537	-0.15015	-7.37403
7134.842	-1.16347	-6.97672	-0.02122	-7.36630
7138.848	-1.15163	-6.98779	0.16787	-7.36852
7142.844	-1.23052	-6.99459	0.02993	-7.36542
7146.848	-1.20596	-7.01605	0.08259	-7.43890
7150.843	-1.00556	-7.03196	0.20750	-7.35396
7154.845	-0.78662	-6.96822	0.87729	-7.35668
7158.846	0.62972	-6.94468	1.72523	-7.35597
7162.840	1.46608	-6.87412	2.98671	-7.27726
7166.843	1.74087	-6.96294	3.24241	-7.27935
7170.850	2.21677	-6.98027	2.94965	-7.33339
7174.843	2.07442	-6.84748	3.19840	-7.27399
7178.844	2.25013	-6.73601	3.34012	-7.23870
7182.843	2.15485	-6.73298	3.06605	-7.18980
7186.843	2.35863	-6.73188	3.18843	-7.14434
7190.837	2.38058	-6.68639	3.04133	-7.11005
7194.842	2.39217	-6.72983	3.17230	-7.13705
7198.842	2.54878	-6.68335	3.36114	-7.14110
7202.842	2.39146	-6.86134	3.26171	-7.13910
7206.838	2.43221	-6.88930	3.23314	-7.14582
7210.847	2.45081	-6.58136	3.11574	-7.16445
7214.848	2.37994	-6.64853	3.21869	-7.12481
7218.864	2.34914	-6.69218	3.20869	-7.08978
7222.845	2.27573	-6.84824	3.20563	-7.08613
7226.843	2.35132	-6.87774	3.34665	-7.09643
7230.842	2.37496	-6.76752	3.46926	-7.13058
7234.847	2.45817	-6.82349	3.43242	-7.09473
7238.846	2.44464	-6.64040	3.36287	-7.07489
7242.842	2.37340	-6.69512	3.32120	-7.07194
7246.842	2.41633	-6.65683	3.29503	-7.05456
7250.847	2.44150	-6.77011	3.32147	-7.09649
7254.841	2.43711	-6.64833	3.50929	-7.10735
7258.842	2.51963	-6.64831	3.50865	-7.12850
7262.875	2.52485	-6.80400	3.53607	-7.14722
7266.845	2.52968	-6.84461	3.55107	-7.16500
7270.842	2.48805	-6.99746	3.54227	-7.13409
7274.845	2.47680	-7.12352	3.54831	-7.14476
7278.844	2.43677	-7.10725	3.55676	-7.27263
7282.843	2.44464	-6.95447	3.49040	-7.31126
7286.840	2.52300	-7.01205	3.41704	-7.30226
7290.835	2.57962	-6.98594	3.42376	-7.31192
7294.844	2.51309	-7.05325	3.51194	-7.21938
7298.861	2.52604	-7.08609	3.60774	-7.15329
7302.843	2.55881	-7.12806	3.65257	-7.29171
7306.844	2.50940	-7.19991	3.49458	-7.26294
7310.841	2.59725	-7.10216	3.38429	-7.30172
7314.848	2.60188	-7.03461	3.25572	-7.28233
7318.841	2.58806	-6.95527	3.28150	-7.25551
7322.845	2.62905	-6.87058	3.47040	-7.17765
7326.714	2.55515	-7.00251	3.42532	-7.09789
7330.715	2.55581	-6.97115	3.78696	-6.99819
7334.709	2.63210	-7.02023	3.51332	-6.92593
7338.721	2.50895	-7.23043	3.32342	-7.05118
7342.722	2.50452	-7.30242	3.37353	-7.15554
7346.723	2.43424	-7.13667	3.28521	-7.02190
7350.714	2.50147	-7.15154	3.45363	-6.96274
7354.720	2.58006	-7.13601	3.52321	-6.96003
7358.726	2.64099	-7.25006	3.50098	-6.96288
7362.722	2.63923	-7.24204	3.52633	-7.03245
7366.721	2.55705	-7.28557	3.12776	-7.07862
7370.714	2.48133	-7.33154	3.33535	-7.05962
7374.715	2.55738	-7.28432	3.43543	-7.15086
7378.713	2.54274	-7.20398	3.44191	-7.16800
7382.723	2.59113	-7.21470	3.52254	-7.10129
7386.719	2.63284	-7.21850	3.50529	-7.12594
7390.718	2.70537	-7.20801	3.51327	-7.13411
7394.711	2.68504	-7.20371	3.56042	-7.22150
7398.720	2.68631	-7.25053	3.51021	-7.28539
7402.715	2.69208	-7.31221	3.49507	-7.29227
7406.714	2.63579	-7.37303	3.33401	-7.32640
7410.713	2.67031	-7.24457	3.41827	-7.26471
7414.717	2.69812	-7.30876	3.53327	-7.25339
7418.720	2.66880	-7.36138	3.47223	-7.25049
7422.735	2.65344	-7.46553	3.51285	-7.14129
7426.717	2.65914	-7.42857	3.54900	-7.20340
7430.714	2.60518	-7.42430	3.54302	-7.22766
7434.715	2.52906	-7.47182	3.52183	-7.21667
7438.710	2.62080	-7.52972	3.50412	-7.13865
7442.719	2.66132	-7.53490	3.57518	-7.12932
7446.715	2.57791	-7.54871	3.52413	-7.08255
7450.718	2.63977	-7.51190	3.49834	-7.16524
7454.710	2.74566	-7.54067	3.45106	-7.22463
7458.720	2.72233	-7.58970	3.44273	-7.29411
7462.715	2.75504	-7.54610	3.48368	-7.35238
7466.727	2.79986	-7.50201	3.31459	-7.45046
7470.710	2.79548	-7.52594	3.32441	-7.48499
7474.714	2.74200	-7.55445	3.17260	-7.49666
7478.713	2.73593	-7.49763	2.98025	-7.48529
7482.714	2.72667	-7.48353	2.94777	-7.49473
7486.713	2.57612	-7.42862	2.94916	-7.46588
7490.717	2.47742	-7.38848	2.87168	-7.48232
7494.712	2.55693	-7.40971	2.81892	-7.45629
7498.716	2.56716	-7.36310	2.95738	-7.45251
7502.710	2.52547	-7.34775	2.90433	-7.42199
7506.723	2.52381	-7.36041	2.86836	-7.44726
7510.712	2.45426	-7.52534	2.99123	-7.47575
7514.716	2.26985	-8.73670	2.92879	-7.74722
7518.709	1.92158	-9.96007	2.92327	-8.29483
7522.711	1.62093	-9.90603	2.77753	-8.97072
7526.711	1.29958	-9.84794	2.69326	-8.97502
7530.709	0.66208	-10.26373	2.51158	-8.97660
7534.714	0.06621	-10.68088	1.60553	-9.36684
7538.708	-0.29252	-10.74674	1.74945	-9.47985
7542.717	0.09190	-10.66726	1.34782	-9.48968
7546.718	0.37814	-10.96473	1.14156	-9.56648
7550.719	0.43577	-11.00081	1.01278	-9.61263
7554.711	0.12568	-10.83277	0.98762	-9.70916
7558.712	0.16367	-10.80645	1.06279	-9.75332
7562.712	0.12138	-10.91377	0.95772	-9.80396
7566.711	0.16330	-10.97000	0.73995	-9.87846
7570.707	-0.08989	-10.99730	0.83377	-9.81049
7574.715	-0.30342	-11.03090	0.75608	-9.82507
7578.712	-0.05125	-10.98618	0.76791	-9.77607
7582.711	-0.06877	-10.98711	0.79729	-9.63466
7586.706	-0.17134	-10.91679	0.70699	-9.56657
7590.714	-0.18573	-10.60258	0.68590	-9.61987
7594.710	-0.23336	-10.54843	0.63521	-9.58857
7598.710	-0.33543	-10.76289	0.71645	-9.50729
7602.706	-0.28389	-10.68097	0.70392	-9.40159
7606.710	-0.39633	-10.71281	0.74761	-9.39882
7610.730	-0.48999	-10.78014	0.80888	-9.38582
7614.714	-0.40201	-10.77614	0.86488	-9.39311
7618.942	-0.38574	-10.74897	0.88599	-9.42677
7622.714	-0.40005	-10.76164	0.88485	-9.44063
7626.714	-0.33958	-10.81281	0.86389	-9.48098
7630.716	-0.31357	-10.73902	0.83488	-9.54253
7634.710	-0.26793	-10.73967	0.86210	-9.48468
7638.712	-0.37362	-10.70209	0.83687	-9.50040
7642.714	-0.27255	-10.72424	0.80248	-9.49234
7646.717	-0.31213	-10.66489	0.75077	-9.52295
7650.711	-0.35906	-10.64341	0.65920	-9.52691
7654.711	-0.25093	-10.68282	0.60843	-9.52188
7658.704	-0.29414	-10.62704	0.58394	-9.48221
7662.715	-0.17504	-10.58847	0.55974	-9.49784
7666.712	-0.14647	-10.49749	0.47438	-9.50072
7670.715	-0.20708	-10.50211	0.45502	-9.48892
7674.728	-0.16938	-10.54528	0.47909	-9.40695
7678.716	-0.21589	-10.55721	0.45289	-9.48733
7682.707	-0.22688	-10.59732	0.43904	-9.46786
7686.711	-0.20269	-10.66791	0.43363	-9.52898
7690.717	-0.22385	-10.75781	0.40839	-9.55445
7694.743	-0.21167	-10.76492	0.44435	-9.57768
7698.713	-0.18008	-10.75587	0.43837	-9.61851
7702.704	-0.27252	-10.78461	0.40909	-9.66668
7706.708	-0.24103	-10.80285	0.43917	-9.73610
7710.708	-0.21787	-10.91789	0.48833	-9.78286
7714.713	-0.15990	-10.93323	0.50515	-9.84546
7718.703	-0.23021	-10.92861	0.45606	-9.87462
7722.714	-0.31843	-10.95136	0.47167	-9.93862
7726.708	-0.33203	-11.04566	0.45971	-9.99222
7730.709	-0.34757	-11.05060	0.49376	-10.06265
7734.753	-0.39415	-11.05749	0.47976	-10.03684
7738.712	-0.40442	-11.13627	0.43646	-10.06119
7742.703	-0.45207	-11.13359	0.59191	-10.02319
7746.706	-0.33759	-11.12487	0.55364	-9.96263
7750.710	-0.34072	-10.94612	0.53386	-9.88640
7754.715	-0.30136	-10.90962	0.52307	-9.86360
7758.717	-0.37963	-10.72816	0.51106	-9.76926
7762.708	-0.34796	-10.76703	0.54510	-9.73317
7766.712	-0.21100	-10.57476	0.55004	-9.72288
7770.706	-0.18765	-10.45614	0.53240	-9.63340
7774.712	-0.06939	-10.24279	0.58439	-9.59383
7778.709	-0.03383	-10.24929	0.58878	-9.55855
7782.712	0.03934	-10.20754	0.58066	-9.51881
7786.707	0.11031	-10.09284	0.55960	-9.52305
7790.707	0.19571	-10.06937	0.56607	-9.54022
7794.709	0.23480	-10.05645	0.55974	-9.52619
7798.713	0.25165	-10.02167	0.59786	-9.51670
7802.719	0.32565	-9.97652	0.62362	-9.51844
7806.706	0.40122	-9.93056	0.61528	-9.51464
7810.712	0.36129	-9.91510	0.61684	-9.49876
7814.708	0.35697	-9.91238	0.65893	-9.50414
7818.711	0.37494	-9.89963	0.65709	-9.52075
7822.711	0.40638	-9.85151	0.65136	-9.52062
7826.709	0.41775	-9.83231	0.68972	-9.54497
7830.708	0.45229	-9.81444	0.67985	-9.54507
7834.705	0.46892	-9.76433	0.66930	-9.54497
7838.715	0.38936	-9.70828	0.69806	-9.55146
7842.706	0.43452	-9.69869	0.67017	-9.59203
7846.706	0.39132	-9.64451	0.62340	-9.60086
7850.712	0.32677	-9.59426	0.60121	-9.61805
7854.707	0.32131	-9.55024	0.60672	-9.63606
7858.711	0.33970	-9.53759	0.58516	-9.64897
7862.712	0.34863	-9.54804	0.66273	-9.64999
7866.708	0.37722	-9.53523	0.78501	-9.59761
7870.708	0.55086	-9.60038	1.03163	-9.66075
7874.704	1.47791	-9.60357	1.80918	-9.56236
7878.712	1.24248	-9.63130	2.25295	-9.51445
7882.710	1.40827	-9.59666	2.52713	-9.50262
7886.703	1.32302	-9.59852	2.20203	-9.50847
7890.706	1.29102	-9.56944	2.42309	-9.55282
7894.711	1.10554	-9.62155	2.22790	-9.49669
7898.707	1.34557	-9.68809	2.02537	-9.49415
7902.707	1.13846	-9.69894	2.12347	-9.46772
7906.705	1.35115	-9.52751	2.18525	-9.40280
7910.709	1.43796	-9.47178	2.20136	-9.44221
7914.702	1.62477	-9.60727	2.30303	-9.44731
7918.741	1.52129	-9.60657	2.29912	-9.53091
7922.715	1.44282	-9.62239	2.31591	-9.52824
7926.701	1.43007	-9.68393	2.19995	-9.52377
7930.704	1.33562	-9.86535	2.10897	-9.50883
7934.708	1.37697	-9.99354	2.03717	-9.48985
7938.704	1.47260	-10.02069	2.14315	-9.49391
7942.708	1.46494	-9.98389	2.19244	-9.46288
7946.704	1.43947	-9.90861	2.21214	-9.43473
7950.709	1.53113	-9.91699	2.19051	-9.47108
7954.716	1.45559	-10.02457	2.15911	-9.50763
7958.708	1.44748	-9.95490	2.18525	-9.52164
7962.713	1.59142	-9.85340	2.10364	-9.53260
7966.719	1.72892	-9.92524	2.03905	-9.56508
7970.703	1.71025	-9.98451	2.00688	-9.60699
7974.704	1.64451	-9.95132	1.96923	-9.53978
7978.706	1.75002	-10.03580	2.04027	-9.56934
7982.705	1.76713	-10.00973	2.00983	-9.48750
7986.710	1.76743	-10.02199	2.04066	-9.49234
7990.703	1.82946	-10.00530	2.01243	-9.44628
7994.708	1.86000	-10.10997	2.02111	-9.48581
7998.700	1.76403	-9.96828	2.08349	-9.48004
8002.703	1.88670	-9.92998	2.07410	-9.36554
8006.709	1.86786	-9.92881	2.03588	-9.31583
8010.703	1.92624	-9.98763	2.08627	-9.30311
8014.702	1.92733	-10.07778	2.12558	-9.31826
8018.710	1.93182	-10.10700	2.09802	-9.30111
8022.705	1.84813	-10.12101	2.08039	-9.27025
8026.706	1.70360	-10.10096	2.09720	-9.32317
8030.703	1.69064	-10.13165	2.08377	-9.40319
8034.708	1.76703	-10.13767	2.07105	-9.46520
8038.721	1.69215	-10.18302	2.03655	-9.43315
8042.704	1.75503	-10.38845	1.99178	-9.43009
8046.708	1.66071	-10.36407	2.00301	-9.49804
8050.708	1.64010	-10.48075	2.03496	-9.54610
8054.700	1.59088	-10.43308	2.00388	-9.58914
8058.709	1.49445	-10.51367	1.92483	-9.54795
8062.704	1.47603	-10.45977	1.93539	-9.58469
8066.707	1.54187	-10.09523	1.99657	-9.63341
8070.703	1.69378	-10.27654	1.97542	-9.64635
8074.708	1.91848	-10.29926	2.01137	-9.66081
8078.704	1.89709	-10.43096	2.00676	-9.59938
8082.705	1.71883	-10.40042	2.02921	-9.61400
8086.699	1.58944	-10.46184	2.02421	-9.67054
8090.707	1.62966	-10.42750	1.98075	-9.64890
8094.704	1.69381	-10.43522	1.97941	-9.64065
8098.703	1.66304	-10.42419	2.05169	-9.57319
8102.703	1.71397	-10.34123	2.03920	-9.64740
8106.703	1.75766	-10.51029	2.03288	-9.60732
8110.726	1.76068	-10.42247	1.98702	-9.62084
8114.701	1.58862	-10.47441	2.03164	-9.69303
8118.728	1.58475	-10.42804	1.94434	-9.59025
8122.698	1.70422	-10.45109	2.12701	-9.66816
8126.700	2.78963	-10.52003	3.13571	-9.70104
8130.709	4.41472	-10.50719	5.41964	-9.63082
8134.703	5.62839	-10.48600	7.09414	-9.64873
8138.702	6.70893	-10.31972	8.72915	-9.73256
8142.700	8.22752	-10.04892	11.06480	-9.73840
8146.699	9.96446	-10.14606	13.05540	-9.76334
8150.696	10.25718	-10.02101	13.88850	-9.80491
8154.700	12.90192	-9.53181	15.22135	-9.89080
8158.700	13.27943	-9.37368	15.21370	-9.76943
8162.704	13.16416	-9.45348	14.94398	-9.88044
8166.705	12.66356	-9.62059	14.70730	-9.99128
8170.706	12.77051	-9.46860	14.47820	-10.01777
8174.702	12.84609	-9.33534	14.61318	-10.05413
8178.582	12.79966	-9.32278	14.58299	-10.03522
8182.575	12.82097	-9.38534	14.79452	-10.01101
8186.575	12.65666	-9.26105	14.82435	-9.90584
8190.571	12.86067	-9.18656	14.76742	-9.90807
8194.575	13.04737	-8.95747	14.92774	-9.87856
8198.576	13.15016	-9.07781	14.95691	-9.86837
8202.579	13.04412	-9.12616	14.97511	-9.75889
8206.573	13.26596	-9.01135	14.93636	-9.77330
8210.575	13.27849	-8.62573	15.07600	-9.67212
8214.574	13.29441	-8.80588	14.90846	-9.61498
8218.580	13.18087	-9.02843	15.06794	-9.63839
8222.577	13.30632	-9.11382	15.10626	-9.66163
8226.580	13.47798	-8.88223	15.02790	-9.60830
8230.575	13.51839	-8.85568	15.03288	-9.58727
8234.578	13.56167	-9.03572	14.85602	-9.54432
8238.596	13.48904	-9.16068	14.87571	-9.57231
8242.580	13.44289	-9.10326	14.86003	-9.39457
8246.576	13.38844	-9.24421	14.71236	-9.34516
8250.570	13.45688	-9.03764	14.65270	-9.25348
8254.574	13.42988	-9.10958	14.63184	-9.37740
8258.574	13.48277	-9.11811	14.61418	-9.33991
8262.584	13.63857	-8.99286	14.64766	-9.11583
8266.571	13.58779	-8.97972	14.67133	-9.15971
8270.573	13.49495	-9.12642	14.61917	-9.20797
8274.574	13.38844	-9.23936	14.59749	-9.15925
8278.579	13.38691	-9.31265	14.65014	-9.17260
8282.571	13.45970	-9.02860	14.61392	-9.17946
8286.580	13.53327	-9.10387	14.51237	-9.07285
8290.575	13.69237	-9.00132	14.57836	-9.16894
8294.574	13.45939	-8.85594	14.60795	-9.20775
8298.579	13.52803	-9.04338	14.51698	-9.07713
8302.584	13.56008	-8.94919	14.50909	-9.06919
8306.576	13.47259	-9.01391	14.54523	-9.11785
8310.594	13.50058	-8.95908	14.46091	-9.20808
8314.577	13.55822	-8.97479	14.48434	-9.09542
8318.574	13.52200	-8.98893	14.53884	-8.99099
8322.575	13.38205	-9.22653	14.44788	-9.03274
8326.579	13.48432	-9.10976	14.41632	-9.01940
8330.603	13.51579	-9.05652	14.34159	-9.08928
8334.579	13.32630	-9.00914	14.42951	-8.98215
8338.577	13.38170	-9.00345	14.44457	-8.97702
8342.576	13.42336	-9.05659	14.47650	-8.97754
8346.585	13.32630	-8.89813	14.49818	-9.03551
8350.574	13.41476	-8.96582	14.51937	-8.92142
8354.573	13.41948	-8.86811	14.45630	-8.88686
8358.573	13.47097	-8.81496	14.40738	-8.88253
8362.573	13.46005	-8.64907	14.42125	-8.83443
8366.590	13.50488	-8.76552	14.41345	-8.84566
8370.578	13.49408	-8.81761	14.44434	-8.78145
8374.568	13.40467	-8.85036	14.37105	-8.73652
8378.578	13.36380	-9.02753	14.28865	-8.77698
8382.574	13.34202	-8.95723	14.35924	-8.78875
8386.581	13.44972	-8.85486	14.38598	-8.86483
8390.569	13.49739	-8.68605	14.31239	-8.79056
8394.572	13.49204	-8.85912	14.29536	-8.77682
8398.573	13.48664	-8.79426	14.32116	-8.79974
8402.576	13.47456	-8.91464	14.39578	-8.86294
8406.568	13.48817	-8.84782	14.36355	-8.78383
8410.573	13.52932	-8.86596	14.37617	-8.83905
8414.576	13.50746	-8.89764	14.36465	-8.82375
8418.573	13.54699	-8.90399	14.41727	-8.83449
8422.590	13.62617	-8.82283	14.40272	-8.85374
8426.582	13.64452	-8.89880	14.39152	-8.84725
8430.574	13.59553	-8.87244	14.35666	-8.75555
8434.571	13.61157	-8.89290	14.37075	-8.71856
8438.574	13.61600	-8.90460	14.50095	-8.75732
8442.575	13.75935	-8.92199	15.00107	-8.78067
8446.568	13.70842	-9.00177	16.56631	-8.82213
8450.571	14.18048	-9.22930	16.67095	-8.88761
8454.571	14.45916	-9.75559	16.67644	-9.14308
8458.572	14.53646	-9.97814	16.28398	-9.22793
8462.567	14.21397	-9.95477	15.89418	-9.36074
8466.577	14.18505	-9.97902	15.77456	-9.26214
8470.579	14.71454	-9.97014	15.60544	-9.35196
8474.587	14.24779	-10.16776	15.72425	-9.42155
8478.573	14.58975	-10.13653	15.84939	-9.46901
8482.576	14.57016	-10.13823	15.83076	-9.47973
8486.578	14.56409	-10.09615	15.90196	-9.52747
8490.577	14.70135	-10.18018	15.77660	-9.58769
8494.570	14.70869	-10.12029	15.83593	-9.61645
8498.574	14.80892	-10.06312	15.76111	-9.62335
8502.612	14.74240	-9.98808	15.73168	-9.64934
8506.580	14.77892	-9.99154	15.75217	-9.67618
8510.577	14.79572	-9.98369	15.75286	-9.72678
8514.573	14.82771	-9.97193	15.79515	-9.71081
8518.566	14.89038	-9.94538	15.76189	-9.70041
8522.571	14.81467	-9.88413	15.73826	-9.66626
8526.571	14.79793	-9.88509	15.68081	-9.64326
8530.569	14.86075	-9.86533	15.66723	-9.61273
8534.569	14.66847	-9.91375	15.58004	-9.54217
8538.571	14.71807	-9.98742	15.58435	-9.49965
8542.566	14.68707	-10.09297	15.48540	-9.42207
8546.569	14.70015	-10.09333	15.53882	-9.36473
8550.579	14.68921	-10.35137	15.51817	-9.31599
8554.570	14.74683	-10.31616	15.55411	-9.23803
8558.568	14.80340	-10.39055	15.47349	-9.20670
8562.568	14.88245	-10.34787	15.38657	-9.13420
8566.568	14.78287	-10.35171	15.37324	-9.10030
8570.568	14.98125	-10.15509	15.34762	-9.07252
8574.571	14.97289	-10.36621	15.25799	-9.03690
8578.570	15.15589	-10.36188	15.28319	-8.98895
8582.566	14.92783	-10.55135	15.22146	-8.97679
8586.569	15.09141	-10.40786	15.25695	-8.96704
8590.571	14.88271	-10.49824	15.15466	-8.96491
8594.574	14.65595	-10.42766	15.15076	-8.93682
8598.565	14.90887	-10.35676	15.11440	-8.95037
8602.569	14.54370	-10.07062	15.09337	-8.96020
8606.567	14.53321	-9.80264	15.12682	-8.98952
8610.579	14.54970	-9.63169	15.13540	-8.99398
8614.575	14.71206	-9.53373	15.08518	-8.98931
8618.570	14.53191	-9.72020	15.07142	-9.00690
8622.569	14.52944	-9.67183	15.08595	-9.04674
8626.564	14.59242	-9.72277	15.12185	-9.03143
8630.574	14.51056	-9.73975	15.13912	-9.00298
8634.575	14.51079	-9.72703	15.16590	-8.94563
8638.603	14.52223	-9.79300	15.11493	-8.93833
8642.577	14.65760	-9.75973	15.10781	-8.90775
8646.568	14.75997	-9.77630	15.12705	-8.85604
8650.568	14.81785	-9.94863	15.20915	-8.81539
8654.566	14.84832	-10.06647	15.12606	-8.78242
8658.568	15.08030	-10.15659	15.14428	-8.82693
8662.567	14.79960	-10.17121	15.21039	-8.87040
8666.567	14.84373	-10.22916	15.22738	-8.79621
8670.567	14.67514	-10.14324	15.12768	-8.84286
8674.571	14.47047	-10.00574	15.10277	-8.89540
8678.572	14.42991	-10.07142	15.04332	-8.96570
8682.564	14.36861	-10.16343	15.06848	-9.01288
8686.567	14.30498	-10.34010	15.05457	-9.07512
8690.569	14.11591	-10.61021	14.97361	-9.10638
8694.571	14.18244	-10.95159	14.96652	-9.14087
8698.566	14.13241	-10.59523	14.90871	-9.20970
8702.572	14.20565	-10.60367	14.84267	-9.21081
8706.568	14.21087	-10.68654	14.80036	-9.17000
8710.570	14.19522	-10.72336	14.74818	-9.15502
8714.571	14.22099	-10.76697	14.66248	-9.18601
8718.571	14.28212	-10.70115	14.67727	-9.19493
8722.572	14.37354	-10.72991	14.70316	-9.17164
8726.570	14.38148	-10.75479	14.73587	-9.13384
8730.568	14.41860	-10.84438	14.75593	-9.09867
8734.587	14.42134	-11.02115	14.66787	-9.05605
8738.569	14.37045	-10.87475	14.62826	-9.02830
8742.574	14.32148	-10.86862	14.73416	-8.93179
8746.572	14.08587	-10.89871	14.73615	-8.90811
8750.567	13.84467	-10.92404	14.66578	-8.93088
8754.566	13.71516	-10.97260	14.64571	-8.96669
8758.570	13.93396	-10.92028	14.67950	-8.94271
8762.576	13.78916	-10.90787	14.66508	-8.93675
8766.615	13.79585	-10.87399	14.73172	-8.95473
8770.574	13.81958	-10.84393	14.74583	-9.00372
8774.568	13.79243	-10.87109	14.89077	-9.01222
8778.568	13.80437	-10.78474	14.85275	-8.97205
8782.568	13.87636	-10.78374	15.17792	-8.95191
8786.561	14.02066	-10.72340	15.37769	-8.95924
8790.571	14.15692	-10.64835	14.95758	-9.07386
8794.565	14.29541	-10.63323	15.12652	-9.11105
8798.565	14.45602	-10.56486	15.04529	-9.09140
8802.576	14.73026	-10.56639	14.89038	-9.03126
8806.566	14.79651	-10.58242	14.90774	-9.06055
8810.573	14.94734	-10.58730	14.78050	-9.08856
8814.565	14.55988	-10.67152	14.58273	-9.05195
8818.563	14.58975	-10.69449	14.50249	-9.02893
8822.563	14.41306	-10.88893	14.46987	-9.01550
8826.567	14.20159	-10.91891	14.52700	-9.01136
8830.561	14.24522	-10.87463	14.49660	-8.98913
8834.570	14.02996	-10.92239	14.42842	-9.00081
8838.569	14.02167	-10.99683	14.40300	-8.95937
8842.572	14.29990	-10.99687	14.40472	-8.92607
8846.569	13.99120	-10.95756	14.39899	-8.93087
8850.564	14.00833	-10.91305	14.35102	-8.84097
8854.569	11.80633	-11.03352	13.64893	-8.85894
8858.561	11.03272	-11.07076	12.21461	-8.84317
8862.566	10.60097	-11.23875	11.23807	-8.83918
8866.563	9.31170	-11.17957	10.54502	-8.79244
8870.563	10.11221	-11.12334	10.30358	-8.78545
8874.569	9.67121	-11.36991	10.59459	-8.74970
8878.564	10.22906	-11.48987	10.61536	-8.70163
8882.561	10.29156	-11.75550	10.48826	-8.66322
8886.575	9.94163	-11.76216	10.55975	-8.62801
8890.566	10.20608	-11.73488	10.55757	-8.57999
8894.565	10.24425	-11.77973	10.69637	-8.57861
8898.564	10.18312	-11.75565	10.71770	-8.63501
8902.565	10.21784	-11.76767	10.58881	-8.72986
8906.562	9.98442	-11.77839	10.63605	-8.87963
8910.567	10.03354	-11.78766	10.61620	-8.81419
8914.571	10.08142	-11.85075	10.66630	-8.87824
8918.566	9.97515	-11.82130	10.61169	-8.92502
8922.565	9.87514	-11.77609	10.56239	-8.95804
8926.578	10.03797	-11.68169	10.58222	-8.99730
8930.564	10.05924	-11.65191	10.54915	-8.96917
8934.564	9.98822	-11.69493	10.54015	-9.02720
8938.602	9.98280	-11.71380	10.45260	-9.08691
8942.573	9.97493	-11.70060	10.42418	-9.07486
8946.564	10.03792	-11.71097	10.42713	-9.05921
8950.560	9.90248	-11.73849	10.43047	-9.03123
8954.586	9.86245	-11.77285	10.44729	-9.03502
8958.565	9.81549	-11.72305	10.40932	-9.03369
8962.562	9.81255	-11.71107	10.41217	-9.03309
8966.567	9.87396	-11.66275	10.43426	-9.05272
8970.567	9.79515	-11.70328	10.44021	-9.03128
8974.562	9.85084	-11.67545	10.47789	-9.06000
8978.566	9.73976	-11.53153	10.52528	-9.09601
8982.563	9.69390	-11.42622	10.50369	-9.04708
8986.561	9.66528	-11.41912	10.55481	-9.01846
8990.568	9.64067	-11.34501	10.55517	-8.97537
8994.562	9.62200	-11.36720	10.51700	-8.96828
8998.562	9.61636	-11.35631	10.53958	-8.96618
9002.560	9.63554	-11.35882	10.60682	-8.95386
9006.566	9.66069	-11.33312	10.61272	-8.95426
9010.570	9.68949	-11.38694	10.61047	-8.95364
9014.562	9.70483	-11.40630	10.62490	-9.00240
9018.561	9.69168	-11.46745	10.57457	-9.00302
9022.567	9.70507	-11.55106	10.57433	-9.00915
9026.562	9.71563	-11.52053	10.56236	-9.07487
9030.562	9.72829	-11.49290	10.55665	-9.20322
9034.431	9.75234	-11.53120	10.50014	-9.33230
9038.437	9.67767	-11.44099	10.52953	-9.35833
9042.435	9.66137	-11.44438	10.53922	-9.34460
9046.437	9.64171	-11.35386	10.44475	-9.40514
9050.439	9.61691	-11.20547	10.51604	-9.48147
9054.445	9.61100	-11.13971	10.63602	-9.46144
9058.437	9.63351	-11.07142	10.55457	-9.45064
9062.436	9.63848	-11.02565	10.72314	-9.43121
9066.438	9.64680	-11.02600	10.72345	-9.43332
9070.440	9.68787	-11.04797	10.83455	-9.41734
9074.431	9.87806	-10.97954	10.85792	-9.37267
9078.441	9.83944	-10.96824	10.88312	-9.24566
9082.438	10.58934	-10.72995	11.22382	-8.97625
9086.437	13.29462	-8.13500	11.62890	-8.27474
9090.431	14.31086	-6.78815	13.90406	-6.81859
9094.434	15.10779	-5.15752	14.43470	-5.81957
9098.440	15.20427	-5.01962	14.56083	-5.40597
9102.440	15.52727	-4.43366	15.09092	-5.06446
9106.432	15.83937	-3.38056	15.86199	-4.99341
9110.462	16.14309	-2.91492	15.74785	-5.03713
9114.436	16.11618	-2.57369	15.67292	-4.90738
9118.443	16.14364	-2.99868	15.92785	-4.70748
9122.435	16.24027	-2.98734	15.86585	-4.65407
9126.433	16.21883	-3.09859	16.06018	-4.62612
9130.436	16.30421	-3.04150	15.92666	-4.67439
9134.435	16.25374	-2.94897	15.86413	-4.69996
9138.445	16.27629	-2.93298	16.00677	-4.48774
9142.442	16.36057	-2.88696	15.98498	-4.40460
9146.438	16.37547	-2.89179	16.04858	-4.33483
9150.432	16.34768	-2.91170	16.11664	-4.03254
9154.440	16.34060	-2.90515	16.12149	-4.04503
9158.435	16.30028	-2.94024	16.00083	-3.80203
9162.435	16.28713	-3.03147	16.03967	-3.67552
9166.467	16.19714	-3.05848	16.09529	-3.48000
9170.439	16.20581	-3.05544	15.97193	-3.52920
9174.431	16.17743	-3.03506	15.86525	-3.43486
9178.438	16.15847	-3.08307	15.90148	-3.43763
9182.441	16.15708	-3.09401	15.80475	-3.32958
9186.445	16.21597	-3.12290	15.67496	-3.42795
9190.434	16.24635	-3.09604	15.74451	-3.35757
9194.439	16.23617	-3.12129	15.80657	-3.35754
9198.429	16.28219	-3.15089	16.10085	-3.29609
9202.433	16.32910	-3.15070	15.79912	-3.28985
9206.438	16.28981	-3.12142	15.97808	-3.30436
9210.434	16.36016	-3.08205	15.82511	-3.32038
9214.428	16.38260	-3.06852	15.92421	-3.31191
9218.439	16.40888	-3.05587	15.98468	-3.31156
9222.436	16.46498	-3.05594	15.96601	-3.32342
9226.433	16.48725	-3.05963	16.06662	-3.34247
9230.429	16.49560	-3.08116	16.06550	-3.32576
9234.433	16.48890	-3.12577	16.03765	-3.35143
9238.428	16.47014	-3.15323	16.00170	-3.32956
9242.438	16.47931	-3.13500	15.94607	-3.37608
9246.432	16.50158	-3.18333	15.93625	-3.48089
9250.434	16.54850	-3.21614	15.94229	-3.47145
9254.432	16.54880	-3.29387	15.88355	-3.56054
9258.433	16.56337	-3.30629	15.90704	-3.59438
9262.434	16.63562	-3.31915	15.90828	-3.63723
9266.438	16.64936	-3.34131	15.91886	-3.67102
9270.427	16.60267	-3.33968	15.91941	-3.71211
9274.437	16.66227	-3.32835	15.96188	-3.71204
9278.434	16.67587	-3.29580	16.02096	-3.65381
9282.436	16.76936	-3.25748	16.04840	-3.71398
9286.428	16.82122	-3.28115	16.12408	-3.64900
9290.432	16.84132	-3.26757	16.08585	-3.63193
9294.432	16.66544	-3.30414	16.11881	-3.66215
9298.430	16.62063	-3.24009	16.12307	-3.64978
9302.432	16.63036	-3.18332	16.15096	-3.67372
9306.440	16.42832	-3.10008	16.22096	-3.68666
9310.439	16.58400	-3.15674	16.26479	-3.66845
9314.432	16.64460	-3.11912	16.29182	-3.68806
9318.601	16.64824	-3.07773	16.25011	-3.76418
9322.436	16.78622	-3.08130	16.19576	-3.78094
9326.430	16.70427	-3.05958	16.17031	-3.72073
9330.435	16.58548	-3.00015	16.14407	-3.76752
9334.435	16.61685	-2.96485	16.11812	-3.75960
9338.431	16.75562	-2.87558	16.13276	-3.73965
9342.433	16.79784	-2.76507	16.05312	-3.73448
9346.438	16.78553	-2.85629	16.03822	-3.72128
9350.432	16.91883	-2.84946	15.96202	-3.67459
9354.427	16.90784	-2.82330	15.95465	-3.70446
9358.432	16.89175	-2.83500	15.99003	-3.65057
9362.435	16.77591	-2.89383	15.88268	-3.62902
9366.429	15.10878	-2.90761	15.32611	-3.59808
9370.431	12.93184	-2.95190	12.90013	-3.63951
9374.431	10.10526	-2.95079	11.18568	-3.42635
9378.467	8.27645	-2.99363	9.72925	-3.34932
9382.429	7.04024	-3.00920	8.20826	-3.28621
9386.429	5.09611	-3.13136	6.07089	-3.01367
9390.435	3.92685	-3.10968	4.30519	-3.01834
9394.440	1.78352	-3.17201	2.61860	-3.12118
9398.432	-0.26192	-3.23521	0.57079	-2.93064
9402.433	-0.86178	-3.29165	-0.61024	-2.92831
9406.429	-2.45656	-3.45911	-1.32518	-3.08799
9410.434	-2.46773	-3.42168	-1.99079	-3.00198
9414.431	-2.20961	-3.30291	-2.04778	-2.99445
9418.433	-2.17732	-3.43243	-2.01640	-2.86331
9422.447	-1.63427	-3.57318	-1.95002	-2.95530
9426.434	-1.89431	-3.62282	-1.92334	-3.06335
9430.436	-2.22542	-3.58354	-1.96323	-3.06018
9434.430	-2.10949	-3.60397	-2.03204	-3.01783
9438.431	-2.18795	-3.63960	-2.14632	-3.16055
9442.432	-2.27860	-3.66996	-2.13938	-3.16425
9446.429	-2.34344	-3.68419	-2.24391	-3.26990
9450.434	-2.41871	-3.52325	-2.22959	-3.21798
9454.452	-2.47623	-3.53969	-2.24426	-3.31335
9458.433	-2.38942	-3.52352	-2.30261	-3.24138
9462.429	-2.55849	-3.49923	-2.26490	-3.34506
9466.429	-2.47303	-3.42018	-2.31240	-3.37909
9470.440	-2.51173	-3.39349	-2.32649	-3.36691
9474.439	-2.45280	-3.41247	-2.38707	-3.38235
9478.431	-2.46823	-3.30849	-2.44056	-3.43481
9482.428	-2.46496	-3.39633	-2.42587	-3.40554
9486.432	-2.48973	-3.35406	-2.47801	-3.42482
9490.428	-2.52349	-3.43994	-2.53902	-3.41657
9494.429	-2.37570	-3.40225	-2.55331	-3.43120
9498.434	-2.50734	-3.42455	-2.59804	-3.42767
9502.431	-2.46394	-3.43441	-2.62774	-3.44107
9506.433	-2.44150	-3.47018	-2.66325	-3.46358
9510.428	-2.43947	-3.36542	-2.67685	-3.45355
9514.438	-2.37605	-3.24076	-2.72677	-3.49354
9518.428	-2.46887	-3.43610	-2.72652	-3.51849
9522.429	-2.37352	-3.43689	-2.76864	-3.53365
9526.431	-2.48299	-3.38676	-2.70933	-3.53551
9530.428	-2.42773	-3.41676	-2.75544	-3.61644
9534.428	-2.50434	-3.42705	-2.73308	-3.59243
9538.431	-2.51762	-3.42712	-2.84435	-3.63864
9542.430	-2.46459	-3.35239	-2.76039	-3.62735
9546.427	-2.45837	-3.26902	-2.75091	-3.66263
9550.430	-2.40882	-3.28031	-2.77124	-3.71752
9554.439	-2.52825	-3.35374	-2.84871	-3.66959
9558.429	-2.42062	-3.37509	-2.74036	-3.61525
9562.428	-2.43015	-3.32729	-2.93376	-3.61880
9566.423	-2.49538	-3.30400	-2.83214	-3.50456
9570.426	-2.41628	-3.28195	-2.90549	-3.64568
9574.431	-2.52292	-3.23430	-2.94490	-3.51348
9578.432	-2.54425	-3.20749	-2.91762	-3.57947
9582.425	-2.52433	-3.20566	-2.82806	-3.54190
9586.433	-2.42423	-3.14764	-2.91213	-3.51583
9590.426	-2.70129	-3.19826	-2.98354	-3.59095
9594.429	-2.64928	-3.28136	-3.00735	-3.54527
9598.459	-2.91497	-3.28465	-3.20320	-3.64060
9602.430	-3.88960	-3.38489	-4.06364	-3.80002
9606.426	-7.14260	-3.40416	-6.06190	-3.76441
9610.448	-8.42870	-5.13845	-6.78074	-4.79058
9614.432	-9.71818	-5.47514	-8.04472	-5.22446
9618.433	-10.35796	-5.58578	-9.02781	-5.51652
9622.430	-12.24837	-5.82206	-10.25062	-5.67458
9626.427	-12.88923	-6.09068	-10.72060	-6.25638
9630.427	-13.81516	-6.69113	-12.10056	-6.33389
9634.426	-13.42066	-7.01512	-12.38206	-6.47169
9638.432	-13.32280	-6.97002	-12.23673	-6.49526
9642.430	-13.29584	-6.88821	-12.15844	-6.42113
9646.426	-13.53524	-6.79646	-12.09308	-6.55088
9650.427	-12.95254	-6.93729	-12.18064	-6.61405
9654.424	-13.18155	-7.03185	-11.82825	-6.61821
9658.441	-13.32503	-7.00171	-12.36618	-6.63930
9662.434	-13.05114	-7.02130	-12.29427	-6.69044
9666.427	-13.41789	-7.10217	-12.42254	-6.81135
9670.427	-13.49073	-7.11259	-12.34264	-6.83969
9674.433	-13.67864	-7.22201	-12.41270	-6.84228
9678.434	-13.59961	-7.01610	-12.53336	-6.83762
9682.433	-13.48373	-7.13821	-12.37532	-6.86655
9686.425	-13.71509	-7.23330	-12.35550	-6.94408
9690.430	-13.68049	-6.98242	-12.45913	-6.96377
9694.426	-13.49889	-6.98817	-12.53187	-6.95975
9698.429	-13.63609	-7.20226	-12.52428	-6.98258
9702.424	-13.62195	-7.16030	-12.47579	-7.06858
9706.425	-13.65655	-6.98348	-12.57749	-7.07910
9710.424	-13.68377	-7.19232	-12.58810	-7.01040
9714.429	-13.62716	-7.07485	-12.42754	-6.99844
9718.421	-13.64492	-6.88490	-12.55202	-7.02918
9722.436	-13.65875	-7.05092	-12.52121	-6.95944
9726.454	-13.55571	-6.88366	-12.33558	-7.05076
9730.425	-13.54535	-6.89322	-12.61743	-7.01106
9734.428	-13.64007	-6.89713	-12.54635	-6.98488
9738.424	-13.72067	-6.87162	-12.57212	-6.95028
9742.431	-13.62896	-6.82478	-12.45970	-6.98058
9746.425	-13.65003	-6.82877	-12.49578	-6.98120
9750.425	-13.79283	-6.86402	-12.59254	-6.97382
9754.424	-13.71809	-6.82700	-12.49429	-7.02858
9758.431	-13.70835	-6.88985	-12.58668	-7.05604
9762.431	-13.64832	-6.98408	-12.60488	-7.07640
9766.427	-13.56455	-6.94778	-12.53083	-7.12676
9770.423	-13.64898	-6.99778	-12.57845	-7.10774
9774.429	-13.48233	-6.97132	-12.63487	-7.19284
9778.426	-13.59623	-6.93172	-12.53500	-7.22503
9782.429	-13.49272	-6.97014	-12.66379	-7.29339
9786.424	-13.46524	-6.90659	-12.73392	-7.22755
9790.425	-13.58894	-6.90894	-12.70208	-7.27985
9794.423	-13.37996	-6.88247	-12.71809	-7.21717
9798.426	-13.38609	-6.87105	-12.63069	-7.27476
9802.422	-13.44817	-6.89124	-12.71068	-7.18889
9806.432	-13.31643	-6.77864	-12.77072	-7.15457
9810.440	-13.56195	-6.74682	-12.73014	-7.18634
9814.427	-13.28392	-6.70572	-12.75474	-7.22308
9818.456	-13.41829	-6.69017	-12.78800	-7.17181
9822.426	-13.40765	-6.82377	-12.82309	-7.24782
9826.424	-13.24217	-6.66134	-12.83069	-7.21232
9830.427	-13.38677	-6.74133	-12.74395	-7.31024
9834.419	-13.29725	-6.69808	-12.64021	-7.19632
9838.425	-13.28970	-6.53970	-12.69315	-7.25635
9842.425	-13.33283	-6.68563	-12.71394	-7.16916
9846.428	-13.39389	-6.49507	-12.66502	-7.10965
9850.428	-13.47029	-6.42402	-12.65607	-7.20698
9854.423	-13.40502	-6.55736	-12.62840	-7.14414
9858.427	-13.45259	-6.52332	-12.63501	-7.22434
9862.423	-13.33248	-6.47530	-12.76631	-7.24059
9866.428	-13.45036	-6.54194	-12.78370	-7.19702
9870.424	-13.43005	-6.50675	-12.65819	-7.18782
9874.422	-13.39560	-6.47932	-12.67223	-7.20041
9878.420	-13.45592	-6.57365	-12.83333	-7.25375
9882.423	-13.43254	-6.50914	-12.77277	-7.16823
9886.299	-13.34366	-6.49128	-12.71141	-7.21332
9890.296	-13.37308	-6.57526	-12.83451	-7.27675
9894.307	-13.34888	-6.64097	-12.84298	-7.16468
9898.296	-13.29725	-6.56203	-12.87048	-7.31459
9902.297	-13.25649	-6.56902	-12.88654	-7.24744
9906.301	-13.29850	-6.58758	-12.85010	-7.24116
9910.298	-13.24167	-6.58770	-12.79645	-7.15401
9914.301	-13.22476	-6.55019	-12.72452	-7.19900
9918.295	-13.22987	-6.54359	-12.81195	-7.18077
9922.311	-13.18183	-6.58958	-12.75101	-7.16602
9926.302	-13.20056	-6.60527	-12.74801	-7.11626
9930.301	-13.05974	-6.57503	-12.47231	-7.16464
9934.301	-12.08233	-6.43687	-11.28352	-7.06834
9938.300	-10.12130	-6.25056	-9.68279	-7.11341
9942.299	-9.26041	-6.14879	-8.45354	-6.95098
9946.297	-8.25549	-5.21558	-7.70075	-6.69280
9950.298	-7.30473	-5.61692	-6.55694	-6.55341
9954.299	-5.54621	-5.12419	-5.83078	-5.99018
9958.316	-4.69080	-4.52624	-4.99310	-5.83854
9962.300	-2.70386	-3.99313	-4.13828	-5.80169
9966.301	-4.61154	-4.04713	-4.06651	-5.73297
9970.295	-4.50190	-3.76398	-4.30763	-5.60362
9974.300	-4.41862	-4.04191	-4.63469	-5.71035
9978.301	-4.47918	-4.04765	-4.32096	-5.71576
9982.304	-4.22831	-4.35357	-4.07629	-5.63873
9986.309	-4.27812	-4.44589	-4.12885	-5.58015
9990.299	-4.08456	-4.37570	-4.13833	-5.50567
9994.299	-4.08604	-4.25732	-4.07458	-5.45762
9998.301	-4.18400	-4.30626	-3.90820	-5.53092
10002.305	-4.00615	-4.38630	-3.88764	-5.50988
10006.296	-4.08298	-4.49267	-3.84802	-5.49736
10010.296	-3.99889	-4.56935	-4.01366	-5.51676
10014.298	-3.94060	-4.59531	-3.88451	-5.55752
10018.319	-3.89906	-4.63928	-3.90496	-5.49928
10022.296	-3.93934	-4.66527	-3.82158	-5.46942
10026.296	-3.84434	-4.66855	-3.75165	-5.45679
10030.295	-3.89486	-4.64891	-3.84443	-5.47336
10034.294	-3.91991	-4.66885	-3.84624	-5.54790
10038.299	-3.93895	-4.66290	-3.79210	-5.54336
10042.298	-3.86958	-4.63442	-3.87586	-5.56190
10046.310	-3.86724	-4.60879	-3.89748	-5.57667
10050.299	-3.87275	-4.62051	-3.99650	-5.65005
10054.295	-3.85157	-4.60274	-3.90249	-5.65948
10058.300	-3.87275	-4.59556	-3.88624	-5.64125
10062.298	-3.86840	-4.58598	-3.91106	-5.61459
10066.334	-3.85427	-4.57809	-3.86630	-5.69686
10070.303	-3.85286	-4.52607	-3.90123	-5.72685
10074.293	-3.85558	-4.47426	-3.93035	-5.71546
10078.299	-3.82502	-4.38143	-3.76566	-5.71123
10082.289	-3.80144	-4.35697	-3.77513	-5.71102
10086.293	-3.83344	-4.27341	-3.71908	-5.73657
10090.297	-3.83717	-4.26861	-3.75150	-5.71434
10094.294	-3.85254	-4.28582	-3.77377	-5.60360
10098.289	-3.85955	-4.22784	-3.77649	-5.48730
10102.302	-3.89402	-4.23874	-3.76248	-5.48203
10106.294	-3.93129	-4.22104	-3.67924	-5.53286
10110.290	-3.86405	-4.22163	-3.68325	-5.57254
10114.298	-3.89804	-4.24712	-3.71004	-5.52282
10118.297	-3.89258	-4.21774	-3.64649	-5.55594
10122.297	-3.76591	-4.31120	-3.68765	-5.46099
10126.292	-3.87089	-4.38295	-3.68970	-5.49344
10130.293	-3.87280	-4.43994	-3.78855	-5.43919
10134.303	-3.98494	-4.46482	-3.65008	-5.38474
10138.298	-3.83300	-4.46962	-3.66973	-5.39401
10142.293	-3.77520	-4.53875	-3.65747	-5.46491
10146.293	-3.86677	-4.56598	-3.61070	-5.53159
10150.294	-3.70267	-4.66903	-3.77503	-5.53025
10154.297	-3.76082	-4.67395	-3.70890	-5.46745
10158.292	-3.77602	-4.73101	-3.82188	-5.43421
10162.298	-3.66053	-4.79871	-3.84439	-5.44906
10166.292	-3.75024	-4.88442	-3.74570	-5.47452
10170.296	-3.80251	-4.85833	-3.81442	-5.45266
10174.297	-3.81968	-4.89513	-3.69432	-5.45606
10178.294	-3.72153	-4.83004	-3.89965	-5.45969
10182.298	-3.64491	-4.84452	-3.83942	-5.54190
10186.297	-3.75333	-4.79574	-3.90232	-5.48814
10190.298	-3.74001	-4.72529	-3.89281	-5.51621
10194.291	-3.72981	-4.72113	-3.83119	-5.50636
10198.294	-3.70359	-4.64735	-3.73626	-5.53786
10202.295	-3.74441	-4.77617	-3.77740	-5.55556
10206.295	-3.83171	-4.77950	-3.73898	-5.55465
10210.297	-3.87020	-4.85487	-3.71750	-5.51243
10214.288	-3.73722	-4.74799	-3.78432	-5.49710
10218.292	-3.76537	-4.74099	-3.69338	-5.55388
10222.295	-3.73445	-4.87089	-3.70554	-5.56955
10226.301	-3.74555	-4.80192	-3.74021	-5.56054
10230.289	-3.78553	-4.74772	-3.74688	-5.55954
10234.296	-3.72304	-4.76035	-3.73213	-5.54845
10238.322	-3.34643	-4.64689	-3.46118	-5.49173
10242.296	-3.10277	-4.44761	-2.70168	-5.40865
10246.290	-1.88130	-4.27673	-1.21412	-5.07059
10250.291	-0.64312	-3.55386	-1.07547	-3.92761
10254.286	0.21338	-2.44051	-0.48607	-3.00473
10258.295	0.58265	-1.42756	0.58153	-3.14085
10262.293	0.97966	-1.10276	1.00196	-2.81004
10266.296	1.13208	-0.56685	0.95135	-2.48245
10270.301	1.05627	-0.37418	0.78972	-2.22247
10274.292	1.10556	-0.21620	0.73141	-2.07038
10278.290	0.84309	-0.51304	0.72640	-1.95015
10282.286	0.94281	-0.55305	0.75747	-1.90871
10286.291	0.93371	-0.96393	0.85649	-1.87449
10290.291	0.87401	-0.83880	0.87225	-1.89287
10294.290	0.96068	-0.82355	0.85391	-1.86603
10298.296	0.96822	-0.87651	0.85622	-1.77230
10302.291	1.03464	-0.77850	0.82258	-1.76253
10306.293	0.94435	-0.66196	0.74680	-1.70021
10310.295	0.87451	-0.65149	0.70709	-1.67209
10314.296	0.85989	-0.70078	0.62769	-1.66408
10318.295	0.86490	-0.64985	0.61722	-1.64717
10322.289	0.94425	-0.56423	0.56287	-1.64245
10326.285	0.95192	-0.49827	0.51391	-1.61416
10330.294	0.98583	-0.39866	0.47207	-1.59165
10334.292	0.99008	-0.33101	0.40467	-1.56353
10338.294	0.91465	-0.32724	0.38549	-1.53600
10342.289	0.96132	-0.25869	0.35201	-1.51763
10346.288	0.97551	-0.24209	0.34744	-1.49054
10350.295	0.99732	-0.18390	0.32201	-1.45928
10354.291	1.00816	-0.16748	0.33121	-1.44256
10358.293	1.04791	-0.16818	0.37650	-1.42847
10362.290	0.96948	-0.17094	0.38065	-1.43227
10366.289	0.99380	-0.17928	0.39879	-1.41094
10370.289	0.99973	-0.22003	0.42313	-1.41468
10374.284	1.03178	-0.26279	0.46262	-1.40824
10378.287	1.06639	-0.32504	0.47463	-1.42885
10382.289	1.09817	-0.37763	0.50031	-1.42118
10386.287	1.07895	-0.34516	0.53853	-1.43900
10390.288	1.08376	-0.39835	0.56511	-1.44962
10394.293	1.10943	-0.43624	0.57965	-1.49257
10398.292	1.10286	-0.46883	0.61047	-1.48991
10402.288	1.15880	-0.56563	0.64211	-1.47622
10406.290	1.14910	-0.60304	0.67072	-1.50308
10410.293	1.15573	-0.64763	0.68982	-1.54958
10414.288	1.10294	-0.62626	0.71878	-1.54453
10418.294	1.08929	-0.62723	0.75690	-1.54988
10422.284	1.06421	-0.65503	0.80570	-1.55954
10426.292	1.05833	-0.62443	0.88279	-1.58526
10430.292	1.12072	-0.65298	0.91760	-1.57149
10434.292	1.16022	-0.65101	0.87674	-1.57210
10438.291	1.19624	-0.70409	0.89006	-1.53505
10442.291	1.16029	-0.80691	0.91669	-1.49608
10446.285	1.11782	-0.83379	0.88307	-1.58282
10450.294	1.09691	-0.93882	0.90185	-1.57336
10454.290	1.03201	-1.02599	0.96092	-1.56573
10458.293	1.01980	-0.97342	0.95534	-1.60230
10462.324	1.16776	-0.93403	0.90557	-1.62060
10466.293	1.07689	-0.87648	0.93599	-1.69417
10470.289	1.11807	-0.84589	0.99571	-1.67961
10474.292	1.09539	-0.85022	0.91309	-1.62983
10478.295	1.08153	-0.93604	0.92949	-1.65760
10482.286	1.07589	-0.92323	0.92946	-1.66388
10486.292	1.15771	-0.89975	0.92619	-1.70532
10490.289	1.17644	-0.84943	0.93554	-1.65775
10494.287	1.17485	-0.80790	0.92482	-1.66667
10498.282	1.20976	-0.82416	0.85362	-1.65930
10502.285	1.22918	-0.76923	0.89632	-1.66246
10506.288	1.22454	-0.82778	0.98306	-1.63335
10510.290	1.24312	-0.82221	0.90780	-1.53209
10514.285	1.26173	-0.85181	0.89495	-1.56541
10518.295	1.28003	-0.84522	0.93984	-1.55065
10522.288	1.28407	-0.85992	1.06066	-1.56563
10526.286	1.30218	-0.84991	1.21043	-1.54147
10530.292	1.27373	-0.88022	1.17597	-1.49690
10534.288	1.26465	-0.86728	1.13995	-1.45315
10538.290	1.21737	-0.93150	1.20338	-1.49195
10542.287	0.91056	-1.00484	0.98906	-1.57761
10546.287	-0.26232	-1.48086	0.41777	-1.93134
10550.293	-1.50986	-2.75339	-0.67910	-3.11159
10554.285	-2.33906	-4.55292	-1.28308	-4.08148
10558.291	-2.72417	-4.51391	-1.78602	-5.14368
10562.282	-3.11321	-5.79983	-2.14238	-5.59313
10566.290	-3.47621	-6.37165	-2.86764	-6.06778
10570.288	-3.89955	-7.21003	-3.58875	-6.51414
10574.287	-4.73983	-7.07761	-4.15826	-6.45398
10578.284	-5.02561	-7.38619	-4.85029	-6.67118
10582.290	-4.96499	-7.46658	-4.90025	-6.95557
10586.285	-4.54109	-7.27322	-4.95270	-7.02608
10590.285	-4.63119	-7.12007	-4.73793	-7.12635
10594.287	-4.77020	-7.16981	-4.99994	-7.12887
10598.292	-5.00588	-7.18571	-5.02937	-7.20880
10602.290	-4.97773	-7.23136	-5.17540	-7.10097
10606.287	-4.96507	-7.13532	-4.97923	-7.11627
10610.287	-4.87554	-7.18772	-4.96425	-7.21460
10614.288	-5.04004	-7.15317	-5.05912	-7.17051
10618.285	-5.10903	-7.15683	-5.09894	-7.26956
10622.287	-5.12019	-7.12020	-5.04996	-7.27463
10626.288	-5.13102	-7.09564	-5.09847	-7.24455
10630.289	-5.29290	-7.13335	-5.09896	-7.22401
10634.285	-5.29204	-7.06170	-5.17924	-7.22810
10638.287	-5.20780	-7.13429	-5.10416	-7.18419
10642.289	-5.21245	-7.14832	-4.91122	-7.20957
10646.281	-5.21929	-7.12322	-5.03339	-7.15766
10650.285	-5.33736	-7.25543	-4.99783	-7.05042
10654.284	-5.35743	-7.27338	-5.00083	-7.08601
10658.289	-5.39487	-7.30986	-5.11804	-7.06951
10662.281	-5.28470	-7.27496	-4.96526	-7.09056
10666.290	-5.32784	-7.17034	-5.11839	-7.11116
10670.284	-5.28704	-7.13841	-5.13966	-7.08726
10674.313	-5.28020	-7.13108	-5.14131	-7.14719
10678.285	-5.29583	-7.08120	-5.07166	-7.19715
10682.295	-5.30242	-6.92285	-5.12292	-7.20140
10686.292	-5.32993	-7.05642	-5.17447	-7.13281
10690.283	-5.29506	-7.16911	-5.19460	-7.19254
10694.281	-5.24971	-7.03536	-5.15335	-7.20448
10698.283	-5.26071	-6.85457	-5.01004	-7.26752
10702.282	-5.21612	-6.88452	-5.01415	-7.18197
10706.287	-5.22662	-6.99752	-5.08815	-7.16817
10710.280	-5.22370	-6.93199	-4.99453	-7.16963
10714.282	-5.25222	-6.99916	-5.01699	-7.05295
10718.285	-5.25894	-6.99607	-5.04499	-7.07915
10722.287	-5.22766	-6.96513	-4.97659	-7.03875
10726.288	-5.22938	-6.95075	-4.94955	-6.99763
10730.292	-5.21875	-6.89329	-4.93960	-6.93350
10734.298	-5.19305	-6.84288	-4.90760	-6.95152
10738.159	-5.08219	-6.76868	-4.89225	-6.90649
10742.163	-5.23807	-6.78955	-4.91504	-6.85306
10746.160	-5.25121	-6.79602	-5.03051	-6.88576
10750.162	-5.36267	-6.71707	-5.08717	-6.84211
10754.153	-5.24026	-6.88128	-4.99758	-6.83889
10758.157	-5.34061	-6.71888	-5.07518	-6.85597
10762.156	-5.26135	-6.75480	-5.12179	-6.85833
10766.161	-5.26475	-6.77560	-5.12053	-6.93977
10770.156	-5.33386	-6.88195	-5.16954	-6.95406
10774.162	-5.21631	-6.83336	-5.19960	-7.04479
10778.156	-5.32356	-6.84814	-5.22151	-6.99858
10782.157	-5.30776	-6.84988	-5.20351	-6.92353
10786.152	-5.34639	-6.79189	-5.30380	-6.89797
10790.156	-5.30372	-6.81663	-5.22475	-6.94568
10794.160	-5.23322	-6.72333	-5.12797	-6.96273
10798.158	-5.19854	-6.66618	-5.13656	-7.01436
10802.157	-5.20785	-6.78971	-5.22987	-6.95187
10806.156	-5.97929	-6.78859	-5.45966	-7.04615
10810.161	-8.18052	-6.70662	-6.90764	-7.28580
10814.174	-9.54358	-7.29185	-8.15032	-7.46474
10818.169	-11.06686	-8.41432	-9.96771	-7.91220
10822.157	-12.17701	-8.50921	-10.51926	-7.87060
10826.156	-12.36063	-8.46042	-10.90459	-7.97392
10830.151	-12.55458	-8.55060	-11.49183	-8.14162
10834.162	-12.54994	-8.53559	-11.32803	-8.07634
10838.158	-12.26116	-8.47550	-11.20426	-8.10407
10842.160	-12.39217	-8.33965	-11.24664	-7.93362
10846.154	-12.61590	-8.40946	-11.31008	-8.13009
10850.163	-12.61408	-8.56622	-11.01493	-8.21451
10854.162	-12.63234	-8.48627	-11.27090	-8.26314
10858.164	-12.49576	-8.49192	-11.28238	-8.23893
10862.164	-12.66445	-8.46105	-11.24397	-8.29396
10866.157	-12.63546	-8.43182	-11.33953	-8.25244
10870.156	-12.53819	-8.48820	-11.43607	-8.24934
10874.154	-12.46727	-8.46372	-11.37891	-8.30067
10878.179	-12.48932	-8.42213	-11.42503	-8.25233
10882.156	-12.49467	-8.39235	-11.49574	-8.26224
10886.167	-12.61989	-8.43085	-11.56831	-8.31370
10890.155	-12.55004	-8.42602	-11.54349	-8.29445
10894.180	-12.56030	-8.51732	-11.57329	-8.30819
10898.160	-12.53975	-8.45153	-11.63247	-8.32933
10902.159	-12.51073	-8.45584	-11.67056	-8.28663
10906.155	-12.41563	-8.47936	-11.65932	-8.24198
10910.154	-12.35031	-8.43885	-11.64173	-8.24984
10914.156	-12.41710	-8.49047	-11.63587	-8.29482
10918.157	-12.72154	-8.43470	-11.60196	-8.31486
10922.159	-12.65937	-8.51842	-11.50701	-8.37370
10926.156	-12.76371	-8.64229	-11.46208	-8.34472
10930.155	-12.64598	-8.44521	-11.55030	-8.39783
10934.153	-12.89532	-8.44101	-11.57658	-8.34037
10938.165	-12.86487	-8.29617	-11.54659	-8.35207
10942.156	-12.69826	-8.29103	-11.51285	-8.36383
10946.154	-12.42091	-8.28759	-11.52085	-8.33845
10950.154	-12.53010	-8.23195	-11.47679	-8.28110
10954.164	-12.64050	-8.19311	-11.49145	-8.19656
10958.161	-12.44926	-8.18542	-11.52896	-8.17850
10962.153	-12.54216	-8.09957	-11.55735	-8.19853
10966.159	-12.32146	-8.09708	-11.60151	-8.14235
10970.153	-12.35706	-8.03272	-11.64887	-8.12712
10974.153	-12.62870	-8.10331	-11.60825	-8.09594
10978.153	-12.51459	-8.23864	-11.62316	-8.14783
10982.180	-12.53502	-8.33906	-11.59520	-8.20528
10986.196	-12.66760	-8.17895	-11.58763	-8.18914
10990.163	-12.77148	-8.04575	-11.57465	-8.34619
10994.154	-12.68576	-7.92733	-11.65768	-8.23591
10998.150	-12.60895	-8.13516	-11.66682	-8.31059
11002.152	-12.69311	-7.83267	-11.62299	-8.30206
11006.152	-12.65722	-7.84537	-11.59422	-8.32195
11010.154	-12.66448	-7.96929	-11.46015	-8.37267
11014.152	-12.58916	-7.78895	-11.39050	-8.28679
11018.156	-12.54105	-7.85919	-11.49204	-8.31438
11022.158	-12.67093	-7.86154	-11.27624	-8.39643
11026.156	-12.56600	-7.76102	-11.32779	-8.34581
11030.153	-12.12694	-7.75682	-10.96693	-8.25282
11034.157	-10.83750	-7.75572	-10.92464	-8.12430
11038.155	-10.58913	-7.75344	-10.50093	-8.03395
11042.153	-11.01106	-7.74260	-10.33260	-8.00418
11046.156	-11.47138	-7.64611	-10.34336	-7.96830
11050.154	-11.35289	-7.64357	-10.61418	-7.82426
11054.155	-11.45527	-7.57708	-10.59920	-7.80570
11058.154	-10.97315	-7.55528	-10.38697	-7.79022
11062.157	-11.02490	-7.46582	-10.48989	-7.85343
11066.158	-10.84063	-7.46011	-10.48024	-7.79086
11070.155	-10.95270	-7.51348	-10.20255	-7.78103
11074.157	-10.80733	-7.60671	-10.25485	-7.74810
11078.149	-10.85385	-7.61485	-10.15078	-7.79450
11082.152	-10.97990	-7.52730	-10.02112	-7.80791
11086.154	-10.94387	-7.46156	-10.07064	-7.78523
11090.187	-11.02574	-7.69479	-9.99320	-7.64952
11094.148	-10.90602	-7.66861	-9.95781	-7.66041
11098.152	-11.09195	-7.73352	-9.96415	-7.76322
11102.154	-11.12292	-7.69150	-10.04742	-7.73709
11106.158	-11.01579	-7.78476	-10.23435	-7.66971
11110.175	-11.03545	-7.76521	-10.06297	-7.68353
11114.156	-10.94268	-7.78506	-10.22728	-7.61631
11118.152	-11.06440	-7.79065	-10.22998	-7.56755
11122.150	-11.00022	-7.74053	-10.21012	-7.63568
11126.155	-11.15121	-7.75516	-10.22990	-7.60691
11130.151	-11.05335	-7.79439	-10.04013	-7.62939
11134.155	-11.09465	-7.75375	-9.92801	-7.70889
11138.152	-11.03564	-7.73286	-9.90951	-7.71838
11142.153	-10.99044	-7.70567	-10.00656	-7.65904
11146.157	-10.96012	-7.69145	-10.14501	-7.57687
11150.146	-11.01852	-7.72753	-10.09888	-7.60165
11154.157	-11.05467	-7.76423	-10.18098	-7.65256
11158.154	-11.16655	-7.75143	-10.10745	-7.64533
11162.148	-11.14096	-7.73875	-10.03508	-7.71821
11166.156	-11.25729	-7.77410	-10.20755	-7.73890
11170.153	-11.25889	-7.76683	-10.23185	-7.85415
11174.147	-11.22391	-7.77265	-10.22411	-7.88259
11178.150	-11.13153	-7.76269	-10.28645	-7.92229
11182.149	-10.99037	-7.81351	-10.40007	-7.83617
11186.150	-11.07032	-7.87108	-10.42593	-7.87268
11190.160	-10.95602	-7.89605	-10.40250	-7.90976
11194.149	-10.98174	-7.89455	-10.39604	-7.92692
11198.150	-10.86663	-7.89439	-10.39950	-7.98403
11202.150	-10.81813	-7.94625	-10.40805	-8.02552
11206.152	-10.74853	-8.00393	-10.42785	-7.97783
11210.154	-10.76518	-8.01606	-10.35171	-7.96958
11214.146	-10.71935	-7.99525	-10.31943	-8.00331
11218.150	-10.64997	-8.02249	-10.29226	-7.96786
11222.151	-10.60083	-8.07771	-10.30680	-7.92334
11226.156	-10.64767	-8.09662	-10.26475	-7.90577
11230.155	-10.62020	-8.07154	-10.27552	-7.94626
11234.148	-10.65009	-8.07870	-10.28407	-7.94722
11238.151	-10.62111	-8.13961	-10.31119	-8.00009
11242.149	-10.64161	-8.13223	-10.18413	-7.99313
11246.150	-10.61591	-8.11632	-10.15855	-7.96579
11250.155	-10.61557	-8.07309	-10.10603	-7.96660
11254.151	-10.58402	-8.04829	-9.98268	-8.00570
11258.150	-10.55039	-8.09672	-10.08967	-7.93837
11262.148	-10.57325	-8.10173	-10.11567	-7.87179
11266.154	-10.61641	-8.07812	-10.01426	-7.92340
11270.156	-10.41054	-8.08040	-9.82626	-7.79784
11274.158	-9.03391	-8.19486	-7.43154	-7.85651
11278.146	-7.65895	-7.93295	-7.31638	-7.76164
11282.149	-6.04323	-7.86030	-5.82339	-7.56121
11286.148	-5.99414	-6.80873	-5.49185	-7.48214
11290.153	-4.83247	-6.64761	-4.93110	-7.28885
11294.150	-4.29690	-6.32242	-3.38115	-7.07569
11298.147	-3.92692	-6.22929	-2.95834	-6.48918
11302.154	-3.43489	-5.64594	-3.03422	-5.96447
11306.151	-2.11086	-4.43049	-2.34639	-5.62986
11310.186	-1.20202	-4.54612	-1.13581	-5.33561
11314.159	-0.28758	-3.68469	-0.12456	-4.88378
11318.168	0.18117	-3.42773	0.52962	-4.35238
11322.152	0.90721	-2.77190	1.09986	-3.53034
11326.146	1.87842	-2.42464	1.33641	-3.10729
11330.151	2.47885	-2.21577	1.99387	-2.26149
11334.147	2.67947	-1.90106	2.28140	-2.00520
11338.148	2.84856	-0.74196	2.28204	-1.66817
11342.149	2.86670	0.24282	2.41140	-0.82460
11346.146	2.67338	0.69925	2.48222	0.05020
11350.148	2.66132	0.99954	2.50625	-1.03419
11354.151	2.80996	1.13963	2.48235	-0.65324
11358.148	2.69477	1.60381	2.46912	-0.04417
11362.149	2.65604	1.51382	2.48460	0.14300
11366.146	2.69983	1.57386	2.48621	-0.04965
11370.148	2.72476	1.66369	2.56751	0.10426
11374.148	2.79109	1.40781	2.63135	0.20955
11378.146	2.82103	1.39632	2.62288	0.24049
11382.145	2.87225	1.45211	2.65525	0.19111
11386.152	2.79553	1.43980	2.65946	0.30623
11390.149	2.69326	1.40061	2.62853	0.27918
11394.146	2.69361	1.26384	2.60376	0.32067
11398.147	2.72196	1.44408	2.64881	0.39860
11402.152	2.81932	1.69651	2.68789	0.55341
11406.146	2.79102	1.65670	2.67395	0.54989
11410.151	2.72050	1.40943	2.68692	0.53060
11414.142	2.85554	1.26419	2.68088	0.51638
11418.151	2.85341	1.33161	2.61580	0.59231
11422.148	2.87529	1.59151	2.63051	0.66068
11426.147	2.89829	1.91135	2.60882	0.58335
11430.149	2.82796	1.81787	2.57152	0.55282
11434.145	2.85170	1.65106	2.62695	0.60189
11438.161	2.89633	1.56715	2.62296	0.63502
11442.161	2.90084	1.69812	2.64540	0.67070
11446.153	2.91997	1.71290	2.62009	0.62989
11450.146	2.96032	1.60389	2.64463	0.54881
11454.151	3.00564	1.63221	2.66184	0.56506
11458.146	2.86039	1.58744	2.71778	0.60733
11462.146	2.92535	1.61482	2.67217	0.64632
11466.143	3.00361	1.56822	2.72550	0.61715
11470.150	2.97789	1.47474	2.68727	0.58942
11474.146	2.95978	1.49842	2.68234	0.59593
11478.156	2.94453	1.58732	2.65912	0.62212
11482.149	3.06392	1.55399	2.68160	0.50315
11486.148	3.05271	1.57876	2.65112	0.55638
11490.146	2.98445	1.45487	2.66337	0.54195
11494.145	2.90111	1.54428	2.67093	0.63967
11498.144	3.04318	1.56213	2.67704	0.72067
11502.147	3.04981	1.53889	2.64891	0.62022
