time (ms)	lx (deg)	ly (deg)	rx (deg)	ry (deg)
0.000	0.18849	0.71634	0.33471	-0.09040
3.997	0.09490	0.47302	0.28696	-0.07671
8.007	0.08383	0.50177	0.19531	-0.09699
12.010	0.12362	0.59114	0.25954	-0.12834
16.016	0.14754	0.52994	0.25763	-0.14308
19.995	0.09773	0.46340	0.28153	-0.21069
23.995	0.14451	0.50301	0.35824	-0.17973
28.000	0.24028	0.52099	0.41013	-0.26809
31.994	0.18966	0.59496	0.47937	-0.28302
36.000	0.14935	0.54234	0.47019	-0.29313
39.998	0.18343	0.58137	0.38199	-0.29637
43.997	0.25011	0.61032	0.41326	-0.34286
47.991	0.24676	0.66960	0.50860	-0.39073
52.000	0.25602	0.76788	0.52324	-0.42917
55.996	0.25636	0.73919	0.52726	-0.46405
60.001	0.23477	0.79010	0.56369	-0.46790
63.991	0.28490	0.82634	0.58863	-0.51349
67.995	0.34851	0.78487	0.58473	-0.47523
71.995	0.25947	0.79444	0.54858	-0.50058
76.002	0.23202	0.78938	0.30749	-0.49925
79.997	0.26418	0.72465	0.29590	-0.43706
84.012	0.21698	0.79204	0.25068	-0.42804
87.998	0.20229	0.69815	0.19440	-0.41964
92.006	0.22621	0.74955	0.37427	-0.39491
95.997	0.29786	0.69017	0.42949	-0.38221
99.995	0.25833	0.77345	0.42279	-0.37722
103.998	0.36965	0.72440	0.51116	-0.34511
107.996	0.31640	0.74167	0.24267	-0.25559
111.996	0.32905	0.74167	0.40608	-0.26533
115.997	0.33811	0.64385	0.34154	-0.23286
119.995	0.38152	0.59319	0.25140	-0.22255
124.000	0.39271	0.60236	0.31595	-0.24180
127.991	0.39296	0.47075	0.36591	-0.26464
132.014	0.40497	0.38741	0.27704	-0.26678
136.002	0.35792	0.44642	0.15851	-0.23343
140.003	0.26267	0.34485	0.13441	-0.21626
144.000	-0.00881	0.39798	-0.00020	-0.22304
147.999	-0.38526	0.33746	-0.15377	-0.32937
151.998	-0.18291	0.30927	-0.26617	-0.35576
155.997	-0.08942	0.28606	-0.22904	-0.44767
159.997	-0.13655	0.28738	-0.17839	-0.50427
163.994	-0.20986	0.29530	-0.19380	-0.58470
168.000	-0.21616	0.31160	-0.21782	-0.66528
171.996	-0.17988	0.32229	-0.16650	-0.75927
175.997	-0.22430	0.37526	-0.21998	-0.66257
180.022	-0.26838	0.39181	-0.18856	-0.66851
184.003	-0.26403	0.42946	-0.17660	-0.70458
187.995	-0.23865	0.44272	-0.09696	-0.70001
192.006	-0.22854	0.45825	-0.02777	-0.67172
195.996	-0.20993	0.48852	0.01784	-0.67211
199.993	-0.18524	0.46022	0.03400	-0.61673
203.988	-0.17496	0.46715	0.07641	-0.60046
207.999	-0.15250	0.42677	0.15005	-0.52564
211.992	-0.12012	0.41005	0.17213	-0.47274
215.993	-0.12890	0.36028	0.21442	-0.44817
220.003	-0.12255	0.29376	0.29915	-0.42168
223.997	-0.13253	0.24518	0.38236	-0.39946
227.998	-0.10637	0.15983	0.33935	-0.40381
231.989	-0.05693	0.09853	0.32094	-0.42538
235.999	-0.01268	0.05042	0.29143	-0.40664
239.995	-0.00586	0.01956	0.29639	-0.40269
243.997	0.01814	-0.02783	0.18588	-0.38642
247.992	0.01628	-0.05261	-0.10458	-0.40625
251.993	0.03805	-0.07574	-0.18415	-0.46936
256.009	0.07202	-0.08985	-0.28515	-0.53548
260.001	0.08172	-0.10414	-0.35161	-0.55294
263.993	0.12585	-0.11331	-0.44006	-0.56998
267.992	0.10684	-0.16987	-0.44914	-0.60342
272.003	0.09590	-0.17752	-0.42281	-0.62375
276.002	0.06902	-0.13784	-0.51595	-0.70657
279.992	0.03080	-0.08866	-0.55434	-0.77350
284.011	-0.00079	0.00914	-0.56429	-0.84084
287.997	-0.01380	0.09701	-0.50582	-0.97798
291.998	-0.03447	0.13401	-0.48795	-1.07685
295.993	0.00169	0.25172	-0.46999	-0.97031
299.987	-0.00273	0.11150	-0.25860	-0.92949
304.006	0.05837	0.14885	0.24860	-0.97294
307.992	0.01258	-0.03722	0.56324	-1.02176
311.992	0.03308	-0.05852	0.66538	-1.10900
315.987	0.15675	-0.10471	0.44090	-1.12897
319.995	0.20390	0.01705	0.32853	-1.11492
323.995	0.34516	0.02927	0.27451	-1.09553
327.989	0.36767	-0.07293	0.31781	-1.06909
331.998	0.42564	-0.08242	0.29845	-1.03742
335.989	0.47185	-0.09589	0.31116	-1.01114
339.992	0.45008	-0.04937	0.41286	-1.07768
343.997	0.40393	-0.13652	0.56453	-1.10291
347.994	0.41941	-0.06287	0.55218	-1.11787
351.992	0.42839	-0.03638	0.49237	-1.10089
355.997	0.44661	-0.01374	0.42609	-1.08774
359.991	0.38827	0.04339	0.38551	-1.08168
363.995	0.37060	0.10126	0.29684	-1.07988
367.990	0.33206	0.03094	0.34898	-1.08116
371.994	0.30354	0.01434	0.35953	-1.06166
375.992	0.30555	0.09065	0.39102	-1.04494
379.991	0.26652	0.12810	0.49927	-1.15052
384.000	0.30863	0.13287	0.53091	-1.05476
388.014	0.31372	0.19394	0.44311	-1.01441
391.989	0.31320	0.13093	0.46490	-0.96360
395.992	0.27885	0.09701	0.52557	-1.02157
399.989	0.35643	-0.01831	0.50580	-1.06703
403.990	0.40648	-0.01700	0.56235	-0.98413
407.989	0.36839	-0.00929	0.52163	-0.96079
411.990	0.38911	0.02045	0.53989	-0.80453
416.001	0.53081	-0.00398	0.54922	-0.86234
425.991	0.30652	-0.05193	0.53818	-0.87747
428.513	0.38040	-0.16698	0.60511	-0.97811
431.997	0.20494	-0.22908	0.57875	-0.88839
435.990	0.14786	-0.31031	0.60565	-0.93765
439.992	0.42169	-0.33152	0.64622	-0.98906
443.993	0.32019	-0.30092	0.64774	-1.06658
447.992	0.23649	-0.30999	0.69362	-0.87674
451.991	0.26453	-0.27811	0.74367	-0.88816
455.990	0.41817	-0.22905	0.70824	-0.88315
459.987	0.30466	-0.18858	0.64744	-0.99172
463.994	0.30297	-0.19670	0.60196	-0.92856
467.996	0.38147	-0.26300	0.73829	-0.90667
471.994	0.31796	-0.18736	0.64384	-0.90050
475.992	0.35323	-0.21109	0.63826	-0.89330
479.989	0.37588	-0.18788	0.62987	-0.98946
483.989	0.34451	-0.21981	0.90150	-0.94240
488.030	0.34370	-0.22704	0.78995	-0.84272
491.992	0.33265	-0.19715	0.77759	-0.86413
495.995	0.30411	-0.14353	0.85302	-0.91251
499.988	0.27319	-0.07845	0.76404	-0.88957
503.988	0.26845	-0.06031	0.67496	-0.83173
508.000	0.22988	0.10976	0.58779	-0.85927
511.998	0.20479	0.05733	0.47555	-0.90048
515.988	0.19497	0.02989	0.52031	-0.87881
519.988	0.17970	0.07850	0.66367	-0.87441
523.993	0.17670	0.10772	0.82937	-0.86074
527.992	0.18055	0.19332	0.65690	-0.82982
531.989	0.13660	0.20940	0.76223	-0.85229
535.987	0.12461	0.12226	0.76962	-0.86431
539.993	0.16084	0.17106	0.73218	-0.83267
543.990	0.16196	0.11940	0.61377	-0.83758
547.989	0.12955	0.14457	0.53488	-0.83789
551.988	0.10294	0.11530	0.50389	-0.82888
555.991	0.02052	0.16726	0.60451	-0.78360
559.996	0.12960	0.21929	0.53605	-0.77442
563.990	0.14052	0.27190	0.54652	-0.74237
567.989	0.14379	0.27321	0.43510	-0.72079
571.992	0.17638	0.28579	0.45815	-0.77135
575.992	0.12925	0.23338	0.32680	-0.75891
579.984	0.12037	0.22287	0.40199	-0.77344
583.987	0.04981	0.23778	0.37819	-0.82074
587.986	0.07542	0.14368	0.41028	-0.81207
591.995	0.10803	0.15324	0.57687	-0.85841
595.987	0.04879	0.12188	0.58759	-0.87637
599.991	0.04825	0.01973	0.61635	-0.86960
603.986	0.12133	0.04585	0.79754	-0.87054
607.991	0.07882	0.12233	0.74761	-0.90038
611.982	0.03889	0.16495	0.67355	-0.89707
615.991	0.03363	0.15789	0.62667	-0.86220
619.989	0.08175	0.18242	0.68216	-0.78250
623.990	0.07182	0.16594	0.59722	-0.75220
627.991	0.09011	0.13923	0.63814	-0.71257
631.989	0.08562	0.16875	0.62771	-0.72877
635.993	0.05867	0.24290	0.70702	-0.70717
639.991	0.09267	0.17166	0.62479	-0.70586
643.985	0.13409	0.20426	0.77181	-0.75123
647.990	0.15044	0.26688	0.69923	-0.75171
651.986	0.12697	0.21204	0.64245	-0.76727
655.986	0.15997	0.18612	0.61054	-0.74236
659.988	0.12625	0.17056	0.59339	-0.72450
663.988	0.12980	0.13063	0.60441	-0.74020
667.984	0.10798	0.07378	0.57071	-0.73056
671.866	0.15903	0.10725	0.72660	-0.76301
675.861	0.19770	0.16149	0.78801	-0.77766
679.863	0.18874	0.18652	0.69975	-0.74220
683.870	0.16588	0.19683	0.52602	-0.74801
687.861	0.18040	0.23852	0.56922	-0.69943
691.866	0.09063	0.14860	0.53086	-0.69561
695.880	0.13657	0.20016	0.57925	-0.68425
699.869	0.11160	0.24342	0.62533	-0.67043
703.863	0.19047	0.15642	0.49651	-0.66849
707.860	0.17561	0.13737	0.56697	-0.66880
711.860	0.22827	0.11361	0.58456	-0.69205
715.866	0.20611	0.12079	0.59883	-0.67531
719.861	0.17710	0.14281	0.59960	-0.59613
723.871	0.22827	0.15831	0.46157	-0.59790
727.862	0.28731	0.14599	0.58193	-0.56408
731.861	0.34206	0.08329	0.62575	-0.59284
735.864	0.33362	0.08585	0.71588	-0.59877
739.862	0.36070	0.17319	0.74295	-0.61149
743.861	0.36566	0.08434	0.54960	-0.59186
747.859	0.33685	0.05047	0.54262	-0.59914
751.861	0.40331	0.12437	0.53997	-0.54542
755.858	0.42236	0.13152	0.56563	-0.63014
759.899	0.30478	0.07052	0.67134	-0.66136
763.870	0.36650	-0.01242	0.75077	-0.74062
767.862	0.36449	-0.05583	0.63407	-0.69235
771.861	0.34573	0.05884	0.57101	-0.75894
775.865	0.27014	0.05907	0.62761	-0.71664
779.861	0.28299	0.10747	0.61027	-0.68358
783.862	0.33566	0.07156	0.57525	-0.74776
787.857	0.29151	-0.05996	0.76176	-0.82911
791.864	0.28873	-0.04664	0.72176	-0.74013
795.858	0.30813	-0.04617	0.59761	-0.77712
799.863	0.34469	0.10665	0.64374	-0.76675
803.857	0.37673	0.14136	0.60538	-0.71883
807.867	0.34481	0.24816	0.62402	-0.68107
811.859	0.33387	0.15332	0.69967	-0.77106
815.860	0.29304	0.22612	0.69623	-0.76836
819.856	0.39105	0.18490	0.63268	-0.71965
823.861	0.34782	0.28842	0.55719	-0.72582
827.858	0.33863	0.28504	0.58883	-0.75583
831.861	0.34114	0.33501	0.64729	-0.73324
835.857	0.31818	0.32251	0.68226	-0.76689
839.860	0.26381	0.36930	0.69955	-0.71865
843.857	0.23549	0.23641	0.59414	-0.66634
847.862	0.22172	0.20505	0.59689	-0.65334
851.856	0.20110	0.26792	0.56272	-0.58011
855.863	0.16509	0.31081	0.55314	-0.59695
859.853	0.20363	0.33750	0.60096	-0.65320
863.857	0.32253	0.37044	0.56300	-0.61273
867.856	0.40976	0.26632	0.67608	-0.62427
871.859	0.30803	0.24787	0.66424	-0.57977
875.862	0.20747	0.07489	0.65886	-0.58382
879.858	0.30118	0.08021	0.64972	-0.60348
883.857	0.31392	0.08419	0.58962	-0.67655
887.870	0.29826	0.16390	0.67377	-0.66461
891.861	0.30722	0.25661	0.65650	-0.72404
895.858	0.27391	0.26750	0.70409	-0.71832
899.863	0.29491	0.22133	0.75260	-0.78417
903.859	0.26441	0.13075	0.74744	-0.71836
907.858	0.35295	0.13187	0.76655	-0.66992
911.855	0.24631	0.14661	0.62094	-0.65178
915.862	0.18901	0.18532	0.72543	-0.65002
919.855	0.25470	0.27177	0.65635	-0.67165
923.862	0.27369	0.32378	0.56007	-0.65795
927.858	0.23252	0.33536	0.76655	-0.72000
931.862	0.19926	0.32117	0.79863	-0.70027
935.853	0.25468	0.27083	0.68288	-0.68022
939.862	0.29443	0.24456	0.60811	-0.63426
943.862	0.28356	0.29744	0.42383	-0.58407
947.857	0.33610	0.33988	0.70630	-0.63445
951.857	0.29101	0.33874	0.56989	-0.62686
955.856	0.24644	0.31491	0.62806	-0.68683
959.858	0.25098	0.25271	0.75096	-0.73811
963.857	0.26294	0.21544	0.83324	-0.69100
967.860	0.20807	0.10702	0.66652	-0.63475
971.860	0.16854	0.08700	0.66159	-0.60084
975.880	0.19457	0.06555	0.52173	-0.53091
979.865	0.21006	0.05196	0.57530	-0.52199
983.900	0.23257	0.09221	0.65154	-0.49751
987.859	0.26016	0.07432	0.65806	-0.52879
991.855	0.42179	0.06461	0.67084	-0.53860
995.860	0.39842	0.03894	0.70186	-0.57015
999.856	0.40956	0.05141	0.89269	-0.56677
1003.859	0.34943	0.06563	0.82637	-0.64822
1007.858	0.38497	0.12429	0.86878	-0.60834
1011.857	0.39422	0.10948	0.77245	-0.59725
1015.862	0.40378	0.14169	0.73325	-0.63017
1019.856	0.41663	0.16092	0.67278	-0.65555
1023.855	0.36588	0.14276	0.72804	-0.62814
1027.854	0.29146	0.16020	0.65618	-0.63729
1031.859	0.27671	0.13398	0.55826	-0.60157
1035.854	0.21296	0.09060	0.54131	-0.63979
1039.855	0.16022	0.13553	0.51193	-0.57584
1043.854	0.18338	0.17138	0.38167	-0.51301
1047.858	0.21844	0.20162	0.48287	-0.43824
1051.853	0.19015	0.07758	0.44217	-0.37868
1055.860	0.19117	0.08267	0.41497	-0.41757
1059.858	0.19400	0.03526	0.40541	-0.40371
1063.858	0.19566	-0.00800	0.41040	-0.37250
1067.853	0.22065	-0.03971	0.44185	-0.42073
1071.857	0.24453	-0.00793	0.44534	-0.41864
1075.849	0.22577	-0.08039	0.37392	-0.37769
1079.860	0.27634	-0.08680	0.38447	-0.35116
1083.853	0.30272	-0.16008	0.34474	-0.28628
1087.858	0.26016	-0.23882	0.34203	-0.26809
1091.850	0.21787	-0.30800	0.33464	-0.24091
1095.865	0.21911	-0.33541	0.27743	-0.21392
1099.860	0.25535	-0.38374	0.29354	-0.15908
1103.856	0.21686	-0.37405	0.25468	-0.16465
1107.854	0.21202	-0.37037	0.26828	-0.15019
1111.849	0.20561	-0.37362	0.28250	-0.13115
1115.854	0.23294	-0.44760	0.30650	-0.19412
1119.855	0.24961	-0.38582	0.37886	-0.26242
1123.859	0.25118	-0.39527	0.58173	-0.34178
1127.852	0.22050	-0.32003	0.57992	-0.38206
1131.858	0.24949	-0.26173	0.71439	-0.46732
1135.857	0.18474	-0.20958	0.72709	-0.59879
1139.856	0.20390	-0.19156	0.83764	-0.63890
1143.864	0.14498	-0.11361	0.86560	-0.70108
1147.854	0.12853	-0.10486	0.90579	-0.73943
1151.859	0.10404	-0.05233	0.96914	-0.77519
1155.849	0.07110	-0.05002	1.01662	-0.82046
1159.853	0.06490	-0.04403	1.04630	-0.82028
1163.855	0.10518	-0.00631	1.09304	-0.80799
1167.858	0.13074	-0.01779	0.90637	-0.80556
1171.856	0.23331	0.01235	0.94227	-0.67709
1175.856	0.32789	0.00112	1.09830	-0.66265
1179.854	1.41792	0.02723	1.81376	-0.43980
1183.853	1.58029	0.10023	2.30818	-0.04601
1187.852	2.25298	0.15221	2.96480	-0.10619
1191.855	2.76260	0.18997	2.82259	-0.12422
1195.854	2.81749	0.19562	3.05368	0.07079
1199.854	2.79897	0.30518	2.94740	0.12090
1203.849	2.11487	0.35147	2.57754	-0.05191
1207.856	2.09368	0.42892	2.62786	0.17793
1211.853	2.21836	0.47639	2.63475	0.21837
1215.852	2.29753	0.50596	2.78191	0.24733
1219.850	2.34250	0.60917	2.80112	0.27951
1223.861	2.26031	0.73453	2.86517	0.23046
1227.855	2.55413	0.68492	2.82996	0.22446
1231.855	2.60768	0.74446	2.85972	0.19758
1235.868	2.68388	0.77244	2.88336	0.25686
1239.854	2.61734	0.77831	2.84383	0.22602
1243.852	2.57543	0.70345	2.85024	0.16425
1247.849	2.58715	0.64336	2.82301	0.24079
1251.851	2.71892	0.57784	2.85658	0.25056
1255.854	2.87836	0.53228	2.85227	0.20026
1259.852	2.87052	0.55593	2.81325	0.17778
1263.856	2.94398	0.54433	2.84457	0.18249
1267.854	2.74021	0.48377	2.83643	0.19185
1271.857	2.68026	0.42236	2.85121	0.12603
1275.852	2.43305	0.34832	2.84333	0.04855
1279.852	2.54237	0.30479	2.86871	0.02531
1283.853	2.72350	0.30505	2.96220	0.00623
1287.847	2.86435	0.35584	2.95569	-0.00228
1291.855	2.82637	0.36436	3.02601	-0.03960
1295.852	2.87225	0.39596	2.93176	-0.05214
1299.854	2.89421	0.45904	2.89579	-0.05485
1303.892	3.01554	0.44864	2.97260	-0.04546
1307.862	2.94403	0.44324	2.97997	-0.08509
1311.851	2.69933	0.51439	3.02893	-0.09732
1315.850	2.79456	0.57778	3.08213	-0.14459
1319.853	2.88336	0.56322	3.09973	-0.15297
1323.851	2.89916	0.55686	3.18762	-0.12323
1327.852	2.91891	0.55576	3.15011	-0.18006
1331.849	2.86576	0.49203	3.07065	-0.21089
1335.853	2.96928	0.52668	2.98250	-0.17803
1339.853	2.83256	0.45199	3.00603	-0.23395
1343.850	2.89730	0.48125	3.06296	-0.23245
1347.855	2.81919	0.51468	3.12022	-0.22636
1351.849	2.70480	0.43725	3.12470	-0.25085
1355.847	2.85353	0.35110	3.12242	-0.26636
1359.854	2.93777	0.35388	3.08733	-0.26793
1363.851	3.06753	0.39634	3.10641	-0.26525
1367.849	3.22576	0.47175	3.08392	-0.29508
1371.952	2.74668	0.44066	3.11096	-0.28690
1375.879	2.74264	0.47950	3.12529	-0.26291
1379.850	2.90403	0.58445	3.10977	-0.30167
1383.846	3.18314	0.69437	3.13484	-0.34533
1387.858	3.20926	0.60743	3.10849	-0.36400
1391.850	3.29622	0.45653	3.10512	-0.35668
1395.852	2.90658	0.36955	3.05494	-0.33473
1399.850	3.00742	0.44229	3.06189	-0.36543
1403.854	3.52215	0.51565	4.88730	-0.35969
1407.850	5.61087	0.46655	5.85062	-0.33047
1411.849	6.37229	0.47375	7.82640	-0.29142
1415.861	7.77315	0.54009	9.25579	-0.25310
1419.850	8.60693	0.44054	9.75280	-0.36073
1423.848	9.12623	0.36279	10.43784	-0.57371
1427.844	10.17649	0.33336	10.74958	-0.63215
1431.852	10.30516	0.33589	10.76815	-0.75105
1435.852	10.44775	0.36096	10.81736	-0.64155
1439.852	10.30569	0.37234	10.58138	-0.68091
1443.849	10.02993	0.42383	10.32352	-0.70819
1447.851	10.05818	0.39289	10.49198	-0.67744
1451.845	10.20075	0.39915	10.77342	-0.85484
1455.847	10.44564	0.35810	10.83223	-0.92397
1459.846	10.32851	0.32866	10.91873	-0.91375
1463.846	10.30704	0.35679	10.93875	-0.98691
1467.843	10.49287	0.33647	11.11258	-0.99432
1471.857	10.37952	0.37282	10.91638	-0.97174
1475.850	10.36278	0.34570	10.79353	-0.98139
1479.844	10.31792	0.26515	10.97767	-0.97249
1483.847	10.50198	0.27220	11.00149	-0.99131
1487.846	10.44957	0.29573	11.06932	-1.07526
1491.847	10.42535	0.32105	11.06334	-1.07848
1495.842	10.50930	0.30824	11.03389	-1.08997
1499.846	10.47156	0.24829	10.87259	-0.99967
1503.850	10.44283	0.30845	10.96069	-0.95079
1508.003	10.49519	0.31331	10.89051	-1.00710
1511.857	10.45939	0.37394	10.88350	-0.95321
1515.855	10.45375	0.34079	10.95631	-0.93376
1519.866	10.54070	0.32320	10.92315	-0.95857
1523.846	10.58061	0.33130	10.86603	-0.90420
1527.722	10.51206	0.35111	10.92904	-0.89777
1531.721	10.56423	0.34521	10.91667	-0.92942
1535.721	10.63092	0.30218	10.93552	-0.95809
1539.723	10.53519	0.29209	10.87096	-0.90080
1543.730	10.61234	0.23701	10.92811	-0.91984
1547.722	10.62641	0.19011	10.94818	-0.99081
1551.726	10.76834	0.25039	10.92203	-0.97060
1555.726	10.61262	0.22687	10.99217	-0.98985
1559.728	10.69139	0.18101	10.88776	-1.01077
1563.725	10.53370	0.09929	10.91444	-0.96606
1567.718	9.94903	0.13381	10.78748	-0.98394
1571.730	8.37191	0.17256	9.85664	-0.97758
1575.719	5.96252	0.23370	7.36613	-0.66174
1579.732	3.42940	0.57466	5.45322	-0.39974
1583.719	1.85849	1.08377	3.26282	0.04518
1587.721	0.25530	1.34028	1.53361	0.55879
1591.720	-1.40623	1.79167	-0.57037	0.92655
1595.720	-2.53972	1.80342	-2.10245	0.95288
1599.718	-4.63952	2.10617	-3.54561	1.09530
1603.730	-5.38887	1.98209	-4.46847	1.16952
1607.722	-6.10232	2.28194	-4.98403	1.20332
1611.724	-6.19410	2.26354	-5.13291	1.33999
1615.717	-6.07292	2.27163	-5.06565	1.37452
1619.719	-5.85919	2.33417	-5.07163	1.37258
1623.719	-6.09432	2.28003	-5.09315	1.50843
1627.721	-6.08424	2.34971	-5.12085	1.52105
1631.718	-6.15485	2.34099	-5.25633	1.50267
1635.722	-6.38133	2.35871	-5.40083	1.45826
1639.723	-6.47478	2.32781	-5.58572	1.54648
1643.728	-6.55481	2.34925	-5.66995	1.53106
1647.718	-6.40016	2.35165	-5.76377	1.57005
1651.726	-6.47889	2.31609	-5.81167	1.53775
1655.720	-6.43170	2.29283	-5.87386	1.48020
1659.723	-6.52194	2.26139	-5.98285	1.48813
1663.718	-6.51765	2.22354	-5.99055	1.49011
1667.724	-6.52770	2.23548	-6.06750	1.49276
1671.720	-6.47260	2.25338	-6.02507	1.47297
1675.717	-6.43782	2.26246	-6.06478	1.41703
1679.725	-6.41104	2.25101	-6.04541	1.51277
1683.724	-6.34738	2.23255	-6.01729	1.48487
1687.725	-6.33611	2.18431	-5.98987	1.53224
1691.721	-6.35692	2.13150	-5.97948	1.56042
1695.722	-6.35113	2.12449	-5.90246	1.48659
1699.718	-6.33674	2.07663	-5.83869	1.53587
1703.718	-6.34348	2.09217	-5.88125	1.47650
1707.722	-6.37984	2.10129	-5.89755	1.55201
1711.738	-6.38621	2.17009	-5.95815	1.54786
1715.723	-6.36523	2.15553	-6.07727	1.56992
1719.719	-6.34292	2.15651	-6.05565	1.53361
1723.719	-6.31144	2.09212	-6.04796	1.52432
1727.727	-6.37626	2.03195	-6.12889	1.48585
1731.716	-6.41070	2.04047	-6.04212	1.47157
1735.717	-6.44290	2.09119	-6.11716	1.41526
1739.721	-6.41797	2.05894	-6.21257	1.44742
1743.722	-6.29908	2.05278	-6.31715	1.44180
1747.715	-6.29999	1.95346	-6.25210	1.43865
1751.722	-6.42939	1.95788	-6.29617	1.42787
1755.731	-6.44498	2.09967	-6.23040	1.40884
1759.727	-6.37724	1.95090	-6.30497	1.36717
1763.717	-6.33429	1.86731	-6.20048	1.38764
1767.724	-6.48159	1.83399	-6.15841	1.30444
1771.720	-6.46022	1.82763	-6.23508	1.36506
1775.721	-6.49822	1.87761	-6.39246	1.38429
1779.719	-6.45907	1.98921	-6.26878	1.42718
1783.722	-6.45103	1.96608	-6.19591	1.36518
1787.755	-6.52804	2.08522	-6.30960	1.45194
1791.721	-6.51292	1.90532	-6.25191	1.43613
1795.714	-6.48681	2.01945	-6.22100	1.48211
1799.721	-6.48592	2.04552	-6.23079	1.46525
1803.716	-6.43964	1.93887	-6.24026	1.49943
1807.720	-6.64280	2.02456	-6.34589	1.57139
1811.720	-8.33452	2.02866	-7.25018	1.49013
1815.716	-8.77688	1.83230	-7.81912	1.29713
1819.719	-11.00156	1.62674	-9.84443	1.34132
1823.716	-10.68259	1.41486	-9.82792	1.25057
1827.721	-10.79820	1.10433	-10.04336	1.31717
1831.720	-10.68672	1.35003	-9.93831	0.91531
1835.720	-10.28337	1.34558	-9.97604	0.93170
1839.714	-10.50568	1.19983	-9.77238	0.82798
1843.716	-10.45020	1.27486	-9.87878	1.01521
1847.735	-10.56694	1.19073	-9.86286	0.88669
1851.728	-10.54605	1.23210	-9.82096	0.62268
1855.715	-10.46990	1.19516	-9.87507	0.71006
1859.720	-10.54598	1.22348	-9.90267	0.68917
1863.714	-10.38886	1.23651	-9.89212	0.67424
1867.719	-10.50971	1.22529	-9.98391	0.71521
1871.717	-10.15923	1.26105	-9.92880	0.51361
1875.711	-10.38848	1.20713	-9.98124	0.61163
1879.720	-10.27866	1.10284	-9.92577	0.56898
1883.716	-10.21724	1.27554	-9.99306	0.69466
1887.715	-10.12755	1.11034	-10.04757	0.67773
1891.726	-10.12623	1.18028	-10.02444	0.62716
1895.723	-10.09147	1.14756	-10.05630	0.62159
1899.720	-10.07112	1.15986	-10.04302	0.53782
1903.712	-10.12512	1.12917	-10.05705	0.66607
1907.721	-10.27518	1.12766	-10.00509	0.48430
1911.715	-10.04357	1.08076	-10.03679	0.59134
1915.740	-10.08815	1.12754	-9.96188	0.59946
1919.719	-10.01236	1.15105	-10.02350	0.68769
1923.718	-10.30197	1.18407	-10.12878	0.67509
1927.715	-10.06670	1.20025	-10.06484	0.66182
1931.720	-10.26547	1.21901	-10.08984	0.69259
1935.722	-10.02591	1.21777	-10.08096	0.67771
1939.720	-10.43584	1.23894	-10.14335	0.76338
1943.720	-9.85585	1.22225	-10.13270	0.71072
1947.716	-10.24259	1.22450	-10.19500	0.66165
1951.718	-10.10680	1.08926	-10.24245	0.73561
1955.713	-10.07584	1.17721	-10.17476	0.75305
1959.721	-10.13888	1.08695	-10.21442	0.73296
1963.717	-9.98726	1.19840	-10.19887	0.73031
1967.720	-10.17358	1.13981	-10.18805	0.73177
1971.711	-9.98689	1.11909	-10.16617	0.71739
1975.720	-10.11293	1.18441	-10.17952	0.68237
1979.720	-10.17187	1.07082	-10.20543	0.58445
1983.735	-10.06968	1.13348	-10.17803	0.57800
1987.721	-10.07425	1.13407	-10.17454	0.54051
1991.716	-10.09908	1.11026	-10.13316	0.56632
1995.714	-10.05149	1.16825	-10.13018	0.60286
1999.713	-10.11574	1.16987	-10.22786	0.57651
2003.720	-10.11387	1.25759	-10.18216	0.51595
2007.715	-10.06540	1.26357	-10.21123	0.50152
2011.713	-10.03130	1.22793	-10.28537	0.49894
2015.713	-10.05226	1.37546	-10.19200	0.44856
2019.725	-10.08577	1.31132	-10.24877	0.41060
2023.714	-10.07952	1.34676	-10.31146	0.43788
2027.710	-10.08604	1.37610	-10.23125	0.39688
2031.717	-10.08832	1.30261	-10.20063	0.35405
2035.715	-10.04109	1.37027	-10.32385	0.53650
2039.714	-10.13304	1.43109	-10.46575	0.37105
2043.711	-10.06258	1.41740	-10.28301	0.32604
2047.713	-10.04194	1.37523	-10.35961	0.34691
2051.714	-10.06135	1.33372	-10.38845	0.53956
2055.717	-10.21635	1.33068	-10.36492	0.42103
2059.715	-10.20558	1.31626	-10.40958	0.34895
2063.713	-9.97621	1.37705	-10.33003	0.33599
2067.731	-9.97650	1.31191	-10.32556	0.51449
2071.716	-9.99096	1.33516	-10.43104	0.46623
2075.713	-10.16218	1.31981	-10.42543	0.60252
2079.712	-10.00444	1.14895	-10.37049	0.38928
2083.707	-9.99996	0.98379	-10.31004	0.44819
2087.716	-9.92035	1.09744	-10.28284	0.47085
2091.714	-9.95090	1.26311	-10.32229	0.48546
2095.716	-10.03390	1.33748	-10.28039	0.59246
2099.715	-9.91110	1.26953	-10.29108	0.61261
2103.721	-9.89976	1.12396	-10.23783	0.64080
2107.714	-9.94187	1.08222	-10.26703	0.51077
2111.713	-9.96499	1.15919	-10.25175	0.56601
2115.710	-9.96297	1.25179	-10.22716	0.48118
2119.710	-9.93807	1.36652	-10.22243	0.45323
2123.715	-9.94508	1.34898	-10.22810	0.62618
2127.711	-9.86823	1.56435	-10.22918	0.47504
2131.729	-9.76683	1.43728	-9.81231	0.61253
2135.720	-7.77629	1.30563	-7.29152	0.48004
2139.709	-5.98427	1.36555	-5.42422	0.52257
2143.720	-4.53189	1.23316	-3.06056	0.38691
2147.711	-2.65352	0.88763	-1.52692	0.15026
2151.715	-0.22656	1.15043	-0.11386	-0.04021
2155.707	0.62714	0.90470	2.43209	-0.29079
2159.710	2.89861	0.62686	3.32399	-0.92657
2163.713	4.08616	0.57559	6.00165	-0.83408
2167.711	6.34346	0.52541	6.92535	-1.20066
2171.710	6.71343	0.59311	8.23017	-1.32158
2175.712	8.68734	0.50669	9.56784	-1.05601
2179.710	8.46738	0.43520	9.39175	-1.19364
2183.717	7.80738	0.45138	8.79283	-1.40819
2187.712	7.79035	0.46235	8.71501	-1.44356
2191.707	7.72790	0.45661	8.82301	-1.38874
2195.711	7.94818	0.40803	8.95748	-1.44710
2199.710	8.24786	0.34389	9.04955	-1.47437
2203.706	8.37339	0.23018	9.02162	-1.46269
2207.714	8.61375	0.22942	8.98675	-1.49516
2211.710	8.65009	0.10401	9.10799	-1.44564
2215.706	8.77111	0.02056	9.23314	-1.40910
2219.710	8.76195	0.13918	9.17580	-1.48422
2223.746	8.64141	0.18985	9.07566	-1.49084
2227.721	8.72035	0.01501	9.09292	-1.41250
2231.706	8.89148	-0.01306	9.14760	-1.37403
2235.709	8.84617	-0.01900	9.16276	-1.38359
2239.707	8.82674	0.01793	9.16719	-1.36261
2243.712	8.86335	0.04763	9.16530	-1.42364
2247.706	8.89308	0.05617	9.13303	-1.46023
2251.713	8.88680	0.09796	9.11165	-1.42042
2255.708	8.89112	0.01642	9.05057	-1.48052
2259.711	8.85986	0.09185	9.04013	-1.47841
2263.707	8.82073	0.19816	9.02484	-1.52075
2267.715	8.73276	0.11509	9.01573	-1.51441
2271.708	8.69360	0.13923	8.96564	-1.51975
2275.709	8.74595	0.16581	8.91858	-1.55709
2279.713	8.73863	0.20125	8.91623	-1.57807
2283.708	8.62799	0.12458	8.89591	-1.55019
2287.708	8.59830	0.05418	8.90243	-1.35845
2291.707	8.71227	-0.08680	8.85783	-1.39251
2295.703	8.74336	-0.18410	8.81067	-1.42653
2299.707	8.78959	-0.04158	8.78665	-1.37032
2303.711	8.88637	0.01355	8.76384	-1.38236
2307.718	8.86338	-0.04832	8.82279	-1.36380
2311.714	8.86510	-0.07709	8.85984	-1.29044
2315.706	8.87488	-0.07275	8.92600	-1.32976
2319.729	8.83435	-0.04734	8.96106	-1.41051
2323.706	8.89683	-0.00597	8.98971	-1.40054
2327.713	8.79591	-0.07959	9.01619	-1.40049
2331.713	8.83973	-0.10273	9.02113	-1.41918
2335.708	8.82276	-0.10765	9.11975	-1.48627
2339.704	8.85923	-0.04623	9.03319	-1.45453
2343.706	8.83333	-0.03307	8.97298	-1.46914
2347.706	8.91444	-0.09633	8.88024	-1.40366
2351.712	8.88874	-0.12150	8.81147	-1.38402
2355.719	8.87750	-0.19990	8.85938	-1.34109
2359.710	8.90102	-0.22404	8.98886	-1.30914
2363.708	8.93183	-0.34914	9.03500	-1.27707
2367.703	8.89705	-0.41356	9.10700	-1.23826
2371.706	8.93600	-0.38588	8.87852	-1.29614
2375.709	8.94288	-0.39780	8.81133	-1.38463
2379.586	8.91987	-0.42198	8.80238	-1.27206
2383.584	8.93503	-0.45839	8.97717	-1.30713
2387.586	8.93036	-0.49166	8.97874	-1.33842
2391.599	8.94358	-0.46727	9.11806	-1.36135
2395.591	8.95879	-0.40900	9.03515	-1.35210
2399.587	8.95147	-0.40778	9.06296	-1.39829
2403.583	8.95426	-0.43240	9.01736	-1.44510
2407.581	8.96097	-0.36678	8.97537	-1.45275
2411.599	9.10683	-0.30778	8.95448	-1.44900
2415.591	9.07414	-0.34093	9.04839	-1.38543
2419.607	9.07702	-0.27154	9.00220	-1.33277
2423.582	9.09853	-0.28362	9.00549	-1.24734
2427.579	9.09372	-0.24618	8.98039	-1.22851
2431.584	9.14832	-0.17124	8.99039	-1.24523
2435.580	9.09050	-0.13098	8.91703	-1.20409
2439.581	8.87418	-0.14247	8.83457	-1.18082
2443.587	7.65778	-0.06797	8.54299	-1.19415
2447.589	6.36479	0.01860	6.33299	-1.26154
2451.578	4.96588	0.08937	5.58321	-1.24579
2455.585	4.68084	0.12274	5.44483	-1.16236
2459.580	4.67039	0.15345	5.18449	-1.30862
2463.586	4.58190	0.18005	5.30210	-1.33617
2467.579	4.56407	0.20004	5.22719	-1.38290
2471.582	4.70409	0.23931	5.23430	-1.45005
2475.580	4.74134	0.23343	5.31620	-1.46118
2479.583	4.67722	0.19253	5.22074	-1.47108
2483.579	4.68940	0.25061	5.21912	-1.52640
2487.578	4.72586	0.22414	5.20905	-1.55439
2491.580	4.67927	0.17688	5.18702	-1.53672
2495.578	4.70236	0.09324	5.10874	-1.55917
2499.579	4.68210	0.15759	5.11356	-1.59269
2503.576	4.70734	0.18824	5.07070	-1.58622
2507.582	4.70429	0.21479	5.05868	-1.57974
2511.580	4.72147	0.22724	5.07683	-1.57794
2515.579	4.71950	0.11332	4.90811	-1.51810
2519.581	4.66793	0.25051	4.83321	-1.47309
2523.587	4.67116	0.31282	4.80091	-1.46987
2527.602	4.65025	0.26474	4.74804	-1.40737
2531.585	4.61408	0.35362	4.80233	-1.45923
2535.584	4.62108	0.30792	4.72154	-1.45470
2539.579	4.64258	0.32314	4.78020	-1.43863
2543.584	4.66689	0.32412	4.75339	-1.45309
2547.575	4.67120	0.25465	4.74834	-1.44709
2551.578	4.71526	0.18646	4.71235	-1.47023
2555.580	4.75893	0.21522	4.68326	-1.46916
2559.579	4.77365	0.26377	4.72524	-1.48696
2563.579	4.85465	0.22049	4.73788	-1.53615
2567.596	4.89636	0.09864	4.88791	-1.54039
2571.587	4.89121	0.16915	5.11127	-1.56430
2575.581	4.97401	0.10308	5.05420	-1.54700
2579.577	5.02600	0.12335	5.07427	-1.53756
2583.583	5.02711	0.14147	5.08909	-1.54235
2587.577	5.04752	0.09510	5.10229	-1.51993
2591.577	5.06742	0.14210	5.20780	-1.50435
2595.577	5.05149	0.20973	5.23184	-1.48755
2599.582	5.03132	0.24365	5.26423	-1.46146
2603.577	5.01689	0.23019	5.30749	-1.44493
2607.583	5.01408	0.15159	5.31681	-1.37439
2611.578	4.98361	0.23564	5.26905	-1.36171
2615.578	4.97820	0.21748	5.21860	-1.33561
2619.578	4.92491	0.31858	5.18537	-1.33333
2623.586	4.86995	0.23341	5.14739	-1.30236
2627.578	4.85965	0.30511	5.10054	-1.29288
2631.578	4.90664	0.29955	5.06277	-1.31258
2635.612	4.84972	0.40455	5.01302	-1.32681
2639.581	4.88900	0.45288	4.96480	-1.37213
2643.577	4.90779	0.34376	4.95098	-1.39297
2647.576	4.89651	0.33934	4.91772	-1.38091
2651.580	4.92898	0.29142	4.89823	-1.36168
2655.577	4.91006	0.44764	4.90870	-1.38635
2659.575	4.93819	0.45054	4.91740	-1.38354
2663.584	4.96605	0.32502	4.91846	-1.29990
2667.581	4.97098	0.37826	4.91826	-1.37844
2671.577	4.97090	0.45327	4.93223	-1.36661
2675.579	4.95930	0.41166	4.94191	-1.37688
2679.580	4.99827	0.34597	4.99622	-1.36296
2683.573	4.96620	0.31056	5.02780	-1.32586
2687.589	4.96908	0.35794	5.06158	-1.25739
2691.597	4.98105	0.41185	5.08581	-1.25229
2695.576	4.96896	0.39138	5.05922	-1.24403
2699.581	5.00049	0.35805	5.06028	-1.14934
2703.576	5.04033	0.30664	5.05082	-1.09725
2707.581	5.07574	0.36679	5.07414	-1.09466
2711.572	5.11034	0.41422	5.09923	-1.03870
2715.581	5.13220	0.33248	4.97810	-1.05466
2719.577	5.16418	0.32675	4.79100	-1.00458
2723.580	5.18587	0.33386	4.69894	-0.93722
2727.573	5.17851	0.28546	4.60074	-0.96811
2731.580	5.19517	0.27276	4.69228	-0.97241
2735.581	5.18675	0.13928	4.71309	-0.91475
2739.577	5.17848	0.11446	4.58274	-0.93180
2743.576	5.17614	0.09221	4.64347	-0.94666
2747.580	5.19431	0.17093	4.53682	-0.96723
2751.578	5.15066	0.09142	4.50229	-1.00511
2755.577	5.11964	0.05185	4.45271	-0.98579
2759.582	5.04435	-0.01755	4.47592	-0.91364
2763.575	5.05321	-0.05584	4.55033	-0.95451
2767.576	5.01733	-0.07023	4.50885	-0.95080
2771.580	5.02231	-0.10869	4.56617	-0.89631
2775.579	4.98943	-0.09865	4.54461	-0.92123
2779.580	4.98002	-0.07196	4.52007	-0.95046
2783.576	5.01681	-0.01559	4.54392	-0.92868
2787.576	5.00145	-0.03956	4.54370	-0.91987
2791.580	4.97957	-0.02164	4.59919	-0.88305
2795.572	4.99881	-0.02565	4.68353	-0.88891
2799.578	5.00617	0.03701	4.69531	-0.85946
2803.597	5.08461	0.10056	4.71829	-0.85044
2807.580	5.04164	0.12651	4.70685	-0.86006
2811.581	5.02605	0.11082	4.76413	-0.82213
2815.580	5.01546	0.11998	4.70264	-0.76043
2819.582	5.07616	0.17834	4.74139	-0.74068
2823.579	5.07353	0.22088	4.67757	-0.69773
2827.571	5.07552	0.26110	4.66073	-0.66821
2831.579	4.99728	0.33659	4.54296	-0.64598
2835.574	4.66553	0.43230	3.91393	-0.64172
2839.575	2.66033	0.47839	3.52383	-0.69348
2843.571	1.82941	0.44638	1.93653	-0.66778
2847.581	0.35975	0.30772	0.69871	-0.71107
2851.574	-0.26922	0.20677	0.33700	-0.99917
2855.613	-0.88681	-0.13042	-0.44815	-0.94078
2859.570	-1.57808	-0.24194	-1.04808	-1.41031
2863.579	-1.63896	-0.19404	-1.06912	-1.07650
2867.573	-1.46452	-0.49778	-1.16419	-1.30349
2871.576	-1.51794	-0.53264	-1.02325	-1.49502
2875.568	-1.22040	-0.72932	-0.92463	-1.59413
2879.578	-1.30496	-0.70552	-1.01387	-1.64915
2883.577	-1.39473	-0.74660	-1.01913	-1.65158
2887.574	-1.35918	-0.79562	-1.08386	-1.68912
2891.578	-1.40906	-0.79796	-1.19696	-1.76201
2895.580	-1.48374	-0.76078	-1.27063	-1.74493
2899.573	-1.55643	-0.75189	-1.36089	-1.68195
2903.569	-1.53721	-0.74536	-1.43798	-1.73399
2907.578	-1.59326	-0.74025	-1.50767	-1.71701
2911.575	-1.59844	-0.64709	-1.58837	-1.71320
2915.573	-1.58034	-0.67946	-1.69855	-1.67188
2919.568	-1.63018	-0.63670	-1.78463	-1.63518
2923.571	-1.68131	-0.66087	-1.83766	-1.58232
2927.572	-1.70742	-0.63317	-1.88903	-1.59141
2931.572	-1.76281	-0.58954	-1.98747	-1.57581
2935.574	-1.77749	-0.57531	-1.95614	-1.55970
2939.575	-1.78644	-0.59140	-1.92280	-1.54363
2943.578	-1.78210	-0.65095	-1.92396	-1.58078
2947.591	-1.77199	-0.70057	-1.91739	-1.57217
2951.577	-1.74412	-0.67523	-1.94387	-1.60436
2955.578	-1.78404	-0.73057	-1.91179	-1.63667
2959.573	-1.80251	-0.85077	-1.84840	-1.65423
2963.577	-1.82713	-0.82233	-1.84488	-1.67034
2967.571	-1.88132	-0.87487	-1.88680	-1.69328
2971.573	-1.91467	-0.87960	-1.92131	-1.68902
2975.573	-1.91957	-0.95880	-1.83633	-1.66933
2979.576	-1.97292	-0.94521	-1.85710	-1.56684
2983.577	-1.98400	-0.99071	-1.88363	-1.59739
2987.574	-1.98174	-0.96658	-1.89820	-1.56452
2991.571	-2.00388	-0.95316	-1.90634	-1.57191
2995.572	-2.04864	-0.99775	-1.86352	-1.55909
2999.574	-2.00249	-0.98532	-1.89226	-1.54949
3003.572	-1.96809	-0.91922	-1.89310	-1.57773
3007.576	-1.94164	-0.89061	-1.86878	-1.61503
3011.574	-1.90520	-0.87647	-1.84637	-1.54620
3015.570	-1.85906	-0.87816	-1.83288	-1.45153
3019.582	-1.82219	-0.86045	-1.82197	-1.51408
3023.579	-1.77392	-0.84401	-1.84798	-1.45673
3027.572	-1.76033	-0.82119	-1.84361	-1.40751
3031.569	-1.75359	-0.82537	-1.85928	-1.34984
3035.577	-1.79842	-0.84911	-1.85943	-1.29533
3039.572	-1.73274	-0.83124	-1.86665	-1.26429
3043.574	-1.79668	-0.80680	-1.87079	-1.29961
3047.571	-1.81230	-0.81322	-1.87815	-1.25009
3051.571	-1.78763	-0.83154	-1.90173	-1.18428
3055.572	-1.80581	-0.84779	-1.86216	-1.18816
3059.577	-1.76271	-0.86894	-1.84401	-1.20987
3063.576	-1.74630	-0.88941	-1.83261	-1.19359
3067.577	-1.75758	-0.93515	-1.79056	-1.21025
3071.570	-1.79329	-1.00311	-1.79971	-1.24463
3075.608	-1.82118	-1.02780	-1.79703	-1.34132
3079.569	-1.82120	-1.01511	-1.77677	-1.46676
3083.571	-1.80191	-1.08301	-1.77779	-1.45428
3087.583	-1.74876	-1.22783	-1.73475	-1.51790
3091.578	-1.70727	-1.26348	-1.64124	-1.56859
3095.569	-1.69254	-1.28033	-1.65143	-1.68108
3099.570	-1.72552	-1.31449	-1.67410	-1.81792
3103.575	-1.76532	-1.30701	-1.67675	-1.76953
3107.569	-1.73066	-1.35870	-1.70859	-1.80910
3111.568	-1.73368	-1.33198	-1.71692	-1.88683
3115.570	-1.72644	-1.28596	-1.72894	-1.96810
3119.572	-1.72089	-1.30285	-1.74335	-1.96153
3123.570	-1.69470	-1.28586	-1.83858	-1.96934
3127.568	-1.75126	-1.25084	-1.85247	-1.92604
3131.571	-1.79309	-1.15956	-1.78912	-1.68538
3135.573	-1.88375	-1.04383	-1.83117	-1.56227
3139.571	-1.92381	-1.04634	-1.84614	-1.57611
3143.575	-1.79215	-1.02481	-1.82033	-1.58216
3147.574	-1.79086	-0.99904	-1.85524	-1.54188
3151.576	-1.81649	-0.97710	-1.82319	-1.61656
3155.568	-1.92984	-0.92085	-1.80382	-1.78206
3159.573	-2.66706	-0.82352	-2.14843	-1.29393
3163.568	-4.20148	-0.69365	-3.64929	-1.36885
3167.573	-5.49057	-0.32690	-5.19697	-1.03924
3171.569	-6.52240	-0.36380	-6.06595	-0.88838
3175.570	-8.13281	0.71789	-6.52907	-0.54388
3179.568	-8.17172	0.46640	-7.90888	-0.03648
3183.569	-10.04672	0.44127	-8.56202	0.23044
3187.574	-9.17469	0.31284	-8.88169	0.55577
3191.571	-9.23183	0.74618	-8.59876	0.34638
3195.573	-8.84283	1.03115	-8.34628	0.26125
3199.574	-8.41660	0.77872	-8.43737	0.14797
3203.567	-8.55629	0.93102	-8.63983	0.32571
3207.569	-8.79208	1.06379	-8.51858	0.38698
3211.572	-8.82860	1.11037	-8.55651	0.44257
3215.566	-8.83936	1.12588	-8.67798	0.44299
3219.574	-9.02830	0.91779	-8.78922	0.45298
3223.570	-9.46713	0.99526	-8.84314	0.45605
3227.578	-9.08597	1.08486	-8.76295	0.43707
3231.446	-8.80175	1.12310	-8.86030	0.37214
3235.449	-8.96477	1.11882	-8.66207	0.35934
3239.448	-8.78285	0.91342	-8.77485	0.39126
3243.441	-8.87052	0.99283	-8.83709	0.44206
3247.447	-8.92791	1.10801	-8.88765	0.47296
3251.444	-8.97511	1.04675	-8.81625	0.41781
3255.445	-8.89187	1.03987	-8.91432	0.41229
3259.449	-9.07828	0.97786	-9.01849	0.37914
3263.444	-8.99552	1.09151	-8.89424	0.38300
3267.446	-8.87617	1.09656	-8.79843	0.36213
3271.448	-8.87670	1.02948	-8.89606	0.31959
3275.679	-8.92512	0.93543	-8.89063	0.37758
3279.444	-8.97840	1.00797	-8.90415	0.41999
3283.448	-9.07545	1.05887	-8.90105	0.39041
3287.445	-9.02314	1.05750	-8.97017	0.33877
3291.447	-8.93147	1.00044	-8.99426	0.29035
3295.471	-8.86136	0.94239	-9.08815	0.29530
3299.446	-8.94692	0.94229	-8.92464	0.30508
3303.443	-8.95392	1.00951	-8.86069	0.31965
3307.445	-8.81641	0.91997	-8.92663	0.37038
3311.439	-8.78486	0.94339	-9.05938	0.32961
3315.445	-8.70165	0.95684	-9.04536	0.37369
3319.443	-8.69118	1.01278	-9.06598	0.34533
3323.448	-8.71266	1.13653	-9.04362	0.29733
3327.444	-8.65446	1.29545	-9.08672	0.27145
3331.441	-8.77419	1.12868	-9.06042	0.27582
3335.485	-8.85453	1.14066	-9.03682	0.28467
3339.446	-9.02532	1.11309	-9.00610	0.31390
3343.440	-9.06860	1.25615	-9.00891	0.30936
3347.444	-9.03829	1.14180	-9.02677	0.31344
3351.438	-9.25736	1.22239	-9.06540	0.32128
3355.441	-9.35667	1.21981	-9.04025	0.31934
3359.450	-9.48852	1.32679	-9.04819	0.35484
3363.442	-9.50535	1.33674	-9.03319	0.33591
3367.444	-9.46150	1.33628	-9.00607	0.30828
3371.443	-9.48077	1.24887	-8.98179	0.31976
3375.436	-9.37312	1.18574	-8.95455	0.29760
3379.443	-9.32591	1.28739	-8.99922	0.33769
3383.444	-9.16126	1.30991	-9.10562	0.29666
3387.440	-9.05272	1.25706	-9.14019	0.31224
3391.446	-9.00750	1.23541	-9.18930	0.32664
3395.440	-8.90948	1.19459	-9.16216	0.30182
3399.448	-8.88487	1.21561	-9.20436	0.27016
3403.441	-8.95857	1.20493	-9.14631	0.23586
3407.445	-8.85720	1.18198	-9.17713	0.23967
3411.441	-8.82361	1.17330	-9.22978	0.26629
3415.447	-8.79317	1.23304	-9.26686	0.30303
3419.439	-8.76978	1.29427	-9.33244	0.27963
3423.440	-8.69358	1.30045	-9.35053	0.26944
3427.441	-8.64689	1.26876	-9.25163	0.26662
3431.445	-8.61557	1.28932	-9.25949	0.24795
3435.438	-8.72612	1.30164	-9.25884	0.23500
3439.444	-8.77095	1.34561	-9.22847	0.25722
3443.447	-8.69084	1.31327	-9.34679	0.25336
3447.439	-8.71584	1.27309	-9.33265	0.28012
3451.444	-8.78105	1.27874	-9.30177	0.26168
3455.440	-8.51845	1.36064	-9.32867	0.30292
3459.444	-8.70277	1.25122	-9.04740	0.26461
3463.438	-7.84813	1.25322	-8.31482	0.22867
3467.439	-6.40084	1.20623	-5.75485	0.28541
3471.442	-4.89065	1.32636	-4.06609	0.39824
3475.436	-2.89403	1.25812	-1.87508	0.42009
3479.437	-1.65927	1.24696	-0.38348	0.31289
3483.446	-0.64158	1.28704	1.11442	0.26916
3487.441	2.65852	1.20609	2.68081	0.29955
3491.438	3.66194	1.24806	5.24749	0.13845
3495.463	5.42392	1.16227	6.03422	-0.00830
3499.440	6.94687	1.09576	8.18730	-0.07280
3503.439	8.75349	1.08190	10.28121	-0.23929
3507.438	10.97765	1.09030	11.98296	-0.30275
3511.442	12.90810	1.09868	13.04949	-0.45979
3515.438	12.94405	1.05427	15.01205	-0.50996
3519.433	14.70655	0.96636	15.47404	-0.71858
3523.437	14.43031	1.01080	15.33405	-0.88520
3527.442	13.97442	1.03846	14.68840	-0.81004
3531.438	13.70301	1.01393	15.05566	-0.93910
3535.433	14.36528	0.94451	15.23537	-0.96853
3539.442	14.37564	0.91936	15.31595	-1.01440
3543.440	14.19469	0.81548	15.10829	-1.13186
3547.441	14.10583	0.77426	15.29489	-1.15486
3551.441	14.55918	0.77842	15.32742	-1.17988
3555.434	14.39613	0.74633	15.26499	-1.16334
3559.437	14.54300	0.63639	15.28413	-1.20821
3563.437	14.53684	0.61460	15.19699	-1.19514
3567.442	14.58475	0.62713	15.18428	-1.15123
3571.442	14.49597	0.66650	15.23057	-1.13997
3575.441	14.55690	0.62426	15.26247	-1.11169
3579.433	14.55360	0.69631	15.16021	-1.09550
3583.435	14.55363	0.63694	15.02047	-1.12887
3587.436	14.44918	0.59535	14.93082	-1.06591
3591.437	14.45584	0.59976	14.94831	-1.03541
3595.432	14.41043	0.62123	15.01739	-0.99160
3599.436	14.34743	0.68957	14.90797	-1.01669
3603.436	14.40295	0.67467	14.92477	-0.99357
3607.441	14.39140	0.70674	14.86226	-1.03045
3611.440	14.40423	0.65096	14.83861	-1.10423
3615.436	14.59354	0.57169	14.88076	-0.93958
3619.437	14.55844	0.54155	14.78918	-0.85966
3623.436	14.41322	0.52356	14.77916	-0.90466
3627.431	14.58357	0.51780	14.67047	-0.97334
3631.439	14.49123	0.53312	14.70734	-0.90263
3635.435	14.49413	0.55248	14.79994	-0.92461
3639.432	14.56769	0.53821	14.76349	-1.00656
3643.435	14.72411	0.50848	14.73504	-0.80297
3647.435	14.76533	0.49274	14.63130	-0.86689
3651.441	14.66571	0.48196	14.73202	-0.78249
3655.433	14.55800	0.44715	14.63163	-0.73588
3659.441	14.58817	0.46270	14.61083	-0.75241
3663.437	14.62628	0.47349	14.63572	-0.77767
3667.436	14.69480	0.48430	14.61822	-0.76208
3671.434	14.53337	0.45949	14.55686	-0.71504
3675.439	14.81089	0.47061	14.57766	-0.73002
3679.435	14.79909	0.54936	14.49323	-0.65025
3683.435	14.77930	0.54679	14.67439	-0.60388
3687.433	14.67897	0.49479	14.60065	-0.64329
3691.451	14.67367	0.54746	14.56750	-0.72010
3695.457	14.73021	0.46987	14.60151	-0.68371
3699.441	14.81931	0.58243	14.57590	-0.61266
3703.472	14.80628	0.54211	14.48497	-0.61354
3707.434	14.92127	0.43335	14.40596	-0.62834
3711.434	14.76790	0.44574	14.43135	-0.58596
3715.432	14.85922	0.52531	14.58752	-0.56872
3719.440	14.93606	0.47800	14.58285	-0.55844
3723.436	14.82052	0.41561	14.40062	-0.63634
3727.434	14.95809	0.35636	14.44208	-0.66777
3731.429	14.91689	0.46735	14.38696	-0.60560
3735.443	14.91110	0.50533	14.54670	-0.59319
3739.432	14.90825	0.49571	14.39441	-0.56447
3743.429	14.81470	0.46147	14.56485	-0.62815
3747.435	14.82277	0.41892	14.41264	-0.64266
3751.433	14.81825	0.50504	14.43317	-0.65699
3755.436	14.88164	0.54855	14.43347	-0.65249
3759.430	14.86370	0.52967	14.35621	-0.65845
3763.433	14.78066	0.47193	14.33502	-0.75311
3767.433	14.83835	0.59050	14.44716	-0.74944
3771.449	14.80832	0.63387	14.39147	-0.70756
3775.447	14.86768	0.57382	14.35454	-0.73155
3779.432	14.87967	0.55612	14.29140	-0.56546
3783.433	14.96390	0.45671	14.39150	-0.76132
3787.436	15.01142	0.50084	14.57587	-0.72091
3791.435	15.04550	0.27143	14.68735	-0.79397
3795.435	15.10559	-0.93130	14.75078	-1.65649
3799.434	15.09349	-1.65462	15.14643	-3.00383
3803.428	15.14948	-1.97433	15.32470	-3.16596
3807.433	15.21509	-2.38318	15.13223	-3.25357
3811.432	15.20885	-2.48720	15.20600	-3.56142
3815.428	15.24577	-2.65908	14.90544	-3.66378
3819.435	15.28390	-2.61593	15.18647	-3.74952
3823.431	15.33998	-2.69084	15.11200	-3.60800
3827.434	15.35466	-2.66031	15.12062	-3.51661
3831.433	15.33899	-2.63729	15.11748	-3.67681
3835.433	15.36387	-2.60601	15.15804	-3.67372
3839.427	15.42696	-2.66103	15.11794	-3.69634
3843.431	15.47784	-2.69056	15.07262	-3.79112
3847.431	15.47153	-2.67174	15.01341	-3.79222
3851.432	15.45101	-2.64311	15.00028	-3.78631
3855.433	15.44617	-2.60617	15.01489	-3.76935
3859.437	15.50379	-2.60077	14.97171	-3.73760
3863.432	15.53704	-2.64450	15.05549	-3.66987
3867.432	15.55955	-2.69308	15.07021	-3.64436
3871.428	15.51656	-2.65707	15.11715	-3.66210
3875.433	15.54960	-2.68115	15.09566	-3.64352
3879.437	15.55524	-2.68542	14.97940	-3.67725
3883.439	15.60413	-2.55952	15.06031	-3.69474
3887.432	15.56494	-2.49067	15.15369	-3.63017
3891.430	15.57931	-2.49110	15.10559	-3.62636
3895.431	15.50933	-2.50726	15.07944	-3.62377
3899.437	15.52280	-2.58605	15.13663	-3.63677
3903.437	15.51760	-2.65653	15.12654	-3.62765
3907.428	15.47180	-2.50348	15.04631	-3.64180
3911.466	15.42954	-2.49027	15.01941	-3.67604
3915.431	15.47757	-2.42059	14.99614	-3.63398
3919.432	15.42571	-2.48123	15.03138	-3.61696
3923.426	15.39225	-2.48766	15.11197	-3.57889
3927.431	15.39587	-2.58106	15.06103	-3.59932
3931.432	15.38306	-2.67778	15.12872	-3.62895
3935.433	15.36684	-2.75007	15.15059	-3.63431
3939.430	15.38966	-2.81598	15.11306	-3.66745
3943.440	15.41464	-2.79516	15.06454	-3.61019
3947.431	15.42249	-2.74551	15.09416	-3.58502
3951.427	15.41065	-2.73802	15.11540	-3.56227
3955.429	15.36885	-2.63586	15.12455	-3.49571
3959.433	15.35810	-2.70610	15.06607	-3.50272
3963.430	15.36705	-2.66680	15.08627	-3.46672
3967.428	15.39917	-2.64533	15.01980	-3.43286
3971.429	15.32205	-2.64193	14.97687	-3.29332
3975.430	14.58266	-2.59785	14.56348	-3.30554
3979.429	12.68456	-2.41670	13.43195	-3.11349
3983.435	11.91733	-2.23239	11.64187	-2.98090
3987.429	11.11478	-1.99453	10.66927	-2.28531
3991.431	9.81795	-1.86651	9.78874	-2.03525
3995.431	8.52765	-1.23723	9.25057	-2.13677
3999.429	8.43241	-1.22311	8.19980	-1.81800
4003.425	8.14830	-1.24268	7.44796	-1.51596
4007.435	8.06039	-1.23405	7.19239	-1.61675
4011.430	8.15535	-1.12831	7.49302	-1.41402
4015.429	8.14905	-1.04484	7.69322	-1.37728
4019.430	8.12262	-1.03889	7.68442	-1.36375
4023.435	8.10613	-1.06116	7.58293	-1.26422
4027.436	8.05429	-0.97127	7.40550	-1.30629
4031.434	8.00129	-0.94599	7.68593	-1.29589
4035.425	7.99683	-0.90460	7.47412	-1.42204
4039.430	7.98157	-0.93179	7.38905	-1.49132
4043.432	7.91865	-0.92271	7.39864	-1.35598
4047.434	7.89970	-0.93830	7.45140	-1.35690
4051.429	7.89756	-0.89743	7.37846	-1.30868
4055.430	7.91229	-0.89110	7.30566	-1.38511
4059.428	7.88836	-0.85650	7.31670	-1.43136
4063.429	7.86756	-0.84724	7.30400	-1.38132
4067.430	7.85526	-0.81454	7.23934	-1.37701
4071.449	7.88039	-0.77442	7.20033	-1.34412
4075.433	7.85989	-0.73946	7.16610	-1.21701
4079.429	7.86646	-0.65627	7.30288	-1.35571
4083.430	7.80538	-0.67728	7.29211	-1.28354
4087.304	7.75980	-0.68949	7.27841	-1.26746
4091.315	7.76472	-0.66588	7.23255	-1.30852
4095.308	7.78738	-0.71980	7.21242	-1.31429
4099.307	7.83393	-0.66565	7.31550	-1.33360
4103.299	7.84591	-0.93542	7.34314	-1.29753
4107.310	7.89676	-0.89738	7.29077	-1.31707
4111.305	7.98556	-0.95604	7.33369	-1.37796
4115.310	7.93094	-0.88201	7.38495	-1.35423
4119.299	7.91957	-0.93880	7.37707	-1.37893
4123.304	7.97931	-0.98926	7.35366	-1.36317
4127.304	8.00090	-1.03015	7.34338	-1.33842
4131.336	7.98683	-1.04935	7.35607	-1.33722
4135.309	8.05662	-1.06082	7.40077	-1.31453
4139.302	8.03248	-1.01747	7.42993	-1.34136
4143.302	8.03808	-1.10303	7.44279	-1.31275
4147.297	7.97948	-1.05918	7.44811	-1.35184
4151.301	8.00959	-1.03140	7.43598	-1.38261
4155.307	7.97145	-1.07883	7.50227	-1.39998
4159.302	7.91981	-1.08817	7.52988	-1.38527
4163.302	7.89895	-1.11140	7.53347	-1.42389
4167.300	7.92646	-1.14474	7.53064	-1.46230
4171.301	7.87484	-1.09338	7.50732	-1.46989
4175.304	7.92130	-1.09198	7.50586	-1.48705
4179.304	7.90253	-1.10807	7.45126	-1.50108
4183.301	7.92890	-1.11609	7.41292	-1.49069
4187.300	7.88112	-1.03488	7.40887	-1.49056
4191.306	7.72381	-0.82863	7.01406	-1.37772
4195.309	6.30676	-0.68854	6.72984	-1.22236
4199.305	6.06745	-0.23472	5.71524	-0.79901
4203.302	6.03682	-0.01923	5.48622	-0.42052
4207.301	6.50111	0.07891	5.54501	-0.25856
4211.319	6.43434	0.33468	5.81071	-0.11807
4215.304	6.29558	0.48780	5.82749	-0.01145
4219.302	6.40746	0.48725	5.50196	-0.18130
4223.301	6.30497	0.47139	5.45681	-0.16719
4227.328	6.21262	0.43361	5.53085	-0.07027
4231.311	6.14467	0.27913	5.43989	-0.12700
4235.300	6.18048	0.29766	5.44633	-0.05410
4239.305	6.09295	0.28556	5.44948	-0.05662
4243.297	6.14241	0.26456	5.66130	-0.07141
4247.300	6.09852	0.26826	5.71256	-0.21378
4251.300	6.00840	0.28679	5.76816	-0.22513
4255.295	5.98955	0.34391	5.79401	-0.32114
4259.301	5.98594	0.30212	5.78637	-0.36055
4263.302	5.90512	0.28889	5.81624	-0.42020
4267.300	5.85156	0.29033	5.84136	-0.44253
4271.305	5.89362	0.29814	5.92447	-0.46088
4275.304	5.89075	0.28848	5.91428	-0.42292
4279.301	5.88606	0.33945	5.93154	-0.46784
4283.301	5.92643	0.35556	5.95847	-0.47414
4287.317	5.92852	0.34793	5.93205	-0.45753
4291.339	5.92736	0.34466	5.90099	-0.44295
4295.325	5.93085	0.32449	5.89925	-0.54454
4299.309	5.92496	0.28639	5.90548	-0.50212
4303.302	5.94538	0.29792	5.91536	-0.53775
4307.298	5.96031	0.30144	5.90536	-0.51502
4311.301	5.97114	0.34424	5.90040	-0.46722
4315.300	5.97524	0.44887	5.82238	-0.51396
4319.306	5.97853	0.47047	5.76173	-0.48796
4323.307	6.02377	0.48239	5.84299	-0.55038
4327.303	6.10931	0.51147	5.78440	-0.60390
4331.300	6.11371	0.67061	5.73355	-0.57293
4335.302	6.18301	0.61969	5.78752	-0.59829
4339.304	6.19802	0.66836	5.77713	-0.51061
4343.300	6.15482	0.69403	5.73030	-0.56322
4347.299	6.14302	0.70269	5.72637	-0.53882
4351.298	6.09297	0.68573	5.81189	-0.58664
4355.302	5.96836	0.64697	5.77966	-0.69574
4359.303	5.94128	0.62012	5.78064	-0.71556
4363.346	5.86708	0.59892	5.75917	-0.72511
4367.313	5.82321	0.61229	5.70458	-0.75566
4371.300	5.83068	0.61547	5.65000	-0.73061
4375.309	5.80354	0.57254	5.66219	-0.75903
4379.301	5.77637	0.58295	5.59575	-0.73775
4383.302	5.75740	0.58240	5.53549	-0.72141
4387.303	5.78227	0.61562	5.50333	-0.67745
4391.295	5.73654	0.61968	5.60367	-0.76368
4395.303	5.72645	0.64070	5.57611	-0.79420
4399.301	5.73930	0.67354	5.59514	-0.69619
4403.303	5.77927	0.71542	5.69898	-0.72729
4407.298	5.80268	0.76559	5.78855	-0.73565
4411.302	5.81400	0.75504	5.79177	-0.68238
4415.308	5.77251	0.77349	5.82321	-0.63367
4419.298	5.75920	0.78253	5.78983	-0.72692
4423.304	5.76745	0.81023	5.92228	-0.71598
4427.300	5.76052	0.79914	5.95506	-0.77497
4431.304	5.74141	0.79032	5.97902	-0.78002
4435.297	5.77676	0.79474	5.97543	-0.75962
4439.299	5.77716	0.81602	6.00955	-0.70062
4443.295	5.79494	0.83950	5.97541	-0.68126
4447.305	5.78448	0.86654	5.98758	-0.68827
4451.298	5.78440	0.88498	5.96070	-0.72774
4455.292	5.75556	0.91080	5.94777	-0.79257
4459.302	5.74296	0.93905	5.93217	-0.78286
4463.299	5.79118	0.85773	5.90630	-0.75210
4467.301	5.76264	0.73245	5.87864	-0.74510
4471.294	5.78256	0.87381	5.87909	-0.76623
4475.300	5.76261	0.76508	5.87901	-0.75481
4479.296	5.76856	0.61089	5.86705	-0.75609
4483.294	5.70281	0.70251	5.77094	-0.77530
4487.308	5.70807	0.59738	5.84662	-0.75100
4491.303	5.73060	0.54470	5.85583	-0.74224
4495.299	5.74903	0.57151	5.86241	-0.69650
4499.327	5.74917	0.53274	5.84758	-0.67509
4503.299	5.78882	0.47787	5.86141	-0.70303
4507.300	5.81985	0.55042	5.93343	-0.71643
4511.296	5.83756	0.58499	5.99782	-0.66238
4515.296	5.83174	0.55679	5.91629	-0.58176
4519.299	5.84080	0.60767	5.94556	-0.65021
4523.297	5.76244	0.61129	5.91897	-0.58576
4527.299	5.78453	0.59938	5.92039	-0.55638
4531.299	5.82199	0.60453	5.77612	-0.57645
4535.301	5.79519	0.68287	5.76129	-0.47347
4539.296	5.78973	0.70977	5.74559	-0.49789
4543.296	5.75991	0.73935	5.78020	-0.47054
4547.296	5.66759	0.66764	5.77042	-0.50175
4551.300	5.64233	0.58442	5.77163	-0.51841
4555.296	5.59949	0.52460	5.76490	-0.55367
4559.300	5.62006	0.49221	5.58523	-0.54372
4563.292	5.63931	0.66226	5.67976	-0.40295
4567.295	5.64820	0.51291	5.61952	-0.33081
4571.308	5.68460	0.47561	5.74340	-0.43929
4575.301	5.63237	0.49526	5.77322	-0.50016
4579.292	5.54100	0.38353	5.77870	-0.51731
4583.299	5.56868	0.39296	5.83488	-0.47635
4587.294	5.56770	0.32475	5.48017	-0.40628
4591.295	5.66457	0.33236	5.73578	-0.35064
4595.289	5.67789	0.35045	5.70200	-0.32895
4599.295	5.73586	0.35423	5.81710	-0.27962
4603.293	5.66961	0.36767	5.83468	-0.31538
4607.300	5.65904	0.36896	5.80079	-0.42170
4611.295	5.70165	0.39255	5.88906	-0.41066
4615.305	5.69829	0.37635	5.82039	-0.38700
4619.297	5.71315	0.43769	5.65941	-0.40254
4623.295	5.80199	0.39142	5.69531	-0.33761
4627.290	5.78381	0.41899	5.77268	-0.35151
4631.314	5.78922	0.44240	5.73325	-0.40118
4635.444	5.77163	0.40268	5.73070	-0.41977
4639.302	5.75546	0.45298	5.68185	-0.42260
4643.295	5.74340	0.50352	5.68089	-0.48654
4647.295	5.71180	0.41358	5.66310	-0.51420
4651.292	5.67600	0.47639	5.71620	-0.44614
4655.305	5.67637	0.43984	5.73802	-0.47001
4659.294	5.66069	0.33484	5.67723	-0.53165
4663.294	5.65899	0.29876	5.70667	-0.54391
4667.296	5.66160	0.39154	5.71583	-0.55596
4671.300	5.65076	0.34844	5.67445	-0.57509
4675.308	5.63857	0.36415	5.66319	-0.55577
4679.296	5.64995	0.31397	5.65811	-0.55577
4683.293	5.54904	0.25311	5.60197	-0.49729
4687.296	5.55113	0.27955	5.61893	-0.47863
4691.299	5.57739	0.24504	5.60457	-0.41430
4695.300	5.59868	0.28685	5.57608	-0.48888
4699.302	5.75446	0.25184	5.54053	-0.47190
4703.303	5.66641	0.25086	5.53793	-0.47215
4707.302	5.65425	0.26167	5.49760	-0.41042
4711.295	5.71406	0.26830	5.50591	-0.41580
4715.295	5.69934	0.32497	5.53050	-0.38645
4719.321	5.68300	0.32906	5.54550	-0.35954
4723.296	5.66418	0.32470	5.53515	-0.30696
4727.293	5.70028	0.34394	5.56350	-0.37399
4731.293	5.80260	0.34553	5.59196	-0.27911
4735.287	5.79479	0.40039	5.60494	-0.38658
4739.298	5.75996	0.37125	5.66371	-0.37512
4743.292	5.74067	0.39843	5.62480	-0.36663
4747.296	5.71622	0.46214	5.57749	-0.32413
4751.291	5.71559	0.45672	5.67649	-0.33903
4755.293	5.64663	0.52248	5.65943	-0.33395
4759.296	5.69374	0.56041	5.59654	-0.27550
4763.291	5.73330	0.52408	5.56158	-0.29535
4767.291	5.75576	0.56270	5.66794	-0.27994
4771.313	5.73104	0.64421	5.69222	-0.30878
4775.293	5.71844	0.63918	5.69281	-0.33057
4779.307	5.78059	0.65876	5.60310	-0.29511
4783.291	5.75625	0.65001	5.58336	-0.28478
4787.291	5.70733	0.58866	5.60020	-0.27940
4791.290	5.68681	0.57594	5.56596	-0.26297
4795.297	5.66332	0.64784	5.51698	-0.23425
4799.293	5.73588	0.61750	5.54245	-0.24644
4803.295	5.74158	0.47631	5.60718	-0.32634
4807.287	5.74822	0.38653	5.58737	-0.33401
4811.290	5.62903	0.47452	5.62957	-0.33265
4815.290	5.58429	0.45208	5.53935	-0.36884
4819.298	5.64894	0.42379	5.71224	-0.39672
4823.302	6.24793	0.33248	7.58966	-0.33878
4827.291	8.89715	0.25765	8.72032	-0.30447
4831.287	10.14571	0.30113	11.37648	-0.25111
4835.290	11.75386	0.36628	12.23410	-0.43280
4839.293	12.68016	0.20902	13.98094	-0.55670
4843.293	13.18219	0.27685	14.41543	-0.77988
4847.291	13.63874	0.29060	14.53356	-1.04515
4851.288	13.78625	0.27741	14.32062	-1.01616
4855.290	13.38087	0.17669	13.82234	-1.32706
4859.292	13.72997	0.20499	13.86900	-1.33492
4863.301	13.80599	0.25610	14.00370	-0.71737
4867.288	13.78209	0.34740	14.03517	-0.97093
4871.290	13.74399	0.34333	13.89985	-1.11832
4875.294	13.75800	0.36481	13.98258	-1.04313
4879.287	13.74861	0.41076	14.06698	-1.07443
4883.293	13.78520	0.42978	14.17887	-1.01716
4887.294	13.82010	0.60713	14.06235	-0.97363
4891.286	13.81010	0.56701	13.97120	-0.89967
4895.290	13.83201	0.50712	14.08827	-0.96123
4899.290	13.86808	0.58296	14.08143	-0.95319
4903.298	13.84212	0.55040	14.14133	-0.81847
4907.310	13.80968	0.54257	14.16532	-0.92116
4911.297	13.76348	0.54234	14.17315	-0.90971
4915.370	13.73512	0.57694	14.23228	-0.95429
4919.302	13.69546	0.62645	14.20033	-1.02227
4923.285	13.66547	0.49514	14.16847	-1.00396
4927.289	13.62641	0.43669	14.10394	-0.98890
4931.287	13.64031	0.31199	14.02090	-0.96523
4935.289	13.62915	0.21689	13.99337	-1.02167
4939.159	13.59377	0.25426	13.91624	-0.91414
4943.164	13.61368	0.19908	13.83538	-0.90546
4947.163	13.60826	0.23007	13.76170	-0.83313
4951.165	13.63184	0.18870	13.70537	-0.80246
4955.168	13.66299	0.11477	13.70664	-0.77234
4959.163	13.69073	0.12086	13.67166	-0.72468
4963.162	13.73322	0.05361	13.57061	-0.66823
4967.159	13.72999	0.08246	13.54300	-0.65990
4971.162	13.78925	0.10203	13.47026	-0.66162
4975.201	13.84570	0.10206	13.44881	-0.68549
4979.173	13.88869	0.11765	13.46547	-0.67333
4983.163	13.91666	0.12694	13.47681	-0.66654
4987.163	13.86675	0.13848	13.46219	-0.65768
4991.168	13.89482	0.14198	13.53064	-0.66940
4995.162	13.91226	0.14957	13.59924	-0.74021
4999.162	13.89664	0.24363	13.60704	-0.73874
5003.158	13.91575	0.30234	13.65873	-0.78570
5007.166	13.94642	0.38029	13.78436	-0.76441
5011.162	13.99767	0.43399	13.86769	-0.75222
5015.160	13.99393	0.46064	14.01006	-0.75072
5019.163	13.94399	0.49557	13.90770	-0.74760
5023.161	13.94593	0.50803	13.82410	-0.77212
5027.162	14.00286	0.53098	13.94390	-0.80712
5031.159	13.97409	0.46174	13.93499	-0.86290
5035.168	13.97337	0.38109	14.02078	-0.91712
5039.162	13.99492	0.34243	13.99573	-0.92816
5043.186	14.03552	0.34721	13.88719	-0.96574
5047.167	13.99744	0.41832	13.86925	-0.97136
5051.165	13.97942	0.29907	13.88895	-0.90763
5055.160	13.92091	0.37551	13.86277	-0.88617
5059.169	13.93995	0.37152	13.83889	-0.86726
5063.163	13.89896	0.45295	13.82255	-0.91759
5067.167	13.92788	0.41452	13.76881	-0.85666
5071.168	13.97379	0.49533	13.81666	-0.89038
5075.170	13.91208	0.55595	13.82188	-0.91222
5079.159	13.90298	0.67302	13.79892	-0.76766
5083.161	13.95320	0.73070	13.72313	-0.79190
5087.162	13.91989	0.74151	13.74430	-0.77960
5091.161	13.86769	0.78403	13.78234	-0.73901
5095.157	13.85634	0.81719	13.81048	-0.74413
5099.167	13.82611	0.83565	13.81572	-0.73844
5103.163	13.87082	0.85525	13.83500	-0.73071
5107.163	13.81195	0.83274	13.86137	-0.67186
5111.164	13.80694	0.82545	13.91888	-0.61700
5115.162	13.75069	0.81104	13.88355	-0.62103
5119.170	13.71516	0.79953	13.89115	-0.55697
5123.158	13.79480	0.76700	13.87398	-0.51923
5127.163	13.76291	0.72020	13.89732	-0.49849
5131.208	13.71263	0.68972	13.85426	-0.42502
5135.165	13.74591	0.65050	13.76446	-0.37735
5139.160	13.72287	0.66821	13.79765	-0.40411
5143.159	13.37460	0.64482	13.37456	-0.45453
5147.164	11.76181	0.60354	11.83068	-0.40412
5151.158	9.36778	0.63342	10.69834	-0.48181
5155.160	8.12279	0.64353	8.42602	-0.43065
5159.164	7.49261	0.78833	7.48927	-0.33775
5163.159	5.75094	0.95621	7.16107	-0.23067
5167.159	3.68579	0.99335	4.61933	0.11376
5171.164	3.14157	1.28950	3.92524	0.54057
5175.162	0.69759	1.41308	2.25687	0.41090
5179.163	-0.42132	1.47677	-0.14422	0.82690
5183.160	-1.63566	1.58852	-0.60697	0.80064
5187.163	-2.33665	1.92664	-1.81310	1.21557
5191.155	-2.66630	1.88717	-1.92448	1.14847
5195.174	-2.46939	2.06379	-1.95906	1.29414
5199.172	-2.11960	2.05475	-1.96365	1.48855
5203.159	-2.04565	2.07387	-1.72314	1.55038
5207.163	-1.99330	2.13809	-1.83709	1.44286
5211.161	-2.07398	2.20702	-1.62790	1.50716
5215.160	-2.13839	2.24345	-1.66048	1.59575
5219.159	-2.24304	2.31241	-1.75671	1.63483
5223.160	-2.23672	2.28052	-1.90282	1.69209
5227.162	-2.34453	2.18723	-1.85700	1.74765
5231.159	-2.58170	2.17125	-1.94238	1.81016
5235.158	-2.51123	2.15077	-1.93085	1.76792
5239.160	-2.37434	2.17799	-2.06295	1.80601
5243.170	-2.35506	2.10235	-2.07750	1.77041
5247.166	-2.46070	2.05550	-2.20456	1.75012
5251.159	-2.48676	1.98479	-2.28804	1.71790
5255.176	-2.46389	2.09405	-2.24978	1.79822
5259.167	-2.45502	2.11777	-2.34381	1.80242
5263.159	-2.40003	2.12070	-2.35429	1.76366
5267.164	-2.41618	2.10067	-2.33232	1.78266
5271.160	-2.47199	2.12825	-2.29532	1.78747
5275.160	-2.38829	2.15548	-2.27639	1.70544
5279.165	-2.34332	2.25700	-2.37243	1.73179
5283.164	-2.32974	2.31513	-2.42562	1.68977
5287.163	-2.29475	2.31337	-2.38851	1.66871
5291.159	-2.29369	2.33246	-2.41804	1.72841
5295.158	-2.29857	2.41098	-2.39252	1.70904
5299.161	-2.35692	2.33838	-2.41056	1.66005
5303.163	-2.39024	2.26185	-2.39579	1.60621
5307.158	-2.40090	2.22381	-2.39894	1.61854
5311.157	-2.45267	2.21859	-2.35984	1.58145
5315.160	-2.44056	2.15718	-2.40573	1.61178
5319.162	-2.46102	2.15918	-2.38140	1.62278
5323.158	-2.40402	2.15456	-2.40867	1.63495
5327.164	-2.44640	2.13231	-2.34889	1.69503
5331.158	-2.42681	2.11253	-2.41259	1.72593
5335.161	-2.37446	2.11896	-2.45297	1.67104
5339.160	-2.41222	2.08146	-2.39562	1.72712
5343.157	-2.37602	2.03101	-2.44779	1.73638
5347.157	-2.35553	2.01288	-2.50633	1.80255
5351.166	-2.44383	1.97963	-2.54422	1.82028
5355.200	-2.53023	1.86365	-2.51831	1.78963
5359.156	-2.52619	1.87151	-2.42101	1.78743
5363.157	-2.45084	1.88042	-2.43241	1.71172
5367.164	-2.48537	1.85396	-2.40617	1.74757
5371.157	-2.66895	1.79423	-2.49577	1.73798
5375.156	-2.55567	1.76116	-2.45579	1.67354
5379.157	-2.63123	1.77703	-2.32357	1.67524
5383.158	-2.59579	1.83526	-2.33083	1.68153
5387.158	-2.55988	1.99081	-2.30595	1.70193
5391.156	-2.56337	2.02011	-2.30365	1.68561
5395.154	-2.52750	1.92366	-2.29505	1.69507
5399.162	-2.45141	1.95360	-2.38464	1.69583
5403.157	-2.44274	2.02972	-2.31217	1.70767
5407.161	-1.89612	2.34243	-1.93442	2.53745
5411.158	-0.41824	2.74782	0.54483	3.03317
5415.161	1.50938	3.70516	1.63593	3.85604
5419.161	2.33145	4.15492	2.38628	4.38469
5423.156	3.63688	5.00476	4.11226	5.59257
5427.160	4.77865	6.41815	5.89078	6.31280
5431.157	5.45317	6.88988	6.57203	7.05954
5435.156	6.66499	7.86156	7.59405	8.04974
5439.151	7.07867	8.24941	7.25289	8.56176
5443.160	6.89805	8.15496	7.28385	8.36527
5447.160	6.56356	8.02781	6.94425	8.37480
5451.202	6.42638	8.04242	7.02924	8.19099
5455.161	6.34150	8.14502	7.13661	8.28605
5459.160	6.42935	7.88895	7.18064	8.28625
5463.155	6.42087	7.78317	7.18726	8.36187
5467.160	6.26564	7.89132	7.20235	8.34290
5471.155	6.42964	8.04329	7.27397	8.39368
5475.150	6.48700	8.04631	7.26962	8.46385
5479.162	6.59650	7.99430	7.24354	8.52081
5483.155	6.56245	7.96639	7.23281	8.54514
5487.156	6.55925	7.97000	7.23892	8.63876
5491.157	6.56505	7.96676	7.32519	8.60209
5495.161	6.62072	7.86124	7.37348	8.72352
5499.155	6.73285	7.86125	7.36867	8.68494
5503.155	6.73446	7.88922	7.41124	8.64342
5507.155	6.75881	7.97481	7.42029	8.53635
5511.158	6.75649	7.97156	7.45584	8.56340
5515.154	6.85295	7.92901	7.44821	8.39328
5519.156	6.88194	7.89600	7.46753	8.38122
5523.153	6.88286	7.93645	7.50410	8.38117
5527.161	6.93384	7.93607	7.51657	8.34356
5531.155	6.95342	7.92647	7.52666	8.31783
5535.178	6.96998	7.94381	7.49534	8.19811
5539.153	6.99074	7.95309	7.47136	8.24876
5543.159	6.96538	7.98535	7.49615	8.24052
5547.155	6.95700	8.04482	7.47888	8.19924
5551.191	6.91547	8.05000	7.47724	8.28202
5555.151	6.91889	8.04155	7.49539	8.28445
5559.154	6.93570	8.04073	7.49617	8.32376
5563.152	6.92912	8.05632	7.49837	8.33660
5567.161	6.93939	8.08125	7.50090	8.37306
5571.160	6.88829	8.01952	7.51842	8.43510
5575.161	6.88392	8.01579	7.52657	8.42585
5579.153	6.85985	8.01436	7.52240	8.50036
5583.153	6.86863	8.02635	7.53349	8.49983
5587.152	6.86716	7.99171	7.52474	8.52723
5591.159	6.93296	7.96942	7.52418	8.54649
5595.152	6.89656	7.91307	7.50439	8.52386
5599.157	6.93963	7.92382	7.45826	8.54731
5603.152	6.94093	7.98985	7.46097	8.60088
5607.153	6.95152	8.05386	7.46348	8.68473
5611.152	6.98252	8.17469	7.48027	8.75287
5615.160	7.06738	9.01244	7.58217	11.43805
5619.158	8.60208	11.31149	8.71029	13.38097
5623.153	9.15333	11.91000	9.89024	14.28672
5627.151	10.12678	14.00723	NaN	NaN
5631.173	10.70203	14.13151	NaN	NaN
5635.159	10.90269	14.25150	NaN	NaN
5639.152	10.88142	14.35206	NaN	NaN
5643.157	10.82110	14.28502	NaN	NaN
5647.149	10.30848	14.44829	NaN	NaN
5651.152	10.62372	14.38754	NaN	NaN
5655.151	10.56687	14.37772	NaN	NaN
5659.159	10.71758	14.44803	NaN	NaN
5663.157	10.68612	14.49404	NaN	NaN
5667.147	10.75890	14.47841	NaN	NaN
5671.156	10.78997	14.55043	NaN	NaN
5675.155	10.77811	14.53920	NaN	NaN
5679.152	10.76664	14.55865	NaN	NaN
5683.152	10.71569	14.58746	NaN	NaN
5687.152	10.70950	14.62627	NaN	NaN
5691.156	10.71708	14.60352	NaN	NaN
5695.168	10.67794	14.62556	NaN	NaN
5699.163	10.66273	14.65248	NaN	NaN
5703.152	10.66138	14.65067	NaN	NaN
5707.151	10.54970	14.59694	NaN	NaN
5711.157	10.52125	14.60662	NaN	NaN
5715.153	10.51991	14.57167	NaN	NaN
5719.155	10.46210	14.53207	NaN	NaN
5723.190	10.43299	14.44762	NaN	NaN
5727.164	10.44965	14.31508	NaN	NaN
5731.152	10.44763	14.29422	NaN	NaN
5735.155	10.50059	14.27947	NaN	NaN
5739.151	10.51647	14.21553	NaN	NaN
5743.157	10.52257	14.15367	NaN	NaN
5747.154	10.51482	14.10457	NaN	NaN
5751.153	10.56529	14.10375	NaN	NaN
5755.154	10.60085	14.05983	NaN	NaN
5759.154	10.63077	14.02796	NaN	NaN
5763.151	10.65124	14.00531	NaN	NaN
5767.150	10.69033	13.97252	NaN	NaN
5771.202	10.68367	14.03773	NaN	NaN
5775.152	10.69570	14.07594	NaN	NaN
5779.154	10.66634	14.07194	NaN	NaN
5783.154	10.70002	14.04808	NaN	NaN
5787.152	10.73701	14.07928	NaN	NaN
5791.154	10.76860	14.10660	NaN	NaN
5795.027	10.79191	14.11515	NaN	NaN
5799.020	10.78439	14.12274	NaN	NaN
5803.029	10.78431	14.06432	NaN	NaN
5807.027	10.78755	14.07040	NaN	NaN
5811.025	10.78585	14.07700	NaN	NaN
5815.024	10.78824	14.02889	NaN	NaN
5819.025	10.79219	13.96418	NaN	NaN
5823.026	10.83185	13.92479	NaN	NaN
5827.022	10.67854	13.93493	NaN	NaN
5831.034	10.61581	13.94795	NaN	NaN
5835.025	10.52281	13.93314	NaN	NaN
5839.027	10.45207	13.93726	NaN	NaN
5843.021	10.40291	13.91303	NaN	NaN
5847.028	10.37645	13.93657	NaN	NaN
5851.023	10.32474	13.94714	NaN	NaN
5855.025	10.29029	13.95489	NaN	NaN
5859.032	10.31155	13.94655	NaN	NaN
5863.028	10.28851	13.97355	NaN	NaN
5867.026	10.25408	13.99633	NaN	NaN
5871.026	10.29675	13.98144	NaN	NaN
5875.046	10.31340	13.96367	NaN	NaN
