time (ms)	lx (deg)	ly (deg)	rx (deg)	ry (deg)
0.000	-13.63749	3.51312	-11.74601	3.55915
4.008	-12.07296	3.31428	-10.31215	3.36795
8.003	-10.07755	3.40532	-8.85383	3.15078
12.018	-8.47024	3.31111	-7.73170	2.97101
16.005	-6.50508	3.26496	-5.99905	2.69850
20.005	-5.02361	3.12275	-5.35352	2.59655
24.002	-4.32308	3.14845	-4.67369	2.43895
28.007	-3.14850	3.21848	-4.15107	2.07750
32.006	-2.95495	3.22922	-3.77172	2.30591
36.000	-3.11151	3.19287	-4.02329	2.05208
40.014	-3.20825	3.15050	-4.21024	2.28221
43.999	-3.28939	3.08519	-4.32131	2.18176
48.004	-3.48177	3.01595	-4.21113	2.12463
52.006	-3.37465	3.01425	-3.87840	1.98742
56.000	-3.26376	2.96568	-3.88379	1.83453
60.001	-3.23385	2.95985	-3.95024	1.80311
64.001	-3.24081	2.85971	-3.76458	1.84299
68.005	-3.19397	2.91557	-3.66377	1.83024
72.007	-3.19170	2.83062	-3.76067	1.85776
76.000	-3.17272	2.71941	-3.53466	1.84343
80.004	-3.22631	2.52304	-3.70013	1.77173
84.001	-3.26010	2.50156	-3.62459	1.69978
88.000	-3.15661	2.54109	-3.64761	1.65474
92.007	-3.16389	2.53671	-3.63967	1.64923
96.002	-3.14261	2.40196	-3.64256	1.59027
100.000	-3.14513	2.35628	-3.62220	1.66083
104.034	-3.03838	2.39212	-3.62333	1.69485
108.017	-3.23054	2.40292	-3.60625	1.61066
112.004	-3.14360	2.19192	-3.68779	1.52465
116.010	-3.20422	2.21416	-3.63367	1.32216
119.999	-3.28083	2.16098	-3.71659	1.33921
123.999	-3.24066	2.21366	-3.68399	1.28109
127.995	-3.27225	2.07332	-3.70720	1.17894
132.000	-3.24585	2.06146	-3.66755	1.08251
135.999	-3.33668	2.07658	-3.63228	1.14091
139.999	-3.38580	2.08923	-3.64385	1.04085
143.999	-3.33881	2.10028	-3.68816	0.90440
147.998	-3.37027	1.90322	-3.65831	0.85360
152.003	-3.30903	1.84498	-3.62496	0.79737
155.998	-3.24813	1.82443	-3.66550	0.80993
160.019	-3.18856	1.81720	-3.67830	0.90294
164.003	-3.16179	1.63024	-3.68421	0.93108
168.000	-3.14788	1.60683	-3.70020	0.84446
171.997	-3.14924	1.60234	-3.76233	0.87115
176.010	-3.22584	1.68616	-3.71849	0.85240
180.007	-3.28377	1.45192	-3.68784	0.83411
183.994	-3.15218	1.49905	-3.60160	0.83491
187.999	-3.22049	1.39746	-3.60047	0.77716
192.001	-3.22792	1.39537	-3.62966	0.77848
196.003	-3.29995	1.43630	-3.62267	0.75795
199.997	-3.25872	1.41968	-3.53112	0.73264
204.004	-3.23598	1.41626	-3.61948	0.60300
207.999	-3.28595	1.45417	-3.49285	0.56440
212.003	-3.30017	1.40943	-3.50259	0.51685
215.994	-3.27724	1.45173	-3.43917	0.45356
219.999	-3.37475	1.42524	-3.59315	0.44131
224.002	-5.81172	1.46452	-4.42656	0.33830
228.000	-9.19820	1.38063	-6.61707	0.29502
232.004	-12.21556	1.14802	-8.72905	0.15704
236.018	-15.10545	1.06887	-11.23284	0.06456
240.000	-16.60828	0.77776	-12.35519	-0.14399
243.998	-19.61428	0.26588	-14.51593	-0.56979
248.003	-20.85897	-0.58686	-15.78968	-0.75501
251.999	-19.99076	-12.07764	-18.60255	-0.73691
255.998	-19.99214	-12.07754	-19.91579	-0.96550
260.000	-19.99287	-12.07749	-21.78508	-1.25701
263.998	-23.49223	7.12286	-19.96082	-12.07987
267.998	-20.00249	7.01574	-19.97178	-12.07906
272.001	-23.20769	9.39947	-19.97748	-12.07863
276.004	-19.99791	-12.07711	-19.98099	-12.07837
280.028	-21.55763	12.93450	-19.98338	-12.07819
283.996	-20.00457	-12.07662	-19.98511	-12.07806
287.998	-20.04032	-12.07395	-19.98645	-12.07796
291.997	-20.00262	-12.07676	-19.98750	-12.07789
295.997	-20.00238	-12.07678	-20.00078	-12.07690
300.009	-20.00209	-12.07680	-19.99670	-12.07720
304.004	-20.00176	-12.07682	NaN	NaN
307.992	-20.00071	-12.07690	NaN	NaN
311.996	-19.99837	-12.07708	NaN	NaN
315.997	-19.99780	-12.07712	NaN	NaN
320.008	-19.99762	-12.07713	NaN	NaN
324.035	NaN	NaN	NaN	NaN
328.005	NaN	NaN	NaN	NaN
332.002	NaN	NaN	NaN	NaN
335.996	NaN	NaN	NaN	NaN
339.993	NaN	NaN	NaN	NaN
343.994	NaN	NaN	NaN	NaN
347.995	NaN	NaN	NaN	NaN
351.998	NaN	NaN	NaN	NaN
355.990	NaN	NaN	NaN	NaN
360.009	1.22690	13.17322	NaN	NaN
364.005	1.22184	13.17729	NaN	NaN
367.995	1.21683	13.18214	NaN	NaN
371.998	1.21169	13.18624	NaN	NaN
375.995	NaN	NaN	NaN	NaN
380.013	NaN	NaN	NaN	NaN
383.991	NaN	NaN	NaN	NaN
387.994	NaN	NaN	NaN	NaN
391.990	NaN	NaN	NaN	NaN
395.994	NaN	NaN	NaN	NaN
399.995	NaN	NaN	NaN	NaN
403.998	NaN	NaN	NaN	NaN
407.992	NaN	NaN	NaN	NaN
411.993	NaN	NaN	NaN	NaN
415.996	NaN	NaN	NaN	NaN
419.993	NaN	NaN	NaN	NaN
423.996	NaN	NaN	NaN	NaN
427.996	NaN	NaN	NaN	NaN
431.990	NaN	NaN	NaN	NaN
435.997	NaN	NaN	NaN	NaN
440.010	NaN	NaN	NaN	NaN
444.007	NaN	NaN	NaN	NaN
448.006	NaN	NaN	NaN	NaN
451.992	NaN	NaN	NaN	NaN
455.993	NaN	NaN	NaN	NaN
459.865	NaN	NaN	NaN	NaN
463.868	NaN	NaN	NaN	NaN
467.870	NaN	NaN	NaN	NaN
471.996	NaN	NaN	NaN	NaN
475.863	NaN	NaN	NaN	NaN
479.871	NaN	NaN	NaN	NaN
483.869	1.01553	13.39215	NaN	NaN
487.867	1.01305	13.39522	NaN	NaN
491.876	NaN	NaN	NaN	NaN
495.870	NaN	NaN	NaN	NaN
499.867	NaN	NaN	NaN	NaN
503.861	1.00700	13.40258	NaN	NaN
507.873	NaN	NaN	NaN	NaN
511.869	1.00186	13.40890	NaN	NaN
515.889	0.99802	13.41343	NaN	NaN
519.871	NaN	NaN	NaN	NaN
523.864	NaN	NaN	NaN	NaN
527.872	NaN	NaN	NaN	NaN
531.876	NaN	NaN	NaN	NaN
535.871	NaN	NaN	NaN	NaN
539.862	NaN	NaN	NaN	NaN
543.865	NaN	NaN	NaN	NaN
547.883	NaN	NaN	NaN	NaN
551.866	NaN	NaN	NaN	NaN
555.878	NaN	NaN	NaN	NaN
559.867	NaN	NaN	NaN	NaN
563.866	NaN	NaN	NaN	NaN
567.866	NaN	NaN	NaN	NaN
571.865	NaN	NaN	NaN	NaN
575.873	NaN	NaN	NaN	NaN
579.870	NaN	NaN	NaN	NaN
584.078	NaN	NaN	NaN	NaN
587.868	NaN	NaN	NaN	NaN
591.869	NaN	NaN	NaN	NaN
595.869	NaN	NaN	NaN	NaN
599.861	NaN	NaN	NaN	NaN
603.870	NaN	NaN	NaN	NaN
607.866	NaN	NaN	NaN	NaN
611.867	NaN	NaN	NaN	NaN
615.874	NaN	NaN	NaN	NaN
619.868	NaN	NaN	NaN	NaN
623.869	NaN	NaN	NaN	NaN
627.860	NaN	NaN	NaN	NaN
631.866	NaN	NaN	NaN	NaN
635.863	NaN	NaN	NaN	NaN
639.862	0.91942	13.50615	NaN	NaN
643.870	0.91800	13.50876	NaN	NaN
647.867	0.91654	13.51015	NaN	NaN
651.911	0.91458	13.51178	NaN	NaN
655.873	0.91289	13.51275	NaN	NaN
659.871	0.91128	13.51405	NaN	NaN
663.862	0.90976	13.51551	NaN	NaN
667.870	0.90828	13.51711	NaN	NaN
671.889	0.90681	13.51907	NaN	NaN
675.870	0.90537	13.52093	NaN	NaN
679.867	0.90393	13.52293	NaN	NaN
683.866	0.90123	13.52634	NaN	NaN
687.869	0.89835	13.52962	NaN	NaN
691.862	0.89557	13.53301	NaN	NaN
695.869	0.89299	13.53636	NaN	NaN
699.870	NaN	NaN	NaN	NaN
703.867	0.88927	13.54053	NaN	NaN
707.863	NaN	NaN	NaN	NaN
711.869	NaN	NaN	NaN	NaN
715.866	NaN	NaN	NaN	NaN
719.881	0.88217	13.54818	NaN	NaN
723.868	0.87810	13.55336	NaN	NaN
727.866	0.87418	13.55838	NaN	NaN
731.864	0.87069	13.56323	NaN	NaN
735.875	0.86731	13.56768	NaN	NaN
739.873	NaN	NaN	NaN	NaN
743.861	NaN	NaN	NaN	NaN
747.868	0.86143	13.57716	NaN	NaN
751.866	NaN	NaN	NaN	NaN
755.864	NaN	NaN	NaN	NaN
759.890	NaN	NaN	NaN	NaN
763.867	NaN	NaN	NaN	NaN
767.862	NaN	NaN	NaN	NaN
771.862	NaN	NaN	NaN	NaN
775.855	NaN	NaN	NaN	NaN
779.866	NaN	NaN	NaN	NaN
783.869	NaN	NaN	NaN	NaN
787.860	NaN	NaN	NaN	NaN
791.860	NaN	NaN	NaN	NaN
795.855	NaN	NaN	NaN	NaN
799.876	NaN	NaN	NaN	NaN
803.871	NaN	NaN	NaN	NaN
807.857	NaN	NaN	NaN	NaN
811.863	NaN	NaN	NaN	NaN
815.858	NaN	NaN	NaN	NaN
819.861	NaN	NaN	NaN	NaN
823.859	NaN	NaN	NaN	NaN
827.865	NaN	NaN	NaN	NaN
831.863	NaN	NaN	NaN	NaN
835.861	NaN	NaN	NaN	NaN
839.857	NaN	NaN	NaN	NaN
843.860	NaN	NaN	NaN	NaN
847.860	NaN	NaN	NaN	NaN
851.861	NaN	NaN	NaN	NaN
855.858	NaN	NaN	NaN	NaN
859.860	NaN	NaN	NaN	NaN
863.862	NaN	NaN	NaN	NaN
867.868	NaN	NaN	NaN	NaN
871.867	NaN	NaN	NaN	NaN
875.857	NaN	NaN	NaN	NaN
879.860	NaN	NaN	NaN	NaN
883.856	NaN	NaN	NaN	NaN
887.866	NaN	NaN	NaN	NaN
891.861	NaN	NaN	NaN	NaN
895.860	NaN	NaN	NaN	NaN
899.863	NaN	NaN	NaN	NaN
903.860	NaN	NaN	NaN	NaN
907.865	NaN	NaN	NaN	NaN
911.854	NaN	NaN	NaN	NaN
915.858	NaN	NaN	NaN	NaN
919.859	NaN	NaN	NaN	NaN
923.878	NaN	NaN	NaN	NaN
927.867	NaN	NaN	NaN	NaN
931.862	NaN	NaN	NaN	NaN
935.860	NaN	NaN	NaN	NaN
939.860	NaN	NaN	NaN	NaN
943.853	NaN	NaN	NaN	NaN
947.868	NaN	NaN	NaN	NaN
951.864	NaN	NaN	NaN	NaN
955.864	NaN	NaN	NaN	NaN
959.854	NaN	NaN	NaN	NaN
963.859	NaN	NaN	NaN	NaN
967.857	NaN	NaN	NaN	NaN
971.860	NaN	NaN	NaN	NaN
975.851	NaN	NaN	NaN	NaN
979.858	NaN	NaN	NaN	NaN
983.857	NaN	NaN	NaN	NaN
987.856	NaN	NaN	NaN	NaN
991.865	NaN	NaN	NaN	NaN
995.859	NaN	NaN	NaN	NaN
999.853	NaN	NaN	NaN	NaN
1003.874	NaN	NaN	NaN	NaN
1007.863	NaN	NaN	NaN	NaN
1011.858	NaN	NaN	NaN	NaN
1015.852	NaN	NaN	NaN	NaN
1019.858	NaN	NaN	NaN	NaN
1023.856	NaN	NaN	NaN	NaN
1027.856	NaN	NaN	NaN	NaN
1031.863	0.01176	7.93541	-2.72840	0.72191
1035.862	0.02598	7.73378	-2.83987	1.16748
1039.862	-0.26652	7.64970	-2.74843	1.26778
1043.855	-0.42715	6.96515	-2.76448	1.35208
1047.859	-0.59359	6.78525	-2.72744	1.36088
1051.861	-0.60938	6.40819	-2.75272	1.23741
1055.858	-0.58116	6.20890	-2.65763	1.14188
1059.865	-0.67020	6.14884	-2.80828	1.12328
1063.858	-0.83908	5.89717	-2.72801	0.93683
1067.865	-0.87302	6.18325	-2.69190	0.81745
1071.865	-0.82282	5.69521	-2.65218	0.94836
1075.861	-0.93606	5.73580	-2.62214	1.13772
1079.856	-0.95713	5.32335	-2.56533	1.06050
1083.864	-0.91160	5.60340	-2.49736	0.99607
1087.858	-0.89433	5.38802	-2.56800	0.85029
1091.859	-0.98846	5.37206	-2.47422	0.69040
1095.858	-0.99576	5.04160	-2.48264	0.80468
1099.858	-0.82218	5.03023	-2.51854	0.74891
1103.861	-0.91914	5.08012	-2.40654	0.83942
1107.863	-0.98990	4.94732	-2.39188	0.79470
1111.864	-0.96534	4.87472	-2.43263	0.79815
1115.863	-0.93867	4.74627	-2.51343	0.82315
1119.859	-0.79201	4.67407	-2.52765	0.72252
1123.853	-0.98355	4.63594	-2.57964	0.66508
1127.857	-0.92371	4.52942	-2.59522	0.63779
1131.865	-0.99241	4.41408	-2.58791	0.55395
1135.857	-0.92882	4.37156	-2.62056	0.68799
1139.857	-0.86639	4.40186	-2.54442	0.69771
1143.857	-0.94931	4.32837	-2.57580	0.68169
1147.866	-0.93979	4.23623	-2.62187	0.65615
1151.860	-0.89857	4.08121	-2.65939	0.67020
1155.866	-0.87150	4.09679	-2.50506	0.64864
1159.855	-0.67129	4.04291	-2.56538	0.63421
1163.856	-0.71513	3.81372	-2.35253	0.65119
1167.858	-0.53054	3.49363	-1.09224	0.33031
1171.899	-0.32774	3.58927	-1.05694	-0.04519
1175.860	-0.13181	3.35130	-0.75096	-0.40547
1179.854	-0.03043	3.15211	-1.02823	-0.77385
1183.856	-0.10706	3.10251	-1.04416	-0.58478
1187.852	-0.12468	3.08273	-1.14980	-0.71990
1191.860	-0.05770	2.87715	-1.19787	-0.67115
1195.859	-0.02499	2.83702	-1.00124	-0.81515
1199.864	-0.04432	2.73815	-1.00000	-0.85670
1203.851	0.06219	2.59255	-0.99759	-0.84168
1207.861	0.23003	2.58274	-0.99824	-0.82958
1211.857	0.21437	2.60920	-1.01799	-0.89828
1215.856	0.17573	2.53603	-1.05647	-0.85813
1219.850	0.07247	2.39248	-1.10083	-0.84388
1223.854	0.24348	2.48852	-1.07550	-0.77029
1227.857	0.31699	2.41685	-1.05873	-0.79037
1231.853	0.30987	2.30192	-0.98293	-0.71189
1235.858	0.31756	2.13283	-0.97822	-0.76887
1239.863	0.43410	2.23991	-0.92743	-0.73011
1243.853	0.45070	2.20676	-0.87681	-0.68254
1247.854	0.53696	1.99303	-0.89235	-0.76204
1251.855	0.48684	2.01456	-0.88118	-0.75220
1255.854	0.50542	2.05687	-0.83394	-0.78371
1259.851	0.45423	1.94508	-0.83039	-0.80522
1263.872	0.62446	2.01159	-0.83915	-0.75867
1267.858	0.51917	1.95032	-0.78377	-0.72477
1271.855	0.42093	1.78968	-0.80808	-0.76551
1275.854	0.43361	1.87425	-0.87959	-0.82509
1279.870	0.44716	1.94374	-0.94698	-0.80331
1283.863	-1.34383	1.89331	-1.46762	-0.72490
1287.873	-4.63245	2.03337	-4.52789	-0.81498
1291.859	-6.82623	1.86893	-6.14349	-0.77959
1295.860	-9.36056	1.66775	-8.60123	-0.76520
1299.859	-11.10407	1.36034	-9.88718	-0.88648
1303.857	-13.35050	0.78628	-11.62416	-1.05789
1307.859	-16.34282	0.57431	-13.80088	-1.41883
1311.851	-18.63672	0.24450	-15.06769	-1.77771
1315.735	-20.41709	-0.43823	-17.03427	-2.17611
1319.730	-20.09594	-12.06980	-18.51711	-2.37077
1323.730	-20.06074	-12.07243	-20.96243	-2.38718
1327.736	-20.04341	-12.07372	-22.97448	-2.36969
1331.738	-20.03303	-12.07449	-20.10684	-12.06898
1335.730	-15.18377	5.39028	-20.06030	-12.07246
1339.733	-16.29358	5.78024	-20.04061	-12.07393
1343.729	-17.96918	9.29149	-20.02966	-12.07475
1347.729	-20.02276	-12.07526	-20.02265	-12.07527
1351.725	-20.01791	-12.07562	-20.01776	-12.07563
1355.729	-13.21423	10.02143	-20.01410	-12.07591
1359.745	-16.89491	12.66475	-20.01130	-12.07611
1363.731	-19.99140	-12.07760	-20.02302	-12.07524
1367.734	-19.99149	-12.07759	NaN	NaN
1371.733	-19.99160	-12.07758	NaN	NaN
1375.730	-19.99173	-12.07757	NaN	NaN
1379.726	-19.99206	-12.07755	NaN	NaN
1383.761	-19.99230	-12.07753	NaN	NaN
1387.822	NaN	NaN	NaN	NaN
1391.736	NaN	NaN	NaN	NaN
1395.732	NaN	NaN	NaN	NaN
1399.897	NaN	NaN	NaN	NaN
1403.731	NaN	NaN	NaN	NaN
1407.732	NaN	NaN	NaN	NaN
1411.732	NaN	NaN	NaN	NaN
1415.730	NaN	NaN	NaN	NaN
1419.723	NaN	NaN	NaN	NaN
1423.742	NaN	NaN	NaN	NaN
1427.726	NaN	NaN	NaN	NaN
1431.729	NaN	NaN	NaN	NaN
1435.733	NaN	NaN	NaN	NaN
1439.724	NaN	NaN	NaN	NaN
1443.728	NaN	NaN	NaN	NaN
1447.726	NaN	NaN	NaN	NaN
1451.746	NaN	NaN	NaN	NaN
1455.747	NaN	NaN	NaN	NaN
1459.726	NaN	NaN	NaN	NaN
1463.725	NaN	NaN	NaN	NaN
1468.488	NaN	NaN	NaN	NaN
1471.724	NaN	NaN	NaN	NaN
1475.728	NaN	NaN	NaN	NaN
1479.731	NaN	NaN	NaN	NaN
1483.726	NaN	NaN	NaN	NaN
1487.730	NaN	NaN	NaN	NaN
1491.737	NaN	NaN	NaN	NaN
1495.730	NaN	NaN	NaN	NaN
1499.732	NaN	NaN	NaN	NaN
1503.732	NaN	NaN	NaN	NaN
1507.730	NaN	NaN	NaN	NaN
1511.725	NaN	NaN	NaN	NaN
1515.723	NaN	NaN	NaN	NaN
1519.721	NaN	NaN	NaN	NaN
1523.730	NaN	NaN	NaN	NaN
1527.741	NaN	NaN	NaN	NaN
1531.730	NaN	NaN	NaN	NaN
1535.759	NaN	NaN	NaN	NaN
1539.821	NaN	NaN	NaN	NaN
1543.729	NaN	NaN	NaN	NaN
1547.767	NaN	NaN	NaN	NaN
1551.729	NaN	NaN	NaN	NaN
1555.727	NaN	NaN	NaN	NaN
1559.742	NaN	NaN	NaN	NaN
1563.734	NaN	NaN	NaN	NaN
1567.728	NaN	NaN	NaN	NaN
1571.729	NaN	NaN	NaN	NaN
1575.731	0.60801	12.99321	NaN	NaN
1579.728	NaN	NaN	NaN	NaN
1583.731	NaN	NaN	-22.55993	-0.61897
1587.726	-2.49756	9.62300	-20.23548	-0.62592
1591.730	0.27503	9.31744	-19.51353	-0.52442
1595.721	-0.09096	9.26015	-17.70664	-0.50145
1599.725	0.47299	8.79032	-16.16106	-0.45569
1603.758	3.06182	8.51062	-14.17952	-0.46393
1607.726	0.83652	7.87590	-13.70748	-0.36538
1611.723	2.30251	7.08732	-11.36401	-0.25702
1615.725	2.15713	6.48236	-10.00880	-0.04620
1619.730	0.45996	5.45248	-8.00328	-0.04764
1623.725	2.50759	4.62320	-7.49839	0.07556
1627.722	2.80481	3.84203	-6.40501	0.11893
1631.726	2.70703	3.25151	-4.43710	0.32507
1635.726	0.41755	2.30428	-3.11702	0.33087
1639.724	2.10518	1.45057	-2.01114	0.30190
1643.728	1.68994	0.36360	-0.91832	0.50257
1647.722	0.14806	0.03998	0.68811	0.63892
1651.723	-2.11321	-0.33004	1.27438	0.58550
1655.721	-0.10704	-1.33070	1.55881	0.58898
1659.734	-1.62485	-0.05902	1.40038	0.56389
1663.725	-2.48757	-0.21928	1.43399	0.56492
1667.724	3.42873	3.77395	1.37020	0.49586
1671.735	3.32328	4.55999	1.31394	0.57079
1675.765	3.38400	4.16000	1.43793	0.41616
1679.734	3.41689	3.95156	1.48761	0.27300
1683.724	3.52623	3.72790	1.46779	0.38443
1687.718	3.41733	3.54694	1.54658	0.41192
1691.721	3.33802	2.66921	1.69773	0.28221
1695.722	3.35234	2.66766	1.81637	0.29242
1699.721	3.25886	3.05253	1.82628	0.23580
1703.727	3.13113	2.88709	1.82279	0.29031
1707.730	3.07459	2.42644	1.68925	0.22347
1711.725	3.03868	2.03629	1.81443	0.18267
1715.727	3.04259	2.23432	1.84265	-0.05995
1719.722	2.93319	2.19891	1.95896	0.07192
1723.724	2.97027	2.06586	2.07831	0.18471
1727.723	2.85064	1.82537	2.08949	0.22945
1731.719	2.93153	1.78119	2.12895	0.12441
1735.733	3.05848	2.01184	1.93465	0.05943
1739.723	2.91431	1.78168	1.89739	-0.01883
1743.737	2.85383	1.65128	1.99238	0.03395
1747.721	2.89270	1.58509	2.13874	-0.00968
1751.721	2.96757	1.68563	2.10820	-0.05697
1755.724	3.15533	1.73414	2.05437	-0.07728
1759.723	2.97688	1.58120	2.16932	-0.07983
1763.719	3.02764	1.68171	2.15073	-0.04318
1767.722	3.16080	1.68158	2.13596	-0.05927
1771.720	3.06474	1.58883	2.13123	-0.14534
1775.720	3.14352	1.56856	2.14084	-0.16905
1779.721	3.16458	1.21840	2.11234	-0.17571
1783.728	3.10371	1.36491	2.19658	-0.19294
1787.728	3.14652	1.38169	2.30407	-0.22550
1791.717	3.18573	1.33463	2.15219	-0.26152
1795.731	3.21310	1.41793	2.01915	-0.25636
1799.722	3.17297	1.25303	1.97478	-0.25689
1803.721	2.88804	1.35762	1.67975	-0.28790
1807.722	0.98698	1.25211	0.73675	-0.43713
1811.727	0.24922	1.11207	0.08120	-0.46929
1815.725	0.48227	1.05414	-0.12471	-0.51230
1819.727	1.34234	1.09966	-0.18360	-0.74304
1823.764	2.18642	1.06555	0.58047	-0.59993
1827.726	1.71999	0.90581	0.31598	-0.63213
1831.726	0.96859	0.97135	-0.09083	-0.75321
1835.722	1.14243	0.98361	0.36988	-0.72614
1839.719	0.96169	0.78925	-0.16228	-0.78217
1843.730	1.07470	0.70034	0.16789	-0.77760
1847.726	1.04816	0.63273	-0.02440	-0.80484
1851.721	0.96110	0.63933	0.01571	-0.77383
1855.725	1.25604	0.71018	0.16208	-0.73837
1859.717	1.20802	0.68903	0.11714	-0.72583
1863.723	1.15516	0.59942	0.17653	-0.63576
1867.727	1.04652	0.52359	0.11307	-0.62026
1871.716	1.03305	0.60545	0.10582	-0.49329
1875.722	1.19448	0.72642	0.11662	-0.59345
1879.722	1.14637	0.60632	0.04480	-0.59161
1883.723	0.97832	0.37839	0.07619	-0.65775
1887.714	1.13315	0.59512	0.03916	-0.49001
1891.725	1.22754	0.57503	0.01591	-0.73492
1895.720	1.12779	0.38165	0.02325	-0.72041
1899.718	1.07262	0.29272	0.03514	-0.75629
1903.719	0.99812	0.31114	-0.04256	-0.76029
1907.719	1.00772	0.21931	0.07001	-0.78136
1911.723	1.01471	0.26025	-0.01047	-0.78931
1915.722	1.12767	0.08390	-0.04691	-0.76104
1919.724	1.02521	0.21230	0.03787	-0.74757
1923.724	1.05051	0.26827	0.04656	-0.78700
1927.718	1.01583	0.06045	-0.01971	-0.63472
1931.720	0.95827	0.24085	0.01797	-0.76195
1935.722	0.97440	0.15680	0.02132	-0.79043
1939.718	1.12807	0.37857	0.00690	-0.72190
1943.717	0.97492	0.19521	0.07800	-0.73435
1947.725	1.03719	0.16229	0.10798	-0.74379
1951.727	1.00442	0.31884	-0.06031	-0.84650
1955.740	1.08594	0.37786	0.00874	-0.85731
1959.721	0.99521	0.48659	0.07430	-0.92321
1963.719	0.93547	0.27502	0.09659	-0.95367
1967.718	1.02652	0.32944	-0.00511	-0.99911
1971.718	0.94152	0.36153	-0.07540	-1.00552
1975.717	1.01809	0.31116	0.05085	-1.00808
1979.718	1.12437	0.42722	0.14841	-0.95409
1983.721	0.92172	0.22423	0.06621	-1.02561
1987.722	0.94505	0.18627	-0.10917	-1.03274
1991.730	0.92019	0.31201	-0.07316	-0.95238
1995.724	0.93363	0.21996	0.04035	-0.92078
1999.719	0.92773	0.29142	0.03206	-0.87537
2003.713	0.96097	0.08788	0.08510	-0.66670
2007.718	1.06580	0.22989	-0.04792	-0.76923
2011.717	0.98298	0.00817	-0.03435	-0.83686
2015.718	1.12484	0.15935	0.02196	-0.80012
2019.717	0.99067	-0.07001	-0.01375	-0.70715
2023.712	1.03074	0.01178	0.03199	-0.80797
2027.715	1.02965	-0.10514	-0.09282	-0.68861
2031.721	0.99975	-0.10323	0.05371	-0.50149
2035.721	1.08860	-0.03344	0.07247	-0.70064
2039.722	1.07230	-0.19277	0.06669	-0.82844
2043.719	1.01300	-0.25496	-0.00983	-0.73766
2047.735	NaN	NaN	NaN	NaN
2055.724	0.97023	-0.12723	-0.12439	-0.94207
2059.714	1.00774	-0.11320	-0.07932	-0.82931
2063.716	0.93934	-0.31102	0.01385	-0.94277
2067.716	0.99752	-0.33921	-0.05256	-0.96088
2071.717	0.92979	-0.34511	-0.08686	-0.96316
2075.716	0.98980	-0.30132	0.13327	-0.96147
2079.719	1.06736	-0.09314	-0.09349	-0.99677
2083.716	1.08011	-0.44499	-0.07852	-1.00872
2087.717	1.07495	-0.06621	0.07696	-1.07050
2091.718	1.10891	-0.16104	-0.13138	-1.14114
2095.718	1.03712	-0.32107	-0.03216	-1.09022
2099.718	1.05925	-0.40221	0.05241	-1.12994
2103.717	1.03930	-0.38827	0.10021	-0.97456
2107.719	1.06505	-0.43791	0.15980	-1.13717
2111.722	1.06704	-0.31659	-0.01122	-1.12279
2115.715	1.09949	-0.32208	0.06879	-0.99252
2119.726	1.06255	-0.41028	0.08977	-1.13558
2123.717	1.11407	-0.37733	0.16866	-0.99972
2127.732	1.01762	-0.48166	0.17405	-1.16360
2131.724	1.03344	-0.47692	0.16566	-0.98186
2135.717	1.17714	-0.50121	0.20559	-0.99555
2139.722	1.02399	-0.50447	0.02422	-0.93407
2143.713	1.17108	-0.46611	0.10860	-0.94696
2147.719	1.01737	-0.46065	0.01397	-1.00008
2151.714	1.01126	-0.45227	0.04529	-0.91899
2155.717	1.02553	-0.39841	0.05773	-0.95787
2159.722	0.95408	-0.43569	0.06889	-0.97181
2163.721	1.12243	-0.45243	0.00648	-0.97330
2167.598	0.91651	-0.41502	-0.07416	-0.97479
2171.601	1.08016	-0.39890	0.00285	-0.97076
2175.594	1.07341	-0.26221	-0.09863	-0.97310
2179.587	0.99603	-0.41687	-0.06100	-0.97233
2183.596	1.11110	-0.27475	-0.01360	-1.00134
2187.591	1.06207	-0.36882	-0.02072	-0.98341
2191.590	1.13484	-0.37778	0.03772	-0.93762
2195.585	1.18078	-0.33914	0.04832	-0.93459
2199.588	1.16659	-0.44261	0.03797	-0.95842
2203.589	1.27586	-0.39505	0.10545	-0.98656
2207.600	1.17408	-0.49689	0.02164	-0.96068
2211.586	1.17351	-0.47960	0.08254	-0.94992
2215.625	1.27448	-0.40874	0.06261	-0.96386
2219.588	1.22980	-0.52595	0.01874	-0.97014
2223.589	1.26282	-0.49250	0.06974	-0.96679
2227.591	1.29635	-0.47926	0.06363	-0.92878
2231.593	1.19810	-0.50091	0.11446	-1.01247
2235.631	1.25860	-0.53434	0.09915	-0.92379
2239.601	1.20804	-0.58413	0.13148	-1.11389
2243.584	1.15374	-0.59452	0.17184	-0.88515
2247.600	1.13452	-0.57808	0.14766	-0.98753
2251.589	1.14268	-0.50415	0.17223	-0.83370
2255.588	1.13258	-0.59987	0.20728	-1.02660
2259.583	1.10941	-0.63356	0.21033	-0.83835
2263.588	1.19549	-0.53969	0.23490	-1.02486
2267.590	1.17736	-0.59469	0.19879	-0.76724
2271.600	1.16017	-0.58133	0.17442	-0.96418
2275.591	1.25716	-0.53255	0.18685	-0.81939
2279.588	1.17180	-0.55261	0.11292	-0.95399
2283.587	1.16575	-0.42187	0.12066	-0.80265
2287.591	1.09639	-0.41780	0.06676	-0.85808
2291.592	1.04173	-0.55356	0.04318	-0.77433
2295.584	1.03047	-0.57351	0.00812	-0.81366
2299.602	1.11760	-0.56889	-0.01318	-0.80971
2303.594	0.95961	-0.45867	-0.03383	-0.75269
2307.584	1.03297	-0.47500	-0.12637	-0.73393
2311.588	0.86456	-0.51468	-0.05070	-0.75115
2315.590	0.87108	-0.48019	-0.04231	-0.75858
2319.596	0.83560	-0.45222	-0.09463	-0.79472
2323.585	0.84642	-0.46462	0.01772	-0.86245
2327.593	0.83731	-0.44755	-0.04862	-0.79579
2331.596	0.88518	-0.59408	0.12687	-0.83231
2335.585	0.86160	-0.45103	-0.07654	-0.93295
2339.587	0.98539	-0.48539	0.04877	-0.89395
2343.589	0.91259	-0.43564	0.03154	-0.83092
2347.587	0.88222	-0.42606	0.09815	-0.90510
2351.587	0.88210	-0.49299	0.04857	-0.89154
2355.593	0.95306	-0.44426	0.09753	-0.95943
2359.587	1.07398	-0.53410	0.00988	-0.94739
2363.588	0.98698	-0.48661	0.21204	-0.81954
2367.592	0.91892	-0.48901	0.03946	-0.81395
2371.591	0.95326	-0.55901	-0.11031	-0.70319
2375.595	0.88934	-0.50879	-0.12310	-0.64180
2379.584	1.03861	-0.47060	0.12856	-0.62652
2383.585	1.39435	-0.65271	0.45750	-0.69791
2387.589	2.46439	-0.62659	3.00470	-1.21146
2391.588	3.11302	-1.00542	3.26173	-1.93753
2395.586	3.36871	-2.16094	3.91044	-1.98900
2399.588	4.15650	-2.47226	4.12574	-2.16263
2403.589	5.02354	-2.55568	4.37367	-2.44851
2407.591	5.14997	-2.62446	4.50725	-3.28448
2411.586	5.34971	-2.39829	4.45402	-3.03953
2415.596	5.19800	-2.39231	4.37850	-2.96287
2419.589	5.12580	-2.47685	4.39417	-3.12004
2423.590	5.09569	-2.62733	4.23628	-2.74394
2427.591	4.84888	-2.47619	4.48744	-2.71294
2431.583	5.19537	-2.46877	4.48621	-2.95804
2435.626	5.01598	-2.54052	4.39010	-2.72356
2439.586	5.14404	-2.61053	4.46655	-2.94204
2443.585	5.15337	-2.49893	4.49398	-2.95099
2447.585	5.11969	-2.35507	4.45567	-2.96254
2451.587	5.13016	-2.53839	4.44166	-2.86296
2455.593	5.12174	-2.50332	4.59462	-2.89095
2459.584	5.06875	-2.62605	4.53539	-2.75918
2463.584	5.13742	-2.33591	4.51230	-2.84072
2467.587	5.03841	-2.50864	4.64658	-2.94449
2471.589	5.15731	-2.48814	4.59662	-2.79210
2475.583	5.12176	-2.36660	4.53480	-2.81760
2479.591	5.22645	-2.47465	4.61040	-2.91534
2483.585	5.12769	-2.38482	4.55223	-2.88165
2487.588	5.28163	-2.49501	4.54353	-2.86607
2491.584	5.18808	-2.54658	4.60764	-2.95280
2495.586	5.20856	-2.56727	4.53909	-2.93789
2499.587	5.35726	-2.41706	4.49501	-2.89606
2503.584	5.30658	-2.53348	4.48313	-2.96117
2507.579	5.36585	-2.55484	4.54363	-2.93461
2511.590	5.39974	-2.56608	4.54942	-2.91924
2515.586	5.36683	-2.56775	4.42220	-2.90243
2519.584	5.53358	-2.61213	4.61319	-2.97346
2523.582	5.44498	-2.70578	4.52067	-2.91652
2527.588	5.49028	-2.75227	4.55865	-2.83396
2531.582	5.46153	-2.50647	4.51322	-2.92725
2535.588	5.37510	-2.51572	4.65525	-2.83600
2539.589	5.50623	-2.72724	4.68146	-2.89694
2543.587	5.39714	-2.61488	4.76002	-2.89387
2547.585	5.43848	-2.78000	4.75615	-2.97739
2551.587	5.42473	-2.73484	4.73798	-2.82173
2555.587	5.46748	-2.88283	4.76941	-2.85436
2559.583	5.49217	-2.66198	4.69132	-2.98155
2563.591	5.40582	-2.78212	4.69315	-2.98816
2567.583	5.43494	-2.77276	4.74986	-3.00303
2571.584	5.44011	-2.75304	4.89252	-3.01842
2575.580	5.37874	-2.64586	4.82602	-2.90033
2579.596	5.46477	-2.72259	4.85384	-3.02494
2583.590	5.41834	-2.75363	4.86184	-2.93685
2587.585	5.47409	-2.71468	4.88104	-2.98344
2591.583	5.54324	-2.66525	4.84851	-2.93128
2595.583	5.35082	-2.65142	4.90604	-2.93273
2599.586	5.50486	-2.71387	4.82417	-2.90837
2603.588	5.50247	-2.80692	4.87670	-2.82343
2607.578	5.48278	-2.67861	4.87717	-2.81767
2611.585	5.58031	-2.68364	4.83994	-2.85530
2615.586	5.58518	-2.71622	4.89944	-2.93827
2619.581	5.84389	-2.83344	5.44854	-2.83116
2623.600	7.29975	-2.63530	7.25931	-2.63337
2627.595	7.96492	-2.51681	7.84038	-2.60670
2631.583	8.65317	-2.39299	7.90041	-2.56941
2635.578	8.68177	-2.43042	8.02173	-2.47982
2639.582	8.60208	-2.28278	8.17026	-2.45666
2643.581	9.01920	-2.16220	8.06577	-2.22605
2647.583	8.57190	-2.10908	8.20039	-2.33978
2651.577	8.86585	-2.12991	8.04733	-2.01713
2655.581	8.63672	-2.02596	8.01319	-2.25825
2659.611	8.86010	-1.93409	8.13665	-2.32395
2663.585	8.96985	-1.89420	8.08584	-2.27602
2667.602	8.89354	-1.83415	8.16625	-2.21903
2671.605	8.94440	-1.79122	8.24706	-2.35836
2675.584	8.91805	-1.73605	8.19912	-2.47546
2679.581	8.98131	-1.56707	8.12242	-2.34790
2683.583	8.93605	-1.65576	8.10112	-2.18689
2687.581	8.93612	-1.55544	8.14066	-2.16275
2691.594	8.94951	-1.54179	8.13227	-2.16027
2695.584	9.00593	-1.52213	8.13872	-2.32077
2699.578	8.99237	-1.39653	8.24538	-2.33966
2703.581	8.96457	-1.41366	8.21086	-2.21078
2707.585	8.90720	-1.45221	8.19720	-2.18725
2711.582	8.95021	-1.45160	8.22599	-2.21951
2715.580	8.95930	-1.41072	8.16914	-2.14548
2719.581	8.93539	-1.43679	8.20595	-2.14955
2723.580	8.93239	-1.58241	8.29691	-2.07667
2727.581	8.93409	-1.88041	8.24356	-2.13516
2731.577	8.95675	-1.92046	8.28896	-2.14945
2735.599	8.89707	-1.56096	8.30991	-2.19697
2739.584	8.89761	-1.46959	8.30313	-2.18036
2743.582	8.97918	-1.72678	8.30033	-2.21728
2747.584	8.95869	-1.78237	8.23758	-2.19027
2751.580	9.11387	-1.55784	8.24684	-2.18428
2755.575	9.08764	-1.47098	8.19110	-2.20079
2759.618	9.07637	-1.43760	8.18465	-2.31235
2763.584	9.11481	-1.41741	8.17828	-2.46152
2767.581	9.06252	-1.60970	8.14266	-2.47208
2771.575	8.95624	-1.70695	8.23865	-2.31837
2775.578	9.02392	-1.56939	8.19431	-2.24181
2779.582	9.06426	-1.68406	8.21269	-2.30673
2783.580	9.07479	-1.79570	8.21030	-2.42737
2787.584	9.01745	-1.66510	8.21449	-2.23865
2791.586	9.08295	-1.74207	8.15973	-2.37793
2795.579	9.05262	-1.68933	8.36205	-2.41029
2799.584	9.06390	-1.68685	8.35721	-2.20915
2803.581	9.01794	-1.73344	8.50697	-2.29714
2807.580	9.02055	-1.71857	8.55209	-2.20690
2811.576	9.04098	-1.88785	8.36282	-2.13711
2815.581	9.04788	-1.73682	8.31511	-2.16401
2819.580	9.08350	-1.62182	8.48729	-2.17832
2823.583	9.07803	-1.67477	8.61154	-2.20347
2827.577	9.11109	-1.61206	8.47796	-2.13194
2831.599	9.10940	-1.58382	8.39132	-2.12603
2835.589	9.07283	-1.63834	8.50824	-2.15751
2839.577	9.10073	-1.71779	8.40550	-2.25801
2843.578	9.10777	-1.68412	8.45808	-2.33284
2847.578	9.07866	-1.70461	8.30515	-2.23883
2851.580	9.10315	-1.79174	8.32121	-2.17198
2855.573	9.17314	-1.79075	8.39210	-2.17925
2859.580	9.17515	-1.68025	8.44159	-2.28988
2863.583	9.08672	-1.72465	8.31319	-2.26370
2867.579	9.12488	-1.63251	8.32184	-2.09942
2871.617	9.11525	-1.56494	8.26247	-2.04790
2875.580	9.07259	-1.63403	8.19100	-2.13880
2879.572	9.21089	-1.47268	8.18346	-1.95208
2883.581	9.19708	-1.34969	8.37798	-1.86775
2887.579	9.22842	-0.45922	8.52794	-0.99814
2891.579	9.42924	1.17030	8.69064	0.46272
2895.577	9.77375	1.85577	8.71552	2.33435
2899.575	9.77071	2.38006	8.82623	1.81157
2903.583	10.08385	2.94406	8.76382	2.87585
2907.577	10.12969	3.22574	9.16796	3.13783
2911.577	10.23964	3.49555	9.42987	3.03248
2915.577	10.13883	3.29214	9.06872	1.87270
2919.576	9.94744	2.66359	9.14201	2.94422
2923.579	9.99638	2.88813	9.25799	2.70205
2927.572	10.15552	2.93737	9.28134	2.22447
2931.576	10.12508	2.73824	9.20717	2.70724
2935.578	10.22875	2.85033	9.29734	2.66306
2939.572	10.28400	3.00900	9.42904	2.73507
2943.582	10.10841	2.88722	9.25947	2.79784
2947.576	10.09821	2.96318	9.22325	2.82612
2951.581	10.19115	2.99603	9.31264	2.71810
2955.580	10.10627	3.02441	9.58441	2.71972
2959.637	10.10215	3.48732	9.28492	2.47392
2963.596	10.08539	3.16048	9.32724	2.42173
2967.593	10.12664	3.20527	9.31342	2.67733
2971.576	10.14720	3.15980	9.41632	2.65097
2975.583	10.08349	3.28737	9.42074	2.63506
2979.574	10.09224	3.19007	9.38624	2.55757
2983.576	10.07973	3.13739	9.42233	2.74495
2987.580	10.15083	3.20371	9.24404	2.63158
2991.574	10.30632	3.25193	9.44097	2.77931
2995.580	10.19399	3.11464	9.44624	2.83610
2999.580	10.24663	3.08226	9.43583	2.75516
3003.576	10.26100	3.18451	9.38566	2.70512
3007.575	10.14052	3.05190	9.45286	2.72123
3011.576	10.13876	3.07006	9.43904	2.77490
3015.576	10.29024	2.97354	9.26865	2.82756
3019.576	10.30017	3.04354	9.31385	2.86717
3023.446	10.25569	2.98947	9.45752	2.80035
3027.449	10.31211	2.99028	9.27813	2.38895
3031.450	10.17762	3.06849	9.48321	2.55387
3035.449	10.21757	3.06579	9.41453	2.52796
3039.452	10.28690	3.04779	9.44725	2.59528
3043.459	10.18938	3.00865	9.38511	2.61393
3047.456	10.23507	3.13692	9.41429	2.49410
3051.457	10.23572	3.15956	9.44839	2.54527
3055.451	10.21507	2.87494	9.67135	2.55969
3059.450	10.14949	2.98234	9.63846	2.36498
3063.446	10.13679	3.00749	9.39325	2.11841
3067.450	10.01140	3.13583	9.34539	2.22759
3071.486	9.33968	3.10914	8.92069	2.10172
3075.453	6.97607	2.75018	7.70821	1.20923
3079.445	6.72878	2.53507	7.07368	1.27986
3083.454	5.14453	1.80638	6.36050	0.55246
3087.457	4.68484	1.27314	5.35175	0.92107
3091.450	4.68328	0.81822	5.50205	0.08308
3095.443	4.50920	0.90877	4.79940	-0.11324
3099.450	4.44822	0.57811	4.29312	-0.17578
3103.450	4.61220	0.56976	4.33273	-0.22865
3107.448	4.43391	0.56814	4.42604	-0.33520
3111.450	4.44620	0.57138	4.50449	-0.09515
3115.453	4.50352	0.65959	4.38961	-0.32043
3119.450	4.44909	0.71004	4.43115	-0.11429
3123.446	4.40039	0.61667	4.25470	-0.43269
3127.460	4.33063	0.59131	4.28004	-0.41273
3131.454	4.36222	0.53066	4.14742	-0.33079
3135.463	4.39454	0.68716	4.25095	-0.27103
3139.455	4.37125	0.60102	4.12816	-0.31404
3143.445	4.45323	0.58911	4.13152	-0.34755
3147.453	4.39047	0.66900	4.16571	-0.33415
3151.449	4.36348	0.63288	4.14655	-0.28209
3155.448	4.37290	0.64665	4.07150	-0.20469
3159.443	4.32952	0.63462	4.03557	-0.22286
3163.447	4.38615	0.55899	4.00438	-0.27604
3167.458	4.40611	0.63978	3.99529	-0.24097
3171.455	4.40717	0.47519	4.03488	-0.27601
3175.450	4.37029	0.54792	4.07530	-0.35070
3179.458	4.27972	0.47128	4.01403	-0.33932
3183.449	4.21940	0.46448	4.06824	-0.32096
3187.448	4.24490	0.32406	4.06913	-0.25441
3191.449	4.12705	0.36488	4.08972	-0.23762
3195.453	4.20578	0.41755	4.14112	-0.24839
3199.443	4.24349	0.37533	4.15083	-0.24603
3203.446	4.22073	0.46896	4.17630	-0.31209
3207.447	4.15327	0.46107	4.16480	-0.28322
3211.456	4.17736	0.38168	4.21202	-0.32935
3215.447	4.18089	0.43273	4.21350	-0.30472
3219.449	4.15006	0.42395	4.18363	-0.27127
3223.448	4.13678	0.42621	4.09925	-0.28461
3227.447	4.16645	0.44436	4.08182	-0.28903
3231.446	4.14897	0.46509	3.94172	-0.32073
3235.452	4.16579	0.43093	3.91247	-0.35377
3239.457	4.18902	0.41238	3.89676	-0.32499
3243.448	4.23157	0.45039	3.86773	-0.33725
3247.452	4.19479	0.42620	3.82299	-0.31860
3251.451	4.19462	0.43867	3.72509	-0.37185
3255.450	4.10755	0.44003	3.75469	-0.37439
3259.450	4.13382	0.49030	3.74903	-0.38703
3263.448	4.18082	0.48794	3.76077	-0.37203
3267.446	4.17633	0.55005	3.81592	-0.40010
3271.481	4.13503	0.49897	3.80648	-0.42851
3275.448	4.25680	0.51570	3.86874	-0.47348
3279.446	4.25425	0.56161	3.91867	-0.52984
3283.445	4.17255	0.57865	3.87816	-0.54417
3287.447	4.16068	0.49841	3.88372	-0.52092
3291.448	4.10552	0.42469	3.93522	-0.56295
3295.453	4.06273	0.50658	4.00793	-0.51596
3299.465	4.19711	0.54753	3.98531	-0.46659
3303.452	4.19751	0.53531	3.94394	-0.41830
3307.452	4.15808	0.52976	3.94619	-0.46037
3311.447	4.19168	0.52372	3.80100	-0.42252
3315.450	4.14532	0.51669	3.80117	-0.41081
3319.448	4.18860	0.37540	3.89740	-0.43149
3323.445	4.16707	0.25053	3.99800	-0.59791
3327.447	4.26556	-1.31687	4.16398	-1.74598
3331.450	4.37495	-1.96237	4.29878	-2.69956
3335.450	4.76729	-2.39884	4.48221	-3.21192
3339.445	4.84881	-2.69472	4.51968	-3.51219
3343.444	4.95204	-2.83074	4.83905	-3.48079
3347.445	4.87894	-2.86635	4.98182	-3.63047
3351.446	5.06122	-2.95925	5.05292	-3.47025
3355.443	5.06227	-2.80254	5.00622	-3.32076
3359.449	5.08227	-2.79122	4.97216	-3.16955
3363.451	5.21973	-2.67232	5.23615	-3.45478
3367.447	5.19640	-2.74973	5.25089	-3.47198
3371.445	5.19933	-2.78132	5.35630	-3.56507
3375.452	5.24159	-2.81844	5.40225	-3.59622
3379.448	5.24516	-2.80430	5.37874	-3.55494
3383.439	5.24821	-2.65294	5.39893	-3.54247
3387.444	5.28773	-2.65063	5.36159	-3.55141
3391.445	5.28623	-2.74109	5.32646	-3.44301
3395.456	5.29142	-2.55159	5.36981	-3.42364
3399.449	5.29816	-2.50996	5.45818	-3.52662
3403.444	5.32648	-2.51162	5.44357	-3.60561
3407.443	5.25867	-2.60880	5.30490	-3.59527
3411.443	5.27634	-2.55205	5.25778	-3.59211
3415.443	5.31243	-2.42104	5.20297	-3.56460
3419.450	5.28052	-2.47935	5.23987	-3.37050
3423.448	5.22662	-2.54818	5.22441	-3.43546
3427.444	5.21289	-2.52339	5.09788	-3.44068
3431.449	5.22456	-2.53409	5.17676	-3.37543
3435.447	5.23541	-2.44337	5.04770	-3.47392
3439.445	5.19962	-2.51603	4.98999	-3.47226
3443.441	5.17863	-2.55615	5.06804	-3.48121
3447.444	5.14995	-2.55039	5.08079	-3.40252
3451.442	5.19308	-2.55652	5.00332	-3.33094
3455.443	5.28820	-2.46952	5.00172	-3.37166
3459.443	5.23642	-2.53238	4.97438	-3.31147
3463.443	5.26275	-2.52655	5.01260	-3.34343
3467.445	5.29713	-2.56298	5.01608	-3.35185
3471.443	5.24550	-2.63750	5.10802	-3.37448
3475.438	5.23940	-2.58999	5.05085	-3.42569
3479.443	5.28500	-2.67856	5.15891	-3.31495
3483.444	5.29432	-2.52652	5.14985	-3.33179
3487.473	5.27543	-2.41118	5.08569	-3.37014
3491.443	5.36799	-2.53579	5.05740	-3.31957
3495.443	5.35091	-2.51337	5.13368	-3.30494
3499.442	5.27196	-2.60435	5.13762	-3.28990
3503.446	5.32397	-2.61457	5.18958	-3.35711
3507.443	5.31736	-2.60067	5.18077	-3.32961
3511.449	5.21210	-2.53362	5.21636	-3.25441
3515.443	5.22160	-2.43125	5.18751	-3.26117
3519.442	5.21941	-2.52270	5.12225	-3.26040
3523.438	5.22909	-2.41336	5.05819	-3.37595
3527.446	5.23189	-2.42903	5.11570	-3.37101
3531.442	5.26361	-2.47053	5.19534	-3.30294
3535.457	5.31876	-2.45910	5.27725	-3.29161
3539.448	5.33458	-2.53423	5.22675	-3.30140
3543.446	5.36543	-2.53032	5.31521	-3.34748
3547.450	5.71158	-2.49856	5.51405	-3.38742
3551.445	7.10194	-2.46066	6.84319	-3.17895
3555.441	7.72195	-2.40716	7.83897	-3.34226
3559.443	8.68698	-2.41256	9.57495	-3.23998
3563.440	9.07912	-2.27043	9.95651	-3.25821
3567.437	9.76061	-2.22783	10.38656	-3.14124
3571.441	10.51974	-2.04793	10.88429	-3.05282
3575.439	10.92770	-2.05640	11.16454	-3.02009
3579.443	10.87804	-1.86046	11.08560	-3.05227
3583.442	10.88896	-1.88553	10.86323	-3.07668
3587.446	10.70502	-1.77540	10.81561	-3.11183
3591.438	10.81595	-1.79677	10.62885	-2.96397
3595.441	10.62708	-1.73955	10.64278	-2.98656
3599.439	10.75993	-1.79591	10.58668	-2.85360
3603.441	10.77608	-1.69255	10.63574	-2.84581
3607.436	10.79253	-1.76304	10.72604	-2.72096
3611.451	10.89035	-1.71273	10.77320	-2.84737
3615.448	10.88405	-1.71784	10.65582	-2.86922
3619.438	10.86888	-1.71883	10.70922	-2.82822
3623.440	10.83232	-1.78821	10.77196	-2.68072
3627.446	10.92959	-1.65604	10.67737	-2.77051
3631.441	10.90492	-1.71964	10.80802	-2.82081
3635.440	10.85449	-1.60589	10.88144	-2.69501
3639.442	10.91291	-1.56405	10.73397	-2.78171
3643.442	10.88791	-1.72413	10.69601	-2.72914
3647.443	10.86555	-1.73262	10.74626	-2.72548
3651.439	10.88089	-1.61738	10.98731	-2.66725
3655.447	10.88441	-1.76533	10.71842	-2.73718
3659.440	10.88635	-1.68510	10.80005	-2.73088
3663.441	10.89305	-1.73422	10.88441	-2.59464
3667.441	10.93315	-1.70770	10.87563	-2.61203
3671.458	10.88580	-1.74106	10.85985	-2.69584
3675.458	10.86388	-1.75916	10.88149	-2.73667
3679.446	10.88695	-1.80883	10.74479	-2.61577
3683.440	10.88589	-1.79279	10.63593	-2.75610
3687.439	10.92724	-1.81063	10.77615	-2.61348
3691.440	10.95488	-1.80617	10.77335	-2.61506
3695.436	10.98662	-1.80030	10.80912	-2.56891
3699.439	10.98411	-1.75157	10.80678	-2.57536
3703.443	11.01998	-1.77894	10.75023	-2.51971
3707.440	11.02720	-1.74284	10.75179	-2.54832
3711.508	11.01914	-1.79686	10.56047	-2.64136
3715.446	11.03109	-1.83475	10.62042	-2.66419
3719.438	11.07711	-1.78608	10.61262	-2.51619
3723.438	11.10075	-1.76946	10.65148	-2.56357
3727.439	11.06913	-1.90119	10.63681	-2.54673
3731.437	11.04408	-1.79417	10.64547	-2.50731
3735.441	11.09105	-1.73456	10.69031	-2.55534
3739.440	11.01878	-1.85193	10.58452	-2.72030
3743.437	11.01550	-1.88036	10.60994	-2.64718
3747.433	11.00955	-1.91012	10.58841	-2.63883
3751.447	11.00479	-1.84719	10.59289	-2.57425
3755.438	11.01149	-1.91374	10.63799	-2.57692
3759.442	11.03525	-2.08956	10.66134	-2.63067
3763.434	11.05964	-1.93055	10.37765	-2.68211
3767.443	11.07274	-2.11221	10.53430	-2.58181
3771.437	11.08892	-1.93737	10.42262	-2.64466
3775.437	11.10223	-1.88526	10.33500	-2.67267
3779.441	11.13489	-1.97543	10.27290	-2.61103
3783.437	11.09571	-1.96480	10.51597	-2.58718
3787.437	11.10801	-2.00822	10.44804	-2.57809
3791.438	11.08490	-1.97869	10.36454	-2.56246
3795.441	11.12517	-2.08963	10.31648	-2.61584
3799.438	11.02249	-2.02366	10.32959	-2.71153
3803.437	10.95112	-2.09764	10.07687	-2.66305
3807.438	10.94940	-1.35250	10.18067	-2.67810
3811.438	8.40866	-1.68980	9.48106	-2.48931
3815.486	6.95335	-1.59092	6.52289	-2.18921
3819.446	4.78523	-0.75229	5.43669	-1.52537
3823.437	3.71031	0.51462	3.93705	-0.33938
3827.441	1.39252	0.30145	1.87993	0.68923
3831.437	0.15270	0.93953	0.60836	0.69396
3835.442	-1.97384	1.42088	-2.09232	1.02031
3839.441	-4.00112	2.19747	-3.87771	1.46580
3843.434	-5.40107	2.08516	-4.50488	1.68676
3847.468	-6.74719	2.19139	-5.76701	1.72035
3851.440	-6.99287	2.36264	-6.19454	1.95242
3855.438	-6.93924	2.48070	-6.56890	1.83700
3859.438	-6.87883	2.57490	-6.85143	2.04341
3863.437	-6.63605	2.31149	-6.62801	1.74305
3867.437	-6.86082	2.44710	-6.85789	1.76226
3871.438	-6.88575	2.61864	-6.93927	2.11166
3875.313	-6.80514	2.55186	-6.91390	2.05166
3879.321	-6.91356	2.63973	-6.93662	2.28517
3883.319	-6.88771	2.58254	-7.09270	2.22034
3887.314	-7.02514	2.60908	-7.11811	2.25178
3891.311	-7.00895	2.73987	-7.08016	2.28430
3895.317	-7.01431	2.68152	-7.27140	2.31912
3899.316	-6.95379	2.68373	-7.25565	2.24584
3903.311	-7.00864	2.57498	-7.28549	2.36686
3907.315	-7.06520	2.63373	-7.32480	2.43903
3911.312	-7.10563	2.74973	-7.33452	2.43960
3915.311	-7.22014	2.75211	-7.34433	2.37937
3919.315	-7.11362	2.82272	-7.34072	2.39653
3923.314	-7.25035	2.86547	-7.38876	2.42683
3927.351	-7.15674	2.75875	-7.34526	2.49068
3931.314	-7.14164	2.80688	-7.38622	2.51537
3935.315	-7.07060	2.74900	-7.35983	2.54493
3939.310	-7.13671	2.64334	-7.29841	2.51953
3943.313	-7.15015	2.63765	-7.33940	2.52301
3947.308	-7.03059	2.71467	-7.25878	2.58971
3951.316	-7.30134	2.74965	-7.38864	2.52915
3955.318	-7.03616	2.70442	-7.26420	2.52673
3959.327	-7.08072	2.71201	-7.37992	2.53586
3963.318	-7.18225	2.78410	-7.30971	2.65332
3967.317	-6.93286	2.90802	-7.32033	2.52339
3971.310	-7.14863	2.83638	-7.36645	2.44109
3975.308	-7.04161	2.87846	-7.31760	2.42606
3979.306	-6.96291	3.07210	-7.32321	2.50642
3983.325	-7.07852	3.18326	-7.41680	2.43740
3987.312	-7.10423	3.15134	-7.38917	2.42946
3991.315	-7.30063	3.03710	-7.38285	2.44902
3995.309	-7.10866	3.19952	-7.40682	2.40771
3999.313	-7.00252	3.09796	-7.34502	2.38549
4003.308	-7.07285	3.20060	-7.35427	2.32617
4007.320	-6.96044	2.89874	-7.42441	2.30492
4011.312	-7.14695	2.68545	-7.37965	2.32087
4015.313	-7.08353	2.75252	-7.38729	2.31970
4019.308	-7.05652	2.84349	-7.32185	2.29474
4023.312	-7.07410	2.81223	-7.32551	2.21596
4027.309	-7.18379	2.73408	-7.24073	2.26720
4031.313	-7.18814	2.55634	-7.27985	2.25905
4035.310	-7.11728	2.62942	-7.27987	2.21596
4039.308	-7.06075	2.71174	-7.23142	2.14831
4043.312	-7.09030	2.69547	-7.25374	2.11042
4047.329	-7.13991	2.71253	-7.25987	2.11846
4051.337	-7.27626	2.82223	-7.23125	2.14585
4055.312	-7.18811	2.77727	-7.24869	2.14815
4059.305	-7.19461	2.80825	-7.21826	2.07282
4063.314	-7.30239	2.78387	-7.29108	2.08516
4067.310	-7.27721	3.03124	-7.33484	2.16455
4071.313	-7.24266	2.82853	-7.32507	2.17784
4075.307	-7.16080	2.89648	-7.37221	2.21051
4079.308	-7.17900	3.00837	-7.36025	2.06829
4083.310	-7.31799	2.90083	-7.38695	2.18583
4087.319	-8.12075	2.89956	-7.69159	2.25270
4091.312	-10.95253	2.85914	-10.01118	2.26359
4095.334	-11.59658	2.86812	-10.65287	2.34788
4099.312	-13.38560	2.88952	-11.74884	2.41542
4103.310	-13.21232	2.85556	-13.06951	2.36496
4107.308	-13.61051	2.80916	-13.39133	2.35390
4111.319	-13.72566	2.64647	-13.68101	2.27755
4115.311	-13.64384	2.72586	-13.47627	2.24245
4119.330	-13.53024	2.71039	-13.14929	2.21953
4123.311	-13.65130	2.50866	-13.28030	2.32910
4127.306	-13.65812	2.53631	-13.26756	2.34272
4131.347	-13.30696	2.59484	-13.44515	2.31390
4135.310	-13.63112	2.42702	-13.38097	2.12105
4139.306	-13.83767	2.46062	-13.48775	2.19795
4143.312	-13.74214	2.46264	-13.42521	2.10714
4147.306	-13.69331	2.49479	-13.37923	2.17541
4151.310	-13.73453	2.42610	-13.42981	2.21004
4155.303	-13.90216	2.44075	-13.40265	2.05568
4159.309	-13.70462	2.49988	-13.40650	1.87363
4163.308	-13.82529	2.46066	-13.41552	1.98906
4167.309	-13.78850	2.34428	-13.48643	2.12116
4171.307	-13.74680	2.43301	-13.54166	2.17955
4175.311	-13.82218	2.41779	-13.54499	2.08097
4179.306	-13.78136	2.43205	-13.52970	1.99014
4183.304	-13.81083	2.42755	-13.53653	2.20428
4187.481	-13.89947	2.27424	-13.50462	1.97901
4191.312	-13.63660	2.24395	-13.50828	2.28328
4195.307	-13.51741	2.28949	-13.50279	1.91876
4199.307	-13.76696	2.25712	-13.50420	2.02144
4203.304	-13.82606	2.19581	-13.48176	2.21217
4207.311	-13.98045	2.18349	-13.53310	2.17256
4211.305	-13.55778	2.15051	-13.49993	2.06245
4215.311	-13.47174	2.15659	-13.47824	1.97744
4219.306	-13.63351	2.08907	-13.51823	2.07238
4223.309	-13.88064	1.93474	-13.53434	2.30424
4227.307	-13.84443	1.95112	-13.48580	2.06786
4231.309	-13.91633	2.06003	-13.46240	2.06680
4235.323	-14.06151	2.19355	-13.41526	1.99298
4239.313	-14.00849	2.14733	-13.51081	2.07531
4243.304	-13.85877	2.14438	-13.55977	2.16318
4247.310	-14.02678	2.06797	-13.54098	2.17232
4251.307	-14.08115	2.08903	-13.62526	2.03958
4255.311	-14.05936	2.17754	-13.61295	2.15645
4259.305	-14.05096	2.19676	-13.71997	2.15983
4263.310	-14.12168	2.20253	-13.62704	2.20081
4267.305	-13.99641	2.52933	-13.61830	2.13532
4271.310	-14.07326	2.29257	-13.61101	2.23971
4275.304	-16.59342	3.18761	-13.63770	2.17973
4279.310	-14.02307	5.08782	-13.55072	2.19515
4283.305	-14.02419	3.58552	-13.66161	2.24639
4287.309	-13.92276	2.64331	-13.71313	2.15633
4291.302	-16.51292	4.21784	-13.62324	2.04008
4295.314	-14.60016	3.55488	-13.71500	2.13379
4299.314	-13.91455	2.70014	-13.67332	2.10427
4303.302	-13.84247	1.93713	-13.46425	1.96877
4307.309	-13.32935	1.54022	-11.49598	1.83157
4311.306	-11.95270	-0.52861	-10.86416	0.59192
4315.310	-9.36114	-0.72903	-9.17597	-0.88129
4319.303	-9.16874	-1.54725	-8.06012	-1.36461
4323.304	-7.64964	-2.48584	-7.10499	-1.94467
4327.303	-6.89206	-2.46763	-5.31996	-2.19793
4331.305	-5.76502	-2.42588	-4.43248	-2.40937
4335.307	-3.86613	-2.75701	-2.76864	-2.86186
4339.308	-2.98626	-3.14334	-2.10568	-3.30883
4343.309	-1.61969	-2.79527	-0.94629	-3.34934
4347.306	-1.32260	-2.89026	-0.88979	-3.85922
4351.308	-1.20358	-3.13188	-0.81158	-3.57717
4355.333	-1.21457	-2.99680	-0.91187	-3.32679
4359.309	-1.08932	-2.95395	-1.28053	-3.55634
4363.302	-1.24406	-2.93688	-1.32364	-3.31503
4367.302	-1.21097	-2.97872	-1.03027	-3.56309
4371.303	-1.09805	-3.22051	-0.90267	-3.82589
4375.304	-1.23568	-3.24081	-0.95068	-3.66342
4379.312	-1.19552	-3.19433	-0.85759	-3.85033
4383.299	-1.17830	-3.11288	-0.93021	-3.65444
4387.302	-1.16381	-3.18138	-0.91316	-3.72685
4391.333	-1.05242	-3.18599	-0.94430	-3.67838
4395.306	-1.09180	-3.11250	-0.84228	-3.61716
4399.303	-1.08306	-3.15923	-0.81463	-3.63394
4403.300	-1.09859	-3.16684	-0.76054	-3.68288
4407.302	-1.09326	-3.27433	-0.73010	-3.73417
4411.301	-1.04493	-3.22589	-0.72444	-3.80214
4415.306	-1.09284	-3.22305	-0.65905	-3.73022
4419.301	-1.05173	-3.13850	-0.65905	-3.66935
4423.314	-1.06927	-3.12075	-0.73109	-3.56919
4427.315	-1.09373	-3.14327	-0.86473	-3.62629
4431.301	-1.04166	-3.05332	-0.85180	-3.56562
4435.297	-1.08331	-3.10278	-0.82999	-3.58435
4439.308	-1.11618	-3.19139	-0.67508	-3.59948
4443.302	-1.13861	-3.21331	-0.73806	-3.53525
4447.302	-1.18009	-3.23325	-0.79667	-3.48671
4451.300	-1.17121	-3.29819	-0.79759	-3.42113
4455.301	-1.22350	-3.31714	-0.78354	-3.44973
4459.299	-1.17207	-3.34315	-0.82806	-3.40365
4463.308	-1.15535	-3.42274	-0.86523	-3.40389
4467.302	-1.09959	-3.47821	-0.92815	-3.35364
4471.307	-1.08304	-3.34043	-0.79982	-3.49289
4475.302	-1.14191	-3.37694	-0.71861	-3.55205
4479.305	-0.91547	-3.46714	-0.67136	-3.45534
4483.298	-0.95629	-3.35956	-0.69744	-3.53417
4487.305	-1.09455	-3.37518	-0.70719	-3.48836
4491.305	-0.99524	-3.35679	-0.76292	-3.50882
4495.299	-1.00472	-3.43519	-0.68116	-3.53539
4499.306	-0.93956	-3.46598	-0.71094	-3.51579
4503.308	-1.03709	-3.37539	-0.73027	-3.55340
4507.308	-1.04853	-3.23233	-0.68682	-3.48276
4511.296	-0.87227	-3.35235	-0.62116	-3.60922
4515.300	-0.83019	-3.34122	-0.63491	-3.59602
4519.314	-0.95385	-3.41403	-0.66618	-3.56102
4523.310	-0.93259	-3.36206	-0.66238	-3.55739
4527.332	-1.01786	-3.40735	-0.71896	-3.50370
4531.305	-0.92897	-3.47399	-0.71144	-3.57017
4535.300	-0.86044	-3.49695	-0.69888	-3.58966
4539.305	-0.81707	-3.53424	-0.70201	-3.52775
4543.301	-0.87329	-3.46785	-0.70898	-3.60745
4547.307	-0.77201	-3.38567	-0.62434	-3.61171
4551.318	-0.71826	-3.39289	-0.64357	-3.63912
4555.304	-0.73320	-3.41558	-0.67650	-3.66347
4559.301	-0.71288	-3.43125	-0.69732	-3.58889
4563.301	-0.70829	-3.41758	-0.60027	-3.62106
4567.319	-0.69089	-3.39306	-0.59563	-3.56686
4571.299	-0.70382	-3.32968	-0.57200	-3.48343
4575.298	-0.64717	-3.40767	-0.74972	-3.45922
4579.304	-0.63377	-3.46747	-0.66206	-3.62394
4583.298	-0.66486	-3.41851	-0.74397	-3.65043
4587.307	-0.66685	-3.47587	-0.77938	-3.60801
4591.306	-0.82659	-3.50030	-0.90967	-3.54878
4595.314	-0.91612	-3.50348	-0.84630	-3.62495
4599.305	-0.82292	-3.52775	-0.82942	-3.59160
4603.299	-0.87607	-3.46072	-0.72948	-3.55914
4607.303	-0.95976	-3.48425	-0.68015	-3.58007
4611.303	-1.07431	-3.50146	-0.75560	-3.57843
4615.300	-0.91785	-3.59219	-0.76168	-3.61045
4619.299	-0.98382	-3.57289	-0.76057	-3.60433
4623.297	-1.05763	-3.50608	-0.68610	-3.55304
4627.303	-0.99859	-3.47558	-0.56314	-3.53916
4631.303	-0.99358	-3.47578	-0.53880	-3.49204
4635.297	-0.88560	-3.54116	-0.52354	-3.44853
4639.298	-0.82173	-3.53030	-0.41993	-3.46697
4643.296	-0.83017	-3.48388	-0.44291	-3.40630
4647.303	-0.82662	-3.63642	-0.56372	-3.39356
4651.298	-0.85223	-3.68030	-0.60411	-3.39282
4655.303	-0.78141	-3.61662	-0.65255	-3.48553
4659.314	-0.71950	-3.51096	-0.60677	-3.63957
4663.297	-0.65590	-3.44087	-0.63533	-3.52151
4667.307	-0.63848	-3.40790	-0.65288	-3.46758
4671.312	-0.65873	-3.43936	-0.68647	-3.49336
4675.302	-0.68451	-3.40490	-0.77121	-3.61816
4679.305	-1.31573	-3.26035	-0.88595	-3.55915
4683.299	-5.13914	-3.04273	-3.37190	-3.60418
4687.302	-7.37436	-2.76572	-4.96741	-2.90236
4691.296	-8.27606	-2.34763	-6.60686	-2.22692
4695.303	-11.08748	-2.60395	-8.84293	-2.03551
4699.299	-13.46458	-2.25894	-10.69345	-1.97895
4703.301	-15.40177	-1.83949	-12.38900	-1.81218
4707.294	-16.89530	-1.75440	-13.80786	-1.73929
4711.301	-19.14794	-1.66372	-16.50749	-1.66687
4715.305	-20.71581	-1.75513	-17.41006	-1.40242
4719.301	-19.99892	-12.07704	-18.73008	-0.81685
4723.296	-19.99769	-12.07713	-20.61908	-1.27862
4727.297	-19.99708	-12.07717	-22.79539	-0.76848
4731.172	-19.99670	-12.07720	-20.05535	-12.07283
4735.176	-19.99642	-12.07722	-20.03386	-12.07443
4739.178	-19.99622	-12.07724	-20.02343	-12.07521
4743.174	-19.99605	-12.07725	-20.01721	-12.07567
4747.175	-19.99591	-12.07726	-20.01307	-12.07598
4751.171	-19.99580	-12.07727	-20.01007	-12.07621
4755.172	-20.02497	-12.07510	-20.00779	-12.07638
4759.180	NaN	NaN	-20.00641	-12.07648
4763.174	NaN	NaN	-20.02902	-12.07479
4767.171	NaN	NaN	-19.99374	-12.07742
4771.171	NaN	NaN	NaN	NaN
4775.174	NaN	NaN	NaN	NaN
4779.190	NaN	NaN	NaN	NaN
4783.173	NaN	NaN	NaN	NaN
4787.172	NaN	NaN	NaN	NaN
4791.174	NaN	NaN	NaN	NaN
4795.211	NaN	NaN	NaN	NaN
4800.144	NaN	NaN	NaN	NaN
4804.083	NaN	NaN	NaN	NaN
4808.170	NaN	NaN	NaN	NaN
4812.069	NaN	NaN	NaN	NaN
4816.072	NaN	NaN	NaN	NaN
4820.192	NaN	NaN	NaN	NaN
4823.230	NaN	NaN	NaN	NaN
4827.164	NaN	NaN	NaN	NaN
4831.178	NaN	NaN	NaN	NaN
4835.166	NaN	NaN	-22.06032	-11.88217
4839.171	NaN	NaN	-19.99471	-12.04946
4843.174	NaN	NaN	-19.99471	-12.04964
4847.169	NaN	NaN	-19.99469	-12.04995
4851.173	NaN	NaN	-19.99466	-12.05038
4855.170	NaN	NaN	-19.99466	-12.05091
4859.175	NaN	NaN	-19.99462	-12.05156
4863.173	NaN	NaN	-19.99460	-12.05230
4867.186	1.41462	13.12995	-19.99458	-12.05313
4871.176	NaN	NaN	-19.99453	-12.05405
4875.170	1.41650	13.12325	-19.99449	-12.05504
4879.169	1.41655	13.12094	NaN	NaN
4883.177	NaN	NaN	NaN	NaN
4887.176	NaN	NaN	NaN	NaN
4891.174	NaN	NaN	NaN	NaN
4899.172	NaN	NaN	NaN	NaN
4903.170	NaN	NaN	NaN	NaN
4907.173	NaN	NaN	NaN	NaN
4911.164	NaN	NaN	NaN	NaN
4915.172	NaN	NaN	NaN	NaN
4919.170	NaN	NaN	NaN	NaN
4923.169	NaN	NaN	NaN	NaN
4927.172	NaN	NaN	NaN	NaN
4931.171	NaN	NaN	NaN	NaN
4935.170	NaN	NaN	NaN	NaN
4939.177	NaN	NaN	NaN	NaN
4943.166	NaN	NaN	NaN	NaN
4947.160	NaN	NaN	NaN	NaN
4951.170	NaN	NaN	NaN	NaN
4955.174	NaN	NaN	NaN	NaN
4959.167	NaN	NaN	NaN	NaN
4963.182	NaN	NaN	NaN	NaN
4967.174	NaN	NaN	NaN	NaN
4971.169	NaN	NaN	NaN	NaN
4975.170	NaN	NaN	NaN	NaN
4979.167	NaN	NaN	NaN	NaN
4983.170	NaN	NaN	NaN	NaN
4987.171	NaN	NaN	NaN	NaN
4991.168	NaN	NaN	NaN	NaN
4995.168	NaN	NaN	NaN	NaN
4999.161	NaN	NaN	NaN	NaN
5003.169	NaN	NaN	NaN	NaN
5007.169	NaN	NaN	NaN	NaN
5011.174	NaN	NaN	NaN	NaN
5015.168	NaN	NaN	NaN	NaN
5019.166	NaN	NaN	NaN	NaN
5023.164	NaN	NaN	NaN	NaN
5027.168	NaN	NaN	NaN	NaN
5031.167	NaN	NaN	NaN	NaN
5035.166	NaN	NaN	NaN	NaN
5039.167	NaN	NaN	NaN	NaN
5043.171	NaN	NaN	NaN	NaN
5047.170	NaN	NaN	NaN	NaN
5051.166	NaN	NaN	NaN	NaN
5055.182	NaN	NaN	NaN	NaN
5059.166	NaN	NaN	NaN	NaN
5063.164	NaN	NaN	NaN	NaN
5067.172	NaN	NaN	NaN	NaN
5071.205	NaN	NaN	NaN	NaN
5075.171	NaN	NaN	NaN	NaN
5079.165	NaN	NaN	NaN	NaN
5083.165	NaN	NaN	NaN	NaN
5087.163	NaN	NaN	NaN	NaN
5091.163	NaN	NaN	NaN	NaN
5095.164	NaN	NaN	NaN	NaN
5099.163	NaN	NaN	NaN	NaN
5103.163	NaN	NaN	NaN	NaN
5107.159	NaN	NaN	NaN	NaN
5111.168	NaN	NaN	NaN	NaN
5115.162	NaN	NaN	NaN	NaN
5119.161	NaN	NaN	NaN	NaN
5123.163	NaN	NaN	NaN	NaN
5127.164	NaN	NaN	NaN	NaN
5131.163	NaN	NaN	NaN	NaN
5135.156	NaN	NaN	NaN	NaN
5139.198	NaN	NaN	NaN	NaN
5143.170	NaN	NaN	NaN	NaN
5147.168	NaN	NaN	NaN	NaN
5151.169	NaN	NaN	NaN	NaN
5155.169	NaN	NaN	NaN	NaN
5159.177	NaN	NaN	NaN	NaN
5163.165	NaN	NaN	NaN	NaN
5167.168	NaN	NaN	NaN	NaN
5171.166	NaN	NaN	NaN	NaN
5175.170	NaN	NaN	NaN	NaN
5179.163	NaN	NaN	NaN	NaN
5183.171	NaN	NaN	NaN	NaN
5187.165	NaN	NaN	NaN	NaN
5191.159	NaN	NaN	NaN	NaN
5195.166	NaN	NaN	NaN	NaN
5199.165	NaN	NaN	NaN	NaN
5203.169	NaN	NaN	NaN	NaN
5207.174	NaN	NaN	NaN	NaN
5211.167	NaN	NaN	NaN	NaN
5215.162	NaN	NaN	NaN	NaN
5219.171	NaN	NaN	NaN	NaN
5223.167	NaN	NaN	NaN	NaN
5227.164	NaN	NaN	NaN	NaN
5231.162	NaN	NaN	NaN	NaN
5235.163	NaN	NaN	NaN	NaN
5239.164	NaN	NaN	NaN	NaN
5243.175	NaN	NaN	NaN	NaN
5247.161	NaN	NaN	NaN	NaN
5251.168	NaN	NaN	NaN	NaN
5255.168	NaN	NaN	NaN	NaN
5259.162	NaN	NaN	NaN	NaN
5263.174	NaN	NaN	NaN	NaN
5267.159	NaN	NaN	NaN	NaN
5271.161	NaN	NaN	NaN	NaN
5275.197	NaN	NaN	NaN	NaN
5279.165	NaN	NaN	NaN	NaN
5283.167	NaN	NaN	NaN	NaN
5287.165	NaN	NaN	NaN	NaN
5291.164	NaN	NaN	NaN	NaN
5295.324	NaN	NaN	NaN	NaN
5299.367	NaN	NaN	NaN	NaN
5303.172	NaN	NaN	NaN	NaN
5307.168	NaN	NaN	NaN	NaN
5311.167	NaN	NaN	NaN	NaN
5315.165	NaN	NaN	NaN	NaN
5319.166	NaN	NaN	NaN	NaN
5323.161	NaN	NaN	NaN	NaN
5327.171	NaN	NaN	NaN	NaN
5331.239	NaN	NaN	-22.98481	1.77861
5335.300	NaN	NaN	NaN	NaN
5339.170	-21.38111	2.81725	NaN	NaN
5343.160	-19.68643	2.85930	NaN	NaN
5347.171	-16.58637	2.96453	NaN	NaN
5351.161	-15.28501	2.89887	NaN	NaN
5355.163	-13.55248	2.79948	NaN	NaN
5359.165	-11.01727	2.73673	-11.51416	-0.63288
5363.166	-9.23381	2.62571	-10.74764	-0.75293
5367.169	-8.24217	2.52657	-8.64793	-0.79517
5371.164	-6.84544	2.31717	-6.69515	-0.89420
5375.163	-5.45413	2.33615	-5.59273	-0.80632
5379.156	-2.91970	2.00211	-4.40781	-0.85415
5383.165	-2.12302	1.78381	-2.19170	-0.96355
5387.163	-0.63915	1.91668	-1.21712	-1.16503
5391.206	1.21167	1.95284	0.28741	-1.21195
5395.160	1.36107	1.56479	1.40576	-1.24231
5399.162	2.98334	1.60653	2.52688	-1.37876
5403.162	3.34940	1.36337	3.46976	-1.42668
5407.160	4.40873	1.31085	4.62680	-1.93391
5411.160	4.61630	0.83697	4.25100	-1.97764
5415.163	4.64754	1.15525	4.18479	-1.87832
5419.160	4.45804	1.27374	4.11347	-2.02168
5423.165	4.49057	1.18417	4.13690	-2.13869
5427.165	4.60508	1.11335	4.23473	-2.05211
5431.161	4.43391	0.77402	4.35748	-1.99095
5435.169	NaN	NaN	NaN	NaN
5443.165	4.59292	0.62273	4.78038	-2.22473
5447.160	4.75935	0.44705	4.53142	-2.13345
5451.161	4.67231	0.27671	4.37843	-2.25529
5455.163	4.66837	0.35042	4.58737	-2.30418
5459.156	4.76197	0.14266	4.63859	-2.34984
5463.158	4.66977	0.13037	4.69630	-2.30383
5467.177	4.70352	0.17108	4.52876	-2.25048
5471.164	4.81993	0.01622	4.66356	-2.17967
5475.158	4.87525	-0.07371	4.61036	-2.25638
5479.157	4.92834	-0.02845	4.58121	-2.29008
5483.163	4.84637	-0.11362	4.63871	-2.35765
5487.166	4.88949	-0.09656	4.55541	-2.61068
5491.158	4.92775	-0.18214	4.67014	-2.57266
5495.164	4.91590	-0.32710	4.60996	-2.44231
5499.155	4.93755	-0.20348	4.60084	-2.37108
5503.161	4.93763	-0.47139	4.58212	-2.26936
5507.169	5.04280	-0.53272	4.53608	-2.24192
5511.163	5.08178	-0.38654	4.68804	-2.28331
5515.160	4.96630	-0.56068	4.62441	-2.31848
5519.158	4.95541	-0.60160	4.68989	-2.27578
5523.158	5.01477	-0.64892	4.82052	-2.29946
5527.158	4.98300	-0.71254	4.74609	-2.32411
5531.161	5.12868	-0.71189	4.84235	-2.27728
5535.158	5.09357	-0.72994	4.90255	-2.32521
5539.159	5.10288	-0.81855	4.72465	-2.31234
5543.175	5.14232	-0.89196	4.80625	-2.35987
5547.169	5.16073	-0.72224	4.82961	-2.39680
5551.166	5.16583	-0.79301	4.98741	-2.47649
5555.159	5.18764	-0.93908	4.93304	-2.44360
5559.159	5.18786	-0.96671	4.76941	-2.45730
5563.162	5.26620	-1.02344	4.90163	-2.49757
5567.163	5.23300	-0.91482	4.96640	-2.46392
5571.155	5.25754	-1.08740	4.91408	-2.43396
5575.163	5.28670	-1.11116	4.93898	-2.44840
5579.162	5.27272	-1.16837	4.90683	-2.38187
5583.047	5.31969	-1.24485	4.83454	-2.35429
5587.037	5.33273	-1.09154	4.94933	-2.34837
5591.032	5.31435	-1.27808	5.00903	-2.32491
5595.036	5.34078	-1.21229	4.98994	-2.37166
5599.155	5.30894	-1.15888	4.87165	-2.32981
5603.038	5.35062	-1.26811	4.91681	-2.30103
5607.034	5.39864	-1.20817	4.93635	-2.30171
5611.034	5.38334	-1.29185	4.95881	-2.36062
5615.037	5.42149	-1.36558	4.90590	-2.37853
5619.034	5.41010	-1.36147	4.81505	-2.44470
5623.036	5.42528	-1.43037	4.91656	-2.46193
5627.028	5.42097	-1.39601	4.94369	-2.46274
5631.030	5.40498	-1.39588	4.96861	-2.48101
5635.033	5.41062	-1.38184	4.97187	-2.42938
5639.039	5.43743	-1.40633	4.95819	-2.44954
5643.038	5.42306	-1.51277	4.95938	-2.46293
5647.037	5.45226	-1.42004	4.95627	-2.49114
5651.032	5.44087	-1.48872	5.00642	-2.50431
5655.030	5.51381	-1.47000	4.96529	-2.51415
5659.031	5.52089	-1.55446	5.00975	-2.53464
5663.034	5.49709	-1.61182	5.03322	-2.48751
5667.036	5.48024	-1.51707	4.97502	-2.50258
5671.027	5.52389	-1.53216	4.93322	-2.51336
5675.048	5.53594	-1.56028	4.86396	-2.49763
5679.043	5.53331	-1.70536	4.88407	-2.56875
5683.036	5.56210	-1.59731	4.81355	-2.50939
5687.031	5.55966	-1.54878	4.78230	-2.52512
5691.032	5.55605	-1.68940	4.85167	-2.55976
5695.031	5.49573	-1.63404	4.73981	-2.55071
5699.032	5.49406	-1.69257	4.83548	-2.50540
5703.031	5.56301	-1.70915	4.80502	-2.59319
5707.036	5.49333	-1.66294	4.72544	-2.52874
5711.031	5.49128	-1.85533	4.78153	-2.66909
5715.030	5.57284	-1.73714	5.46391	-2.48846
5719.030	7.63065	-1.56459	7.70299	-2.28101
5723.034	8.97068	-1.10320	8.93292	-1.57577
5727.031	10.54202	-0.48480	9.85984	-1.81873
5731.034	11.26044	0.01535	11.63549	-1.35054
5735.034	12.27285	-0.15144	13.12072	-1.43583
5739.029	13.05821	0.32018	13.15004	-1.35126
5743.027	13.71612	0.67472	13.68434	-1.15746
5747.030	13.38766	0.91333	12.86690	-0.84743
5751.028	13.16379	0.59317	13.06789	-0.80043
5755.027	13.04075	0.88820	13.05712	-0.86116
5759.035	13.03798	0.83538	12.97269	-0.73965
5763.034	12.93505	0.75378	12.93632	-0.72160
5767.032	13.06162	0.97496	13.22984	-0.75629
5771.025	13.03875	0.93187	12.98499	-0.65183
5775.030	12.94056	0.84801	13.29236	-0.51710
5779.028	13.28395	0.98797	13.25268	-0.48705
5783.030	13.17997	0.94026	13.14153	-0.37277
5787.026	13.04539	0.91965	13.10728	-0.36273
5791.030	13.13213	0.87278	12.94603	-0.38142
5795.033	13.01816	0.91810	13.07264	-0.38670
5799.075	13.21646	0.95858	13.34676	-0.25923
5803.035	13.12905	1.13699	12.89746	-0.30285
5807.036	13.16019	0.92636	13.11731	-0.22705
5811.039	13.18125	0.94744	13.20541	-0.25496
5815.028	13.13759	1.01467	13.15572	-0.19215
5819.027	13.16666	1.12243	13.05385	-0.37566
5823.028	13.09480	1.09895	13.22121	-0.26259
5827.024	13.00419	0.94742	12.81660	-0.30309
5831.028	13.03077	1.22030	13.11742	-0.32293
5835.025	12.95732	0.91654	13.20630	-0.29971
5839.031	13.01842	1.10974	12.77195	-0.23720
5843.026	12.94631	0.99630	12.98996	-0.21160
5847.033	13.04591	0.88915	12.97874	-0.46544
5851.026	13.01402	0.89544	13.14185	-0.33553
5855.027	12.88803	0.90728	12.92283	0.14980
5859.023	13.10791	0.97565	12.96609	-0.18614
5863.031	13.33979	0.96266	12.97083	-0.26251
5867.028	13.13799	0.98992	12.91321	-0.24281
5871.022	13.21129	1.03028	12.78460	-0.15395
5875.027	13.02092	1.01868	12.84461	-0.26841
5879.024	13.23615	1.10704	12.73588	-0.15410
5883.023	13.23274	1.06791	12.71061	-0.24051
5887.046	13.07740	1.03861	12.79907	-0.19880
5891.031	13.06308	0.92493	12.99856	-0.17704
5895.027	13.12437	1.08053	12.75472	-0.05550
5899.028	13.14101	1.10215	12.92764	-0.16300
5903.027	13.10643	1.02762	12.78991	-0.13069
5907.029	13.01190	1.07199	12.87263	-0.18912
5911.029	13.02919	0.95011	12.77632	-0.14262
5915.026	12.89659	0.99742	12.74445	-0.03386
5919.022	12.76303	0.93367	12.61920	-0.07272
5923.050	10.59661	0.95167	10.57083	-0.06029
5927.035	8.17383	0.80588	8.84399	-0.09213
5931.029	7.13197	0.76387	7.58322	-0.12419
5935.033	5.98150	0.76905	6.75250	-0.18939
5939.027	4.18852	0.38207	6.00636	-0.15730
5943.025	3.76136	0.58290	4.67579	-0.24794
5947.031	3.11418	0.57077	3.30826	-0.24919
5951.027	3.10839	0.41583	3.14919	-0.28149
5955.050	3.34091	0.19451	2.86160	-0.25759
5959.032	3.54939	0.24603	3.19118	-0.31102
5963.023	3.78746	0.30485	3.45784	-0.33480
5967.026	3.67180	0.29911	3.52153	-0.35965
5971.035	3.74609	0.35515	3.54665	-0.40602
5975.031	3.83458	0.36025	3.53491	-0.37996
5979.025	3.64123	0.25295	3.31229	-0.35566
5983.051	3.59609	0.34385	3.35202	-0.37348
5987.033	3.31004	0.34959	3.27860	-0.32146
5991.025	3.39391	0.28033	3.34259	-0.32628
5995.059	3.35521	0.27954	3.26762	-0.34112
5999.027	3.50415	0.21315	3.19531	-0.35010
6003.028	3.48672	0.23005	3.13910	-0.29888
6007.021	3.49572	0.26040	2.96369	-0.28474
6011.028	3.52695	0.23443	2.90245	-0.26601
6015.030	3.33750	0.28627	2.88628	-0.17261
6019.026	3.39661	0.14975	2.86487	-0.10146
6023.029	3.23430	0.05654	2.75413	-0.05801
6027.027	3.19026	0.11167	2.78141	-0.02872
6031.023	3.22579	0.03754	2.75737	-0.02435
6035.025	3.25184	0.18381	2.77530	-0.04197
6039.025	3.36013	0.31286	2.70218	-0.00238
6043.023	3.47616	0.60290	2.80654	-0.01291
6047.035	3.27012	0.66859	2.86727	-0.05753
6051.030	3.22804	0.17141	2.83774	-0.09823
6055.027	3.34074	0.31817	2.77309	-0.17803
6059.023	3.44349	0.55652	2.80342	-0.21704
6063.029	3.23888	0.52798	2.81949	-0.26117
6067.031	3.29713	0.27822	2.89227	-0.33590
6071.023	3.39545	0.36052	2.88054	-0.33263
6075.029	3.47119	0.54522	2.88564	-0.32493
6079.024	3.41827	0.42163	2.91948	-0.17541
6083.028	3.20419	0.47268	2.93480	-0.26286
6087.022	3.24709	0.37791	2.85928	-0.33157
6091.026	3.32110	0.37364	2.83298	-0.36788
6095.032	3.44013	0.54161	2.81825	-0.33977
6099.032	3.37779	0.61276	2.88443	-0.19100
6103.025	3.39357	0.33939	2.85606	-0.16708
6107.024	3.42549	0.33784	2.78981	-0.19007
6111.021	3.34420	0.33667	2.80394	-0.05287
6115.022	3.32807	0.44786	2.76396	-0.00849
6119.024	3.27319	0.41866	2.76408	0.01430
6123.028	3.28405	0.68336	2.70909	-0.13128
6127.023	3.34771	0.54787	2.66667	-0.22558
6131.028	3.39327	0.29613	2.68118	-0.11138
6135.024	3.37188	0.56167	2.70017	-0.00963
6139.032	3.38029	0.59123	2.64200	0.06548
6143.029	3.33354	0.40197	2.60074	0.01924
6147.022	3.29495	0.33731	2.60077	0.02552
6151.022	3.20862	0.33275	2.60163	0.05585
6155.022	3.18452	0.67108	2.55383	0.04382
6159.024	3.23786	0.82384	2.53055	0.01375
6163.021	3.39995	0.97414	2.54947	-0.13745
6167.024	3.27823	0.81996	2.64398	-0.10145
6171.025	3.28377	0.75167	2.57508	-0.04620
6175.024	3.22891	0.58814	2.57149	-0.00228
6179.028	3.36735	0.63816	2.53075	-0.00703
6183.024	3.14098	0.41790	2.60136	-0.08917
6187.023	3.13553	0.47241	2.71305	-0.08591
6191.021	3.31197	0.65782	2.68170	-0.03217
6195.027	3.30240	0.84507	2.65788	-0.00417
6199.025	3.48086	0.73173	2.65919	-0.09092
6203.022	3.36109	0.60672	2.73444	-0.10693
6207.022	3.19392	0.56427	2.67160	0.02189
6211.027	3.07330	0.63545	2.61365	0.03676
6215.023	3.31066	0.71874	2.65884	0.05401
6219.027	3.49520	0.86702	2.64116	-0.09636
6223.058	3.38353	0.70487	2.61813	-0.08815
6227.212	3.34240	0.78859	2.63130	0.00159
6231.025	3.36710	0.75094	2.63073	0.01542
6235.026	3.43590	0.92565	2.65528	0.02889
6239.027	3.33901	0.65168	2.65859	-0.04319
6243.021	3.23368	0.60275	2.75301	0.02872
6247.021	3.32981	0.71553	2.74014	0.09017
6251.020	3.48909	0.67499	2.81058	0.18304
6255.023	3.56981	0.90685	2.78109	0.15356
6259.025	3.54707	0.79357	2.76921	0.02820
6263.021	3.56915	0.78894	2.93629	0.04067
6267.020	3.99805	0.82290	5.12703	0.28613
6271.023	5.64078	0.78079	6.44741	0.30623
6275.020	7.30305	0.83601	7.85969	0.28726
6279.019	7.76472	1.12749	8.41267	0.33868
6283.025	8.26801	0.90723	8.68468	0.44428
6287.021	8.54479	1.16147	8.84404	0.72810
6291.024	9.02730	1.36341	8.78573	0.85277
6295.020	8.86905	1.38447	8.61858	0.53251
6299.042	8.67160	1.33163	8.66396	0.67341
6303.032	8.54671	1.25127	8.47998	0.55730
6307.026	8.41699	1.40347	8.86015	0.58762
6311.025	8.39525	1.64441	8.82240	0.43162
6315.020	8.50515	1.64962	8.77475	0.32763
6319.021	8.67924	1.63536	8.76135	0.56860
6323.020	8.66998	1.52656	8.78634	0.63511
6327.023	8.70068	1.56409	8.75252	0.76674
6331.024	8.71353	1.52599	8.75368	0.68960
6335.016	8.75288	1.52227	8.81675	0.59231
6339.017	8.67413	1.42396	8.83684	0.68378
6343.022	8.62438	1.36328	8.84137	0.75791
6347.026	8.67992	1.34906	8.84794	0.63053
6351.031	8.77378	1.34599	8.80561	0.62736
6355.023	8.81935	1.38630	8.83154	0.71192
6359.025	8.92382	1.30133	8.84283	0.80872
6363.127	8.95632	1.23600	8.80636	0.76103
6367.023	8.93152	1.32157	8.83869	0.74083
6371.019	8.93258	1.33992	8.90054	0.78189
6375.015	8.87391	1.27083	8.89460	0.67127
6379.018	8.87820	1.31681	8.90529	0.72722
6383.018	8.92982	1.42567	8.77567	0.79559
6387.024	8.89138	1.45406	8.81203	0.75718
6391.020	8.92406	1.50753	8.86183	0.73695
6395.025	8.98186	1.57222	8.90919	0.75811
6399.022	8.93672	1.43494	8.82807	0.72570
6403.021	8.87401	1.62388	8.84751	0.67492
6407.015	8.83728	1.62399	8.88254	0.65090
6411.019	8.81879	1.64321	8.85775	0.72201
6415.022	8.80868	1.61480	8.74038	0.71303
6419.023	8.88230	1.65861	8.70716	0.73412
6423.024	8.88373	1.62416	8.80047	0.72902
6427.020	8.79499	1.53251	8.83493	0.68417
6431.022	8.77109	1.53030	8.78665	0.69443
6435.020	8.68960	1.45856	8.73771	0.73889
6438.890	8.74755	1.52514	8.75739	0.73100
6442.933	8.73131	1.56777	8.81612	0.78288
6446.896	8.68747	1.55897	8.78576	0.78734
6450.888	8.71836	1.60508	8.72752	0.83729
6454.898	8.73637	1.60471	8.59825	0.95042
6458.895	8.76435	1.59786	8.58905	0.89660
6462.896	8.77056	1.61084	8.72966	0.89050
6466.888	8.81222	1.61824	8.76474	0.83283
6470.892	8.79569	1.69516	8.73145	0.76565
6474.903	8.71560	1.73621	8.64308	0.88655
6478.893	8.69380	1.71150	8.78370	0.84099
6482.893	8.75368	1.68816	8.79773	0.74666
6486.913	8.68262	1.66691	8.79627	0.66998
6490.896	8.63343	1.54645	8.76937	0.72864
6494.896	8.62360	1.52255	8.89516	0.67957
6498.896	8.61094	1.61295	8.83825	0.74085
6502.893	8.73776	1.52565	8.85225	0.67759
6506.893	8.75158	1.42857	8.87706	0.69031
6510.891	8.72088	1.48718	8.85683	0.64399
6514.895	8.71560	1.35210	8.80648	0.77856
6518.895	8.77667	1.46264	8.79392	0.76240
6522.901	8.64466	1.39907	8.76069	0.70847
6526.893	8.64184	1.42278	8.73223	0.88511
6530.896	8.80272	1.41520	8.72978	0.77948
6534.891	8.85821	1.30959	8.71797	0.77970
6538.890	8.89906	1.39839	8.66848	0.79668
6542.902	8.86001	1.53768	8.67478	0.69952
6546.899	8.84692	1.40948	8.67597	0.78487
6550.898	8.81775	1.38679	8.67182	0.94592
6554.889	8.86982	1.30680	8.66493	0.76819
6558.900	8.85109	1.37769	8.71012	0.81663
6562.890	8.80323	1.34881	8.75916	0.67479
6566.900	8.92587	1.37849	8.74605	0.87806
6570.896	8.92592	1.21640	8.78956	0.59083
6574.893	8.95196	1.25881	8.79453	0.62532
6578.891	8.95423	1.38083	8.79152	0.74930
6582.894	9.00227	1.33632	8.78639	0.71736
6586.894	9.02382	1.39334	8.78597	0.85204
6590.889	8.96818	1.28233	8.74731	0.67633
6594.891	9.03227	1.33462	8.73499	0.64293
6598.890	9.02505	1.28134	8.79380	0.66208
6602.901	8.93934	1.31406	8.81062	0.61299
6606.891	8.99385	1.34131	8.81293	0.66352
6610.891	8.90851	1.27037	8.80820	0.63426
6614.889	8.94469	1.31433	8.81261	0.65880
6618.886	8.89053	1.32579	8.71710	0.61884
6622.890	8.88210	1.35502	8.76879	0.62350
6626.900	8.84440	1.42024	8.75335	0.62276
6630.900	8.82577	1.39862	8.78062	0.61604
6634.891	8.91391	1.42299	8.83917	0.61093
6638.891	8.95339	1.21160	8.88336	0.63344
6642.896	8.98119	1.21516	8.81986	0.60315
6646.902	8.97019	1.27472	8.84368	0.63965
6650.890	8.96983	1.32769	8.79053	0.66719
6654.890	8.96869	1.36547	8.82252	0.63799
6658.902	9.00222	1.32892	8.86037	0.62874
6662.888	9.01588	1.30905	8.84409	0.65153
6666.887	8.98961	1.34672	8.82894	0.61122
6670.888	9.05930	1.26356	8.81053	0.56725
6674.897	9.02919	1.28337	8.78071	0.52214
6678.891	9.02646	1.31715	8.74280	0.54505
6682.893	8.95494	1.31052	8.69755	0.54055
6686.891	8.86245	1.38179	8.67042	0.58019
6690.888	9.02701	1.38055	8.73926	0.55471
6694.888	8.94065	1.38864	8.84959	0.52896
6698.888	8.89581	1.39396	8.82652	0.55974
6702.887	8.88906	1.40817	8.73802	0.61441
6706.891	8.96470	1.43827	8.73773	0.67203
6710.888	8.92834	1.40561	8.67236	0.68686
6714.883	8.91919	1.31580	8.72108	0.69634
6718.887	8.95852	1.47413	8.80158	0.77795
6722.887	8.88714	1.43801	8.82734	0.74775
6726.899	8.94334	1.43764	8.65635	0.74038
6730.886	8.94556	1.49025	8.77109	0.79439
6734.932	8.90059	1.46610	8.69173	0.84844
6738.901	8.88472	1.44457	8.73240	0.83691
6742.890	8.87421	1.30531	8.70243	0.75183
6746.886	8.82567	1.33110	8.69159	0.62746
6750.886	8.79482	1.17211	8.66336	0.75515
6754.887	8.50741	1.23621	8.68577	0.69177
6758.888	6.27954	1.19924	8.15637	0.59384
6762.890	5.28010	0.99549	6.12671	0.43943
6766.895	4.51134	1.07078	5.43374	0.23018
6770.892	3.92717	1.03248	4.73613	0.10906
6774.892	3.00282	0.84050	3.97723	0.15027
6778.886	2.98809	0.53925	3.01794	-0.17680
6782.893	2.45889	0.36152	2.35766	-0.19428
6786.888	2.12498	0.22627	2.42953	-0.29238
6790.889	2.45094	0.42313	2.39379	-0.41767
6794.885	2.51492	0.32692	2.43986	-0.39084
6798.899	2.39579	0.17081	2.42748	-0.47319
6802.894	2.31554	0.22768	2.36864	-0.51032
6806.893	2.35216	0.24101	2.37131	-0.58264
6810.966	2.15574	0.10084	2.31807	-0.63065
6814.887	2.17933	0.04286	2.37543	-0.61953
6818.891	2.20785	0.04179	2.33380	-0.66711
6822.885	2.10295	0.08001	2.30848	-0.67107
6826.887	2.09484	0.09906	2.37349	-0.60841
6830.886	2.14169	0.09980	2.40486	-0.63605
6834.886	2.10022	0.05021	2.34148	-0.65132
6838.889	2.01201	0.01535	2.34760	-0.69558
6842.892	2.02750	0.06613	2.33688	-0.68486
6846.887	1.98596	0.06420	2.33923	-0.72257
6850.890	1.92587	0.01435	2.35211	-0.72110
6854.886	2.07752	0.00931	2.28462	-0.76113
6858.891	2.06557	0.05605	2.22503	-0.77779
6862.888	1.98792	0.02469	2.25409	-0.82186
6866.887	1.95765	-0.03330	2.18297	-0.76530
6870.920	1.91300	-0.07853	2.18198	-0.83769
6874.887	1.97466	-0.12345	2.16401	-0.82844
6878.887	2.21316	-0.10089	2.16315	-0.80324
6882.886	2.19613	0.03958	2.16292	-0.80320
6886.883	2.25067	-0.03620	2.18473	-0.75892
6890.885	2.19893	-0.05788	2.16092	-0.73055
6894.885	2.19241	-0.05562	2.12858	-0.68570
6898.889	2.11133	0.02208	2.21863	-0.70515
6902.884	2.06111	-0.04383	2.24448	-0.67386
6906.885	2.11326	-0.03660	2.20146	-0.61516
6910.889	2.18082	-0.03732	2.20902	-0.59092
6914.889	2.20716	-0.02672	2.14848	-0.62655
6918.883	2.15983	-0.00238	2.17026	-0.63345
6922.904	2.15817	0.03089	2.13993	-0.65059
6926.892	2.12699	-0.03568	2.11589	-0.58739
6930.882	2.07160	-0.00663	2.02272	-0.59028
6934.888	2.07938	0.04686	2.11594	-0.59019
6938.886	2.16139	0.01639	2.05435	-0.65023
6942.880	2.26076	-0.01500	2.04332	-0.56924
6946.888	2.27176	-0.00397	1.98764	-0.50209
6950.886	2.30244	-0.03935	2.01045	-0.47032
6954.901	2.37825	-0.03935	1.95619	-0.39189
6958.888	2.36230	-0.02068	2.03206	-0.53674
6962.885	2.41046	-0.00506	2.04780	-0.60293
6966.887	2.40880	-0.03488	2.14062	-0.43482
6970.884	2.41090	-0.05037	2.23224	-0.36791
6974.892	2.43640	-0.03481	2.25070	-0.27956
6978.888	2.44066	-0.05283	2.22208	-0.29429
6982.879	2.38576	0.04851	2.30779	-0.22145
6986.892	2.33162	0.05800	2.28028	-0.19752
6990.891	2.29376	0.06076	2.34161	-0.29101
6994.881	2.25109	0.16733	2.36643	-0.37279
6998.888	2.17507	0.16714	2.43043	-0.49940
7002.886	2.14761	0.16116	2.33440	-0.41503
7006.885	2.10833	0.24348	2.34584	-0.48926
7010.881	2.03608	0.24406	2.34738	-0.59678
7014.894	1.98829	0.30866	2.23001	-0.60420
7018.888	1.96719	0.31045	2.21896	-0.52711
7022.888	1.95634	0.30934	2.21318	-0.60135
7026.880	1.90901	0.32075	2.18082	-0.71617
7030.883	1.92317	0.29645	2.14169	-0.73039
7034.882	1.90269	0.27858	2.15445	-0.58280
7038.883	1.91377	0.29988	2.19640	-0.66065
7042.886	1.94027	0.36638	2.15437	-0.67653
7046.886	1.89587	0.39505	2.17452	-0.69869
7050.890	1.89999	0.43422	2.26854	-0.56920
7054.887	1.92614	0.44213	2.19673	-0.61680
7058.891	1.96273	0.47664	2.24946	-0.59756
7062.879	1.91216	0.47191	2.29815	-0.53188
7066.889	1.95430	0.54662	2.27074	-0.65391
7070.916	1.93975	0.56237	2.19571	-0.55006
7074.886	1.95066	0.60798	2.29426	-0.58503
7078.878	2.02745	0.63303	2.21301	-0.66911
7082.881	2.02292	0.61756	2.16010	-0.71943
7086.881	1.96836	0.52275	2.15009	-0.67817
7090.886	2.02502	0.33706	2.21236	-0.75456
7094.878	2.15509	0.17491	2.23529	-1.18083
7098.886	2.38420	-0.51841	2.69678	-2.14304
7102.881	2.50353	-1.54883	2.91324	-2.65984
7106.886	2.49077	-1.65541	2.93661	-2.83191
7110.881	2.67957	-2.01129	3.35825	-3.22394
7114.887	2.65258	-2.07698	3.15968	-3.10582
7118.885	2.71290	-2.08100	3.01289	-3.07441
7122.882	2.83492	-1.94147	2.86831	-2.96856
7126.876	2.90841	-2.03653	3.17814	-3.07796
7130.886	2.94007	-1.97733	3.14283	-2.87389
7134.881	3.01522	-1.97564	3.17121	-3.03426
7138.885	3.09688	-1.97705	3.20605	-2.98144
7142.890	3.04449	-2.04614	3.21518	-3.02639
7146.886	3.05071	-2.01399	3.10755	-3.07082
7150.880	3.08255	-2.01375	3.14615	-3.03288
7154.880	3.11208	-1.97095	3.08176	-2.98021
7158.886	3.05291	-1.95316	3.08545	-3.00031
7162.881	3.06674	-1.98238	3.06516	-2.97835
7166.885	3.09508	-1.93556	3.05932	-3.01145
7170.875	3.07082	-1.85664	3.04633	-3.06238
7174.881	3.07473	-1.87458	3.06795	-3.06341
7178.882	3.05491	-1.95767	3.05801	-3.01972
7182.891	3.01019	-2.06797	3.03284	-3.01971
7186.876	3.01992	-2.09692	3.00606	-3.00571
7190.900	2.99653	-2.10601	2.99868	-3.00164
7194.885	2.99255	-2.09806	2.93448	-3.07584
7198.882	2.95176	-2.18941	2.89297	-3.06659
7202.879	2.96158	-2.17613	2.91621	-3.06619
7206.884	2.99502	-2.10985	2.89106	-3.02624
7210.879	3.01103	-1.96831	2.93589	-3.00231
7214.881	3.00019	-1.88586	3.06543	-2.99968
7218.875	2.97455	-2.11886	2.96153	-2.90304
7222.880	2.98445	-2.06229	2.93448	-3.06171
7226.885	3.01566	-2.04122	3.07186	-3.02294
7230.881	3.02863	-1.98959	2.97200	-3.03065
7234.891	3.00643	-1.84867	3.13828	-3.07357
7238.884	2.98245	-1.99315	3.18242	-2.99128
7242.876	2.98995	-1.99935	3.20065	-3.00206
7246.885	2.94691	-1.98082	3.17908	-3.09978
7250.883	2.96624	-1.94930	3.14847	-3.07431
7254.877	2.89057	-1.92923	3.05937	-2.99700
7258.886	2.91260	-2.01060	3.01353	-3.12396
7262.880	2.91230	-2.04431	2.94210	-3.09418
7266.885	2.92960	-2.04936	2.94785	-3.02069
7270.879	2.91829	-2.02489	2.99601	-3.01004
7274.880	2.91453	-1.95440	3.09399	-3.05131
7278.879	2.98908	-1.94319	3.00044	-3.02636
7282.879	3.01398	-1.97150	2.98817	-3.10031
7286.875	3.00259	-1.86047	2.91923	-3.03943
7290.884	3.05699	-1.84167	3.10856	-2.98157
7294.757	3.09671	-1.91239	3.11965	-2.97045
7298.755	3.13128	-1.87044	3.06523	-3.04818
7302.752	3.10356	-1.91470	2.93866	-3.02284
7306.755	3.19345	-1.85479	2.89029	-2.91954
7310.754	3.18103	-1.82613	3.10812	-2.98998
7314.758	3.16993	-1.89525	3.04373	-2.97215
7318.758	3.19885	-1.83777	2.98054	-2.88604
7322.755	3.15129	-1.88545	3.03059	-2.96827
7326.751	3.10453	-1.92568	3.08444	-2.83868
7330.753	3.11928	-1.95220	3.16555	-2.88910
7334.758	3.12301	-1.90847	3.06602	-2.87514
7338.752	3.05756	-1.89208	3.05803	-2.81224
7342.752	3.09706	-1.92874	2.96490	-2.85189
7346.752	3.13345	-1.89715	2.96624	-2.82773
7350.751	3.09206	-1.91197	2.94223	-2.81591
7354.760	3.13843	-1.83654	3.02880	-2.82915
7358.749	3.08147	-1.84507	3.05608	-2.83047
7362.755	3.15483	-1.84281	3.06835	-2.74439
7366.752	3.14533	-1.87904	3.07209	-2.76542
7370.756	3.12729	-1.85111	3.11769	-2.74319
7374.753	3.12972	-1.84895	3.10097	-2.82577
7378.752	3.11603	-1.89867	3.08550	-2.74288
7382.752	3.09574	-1.88527	3.10582	-2.71418
7386.755	3.10322	-1.95738	3.07899	-2.77567
7390.748	3.07231	-1.98602	3.14293	-2.77922
7394.756	3.04071	-1.99282	3.15941	-2.79977
7398.756	2.99641	-2.05335	3.14711	-2.79485
7402.756	2.97827	-2.05442	3.11636	-2.71027
7406.751	2.94725	-2.08640	3.14837	-2.72489
7410.751	2.93267	-2.14088	3.15741	-2.69744
7414.751	2.95559	-2.12274	3.14548	-2.72215
7418.751	2.96267	-2.15695	3.17134	-2.68349
7422.774	2.98720	-2.14345	3.12074	-2.64148
7426.756	3.00034	-2.13574	3.04685	-2.66672
7430.752	3.07043	-2.10653	3.05999	-2.67801
7434.748	3.04744	-2.07392	2.99596	-2.68609
7438.756	3.07931	-2.08404	3.01084	-2.70814
7442.756	3.00517	-2.05908	3.02430	-2.67544
7446.752	2.44073	-1.94343	2.69723	-2.72106
7450.762	1.66381	-1.89654	1.81344	-2.62928
7454.751	1.32304	-1.66689	1.57632	-2.48793
7458.756	1.34524	-1.51312	1.69795	-2.36968
7462.755	2.19767	-1.41552	2.05648	-2.28232
7466.749	1.99228	-1.16580	2.20030	-2.12417
7470.755	1.88794	-1.01833	1.87795	-1.82169
7474.755	1.60571	-1.04448	1.73646	-1.92023
7478.761	1.75136	-1.02293	1.82386	-1.70490
7482.786	1.69939	-0.95792	1.61188	-1.68136
7486.759	1.72376	-0.97474	1.58535	-1.65627
7490.754	1.74809	-0.88268	1.57947	-1.58742
7494.748	1.84458	-0.77261	1.80657	-1.59642
7498.754	1.81862	-0.75653	1.78344	-1.64838
7502.750	1.78064	-0.74743	1.69088	-1.73011
7506.750	1.73051	-0.75572	1.75550	-1.68330
7510.744	1.80040	-0.69907	1.64069	-1.73785
7514.755	1.75917	-0.70383	1.56650	-1.70753
7518.753	1.84359	-0.71642	1.73941	-1.67083
7522.759	1.77134	-0.66514	1.62482	-1.63368
7526.748	1.79368	-0.67412	1.74541	-1.70108
7530.754	1.79480	-0.64983	1.61121	-1.72792
7534.753	1.75257	-0.66013	1.72937	-1.52662
7538.749	1.65649	-0.71877	1.72909	-1.44061
7542.751	1.58448	-0.84235	1.62123	-1.47279
7546.751	1.67437	-0.77233	1.67363	-1.49112
7550.756	1.78840	-0.80218	1.70559	-1.38617
7554.748	1.68962	-0.81375	1.75986	-1.35108
7558.749	1.71052	-0.87091	1.72971	-1.30843
7562.749	1.65900	-0.88655	1.61419	-1.28800
7566.748	1.73953	-0.86163	1.65364	-1.31856
7570.748	1.80873	-0.81906	1.63960	-1.28808
7574.748	1.70028	-0.75377	1.71298	-1.21249
7578.748	1.69708	-0.79159	1.71384	-1.23061
7582.753	1.68134	-0.87181	1.62557	-1.22421
7586.748	1.64384	-0.81906	1.67226	-1.29841
7590.751	1.67754	-0.80933	1.74925	-1.19861
7594.749	1.68362	-0.84233	1.71102	-1.22654
7598.751	1.69026	-0.83429	1.53810	-1.22389
7602.757	1.60997	-0.78477	1.56318	-1.21226
7606.753	1.67058	-0.69048	1.57124	-1.22884
7610.764	1.61778	-0.76836	1.69178	-1.27673
7614.757	1.56625	-0.87087	1.70055	-1.34546
7618.749	1.54755	-0.87155	1.70874	-1.37120
7622.748	1.57456	-0.80220	1.74913	-1.31363
7626.750	1.59854	-0.81297	1.74459	-1.36961
7630.752	1.54624	-0.85066	1.54011	-1.37352
7634.744	1.60518	-0.71198	1.53875	-1.39880
7638.754	1.65820	-0.70203	1.59259	-1.45648
7642.752	1.67623	-0.75733	1.57483	-1.51403
7646.752	1.62656	-0.83469	1.66584	-1.48395
7650.752	1.56075	-0.91972	1.69064	-1.49969
7654.763	1.69835	-0.83731	1.61917	-1.56009
7658.748	1.68853	-0.86252	1.60238	-1.58058
7662.752	1.62517	-0.79311	1.66549	-1.58604
7666.747	1.62205	-0.82205	1.55869	-1.59417
7670.753	1.77253	-0.66201	1.46241	-1.59999
7674.752	1.73951	-0.53700	1.52895	-1.61171
7678.748	1.75339	-0.80811	1.59130	-1.68371
7682.748	1.61870	-0.78373	1.54835	-1.68050
7686.753	1.63204	-0.65744	1.68461	-1.62998
7690.777	1.69669	-0.59786	1.64159	-1.61696
7694.742	1.74677	-0.62457	1.60342	-1.65290
7698.745	1.68768	-0.74883	1.70224	-1.64892
7702.749	1.63534	-0.72434	1.68012	-1.64562
7706.747	1.66140	-0.83169	1.66088	-1.61933
7710.743	1.65994	-0.80902	1.54981	-1.64443
7714.751	1.59881	-0.78662	1.50571	-1.61888
7718.746	1.78285	-0.92637	1.49316	-1.62246
7722.749	1.76810	-0.87972	1.48699	-1.57270
7726.752	1.77258	-0.92908	1.51363	-1.45733
7730.752	1.78064	-0.96131	1.57327	-1.43643
7734.755	1.71263	-0.98962	1.58289	-1.52534
7738.751	1.64320	-0.99890	1.59846	-1.55318
7742.747	1.64484	-0.97364	1.50966	-1.47796
7746.745	1.54884	-0.96266	1.41469	-1.50662
7750.750	1.55033	-0.92422	1.43714	-1.46621
7754.748	1.56972	-1.00946	1.50368	-1.39490
7758.750	1.52040	-0.99876	1.52441	-1.39434
7762.742	1.42491	-0.95643	1.56404	-1.42080
7766.745	1.45152	-0.87320	1.55348	-1.39285
7770.753	1.44753	-0.79296	1.48768	-1.40898
7774.746	1.45068	-0.77433	1.42186	-1.39783
7778.744	1.45601	-0.73367	1.38091	-1.38541
7782.750	1.50259	-0.75129	1.28527	-1.32600
7786.744	1.49574	-0.80181	1.32733	-1.31217
7790.748	1.49512	-0.81030	1.35224	-1.30101
7794.749	1.51392	-0.78004	1.34653	-1.29900
7798.752	1.56246	-0.79440	1.28807	-1.31945
7802.745	1.66611	-0.83447	1.24444	-1.34621
7806.750	1.70879	-0.78501	1.21127	-1.34186
7810.810	1.69607	-0.79328	1.19753	-1.36421
7814.756	1.67925	-0.82294	1.22156	-1.36338
7818.746	1.63588	-0.83495	1.23625	-1.31083
7822.749	1.70584	-0.81171	1.27271	-1.32745
7826.743	1.69473	-0.76860	1.31615	-1.40948
7830.748	1.70623	-0.70661	1.29901	-1.45838
7834.744	1.66648	-0.69880	1.30397	-1.49281
7838.745	1.74072	-0.71673	1.28643	-1.49515
7842.748	1.62106	-0.75899	1.30213	-1.48626
7846.745	1.52774	-0.77467	1.30640	-1.41920
7850.744	1.54604	-0.75152	1.29700	-1.42273
7854.747	1.55531	-0.82423	1.27978	-1.34629
7858.810	1.52722	-0.95810	1.24731	-1.35063
7862.754	1.53773	-0.95993	1.29313	-1.46052
7866.751	1.53081	-0.93977	1.25567	-1.44281
7870.744	1.59663	-1.04111	1.24674	-1.42591
7874.745	1.68176	-1.07138	1.26837	-1.39995
7878.749	1.83814	-1.05731	1.24253	-1.41499
7882.743	1.97079	-1.07796	1.22042	-1.43312
7886.743	2.13574	-0.99020	1.21581	-1.49542
7890.743	2.10020	-0.91902	1.17488	-1.50475
7894.756	1.99045	-0.92003	1.16166	-1.52943
7898.743	1.81300	-0.91327	1.14446	-1.54764
7902.744	1.92805	-0.88483	1.11261	-1.57919
7906.749	1.95011	-0.83441	1.09224	-1.55849
7910.749	1.95081	-0.74314	1.10217	-1.54275
7914.743	1.88973	-0.76035	1.10204	-1.49697
7918.748	1.76165	-0.70237	1.12953	-1.46862
7922.757	1.70095	-0.68361	1.15585	-1.37267
7926.745	1.74712	-0.65325	1.25691	-1.26814
7930.753	1.68000	-0.64379	1.30010	-1.24999
7934.742	1.61999	-0.64001	1.26488	-1.34873
7938.747	1.60771	-0.61401	1.28125	-1.32054
7942.744	1.62592	-0.55941	1.38225	-1.28890
7946.744	1.59450	-0.59377	1.43582	-1.25054
7950.742	1.59187	-0.58269	1.41097	-1.16446
7954.752	1.55583	-0.64132	1.42109	-1.12545
7958.748	1.54165	-0.67378	1.37937	-1.05288
7962.743	1.56169	-0.65848	1.26736	-1.12825
7966.742	1.52312	-0.72128	1.17505	-1.14615
7970.738	1.46343	-0.71889	1.16560	-1.18154
7974.741	1.44232	-0.70578	1.08661	-1.18835
