time (ms)	lx (deg)	ly (deg)	rx (deg)	ry (deg)
0.000	-0.09709	0.93236	0.18693	0.12159
4.002	-0.30811	0.93997	0.10270	0.13324
8.000	-0.27175	0.97078	0.02360	0.14107
12.006	-0.37062	1.02969	-0.00189	0.14375
16.000	-0.51518	0.99057	-0.09456	0.17350
20.029	-0.59411	1.03115	-0.15724	0.21176
24.003	-0.64689	1.02793	-0.19370	0.17931
28.001	-0.72766	1.04195	-0.23425	0.17267
31.996	-0.79024	1.02820	-0.26783	0.19844
35.997	-0.64094	1.05784	-0.27930	0.23194
40.000	-0.71908	1.05780	-0.28096	0.23875
43.998	-0.69345	1.01299	-0.30543	0.22230
48.002	-0.67640	1.00428	-0.28892	0.20284
52.001	-0.58913	1.00402	-0.23721	0.16450
55.998	-0.58717	0.98569	-0.15901	0.22367
59.997	-0.40206	0.96239	-0.08986	0.21301
63.998	-0.33280	0.88286	-0.04604	0.18890
68.000	-0.32402	0.84013	0.05854	0.20307
72.001	-0.28719	0.79665	0.19139	0.23522
75.999	-0.14873	0.76873	0.31746	0.28504
80.002	-0.05792	0.69072	0.46867	0.27619
84.000	-0.15814	0.59372	0.61950	0.32190
88.005	-0.21629	0.58331	0.70288	0.33089
92.002	-0.25423	0.59193	0.63149	0.39865
95.997	-0.33687	0.64646	0.52267	0.58769
100.017	-0.15176	0.63663	0.57632	0.54018
103.994	-0.05105	0.57733	0.71049	0.47601
107.992	0.07917	0.55755	0.80630	0.30506
112.001	0.21043	0.48628	0.83203	0.20009
115.998	0.39368	0.48205	0.83602	0.18960
119.994	0.40306	0.47768	0.79945	0.05844
123.997	0.51230	0.47794	0.78928	-0.12033
127.994	0.59769	0.46430	0.76856	-0.12605
132.001	0.53977	0.48706	0.71377	-0.28706
135.993	0.51508	0.51263	0.71635	-0.29093
140.000	0.48222	0.49651	0.71963	-0.42225
143.998	0.53332	0.48587	0.71243	-0.47793
147.998	0.43825	0.51308	0.74290	-0.54026
151.993	0.42279	0.54235	0.71771	-0.64950
155.995	0.36320	0.50635	0.69489	-0.71810
159.999	0.31310	0.54663	0.65327	-0.73637
164.010	0.24247	0.54338	0.59895	-0.75871
167.999	0.20306	0.56077	0.54580	-0.75457
172.003	0.12394	0.54102	0.43748	-0.79157
176.000	0.07996	0.51531	0.44837	-0.73517
179.995	0.05979	0.48472	0.32501	-0.76788
183.996	0.07475	0.48124	0.31918	-0.74803
188.000	0.05639	0.43788	0.24656	-0.75305
191.997	0.06763	0.42037	0.36216	-0.73051
195.994	0.06319	0.41219	0.27823	-0.77099
199.995	0.07182	0.43985	0.30478	-0.76843
203.994	0.07676	0.42665	0.37152	-0.82241
207.994	0.06532	0.42377	0.42964	-0.83495
212.005	0.07242	0.41569	0.43480	-0.83413
216.003	0.09766	0.40379	0.62399	-0.88173
219.994	0.13426	0.42623	0.69265	-0.88566
223.993	0.14451	0.43393	0.77084	-0.91220
228.001	0.13282	0.48298	0.83451	-0.92727
231.998	0.12111	0.53026	0.86868	-0.92597
235.995	0.13148	0.63171	0.85136	-0.89499
239.994	0.12761	0.73341	0.90185	-0.82898
244.000	0.11386	0.78662	0.92614	-0.77373
247.996	0.10369	0.85924	0.93644	-0.71637
251.998	0.10813	0.98303	0.89299	-0.66458
256.002	0.10838	1.03764	0.93068	-0.63253
259.997	0.09808	1.13811	0.88977	-0.55599
263.997	0.08366	1.14308	0.87907	-0.51112
267.993	0.09329	1.18270	0.86719	-0.48705
271.993	0.09413	1.21576	0.86118	-0.45140
275.997	0.10922	1.23374	0.85783	-0.44417
279.998	0.09068	1.22602	0.88031	-0.43229
283.991	0.09518	1.16107	0.87845	-0.42700
287.993	0.10617	1.10950	0.85267	-0.43711
292.011	0.12506	1.03304	0.88433	-0.44951
296.006	0.13545	0.97379	0.89366	-0.48812
300.032	0.14111	0.93188	0.84885	-0.48775
304.016	0.15571	0.84093	0.86488	-0.53547
308.001	0.14037	0.81818	0.81461	-0.57319
311.992	0.11371	0.76891	0.80523	-0.62793
315.990	0.09808	0.77052	0.73749	-0.64013
319.994	0.12019	0.66083	0.61980	-0.55829
323.990	0.14498	0.55312	0.65883	-0.49465
327.993	0.18226	0.26203	0.68300	-0.49838
331.992	0.23579	-0.08692	0.72546	-0.51996
335.992	0.28431	-0.02607	0.65235	-0.46089
339.995	0.35206	0.06590	0.64940	-0.45629
343.989	0.24063	0.17757	0.70052	-0.45517
347.996	0.01635	0.29190	0.67925	-0.45649
351.992	0.05246	0.20836	0.72593	-0.47817
355.996	-0.10148	0.21388	0.75761	-0.52222
359.994	0.03075	0.18808	0.77575	-0.51481
363.995	0.19844	0.24158	0.81347	-0.53349
367.994	0.23601	0.26608	0.81228	-0.55878
371.990	0.37874	0.35312	0.76843	-0.58545
375.997	0.39422	0.33538	0.75429	-0.48619
380.007	0.43691	0.35543	0.73948	-0.42746
383.993	0.33796	0.32845	0.70918	-0.28239
387.991	0.34471	0.20142	0.68451	-0.36222
391.994	0.36052	0.05494	0.62890	-0.36026
395.991	0.35238	-0.17287	0.59267	-0.24659
399.997	0.43318	-0.30770	0.55175	-0.28408
403.993	0.46093	-0.14703	0.48952	-0.25196
407.991	0.51830	-0.01128	0.51371	-0.11897
411.989	0.53835	-0.00865	0.53570	-0.07979
415.991	0.54575	0.01078	0.68295	-0.03772
419.999	0.48649	0.01719	0.69419	-0.00378
423.995	0.44341	-0.09778	0.82717	-0.10202
427.989	0.35926	-0.15886	0.84778	-0.26543
431.995	0.44743	-0.12794	1.03593	-0.28741
435.994	0.44425	-0.07845	1.20725	-0.18784
439.988	0.36839	0.08429	1.23595	-0.21152
443.994	0.29962	0.21032	1.03044	-0.21911
448.013	0.43596	0.22903	0.97278	-0.33576
451.999	0.53808	0.19145	1.03719	-0.39652
455.997	0.30987	0.30387	0.89021	-0.28677
459.992	0.46567	0.45278	0.99109	0.01302
463.995	1.05845	0.88016	0.81022	0.82818
467.994	5.65096	2.04321	-5.75883	0.64348
471.990	NaN	NaN	1.44359	4.93115
475.993	3.56660	7.44227	NaN	NaN
479.989	NaN	NaN	NaN	NaN
483.989	NaN	NaN	NaN	NaN
487.990	NaN	NaN	NaN	NaN
491.989	NaN	NaN	NaN	NaN
496.015	NaN	NaN	NaN	NaN
499.994	NaN	NaN	NaN	NaN
503.998	NaN	NaN	NaN	NaN
507.997	NaN	NaN	NaN	NaN
512.056	NaN	NaN	NaN	NaN
515.992	NaN	NaN	NaN	NaN
519.999	NaN	NaN	NaN	NaN
523.992	NaN	NaN	NaN	NaN
527.990	NaN	NaN	NaN	NaN
531.994	NaN	NaN	NaN	NaN
535.991	NaN	NaN	NaN	NaN
539.991	NaN	NaN	NaN	NaN
543.987	NaN	NaN	NaN	NaN
547.997	NaN	NaN	NaN	NaN
551.993	NaN	NaN	NaN	NaN
555.990	NaN	NaN	NaN	NaN
559.987	6.73627	-2.43350	-2.98567	0.68259
564.009	NaN	NaN	NaN	NaN
567.993	NaN	NaN	NaN	NaN
571.991	NaN	NaN	NaN	NaN
575.992	NaN	NaN	NaN	NaN
579.988	2.85583	-4.26085	-0.74655	10.36526
583.992	3.62437	-2.19284	NaN	NaN
587.995	4.23303	-1.93578	17.04466	12.35450
591.991	-5.63569	0.29353	NaN	NaN
595.993	3.55392	8.63004	4.15312	2.82253
599.990	1.44173	8.42642	11.69555	5.60631
603.991	1.49235	4.45207	4.41065	-0.31571
607.988	2.15529	0.87599	4.25285	-4.08792
611.986	1.11680	1.09888	3.61147	7.11568
615.988	0.61789	1.86436	4.19255	-2.88247
619.991	1.49746	0.77044	4.22320	-2.25607
623.987	0.80898	0.76516	4.37983	-1.76861
627.992	0.43194	0.45728	-3.64387	-1.65204
632.000	0.60019	-0.19051	-3.44876	-1.31052
635.989	0.76888	-0.08709	-2.58942	-1.15499
639.993	0.76938	-0.14578	1.40504	-0.21254
643.990	0.48706	0.02833	1.44689	-0.10883
647.988	0.43864	-0.06446	1.51685	-0.17045
651.985	0.43629	0.03429	1.35335	0.01496
655.986	0.32543	-0.14211	1.23079	-0.00273
659.990	0.30947	-0.10337	1.02558	0.01324
663.987	0.29153	-0.14189	1.06537	0.06092
667.993	0.26644	-0.18977	0.93239	-0.00559
671.991	0.25785	-0.10372	0.75228	-0.00763
675.988	0.26577	-0.00783	0.73079	0.01394
679.988	0.26140	0.05912	0.64134	0.03302
683.993	0.23289	-0.10357	0.55744	-0.05506
687.987	0.22959	-0.07487	0.50488	-0.13110
691.990	0.23793	-0.06831	0.54215	-0.13977
695.990	0.23981	-0.07984	0.54644	-0.15955
699.989	0.22073	-0.01521	0.50719	-0.16223
703.987	0.25016	0.02400	0.57369	-0.16382
707.987	0.23892	-0.06409	0.62900	-0.13619
711.990	0.23482	-0.02612	0.62593	-0.13388
715.991	0.23075	0.06262	0.77012	-0.13589
719.985	0.22254	-0.02420	0.77910	-0.16386
723.991	0.32640	0.02289	0.71290	-0.19137
727.991	0.23259	0.05449	0.64208	-0.17522
731.989	0.31734	0.09736	0.64228	-0.18042
735.984	0.35744	0.21350	0.62446	-0.27837
739.889	0.27523	0.21904	0.52917	-0.26721
743.862	0.34983	0.30072	0.50629	-0.20033
747.861	0.27240	0.13468	0.56476	-0.18119
751.860	0.33312	0.11860	0.43336	-0.20217
755.861	0.29471	0.13940	0.48153	-0.16494
759.870	0.33898	0.23415	0.45150	-0.20920
763.870	0.41063	0.25758	0.49312	-0.26620
767.859	0.30339	0.15148	0.47289	-0.25854
771.864	0.31126	0.25935	0.54689	-0.22579
775.859	0.30272	0.34383	0.61101	-0.20079
779.867	0.26805	0.02589	0.71082	-0.17477
783.862	0.26488	0.02709	0.76848	-0.12257
787.859	0.23038	0.06744	0.86840	-0.21162
791.856	0.24927	0.15888	0.97688	-0.20860
795.862	0.28999	0.13861	1.01705	-0.28525
799.870	0.37025	0.17086	0.97407	-0.25196
803.865	0.33985	0.23701	1.05069	-0.24788
807.860	0.27140	0.23731	1.01275	-0.16388
811.860	0.27848	0.28611	1.05622	-0.06989
815.859	0.26599	0.33772	1.08249	-0.01737
819.860	0.18497	0.30783	1.07413	0.02489
823.861	0.20224	0.28564	1.09006	0.04969
827.861	0.21450	0.31836	1.03037	0.07138
831.859	0.27557	0.33426	0.98147	0.11884
835.857	0.36174	0.37526	0.86089	0.11022
839.862	0.26473	0.38905	0.85113	0.10940
843.866	0.16573	0.39440	0.75600	-0.07812
847.864	0.14513	0.32977	0.72248	-0.11730
851.859	0.08994	0.32351	0.69878	-0.08448
855.859	0.15809	0.38150	0.63193	0.06100
859.856	0.21105	0.33496	0.61605	0.06602
863.859	0.12389	0.29513	0.56334	0.04112
867.859	0.19797	0.32390	0.60377	0.09442
871.860	0.21735	0.31111	0.65096	0.13624
875.861	0.19596	0.31491	0.72106	0.15293
879.862	0.14781	0.36282	0.69838	0.25590
883.867	0.10019	0.42454	0.60625	0.19796
887.882	0.10133	0.43550	0.62037	0.15652
891.870	0.05820	0.37450	0.59178	0.19108
895.860	0.10433	0.40397	0.63818	0.18844
899.859	0.13099	0.42673	0.77622	0.16687
903.890	0.09071	0.43102	0.73826	0.08900
907.862	0.13014	0.43604	0.75280	-0.03821
911.859	0.07445	0.34925	0.61230	-0.12623
915.862	0.07361	0.41564	0.67335	-0.15704
919.860	0.05127	0.44792	0.71903	-0.19689
923.859	0.00995	0.38168	0.78977	-0.19000
927.865	0.04936	0.32157	0.79270	-0.20012
931.855	0.00529	0.23102	0.80240	-0.24230
935.858	0.03879	0.27458	0.81178	-0.27142
939.858	0.12049	0.30266	0.92473	-0.28153
943.858	0.04641	0.30559	0.81076	-0.24797
947.864	0.04767	0.27262	0.79536	-0.21838
951.916	0.01541	0.22911	0.75134	-0.18367
955.865	0.07917	0.16368	0.78828	-0.22116
959.853	0.11895	0.22521	0.98787	-0.17533
963.855	0.09081	0.30430	0.82379	-0.17594
967.861	0.11312	0.22543	0.70062	-0.20556
971.854	0.16357	0.26919	0.64216	-0.22579
975.858	0.09676	0.21360	0.93887	-0.21583
979.856	0.09679	0.27630	0.75315	-0.24367
983.859	0.02857	0.32808	0.66419	-0.21513
987.860	0.07783	0.34629	0.69888	-0.23617
991.854	0.08818	0.38056	0.74526	-0.20310
995.859	0.08319	0.40434	1.00856	-0.24644
999.858	0.03430	0.42832	0.78791	-0.27664
1003.857	0.04229	0.41082	0.74367	-0.27262
1007.872	0.01060	0.36031	0.85220	-0.16607
1011.862	0.03380	0.40926	0.96244	-0.13340
1015.855	-0.02593	0.35981	0.88915	-0.14468
1019.862	0.02375	0.40491	0.78898	-0.08155
1023.857	0.08838	0.40762	0.77072	-0.14965
1027.855	0.10900	0.38200	0.89312	-0.07322
1031.855	0.03494	0.31648	0.87406	-0.07886
1035.860	0.00119	0.33397	0.86783	-0.04271
1039.856	0.00732	0.29125	0.78206	-0.00706
1043.860	0.15459	0.29148	0.80446	0.01377
1047.853	0.06770	0.34590	0.88897	0.02887
1051.860	-0.00826	0.31153	0.82779	0.09121
1055.861	0.02995	0.29943	0.78211	0.10945
1059.856	0.02993	0.32748	0.79650	0.15653
1063.852	0.05472	0.35576	0.78667	0.14061
1067.861	0.15739	0.39388	0.84285	0.20389
1071.858	0.01224	0.36284	0.91721	0.25951
1075.853	0.02454	0.33563	0.94775	0.28729
1079.860	-0.01258	0.34222	0.79967	0.22523
1083.858	0.03529	0.33037	0.74769	0.20355
1087.854	0.12632	0.29901	0.75486	0.22163
1091.859	0.31196	0.32358	0.86371	0.18458
1095.857	-0.03911	0.25992	1.00849	0.05240
1099.862	0.00839	0.32304	0.93490	-0.00574
1103.855	0.00330	0.32040	0.86101	-0.05342
1107.866	-0.02400	0.27438	0.76766	-0.11022
1111.857	0.10118	0.25781	0.90076	-0.15487
1115.854	0.24319	0.27798	0.81640	-0.21403
1119.855	0.10136	0.32182	0.99221	-0.22092
1123.857	0.08274	0.30077	1.07629	-0.17309
1127.854	0.04671	0.31287	1.04158	-0.21208
1131.857	0.04725	0.28947	1.06299	-0.15779
1135.863	-0.05596	0.28308	1.12603	-0.02966
1139.854	0.01601	0.31066	0.94294	0.03623
1143.855	0.09317	0.26996	0.97412	0.06885
1147.861	0.17573	0.28678	0.99985	0.11352
1151.859	0.20127	0.25840	0.93931	0.06780
1155.855	0.15154	0.21164	1.05175	0.07391
1159.853	0.18645	0.26211	1.07485	0.14360
1163.867	0.12027	0.23512	1.12645	0.09987
1167.857	0.18023	0.31215	1.13303	0.05555
1171.852	0.24880	0.36868	1.02106	-0.02470
1175.886	0.30739	0.45872	1.05299	0.01563
1179.854	0.37047	0.34830	0.95968	-0.01585
1183.859	0.33732	0.19906	0.97519	0.02099
1187.854	0.28093	0.20731	0.89944	0.00472
1191.856	0.30501	0.20296	0.77491	-0.03223
1195.857	0.34375	0.39367	0.83642	-0.04361
1199.855	0.34605	0.41462	0.79290	-0.00248
1203.851	0.23944	0.52412	0.79568	-0.02437
1207.857	0.16025	0.42263	0.74737	-0.04669
1211.855	0.28500	0.10439	0.63503	-0.02303
1215.858	0.29081	0.10364	0.67811	-0.06078
1219.861	0.28605	0.14904	0.65858	-0.00770
1223.853	0.23837	0.25363	0.71243	-0.00062
1227.853	0.21767	0.37290	0.70905	0.02939
1231.856	0.30233	0.36572	0.73295	0.14647
1235.850	0.36313	0.34012	0.84133	-0.09437
1239.852	0.28773	0.17394	0.86813	-0.25149
1243.874	0.19189	0.11431	0.92113	-0.13362
1247.857	0.16231	0.16733	0.90842	-0.11827
1251.850	0.25887	0.17556	0.79072	-0.11984
1255.858	0.19043	0.27321	0.95609	-0.11108
1259.859	0.10096	0.39589	0.91674	-0.02144
1263.852	0.01700	0.31156	0.83615	0.01883
1267.857	0.10649	0.15846	1.03099	-0.01153
1271.854	0.03946	0.09937	0.98199	-0.16157
1275.855	-0.06981	0.11860	0.94621	-0.20811
1279.850	-0.09614	0.09622	0.85295	-0.11014
1283.851	0.03909	0.22553	0.86756	-0.09173
1287.855	0.08180	0.29960	0.85198	-0.14958
1291.857	0.11716	0.27915	0.94517	-0.18778
1295.857	0.10806	0.32746	0.83367	-0.20267
1299.858	0.09436	0.33588	0.87999	-0.13971
1303.852	-0.03388	0.33394	0.94733	-0.23397
1307.849	0.20951	0.46834	0.97338	-0.29437
1311.889	0.22376	0.38933	0.88339	-0.37033
1315.855	0.20775	0.48656	0.88776	-0.24327
1319.855	0.06547	0.51501	0.87910	-0.43428
1323.859	0.30404	0.60736	0.95172	-0.43989
1327.854	0.26257	0.61871	0.91751	-0.31261
1331.851	0.16677	0.60987	0.81312	-0.25261
1335.850	0.05683	0.64135	1.01786	-0.40967
1339.856	0.33799	0.67347	1.08994	-0.32087
1343.857	0.26825	0.71265	0.86950	-0.27840
1347.850	0.28677	0.67576	0.83215	-0.03046
1351.851	0.31893	0.45326	1.10963	-0.06594
1355.856	0.19690	0.55513	1.05381	-0.30152
1359.851	0.21420	0.66615	0.91282	-0.21830
1363.850	0.40695	0.36336	0.92629	0.24667
1367.884	0.20134	0.29245	1.20125	0.06541
1371.855	0.17206	0.32659	0.99149	-0.24333
1375.850	0.25515	0.36078	0.92696	-0.11250
1379.877	0.30441	0.40734	0.95901	0.22341
1383.862	0.24008	0.44859	1.11646	0.21138
1387.852	0.26436	0.38552	0.96661	0.07677
1391.847	0.24855	0.33374	0.91366	0.07973
1395.852	0.15347	0.37628	0.94547	0.28441
1399.849	0.16536	0.49791	1.09976	0.20730
1403.847	0.33995	0.37702	1.09155	0.17078
1407.854	0.25887	0.47599	0.91820	0.07240
1411.850	0.23346	0.58125	0.83039	0.08937
1415.853	0.18894	0.61164	0.87342	0.24878
1419.849	0.13828	0.54343	1.22464	0.17398
1423.858	0.16499	0.30763	1.04052	0.09265
1427.851	0.15335	0.47620	0.78965	-0.01861
1431.854	0.07870	0.49240	0.79429	0.08083
1435.846	0.11064	0.44467	0.93472	0.07379
1439.853	0.30677	0.25510	1.16855	-0.03073
1443.852	0.20884	0.20140	1.04863	-0.11677
1447.881	0.17429	0.18890	0.87684	-0.12244
1451.857	0.05013	0.16010	0.74655	-0.09549
1455.846	0.08014	0.11982	0.86634	-0.23641
1459.853	0.26031	0.14278	1.23178	-0.31586
1463.851	0.31938	0.14820	1.22268	-0.36400
1467.853	0.16134	0.23450	1.04116	-0.35804
1471.845	0.18658	0.23626	0.82908	-0.26725
1475.848	0.18737	0.19578	0.67526	-0.17189
1479.850	0.23137	0.18552	0.78287	-0.37772
1483.854	0.15590	0.23872	1.30275	-0.45240
1487.848	0.14364	0.27381	1.31285	-0.45329
1491.852	0.19092	0.38858	1.06776	-0.43681
1495.846	0.22214	0.43105	0.90959	-0.33870
1499.854	0.22291	0.42374	0.66295	-0.13383
1503.849	0.16908	0.46074	0.86272	-0.35691
1507.852	0.12466	0.48586	0.94207	-0.58714
1511.851	0.02278	0.50035	1.11730	-0.37120
1515.880	0.08058	0.47950	0.84376	-0.22270
1519.852	0.07788	0.55573	0.65876	-0.27573
1523.850	0.09393	0.57546	0.82573	-0.23487
1527.847	0.11659	0.60244	0.97192	-0.26351
1531.847	0.13119	0.65447	0.78985	-0.24337
1535.850	0.05857	0.67293	0.85575	-0.26071
1539.851	-0.02291	0.60433	0.81962	-0.26757
1543.847	0.05286	0.53973	0.85386	-0.39031
1547.852	0.05785	0.41495	0.90083	-0.30573
1551.854	-0.06403	0.30249	0.77439	-0.20297
1555.847	-0.03177	0.38225	0.77618	-0.21843
1559.846	-0.09557	0.38389	0.80980	-0.21388
1563.853	-0.10205	0.28663	0.80605	-0.12150
1567.851	-0.10329	0.21296	0.82466	-0.07760
1571.853	-0.18524	0.22150	0.80568	0.03605
1575.853	-0.22725	0.09786	0.86853	0.06999
1579.848	-0.21934	0.17685	0.91614	0.07568
1583.853	-0.18479	0.20903	1.02456	0.03617
1587.885	-0.21398	0.28579	0.95006	0.06765
1591.856	-0.21058	0.35896	0.80424	0.07275
1595.730	-0.18673	0.40861	0.77977	0.00522
1599.720	-0.17598	0.40834	0.81208	0.03493
1603.719	-0.18251	0.44504	0.79670	0.07973
1607.721	-0.19648	0.42342	0.79029	0.09007
1611.721	-0.21735	0.43646	0.86247	0.05444
1615.725	-0.12235	0.39099	0.87111	-0.00619
1619.722	-0.05346	0.45118	0.84798	-0.09161
1623.721	-0.04063	0.39442	0.73995	-0.12135
1627.718	-0.09597	0.36948	0.70498	-0.12692
1631.724	-0.17323	0.31630	0.73211	-0.12081
1635.723	-0.08473	0.24573	0.72598	-0.11944
1639.724	-0.18918	0.19089	0.76290	-0.12640
1643.723	-0.16700	0.18634	0.77868	-0.13375
1647.721	-0.24363	0.15116	0.81133	-0.18973
1651.721	-0.19020	0.13804	0.83910	-0.23199
1655.726	-0.25304	0.11520	0.83674	-0.27043
1659.720	-0.21048	0.15816	0.80595	-0.30914
1663.723	-0.22572	0.23502	0.80067	-0.28740
1667.720	-0.25761	0.30884	0.82391	-0.26755
1671.720	-0.21839	0.31508	0.82436	-0.21957
1675.722	-0.14412	0.36001	0.79799	-0.24658
1679.725	-0.14724	0.38642	0.86237	-0.27159
1683.724	-0.10731	0.45438	0.86108	-0.27999
1687.720	-0.07865	0.46171	0.85431	-0.33910
1691.722	-0.07207	0.46554	0.86128	-0.46405
1695.724	-0.10845	0.48966	0.86406	-0.62014
1699.722	-0.14533	0.42981	0.93701	-0.55931
1703.720	-0.10304	0.43453	1.06634	-0.47423
1707.724	-0.08823	0.47689	1.16188	-0.45660
1711.722	-0.14072	0.45125	1.15421	-0.43700
1715.723	-0.13079	0.45550	1.11916	-0.48453
1719.758	-0.23229	0.42869	1.12196	-0.50492
1723.731	-0.23328	0.45135	0.99735	-0.54375
1727.721	-0.26235	0.45607	0.88019	-0.51582
1731.723	-0.28136	0.38523	0.88279	-0.47043
1735.719	-0.28448	0.35993	0.79741	-0.40042
1739.724	-0.32322	0.32904	0.90101	-0.34670
1743.722	-0.30290	0.33073	0.90942	-0.28550
1747.718	-0.36305	0.28079	0.80679	-0.23932
1751.724	-0.38395	0.23345	0.73183	-0.20981
1755.720	-0.36797	0.14641	0.72766	-0.21729
1759.718	-0.37616	0.12228	0.68216	-0.20718
1763.729	-0.32436	0.13120	0.67431	-0.20144
1767.720	-0.32302	0.09562	0.68260	-0.21023
1771.718	-0.31868	0.01165	0.72446	-0.23990
1775.718	-0.30399	-0.02371	0.75526	-0.25766
1779.722	-0.30498	-0.11445	0.79325	-0.28658
1783.722	-0.31957	-0.08503	0.73384	-0.30430
1787.720	-0.37633	-0.12531	0.71789	-0.29978
1791.721	-0.36288	-0.11604	0.70613	-0.32512
1795.715	-0.38948	-0.10769	0.68511	-0.37030
1799.718	-0.41968	-0.10836	0.68173	-0.37894
1803.722	-0.42879	-0.13217	0.70139	-0.38165
1807.745	-0.48078	-0.17441	0.71168	-0.38083
1811.715	-0.48570	-0.17416	0.68920	-0.38600
1815.717	-0.50274	-0.17687	0.69868	-0.40095
1819.720	-0.54198	-0.17324	0.71427	-0.46019
1823.718	-0.53505	-0.16362	0.70508	-0.50215
1827.716	-0.49743	-0.20492	0.72930	-0.58588
1831.718	-0.48450	-0.20455	0.73020	-0.59638
1835.717	-0.50768	-0.15985	0.65382	-0.55306
1839.715	-0.50895	-0.08232	0.48220	-0.41436
1843.722	-0.47525	0.02224	0.53066	-0.38015
1847.725	-0.41149	0.12384	0.54811	-0.38643
1851.723	-0.36042	0.24120	0.61712	-0.40427
1855.729	-0.34419	0.19951	0.75144	-0.29998
1859.716	-0.31945	0.25072	0.88855	-0.36749
1863.718	-0.28009	0.35374	0.94036	-0.51663
1867.716	-0.25991	0.40821	0.52451	-0.27606
1871.717	-0.23477	0.44205	0.41130	-0.20085
1875.717	-0.23157	0.42933	0.17903	-0.13307
1879.721	-0.28342	0.37260	0.38772	-0.11604
1883.721	-0.19028	0.31245	0.42207	-0.14029
1887.722	-0.24758	0.28422	0.76526	-0.16712
1891.716	-0.25500	0.24705	0.98110	-0.24438
1895.721	-0.26830	0.19365	1.10038	-0.28772
1899.716	-0.22740	0.15247	0.89716	-0.49497
1903.715	-0.34114	0.10809	0.56674	-0.44599
1907.718	-0.25718	0.03876	0.23626	-0.26265
1911.716	-0.20231	-0.04068	0.26587	-0.25226
1915.715	-0.13660	-0.13339	0.47153	-0.23939
1919.716	-0.15352	-0.11975	0.54560	-0.26247
1923.716	-0.14250	-0.08754	0.74702	-0.31421
1927.724	-0.33347	-0.19551	1.01278	-0.40378
1931.722	-0.31565	-0.15975	1.07480	-0.43127
1935.713	-0.26632	-0.14325	1.03794	-0.52086
1939.714	-0.32563	-0.14320	0.82367	-0.67294
1943.713	-0.41405	-0.25184	0.56009	-0.64952
1947.719	-0.40025	-0.22771	0.52493	-0.48793
1951.717	-0.35119	-0.24854	0.55463	-0.47066
1955.714	-0.36067	-0.29634	0.74513	-0.50302
1959.712	-0.34439	-0.25030	0.73928	-0.55199
1963.714	-0.32196	-0.26735	0.66615	-0.53480
1967.716	-0.30533	-0.26988	0.62300	-0.51987
1971.723	-0.21020	-0.21623	0.59153	-0.49250
1975.716	-0.10148	-0.23587	0.57007	-0.46676
1979.719	-0.05232	-0.22382	0.54597	-0.49822
1983.716	-0.08674	-0.21278	0.57508	-0.42434
1987.716	-0.06634	-0.19772	0.65481	-0.34175
1991.744	-0.07366	-0.17116	0.75149	-0.29677
1995.721	-0.06336	-0.20061	0.79302	-0.25749
1999.715	-0.11342	-0.16065	0.86868	-0.18863
2003.716	-0.11183	-0.11980	0.87979	-0.03474
2007.718	-0.16313	-0.09458	0.97757	-0.10440
2011.723	-0.18685	-0.05343	1.04178	-0.02037
2015.717	-0.21199	-0.04890	1.06078	-0.03252
2019.819	-0.28654	-0.02709	1.11596	-0.08529
2023.722	-0.34169	0.00353	1.11487	-0.00335
2027.714	-0.33883	-0.01953	1.11209	-0.03374
2031.711	-0.30736	0.06848	1.02868	-0.06880
2035.718	-0.30270	0.07015	0.91790	-0.08224
2039.717	-0.30086	0.15958	0.93294	-0.14885
2043.713	-0.30357	0.15694	0.92051	-0.12972
2047.713	-0.30277	0.17685	0.84984	-0.17865
2051.717	-0.34459	0.15533	0.72226	-0.20161
2055.719	-0.38564	0.10943	0.72253	-0.20710
2059.717	-0.35762	0.07306	0.72258	-0.24695
2063.716	-0.34062	0.06252	0.69397	-0.27715
2067.716	-0.27815	0.02803	0.65173	-0.33449
2071.714	-0.23969	-0.03660	0.61883	-0.34598
2075.714	-0.24743	-0.09994	0.56798	-0.31308
2079.714	-0.29178	-0.15468	0.55811	-0.27882
2083.714	-0.28845	-0.16393	0.46222	-0.23593
2087.713	-0.33973	-0.17034	0.33853	-0.23957
2091.714	-0.29151	-0.00191	0.36931	-0.03253
2095.715	-0.25619	-0.08916	0.61456	0.05193
2099.715	-0.22194	-0.11771	0.74511	-0.04135
2103.711	-0.21601	-0.12830	0.83945	-0.14635
2107.714	-0.20134	-0.17476	0.62585	-0.24393
2111.715	-0.28580	-0.23159	0.38931	-0.22962
2115.713	-0.31918	-0.20207	0.49413	-0.10772
2119.712	-0.39735	-0.11535	0.40527	-0.08205
2123.718	-0.43653	-0.20244	0.31267	0.00932
2127.728	-0.43160	-0.17821	0.54347	0.10242
2131.720	-0.29002	-0.17836	0.81662	-0.01744
2135.721	-0.22088	-0.16206	0.99812	-0.27138
2139.723	-0.29193	-0.09592	0.87761	-0.22739
2143.714	-0.38345	0.01732	0.79603	-0.26882
2147.715	-0.30409	0.18418	0.62692	-0.31889
2151.711	-0.31759	0.24866	0.55438	-0.22045
2155.717	-0.23306	0.32256	0.56870	-0.14732
2159.715	-0.17092	0.41505	0.54704	-0.07196
2163.712	-0.15102	0.47403	0.60667	-0.16939
2167.727	-0.14506	0.54040	0.62945	-0.25558
2171.716	-0.12436	0.57345	0.58674	-0.30928
2175.710	-0.14412	0.64307	0.59808	-0.37723
2179.718	-0.19799	0.64692	0.57779	-0.38365
2183.721	-0.22480	0.64669	0.53657	-0.45640
2187.719	-0.22353	0.65648	0.57270	-0.51491
2191.715	-0.31652	0.60062	0.58533	-0.56925
2195.739	-0.35352	0.47932	0.62223	-0.62571
2199.718	-0.41606	0.41039	0.69089	-0.66943
2203.713	-0.47463	0.39573	0.75275	-0.74539
2207.715	-0.49520	0.37515	0.87379	-0.76306
2211.710	-0.50612	0.37590	0.97125	-0.74393
2215.711	-0.48840	0.36969	0.95864	-0.74133
2219.716	-0.46751	0.34628	1.04344	-0.67814
2223.739	-0.43467	0.35093	1.09390	-0.66449
2227.707	-0.43671	0.38979	1.11169	-0.65686
2231.716	-0.40973	0.33955	1.09224	-0.59588
2235.711	-0.39221	0.32658	1.07535	-0.53994
2239.712	-0.34963	0.36254	1.02957	-0.45722
2243.710	-0.26083	0.34964	0.95420	-0.35551
2247.710	-0.25542	0.35986	0.81910	-0.29053
2251.710	-0.28716	0.33220	0.77930	-0.24514
2255.714	-0.28356	0.29530	0.65990	-0.25170
2259.713	-0.33089	0.15694	0.62290	-0.22656
2263.742	-0.41512	0.15249	0.58612	-0.26117
2267.720	-0.46234	0.11607	0.52624	-0.30031
2271.710	-0.54639	0.03986	0.52260	-0.31219
2275.715	-0.62183	-0.02870	0.51026	-0.28135
2279.713	-0.61786	-0.05114	0.48699	-0.29957
2283.709	-0.66620	-0.08150	0.44512	-0.30608
2287.712	-0.70950	-0.08597	0.43616	-0.34541
2291.712	-0.77337	-0.15835	0.45569	-0.37737
2295.710	-0.78493	-0.20188	0.45793	-0.40167
2299.711	-0.77372	-0.20993	0.52076	-0.41056
2303.715	-0.75278	-0.17743	0.58525	-0.38138
2307.707	-0.73523	-0.19895	0.61476	-0.37651
2311.715	-0.64359	-0.20703	0.67719	-0.35385
2315.712	-0.64910	-0.19314	0.69819	-0.35079
2319.713	-0.60528	-0.12985	0.73084	-0.35690
2323.715	-0.60843	-0.12511	0.72714	-0.35484
2327.709	-0.56014	-0.11765	0.77367	-0.34810
2331.710	-0.41822	-0.09877	0.80518	-0.32825
2335.712	-0.30900	-0.05372	0.85027	-0.30874
2339.711	-0.08788	0.01812	0.86550	-0.33095
2343.713	-0.23033	-0.00296	0.84751	-0.32166
2347.713	-0.23810	0.00132	0.75848	-0.31714
2351.709	-0.30878	-0.00624	0.75982	-0.30027
2355.709	-0.33955	0.02184	0.77995	-0.31714
2359.709	-0.34002	0.04090	0.74037	-0.25861
2363.708	-0.20546	0.00353	0.73340	-0.20330
2367.711	-0.31094	-0.02214	0.78491	-0.19169
2371.708	-0.29280	-0.04719	0.78186	-0.21092
2375.707	-0.20740	-0.10921	0.78836	-0.22407
2379.715	-0.34762	-0.13920	0.74771	-0.16839
2383.711	-0.41748	-0.06103	0.72340	-0.16802
2387.715	-0.40730	0.04038	0.73982	-0.19078
2391.719	-0.36759	0.22411	0.78000	-0.15333
2395.712	-0.34643	0.26866	0.81669	-0.20956
2399.713	-0.29287	0.26837	0.81600	-0.23850
2403.714	-0.24932	0.38597	0.83282	-0.32273
2407.711	-0.24289	0.50099	0.82900	-0.39292
2411.708	-0.34437	0.51975	0.78235	-0.37073
2415.709	-0.41810	0.46520	0.81382	-0.39568
2419.713	-0.48738	0.51956	0.79625	-0.36810
2423.710	-0.42142	0.52680	0.77099	-0.35896
2427.713	-0.31414	0.53078	0.76379	-0.30022
2431.709	-0.33387	0.54164	0.76756	-0.28529
2435.711	-0.33027	0.53821	0.78287	-0.29754
2439.708	-0.23678	0.55518	0.78149	-0.25478
2443.753	-0.17519	0.52713	0.77970	-0.18449
2447.587	-0.48828	0.31907	0.77888	-0.09561
2451.582	-0.41554	-0.13682	0.77245	-0.07027
2455.584	-0.45363	0.14191	0.77729	-0.06905
2459.579	-0.39162	0.03675	0.71819	-0.05109
2463.580	-0.36896	0.10171	0.74513	-0.08296
2467.582	-0.35280	0.15737	0.79630	-0.11596
2471.584	-0.38569	-0.02766	0.85513	-0.14652
2475.590	-0.51458	0.00743	0.98018	-0.13953
2479.579	-0.64285	-0.02820	1.02831	-0.13247
2483.585	-0.67002	-0.03593	1.11090	-0.22131
2487.583	-0.72231	-0.04959	1.07877	-0.25011
2491.585	-0.62925	-0.07608	1.08974	-0.42595
2495.581	-0.64206	-0.01645	0.99568	-0.49287
2499.580	-0.65786	-0.01821	0.87577	-0.56906
2503.579	-0.51840	-0.04676	0.92631	-0.48520
2507.581	-0.15590	-0.03546	1.11961	-0.20738
2511.583	-0.36462	-0.11535	1.60102	-0.48125
2515.588	0.51088	-0.15391	2.71382	-0.52017
2519.618	1.39433	-0.11005	2.99297	-0.52498
2523.584	1.51806	-0.13908	3.17594	-0.36536
2527.585	1.63018	-0.12720	3.10205	-0.52028
2531.581	1.76289	-0.14239	3.12865	-0.61792
2535.580	1.83640	-0.09639	3.19343	-0.59826
2539.587	1.94327	-0.04167	3.29421	-0.57191
2543.581	2.06250	0.00333	3.31380	-0.55012
2547.583	2.12240	0.02386	3.39478	-0.66989
2551.580	2.14307	0.05446	3.40247	-0.61401
2555.585	2.08895	0.11863	3.48031	-0.53006
2559.590	2.06163	0.16708	3.46889	-0.10403
2563.582	2.09348	0.15654	3.35264	-0.25040
2567.585	2.18310	0.13503	3.29134	-0.47670
2571.581	2.25761	0.10051	3.32328	-0.46515
2575.584	2.26210	0.02369	3.39656	-0.56118
2579.580	2.04976	-0.07207	3.25830	-0.39490
2583.580	2.10059	0.00683	3.25300	-0.54846
2587.580	2.15152	0.01542	3.17408	-0.51308
2591.579	2.04624	-0.05809	3.19764	-0.47459
2595.585	2.00998	-0.16621	3.17327	-0.59869
2599.587	1.93348	-0.28399	3.12942	-0.62469
2603.835	1.98804	-0.43156	3.17933	-0.95860
2607.583	2.01275	-1.03012	3.28313	-1.18371
2611.580	1.77826	-2.01386	3.30490	-3.22681
2615.586	1.53565	-4.42388	3.43724	-3.95883
2619.581	1.58011	-4.87965	3.69444	-4.86171
2623.580	1.50398	-5.67535	3.54801	-5.55587
2627.576	1.47469	-6.29461	3.62536	-5.86638
2631.584	1.43932	-7.16753	3.56151	-6.73932
2635.582	1.43156	-7.40104	3.71945	-6.67820
2639.579	1.42434	-7.19469	3.74478	-6.74165
2643.584	1.32835	-6.99381	3.66194	-6.57075
2647.580	1.34182	-6.43492	3.56697	-6.67443
2651.579	1.33093	-6.60682	3.56114	-6.54584
2655.575	1.30337	-7.07422	3.49688	-6.46841
2659.577	1.40492	-6.65711	3.20647	-6.42060
2663.636	1.38394	-6.84415	3.29557	-6.51765
2667.586	1.38386	-6.66810	3.14538	-6.51319
2671.579	1.37674	-6.95459	3.12658	-6.66523
2675.582	1.40361	-6.77027	3.06451	-6.58696
2679.576	1.41209	-6.83846	2.93119	-6.53196
2683.584	1.42863	-6.98013	2.89745	-6.56515
2687.578	1.42714	-6.72417	2.76170	-6.55138
2691.581	1.45284	-6.83787	2.85428	-6.47669
2695.585	1.42397	-6.89455	2.79013	-6.57146
2699.581	1.45567	-6.87827	2.77629	-6.58395
2703.577	1.41921	-6.96411	2.84375	-6.60797
2707.578	1.44951	-6.97877	2.89834	-6.67086
2711.580	1.47709	-7.07588	3.12915	-6.66666
2715.582	1.48848	-7.03863	3.04571	-6.67910
2719.575	1.48791	-7.20513	3.25525	-6.66791
2723.587	1.48957	-7.19823	3.46629	-6.73215
2727.584	1.49564	-7.14023	3.28570	-6.72729
2731.580	1.49130	-7.23377	3.31175	-6.74840
2735.577	1.48243	-7.15956	3.29137	-6.74605
2739.615	1.53622	-7.33525	3.34452	-6.79698
2743.582	1.56253	-7.19102	3.32407	-6.72165
2747.578	1.54827	-7.26954	3.26035	-6.76950
2751.577	1.57138	-7.33994	3.14100	-6.80940
2755.579	1.61607	-7.21217	3.09889	-6.76078
2759.580	1.63822	-7.28271	3.07731	-6.74930
2763.578	1.61924	-7.30749	2.98554	-6.82525
2767.581	1.63849	-7.37974	3.00257	-6.78911
2771.578	1.69696	-7.30645	2.96673	-6.68746
2775.580	1.70013	-7.25880	2.95178	-6.73903
2779.575	1.69807	-7.26483	2.91193	-6.75760
2783.581	1.65671	-7.32981	2.88836	-6.70448
2787.578	1.59712	-7.40124	2.88373	-6.76959
2791.581	1.61022	-7.39489	2.87430	-6.67881
2795.581	1.54289	-7.28576	2.91020	-6.61229
2799.578	1.51814	-7.30997	2.88089	-6.64770
2803.575	1.41566	-7.31435	2.88782	-6.67356
2807.579	1.42603	-7.30582	2.88945	-6.70528
2811.605	1.33979	-7.30393	2.86024	-6.68848
2815.584	1.29762	-7.32470	2.85163	-6.76583
2819.584	1.26267	-7.46667	2.82333	-6.81952
2823.577	1.26728	-7.39665	2.77748	-6.77152
2827.579	1.31473	-7.32881	2.72734	-6.82476
2831.576	1.28172	-7.71040	2.75891	-6.78115
2835.582	1.14590	-7.16558	2.59973	-6.87399
2839.580	0.41986	-7.69273	2.12637	-7.04538
2843.577	-0.21244	-8.63339	2.34143	-7.79667
2847.575	0.07584	-9.56933	2.01702	-8.70269
2851.585	-0.25641	-9.96243	1.30536	-8.90729
2855.577	-0.61362	-9.91057	0.94785	-8.84775
2859.574	-0.77722	-10.22183	0.81171	-8.96358
2863.571	-0.66831	-10.24378	0.74342	-8.93984
2867.574	-0.64086	-10.02103	0.72022	-8.91947
2871.578	-0.53208	-10.07418	0.64469	-8.90074
2875.577	-0.52937	-10.02513	0.70402	-8.94966
2879.577	-0.47244	-9.96092	0.60622	-8.97612
2883.575	-0.49728	-9.98106	0.52319	-9.02218
2887.575	-0.46775	-9.96666	0.51890	-9.04976
2891.587	-0.44381	-9.96503	0.43966	-9.04836
2895.573	-0.29811	-9.91656	0.38261	-9.02082
2899.577	-0.25277	-9.91933	0.31843	-9.02428
2903.573	-0.17826	-9.82408	0.23721	-9.00032
2907.574	-0.14888	-9.73029	0.19050	-8.98122
2911.573	-0.08133	-9.62762	0.12277	-8.93964
2915.580	-0.02616	-9.57576	0.09711	-8.90999
2919.574	0.01035	-9.51245	0.04189	-8.87213
2923.576	0.01511	-9.49117	0.02050	-8.81456
2927.575	0.07393	-9.54453	0.06095	-8.78842
2931.578	0.08905	-9.52433	-0.00479	-8.79124
2935.582	0.06946	-9.49912	0.03013	-8.73189
2939.572	0.00449	-9.40897	0.05951	-8.73985
2943.572	0.00370	-9.44538	0.07731	-8.74546
2947.573	0.02584	-9.56252	0.14345	-8.77333
2951.581	0.04569	-9.55005	0.15650	-8.77204
2955.574	0.03286	-9.60997	0.26793	-8.83162
2959.576	0.01534	-9.54048	0.39343	-8.86388
2963.573	0.01613	-9.61524	0.47887	-8.83772
2967.574	0.04472	-9.64250	0.52500	-8.87439
2971.571	0.03814	-9.62789	0.55285	-8.89543
2975.578	-0.04073	-9.65994	0.48654	-8.88504
2979.583	-0.01380	-9.60040	0.46445	-8.94177
2983.574	-0.00027	-9.63376	0.48058	-8.98975
2987.575	-0.03832	-9.57223	0.44815	-9.05759
2991.573	-0.06356	-9.49257	0.45100	-9.11796
2995.575	-0.10622	-9.50651	0.36710	-9.16223
2999.572	-0.10374	-9.41894	0.28414	-9.18277
3003.573	-0.09374	-9.43065	0.12061	-9.14312
3007.577	-0.02700	-9.41605	0.05668	-9.15866
3011.582	-0.11855	-9.40092	0.00879	-9.15571
3015.584	-0.14441	-9.33937	-0.01407	-9.18571
3019.602	-0.11168	-9.34676	-0.00333	-9.18325
3023.580	-0.00588	-9.36206	-0.05966	-9.17309
3027.571	0.03048	-9.33228	-0.14630	-9.15200
3031.571	0.09242	-9.34287	-0.16953	-9.15267
3035.575	0.10816	-9.35455	-0.17395	-9.12856
3039.572	0.16228	-9.32651	0.02559	-9.12521
3043.569	0.20827	-9.33933	0.08972	-9.13046
3047.571	0.24200	-9.33428	0.09478	-9.15933
3051.572	0.22941	-9.31682	0.26642	-9.21046
3055.571	0.26388	-9.32016	0.30746	-9.25221
3059.578	0.29751	-9.32103	0.36469	-9.28515
3063.577	0.32965	-9.29670	0.39566	-9.29390
3067.577	0.30319	-9.28000	0.42549	-9.30810
3071.575	0.29443	-9.26396	0.42445	-9.32075
3075.578	0.27925	-9.26734	0.47041	-9.31949
3079.936	0.29448	-9.25535	0.51902	-9.29692
3083.578	0.27093	-9.26911	0.48398	-9.28656
3087.575	0.28364	-9.26845	0.45147	-9.28270
3091.570	0.25972	-9.27675	0.46751	-9.28673
3095.601	0.11228	-9.38227	0.44773	-9.26088
3099.570	0.13841	-9.34113	0.42328	-9.24145
3103.570	0.17898	-9.35026	0.41489	-9.25499
3107.570	0.14925	-9.35686	0.40777	-9.28077
3111.569	0.14230	-9.40889	0.42442	-9.32632
3115.570	0.12793	-9.42524	0.44083	-9.34116
3119.576	0.07686	-9.46445	0.44579	-9.33839
3123.572	0.14677	-9.54951	0.43418	-9.35641
3127.574	0.14809	-9.69138	0.36102	-9.38491
3131.568	0.13352	-9.69109	0.33382	-9.38706
3135.573	0.10840	-9.69801	0.34553	-9.40115
3139.576	0.18266	-9.65845	0.31801	-9.40149
3143.575	0.22127	-9.64671	0.26148	-9.42154
3147.573	0.26103	-9.64362	0.24852	-9.43500
3151.573	0.31419	-9.59509	0.19224	-9.42412
3155.568	0.34839	-9.58143	0.06487	-9.38806
3159.575	0.38303	-9.56417	0.08649	-9.38470
3163.596	0.33382	-9.56780	0.01953	-9.38543
3167.577	0.31233	-9.54532	-0.02119	-9.37167
3171.575	0.25867	-9.51010	-0.04514	-9.37176
3175.570	0.19184	-9.52274	-0.07249	-9.35819
3179.570	0.24093	-9.35794	-0.07522	-9.35729
3183.574	-0.06358	-6.38310	0.10801	-9.34971
3187.579	-0.66645	-6.17368	1.84723	-9.32067
3191.573	1.79234	-9.22866	3.37383	-9.31168
3195.574	4.13804	-9.23779	5.20730	-9.29863
3199.568	5.42183	-9.28056	7.66324	-9.32505
3203.568	6.81035	-9.03134	7.89995	-9.36201
3207.568	8.26325	-8.72242	10.69355	-9.32466
3211.570	8.99825	-8.65221	11.73305	-9.31323
3215.571	11.69447	-8.53888	13.44935	-9.26832
3219.573	14.38458	-8.56925	15.11866	-9.29142
3223.576	14.36986	-8.49706	16.29315	-9.26584
3227.570	14.36674	-8.21719	17.49293	-9.26334
3231.566	14.46640	-7.89345	17.98261	-9.27882
3235.573	14.61957	-7.74656	17.85933	-9.39776
3239.571	14.51416	-7.59695	17.25178	-9.42023
3243.569	14.27858	-7.53133	17.45057	-9.33338
3247.567	14.41534	-7.56503	17.04176	-9.32882
3251.567	14.34550	-7.51409	17.49593	-9.32736
3255.571	14.51942	-7.40023	17.70838	-9.28597
3259.574	14.46752	-7.21027	17.36029	-9.24614
3263.568	14.52444	-7.30807	17.46285	-9.21762
3267.574	14.50402	-7.29427	17.73804	-9.17703
3271.569	14.51132	-7.23606	17.75476	-9.19152
3275.565	14.40381	-7.32582	17.33752	-9.00801
3279.567	14.43885	-7.24480	17.31341	-9.00105
3283.566	14.37133	-7.21825	17.19495	-8.95247
3287.570	14.47855	-7.21898	17.36065	-8.91412
3291.565	14.40810	-7.19348	17.25067	-8.93548
3295.480	14.39876	-7.10305	17.17954	-8.75524
3299.439	14.44874	-7.04564	17.12215	-8.68041
3303.440	14.42167	-7.14633	17.01163	-8.78279
3307.571	14.44841	-7.12584	17.29584	-8.66381
3311.446	14.44422	-7.08861	16.85380	-8.58458
3315.445	14.44711	-7.12967	16.90588	-8.54740
3319.442	14.54074	-7.04348	16.79577	-8.55849
3323.442	14.51586	-6.96291	16.84366	-8.49663
3327.440	14.48404	-7.02479	16.76611	-8.38501
3331.438	14.49786	-7.02177	16.71617	-8.34179
3335.445	14.52833	-6.96437	16.75664	-8.24377
3339.441	14.58987	-6.99140	16.64562	-8.23141
3343.441	14.54149	-6.99948	16.52590	-8.23758
3347.443	14.50509	-6.97111	16.41806	-8.15262
3351.471	14.47173	-6.97047	16.43170	-8.14615
3355.453	14.46754	-6.99310	16.47648	-8.13367
3359.444	14.48597	-6.95303	16.36185	-7.98563
3363.440	14.46994	-6.99501	16.33621	-8.09293
3367.439	14.50625	-7.02142	16.32156	-8.05039
3371.441	14.44031	-7.06643	16.27019	-7.98343
3375.442	14.39692	-7.10906	16.28503	-8.01764
3379.440	14.35039	-7.12638	16.26621	-8.05451
3383.442	14.42265	-7.09981	16.21622	-8.01351
3387.441	14.45048	-7.04793	16.20705	-7.94201
3391.440	14.46749	-7.07882	16.25873	-7.87596
3395.453	14.48620	-7.05980	16.18304	-7.90473
3399.444	14.47513	-7.04306	16.09077	-7.82630
3403.443	14.45875	-6.96988	16.12907	-7.81365
3407.440	14.47615	-6.87444	16.06149	-7.74291
3411.442	14.49011	-6.93370	15.89843	-7.60287
3415.443	14.47859	-6.80554	15.98296	-7.60167
3419.441	14.83861	-6.42372	16.08168	-7.45694
3423.445	15.53967	-4.29387	16.15314	-6.70967
3427.439	15.92037	-3.06261	16.38901	-5.17441
3431.443	16.05871	-2.27836	16.07226	-3.46768
3435.441	16.22624	-0.58403	16.28432	-3.04994
3439.450	16.12497	-0.31563	15.79103	-1.84742
3443.441	15.85485	0.83010	16.10660	-0.50890
3447.443	15.84378	1.83135	15.65083	-0.26926
3451.439	15.60309	2.21425	15.77221	0.31876
3455.440	15.93231	2.39428	15.43999	0.62592
3459.439	15.72168	2.15975	15.82662	0.17098
3463.442	15.95789	2.27746	15.52126	0.23833
3467.444	15.97158	1.87135	15.97782	0.30762
3471.438	15.62220	2.18417	15.73157	0.43703
3475.444	15.81004	2.14210	15.94355	0.22512
3479.447	15.73384	2.11316	15.68748	0.51190
3483.441	15.83276	2.33150	15.93490	0.52153
3487.442	15.86606	2.24661	15.43150	0.58001
3491.446	15.78005	2.39570	15.82028	0.64396
3495.442	15.75297	2.19471	15.88484	0.63809
3499.438	15.85455	2.21347	15.97429	0.69888
3503.439	15.80477	2.15091	15.86895	0.85453
3507.481	15.76235	2.19275	15.99704	0.86349
3511.440	15.84713	2.35265	16.00872	0.57450
3515.438	15.86406	2.26876	15.82260	0.52607
3519.454	15.90047	2.20602	15.68969	0.56414
3523.448	15.94029	2.09010	15.70779	0.63185
3527.440	15.83186	1.99322	15.84472	0.66520
3531.444	15.79710	2.06054	15.96367	0.72992
3535.438	15.79570	1.99933	15.99415	0.85362
3539.466	15.83590	2.01240	15.61647	0.65932
3543.478	15.81038	2.09914	15.48909	0.52023
3547.451	15.85979	2.16238	15.67936	0.45680
3551.440	15.92873	2.18796	15.73534	0.41203
3555.464	16.00629	2.13760	15.71710	0.48743
3559.438	16.14029	2.23157	15.62510	0.52264
3563.449	16.25097	2.24957	15.65640	0.52935
3567.450	16.31998	2.35392	15.66680	0.66315
3571.439	16.41402	2.39621	15.74424	0.63401
3575.438	16.19398	2.37670	15.71855	0.69316
3579.440	16.13061	2.31362	15.67915	0.67620
3583.437	16.17835	2.32655	15.70186	0.69145
3587.435	16.13951	2.32531	15.78099	0.78349
3591.442	16.01665	2.17920	15.77639	0.80744
3595.441	15.94729	2.20529	15.76065	0.78087
3599.439	15.76591	2.22667	15.75279	0.79013
3603.447	15.84059	2.11461	15.74830	0.83273
3607.438	15.90819	2.09452	15.77421	0.85350
3611.437	15.73267	1.97283	15.77256	0.82809
3615.437	15.69160	1.90355	15.78327	0.71891
3619.441	15.72444	1.90673	15.78906	0.72372
3623.439	15.74007	1.94419	15.78949	0.67846
3627.438	15.77853	2.01600	15.79806	0.66789
3631.443	15.76237	2.02333	15.78317	0.65230
3635.440	15.75162	2.07873	15.79016	0.65527
3639.439	15.81452	2.05253	15.81867	0.73532
3643.437	15.90658	2.06599	15.82527	0.75179
3647.444	15.95718	1.98642	15.82550	0.79470
3651.436	15.98370	1.72628	15.82014	0.78239
3655.438	16.01018	1.83570	15.82488	0.63228
3659.436	16.11549	1.72185	15.80863	0.70672
3663.438	16.10706	1.81406	15.83340	0.76078
3667.440	16.12387	1.76091	15.82972	0.74016
3671.436	16.10259	1.70877	15.87173	0.79629
3675.442	16.11361	1.79924	15.87931	0.83590
3679.452	16.13262	1.77960	15.89207	0.81883
3683.445	16.13171	1.78095	15.89049	0.79843
3687.441	16.13718	1.78343	15.86682	0.76407
3691.441	16.06777	1.76213	15.87733	0.69171
3695.444	16.02903	1.84302	15.90660	0.64538
3699.441	15.97629	1.90278	15.91815	0.66199
3703.437	15.93081	1.97133	15.93394	0.61134
3707.437	15.89751	1.98925	15.97755	0.58808
3711.437	15.88500	2.03898	15.96064	0.54685
3715.435	15.87024	2.11012	15.94451	0.49286
3719.434	15.96874	2.16147	15.87625	0.49451
3723.435	15.60945	2.28054	15.56747	0.51330
3727.443	13.53392	2.39367	13.58800	0.52506
3731.442	12.99555	2.35467	12.86157	0.67298
3735.433	11.75258	2.76562	11.92077	0.84577
3739.454	11.30054	2.52208	11.52662	0.97857
3743.437	10.60056	2.36549	10.96681	1.10495
3747.433	9.99012	2.51249	10.17021	1.21669
3751.438	9.84479	2.55485	9.95033	1.29717
3755.436	9.91746	2.54629	10.15636	1.36374
3759.454	10.15208	2.48916	10.38769	1.41837
3763.439	10.25829	2.43388	10.34227	1.47337
3767.434	10.16615	2.52349	10.28003	1.53679
3771.439	10.01171	2.58676	10.20096	1.57332
3775.438	10.00851	2.58061	10.16726	1.64053
3779.437	9.89631	2.54443	10.09390	1.71352
3783.432	9.92466	2.59915	9.96742	1.88351
3787.440	9.90072	2.61422	10.04829	1.92129
3791.435	10.02285	2.56547	10.11887	1.98450
3795.433	10.05313	2.54282	10.13068	2.05056
3799.439	10.09128	2.50181	10.26614	1.99179
3803.435	10.08840	2.36583	10.20551	1.88827
3807.434	9.99631	2.42629	10.21923	1.89906
3811.437	9.96923	2.43897	10.21793	1.88116
3815.433	9.96053	2.43549	10.24134	1.80862
3819.437	9.93887	2.37069	10.21291	1.81064
3823.436	9.99075	2.30432	10.19618	1.75891
3827.432	10.00603	2.30888	10.24687	1.78267
3831.440	10.00422	2.30281	10.25050	1.73792
3835.437	9.93901	2.30671	10.25579	1.70132
3839.434	9.91589	2.38854	10.20781	1.67646
3843.430	9.79170	2.44444	10.14650	1.69990
3847.433	9.80889	2.61108	10.02738	1.72576
3851.435	9.79855	2.62661	10.01508	1.73839
3855.438	9.83520	2.57046	9.95986	1.74147
3859.431	9.90958	2.55952	9.95473	1.75473
3863.432	9.96795	2.56703	9.94122	1.71335
3867.433	9.96174	2.57509	9.97089	1.72572
3871.438	9.91006	2.55622	9.95343	1.70945
3875.434	9.84431	2.42218	9.90457	1.67539
3879.442	9.80026	2.46305	9.89092	1.66482
3883.438	9.71085	2.36244	9.92584	1.64513
3887.432	9.83067	2.37797	9.94871	1.58108
3891.438	9.98100	2.30671	9.94734	1.54069
3895.472	10.08154	2.28951	9.97609	1.52507
3899.441	10.06051	2.25717	9.99195	1.54255
3903.433	10.08604	2.26031	9.96619	1.60396
3907.432	10.02875	2.25812	9.95849	1.69971
3911.432	9.92921	2.25571	9.92748	1.70714
3915.433	9.94486	2.26904	9.88885	1.74576
3919.435	9.97715	2.36337	9.91045	1.73403
3923.433	10.01337	2.36949	9.82298	1.67629
3927.432	9.98995	2.42856	9.76150	1.72030
3931.434	9.95114	2.48584	9.69829	1.74853
3935.437	9.96347	2.48936	9.66451	1.79652
3939.436	9.95752	2.51513	9.72824	1.89317
3943.437	9.90797	2.55142	9.72544	1.94395
3947.435	9.86358	2.60371	9.74229	2.01454
3951.500	9.79850	2.68366	9.72079	2.11997
3955.441	9.80484	2.70973	9.85828	2.00861
3959.434	9.77281	2.78179	9.89545	2.03887
3963.469	9.75128	2.83677	10.03874	1.96615
3967.434	9.69964	2.88771	10.08075	1.89524
3971.427	9.69000	2.88719	10.01455	1.69524
3975.430	9.68968	2.90158	10.13840	1.77939
3979.436	9.63674	2.90568	10.19661	1.43108
3983.433	9.71886	2.86664	10.30245	1.43417
3987.430	11.55955	2.81991	10.87486	1.52194
3991.432	11.83179	2.77371	13.27621	1.23044
3995.426	13.38621	2.61760	15.30762	0.89332
3999.429	13.86993	2.26689	15.22622	0.21313
4003.430	14.02489	1.97423	15.22084	-0.00753
4007.434	14.22351	1.47905	15.26425	-0.46630
4011.435	14.34317	1.27567	15.22229	-0.54513
4015.432	14.38544	1.27873	15.19791	-0.51035
4019.495	14.31323	1.35586	15.11093	-0.44366
4023.436	14.30853	1.40322	15.06623	-0.45913
4027.431	14.43470	1.39466	15.07778	-0.39726
4031.429	14.39257	1.39442	15.06660	-0.39082
4035.435	14.31822	1.25750	15.05751	-0.42856
4039.433	14.42290	1.22578	15.08391	-0.47961
4043.428	14.39608	1.26334	15.13850	-0.48244
4047.429	14.41881	1.26129	15.16414	-0.48621
4051.431	14.39066	1.35496	15.23422	-0.46045
4055.430	14.36467	1.41983	15.23572	-0.43299
4059.427	14.35619	1.45975	15.26603	-0.47006
4063.434	14.35854	1.52557	15.25630	-0.49123
4067.437	14.37634	1.54583	15.30281	-0.53601
4071.432	14.34096	1.53024	15.34707	-0.62294
4075.429	14.32672	1.52052	15.39564	-0.63770
4079.432	14.29555	1.39093	15.40830	-0.67907
4083.427	14.32474	1.20875	15.38835	-0.70120
4087.429	14.30806	1.05189	15.35745	-0.72730
4091.429	14.31650	1.08822	15.36057	-0.72408
4095.425	14.29156	0.93764	15.35784	-0.67016
4099.429	14.29419	0.94943	15.36424	-0.61278
4103.439	14.25706	0.93218	15.40163	-0.61653
4107.433	14.24720	0.98529	15.55821	-0.60515
4111.429	14.25389	1.22028	15.54902	-0.73946
4115.431	14.24823	1.24361	15.50403	-0.74062
4119.432	14.23249	0.98186	15.42119	-0.78621
4123.429	14.22141	0.89945	15.48232	-0.66729
4127.431	14.17878	0.90789	15.50467	-0.66224
4131.431	14.17775	0.89110	15.54559	-0.56624
4135.430	14.19431	0.93391	15.55943	-0.49118
4139.434	14.19926	1.01191	15.65463	-0.59637
4143.436	14.22507	1.22730	15.60701	-0.98135
4147.430	14.22207	1.36014	15.61633	-0.92206
4151.428	14.21176	0.91599	15.53631	-0.90629
4155.313	14.17726	0.96478	15.53071	-0.78029
4159.305	14.20033	0.84971	15.51847	-0.60007
4163.316	14.20486	0.83991	15.50110	-0.51419
4167.309	14.20926	0.88414	15.55043	-0.50198
4171.308	14.26373	1.00614	15.53515	-0.35792
4175.303	14.25608	1.10139	15.41753	-0.43741
4179.305	14.26914	1.22971	15.27737	-0.79766
4183.303	14.26921	1.40893	15.12717	-0.86773
4187.307	14.25811	1.31888	15.16807	-0.76174
4191.313	14.28450	1.28955	15.06542	-0.67186
4195.306	14.43982	1.15567	15.09310	-0.76460
4199.310	14.56806	1.18298	15.04253	-0.83676
4203.302	14.53735	1.17771	15.04878	-0.83904
4207.301	14.82555	1.18630	15.06838	-0.85468
4211.308	15.01131	1.17390	15.03566	-0.87746
4215.303	14.85894	1.13147	14.99315	-0.96928
4219.301	14.71494	0.97663	15.10459	-1.07921
4223.302	14.53670	0.23553	15.37019	-1.16434
4227.301	14.41462	-1.56495	15.65368	-2.69605
4231.307	14.03295	-3.21933	15.74939	-4.34064
4235.312	14.52002	-3.64226	15.44391	-4.65394
4239.307	14.30296	-3.97877	15.34444	-5.39219
4243.304	14.01784	-4.80612	15.47063	-6.17236
4247.306	13.64420	-5.53851	15.43058	-6.37256
4251.300	13.56810	-5.77485	15.41946	-6.54780
4255.301	13.58374	-5.60143	15.30794	-6.26585
4259.305	13.56983	-5.33583	15.26143	-6.28952
4263.303	13.52747	-5.18628	15.12671	-6.13045
4267.301	13.50394	-5.28501	15.24672	-6.10516
4271.303	13.55208	-5.34545	15.06813	-6.17479
4275.306	13.55377	-5.36332	15.06572	-6.19099
4279.300	13.54000	-5.36028	15.02469	-6.20090
4283.300	13.55510	-5.39581	14.99380	-6.23085
4287.302	13.52207	-5.37478	14.93798	-6.20999
4291.301	13.69572	-5.37446	14.94342	-6.18036
4295.301	13.70889	-5.31763	14.88285	-6.17357
4299.301	13.80800	-5.28582	14.87559	-6.15210
4303.302	13.87110	-5.28140	14.85268	-6.15073
4307.304	13.93293	-5.28268	14.76746	-6.18056
4311.299	13.92989	-5.31434	14.77356	-6.15438
4315.307	13.90527	-5.30564	14.78721	-6.17521
4319.305	13.86156	-5.32396	14.83645	-6.06049
4323.302	13.83121	-5.31680	14.82089	-6.01555
4327.305	13.82094	-5.32220	14.85317	-6.01029
4331.302	13.77094	-5.35965	14.95445	-5.87464
4335.302	13.77839	-5.32731	14.95125	-5.89267
4339.300	13.74505	-5.32229	14.90014	-5.86600
4343.300	13.75212	-5.29126	15.00311	-5.87693
4347.304	13.72603	-5.34649	14.97546	-5.90113
4351.300	13.75746	-5.34003	14.99825	-5.89559
4355.301	13.73507	-5.32041	15.03087	-5.79421
4359.305	13.86441	-5.27225	14.98368	-5.73025
4363.304	13.79342	-5.26583	14.88924	-5.69333
4367.300	13.83936	-5.31114	14.74216	-5.73762
4371.339	13.84651	-5.35118	14.72520	-5.67653
4375.301	13.91937	-5.29588	14.53037	-5.72241
4379.296	13.91830	-5.18726	14.55751	-5.72771
4383.304	13.89451	-5.18681	14.56750	-5.77693
4387.302	13.89882	-5.27716	14.52202	-5.78401
4391.297	13.87367	-5.27656	14.66338	-5.70836
4395.301	13.98288	-5.21660	14.62535	-5.70132
4399.302	13.93312	-5.24192	14.54032	-5.75213
4403.299	13.85620	-5.28813	14.49904	-5.81230
4407.299	13.89491	-5.31937	14.47140	-5.86231
4411.301	13.89087	-5.20553	14.47999	-5.90351
4415.297	13.87084	-5.19375	14.50393	-5.90616
4419.298	13.81088	-5.19573	14.69471	-5.87009
4423.299	13.64544	-5.31269	14.42083	-5.83975
4427.299	12.15505	-5.37563	13.04021	-5.97183
4431.298	9.98673	-5.39109	11.16832	-6.01378
4435.298	7.51639	-5.45022	9.36032	-5.93945
4439.301	5.58120	-5.58290	7.87270	-5.89809
4443.304	4.73032	-5.82999	5.96826	-5.89061
4447.303	2.38514	-6.15973	3.80799	-6.02340
4451.297	1.97909	-6.30573	3.10950	-5.89129
4455.297	-0.59389	-6.32769	0.82014	-5.86895
4459.297	-2.04153	-6.31251	-0.52575	-5.95071
4463.298	-3.87077	-6.46520	-2.58177	-6.01872
4467.301	-5.65872	-6.58011	-3.90051	-5.96940
4471.298	-5.64508	-6.61277	-4.21948	-5.92472
4475.303	-5.69411	-6.68889	-4.41282	-5.77805
4479.300	-5.69652	-6.68095	-4.56701	-5.84168
4483.302	-5.76367	-6.76655	-4.67010	-5.89730
4487.298	-5.64739	-6.75018	-4.63807	-5.91984
4491.298	-5.58771	-6.76015	-4.72973	-5.99803
4495.302	-5.70352	-6.78408	-4.67130	-6.14858
4499.298	-5.78288	-6.78575	-4.64120	-6.08480
4503.296	-5.72441	-6.79975	-4.78203	-6.04962
4507.340	-5.79801	-6.82588	-4.86519	-6.05574
4511.299	-5.89844	-6.81112	-4.82395	-6.07307
4515.295	-5.87273	-6.75503	-4.86872	-6.11062
4519.297	-5.96817	-6.75856	-4.93590	-6.19618
4523.305	-5.86848	-6.79991	-4.98632	-6.27467
4527.303	-5.84723	-6.76677	-4.91060	-6.38126
4531.296	-5.94153	-6.80889	-4.86002	-6.32104
4535.297	-5.83365	-6.85282	-4.98864	-6.28282
4539.300	-5.86963	-6.81964	-4.85793	-6.18250
4543.300	-5.90583	-6.92437	-4.83984	-6.20991
4547.297	-5.93225	-6.85384	-4.93336	-6.21984
4551.297	-5.89547	-6.86106	-4.86623	-6.25547
4555.299	-5.91840	-6.89009	-4.90447	-6.25798
4559.301	-5.92788	-6.93102	-4.79965	-6.33392
4563.344	-5.81884	-6.93718	-4.78770	-6.41183
4567.311	-5.86278	-6.91112	-4.97822	-6.38595
4571.299	-5.91494	-6.94474	-4.70155	-6.43579
4575.296	-5.93979	-6.88956	-4.78747	-6.38239
4579.302	-5.95744	-6.87326	-4.96654	-6.35530
4583.301	-5.96370	-6.85628	-5.04477	-6.35716
4587.293	-5.97440	-6.83073	-4.79396	-6.29687
4591.333	-5.97963	-6.87620	-4.94723	-6.26433
4595.296	-6.00555	-6.81185	-5.24658	-6.23040
4599.296	-5.95206	-6.80496	-5.07237	-6.30865
4603.299	-5.94931	-6.79849	-5.04021	-6.23801
4607.302	-5.96893	-6.84437	-5.05521	-6.21206
4611.294	-5.98513	-6.78927	-4.96226	-6.18940
4615.294	-5.92056	-6.77015	-5.15559	-6.18898
4619.300	-5.88925	-6.74957	-5.15413	-6.21497
4623.296	-5.83176	-6.74760	-5.17870	-6.24570
4627.298	-5.83532	-6.73259	-5.17262	-6.29838
4631.300	-5.88579	-6.71326	-5.15768	-6.34957
4635.297	-5.84949	-6.67844	-5.17065	-6.43624
4639.293	-5.81486	-6.63165	-5.14047	-6.49746
4643.299	-5.70841	-6.52115	-5.19406	-6.51518
4647.305	-5.69399	-6.55692	-5.29162	-6.57582
4651.302	-5.71610	-6.51874	-5.26078	-6.68151
4655.295	-5.67755	-6.55484	-5.21936	-6.69887
4659.293	-5.76470	-6.56248	-5.22375	-6.72318
4663.300	-5.86263	-6.56386	-5.14168	-6.67359
4667.297	-5.89827	-6.53203	-5.14741	-6.70097
4671.295	-5.86344	-6.50881	-5.20922	-6.68411
4675.295	-5.90045	-6.45179	-5.26455	-6.69729
4679.300	-5.90858	-6.48957	-5.12078	-6.61825
4683.296	-5.35086	-6.07775	-4.67695	-6.50729
4687.295	-3.71644	-5.40990	-3.02056	-4.88291
4691.302	-3.01730	-3.29684	-1.80501	-4.63226
4695.298	-1.70427	-2.70126	-1.41271	-2.87038
4699.295	-1.17428	-1.80906	-1.01710	-1.68084
4703.299	-0.52771	0.19237	-0.39325	-0.63791
4707.294	0.37157	0.68303	0.54714	-0.36086
4711.293	0.64734	1.35481	1.15922	0.33286
4715.300	1.20231	2.05094	0.98479	0.73196
4719.294	1.16498	2.14736	1.09257	0.60604
4723.293	0.99407	1.77054	1.13397	0.50284
4727.293	1.31322	1.12076	1.13660	0.42818
4731.298	1.26996	1.31906	1.26718	0.44776
4735.297	1.32421	1.42390	1.42650	0.60673
4739.299	1.30139	1.65501	1.45472	0.51176
4743.298	1.32044	1.79583	1.51248	0.58771
4747.294	1.37044	1.87803	1.55703	0.62932
4751.297	1.44428	2.04754	1.61989	0.67267
4755.291	1.53696	2.08442	1.61600	0.69616
4759.296	1.59631	1.89710	1.69812	0.70477
4763.296	1.66720	1.92090	1.83543	0.75995
4767.293	1.66395	1.78014	1.92114	0.78050
4771.293	1.62282	1.67197	2.04513	0.87608
4775.303	1.61679	1.71700	2.26807	0.90323
4779.295	1.64588	1.68821	2.39289	0.89136
4783.297	1.63100	1.73788	2.34052	0.82772
4787.291	1.59569	1.71620	2.35960	0.77985
4791.289	1.59465	1.84258	2.35647	0.57828
4795.294	1.58718	1.81810	2.30400	0.52708
4799.292	1.56412	1.74146	2.38125	0.40277
4803.299	1.51521	1.82176	2.39933	0.47918
4807.299	1.47846	1.77960	2.34386	0.50333
4811.294	1.46593	1.82763	2.31958	0.50823
4815.322	1.49666	1.87934	2.28574	0.50581
4819.295	1.53426	1.92618	2.24079	0.51911
4823.292	1.54830	1.93761	2.19346	0.52675
4827.290	1.60833	1.95105	2.16471	0.54506
4831.291	1.66415	1.95933	2.14057	0.60143
4835.292	1.65726	1.92344	2.09437	0.66794
4839.291	1.66413	1.87778	2.10359	0.69140
4843.290	1.68478	1.85131	2.09715	0.74151
4847.290	1.66720	1.83860	2.06238	0.79016
4851.293	1.67169	1.78996	2.04624	0.82419
4855.297	1.63021	1.72021	2.00155	0.85286
4859.296	1.70415	1.75350	1.92726	0.85719
4863.293	1.67201	1.67640	1.84892	0.84680
4867.294	1.67417	1.71050	1.85370	0.82761
4871.290	1.68002	1.71709	1.87542	0.86596
4875.294	1.66237	1.76619	1.83501	0.88584
4879.291	1.64766	1.77901	1.87830	0.85809
4883.293	1.65813	1.84176	1.82775	0.91063
4887.291	1.65686	1.85632	1.82961	0.89844
4891.291	1.68352	1.86359	1.88293	0.86154
4895.286	1.70690	1.84548	1.93147	0.81376
4899.300	1.74236	1.84061	1.91690	0.73421
4903.296	1.66413	1.81619	1.94816	0.71359
4907.290	1.69530	1.88725	1.91908	0.74996
4911.290	1.66475	1.90519	1.84473	0.78130
4915.289	1.58373	1.92075	1.88293	0.79020
4919.294	1.59345	1.91849	1.97327	0.78134
4923.293	1.69800	1.87807	1.92627	0.79740
4927.289	1.70611	1.89054	1.90604	0.83553
4931.287	1.69383	1.93990	1.92718	0.84776
4935.295	1.71536	1.92936	1.91752	1.01210
4939.297	2.07011	1.85286	2.45723	1.05602
4943.293	3.69321	1.91225	3.71048	1.06223
4947.331	4.03589	1.87273	5.24060	1.17360
4951.303	4.40470	1.93027	6.90165	1.34782
4955.291	4.93575	1.96249	7.09128	1.29340
4959.288	4.87170	1.93030	6.95912	1.29413
4963.295	4.91982	1.99441	6.75793	1.25221
4967.291	4.75580	2.04119	6.58246	1.32275
4971.288	4.81096	2.01326	6.48316	1.32287
4975.288	5.14431	2.08861	6.39793	1.35374
4979.294	5.16098	2.18541	6.13684	1.34071
4983.293	5.27198	2.27239	6.01540	1.36759
4987.296	5.26450	2.37471	6.14354	1.37801
4991.290	5.29300	2.36598	5.99816	1.36151
4995.293	5.33423	2.40818	5.98491	1.32400
4999.290	5.24961	2.49659	5.97119	1.29360
5003.290	5.28689	2.46609	5.97205	1.29014
5007.294	5.31120	2.44517	5.91263	1.26676
5011.167	5.38085	2.40649	5.88363	1.21559
5015.168	5.42557	2.37387	5.91027	1.17595
5019.165	5.38747	2.36340	5.89868	1.18479
5023.168	5.40897	2.36297	6.01763	1.25701
5027.223	5.42252	2.33232	6.08087	1.23913
5031.178	5.41726	2.28753	6.04468	1.28765
5035.164	5.41895	2.33702	6.08414	1.32568
5039.163	5.42338	2.31184	6.04426	1.29871
5043.163	5.44495	2.24959	6.04367	1.41998
5047.163	5.45604	2.27296	5.97533	1.52361
5051.164	5.39812	2.27526	5.91712	1.52205
5055.166	5.22909	2.25873	5.90976	1.49317
5059.161	5.32848	2.29896	5.89750	1.52324
5063.168	5.34567	2.24976	5.80148	1.53501
5067.163	5.25082	2.09948	5.82874	1.50917
5071.169	5.32321	2.10440	5.99208	1.44817
5075.168	5.32183	1.99676	6.25757	1.52444
5079.162	5.40139	1.94111	6.26645	1.51200
5083.160	5.50400	1.93358	6.05651	1.47254
5087.162	5.46074	1.90820	6.05000	1.40534
5091.167	5.42156	1.82883	6.05643	1.34909
5095.163	5.45762	1.75293	6.01937	1.36158
5099.163	5.45486	1.81761	5.96169	1.41421
5103.163	5.43661	1.72328	5.87867	1.47905
5107.164	5.38449	1.70415	5.98486	1.62382
5111.172	5.36275	1.80150	5.97013	1.71914
5115.166	5.34917	1.87353	5.93775	1.74420
5119.161	5.31270	1.97987	5.94042	1.75992
5123.166	5.18678	2.01734	5.92331	1.80983
5127.162	5.19738	1.99998	5.95621	1.83505
5131.165	5.31969	2.09925	6.04185	1.92933
5135.167	6.62733	2.24962	6.60967	1.95012
5139.161	7.31631	2.25407	7.78479	1.90052
5143.167	7.51361	2.07055	8.30026	1.82660
5147.165	7.75719	2.24534	8.27861	1.68424
5151.162	7.70468	2.25732	7.82552	1.71119
5155.167	7.58695	2.33784	7.42317	1.65051
5159.166	7.51966	2.35892	7.36994	1.61884
5163.174	7.54364	2.35116	7.80762	1.47796
5167.165	7.46885	2.39881	7.63596	1.47334
5171.162	7.34433	2.36780	7.63686	1.38997
5175.163	7.34992	2.35783	7.67474	1.31547
5179.161	7.37050	2.32594	7.63635	1.23044
5183.162	7.28984	2.35571	7.75870	1.23441
5187.160	7.17133	2.36057	7.69064	1.21603
5191.167	7.21410	2.38456	7.60526	1.23651
5195.172	7.20856	2.49006	7.54447	1.22846
5199.170	7.19302	2.47760	7.54384	1.31767
5203.164	7.19864	2.46917	7.50034	1.31255
5207.161	7.23088	2.42266	7.36144	1.45112
5211.161	7.19549	2.40112	7.26483	1.45291
5215.165	7.20003	2.38737	7.27812	1.62615
5219.162	7.18139	2.33009	7.19874	1.65284
5223.165	7.16170	2.24465	7.25138	1.62945
5227.189	7.18731	2.16853	7.16349	1.65735
5231.166	7.15054	2.11370	7.14565	1.72598
5235.167	7.18799	2.04518	7.26627	1.92234
5239.164	7.21555	1.98724	7.30432	2.00428
5243.157	7.15770	1.89226	7.42424	2.01321
5247.159	7.19781	1.90648	7.45496	2.12149
5251.162	7.17783	1.84595	7.53476	2.06228
5255.163	7.19825	1.80425	7.60446	2.10342
5259.165	7.26168	1.73923	7.60751	2.04626
5263.161	7.31909	1.69850	7.68693	2.09273
5267.160	7.33396	1.72336	7.69069	2.13558
5271.159	7.38619	1.70142	7.75341	2.17178
5275.162	7.43266	1.68693	7.80677	2.18023
5279.165	7.46526	1.70601	7.81744	2.04985
5283.163	7.49261	1.69389	7.89352	1.98828
5287.156	7.52815	1.70532	7.92213	2.01819
5291.158	7.57220	1.67940	8.01533	1.90010
5295.162	7.58934	1.67158	8.04360	1.83771
5299.156	7.64030	1.69494	8.14665	1.82687
5303.158	7.63806	1.73291	8.21534	1.77395
5307.160	7.59193	1.74063	8.32089	1.72978
5311.161	7.56315	1.69896	8.38631	1.68375
5315.158	7.57191	1.71868	8.42224	1.64730
5319.168	7.57252	1.69808	8.41582	1.57499
5323.362	7.56598	1.69245	8.42080	1.59926
5327.163	7.51037	1.61815	8.34322	1.65660
5331.162	7.49649	1.62394	8.29433	1.56354
5335.157	7.42624	1.61034	8.13225	1.55786
5339.157	7.37343	1.60615	7.99710	1.62929
5343.159	7.28175	1.58301	7.75948	1.64550
5347.158	7.25120	1.55981	7.71854	1.71467
5351.157	7.20526	1.55211	7.47722	1.66869
5355.158	7.19009	1.56264	7.45433	1.67087
5359.158	7.12598	1.58252	7.39991	1.62595
5363.167	7.02714	1.61556	7.38266	1.62490
5367.162	7.03054	1.58605	7.35307	1.55089
5371.165	7.05875	1.61747	7.31228	1.47872
5375.159	7.01793	1.61416	7.28334	1.45191
5379.162	7.07368	1.61325	7.28034	1.38374
5383.165	7.13111	1.61280	7.34255	1.34411
5387.159	7.28581	1.60014	7.33647	1.34038
5391.160	7.44899	1.55092	7.39640	1.31607
5395.161	7.42183	1.55831	7.43820	1.31331
5399.159	7.30456	1.59303	7.46948	1.42309
5403.163	7.41441	1.58473	7.46094	1.46305
5407.158	7.40543	1.67121	7.48666	1.58806
5411.159	7.45082	2.12328	7.56047	1.57637
5415.161	7.42519	2.06442	7.59439	1.69278
5419.157	7.46821	2.31644	7.58278	1.76518
5423.157	7.48234	2.38676	7.52540	1.80727
5427.159	7.52923	2.26784	7.54310	1.84817
5431.157	7.49703	2.36706	7.49651	1.79516
5435.158	7.48634	2.27178	7.52488	1.77649
5439.158	7.48429	2.27366	7.57276	1.79401
5443.165	7.54479	2.20432	7.55901	1.75260
5447.159	7.63116	2.20349	7.59683	1.71994
5451.154	7.67301	2.17413	7.61785	1.67755
5455.157	7.74103	2.18423	7.60105	1.65754
5459.157	7.78920	2.07160	7.57908	1.61925
5463.159	7.83451	1.93892	7.62411	1.58733
5467.155	7.85840	1.87488	7.66677	1.55809
5471.160	7.86642	1.86476	7.68683	1.51148
5475.155	7.84978	1.75595	7.70109	1.48180
5479.158	7.85957	1.73515	7.68564	1.48813
5483.155	7.83142	1.70541	7.65507	1.50369
5487.167	7.81695	1.66567	7.64106	1.48944
5491.158	7.71372	1.67149	7.64332	1.45146
5495.152	7.70509	1.63314	7.65768	1.48161
5499.159	7.69834	1.62005	7.67901	1.48872
5503.156	7.66751	1.55607	7.72295	1.49669
5507.160	7.64937	1.56354	7.70616	1.56119
5511.160	7.61638	1.56925	7.71835	1.65236
5515.158	7.53703	1.58263	7.71754	1.74472
5519.154	7.47358	1.59604	7.74294	1.91251
5523.157	7.33535	1.58915	7.65680	1.81523
5527.163	7.31753	1.58209	7.50952	1.72363
5531.154	7.21862	1.61560	7.45562	1.78871
5535.154	7.19688	1.57491	7.31945	1.77367
5539.155	7.18291	1.59296	7.32463	1.77286
5543.154	7.01257	1.60701	7.10582	1.75419
5547.152	6.79029	1.61834	6.97348	1.75538
5551.160	5.43020	1.62693	6.75832	1.64256
5555.156	4.60762	1.62289	5.67025	0.80100
5559.158	4.29581	1.42449	5.49537	0.02548
5563.154	4.22856	1.03065	5.30217	-0.53480
5567.158	4.03288	0.33617	4.87406	-0.99243
5571.164	3.85587	-0.06803	4.53956	-0.98015
5575.152	3.87374	-0.27477	4.24860	-0.83156
5579.160	3.92791	-0.26179	4.24112	-0.80969
5583.155	4.01112	-0.37484	4.18746	-0.74414
5587.154	3.99679	-0.40306	4.18803	-0.74416
5591.160	4.03125	-0.48352	4.15505	-0.75968
5595.155	3.96471	-0.44908	4.17161	-0.83814
5599.153	3.95051	-0.47470	4.21044	-0.90080
5603.153	4.06969	-0.54598	4.18001	-0.94630
5607.155	4.08340	-0.61455	4.15329	-0.99626
5611.159	4.10720	-0.65088	4.13870	-1.00245
5615.155	4.15078	-0.68928	4.22592	-1.04366
5619.159	4.18299	-0.77388	4.29204	-1.11134
5623.155	4.22802	-0.84828	4.37001	-1.08666
5627.153	4.20662	-0.86052	4.35973	-1.05762
5631.156	4.17862	-0.98015	4.44847	-0.89034
5635.156	4.00070	-0.98128	4.50027	-0.78242
5639.153	3.96207	-1.09619	4.54284	-0.75560
5643.153	3.74345	-1.19483	4.58114	-0.58242
5647.158	3.80186	-1.23160	4.58072	-0.41454
5651.163	3.73987	-1.26661	4.59075	-0.33042
5655.161	3.62778	-1.30799	4.59702	-0.28782
5659.153	3.61421	-1.35233	4.59605	-0.22092
5663.201	3.48823	-1.27648	4.57159	-0.23024
5667.155	3.44762	-1.31861	4.52456	-0.14898
5671.150	3.38563	-1.27270	4.36540	-0.14066
5675.151	3.34799	-1.14369	4.25800	-0.20890
5679.153	3.29745	-1.18791	4.04320	-0.32469
5683.151	3.26121	-1.07033	4.24100	-0.27586
5687.149	3.29867	-0.93034	4.11648	-0.56568
5691.157	3.30490	-0.82118	4.03559	-0.57190
5695.155	3.32263	-0.71910	3.90647	-0.64460
5699.163	3.31808	-0.60146	3.87811	-0.80758
5703.152	3.34356	-0.55074	3.84649	-0.86675
5707.152	3.35273	-0.44872	3.84162	-0.97701
5711.150	3.42342	-0.36222	3.82415	-1.09927
5715.152	3.45039	-0.31407	3.87327	-1.10912
5719.154	3.51594	-0.22575	3.90200	-1.14284
5723.149	3.60551	-0.16375	3.94626	-1.15031
5727.151	3.64536	-0.03271	3.94841	-1.18958
5731.152	3.68819	-0.04620	3.98571	-1.15154
5735.160	3.73796	0.02579	3.99731	-1.23783
5739.154	3.73962	0.04753	3.95130	-1.22843
5743.151	3.79485	0.10243	4.03231	-1.24372
5747.149	3.79583	0.10848	4.06406	-1.25970
5751.151	3.84708	0.10547	4.12930	-1.25447
5755.151	3.84542	-0.07854	4.04582	-1.22584
5759.150	3.88984	-1.51240	4.08162	-1.42357
5763.152	3.82539	-2.01845	4.29300	-2.30755
5767.157	3.83900	-3.98330	4.39543	-4.39469
5771.153	3.84280	-4.73116	4.44395	-4.33916
5775.151	3.85988	-5.08534	4.76773	-5.24740
5779.152	3.84248	-5.87703	4.92004	-6.24169
5783.156	3.80676	-6.84282	4.89895	-6.56265
5787.154	3.66501	-7.26106	4.86758	-6.66749
5791.155	3.62489	-7.31306	4.91878	-6.56255
5795.160	3.67168	-7.08249	4.97049	-6.49893
5799.151	3.83589	-6.84445	5.00883	-6.35545
5803.154	3.81582	-6.87968	5.06429	-6.31360
5807.150	3.78212	-6.76349	5.07532	-6.38043
5811.157	3.83428	-6.86590	5.08879	-6.37040
5815.152	3.83117	-6.81144	5.09234	-6.29327
5819.156	3.79549	-6.90970	5.03287	-6.34163
5823.157	3.81590	-6.91435	4.91602	-6.29718
5827.151	3.85889	-6.96121	4.86293	-6.29973
5831.151	3.85286	-6.94384	4.81702	-6.29842
5835.150	3.86734	-6.92186	4.76798	-6.25397
5839.150	3.87465	-6.91664	4.71395	-6.28042
5843.153	3.81891	-7.02328	4.67325	-6.29805
5847.152	3.78719	-6.96494	4.57650	-6.35658
5851.148	3.74676	-6.96174	4.53453	-6.38239
5855.150	3.73260	-6.86550	4.48535	-6.37553
5859.159	3.77970	-6.98454	4.38578	-6.41965
5863.029	3.86487	-6.99477	4.36254	-6.46075
5867.305	3.92685	-6.99128	4.32535	-6.45972
5871.028	3.91282	-7.00180	4.33762	-6.47119
5875.031	3.93897	-6.95970	4.23942	-6.45031
5879.025	3.87144	-6.90003	4.20304	-6.44508
5883.028	3.93478	-6.93377	4.18544	-6.44943
5887.029	3.86551	-6.88202	4.25788	-6.42835
5891.025	3.88255	-6.91946	4.30665	-6.42761
5895.023	3.89253	-6.94555	4.44600	-6.40430
5899.029	3.88846	-6.98322	4.46591	-6.39319
5903.023	3.82400	-6.95096	4.58910	-6.38470
5907.027	3.79907	-6.96631	4.56599	-6.36269
5911.020	3.72462	-6.98266	4.58331	-6.37056
5915.021	3.71182	-6.99680	4.62853	-6.35788
5919.023	3.65806	-6.98816	4.62047	-6.33508
5923.027	3.63478	-6.99645	4.74028	-6.32654
5927.021	3.59130	-6.98005	4.72578	-6.29372
5931.030	3.58193	-6.99803	4.70584	-6.27694
5935.025	3.54821	-6.99422	4.69236	-6.22398
5939.026	3.54326	-6.99658	4.62813	-6.19791
5943.021	3.51320	-6.97880	4.61198	-6.17849
5947.026	3.50838	-7.00903	4.60195	-6.16333
5951.029	3.51874	-7.04800	4.62244	-6.15284
5955.019	3.54499	-7.03480	4.56099	-6.15964
5959.027	3.54863	-7.01230	4.51879	-6.21743
5963.025	3.59426	-7.04562	4.48039	-6.28686
5967.022	3.62850	-7.00923	4.36700	-6.32684
5971.020	3.66493	-6.96744	4.34667	-6.33533
5975.021	3.76747	-7.00482	4.39067	-6.41552
5979.026	3.81093	-6.98138	4.40823	-6.52891
5983.023	3.86519	-7.01988	4.41711	-6.60965
5987.019	3.86852	-7.08075	4.34539	-6.63008
5991.028	3.92210	-7.07012	4.34307	-6.72604
5995.024	3.97449	-7.02935	4.42141	-6.74242
5999.018	3.92692	-7.06095	4.64428	-6.71784
6003.022	4.18988	-7.15517	6.01343	-6.66045
6007.034	4.92831	-7.36155	6.15600	-6.81420
6011.027	5.78629	-7.79801	7.00494	-6.96030
6015.020	6.34221	-8.98493	9.50725	-7.10009
6019.021	7.30202	-9.32594	9.31651	-7.24538
6023.025	7.60402	-9.55227	9.76428	-7.52258
6027.022	8.26208	-9.57795	10.04716	-7.68847
6031.024	8.59395	-9.43083	10.31540	-7.81503
6035.025	8.70716	-9.42919	10.56155	-7.83919
6039.025	8.70740	-9.33859	10.44187	-7.76439
6043.023	8.53299	-9.21097	10.36319	-7.80731
6047.025	8.72748	-9.17064	10.35318	-7.80086
6051.025	8.73974	-9.30953	10.11644	-7.87307
6055.025	8.77555	-9.32381	9.79301	-7.99467
6059.019	8.78462	-9.29642	9.98352	-8.07867
6063.020	8.85758	-9.18248	9.92868	-8.08684
6067.022	8.91078	-9.13659	10.11517	-8.12999
6071.071	8.93459	-9.04587	10.16471	-8.15620
6075.042	8.96661	-9.02902	10.14093	-8.10331
6079.033	8.99002	-8.95276	10.16093	-8.13041
6083.022	8.97542	-8.93026	10.03522	-8.18207
6087.020	8.97886	-8.93736	10.11488	-8.19747
6091.026	8.87287	-8.99863	10.08597	-8.19048
6095.022	8.82056	-8.99144	10.09104	-8.19117
6099.039	8.82739	-8.90540	10.03527	-8.16270
6103.022	8.79669	-8.85200	10.03946	-8.09993
6107.023	8.71351	-8.78928	10.02945	-8.06300
6111.017	8.70585	-8.71109	10.05325	-7.99815
6115.024	8.71315	-8.65783	10.03859	-7.90586
6119.021	8.63034	-8.57205	10.03809	-7.89889
6123.020	8.65926	-8.58399	9.94996	-7.82091
6127.020	8.68101	-8.68331	9.88523	-7.78935
6131.026	8.66249	-8.54846	9.82621	-7.74623
6135.017	8.67723	-8.57890	9.84650	-7.72559
6139.024	8.65353	-8.54119	9.78874	-7.72108
6143.021	8.68766	-8.55395	9.87177	-7.68829
6147.022	8.74568	-8.56777	9.99128	-7.65915
6151.016	8.79627	-8.62796	9.91493	-7.64705
6155.018	8.83624	-8.61348	9.96034	-7.63331
6159.026	8.82407	-8.67943	10.01544	-7.63842
6163.029	8.85005	-8.68168	9.98624	-7.62364
6167.026	8.92391	-8.67509	10.11483	-7.64936
6171.020	8.99022	-8.63385	10.13309	-7.68272
6175.023	8.99281	-8.62803	10.18017	-7.71847
6179.018	8.99198	-8.57579	10.15790	-7.73807
6183.019	9.02377	-8.51063	10.15379	-7.72851
6187.020	9.06354	-8.46595	10.25028	-7.77642
6191.019	9.04275	-8.43858	10.18690	-7.79553
6195.024	9.02852	-8.41184	10.19954	-7.82213
6199.028	9.00883	-8.40091	10.20399	-7.85315
6203.018	9.00748	-8.30491	10.16163	-7.87115
6207.025	8.98099	-8.28994	10.15660	-7.89103
6211.030	8.89933	-8.29992	10.09876	-7.87558
6215.024	8.87004	-8.30829	10.03652	-7.78825
6219.019	8.78273	-8.30477	9.95736	-7.69970
6223.019	8.52506	-8.17595	9.93879	-7.59778
6227.019	7.72580	-6.34174	8.70194	-6.40023
6231.022	6.31877	-4.79880	7.86476	-4.18051
6235.019	5.63847	-3.34819	5.82864	-3.62920
6239.020	5.17006	-2.39056	5.63466	-3.11428
6243.026	3.37717	-1.75804	4.03302	-1.88355
6247.019	2.12146	-1.33533	3.59345	-1.52069
6251.022	1.44887	-0.69450	2.25756	-1.03383
6255.016	0.20718	1.59278	1.72106	-0.45522
6259.019	0.73064	1.36477	1.28546	0.25114
6263.020	0.54379	1.14343	1.33564	0.17280
6267.017	0.53369	0.83543	1.72203	0.15991
6271.018	0.78218	0.46388	1.80410	0.43506
6275.035	0.87624	0.06445	1.56831	0.73820
6279.022	1.05411	0.39806	1.61684	1.02871
6283.023	0.83550	0.53006	1.35668	0.78335
6287.022	0.85446	0.87572	1.27688	0.92338
6291.019	0.84210	1.02396	1.15344	0.84784
6295.048	0.75848	1.16770	1.43930	0.46934
6299.021	0.83230	1.19239	1.40822	0.30575
6303.016	0.96961	1.02609	1.42947	0.21120
6307.015	0.95420	1.08108	1.40643	0.12108
6311.016	0.95366	1.27587	1.27289	-0.01508
6315.021	0.89808	1.21621	1.21827	0.07451
6319.037	0.80486	1.14002	1.21685	0.09580
6323.028	0.64141	1.21829	1.17974	0.13555
6327.022	0.69072	1.15564	1.16488	0.03205
6331.017	0.83525	1.02441	1.13228	0.05019
6335.016	0.85731	0.91561	1.12082	0.02435
6339.014	0.81163	1.00512	1.04267	0.05081
6343.138	0.76541	1.05858	1.01806	0.08693
6347.020	0.71960	1.16776	0.96286	0.12154
6351.021	0.67131	1.17199	0.93609	0.24483
6355.021	0.71528	1.05842	0.89369	0.39003
6359.020	0.69193	1.09201	0.85426	0.54183
6363.016	0.71121	1.23338	0.84786	0.63261
6367.021	0.70293	1.12805	0.85922	0.40720
6371.014	0.72858	1.09322	1.23675	0.35329
6375.017	0.74409	0.96691	1.14637	0.34923
6379.017	0.64739	1.11395	1.04210	0.36070
6383.017	0.60516	1.16905	0.94182	0.45064
6387.019	0.60804	1.09093	0.96797	0.43881
6391.019	0.59364	1.09687	1.04578	0.47634
6395.016	0.56409	1.16511	1.06074	0.62512
6399.016	0.51021	1.12657	1.10728	0.62449
6403.015	0.54523	0.93378	1.41700	0.49339
6407.016	0.46205	0.98387	1.07991	0.46948
6411.025	0.24736	1.36074	0.97489	0.29959
6415.021	-1.98336	1.77253	-1.23104	0.58166
6419.017	-4.16586	1.57256	-2.45289	0.97737
6423.014	-5.32449	2.12970	-3.81081	1.71606
6427.014	-7.36157	2.14047	-5.18626	1.09497
6431.019	-7.93773	2.16140	-6.89280	1.20037
6435.017	-9.20501	2.25782	-8.64577	1.62247
6439.015	-11.19036	2.37298	-10.03154	1.76993
6443.015	-12.08539	2.28156	-10.72321	1.95719
6447.024	-12.87808	2.41381	-11.15499	2.03787
6451.016	-13.50406	2.54931	-11.43107	2.13569
6455.014	-13.10198	2.30649	-11.90809	2.72917
6459.018	-12.98134	2.52747	-11.25099	2.48661
6463.016	-12.97186	2.70204	-11.43717	2.79052
6467.019	-12.90168	2.62446	-11.56319	2.62191
6471.015	-12.97031	2.59184	-11.54987	2.63457
6475.019	-12.84909	2.67692	-11.71508	2.97863
6479.014	-13.18473	2.79832	-11.53894	2.74411
6483.017	-12.88518	2.55342	-11.71818	2.64466
6487.016	-13.00205	2.84169	-11.72239	2.68128
6491.018	-13.05821	2.86655	-11.79370	2.90326
6495.019	-13.02643	2.81545	-11.70823	2.85054
6499.018	-13.00507	2.75741	-11.76725	2.82069
6503.015	-12.99557	2.77198	-11.84715	2.69557
6507.019	-13.17456	2.84019	-11.89350	2.67766
6511.075	-13.10130	2.68701	-11.96479	2.71431
6515.018	-13.34940	2.78839	-11.95686	2.64284
6519.013	-13.28557	2.65909	-12.10257	2.75460
6523.015	-13.27769	2.90338	-11.99863	2.72884
6527.013	-13.14035	2.93197	-11.98973	2.74479
6531.017	-13.27602	2.89975	-12.11043	2.74703
6535.018	-13.04132	2.75283	-12.04825	2.61941
6539.015	-13.18268	2.78359	-12.13711	2.65840
6543.013	-13.18983	2.80668	-12.15578	2.61545
6547.015	-13.28942	2.81868	-12.17938	2.68718
6551.012	-13.02700	2.85413	-12.18184	2.79946
6555.017	-13.04756	3.11185	-12.07657	2.63672
6559.015	-13.18468	2.96785	-12.17264	2.57505
6563.014	-12.90942	2.81701	-12.40074	2.59968
6567.028	-13.06230	2.90803	-12.20534	2.47360
6571.014	-13.10273	2.89379	-12.09434	2.55303
6575.017	-13.08510	2.80056	-12.15341	2.50851
6579.012	-13.09482	3.00741	-12.33094	2.54225
6583.015	-13.11545	3.05272	-12.21613	2.31123
6587.015	-12.99288	3.15191	-12.18275	2.37942
6591.012	-13.13835	3.22176	-12.23855	2.50759
6595.016	-13.21853	3.23604	-12.27014	2.44830
6599.012	-13.19825	3.12553	-12.29699	2.34136
6603.015	-13.08562	3.15247	-12.26687	2.32836
6607.011	-13.17725	3.16985	-12.16022	2.33071
6611.011	-13.14696	3.22746	-12.22575	2.30147
6615.019	-13.18939	3.25671	-12.25175	2.43884
6619.016	-13.13574	3.20063	-12.32556	2.39636
6623.015	-13.03757	2.97687	-12.39182	2.29941
6627.010	-12.95944	2.75175	-12.44586	2.26805
6631.017	-13.11745	2.84809	-12.44003	2.08416
6635.014	-13.05785	2.87401	-12.29514	2.32950
6639.010	-13.04137	2.80321	-12.31296	2.40881
6643.015	-13.00191	2.87410	-12.24576	2.35034
6647.015	-13.05823	2.91896	-12.24434	2.37993
6651.015	-13.19075	3.05507	-12.34569	2.39656
6655.016	-13.20867	3.12675	-12.34453	2.35147
6659.015	-13.31177	3.20443	-12.35348	2.34226
6663.012	-13.37853	3.19969	-12.28889	2.28371
6667.011	-13.52649	3.19225	-12.20819	2.37795
6671.012	-13.46620	3.31118	-12.13963	2.43051
6675.016	-13.21446	3.36161	-12.11750	2.43860
6679.013	-13.31610	3.38848	-12.13813	2.37827
6683.015	-13.18167	3.39960	-12.18294	2.28288
6687.017	-13.05359	3.43024	-12.18367	2.25727
6691.012	-13.00068	3.42188	-12.18507	2.15439
6695.017	-13.00525	3.44030	-12.24592	2.07084
6699.016	-12.88270	3.40957	-12.20176	1.98146
6703.016	-12.99380	3.41025	-12.21212	2.13150
6707.010	-12.92519	3.40204	-12.20563	2.47907
6711.016	-12.95268	3.42068	-12.22255	2.94825
6714.887	-12.93439	3.38519	-12.29111	3.10838
6718.886	-13.01588	3.36461	-12.28481	3.16747
6722.886	-13.06424	3.33786	-12.25735	3.08335
6726.887	-13.07577	3.32451	-12.26882	3.20145
6730.889	-13.13614	3.27852	-12.32653	3.33584
6734.919	-13.18207	3.25569	-12.33797	3.30684
6738.888	-13.20143	3.25421	-12.42011	3.31344
6742.889	-13.19284	3.08047	-12.35175	3.18537
6746.890	-13.05058	2.96638	-12.15106	3.02018
6750.883	-12.74050	2.79047	-11.71779	0.94596
6754.896	-10.92301	1.31463	-9.27131	0.84253
6758.888	-10.59071	0.87220	-9.05253	0.64151
6762.885	-9.95659	0.07631	-9.37810	0.02229
6766.887	-9.96082	0.12406	-9.14450	-0.94513
6770.886	-9.48767	0.01988	-8.90504	-1.05473
6774.906	-9.20105	0.03618	-8.78159	-1.30247
6778.890	-9.00949	0.01450	-8.81637	-1.43384
6782.883	-8.75444	0.00643	-8.87542	-1.37563
6786.887	-8.90989	0.09866	-8.79644	-1.37158
6790.882	-8.96775	0.11156	-8.82024	-1.30373
6794.884	-8.80527	0.04273	-8.73705	-1.33474
6798.882	-8.71220	-0.03321	-8.69455	-1.37611
6802.884	-8.73652	-0.08407	-8.66564	-1.35480
6806.889	-8.77771	-0.05666	-8.62363	-1.42346
6810.884	-8.74668	-0.06324	-8.57614	-1.46477
6814.887	-8.75541	-0.09239	-8.54794	-1.52195
6818.909	-8.71848	-0.20829	-8.50675	-1.56258
6822.890	-8.79986	-0.20119	-8.46257	-1.69467
6826.889	-8.88472	-0.23949	-8.43610	-1.77573
6830.883	-8.99600	-0.27569	-8.41415	-1.89203
6834.881	-8.99443	-0.32945	-8.38867	-1.85740
6838.886	-8.96363	-0.38742	-8.36508	-1.92522
6842.886	-9.04009	-0.41762	-8.35826	-1.99922
6846.886	-9.08936	-0.43288	-8.37504	-1.99508
6850.883	-9.11992	-0.50472	-8.39533	-2.06166
6854.887	-9.06562	-0.55765	-8.49394	-2.05026
6858.885	-9.09222	-0.59785	-8.58701	-1.98765
6862.883	-9.08672	-0.58831	-8.77494	-1.80797
6866.883	-9.04420	-0.66746	-8.96598	-1.68018
6870.891	-8.99457	-0.71794	-9.02910	-1.55156
6874.889	-8.99680	-0.73057	-9.00830	-1.47530
6878.883	-8.92788	-0.81467	-9.11854	-1.47232
6882.915	-8.94009	-0.82890	-9.16530	-1.29796
6886.882	-8.92210	-0.84968	-9.12536	-1.11763
6890.890	-8.89913	-0.91149	-9.17798	-1.07428
6894.883	-8.87728	-0.94286	-9.15391	-1.07232
6898.883	-8.88518	-0.93852	-9.19271	-1.01448
6902.886	-8.87629	-0.93305	-9.15909	-1.00170
6906.884	-8.90073	-0.96502	-9.04904	-0.88077
6910.892	-8.91551	-0.95960	-8.98457	-0.84065
6914.883	-8.92718	-0.95390	-8.90487	-0.84346
6918.890	-8.91958	-0.93151	-8.78428	-0.80031
6922.883	-8.93103	-0.90137	-8.76935	-0.77723
6926.882	-8.89792	-0.80389	-8.72888	-0.80436
6930.882	-8.86071	-0.70298	-8.63639	-0.84123
6934.887	-8.83372	-0.57458	-8.55620	-0.87825
6938.883	-8.79749	-0.47337	-8.54193	-0.91249
6942.883	-8.78573	-0.33914	-8.42136	-0.98743
6946.923	-8.76467	-0.30325	-8.42729	-1.02159
6950.887	-8.70456	-0.25093	-8.38729	-1.05436
6954.885	-8.69816	-0.23328	-8.36117	-1.13939
6958.884	-8.68473	-0.19317	-8.33668	-1.23130
6962.879	-8.69127	-0.19283	-8.37172	-1.29191
6966.885	-8.66071	-0.18230	-8.39435	-1.33515
6970.882	-8.69595	-0.22706	-8.36380	-1.36833
6974.883	-8.71506	-0.29629	-8.40577	-1.45685
6978.879	-8.79038	-0.25925	-8.45499	-1.50446
6982.885	-8.89257	-0.32355	-8.36467	-1.50009
6986.881	-8.90204	-0.38390	-8.37521	-1.49310
6990.883	-9.00387	-0.46132	-8.34810	-1.46696
6994.885	-9.05395	-0.51647	-8.31572	-1.52129
6998.882	-9.23459	-0.51537	-8.42675	-1.54498
7002.882	-9.19234	-0.52233	-9.09923	-1.49378
7006.887	-10.06927	-0.55104	-9.36911	-1.18979
7010.881	-11.55571	-0.57631	-10.08195	-1.42132
7014.883	-12.51177	-0.61921	-11.76790	-1.33871
7018.879	-12.48062	-0.56611	-11.37314	-1.28920
7022.882	-12.35040	-0.55098	-11.20056	-1.34204
7026.880	-12.27289	-0.56831	-11.20947	-1.32945
7030.886	-12.32336	-0.55058	-11.29460	-1.34116
7034.886	-12.32570	-0.52438	-11.30378	-1.41642
7038.883	-12.37993	-0.52677	-11.38647	-1.46229
7042.890	-12.39123	-0.54509	-11.45114	-1.49140
7046.884	-12.40375	-0.53126	-11.43555	-1.59996
7050.879	-12.50174	-0.53700	-11.22773	-1.48441
7054.884	-12.40936	-0.45187	-11.32991	-1.55215
7058.881	-12.31118	-0.41691	-11.25569	-1.55803
7062.882	-12.29159	-0.40636	-11.27648	-1.54389
7066.882	-12.23896	-0.46406	-11.28686	-1.50785
7070.879	-12.22933	-0.48773	-11.36990	-1.49317
7074.881	-12.23068	-0.58841	-11.36706	-1.54472
7078.886	-12.12817	-0.70011	-11.35449	-1.51896
7082.884	-12.11180	-0.84464	-11.31190	-1.42293
7086.881	-12.11733	-0.99419	-11.35110	-1.30383
7090.882	-12.05651	-1.04432	-11.32719	-1.39010
7094.884	-11.89395	-0.70743	-11.40474	-1.36969
7098.883	-11.87227	-0.73379	-11.47159	-1.36722
7102.878	-11.84843	-0.75859	-11.53136	-1.26507
7106.884	-11.83931	-0.70793	-11.56352	-1.23110
7110.881	-11.85846	-0.66580	-11.58587	-1.21557
7114.882	-11.79822	-0.73715	-11.53858	-1.11914
7118.883	-11.79936	-0.76140	-11.54025	-1.06103
7122.883	-11.84537	-0.67699	-11.51225	-1.07643
7126.879	-11.90521	-0.56340	-11.54542	-1.06175
7130.882	-11.93596	-0.59069	-11.51039	-1.14325
7134.884	-11.97966	-0.58507	-11.49257	-1.17126
7138.880	-12.07225	-0.65086	-11.43972	-1.21618
7142.882	-12.18848	-0.71042	-11.40140	-1.34037
7146.878	-12.28846	-0.72760	-11.33755	-1.39998
7150.883	-12.44541	-0.76644	-11.29145	-1.44390
7154.880	-12.37392	-0.63905	-11.24072	-1.50911
7158.885	-12.34811	-0.64933	-11.23100	-1.59209
7162.898	-12.31767	-0.62060	-11.20951	-1.67356
7166.881	-12.25912	-0.50960	-11.20708	-1.71368
7170.878	-12.20802	-0.49756	-11.17902	-1.66933
7174.882	-11.78262	-0.54719	-11.20827	-1.60508
7178.879	-11.90996	-0.52743	-10.36860	-1.60028
7182.877	-9.45585	-0.41559	-8.95409	-1.44586
7186.877	-8.61540	-0.40167	-6.09896	-1.21980
7190.880	-5.99971	-0.39822	-4.25867	-1.44534
7194.880	-4.83733	-0.39572	-3.78217	-1.59619
7198.882	-3.86116	-0.46485	-1.41492	-1.47204
7202.885	-1.24126	-0.50880	0.25808	-1.50974
7206.875	-0.10031	-0.56778	0.90113	-1.60655
7210.875	1.05175	-0.66641	2.35590	-1.44519
7214.878	2.27201	-0.68958	5.16868	-1.66664
7218.880	4.62599	-0.61836	5.25564	-1.61730
7222.876	5.04095	-0.56136	7.15765	-1.63239
7226.875	5.76099	-0.46381	6.68550	-1.81950
7230.880	5.24316	-0.23825	5.30500	-1.71779
7234.878	5.21282	-0.02094	5.36516	-1.69647
7238.876	5.10960	0.10816	5.47023	-1.60023
7242.888	5.19987	0.06654	5.69750	-1.56375
7246.877	5.25953	0.15792	6.12872	-1.57881
7250.879	5.42437	0.14083	6.44594	-1.60059
7254.875	5.55369	0.08456	6.70269	-1.62965
7258.877	5.61859	0.16826	7.04284	-1.56794
7262.875	5.70782	0.13204	7.24925	-1.41825
7266.876	5.72222	0.20908	6.63825	-1.34320
7270.880	5.72851	0.21476	6.07140	-1.32727
7274.877	5.82255	0.18909	6.41398	-1.30725
7278.875	5.90136	0.16798	6.67294	-1.31114
7282.874	6.04676	0.14246	6.75492	-1.32781
7286.880	6.08129	0.08755	6.94301	-1.35068
7290.877	6.00521	0.02617	7.15792	-1.37021
7294.881	5.90823	-0.14771	6.70222	-1.55627
7298.875	5.85003	-0.07651	6.52454	-1.47223
7302.874	5.87499	-0.11667	6.33338	-1.45726
7306.875	5.88916	-0.05507	6.39731	-1.36811
7310.876	5.95773	-0.07896	6.37820	-1.40005
7314.874	6.10858	-0.09730	6.50800	-1.38084
7318.880	6.15465	-0.14184	6.45214	-1.46190
7322.876	5.95881	-0.18445	6.49019	-1.49434
7326.879	5.86678	-0.30555	6.63056	-1.51553
7330.874	5.70576	-0.27077	6.51498	-1.47732
7334.880	5.79084	-0.28989	6.43297	-1.42245
7338.878	5.82820	-0.25586	6.54658	-1.38707
7342.874	5.97912	-0.25744	6.49195	-1.32590
7346.872	6.06279	-0.20581	6.53044	-1.33404
7350.874	6.23847	-0.21775	6.59358	-1.30706
7354.875	6.08455	-0.20568	6.62635	-1.21194
7358.874	5.96603	-0.32670	6.63930	-1.14995
7363.085	5.77910	-0.35630	6.63849	-1.06730
7366.884	5.78566	-0.33175	6.65960	-1.06491
7370.881	5.89254	-0.31322	6.60830	-1.02063
7374.874	5.91386	-0.32935	6.55018	-1.15359
7378.871	5.99564	-0.33797	6.52809	-1.07593
7382.878	6.11807	-0.36265	6.58802	-1.11289
7386.876	6.28709	-0.39852	6.65189	-1.02920
7390.871	6.04750	-0.50436	6.67155	-0.93742
7394.874	5.85500	-0.38552	6.65488	-0.84993
7398.875	5.80388	-0.43030	6.59116	-0.86245
7402.873	5.83117	-0.42049	6.48891	-0.86068
7406.878	5.87511	-0.47357	6.51986	-0.84848
7410.878	5.96301	-0.47498	6.51513	-0.90037
7414.873	5.98223	-0.46387	6.46424	-0.97345
7418.875	6.07616	-0.49079	6.43692	-1.04438
7422.878	6.17406	-0.49839	6.38148	-1.03276
7426.874	6.02899	-0.47613	6.36800	-1.12112
7430.877	5.92250	-0.26281	6.31166	-1.04342
7434.872	5.89021	-0.19942	6.30776	-1.06565
7438.874	5.94065	-0.23341	6.26677	-1.13472
7442.876	5.92579	-0.27910	6.27442	-1.09350
7446.873	6.03145	-0.22040	6.28035	-1.15363
7450.881	5.98194	-0.38301	6.23687	-1.26864
7454.875	5.89478	-1.03425	6.22029	-1.59621
7458.876	4.84238	-1.75880	6.02678	-2.98813
7462.873	4.50843	-3.98852	5.98049	-5.26315
7466.873	3.17901	-5.03907	5.26568	-5.31249
7470.873	2.75334	-6.50873	4.32859	-6.18914
7474.871	1.50963	-7.51025	4.02836	-6.27049
7478.893	4.71644	-7.77689	3.82566	-7.25701
7482.884	4.23550	-8.30469	3.74355	-7.87342
7486.874	4.44785	-8.92187	3.80510	-7.74488
7490.875	4.45957	-6.06364	3.72331	-7.59655
7494.883	4.42804	-5.79039	3.60012	-7.37647
7498.876	4.31163	-5.65895	3.58934	-7.29312
7502.876	4.93630	-5.74918	3.52991	-7.41905
7506.877	5.20334	-5.93721	3.39174	-7.40458
7510.877	5.18820	-6.11990	3.37895	-7.50130
7514.872	5.13444	-6.28090	3.29691	-7.46873
7518.876	1.25103	-6.56528	3.16941	-7.50761
7522.872	1.19274	-6.66706	3.11799	-7.55417
7526.878	1.21440	-6.94805	3.14046	-7.57658
7530.875	1.22948	-7.25899	3.08738	-7.65799
7534.881	1.25751	-7.66916	2.96634	-7.72342
7538.893	1.25284	-7.94668	2.90908	-7.81266
7542.881	1.37317	-6.35547	2.73977	-7.75643
7546.873	1.35913	-6.60131	2.63987	-7.78738
7550.874	1.36806	-6.92835	2.51663	-7.85281
7554.870	1.39517	-7.19221	2.59799	-7.99936
7558.875	1.44500	-7.62300	2.49553	-7.99154
7562.873	1.49498	-7.87238	2.55148	-7.94104
7567.068	1.73398	-6.36865	2.53228	-7.96504
7570.748	1.82594	-6.75183	2.47360	-7.91535
7574.752	1.95354	-7.05305	2.55027	-7.91467
7578.747	2.95896	-7.50758	2.47105	-7.92718
7582.788	3.43645	-7.83724	2.52792	-7.95146
7586.745	3.76354	-8.46171	2.60599	-8.07629
7590.748	3.85691	-6.99313	2.61085	-7.84866
7594.745	4.03399	-7.39343	2.68480	-7.83431
7598.745	1.19748	-7.74970	2.72085	-7.81379
7602.750	0.73821	-8.03896	2.74301	-7.87705
7606.746	0.89148	-8.44661	2.72575	-7.95535
7610.747	0.78250	-8.80043	2.63811	-7.96823
7614.744	0.88996	-7.15964	2.66454	-7.92478
7618.747	0.89076	-7.29215	2.54784	-7.93381
7622.753	0.94956	-7.44620	2.52973	-7.94592
7626.747	1.08726	-7.74070	2.54848	-7.95423
7630.744	1.14990	-8.10679	2.51896	-7.97929
7634.749	2.57746	-8.30177	2.59733	-8.01555
7638.748	2.98148	-8.66934	2.53555	-8.05305
7642.745	3.06558	-9.12418	2.56384	-8.12225
7646.744	2.88916	-9.54661	2.65287	-8.04941
7650.748	3.07444	-7.38674	2.64584	-7.97790
7654.745	2.84554	-7.59045	2.75844	-7.89069
7658.747	2.64084	-8.01612	2.79553	-7.85111
7662.743	3.41978	-8.30397	2.71909	-7.77974
7666.753	3.87201	-8.78282	2.73355	-7.77217
7670.745	1.00687	-8.80274	2.77668	-7.78919
7674.746	0.75625	-9.04787	2.84123	-7.76189
7678.744	0.97338	-9.17848	2.91091	-7.79928
7682.748	1.11003	-9.39352	2.78265	-7.75187
7686.746	0.99742	-9.48290	2.71149	-7.71952
7690.747	1.13878	-9.55226	2.69354	-7.75748
7694.747	1.22189	-9.62024	2.65644	-7.76420
7698.745	1.21650	-9.80148	2.59302	-7.78718
7702.748	1.41665	-9.75412	2.70040	-7.80685
7706.751	1.54517	-9.30756	3.06565	-7.90083
7710.744	2.33655	-9.36588	3.56536	-7.91580
7714.745	4.66470	-9.60806	6.10006	-8.03064
7718.746	5.94877	-9.71050	6.89588	-8.06051
7722.748	6.18502	-9.73136	9.21000	-8.41567
7726.744	7.59785	-9.83316	9.74094	-8.51288
7730.742	8.57170	-9.67252	11.70007	-8.51427
7734.740	11.06863	-9.49956	13.28799	-8.73803
7738.744	12.97566	-9.43048	14.89147	-8.84252
7742.742	13.28244	-8.97871	15.36274	-8.84544
7746.748	13.88673	-8.95375	15.54253	-9.05882
7750.748	14.15878	-8.96137	15.28554	-9.04910
7754.751	14.00302	-8.90858	15.32772	-9.06096
7758.743	14.02550	-8.70740	15.18747	-9.08604
7762.747	14.25212	-8.78306	15.23778	-9.13159
7766.743	14.37860	-8.86692	15.01600	-9.10274
7770.740	12.53630	-8.79889	15.09289	-9.09200
7774.749	12.85895	-8.71658	15.04017	-9.11578
7778.745	12.83734	-8.74539	14.90259	-9.06870
7782.742	13.04346	-8.78287	14.99111	-9.02503
7786.741	13.57234	-8.80186	14.94595	-8.96826
7790.751	13.79969	-8.80464	14.91717	-8.89026
7794.747	13.77998	-8.84472	14.95213	-8.81843
7798.742	13.98926	-8.84544	14.99572	-8.79413
7802.747	11.43579	-11.68234	14.97569	-8.72063
7806.763	11.72358	-11.69740	14.93958	-8.68077
7810.741	11.74444	-11.72544	14.90361	-8.63348
7814.740	12.06536	-11.60738	14.83525	-8.59266
7818.745	12.12250	-11.63345	14.78950	-8.53254
7822.744	12.12272	-11.65136	14.86386	-8.48791
7826.741	12.22331	-11.65301	14.83441	-8.40047
7830.749	12.54363	-11.61672	14.93742	-8.41047
7834.744	12.86848	-11.57334	14.73170	-8.45913
7838.744	12.57193	-11.59763	14.73509	-8.49932
7842.746	12.93248	-11.57355	14.64905	-8.46228
7846.742	11.47174	-11.57350	14.62377	-8.38191
7850.740	11.58975	-11.49216	14.57890	-8.27927
7854.740	11.61104	-11.48719	14.59421	-8.24512
7858.744	11.83284	-11.45815	14.59440	-8.19286
7862.742	11.72655	-11.43112	14.53926	-8.20930
7866.742	11.62335	-11.48139	14.48187	-8.22955
7870.738	11.72941	-11.45230	14.43531	-8.15022
7874.749	11.76516	-11.50443	14.38707	-8.08716
7878.753	11.62787	-11.62396	14.36411	-8.02247
7882.743	11.93536	-9.69897	14.30743	-8.00482
7886.740	12.11000	-9.61747	14.32134	-7.94988
7890.741	12.14523	-9.76772	14.26023	-7.96409
7894.740	12.42264	-9.74567	14.20842	-7.98333
7898.765	12.57217	-10.07987	14.19625	-8.03567
7902.748	12.53112	-10.53684	14.18664	-8.02365
7906.742	12.47671	-10.86248	14.21764	-8.01667
7910.742	12.65689	-11.09497	14.23543	-7.99703
7914.748	12.63315	-11.35159	14.24911	-8.01998
7918.742	12.66868	-11.41250	14.19098	-8.03434
7922.742	12.20264	-11.41856	14.17896	-7.97204
7926.740	10.50299	-11.58168	14.16403	-7.97735
7930.743	10.65019	-11.77030	14.17320	-7.98897
7934.741	11.11815	-9.99228	14.18342	-7.86636
7938.742	11.03824	-10.02821	14.11152	-7.84860
7942.738	11.18286	-10.02743	13.95794	-7.76595
7946.743	11.09341	-10.16789	13.91710	-7.77534
7950.742	11.03712	-10.14721	13.93999	-7.76598
7954.744	11.07804	-10.76452	13.96514	-7.79682
7958.748	11.09200	-10.88176	14.00793	-7.71502
7962.741	11.07506	-11.02288	13.96570	-7.68675
7966.742	11.07240	-11.19427	13.89318	-7.63440
7970.740	11.11501	-11.47957	13.88663	-7.61637
7974.739	11.28543	-9.64959	13.84331	-7.59570
7978.743	11.52271	-9.68267	13.74121	-7.66024
7982.739	11.74922	-9.89569	13.76710	-7.62374
7986.737	11.91462	-10.14388	13.71142	-7.54711
7990.739	12.07412	-10.17768	13.79384	-7.48023
7994.743	12.10457	-10.44381	13.69900	-7.37272
7998.745	12.20544	-10.08060	13.55182	-7.16078
8002.743	12.22976	-6.70086	12.90359	-6.83808
8006.743	12.12222	-6.30962	12.10207	-6.39534
8010.741	11.81843	-5.29733	11.74915	-5.32519
8014.739	11.85050	-4.40909	11.57893	-4.50349
8018.743	11.63573	-4.12272	11.90733	-3.61121
8022.743	11.75263	-3.24849	12.01134	-2.99177
8026.741	11.61247	-2.04437	12.22433	-2.30539
8030.738	11.46847	-1.10853	11.75365	-2.23982
8034.742	11.35671	-0.65681	11.70737	-1.92267
8038.745	11.03664	-0.60742	10.56133	-1.62057
8042.748	9.94484	-0.69043	10.91696	-1.47643
8046.741	9.41052	-0.58517	10.62224	-1.17721
8050.734	9.20395	-0.53332	10.28738	-0.84930
8054.738	9.08951	-0.52137	10.28236	-0.71215
8058.740	9.10037	-0.50730	10.26655	-0.79870
8062.736	9.11203	-0.43665	10.06347	-0.79781
8066.734	9.17282	-0.38227	9.92644	-0.87940
8070.740	9.27315	-0.34280	9.96713	-0.77431
8074.739	9.30566	-0.20714	9.94224	-0.80523
8078.737	9.30455	-0.15564	9.80412	-0.69053
8082.745	9.33299	-0.03482	9.83002	-0.60144
8086.736	9.38470	0.15308	9.80987	-0.58681
8090.742	9.34036	0.00537	9.82409	-0.56791
8094.739	9.44684	-0.05513	9.84488	-0.51034
8098.743	9.42214	-0.03233	9.66704	-0.44825
8102.738	9.44800	-0.02900	9.43484	-0.43115
8106.737	9.46198	0.01855	9.51662	-0.48092
8110.735	9.50935	0.11291	9.55567	-0.50747
8114.740	9.42132	0.12987	9.47925	-0.52746
8118.740	9.34227	0.10820	9.44353	-0.45381
8122.740	9.32055	0.10318	9.42689	-0.41175
8126.746	9.24610	0.00250	9.39078	-0.39872
8130.739	9.16136	0.00643	9.37312	-0.37859
8134.735	9.19043	-0.01229	9.51843	-0.38968
8138.734	9.12222	-0.02171	9.40122	-0.50233
8142.737	9.13136	-0.03616	9.49224	-0.53697
8146.736	9.10995	0.01163	9.47280	-0.58884
8150.736	9.12945	0.06644	9.59312	-0.60083
8154.735	9.12570	0.10128	9.66955	-0.57103
8158.737	9.14501	0.17092	9.73701	-0.51055
8162.744	9.19118	0.11946	9.76984	-0.46430
8166.744	9.13964	0.03864	9.74449	-0.43651
8170.740	9.14513	0.05449	9.76833	-0.41290
8174.738	9.14958	0.05758	9.75936	-0.56873
8178.741	9.08544	-0.03286	9.66040	-0.65864
8182.742	9.03077	0.01176	9.57049	-0.61790
8186.738	9.01029	0.03141	9.49521	-0.76372
8190.740	8.94460	0.06031	9.53873	-0.91751
8194.742	8.97944	0.04217	9.55039	-1.07490
8198.739	8.92045	-0.01615	9.57001	-1.17222
8202.735	8.89078	-0.08261	9.55910	-1.30868
8206.748	8.83466	-0.09920	9.54812	-1.36388
8210.761	8.88050	-0.12452	9.60116	-1.35008
8214.734	8.89361	-0.12729	9.68580	-1.14636
8218.734	8.90584	-0.21206	9.76261	-1.04049
8222.737	8.93820	-0.32535	9.77115	-0.84965
8226.734	9.07803	-0.28650	9.76172	-0.75773
8230.734	9.12055	-0.39452	9.80395	-0.75541
8234.731	9.20073	-0.41108	9.75521	-0.81345
8238.732	9.29292	-0.47532	9.76372	-0.69240
8242.734	9.34945	-0.49422	9.68727	-0.68587
8246.744	9.40668	-0.50115	9.62610	-0.65501
8250.739	9.43223	-0.51547	9.57160	-0.61508
8254.733	9.34916	-0.56159	9.67926	-0.65255
8258.737	9.01370	-0.63481	9.48371	-0.69454
8262.732	7.81449	-0.55924	9.14943	-0.71181
8266.734	5.71409	-0.48577	7.59124	-0.77749
8270.739	5.39406	-0.39626	6.06961	-0.78819
8274.735	3.75370	-0.36397	5.43376	-0.82004
8278.737	2.52292	-0.35775	4.74962	-0.84627
8282.732	2.66313	-0.13714	3.55451	-0.89655
8286.737	2.46248	-0.07589	3.26421	-0.90914
8290.739	2.65684	-0.12538	3.33396	-0.88058
8294.733	2.81050	-0.15026	3.54855	-0.87347
8298.734	2.88928	0.05251	3.57182	-0.83375
8302.735	3.03135	0.08859	3.61424	-0.82238
8306.733	2.80838	0.08089	3.62758	-0.79358
8310.732	2.83058	0.10948	3.61654	-0.73953
8314.733	2.86574	0.11429	3.46669	-0.72460
8318.735	2.79590	0.18540	3.42661	-0.70040
8322.740	2.83784	0.23188	3.37613	-0.64252
8326.736	2.82836	0.21463	3.41305	-0.57156
8330.737	2.83853	0.14827	3.36817	-0.52221
8334.733	2.82165	0.17686	3.41750	-0.53647
8338.739	2.81848	0.21190	3.37700	-0.50271
8342.734	2.79330	0.19736	3.38864	-0.45679
8346.733	2.78248	0.18369	3.37415	-0.38622
8350.733	2.78849	0.15567	3.31657	-0.30890
8354.737	2.82504	0.12879	3.25780	-0.17369
8358.734	2.83756	0.10213	3.24311	-0.13896
8362.733	2.84546	0.05979	3.25298	-0.07130
8366.732	2.84237	0.05676	3.26406	-0.04612
8370.737	2.86348	0.01209	3.20469	-0.01280
8374.740	2.86343	0.00702	3.19971	0.00995
8378.732	2.83583	0.04755	3.13360	0.00040
8383.887	2.81018	0.05351	3.10723	0.03365
8386.739	2.80048	0.01325	3.01316	0.02759
8390.736	2.77317	0.01569	2.93495	-0.03732
8394.733	2.73155	0.04478	2.87777	-0.08349
8398.733	2.68019	0.08065	2.82798	-0.17162
8402.733	2.66174	0.06193	2.81959	-0.24164
8406.731	2.67251	0.05411	2.81947	-0.27852
8410.733	2.69356	0.04602	2.86594	-0.32593
8414.738	2.66033	0.07737	2.90547	-0.42045
8418.614	2.63180	0.04853	2.91876	-0.51335
8422.608	2.64901	0.04083	2.92441	-0.52025
8426.732	2.63965	-0.09703	2.90027	-0.50311
8430.732	2.64272	-0.08072	2.97287	-0.51921
8434.644	2.65015	-0.11701	3.15456	-0.48158
8438.606	2.69126	-0.16266	3.25491	-0.44777
8442.606	2.75735	-0.26602	3.26450	-0.36967
8446.608	2.80060	-0.29277	3.36028	-0.33555
8450.610	2.87066	-0.30111	3.33515	-0.25653
8454.608	2.85774	-0.24438	3.24011	-0.21539
8458.604	2.88376	-0.29111	3.17292	-0.20806
8462.612	2.93983	-0.31043	3.04405	-0.14881
8466.610	3.05420	-0.34191	2.95656	-0.14299
8470.606	3.05457	-0.30687	2.83930	-0.25958
8474.606	3.11287	-0.31224	2.90463	-0.46784
8478.605	3.09589	-0.33703	2.87940	-0.52309
8482.609	3.07122	-0.35418	2.82073	-0.62683
8486.605	3.05219	-0.33285	2.78042	-0.71624
8490.609	2.99935	-0.33579	2.73244	-0.73431
8494.603	2.89388	-0.27202	2.72303	-0.72178
8498.610	2.85118	-0.17827	2.77250	-0.66952
8502.611	3.22069	-0.16077	4.27540	-0.41664
8506.635	4.48125	-0.16930	4.93472	0.23975
8510.616	5.15495	0.07259	5.29605	0.51209
8514.606	5.24833	0.56229	5.84247	0.58894
8518.607	5.51314	0.69468	6.32105	0.56075
8522.609	5.75871	0.82448	6.50496	0.55497
8526.606	5.71524	0.77572	6.35405	0.66900
8530.603	5.62603	0.84598	6.24403	0.74506
8534.604	5.58545	0.96158	6.32696	0.80085
8538.606	5.47070	1.07376	6.20663	0.67428
8542.609	5.33780	1.03138	6.09172	0.70829
8546.607	5.41522	1.12156	6.19650	0.69481
8550.604	5.40860	1.15402	6.21750	0.69824
8554.605	5.45004	1.17454	6.20379	0.63399
8558.604	5.45388	1.16469	6.17160	0.62462
8562.604	5.45216	1.15656	6.14550	0.62552
8566.605	5.43083	1.18024	6.10325	0.62134
8570.608	5.37544	1.20572	6.08095	0.62139
8574.605	5.36695	1.23521	6.07599	0.61448
8578.603	5.39770	1.25599	6.07763	0.56697
8582.605	5.43233	1.32303	6.08033	0.61949
8586.608	5.49495	1.34850	6.10607	0.64177
8590.606	5.51860	1.39136	6.13589	0.67323
8594.606	5.54407	1.41871	6.16555	0.68530
8598.602	5.59034	1.49265	6.17467	0.72411
8602.606	5.61052	1.54484	6.21409	0.72836
8606.610	5.61256	1.60248	6.26561	0.75461
8610.604	5.58314	1.63785	6.30453	0.79118
8614.603	5.59931	1.68663	6.28984	0.85834
8618.602	5.60541	1.74989	6.27010	0.90414
8622.608	5.61313	1.80561	6.23106	0.94275
8626.609	5.59029	1.84469	6.15218	0.99671
8630.606	5.56389	1.87400	6.10320	1.08973
8634.608	5.60883	1.85325	6.04009	1.12051
8638.604	5.66413	1.81513	5.90816	1.12636
8642.607	5.70369	1.74789	5.91047	1.16614
8646.601	5.73242	1.68570	5.82385	1.18863
8650.663	5.76893	1.57707	5.74396	1.19701
8654.611	5.78804	1.42669	5.69932	1.19651
8658.606	5.86934	1.35491	5.64400	1.17863
8662.602	5.92017	1.23008	5.65452	1.08959
8666.605	5.94499	1.14885	5.65649	1.10904
8670.607	6.01753	1.14373	5.63530	1.05383
8674.601	6.05940	1.04861	5.65226	0.98745
8678.598	6.12438	1.03799	5.65469	0.99356
8682.601	6.16169	0.99032	5.71635	0.91900
8686.602	6.20528	0.99202	5.75991	0.86363
8690.604	6.22446	0.91380	5.77600	0.86069
8694.605	6.24813	0.91311	5.83532	0.80583
8698.599	6.26024	0.90287	5.89331	0.75516
8702.600	6.23847	0.86268	5.95729	0.75203
8706.606	6.21912	0.83846	5.96714	0.74095
8710.607	6.18848	0.81521	6.01184	0.70733
8714.601	6.14484	0.83321	6.03326	0.68811
8718.598	6.11510	0.78474	6.10286	0.67547
8722.600	6.06676	0.77402	6.12043	0.70890
8726.604	6.00833	0.75747	6.10912	0.73236
8730.602	5.96375	0.71691	6.09751	0.76701
8734.601	5.92776	0.74347	6.13620	0.76357
8738.600	5.88137	0.73555	6.15375	0.78555
8742.604	5.85138	0.69367	6.16199	0.84359
8746.602	5.83527	0.69137	6.15750	0.85110
8750.607	5.82596	0.67524	6.16940	0.85442
8754.605	5.83021	0.66602	6.15787	0.85955
8758.601	5.85848	0.61487	6.14376	0.88585
8762.602	5.92967	0.61692	6.13542	0.88579
8766.606	6.00420	0.60621	6.13206	0.85280
8770.602	5.95705	0.59793	6.15235	0.80971
8774.603	6.00344	0.58293	6.15058	0.79598
8778.600	6.02158	0.55464	6.13409	0.80277
8782.600	5.97816	0.53428	6.12188	0.79931
8786.601	6.03162	0.55540	6.11420	0.76686
8790.602	6.02580	0.58812	6.11991	0.76139
8794.609	6.01294	0.65063	6.10487	0.79706
8798.602	5.99041	0.70160	6.11000	0.82591
8802.600	5.90438	0.78542	6.11692	0.81107
8806.602	5.79781	0.82462	6.10644	0.83224
8810.600	5.74846	0.91155	6.12129	0.83278
8814.601	5.77865	1.08029	6.09839	0.83892
8818.599	5.71618	0.97872	6.06100	0.72061
8822.603	5.28158	0.67451	5.97627	-0.02795
8826.603	3.43568	-1.84702	5.73681	-0.85521
8830.601	2.42748	-1.81441	4.76394	-1.56287
8834.605	2.35414	-2.29263	4.25729	-2.70275
8838.602	2.39767	-3.63464	4.00277	-3.46283
8842.599	2.17219	-4.35206	3.51068	-3.72025
8846.599	2.02267	-4.98639	3.11111	-4.01407
8850.605	1.97069	-4.63549	3.02984	-4.06714
8854.601	2.04111	-4.32196	2.94386	-4.11637
8858.601	2.05633	-4.55748	2.72939	-4.11429
8862.602	2.05499	-4.52733	2.57191	-4.15306
8866.602	1.97513	-4.38532	2.55311	-4.15853
8870.634	1.94640	-4.46503	2.52042	-4.18032
8874.596	1.89074	-4.59492	2.48537	-4.19831
8878.607	1.82046	-4.73988	2.43964	-4.27615
8882.620	1.67866	-4.70513	2.40449	-4.34252
8886.605	1.65780	-4.75430	2.34359	-4.42091
8890.604	1.54651	-4.74405	2.27364	-4.40748
8894.600	1.50946	-4.85293	2.23771	-4.38441
8898.598	1.50041	-4.84940	2.22991	-4.37342
8902.603	1.44991	-4.91112	2.26807	-4.36324
8906.599	1.46489	-4.87806	2.33316	-4.36558
8910.597	1.40976	-4.84101	2.38113	-4.36299
8914.594	1.46980	-4.81827	2.52148	-4.33484
8918.601	1.47092	-4.77944	2.53194	-4.31784
8922.600	1.44376	-4.70181	2.53741	-4.29015
8926.926	1.52709	-4.65736	2.58301	-4.25964
8930.599	1.52531	-4.59399	2.66241	-4.20669
8934.602	1.58140	-4.53875	2.71129	-4.19190
8938.598	1.73058	-4.40851	2.72248	-4.20638
8942.600	1.75292	-4.39209	2.76213	-4.22160
8946.602	1.76081	-4.32977	2.75717	-4.23922
8950.599	1.73623	-4.27482	2.74932	-4.24870
8954.597	1.81805	-4.23922	2.74932	-4.22809
8958.599	1.81815	-4.22316	2.73311	-4.25989
8962.603	1.80977	-4.17029	2.69368	-4.27521
8966.600	1.82472	-4.16608	2.69690	-4.27186
8970.600	1.82157	-4.17135	2.70669	-4.27225
8974.595	1.78032	-4.18780	2.63715	-4.30283
8978.597	1.76792	-4.19299	2.59324	-4.30527
8982.598	1.68292	-4.21697	2.55955	-4.30679
8986.601	1.67417	-4.18393	2.43845	-4.30092
8990.594	1.64789	-4.21840	2.38957	-4.31238
8994.596	1.63779	-4.26550	2.33427	-4.29635
8998.598	1.59509	-4.30758	2.34349	-4.34210
9002.608	1.61944	-4.34053	2.25722	-4.34932
9006.601	1.63988	-4.36953	2.29441	-4.32346
9010.597	1.62061	-4.40572	2.26200	-4.32151
9014.602	1.62158	-4.39886	2.22959	-4.33987
9018.597	1.64275	-4.41797	2.19519	-4.34484
9022.599	1.65932	-4.38260	2.19750	-4.34241
9026.598	1.62512	-4.39537	2.16625	-4.34075
9030.604	1.60414	-4.39795	2.19814	-4.32490
9034.597	1.60037	-4.37882	2.23826	-4.32610
9038.600	1.63373	-4.36401	2.24882	-4.33130
9042.602	1.62515	-4.31414	2.23838	-4.31229
9046.597	1.61734	-4.24598	2.22951	-4.29481
9050.598	1.60449	-4.13779	2.26884	-4.31549
9054.600	1.59028	-4.13167	2.28799	-4.33555
9058.595	1.58510	-4.12731	2.27657	-4.35373
9062.596	1.60890	-4.12906	2.36173	-4.35199
9066.596	1.58143	-4.10386	2.32199	-4.36159
9070.602	1.59700	-4.09958	2.37738	-4.35300
9074.598	1.63673	-4.13397	2.37174	-4.37106
9078.593	1.67412	-4.17395	2.36292	-4.39076
9082.622	1.67680	-4.18135	2.40270	-4.39572
9086.597	1.70621	-4.24073	2.43372	-4.40505
9090.592	1.69582	-4.30324	2.49263	-4.43745
9094.596	1.70618	-4.35726	2.50613	-4.47965
9098.592	1.69619	-4.36992	2.51680	-4.49765
9102.600	1.72356	-4.40500	2.49364	-4.49786
9106.594	1.70660	-4.43111	2.45101	-4.52652
9110.594	1.72099	-4.46589	2.42914	-4.54347
9114.593	1.76227	-4.52901	2.41244	-4.56857
9118.593	1.77283	-4.57642	2.34213	-4.61917
9122.597	1.78121	-4.60702	2.34788	-4.64740
9126.599	1.73435	-4.63293	2.19992	-4.66953
9130.633	1.71932	-4.63950	2.14959	-4.65893
9134.604	1.69331	-4.65474	2.06059	-4.62135
9138.594	1.69145	-4.62770	2.09378	-4.64619
9142.591	1.67531	-4.63018	2.03933	-4.68037
9146.599	1.60900	-4.60171	2.05829	-4.78728
9150.596	1.63407	-4.58284	2.06855	-4.82725
9154.597	1.58234	-4.59937	2.15879	-4.91621
9158.592	1.51075	-4.55132	2.19821	-4.99638
9162.615	1.55293	-4.51282	2.26864	-4.86031
9166.604	1.90661	-4.45393	2.65228	-4.85052
9170.595	3.65791	-4.41394	5.00869	-4.74277
9174.600	4.67079	-4.13828	6.06971	-4.51739
9178.595	5.29474	-3.88516	7.09639	-4.50331
9182.594	6.22601	-3.84830	8.55190	-4.29582
9186.594	7.48124	-3.47916	8.82681	-4.15934
9190.593	8.39635	-3.11616	10.13924	-4.23013
9194.595	9.50885	-3.17943	10.28866	-4.06495
9198.599	9.28893	-3.05088	10.27143	-3.98802
9202.597	8.97019	-2.89434	10.15177	-3.93255
9206.593	8.75194	-2.87251	9.77488	-3.92519
9210.601	8.95477	-3.01484	9.95297	-3.87526
9214.598	8.94866	-2.93564	10.05430	-3.83157
9218.597	9.06443	-2.80334	10.09609	-3.84472
9222.591	9.01230	-2.81486	10.04571	-3.84471
9226.592	9.17747	-2.71121	10.13588	-3.89236
9230.594	9.24735	-2.66254	10.13340	-3.93013
9234.597	9.36967	-2.68676	10.13857	-3.93990
9238.591	9.40714	-2.58374	10.10995	-3.97516
9242.592	9.46454	-2.55107	10.06376	-4.01254
9246.593	9.53429	-2.57222	10.10102	-4.02321
9250.597	9.54351	-2.53346	10.10713	-4.03007
9254.590	9.58644	-2.49866	10.12813	-4.05853
9258.601	9.64617	-2.43900	10.14011	-4.05981
9262.594	9.66245	-2.42944	10.14396	-4.06117
9266.632	9.68341	-2.42169	10.12469	-4.04465
9270.480	9.70772	-2.43611	10.13597	-4.03540
9274.468	9.71720	-2.45572	10.14528	-4.00949
9278.465	9.70080	-2.44195	10.13799	-3.96763
9282.629	9.69287	-2.48238	10.09698	-3.93352
9286.474	9.67353	-2.55706	10.11115	-3.89494
9290.466	9.62553	-2.56716	10.14925	-3.85684
9294.466	9.61853	-2.60450	10.19392	-3.81873
9298.471	9.56622	-2.59103	10.16444	-3.75587
9302.464	9.52331	-2.61364	10.16685	-3.74671
9306.467	9.49822	-2.61821	10.12414	-3.69737
9310.470	9.47072	-2.61284	10.16377	-3.63801
9314.467	9.39629	-2.64056	10.10867	-3.61324
9318.468	9.38960	-2.66637	10.03736	-3.56878
9322.467	9.42098	-2.68545	10.06920	-3.52917
9326.466	9.46833	-2.67398	10.02011	-3.47758
9330.469	9.43870	-2.65518	9.98413	-3.44814
9334.467	9.43310	-2.70187	9.96381	-3.41107
9338.471	9.52893	-2.66417	9.91613	-3.36954
9342.472	9.53624	-2.74123	9.96304	-3.32659
9346.466	9.60082	-2.71678	10.13965	-3.22615
9350.465	10.19673	-2.24153	12.35445	-3.13178
9354.463	12.61379	-0.54472	13.01072	-2.55114
9358.466	12.85246	0.19621	13.27957	-1.72772
9362.469	13.33321	0.43024	13.79281	-1.10926
9366.467	13.78782	0.76604	13.93162	-0.81326
9370.463	13.79044	1.10276	13.81469	-0.87258
9374.464	13.79913	1.04424	13.80383	-0.93067
9378.466	13.71116	0.98594	13.76345	-0.89724
9382.470	13.43127	0.95212	13.75755	-0.88834
9386.466	13.29861	0.76940	13.88841	-0.91670
9390.468	13.22897	0.82544	14.00155	-0.86665
9394.466	13.40375	0.67235	14.06595	-0.85510
9398.466	13.39166	0.88782	14.12845	-0.80444
9402.483	13.43111	0.88627	14.16620	-0.71920
9406.464	13.39551	0.84619	14.24331	-0.67248
9410.470	13.45623	0.87572	14.23200	-0.49995
9414.467	13.42801	0.87271	14.32952	-0.53154
9418.466	13.43118	0.89413	14.39178	-0.48246
9422.467	13.45343	0.89972	14.48087	-0.38521
9426.465	13.45381	0.99008	14.56932	-0.31106
9430.468	13.51917	1.01747	14.66454	-0.25037
9434.464	13.59645	1.02365	14.66682	-0.20140
9438.462	13.67660	1.09579	14.55539	-0.24674
9442.466	13.65570	1.10151	14.17292	-0.19375
9446.471	13.68757	1.12516	13.87421	-0.19319
9450.466	13.64738	1.16185	13.84668	-0.19721
9454.469	13.65589	1.21013	14.15678	-0.28426
9458.465	13.62720	1.20465	14.02027	-0.23877
9462.472	13.54621	1.11603	14.16854	-0.27847
9466.469	13.56076	1.05482	14.24093	-0.32414
9470.490	13.57351	0.97894	14.24114	-0.28799
9474.469	13.64462	0.90025	14.08671	-0.36066
9478.463	13.51492	0.92778	14.08155	-0.43049
9482.466	13.57741	0.96965	14.03942	-0.48656
9486.464	13.52329	0.94554	13.82901	-0.44893
9490.462	13.53688	1.01329	14.10181	-0.44973
9494.464	13.61375	1.02513	14.11227	-0.46718
9498.463	13.70423	0.98708	14.15393	-0.40486
9502.462	13.68644	1.01629	14.13015	-0.47136
9506.470	13.61541	1.06474	14.11411	-0.51337
9510.464	13.65013	1.03190	13.96407	-0.45496
9514.462	13.68227	0.99555	14.08384	-0.46311
9518.462	13.68577	1.11370	14.16641	-0.44100
9522.465	13.72697	1.13966	14.07387	-0.42096
9526.467	13.66901	1.08549	14.02043	-0.40968
9530.463	13.66651	0.97442	13.97071	-0.37984
9534.460	13.63592	0.95400	14.04956	-0.39627
9538.475	13.61712	0.96420	14.06289	-0.37576
9542.464	13.72086	0.98363	14.04930	-0.32822
9546.466	13.64809	0.83040	13.93104	-0.33806
9550.488	13.48282	0.82960	13.55925	-0.24318
9554.470	12.17464	0.90702	11.80286	-0.17795
9558.461	10.50321	1.15754	10.77224	0.04677
9562.460	9.58323	1.30271	10.45850	0.18620
9566.462	8.70936	1.46786	9.39330	0.51345
9570.461	8.14297	1.69177	8.80660	0.45025
9574.460	7.88875	1.87583	8.72973	0.64711
9578.462	7.73104	1.71140	8.01657	0.66267
9582.465	7.88680	1.96135	8.11858	0.86613
9586.463	8.32578	1.69116	8.48083	0.87732
9590.474	8.38959	1.57541	8.30250	0.75215
9594.468	7.81030	1.84633	8.21568	0.80430
9598.461	7.91305	1.78924	8.27358	0.87764
9602.467	7.88339	1.33646	8.22472	0.97005
9606.467	8.05370	1.33596	8.10219	0.95780
9610.463	7.83458	1.62622	7.98836	0.87785
9614.468	7.77870	1.15922	8.06845	0.92933
9618.463	7.87353	1.11742	8.02161	1.18058
9622.461	8.16642	1.25647	7.84937	1.01271
9626.461	7.99829	1.28225	7.96395	1.02288
9630.481	7.80735	1.20710	8.05480	0.93403
9634.461	7.80599	1.29825	8.07304	0.81396
9638.462	7.88495	1.25082	7.88512	0.90435
9642.466	7.88161	1.14553	7.91098	0.93783
9646.463	7.86744	1.25085	7.90732	0.95612
9650.460	7.85370	1.33543	7.89951	0.90141
9654.462	7.86600	1.62546	8.07037	0.87354
9658.463	7.82153	1.44349	7.99248	0.81865
9662.461	7.72953	1.44420	8.09365	0.82828
9666.463	7.74640	1.51744	8.06326	0.80040
9670.465	7.77015	1.59766	8.06762	0.86299
9674.466	7.94728	1.64444	8.09246	1.01678
9678.467	8.03158	1.50555	8.00194	1.04832
9682.464	7.99262	1.45251	7.92863	0.99414
9686.460	7.86025	1.41876	7.94336	1.03974
9690.465	7.91129	1.50359	7.91665	1.00733
9694.464	7.79666	1.44675	8.00204	1.02394
9698.467	7.79447	1.45020	8.02453	1.03090
9702.461	7.75363	1.32548	8.05596	1.06065
9706.459	7.75051	1.28910	7.96711	1.02317
9710.457	7.76184	1.23295	7.97432	1.04675
9714.517	7.71372	1.22091	8.03815	1.02877
9718.471	7.68571	1.24272	8.03713	0.99500
9722.458	7.70714	1.30803	8.05935	0.97476
9726.459	7.73319	1.42987	8.11481	1.02863
9730.465	7.91541	1.45977	8.12247	1.10482
9734.459	7.93785	1.54884	8.05258	1.21733
9738.456	7.91049	1.44534	7.97417	1.20539
9742.463	7.86681	1.48284	7.86035	1.23746
9746.461	7.91850	1.49603	7.88232	1.14316
9750.458	7.79705	1.43838	7.83726	0.94250
9754.464	7.71457	1.40621	7.88755	0.65109
9758.458	7.78820	1.34880	7.82513	0.91942
9762.460	7.79702	1.35217	7.91677	0.74207
9766.458	7.71718	1.36178	7.92926	0.76016
9770.461	7.79422	1.25828	7.98951	0.87701
9774.461	7.69532	1.29911	8.04283	0.84014
9778.456	7.65483	1.31243	7.98637	0.81452
9782.457	7.59283	1.35444	8.01912	0.84865
9786.458	7.53886	1.35511	8.05993	0.79822
9790.458	7.49168	1.42380	8.04025	0.77488
9794.457	7.63189	1.52130	7.99542	0.80393
9798.465	7.31123	1.62620	7.57717	1.09319
9802.459	4.93639	1.81774	6.98262	1.20714
9806.455	4.83161	1.91545	6.10880	1.13864
9810.465	4.94881	1.61407	5.92942	1.34864
9814.463	5.06927	1.79163	5.65189	1.27827
9818.465	5.04610	1.79088	5.85698	1.28734
9822.460	5.08269	1.74896	5.74392	1.30594
9826.458	5.06427	1.78620	5.69807	1.30948
9830.458	5.18555	1.84760	5.75463	1.31367
9834.457	5.10502	1.84385	5.74802	1.33707
9838.465	5.12063	1.81132	5.83206	1.31663
9842.458	5.09150	1.73418	5.79251	1.20775
9846.454	5.09884	1.76808	5.72922	1.15814
9850.461	5.08424	1.75823	5.72509	1.05891
9854.459	5.05937	1.79262	5.71224	0.95151
9858.461	5.01418	1.82925	5.77158	0.97744
9862.457	4.95502	1.85763	5.83797	0.98651
9866.462	4.84615	1.89355	5.88744	1.00896
9870.460	4.77764	1.90220	5.98800	0.97182
9874.461	4.74659	1.93162	5.96105	0.96692
9878.469	4.76741	1.96102	5.94521	1.02027
9882.470	4.70641	2.01129	5.94173	1.06273
9886.461	4.69911	2.04297	5.91420	1.12759
9890.457	4.71075	2.03118	5.86153	1.10504
9894.457	4.77712	2.04180	5.83203	1.18555
9898.457	4.80943	2.05100	5.74853	1.25539
9902.460	4.91225	2.00529	5.67787	1.29025
9906.457	4.98869	1.96006	5.61605	1.21574
9910.461	4.98832	1.02163	5.39067	0.85475
9914.458	4.79366	-0.40595	5.43477	-0.69224
9918.460	4.41719	-3.38861	5.44468	-3.06930
9922.459	3.57780	-4.14563	5.19217	-3.88905
9926.461	3.42393	-6.79489	4.66615	-4.87833
9930.458	5.30057	-4.71827	4.64803	-6.50012
9934.460	2.60223	-8.42427	4.63141	-7.09238
9938.489	2.42329	-8.64805	3.89360	-7.51603
9942.460	2.38806	-9.24295	3.79707	-7.60198
9946.459	2.37456	-9.79522	3.39169	-7.59569
9950.457	2.21712	-9.55112	3.23393	-7.57961
9954.456	2.16739	-9.31610	3.34210	-7.43381
9958.458	2.18662	-9.11231	3.00074	-7.43838
9962.462	2.42822	-9.12672	3.02502	-7.39369
9966.454	2.32429	-9.09346	2.96940	-7.51593
9970.460	2.29042	-9.12066	3.14115	-7.55688
9974.456	2.28514	-9.19992	3.11314	-7.60508
9978.453	2.26854	-9.25867	3.05825	-7.66431
9982.452	2.18300	-9.46049	3.03863	-7.70252
9986.453	2.09623	-9.59057	3.01165	-7.74425
9990.458	2.15021	-9.31166	2.98133	-7.83698
9994.452	2.28155	-9.26265	2.85108	-7.81279
9998.459	2.20711	-9.41023	2.83229	-7.86270
10002.456	2.24178	-9.37688	2.81739	-7.85469
10006.464	2.18171	-9.41735	2.80919	-7.86722
10010.463	2.10513	-9.47757	2.88908	-7.85871
10014.454	2.04515	-9.60041	2.91851	-7.86552
10018.462	2.08686	-9.66659	2.86948	-7.88181
10022.458	2.02763	-9.71955	2.81268	-7.86269
10026.455	2.15802	-9.57453	2.76856	-7.82815
10030.452	2.22619	-9.59481	2.70636	-7.79429
10034.459	2.18374	-9.58702	2.71406	-7.73856
10038.457	2.15571	-9.65328	2.71902	-7.72571
10042.457	2.12788	-9.64028	2.73296	-7.68619
10046.456	2.14099	-9.65946	2.77515	-7.66173
10050.455	2.12087	-9.71667	2.81583	-7.62732
10054.456	2.05987	-9.77452	2.83098	-7.60871
10058.454	2.24151	-9.59044	2.84997	-7.59423
10062.454	2.26068	-9.56369	2.86940	-7.55757
10066.456	2.28175	-9.51905	2.92735	-7.54497
10070.456	2.19740	-9.50705	3.00440	-7.58463
10074.451	2.15945	-9.44665	3.02492	-7.64885
10078.458	2.13509	-9.42333	3.00341	-7.76758
10082.458	2.14610	-9.36968	2.97678	-7.78896
10086.460	2.13413	-9.31773	3.04009	-7.73996
10090.461	2.11760	-9.29139	3.03514	-7.80983
10094.455	2.13160	-9.28521	3.06726	-7.81443
10098.456	2.23380	-9.21839	3.01834	-7.79743
10102.453	2.21749	-9.23734	3.04712	-7.81243
10106.453	2.20986	-9.21793	2.98886	-7.85429
10110.454	2.16325	-9.24867	2.85029	-7.84422
10114.457	2.18047	-9.25246	2.84650	-7.85713
10118.450	2.13249	-9.30025	2.71097	-7.86079
10122.459	2.16620	-9.28929	2.75284	-7.86871
10126.329	2.14406	-9.33870	2.87183	-7.93621
10130.329	2.09913	-9.41333	2.99057	-7.90855
10134.462	2.01117	-9.51319	2.98034	-7.89877
10138.330	2.00262	-9.54889	3.17334	-7.96694
10142.330	1.93973	-9.56861	3.15842	-8.00097
10146.336	1.96816	-9.67009	3.17903	-8.02113
10150.369	2.02502	-9.72885	3.20145	-8.01269
10154.330	2.20927	-9.66533	3.19187	-8.02395
10158.324	2.08017	-9.65013	3.10782	-7.98938
10162.335	2.10352	-9.67716	3.09921	-7.99027
10166.331	2.09180	-9.64996	3.05860	-7.92683
10170.328	2.13207	-9.63675	3.02259	-7.86336
10174.326	2.11953	-9.67983	2.92183	-7.77840
10178.332	2.13294	-9.63219	2.99099	-7.71435
10182.326	2.18277	-9.67278	2.97297	-7.60491
10186.327	2.16853	-9.65516	3.00475	-7.63766
10190.326	2.18233	-9.67522	3.01217	-7.62722
10194.330	2.32278	-9.53392	2.97567	-7.67193
10198.329	2.23672	-9.48294	2.90980	-7.64115
10202.329	2.13817	-9.43257	2.85205	-7.63554
10206.323	2.11809	-9.43504	2.87163	-7.62951
10210.332	2.22926	-9.52231	2.99235	-7.59371
10214.327	2.13209	-9.53557	2.99920	-7.60978
10218.332	2.08555	-9.52998	3.03341	-7.63748
10222.330	2.10922	-9.59629	3.04093	-7.67572
10226.328	2.10870	-9.60783	2.97527	-7.72650
10230.326	2.21858	-9.53578	2.89663	-7.76115
10234.334	2.37136	-9.44046	2.77218	-7.80301
10238.328	2.20173	-9.47009	2.77297	-7.78090
10242.326	2.14823	-9.50902	2.84442	-7.75858
10246.325	2.13869	-9.56149	2.89992	-7.76734
10250.325	2.11973	-9.57382	2.96849	-7.78146
10254.328	2.12439	-9.59195	2.92911	-7.80946
10258.332	2.13832	-9.56492	2.85752	-7.83394
10262.330	2.13024	-9.55328	2.86178	-7.86077
10266.328	2.15271	-9.56133	2.74120	-7.87529
10270.325	2.16776	-9.51487	2.72607	-7.85953
10274.326	2.19281	-9.48976	2.78696	-7.83085
10278.330	2.19410	-9.50234	2.75623	-7.85263
10282.326	2.20473	-9.48498	2.92025	-7.87859
10286.367	2.18434	-9.47059	2.93990	-7.94531
10290.337	2.20119	-9.44692	2.96666	-8.00458
10294.324	2.19360	-9.46717	3.05437	-8.03990
10298.332	2.15898	-9.45943	3.01388	-8.08751
10302.330	2.12082	-9.45396	3.04170	-8.08507
10306.325	2.02180	-9.51417	3.05395	-8.04365
10310.326	2.14260	-9.49884	3.06944	-8.02337
10314.330	2.06305	-9.52171	3.03900	-8.04763
10318.327	2.11274	-9.53759	2.94708	-8.06554
10322.323	2.00274	-9.54003	2.96099	-8.02559
10326.330	1.99367	-9.53546	2.91042	-7.96375
10330.326	2.01015	-9.54708	2.80248	-7.91618
10334.327	2.03685	-9.52307	2.85044	-7.86414
10338.322	2.09817	-9.48031	2.77738	-7.81308
10342.328	2.18097	-9.38608	2.80167	-7.77562
10346.355	2.18481	-9.38398	2.80058	-7.76252
10350.323	2.27766	-9.31396	2.79681	-7.75124
10354.322	2.25278	-9.25971	2.84257	-7.73878
10358.327	2.27595	-9.18561	2.92990	-7.74784
10362.324	2.22032	-9.15174	2.86608	-7.74525
10366.324	2.27359	-9.15235	2.88260	-7.77450
10370.328	2.28445	-9.13762	2.92760	-7.84725
10374.325	2.21950	-9.15803	2.95970	-7.83786
10378.325	2.09321	-9.17955	3.01237	-7.86017
10382.324	2.05928	-9.18877	3.01492	-7.89521
10386.331	2.04480	-9.19088	2.99519	-7.96178
10390.322	2.04029	-9.18568	2.87623	-8.00069
10394.323	2.06077	-9.19425	2.85098	-8.02099
10398.324	2.04513	-9.17612	2.89007	-8.11321
10402.321	2.07031	-9.14436	2.88190	-8.16733
10406.320	2.07955	-8.86784	2.92183	-8.15270
10410.322	1.90500	-8.06348	2.82338	-8.00735
10414.325	1.77057	-5.96010	2.75581	-6.63053
10418.326	1.81942	-4.95716	2.53340	-6.15289
10422.326	1.74712	-5.74006	2.37518	-5.53983
10426.333	1.84969	-5.06369	2.37580	-5.38471
10430.328	1.91152	-5.22857	2.33281	-5.20477
10434.327	1.77710	-5.23111	2.35831	-5.15720
10438.323	1.71322	-5.45195	2.40238	-5.19587
10442.325	1.64873	-5.52681	2.30984	-5.26858
10446.325	1.48563	-5.49320	2.25627	-5.22069
10450.321	1.46070	-5.40495	2.27077	-5.24880
10454.321	1.44756	-5.41035	2.23387	-5.22751
10458.324	1.49304	-5.47132	2.23226	-5.18758
10462.321	1.49455	-5.46932	2.30330	-5.15487
10466.327	1.54735	-5.44130	2.38224	-5.19260
10470.326	1.47027	-5.48494	2.37877	-5.22543
10474.323	1.39336	-5.49937	2.40298	-5.23940
10478.321	1.53180	-5.50625	2.40942	-5.28334
10482.319	1.59834	-5.49079	2.43085	-5.28705
10486.326	1.61850	-5.38289	2.42877	-5.30200
10490.321	1.75694	-5.27446	2.47152	-5.32539
10494.328	1.89677	-5.20640	2.49481	-5.30211
10498.321	1.85162	-5.13167	2.59735	-5.29876
10502.322	1.92389	-4.99578	2.66169	-5.29059
10506.326	1.93251	-4.89395	2.68304	-5.28506
10510.328	1.92674	-4.85321	2.71924	-5.26721
10514.319	2.00792	-4.83554	2.73712	-5.24508
10518.326	2.00113	-4.75149	2.76963	-5.24053
10522.327	1.99493	-4.68758	2.78646	-5.19248
10526.325	1.93348	-4.60964	2.82526	-5.17126
10530.320	1.87939	-4.61763	2.80496	-5.12795
10534.326	1.83642	-4.62968	2.75735	-5.09174
10538.325	1.81791	-4.59171	2.74442	-5.07532
10542.324	1.78116	-4.52810	2.69849	-5.06563
10546.322	1.76329	-4.45542	2.66434	-5.05304
10550.331	1.75458	-4.40819	2.58477	-5.02245
10554.325	1.77050	-4.40126	2.52503	-5.00994
10558.330	1.75828	-4.51134	2.42089	-5.00205
10562.325	1.68930	-4.62852	2.40838	-4.97463
10566.360	1.68850	-4.72423	2.41328	-4.92905
10570.323	1.69064	-4.78498	2.37342	-4.89185
10574.325	1.68022	-4.89882	2.36631	-4.82838
10578.321	1.66244	-4.98500	2.45854	-4.76450
10582.324	1.65704	-4.91749	2.50429	-4.66624
10586.320	1.61424	-4.97652	2.58351	-4.49323
10590.320	1.60382	-5.00329	2.80684	-4.54687
10594.324	1.59593	-4.96552	2.75898	-4.68307
10598.319	1.57982	-4.88353	2.71704	-4.75019
10602.324	1.59951	-4.77008	2.73930	-4.81794
10606.321	1.60444	-4.85067	2.63715	-4.76204
10610.323	1.60013	-4.95202	2.67558	-4.70026
10614.316	1.61523	-4.94247	2.62927	-4.71592
10618.320	1.65932	-4.91657	2.71790	-4.71331
10622.319	1.66160	-4.96213	2.66867	-4.62461
10626.322	1.68139	-4.88922	2.65268	-4.54900
10630.324	1.66663	-4.87057	2.65748	-4.53470
10634.324	1.64970	-4.73340	2.65201	-4.41985
10638.324	1.68729	-4.76997	2.55413	-4.55012
10642.321	1.67028	-4.63676	2.58556	-4.84718
10646.322	1.69698	-4.56451	2.59946	-4.87601
10650.319	1.74796	-4.38398	2.52842	-4.83566
10654.318	1.71335	-4.55196	2.45820	-4.69289
10658.320	1.68002	-4.19694	2.53498	-4.33793
10662.318	1.64050	-2.75691	2.41767	-4.02098
10666.316	1.55045	-2.11648	2.20250	-3.12563
10670.323	1.59209	-0.14116	1.76239	-0.66469
10674.326	1.47226	0.59149	1.92324	-0.40332
10678.323	1.44349	2.06853	1.80139	0.96264
10682.316	1.22360	1.99772	1.78701	1.99133
10686.319	1.30724	2.56907	1.66366	1.91323
10690.320	1.36419	2.86593	1.65540	1.96341
10694.324	1.26679	2.74757	1.60600	1.98966
10698.320	1.14692	2.77885	1.61007	1.83051
10702.319	1.21129	2.73601	1.67372	1.78993
10706.318	1.29578	2.70595	1.64880	1.89846
10710.320	1.21556	2.73382	1.71255	1.97960
10714.325	1.17823	2.75032	1.77385	2.06866
10718.325	1.11531	2.71151	1.75748	2.11122
10722.319	1.08418	2.74361	1.77826	2.21986
10726.316	1.01037	2.77724	1.82306	2.26707
10730.317	0.99559	2.73224	1.86340	2.39027
10734.318	0.85483	2.66541	1.86588	2.46868
10738.332	0.85925	2.61721	1.90733	2.47185
10742.323	0.91202	2.64725	1.90368	2.51875
10746.321	0.81575	2.65510	1.86533	2.59337
10750.316	0.74087	2.60293	1.82539	2.64327
10754.320	0.83503	2.58105	1.78674	2.65628
10758.325	1.00777	2.50277	1.74209	2.65984
10762.346	1.11938	2.46330	1.74548	2.67022
10766.317	1.17433	2.56015	1.74268	2.66061
10770.317	1.14005	2.54957	1.72984	2.62823
10774.322	1.11576	2.56777	1.72770	2.57304
10778.318	1.20303	2.53268	1.70412	2.52639
10782.344	1.16997	2.54654	1.68699	2.49996
10786.315	1.17277	2.49727	1.66874	2.45489
10790.322	1.21028	2.47306	1.65738	2.38736
10794.316	1.20663	2.41900	1.64610	2.35422
10798.317	1.12586	2.41307	1.64109	2.31299
10802.320	1.04997	2.48014	1.63202	2.30055
10806.318	0.97512	2.48987	1.63244	2.29710
10810.320	0.96867	2.49620	1.61617	2.26520
10814.312	0.90297	2.54341	1.57872	2.26455
10818.316	0.88217	2.68280	1.56573	2.26640
10822.318	0.85061	2.71101	1.56442	2.28183
10826.316	0.83267	2.87390	1.55777	2.30106
10830.314	0.84305	3.03771	1.53652	2.30676
10834.317	0.82533	3.04214	1.53825	2.32389
10838.322	0.81803	3.14126	1.53716	2.34993
10842.323	0.82002	3.22154	1.52389	2.40177
10846.315	0.82565	3.33776	1.54661	2.44036
10850.313	0.86845	3.36531	1.52960	2.46958
10854.320	0.86215	3.38708	1.56821	2.49897
10858.316	0.88076	3.39236	1.58758	2.52770
10862.318	0.92713	3.39630	1.61379	2.58144
10866.314	0.92574	3.42918	1.61515	2.59378
10870.320	0.94815	3.37605	1.53210	2.64307
10874.316	0.97968	3.30075	1.63003	2.66805
10878.314	1.01630	3.44105	1.69011	2.93013
10882.326	1.14662	5.40769	1.63779	5.78651
10886.325	1.22906	5.84817	2.01261	6.35987
10890.317	1.73018	7.62320	1.85842	9.31249
10894.320	1.36137	9.38946	2.16285	8.91522
10898.341	1.58482	9.96872	1.97059	10.35275
10902.318	1.62458	10.52636	2.13908	11.67811
10906.315	1.75929	10.77219	1.93762	13.18563
10910.320	1.62336	10.79114	1.97850	13.05937
10914.317	1.63918	10.47833	2.03623	12.20977
10918.318	1.62081	10.29610	2.12910	11.54719
10922.314	1.72560	10.16290	2.08567	11.56924
10926.323	1.62158	10.24160	2.15165	11.65024
10930.317	1.64295	10.11906	2.14320	11.78299
10934.319	1.59412	9.98031	2.16937	11.77746
10938.317	1.63251	10.17300	2.13378	12.05772
10942.320	1.57989	10.18122	2.11638	12.36433
10946.318	1.56196	10.11464	2.06079	12.48836
10950.315	1.55023	10.19775	2.09643	12.33406
10954.318	1.61114	10.20727	2.10602	12.32206
10958.316	1.58138	10.26385	2.07668	12.31153
10962.317	1.65205	10.27656	2.03142	12.53038
10966.331	1.65056	10.23347	2.03823	12.51644
10970.321	1.67997	10.25138	2.05462	12.51009
10974.315	1.66333	10.33007	2.05075	12.54221
10978.194	1.68404	10.36244	2.02616	12.52557
10982.190	1.66894	10.37427	2.04210	12.63689
10986.193	1.70162	10.40904	2.07675	12.57061
10990.193	1.69599	10.40945	2.09955	12.60469
10994.191	1.72738	10.41827	2.20077	12.47358
10998.194	1.70859	10.38048	2.28549	12.49633
11002.190	1.72188	10.42904	2.39889	12.51476
11006.192	1.68168	10.44552	2.50028	12.33861
11010.193	1.64265	10.44726	2.64480	12.19422
11014.194	1.56826	10.44650	2.65557	12.24163
11018.191	1.66214	10.43265	2.66605	12.11234
11022.191	1.64171	10.40954	2.67291	12.17927
11026.193	1.66730	10.29586	2.64946	12.06045
11030.188	1.66455	10.22647	2.70171	12.06892
11034.187	1.65376	10.32764	2.64832	12.03759
11038.188	1.63355	10.24567	2.62930	11.98339
11042.189	1.63916	10.28954	2.48854	12.04402
11046.188	1.58810	10.26858	2.47638	11.94830
11050.186	1.53051	10.34683	2.36009	11.98188
11054.194	1.52079	10.34416	2.33779	11.82443
11058.189	1.55130	10.36178	2.24059	11.79940
11062.187	1.55437	10.40402	2.25191	11.97176
11066.190	1.61704	10.45985	2.17936	11.80189
11070.192	1.54671	10.46123	2.18577	11.95605
11074.187	1.43977	10.51841	2.09695	12.31211
11078.193	0.82655	10.72991	1.51454	12.61252
11082.186	0.06574	11.26467	1.22417	12.73174
11086.187	-0.20864	12.26433	0.73474	13.51216
11090.190	-0.24130	12.39052	0.52426	14.02020
11094.190	-0.33121	12.33041	0.54061	13.90999
11098.198	-0.19087	11.86578	0.64322	13.80296
11102.192	-0.20874	11.84728	0.54446	13.86933
11106.188	-0.23860	11.94590	0.49202	13.87293
11110.191	-0.22577	11.96513	0.49877	13.75309
11114.190	-0.23244	11.94224	0.48264	13.88401
11118.185	-0.26096	11.94852	0.43095	14.01133
11122.187	-0.28528	11.98291	0.42472	14.06085
11126.190	-0.34298	12.06072	0.41283	14.11116
11130.211	-0.30131	12.05249	0.45497	14.16127
11134.195	-0.27575	12.05164	0.49237	14.19728
11138.191	-0.27205	12.04675	0.51257	14.29276
11142.190	-0.29816	12.07555	0.49587	14.26624
11146.189	-0.32603	12.10101	0.48959	14.41770
11150.186	-0.33570	12.10656	0.48066	14.48829
11154.185	-0.36948	12.13704	0.50257	14.52348
11158.184	-0.38916	12.19469	0.53004	14.52871
11162.201	-0.43805	12.27367	0.52843	14.56335
11166.191	-0.47758	12.24363	0.51227	14.58662
11170.189	-0.43755	12.26835	0.52575	14.64426
11174.192	-0.46232	12.26295	0.47073	14.70391
11178.193	-0.48713	12.25942	0.46411	14.70399
11182.191	-0.54210	12.30997	0.40100	14.74929
11186.185	-0.54093	12.33964	0.39194	14.77800
11190.188	-0.45840	12.28044	0.38928	14.83668
11194.182	-0.41283	12.30872	0.43668	14.83768
11198.221	-0.42368	12.33038	NaN	NaN
11202.186	-0.36360	12.33282	NaN	NaN
11206.184	-0.27600	12.23102	NaN	NaN
11210.183	-0.20792	12.21850	NaN	NaN
11214.187	-0.20976	12.16734	NaN	NaN
11218.184	-0.13062	12.16266	0.42812	14.96985
11222.189	-0.23649	12.04994	0.59330	14.16588
11226.183	0.12240	10.49089	1.13159	10.49110
11230.190	0.37186	9.51239	1.46938	10.19651
11234.185	1.01960	6.48330	2.39601	6.49929
11238.185	1.52498	4.65752	3.42178	4.98482
11242.187	1.84255	2.58408	3.52536	3.20506
11246.185	2.29250	1.76788	3.97286	2.55373
11250.180	2.34309	-0.27418	4.07695	0.44748
11254.185	2.47625	-0.50259	4.46768	-1.22264
11258.187	2.91401	-1.58220	4.65454	-1.61496
11262.189	2.93646	-2.01296	5.06264	-2.14422
11266.185	2.96794	-2.57029	5.21543	-2.32885
11270.184	2.96146	-2.71549	5.01317	-2.47731
11274.206	2.96143	-2.59229	5.05858	-2.54604
11278.188	3.04063	-2.38411	4.99719	-2.30293
11282.188	3.17883	-2.46704	4.82276	-2.19017
11286.184	3.32946	-2.60445	4.89070	-2.35590
11290.186	3.44120	-2.69192	4.82390	-2.60496
11294.189	3.62882	-2.76719	4.91890	-2.65175
11298.183	3.68540	-2.76560	5.00647	-2.66084
11302.182	3.75496	-2.80004	4.87944	-2.78936
11306.189	3.87134	-2.79229	4.93841	-2.80467
11310.187	3.96679	-2.76447	4.88614	-2.87098
11314.184	4.02626	-2.72609	4.88431	-2.81703
11318.186	4.07658	-2.71168	4.86460	-2.81456
11322.181	4.08434	-2.73861	4.85790	-2.79928
11326.182	4.11871	-2.73114	4.91945	-2.82105
11330.184	4.14453	-2.71449	4.96425	-2.80817
11334.182	4.13940	-2.64143	5.04560	-2.81182
11338.183	4.12787	-2.61067	5.06301	-2.79957
11342.189	4.09520	-2.57489	5.07702	-2.82679
11346.190	4.04853	-2.54402	5.11344	-2.81352
11350.182	3.98195	-2.51139	5.12516	-2.83880
11354.181	3.91501	-2.47453	5.09736	-2.82799
11358.188	3.87801	-2.44091	5.10290	-2.85105
11362.184	3.87193	-2.42241	5.11332	-2.90435
11366.182	3.85607	-2.38442	5.13163	-2.97655
11370.182	3.81496	-2.36137	5.07885	-2.98751
11374.182	3.79981	-2.32586	5.09556	-3.02559
11378.183	3.78182	-2.30140	5.01366	-2.99904
11382.186	3.77308	-2.27457	4.93918	-2.92577
11386.184	3.75529	-2.27226	4.85544	-2.90878
11390.186	3.74419	-2.24615	4.75053	-2.84152
11394.186	3.76954	-2.25371	4.60175	-2.73411
11398.182	3.78086	-2.24211	4.50816	-2.66494
11402.182	3.77454	-2.23208	4.46734	-2.70137
11406.181	3.75254	-2.19841	4.43542	-2.62874
11410.183	3.73912	-2.17956	4.30243	-2.60136
11414.186	3.73705	-2.17971	4.30951	-2.60549
11418.219	3.70890	-2.16586	4.27832	-2.59551
11422.186	3.71189	-2.16380	4.21037	-2.58760
11426.182	3.66817	-2.14962	4.17968	-2.60721
11430.187	3.68137	-2.12022	4.16114	-2.58833
11434.178	3.69056	-2.09672	4.20430	-2.58905
11438.185	3.67568	-2.07704	4.29895	-2.55876
11442.179	3.67657	-2.02756	4.36900	-2.54883
11446.186	3.66389	-2.00297	4.46685	-2.55020
11450.181	3.66281	-1.93716	4.60584	-2.53050
11454.178	3.69454	-1.81660	4.50779	-2.54183
11458.178	3.68555	-1.51085	4.69322	-2.34575
11462.185	3.74688	-1.14508	4.96157	-1.47474
11466.181	4.48542	1.64958	5.89289	0.55443
11470.184	4.89779	3.26040	6.53502	1.85249
11474.185	5.49109	4.28903	6.71250	4.25155
11478.179	5.61913	6.02330	7.26105	6.10273
11482.183	6.27601	6.70218	8.56411	7.31066
11486.180	7.28290	8.72498	8.99532	8.64414
11490.185	7.58920	9.37937	9.13119	9.62362
11494.184	7.92459	9.97685	9.08072	10.34753
11498.181	7.82876	10.45459	9.25337	12.09201
11502.182	7.87017	10.69985	9.16051	12.40385
11506.180	7.89396	10.70022	9.17041	11.78095
11510.184	8.11116	10.72230	9.19012	11.54285
11514.191	8.09036	10.68505	9.29925	11.70422
11518.184	8.08073	10.73014	9.41110	11.66829
11522.181	7.92731	10.44906	9.42559	11.62508
11526.180	7.86778	10.59190	9.64808	11.54487
11530.179	7.83792	10.66959	9.65269	11.48615
11534.180	7.82491	10.59213	9.65640	11.50915
11538.178	7.76306	10.62126	9.74817	11.58877
11542.181	8.08058	10.50234	9.81159	11.54718
11546.185	8.11362	10.49567	9.91397	11.51619
11550.182	8.14032	10.49506	9.90354	11.47657
11554.188	8.09628	10.44615	9.94503	11.49774
11558.180	8.18944	10.42491	9.97917	11.48860
11562.183	8.36239	10.39841	10.00923	11.45981
11566.183	8.47019	10.42963	10.01809	11.41569
11570.180	8.50748	10.40684	10.02035	11.41928
11574.178	8.56122	10.35955	10.04478	11.41722
11578.633	8.65327	10.35856	10.01640	11.42209
11582.191	8.65261	10.35227	9.99845	11.37201
