time (ms)	lx (deg)	ly (deg)	rx (deg)	ry (deg)
0.000	-0.41226	0.19750	0.00258	-0.26646
4.001	-0.43294	0.19844	-0.02368	-0.23075
7.995	-0.41462	0.18917	-0.15816	-0.23398
11.998	-0.40355	0.20955	-0.03137	-0.29188
15.996	-0.41293	0.22274	-0.01564	-0.26673
20.013	-0.46247	0.20102	-0.03095	-0.31213
23.991	-0.45532	0.25151	0.01308	-0.38518
27.997	-0.46775	0.18447	0.02390	-0.46343
31.996	-0.41820	0.18105	0.05639	-0.57054
35.991	-0.51473	0.15781	0.06656	-0.59176
39.992	-0.49284	0.11376	0.17012	-0.66354
43.996	-0.54562	0.02000	0.19288	-0.64903
47.992	-0.51850	-0.01185	0.28719	-0.55714
51.999	-0.55582	-0.04950	0.23058	-0.63402
56.015	-0.59885	-0.08610	0.11146	-0.52756
59.996	-0.59957	-0.13833	0.01300	-0.43614
63.992	-0.52726	-0.22304	-0.16092	-0.40754
67.992	-0.49433	-0.29385	-0.32005	-0.30064
71.995	-0.45981	-0.31110	-0.49661	-0.32379
75.996	-0.50957	-0.36479	-0.42055	-0.39899
79.989	-0.46751	-0.39148	-0.36318	-0.54052
83.996	-0.55984	-0.39155	-0.19690	-0.70667
87.996	-0.56426	-0.36489	-0.21504	-0.76620
91.999	-0.67771	-0.27869	-0.24961	-0.78110
95.998	-0.63044	-0.27369	-0.24684	-0.67256
99.991	-0.65717	-0.24914	-0.23314	-0.64490
103.996	-0.63091	-0.22999	-0.11009	-0.57564
107.992	-0.62340	-0.15438	-0.15476	-0.54592
111.994	-0.63506	-0.09991	-0.11848	-0.51970
115.992	-0.68742	-0.05688	-0.07207	-0.36540
119.990	-0.67873	0.03573	-0.00630	-0.34381
123.998	-0.68814	0.11802	0.04452	-0.22792
127.992	-0.63933	0.25449	0.07569	-0.20043
131.995	-0.61081	0.24798	0.09679	-0.18336
135.997	-0.60590	0.28669	0.17675	-0.13717
140.001	-0.61292	0.31909	0.22931	-0.12785
143.993	-0.61657	0.42971	0.32029	-0.09721
147.995	-0.62074	0.47306	0.33010	-0.07442
151.992	-0.64116	0.53622	0.33806	0.01307
155.993	-0.63747	0.56290	0.34213	0.06177
159.995	-0.63114	0.55404	0.30019	0.09152
163.992	-0.64488	0.54275	0.25053	0.11900
167.990	-0.63982	0.49709	0.19469	0.14415
171.995	-0.63178	0.44320	0.16459	0.15138
176.000	-0.66111	0.48360	0.17176	0.13858
179.992	-0.63273	0.43080	0.22547	0.14129
183.995	-0.64417	0.40737	0.17933	0.12270
187.997	-0.49651	0.31020	0.13265	0.10660
191.993	-0.59027	0.34811	0.13002	0.01782
195.991	-0.63082	0.30373	0.13905	-0.17792
199.992	-0.66583	0.24512	0.13210	-0.23398
203.990	-0.70203	0.20370	0.10493	-0.28119
207.991	-0.64821	0.17339	0.06276	-0.35951
211.995	-0.62176	0.16467	0.08766	-0.51471
215.997	-0.65101	0.18606	0.07349	-0.56381
219.996	-0.60312	0.15165	0.01961	-0.62128
223.996	-0.55848	0.12305	-0.00951	-0.71579
227.990	-0.51193	0.17677	-0.06780	-0.75758
231.988	-0.57873	0.09206	-0.04383	-0.73405
235.987	-0.55044	0.02256	0.00236	-0.76340
239.995	-0.44599	-0.02738	0.05581	-0.69984
243.989	-0.22142	0.05489	0.05993	-0.51981
247.989	-0.18531	0.17963	0.13019	-0.47572
251.987	-0.33977	0.30116	0.11947	-0.38185
255.990	-0.31804	0.29085	0.13171	-0.28320
260.000	-0.20668	0.21860	0.15638	-0.23271
263.990	-0.19115	0.30281	0.17065	-0.18319
267.988	-0.16568	0.38071	0.22681	-0.11525
271.989	-0.10865	0.28077	0.23378	-0.08143
275.993	-0.12667	0.18319	0.18891	-0.07735
279.984	-0.07170	0.14405	0.12126	-0.09390
283.988	-0.11218	0.03852	0.16715	-0.04853
287.991	-0.17017	-0.04031	0.16280	-0.13172
291.989	-0.20400	-0.23949	0.19802	-0.23587
295.988	-0.19842	-0.13103	0.24187	-0.28101
299.995	-0.20395	-0.19926	0.28195	-0.40523
303.996	-0.24361	-0.05256	0.32240	-0.46372
307.989	-0.35710	-0.07224	0.33655	-0.50859
311.994	-0.38549	-0.14211	0.38956	-0.55689
315.990	-0.40690	-0.18810	0.47537	-0.54550
319.988	-0.40045	-0.17774	0.51535	-0.52212
323.987	-0.40973	-0.12762	0.54907	-0.45985
327.991	-0.36591	-0.09375	0.56158	-0.52428
331.990	-0.26463	-0.07144	0.57818	-0.51657
335.986	-0.23291	-0.07328	0.53217	-0.50363
339.992	-0.24832	-0.06729	0.33424	-0.46648
343.995	-0.17238	-0.06461	0.36067	-0.40031
347.986	-0.15154	-0.10402	0.30791	-0.38828
351.993	-0.16462	-0.11813	0.35268	-0.36621
355.991	-0.14292	-0.17660	0.40998	-0.36927
359.994	-0.16573	-0.10780	0.42328	-0.36181
363.988	-0.16876	-0.09202	0.40132	-0.40694
367.988	-0.16340	-0.12439	0.40417	-0.44471
371.991	-0.13997	-0.07964	0.40742	-0.47807
375.992	-0.07552	0.01799	0.33707	-0.50094
379.986	-0.06088	0.11833	0.25602	-0.38503
383.997	-0.05567	0.21278	0.20976	-0.35859
387.992	-0.12034	0.23726	0.29324	-0.38637
391.987	-0.11002	0.26370	0.39469	-0.43315
395.990	-0.01459	0.30934	0.46835	-0.36969
399.989	0.00767	0.29928	0.58868	-0.36891
403.995	0.03708	0.33606	0.52525	-0.21108
407.865	-0.04058	0.17128	0.48512	-0.12633
411.862	-0.13364	0.31807	0.46257	-0.09621
415.862	-0.10145	0.32808	0.48234	0.01357
419.868	-0.18866	0.17680	0.39914	-0.05857
423.864	-0.15258	0.02885	0.39531	-0.12968
427.900	-0.15722	-0.05914	0.48694	-0.19016
431.866	-0.09411	-0.08066	0.48699	-0.28757
435.864	-0.07954	0.00731	0.53816	-0.36514
439.862	-0.23537	-0.16492	0.47557	-0.30546
443.864	-0.31836	-0.16706	0.51140	-0.28945
447.861	-0.30066	-0.21805	0.47661	-0.13585
451.864	-0.25527	-0.21189	0.52910	-0.35383
455.863	-0.30781	-0.22769	0.54275	-0.42648
459.861	-0.11349	-0.24210	0.45691	-0.47164
463.865	-0.21326	-0.19313	0.50495	-0.59783
467.861	-0.19035	-0.05131	0.50825	-0.61686
471.865	-0.31947	-0.01397	0.52878	-0.59698
475.861	-0.25550	0.08968	0.47100	-0.56175
479.860	-0.27006	0.16564	0.40415	-0.56340
483.860	-0.33278	0.15001	0.45840	-0.56126
487.861	-0.25969	0.28909	0.41782	-0.52886
491.858	-0.28701	0.35479	0.38422	-0.51940
495.861	-0.31481	0.39231	0.39070	-0.47544
499.866	-0.26895	0.46561	0.39536	-0.33659
503.863	-0.28133	0.42826	0.40782	-0.29391
507.860	-0.26339	0.46402	0.41308	-0.22567
511.860	-0.23850	0.48099	0.39988	-0.16743
515.870	-0.18025	0.47369	0.32407	-0.18607
519.864	-0.12305	0.47312	0.34744	-0.12213
523.862	-0.08011	0.43316	0.35548	-0.12472
527.892	0.00323	0.45970	0.29811	-0.12293
531.872	0.03978	0.50269	0.24617	-0.12419
535.862	0.08398	0.45520	0.27054	-0.15471
539.861	0.06150	0.37653	0.28046	-0.21797
543.859	0.04100	0.35688	0.34566	-0.24113
547.860	0.04006	0.41366	0.45644	-0.28011
551.860	0.06870	0.39917	0.62287	-0.34759
555.868	-0.01325	0.40275	0.62580	-0.47741
559.860	-0.04370	0.26285	0.73990	-0.72478
563.859	-0.11113	0.35591	0.63421	-0.75518
567.860	-0.18822	0.36426	0.65915	-0.77666
571.864	-0.25731	0.32095	0.61488	-0.69891
575.857	-0.33667	0.31741	0.64347	-0.62228
579.859	-0.36678	0.25591	0.59454	-0.68872
583.859	-0.40502	0.24120	0.51577	-0.61710
587.862	-0.40641	0.21027	0.40216	-0.65905
591.866	-0.34556	0.09559	0.32518	-0.70068
595.859	-0.34345	0.07241	0.36792	-0.68827
599.868	-0.27364	0.01739	0.34511	-0.56223
603.858	-0.26329	-0.00134	0.34643	-0.50243
607.862	-0.18526	-0.11050	0.42120	-0.49278
611.861	-0.12024	-0.23634	0.41956	-0.45820
615.861	-0.12612	-0.22685	0.46912	-0.41521
619.859	-0.03638	-0.24645	0.53761	-0.37053
623.863	0.01628	-0.23930	0.59124	-0.29817
627.860	0.04919	-0.22864	0.63605	-0.30495
631.861	0.01288	-0.23485	0.66414	-0.23891
635.864	-0.00045	-0.20098	0.71097	-0.27160
639.866	-0.04626	-0.10302	0.70722	-0.24214
643.865	-0.09155	-0.06036	0.70960	-0.30236
647.881	-0.13126	-0.03427	0.68446	-0.31921
651.859	-0.15106	0.01464	0.66670	-0.36669
655.860	-0.19574	0.05494	0.61734	-0.36928
659.857	-0.22366	0.16433	0.57627	-0.46713
663.880	-0.27743	0.11505	0.52413	-0.51017
667.860	-0.32290	0.20860	0.52709	-0.60153
671.860	-0.31729	0.24886	0.52029	-0.65785
675.855	-0.29501	0.26769	0.48972	-0.64041
679.861	-0.29069	0.40886	0.48852	-0.70767
683.861	-0.23395	0.36868	0.47654	-0.72829
687.856	-0.26994	0.39807	0.49589	-0.71179
691.858	-0.21581	0.48748	0.46592	-0.72012
695.857	-0.17568	0.60878	0.45919	-0.67115
699.860	-0.11066	0.62612	0.44974	-0.66037
703.857	-0.05569	0.61763	0.43127	-0.62124
707.855	-0.04564	0.62401	0.49019	-0.59974
711.857	-0.00774	0.62053	0.47068	-0.55837
715.857	0.02432	0.63768	0.40852	-0.45382
719.861	0.02901	0.61621	0.34653	-0.36199
723.862	0.01372	0.55556	0.30784	-0.33491
727.861	0.06398	0.57178	0.28021	-0.26563
731.891	0.12932	0.50805	0.17990	-0.26213
735.862	0.11766	0.42451	0.15933	-0.25627
739.858	0.11823	0.36018	0.20760	-0.20123
743.856	0.17310	0.30666	0.21988	-0.19350
747.856	0.08843	0.25853	0.23562	-0.13997
751.862	0.10118	0.21410	0.34164	-0.16542
755.858	0.06594	0.16276	0.55121	-0.12749
759.859	0.00481	0.14738	0.85525	-0.21427
763.861	0.06537	0.14291	0.98435	-0.37141
767.856	0.05018	0.10548	0.96881	-0.27655
771.857	0.03941	0.10842	0.82530	-0.29393
775.862	0.02720	0.13595	0.80268	-0.31970
779.861	0.03509	0.19196	0.76836	-0.26352
783.856	0.07639	0.23890	0.70352	-0.24119
787.854	0.04251	0.28683	0.56019	-0.23650
791.861	0.03713	0.42305	0.51627	-0.17289
795.856	0.05160	0.46415	0.63893	-0.17294
799.857	0.06234	0.48579	0.83168	-0.19676
803.857	0.08882	0.51039	0.78727	-0.20089
807.866	0.10858	0.52612	0.70139	-0.14866
811.856	0.14022	0.23748	0.60990	-0.08990
815.855	0.17288	0.00649	0.64434	-0.05049
819.854	0.17003	-0.01615	0.73230	-0.02870
823.861	0.20499	-0.06185	0.68312	-0.02246
827.856	0.17826	-0.08382	0.64702	0.04058
831.854	0.14283	0.12917	0.70010	0.08741
835.857	0.15849	0.03327	0.75603	0.11822
839.860	0.13138	0.03161	0.75106	0.16098
843.859	0.11448	0.07768	0.73588	0.21657
847.857	0.05817	-0.01116	0.68084	0.27148
851.864	0.07572	-0.01978	0.63377	0.29725
855.858	0.06130	0.10250	0.65992	0.29650
859.858	0.04140	0.16940	0.70806	0.21289
863.914	0.03765	0.20441	0.65029	0.29618
867.884	-0.00491	0.23880	0.65600	0.28000
871.859	-0.02075	0.27533	0.61404	0.24557
875.856	-0.07284	0.29036	0.61387	0.21568
879.853	-0.07964	0.27861	0.61037	0.18603
883.853	-0.05653	0.27316	0.61563	0.13818
887.859	0.00529	0.25386	0.63642	0.10933
891.854	0.06018	0.29299	0.63665	0.06038
895.853	0.12784	0.39425	0.61938	0.00244
899.857	0.15747	0.32376	0.62823	-0.08883
903.850	0.23939	0.35091	0.61717	-0.12449
907.852	0.17372	0.45234	0.61332	-0.21314
911.856	0.27525	0.42946	0.63283	-0.29198
915.857	0.20931	0.52119	0.66853	-0.36587
919.856	0.24996	0.58907	0.66806	-0.40878
923.857	0.25128	0.62671	0.64327	-0.40983
927.852	0.25495	0.65392	0.64769	-0.44558
931.860	0.12575	0.64096	0.64295	-0.47065
935.864	0.12079	0.65631	0.62369	-0.45965
939.853	0.09877	0.59728	0.65218	-0.44158
943.859	0.03226	0.61646	0.64141	-0.42322
947.853	0.01052	0.59375	0.62384	-0.36881
951.856	0.00821	0.60985	0.57925	-0.35020
955.852	0.01164	0.61042	0.54208	-0.35656
959.852	0.01206	0.58431	0.53433	-0.29904
963.856	0.01425	0.55874	0.49803	-0.31388
967.855	0.03978	0.55094	0.54632	-0.27616
971.855	0.03360	0.56736	0.55731	-0.23280
975.862	0.12168	0.50286	0.56424	-0.18874
979.856	0.18174	0.38990	0.61476	-0.14509
983.853	0.18643	0.31667	0.66166	-0.11537
987.854	0.23232	0.28675	0.61933	0.01106
991.851	0.25463	0.19760	0.65392	0.08697
995.855	0.24780	0.13555	0.72034	0.16374
999.853	0.25689	0.17021	0.70608	0.23687
1003.856	0.28396	0.19665	0.73821	0.27600
1007.856	0.27778	0.25701	0.72154	0.28577
1011.848	0.26500	0.33682	0.70831	0.32296
1015.857	0.25175	0.29977	0.71084	0.37678
1019.854	0.21921	0.32552	0.69841	0.35370
1023.855	0.15263	0.49265	0.70238	0.31677
1027.856	0.12793	0.45132	0.70920	0.24835
1031.853	0.05212	0.44636	0.73054	0.09280
1035.851	0.04914	0.36533	0.70898	-0.08028
1039.849	0.08852	0.44501	0.63806	-0.27499
1043.850	0.05574	0.49401	0.45966	-0.00102
1047.854	-0.06120	0.44432	0.31893	-0.06175
1051.855	-0.07825	0.38960	0.40144	-0.05670
1055.860	-0.01233	0.46092	0.43276	-0.13115
1059.866	0.01444	0.48109	0.42539	-0.21407
1063.874	0.03229	0.40968	0.33650	-0.18189
1067.853	0.04713	0.42437	0.42403	-0.26173
1071.851	0.00228	0.39900	0.37881	-0.21869
1075.853	0.04956	0.43426	0.34861	-0.23338
1079.852	0.08974	0.46430	0.34424	-0.25738
1083.855	0.04777	0.50075	0.37300	-0.28538
1087.850	0.04921	0.48236	0.48877	-0.32156
1091.854	0.11106	0.45247	0.54111	-0.35661
1095.858	0.16995	0.46745	0.55912	-0.32779
1099.852	0.14171	0.39529	0.56652	-0.32049
1103.849	0.18008	0.40772	0.60205	-0.27375
1107.852	0.17097	0.41932	0.61213	-0.27688
1111.853	0.22209	0.40081	0.53168	-0.24927
1115.848	0.20271	0.28350	0.51247	-0.27464
1119.854	0.22857	0.26111	0.50148	-0.32817
1123.851	0.22304	0.24899	0.53064	-0.38926
1127.848	0.22696	0.24861	0.54431	-0.28123
1131.848	0.20053	0.24317	0.59913	-0.22691
1135.853	0.14923	0.30818	0.57332	-0.11162
1139.852	0.11339	0.45791	0.55781	-0.00485
1143.857	0.03611	0.34055	0.47234	-0.07072
1147.850	-0.00392	0.21778	0.41564	-0.16639
1151.852	0.09726	0.22404	0.50250	-0.32561
1155.849	-0.00635	0.22113	0.54329	-0.19697
1159.846	0.05666	0.32666	0.50515	-0.19145
1163.848	-0.00479	0.39124	0.43440	-0.15712
1167.851	0.02340	0.41003	0.46495	-0.17066
1171.849	0.02924	0.43199	0.48294	-0.13594
1175.847	0.01789	0.43147	0.49247	-0.10610
1179.858	0.04936	0.53136	0.52597	-0.09335
1183.852	0.04589	0.45925	0.50123	-0.00373
1187.845	0.08545	0.47245	0.54433	0.03844
1191.852	0.10453	0.49362	0.58833	0.04328
1195.853	0.07554	0.55042	0.49396	0.04870
1199.871	0.10456	0.58157	0.51840	0.06140
1203.854	0.06651	0.58262	0.52585	0.04353
1207.852	0.12362	0.59509	0.53272	-0.04244
1211.852	0.10585	0.50927	0.48180	0.04624
1215.851	0.10093	0.41356	0.43160	0.07934
1219.849	0.11895	0.48315	0.44904	0.05566
1223.855	0.09716	0.38965	0.40107	-0.05593
1227.849	0.04043	0.37976	0.44629	-0.17916
1231.848	0.08076	0.47150	0.47862	-0.37607
1235.848	0.06274	0.60254	0.35104	-0.21526
1239.851	0.16886	0.49916	0.64203	-0.41182
1243.847	0.67464	0.04182	2.51445	-0.32034
1247.848	1.55990	-0.65212	2.82439	-0.60107
1251.848	1.93655	-1.17602	3.36594	-1.21523
1255.850	3.61888	-0.88034	4.48781	-1.39598
1259.848	3.92228	-1.16685	5.08653	-1.60836
1263.723	4.55295	-1.38083	5.57569	-2.09490
1267.728	4.95039	-1.51741	6.13402	-2.27687
1271.724	5.34523	-1.63067	5.94629	-2.21846
1275.732	5.30281	-1.78835	5.86681	-2.26128
1279.724	5.21548	-1.66414	5.80636	-2.33651
1283.727	5.19295	-1.56638	5.83825	-2.43136
1287.720	5.16061	-1.67336	5.90946	-2.55682
1291.726	5.26435	-1.63916	5.91423	-2.54353
1295.724	5.38914	-1.66847	5.85944	-2.54740
1299.724	5.30697	-1.94422	5.91329	-2.58581
1303.719	5.24722	-1.89399	5.95702	-2.60265
1307.722	5.15485	-1.99759	5.93613	-2.59120
1311.728	5.14116	-2.06388	5.94170	-2.57628
1315.721	5.26406	-2.12219	6.07950	-2.60877
1319.719	5.22192	-1.97319	6.10242	-2.61721
1323.725	5.19354	-1.80043	6.02821	-2.42855
1327.722	5.23669	-1.82780	5.94912	-2.44410
1331.724	5.31071	-1.85553	5.91005	-2.41030
1335.718	5.29703	-2.04214	5.94985	-2.43650
1339.725	5.08478	-2.08858	6.05425	-2.41918
1343.743	5.07311	-2.02719	6.14221	-2.49038
1347.724	5.30097	-2.05342	6.22841	-2.60898
1351.727	5.29806	-1.87270	6.08301	-2.22669
1355.742	5.43199	-1.83653	6.15615	-2.29713
1359.731	5.45892	-1.74590	5.97791	-2.41863
1363.722	5.36383	-1.79915	6.01557	-2.63830
1367.724	5.57104	-1.68629	5.98744	-2.56008
1371.720	5.55238	-1.73036	6.19638	-2.37161
1375.719	5.54914	-1.71638	6.10195	-2.24817
1379.721	5.51369	-1.64497	6.12889	-2.56368
1383.724	5.59954	-1.66039	6.02033	-2.68779
1387.720	5.60015	-1.74618	6.00560	-2.56634
1391.726	5.55902	-1.73451	6.04936	-2.48982
1395.729	5.64943	-1.80409	5.99627	-2.46118
1399.719	5.62126	-1.77309	5.92751	-2.60163
1403.722	5.61387	-1.74036	5.91840	-2.75460
1407.723	5.63567	-1.80420	5.92658	-2.65878
1411.761	5.65263	-1.84200	6.09197	-2.45875
1415.723	5.67285	-1.83983	5.95847	-2.49601
1419.721	5.62625	-1.84892	5.90170	-2.75725
1423.722	5.66032	-2.68616	5.91788	-2.75872
1427.720	5.76563	-1.91772	6.01505	-2.67551
1431.722	6.82586	-1.99460	8.58308	-2.55738
1435.729	8.91035	-2.07662	9.07247	-2.85519
1439.718	9.72542	-2.22787	11.38733	-3.13956
1443.723	10.33865	-2.26176	11.68403	-3.36746
1447.720	10.65846	-2.23761	11.82340	-3.56345
1451.718	11.70316	-2.44936	13.19282	-3.57037
1455.717	12.02432	-2.38403	13.19303	-3.84567
1459.718	12.46126	-2.62595	12.31755	-4.12864
1463.721	11.97394	-2.61514	12.49332	-4.23299
1467.718	12.18723	-2.73703	12.52970	-4.05368
1471.718	11.57932	-2.60954	12.81842	-3.90098
1475.725	11.98363	-2.72097	12.91541	-4.15427
1479.763	12.07638	-2.63965	12.77565	-4.14963
1483.729	11.87836	-2.69511	12.92536	-4.11929
1487.725	12.13887	-2.67962	12.86202	-4.11884
1491.718	12.08214	-2.74288	13.06193	-4.18751
1495.720	12.13619	-2.77325	12.88935	-4.22296
1499.752	12.11097	-2.96883	13.10843	-4.17734
1503.722	12.13609	-2.75820	12.98313	-4.14272
1507.720	12.07721	-2.84814	12.96145	-4.13619
1511.716	12.01950	-2.66958	12.77799	-4.11849
1515.717	12.16048	-2.75247	12.80298	-4.14395
1519.724	12.11057	-2.77953	12.93269	-4.15753
1523.722	12.18955	-2.68965	12.84982	-4.14480
1527.721	12.28351	-2.97845	12.92911	-3.96251
1531.717	12.30862	-2.74447	12.81795	-4.09707
1535.716	12.38131	-2.85356	12.98984	-4.15188
1539.715	12.28683	-2.76565	12.69726	-4.08734
1543.716	12.47255	-2.69280	12.86558	-3.99727
1547.718	12.20335	-2.91467	12.76709	-4.08482
1551.720	12.43383	-2.68110	12.72626	-4.04515
1555.720	12.47946	-2.90498	12.80296	-4.06609
1559.726	12.39679	-3.14468	12.79796	-4.07446
1563.715	12.31554	-2.81851	12.67482	-4.04862
1567.715	12.44340	-3.02665	12.74232	-4.26237
1571.717	12.47042	-2.99827	12.63537	-4.11742
1575.716	12.41220	-2.90549	12.85183	-4.00892
1579.713	12.47193	-3.04468	12.71283	-3.97836
1583.722	12.52795	-3.08321	12.78422	-3.98187
1587.724	12.53767	-2.81124	12.71951	-4.02966
1591.723	12.55911	-2.91018	12.76600	-4.15314
1595.721	12.53502	-2.90491	12.54306	-4.10601
1599.722	12.62634	-2.96088	12.63638	-4.05695
1603.720	12.63903	-2.93155	12.71188	-4.03318
1607.721	12.64213	-3.15410	12.77429	-4.16933
1611.718	12.63882	-3.10905	12.89506	-4.16160
1615.720	12.59020	-3.01240	12.74742	-4.20573
1619.721	12.61764	-3.03904	12.75354	-4.27556
1623.719	12.63000	-2.99276	12.76843	-4.28803
1627.717	12.60911	-2.96229	12.71750	-4.26069
1631.716	12.59500	-2.93377	12.76220	-4.28623
1635.719	12.55810	-2.96554	12.76406	-4.24586
1639.715	12.57420	-3.00923	12.65689	-4.25820
1643.720	12.57441	-3.05203	12.60148	-4.25806
1647.726	12.52199	-3.14053	12.67419	-4.27867
1651.716	12.55337	-3.05076	12.78644	-4.19306
1655.718	12.57557	-2.87862	12.64000	-4.03197
1659.718	12.58921	-2.96341	12.79923	-4.12169
1663.717	12.61540	-3.07067	12.59044	-4.11250
1667.715	12.57032	-3.05230	12.60694	-4.09100
1671.713	12.51563	-3.00897	12.44971	-4.04276
1675.715	11.70230	-3.08946	11.60218	-4.04349
1679.716	10.22690	-3.14485	10.67933	-3.94933
1683.841	8.66392	-2.88613	8.94934	-3.90616
1687.721	8.18239	-2.58009	8.35413	-3.85510
1691.713	7.46604	-2.86246	7.88638	-3.59982
1695.715	7.52159	-2.57077	7.98250	-3.31282
1699.716	7.65481	-2.45875	7.79274	-3.19103
1703.715	7.75972	-2.33382	7.72286	-3.15424
1707.715	7.81366	-2.70366	7.79147	-3.36129
1711.714	7.77120	-2.44537	7.61268	-3.28081
1715.715	7.77534	-2.16529	7.53064	-3.18093
1719.715	7.55957	-2.44860	7.42217	-3.03485
1723.720	7.66146	-2.33741	7.54144	-3.21859
1727.720	7.62870	-2.28546	7.47151	-3.19020
1731.718	7.57225	-2.21055	7.37794	-3.11390
1735.712	7.58120	-2.34619	7.31765	-3.10659
1739.713	7.60134	-2.35058	7.20128	-3.01073
1743.715	7.64435	-2.30549	7.32343	-3.31528
1747.716	7.58225	-2.06788	7.30793	-3.29955
1751.713	7.58459	-2.34732	7.24014	-3.28052
1755.716	7.58744	-2.27685	7.30410	-3.16165
1759.716	7.57008	-2.14199	7.30659	-3.22670
1763.719	7.64245	-2.21213	7.30625	-3.26667
1767.719	7.57186	-2.33928	7.16451	-3.32547
1771.714	7.52308	-2.29884	7.08610	-3.25835
1775.720	7.61919	-2.34273	7.11406	-3.18741
1779.715	7.60658	-2.15991	6.97886	-3.16636
1783.718	7.55188	-1.97752	7.08072	-3.41472
1787.715	7.57844	-2.47495	7.10062	-3.29278
1791.710	7.63089	-2.31892	7.06393	-3.23776
1795.718	7.61975	-2.19403	6.95259	-3.06046
1799.714	7.48212	-2.09668	6.92427	-3.40140
1803.714	7.53437	-2.29651	6.96348	-3.39667
1807.710	7.52140	-2.34649	6.91163	-3.21375
1811.727	7.60412	-2.12918	6.95438	-3.04530
1815.716	7.71879	-2.12700	7.03797	-3.23580
1819.722	7.61870	-2.48929	6.98854	-3.48705
1823.717	7.62248	-2.48118	7.10963	-3.27713
1827.715	7.71101	-2.27211	7.26451	-3.02562
1831.716	7.79415	-2.56306	7.34292	-3.47281
1835.710	7.77719	-2.33183	7.28200	-3.39297
1839.717	7.75112	-2.36998	7.53308	-3.37177
1843.711	7.74664	-2.59660	7.58751	-3.40951
1847.713	7.76535	-2.38742	7.44201	-3.55453
1851.722	7.70187	-2.43144	7.46014	-3.42969
1855.714	7.74257	-2.61483	7.34267	-3.39172
1859.712	7.69653	-2.45824	7.29221	-3.44707
1863.710	7.34455	-2.53068	7.25472	-3.30869
1867.711	4.93053	-2.22816	5.92046	-3.42520
1871.714	3.38731	-2.35982	4.55615	-3.34432
1875.716	2.46919	-2.13673	3.09503	-3.27140
1879.713	1.42831	-2.31580	2.81038	-3.31649
1883.713	0.80918	-2.17657	1.27946	-3.21305
1887.714	-0.52659	-2.21758	0.17491	-3.13907
1891.717	-1.00680	-2.05249	-0.18246	-3.11085
1895.712	-2.28747	-2.04068	-1.38086	-3.09609
1899.714	-2.05958	-2.02779	-1.65200	-3.00498
1903.718	-1.94702	-1.75468	-1.83702	-2.51178
1907.713	-2.01085	-1.92507	-1.72245	-2.76802
1911.712	-1.94915	-1.90661	-1.85834	-2.76259
1915.723	-2.01674	-1.76023	-1.92624	-2.54100
1919.713	-2.03258	-1.92115	-2.13165	-2.56536
1923.713	-2.12506	-1.71285	-2.21353	-2.55511
1927.712	-2.18684	-1.94400	-2.33214	-2.51939
1931.712	-2.09735	-1.67033	-2.37897	-2.36462
1935.748	-2.11296	-1.60176	-2.28975	-2.41595
1939.713	-2.14112	-1.65671	-2.25873	-2.39766
1943.710	-2.09180	-1.62195	-2.30922	-2.28653
1947.712	-2.22317	-1.67945	-2.30499	-2.36172
1951.712	-2.19083	-1.71310	-2.42557	-2.43403
1955.710	-2.23001	-1.35077	-2.42232	-2.40833
1959.713	-2.20585	-2.02175	-2.46332	-2.36115
1963.713	-2.19187	-1.41155	-2.46523	-2.37126
1967.716	-2.10558	-1.23830	-2.50249	-2.34745
1971.713	-2.09737	-1.31994	-2.55334	-2.30213
1975.717	-2.09061	-1.25869	-2.62214	-2.31008
1979.717	-2.03982	-1.16063	-2.63096	-2.26072
1983.712	-2.08617	-1.45900	-2.66288	-2.23384
1987.707	-2.07472	-1.15318	-2.75485	-2.25159
1991.714	-2.02768	-1.12497	-2.81709	-2.18850
1995.707	-2.00257	-1.05955	-2.82590	-2.20417
1999.714	-2.00195	-1.18325	-2.82063	-2.13695
2003.709	-2.00738	-1.19794	-2.84370	-2.22513
2007.710	-2.04522	-1.13491	-2.83118	-2.25427
2011.709	-2.07544	-1.08916	-2.70636	-2.19438
2015.714	-2.04969	-1.04338	-2.56931	-2.09914
2019.721	-2.15257	-0.92299	-2.71550	-2.11153
2023.784	-2.17579	-0.79078	-2.80011	-2.05031
2027.723	-2.19004	-0.86083	-2.77069	-2.08885
2031.715	-2.15965	-0.90987	-2.60530	-2.20381
2035.710	-2.20322	-0.89262	-2.51997	-2.24359
2039.709	-2.21259	-0.78482	-2.58281	-2.18719
2043.720	-2.21677	-0.75292	-2.56812	-2.39045
2047.719	-2.22557	-0.74184	-2.52602	-2.34892
2051.709	-2.20466	-0.80044	-2.56954	-2.26316
2055.708	-2.21819	-0.79135	-2.55071	-2.34607
2059.735	-2.25464	-0.90954	-2.48475	-2.37635
2063.715	-2.00775	-1.00386	-2.29032	-2.28100
2067.708	-1.12598	-1.04988	-0.94852	-2.21489
2071.709	0.59267	-0.92876	1.85730	-1.55773
2075.710	2.87906	-0.59427	2.58690	-2.01283
2079.708	3.78884	0.10620	5.28640	-1.79077
2083.706	5.93934	0.42728	6.50491	-1.67922
2087.710	6.95494	0.16452	8.01302	-1.58163
2091.714	9.52106	0.35145	10.00639	-1.41256
2095.717	10.46486	0.71266	11.34199	-1.42307
2099.725	12.12820	0.60161	12.52499	-1.26675
2103.710	12.63345	0.70426	13.34451	-1.16211
2107.706	13.45505	0.87212	14.52081	-1.03405
2111.708	13.01548	1.06668	13.46235	-1.21587
2115.584	13.10024	0.95501	13.75935	-1.15032
2119.583	13.11151	1.10289	13.80617	-0.96878
2123.580	13.14437	1.13757	13.97860	-0.76560
2127.587	13.60700	1.07933	13.77595	-0.62672
2131.604	13.11700	1.17435	13.85716	-0.74166
2135.582	13.53990	1.20164	13.91044	-0.87965
2139.579	13.29868	1.25904	14.01917	-0.69985
2143.581	13.41335	1.28176	14.02234	-0.62263
2147.587	13.44611	1.26678	14.04589	-0.46623
2151.580	13.82223	1.20558	13.93024	-0.46222
2155.581	13.47787	1.19707	13.99844	-0.63321
2159.580	13.43165	1.28787	13.90576	-0.76073
2163.585	13.58958	1.19045	13.88558	-0.60891
2167.581	13.67972	1.14248	13.76584	-0.49771
2171.582	13.57654	1.08152	13.89529	-0.53665
2175.580	13.62739	1.13252	13.69029	-0.43486
2179.582	13.45681	1.19829	13.82211	-0.30984
2183.584	13.65097	1.09072	13.28907	-0.38778
2187.587	13.64047	1.05760	13.52473	-0.40047
2191.592	13.92896	1.03551	13.59412	-0.45723
2195.581	13.59445	1.08369	13.59391	-0.61598
2199.581	13.72924	1.10076	13.58524	-0.52429
2203.581	13.78876	0.97254	13.63674	-0.52831
2207.586	13.85571	0.93794	13.68387	-0.56586
2211.582	13.58010	1.05833	13.72495	-0.57349
2215.580	13.88836	1.10591	13.73121	-0.56493
2219.582	13.92737	0.97734	13.69682	-0.51562
2223.582	14.00464	0.83433	13.51403	-0.56180
2227.580	13.96433	0.81459	13.59928	-0.60282
2231.589	14.05058	0.90037	13.56223	-0.51906
2235.580	13.90375	0.78907	13.68174	-0.49892
2239.584	13.96330	0.73800	13.52114	-0.43220
2243.582	13.95694	0.70419	13.50049	-0.42392
2247.580	13.60238	0.75976	13.39795	-0.38727
2251.578	14.06406	0.72767	13.43003	-0.36928
2255.579	13.89435	0.82829	13.32693	-0.35912
2259.581	13.83007	0.82459	13.34568	-0.35822
2263.581	13.98040	0.85002	13.38811	-0.43824
2267.578	13.75296	0.86092	13.40863	-0.43458
2271.585	13.89234	0.86190	13.53857	-0.58938
2275.593	13.90567	0.92213	13.33798	-0.41471
2279.581	13.78490	1.01560	13.35478	-0.46910
2283.581	13.83971	1.01724	13.31314	-0.45823
2287.581	13.81277	0.92721	13.35837	-0.43955
2291.580	13.73957	0.99268	13.46315	-0.47123
2295.582	13.73954	0.96114	13.37740	-0.42453
2299.583	13.78625	1.01330	13.49333	-0.45907
2303.583	13.86984	0.97191	13.62397	-0.41721
2307.580	13.64872	1.01906	13.75640	-0.37191
2311.580	13.74802	0.94481	13.64783	-0.29689
2315.586	13.74922	1.02070	13.56821	-0.30035
2319.584	13.77806	1.02844	13.53284	-0.32431
2323.580	13.76446	1.06042	13.64481	-0.34248
2327.585	13.67506	1.01084	13.80166	-0.32891
2331.583	13.68745	0.95768	13.89302	-0.33105
2335.583	13.82005	1.00276	13.70380	-0.33721
2339.584	13.78101	1.01219	13.72481	-0.45420
2343.582	13.78836	0.83451	13.95025	-0.59061
2347.612	13.85594	0.24189	13.95806	-1.00006
2351.579	13.77530	-0.76140	14.15080	-2.35008
2355.589	13.89954	-2.14598	14.19823	-2.90333
2359.580	13.75765	-2.26022	14.15078	-3.22027
2363.581	13.77762	-2.58707	14.26224	-3.51439
2367.582	13.68420	-2.47202	14.21428	-3.49476
2371.578	13.89337	-1.64468	14.10482	-3.25123
2375.582	13.97421	-2.04961	14.20866	-3.16234
2379.578	13.87658	-2.08975	14.28788	-3.30355
2383.578	13.79915	-2.35846	14.35179	-3.29556
2387.578	13.84691	-1.82734	14.46156	-3.31397
2391.577	13.79559	-1.78184	14.51532	-3.18908
2395.582	13.83849	-2.33590	14.36786	-3.28585
2399.585	13.75692	-2.07057	14.48062	-3.36727
2403.583	13.97227	-1.82389	14.59182	-3.19764
2407.583	13.86780	-2.00010	14.43335	-3.16017
2411.578	13.88333	-1.93135	14.43079	-3.29538
2415.577	13.94462	-1.82544	14.59052	-3.26286
2419.579	13.77963	-1.91128	14.44730	-3.07811
2423.583	13.86897	-1.92426	14.42104	-3.33757
2427.580	13.95502	-1.77452	14.57869	-3.34889
2431.613	13.84345	-1.88217	14.37825	-2.96936
2435.583	13.93354	-1.89575	14.27089	-3.33373
2439.585	13.78590	-1.75624	14.48836	-3.33023
2443.578	13.84614	-1.83662	14.48662	-3.14356
2447.577	13.85810	-1.78124	14.39057	-3.22813
2451.582	13.85131	-1.74981	14.40011	-3.27664
2455.578	13.70439	-1.79517	14.40700	-3.06045
2459.576	13.74156	-1.67742	14.33255	-3.14789
2463.577	13.76781	-1.72977	14.27967	-3.04535
2467.582	13.75842	-1.82087	14.13167	-2.99700
2471.578	13.84963	-1.88988	14.31123	-2.97404
2475.574	13.78918	-1.72164	14.21801	-3.17362
2479.587	13.78408	-1.52514	14.35521	-3.24251
2483.581	13.79318	-1.60300	14.31279	-3.02536
2487.574	13.76193	-1.77718	14.18974	-2.99976
2491.580	13.71737	-1.65453	14.14740	-3.08565
2495.578	13.76038	-1.57390	13.99952	-3.05679
2499.579	13.74392	-1.62314	14.07515	-3.01127
2503.580	13.82408	-1.64124	14.06364	-2.90735
2507.582	13.74891	-1.72926	14.17819	-2.94357
2511.578	13.70359	-1.82532	14.12296	-3.07533
2515.579	13.64713	-1.83881	14.05521	-3.10987
2519.577	13.60191	-1.68090	13.99660	-3.07501
2523.585	13.61021	-1.67285	13.80648	-3.06807
2527.580	13.62973	-1.69742	14.14912	-3.08072
2531.578	13.69624	-1.56260	14.11092	-3.17336
2535.575	13.76565	-1.52975	14.15337	-3.03979
2539.577	13.83835	-1.55235	14.10704	-2.99920
2543.575	13.86235	-1.50120	14.12399	-2.97903
2547.573	13.84675	-1.52358	13.96187	-2.97214
2551.575	13.76703	-1.53095	13.76554	-3.03812
2555.579	13.73566	-1.48732	13.75376	-2.96664
2559.579	13.72168	-1.49506	13.86280	-2.87295
2563.579	13.73428	-1.51399	13.88282	-2.82091
2567.578	13.89325	-1.63412	14.12908	-2.93315
2571.640	13.92005	-1.64774	14.14665	-3.05120
2575.588	13.77289	-1.73145	14.08127	-3.05212
2579.575	13.74622	-1.68631	13.96811	-2.98528
2583.574	13.76795	-1.64559	14.13127	-2.95918
2587.578	13.80477	-1.86354	13.98113	-2.92581
2591.577	13.77359	-1.86220	14.09549	-2.92457
2595.572	13.78682	-1.75495	14.11617	-2.88652
2599.573	13.74622	-1.71884	14.17122	-3.00645
2603.583	13.88953	-1.66763	14.15939	-2.99473
2607.587	13.85281	-1.91131	14.12749	-3.06696
2611.574	13.70048	-1.84804	14.02662	-2.95291
2615.574	13.51522	-1.81340	14.04596	-2.97050
2619.576	13.18428	-1.56420	13.49265	-2.90544
2623.578	10.98977	-1.58839	11.57984	-2.97802
2627.572	9.95907	-1.91803	11.10658	-2.95530
2631.573	9.65032	-1.99339	10.54636	-2.97134
2635.572	9.54276	-1.79354	9.96210	-2.93689
2639.578	9.36119	-1.70944	9.83038	-2.95227
2643.571	9.46947	-1.73607	9.58806	-2.89778
2647.579	9.33222	-1.74694	9.50969	-2.82379
2651.577	9.40760	-1.81472	9.46012	-2.74355
2655.572	9.53750	-1.83615	9.55529	-2.90637
2659.575	9.56694	-1.73503	9.52533	-2.89810
2663.576	9.51406	-1.71792	9.47179	-3.01686
2667.573	9.54348	-1.71968	9.53026	-2.99910
2671.570	9.48272	-1.66599	9.48780	-3.00607
2675.578	9.50745	-1.69378	9.43392	-3.02304
2679.575	9.52398	-1.75753	9.41818	-2.99117
2683.577	9.50578	-1.80583	9.42624	-3.15578
2687.578	9.56033	-1.88084	9.44423	-3.13340
2691.575	9.57604	-1.88648	9.41880	-3.14375
2695.575	9.61238	-1.82145	9.45769	-3.04077
2699.571	9.64738	-1.73800	9.44042	-3.06053
2703.592	9.62434	-1.67332	9.42615	-2.90250
2707.576	9.54698	-1.68032	9.43996	-2.97610
2711.580	9.55533	-1.89343	9.38066	-2.87657
2715.574	9.54969	-1.92266	9.33193	-2.81524
2719.577	9.36189	-1.95839	9.39226	-2.75725
2723.572	9.53868	-2.02381	9.39339	-2.81119
2727.574	9.55147	-1.87519	9.34628	-2.74335
2731.580	9.47635	-1.95360	9.36834	-2.74386
2735.572	9.49588	-1.97175	9.38953	-2.71772
2739.573	9.50931	-1.80111	9.37745	-2.78525
2743.579	9.48811	-1.89451	9.34846	-2.75397
2747.578	9.40378	-1.98722	9.36182	-2.89226
2751.578	9.48403	-1.86931	9.43429	-2.96449
2755.571	9.54710	-1.82393	9.41035	-2.96980
2759.578	9.49337	-1.80852	9.47430	-3.02237
2763.573	9.50737	-1.74684	9.42508	-3.13228
2767.571	9.56627	-1.67231	9.36419	-3.23153
2771.576	9.48787	-1.63973	9.39668	-3.27460
2775.578	9.53344	-1.67793	9.41400	-3.28089
2779.575	9.59817	-1.65367	9.38996	-3.24514
2783.636	9.44875	-1.66258	9.41615	-3.41594
2787.579	9.46614	-1.88496	9.54515	-3.45331
2791.574	9.43470	-1.89916	9.49921	-3.38396
2795.570	9.49697	-1.87509	9.29988	-3.21604
2799.570	9.53762	-2.09753	9.36667	-3.24863
2803.571	9.38414	-2.10363	9.59612	-3.31783
2807.573	9.47927	-2.14026	9.39040	-3.22441
2811.571	9.48647	-2.20913	9.39711	-3.06294
2815.575	9.44180	-2.08460	9.43124	-3.07219
2819.573	9.41173	-2.05470	9.55104	-2.99351
2823.574	9.39535	-2.11813	9.30887	-3.11787
2827.568	9.45672	-2.06745	9.27733	-2.95817
2831.575	9.42603	-1.93114	9.37701	-2.89861
2835.572	9.46790	-1.86617	9.36955	-2.93442
2839.571	9.36849	-1.84229	9.27619	-2.95015
2843.576	9.24426	-1.80220	9.41395	-2.93997
2847.571	9.35525	-1.68292	9.32444	-2.96530
2851.569	9.41390	-1.65449	9.32386	-3.02189
2855.572	9.32221	-1.62178	9.38677	-3.10048
2859.575	9.20888	-1.60029	9.26735	-3.17895
2863.570	9.30469	-1.61960	9.22825	-3.23537
2867.570	9.47039	-1.58297	9.26183	-3.31243
2871.570	9.50626	-1.53985	9.32840	-3.40412
2875.576	9.33304	-1.51517	9.38344	-3.40256
2879.572	9.29570	-1.50489	9.30530	-3.47010
2883.570	9.38429	-1.45502	9.28930	-3.37034
2887.578	9.57896	-1.43649	9.22847	-3.27625
2891.573	9.55031	-1.46759	9.27337	-3.39647
2895.573	9.40963	-1.46126	9.44426	-3.27818
2899.568	9.36249	-1.46616	9.12343	-3.24251
2903.572	8.85640	-1.38976	9.05434	-3.14751
2907.568	6.44067	-1.35383	6.76422	-3.12008
2911.574	5.08953	-1.32836	5.64577	-3.03295
2915.575	3.23984	-1.25811	4.84876	-3.03889
2919.574	2.62675	-1.23230	2.80808	-3.08865
2923.572	1.64729	-1.23552	2.05814	-3.12347
2927.568	-0.00057	-1.25831	0.05147	-2.92984
2931.567	-1.46006	-1.06730	-0.29002	-2.85550
2935.569	-1.64012	-1.16568	-1.09524	-2.71197
2939.577	-1.98898	-0.95958	-1.33996	-2.75667
2943.573	-1.82579	-1.13081	-1.53788	-2.73876
2947.568	-1.93933	-0.91899	-1.56851	-2.68444
2951.570	-1.73648	-0.81842	-1.63849	-2.60431
2955.569	-1.76267	-0.92457	-1.59321	-2.52703
2959.567	-1.81458	-0.84684	-1.62654	-2.52376
2963.572	-1.72594	-0.94579	-1.66693	-2.47619
2967.572	-1.78084	-1.01506	-1.68290	-2.54003
2971.444	-1.76567	-0.98023	-1.66641	-2.49312
2975.440	-1.87827	-1.15751	-1.78381	-2.43024
2979.448	-1.74030	-1.16215	-1.85423	-2.49217
2983.451	-1.90282	-1.23758	-1.92602	-2.49086
2987.446	-1.75828	-1.19806	-1.91824	-2.57425
2991.446	-1.77516	-1.29735	-1.94146	-2.55778
2995.447	-1.87649	-1.15642	-2.00269	-2.50272
2999.444	-1.86774	-1.30212	-2.01055	-2.57128
3003.446	-1.92032	-1.21349	-2.04696	-2.59001
3007.466	-1.88226	-1.14964	-2.02225	-2.65461
3011.441	-1.90277	-1.13034	-2.10079	-2.46464
3015.443	-1.85489	-1.16547	-2.10191	-2.53996
3019.442	-1.80809	-1.08213	-2.08662	-2.51907
3023.443	-1.85953	-1.16103	-2.09735	-2.67896
3027.454	-1.81406	-1.03920	-2.11923	-2.61522
3031.447	-1.85849	-1.16681	-2.04064	-2.57020
3035.442	-1.85551	-1.09263	-2.14825	-2.52316
3039.442	-1.86791	-1.26568	-2.14017	-2.55107
3043.440	-1.82750	-1.16470	-2.13789	-2.49281
3047.442	-1.82452	-1.26730	-2.13088	-2.64910
3051.444	-1.84126	-1.24438	-2.16416	-2.57443
3055.444	-1.86526	-1.40990	-2.10042	-2.69288
3059.456	-1.84347	-1.43494	-2.17494	-2.47364
3063.449	-1.84701	-1.47892	-2.15752	-2.35695
3067.448	-1.86580	-1.43279	-2.18890	-2.44640
3071.442	-1.89806	-1.48178	-2.09487	-2.44432
3075.441	-1.81927	-1.36789	-2.15430	-2.50756
3079.442	-1.85564	-1.37543	-2.12007	-2.54097
3083.443	-1.73480	-1.28437	-2.16877	-2.71809
3087.447	-1.83933	-1.29378	-2.16664	-2.62815
3091.446	-1.66529	-1.17729	-2.13608	-2.79740
3095.440	-1.74082	-0.97772	-2.19740	-2.66372
3099.446	-1.16734	2.65697	-2.12169	-2.73502
3103.444	-1.64920	2.78383	-2.12379	-2.74235
3107.444	-2.29969	2.98494	-2.16910	-2.74536
3111.448	-1.97342	3.29715	-2.10669	-2.83704
3115.441	-1.65364	-0.94292	-2.13001	-2.83422
3119.447	-0.63424	-0.99790	-2.14674	-2.75194
3123.442	-1.82591	-0.96404	-2.12178	-2.78528
3127.444	-1.67836	-1.10629	-2.18022	-2.55353
3131.440	-2.92713	-0.76612	-2.32246	-2.20661
3135.446	-4.50301	1.36530	-4.01253	-1.58057
3139.441	-5.17110	1.09999	-5.41418	-0.72811
3143.443	-5.26086	3.06894	-5.54747	0.22284
3147.441	-5.88370	2.98593	-6.15595	0.15288
3151.448	-6.52549	3.21967	-6.84458	0.91235
3155.441	-6.41351	3.30764	-6.72560	1.77081
3159.442	-6.37020	3.56949	-6.83381	2.44045
3163.445	-6.12195	3.42440	-6.48776	1.73434
3167.444	-5.95636	3.46674	-6.72181	2.01746
3171.446	-6.18735	3.35125	-6.42170	1.45067
3175.441	-6.37069	3.36440	-6.57820	1.49736
3179.443	-6.33338	3.42757	-6.61254	1.74293
3183.443	-6.34988	3.32644	-6.70482	1.75695
3187.441	-6.65169	3.30587	-6.75732	1.88096
3191.452	-6.68389	3.22698	-6.81889	1.98531
3195.441	-6.35403	3.47970	-6.81803	2.43538
3199.443	-6.41883	3.43820	-6.73032	2.07751
3203.441	-6.49670	3.48648	-6.81862	1.98150
3207.488	-6.41672	3.20481	-6.83548	1.93864
3211.447	-6.52728	3.25554	-6.77066	2.05410
3215.441	-6.72487	3.37210	-6.84204	2.20874
3219.445	-6.67938	3.42625	-6.90375	2.21368
3223.440	-6.61141	3.52643	-6.92139	2.22022
3227.442	-6.62816	3.22036	-6.89365	2.13258
3231.438	-6.66851	3.39163	-6.93587	2.15749
3235.450	-6.52160	3.60677	-6.99208	2.15871
3239.443	-6.51155	3.36337	-6.88308	2.30272
3243.438	-6.61173	3.39177	-6.94303	2.06925
3247.438	-6.68908	3.55422	-7.01509	2.10972
3251.438	-6.63220	3.40705	-6.90706	2.02585
3255.439	-6.62914	3.53486	-7.06266	2.12204
3259.440	-6.56860	3.54510	-7.03152	2.04750
3263.442	-6.64178	3.49562	-7.06659	2.10032
3267.436	-6.62934	3.45031	-7.09663	2.01478
3271.442	-6.68367	3.48804	-7.13273	2.06424
3275.446	-6.57752	3.50254	-7.00702	1.99396
3279.441	-6.66690	3.54157	-7.01152	1.95657
3283.444	-6.64251	3.52298	-6.98460	1.85996
3287.439	-6.58332	3.63076	-6.92109	1.90473
3291.438	-6.61820	3.59252	-7.03215	2.00139
3295.442	-6.55523	3.54866	-6.95511	1.82489
3299.441	-6.61406	3.68700	-6.95230	2.03060
3303.434	-6.63183	3.58485	-6.97646	2.00306
3307.442	-6.60620	3.71575	-6.92755	1.85010
3311.441	-6.65801	3.67842	-6.98027	1.97587
3315.438	-6.64579	3.77330	-6.90979	1.99334
3319.448	-6.61175	3.67436	-7.03773	1.93333
3323.440	-6.66609	3.66715	-7.02665	2.22096
3327.437	-6.70112	3.95694	-6.96922	2.20709
3331.443	-6.66401	3.67441	-7.02387	2.19189
3335.440	-6.67414	4.02652	-6.85581	2.45341
3339.437	-6.55344	4.38473	-6.60446	4.21777
3343.443	-6.11844	5.75139	-6.07503	4.23159
3347.439	-5.78141	6.73223	-5.86725	5.80413
3351.441	-5.66742	6.82331	-5.56768	6.74787
3355.436	-5.29868	7.12402	-5.39332	6.60484
3359.447	-5.64253	7.28346	-5.35384	6.69335
3363.440	-5.29718	7.33037	-5.50469	6.75568
3367.440	-5.71001	7.35681	-5.52327	6.36092
3371.437	-5.69654	7.35863	-5.49640	6.11734
3375.442	-5.63016	7.37440	-5.33165	6.39259
3379.439	-5.52593	7.41807	-5.35094	6.75746
3383.438	-5.40100	7.45256	-5.39829	6.53159
3387.439	-5.62119	7.39487	-5.33898	6.37426
3391.442	-5.82076	7.43200	-5.40587	6.43584
3395.438	-5.72060	7.47780	-5.40267	6.37809
3399.446	-5.82894	7.53340	-5.34656	6.36922
3403.445	-5.76470	7.49534	-5.41177	6.29750
3407.443	-5.74817	7.50970	-5.47823	6.16039
3411.440	-5.73259	7.45337	-5.30422	6.23223
3415.439	-5.76839	7.47138	-5.33040	6.43267
3419.475	-5.88014	7.54656	-5.46155	6.43263
3423.437	-5.75834	7.47683	-5.37505	6.28649
3427.438	-5.71286	7.50556	-5.38951	6.29426
3431.435	-5.71116	7.44878	-5.28647	6.41052
3435.441	-5.73939	7.45017	-5.29167	6.47385
3439.436	-5.81312	7.52986	-5.33015	6.50791
3443.442	-5.70092	7.48396	-5.27397	6.48395
3447.438	-5.71622	7.50921	-5.38171	6.54827
3451.446	-5.68005	7.51741	-5.27274	6.48591
3455.440	-5.74055	7.55222	-5.24095	6.49228
3459.438	-5.60504	7.51052	-5.23076	6.28057
3463.473	-5.61922	7.54070	-5.35687	6.40765
3467.436	-5.64255	7.65765	-5.31812	6.37374
3471.436	-5.74524	7.70030	-5.26558	6.40605
3475.435	-5.78597	7.70918	-5.27966	6.52368
3479.440	-5.80116	7.72732	-5.27757	6.52277
3483.440	-5.78123	7.75886	-5.20809	6.48223
3487.438	-5.78590	7.71539	-5.16317	6.63955
3491.438	-5.80474	7.69023	-5.09172	6.54566
3495.436	-5.78534	7.61484	-5.00748	6.65374
3499.437	-5.79939	7.55291	-5.14003	6.70959
3503.433	-5.77180	7.33691	-5.30402	6.79535
3507.438	-5.80346	7.22857	-5.30505	6.85452
3511.436	-5.77104	7.13414	-5.34176	6.86818
3515.437	-5.74610	7.28331	-5.39249	6.89742
3519.437	-5.65000	7.28208	-5.29452	6.89651
3523.436	-5.62343	7.29426	-5.10886	6.86845
3527.443	-5.67509	7.26749	-5.05368	6.82735
3531.434	-5.80106	7.27643	-5.13572	6.76692
3535.440	-5.83083	7.21231	-5.30025	6.73901
3539.435	-5.80108	7.10346	-5.20519	6.72604
3543.438	-5.66032	7.23083	-5.22264	6.69447
3547.433	-5.70229	7.34959	-5.08055	6.62941
3551.439	-5.77327	7.41608	-5.12656	6.63004
3555.435	-5.75261	7.39279	-5.14301	6.64288
3559.436	-5.90043	7.54765	-5.11802	6.70643
3563.434	-5.93193	7.53894	-5.00403	6.57710
3567.444	-5.80128	7.39087	-5.08343	6.56695
3571.436	-5.77499	7.39024	-5.04344	6.44146
3575.438	-5.13245	7.52136	-4.51933	6.61565
3579.432	-4.05211	7.62833	-3.69437	6.70177
3583.440	-2.68346	7.72094	-2.33732	6.79292
3587.442	-1.53416	7.74065	-1.33686	6.76090
3591.437	-0.89359	7.65569	0.58726	6.35361
3595.438	0.93343	7.63230	1.54162	6.54785
3599.436	1.41633	7.72000	2.08317	6.64682
3603.433	1.65324	7.67352	2.02254	6.60980
3607.435	1.58205	7.80905	1.77077	6.62799
3611.435	1.66713	7.73052	1.37597	6.54872
3615.434	1.44607	7.81024	1.65622	6.49529
3619.436	1.41563	7.62346	1.59854	6.53902
3623.433	1.40683	7.52910	1.81228	6.60164
3627.438	1.41608	7.50270	1.68268	6.52710
3631.436	1.66728	7.49896	1.63102	6.43266
3635.435	1.26726	7.40601	1.70621	6.46006
3639.456	1.23831	7.42273	1.75781	6.60629
3643.435	1.48319	7.32443	1.81602	6.62388
3647.431	1.29581	7.31975	1.62031	6.54231
3651.441	1.40487	7.28242	1.65324	6.45631
3655.435	1.34237	7.62672	1.70675	6.51986
3659.437	1.41484	7.64806	1.80043	6.65655
3663.433	1.57250	7.39925	1.69314	6.67687
3667.431	1.60367	7.60868	1.65718	6.63887
3671.431	1.55273	7.54853	1.72959	6.69838
3675.436	1.30007	7.32487	1.77152	6.74755
3679.431	1.40331	7.53523	1.81129	6.68751
3683.431	1.35636	7.66145	1.80682	6.74700
3687.435	1.33527	7.88383	1.76700	6.82309
3691.435	1.54463	7.90898	1.82311	6.74625
3695.431	1.48739	7.92385	1.87044	6.70644
3699.431	1.56873	7.82801	1.85135	6.77321
3703.430	1.37568	7.65402	1.86298	6.87194
3707.431	1.27314	7.75558	1.86496	6.81856
3711.432	1.32453	7.81853	1.85237	6.82894
3715.434	1.31756	7.84476	1.85623	6.93258
3719.432	1.30486	7.78555	1.88653	6.89481
3723.431	1.36315	7.87407	1.87210	6.88865
3727.433	1.52699	7.84157	1.89830	6.83222
3731.432	1.65255	7.65457	1.89578	6.76996
3735.444	1.54993	7.59286	1.79626	6.75662
3739.434	1.43419	7.59897	1.81610	6.82492
3743.431	1.45485	7.73549	1.81037	6.99303
3747.431	1.49592	7.83123	1.85063	6.96612
3751.434	1.50931	8.06190	1.85688	6.98475
3755.432	1.54162	7.94622	1.86937	6.96118
3759.434	1.56933	7.83854	1.88663	7.02419
3763.429	1.53790	7.72322	1.87577	6.99874
3767.430	1.52402	7.81745	1.89840	7.04230
3771.431	1.49731	7.75136	1.89773	7.02444
3775.438	1.47523	7.70139	1.87282	7.04130
3779.440	1.44577	7.67175	1.93246	7.10614
3783.433	1.45844	7.69801	1.94005	7.11154
3787.427	1.47471	7.63942	1.96288	7.07363
3791.429	1.48354	7.56580	1.90996	7.01681
3795.435	1.47990	7.52766	1.87579	7.01379
3799.434	1.50527	7.42799	1.91918	7.04857
3803.428	1.50051	7.46743	1.91100	7.01318
3807.435	1.51549	7.52683	1.97478	7.00279
3811.432	1.53364	7.46328	1.92111	6.95907
3815.435	1.56766	7.57706	1.84956	6.94376
3819.433	1.57969	7.82890	1.88824	6.90058
3823.430	1.47967	7.75599	1.88965	6.87199
3827.307	1.51308	7.67806	1.90306	6.76733
3831.308	1.55772	7.49844	1.83982	6.80473
3835.311	1.55209	7.50558	1.84304	6.80599
3839.306	1.55502	7.55001	1.92627	6.74015
3843.307	1.57255	7.65311	1.92290	6.74658
3847.302	1.57619	7.71067	1.91920	6.72899
3851.305	1.64523	7.62702	1.90916	6.66070
3855.337	1.57176	7.63735	1.89570	6.61290
3859.303	1.54145	7.56045	1.89245	6.59642
3863.312	1.01553	7.56516	1.80303	6.57084
3867.305	-0.25408	7.51869	0.87925	6.53725
3871.306	-3.80238	7.47854	-0.75531	6.36469
3875.304	-4.32071	7.29775	-2.47618	6.33043
3879.307	-6.31620	7.03621	-3.69449	6.04525
3883.305	-6.95012	6.72492	-4.61346	5.65971
3887.302	-8.56699	6.58890	-5.67477	5.71868
3891.307	-8.40640	6.20631	-7.14756	5.55118
3895.302	-8.34730	6.27695	-7.44113	5.59077
3899.307	-7.84990	6.19681	-7.48473	5.41111
3903.313	-7.67765	6.02588	-6.85532	5.21903
3907.309	-8.00598	5.94804	-6.79418	5.21715
3911.307	-7.71364	5.88940	-6.82885	5.36957
3915.306	-7.83366	6.02653	-6.88683	5.25602
3919.308	-7.89724	6.08897	-6.93411	5.23620
3923.308	-7.86946	5.86986	-7.18396	5.20997
3927.301	-7.93666	5.83008	-6.75862	5.28113
3931.308	-7.73787	5.73519	-7.04865	5.33183
3935.303	-7.76645	5.95660	-7.25956	5.26549
3939.304	-7.71550	5.87295	-7.20370	5.09620
3943.303	-7.70302	5.86186	-6.96431	5.34731
3947.310	-7.70965	5.79790	-7.12153	5.21813
3951.304	-7.68035	5.96777	-7.23858	5.34546
3955.305	-7.61914	5.90244	-7.18428	5.39764
3959.302	-7.65868	5.88221	-7.24234	5.39993
3963.307	-7.58968	5.89561	-7.26884	5.38457
3967.306	-7.55347	5.88589	-7.28298	5.21030
3971.302	-7.60648	5.87122	-7.16293	5.24629
3975.304	-7.76964	6.05474	-7.34336	5.30745
3979.303	-7.65605	5.99437	-7.15198	5.20867
3983.306	-7.63160	6.03934	-7.14956	5.12261
3987.310	-7.67645	6.11643	-7.18704	5.00923
3991.303	-7.69008	6.10302	-7.21657	5.27777
3995.305	-7.70592	6.17796	-7.19603	5.35322
3999.305	-7.59383	6.12245	-7.10174	5.36214
4003.306	-7.58188	6.23430	-7.11626	5.19709
4007.301	-7.55442	6.22167	-7.04406	5.08245
4011.304	-7.57642	6.16499	-7.12117	4.90341
4015.306	-7.53927	6.16360	-7.13717	5.17655
4019.301	-7.51637	6.24952	-7.11433	5.01210
4023.301	-7.49822	6.26619	-7.04650	4.96217
4027.304	-7.46753	6.14860	-7.07517	5.09780
4031.309	-7.48888	6.18681	-7.08862	5.01167
4035.302	-7.53581	6.29939	-7.07960	4.80528
4039.306	-7.42363	6.25342	-7.03927	4.81040
4043.302	-7.56822	6.31126	-7.09082	5.09836
4047.304	-7.55191	6.02037	-7.10125	4.87743
4051.302	-7.39835	6.10732	-7.17429	4.67476
4055.301	-7.50495	6.19978	-7.11498	4.97739
4059.308	-7.48602	6.22318	-7.08387	4.99895
4063.308	-7.61065	6.24927	-7.17634	4.89648
4067.302	-7.71328	6.29792	-7.12916	5.24820
4071.309	-7.51700	6.06247	-7.07510	5.33197
4075.300	-7.58610	6.14832	-7.05234	5.21316
4079.300	-7.52420	6.03749	-7.05716	5.24126
4083.301	-7.58059	6.12373	-7.05110	5.25184
4087.304	-7.58785	6.25909	-6.96558	5.05345
4091.303	-7.48717	6.14787	-7.03653	5.24509
4095.297	-7.51227	6.09739	-6.99631	5.31792
4099.302	-7.51457	6.02449	-6.95330	5.19061
4103.301	-7.46677	6.02883	-6.96883	5.35636
4107.298	-7.45653	6.06013	-6.96678	5.32511
4111.312	-7.55532	6.23390	-6.99309	5.15206
4115.309	-7.89761	6.48054	-7.00776	5.06560
4119.301	-7.41382	6.27233	-7.01179	5.14273
4123.302	-7.38646	6.30924	-7.06769	5.17897
4127.298	-7.44281	6.28728	-7.07422	5.08371
4131.296	-7.31552	6.30478	-7.19244	5.17527
4135.299	-7.28681	6.27535	-7.44891	5.29167
4139.299	-7.40059	6.47414	-8.80922	5.58697
4143.302	-12.83559	9.42211	-7.59636	9.30480
4147.302	-13.19915	9.64044	-11.32476	9.32768
4151.305	-13.19482	10.23141	-12.99229	10.06088
4155.306	NaN	NaN	NaN	NaN
4159.302	NaN	NaN	NaN	NaN
4163.296	NaN	NaN	NaN	NaN
4167.302	NaN	NaN	NaN	NaN
4171.302	NaN	NaN	NaN	NaN
4175.301	NaN	NaN	NaN	NaN
4179.303	NaN	NaN	NaN	NaN
4183.303	NaN	NaN	NaN	NaN
4187.299	NaN	NaN	NaN	NaN
4191.302	NaN	NaN	NaN	NaN
4195.308	NaN	NaN	NaN	NaN
4199.372	NaN	NaN	NaN	NaN
4203.306	NaN	NaN	NaN	NaN
4207.301	NaN	NaN	NaN	NaN
4211.302	NaN	NaN	NaN	NaN
4215.300	NaN	NaN	NaN	NaN
4219.303	NaN	NaN	NaN	NaN
4223.304	NaN	NaN	NaN	NaN
4227.301	NaN	NaN	NaN	NaN
4231.302	NaN	NaN	NaN	NaN
4235.298	NaN	NaN	NaN	NaN
4239.308	NaN	NaN	21.77859	-6.62871
4243.299	-7.82328	15.05189	NaN	NaN
4247.300	-7.92899	9.42880	-15.80176	9.51130
4251.298	-12.14893	1.75731	NaN	NaN
4255.302	-10.62758	1.64987	-16.23361	-4.85390
4259.299	-0.80342	-0.61627	-16.37250	1.41478
4263.300	-0.78005	-1.07038	-16.13132	1.10584
4267.303	-0.98497	-1.72043	-14.21794	-0.62041
4271.338	-4.56668	-0.92935	-12.39928	-0.93745
4275.299	-5.10704	-1.05000	-6.14261	-1.01113
4279.303	-5.25138	-1.05757	-6.62686	-1.05541
4283.301	-5.33662	-1.11679	-4.72955	-2.96326
4287.299	-5.24161	-1.03444	-3.86212	-2.80902
4291.297	-5.32151	-0.97821	-4.18423	-2.76944
4295.296	-5.37470	-0.98519	-4.27846	-1.98239
4299.299	-5.20083	-0.85732	-5.05422	-2.04050
4303.297	-5.26868	-0.98794	-4.89225	-2.40132
4307.292	-5.10748	-0.85304	-5.18727	-2.93411
4311.298	-4.95507	-0.87311	-5.47636	-2.60461
4315.295	-5.14419	-0.80305	-5.18419	-2.91504
4319.293	-5.27021	-0.85118	-5.20959	-2.88671
4323.300	-5.21540	-0.67873	-5.29875	-2.68480
4327.295	-5.16804	-0.62702	-5.28096	-2.73336
4331.295	-5.22633	-0.61293	-5.08842	-2.64368
4335.298	-5.24786	-0.68031	-5.27931	-2.51467
4339.298	-5.15150	-0.66554	-5.37586	-2.60694
4343.298	-5.22800	-0.73105	-5.42678	-2.66054
4347.293	-5.14229	-0.64466	-5.34794	-2.52536
4351.295	-5.15642	-0.74187	-5.34612	-2.44264
4355.297	-5.27988	-0.65890	-5.35340	-2.35936
4359.299	-5.25035	-0.74461	-5.38179	-2.40913
4363.299	-5.31231	-0.84126	-5.42997	-2.29035
4367.304	-5.25995	-0.85788	-5.34521	-2.27578
4371.295	-5.24809	-0.84555	-5.23979	-2.22784
4375.296	-5.24075	-0.83423	-5.30377	-2.16577
4379.295	-5.26780	-0.83921	-5.26083	-2.20533
4383.298	-5.26595	-0.89636	-5.29578	-2.18297
4387.298	-5.26588	-0.81492	-5.24309	-2.13193
4391.301	-5.30286	-0.76913	-5.17479	-2.12835
4395.294	-5.37879	-0.72169	-5.29194	-2.06484
4399.299	-5.33214	-0.78258	-5.29851	-2.12593
4403.299	-5.37460	-0.70260	-5.23541	-2.12553
4407.297	-5.36021	-0.63783	-5.25635	-2.14394
4411.297	-5.33150	-0.67804	-5.28286	-2.24690
4415.296	-5.31027	-0.56089	-5.31489	-2.19318
4419.300	-5.27513	-0.58663	-5.24142	-2.14273
4423.297	-5.27208	-0.64240	-5.36902	-2.14565
4427.295	-5.21488	-0.53594	-5.28143	-2.02922
4431.295	-5.15167	-0.57846	-5.28468	-2.12272
4435.300	-5.15125	-0.59370	-5.36393	-2.15068
4439.295	-5.10847	-0.61468	-5.37045	-2.27872
4443.298	-5.12669	-0.60001	-5.40518	-2.32147
4447.297	-5.13370	-0.53386	-5.36085	-2.29130
4451.301	-5.04063	-0.65167	-5.32400	-2.40037
4455.295	-5.28163	-0.77421	-5.40648	-2.23795
4459.293	-5.12545	-0.71652	-5.27412	-2.27915
4463.343	-5.17974	-0.79616	-5.17686	-2.30308
4467.298	-5.08123	-0.68467	-5.33084	-2.29529
4471.322	-5.07173	-0.73321	-5.41482	-2.27766
4475.301	-5.17794	-0.87788	-5.27621	-2.28100
4479.295	-5.03447	-0.70209	-5.32033	-2.27058
4483.298	-5.04176	-0.79808	-5.38058	-2.29832
4487.300	-5.05457	-0.84452	-5.23689	-2.23812
4491.329	-5.15490	-0.94366	-5.24085	-2.22193
4495.291	-5.04021	-0.78742	-5.11905	-2.18701
4499.293	-5.04184	-0.77482	-5.08485	-2.18676
4503.292	-5.09864	-0.74622	-5.07466	-2.19629
4507.294	-5.09677	-0.76033	-5.20937	-2.18324
4511.292	-5.12383	-0.51612	-5.20674	-2.16381
4515.291	-5.19628	-0.65245	-5.15615	-2.17268
4519.293	NaN	NaN	NaN	NaN
4527.299	-5.17902	-0.69295	-5.20972	-2.21554
4531.298	-5.22776	-0.37277	-5.20292	-2.20753
4535.288	-5.25682	-0.42194	-5.28451	-2.15889
4539.296	-5.22901	-0.51210	-5.27678	-2.16774
4543.294	-5.27287	-0.45538	-5.35554	-2.11788
4547.294	-5.29351	-0.49428	-5.33438	-1.99623
4551.289	-5.28421	-0.60817	-5.33874	-2.00850
4555.291	-5.30267	-0.50135	-5.40223	-2.00725
4559.293	-5.27951	-0.54848	-5.32388	-1.93105
4563.294	-5.24877	-0.66477	-5.39027	-1.93143
4567.292	-5.31019	-0.70171	-5.32301	-1.89321
4571.295	-5.29784	-0.64416	-5.34201	-1.84409
4575.295	-5.30328	-0.60157	-5.37706	-1.81806
4579.293	-5.32887	-0.55848	-5.40036	-1.82575
4583.297	-5.31915	-0.50935	-5.40855	-1.80383
4587.293	-5.27604	-0.54024	-5.46308	-1.80532
4591.293	-5.39057	-0.58375	-5.47722	-1.93019
4595.292	-5.47562	-0.52987	-5.44338	-1.98171
4599.290	-5.42156	-0.52542	-5.47744	-1.92391
4603.291	-5.46790	-0.39899	-5.37625	-2.07178
4607.290	-5.49217	-0.40570	-5.49116	-1.90521
4611.300	-5.52576	-0.31562	-5.43197	-1.86819
4615.296	-5.44832	-0.35749	-5.41984	-1.80896
4619.289	-5.49967	-0.47265	-5.40245	-1.78739
4623.296	-5.48238	-0.60706	-5.39903	-1.82806
4627.292	-5.47729	-0.50670	-5.34390	-1.83969
4631.294	-5.46861	-0.42211	-5.32117	-1.86986
4635.296	-5.44746	-0.48122	-5.33118	-1.89460
4639.292	-5.43952	-0.79011	-5.35500	-1.96038
4643.290	-5.40302	-0.44353	-5.33938	-2.03145
4647.287	-5.43270	-0.49491	-5.33177	-2.01047
4651.292	-5.39468	-0.53071	-5.34393	-1.98308
4655.303	-5.36437	-0.68881	-5.39278	-2.05433
4659.292	-5.39994	-0.85578	-5.40454	-2.04947
4663.296	-5.37352	-0.59824	-5.37861	-2.08523
4667.292	-5.41684	-0.54769	-5.35453	-2.00548
4671.294	-5.45993	-0.61559	-5.37396	-1.99074
4675.294	-5.39780	-0.70099	-5.37918	-1.99897
4679.167	-5.41443	-0.82111	-5.36917	-1.91813
4683.168	-5.40196	-0.50629	-5.38892	-1.83552
4687.165	-5.43947	-0.52437	-5.37239	-1.79761
4691.165	-5.40516	-0.39591	-5.37763	-1.78472
4695.166	-5.43558	-0.50594	-5.34580	-1.80533
4699.173	-5.52008	-0.63868	-5.29797	-1.82000
4703.171	-5.46337	-0.76406	-5.30094	-1.82046
4707.186	-5.43047	-0.60345	-5.22205	-1.89125
4711.168	-4.84790	-0.46885	-4.59593	-1.67801
4715.173	-3.23556	-0.64331	-1.72537	-1.65824
4719.169	-1.71605	-0.71411	-0.64491	-1.88523
4723.164	-0.44217	-0.56071	0.22711	-1.78557
4727.168	0.47701	-0.61639	2.31611	-1.88740
4731.162	2.49558	-0.67344	3.58766	-1.91245
4735.169	3.30844	-0.70086	4.56530	-2.02920
4739.166	5.43993	-0.59714	5.78055	-2.06146
4743.195	6.31652	-0.59963	6.92031	-1.98851
4747.166	6.59547	-0.52029	7.47002	-2.15931
4751.162	7.34223	-0.50827	7.61051	-2.14262
4755.163	7.66112	-0.54484	7.49598	-2.34557
4759.169	7.16483	-0.48417	7.67889	-2.36006
4763.164	6.94760	-0.42485	7.38156	-2.72061
4767.163	7.14514	-0.48199	7.41163	-2.73478
4771.161	7.17289	-0.43064	7.49947	-2.72305
4775.188	7.22412	-0.45201	7.55352	-2.69796
4779.174	7.45557	-0.53899	7.49268	-2.65783
4783.165	7.46346	-0.48254	7.57247	-2.76452
4787.170	7.48685	-0.68718	7.62428	-2.84038
4791.164	7.38954	-0.69883	7.64120	-2.80103
4795.161	7.32819	-0.59831	7.72463	-2.81984
4799.162	7.45880	-0.69156	7.64247	-2.92659
4803.163	7.46375	-0.80790	7.68978	-2.97064
4807.162	7.53488	-0.75075	7.70762	-2.93881
4811.190	7.53549	-0.81611	7.79035	-2.87498
4815.165	7.58678	-0.95586	7.83517	-2.77799
4819.161	7.57698	-0.90994	7.90126	-2.73297
4823.162	7.49925	-0.79510	7.92125	-2.64831
4827.168	7.52574	-0.81785	7.84099	-2.50708
4831.162	7.53593	-0.91170	7.88772	-2.39692
4835.163	7.57722	-0.96564	7.84148	-2.29014
4839.167	7.66214	-0.87002	7.84944	-2.30226
4843.164	NaN	NaN	NaN	NaN
4851.165	7.55437	-0.82600	7.89393	-2.25001
4855.162	7.57527	-0.79843	7.90443	-2.17379
4859.170	7.64917	-0.90609	7.86780	-2.09997
4863.164	7.65034	-0.82126	7.93179	-2.06833
4867.166	7.72934	-0.78403	7.95032	-2.05288
4871.162	7.79459	-0.93261	7.96794	-2.07717
4875.162	7.74096	-1.11566	8.07650	-2.07875
4879.192	7.74966	-0.76465	8.08540	-2.14433
4883.168	7.70667	-0.99555	8.08401	-2.11761
4887.161	7.80170	-0.76248	8.15068	-2.09348
4891.162	7.71908	-0.94971	8.14307	-2.12838
4895.163	7.84961	-1.02902	8.10226	-2.13463
4899.162	7.96860	-1.02691	8.04986	-2.10540
4903.167	7.91378	-1.11294	8.02523	-2.12543
4907.169	7.97449	-1.06908	8.05818	-2.15971
4911.165	7.92634	-1.24548	8.08049	-2.16934
4915.231	7.91485	-1.19198	7.89189	-2.21119
4919.169	7.97417	-1.13513	7.98836	-2.10479
4923.160	7.97729	-1.24508	7.80937	-2.20637
4927.157	8.05017	-1.14410	7.72237	-2.01551
4931.165	7.92968	-1.25295	7.53496	-2.31193
4935.163	8.00482	-1.24662	7.68179	-2.08703
4939.160	8.00645	-1.15935	7.48688	-2.23852
4943.157	7.92412	-1.30088	7.48275	-2.04513
4947.170	7.94097	-1.20130	7.52505	-2.34019
4951.167	7.91689	-0.98501	7.40599	-2.13718
4955.162	7.91862	-1.28725	7.35434	-2.24327
4959.159	7.88750	-1.28393	7.36762	-2.26434
4963.163	7.88495	-0.85614	7.35683	-2.12593
4967.161	7.87815	-1.15365	7.39371	-2.22588
4971.160	7.85409	-0.91724	7.51074	-2.24501
4975.162	7.88865	-0.87649	7.40879	-2.24046
4979.158	7.90964	-0.98820	7.44982	-2.21750
4983.158	7.93189	-1.02592	7.57032	-2.31273
4987.159	7.99725	-1.13686	7.54566	-2.22343
4991.163	8.19725	-1.15361	8.14152	-2.40390
4995.164	8.96126	-1.25358	9.63390	-2.40084
4999.159	10.71631	-2.29247	10.80345	-2.93974
5003.164	10.54545	-2.47985	11.33426	-3.03677
5007.159	11.33483	-3.24269	11.59170	-4.06208
5011.161	11.65680	-3.25163	11.93377	-4.65416
5015.164	11.21317	-3.92773	12.37020	-5.05366
5019.162	11.70630	-3.93328	12.04742	-5.58898
5023.158	11.64858	-4.58305	11.95581	-5.33101
5027.161	11.64551	-3.61573	11.89559	-5.01695
5031.161	11.67286	-3.97692	11.73514	-5.03129
5035.165	11.92524	-4.19673	11.87848	-5.26357
5039.163	11.88154	-3.76888	11.70140	-5.20409
5043.159	11.84603	-3.81596	12.07994	-5.32881
5047.161	11.96807	-3.99565	11.87216	-5.29837
5051.159	11.89647	-4.01483	12.01423	-5.27948
5055.174	12.07671	-4.12356	12.12186	-5.29828
5059.162	12.07130	-4.19814	11.99920	-5.29631
5063.158	12.07725	-4.21990	11.90127	-5.27102
5067.159	12.13742	-4.18589	12.09645	-5.31179
5071.159	12.11897	-4.30356	11.84470	-5.31216
5075.162	12.12279	-4.36305	11.93154	-5.33089
5079.157	12.15407	-4.23644	12.15604	-5.21412
5083.158	12.25886	-4.20565	12.14651	-5.19879
5087.163	12.24730	-4.22228	12.00721	-5.21348
5091.156	12.23675	-4.22803	12.01089	-5.14967
5095.160	12.31881	-4.26303	11.94942	-5.20581
5099.157	12.17177	-4.20676	12.05157	-5.17221
5103.156	12.20610	-4.34391	11.88009	-5.14805
5107.158	12.26671	-4.17260	11.88727	-5.13836
5111.159	12.13567	-4.34011	11.90452	-5.12349
5115.162	12.07785	-4.16108	12.22132	-5.07813
5119.182	12.28348	-4.29047	11.83312	-5.15404
5123.156	12.09503	-4.34412	11.99013	-5.16205
5127.160	12.21077	-4.20368	11.88024	-5.16179
5131.156	12.23033	-4.34279	11.86510	-5.20315
5135.155	11.96624	-4.28545	11.90927	-5.25278
5139.162	12.00910	-4.57878	11.80654	-5.25287
5143.158	12.02420	-4.41162	11.80038	-5.29208
5147.156	12.17326	-4.44068	11.94945	-5.28886
5151.176	12.12706	-4.43154	11.89381	-5.22672
5155.163	12.25946	-4.49499	11.91260	-5.29556
5159.162	12.22315	-4.49399	11.91704	-5.43786
5163.158	12.20714	-4.23963	11.93878	-5.38871
5167.155	12.17765	-4.20691	11.83255	-5.26759
5171.157	12.19270	-4.32426	11.85207	-5.35396
5175.155	12.11899	-4.36736	11.96125	-5.27955
5179.155	12.25756	-4.26158	11.83621	-5.20611
5183.155	12.40600	-4.26513	11.78754	-5.04552
5187.156	12.31753	-4.39415	11.91046	-5.07094
5191.156	12.32918	-4.27264	11.99932	-5.28486
5195.157	12.37480	-4.17656	11.78095	-5.20001
5199.161	12.45868	-4.26517	11.81567	-5.32007
5203.156	12.36206	-4.23022	11.76245	-5.09689
5207.153	12.34285	-4.29996	11.98624	-5.18549
5211.155	12.32925	-4.40061	12.08665	-5.35195
5215.159	12.34936	-4.28667	11.83041	-5.24170
5219.180	12.38154	-4.38188	11.76019	-5.26496
5223.156	12.35902	-4.27005	11.93622	-5.48792
5227.157	12.27905	-4.55961	12.06461	-5.29912
5231.155	12.42209	-4.33495	12.12796	-5.38619
5235.156	12.34645	-4.39538	12.04521	-5.37592
5239.152	12.28988	-4.50345	11.99759	-5.19250
5243.159	12.32826	-4.51343	12.02990	-5.36989
5247.156	12.31748	-4.51893	12.09859	-5.32199
5251.154	12.26967	-4.48849	12.15246	-5.33236
5255.152	12.41902	-4.49031	12.13797	-5.39519
5259.154	12.39101	-4.49762	12.05499	-5.28543
5263.155	12.29017	-4.57373	11.99980	-5.19880
5267.158	12.38254	-4.63829	12.03152	-5.30567
5271.153	12.30128	-4.53286	12.07172	-5.26484
5275.154	12.28149	-4.60838	11.94496	-5.33041
5279.159	12.26815	-4.60115	11.92686	-5.19192
5283.162	12.25159	-4.60656	11.99600	-5.18810
5287.157	12.27939	-4.54836	12.03546	-5.24752
5291.156	12.18716	-4.55605	11.96334	-5.29787
5295.157	12.35817	-4.53748	11.78459	-5.28609
5299.156	12.19960	-4.64102	11.81738	-5.31039
5303.157	12.23161	-4.49498	11.87762	-5.37453
5307.160	12.23813	-4.51089	11.76480	-5.29073
5311.156	12.47349	-4.41280	12.11674	-5.24989
5315.155	13.00719	-4.44651	12.68756	-5.25438
5319.154	13.93151	-4.44413	14.21372	-5.15363
5323.163	14.67497	-4.18692	14.64057	-5.19156
5327.161	15.47277	-4.14638	15.07547	-5.27342
5331.153	15.18127	-4.08072	14.90252	-5.19798
5335.153	15.89097	-3.84762	15.46574	-5.16996
5339.156	15.84794	-3.79661	15.99601	-5.19204
5343.156	15.86838	-3.89141	14.99412	-5.10323
5347.153	15.58324	-3.90757	15.03140	-5.06327
5351.154	15.54969	-3.84875	15.01568	-5.10893
5355.155	15.84452	-3.62511	14.97645	-5.04329
5359.155	15.71188	-3.77017	15.20834	-5.19530
5363.152	15.64867	-3.62950	15.37051	-5.14959
5367.157	15.73984	-3.81701	15.05987	-5.20746
5371.156	15.53608	-3.88592	15.29670	-5.13402
5375.156	15.83742	-3.65874	15.36742	-5.14910
5379.150	15.78134	-3.88308	15.14278	-5.11665
5383.154	15.78738	-3.76898	15.23389	-5.18468
5387.154	15.73955	-3.81638	15.12374	-5.09352
5391.152	15.62590	-3.70755	15.25002	-5.08692
5395.156	15.74138	-3.66256	15.24861	-5.04578
5399.154	15.65872	-3.86679	15.17639	-5.16373
5403.153	15.77380	-3.70952	15.37120	-5.08435
5407.156	15.82327	-3.76734	15.09525	-4.99512
5411.155	15.73382	-3.70998	15.29298	-5.05200
5415.153	15.71255	-3.67854	15.16130	-5.00214
5419.154	15.67717	-3.70389	15.20136	-4.98642
5423.153	15.70708	-3.60712	15.18095	-5.00020
5427.158	15.75773	-3.72672	15.20508	-4.88813
5431.155	15.82566	-3.60040	15.21153	-4.88093
5435.152	15.75417	-3.83722	15.12273	-4.95908
5439.150	15.78393	-3.67983	15.37794	-4.90455
5443.151	15.73745	-3.70403	15.13288	-4.90553
5447.153	15.64577	-3.75116	15.23359	-4.88002
5451.156	15.67917	-3.67547	15.16890	-4.89405
5455.149	15.80797	-3.62215	15.16539	-4.93792
5459.157	15.82469	-3.73803	15.07780	-4.81849
5463.154	15.64195	-3.82437	15.04867	-4.82741
5467.153	15.88879	-3.76222	15.09999	-4.97987
5471.151	15.82433	-3.83678	15.00408	-5.00952
5475.153	15.73543	-3.82305	15.28298	-5.05326
5479.152	15.96450	-3.83770	14.98458	-4.94929
5483.149	15.66567	-3.87973	15.10647	-4.97460
5487.150	15.95530	-3.91991	15.12883	-4.86835
5491.158	16.04288	-3.74816	15.01325	-4.93024
5495.157	15.83776	-3.68228	15.12465	-4.97422
5499.151	16.02903	-3.84907	14.98018	-4.94196
5503.151	15.66687	-3.71160	14.99771	-4.82234
5507.151	15.41252	-3.24451	14.55909	-4.38665
5511.150	14.44327	-2.36101	13.59654	-2.65881
5515.152	13.46958	-1.54449	12.70154	-2.19306
5519.155	13.23883	-1.14209	12.05810	-2.02566
5523.154	12.91270	-0.40719	11.72774	-1.68180
5527.151	12.50337	0.10500	11.46406	-0.77135
5531.033	12.54285	0.29527	11.57753	-0.30721
5535.027	12.83961	0.46228	12.04733	-0.81632
5539.035	12.56396	0.50920	11.75098	-0.53711
5543.029	12.50673	0.09532	12.07585	-0.87014
5547.031	12.50020	0.44929	12.08857	-0.83682
5551.027	12.49039	0.01492	11.92073	-0.98311
5555.086	12.52738	0.30790	11.73378	-0.62958
5559.030	12.39968	0.43653	11.88292	-0.69355
5563.028	12.37041	0.29665	11.82749	-0.58990
5567.027	12.34235	0.45689	11.92548	-0.48600
5571.022	12.38365	0.24298	11.88670	-0.55950
5575.026	12.46704	0.31399	11.91303	-0.64240
5579.029	12.36947	0.37362	11.81679	-0.58387
5583.025	12.33267	0.27725	11.83598	-0.50540
5587.024	12.36618	0.43724	11.84703	-0.55956
5591.024	12.34005	0.32584	11.91355	-0.59985
5595.025	12.29320	0.40830	11.83205	-0.42418
5599.024	12.27017	0.41657	11.80483	-0.58932
5603.022	12.32798	0.33845	11.73466	-0.47084
5607.025	12.23597	0.46919	11.79085	-0.51205
5611.024	12.30677	0.31282	11.66618	-0.62409
5615.024	12.31142	0.39436	11.70211	-0.72668
5619.026	12.18097	0.54917	11.59858	-0.52438
5623.026	12.24938	0.45392	11.70468	-0.54814
5627.024	12.26654	0.37865	11.78709	-0.68431
5631.026	12.15538	0.30401	11.77653	-0.56780
5635.025	12.25820	0.23068	11.62275	-0.59581
5639.023	12.27176	0.32104	11.72198	-0.64598
5643.027	12.19377	0.37355	11.76169	-0.68369
5647.026	12.25770	0.25735	11.80583	-0.61252
5651.024	12.32260	0.21378	11.66027	-0.53198
5655.025	12.28912	0.25664	11.71287	-0.56779
5659.026	12.23360	0.20749	11.86773	-0.56725
5663.025	12.30857	0.21097	11.81242	-0.68120
5667.033	12.30140	0.22492	11.73133	-0.73037
5671.025	12.27725	0.25405	11.76176	-0.68797
5675.022	12.28666	0.21490	11.80426	-0.68127
5679.020	12.31521	0.25964	11.78935	-0.86639
5683.023	12.28630	0.29961	11.75479	-0.65311
5687.024	12.30246	0.35109	11.84456	-0.75563
5691.026	12.26358	0.31773	11.73990	-0.84205
5695.048	12.27164	0.39173	11.76573	-0.71012
5699.026	12.24253	0.37186	11.71782	-0.92675
5703.029	12.23910	0.31319	11.70252	-0.71344
5707.025	12.25166	0.47351	11.77182	-0.88583
5711.024	12.20555	0.36334	11.77972	-0.56091
5715.024	12.20292	0.48628	11.82594	-0.80813
5719.027	12.15543	0.33649	11.78005	-0.65524
5723.023	12.12393	0.53214	11.81527	-0.74713
5727.022	12.09984	0.36440	11.75940	-0.87925
5731.019	12.09792	0.30933	11.76152	-0.64368
5735.022	12.10226	0.41027	11.78155	-0.77643
5739.025	12.08615	0.44404	11.81308	-0.73881
5743.023	12.07818	0.31831	11.86476	-0.77366
5747.025	12.13092	0.40597	11.97192	-0.80493
5751.025	12.10053	0.37568	11.92633	-0.75910
5755.022	12.10625	0.44999	11.88796	-0.86627
5759.021	12.11176	0.41278	11.95517	-0.83794
5763.022	12.10321	0.43527	11.91472	-0.77607
5767.020	12.04685	0.45091	11.81893	-0.77951
5771.022	11.49738	0.41049	11.28176	-0.82556
5775.053	9.28540	0.55716	8.86226	-0.85417
5779.023	7.12474	0.55277	8.32169	-0.74240
5783.026	6.62554	0.35494	6.40498	-0.79791
5787.027	5.29113	0.49364	5.69067	-0.74794
5791.020	3.51342	0.09852	4.15028	-0.78508
5795.023	1.73140	-0.69384	2.83630	-0.99295
5799.022	1.06116	-0.27275	0.91867	-0.95139
5803.019	-0.13948	-0.98659	0.45745	-1.03373
5807.020	-1.56546	-0.29279	-0.49617	-1.23581
5811.026	-2.08136	-0.93889	-0.91909	-0.96408
5815.021	-2.13063	-0.75031	-1.21643	-1.21310
5819.020	-1.88001	-1.24460	-1.26966	-1.17481
5823.021	-1.69369	-0.89224	-1.23414	-1.24103
5827.032	-1.58973	-0.66468	-1.31716	-1.25363
5831.030	-1.42821	-1.10143	-1.32704	-1.35270
5835.032	-1.66981	-1.01458	-1.38520	-1.27284
5839.026	-1.64305	-1.03984	-1.39944	-1.25664
5843.017	-1.58547	-1.00734	-1.46402	-1.18912
5847.018	-1.65882	-0.85124	-1.55469	-1.15016
5851.021	-1.64246	-0.99033	-1.58594	-1.22073
5855.023	-1.66333	-0.95039	-1.65475	-1.28715
5859.017	-1.62249	-0.92890	-1.75949	-1.28676
5863.024	-1.64657	-0.92085	-1.70975	-1.30747
5867.022	-1.60977	-0.99462	-1.77117	-1.32898
5871.027	-1.68191	-1.02468	-1.73849	-1.32865
5875.019	-1.73165	-0.72200	-1.70341	-1.46186
5879.023	-1.72753	-0.92990	-1.79311	-1.23843
5883.022	-1.70341	-1.01749	-1.76301	-1.35604
5887.019	-1.69847	-1.06824	-1.74042	-1.41643
5891.017	-1.69827	-0.77138	-1.67469	-1.46563
5895.021	-1.67665	-1.07337	-1.71799	-1.48687
5899.040	-1.63504	-1.11208	-1.70236	-1.47236
5903.024	-1.62651	-0.78427	-1.60637	-1.45649
5907.020	-1.62497	-0.99391	-1.66381	-1.52012
5911.023	-1.68240	-1.00918	-1.66078	-1.45395
5915.024	-1.68392	-1.06758	-1.61758	-1.53311
5919.024	-1.74404	-0.87491	-1.68451	-1.42250
5923.022	-1.75850	-0.85102	-1.66361	-1.53990
5927.018	-1.72612	-0.76206	-1.70903	-1.53776
5931.018	-1.83266	-0.87648	-1.91876	-1.50368
5935.019	-2.15901	-0.72432	-3.03014	-1.49761
5939.021	-5.97001	-0.47527	NaN	NaN
5943.023	NaN	NaN	-7.84542	-1.51044
5947.017	-10.78702	-0.75769	-8.87663	-8.50118
5951.023	-15.67987	-1.05995	-11.45555	-8.07615
5955.026	-16.12632	-1.30258	-13.48240	-12.13380
5959.022	-18.70690	-1.55996	-18.91786	-13.77308
5963.026	-19.92215	-12.08274	-19.89368	-11.96312
5967.032	-19.94554	-12.08101	-19.92586	-11.99425
5971.023	-19.95757	-12.08011	-20.66646	-1.86075
5975.018	-19.96498	-12.07956	-23.07061	-2.56306
5979.024	-19.97003	-12.07919	-20.00816	-12.00868
5983.023	-19.97369	-12.07891	-20.00808	-12.01275
5987.019	-19.97461	-12.07885	-20.00580	-12.02543
5991.038	-19.97735	-12.07864	-20.00418	-12.03446
5995.026	-19.97954	-12.07848	-20.00297	-12.04123
5999.024	-19.98132	-12.07835	-20.00201	-12.08420
6003.018	NaN	NaN	-20.01984	-12.07548
6007.020	NaN	NaN	-20.01872	-12.07556
6011.014	NaN	NaN	-20.01754	-12.07565
6015.021	NaN	NaN	NaN	NaN
6019.020	NaN	NaN	NaN	NaN
6023.020	NaN	NaN	NaN	NaN
6027.023	NaN	NaN	NaN	NaN
6031.020	NaN	NaN	NaN	NaN
6035.684	NaN	NaN	NaN	NaN
6039.499	NaN	NaN	NaN	NaN
6043.328	NaN	NaN	NaN	NaN
6048.902	NaN	NaN	NaN	NaN
6051.941	NaN	NaN	NaN	NaN
6059.022	NaN	NaN	NaN	NaN
6063.018	NaN	NaN	NaN	NaN
6067.019	NaN	NaN	NaN	NaN
6071.019	NaN	NaN	NaN	NaN
6075.020	NaN	NaN	NaN	NaN
6079.023	NaN	NaN	NaN	NaN
6083.022	NaN	NaN	NaN	NaN
6087.021	NaN	NaN	NaN	NaN
6091.020	NaN	NaN	NaN	NaN
6095.019	NaN	NaN	NaN	NaN
6099.018	NaN	NaN	NaN	NaN
6103.148	NaN	NaN	NaN	NaN
6107.019	NaN	NaN	NaN	NaN
6111.019	NaN	NaN	NaN	NaN
6115.020	NaN	NaN	NaN	NaN
6119.027	NaN	NaN	NaN	NaN
6123.027	NaN	NaN	NaN	NaN
6127.023	NaN	NaN	NaN	NaN
6131.019	NaN	NaN	NaN	NaN
6135.018	NaN	NaN	NaN	NaN
6139.020	NaN	NaN	NaN	NaN
6143.019	NaN	NaN	NaN	NaN
6147.016	NaN	NaN	NaN	NaN
6151.017	NaN	NaN	NaN	NaN
6155.020	NaN	NaN	NaN	NaN
6159.018	NaN	NaN	NaN	NaN
6163.021	NaN	NaN	NaN	NaN
6167.021	NaN	NaN	NaN	NaN
6171.144	NaN	NaN	NaN	NaN
6175.015	NaN	NaN	NaN	NaN
6179.048	NaN	NaN	NaN	NaN
6183.019	NaN	NaN	NaN	NaN
6187.018	NaN	NaN	NaN	NaN
6191.015	NaN	NaN	NaN	NaN
6195.016	NaN	NaN	NaN	NaN
6199.016	NaN	NaN	NaN	NaN
6203.021	NaN	NaN	NaN	NaN
6207.016	NaN	NaN	NaN	NaN
6211.019	NaN	NaN	NaN	NaN
6215.016	NaN	NaN	NaN	NaN
6219.019	NaN	NaN	NaN	NaN
6223.015	NaN	NaN	NaN	NaN
6227.019	NaN	NaN	NaN	NaN
6231.013	NaN	NaN	NaN	NaN
6235.015	NaN	NaN	NaN	NaN
6239.048	NaN	NaN	NaN	NaN
6243.022	NaN	NaN	NaN	NaN
6247.020	NaN	NaN	NaN	NaN
6251.016	NaN	NaN	NaN	NaN
6255.016	NaN	NaN	NaN	NaN
6259.021	NaN	NaN	NaN	NaN
6263.032	NaN	NaN	NaN	NaN
6267.022	NaN	NaN	NaN	NaN
6271.015	NaN	NaN	NaN	NaN
6275.016	NaN	NaN	NaN	NaN
6279.015	NaN	NaN	NaN	NaN
6283.018	NaN	NaN	NaN	NaN
6287.021	NaN	NaN	NaN	NaN
6291.017	NaN	NaN	NaN	NaN
6295.015	NaN	NaN	NaN	NaN
6299.015	NaN	NaN	NaN	NaN
6303.015	NaN	NaN	NaN	NaN
6307.024	NaN	NaN	NaN	NaN
6311.044	NaN	NaN	NaN	NaN
6315.017	NaN	NaN	NaN	NaN
6319.015	NaN	NaN	NaN	NaN
6323.015	NaN	NaN	NaN	NaN
6327.199	NaN	NaN	NaN	NaN
6331.048	NaN	NaN	NaN	NaN
6335.026	NaN	NaN	NaN	NaN
6339.014	NaN	NaN	NaN	NaN
6343.015	NaN	NaN	NaN	NaN
6347.015	NaN	NaN	NaN	NaN
6351.015	NaN	NaN	NaN	NaN
6355.012	NaN	NaN	NaN	NaN
6359.015	NaN	NaN	NaN	NaN
6363.016	NaN	NaN	NaN	NaN
6367.012	NaN	NaN	NaN	NaN
6371.018	NaN	NaN	NaN	NaN
6375.050	NaN	NaN	NaN	NaN
6378.890	NaN	NaN	NaN	NaN
6382.893	NaN	NaN	NaN	NaN
6386.890	NaN	NaN	NaN	NaN
6391.013	NaN	NaN	NaN	NaN
6395.150	NaN	NaN	NaN	NaN
6399.276	NaN	NaN	NaN	NaN
6527.942	NaN	NaN	NaN	NaN
6577.590	NaN	NaN	NaN	NaN
6627.586	NaN	NaN	NaN	NaN
6695.417	1.83179	2.17396	1.04828	-0.25856
6699.157	1.75815	2.12581	1.31622	-0.05570
6703.140	1.72131	2.10387	1.26130	0.24962
6707.132	1.77295	1.99670	1.24161	0.09721
6711.137	1.76217	2.07604	1.30169	-0.14906
6715.137	1.79715	1.93265	1.33936	-0.04439
6719.131	1.78424	2.01393	1.21256	-0.04894
6723.132	1.85105	1.68708	1.34348	-0.16473
6727.132	1.76477	1.84478	1.38461	-0.04847
6731.138	1.75686	1.79782	1.34147	-0.24502
6735.132	1.76329	1.66890	1.34688	-0.18627
6739.136	1.77600	1.73333	1.35462	-0.05366
6743.137	1.78974	1.70322	1.37154	-0.12458
6747.133	1.76621	1.61648	1.39847	-0.22141
6751.132	1.80858	1.54284	1.38518	-0.26099
6755.127	1.76614	1.50177	1.43448	-0.31101
6759.132	1.79599	1.58965	1.36905	-0.15963
6763.132	1.79014	1.41855	1.42615	-0.35786
6767.135	1.78270	1.52385	1.42682	-0.35953
6771.135	1.84322	1.49491	1.39435	-0.27592
6775.161	1.89518	1.41114	1.39837	-0.30165
6779.147	1.85244	1.49100	1.43704	-0.32065
6783.134	1.89387	1.40142	1.44252	-0.12580
6787.132	1.95862	1.33601	1.46663	-0.27757
6791.132	2.04617	1.34182	1.48282	-0.32643
6795.131	1.99682	1.33524	1.44912	-0.19751
6799.126	2.06200	1.39423	1.35526	-0.20204
6803.130	2.06597	1.33401	1.32466	-0.29719
6807.131	2.12932	1.32966	1.40075	-0.26330
6811.130	2.17948	1.35585	1.39547	-0.20579
6815.126	2.32015	1.36870	1.40886	-0.33302
6819.136	2.29235	1.39210	1.37054	-0.35832
6823.146	2.35323	1.31566	1.34785	-0.40358
6827.143	2.40652	1.15803	1.96107	-0.32652
6831.132	3.08693	1.20132	2.82699	-0.46822
6835.223	3.90963	0.90967	4.90878	-0.46742
6839.131	5.26152	0.74917	5.52981	-0.83734
6843.131	5.54619	-0.02441	6.01709	-2.06717
6847.134	6.01972	0.20489	6.25708	-2.22892
6851.125	6.51525	-0.13068	6.28577	-2.49106
6855.128	6.93953	-0.44380	6.17330	-2.63671
6859.130	6.86503	-0.22909	6.14133	-2.53995
6863.134	6.67884	-0.32637	5.94411	-2.39293
6867.130	6.68577	-0.37674	6.07869	-2.52589
6871.135	6.87531	-0.40826	6.13483	-2.56592
6875.129	6.91378	-0.46223	6.20759	-2.63869
6879.124	6.88289	-0.47277	6.37665	-2.60224
6883.126	6.91809	-0.48566	6.29813	-2.63771
6887.128	6.87166	-0.49979	6.35368	-2.53791
6891.129	6.90317	-0.57524	6.40070	-2.44596
6895.127	6.97812	-0.62080	6.42177	-2.32774
6899.136	7.01920	-0.64762	6.42278	-2.27256
6903.130	7.06791	-0.72290	6.54521	-2.42370
6907.138	7.01873	-0.68210	6.55097	-2.59290
6911.125	7.04178	-0.69949	6.58526	-2.44847
6915.127	7.14072	-0.72042	6.69542	-2.41543
6919.131	7.13664	-0.74299	6.72607	-2.24047
6923.128	7.20746	-0.78268	6.68536	-2.34435
6927.125	7.20582	-0.69168	6.65754	-2.77141
6931.003	7.26564	-0.74443	6.64322	-2.55396
6935.004	7.24258	-0.78050	6.69943	-2.44497
6939.007	7.18772	-0.83482	6.69872	-2.20043
6943.128	7.17057	-0.72821	6.78192	-2.49792
6947.003	7.16564	-0.73246	6.73755	-2.95378
6951.008	7.23670	-0.72909	6.72156	-2.85165
6955.003	7.25687	-0.73397	6.75059	-2.81165
6959.002	7.21369	-0.69928	6.70883	-2.65236
6963.016	7.23408	-0.69200	6.69299	-2.58708
6967.008	7.19212	-0.63902	6.70922	-2.42107
6971.012	7.25467	-0.72916	6.75289	-2.48891
6975.003	7.22644	-0.74511	6.80306	-2.54815
6979.001	7.22300	-0.67605	6.76802	-2.48135
6983.006	7.23562	-0.53531	6.72594	-2.46641
6987.001	7.19835	-0.52838	6.69960	-2.41738
6991.004	7.17260	-0.60131	6.65470	-2.40138
6995.006	7.14247	-0.58135	6.71079	-2.35906
6999.005	7.10470	-0.61185	6.73023	-2.36714
7003.001	7.09077	-0.62183	6.66565	-2.43873
7007.001	7.10438	-0.64080	6.61411	-2.39372
7011.007	7.09492	-0.72372	6.57943	-2.28536
7015.003	7.10526	-0.71074	6.68242	-2.31430
7019.003	7.13490	-0.70857	6.53654	-2.50491
7023.002	7.11442	-0.81826	6.63644	-2.56760
7027.004	7.03675	-0.97714	6.71468	-2.44240
7031.001	7.14929	-0.88547	6.65167	-2.45070
7035.005	7.16358	-0.86881	6.69268	-2.47299
7039.004	7.20492	-0.97616	6.59128	-2.36618
7043.001	7.27724	-1.24800	6.58996	-2.17356
7047.004	7.22583	-1.11407	6.64812	-2.19905
7051.027	7.26962	-0.98344	6.58504	-2.62006
7055.004	7.19427	-1.08539	6.71297	-2.27959
7059.005	7.19791	-1.13223	6.77514	-2.27237
7063.005	7.16769	-1.19461	6.71843	-2.33896
7066.997	7.15217	-1.11031	6.65439	-2.33528
7071.005	7.18784	-1.06584	6.61467	-2.23240
7075.002	7.18865	-1.12291	6.55204	-2.09959
7079.019	7.09138	-1.12537	6.64959	-2.01579
7083.005	6.82288	-1.22178	6.26623	-2.10375
7087.001	4.11261	-1.22633	5.37261	-2.13706
7091.007	2.60805	-1.27281	3.28558	-2.29491
7095.003	1.59417	-1.51101	2.36153	-2.42059
7099.001	-0.13456	-2.14968	1.00677	-2.59102
7102.997	-1.53882	-1.79652	-0.63640	-2.56514
7106.999	-1.84689	-2.32593	-1.09003	-2.58073
7111.004	-2.31807	-2.27709	-2.10600	-2.57698
7114.997	-2.36951	-1.81692	-2.05276	-2.67708
7119.005	-1.91995	-2.04302	-1.65480	-2.69010
7122.999	-1.81072	-1.82101	-1.74077	-2.75657
7127.000	-1.98752	-1.67841	-1.81738	-2.79669
7130.996	-1.90953	-2.41902	-1.77747	-2.79636
7134.998	-1.91749	-2.38655	-1.95192	-2.73748
7139.002	-2.08089	-2.10036	-2.07866	-2.73152
7143.004	-1.99699	-2.01448	-2.22560	-2.73215
7146.997	-2.20813	-1.90401	-2.14835	-2.76705
7151.013	-2.12196	-1.88433	-2.24872	-2.79659
7155.007	-2.09522	-2.05580	-2.27781	-2.78569
7159.003	-2.01511	-1.96460	-2.35600	-2.74597
7163.000	-2.11953	-1.96174	-2.30771	-2.72598
7167.001	-2.10131	-1.89313	-2.38363	-2.77277
7171.005	-2.14630	-2.01374	-2.39076	-2.63098
7175.003	-2.18047	-2.06900	-2.37362	-2.68508
7179.006	-2.09403	-2.14629	-2.41484	-2.76074
7183.000	-2.15913	-2.09695	-2.39839	-2.74978
7186.998	-2.09651	-1.90207	-2.39183	-2.70523
7190.997	-2.11544	-1.78977	-2.42547	-2.74115
7195.000	-2.04401	-2.05961	-2.37181	-2.57460
7198.997	-2.05251	-2.13340	-2.34560	-2.54497
7203.004	-1.88735	-2.12516	-2.24069	-2.70609
7206.999	-1.91521	-2.17113	-2.27003	-2.81196
7211.004	-1.88985	-2.11794	-2.25647	-2.63247
7215.001	-1.75208	-2.14020	-2.25117	-2.68607
7219.000	-1.85497	-2.03295	-2.31787	-2.61440
7222.999	-1.77568	-1.86243	-2.17668	-2.69183
7227.000	-1.65391	-1.69448	-2.21150	-2.69118
7230.999	NaN	NaN	NaN	NaN
7234.999	NaN	NaN	NaN	NaN
7239.003	NaN	NaN	-10.82998	-14.97154
7243.039	NaN	NaN	-19.99372	-12.07948
7247.008	NaN	NaN	-19.99372	-12.07896
7251.038	NaN	NaN	-19.99372	-12.07865
7254.998	-19.55158	-2.22790	-19.99372	-12.07843
7259.002	-19.95411	-12.08037	-19.99372	-12.07827
7262.999	-22.49511	-4.48406	-19.99372	-12.07816
7266.998	-19.95863	-12.08003	-19.99372	-12.07807
7270.998	-19.96251	-12.07975	-19.99372	-12.07798
7274.998	-19.96321	-12.07969	-19.99372	-12.07798
7279.000	-19.96406	-12.07963	-19.99372	-12.07794
7283.000	-19.96503	-12.07956	NaN	NaN
7287.001	-19.96612	-12.07948	NaN	NaN
7291.002	-19.96731	-12.07939	NaN	NaN
7294.998	-19.96856	-12.07930	NaN	NaN
7298.998	-19.99383	-12.07742	NaN	NaN
7302.992	-19.99383	-12.07742	NaN	NaN
7307.014	NaN	NaN	NaN	NaN
7311.919	NaN	NaN	NaN	NaN
7317.369	NaN	NaN	NaN	NaN
7321.221	NaN	NaN	NaN	NaN
7327.002	NaN	NaN	NaN	NaN
7331.005	NaN	NaN	NaN	NaN
7334.993	NaN	NaN	NaN	NaN
7338.996	NaN	NaN	NaN	NaN
7343.002	NaN	NaN	NaN	NaN
7347.000	NaN	NaN	NaN	NaN
7350.993	NaN	NaN	NaN	NaN
7355.003	NaN	NaN	NaN	NaN
7358.997	NaN	NaN	NaN	NaN
7362.998	NaN	NaN	NaN	NaN
7366.996	NaN	NaN	NaN	NaN
7371.004	NaN	NaN	NaN	NaN
7374.991	NaN	NaN	NaN	NaN
7379.022	NaN	NaN	NaN	NaN
7382.996	NaN	NaN	NaN	NaN
7387.010	NaN	NaN	NaN	NaN
7391.002	NaN	NaN	NaN	NaN
7394.998	NaN	NaN	NaN	NaN
7398.997	NaN	NaN	NaN	NaN
7402.999	NaN	NaN	NaN	NaN
7406.996	NaN	NaN	NaN	NaN
7411.002	NaN	NaN	NaN	NaN
7415.000	NaN	NaN	NaN	NaN
7418.989	NaN	NaN	NaN	NaN
7422.993	NaN	NaN	NaN	NaN
7426.991	NaN	NaN	NaN	NaN
7430.991	NaN	NaN	NaN	NaN
7435.008	NaN	NaN	NaN	NaN
7438.995	NaN	NaN	NaN	NaN
7442.995	NaN	NaN	NaN	NaN
7447.587	NaN	NaN	NaN	NaN
7451.288	NaN	NaN	NaN	NaN
7454.998	NaN	NaN	NaN	NaN
7459.010	NaN	NaN	NaN	NaN
7463.001	NaN	NaN	NaN	NaN
7466.999	NaN	NaN	NaN	NaN
7470.996	NaN	NaN	NaN	NaN
7474.993	NaN	NaN	NaN	NaN
7478.990	NaN	NaN	NaN	NaN
7482.996	NaN	NaN	NaN	NaN
7486.991	NaN	NaN	NaN	NaN
7490.992	NaN	NaN	NaN	NaN
7495.000	NaN	NaN	NaN	NaN
7498.999	NaN	NaN	NaN	NaN
7502.992	NaN	NaN	NaN	NaN
7506.988	NaN	NaN	NaN	NaN
7510.993	NaN	NaN	NaN	NaN
7515.476	NaN	NaN	NaN	NaN
7519.184	NaN	NaN	NaN	NaN
7523.000	NaN	NaN	NaN	NaN
7526.993	NaN	NaN	NaN	NaN
7530.994	NaN	NaN	NaN	NaN
7535.015	NaN	NaN	NaN	NaN
7539.006	NaN	NaN	NaN	NaN
7542.989	NaN	NaN	NaN	NaN
7546.991	NaN	NaN	NaN	NaN
7550.993	NaN	NaN	NaN	NaN
7554.991	NaN	NaN	NaN	NaN
7558.989	NaN	NaN	NaN	NaN
7562.992	NaN	NaN	NaN	NaN
7566.992	NaN	NaN	NaN	NaN
7570.990	NaN	NaN	NaN	NaN
7576.733	NaN	NaN	NaN	NaN
7579.611	NaN	NaN	NaN	NaN
7587.006	NaN	NaN	NaN	NaN
7590.993	NaN	NaN	NaN	NaN
7594.993	NaN	NaN	NaN	NaN
7598.990	NaN	NaN	NaN	NaN
7602.992	NaN	NaN	NaN	NaN
7606.988	NaN	NaN	NaN	NaN
7610.992	NaN	NaN	NaN	NaN
7614.989	NaN	NaN	NaN	NaN
7618.996	NaN	NaN	NaN	NaN
7622.995	NaN	NaN	NaN	NaN
7626.988	NaN	NaN	NaN	NaN
7630.992	NaN	NaN	NaN	NaN
7634.994	NaN	NaN	NaN	NaN
7638.989	NaN	NaN	NaN	NaN
7643.005	NaN	NaN	NaN	NaN
7646.992	NaN	NaN	NaN	NaN
7650.989	NaN	NaN	NaN	NaN
7654.992	NaN	NaN	NaN	NaN
7659.009	NaN	NaN	NaN	NaN
7662.991	NaN	NaN	NaN	NaN
7666.992	NaN	NaN	NaN	NaN
7671.015	NaN	NaN	NaN	NaN
7674.989	NaN	NaN	NaN	NaN
7678.995	NaN	NaN	NaN	NaN
7682.991	NaN	NaN	NaN	NaN
7686.994	NaN	NaN	NaN	NaN
7690.989	NaN	NaN	NaN	NaN
7694.997	NaN	NaN	NaN	NaN
7823.838	NaN	NaN	NaN	NaN
7891.385	NaN	NaN	NaN	NaN
7895.116	NaN	NaN	NaN	NaN
7899.113	NaN	NaN	NaN	NaN
7903.115	NaN	NaN	NaN	NaN
7906.981	NaN	NaN	NaN	NaN
7910.987	NaN	NaN	NaN	NaN
7914.981	NaN	NaN	NaN	NaN
7919.104	NaN	NaN	NaN	NaN
7922.976	NaN	NaN	NaN	NaN
7927.001	NaN	NaN	NaN	NaN
7930.981	NaN	NaN	NaN	NaN
7934.984	NaN	NaN	NaN	NaN
7938.977	NaN	NaN	NaN	NaN
7942.982	NaN	NaN	NaN	NaN
7946.984	NaN	NaN	NaN	NaN
7950.986	NaN	NaN	NaN	NaN
7954.987	NaN	NaN	NaN	NaN
7958.982	NaN	NaN	NaN	NaN
7962.984	NaN	NaN	NaN	NaN
7966.985	NaN	NaN	NaN	NaN
7970.982	NaN	NaN	NaN	NaN
7974.977	NaN	NaN	NaN	NaN
7978.982	NaN	NaN	NaN	NaN
7982.981	NaN	NaN	NaN	NaN
7986.980	NaN	NaN	NaN	NaN
7990.991	NaN	NaN	NaN	NaN
7994.981	NaN	NaN	NaN	NaN
7998.975	NaN	NaN	NaN	NaN
8002.979	NaN	NaN	NaN	NaN
8006.980	NaN	NaN	NaN	NaN
8010.979	NaN	NaN	NaN	NaN
8014.975	NaN	NaN	NaN	NaN
8018.980	NaN	NaN	NaN	NaN
8022.981	NaN	NaN	NaN	NaN
8026.986	NaN	NaN	NaN	NaN
8030.986	NaN	NaN	NaN	NaN
8034.992	NaN	NaN	NaN	NaN
8038.987	NaN	NaN	NaN	NaN
8042.981	NaN	NaN	NaN	NaN
8046.986	NaN	NaN	NaN	NaN
8050.982	NaN	NaN	NaN	NaN
8054.992	NaN	NaN	NaN	NaN
8058.985	NaN	NaN	NaN	NaN
8062.980	NaN	NaN	NaN	NaN
8066.977	NaN	NaN	NaN	NaN
8070.983	NaN	NaN	NaN	NaN
8074.981	NaN	NaN	NaN	NaN
8078.981	NaN	NaN	NaN	NaN
8082.979	NaN	NaN	NaN	NaN
8086.981	NaN	NaN	NaN	NaN
8090.985	NaN	NaN	NaN	NaN
8094.983	NaN	NaN	NaN	NaN
8098.977	NaN	NaN	NaN	NaN
8102.979	NaN	NaN	NaN	NaN
8106.979	NaN	NaN	NaN	NaN
8110.979	NaN	NaN	NaN	NaN
8114.978	NaN	NaN	NaN	NaN
8119.003	NaN	NaN	NaN	NaN
8122.977	NaN	NaN	NaN	NaN
8126.977	NaN	NaN	NaN	NaN
8130.975	NaN	NaN	NaN	NaN
8134.976	NaN	NaN	NaN	NaN
8138.977	NaN	NaN	NaN	NaN
8142.977	NaN	NaN	NaN	NaN
8146.976	NaN	NaN	NaN	NaN
8150.983	NaN	NaN	NaN	NaN
8154.980	NaN	NaN	NaN	NaN
8158.988	NaN	NaN	NaN	NaN
8162.980	NaN	NaN	NaN	NaN
8166.982	NaN	NaN	NaN	NaN
8170.981	NaN	NaN	NaN	NaN
8174.982	NaN	NaN	NaN	NaN
8178.977	NaN	NaN	NaN	NaN
8182.975	NaN	NaN	NaN	NaN
8186.973	NaN	NaN	NaN	NaN
8190.981	NaN	NaN	NaN	NaN
8194.977	NaN	NaN	NaN	NaN
8198.980	NaN	NaN	NaN	NaN
8202.977	NaN	NaN	NaN	NaN
8206.977	NaN	NaN	NaN	NaN
8210.978	NaN	NaN	NaN	NaN
8214.977	NaN	NaN	NaN	NaN
8218.981	NaN	NaN	NaN	NaN
8222.976	NaN	NaN	NaN	NaN
8226.974	NaN	NaN	NaN	NaN
8352.017	NaN	NaN	NaN	NaN
8419.384	10.01344	-1.78125	9.99501	-3.10493
8423.127	9.94573	-1.88500	10.04085	-2.47360
8427.108	10.04343	-1.69040	9.61737	-2.79909
8431.098	10.00374	-1.71425	9.53320	-2.76111
8435.104	10.04482	-1.68880	9.72645	-2.72126
8439.103	9.97337	-1.65704	9.56718	-2.85416
8443.107	9.91736	-1.89006	9.33645	-2.76136
8447.103	9.95199	-1.97818	9.48152	-2.82021
8451.102	9.97897	-1.62958	9.47461	-2.84022
8455.101	10.08156	-1.79598	9.28245	-2.84387
8459.098	9.92473	-1.63562	9.32920	-2.82384
8463.106	10.00268	-2.01642	9.31218	-2.93454
8467.106	9.99043	-1.94769	9.36298	-2.72563
8471.099	10.02410	-1.68064	9.38117	-2.89425
8475.124	9.90807	-1.59026	9.27946	-2.90402
8479.101	9.91454	-2.21057	9.43165	-2.92652
8483.101	9.92798	-1.97799	9.35677	-2.91198
8487.106	9.97854	-1.61434	9.44066	-2.70105
8491.109	9.99171	-1.83286	9.18318	-2.63257
8495.101	10.06422	-1.97349	9.32258	-2.60407
8499.103	10.06333	-1.85978	9.30974	-2.75668
8503.100	10.06657	-2.01263	9.32434	-2.76473
8507.101	9.97996	-1.90910	9.28096	-2.69140
8511.103	10.08474	-1.92303	9.28296	-2.71608
8515.105	10.04961	-1.99272	9.20190	-2.69012
8519.102	9.83775	-1.87667	9.17304	-2.69120
8523.097	8.61242	-1.70993	8.77734	-2.65254
8527.126	6.77032	-1.73165	6.83340	-2.60696
8531.110	6.36356	-1.85501	6.62339	-2.65952
8535.098	6.17624	-1.84897	6.71378	-2.67587
8539.102	6.39077	-1.57523	6.63894	-2.68320
8543.104	6.44733	-1.50860	6.46539	-2.49400
8547.102	6.72949	-1.47687	6.55182	-2.49052
8551.096	6.77592	-1.56111	6.62001	-2.52418
8555.100	6.72203	-1.51744	6.64420	-2.47183
8559.101	6.64973	-1.48187	6.47941	-2.40859
8563.103	6.62890	-1.50135	6.42979	-2.51333
8567.100	6.78652	-1.50293	6.45040	-2.54388
8571.106	6.84338	-1.57080	6.38023	-2.53632
8575.103	6.92447	-1.41230	6.50665	-2.36370
8579.106	6.84299	-1.34212	6.52005	-2.38284
8583.097	6.88389	-1.43591	6.52137	-2.46381
8587.102	6.98707	-1.46888	6.53379	-2.45293
8591.100	6.90828	-1.55311	6.45848	-2.50138
8595.096	6.90116	-1.69588	6.37947	-2.50374
8599.100	6.75250	-1.70558	6.35631	-2.52823
8603.100	6.71936	-1.68074	6.38751	-2.48958
8607.105	6.69711	-1.81786	6.45000	-2.43942
8611.101	6.83942	-1.73315	6.59865	-2.43386
8615.100	6.93763	-1.71881	6.49597	-2.38640
8619.103	6.95032	-1.73715	6.59780	-2.27391
8623.104	7.04865	-1.82955	6.46458	-2.18364
8627.102	7.18179	-1.89640	6.44042	-2.03471
8631.104	7.18484	-1.86898	6.40550	-2.10405
8635.106	7.07769	-1.83805	6.41003	-2.34231
8639.100	6.93775	-1.75300	6.49283	-2.27910
8643.100	6.89735	-1.56476	6.49286	-2.21266
8647.105	6.84118	-1.57239	6.48482	-2.19842
8651.108	7.09280	-1.68919	6.37665	-2.23094
8655.105	7.02594	-1.49020	6.25725	-2.11410
8659.104	6.95739	-1.29145	6.45490	-2.17880
8663.100	7.10367	-1.75653	6.27864	-2.26079
8667.097	7.03699	-1.49322	6.33115	-2.31584
8671.106	6.94108	-1.19179	6.28491	-2.29344
8675.101	6.85635	-1.25770	6.13485	-2.36838
8679.101	6.95624	-1.42921	6.23403	-2.35413
8683.096	6.92393	-1.32369	6.18436	-2.29681
8687.106	6.86354	-1.26064	6.12811	-2.34229
8691.101	7.01169	-1.33040	6.17683	-2.33751
8695.107	7.01956	-1.42894	6.17511	-2.33372
8699.122	7.01455	-1.44942	6.26618	-2.35823
8703.099	7.01289	-1.41546	6.24683	-2.36142
8707.098	6.95824	-1.12974	6.26515	-2.24644
8711.100	7.26884	-1.19661	6.39136	-2.22691
8715.104	8.62743	-1.07386	8.16608	-2.08364
8719.098	9.85989	0.70057	9.47200	-1.13471
8723.102	11.08361	1.34045	11.15575	-0.58319
8727.093	12.95433	1.62489	12.17395	0.18835
8731.097	13.07818	2.13159	13.61471	0.50431
8735.102	14.41918	2.53206	14.55369	0.34918
8739.102	14.88159	3.14098	14.52286	1.57474
8743.092	14.80252	3.31429	14.31100	1.60595
8747.097	14.60802	3.52538	14.41904	1.93509
8751.098	14.37149	3.54458	14.52109	1.53590
8755.097	13.94158	2.77461	13.95741	0.99030
8759.100	13.87870	2.60015	14.19130	1.36535
8763.097	14.40549	2.85555	14.37170	1.61768
8767.104	14.55311	3.08079	14.33199	1.54736
8771.098	14.62786	3.02738	14.49983	1.82091
8775.102	14.57901	3.26734	14.46787	2.08194
8779.108	14.55044	3.45003	14.30853	1.67097
8783.097	14.53277	3.48292	14.25846	1.84708
8787.097	14.42758	3.24995	14.19793	1.96510
8791.094	14.24368	3.12845	14.08461	1.78187
8795.103	14.33406	3.33028	14.27473	1.88376
8799.097	14.24832	3.34350	14.41031	1.88726
8803.097	14.41050	3.51634	14.25683	1.77624
8807.092	14.32724	3.60329	14.10676	1.82903
8811.096	14.33322	3.59224	14.16137	1.87541
8815.096	14.35645	3.69058	14.24883	1.88710
8819.106	14.24820	3.72797	13.96629	1.82948
8823.093	14.17859	3.72347	13.99155	1.89027
8827.096	14.19002	3.66803	13.95822	2.01989
8831.098	14.23575	3.66466	13.98087	2.18850
8835.098	14.21383	3.72685	13.71879	2.14861
8839.099	14.28462	3.74739	13.67667	2.15073
8843.100	14.30102	3.69928	13.88850	2.09366
8847.098	14.25608	3.72174	14.09530	2.21614
8851.092	14.31093	3.63979	13.63566	2.47412
8855.096	14.31396	3.55345	13.81436	2.32325
8859.103	14.30095	3.47289	14.18489	2.35155
8863.097	14.19839	3.51951	13.39764	2.38123
8867.096	14.31433	3.47345	13.96232	2.37038
8871.095	14.31025	3.56713	13.43467	2.53943
8875.097	14.33015	3.54166	13.68164	2.34219
8879.092	14.36800	3.45557	13.63740	2.55839
8883.095	14.23123	3.41324	13.51339	2.36030
8886.970	14.21645	3.31444	13.57806	2.61850
8890.976	14.33725	3.41269	13.46777	2.34645
8894.967	14.10641	3.43401	13.48439	2.57667
8898.972	14.43957	3.45031	13.42291	2.33994
8902.974	14.20430	3.52254	13.55503	2.48519
8906.973	14.23368	3.60436	13.53838	2.58610
8910.971	14.36721	3.58505	13.53929	2.48226
8915.007	14.17556	3.58073	13.56144	2.67352
8918.976	14.16415	3.52962	13.51870	2.41611
8922.969	14.06737	3.62230	13.57518	2.38879
8926.964	14.38269	3.59097	13.56256	2.64747
8930.988	14.28937	3.56454	13.96484	2.19618
8934.975	15.37220	3.34482	14.28867	1.67716
8938.972	15.68440	2.63649	16.32890	-0.38166
8942.970	15.59867	1.48833	16.26557	-0.93983
8946.970	15.51002	0.03934	16.04932	-0.84515
8950.974	15.12784	-0.08127	15.26021	-1.13207
8954.971	15.17519	-0.07315	15.69031	-1.20352
8958.969	15.35344	-0.06235	15.55098	-1.19802
8962.972	15.29011	0.18032	15.53089	-0.97709
8966.971	15.35789	0.35765	15.54817	-1.04419
8970.970	15.53681	0.15815	15.55252	-0.99305
8974.972	15.59354	0.35073	15.62611	-1.08987
8978.973	15.46814	0.34117	15.71821	-1.08380
8982.969	15.49287	0.46634	15.62623	-1.06506
8986.967	15.62471	0.69681	15.58909	-1.12028
8990.968	15.63633	0.48545	15.52783	-1.15994
8994.983	15.85129	0.43703	15.52419	-1.19588
8998.973	15.70455	0.49808	15.54064	-1.13105
9002.965	15.68598	0.54157	15.58863	-1.08052
9006.968	15.77915	0.58003	15.55460	-1.17460
9010.968	15.77773	0.55756	15.51847	-1.18428
9014.968	15.70287	0.59228	15.54610	-1.17316
9018.963	15.60427	0.54420	15.54766	-1.23034
9022.968	15.75621	0.60313	15.54619	-1.23227
9026.970	15.87191	0.59372	15.45730	-1.24055
9030.968	15.85577	0.51224	15.51619	-1.12558
9034.971	15.67821	0.42224	15.55759	-1.22806
9038.971	15.61934	0.32767	15.70319	-1.13974
9042.973	15.86707	0.36293	15.53112	-1.13127
9046.964	15.87926	0.41259	15.66719	-1.08876
9050.969	15.71538	0.35746	15.57403	-1.12256
9054.968	15.56233	0.29142	15.59734	-1.08050
9058.986	16.03543	0.29705	15.57201	-1.05294
9062.978	15.91587	0.32724	15.43319	-0.95631
9066.965	15.80592	0.33263	15.44156	-1.06575
9070.967	15.58896	0.28052	15.53485	-0.99541
9074.974	15.66574	0.21253	15.62162	-0.95044
9078.970	15.94224	0.25931	15.37460	-0.92688
9082.973	15.82855	0.32492	15.48421	-0.80958
9086.976	15.75028	0.38607	15.28824	-0.90241
9090.968	15.62860	0.43462	15.41829	-1.10116
9094.968	15.62611	0.44501	15.39755	-0.98222
9098.966	15.73161	0.50737	15.43286	-0.79740
9102.967	15.68380	0.55866	15.44884	-0.84920
9106.988	15.61932	0.59877	15.38869	-0.91501
9110.966	15.62627	0.62569	15.25670	-0.89850
9114.967	15.43383	0.57593	15.13265	-0.84216
9118.971	12.84010	0.55780	13.23262	-0.83218
9122.966	11.08703	0.54834	11.48392	-1.08608
9126.971	9.38571	-0.17632	10.62116	-1.33982
9130.962	7.60022	-0.36813	9.02597	-1.43952
9134.965	7.15765	-1.43160	7.81052	-1.55037
9138.966	5.73200	-1.98847	6.52086	-1.48312
9142.970	4.61270	-1.91908	5.43251	-1.91785
9146.962	4.01272	-2.36442	4.66467	-1.72471
9150.969	3.99511	-2.33733	4.48108	-1.92730
9154.969	4.06688	-2.18670	4.23917	-2.04655
9158.973	4.17344	-2.14911	4.58205	-2.08961
9162.964	4.52607	-2.14341	4.71651	-2.05150
9166.964	4.36629	-2.10015	4.62458	-2.06441
9170.964	4.28202	-2.16579	4.47491	-2.05771
9174.969	4.16623	-2.18455	4.52074	-2.04264
9178.968	4.11861	-2.15904	4.44674	-2.05395
9182.966	4.26366	-2.08338	4.37700	-2.12541
9186.961	4.31336	-2.03885	4.38309	-2.07039
9190.969	4.50199	-2.01694	4.25870	-2.13450
9194.966	4.46566	-2.01414	4.22113	-2.14463
9198.975	4.40419	-1.98687	4.18070	-2.11333
9202.963	4.35499	-1.92983	4.19896	-2.10880
9206.965	4.19501	-1.91548	4.21686	-2.17894
9210.983	4.26050	-1.92682	4.22182	-2.24019
9214.972	4.32950	-1.91239	4.19400	-2.19501
9218.966	4.28236	-1.91239	4.16677	-2.26678
9222.966	4.27338	-1.95664	4.13759	-2.28525
9226.966	4.26373	-1.95454	4.13436	-2.21839
9230.967	4.23893	-2.05583	4.16354	-2.27908
9234.967	4.17428	-2.19809	4.20215	-2.35468
9238.971	4.18181	-1.96888	4.25739	-2.29680
9242.968	4.19368	-1.98375	4.29707	-2.26259
9246.966	4.15463	-1.96226	4.27965	-2.35249
9250.964	4.11389	-2.05029	4.28061	-2.32867
9254.964	4.11745	-1.82747	4.24838	-2.32176
9258.966	4.06794	-2.17400	4.28278	-2.34207
9262.966	4.20583	-2.24115	4.25601	-2.33126
9266.965	4.18707	-2.11673	4.28893	-2.29195
9270.960	4.32942	-1.98387	4.26795	-2.35443
9274.978	4.21701	-2.05854	4.24295	-2.41208
9278.973	4.22192	-2.28547	4.16813	-2.35649
9282.967	4.31992	-1.94920	4.16319	-2.36346
9286.975	4.25502	-1.92166	4.19467	-2.46158
9290.967	4.26928	-1.87653	4.21646	-2.43697
9294.965	4.31218	-1.97312	4.25018	-2.44799
9298.963	4.14927	-2.33129	4.23720	-2.46617
9302.965	4.36224	-2.22791	4.19627	-2.50006
9306.963	4.25001	-1.94116	4.23485	-2.49244
9310.968	4.23917	-1.90121	4.24677	-2.51575
9314.964	4.18420	-1.96892	4.20289	-2.57743
9318.963	4.23601	-2.15644	4.25457	-2.55339
9322.968	4.16285	-2.33271	4.30156	-2.61138
9326.970	4.31464	-2.20026	4.32834	-2.57780
9331.001	4.39126	-2.12559	4.28723	-2.56192
9334.964	4.33128	-2.06308	4.23456	-2.52259
9338.969	4.21293	-2.11555	4.23471	-2.54305
9342.964	4.20284	-2.18195	4.22617	-2.45307
9346.963	4.29406	-2.16556	4.26057	-2.44017
9350.961	4.31358	-2.02207	4.20138	-2.50596
9354.977	4.23142	-2.02034	4.18393	-2.49496
9358.966	4.29994	-2.06591	4.19319	-2.41997
9362.962	3.92771	-2.10008	4.19753	-2.39287
9366.968	4.21148	-2.05326	4.24650	-2.41298
9370.963	4.14379	-1.87183	4.31987	-2.44142
9374.967	4.12332	-2.01309	4.28333	-2.39325
9378.960	4.05258	-1.96719	4.26637	-2.43676
9382.966	4.11505	-1.91839	4.33137	-2.39500
9386.961	4.06957	-1.92043	4.40614	-2.40540
9390.968	3.88238	-1.99952	4.37613	-2.51317
9394.962	3.93213	-2.02918	4.47200	-2.54225
9398.962	3.99121	-1.98613	4.52326	-2.57258
9402.979	3.98884	-1.92912	4.51921	-2.56248
9406.971	4.12730	-1.99382	4.46110	-2.54701
9410.965	4.13544	-1.95374	4.45533	-2.57593
9414.960	4.16295	-1.99873	4.45441	-2.58278
9418.967	4.10616	-1.97679	4.48288	-2.61371
9422.962	4.15394	-1.94461	4.48887	-2.63265
9426.966	4.09626	-1.97511	4.41941	-2.64785
9430.960	4.11671	-1.95906	4.33512	-2.66304
9434.962	4.18062	-1.85694	4.28950	-2.64923
9438.960	4.24339	-1.93560	4.26983	-2.53086
9442.966	4.16667	-1.89190	4.26825	-2.58483
9446.970	4.17151	-1.82774	4.31847	-2.57692
9450.962	4.10732	-1.88779	4.30334	-2.60675
9454.961	4.11095	-1.87527	4.35686	-2.57387
9458.963	4.08145	-1.78628	4.34499	-2.56031
9462.964	4.10313	-1.83303	4.28955	-2.51242
9466.962	4.02028	-1.88668	4.31980	-2.41975
9470.964	4.08123	-1.99435	4.36126	-2.41482
9474.960	4.05535	-1.97917	4.38215	-2.35415
9478.962	4.03021	-1.95507	4.41013	-2.35223
9482.961	4.06290	-2.00180	4.45089	-2.47264
9486.965	4.00685	-2.03002	4.50476	-2.48534
9490.965	4.05621	-2.05462	4.44003	-2.44780
9494.970	4.05021	-2.01698	4.39523	-2.43734
9498.963	4.10609	-2.09192	4.41430	-2.51819
9502.967	4.14399	-2.16459	4.43685	-2.49900
9506.957	4.02959	-2.16980	4.50824	-2.55379
9510.961	4.09456	-2.22783	4.46835	-2.60355
9514.965	4.18166	-2.19443	4.47018	-2.63650
9518.957	4.17164	-2.15491	4.45592	-2.62654
9522.965	4.24260	-2.23654	4.43246	-2.65940
9526.979	4.07021	-2.25322	4.46968	-2.65336
9530.969	4.18242	-2.22326	4.38724	-2.64925
9534.960	4.12145	-2.13200	4.35528	-2.65762
9538.959	4.10518	-2.19613	4.34978	-2.65329
9542.967	4.08108	-2.15996	4.41033	-2.65513
9546.994	4.15885	-2.06676	4.39972	-2.64352
9550.964	4.07268	-2.15891	4.29996	-2.64058
9554.960	4.05559	-2.11832	4.22135	-2.62710
9558.954	4.03473	-2.01886	4.28209	-2.59797
9562.964	4.12589	-1.99471	4.28187	-2.59945
9566.958	4.07382	-1.97935	4.36955	-2.61176
9570.959	4.06238	-1.93875	4.25378	-2.56925
9574.962	4.14522	-1.93555	4.24159	-2.55660
9578.959	4.12441	-2.01578	4.28811	-2.51856
9582.961	4.16761	-2.04629	4.36792	-2.55373
9586.962	4.23036	-2.06734	4.34815	-2.58520
9590.964	4.15011	-2.13465	4.35030	-2.57256
9594.961	4.18857	-2.09707	4.26761	-2.50070
9598.960	4.20432	-2.09864	4.34813	-2.50563
9602.954	4.21671	-2.09346	4.31874	-2.49207
9606.963	4.17860	-2.13346	4.26329	-2.54120
9610.960	4.19030	-2.03381	4.20718	-2.51967
9614.967	4.20509	-2.18583	4.11626	-2.52923
9618.957	4.19459	-2.24039	4.30556	-2.51138
9622.963	4.20760	-2.17879	4.18193	-2.49306
9626.958	4.22505	-2.18921	4.15095	-2.46090
9630.958	4.00808	-2.19532	4.21429	-2.41630
9634.977	4.15159	-2.33764	4.15692	-2.40648
9638.965	4.19770	-2.32934	4.22565	-2.46108
9642.959	4.17615	-2.29595	4.08582	-2.46553
9646.959	3.97667	-2.35923	4.17309	-2.54612
9650.972	4.14206	-2.42315	4.19259	-2.64481
9654.968	4.14273	-2.45078	4.16189	-2.65389
9658.963	4.19013	-2.33510	4.22575	-2.62852
9662.957	3.97116	-2.29982	4.18610	-2.66736
9666.961	4.08740	-2.36294	4.23727	-2.76030
9670.961	3.96679	-2.33169	4.19146	-2.78924
9674.958	4.06317	-2.23091	4.12290	-2.77937
9678.959	4.15561	-2.24805	4.10577	-2.76764
9682.952	4.11172	-2.12198	4.17652	-2.80524
9686.963	4.04068	-2.08142	4.18161	-2.83823
9690.957	4.13693	-2.14562	4.14102	-2.84312
9694.960	4.12463	-2.09687	4.13875	-2.76151
9698.959	4.06157	-2.01671	4.13673	-2.65432
9702.965	4.07957	-2.00929	4.26731	-2.60714
9706.959	3.99605	-1.95950	4.15885	-2.66557
9710.958	4.11085	-2.04525	4.10100	-2.66846
9714.959	3.98588	-1.98206	4.14162	-2.61540
9718.964	3.75583	-1.90654	4.06290	-2.44427
9722.958	3.37497	-1.94011	3.71456	-2.55321
9726.957	1.64491	-1.89010	2.92599	-2.45813
9730.955	1.42694	-1.82525	1.68959	-2.31301
9734.962	1.86179	-1.77816	2.04066	-2.19487
9738.832	1.97758	-1.57939	1.78129	-2.11370
9742.840	2.50742	-1.42865	2.12057	-2.18139
9746.836	2.26993	-1.09173	2.09043	-1.96979
9750.835	2.18173	-1.34458	2.15323	-1.76266
9754.833	2.18466	-1.41645	2.37171	-1.74987
9758.830	1.97875	-1.37117	2.10330	-1.94931
9762.836	2.09903	-1.41799	2.04475	-1.79672
9766.860	1.98564	-1.38836	1.98628	-1.83326
9770.835	1.93794	-1.37644	1.87887	-1.74901
9774.835	2.02051	-1.30707	1.94050	-1.67037
9778.835	2.03588	-1.19139	1.95019	-1.62795
9782.830	2.00891	-1.05274	1.97423	-1.75549
9786.839	2.01099	-1.21936	1.95879	-1.84180
9790.829	2.02339	-1.39195	1.94704	-1.94687
9794.824	2.02460	-1.35308	1.91419	-2.03908
9798.829	1.98618	-1.33120	1.85009	-1.98104
9802.829	1.97074	-1.34029	1.81791	-1.93407
9806.833	1.95418	-1.31065	1.76906	-1.94731
9810.826	1.95190	-1.28367	1.74112	-1.92378
9814.829	1.92510	-1.19978	1.72773	-1.96204
9818.833	1.88963	-1.14080	1.72924	-1.94760
9822.833	1.94667	-1.09975	1.67970	-1.88508
9826.832	1.90366	-1.14784	1.67945	-1.89739
9830.830	1.88826	-1.24191	1.66333	-1.82962
9834.831	1.82182	-1.30136	1.64533	-1.90340
9838.830	1.78401	-1.23553	1.65510	-1.80702
9842.835	1.85980	-1.07721	1.63670	-1.70735
9846.830	1.84738	-1.06970	1.63509	-1.71291
9850.830	1.80593	-1.14041	1.64479	-1.71012
9854.832	1.75317	-1.26946	1.69634	-1.75361
9858.830	1.73440	-1.25076	1.68392	-1.56466
9862.830	1.83412	-1.05175	1.69941	-1.60214
9866.829	1.80300	-1.12549	1.73698	-1.70734
9870.829	1.72376	-1.24461	1.70231	-1.68923
9874.838	1.73579	-1.43413	1.67643	-1.57106
9878.831	1.72272	-1.21452	1.69126	-1.62888
9882.828	1.79723	-1.13051	1.62584	-1.66239
9886.824	1.75547	-1.19555	1.62267	-1.71923
9890.828	1.72019	-1.12276	1.59928	-1.75260
9894.827	1.73847	-1.31639	1.65034	-1.65964
9898.829	1.82817	-1.36369	1.66376	-1.69140
9902.832	1.92634	-1.07260	1.69964	-1.71603
9906.831	1.94387	-1.09446	1.64516	-1.76693
9910.835	1.91261	-1.07288	1.58244	-1.82986
9914.834	1.98095	-1.10077	1.56992	-1.90025
9918.848	1.99897	-1.02117	1.59172	-1.98399
9922.837	2.02143	-1.02858	1.62306	-2.02124
9926.829	1.96610	-1.04050	1.66420	-2.11981
9930.829	1.95455	-1.03328	1.68136	-2.14757
9934.830	2.02460	-0.98384	1.78198	-2.15733
9938.830	2.00433	-0.99465	1.81029	-2.15913
9942.826	1.90101	-0.97033	1.78954	-2.16178
9946.834	1.84307	-1.01086	1.77422	-2.15086
9950.833	1.81230	-1.07399	1.74566	-2.13301
9954.837	1.83434	-1.16263	1.72483	-2.05939
9958.832	1.80206	-1.16020	1.73162	-1.96117
9962.840	1.85041	-1.18675	1.71873	-1.87152
9966.831	1.80660	-1.20523	1.64851	-1.91062
9970.829	1.82857	-1.22229	1.71558	-1.83446
9974.827	1.85393	-1.23983	1.70217	-1.85276
9978.858	1.84758	-1.20833	1.61823	-1.86718
9982.827	1.83417	-1.18609	1.60032	-1.78851
9986.826	1.85928	-1.14362	1.56407	-1.74362
9990.831	1.88350	-1.10396	1.52856	-1.74209
9994.830	1.91538	-1.12601	1.53766	-1.71907
9998.827	1.85038	-1.15423	1.64399	-1.67508
10002.829	1.83717	-1.13368	1.59167	-1.67743
10006.825	1.75954	-1.20925	1.58336	-1.69960
10010.826	1.78513	-1.19069	1.64231	-1.68695
10014.828	1.81302	-1.19470	1.63658	-1.69152
10018.830	1.82485	-1.16028	1.58448	-1.69834
10022.821	1.81984	-1.14281	1.59038	-1.63986
10026.828	1.76554	-1.28023	1.54572	-1.66625
10030.826	1.73812	-1.26806	1.54775	-1.74177
10034.826	1.78064	-1.26061	1.51323	-1.71525
10038.826	1.78538	-1.29076	1.46648	-1.72923
10042.825	1.87629	-1.25917	1.44185	-1.74121
10046.830	1.87619	-1.26158	1.42970	-1.76847
10050.821	1.89902	-1.17726	1.46613	-1.78331
10054.826	1.89820	-1.13056	1.55142	-1.79654
10058.875	1.87825	-1.13505	1.58649	-1.80313
10062.844	1.86434	-1.08736	1.71918	-1.75966
10066.834	1.89905	-1.07565	1.84867	-1.76269
10070.821	1.91243	-1.04503	1.77288	-1.79969
10074.830	1.98836	-0.99620	1.82658	-1.80048
10078.831	2.01620	-1.03079	1.79443	-1.80379
10082.826	2.02111	-1.01291	1.85908	-1.77285
10086.825	2.02012	-1.04484	1.93358	-1.80987
10090.827	1.92361	-1.04805	2.00034	-1.85530
10094.825	1.87807	-1.09423	1.97485	-1.88438
10098.825	1.86151	-1.21832	1.90306	-1.85523
10102.826	1.72602	-1.23296	1.85145	-1.89590
10106.825	1.80405	-1.25314	1.83766	-1.92345
10110.829	1.85256	-1.36536	1.75590	-1.95557
10114.820	1.93021	-1.37808	1.70437	-1.90592
10118.836	1.87329	-1.40558	1.63710	-1.87257
10122.827	1.85542	-1.37908	1.66403	-1.90931
10126.827	1.85745	-1.33693	1.61875	-1.93977
10130.829	1.86625	-1.33506	1.58708	-1.90666
10134.820	1.91881	-1.27950	1.57081	-1.83771
10138.824	1.99991	-1.23885	1.55266	-1.78612
10142.825	1.99568	-1.22840	1.55033	-1.75502
10146.829	2.10766	-1.13000	1.58554	-1.68024
10150.844	2.18183	-1.12848	1.60868	-1.59001
10154.829	2.22007	-1.16367	1.63750	-1.54163
10158.829	2.26688	-1.12010	1.69755	-1.50302
10162.830	2.28318	-1.29888	1.78798	-1.52804
10166.824	2.31012	-1.28126	1.81932	-1.52637
10170.825	2.32607	-1.33919	1.87423	-1.48949
10174.820	2.32493	-1.53395	1.94464	-1.49899
10178.823	2.32922	-1.48742	1.89682	-1.53983
10182.851	2.31148	-1.48330	1.90316	-1.57062
10186.824	2.28427	-1.49501	1.93482	-1.57049
10190.823	2.19135	-1.54722	1.97109	-1.67143
10194.827	2.18885	-1.54938	1.95443	-1.82888
10198.826	2.17105	-1.52034	1.92820	-1.86813
10202.826	2.06741	-1.49605	1.86337	-1.93002
10206.829	2.06674	-1.43626	1.78143	-1.93247
10210.825	2.04250	-1.39447	1.77692	-1.96026
10214.824	1.98437	-1.37464	1.68426	-2.00823
10218.823	1.99079	-1.32923	1.72401	-2.05577
10222.822	1.94915	-1.29846	1.67437	-2.00680
10226.827	1.93809	-1.27442	1.65453	-2.04810
10230.822	1.92344	-1.18434	1.62066	-2.09629
10234.828	1.92830	-1.17652	1.53910	-2.05727
10238.822	1.91804	-1.16719	1.51288	-2.03309
10242.831	1.87361	-1.16114	1.47985	-1.99856
10246.823	1.87478	-1.13922	1.48129	-2.02929
10250.828	1.83957	-1.13274	1.48706	-2.04184
10254.824	1.82093	-1.14174	1.47667	-2.02394
10258.829	1.81213	-1.13285	1.48572	-1.99111
10262.822	1.78260	-1.10569	1.44257	-1.99229
10266.823	1.76909	-1.11530	1.42806	-2.05187
10270.823	1.75243	-1.13090	1.42655	-2.07321
10274.827	1.74328	-1.16314	1.43305	-2.05861
10278.827	1.72448	-1.18825	1.43017	-2.04693
10282.824	1.70117	-1.20510	1.47776	-2.08179
10286.827	1.70579	-1.21629	1.48692	-2.13041
10290.824	1.71476	-1.22892	1.49381	-2.14963
10294.822	1.71667	-1.27842	1.47414	-2.08547
10298.825	1.70135	-1.29996	1.49470	-2.10301
10302.826	1.67742	-1.36298	1.48359	-2.13133
10306.819	1.68039	-1.36231	1.47595	-2.15292
10310.821	1.65966	-1.35060	1.50914	-2.12312
10314.821	1.64970	-1.38465	1.54678	-2.09133
10318.821	1.64546	-1.34225	1.59586	-2.08510
10322.820	1.65342	-1.36454	1.61962	-2.09170
10326.828	1.71766	-1.27018	1.55013	-2.01844
10330.822	1.75919	-1.22840	1.57116	-1.96523
10334.822	1.81042	-1.17228	1.64925	-1.87868
10338.822	1.82780	-1.15151	1.67231	-1.87511
10342.822	1.81148	-1.18996	1.72984	-1.91907
10346.821	1.87532	-1.09158	1.74635	-1.90149
10350.821	1.88762	-1.10304	1.81669	-1.86884
10354.821	1.93316	-1.16512	1.84587	-1.97966
10358.827	1.93093	-1.14512	1.91454	-1.97995
10362.821	1.94236	-1.14419	1.92585	-2.00204
10366.817	1.94912	-1.15687	1.89292	-1.97023
10370.825	1.89724	-1.23247	1.80977	-1.90944
10374.824	1.86900	-1.23982	1.75726	-1.88292
10378.821	1.78800	-1.26472	1.74400	-1.92598
10382.816	1.74660	-1.27237	1.68786	-1.92832
10386.825	1.78034	-1.32515	1.74360	-1.81728
10390.821	1.78768	-1.46936	1.78602	-1.79769
10394.824	1.83050	-1.48558	1.78686	-1.75407
10398.867	1.75681	-1.49378	1.76869	-1.75756
10402.826	1.69054	-1.46554	1.75528	-1.71752
10406.820	1.72101	-1.44062	1.69693	-1.67568
10410.824	1.66304	-1.40462	1.74972	-1.73666
10414.819	1.68684	-1.36903	1.77067	-1.75448
10418.825	1.70717	-1.38709	1.79963	-1.86501
10422.821	1.76519	-1.38193	1.79708	-1.83415
10426.820	1.74628	-1.39068	1.75012	-1.91853
10430.818	1.73472	-1.39126	1.66889	-1.94362
10434.824	1.69383	-1.32528	1.69257	-1.96359
10438.819	1.68270	-1.33026	1.68590	-1.95499
10442.819	1.70745	-1.24509	1.60851	-1.97338
10446.814	1.78667	-1.19826	1.51829	-2.03067
10450.822	1.78257	-1.20060	1.58185	-2.05929
10454.818	1.81419	-1.21642	1.53173	-2.02664
10458.818	1.80447	-1.21772	1.54775	-2.10175
10462.819	1.82024	-1.20465	1.52704	-2.06302
10466.818	1.82185	-1.19337	1.53753	-2.08655
10470.819	1.84582	-1.17293	1.59717	-2.06870
10474.819	1.87138	-1.14751	1.67345	-2.04156
10478.839	1.92627	-1.10808	1.71563	-2.10834
10482.821	1.94912	-1.07304	1.74719	-2.08886
10486.819	1.97178	-1.04909	1.82232	-2.03984
10490.820	1.93083	-1.09278	1.86156	-2.00789
10494.830	1.92902	-1.11227	1.96633	-1.97939
10498.817	1.89853	-1.07264	1.97872	-1.91096
10502.818	1.92686	-1.12067	1.99000	-1.87483
10506.818	1.92637	-1.11975	1.99449	-1.91107
10510.818	1.94317	-1.16581	2.00207	-1.99800
10514.814	1.96380	-1.15113	1.96196	-1.93874
10518.818	1.95584	-1.16424	1.93284	-1.95994
10522.818	1.97364	-1.18580	1.88804	-1.91568
10526.818	2.02544	-1.22734	1.84981	-1.91825
10530.818	2.02331	-1.24154	1.88873	-1.96567
10534.824	2.07933	-1.24984	1.84952	-1.99451
10538.847	2.08615	-1.29935	1.82033	-2.01124
10542.821	2.01967	-1.25323	1.78513	-2.00125
10546.818	2.02123	-1.28510	1.79443	-2.02620
10550.819	2.16022	-1.23709	2.03481	-2.01411
10554.818	2.54390	-1.14010	2.89037	-1.87422
10558.823	3.40811	-1.01750	3.50697	-1.80875
10562.818	3.63552	-1.13119	3.52601	-1.77521
10566.821	3.16579	-1.01155	3.67479	-1.69250
10570.814	3.19073	-1.10364	3.49003	-1.63371
10574.822	3.20229	-1.03899	3.49030	-1.58315
10578.827	3.19472	-0.93078	3.49646	-1.55196
10582.822	3.31830	-0.87779	3.34566	-1.58269
10586.817	3.25550	-0.94239	3.42628	-1.58583
10590.821	3.26458	-0.86554	3.43766	-1.56083
10594.695	3.32699	-0.84624	3.50284	-1.54751
10598.694	3.28659	-0.84367	3.53360	-1.55693
10602.695	3.22980	-0.88437	3.46785	-1.60249
10606.693	3.21102	-0.83391	3.44864	-1.61841
10610.688	3.25488	-0.85523	3.48454	-1.60405
10614.697	3.28380	-0.70512	3.46095	-1.57549
10618.726	3.28657	-0.67359	3.45287	-1.63642
10622.713	3.34863	-0.65383	3.41397	-1.60477
10626.694	3.34672	-0.67451	3.41901	-1.56907
10630.696	3.35212	-0.56959	3.43148	-1.50767
10634.692	3.37240	-0.52404	3.42651	-1.45540
10638.690	3.40108	-0.47546	3.40042	-1.42649
10642.694	3.44735	-0.47390	3.28019	-1.40122
10646.693	3.47060	-0.35955	3.30789	-1.36154
10650.690	3.53760	-0.31947	3.35152	-1.30584
10654.696	3.55770	-0.30726	3.29706	-1.29017
10658.695	3.60326	-0.25068	3.26262	-1.25835
10662.689	3.59777	-0.19604	3.31855	-1.19766
10666.696	3.59938	-0.22320	3.34240	-1.16998
10670.693	3.57214	-0.14967	3.39740	-1.15347
10674.695	3.60445	-0.11024	3.40477	-1.13058
10678.685	3.62618	-0.15460	3.40101	-1.09041
10682.689	3.62973	-0.15090	3.44693	-1.05242
10686.689	3.59866	-0.15922	3.43749	-1.02218
10690.690	3.60222	-0.23530	3.39329	-1.00437
10694.688	3.58114	-0.25068	3.31180	-0.98499
10698.689	3.60054	-0.22960	3.32446	-0.97848
10702.694	3.57953	-0.20694	3.43140	-0.97693
10706.694	3.61357	-0.21583	3.38177	-1.01865
10710.691	3.62954	-0.16677	3.30794	-1.15293
10714.694	3.66632	-0.27757	3.31942	-1.26121
10718.690	3.68557	-0.26640	3.31422	-1.29580
10722.689	3.66345	-0.17056	3.34714	-1.28805
10726.688	3.65161	-0.28431	3.35919	-1.34907
10730.689	3.70633	-0.21375	3.37452	-1.40020
10734.690	3.78291	-0.16970	3.40964	-1.43904
10738.691	3.73673	-0.14064	3.42000	-1.48050
10742.693	3.74231	-0.14054	3.46953	-1.48174
10746.692	3.77038	-0.19221	3.46770	-1.49502
10750.696	3.77644	-0.35665	3.42398	-1.53703
10754.688	3.73193	-0.53894	3.45415	-1.52890
10758.691	3.72467	-0.41925	3.46427	-1.49347
10762.696	3.74399	-0.44352	3.43328	-1.46784
10766.689	3.71814	-0.52957	3.42178	-1.44463
10770.694	3.69098	-0.51022	3.40808	-1.40052
10774.689	3.65235	-0.48552	3.41649	-1.39077
10778.692	3.59355	-0.56017	3.36273	-1.40150
10782.693	3.53983	-0.56950	3.33515	-1.40430
10786.686	3.52249	-0.55481	3.23796	-1.36141
10790.693	3.47670	-0.57207	3.26186	-1.34330
10794.688	3.46476	-0.50301	3.28838	-1.27513
10798.689	3.48768	-0.43561	3.31949	-1.26693
10802.690	3.50291	-0.37387	3.33265	-1.23079
10806.689	3.52069	-0.34757	3.30683	-1.21949
10810.690	3.58304	-0.27764	3.33211	-1.21157
10814.688	3.51263	-0.31975	3.33648	-1.27433
10818.689	3.50914	-0.29592	3.36114	-1.26991
