time (ms)	lx (deg)	ly (deg)	rx (deg)	ry (deg)
0.000	9.18424	13.70287	NaN	NaN
4.002	9.25383	13.69543	NaN	NaN
8.001	9.22117	13.70328	NaN	NaN
12.007	8.99973	13.72797	NaN	NaN
15.997	9.22714	13.68224	NaN	NaN
19.994	9.25291	13.78135	NaN	NaN
23.992	9.20385	13.85101	NaN	NaN
27.994	9.28088	13.76207	NaN	NaN
31.988	9.28084	13.74735	NaN	NaN
35.993	9.32990	13.69227	NaN	NaN
40.004	9.40383	13.78956	NaN	NaN
43.996	9.40508	13.75943	NaN	NaN
48.002	9.38648	13.81064	NaN	NaN
51.998	9.40574	13.89289	NaN	NaN
55.992	9.46780	13.72353	NaN	NaN
59.996	9.50448	13.68332	NaN	NaN
63.988	9.47898	13.73739	NaN	NaN
67.991	9.50979	13.74536	NaN	NaN
71.990	9.35505	13.91309	NaN	NaN
75.991	9.31112	13.81759	NaN	NaN
80.021	9.30969	13.77863	NaN	NaN
84.002	9.26988	13.80925	NaN	NaN
87.997	9.25151	13.77625	NaN	NaN
91.987	9.17689	13.79705	NaN	NaN
95.991	9.19771	13.83536	NaN	NaN
99.991	9.22963	13.88606	NaN	NaN
103.998	9.14317	13.91886	NaN	NaN
107.991	8.81159	13.67035	NaN	NaN
111.993	6.36155	12.20901	8.36484	14.78012
115.993	5.62493	9.90428	7.68937	12.11597
119.989	2.61617	7.94639	6.99922	9.53298
123.991	2.26455	5.64240	5.42828	6.90452
127.992	1.98953	4.59448	3.71246	5.28613
132.001	-0.77419	2.84194	3.27205	3.28001
135.987	-0.59905	1.87571	2.59624	2.13486
139.995	-0.72471	1.13221	1.86920	1.24193
143.995	-0.86141	0.82154	1.14087	0.87877
148.004	-0.87684	0.12175	0.71436	0.50309
151.992	-0.86793	0.11206	0.54091	1.23908
155.995	-0.86394	0.66421	0.13737	1.07609
159.990	-0.78900	0.54952	-0.23589	1.36012
163.991	-0.72312	1.05139	-0.45778	1.29850
167.996	-0.72178	0.94473	-0.43517	1.05785
171.997	-0.74476	0.86061	-0.91592	0.97752
176.024	-0.75990	0.72249	-0.41308	0.80044
179.994	-0.83957	0.89353	-0.77015	0.76867
183.994	-0.82034	0.68772	-0.67171	0.93455
187.986	-0.79734	0.68181	-1.03838	0.92217
191.996	-0.80205	0.64241	-1.28745	0.91732
195.992	-0.86887	0.63778	-0.89500	0.84031
199.991	-0.95182	0.79156	-0.97772	0.81639
203.987	-0.97033	0.78090	-1.04406	0.77857
207.995	-0.95105	0.79039	-1.28772	0.76363
211.995	-0.99070	0.63343	-1.31615	0.74171
215.866	-0.95088	0.64127	-0.97221	0.73569
219.864	-1.01968	0.71784	-1.06793	0.78954
223.875	-1.00705	0.73814	-1.13871	0.77609
227.868	-0.99581	0.75573	-1.35345	0.77548
231.865	-0.93477	0.80654	-1.15223	0.79397
235.865	-0.89919	0.85795	-1.09425	0.82272
239.867	-0.91123	0.89421	-1.04972	0.79750
243.862	-0.86443	0.91245	-1.32919	0.84304
247.866	-0.78178	0.87303	-1.25175	0.80164
251.867	-0.75079	0.80422	-1.19854	0.79852
255.865	-0.72593	0.86707	-1.18269	0.80519
259.908	-0.73749	0.86834	-1.14427	0.78068
263.865	-0.76466	0.87223	-0.96040	0.76547
267.863	-0.73677	0.83210	-1.34239	0.85829
271.858	-0.80024	0.85081	-1.28060	0.80394
275.864	-0.78312	0.86935	-1.16808	0.84369
279.865	-0.78828	0.84165	-1.14541	0.85443
283.862	-0.81248	0.75664	-1.18061	0.73790
287.871	-0.71399	0.78845	-1.23064	0.78232
291.867	-0.65719	0.77932	-1.12983	0.73756
295.862	-0.73727	0.71839	-0.73670	0.74117
299.868	-0.40946	0.68447	-0.45182	0.68707
303.868	-0.25076	0.63491	-0.28855	0.49942
307.867	-0.26949	0.55208	0.01799	0.44685
311.858	-0.20179	0.52609	-0.00154	0.35126
316.116	0.00792	0.48542	0.18164	0.42359
319.865	0.16834	0.41592	0.17566	0.14032
323.912	-0.09029	0.34622	0.17360	-0.09589
327.876	-0.02881	0.33824	0.28163	0.03871
331.862	0.06490	0.30149	0.23048	-0.00924
335.862	-0.00449	0.23992	0.22924	-0.05750
339.867	0.00670	0.21594	0.14680	0.03747
343.867	0.04202	0.20816	0.18631	-0.01006
347.863	-0.07353	0.17041	0.24105	0.00460
351.867	-0.02574	0.16723	0.17308	0.00726
355.864	-0.06515	0.07114	0.13995	0.04428
359.861	-0.11443	-0.00281	0.16933	0.05877
363.862	-0.12776	-0.10444	0.17030	0.10076
367.860	-0.08619	-0.11035	0.12044	0.14301
371.861	-0.09314	-0.03081	0.06065	0.14738
375.861	-0.10232	-0.07962	0.02665	0.21196
379.863	-0.10523	-0.05380	0.01688	0.18522
383.894	-0.10811	-0.06662	0.14069	0.12566
387.870	-0.17653	-0.00937	0.06435	0.19673
391.857	-0.12841	0.13761	0.07674	0.15809
395.865	-0.09786	0.17899	0.12116	0.15282
399.864	-0.05480	0.18522	0.07649	0.12847
403.866	0.03231	0.16507	0.04229	0.06694
407.860	-0.00320	0.28025	0.05676	0.04433
411.868	-0.05899	0.33158	0.08974	-0.02453
415.864	-0.00486	0.30437	0.10932	-0.03099
419.858	-0.01908	0.22285	0.13952	-0.08190
423.862	0.04405	0.22451	0.14843	-0.02987
427.868	0.07559	0.24747	0.12789	-0.03039
431.866	0.12037	0.20317	0.12476	-0.06061
435.860	0.13598	0.17765	0.15285	-0.07450
439.867	0.08589	0.10534	0.15106	-0.05750
443.861	0.02023	0.08710	0.16682	-0.03745
447.864	-0.07932	0.06563	0.21899	0.00681
451.892	-0.13461	0.04729	0.22614	-0.02308
455.869	-0.16159	0.04065	0.25852	0.01170
459.886	-0.28473	0.11150	0.28912	0.05387
463.861	-0.32819	0.18510	0.26560	0.00979
467.862	-0.23770	0.27267	0.32136	-0.03640
471.865	-0.26681	0.29935	0.36094	-0.02805
475.867	-0.20844	0.35116	0.32565	0.05181
479.870	-0.20487	0.42613	0.05333	0.03161
483.860	-0.11208	0.43791	-0.15057	0.02999
487.863	-0.06058	0.47908	-0.05490	0.00005
491.855	-0.14439	0.50954	-0.17439	-0.02463
495.863	-0.18874	0.55138	-0.20467	0.03603
499.860	-0.14158	0.59109	-0.34178	0.06354
503.864	-0.12883	0.57621	-0.38020	0.02686
507.855	-0.05569	0.60396	-0.39095	0.02303
511.868	-0.07505	0.59062	-0.44177	0.02793
515.861	-0.06103	0.60324	-0.46626	0.01511
519.874	-0.11525	0.61609	-0.48944	-0.05924
523.859	-0.07723	0.62985	-0.45922	-0.11172
527.861	-0.06487	0.59154	-0.41274	-0.21298
531.858	-0.13714	0.60803	-0.37688	-0.22503
535.862	-0.10069	0.63378	-0.26386	-0.33469
539.858	-0.07460	0.60893	-0.23197	-0.40379
543.858	-0.06051	0.56431	-0.10396	-0.39847
547.862	-0.03107	0.59969	-0.07907	-0.36654
551.864	-0.04383	0.58386	-0.02822	-0.34441
555.857	-0.10550	0.58006	0.02469	-0.35489
559.863	-0.08247	0.51737	0.00065	-0.32557
563.859	-0.07589	0.49044	0.08666	-0.31267
567.859	-0.08790	0.49545	0.12928	-0.18319
571.857	-0.12704	0.56319	0.12756	-0.05144
575.864	-0.14749	0.51150	0.07453	-0.02661
579.859	-0.12503	0.55534	0.09386	-0.30631
583.857	-0.08234	0.50997	0.10915	-0.36384
587.857	-0.08545	0.50142	0.12272	-0.29028
591.872	-0.12146	0.53951	0.16012	-0.17613
595.862	-0.10734	0.48171	0.15201	-0.28668
599.881	-0.07594	0.47578	0.13223	-0.14601
603.867	-0.04360	0.45336	0.07947	-0.27408
607.858	-0.01556	0.52614	0.09460	-0.14052
611.859	-0.01626	0.47856	0.08674	-0.01680
615.853	0.02251	0.45528	0.18318	0.13023
619.856	0.14498	0.43816	0.23036	0.18972
623.861	0.12585	0.36120	0.33280	-0.22900
627.862	0.02556	0.37708	0.31627	-0.20525
631.857	0.08423	0.39472	0.31161	-0.10849
635.868	0.13114	0.33700	0.30828	-0.29150
639.857	0.14377	0.37139	0.32230	-0.07636
643.862	0.12518	0.32415	0.16072	-0.14147
647.856	0.16787	0.28755	0.25413	-0.21256
651.862	0.13960	0.31638	0.40219	-0.30419
655.857	0.14005	0.37633	0.46160	-0.33013
659.857	0.17804	0.39842	0.35454	-0.23835
663.880	0.12498	0.40886	0.38454	-0.26846
667.865	0.12305	0.44700	0.42517	-0.24545
671.858	0.11885	0.45746	0.51143	-0.15383
675.934	0.06338	0.42516	0.38807	-0.10951
679.863	0.02105	0.41637	0.34518	-0.08034
683.860	-0.07299	0.38511	0.37640	-0.07079
687.861	-0.04547	0.24553	0.43390	-0.13242
691.857	-0.04318	0.27138	0.51746	-0.17801
695.857	0.06175	0.21912	0.46850	-0.12002
699.855	0.12811	0.19121	0.41450	-0.13783
703.856	0.22165	0.14248	0.41894	-0.09554
707.854	0.06728	0.05034	0.40601	0.01866
711.859	0.02055	-0.02654	0.41316	-0.05939
715.852	-0.08977	-0.01352	0.38946	-0.01953
719.861	0.07341	-0.00239	0.41422	0.05519
723.889	0.18740	-0.05581	0.36045	0.16753
727.867	0.22281	-0.11296	0.31009	0.19148
731.855	0.21844	-0.10695	0.32960	0.16738
735.860	0.19373	-0.10548	0.29989	0.10136
739.851	0.10205	-0.08625	0.28024	0.15342
743.856	0.24021	-0.02050	0.28131	0.14544
747.858	0.20447	-0.01792	0.29793	0.12012
751.859	0.18042	-0.03012	0.30709	0.11537
755.853	0.24450	0.05198	0.31339	0.08319
759.865	0.24721	0.10986	0.29776	0.06093
763.855	0.20842	0.03429	0.21581	-0.00355
767.855	0.31354	-0.02269	0.24870	-0.09937
771.853	0.17268	0.01610	0.27416	-0.15342
775.859	0.10875	0.05161	0.24401	-0.23427
779.857	0.19804	0.06587	0.29555	-0.20207
783.855	0.24545	0.17705	0.27264	-0.23634
787.856	0.21569	0.16460	0.27818	-0.10384
791.859	0.11932	0.02164	0.19812	-0.08384
795.857	0.07897	0.01869	0.18291	-0.09810
799.858	0.18822	-0.07079	0.20877	-0.11547
803.858	0.00901	-0.02530	0.24262	-0.17971
807.855	-0.03604	-0.06431	0.21254	-0.20950
811.854	0.02474	-0.02686	0.26406	-0.19643
815.854	0.03953	-0.02738	0.22048	-0.20560
819.853	0.13908	0.01620	0.30764	-0.13411
823.859	0.13737	0.06968	0.22363	-0.12231
827.855	0.08584	0.02910	0.13590	0.03886
831.859	0.01169	0.01374	0.16352	-0.04391
835.850	0.13379	0.07348	0.17539	0.02376
839.854	0.18266	0.03720	0.19303	0.07529
843.862	0.16045	0.10660	0.17221	0.01652
847.881	0.19579	0.11609	0.18025	0.02721
851.866	0.18055	0.10494	0.23758	0.19524
855.857	0.18397	0.05725	0.29982	0.11694
859.857	0.22519	-0.01884	0.29642	0.19479
863.855	0.19658	-0.00552	0.25480	0.16298
867.856	0.15240	-0.03886	0.26929	0.15285
871.850	0.21554	-0.04952	0.40003	0.08235
875.854	0.21815	-0.06327	0.37755	-0.05956
879.859	0.17099	-0.07427	0.42222	-0.21057
883.854	0.13357	0.00574	0.43864	-0.18882
887.860	0.06606	-0.05703	0.54156	-0.07293
891.853	0.07887	-0.11729	0.48056	0.01461
895.861	0.24376	-0.06833	0.33633	-0.09447
899.869	0.18571	-0.05352	0.44524	-0.08081
903.854	0.14975	-0.07251	0.50555	-0.16166
907.856	0.12650	-0.12087	0.47009	-0.17292
911.869	0.17248	-0.05700	0.50480	-0.25444
915.857	0.02849	-0.03827	0.41023	-0.08359
919.857	0.12563	-0.01844	0.40400	0.09013
923.849	0.06812	-0.01695	0.32233	-0.01727
927.857	-0.00854	-0.00166	0.24004	0.17061
931.855	0.26178	-0.06682	0.24257	0.15553
935.856	0.13034	-0.04634	0.22688	0.31170
939.848	-0.02119	-0.04962	0.28195	0.19558
943.852	-0.11491	-0.07996	0.21092	0.29103
947.850	0.06490	-0.03307	0.18660	0.33605
951.856	-0.03688	0.01645	0.18938	0.29046
955.850	-0.02102	0.01978	0.17824	0.36070
959.852	0.09840	0.04073	0.16792	0.46740
963.851	0.25148	-0.03039	0.18402	0.45349
967.856	0.04440	-0.05484	0.15645	0.38761
971.847	0.04815	-0.06128	0.17787	0.36428
975.855	0.08431	-0.14440	0.19862	0.40004
979.849	0.19541	-0.26054	0.20184	0.24583
983.852	0.15665	-0.11674	0.20360	0.35983
987.850	0.18712	-0.18043	0.23031	0.37690
991.867	0.14948	-0.11030	0.29200	0.27296
995.853	0.19082	-0.06657	0.21611	0.37315
999.858	0.21983	-0.18922	0.20452	0.41348
1003.849	0.18320	-0.18463	0.19541	0.33625
1007.854	0.12081	-0.13160	0.15191	0.27403
1011.854	0.11674	-0.09361	0.19665	0.33586
1015.851	0.15871	-0.13222	0.22147	0.25058
1019.845	0.14950	-0.08295	0.21440	0.11930
1023.849	0.11436	-0.08091	0.20368	0.20948
1027.850	0.10334	-0.05459	0.22450	0.17021
1031.850	0.12769	-0.09696	0.18787	0.21313
1035.845	0.16682	-0.10037	0.16104	0.27197
1039.853	0.18968	-0.20503	0.16836	0.22304
1043.853	0.16275	-0.21305	0.18591	0.13953
1047.851	0.19780	-0.25018	0.21777	0.17168
1051.862	0.27061	-0.28993	0.28093	0.21636
1055.852	0.29133	-0.27587	0.27709	0.18925
1059.851	0.33531	-0.30626	0.26622	0.07927
1063.850	0.39728	-0.33145	0.29759	-0.04431
1067.851	0.38646	-0.34857	0.28600	0.05544
1071.724	0.41370	-0.32032	0.24348	0.00082
1075.725	0.41231	-0.29885	0.22956	0.00939
1079.855	0.38243	-0.27477	0.20834	0.09987
1083.724	0.36764	-0.18097	0.21184	-0.00818
1087.725	0.35496	-0.08993	0.19440	0.04527
1091.727	0.35104	-0.05427	0.11252	0.09254
1095.736	0.30451	0.00599	0.06217	0.07663
1099.729	0.30952	0.12991	0.00747	0.16179
1103.728	0.24252	0.17345	-0.02263	0.20404
1107.729	0.12813	0.13664	-0.00181	0.22188
1111.755	0.07594	0.13115	-0.01499	0.25838
1115.729	0.06515	0.12994	0.01132	0.28358
1119.722	0.03293	0.16649	0.03537	0.29799
1123.723	-0.02363	0.16818	0.01767	0.25485
1127.723	-0.02318	0.13322	0.02946	0.25927
1131.722	-0.02288	0.06665	0.04919	0.26655
1135.725	-0.03259	0.00885	0.07217	0.27970
1139.728	-0.00978	-0.04470	0.09880	0.29051
1143.722	0.03735	-0.07109	0.11908	0.28420
1147.719	0.07162	-0.12745	0.17772	0.29510
1151.721	0.07033	-0.15178	0.11123	0.35007
1155.721	0.11543	-0.16838	0.09416	0.30726
1159.724	0.12694	-0.10745	0.08644	0.23716
1163.747	0.17256	-0.16530	0.12056	0.22973
1167.729	0.20981	-0.13801	0.09676	0.19564
1171.723	0.23294	-0.13650	0.04552	0.26044
1175.722	0.23907	-0.14435	0.05681	0.25132
1179.733	0.20010	-0.15903	0.05485	0.31866
1183.727	0.13920	-0.10665	0.07420	0.28107
1187.719	0.15551	-0.06583	-0.07098	0.29617
1191.723	0.10945	-0.05218	-0.00826	0.27545
1195.725	0.12729	-0.06272	-0.02517	0.26837
1199.722	0.18948	-0.10732	0.14034	0.32475
1203.724	0.13012	-0.15854	0.05408	0.53573
1207.725	0.11756	-0.18903	0.13272	0.39624
1211.718	0.17231	-0.23055	0.14417	0.34977
1215.723	0.06051	-0.28482	0.27470	0.33302
1219.721	0.02722	-0.33757	0.20976	0.44998
1223.730	0.11433	-0.40811	0.23949	0.41368
1227.733	0.09458	-0.39286	0.33402	0.26508
1231.722	-0.01492	-0.29940	0.26661	0.10827
1235.726	0.03733	-0.28112	0.31565	0.32383
1239.718	0.04301	-0.36364	0.33873	0.32733
1243.720	0.06639	-0.38993	0.31590	0.28340
1247.721	0.09657	-0.41264	0.28749	0.23671
1251.723	0.07785	-0.35554	0.27969	0.15650
1255.726	-0.00467	-0.37875	0.34901	0.19504
1259.724	0.03710	-0.36155	0.32474	0.14693
1263.723	0.06919	-0.33581	0.33168	0.03074
1267.744	0.01936	-0.34301	0.34025	-0.06244
1271.719	0.01564	-0.35869	0.29818	-0.02885
1275.732	-0.00285	-0.38058	0.22410	0.15799
1279.723	-0.00777	-0.43346	0.18576	0.15881
1283.722	-0.00754	-0.40841	0.13660	0.14318
1287.725	-0.02804	-0.37604	0.15350	0.17988
1291.727	-0.03249	-0.33017	0.11225	0.27125
1295.724	-0.06311	-0.33223	0.12774	0.32686
1299.722	-0.04725	-0.29158	0.09242	0.37643
1303.726	-0.06403	-0.25023	0.13684	0.35815
1307.727	-0.05706	-0.16614	0.12530	0.35703
1311.721	0.00536	-0.13312	0.08153	0.45326
1315.726	0.00715	-0.08051	0.14337	0.45259
1319.776	0.04100	-0.00673	0.14563	0.33722
1323.723	0.09925	-0.02269	0.21839	0.24064
1327.720	0.10106	0.03946	0.13518	0.20481
1331.715	0.08654	-0.08479	0.17176	0.21291
1335.719	0.06544	-0.08580	0.13600	0.15729
1339.717	0.08170	-0.13873	0.14623	0.11560
1343.721	0.06522	-0.09520	0.09483	0.11726
1347.724	0.05167	-0.18257	0.13310	0.14373
1351.721	0.06400	-0.23763	0.13208	0.17044
1355.726	0.03296	-0.26191	0.20633	0.21758
1359.719	0.03268	-0.20831	0.25783	0.23952
1363.724	0.04410	-0.27863	0.25001	0.29153
1367.715	0.01524	-0.30825	0.23140	0.28658
1371.722	-0.02417	-0.40407	0.32910	0.28034
1375.719	-0.00417	-0.33384	0.33595	0.16897
1379.721	-0.03283	-0.40138	0.39519	0.13615
1383.719	-0.09403	-0.31518	0.39425	0.01948
1387.728	-0.07398	-0.37380	0.34504	0.08212
1391.716	-0.10803	-0.35136	0.33987	0.08068
1395.724	-0.12970	-0.28618	0.34365	0.04783
1399.720	-0.11299	-0.25334	0.26334	0.13878
1403.722	-0.11379	-0.25542	0.26006	0.05914
1407.725	-0.07597	-0.20781	0.17663	0.06419
1411.736	-0.17189	-0.20508	0.17360	0.00492
1415.723	-0.15504	-0.15667	0.12404	0.20257
1419.724	-0.18281	-0.10499	0.18092	0.06048
1423.720	-0.13198	-0.01918	0.15739	0.09559
1427.722	-0.02626	-0.05782	0.16270	0.16870
1431.723	0.02415	-0.06332	0.14203	0.34396
1435.724	0.02978	0.01252	0.15585	0.34450
1439.721	0.04676	0.11458	0.22820	0.16974
1443.723	-0.02422	0.01488	0.19124	0.24161
1447.715	-0.01169	-0.09373	0.16551	0.22595
1451.726	-0.07480	0.03698	0.13084	0.13021
1455.721	-0.11394	0.20222	0.03792	0.06975
1459.719	-0.21070	-0.05064	-0.12739	0.16455
1463.714	-0.63871	0.03891	-0.25681	0.09631
1467.724	-1.34703	-0.10481	-0.35524	0.05342
1471.806	-1.87696	-0.25231	-1.45820	0.03681
1475.722	-1.87213	-0.18674	-2.04299	0.00330
1479.714	-2.09128	0.00924	-2.38259	-0.02284
1483.723	-2.57186	0.05578	-3.54435	-0.04821
1487.720	-4.96625	-0.17666	-3.05462	0.05141
1491.723	-5.86040	-0.19575	-2.81370	0.37777
1495.714	-7.01898	-0.13370	-10.47919	0.28390
1499.723	-9.46252	0.00549	-11.29362	0.20730
1503.721	-8.16413	0.94290	-12.16045	2.24073
1507.722	-6.71488	1.89239	-12.93785	2.08510
1511.717	-12.45348	2.61988	-12.14195	0.20278
1515.728	-2.40476	5.33146	-15.85621	1.33246
1519.718	-15.44209	4.87201	NaN	NaN
1523.721	-15.25693	5.32594	NaN	NaN
1527.717	-17.35254	6.72155	NaN	NaN
1531.749	-20.57885	7.10296	NaN	NaN
1535.719	-22.16425	12.77076	NaN	NaN
1539.731	-20.23035	-12.05971	NaN	NaN
1543.716	-20.14066	-12.06645	-16.44699	-0.64235
1547.715	-20.09944	-12.06953	NaN	NaN
1551.716	-20.07560	-12.07132	-15.97188	-4.88029
1555.723	-20.05999	-12.07248	NaN	NaN
1559.715	-20.04889	-12.07331	NaN	NaN
1563.721	-20.04057	-12.07393	NaN	NaN
1567.716	-20.03406	-12.07442	NaN	NaN
1571.719	-20.02891	-12.07480	NaN	NaN
1575.716	-19.99423	-12.07739	NaN	NaN
1579.731	NaN	NaN	NaN	NaN
1583.716	NaN	NaN	NaN	NaN
1587.720	NaN	NaN	NaN	NaN
1591.718	NaN	NaN	NaN	NaN
1595.723	NaN	NaN	NaN	NaN
1599.718	NaN	NaN	NaN	NaN
1603.716	NaN	NaN	NaN	NaN
1607.970	NaN	NaN	NaN	NaN
1611.965	NaN	NaN	NaN	NaN
1615.946	NaN	NaN	NaN	NaN
1619.730	NaN	NaN	NaN	NaN
1623.718	NaN	NaN	NaN	NaN
1627.723	NaN	NaN	NaN	NaN
1631.724	NaN	NaN	NaN	NaN
1635.721	NaN	NaN	NaN	NaN
1639.720	NaN	NaN	NaN	NaN
1643.725	NaN	NaN	NaN	NaN
1647.965	NaN	NaN	NaN	NaN
1651.717	NaN	NaN	NaN	NaN
1655.803	NaN	NaN	NaN	NaN
1659.722	NaN	NaN	NaN	NaN
1663.726	NaN	NaN	NaN	NaN
1667.718	NaN	NaN	NaN	NaN
1671.716	NaN	NaN	NaN	NaN
1675.714	-9.69400	11.40842	-1.85678	12.75639
1679.726	-9.02597	11.49261	NaN	NaN
1683.722	-8.19951	10.52516	NaN	NaN
1687.713	-14.25581	5.17558	NaN	NaN
1691.720	-12.11429	4.20675	NaN	NaN
1695.718	-11.27491	3.31373	-19.29206	9.02407
1699.721	-9.30882	1.25716	-20.05544	4.74278
1703.714	-9.18078	1.19889	-13.98061	4.07937
1707.719	-8.17240	1.26343	-12.73668	3.73733
1711.716	-8.03599	2.15511	-11.03568	3.29057
1715.718	-7.96865	1.35387	-10.55510	3.07126
1719.718	-7.79527	1.54032	-10.83520	3.14676
1723.725	-7.72839	1.75712	-10.63003	3.33506
1727.717	-7.76757	1.20020	-10.60299	2.91696
1731.715	-7.72658	1.32102	-10.41386	2.84168
1735.719	-7.75531	1.35786	-9.15826	1.93061
1739.747	-7.61685	1.38703	-10.31905	2.31963
1743.716	-7.67755	1.38369	-8.71067	2.40883
1747.710	-5.59845	-1.90126	-7.96804	1.74477
1751.713	-7.37958	1.44791	-8.04258	2.11660
1755.716	-7.53101	1.46203	-8.09917	1.71791
1759.717	-7.52532	1.49112	-7.78818	1.42552
1763.713	-7.61009	1.48825	-8.03112	1.49097
1767.721	-7.66370	1.59757	-7.74917	1.51236
1771.714	-7.61687	1.69016	-7.67986	1.48128
1775.718	-7.63079	1.69500	-7.82652	1.22024
1779.713	-7.44198	1.93546	-7.73078	1.28559
1783.714	-7.39689	2.12699	-7.63513	1.23248
1787.712	-7.51591	1.96484	-7.51413	1.23091
1791.716	-7.55118	2.02220	-7.50617	1.27777
1795.715	-7.54488	1.98156	-7.47873	1.22882
1799.716	-7.67353	1.94552	-7.41099	1.26307
1803.715	-7.71801	1.94613	-7.42829	1.27987
1807.713	-7.65259	1.64196	-7.42385	1.32118
1811.714	-7.63886	1.64641	-7.47980	1.28984
1815.716	-7.47753	1.85306	-7.49849	1.40514
1819.711	-7.60904	1.81598	-7.44843	1.53967
1823.712	-7.57564	1.55707	-7.46197	1.64645
1827.714	-6.16091	-2.07069	-7.49707	1.51683
1831.716	-5.81919	-2.29173	-7.63428	1.48405
1835.711	-5.66683	-0.29339	-7.65242	1.64361
1839.719	-6.22603	1.41850	-7.60729	1.53377
1843.714	-7.50264	1.47562	-7.74968	1.58824
1847.721	-7.49305	1.33309	-7.79313	1.74133
1851.722	-7.54303	1.54246	-7.77848	1.70402
1855.715	-7.71352	1.49839	-7.87095	1.77258
1859.716	-7.70955	1.43826	-7.85439	1.62435
1863.710	-7.87487	1.50950	-7.99377	1.68128
1867.712	-8.05888	1.62105	-7.98011	1.66956
1871.710	-7.94594	1.52518	-7.94453	1.59338
1875.716	-7.95227	1.52437	-7.99240	1.65786
1879.713	-7.93895	1.49579	-8.03146	1.58360
1883.714	-7.85889	1.47495	-7.95682	1.57137
1887.716	-7.93364	1.59285	-7.98525	1.54593
1891.718	-7.93605	1.61933	-8.02002	1.50670
1895.712	-7.86116	1.69739	-7.96558	1.56103
1899.717	-7.91585	1.74290	-7.90160	1.43532
1903.711	-7.97646	1.73734	-7.88458	1.51898
1907.716	-7.87535	1.74849	-7.89474	1.38157
1911.711	-7.82630	1.79790	-7.80808	1.37405
1915.712	-7.81795	1.87654	-7.82253	1.36606
1919.590	-7.85521	1.91075	-7.83424	1.29925
1923.586	-7.81130	1.91360	-7.80699	1.31562
1927.591	-7.77210	1.94079	-7.85609	1.29072
1931.587	-7.82584	1.90919	-7.83264	1.37589
1935.714	-7.71104	1.89212	-7.85667	1.41825
1939.582	-7.86306	1.86040	-7.87404	1.31612
1943.591	-7.80455	1.82158	-7.86776	1.19532
1947.585	-7.77795	1.77844	-7.84847	1.25560
1951.589	-7.70414	1.76960	-7.27990	1.42461
1955.589	-5.87911	1.72584	-4.93994	1.58834
1959.581	-5.26959	1.61556	-3.56774	1.36672
1963.602	-2.99067	1.44268	-2.85561	1.30795
1967.583	-2.21172	1.45578	-1.09648	1.35681
1971.584	-0.40197	1.22537	-0.23599	1.06033
1975.589	1.59298	1.20481	1.52471	0.56681
1979.587	2.00214	0.98765	2.32062	0.26303
1983.584	2.92562	0.96707	3.09127	-0.10062
1987.584	3.61184	1.06121	3.73164	0.17457
1991.583	3.90101	0.95107	3.99729	-0.09023
1995.588	3.93191	0.69740	3.68092	0.12905
1999.580	3.89488	0.87228	3.53693	0.05208
2003.584	3.33668	0.92733	3.37405	-0.00697
2007.587	3.75645	0.83174	3.79996	0.11024
2011.587	3.85545	0.62235	3.87351	-0.11112
2015.588	3.80048	0.61833	3.95673	-0.14589
2019.591	3.75724	0.65483	4.05056	-0.06854
2023.580	3.87210	0.65823	4.12024	-0.08533
2027.589	3.91803	0.62278	4.17808	-0.00069
2031.584	3.94051	0.38095	4.21358	-0.03888
2035.584	3.94789	0.45670	4.21888	0.04243
2039.589	3.96563	0.45396	4.27622	0.02651
2043.583	3.86865	0.74361	4.33772	0.02294
2047.586	3.95095	0.65969	4.36589	0.03053
2051.580	3.98368	0.50425	4.28046	0.04047
2055.585	3.94755	0.41585	4.37132	0.23412
2059.587	3.93769	0.42138	4.25652	0.16006
2063.588	4.07157	0.35447	4.31995	0.11210
2067.579	4.02880	0.38287	4.31652	0.06906
2071.583	4.02092	0.40746	4.16401	0.10496
2075.585	4.01018	0.61770	4.22636	0.18219
2079.581	4.06582	0.47317	4.26252	0.18910
2083.587	4.08564	0.50555	4.19652	0.11137
2087.586	4.09730	0.39525	4.18544	0.16173
2091.580	4.19864	0.38549	4.22199	0.15957
2095.588	3.98395	0.36028	4.16830	0.15356
2099.587	4.22792	0.38465	4.16428	0.08870
2103.593	4.26163	0.43040	4.24107	0.01041
2107.589	4.18889	0.43570	4.15134	0.06107
2111.584	4.19482	0.21610	4.21481	0.07174
2115.587	4.07063	0.43775	4.22436	0.10986
2119.579	4.27718	0.41587	4.28550	0.07216
2123.589	4.20215	0.40479	4.25601	0.04446
2127.583	4.24868	0.31058	4.25285	0.12361
2131.583	4.22130	0.27968	4.26793	0.08341
2135.578	4.12120	0.36770	4.17591	0.09955
2139.582	4.30561	0.29539	4.25887	0.16125
2143.590	4.34860	0.29017	4.31299	0.21379
2147.582	4.34944	0.11675	4.27901	0.11919
2151.581	4.29357	0.15091	4.20291	0.19112
2155.591	4.33300	0.37432	4.23451	0.20130
2159.583	4.40056	0.33358	4.27148	0.25632
2163.580	4.29088	0.23786	4.23853	0.32634
2167.588	4.32770	0.18965	4.20057	0.27032
2171.586	4.28656	0.25629	4.22384	0.14683
2175.585	4.36066	0.26554	4.21999	0.21634
2179.625	4.37571	0.36198	4.29493	0.22576
2183.588	4.26575	0.37009	4.27953	0.14390
2187.582	4.28012	0.36599	4.24512	0.18239
2191.579	4.26272	0.49389	4.26311	0.20394
2195.578	4.30260	0.44879	4.22930	0.21733
2199.586	4.29278	0.43329	4.20610	0.22995
2203.581	4.27669	0.44975	4.24850	0.23376
2207.581	4.29159	0.49307	4.24594	0.04830
2211.579	4.28616	0.52370	4.23140	0.10443
2215.586	4.26793	0.42131	4.22705	0.12294
2219.590	4.21387	0.30529	4.21076	0.21409
2223.621	4.26965	0.18122	4.21197	0.17422
2227.584	4.32829	0.32053	4.14256	0.21466
2231.586	4.32646	0.33540	4.17573	0.01742
2235.583	4.31709	0.26268	4.20829	0.07271
2239.581	4.29821	-0.01613	4.22209	0.21295
2243.582	4.31390	0.01839	4.27237	0.21871
2247.578	4.31990	0.17162	4.19136	0.06476
2251.578	4.31874	0.20717	4.31797	0.02416
2255.579	4.42163	0.09813	4.23633	0.21921
2259.584	4.36831	-0.09143	4.20642	0.28665
2263.584	4.43525	-0.02896	4.17882	-0.01913
2267.581	4.53213	0.28643	4.35978	-0.01430
2271.580	4.57287	0.16177	4.75346	0.02694
2275.581	6.28479	0.07625	6.36792	0.19786
2279.581	7.18604	0.06622	7.66531	0.20618
2283.579	7.45082	0.27199	8.09097	0.02718
2287.580	8.13424	0.13672	9.60661	-0.14348
2291.582	9.13037	0.37655	9.63242	-0.16316
2295.580	10.44549	0.39302	10.97329	0.16842
2299.580	10.81954	0.10812	11.75879	-0.02652
2303.578	10.77814	0.17222	11.55202	-0.17220
2307.590	10.88092	0.29768	10.82732	-0.33410
2311.586	10.86893	0.21853	10.25588	-0.34956
2315.579	10.79409	0.21182	11.01876	-0.60366
2319.588	10.84058	0.28554	11.00764	-0.66336
2323.582	10.81808	0.26514	10.88137	-0.73913
2327.583	10.84336	0.39290	11.01048	-0.82875
2331.575	10.81171	0.28694	11.00120	-0.94186
2335.579	10.85061	0.14025	11.00345	-0.92824
2339.577	10.87747	0.19673	11.08337	-0.49611
2343.578	10.90413	0.18076	10.96165	-0.58565
2347.574	10.90155	0.19291	10.93689	-0.34888
2351.588	10.90150	0.25830	11.01125	-0.14133
2355.602	10.94469	0.28757	11.05065	-0.04512
2359.579	10.94091	0.29394	11.01120	0.04466
2363.580	10.96461	0.48856	10.99214	-0.08445
2367.578	11.00479	0.45464	11.03258	0.06012
2371.608	11.01067	0.34833	11.01275	0.09257
2375.574	11.04668	0.35775	10.98693	-0.04279
2379.581	11.06241	0.43094	10.91803	-0.03155
2383.573	11.03760	0.41405	10.92191	-0.07491
2387.580	11.03262	0.42174	10.94277	-0.13065
2391.583	11.05914	0.39798	10.97707	-0.16898
2395.581	11.04683	0.37012	10.94631	-0.18120
2399.576	11.02313	0.32656	10.97497	-0.27166
2403.577	11.08110	0.25929	10.95373	-0.30334
2407.577	11.15491	0.19004	10.90669	-0.27238
2411.578	11.16332	0.16843	10.95751	-0.24247
2415.583	11.21092	0.15412	10.94012	-0.25493
2419.578	11.22016	0.14127	10.96655	-0.16791
2423.583	11.14880	0.10191	11.00228	-0.02998
2427.580	11.19695	0.12120	10.99563	-0.07667
2431.575	11.15852	0.15678	10.99032	0.06891
2435.582	11.08691	0.24432	11.02906	0.00820
2439.576	11.02208	0.25949	10.99499	-0.13633
2443.581	11.05046	0.22079	10.98379	-0.12658
2447.572	11.08462	0.08728	11.00448	-0.05400
2451.576	11.08634	0.27541	11.10804	0.00129
2455.576	11.22334	0.29536	11.13943	-0.04023
2459.576	11.28524	0.40500	11.05641	-0.00510
2463.571	11.17245	0.42349	11.08849	-0.02090
2467.575	11.06198	0.49888	11.04979	0.00678
2471.575	11.23074	0.57463	11.00582	0.03954
2475.578	11.31572	0.49382	11.11358	-0.12001
2479.580	11.24733	0.44704	11.11274	-0.18348
2483.575	11.25046	0.32492	11.05883	-0.10033
2487.573	11.32283	0.54409	10.98403	-0.04635
2491.575	11.29254	0.57287	10.91973	-0.08054
2495.579	11.23124	0.50466	10.88960	-0.10078
2499.578	11.14192	0.47656	10.88925	-0.24055
2503.576	11.17894	0.36059	10.87625	-0.27006
2507.571	11.09031	0.42702	10.87220	-0.24845
2511.575	11.13052	0.40590	10.83015	-0.30369
2515.579	11.13712	0.43863	10.84274	-0.34685
2519.581	11.16275	0.27963	10.81659	-0.31632
2523.572	11.18492	0.29087	10.79030	-0.26660
2527.581	11.16514	0.35244	10.81612	-0.33985
2531.575	11.21312	0.32794	10.78101	-0.35737
2535.594	11.14603	0.28822	10.77335	-0.31319
2539.574	11.01649	0.27128	10.82892	-0.42303
2543.581	11.21673	0.14795	10.87773	-0.39163
2547.577	11.22979	0.29545	10.89765	-0.33946
2551.572	11.22754	0.37766	10.86948	-0.32544
2555.581	11.31796	0.32238	10.90320	-0.32523
2559.595	11.39358	0.26211	10.86668	-0.28796
2563.579	11.34616	0.28900	10.84501	-0.35453
2567.576	11.31953	0.43836	10.92667	-0.44156
2571.571	11.18317	0.51900	10.91796	-0.47361
2575.575	11.25096	0.50436	10.98748	-0.44883
2579.576	11.47305	0.48799	11.02956	-0.40989
2583.571	11.29763	0.47177	11.07281	-0.42698
2587.576	11.29806	0.51107	11.02999	-0.43406
2591.575	11.36076	0.46058	11.06119	-0.44855
2595.607	11.30677	0.48786	11.06279	-0.50271
2599.591	11.22375	0.45605	11.07150	-0.51742
2603.579	11.20722	0.45325	11.12022	-0.47257
2607.570	11.18821	0.42432	11.12766	-0.43587
2611.578	11.28689	0.44447	11.08882	-0.46341
2615.574	11.31419	0.37324	11.13372	-0.39315
2619.573	11.34478	0.29027	11.14856	-0.44118
2623.568	11.37328	0.35014	11.01646	-0.40421
2627.588	11.45636	0.27094	10.93906	-0.35437
2631.573	11.48246	0.07724	11.01617	-0.29118
2635.575	11.40043	0.17285	10.93342	-0.16659
2639.572	11.46718	0.29779	10.90602	-0.12512
2643.578	11.46788	0.26637	10.75689	-0.20472
2647.569	11.55049	0.23304	10.71633	-0.23405
2651.571	11.54061	0.15414	10.73401	-0.11057
2655.573	11.51113	0.13563	10.78149	-0.02443
2659.578	11.44063	0.05772	10.69299	-0.01775
2663.577	11.47507	0.08672	10.73313	-0.01345
2667.569	11.45524	0.00375	10.82718	0.01984
2671.574	11.44864	0.07828	10.86782	-0.03519
2675.573	11.52107	0.09932	10.86277	-0.11790
2679.589	11.54289	0.11657	10.89243	-0.18123
2683.586	11.56948	0.06376	10.84365	-0.19646
2687.574	11.63028	0.04809	10.89245	-0.14555
2691.574	11.54744	0.04039	10.83388	-0.18395
2695.593	11.54337	0.07099	10.80761	-0.20354
2699.573	11.46661	0.12279	10.77945	-0.24208
2703.575	11.43560	0.19273	10.78951	-0.23006
2707.576	11.51244	0.12467	10.77224	-0.21370
2711.572	11.50108	0.09806	10.72048	-0.25321
2715.568	11.42835	0.05149	10.70220	-0.25452
2719.572	11.34824	0.08676	10.67560	-0.19982
2723.576	11.37992	0.08244	10.62236	-0.16745
2727.574	11.47805	0.31173	10.62109	-0.13975
2731.571	11.50732	0.26458	10.60287	-0.11133
2735.571	11.40691	0.27858	10.65525	-0.13441
2739.571	11.32206	0.07375	10.77380	-0.04916
2743.567	11.80495	0.19237	11.28849	0.01016
2747.577	12.25531	0.29851	11.80828	0.04517
2751.572	12.81665	0.31475	13.05712	-0.05887
2755.572	13.48181	0.65459	13.56263	0.02809
2759.571	13.96907	0.61938	13.44160	0.05319
2763.583	13.97713	0.60009	13.11210	-0.03654
2767.576	13.04718	0.53408	12.83824	-0.04015
2771.580	13.48028	0.62953	12.91208	-0.00441
2775.574	13.49399	0.64755	13.24960	-0.10882
2779.448	13.46965	0.72957	12.76189	-0.11604
2783.447	13.24983	0.66692	12.87548	-0.12400
2787.573	13.21376	0.70313	13.00478	-0.08619
2791.442	13.42383	0.75112	12.92915	-0.15227
2795.447	13.57515	0.70874	12.92797	-0.09722
2799.447	13.47073	0.61016	12.82384	-0.16442
2803.487	13.48991	0.59851	12.82009	-0.16699
2807.444	13.42223	0.67147	12.82981	-0.09006
2811.445	13.58657	0.73547	12.78181	-0.09468
2815.450	13.54485	0.76997	12.85201	-0.02255
2819.449	13.54157	0.83659	12.74711	-0.01159
2823.443	13.62791	1.02762	12.80610	0.06266
2827.451	13.72685	1.19248	12.85145	0.11539
2831.462	13.73233	1.27524	12.86378	0.10792
2835.451	13.73051	1.20014	12.80754	0.18122
2839.446	13.61560	1.28678	12.79534	0.23328
2843.446	13.57011	1.28237	12.83847	0.27205
2847.440	13.63325	1.25482	12.85739	0.24875
2851.448	13.68654	1.12688	12.95577	0.14886
2855.456	13.64326	1.06628	13.01206	0.23925
2859.441	13.51635	1.08813	12.87272	0.23217
2863.450	13.51513	0.94819	13.03260	0.19418
2867.444	13.59846	0.89116	13.08682	0.23896
2871.445	13.55175	0.90421	13.12474	0.25456
2875.440	13.44787	0.81894	13.16362	0.28094
2879.445	13.41094	0.77173	13.17089	0.27072
2883.448	13.43960	0.70678	13.17802	0.17628
2887.441	13.39121	0.64420	13.12557	0.19699
2891.443	13.35222	0.61449	13.07295	0.18476
2895.449	13.22218	0.63176	13.06143	0.27038
2899.449	13.33856	0.62742	12.89711	0.25077
2903.446	13.28061	0.59064	13.09918	0.24919
2907.446	13.31697	0.58182	13.04097	0.25314
2911.440	13.32282	0.53481	13.02276	0.28372
2915.447	13.30404	0.48272	13.05661	0.27317
2919.444	13.31177	0.55207	13.00327	0.19779
2923.440	13.31424	0.52472	12.88989	0.22588
2927.443	13.31958	0.53235	12.81903	0.28080
2931.443	11.73966	0.52465	12.59297	0.24559
2935.448	10.36622	0.50555	10.89355	0.10031
2939.445	9.40970	0.42228	8.89739	-0.42144
2943.448	7.93031	0.20267	8.23291	-0.11719
2947.445	6.78546	-0.54960	7.89177	-0.07945
2951.444	6.16903	-0.55052	7.19869	-0.41878
2955.441	5.63373	-0.79294	6.45000	-0.55488
2959.447	5.30353	-0.40671	6.00798	-0.69686
2963.446	5.52829	-0.83777	5.84866	-0.80500
2967.454	5.84886	-0.62944	5.66627	-0.58803
2971.439	5.92783	-0.82604	5.76438	-0.65873
2975.447	6.11503	-0.70787	5.82437	-0.70387
2979.445	5.96645	-0.76937	5.63132	-0.70067
2983.446	5.81521	-0.89817	5.68096	-0.56880
2987.441	5.96890	-0.76578	5.60374	-0.62061
2991.447	5.86197	-0.77213	5.61866	-0.59320
2995.442	5.83967	-0.88605	5.56723	-0.50981
2999.448	5.84534	-0.83644	5.56492	-0.41092
3003.443	5.89750	-0.87227	5.55047	-0.40709
3007.447	5.95314	-0.84984	5.56229	-0.53887
3011.439	5.87351	-0.81403	5.50154	-0.37977
3015.449	5.92189	-0.75389	5.43807	-0.54082
3019.445	5.86823	-0.91200	5.47820	-0.47425
3023.452	5.85180	-0.78151	5.44441	-0.44350
3027.442	5.89203	-0.69577	5.41940	-0.43031
3031.475	5.84804	-0.74440	5.30997	-0.48442
3035.698	5.90291	-0.69855	5.31064	-0.41552
3039.447	5.85384	-0.75981	5.32670	-0.53104
3043.448	5.87383	-0.62234	5.26866	-0.47515
3047.441	5.83016	-0.54156	5.25589	-0.46217
3051.445	5.90340	-0.52909	5.20346	-0.44442
3055.437	5.87896	-0.53403	5.16460	-0.41193
3059.441	5.79148	-0.58165	5.19286	-0.33616
3063.448	5.93686	-0.44283	5.16506	-0.31576
3067.442	5.93952	-0.36826	5.18478	-0.39850
3071.436	5.83031	-0.43980	5.16918	-0.33271
3075.441	5.90917	-0.41969	5.13818	-0.31936
3079.446	5.91175	-0.39037	5.16548	-0.37429
3083.441	5.91283	-0.36830	5.15330	-0.34376
3087.445	5.96242	-0.37833	5.16726	-0.35825
3091.440	5.99888	-0.41043	5.14505	-0.31310
3095.441	5.89507	-0.47348	5.17555	-0.31593
3099.440	5.94033	-0.34948	5.17243	-0.34511
3103.446	5.96588	-0.28745	5.16950	-0.39059
3107.444	5.85062	-0.39064	5.19455	-0.41030
3111.441	5.89637	-0.47504	5.13318	-0.33087
3115.436	5.89719	-0.44177	5.13865	-0.36913
3119.440	5.82994	-0.38559	5.18505	-0.43820
3123.442	5.83230	-0.40242	5.14727	-0.37271
3127.445	5.85745	-0.43804	5.10672	-0.39934
3131.437	5.86894	-0.40781	5.13158	-0.57610
3135.439	5.80388	-0.42728	5.08724	-0.47623
3139.439	5.84193	-0.32640	5.13690	-0.53197
3143.440	5.79106	-0.41590	5.16548	-0.51188
3147.445	5.82820	-0.40764	5.19369	-0.62534
3151.444	5.86840	-0.34423	5.17548	-0.60910
3155.441	5.83073	-0.31778	5.20396	-0.58103
3159.444	5.91047	-0.30936	5.31443	-0.56990
3163.444	6.19559	-0.33259	6.40359	-0.52488
3167.436	7.67097	-0.38819	7.54581	-0.59100
3171.565	8.72255	-0.37012	8.74772	-0.67228
3175.444	8.98322	-0.47522	9.19703	-0.75702
3179.447	9.45916	-0.48325	9.21075	-0.78796
3183.441	9.67251	-0.49674	9.48099	-1.04635
3187.445	9.52265	-0.53440	9.53767	-1.02851
3191.438	9.33292	-0.52386	9.40914	-1.07022
3195.438	9.46667	-0.46263	9.25091	-1.09019
3199.438	9.24346	-0.47965	9.30184	-1.17019
3203.439	9.21621	-0.52752	9.28707	-1.10908
3207.434	9.10412	-0.57810	9.30892	-1.19912
3211.439	9.20240	-0.60357	9.20235	-1.21991
3215.438	9.20456	-0.60447	9.11281	-1.19348
3219.442	9.24636	-0.64649	9.07479	-1.18488
3223.435	9.25569	-0.68234	9.12270	-1.21405
3227.443	9.23164	-0.71844	9.20417	-1.19366
3231.449	9.23865	-0.84597	9.25514	-1.22713
3235.436	9.22641	-0.86478	9.20465	-1.29102
3239.437	9.21933	-0.94984	9.25403	-1.28408
3243.483	9.26599	-1.02658	9.32702	-1.33915
3247.438	9.28369	-1.08882	9.30590	-1.38797
3251.444	9.31856	-1.08454	9.31455	-1.45891
3255.438	9.34031	-1.09879	9.28033	-1.46998
3259.442	9.34771	-1.19930	9.26952	-1.47299
3263.439	9.36293	-1.21136	9.29696	-1.46555
3267.439	9.36182	-1.24665	9.31605	-1.41244
3271.444	9.35778	-1.17763	9.31559	-1.42516
3275.433	9.37192	-1.22150	9.16092	-1.31707
3279.458	9.40165	-1.23036	9.17382	-1.23979
3283.441	9.40810	-1.28341	9.04219	-1.28543
3287.443	9.45435	-1.13285	9.13475	-1.23257
3291.439	9.55435	-1.13049	9.10869	-1.22074
3295.437	9.55748	-1.17592	9.06978	-1.26022
3299.432	9.69880	-1.15784	9.07424	-1.27266
3303.436	9.70912	-1.17008	9.01518	-1.24446
3307.437	9.71380	-1.11490	9.06925	-1.22208
3311.449	9.70733	-1.10865	9.18799	-1.16015
3315.442	9.80438	-1.17324	9.13231	-1.20710
3319.443	9.82997	-1.20817	9.00101	-1.27900
3323.441	9.78284	-1.14646	8.96138	-1.23456
3327.439	9.49431	-1.13093	8.86720	-1.24222
3331.439	7.05332	-1.08733	7.42912	-1.17881
3335.436	5.51818	-1.00662	6.48181	-0.98870
3339.440	2.71478	-0.93084	3.62215	-0.99020
3343.437	0.89835	-0.62046	2.14124	-0.89807
3347.438	-0.70188	-0.52431	0.67074	-0.81353
3351.444	-2.43486	-0.62176	-0.88872	-0.56536
3355.442	-3.97442	-0.43998	-2.96059	-0.69166
3359.437	-6.72773	-0.28520	-4.99044	-0.36511
3363.434	-7.68518	-0.13815	-7.10800	-0.41842
3367.436	-9.44832	-0.04375	-7.94005	-0.12751
3371.438	-9.76878	-0.08226	-8.83280	0.05375
3375.440	-10.00420	0.00465	-8.91476	0.06505
3379.442	-9.80108	0.15512	-8.84755	-0.02789
3383.438	-9.78645	0.25357	-8.55610	0.29983
3387.435	-9.61554	0.12931	-8.86430	0.33644
3391.436	-9.72103	0.22006	-8.99937	0.34279
3395.443	-9.76081	0.32860	-9.29111	0.37302
3399.440	-9.88217	0.35917	-9.40649	0.41121
3403.433	-9.94794	0.40193	-9.01101	0.53626
3407.441	-9.83958	0.26112	-9.34498	0.50472
3411.438	-10.01915	0.27981	-9.56533	0.49837
3415.437	-9.89287	0.32408	-9.57937	0.50092
3419.439	-9.91900	0.44037	-9.39354	0.41593
3423.438	-9.99051	0.33781	-9.61045	0.72130
3427.433	-9.91450	0.46710	-9.49663	0.58843
3431.441	-9.91031	0.33719	-9.59387	0.53998
3435.462	-9.91413	0.43262	-9.68768	0.59567
3439.443	-9.96581	0.43583	-9.68553	0.46165
3443.433	-9.98800	0.52421	-9.71042	0.38833
3447.434	-9.71486	0.38022	-9.66002	0.31512
3451.440	-10.04090	0.57974	-9.75324	0.45039
3455.438	-9.82094	0.54602	-9.71857	0.32479
3459.438	-9.73414	0.63562	-9.59952	0.26005
3463.435	-9.79571	0.61896	-9.70912	0.38309
3467.439	-9.76789	0.60605	-9.69470	0.45977
3471.435	-9.69528	0.53558	-9.69832	0.39388
3475.434	-9.81050	0.60125	-9.72725	0.37955
3479.443	-9.84156	0.61157	-9.76534	0.48429
3483.434	-9.83944	0.62174	-9.66923	0.35742
3487.434	-9.83093	0.74756	-9.71447	0.37040
3491.439	-9.73701	0.63535	-9.79284	0.37276
3495.436	-9.77283	0.58604	-9.75786	0.31959
3499.434	-9.80744	0.65101	-9.83660	0.42868
3503.431	-9.78838	0.61503	-9.81915	0.47904
3507.438	-9.81134	0.61109	-9.88181	0.41687
3511.433	-9.83672	0.64759	-9.87382	0.31654
3515.436	-9.91782	0.70544	-9.94147	0.35639
3519.443	-9.80103	0.69580	-9.97570	0.35300
3523.438	-9.85026	0.79461	-9.98449	0.23964
3527.439	-9.85235	0.70467	-10.05416	0.23998
3531.434	-9.94185	0.72482	-10.05517	0.25639
3535.438	-9.87873	0.64360	-10.01539	0.11535
3539.433	-9.93744	0.64669	-10.02242	0.21526
3543.435	-9.96889	0.67467	-10.01390	0.20139
3547.436	-9.84886	0.65538	-10.01657	0.06294
3551.432	-10.01874	0.66595	-10.01125	0.08592
3555.438	-10.03739	0.66677	-9.95827	0.12945
3559.434	-10.03534	0.57185	-9.98473	0.02523
3563.449	-10.05430	0.69585	-9.94621	0.01586
3567.432	-10.14343	0.62620	-9.97587	0.11015
3571.434	-10.00396	0.58017	-9.90739	0.00470
3575.435	-9.92109	0.62087	-9.94257	0.07362
3579.440	-10.07911	0.62302	-9.96853	0.00656
3583.439	-10.11736	0.74517	-9.99773	0.03818
3587.432	-9.91840	0.76501	-10.07064	0.13608
3591.437	-9.91654	0.76729	-10.04076	0.12131
3595.431	-10.16382	0.80957	-9.95911	0.15703
3599.439	-10.09686	0.82273	-10.04742	0.22833
3603.440	-9.70733	0.82510	-10.01108	0.28007
3607.436	-10.08897	0.75851	-10.06602	0.32690
3611.433	-10.11348	0.86546	-10.09198	0.45567
3615.434	-10.09638	0.90131	-10.13205	0.39270
3619.432	-10.13992	0.81467	-10.10776	0.37695
3623.433	-10.08423	0.84612	-10.08852	0.34769
3627.434	-10.12553	0.77836	-10.03958	0.35442
3631.312	-10.11692	0.75786	-10.00102	0.40815
3635.306	-10.15567	0.76237	-9.97149	0.32941
3639.314	-10.08743	0.78398	-10.05618	0.32502
3643.308	-10.07427	0.73893	-10.00750	0.26025
3647.308	-10.03712	0.58178	-10.00495	0.25983
3651.313	-9.99770	0.72129	-10.06535	0.29556
3655.307	-10.01871	0.81397	-10.00940	0.21265
3659.340	-9.96906	0.68884	-10.01106	0.23274
3663.312	-9.92449	0.50505	-10.04692	0.22175
3667.309	-9.90669	0.71295	-10.00545	0.22472
3671.306	-9.94291	0.83300	-10.09513	0.16577
3675.310	-9.93244	0.96143	-10.08606	0.15362
3679.309	-9.94161	0.69663	-10.03558	0.10221
3683.304	-9.90874	0.52571	-10.05553	0.12726
3687.310	-9.93419	0.64934	-10.03609	0.06952
3691.314	-10.02666	0.88123	-10.02528	0.03022
3695.309	-10.00100	0.94958	-10.06660	0.11149
3699.303	-9.93814	0.77318	-10.00928	0.02550
3703.310	-10.06804	0.73170	-9.95661	0.05725
3707.305	-10.13323	0.80334	-9.97486	-0.04310
3711.305	-10.18904	0.81435	-9.93985	-0.00431
3715.310	-10.17262	0.86540	-9.90212	0.05008
3719.307	-10.14335	0.75787	-9.93530	0.03091
3723.305	-10.22454	0.79118	-9.90402	0.13417
3727.307	-10.24613	0.85134	-9.92885	0.06991
3731.307	-10.16449	0.85796	-9.95129	0.09562
3735.306	-10.17885	0.79498	-10.01003	0.14039
3739.314	-10.21344	0.80991	-10.11983	0.11661
3743.308	-10.27936	0.85956	-10.00658	0.24209
3747.309	-10.17784	0.82120	-10.05459	0.23755
3751.303	-10.06528	0.68885	-10.03732	0.17028
3755.309	-10.13085	0.65961	-10.07269	0.13204
3759.305	-10.09936	0.66637	-10.19849	0.33581
3763.305	-10.23622	0.73826	-10.18899	0.43690
3767.303	-10.04480	0.72033	-10.15797	0.35554
3771.310	-10.11858	0.71510	-10.20207	0.28420
3775.310	-10.49457	0.87529	-10.35296	0.48206
3779.305	-11.12825	0.91620	-11.42287	0.71474
3783.344	-12.69974	2.02759	-12.25988	1.30777
3787.304	-13.16722	2.69971	-12.64106	1.45406
3791.311	-12.96402	2.74566	-12.74279	1.75923
3795.305	-12.50524	2.68489	-12.22132	1.91955
3799.308	-12.54951	2.69582	-12.20785	1.84604
3803.305	-12.45035	2.77902	-12.20039	1.91441
3807.310	-12.58486	2.72031	-12.27680	1.93690
3811.304	-12.69875	2.74790	-12.30135	2.08917
3815.314	-12.50172	2.70407	-12.25019	2.06814
3819.307	-12.47808	2.68296	-12.30213	1.94115
3823.309	-12.61318	2.72613	-12.30566	2.02115
3827.305	-12.48509	2.60607	-12.24908	2.09948
3831.309	-12.44266	2.54710	-12.13847	2.12867
3835.302	-12.43772	2.58301	-12.13614	2.19060
3839.307	-12.36116	2.41270	-12.07106	2.11727
3843.305	-12.37103	2.48050	-12.13467	2.15182
3847.305	-12.36277	2.48816	-12.14767	2.13245
3851.304	-12.32411	2.33399	-12.11121	2.07992
3855.307	-12.31713	2.27673	-12.08772	1.98629
3859.311	-12.38481	2.24384	-12.10336	1.98272
3863.302	-12.43504	2.18070	-12.15611	2.08979
3867.338	-12.35003	2.20393	-12.15535	2.13028
3871.304	-12.36071	2.27640	-12.13247	2.04062
3875.303	-12.41791	2.40033	-12.21300	2.06443
3879.306	-12.39179	2.33624	-12.23839	2.08240
3883.303	-12.35912	2.41401	-12.31926	2.07080
3887.305	-12.48010	2.49951	-12.27517	2.03872
3891.300	-12.47688	2.52773	-12.26263	2.04964
3895.306	-12.47785	2.54590	-12.26221	2.05684
3899.310	-12.52468	2.59986	-12.33743	2.08971
3903.302	-12.49706	2.56736	-12.33290	2.07156
3907.306	-12.59930	2.65934	-12.25088	1.98165
3911.322	-12.46469	2.63771	-12.29386	1.97412
3915.305	-12.46509	2.58199	-12.29287	1.94646
3919.341	-12.42529	2.56216	-12.28164	1.92644
3923.311	-12.40138	2.56978	-12.26595	1.85376
3927.302	-12.53410	2.53712	-12.30467	1.86052
3931.302	-12.46166	2.54446	-12.32179	1.83436
3935.307	-12.42056	2.42473	-12.37958	1.79096
3939.303	-12.42425	2.39233	-12.35220	1.76547
3943.309	-12.32648	2.25015	-12.26472	1.75579
3947.304	-12.39168	2.41887	-12.23395	1.71043
3951.306	-12.32030	2.40617	-12.25168	1.75602
3955.302	-12.37676	2.45588	-12.16449	1.77466
3959.306	-12.46505	2.38655	-12.10801	1.79821
3963.298	-12.65248	2.41628	-12.13761	1.74625
3967.306	-12.49524	2.25645	-12.07654	1.72268
3971.303	-12.51934	2.33357	-12.06304	1.77164
3975.305	-12.53116	2.38979	-12.02691	1.79395
3979.304	-12.57039	2.23853	-11.98662	1.76501
3983.305	-12.57964	2.19665	-11.93864	1.85987
3987.340	-12.54554	2.24463	-11.90842	1.87725
3991.308	-12.46394	2.22438	-11.92581	1.89505
3995.305	-12.49446	2.14396	-11.95976	1.95064
3999.302	-12.55266	2.17876	-11.96220	1.91388
4003.302	-12.53019	2.16713	-11.97401	1.98322
4007.299	-12.47929	2.15435	-11.96935	2.00899
4011.306	-12.44323	2.28997	-11.92524	2.01847
4015.303	-12.47106	2.19106	-11.94311	1.90972
4019.305	-12.42065	2.18419	-11.95617	1.91339
4023.305	-12.39849	2.25775	-11.96059	1.97615
4027.311	-12.38886	2.32859	-12.01839	1.98250
4031.301	-12.44801	2.32217	-12.01397	1.98894
4035.334	-12.36246	2.27837	-11.96852	1.95043
4039.308	-12.34427	2.34173	-11.96923	1.92692
4043.303	-12.29455	2.40866	-12.00457	1.90489
4047.303	-12.23144	2.34764	-12.03918	1.86566
4051.298	-12.32644	2.26671	-12.02143	1.90873
4055.322	-12.36125	2.39184	-12.08705	2.02015
4059.308	-12.43331	2.39285	-12.07225	1.95703
4063.301	-12.35320	2.41421	-12.16342	2.02423
4067.308	-12.33854	2.33010	-12.11992	1.98066
4071.297	-12.36608	2.24090	-12.11574	1.87304
4075.303	-12.25405	2.28620	-12.10926	1.92143
4079.302	-12.30988	2.40360	-12.13920	1.81892
4083.298	-12.26209	2.34683	-12.13859	1.90748
4087.304	-12.33844	2.30531	-12.08817	1.93080
4091.301	-12.35486	2.23668	-12.09398	1.82564
4095.300	-12.38578	2.44668	-12.10568	1.83816
4099.297	-12.40074	2.41113	-12.05777	1.81829
4103.299	-12.33380	2.38860	-12.22784	1.80614
4107.305	-12.34572	2.41725	-12.05858	1.85739
4111.299	-12.19640	2.44602	-11.69659	1.85565
4115.303	-11.31333	2.29087	-10.58205	1.98974
4119.300	-10.69251	2.05146	-9.73646	1.90183
4123.324	-10.11522	1.79851	-8.62964	1.74476
4127.301	-8.43620	1.62638	-7.72059	1.26482
4131.302	-6.96915	1.52368	-6.18279	1.11078
4135.301	-6.66467	1.34540	-5.87410	0.89020
4139.297	-6.45324	1.28995	-5.09662	0.67136
4143.296	-5.73043	1.13470	-4.74126	0.50418
4147.297	-5.61018	1.05932	-5.12619	0.34276
4151.310	-5.31878	1.04559	-5.16314	0.18220
4155.303	-5.29964	0.95407	-5.37987	0.11712
4159.303	-5.52359	0.81260	-5.04784	0.16126
4163.296	-5.56652	0.87626	-5.06156	0.33920
4167.301	-5.62394	0.86755	-4.91238	0.22661
4171.298	-5.39234	0.74829	-5.03314	0.37684
4175.294	-5.48890	0.80070	-4.97258	0.18138
4179.302	-5.39022	0.69749	-4.87397	0.09361
4183.299	-5.27752	0.71964	-4.93785	0.09522
4187.297	-5.32555	0.71946	-4.81532	0.17959
4191.303	-5.33342	0.73226	-4.76197	0.49476
4195.305	-5.17969	0.67474	-4.69768	0.10055
4199.297	-5.27117	0.68144	-4.73061	0.17825
4203.298	-5.30877	0.76715	-4.71728	0.13232
4207.292	-5.17969	0.67810	-4.70187	0.27336
4211.296	-5.14825	0.69798	-4.58091	0.18211
4215.298	-5.17425	0.54516	-4.57586	0.14812
4219.302	-5.17599	0.57987	-4.59009	0.15419
4223.328	-5.17476	0.55369	-4.58313	0.16375
4227.312	-5.23529	0.54104	-4.57406	0.12474
4231.310	-5.31182	0.49746	-4.62673	0.01773
4235.298	-5.35930	0.45796	-4.65829	-0.05758
4239.301	-5.28301	0.65377	-4.70281	-0.03891
4243.295	-5.37037	0.82129	-4.74143	-0.07843
4247.295	-5.39035	0.74800	-4.73722	-0.00981
4251.300	-5.30225	0.62105	-4.79615	0.06723
4255.297	-5.33886	0.54553	-4.78565	-0.12733
4259.318	-5.36900	0.67696	-4.82917	-0.24129
4263.300	-5.35008	0.78189	-4.84004	-0.11033
4267.296	-5.38363	0.78427	-4.86988	-0.15836
4271.297	-5.38422	0.73769	-4.87850	-0.24333
4275.305	-5.31411	0.82649	-4.90454	-0.26892
4279.311	-5.24102	0.91050	-4.88419	-0.20131
4283.298	-5.29674	0.83024	-4.82870	-0.15825
4287.311	-5.31357	0.82565	-4.76970	-0.14095
4291.299	-5.26763	0.85995	-4.61267	-0.08865
4295.297	-5.28411	0.85139	-4.62335	-0.14821
4299.296	-5.26450	0.85119	-4.71501	-0.15151
4303.294	-5.25407	0.80138	-4.60646	-0.06863
4307.300	-5.25660	0.69153	-4.58848	-0.08417
4311.299	-5.20248	0.52734	-4.58947	-0.05717
4315.304	-5.17503	0.58965	-4.62831	-0.09702
4319.298	-5.21378	0.52966	-4.59048	-0.11491
4323.298	-5.20543	0.39656	-4.64633	-0.03584
4327.476	-5.24577	0.39641	-4.69406	-0.09198
4331.297	-5.23081	0.40483	-4.71679	-0.17699
4335.298	-5.26113	0.31831	-4.73601	-0.08504
4339.294	-5.22749	0.33288	-4.74449	-0.07645
4343.300	-5.27939	0.30373	-4.78844	-0.02427
4347.297	-5.24348	0.30473	-4.80243	-0.07037
4351.296	-5.35655	0.42954	-4.81310	-0.17172
4355.301	-5.32882	0.44519	-4.84474	-0.10989
4359.301	-5.34164	0.42332	-4.81224	-0.00500
4363.303	-5.34073	0.38452	-4.82377	-0.04415
4367.296	-5.34705	0.38106	-4.82148	-0.16917
4371.300	-5.33711	0.41976	-4.83092	-0.04435
4375.296	-5.36880	0.41150	-4.83553	-0.03375
4379.294	-5.31256	0.48016	-4.86320	-0.12207
4383.296	-5.23088	0.45808	-4.78156	-0.07632
4387.293	-4.86618	0.39073	-3.79477	-0.14616
4391.295	-3.20031	0.39527	-2.40003	-0.08568
4395.333	-2.51415	0.23730	-1.74521	-0.20007
4399.303	-1.79549	0.21193	-1.31382	-0.29667
4403.296	-1.48920	0.13176	-0.67776	-0.37445
4407.294	-0.78590	0.16086	-0.47520	-0.36201
4411.294	-1.13325	0.19234	-0.56853	-0.36332
4415.302	-1.38235	0.13420	-0.57245	-0.32558
4419.296	-1.33120	0.19904	-0.81952	-0.33682
4423.297	-1.27066	0.07070	-1.21660	-0.34311
4427.293	-1.28412	0.02343	-0.92686	-0.31624
4431.294	-1.19381	0.07553	-0.89269	-0.26210
4435.291	-1.21315	0.08814	-0.97157	-0.31643
4439.303	-1.26525	0.09721	-0.85099	-0.29530
4443.297	-1.27413	0.09719	-0.95641	-0.37156
4447.297	-1.23268	0.20342	-0.96365	-0.29750
4451.289	-1.29107	0.18230	-0.95065	-0.33104
4455.298	-1.34031	0.19136	-1.12534	-0.31219
4459.293	-1.32706	0.20192	-1.11437	-0.31224
4463.306	-1.33435	0.22688	-0.92138	-0.28948
4467.295	-1.32349	0.23548	-0.98995	-0.34006
4471.290	-1.36712	0.29050	-0.96614	-0.34547
4475.307	-1.40656	0.27336	-1.00913	-0.37074
4479.295	-1.36903	0.28841	-0.97559	-0.35899
4483.303	-1.35693	0.27187	-0.93991	-0.48008
4487.172	-1.33155	0.27923	-0.91083	-0.46344
4491.166	-1.32622	0.29908	-0.91354	-0.46026
4495.169	-1.31022	0.25014	-0.90862	-0.35149
4499.171	-1.20795	0.20247	-0.86448	-0.35870
4503.163	-1.15208	0.19962	-0.90890	-0.38903
4507.178	-1.17845	0.10906	-0.88294	-0.31741
4511.173	-1.14432	0.01699	-0.89046	-0.35877
4515.168	-1.21268	0.04104	-0.93775	-0.37790
4519.165	-1.15697	0.07237	-0.92641	-0.33554
4523.171	-1.16009	0.17870	-1.00464	-0.31032
4527.170	-1.20425	0.06211	-0.86096	-0.26131
4531.175	-1.22464	0.12859	-1.02573	-0.34683
4535.169	-1.19703	0.06246	-1.06671	-0.21602
4539.172	-1.26582	0.06355	-1.09648	-0.28936
4543.170	-1.29410	0.11279	-1.09567	-0.30034
4547.165	-1.27103	0.23164	-1.05624	-0.16291
4551.166	-1.31168	0.16046	-1.06255	-0.31056
4555.171	-1.29442	0.20677	-1.05389	-0.27379
4559.167	-1.25463	0.26406	-1.07949	-0.20358
4563.170	-1.26946	0.33272	-1.13720	-0.18829
4567.165	-1.27395	0.30837	-1.04515	-0.22365
4571.171	-1.21824	0.28826	-1.08492	-0.04758
4575.171	-1.21154	0.28418	-1.07875	-0.17824
4579.164	-1.20742	0.34150	-1.03086	-0.18756
4583.170	-1.20819	0.34701	-0.98179	-0.12540
4587.165	-1.21058	0.32515	-0.99516	-0.15332
4591.166	-1.18292	0.33025	-1.04071	-0.18972
4595.164	-1.20192	0.35533	-0.99077	-0.19287
4599.202	-1.22439	0.39081	-1.01218	-0.13334
4603.172	-1.24652	0.38300	-0.99834	-0.20182
4607.168	-1.22648	0.27449	-0.97234	-0.21372
4611.170	-1.15707	0.25949	-0.95333	-0.24262
4615.176	-1.17741	0.29248	-0.94100	-0.23124
4619.167	-1.19247	0.15865	-0.89751	-0.16341
4623.170	-1.04441	0.15404	-0.91440	-0.18925
4627.195	-0.96162	0.14202	-0.85419	-0.19283
4631.170	-0.68002	0.21334	-0.44291	-0.18470
4635.164	0.46348	0.18070	0.92961	-0.25800
4639.165	1.38265	0.20355	1.57205	-0.15093
4643.164	1.45326	0.17197	2.20307	-0.27890
4647.167	1.84627	0.12296	2.59507	-0.19132
4651.179	2.91945	0.18223	3.07313	-0.36944
4655.170	2.33943	0.24836	3.02017	-0.38457
4659.173	2.36842	0.18991	3.03893	-0.45965
4663.165	2.41957	0.21110	2.82734	-0.48299
4667.192	2.54279	0.22230	2.81664	-0.52389
4671.169	2.58019	0.29831	2.57974	-0.58605
4675.167	2.64106	0.26781	2.45755	-0.70240
4679.166	2.64081	0.27263	2.64965	-0.71394
4683.166	2.69990	0.24414	2.75886	-0.78646
4687.167	2.65857	0.32780	2.72961	-0.69366
4691.159	2.69351	0.30597	2.75430	-0.74579
4695.173	2.64899	0.23894	2.74846	-0.71549
4699.165	2.65661	0.19615	2.81387	-0.69758
4703.165	2.68353	0.18845	2.81154	-0.67361
4707.162	2.70983	0.14319	2.76881	-0.60569
4711.168	2.71520	0.11036	2.68517	-0.56200
4715.165	2.69143	-0.04063	2.65357	-0.60925
4719.167	2.67496	-0.14305	2.67494	-0.61680
4723.161	2.66885	-0.00650	2.70985	-0.61766
4727.166	2.67212	-0.02579	2.59034	-0.54531
4731.163	2.65956	-0.06908	2.76832	-0.59685
4735.194	2.68011	-0.00258	2.78307	-0.59796
4739.172	2.71293	0.00546	2.77993	-0.54607
4743.163	2.72107	-0.04436	2.78372	-0.51889
4747.162	2.77230	-0.09556	2.70760	-0.63359
4751.168	2.74242	-0.15213	2.72318	-0.61182
4755.162	2.71884	-0.15585	2.85975	-0.64021
4759.167	2.72788	0.05466	2.78382	-0.56632
4763.162	2.73145	0.05376	2.76381	-0.51334
4767.167	2.70168	0.00581	2.67922	-0.56128
4771.163	2.69629	0.06893	2.71619	-0.59338
4775.167	2.69393	0.08638	2.68588	-0.57746
4779.169	2.69740	0.03631	2.71320	-0.61205
4783.162	2.67719	0.01484	2.60032	-0.62684
4787.185	2.71399	-0.00253	2.65656	-0.61123
4791.170	2.70094	0.02765	2.69059	-0.54053
4795.163	2.72843	-0.01665	2.69777	-0.50925
4799.168	2.68093	-0.03852	2.54511	-0.51175
4803.167	2.63130	-0.03996	2.58722	-0.54879
4807.162	2.70562	-0.08405	2.60914	-0.61396
4811.162	2.75571	-0.03989	2.68103	-0.54078
4815.162	2.80617	-0.07682	2.67828	-0.57682
4819.173	2.76678	-0.04721	2.65191	-0.67631
4823.167	2.78052	-0.05758	2.76621	-0.75452
4827.162	2.81060	-0.07796	2.79359	-0.79591
4831.161	2.74120	-0.05349	2.86777	-0.78959
4835.162	2.77711	-0.05748	2.85138	-0.86220
4839.164	2.82429	-0.03544	2.79813	-0.84502
4843.166	2.88364	0.00921	2.79095	-0.73763
4847.158	2.88715	0.02727	2.75309	-0.89776
4851.161	2.88638	0.07880	2.71978	-0.88592
4855.164	2.89594	0.11128	2.71711	-0.89463
4859.157	2.83997	0.05480	2.91507	-0.79265
4863.168	2.81219	0.05324	2.76812	-0.83886
4867.163	2.84343	0.10317	2.89047	-0.72898
4871.177	2.85616	0.18194	2.93809	-0.66944
4875.164	2.92587	0.22067	2.91116	-0.73402
4879.161	2.89119	0.16953	2.72699	-0.69746
4883.162	2.84898	0.07781	2.78307	-0.76436
4887.161	2.82174	0.14790	2.82026	-0.75101
4891.158	2.83026	0.19624	2.95245	-0.76997
4895.160	2.83917	0.13467	2.93916	-0.78395
4899.155	2.76062	0.07081	3.02341	-0.82954
4903.171	2.77376	0.06304	2.92851	-0.97711
4907.161	2.76789	0.06466	2.89366	-0.84743
4911.180	2.77438	0.06902	2.82026	-0.96743
4915.168	2.86334	-0.00347	2.82957	-1.00829
4919.159	2.81122	-0.08300	2.77973	-1.00766
4923.161	2.82192	-0.06334	2.79208	-1.03127
4927.159	2.90406	-0.05008	2.83229	-1.01848
4931.169	2.88262	-0.06487	2.80956	-0.98868
4935.165	2.90975	-0.03986	2.75299	-1.01828
4939.164	2.88393	-0.03929	2.74417	-0.98263
4943.162	2.92057	-0.01965	2.69822	-1.01058
4947.162	2.96866	0.03449	2.68237	-0.95680
4951.160	3.00599	-0.00504	2.70589	-0.97390
4955.162	3.01220	-0.04169	2.72919	-0.92664
4959.163	2.95054	-0.08423	2.73155	-0.90941
4963.155	2.91822	-0.04375	2.68068	-0.89148
4967.159	2.85985	-0.02695	2.65109	-0.90131
4971.161	2.78674	-0.05033	2.63229	-0.88849
4975.172	2.74816	-0.02202	2.61778	-0.90505
4979.162	2.73056	-0.04895	2.57942	-0.94015
4983.158	2.75373	-0.08923	2.62647	-0.95610
4987.164	2.08079	-0.08572	2.55995	-0.93155
4991.165	-0.39229	-0.03220	0.18087	-0.89370
4995.161	-2.38920	0.02001	-0.97060	-0.89767
4999.161	-4.32829	0.03796	-3.39282	-0.78145
5003.157	-5.71011	0.14816	-4.30149	-0.25743
5007.160	-7.89267	0.23193	-6.28570	0.32107
5011.162	-9.03868	0.19625	-7.32978	0.14132
5015.163	-10.21632	0.26976	-9.70022	0.54274
5019.157	-10.75775	0.32695	-10.14557	0.39339
5023.164	-12.49287	0.38048	-10.94925	0.35856
5027.164	-12.61965	0.64436	-11.53382	0.42697
5031.168	-12.30156	0.67372	-11.30708	0.34435
5035.158	-12.24144	0.79805	-11.41063	0.38276
5039.166	-12.02632	0.82054	-11.38934	0.38637
5043.158	-12.01931	0.85181	-11.48647	0.44779
5047.158	-12.07991	0.89456	-11.41538	0.44157
5051.163	-12.21542	0.97545	-11.53086	0.45303
5055.160	-12.10777	0.99491	-11.61973	0.47771
5059.162	-12.15277	1.00144	-11.73692	0.47464
5063.187	-12.13363	1.00079	-11.62735	0.45842
5067.163	-12.07061	1.02736	-11.76507	0.53504
5071.163	-12.00611	0.98826	-11.71832	0.48554
5075.211	-11.96790	0.98974	-11.70273	0.61406
5079.163	-11.92180	0.96645	-11.65173	0.64418
5083.158	-12.01072	1.02640	-11.66594	0.67035
5087.157	-12.06582	1.05449	-11.65670	0.71468
5091.161	-12.02684	1.01832	-11.55261	0.75991
5095.159	-11.85297	1.03360	-11.58679	0.83307
5099.158	-11.82932	1.05249	-11.59606	0.71756
5103.157	-11.85003	1.15894	-11.52436	0.68836
5107.159	-11.79315	1.11475	-11.51287	0.67381
5111.162	-11.77753	1.19577	-11.46916	0.63559
5115.155	-11.85666	1.15293	-11.41702	0.60891
5119.162	-11.77755	1.08851	-11.46194	0.69273
5123.158	-11.71765	1.12871	-11.48725	0.71119
5127.161	-11.68695	1.16797	-11.52078	0.71488
5131.154	-11.69488	1.09696	-11.58165	0.71860
5135.161	-11.67248	1.13285	-11.57422	0.72395
5139.156	-11.72324	1.16225	-11.57746	0.70707
5143.175	-11.78954	1.23294	-11.54916	0.80329
5147.160	-11.77080	1.23494	-11.51144	0.78480
5151.150	-11.77165	1.21160	-11.49598	0.81876
5155.166	-11.82019	1.20963	-11.47612	0.86493
5159.157	-11.76416	1.31157	-11.51721	0.87802
5163.156	-11.81598	1.35031	-11.51938	0.85581
5167.156	-11.81988	1.35892	-11.50601	0.86888
5171.157	-11.86533	1.37581	-11.47055	0.92689
5175.160	-11.84836	1.41019	-11.40610	0.90075
5179.161	-11.88145	1.46292	-11.40603	0.80567
5183.157	-11.86348	1.45101	-11.42437	0.89448
5187.155	-11.83360	1.43515	-11.48192	0.81817
5191.153	-11.88620	1.43300	-11.51516	0.87029
5195.166	-11.96087	1.47568	-11.49185	0.89519
5199.159	-11.93023	1.47485	-11.53529	0.84119
5203.158	-11.94289	1.49135	-11.51137	0.88892
5207.154	-11.92211	1.51300	-11.51368	0.85985
5211.196	-11.91341	1.53515	-11.59475	0.82453
5215.162	-11.86883	1.46355	-11.57453	0.80261
5219.156	-11.87370	1.41309	-11.60947	0.77698
5223.155	-11.79463	1.38720	-11.67136	0.80357
5227.157	-11.84235	1.34639	-11.71663	0.82916
5231.160	-11.91027	1.37884	-11.73007	0.84585
5235.158	-11.86892	1.34995	-11.76787	0.85240
5239.164	-11.84292	1.34167	-11.73485	0.84340
5243.157	-11.87391	1.29600	-11.79874	0.79727
5247.154	-11.83602	1.24503	-11.85497	0.73090
5251.161	-11.84506	1.15393	-11.86745	0.66166
5255.156	-11.87489	1.08678	-11.81753	0.73350
5259.155	-11.89174	1.08205	-11.90369	0.77462
5263.159	-11.87173	1.03930	-11.89678	0.83775
5267.157	-11.94714	0.95803	-11.87035	0.80443
5271.157	-11.84009	1.10190	-11.85575	0.81493
5275.155	-11.75945	1.14818	-11.69105	0.75595
5279.161	-10.34641	1.09508	-9.50284	0.90501
5283.177	-8.16613	0.97548	-7.71033	0.71336
5287.160	-7.20050	1.11497	-5.37702	0.77161
5291.156	-5.07148	1.00084	-3.80658	0.55547
5295.154	-3.82227	0.99275	-2.18964	0.41996
5299.153	-1.75272	1.01354	0.37889	0.25827
5303.155	0.17067	1.10987	2.04394	0.05426
5307.158	2.28435	0.99926	3.54571	0.06540
5311.149	3.43585	0.98281	4.50022	0.02792
5315.152	5.38644	0.89361	6.29082	0.09329
5319.169	6.43604	0.84331	7.43569	-0.02853
5323.154	7.10851	0.97952	8.35252	0.01775
5327.153	7.39913	0.97591	8.47197	-0.03842
5331.151	7.31394	0.90895	8.51870	-0.08874
5335.157	7.31316	1.10045	8.14604	-0.01309
5339.149	7.26334	0.99836	8.27683	-0.01276
5343.033	7.36869	1.06960	8.23325	-0.03224
5347.027	7.46275	0.95033	8.41102	-0.00779
5351.040	7.53810	1.04889	8.45242	0.01485
5355.027	7.56618	1.00876	8.44871	0.06037
5359.033	7.56027	1.16782	8.34754	0.08652
5363.030	7.65990	1.15876	8.56042	0.02069
5367.033	7.73675	1.02211	8.56826	0.03428
5371.027	7.69120	1.02661	8.52163	0.06274
5375.028	7.72325	1.03864	8.43423	0.10675
5379.031	7.82983	1.16491	8.45356	0.15190
5383.027	7.84691	1.12286	8.48289	0.18222
5387.028	7.94973	0.92547	8.57571	0.16224
5391.029	8.04842	0.99921	8.54792	0.23534
5395.027	7.94316	1.06016	8.44127	0.33419
5399.022	8.00912	1.19385	8.40494	0.37974
5403.028	7.99691	0.98074	8.48704	0.34132
5407.031	8.02920	1.08193	8.37825	0.32396
5411.027	8.00462	1.02271	8.44307	0.40028
5415.066	7.94535	1.21765	8.33603	0.42746
5419.044	7.91935	1.14874	8.31246	0.46938
5423.026	7.93255	0.96005	8.34375	0.46260
5427.032	8.01788	1.00526	8.40684	0.46791
5431.022	7.89405	1.09992	8.42510	0.45970
5435.027	7.94121	1.17483	8.38699	0.48986
5439.026	7.97339	0.98079	8.35073	0.47054
5443.032	8.02733	1.17943	8.43168	0.40356
5447.025	7.97600	1.11277	8.42109	0.46372
5451.031	8.00243	1.09132	8.35809	0.48100
5455.026	8.16800	1.02583	8.25904	0.48215
5459.031	8.03129	1.05919	8.37346	0.51363
5463.022	8.09070	1.15421	8.34876	0.37768
5467.026	8.11223	1.13733	8.29368	0.48506
5471.029	8.12940	1.08271	8.18429	0.54683
5475.029	8.15231	1.04341	8.23318	0.49079
5479.056	8.06334	1.06858	8.19572	0.53607
5483.046	8.09455	1.06636	8.26201	0.53895
5487.032	8.18745	1.16114	8.22854	0.87103
5491.030	8.34115	2.55523	8.51209	1.97329
5495.032	9.11576	4.14970	10.26958	3.91708
5499.026	10.20351	6.36354	11.16801	5.45680
5503.025	10.79030	7.49339	11.37049	7.29526
5507.024	11.52205	9.64914	12.22492	10.00620
5511.029	12.54110	10.71202	12.68623	12.06345
5515.025	13.14357	11.04297	13.07406	13.96456
5519.025	12.92828	12.90195	13.57996	14.46044
5523.020	11.96073	13.59150	NaN	NaN
5527.023	11.69195	13.67627	NaN	NaN
5531.023	12.04984	13.77369	NaN	NaN
5535.033	11.67391	13.69847	NaN	NaN
5539.031	12.06601	13.50676	NaN	NaN
5543.026	11.97983	13.50337	NaN	NaN
5547.023	12.08459	13.53643	NaN	NaN
5551.049	11.88480	13.75242	NaN	NaN
5555.023	11.96748	13.70396	NaN	NaN
5559.026	12.10554	13.68003	NaN	NaN
5563.027	12.00305	13.66697	NaN	NaN
5567.029	11.88347	13.78265	NaN	NaN
5571.020	11.95522	13.79293	NaN	NaN
5575.036	11.86084	13.80483	NaN	NaN
5579.025	11.98146	13.75456	NaN	NaN
5583.024	12.00464	13.74971	NaN	NaN
5587.025	12.00521	13.83794	NaN	NaN
5591.024	12.01119	13.86567	NaN	NaN
5595.028	11.92831	13.86494	NaN	NaN
5599.022	12.08164	13.81257	NaN	NaN
5603.026	12.00101	13.84207	NaN	NaN
5607.024	12.00998	13.84085	NaN	NaN
5611.019	12.07763	13.85543	NaN	NaN
5615.028	12.06612	13.83570	NaN	NaN
5619.026	12.17440	13.82046	NaN	NaN
5623.029	12.24393	13.79787	NaN	NaN
5627.019	12.21440	13.83350	NaN	NaN
5631.023	12.21340	13.81365	NaN	NaN
5635.038	12.29566	13.81296	NaN	NaN
5639.031	12.32471	13.78244	NaN	NaN
5643.020	12.27614	13.82771	NaN	NaN
5647.024	12.32636	13.82086	NaN	NaN
5651.023	12.25865	13.91721	NaN	NaN
5655.022	12.17971	13.89749	NaN	NaN
5659.024	12.11055	13.92188	NaN	NaN
5663.057	12.19669	13.95928	NaN	NaN
5667.028	12.11273	13.97285	NaN	NaN
5671.023	12.13159	13.95440	NaN	NaN
5675.023	12.19510	13.95714	NaN	NaN
5679.023	12.29190	13.95138	NaN	NaN
5683.027	12.19270	13.96802	NaN	NaN
5687.021	12.29801	13.98130	NaN	NaN
5691.029	12.36644	13.90396	NaN	NaN
5695.024	12.44044	13.86605	NaN	NaN
5699.031	12.43076	13.86757	NaN	NaN
5703.062	12.39428	13.84135	NaN	NaN
5707.026	12.51922	13.79008	NaN	NaN
5711.021	12.34834	13.75562	NaN	NaN
5715.026	11.70861	13.88229	NaN	NaN
5719.020	10.39527	13.94074	NaN	NaN
5723.022	10.11885	13.94949	NaN	NaN
5727.036	10.35865	13.97378	NaN	NaN
5731.025	10.99221	13.91670	NaN	NaN
5735.021	10.83405	13.98924	NaN	NaN
5739.020	10.20565	13.94297	NaN	NaN
5743.026	10.33975	13.87952	NaN	NaN
5747.016	10.35969	13.90680	NaN	NaN
5751.025	10.48970	13.96405	NaN	NaN
5755.020	10.11495	13.97449	NaN	NaN
5759.024	9.94635	13.97892	NaN	NaN
5763.025	9.98509	13.94552	NaN	NaN
5767.016	10.13792	13.95000	NaN	NaN
5771.019	10.20637	13.91801	NaN	NaN
5775.031	10.12577	13.95498	NaN	NaN
5779.023	7.77875	14.01130	NaN	NaN
5783.030	9.88333	13.95312	NaN	NaN
5787.027	9.75950	13.98890	NaN	NaN
5791.026	9.77785	13.99593	NaN	NaN
5795.022	9.79416	13.99573	NaN	NaN
5799.021	9.80766	13.98470	NaN	NaN
5803.020	9.92618	13.95040	NaN	NaN
5807.025	10.21916	13.93155	NaN	NaN
5811.021	10.39571	13.91562	NaN	NaN
5815.024	10.51911	13.89235	NaN	NaN
5819.018	10.04971	13.89790	NaN	NaN
5823.024	10.51163	13.87902	NaN	NaN
5827.024	10.60056	13.87928	NaN	NaN
5831.027	10.74623	13.86327	NaN	NaN
5835.020	10.80848	13.87209	NaN	NaN
5839.024	10.51549	13.79526	NaN	NaN
5843.018	9.75994	13.23945	10.74367	15.01417
5847.020	8.66942	11.34828	9.55432	12.71735
5851.037	7.49129	9.79726	9.14610	9.97006
5855.023	5.23347	7.25539	8.18217	7.48156
5859.019	4.87737	4.49728	6.28658	5.88194
5863.019	4.33962	2.36737	5.72544	3.82678
5867.023	3.86452	1.23770	5.20442	1.84376
5871.020	3.45754	0.57422	4.82104	0.71541
5875.019	2.79085	-0.53718	3.88441	-0.52602
5879.021	2.03633	-1.88617	3.27784	-0.76961
5883.015	1.70955	-2.02381	2.70800	-1.43974
5887.018	1.53190	-2.54914	2.18857	-2.26356
5891.018	1.42171	-2.65577	2.05551	-2.48915
5895.023	1.48101	-2.54702	1.93628	-2.44875
5899.015	1.47570	-2.29953	1.87941	-2.13052
5903.025	1.43453	-2.47956	1.74417	-2.18880
5907.024	1.41008	-2.36430	1.76110	-2.20986
5911.024	1.34891	-2.31121	1.63073	-2.35855
5915.024	1.31141	-2.35760	1.51174	-2.42210
5919.017	1.25996	-2.35609	1.46826	-2.48669
5923.021	1.21698	-2.34556	1.55680	-2.52583
5927.014	1.20777	-2.38121	1.47692	-2.60972
5931.016	1.20973	-2.34576	1.39954	-2.46997
5935.021	1.19395	-2.27000	1.35955	-2.52935
5939.018	1.17612	-2.26411	1.31878	-2.46073
5943.017	1.18066	-2.28929	1.27606	-2.52435
5947.017	1.21559	-2.28487	1.23729	-2.53381
5951.025	1.20105	-2.32454	1.24674	-2.53162
5955.019	1.21717	-2.35553	1.26180	-2.49168
5959.021	1.26046	-2.36534	1.22042	-2.38440
5963.019	1.31116	-2.39994	1.25696	-2.36457
5967.021	1.29464	-2.40719	1.24153	-2.26659
5971.014	1.34348	-2.37062	1.26418	-2.22229
5975.035	1.43429	-2.28288	1.35516	-2.30059
5979.020	1.44520	-2.36310	1.29246	-2.27252
5983.019	1.41824	-2.37334	1.29452	-2.35355
5987.015	1.39478	-2.38470	1.34147	-2.32831
5991.026	1.38438	-2.35835	1.34951	-2.30419
5995.013	1.46035	-2.32281	1.39143	-2.28967
5999.023	1.45852	-2.32618	1.25106	-2.26663
6003.017	1.45229	-2.40106	1.34237	-2.38651
6007.021	1.41563	-2.39733	1.40752	-2.38836
6011.012	1.41189	-2.40165	1.46162	-2.44739
6015.016	1.42883	-2.44606	1.35469	-2.46905
6019.018	1.37734	-2.45899	1.34686	-2.52802
6023.018	1.34147	-2.44734	1.36179	-2.53584
6027.016	1.34549	-2.43576	1.35854	-2.52276
6031.025	1.40026	-2.47793	1.34309	-2.45813
6035.062	1.39287	-2.52793	1.37573	-2.54056
6039.030	1.41586	-2.58031	1.36710	-2.55371
6043.019	1.48027	-2.57369	1.42062	-2.53982
6047.017	1.50765	-2.53702	1.42603	-2.46752
6051.011	1.42779	-2.49248	1.42146	-2.44444
6055.022	1.46854	-2.50538	1.38907	-2.42853
6059.019	1.49527	-2.47969	1.45554	-2.50706
6063.021	1.49604	-2.52372	1.47194	-2.46194
6067.015	1.50581	-2.57225	1.38302	-2.38089
6071.016	1.50730	-2.57493	1.43900	-2.46455
6075.020	1.45948	-2.63621	1.42117	-2.47808
6079.014	1.49183	-2.58935	1.36337	-2.46691
6083.021	1.51973	-2.60600	1.29506	-2.44432
6087.015	1.45988	-2.54082	1.13298	-2.43566
6091.016	1.53820	-2.52513	1.22672	-2.45537
6095.016	1.46360	-2.50402	1.17527	-2.49070
6099.013	1.50011	-2.39820	1.14369	-2.44371
6103.019	1.51616	-2.30606	1.14481	-2.36782
6107.015	1.46477	-2.39718	1.15228	-2.35023
6111.015	1.48136	-2.32544	1.15836	-2.43799
6115.019	1.43406	-2.24774	1.08971	-2.31910
6119.020	1.52260	-2.24621	1.23533	-2.33870
6123.016	1.80501	-2.23059	1.64446	-2.28144
6127.046	3.74211	-2.24268	4.72485	-2.26454
6131.020	4.90949	-2.21985	6.42212	-2.23979
6135.017	6.63228	-2.24440	6.99296	-2.26998
6139.015	7.26828	-2.26711	8.12347	-2.31331
6143.009	8.18470	-2.27981	10.39268	-2.36110
6147.014	10.23178	-2.30320	11.29925	-2.39602
6151.013	11.60911	-2.25219	12.64917	-2.45017
6155.017	12.08062	-2.22580	12.96618	-2.43191
6159.015	12.03308	-2.18452	12.60391	-2.45552
6163.013	12.11868	-2.11218	12.34598	-2.56008
6167.020	11.73124	-2.19414	11.49633	-2.57507
6171.013	11.34561	-2.01197	12.16845	-2.56476
6175.018	11.76057	-1.98353	12.25984	-2.58476
6179.018	11.92519	-2.03520	12.19470	-2.59493
6183.013	11.78407	-1.91844	12.35588	-2.52236
6187.011	11.66244	-1.87263	12.41722	-2.47253
6191.009	11.87910	-1.90011	12.37858	-2.50647
6194.914	11.88827	-1.89230	12.27413	-2.47649
6198.894	11.69395	-1.82164	12.25313	-2.44923
6202.897	11.99308	-1.79622	12.26958	-2.54093
6206.891	11.83978	-1.86353	12.28050	-2.47636
6210.888	11.94377	-1.78617	12.18559	-2.36339
6214.888	11.95465	-1.72363	12.27702	-2.38138
6218.888	11.97508	-1.94579	12.20537	-2.49369
6222.884	11.91479	-1.80128	12.24197	-2.44955
6226.891	12.05034	-1.76988	12.26562	-2.47291
6230.893	11.99951	-1.79581	12.15313	-2.49363
6234.887	12.05813	-1.85458	12.08677	-2.42517
6238.891	12.07267	-1.84977	12.25401	-2.42964
6242.883	12.09498	-1.86313	12.12162	-2.42025
6246.892	12.06475	-1.89599	12.13339	-2.44017
6250.891	12.07654	-1.86659	12.05388	-2.49043
6254.892	12.05758	-1.83958	12.18403	-2.43607
6258.884	12.07524	-1.88929	12.24896	-2.41664
6262.889	12.07982	-1.84011	12.27448	-2.38165
6266.887	12.10141	-1.84785	12.30486	-2.40714
6270.887	12.10269	-1.90475	12.24239	-2.33842
6274.887	12.05124	-1.92024	12.25045	-2.32480
6278.888	12.05929	-1.87394	12.27825	-2.36613
6282.885	12.07246	-1.86977	12.25846	-2.42419
6286.896	12.06959	-1.80316	12.25002	-2.32235
6290.896	12.12179	-1.76664	12.27394	-2.31412
6294.888	12.19965	-1.74805	12.31007	-2.29019
6298.889	12.04642	-1.84490	12.31544	-2.30578
6302.889	12.13320	-1.70625	12.29621	-2.31160
6306.885	12.11161	-1.75219	12.24803	-2.34591
6310.889	12.11569	-1.65993	12.16937	-2.34445
6314.886	12.03375	-1.64232	12.17146	-2.36560
6318.889	12.19640	-1.71667	12.20359	-2.39824
6322.891	12.19666	-1.80274	12.20193	-2.32697
6326.916	12.30073	-1.80559	12.23922	-2.30705
6330.894	12.26138	-1.82794	12.26055	-2.39472
6334.887	12.30201	-1.81085	12.24569	-2.40310
6338.893	12.20200	-1.97411	12.24991	-2.37193
6342.888	12.24886	-1.83741	12.22893	-2.35205
6346.886	12.23867	-1.80871	12.24109	-2.33274
6350.907	12.19185	-1.85222	12.26882	-2.32529
6354.892	12.22518	-1.93371	12.27204	-2.36272
6358.886	12.30990	-2.00960	12.26732	-2.28778
6362.882	12.30758	-1.92744	12.23064	-2.28982
6366.886	12.25287	-1.96051	12.24578	-2.31580
6370.896	12.26192	-1.92981	12.23201	-2.31691
6374.888	12.28322	-1.93848	12.26856	-2.32554
6378.884	12.23253	-1.91687	12.35505	-2.33524
6382.886	12.25403	-1.85700	12.26076	-2.31487
6386.884	12.31220	-1.88159	12.26860	-2.29422
6390.885	12.32625	-1.86335	12.22255	-2.36779
6394.881	12.29981	-1.83373	12.21238	-2.41217
6398.884	12.31274	-1.75285	12.26545	-2.45423
6402.884	12.32738	-1.75375	12.41530	-2.46659
6406.889	12.24505	-1.74605	12.38086	-2.57844
6410.888	12.21591	-1.71123	12.47702	-2.67394
6414.884	12.14755	-1.75645	12.34839	-2.60967
6418.880	12.22073	-1.75477	12.31495	-2.58192
6422.884	12.25422	-1.71460	12.17295	-2.66124
6426.887	12.25308	-1.77506	12.20181	-2.55622
6430.885	12.30756	-1.77925	12.08440	-2.58354
6434.910	12.29673	-1.77300	12.16975	-2.55270
6438.893	12.41514	-1.74625	11.95444	-2.51920
6442.885	12.32442	-1.79975	12.00979	-2.48480
6446.890	12.52695	-1.75703	12.22791	-2.47482
6450.880	12.83423	-1.87003	14.56218	-2.50703
6454.888	14.53544	-1.92144	14.92866	-2.82075
6458.887	14.53144	-1.92537	14.99938	-2.81129
6462.889	14.59361	-2.37525	14.97567	-3.17702
6466.880	14.62554	-2.64073	14.93594	-3.98428
6470.889	14.51802	-2.56032	14.82172	-3.97799
6474.884	14.45500	-2.40729	14.82272	-3.78146
6478.897	14.48387	-2.56266	14.79243	-3.59766
6482.890	14.53563	-2.58945	14.77484	-3.81865
6486.883	14.51730	-2.62928	14.84601	-3.81843
6490.880	14.44811	-2.77204	14.90915	-3.78471
6494.888	14.45893	-2.75417	14.80484	-3.84135
6498.883	14.47794	-2.81360	14.74133	-3.92419
6502.886	14.46468	-2.88590	14.74748	-3.93410
6506.886	14.47226	-2.86794	14.73404	-3.97763
6510.887	14.56971	-2.82276	14.74070	-3.97337
6514.884	14.54574	-2.81853	14.64148	-3.96557
6518.879	14.53691	-2.88837	14.59591	-3.97018
6522.883	14.57290	-2.87926	14.40693	-4.01439
6526.884	14.65270	-2.92085	14.42607	-4.01443
6530.883	14.74330	-2.91808	14.42574	-3.98285
6534.888	14.76382	-2.83706	14.38626	-4.01002
6538.891	14.74753	-2.85988	14.42707	-4.03747
6542.887	14.73258	-2.81299	14.40961	-4.01257
6546.879	14.66338	-2.74689	14.49902	-4.01247
6550.887	14.67922	-2.74790	14.45588	-3.99411
6554.882	14.61090	-2.78694	14.50963	-3.92690
6558.882	14.64963	-2.86854	14.57913	-3.90116
6562.877	14.61464	-2.81153	14.66327	-3.84999
6566.887	14.66125	-2.76194	14.63232	-3.88648
6570.882	14.63597	-2.73095	14.59219	-3.80467
6574.884	14.60974	-2.79283	14.56848	-3.77687
6578.887	14.63444	-2.80293	14.67119	-3.69928
6582.879	14.68733	-2.79825	14.69439	-3.75966
6586.881	14.67504	-2.75435	14.74899	-3.71388
6590.884	14.59747	-2.92111	14.52221	-3.78358
6594.887	13.98073	-2.85758	13.25707	-3.87129
6598.877	10.39297	-3.81478	12.15960	-4.14908
6602.882	8.23624	-3.87562	9.52302	-4.86762
6606.880	6.09866	-6.19178	8.67015	-6.03732
6610.876	4.36180	-7.08764	6.61996	-6.60318
6614.882	2.90173	-7.36124	4.42577	-6.95889
6618.900	1.56075	-7.55863	3.44256	-7.13220
6622.891	0.50495	-8.43154	1.43471	-7.44407
6626.881	-0.43507	-8.74548	0.46068	-7.62505
6630.884	-0.77799	-8.92391	-0.56712	-7.79541
6634.882	-0.89852	-9.00129	-0.56071	-7.97986
6638.885	-0.70766	-9.08519	-0.68469	-8.12271
6642.881	-0.35849	-9.04981	-0.71898	-8.13473
6646.884	-0.63928	-9.26446	-0.80124	-8.10563
6650.878	-0.75516	-9.30206	-0.78533	-8.13641
6654.880	-0.93138	-9.30349	-0.87307	-8.21971
6658.884	-0.79593	-9.36391	-0.91718	-8.33010
6662.892	-0.78536	-9.40420	-0.92366	-8.44365
6666.892	-0.75412	-9.43525	-0.98040	-8.49640
6670.881	-0.85625	-9.51873	-1.01218	-8.55585
6674.885	-0.88096	-9.54348	-1.16753	-8.65449
6678.884	-0.83530	-9.53289	-1.18795	-8.65387
6682.883	-0.79223	-9.56063	-1.20256	-8.65001
6686.881	-0.78397	-9.56812	-1.26135	-8.66068
6690.884	-0.76096	-9.55060	-1.31369	-8.67555
6694.885	-0.77895	-9.58588	-1.36499	-8.71652
6698.880	-0.76655	-9.57038	-1.37602	-8.72485
6702.885	-0.77191	-9.58435	-1.38920	-8.75502
6706.909	-0.74714	-9.58219	-1.39619	-8.74890
6710.887	-0.77446	-9.55531	-1.39282	-8.73775
6714.881	-0.84831	-9.51674	-1.41459	-8.72879
6718.880	-0.78697	-9.45960	-1.40594	-8.71574
6722.875	-0.74226	-9.46238	-1.43163	-8.74263
6726.899	-0.81754	-9.50084	-1.42094	-8.75400
6730.888	-0.77590	-9.44190	-1.37508	-8.74087
6734.881	-0.81593	-9.45864	-1.35732	-8.74404
6738.885	-0.81141	-9.44293	-1.39798	-8.75108
6742.885	-0.78228	-9.46222	-1.42424	-8.76052
6746.886	-0.81042	-9.51758	-1.44123	-8.73522
6750.875	-0.84639	-9.53828	-1.48704	-8.66725
6754.885	-0.87880	-9.57487	-1.46378	-8.69137
6758.885	-0.89773	-9.59722	-1.60191	-8.68079
6762.931	-0.95098	-9.62976	-1.51231	-8.67531
6766.879	-1.07376	-9.61942	-1.35856	-8.68018
6770.884	-1.02995	-9.60253	-1.48411	-8.69748
6774.878	-1.14305	-9.60918	-1.40673	-8.76789
6778.883	-1.06711	-9.58928	-1.39651	-8.74679
6782.876	-1.09782	-9.54942	-1.41405	-8.77880
6786.887	-1.14441	-9.56874	-1.33063	-8.80997
6790.886	-1.22094	-9.54964	-1.23888	-8.76740
6794.877	-1.34569	-9.51806	-1.21266	-8.80080
6798.877	-1.26329	-9.50196	-1.25284	-8.82843
6802.881	-1.31657	-9.49565	-1.09872	-8.80363
6806.882	-1.30310	-9.48284	-1.15349	-8.78648
6810.874	-1.23518	-9.48650	-1.20968	-8.79414
6814.877	-1.20641	-9.50593	-1.19874	-8.78903
6818.877	-1.25116	-9.48344	-1.18927	-8.79797
6822.877	-1.12988	-9.54685	-1.23439	-8.84311
6826.881	-1.29360	-9.68297	-1.24138	-8.91524
6830.878	-1.24215	-9.87989	-1.06731	-9.05423
6834.878	-1.25188	-10.66102	-1.15729	-9.39455
6838.878	-1.40929	-11.46045	-1.17222	-9.52799
6842.909	-1.46125	-11.87311	-1.11499	-9.63419
6846.881	-1.26619	-11.52165	-1.32334	-9.57492
6850.880	-1.25731	-11.66370	-1.23233	-9.66726
6854.877	-1.22804	-11.73956	-1.19061	-9.61076
6858.882	-1.27386	-11.56278	-1.25091	-9.76861
6862.876	-1.33750	-11.67276	-1.32679	-9.81665
6866.882	-1.33207	-11.58827	-1.22856	-9.89139
6870.882	-1.31525	-11.45048	-1.23565	-9.90853
6874.880	-1.27477	-11.55920	-1.26440	-9.85610
6878.878	-1.25540	-11.55292	-1.28765	-9.80438
6882.883	-1.10107	-11.41709	-1.39425	-9.74441
6886.877	-1.15300	-11.40471	-1.37287	-9.77442
6890.872	-1.20601	-11.35759	-1.39071	-9.76955
6894.881	-1.14943	-11.29227	-1.31007	-9.75324
6898.894	-1.18120	-11.14609	-1.25726	-9.75768
6902.878	-1.24079	-11.12789	-1.18344	-9.70316
6906.876	-1.31935	-11.07771	-1.19703	-9.66956
6910.881	-1.32463	-11.00000	-1.22913	-9.68137
6914.890	-1.44180	-10.94196	-1.14739	-9.72530
6918.880	-1.42441	-10.94200	-1.11933	-9.82916
6922.877	-1.61560	-10.85181	-1.13608	-9.88383
6926.878	-1.71005	-10.99555	-1.17024	-9.88673
6930.882	-1.75017	-10.95662	-1.19147	-9.90300
6934.878	-1.63182	-11.09234	-1.16508	-9.89205
6938.877	-1.54812	-11.12896	-1.22720	-9.82023
6942.871	-1.60459	-11.26976	-1.25773	-9.87821
6946.881	-1.45718	-11.25898	-1.26666	-9.90362
6950.882	-1.36608	-11.12453	-1.24942	-9.95401
6954.886	-1.53046	-11.17087	-1.33473	-9.93756
6958.875	-1.30191	-11.25599	-1.29236	-9.87854
6962.880	-1.35363	-11.28357	-1.31426	-9.83997
6966.877	-1.45105	-11.25755	-1.37652	-9.88224
6970.881	-1.32059	-11.28575	-1.41241	-9.88144
6974.911	-1.29323	-11.36462	-1.40440	-9.85157
6978.884	-1.29725	-11.27520	-1.30734	-9.88058
6982.882	-1.33011	-11.37807	-1.23258	-9.88511
6986.874	-1.31756	-11.30657	-1.21534	-9.87543
6990.879	-1.26495	-11.36868	-1.33031	-9.87389
6994.883	-1.29298	-11.26384	-1.25523	-9.88972
6998.885	-1.27048	-11.28537	-1.20437	-9.90254
7002.874	-1.31731	-11.19789	-1.24163	-9.92485
7006.874	-1.28529	-11.09051	-1.16840	-9.96481
7010.869	-1.29109	-11.04399	-1.14826	-9.94078
7014.874	-1.28884	-10.90233	-1.13834	-9.94291
7018.873	-1.23000	-10.98948	-1.11355	-9.96856
7022.875	-1.15533	-11.00327	-1.14895	-9.98172
7026.872	-1.12045	-10.87400	-1.15295	-9.97371
7030.874	-1.08289	-10.83618	-1.24389	-9.97293
7034.882	-1.02960	-10.84053	-1.23015	-10.03981
7038.898	-1.04811	-10.84890	-1.19924	-10.05662
7042.883	-1.11546	-10.80543	-1.23761	-10.06630
7046.876	-1.12234	-10.85682	-1.24218	-10.09220
7050.749	-1.23856	-11.23490	-1.25413	-10.09211
7054.754	-1.26934	-11.81506	-1.32503	-10.17496
7058.750	-1.56541	-13.14970	-1.37290	-10.33157
7062.754	-1.66192	-13.41138	-1.34777	-10.43128
7066.745	-1.74900	-13.17412	-1.29055	-10.31547
7070.754	-1.64226	-12.94628	-1.35660	-10.39121
7074.750	-1.73777	-13.24602	-1.32967	-10.52511
7078.747	-1.71704	-12.95679	-1.30345	-10.57118
7082.759	-1.72904	-13.14821	-1.34395	-10.54301
7086.748	-1.78734	-13.17390	-1.31895	-10.57654
7090.748	-1.83043	-13.12235	-1.25557	-10.64332
7094.748	-1.68409	-13.17662	-1.15605	-10.72570
7098.749	-1.70122	-13.19375	-1.17674	-10.77387
7102.751	-1.57099	-13.16869	-1.16051	-10.77976
7106.749	-1.51343	-13.13736	-1.12430	-10.71819
7110.748	-1.46058	-13.13380	-1.21998	-10.73568
7114.750	-1.45574	-13.19982	-1.27542	-10.76445
7118.750	-1.52568	-13.23536	-1.21286	-10.69376
7122.755	-1.62706	-13.20418	-1.14332	-10.65954
7126.757	-1.64141	-13.15094	-1.16734	-10.65991
7130.745	-1.70549	-13.12045	-1.22213	-10.69144
7134.747	-1.73348	-13.11150	-1.31622	-10.73286
7138.748	-1.76276	-12.97411	-1.42640	-10.75622
7142.753	-1.89962	-12.89072	-1.26051	-10.76503
7146.745	-2.11970	-12.81790	-1.32081	-10.78852
7150.752	-1.97716	-12.79868	-1.27879	-10.86951
7154.784	-2.04872	-12.86207	-1.19944	-10.90507
7158.751	-2.09574	-12.79911	-1.16136	-10.90840
7162.795	-1.95480	-12.88742	-1.13717	-10.90755
7166.755	-1.72518	-13.22981	-1.21839	-10.93948
7170.747	-1.77194	-13.33868	-1.20626	-10.95814
7174.743	-1.60571	-13.42368	-1.18349	-10.92961
7178.754	-1.63755	-13.23241	-1.10192	-10.89769
7182.768	-1.75657	-13.33524	-1.07316	-10.85093
7186.748	-1.63534	-13.36708	-1.03359	-10.79879
7190.751	-1.63378	-13.39086	-1.03278	-10.82175
7194.747	-1.65776	-13.41494	-1.02861	-10.78672
7198.748	-1.99265	-13.47109	-1.04803	-10.74800
7202.751	-2.12347	-13.46155	-1.05912	-10.75480
7206.747	-1.62525	-13.39159	-1.08845	-10.77067
7210.752	-1.80925	-13.24623	-1.17319	-10.79386
7214.749	-2.18632	-13.20014	-1.14355	-10.79622
7218.749	-1.74526	-13.21659	-1.12705	-10.85670
7222.742	-1.97262	-13.21671	-1.16329	-10.90758
7226.747	-2.00656	-13.20424	-1.22072	-10.97056
7230.746	-1.81810	-13.25334	-1.31454	-10.99567
7234.744	-1.91714	-13.23912	-1.25188	-11.04334
7238.751	-1.79720	-13.19735	-1.22702	-11.11951
7242.746	-1.88916	-13.18832	-1.27966	-11.15014
7246.746	-1.89037	-13.29470	-1.32093	-11.15620
7250.795	-1.77650	-13.29972	-1.35926	-11.16620
7254.756	-1.62135	-13.34177	-1.31726	-11.19271
7258.748	-1.73795	-13.34155	-1.37025	-11.18962
7262.753	-1.91412	-13.31948	-1.36360	-11.21523
7266.746	-1.74851	-13.22613	-1.39549	-11.21693
7270.748	-1.86677	-13.22974	-1.38639	-11.21788
7274.746	-1.96536	-13.10829	-1.36590	-11.23532
7278.771	-1.99548	-12.99022	-1.32195	-11.23112
7282.756	-1.91112	-13.09048	-1.32041	-11.23199
7286.746	-1.87723	-13.01882	-1.24528	-11.24010
7290.752	-1.56618	-12.85980	-1.18644	-11.24134
7294.747	-1.54257	-12.87878	-1.20770	-11.23426
7298.747	-1.84535	-12.87178	-1.23876	-11.18032
7302.744	-2.14379	-12.44368	-1.26693	-11.02560
7306.745	-2.71320	-11.28038	-1.88864	-10.35477
7310.745	-3.92848	-7.94604	-3.12403	-8.90462
7314.745	-3.81941	-7.00709	-4.21331	-7.23894
7318.768	-4.51063	-6.04375	-4.69704	-6.08205
7322.769	-5.72011	-4.05651	-5.11260	-4.54590
7326.750	-6.32358	-2.38721	-6.03513	-3.50406
7330.755	-6.99622	-1.97546	-6.62481	-2.29624
7334.749	-6.83775	-1.40217	-6.52162	-1.88551
7338.749	-6.84179	-0.49913	-6.68178	-0.44510
7342.745	-6.91562	-0.04680	-6.64878	-0.17803
7346.749	-6.98519	0.19298	-6.53767	-0.37517
7350.747	-7.17253	-0.01805	-6.58291	-0.95664
7354.740	-7.16686	-0.54109	-6.60595	-1.07948
7358.748	-7.22082	-0.25581	-6.58665	-0.95167
7362.743	-7.27270	-0.27540	-6.68102	-0.69171
7366.748	-7.33816	-0.15127	-6.70183	-0.51300
7370.741	-7.40479	-0.08622	-6.71454	-0.63471
7374.755	-7.41116	-0.07272	-6.73297	-0.51736
7378.749	-7.50871	-0.07277	-6.75008	-0.37049
7382.740	-7.61953	-0.12502	-6.74971	-0.40919
7386.755	-7.65836	-0.08368	-6.77746	-0.32184
7390.752	-7.68701	-0.07612	-6.82581	-0.48980
7394.742	-7.61392	-0.05766	-6.83352	-0.39488
7398.747	-7.59471	-0.03409	-6.85268	-0.34629
7402.743	-7.59783	-0.03175	-6.86508	-0.33138
7406.747	-7.60541	-0.06635	-6.85730	-0.33910
7410.741	-7.53637	-0.06363	-6.85163	-0.31607
7414.751	-7.53715	-0.08459	-6.86422	-0.26583
7418.744	-7.50234	-0.05233	-6.85021	-0.18595
7422.744	-7.48444	-0.08589	-6.86437	-0.27994
7426.743	-7.36220	-0.02124	-6.84791	-0.26428
7430.747	-7.35444	0.05511	-6.86696	-0.29726
7434.741	-7.35563	-0.02132	-6.91168	-0.23551
7438.748	-7.35776	-0.04914	-6.95492	-0.27357
7442.744	-7.33293	-0.01720	-6.99269	-0.29128
7446.743	-7.33752	-0.00754	-6.97088	-0.32213
7450.742	-7.30410	0.10278	-6.94266	-0.27126
7454.745	-7.26571	0.17659	-6.90512	-0.27469
7458.753	-7.19791	0.18320	-6.87619	-0.27961
7462.744	-7.24112	0.06468	-6.96868	-0.31554
7466.745	-7.27804	0.14922	-7.01665	-0.24712
7470.741	-7.30139	0.09652	-7.02665	-0.08481
7474.747	-7.37109	0.11341	-6.89830	-0.19281
7478.741	-7.26075	0.05987	-6.89539	-0.10351
7482.743	-7.37426	0.06671	-6.83893	-0.30695
7486.745	-7.35871	0.12689	-6.77783	-0.28127
7490.745	-7.31186	0.07924	-6.86303	-0.12175
7494.741	-7.42361	0.07826	-6.84568	0.00797
7498.750	-7.48639	-0.00394	-6.87406	-0.00150
7502.744	-7.35114	-0.00382	-6.83966	0.02657
7506.742	-7.42373	0.07754	-6.83756	0.13022
7510.740	-7.41441	0.18471	-6.80881	0.06354
7514.745	-7.42334	0.21051	-6.76165	-0.02668
7518.744	-7.27819	0.20703	-6.76851	-0.00866
7522.774	-7.21381	0.25503	-6.77993	-0.05364
7526.745	-7.27174	0.26840	-6.79914	-0.00681
7530.746	-7.27055	0.25394	-6.82143	0.05236
7534.743	-7.23587	0.22423	-6.80284	0.04612
7538.750	-7.24827	0.01491	-6.80974	0.04491
7542.752	-7.13685	0.13714	-6.82838	-0.00518
7546.743	-7.16400	0.22276	-6.76523	0.04555
7550.741	-7.20824	0.31338	-6.72384	0.00091
7554.774	-7.20233	0.28790	-6.79623	-0.03237
7558.744	-7.28249	0.09522	-6.83487	-0.06274
7562.740	-7.24300	0.15680	-6.78312	-0.22208
7566.740	-7.29873	0.19620	-6.72957	-0.14136
7570.740	-7.25394	0.14228	-6.71735	-0.10140
7574.745	-7.30178	0.24194	-6.70663	-0.18063
7578.742	-7.33137	0.29821	-6.73664	-0.21326
7582.744	-7.37189	0.31359	-6.73987	-0.23949
7586.747	-7.33398	0.35026	-6.68318	-0.23547
7590.748	-7.30664	0.26883	-6.73679	-0.24381
7594.745	-7.35668	0.35249	-6.76400	-0.32960
7598.739	-7.33464	0.29525	-6.74981	-0.20151
7602.744	-7.35437	0.25468	-6.80710	-0.11461
7606.743	-7.36701	0.30120	-6.88445	-0.18520
7610.739	-7.40843	0.28495	-6.91997	-0.05442
7614.746	-7.49005	0.34262	-6.98086	-0.09333
7618.739	-7.35056	0.40395	-7.03064	-0.05665
7622.744	-7.45279	0.39464	-7.05330	-0.03758
7626.735	-7.38861	0.39694	-6.99445	0.09456
7630.744	-7.43525	0.39961	-6.87032	-0.00150
7634.741	-7.26215	0.48064	-6.06868	0.05229
7638.740	-6.13228	0.50524	-4.54481	0.08697
7642.738	-4.06646	0.43507	-2.78958	0.24626
7646.745	-2.48465	0.42069	-0.93969	-0.00462
7650.740	-1.62706	0.53718	-0.01085	-0.03101
7654.740	0.08937	0.43346	0.85974	-0.13211
7658.743	0.31970	0.51923	1.69941	-0.30702
7662.743	0.93329	0.40650	1.92699	-0.24907
7666.747	0.96336	0.44783	1.79931	-0.31500
7670.739	0.89423	0.55865	1.68702	-0.45796
7674.743	0.79451	0.48072	1.54262	-0.38507
7678.744	0.69106	0.56374	1.60702	-0.42164
7682.738	0.67945	0.59858	1.63983	-0.39096
7686.743	0.82342	0.39255	1.79733	-0.48416
7690.739	0.82930	0.50693	1.85016	-0.53334
7694.744	0.87810	0.44658	1.73656	-0.54857
7698.737	0.94192	0.57293	1.82948	-0.50578
7702.744	0.97023	0.36900	1.78262	-0.45250
7706.749	0.90247	0.49515	1.77362	-0.37007
7710.738	0.87882	0.46297	1.78143	-0.41425
7714.738	0.92956	0.40011	1.81870	-0.25760
7718.737	1.04488	0.43649	1.80377	-0.30897
7722.738	1.02724	0.29081	1.77772	-0.27465
7726.743	1.06145	0.29953	1.84208	-0.29920
7730.741	1.09274	0.32867	1.75748	-0.26164
7734.743	1.13189	0.38848	1.73033	-0.24833
7738.735	1.14819	0.29269	1.78741	-0.22405
7742.739	1.13082	0.30727	1.81245	-0.25656
7746.749	1.13065	0.34951	1.67868	-0.22869
7750.745	1.11646	0.38493	1.70003	-0.28936
7754.739	1.14248	0.41593	1.71424	-0.23196
7758.734	1.11425	0.46423	1.64367	-0.28992
7762.739	1.07634	0.46618	1.62272	-0.27040
7766.737	1.09624	0.42290	1.68387	-0.24394
7770.737	1.13533	0.32787	1.70621	-0.21361
7774.733	1.17465	0.20099	1.67253	-0.19784
7778.771	1.17235	0.20024	1.68962	-0.20171
7782.737	1.24865	0.16270	1.56464	-0.18625
7786.732	1.23560	0.23740	1.51313	-0.11116
7790.743	1.24630	0.30828	1.61548	-0.10748
7794.738	1.30193	0.12359	1.65934	-0.10619
7798.742	1.33676	0.03470	1.62993	-0.08555
7802.736	1.32004	-0.03803	1.64595	-0.05296
7806.741	1.37540	0.06064	1.71608	-0.10482
7810.732	1.36977	0.09798	1.77891	-0.09925
7814.735	1.32627	0.03110	1.74779	-0.13961
7818.738	1.31575	0.13236	1.77819	-0.16715
7822.737	1.30541	0.14640	1.75803	-0.20213
7826.731	1.33153	0.18865	1.78981	-0.24921
7830.746	1.29918	0.16809	1.78605	-0.33070
7834.737	1.33621	0.10459	1.81089	-0.33904
7838.740	1.29831	0.13688	1.81195	-0.34729
7842.735	1.29881	0.11989	1.86179	-0.41202
7846.740	1.51519	0.23665	1.87887	-0.34005
7850.755	1.41529	0.23850	1.89808	-0.36458
7854.738	1.48677	0.23271	1.93405	-0.35273
7858.739	1.48458	0.27754	1.89488	-0.33053
7862.739	1.59703	0.26059	1.89017	-0.28332
7866.738	1.51963	0.23740	1.90825	-0.25667
7870.736	1.47370	0.23345	1.87165	-0.24210
7874.741	1.48659	0.28768	1.91375	-0.15967
7878.747	1.39941	0.29191	1.84622	-0.18461
7882.741	1.56737	0.36440	1.84047	-0.19007
7886.740	1.48067	0.44641	1.89369	-0.17176
7890.735	1.35335	0.37409	1.89684	-0.20800
7894.736	1.38761	0.38552	1.89788	-0.16329
7898.737	1.47037	0.39310	1.81208	-0.18265
7902.613	1.35963	0.37725	1.82237	-0.13124
7906.606	1.40554	0.32721	1.79281	-0.07640
7910.734	1.33450	0.34811	1.81248	-0.18044
7914.620	1.35794	0.43279	1.89253	-0.14556
7918.617	1.34318	0.49490	1.87644	-0.14151
7922.616	1.34351	0.48595	1.92456	-0.17712
7926.612	1.23975	0.40104	1.90822	-0.13014
7930.609	1.24037	0.39351	1.83390	-0.13079
7934.612	1.33145	0.38105	1.81188	-0.08594
7938.608	1.27827	0.49136	1.79581	-0.06984
7942.604	1.28380	0.49501	1.79160	-0.07660
7946.609	1.29333	0.40660	1.79289	-0.13310
7950.634	1.27579	0.40369	1.79988	-0.14035
7954.613	1.30055	0.46602	1.82252	-0.13218
7958.608	1.32979	0.42117	1.74675	-0.12493
7962.617	1.37419	0.41883	1.65309	-0.07660
7966.609	1.39381	0.41160	1.64107	-0.08788
7970.612	1.40343	0.46135	1.62614	-0.11717
7974.611	1.44458	0.41805	1.64476	-0.14647
7978.609	1.49793	0.41640	1.68414	-0.14136
7982.607	1.52754	0.34945	1.65421	-0.17106
7986.608	1.56573	0.30982	1.64441	-0.14228
7990.610	1.58582	0.28041	1.62916	-0.07479
7994.608	1.53096	0.34190	1.63764	-0.03761
7998.615	1.59613	0.30734	1.61937	0.05529
8002.612	1.64526	0.26478	1.64734	0.09675
8006.609	1.64146	0.27998	1.70822	0.08579
8010.608	2.05494	0.51023	2.01013	0.25636
8014.613	3.24625	1.14095	3.98225	1.52373
8018.606	4.32037	1.82289	5.27826	2.28553
8022.628	5.50087	2.40490	5.52025	2.68587
8026.611	5.93127	2.73868	6.35403	2.72469
8030.613	6.48727	3.07020	6.75172	3.08795
8034.604	7.07591	3.31473	7.11479	3.49743
8038.613	7.26437	3.60312	7.04066	3.89266
8042.614	7.22507	3.57819	6.87403	3.79619
8046.609	7.16512	3.44829	6.73446	3.82864
8050.607	6.94186	3.54473	6.76863	3.70523
8054.610	6.90456	3.74972	6.85092	3.57940
8058.611	6.93164	3.66402	6.98734	3.72106
8062.604	6.91931	3.50551	7.02890	3.75973
8066.607	6.88431	3.65539	6.97162	3.69390
8070.611	6.99115	3.65496	7.02844	3.77515
8074.604	7.01624	3.69743	7.08346	3.80039
8078.610	7.03702	3.66327	7.07165	3.80923
8082.610	7.00465	3.59094	7.04264	3.80883
8086.611	7.00357	3.62848	7.09908	3.81332
8090.616	6.95768	3.68534	7.08077	3.77890
8094.607	7.03924	3.69231	7.09602	3.83583
8098.612	7.07398	3.63891	7.08659	3.91485
8102.611	7.21002	3.63707	7.06552	3.92743
8106.606	7.18911	3.70456	7.08827	3.93352
8110.607	7.21896	3.76716	7.15296	3.93981
8114.607	7.23894	3.82506	7.22646	3.94950
8118.605	7.21862	3.90990	7.31193	3.97375
8122.606	7.15464	4.03259	7.34477	3.99291
8126.610	7.11740	4.03940	7.37504	4.03548
8130.614	7.14294	4.00232	7.44557	4.09122
8134.644	7.12503	4.06600	7.43688	3.97710
8138.607	7.12615	3.93216	7.44552	4.01360
8142.611	7.14506	3.95968	7.45789	4.06206
8146.607	7.12236	4.04941	7.45096	4.07389
8150.611	7.12280	3.98316	7.31862	4.03947
8154.604	7.08964	3.94521	7.19708	4.08770
8158.606	7.06985	3.97392	7.05530	4.17750
8162.622	7.09275	3.97230	7.10504	4.29264
8166.640	7.09204	4.03888	7.00842	4.27911
8170.615	7.08153	3.87093	6.95220	4.34908
8174.605	7.12796	3.79786	6.97115	4.18294
8178.608	7.09233	3.81649	6.92261	4.18038
8182.605	7.09216	3.78934	6.94213	4.29396
8186.608	7.10763	3.77633	6.97463	4.22528
8190.610	7.10433	3.72747	7.03560	4.26856
8194.601	7.13891	3.75049	7.12884	4.25272
8198.610	7.11464	3.66936	7.20917	4.28659
8202.712	7.10839	3.64986	7.22712	4.20429
8206.611	7.08969	3.62894	7.17688	4.11104
8210.609	7.06366	3.61360	7.14555	4.09528
8214.610	7.09895	3.63447	7.21191	4.10177
8218.603	7.09568	3.75641	7.19122	4.05992
8222.627	7.10223	3.68579	7.22935	4.11709
8226.611	7.10091	3.77731	7.06982	4.04460
8230.601	7.09035	3.75796	7.07424	4.02341
8234.603	7.10362	3.74451	7.04330	4.01955
8238.606	7.12019	3.73886	7.04914	3.99783
8242.603	7.11865	3.79713	7.02607	3.96986
8246.605	7.13544	3.82218	7.02152	3.97974
8250.605	7.14191	3.85072	7.03318	4.03655
8254.613	7.14756	3.92153	7.01027	4.09248
8258.602	7.17775	4.05871	6.98433	4.24261
8262.604	7.04020	4.36822	6.91334	5.61068
8266.605	5.10229	7.77101	6.54310	7.49175
8270.820	4.01905	8.29479	5.92618	8.82689
8274.610	3.82430	8.63972	4.54508	11.61580
8278.608	3.55869	10.21700	4.18307	12.49087
8282.604	3.45420	10.79386	3.69684	13.62874
8286.617	3.32662	11.69050	3.42178	14.44524
8290.607	3.29033	12.21956	3.63065	14.24148
8294.615	3.36456	12.31138	3.83102	13.37244
8298.605	3.28466	12.06115	4.03974	13.31558
8302.612	3.34850	11.51753	3.89651	13.85834
8306.607	3.25501	11.75351	3.82502	14.23788
8310.604	3.17683	11.82125	3.82519	14.15832
8314.602	3.08471	11.81068	3.87821	13.80803
8318.611	3.08406	11.75783	4.03875	13.94021
8322.609	3.16151	11.86638	4.06750	13.94125
8326.603	3.14677	11.81471	4.05685	13.94077
8330.609	3.13628	11.81154	4.20326	13.97270
8334.606	3.18324	11.58361	4.02189	14.06825
8338.608	3.14738	11.66317	3.98573	14.00728
8342.608	3.01257	11.76632	3.88273	14.11159
8346.607	2.98099	11.96039	3.77009	14.02047
8350.604	2.96057	11.79742	3.81103	13.95806
8354.606	2.86037	11.91886	3.85113	13.89773
8358.603	2.89906	12.07079	3.89560	13.83821
8362.619	2.82509	11.90229	3.99134	13.75859
8366.606	2.88000	12.01148	3.87586	13.60078
8370.603	2.88589	11.93680	3.80816	14.02830
8374.606	2.85715	12.07725	3.69929	14.04569
8378.626	2.85475	12.05957	3.59362	14.20412
8382.602	2.85234	12.01734	3.54329	14.15819
8386.601	2.92242	11.92602	3.57251	14.14900
8390.599	2.94767	11.95155	3.53589	14.22101
8394.601	3.01937	11.85956	3.41338	14.09335
8398.601	3.06961	11.85650	3.30527	14.34048
8402.601	3.09183	11.87375	3.28672	14.35715
8406.604	3.16337	11.89105	3.25439	14.44460
8410.606	3.19392	11.76471	3.19793	14.47407
8414.603	3.21025	11.84117	3.19202	14.45422
8418.610	3.20800	11.78246	3.17537	14.49559
8422.600	3.17121	11.78532	3.19313	14.46316
8426.603	3.15223	11.88668	3.20239	14.46487
8430.604	3.12566	11.83474	3.28199	14.47294
8434.600	3.13254	11.96013	3.29166	14.47642
8438.606	3.10183	12.20460	3.43608	14.48457
8442.602	3.10059	12.22692	3.35976	14.51078
8446.607	2.98198	12.19245	3.43355	14.60369
8450.600	3.04187	12.25618	3.48031	14.54615
8454.605	2.97765	12.06747	3.59157	14.44470
8458.601	2.96146	12.09726	3.66975	14.46766
8462.610	2.88492	12.11927	3.74817	14.44742
8466.599	2.85834	12.02708	NaN	NaN
8470.606	2.93686	12.03278	3.98153	14.36589
8474.599	2.88571	12.06454	4.16537	14.29504
8478.606	2.81838	11.97204	4.12959	13.93717
8482.604	2.70797	12.03330	4.15596	13.87928
8486.601	2.78416	12.05456	4.13461	14.01322
8490.604	2.73657	12.05572	4.21289	14.11418
8494.602	2.69945	11.82923	4.17033	14.28576
8498.604	2.66905	12.10187	4.13673	14.48893
8502.604	2.61184	12.11152	4.07952	14.55933
8506.608	2.60158	12.13466	4.05547	14.79203
8510.603	2.59799	12.27911	4.12009	14.15321
8514.604	2.62682	12.15641	4.08658	14.16004
8518.599	2.59936	12.20185	3.87583	14.22898
8522.605	2.72996	12.13917	3.98121	14.19848
8526.601	2.73650	12.09279	3.78037	14.41758
8530.604	2.78951	12.09248	3.89567	14.39099
8534.599	2.77584	12.10166	3.85624	14.37249
8538.606	2.82261	12.03684	3.90617	14.16133
8542.612	2.78661	12.06265	3.82373	14.43649
8546.608	2.92502	11.92644	3.87112	14.64133
8550.595	2.93747	11.98911	3.82400	14.68202
8554.604	2.91822	11.97385	NaN	NaN
8558.602	2.91906	11.96113	3.76742	14.69479
8562.600	2.91455	12.01091	3.82400	14.46236
8566.598	2.97854	12.06706	3.74468	14.10849
8570.603	3.00368	12.09012	3.87532	13.84416
8574.603	2.97017	12.06145	3.86721	13.89014
8578.599	2.96096	12.00392	3.85958	14.28360
8582.637	2.96111	11.93937	3.87369	14.38005
8586.604	3.06182	11.92711	3.92531	14.17885
8590.603	3.06132	11.95576	3.89345	13.88942
8594.597	3.07134	11.98421	3.94952	13.99403
8598.646	3.09701	11.96423	3.97286	14.17406
8602.610	3.07105	11.99279	4.04675	14.01873
8606.597	3.00745	12.11760	4.06414	13.94749
8610.599	2.94478	12.04423	4.08369	13.88409
8614.605	2.97485	12.09880	4.06693	13.93523
8618.598	2.97888	12.12227	4.07322	13.95539
8622.602	3.00297	12.00338	4.11510	14.21130
8626.601	3.02398	12.04332	4.12009	14.08945
8630.603	2.94864	12.04383	4.10248	14.46527
8634.598	2.80526	12.07716	4.11634	14.20765
8638.602	1.85430	12.01503	NaN	NaN
8642.597	-1.17515	12.00863	1.01940	13.95142
8646.599	-3.70836	11.95145	-1.60967	12.90391
8650.596	-6.02148	11.01625	-2.93324	12.26586
8654.597	-7.09580	10.45857	-4.54133	12.09054
8658.591	-8.96009	10.00347	-5.70718	11.94192
8662.598	-10.35399	9.46206	-8.13198	11.40639
8666.596	-12.44321	8.87069	-9.17367	10.87708
8670.601	-13.96367	8.56382	-11.19851	9.79405
8674.601	-16.06628	7.81499	-12.16769	9.08549
8678.629	-17.71881	7.47459	-13.93990	9.21156
8682.606	-19.35131	7.54018	-15.07047	8.97660
8686.598	-23.05660	9.18145	-17.11310	8.25702
8690.598	-19.75926	-12.09478	-18.10132	8.09337
8694.598	-19.84758	-12.08826	-19.77590	7.53361
8698.601	-19.88841	-12.08524	-21.61754	7.34809
8702.597	-19.91209	-12.08349	-19.93339	-12.08191
8706.597	-19.92762	-12.08234	-19.95363	-12.08041
8710.602	-19.93867	-12.08152	-19.96398	-12.07964
8714.607	-19.94698	-12.08090	-19.97031	-12.07917
8718.596	-19.95345	-12.08042	-19.97459	-12.07885
8722.610	-19.95946	-12.07997	-19.97772	-12.07861
8726.606	NaN	NaN	-19.98009	-12.07844
8730.598	NaN	NaN	-19.98202	-12.07829
8734.597	NaN	NaN	-19.98908	-12.07777
8738.600	NaN	NaN	-19.99914	-12.07702
8742.599	NaN	NaN	NaN	NaN
8746.598	NaN	NaN	NaN	NaN
8750.607	NaN	NaN	NaN	NaN
8754.472	NaN	NaN	NaN	NaN
8758.480	NaN	NaN	NaN	NaN
8762.473	NaN	NaN	NaN	NaN
8766.476	NaN	NaN	NaN	NaN
8770.473	NaN	NaN	NaN	NaN
8774.477	NaN	NaN	NaN	NaN
8778.488	NaN	NaN	NaN	NaN
8782.476	NaN	NaN	NaN	NaN
8786.508	NaN	NaN	NaN	NaN
8790.476	NaN	NaN	NaN	NaN
8794.472	NaN	NaN	NaN	NaN
8798.478	NaN	NaN	NaN	NaN
8802.469	NaN	NaN	NaN	NaN
8806.473	NaN	NaN	NaN	NaN
8810.470	NaN	NaN	NaN	NaN
8814.513	NaN	NaN	NaN	NaN
8818.475	NaN	NaN	NaN	NaN
8822.467	NaN	NaN	NaN	NaN
8826.474	NaN	NaN	NaN	NaN
8830.470	NaN	NaN	NaN	NaN
8834.472	NaN	NaN	NaN	NaN
8838.468	NaN	NaN	NaN	NaN
8842.479	NaN	NaN	NaN	NaN
8846.470	NaN	NaN	NaN	NaN
8850.469	NaN	NaN	NaN	NaN
8854.473	NaN	NaN	NaN	NaN
8858.470	NaN	NaN	NaN	NaN
8862.473	NaN	NaN	NaN	NaN
8866.471	NaN	NaN	NaN	NaN
8870.475	NaN	NaN	NaN	NaN
8874.470	NaN	NaN	NaN	NaN
8878.468	NaN	NaN	NaN	NaN
8882.489	NaN	NaN	NaN	NaN
8886.469	NaN	NaN	NaN	NaN
8890.472	NaN	NaN	NaN	NaN
8894.466	NaN	NaN	NaN	NaN
8898.469	NaN	NaN	NaN	NaN
8902.469	NaN	NaN	NaN	NaN
8906.467	NaN	NaN	NaN	NaN
8910.473	NaN	NaN	NaN	NaN
8914.471	NaN	NaN	NaN	NaN
8918.467	NaN	NaN	NaN	NaN
8922.477	NaN	NaN	NaN	NaN
8926.471	NaN	NaN	NaN	NaN
8930.471	NaN	NaN	NaN	NaN
8934.467	NaN	NaN	NaN	NaN
8938.472	NaN	NaN	NaN	NaN
8942.469	NaN	NaN	NaN	NaN
8946.471	NaN	NaN	NaN	NaN
8950.504	NaN	NaN	NaN	NaN
8954.474	NaN	NaN	NaN	NaN
8958.467	NaN	NaN	NaN	NaN
8962.471	NaN	NaN	NaN	NaN
8966.475	NaN	NaN	NaN	NaN
8970.475	NaN	NaN	NaN	NaN
8974.472	NaN	NaN	NaN	NaN
8978.470	NaN	NaN	NaN	NaN
8982.466	NaN	NaN	NaN	NaN
8986.471	NaN	NaN	NaN	NaN
8990.469	NaN	NaN	NaN	NaN
8994.471	NaN	NaN	NaN	NaN
8998.466	NaN	NaN	NaN	NaN
9002.472	NaN	NaN	NaN	NaN
9006.476	NaN	NaN	NaN	NaN
9010.471	NaN	NaN	NaN	NaN
9014.485	NaN	NaN	NaN	NaN
9018.497	NaN	NaN	NaN	NaN
9022.473	NaN	NaN	NaN	NaN
9026.465	NaN	NaN	NaN	NaN
9030.469	NaN	NaN	NaN	NaN
9034.467	NaN	NaN	NaN	NaN
9038.480	NaN	NaN	NaN	NaN
9042.474	NaN	NaN	NaN	NaN
9046.471	NaN	NaN	NaN	NaN
9050.478	NaN	NaN	NaN	NaN
9054.463	NaN	NaN	NaN	NaN
9058.469	NaN	NaN	NaN	NaN
9062.467	NaN	NaN	NaN	NaN
9066.469	NaN	NaN	NaN	NaN
9070.464	NaN	NaN	NaN	NaN
9074.469	NaN	NaN	NaN	NaN
9078.476	NaN	NaN	NaN	NaN
9082.468	NaN	NaN	NaN	NaN
9086.467	NaN	NaN	NaN	NaN
9090.471	NaN	NaN	NaN	NaN
9094.469	NaN	NaN	NaN	NaN
9098.464	NaN	NaN	NaN	NaN
9102.467	NaN	NaN	NaN	NaN
9106.468	NaN	NaN	NaN	NaN
9110.464	NaN	NaN	NaN	NaN
9114.469	NaN	NaN	NaN	NaN
9118.466	NaN	NaN	NaN	NaN
9122.468	NaN	NaN	NaN	NaN
9126.463	NaN	NaN	NaN	NaN
9130.474	NaN	NaN	NaN	NaN
9134.466	NaN	NaN	NaN	NaN
9138.468	NaN	NaN	NaN	NaN
9142.462	NaN	NaN	NaN	NaN
9146.483	NaN	NaN	NaN	NaN
9150.472	NaN	NaN	NaN	NaN
9154.468	NaN	NaN	NaN	NaN
9158.468	NaN	NaN	NaN	NaN
9162.462	NaN	NaN	NaN	NaN
9166.468	NaN	NaN	NaN	NaN
9170.466	NaN	NaN	NaN	NaN
9174.467	NaN	NaN	NaN	NaN
9178.517	NaN	NaN	NaN	NaN
9182.471	NaN	NaN	NaN	NaN
9186.462	NaN	NaN	NaN	NaN
9190.468	NaN	NaN	NaN	NaN
9194.465	NaN	NaN	NaN	NaN
9198.467	NaN	NaN	NaN	NaN
9202.462	NaN	NaN	NaN	NaN
9206.468	NaN	NaN	NaN	NaN
9210.465	NaN	NaN	NaN	NaN
9214.504	NaN	NaN	NaN	NaN
9218.461	NaN	NaN	NaN	NaN
9222.465	NaN	NaN	NaN	NaN
9226.467	NaN	NaN	NaN	NaN
9230.463	NaN	NaN	NaN	NaN
9234.467	NaN	NaN	NaN	NaN
9238.464	NaN	NaN	NaN	NaN
9242.464	NaN	NaN	NaN	NaN
9246.463	NaN	NaN	NaN	NaN
