time (ms)	lx (deg)	ly (deg)	rx (deg)	ry (deg)
0.000	NaN	NaN	NaN	NaN
4.090	NaN	NaN	NaN	NaN
8.097	NaN	NaN	NaN	NaN
12.002	NaN	NaN	NaN	NaN
15.996	NaN	NaN	NaN	NaN
20.000	NaN	NaN	NaN	NaN
24.001	NaN	NaN	NaN	NaN
27.998	NaN	NaN	NaN	NaN
32.000	NaN	NaN	NaN	NaN
36.026	NaN	NaN	NaN	NaN
40.098	NaN	NaN	NaN	NaN
43.997	NaN	NaN	NaN	NaN
48.056	NaN	NaN	NaN	NaN
52.001	NaN	NaN	NaN	NaN
56.002	NaN	NaN	NaN	NaN
60.006	NaN	NaN	NaN	NaN
64.003	NaN	NaN	NaN	NaN
68.001	NaN	NaN	NaN	NaN
71.996	NaN	NaN	NaN	NaN
76.443	NaN	NaN	NaN	NaN
80.058	NaN	NaN	NaN	NaN
84.003	NaN	NaN	NaN	NaN
87.998	NaN	NaN	NaN	NaN
91.996	NaN	NaN	NaN	NaN
96.000	NaN	NaN	NaN	NaN
100.001	NaN	NaN	NaN	NaN
104.002	NaN	NaN	NaN	NaN
107.881	NaN	NaN	NaN	NaN
111.876	NaN	NaN	NaN	NaN
115.877	NaN	NaN	NaN	NaN
119.874	NaN	NaN	NaN	NaN
123.873	NaN	NaN	NaN	NaN
127.877	NaN	NaN	NaN	NaN
131.872	NaN	NaN	NaN	NaN
135.872	NaN	NaN	NaN	NaN
139.877	NaN	NaN	NaN	NaN
144.371	NaN	NaN	NaN	NaN
147.906	NaN	NaN	NaN	NaN
151.898	NaN	NaN	NaN	NaN
155.867	NaN	NaN	NaN	NaN
159.867	NaN	NaN	NaN	NaN
163.869	NaN	NaN	NaN	NaN
167.871	NaN	NaN	NaN	NaN
171.867	NaN	NaN	NaN	NaN
175.866	NaN	NaN	NaN	NaN
179.867	NaN	NaN	NaN	NaN
183.882	NaN	NaN	NaN	NaN
187.876	NaN	NaN	NaN	NaN
191.871	NaN	NaN	NaN	NaN
195.869	NaN	NaN	NaN	NaN
199.867	NaN	NaN	NaN	NaN
203.864	NaN	NaN	NaN	NaN
207.868	NaN	NaN	NaN	NaN
212.308	NaN	NaN	NaN	NaN
215.882	NaN	NaN	NaN	NaN
219.874	NaN	NaN	NaN	NaN
223.865	NaN	NaN	NaN	NaN
227.868	NaN	NaN	NaN	NaN
231.874	NaN	NaN	NaN	NaN
235.866	NaN	NaN	NaN	NaN
239.870	NaN	NaN	NaN	NaN
243.872	NaN	NaN	NaN	NaN
247.893	NaN	NaN	NaN	NaN
251.879	NaN	NaN	NaN	NaN
255.870	NaN	NaN	NaN	NaN
259.868	NaN	NaN	NaN	NaN
263.863	NaN	NaN	NaN	NaN
267.872	NaN	NaN	NaN	NaN
271.870	NaN	NaN	NaN	NaN
275.865	NaN	NaN	NaN	NaN
280.347	NaN	NaN	NaN	NaN
283.906	NaN	NaN	NaN	NaN
287.874	NaN	NaN	NaN	NaN
291.867	NaN	NaN	NaN	NaN
295.867	NaN	NaN	NaN	NaN
299.862	NaN	NaN	NaN	NaN
303.866	NaN	NaN	NaN	NaN
307.902	NaN	NaN	NaN	NaN
311.867	NaN	NaN	NaN	NaN
315.865	NaN	NaN	NaN	NaN
319.869	NaN	NaN	NaN	NaN
323.866	NaN	NaN	NaN	NaN
327.861	NaN	NaN	NaN	NaN
331.865	NaN	NaN	NaN	NaN
335.867	NaN	NaN	NaN	NaN
339.874	NaN	NaN	NaN	NaN
343.862	NaN	NaN	NaN	NaN
348.278	NaN	NaN	NaN	NaN
352.029	NaN	NaN	NaN	NaN
496.843	NaN	NaN	NaN	NaN
546.568	NaN	NaN	NaN	NaN
596.555	NaN	NaN	NaN	NaN
646.556	NaN	NaN	NaN	NaN
696.556	NaN	NaN	NaN	NaN
746.686	NaN	NaN	NaN	NaN
796.684	NaN	NaN	NaN	NaN
846.681	NaN	NaN	NaN	NaN
896.684	NaN	NaN	NaN	NaN
946.684	NaN	NaN	NaN	NaN
996.839	NaN	NaN	NaN	NaN
1046.807	NaN	NaN	NaN	NaN
1114.508	-1.66165	0.75612	-1.44485	2.00477
1118.727	1.23020	-0.92228	-1.14565	1.98766
1122.246	1.22779	-0.92484	1.57580	-0.01615
1126.235	-1.55358	-1.73626	-3.25773	2.25412
1130.236	-0.54101	-2.41509	-1.59226	-0.11622
1134.229	1.21323	-1.92743	-5.00521	-0.21086
1138.233	3.16295	-1.09271	-1.44865	1.41402
1142.228	1.24855	-2.68778	-1.70070	1.86261
1146.228	0.28664	-2.39661	-1.52548	1.34086
1150.228	2.42748	-2.11198	-1.50202	1.71689
1154.227	5.06131	-2.13397	-1.86590	1.10402
1158.227	7.50581	0.00140	-2.05511	1.41979
1162.228	1.72180	-0.69585	-1.84086	-1.92087
1166.229	7.32600	-4.84397	-4.91723	-0.57302
1170.230	4.25033	-2.97936	-5.47427	-1.02259
1174.231	3.61480	-2.23860	-1.76586	0.63119
1178.225	4.49225	-2.31470	-2.74148	0.92107
1182.231	7.06332	-0.19378	-2.38519	0.76589
1186.234	2.71295	-0.25958	-1.03416	1.61877
1190.233	2.87799	-4.99046	-4.98783	0.82659
1194.230	3.56544	1.07257	-2.15943	4.02763
1198.225	2.34364	1.00614	-2.46862	-0.60412
1202.226	-0.45001	1.42690	-2.28512	1.71505
1206.230	3.30376	0.77597	-5.26349	-0.37081
1210.234	3.18163	0.59120	-0.98452	1.02569
1214.231	6.22042	-0.01996	-1.42298	2.21801
1218.224	3.29508	-0.50868	-5.34973	-0.43051
1222.257	0.20854	1.66469	-0.91371	2.04758
1226.228	4.32646	-0.59892	-4.25815	-0.20439
1230.228	2.21754	0.25456	-4.60212	1.04422
1234.232	0.57962	0.96450	-2.51096	0.79682
1238.228	0.41710	0.71423	-2.38729	4.29123
1242.225	3.35281	0.54836	-2.11437	0.24412
1246.231	8.47583	-3.65447	-1.84208	1.57209
1250.228	6.80428	-2.72796	-2.40751	1.84038
1254.235	6.84940	-2.75660	-2.18493	2.17007
1258.228	2.26804	0.41423	-5.63977	0.48962
1262.227	3.62620	-0.43507	-2.36195	2.49605
1266.222	6.73463	-2.96312	-2.00909	2.27252
1270.224	4.51280	-1.62476	-1.95539	2.37757
1274.228	1.72696	-1.76938	-4.03248	1.86134
1278.226	6.55459	-2.40862	-1.63080	2.28979
1282.223	6.85896	-3.84450	-2.35199	2.50818
1286.229	-0.41720	2.51335	-1.65369	2.38097
1290.226	4.84445	-1.52270	-2.03469	2.09603
1294.232	1.92813	1.41382	-2.12278	2.27950
1298.222	3.01670	-1.86087	-1.96139	2.20080
1302.227	2.78421	-0.63745	-2.21197	2.03912
1306.225	2.38204	1.55162	-1.59541	1.82983
1310.225	2.93005	2.04613	-1.58626	1.85688
1314.231	2.39215	1.41252	-2.45676	1.84840
1318.226	6.77156	-0.88493	0.53967	1.92023
1322.227	2.11033	1.70084	-2.11200	1.90111
1326.224	2.27768	1.39760	-1.95696	1.84867
1330.226	3.65178	-0.72644	0.23874	1.85586
1334.230	6.46203	-2.09829	2.38474	1.87836
1338.227	2.26356	0.60086	-1.86345	1.87693
1342.223	-1.47089	1.74675	-1.79306	1.68468
1346.227	1.33316	1.94154	0.26604	1.89161
1350.229	2.01461	0.95534	1.01456	1.89371
1354.224	8.60346	-5.10621	-1.82599	1.92790
1358.223	0.08329	1.49064	-2.03868	1.22661
1362.226	1.64883	1.64574	-1.77154	1.95292
1366.223	1.00397	2.14355	-1.09586	1.62554
1370.227	4.42390	-1.75252	-1.22695	2.14093
1374.228	2.32298	1.21861	-1.30449	2.25061
1378.233	-1.15201	2.42101	-1.03096	3.57254
1382.225	-1.48074	2.26039	1.36923	1.61882
1386.223	3.65883	1.96714	-1.41420	2.24103
1390.222	8.58735	-1.69900	-1.39636	1.28798
1394.229	1.23243	2.09840	-1.18517	1.53719
1398.224	5.82380	-2.18568	-0.74149	1.43000
1402.227	3.78899	1.57373	-1.27646	1.80082
1406.223	3.28353	1.11475	-1.30806	1.32127
1410.224	0.04693	1.70941	-1.29702	3.30524
1414.226	5.94946	-1.80125	0.46016	2.28362
1418.227	8.70316	-1.55051	0.06418	1.49359
1422.249	2.75477	-1.21178	-1.77263	1.99725
1426.230	0.41445	0.83274	-1.50579	2.06212
1430.223	3.04850	-0.80660	-1.29313	1.54175
1434.227	3.48699	-0.90050	-1.06012	1.30726
1438.225	4.94955	-0.55237	-1.13032	1.43208
1442.220	0.79940	0.54485	-0.53562	1.28597
1446.221	1.10035	0.55948	-1.22397	1.57456
1450.225	5.49610	-1.84202	-1.27678	1.44901
1454.220	4.42227	-2.39602	-2.03410	1.54124
1458.223	4.82412	-6.31724	-1.61089	1.33006
1462.232	3.03942	-0.53084	-1.47930	1.18993
1466.225	0.80064	1.11612	-1.14109	1.03549
1470.221	3.48850	-0.05444	-1.15315	0.89613
1474.218	4.05298	-0.77313	-1.43285	1.34951
1478.223	4.02418	-0.75923	-1.61307	1.52932
1482.224	1.04329	-0.10584	-1.92384	1.44259
1486.220	5.31275	-2.78022	-1.51367	1.02426
1490.218	6.23935	-5.96495	-1.16188	1.30324
1494.241	8.26568	-5.55588	-2.32659	2.18617
1498.228	0.70645	1.83496	-2.01035	1.85576
1502.230	0.74399	1.17729	-1.32637	1.07699
1506.221	1.99047	0.80827	-1.46747	0.88283
1510.225	3.24360	-0.65266	-1.02677	0.66860
1514.221	1.96930	-3.23866	-1.10916	0.47755
1518.222	2.30083	-1.00950	-0.25138	1.45218
1522.221	-1.97520	0.97307	0.36397	1.92281
1526.228	1.36345	-1.03322	-1.87344	2.29366
1530.223	-1.15987	0.45004	-1.63132	2.08591
1534.218	-1.32069	0.51644	-2.13507	2.03087
1538.225	0.47334	-1.18067	-1.70336	1.69831
1542.227	-1.00940	0.49404	-1.95626	1.54253
1546.223	0.52538	-0.08568	-1.86283	1.81367
1550.224	1.87151	-1.24061	-2.13306	1.73353
1554.228	2.37176	-1.46356	-2.01377	1.83256
1558.219	2.13814	-1.30298	-2.31331	0.69167
1562.218	0.89168	-1.07303	-2.18902	1.66500
1566.223	0.80496	-1.61558	-1.82472	1.82450
1570.223	2.01982	-1.40198	-2.10570	1.39751
1574.217	-0.83488	1.38202	-1.94622	1.44555
1578.219	-1.46631	-0.41528	-2.14235	1.26408
1582.221	-1.13980	-0.71406	-2.24941	1.38381
1586.219	-1.62537	-0.37375	-1.93420	1.74836
1590.219	4.26245	-1.24614	-2.15509	1.78390
1594.222	4.65511	-5.14277	-2.07043	1.56773
1598.223	1.04151	-0.28306	-1.77573	1.03498
1602.221	2.35514	-6.65291	-2.30258	1.29097
1606.216	0.66186	-1.83744	-2.20386	1.48157
1610.219	-0.07289	-3.50242	-5.92837	-0.29543
1614.224	0.06567	-2.71725	-2.03742	1.65581
1618.222	-1.06168	-2.83343	-2.03536	1.83444
1622.223	-0.49848	-0.29236	-1.56761	1.76521
1626.229	-1.99508	-2.65267	-1.51918	1.56721
1630.220	-1.14424	-2.47007	-1.58234	1.34125
1634.218	-1.29137	1.38405	-1.51715	1.39402
1638.218	4.55722	-1.04969	-1.72971	1.28859
1642.220	0.22217	-1.38625	-1.95706	1.53551
1646.220	-1.11976	-1.61865	-1.74838	1.55063
1650.219	5.36826	-2.99513	-1.88541	1.54828
1654.257	5.67118	-8.47355	-1.89682	1.41129
1658.219	-0.51391	-1.40734	-1.90554	1.19478
1662.224	0.93366	-0.99681	-1.92057	1.37163
1666.224	-1.40423	0.28950	-1.81892	1.22324
1670.223	-1.82770	-0.72283	-1.87200	1.16464
1674.222	0.80086	-2.79116	-1.91940	1.22143
1678.215	0.59908	-1.16627	-2.02351	1.04501
1682.223	0.72506	-1.79683	-2.22465	1.15476
1686.221	-1.56412	-2.82251	-1.91836	1.67774
1690.217	-2.03576	-0.64420	-1.62515	1.00303
1694.223	1.12018	-2.48172	-1.64813	0.80498
1698.219	0.83828	-0.98648	-1.64397	0.70661
1702.220	0.80260	-0.85012	-3.61391	0.22178
1706.217	-1.48416	0.11653	-1.70222	1.09081
1710.238	-2.11279	0.18629	-1.42139	1.20714
1714.219	0.80501	-2.31014	-1.37020	1.14621
1718.216	-1.36682	-1.52681	-1.53679	0.91816
1722.216	-0.65422	-1.75843	-1.80581	1.33787
1726.217	1.67162	-4.18534	-1.71203	1.03705
1730.220	-1.04267	0.02984	-2.52230	1.19778
1734.217	-2.00975	-2.07925	-1.56278	1.20443
1738.092	-2.09254	-0.49095	-1.66624	0.84604
1742.113	-1.70993	-0.45642	-1.71679	1.13621
1746.092	-1.08723	-0.57889	-1.71813	0.88488
1750.095	-0.00295	-0.77336	-1.70360	1.26426
1754.091	-0.47731	-0.60975	-1.90614	1.27772
1758.096	-1.56189	-0.38563	-1.88023	1.21076
1762.107	-0.76163	-2.16882	-1.98670	1.14371
1766.094	1.33574	-0.38806	-1.80065	0.98330
1770.094	-1.82857	-0.52168	-1.65999	0.88329
1774.091	0.68724	-1.08292	-1.46239	1.03420
1778.091	0.33660	-0.69412	-1.37565	1.41682
1782.095	0.39045	-0.65560	-1.61999	0.90124
1786.090	0.38338	-0.71684	-1.87651	1.01106
1790.151	0.15777	-0.20468	-1.79519	1.32608
1794.106	-0.06840	-0.40151	-1.80940	1.47734
1798.104	0.29734	-0.27701	-1.88819	2.24774
1802.094	0.48227	-0.62928	-1.89387	2.73631
1806.094	0.40839	-0.58283	-1.74935	2.66439
1810.093	0.41184	-0.51624	-1.08879	2.19492
1814.092	0.56178	-0.54699	-1.58463	2.78942
1818.094	0.88418	-0.57703	-1.72820	2.87864
1822.093	1.19100	-0.36319	-1.31783	2.89282
1826.094	0.50761	-0.31850	-1.75252	2.77308
1830.089	1.05873	-0.21732	-1.57649	2.56525
1834.095	0.98258	-0.11387	-1.80749	2.29094
1838.093	4.30337	-2.64329	-1.64821	2.13649
1842.104	1.29881	0.05853	-1.60040	1.64221
1846.090	6.62902	-8.84145	-1.71062	1.64971
1850.093	0.97564	-0.64673	-1.86932	1.64220
1854.094	0.64831	-1.00665	-1.65304	1.35873
1858.115	0.33839	-1.03918	-1.74774	0.30063
1862.093	0.47698	-1.09359	-1.38317	1.03848
1866.088	0.20862	-1.04031	0.46584	1.53332
1870.122	5.07931	-5.78238	1.95361	1.39948
1874.101	0.54399	-0.65315	0.12962	1.84138
1878.092	0.52858	-0.82753	-1.73549	1.51420
1882.095	0.17742	0.19984	-1.58458	1.51487
1886.089	-0.20896	0.77124	-1.64836	0.91869
1890.093	-0.37365	0.41874	-2.05975	0.63250
1894.091	0.45247	-0.41827	-2.29622	1.79900
1898.092	7.05112	-5.15012	-1.26780	1.95392
1902.087	4.77057	-0.71903	-2.15950	2.05787
1906.087	3.31749	-0.55942	-5.28165	4.99697
1910.092	-3.94391	4.15788	-5.30702	3.50894
1914.088	-4.05266	4.50845	-5.83296	4.64221
1918.088	-7.79537	4.74255	-7.62538	4.99814
1922.101	-7.76367	4.22156	-6.93814	4.99551
1926.093	-8.36678	3.84756	-7.27418	4.73783
1930.088	-7.65151	3.21507	-7.49454	4.66126
1934.120	-9.06777	4.44050	-7.57903	5.13996
1938.093	-8.86640	4.89567	-7.52352	4.88001
1942.095	-8.18672	5.11489	-7.41180	4.99643
1946.089	-8.74680	5.39470	-7.61599	5.04266
1950.092	-9.15979	3.47226	-7.98135	5.13862
1954.090	-8.06837	5.52995	-8.20369	4.70407
1958.086	-8.06300	5.43097	-7.89189	4.82315
1962.087	-7.72554	4.57057	-7.35905	5.42479
1966.112	-8.66219	4.62953	-8.77029	6.79307
1970.088	-7.83164	5.95183	-8.21638	6.34698
1974.087	-7.51757	5.84122	-7.89352	5.53961
1978.087	-4.81949	4.10037	-8.27591	5.08291
1982.087	-7.44518	1.77034	-7.63408	4.83093
1986.088	-4.56104	2.59358	-8.17721	4.89140
1990.086	-4.73670	5.38245	-6.46326	5.56867
1994.085	-8.20520	6.40145	-6.25943	5.33705
1998.093	-8.38729	6.26749	-5.84227	5.33494
2002.093	-7.44506	6.34606	-7.34384	5.31045
2006.091	-8.66557	6.31224	-8.00851	5.15608
2010.090	-8.81741	6.62435	-7.94177	5.28171
2014.088	-8.78006	7.10532	-7.76867	5.18054
2018.087	-7.09903	6.29983	-7.80358	5.36195
2022.087	-5.38462	5.08353	-7.27521	4.77961
2026.089	-6.41219	5.27371	-7.43942	4.65291
2030.089	-6.18014	5.44818	-6.98448	5.04438
2034.086	-6.30448	2.80045	-7.23582	5.13123
2038.086	-13.74147	-2.54162	-7.50230	5.31985
2042.091	-9.76690	2.53108	-7.63620	5.29194
2046.087	-6.25036	5.11184	-7.83580	5.11439
2050.093	-8.20090	2.44307	-7.79006	5.44699
2054.113	-5.05008	2.31099	-7.64708	4.79195
2058.092	-7.38131	5.01100	-7.70204	5.01926
2062.086	-13.77151	-1.71419	-8.34616	5.50041
2066.087	-7.22519	4.37681	-9.60031	6.01108
2070.090	-3.87470	2.31816	-10.07485	5.70906
2074.090	-7.67277	4.13075	-7.79149	5.70277
2078.087	-8.17228	4.31679	-7.92439	4.74133
2082.082	-8.82788	4.43412	-8.00895	4.82041
2086.091	-8.80425	4.90095	-8.25810	4.76383
2090.092	-8.97612	4.99076	-8.17109	4.90297
2094.089	-9.09461	4.87239	-9.29217	5.05367
2098.084	-14.96511	-2.50766	-9.10090	4.91963
2102.090	-8.69862	3.60922	-9.51778	5.11742
2106.087	-12.99684	-2.99177	-8.28208	5.22052
2110.089	-8.19577	3.52969	-7.94445	5.26732
2114.082	-8.02703	3.68855	-8.00250	4.98300
2118.091	-0.67558	-1.04991	-7.74040	4.88202
2122.090	-9.03043	3.28310	-8.14867	4.90637
2126.086	-14.81310	-0.80672	-8.07438	4.93480
2130.095	-8.62862	3.74610	-8.40708	4.94580
2134.090	-9.09459	3.48429	-8.52042	5.05480
2138.086	-15.04337	-0.98107	-8.64713	4.91557
2142.086	-9.30986	3.97781	-8.05068	5.17599
2146.085	-9.59863	3.70662	-9.73846	6.79725
2150.087	-15.88376	-0.95896	-9.05139	5.40564
2154.082	-16.91663	-0.95493	-10.11921	5.82025
2158.084	-16.83106	1.70704	-10.69865	5.45525
2162.084	-16.95665	-1.16575	-10.78669	5.11854
2166.084	-16.51399	-0.59441	-10.74067	5.67359
2170.081	-16.73921	2.37992	-10.55529	5.30378
2174.088	-17.08170	-1.16993	-10.73478	5.88206
2178.088	-10.97609	3.62677	-10.78065	5.45434
2182.092	-11.75688	4.60300	-10.90444	5.88504
2186.089	-16.46911	-0.88530	-10.66237	5.37349
2190.084	-16.72004	0.51639	-10.95141	5.60462
2194.085	-16.66234	0.44166	-10.83242	5.44172
2198.081	-16.69557	-0.03630	-10.86613	5.29561
2202.084	-16.66350	-0.25124	-10.63135	5.41541
2206.086	-16.45441	-0.92603	-10.64192	5.66435
2210.088	-16.77459	-1.89214	-10.37955	5.85457
2214.086	-17.19261	-1.30159	-10.58356	6.09376
2218.092	-16.84161	-1.68290	-10.92693	6.52789
2222.086	-17.04355	-1.98747	-10.87144	6.50151
2226.083	-14.28825	0.29785	-11.12312	6.11783
2230.084	-17.55632	-1.57562	-11.25636	6.10783
2234.084	-17.93668	-0.86200	-11.43488	5.98198
2238.087	-17.86367	-1.76316	-11.29512	5.69328
2242.084	-17.31027	-1.01204	-10.24161	6.22244
2246.087	-17.01065	0.80938	-10.89224	5.96907
2250.084	-15.26342	-0.99115	-11.29340	5.84565
2254.089	-11.87052	3.61751	-11.33900	5.85159
2258.139	-17.18693	-0.63014	-10.87091	6.65428
2262.091	-16.57012	-1.05884	-10.46594	6.15815
2266.080	-16.12106	-3.97931	-10.49519	6.21701
2270.087	-11.79803	3.21374	-10.57133	5.73569
2274.082	-16.86230	-1.47853	-6.89145	7.02224
2278.084	-16.78042	-1.74235	-7.02066	7.14274
2282.082	-16.91290	-0.72560	-7.22661	6.89403
2286.084	-17.03770	-0.88361	-7.42556	6.25476
2290.085	-17.48108	-0.41546	-9.59592	6.43151
2294.081	-12.61131	3.52576	-8.84692	6.56582
2298.091	-17.40093	-2.31866	-9.65013	6.23360
2302.086	-17.46802	-3.68975	-9.53110	6.26904
2306.081	-17.78728	-2.22753	-9.78168	6.30695
2310.081	-17.68448	-2.26611	-9.90585	6.18690
2314.082	-17.88686	-2.67801	-10.01421	5.93073
2318.080	-17.57502	-3.32456	-10.12900	5.95920
2322.082	-17.99808	-1.45750	-10.02418	6.00861
2326.082	-17.83873	-2.22167	-10.15420	5.89318
2330.083	-18.16937	-3.11406	-10.20613	5.99853
2334.081	-18.05292	-1.97363	-10.06309	6.11916
2338.083	-12.64525	4.06907	-10.31477	5.78257
2342.085	-17.96763	-1.48801	-10.62286	5.66808
2346.086	-17.85863	-2.45110	-10.59783	5.68310
2350.086	-17.70728	-4.75722	-10.56764	6.00612
2354.082	-12.16524	2.59269	-10.65237	6.42321
2358.085	-17.49638	-1.00997	-10.64444	5.92778
2362.082	-17.22751	-0.77718	-11.00109	5.60144
2366.081	-17.22717	-0.15897	-10.97322	6.00867
2370.087	-17.06653	-1.23257	-10.72977	5.58000
2374.085	-12.45755	3.85025	-10.74295	5.61931
2378.080	-15.40260	2.41723	-11.03949	5.45733
2382.088	-12.32902	4.97122	-10.61871	5.83874
2386.090	-16.74635	-0.19657	-10.72479	5.78118
2390.082	-13.29419	5.01493	-11.49402	6.71670
2394.081	-19.79049	4.89773	-16.71547	5.66299
2398.078	-19.56544	6.86278	-20.40192	5.18646
2402.080	-19.76417	7.64897	-6.62767	2.60284
2406.083	-23.06324	11.60303	-9.62912	5.53885
2410.086	-19.83001	-12.08956	-20.17634	-12.06377
2414.087	-19.86697	-12.08683	-20.11014	-12.06873
2418.080	-19.89109	-12.08504	-20.07832	-12.07111
2422.090	-19.90816	-12.08378	-20.05951	-12.07252
2426.085	-19.92095	-12.08283	-20.04700	-12.07345
2430.086	-19.93093	-12.08209	-20.03805	-12.07412
2434.084	-19.93900	-12.08149	-20.03130	-12.07462
2438.086	-19.95803	-12.08008	-20.02602	-12.07502
2442.086	-19.99309	-12.07747	NaN	NaN
2446.086	NaN	NaN	NaN	NaN
2450.084	NaN	NaN	NaN	NaN
2454.084	NaN	NaN	NaN	NaN
2458.092	NaN	NaN	NaN	NaN
2462.107	NaN	NaN	NaN	NaN
2466.106	NaN	NaN	NaN	NaN
2470.162	NaN	NaN	NaN	NaN
2474.193	NaN	NaN	NaN	NaN
2479.183	NaN	NaN	NaN	NaN
2482.835	NaN	NaN	NaN	NaN
2486.995	NaN	NaN	NaN	NaN
2491.127	NaN	NaN	NaN	NaN
2495.252	NaN	NaN	NaN	NaN
2499.502	NaN	NaN	NaN	NaN
2503.617	NaN	NaN	NaN	NaN
2507.080	NaN	NaN	NaN	NaN
2510.546	NaN	NaN	NaN	NaN
2514.597	NaN	NaN	NaN	NaN
2518.642	NaN	NaN	NaN	NaN
2522.768	NaN	NaN	NaN	NaN
2526.422	NaN	NaN	NaN	NaN
2531.962	NaN	NaN	NaN	NaN
2535.627	NaN	NaN	NaN	NaN
2542.083	NaN	NaN	NaN	NaN
2546.091	NaN	NaN	NaN	NaN
2550.087	NaN	NaN	NaN	NaN
2554.084	NaN	NaN	NaN	NaN
2558.082	NaN	NaN	15.22638	-0.79660
2562.079	NaN	NaN	20.65997	2.50578
2566.080	NaN	NaN	19.03447	1.06068
2570.076	NaN	NaN	19.19289	1.38012
2574.084	NaN	NaN	15.53538	2.10058
2578.080	NaN	NaN	18.95403	2.13493
2582.081	NaN	NaN	2.42886	2.16362
2586.077	NaN	NaN	NaN	NaN
2590.083	NaN	NaN	NaN	NaN
2593.963	NaN	NaN	NaN	NaN
2597.957	NaN	NaN	NaN	NaN
2601.951	NaN	NaN	10.15018	2.44769
2605.957	NaN	NaN	8.97695	2.26330
2609.954	NaN	NaN	9.92442	2.41971
2613.956	NaN	NaN	11.48656	1.74159
2617.958	15.11341	-1.61333	19.39657	1.35835
2621.956	15.14523	-1.95209	11.64908	1.20827
2625.953	19.94887	-6.07275	18.25433	1.23841
2629.955	17.44544	-3.94076	15.58177	2.45712
2633.955	17.88734	-2.28883	13.54044	1.82871
2637.963	NaN	NaN	14.75509	2.41214
2641.954	NaN	NaN	11.96144	2.04311
2645.951	NaN	NaN	12.73817	2.47522
2649.952	16.46094	-2.27642	14.52500	1.37856
2653.955	15.91991	-3.11882	11.75115	0.71896
2657.951	15.76872	-2.79035	13.36612	1.35184
2661.957	15.44933	-2.56287	11.85411	0.06763
2665.954	14.51512	-2.64131	9.90127	1.57136
2669.955	14.52858	-2.60533	10.80034	1.10264
2673.953	15.76663	-2.67771	10.61411	0.97149
2677.957	15.45481	-3.07083	10.48951	1.07255
2681.955	15.05809	-2.53428	11.15742	1.06390
2685.951	14.70184	-13.91274	10.99554	1.02842
2689.950	14.53244	-14.08801	11.40267	1.05086
2693.952	15.60841	-13.91452	11.68895	1.04680
2697.953	-19.99372	-12.36137	11.80283	1.03834
2701.949	-19.99372	-12.23355	11.42651	1.18916
2705.956	14.87007	-13.89489	11.48373	1.24814
2709.951	15.04325	-2.73027	11.69928	1.16135
2713.953	15.37478	-2.82674	11.79342	1.30520
2717.959	14.16056	-2.69212	11.75643	1.16500
2721.956	15.40955	-2.77157	11.70802	1.40018
2725.949	15.48114	-3.53518	11.82157	1.28730
2729.955	15.35438	-3.73367	11.66589	1.31048
2733.952	15.41720	-3.77193	11.50894	1.25183
2737.952	14.72457	-3.29078	11.59689	1.26591
2741.950	16.79961	-3.68038	13.89561	1.30504
2745.953	15.31521	-0.91854	11.82984	1.49557
2749.976	15.76915	-2.18761	11.39361	1.58953
2753.954	15.63727	-1.76507	11.81753	1.35509
2757.952	16.44631	-2.93747	12.61041	1.22641
2761.957	21.57162	-5.99532	11.70871	0.26261
2765.951	15.75807	-3.08288	12.77509	1.35213
2769.954	15.41167	-3.45820	13.25439	1.24269
2773.952	15.66894	-3.55257	13.57628	1.39187
2777.949	15.18465	-2.74578	13.85021	1.16931
2781.954	17.57660	-4.38531	14.08907	0.85461
2785.952	18.05548	-5.47488	13.73697	0.77231
2789.949	19.31912	-5.18216	11.48780	1.19443
2793.946	18.89987	-3.13983	13.33715	3.63463
2797.948	16.39598	-2.26287	13.05663	3.42941
2801.956	14.94155	-1.42303	10.17392	1.64682
2805.953	15.54464	-1.73784	10.40387	1.52578
2809.953	18.39400	-3.54392	10.19250	1.55601
2813.949	15.16479	-1.26034	10.46460	1.85772
2817.951	15.23429	-1.20890	10.66002	1.75749
2821.950	15.39734	-1.47475	10.28378	1.96518
2825.953	15.37144	-1.16970	10.27196	1.87982
2829.952	16.70258	-3.31021	10.57735	1.85189
2833.949	15.28827	-1.18087	10.44957	1.83452
2837.949	15.21599	-1.26615	11.27424	1.78788
2841.953	15.01522	-1.19996	10.75567	1.78874
2845.954	15.03992	-1.44037	10.69839	1.72617
2849.951	14.97634	-1.43314	10.77900	1.83242
2853.952	14.79904	-0.32868	16.70447	1.86837
2857.950	14.18062	0.48474	7.92653	2.19565
2861.948	8.57211	2.29356	7.04750	2.56810
2865.947	8.54256	2.62973	6.02902	3.41844
2869.963	0.77156	2.09334	3.36557	3.99596
2873.949	5.40299	2.28964	5.85809	4.47945
2877.954	4.29226	2.77763	1.83248	3.59910
2881.967	3.85862	2.48694	3.21038	3.94902
2885.957	2.29684	2.30080	3.15649	3.35345
2889.949	1.87557	2.46778	2.97591	3.72661
2893.948	2.43456	2.28540	2.91468	4.63755
2897.949	4.20412	2.33709	2.89116	3.99381
2901.947	3.80305	1.82133	1.50341	3.23869
2905.946	2.37486	0.41752	1.49607	3.72710
2909.952	2.20902	2.30233	2.68670	3.74262
2913.949	2.82850	2.43495	2.78473	3.82062
2917.951	3.69555	2.37226	1.25877	3.52665
2921.949	2.71496	2.27516	1.34889	3.34436
2925.952	2.30818	2.47166	1.14523	4.23279
2929.955	2.40365	2.71254	4.14058	3.02963
2933.950	1.58740	3.01468	3.27719	4.04729
2937.949	1.96873	2.96037	2.08434	3.46547
2941.950	3.74034	2.36622	1.20983	4.91707
2945.944	1.92062	3.22170	1.40304	5.38426
2949.950	3.36881	2.90151	1.22791	3.94456
2953.979	3.07914	2.68014	1.38763	4.51634
2957.959	2.00933	2.66194	1.48297	4.83943
2961.948	4.19983	0.53551	1.60451	4.23344
2965.950	2.35935	0.55991	1.61664	5.01485
2969.951	3.10032	0.62141	1.44713	5.05695
2973.948	3.67890	0.57366	1.46566	3.90328
2977.945	2.08515	1.80705	1.68213	4.56778
2981.946	4.13063	0.68519	1.32366	4.68452
2985.947	2.00348	1.58115	1.54646	3.83791
2989.949	2.22726	2.27850	1.66500	4.51112
2993.948	3.63475	2.15163	1.57592	4.33833
2997.953	1.44351	2.44045	1.59321	4.08597
3001.946	4.33093	1.86081	1.73128	4.30625
3005.944	1.83290	2.21396	1.38203	3.95507
3009.950	4.12782	1.93730	1.51524	4.26294
3013.947	2.09737	0.88215	1.29144	4.17355
3017.948	4.00712	0.85999	1.26904	3.79669
3021.949	3.81760	0.72861	1.28571	4.27786
3025.945	1.22610	2.02375	1.24726	4.12939
3029.949	4.31089	1.77184	1.29633	3.81169
3033.948	2.26108	1.13214	1.52890	3.95346
3037.945	2.26532	1.96897	1.19681	3.72305
3041.948	3.09037	1.82193	1.27639	4.19303
3045.947	1.66190	2.19318	1.17843	4.08940
3049.948	3.08137	2.16539	1.33597	3.93497
3053.955	2.15103	2.15209	1.35370	3.95638
3057.949	3.83154	1.76921	1.32773	3.81097
3061.949	2.77426	1.85115	1.29787	4.06851
3065.951	2.74479	1.08657	1.29988	3.82420
3069.947	3.03197	0.76091	1.42603	3.85389
3073.948	1.94920	1.40715	1.51831	3.81818
3077.944	3.74342	0.96423	0.83024	3.82275
3081.949	1.62817	1.33724	1.41554	3.87941
3085.948	2.91693	2.22509	1.34209	3.78664
3089.947	2.95968	1.91880	1.11968	3.81136
3093.950	2.31745	1.99999	1.27959	3.83652
3097.954	3.27435	1.67366	0.86709	3.76087
3102.009	1.17220	1.92823	1.13519	3.75267
3105.951	3.35664	0.71437	1.11737	3.80974
3109.943	2.56810	0.40517	0.97018	3.58412
3113.948	2.88599	0.67680	1.10509	3.90405
3117.945	0.89644	1.75547	1.09519	2.28948
3121.946	1.75882	2.16933	1.18961	3.36259
3125.947	0.65769	1.97398	0.97273	3.83873
3129.945	-0.16025	3.19922	-1.56476	3.37934
3133.950	-1.58420	3.44037	-1.63559	4.51721
3137.945	-2.66813	3.67425	-3.58848	4.48057
3141.947	-3.15251	3.08518	-5.23310	4.87253
3145.945	-5.44382	1.82315	-6.31554	5.01907
3149.950	-3.18863	3.50784	-5.28396	5.92430
3153.946	-3.19699	3.87810	-3.88404	4.57153
3157.943	-5.19116	4.23346	-5.20014	4.47162
3161.945	-3.58524	2.16339	-4.30413	3.38578
3165.941	-4.44751	2.69845	-4.55527	3.32534
3169.948	-4.65875	2.28392	-4.69103	3.81807
3173.944	-2.90760	3.57889	-4.42780	4.18019
3177.947	-3.63737	3.63155	-4.75529	4.34209
3181.941	-4.67204	3.43248	-4.54565	4.19008
3185.946	-3.75489	4.29584	-4.96911	4.10881
3189.945	-3.60697	2.50775	-4.68284	4.34486
3193.942	-4.72083	2.27709	-4.49904	4.34033
3197.949	-4.46537	2.57758	-4.69157	4.14924
3201.945	-2.94886	2.85706	-4.73399	4.03945
3205.946	-4.00280	2.47921	-4.96324	4.40935
3209.941	-3.87919	2.59004	-4.92661	4.31281
3213.948	-3.01017	2.45574	-4.64625	4.25598
3217.948	-3.96269	2.20809	-5.00381	4.15157
3221.945	-4.59130	2.02967	-4.74614	4.27032
3225.981	-3.64232	2.73360	-5.17267	4.05180
3229.953	-3.18823	2.45377	-4.75709	3.85871
3233.945	-3.95024	2.09153	-4.55105	1.93580
3237.942	-4.50772	2.16001	-3.73361	4.04337
3241.941	1.33505	0.60564	-4.99391	3.69204
3245.945	-3.07939	2.46393	-3.71491	4.13025
3249.945	-3.22312	2.15161	-5.24553	4.76513
3253.948	-4.01813	1.83436	-5.31098	5.04770
3257.943	-4.29505	1.80938	-4.97694	3.86950
3261.948	-4.10248	1.98111	-4.85435	4.06490
3265.941	-2.78471	2.64337	-4.66475	3.28501
3269.945	-2.86326	2.14797	-4.35899	3.52840
3273.944	-4.16808	2.68671	-4.83671	3.09455
3277.942	-4.53051	2.82239	-4.59154	3.94339
3281.941	-4.96504	3.33331	-4.83370	3.77454
3285.946	-4.46411	3.57102	-4.90535	4.09312
3289.943	-3.51970	3.28594	-2.80164	3.27181
3293.945	-3.22047	3.73709	-3.62435	4.35476
3297.947	-2.55480	3.51507	-3.83374	4.47723
3301.948	-3.91968	3.62377	-3.54208	3.62587
3305.945	-4.01892	3.79847	-4.34396	4.82503
3309.947	-4.57647	3.58421	-4.80224	4.83460
3313.944	-4.96593	2.93768	-4.19563	4.83930
3317.997	-4.91873	3.17624	-3.78136	4.52546
3321.944	-4.89025	3.35044	-4.23039	4.46360
3325.939	-4.84558	2.75689	-4.15670	4.28233
3329.942	-4.97258	3.10503	-4.35869	4.53338
3333.942	-5.02531	2.94354	-4.53189	4.54008
3337.938	-4.98263	3.35431	-4.59006	4.36449
3341.950	-5.09689	2.75137	-4.51110	4.30024
3345.944	-5.09699	3.03178	-4.61704	4.46266
3349.937	-5.12055	2.80789	-4.54533	4.39389
3353.944	-5.11031	2.97040	-4.56234	4.46847
3357.942	-5.03553	3.27744	-4.51924	4.61417
3361.944	-4.94849	3.41500	-4.19731	4.40474
3365.945	-4.86081	3.23911	-3.60267	4.44012
3369.945	-4.78883	3.37389	-3.92082	4.53393
3373.944	-4.74863	2.79627	-3.17025	1.81348
3377.941	-4.25534	2.20964	-4.11071	4.26875
3381.939	-3.85820	2.42159	-4.62291	3.97369
3385.942	-4.09760	2.07635	-4.10853	3.58171
3389.949	-3.60314	2.56501	-4.35457	3.94886
3393.941	-4.07918	2.07053	-4.53554	3.99273
3397.942	-3.37957	2.39889	-4.29628	4.04784
3401.960	-3.85377	2.20469	-4.65735	4.19588
3405.941	-4.10115	1.91761	-4.52375	4.06135
3409.937	-4.09155	1.93484	-4.31023	4.36217
3413.939	-4.62513	2.39436	-3.65443	2.31322
3417.942	-4.45809	2.25839	-4.73091	3.74650
3421.941	-4.49649	2.63860	-4.65994	4.07709
3425.946	-4.41211	3.07678	-3.97642	4.00707
3429.961	-4.00314	3.03410	-4.35987	4.29397
3433.941	-3.89975	2.23985	-3.90642	3.82839
3437.938	-3.37574	1.89476	-3.42121	3.96526
3441.938	-3.29458	2.18535	-4.54846	3.64006
3445.815	-5.33817	1.59012	-4.72514	3.71627
3449.813	-5.55620	1.53942	-4.13678	3.56368
3453.818	-4.88121	2.12587	-5.68453	4.32460
3457.813	-4.77656	2.21937	-5.35583	4.46421
3461.811	-3.82791	1.70013	-4.40902	4.15456
3465.813	-4.11693	1.78278	-2.79649	2.63700
3469.819	-3.69914	1.76591	-4.02053	4.00066
3473.818	-3.95636	1.40390	-3.90059	3.89426
3477.822	-5.62080	2.31685	-3.72840	4.45493
3481.814	-5.97877	2.13524	-5.22399	4.43256
3485.813	-5.02967	3.12694	-5.04563	4.51772
3489.815	-4.01798	2.92995	-5.14471	4.95005
3493.819	-5.27410	1.90352	-4.48754	4.78219
3497.817	-1.64102	2.59157	-2.58561	4.61488
3501.816	-3.04293	4.13940	-1.49723	4.68765
3505.813	-1.50871	2.31564	-0.39149	4.98421
3509.814	2.49820	2.24539	1.91620	5.18075
3513.819	2.38759	2.72513	2.60577	4.71502
3517.816	5.73996	2.09460	3.57392	4.49617
3521.811	6.92300	1.06719	4.29757	4.35360
3525.818	4.52471	1.93629	3.14726	4.76843
3529.812	6.12313	1.92008	5.61940	3.93732
3533.815	5.42530	1.40728	4.40229	4.13695
3537.839	5.71979	1.89523	1.29072	2.14797
3541.816	5.09805	1.74855	0.05475	1.76224
3545.813	6.20035	0.71929	4.74314	3.89303
3549.813	5.88692	1.32695	4.98950	3.79434
3553.812	4.98812	0.82055	1.28772	3.32726
3557.818	5.87319	0.97200	1.38101	3.79053
3561.821	5.99539	-0.07720	5.52760	3.42060
3565.812	5.94958	0.54760	2.42091	3.01318
3569.815	7.80852	1.49488	0.27361	2.06958
3573.811	7.98415	0.21303	2.45057	3.93166
3577.811	1.10351	-2.79813	0.34238	4.01817
3581.811	7.96673	0.51848	5.95420	3.33046
3585.810	5.34375	0.09869	2.66139	3.71081
3589.811	5.58926	1.04702	4.75139	4.09237
3593.815	5.80700	0.76452	2.86490	4.21639
3597.816	5.02272	-0.39789	4.87631	3.31700
3601.814	3.70376	-4.68285	3.20503	3.95860
3605.808	5.97006	0.98514	4.64904	-0.03770
3609.815	4.88175	1.17641	-0.01948	2.74735
3613.812	6.05221	1.21286	4.52104	2.65456
3617.813	4.87187	1.45846	0.56615	3.75646
3621.814	5.36823	0.93492	3.65282	2.47483
3625.812	6.05189	1.00859	0.62818	3.42573
3629.813	4.91329	1.34688	0.05266	-0.33904
3633.811	1.76038	-1.55328	4.77717	0.14093
3637.819	6.07658	1.06031	4.81751	3.69634
3641.818	5.41273	0.96760	3.69306	4.16042
3645.810	2.47581	1.56933	4.31005	3.85236
3649.810	6.32323	1.08224	3.47099	3.92667
3653.813	4.75918	-0.32321	8.64776	3.89261
3657.810	7.86045	0.86252	1.67529	3.94101
3661.810	6.91197	-0.99858	2.05387	3.81420
3665.811	4.40389	-1.29251	4.49085	3.96312
3669.813	3.45712	-1.58509	4.57731	1.68164
3673.808	3.60131	1.33252	4.87182	3.92169
3677.814	6.57994	1.36167	7.47817	3.97572
3681.817	3.87732	1.35916	4.37727	3.79957
3685.810	7.24485	0.46648	5.56679	3.68871
3689.815	8.63178	-1.10475	1.81243	6.38173
3693.811	5.18495	1.56773	5.17031	3.77070
3697.812	-0.77300	-2.20167	5.63410	3.98007
3701.811	3.43388	1.36826	-1.73004	6.54207
3705.815	5.28160	1.36643	4.58249	3.72178
3709.811	6.46213	1.32243	3.55876	3.56919
3713.813	3.65398	1.48964	5.15667	2.15550
3717.814	3.88251	1.21823	1.88898	3.80666
3721.815	5.09069	1.43514	2.21692	3.89025
3725.814	4.91489	1.42462	5.06774	4.33581
3729.807	9.89058	-5.73786	7.01653	3.62408
3733.815	6.03753	1.37250	6.32537	3.28354
3737.809	4.66484	1.23179	3.03784	2.44646
3741.812	3.63418	1.85091	3.26297	3.51831
3745.814	4.13925	1.29523	1.73941	3.73610
3749.843	4.13322	1.50697	2.47492	3.78269
3753.813	4.29769	1.56613	2.57845	3.12430
3757.814	3.94750	1.22819	2.43062	3.70015
3761.808	3.89404	1.47565	2.43709	4.04923
3765.817	3.84478	1.43146	2.51950	3.31109
3769.851	6.07682	0.86558	2.00440	3.35641
3773.819	6.45292	0.94116	2.38340	2.93132
3777.808	4.68886	-0.82391	2.39817	2.91599
3781.804	5.98992	-0.22803	6.09486	3.11349
3785.806	6.37072	1.00072	6.02615	2.42513
3789.810	4.13219	-2.84115	5.27405	2.35403
3793.811	8.84712	-1.18491	4.13890	2.68120
3797.805	8.12267	0.90392	4.34092	2.31349
3801.811	6.56561	0.09094	2.29109	2.39989
3805.815	6.62941	0.30969	3.10238	2.14897
3809.807	4.86455	0.03971	4.06720	2.59984
3813.812	3.03571	0.33625	3.27526	2.26154
3817.807	5.10736	0.12539	4.58905	2.43884
3821.811	6.45240	-0.07487	3.46931	1.81636
3825.803	4.20741	0.41150	2.91237	2.33620
3829.806	5.86035	0.53639	2.47685	0.15568
3833.809	6.01483	0.42176	5.02462	2.09832
3837.812	3.27037	0.31045	3.72909	1.97151
3841.810	6.33866	0.18439	3.19019	2.54115
3845.803	4.48806	0.26333	2.74903	2.13884
3849.815	3.42984	0.33935	1.99216	2.58016
3853.815	5.79664	-2.89107	6.40984	2.48565
3857.807	2.47410	-2.43880	2.27565	1.66492
3861.806	3.50511	1.07123	2.82474	2.69464
3865.808	3.86104	0.60886	9.07462	2.44313
3869.822	5.38983	0.49450	3.00574	2.75809
3873.813	4.86460	0.49266	1.29682	-0.73931
3877.808	5.90654	0.41104	4.84952	2.90013
3881.805	5.47805	0.41211	3.07446	2.30650
3885.812	5.32102	-0.06685	3.47171	3.01286
3889.812	5.12698	-0.51928	4.25003	2.95781
3893.811	5.41027	0.38732	3.72299	2.58222
3897.803	4.46056	-2.02182	3.33745	-1.87762
3901.810	0.82382	0.54137	3.69763	3.10887
3905.808	1.19145	0.62418	-0.40708	3.48931
3909.811	0.26344	1.80266	-3.27707	3.63099
3913.806	-0.20311	2.43852	-3.39500	3.61472
3917.806	4.76581	-0.57979	-3.58408	3.60997
3921.802	-3.19454	2.86838	-5.70006	2.89417
3925.808	-3.03187	2.17418	-5.97519	2.92125
3929.814	-4.04784	2.42138	-4.75916	3.79933
3933.808	-4.31400	2.41534	-3.09411	3.74303
3937.805	-5.94637	3.09024	-0.78129	-4.49581
3941.806	-3.95061	3.07034	-3.91450	3.66928
3945.828	-6.08944	2.39781	-6.04117	-9.28420
3949.805	-4.17951	3.53831	-1.37531	3.56326
3953.808	-6.00526	2.91604	-5.02189	3.46624
3957.807	-5.13257	3.41956	-4.57137	3.78244
3961.802	-3.25350	3.51505	-4.85507	3.50856
3965.808	-3.82136	2.53199	-5.22650	3.44100
3969.805	-4.80152	3.78704	-5.92746	2.63246
3973.814	-4.15571	3.55377	-5.29902	3.38986
3977.813	-5.74871	4.01276	-4.93846	4.05294
3981.804	-4.27368	2.97198	-4.95669	4.16169
3985.803	-4.24147	3.50774	-5.85853	4.06275
3989.805	-4.59142	2.81219	-5.25301	3.37669
3993.810	-4.02475	3.82848	-5.67044	3.24099
3997.806	-5.58125	3.17113	-5.76244	3.05886
4001.807	-4.12987	2.11631	-4.11932	4.35420
4005.803	-3.98674	14.67774	-5.03580	4.19723
4009.808	-3.34672	2.86480	-4.38001	4.03507
4013.809	-4.14900	1.22920	-5.60224	3.22740
4017.803	-4.13278	1.58345	-0.75449	3.25798
4021.801	-4.89488	1.94681	-5.46861	3.98640
4025.807	-4.09024	2.73285	-3.68765	4.22179
4029.807	-4.07688	2.31185	-5.09697	3.21434
4033.803	-4.27205	3.09890	-3.72126	3.80852
4037.808	-4.09350	2.34461	-5.48882	3.55594
4041.806	-6.41582	2.77164	-5.03115	4.61283
4045.804	-4.98105	2.72017	-5.50764	2.65011
4049.808	-3.92381	3.12459	-5.51039	3.75626
4053.810	-13.29833	-5.49183	-5.46556	3.90454
4057.815	-4.95817	3.09579	-5.65221	4.03049
4061.805	-3.95708	2.93729	-4.86808	4.11576
4065.803	-5.19362	2.43469	-5.85075	3.57012
4069.802	-5.67624	3.32008	-5.22074	3.86676
4073.808	-5.24319	2.86713	-3.90202	3.78469
4077.805	-5.73785	3.18144	-4.66228	4.10681
4081.802	-5.61015	2.81223	-4.88328	4.23258
4085.808	-5.19982	3.60669	-4.26775	4.18578
4089.808	-5.97963	2.76719	-6.02730	4.55431
4093.803	-11.36887	6.30089	-4.60794	4.11156
4097.810	-5.40124	6.38050	-4.60412	4.69153
4101.800	-4.16149	8.85391	-5.67475	4.47533
4105.801	-2.10600	9.72750	-4.01919	4.35622
4109.805	-5.58383	2.22064	-4.54057	4.68574
4113.809	-3.76653	3.60711	-4.19264	4.61092
4117.809	-4.84075	2.78337	-3.92754	4.11063
4121.803	-4.70328	3.79872	-4.59028	4.67927
4125.802	-6.20209	2.90888	-3.86247	6.55853
4129.804	-4.47681	2.79440	-4.70843	4.28654
4133.805	-4.85036	3.72738	-3.84925	4.00437
4137.806	-4.77434	3.97859	-5.07725	4.18165
4141.801	-5.13737	3.28644	-4.17670	4.07821
4145.908	NaN	NaN	NaN	NaN
4153.809	-4.96021	3.59343	-3.93841	3.70532
4157.806	-4.45789	3.02259	-5.40093	4.30313
4161.805	-3.84201	5.15045	-5.07702	4.10104
4165.849	-5.85512	4.32434	-5.99080	4.09296
4169.805	-8.67236	4.29221	-9.13117	6.50683
4173.802	-8.82412	2.69519	-10.66685	5.34163
4177.799	-11.24268	3.97987	-12.63497	4.50356
4181.808	-19.71635	-2.93350	-10.59433	5.18544
4185.807	-11.39463	1.35878	-11.91726	5.70974
4189.806	-13.14103	0.88066	-11.60973	7.65723
4193.801	-11.78186	3.09112	-11.96493	5.53506
4197.803	-19.75368	-4.15908	-13.07297	5.88031
4201.798	-20.64993	-6.67622	-12.55448	5.66543
4205.800	-18.59651	-2.49592	-11.79001	5.99073
4209.802	-14.32477	-2.54156	-12.49758	5.84908
4213.799	-19.66434	-4.74781	-10.89707	5.31410
4217.800	-19.73253	-7.45539	-13.10579	5.77658
4221.806	-15.64033	-0.89542	-11.61930	5.84488
4225.803	-12.93568	2.75305	-12.86756	5.60298
4229.802	-12.82031	-1.28771	-11.99320	5.62285
4233.798	-18.44350	-6.34603	-12.56101	5.70369
4237.798	-13.55731	-0.09503	-13.16310	5.84055
4241.801	-12.69212	3.15621	-13.20809	5.70917
4245.805	-16.82552	-2.94131	-10.82749	5.54817
4249.805	-13.26227	3.34746	-12.68019	5.50447
4253.799	-13.42540	3.11193	-13.19306	5.57872
4257.802	-15.03818	-1.04968	-13.14091	5.51491
4261.799	-18.85603	-6.09175	-12.46252	5.43108
4265.802	-13.51046	-0.48634	-13.58735	5.55376
4269.798	-19.19619	-8.68060	-12.80386	5.38293
4273.800	-13.97089	3.11033	-13.23918	5.41810
4277.802	-19.27002	-5.92499	-13.40593	5.59983
4281.796	-13.64687	-2.35186	-12.47808	5.26930
4285.804	-18.25744	-7.82539	-13.53301	5.21573
4289.801	-15.44997	-1.19226	-12.97450	4.31660
4293.801	-14.44548	0.22105	-13.14948	5.10987
4297.799	-17.40559	-2.19559	-12.84918	5.19991
4301.673	-18.47309	-6.84038	-13.39774	5.34363
4305.676	-16.89927	-1.54220	-12.27979	5.23014
4309.680	-17.16017	-1.61165	-12.82816	4.33130
4313.673	-17.28484	-2.68610	-12.81266	4.52541
4317.678	-14.51607	1.89155	-12.50229	4.99764
4321.678	-18.04942	-14.42947	-12.71136	4.89239
4325.674	-19.19160	-4.49742	-12.70392	5.24190
4329.681	-13.54811	3.60084	-12.74230	5.16172
4333.678	-12.92038	-0.57501	-12.84152	5.26516
4337.673	-19.35383	-8.81041	-12.76938	5.83638
4341.673	-14.46051	2.23590	-12.85001	5.01336
4345.673	-12.76246	2.73200	-12.47101	6.17600
4349.676	-9.69665	-0.02452	-12.83132	5.73752
4353.682	-13.61773	2.54973	-12.37134	5.00569
4357.679	-14.72109	-3.68266	-11.94779	5.94711
4361.676	-12.53623	-3.24462	-12.41746	5.50969
4365.672	-14.28480	2.36184	-12.63166	5.58312
4369.678	-16.04815	-4.76659	-12.14971	5.57736
4373.708	-22.96606	-0.20605	-12.69889	5.37080
4377.672	-19.15906	-6.49116	-12.71533	5.18328
4381.674	-16.38148	-3.22482	-12.94014	4.89789
4385.676	-12.14523	1.36493	-12.34370	5.30703
4389.672	-22.44300	-3.14214	-12.58042	5.19031
4393.677	-13.03673	-3.28650	-12.21821	5.25803
4397.672	-14.10361	2.13585	-12.77230	5.02606
4401.673	-19.65399	-6.88367	-12.76834	5.16951
4405.671	-20.59778	-3.39911	-12.44952	5.47968
4409.672	-13.34289	1.72896	-12.50103	5.26968
4413.674	-14.28014	1.48426	-13.02627	5.47803
4417.676	-13.83872	2.35221	-12.27337	5.11945
4421.671	-15.63426	-0.48327	-12.90164	4.65096
4425.671	-13.90312	-0.95009	-12.09223	5.14737
4429.671	-13.95292	1.58908	-12.91130	4.98209
4433.679	-18.44848	-3.43836	-12.68510	5.17237
4437.684	-18.19820	-4.23467	-12.77978	5.27841
4441.673	-18.81986	-4.41269	-13.02153	5.26825
4445.675	-18.62918	-4.47060	-12.35036	6.82487
4449.673	-14.00702	3.08605	-13.08917	5.23878
4453.676	-14.64575	1.67898	-13.03359	4.71930
4457.679	-15.32678	-2.16154	-12.59767	5.01873
4461.669	-14.13153	3.71944	-12.64017	5.15842
4465.676	-15.66714	-4.83115	-12.80464	5.31842
4469.674	-15.33633	-2.33979	-12.91397	7.22680
4473.670	-14.56583	2.88134	-12.40164	4.82173
4477.674	-15.21936	-2.35723	-12.37586	4.48977
4481.681	-12.44231	4.30689	-12.48904	5.06299
4485.672	-15.52640	14.62567	-10.26405	6.86839
4489.674	-14.72724	10.89903	-8.01642	5.23197
4493.676	-15.63143	10.99241	-12.36629	5.06063
4497.673	-16.07682	11.41914	-11.74268	5.52011
4501.669	-16.86700	11.57966	-11.45853	6.41435
4505.670	-18.45442	11.90948	-10.59886	6.72551
4509.675	-19.84233	-12.08865	-10.28284	5.16257
4513.673	-16.14492	12.65971	-10.30120	5.00252
4517.682	-16.61352	13.04273	-9.76129	4.62200
4521.673	-19.91527	-12.08325	-10.50604	5.31661
4525.669	-19.94126	-12.08132	-8.73853	6.67416
4529.670	-20.16800	11.79426	-11.47362	6.93383
4533.670	-20.04354	-12.07371	-10.32940	6.03453
4537.670	-20.03570	-12.07430	-11.29023	5.25478
4541.668	-20.03003	-12.07472	-10.40320	4.15043
4545.668	-20.02580	-12.07503	-9.75157	6.28264
4549.672	-20.03846	-12.07409	-10.54401	5.91576
4553.673	-20.03699	-12.07420	-10.83809	5.60549
4557.680	-20.03187	-12.07458	-11.05170	5.07226
4561.676	-20.02762	-12.07490	-9.89065	5.92400
4565.668	-20.02633	-12.07499	-10.69673	5.20625
4569.676	-20.02495	-12.07510	-10.88628	5.78099
4573.672	NaN	NaN	-10.86167	5.52624
4577.671	NaN	NaN	-11.05044	5.06638
4581.669	NaN	NaN	-10.33444	6.03809
4585.701	NaN	NaN	-9.91387	6.32863
4589.703	NaN	NaN	-10.52727	6.56350
4593.668	NaN	NaN	-10.96724	6.52168
4597.665	NaN	NaN	-11.12677	6.10958
4601.671	NaN	NaN	-11.29555	6.24206
4605.676	NaN	NaN	-10.81456	5.82564
4609.674	NaN	NaN	-10.75605	5.17262
4613.667	NaN	NaN	-10.18817	5.46514
4617.669	NaN	NaN	-10.36994	4.98151
4621.676	NaN	NaN	-10.79725	5.78671
4625.667	NaN	NaN	-10.48094	5.83809
4629.673	NaN	NaN	-10.19567	6.23604
4633.669	NaN	NaN	-9.88526	6.65664
4637.671	NaN	NaN	-10.49690	7.64337
4641.673	NaN	NaN	-10.66611	7.37866
4645.677	NaN	NaN	-10.79971	6.27204
4649.669	NaN	NaN	-10.70931	6.01646
4653.679	NaN	NaN	-9.98102	5.89140
4657.669	NaN	NaN	-10.57032	6.00404
4661.674	NaN	NaN	-10.65079	5.92821
4665.668	NaN	NaN	-10.35642	5.92959
4669.671	NaN	NaN	-9.83638	5.09856
4673.667	NaN	NaN	-9.56108	5.79185
4677.672	NaN	NaN	-10.01691	6.18923
4681.669	-10.04384	5.49827	-9.90816	6.37758
4685.674	-11.41886	5.00803	-11.47493	6.05462
4689.670	-11.54006	4.64467	-10.17726	5.76991
4693.667	-11.48261	4.21665	-9.40426	5.28966
4697.666	-12.28192	4.22028	-10.37892	5.75970
4701.667	-13.35226	-1.41806	-10.07394	6.08821
4705.667	-17.23410	-7.64477	-9.27194	6.65974
4709.668	-12.97391	-2.77259	-10.60332	6.18913
4713.666	-11.57539	4.63683	-9.58463	5.94592
4717.671	-15.95231	-3.91939	-11.94600	6.04063
4721.669	-12.64033	4.50062	-10.78755	5.71692
4725.677	-11.75722	4.21801	-10.90789	5.64485
4729.667	-16.46149	-6.14378	-9.11825	5.82886
4733.666	-13.17014	-1.34176	-10.91507	5.74889
4737.667	-11.61928	4.58946	-9.30600	5.67511
4741.670	-11.52209	4.48417	-11.18883	5.50736
4745.668	-15.86599	-0.47462	-10.36607	6.53978
4749.671	-12.21226	3.87473	-8.68281	6.69385
4753.667	-13.52064	-1.08098	-9.02375	6.46714
4757.667	-11.87406	4.21542	-8.85376	6.50802
4761.669	-15.54789	-1.97284	-5.51152	6.66878
4765.665	-11.22936	4.03604	-3.29800	7.17281
4769.672	-11.13184	3.97125	-5.15672	7.82983
4773.669	-11.83778	0.44630	-3.04412	8.73724
4777.664	-12.98155	-0.02000	-3.12195	8.36727
4781.663	-11.37772	4.06496	-3.65769	9.09219
4785.665	-11.85709	3.83113	-8.05864	12.22740
4789.665	-12.17613	4.11787	-2.95829	12.76361
4793.672	-13.72320	-1.16582	-6.55836	12.72985
4797.668	-11.79686	3.21754	-6.09876	12.67466
4801.665	-15.26720	-1.35303	-7.65598	12.69481
4805.663	-12.68182	3.34852	-6.45635	12.70676
4809.675	-12.88895	2.93772	-6.67596	14.84972
4813.668	-18.27472	-13.53015	-6.63316	14.69271
4817.664	-13.04231	4.25880	-6.46059	13.96149
4821.665	-12.71748	3.39779	NaN	NaN
4825.667	-12.54230	3.24460	NaN	NaN
4829.667	-15.86810	-0.10550	NaN	NaN
4833.663	-17.92158	-5.04780	NaN	NaN
4837.663	-12.75292	4.04294	NaN	NaN
4841.665	-14.15405	0.54260	-10.01980	5.97425
4845.667	-12.62670	3.37611	NaN	NaN
4849.667	-12.68916	4.36814	-12.01846	6.07652
4853.667	-17.00611	-4.87592	-8.83772	6.45092
4857.687	-13.41577	2.82618	-10.87352	6.46456
4861.669	-12.58290	3.40458	-10.97753	6.25300
4865.663	-16.20176	-2.87576	-9.92451	6.28509
4869.701	-12.43542	3.25660	-11.51778	6.53018
4880.927	-12.18272	4.50606	-10.04133	6.31418
4883.678	-12.06534	4.08568	-11.38163	6.22654
4886.517	-16.67312	-3.31371	-10.81614	5.66096
4889.676	-14.38921	3.19751	-10.52012	6.30298
4893.669	-12.09104	3.70444	-11.14326	6.16930
4897.667	-16.91522	0.49321	-10.95528	5.98014
4901.666	-12.26109	3.52726	-10.97394	5.64058
4905.667	-15.74205	-1.67812	-10.77569	5.41403
4909.662	-12.36414	4.12354	-10.59277	5.10529
4913.669	-13.08665	4.74995	-8.44951	5.35652
4917.663	-15.28748	5.87794	-8.36285	5.43147
4921.664	-16.21119	6.83633	-8.05090	5.68313
4925.667	-19.27577	5.81813	-8.04942	8.48697
4929.667	-19.75274	5.22315	-6.67564	6.76247
4933.667	-19.84508	-12.08845	-20.74001	12.22128
4937.671	-19.88760	-12.08530	-20.25005	-12.05822
4941.664	-19.91180	-12.08351	-20.14780	-12.06591
4945.666	-19.92744	-12.08235	-20.10323	-12.06925
4949.662	-19.93850	-12.08153	-20.07812	-12.07113
4953.666	-19.94674	-12.08092	-20.06190	-12.07234
4957.662	-19.95317	-12.08044	-20.05049	-12.07319
4961.663	-19.95834	-12.08005	-20.04197	-12.07383
4965.666	-19.96262	-12.07974	-20.03535	-12.07432
4969.665	-19.99480	-12.07734	-20.03003	-12.07472
4973.665	NaN	NaN	-20.02563	-12.07505
4977.669	NaN	NaN	NaN	NaN
4981.671	NaN	NaN	NaN	NaN
4985.666	NaN	NaN	NaN	NaN
4989.666	NaN	NaN	NaN	NaN
4994.223	NaN	NaN	NaN	NaN
4997.944	NaN	NaN	NaN	NaN
5001.698	NaN	NaN	NaN	NaN
5005.665	NaN	NaN	NaN	NaN
5009.666	NaN	NaN	NaN	NaN
5013.669	NaN	NaN	NaN	NaN
5017.670	NaN	NaN	NaN	NaN
5021.709	NaN	NaN	NaN	NaN
5025.775	NaN	NaN	NaN	NaN
5029.725	NaN	NaN	NaN	NaN
5033.680	NaN	NaN	NaN	NaN
5037.671	NaN	NaN	NaN	NaN
5041.667	NaN	NaN	NaN	NaN
5045.663	NaN	NaN	NaN	NaN
5049.664	NaN	NaN	NaN	NaN
5053.663	NaN	NaN	NaN	NaN
5057.719	NaN	NaN	NaN	NaN
5061.672	NaN	NaN	21.37532	1.43833
5065.667	NaN	NaN	15.40219	-0.26525
5069.661	13.37312	-0.87440	15.43568	-1.63211
5073.663	4.03900	-2.18309	15.42438	-1.06861
5077.660	6.18245	-3.84990	16.32019	-1.25448
5081.664	12.98506	-4.76137	15.43046	-3.42044
5085.670	6.28121	-3.80159	15.84390	-1.42646
5089.662	11.00900	-2.24977	13.62446	-1.06460
5093.659	3.25736	0.98673	16.48333	-1.03400
5097.665	12.08321	-2.48924	15.42756	-3.51075
5101.666	18.13627	-5.82272	15.24849	-2.67046
5105.661	15.74476	-3.12176	11.69224	-1.23218
5109.659	17.62569	-3.22496	10.14162	-0.43716
5113.665	8.75148	0.25640	10.11122	-0.39136
5117.661	7.69120	1.46436	9.69311	-1.19910
5121.663	6.07479	0.57245	9.95466	0.01542
5125.659	11.87539	-0.39454	7.97873	0.17610
5129.658	8.96847	2.16397	9.82930	0.36153
5133.666	11.35019	0.27903	7.49815	0.41687
5137.662	12.25585	-2.72658	9.38257	0.08368
5141.665	11.00474	-0.63334	8.26512	-1.18819
5145.663	8.56860	-1.19802	8.87297	-0.40635
5149.659	5.70421	-1.90511	9.28770	0.13787
5153.536	8.57352	-0.60859	8.53532	0.66958
5157.537	5.63365	-0.10057	8.69004	-0.28236
5161.541	9.14859	0.52772	8.56401	0.82687
5165.536	8.77974	0.41382	8.49874	-0.38510
5169.539	8.47223	1.35510	8.71875	1.31011
5173.537	9.22869	0.34267	8.27302	0.32949
5177.535	5.22640	1.04503	8.60228	1.65359
5181.536	8.49318	-0.71256	8.30388	-0.14055
5185.535	8.50005	-1.01516	8.41575	1.62532
5189.545	5.47919	-2.40089	8.23972	0.18978
5193.536	5.03147	-2.34250	8.27491	1.12917
5197.536	9.00179	-0.40356	8.30677	0.83592
5201.538	6.03253	1.10202	7.98958	1.28002
5205.536	7.91154	-0.26170	8.18978	1.35623
5209.533	8.28857	-0.71709	7.73426	1.33854
5213.538	8.43428	-0.28380	7.49442	0.77301
5217.536	6.83423	0.23414	7.41133	0.80745
5221.536	7.88858	-0.15007	8.93651	0.36379
5225.533	8.60747	-0.38460	7.72424	1.09904
5229.589	8.34009	-0.81941	8.39469	-0.07758
5233.546	7.99520	0.02520	7.44218	1.12016
5237.532	7.85804	0.83609	7.76177	-0.23604
5241.535	11.47920	-0.31224	7.96444	0.35400
5245.535	7.53096	-0.18850	7.76331	0.98449
5249.532	11.48990	-0.98875	9.58668	-0.37569
5253.533	8.44781	-0.10640	7.72741	0.53670
5257.532	7.21711	0.37377	8.48639	0.66336
5261.536	10.81865	-0.22948	7.57527	0.79008
5265.537	7.24268	-0.47634	7.92624	0.64943
5269.535	10.25668	-1.28389	7.49407	1.01528
5273.537	7.22707	-2.14951	7.78058	0.89229
5277.532	8.13281	0.02942	7.32317	0.92419
5281.536	12.61694	-5.98596	7.81371	0.06169
5285.529	8.74391	0.55718	9.16680	4.62797
5289.537	6.18723	0.04096	7.48968	0.83329
5293.532	11.78157	-3.42685	9.20806	0.51308
5297.535	8.33916	0.32665	8.06859	3.32358
5301.530	4.80187	0.39938	7.44335	0.99165
5305.537	8.65361	-0.09952	8.98189	0.62625
5309.536	8.54071	-0.21404	8.38376	4.34169
5313.539	5.38944	-2.98223	8.75453	2.09925
5317.533	6.03250	0.23258	7.96782	1.35614
5321.536	8.80856	-2.71468	10.92940	4.16306
5325.535	9.03682	0.44906	6.52169	4.08361
5329.529	6.28673	0.06373	7.63525	1.42643
5333.530	8.67687	0.41543	8.51156	1.71269
5337.531	9.70574	0.36953	8.01289	1.74852
5341.533	9.38107	0.39599	7.85458	0.55091
5345.534	8.69544	0.05149	7.74883	0.77821
5349.533	9.20475	2.49361	7.82336	1.00792
5353.530	8.93224	0.62374	7.57603	1.78108
5357.541	9.00760	0.50049	7.86413	1.97687
5361.534	8.77582	0.40130	8.90616	0.73674
5365.533	9.05064	0.91204	7.76257	1.03335
5369.534	9.02864	0.29570	7.40887	1.81224
5373.531	8.96085	0.27638	7.65378	1.60630
5377.530	9.38467	-3.97283	8.36406	1.35256
5381.536	8.87750	1.87840	7.49590	1.01136
5385.533	8.85737	0.99476	7.87433	0.76735
5389.534	9.21050	0.86183	6.75551	2.50560
5393.529	8.60591	0.53776	8.03857	1.59844
5397.535	8.53382	1.71503	7.78742	0.92940
5401.539	8.55937	0.57441	6.28207	0.82201
5405.537	8.35823	-2.23555	6.09489	1.54794
5409.533	9.85153	1.12425	10.02074	1.07235
5413.531	9.03866	-1.36329	8.86061	1.47450
5417.530	19.92790	-9.54684	10.62866	1.26097
5421.529	10.91734	-1.59280	11.95662	0.58422
5425.532	12.20036	-6.07810	14.03830	-0.35589
5429.534	8.33508	-2.42410	11.31913	0.75737
5433.531	12.86647	-2.70886	12.07982	-0.21961
5437.538	12.72225	-2.70298	12.67532	-4.60795
5441.538	12.79751	-2.75017	13.20884	0.64609
5445.554	10.14802	-7.18771	14.45472	-4.08928
5449.537	13.13950	-2.22184	13.70774	1.09839
5453.534	13.68677	-2.24856	11.40031	-0.57551
5457.531	13.13948	-1.88690	11.36322	-6.89730
5461.532	13.80177	-1.66973	11.91695	-7.02877
5465.528	8.43146	-5.99567	15.08294	-1.00151
5469.533	13.38989	-1.61507	13.04862	-1.09192
5473.532	13.38611	-1.85700	13.67867	-1.83697
5477.525	13.12312	-1.18523	13.73233	-1.66043
5481.534	13.38940	-1.54481	13.68061	-1.96018
5485.530	13.17299	-1.38290	11.37619	-1.37457
5489.532	13.37138	-1.63204	11.17995	-1.38698
5493.535	12.83413	-1.46240	11.34406	-1.29086
5497.529	12.75389	-0.52603	11.12794	-1.27879
5501.529	12.69679	-1.12224	11.59865	-1.28673
5505.527	12.98355	-1.36911	11.83236	-1.46328
5509.532	13.29993	-1.46895	11.40190	-0.78874
5513.529	12.84399	-1.32149	11.42790	-0.67813
5517.532	12.62570	-1.16514	11.23478	-0.80918
5521.532	13.28909	-1.44018	11.48194	-0.69528
5525.534	12.90131	-1.41868	11.48852	-0.68945
5529.529	12.55254	-1.21699	11.68529	-0.72519
5533.531	11.92211	-0.97630	13.53207	-1.67261
5537.534	12.70971	-0.96014	13.85073	-1.99774
5541.528	11.80048	-0.98952	15.20621	-1.76074
5545.534	11.31915	-0.94813	14.79844	-0.83596
5549.531	12.64248	-1.96784	11.46137	-1.95601
5553.528	12.92797	-2.44413	11.32679	-1.60571
5557.527	12.02976	-0.95071	11.68588	-0.58412
5561.531	12.37013	-1.40993	11.71206	-0.35376
5565.532	12.18111	-1.23601	11.89678	-0.77812
5569.535	11.88915	-3.21280	14.27485	-2.03970
5573.528	13.02200	-2.96807	15.97402	-6.76504
5577.531	12.02985	-2.90958	10.49613	-1.41897
5581.527	13.05943	-2.39060	10.87335	-0.13610
5585.531	12.10480	-1.07682	11.32364	-0.82581
5589.530	13.42552	-1.38308	11.54916	-1.16911
5593.532	13.55452	-3.00547	11.42196	-0.31196
5597.533	12.64640	-2.85784	10.51434	-0.01019
5601.527	19.99464	-8.45679	11.45152	-0.72636
5605.532	12.20238	-1.49037	11.64194	-0.55165
5609.530	12.17198	-1.21019	12.88051	-1.19271
5613.531	13.05814	-1.10978	15.48003	-2.09662
5617.534	12.84812	-2.93186	13.87594	-1.33042
5621.532	12.57543	-2.91510	10.31684	-1.64210
5625.526	12.56008	-1.32799	10.48727	-0.89133
5629.529	12.76173	-1.48871	10.36776	0.58684
5633.529	12.42936	-1.42235	11.60242	-0.66169
5637.527	12.11142	-1.47034	11.76664	-0.72357
5641.531	12.23436	-1.16017	11.75477	-0.53014
5645.533	12.16593	-5.87088	11.36587	0.04241
5649.531	12.22902	-1.03629	10.32546	0.18144
5653.526	8.00284	-6.39288	11.39597	-0.89834
5657.525	11.39282	-6.07537	10.93605	-0.13699
5661.564	15.72322	-2.51174	12.92899	-0.60979
5665.527	12.23813	-0.08478	11.65392	-3.63848
5669.528	11.57419	-0.83985	8.87282	1.97635
5673.526	3.94794	0.17113	7.20937	3.16654
5677.528	9.79918	1.50304	7.11850	2.69474
5681.528	5.96657	2.29828	5.69345	4.19430
5685.532	6.16567	5.12244	6.43452	4.78568
5689.530	6.11564	5.65917	5.18852	5.28753
5693.525	4.18509	6.21054	5.31226	5.70099
5697.525	4.14389	6.41198	4.80184	6.09305
5701.529	4.81966	6.60278	5.24961	5.61399
5705.528	5.64415	6.75163	5.34255	4.89714
5709.524	6.03717	6.97055	5.62746	5.28124
5713.524	4.38911	6.50206	5.12728	5.29697
5717.527	4.27627	6.56199	5.29423	5.65304
5721.528	4.23562	4.81450	5.48194	5.06330
5725.522	4.15194	6.62522	5.34004	5.07093
5729.533	5.30525	6.72529	4.98477	4.70803
5733.528	5.53965	6.93613	5.15251	5.10614
5737.525	5.82272	7.51105	5.12216	5.29146
5741.530	4.59679	7.02549	5.10571	4.93920
5745.528	3.99383	7.86339	5.25488	5.07106
5749.527	4.65557	7.79932	5.05641	5.06409
5753.524	4.63297	7.31192	5.15537	4.77500
5757.530	4.99950	3.85527	4.99231	4.69561
5761.526	4.78144	5.96547	5.10123	5.04277
5765.523	4.55216	6.16965	5.08141	5.21105
5769.528	4.42849	6.67733	4.88811	5.17220
5773.530	4.41114	6.57430	4.99140	5.33700
5777.524	4.46801	6.21324	5.42402	4.99888
5781.528	5.39859	6.02811	5.52411	4.50630
5785.526	4.69354	6.01686	5.48339	4.38648
5789.524	4.98275	5.65054	5.20337	4.90487
5793.523	4.81165	6.01510	5.61281	5.50102
5797.528	4.48794	6.47683	5.33908	6.02128
5801.523	4.19269	7.56149	5.17009	5.81321
5805.524	4.31891	7.35047	5.09315	6.15524
5809.551	4.89954	6.22788	4.94487	6.24786
5813.532	4.39553	6.41019	5.17703	6.03028
5817.523	4.77791	6.20905	5.60453	5.53915
5821.527	6.25090	6.14033	5.30227	5.60935
5825.525	6.32976	5.91779	5.68057	4.22025
5829.527	6.34150	5.85881	5.50574	3.87018
5833.521	5.64314	5.83310	5.92901	5.90233
5837.527	5.95253	5.95389	5.31470	6.46701
5841.526	5.73443	6.99178	4.64192	6.61438
5845.527	5.74794	7.02515	4.15381	6.57947
5849.523	5.15074	6.47668	3.67390	5.88471
5853.532	4.65456	6.25302	5.25658	5.82890
5857.530	4.68624	6.12222	5.70126	5.50496
5861.524	4.37969	5.98939	5.71138	6.41744
5865.528	4.44965	6.06716	5.61618	6.32953
5869.639	4.33579	5.37371	5.31480	6.35415
5873.543	4.28180	6.16733	4.56447	6.23484
5877.534	4.36165	6.16806	4.87902	5.90532
5881.527	4.23898	6.17073	4.86845	6.61902
5885.527	4.36770	6.04540	4.90378	6.69466
5889.528	3.80342	4.10443	4.88956	6.93731
5893.522	5.98292	5.96415	4.57522	7.04010
5897.530	6.17823	5.89430	4.90466	7.01614
5901.523	6.39633	5.71586	4.85741	7.19649
5905.526	5.07983	5.41800	6.59322	6.69896
5909.523	4.85477	5.35068	6.78145	6.99739
5913.525	4.66810	5.59518	7.04061	6.09461
5917.520	4.59445	5.73140	5.69507	5.59389
5921.527	4.60399	5.77901	6.14482	4.86546
5925.522	4.56619	5.73199	6.62427	5.33722
5929.524	4.55228	5.82351	6.62542	5.24487
5933.525	4.40241	5.91376	5.66187	5.43477
5937.527	4.27570	3.38425	6.09165	5.37530
5941.523	4.87293	5.65370	5.29821	5.43681
5945.534	4.61723	6.02353	5.36353	5.35739
5949.527	4.62877	6.51790	5.47461	5.51722
5953.523	4.56086	6.63695	5.02960	5.47910
5957.525	4.69783	7.30689	5.56544	5.38406
5961.526	4.99504	6.98281	5.37571	5.23432
5965.523	5.56969	6.96624	5.47591	5.24361
5969.523	5.08015	7.21691	5.50193	5.32677
5973.520	5.17053	7.33770	5.42294	4.99398
5977.527	4.60607	6.83858	5.48484	4.51432
5981.526	4.61743	6.85073	5.43071	4.37255
5985.524	3.84389	2.25661	5.94317	4.59012
5989.518	4.36890	6.71327	6.13868	5.02369
5993.524	4.65464	6.54299	5.99645	5.62800
5997.521	4.27429	7.02052	6.08622	5.90543
6001.521	3.75563	5.28221	6.09746	6.51090
6005.520	4.87833	7.08916	5.91108	6.60791
6009.401	5.05641	7.22485	5.11812	6.43141
6013.545	5.47530	6.82486	5.23876	6.13761
6017.398	5.66479	6.82490	5.38378	5.62671
6021.399	5.82179	5.39143	5.48078	5.28892
6025.403	5.12863	5.40005	6.07344	5.14641
6029.395	4.83802	5.51593	5.20652	5.34243
6033.394	4.57036	6.30809	5.70185	5.14076
6037.400	4.63378	5.41815	5.01383	5.30270
6041.397	4.84903	5.89617	5.35856	5.16770
6045.392	4.56481	5.48816	5.21624	5.65499
6049.399	6.02200	6.33713	5.21004	5.50586
6053.397	4.95169	6.83456	5.28113	5.37773
6057.401	6.67473	5.12675	5.13619	5.74544
6061.431	5.86258	5.02497	5.06200	6.25421
6065.395	4.70209	5.29601	5.23401	5.18776
6069.408	4.56955	5.50666	5.16984	5.36568
6073.398	4.33268	5.89381	5.13914	5.41220
6077.396	4.87562	6.05836	4.99258	6.26417
6081.399	5.03324	6.69267	5.22160	5.80346
6085.395	7.36586	5.29257	5.47540	5.60354
6089.393	6.40702	0.77470	5.25224	5.90658
6093.393	5.55993	5.17697	5.20538	6.79822
6097.395	5.51398	4.97754	5.07941	6.92657
6101.396	5.02112	5.10710	5.33310	7.03942
6105.393	4.93987	6.07847	5.38929	7.29664
6109.400	4.74109	6.56321	5.60317	6.87421
6113.396	5.06897	5.98595	6.36913	5.56460
6117.405	5.04417	5.98160	5.88918	6.57734
6121.399	5.13203	5.95878	6.13213	5.48834
6125.392	5.46920	5.49823	5.71387	5.17129
6129.396	0.13940	5.74853	6.56833	4.71579
6133.392	3.94530	4.48357	8.02952	4.63815
6137.398	8.97053	5.24899	8.48306	1.17994
6141.394	10.63096	2.11094	8.12631	1.21858
6145.391	7.22085	1.74111	8.50751	1.55654
6149.395	8.02652	1.76217	6.96876	1.49804
6153.406	7.55474	3.68728	7.92977	-0.17765
6157.395	13.13976	1.53259	9.64272	1.63436
6161.392	10.76331	1.97922	9.83530	1.17276
6165.391	13.11199	1.13393	8.43435	1.61482
6169.394	14.40421	1.09217	8.03538	1.76378
6173.395	12.24149	0.80446	7.96071	1.55984
6177.390	11.91773	0.73092	7.86625	1.20113
6181.394	10.98176	0.63517	7.22468	1.29918
6185.394	10.68576	0.43024	6.38633	1.20972
6189.392	7.91275	0.66010	7.27487	1.09113
6193.396	7.57983	0.69619	7.78455	1.13381
6197.420	7.65393	0.63222	7.98788	0.89396
6201.401	6.48710	-2.57080	7.78411	0.97538
6205.390	12.11164	0.29038	7.77188	0.77054
6209.391	12.18303	0.29120	7.73614	1.02140
6213.393	11.24772	0.55800	7.68189	0.81369
6217.396	7.34001	-2.35154	7.43278	0.90331
6221.395	8.22569	0.35237	7.05371	0.92057
6225.388	8.23233	0.64441	7.52371	0.98997
6229.392	9.03261	0.04425	7.62097	0.98903
6233.400	7.29084	-0.38500	7.67297	1.17155
6237.398	7.46092	0.04304	7.48651	1.77630
6241.395	8.35721	0.41824	7.61580	1.49507
6245.393	8.27727	0.24502	7.44411	2.25020
6249.394	9.15118	0.32346	7.62618	2.22255
6253.392	8.71744	0.52797	7.47600	1.68586
6257.396	9.99053	0.71820	7.66270	2.14789
6261.396	8.23014	0.42344	7.57425	1.94026
6265.392	7.92576	0.40409	7.56322	1.88205
6269.391	7.98206	0.53308	7.46102	1.96720
6273.394	8.02309	0.52456	7.24207	2.05764
6277.397	8.24115	0.64081	7.20695	1.99329
6281.424	8.43916	0.70445	7.20634	2.60510
6285.848	8.27764	0.70868	7.04511	2.72740
6289.399	8.82182	0.84088	6.93188	2.10356
6293.392	8.21881	0.87149	6.77722	3.21761
6297.395	6.85679	0.05610	8.32441	2.59929
6301.390	7.03279	-0.98861	7.99257	2.30306
6305.392	6.68499	-1.90377	7.76655	2.18577
6309.396	7.19808	0.46000	8.09703	2.05162
6313.392	8.17089	0.55622	8.17442	1.98379
6317.394	8.02090	-0.18002	7.87504	1.77642
6321.391	7.84518	-0.19804	8.04589	1.42072
6325.389	6.83293	0.01833	8.15229	1.62215
6329.391	6.38271	0.30012	7.88039	1.47401
6333.393	5.96448	-0.07140	7.36889	1.43050
6337.388	5.34464	1.05138	7.56905	1.11998
6341.394	5.34223	1.45820	8.02883	1.15601
6345.390	4.89533	1.15782	7.85421	0.93865
6349.392	5.25869	0.56497	7.89016	1.22310
6353.392	5.13328	0.73418	7.90053	1.32342
6357.400	6.36716	0.62886	7.81734	1.14728
6361.398	4.91484	-0.39691	7.62645	0.76398
6365.390	6.96208	1.26799	7.66463	0.54937
6369.410	10.35976	-0.22818	7.67548	0.80602
6373.398	10.43875	-0.60069	7.73324	0.87853
6377.387	10.42346	-0.84670	7.71038	1.12967
6381.388	11.64549	-1.54789	7.72249	1.06466
6385.389	9.93793	-2.46349	7.67089	1.38159
6389.389	10.14093	-1.05459	7.65802	1.36435
6393.388	10.12385	-0.69616	7.58008	1.50049
6397.388	10.00776	-0.71484	7.62326	1.35883
6401.399	9.89109	-0.86924	7.55757	1.58251
6405.390	8.89354	-2.04707	7.58566	2.09544
6409.388	9.49470	-0.64347	7.55971	2.02115
6413.390	8.23999	-0.34815	7.57081	2.10066
6417.393	7.43122	-0.29620	7.44171	1.90935
6421.412	7.90630	-0.53404	7.47363	1.98166
6425.394	7.16124	-1.65362	7.43625	1.92055
6429.390	7.09162	-0.37193	6.73975	2.09835
6433.394	6.58425	-2.10653	7.65324	1.93464
6437.396	6.47478	-0.17508	7.70065	2.08433
6441.394	6.05425	0.55807	7.80979	1.88828
6445.393	5.95579	0.68875	7.91460	1.86273
6449.385	8.00761	0.71701	7.74837	1.89458
6453.392	5.81774	0.76723	7.77824	1.62135
6457.390	8.08299	0.80213	7.74545	1.58511
6461.387	8.17478	0.92589	7.94131	1.71585
6465.393	4.07471	0.81804	7.85395	1.51914
6469.389	11.95061	0.63052	7.87842	1.63525
6473.391	8.36914	0.95942	7.61302	1.33688
6477.386	6.04642	0.53325	7.59505	1.44333
6481.387	9.74810	0.22492	8.25289	1.37806
6485.395	11.86491	-0.52113	10.49644	1.15852
6489.392	11.81151	0.90783	12.76930	-1.32515
6493.392	12.14271	-0.51549	13.50178	-2.81213
6497.392	11.48110	0.27788	13.65448	-3.26373
6501.387	3.97316	-10.53346	13.70952	-3.37420
6505.391	11.80616	-1.09622	13.48521	-3.24536
6509.388	12.35268	-0.68202	12.56027	-3.01486
6513.388	11.98538	-1.15880	11.97104	-2.75235
6517.385	22.78714	-8.45210	11.91462	-2.69415
6521.386	14.01933	0.77884	11.87924	-2.85219
6525.390	12.55413	-0.86208	11.70478	-2.31837
6529.390	14.68350	-0.06779	11.87879	-2.06668
6533.384	13.41880	-7.17308	16.15280	-2.88532
6537.384	13.50359	-0.95925	16.40902	-2.79040
6541.386	14.16688	-1.30607	14.53779	-2.38538
6545.389	19.02129	-6.16968	12.80629	-2.86100
6549.383	13.56219	-1.47072	12.89956	-2.51015
6553.390	14.14282	-2.31140	11.73764	-2.88021
6557.402	18.31819	-8.79050	11.85026	-2.42780
6561.390	14.22636	-4.43253	11.77399	-2.52662
6565.388	11.84948	-7.18960	11.60680	-2.00503
6569.396	13.70732	-2.43424	11.36298	-2.05058
6573.389	12.61561	-8.31284	11.27677	-1.82599
6577.407	12.21025	-8.65111	11.57579	-1.75707
6581.395	14.06728	-2.82828	11.40844	-1.76670
6585.387	7.51642	-10.93260	13.89613	-2.55217
6589.390	14.13671	-14.75366	14.06658	-2.17562
6593.388	16.40879	-7.93880	12.57848	-3.28787
6597.385	15.00058	-6.56868	11.63035	-2.95655
6601.383	17.98692	-7.54237	11.36832	-1.99422
6605.389	10.86457	-6.51161	11.31278	-1.72603
6609.391	9.52176	-8.27138	12.74421	-2.14022
6613.389	7.35327	-12.19208	14.21715	-3.36986
6617.387	13.01762	-6.16420	15.14574	-4.17852
6621.385	14.97305	-6.10619	15.09071	-4.54746
6625.406	10.65491	-6.44300	12.78927	-4.07494
6629.385	9.46437	-8.40631	12.52923	-2.28488
6633.381	21.00725	-8.98181	12.58368	-2.21318
6637.391	11.54892	-1.07278	12.23355	-1.87112
6641.386	11.80980	-7.03206	12.02682	-2.09281
6645.388	9.47939	-6.33999	12.38289	-2.15275
6649.387	22.50575	-7.71559	12.51392	-3.12819
6653.386	14.65105	-0.68985	12.38147	-2.31792
6657.385	8.69557	-6.68640	10.63353	-2.09293
6661.385	8.07263	-3.15305	10.29380	-1.70959
6665.389	4.95578	-3.44200	10.18875	-0.19688
6669.384	4.30914	-0.74930	7.53662	2.50204
6673.385	2.54598	-2.16008	4.67988	-2.91318
6677.381	2.61491	-0.70743	3.22888	-7.70133
6681.388	0.23477	3.74147	-0.66801	3.82677
6685.387	-3.21087	3.92986	-3.21740	3.77685
6689.385	-3.74785	4.09087	-5.29292	3.53332
6693.409	-1.85869	4.30143	-5.19022	4.01615
6697.388	-6.52539	4.64865	-6.01233	4.14568
6701.387	-8.31873	4.96424	-8.21862	4.28489
6705.387	-9.51952	5.57333	-8.86444	4.77376
6709.436	-11.19201	4.99683	-8.69035	3.96331
6713.388	-11.10608	5.53080	-10.02615	4.22781
6717.394	-10.81161	6.21516	-12.09726	4.56584
6721.391	-12.46606	6.55678	-10.91073	5.75301
6725.383	-11.92617	8.35547	-9.79089	4.96481
6729.382	-17.28305	4.48281	-11.00257	5.92985
6733.387	-11.67689	7.98255	-9.37960	4.28744
6737.387	-10.54140	8.08857	-10.92940	5.60999
6741.382	-10.84635	5.99953	-10.98621	5.29887
6745.384	-10.49716	6.20772	-11.20395	4.36369
6749.382	-10.98755	5.41530	-11.05464	4.95928
6753.382	-10.42209	6.19539	-11.57777	4.35922
6757.386	-16.99610	1.64113	-10.10232	4.22879
6761.423	-9.76490	6.85497	-11.13800	4.45465
6765.394	-16.93884	-1.60748	-10.56116	4.57627
6769.383	-8.00163	1.71240	-11.16736	4.01647
6773.384	-11.55385	5.85805	-10.90607	4.22214
6777.391	-11.71442	5.54770	-10.63787	4.49249
6781.382	-16.62587	-1.40574	-11.13308	4.43342
6785.381	-19.54021	1.63903	-10.42965	4.40732
6789.382	-17.05346	1.77284	-10.85787	4.21972
6793.381	-11.89262	3.80359	-11.59099	5.95460
6797.378	-11.83921	4.93299	-11.17479	4.63468
6801.386	-11.79753	2.22045	-10.67586	4.92008
6805.382	-11.96189	4.97255	-10.86601	4.48953
6809.381	-8.09803	4.83052	-10.93952	4.60513
6813.386	-16.92490	-2.00362	-10.82732	4.30849
6817.387	-18.19401	-0.70888	-11.02012	4.58689
6821.388	-12.05321	4.94390	-11.34289	4.83893
6825.381	-17.03867	-3.18171	-11.07061	3.89038
6829.395	-17.52925	-2.99214	-11.30887	4.91108
6833.384	-12.79123	2.48506	-10.83347	4.13808
6837.380	-11.75139	5.37965	-11.11172	4.02119
6841.385	-17.11582	-0.47059	-11.08031	4.32018
6845.382	-13.04455	3.17474	-11.00792	4.55759
6849.380	-11.83904	4.61731	-11.00800	5.67871
6853.380	-16.66997	-3.14531	-10.73032	5.14216
6857.391	-17.13314	-0.31908	-11.13635	4.57868
6861.260	-12.66852	4.55754	-11.15429	4.74137
6865.261	-13.12573	4.39029	-11.32514	4.21891
6869.395	-12.53332	4.56475	-10.10189	4.71391
6873.260	-17.00334	2.20644	-11.24041	4.93085
6877.257	-16.86757	-2.48251	-10.99530	4.71227
6881.257	-11.74401	4.82238	-10.93067	4.59715
6885.259	-12.75040	4.20503	-10.89298	4.74661
6889.256	-12.37771	4.82272	-11.39599	4.63786
6893.261	-17.59036	-2.40065	-11.03996	4.43129
6897.296	-18.31568	-2.20218	-11.46878	4.93754
6901.260	-14.01230	1.95950	-11.04121	4.52181
6905.258	-11.83541	5.48570	-11.40143	4.46952
6909.283	-16.59485	-2.67657	-11.69345	4.79560
6913.255	-11.91650	4.14656	-10.76851	4.59655
6917.254	-11.96299	4.55091	-11.37402	4.83785
6921.254	-11.77318	4.97901	-11.41841	4.65080
6925.258	-15.02939	1.09730	-9.43134	5.29331
6929.255	-11.90044	5.45378	-11.34974	4.59303
6933.262	-11.90219	5.23797	-11.55488	4.62447
6937.260	-12.00210	5.35500	-11.29393	4.68221
6941.258	-11.45658	5.80166	-11.45944	4.47928
6945.259	-11.99472	1.94029	-11.51097	4.61131
6949.256	-11.24194	4.88002	-11.62459	5.22085
6953.258	-11.11095	4.84149	-11.46807	5.21085
6957.255	-11.02225	4.46613	-11.46189	5.17770
6961.254	-12.54476	1.13088	-11.53610	5.23495
6965.267	-10.59634	4.89696	-11.53567	4.89378
6969.259	-12.00051	4.82711	-9.93022	5.94012
6973.255	-11.01933	4.80084	-10.19327	5.99285
6977.253	-10.98315	5.60750	-10.14417	5.77227
6981.252	-10.71049	5.06670	-11.01947	5.96194
6985.258	-15.87657	-8.36283	-11.00905	6.26250
6989.259	-10.93710	4.84999	-11.09401	6.35401
6993.263	-12.64551	0.30911	-10.93870	6.20542
6997.261	-11.27011	1.64832	-11.01101	6.58120
7001.256	-10.75382	5.21440	-11.14522	6.85737
7005.256	-11.20311	5.24205	-9.73132	6.00195
7009.257	-11.35609	5.36889	-9.80026	6.28461
7013.256	-11.03444	6.39923	-9.65211	5.64298
7017.256	-10.40975	7.00235	-9.26793	5.82108
7021.253	-10.31487	8.77458	-10.57232	5.43472
7025.252	-9.27334	5.18232	-10.58176	5.64598
7029.262	-9.85243	5.04847	-10.38260	6.62225
7033.274	-10.06383	5.65215	-10.32330	6.83673
7037.260	-9.72742	5.00552	-5.70359	5.64215
7041.254	-11.36339	-0.36516	-8.19803	5.48984
7045.256	-11.59651	4.54121	-11.37841	6.07112
7049.250	-11.09274	5.23059	-10.85856	6.13471
7053.257	-11.17883	5.02466	-10.79990	5.55881
7057.254	-9.17769	3.71375	-11.12930	6.08916
7061.258	-8.33090	3.53414	-10.46517	5.68389
7065.254	-9.32654	3.86762	-10.36084	5.99632
7069.250	-14.83225	-7.04732	-9.06330	6.07098
7073.261	-9.19810	4.17165	-9.01370	5.94689
7077.258	-11.32879	3.30162	-8.86701	6.00241
7081.255	-10.34665	3.66868	-11.26400	6.13868
7085.257	-10.24101	3.94319	-11.47462	5.87219
7089.257	-11.93793	3.55426	-10.97014	5.82167
7093.253	-12.84069	2.77868	-10.73478	5.78684
7097.252	-17.06349	-1.88058	-8.73766	5.92444
7101.259	-10.21416	4.71299	-6.07152	3.21046
7105.254	-2.89361	4.17708	-8.57617	2.88268
7109.251	1.35955	-1.08239	-5.94661	3.68901
7113.258	3.92359	-0.94846	-5.17070	2.13143
7117.318	-1.01690	1.26320	-0.44832	1.88534
7121.257	1.36318	1.77932	3.95293	0.54065
7125.251	-1.76373	-0.90929	-5.00103	2.39559
7129.252	0.03541	-2.02774	3.67643	2.15943
7133.254	5.24934	-2.57552	1.91645	1.57332
7137.253	1.30580	0.11562	-0.66536	1.86717
7141.250	3.86766	-0.42920	-0.60540	1.68782
7145.252	0.02258	-5.02416	-0.51245	1.54684
7149.254	2.57238	1.86433	-5.30682	0.23211
7153.248	1.24902	1.62493	-4.62103	0.65252
7157.260	2.12694	0.60893	-2.51601	0.77025
7161.252	1.26525	1.70540	-0.95983	0.85589
7165.252	2.04408	0.74538	-0.36762	1.03998
7169.252	0.48202	0.75624	-3.14419	0.81757
7173.256	-1.89754	1.18948	-1.48141	1.57536
7177.249	0.04338	0.30383	0.15094	1.27107
7181.254	-0.11754	0.81842	-0.87463	1.73123
7185.252	1.36437	-0.11157	-5.02524	0.55654
7189.250	-1.76512	-4.82741	-2.53538	1.13432
7193.268	1.82311	0.28969	-0.20854	0.90070
7197.260	1.79906	0.73702	-0.20450	0.97789
7201.255	-0.19636	0.96994	-2.93903	1.02496
7205.252	-0.25145	0.33993	0.11500	1.69652
7209.253	2.10877	0.64589	1.59465	2.13630
7213.250	1.57969	-0.03982	-1.95614	2.04181
7217.249	1.53624	0.02770	0.44760	2.05066
7221.252	1.57386	-0.00263	-2.22713	2.20747
7225.248	5.96063	-2.57868	-0.86160	1.18294
7229.250	1.83315	1.44036	-1.46844	1.72067
7233.250	0.05562	0.80556	0.01276	1.94283
7237.254	5.99365	-1.95737	-0.48892	1.59423
7241.270	1.90463	0.16213	-2.64757	1.40731
7245.251	1.87240	-0.14859	-1.84733	2.02589
7249.254	1.16515	1.00216	0.37253	2.57261
7253.252	0.39298	1.72544	0.54091	3.25903
7257.249	1.62016	1.74983	0.07175	2.42519
7261.255	2.91032	0.86181	0.48138	3.23179
7265.250	0.54218	0.83839	1.36489	2.90267
7269.252	0.13796	0.26089	-0.50483	3.27644
7273.246	7.68272	-3.29267	0.17127	3.06692
7277.255	0.56488	0.26632	0.26649	2.53075
7281.255	0.55089	0.09142	-0.67201	2.47009
7285.254	0.32913	0.68070	-0.45363	2.52420
7289.249	0.51552	0.26103	-1.04463	2.21788
7293.252	3.71098	0.50436	-2.52854	2.61805
7297.251	2.92703	0.22275	-1.94015	2.01551
7301.252	2.54336	-0.15543	-1.30459	1.69949
7305.251	0.79124	0.09531	-0.31359	2.61736
7309.252	0.57754	-0.19535	-0.94023	1.95590
7313.245	6.77284	-3.81819	-1.81305	2.02052
7317.249	0.50493	0.50249	-2.05660	1.90730
7321.256	0.97648	0.54169	-2.97965	1.84951
7325.253	1.76353	0.65938	-1.39889	1.77326
7329.246	2.05613	0.73490	-1.67519	1.68632
7333.286	1.11698	0.83524	-1.40871	1.88361
7337.248	1.20288	-0.15430	-1.52612	1.91197
7341.247	7.99260	-6.31475	-0.91743	2.11182
7345.244	0.88312	0.84029	-0.43140	2.15154
7349.251	0.88026	0.94961	0.35494	2.06458
7353.249	5.48123	-4.39606	-1.43143	1.90575
7357.246	1.70881	-0.63772	-1.14131	1.91304
7361.255	4.66428	-0.08381	0.42442	2.24701
7365.253	2.76586	0.54916	0.97355	2.35555
7369.247	2.23216	0.80892	0.34226	2.21275
7373.248	0.86108	0.99562	1.52709	1.85162
7377.247	0.50875	2.06980	0.75449	2.53463
7381.252	-2.46748	4.59273	-2.51656	1.90694
7385.249	8.45242	-1.41027	-2.82189	1.73623
7389.246	4.93598	0.48976	1.14181	1.69952
7393.246	5.61927	-0.68501	-4.07718	2.15690
7397.250	4.67175	10.53206	-4.31630	1.38035
7401.248	5.21722	13.05801	NaN	NaN
7405.256	5.40823	-1.52274	-5.24110	3.35289
7409.247	0.98809	-1.77608	21.14827	9.10083
7413.251	4.27197	4.15933	NaN	NaN
7417.245	NaN	NaN	NaN	NaN
7421.250	NaN	NaN	NaN	NaN
7425.245	NaN	NaN	NaN	NaN
7429.248	NaN	NaN	NaN	NaN
7433.249	NaN	NaN	NaN	NaN
7437.252	NaN	NaN	NaN	NaN
7443.498	NaN	NaN	NaN	NaN
7453.251	NaN	NaN	NaN	NaN
7457.252	NaN	NaN	NaN	NaN
7461.875	NaN	NaN	NaN	NaN
7469.249	NaN	NaN	NaN	NaN
7473.295	NaN	NaN	NaN	NaN
7477.256	NaN	NaN	NaN	NaN
7481.250	NaN	NaN	NaN	NaN
7485.249	NaN	NaN	NaN	NaN
7489.264	NaN	NaN	NaN	NaN
7493.253	NaN	NaN	NaN	NaN
7497.260	NaN	NaN	NaN	NaN
7501.251	NaN	NaN	NaN	NaN
7505.255	NaN	NaN	NaN	NaN
7510.055	NaN	NaN	NaN	NaN
7513.255	NaN	NaN	NaN	NaN
7517.249	NaN	NaN	NaN	NaN
7521.246	NaN	NaN	NaN	NaN
7525.246	NaN	NaN	NaN	NaN
7529.248	NaN	NaN	NaN	NaN
7533.249	-19.01881	5.51375	-12.15042	0.06158
7537.246	-17.33352	5.56491	-4.16043	-3.06373
7541.246	-22.39827	8.40089	-4.15729	-3.76944
7545.244	-15.03003	-1.18886	-4.96337	-3.68459
7549.249	-15.69845	1.31062	-7.18843	-8.80759
7553.245	-15.43335	1.66851	-16.52996	3.83855
7557.248	-14.60953	-4.49796	-7.93698	4.49256
7561.247	-15.19128	1.15419	-5.53667	-3.50519
7565.246	-11.91818	-1.42895	-4.63920	0.87413
7569.249	-13.52428	-1.61521	-4.89782	0.47743
7573.253	-14.59091	-1.72897	-4.70547	4.16833
7577.245	-13.58702	-3.41891	-9.94845	1.29705
7581.248	-13.83376	-2.32027	-9.01113	2.79435
7585.248	-14.49448	-2.37944	-7.77061	-2.73145
7589.248	-14.23228	-2.64337	-5.04890	-1.26327
7593.244	-14.31428	-1.93145	-4.73106	-0.44724
7597.245	-13.29716	-2.40870	-4.88468	0.66192
7601.242	-13.50084	-0.41455	-7.43173	-0.04692
7605.246	-11.57186	-2.42050	-7.51654	-2.14301
7609.246	-12.14769	-2.61444	-7.57783	-2.85595
7613.251	-8.79589	-2.29487	-7.58112	-2.20615
7617.248	-11.71427	-2.53195	-8.25190	-2.25710
7621.250	-9.94159	-1.59459	-8.52258	-2.28230
7625.244	-8.42100	-0.92243	-8.26505	-2.43639
7629.248	-8.30857	-1.59716	-6.61726	-2.08327
7633.244	-11.65087	-2.18425	-5.93006	-1.51564
7637.245	-7.98939	-2.31818	-10.05411	-2.09774
7641.243	-9.73906	-2.14654	-8.05472	-1.78700
7645.241	-9.09826	-1.04588	-9.30720	-1.84178
7649.243	-10.50333	-2.59543	-7.52474	-0.64522
7653.245	-7.97510	-2.17212	-8.22268	-1.05888
7657.249	-7.73297	-2.24291	-10.19349	-0.34024
7661.243	-7.72451	-2.00190	-8.49906	-0.47534
7665.245	-8.06664	-1.52861	-7.52615	-0.06410
7669.239	-11.12037	-3.13814	-7.49017	0.00988
7673.245	-8.86153	-2.42496	-9.42293	-0.02478
7677.246	-7.91251	-2.63361	-7.74739	-0.03605
7681.250	-8.78154	-2.34676	-6.37069	-1.59856
7685.244	-8.12442	-2.22641	-6.72313	-2.25591
7689.241	-8.38291	-2.62571	-10.43755	-2.61583
7693.241	-8.10204	-1.91370	-6.55506	-2.72681
7697.251	-8.46199	-2.25057	-7.08211	-0.14241
7701.249	-8.99133	-2.04562	-9.72556	-0.57995
7705.244	-11.16316	-1.76458	-7.90830	-0.73022
7709.242	-11.39790	-2.03408	-4.49733	6.20454
7713.125	-11.84185	-1.99254	-11.78937	-1.32961
7717.119	-0.53277	-5.26057	-6.76437	-0.14951
7721.117	-14.74903	2.61816	-7.69395	2.63793
7725.115	-14.49925	3.49416	-8.58117	-1.09097
7729.122	-16.38627	2.38625	-8.09635	2.86229
7733.117	-20.33249	8.77386	-8.79116	-5.01595
7737.119	-20.15182	-12.06561	-12.21179	2.24403
7741.130	-20.09644	-12.06976	NaN	NaN
7745.123	-20.06941	-12.07178	NaN	NaN
7749.114	-20.05327	-12.07298	NaN	NaN
7753.114	-20.04249	-12.07379	NaN	NaN
7757.120	-20.03472	-12.07437	NaN	NaN
7762.621	-20.02882	-12.07481	NaN	NaN
7773.120	-20.02418	-12.07515	NaN	NaN
7777.122	-20.02041	-12.07544	NaN	NaN
7781.469	-20.01728	-12.07567	NaN	NaN
7785.137	NaN	NaN	NaN	NaN
7789.118	NaN	NaN	NaN	NaN
7793.120	NaN	NaN	NaN	NaN
7797.118	NaN	NaN	NaN	NaN
7801.120	NaN	NaN	NaN	NaN
7805.116	NaN	NaN	NaN	NaN
7809.119	NaN	NaN	NaN	NaN
7813.120	NaN	NaN	NaN	NaN
7817.117	NaN	NaN	NaN	NaN
7821.118	NaN	NaN	NaN	NaN
7825.124	NaN	NaN	NaN	NaN
7829.124	NaN	NaN	NaN	NaN
7833.120	NaN	NaN	NaN	NaN
7837.118	NaN	NaN	NaN	NaN
7841.121	NaN	NaN	NaN	NaN
7845.118	NaN	NaN	NaN	NaN
7849.458	NaN	NaN	NaN	NaN
7853.117	NaN	NaN	NaN	NaN
7857.126	NaN	NaN	NaN	NaN
7861.117	NaN	NaN	NaN	NaN
7865.117	NaN	NaN	NaN	NaN
7869.149	NaN	NaN	NaN	NaN
7873.135	NaN	NaN	NaN	NaN
7877.125	NaN	NaN	NaN	NaN
7881.118	NaN	NaN	NaN	NaN
7885.116	NaN	NaN	NaN	NaN
7889.119	NaN	NaN	NaN	NaN
7893.136	NaN	NaN	NaN	NaN
7898.630	2.98673	14.04746	NaN	NaN
7909.123	NaN	NaN	NaN	NaN
7913.114	NaN	NaN	NaN	NaN
7917.113	NaN	NaN	NaN	NaN
7921.114	NaN	NaN	NaN	NaN
7925.115	NaN	NaN	NaN	NaN
7929.111	NaN	NaN	17.13237	9.81540
7933.118	NaN	NaN	20.20860	12.72529
7937.112	-0.81791	4.91993	21.46053	2.80564
7941.116	2.14424	1.22323	19.21219	1.40784
7945.112	18.55543	1.12390	15.64719	1.06459
7949.120	19.33578	1.33936	12.28732	-1.65829
7953.117	19.33846	-3.45190	12.00243	-0.13463
7957.116	17.18303	-2.14462	12.37435	0.63177
7961.112	15.26083	-2.46938	13.56017	-0.52135
7965.116	16.84584	-2.66653	13.10864	2.11475
7969.114	14.96434	-2.46214	12.79838	1.47188
7973.114	14.76535	-3.38045	11.30522	2.81313
7977.120	12.86584	-2.56742	12.02591	2.39690
7981.116	14.78551	-1.99285	12.90501	2.09174
7985.152	5.35453	-3.02066	12.74367	2.76560
7989.123	6.83651	-2.94183	12.81042	2.28062
7993.119	13.17708	-3.18632	11.21197	3.87078
7997.116	13.74964	-2.93467	-3.20565	-0.64420
8001.115	12.89121	-2.34112	-2.74321	-1.88058
8005.111	16.41112	-2.84734	11.98928	1.62488
8009.118	8.78520	-2.81949	12.62230	1.43056
8013.113	12.97915	-2.78299	12.61663	1.46804
8017.115	5.80015	0.08114	-0.99102	-1.82160
8021.111	13.98466	-1.63998	-1.37091	-1.43979
8025.110	10.50105	-1.56435	12.51574	1.29192
8029.114	5.20159	-0.41581	-1.51767	-1.28500
8033.137	7.12989	0.66273	12.68912	1.22669
8037.111	-2.37082	1.40200	11.30899	1.08930
8041.118	4.47476	-0.04439	6.07454	1.43088
8045.114	10.30841	-0.34723	-0.12218	1.23267
8049.114	7.44918	-0.80810	-2.61389	-0.24185
8053.112	4.60508	-0.03064	-0.25602	-1.24369
8057.113	7.06662	0.47820	7.82779	-0.67804
8061.112	4.60607	1.67247	8.09022	1.22302
8065.111	4.47222	2.04775	8.92561	1.18784
8069.110	6.31384	0.19685	3.95624	0.66630
8073.109	4.69517	1.23297	4.50458	1.02690
8077.115	7.83181	0.00342	7.27550	2.13690
8081.109	5.72414	0.25739	6.93961	1.74276
8085.114	5.14963	0.09256	9.09125	1.55320
8089.112	6.54724	1.20621	6.94641	2.12781
8093.109	4.96615	2.35874	8.25022	1.76485
8097.110	9.47140	0.85608	7.39281	2.37170
8101.112	9.05705	1.80528	7.50725	1.81660
8105.109	9.27581	-0.00370	8.59155	1.40435
8109.109	7.49866	0.65415	8.10243	1.68589
8113.109	6.96348	0.55827	9.58934	1.83868
8117.120	12.34875	-1.13678	8.43489	1.83771
8121.116	5.13289	1.15683	6.41180	2.60256
8125.111	5.36641	2.03571	7.24183	1.76078
8129.110	4.19398	2.98272	7.52215	1.80798
8133.111	2.94540	3.46784	8.59558	1.45750
8137.113	4.45735	1.53661	8.22336	1.03902
8141.107	7.49585	1.80262	8.62190	1.14486
8145.114	8.12943	1.77885	8.53608	1.75442
8149.110	3.53696	1.90505	6.32353	4.28630
8153.111	4.06893	1.76011	6.05422	4.15062
8157.113	6.25632	1.03830	6.45701	1.96889
8161.117	8.08645	0.82608	6.97463	2.83195
8165.110	4.74353	1.80525	7.16635	2.59689
8169.109	4.22340	1.69891	8.11834	2.79784
8173.106	6.91129	1.72847	7.68364	2.42886
8177.114	5.99787	1.47273	7.38046	2.43654
8181.111	4.68200	4.75229	7.46712	2.75610
8185.109	3.78123	1.88679	7.94608	2.43874
8189.144	4.53692	1.46681	7.65383	2.32450
8193.119	6.84903	1.33192	7.98639	2.43830
8197.110	4.66753	1.23946	7.35234	2.69084
8201.113	4.03327	1.77338	8.00976	2.61150
8205.112	4.88813	1.27994	7.88456	2.50797
8209.108	5.66757	1.28602	8.17702	2.40430
8213.108	5.88292	-1.55605	7.51925	2.61632
8217.114	4.10293	3.67915	7.14590	2.96457
8221.110	4.28730	1.12537	6.81713	2.84970
8225.108	4.97568	1.42439	6.80171	2.67795
8229.109	4.67404	1.20273	6.63644	2.69173
8233.113	4.62569	2.11511	4.31743	2.89483
8237.110	4.77385	0.63230	3.07436	2.92717
8241.120	3.16772	3.10241	4.52829	0.48472
8245.109	-1.18155	2.30067	-0.13335	0.09144
8249.110	0.07386	1.45314	2.34272	0.25062
8253.111	2.49359	1.36905	2.60644	3.47420
8257.109	4.81234	-1.02217	0.61032	2.16321
8261.108	2.55311	-0.68264	1.68151	1.61715
8265.110	1.24287	-0.03868	-1.73204	-0.10655
8269.109	1.36199	-1.57062	-1.57545	-1.55052
8273.109	0.85275	0.80621	0.49173	-2.15100
8277.109	4.33219	-0.84225	0.54855	-2.23261
8281.104	0.51131	0.88447	0.33020	1.70526
8285.110	4.73959	-0.45984	2.40298	1.68928
8289.111	1.17237	0.19331	2.86819	1.73083
8293.108	5.08414	-1.06010	3.28407	1.63822
8297.107	1.01213	-0.45588	5.17922	1.66176
8301.109	3.27017	-1.49959	2.44603	-0.51874
8305.108	4.83412	-1.75692	-5.19044	-2.22381
8309.112	4.45984	-1.78161	0.73168	1.20690
8313.110	4.48577	-1.92736	-0.46535	1.59800
8317.106	3.73559	-1.67863	-0.77248	1.55558
8321.103	3.63774	-1.94719	-0.75846	2.41821
8325.112	4.78323	-2.06718	0.39732	2.30448
8329.113	4.77628	-2.18328	5.56974	2.00125
8333.108	2.68695	-0.51904	4.99948	1.97241
8337.108	2.56329	-0.14510	5.28291	2.57136
8341.106	1.56305	1.88817	5.17545	2.70358
8345.109	1.28762	0.83133	5.00640	2.76418
8349.105	0.93629	1.15098	4.90905	3.06716
8353.108	-0.59061	2.31441	4.90646	3.07885
8357.105	1.11348	1.05053	4.73271	2.76930
8361.110	0.78558	0.45844	4.05349	2.90290
8365.111	0.62265	0.49565	3.53636	3.11798
8369.111	-1.83801	0.80211	3.88730	-1.69498
8373.109	1.34108	-0.90692	3.93480	-2.03732
8377.107	1.86429	-1.01571	3.41451	-2.41896
8381.107	0.36119	-1.30962	-1.33421	-6.06260
8385.104	-0.13915	-1.03294	2.23655	2.24603
8389.107	-2.05752	0.39300	2.20354	3.30347
8393.105	-1.85876	-1.50919	2.27000	2.59305
8397.111	0.01291	0.57772	6.91694	1.04806
8401.108	-0.11302	0.06148	6.87093	0.17992
8405.113	-2.48351	0.53195	3.29166	0.29236
8409.111	0.47711	0.45809	6.78177	-0.04284
8413.137	-0.78843	1.01730	6.41236	-0.81931
8417.107	-1.95145	0.73365	5.72537	-2.07875
8421.111	-1.25312	-0.02308	5.27176	-2.30179
8425.105	-0.90331	-2.86775	4.75859	-2.71709
8429.112	-0.26575	-0.05385	3.09094	2.25288
8433.109	-2.44110	0.81500	3.58709	1.08035
8437.108	-2.89544	0.23080	3.44515	0.82950
8441.104	-1.16250	1.58333	6.63130	0.28119
8445.104	-2.64133	-0.28146	6.71312	-0.18489
8449.114	0.27843	0.69732	0.58223	-2.37566
8453.106	-0.30128	-0.13602	0.91656	-0.51238
8457.108	1.80687	-1.01629	0.94840	-0.36133
8461.107	-1.92890	1.51670	6.81385	0.73089
8465.104	-1.99726	1.64535	1.45584	0.25755
8469.109	-2.10434	0.70093	3.39619	-3.09663
8473.106	-2.37696	0.34848	3.42772	-2.80612
8477.106	-0.09768	0.06851	3.11886	-2.55212
8481.105	0.42663	-0.11711	1.60967	-0.73302
8485.107	-1.51164	0.41242	2.50952	-0.26935
8489.108	-1.23379	0.75440	2.55564	-2.27848
8493.111	-1.75689	1.46904	1.34214	-1.62172
8497.105	-1.69034	1.38060	-0.52868	-1.86427
8501.102	-1.23918	-0.40864	0.73776	-2.58813
8505.099	-1.85611	0.61445	0.59466	-1.75914
8509.106	-1.61840	0.05639	0.45207	-1.64538
8513.104	-0.78121	1.40168	0.19365	-0.90167
8517.102	-0.12736	0.77569	2.87262	-1.32464
8521.102	-0.54567	1.31411	1.84604	-1.20309
8525.106	-0.66886	1.62456	0.83463	-1.45900
8529.103	-0.70067	0.55361	0.28905	-1.43544
8533.110	2.72365	-3.78521	0.30535	-0.84410
8537.103	-1.70730	0.10723	0.79310	-1.26298
8541.124	-1.80700	0.42736	0.99305	-0.81160
8545.111	-0.95619	0.29825	0.23778	-0.81844
8549.103	-0.30034	1.09895	0.05485	-1.25130
8553.102	-0.58069	1.66859	0.13598	-0.88046
8557.105	-0.67007	1.23833	-0.04934	-1.09740
8561.104	-1.00037	1.45622	-0.69799	-0.61922
8565.101	-1.77102	1.66658	1.37131	-1.09577
8568.979	-1.11693	1.04268	1.35266	-0.83183
8572.981	-1.41866	0.73562	0.84374	-0.10269
8576.975	-0.53359	1.14855	0.06942	0.55621
8580.989	-0.19430	1.07673	-0.71072	-1.12720
8584.983	-0.75764	0.98976	0.17295	-1.01895
8588.975	-0.52493	0.00415	0.16739	-0.66473
8592.981	-0.59531	-0.24873	0.45324	-1.00601
8596.976	-0.23199	0.94137	0.45574	-0.46853
8600.980	-0.38482	-0.28861	0.50334	-1.04955
8604.973	-0.42723	0.73652	0.35007	-0.12454
8608.975	-0.20363	-0.09554	0.23470	0.31921
8612.977	-0.83694	0.80055	-0.15809	-0.25328
8616.980	-2.76849	0.65867	1.89590	-0.72004
8620.986	0.38224	0.54412	2.10686	-1.27520
8624.981	-0.42638	0.27385	0.84272	-0.70391
8628.975	-0.74975	0.09355	0.15593	-0.00378
8632.976	-0.71739	0.45904	0.06820	-0.09604
8636.979	-0.85560	0.08309	-0.53481	-0.00072
8640.979	-0.44237	-0.07191	1.19825	-0.10417
8644.976	-0.48475	-0.14504	0.09810	-1.27830
8648.975	-1.47129	0.35495	-0.01804	-0.28837
8652.980	0.32320	0.28086	-0.17097	1.46250
8656.976	5.95182	-2.54969	1.44433	-0.47647
8660.975	-0.44239	0.82096	-0.07294	-0.93499
8664.986	-0.29178	-0.10707	-0.69342	-0.82718
8668.976	-1.13690	0.09729	-2.82754	-1.08165
8672.978	-1.29157	0.09873	-1.03990	-0.52663
8676.977	-1.31612	-0.02676	-1.85502	-1.48159
8680.980	-2.43605	0.06835	-2.89423	-1.60453
8684.981	-4.16038	-0.99368	-2.77020	-1.65023
8688.976	-0.29458	-1.05322	-0.91510	-1.53447
8692.986	-2.04443	0.13725	-0.71970	-0.73936
