time (ms)	lx (deg)	ly (deg)	rx (deg)	ry (deg)
0.000	0.54994	-0.09074	0.89962	1.61613
3.996	0.25483	0.00144	1.51616	2.39162
8.008	0.83672	-0.01036	0.92349	2.81333
12.024	0.88049	0.19087	1.13620	3.45116
16.009	0.88520	-0.31127	1.07708	2.43069
20.000	0.63417	-0.16608	1.07646	2.84742
23.999	0.63925	0.24733	0.97050	3.74255
27.997	0.91512	0.15648	0.75891	2.80564
32.020	0.15777	-1.29757	-1.75371	3.55039
36.005	0.85597	-0.13897	0.97504	2.12809
40.001	1.08120	-0.49671	0.81287	3.11543
44.000	-0.11965	0.28812	-1.26160	3.60858
48.206	NaN	NaN	NaN	NaN
56.009	0.66608	0.50143	0.88751	2.57117
60.000	1.03161	-0.36129	0.96425	2.63429
63.996	-0.22470	1.08726	0.07927	3.79281
68.002	0.72799	0.14349	0.73084	3.20710
71.998	0.54034	-0.09278	-0.94398	4.83316
75.997	1.20596	-0.60882	0.20864	2.04974
79.995	0.26299	0.15329	0.93334	3.66359
84.001	0.68087	0.87784	-1.24910	3.74111
87.998	1.88784	0.10029	0.60942	2.39274
92.002	1.70147	-0.05206	1.42412	2.16678
95.999	0.07924	1.04044	-0.37087	3.41926
100.030	1.18502	0.49555	-4.68274	4.05409
104.003	0.66737	-7.47669	-2.85197	3.67082
107.996	-0.13292	-7.31200	-1.09487	2.13376
111.996	0.48249	0.02751	-2.66954	0.33681
116.004	2.80516	0.72213	-3.95224	2.92217
119.999	4.92078	-9.73456	-3.54170	3.79165
123.997	2.33626	0.12231	-1.26609	2.15338
127.994	2.58254	-11.24013	-4.86081	2.54744
132.005	0.47981	0.36576	-1.83372	2.42857
135.997	-19.99372	-11.92536	-3.18054	-0.08215
139.996	1.52221	0.99851	-3.18823	1.81687
143.993	2.29946	-0.04854	-3.10883	-0.10575
147.998	2.18416	0.54825	-2.80528	0.71412
151.995	-19.99372	-12.00090	-3.11284	2.34360
155.994	1.11613	-0.23629	-1.96595	1.78103
160.000	2.39661	-0.57320	0.82751	0.72575
163.998	0.85314	-0.31910	-2.47175	2.11323
168.025	2.26130	-0.78356	-2.97455	1.71309
172.008	1.86265	-0.24809	-2.18287	3.22882
176.007	2.08833	-1.23216	-0.87572	3.59767
179.996	2.12652	0.10189	-0.93403	1.80594
184.000	2.35050	0.25315	-2.58977	2.00264
187.997	NaN	NaN	-1.94449	1.79316
191.996	2.11048	0.01636	-1.50901	2.99007
196.001	1.96796	-0.15554	-1.16049	3.54244
199.999	NaN	NaN	-1.25974	3.01615
203.996	2.39292	-0.31439	-1.63797	3.42180
207.993	NaN	NaN	-1.73896	3.48643
212.063	NaN	NaN	NaN	NaN
220.006	-1.60474	3.96904	-1.41933	3.39561
223.994	-1.81104	1.04695	-1.31295	3.41336
227.993	1.44862	1.17520	-1.24203	3.59720
232.000	3.60803	0.83476	-1.17979	2.34071
236.020	1.19663	-0.85551	-1.38257	3.05512
240.004	0.22552	-0.25753	-1.55045	2.52100
243.997	0.49547	0.28148	0.96844	0.49156
247.993	1.06582	-0.84663	-1.77152	4.48483
252.030	1.04171	-0.54966	0.86992	3.67706
255.997	3.87223	-1.22000	-1.85767	2.96682
259.998	0.82759	0.82617	-1.24215	2.91461
263.998	-1.62371	2.27727	-1.36471	3.85790
267.994	-0.76851	1.62465	-2.37877	3.10843
271.994	1.52335	4.39546	-18.01588	9.68776
275.992	-1.70023	3.05679	-2.59851	7.57296
279.997	3.01720	0.93893	-1.57974	6.61902
283.995	-1.39711	5.26737	-19.97086	-12.07912
287.993	2.55408	8.00416	-19.98239	-12.07827
291.991	NaN	NaN	-19.98627	-12.07798
295.996	NaN	NaN	-19.98824	-12.07783
299.998	NaN	NaN	-19.98945	-12.07774
304.176	NaN	NaN	-19.99024	-12.07768
308.005	NaN	NaN	-19.99083	-12.07764
311.999	NaN	NaN	-19.99127	-12.07761
315.997	NaN	NaN	NaN	NaN
319.994	NaN	NaN	NaN	NaN
324.104	NaN	NaN	NaN	NaN
328.287	NaN	NaN	NaN	NaN
332.423	NaN	NaN	NaN	NaN
336.004	NaN	NaN	NaN	NaN
340.008	NaN	NaN	NaN	NaN
343.997	NaN	NaN	NaN	NaN
347.993	NaN	NaN	NaN	NaN
351.998	NaN	NaN	NaN	NaN
356.006	NaN	NaN	NaN	NaN
360.002	NaN	NaN	NaN	NaN
363.993	NaN	NaN	NaN	NaN
367.994	NaN	NaN	NaN	NaN
372.739	NaN	NaN	NaN	NaN
376.832	NaN	NaN	NaN	NaN
380.845	NaN	NaN	NaN	NaN
386.240	NaN	NaN	NaN	NaN
389.199	NaN	NaN	NaN	NaN
396.001	1.17847	-0.51396	NaN	NaN
399.996	4.74333	0.16384	NaN	NaN
403.994	5.38459	1.50953	NaN	NaN
407.994	-1.21043	1.70916	NaN	NaN
411.998	-5.60566	2.92409	NaN	NaN
415.998	2.61471	1.90436	NaN	NaN
419.993	3.81931	2.04855	NaN	NaN
425.029	0.81062	6.67746	-3.93611	-8.22209
435.997	NaN	NaN	NaN	NaN
440.803	NaN	NaN	NaN	NaN
444.794	NaN	NaN	NaN	NaN
448.816	NaN	NaN	NaN	NaN
452.663	NaN	NaN	NaN	NaN
456.601	NaN	NaN	NaN	NaN
460.604	NaN	NaN	NaN	NaN
464.525	NaN	NaN	NaN	NaN
468.426	NaN	NaN	NaN	NaN
472.523	NaN	NaN	NaN	NaN
476.589	NaN	NaN	NaN	NaN
480.497	NaN	NaN	NaN	NaN
484.469	NaN	NaN	NaN	NaN
488.384	NaN	NaN	NaN	NaN
492.415	NaN	NaN	NaN	NaN
496.441	NaN	NaN	NaN	NaN
500.418	NaN	NaN	NaN	NaN
504.439	NaN	NaN	NaN	NaN
509.271	NaN	NaN	NaN	NaN
513.377	NaN	NaN	NaN	NaN
517.420	NaN	NaN	NaN	NaN
521.382	NaN	NaN	NaN	NaN
525.486	NaN	NaN	NaN	NaN
529.417	NaN	NaN	NaN	NaN
533.553	NaN	NaN	NaN	NaN
537.686	NaN	NaN	NaN	NaN
541.804	NaN	NaN	NaN	NaN
545.751	NaN	NaN	NaN	NaN
549.929	NaN	NaN	NaN	NaN
553.924	NaN	NaN	NaN	NaN
557.988	NaN	NaN	NaN	NaN
561.953	NaN	NaN	NaN	NaN
565.929	NaN	NaN	NaN	NaN
569.903	NaN	NaN	NaN	NaN
573.960	NaN	NaN	NaN	NaN
578.783	NaN	NaN	NaN	NaN
582.767	NaN	NaN	NaN	NaN
586.649	NaN	NaN	NaN	NaN
590.722	NaN	NaN	NaN	NaN
594.648	NaN	NaN	NaN	NaN
598.500	NaN	NaN	NaN	NaN
602.381	NaN	NaN	NaN	NaN
606.368	NaN	NaN	NaN	NaN
609.936	NaN	NaN	NaN	NaN
613.770	NaN	NaN	NaN	NaN
617.567	NaN	NaN	NaN	NaN
621.327	NaN	NaN	NaN	NaN
625.365	NaN	NaN	NaN	NaN
629.317	NaN	NaN	NaN	NaN
633.147	NaN	NaN	NaN	NaN
637.165	NaN	NaN	NaN	NaN
641.314	NaN	NaN	NaN	NaN
645.680	NaN	NaN	NaN	NaN
649.187	NaN	NaN	NaN	NaN
653.315	NaN	NaN	NaN	NaN
657.493	NaN	NaN	NaN	NaN
660.978	NaN	NaN	NaN	NaN
665.144	NaN	NaN	NaN	NaN
669.228	NaN	NaN	NaN	NaN
673.460	NaN	NaN	NaN	NaN
677.728	NaN	NaN	NaN	NaN
681.898	NaN	NaN	NaN	NaN
685.669	NaN	NaN	NaN	NaN
689.594	NaN	NaN	NaN	NaN
820.894	NaN	NaN	NaN	NaN
888.263	NaN	NaN	NaN	NaN
892.025	NaN	NaN	NaN	NaN
895.990	NaN	NaN	NaN	NaN
899.990	NaN	NaN	NaN	NaN
903.980	NaN	NaN	NaN	NaN
907.984	NaN	NaN	NaN	NaN
911.986	NaN	NaN	NaN	NaN
915.981	NaN	NaN	NaN	NaN
919.977	NaN	NaN	NaN	NaN
924.003	NaN	NaN	NaN	NaN
927.989	-0.76369	-0.71960	-0.19030	5.01572
931.992	-0.37628	-0.18323	-0.35444	4.06336
935.988	-1.26669	1.49976	-7.49400	15.02722
939.987	-2.53370	0.99272	-7.50834	15.02477
943.987	-0.83434	1.48137	-7.52254	15.02304
947.985	-1.98499	-0.52250	-7.53664	15.02152
951.988	-2.27959	3.46589	-7.55076	15.01960
955.988	1.99124	1.75349	-7.56483	15.01789
959.990	5.04235	0.96953	-7.57895	15.01627
963.992	-1.07103	0.66584	-0.23634	4.16738
967.984	0.20159	-0.36490	0.24373	3.15848
971.985	-0.65471	0.64191	0.64327	3.29104
975.986	NaN	NaN	0.03710	2.96199
979.988	NaN	NaN	0.33171	3.10796
983.985	NaN	NaN	0.57024	3.21074
987.993	NaN	NaN	1.45314	1.51665
991.987	NaN	NaN	-0.10359	2.51014
995.986	NaN	NaN	0.27694	2.73101
999.985	NaN	NaN	0.08679	3.19576
1003.987	NaN	NaN	-0.07733	3.11088
1007.994	NaN	NaN	0.28726	3.10911
1011.985	NaN	NaN	1.38185	1.66459
1015.990	NaN	NaN	-0.09344	1.30271
1020.001	NaN	NaN	-0.22323	2.86030
1023.988	NaN	NaN	7.42803	0.36337
1027.987	NaN	NaN	1.97086	1.43531
1031.989	NaN	NaN	1.48416	1.34697
1035.987	NaN	NaN	1.81458	0.91553
1039.986	NaN	NaN	1.85043	3.10159
1043.984	NaN	NaN	-0.90897	0.12940
1047.996	NaN	NaN	2.80429	1.00831
1051.986	NaN	NaN	-0.16151	2.38696
1055.987	NaN	NaN	-1.04883	1.17687
1059.984	NaN	NaN	-0.58382	2.95108
1063.985	NaN	NaN	0.23100	1.18699
1067.984	NaN	NaN	0.42646	2.12829
1071.986	NaN	NaN	0.14496	1.72537
1075.985	NaN	NaN	0.19603	0.60550
1079.984	NaN	NaN	-0.81431	0.93214
1083.982	NaN	NaN	-0.00007	0.83649
1087.988	NaN	NaN	0.14402	2.06779
1091.996	1.84178	-0.50655	-0.36715	0.71603
1096.005	1.60868	-0.32256	-0.20777	1.15078
1099.986	-0.56381	-0.27755	-0.81263	1.41175
1103.982	-0.98234	-0.01988	-0.25210	0.90400
1107.988	-1.01945	-0.32023	0.08396	2.37888
1111.985	-1.15781	-0.23142	-0.45636	2.38719
1115.986	-1.12571	-0.24039	0.03502	2.40111
1119.986	-1.07049	0.40886	-0.12071	0.87773
1123.982	-0.96594	-0.14915	-0.06324	1.30786
1127.982	-1.05458	-0.21451	-0.37474	1.17883
1131.992	-0.83873	0.07630	-1.04900	0.91375
1135.985	0.40214	-0.14328	0.09063	0.74645
1139.982	0.22517	-0.18008	-0.38050	0.92434
1143.985	-0.81362	0.40539	-0.28416	0.78142
1147.982	-1.72904	1.12054	-0.52612	2.66795
1151.986	-1.65260	0.11336	0.37737	0.67652
1155.982	-0.92257	0.09173	-0.22688	1.10981
1159.986	-0.65791	0.66268	-1.81116	0.89998
1163.982	0.01928	0.19405	-1.63514	0.77833
1167.984	-0.75667	-0.32050	-1.28164	0.72463
1172.011	-0.75087	0.49464	-0.46738	1.11098
1175.993	-0.88021	0.92025	-1.22533	-0.06519
1179.984	-2.44405	0.51467	-1.06225	0.73708
1183.982	-2.32548	-0.02036	0.34131	0.69479
1187.985	-1.16295	-0.67163	-1.69478	0.50239
1191.987	-1.01732	0.02716	-1.32404	0.78989
1195.983	-0.98618	0.32724	-1.68798	0.35253
1199.982	-0.65369	0.26159	-0.95681	1.13023
1203.984	-0.90597	0.12197	-1.74169	0.77807
1207.983	-1.07674	0.26241	-1.88375	0.43685
1211.978	-1.10671	-0.06825	-0.92368	0.40314
1215.985	-1.02516	0.21029	-0.72414	1.70399
1219.985	-1.65949	-3.29371	-1.08217	1.52553
1223.984	-2.67271	-3.87117	-0.91510	1.27983
1227.982	-2.65092	-4.36887	-0.68057	1.12619
1231.998	NaN	NaN	-1.10916	0.80178
1235.986	-0.77881	-0.01463	-0.85347	0.59878
1239.983	-3.03259	-0.50938	-0.49642	0.50672
1243.982	-2.91747	-2.37236	0.22013	-0.11234
1247.981	-2.86537	-3.79152	0.83081	1.68208
1251.983	-3.02791	-3.86857	1.44133	0.75324
1255.992	-3.21797	-4.34770	-2.46575	-0.52471
1259.982	NaN	NaN	-2.18753	-0.45979
1263.982	-0.35479	-1.51206	0.43502	0.87022
1267.980	-3.98435	-2.61888	0.70776	0.25679
1271.985	-3.91094	-3.11238	1.03526	1.43376
1275.981	-0.02177	-0.72822	0.24728	2.07390
1279.982	1.76390	-2.05925	-1.88611	1.79270
1283.980	1.46975	-1.66527	-1.68188	0.05060
1287.980	-0.34789	-1.14565	-1.16111	0.26173
1291.981	2.29168	-0.84838	-1.57173	0.28171
1295.987	2.38672	-0.21540	-0.95596	1.69272
1299.997	1.47479	-1.20443	-0.98105	0.97509
1303.985	1.87936	-0.51483	-1.09701	0.29252
1307.981	1.77543	-1.89059	-0.29764	-0.14303
1311.980	1.26257	-0.74781	-1.06721	0.65600
1315.979	0.85950	-0.66113	-1.05123	1.59694
1319.983	1.32582	-0.84352	-1.15419	0.92266
1323.983	1.98442	-0.57641	-1.16364	0.35845
1327.979	1.55035	-0.56999	-1.31320	-0.02931
1331.979	-0.12724	-0.56905	-1.21730	2.56767
1335.983	0.60000	-0.50773	-1.17957	1.51681
1339.985	1.02156	-0.38189	-1.13211	0.74144
1343.985	0.18591	-0.60540	-1.34542	-0.04849
1347.983	2.49974	-0.98034	-1.18579	2.05135
1351.980	-0.44105	-0.50667	-1.28995	1.28210
1355.977	-0.42006	-0.44152	-1.12350	0.47000
1359.984	-0.36526	-0.52506	-1.28859	0.32767
1363.978	0.79409	-0.50385	-1.17448	1.69600
1368.002	0.53004	-0.55668	-1.12695	0.92962
1371.983	-0.92041	0.32689	-0.83952	0.31840
1375.976	-5.13786	1.89535	-0.90584	1.80573
1379.988	-7.19190	-0.19232	-1.18207	0.80541
1383.982	-5.48378	3.18607	-0.76712	0.53186
1387.981	-7.37389	0.75240	-1.06106	1.70979
1391.977	-9.66754	5.67921	-1.02588	0.37218
1395.978	-4.58878	2.63362	-0.69819	2.03421
1399.978	-7.67123	3.05380	-1.25359	0.26898
1403.981	-5.41694	5.42038	-0.77950	2.96858
1407.976	-7.55427	4.71279	-1.19666	1.49717
1411.982	-9.10598	7.57959	-1.37297	0.48093
1415.981	-8.01530	6.76589	-1.17009	1.83306
1419.980	-11.81646	10.20623	-1.55650	0.56780
1424.003	-12.36099	8.55772	-1.10460	2.12691
1427.988	-9.68450	7.60824	-1.59085	0.99480
1431.981	-8.67832	10.19813	1.75738	2.26819
1435.980	-0.25408	0.50608	1.26609	1.48677
1439.981	3.87670	2.27756	10.26461	-8.30870
1443.979	5.53822	-0.28799	-6.74266	10.32568
1447.977	4.07969	4.23870	-1.45167	5.04834
1451.982	NaN	NaN	NaN	NaN
1456.011	NaN	NaN	NaN	NaN
1459.982	NaN	NaN	NaN	NaN
1463.984	NaN	NaN	NaN	NaN
1467.978	NaN	NaN	NaN	NaN
1471.981	NaN	NaN	NaN	NaN
1477.356	NaN	NaN	NaN	NaN
1487.982	NaN	NaN	NaN	NaN
1491.981	NaN	NaN	NaN	NaN
1495.979	NaN	NaN	NaN	NaN
1501.989	NaN	NaN	NaN	NaN
1511.980	NaN	NaN	NaN	NaN
1515.974	NaN	NaN	NaN	NaN
1519.983	NaN	NaN	NaN	NaN
1523.854	NaN	NaN	NaN	NaN
1527.853	NaN	NaN	NaN	NaN
1531.846	NaN	NaN	NaN	NaN
1535.854	NaN	NaN	NaN	NaN
1540.971	NaN	NaN	NaN	NaN
1551.859	NaN	NaN	NaN	NaN
1556.026	NaN	NaN	NaN	NaN
1560.269	NaN	NaN	NaN	NaN
1564.333	NaN	NaN	-0.34921	8.44501
1567.854	NaN	NaN	-12.10262	12.66199
1571.870	-1.65934	7.78154	-8.56238	8.79246
1575.855	NaN	NaN	-4.86810	1.26934
1579.855	0.75608	-1.05200	0.86329	-0.89807
1583.849	2.11948	7.65966	-7.63911	-3.55589
1587.854	5.28775	5.81729	-1.89310	-0.87524
1591.852	4.25754	3.12372	1.80511	1.64630
1595.857	2.18049	-0.54369	-4.29377	0.93214
1599.851	1.73068	1.05166	-1.59851	1.56428
1603.849	1.49307	1.15019	-2.98022	-2.25568
1607.850	1.00630	0.63182	-4.51166	-0.86537
1611.849	1.27425	-1.00318	-3.72449	1.00203
1615.849	-2.57721	-0.56838	-2.89527	1.64705
1619.851	-1.65101	-1.00778	-2.39099	0.75099
1623.852	-0.86141	-0.98364	-2.20433	-0.39160
1627.848	-1.52516	-0.02693	-2.66538	-0.30400
1631.853	-1.32805	-0.59819	-2.40615	0.88276
1635.856	-1.24672	-0.77057	-2.20721	0.89396
1639.877	-1.52087	-2.47071	-2.67843	-1.15536
1643.851	-1.52218	-1.57324	-2.72001	-0.58355
1647.851	0.55769	-0.82378	-2.47653	-0.67119
1651.849	-0.24579	-1.03378	-3.07268	0.54714
1655.853	-1.38136	-1.44110	-2.60718	0.98971
1659.849	-1.30948	-0.91093	-2.34042	-0.05837
1663.849	-1.25064	-0.97910	-2.27520	-0.17619
1667.879	-1.20611	-0.74832	-2.50754	-0.09381
1671.853	-1.44344	-0.72110	-2.82412	0.41159
1675.856	-1.69917	-1.93069	-2.50610	1.78444
1679.857	-1.77273	-2.01836	-2.53627	-0.65609
1683.850	0.10054	-1.59768	-2.59725	-0.62598
1687.851	-0.18090	-1.27166	-2.76871	0.20097
1691.848	-0.56270	-1.36861	-3.08612	0.20027
1695.853	-1.32676	-0.75040	-2.55705	0.60855
1699.849	-1.56278	-0.46097	-2.84101	0.64826
1703.851	-1.65091	-0.41647	-2.60362	-1.16022
1707.881	-1.22563	-0.54714	-2.87185	-0.61308
1711.855	-0.70846	-0.56819	-3.00868	0.65834
1715.850	-1.65671	-1.02851	-2.84482	1.03142
1719.857	-1.47883	-0.58136	-2.84846	0.75687
1723.850	-0.75297	-0.17910	-2.91893	-0.59869
1727.853	-1.19839	-1.35897	-3.03031	0.46045
1731.848	-1.17292	-0.87446	-3.17554	0.90674
1735.850	-1.38927	-1.07076	-2.82132	-0.30889
1739.848	-1.31697	-1.32638	-2.94277	0.33819
1743.851	-1.40016	-0.96268	-2.91250	1.06351
1747.849	-1.40842	-0.65549	-1.88326	0.50090
1751.847	-1.07101	-1.40402	-2.90220	-0.07438
1755.851	-1.39862	-1.24405	-3.06298	0.46105
1759.852	-1.71873	-0.83807	-3.09515	0.85784
1763.851	-1.39718	-1.34079	-2.91851	-0.32783
1767.891	-1.46571	-1.00151	-2.91341	0.18742
1771.849	-1.57853	-1.24055	-2.78312	0.28069
1775.867	-1.71050	-1.14923	-2.98282	1.21310
1779.849	-1.43468	-1.29526	-2.23635	0.54012
1783.852	-1.27745	-1.01163	-2.92381	-0.34480
1787.847	-1.10993	-0.25470	-2.96658	0.42365
1791.850	-1.22645	-0.66354	-2.98958	0.43329
1795.846	-1.40110	-0.96883	-3.01326	0.79769
1799.850	1.56652	-1.07849	-2.60399	0.88856
1803.853	0.75923	-1.03874	-1.92887	1.00944
1807.848	-0.14940	-1.57310	-2.15512	1.22245
1811.851	0.17553	-1.37141	-2.09445	1.62076
1815.848	-0.15352	-1.33713	-1.75493	0.85164
1819.849	-0.38487	-0.69677	-1.73095	0.92851
1823.851	0.19246	-0.96986	-1.73678	0.55526
1827.846	0.09329	-0.62496	-1.87133	-0.23557
1831.849	0.16012	-1.02092	-1.75758	0.08847
1835.846	0.54898	-1.27511	-1.69002	-0.32193
1839.851	0.81012	-1.36509	-1.64766	-0.24625
1843.902	0.34764	-2.03252	-1.60449	-0.07442
1847.853	0.52875	-1.10069	-1.66777	-0.06831
1851.846	0.46468	-1.00665	-1.67777	0.09677
1855.850	0.48775	-0.76754	-1.75337	0.50327
1859.848	0.23765	-0.48800	-1.71898	0.30916
1863.849	0.79029	-0.21400	-1.81081	0.65228
1867.851	0.52830	-1.83823	-1.77214	1.16036
1871.847	0.03839	-1.43412	-1.82138	1.25119
1875.849	0.67821	-1.48974	-1.76500	1.80198
1879.851	0.21365	-1.55032	-1.91821	2.04620
1883.852	0.31526	-0.91851	-1.92949	2.08522
1887.895	0.32722	-0.57796	-1.84872	-0.28599
1891.849	0.01792	-0.29389	-1.87036	-0.35269
1895.848	1.23518	-0.59500	-1.95854	0.98820
1899.846	-0.03936	-1.50035	-1.79512	-0.00323
1903.847	-0.12548	-0.81549	-1.93274	-0.35295
1907.843	0.25542	-1.61728	-1.87051	0.05938
1911.843	-0.19795	-1.96660	-1.88769	0.25903
1915.851	-0.03169	-1.58855	-1.75981	0.11445
1919.846	0.21068	-1.95649	-1.86967	0.08313
1923.847	0.09465	-2.09499	-2.00725	-0.29656
1927.868	-0.06527	-1.11713	-1.69592	-0.27468
1931.848	0.06341	-1.67490	-1.49267	-0.34747
1935.845	3.86852	-1.54878	-1.80216	0.28808
1939.848	0.25942	-1.13788	-1.91833	0.38710
1943.846	-0.09128	-0.34771	-1.74313	2.48970
1947.848	0.52684	-1.32141	-1.77623	2.40774
1951.843	0.39765	-0.61535	-1.94117	1.03481
1955.847	0.38246	-0.34447	-1.67053	1.49097
1959.846	0.38229	0.22620	-2.00755	1.19521
1963.846	0.55029	-0.93594	-1.41658	1.68474
1967.848	-0.39492	-0.18385	-1.80960	1.57979
1971.849	0.83424	-0.08175	-1.55502	1.57451
1975.845	0.09733	-0.60759	-1.63472	0.66322
1979.876	0.66471	-0.78550	-1.59839	0.39161
1983.843	2.57016	-0.10476	-1.49897	0.11953
1987.843	0.04919	-0.58617	-1.76723	2.26069
1991.847	-2.36458	-0.78466	-3.00730	2.29837
1995.843	-3.00685	-0.03161	-5.62050	1.91423
1999.848	-5.79189	-0.22702	-7.46775	1.00051
2003.844	-7.93135	-2.95498	-9.43506	-0.51162
2007.846	-8.29450	-0.71133	-9.94643	1.10076
2011.847	-4.87845	2.71209	-11.74982	0.35196
2015.851	-8.23333	-1.66969	-11.98835	-1.11357
2019.847	-10.92768	-1.48705	-12.33951	-1.58037
2023.843	-10.74190	-2.72654	-12.70874	-2.98379
2027.842	-11.79862	-2.26833	-13.65894	-3.47352
2031.842	-12.85444	-2.39404	-14.71357	-2.18280
2035.847	-13.20576	-2.70790	-14.29177	-0.87934
2039.846	-13.49465	-2.73333	-14.17721	-0.70033
2043.842	-13.15628	-3.21317	-13.58632	-1.72288
2047.846	-13.72107	-3.91498	-14.05974	-1.63853
2051.853	-13.28033	-3.24592	-13.12863	-2.25942
2055.846	-12.70461	-3.47774	-13.92526	-2.30151
2059.844	-13.18200	-3.80200	-13.44301	-2.78581
2063.844	-12.83758	-3.45528	-13.97610	-2.69152
2067.848	-13.14802	-3.69271	-14.06492	-3.10056
2071.844	-13.15983	-3.14190	-14.06235	-2.95687
2075.842	-12.98829	-3.67855	-14.01807	-1.30075
2079.888	-12.62185	-3.01326	-13.78932	-1.03859
2083.848	-12.77969	-3.59377	-13.78993	-1.81802
2087.843	-12.69072	-0.91009	-13.98414	-1.69077
2091.844	-12.63487	-3.43392	-13.91526	-1.87391
2095.844	-12.79919	-2.93207	-13.81710	-1.86072
2099.844	-11.83752	-2.59774	-13.73043	-2.24000
2103.844	-12.23962	-3.11627	-13.81223	-2.98293
2107.837	-11.51178	-1.43013	-13.75151	-2.47435
2111.845	-12.39352	-2.42689	-13.84462	-2.80934
2115.848	-12.29877	-2.39241	-13.75004	-3.22434
2119.844	-11.85747	-1.68622	-13.66693	-2.29031
2123.841	-11.70104	-2.33939	-13.63958	-1.01475
2127.844	-12.40124	-1.99113	-13.66897	-0.99587
2131.843	-11.92023	-1.56551	-13.85040	-2.00240
2135.845	-11.89827	-2.14849	-13.75994	-2.18484
2139.849	-11.50294	-1.83848	-13.82997	-2.43522
2143.840	-12.05222	-2.36663	-13.84703	-2.31226
2147.840	-12.16996	-2.02347	-13.70652	-2.90509
2151.845	-12.30083	-1.77789	-13.82272	-3.19072
2155.841	-12.00056	-2.72281	-13.78998	-3.06916
2159.839	-9.85433	-1.47022	-13.74067	-2.55849
2163.841	-10.07348	-2.31551	-13.77207	-1.55633
2167.846	-12.48026	6.09846	-13.80435	-1.16925
2171.843	-13.68183	6.71150	-13.88455	-1.06959
2175.846	-12.82632	6.17842	-13.76523	-1.40035
2179.843	-13.02646	6.09762	-13.72360	-1.54423
2183.842	-12.79902	5.93616	-13.64837	-2.05868
2187.845	-18.27848	5.81029	-13.57192	-1.13896
2191.843	-17.95788	5.80405	-13.66360	-1.49485
2195.840	-18.01280	5.64204	-13.74491	-1.37830
2199.837	-17.86160	5.84210	-13.68731	-1.62896
2203.845	-13.06711	7.88954	-13.82831	-1.74280
2207.840	-13.05011	7.90792	-13.98491	-1.76116
2211.843	-12.96991	8.08628	-13.83622	-1.70335
2215.837	-13.75479	11.55131	-13.78897	-1.58935
2219.848	-17.32303	9.82125	-13.80191	-1.79110
2223.842	-12.85928	8.26034	-13.71769	-1.88244
2227.839	-13.03894	8.16935	-13.77275	-1.96066
2231.836	-14.05409	11.54844	-13.74460	-2.07278
2235.843	-13.49777	6.97842	-13.71709	-2.18266
2239.839	-13.83304	11.89961	-13.66149	-2.37929
2243.840	-16.75288	7.92381	-13.47467	-2.30184
2247.839	-16.41596	7.93011	-13.48732	-2.59058
2251.837	-16.33285	7.42230	-13.44202	-2.61869
2255.842	-16.54132	8.00965	-13.54075	-2.50511
2259.849	-16.31022	7.95955	-13.53491	-2.70467
2263.839	-16.30554	7.88857	-13.64579	-2.81192
2267.838	-10.63943	-3.54695	-13.66587	-2.64974
2271.839	-13.37366	8.09323	-13.92031	-0.36162
2275.844	-11.48968	-3.40789	-13.85484	-2.33198
2279.840	-11.73228	-3.29782	-14.11264	-2.93738
2283.838	-9.51911	4.18320	-13.98153	-3.52261
2287.837	-10.62907	-3.54992	-13.93111	-5.27241
2291.839	-11.68241	-4.43393	-14.07473	-6.55962
2295.872	-11.64835	-3.86138	-13.94951	-3.27127
2299.847	-11.59177	-3.58656	-13.94972	-3.26350
2303.843	-11.20899	-3.74791	-13.94490	-3.55947
2307.837	-11.07812	-3.72081	-14.01842	-3.94044
2311.837	-10.39914	-3.99935	-13.97321	-4.08062
2315.836	-9.14479	-5.59287	-14.05037	-3.99674
2319.838	-11.02318	-3.56618	-13.93176	-3.82783
2323.844	-11.11282	-4.22860	-13.95402	-6.11903
2327.839	-11.22869	-4.31888	-13.97886	-5.49442
2331.837	-11.31958	-5.52908	-14.02788	-6.51817
2335.834	-11.09838	-6.31800	-13.99798	-6.15482
2339.842	-11.45260	-5.65304	-13.88411	-6.26950
2343.845	-11.56050	-5.60636	-13.95278	-5.65626
2347.841	-11.29717	-5.68878	-13.95385	-5.18228
2351.836	-13.48364	-4.89729	-13.99122	-4.55719
2355.840	-11.39093	-3.08062	-13.94598	-4.70860
2359.840	-11.23244	-3.90501	-13.92669	-4.07537
2363.837	-11.33958	-3.19571	-13.89377	-3.88890
2367.841	-11.44702	-2.67816	-13.89108	-3.62015
2371.838	-11.29796	-3.37850	-13.61522	-3.51220
2375.835	-11.25423	-3.05563	-13.79702	-3.09938
2379.711	-11.12128	-4.76273	-13.76214	-2.95546
2383.713	-11.06251	-4.14491	-13.61522	-2.97043
2387.762	-10.81439	-3.02943	-13.71404	-3.14881
2391.721	-10.72795	-4.18149	-13.70397	-5.34522
2395.712	-10.85097	-4.39611	-13.55583	-5.27603
2399.711	-10.92567	-4.47325	-13.68003	-5.01236
2403.710	-10.43527	-4.70290	-13.69776	-4.73055
2407.712	-10.64971	-4.50463	-13.74392	-5.03829
2411.711	-10.90741	-4.28415	-13.53336	-4.87822
2415.714	-10.68168	-4.42901	-13.65805	-4.86689
2419.709	-10.55284	-3.40362	-13.58146	-4.45882
2423.714	-10.33099	-3.39311	-13.60057	-4.67407
2427.715	-10.88022	-4.01543	-13.63203	-4.62523
2431.715	-10.49927	-4.23770	-13.58653	-4.45330
2435.720	-10.46450	-3.96546	-13.56284	-4.43204
2439.718	-9.71842	-4.14529	-13.58294	-4.31090
2443.714	-9.52760	-4.30990	-13.55721	-4.25575
2447.710	-9.74803	-3.71792	-13.49312	-4.30279
2451.710	-9.82544	-3.76365	-13.42047	-4.20359
2455.716	-10.86919	-3.50456	-13.40868	-4.23889
2459.711	-10.39330	-3.37371	-13.43651	-4.20261
2463.710	-10.50690	-3.58143	-13.43639	-4.12215
2467.709	-10.58586	-3.79356	-13.36157	-4.13574
2471.721	-10.15586	-3.82949	-13.34004	-4.19859
2475.712	-10.43409	-3.78985	-13.48120	-4.28145
2479.714	-9.88514	-4.19311	-13.41080	-4.64704
2483.709	-9.95955	-4.65118	-13.40730	-4.83813
2487.717	-9.82677	-3.23867	-13.41861	-5.27408
2491.714	-9.29096	-3.57510	-13.51199	-5.48844
2495.711	-9.24460	-3.14087	-13.61558	-3.97656
2499.710	-9.63650	-2.72006	-13.86086	-2.18580
2503.734	-9.17691	-2.95211	-13.73484	-2.58706
2507.709	-8.92348	-3.91318	-13.51841	-3.20565
2511.712	-9.84339	-2.42651	-13.47402	-3.64142
2515.711	-11.37906	-3.06550	-13.70165	-3.73745
2519.712	-10.09489	-2.54674	-13.96582	-4.68965
2523.741	-10.65997	-2.25052	-14.12170	-4.91962
2527.715	-11.07059	-2.17596	-13.96409	-5.28658
2531.708	-9.67475	-3.10549	-14.17623	-5.32203
2535.712	-13.46890	-0.09007	-13.97566	-3.99749
2539.705	-9.99821	1.17920	-13.95640	-2.24722
2543.707	-9.10284	0.92682	-13.96741	-2.84230
2547.709	-9.16475	0.52784	-13.67974	-3.15312
2551.709	-13.61537	-1.15773	-13.98954	-2.93667
2555.718	-13.16148	-1.10167	-13.84825	-3.52894
2559.710	-12.98466	-1.42740	-13.93957	-3.35407
2563.711	-13.47681	-1.75247	-13.86160	-3.23725
2567.706	-13.17525	-0.61337	-13.82979	-3.30713
2571.707	-12.72105	-1.58198	-13.72594	-3.53621
2575.708	-13.40044	-1.45626	-13.74142	-3.63569
2579.707	-13.44831	-1.79513	-13.80692	-3.58754
2583.713	-13.36058	-2.12490	-13.81270	-3.57269
2587.708	-14.02676	-1.75817	-13.80922	-3.48981
2591.712	-13.64462	-1.96308	-14.01756	-3.59984
2595.713	-8.69069	-1.08876	-13.87512	-3.63142
2599.717	-8.83672	-1.24892	-13.84909	-3.59718
2603.709	-8.91941	-1.31033	-13.90307	-3.42587
2607.709	-8.89022	-1.15917	-13.92648	-3.11252
2611.710	-8.30626	-1.02899	-14.04178	-2.72455
2615.710	-8.24660	-0.78518	-13.98524	-2.37099
2619.708	-8.45701	-0.59275	-13.88862	-2.95078
2623.708	-8.29338	-0.80539	-13.83814	-2.88661
2627.711	-8.28855	-1.48208	-13.89519	-3.56307
2631.708	-9.76589	-0.87005	-13.77038	-4.08946
2635.707	-9.92955	-1.08753	-13.78731	-4.11174
2639.716	-10.03262	-0.83740	-13.66067	-4.62276
2643.708	-9.81171	-1.25959	-13.57100	-4.81876
2647.706	-9.62948	-1.41852	-13.45911	-4.61788
2651.711	-10.11293	-1.24852	-13.42927	-4.51900
2655.712	-8.62707	-1.11507	-13.46733	-4.67236
2659.706	-9.80457	-1.08449	-13.31608	-2.40052
2663.713	-9.77001	-1.23018	-13.14929	-1.80614
2667.708	-9.82645	-1.33277	-13.26815	-1.63150
2671.708	-9.56786	-1.13336	-13.25072	-2.36415
2675.708	-9.69250	-1.27279	-13.20865	-3.29951
2679.712	-9.52864	-1.73381	-13.19988	-3.45325
2683.707	-9.37114	-1.50459	-13.39224	-4.21562
2687.708	-9.20470	-1.71386	-13.50671	-1.76971
2691.711	-9.21621	-1.12865	-13.30910	-2.69826
2695.711	-10.76959	-1.28627	-13.24661	-3.97909
2699.706	-9.74733	-1.46073	-13.15635	-2.48784
2703.711	-10.68557	-1.19901	-13.80332	-3.79357
2707.708	-10.15422	-1.66904	-13.45890	-3.28320
2711.710	-9.09381	-1.34265	-13.47411	-2.62113
2715.703	-9.19021	-0.66381	-12.96303	-1.59089
2719.707	-9.34969	-0.59113	-10.44285	-1.23141
2723.715	-8.49263	-0.21878	-8.07913	0.58232
2727.710	-5.54058	0.06013	-4.45399	-1.17844
2731.707	-4.47245	-1.22226	-3.81022	-0.55451
2735.709	-2.86819	-1.44629	-2.36331	-2.04627
2739.712	0.51676	-2.02173	2.05509	-1.86049
2743.707	4.59919	-1.41544	2.10183	-2.15796
2747.705	3.15176	-2.62043	6.67527	-2.79576
2751.701	4.36972	-0.82065	4.47185	-1.92945
2755.703	5.92562	-1.44204	6.71836	-3.02381
2759.708	6.70404	-0.67384	9.08198	-1.93090
2763.713	7.11117	-0.77525	11.20648	-2.03407
2767.711	4.50698	4.77896	11.66020	-1.60838
2771.707	19.62339	-7.83118	13.21693	-1.17979
2775.707	4.57872	9.76740	13.03376	-0.88791
2779.706	5.57092	4.74330	14.08643	-0.59527
2783.704	NaN	NaN	14.46838	-0.76110
2787.706	NaN	NaN	14.99338	-0.19431
2791.699	5.45754	-0.74505	14.95540	-0.38939
2795.727	4.64695	4.84527	14.66919	-0.51366
2799.709	4.48125	-0.45616	14.78927	-1.48558
2803.706	4.94275	6.87382	14.81537	-1.33741
2807.716	3.86084	-6.53028	14.86952	-0.87602
2811.705	5.55762	4.29219	14.92843	-3.04674
2815.704	4.27392	3.73488	14.95190	-1.49367
2819.701	4.91920	-2.61652	14.90730	-1.72701
2823.706	10.76556	-1.79580	9.62943	-2.08525
2827.706	8.52828	-3.74799	10.47974	-1.34415
2831.703	10.56025	-2.87843	10.19154	-3.11103
2835.708	10.67718	-4.13047	10.03671	-1.97097
2839.706	4.54612	-14.85145	10.51350	-4.02462
2843.707	-19.99372	-12.10283	10.30725	-2.91134
2847.709	-19.99372	-12.09015	9.92581	-3.95702
2851.713	-19.99372	-12.08584	8.97511	-2.78968
2855.705	-19.99372	-12.08368	9.43892	-1.58447
2859.706	-19.99372	-12.08236	8.98305	-4.15374
2863.744	-19.99372	-12.08146	9.38955	-2.80315
2867.717	-19.99372	-12.08082	9.20013	-2.86303
2871.710	-19.99372	-12.08033	8.90136	-2.43489
2875.705	-19.99372	-12.07995	8.99322	-2.63766
2879.705	-19.99372	-12.07961	9.84713	-2.62180
2883.708	NaN	NaN	9.40344	-3.56047
2887.708	NaN	NaN	9.37020	-2.27844
2891.710	NaN	NaN	9.10981	-3.77348
2895.702	NaN	NaN	9.19246	-2.74639
2899.707	NaN	NaN	9.53986	-2.62576
2903.701	NaN	NaN	9.34331	-3.09940
2907.702	NaN	NaN	9.61474	-2.59259
2911.702	12.12978	-4.87321	9.42593	-4.38997
2915.705	11.71727	-4.14330	9.55596	-3.33070
2919.707	12.16935	-4.82010	9.72260	-2.81962
2923.757	11.99348	-5.01006	9.72911	-2.88433
2927.706	11.88917	-5.22821	9.81031	-3.64200
2931.755	11.68272	-4.44837	9.43460	-3.24003
2935.712	15.53354	-8.56667	9.59624	-2.79599
2939.703	8.37983	-7.08853	9.65664	-4.71255
2943.706	11.88363	-5.43072	9.70227	-3.33692
2947.700	10.91715	-7.19650	9.56755	-2.79762
2951.700	11.86241	-10.23352	9.71946	-3.12146
2955.705	12.04438	-10.27460	9.66728	-3.91224
2959.701	13.78780	-8.15827	9.70700	-4.36598
2963.701	10.87276	-7.24060	9.57563	-4.07540
2967.701	9.02866	-9.87647	9.00109	-4.45264
2971.705	8.82628	-7.05990	9.43438	-3.15653
2975.700	9.21592	-7.66860	9.37571	-2.96129
2979.708	14.89896	-10.47016	12.12943	-2.77417
2983.705	18.03421	-10.99587	9.31412	-3.85812
2987.706	6.76550	-5.46030	9.29563	-3.85065
2991.705	11.21477	-4.69206	9.38395	-3.96857
2995.701	12.62629	-4.81806	9.30752	-4.35697
2999.702	10.68161	-4.58879	9.48695	-3.86583
3003.704	12.25085	-5.19208	9.62089	-3.89914
3007.706	14.88152	-4.27166	9.88805	-3.74446
3011.705	11.86814	-5.30469	9.30846	-3.55804
3015.706	11.94990	-4.85442	9.72185	-3.74324
3019.705	14.74121	-5.46630	9.67331	-3.64942
3023.702	7.40948	-5.78019	9.79366	-3.27663
3027.701	11.30498	-4.52147	9.78293	-3.39383
3031.698	6.14509	-6.38099	9.68758	-3.05919
3035.700	10.78841	-2.16340	9.47044	-2.68793
3039.703	10.66340	-5.59454	9.95637	-2.57137
3043.704	10.92701	-3.12887	9.80161	-2.60874
3047.700	10.81782	-5.36915	9.81510	-3.74475
3051.704	6.09857	-7.01095	9.84023	-5.04311
3055.708	10.96638	-2.51092	9.98136	-4.56569
3059.701	11.26751	-5.15453	9.87933	-3.33544
3063.703	12.02800	-6.18942	9.91984	-2.72871
3067.700	11.36789	-2.92218	10.02540	-3.09295
3071.704	13.83330	-7.46925	9.91565	-2.61182
3075.700	12.39582	-7.54558	10.02430	-2.62868
3079.703	10.25338	-7.23424	10.05240	-4.90236
3083.698	18.66252	-11.23576	10.14884	-4.33681
3087.697	10.26189	-5.97059	10.09968	-3.85556
3091.700	11.19774	-5.24213	10.11113	-2.97133
3095.706	11.19972	-5.44812	10.07377	-2.72156
3099.704	15.70496	-9.11047	10.15057	-2.32286
3103.701	11.81092	-6.74387	10.09833	-4.18989
3107.699	15.44531	-9.91315	10.14408	-4.23671
3111.702	12.58614	-6.09165	10.04182	-4.33387
3115.703	11.83175	-5.08328	10.03951	-2.93616
3119.701	11.08596	-5.64652	10.04547	-3.25939
3123.698	12.77919	-5.76156	9.90997	-1.83112
3127.703	10.98334	-6.82770	9.94135	-1.78050
3131.700	11.75077	-5.56271	10.13301	-4.19849
3135.700	12.05331	-6.04714	9.99378	-3.99266
3139.765	15.02582	-10.79523	10.07899	-4.34429
3143.706	11.75817	-4.89013	9.99568	-3.77964
3147.703	11.24380	-0.92255	9.94286	-2.18100
3151.699	12.33870	-4.07721	9.92603	-2.38566
3155.699	5.17713	-11.44240	9.71664	-1.42645
3159.698	9.34121	-1.67162	9.93258	0.40768
3163.698	10.10913	-3.01643	7.66358	0.46471
3167.700	6.22875	-1.13629	6.35111	3.44316
3171.697	9.10502	-0.94678	4.17527	5.14613
3175.702	3.19172	-0.33243	4.44980	3.93580
3179.703	5.16322	1.91018	5.30412	4.16950
3183.699	5.05851	0.88730	4.61339	5.04871
3187.699	6.05459	0.59343	5.67381	3.77451
3191.699	5.30363	-1.07638	4.91910	4.06661
3195.695	5.80710	1.26675	4.79516	3.84060
3199.703	4.68045	0.26121	5.60814	3.78001
3203.696	7.24554	-1.35105	4.82476	4.14214
3207.700	6.84984	0.66742	4.36809	4.11708
3211.700	5.13941	1.36105	5.13838	3.92774
3215.696	3.73611	0.63875	5.05149	4.06535
3219.697	5.78698	0.78432	4.48300	4.40924
3223.702	5.34452	1.82797	5.26059	4.04912
3227.700	5.73517	0.51997	4.50175	4.07730
3231.572	5.79241	1.78924	4.02290	4.18631
3235.572	5.96682	-0.08111	4.91974	4.09049
3239.576	9.80351	-1.18281	4.67909	4.18272
3243.574	6.73605	2.25410	4.02174	4.73076
3247.572	8.00046	-8.02256	5.00563	4.07615
3251.575	11.04424	-10.44349	5.23497	4.28101
3255.573	5.94239	-8.07932	4.72697	4.25212
3259.569	6.94286	-8.18990	4.37404	4.51571
3263.571	7.44213	-10.75740	5.26969	4.24341
3267.579	9.25173	-10.61869	4.51946	4.47191
3271.606	6.02656	-8.69152	4.16216	4.61258
3275.575	6.44858	-12.32069	4.89789	4.16873
3279.574	10.16524	-11.93285	4.94689	4.55436
3283.573	5.21154	-11.08709	4.82466	4.16837
3287.574	6.72903	-9.19177	4.45229	4.46936
3291.572	8.08815	-11.88195	4.77025	3.97497
3295.572	14.41604	-1.34282	5.38166	4.39346
3299.575	7.45867	-0.06187	3.96071	7.24813
3303.573	11.91476	-4.13844	3.97131	11.73252
3307.576	-19.99372	-11.74068	NaN	NaN
3311.578	-19.99372	-11.82860	NaN	NaN
3315.573	-19.99372	-11.88110	NaN	NaN
3319.565	-19.99372	-11.92532	NaN	NaN
3324.334	-19.99372	-11.99639	NaN	NaN
3331.577	-19.99372	-12.02460	NaN	NaN
3335.572	-19.99372	-12.03303	NaN	NaN
3339.824	NaN	NaN	NaN	NaN
3343.579	NaN	NaN	NaN	NaN
3347.577	NaN	NaN	NaN	NaN
3351.580	NaN	NaN	NaN	NaN
3355.633	NaN	NaN	NaN	NaN
3359.579	NaN	NaN	NaN	NaN
3363.576	NaN	NaN	NaN	NaN
3367.573	NaN	NaN	NaN	NaN
3371.572	NaN	NaN	NaN	NaN
3375.572	NaN	NaN	NaN	NaN
3379.572	NaN	NaN	NaN	NaN
3383.569	NaN	NaN	NaN	NaN
3387.570	NaN	NaN	NaN	NaN
3391.582	NaN	NaN	NaN	NaN
3395.584	NaN	NaN	NaN	NaN
3399.572	NaN	NaN	NaN	NaN
3403.574	NaN	NaN	NaN	NaN
3408.336	NaN	NaN	NaN	NaN
3413.445	NaN	NaN	NaN	NaN
3416.488	NaN	NaN	NaN	NaN
3423.582	18.60819	-10.18793	NaN	NaN
3427.580	-19.99372	-12.07573	21.98352	4.78222
3431.579	15.74736	2.31221	19.34866	4.69536
3435.571	-19.99372	-12.07555	15.89623	3.61692
3439.579	14.90099	0.11380	17.15048	3.52418
3443.570	14.76804	0.41390	16.34869	4.04353
3447.569	15.05584	0.61373	16.60137	4.15882
3451.568	14.87030	0.40451	15.56259	4.26323
3455.574	14.86258	0.35546	15.64940	3.86465
3459.571	17.82917	-1.37778	14.53693	3.90056
3463.571	14.70572	1.64346	13.50668	3.64066
3467.568	6.77245	0.17964	13.81895	3.71557
3471.569	13.00572	0.96850	13.33701	3.55169
3475.586	14.84531	0.18550	12.69204	4.23983
3479.568	14.92996	0.23381	12.37008	3.37010
3483.571	15.00461	1.40904	13.07182	3.11370
3487.570	15.04068	-0.07684	12.96830	2.83427
3491.571	13.73692	-1.22312	12.81575	2.47021
3495.572	13.64588	-1.66724	12.94139	1.78700
3499.570	13.72587	-1.47303	12.43525	1.17410
3503.569	13.82356	-1.36740	12.37285	1.24389
3507.569	13.25449	-1.47236	12.15410	1.97196
3511.571	14.47755	-1.85845	12.45040	1.83903
3515.568	13.46522	-1.75439	12.46985	1.86548
3519.572	13.21197	-1.54548	11.81829	1.88428
3523.576	13.42538	-1.37729	12.04265	1.99191
3527.569	14.09231	-1.82349	11.93634	1.81270
3531.570	13.29624	-1.97819	12.03225	1.75779
3535.568	13.19557	-2.02494	12.08608	1.99113
3539.568	13.11580	-1.66368	11.89611	2.12347
3543.569	13.04572	-1.36313	11.96950	2.28900
3547.570	13.18931	-1.49248	12.12559	2.53666
3551.571	13.54725	-1.26269	12.32468	2.53948
3555.573	13.13809	-1.09266	11.87605	2.89338
3559.601	13.16983	-0.92922	11.94824	3.34205
3563.569	13.46930	-1.28079	12.32734	2.97652
3567.591	13.22479	-1.61407	11.78200	2.94084
3571.575	13.39654	-1.75639	11.80502	3.20127
3575.566	13.58526	-1.09377	11.88565	3.27486
3579.567	13.57253	-1.64828	11.77194	3.37158
3583.571	13.44674	-1.95407	12.22895	3.14359
3587.570	13.57670	-1.74614	12.28552	2.74165
3591.573	14.33073	-2.22929	12.34567	2.74161
3595.568	14.86912	-2.70155	11.98500	3.66024
3599.571	14.11771	-0.31460	11.88418	3.71776
3603.568	13.98183	-1.86836	12.03650	3.54928
3607.565	10.77416	-2.07021	12.18801	3.43492
3611.568	14.01882	0.54073	12.44732	3.32729
3615.567	13.48650	0.91262	12.05846	3.18649
3619.570	13.67932	0.38560	12.33717	3.29908
3623.568	14.62656	-0.98262	12.23711	3.21394
3627.566	14.00335	-0.14189	12.24479	3.33884
3631.564	13.37860	0.72136	12.14345	3.78255
3635.571	13.55210	-0.84356	12.55701	4.24756
3639.567	14.42807	1.06030	15.04547	3.42322
3643.574	14.09675	1.67841	15.23327	4.57572
3647.563	14.07268	1.89928	15.68776	5.64143
3651.565	14.88345	2.52086	15.69088	4.08912
3655.568	16.70766	3.18901	15.79965	5.09248
3659.566	16.94829	3.25608	15.82784	5.00135
3663.563	17.09982	2.93442	15.75288	5.32844
3667.564	17.09977	1.99511	15.88608	5.25851
3671.566	16.24725	2.33047	15.74297	5.25931
3675.645	NaN	NaN	NaN	NaN
3683.583	15.43886	4.29936	15.68628	5.58858
3687.567	14.29072	6.00536	15.82899	6.21400
3691.564	14.43661	5.15990	15.92058	5.21650
3695.569	15.28665	5.32550	15.82683	5.12885
3699.565	16.26735	2.76517	15.89976	5.12679
3703.568	15.70694	4.62710	18.91413	4.53725
3707.579	16.68655	4.66808	21.22846	6.27819
3711.576	16.92785	2.40790	18.83910	6.54823
3715.565	14.88744	5.12910	15.40685	6.29812
3719.569	15.01883	5.82817	15.68166	5.70764
3723.561	15.44661	4.77920	15.75145	5.31959
3727.569	14.15566	5.71062	15.85517	5.24255
3731.569	14.69952	5.40641	15.63129	5.12319
3735.568	15.28857	5.12811	15.93499	4.95210
3739.570	16.55179	4.51280	16.16397	5.38428
3743.567	16.67628	4.63851	16.09134	5.51334
3747.569	16.11659	4.90449	23.46857	5.00922
3751.566	16.09764	4.43457	15.62183	5.31493
3755.571	15.36287	4.70313	15.62020	5.32427
3759.566	14.39527	5.18110	15.79894	5.23290
3763.563	14.66512	4.82987	15.83643	5.21923
3767.568	14.93087	4.67289	15.69675	5.20088
3771.588	15.48086	2.65769	16.05725	5.18117
3775.569	15.93495	2.26057	15.73729	5.40431
3779.564	16.18936	2.08399	15.69502	5.69055
3783.566	16.52485	2.49427	15.93267	5.97202
3787.560	18.07984	2.17171	15.76778	6.00596
3791.566	16.00897	4.86606	15.68762	5.91606
3795.565	15.57286	4.97795	15.71494	5.91842
3799.570	15.73702	4.63371	15.65012	6.07448
3803.564	15.77426	3.88219	15.62017	6.02161
3807.571	15.66321	4.79078	15.87981	5.82400
3811.564	15.80905	4.78046	15.61730	5.78342
3815.560	15.68960	4.61019	15.49999	5.84497
3819.567	15.15265	4.59059	15.50589	5.69695
3823.566	15.28171	4.50235	15.50361	5.58812
3827.561	15.46973	3.52511	15.64160	5.38497
3831.567	15.47701	4.29185	15.77258	5.20069
3835.565	15.32343	4.51651	15.58856	5.20189
3839.562	14.98148	4.55565	15.60546	5.22569
3843.563	14.74493	4.16787	15.62008	5.26545
3847.567	15.26342	4.48394	15.57249	5.16782
3851.567	14.80871	4.39215	15.59867	5.21879
3855.563	14.61025	4.62888	15.62540	5.30184
3859.562	14.71939	4.89253	15.60698	5.59045
3863.563	15.01066	4.83585	15.61442	5.77004
3867.565	15.25198	3.90860	15.45747	6.03110
3871.560	14.14980	5.41632	14.59930	5.81984
3875.561	14.32332	7.12183	12.52570	6.43099
3879.562	13.47949	6.46799	10.93624	7.77989
3883.597	8.37089	5.18928	9.27687	8.52455
3887.567	8.84021	5.60083	7.55201	9.89546
3891.569	7.98632	6.01324	8.30743	9.78473
3895.562	7.95156	6.18065	8.86587	9.72254
3899.561	7.40601	6.75186	9.67714	9.49596
3903.564	7.78716	6.48373	10.59330	6.90225
3907.565	8.16749	6.57065	10.43539	8.41780
3911.560	8.08993	6.88688	9.82537	8.48924
3915.565	8.41565	6.70003	9.08972	8.78873
3919.562	8.15380	6.81639	9.27375	8.71292
3923.579	8.21913	6.80076	8.72185	8.81838
3927.570	8.28573	6.84734	10.67097	8.26679
3931.564	8.36095	6.88990	10.84307	8.38646
3935.570	8.51773	6.89684	8.92561	8.82080
3939.569	8.50287	6.86116	8.90606	8.86244
3943.561	8.43921	6.90199	8.82196	8.81313
3947.565	8.25246	6.99974	8.80599	8.95944
3951.565	8.14628	6.99369	8.38512	9.36430
3955.562	8.04993	6.96165	8.41840	9.12047
3959.565	7.90043	6.99070	8.11668	9.12779
3963.563	7.86556	7.01963	8.00116	8.84270
3967.564	7.53476	7.13158	11.07312	8.77032
3971.587	7.12205	7.04445	9.08842	8.02902
3975.568	8.99102	6.95061	8.53253	8.74331
3979.561	8.53311	6.85304	9.30754	8.15561
3983.562	8.15820	6.71071	8.61671	8.49280
3987.562	8.77492	6.03095	8.66091	8.74409
3991.570	8.80733	6.05889	8.68274	8.82845
3995.558	8.24320	6.13464	8.16822	8.72294
3999.559	8.08029	6.40192	8.68858	8.75656
4003.561	8.60735	6.21483	8.52858	8.91156
4007.562	8.17931	6.47834	8.22650	9.27088
4011.558	7.95713	6.27875	8.34149	9.32990
4015.569	8.05905	6.50533	8.55013	8.88302
4019.562	7.73587	6.42303	8.42653	9.45932
4023.562	7.71228	6.69874	8.52930	9.38201
4027.558	7.65166	6.73124	8.69746	9.44796
4031.559	8.07482	5.91720	8.83992	9.32915
4035.558	8.06387	6.77038	8.62765	9.35157
4039.556	8.12420	6.85337	8.41024	9.27212
4043.557	8.66144	6.95637	8.51209	9.42387
4047.560	8.57675	7.05556	8.68863	9.37841
4051.558	7.99469	6.88215	8.82272	9.27025
4055.565	8.23119	6.78562	9.30551	9.10423
4059.571	8.00533	6.74759	9.07121	9.26059
4063.559	8.55234	6.61037	9.09493	9.09719
4067.559	8.36460	6.31102	8.63767	9.09291
4071.558	8.60509	5.73462	8.34193	9.06122
4075.560	8.02820	5.34309	8.41432	8.88974
4079.558	7.75563	7.26145	8.47282	8.68039
4083.558	7.96415	7.25597	9.75350	8.55958
4087.862	8.22487	6.33625	10.97662	8.22969
4091.439	7.88736	6.18165	8.57197	9.03163
4095.439	8.07752	6.06845	8.41012	9.00459
4099.435	8.38075	5.55151	8.63813	9.13268
4103.437	8.64657	5.40834	8.74888	9.05775
4107.435	9.06286	6.94312	8.66932	8.77675
4111.437	8.16294	7.11397	8.78796	8.28294
4115.434	8.25608	7.11055	9.02123	8.40324
4119.434	9.10702	6.38773	8.90301	8.74523
4123.433	8.93999	6.06827	8.93663	9.15684
4127.432	9.36530	5.63214	8.88487	8.92044
4131.438	9.20842	5.63375	8.83927	8.67989
4135.433	9.26534	5.46105	8.92127	8.79990
4139.433	9.23945	6.36608	8.91912	8.63895
4143.434	9.31982	5.74670	8.92430	8.45504
4147.441	8.92401	6.65860	8.73262	8.48445
4151.432	8.85921	4.36684	8.79208	8.42125
4155.431	8.49595	6.47520	8.73313	8.40773
4159.435	8.10924	5.64489	8.81382	8.72588
4163.432	7.91076	5.67505	8.70825	8.69952
4167.432	8.88581	5.36925	8.45830	8.98181
4171.431	8.30412	5.79473	8.60368	9.15084
4175.435	9.08902	5.64059	8.74292	9.12502
4179.433	8.02601	5.70854	8.52768	9.20439
4183.487	8.03638	5.85360	8.59745	9.04778
4187.446	8.01384	6.53085	8.28908	9.63159
4191.439	5.80393	9.33104	5.94943	9.73589
4195.434	4.13720	10.01108	3.23324	9.78865
4199.430	2.10704	9.77132	0.02839	10.03504
4203.431	-0.85711	7.47267	-0.87260	9.75021
4207.429	-2.48718	7.24926	-3.12524	9.36559
4211.432	-3.38204	6.70220	-3.19692	7.56840
4215.434	-5.14670	6.93714	-5.35082	8.74707
4219.430	-6.46321	6.74875	-5.93696	6.88431
4223.429	-7.54157	6.04593	-6.95920	6.44201
4227.433	-9.42337	5.46891	-8.99944	7.56939
4231.438	-9.31591	2.12609	-9.73622	5.89238
4235.430	-10.83692	2.95093	-11.54261	5.10235
4239.433	-11.32786	2.01696	-12.35374	4.70784
4243.433	-12.66708	1.31534	-13.67888	4.29617
4247.426	-13.83184	1.47521	-14.64956	4.54971
4251.434	-14.26056	2.37548	-14.74449	4.23722
4255.431	-14.49800	2.42306	-15.70581	2.22345
4259.434	-14.98799	1.62779	-16.40964	4.16934
4263.428	-15.35507	1.42301	-16.56456	2.60467
4267.434	-16.00895	1.45515	-16.39525	2.49553
4271.435	-15.53409	1.50349	-16.63587	4.29289
4275.430	-14.71380	1.20569	-16.08727	3.94558
4279.429	-15.07542	0.76059	-16.08679	2.50077
4283.430	-15.44280	0.87231	-16.29235	3.83219
4287.432	-15.09920	0.80644	-16.13335	3.77595
4291.471	-15.29173	0.92641	-15.88909	3.80776
4295.440	-15.25845	0.91642	-16.01342	4.09725
4299.429	-15.23438	0.68973	-16.22613	4.11485
4303.432	-15.24156	0.69349	-16.10046	3.35185
4307.431	-15.09539	0.92228	-16.30615	3.65509
4311.430	-15.12169	0.97915	-16.04861	3.04172
4315.439	-14.96300	1.12065	-16.20126	4.01491
4319.432	-15.92395	1.93085	-16.31210	3.89806
4323.433	-15.02251	2.32034	-16.27170	3.27708
4327.429	-15.02348	2.89079	-16.29722	3.06037
4331.434	-14.88449	2.82178	-16.45117	1.15104
4335.430	-14.77231	2.44232	-16.32675	2.33139
4339.432	-14.73455	2.44509	-15.59598	3.06683
4343.427	-14.74237	2.47165	-14.79078	3.35820
4347.433	-14.65400	2.63472	-15.86392	3.43005
4351.429	-14.52049	2.81383	-16.31562	2.97254
4355.435	-14.56641	2.87894	-16.36544	3.02220
4359.455	-14.49932	3.19262	-15.98356	3.11000
4363.438	-14.27991	3.19748	-15.66155	3.08687
4367.426	-14.27378	3.34120	-15.94089	2.98483
4371.435	-14.36327	2.46717	-15.86594	2.77547
4375.429	-14.06955	2.79487	-15.78805	3.10178
4379.431	-14.20147	2.79561	-16.04916	3.40835
4383.426	-14.40239	2.37619	-15.84732	3.64918
4387.427	-13.30945	3.04478	-15.80330	3.48385
4391.432	-12.73356	2.30924	-15.73049	2.98796
4395.431	-13.62308	2.64280	-15.83216	2.94159
4399.462	-14.07394	2.66250	-15.72973	2.81646
4403.431	-12.79543	3.08878	-15.69719	3.20792
4407.431	-12.83333	2.13093	-15.86293	3.88551
4411.426	-13.49805	1.91926	-16.06408	3.95811
4415.432	-12.69960	2.74334	-15.79416	3.95061
4419.428	-16.28862	5.89942	-15.85460	3.46565
4423.434	-12.75396	2.41299	NaN	NaN
4427.430	-12.09472	1.68057	-15.47319	3.94857
4431.431	-16.51392	9.29469	-14.03220	3.94509
4435.433	-16.68127	6.60768	-15.66691	4.06024
4439.434	-16.75980	8.75299	-15.53511	3.96805
4443.431	-16.82224	8.72499	-15.61103	4.22760
4447.427	-14.20700	9.20845	-15.72251	4.52334
4451.426	-16.83688	7.12756	-15.50276	4.43930
4455.429	-16.36384	3.17342	-15.60583	4.26076
4459.428	-13.54155	0.99834	-15.66307	3.93601
4463.426	-13.01268	3.59842	-15.80078	2.99578
4467.427	-12.98261	1.42930	-15.34455	1.95087
4471.421	-14.76180	-1.23014	-15.47351	0.71636
4475.425	-13.74062	-0.46194	-15.50105	0.34512
4479.433	-15.23570	0.88094	-15.38186	0.06057
4483.426	-14.95964	3.47238	-15.44458	-0.31233
4487.430	-9.86565	1.25133	-15.46846	-0.41314
4491.430	-12.00877	2.09123	-15.55220	-0.00795
4495.432	-11.99700	1.07811	-15.27935	0.67705
4499.429	-11.89585	5.55696	-15.60249	1.15413
4503.425	-11.77042	2.87518	-15.50087	1.04026
4507.426	-12.65864	3.96103	-15.54195	1.17627
4511.428	-14.64415	4.54948	-15.32131	1.47787
4515.425	-11.11924	5.92244	-15.49239	1.24499
4519.423	-11.59344	6.01987	-15.80939	1.63079
4523.429	-12.26702	5.13605	-15.38221	1.48108
4527.428	-12.22239	4.64408	-15.60233	1.49775
4531.428	-13.21902	4.90028	-15.25480	1.56130
4535.425	-16.28679	5.23049	-15.49029	1.54805
4539.429	-11.72736	5.34589	-15.61578	1.55371
4543.427	-12.39625	5.86155	-15.76083	1.49372
4547.428	-12.12193	5.41049	-15.81849	1.50087
4551.427	-12.02815	4.95290	-15.74481	1.37452
4555.428	-12.38152	5.37565	-15.66367	1.24443
4559.427	-12.24415	5.60925	-15.65693	1.07930
4563.433	-13.28599	5.58909	-15.40376	0.86436
4567.424	-14.27217	5.68643	-15.48603	0.92691
4571.426	-14.04220	5.90861	-15.52147	0.75990
4575.426	-14.09850	5.76477	-15.34003	0.49863
4579.424	-14.41050	8.38561	-15.32495	0.34541
4583.422	-16.49141	7.56690	-15.35187	0.23946
4587.424	-15.43909	8.15209	-15.30085	0.20423
4591.426	-15.52916	8.07129	-15.29247	0.30985
4595.426	-14.55874	8.17108	-15.26882	0.27822
4599.429	-14.82815	8.31951	-15.25360	0.26486
4603.431	-14.47634	8.59125	-15.19442	0.29261
4607.427	-14.81013	8.76589	-15.11600	0.71847
4611.424	-14.61566	8.69313	-15.40332	1.75927
4615.440	-14.26469	8.52908	-15.77830	2.50254
4619.430	-14.77598	8.62170	-15.86160	2.54593
4623.424	-14.46684	8.39190	-15.61990	2.47739
4627.425	-12.89831	6.95246	-15.51474	2.62125
4631.451	-13.18842	6.88810	-15.44638	2.66982
4635.433	-13.48075	8.43142	-15.79590	2.72025
4639.428	-14.98241	8.15312	-15.92863	2.63260
4643.423	-16.08103	4.46216	-15.78703	2.13262
4647.424	-16.42996	4.06623	-15.81546	2.30132
4651.432	-16.72808	6.66132	-15.76909	-0.12550
4655.424	-14.99681	7.48128	-15.73060	-0.06637
4659.422	-13.76989	5.58142	-15.61628	0.02163
4663.423	-16.64729	7.88855	-15.48162	0.12661
4667.422	-14.27618	-1.26869	-15.66585	0.26768
4671.423	-14.73251	-1.60904	-15.41301	1.11247
4675.425	-12.82901	-0.24321	-15.31819	1.57688
4679.427	-14.00826	-0.86749	-12.27522	2.30991
4683.423	-12.73779	0.67610	-8.28675	2.49033
4687.448	-11.09332	0.62752	-7.02330	3.30043
4691.450	-6.10480	-0.35456	-4.75553	2.62059
4695.431	-2.11504	0.60241	-3.35620	3.07088
4699.425	-0.03996	0.68980	-3.08659	2.52701
4703.425	-2.10766	0.87170	-0.69044	2.42725
4707.425	-0.74136	2.29487	-0.56384	2.11646
4711.422	-0.28011	0.68649	-0.73841	2.18045
4715.427	-0.21524	0.56599	-0.85950	2.45101
4719.424	-0.03390	0.87132	-0.85443	2.24152
4723.428	-0.02579	0.77813	-0.55540	2.32745
4727.422	-0.05246	0.63701	-0.63928	2.22133
4731.432	0.08639	0.48668	-0.52801	2.17205
4735.422	0.01859	0.51449	-0.61935	2.35161
4739.422	0.26994	0.47910	-0.55374	2.27486
4743.425	0.39008	0.36112	-0.58630	2.32858
4747.422	0.59861	0.19046	-0.49115	2.27041
4751.425	1.12859	0.12842	-0.59543	2.37387
4755.421	1.54542	0.31023	-0.55161	2.54378
4759.422	1.74707	0.15523	-0.37568	2.52217
4763.425	1.60573	0.18898	-0.33953	2.49180
4767.425	2.15983	-0.29380	-0.37459	2.43906
4771.427	5.00723	-1.66565	-0.36462	2.54501
4775.421	1.84530	-0.12731	-0.44341	2.68454
4779.423	0.79374	-0.08028	-0.34461	2.84274
4783.424	1.18115	0.04032	-0.36127	2.88180
4787.420	1.33559	0.08593	-0.43887	2.93729
4791.424	1.31399	0.18684	-0.54074	3.09910
4795.423	1.10058	0.37304	-0.52379	3.21718
4799.421	0.71608	0.41298	-0.52845	3.42064
4803.423	1.16247	-0.02628	-0.48947	3.41326
4807.424	0.94782	0.08920	-0.55262	2.04219
4811.426	0.73625	-0.73690	-0.76454	1.30526
4815.432	0.67816	-0.42573	-0.64379	1.30229
4819.423	0.64305	-0.11109	-0.71982	1.45255
4823.422	0.64622	-0.02987	-0.66163	1.64937
4827.425	0.62069	0.01170	-0.58262	1.62881
4831.450	0.41636	0.41464	-0.63506	1.51217
4835.428	0.39606	0.52245	-0.59657	1.63263
4839.421	-0.07890	0.69224	-0.40735	1.41697
4843.425	2.33110	0.24545	-0.37544	1.28689
4847.421	2.69490	-0.14575	-0.42629	1.33497
4851.423	2.50744	-0.01944	-0.40658	1.39507
4855.425	2.70872	-0.27427	-0.11235	1.36018
4859.429	2.86153	-0.50045	-0.02164	1.43303
4863.422	2.87940	-0.91736	-0.04787	1.31566
4867.420	2.67977	-0.62966	-0.15858	1.29024
4871.423	2.41943	-0.78136	-0.14575	1.46026
4875.422	2.30231	-1.05849	-0.09470	4.36740
4879.422	2.17601	-1.15127	-0.10816	4.16353
4883.419	1.97666	-1.30358	-0.18417	3.73792
4887.424	1.54401	-1.15603	-0.18566	3.91000
4891.423	1.30967	-1.32020	-0.23604	3.77992
4895.424	0.61429	-1.29998	-0.21683	3.66511
4899.423	1.02757	-1.39160	-0.19077	3.54686
4903.418	1.77077	-1.31386	-0.29022	3.25646
4907.420	1.85239	-1.33192	-0.34886	3.09331
4911.422	1.16585	-1.16336	-0.32903	3.17834
4915.421	1.29958	-0.96917	-0.34546	3.23965
4919.420	1.21804	-0.86491	-0.32990	3.18912
4923.456	1.22256	-0.99183	-0.34858	3.14943
4927.429	1.17113	-0.82429	-0.33754	3.19368
4931.425	1.18413	-0.55865	-0.31652	3.11433
4935.420	1.02365	-0.17031	-0.31536	3.13135
4939.297	1.23809	-1.22633	-0.30739	3.20555
4943.297	1.34643	-1.07540	-0.23664	3.12483
4947.303	1.43079	-1.11154	-0.26001	3.37269
4951.295	1.49436	-0.71403	-0.17273	3.43145
4955.296	1.19066	-0.33102	-0.09527	3.63519
4959.293	1.22481	-0.70003	0.03484	3.46528
4963.300	1.04813	-0.69056	-0.04596	3.29739
4967.294	0.66290	-0.57306	-0.10518	2.07337
4973.839	1.15717	-0.29954	-0.04797	1.26822
4976.587	0.53969	0.03181	-0.13302	1.41383
4979.322	0.89550	-0.10117	-0.09572	1.86640
4983.310	0.39224	0.14683	-0.24249	1.88483
4987.301	-0.54193	0.51750	-0.29791	1.84853
4991.299	-0.83372	0.20150	-0.52716	1.75457
4995.295	-0.37990	0.15997	-0.24780	1.84209
4999.295	-0.62196	0.26579	-0.55706	2.08028
5003.294	-0.57414	0.38834	-0.57672	1.98463
5007.298	-0.58233	0.45230	-0.38199	1.86617
5011.296	0.86781	0.46847	-0.45733	1.99660
5015.296	-0.54530	0.41245	-0.29883	2.00341
5019.292	0.68831	0.36813	-0.32419	2.04731
5023.297	1.06716	0.39870	0.23135	2.01340
5027.299	0.35434	0.45437	0.91693	2.14554
5031.302	3.99376	-1.26452	2.28901	2.20787
5035.293	3.92623	-0.37858	4.33892	1.88863
5039.328	4.18255	0.18483	5.98756	1.54292
5043.294	4.42644	-0.44010	4.90733	2.43176
5047.296	4.37436	0.38951	4.89863	2.82250
5051.294	3.84189	-0.30119	5.13929	2.75289
5055.293	3.96081	-1.05298	5.31827	3.01921
5059.291	4.26124	-1.05201	4.50103	3.02995
5063.297	4.39723	-1.14737	4.50313	3.06314
5067.301	5.53291	-1.23000	4.49630	2.81708
5071.297	5.71485	-1.52148	4.63664	2.88097
5075.291	5.60531	-1.57379	4.55591	2.97493
5079.294	5.46664	-1.16100	4.48091	3.05558
5083.292	6.06338	-1.30326	4.54518	2.96465
5087.293	6.51648	-1.51980	4.74363	2.97589
5091.292	6.09911	-2.09780	4.50162	2.95319
5095.292	5.49519	-2.15212	4.55736	2.82895
5099.293	5.96866	-1.45539	4.53462	2.75404
5103.291	5.79519	-2.14493	4.58271	2.64800
5107.291	5.68568	-2.43520	4.76367	2.62651
5111.298	6.19123	-1.32391	4.78129	2.67016
5115.300	5.65676	-1.85458	4.83439	2.45850
5119.293	5.37709	-1.84162	4.70298	2.29137
5123.292	4.58158	-1.80527	4.66346	1.76814
5127.289	4.93681	-1.90368	4.55897	1.76687
5131.295	4.02361	-5.63813	4.61948	1.89219
5135.292	4.84679	-1.43807	4.74188	1.69488
5139.293	4.62794	-1.57951	4.72674	1.75724
5143.289	4.83033	-0.02100	4.69329	1.90641
5147.294	4.43362	0.03989	4.51743	2.02392
5151.295	4.33137	-1.03836	4.46810	1.94515
5155.292	4.38536	-0.25408	4.44978	1.93710
5159.291	4.32476	-0.61138	4.44067	2.05652
5163.293	4.40177	-0.68683	4.35410	2.07158
5167.293	4.33705	-0.68473	4.41980	2.17875
5171.292	4.55211	-0.52441	4.44455	2.18986
5175.321	4.64788	-0.07269	4.48004	2.17256
5179.303	4.73318	-0.42676	4.47851	2.17487
5183.293	4.73286	-1.22122	4.48340	2.11073
5187.292	4.56999	-0.60888	4.53596	1.65966
5191.301	4.64662	-0.80873	4.52806	1.53238
5195.294	4.70574	-0.62235	4.55248	1.27737
5199.292	4.69640	-1.07377	4.61982	1.05801
5203.290	4.61216	-0.96557	4.61043	0.81300
5207.295	4.75908	0.00250	4.67998	0.56062
5211.291	4.79844	-1.12485	4.66344	1.05084
5215.286	4.76219	-1.15379	4.70155	1.72769
5219.294	4.70781	-1.56042	4.66396	2.91749
5223.292	4.61371	-1.47343	4.63982	3.05208
5227.292	4.56064	-1.48716	4.65715	3.06685
5231.288	3.96032	-1.52952	4.58663	2.30777
5235.299	4.55403	-1.61843	4.36039	0.50775
5239.292	4.47138	-1.52707	4.33179	1.40021
5243.299	4.05900	-1.54469	3.79976	0.87654
5247.294	4.17685	-1.32467	3.36317	0.92978
5251.323	4.76983	-1.61836	3.83776	1.00311
5255.293	4.19696	-1.69555	3.63495	0.99529
5259.290	4.34529	-1.74255	3.68297	1.13093
5263.290	4.43722	-1.62070	3.66202	1.67183
5267.290	3.98978	-1.62386	3.57923	1.93989
5271.292	3.27111	-1.49825	3.59802	2.03826
5275.294	4.01986	-1.50426	3.48867	2.32496
5279.292	3.57758	-1.50793	3.45942	2.27008
5283.288	3.62504	-1.35905	3.41016	2.50340
5287.292	4.07577	-1.21410	3.42393	2.47210
5291.291	4.02510	-1.31110	3.48669	2.63214
5295.288	3.79912	-1.34488	3.43608	2.80251
5299.291	4.65461	-1.04647	3.33782	2.78349
5303.290	4.01843	-1.61149	3.30581	2.83453
5307.287	4.13394	-1.27515	3.34519	2.88045
5311.294	4.81626	-1.18872	3.14647	2.93867
5315.289	5.24961	-0.82081	3.10193	2.99955
5319.292	5.54058	-1.37840	3.09629	2.98712
5323.291	6.13741	-1.65770	3.68809	3.00382
5327.288	5.48418	-0.86135	3.66693	2.95722
5331.290	NaN	NaN	3.29414	3.00933
5335.286	4.84339	-1.68449	3.38954	3.05762
5339.291	1.34375	-1.87066	3.25162	3.11170
5343.288	1.30915	-2.03202	3.48533	3.11852
5347.289	1.39460	-2.04371	3.57683	3.03757
5351.286	1.58949	-2.16803	3.31200	3.14060
5355.292	2.06699	-2.24990	3.41291	3.07291
5359.296	4.38845	-2.43128	3.35899	2.86670
5363.293	4.18193	-2.72566	3.35545	2.98255
5367.292	3.87621	-2.91479	3.43677	2.85474
5371.289	3.96286	-2.78363	3.40371	2.89079
5375.288	0.27294	-2.85426	3.32624	2.66018
5379.295	1.53071	-3.01687	3.35627	2.33461
5383.289	1.97389	-3.55648	3.70087	2.15533
5387.286	2.61013	0.22294	3.39898	2.10164
5391.287	2.37719	-3.34440	3.28672	2.05746
5395.288	3.83396	-3.84026	3.43355	1.90082
5399.292	4.08708	-0.34427	3.37633	1.92574
5403.300	1.31511	-0.04365	3.48917	1.85993
5407.287	2.15348	-3.47249	3.66473	1.70161
5411.286	1.85180	0.13079	3.46454	1.83569
5415.285	2.32880	-3.71978	3.46699	1.75347
5419.289	4.03120	-3.89179	3.62442	1.72981
5423.287	-0.06435	-3.66583	3.68431	1.75479
5427.287	2.52062	-3.71147	3.66394	1.66650
5431.291	2.21467	-3.45370	3.55676	1.79277
5435.286	3.06377	-3.38263	3.52168	2.01467
5439.288	4.25188	-3.41347	3.62781	2.09449
5443.291	2.36304	-3.38958	3.78012	2.13531
5447.285	2.78139	-2.97714	3.51335	2.17217
5451.287	3.09228	-2.55741	3.54999	2.52640
5455.289	3.85328	-2.69098	3.53819	2.81559
5459.290	3.87512	-1.50056	3.62242	2.69021
5463.302	3.18959	-2.75934	3.69664	2.84161
5467.285	3.13655	-2.52026	3.51070	2.65294
5471.284	3.22727	-2.65889	3.37094	3.00786
5475.288	3.53703	-2.94488	3.38419	2.86222
5479.285	4.14591	-4.05671	3.66389	2.75760
5483.289	2.14820	-1.28957	3.53852	2.53445
5487.291	1.59499	-3.73657	3.54465	1.90870
5491.282	3.18672	-1.60774	3.54232	2.01522
5495.289	3.14073	-1.74785	3.40309	1.57090
5499.285	3.90266	-2.83040	3.48276	3.59769
5503.287	4.42567	-3.44752	3.46098	3.13611
5507.283	1.75153	-3.12794	3.61824	2.52587
5511.287	2.07611	-3.36876	3.35456	2.90687
5515.314	3.39164	-4.28212	3.34994	2.93531
5519.287	4.55707	-4.97593	3.54044	2.65927
5523.285	1.78163	-5.11457	3.37074	2.56991
5527.288	2.53258	-5.36464	2.96168	2.56205
5531.287	3.99991	-5.78234	3.28603	2.57523
5535.287	1.54195	-4.94001	3.44715	2.67322
5539.288	2.39517	-5.30098	3.24184	2.65798
5543.284	3.20380	-5.16111	3.42426	2.88259
5547.286	-0.17154	-3.87238	3.38758	3.00244
5551.287	1.95014	-4.54914	3.01356	2.80481
5555.284	1.99731	-4.69075	3.49122	3.07097
5559.287	3.14768	-4.76131	4.78388	2.60827
5563.285	-0.63496	-3.86237	3.37499	2.18458
5567.290	1.47898	-3.38542	3.62158	2.25170
5571.282	1.46814	-3.63064	3.60160	1.68750
5575.287	1.43223	-3.63136	3.58185	1.53715
5579.285	1.83846	-3.57170	3.54682	2.57272
5583.287	2.26636	-3.85900	3.58704	3.63224
5587.288	2.52792	-4.11858	3.50205	3.67259
5591.286	2.88438	-4.58003	3.47856	3.42157
5595.284	3.16453	-5.34782	3.49404	2.63183
5599.287	3.43222	-6.01487	3.52348	1.99763
5603.285	3.31180	-3.08005	3.46884	1.73203
5607.290	-0.56694	-3.06193	3.44013	4.11648
5611.290	1.26991	-4.07579	3.39418	3.30237
5615.286	-0.43904	-4.87159	3.39510	2.78501
5619.285	1.26594	-2.09456	3.34920	2.57531
5623.282	1.97381	-2.85528	3.33139	2.37190
5627.287	3.84463	-2.95763	3.70771	4.03476
5631.283	3.85160	3.41560	0.47681	2.56301
5635.286	3.71515	4.97652	0.48582	8.56889
5639.282	1.94047	4.69244	NaN	NaN
5643.286	3.79430	4.80510	NaN	NaN
5647.283	NaN	NaN	NaN	NaN
5651.289	NaN	NaN	NaN	NaN
5655.293	NaN	NaN	NaN	NaN
5659.285	NaN	NaN	NaN	NaN
5663.284	NaN	NaN	NaN	NaN
5667.286	NaN	NaN	NaN	NaN
5671.288	NaN	NaN	NaN	NaN
5676.934	NaN	NaN	NaN	NaN
5681.203	NaN	NaN	NaN	NaN
5687.285	NaN	NaN	NaN	NaN
5691.289	NaN	NaN	NaN	NaN
5695.287	NaN	NaN	NaN	NaN
5699.284	NaN	NaN	NaN	NaN
5703.282	NaN	NaN	NaN	NaN
5707.282	NaN	NaN	NaN	NaN
5711.286	NaN	NaN	NaN	NaN
5715.283	NaN	NaN	NaN	NaN
5719.652	NaN	NaN	NaN	NaN
5723.284	NaN	NaN	NaN	NaN
5727.289	NaN	NaN	NaN	NaN
5731.283	NaN	NaN	NaN	NaN
5735.289	NaN	NaN	NaN	NaN
5739.286	NaN	NaN	NaN	NaN
5743.285	NaN	NaN	NaN	NaN
5747.299	NaN	NaN	NaN	NaN
5751.369	NaN	NaN	NaN	NaN
5755.364	NaN	NaN	NaN	NaN
5759.435	NaN	NaN	NaN	NaN
5763.586	NaN	NaN	NaN	NaN
5767.288	NaN	NaN	NaN	NaN
5771.475	NaN	NaN	NaN	NaN
5775.409	NaN	NaN	NaN	NaN
5779.446	NaN	NaN	NaN	NaN
5783.486	NaN	NaN	NaN	NaN
5787.304	NaN	NaN	NaN	NaN
5791.282	-22.58097	8.04357	NaN	NaN
5795.159	-22.66789	7.37103	NaN	NaN
5799.155	-22.31596	5.82186	NaN	NaN
5803.159	-22.30672	5.39009	NaN	NaN
5807.157	-22.18872	4.50375	NaN	NaN
5811.154	-22.13142	5.51191	NaN	NaN
5815.162	-21.03424	5.33475	NaN	NaN
5819.159	-20.98846	5.63684	NaN	NaN
5823.157	-22.54693	10.55818	NaN	NaN
5827.157	-20.94048	6.08403	NaN	NaN
5831.155	-22.29248	4.10687	NaN	NaN
5835.153	-21.56941	4.80268	NaN	NaN
5839.152	-21.39881	3.22600	-23.23122	2.25528
5843.153	-21.57765	2.71398	-23.12712	2.82566
5847.156	-21.59572	0.45550	NaN	NaN
5851.157	-21.38065	0.73539	-22.96131	2.01131
5855.159	-21.22870	0.35620	-22.84645	2.29865
5859.156	-20.86402	0.48626	-22.82419	2.31471
5863.166	-20.61074	1.02897	-22.85039	2.39602
5867.156	-20.26713	1.39969	-22.73740	2.46926
5871.188	-20.14745	2.18947	-22.59514	2.51865
5875.152	-20.45085	2.63975	-22.72828	2.64700
5879.156	-20.47666	2.73614	-22.85033	2.82837
5883.155	-20.43538	2.79920	-22.92829	2.87973
5887.155	-20.13358	3.57965	-22.84747	4.24596
5891.152	-19.94823	3.25420	-22.70702	3.51563
5895.153	-19.97321	3.00689	-22.64166	3.72124
5899.153	-20.06796	2.72630	-22.41900	4.36093
5903.153	-20.11089	2.52929	-22.45220	3.81886
5907.158	-19.83087	2.29978	-22.57895	3.70993
5911.152	-19.96498	2.44853	-22.96747	3.51155
5915.155	-19.80906	2.49030	-22.69889	3.87380
5919.151	-19.76360	2.30771	-22.36524	4.01086
5923.152	-19.81560	2.20984	-21.93100	4.07364
5927.179	-19.74418	2.29202	-22.07780	3.90832
5931.162	-19.86045	2.55621	-22.40014	3.07902
5935.158	-19.95036	3.23886	-22.40797	3.32876
5939.154	-19.94740	3.29191	-22.74654	4.17707
5943.151	-19.76518	3.15503	-22.70776	4.08879
5947.156	-19.76159	3.36132	-22.54852	4.27392
5951.161	-19.68342	2.84853	-22.22689	4.13879
5955.153	-19.59642	2.92860	-21.97966	4.23706
5959.155	-19.57730	2.86215	-21.64460	4.30808
5963.153	-19.67990	2.19613	-22.09806	3.17190
5967.155	-19.65206	1.67364	-22.29673	3.55246
5971.157	-19.61500	2.36267	-22.64023	4.25165
5975.151	-19.53723	3.08880	-22.56569	4.48774
5979.151	-19.29315	3.14041	-22.55282	4.71031
5983.156	-19.28810	3.30707	-22.43104	4.86563
5987.159	-19.43622	3.39541	-21.82761	5.30065
5991.159	-19.56980	3.10317	-21.76759	5.11262
5995.153	-19.64928	3.00470	-21.51593	5.04569
5999.157	-19.61011	3.03818	-21.43865	4.89519
6003.151	-19.69134	3.19275	-21.57244	4.71459
6007.151	-19.52495	3.59228	-22.23118	4.33581
6011.150	-19.66594	3.59786	-22.24183	4.17020
6015.154	-19.61586	3.75067	-21.88200	4.12604
6019.153	-19.52923	3.85431	-22.00735	4.59186
6023.154	-19.42105	3.95189	-22.04747	4.45987
6027.155	-19.51587	4.02746	-21.64621	4.49768
6031.157	-19.53064	3.90307	-21.61936	4.69387
6035.157	-19.37513	2.92724	-21.42903	4.62616
6039.151	-19.51042	2.35767	-21.48289	5.16730
6043.150	-19.31366	1.80733	-21.42942	4.79437
6047.154	-19.34767	2.14190	-21.56430	4.74699
6051.150	-19.33894	3.99919	-21.90467	4.11649
6055.155	-19.37409	3.61154	-21.82483	3.01627
6059.149	-19.01495	3.65238	-21.40568	2.47303
6063.155	-19.11139	3.21679	-21.18411	4.32582
6067.151	-19.05094	1.84949	-21.19863	4.53653
6071.194	-19.05926	2.09577	-21.43230	4.03320
6075.150	-18.99407	2.08803	-21.37577	3.95298
6079.152	-18.82609	2.34742	-22.06953	3.74330
6083.150	-18.85954	2.42820	-21.67095	3.30928
6087.152	-19.11934	3.46408	-21.21173	3.85807
6091.145	-19.11945	2.15041	-21.26311	2.84620
6095.150	-18.94831	2.10371	-21.27832	3.22424
6099.152	-18.92743	1.44334	-21.44826	3.77586
6103.149	-19.16769	3.14863	-21.33594	3.85998
6107.148	-19.71291	2.90316	-21.59982	3.85527
6111.150	-18.45920	2.64581	-21.39081	4.21300
6115.154	-18.73597	2.40862	-21.41934	4.16727
6119.156	-21.14844	1.52887	-21.35274	3.78789
6123.151	-18.91167	2.40240	-21.49863	3.72822
6127.151	-18.43861	1.97661	-21.54292	3.50772
6131.149	-20.08013	3.16239	-21.51067	3.41532
6135.148	-19.86975	1.17230	-21.52707	3.29787
6139.148	-19.23339	1.75820	-21.58858	2.53845
6143.148	-18.53020	1.42768	-21.59246	2.80096
6147.148	-18.34985	1.12381	-21.72209	3.75567
6151.154	-18.43490	0.89392	-21.45269	4.60556
6155.153	-18.32215	1.60948	-21.52269	4.60956
6159.147	-18.28470	1.47806	-21.87409	3.34977
6163.146	-18.31503	1.43859	-21.49354	3.91922
6167.153	-18.35271	1.41407	-21.45658	4.46276
6171.150	-18.49532	1.14229	-21.27225	4.39574
6175.151	-18.40676	-0.87300	-21.33455	4.09617
6179.153	-18.40354	1.42384	-21.45883	3.47534
6183.148	-18.41880	0.65574	-22.05207	3.48776
6187.146	-18.67116	-0.39890	-20.94364	4.19625
6191.146	-18.58195	1.74291	-20.89000	4.47954
6195.153	-18.55885	1.61221	-21.35580	4.06682
6199.151	-18.56462	3.44388	-22.39127	3.60283
6203.145	-17.77061	1.53698	-21.20519	4.36385
6207.152	-18.39605	3.98547	-21.54496	4.44823
6211.148	-18.84083	-0.34326	-21.23385	4.03564
6215.151	-18.15783	1.83396	-21.79392	3.50572
6219.146	-19.00079	1.07154	-21.41282	2.88504
6223.148	-18.50586	1.32890	-21.51051	2.48958
6227.148	-18.65187	1.41753	-21.55286	1.69108
6231.146	-18.67390	1.23383	-21.52295	1.63359
6235.143	-18.37475	1.34248	-21.45862	1.86141
6239.155	-18.21076	1.30798	-21.40819	2.44373
6243.153	-18.71641	1.39190	-21.45583	2.11891
6247.153	-18.02528	1.27078	-21.56920	1.77105
6251.148	-18.69062	1.06185	-21.58787	2.11863
6255.150	-18.04511	1.12561	-21.72985	2.82118
6259.147	-18.56763	0.73231	-21.66175	3.63510
6263.181	-17.84098	-2.05008	-21.69360	3.19060
6267.153	-18.24450	0.17122	-21.76517	3.74246
6271.145	-20.54970	0.31072	-21.40021	4.01946
6275.146	-17.84914	1.30994	-21.53837	4.01665
6279.155	-17.86578	0.85378	-21.52119	4.05039
6283.146	-17.87291	0.40211	-21.75650	4.17356
6287.142	-18.51090	2.44474	-20.48378	-12.04051
6291.151	-20.78977	7.91153	-20.29430	-12.05488
6295.148	-23.09598	6.79156	-20.20454	-12.06165
6299.147	-19.81776	3.98813	-20.15521	-12.06535
6303.148	-21.19210	11.02768	8.00014	7.82264
6307.147	-20.07950	-12.07102	-8.73827	12.44856
6311.143	-20.06551	-12.07207	-20.10758	-12.06892
6315.148	-19.98881	-12.07779	-20.04606	-12.07352
6319.147	-19.99059	-12.07766	-20.01912	-12.07553
6323.152	-19.99236	-12.07752	-19.99648	-12.07722
6327.146	-19.99396	-12.07741	NaN	NaN
6331.804	-20.02254	-12.07528	NaN	NaN
6335.292	-19.98916	-12.07776	NaN	NaN
6339.163	-19.98978	-12.07772	NaN	NaN
6343.151	-20.00214	-12.07680	NaN	NaN
6347.149	NaN	NaN	NaN	NaN
6351.148	NaN	NaN	NaN	NaN
6355.151	NaN	NaN	NaN	NaN
6359.165	NaN	NaN	NaN	NaN
6363.161	NaN	NaN	NaN	NaN
6367.157	NaN	NaN	NaN	NaN
6371.149	NaN	NaN	NaN	NaN
6375.277	NaN	NaN	NaN	NaN
6379.158	NaN	NaN	NaN	NaN
6383.288	NaN	NaN	NaN	NaN
6387.152	NaN	NaN	NaN	NaN
6391.147	NaN	NaN	NaN	NaN
6395.264	NaN	NaN	NaN	NaN
6399.709	NaN	NaN	NaN	NaN
6403.494	NaN	NaN	NaN	NaN
6407.676	NaN	NaN	NaN	NaN
6411.727	-0.16131	10.29088	22.77070	11.56452
6415.160	3.97081	0.15687	11.17104	8.96083
6419.147	3.93524	1.90168	0.64270	13.05870
6423.147	-1.81914	6.27161	NaN	NaN
6427.144	-1.49488	10.79051	-1.77457	10.35652
6431.147	1.47258	4.31598	8.37920	7.08070
6435.144	1.86270	2.20869	1.25748	1.48790
6439.148	2.14942	1.98666	0.28289	-2.70966
6443.145	4.40966	1.41190	-2.28628	-0.08561
6447.152	4.50833	-0.23878	1.53947	0.20707
6451.144	6.37199	-1.14224	5.17265	1.41839
6455.147	1.60873	3.66140	1.43357	1.07978
6459.141	2.45574	1.68001	-0.96271	0.06795
6463.143	2.93020	1.02162	-1.76229	-2.36514
6467.143	2.15076	1.35327	0.32161	-0.39516
6471.143	-0.77106	-0.82687	-1.92000	-1.64339
6475.147	1.95435	0.11394	-1.58408	-0.55331
6479.144	1.46856	-0.75477	-0.59372	1.29619
6483.145	1.83343	-0.35958	-0.14987	1.67368
6487.196	2.52354	-0.65771	1.64821	-0.26289
6491.148	2.04344	-0.19137	1.39026	-0.45581
6495.142	1.80900	0.23453	0.16459	-0.29995
6499.148	1.47439	-0.48834	1.24937	1.70700
6503.142	2.01072	0.01028	1.23288	1.75096
6507.141	2.14533	-0.47291	0.74613	0.69034
6511.141	1.80015	-0.57294	1.11077	-0.62144
6515.145	1.59251	-0.33846	1.18681	-0.17045
6519.144	1.96286	-0.00631	1.40832	0.63739
6523.145	1.72748	-0.64384	1.20254	1.11350
6527.143	1.95096	-0.91846	0.99410	1.00619
6531.151	1.70276	-1.34660	1.04493	1.97839
6535.170	2.03985	-1.06501	0.93222	0.23822
6539.147	1.69326	-1.01878	1.16771	-0.29097
6543.146	1.83799	-1.08477	1.19892	-0.06035
6547.144	1.79460	-0.40223	1.06632	-0.34817
6551.143	1.62770	-1.14195	1.20658	-0.38614
6555.141	1.72540	-0.65281	1.04612	-0.16855
6559.143	1.61042	-0.22139	1.01943	0.20110
6563.144	1.79423	-0.03425	0.94462	0.07551
6567.138	2.01122	-0.37399	1.06843	0.05508
6571.151	1.74412	-0.48964	0.93080	0.25492
6575.147	1.73467	-0.44223	1.07287	0.39617
6579.143	1.65409	-0.12971	1.17235	0.66062
6583.138	1.67432	-0.04786	1.14650	0.81016
6587.140	1.78188	0.00047	1.02350	0.76230
6591.144	1.98809	-0.57462	1.05520	0.95888
6595.142	1.69321	-0.10027	1.05230	0.97018
6599.146	1.68263	-0.09071	1.28117	0.84197
6603.138	1.64069	-0.31284	1.24838	1.13961
6607.146	1.81205	-0.44218	1.27197	0.91966
6611.147	1.90388	-0.51929	1.26679	1.11385
6615.144	1.63536	-0.88698	1.22930	1.22748
6619.142	1.44587	-0.58956	1.24773	1.19548
6623.142	1.82604	-0.54952	1.42315	1.04767
6627.137	2.19479	-3.65227	1.22722	1.13314
6631.145	2.43119	-3.51397	1.20621	1.12115
6635.142	2.34659	-3.68999	1.27120	0.89659
6639.142	1.72644	-0.69466	1.19492	0.69718
6643.138	1.85846	-0.87863	1.11581	0.83648
6647.019	2.22029	-3.29435	1.24451	0.73659
6651.016	2.57058	-3.10177	1.31692	0.63965
6655.017	1.73668	-2.32622	1.23836	0.59003
6659.019	1.59579	-2.08227	1.38014	0.69472
6663.020	2.13395	-1.55360	1.41055	0.62263
6667.014	1.67804	-2.57994	1.30633	0.95822
6671.045	1.82663	-1.74038	1.23077	0.67010
6675.025	1.61957	-1.40219	1.28713	0.52089
6679.015	1.68501	-1.45010	1.18701	0.57206
6683.016	1.63787	-1.57152	1.17329	0.57333
6687.016	1.76304	-1.84533	1.29591	0.89688
6691.015	2.36923	-2.10416	1.24379	1.01656
6695.018	2.52456	-1.50581	1.23603	1.32623
6699.019	3.31912	-1.70843	1.24590	1.09235
6703.019	2.02834	-1.71497	1.31394	1.22036
6707.015	1.53426	-1.63879	1.47283	1.43446
6711.016	1.13702	-1.84251	1.08105	0.64695
6715.012	0.96219	-1.63790	1.17614	0.55326
6719.017	1.17604	-1.73723	1.27061	0.57130
6723.016	2.97176	-1.81838	1.40259	0.66550
6727.017	3.64560	-3.49997	1.32096	1.26597
6731.014	3.09334	-1.72457	1.27661	1.32625
6735.017	3.18766	-1.86288	1.35725	1.57060
6739.813	2.72947	-1.66363	1.38743	1.58513
6743.035	3.03826	-1.76879	1.47804	1.72709
6747.018	3.05699	-1.92265	1.42737	1.45482
6751.012	3.32983	-3.25054	1.48166	1.62515
6755.013	1.19475	-1.78551	1.50557	1.50641
6759.015	1.76735	0.33013	1.55499	1.61048
6763.017	2.08468	0.06171	1.65121	1.29488
6767.011	1.57810	-0.11163	1.72726	1.19066
6771.014	3.62412	0.16856	1.88393	0.86764
6775.011	1.63680	-0.55106	2.12320	0.58465
6779.010	2.62687	-1.79414	2.04584	0.62965
6783.025	1.53560	-0.13322	2.06892	0.65919
6787.014	2.08719	0.13578	2.23189	0.43668
6791.013	1.56201	0.03182	2.20411	0.30286
6795.013	1.47310	-0.99873	2.12349	0.34802
6799.016	1.57495	-0.31146	2.24636	0.40855
6803.013	1.42915	-0.09840	2.22468	0.28676
6807.012	1.94749	-0.05275	2.16748	0.33808
6811.020	3.34823	-1.72623	2.10848	0.33248
6815.015	2.25223	-0.94440	1.98365	0.53412
6819.010	1.93802	-0.59130	1.83848	0.87589
6823.051	1.66152	-0.75711	1.64605	0.88988
6827.016	1.39924	-0.37483	1.55092	0.92591
6831.011	1.34562	-0.92274	1.48280	0.87363
6835.010	1.31377	-2.36970	3.72837	0.09567
6839.012	1.28112	-1.09355	3.17173	-0.07079
6843.015	0.99226	-1.33984	1.58832	-0.85385
6847.008	1.19470	-1.72170	1.48429	-0.70403
6851.010	0.89264	-2.24894	1.58170	-0.90603
6855.013	1.10224	-1.56276	1.31287	-0.73006
6859.013	0.97018	-1.29938	1.17766	-0.82258
6863.016	1.03414	-1.22989	1.32483	-0.69953
6867.016	1.04669	-1.59913	1.19123	-0.24695
6871.013	1.57657	-2.58114	1.45914	-0.62324
6875.021	4.89141	-2.81211	1.42285	-0.47866
6879.013	3.70210	-2.97385	1.65495	-0.15157
6883.010	3.54173	-2.39343	1.52258	-0.24510
6887.015	3.12135	-3.16197	1.41869	-0.02621
6891.012	3.12710	-3.19208	1.43816	-0.14338
6895.012	-1.71317	-6.54992	1.54631	0.11988
6899.015	1.90696	-3.17055	1.71521	0.29172
6903.010	0.95316	-3.21484	1.63216	0.09831
6907.016	0.84116	-3.05065	1.48000	0.25079
6911.013	0.99330	-3.54704	1.64813	0.36311
6915.015	-0.22514	-2.97988	1.67077	0.34625
6919.011	-0.63019	-3.05590	1.61595	0.44610
6923.082	-0.97130	-3.06330	1.66356	0.41569
6927.030	0.88480	-2.99633	1.63730	0.28637
6931.012	-0.19986	-3.08131	1.55348	0.44147
6935.009	2.72186	-3.16925	1.42308	0.30455
6939.011	2.48160	-3.21188	1.60739	0.33893
6943.014	0.41725	-3.36006	1.56977	0.18165
6947.013	0.35958	-3.02178	1.59078	0.16886
6951.013	0.32588	-4.13410	1.51231	-0.13041
6955.021	2.06151	-2.85959	1.51303	-0.10927
